BOXY.EXE: ISS Imagent and Oximeter Data Acquisition Program Version 0.80
Ascii Record File

#ACQ INFORMATION
2  Detector Channels 
16  External MUX Channels 
1  Auxiliary Channels 
5000  Waveform (CCF) Frequency (Hz)
1  Waveforms Skipped 
30  Waveforms Averaged 
1  Cycles Averaged 
16  Acquisitions per Waveform 
10.0806  Updata Rate (Hz) 

#FILE INFORMATION
TRUE -- External MUX Channel results are PARSED.
FALSE -- AC DC and Phase are NOT grouped.
TRUE -- Companion Program Settings File CREATED.
FALSE -- AC data not excluded
FALSE -- DC data not excluded
FALSE -- Phase data not excluded
FALSE -- Auxillary Chn. data not excluded
Tab delimiters

#CALIBRATION STATE
TRUE -- Waveform Calibration Values APPLIED.


#AUX CALIBRATION VALUES
Val Type	aux-1	

Term	1.0000e+00	
Factor	0.0000e+00	


#WF CALIBRATION VALUES
A = Detector Channel
Val Type	A-AC1	A-AC2	A-AC3	A-AC4	A-AC5	A-AC6	A-AC7	A-AC8	A-AC9	A-AC10	A-AC11	A-AC12	A-AC13	A-AC14	A-AC15	A-AC16	A-DC1	A-DC2	A-DC3	A-DC4	A-DC5	A-DC6	A-DC7	A-DC8	A-DC9	A-DC10	A-DC11	A-DC12	A-DC13	A-DC14	A-DC15	A-DC16	A-Ph1	A-Ph2	A-Ph3	A-Ph4	A-Ph5	A-Ph6	A-Ph7	A-Ph8	A-Ph9	A-Ph10	A-Ph11	A-Ph12	A-Ph13	A-Ph14	A-Ph15	A-Ph16	

Term	0.00000e+00	0.00000e+00	0.00000e+00	0.00000e+00	0.00000e+00	0.00000e+00	0.00000e+00	0.00000e+00	0.00000e+00	0.00000e+00	0.00000e+00	0.00000e+00	0.00000e+00	0.00000e+00	0.00000e+00	0.00000e+00	0.00000e+00	0.00000e+00	0.00000e+00	0.00000e+00	0.00000e+00	0.00000e+00	0.00000e+00	0.00000e+00	0.00000e+00	0.00000e+00	0.00000e+00	0.00000e+00	0.00000e+00	0.00000e+00	0.00000e+00	0.00000e+00	0.00000e+00	0.00000e+00	0.00000e+00	0.00000e+00	0.00000e+00	0.00000e+00	0.00000e+00	0.00000e+00	0.00000e+00	0.00000e+00	0.00000e+00	0.00000e+00	0.00000e+00	0.00000e+00	0.00000e+00	0.00000e+00	
Factor	1.00000e+00	1.00000e+00	1.00000e+00	1.00000e+00	1.00000e+00	1.00000e+00	1.00000e+00	1.00000e+00	1.00000e+00	1.00000e+00	1.00000e+00	1.00000e+00	1.00000e+00	1.00000e+00	1.00000e+00	1.00000e+00	1.00000e+00	1.00000e+00	1.00000e+00	1.00000e+00	1.00000e+00	1.00000e+00	1.00000e+00	1.00000e+00	1.00000e+00	1.00000e+00	1.00000e+00	1.00000e+00	1.00000e+00	1.00000e+00	1.00000e+00	1.00000e+00	X	X	X	X	X	X	X	X	X	X	X	X	X	X	X	X	

B = Detector Channel
Val Type	B-AC1	B-AC2	B-AC3	B-AC4	B-AC5	B-AC6	B-AC7	B-AC8	B-AC9	B-AC10	B-AC11	B-AC12	B-AC13	B-AC14	B-AC15	B-AC16	B-DC1	B-DC2	B-DC3	B-DC4	B-DC5	B-DC6	B-DC7	B-DC8	B-DC9	B-DC10	B-DC11	B-DC12	B-DC13	B-DC14	B-DC15	B-DC16	B-Ph1	B-Ph2	B-Ph3	B-Ph4	B-Ph5	B-Ph6	B-Ph7	B-Ph8	B-Ph9	B-Ph10	B-Ph11	B-Ph12	B-Ph13	B-Ph14	B-Ph15	B-Ph16	

Term	0.00000e+00	0.00000e+00	0.00000e+00	0.00000e+00	0.00000e+00	0.00000e+00	0.00000e+00	0.00000e+00	0.00000e+00	0.00000e+00	0.00000e+00	0.00000e+00	0.00000e+00	0.00000e+00	0.00000e+00	0.00000e+00	0.00000e+00	0.00000e+00	0.00000e+00	0.00000e+00	0.00000e+00	0.00000e+00	0.00000e+00	0.00000e+00	0.00000e+00	0.00000e+00	0.00000e+00	0.00000e+00	0.00000e+00	0.00000e+00	0.00000e+00	0.00000e+00	-1.89397e+02	-1.65226e+02	-1.57126e+02	-1.83573e+02	-7.86518e+01	-6.98634e+01	-1.59024e+02	-1.62015e+02	-7.23741e+01	-8.28070e+01	-1.70632e+02	-1.70941e+02	-1.78840e+02	-1.76518e+02	-1.05877e+02	-1.49938e+02	
Factor	3.42563e-05	9.17672e-05	3.45975e-05	1.69658e-01	8.77912e-07	9.10906e-07	1.63438e-01	4.72968e-02	9.51688e-07	1.02407e-06	8.13686e-02	2.67452e-02	2.20867e-02	8.52368e-03	9.30633e-07	1.22118e-02	6.57652e-07	6.67795e-07	1.85925e-07	8.48753e-02	7.31233e-09	7.30656e-09	7.73714e-02	2.37719e-02	7.30843e-09	7.30628e-09	3.87263e-02	1.27484e-02	1.10087e-02	4.19686e-03	7.29356e-09	5.76721e-03	X	X	X	X	X	X	X	X	X	X	X	X	X	X	X	X	



#DISTANCE SETTINGS
A = Detector Channel
A-1	A-2	A-3	A-4	A-5	A-6	A-7	A-8	A-9	A-10	A-11	A-12	A-13	A-14	A-15	A-16	

2.5000e+00	3.0000e+00	2.5000e+00	3.0000e+00	2.0000e+00	3.0000e+00	1.5000e+00	3.0000e+00	3.0000e+00	3.0000e+00	3.0000e+00	3.0000e+00	3.0000e+00	3.0000e+00	1.5000e+00	3.0000e+00	

B = Detector Channel
B-1	B-2	B-3	B-4	B-5	B-6	B-7	B-8	B-9	B-10	B-11	B-12	B-13	B-14	B-15	B-16	

1.0000e+01	1.0000e+01	1.0000e+01	1.4400e+00	1.0000e+01	1.0000e+01	1.5100e+00	1.9400e+00	1.0000e+01	1.0000e+01	1.9900e+00	2.4900e+00	2.4100e+00	2.9000e+00	1.0000e+01	2.9800e+00	




#DATA BEGINS
time	group	step	mark	flag	A-AC1	A-AC2	A-AC3	A-AC4	A-AC5	A-AC6	A-AC7	A-AC8	A-AC9	A-AC10	A-AC11	A-AC12	A-AC13	A-AC14	A-AC15	A-AC16	A-DC1	A-DC2	A-DC3	A-DC4	A-DC5	A-DC6	A-DC7	A-DC8	A-DC9	A-DC10	A-DC11	A-DC12	A-DC13	A-DC14	A-DC15	A-DC16	A-Ph1	A-Ph2	A-Ph3	A-Ph4	A-Ph5	A-Ph6	A-Ph7	A-Ph8	A-Ph9	A-Ph10	A-Ph11	A-Ph12	A-Ph13	A-Ph14	A-Ph15	A-Ph16	B-AC1	B-AC2	B-AC3	B-AC4	B-AC5	B-AC6	B-AC7	B-AC8	B-AC9	B-AC10	B-AC11	B-AC12	B-AC13	B-AC14	B-AC15	B-AC16	B-DC1	B-DC2	B-DC3	B-DC4	B-DC5	B-DC6	B-DC7	B-DC8	B-DC9	B-DC10	B-DC11	B-DC12	B-DC13	B-DC14	B-DC15	B-DC16	B-Ph1	B-Ph2	B-Ph3	B-Ph4	B-Ph5	B-Ph6	B-Ph7	B-Ph8	B-Ph9	B-Ph10	B-Ph11	B-Ph12	B-Ph13	B-Ph14	B-Ph15	B-Ph16	aux-1	digaux	

3817.904	1	1	0	256	0.35704	0.16884	0.30439	0.073391	0.080603	0.23883	0.068441	0.10149	0.2149	0.065015	0.27369	0.23603	0.15094	0.0367	0.031315	0.1262	-0.32708	-1.6458	-0.4875	-0.91458	-1.3771	-0.36875	-1.2833	-0.98125	-0.24167	-1.5146	-0.37708	-0.71458	-1.4688	-0.28958	-1.2208	-1.0438	243.241	397.351	385.415	401.244	227.879	445.096	428.331	446.204	419.700	506.717	462.906	278.122	369.223	525.181	423.852	226.544	0.00017605	8.2059e-05	2.6974e-05	138.7	1.0593e-06	9.9351e-07	299.86	38.681	1.6514e-06	8.8971e-07	101.72	33.913	12.009	5.9833	7.8958e-07	9.3525	4.5953e-06	1.7279e-06	5.6668e-07	119.23	1.8982e-08	2.6167e-08	257.35	32.913	3.0604e-08	1.5419e-08	85.132	28.277	10.17	5.0775	2.2078e-08	7.7355	499.875	234.423	248.734	187.733	303.722	315.115	185.123	193.848	297.510	325.862	189.677	194.806	199.609	203.080	273.651	199.384	-8191	255	
3818.000	1	1	0	0	0.29194	0.19992	0.07732	0.17727	0.1884	0.11475	0.056536	0.2213	0.091131	0.29449	0.24261	0.11161	0.11024	0.21118	0.21699	0.13343	-0.2125	-1.4333	-0.4	-0.65	-1.575	-0.59792	-1.2437	-1.2812	-0.4375	-1.6604	-0.76458	-0.72292	-1.6542	-0.36875	-1.075	-1.2062	305.492	344.741	265.879	357.098	492.729	342.265	521.945	455.193	366.369	198.559	215.958	362.535	245.269	250.702	298.765	473.294	0.00018027	0.00011034	1.9656e-05	140.27	5.9856e-07	4.3534e-07	302.03	38.695	5.1968e-07	9.8987e-07	102.04	33.319	11.928	6.0787	5.5236e-07	9.0646	4.8296e-06	1.7098e-06	6.0309e-07	120.16	1.7595e-08	2.4051e-08	258.31	32.791	3.0421e-08	1.4308e-08	84.94	28.094	10.147	5.0644	2.3051e-08	7.6411	505.567	224.125	239.211	187.993	318.392	330.914	185.006	193.191	341.378	329.984	189.632	194.941	198.451	201.809	268.940	199.097	-8191	255	
3818.096	1	1	0	0	0.077275	0.16119	0.39661	0.17687	0.19246	0.01058	0.13658	0.16898	0.013348	0.15584	0.34236	0.15252	0.29022	0.18898	0.11366	0.18314	0.095833	-1.3292	-0.74583	-0.75417	-1.3667	-0.42083	-1.2208	-1.1583	-0.11875	-1.4333	-0.67917	-0.67708	-1.5396	-0.41875	-1.0146	-1.1625	393.756	277.903	443.452	496.066	332.520	310.192	240.454	186.274	178.683	525.695	413.406	529.311	215.473	511.774	469.298	184.716	0.00015628	0.00013991	1.3613e-05	138.53	6.6991e-07	8.7308e-07	300.95	37.88	7.4313e-07	8.169e-07	100.68	33.47	11.998	6.07	7.1773e-07	9.3063	4.4871e-06	1.97e-06	4.9735e-07	119.51	1.9819e-08	2.4705e-08	256.7	32.492	2.7742e-08	1.8829e-08	84.57	28.13	10.1	5.0818	2.2929e-08	7.6956	506.433	210.484	196.665	188.319	296.575	322.254	185.070	193.952	292.992	311.487	189.315	195.371	198.928	202.143	263.288	199.599	-8191	255	
3818.192	1	1	0	0	0.11453	0.077252	0.069181	0.16014	0.053324	0.17044	0.077825	0.11968	0.23562	0.11724	0.23929	0.058406	0.1763	0.42087	0.090331	0.25612	-0.022917	-1.3208	-0.55833	-0.3625	-1.4958	-0.42292	-1.0417	-1.1354	-0.15208	-1.4521	-0.86042	-0.57292	-1.5646	-0.22708	-1.1875	-1.3979	493.621	275.647	503.709	360.339	288.107	490.538	189.135	391.677	177.806	247.515	234.105	225.242	502.757	468.136	250.816	479.274	0.00018167	0.00011789	2.6158e-05	138.63	8.6622e-07	8.2469e-07	297.09	37.89	7.4113e-07	6.9688e-07	102.07	33.571	11.97	6.0435	4.7294e-07	9.0998	4.8091e-06	1.8462e-06	4.5358e-07	119.4	1.6575e-08	2.0732e-08	256.27	32.474	3.2995e-08	1.6728e-08	85.033	28.288	10.081	5.0309	2.2473e-08	7.6327	501.309	231.503	204.425	188.362	295.329	361.033	185.459	193.920	318.942	295.586	188.815	194.797	197.796	202.182	251.369	199.579	-8191	255	
3818.287	1	1	0	0	0.22841	0.33102	0.11877	0.13763	0.11863	0.049714	0.072134	0.19263	0.077603	0.089196	0.1393	0.10321	0.19243	0.2259	0.31833	0.17567	-0.020833	-1.2125	-0.6375	-0.44792	-1.3771	-0.68542	-0.84583	-1.2167	-0.44792	-1.4208	-0.87708	-0.46875	-1.2833	-0.55833	-1.0271	-1.3271	253.602	460.578	535.464	386.036	245.286	351.214	530.778	365.775	379.156	206.479	440.027	231.778	344.855	451.636	308.527	524.961	0.00016549	8.4428e-05	3.2225e-05	138.46	8.0097e-07	9.1578e-07	295.15	38.325	6.1342e-07	3.7165e-07	101.91	33.541	12.131	6.062	9.1588e-07	9.3004	4.5816e-06	1.7738e-06	4.5358e-07	119.11	1.7062e-08	2.1311e-08	255.23	32.619	2.7422e-08	1.6378e-08	84.963	28.249	10.198	5.064	2.2808e-08	7.7275	501.062	235.139	272.283	187.077	310.385	308.049	185.304	194.134	275.373	270.175	188.806	194.888	197.599	202.185	296.837	200.166	-8191	255	
3818.383	1	1	0	0	0.20571	0.13779	0.081372	0.17684	0.19586	0.21459	0.14211	0.42429	0.19593	0.12132	0.29667	0.37877	0.13202	0.036229	0.17057	0.088487	-0.18333	-1.1271	-0.99792	-0.59583	-1.4583	-0.67708	-0.63542	-1.2771	-0.30417	-1.0708	-0.90417	-0.30833	-1.4125	-0.69792	-0.71667	-1.3667	513.814	328.103	431.546	338.333	354.629	380.818	508.830	392.101	533.817	313.722	276.326	233.027	344.781	388.317	390.164	533.400	0.00017349	9.4615e-05	3.1271e-05	140.93	1.1502e-06	8.2495e-07	300.17	38.772	7.5021e-07	1.3535e-06	101.57	33.904	11.951	6.0397	4.6563e-07	9.2059	4.7228e-06	1.6264e-06	5.02e-07	120.52	2.18e-08	1.7277e-08	258.14	32.903	2.9843e-08	2.0534e-08	84.837	28.253	10.121	5.0527	2.4844e-08	7.6873	496.283	246.206	213.824	187.536	296.733	324.488	184.741	193.974	313.615	294.745	189.216	194.144	198.445	202.523	319.101	199.613	-8191	255	
3818.479	1	1	0	0	0.1632	0.20093	0.052165	0.3516	0.073387	0.2767	0.13561	0.15173	0.15448	0.29137	0.071617	0.2694	0.2616	0.2119	0.24013	0.054471	0.041667	-1.1979	-1.0604	-0.17292	-1.2125	-0.66042	-0.67292	-1.3312	-0.26667	-1.1938	-1.1354	-0.03125	-1.2833	-0.56667	-0.42292	-1.3813	433.685	509.764	368.757	303.337	439.573	382.753	406.596	492.551	439.217	478.566	389.682	439.150	221.128	344.795	175.480	311.340	0.00019005	6.6662e-05	1.7331e-05	140.35	5.6128e-07	6.905e-07	297.9	37.766	8.1231e-07	2.307e-07	101.55	33.821	12.377	6.0447	9.5174e-07	9.2568	4.8625e-06	1.8573e-06	4.5978e-07	120.3	1.662e-08	1.8632e-08	256.78	32.627	2.969e-08	1.5374e-08	85.198	28.388	10.271	5.0751	2.3704e-08	7.7169	497.722	211.827	284.117	187.335	313.893	306.445	184.771	193.154	300.814	325.543	189.159	194.675	198.244	199.976	271.804	197.861	-8191	255	
3818.575	1	1	0	0	0.15859	0.16545	0.22978	0.20369	0.1518	0.27587	0.0052027	0.24543	0.27847	0.17451	0.31316	0.043379	0.28058	0.15798	0.14744	0.267	-0.020833	-1.1187	-1.0583	-0.095833	-1.3125	-0.54375	-0.6375	-1.4271	-0.39583	-1.0458	-1.1562	-0.079167	-1.2687	-0.55208	-0.52917	-1.3521	228.586	314.924	483.253	385.214	300.356	302.382	226.070	502.124	357.831	295.330	477.784	443.808	225.701	341.737	256.700	231.760	0.0001652	0.00012109	1.9967e-05	139.26	6.58e-07	6.1615e-07	294.84	38.284	5.6016e-07	5.8477e-07	101.11	33.629	12.101	6.0413	9.1642e-07	9.3609	4.7008e-06	1.9018e-06	3.9393e-07	119.14	2.0429e-08	1.9606e-08	255.62	32.772	2.5564e-08	2.0305e-08	84.819	28.305	10.187	5.0521	2.2899e-08	7.8265	503.734	247.748	207.279	187.003	302.996	294.090	184.435	192.592	320.928	262.872	188.740	194.122	198.618	201.536	271.484	198.937	-8191	255	
3818.696	1	1	0	0	0.39624	0.12479	0.18523	0.13423	0.22339	0.1661	0.22405	0.25714	0.45834	0.11457	0.26781	0.15951	0.29463	0.041204	0.30351	0.25912	-0.0875	-0.87292	-1.0833	-0.15625	-1.3958	-0.77292	-0.32292	-1.2833	-0.47708	-0.73125	-1.225	-0.32292	-1.2563	-0.99792	-0.53542	-1.3208	438.925	379.806	449.599	390.893	367.898	340.640	253.281	328.809	443.260	319.431	375.230	385.586	406.336	261.223	282.451	394.152	0.00015449	8.6413e-05	4.1773e-05	138.31	2.9119e-07	7.2743e-07	295.46	37.587	6.8129e-07	1.1832e-06	101.86	33.659	12.187	5.9941	6.4914e-07	9.32	4.3789e-06	1.9658e-06	4.6443e-07	117.79	1.6575e-08	1.9119e-08	254.72	32.292	2.7148e-08	1.9529e-08	84.865	28.339	10.087	5.0871	2.1622e-08	7.7584	499.941	227.108	234.922	186.859	260.597	327.166	184.015	193.312	348.865	311.322	188.212	194.064	197.449	200.992	267.177	199.457	-8191	255	
3818.792	1	1	0	0	0.17222	0.057443	0.095818	0.13652	0.29091	0.15815	0.47062	0.20221	0.4056	0.20466	0.053002	0.10036	0.24579	0.38755	0.018135	0.043452	-0.022917	-0.77292	-1.2313	-0.36458	-1.1521	-1.0063	-0.45625	-1.4229	-0.475	-0.76042	-1.15	-0.39792	-0.97083	-0.76042	-0.3875	-1.3062	257.257	492.018	435.968	233.100	284.626	212.211	463.476	381.665	468.146	519.666	400.146	318.973	347.297	234.829	197.046	398.514	0.00017904	7.5119e-05	2.6488e-05	133.32	3.1142e-07	7.2523e-07	295.74	37.709	1.0469e-06	8.0456e-07	100.36	33.173	11.787	5.9056	3.8552e-07	9.2255	4.472e-06	2.0799e-06	4.0942e-07	116.72	1.8128e-08	1.6394e-08	253.63	32.355	2.7133e-08	1.9209e-08	84.447	28.133	9.974	4.9826	2.4753e-08	7.6207	497.033	256.971	238.568	186.182	281.268	316.990	184.590	193.193	301.691	326.806	189.204	193.937	197.792	200.659	299.394	199.236	-8191	255	
3818.888	1	1	0	0	0.25154	0.085648	0.14557	0.22926	0.05942	0.040274	0.15805	0.01735	0.10176	0.099078	0.31754	0.16609	0.14118	0.29506	0.20835	0.20268	-0.15417	-0.70833	-1.3667	-0.3875	-0.99792	-1.0521	-0.31042	-1.2021	-0.64792	-0.64167	-1.1917	-0.49167	-1.1146	-0.98333	-0.525	-1.2708	490.442	358.769	416.473	333.697	184.240	289.001	410.861	207.715	223.260	521.526	353.398	388.104	371.323	467.767	335.832	486.280	0.00016181	6.9726e-05	2.1237e-05	135.05	9.0666e-07	6.3211e-07	292.7	37.82	6.1092e-07	8.9301e-07	101.04	33.158	11.785	6.0656	5.2044e-07	9.1079	4.3487e-06	2.0743e-06	3.3118e-07	116.52	1.8311e-08	1.507e-08	251.61	32.238	2.2047e-08	1.819e-08	84.28	28.136	10.035	5.0511	2.7336e-08	7.6001	507.060	237.425	207.961	187.113	305.592	303.089	184.377	192.050	274.323	316.793	188.822	194.342	197.468	200.497	304.662	198.705	-8191	255	
3818.984	1	1	0	0	0.47264	0.11842	0.21415	0.32116	0.16608	0.093637	0.20036	0.23618	0.10283	0.11204	0.19096	0.27914	0.14866	0.16745	0.43578	0.060408	-0.27917	-0.68958	-1.3667	-0.48958	-1.1667	-1.1583	-0.27917	-1.2896	-0.50833	-0.57083	-1.4229	-0.25	-1.1729	-1.1063	-0.39792	-1.5708	519.043	336.663	175.790	258.190	476.744	183.067	486.663	184.438	318.287	379.911	484.770	515.571	360.804	380.508	455.345	233.937	0.00017917	5.7792e-05	2.8402e-05	136.98	6.8755e-07	7.2911e-07	291.79	37.254	3.3878e-07	1.1151e-06	101.97	33.745	12.051	6.0092	4.5591e-07	9.1404	4.5241e-06	2.098e-06	3.6798e-07	117.27	1.9271e-08	1.4765e-08	252.17	32.321	2.36e-08	2.0716e-08	84.997	28.313	10.146	5.0348	2.612e-08	7.7284	501.116	223.870	204.759	186.793	315.900	337.594	184.484	193.603	249.076	303.028	188.424	193.668	197.235	200.312	277.364	199.298	-8191	255	
3819.080	1	1	0	0	0.14302	0.14147	0.19302	0.2353	0.084828	0.11298	0.23174	0.070897	0.26017	0.22285	0.11581	0.06971	0.30328	0.15419	0.24441	0.28084	-0.2375	-0.55417	-1.3271	-0.28542	-0.82917	-1.0771	-0.56042	-1.4188	-0.8	-0.46875	-1.5417	-0.34792	-0.94583	-1.1583	-0.3	-1.3271	216.765	384.276	492.929	348.322	280.241	455.031	224.733	274.563	414.154	192.710	473.573	343.773	529.101	241.329	522.710	410.667	0.00021418	5.8956e-05	2.9219e-05	139.19	6.4869e-07	2.8056e-07	293.93	38.146	9.4212e-07	7.0664e-07	101.68	34.439	12.106	6.0682	3.1244e-07	9.3581	4.72e-06	2.2455e-06	3.5132e-07	118.29	1.9058e-08	1.5907e-08	255	32.794	2.3524e-08	2.3563e-08	85.7	28.726	10.159	5.0794	2.4889e-08	7.763	497.346	256.231	234.859	186.375	297.081	241.688	184.271	192.534	287.715	333.401	189.010	193.295	198.203	201.772	276.354	198.872	-8191	255	
3819.176	1	1	0	0	0.2476	0.39987	0.32367	0.11552	0.17352	0.093552	0.071478	0.12514	0.20471	0.25937	0.10996	0.19639	0.0976	0.11226	0.11206	0.24714	-0.46458	-0.41875	-1.2854	-0.24583	-0.87292	-1.1313	-0.43333	-1.1667	-0.95833	-0.43125	-1.1771	-0.45625	-0.84792	-1.1083	-0.34375	-1.2104	473.348	431.594	267.061	364.834	478.481	503.611	453.974	356.808	504.364	432.173	389.795	326.318	191.597	208.025	499.373	477.514	0.00016955	6.4069e-05	2.4822e-05	138.46	5.9973e-07	6.1126e-07	297.13	38.481	1.0811e-06	7.5247e-07	102.9	33.594	12.103	5.9586	8.5519e-07	9.0965	4.494e-06	2.0618e-06	4.0671e-07	118	2.1846e-08	1.9697e-08	255.94	32.872	2.5275e-08	2.0321e-08	85.926	28.436	10.164	5.0335	2.6667e-08	7.6619	499.953	266.999	254.043	186.404	284.005	310.141	184.339	192.578	316.749	358.775	188.703	193.972	197.571	200.907	289.100	199.255	-8191	255	
3819.297	1	1	0	0	0.3821	0.25515	0.08553	0.15718	0.28786	0.16425	0.059174	0.028131	0.26786	0.35577	0.38254	0.146	0.33253	0.17072	0.20729	0.070945	-0.64167	-0.21667	-1.4792	-0.39167	-0.77917	-1.4062	-0.29375	-1.2646	-1.2896	-0.15833	-1.5833	-0.47708	-0.59792	-1.6167	-0.2625	-1.1875	474.953	492.975	393.630	358.038	462.553	347.778	219.777	281.795	338.007	250.565	189.093	206.413	482.910	294.522	445.325	530.311	0.00016443	0.00010249	3.74e-05	137.82	1.0981e-06	1.3928e-06	294.78	37.842	6.1591e-07	6.7915e-07	102.66	33.441	11.898	6.0218	7.2685e-07	9.0742	3.9898e-06	2.45e-06	3.5287e-07	117.94	2.439e-08	1.3563e-08	253.41	32.494	2.0129e-08	2.4659e-08	85.812	28.017	10.077	5.011	2.495e-08	7.6076	495.361	237.654	245.955	187.440	277.724	326.012	184.618	193.431	293.982	294.009	188.475	194.062	196.536	200.336	276.871	198.385	-8191	255	
3819.392	1	1	0	0	0.18968	0.26225	0.025359	0.080673	0.24588	0.16457	0.21223	0.23745	0.25333	0.13297	0.11919	0.16325	0.14679	0.089306	0.075357	0.17177	-0.79167	-0.29583	-1.3854	-0.42292	-0.75208	-1.3292	-0.35625	-1.1063	-1.0417	-0.29375	-1.4146	-0.63542	-0.65625	-1.3417	-0.275	-1.1729	437.789	278.426	207.845	413.205	187.408	492.597	385.658	217.758	294.628	361.683	445.487	304.873	187.113	253.689	285.736	313.049	0.00017252	4.4317e-05	1.4353e-05	137.29	4.6548e-07	5.68e-07	292.7	38.054	4.8555e-07	7.4102e-07	101.84	33.895	12.145	5.9816	3.6498e-07	9.2913	4.346e-06	2.6114e-06	3.7301e-07	117.68	2.2851e-08	1.3502e-08	253.22	32.698	2.057e-08	2.2558e-08	85.429	28.438	10.164	5.0261	2.3218e-08	7.7253	495.456	260.803	302.232	187.137	254.624	341.272	185.009	192.695	219.929	334.634	189.105	194.143	197.976	201.860	299.293	198.428	-8191	255	
3819.488	1	1	0	0	0.18687	0.23688	0.15078	0.10957	0.10431	0.051072	0.23138	0.23497	0.13469	0.081362	0.11435	0.20305	0.09168	0.091609	0.19329	0.1075	-0.69375	-0.38125	-1.3937	-0.90208	-0.53125	-1.3979	-0.43958	-0.97083	-1.2896	-0.26458	-1.4917	-0.83333	-0.74375	-1.4667	-0.4875	-0.91458	369.423	234.754	408.602	403.538	350.256	468.882	412.834	213.821	467.103	478.464	414.884	509.118	246.380	444.684	216.371	219.983	0.00017526	7.974e-05	3.0676e-05	135.86	1.1113e-06	9.1914e-07	296.31	38.601	8.9929e-07	1.3564e-06	102.3	34.375	11.977	5.9632	2.3042e-07	9.4613	4.124e-06	2.5056e-06	4.2182e-07	116.87	2.4283e-08	1.437e-08	253.94	32.809	1.9352e-08	2.545e-08	85.86	28.804	10.063	5.0597	2.6576e-08	7.8354	506.393	220.101	209.164	187.328	307.148	328.573	185.566	193.512	290.650	303.148	189.710	194.201	199.525	201.478	314.727	200.403	-8191	255	
3819.584	1	1	0	0	0.1286	0.24147	0.1447	0.078967	0.092618	0.28454	0.23345	0.11549	0.19358	0.052308	0.30164	0.16858	0.064928	0.095836	0.057166	0.31946	-1.0562	-0.22917	-1.275	-0.7	-0.68958	-1.3708	-0.5	-1.0396	-1.2167	-0.19375	-1.3646	-0.8125	-0.60625	-1.4417	-0.43125	-0.84792	289.574	454.002	294.036	482.372	355.385	416.923	527.168	388.023	453.726	237.037	517.588	416.831	474.982	214.970	291.739	453.947	0.00016799	0.00014904	1.3902e-05	136.24	8.3735e-07	7.9742e-07	290.91	38.121	6.3872e-07	1.0778e-06	102.82	33.951	12.304	6.0325	4.3231e-07	9.3807	4.0295e-06	2.5807e-06	2.8392e-07	117.78	2.2348e-08	1.2969e-08	253.03	32.832	1.9443e-08	2.2939e-08	86.022	28.605	10.27	5.1001	2.302e-08	7.802	505.481	229.214	527.761	187.460	305.145	353.097	185.965	194.105	344.903	301.549	190.112	195.003	198.425	201.800	284.393	200.090	-8191	255	
3819.680	1	1	0	0	0.26809	0.18609	0.093397	0.31983	0.25524	0.23492	0.35166	0.21586	0.095808	0.012287	0.18822	0.17225	0.277	0.16517	0.25042	0.19033	-1.0167	-0.22292	-1.4021	-1.0312	-0.20417	-1.4646	-0.43958	-0.71458	-1.4562	-0.59583	-1.1812	-0.8625	-0.67917	-1.5083	-0.54792	-0.87083	229.876	270.261	241.695	423.604	368.803	346.623	505.620	293.881	329.684	260.997	228.849	495.594	485.266	458.767	199.367	367.676	0.00018635	4.2749e-05	2.5293e-05	136.77	8.1908e-07	9.1373e-07	295.4	38.074	1.2357e-06	8.2572e-08	102.58	33.816	12.04	6.1953	6.1186e-07	9.421	3.9226e-06	2.3262e-06	4.0632e-07	118.11	2.3156e-08	1.8327e-08	254.75	32.727	2.1179e-08	2.1006e-08	86.38	28.639	10.186	5.1881	2.3583e-08	7.8102	503.757	275.141	255.924	187.819	351.588	293.712	185.294	194.322	306.385	336.324	189.580	195.431	198.251	201.564	245.923	200.840	-8191	255	
3819.776	1	1	0	0	0.22519	0.087585	0.20267	0.253	0.32109	0.085314	0.23353	0.34831	0.15086	0.20836	0.23589	0.28798	0.28875	0.28433	0.11717	0.13746	-1.2	-0.38542	-1.1583	-0.94792	-0.6	-1.525	-0.73125	-0.64167	-1.3417	-0.61458	-1.1625	-0.9625	-0.05	-1.3875	-0.60625	-0.59375	511.785	504.725	277.420	184.222	210.358	367.741	285.788	392.237	222.531	378.388	522.827	319.193	476.109	213.339	507.025	457.144	0.00016288	6.4466e-05	2.6225e-05	136.72	3.5604e-07	9.8889e-07	293.05	38.036	7.9579e-07	4.3503e-07	103.08	34.846	12.277	6.0086	3.1976e-07	9.406	3.7335e-06	2.3484e-06	5.3531e-07	117.53	2.57e-08	1.5755e-08	252.7	32.768	1.719e-08	2.4141e-08	86.306	28.889	10.256	5.1537	2.1242e-08	7.9339	501.371	220.395	246.168	188.266	276.792	326.629	184.680	194.549	321.537	331.460	188.976	194.159	197.355	201.710	294.082	199.745	-8191	255	
3819.872	1	1	0	0	0.14536	0.062425	0.20002	0.03969	0.055777	0.16798	0.36724	0.040987	0.13062	0.17689	0.13453	0.12427	0.45959	0.19533	0.18087	0.14222	-1.1146	-0.33542	-1.1167	-1.1	-0.20625	-1.4125	-0.6	-0.48958	-1.5042	-0.39583	-1.1021	-1.0063	-0.3625	-1.2146	-1.0396	-0.51042	367.704	185.595	267.793	485.274	461.786	305.180	492.245	390.974	484.668	534.326	312.288	399.588	184.370	351.608	231.224	206.123	0.00019004	5.4239e-05	1.9876e-05	137.95	1.2153e-06	3.3482e-07	299.31	38.699	1.8983e-07	3.0797e-07	101.84	34.72	12.329	6.1793	1.0224e-06	9.5465	4.0103e-06	2.3582e-06	4.3692e-07	118.01	2.439e-08	1.2254e-08	254.78	33.094	1.9489e-08	2.2101e-08	86.538	28.986	10.275	5.237	2.2367e-08	8.0395	497.461	217.085	214.428	187.144	323.968	283.867	184.997	193.206	313.669	316.654	189.491	194.771	198.166	202.512	295.404	199.127	-8191	255	
3819.993	1	1	0	0	0.30831	0.1631	0.18439	0.20684	0.14654	0.086658	0.054307	0.095975	0.071918	0.12049	0.19392	0.13761	0.22928	0.25434	0.17845	0.049174	-1.1917	-0.60417	-0.82292	-1.1417	-0.30833	-1.3375	-0.79375	-0.62708	-1.3	-0.59375	-0.84375	-1.0479	-0.42083	-1.2125	-0.89583	-0.60417	246.973	285.242	302.190	236.959	267.374	361.309	185.119	177.110	340.195	292.767	453.086	319.170	255.479	511.923	507.073	316.480	0.00022157	8.1334e-05	2.4255e-05	138.61	5.1712e-07	4.6973e-07	297.29	38.298	6.6489e-07	4.6587e-07	103.04	34.476	12.235	6.2805	5.9475e-07	9.5662	4.572e-06	2.482e-06	4.9076e-07	119	2.506e-08	1.7094e-08	256.43	33	1.818e-08	2.1203e-08	86.542	29.058	10.268	5.2691	2.5072e-08	7.981	500.437	251.886	247.917	187.545	322.216	315.431	184.578	193.463	274.252	261.353	189.615	195.410	199.693	201.815	290.766	199.934	-8191	255	
3820.089	1	1	0	0	0.22427	0.35956	0.14692	0.15182	0.17047	0.090205	0.27274	0.23877	0.068169	0.061159	0.32897	0.028993	0.1763	0.1277	0.16268	0.34787	-0.84167	-0.36042	-0.80417	-1.1625	-0.3	-1.0854	-0.95	-0.275	-1.3667	-0.60208	-0.80417	-1.3958	-0.38333	-1.2125	-0.91042	-0.38125	527.570	415.933	349.947	236.148	528.372	524.354	394.155	518.671	253.572	230.424	447.866	470.604	257.973	451.069	284.379	307.456	0.00016634	6.6515e-05	5.2808e-05	139.66	5.7499e-07	6.8563e-07	293.59	38.405	8.2927e-07	8.2526e-07	102.87	34.415	12.217	6.1865	6.0215e-07	9.6649	3.8774e-06	2.2524e-06	4.9812e-07	118.56	2.4923e-08	1.5161e-08	253.64	32.933	2.1712e-08	2.1021e-08	86.417	28.939	10.267	5.2456	1.9829e-08	8.0125	504.997	224.804	233.776	187.495	316.043	329.119	185.111	193.632	276.076	346.105	189.182	194.044	197.392	201.608	260.270	198.577	-8191	255	
3820.161	1	1	0	0	0.10493	0.21202	0.15109	0.13267	0.037127	0.29349	0.16168	0.30146	0.30545	0.17999	0.15627	0.27494	0.11244	0.33694	0.13916	0.20208	-0.95833	-0.5625	-0.49167	-1.2313	-0.39792	-1.2	-1.1479	-0.49375	-1.2771	-0.65833	-0.80833	-1.2646	-0.36042	-1.2188	-1.1167	-0.37708	525.462	235.658	392.472	461.417	415.417	345.370	283.292	397.886	349.775	390.285	253.705	437.005	461.567	334.000	250.957	470.304	0.0001793	9.497e-05	2.2841e-05	135.98	5.6553e-07	6.6689e-07	295.08	38.437	7.5434e-07	1.0886e-06	103.71	35.024	12.392	6.4024	2.3581e-07	9.6553	4.4186e-06	2.2037e-06	5.4654e-07	117.62	2.2699e-08	2.1539e-08	253.68	33.033	1.8058e-08	2.166e-08	87.147	29.33	10.391	5.3293	1.6745e-08	8.1354	503.495	228.496	183.872	187.307	305.729	300.538	184.108	192.463	287.421	315.951	189.394	193.587	197.799	200.326	314.926	198.862	-8191	255	
3820.257	1	1	0	0	0.042297	0.22477	0.20152	0.027455	0.41267	0.18849	0.36385	0.15719	0.16725	0.25722	0.0921	0.18137	0.076188	0.10463	0.24132	0.0065457	-1.1562	-0.46042	-0.56875	-1.45	-0.29375	-1.2896	-1.2792	-0.33333	-1.4833	-0.68542	-0.65417	-1.6833	-0.55417	-1.0583	-1.1375	-0.25417	407.821	337.905	400.541	265.754	311.393	198.500	423.322	465.520	303.963	288.175	418.381	308.345	246.713	367.102	365.723	264.872	0.00016914	5.1515e-05	1.8933e-05	139.71	9.15e-07	3.3093e-07	297.95	38.299	5.7248e-07	7.6393e-07	104.29	34.847	12.262	6.3329	5.7134e-07	9.8689	3.7829e-06	2.1495e-06	5.4073e-07	118.38	2.9006e-08	1.166e-08	255.26	33.095	2.022e-08	2.1706e-08	87.405	29.392	10.327	5.3972	2.3051e-08	8.2158	496.979	212.479	191.124	186.722	302.402	308.356	184.898	194.300	294.007	312.001	188.792	194.036	198.660	201.731	321.119	198.849	-8191	255	
3820.376	1	1	0	0	0.2043	0.19509	0.19479	0.20174	0.13655	0.11513	0.13161	0.12208	0.043931	0.23622	0.069934	0.19169	0.20619	0.09442	0.15055	0.095902	-1.0812	-0.61667	-0.40208	-1.4521	-0.26667	-1.0958	-1.1167	-0.17708	-1.3563	-0.85833	-0.50833	-1.4042	-0.49167	-1.1875	-1.2792	-0.28333	313.110	201.812	332.417	418.988	386.319	520.995	491.792	325.267	375.781	446.002	239.842	533.136	196.553	427.030	531.650	201.108	0.00017624	7.5132e-05	3.6932e-05	136.69	7.634e-07	5.4586e-07	295.61	39.027	9.7793e-07	6.9014e-07	103.11	34.695	12.359	6.4009	3.0667e-07	9.8931	3.9459e-06	2.2914e-06	5.7327e-07	117.74	2.5273e-08	1.9728e-08	253.19	33.023	1.9809e-08	1.8342e-08	86.585	29.198	10.289	5.3514	1.5043e-08	8.1785	504.117	248.564	243.447	187.281	304.311	342.219	184.922	194.388	304.426	344.675	189.812	194.494	199.191	202.471	235.476	198.822	-8191	255	
3820.472	1	1	0	0	0.21652	0.059521	0.161	0.18679	0.20126	0.18161	0.011809	0.11034	0.11012	0.27627	0.18279	0.22198	0.070742	0.10802	0.05951	0.1984	-1.1063	-0.62083	-0.49375	-1.4438	-0.65	-0.95833	-1.2938	-0.42083	-1.3271	-0.80208	-0.425	-1.4208	-0.49167	-0.7625	-1.2396	-0.38333	186.437	277.169	397.177	472.949	265.726	461.458	186.415	366.434	265.186	299.306	251.565	230.195	426.051	408.755	394.011	191.110	0.000194	4.8976e-05	1.6452e-05	138.83	6.7612e-08	2.6443e-07	293.15	38	9.8059e-07	6.5815e-07	101.87	34.074	12.252	6.4492	5.0071e-07	9.7975	4.1542e-06	1.9324e-06	4.7024e-07	117.66	2.244e-08	1.5831e-08	252.25	32.592	2.1057e-08	1.7322e-08	85.494	28.691	10.273	5.3477	1.9024e-08	8.0836	496.613	280.090	194.513	187.316	350.266	376.885	184.585	192.481	315.056	301.525	188.566	193.893	196.902	200.615	318.484	198.414	-8191	255	
3820.568	1	1	0	0	0.12021	0.12374	0.07831	0.35055	0.23026	0.19759	0.12642	0.20999	0.15836	0.067426	0.14204	0.25215	0.30194	0.23369	0.073497	0.14301	-0.74792	-0.81458	-0.38125	-1.1396	-0.75208	-0.7375	-1.4396	-0.33333	-0.96875	-0.95208	-0.33958	-1.2375	-0.61458	-0.84792	-1.4104	-0.43333	289.912	525.237	212.863	483.443	205.865	512.917	462.478	453.318	290.873	219.054	444.469	211.605	475.676	471.538	379.422	182.258	0.00021582	6.2211e-05	2.9503e-05	138.41	3.7916e-07	6.9995e-07	293.31	38.425	3.7567e-07	1.3111e-06	102.23	34.227	12.181	6.1843	9.3094e-07	9.7721	4.7433e-06	2.0813e-06	5.4422e-07	117.56	2.6979e-08	2.2483e-08	252.04	32.826	2.0083e-08	1.8601e-08	85.744	28.949	10.223	5.2997	1.7702e-08	8.1298	503.736	251.727	225.602	185.437	323.030	341.318	184.138	192.658	298.061	285.347	187.923	193.878	197.373	201.190	251.469	199.659	-8191	255	
3820.689	1	1	0	0	0.082521	0.13953	0.28044	0.1219	0.51545	0.10147	0.25131	0.16682	0.14771	0.12719	0.29977	0.12699	0.011914	0.10847	0.19143	0.078127	-0.75	-1.125	-0.48958	-1.4771	-0.34375	-0.42917	-1.3708	-0.31042	-1.0854	-1.0688	-0.35833	-1.2875	-0.51875	-0.68125	-1.2292	-0.47917	342.942	416.909	414.516	193.199	489.545	521.813	462.480	183.389	474.973	213.017	358.513	335.253	178.272	288.215	392.358	436.443	0.00019449	9.9484e-05	2.8784e-05	135.53	5.9641e-07	6.8137e-07	293.69	37.977	6.8592e-07	9.3104e-07	101.3	34.801	12.189	6.3191	9.0117e-07	9.7272	4.6132e-06	1.842e-06	6.6817e-07	117.23	2.2699e-08	2.0748e-08	252.82	32.652	2.1027e-08	1.478e-08	85.486	28.997	10.341	5.3356	1.6714e-08	8.1902	503.052	222.931	203.383	186.449	292.172	299.655	183.963	192.694	316.654	268.886	188.233	194.197	196.415	201.603	280.491	199.160	-8191	255	
3820.785	1	1	0	0	0.15728	0.20145	0.15301	0.12375	0.4253	0.13382	0.08673	0.29439	0.12734	0.039471	0.18416	0.062104	0.29265	0.088722	0.30377	0.34094	-0.52917	-0.925	-0.32292	-1.3125	-0.64375	-0.65833	-1.5063	-0.55	-0.9375	-1.0812	-0.34375	-1.325	-0.53542	-0.5625	-1.2458	-0.3125	183.610	503.058	299.277	497.175	413.538	449.937	222.856	533.037	235.138	484.410	254.177	428.393	371.612	436.376	496.296	460.806	0.00013779	7.3307e-05	2.8613e-05	137.36	8.9842e-07	6.649e-07	293.67	37.863	8.0618e-07	8.5137e-07	103.39	34.444	12.107	6.301	9.3984e-07	9.8847	4.0637e-06	2.1884e-06	5.6358e-07	117.14	2.1267e-08	2.0321e-08	252.5	32.658	2.1347e-08	1.4247e-08	85.731	29.075	10.176	5.3622	1.5803e-08	8.1986	498.202	239.713	237.018	186.542	299.810	375.609	184.010	193.398	311.989	358.767	189.015	194.625	198.134	201.384	284.667	197.882	-8191	255	
3820.856	1	1	0	0	0.15543	0.19592	0.18516	0.099565	0.067144	0.25613	0.27218	0.34539	0.091304	0.15267	0.28627	0.19427	0.16424	0.42658	0.21306	0.32707	-0.70208	-1.0562	-0.36875	-1.4521	-0.7875	-0.475	-1.2146	-0.45	-0.89167	-1.1625	-0.32917	-1.2896	-0.7375	-0.34375	-1.4937	-0.53958	452.487	400.801	308.388	461.083	326.890	309.905	348.377	369.993	463.692	187.613	206.767	415.796	352.500	408.323	450.836	380.904	0.00018409	6.0623e-05	8.305e-06	134	8.0678e-07	2.6117e-07	291.31	37.517	7.8875e-07	4.9009e-07	100.62	34.144	11.971	6.329	8.3066e-07	9.7774	4.5118e-06	1.6737e-06	6.2517e-07	115.43	2.151e-08	2.1296e-08	250.72	32.294	2.2306e-08	1.6972e-08	84.718	28.579	10.095	5.2863	1.7353e-08	8.0646	498.261	191.844	486.101	186.333	302.341	348.250	183.884	192.538	335.405	273.768	188.562	193.649	196.757	201.055	299.239	199.057	-8191	255	
3820.977	1	1	0	0	0.026251	0.34877	0.05994	0.15797	0.44022	0.094745	0.24495	0.41816	0.080213	0.14521	0.040553	0.26205	0.14034	0.1143	0.12726	0.24373	-0.49167	-1.1083	-0.2375	-1.2313	-0.70417	-0.50833	-1.4562	-0.5	-0.73542	-1.2771	-0.43958	-1.0667	-1.0104	-0.41042	-1.2479	-0.39375	330.486	391.459	337.846	259.635	267.202	289.161	507.763	509.044	192.040	403.273	290.455	487.730	417.831	415.792	528.176	457.599	0.00018469	4.9893e-05	5.735e-05	134.93	6.986e-07	4.8275e-07	287.64	37.737	6.4637e-07	1.8226e-07	101.11	34.217	11.58	6.3228	6.542e-07	9.7113	4.1062e-06	1.5234e-06	7.0806e-07	115.63	2.4313e-08	2.2909e-08	249.44	32.318	2.2687e-08	1.7779e-08	84.641	28.628	10.005	5.2583	1.8158e-08	8.0675	501.880	249.485	253.891	187.693	343.494	326.893	184.475	192.374	343.205	306.553	188.508	193.663	196.926	201.498	223.362	199.061	-8191	255	
3821.073	1	1	0	0	0.12567	0.13752	0.068675	0.12134	0.10018	0.081823	0.049193	0.096579	0.23537	0.048374	0.14343	0.14611	0.080104	0.058752	0.22596	0.15401	-0.50417	-1.2354	-0.32083	-1.2583	-0.96667	-0.2125	-1.8146	-0.71875	-0.7625	-1.4354	-0.17083	-1.1646	-1.175	-0.18125	-1.3979	-0.57292	181.138	220.040	378.270	389.292	465.713	464.811	532.412	500.686	529.855	239.701	372.268	337.778	456.026	217.704	380.522	345.998	0.000183	4.9361e-05	2.3564e-05	134.77	5.4939e-07	8.3625e-07	291.36	37.401	1.0762e-06	9.296e-07	100.25	34.495	11.918	6.2679	7.3993e-07	9.5906	4.4789e-06	1.9088e-06	6.3408e-07	115.81	1.9545e-08	2.4614e-08	249.96	32.228	2.5762e-08	1.1325e-08	84.272	28.603	10.088	5.2805	1.7398e-08	8.0618	495.805	241.690	248.810	186.508	277.279	309.018	184.847	192.811	323.163	334.999	188.847	194.434	199.404	202.217	279.658	200.336	-8191	255	
3821.169	1	1	0	0	0.11383	0.3151	0.37171	0.093294	0.098822	0.32397	0.24885	0.11589	0.11345	0.39706	0.19357	0.15451	0.24137	0.16448	0.06641	0.12069	-0.27708	-1.4292	-0.23125	-1.2208	-0.91875	-0.20625	-1.3646	-0.66042	-0.73125	-1.6771	-0.29583	-1.1938	-1.1583	-0.085417	-1.6042	-0.61042	178.894	443.278	398.675	263.842	457.830	234.671	192.541	483.401	419.985	384.421	387.619	371.573	510.189	441.384	472.636	392.064	0.0001872	9.7795e-05	2.1904e-05	136.58	6.554e-07	7.4291e-07	290.23	37.479	5.7861e-07	8.8332e-07	99.688	34.125	11.974	6.1565	5.835e-07	9.5452	4.5844e-06	1.682e-06	5.9845e-07	116	1.9484e-08	2.4934e-08	248.69	31.915	2.4773e-08	1.2588e-08	84.049	28.625	10.078	5.2451	1.6395e-08	7.9859	497.553	245.291	229.941	187.714	301.736	357.362	185.270	193.887	333.793	302.713	189.775	195.064	198.714	202.806	247.715	199.176	-8191	255	
3821.266	1	1	0	0	0.02379	0.1955	0.082611	0.10901	0.13761	0.37321	0.11256	0.06914	0.23353	0.18603	0.34222	0.23872	0.17945	0.1752	0.060445	0.29333	-0.18125	-1.675	-0.18125	-1.2333	-1.3104	-0.2625	-1.6708	-0.67708	-0.6	-1.5688	-0.39792	-1.0729	-1.3667	-0.24375	-1.3188	-0.95417	192.678	451.384	365.338	366.582	377.422	387.801	420.192	264.379	320.615	489.376	523.301	219.389	303.082	319.048	200.917	280.836	0.00017511	9.8917e-05	2.2901e-05	133.52	5.7733e-07	8.1698e-07	286.22	37.003	5.4394e-07	1.1246e-06	99.131	33.973	11.832	6.1835	6.6018e-07	9.4394	4.494e-06	1.3648e-06	5.7792e-07	114.9	1.7611e-08	2.539e-08	247.4	31.753	2.7239e-08	1.3334e-08	83.173	28.319	10.004	5.2125	1.9571e-08	7.9041	498.903	216.288	249.643	187.822	309.478	314.122	185.038	194.368	283.391	314.044	189.591	195.160	197.829	202.975	249.071	199.249	-8191	255	
3821.384	1	1	0	0	0.17607	0.25856	0.18576	0.14978	0.19302	0.035774	0.19193	0.11386	0.076535	0.19027	0.31238	0.17493	0.11662	0.19322	0.06333	0.17253	-0.11875	-1.475	-0.57917	-1.0438	-1.2146	-0.29167	-1.5812	-0.775	-0.40208	-1.3229	-0.74167	-1.0063	-1.1979	-0.18542	-1.3312	-0.89167	523.705	291.238	272.571	433.989	419.611	467.643	292.616	339.236	272.367	383.710	390.847	490.366	311.369	237.759	470.822	382.527	0.00016017	8.3513e-05	2.4089e-05	133.84	4.9513e-07	3.4269e-07	282.06	36.582	1.1284e-06	8.4162e-07	97.4	33.472	11.503	6.146	7.9413e-07	9.614	4.6173e-06	1.4372e-06	5.4925e-07	113.81	1.6834e-08	2.1037e-08	245.91	31.547	2.9173e-08	1.3304e-08	82.948	28.205	9.8489	5.171	1.8112e-08	7.9972	505.071	215.114	275.782	187.660	286.024	339.270	185.571	194.166	313.731	296.779	189.445	194.407	198.711	202.275	260.634	199.477	-8191	255	
3821.456	1	1	0	0	0.16304	0.21148	0.12976	0.1094	0.17143	0.20434	0.045794	0.2436	0.24575	0.18293	0.19901	0.1481	0.16425	0.12566	0.14637	0.20003	-0.12083	-1.2417	-0.38542	-0.85208	-1.4833	-0.20625	-1.325	-1.0958	-0.44375	-1.3687	-0.45625	-0.63125	-1.4438	-0.38125	-1.1646	-1.0021	370.197	269.365	275.848	180.101	364.085	355.451	258.850	312.427	216.223	381.782	397.274	527.824	469.247	432.392	216.114	511.326	0.00019261	9.1016e-05	2.6128e-05	132.81	4.5281e-07	3.2983e-07	284.58	37.021	6.1633e-07	1.3012e-06	100.67	34.176	12.011	6.2624	5.201e-07	9.7203	4.7269e-06	1.3481e-06	6.1084e-07	114.3	1.8997e-08	2.4614e-08	246.64	31.947	2.7452e-08	1.6089e-08	83.749	28.474	9.9454	5.2268	2.0209e-08	8.1205	491.789	285.489	274.294	188.174	275.782	313.806	186.073	194.384	287.505	307.166	188.913	194.964	198.120	201.414	268.429	198.545	-8191	255	
3821.552	1	1	0	0	0.26474	0.066328	0.27468	0.11141	0.070112	0.23782	0.16384	0.14453	0.16781	0.06121	0.08795	0.14401	0.16912	0.31501	0.14004	0.21088	-0.097917	-1.3917	-0.52083	-0.96042	-1.2625	-0.35208	-1.1458	-0.96042	-0.325	-1.3167	-0.63125	-0.61458	-1.3104	-0.0625	-1.1917	-0.95417	506.430	361.843	477.075	262.620	467.570	495.849	260.137	180.144	485.873	195.765	417.545	531.710	248.254	528.655	342.668	194.917	0.00016126	9.396e-05	5.039e-05	134.22	9.9409e-07	4.7509e-07	293.04	37.543	6.4575e-07	8.6799e-07	100.86	34.432	11.881	6.2519	1.0313e-06	9.6636	4.5858e-06	1.4622e-06	5.4344e-07	114.69	2.2287e-08	2.3137e-08	250.49	31.991	2.8594e-08	1.4095e-08	84.817	28.659	10.02	5.2498	1.9845e-08	8.0429	506.365	226.741	274.656	187.182	353.469	298.496	185.210	193.613	306.104	290.297	189.569	195.019	198.887	201.985	255.373	200.862	-8191	255	
3821.648	1	1	0	0	0.14669	0.092982	0.24639	0.097752	0.16108	0.23219	0.18111	0.11455	0.18486	0.3511	0.086367	0.037584	0.1599	0.080077	0.19475	0.11858	0.11042	-1.3458	-0.44583	-0.52292	-1.4646	-0.22292	-1.0312	-1.1604	-0.30208	-1.2583	-0.56667	-0.58958	-1.5938	-0.14583	-0.92083	-1.0042	410.315	368.880	419.697	337.237	480.010	401.040	333.395	372.221	327.271	243.800	450.855	224.874	326.710	263.006	435.327	179.796	0.00016609	3.205e-05	5.885e-06	136.62	8.8366e-07	5.6453e-07	292.83	37.7	6.9515e-07	6.8514e-07	101.47	33.741	11.829	6.147	9.3672e-07	9.7195	4.7543e-06	1.6055e-06	4.896e-07	116.79	1.5722e-08	2.4112e-08	251.95	32.252	2.8214e-08	1.3654e-08	84.593	28.455	9.943	5.2107	2.1394e-08	8.0598	503.108	242.451	292.857	188.376	353.393	312.599	185.742	194.165	255.949	301.434	189.285	194.588	199.219	202.660	270.601	199.807	-8191	255	
3821.769	1	1	0	0	0.092226	0.074534	0.22336	0.064532	0.11559	0.024523	0.18102	0.07242	0.22493	0.2339	0.38411	0.026517	0.18847	0.3811	0.039253	0.10935	0.22708	-1.375	-0.75208	-0.73958	-1.3146	-0.23125	-1.0729	-1.1208	-0.35	-1.3062	-0.73125	-0.62708	-1.45	-0.35208	-1.1667	-1.4021	442.533	362.871	472.926	479.443	468.124	425.909	474.153	527.097	218.984	533.063	419.248	193.162	210.327	215.637	386.280	256.749	0.00017705	0.00013665	1.7302e-05	135.24	1.4003e-06	6.0553e-07	293	37.701	8.3962e-07	4.2487e-07	100.57	34.104	11.92	6.2529	8.4744e-07	9.6269	4.6748e-06	1.8879e-06	5.3841e-07	116.15	1.5767e-08	2.2361e-08	252.38	32.238	2.7498e-08	1.5024e-08	84.871	28.575	10.055	5.2629	1.8796e-08	8.0161	505.768	232.602	270.917	187.346	285.035	320.371	184.901	193.173	291.554	282.731	189.787	195.054	198.418	202.090	278.952	199.998	-8191	255	
3821.865	1	1	0	0	0.16822	0.29647	0.2538	0.33544	0.22104	0.11072	0.22987	0.20295	0.041807	0.081416	0.20808	0.25928	0.12149	0.18943	0.11698	0.19556	0.3	-1.4479	-0.96875	-0.20625	-1.6688	-0.22083	-0.925	-1.5375	-0.12083	-1.4583	-0.99583	-0.31042	-1.4896	-0.50208	-1.0083	-1.25	258.429	384.583	439.589	404.106	208.128	417.056	513.864	471.898	292.915	262.592	413.680	373.121	294.210	335.007	372.766	418.973	0.00018429	4.8841e-05	1.8564e-05	138.26	6.4313e-07	2.7294e-07	296.08	38.081	1.0319e-06	9.6268e-07	100.97	33.674	12.017	6.1499	7.8983e-07	9.7223	5.1174e-06	1.2285e-06	4.4428e-07	117.58	1.6849e-08	2.2133e-08	254.92	32.525	3.0756e-08	1.2816e-08	84.902	28.597	10.116	5.2607	1.9313e-08	8.1053	500.740	219.711	220.037	188.018	308.189	319.494	185.335	194.128	297.573	276.749	188.940	194.732	198.476	202.555	280.333	199.526	-8191	255	
3821.961	1	1	0	0	0.17023	0.086002	0.33019	0.11182	0.13286	0.032251	0.15485	0.082864	0.15972	0.38815	0.13284	0.091743	0.18837	0.12364	0.25406	0.12978	0.19792	-1.3563	-0.7125	-0.3375	-1.6521	-0.42917	-0.85833	-1.5167	-0.21458	-1.2958	-0.88333	-0.2875	-1.5125	-0.58958	-0.59167	-1.625	245.416	266.764	473.222	240.172	396.515	285.874	293.714	401.134	354.617	396.557	334.894	197.366	239.827	432.114	450.018	251.922	0.00018978	5.4753e-05	1.9767e-05	137.45	4.3237e-07	4.5922e-07	297.04	38.241	7.2124e-07	6.2225e-07	102.37	34.544	12.322	6.3603	1.8877e-07	9.8403	4.6597e-06	1.4886e-06	4.3421e-07	117.27	1.3741e-08	2.1935e-08	255.91	32.634	2.4849e-08	1.2801e-08	86.141	29.096	10.236	5.321	2.3962e-08	8.2125	500.562	271.951	251.203	186.886	285.535	291.266	185.077	193.119	292.097	340.000	189.146	195.086	197.865	202.202	201.713	198.795	-8191	255	
3822.057	1	1	0	0	0.27648	0.097689	0.081742	0.2256	0.22489	0.090256	0.085605	0.060776	0.14646	0.070241	0.071065	0.1208	0.15223	0.13159	0.091352	0.19152	-0.0083333	-1.0771	-0.92917	-0.52292	-1.2208	-0.575	-0.54583	-1.2271	-0.425	-1.2062	-1.0458	-0.37292	-1.3417	-0.5875	-0.59792	-1.375	521.022	180.309	372.256	302.109	444.075	350.557	378.440	518.404	460.903	438.184	488.180	246.704	262.551	232.754	299.840	280.688	0.00019384	7.053e-05	9.2339e-06	138.95	9.737e-07	5.5013e-07	293.61	38.423	7.0131e-07	5.5477e-07	103.08	34.328	12.047	6.1576	6.4863e-07	9.6455	4.8516e-06	1.7251e-06	4.7527e-07	118.58	1.8022e-08	1.8982e-08	253.95	32.754	2.395e-08	1.8464e-08	85.931	28.771	10.1	5.2342	2.2473e-08	8.0474	496.705	226.022	200.696	187.063	319.812	295.461	183.925	192.713	308.904	283.741	188.320	194.229	198.193	201.576	264.642	198.810	-8191	255	
3822.154	1	1	0	0	0.17923	0.014731	0.079462	0.40777	0.2939	0.0618	0.2653	0.10225	0.17115	0.13312	0.19951	0.31826	0.11982	0.23195	0.12118	0.13122	-0.0125	-0.98958	-1.0938	-0.20625	-1.4646	-0.67083	-0.6375	-1.3188	-0.19375	-1.0458	-1.1104	-0.225	-1.35	-0.39375	-0.32708	-1.6375	281.656	359.115	374.558	351.960	469.713	446.578	484.268	184.527	525.652	228.110	470.384	224.479	243.322	228.840	454.991	402.796	0.00018423	6.7172e-05	2.5825e-05	136.57	2.9257e-07	5.0017e-07	295.61	37.701	9.9022e-07	7.8206e-07	101.81	34.486	11.872	6.293	3.2756e-08	9.8663	4.857e-06	1.8503e-06	4.4467e-07	117.1	1.5371e-08	1.9241e-08	253.35	32.39	2.5107e-08	1.4963e-08	85.678	28.963	10.087	5.2535	2.1379e-08	8.1627	500.079	206.870	284.482	186.680	327.781	384.194	183.846	193.249	303.107	285.674	188.719	193.974	197.809	200.333	478.578	199.167	-8191	255	
3822.250	1	1	0	0	0.12457	0.16872	0.075954	0.19271	0.12	0.10445	0.22915	0.13013	0.069097	0.12555	0.043287	0.025539	0.060374	0.1175	0.13276	0.073167	0.12708	-1.0396	-1.4792	-0.18958	-1.3458	-0.66667	-0.51458	-1.4146	-0.24375	-0.71875	-1.1688	-0.20417	-1.3542	-0.78333	-0.53958	-1.2437	460.633	280.439	352.575	420.602	457.573	438.194	464.110	511.200	528.713	215.338	241.452	176.698	211.681	440.211	183.062	270.169	0.00016241	6.9372e-05	4.2933e-05	138.45	1.2495e-06	4.9804e-07	297.01	37.776	7.9645e-07	7.3511e-07	103.05	34.362	12.164	6.2148	3.6625e-07	9.8665	4.8885e-06	1.7015e-06	3.6681e-07	117.88	1.825e-08	1.4263e-08	255.7	32.513	2.6676e-08	1.5967e-08	85.84	28.942	10.171	5.2438	2.2656e-08	8.1555	501.377	214.459	208.506	186.022	278.391	416.936	184.498	193.057	289.984	292.222	188.180	194.293	197.133	201.478	297.253	197.784	-8191	255	
3822.369	1	1	0	0	0.12848	0.099275	0.36718	0.073657	0.061192	0.099031	0.32833	0.11341	0.025384	0.23518	0.28829	0.15597	0.12842	0.17044	0.26969	0.42102	-0.1375	-0.80625	-1.1354	-0.3375	-1.0187	-0.82083	-0.44792	-1.1708	-0.43125	-0.675	-1.2021	-0.29792	-1.1375	-1.1812	-0.31458	-1.4021	431.188	441.137	470.555	452.145	427.792	518.032	488.794	342.465	356.174	350.055	381.061	384.953	523.821	326.013	309.577	522.126	0.00017938	0.00013364	4.4303e-05	140.56	6.2213e-07	6.1866e-07	302.31	37.57	1.3841e-06	8.5209e-07	103.62	34.514	12.189	6.3229	4.7856e-07	9.927	4.5611e-06	2.3776e-06	4.2453e-07	119.86	1.6239e-08	1.5907e-08	260.56	32.812	2.6295e-08	2.0564e-08	86.636	29.047	10.22	5.2949	2.4525e-08	8.2113	501.465	242.330	231.678	186.286	272.140	335.079	184.349	193.902	325.046	341.101	188.424	194.851	197.936	201.304	339.862	199.540	-8191	255	
3822.465	1	1	0	0	0.16137	0.30424	0.083003	0.061714	0.12209	0.16281	0.18821	0.11554	0.046301	0.22475	0.089493	0.078599	0.033902	0.14583	0.096598	0.13262	0.0125	-0.71667	-1.2625	-0.19375	-1.125	-0.82083	-0.31667	-1.4208	-0.28542	-0.49167	-1.6646	-0.43333	-1.1021	-1.1521	-0.36042	-1.3417	178.898	378.416	203.069	309.150	440.835	503.735	521.189	476.295	184.417	427.763	199.276	264.664	365.890	191.721	296.872	182.772	0.00016422	6.8814e-05	2.2032e-05	141.25	8.9772e-07	9.4798e-07	304.74	39.524	7.0554e-07	6.2144e-07	103.6	34.603	12.095	6.3274	5.9578e-07	9.7386	4.5926e-06	2.3262e-06	3.7262e-07	121.06	1.9698e-08	1.6074e-08	261.74	33.49	2.4712e-08	1.8829e-08	87.225	29.003	10.212	5.2904	2.7731e-08	8.1689	493.223	249.146	236.789	186.847	317.495	294.520	184.197	191.958	276.503	295.686	188.667	194.387	197.648	200.408	320.416	198.320	-8191	255	
3822.561	1	1	0	0	0.071744	0.39182	0.11264	0.10881	0.039932	0.25186	0.22025	0.16508	0.11741	0.10072	0.13807	0.14315	0.16104	0.14842	0.21792	0.28893	-0.19375	-0.65833	-1.2229	-0.31875	-1.0125	-1.1583	-0.25	-1.4583	-0.48333	-0.60625	-1.3458	-0.3125	-1.1375	-1.175	-0.0875	-1.1521	252.289	316.626	495.643	293.537	321.737	208.590	337.223	197.912	480.947	376.418	216.855	417.270	484.650	261.665	184.039	211.813	0.00016566	4.9244e-05	4.5331e-05	145.29	1.0845e-06	1.3911e-06	311.64	39.62	4.3444e-07	7.5522e-07	106.83	34.811	12.33	6.394	5.0982e-07	10.06	4.5104e-06	1.8517e-06	3.6449e-07	123.75	1.8266e-08	1.6501e-08	268.18	33.607	2.1347e-08	2.3228e-08	89.142	29.312	10.345	5.354	2.7989e-08	8.3521	496.942	203.172	218.985	186.146	294.637	326.020	184.352	193.124	284.834	324.671	188.786	194.019	198.121	200.676	337.477	197.766	-8191	255	
3822.657	1	1	0	0	0.017948	0.21655	0.2604	0.18511	0.091019	0.11754	0.28632	0.36272	0.1468	0.14153	0.09714	0.15534	0.1627	0.18451	0.29218	0.080686	-0.47292	-0.63125	-1.5375	-0.26667	-1.0229	-1.2229	-0.085417	-1.325	-0.65	-0.43542	-1.6625	-0.275	-0.87917	-1.1396	0.070833	-1.4208	433.559	323.884	284.412	518.230	330.158	302.386	475.865	206.883	248.860	494.505	226.654	404.822	430.469	213.416	401.490	317.623	0.00020726	9.2317e-05	3.1336e-05	144.99	8.2678e-07	9.1105e-07	310.76	38.777	9.407e-07	8.4704e-07	105.95	35.258	12.492	6.3004	5.9886e-07	9.9412	4.9201e-06	2.2274e-06	3.6759e-07	124.09	1.9682e-08	1.9454e-08	266.61	33.701	2.1864e-08	2.2847e-08	88.559	29.415	10.557	5.3511	2.7381e-08	8.3245	504.469	243.314	231.725	187.303	298.620	310.720	184.773	193.767	303.412	289.490	187.935	193.570	198.009	200.298	270.700	198.264	-8191	255	
3822.753	1	1	0	0	0.19052	0.07162	0.1758	0.21887	0.18419	0.22605	0.13998	0.02914	0.11428	0.30771	0.07807	0.1586	0.13393	0.16958	0.15664	0.12416	-0.41667	-0.31458	-1.6354	-0.30833	-0.94167	-1.1125	-0.23125	-1.0812	-0.81875	-0.40417	-1.4896	-0.48958	-0.73542	-1.1104	-0.21875	-1.1938	183.948	269.710	287.231	460.170	427.653	179.770	338.523	220.725	513.184	271.264	479.622	287.628	425.101	193.543	292.368	206.112	0.00021015	9.0621e-05	2.8035e-05	141.36	5.598e-07	1.0417e-07	304.57	38.469	3.1028e-07	1.0193e-06	104.85	35.018	12.328	6.3657	4.926e-07	10.159	4.6611e-06	2.3275e-06	3.5713e-07	121.54	2.1267e-08	1.0473e-08	263.28	33.401	2.2687e-08	2.4476e-08	88.352	29.656	10.396	5.3934	2.6743e-08	8.4317	498.986	242.903	217.351	186.641	284.620	235.939	184.121	193.448	288.142	281.105	188.578	193.754	197.405	201.205	270.536	199.554	-8191	255	
3822.849	1	1	0	0	0.1258	0.1558	0.22058	0.28122	0.091732	0.005687	0.11473	0.12379	0.257	0.22472	0.23838	0.28317	0.047952	0.20584	0.29065	0.22654	-0.48125	-0.39583	-1.1625	-0.40417	-0.76042	-1.3875	-0.36458	-1.1833	-0.89583	-0.175	-1.4062	-0.66667	-0.6375	-1.3042	-0.29583	-1.0729	371.437	395.678	394.879	320.300	419.192	247.976	504.890	401.272	485.686	469.904	465.331	410.133	227.822	181.250	342.955	332.897	0.00020168	8.446e-05	3.8938e-05	143.93	5.1202e-07	3.9847e-07	304.93	38.903	1.2852e-06	4.4842e-07	105.04	35.014	12.127	6.2939	7.1552e-07	10.082	4.6652e-06	2.3818e-06	3.7766e-07	121.66	2.2226e-08	1.6973e-08	263.49	33.616	2.2062e-08	2.3852e-08	88.281	29.247	10.259	5.3012	2.5117e-08	8.292	497.336	256.262	226.413	186.983	321.985	358.095	184.215	192.829	285.736	306.260	188.527	193.785	197.206	201.303	262.211	199.259	-8191	255	
3822.970	1	1	0	0	0.075747	0.25827	0.05293	0.097185	0.083643	0.19598	0.18475	0.11675	0.13229	0.10983	0.14442	0.1957	0.2591	0.18622	0.25106	0.1886	-0.69167	-0.11458	-1.1812	-0.4125	-0.45	-1.3563	-0.33333	-1.0521	-1.1417	-0.43125	-1.4333	-0.48333	-0.68333	-1.0812	-0.2125	-1.3167	424.163	329.718	477.748	349.299	290.755	374.495	492.601	264.270	211.566	319.736	417.267	363.036	285.794	503.915	403.641	514.677	0.00020816	0.00013627	1.0179e-05	139.23	7.2204e-07	9.2608e-07	305.38	38.593	9.2399e-07	7.3995e-07	104.25	34.342	12.226	6.2383	9.1416e-07	9.6675	4.5077e-06	2.1578e-06	4.2143e-07	120.37	2.2333e-08	1.5252e-08	262.34	33.145	1.5926e-08	2.4156e-08	87.486	28.95	10.268	5.2558	2.6257e-08	8.188	498.425	241.721	294.642	186.572	314.592	309.823	184.849	193.584	330.281	318.358	189.150	193.991	197.577	200.360	250.778	197.648	-8191	255	
3823.066	1	1	0	0	0.17051	0.041572	0.15618	0.10227	0.1076	0.10256	0.19557	0.24661	0.093937	0.19095	0.17566	0.19898	0.049156	0.43208	0.082381	0.088782	-0.71875	-0.18958	-1.2646	-0.5375	-0.34583	-1.4625	-0.30208	-0.83542	-0.94167	-0.09375	-1.4104	-0.63333	-0.45208	-1.6479	-0.3875	-1.0271	429.561	533.825	308.750	302.722	449.580	250.982	503.202	330.113	281.392	223.518	222.559	330.971	328.819	456.546	214.184	297.044	0.00017061	6.5018e-05	2.1077e-05	139.18	1.1783e-06	5.0137e-07	299.42	38.188	1.5057e-06	2.5461e-07	103.01	33.884	12.233	6.2048	1.0595e-06	9.7692	4.1898e-06	2.2427e-06	3.2924e-07	119.59	2.1922e-08	1.0412e-08	257.89	32.82	2.357e-08	2.679e-08	86.849	28.538	10.225	5.2517	2.6439e-08	8.1644	504.513	237.700	271.840	186.117	316.620	292.464	183.850	193.391	303.639	367.311	188.343	193.478	198.253	200.955	287.619	198.242	-8191	255	
3823.162	1	1	0	0	0.09777	0.091939	0.2706	0.16375	0.23588	0.25043	0.066174	0.31012	0.22702	0.16968	0.0064532	0.15903	0.14941	0.25146	0.17235	0.15103	-0.73333	-0.00625	-1.3146	-0.85208	-0.34167	-1.2125	-0.17292	-0.7875	-1.1	-0.18958	-1.1771	-0.7	-0.35	-1.3792	-0.48958	-0.73542	487.407	528.693	444.139	518.856	269.135	223.961	494.390	395.322	386.929	339.803	416.773	478.602	443.992	261.822	251.618	395.769	0.00018465	7.4274e-05	2.2209e-05	139.33	5.9167e-07	8.7033e-07	300.18	38.484	7.7135e-07	8.7889e-07	103.7	34.474	12.102	6.2313	5.6303e-07	9.9387	4.3172e-06	2.3164e-06	3.7108e-07	119.22	2.1038e-08	1.6988e-08	257.81	32.774	2.1438e-08	2.4065e-08	86.749	28.797	10.194	5.2683	2.7457e-08	8.2712	503.355	222.713	219.870	186.233	365.575	296.928	183.773	192.738	295.312	318.380	188.643	194.008	196.663	201.033	268.281	199.104	-8191	255	
3823.257	1	1	0	0	0.027587	0.17807	0.22339	0.24006	0.095996	0.23158	0.20072	0.12674	0.45538	0.20464	0.24528	0.20386	0.10108	0.268	0.15773	0.061086	-0.87292	-0.28333	-1.1	-0.8	-0.1875	-1.475	-0.41042	-0.58333	-1.2625	-0.2	-1.2042	-0.99792	-0.41042	-1.3521	-0.47083	-0.64167	222.987	359.022	279.581	448.622	386.024	341.444	375.788	456.223	519.527	320.951	403.573	176.579	251.775	474.275	291.265	460.450	0.0001921	9.422e-05	2.2795e-05	141.22	6.3111e-07	7.6745e-07	299.98	37.706	4.0855e-07	1.101e-06	103.92	34.015	11.764	6.2954	5.738e-07	9.8743	3.9048e-06	2.1968e-06	3.6991e-07	119.86	2.5959e-08	1.5466e-08	257.89	32.641	1.6094e-08	2.1158e-08	86.46	28.651	10.081	5.3237	2.2853e-08	8.1812	497.225	220.372	212.573	186.388	313.453	344.866	183.691	193.014	295.666	318.114	188.250	194.108	197.063	201.964	376.810	198.476	-8191	255	
3823.330	1	1	0	0	0.2687	0.24633	0.041012	0.15835	0.12823	0.093245	0.050892	0.36681	0.074563	0.14771	0.15383	0.12759	0.34972	0.3266	0.16193	0.14338	-0.69583	-0.47917	-1.125	-1.1167	-0.28542	-1.225	-0.61667	-0.7	-1.5875	-0.27083	-1.1458	-1.1104	-0.45625	-1.2292	-0.59583	-0.59583	455.247	408.042	264.570	482.116	269.714	233.956	352.500	493.022	412.934	292.742	191.786	383.087	412.249	261.318	233.386	444.562	0.00018947	0.00013055	1.4923e-05	140.32	4.9599e-07	6.2052e-07	301.06	37.552	1.0469e-06	5.4931e-07	102.01	33.732	11.979	6.2698	7.138e-07	9.7947	4.1816e-06	2.322e-06	3.9238e-07	120.29	2.4618e-08	1.4491e-08	258.7	32.438	2.0022e-08	2.099e-08	85.461	28.207	10.031	5.2797	2.3871e-08	8.1561	493.848	247.606	255.398	185.636	313.540	359.037	184.107	192.635	296.918	323.744	188.470	193.654	196.646	200.659	240.905	198.651	-8191	255	
3823.449	1	1	0	0	0.11693	0.44131	0.30652	0.35623	0.090944	0.17357	0.10084	0.23117	0.085849	0.14591	0.17805	0.1586	0.26872	0.15931	0.19975	0.038137	-1.075	-0.18125	-0.975	-1.0625	-0.058333	-1.4958	-0.52917	-0.54167	-1.4458	-0.15208	-0.98333	-1.0562	-0.4	-1.1729	-0.77708	-0.58542	386.623	190.900	301.057	463.761	193.645	247.732	496.421	186.203	493.519	429.975	252.911	474.269	318.535	474.526	199.149	385.037	0.00018636	6.6092e-05	2.4895e-05	141.24	5.0565e-07	9.8884e-07	299.1	37.191	6.2161e-07	1.0318e-06	100.93	33.42	11.895	6.1622	7.2922e-07	9.6996	4.2693e-06	2.251e-06	3.7843e-07	120.29	2.5014e-08	1.408e-08	257.2	32.149	1.8362e-08	2.338e-08	85.212	28.065	9.915	5.221	2.3537e-08	8.1089	508.117	212.129	254.650	186.216	338.503	328.897	183.318	194.046	287.193	290.249	188.574	193.894	198.928	200.865	263.384	198.147	-8191	255	
3823.545	1	1	0	0	0.16395	0.11332	0.2088	0.13522	0.21371	0.23235	0.19915	0.21046	0.13068	0.28994	0.08682	0.04854	0.11276	0.038785	0.057339	0.20823	-0.99583	-0.45417	-0.975	-1.1875	-0.3	-1.2687	-0.76458	-0.53958	-1.2146	-0.50625	-0.95417	-1.1542	-0.51667	-1.1167	-0.74375	-0.44375	437.754	528.580	254.447	518.717	374.916	376.885	328.619	310.453	485.408	337.108	419.009	212.383	448.919	320.374	228.041	194.601	0.00015739	0.00010508	3.8903e-05	140.99	4.5858e-07	9.8485e-07	298.97	38.013	8.1362e-07	7.2954e-07	101.5	33.778	11.97	6.2277	6.9052e-07	9.8485	4.1185e-06	2.2441e-06	4.8612e-07	119.86	2.4862e-08	1.7094e-08	256.76	32.457	2.0342e-08	2.0001e-08	84.872	28.297	10.066	5.2295	2.2017e-08	8.1116	501.487	181.808	240.002	186.780	395.360	310.507	184.036	192.961	289.040	293.110	188.680	193.040	197.739	201.413	274.139	199.759	-8191	255	
3823.641	1	1	0	0	0.068312	0.31556	0.076499	0.31894	0.39019	0.079047	0.061445	0.15911	0.27499	0.26006	0.22815	0.28493	0.079882	0.26134	0.12618	0.16043	-0.95	-0.40833	-1.0042	-1.3354	-0.2625	-1.2479	-0.90625	-0.29375	-1.2521	-0.32292	-0.88542	-1.2167	-0.25625	-1.2313	-0.88542	-0.085417	330.240	375.722	268.311	424.535	492.537	388.738	486.056	194.052	494.844	202.749	509.657	265.767	506.814	250.641	324.904	393.883	0.00018929	9.0554e-05	2.8989e-05	140.04	1.0115e-06	6.1769e-07	298.12	37.703	1.2008e-06	9.7193e-07	101.29	33.773	11.95	6.2686	1.0339e-06	9.7046	4.1446e-06	2.0409e-06	5.2834e-07	119.86	2.6781e-08	1.6516e-08	257.13	32.465	1.7555e-08	2.0595e-08	85.282	28.381	10.156	5.2478	2.1592e-08	8.1053	501.992	219.832	260.715	185.968	315.092	317.201	184.291	194.108	292.765	307.351	190.357	195.022	199.149	202.451	251.377	199.289	-8191	255	
3823.737	1	1	0	0	0.15622	0.15091	0.12031	0.079748	0.19158	0.18446	0.24404	0.090401	0.17254	0.43179	0.073206	0.1707	0.24957	0.20615	0.092174	0.33531	-1.1229	-0.41458	-0.75208	-1.3167	-0.052083	-1.2958	-0.95833	-0.10208	-1.4062	-0.59583	-0.65	-1.4833	-0.045833	-1.4354	-1.0979	-0.2125	508.192	488.203	483.730	243.515	513.881	312.506	240.275	353.796	186.728	459.112	416.629	223.526	254.907	212.179	227.516	342.772	0.00019469	0.00010144	1.3855e-05	138.73	5.4395e-07	7.9116e-07	297.91	37.524	6.4576e-07	9.8353e-07	100.82	33.073	11.815	6.0637	9.3055e-07	9.6697	4.4159e-06	2.1564e-06	4.2337e-07	118.75	2.4481e-08	1.4796e-08	255	31.963	1.888e-08	2.2284e-08	84.664	28.119	10.026	5.1606	2.0999e-08	8.0316	499.859	191.502	232.596	186.898	306.387	383.215	184.642	194.116	328.856	282.693	190.086	196.056	198.409	202.066	288.635	199.980	-8191	255	
3823.858	1	1	0	0	0.20516	0.091842	0.12427	0.17713	0.08778	0.20358	0.28719	0.058023	0.10809	0.058751	0.24665	0.28388	0.12847	0.23594	0.18218	0.20525	-1.4104	-0.19583	-0.7375	-1.6292	-0.15417	-1.3146	-1.1854	-0.35417	-1.6917	-0.56458	-0.60208	-1.525	-0.34375	-1.0208	-1.1521	-0.31458	343.224	294.977	236.315	481.161	382.010	345.159	245.777	292.790	415.917	335.288	392.122	373.394	240.245	388.181	413.857	365.888	0.00015539	9.0385e-05	2.6812e-05	137.74	7.8465e-07	9.4543e-07	293.48	37.939	6.8262e-07	9.5692e-07	101.61	33.883	11.915	6.0205	6.4677e-07	9.689	3.7144e-06	2.002e-06	5.2872e-07	118.61	2.439e-08	1.749e-08	254.04	32.198	1.6596e-08	1.9712e-08	84.705	28.196	9.9859	5.1396	2.0832e-08	8.0227	499.764	253.262	190.274	186.956	257.416	324.217	185.483	193.869	285.592	272.143	190.456	194.959	199.870	201.917	290.227	200.742	-8191	255	
3823.954	1	1	0	0	0.10948	0.20135	0.15015	0.13841	0.30476	0.14519	0.18361	0.14614	0.25395	0.14873	0.22266	0.25311	0.21484	0.053653	0.29886	0.27671	-0.96458	-0.45625	-0.50417	-1.5583	-0.44375	-0.93333	-1.3	-0.06875	-1.2708	-0.76458	-0.61042	-1.3833	-0.32708	-0.99583	-1.1896	-0.17708	346.471	209.877	263.567	513.669	254.343	487.955	497.579	262.385	369.405	530.406	315.439	287.780	190.931	319.724	284.378	276.211	0.00018431	8.8655e-05	1.1946e-05	139.01	6.3371e-07	5.3298e-07	295.06	36.938	6.4068e-07	5.259e-07	100.14	33.292	11.939	6.1855	1.239e-06	9.7791	4.1199e-06	2.0312e-06	5.1246e-07	119.32	2.1708e-08	2.0824e-08	254.58	31.86	1.8225e-08	2.2315e-08	84.487	28.053	10.071	5.1934	1.8158e-08	8.0934	502.112	224.026	266.955	187.820	294.742	291.657	185.177	194.398	285.997	344.024	189.462	194.639	199.112	201.917	263.410	200.089	-8191	255	
3824.050	1	1	0	0	0.13137	0.24387	0.29448	0.20807	0.049651	0.22778	0.16274	0.17426	0.23881	0.037582	0.12712	0.045341	0.16433	0.20855	0.10348	0.036273	-0.93333	-0.75625	-0.47708	-1.4813	-0.46458	-0.79375	-1.1938	-0.44375	-1.2125	-0.79167	-0.44167	-1.2625	-0.49375	-1.025	-1.2271	-0.25208	432.814	433.549	390.399	252.304	261.101	360.934	336.171	323.174	243.327	307.149	486.986	483.799	308.845	361.919	394.522	510.139	0.00018549	6.4656e-05	4.2762e-05	139.89	7.3931e-07	3.2368e-07	303.35	37.991	2.9537e-07	9.3696e-07	101.86	33.874	11.801	6.209	1.0986e-06	9.806	4.1021e-06	1.6862e-06	5.8605e-07	119.88	2.3856e-08	1.8601e-08	259.07	32.344	1.8088e-08	2.2041e-08	85.209	28.313	10	5.2005	2.1379e-08	8.1423	494.416	187.372	244.744	187.935	330.210	407.203	184.714	193.237	284.072	314.356	189.667	195.081	199.252	202.645	241.050	199.296	-8191	255	
3824.147	1	1	0	0	0.14323	0.105	0.039137	0.090582	0.05699	0.18631	0.25546	0.20488	0.19022	0.11541	0.41841	0.12732	0.14421	0.13664	0.064889	0.38533	-0.74167	-0.77917	-0.57292	-1.2563	-0.3125	-0.64583	-1.1208	-0.33125	-1.1333	-0.93333	-0.36042	-1.3312	-0.33333	-0.68542	-1.3417	-0.50417	233.064	471.521	490.214	352.516	517.870	500.642	422.138	493.812	468.204	424.236	416.796	464.781	421.027	399.980	494.453	234.673	0.00015858	5.954e-05	1.9599e-05	140.5	6.7518e-07	8.8612e-07	300.69	37.447	7.5471e-07	4.8289e-07	101.97	33.517	11.978	6.1622	5.8664e-07	9.6763	4.0117e-06	1.8587e-06	5.7947e-07	120.91	2.4786e-08	1.8053e-08	259.96	32.415	1.9306e-08	1.8266e-08	85.391	28.2	10.023	5.2208	1.9054e-08	8.0129	502.669	230.193	215.625	186.802	340.782	316.488	185.515	194.804	283.611	287.681	189.491	195.529	198.209	201.896	296.578	200.338	-8191	255	
3824.243	1	1	0	0	0.082575	0.21005	0.1552	0.12231	0.10385	0.16166	0.12002	0.046663	0.095329	0.26177	0.16118	0.12528	0.057369	0.19093	0.084315	0.10729	-0.72708	-0.84375	-0.39792	-1.3292	-0.59167	-0.625	-1.2771	-0.35	-0.97292	-0.84792	-0.2625	-1.3896	-0.42292	-0.675	-1.4646	-0.19583	434.897	412.487	413.769	241.321	217.185	363.590	375.150	348.982	524.944	356.785	226.764	221.642	288.032	494.159	374.106	232.554	0.00018711	0.00013348	8.5154e-06	141.02	9.009e-07	4.4317e-07	303.09	37.746	8.2844e-07	2.8797e-07	103.62	34.366	12.254	6.228	8.1099e-07	9.6996	4.2788e-06	1.9853e-06	5.7404e-07	121.2	2.474e-08	1.7551e-08	260.85	32.704	2.1088e-08	1.5769e-08	86.663	28.585	10.235	5.2657	1.834e-08	8.1371	498.366	212.036	195.829	186.754	324.104	318.935	184.280	192.902	317.105	287.836	189.387	194.156	197.462	201.769	246.917	199.365	-8191	255	
3824.339	1	1	0	0	0.2782	0.13665	0.1712	0.31576	0.1008	0.23861	0.11998	0.25841	0.065967	0.10179	0.15706	0.1146	0.25902	0.24055	0.33513	0.25839	-0.93958	-1.0625	-0.16042	-1.1771	-0.45	-0.51042	-1.4146	-0.3	-0.96875	-1.0812	-0.32292	-1.3979	-0.68958	-0.47292	-1.3687	-0.36667	519.177	307.944	282.006	461.823	382.081	316.736	183.118	517.115	384.705	272.309	498.738	521.669	319.829	487.825	229.148	476.420	0.00020805	9.2387e-05	1.7504e-05	140.41	8.4573e-07	5.8546e-07	304.32	38.487	7.488e-07	4.1868e-07	103.41	33.618	12.108	6.189	9.9499e-07	9.6992	4.2624e-06	1.7474e-06	6.7088e-07	122.77	2.4603e-08	2.3153e-08	262.86	32.95	2.3829e-08	1.8783e-08	86.792	28.516	10.202	5.2276	1.7277e-08	8.1955	502.747	234.580	248.134	187.199	298.340	363.156	184.264	193.854	286.858	295.756	189.573	194.883	198.523	203.015	259.329	200.791	-8191	255	
3824.458	1	1	0	0	0.28215	0.2153	0.13231	0.37433	0.10555	0.068937	0.17972	0.3058	0.17439	0.21761	0.094088	0.1989	0.15556	0.14468	0.11564	0.21945	-0.64792	-1.1187	0.0020833	-1.3521	-0.66667	-0.33333	-1.4813	-0.45625	-0.9375	-1.2333	-0.34167	-1.4896	-0.80208	-0.47083	-1.4479	-0.33542	262.494	500.258	190.842	398.573	477.826	271.850	496.119	310.063	236.970	310.593	464.179	430.158	325.312	403.012	422.990	453.722	0.00019498	5.4049e-05	3.5272e-05	144.08	1.074e-06	7.5972e-07	304.97	38.611	1.0328e-06	5.5981e-07	101.71	33.91	12.014	6.2027	7.7902e-07	9.6083	4.4268e-06	1.586e-06	5.3996e-07	123.09	2.4344e-08	2.3092e-08	263.15	33.033	2.427e-08	1.4339e-08	86.721	28.741	10.147	5.2574	1.5468e-08	8.1239	501.969	194.185	211.244	187.557	285.653	309.832	185.273	193.906	305.027	322.789	189.865	195.477	198.498	203.037	283.805	200.012	-8191	255	
3824.554	1	1	0	0	0.19032	0.078605	0.095779	0.15902	0.12356	0.14801	0.16974	0.1625	0.053987	0.12423	0.18018	0.10439	0.12001	0.062047	0.17222	0.36748	-0.55625	-1.2771	-0.047917	-1.3583	-0.86458	-0.47292	-1.5146	-0.10208	-0.95	-1.5125	-0.23542	-1.3854	-0.875	-0.50417	-1.5375	-0.53542	433.682	507.814	500.373	515.863	206.775	218.202	509.996	504.477	192.662	300.695	391.116	521.837	198.718	501.682	493.953	430.042	0.00018419	6.8265e-05	2.1636e-05	142.29	5.642e-07	4.7372e-07	304.2	37.962	8.0764e-07	1.1516e-06	102.61	34.192	12.166	6.2226	7.4522e-07	9.6088	4.4597e-06	2.0799e-06	5.2795e-07	122.9	1.6895e-08	1.9728e-08	261.51	32.607	2.255e-08	1.4217e-08	85.825	28.488	10.149	5.1891	2.0118e-08	8.0441	510.305	254.981	248.356	187.732	269.725	378.373	185.412	193.734	305.965	320.186	189.619	194.638	198.166	202.288	264.043	200.719	-8191	255	
3824.626	1	1	0	0	0.18349	0.21309	0.078528	0.12956	0.042147	0.15452	0.11913	0.085201	0.091056	0.15565	0.111	0.14848	0.28167	0.032936	0.26588	0.22143	-0.42083	-1.2958	-0.33542	-1.2146	-0.93542	-0.28125	-1.3708	-0.52917	-0.65208	-1.2	-0.40625	-1.3104	-1.1063	-0.14167	-1.2896	-0.7125	219.153	284.203	297.380	419.128	183.495	495.343	179.312	388.576	181.918	227.152	522.924	224.316	521.824	230.507	467.103	310.267	0.00019825	7.8398e-05	1.3279e-05	141.17	1.0929e-06	3.5388e-07	300.84	37.326	9.8836e-07	7.1842e-07	102.98	33.186	11.927	6.1797	2.2903e-07	9.6246	4.9721e-06	1.5109e-06	6.2324e-07	121.59	1.956e-08	2.1828e-08	259.82	32.662	2.4057e-08	1.6667e-08	86.167	28.268	10.007	5.2234	1.4769e-08	8.0344	507.176	275.096	246.858	187.734	306.142	266.017	185.918	194.371	287.825	310.479	190.148	195.579	199.513	202.663	302.221	199.883	-8191	255	
3824.746	1	1	0	0	0.074702	0.11433	0.20215	0.2311	0.18072	0.085973	0.26668	0.27075	0.1461	0.15358	0.15076	0.074034	0.1706	0.19252	0.13175	0.13145	-0.31458	-1.5896	-0.25208	-1.2167	-1.0542	-0.33958	-1.4188	-0.64583	-0.56042	-1.2979	-0.46667	-1.0292	-1.1104	-0.49167	-1.1708	-0.56042	331.208	479.984	254.376	508.568	483.113	487.336	210.559	467.668	418.825	418.745	530.565	414.986	339.887	411.103	322.727	508.036	0.0001809	9.9161e-05	2.7688e-05	141.92	1.0346e-06	4.2051e-07	301.15	38.001	1.8482e-07	5.9253e-07	102.09	33.703	11.798	6.0848	8.6554e-07	9.528	4.224e-06	1.5638e-06	5.4306e-07	122.06	2.0749e-08	2.1159e-08	259.44	32.534	2.2732e-08	1.2984e-08	86.131	28.328	10.024	5.1731	1.8036e-08	8.0141	495.302	226.458	219.688	187.078	274.903	293.732	185.338	194.035	314.372	301.451	189.889	194.601	199.331	203.431	351.234	200.366	-8191	255	
3824.842	1	1	0	0	0.035522	0.019976	0.54515	0.25675	0.29238	0.22341	0.075136	0.1578	0.093488	0.068581	0.28557	0.093362	0.13461	0.26836	0.41496	0.14647	-0.23542	-1.4688	-0.5	-1.0229	-1.0771	-0.36667	-1.3458	-0.5625	-0.59375	-1.3583	-0.55417	-0.875	-1.1354	-0.18958	-1.3167	-0.87292	211.367	336.054	451.507	463.000	427.285	404.019	303.843	521.005	188.888	313.981	480.759	322.200	487.430	411.177	411.732	389.305	0.00017724	7.0592e-05	2.8742e-05	142.81	2.9739e-07	3.6908e-07	300.34	37.714	1.1331e-06	6.7047e-07	102.33	33.791	11.978	6.1712	7.9817e-07	9.4238	4.6666e-06	1.4608e-06	5.2408e-07	122.39	1.8022e-08	1.9241e-08	261.02	32.53	2.3691e-08	1.274e-08	85.809	28.433	10.075	5.2162	1.8902e-08	8.0548	504.359	244.339	277.886	187.252	289.904	286.382	185.719	193.919	277.854	318.141	189.906	195.691	199.170	201.978	285.297	199.810	-8191	255	
3824.939	1	1	0	0	0.14412	0.090293	0.14769	0.093066	0.39421	0.084952	0.16846	0.065023	0.16698	0.2031	0.25791	0.1358	0.21397	0.31831	0.19787	0.14171	-0.23333	-1.3833	-0.47292	-0.93542	-1.2104	-0.43333	-1.4646	-0.64375	-0.46875	-1.65	-0.54583	-0.96458	-1.1938	-0.12292	-1.3438	-1.0021	193.759	212.052	247.323	214.563	485.217	425.370	199.852	362.204	387.270	304.627	234.552	186.774	429.087	199.393	502.209	475.132	0.00020033	2.0393e-05	3.6802e-06	141.9	2.6421e-07	7.6931e-07	303.83	37.899	7.5289e-07	3.5747e-07	100.28	33.811	11.972	6.2437	1.1584e-06	9.6324	4.8118e-06	1.3412e-06	5.5623e-07	122.95	1.6544e-08	2.3564e-08	263.72	32.933	2.5854e-08	1.2482e-08	86.092	28.365	10.105	5.2622	1.8173e-08	8.0917	499.899	187.773	331.669	188.592	295.724	284.136	186.154	193.653	321.886	289.186	189.749	195.714	198.982	202.934	240.687	199.600	-8191	255	
3825.035	1	1	0	0	0.36735	0.25936	0.21919	0.090898	0.28091	0.25012	0.35878	0.22432	0.15327	0.17715	0.14055	0.17608	0.11599	0.18658	0.2854	0.061016	0.029167	-1.5812	-0.45	-0.83958	-1.3583	-0.23333	-1.4208	-0.96667	-0.4125	-1.6313	-0.36458	-0.8875	-1.4604	-0.33542	-1.1792	-1.0208	535.590	295.757	208.614	312.216	487.876	407.378	197.916	497.489	189.231	329.640	504.869	372.591	222.455	386.459	239.813	351.744	0.00021449	6.4411e-05	1.9235e-05	147.2	3.46e-07	5.5922e-07	306.22	38.732	4.2424e-07	8.6922e-07	104.51	33.258	12.287	6.1043	1.1346e-06	9.7239	5.0598e-06	1.4093e-06	5.2524e-07	124.8	1.5706e-08	2.4218e-08	264.87	33.065	2.6691e-08	1.1979e-08	87.305	28.457	10.223	5.2404	2.2899e-08	8.1326	503.661	258.692	201.692	186.904	306.212	383.553	184.893	193.612	254.340	306.432	189.295	194.982	198.394	201.881	275.529	200.159	-8191	255	
3825.154	1	1	0	0	0.28655	0.28612	0.24664	0.29798	0.42744	0.18509	0.26788	0.17033	0.23771	0.096937	0.18802	0.27987	0.18588	0.31387	0.2396	0.17598	0.10625	-1.4271	-0.53958	-0.57083	-1.3917	-0.27292	-1.0375	-0.97292	-0.32708	-1.1708	-0.66875	-0.60625	-1.4104	-0.49792	-1.0583	-1.05	235.174	358.318	307.122	225.836	433.591	469.492	304.473	485.241	332.887	472.407	215.836	452.219	372.985	477.521	529.453	352.250	0.00016074	8.3969e-05	3.0799e-05	144.71	3.7683e-07	8.2269e-07	307.62	38.52	3.2034e-07	1.1628e-06	103.58	34.39	11.783	6.1391	7.2925e-07	9.832	4.6995e-06	1.5484e-06	5.2756e-07	124.2	1.7412e-08	2.2848e-08	265.8	33.14	2.6919e-08	1.4734e-08	87.093	28.77	10.052	5.2368	2.1592e-08	8.1519	504.313	236.271	239.554	187.686	339.882	302.605	186.080	194.023	317.828	299.934	190.101	195.347	198.834	202.226	262.536	200.030	-8191	255	
3825.250	1	1	0	0	0.19084	0.33312	0.12041	0.27608	0.12042	0.15907	0.083369	0.17774	0.014273	0.1611	0.26784	0.28934	0.4502	0.20154	0.27042	0.21373	0.085417	-1.325	-0.50208	-0.93542	-1.3146	-0.62292	-1.0771	-0.88125	-0.29583	-1.1917	-0.71875	-0.48125	-1.2812	-0.4125	-0.9875	-1.1771	413.843	502.477	478.276	176.121	385.013	454.064	494.758	207.435	407.522	329.151	390.856	179.041	416.971	444.470	245.393	482.768	0.00017865	0.00011055	2.3791e-05	146.94	9.3527e-07	6.4328e-07	314.55	38.986	1.187e-06	6.7244e-07	104.88	34.457	12.018	6.2724	7.1553e-07	10.019	4.783e-06	1.8406e-06	5.5196e-07	126.04	1.9347e-08	2.0671e-08	269.56	33.585	2.631e-08	1.5769e-08	88.101	28.98	10.203	5.2895	2.0787e-08	8.2852	499.584	230.248	258.691	188.253	327.385	332.173	185.501	193.937	314.502	321.729	189.872	195.161	198.711	202.795	266.225	200.487	-8191	255	
3825.323	1	1	0	0	0.18802	0.26485	0.059817	0.31377	0.11399	0.24032	0.12986	0.086282	0.11981	0.27308	0.13113	0.24375	0.11971	0.23384	0.041856	0.20352	-0.05	-1.5417	-0.70625	-0.57292	-1.4292	-0.49792	-1.0083	-1.2062	-0.31667	-1.4167	-0.68958	-0.53542	-1.3687	-0.34583	-0.88125	-1.1667	283.147	399.369	215.810	372.173	423.409	396.034	394.769	185.138	468.520	353.785	486.116	500.178	256.120	298.786	312.117	328.596	0.00019381	0.0001329	2.2581e-05	149.42	4.1467e-08	1.1296e-06	309.74	38.944	8.9651e-07	1.143e-06	103.92	34.166	12.242	6.1885	3.6704e-07	9.9321	4.7639e-06	1.369e-06	4.0749e-07	126.54	1.4884e-08	2.2041e-08	266.43	33.281	2.5092e-08	1.7337e-08	87.865	28.719	10.177	5.2185	2.0072e-08	8.1703	498.052	197.821	263.290	187.851	294.073	324.141	185.850	193.935	263.052	294.994	188.853	196.149	198.952	203.175	221.116	199.761	-8191	255	
3825.419	1	1	0	0	0.23304	0.23129	0.18294	0.31139	0.12787	0.22591	0.062074	0.15906	0.077098	0.03678	0.30008	0.28018	0.17188	0.199	0.15424	0.1498	0.24583	-1.3354	-0.92708	-0.45417	-1.3792	-0.49792	-0.75625	-1.3396	-0.23542	-1.0083	-0.79583	-0.425	-1.0917	-0.38333	-0.76667	-1.2437	331.811	353.173	428.369	198.196	447.817	226.751	304.331	355.187	194.864	185.004	431.778	203.839	530.402	519.076	206.278	431.100	0.00018287	0.0001036	4.4989e-05	144.39	8.0582e-07	1.2447e-06	311.68	38.591	7.9329e-07	2.6301e-07	102.98	33.472	11.895	6.1645	7.3021e-07	9.7136	4.6351e-06	1.9199e-06	4.3499e-07	124.05	1.8174e-08	2.3016e-08	266.17	33.011	2.5092e-08	1.51e-08	86.589	28.441	10.118	5.1933	2.3111e-08	8.1159	499.584	244.185	223.331	186.738	341.118	316.679	185.186	193.400	288.641	371.438	189.221	194.681	197.802	201.917	265.144	198.235	-8191	255	
3825.538	1	1	0	0	0.13408	0.14701	0.13894	0.024516	0.092519	0.081665	0.26142	0.1214	0.37463	0.166	0.21722	0.10302	0.071216	0.16223	0.27955	0.03342	0.072917	-1.025	-0.9375	-0.34792	-1.4625	-0.46458	-0.82083	-1.2938	-0.2375	-1.3125	-1.0146	-0.25208	-1.4312	-0.51667	-0.725	-1.2625	519.421	290.179	281.815	321.145	221.789	332.945	284.163	217.480	475.493	345.185	428.246	368.912	378.380	396.037	524.363	250.473	0.00014523	0.00010075	2.0279e-05	142.25	6.5821e-07	4.893e-07	306.43	38.491	7.0476e-07	9.9663e-07	103.5	33.819	11.995	6.1834	9.1513e-07	9.6741	4.4405e-06	1.7669e-06	4.9193e-07	122.92	1.662e-08	1.9499e-08	263.03	33.004	2.5595e-08	1.5998e-08	86.605	28.355	10.13	5.2017	2.454e-08	8.094	495.579	236.292	194.986	185.904	325.217	264.894	184.205	193.838	303.845	298.528	188.535	194.671	198.024	200.870	297.758	198.632	-8191	255	
3825.634	1	1	0	0	0.15899	0.22953	0.16479	0.13147	0.17671	0.19641	0.37021	0.14043	0.28187	0.18503	0.12055	0.35112	0.10948	0.21074	0.13506	0.26921	-0.15	-1.1333	-1.1896	-0.26667	-1.2729	-0.74375	-0.5875	-1.3021	-0.29583	-1.0396	-1.1083	-0.32083	-1.3021	-0.57083	-0.50417	-1.2313	293.879	270.861	533.173	324.257	317.858	444.239	426.799	335.197	415.312	480.254	274.110	471.454	376.359	485.610	400.034	454.365	0.00020675	8.4319e-05	1.8596e-05	144.7	6.65e-07	5.4866e-07	307.41	38.407	6.949e-07	7.5668e-07	103.75	33.247	11.773	6.3112	7.047e-07	9.7734	4.8132e-06	1.945e-06	3.9354e-07	123.72	1.5691e-08	2.2224e-08	263.84	32.888	2.8305e-08	1.5754e-08	86.632	28.247	9.9641	5.2207	2.4646e-08	8.1453	499.940	224.048	263.083	186.783	291.839	364.113	184.553	192.620	313.095	278.912	187.913	194.049	197.404	201.209	280.682	198.360	-8191	255	
3825.730	1	1	0	0	0.24047	0.077043	0.13466	0.10172	0.2283	0.19662	0.091376	0.24997	0.24158	0.31258	0.20484	0.19052	0.11594	0.040376	0.20368	0.27761	-0.12292	-0.80417	-1.0271	-0.35208	-1.1396	-0.62292	-0.375	-1.4583	-0.43542	-0.93542	-1.225	-0.39375	-1.1083	-0.6	-0.45833	-1.4188	409.056	179.690	422.222	367.687	249.589	412.677	365.062	423.492	367.859	384.667	522.740	411.955	459.160	435.965	250.169	196.542	0.00020183	0.00010951	3.8954e-05	148.05	6.6334e-07	6.3476e-07	310.88	38.856	8.6935e-07	8.8298e-07	103.18	33.525	12.077	6.1392	5.304e-07	9.5636	4.9091e-06	2.1008e-06	4.7837e-07	124.99	1.7291e-08	1.8464e-08	266.63	32.961	2.6006e-08	2.1965e-08	86.803	28.273	10.114	5.1832	2.5619e-08	8.0056	502.422	233.242	236.088	186.983	337.342	337.265	184.482	192.908	327.104	296.634	188.309	194.969	197.369	201.699	305.055	199.123	-8191	255	
3825.851	1	1	0	0	0.23805	0.045089	0.29109	0.049536	0.10565	0.12974	0.097027	0.14099	0.089266	0.18076	0.13727	0.28048	0.28515	0.23226	0.15363	0.012169	-0.0083333	-0.8625	-1.0187	-0.36458	-1.1437	-0.7125	-0.68542	-1.3146	-0.525	-0.70625	-1.1583	-0.31042	-1.1729	-0.66667	-0.36458	-1.3188	256.303	514.472	263.784	354.912	328.786	232.740	312.317	357.556	443.147	413.098	202.080	468.859	529.201	370.881	210.863	276.375	0.0001563	0.00010697	3.5278e-05	146.78	8.399e-07	4.1172e-07	308.47	38.326	1.7214e-06	6.0614e-07	103.65	33.846	11.892	6.1835	1.0175e-06	9.7568	4.4186e-06	1.8114e-06	3.9935e-07	125.48	1.9012e-08	1.8723e-08	266.96	32.755	2.8244e-08	1.994e-08	87.27	28.365	10.133	5.2232	2.4297e-08	8.0833	494.993	253.017	234.661	186.905	322.661	276.856	183.988	192.372	307.666	259.246	188.459	193.189	197.162	201.126	261.441	198.176	-8191	255	
3825.923	1	1	0	0	0.25841	0.038456	0.24679	0.25808	0.059365	0.1382	0.080328	0.066545	0.30524	0.15222	0.1108	0.079834	0.39405	0.02781	0.3076	0.15626	-0.1625	-0.73333	-1.2313	-0.21458	-1.0187	-0.81875	-0.3	-1.2833	-0.61458	-0.92708	-1.3188	-0.15833	-1.2563	-1.1437	-0.085417	-1.5729	280.487	384.002	409.949	442.003	291.484	265.738	319.320	372.927	335.900	224.480	333.787	461.199	213.697	264.752	258.379	435.410	0.00018371	5.8513e-05	1.6676e-05	146.94	7.1899e-07	9.8135e-07	307.04	38.105	5.7415e-07	1.1008e-06	104.18	33.896	12.243	6.1815	5.4515e-07	9.8	4.7077e-06	1.8392e-06	4.5203e-07	125.38	1.8555e-08	1.6927e-08	266.39	32.975	2.2397e-08	2.0488e-08	87.268	28.505	10.274	5.2105	2.5391e-08	8.1617	501.718	198.930	255.697	186.036	317.792	343.089	184.767	193.378	296.988	311.146	189.044	194.034	197.783	200.916	282.459	198.552	-8191	255	
3826.019	1	1	0	0	0.20231	0.13499	0.12748	0.10144	0.14145	0.2301	0.10758	0.18356	0.017969	0.29886	0.11095	0.051352	0.20686	0.12662	0.17346	0.25852	-0.17917	-0.625	-1.4479	-0.05625	-1.25	-0.90208	-0.09375	-1.475	-0.5875	-0.5625	-1.2979	-0.20625	-1.1979	-0.71458	-0.21667	-1.2771	464.425	524.658	507.686	296.833	355.274	429.015	388.472	320.841	392.631	499.297	199.937	398.219	423.468	217.044	236.524	509.967	0.0001741	5.9249e-05	2.6623e-05	146.33	9.3558e-07	5.1977e-07	313.02	38.348	7.3421e-07	4.9697e-07	102.83	34.069	12.122	6.2734	6.95e-07	9.9242	4.3337e-06	2.3442e-06	3.7495e-07	125.33	1.7245e-08	1.577e-08	269.59	33.215	2.4712e-08	2.2147e-08	87.475	28.796	10.196	5.254	2.5284e-08	8.2174	495.586	261.077	175.448	187.240	292.945	276.698	184.583	193.301	259.892	313.560	188.908	193.613	197.785	200.753	261.780	199.234	-8191	255	
3826.140	1	1	0	0	0.16365	0.064486	0.34955	0.013106	0.25582	0.15435	0.10408	0.13962	0.045872	0.084904	0.009647	0.074071	0.32043	0.2192	0.098505	0.083036	-0.27083	-0.43542	-1.3583	-0.24792	-1.0146	-0.89167	-0.31875	-1.4625	-0.38958	-0.56042	-1.4896	-0.13125	-1.0375	-0.9875	-0.39583	-1.2563	376.746	401.754	444.792	483.484	354.194	262.659	469.599	443.820	267.162	201.965	387.674	513.672	296.059	302.158	183.301	394.258	0.00017732	8.0753e-05	1.4428e-05	144.37	7.805e-07	3.2711e-07	313.4	38.523	7.0013e-07	5.6145e-07	105.49	33.921	11.936	6.2096	5.0036e-07	9.5653	4.4501e-06	2.219e-06	3.9006e-07	125.03	1.9926e-08	1.4141e-08	269.79	33.315	2.6676e-08	2.3532e-08	88.738	28.648	10.201	5.2407	2.5208e-08	8.1034	499.404	246.006	275.165	186.812	300.301	316.128	184.258	192.941	266.598	295.073	188.601	193.834	197.646	201.297	235.808	199.033	-8191	255	
3826.234	1	1	0	0	0.23094	0.029595	0.10402	0.25402	0.19597	0.14413	0.2256	0.30245	0.14993	0.097385	0.36849	0.16792	0.19835	0.31144	0.10511	0.16725	-0.22708	-0.38333	-1.2708	-0.59375	-1.075	-1.1938	-0.17917	-1.3062	-0.61667	-0.5125	-1.3312	-0.30417	-0.77292	-1.0688	-0.31875	-1.3417	503.759	380.127	371.735	326.684	341.498	370.773	284.876	177.501	245.112	393.655	349.269	414.738	289.366	267.304	268.643	475.809	0.00017999	0.00011481	6.298e-06	144.76	9.2998e-07	2.7917e-07	306.39	38.626	7.6747e-07	9.7113e-07	103.51	33.873	11.887	6.1907	2.5204e-07	9.6707	4.2898e-06	2.0924e-06	4.1794e-07	124.37	2.1145e-08	1.303e-08	263.94	33.104	2.6036e-08	2.2345e-08	86.723	28.425	10.145	5.2116	2.3902e-08	8.0199	506.882	232.606	244.501	187.492	319.919	307.904	183.929	193.004	283.854	270.051	188.829	193.467	197.166	201.726	308.480	199.194	-8191	255	
3826.330	1	1	0	0	0.08234	0.30964	0.33817	0.098727	0.31811	0.086374	0.059604	0.06163	0.26477	0.11393	0.2326	0.15746	0.045274	0.17852	0.050524	0.19729	-0.42708	-0.50625	-1.3813	-0.28333	-0.89583	-1.2042	-0.10208	-1.2083	-0.75208	-0.47917	-1.4167	-0.3625	-0.69792	-1.1458	-0.125	-1.2875	433.546	352.830	293.355	345.635	299.460	496.236	530.200	276.146	236.250	472.424	461.623	189.892	298.077	280.818	400.407	218.518	0.00017648	0.00012216	3.4458e-05	144.99	6.8004e-07	2.1507e-07	308.23	38.439	5.4481e-07	1.3513e-06	104.55	34.053	12.094	6.2107	7.0136e-07	9.788	4.5419e-06	2.1286e-06	3.4241e-07	123.71	1.9195e-08	1.5846e-08	264.91	32.852	2.558e-08	2.2238e-08	86.892	28.355	10.181	5.1887	2.7077e-08	8.1084	502.036	222.875	247.789	186.867	318.674	330.159	184.125	192.300	311.016	285.570	189.460	193.988	197.373	201.149	290.448	198.575	-8191	255	
3826.451	1	1	0	0	0.16725	0.074276	0.10317	0.21595	0.29286	0.34138	0.03513	0.30241	0.16366	0.19034	0.11318	0.27271	0.17963	0.18971	0.11658	0.23326	-0.49167	-0.28125	-1.425	-0.44167	-0.64792	-1.3062	-0.41458	-1.0708	-0.85208	-0.2625	-1.3875	-0.51458	-0.79167	-1.2521	-0.24375	-1.1375	474.538	474.300	220.769	481.989	265.279	502.523	199.566	525.781	366.227	345.961	504.880	423.563	188.606	228.982	395.732	517.788	0.00015649	7.3588e-05	3.8536e-05	144.26	1.092e-06	3.4323e-07	305.87	38.823	9.2658e-07	8.0821e-07	104.48	33.398	11.957	6.1688	4.7098e-07	9.9431	4.1733e-06	1.906e-06	3.3157e-07	123.73	2.4725e-08	1.2178e-08	263.06	33.021	2.2519e-08	2.1508e-08	86.525	28.304	10.198	5.1794	2.5132e-08	8.2349	501.736	264.140	230.216	186.853	291.925	328.510	184.135	192.705	320.417	328.251	188.282	194.636	197.633	201.171	292.974	199.219	-8191	255	
3826.522	1	1	0	0	0.088222	0.24747	0.12933	0.14398	0.19473	0.14058	0.18063	0.10578	0.127	0.18587	0.30365	0.092551	0.25094	0.1471	0.10505	0.18326	-0.8	-0.28125	-1.1	-0.48542	-0.70625	-1.5104	-0.40833	-1.0312	-1.0896	-0.175	-1.0896	-0.53958	-0.42917	-1.2687	-0.25625	-1.0042	496.557	325.612	461.252	209.579	392.263	241.058	496.502	374.494	261.739	215.291	467.908	391.474	445.303	444.497	341.160	186.834	0.00017684	9.6547e-05	3.4824e-05	143.57	1.5922e-06	1.08e-06	308.7	38.577	8.6809e-07	6.4878e-07	102.89	33.838	12.029	6.248	7.9294e-07	9.6434	4.3583e-06	1.906e-06	3.4745e-07	123.04	2.1952e-08	1.5329e-08	263.59	32.911	2.0372e-08	2.1188e-08	86.678	28.473	10.166	5.2621	2.5786e-08	8.0961	505.270	253.894	271.895	186.286	308.314	300.511	184.606	193.349	280.871	358.289	188.371	192.813	197.926	201.159	263.660	199.137	-8191	255	
3826.619	1	1	0	0	0.13593	0.17044	0.14307	0.18097	0.2617	0.20679	0.30731	0.13146	0.17908	0.19287	0.091997	0.095833	0.44339	0.070445	0.14751	0.15785	-0.99792	-0.39375	-1.3312	-0.69792	-0.57708	-1.4646	-0.5375	-1.0146	-1.0083	-0.37083	-1.1875	-0.44792	-0.66458	-1.3854	-0.58333	-1.05	232.058	449.071	275.901	346.424	222.007	456.673	445.005	260.891	508.012	523.538	226.487	462.241	430.954	359.796	174.954	225.400	0.00021387	0.00011695	3.0339e-05	144.05	9.4752e-07	4.8091e-07	307.69	38.98	8.8965e-07	5.9853e-07	103.73	33.652	11.648	6.1688	4.7471e-07	9.7119	4.2734e-06	2.2955e-06	4.3073e-07	123.97	2.2851e-08	1.2604e-08	264.19	33.33	2.0068e-08	2.1097e-08	86.421	28.198	10.013	5.2063	2.2656e-08	8.074	503.244	183.760	246.052	186.737	317.327	334.117	184.182	192.903	303.243	257.731	189.088	193.497	197.918	200.937	247.450	198.540	-8191	255	
3826.715	1	1	0	0	0.12332	0.11731	0.050972	0.13157	0.16284	0.1544	0.30829	0.1262	0.12043	0.37486	0.26415	0.24252	0.14528	0.079725	0.002465	0.14519	-0.57292	-0.47917	-1.2021	-0.82292	-0.38333	-1.4792	-0.5625	-0.89167	-1.3125	-0.43125	-1.3021	-0.73542	-0.49375	-1.3875	-0.23125	-0.875	237.691	432.189	443.946	240.252	240.346	295.614	530.633	462.461	380.416	407.571	532.058	376.613	325.546	362.409	180.000	520.444	0.00022076	6.9904e-05	1.679e-05	143.39	9.3424e-07	5.0132e-07	306.47	39.256	7.1216e-07	7.5984e-07	104.31	33.995	11.8	6.1506	2.5846e-07	9.6168	4.4323e-06	2.0103e-06	3.9935e-07	123.85	2.3217e-08	1.2375e-08	264.54	33.194	1.8713e-08	2.3365e-08	87.107	28.298	10.046	5.198	2.2686e-08	8.0848	494.938	213.548	249.216	187.128	287.761	367.515	184.760	192.721	285.078	298.476	188.240	193.547	197.379	200.206	311.862	199.189	-8191	255	
3826.811	1	1	0	0	0.16892	0.24409	0.21117	0.042991	0.11489	0.19662	0.23083	0.38813	0.20528	0.1292	0.18504	0.16917	0.050702	0.18996	0.015239	0.19857	-0.82292	-0.25208	-1.1625	-0.89167	-0.55625	-1.3667	-0.37292	-0.84167	-1.2542	-0.31042	-1.3292	-0.74792	-0.19792	-1.5583	-0.43958	-0.72708	378.595	370.593	472.253	402.918	341.882	497.074	482.456	403.314	316.665	505.956	317.677	432.902	186.652	530.917	501.055	483.737	0.00017936	0.00010095	3.6764e-05	142.02	2.4697e-07	6.1507e-07	306.56	38.626	7.8343e-07	8.5368e-07	102.3	33.663	12.265	6.2418	6.7018e-07	9.6437	4.1268e-06	2.0062e-06	3.916e-07	124.1	2.1008e-08	1.3182e-08	264.61	32.954	2.0053e-08	2.37e-08	86.558	28.292	10.212	5.2239	2.2443e-08	8.0767	504.144	256.799	257.664	186.986	333.157	295.276	184.427	192.708	239.789	340.625	188.302	193.185	197.656	200.916	286.335	199.098	-8191	255	
3826.931	1	1	0	0	0.06082	0.11226	0.1879	0.33318	0.10978	0.088542	0.18207	0.027985	0.11977	0.087881	0.14534	0.20729	0.030537	0.02467	0.18545	0.11381	-1.0667	0.03125	-1.3417	-1.025	-0.052083	-1.2833	-0.34375	-0.60833	-1.4979	-0.45	-1.2292	-0.89792	-0.39167	-1.5063	-0.75417	-0.75	383.935	208.006	355.473	446.199	211.832	328.233	316.024	523.473	287.328	427.679	289.412	381.151	451.998	177.258	401.990	380.849	0.00019275	7.8268e-05	2.1617e-05	144.69	6.7118e-07	1.2984e-06	307.87	38.223	5.3222e-07	1.1146e-06	104.14	34.096	12.152	6.2299	1.0555e-07	9.7795	3.9692e-06	2.0576e-06	3.5248e-07	124.2	2.6766e-08	1.7338e-08	263.2	32.642	1.6657e-08	2.4461e-08	87.228	28.21	10.144	5.2354	2.0224e-08	8.109	499.664	231.176	177.028	185.867	288.813	318.218	184.511	192.694	321.060	294.897	187.885	193.880	197.080	201.582	272.179	199.115	-8191	255	
3827.028	1	1	0	0	0.1636	0.11726	0.14301	0.10762	0.082629	0.23576	0.44438	0.15418	0.090386	0.16843	0.07856	0.071948	0.144	0.089604	0.29825	0.064824	-0.93542	-0.3	-1.0958	-1.0271	-0.40625	-1.2563	-0.525	-0.50625	-1.3354	-0.35833	-1.0375	-1.0604	-0.31667	-1.2938	-0.97083	-0.67917	388.931	254.459	389.854	287.353	263.002	236.732	403.185	478.269	207.915	500.771	236.367	219.268	337.714	376.293	359.364	215.899	0.00015694	7.9797e-05	3.2268e-05	141.86	3.1458e-07	6.5543e-07	302.49	37.665	4.056e-07	4.1336e-07	103.21	32.911	11.738	6.1086	5.4275e-07	9.5472	3.8267e-06	2.1815e-06	5.0393e-07	122.01	2.2135e-08	1.3563e-08	259.85	32.379	1.6977e-08	2.163e-08	85.657	27.799	9.9192	5.1681	2.0589e-08	7.9565	497.839	240.084	255.007	187.090	335.945	342.217	184.702	193.159	315.020	374.654	188.551	193.449	197.980	201.034	270.382	198.873	-8191	255	
3827.124	1	1	0	0	0.32319	0.073923	0.40814	0.2981	0.2165	0.097457	0.14826	0.034741	0.17538	0.040874	0.12714	0.074456	0.26729	0.32216	0.19184	0.41471	-0.8875	-0.41875	-1.1667	-0.94583	-0.48958	-1.2313	-0.7875	-0.58125	-1.4104	-0.48542	-0.97292	-1.3792	-0.29792	-1.4417	-0.75833	-0.55	392.972	220.741	179.142	256.550	215.964	384.319	524.339	468.827	402.389	531.576	202.271	176.507	233.435	352.052	246.009	509.139	0.0002056	8.5351e-05	2.2321e-05	144.68	8.5564e-07	8.3272e-07	300.37	37.629	8.1275e-07	1.2043e-06	101.13	33.472	12.037	6.0774	9.7509e-07	9.4615	4.0966e-06	2.3568e-06	4.0594e-07	122.33	2.5197e-08	1.4552e-08	259.06	32.192	1.6642e-08	2.1751e-08	84.791	27.861	10.052	5.1495	2.0863e-08	7.9517	500.615	265.969	273.593	186.742	319.284	354.495	184.685	193.510	303.916	255.604	188.329	194.203	196.831	201.442	316.825	199.343	-8191	255	
3827.220	1	1	0	0	0.10571	0.023165	0.15614	0.074376	0.29024	0.18645	0.3231	0.047047	0.22821	0.1444	0.10886	0.11945	0.047567	0.1969	0.12182	0.33747	-1.3229	-0.35625	-0.92917	-1.2729	-0.10417	-1.3958	-1.0604	-0.53125	-1.5833	-0.3	-0.92292	-1.3729	0.05	-1.4458	-0.85208	-0.33333	534.926	284.750	303.358	381.275	267.808	192.826	270.976	319.027	517.837	413.193	227.985	303.941	502.172	509.779	277.595	451.427	0.00018477	9.8795e-05	3.0464e-05	141.62	6.1999e-07	2.2762e-07	295.6	37.029	5.4102e-07	9.353e-07	100.1	33.134	11.744	6.1232	6.2522e-07	9.6597	3.839e-06	1.9797e-06	5.1013e-07	121.23	2.5944e-08	9.5746e-09	257.73	31.881	1.6094e-08	2.061e-08	84.315	27.828	9.9134	5.1545	1.7626e-08	8.0811	498.781	225.930	227.757	186.616	258.042	331.727	184.180	193.285	303.244	356.388	188.158	192.768	197.131	201.291	260.329	198.522	-8191	255	
3827.316	1	1	0	0	0.31402	0.19954	0.070294	0.23432	0.16669	0.12278	0.064848	0.19973	0.17728	0.17519	0.36127	0.25707	0.22584	0.15318	0.3047	0.084075	-1.1521	-0.24375	-0.71458	-1.3188	-0.27708	-1.1729	-0.80625	-0.25417	-1.3604	-0.50208	-0.88333	-1.1354	-0.43958	-0.95625	-0.84375	-0.45417	184.743	340.965	315.175	187.475	440.583	216.941	226.590	266.621	299.228	426.303	439.003	482.574	361.561	199.699	322.025	412.188	0.0001822	5.2001e-05	4.1518e-05	142.29	4.7621e-07	1.3398e-06	300.41	37.996	6.304e-07	5.9332e-07	102.37	33.112	12.089	6.1296	9.2725e-07	9.7651	3.9541e-06	1.739e-06	5.2989e-07	122.25	2.2135e-08	1.2939e-08	258.8	32.142	2.2413e-08	2.2589e-08	85.167	27.845	10.012	5.1488	2.0756e-08	8.0895	502.554	187.575	238.412	185.452	315.822	316.528	183.294	192.898	280.273	281.306	188.397	194.761	196.614	199.555	282.234	198.347	-8191	255	
3827.412	1	1	0	0	0.25254	0.064658	0.37178	0.053891	0.027202	0.15627	0.1813	0.21057	0.14101	0.1528	0.21041	0.061226	0.2804	0.036564	0.35238	0.075055	-0.925	-0.37917	-0.69375	-1.4354	-0.3875	-1.1333	-1.2437	-0.34375	-1.5292	-0.56042	-0.63958	-1.2458	-0.32292	-0.93333	-1.0792	-0.5	379.872	385.584	391.829	283.574	369.922	297.888	421.294	476.399	300.480	230.197	403.810	212.880	192.041	333.572	386.159	418.051	0.00016088	4.8546e-05	2.4685e-05	141.44	6.6613e-07	5.6964e-07	303.85	37.212	9.7145e-07	5.1674e-07	102.21	32.714	11.638	6.1274	8.8363e-07	9.509	4.1144e-06	2.187e-06	5.7598e-07	122.48	2.538e-08	1.5937e-08	260.31	32.3	1.9839e-08	1.7748e-08	85.585	27.59	9.8615	5.1714	2.0316e-08	7.9597	498.246	236.595	229.979	187.174	305.861	320.405	183.784	192.212	314.312	378.868	188.092	193.939	196.318	200.921	272.063	199.029	-8191	255	
3827.531	1	1	0	0	0.021014	0.19059	0.39422	0.17616	0.092244	0.15382	0.22814	0.19652	0.21744	0.04626	0.12245	0.1198	0.23912	0.2093	0.28927	0.097474	-0.96458	-0.50208	-0.55833	-1.3438	-0.41667	-0.98333	-1.0667	-0.1625	-1.3021	-0.57708	-0.65417	-1.3813	-0.24792	-1.0729	-1.2	-0.10417	428.480	358.748	246.457	243.106	463.537	318.479	201.540	498.950	474.685	299.449	271.792	352.787	407.676	282.457	463.169	406.267	0.00014694	1.793e-05	4.1274e-05	145.59	2.1662e-07	9.7963e-07	303.07	38.333	6.9742e-07	5.7572e-07	102.82	32.858	11.848	6.2303	5.1929e-07	9.6099	4.0048e-06	2.2802e-06	5.1091e-07	123.97	2.4253e-08	1.819e-08	262.39	32.424	2.2275e-08	2.0047e-08	85.856	27.845	9.9442	5.2441	1.6517e-08	8.055	492.173	238.106	264.369	186.839	364.525	316.647	184.186	193.114	285.084	307.633	188.619	193.720	197.946	201.100	245.499	199.868	-8191	255	
3827.627	1	1	0	0	0.087354	0.25528	0.16556	0.22035	0.067995	0.036294	0.13679	0.056198	0.20043	0.1016	0.22209	0.33629	0.2759	0.076345	0.08178	0.23196	-0.88125	-0.72292	-0.52917	-1.6896	-0.46667	-0.97917	-1.3792	-0.46875	-1.3521	-0.7875	-0.61875	-1.45	-0.57083	-1	-1.2833	-0.30417	526.754	393.399	321.470	486.795	468.529	347.848	406.834	377.047	467.746	368.209	377.237	336.094	496.503	515.240	495.055	389.443	0.00016958	4.7196e-05	2.7555e-05	146.12	6.4245e-07	5.4919e-07	307.18	38.09	4.7961e-07	5.1313e-07	102.2	33.238	11.99	6.2839	8.891e-07	9.4596	4.0103e-06	2.1133e-06	5.8411e-07	124.37	2.2958e-08	2.0991e-08	263.31	32.714	1.9702e-08	1.5556e-08	85.833	28.036	10.003	5.3035	1.7337e-08	8.0708	496.646	216.929	237.118	186.910	288.601	328.435	184.119	193.072	376.744	324.994	189.147	195.350	198.933	203.004	289.287	199.567	-8191	255	
3827.723	1	1	0	0	0.17089	0.32697	0.36634	0.090128	0.058295	0.20693	0.19091	0.22941	0.16797	0.18079	0.096989	0.10256	0.22871	0.10699	0.23403	0.36944	-0.99167	-1.1271	-0.27083	-1.5938	-0.34792	-0.83958	-1.6396	-0.19583	-1.2271	-1.0604	-0.50417	-1.5354	-0.47917	-0.94583	-1.5146	-0.24792	375.886	443.905	213.444	319.052	197.541	286.423	394.007	363.081	193.126	222.338	363.093	179.431	362.244	436.109	452.941	428.452	0.00017279	0.00014845	4.5311e-05	147.41	4.0591e-07	3.7892e-07	305.1	37.665	6.9616e-07	7.3525e-07	102.34	33.329	11.872	6.2523	7.6629e-07	9.7599	4.0774e-06	1.8865e-06	5.907e-07	125.78	2.3537e-08	2.1296e-08	265.31	32.913	1.9718e-08	1.6104e-08	86.711	28.321	10.084	5.3162	1.989e-08	8.1838	503.980	243.666	233.819	188.326	269.049	256.762	184.725	194.186	329.288	316.919	189.645	194.513	198.893	202.377	273.754	199.983	-8191	255	
#DATA ENDS
