BOXY.EXE: ISS Imagent and Oximeter Data Acquisition Program Version 0.80
Ascii Record File

#ACQ INFORMATION
2  Detector Channels 
16  External MUX Channels 
1  Auxiliary Channels 
5000  Waveform (CCF) Frequency (Hz)
1  Waveforms Skipped 
30  Waveforms Averaged 
1  Cycles Averaged 
16  Acquisitions per Waveform 
10.0806  Updata Rate (Hz) 

#FILE INFORMATION
TRUE -- External MUX Channel results are PARSED.
FALSE -- AC DC and Phase are NOT grouped.
TRUE -- Companion Program Settings File CREATED.
FALSE -- AC data not excluded
FALSE -- DC data not excluded
FALSE -- Phase data not excluded
FALSE -- Auxillary Chn. data not excluded
Tab delimiters

#CALIBRATION STATE
TRUE -- Waveform Calibration Values APPLIED.


#AUX CALIBRATION VALUES
Val Type	aux-1	

Term	1.0000e+00	
Factor	0.0000e+00	


#WF CALIBRATION VALUES
A = Detector Channel
Val Type	A-AC1	A-AC2	A-AC3	A-AC4	A-AC5	A-AC6	A-AC7	A-AC8	A-AC9	A-AC10	A-AC11	A-AC12	A-AC13	A-AC14	A-AC15	A-AC16	A-DC1	A-DC2	A-DC3	A-DC4	A-DC5	A-DC6	A-DC7	A-DC8	A-DC9	A-DC10	A-DC11	A-DC12	A-DC13	A-DC14	A-DC15	A-DC16	A-Ph1	A-Ph2	A-Ph3	A-Ph4	A-Ph5	A-Ph6	A-Ph7	A-Ph8	A-Ph9	A-Ph10	A-Ph11	A-Ph12	A-Ph13	A-Ph14	A-Ph15	A-Ph16	

Term	0.00000e+00	0.00000e+00	0.00000e+00	0.00000e+00	0.00000e+00	0.00000e+00	0.00000e+00	0.00000e+00	0.00000e+00	0.00000e+00	0.00000e+00	0.00000e+00	0.00000e+00	0.00000e+00	0.00000e+00	0.00000e+00	0.00000e+00	0.00000e+00	0.00000e+00	0.00000e+00	0.00000e+00	0.00000e+00	0.00000e+00	0.00000e+00	0.00000e+00	0.00000e+00	0.00000e+00	0.00000e+00	0.00000e+00	0.00000e+00	0.00000e+00	0.00000e+00	0.00000e+00	0.00000e+00	0.00000e+00	0.00000e+00	0.00000e+00	0.00000e+00	0.00000e+00	0.00000e+00	0.00000e+00	0.00000e+00	0.00000e+00	0.00000e+00	0.00000e+00	0.00000e+00	0.00000e+00	0.00000e+00	
Factor	1.00000e+00	1.00000e+00	1.00000e+00	1.00000e+00	1.00000e+00	1.00000e+00	1.00000e+00	1.00000e+00	1.00000e+00	1.00000e+00	1.00000e+00	1.00000e+00	1.00000e+00	1.00000e+00	1.00000e+00	1.00000e+00	1.00000e+00	1.00000e+00	1.00000e+00	1.00000e+00	1.00000e+00	1.00000e+00	1.00000e+00	1.00000e+00	1.00000e+00	1.00000e+00	1.00000e+00	1.00000e+00	1.00000e+00	1.00000e+00	1.00000e+00	1.00000e+00	X	X	X	X	X	X	X	X	X	X	X	X	X	X	X	X	

B = Detector Channel
Val Type	B-AC1	B-AC2	B-AC3	B-AC4	B-AC5	B-AC6	B-AC7	B-AC8	B-AC9	B-AC10	B-AC11	B-AC12	B-AC13	B-AC14	B-AC15	B-AC16	B-DC1	B-DC2	B-DC3	B-DC4	B-DC5	B-DC6	B-DC7	B-DC8	B-DC9	B-DC10	B-DC11	B-DC12	B-DC13	B-DC14	B-DC15	B-DC16	B-Ph1	B-Ph2	B-Ph3	B-Ph4	B-Ph5	B-Ph6	B-Ph7	B-Ph8	B-Ph9	B-Ph10	B-Ph11	B-Ph12	B-Ph13	B-Ph14	B-Ph15	B-Ph16	

Term	0.00000e+00	0.00000e+00	0.00000e+00	0.00000e+00	0.00000e+00	0.00000e+00	0.00000e+00	0.00000e+00	0.00000e+00	0.00000e+00	0.00000e+00	0.00000e+00	0.00000e+00	0.00000e+00	0.00000e+00	0.00000e+00	0.00000e+00	0.00000e+00	0.00000e+00	0.00000e+00	0.00000e+00	0.00000e+00	0.00000e+00	0.00000e+00	0.00000e+00	0.00000e+00	0.00000e+00	0.00000e+00	0.00000e+00	0.00000e+00	0.00000e+00	0.00000e+00	-1.89397e+02	-1.65226e+02	-1.57126e+02	-1.83573e+02	-7.86518e+01	-6.98634e+01	-1.59024e+02	-1.62015e+02	-7.23741e+01	-8.28070e+01	-1.70632e+02	-1.70941e+02	-1.78840e+02	-1.76518e+02	-1.05877e+02	-1.49938e+02	
Factor	3.42563e-05	9.17672e-05	3.45975e-05	1.69658e-01	8.77912e-07	9.10906e-07	1.63438e-01	4.72968e-02	9.51688e-07	1.02407e-06	8.13686e-02	2.67452e-02	2.20867e-02	8.52368e-03	9.30633e-07	1.22118e-02	6.57652e-07	6.67795e-07	1.85925e-07	8.48753e-02	7.31233e-09	7.30656e-09	7.73714e-02	2.37719e-02	7.30843e-09	7.30628e-09	3.87263e-02	1.27484e-02	1.10087e-02	4.19686e-03	7.29356e-09	5.76721e-03	X	X	X	X	X	X	X	X	X	X	X	X	X	X	X	X	



#DISTANCE SETTINGS
A = Detector Channel
A-1	A-2	A-3	A-4	A-5	A-6	A-7	A-8	A-9	A-10	A-11	A-12	A-13	A-14	A-15	A-16	

2.5000e+00	3.0000e+00	2.5000e+00	3.0000e+00	2.0000e+00	3.0000e+00	1.5000e+00	3.0000e+00	3.0000e+00	3.0000e+00	3.0000e+00	3.0000e+00	3.0000e+00	3.0000e+00	1.5000e+00	3.0000e+00	

B = Detector Channel
B-1	B-2	B-3	B-4	B-5	B-6	B-7	B-8	B-9	B-10	B-11	B-12	B-13	B-14	B-15	B-16	

1.0000e+01	1.0000e+01	1.0000e+01	1.4400e+00	1.0000e+01	1.0000e+01	1.5100e+00	1.9400e+00	1.0000e+01	1.0000e+01	1.9900e+00	2.4900e+00	2.4100e+00	2.9000e+00	1.0000e+01	2.9800e+00	




#DATA BEGINS
time	group	step	mark	flag	A-AC1	A-AC2	A-AC3	A-AC4	A-AC5	A-AC6	A-AC7	A-AC8	A-AC9	A-AC10	A-AC11	A-AC12	A-AC13	A-AC14	A-AC15	A-AC16	A-DC1	A-DC2	A-DC3	A-DC4	A-DC5	A-DC6	A-DC7	A-DC8	A-DC9	A-DC10	A-DC11	A-DC12	A-DC13	A-DC14	A-DC15	A-DC16	A-Ph1	A-Ph2	A-Ph3	A-Ph4	A-Ph5	A-Ph6	A-Ph7	A-Ph8	A-Ph9	A-Ph10	A-Ph11	A-Ph12	A-Ph13	A-Ph14	A-Ph15	A-Ph16	B-AC1	B-AC2	B-AC3	B-AC4	B-AC5	B-AC6	B-AC7	B-AC8	B-AC9	B-AC10	B-AC11	B-AC12	B-AC13	B-AC14	B-AC15	B-AC16	B-DC1	B-DC2	B-DC3	B-DC4	B-DC5	B-DC6	B-DC7	B-DC8	B-DC9	B-DC10	B-DC11	B-DC12	B-DC13	B-DC14	B-DC15	B-DC16	B-Ph1	B-Ph2	B-Ph3	B-Ph4	B-Ph5	B-Ph6	B-Ph7	B-Ph8	B-Ph9	B-Ph10	B-Ph11	B-Ph12	B-Ph13	B-Ph14	B-Ph15	B-Ph16	aux-1	digaux	

3492.201	1	1	0	256	0.14142	0.22785	0.087847	0.24684	0.34944	0.14441	0.36296	0.22352	0.20154	0.17125	0.40652	0.16444	0.2215	0.1112	0.15006	0.17328	-0.12292	-0.92917	-1.0792	-0.45417	-1.4771	-0.83542	-0.71042	-1.6625	-0.65	-1.0146	-1.4625	-0.46458	-1.5125	-1.0333	-0.71667	-1.7313	-55.207	131.046	177.662	201.873	66.356	49.064	179.290	238.844	32.110	-51.443	256.393	247.826	1.461	146.507	-77.211	-32.057	0.00058031	0.0005578	0.00015859	827.09	4.0199e-06	8.1309e-06	1032.3	269.37	4.717e-06	8.6467e-06	419.63	160.8	93.709	34.272	4.6411e-06	66.947	0.00027255	0.00026358	7.2639e-05	746.47	2.9147e-06	2.8374e-06	926.99	241.24	2.8795e-06	2.9253e-06	371.25	141.78	83.988	30.75	3.0485e-06	58.885	116.997	-8.360	-19.912	-69.477	227.730	92.772	-69.756	-64.485	132.515	-5.956	-66.019	-61.597	-60.541	-55.602	66.469	-57.242	-8191	255	
3492.297	1	1	0	0	0.073576	0.10968	0.057737	0.14518	0.17178	0.21838	0.11361	0.29796	0.10558	0.085714	0.015541	0.33475	0.30454	0.2196	0.13609	0.060166	0.15833	-1.0583	-1.3479	-0.37917	-1.5167	-1.0021	-0.53958	-1.6812	-0.68333	-0.92917	-1.5542	-0.45208	-1.4937	-0.92292	-0.58958	-1.8167	64.754	-44.704	162.846	261.897	232.075	11.355	42.580	105.321	-72.744	200.247	253.814	248.283	240.963	254.181	71.941	244.175	0.00018216	0.00022124	0.00019907	838.45	4.4486e-06	6.6409e-06	1044.4	268.48	8.0939e-06	5.3016e-06	424.5	161.27	94.199	34.985	2.865e-06	68.373	0.00028422	0.00028005	7.7923e-05	755.18	3.0752e-06	3.0487e-06	939.41	242.73	3.0513e-06	3.0221e-06	375.09	142.62	84.832	31.265	3.1627e-06	59.701	144.715	56.068	32.268	-69.498	60.592	34.678	-69.518	-64.723	36.483	105.691	-66.210	-62.211	-60.485	-55.487	1.562	-57.443	-8191	255	
3492.393	1	1	0	0	0.1492	0.079972	0.055338	0.19625	0.24158	0.17648	0.25224	0.25218	0.11332	0.12525	0.36207	0.35352	0.093665	0.1053	0.23461	0.45655	-0.27083	-0.97708	-1.6021	-0.56667	-1.3083	-1.0812	-0.58125	-1.6083	-0.72708	-0.9875	-1.2583	-0.53333	-1.5063	-1.1646	-0.37083	-1.6521	34.755	-24.780	93.915	218.650	-60.593	253.979	181.646	245.885	153.259	273.560	201.954	243.106	47.957	29.246	66.399	174.681	0.00038423	0.00070511	0.00015117	833.55	8.7685e-06	1.8394e-06	1043.2	268.83	2.2803e-06	5.7573e-06	424.47	161.74	94.509	35.227	7.435e-06	69.346	0.00028614	0.00027995	7.9225e-05	753.43	3.0712e-06	3.06e-06	938.51	243.06	3.0932e-06	3.1101e-06	376.29	143.44	85.219	31.592	3.1812e-06	60.539	133.191	15.525	204.627	-69.614	123.921	105.907	-69.441	-64.787	-42.123	37.137	-65.915	-61.563	-60.184	-55.816	-5.592	-57.575	-8191	255	
3492.489	1	1	0	0	0.072901	0.10938	0.17913	0.11838	0.06153	0.062146	0.30659	0.23834	0.16956	0.1703	0.15017	0.24085	0.21133	0.14322	0.089685	0.056359	-0.29792	-0.80833	-1.3854	-0.37917	-1.3333	-1.2313	-0.71042	-1.5729	-0.55417	-0.98125	-1.5917	-0.77708	-1.3583	-1.225	-0.4875	-1.7271	211.582	186.233	256.268	212.421	206.101	-60.968	231.105	31.929	-70.924	87.187	-80.638	242.089	-66.327	265.065	50.183	205.648	0.00059688	0.00053081	0.00017972	826.64	3.1238e-06	8.3561e-06	1034.4	269.08	3.8627e-06	3.2987e-06	422.83	161.45	95.093	35.254	6.4785e-06	68.821	0.00029566	0.00029239	8.044e-05	750.08	3.133e-06	3.1624e-06	933.72	243.24	3.1786e-06	3.2028e-06	376.17	143.43	85.45	31.727	3.3039e-06	60.647	121.060	9.095	113.023	-69.538	150.297	98.096	-69.417	-64.703	-9.555	84.017	-65.443	-61.566	-60.096	-55.891	80.491	-57.241	-8191	255	
3492.586	1	1	0	0	0.16782	0.12519	0.20535	0.17193	0.14899	0.30617	0.18161	0.40308	0.10795	0.20909	0.025427	0.05887	0.1282	0.22342	0.10531	0.22612	-0.30625	-0.75417	-1.4562	-0.44792	-1.0292	-1.0875	-0.31667	-1.6896	-0.85208	-0.60417	-1.5417	-0.48542	-1.25	-1.4062	-0.11875	-1.7938	109.527	7.217	-11.881	9.202	272.934	176.501	176.452	243.043	-65.015	-49.770	133.632	-1.501	-59.185	207.947	-9.409	117.246	0.00041263	0.00021328	8.6871e-05	842.67	3.1619e-06	6.7562e-06	1055.6	273.56	3.4698e-06	7.733e-06	431.06	164.36	96.974	35.522	9.1419e-06	69.474	0.00030757	0.00030939	8.6537e-05	757.71	3.3322e-06	3.4384e-06	940.63	244.41	3.3351e-06	3.3317e-06	376.95	143.84	85.823	31.602	3.2309e-06	60.247	136.736	-80.036	8.041	-70.087	118.021	-28.477	-70.129	-65.286	12.708	34.814	-66.479	-62.544	-60.695	-56.245	130.474	-57.485	-8191	255	
3492.706	1	1	0	0	0.42982	0.22234	0.20935	0.21108	0.090219	0.10751	0.097031	0.16728	0.092148	0.21001	0.050652	0.18532	0.13783	0.07746	0.10961	0.29687	-0.45208	-0.46042	-1.6604	-0.75208	-0.91875	-1.3021	-0.53125	-1.4083	-0.86667	-0.71667	-1.6021	-0.6	-0.92083	-1.3375	-0.325	-1.3792	80.312	-77.739	15.988	215.127	182.827	109.877	137.167	197.133	83.792	77.845	23.318	245.436	15.081	239.932	246.963	235.926	0.00027153	0.0004494	3.8381e-05	838.55	3.4356e-06	5.1461e-06	1049	272.71	3.7524e-06	2.0502e-06	429.21	163.3	95.418	35.173	5.9558e-06	69.008	0.00029821	0.00029425	8.0471e-05	750.26	3.1996e-06	3.2125e-06	935.34	242.5	3.1608e-06	3.1739e-06	375.46	142.56	84.668	31.233	3.0595e-06	59.583	138.481	10.825	-65.726	-70.483	82.356	96.929	-70.566	-65.298	53.007	145.053	-66.572	-62.565	-60.804	-55.972	19.114	-58.491	-8191	255	
3492.801	1	1	0	0	0.15192	0.1747	0.1823	0.28182	0.072454	0.31878	0.54264	0.3295	0.3404	0.30459	0.1689	0.14899	0.091534	0.2836	0.027576	0.18694	-0.41667	-0.46042	-1.4271	-0.47708	-0.83333	-1.3104	-0.50417	-1.5562	-1.0688	-0.48958	-1.5458	-0.73333	-0.75	-1.4042	-0.30833	-1.3854	227.978	-35.794	29.050	194.768	-39.221	203.815	235.361	190.349	194.549	-31.175	157.279	219.228	-0.762	-71.317	257.635	253.389	0.00037676	0.00080576	4.7446e-05	835.35	3.5843e-06	2.1812e-06	1050.7	269.31	6.569e-06	2.1801e-06	424.27	160.47	93.839	34.379	1.017e-05	67.148	0.00028542	0.00028264	7.6983e-05	744.81	3.018e-06	3.0152e-06	933.32	240.38	2.9741e-06	3.0022e-06	371.34	140.77	83.432	30.444	2.9327e-06	58.097	145.603	266.799	95.787	-70.882	6.797	-33.798	-71.031	-65.980	66.461	76.375	-67.388	-63.329	-61.392	-57.044	18.265	-58.594	-8191	255	
3492.897	1	1	0	0	0.13039	0.26398	0.13122	0.3735	0.18178	0.20613	0.10239	0.2166	0.20133	0.018058	0.044038	0.12149	0.45511	0.088622	0.060905	0.53681	-0.69792	-0.525	-1.3813	-0.70625	-0.70417	-1.5	-0.48333	-1.3729	-1.2417	-0.3375	-1.6167	-0.77708	-0.99375	-1.5521	-0.4375	-1.2292	56.820	114.813	58.529	265.404	126.727	52.317	159.920	137.286	271.550	-11.182	130.037	12.279	266.149	236.082	231.314	232.296	0.00042213	0.00091801	0.00020779	834.64	4.1502e-06	1.3703e-06	1048	268.63	1.0169e-05	6.9293e-06	423.16	158.2	93.703	34.483	5.2029e-06	66.362	0.00027265	0.00027004	7.4171e-05	743.42	2.9873e-06	2.9403e-06	930.98	239.31	2.9704e-06	2.9574e-06	368.83	138.68	82.946	30.341	2.9341e-06	57.43	116.831	9.720	-6.996	-70.567	91.850	-42.289	-70.888	-66.111	11.563	52.661	-67.369	-63.073	-61.617	-56.908	-3.624	-57.768	-8191	255	
3492.993	1	1	0	0	0.11387	0.18127	0.092485	0.12558	0.27239	0.19501	0.24374	0.28236	0.3034	0.30426	0.10062	0.21525	0.18573	0.17895	0.03747	0.074018	-0.69792	-0.36875	-1.4333	-0.73542	-0.6625	-1.5896	-0.45833	-1.4958	-1.0667	-0.23958	-1.4562	-1.0333	-0.70208	-1.5854	-0.59167	-1.15	-16.767	-35.516	89.113	268.091	113.063	158.978	230.605	183.327	54.112	17.456	132.080	181.467	-29.351	-64.635	54.063	-32.971	0.00043441	0.00069637	0.00036069	831.98	4.7522e-06	6.0911e-06	1045.2	268.26	4.2702e-06	4.4011e-06	420.59	157.98	93.168	33.699	5.0784e-06	66.404	0.00027979	0.00027071	7.3832e-05	742.15	2.9653e-06	2.9633e-06	930.51	238.41	3.0256e-06	2.987e-06	367.71	137.99	82.799	30.063	2.9582e-06	57.315	141.251	-37.363	-47.758	-70.674	33.426	13.228	-70.407	-65.513	114.084	-0.991	-66.412	-63.026	-61.436	-56.351	-24.891	-57.878	-8191	255	
3493.089	1	1	0	0	0.090868	0.11245	0.24576	0.24404	0.28737	0.18063	0.34787	0.19684	0.10053	0.3385	0.18672	0.17053	0.22216	0.20004	0.22171	0.2713	-0.89167	-0.39375	-1.3438	-0.81875	-0.56667	-1.4625	-0.7375	-1.2437	-1.3833	-0.56458	-1.5583	-0.89583	-0.68333	-1.4562	-0.42083	-0.9125	218.451	26.695	275.659	144.045	3.545	73.175	246.341	221.995	160.965	181.840	249.039	-36.173	-71.332	-74.926	184.173	208.266	0.00042169	0.00075459	0.00018541	830.93	5.4458e-06	7.7408e-06	1050.5	267.5	3.9646e-06	1.3253e-06	419.15	158.35	93.197	34.047	3.8597e-06	66.304	0.00027373	0.00026798	7.3112e-05	742.62	2.9419e-06	2.926e-06	934.36	238.34	2.9685e-06	2.9449e-06	367.75	138.37	82.689	30.114	2.9397e-06	57.404	148.791	-68.632	-51.964	-70.192	125.357	156.813	-70.522	-65.591	57.293	190.711	-66.899	-62.932	-61.225	-56.415	18.619	-57.915	-8191	255	
3493.185	1	1	0	0	0.19602	0.21671	0.32957	0.29385	0.080729	0.027002	0.18939	0.30139	0.096273	0.15525	0.2739	0.2636	0.19829	0.30155	0.28712	0.20218	-0.9875	-0.3	-1.2854	-0.92917	-0.35417	-1.3396	-0.4875	-0.92083	-1.2625	-0.3	-1.7188	-0.95	-0.39583	-1.5104	-0.325	-0.87083	-49.499	235.461	252.198	207.305	229.605	-61.845	106.238	251.749	-81.325	106.495	201.980	-35.931	261.086	247.547	268.103	255.582	0.00028696	0.00082583	0.00020368	830.15	3.073e-06	2.9632e-06	1051	267.71	2.0669e-06	4.1194e-06	422.17	158.57	93	33.798	4.4737e-06	66.115	0.0002782	0.00027299	7.5109e-05	743.08	3.0151e-06	2.961e-06	935.73	238.1	2.9193e-06	2.9253e-06	368.94	138.37	82.474	29.898	2.9778e-06	57.106	93.269	9.003	-45.539	-70.119	268.088	117.570	-70.702	-65.854	141.648	103.189	-67.342	-62.620	-61.539	-56.353	60.558	-58.280	-8191	255	
3493.306	1	1	0	0	0.21989	0.14591	0.029225	0.20434	0.10729	0.17417	0.12871	0.035188	0.11737	0.19949	0.30372	0.17312	0.095733	0.43388	0.16381	0.33551	-0.81458	-0.33958	-1.1938	-1.1896	-0.19167	-1.6771	-0.63333	-0.92292	-1.5771	-0.16667	-1.4562	-1.3208	-0.2875	-1.4979	-0.5625	-0.85	88.123	173.905	206.740	219.894	249.389	57.458	233.172	186.468	49.355	150.445	-72.380	181.212	224.949	-49.364	195.944	260.635	0.00045484	0.00018839	0.0002389	835.6	1.8459e-06	3.535e-06	1055	265.56	3.219e-06	9.109e-06	419.92	156.97	92.205	33.435	2.1497e-06	65.4	0.00027013	0.00027098	7.576e-05	745.14	2.9702e-06	2.9809e-06	936.69	237.89	2.9811e-06	2.9715e-06	366.62	136.86	81.822	29.642	2.9685e-06	56.514	114.514	92.256	-80.662	-70.854	25.304	14.123	-70.966	-65.751	69.177	28.842	-66.559	-62.931	-61.217	-56.647	170.521	-58.062	-8191	255	
3493.402	1	1	0	0	0.24297	0.11597	0.31307	0.10571	0.092967	0.12002	0.2544	0.16778	0.13397	0.04749	0.1451	0.18797	0.099852	0.10786	0.1172	0.093561	-1.1583	-0.15625	-1.0208	-1.1104	-0.42083	-1.4813	-0.7625	-0.76667	-1.2	-0.39375	-1.1875	-1.25	-0.25208	-1.7313	-0.39167	-0.58958	168.993	-35.338	191.654	98.744	219.072	47.878	135.812	188.607	117.692	2.442	142.671	203.916	134.230	214.149	89.315	-16.508	0.00036921	0.00031289	4.3544e-05	832.44	2.0129e-06	6.4688e-06	1049.1	265.1	7.7106e-06	1.3558e-06	420.68	155.81	91.58	33.275	1.2613e-06	64.869	0.00027608	0.00027016	7.6115e-05	743.37	2.999e-06	2.9523e-06	933	236.87	2.9913e-06	2.9568e-06	366.83	136.27	81.648	29.556	2.9686e-06	56.377	114.028	19.578	-65.401	-70.685	14.996	-51.968	-70.495	-65.759	9.663	246.893	-67.417	-63.487	-61.955	-56.899	-34.566	-58.421	-8191	255	
3493.498	1	1	0	0	0.20292	0.25086	0.19276	0.07027	0.14766	0.11884	0.18882	0.22947	0.089399	0.063726	0.027644	0.099844	0.059205	0.22253	0.17122	0.33845	-1.2479	-0.14792	-1.0958	-1.1167	-0.40208	-1.4167	-1.0354	-0.67083	-1.6229	-0.27917	-1.1187	-1.3687	-0.37292	-1.3979	-0.98958	-0.72083	15.966	16.796	233.222	-21.868	21.311	127.510	192.491	236.948	259.074	246.182	226.649	266.984	116.862	83.359	181.931	268.772	0.00026397	0.00038828	0.00020001	831.14	9.5963e-06	6.2204e-06	1047.5	265.72	6.9517e-06	6.981e-06	416.39	155.24	91.705	33.4	2.7524e-06	65.211	0.00027634	0.0002743	7.6756e-05	742.63	2.9944e-06	3.0403e-06	932.58	236.84	2.9902e-06	3.0388e-06	365.95	135.84	81.749	29.711	3.0604e-06	56.496	137.019	38.673	15.388	-71.096	76.185	31.162	-71.469	-66.030	22.910	40.818	-67.837	-63.179	-62.071	-56.876	-40.586	-58.605	-8191	255	
3493.594	1	1	0	0	0.15595	0.073871	0.040144	0.09539	0.17232	0.30771	0.44784	0.11876	0.35983	0.049099	0.25906	0.18359	0.19695	0.26831	0.11102	0.21877	-1.2604	-0.31458	-0.76875	-1.325	-0.11875	-1.4667	-0.97292	-0.80833	-1.4125	-0.71875	-0.93542	-1.2604	-0.44167	-1.375	-0.69792	-0.38542	-66.013	150.298	135.027	144.996	208.156	176.546	202.397	-72.422	47.642	119.090	275.772	133.662	-46.324	222.059	136.231	201.986	0.00048267	0.00043759	3.4384e-05	825.9	5.6733e-06	5.1708e-06	1054.5	264.72	3.665e-06	5.4288e-06	419.48	155.48	90.847	33.542	6.2861e-06	64.802	0.00028209	0.00027929	7.9064e-05	743.38	3.1094e-06	3.136e-06	938.74	236.47	3.0803e-06	3.1678e-06	367.02	136.21	81.424	29.859	3.1648e-06	56.353	138.543	8.808	85.925	-71.084	25.803	-14.721	-71.342	-66.013	3.118	-3.252	-67.156	-62.737	-61.603	-56.657	84.785	-58.719	-8191	255	
3493.690	1	1	0	0	0.11803	0.040458	0.18647	0.26794	0.10899	0.32273	0.28339	0.042513	0.21249	0.14279	0.15319	0.33616	0.25101	0.045161	0.18537	0.22246	-1.0375	-0.56458	-0.98958	-1.3563	-0.28125	-1.3396	-1.0187	-0.6125	-1.4813	-0.5625	-0.97083	-1.5312	-0.18542	-1.3188	-0.96875	-0.65208	-5.364	98.215	-53.055	228.865	128.411	-59.947	201.345	-75.446	-29.757	42.388	192.937	-78.107	254.768	137.279	61.131	-72.809	0.00033021	0.0002926	0.00015144	834.99	1.7104e-06	1.5652e-06	1058.7	266.32	7.6055e-06	6.755e-06	416.09	153.89	91.02	33.315	6.3074e-06	64.338	0.00029255	0.0002948	8.2065e-05	746.84	3.2095e-06	3.2282e-06	940.83	237.41	3.1776e-06	3.2148e-06	365.73	135.27	81.364	29.746	3.1684e-06	55.795	133.709	31.709	-36.566	-70.781	-34.684	59.369	-71.209	-66.079	81.940	19.857	-67.160	-63.019	-61.888	-56.926	55.711	-58.401	-8191	255	
3493.785	1	1	0	0	0.17408	0.22096	0.14348	0.18054	0.24744	0.17233	0.16978	0.1717	0.093971	0.083706	0.22859	0.18027	0.30973	0.093748	0.27252	0.32867	-1.2729	-0.68958	-0.93333	-1.6125	-0.39792	-1.1625	-1.3083	-0.65417	-1.4083	-0.46458	-0.7625	-1.3104	-0.46875	-1.3271	-1.0271	-0.42292	179.446	203.581	18.846	273.395	119.146	199.946	201.838	220.811	233.492	242.421	268.820	247.603	197.366	173.267	-0.218	160.346	0.00034576	0.00065636	0.00017944	829.75	1.1469e-05	9.0878e-06	1046.2	262.12	1.0568e-06	7.0303e-06	414.94	152.46	90.7	33.47	7.9227e-06	64.003	0.0002956	0.00029177	8.0858e-05	742.44	3.2063e-06	3.199e-06	934.1	235.09	3.2036e-06	3.2897e-06	364.22	134.19	81.196	29.905	3.2997e-06	55.701	102.355	19.494	126.411	-70.696	39.035	100.374	-70.872	-66.053	-61.464	33.699	-66.954	-63.195	-61.790	-56.320	19.174	-58.050	-8191	255	
3493.881	1	1	0	0	0.021553	0.20411	0.20682	0.25817	0.1766	0.23112	0.18277	0.13248	0.17851	0.053146	0.22181	0.12801	0.1963	0.16584	0.15196	0.2472	-1.1854	-0.45625	-0.65	-1.5333	-0.40833	-1.1187	-1.3188	-0.20417	-1.4854	-0.72083	-0.77083	-1.6812	-0.40625	-1.0417	-1.2167	-0.51458	61.908	34.754	-34.003	171.829	-31.431	220.839	249.787	276.164	203.456	-35.234	-79.973	215.016	167.824	-68.592	256.107	220.658	0.00019633	0.00042176	0.00024246	830.17	6.0565e-06	5.5995e-06	1057.6	262.56	4.4508e-06	6.0166e-06	413.68	152.97	90.968	33.572	3.8916e-06	64.412	0.0003078	0.00030103	8.2699e-05	745.09	3.2715e-06	3.2943e-06	940.64	235.54	3.3299e-06	3.3261e-06	364.93	134.28	81.338	29.925	3.2281e-06	55.92	101.375	-11.503	-6.622	-70.732	164.942	159.841	-70.865	-65.650	184.636	178.639	-66.775	-62.684	-61.333	-56.784	80.067	-58.018	-8191	255	
3493.977	1	1	0	0	0.093154	0.1372	0.085149	0.0991	0.14761	0.2669	0.27777	0.25192	0.22409	0.18072	0.22278	0.25867	0.080896	0.14492	0.13677	0.081335	-1.0333	-0.85208	-0.59375	-1.5958	-0.57083	-0.86667	-1.5271	-0.36458	-1.2938	-0.875	-0.7	-1.6417	-0.5625	-1.0729	-1.3354	-0.30417	194.860	148.209	254.420	-76.397	150.287	265.758	162.389	241.593	-53.907	-57.637	11.014	195.385	212.171	-14.990	-22.098	210.853	0.00058481	0.0012669	0.00015313	825.42	6.5306e-06	1.6572e-06	1061	263.82	5.1844e-07	8.8643e-06	416.31	153.16	90.632	33.489	3.7337e-06	64.845	0.00030202	0.00030114	8.2225e-05	742.46	3.2898e-06	3.3021e-06	942.83	236.23	3.3495e-06	3.2302e-06	365.11	135.05	81.471	29.952	3.1854e-06	56.332	110.279	11.061	257.449	-70.472	12.328	87.987	-70.499	-65.735	177.763	93.151	-66.650	-62.744	-61.955	-56.278	63.034	-58.177	-8191	255	
3494.073	1	1	0	0	0.24799	0.23775	0.049477	0.079912	0.10767	0.1248	0.24601	0.26654	0.11293	0.075795	0.11706	0.13693	0.24965	0.079104	0.27183	0.32201	-1.2062	-0.9625	-0.33958	-1.5771	-0.47292	-0.85625	-1.4729	-0.28542	-1.4354	-0.97708	-0.65417	-1.7375	-0.51667	-0.925	-1.4625	-0.41667	-77.499	44.577	-30.037	264.967	134.999	215.048	209.032	217.474	53.210	35.726	-13.984	249.792	202.420	-79.601	-24.378	247.115	0.00028655	0.0004006	7.9519e-06	825.79	8.9784e-06	5.4592e-06	1055.5	265.07	2.0388e-06	2.3542e-06	416.8	153.15	91.319	33.686	2.8912e-06	64.677	0.00029951	0.00028926	8.1079e-05	740.28	3.2364e-06	3.1914e-06	935.89	236.38	3.22e-06	3.1908e-06	364.65	135.05	81.424	29.976	3.2337e-06	56.088	122.588	167.164	180.780	-69.941	83.519	180.946	-70.640	-65.753	0.208	106.122	-66.829	-62.327	-61.455	-55.996	103.987	-57.772	-8191	255	
3494.194	1	1	0	0	0.28372	0.23438	0.092171	0.23629	0.083623	0.090276	0.32345	0.11925	0.17439	0.18877	0.26123	0.096177	0.2567	0.18073	0.081552	0.34763	-0.75208	-1.0042	-0.43125	-1.9167	-0.475	-0.85	-1.5229	-0.44792	-1.2062	-1.075	-0.66875	-1.6938	-0.67917	-0.65417	-1.3729	-0.34792	46.449	93.874	-66.262	249.176	210.263	-31.318	213.139	257.580	77.279	98.995	211.650	235.847	169.896	-10.482	247.025	206.880	0.00018012	0.00064061	0.00012091	828.58	2.0554e-06	1.2439e-06	1047.4	264.89	5.8879e-06	2.839e-06	412.35	153.6	91.247	33.218	7.311e-06	64.562	0.00030135	0.00029315	8.0976e-05	737.38	3.2454e-06	3.1247e-06	930.55	235.2	3.1856e-06	3.1202e-06	361.92	134.79	81.465	29.76	3.097e-06	56.137	142.819	3.788	-17.106	-70.224	215.683	78.918	-70.361	-65.984	120.644	143.526	-66.469	-62.221	-61.269	-56.398	14.651	-57.703	-8191	255	
3494.266	1	1	0	0	0.23871	0.032641	0.1511	0.16343	0.20486	0.044832	0.25725	0.15377	0.048048	0.27539	0.10255	0.2639	0.20695	0.18724	0.25298	0.15731	-0.96458	-1.1979	-0.44792	-1.7417	-0.54583	-0.85417	-1.7917	-0.4625	-1.2917	-1.2083	-0.35417	-1.7021	-0.81042	-0.85625	-1.6313	-0.38542	251.098	-65.760	228.878	230.738	85.006	60.575	-41.974	60.674	78.930	41.969	-59.825	8.901	-15.219	-73.233	15.090	193.049	0.00056032	0.00072141	9.6396e-05	819.79	5.493e-06	1.0301e-05	1046.4	263.8	5.5662e-06	1.0082e-05	418.59	153.79	91.232	33.507	1.4062e-06	64.525	0.00029394	0.00027803	8.0253e-05	735.87	3.1366e-06	3.1102e-06	931.01	235.29	3.0757e-06	3.0714e-06	364.24	134.86	80.767	29.76	3.099e-06	55.918	114.549	-23.049	209.582	-70.583	5.409	25.566	-70.300	-65.569	25.632	19.142	-66.405	-62.349	-61.850	-55.977	264.804	-57.551	-8191	255	
3494.386	1	1	0	0	0.19968	0.078615	0.20085	0.18475	0.19945	0.19636	0.12561	0.065992	0.11172	0.054595	0.31589	0.091446	0.10178	0.04896	0.10854	0.11158	-1.0146	-1.2979	-0.15208	-1.5458	-0.8375	-0.65625	-1.7458	-0.72083	-1.0458	-1.2125	-0.73125	-1.3813	-0.65	-0.675	-1.3937	-0.425	2.934	247.268	53.998	180.463	25.695	18.743	170.510	-20.586	-16.142	50.158	269.055	259.978	136.943	95.771	169.205	200.091	0.0004242	0.00094792	0.00027914	818.52	6.0012e-06	8.9692e-06	1051.6	263.25	3.4933e-06	4.5633e-06	419.81	154.77	91.961	33.68	1.258e-05	64.713	0.00028393	0.00028109	7.9261e-05	735.7	3.0866e-06	3.1038e-06	934.07	235.61	3.1241e-06	3.1359e-06	365.63	135.67	81.545	29.904	3.174e-06	56.414	112.677	-21.953	31.668	-69.997	123.546	95.030	-69.884	-65.592	11.743	34.896	-66.337	-62.554	-61.051	-56.561	-0.717	-57.763	-8191	255	
3494.482	1	1	0	0	0.14462	0.18692	0.15488	0.29405	0.17763	0.023517	0.25486	0.11259	0.16952	0.17247	0.19402	0.18507	0.40907	0.13242	0.1502	0.18164	-0.66458	-1.1083	-0.27917	-1.4333	-0.81458	-0.64375	-1.6917	-0.45	-0.70417	-1.2708	-0.45625	-1.4	-0.95417	-0.69792	-1.5312	-0.49583	193.414	-13.222	88.063	171.034	-77.176	228.672	134.015	178.174	133.917	49.932	203.623	125.612	222.509	239.969	172.409	143.331	0.00042657	0.00094934	6.3746e-05	822.98	3.6794e-06	4.295e-06	1059.1	266.24	5.3002e-06	1.0472e-05	417.96	156.25	92.079	33.644	1.0134e-05	65.162	0.00029386	0.00028891	8.1595e-05	740.63	3.1804e-06	3.1896e-06	941.46	237.73	3.1897e-06	3.2361e-06	367.46	136.8	81.794	30.077	3.2383e-06	56.561	142.377	71.586	33.323	-69.906	173.405	104.792	-70.456	-65.798	124.623	-25.384	-66.562	-62.428	-61.615	-56.023	176.165	-58.063	-8191	255	
3494.579	1	1	0	0	0.28283	0.2312	0.080874	0.30357	0.1547	0.093944	0.16353	0.31023	0.10049	0.29869	0.21113	0.1345	0.12498	0.13236	0.060699	0.12455	-0.3375	-1.3542	-0.33333	-1.3604	-1.0438	-0.34792	-1.5583	-0.79792	-0.90208	-1.3271	-0.28125	-1.4542	-1.0208	-0.44167	-1.5938	-0.72083	72.512	273.279	241.762	251.586	117.430	94.561	204.891	146.851	-51.506	-38.498	-57.837	-65.162	212.497	267.511	35.143	192.018	0.00053217	0.00049134	0.00029178	827.41	8.2211e-06	4.0812e-06	1047	265	7.3185e-06	8.8959e-06	418.37	154.81	91.188	33.362	8.1054e-06	64.489	0.00030225	0.00030042	8.3369e-05	741.62	3.2568e-06	3.2956e-06	936.25	236.28	3.2598e-06	3.3329e-06	365.6	135.42	81.468	29.907	3.2778e-06	56.246	94.833	-45.868	-49.445	-70.183	8.616	76.166	-70.455	-65.586	227.841	-27.875	-66.366	-62.240	-61.095	-56.475	61.988	-58.213	-8191	255	
3494.675	1	1	0	0	0.1114	0.35482	0.11247	0.38424	0.17981	0.25537	0.1383	0.2871	0.30977	0.133	0.051391	0.20804	0.50483	0.20702	0.095367	0.095974	-0.2875	-1.2917	-0.30625	-1.1292	-1.1417	-0.34167	-1.5562	-0.65625	-0.74583	-1.4417	-0.29375	-1.3563	-1.1208	-0.41042	-1.5146	-0.79583	190.730	26.175	121.904	259.242	104.510	14.368	240.872	207.980	-45.894	-67.211	103.962	-37.106	229.488	234.324	246.756	252.504	0.00066881	0.000154	0.00028505	822.4	4.3044e-06	1.9267e-06	1053.1	264.95	4.0682e-06	6.7153e-06	417.14	155.5	91.253	33.702	9.4087e-06	64.623	0.00030163	0.00029939	8.2697e-05	739.96	3.2737e-06	3.3439e-06	937.91	236.44	3.2464e-06	3.2879e-06	365.48	136.61	81.563	29.939	3.2168e-06	56.234	131.789	3.929	-37.132	-70.190	-26.009	75.919	-70.169	-65.779	246.678	1.057	-66.923	-63.058	-62.008	-56.915	59.807	-59.010	-8191	255	
3494.794	1	1	0	0	0.039316	0.17129	0.11247	0.03964	0.11273	0.13478	0.0078454	0.35938	0.040096	0.11114	0.091143	0.095727	0.073818	0.062523	0.26232	0.15894	-0.1875	-1.4354	-0.097917	-1.3396	-1.2	-0.20208	-1.5667	-0.85208	-0.63958	-1.6354	-0.51042	-1.2875	-1.1521	-0.35	-1.3667	-0.87083	48.626	-57.613	140.263	-23.200	105.836	27.202	-71.488	255.175	45.906	-70.060	37.082	244.370	105.161	144.239	-10.180	273.644	0.00061462	0.001138	0.00039459	823.92	9.9738e-06	6.7848e-06	1052.5	265.97	4.8284e-06	8.3001e-06	417.93	155.25	91.61	33.229	7.4522e-06	64.733	0.00029981	0.00029486	8.2247e-05	741.92	3.2166e-06	3.2407e-06	937.87	236.92	3.2018e-06	3.2106e-06	366.98	136.53	81.683	29.765	3.163e-06	56.39	147.595	-42.723	-22.438	-70.905	-49.413	72.706	-71.075	-66.327	135.194	126.683	-67.503	-63.355	-62.269	-57.001	214.670	-59.011	-8191	255	
3494.865	1	1	0	0	0.15161	0.26808	0.28437	0.22121	0.18662	0.069486	0.44064	0.186	0.24549	0.059064	0.10352	0.21437	0.19562	0.070248	0.14487	0.40999	-0.4875	-1.4792	-0.28542	-1.0021	-1.1146	-0.53125	-1.3917	-0.82083	-0.55	-1.3188	-0.59792	-1.1958	-1.4937	-0.5875	-1.3104	-1.0354	187.289	179.964	213.415	-69.998	155.835	248.239	211.942	264.738	123.812	159.770	172.723	203.533	-42.993	124.484	261.690	273.600	0.0005028	0.00030922	0.00012762	833.33	3.5444e-06	4.7498e-06	1059.2	265.53	4.7152e-06	3.5377e-06	419.47	157.17	91.405	33.479	8.4227e-06	64.834	0.00029285	0.00028976	7.9736e-05	743.23	3.1304e-06	3.1448e-06	941.54	237.44	3.0532e-06	3.0654e-06	366.77	137.43	81.658	29.78	2.9834e-06	56.387	104.940	-13.352	-33.977	-70.812	23.858	19.603	-71.234	-66.552	-2.901	-4.456	-67.725	-63.205	-62.389	-57.357	22.985	-59.111	-8191	255	
3494.986	1	1	0	0	0.20799	0.20646	0.23216	0.17472	0.19517	0.05089	0.21521	0.031171	0.078363	0.11226	0.1428	0.14584	0.10224	0.19371	0.19544	0.22648	-0.083333	-1.4604	-0.51875	-1	-1.0375	-0.34583	-1.4729	-0.71667	-0.47292	-1.5583	-0.76667	-0.87708	-1.2313	-0.18542	-1.3271	-1.2604	48.133	275.012	13.353	274.311	2.957	-12.991	226.002	14.295	24.639	238.663	240.033	91.746	23.679	-4.959	12.460	202.454	0.00038752	0.00026075	6.6447e-05	821.7	6.237e-06	6.243e-06	1051.8	263.86	1.2617e-06	8.0602e-06	420.73	154.89	91.702	33.286	4.4477e-06	65.028	0.00028484	0.00027699	7.5853e-05	736.74	3.0346e-06	3.0068e-06	934.02	235.71	3.0166e-06	3.025e-06	366.18	136.18	81.51	29.674	2.9849e-06	56.263	123.544	8.402	215.911	-71.400	109.241	10.721	-71.433	-66.567	87.332	65.102	-67.494	-63.531	-62.780	-57.208	248.000	-59.133	-8191	255	
3495.082	1	1	0	0	0.058451	0.08025	0.19151	0.044239	0.16226	0.18661	0.11907	0.098116	0.19952	0.40758	0.15396	0.12819	0.20668	0.089797	0.43136	0.31791	0.0625	-1.3687	-0.62083	-0.79375	-1.4	-0.27708	-1.4292	-1.2938	-0.28333	-1.4167	-0.69583	-0.89167	-1.4958	-0.73125	-1.0083	-1.125	147.021	219.540	252.171	31.850	-26.231	128.400	131.335	199.778	142.568	190.690	189.305	151.048	264.138	208.788	224.239	268.788	0.00033699	0.00047639	7.0597e-05	825.21	1.8598e-06	9.867e-07	1053.1	265.41	7.0191e-06	6.5059e-06	417.59	156.9	91.459	33.242	5.0829e-07	65.169	0.00028167	0.00027419	7.5224e-05	738.07	3.0183e-06	2.9676e-06	933.11	236.6	2.9837e-06	2.8891e-06	366.52	136.76	81.539	29.719	2.964e-06	56.378	122.299	-50.190	58.005	-70.700	225.314	-52.029	-70.979	-66.381	93.971	51.312	-67.455	-63.192	-62.162	-56.216	234.873	-58.749	-8191	255	
3495.178	1	1	0	0	0.26289	0.1933	0.10708	0.18753	0.38317	0.18235	0.40716	0.18709	0.23264	0.11276	0.38287	0.30215	0.24768	0.17535	0.17339	0.13381	0.085417	-1.4813	-0.68125	-0.88333	-1.3896	-0.36458	-1.3458	-1.3208	-0.34583	-1.5417	-0.86458	-0.71667	-1.5333	-0.26042	-1.1771	-1.2563	149.436	247.480	-40.129	-71.541	202.642	-58.156	242.038	252.966	28.248	-8.240	262.086	229.521	-81.648	261.755	17.611	194.294	0.00038722	0.00059216	0.00015997	835.45	2.7413e-06	4.7833e-06	1055.8	267.82	8.7567e-06	9.602e-06	422.61	156.91	92.318	33.495	7.3299e-06	65.099	0.00027874	0.0002724	7.5055e-05	743.77	3.0243e-06	2.9707e-06	940.85	237.97	2.9601e-06	2.9448e-06	368.56	137.33	81.899	29.682	2.9376e-06	56.501	81.893	-32.780	-73.590	-70.537	75.550	53.403	-70.913	-66.498	42.649	25.906	-67.529	-62.581	-62.346	-56.860	79.667	-58.749	-8191	255	
3495.274	1	1	0	0	0.11566	0.031313	0.17566	0.115	0.11465	0.15417	0.41561	0.11303	0.17368	0.11083	0.13483	0.13176	0.21513	0.24926	0.16217	0.24828	-0.095833	-1.4813	-0.65625	-0.64583	-1.4458	-0.45208	-1.2042	-1.3083	-0.23542	-1.4521	-0.90208	-0.65625	-1.5354	-0.4625	-1.0688	-1.3854	130.268	129.548	70.142	253.385	186.166	271.775	201.594	-29.520	192.829	97.291	167.045	85.160	-70.412	-72.137	160.952	180.008	0.00015287	0.0007761	0.00013645	836.19	4.7414e-06	5.7351e-07	1066.7	269.59	6.5869e-06	6.997e-06	427.15	157.77	92.884	33.613	3.6702e-06	65.571	0.00027771	0.00026832	7.4263e-05	744.57	2.9682e-06	2.9554e-06	945.83	239.07	2.9404e-06	2.8711e-06	370.44	138.09	82.223	29.817	2.9075e-06	56.715	88.133	241.513	13.641	-70.920	99.346	144.975	-70.421	-66.405	1.633	109.758	-67.107	-62.701	-62.398	-56.902	105.830	-58.395	-8191	255	
3495.370	1	1	0	0	0.16822	0.21488	0.059181	0.46734	0.12435	0.0232	0.12429	0.089449	0.17534	0.21318	0.27178	0.066372	0.21028	0.25891	0.1555	0.15192	0.077083	-1.3604	-0.63542	-0.54375	-1.5333	-0.41875	-0.92708	-1.4417	-0.36458	-1.3833	-1.0729	-0.48958	-1.6208	-0.44583	-1.0604	-1.5792	-24.910	239.017	-50.493	269.724	-83.817	165.874	203.282	233.506	2.668	38.877	138.044	169.595	269.188	250.749	261.194	-50.025	0.00031612	0.00036109	0.00029805	835.86	2.9888e-06	2.7966e-06	1065.9	266.95	7.3411e-06	4.1363e-06	421.59	156.99	92.145	33.122	6.9741e-06	64.602	0.00027404	0.00026424	7.4315e-05	746.39	2.9218e-06	2.9234e-06	947.55	238.03	2.8944e-06	2.8807e-06	368.28	137.02	81.669	29.487	2.8435e-06	55.82	159.658	30.693	-37.152	-70.597	134.307	87.527	-70.618	-66.277	115.870	-46.792	-67.117	-62.370	-61.843	-56.984	43.593	-58.417	-8191	255	
3495.491	1	1	0	0	0.15189	0.29268	0.10445	0.2119	0.093238	0.17016	0.29152	0.12139	0.072159	0.03879	0.16039	0.34467	0.062422	0.25236	0.18262	0.052377	0.09375	-1.3438	-0.85	-0.57917	-1.5583	-0.7125	-0.97083	-1.5021	-0.46667	-1.1542	-1.1375	-0.4625	-1.4521	-0.56458	-0.725	-1.3896	8.927	148.790	-3.388	-64.448	155.388	68.639	258.014	182.833	72.679	100.301	179.837	216.076	-76.637	223.757	110.975	142.329	0.00028792	0.00033968	7.6432e-05	834.81	4.7921e-06	7.9421e-06	1066.3	267.85	8.6529e-06	9.8466e-06	421.84	155.86	91.516	33.144	2.3892e-06	63.947	0.00026378	0.00025415	7.1468e-05	742.48	2.767e-06	2.7784e-06	944.44	237.72	2.7498e-06	2.7542e-06	367.76	136.27	81.149	29.268	2.7444e-06	55.435	104.347	-79.660	-0.541	-70.434	74.838	47.033	-70.808	-66.121	66.534	44.136	-67.348	-63.126	-61.643	-56.578	100.829	-58.391	-8191	255	
3495.563	1	1	0	0	0.27828	0.15595	0.20718	0.23349	0.062101	0.10087	0.24466	0.14481	0.30644	0.089661	0.58392	0.185	0.17385	0.02756	0.2012	0.22744	-0.072917	-1.2563	-1.1063	-0.58542	-1.5521	-0.57292	-0.79167	-1.6562	-0.15417	-1.4917	-1.3208	-0.1875	-1.6187	-0.38958	-0.58958	-1.825	24.845	148.279	89.992	-28.939	-83.465	54.929	-72.760	-80.440	102.228	149.582	195.517	177.091	222.499	-55.531	23.887	155.246	0.00049462	0.00015783	0.00028209	840.78	4.4725e-06	3.6354e-06	1078.9	269.57	1.9494e-06	3.8162e-06	426.58	156.82	92.014	33.174	7.0795e-06	65.392	0.00025305	0.00025059	6.9721e-05	747.8	2.6884e-06	2.6767e-06	955.55	239.46	2.7243e-06	2.75e-06	370.72	136.45	81.671	29.403	2.7751e-06	56.113	123.671	98.246	-45.303	-70.755	-58.012	57.418	-70.850	-66.265	20.117	-15.631	-67.101	-62.817	-62.157	-56.783	9.068	-58.307	-8191	255	
3495.659	1	1	0	0	0.1038	0.19263	0.062977	0.29505	0.026843	0.24012	0.39055	0.14878	0.19827	0.17852	0.28669	0.069913	0.16939	0.31254	0.30535	0.28438	0.10208	-1.2875	-1.1292	-0.34375	-1.4333	-0.56042	-0.78958	-1.7333	-0.4875	-1.1167	-1.3958	-0.25833	-1.4104	-0.675	-0.62083	-1.7354	156.698	213.145	-52.079	171.717	-73.267	196.760	236.308	211.804	247.848	99.600	203.066	-77.719	159.754	-41.968	0.697	192.439	0.000272	0.00085064	0.00011355	847.31	1.3814e-06	1.6862e-06	1088.1	269.82	3.1589e-06	2.0156e-06	432.46	156.58	93.293	33.232	8.6404e-06	64.757	0.00025672	0.00025044	6.9605e-05	753.99	2.6908e-06	2.7681e-06	968.49	241.21	2.733e-06	2.708e-06	374.5	136.79	82.29	29.425	2.6493e-06	55.808	134.864	-65.581	-41.287	-70.874	39.016	-64.226	-70.941	-66.539	53.015	47.723	-67.924	-63.444	-61.919	-57.519	-32.839	-58.781	-8191	255	
3495.755	1	1	0	0	0.15798	0.074983	0.11917	0.080413	0.23422	0.1965	0.26394	0.31905	0.16607	0.23603	0.13526	0.22605	0.21408	0.10401	0.34311	0.13533	-0.014583	-1.1	-1.2188	-0.26042	-1.425	-0.9375	-0.71875	-1.8396	-0.50625	-0.77917	-1.2979	-0.6375	-1.3396	-0.78542	-0.4	-1.6917	79.053	233.157	52.606	27.476	-60.235	-46.608	207.851	259.424	-65.935	201.798	152.932	-52.116	164.973	258.196	263.147	137.639	0.00036746	0.0003025	0.00014935	851.55	2.2706e-06	6.0899e-06	1089.8	273.95	6.0485e-06	5.1112e-06	431.49	156.53	92.868	33.641	1.0215e-05	64.21	0.00024616	0.00024288	6.7811e-05	754.75	2.669e-06	2.6222e-06	966.52	242	2.6159e-06	2.6161e-06	373.6	136.75	82.271	29.666	2.6209e-06	55.585	100.340	192.934	272.026	-71.167	4.947	78.722	-71.203	-66.916	90.340	-12.822	-67.663	-63.093	-61.913	-57.271	13.050	-58.598	-8191	255	
3495.874	1	1	0	0	0.23966	0.15588	0.29881	0.20193	0.12096	0.036885	0.22409	0.4333	0.30116	0.25587	0.32369	0.069542	0.36049	0.14989	0.20063	0.10719	-0.15833	-0.68958	-1.0854	-0.32292	-1.2812	-0.88542	-0.52083	-1.3917	-0.42083	-0.84375	-1.4104	-0.35833	-1.5104	-0.83958	-0.39375	-1.5271	167.294	199.150	4.376	219.418	236.718	-68.071	179.322	242.869	237.381	235.825	228.241	85.797	178.023	188.551	215.238	68.830	0.00035044	0.00055003	0.00021249	844.04	1.1331e-06	5.8809e-06	1096.9	271.29	8.4185e-06	3.6566e-06	428.9	157.3	92.77	33.708	4.3923e-06	64.528	0.000243	0.00024206	6.5696e-05	749.94	2.6376e-06	2.633e-06	966.28	241.23	2.6114e-06	2.5973e-06	371.95	136.62	82.076	29.486	2.5631e-06	55.438	138.752	33.384	32.198	-70.988	66.279	33.679	-70.829	-66.252	38.944	111.417	-67.443	-62.938	-61.553	-57.017	36.632	-58.865	-8191	255	
3495.970	1	1	0	0	0.10143	0.16523	0.1119	0.07117	0.15321	0.092943	0.11007	0.028309	0.19946	0.21426	0.073788	0.10001	0.2475	0.20132	0.061806	0.19518	-0.25208	-0.73542	-1.4458	-0.33333	-1.4396	-0.97708	-0.46667	-1.4937	-0.71458	-0.72083	-1.6854	-0.43125	-1.3312	-1.0833	-0.275	-1.7875	213.648	9.462	-31.437	-80.460	123.933	142.767	241.483	272.073	218.746	62.578	63.230	182.051	-39.706	171.984	165.648	76.916	0.00038259	0.00030906	0.00011559	843.82	1.2868e-06	7.3024e-06	1099.1	273.2	3.6994e-06	7.6867e-06	428.36	157.13	93.341	33.845	4.8175e-06	65.016	0.00024624	0.00023747	6.5244e-05	754.36	2.6522e-06	2.6072e-06	967.1	241.89	2.6424e-06	2.643e-06	373.01	136.87	82.288	29.687	2.6522e-06	55.902	107.428	-75.861	96.962	-71.210	167.866	-36.133	-71.155	-66.405	85.223	24.494	-66.753	-62.882	-62.135	-56.835	18.451	-58.435	-8191	255	
3496.066	1	1	0	0	0.16853	0.038026	0.17854	0.18341	0.069336	0.02852	0.27271	0.21009	0.084424	0.26117	0.31272	0.11276	0.31066	0.16332	0.10344	0.11792	-0.175	-0.6125	-1.2583	-0.24792	-1.2396	-1.2146	-0.43125	-1.3333	-0.61875	-0.65	-1.3875	-0.50417	-1.1542	-1.0104	-0.26458	-1.5604	-22.557	260.643	-37.428	186.521	95.334	39.992	240.038	275.596	-10.253	231.702	-56.716	248.306	272.310	199.754	186.046	56.849	0.00031445	0.00038409	0.00016509	850	1.8508e-06	7.0774e-06	1088.9	272.45	5.2316e-07	9.0977e-06	430.61	157.01	92.898	33.864	1.2383e-06	65.152	0.00025502	0.00024702	6.9426e-05	754.45	2.8816e-06	2.8309e-06	962.91	242.16	2.9433e-06	2.8576e-06	374.17	137.23	82.649	29.845	2.9194e-06	56.316	102.971	0.525	265.737	-70.762	73.168	-7.799	-70.871	-66.074	96.448	122.637	-67.496	-62.828	-61.854	-56.862	58.519	-58.724	-8191	255	
3496.162	1	1	0	0	0.020513	0.08935	0.18326	0.11066	0.1812	0.43304	0.11022	0.26768	0.41917	0.22211	0.13101	0.20628	0.18249	0.3707	0.14675	0.15917	-0.30208	-0.5875	-1.4	-0.48333	-0.9875	-1.1854	-0.525	-1.3396	-0.74375	-0.47917	-1.6083	-0.27708	-1.2521	-1.325	-0.04375	-1.5396	-15.615	264.160	23.877	67.295	158.283	81.409	-75.175	-16.329	135.588	241.921	207.178	263.654	22.003	-67.148	203.454	85.684	0.00033392	0.00083601	0.00027189	848.78	4.0763e-06	2.2992e-06	1081.1	271	7.3306e-06	6.2474e-06	426.21	155.91	91.797	33.524	2.3103e-06	64.828	0.00027539	0.0002701	7.5613e-05	756.83	3.0403e-06	2.9969e-06	960.18	241.66	3.0142e-06	2.933e-06	372.4	136.47	82.041	29.586	2.9024e-06	55.727	109.696	-43.148	0.392	-70.536	73.966	-62.640	-70.557	-65.961	100.079	18.924	-67.151	-62.683	-61.144	-56.831	160.662	-58.401	-8191	255	
3496.259	1	1	0	0	0.028783	0.18832	0.1977	0.12924	0.091589	0.097206	0.47601	0.2086	0.2932	0.049414	0.17102	0.28463	0.266	0.158	0.3409	0.27063	-0.65625	-0.30833	-1.3979	-0.40625	-1.1042	-1.5042	-0.37083	-1.4062	-0.9875	-0.48333	-1.6917	-0.50833	-0.75	-1.4229	-0.25208	-1.4875	-75.901	189.946	81.014	117.825	125.441	-38.598	260.920	265.953	257.582	26.872	135.367	194.625	-56.862	-17.908	62.749	160.577	0.00025887	0.00044055	3.5541e-05	841.83	3.1689e-06	5.301e-06	1078.1	271.33	1.7134e-06	1.2294e-05	422.35	155.21	91.471	33.084	9.3186e-06	63.563	0.00027313	0.00026297	7.349e-05	750.83	2.9563e-06	2.8814e-06	955.69	240.92	2.973e-06	2.9636e-06	371.08	135.63	81.54	29.406	2.932e-06	55.084	112.579	261.391	-61.855	-70.493	62.463	23.150	-70.677	-65.804	124.557	39.711	-66.772	-62.884	-61.512	-56.877	-27.010	-58.057	-8191	255	
3496.355	1	1	0	0	0.19094	0.19394	0.30814	0.11793	0.14876	0.26055	0.59891	0.33746	0.18936	0.14158	0.45484	0.19041	0.33328	0.082066	0.045674	0.17036	-0.58958	-0.375	-1.6292	-0.65208	-0.76042	-1.3062	-0.40833	-1.4583	-0.92083	-0.32083	-1.7208	-0.46458	-0.67292	-1.4562	-0.39375	-1.55	271.967	211.739	104.991	-72.970	238.855	153.872	251.074	229.383	257.105	260.321	223.531	190.646	200.689	-76.837	-45.498	234.129	0.00013684	0.00051064	0.00013457	846.41	3.7901e-06	5.6669e-06	1069	269.62	2.4438e-06	4.9366e-06	425.43	155.94	91.815	33.388	6.8454e-06	63.753	0.00027188	0.00026466	7.3859e-05	751.49	2.9467e-06	2.8934e-06	952.41	240	2.9592e-06	2.9239e-06	370.71	135.89	81.856	29.607	3.0363e-06	55.437	130.635	35.782	35.844	-70.480	193.993	69.831	-70.779	-65.681	106.041	31.363	-66.748	-62.847	-61.714	-56.877	44.864	-58.152	-8191	255	
3496.475	1	1	0	0	0.016497	0.17587	0.072034	0.25692	0.11283	0.2589	0.070785	0.16631	0.10093	0.2557	0.17761	0.2531	0.14141	0.19619	0.25484	0.035807	-0.75625	-0.17708	-1.7521	-0.79375	-0.68542	-1.5688	-0.40417	-1.3604	-1.1688	-0.225	-1.6833	-0.66667	-0.7	-1.6229	-0.19792	-1.4417	266.651	62.654	-52.515	223.354	4.399	-3.655	60.884	62.786	73.558	-7.751	-39.854	239.106	-3.728	-78.525	59.101	244.859	3.8659e-05	0.00029991	0.00018357	851.67	1.3807e-06	7.6658e-06	1085.2	271.19	6.378e-06	2.8005e-06	428.23	155.83	92.168	33.421	1.0108e-05	64.642	0.00027742	0.00027454	7.8624e-05	756.31	3.1078e-06	3.0528e-06	961.4	241.44	3.1159e-06	3.1461e-06	372.94	136.64	82.356	29.847	3.1765e-06	56.143	49.518	15.709	34.983	-70.308	86.845	159.252	-70.390	-65.733	108.413	150.473	-66.372	-62.732	-61.186	-56.411	63.114	-57.965	-8191	255	
3496.571	1	1	0	0	0.25731	0.099451	0.27083	0.33298	0.24754	0.21097	0.12864	0.20954	0.23939	0.31866	0.33753	0.30795	0.11988	0.17728	0.074046	0.25203	-0.90625	0.10625	-1.5125	-0.58542	-0.55833	-1.5375	-0.4625	-1.2104	-1.2563	-0.42292	-1.3937	-0.82708	-0.77292	-1.6187	-0.46042	-1.0479	186.169	132.496	-40.633	259.649	264.299	-7.421	203.878	210.048	39.117	62.771	193.173	137.313	250.401	-47.604	198.793	197.938	0.00038609	0.00045861	0.00021373	841.44	5.4792e-06	5.8193e-06	1077.7	270.77	3.3517e-06	4.4609e-06	428.26	155.82	92.883	33.784	4.1517e-06	64.668	0.00029504	0.00029012	8.1103e-05	754.2	3.1802e-06	3.1753e-06	958.74	241.76	3.1599e-06	3.2655e-06	373.4	136.99	82.679	30.07	3.2727e-06	56.212	129.241	-6.475	-82.597	-70.329	93.881	275.901	-70.239	-65.771	65.942	227.653	-66.849	-62.616	-61.220	-56.551	-11.347	-58.033	-8191	255	
3496.668	1	1	0	0	0.19222	0.075278	0.077857	0.15327	0.17128	0.25025	0.24154	0.11952	0.0922	0.19802	0.14973	0.19531	0.17608	0.1119	0.21107	0.34024	-0.77292	-0.525	-1.2437	-0.875	-0.59375	-1.3167	-0.50625	-1.2479	-1.2771	-0.32917	-1.6104	-1.1437	-0.58958	-1.5333	-0.35625	-1.0396	212.386	241.865	11.431	143.256	207.335	8.094	-81.665	-69.047	203.686	-14.943	241.631	154.153	228.347	219.420	160.036	201.013	0.00024064	0.0012007	0.00012506	841.47	9.6902e-06	3.977e-06	1068.4	269.5	3.9781e-06	6.9261e-06	421.15	156.28	92.707	33.882	7.4921e-06	64.987	0.00029847	0.00030012	8.4179e-05	752.56	3.2369e-06	3.2562e-06	952.99	240.6	3.2792e-06	3.3311e-06	371.18	137.13	82.922	30.235	3.4058e-06	56.661	143.044	-22.419	123.404	-70.052	33.646	51.630	-70.648	-65.434	76.626	29.225	-66.336	-62.555	-61.190	-56.225	55.424	-57.556	-8191	255	
3496.786	1	1	0	0	0.23788	0.16118	0.21739	0.26869	0.093396	0.187	0.27801	0.25677	0.10481	0.26438	0.13957	0.071184	0.025996	0.18411	0.22387	0.062148	-0.85	-0.26875	-1.5292	-1.0958	-0.4125	-1.3896	-0.675	-1.0438	-1.3083	-0.41042	-1.55	-0.91667	-0.37292	-1.7125	-0.56042	-0.9375	166.522	-50.686	-45.158	226.697	143.347	-18.024	243.019	156.081	-45.033	160.944	265.801	-37.136	179.076	247.593	150.507	215.793	0.00035004	0.0006465	0.00013382	838.8	5.4999e-06	2.6008e-06	1067.5	271.5	5.2957e-06	2.0406e-06	425.51	156.66	93.212	34.352	3.439e-06	66.367	0.00030611	0.00031025	8.6128e-05	754.05	3.3831e-06	3.3966e-06	953.23	242.13	3.4165e-06	3.444e-06	373.16	137.58	83.505	30.574	3.4416e-06	57.566	106.699	-62.453	18.066	-70.150	60.823	148.128	-70.489	-65.370	144.569	-26.131	-65.957	-62.494	-61.299	-55.850	38.247	-57.643	-8191	255	
3496.858	1	1	0	0	0.14217	0.1326	0.1749	0.13233	0.10567	0.20939	0.2153	0.22301	0.29189	0.44171	0.12606	0.13672	0.24159	0.10705	0.10956	0.16263	-1.15	-0.49583	-1.0708	-0.85625	-0.24375	-1.5542	-0.72917	-0.91667	-1.375	-0.28125	-1.1604	-1.0479	-0.55625	-1.5812	-0.69375	-0.9	111.899	227.676	52.580	133.768	96.061	200.736	153.318	139.323	66.678	144.694	169.248	-55.579	-41.929	-34.327	180.733	81.117	3.4134e-05	0.00065205	7.7577e-05	836.73	4.1178e-06	4.4118e-06	1069.8	272.43	3.9963e-06	6.4236e-06	425.92	159.65	94.264	34.618	6.832e-06	66.687	0.00031469	0.00031405	8.7013e-05	755.13	3.4275e-06	3.4361e-06	953.56	243.04	3.312e-06	3.3639e-06	374.46	139.44	84.3	30.863	3.3141e-06	57.893	-2.263	-1.043	-70.771	-70.098	91.342	46.326	-70.322	-65.263	217.430	56.004	-66.344	-62.319	-60.504	-55.662	67.438	-57.606	-8191	255	
3496.954	1	1	0	0	0.13636	0.22599	0.13633	0.25511	0.16307	0.15765	0.17285	0.16159	0.084351	0.1964	0.22441	0.17342	0.15076	0.083014	0.29494	0.23489	-0.8375	-0.45417	-1.1187	-1.1875	-0.21667	-1.4604	-0.89375	-1.0042	-1.4562	-0.13958	-1.475	-1.3917	-0.28333	-1.6333	-0.72083	-0.81458	-49.926	73.156	275.481	-71.781	89.907	205.277	221.907	168.615	-26.037	209.294	244.575	192.256	57.569	227.860	-29.178	-41.511	0.00028014	0.00034066	0.0002346	851.23	2.6649e-06	5.9057e-06	1079.3	271.06	5.2202e-06	3.6511e-06	429.61	157.72	93.755	34.376	1.0036e-05	66.661	0.00031259	0.00031338	8.4401e-05	759.25	3.4482e-06	3.4098e-06	957.37	243.16	3.4142e-06	3.4188e-06	375.76	138.62	84.015	30.844	3.3762e-06	57.744	126.641	30.924	121.877	-69.885	252.954	177.607	-70.119	-65.114	147.994	-64.181	-66.230	-62.104	-60.760	-55.681	-8.501	-57.324	-8191	255	
3497.050	1	1	0	0	0.10025	0.10056	0.17445	0.39953	0.057467	0.23318	0.34087	0.17504	0.12454	0.097658	0.14813	0.16659	0.33671	0.053248	0.10365	0.38914	-1.15	-0.2625	-1.0854	-1.4271	-0.28542	-1.5208	-0.84167	-0.8	-1.5292	-0.49167	-1.2271	-1.3979	-0.48333	-1.2563	-0.8875	-0.77083	250.398	211.013	238.052	222.785	219.793	-51.587	218.677	228.676	153.666	-18.765	236.358	266.483	237.635	-54.398	268.299	224.166	0.00021773	0.00023751	0.00010966	840.25	1.1667e-05	1.4183e-05	1057.1	270.99	5.5078e-06	1.7225e-06	424.67	157.78	94.449	35.012	2.5483e-06	66.944	0.00031503	0.00031444	8.598e-05	754.02	3.4826e-06	3.4392e-06	947.32	242.66	3.5009e-06	3.4457e-06	373.79	138.98	84.541	31.102	3.3699e-06	58.287	129.915	91.641	-42.969	-70.067	54.670	50.968	-70.030	-65.260	44.258	108.392	-65.985	-62.286	-60.715	-55.953	-17.838	-57.576	-8191	255	
3497.171	1	1	0	0	0.20174	0.13519	0.39835	0.23601	0.090571	0.28296	0.40968	0.499	0.087017	0.13014	0.18173	0.28599	0.045405	0.15668	0.15238	0.25439	-1.1313	-0.51667	-0.85417	-1.2313	-0.40208	-1.4438	-1.1708	-0.69167	-1.3771	-0.64375	-1.0958	-1.2833	-0.68333	-1.3375	-1.0458	-0.77083	-36.438	211.624	131.659	128.391	10.256	155.787	275.562	179.490	61.037	137.508	-42.695	272.527	9.632	177.289	-40.748	-76.227	0.00023879	0.0013252	0.00018412	843.32	2.4124e-06	3.9079e-06	1060.2	273.99	3.377e-06	1.3213e-05	429.07	159.66	94.758	35.757	1.92e-06	68.169	0.00031933	0.00030816	8.4937e-05	755.5	3.4449e-06	3.3654e-06	947.07	245.29	3.4973e-06	3.3703e-06	376.59	140.77	85.121	31.623	3.4553e-06	59.323	207.439	-67.816	-41.180	-70.134	172.335	88.206	-70.127	-64.809	116.758	31.992	-66.111	-61.924	-60.763	-55.901	-23.959	-57.835	-8191	255	
3497.267	1	1	0	0	0.25399	0.26996	0.065705	0.26954	0.12534	0.10764	0.24236	0.35763	0.22814	0.10967	0.078234	0.142	0.28288	0.10834	0.19459	0.31246	-1.2146	-0.72292	-0.925	-1.5104	-0.34583	-1.3854	-1.4333	-0.59583	-1.4396	-0.53125	-1.0542	-1.8	-0.58542	-1.2687	-0.9875	-0.57083	-12.844	216.320	-49.286	229.276	22.896	-65.054	206.221	176.719	181.928	42.448	33.412	275.690	269.808	-8.845	11.719	223.391	0.00037835	0.00059547	0.0003621	844.58	5.6947e-06	2.1974e-06	1059.3	275.27	1.1097e-05	5.3822e-06	431.44	161.01	95.146	35.602	1.2408e-06	68.278	0.00032496	0.00031739	8.8677e-05	759.8	3.522e-06	3.4286e-06	950.53	246.13	3.456e-06	3.3833e-06	377.69	141.55	85.315	31.654	3.3978e-06	59.401	107.745	-17.554	265.846	-69.419	155.584	96.833	-70.111	-64.879	58.567	-5.437	-66.583	-62.483	-60.741	-55.618	273.717	-57.640	-8191	255	
3497.363	1	1	0	0	0.16979	0.10547	0.063888	0.046256	0.15388	0.17437	0.22729	0.065826	0.22824	0.17772	0.12531	0.17018	0.30147	0.26077	0.10568	0.093682	-1.1875	-0.7	-0.72708	-1.6417	-0.41458	-1.1896	-1.0896	-0.45208	-1.5833	-0.81042	-1.0104	-1.6771	-0.57917	-1.3854	-1.175	-0.37917	240.687	32.647	58.811	121.374	155.015	62.064	249.258	181.889	71.486	199.669	12.372	64.442	208.926	255.760	-29.567	187.363	0.00022249	0.00092452	0.00032391	843.41	7.054e-06	6.6585e-06	1061.1	273.94	5.8575e-06	6.4517e-06	428.81	161.17	95.881	35.177	5.6716e-06	68.036	0.00031838	0.00030953	8.7037e-05	758.9	3.4369e-06	3.3735e-06	948.33	245.5	3.346e-06	3.3251e-06	376.98	141.15	85.056	31.31	3.348e-06	58.989	80.431	77.106	-62.291	-69.911	94.757	6.121	-70.226	-65.424	38.187	-64.932	-66.047	-62.182	-60.973	-55.895	1.470	-57.728	-8191	255	
3497.435	1	1	0	0	0.26922	0.10827	0.10921	0.16065	0.060721	0.092352	0.14997	0.45599	0.25088	0.22011	0.18267	0.19615	0.15081	0.17413	0.16683	0.18838	-1.2188	-0.575	-0.69375	-1.6625	-0.33958	-1.1271	-1.3687	-0.39792	-1.6292	-0.81042	-0.72917	-1.8146	-0.60208	-1.3354	-1.4521	-0.35833	275.122	267.455	-47.567	7.649	132.512	-13.109	187.999	226.787	6.039	275.682	-73.721	133.055	68.227	-79.977	-18.009	265.840	0.00038188	0.00065135	0.00026182	841.9	1.1656e-05	6.7886e-06	1059.5	273.8	4.3398e-06	9.3598e-06	424.14	158.92	94.646	34.93	2.1157e-06	66.885	0.00030591	0.00030232	8.3547e-05	754.23	3.2752e-06	3.2907e-06	939.2	243.66	3.2727e-06	3.2268e-06	373.35	139.8	84.436	31.162	3.2468e-06	58.234	128.008	275.833	-52.841	-69.668	9.297	92.303	-69.968	-65.413	139.810	6.102	-65.849	-62.000	-61.162	-55.608	56.148	-57.348	-8191	255	
3497.556	1	1	0	0	0.10491	0.14941	0.032465	0.32916	0.22251	0.13781	0.28478	0.080587	0.14325	0.10196	0.29402	0.16043	0.12985	0.085426	0.098536	0.17746	-1.2	-0.98958	-0.59167	-1.7042	-0.36667	-1.0042	-1.4167	-0.40208	-1.4396	-0.89792	-0.8	-1.6	-0.4625	-1.1229	-1.2479	-0.42708	209.598	-4.221	-52.736	234.847	230.471	90.157	159.484	9.042	151.628	242.620	94.955	259.922	189.388	138.710	148.959	252.061	4.7784e-05	0.00039595	0.00023062	833.6	3.0313e-06	4.305e-06	1050.7	272.17	4.2477e-06	2.6131e-06	421.15	159.06	93.648	34.735	4.7027e-06	67.641	0.00029819	0.00029531	8.2323e-05	747.32	3.1789e-06	3.19e-06	937.93	242.75	3.199e-06	3.1717e-06	371.62	139.65	84.079	31.119	3.187e-06	58.477	110.737	38.665	195.624	-69.822	227.343	78.781	-69.768	-64.904	79.736	-19.724	-65.883	-62.105	-60.366	-55.593	30.542	-57.744	-8191	255	
3497.652	1	1	0	0	0.044036	0.096926	0.1385	0.23983	0.24524	0.12785	0.076513	0.1346	0.1284	0.20755	0.032385	0.028629	0.20637	0.38647	0.3343	0.26166	-1.1375	-0.82917	-0.46458	-1.6396	-0.4125	-0.78542	-1.4854	-0.33125	-1.4271	-1.1333	-0.48542	-1.8479	-0.59375	-1.0146	-1.5583	-0.41875	19.032	-72.356	194.160	235.832	76.795	-58.649	177.223	127.379	104.149	229.870	-20.487	5.598	178.093	234.096	58.947	232.547	0.00037716	0.00027182	0.00021798	839.04	6.3107e-06	2.3927e-06	1048.1	272.16	1.0126e-05	3.6454e-06	428.2	160.64	94.558	35.124	4.0006e-06	67.479	0.00029602	0.00029137	8.1741e-05	751.1	3.1425e-06	3.1589e-06	936.59	242.86	3.137e-06	3.0815e-06	373.78	140.58	84.23	31.116	3.088e-06	58.548	119.130	-75.259	18.481	-69.623	-7.632	67.589	-70.248	-65.168	12.740	-1.330	-65.673	-61.947	-60.940	-55.494	141.600	-57.400	-8191	255	
3497.748	1	1	0	0	0.13068	0.24069	0.34988	0.12934	0.16012	0.174	0.30285	0.25654	0.066433	0.1892	0.11391	0.38958	0.23886	0.069577	0.061657	0.21912	-1.1313	-1.0812	-0.49583	-1.6187	-0.43333	-0.7125	-1.475	-0.32917	-1.4396	-1.0896	-0.27917	-1.7417	-0.72917	-0.57708	-1.5021	-0.47708	178.348	81.373	227.455	243.777	120.029	-64.569	180.246	165.160	240.395	-75.610	-50.805	-71.451	-64.698	115.474	251.066	254.214	0.00036194	0.0007	0.00020471	831.95	6.0929e-06	3.7438e-06	1046.8	270.26	1.0625e-05	5.1567e-06	425.82	159.76	93.006	34.477	7.3682e-06	66.664	0.00028301	0.00028435	7.7811e-05	746.78	3.0602e-06	3.1568e-06	934.54	242.29	3.0075e-06	3.0494e-06	372.92	140.57	83.665	30.819	2.94e-06	58.128	147.632	33.844	-32.913	-69.445	17.223	-26.050	-70.269	-65.057	-26.113	25.264	-66.280	-61.777	-60.486	-55.619	-12.667	-57.373	-8191	255	
3497.867	1	1	0	0	0.12929	0.17468	0.094791	0.0627	0.26893	0.39856	0.44287	0.44356	0.18568	0.25937	0.18296	0.17485	0.17303	0.07998	0.22568	0.5036	-0.81667	-1.1854	-0.1875	-1.6229	-0.57292	-0.75625	-1.7667	-0.64792	-1.1458	-1.1167	-0.64792	-1.5917	-0.90417	-0.67292	-1.5688	-0.61458	52.557	228.153	120.636	201.656	88.074	223.758	207.559	222.900	179.876	68.900	111.026	205.023	90.798	4.631	148.878	209.428	0.00033237	0.00063027	0.00013955	831.33	8.5457e-06	5.4862e-06	1039.6	271.89	9.5206e-06	1.458e-06	421.81	158.09	92.382	34.536	6.3939e-06	66.656	0.00027951	0.00027496	7.7388e-05	745.03	3.0529e-06	3.0789e-06	930.88	242.66	3.0648e-06	3.0851e-06	371.57	139.37	83.555	30.893	3.0521e-06	57.794	119.139	-45.479	129.201	-69.715	22.879	34.632	-69.572	-64.666	107.795	-63.356	-66.316	-61.829	-61.066	-55.331	15.344	-57.647	-8191	255	
3497.963	1	1	0	0	0.12468	0.38493	0.14969	0.08613	0.22724	0.12371	0.17977	0.10941	0.034441	0.25993	0.11617	0.17841	0.17148	0.15955	0.19349	0.21611	-0.71875	-1.0854	-0.46042	-1.4708	-0.89375	-0.69583	-1.6646	-0.44375	-1.2083	-1.2958	-0.2875	-1.6083	-1.0604	-0.65208	-1.7354	-0.54583	71.813	-58.540	-8.817	85.976	267.942	-7.187	179.815	244.613	124.488	129.033	53.507	198.433	-37.579	-10.217	173.422	-57.007	0.00028089	0.00051299	6.7335e-05	841.47	5.0932e-06	8.9746e-06	1048.6	270.28	5.3176e-06	2.1095e-06	421.08	156.54	92.921	34.196	1.648e-06	65.75	0.00028539	0.00028508	7.823e-05	749.13	3.095e-06	3.0992e-06	934.96	241.55	3.1248e-06	3.1594e-06	369.36	137.67	83.145	30.382	3.1102e-06	56.908	124.846	-48.956	-13.871	-70.166	78.869	90.921	-69.917	-65.115	53.416	154.329	-65.912	-61.787	-60.915	-55.378	1.194	-57.448	-8191	255	
3498.036	1	1	0	0	0.29317	0.14805	0.18842	0.16516	0.14439	0.13506	0.05983	0.15232	0.2002	0.082668	0.065748	0.1616	0.12372	0.096066	0.11438	0.13836	-0.56458	-1.4854	-0.38958	-1.4396	-0.82917	-0.63333	-1.7146	-0.73125	-1.0208	-1.2812	-0.64167	-1.3104	-1.1812	-0.69167	-1.4271	-0.65833	-70.634	14.560	245.359	-38.320	11.477	103.307	259.628	226.573	48.035	55.827	144.445	270.551	208.411	126.236	187.732	179.302	0.00037868	0.00045469	0.00018383	835.28	8.6598e-06	4.1092e-06	1046	267.81	7.0808e-06	3.1488e-06	419.21	155.51	93.304	33.996	5.5642e-06	65.128	0.0002893	0.00028483	7.852e-05	750.24	3.1813e-06	3.1173e-06	936.1	241.03	3.2307e-06	3.147e-06	369.41	137.55	83.151	30.393	3.2272e-06	56.871	129.689	-28.024	-4.707	-69.250	86.561	96.326	-69.873	-65.032	4.518	73.940	-66.018	-61.572	-60.898	-55.326	-6.086	-57.598	-8191	255	
3498.155	1	1	0	0	0.116	0.01468	0.14886	0.093157	0.15215	0.25725	0.32931	0.11002	0.1802	0.18336	0.286	0.25505	0.15027	0.010517	0.19407	0.20322	-0.44375	-1.2313	-0.5	-1.2812	-0.98958	-0.43333	-1.5083	-0.54375	-0.72917	-1.5562	-0.47083	-1.2583	-1.2437	-0.41667	-1.575	-0.66875	167.935	-28.764	176.095	172.249	120.303	86.703	227.108	143.752	135.671	193.465	179.143	250.443	247.115	-77.701	162.775	-16.448	0.0004505	0.0001854	8.0858e-05	836.06	7.3989e-06	8.0794e-06	1051.1	271.19	3.9116e-06	1.0115e-05	422.17	157.72	93.261	33.751	3.8702e-06	64.643	0.00030612	0.00029699	8.3423e-05	755.2	3.3534e-06	3.3529e-06	942.01	243.02	3.3767e-06	3.3216e-06	372.09	138.62	83.584	30.543	3.3434e-06	56.862	113.873	267.271	85.477	-69.738	53.272	39.013	-69.568	-64.833	30.549	23.814	-65.922	-61.751	-61.029	-55.255	136.674	-57.622	-8191	255	
3498.251	1	1	0	0	0.18976	0.13806	0.15855	0.20903	0.28213	0.19618	0.22739	0.36578	0.096597	0.41923	0.093992	0.30004	0.18906	0.33971	0.23719	0.14244	-0.16875	-1.5833	-0.44375	-1.3188	-1.1875	-0.35	-1.6979	-0.675	-0.575	-1.6167	-0.39375	-1.1542	-1.2313	-0.26667	-1.5125	-0.86458	220.913	-62.680	154.546	208.088	131.795	-45.031	268.034	202.643	54.779	-25.315	200.324	243.729	275.166	-78.823	57.433	7.007	0.00040017	0.00020531	1.9769e-05	829.8	3.8359e-06	5.577e-06	1042	267.71	1.2854e-05	6.6387e-06	413.59	152.52	90.667	33.519	8.1156e-06	63.227	0.00031622	0.00030347	8.5737e-05	751.26	3.4135e-06	3.3206e-06	934.55	240.95	3.3514e-06	3.2577e-06	365.81	135.04	81.949	29.924	3.2377e-06	55.337	73.220	-25.835	14.077	-69.148	-54.468	101.036	-69.414	-65.261	48.414	-32.322	-66.061	-61.861	-60.743	-55.367	74.674	-57.117	-8191	255	
3498.348	1	1	0	0	0.33244	0.1706	0.18803	0.1353	0.051685	0.21256	0.25364	0.18724	0.36249	0.027165	0.10831	0.095032	0.30027	0.28809	0.22006	0.17162	-0.37292	-1.3375	-0.58542	-1.3083	-1.1146	-0.53125	-1.5979	-1.0583	-0.60417	-1.5896	-0.65417	-1.4062	-1.4438	-0.39792	-1.4708	-0.8875	-69.774	198.655	239.882	204.686	5.203	-15.196	195.542	261.985	-64.022	27.212	229.583	217.982	228.081	245.782	84.288	241.752	0.00020462	0.00030333	0.00014842	814.08	2.1747e-06	4.6794e-06	1030.6	265.03	3.9906e-06	6.0411e-06	411.41	150.98	90.476	32.996	3.1973e-06	62.527	0.00030248	0.00029553	8.2218e-05	740.61	3.2965e-06	3.2318e-06	927.05	238.16	3.2725e-06	3.2231e-06	364.43	133.98	81.408	29.89	3.2978e-06	55.111	147.382	208.267	260.027	-69.565	-11.776	105.624	-69.961	-64.912	11.034	85.723	-66.399	-61.440	-60.743	-55.427	43.578	-57.078	-8191	255	
3498.468	1	1	0	0	0.20103	0.50924	0.25403	0.12586	0.32835	0.12567	0.29218	0.27657	0.29011	0.17327	0.21729	0.1229	0.21363	0.12405	0.11001	0.086059	-0.2375	-1.7938	-0.40208	-0.9625	-1.1063	-0.4625	-1.4521	-0.9125	-0.6625	-1.4917	-0.69792	-0.99792	-1.5	-0.625	-1.4708	-1.3521	173.158	117.315	169.583	16.319	5.285	-70.442	234.793	265.109	-43.336	206.092	196.746	-75.700	-37.568	-58.814	168.665	207.163	0.0002151	0.00049188	0.00017514	818.49	5.021e-06	5.1663e-06	1030.2	265.61	1.1102e-05	4.0414e-06	414.49	152.3	91.011	33.835	4.6575e-06	63.478	0.00030753	0.00030245	8.4027e-05	742.26	3.3523e-06	3.2735e-06	927.55	239.38	3.3038e-06	3.3338e-06	365.65	134.47	82.058	30.369	3.3404e-06	55.612	151.976	-0.576	-2.918	-69.278	41.646	80.996	-69.517	-65.187	26.805	-32.208	-66.446	-61.827	-60.941	-55.790	-9.008	-57.584	-8191	255	
3498.564	1	1	0	0	0.2301	0.15924	0.15939	0.10399	0.13152	0.056666	0.038663	0.14825	0.04254	0.11522	0.264	0.42612	0.095688	0.27822	0.18	0.30287	-0.35833	-1.4792	-0.46042	-1.0271	-1.4167	-0.53125	-1.6083	-0.96458	-0.29167	-1.6375	-0.62917	-1.1333	-1.4688	-0.24792	-1.3937	-1.1646	162.532	-71.511	114.570	244.530	61.405	226.061	124.215	128.374	60.211	84.854	237.278	244.675	-73.597	185.802	220.832	-66.695	0.00024586	0.00059273	0.00027968	806.02	5.0288e-06	3.5113e-06	1024	265.24	6.0464e-06	5.5056e-06	412.38	152.82	91.078	34.006	6.3479e-06	64.471	0.00030264	0.00029197	8.2642e-05	730.66	3.1028e-06	3.1323e-06	914.03	238	2.9569e-06	2.9268e-06	363.14	134.76	81.607	30.31	2.8342e-06	56.017	130.071	-78.719	51.271	-69.544	255.219	137.495	-69.879	-65.097	14.612	-35.940	-66.050	-61.748	-60.846	-55.041	93.256	-57.378	-8191	255	
3498.659	1	1	0	0	0.16452	0.22904	0.22778	0.39412	0.10456	0.08183	0.083172	0.091375	0.33813	0.25537	0.15491	0.14765	0.19624	0.14389	0.33137	0.10067	-0.24375	-1.6271	-0.45625	-0.90833	-1.5104	-0.34167	-1.5771	-1.2458	-0.35625	-1.4875	-0.74792	-0.86458	-1.4979	-0.59167	-1.3146	-1.2292	-65.446	186.734	135.788	270.215	102.395	84.491	116.278	17.242	73.371	66.299	173.371	-69.683	252.723	46.289	114.137	142.635	0.00030812	0.00010688	0.00026538	790.44	4.1845e-06	3.7753e-06	998.83	263.45	4.3348e-06	5.7866e-06	409.26	153.46	91.359	34.563	1.1311e-06	65.34	0.00025854	0.00025222	7.0098e-05	710.36	2.6972e-06	2.7022e-06	890.81	235.6	2.6461e-06	2.6393e-06	359.22	134.51	81.335	30.551	2.5538e-06	56.09	139.827	-18.544	3.852	-69.591	66.244	64.679	-69.970	-65.308	28.794	118.505	-66.351	-61.643	-60.640	-55.607	189.844	-58.058	-8191	255	
3498.732	1	1	0	0	0.12512	0.12517	0.16713	0.089576	0.31196	0.2609	0.22093	0.43127	0.11972	0.19163	0.12656	0.20055	0.12082	0.099709	0.1573	0.1354	-0.097917	-1.4688	-0.79375	-0.74375	-1.4854	-0.58542	-1.1792	-1.2479	-0.16667	-1.4646	-0.91042	-0.7875	-1.5542	-0.37083	-1.1167	-1.3917	-45.847	202.390	-74.007	-12.833	-18.375	157.585	-54.796	230.976	-40.883	6.684	-77.332	257.369	275.891	246.630	165.232	248.595	0.00037262	0.0007763	0.00039502	776.43	5.1308e-06	4.7264e-06	977.34	263.34	6.3909e-06	6.2117e-06	412.92	155.9	91.717	35.129	4.2302e-06	66.416	0.00023534	0.0002323	6.3928e-05	689.69	2.4717e-06	2.4836e-06	863.43	231.57	2.4613e-06	2.4317e-06	356.45	135.3	81.195	30.735	2.3901e-06	56.93	107.129	-71.571	-26.072	-70.530	97.711	69.079	-70.511	-65.839	207.221	-9.027	-66.644	-62.139	-61.241	-56.232	49.754	-57.923	-8191	255	
3498.851	1	1	0	0	0.028731	0.14928	0.17423	0.20204	0.11653	0.075017	0.1213	0.29547	0.033493	0.11949	0.13628	0.23683	0.035035	0.17111	0.26224	0.2058	0.029167	-1.5688	-0.81042	-0.8	-1.6313	-0.59583	-1.1229	-1.3396	-0.41458	-1.3458	-1.1	-0.58333	-1.4417	-0.33958	-0.95208	-1.5208	41.320	-24.451	33.593	-25.882	225.463	184.622	-59.981	167.267	148.757	113.476	-61.195	-39.438	45.618	174.416	232.111	249.757	0.00023582	0.00021824	0.00013747	754.33	4.9063e-06	2.7585e-06	960.96	261.04	6.0751e-06	7.3363e-06	412.24	159.18	93.523	35.746	2.8288e-06	68.005	0.00022087	0.00021652	5.9844e-05	670.05	2.3611e-06	2.3595e-06	846.89	230.23	2.3624e-06	2.321e-06	356.98	137.28	82.06	31.24	2.3215e-06	58.267	151.942	-63.779	85.315	-70.035	69.989	52.850	-70.590	-66.073	61.119	92.491	-66.925	-62.305	-61.299	-55.859	46.843	-57.990	-8191	255	
3498.947	1	1	0	0	0.16693	0.017436	0.37769	0.19027	0.16845	0.27683	0.46056	0.10731	0.047735	0.1811	0.11403	0.22549	0.14185	0.093074	0.022793	0.16676	0.11458	-1.6292	-0.85	-0.51042	-1.5833	-0.41667	-0.97708	-1.525	-0.39375	-1.3229	-1.0063	-0.3875	-1.6688	-0.45417	-0.81042	-1.5958	-76.421	83.562	220.011	-71.509	65.411	257.277	269.057	-78.402	-77.395	245.821	55.189	258.721	208.456	51.516	-43.711	68.145	0.00038303	0.00069452	0.00032857	746.58	5.4202e-06	3.9343e-06	948.48	261.94	4.0664e-06	8.7093e-06	415.45	162.75	94.963	36.745	4.7321e-06	70.077	0.00021748	0.00021378	5.8443e-05	660.61	2.3025e-06	2.3216e-06	836.22	230.16	2.2971e-06	2.2986e-06	357.35	140.39	83.29	31.938	2.2205e-06	59.982	102.059	-60.252	-0.211	-69.953	95.496	44.462	-70.448	-65.668	73.158	65.730	-66.597	-62.054	-60.945	-56.170	67.713	-57.842	-8191	255	
3499.043	1	1	0	0	0.14088	0.15639	0.07927	0.077425	0.20493	0.16595	0.1784	0.24253	0.12165	0.19358	0.10509	0.11456	0.269	0.15018	0.1459	0.076926	0.08125	-1.4021	-1.0833	-0.51458	-1.8208	-0.68125	-0.8625	-1.55	-0.34583	-1.3021	-1.1938	-0.50625	-1.4771	-0.56875	-0.62917	-1.6333	204.747	173.816	203.827	-71.210	155.860	55.644	198.950	200.532	71.817	156.504	-37.518	215.314	256.844	275.403	266.261	215.243	0.00041024	0.0010016	0.00018925	735.91	6.8971e-06	5.989e-06	932.45	262.74	5.0613e-06	1.5614e-05	413.82	165.5	97.056	37.393	4.6915e-06	71.154	0.00021296	0.00020732	5.6274e-05	651.19	2.2818e-06	2.2649e-06	824.36	231.2	2.2841e-06	2.2361e-06	357.65	142.81	84.791	32.679	2.2386e-06	60.951	126.334	-22.244	-45.593	-70.150	39.563	61.459	-70.147	-65.166	-6.636	63.155	-66.705	-62.282	-61.138	-55.676	13.772	-58.190	-8191	255	
3499.140	1	1	0	0	0.31154	0.18149	0.10629	0.055348	0.18703	0.26087	0.22047	0.1507	0.34544	0.10248	0.33761	0.36603	0.17548	0.12495	0.11179	0.24129	-0.08125	-0.99792	-1.0125	-0.47083	-1.5854	-0.66458	-0.77917	-1.4604	-0.44583	-1.2042	-1.2104	-0.53333	-1.525	-0.94167	-0.80625	-1.7208	188.817	60.761	150.573	-25.895	-61.971	217.573	204.593	195.691	246.757	-75.902	268.699	244.867	-64.796	42.666	235.041	202.738	0.00037093	0.00028831	0.00019197	729	7.1896e-07	2.9901e-06	923.18	260.86	3.8508e-06	7.1918e-06	412.65	164.32	97.226	37.544	6.4473e-06	71.739	0.00021622	0.00020588	5.6512e-05	646.78	2.2744e-06	2.2457e-06	816.29	231.02	2.2997e-06	2.2378e-06	356.28	142.7	85.143	32.8	2.2581e-06	61.226	128.402	68.718	-56.855	-69.931	1.148	-34.054	-70.086	-65.546	52.903	4.672	-66.599	-62.122	-60.584	-55.510	10.454	-58.068	-8191	255	
3499.236	1	1	0	0	0.11773	0.17483	0.16871	0.13396	0.086277	0.16225	0.41508	0.03038	0.19926	0.11051	0.097043	0.21109	0.231	0.11012	0.19711	0.20402	-0.175	-1.1354	-1.1167	-0.54583	-1.5688	-1.0333	-0.96042	-1.5354	-0.6375	-1.1333	-1.2958	-0.6625	-1.5333	-0.72708	-0.67083	-1.5479	274.834	208.256	63.188	171.699	112.410	19.061	201.486	195.799	203.827	-11.851	-61.141	-53.178	174.667	259.633	101.548	256.171	0.00025585	0.00061422	0.00023094	734.96	2.7346e-06	3.3489e-06	925.43	265.32	1.0768e-05	4.9314e-06	416.18	166.7	97.739	37.942	4.9708e-06	72.796	0.00022104	0.00020856	5.8748e-05	646.66	2.3566e-06	2.3085e-06	818.56	232.9	2.3598e-06	2.3241e-06	359.7	144.75	86.098	33.203	2.3515e-06	62.097	158.189	-32.748	-66.029	-69.973	26.583	26.732	-70.349	-65.097	49.899	25.178	-66.567	-62.202	-60.755	-55.638	-20.273	-58.106	-8191	255	
3499.332	1	1	0	0	0.35125	0.19857	0.10037	0.36483	0.27886	0.24806	0.24472	0.17887	0.10783	0.19322	0.25529	0.089688	0.37114	0.11569	0.22177	0.29574	-0.16458	-1.025	-1.3021	-0.59167	-1.3271	-0.83333	-0.85208	-1.6187	-0.45833	-1.0146	-1.2854	-0.39167	-1.3646	-0.9625	-0.64375	-1.5833	78.425	234.524	124.498	-81.710	262.848	-72.247	181.350	185.894	-11.159	0.685	211.377	114.963	124.733	179.840	163.531	227.310	0.00043577	0.00016569	8.5308e-05	733.48	2.1673e-06	2.6317e-06	920.4	263.93	9.1605e-06	2.7425e-06	419.6	168.6	99.089	38.316	4.8284e-06	73.09	0.00022441	0.0002147	5.9492e-05	649.98	2.4177e-06	2.3073e-06	819.88	234.64	2.4106e-06	2.3566e-06	363.8	145.99	86.986	33.417	2.4206e-06	62.411	118.716	-45.657	49.130	-69.952	-0.097	59.886	-69.995	-65.238	56.923	89.358	-66.295	-62.295	-60.614	-55.937	3.317	-57.610	-8191	255	
3499.428	1	1	0	0	0.20018	0.090852	0.21506	0.38757	0.086444	0.15309	0.30376	0.11012	0.077788	0.054209	0.09439	0.15638	0.25074	0.089824	0.12673	0.097708	-0.064583	-1.0438	-1.3646	-0.27708	-1.3646	-0.95625	-0.75833	-1.4896	-0.5375	-0.91875	-1.3521	-0.56042	-1.3708	-1.0146	-0.36875	-1.5833	238.364	121.785	219.977	231.787	21.374	154.258	230.395	265.988	193.622	85.904	193.344	107.523	-75.107	96.227	234.619	174.918	0.00029538	0.00058483	9.095e-05	729.78	9.7192e-06	5.6493e-06	939.34	267.76	4.9879e-06	3.4706e-06	422.4	168.92	98.819	38.196	5.4923e-06	72.793	0.00022679	0.00021309	6.0978e-05	651.49	2.3688e-06	2.3581e-06	828.68	236.6	2.3647e-06	2.3589e-06	365.2	146.44	87.35	33.544	2.421e-06	62.126	90.174	-37.455	-13.522	-70.005	63.460	47.517	-70.023	-65.178	87.316	138.253	-67.690	-63.254	-61.742	-56.702	47.139	-59.030	-8191	255	
3499.549	1	1	0	0	0.12894	0.12149	0.093748	0.1889	0.10135	0.29785	0.16139	0.18142	0.13017	0.17865	0.16425	0.31383	0.22081	0.17448	0.10767	0.31376	-0.22083	-0.75417	-1.3875	-0.50208	-1	-1.0812	-0.5875	-1.6229	-0.61458	-0.65208	-1.5333	-0.59375	-1.3167	-1.1437	-0.62708	-1.6604	200.794	246.066	70.958	89.935	-69.762	-45.526	58.622	252.460	137.998	-56.140	133.725	231.985	158.718	123.042	56.973	239.920	0.00054952	0.00010678	0.0001152	740.17	4.9776e-06	5.0766e-06	941.9	269.66	4.4783e-06	2.7872e-06	419.78	170.06	100.64	39.075	5.9611e-06	74.028	0.00022745	0.0002238	6.0935e-05	656.39	2.3982e-06	2.4092e-06	831.96	238.82	2.4067e-06	2.388e-06	366.31	147.35	88.297	33.986	2.4415e-06	63.263	93.279	20.617	-56.209	-71.320	39.919	126.797	-71.614	-65.740	30.624	240.692	-67.512	-63.190	-61.784	-56.642	94.957	-58.836	-8191	255	
3499.645	1	1	0	0	0.11899	0.18274	0.080248	0.10521	0.19769	0.10494	0.44154	0.079832	0.15435	0.13288	0.17488	0.15139	0.35074	0.3151	0.2907	0.23013	-0.39375	-0.62708	-1.3854	-0.38125	-1.0979	-1.2917	-0.53125	-1.6042	-0.76458	-0.58542	-1.6792	-0.46458	-1.1542	-1.4229	-0.23958	-1.7083	255.076	-44.734	251.865	220.210	209.208	85.459	193.035	97.522	108.283	55.558	60.665	-50.300	268.642	188.204	225.251	-65.345	0.00035949	0.00044777	0.00017046	748.93	3.3626e-06	5.5962e-06	958.45	277.15	3.1702e-06	3.8102e-06	438.61	176.85	104.87	41.003	2.5335e-06	77.512	0.00022511	0.00022144	6.1184e-05	665.35	2.4285e-06	2.4646e-06	847.93	244.53	2.4493e-06	2.522e-06	379.31	153.55	92.045	35.736	2.5675e-06	66.477	154.136	247.050	-27.742	-70.797	-12.761	116.743	-70.771	-66.233	22.047	1.470	-67.503	-63.321	-61.648	-56.555	-65.045	-58.601	-8191	255	
3499.739	1	1	0	0	0.12017	0.1487	0.074728	0.17329	0.073179	0.20905	0.022004	0.2109	0.13876	0.2615	0.26891	0.09928	0.14052	0.20467	0.074653	0.17036	-0.33958	-0.53542	-1.3563	-0.65	-0.9	-1.1729	-0.46458	-1.5542	-0.60208	-0.51458	-1.7563	-0.5375	-1.25	-1.4438	-0.25208	-1.6	-47.507	232.020	249.339	251.646	-16.187	95.085	273.296	220.679	205.579	249.110	223.602	-33.373	-55.100	-81.262	253.429	221.254	0.00042205	0.00023004	0.00029131	768.58	7.9685e-06	4.6373e-06	979.85	288.33	5.1311e-06	5.5689e-07	455.79	185.62	108.74	42.82	3.2782e-06	81.046	0.00023785	0.00023364	6.4893e-05	686.36	2.5437e-06	2.5718e-06	868.93	255.29	2.6015e-06	2.6625e-06	394.26	160.54	95.805	37.441	2.6671e-06	69.206	113.662	52.761	-74.745	-70.952	46.488	-57.201	-70.767	-65.789	-26.696	147.379	-67.299	-62.967	-61.053	-56.534	-46.658	-58.627	-8191	255	
3499.837	1	1	0	0	0.044936	0.27686	0.15806	0.2165	0.16121	0.231	0.083074	0.22497	0.13346	0.087623	0.17509	0.16441	0.2612	0.17487	0.19469	0.24563	-0.40208	-0.62917	-1.6292	-0.47292	-0.97917	-1.4396	-0.43333	-1.3604	-0.66667	-0.50417	-1.6521	-0.62708	-1.275	-1.3729	-0.38542	-1.6229	23.497	195.446	35.220	195.146	160.618	123.457	178.877	242.275	112.605	63.659	-77.446	196.797	-26.231	15.973	174.919	237.376	0.00026551	0.00047289	0.00019658	792.05	3.8409e-06	5.1659e-06	1002.2	294.98	5.7172e-06	8.4878e-06	462.54	189.38	110.7	44.147	1.8046e-06	83.077	0.00024909	0.00024665	6.7628e-05	704.01	2.6821e-06	2.6756e-06	888.91	260.38	2.6459e-06	2.6286e-06	400.58	164.02	97.782	38.365	2.5087e-06	70.816	109.738	-21.819	-32.064	-70.440	32.028	80.819	-70.520	-65.305	21.071	57.366	-66.841	-62.717	-61.143	-56.433	87.024	-58.316	-8191	255	
3499.956	1	1	0	0	0.29667	0.032035	0.14233	0.062226	0.28854	0.22428	0.16266	0.099541	0.032947	0.23898	0.10461	0.20118	0.17345	0.086472	0.18177	0.15437	-0.55417	-0.55833	-1.35	-0.56875	-0.94583	-1.2604	-0.51042	-1.5792	-0.91458	-0.45833	-1.7188	-0.625	-0.91042	-1.4958	-0.41042	-1.6125	153.309	78.394	101.110	-51.834	155.339	73.909	174.314	-36.990	73.708	87.454	-58.114	212.998	178.135	-62.711	120.685	223.949	0.00030504	0.00047079	0.00034104	796.33	8.0774e-06	7.9763e-06	1003.6	297.1	6.0833e-06	9.1271e-06	462.97	191.42	112.47	44.81	7.0039e-06	84.12	0.00023758	0.00022928	6.379e-05	705.71	2.5145e-06	2.4856e-06	887.94	261.81	2.4048e-06	2.4325e-06	400.04	165.29	98.75	38.946	2.2997e-06	71.749	153.474	-42.881	15.761	-70.512	96.096	33.871	-70.676	-65.345	92.510	50.090	-66.656	-62.737	-61.147	-56.255	26.666	-58.479	-8191	255	
3500.028	1	1	0	0	0.3764	0.055586	0.25111	0.15592	0.13616	0.050224	0.35883	0.1422	0.1864	0.18728	0.29202	0.40626	0.22291	0.18504	0.23028	0.22224	-0.79375	-0.45833	-1.4875	-0.79792	-0.76042	-1.3708	-0.59167	-1.3979	-1.0521	-0.31042	-1.6542	-0.82292	-0.9	-1.5646	-0.46042	-1.3896	111.214	222.805	93.789	12.240	-64.193	-49.131	259.220	221.535	7.221	-38.541	208.975	237.265	-80.661	-76.819	27.740	178.858	0.00046651	0.00015497	0.00030902	799.62	6.7024e-06	4.3301e-06	1004	298.09	4.1919e-06	2.9721e-06	465.11	192.59	112.4	44.72	8.155e-06	84.976	0.0002211	0.00021329	5.7227e-05	703.88	2.2584e-06	2.2311e-06	885.71	262.45	2.206e-06	2.2055e-06	400.8	165.93	98.63	38.731	2.0573e-06	72.002	126.784	40.978	-22.145	-70.408	58.613	42.250	-70.656	-65.012	96.141	-34.161	-66.650	-62.366	-60.597	-55.874	50.755	-58.063	-8191	255	
3500.148	1	1	0	0	0.47987	0.23798	0.1864	0.21055	0.048267	0.10018	0.17391	0.16437	0.053161	0.12654	0.034733	0.27971	0.18449	0.070962	0.3375	0.24516	-0.8625	-0.20417	-1.5833	-0.83958	-0.73125	-1.5042	-0.44792	-1.4	-1.1875	-0.25833	-1.6375	-0.78333	-0.73958	-1.8104	-0.51458	-1.2729	-12.662	114.285	-53.838	152.503	130.494	114.568	218.873	244.646	203.644	195.623	72.567	233.418	-65.103	259.290	248.729	229.233	0.00043734	0.00062249	0.00015354	796.47	7.0865e-06	5.7088e-06	1004.9	299.15	3.2682e-06	6.5434e-06	473.45	194.44	114.7	45.619	7.1948e-06	86.818	0.0002016	0.0001888	5.1781e-05	704.08	2.1059e-06	2.041e-06	887.33	262.81	2.0935e-06	2.0624e-06	406.28	167.57	99.501	39.472	2.1034e-06	73.626	130.176	8.964	-0.923	-70.194	10.205	65.492	-70.043	-64.763	-15.284	69.250	-66.557	-62.668	-60.415	-55.726	45.151	-58.085	-8191	255	
3500.244	1	1	0	0	0.3968	0.27065	0.30704	0.088933	0.035476	0.094466	0.29235	0.20461	0.094342	0.1735	0.07599	0.22802	0.20334	0.19571	0.46848	0.14205	-0.63125	-0.37708	-1.3396	-0.77292	-0.66042	-1.4562	-0.64375	-1.1146	-1.2188	-0.43542	-1.5083	-1.0708	-0.725	-1.6208	-0.68333	-0.99792	-52.095	260.526	56.934	34.338	-75.027	52.181	162.965	181.435	105.351	210.519	218.161	259.477	-74.473	8.922	48.730	89.589	0.0004797	0.00092361	0.00010486	801.06	1.4004e-06	3.658e-06	1013.1	300.38	5.0981e-06	7.5544e-06	471.07	194.17	113.72	45.328	7.5973e-06	86.421	0.00019942	0.00019115	5.188e-05	708.27	2.1285e-06	2.0481e-06	892.46	264.22	2.108e-06	2.0937e-06	405.83	167.18	99.097	39.139	2.1817e-06	73.437	128.872	-40.484	-73.256	-69.713	113.542	105.259	-70.504	-65.335	-4.750	26.620	-66.398	-62.254	-60.481	-56.010	-20.793	-58.181	-8191	255	
3500.341	1	1	0	0	0.15349	0.28638	0.1048	0.11037	0.24908	0.2063	0.12933	0.17585	0.11405	0.024488	0.17025	0.22242	0.23448	0.20883	0.25595	0.17947	-0.93542	-0.39375	-1.2625	-0.96458	-0.40208	-1.4292	-0.77917	-1.0125	-1.1667	-0.44792	-1.4521	-1.1229	-0.3125	-1.5875	-0.44167	-1.0458	0.278	-3.527	201.845	216.018	-70.214	-3.148	221.596	-3.367	60.380	237.635	230.819	231.789	273.234	209.735	-1.914	-39.077	0.00053426	0.00033876	3.5176e-05	810.66	1.6446e-06	7.3997e-06	1012.7	295.66	8.64e-06	3.4574e-06	456.94	186.6	109.45	43.487	3.0871e-06	83.821	0.00021431	0.00020552	5.8533e-05	716.92	2.3223e-06	2.3044e-06	892.45	260.58	2.3485e-06	2.337e-06	396.99	161.64	95.907	37.918	2.4207e-06	71.595	118.618	-35.314	-4.058	-70.223	23.437	180.291	-70.763	-65.203	32.719	93.719	-66.788	-63.181	-60.966	-56.493	-23.817	-58.058	-8191	255	
3500.437	1	1	0	0	0.099661	0.13307	0.19929	0.28279	0.12945	0.19365	0.28902	0.19442	0.2501	0.24037	0.20002	0.10276	0.22427	0.14022	0.052507	0.2421	-1.0333	-0.21667	-1.3604	-1.1417	-0.35	-1.4271	-0.66042	-0.91667	-1.3729	-0.32708	-1.2812	-1.2021	-0.41042	-1.3438	-0.51875	-0.95625	212.924	158.427	218.371	220.299	-23.184	34.771	156.862	196.271	-6.369	227.281	174.371	250.217	227.586	229.757	203.781	236.711	0.0003232	0.00076475	6.0218e-05	809.87	2.6867e-06	6.7051e-06	1009.7	290.03	1.711e-06	1.8797e-06	446.95	179.44	104.62	41.511	6.0578e-06	80.377	0.0002379	0.00022893	6.603e-05	720.42	2.6728e-06	2.6782e-06	897.37	256.77	2.8551e-06	2.8666e-06	389.89	157.14	93.03	36.6	3.1322e-06	69.487	117.156	56.800	204.319	-70.324	-76.501	62.734	-70.561	-65.279	37.837	247.283	-66.901	-63.083	-61.225	-56.226	30.482	-57.916	-8191	255	
3500.533	1	1	0	0	0.346	0.27188	0.27344	0.44746	0.18934	0.17379	0.40751	0.097133	0.14171	0.049151	0.40351	0.059674	0.14889	0.20667	0.18544	0.23096	-1.2375	-0.2875	-1.2	-1.1875	-0.16458	-1.8229	-0.7875	-0.81875	-1.5542	-0.3125	-1.3854	-1.3937	-0.25	-1.6271	-0.77708	-0.975	131.205	39.346	200.429	153.221	78.277	-73.131	230.171	274.486	90.913	235.974	239.895	77.863	-71.758	219.543	75.795	254.328	6.2476e-05	0.00070958	0.00013871	828.83	5.0539e-06	4.2806e-06	1023.2	281.52	4.7271e-06	2.9684e-06	433.68	173.87	101.39	39.794	5.1329e-06	77.03	0.00029707	0.00030248	8.5183e-05	743.12	3.4886e-06	3.4671e-06	913.64	252.4	3.6172e-06	3.7216e-06	383.64	152.93	91.35	35.563	4.0237e-06	67.309	155.534	-46.229	-26.880	-70.483	-50.426	53.538	-70.777	-65.292	-36.299	187.741	-66.241	-62.625	-61.208	-56.026	47.853	-57.697	-8191	255	
3500.629	1	1	0	0	0.077247	0.23234	0.15791	0.20045	0.031342	0.078952	0.25888	0.19322	0.025941	0.14688	0.39323	0.24585	0.14579	0.3994	0.087922	0.37931	-1.2563	-0.40208	-0.9875	-1.3833	-0.17083	-1.3062	-0.97083	-0.7625	-1.2354	-0.69375	-1.2062	-1.3167	-0.6125	-1.3292	-0.75417	-0.74583	-6.928	49.403	-56.702	219.491	196.442	25.418	254.859	169.264	67.866	79.511	252.173	202.810	270.171	158.981	-55.602	252.870	0.00055888	8.1176e-05	5.5855e-05	839.21	2.8244e-06	8.7547e-06	1031.3	280.77	1.0477e-06	6.6203e-06	434.72	172.49	102.62	39.487	2.964e-06	76.927	0.00037914	0.0003749	0.0001075	768.14	4.2129e-06	4.2264e-06	932.53	253.83	4.1463e-06	4.1832e-06	385.96	152.84	92.205	35.389	4.0375e-06	66.987	95.070	131.480	0.906	-70.024	-6.999	50.351	-70.145	-65.132	-1.971	87.164	-66.177	-62.110	-60.700	-55.604	168.633	-57.477	-8191	255	
3500.725	1	1	0	0	0.14794	0.14617	0.067792	0.071999	0.12468	0.25418	0.30085	0.2814	0.25011	0.17657	0.21823	0.14741	0.24133	0.057927	0.32445	0.054374	-1.025	-0.38542	-1.0146	-1.3813	-0.25833	-1.2	-0.81042	-0.775	-1.275	-0.57708	-1.0667	-1.0958	-0.34792	-1.2354	-1.0208	-0.54375	174.010	91.610	-66.690	245.357	140.910	-19.630	234.297	230.483	-42.893	-32.192	227.362	223.558	-67.650	268.532	145.831	182.078	0.00053422	0.00035164	0.00037207	833.2	7.8742e-06	5.2011e-06	1021.8	277.95	5.8741e-06	4.6905e-06	430.37	171.55	100.82	38.931	5.3932e-06	75.303	0.00037433	0.00036942	0.00010235	756.14	3.9213e-06	3.8851e-06	914.02	249.97	3.6952e-06	3.6707e-06	378.54	149.92	89.775	34.418	3.4396e-06	65.387	126.383	245.136	3.564	-69.735	88.791	-10.918	-70.101	-64.322	46.797	90.673	-65.897	-62.087	-60.677	-55.381	166.054	-57.345	-8191	255	
3500.821	1	1	0	0	0.154	0.14652	0.094951	0.26207	0.27379	0.25829	0.16516	0.13512	0.098126	0.20573	0.10857	0.29308	0.1144	0.31135	0.33255	0.069442	-0.97917	-0.41042	-0.8875	-1.4646	-0.33333	-1.4167	-1.1667	-0.34583	-1.3958	-0.50417	-0.99792	-1.4229	-0.41667	-1.2729	-1.0042	-0.63958	270.316	106.749	142.498	247.498	271.865	-51.424	267.627	155.245	128.492	107.310	108.517	263.294	166.975	-75.605	-40.857	109.237	0.00043842	0.00063842	0.00026827	814.33	4.4329e-06	2.6976e-06	993.52	275.65	1.9918e-06	2.2918e-06	425.68	169.26	99.98	38.84	7.0314e-06	75.652	0.00031593	0.00031142	8.5473e-05	730.93	3.2875e-06	3.292e-06	890.56	246.05	3.1638e-06	3.1894e-06	373.25	148.13	88.551	34.236	3.0333e-06	65.27	96.592	-16.258	12.864	-69.583	64.806	35.592	-69.701	-64.828	-29.895	-75.013	-65.909	-62.161	-60.920	-55.491	71.341	-58.105	-8191	255	
3500.917	1	1	0	0	0.21674	0.26155	0.10117	0.363	0.29948	0.12034	0.33829	0.23661	0.22206	0.17022	0.4987	0.14828	0.066537	0.25253	0.13714	0.46968	-1.0771	-0.46458	-0.81667	-1.4813	-0.3	-1.1833	-1.1792	-0.59792	-1.5417	-0.82708	-0.82917	-1.4333	-0.37083	-1.175	-1.1063	-0.50417	104.791	198.313	180.369	213.845	64.331	-27.243	164.209	219.151	-27.133	188.064	243.914	226.241	262.513	-56.471	222.410	228.581	0.00059014	0.00037774	0.00014065	802.96	8.1119e-06	6.8888e-06	985.1	276.21	4.0961e-06	6.3534e-06	431.15	169.66	99.284	38.647	7.2559e-06	75.706	0.00028447	0.00027741	7.6547e-05	718.26	3.0071e-06	3.0014e-06	880.59	245.48	2.946e-06	2.9552e-06	373.79	148.14	88.359	34.191	2.8544e-06	65.394	105.128	-1.169	258.228	-69.976	7.247	59.124	-70.685	-65.061	62.213	138.084	-66.241	-62.441	-60.880	-55.764	130.728	-58.203	-8191	255	
3501.036	1	1	0	0	0.17535	0.16909	0.10015	0.36535	0.36288	0.13434	0.21467	0.27495	0.36969	0.086243	0.26578	0.24621	0.27164	0.2294	0.083136	0.063713	-1.1917	-0.72708	-0.70833	-1.7333	-0.47708	-1.35	-1.4083	-0.3875	-1.7062	-0.99792	-0.7625	-1.9062	-0.61875	-1.3021	-1.1646	-0.22708	108.901	-25.713	-33.372	218.226	238.215	-64.708	227.583	157.088	124.849	263.850	229.843	63.067	265.524	186.252	185.154	209.744	0.00035931	0.0010596	6.2339e-05	802.96	8.1206e-06	5.4812e-06	993.33	278.01	6.4175e-06	6.1843e-06	429.51	170.03	99.515	38.643	4.3727e-06	75.467	0.00027189	0.00026351	7.1997e-05	715.45	2.8838e-06	2.8267e-06	884.47	246.15	2.8683e-06	2.807e-06	374.77	148.21	88.503	33.99	2.8745e-06	64.941	117.811	-34.300	245.161	-69.981	106.672	-32.191	-69.864	-64.822	79.645	116.463	-66.170	-62.312	-60.364	-55.821	82.675	-58.082	-8191	255	
3501.132	1	1	0	0	0.040407	0.040192	0.17704	0.17212	0.27614	0.16362	0.29931	0.17685	0.053835	0.23124	0.29236	0.056897	0.21512	0.13661	0.2674	0.26741	-0.98125	-0.7	-0.48542	-1.4979	-0.072917	-1.1063	-1.4229	-0.29792	-1.5688	-0.80417	-0.68333	-1.6562	-0.47292	-1.0979	-1.3917	-0.50833	23.401	211.657	27.951	271.102	44.189	181.704	216.405	249.985	35.239	135.494	203.376	215.930	-17.709	155.457	91.466	150.951	0.0002143	0.00075143	7.2675e-05	806.23	5.1209e-06	2.3074e-06	996.38	276.45	7.8984e-06	7.05e-06	429.81	167.82	99.623	38	2.5777e-06	73.908	0.0002699	0.00026138	7.1957e-05	721.16	2.8564e-06	2.8161e-06	883.79	245.61	2.838e-06	2.7764e-06	371.94	146.48	88.01	33.607	2.8232e-06	63.613	131.986	-26.881	-1.219	-70.168	44.525	68.226	-70.365	-64.912	32.743	35.051	-66.081	-62.400	-60.960	-54.991	68.419	-57.878	-8191	255	
3501.229	1	1	0	0	0.34282	0.47365	0.28211	0.16463	0.1034	0.20646	0.14446	0.088297	0.11225	0.30466	0.1497	0.1326	0.29465	0.16019	0.16128	0.24705	-1.1604	-0.9625	-0.83333	-1.5229	-0.3875	-1.0896	-1.4813	-0.51458	-1.2479	-0.88125	-0.4125	-1.8438	-0.33125	-0.94792	-1.2896	-0.50208	31.303	98.059	-56.582	188.451	155.190	80.316	149.328	276.850	194.911	203.027	196.789	204.564	131.145	270.669	-61.065	213.700	0.00023857	0.00052875	9.7025e-05	817.01	3.1419e-06	6.7195e-06	997.06	275.61	4.3701e-06	5.777e-06	426.96	166.42	99.494	38.043	2.468e-06	73.025	0.00027384	0.00026747	7.3385e-05	727.08	2.9462e-06	2.8898e-06	886.42	245.45	2.9324e-06	2.9157e-06	371.75	145.74	88.105	33.434	2.8785e-06	63.078	189.154	-9.619	12.762	-70.282	17.139	49.084	-70.409	-64.875	32.535	65.403	-66.321	-62.267	-60.913	-55.103	-80.152	-57.673	-8191	255	
3501.325	1	1	0	0	0.087921	0.1813	0.19593	0.19335	0.20006	0.082377	0.19933	0.37749	0.071667	0.17142	0.14912	0.14803	0.20587	0.036987	0.31266	0.082828	-1.2375	-0.8	-0.42917	-1.7604	-0.68333	-0.79167	-1.575	-0.61458	-1.2375	-1.0292	-0.74583	-1.6708	-0.5875	-0.91667	-1.5271	-0.55833	-3.301	179.823	172.802	246.985	121.175	225.615	170.381	214.024	63.124	139.482	151.474	129.977	225.735	111.413	96.003	-4.601	0.0004333	0.00068902	5.8055e-05	811.41	3.8949e-06	7.0856e-06	993.67	276.57	4.964e-06	3.3169e-06	429.47	169.16	99.392	38.277	9.3863e-06	73.958	0.00026763	0.00025788	7.3084e-05	724.01	2.8483e-06	2.7884e-06	884.73	245.95	2.7917e-06	2.7259e-06	372.4	147.08	88.318	33.625	2.7878e-06	63.669	107.028	-80.216	25.600	-69.913	139.757	123.561	-69.870	-64.578	94.049	-76.143	-66.348	-62.248	-60.577	-55.301	40.006	-57.339	-8191	255	
3501.421	1	1	0	0	0.16577	0.046258	0.047552	0.44653	0.23131	0.37337	0.12341	0.2104	0.075858	0.17937	0.27198	0.24469	0.22104	0.11521	0.072083	0.34919	-0.95625	-1.0542	-0.51458	-1.4833	-0.70833	-0.85208	-1.6063	-0.57917	-1.2979	-1.1625	-0.68542	-1.4875	-0.79583	-0.82292	-1.4688	-0.60833	-12.462	32.253	162.044	250.205	84.598	193.738	202.412	255.076	-71.937	11.378	-56.594	268.964	242.878	188.092	-31.365	271.067	0.00042299	0.00073057	9.1083e-05	813.07	1.4274e-06	4.3881e-06	999.53	279	7.4736e-06	3.0977e-06	429.14	169.86	99.477	38.265	5.4016e-06	73.454	0.00026237	0.00025315	7.1294e-05	723.66	2.8295e-06	2.8123e-06	886.43	247.79	2.8327e-06	2.8126e-06	375	147.95	88.659	33.935	2.7879e-06	63.726	97.053	-18.434	83.056	-70.142	38.309	110.839	-70.120	-65.079	118.843	123.343	-66.169	-61.429	-59.866	-55.395	38.586	-57.191	-8191	255	
3501.517	1	1	0	0	0.26156	0.30373	0.11368	0.14262	0.42885	0.25745	0.10508	0.17369	0.059932	0.14582	0.30787	0.14672	0.06867	0.19392	0.2813	0.038122	-0.79792	-1.0146	-0.52917	-1.4479	-0.59167	-0.65	-1.6917	-0.72917	-0.99792	-1.5792	-0.57708	-1.5479	-0.96042	-0.65208	-1.4646	-0.5375	82.620	266.078	261.743	-74.314	184.568	190.683	271.823	226.145	94.128	-8.344	248.181	237.705	244.427	234.917	110.033	227.077	0.00026011	0.00029054	0.00033194	807.6	7.2237e-06	6.6791e-06	993.03	275.46	5.3909e-06	8.377e-06	422.63	166.25	99.23	37.574	4.285e-06	71.948	0.00026435	0.00025636	7.254e-05	724.91	2.7798e-06	2.808e-06	887.19	246.83	2.8218e-06	2.8294e-06	370.52	145.71	88.007	33.299	2.8379e-06	62.173	131.650	-0.958	-12.362	-69.556	29.024	30.532	-70.021	-64.236	57.050	9.668	-65.780	-61.914	-60.493	-54.812	104.006	-57.588	-8191	255	
3501.638	1	1	0	0	0.13674	0.12268	0.14857	0.071761	0.36613	0.10645	0.12808	0.21733	0.15155	0.17913	0.14043	0.053172	0.26417	0.22256	0.12923	0.20559	-0.79583	-1.3958	-0.17708	-1.5688	-0.91042	-0.58333	-1.7208	-0.67917	-0.92292	-1.2042	-0.45625	-1.4604	-1.0417	-0.60417	-1.5417	-0.51042	-47.879	186.019	37.114	204.325	119.252	-69.801	164.563	230.905	-38.581	277.667	207.234	198.941	-12.187	255.657	-7.269	-64.873	0.00058979	0.00057665	0.00023657	808.58	5.8929e-06	4.7896e-06	981.03	273.94	8.9187e-07	5.3001e-06	417.34	166.66	98.672	37.975	4.4978e-06	72.556	0.00026336	0.00026007	7.443e-05	726.77	2.8712e-06	2.8907e-06	879.41	246.32	2.8303e-06	2.8874e-06	370.44	146.33	88.095	33.695	2.7984e-06	62.642	112.619	83.488	8.173	-69.250	132.672	-10.534	-69.778	-64.292	95.200	91.510	-66.081	-61.431	-60.317	-55.167	118.716	-57.319	-8191	255	
3501.732	1	1	0	0	0.10564	0.28136	0.082368	0.0814	0.17529	0.13759	0.14388	0.15214	0.076878	0.070705	0.145	0.14068	0.24678	0.11666	0.15684	0.20531	-0.76458	-1.2021	-0.46875	-1.3104	-0.86667	-0.71875	-1.6083	-0.70833	-0.8125	-1.3438	-0.54583	-1.2604	-1.2208	-0.64375	-1.4521	-0.65	80.700	193.078	191.350	266.482	71.388	-35.801	176.730	-31.539	9.571	-53.889	273.141	171.203	-3.299	266.703	131.363	210.971	0.00049707	0.00019676	0.00024209	798.02	2.0565e-06	9.94e-06	990.45	276.93	4.2892e-06	4.5433e-06	427.24	168.6	100.84	38.483	3.8123e-06	73.848	0.00025419	0.00025297	7.1468e-05	717.36	2.8136e-06	2.8276e-06	880.4	246.23	2.8714e-06	2.9027e-06	373.6	147.28	89.147	33.97	2.8868e-06	63.607	136.365	-3.888	276.312	-69.480	70.206	69.266	-70.012	-64.731	60.682	39.821	-66.532	-62.506	-60.985	-55.788	40.287	-58.080	-8191	255	
3501.828	1	1	0	0	0.16585	0.066814	0.14828	0.16968	0.24988	0.12489	0.22984	0.1619	0.059334	0.0015831	0.14237	0.44172	0.18018	0.27959	0.043526	0.22488	-0.43542	-1.2167	-0.52292	-1.2062	-0.8	-0.38333	-1.425	-0.70208	-0.825	-1.2896	-0.46667	-1.2437	-1.1167	-0.45208	-1.5	-0.64375	253.057	75.722	-82.415	20.458	176.295	-57.635	225.330	-58.961	263.840	180.000	228.223	206.373	241.564	239.192	97.186	-62.795	4.6455e-05	0.0011316	0.00015395	809.19	3.7534e-06	7.4656e-06	994.81	278.57	1.7536e-06	9.567e-06	430.43	168.02	100.98	38.495	2.1327e-06	73.873	0.00026506	0.0002658	7.193e-05	723.44	2.8172e-06	2.8262e-06	884.88	247.12	2.7807e-06	2.7845e-06	372.64	146.72	88.789	33.792	2.7125e-06	63.405	154.545	-70.647	8.609	-70.135	165.714	-18.688	-70.279	-65.033	-37.231	27.309	-66.574	-62.205	-60.707	-55.751	271.071	-57.714	-8191	255	
3501.926	1	1	0	0	0.066756	0.093702	0.089298	0.21508	0.23285	0.014666	0.11157	0.37249	0.070546	0.099491	0.35884	0.17007	0.07584	0.29422	0.14496	0.34862	-0.64375	-1.6167	-0.55625	-1.2146	-1.1167	-0.52917	-1.6833	-0.70208	-0.675	-1.5333	-0.47083	-1.4312	-1.3083	-0.31667	-1.4438	-1.1	219.278	101.503	223.070	16.318	95.292	157.233	205.629	219.951	222.208	143.337	234.301	-57.716	8.588	205.500	68.907	218.844	0.00029755	0.0010072	0.00034283	809.72	1.2649e-05	3.5307e-06	990.06	279.15	6.3404e-06	8.2082e-06	427.47	170.15	101.15	39.039	8.5731e-06	74.732	0.00024899	0.0002437	6.5171e-05	716.97	2.4826e-06	2.484e-06	877.12	245.93	2.3689e-06	2.3577e-06	369.75	146.72	88.724	34.055	2.2395e-06	63.785	126.577	-32.074	-29.023	-69.885	54.258	112.119	-70.387	-65.028	11.075	71.872	-66.116	-61.829	-60.532	-55.619	6.045	-58.017	-8191	255	
3502.021	1	1	0	0	0.20017	0.16406	0.11672	0.33234	0.10316	0.1374	0.081054	0.13849	0.10346	0.042817	0.41255	0.037065	0.25377	0.11633	0.18515	0.23255	-0.16667	-1.6812	-0.1625	-1.0812	-1.2979	-0.37083	-1.6083	-1.0917	-0.5625	-1.4208	-0.50208	-1.1146	-1.4062	-0.44583	-1.1125	-1.1417	233.499	187.696	261.919	216.288	64.872	174.083	195.344	226.883	-72.331	192.670	208.409	99.598	171.894	211.787	19.855	205.973	0.00029033	0.00026504	0.00018818	787.57	5.8411e-06	8.3601e-06	979.66	277.44	5.4361e-06	3.536e-06	429.92	172.32	101.71	39.431	5.4835e-06	75.86	0.00021214	0.00020281	5.581e-05	699.82	2.1786e-06	2.1675e-06	864.43	243.96	2.0814e-06	1.9868e-06	369.46	147.79	88.431	34.239	1.8339e-06	64.436	105.118	-38.356	150.924	-69.870	40.774	96.417	-70.524	-65.233	77.867	36.103	-66.525	-62.538	-60.849	-55.669	-72.909	-58.178	-8191	255	
#DATA ENDS
