BOXY.EXE: ISS Imagent and Oximeter Data Acquisition Program Version 0.80
Ascii Record File

#ACQ INFORMATION
2  Detector Channels 
16  External MUX Channels 
1  Auxiliary Channels 
5000  Waveform (CCF) Frequency (Hz)
1  Waveforms Skipped 
30  Waveforms Averaged 
1  Cycles Averaged 
16  Acquisitions per Waveform 
10.0806  Updata Rate (Hz) 

#FILE INFORMATION
TRUE -- External MUX Channel results are PARSED.
FALSE -- AC DC and Phase are NOT grouped.
TRUE -- Companion Program Settings File CREATED.
FALSE -- AC data not excluded
FALSE -- DC data not excluded
FALSE -- Phase data not excluded
FALSE -- Auxillary Chn. data not excluded
Tab delimiters

#CALIBRATION STATE
TRUE -- Waveform Calibration Values APPLIED.


#AUX CALIBRATION VALUES
Val Type	aux-1	

Term	1.0000e+00	
Factor	0.0000e+00	


#WF CALIBRATION VALUES
A = Detector Channel
Val Type	A-AC1	A-AC2	A-AC3	A-AC4	A-AC5	A-AC6	A-AC7	A-AC8	A-AC9	A-AC10	A-AC11	A-AC12	A-AC13	A-AC14	A-AC15	A-AC16	A-DC1	A-DC2	A-DC3	A-DC4	A-DC5	A-DC6	A-DC7	A-DC8	A-DC9	A-DC10	A-DC11	A-DC12	A-DC13	A-DC14	A-DC15	A-DC16	A-Ph1	A-Ph2	A-Ph3	A-Ph4	A-Ph5	A-Ph6	A-Ph7	A-Ph8	A-Ph9	A-Ph10	A-Ph11	A-Ph12	A-Ph13	A-Ph14	A-Ph15	A-Ph16	

Term	0.00000e+00	0.00000e+00	0.00000e+00	0.00000e+00	0.00000e+00	0.00000e+00	0.00000e+00	0.00000e+00	0.00000e+00	0.00000e+00	0.00000e+00	0.00000e+00	0.00000e+00	0.00000e+00	0.00000e+00	0.00000e+00	0.00000e+00	0.00000e+00	0.00000e+00	0.00000e+00	0.00000e+00	0.00000e+00	0.00000e+00	0.00000e+00	0.00000e+00	0.00000e+00	0.00000e+00	0.00000e+00	0.00000e+00	0.00000e+00	0.00000e+00	0.00000e+00	0.00000e+00	0.00000e+00	0.00000e+00	0.00000e+00	0.00000e+00	0.00000e+00	0.00000e+00	0.00000e+00	0.00000e+00	0.00000e+00	0.00000e+00	0.00000e+00	0.00000e+00	0.00000e+00	0.00000e+00	0.00000e+00	
Factor	1.00000e+00	1.00000e+00	1.00000e+00	1.00000e+00	1.00000e+00	1.00000e+00	1.00000e+00	1.00000e+00	1.00000e+00	1.00000e+00	1.00000e+00	1.00000e+00	1.00000e+00	1.00000e+00	1.00000e+00	1.00000e+00	1.00000e+00	1.00000e+00	1.00000e+00	1.00000e+00	1.00000e+00	1.00000e+00	1.00000e+00	1.00000e+00	1.00000e+00	1.00000e+00	1.00000e+00	1.00000e+00	1.00000e+00	1.00000e+00	1.00000e+00	1.00000e+00	X	X	X	X	X	X	X	X	X	X	X	X	X	X	X	X	

B = Detector Channel
Val Type	B-AC1	B-AC2	B-AC3	B-AC4	B-AC5	B-AC6	B-AC7	B-AC8	B-AC9	B-AC10	B-AC11	B-AC12	B-AC13	B-AC14	B-AC15	B-AC16	B-DC1	B-DC2	B-DC3	B-DC4	B-DC5	B-DC6	B-DC7	B-DC8	B-DC9	B-DC10	B-DC11	B-DC12	B-DC13	B-DC14	B-DC15	B-DC16	B-Ph1	B-Ph2	B-Ph3	B-Ph4	B-Ph5	B-Ph6	B-Ph7	B-Ph8	B-Ph9	B-Ph10	B-Ph11	B-Ph12	B-Ph13	B-Ph14	B-Ph15	B-Ph16	

Term	0.00000e+00	0.00000e+00	0.00000e+00	0.00000e+00	0.00000e+00	0.00000e+00	0.00000e+00	0.00000e+00	0.00000e+00	0.00000e+00	0.00000e+00	0.00000e+00	0.00000e+00	0.00000e+00	0.00000e+00	0.00000e+00	0.00000e+00	0.00000e+00	0.00000e+00	0.00000e+00	0.00000e+00	0.00000e+00	0.00000e+00	0.00000e+00	0.00000e+00	0.00000e+00	0.00000e+00	0.00000e+00	0.00000e+00	0.00000e+00	0.00000e+00	0.00000e+00	-2.96995e+01	-1.33769e+02	-1.26516e+02	-1.84058e+02	-3.99527e+01	-6.47538e+01	-1.56688e+02	-1.62015e+02	-4.30249e+01	-7.73077e+01	-1.71935e+02	-1.70049e+02	-1.80086e+02	-1.77848e+02	-5.58511e+01	-1.50534e+02	
Factor	2.88775e-05	1.68689e-04	4.92294e-05	1.52286e-01	1.73567e-06	1.67541e-06	1.71212e-01	6.27324e-02	1.47108e-06	2.05293e-06	9.73605e-02	3.15056e-02	2.51475e-02	1.01407e-02	1.80213e-06	1.43710e-02	4.62138e-06	5.26198e-06	1.46997e-06	7.92126e-02	5.64241e-08	5.80173e-08	8.33705e-02	3.25776e-02	5.66462e-08	5.81525e-08	4.88203e-02	1.58724e-02	1.31955e-02	5.30411e-03	5.73294e-08	7.26215e-03	X	X	X	X	X	X	X	X	X	X	X	X	X	X	X	X	



#DISTANCE SETTINGS
A = Detector Channel
A-1	A-2	A-3	A-4	A-5	A-6	A-7	A-8	A-9	A-10	A-11	A-12	A-13	A-14	A-15	A-16	

2.5000e+00	3.0000e+00	2.5000e+00	3.0000e+00	2.0000e+00	3.0000e+00	1.5000e+00	3.0000e+00	3.0000e+00	3.0000e+00	3.0000e+00	3.0000e+00	3.0000e+00	3.0000e+00	1.5000e+00	3.0000e+00	

B = Detector Channel
B-1	B-2	B-3	B-4	B-5	B-6	B-7	B-8	B-9	B-10	B-11	B-12	B-13	B-14	B-15	B-16	

1.0000e+01	1.0000e+01	1.0000e+01	1.4400e+00	1.0000e+01	1.0000e+01	1.5100e+00	1.9400e+00	1.0000e+01	1.0000e+01	1.9900e+00	2.4900e+00	2.4100e+00	2.9000e+00	1.0000e+01	2.9800e+00	




#DATA BEGINS
time	group	step	mark	flag	A-AC1	A-AC2	A-AC3	A-AC4	A-AC5	A-AC6	A-AC7	A-AC8	A-AC9	A-AC10	A-AC11	A-AC12	A-AC13	A-AC14	A-AC15	A-AC16	A-DC1	A-DC2	A-DC3	A-DC4	A-DC5	A-DC6	A-DC7	A-DC8	A-DC9	A-DC10	A-DC11	A-DC12	A-DC13	A-DC14	A-DC15	A-DC16	A-Ph1	A-Ph2	A-Ph3	A-Ph4	A-Ph5	A-Ph6	A-Ph7	A-Ph8	A-Ph9	A-Ph10	A-Ph11	A-Ph12	A-Ph13	A-Ph14	A-Ph15	A-Ph16	B-AC1	B-AC2	B-AC3	B-AC4	B-AC5	B-AC6	B-AC7	B-AC8	B-AC9	B-AC10	B-AC11	B-AC12	B-AC13	B-AC14	B-AC15	B-AC16	B-DC1	B-DC2	B-DC3	B-DC4	B-DC5	B-DC6	B-DC7	B-DC8	B-DC9	B-DC10	B-DC11	B-DC12	B-DC13	B-DC14	B-DC15	B-DC16	B-Ph1	B-Ph2	B-Ph3	B-Ph4	B-Ph5	B-Ph6	B-Ph7	B-Ph8	B-Ph9	B-Ph10	B-Ph11	B-Ph12	B-Ph13	B-Ph14	B-Ph15	B-Ph16	aux-1	digaux	

1806.967	1	1	0	256	0.17172	0.26585	0.16551	0.34886	0.047892	0.10585	0.27028	0.13996	0.13796	0.13388	0.23994	0.20642	0.1793	0.05016	0.22715	0.44343	0.016667	0.45	0.26458	-0.41042	0.525	-0.2375	-0.22917	0.37292	-0.33542	0.16875	0.21875	-0.34583	0.43333	-0.23125	-0.225	0.2875	28.416	212.699	123.399	196.401	-5.944	106.568	150.554	-96.729	-70.088	-17.182	221.925	240.306	-73.023	246.358	-69.901	184.976	0.0003397	0.00096747	0.0002599	1065.7	6.1321e-06	6.5409e-06	1003	410.32	9.942e-06	1.3658e-05	417.16	173.77	166.77	81.784	5.2752e-06	87.078	0.0012657	0.0013516	0.00038204	993.33	1.4662e-05	1.5355e-05	932.26	383.14	1.5156e-05	1.5644e-05	393.06	162.85	156.54	77.191	1.5524e-05	81.66	-56.517	-63.839	20.797	-92.767	56.986	52.910	-94.179	-86.786	53.096	76.136	-89.136	-85.008	-81.696	-77.328	236.986	-81.680	-8191	255	
1807.063	1	1	0	0	0.15522	0.12516	0.22132	0.4029	0.12311	0.33637	0.13569	0.35143	0.041769	0.068671	0.097453	0.10718	0.25487	0.27096	0.26537	0.086571	0.16875	0.38125	0.28125	-0.3875	0.41875	-0.14583	-0.15208	0.60417	-0.09375	0.3875	0.24792	-0.47292	0.21042	-0.052083	-0.15	0.26042	171.878	152.933	131.820	232.830	161.609	40.824	180.023	216.026	-78.760	148.163	-70.536	231.297	246.973	-84.422	220.160	-103.904	0.00042758	0.0010747	0.00051602	1056.5	9.6157e-06	3.0454e-06	981.39	404.42	1.1432e-05	8.4474e-06	408.75	168.26	163.75	80.574	1.132e-05	84.352	0.0013097	0.0014295	0.00039821	982.14	1.5447e-05	1.601e-05	918.03	379	1.6364e-05	1.6974e-05	385.21	159.56	154.51	75.864	1.7712e-05	79.77	-73.655	-32.042	-49.250	-92.633	27.546	-27.746	-93.668	-86.823	109.947	9.126	-89.271	-84.910	-81.961	-77.371	73.959	-81.584	-8191	255	
1807.159	1	1	0	0	0.21293	0.13154	0.10139	0.068335	0.37755	0.072385	0.39247	0.07646	0.056915	0.12967	0.10821	0.17316	0.30248	0.26957	0.18589	0.099619	0.1625	0.17708	0.62708	-0.375	0.40833	0.04375	-0.41458	0.36667	-0.13542	0.17708	0.34375	-0.45625	0.14583	0.15625	-0.28542	0.22083	164.618	-81.630	82.886	-46.912	106.348	169.680	216.844	38.056	-100.901	86.457	115.609	249.337	250.890	-92.568	-16.818	143.802	0.00051843	0.00020513	0.00028353	1036.3	1.5784e-05	4.6916e-06	957.75	397.49	1.0087e-05	1.2992e-05	401.08	167.64	162.17	80.259	4.6833e-06	84.025	0.0015288	0.0016762	0.00045967	968.11	1.8281e-05	1.9005e-05	898.62	374.34	1.9526e-05	2.0156e-05	381.06	159.13	154.28	75.797	2.2259e-05	79.763	-50.843	254.960	-57.378	-92.367	44.209	36.325	-93.782	-86.231	-55.687	63.054	-88.810	-84.822	-81.723	-77.281	6.975	-81.221	-8191	255	
1807.256	1	1	0	0	0.14771	0.17978	0.24289	0.32411	0.12265	0.10566	0.26076	0.28999	0.091123	0.17672	0.3079	0.16123	0.13889	0.020117	0.27834	0.2769	0.225	0.0020833	0.59375	-0.41667	0.24792	0.2375	-0.325	0.25625	-0.06875	-0.17708	0.6	-0.09375	0.12917	0.24375	-0.29792	0.30833	-88.489	193.812	71.488	239.795	9.766	-77.424	-97.732	59.478	162.374	166.940	-101.508	-10.815	43.801	49.917	-39.303	205.527	0.00033242	0.00063522	0.00023474	1003.2	6.834e-06	9.9614e-06	915.97	385.22	5.6689e-06	8.0387e-06	388.06	163.36	157.6	78.893	6.1248e-06	82.322	0.0019324	0.0021219	0.00058267	945.96	2.265e-05	2.3241e-05	866.03	365.6	2.3455e-05	2.4418e-05	371.94	156.51	151.51	75.005	2.4711e-05	78.662	-57.720	-96.605	24.659	-91.993	120.607	74.345	-93.399	-86.312	71.436	46.572	-88.373	-84.169	-80.921	-77.087	20.273	-81.097	-8191	255	
1807.352	1	1	0	0	0.049864	0.20916	0.32922	0.069362	0.32123	0.19987	0.10287	0.38225	0.086823	0.11037	0.20894	0.19361	0.30884	0.14248	0.36719	0.27354	0.3125	-0.06875	0.55	-0.54375	0.091667	0.29375	-0.40833	0.27708	0.2	-0.21042	0.56875	-0.50625	0.10417	0.32292	-0.26458	0.33125	6.990	9.246	131.339	211.483	61.582	169.810	72.061	166.942	195.034	130.759	27.344	-69.134	238.032	-103.309	60.978	-84.429	0.00045366	0.000563	0.00034768	974.1	1.4211e-05	7.1284e-06	870.72	373.96	8.0814e-06	1.408e-05	375.86	159.3	156.11	77.636	1.0486e-05	80.82	0.002108	0.0023104	0.00063844	921.79	2.528e-05	2.5905e-05	830.63	357.04	2.5792e-05	2.6108e-05	362.89	153.08	149.12	73.866	2.5407e-05	77.129	-68.055	-19.469	-49.517	-92.767	56.819	21.840	-93.924	-86.732	-10.709	2.226	-89.350	-84.669	-81.386	-77.391	75.408	-81.829	-8191	255	
1807.471	1	1	0	0	0.06939	0.095702	0.14848	0.14956	0.32619	0.2024	0.096848	0.14917	0.23751	0.31031	0.08284	0.033088	0.31778	0.22649	0.028441	0.27408	0.62917	-0.13542	0.54375	-0.23958	0.14375	0.47917	-0.45833	0.33958	0.33542	-0.27917	0.26667	-0.19167	-0.23333	0.47292	-0.49375	0.29583	124.287	139.069	-63.289	-101.616	208.500	131.969	117.317	221.278	-66.424	67.736	64.345	154.596	-98.916	243.175	134.278	231.529	0.00035825	0.0012592	0.00023067	954.89	1.6223e-05	1.3873e-05	851.52	369.79	1.0969e-05	3.4885e-06	366.84	156.55	154.67	77.167	9.9091e-06	79.608	0.0021129	0.0023037	0.00063907	905.33	2.4533e-05	2.4778e-05	808.32	352.1	2.4435e-05	2.4839e-05	354.25	149.98	147.19	73.414	2.4103e-05	75.963	-58.980	0.866	6.558	-92.598	35.546	13.201	-93.551	-86.703	91.876	112.029	-89.253	-84.877	-81.871	-77.656	-28.915	-82.382	-8191	255	
1807.567	1	1	0	0	0.20873	0.072202	0.21061	0.39331	0.16247	0.26397	0.22029	0.20141	0.30662	0.32133	0.087341	0.30588	0.36683	0.19747	0.27052	0.052123	0.60208	-0.22292	0.48125	-0.225	-0.27708	0.53958	-0.29167	0.075	0.34375	-0.27083	0.2625	-0.13333	-0.35625	0.37708	-0.20625	-0.033333	-7.809	-36.151	-1.278	203.160	215.066	19.574	-88.592	249.033	230.239	118.669	141.085	235.339	166.502	-98.378	195.276	-69.161	0.00042842	0.00019627	0.00033848	952.29	3.6758e-06	6.4553e-06	836.89	370.08	5.8943e-06	8.2341e-06	365.25	155.93	153.55	77.756	6.1431e-06	79.866	0.0019718	0.0021687	0.00059596	899.02	2.2778e-05	2.2945e-05	796.97	350.87	2.2674e-05	2.3159e-05	353.36	148.96	146.51	73.856	2.3197e-05	76.234	-54.482	-73.130	-59.613	-92.744	89.611	-31.951	-93.852	-86.862	-78.117	64.159	-89.245	-84.963	-82.009	-77.759	58.634	-81.729	-8191	255	
1807.663	1	1	0	0	0.1631	0.19578	0.064469	0.020344	0.27604	0.24771	0.22615	0.1349	0.074624	0.13673	0.17973	0.26241	0.12449	0.38557	0.11263	0.22371	0.66667	-0.48333	0.43958	-0.085417	-0.20417	0.36042	-0.22917	0.054167	0.49375	-0.46458	0.45208	0.21875	-0.2625	0.38125	-0.20208	-0.15833	86.081	84.114	75.441	237.539	120.671	106.345	18.026	228.431	-74.714	194.387	163.514	244.402	189.651	218.132	247.750	226.889	0.00041524	0.0010451	0.00025943	945.58	6.1685e-06	4.6744e-06	826.69	369.59	7.4736e-06	5.5566e-06	363.51	156.82	154.29	77.667	5.166e-06	80.419	0.0019439	0.0021443	0.00060006	894.1	2.304e-05	2.3322e-05	790.82	350.69	2.2433e-05	2.332e-05	351.49	149.26	146.89	73.808	2.2915e-05	76.589	-60.861	-39.375	-62.329	-92.325	111.156	158.305	-93.745	-86.372	87.044	38.049	-89.160	-84.512	-81.565	-77.358	106.628	-81.606	-8191	255	
1807.759	1	1	0	0	0.24541	0.18777	0.0535	0.34349	0.10295	0.19022	0.23401	0.1522	0.1863	0.21843	0.42697	0.25922	0.096012	0.1741	0.02321	0.21461	1.0396	-0.32083	0.55208	0.25833	-0.15833	0.47917	-0.225	-0.13958	0.49583	-0.38125	0.022917	0.18542	-0.56875	0.20625	0.014583	-0.2	197.932	245.457	143.428	238.591	150.569	26.031	169.253	149.012	148.499	75.750	246.774	126.259	230.565	221.001	7.410	248.980	0.00057114	0.0016895	0.00023936	945.86	7.1431e-06	7.1376e-06	827.99	366.44	2.4637e-06	1.3165e-05	359.93	154.62	152.91	77.456	1.021e-05	79.648	0.0019135	0.0021215	0.00059739	892.24	2.238e-05	2.3249e-05	785.87	347.47	2.2052e-05	2.2361e-05	346.31	147.24	145.34	73.533	2.123e-05	75.519	-42.603	29.252	28.793	-91.969	-72.699	-39.491	-93.437	-86.041	3.051	78.312	-89.002	-84.309	-81.605	-77.115	121.330	-81.397	-8191	255	
1807.855	1	1	0	0	0.18143	0.26113	0.23528	0.41159	0.12907	0.097709	0.21569	0.34136	0.16342	0.14242	0.084676	0.20448	0.13429	0.26409	0.080023	0.31517	0.93125	-0.18958	0.18958	0.24583	-0.29167	0.66458	-0.13958	-0.20417	0.71042	-0.425	0.16458	0.4125	-0.5	0.3875	0.10625	-0.24583	236.665	-4.190	-97.168	191.632	63.802	-52.951	153.105	239.667	204.880	109.521	14.897	115.331	-65.808	194.554	246.765	167.019	0.00050286	0.0016142	0.00048143	939.57	3.4663e-06	1.0687e-05	818.38	364.86	7.858e-06	3.4792e-06	354.35	153.25	152.39	77.82	2.1131e-06	79.581	0.0017478	0.0019103	0.00052315	885.9	1.9993e-05	2.0341e-05	771.83	343.38	1.8918e-05	1.9616e-05	338.54	145.1	144.32	73.685	1.9089e-05	75.106	-69.506	-34.077	-17.732	-91.748	37.524	86.827	-93.040	-86.128	162.969	154.447	-88.870	-84.718	-81.158	-76.979	0.211	-81.726	-8191	255	
1807.951	1	1	0	0	0.11334	0.10903	0.028374	0.30655	0.13529	0.17345	0.13228	0.1979	0.13739	0.23965	0.20345	0.31333	0.11072	0.25621	0.11353	0.22536	0.91458	-0.275	0.40833	0.32083	-0.26875	0.39167	0.125	-0.18958	0.57917	-0.033333	0.0083333	0.37083	-0.29792	0.10625	0.31042	-0.28542	-75.436	40.626	197.423	-89.939	142.131	8.714	-93.375	43.014	-50.768	127.990	230.811	-75.574	196.752	192.315	126.181	140.218	0.00054549	0.00094547	0.0003564	941.56	7.9737e-06	9.8273e-06	818.33	363.22	3.3628e-06	8.6183e-06	357.48	154.08	152.66	79.043	1.4061e-05	80.672	0.0015705	0.0017133	0.00046681	885.67	1.7698e-05	1.8121e-05	769.15	343.27	1.7292e-05	1.7432e-05	340.44	145.67	144.32	74.586	1.6874e-05	76.185	-69.910	-28.897	19.499	-92.345	226.991	34.983	-93.345	-86.483	35.361	62.196	-89.459	-84.286	-81.247	-77.157	77.215	-81.769	-8191	255	
1808.072	1	1	0	0	0.22111	0.14169	0.085053	0.24979	0.26217	0.1767	0.21693	0.086372	0.15312	0.034454	0.19376	0.13072	0.13182	0.081686	0.13132	0.26691	0.79583	0.010417	-0.10833	0.42292	-0.1625	0.2125	0.10833	-0.44583	0.42083	0.21458	0.058333	0.43958	-0.34792	0.28542	0.42083	-0.35	-64.185	246.816	244.239	192.943	-37.634	-34.625	165.838	170.261	-51.847	-62.158	220.412	-96.710	-98.802	32.009	210.702	125.741	0.00049162	0.0010905	0.00020049	952.88	6.6158e-06	5.41e-06	822.21	371.54	6.8858e-06	1.5027e-05	361.94	154.88	154.73	80.588	1.1302e-05	82.618	0.0014436	0.001509	0.00041882	889.43	1.5884e-05	1.6263e-05	768.62	346.79	1.54e-05	1.5684e-05	342.13	146.26	145.94	75.731	1.5319e-05	77.291	-63.314	28.709	9.354	-92.834	60.418	-49.447	-93.598	-86.351	46.980	51.951	-89.360	-84.886	-82.083	-77.604	20.519	-82.085	-8191	255	
1808.166	1	1	0	0	0.17406	0.036101	0.34007	0.27759	0.28478	0.055573	0.17859	0.40211	0.087399	0.3669	0.17347	0.21508	0.34232	0.22727	0.058721	0.2333	0.72917	0.13542	-0.075	0.43958	-0.24792	0.26667	0.47083	-0.41875	0.39792	0.12708	-0.31458	0.53125	-0.42708	0.05625	0.39792	-0.37708	204.793	112.328	68.859	-59.627	143.318	127.184	-82.066	194.543	248.182	149.323	-96.359	208.440	-94.128	-27.683	223.653	153.483	0.00045587	0.0011479	0.00025019	973.04	1.4749e-06	6.1536e-06	826.7	375.33	3.6138e-06	1.636e-05	361.72	153.87	153.34	79.96	1.1514e-05	81.819	0.0013079	0.0013778	0.00038223	908.42	1.4675e-05	1.4741e-05	772.92	351.6	1.4545e-05	1.4741e-05	341.94	144.17	144.3	75.332	1.4689e-05	76.527	-43.594	11.636	13.333	-92.985	111.125	82.473	-94.130	-87.016	47.921	15.082	-89.464	-84.872	-81.956	-78.102	84.829	-81.775	-8191	255	
1808.263	1	1	0	0	0.32311	0.28566	0.094424	0.41853	0.087517	0.21458	0.35238	0.16888	0.24238	0.21164	0.17732	0.10636	0.13018	0.18807	0.30552	0.20078	0.8	0.36458	-0.27708	0.57083	-0.17292	-0.025	0.3375	-0.30208	0.24583	0.27292	-0.30208	0.39375	-0.075	-0.32917	0.56667	-0.48125	201.076	-56.221	-49.404	-94.598	-91.530	228.886	115.527	184.393	187.102	126.317	249.422	205.569	203.387	224.013	189.994	174.518	0.00048252	0.0011283	0.00015875	993.3	7.4405e-06	2.0122e-06	820.66	376.16	1.2557e-05	1.4267e-05	358.9	151.32	152.86	79.774	2.6429e-06	81.306	0.0012754	0.0013524	0.00037598	925.23	1.4723e-05	1.4688e-05	767.63	352.21	1.4948e-05	1.5326e-05	338.23	142.81	144	74.884	1.5135e-05	76.273	-57.013	-32.636	38.625	-93.069	218.729	86.652	-94.152	-87.379	47.095	65.744	-89.747	-85.291	-82.428	-78.133	64.573	-82.021	-8191	255	
1808.336	1	1	0	0	0.16838	0.19645	0.069924	0.26963	0.089325	0.24515	0.21393	0.28164	0.20925	0.096187	0.21255	0.099689	0.27125	0.21845	0.12064	0.13287	0.72917	0.40625	-0.22083	0.34583	0.064583	-0.25833	0.41667	-0.28542	0.15208	0.27292	-0.19583	0.42708	0.072917	-0.40625	0.44375	-0.29583	230.683	86.080	83.876	205.700	41.795	29.028	198.066	-12.311	93.545	-19.196	218.905	-21.981	207.029	210.816	136.663	238.377	0.00049003	0.0006164	0.00033889	988.37	9.3387e-06	5.8862e-06	823.85	376.01	5.2367e-06	5.9189e-06	360.39	151.91	152.18	78.744	2.3998e-06	80.94	0.0013196	0.0014109	0.00040551	925.06	1.5883e-05	1.6034e-05	768.21	353.05	1.6201e-05	1.6189e-05	341.7	143.62	144.22	74.288	1.6815e-05	76.189	-75.983	-13.231	12.361	-93.782	61.200	90.068	-94.434	-87.712	173.614	16.050	-90.093	-85.982	-82.511	-78.739	55.422	-82.383	-8191	255	
1808.455	1	1	0	0	0.071551	0.20283	0.033492	0.19181	0.046165	0.086104	0.20966	0.1794	0.12036	0.13328	0.27813	0.062235	0.12993	0.17573	0.22522	0.19501	0.49792	0.68542	-0.2125	0.3125	0.22917	-0.022917	0.41042	-0.35208	0.064583	0.50833	-0.30833	0.30625	0.17292	-0.25625	0.43333	-0.38333	131.610	244.824	115.294	143.709	25.740	-51.017	181.666	225.609	177.271	193.017	214.828	-90.233	229.140	244.400	170.202	-32.365	0.00043747	0.0011258	7.1431e-05	990.35	9.0063e-06	9.6489e-06	822.84	376.88	5.0499e-06	8.2993e-06	362.01	152.02	151.84	78.687	9.0778e-06	81.156	0.0014344	0.0015264	0.00042616	926.38	1.649e-05	1.6875e-05	770.21	354.32	1.7091e-05	1.7378e-05	343.75	144.16	144.23	74.472	1.7935e-05	76.56	-65.820	-7.833	7.677	-93.259	1.159	46.638	-94.867	-87.461	11.377	-12.419	-90.083	-85.268	-82.389	-78.185	28.277	-82.304	-8191	255	
1808.551	1	1	0	0	0.020558	0.13808	0.053658	0.26058	0.059287	0.30001	0.28942	0.43402	0.11941	0.14759	0.10604	0.24953	0.37052	0.14745	0.30442	0.025418	0.38125	0.69583	-0.2375	0.42083	0.016667	-0.16458	0.3125	-0.15417	-0.016667	0.54167	-0.30417	0.31458	0.33958	-0.31458	0.52083	-0.20833	110.012	51.058	42.131	241.913	-95.825	-19.479	164.732	249.334	121.040	32.606	147.353	-43.008	222.881	204.669	33.328	40.414	0.00056406	0.00062349	0.00041259	989.11	1.2725e-05	2.049e-05	813.97	373.64	4.7094e-06	2.0473e-06	357.72	151.03	151.78	78.835	5.0519e-06	80.55	0.0014987	0.0016224	0.00045887	925.31	1.7485e-05	1.7938e-05	767.49	352.18	1.7514e-05	1.8106e-05	340.44	142.86	143.89	74.302	1.7684e-05	76.016	-60.592	23.788	19.930	-93.208	60.172	53.442	-94.368	-87.404	157.152	42.939	-90.352	-85.711	-82.377	-78.210	-28.234	-81.992	-8191	255	
1808.647	1	1	0	0	0.34033	0.15312	0.035664	0.11356	0.24425	0.31979	0.21112	0.14002	0.37347	0.18334	0.32364	0.11879	0.097231	0.34337	0.21213	0.12369	0.33542	0.62083	-0.079167	0.18333	0.26458	-0.40833	0.36667	0.05	0.05625	0.50208	-0.20833	0.04375	0.33125	-0.54167	0.46042	-0.035417	211.929	139.159	-36.744	182.511	229.083	-27.366	-92.627	193.663	-46.580	-1.677	-44.838	-10.673	-79.966	220.207	229.745	227.416	0.00045339	0.00075851	0.00028975	981.26	5.581e-06	8.7944e-06	807.38	374.55	4.5429e-06	5.2509e-06	352.77	151.14	151.98	79.915	4.159e-06	81.233	0.0015002	0.0016077	0.00045475	921.54	1.6961e-05	1.7547e-05	764.15	351.47	1.7039e-05	1.7211e-05	338.76	142.98	143.95	75.3	1.7265e-05	76.721	-80.382	-81.530	24.199	-92.915	61.181	62.639	-94.306	-87.119	155.131	62.468	-89.522	-85.216	-82.063	-78.019	54.043	-81.820	-8191	255	
1808.743	1	1	0	0	0.25099	0.12918	0.33272	0.17216	0.02789	0.13192	0.10318	0.25465	0.030468	0.17846	0.026806	0.2318	0.053669	0.23238	0.13246	0.17291	0.16667	0.53333	-0.1125	-0.060417	0.43542	-0.18958	0.15	0.08125	-0.26875	0.69792	-0.13958	-0.10833	0.32083	-0.40208	0.24167	0.23542	32.597	89.452	198.754	246.717	19.606	157.227	-91.741	-93.288	-56.701	243.541	-53.230	129.008	49.428	187.804	-51.124	222.666	0.00044115	0.0010827	6.8608e-05	982.96	2.6625e-06	3.5647e-06	810.28	373.73	3.0753e-06	1.0787e-05	355.76	150.88	151.62	80.575	7.6353e-06	82.339	0.0014692	0.0015715	0.00044192	920.1	1.6802e-05	1.7254e-05	762.35	349.75	1.6612e-05	1.713e-05	338.92	143.05	143.73	75.978	1.7036e-05	77.499	-78.234	-20.272	-101.747	-93.014	32.037	45.294	-94.236	-87.159	48.409	39.662	-89.986	-85.434	-82.545	-78.206	-28.328	-82.378	-8191	255	
1808.864	1	1	0	0	0.24543	0.21548	0.18411	0.10868	0.15636	0.22347	0.1291	0.2416	0.13816	0.04157	0.14529	0.22311	0.2075	0.33781	0.2782	0.17987	0.24375	0.65833	0.03125	-0.08125	0.67708	-0.325	0.072917	0.21458	-0.175	0.66458	0.047917	-0.21875	0.51042	-0.53333	0.16875	0.28542	226.161	89.362	-57.702	213.704	-102.551	155.278	26.595	4.508	218.920	108.736	221.086	152.951	69.531	233.564	-37.551	185.455	0.0003554	0.00041162	5.9033e-05	975.12	7.6068e-06	1.0285e-05	809.28	369.73	7.9055e-06	1.1918e-05	356.01	151.86	151.99	80.291	9.5788e-06	82.414	0.0014213	0.0015603	0.00043166	918.09	1.6634e-05	1.7373e-05	762.95	348.27	1.6936e-05	1.714e-05	338.97	143.53	143.65	75.814	1.6658e-05	77.468	-74.286	-46.325	137.276	-93.151	117.338	71.864	-94.286	-87.339	38.192	-17.548	-89.450	-84.817	-82.133	-77.888	4.496	-82.149	-8191	255	
1808.936	1	1	0	0	0.11173	0.11336	0.054945	0.28098	0.17102	0.21905	0.14799	0.090427	0.062019	0.34699	0.10935	0.2436	0.1472	0.12852	0.47684	0.13871	0.047917	0.49792	0.05	-0.30625	0.65625	-0.12083	-0.10625	0.29375	-0.22917	0.30833	0.25208	-0.13542	0.32292	-0.31667	0.033333	0.41667	-41.634	90.004	44.501	192.844	-15.159	65.256	173.326	190.712	176.131	203.146	242.412	225.593	-64.022	192.297	86.996	95.238	0.00047415	0.00040235	0.00035669	991.05	4.1166e-06	1.3025e-05	811.21	369.39	1.4797e-06	1.1967e-05	354.45	148.75	149.64	79.958	3.6039e-06	80.679	0.0014429	0.0015815	0.00043561	922.95	1.6756e-05	1.7349e-05	761.14	346.59	1.6904e-05	1.6993e-05	334.32	140.64	141.97	75.013	1.6295e-05	76.078	-51.820	247.369	-42.787	-93.154	31.688	62.699	-94.432	-87.078	142.680	55.925	-89.697	-85.054	-81.885	-77.853	55.036	-82.212	-8191	255	
1809.032	1	1	0	0	0.096319	0.096086	0.2138	0.15431	0.048182	0.038506	0.30457	0.13502	0.2268	0.39811	0.26353	0.17284	0.27583	0.3928	0.10608	0.02158	0.022917	0.44792	0.18125	-0.25833	0.63542	-0.10208	0.079167	0.39583	-0.48542	0.3125	0.33542	-0.35625	0.57917	-0.32917	-0.14792	0.3125	83.896	70.220	214.083	153.505	-42.780	-70.423	213.096	110.699	218.270	65.192	160.660	-52.045	-87.027	-39.013	176.257	240.994	0.00041212	0.00078811	0.0002266	982.49	2.6181e-06	1.2084e-06	798.85	368.58	5.3271e-06	7.4984e-06	349.63	148.06	150.72	78.852	7.6301e-06	80.146	0.0014474	0.0015467	0.00042555	917.92	1.6652e-05	1.706e-05	752.91	346.43	1.6795e-05	1.7099e-05	332.69	140.25	141.77	74.59	1.7101e-05	75.607	-48.185	38.418	-54.991	-92.566	90.674	-47.278	-94.199	-86.740	101.575	155.818	-89.353	-85.014	-81.976	-77.700	44.163	-81.481	-8191	255	
1809.152	1	1	0	0	0.18599	0.20119	0.20512	0.16147	0.16696	0.26519	0.15044	0.040492	0.22582	0.10458	0.4818	0.27331	0.1833	0.095661	0.025067	0.12863	-0.11667	0.39583	0.26458	-0.60625	0.44583	-0.033333	-0.20833	0.46667	-0.24375	0.22917	0.22083	-0.59375	0.29583	0.19167	-0.25	0.475	-40.001	-5.118	6.728	226.194	-35.500	2.232	103.789	232.226	-41.821	123.342	-72.820	178.138	129.762	-38.852	145.941	252.893	0.00050005	0.00062294	0.00033671	983.54	1.4054e-05	8.0179e-06	802.72	371.66	5.8822e-06	1.5589e-05	353.84	149.32	152.23	79.319	8.0124e-06	81.003	0.0014793	0.0015738	0.00043047	917.32	1.7134e-05	1.7387e-05	751.72	347.95	1.7275e-05	1.7482e-05	335.14	141.53	143.12	74.622	1.7428e-05	76.113	-67.931	-12.345	-37.603	-92.694	30.722	63.887	-93.567	-86.631	-17.266	48.803	-89.006	-84.994	-81.838	-77.476	51.107	-81.580	-8191	255	
1809.247	1	1	0	0	0.1173	0.20054	0.2954	0.061463	0.47243	0.18759	0.27738	0.39473	0.028755	0.28269	0.16287	0.033956	0.2073	0.15596	0.358	0.26525	0.17292	0.2125	0.52083	-0.36042	0.51458	0.26875	-0.1875	0.32708	-0.18542	0.16667	0.22292	-0.13125	0.375	0.0375	-0.23333	0.28333	-37.607	134.491	161.463	213.942	32.343	92.145	201.187	223.698	124.813	157.146	228.109	5.289	-90.291	197.072	-18.782	146.408	0.00042255	0.00063349	0.00012445	974.64	3.9761e-06	1.314e-05	799.18	373.05	6.7327e-06	1.2476e-05	355.63	150.32	150.27	78.212	8.0816e-06	80.585	0.0014811	0.0015942	0.00043954	915.19	1.7035e-05	1.7425e-05	752.56	350.03	1.738e-05	1.7356e-05	337.33	142.09	142.57	73.838	1.7937e-05	75.912	-53.361	-14.494	58.931	-92.303	-31.294	4.124	-93.300	-86.498	75.182	-1.194	-89.038	-84.724	-81.713	-77.522	33.750	-81.353	-8191	255	
1809.345	1	1	0	0	0.12307	0.18072	0.15037	0.40428	0.1773	0.042107	0.072556	0.1324	0.081542	0.15885	0.18772	0.21401	0.080002	0.12289	0.050651	0.026	-0.014583	-0.19167	0.425	-0.25	0.36667	0.3	-0.49375	0.35	0.039583	0.09375	0.38125	-0.36458	0.16458	0.2	-0.28125	0.475	-78.608	-29.854	165.012	175.945	44.381	-73.859	242.259	169.346	58.579	95.440	-37.671	234.434	-89.366	221.512	40.172	252.539	0.00043063	0.00064537	0.00025516	975.54	8.9188e-06	8.2024e-06	793.56	368.89	7.0959e-06	8.6122e-06	349.1	147.32	149.64	77.233	1.103e-05	79.014	0.0015199	0.0016277	0.00045721	915.16	1.7438e-05	1.8019e-05	749.86	347.75	1.7712e-05	1.7778e-05	332.96	140.09	141.49	72.931	1.8308e-05	74.594	-72.555	45.959	12.661	-92.239	63.276	42.578	-93.837	-86.566	32.404	90.338	-88.866	-84.474	-81.793	-77.148	-5.268	-80.995	-8191	255	
1809.464	1	1	0	0	0.17677	0.21153	0.2343	0.18842	0.34897	0.16529	0.13615	0.28003	0.067496	0.21095	0.19886	0.16459	0.24267	0.14605	0.25155	0.1245	0.1875	-0.17292	0.6375	-0.21042	0.175	0.33958	-0.54583	0.26875	0.014583	-0.20625	0.60833	-0.37083	-0.089583	0.22917	-0.29375	0.22917	191.712	-20.572	57.785	183.106	25.532	18.879	109.487	189.398	139.338	52.512	-31.555	167.216	-48.948	151.907	214.032	-70.851	0.00037987	0.0022467	0.00026814	980.06	1.4298e-06	7.0893e-06	795.78	368.22	3.6028e-06	1.2336e-05	349.87	147.25	149.89	77.298	1.5106e-05	79.113	0.0015482	0.0016463	0.00047035	915.33	1.786e-05	1.8506e-05	747.73	346.71	1.8023e-05	1.8451e-05	332.8	140.11	141.49	72.983	1.8651e-05	74.897	-61.660	-24.738	-7.510	-91.995	66.932	68.923	-93.460	-86.573	232.414	66.339	-89.034	-84.229	-81.637	-76.947	30.836	-81.253	-8191	255	
1809.560	1	1	0	0	0.16923	0.15865	0.29342	0.23325	0.14975	0.13846	0.11889	0.21475	0.089279	0.10049	0.49514	0.026351	0.075854	0.28889	0.1316	0.29035	0.4125	0.01875	0.48333	-0.21458	0.00625	0.31667	-0.44583	0.26875	0.091667	-0.38125	0.37083	-0.10833	-0.10833	0.33125	-0.375	0.054167	19.230	174.896	46.542	-84.354	-100.539	76.697	162.682	163.058	127.258	221.455	-73.981	-73.582	-81.322	240.718	63.853	248.818	0.00048184	0.0005618	0.00028625	976.86	1.0903e-05	9.6626e-06	795.45	371.29	5.0024e-06	9.0138e-06	351.62	148.29	149.38	77.19	1.6026e-05	79.753	0.001536	0.0016767	0.00047915	914.61	1.8118e-05	1.8406e-05	750.13	348.55	1.8008e-05	1.8679e-05	335.87	141.36	141.97	73.07	1.8286e-05	75.549	-67.582	-77.367	-1.333	-91.881	70.451	85.824	-93.061	-86.525	174.725	-18.487	-88.897	-84.097	-81.512	-77.202	8.636	-81.045	-8191	255	
1809.631	1	1	0	0	0.45446	0.23056	0.04569	0.10347	0.12025	0.41069	0.26845	0.05388	0.11442	0.053391	0.2831	0.22342	0.25886	0.14741	0.43824	0.14258	0.76042	-0.19375	0.475	-0.19375	0.0083333	0.55833	-0.43542	-0.020833	0.32292	-0.15625	0.37292	-0.13125	-0.15417	0.68958	-0.175	0.075	76.145	1.905	177.857	104.862	166.770	49.689	218.292	244.568	140.358	248.370	153.994	229.778	249.334	-2.283	119.315	-55.097	0.00043613	0.0010728	9.3759e-05	983.14	5.0383e-06	1.0399e-05	799.61	372.39	6.0421e-07	5.5685e-06	354.83	150.68	150.58	77.925	1.7503e-05	80.454	0.0014999	0.0016972	0.00046546	920.33	1.7793e-05	1.8286e-05	755.48	350.85	1.7794e-05	1.8608e-05	339.06	143.39	143.05	73.572	1.8078e-05	75.957	-61.906	-19.309	153.638	-91.768	12.521	83.243	-93.176	-86.135	195.317	-50.968	-89.081	-84.211	-81.584	-77.063	41.934	-81.085	-8191	255	
1809.752	1	1	0	0	0.14733	0.25506	0.16847	0.13529	0.083495	0.10116	0.075451	0.10191	0.042276	0.16444	0.14532	0.26394	0.019261	0.20511	0.12645	0.083372	0.73542	-0.43125	0.46042	-0.04375	-0.16667	0.54167	-0.41042	-0.1	0.32292	-0.41875	0.425	0.13542	-0.46042	0.39375	-0.3125	-0.41042	-23.522	199.424	63.448	-103.237	80.873	-30.908	84.302	254.339	-56.875	60.244	223.672	-85.347	109.965	253.147	166.803	164.229	0.00038159	0.00067639	0.00013132	966.65	8.5978e-06	3.5472e-06	804.93	371.05	4.3318e-06	9.9678e-06	357.29	150.72	150.75	76.892	1.2801e-05	79.056	0.0015504	0.0017032	0.00046526	909.69	1.7752e-05	1.8232e-05	756.32	350.7	1.7863e-05	1.8688e-05	340.18	143.29	143.48	72.88	1.8217e-05	75.102	-46.975	29.490	-79.248	-91.673	70.397	74.333	-92.979	-86.169	41.291	105.729	-88.736	-83.966	-80.954	-77.099	75.656	-80.900	-8191	255	
1809.848	1	1	0	0	0.15728	0.21216	0.14477	0.2865	0.22468	0.15336	0.16397	0.1715	0.023506	0.08538	0.13308	0.060595	0.17301	0.12541	0.19477	0.021423	0.5875	-0.4	0.4375	0.14167	-0.29583	0.525	-0.35	-0.35625	0.52292	-0.43125	0.12708	0.26458	-0.47917	0.44583	0.15833	-0.275	253.021	164.439	110.869	224.974	214.933	131.645	182.919	182.651	223.215	215.318	-27.754	40.410	236.987	221.605	184.401	93.481	0.00036934	0.00019609	0.00024117	959.6	5.5493e-06	1.0003e-05	794.19	368.84	4.2961e-06	5.4658e-06	363.66	152.16	152.56	76.189	8.5733e-06	79.372	0.0015404	0.0016713	0.00046604	904.09	1.799e-05	1.8587e-05	755.51	351.77	1.8507e-05	1.9076e-05	344.51	144.39	144.14	72.203	1.8956e-05	75.009	-81.187	48.382	-86.130	-91.670	106.509	-7.937	-93.016	-86.002	34.313	89.609	-88.864	-84.375	-81.233	-77.031	61.495	-81.001	-8191	255	
1809.944	1	1	0	0	0.15038	0.11542	0.1714	0.32942	0.26152	0.15966	0.13311	0.22824	0.1091	0.16241	0.26435	0.2511	0.27749	0.18707	0.21492	0.2526	0.9125	-0.28333	0.275	0.21042	-0.33125	0.40833	-0.10625	-0.22083	0.56667	-0.125	0.029167	0.32083	-0.69167	0.23333	0.15833	-0.31875	98.251	52.551	143.944	209.880	215.175	-93.094	-83.737	9.768	9.747	140.210	234.977	-92.256	252.108	255.063	4.358	194.746	0.00025536	0.00082076	0.00039997	959.74	4.8642e-06	1.0364e-05	803.41	371.76	7.474e-06	7.053e-06	362.02	151.05	149.91	75.225	1.1697e-05	78.975	0.001595	0.0017441	0.00048171	905.79	1.8809e-05	1.9237e-05	759.67	353.58	1.9137e-05	1.9594e-05	346.37	144.4	143.47	71.574	1.9691e-05	74.981	-60.545	-4.039	4.546	-91.843	-32.480	102.774	-93.159	-85.996	80.005	-55.017	-88.887	-84.049	-81.284	-76.689	93.535	-80.860	-8191	255	
1810.040	1	1	0	0	0.073578	0.30235	0.51296	0.14166	0.22365	0.082727	0.048751	0.40519	0.29592	0.12236	0.15026	0.21534	0.17041	0.15911	0.18161	0.05809	1	-0.13333	0.09375	0.30625	-0.25	0.2	-0.035417	-0.33958	0.36875	-0.20208	0.04375	0.46667	-0.59375	0.13333	-0.00625	-0.47917	8.457	-24.498	148.488	222.985	26.300	229.891	-68.021	194.859	-97.826	7.720	194.630	170.375	139.844	-91.500	27.765	126.420	0.00040779	0.00093132	0.00032649	956.46	9.8159e-06	1.3972e-05	813.88	374.67	1.1793e-05	1.1872e-05	363.83	150.08	148.69	73.767	1.7704e-06	77.473	0.0016866	0.0018306	0.0005078	904.35	2.0333e-05	2.0678e-05	771.81	355.98	2.1058e-05	2.153e-05	349.14	144.46	142.9	70.475	2.1366e-05	74.214	-58.354	-29.379	-43.627	-91.697	60.681	61.326	-93.394	-86.510	15.015	-2.419	-88.552	-84.092	-81.007	-76.551	78.167	-80.073	-8191	255	
1810.161	1	1	0	0	0.22593	0.12291	0.36795	0.042569	0.36463	0.39413	0.24269	0.14683	0.13002	0.24605	0.18259	0.27746	0.35593	0.3436	0.1666	0.26908	0.73333	-0.24375	0.072917	0.30417	-0.17708	0.125	0.014583	-0.37917	0.32292	-0.18125	-0.175	0.39167	-0.43542	0.2625	0.28542	-0.32292	121.588	106.340	-7.879	-36.749	-51.039	153.856	206.695	127.242	-103.305	172.416	-80.260	179.042	230.055	234.770	129.236	160.909	0.00039519	0.0008098	1.4396e-05	953.83	1.3073e-05	2.2813e-06	800.42	368.37	5.7334e-06	1.2214e-06	361	149.39	149.74	73.552	1.2081e-05	77.436	0.0017908	0.00194	0.00053502	906.57	2.1633e-05	2.1458e-05	769.81	354.15	2.1386e-05	2.1711e-05	349.01	143.72	142.82	70.115	2.1544e-05	74.156	-62.733	-36.147	-36.252	-91.710	81.650	139.776	-93.121	-85.813	131.089	-9.470	-88.978	-83.796	-81.328	-76.747	114.025	-79.996	-8191	255	
1810.233	1	1	0	0	0.18168	0.086473	0.251	0.11394	0.15088	0.11876	0.2721	0.27935	0.11696	0.18072	0.1509	0.17391	0.098293	0.16701	0.26868	0.035774	0.97292	-0.083333	-0.2	0.35208	-0.21458	0.19375	0.30417	-0.48958	0.52083	0.10208	-0.33542	0.47083	-0.21667	0.04375	0.24792	-0.6	98.469	223.057	53.439	143.825	47.832	-50.099	254.980	190.442	67.429	-7.905	-19.467	216.297	189.962	167.536	171.318	142.618	0.00062509	0.001612	8.3947e-05	956.66	8.8221e-06	5.137e-06	815.18	374.64	4.9128e-06	1.462e-05	368.97	152.22	151.01	74.985	1.7461e-05	79.137	0.0017882	0.0019318	0.00054492	908.37	2.1112e-05	2.1186e-05	777.83	356.82	2.0285e-05	2.0704e-05	353.04	145.58	144.06	71.363	2.036e-05	75.654	-50.986	16.136	-16.772	-91.599	46.963	5.054	-93.287	-86.058	-44.535	-18.424	-89.004	-84.017	-80.986	-76.636	55.060	-81.061	-8191	255	
1810.327	1	1	0	0	0.26126	0.16674	0.31176	0.12386	0.12667	0.12437	0.26064	0.28348	0.26872	0.09168	0.15524	0.048228	0.4464	0.33782	0.076741	0.12678	0.77292	0.11458	-0.19792	0.53542	-0.17708	0.070833	0.4125	-0.43542	0.24167	0.17083	-0.28958	0.26042	-0.41042	-0.35417	0.3	-0.34583	251.744	215.254	-82.180	176.501	193.295	156.195	-45.161	180.469	53.760	250.272	240.607	-71.446	212.216	251.084	251.550	195.362	0.00045504	0.00058209	0.00021139	960.4	1.824e-05	6.6869e-07	821.72	377.86	6.8883e-06	1.1264e-05	370.48	153.47	152.97	76.684	1.8519e-06	81.377	0.0016871	0.0018044	0.00051076	909.47	1.9098e-05	1.8988e-05	780.04	359.3	1.8344e-05	1.8476e-05	355.66	147.92	146.25	73.272	1.8099e-05	77.861	-63.286	-22.421	209.755	-91.843	99.871	-34.712	-93.143	-85.998	75.083	11.368	-88.474	-83.532	-80.927	-76.504	-78.014	-80.822	-8191	255	
1810.425	1	1	0	0	0.098123	0.26222	0.1777	0.29222	0.061435	0.1151	0.21451	0.14721	0.10702	0.25929	0.066267	0.1347	0.11701	0.13333	0.12978	0.13693	0.55208	0.20833	-0.28125	0.39167	-0.20417	-0.16042	0.40417	-0.4875	0.21458	0.00625	-0.37083	0.39792	-0.041667	-0.29167	0.55208	-0.39583	11.665	-13.444	-82.683	203.111	-24.866	18.512	231.238	206.783	65.856	-78.613	89.763	1.153	238.375	209.407	207.510	154.242	0.00059891	0.00032993	0.00016896	959.55	5.0034e-06	6.1372e-06	825.55	377.3	6.0806e-06	1.2335e-05	375.7	159.5	156.98	79.975	2.5355e-06	83.521	0.0015267	0.0016674	0.00046556	910.38	1.7859e-05	1.8516e-05	788.41	360.72	1.7744e-05	1.7764e-05	359.93	152	149.53	76.024	1.7745e-05	79.674	-63.071	5.165	-55.425	-91.817	152.870	44.419	-92.858	-85.676	47.766	19.617	-88.219	-83.970	-81.180	-76.961	189.981	-80.747	-8191	255	
1810.544	1	1	0	0	0.1255	0.14651	0.14388	0.3116	0.27761	0.15663	0.2931	0.24438	0.15545	0.30916	0.27525	0.089197	0.44639	0.16784	0.17935	0.15887	0.58958	0.325	-0.26667	0.44792	0.11875	0.0083333	0.25625	-0.3	0.04375	0.4125	-0.43958	0.5125	0.029167	-0.46667	0.52917	-0.28542	21.526	-61.164	136.622	212.020	68.373	-68.498	197.087	179.841	92.813	41.795	240.210	237.424	242.126	187.777	-38.633	-65.601	0.00049284	0.00038888	0.00017479	968.68	1.3512e-05	9.2176e-06	827.15	374.26	5.2656e-06	1.0333e-05	373.58	157.89	155.38	80.806	3.4862e-06	84.621	0.0014731	0.0016215	0.00046554	914.43	1.7288e-05	1.7842e-05	787.16	357.85	1.685e-05	1.7383e-05	356.22	151.55	148.76	77.167	1.6822e-05	80.178	-74.859	50.973	92.876	-91.420	99.367	46.159	-92.651	-85.706	17.968	-2.698	-88.464	-83.811	-80.822	-76.617	37.831	-80.681	-8191	255	
1810.640	1	1	0	0	0.17336	0.30326	0.12965	0.21428	0.13767	0.11103	0.43699	0.22837	0.33269	0.15724	0.095961	0.2541	0.23416	0.23175	0.10322	0.23148	0.27292	0.4375	-0.36667	0.12917	0.09375	-0.53958	0.51667	-0.29375	-0.035417	0.55417	-0.39792	0.22708	0.0375	-0.46875	0.43333	-0.25833	227.579	48.640	79.094	228.163	-5.787	228.045	206.498	250.409	6.861	100.268	216.407	222.214	253.004	191.532	32.490	229.682	0.00038364	0.00060664	0.00017997	982.48	2.2892e-06	1.2273e-05	824.09	374.04	1.223e-05	1.1888e-05	361.65	154.32	151.68	80.919	1.1316e-05	83.039	0.0014206	0.0015245	0.00042382	922.13	1.5958e-05	1.6184e-05	781.68	353	1.5768e-05	1.6127e-05	345.2	146.8	144.2	76.455	1.6e-05	78.642	-69.073	26.575	27.982	-91.897	-41.339	80.266	-93.455	-85.989	-27.211	85.573	-88.505	-83.941	-81.143	-77.186	5.843	-81.193	-8191	255	
1810.736	1	1	0	0	0.1829	0.17236	0.22105	0.25092	0.22464	0.26753	0.12412	0.23736	0.074118	0.076661	0.30663	0.19838	0.27394	0.10026	0.07439	0.21448	0.24792	0.42917	-0.34375	-0.029167	0.35833	-0.25208	0.42292	-0.1	-0.060417	0.34167	-0.50833	0.10208	0.36875	-0.37917	0.40625	-0.11458	81.129	69.293	201.197	244.123	167.576	193.312	129.730	79.324	53.360	209.697	-56.180	173.222	224.961	-26.281	-75.109	220.154	0.00048554	0.00064492	0.0002742	1002.4	3.4357e-06	9.2269e-06	829.68	365.51	7.1446e-06	9.1915e-06	345.19	142.97	141.38	75.712	6.4801e-06	78.633	0.0013838	0.0014853	0.00042204	943.08	1.5951e-05	1.6458e-05	780.52	344.8	1.6066e-05	1.6212e-05	330.14	136.06	134.83	71.661	1.6424e-05	74.552	-54.769	-43.069	-39.608	-91.739	-49.679	-35.171	-93.210	-86.579	-2.539	17.180	-88.533	-83.997	-81.079	-76.950	38.069	-80.531	-8191	255	
1810.832	1	1	0	0	0.092917	0.030938	0.055469	0.11615	0.12479	0.1989	0.12328	0.35676	0.057507	0.16422	0.27821	0.16932	0.17699	0.070518	0.10864	0.29955	0.06875	0.50208	-0.24375	-0.16458	0.43542	-0.52708	0.43333	-0.095833	-0.34583	0.50208	-0.21667	0.08125	0.14792	-0.5125	0.35	0.18125	75.747	-65.428	241.367	-71.905	-33.603	53.157	126.455	170.055	146.795	221.187	34.108	-34.707	221.400	254.617	197.858	142.780	0.00047672	0.00020696	0.00011856	1063.5	1.3564e-05	7.3188e-06	848.34	357.94	4.3269e-06	1.7791e-05	332.19	134.14	134.29	71.039	5.5413e-06	73.562	0.0014447	0.0015865	0.000445	999.42	1.7287e-05	1.8161e-05	807.31	341.61	1.7986e-05	1.8231e-05	320.37	129.53	128.84	68.097	1.8623e-05	70.364	-67.146	-31.420	50.017	-91.978	109.392	52.687	-93.276	-86.329	-69.279	99.569	-88.880	-84.197	-80.736	-76.931	16.082	-80.650	-8191	255	
1810.928	1	1	0	0	0.1915	0.010557	0.19214	0.43466	0.080137	0.09433	0.01035	0.18191	0.15798	0.054279	0.33962	0.39796	0.04942	0.33591	0.1909	0.18671	-0.0020833	0.43125	-0.15417	-0.32708	0.29167	-0.15625	0.56042	0.12917	-0.41875	0.58542	-0.22292	-0.25208	0.575	-0.38125	0.11875	0.3375	184.618	248.994	229.229	252.413	126.032	154.085	-20.890	153.763	6.961	-68.873	210.614	221.381	58.440	-80.111	192.945	142.154	0.00030797	0.00033493	0.00010873	1105.1	6.7876e-06	6.8474e-06	888.08	349.35	1.0677e-05	5.1739e-06	327.43	131.75	132.95	72.194	9.5976e-06	73.989	0.0016573	0.0017987	0.00051115	1044.1	2.0382e-05	2.0456e-05	841.29	335.44	2.0069e-05	1.9866e-05	317.14	127.34	127.9	69.026	2.0062e-05	70.953	-72.171	67.660	94.456	-91.827	200.517	54.605	-93.088	-86.442	39.469	16.822	-88.852	-84.074	-81.114	-76.826	122.906	-80.664	-8191	255	
1811.025	1	1	0	0	0.11182	0.1475	0.15177	0.21446	0.095082	0.29784	0.25022	0.15379	0.22067	0.0071736	0.17266	0.22226	0.037266	0.054663	0.222	0.12401	-0.0375	0.39167	0.052083	-0.3625	0.36667	-0.26042	-0.014583	0.42917	-0.083333	0.32083	0.022917	-0.19167	0.27917	-0.45833	0.10208	0.31458	-20.464	251.973	85.915	235.162	182.557	129.079	155.103	232.886	-66.913	4.537	111.491	-93.471	204.924	148.336	137.783	161.788	0.00044902	0.0019805	0.00016537	1121.2	8.873e-06	4.2216e-06	885.54	355.02	8.0385e-06	8.0592e-06	335.1	139.27	139.34	77.428	6.0684e-06	79.975	0.0017627	0.0019085	0.0005502	1052.1	2.2206e-05	2.2629e-05	839.56	338.69	2.3287e-05	2.3063e-05	324.91	133.96	133.8	73.633	2.3533e-05	76.095	-43.888	36.663	3.743	-92.481	25.928	-0.796	-93.925	-87.019	44.470	-38.915	-89.477	-84.906	-81.812	-77.632	12.485	-81.823	-8191	255	
1811.145	1	1	0	0	0.28002	0.10839	0.11029	0.15618	0.22415	0.22725	0.19265	0.18178	0.097905	0.083785	0.11997	0.41502	0.076767	0.21818	0.26672	0.37011	0.072917	0.4875	0.20208	-0.44167	0.55	-0.24375	-0.01875	0.34583	-0.375	0.38958	0.18333	-0.4625	0.44583	-0.35833	0.05625	0.39792	226.757	181.248	63.230	191.847	-100.892	112.332	193.136	172.410	-48.554	-41.209	54.895	161.902	148.985	-103.492	37.565	175.474	0.00058387	0.0014586	0.00030277	1072.8	5.3118e-06	8.5965e-06	864.21	364.15	7.0604e-06	2.1227e-05	343.11	146.87	144.95	80.484	7.5149e-06	82.132	0.0020212	0.0021914	0.00062016	1010.8	2.4219e-05	2.4905e-05	825.14	345.92	2.5955e-05	2.678e-05	336.05	142.01	139.35	76.918	2.7945e-05	78.954	-65.854	-40.955	-14.881	-92.763	-22.470	36.422	-93.711	-87.145	186.478	20.262	-89.660	-84.902	-82.285	-77.887	-82.618	-82.050	-8191	255	
1811.241	1	1	0	0	0.11367	0.13776	0.274	0.29837	0.14311	0.25872	0.12152	0.21517	0.16625	0.28199	0.15609	0.14621	0.14865	0.39189	0.26271	0.1118	0.097917	0.43958	0.43333	-0.33542	0.59375	0.047917	-0.28125	0.27917	-0.26458	0.18958	0.30833	-0.50625	0.43958	-0.10417	-0.079167	0.40417	-65.668	214.243	-39.600	159.217	99.156	159.358	-69.664	250.390	104.518	60.454	131.234	239.632	213.424	206.976	34.417	205.258	0.00039795	0.0016644	0.00010856	1074	9.7951e-06	6.6403e-06	870.51	361.03	9.722e-06	9.9401e-06	340.4	145.99	144.82	80.678	1.7876e-05	81.235	0.0023127	0.0025345	0.00072568	1014.3	2.8048e-05	2.8924e-05	835.18	347.41	2.9595e-05	3.0866e-05	337.75	142.55	140.2	77.031	3.0952e-05	78.377	-69.087	17.400	19.063	-93.420	40.531	81.409	-94.078	-86.754	191.114	45.033	-89.431	-84.993	-82.003	-77.613	-41.044	-81.813	-8191	255	
1811.336	1	1	0	0	0.098918	0.34495	0.19539	0.082365	0.28882	0.36503	0.16348	0.11331	0.25374	0.12874	0.025542	0.18531	0.23166	0.2367	0.35769	0.19592	0.25	0.11042	0.42917	-0.59167	0.4875	0.05	-0.41042	0.41458	-0.26875	-0.035417	0.39583	-0.39583	0.39375	0.19792	0	0.33333	2.003	83.307	130.361	224.895	41.436	-75.015	188.380	-67.655	-1.160	23.142	39.349	187.057	137.575	-99.005	-39.926	249.834	0.0004011	0.00097787	0.00023256	1079.7	3.0131e-06	4.7063e-06	887.05	368.69	1.2602e-05	1.0122e-05	348.34	147.5	147.21	79.014	8.982e-06	80.726	0.002515	0.0028381	0.00080926	1028.6	3.12e-05	3.2291e-05	853.2	355.15	3.1386e-05	3.247e-05	344.62	144.15	142.62	76.096	3.2829e-05	78.1	-59.881	180.898	-73.628	-92.865	135.526	154.121	-93.850	-87.080	24.762	7.918	-88.728	-84.989	-82.226	-77.707	30.831	-81.505	-8191	255	
1811.432	1	1	0	0	0.21282	0.10433	0.11108	0.27972	0.1508	0.039081	0.035107	0.24366	0.096399	0.24838	0.10375	0.045883	0.45603	0.22306	0.14808	0.32018	0.125	-0.0625	0.58958	-0.55	0.3125	0.24583	-0.4625	0.54375	-0.22292	-0.00625	0.41042	-0.41458	0.1625	0.054167	-0.28125	0.38958	-81.208	9.564	217.668	203.398	27.012	-59.681	104.341	133.041	-87.024	100.840	171.933	253.432	242.822	222.042	178.849	189.273	0.00059259	0.0019965	0.00043431	1104	4.2438e-06	1.1646e-05	903.32	384.99	6.3598e-06	2.9955e-05	366.34	155.11	153.44	78.109	1.7379e-05	81.358	0.0027949	0.0032088	0.00091856	1061.1	3.7515e-05	4.0241e-05	881.55	374.87	4.1117e-05	4.3989e-05	371.09	154.26	151.12	76.075	4.678e-05	80.404	-38.260	-64.587	8.757	-92.730	96.517	37.222	-93.808	-87.027	-67.656	-6.975	-89.250	-84.642	-81.988	-77.340	26.991	-81.475	-8191	255	
1811.528	1	1	0	0	0.19731	0.15719	0.1512	0.18128	0.17511	0.18185	0.17381	0.18253	0.13237	0.096167	0.28994	0.44098	0.28563	0.22808	0.10629	0.1285	0.29792	0.05625	0.60417	-0.45625	0.35208	0.4	-0.45417	0.38542	-0.035417	-0.016667	0.42917	-0.38125	-0.13542	0.25	-0.39167	0.14583	177.565	-47.306	25.255	232.794	-47.189	92.354	241.916	229.788	36.624	167.702	201.439	198.604	214.303	219.363	179.774	139.390	0.00032431	0.001611	0.00033537	1064.6	2.3628e-05	8.3688e-06	897.69	397.41	1.2435e-05	1.0066e-05	377.59	159.06	155.74	76.662	1.6339e-05	81.553	0.0039603	0.0045588	0.0012935	1043.7	5.0475e-05	5.302e-05	894.11	391.86	5.1808e-05	5.3842e-05	390.2	159.91	155.06	75.576	5.1122e-05	80.704	-93.866	-16.366	72.856	-92.476	88.029	2.223	-93.647	-87.162	116.893	146.000	-89.116	-84.389	-81.977	-77.420	110.423	-81.232	-8191	255	
1811.624	1	1	0	0	0.076177	0.2018	0.13466	0.1491	0.15662	0.18259	0.28882	0.19219	0.14462	0.20208	0.1289	0.14653	0.14661	0.27948	0.23553	0.16719	0.42083	-0.25833	0.54583	-0.475	0.15417	0.53542	-0.56042	0.022917	0.060417	-0.30833	0.33542	-0.225	-0.045833	0.37708	-0.12917	0.37292	134.730	10.882	30.928	223.007	149.304	119.455	196.451	167.262	-49.937	170.993	121.997	136.309	175.369	226.000	76.337	159.402	0.00041077	0.0016135	0.00072721	1047.1	2.3505e-06	1.0352e-05	885.08	397.22	5.9415e-06	9.4375e-06	375.1	158.84	155.97	77.089	2.1753e-05	80.742	0.0040628	0.0045761	0.0012528	1021.2	4.7861e-05	4.9683e-05	876.6	389.88	4.7924e-05	4.9176e-05	384.24	158.62	154.36	75.757	4.5639e-05	79.7	-53.719	-81.449	-24.372	-92.373	238.665	69.165	-93.760	-87.386	251.883	192.576	-88.819	-84.367	-81.870	-77.431	81.437	-81.156	-8191	255	
1811.720	1	1	0	0	0.19547	0.15084	0.20762	0.21634	0.32296	0.11667	0.24494	0.10035	0.32852	0.3317	0.22284	0.21613	0.30649	0.40654	0.10805	0.29525	0.56875	-0.3625	0.2375	-0.16667	0.0625	0.15833	-0.39375	0.25833	0.40208	-0.28958	0.28542	-0.34167	-0.22708	0.33542	-0.175	0.05	209.117	238.836	194.072	217.670	-53.161	83.568	194.955	164.655	-85.030	-99.094	180.917	196.445	248.065	193.108	248.064	153.163	0.00060739	0.00039811	0.00025135	1043.4	3.2869e-06	1.9217e-05	891.31	391.4	8.5942e-06	3.2924e-06	371.88	157.86	156.21	80.249	9.0836e-06	83.107	0.003676	0.0040267	0.0011027	1012.7	4.1738e-05	4.2168e-05	866.67	382.09	3.9878e-05	4.0936e-05	372.44	155.94	152.88	77.483	3.8943e-05	80.767	-63.705	144.844	-5.524	-92.614	238.563	12.431	-93.942	-87.314	4.621	159.697	-89.210	-84.341	-81.854	-77.290	45.371	-81.581	-8191	255	
1811.841	1	1	0	0	0.077814	0.27924	0.13271	0.22544	0.21483	0.099899	0.19916	0.069383	0.25963	0.1643	0.13571	0.14284	0.1619	0.25467	0.025575	0.25353	0.60833	-0.20417	0.61042	-0.0625	-0.325	0.55417	-0.37292	0.16458	0.37917	-0.19375	0.39583	0.10208	-0.35208	0.325	0.05625	-0.054167	178.487	83.095	61.131	229.946	198.570	132.741	-91.166	231.618	172.319	103.988	194.290	-104.100	239.397	147.508	155.704	237.092	0.00054936	2.456e-05	0.00020058	1085.1	1.8264e-05	1.7529e-05	904.08	392.06	6.6574e-06	1.2481e-05	372.29	157.54	155.06	80.804	1.1243e-05	83.172	0.0032509	0.0035664	0.00097327	1041.1	3.8198e-05	3.8808e-05	877.08	379.91	3.7855e-05	3.8566e-05	370.7	155.11	151.84	78.069	3.8617e-05	81.25	-55.083	-5.002	-13.726	-92.339	153.360	21.077	-93.829	-87.040	44.899	117.022	-89.111	-84.374	-81.750	-77.335	219.415	-81.169	-8191	255	
1811.937	1	1	0	0	0.19777	0.20598	0.15301	0.28777	0.22524	0.086518	0.24281	0.53604	0.15432	0.045288	0.076031	0.3527	0.39676	0.23288	0.2064	0.30904	0.7875	-0.4	0.41667	0.070833	-0.42917	0.54375	-0.43542	0	0.42708	-0.44792	0.325	0.13125	-0.43958	0.43542	-0.2	-0.14583	221.325	179.029	20.976	104.557	84.024	15.558	142.000	185.981	236.565	5.375	237.631	190.833	-104.083	231.637	110.043	158.967	0.00034613	0.00050453	0.00019088	1108.7	1.4073e-05	9.5001e-06	925.2	393.24	7.7141e-06	1.4732e-05	372.74	156.81	155.35	80.539	1.481e-05	83.634	0.0032644	0.0036273	0.001019	1065.8	3.9677e-05	4.0285e-05	899.6	383.73	3.9676e-05	4.0351e-05	374.69	155.07	151.72	78.259	4.0121e-05	81.942	-59.803	-80.850	-35.579	-92.391	-61.273	3.247	-93.433	-86.968	31.747	55.254	-89.198	-84.219	-81.695	-77.358	129.042	-80.975	-8191	255	
1812.033	1	1	0	0	0.056867	0.18287	0.40112	0.34562	0.17254	0.31849	0.19876	0.22355	0.033773	0.15072	0.16803	0.10196	0.11369	0.28744	0.19107	0.30376	0.77083	-0.14792	0.275	0.14375	-0.20417	0.48542	-0.083333	-0.50417	0.37917	-0.32708	0.10625	0.19167	-0.52083	0.1375	-0.045833	-0.425	51.121	26.284	-22.663	177.125	133.655	191.125	149.780	175.383	-69.779	-75.916	164.828	171.815	178.590	226.155	10.518	146.676	0.00039541	0.00074838	0.00048085	1124.5	1.5949e-06	1.1098e-05	931.1	388.97	1.182e-05	5.2773e-06	369	155.16	153.43	81.842	7.882e-06	84.139	0.0033355	0.0037596	0.0010505	1086.2	4.1011e-05	4.1438e-05	907.26	380.18	4.027e-05	4.0239e-05	369.76	153.04	149.92	78.755	3.6431e-05	81.865	-82.630	-69.940	-66.947	-92.286	44.413	73.193	-93.462	-87.068	28.573	-9.361	-89.268	-84.371	-81.744	-77.480	237.330	-81.455	-8191	255	
1812.105	1	1	0	0	0.19091	0.10725	0.21292	0.44519	0.082286	0.15602	0.21636	0.22324	0.061077	0.2019	0.065682	0.20032	0.30353	0.37406	0.091947	0.085595	0.69792	-0.10417	0.095833	0.37708	-0.39792	0.27292	-0.25208	-0.40833	0.37917	-0.44792	-0.020833	0.24792	-0.59583	0.15417	0.28333	-0.37917	122.416	120.311	166.171	192.997	16.388	135.538	207.316	-102.476	252.574	-27.524	110.547	241.009	-98.807	-51.776	27.553	251.424	0.00041308	0.0010525	0.00029837	1110.7	1.3117e-05	1.6177e-05	925.32	392.8	4.0565e-06	1.1541e-05	372.04	158.51	155.68	83.998	1.0684e-05	87.618	0.002887	0.0031557	0.0008797	1059.5	3.3363e-05	3.3794e-05	889.88	376.78	3.2161e-05	3.2375e-05	364.46	153.28	149.6	80.056	2.8076e-05	83.467	-65.820	47.529	-43.744	-92.565	60.986	25.983	-93.509	-87.167	-26.672	36.057	-89.436	-84.626	-81.805	-77.571	84.333	-81.707	-8191	255	
1812.226	1	1	0	0	0.10727	0.26449	0.11572	0.30424	0.16163	0.019096	0.19145	0.10199	0.24645	0.2394	0.18863	0.20839	0.0059859	0.25574	0.15657	0.32604	0.75833	-0.20208	0.039583	0.35417	-0.38333	0.35417	0.21875	-0.54375	0.4	-0.36875	-0.1875	0.56667	-0.41458	0.14792	0.39792	-0.49375	146.051	17.856	245.464	210.158	168.163	86.993	164.116	145.789	43.229	165.003	253.057	223.297	-34.177	250.071	209.756	191.432	0.00044979	0.0018083	0.00015461	1106.5	6.2306e-06	1.2232e-05	924.12	392.71	1.0683e-05	2.9562e-06	381.16	163.95	160.11	87.582	1.5257e-05	90.643	0.0021977	0.0023969	0.00065063	1041.9	2.4585e-05	2.4632e-05	874.17	373.85	2.2887e-05	2.302e-05	364.47	156.12	152.14	82.898	2.1011e-05	86.085	-72.432	-18.243	63.861	-92.577	208.791	81.962	-93.359	-87.053	90.820	83.945	-89.022	-84.395	-81.623	-77.493	107.758	-80.999	-8191	255	
1812.320	1	1	0	0	0.15956	0.095858	0.12083	0.24758	0.038987	0.24891	0.1633	0.16907	0.097898	0.20444	0.19656	0.2411	0.20046	0.11051	0.27114	0.12799	0.63542	0.09375	-0.0625	0.4875	-0.41875	0.033333	0.175	-0.49583	0.53958	0.0041667	-0.11667	0.39583	-0.41458	0.00625	0.2	-0.6875	1.578	30.602	-52.335	169.137	250.569	223.600	214.634	-97.944	49.471	-102.400	221.267	253.240	-72.377	237.625	28.869	-71.963	0.00058454	0.00086265	0.00049032	1104.7	4.9599e-06	1.0863e-05	930.6	396.05	7.6838e-06	1.018e-05	376.96	166.05	161.24	88.632	5.8325e-06	91.527	0.0017327	0.0018808	0.00052174	1035.4	1.9519e-05	2.0024e-05	874.11	373.01	1.8928e-05	1.9558e-05	361.78	156.97	152.42	83.783	1.8641e-05	86.599	-66.855	-76.563	-8.043	-92.299	-96.647	3.774	-93.248	-86.808	-74.548	106.543	-88.652	-84.561	-81.511	-77.296	116.394	-81.106	-8191	255	
1812.416	1	1	0	0	0.13264	0.12611	0.16979	0.030653	0.10669	0.26151	0.30898	0.23644	0.11064	0.17254	0.10792	0.2658	0.20135	0.24552	0.027245	0.15238	0.72917	-0.08125	-0.32708	0.52083	-0.097917	0.045833	0.33125	-0.45208	0.51667	0.19167	-0.51875	0.62292	-0.2625	0.016667	0.45625	-0.37917	197.715	65.709	94.850	185.166	211.889	233.992	208.448	231.306	124.692	39.673	242.539	186.990	183.798	229.423	90.538	201.226	0.00057482	0.0012425	0.00021687	1095	6.6726e-06	1.0294e-05	918.21	391.68	7.5835e-06	8.6532e-06	373.43	162.68	159.07	88.721	1.0416e-05	91.541	0.0015489	0.0016834	0.00046564	1023.9	1.7984e-05	1.8473e-05	862.71	369.28	1.7942e-05	1.7997e-05	354.5	154.12	150.42	83.526	1.6584e-05	86.127	-56.566	-2.081	21.889	-91.967	100.670	130.477	-93.371	-86.735	73.369	0.602	-88.795	-84.430	-81.868	-77.538	8.400	-81.181	-8191	255	
1812.514	1	1	0	0	0.22494	0.26789	0.13412	0.15379	0.074846	0.10726	0.11918	0.17052	0.18048	0.28162	0.07907	0.25345	0.21584	0.017232	0.13684	0.26539	0.67292	0.3	-0.22083	0.38958	-0.05625	0.11458	0.46042	-0.38958	0.30833	0.23125	-0.40208	0.32917	-0.03125	-0.30833	0.7125	-0.525	75.710	8.872	158.767	254.034	247.102	150.814	117.812	-84.827	252.283	41.822	129.675	179.028	207.378	-4.174	46.170	97.504	0.00040599	0.0015546	7.5412e-05	1086.5	6.4997e-06	4.9586e-06	901.82	388.5	6.201e-06	1.2831e-05	371.47	162.05	157.62	89.385	1.1474e-05	92.92	0.0013655	0.0014482	0.00040141	1010.4	1.5105e-05	1.5106e-05	847.38	364.34	1.4562e-05	1.4807e-05	350.73	152.48	148.34	83.929	1.4204e-05	86.773	-67.484	-33.919	-61.555	-92.361	102.726	112.504	-93.532	-86.735	-48.363	12.852	-88.891	-84.372	-81.553	-77.577	55.039	-81.657	-8191	255	
1812.633	1	1	0	0	0.074882	0.035051	0.18745	0.36318	0.19164	0.030044	0.26143	0.042792	0.2996	0.10524	0.10122	0.17877	0.094963	0.14078	0.24732	0.22285	0.56875	0.35417	-0.21042	0.31667	0.089583	-0.11875	0.26458	-0.19167	0.047917	0.35833	-0.41875	0.50833	0.020833	-0.40833	0.32083	-0.30208	167.023	147.264	228.867	211.044	104.219	129.202	170.374	69.370	56.436	243.413	2.030	231.852	80.371	221.225	-81.061	175.221	0.00039915	0.00087404	0.00026491	1078.2	9.2702e-06	1.1564e-05	906.26	389.15	5.1547e-06	1.1584e-05	376.31	165.96	160.63	91.097	1.1284e-05	95.806	0.0012068	0.0012844	0.00035174	1004.4	1.345e-05	1.3531e-05	848.33	365.05	1.301e-05	1.3024e-05	354.99	156.08	151.04	85.816	1.2042e-05	89.524	-55.378	-59.635	-17.651	-92.108	77.721	-4.846	-93.369	-86.552	127.854	61.760	-89.075	-84.450	-81.572	-77.447	51.767	-81.397	-8191	255	
1812.729	1	1	0	0	0.20439	0.10606	0.068493	0.306	0.098313	0.14569	0.28829	0.15119	0.15487	0.2096	0.12084	0.18733	0.069724	0.26154	0.12475	0.40401	0.35	0.54583	-0.32083	0.24792	0.31042	-0.28125	0.38958	-0.29375	-0.075	0.33542	-0.58958	0.31458	0.19583	-0.65	0.45417	-0.070833	163.125	106.538	-68.629	-78.174	110.106	167.780	212.567	169.603	250.893	6.510	172.795	224.637	-97.672	-98.762	-23.726	202.252	0.00050756	0.00069445	0.00037043	1061.4	1.375e-05	7.7247e-06	906.56	391.1	8.3662e-06	1.0284e-05	381.96	171.22	163.21	92.742	6.5607e-06	96.633	0.0010461	0.001083	0.00029731	987.61	1.1286e-05	1.1361e-05	841.08	365.38	1.1184e-05	1.1118e-05	358.72	159.43	153.52	86.933	1.0498e-05	90.199	-63.577	-37.757	-34.738	-92.360	131.311	17.350	-93.173	-86.524	76.701	44.175	-88.914	-84.206	-81.252	-77.487	44.185	-81.301	-8191	255	
1812.825	1	1	0	0	0.21051	0.14732	0.26877	0.40493	0.21151	0.04104	0.1415	0.34227	0.011949	0.20893	0.06682	0.014002	0.25879	0.38148	0.15181	0.13848	0.30208	0.475	-0.1375	0.23542	0.3875	-0.32708	0.15417	-0.14167	0.091667	0.61042	-0.37917	0.0875	0.22708	-0.49583	0.47917	-0.035417	-29.334	154.427	-68.471	167.516	167.021	0.742	-58.865	241.448	1.618	-2.919	-80.896	83.270	248.223	219.099	123.713	157.343	0.00052797	0.00065475	0.00029254	1037.4	3.1138e-06	2.5565e-06	889.23	394.02	4.2211e-06	8.9145e-06	390.83	175.31	168.58	93.307	8.2992e-06	96.727	0.00094008	0.00097048	0.00026325	963.08	1.0329e-05	1.0307e-05	830.4	367.49	1.0353e-05	1.024e-05	364.6	164.3	157.51	87.283	1.0402e-05	90.208	-53.613	-27.865	-7.741	-91.990	78.389	56.810	-93.291	-86.190	22.615	33.339	-88.538	-84.364	-81.668	-77.581	22.630	-81.409	-8191	255	
1812.921	1	1	0	0	0.14306	0.1695	0.1431	0.13651	0.30094	0.14152	0.27314	0.14346	0.066371	0.081878	0.33627	0.21396	0.27526	0.38673	0.2036	0.28702	-0.16875	0.5125	-0.045833	0.15833	0.48125	-0.33333	0.35417	0.00625	-0.16042	0.53333	-0.41667	-0.11042	0.32917	-0.54583	0.39167	0.05	198.689	79.400	-9.743	223.812	194.306	-88.677	173.788	98.093	-40.050	-44.893	176.669	-11.412	216.842	243.175	89.171	197.447	0.00047506	0.0011179	0.00037384	1021	4.5616e-06	8.2783e-06	885.64	397.72	8.0927e-06	1.1492e-05	392.34	178.22	170.26	93.185	1.9896e-06	96.348	0.00093264	0.00094375	0.00026621	944.06	1.0307e-05	9.9338e-06	825.13	370.18	1.0011e-05	1.0178e-05	368.18	166.49	159.49	87.038	1.0158e-05	89.922	-63.825	-33.353	-22.966	-92.223	19.848	54.996	-93.041	-86.189	45.236	27.704	-88.275	-84.434	-81.227	-77.563	37.487	-81.070	-8191	255	
1813.018	1	1	0	0	0.095057	0.084544	0.1504	0.37645	0.007094	0.19746	0.23917	0.15699	0.307	0.098932	0.18593	0.36492	0.16038	0.1243	0.10222	0.11891	0.125	0.49375	0.1625	-0.039583	0.49583	-0.39792	0.35208	0.20417	-0.17708	0.43542	-0.15208	-0.15417	0.41042	-0.42292	0.44167	0.095833	39.045	-68.261	-62.094	-87.126	-14.510	-36.045	188.894	-62.921	246.967	171.712	-84.039	239.447	202.012	-100.309	194.357	174.705	0.00050104	0.00042333	0.00033652	1002.3	1.1052e-05	1.9431e-06	886.7	398.02	2.5206e-06	6.9677e-06	406.85	183.65	173.96	92.416	4.3218e-06	96.685	0.00088933	0.00090885	0.00025061	929.53	9.5955e-06	9.6161e-06	824.34	371.35	9.4148e-06	9.654e-06	375.43	170.3	161.99	86.106	9.8165e-06	89.474	-73.510	-68.927	-19.655	-92.063	89.882	26.194	-93.265	-85.966	140.685	49.450	-88.811	-84.871	-81.629	-77.669	49.440	-81.814	-8191	255	
1813.114	1	1	0	0	0.28721	0.11047	0.038695	0.37315	0.13179	0.16635	0.10642	0.21311	0.25507	0.038702	0.20611	0.2138	0.22564	0.24374	0.25152	0.17527	0.25208	0.52083	-0.041667	-0.175	0.62708	-0.34583	0.25833	0.41042	-0.05625	0.30625	0.1125	-0.35417	0.5125	-0.50208	0.1375	0.29167	22.316	87.687	-47.266	239.437	235.798	-22.597	12.660	186.671	251.341	55.673	-35.583	227.094	227.242	234.781	163.391	209.751	0.0004893	0.00048251	0.0001381	985.39	1.192e-05	1.1848e-05	877.88	400.94	1.1674e-06	5.236e-06	400.43	179.07	171.13	85.681	1.0095e-05	89.023	0.00087285	0.00088536	0.00024803	913.41	9.4425e-06	9.9028e-06	811.97	372.29	9.9589e-06	1.0027e-05	373.1	166.24	159.01	79.97	1.0503e-05	82.784	-66.094	-12.796	38.467	-92.309	-4.162	76.615	-93.383	-86.219	87.431	-1.577	-88.816	-84.825	-81.793	-77.482	33.077	-81.209	-8191	255	
1813.234	1	1	0	0	0.19397	0.2426	0.28451	0.087731	0.12444	0.26586	0.2346	0.063528	0.15312	0.24097	0.073646	0.1986	0.33717	0.32856	0.20245	0.086152	0.058333	0.44375	0.28542	-0.31667	0.37292	-0.31458	-0.11458	0.34167	-0.3125	0.25833	0.25833	-0.47917	0.42292	-0.36042	-0.0041667	0.4	226.919	134.092	59.062	219.635	3.807	-98.918	191.188	-78.225	102.974	227.906	-67.329	153.838	241.266	-69.916	54.094	102.428	0.00047509	0.00071746	0.00027024	960.1	1.7044e-06	6.6352e-06	848.69	391.64	5.764e-06	6.6672e-06	390.08	172.65	166.26	81.524	4.1909e-06	85.128	0.00092029	0.00096036	0.00026795	886.09	1.0183e-05	1.0718e-05	788.08	366.1	1.0465e-05	1.0941e-05	363.86	160.75	155.46	76.404	1.1031e-05	79.552	-44.747	18.008	16.736	-92.007	-59.673	28.158	-93.249	-85.844	72.161	74.566	-88.389	-84.536	-81.488	-76.694	44.480	-80.687	-8191	255	
1813.329	1	1	0	0	0.22586	0.08541	0.09803	0.28549	0.22629	0.26372	0.15259	0.25475	0.051884	0.088897	0.34571	0.068595	0.18425	0.13908	0.20135	0.23895	0.01875	0.42708	0.28125	-0.49583	0.52292	-0.12292	-0.17917	0.31458	-0.23542	0.23333	-0.016667	-0.28333	0.425	0.020833	-0.027083	0.26875	-73.066	80.140	22.688	179.677	125.857	-3.063	34.513	191.790	-14.989	-19.366	183.931	104.517	252.567	215.553	-14.968	-78.777	0.00042651	0.00030185	0.00032643	937.01	8.7614e-06	7.2836e-06	828.42	385.82	8.2876e-06	8.9749e-06	383.66	169.46	163.05	80.191	8.7151e-06	84.463	0.0009528	0.0010033	0.00027597	868.89	1.0685e-05	1.0693e-05	769.65	359.02	1.054e-05	1.061e-05	358.02	158	152.78	75.3	1.0392e-05	78.751	-48.842	-30.828	38.585	-91.829	48.640	101.168	-92.811	-85.630	43.398	50.340	-88.571	-84.250	-81.298	-76.773	-53.775	-81.062	-8191	255	
1813.400	1	1	0	0	0.1124	0.083206	0.20757	0.14155	0.062048	0.082325	0.28433	0.17975	0.17349	0.1659	0.044115	0.3238	0.19226	0.22061	0.076882	0.14903	0.095833	0.31875	0.28333	-0.47292	0.46667	0.23333	-0.32083	0.28333	-0.1	0.19583	0.40625	-0.40208	0.25417	0.0041667	-0.15	0.4125	26.952	247.473	96.967	231.526	105.710	7.263	166.322	118.779	157.959	-28.801	84.818	230.941	-88.664	-58.046	150.445	120.279	0.00038366	0.00046498	0.0003385	924.92	7.0732e-06	3.9896e-06	821.96	383.17	7.8035e-06	1.1907e-05	382.43	169.01	163.38	82.175	8.8563e-06	85.516	0.00089863	0.0009268	0.00026013	859.9	9.8689e-06	1.0122e-05	762.81	355.61	9.9119e-06	9.6861e-06	354.78	157.3	152.18	76.602	9.1942e-06	79.706	-61.166	11.944	-29.602	-91.806	108.612	129.940	-93.087	-86.013	3.290	46.877	-88.405	-84.493	-81.195	-76.923	55.194	-80.847	-8191	255	
1813.497	1	1	0	0	0.22713	0.30329	0.084392	0.25856	0.079745	0.14847	0.29922	0.049342	0.17679	0.30861	0.23653	0.26436	0.18592	0.29384	0.1138	0.29538	0.12917	0.20417	0.25833	-0.52917	0.45	0.16042	-0.42708	0.3375	-0.14375	0.0125	0.30833	-0.4125	0.20417	0.20833	-0.15208	0.3125	54.944	-72.708	12.831	231.503	168.703	101.725	199.484	-11.898	35.117	203.513	199.831	200.688	158.594	248.976	29.871	182.153	0.00030315	0.0012878	0.00023012	920.51	2.6973e-06	8.1606e-06	821.79	381.46	7.3192e-06	1.5354e-05	381.24	169.66	163.55	84.483	1.1254e-05	87.594	0.00081046	0.00082265	0.00022404	854.39	8.7805e-06	8.8117e-06	761.8	354.66	8.487e-06	8.2907e-06	353.36	157.73	152.56	78.736	8.0653e-06	81.339	-71.946	-20.915	3.156	-92.100	81.923	28.807	-92.847	-86.068	30.954	24.130	-88.530	-84.206	-81.361	-77.228	27.616	-81.014	-8191	255	
1813.617	1	1	0	0	0.064462	0.070481	0.10336	0.23248	0.30971	0.17885	0.10569	0.11119	0.30973	0.24478	0.12145	0.050265	0.37273	0.29914	0.093024	0.47965	0.38958	0.21667	0.40417	-0.44583	0.39167	0.23333	-0.38333	0.59792	0.16458	-0.05	0.38333	-0.3	0.24583	0.15417	-0.38125	0.41458	209.030	-71.081	-14.775	239.756	227.434	220.964	-87.563	157.515	200.217	77.907	216.973	111.583	-83.354	-78.229	204.380	212.662	0.00050667	0.00038019	3.4175e-05	937.18	8.9079e-06	7.572e-06	838.73	385.63	8.1693e-06	1.0472e-05	385.87	171.86	165.78	86.202	1.4662e-06	89.412	0.00073715	0.00072918	0.00020093	866.51	7.8353e-06	8.0454e-06	771.62	357.75	7.7179e-06	7.8454e-06	357.22	159.65	154.45	80.245	7.6854e-06	83.08	-62.088	-24.788	248.929	-91.947	83.060	5.190	-93.319	-85.918	-1.581	34.897	-88.564	-84.356	-81.460	-77.077	133.053	-81.242	-8191	255	
1813.713	1	1	0	0	0.27982	0.048602	0.073968	0.43089	0.39347	0.12676	0.25258	0.2718	0.19935	0.24013	0.18471	0.16436	0.20242	0.42743	0.15059	0.054306	0.36042	-0.054167	0.55417	-0.24375	0.3625	0.47917	-0.43333	0.35625	0.3375	-0.20625	0.45833	-0.12083	0.0625	0.15833	-0.17708	0.14583	101.579	-50.013	138.370	-63.380	28.605	-97.379	187.181	217.570	134.583	87.746	188.195	195.674	-101.923	214.767	36.689	15.616	0.00047734	0.0012899	0.00026524	939.41	7.2972e-06	3.7876e-06	841.79	391.15	4.695e-07	5.0704e-06	391.15	174.98	167.04	87.604	7.3199e-06	91.672	0.00070742	0.00070731	0.00019248	870.99	7.6819e-06	7.5869e-06	778.95	361.59	7.6475e-06	7.4579e-06	361.04	162.5	155.44	81.694	7.3876e-06	84.923	-72.412	-53.676	11.584	-91.855	97.498	139.390	-93.113	-86.020	196.546	31.935	-88.849	-84.201	-81.342	-77.423	47.669	-81.091	-8191	255	
1813.809	1	1	0	0	0.15566	0.083257	0.15034	0.34805	0.086667	0.088412	0.2442	0.24971	0.17801	0.12716	0.29275	0.30109	0.12212	0.407	0.068245	0.10073	0.575	-0.25625	0.68333	-0.19375	0.077083	0.46458	-0.30833	0.22292	0.47292	-0.22708	0.34583	-0.19167	-0.17917	0.29583	-0.3625	0.11667	22.214	-101.635	30.291	237.268	-70.100	-75.693	199.408	174.858	-11.759	18.267	211.279	209.768	51.250	202.081	32.731	251.655	0.000393	0.0010538	4.7748e-05	959.45	8.3721e-06	4.0574e-06	852.31	394.95	4.4973e-06	5.9381e-07	396.14	176.81	168.47	88.542	8.7761e-06	92.522	0.00069942	0.00066226	0.0001922	881.08	7.3013e-06	7.4244e-06	785.98	364.62	7.3351e-06	7.2941e-06	364.53	164.06	156.72	82.382	7.5467e-06	85.429	-67.546	-39.098	58.012	-91.905	107.495	36.457	-93.356	-86.512	46.243	-24.688	-88.672	-84.760	-81.550	-77.561	58.029	-81.523	-8191	255	
1813.906	1	1	0	0	0.070814	0.16536	0.22469	0.050536	0.17778	0.21628	0.28484	0.18045	0.12568	0.15583	0.21482	0.39764	0.23852	0.1336	0.21317	0.059563	0.70833	-0.14167	0.4375	0.014583	-0.11458	0.55625	-0.20625	0.2375	0.4125	-0.24583	0.60625	-0.125	-0.079167	0.33333	-0.22083	-0.041667	219.575	124.866	124.361	238.984	128.332	-30.262	230.076	174.283	-17.927	9.992	-43.463	190.602	240.441	195.100	-29.263	33.066	0.00040405	0.00031777	0.00019389	951.59	6.2335e-06	8.9594e-06	851.14	394.14	7.1559e-06	1.1655e-05	391.22	175.85	166.87	88.203	1.487e-05	91.551	0.00066647	0.00066378	0.00019421	878.9	7.0625e-06	7.2803e-06	780.89	363.93	7.3033e-06	7.3661e-06	361.84	162.55	155.57	81.957	7.8381e-06	84.734	-59.084	11.868	-0.191	-91.739	85.746	58.708	-93.056	-86.260	35.276	-4.546	-88.767	-84.500	-81.382	-77.358	57.238	-81.510	-8191	255	
1814.002	1	1	0	0	0.17194	0.1366	0.25415	0.1897	0.15117	0.16361	0.22509	0.16073	0.16401	0.24922	0.096648	0.19322	0.069648	0.16944	0.22815	0.2475	0.77917	-0.29375	0.5375	0.24167	-0.11458	0.67917	-0.26042	0.083333	0.61042	-0.325	0.44375	0.19375	-0.47292	0.28125	0.00625	-0.070833	25.271	151.723	13.106	236.842	2.971	220.691	178.556	108.686	-51.990	74.201	162.479	-83.279	-78.509	240.834	-2.643	170.432	0.00054861	0.00027086	0.00016351	950.37	7.3945e-06	5.4348e-06	843.55	391.58	2.3621e-06	1.1162e-05	387.62	174.59	167.54	86.796	2.3058e-06	89.829	0.00070123	0.00071536	0.00019634	879.05	7.6653e-06	7.8497e-06	778.54	363.23	7.8924e-06	7.9594e-06	360.54	161.56	155.47	80.867	8.2489e-06	83.464	-60.389	16.718	27.587	-91.732	66.585	28.668	-93.151	-86.420	246.592	64.287	-88.606	-84.287	-81.930	-77.599	98.646	-81.281	-8191	255	
1814.098	1	1	0	0	0.39291	0.20632	0.045173	0.3547	0.20276	0.13411	0.11062	0.20118	0.069274	0.2682	0.11584	0.24084	0.30298	0.13489	0.1966	0.1698	0.84792	-0.275	0.27292	0.19792	-0.32083	0.49375	-0.19583	-0.23333	0.56875	-0.085417	0.21875	0.27292	-0.47083	0.43333	0.13958	-0.15417	71.734	229.491	92.946	253.260	252.410	16.912	162.630	-86.552	191.697	153.327	51.626	-98.906	236.446	-59.158	203.738	-73.111	0.00039828	0.00053549	8.1862e-05	948.56	6.83e-06	7.7138e-06	841.22	392.79	5.5534e-06	8.4261e-06	390.7	174.41	166.57	84.405	3.9821e-06	88.557	0.00073403	0.00078249	0.00021143	873.75	8.284e-06	8.4991e-06	778.11	363.55	8.3814e-06	8.6616e-06	362.32	161.41	155.16	78.782	9.134e-06	82.136	-63.496	-22.257	-42.056	-92.207	92.559	57.745	-93.331	-86.062	94.373	34.678	-88.774	-84.586	-81.238	-77.500	-37.805	-81.232	-8191	255	
1814.194	1	1	0	0	0.1083	0.11239	0.10781	0.16305	0.23651	0.20625	0.25619	0.22519	0.18504	0.15236	0.061179	0.13011	0.07488	0.51457	0.21374	0.17492	0.90208	-0.13542	0.22083	0.26875	-0.19792	0.37292	-0.13542	-0.20208	0.75417	-0.20208	-0.058333	0.47083	-0.55417	0.32083	0.28125	-0.30625	188.866	234.570	102.468	207.484	252.468	230.310	254.879	-96.712	195.918	235.692	229.838	25.166	200.079	241.137	233.094	173.117	0.00038598	0.0010472	0.00023857	952.86	6.8733e-06	5.5372e-06	851.1	396.2	4.1453e-06	1.1656e-05	394.17	174.02	166.49	83.366	1.0563e-05	87.609	0.00079669	0.00084193	0.00023111	879.73	9.1057e-06	9.1492e-06	787.22	367.04	9.1794e-06	9.3149e-06	367.5	161.31	155.01	77.985	9.3834e-06	81.54	-70.147	43.596	-20.384	-91.958	-10.354	93.860	-93.387	-86.260	-15.212	26.576	-89.004	-85.040	-81.687	-77.899	40.306	-81.349	-8191	255	
1814.315	1	1	0	0	0.15691	0.11208	0.095578	0.094923	0.062557	0.24537	0.21969	0.091443	0.24463	0.08723	0.18595	0.32976	0.044892	0.13185	0.11039	0.32084	0.90833	-0.21458	0.1875	0.46667	-0.25208	0.30625	0.1625	-0.40833	0.56458	-0.03125	-0.064583	0.28125	-0.37083	0.21042	0.29375	-0.27292	-24.236	-24.773	184.300	243.639	114.615	92.222	246.860	209.764	91.087	252.232	-72.893	237.412	21.570	-94.055	177.705	181.341	0.00042397	0.00051921	0.00019018	952.38	1.1451e-05	3.071e-06	854.74	396.52	7.1959e-06	7.1561e-06	397.45	172.6	166.79	83.353	7.4405e-06	88.005	0.00083139	0.00084783	0.00023372	880.64	9.1682e-06	9.2587e-06	790.95	368.65	9.2968e-06	9.4392e-06	369.5	160.9	155.26	77.775	9.7133e-06	81.869	-63.366	-22.987	-23.208	-92.115	113.355	-31.190	-93.336	-86.289	33.399	83.748	-88.450	-84.254	-81.663	-77.348	40.363	-81.176	-8191	255	
1814.409	1	1	0	0	0.16662	0.05697	0.11007	0.14983	0.12153	0.30108	0.35829	0.10545	0.098897	0.1427	0.047604	0.072607	0.14644	0.14102	0.062366	0.096825	0.82708	0.05625	-0.041667	0.51042	-0.24167	0.35208	0.25625	-0.325	0.57083	-0.097917	-0.30208	0.44792	-0.475	0.083333	0.50208	-0.25625	-101.619	2.173	-34.855	216.459	30.401	-31.230	201.845	193.654	28.509	-38.414	165.364	222.479	158.555	-32.666	-49.688	160.318	0.000473	0.00052327	0.00032568	957.24	1.3912e-05	1.6755e-06	865.87	400.23	8.3986e-07	7.8863e-06	402.63	174.52	167.05	82.52	4.9753e-06	87.973	0.00086224	0.00089919	0.00024618	886.31	9.6684e-06	9.6375e-06	803.85	372.4	9.9209e-06	1.0126e-05	375.12	162.28	155.82	77.026	1.0113e-05	81.697	-52.693	12.473	19.629	-92.016	67.924	3.104	-92.908	-86.443	82.215	44.964	-88.797	-84.621	-81.625	-77.596	87.364	-81.153	-8191	255	
1814.505	1	1	0	0	0.31506	0.11121	0.24993	0.28756	0.17361	0.094486	0.20863	0.21298	0.10146	0.16938	0.097019	0.079618	0.27699	0.34859	0.12588	0.058513	0.8875	0.033333	-0.10833	0.375	-0.25625	0.25	0.22708	-0.47292	0.38333	0.2875	-0.24792	0.54792	-0.27292	-0.022917	0.5375	-0.47708	10.882	150.348	-69.163	207.293	59.997	150.783	126.244	-98.207	-55.918	251.148	24.187	177.332	169.274	-57.297	189.273	-35.225	0.00047609	0.00081551	0.00035405	965.49	7.4063e-06	1.1706e-05	881.29	402.27	8.9103e-06	7.7317e-06	404.47	174.97	166.96	82.38	1.3211e-06	88.349	0.00091187	0.00094348	0.00026572	894.36	1.0481e-05	1.0519e-05	814.37	375.17	1.032e-05	1.0416e-05	377.98	162.79	155.75	76.963	1.0463e-05	82.411	-60.523	-18.955	-54.916	-91.797	89.575	61.806	-93.307	-86.118	104.526	10.994	-88.674	-84.354	-81.625	-77.247	-25.307	-81.126	-8191	255	
1814.626	1	1	0	0	0.18948	0.18524	0.17184	0.13808	0.2561	0.27735	0.13559	0.084145	0.038957	0.053114	0.24149	0.50331	0.18077	0.34655	0.004669	0.23232	0.69583	0.43333	-0.15833	0.28958	0.072917	-0.035417	0.61667	-0.41875	0.42083	0.41458	-0.29375	0.52292	-0.13333	-0.34792	0.56458	-0.39792	197.225	-71.568	-35.001	120.593	238.799	201.905	-102.043	-14.878	61.838	-23.753	234.277	236.701	-93.700	-97.097	-58.758	230.144	0.00050193	0.00084607	0.00038753	975.51	1.1526e-05	9.2092e-06	894.97	407.66	4.4523e-06	1.0645e-05	410.21	176.66	167.41	82.739	2.5482e-06	89.421	0.00094287	0.00096063	0.00026738	903.58	1.0713e-05	1.0544e-05	830.84	378.74	1.0524e-05	1.0473e-05	382.6	164.31	156.23	77.353	1.0652e-05	82.995	-62.062	-67.240	-0.948	-91.872	61.088	108.227	-93.092	-86.586	77.573	-1.967	-88.879	-84.727	-81.652	-77.416	-0.630	-81.446	-8191	255	
1814.698	1	1	0	0	0.053531	0.14102	0.1169	0.14984	0.28926	0.2071	0.20625	0.35329	0.15627	0.11076	0.11983	0.22855	0.30939	0.087541	0.078543	0.56198	0.69375	0.41458	-0.37917	0.27292	-0.0375	-0.15208	0.4375	-0.64375	0.16875	0.20833	-0.3125	0.28542	-0.1125	-0.52917	0.50833	-0.47917	-26.340	160.370	-43.228	-19.487	-49.904	-1.101	173.195	93.091	102.668	-93.948	246.599	-75.789	-79.572	219.234	91.602	168.226	0.00046649	0.00077131	0.00012763	983.9	7.1209e-06	5.1433e-06	909.5	409.27	8.5732e-06	4.5148e-06	412.6	177.65	168.27	82.772	8.8158e-06	89.816	0.00093505	0.00096075	0.00027266	911.53	1.0526e-05	1.0554e-05	846.04	381.09	1.0601e-05	1.0568e-05	385.21	165.7	157.21	77.645	1.0563e-05	83.784	-53.691	-30.003	19.043	-92.421	50.995	22.326	-93.277	-86.625	29.188	38.496	-88.991	-84.439	-81.473	-77.282	48.271	-81.015	-8191	255	
1814.794	1	1	0	0	0.20848	0.10926	0.15026	0.16401	0.3127	0.030836	0.22586	0.41339	0.27022	0.31151	0.16472	0.059458	0.12755	0.25562	0.079788	0.021871	0.64375	0.57708	-0.325	0.31042	0.28333	-0.083333	0.40208	-0.35	-0.083333	0.37083	-0.44792	0.28125	0.14375	-0.51458	0.50417	-0.21667	95.011	60.814	188.603	88.447	201.433	250.772	-88.483	214.027	244.742	150.318	138.438	85.760	181.477	224.883	184.836	-56.281	0.00054257	0.0008875	0.0004157	991.86	1.7115e-05	3.4428e-06	931.34	412.46	7.0171e-06	9.6189e-06	420.32	179.38	169.27	83.123	7.649e-06	90.449	0.0009392	0.00095529	0.00027513	920.62	1.0564e-05	1.0577e-05	863.14	384.09	1.0654e-05	1.0923e-05	390.8	167.01	157.9	77.798	1.1066e-05	83.928	-55.328	2.798	-10.723	-92.020	59.440	-97.941	-93.158	-86.117	26.385	37.778	-88.472	-84.726	-81.609	-77.242	68.592	-80.914	-8191	255	
1814.914	1	1	0	0	0.070143	0.1394	0.087698	0.28685	0.15183	0.089873	0.15879	0.166	0.31227	0.039402	0.033341	0.064985	0.28851	0.14609	0.019493	0.15511	0.35208	0.39375	-0.24583	-0.05	0.11458	-0.42708	0.34167	-0.14167	-0.11458	0.46458	-0.49583	0.016667	0.2375	-0.425	0.35208	-0.1	-48.055	200.661	229.023	194.568	108.328	-47.330	116.908	201.645	-55.894	12.569	23.614	-95.357	-54.922	162.062	208.976	145.696	0.0005263	0.00065389	0.00011768	996.27	1.0177e-05	9.0891e-06	940.29	412	2.5255e-06	9.7416e-06	423.17	179.74	168.65	83.321	5.2718e-06	90.802	0.00096169	0.0010136	0.00028784	926.8	1.1253e-05	1.1267e-05	870.76	384.56	1.1076e-05	1.1431e-05	392.73	167.91	157.99	78.08	1.1651e-05	84.433	-60.082	0.932	5.562	-92.266	93.016	64.607	-93.159	-86.358	-17.555	35.931	-88.636	-84.447	-81.460	-77.135	-25.763	-80.742	-8191	255	
1815.010	1	1	0	0	0.013615	0.36544	0.25412	0.35998	0.18079	0.048829	0.14999	0.31839	0.16503	0.20989	0.1482	0.18093	0.18661	0.098938	0.12824	0.44229	0.23542	0.49375	-0.1875	0.15417	0.34583	-0.25833	0.27917	-0.13542	-0.30208	0.6625	-0.24792	0.04375	0.42083	-0.52708	0.45833	-0.029167	135.121	-71.321	126.856	235.901	-67.102	-74.971	187.522	242.546	15.459	43.382	-31.732	-99.878	249.808	250.403	-76.027	242.355	0.00038215	0.00090621	0.00027979	995.85	6.1662e-06	5.29e-06	933.15	405.06	4.0153e-06	8.2229e-06	415.92	180.75	169.86	84.789	4.5961e-06	91.317	0.00099867	0.0010544	0.00028843	924.32	1.1042e-05	1.1542e-05	865.94	379.5	1.1124e-05	1.1463e-05	386.67	168.44	158.35	79.203	1.1231e-05	84.991	-49.025	-7.265	-64.810	-91.831	-20.224	251.265	-93.574	-85.974	86.747	47.295	-88.706	-85.021	-82.044	-77.562	254.099	-80.929	-8191	255	
1815.107	1	1	0	0	0.20406	0.11154	0.23223	0.2335	0.16868	0.2446	0.41413	0.058019	0.1795	0.19506	0.24235	0.17279	0.24117	0.12505	0.1929	0.40643	0.29167	0.57292	-0.20208	-0.15	0.46042	-0.35417	0.44583	0.079167	-0.1625	0.57083	-0.17708	-0.16667	0.60833	-0.43125	0.18958	0.29583	164.933	50.364	212.674	219.812	172.077	-14.441	174.949	186.947	-15.001	-59.090	207.425	133.553	157.945	248.521	-27.668	171.711	0.00046588	0.0010264	0.00024153	987.41	3.1344e-06	6.3659e-06	926.33	402.21	4.3489e-06	1.4069e-05	411.19	181.88	169.69	85.655	8.7617e-06	91.874	0.000964	0.0010111	0.00027994	915.16	1.0578e-05	1.1161e-05	857.58	374.43	1.0698e-05	1.1036e-05	381.86	168.97	158.73	80.141	1.0899e-05	85.763	-58.437	-10.967	4.367	-92.079	-33.347	73.514	-93.182	-86.330	91.782	40.911	-88.376	-84.460	-81.459	-77.251	22.331	-80.894	-8191	255	
1815.203	1	1	0	0	0.11198	0.051635	0.080985	0.23308	0.10265	0.43268	0.37649	0.2824	0.25959	0.35137	0.20916	0.15358	0.20615	0.18996	0.13811	0.081517	-0.047917	0.51667	-0.054167	-0.30625	0.38333	-0.34375	0.075	0.5	-0.43542	0.43958	-0.039583	-0.28542	0.38958	-0.20625	0.26042	0.20625	129.664	-63.631	18.848	234.776	242.870	-55.934	150.870	205.124	128.011	42.299	-42.470	-91.994	206.031	219.007	-0.789	201.794	0.00042881	0.00059505	0.00032327	990.41	5.4559e-06	5.0562e-06	926.9	401.45	6.8856e-06	7.3089e-06	410.68	183.04	169.77	86.678	9.1665e-06	93.497	0.00095206	0.0010053	0.00028292	917.06	1.0595e-05	1.0867e-05	856.29	373.61	1.0793e-05	1.1087e-05	384.4	170.44	159.12	80.944	1.097e-05	86.933	-44.718	-20.340	-13.085	-92.149	75.502	120.257	-93.206	-85.927	80.813	-11.325	-88.599	-84.563	-81.422	-77.393	55.537	-81.196	-8191	255	
1815.297	1	1	0	0	0.096816	0.16787	0.21496	0.27326	0.303	0.06833	0.29183	0.21237	0.08479	0.10105	0.12107	0.12515	0.31907	0.051557	0.16158	0.05588	0.014583	0.4125	0.16875	-0.36458	0.48125	-0.42292	0.060417	0.27292	-0.2125	0.29792	0.16667	-0.37708	0.45417	-0.3375	0.1	0.40208	1.672	136.177	243.067	-56.176	182.121	-2.209	199.901	240.967	24.221	181.211	97.340	149.340	230.164	107.596	219.968	129.167	0.0006351	0.00048161	2.5038e-05	995.57	1.2203e-05	1.057e-05	936.03	410.2	7.9689e-06	6.5444e-06	421.96	185.72	172.57	87.451	4.6331e-06	94.675	0.0009586	0.00098842	0.00027242	927.4	1.0921e-05	1.1057e-05	868.8	381.39	1.0857e-05	1.1121e-05	392.14	172.85	160.98	81.648	1.0975e-05	87.837	-57.856	-58.909	-53.589	-91.969	63.084	36.543	-93.015	-85.907	-0.316	70.926	-88.502	-84.127	-81.635	-77.368	17.641	-80.730	-8191	255	
1815.393	1	1	0	0	0.1032	0.222	0.23214	0.12493	0.15211	0.15384	0.21239	0.23742	0.12503	0.33685	0.27102	0.11026	0.18757	0.18259	0.15203	0.37808	0.064583	0.50208	0.45625	-0.35625	0.47292	-0.15	-0.15833	0.53125	-0.44167	0.29583	0.20417	-0.41667	0.46042	-0.23542	0.035417	0.31042	72.395	175.547	121.431	210.259	146.513	-45.419	234.871	163.086	251.547	-44.983	204.462	253.999	125.819	-10.309	76.077	164.824	0.00049767	0.00069628	0.00022632	1016.9	5.8736e-06	8.41e-06	946.36	414.51	1.1139e-05	7.7257e-06	422.28	184.63	171.64	86.748	1.1662e-05	93.468	0.00097706	0.0010201	0.00028118	943.36	1.0852e-05	1.0997e-05	881.16	384.71	1.1138e-05	1.1036e-05	394.06	172.23	160.68	81.082	1.1063e-05	87.109	-51.297	-22.868	-15.547	-91.953	30.601	39.211	-93.302	-86.265	52.168	26.305	-88.725	-84.385	-81.578	-77.595	1.896	-81.177	-8191	255	
1815.490	1	1	0	0	0.10186	0.17985	0.23742	0.26132	0.23261	0.12547	0.16318	0.16055	0.087299	0.19971	0.24277	0.20434	0.082015	0.16566	0.27303	0.1074	0.43958	0.11458	0.53125	-0.29583	0.44583	-0.14167	-0.22917	0.45417	-0.125	0.15833	0.29792	-0.35	0.089583	-0.075	-0.28333	0.27917	-63.967	176.135	7.357	204.460	249.055	71.764	-96.548	-93.623	243.250	-25.712	248.635	195.083	214.198	-102.923	113.656	196.467	0.00049035	0.00085129	0.00031817	1015.5	5.4044e-06	1.3269e-05	960.41	415.79	3.7635e-06	6.2327e-06	425.04	185.94	173.3	87.381	1.0807e-05	94.695	0.00098539	0.001012	0.00028242	944.75	1.0874e-05	1.0855e-05	889.57	386.31	1.105e-05	1.1096e-05	395.99	173.5	161.79	81.434	1.0897e-05	87.984	-53.739	-1.159	8.560	-92.295	95.674	30.203	-93.296	-86.726	0.181	62.807	-88.551	-84.599	-81.798	-77.130	50.927	-81.250	-8191	255	
1815.587	1	1	0	0	0.26288	0.18795	0.1893	0.28304	0.053206	0.23457	0.24152	0.29853	0.12043	0.021533	0.10946	0.1214	0.1755	0.28453	0.0308	0.21698	0.38125	0.21875	0.53958	-0.52083	0.39583	0.10208	-0.1625	0.36042	-0.24792	0.03125	0.27708	-0.56458	0.27292	0.15833	-0.43333	0.425	49.848	179.541	-51.323	-57.084	117.153	-1.503	179.239	-14.230	103.521	147.893	200.398	188.694	250.018	212.214	172.546	238.701	0.00044047	0.00078301	0.00041835	1028.1	7.9669e-06	1.0271e-05	969.85	420.36	5.07e-06	9.7355e-06	430.84	187.29	173.05	85.924	1.2214e-05	94.05	0.00096937	0.00099205	0.00027779	952.35	1.0646e-05	1.0744e-05	900.35	389.83	1.0568e-05	1.072e-05	402.34	174.97	162.04	80.271	1.102e-05	87.658	-64.000	-14.957	-25.274	-91.995	37.635	20.474	-93.335	-86.500	37.522	50.352	-88.776	-84.466	-82.034	-77.192	35.390	-81.147	-8191	255	
1815.706	1	1	0	0	0.0346	0.24001	0.15916	0.40823	0.051655	0.098669	0.23601	0.32416	0.061285	0.14565	0.018211	0.3984	0.12531	0.19313	0.020709	0.083379	0.40625	-0.00625	0.625	-0.38542	0.47083	0.425	-0.41667	0.52083	-0.26458	-0.25833	0.43542	-0.27083	-0.079167	0.0875	-0.475	0.31875	169.521	65.583	109.416	157.104	242.593	-80.253	216.552	222.871	-85.571	207.573	-12.391	222.320	220.870	200.801	-27.606	166.713	0.00058783	0.00043821	0.00016154	1036.6	6.3929e-06	7.1629e-06	991.7	423.48	6.0284e-06	7.5267e-06	434.97	183.5	168.71	81.532	4.3176e-06	90.27	0.00097879	0.0010096	0.00028538	962.68	1.115e-05	1.1282e-05	918.94	393.1	1.1151e-05	1.1182e-05	406.67	171.28	157.81	76.424	1.1924e-05	84.226	-58.380	-35.006	39.271	-91.658	113.915	83.432	-93.483	-86.562	45.471	3.821	-88.770	-84.348	-82.062	-77.234	45.275	-80.889	-8191	255	
1815.802	1	1	0	0	0.25236	0.28275	0.1731	0.26817	0.20878	0.22469	0.15239	0.11237	0.18472	0.24491	0.28649	0.23217	0.198	0.29847	0.022868	0.29751	0.36875	0.047917	0.52917	-0.475	0.29792	0.28542	-0.42917	0.15625	0.13333	-0.05	0.2125	-0.45625	0.06875	0.39167	-0.46875	0.26042	45.509	76.788	183.071	-51.127	251.439	245.732	188.612	162.965	-104.249	-45.706	246.161	-95.255	219.168	-94.087	15.547	228.886	0.00045779	0.00037696	0.00026766	1043.7	1.0083e-05	7.778e-06	1012.4	418.67	3.9661e-06	8.4467e-06	428.3	174.64	161.85	76.633	3.0772e-06	85.691	0.0010348	0.0010861	0.00030703	968.04	1.1747e-05	1.2156e-05	940.11	390.18	1.2251e-05	1.2982e-05	400.67	164.32	151.57	71.977	1.3426e-05	80.099	-59.701	-1.294	37.099	-91.895	164.582	59.057	-93.264	-86.505	-31.877	-19.217	-89.092	-84.432	-81.713	-77.127	-5.230	-80.684	-8191	255	
1815.899	1	1	0	0	0.14237	0.31337	0.14118	0.15499	0.08449	0.107	0.10854	0.12129	0.19408	0.045218	0.074375	0.08526	0.17078	0.27532	0.064247	0.22584	0.54167	-0.16875	0.78958	-0.20833	-0.047917	0.49375	-0.39167	0.24167	0.05	-0.3375	0.47083	-0.17292	0.0020833	0.27083	-0.34167	0.085417	218.325	120.747	118.161	-41.828	114.902	-67.992	142.240	205.866	220.818	96.488	79.943	-15.193	230.838	-101.783	-48.832	201.365	0.00047548	0.00069846	0.00038545	1052.8	4.407e-06	1.0209e-05	1026.3	414.29	3.0108e-06	1.3279e-05	425.56	173.95	158.45	74.885	1.1754e-05	84.215	0.0011575	0.0012295	0.0003463	976.31	1.3168e-05	1.359e-05	954.35	386.53	1.328e-05	1.3565e-05	399.36	162.89	149.01	70.404	1.383e-05	78.908	-59.775	10.618	-29.894	-91.980	61.380	83.454	-93.088	-86.493	33.601	61.790	-88.645	-84.314	-81.815	-76.834	20.609	-80.430	-8191	255	
1815.995	1	1	0	0	0.057851	0.15049	0.085586	0.13307	0.18191	0.16744	0.27396	0.1401	0.087921	0.07351	0.24308	0.2849	0.039231	0.316	0.16827	0.38252	0.67917	-0.22292	0.47292	-0.18333	0.052083	0.6875	-0.40833	-0.014583	0.4375	-0.40208	0.42292	-0.12708	-0.22292	0.43542	-0.11458	-0.033333	204.485	84.333	14.275	253.811	141.433	20.386	190.351	-86.540	-21.231	220.915	132.453	177.383	-73.020	-102.578	130.782	189.017	0.00037221	0.0011257	0.00017134	1052.1	5.8216e-06	9.0636e-06	1034.9	414.73	8.8423e-06	1.6095e-05	432.32	172.88	157.68	74.188	4.3218e-06	84.285	0.0011704	0.0012721	0.00035022	976.12	1.3323e-05	1.3854e-05	964.56	386.36	1.3772e-05	1.4199e-05	402.87	162.25	148.38	69.777	1.4286e-05	78.761	-44.183	-44.778	-85.059	-92.150	48.918	38.570	-93.462	-86.667	18.918	62.921	-88.856	-84.390	-82.138	-77.175	112.686	-80.796	-8191	255	
1816.091	1	1	0	0	0.14794	0.23068	0.12897	0.34787	0.30125	0.19855	0.19856	0.14112	0.14297	0.090012	0.20002	0.19111	0.25096	0.21527	0.1891	0.2445	0.84375	-0.30208	0.56458	0.033333	-0.35625	0.45417	-0.3	-0.14375	0.5125	-0.44583	0.25417	0.15833	-0.3875	0.44167	-0.13542	-0.23958	-80.176	-78.278	-14.665	245.254	159.453	117.772	237.837	217.646	98.219	60.677	223.430	247.255	211.384	188.450	-21.925	187.856	0.00046173	0.00031187	0.0001345	1047.8	6.6989e-06	1.0641e-05	1041.2	413.73	1.6856e-05	1.522e-05	430.6	173.97	159.58	73.448	8.5338e-06	82.907	0.0012164	0.0013067	0.00035467	974.68	1.3685e-05	1.4218e-05	965.38	386.53	1.3699e-05	1.388e-05	403.16	163.26	149.54	69.001	1.3238e-05	77.614	-71.334	13.347	-1.793	-91.796	52.892	76.095	-93.250	-86.443	10.518	50.134	-88.876	-83.996	-81.827	-77.041	157.946	-80.479	-8191	255	
1816.187	1	1	0	0	0.20889	0.24649	0.16272	0.54144	0.36702	0.30342	0.27331	0.21764	0.21655	0.10218	0.15751	0.35482	0.10596	0.23766	0.096671	0.035217	0.82292	-0.25	0.38125	0.27708	-0.28958	0.66875	-0.26875	-0.32292	0.57708	-0.29375	0.26458	0.0875	-0.48125	0.16667	0.0125	-0.13125	-98.260	183.664	101.730	244.758	-87.983	40.260	251.383	220.700	26.656	184.354	149.757	190.185	217.628	190.135	88.009	52.202	0.00038093	0.0011972	0.00017814	1042.7	1.087e-05	7.0283e-06	1041.4	411.12	5.8291e-06	1.2007e-05	426.87	171.76	157.83	71.866	1.1885e-05	81.377	0.0011338	0.0012101	0.0003293	965.63	1.2951e-05	1.3124e-05	959.51	382.7	1.3023e-05	1.337e-05	400.14	161.29	148.32	67.492	1.2811e-05	76.051	-63.449	-0.060	95.043	-91.916	92.850	48.168	-93.071	-86.377	33.192	30.967	-88.369	-83.837	-81.308	-76.672	22.707	-80.697	-8191	255	
1816.308	1	1	0	0	0.2388	0.28093	0.20409	0.3997	0.078804	0.19135	0.055503	0.32074	0.097802	0.20803	0.07172	0.19486	0.2137	0.16158	0.1439	0.29652	0.86875	-0.13542	0.20208	0.1625	-0.1125	0.37292	-0.225	-0.2875	0.50625	-0.21667	0.0020833	0.17708	-0.3375	0.48958	0.10625	-0.53333	-91.507	99.118	100.873	249.056	124.925	-39.281	188.349	245.858	59.769	52.987	-64.903	254.055	209.748	185.693	129.902	222.759	0.00038429	0.00047773	0.00010781	1033.5	4.9139e-06	9.6941e-06	1036.7	408.9	1.0202e-05	6.5482e-06	427.64	170.9	156.26	70.681	8.1435e-06	80.368	0.0011304	0.0011856	0.00032889	962.66	1.283e-05	1.3072e-05	966.08	381.66	1.2972e-05	1.3246e-05	400.28	160.53	146.85	66.364	1.3095e-05	75.311	-74.650	-79.280	26.051	-91.735	142.995	20.226	-92.838	-86.265	76.867	60.158	-88.506	-84.186	-81.445	-76.812	81.537	-80.360	-8191	255	
1816.402	1	1	0	0	0.42199	0.054874	0.17683	0.22747	0.21147	0.10725	0.14807	0.35052	0.074058	0.082853	0.14879	0.16181	0.14656	0.11786	0.043172	0.07396	0.75625	-0.25417	0.13333	0.32708	-0.14792	0.30833	0.09375	-0.63542	0.58333	-0.23125	-0.23542	0.36458	-0.4125	0.12708	0.19375	-0.35	-21.405	144.100	-99.113	231.660	242.161	137.811	191.453	225.348	102.495	-59.038	-90.431	141.253	-93.543	207.066	198.299	-38.538	0.00039615	0.00094999	0.00011689	1035.2	6.651e-06	3.4556e-06	1037.7	410.14	3.753e-06	1.2963e-05	429.25	171.49	155.73	69.715	6.451e-06	80.009	0.0011137	0.0011886	0.00032662	962.54	1.3058e-05	1.297e-05	968.24	381.78	1.2822e-05	1.2689e-05	401.99	160.1	145.85	65.662	1.2442e-05	74.933	-47.824	18.969	23.743	-91.553	66.589	45.659	-93.196	-86.649	17.560	20.414	-88.509	-84.229	-81.635	-77.090	36.472	-80.298	-8191	255	
1816.498	1	1	0	0	0.098443	0.040171	0.18071	0.32736	0.033497	0.28944	0.16333	0.32315	0.24154	0.036255	0.083509	0.19197	0.28181	0.16476	0.15649	0.11725	0.90417	-0.19583	0.00625	0.45208	-0.30833	0.28958	0.1125	-0.40833	0.43958	-0.058333	-0.36875	0.4125	-0.30417	0.060417	0.46042	-0.39167	173.665	58.723	174.904	244.083	175.380	119.935	-97.575	176.313	41.732	-12.976	157.973	189.287	245.843	232.070	-88.097	-64.488	0.00048509	0.00096591	3.8269e-05	1039.5	1.3131e-05	5.8957e-06	1052	409.24	1.4719e-06	1.4571e-05	427.77	169.62	154.88	68.916	5.2578e-06	79.214	0.0010957	0.0011518	0.00031851	966.22	1.2727e-05	1.2725e-05	976.84	381.17	1.2516e-05	1.2416e-05	400.82	159.18	145.13	64.793	1.2388e-05	73.757	-71.886	43.385	154.893	-91.715	29.601	-28.631	-93.005	-86.166	69.129	4.650	-88.341	-83.854	-81.464	-76.795	1.650	-80.096	-8191	255	
1816.594	1	1	0	0	0.1837	0.26746	0.25113	0.26846	0.16328	0.073696	0.19542	0.10133	0.1464	0.19225	0.16149	0.32617	0.41572	0.33912	0.27686	0.10395	0.85625	0.060417	-0.24792	0.39375	-0.23125	0.10625	0.175	-0.43542	0.31042	0.13125	-0.2125	0.61042	-0.21042	-0.045833	0.39167	-0.33333	1.773	-47.518	-59.142	-98.578	204.803	-97.441	225.466	-12.881	-60.797	97.305	231.623	213.158	253.556	197.277	11.450	181.608	0.00045078	0.00073022	0.00040497	1030	5.6621e-06	8.7112e-06	1043.1	404.55	4.7964e-06	1.2487e-05	426.9	168.89	153.69	68.673	8.8548e-06	77.836	0.0010848	0.0011297	0.00032005	958.08	1.2503e-05	1.2731e-05	969.51	377.92	1.2564e-05	1.2743e-05	398.35	158	144.5	64.071	1.3176e-05	72.858	-64.808	55.332	4.697	-91.722	51.206	56.553	-92.861	-86.337	82.600	20.583	-88.412	-84.175	-81.384	-76.865	70.064	-80.218	-8191	255	
1816.691	1	1	0	0	0.35502	0.15877	0.25708	0.3903	0.12487	0.079322	0.07491	0.20492	0.23419	0.036324	0.23594	0.09692	0.282	0.075504	0.15159	0.31057	0.90208	0.21667	-0.054167	0.59167	0.05	0.06875	0.44583	-0.38333	0.20208	0.28958	-0.55625	0.43542	-0.13958	-0.11667	0.44583	-0.26042	253.775	-55.824	-38.499	210.526	119.606	-40.563	250.933	255.362	231.908	135.813	182.172	234.340	226.666	-98.512	145.296	194.876	0.00039899	0.00084669	0.00032829	1032.3	6.9491e-06	4.7599e-06	1036.4	402.75	7.6448e-06	1.0154e-05	422.18	166.58	152.71	67.569	6.4083e-06	76.973	0.0011001	0.0011964	0.00033692	956.24	1.3138e-05	1.3488e-05	964.39	375.23	1.3299e-05	1.3482e-05	397.52	156.8	143.45	63.495	1.389e-05	72.397	-63.678	-36.070	12.168	-91.697	79.964	61.387	-92.978	-86.090	20.734	55.316	-88.454	-84.180	-81.302	-76.852	19.676	-80.072	-8191	255	
1816.787	1	1	0	0	0.11744	0.1966	0.093646	0.10654	0.34826	0.12246	0.23493	0.3263	0.0278	0.25176	0.38815	0.21524	0.17175	0.36169	0.10311	0.13309	0.66875	0.38542	-0.34167	0.38542	-0.077083	-0.075	0.34375	-0.47708	0.31667	0.19583	-0.4125	0.19167	0.070833	-0.125	0.64792	-0.28125	66.876	196.489	17.129	196.465	25.914	243.866	219.896	222.667	227.406	-30.763	178.599	-58.288	167.723	-96.743	204.303	118.963	0.00038212	0.00011853	0.00016237	1021	5.7863e-06	9.5989e-06	1029.2	397.73	3.1609e-06	5.988e-06	418.83	168.21	153.21	66.402	1.358e-05	76.02	0.0011867	0.0013124	0.00037495	951.22	1.4331e-05	1.4927e-05	954.96	372.99	1.5104e-05	1.5695e-05	394.06	158.41	144.31	62.641	1.6937e-05	71.761	-45.196	225.893	-76.674	-92.113	246.555	56.556	-93.004	-86.007	-32.378	15.814	-88.317	-84.154	-81.264	-76.594	66.770	-80.414	-8191	255	
#DATA ENDS
