BOXY.EXE: ISS Imagent and Oximeter Data Acquisition Program Version 0.80
Ascii Record File

#ACQ INFORMATION
2  Detector Channels 
16  External MUX Channels 
1  Auxiliary Channels 
5000  Waveform (CCF) Frequency (Hz)
1  Waveforms Skipped 
30  Waveforms Averaged 
1  Cycles Averaged 
16  Acquisitions per Waveform 
10.0806  Updata Rate (Hz) 

#FILE INFORMATION
TRUE -- External MUX Channel results are PARSED.
FALSE -- AC DC and Phase are NOT grouped.
TRUE -- Companion Program Settings File CREATED.
FALSE -- AC data not excluded
FALSE -- DC data not excluded
FALSE -- Phase data not excluded
FALSE -- Auxillary Chn. data not excluded
Tab delimiters

#CALIBRATION STATE
TRUE -- Waveform Calibration Values APPLIED.


#AUX CALIBRATION VALUES
Val Type	aux-1	

Term	1.0000e+00	
Factor	0.0000e+00	


#WF CALIBRATION VALUES
A = Detector Channel
Val Type	A-AC1	A-AC2	A-AC3	A-AC4	A-AC5	A-AC6	A-AC7	A-AC8	A-AC9	A-AC10	A-AC11	A-AC12	A-AC13	A-AC14	A-AC15	A-AC16	A-DC1	A-DC2	A-DC3	A-DC4	A-DC5	A-DC6	A-DC7	A-DC8	A-DC9	A-DC10	A-DC11	A-DC12	A-DC13	A-DC14	A-DC15	A-DC16	A-Ph1	A-Ph2	A-Ph3	A-Ph4	A-Ph5	A-Ph6	A-Ph7	A-Ph8	A-Ph9	A-Ph10	A-Ph11	A-Ph12	A-Ph13	A-Ph14	A-Ph15	A-Ph16	

Term	0.00000e+00	0.00000e+00	0.00000e+00	0.00000e+00	0.00000e+00	0.00000e+00	0.00000e+00	0.00000e+00	0.00000e+00	0.00000e+00	0.00000e+00	0.00000e+00	0.00000e+00	0.00000e+00	0.00000e+00	0.00000e+00	0.00000e+00	0.00000e+00	0.00000e+00	0.00000e+00	0.00000e+00	0.00000e+00	0.00000e+00	0.00000e+00	0.00000e+00	0.00000e+00	0.00000e+00	0.00000e+00	0.00000e+00	0.00000e+00	0.00000e+00	0.00000e+00	0.00000e+00	0.00000e+00	0.00000e+00	0.00000e+00	0.00000e+00	0.00000e+00	0.00000e+00	0.00000e+00	0.00000e+00	0.00000e+00	0.00000e+00	0.00000e+00	0.00000e+00	0.00000e+00	0.00000e+00	0.00000e+00	
Factor	1.00000e+00	1.00000e+00	1.00000e+00	1.00000e+00	1.00000e+00	1.00000e+00	1.00000e+00	1.00000e+00	1.00000e+00	1.00000e+00	1.00000e+00	1.00000e+00	1.00000e+00	1.00000e+00	1.00000e+00	1.00000e+00	1.00000e+00	1.00000e+00	1.00000e+00	1.00000e+00	1.00000e+00	1.00000e+00	1.00000e+00	1.00000e+00	1.00000e+00	1.00000e+00	1.00000e+00	1.00000e+00	1.00000e+00	1.00000e+00	1.00000e+00	1.00000e+00	X	X	X	X	X	X	X	X	X	X	X	X	X	X	X	X	

B = Detector Channel
Val Type	B-AC1	B-AC2	B-AC3	B-AC4	B-AC5	B-AC6	B-AC7	B-AC8	B-AC9	B-AC10	B-AC11	B-AC12	B-AC13	B-AC14	B-AC15	B-AC16	B-DC1	B-DC2	B-DC3	B-DC4	B-DC5	B-DC6	B-DC7	B-DC8	B-DC9	B-DC10	B-DC11	B-DC12	B-DC13	B-DC14	B-DC15	B-DC16	B-Ph1	B-Ph2	B-Ph3	B-Ph4	B-Ph5	B-Ph6	B-Ph7	B-Ph8	B-Ph9	B-Ph10	B-Ph11	B-Ph12	B-Ph13	B-Ph14	B-Ph15	B-Ph16	

Term	0.00000e+00	0.00000e+00	0.00000e+00	0.00000e+00	0.00000e+00	0.00000e+00	0.00000e+00	0.00000e+00	0.00000e+00	0.00000e+00	0.00000e+00	0.00000e+00	0.00000e+00	0.00000e+00	0.00000e+00	0.00000e+00	0.00000e+00	0.00000e+00	0.00000e+00	0.00000e+00	0.00000e+00	0.00000e+00	0.00000e+00	0.00000e+00	0.00000e+00	0.00000e+00	0.00000e+00	0.00000e+00	0.00000e+00	0.00000e+00	0.00000e+00	0.00000e+00	-2.96995e+01	-1.33769e+02	-1.26516e+02	-1.84058e+02	-3.99527e+01	-6.47538e+01	-1.56688e+02	-1.62015e+02	-4.30249e+01	-7.73077e+01	-1.71935e+02	-1.70049e+02	-1.80086e+02	-1.77848e+02	-5.58511e+01	-1.50534e+02	
Factor	2.88775e-05	1.68689e-04	4.92294e-05	1.52286e-01	1.73567e-06	1.67541e-06	1.71212e-01	6.27324e-02	1.47108e-06	2.05293e-06	9.73605e-02	3.15056e-02	2.51475e-02	1.01407e-02	1.80213e-06	1.43710e-02	4.62138e-06	5.26198e-06	1.46997e-06	7.92126e-02	5.64241e-08	5.80173e-08	8.33705e-02	3.25776e-02	5.66462e-08	5.81525e-08	4.88203e-02	1.58724e-02	1.31955e-02	5.30411e-03	5.73294e-08	7.26215e-03	X	X	X	X	X	X	X	X	X	X	X	X	X	X	X	X	



#DISTANCE SETTINGS
A = Detector Channel
A-1	A-2	A-3	A-4	A-5	A-6	A-7	A-8	A-9	A-10	A-11	A-12	A-13	A-14	A-15	A-16	

2.5000e+00	3.0000e+00	2.5000e+00	3.0000e+00	2.0000e+00	3.0000e+00	1.5000e+00	3.0000e+00	3.0000e+00	3.0000e+00	3.0000e+00	3.0000e+00	3.0000e+00	3.0000e+00	1.5000e+00	3.0000e+00	

B = Detector Channel
B-1	B-2	B-3	B-4	B-5	B-6	B-7	B-8	B-9	B-10	B-11	B-12	B-13	B-14	B-15	B-16	

1.0000e+01	1.0000e+01	1.0000e+01	1.4400e+00	1.0000e+01	1.0000e+01	1.5100e+00	1.9400e+00	1.0000e+01	1.0000e+01	1.9900e+00	2.4900e+00	2.4100e+00	2.9000e+00	1.0000e+01	2.9800e+00	




#DATA BEGINS
time	group	step	mark	flag	A-AC1	A-AC2	A-AC3	A-AC4	A-AC5	A-AC6	A-AC7	A-AC8	A-AC9	A-AC10	A-AC11	A-AC12	A-AC13	A-AC14	A-AC15	A-AC16	A-DC1	A-DC2	A-DC3	A-DC4	A-DC5	A-DC6	A-DC7	A-DC8	A-DC9	A-DC10	A-DC11	A-DC12	A-DC13	A-DC14	A-DC15	A-DC16	A-Ph1	A-Ph2	A-Ph3	A-Ph4	A-Ph5	A-Ph6	A-Ph7	A-Ph8	A-Ph9	A-Ph10	A-Ph11	A-Ph12	A-Ph13	A-Ph14	A-Ph15	A-Ph16	B-AC1	B-AC2	B-AC3	B-AC4	B-AC5	B-AC6	B-AC7	B-AC8	B-AC9	B-AC10	B-AC11	B-AC12	B-AC13	B-AC14	B-AC15	B-AC16	B-DC1	B-DC2	B-DC3	B-DC4	B-DC5	B-DC6	B-DC7	B-DC8	B-DC9	B-DC10	B-DC11	B-DC12	B-DC13	B-DC14	B-DC15	B-DC16	B-Ph1	B-Ph2	B-Ph3	B-Ph4	B-Ph5	B-Ph6	B-Ph7	B-Ph8	B-Ph9	B-Ph10	B-Ph11	B-Ph12	B-Ph13	B-Ph14	B-Ph15	B-Ph16	aux-1	digaux	

1789.104	1	1	0	512	0.2048	0.26201	0.12534	0.076656	0.24026	0.18952	0.1786	0.32544	0.086082	0.11109	0.21165	0.11815	0.3393	0.26156	0.1489	0.51496	1.0063	0.045833	-0.14167	0.37917	-0.09375	0.27917	0.125	-0.39375	0.46667	0.1	-0.4125	0.52292	-0.16667	-0.19167	0.3875	-0.475	68.243	141.642	140.297	176.458	186.190	47.028	122.997	-54.324	113.296	-29.207	-72.438	242.787	150.697	-84.780	95.132	175.906	0.00059849	0.0009317	0.00011204	1266.2	9.8684e-06	2.897e-06	1256.4	456.99	2.2522e-06	1.5252e-05	491.09	195.21	173.8	88.697	1.1592e-06	99.972	0.0011479	0.00119	0.00032755	1174	1.276e-05	1.3073e-05	1162.9	425.86	1.2645e-05	1.2983e-05	455.8	182.81	163.27	82.92	1.2697e-05	93.271	-63.994	-19.156	101.344	-92.863	88.544	11.195	-93.877	-87.588	-23.133	36.451	-89.452	-85.026	-82.273	-78.235	235.538	-81.481	-8191	255	
1789.225	1	1	0	0	0.15233	0.20987	0.1431	0.2007	0.09443	0.14687	0.18348	0.23322	0.1428	0.15318	0.24723	0.16228	0.22274	0.19765	0.10576	0.4073	0.79167	0.029167	-0.10833	0.37292	-0.095833	-0.10208	0.052083	-0.33958	0.46042	0.09375	-0.50833	0.4125	-0.31667	-0.16667	0.31667	-0.55	-59.932	28.853	-46.539	235.562	13.913	178.133	87.210	-98.959	-82.572	20.289	200.462	236.293	-91.900	238.989	31.791	200.145	0.00067698	0.00062799	0.00015396	1267.2	6.0964e-06	8.4368e-06	1255.8	455.38	1.0115e-05	8.0059e-06	486.15	195.6	174.79	88.076	7.2721e-06	99.861	0.0011144	0.0012003	0.00032587	1173.2	1.2721e-05	1.2937e-05	1162.7	424.82	1.309e-05	1.3138e-05	454.64	182.85	163.21	82.592	1.3108e-05	93.314	-71.227	5.135	-88.661	-92.883	85.928	95.863	-94.033	-87.356	81.487	126.792	-89.297	-84.856	-82.499	-77.998	-22.129	-81.360	-8191	255	
1789.296	1	1	0	0	0.10655	0.31076	0.099071	0.4236	0.12869	0.072144	0.37283	0.14169	0.27737	0.26832	0.17866	0.054146	0.10228	0.14748	0.30928	0.091443	0.67292	0.4	-0.28542	0.43542	-0.19583	-0.070833	0.30625	-0.28125	0.2875	0.35	-0.23125	0.33958	-0.15	-0.33958	0.55208	-0.30625	-47.477	78.246	-61.088	-99.142	162.726	217.621	225.235	-95.805	155.465	233.745	194.329	-71.944	57.554	139.718	120.002	186.083	0.00045714	0.0011904	0.00042585	1263.2	3.0828e-06	9.5584e-06	1254.2	458.96	3.117e-06	1.3976e-05	490.52	196.17	175.34	88.887	2.881e-06	100.59	0.0011765	0.0012027	0.00033396	1170.1	1.3168e-05	1.3323e-05	1163.2	425.99	1.3076e-05	1.3555e-05	456.38	183.61	163.38	82.895	1.3153e-05	93.968	-59.207	9.044	18.781	-92.910	54.147	8.848	-93.759	-87.484	45.681	77.945	-89.404	-84.716	-82.269	-78.245	39.510	-81.410	-8191	255	
1789.393	1	1	0	0	0.18521	0.32401	0.11717	0.36284	0.097885	0.16771	0.22809	0.19523	0.08566	0.097753	0.30872	0.21428	0.38065	0.31022	0.13885	0.34447	0.45417	0.36875	-0.13125	0.30417	0.077083	0.035417	0.275	-0.11458	0.091667	0.525	-0.42083	0.35625	-0.12708	-0.30417	0.51042	-0.41042	172.556	110.009	-49.867	224.470	69.610	32.253	-26.079	-100.417	-36.770	18.981	156.171	193.711	209.719	-62.034	-19.862	133.129	0.00070294	0.0016946	0.00016299	1264.3	1.229e-05	7.154e-06	1260.9	459.36	7.1115e-06	2.3502e-05	488.02	196.64	175.25	88.992	1.6173e-05	100.38	0.0011576	0.0011968	0.00033391	1172.6	1.3046e-05	1.3147e-05	1166.4	427.52	1.3167e-05	1.3235e-05	456.75	184.02	163.81	83.185	1.3239e-05	93.93	-68.656	-49.475	40.313	-92.900	68.330	31.191	-94.085	-87.645	-26.167	34.914	-89.180	-84.915	-82.141	-78.098	32.611	-81.266	-8191	255	
1789.489	1	1	0	0	0.040495	0.047519	0.21515	0.28154	0.09422	0.26321	0.29302	0.12887	0.14036	0.1507	0.24818	0.27794	0.14827	0.22749	0.23084	0.21954	0.45208	0.40208	-0.17292	0.05	0.17292	-0.43958	0.36042	-0.3625	0.014583	0.36875	-0.30417	0.0375	0.18333	-0.50417	0.55833	-0.1	-84.418	131.474	-40.751	198.696	-92.042	60.620	216.465	211.056	107.024	92.728	-64.885	204.969	186.572	-92.886	103.535	223.922	0.00044025	0.0013949	0.00036381	1270.3	9.0898e-06	1.1429e-05	1259.4	460.1	8.5079e-06	5.658e-06	490.54	198.23	176.74	89.121	9.1423e-06	100.82	0.0011294	0.0011931	0.00033412	1175.4	1.3001e-05	1.3076e-05	1168.2	427.59	1.3008e-05	1.3036e-05	458.38	184.85	164.79	83.359	1.3322e-05	94.106	-63.057	-31.834	-74.067	-92.637	87.369	9.883	-94.299	-87.266	41.786	20.780	-89.418	-85.190	-82.274	-78.070	41.288	-81.353	-8191	255	
1789.608	1	1	0	0	0.16696	0.25293	0.19416	0.2555	0.041972	0.071007	0.23786	0.38602	0.26412	0.081451	0.35996	0.14535	0.19796	0.14786	0.198	0.38897	0.20833	0.60625	-0.13125	-0.10833	0.21042	-0.066667	0.34792	-0.0083333	0.03125	0.53958	-0.43125	0.11458	0.19167	-0.58333	0.4125	-0.0375	128.922	202.973	-21.793	236.203	111.179	-58.754	160.260	-99.626	243.726	28.384	177.654	238.574	241.308	231.779	-35.437	209.247	0.00060649	0.00078411	0.00027021	1265.9	1.734e-06	8.3626e-06	1270.7	463.69	7.8002e-06	1.7664e-05	494.31	198.12	176.48	89.601	1.1999e-05	101.54	0.0011492	0.0011897	0.00033872	1173.8	1.2801e-05	1.3092e-05	1171.2	430.05	1.3012e-05	1.3181e-05	461.78	185.44	164.95	83.559	1.3252e-05	94.709	-62.439	-39.590	-66.428	-92.939	-18.797	29.109	-94.127	-87.387	121.064	33.125	-89.391	-84.814	-82.283	-77.995	50.334	-81.489	-8191	255	
1789.704	1	1	0	0	0.0667	0.42883	0.22832	0.14742	0.081735	0.18014	0.24626	0.38303	0.29125	0.17331	0.11133	0.27002	0.32801	0.19744	0.10433	0.13914	0.3	0.57292	-0.29792	-0.077083	0.27708	-0.28542	0.22292	-0.15833	-0.16667	0.45208	-0.21875	-0.029167	0.34375	-0.64167	0.37292	-0.027083	-45.085	50.987	231.310	143.303	75.668	35.000	178.480	249.905	-59.504	185.964	42.683	-42.338	-72.485	136.889	189.293	177.895	0.00044724	0.00050928	0.00025853	1264.4	6.7559e-06	6.4046e-06	1270.1	460.01	7.1132e-06	2.0231e-06	497.27	199.05	176.73	89.311	7.0848e-06	102.59	0.0011574	0.0011859	0.00033824	1174.1	1.2705e-05	1.3039e-05	1175.9	429.99	1.2824e-05	1.3004e-05	462.09	186.22	165.04	83.703	1.2939e-05	95.43	-62.402	-53.839	-31.686	-92.715	38.223	23.996	-93.976	-87.185	25.398	27.328	-89.575	-84.966	-82.266	-78.218	34.285	-81.414	-8191	255	
1789.800	1	1	0	0	0.27013	0.17522	0.38181	0.17479	0.17221	0.17791	0.11268	0.15451	0.30159	0.066797	0.46141	0.11546	0.094036	0.16346	0.29998	0.45613	-0.089583	0.6	-0.125	-0.14792	0.65833	-0.31458	0.21458	0.12708	-0.29792	0.525	-0.0020833	-0.14583	0.31458	-0.53125	0.32292	0.033333	190.488	188.426	-64.675	65.142	13.955	249.239	194.517	217.418	224.199	61.931	-95.464	211.537	153.692	-49.471	205.561	237.005	0.00054472	0.0011294	3.9394e-05	1274.8	8.0217e-06	1.4505e-05	1267.2	461.37	7.1028e-06	1.3274e-05	491.56	198.42	175.79	89.056	6.7462e-06	100.98	0.0011084	0.0011527	0.00032132	1177.4	1.256e-05	1.2594e-05	1173.3	428.38	1.2853e-05	1.2901e-05	460.57	185.42	164.52	83.439	1.2878e-05	94.492	-63.393	-43.021	243.838	-93.035	97.335	53.383	-93.832	-87.473	39.972	48.631	-89.403	-85.148	-82.023	-77.716	11.151	-81.188	-8191	255	
1789.873	1	1	0	0	0.25195	0.25886	0.013188	0.30063	0.3209	0.015355	0.068616	0.16044	0.024296	0.089085	0.087859	0.20798	0.17541	0.37221	0.26521	0.12401	0.05625	0.48125	-0.045833	-0.38542	0.66667	-0.28542	-0.08125	0.047917	-0.4375	0.30833	-0.041667	-0.20208	0.22292	-0.50208	-0.03125	0.075	-35.831	-34.174	248.739	136.994	224.830	115.578	150.303	194.904	149.951	-72.674	212.144	253.959	251.837	-96.922	183.927	186.784	0.00048912	0.00068535	4.963e-05	1266.1	6.536e-06	3.2885e-06	1262.7	461.57	8.2083e-06	5.8913e-06	492.25	197.63	174.74	88.984	5.0073e-06	101.21	0.0011355	0.0011761	0.00032843	1174.2	1.2617e-05	1.2992e-05	1171	427.54	1.2627e-05	1.2986e-05	458.83	184.93	163.72	83.354	1.2607e-05	94.256	-64.400	-54.843	-17.429	-92.597	85.015	-0.983	-94.104	-87.277	57.880	74.323	-89.244	-85.099	-82.259	-78.045	-86.838	-81.383	-8191	255	
1789.992	1	1	0	0	0.25206	0.084461	0.12908	0.50307	0.14505	0.15453	0.15194	0.10361	0.24051	0.069474	0.18703	0.153	0.10029	0.4311	0.10739	0.065247	-0.11042	0.39167	0.091667	-0.61667	0.3	-0.22708	-0.064583	0.225	-0.28542	0.225	0.097917	-0.40833	0.28542	-0.30417	-0.15417	0.5	-35.978	-85.763	-34.265	234.948	165.813	185.066	-30.592	-80.488	179.598	83.162	200.166	-13.711	-84.906	225.657	155.777	208.451	0.00057719	0.001194	5.4908e-05	1266.2	1.1091e-05	9.0412e-06	1266.1	459.36	9.1921e-06	6.6597e-06	491.17	199.26	175.53	89.159	6.2464e-06	101.72	0.0011326	0.0011786	0.00032337	1174.8	1.2681e-05	1.3037e-05	1170.5	427.31	1.2587e-05	1.2791e-05	459.29	185.62	164.46	83.575	1.2672e-05	94.922	-55.273	-41.922	18.541	-92.651	60.785	27.632	-94.116	-87.252	31.621	62.722	-89.451	-85.108	-82.499	-77.929	82.766	-81.432	-8191	255	
1790.088	1	1	0	0	0.23915	0.081352	0.091442	0.17967	0.1488	0.12105	0.049947	0.011054	0.13475	0.030272	0.087114	0.28976	0.068923	0.16438	0.094297	0.51818	-0.24792	0.29375	0.31875	-0.41458	0.33333	-0.027083	-0.54583	0.4125	-0.28542	0.39167	0.08125	-0.46042	0.325	-0.27083	-0.2375	0.275	-68.988	38.793	242.958	198.026	84.067	-50.063	-71.242	208.293	182.823	81.652	199.883	226.342	82.839	196.668	63.845	221.647	0.00057719	0.00091106	0.00031769	1271	9.5844e-06	7.4248e-06	1272.2	461.09	1.1284e-05	8.9591e-06	495.94	200.52	175.2	89.73	6.3012e-06	102.8	0.0011296	0.0011774	0.00032334	1176.9	1.2617e-05	1.2855e-05	1175.3	428.48	1.2784e-05	1.2784e-05	462.39	186.85	164.55	83.971	1.2601e-05	95.757	-73.706	-50.232	-30.536	-92.839	44.178	85.801	-94.182	-87.472	46.613	68.111	-89.221	-84.553	-82.400	-78.036	102.867	-81.244	-8191	255	
1790.185	1	1	0	0	0.22291	0.30248	0.1227	0.2257	0.26489	0.18927	0.081509	0.2355	0.21578	0.12659	0.34203	0.15639	0.16639	0.31094	0.1924	0.26031	0.27292	0.1	0.43958	-0.53542	0.41458	0.15417	-0.43958	0.31458	-0.17083	0.05	0.33333	-0.475	0.33125	0.03125	-0.24583	0.35417	174.036	194.745	-70.924	254.149	40.533	-17.703	25.396	0.938	136.951	210.526	-99.013	-86.023	220.165	207.337	163.609	214.421	0.00048023	0.00055012	0.00020903	1279.7	1.6517e-05	1.0305e-05	1272.1	460.15	6.0415e-06	5.1797e-06	497.87	201.48	176.09	89.94	4.2593e-06	101.81	0.0011135	0.001146	0.00032632	1179.9	1.2324e-05	1.2706e-05	1178.4	428.38	1.2588e-05	1.2606e-05	462.82	187.85	165.21	84.073	1.2349e-05	95.374	-60.741	-22.689	-2.544	-92.882	55.725	22.635	-94.048	-87.066	90.650	-5.515	-89.351	-84.715	-82.162	-77.935	49.363	-81.247	-8191	255	
1790.305	1	1	0	0	0.13576	0.13243	0.2808	0.065301	0.13117	0.15268	0.29838	0.13232	0.23566	0.037844	0.24159	0.094268	0.17682	0.23037	0.12682	0.10011	0.045833	0.16458	0.52917	-0.45417	0.16667	0.12917	-0.49583	0.4	-0.16458	-0.24583	0.39583	-0.29167	0.1125	0.1	-0.49583	0.33958	-3.928	74.219	241.857	-63.949	232.552	-18.114	189.340	219.832	-18.704	86.542	253.233	194.234	186.257	-95.487	-86.436	-33.934	0.00053912	0.00064067	0.00027753	1276	8.6097e-06	1.0461e-05	1275	461.82	4.9348e-06	8.2908e-06	493.91	201.13	176.85	90.276	5.9903e-06	103.22	0.0010944	0.0011383	0.00031531	1179.9	1.2375e-05	1.2341e-05	1181.2	428.62	1.2477e-05	1.2599e-05	461.65	187.8	165.28	84.399	1.2515e-05	95.962	-65.490	54.583	35.654	-92.581	70.572	27.399	-94.093	-87.313	250.329	61.398	-89.322	-84.542	-81.993	-77.701	73.879	-81.156	-8191	255	
1790.401	1	1	0	0	0.21199	0.16119	0.037531	0.13797	0.089067	0.10385	0.16915	0.42014	0.11803	0.26106	0.10324	0.20348	0.29645	0.040507	0.21218	0.18432	0.13333	-0.1875	0.5125	-0.58542	0.325	0.45	-0.47917	0.33125	0.0041667	-0.091667	0.43125	-0.3	0.04375	0.17708	-0.13542	0.20833	32.371	190.656	225.418	222.495	-102.933	214.320	150.612	200.071	35.005	212.427	-8.745	-63.503	168.507	233.970	179.374	118.510	0.00052789	0.00096156	0.00019595	1277.1	5.4185e-06	6.9542e-06	1286.1	460.97	8.8736e-06	7.8381e-06	497.92	201.72	177.2	90.439	1.7646e-05	103.44	0.0010923	0.0011447	0.00031717	1183.2	1.2186e-05	1.2362e-05	1183.9	428.14	1.2159e-05	1.2309e-05	464.18	188.36	165.48	84.703	1.242e-05	96.506	-61.881	-73.585	2.963	-92.810	107.429	-18.790	-93.876	-87.342	37.362	-98.665	-89.253	-85.009	-82.227	-77.949	92.977	-81.306	-8191	255	
1790.497	1	1	0	0	0.06997	0.10492	0.082418	0.4504	0.16206	0.24919	0.25019	0.54187	0.12931	0.10619	0.25661	0.28171	0.2118	0.16837	0.31317	0.074593	0.37708	-0.075	0.6875	-0.3125	0.027083	0.3	-0.56042	0.33958	0.16458	-0.22292	0.38125	-0.35	-0.17292	0.34375	-0.35208	0.04375	120.979	-50.522	224.196	225.998	156.972	-54.014	147.457	179.664	13.675	90.818	-48.350	241.029	-82.651	177.860	-7.918	168.837	0.00060087	0.0013823	0.00022757	1277.3	5.6571e-06	1.3344e-05	1273.2	464.33	3.1169e-06	1.5073e-06	500.25	203.21	176.09	90.695	5.227e-06	103.08	0.001098	0.0011398	0.00032228	1182.2	1.2491e-05	1.2536e-05	1182.1	430.07	1.2497e-05	1.267e-05	465.53	189.54	165.41	84.659	1.285e-05	96.532	-59.404	-9.940	-60.338	-92.662	193.861	38.601	-93.770	-87.679	136.380	60.695	-89.168	-84.937	-82.096	-77.924	20.313	-81.313	-8191	255	
1790.594	1	1	0	0	0.30587	0.2094	0.094696	0.26165	0.050316	0.19117	0.41936	0.41546	0.18037	0.20859	0.073456	0.25042	0.11964	0.057443	0.16003	0.2201	0.62083	-0.08125	0.51667	-0.23125	-0.21667	0.52708	-0.57708	0.2	0.27083	-0.18125	0.36875	-0.11458	-0.19792	0.34167	-0.26458	0.052083	-103.576	170.937	-50.383	213.581	118.910	16.884	177.018	219.975	-51.430	210.282	-47.606	248.302	238.432	172.240	162.366	232.657	0.00057608	0.00082752	0.00011644	1266.4	5.9663e-06	4.3528e-06	1273.2	459.97	6.6632e-06	1.1909e-05	494.83	201.33	176.37	89.567	3.1444e-06	102.41	0.00112	0.0011756	0.00032704	1179.3	1.2456e-05	1.3011e-05	1179.8	428.31	1.2622e-05	1.2691e-05	463.26	188.1	164.89	84.027	1.2982e-05	95.825	-56.960	-40.440	32.947	-92.583	92.961	-21.918	-93.708	-87.419	74.445	42.844	-89.187	-84.578	-82.300	-77.694	-42.865	-81.381	-8191	255	
1790.690	1	1	0	0	0.028066	0.21891	0.13062	0.16285	0.10888	0.11877	0.37552	0.11003	0.29221	0.10458	0.15361	0.2228	0.30569	0.29791	0.29893	0.51771	0.72292	-0.27708	0.55417	-0.28333	-0.19792	0.79583	-0.51042	0.1125	0.42083	-0.13125	0.58958	0.06875	-0.34167	0.35833	-0.058333	-0.275	-5.660	81.466	147.996	146.177	158.195	-22.009	180.247	246.798	-89.211	79.430	-54.462	212.611	238.407	137.216	72.218	192.758	0.00054152	0.0015578	0.00022026	1270.3	9.7201e-06	1.3436e-05	1280.1	462.49	1.1189e-05	1.289e-05	495.17	201.89	176.44	89.993	5.789e-06	103.25	0.0011477	0.0011931	0.00032858	1177.3	1.2653e-05	1.2953e-05	1181.4	428.82	1.2688e-05	1.2931e-05	463.66	188.33	165.14	84.269	1.2789e-05	96.107	-65.657	-18.176	5.414	-92.406	102.378	29.808	-93.577	-87.445	61.386	-16.321	-89.002	-84.507	-82.036	-77.805	-32.856	-81.158	-8191	255	
1790.784	1	1	0	0	0.062777	0.036897	0.27075	0.12666	0.049779	0.26468	0.31786	0.090453	0.11811	0.37137	0.16355	0.092289	0.20309	0.17358	0.06705	0.25373	0.75208	-0.24792	0.40625	0.0125	-0.0625	0.54167	-0.46458	-0.058333	0.23333	-0.31042	0.21042	0.1625	-0.40625	0.46667	-0.085417	-0.17083	198.022	229.910	8.193	198.186	4.944	203.067	172.783	56.284	246.947	157.358	207.345	220.106	153.417	228.420	19.682	211.740	0.00054278	0.0013369	0.00030639	1268.8	8.3726e-06	6.3904e-06	1278.8	463.97	1.0317e-05	9.2737e-06	497.79	202.03	177.61	90.099	1.5251e-05	103.92	0.0011187	0.0011839	0.0003231	1178.6	1.2476e-05	1.3017e-05	1183.7	429.26	1.2826e-05	1.2799e-05	464.69	188.79	165.6	84.392	1.2958e-05	96.591	-60.087	-38.746	-29.981	-92.322	93.278	89.115	-93.389	-87.074	85.257	69.206	-89.213	-84.521	-82.094	-77.796	87.368	-80.872	-8191	255	
1790.905	1	1	0	0	0.22952	0.11494	0.053251	0.12246	0.31941	0.26523	0.37783	0.14275	0.19109	0.12336	0.2867	0.065138	0.3002	0.26833	0.13441	0.19689	0.775	-0.22292	0.41875	0.0875	-0.054167	0.55	-0.32083	-0.10625	0.5625	-0.25833	0.091667	0.13542	-0.5875	0.29375	0.016667	-0.22083	163.240	121.152	-33.418	252.463	95.634	38.948	213.890	237.880	-38.505	93.042	236.200	-30.098	208.320	176.476	251.407	195.821	0.00061408	0.0013693	0.00044877	1275.2	7.2409e-06	3.6633e-06	1288.1	460.7	2.5751e-06	1.8612e-05	500.08	203.81	177.64	90.43	1.1696e-05	103.77	0.0011318	0.0011885	0.00032753	1179.2	1.305e-05	1.3179e-05	1187.8	429.79	1.3002e-05	1.3186e-05	466.89	189.65	166.07	84.532	1.2989e-05	96.915	-70.056	-26.905	-95.124	-92.526	91.513	127.691	-93.312	-86.866	113.640	32.556	-88.856	-84.349	-81.997	-77.409	102.471	-80.767	-8191	255	
1791.001	1	1	0	0	0.083641	0.053584	0.086069	0.35085	0.24794	0.11225	0.2764	0.12659	0.33942	0.20896	0.29269	0.30714	0.26521	0.044964	0.12442	0.23012	0.90417	-0.22083	0.0125	0.31042	-0.37917	0.48958	-0.1125	-0.48333	0.59167	-0.19375	0.18125	0.34792	-0.52292	0.06875	0.18958	-0.38958	-78.288	17.487	149.859	184.981	213.927	150.974	198.519	245.715	142.811	243.919	236.704	-88.044	223.569	-25.579	1.149	111.265	0.00050927	0.0014648	0.0003158	1276.7	5.9386e-06	7.14e-06	1281.8	465.66	2.9606e-06	1.1883e-05	499.44	201.74	177.46	90.199	1.0847e-05	103.17	0.0011487	0.0012154	0.00033123	1180.5	1.2899e-05	1.2952e-05	1185.1	431.75	1.3078e-05	1.3165e-05	466.51	189.02	166.41	84.684	1.3245e-05	96.471	-61.286	-35.304	9.394	-91.983	112.596	67.065	-93.205	-86.874	241.230	-2.607	-88.730	-83.608	-81.397	-77.135	8.427	-80.673	-8191	255	
1791.097	1	1	0	0	0.12194	0.34384	0.080175	0.51316	0.17422	0.13617	0.2115	0.12143	0.07289	0.25421	0.094907	0.28317	0.082413	0.29635	0.096001	0.11692	0.89167	-0.27083	-0.16875	0.55	-0.31667	0.35208	0.12083	-0.40625	0.53958	-0.083333	-0.1375	0.45417	-0.41875	0.225	0.2625	-0.6	-74.444	233.051	241.116	223.896	-32.466	43.939	131.469	230.568	180.979	172.678	183.450	227.563	-95.670	241.844	34.542	254.912	0.00051377	0.0021122	0.00014706	1269.7	6.5139e-06	4.8825e-06	1272.4	461.8	7.9363e-06	1.0232e-05	499.67	201.33	176.29	89.886	8.1294e-06	103.22	0.0011551	0.0012032	0.00033327	1175.6	1.3059e-05	1.326e-05	1183	431.47	1.2879e-05	1.3024e-05	466.9	189.05	166.12	84.604	1.2985e-05	96.669	-50.122	-15.175	-21.845	-91.990	28.229	74.736	-93.247	-86.843	57.183	49.230	-88.616	-83.913	-81.383	-77.214	-11.482	-80.792	-8191	255	
1791.169	1	1	0	0	0.15415	0.05425	0.082412	0.30303	0.2364	0.13421	0.38365	0.10951	0.055843	0.024828	0.29404	0.26097	0.24273	0.24326	0.15531	0.40242	0.7625	0.11042	-0.10833	0.40417	-0.3375	0.17292	0.24167	-0.65833	0.4875	-0.05	-0.32917	0.475	-0.41042	-0.047917	0.28125	-0.3625	237.507	31.956	186.228	183.961	196.425	-83.300	164.540	216.357	236.333	-31.155	190.029	-104.712	228.546	235.584	104.350	150.351	0.0005761	0.00044464	0.00021163	1274.5	5.2277e-06	9.0794e-06	1282	462.75	5.1433e-06	1.604e-05	502.48	202.91	177.51	90.211	1.0984e-05	103.89	0.0011612	0.0011902	0.00033262	1176.3	1.2995e-05	1.3055e-05	1183.7	430.96	1.3003e-05	1.3251e-05	467.95	189.85	166.08	84.743	1.2918e-05	97.25	-62.933	12.606	-22.713	-92.260	156.804	71.766	-93.486	-86.747	31.211	9.858	-88.882	-84.116	-81.341	-77.339	49.809	-80.684	-8191	255	
1791.289	1	1	0	0	0.18008	0.091541	0.17897	0.11736	0.16595	0.11976	0.2202	0.25205	0.10824	0.26691	0.21545	0.2689	0.12467	0.0084198	0.13488	0.19035	0.77708	0.15833	-0.2375	0.46875	-0.26667	0.28542	0.19792	-0.45833	0.3	0.20208	-0.44792	0.44375	-0.28125	0.064583	0.43542	-0.44583	-35.067	108.760	-21.919	240.140	-31.143	-16.724	188.165	214.629	52.353	-81.799	178.672	-101.923	196.519	174.177	-25.139	160.503	0.00040211	0.00049436	0.00023328	1271.1	6.6261e-06	1.3344e-05	1274.8	466.04	3.2398e-06	1.9476e-05	505.16	202.69	176.8	90.621	5.1791e-06	104.32	0.0011387	0.0011815	0.000334	1176.2	1.2794e-05	1.3186e-05	1182.7	432.3	1.2643e-05	1.2934e-05	469.25	189.86	165.86	84.772	1.3221e-05	97.142	-65.554	-28.777	-9.117	-92.168	200.684	68.142	-93.517	-86.987	49.693	32.703	-88.844	-84.656	-81.966	-77.738	89.754	-80.666	-8191	255	
1791.386	1	1	0	0	0.23483	0.27309	0.16981	0.35768	0.11629	0.26478	0.19611	0.5052	0.20308	0.11874	0.16882	0.18031	0.11566	0.30121	0.2794	0.074242	0.7125	0.21042	-0.40625	0.325	-0.022917	0.0041667	0.31458	-0.44792	0.27917	0.48542	-0.34792	0.45833	-0.095833	-0.27083	0.6875	-0.6375	80.788	122.989	134.855	-99.767	-52.602	174.534	171.223	230.919	-18.491	102.944	249.242	-75.733	-83.269	209.042	116.715	200.924	0.00062525	0.00092918	0.00014662	1268.5	1.3938e-05	1.5981e-06	1267.1	461.84	7.4524e-06	8.447e-06	498.62	202.21	176.17	90.135	1.2967e-05	103.02	0.0011361	0.0011742	0.00033293	1171.8	1.2982e-05	1.3014e-05	1173.8	430.23	1.309e-05	1.3271e-05	465.36	188.74	165.17	84.306	1.3386e-05	96.157	-56.388	-17.931	-52.715	-92.324	77.299	70.856	-93.407	-86.882	10.941	35.388	-88.992	-84.315	-82.043	-77.656	107.962	-81.089	-8191	255	
1791.482	1	1	0	0	0.2466	0.20609	0.16729	0.17708	0.096056	0.062532	0.37911	0.12752	0.083159	0.030863	0.3226	0.13224	0.11537	0.050491	0.11725	0.1097	0.51875	0.25625	-0.18542	0.16875	-0.0041667	-0.19167	0.57083	-0.37292	0.15417	0.31875	-0.5375	0.23542	0.11458	-0.25625	0.575	-0.45208	-81.643	45.240	-72.843	218.418	45.642	230.487	218.035	198.669	84.647	94.394	153.004	161.393	-68.382	231.774	-66.462	204.882	0.0005221	0.0010734	0.000377	1263.2	1.1269e-06	1.2882e-05	1268	461.46	4.3145e-06	6.7754e-06	501.39	203.73	177.39	89.957	1.4603e-05	103.48	0.0011384	0.0011966	0.00033097	1169.8	1.2779e-05	1.2995e-05	1172.7	429.36	1.2808e-05	1.3401e-05	466.22	189.17	165.88	84.433	1.3353e-05	96.618	-52.230	-11.982	-9.179	-92.678	144.581	44.996	-93.616	-86.995	13.232	-15.646	-89.150	-84.496	-81.843	-77.377	76.495	-80.733	-8191	255	
1791.578	1	1	0	0	0.09624	0.093711	0.37944	0.34046	0.17994	0.24738	0.19254	0.24861	0.20133	0.27905	0.11153	0.36589	0.11497	0.14385	0.23124	0.19906	0.39375	0.48542	-0.40208	-0.077083	0.22083	-0.3625	0.60208	-0.39375	0.19583	0.57083	-0.29167	0.17083	0.029167	-0.50833	0.63542	-0.11667	84.853	228.976	-62.513	-88.338	4.968	150.933	197.114	81.953	247.985	248.638	86.389	179.591	89.228	214.556	252.252	212.514	0.00045788	0.0011228	0.00027655	1262.9	9.0082e-06	5.2894e-06	1271.8	461.65	5.2905e-06	1.0431e-05	501.76	202.79	176.86	91.006	1.6154e-05	104.3	0.0011427	0.001226	0.00033848	1166.2	1.2882e-05	1.3089e-05	1175	429.26	1.2748e-05	1.3308e-05	467.22	189.5	165.84	85.025	1.2858e-05	97.462	-55.701	-7.575	-37.369	-92.428	35.942	22.369	-93.665	-86.999	71.530	23.464	-89.033	-84.769	-81.803	-77.738	8.609	-80.971	-8191	255	
1791.674	1	1	0	0	0.22078	0.17346	0.25027	0.24901	0.12217	0.28622	0.11976	0.1777	0.005123	0.20504	0.1144	0.25251	0.12333	0.23729	0.098988	0.22186	0.44167	0.36667	0.035417	0.11667	0.4375	-0.058333	0.27292	-0.4	-0.22292	0.46458	-0.23125	0.13333	0.083333	-0.57292	0.49375	-0.14375	-59.396	227.307	60.893	179.913	-33.025	10.593	236.093	208.437	14.058	39.900	251.624	174.570	220.747	-79.327	113.296	180.157	0.00040231	0.00068923	0.00027118	1256.8	1.122e-05	1.345e-05	1263.4	460.67	1.0703e-05	1.065e-05	499.08	203.48	176.96	90.882	9.2694e-06	104.9	0.0011512	0.0012217	0.00035144	1162.4	1.2765e-05	1.3304e-05	1170.3	429.41	1.3133e-05	1.348e-05	467.3	190.16	166.02	85.03	1.3389e-05	97.483	-58.885	34.323	-37.873	-92.390	9.303	63.045	-93.808	-86.927	29.204	45.070	-88.961	-84.523	-81.624	-77.714	53.875	-80.726	-8191	255	
1791.770	1	1	0	0	0.16269	0.31428	0.14148	0.19623	0.040423	0.17169	0.084878	0.36139	0.27362	0.1678	0.12946	0.38323	0.40135	0.12255	0.10296	0.15618	0.2875	0.55208	-0.21042	0.010417	0.3625	-0.44167	0.11042	-0.14375	-0.18333	0.55	-0.40625	0	0.1	-0.5375	0.30417	-0.052083	51.968	-75.474	-73.099	196.439	69.724	202.237	-70.143	168.300	102.740	224.843	125.362	224.327	-46.199	-71.712	-33.031	103.560	0.00053924	0.0015816	0.00017039	1250	9.9342e-07	5.1879e-07	1263.2	461.35	3.8089e-06	1.1487e-05	497.97	203.1	177.77	90.819	8.0735e-06	104.64	0.0011676	0.0012211	0.00034659	1161.3	1.3261e-05	1.3535e-05	1169.5	429.67	1.3399e-05	1.3338e-05	466.4	189.92	166.55	85.024	1.3082e-05	97.492	-60.948	-28.003	-5.137	-92.545	-56.141	-20.172	-93.613	-86.525	-70.765	66.831	-88.771	-84.599	-81.839	-77.323	-25.620	-80.558	-8191	255	
1791.866	1	1	0	0	0.1538	0.23761	0.12794	0.21411	0.044124	0.17145	0.10613	0.11454	0.091379	0.091726	0.11212	0.39392	0.2412	0.11354	0.28471	0.19311	0.010417	0.31875	-0.28542	-0.19167	0.425	-0.30833	-0.010417	0.0083333	-0.24583	0.64167	-0.05	-0.26875	0.22083	-0.46042	0.39167	0.066667	28.026	32.046	217.181	225.431	-26.840	205.496	-0.577	-63.815	254.936	35.765	-71.669	192.968	8.736	217.713	119.808	149.460	0.00055987	0.0011602	0.00036665	1252.5	8.4072e-06	7.5974e-06	1260.5	461.34	6.094e-06	6.7582e-06	499.64	202.7	179.29	91.504	4.5098e-06	104.85	0.0011666	0.0012159	0.00033957	1161.9	1.3097e-05	1.3613e-05	1165.6	428.87	1.3236e-05	1.3418e-05	466.87	190.22	166.92	85.23	1.2869e-05	97.812	-73.694	-1.483	-17.232	-92.395	84.334	50.272	-93.657	-86.680	131.674	82.560	-88.541	-84.206	-82.002	-77.563	-19.582	-80.908	-8191	255	
1791.985	1	1	0	0	0.078574	0.1438	0.25101	0.13536	0.22586	0.17399	0.38058	0.10944	0.27823	0.19081	0.41663	0.22873	0.35645	0.41523	0.046188	0.2157	0.0020833	0.44583	0.0041667	-0.32083	0.59792	-0.26875	0.091667	0.2875	-0.29583	0.55625	-0.20833	-0.35417	0.21042	-0.28333	0.14167	0.16458	117.365	126.934	-34.269	-91.875	209.691	174.722	199.093	215.018	-29.546	154.219	193.735	-81.051	-100.072	171.752	55.388	218.056	0.00052833	0.00088818	0.00017178	1245.4	1.6962e-05	2.1619e-05	1251	460.24	7.2176e-06	8.5827e-06	500.55	204.31	178.19	91.075	8.9162e-06	104.95	0.0011488	0.0011832	0.00032754	1157.1	1.2968e-05	1.3164e-05	1161.4	428.32	1.2857e-05	1.3013e-05	465.94	190.69	166.67	85.429	1.2742e-05	98.313	-61.216	-39.314	-41.828	-92.187	79.840	81.927	-93.440	-86.853	49.616	54.204	-88.824	-84.438	-81.776	-77.599	49.906	-80.900	-8191	255	
1792.081	1	1	0	0	0.21307	0.16694	0.17947	0.29508	0.12547	0.069133	0.32028	0.2404	0.030922	0.20276	0.16831	0.069579	0.25233	0.28639	0.10028	0.41071	-0.1	0.51458	0.089583	-0.4	0.60208	-0.36042	-0.22917	0.14792	-0.26042	0.26667	0.0125	-0.46458	0.43333	-0.48542	-0.066667	0.26875	199.241	224.869	189.444	202.910	158.289	249.872	68.124	173.742	164.435	159.640	-10.684	237.189	192.632	-98.009	126.649	217.346	0.00054532	0.00090291	0.00030129	1248	1.0517e-05	1.3232e-05	1251.9	460.29	4.4584e-06	1.4565e-06	502.86	204.58	176.99	90.98	7.1055e-06	105.14	0.0011663	0.0011915	0.00033317	1154.9	1.2905e-05	1.3145e-05	1158.8	428.46	1.334e-05	1.2981e-05	466.93	190.69	165.78	85.125	1.3234e-05	97.842	-64.313	28.432	-57.432	-92.393	70.980	28.979	-93.623	-86.841	30.313	-7.339	-88.805	-84.408	-81.740	-77.451	70.015	-80.691	-8191	255	
1792.177	1	1	0	0	0.30536	0.25842	0.068869	0.25347	0.13287	0.046634	0.21353	0.28248	0.043971	0.34728	0.17249	0.028253	0.13862	0.45558	0.18862	0.16177	-0.027083	0.21875	0.17708	-0.42708	0.55417	-0.16458	-0.10417	0.28125	-0.24583	0.097917	0.35208	-0.375	0.36875	-0.3	-0.052083	0.38958	-62.387	20.961	-61.223	179.037	-4.620	33.411	72.969	-92.925	-78.286	234.959	238.513	225.893	-98.204	190.414	48.603	246.102	0.00051348	0.0012178	0.0002519	1244.1	1.2339e-05	7.9959e-06	1239.8	461.63	9.265e-06	1.3548e-05	496.43	201.71	176.28	90.533	6.6742e-06	104.06	0.0011575	0.0011976	0.00033717	1150	1.2951e-05	1.3146e-05	1151.4	428.47	1.3162e-05	1.3035e-05	463.8	189.19	165.27	84.64	1.3218e-05	97.181	-50.330	-29.460	8.719	-92.249	56.041	16.334	-93.230	-86.642	-7.893	88.825	-88.557	-84.131	-81.389	-77.248	-11.303	-80.754	-8191	255	
1792.274	1	1	0	0	0.051469	0.058773	0.31619	0.39251	0.15365	0.23045	0.36505	0.10673	0.13342	0.21487	0.20238	0.09126	0.15024	0.16303	0.11036	0.10538	0.0125	0.25833	0.30833	-0.58125	0.34583	-0.058333	-0.46667	0.49792	-0.30208	0.03125	0.24167	-0.61042	0.31667	-0.10833	-0.30833	0.36042	67.378	236.568	-26.871	197.043	174.454	148.303	220.167	-71.607	222.004	119.545	192.211	235.080	122.213	188.635	-27.264	167.349	0.0004647	0.0006926	0.000141	1239.9	3.0541e-06	1.4072e-05	1243.4	459.29	7.876e-06	6.7824e-06	497.08	202.4	175.72	89.931	3.555e-06	104.04	0.0011613	0.0011948	0.00034406	1149.8	1.305e-05	1.332e-05	1153.2	426.6	1.3027e-05	1.3394e-05	463.88	189.55	165.31	84.686	1.3332e-05	97.392	-51.497	6.635	5.038	-92.004	72.450	42.537	-93.546	-86.454	22.433	103.168	-88.799	-84.362	-81.676	-77.115	-50.692	-80.981	-8191	255	
1792.394	1	1	0	0	0.15898	0.10207	0.18422	0.2322	0.14824	0.10421	0.097168	0.27564	0.30607	0.043575	0.32822	0.27318	0.25242	0.29213	0.19743	0.22539	0.16458	-0.00625	0.20625	-0.53542	0.23542	0.047917	-0.56042	0.30833	-0.22708	-0.23958	0.34583	-0.63542	-0.014583	-0.1375	-0.55625	0.15417	120.304	57.600	147.721	-69.027	29.657	150.897	197.424	-76.814	48.238	-68.189	208.638	234.261	189.248	245.905	171.230	158.189	0.00065585	0.0017183	0.00043879	1221.6	1.0481e-05	6.7034e-06	1241.3	460.75	8.3515e-06	1.1203e-05	499.15	204.62	175.89	90.712	1.1719e-05	105.09	0.0011361	0.0011985	0.00033754	1147.3	1.2859e-05	1.3338e-05	1152.8	427.71	1.3295e-05	1.3226e-05	464.92	190.42	165.59	85.012	1.3358e-05	98.049	-61.333	-14.268	-13.256	-92.043	60.913	31.089	-93.066	-86.950	112.546	-21.789	-89.185	-84.444	-81.879	-77.817	-20.735	-80.918	-8191	255	
1792.466	1	1	0	0	0.18203	0.23821	0.25241	0.25379	0.18572	0.093933	0.15481	0.12426	0.10441	0.25209	0.15872	0.039545	0.27808	0.35766	0.1944	0.24995	0.20417	-0.16875	0.39167	-0.67708	0.16667	0.28958	-0.54167	0.070833	0.1	-0.13333	0.37083	-0.43958	0.033333	0.0375	-0.41875	0.2	-37.170	226.641	88.282	250.295	-44.950	242.558	217.767	-99.802	-1.764	43.001	193.069	220.976	196.726	174.924	-16.389	198.496	0.00042174	0.00077369	0.00046148	1242.4	7.3545e-06	6.1866e-06	1244.2	457.56	8.3601e-06	1.2427e-05	493.43	203.51	177.27	90.773	6.7478e-06	105.15	0.0011391	0.0011948	0.00034141	1150.1	1.2876e-05	1.3279e-05	1155.8	427.61	1.3115e-05	1.3336e-05	464.08	190.57	166.16	85.174	1.3421e-05	97.836	-62.122	-3.843	-8.511	-91.954	67.868	-41.978	-93.177	-86.535	32.962	90.253	-88.461	-84.043	-81.416	-77.245	105.324	-80.952	-8191	255	
1792.562	1	1	0	0	0.1207	0.24686	0.048157	0.12765	0.09657	0.25602	0.10126	0.30318	0.26555	0.23799	0.33943	0.23457	0.40936	0.27768	0.16559	0.29816	0.42083	-0.32083	0.43333	-0.53542	0.30208	0.5375	-0.65625	0.28542	-0.091667	-0.31667	0.31042	-0.32292	-0.083333	0.32292	-0.13333	0.24375	-83.590	156.696	-101.914	192.796	94.931	141.079	154.708	151.371	-75.241	216.085	248.774	208.897	229.085	242.852	225.971	141.818	0.00055653	0.00091016	0.0002016	1239.4	8.601e-06	7.6593e-06	1254	458.8	8.4651e-06	5.2269e-06	498.06	203.38	176.93	90.617	6.003e-06	105.02	0.0011868	0.0012233	0.00034077	1150.2	1.3378e-05	1.3579e-05	1155.6	426.93	1.3195e-05	1.335e-05	464.55	189.89	165.79	84.844	1.3018e-05	97.596	-51.852	-23.275	47.878	-92.424	94.828	41.611	-93.657	-86.842	34.862	66.208	-89.199	-84.164	-81.564	-77.397	48.467	-80.537	-8191	255	
1792.681	1	1	0	0	0.063635	0.22969	0.10195	0.32035	0.13546	0.097126	0.09489	0.40248	0.11446	0.25477	0.33071	0.21327	0.34199	0.16371	0.20668	0.14384	0.425	-0.45417	0.75625	-0.40417	0.0375	0.48542	-0.55417	0.15	0.11667	-0.21458	0.49375	-0.175	-0.21875	0.35833	-0.24583	0.16667	158.509	7.690	130.955	197.575	32.527	151.647	-41.783	250.250	121.712	42.679	65.100	250.660	232.413	194.420	-89.801	215.845	0.00059056	0.0014649	0.00028146	1240.7	4.4995e-06	8.6457e-06	1233.9	455.64	1.3805e-06	8.3934e-06	498.43	202.63	176.61	90.673	1.9206e-05	105.51	0.0011542	0.0011751	0.00033826	1150.6	1.2952e-05	1.316e-05	1148.9	424.96	1.2684e-05	1.3059e-05	464.39	189.97	165.42	84.907	1.2859e-05	97.988	-59.926	-8.172	-27.450	-92.016	82.713	84.469	-93.005	-86.482	122.364	45.649	-88.536	-83.793	-81.665	-77.265	77.011	-80.874	-8191	255	
1792.777	1	1	0	0	0.23493	0.16427	0.27052	0.30097	0.13099	0.22802	0.30789	0.18595	0.22861	0.21439	0.18196	0.36137	0.20114	0.32783	0.089028	0.095383	0.63125	-0.23958	0.60625	-0.27292	-0.17708	0.6	-0.46458	0.041667	0.375	-0.33542	0.38125	-0.11042	-0.36875	0.37292	-0.2375	0.039583	174.884	221.317	-87.245	220.666	240.610	76.992	167.829	159.614	192.494	137.393	184.318	203.943	212.751	227.452	32.445	236.423	0.00059981	0.00080462	0.00023533	1242.2	6.0405e-06	7.1685e-06	1246.2	458.4	1.0188e-05	6.5717e-06	498.47	203.6	176.6	90.615	1.0007e-05	105.51	0.001144	0.0011913	0.00033465	1148.3	1.3082e-05	1.3205e-05	1151.5	426.26	1.2765e-05	1.3155e-05	464.19	190.59	165.42	85.012	1.286e-05	98.452	-60.280	-25.549	-13.316	-92.128	72.795	104.698	-93.570	-87.101	78.722	13.004	-89.009	-84.661	-82.003	-77.869	-65.262	-81.053	-8191	255	
1792.873	1	1	0	0	0.34067	0.10424	0.093346	0.11677	0.10262	0.071073	0.17057	0.18001	0.17269	0.16076	0.13963	0.16331	0.027177	0.11649	0.23251	0.39829	0.85208	-0.2125	0.40208	0.083333	-0.325	0.4375	-0.17083	-0.29583	0.61042	-0.32708	0.3375	0.13542	-0.47917	0.2625	-0.19167	-0.0875	-24.363	17.989	50.463	-99.739	-50.924	-25.379	146.906	217.967	-58.337	53.293	-76.430	-50.610	250.165	-103.521	-50.023	254.483	0.00057994	0.0001172	0.00024518	1234.1	1.2511e-05	6.9689e-06	1247.7	458.07	1.0642e-05	2.4901e-06	496.53	203.5	176.52	90.461	9.5135e-06	104.8	0.0011694	0.0011997	0.0003295	1147.1	1.3013e-05	1.3207e-05	1152.6	425.83	1.3042e-05	1.3425e-05	463.37	190.06	165.06	84.76	1.3095e-05	97.74	-71.782	-1.892	-55.384	-92.442	116.013	-36.320	-93.456	-87.090	39.528	55.746	-89.159	-84.688	-82.349	-77.735	91.849	-81.096	-8191	255	
1792.994	1	1	0	0	0.11801	0.34107	0.1955	0.20646	0.14053	0.3168	0.20734	0.19246	0.23141	0.15207	0.080021	0.3604	0.17982	0.40716	0.21064	0.07025	0.83333	-0.39792	0.3875	-0.014583	-0.44583	0.53333	-0.4	-0.12708	0.375	-0.22917	0.13958	0.25208	-0.50417	0.20417	-0.08125	-0.26042	222.112	121.143	116.024	194.449	15.892	252.401	131.133	176.488	39.042	149.668	-49.652	-98.737	-101.493	-101.616	188.111	135.450	0.00056656	0.00058507	0.00033898	1232.7	1.1099e-05	3.3294e-06	1237.8	457.93	5.5447e-06	6.3174e-06	496.33	202.65	176.66	89.939	7.5498e-06	104.31	0.0011822	0.0012198	0.00033872	1145.6	1.306e-05	1.3282e-05	1146.8	425.77	1.3319e-05	1.3159e-05	463.35	189.24	165.07	84.3	1.3281e-05	97.265	-52.467	21.475	-28.538	-92.421	69.153	-3.931	-93.577	-87.323	86.232	-33.483	-89.462	-84.303	-81.829	-77.821	22.703	-80.950	-8191	255	
1793.066	1	1	0	0	0.34473	0.27719	0.10342	0.3207	0.044865	0.24527	0.16892	0.12653	0.00020963	0.16729	0.32274	0.19251	0.092534	0.10788	0.16687	0.25752	0.85625	-0.083333	0.21667	0.30625	-0.19792	0.37708	-0.041667	-0.40417	0.6375	-0.26042	0.077083	0.35208	-0.35625	0.24167	0.21667	-0.35625	12.492	98.679	72.120	205.738	216.386	-34.130	-57.772	151.334	180.000	-52.812	-37.385	211.560	-69.101	221.921	-42.597	194.121	0.00062186	0.0004536	0.00040145	1237	7.6774e-06	8.9419e-06	1242.5	456.96	3.8945e-06	1.2815e-05	498.57	202.83	175.75	89.807	4.3652e-06	104.09	0.0011567	0.0012339	0.00033777	1144.1	1.3431e-05	1.3315e-05	1149.2	424.5	1.3557e-05	1.3496e-05	463.14	189.65	164.71	84.32	1.3544e-05	97.225	-69.960	33.289	-76.287	-92.351	43.910	-5.258	-93.437	-87.156	151.861	3.652	-89.130	-84.647	-81.916	-77.813	129.621	-80.864	-8191	255	
1793.162	1	1	0	0	0.068786	0.25133	0.052174	0.1167	0.17645	0.24944	0.21136	0.11051	0.14139	0.20996	0.15775	0.39568	0.037	0.45713	0.15361	0.13161	0.84792	-0.25417	0.010417	0.13333	-0.46875	0.50833	0.10417	-0.37083	0.45833	-0.23958	-0.24167	0.43333	-0.32917	0.11667	0.28542	-0.46458	143.951	160.033	47.686	-91.613	179.403	226.811	205.508	224.048	151.208	209.690	243.684	246.427	89.452	185.203	-102.644	16.354	0.00040713	0.00066802	0.00031788	1234.1	4.4603e-06	1.136e-05	1244.6	454.89	6.2197e-06	9.6646e-06	496.51	202.97	176.73	89.846	1.2501e-05	104.27	0.001186	0.0012414	0.0003438	1143.4	1.3587e-05	1.3527e-05	1151.7	424.7	1.3423e-05	1.3699e-05	463.76	189.48	165.05	84.22	1.3877e-05	97.335	-47.402	-50.008	5.746	-92.253	108.081	15.311	-93.560	-87.013	28.305	21.955	-89.377	-84.492	-81.842	-78.076	15.052	-81.007	-8191	255	
1793.258	1	1	0	0	0.078925	0.15325	0.13353	0.14544	0.026593	0.30564	0.29928	0.33449	0.028411	0.18809	0.22158	0.022071	0.091776	0.27317	0.16206	0.36284	0.89167	-0.06875	0.0375	0.19375	-0.26875	0.21875	0.12292	-0.27292	0.5125	0.05	-0.34167	0.42708	-0.34167	0.072917	0.35208	-0.49375	17.748	131.062	163.364	222.130	78.670	247.121	180.214	189.567	157.585	-29.691	-57.220	-8.845	216.926	160.990	79.516	254.163	0.00053947	0.0013386	0.00043363	1227	1.0478e-05	8.7076e-06	1246.6	456.72	4.1273e-06	8.6262e-06	494.17	201.14	175.82	89.253	7.7e-06	103.18	0.0011835	0.0012444	0.00035349	1141.5	1.3588e-05	1.3755e-05	1151.4	425.37	1.361e-05	1.3931e-05	463.04	189.23	164.5	83.671	1.3849e-05	96.371	-46.800	-30.371	-28.994	-92.345	60.461	62.134	-93.543	-87.009	43.914	72.126	-89.047	-84.668	-81.676	-77.976	60.883	-81.135	-8191	255	
1793.354	1	1	0	0	0.26015	0.13436	0.11484	0.27016	0.09978	0.20119	0.1013	0.34687	0.048606	0.17978	0.15934	0.13647	0.21541	0.18638	0.084577	0.30101	0.82083	0.18333	-0.13542	0.35625	-0.25833	0.24375	0.24792	-0.33542	0.32083	0.225	-0.21458	0.46042	-0.38542	-0.21458	0.44167	-0.40625	143.204	-30.767	-100.738	254.939	-87.911	131.931	-62.592	236.202	139.148	197.279	-80.350	-98.605	181.328	234.197	124.032	-101.248	0.00060959	0.0013309	0.00024962	1234.5	7.7138e-06	2.7795e-06	1237.7	452.49	6.8216e-07	1.5123e-05	495.98	198.94	174.39	88.4	5.065e-06	101.34	0.0012014	0.0012783	0.00035281	1141.7	1.3611e-05	1.4111e-05	1146.1	423.1	1.374e-05	1.4307e-05	460.98	186.8	163.3	82.803	1.4442e-05	94.927	-61.633	13.713	-2.378	-92.325	87.727	-11.387	-93.692	-86.915	148.438	20.008	-89.101	-84.533	-81.821	-77.943	87.029	-81.238	-8191	255	
1793.475	1	1	0	0	0.12847	0.050478	0.23777	0.19579	0.17117	0.36678	0.030941	0.25025	0.19121	0.17011	0.071575	0.37754	0.080061	0.28867	0.075456	0.25061	0.72708	0.22708	-0.38958	0.45417	-0.19167	0.064583	0.3	-0.52292	0.32292	0.35	-0.32708	0.325	-0.25625	-0.039583	0.46875	-0.45625	196.350	26.742	3.032	-83.302	63.260	69.835	-41.780	212.660	-64.083	55.294	221.898	-49.554	130.500	252.107	-6.178	240.447	0.0005381	0.0010445	0.00043354	1223.4	3.9883e-06	8.866e-06	1231.2	454.95	1.0876e-05	8.2844e-06	492.97	198.25	173.07	88.317	7.9642e-06	101.45	0.0012394	0.0013241	0.00036516	1135	1.4016e-05	1.4423e-05	1141.7	422.97	1.3879e-05	1.4364e-05	460.13	185.77	162.79	82.557	1.4355e-05	94.918	-72.758	-21.789	-36.099	-92.752	30.889	40.309	-93.718	-87.082	74.793	22.202	-88.897	-84.718	-81.963	-77.749	105.625	-80.751	-8191	255	
1793.571	1	1	0	0	0.1131	0.13552	0.31361	0.14566	0.37186	0.042584	0.15619	0.13218	0.17108	0.14634	0.25491	0.17235	0.15516	0.14752	0.030546	0.23686	0.46667	0.37083	-0.2125	0.20625	-0.03125	-0.11042	0.34792	-0.35833	0.01875	0.39375	-0.52917	0.3	-0.05625	-0.51042	0.37708	-0.59167	104.137	72.640	-40.506	251.903	109.084	-19.079	149.371	205.283	81.086	6.437	196.684	-97.069	249.367	197.308	49.598	203.451	0.00045278	0.0010355	0.00025484	1221.3	6.5162e-06	8.49e-06	1230.6	454.05	7.8772e-06	1.5326e-05	491.8	198.62	174.05	88.573	1.3139e-05	102.65	0.0012446	0.0013257	0.00036474	1133.7	1.4179e-05	1.4388e-05	1141	423.2	1.3987e-05	1.4663e-05	459.77	186.1	163.14	82.774	1.416e-05	95.83	-74.254	-46.634	-48.014	-92.396	219.970	61.829	-93.611	-86.841	67.336	28.259	-88.880	-84.357	-81.853	-77.866	34.976	-80.845	-8191	255	
1793.667	1	1	0	0	0.25437	0.051795	0.1161	0.41084	0.20997	0.089139	0.30109	0.11191	0.042789	0.14432	0.30051	0.15826	0.33976	0.27019	0.042339	0.20271	0.49375	0.48125	-0.41667	0.29167	0.17708	-0.27083	0.34792	-0.38542	-0.08125	0.46667	-0.51042	0.43958	0.16458	-0.39792	0.5375	-0.26042	45.437	-92.023	142.558	195.437	27.636	-56.417	197.704	-81.723	91.316	-83.067	-102.278	-22.340	240.007	239.722	87.940	222.402	0.00060601	0.00045147	0.00027555	1223.9	6.0862e-06	8.1e-06	1228.1	454.92	9.3223e-06	1.2036e-05	493.44	199.27	174.48	88.225	1.1157e-05	101.64	0.0012443	0.0013322	0.00035933	1133.3	1.3966e-05	1.4386e-05	1139.1	423.34	1.4111e-05	1.4262e-05	459.57	185.96	163.21	82.52	1.3959e-05	94.852	-73.932	5.296	-20.736	-92.494	107.529	-29.471	-93.377	-87.031	19.828	42.449	-88.357	-84.566	-81.690	-77.555	52.570	-80.752	-8191	255	
1793.763	1	1	0	0	0.091076	0.096972	0.09179	0.4313	0.084226	0.22333	0.21392	0.17768	0.050168	0.07823	0.14783	0.15645	0.2884	0.1221	0.25762	0.25785	0.38542	0.65833	-0.44375	0.0125	0.35208	-0.42292	0.41875	-0.22083	0.033333	0.30625	-0.5	0.11458	0.17708	-0.35417	0.37708	-0.2375	101.008	91.480	153.353	244.551	218.778	146.732	213.825	-88.689	1.146	167.049	36.242	169.293	214.648	210.329	241.654	169.842	0.00052442	0.0013951	0.00039835	1221.1	5.1367e-06	1.2409e-05	1224.7	450.56	1.323e-05	7.4416e-06	490.38	199.3	173.04	88.346	9.5434e-06	101.75	0.0012227	0.001283	0.00035351	1132.9	1.3909e-05	1.4071e-05	1134.9	420.96	1.3775e-05	1.3794e-05	457.27	185.43	162.46	82.622	1.3713e-05	94.802	-57.963	-16.275	-14.631	-92.228	86.050	26.955	-93.776	-86.666	-22.901	-2.218	-88.871	-84.347	-81.900	-77.625	67.331	-80.752	-8191	255	
1793.857	1	1	0	0	0.038329	0.065834	0.21664	0.38833	0.17383	0.16615	0.28063	0.27827	0.086328	0.40301	0.09241	0.10768	0.065251	0.23568	0.14485	0.21486	0.16875	0.49375	-0.275	0.15208	0.28125	-0.28333	0.2875	0.060417	-0.10208	0.59792	-0.23333	-0.089583	0.35833	-0.52083	0.38958	0.033333	-1.336	4.785	96.309	199.274	130.628	187.742	216.595	166.739	50.343	194.188	13.081	253.207	247.503	-100.210	44.787	186.234	0.00063773	7.677e-05	0.00013953	1222.4	2.0516e-05	6.123e-06	1230.1	450.9	7.5221e-06	8.4982e-06	490.55	197.36	173.78	87.815	1.511e-05	101.54	0.0011997	0.0012618	0.0003479	1133.9	1.3469e-05	1.3672e-05	1138.7	420.62	1.3731e-05	1.3488e-05	458.82	185.3	162.72	82.543	1.3669e-05	94.98	-64.119	95.062	-35.495	-92.431	87.904	104.858	-93.738	-86.879	71.471	121.744	-88.725	-84.532	-81.745	-77.677	57.173	-80.836	-8191	255	
1793.955	1	1	0	0	0.36282	0.16189	0.20893	0.25428	0.054484	0.056657	0.42008	0.33473	0.10492	0.10866	0.19922	0.037584	0.2709	0.25394	0.33755	0.24326	0.11875	0.60208	-0.10625	-0.10625	0.42917	-0.21875	0.12292	-0.035417	-0.24375	0.58958	-0.30208	-0.029167	0.48333	-0.47917	0.43125	0.010417	-3.380	91.272	203.053	247.134	205.772	212.986	173.920	226.585	-18.096	-64.983	160.221	240.904	223.575	213.816	-16.144	-101.111	0.00046346	0.0014304	0.00011447	1215.3	1.6855e-05	6.5061e-06	1229	451.97	8.9989e-06	5.279e-06	490.35	198.07	173.41	88.138	1.0863e-05	102.15	0.0012001	0.001254	0.00034992	1131.1	1.3423e-05	1.3467e-05	1142	421.62	1.3553e-05	1.3463e-05	459.87	185.85	162.99	82.542	1.3599e-05	95.264	-61.410	-55.487	217.309	-92.413	28.697	70.289	-93.688	-86.680	46.767	56.341	-88.509	-84.422	-81.234	-77.540	5.645	-80.723	-8191	255	
1794.074	1	1	0	0	0.22768	0.13635	0.25563	0.48981	0.13399	0.10153	0.28885	0.19186	0.24301	0.37125	0.19617	0.31072	0.067117	0.11412	0.085136	0.34384	0.095833	0.50625	-0.20833	-0.3625	0.53333	-0.47083	0.15417	0.20417	-0.39167	0.27917	0.047917	-0.62917	0.38958	-0.53125	0.19167	0.29583	114.851	-66.789	-19.482	195.791	102.211	-39.621	230.003	224.548	-30.679	129.154	218.890	197.293	-62.519	250.922	170.090	193.421	0.00047323	0.00074936	0.00026709	1225.1	7.7911e-06	3.4026e-06	1225.6	452.27	4.0761e-06	1.0128e-05	487.76	197.51	172.51	87.238	9.6328e-06	100.09	0.0011897	0.0012308	0.00035073	1133.2	1.3516e-05	1.3879e-05	1138.7	420.95	1.3626e-05	1.3864e-05	456.79	184.81	161.49	81.856	1.3663e-05	93.763	-60.929	16.907	1.615	-92.432	34.058	-1.228	-93.440	-86.852	133.912	25.293	-88.912	-84.094	-81.801	-77.418	136.260	-80.575	-8191	255	
1794.170	1	1	0	0	0.16009	0.34094	0.26406	0.43364	0.20593	0.22544	0.40937	0.14929	0.18368	0.1434	0.18651	0.10219	0.069973	0.2436	0.15198	0.2909	-0.025	0.54792	0.072917	-0.39375	0.40208	-0.13125	-0.035417	0.23333	-0.40417	0.39375	0.14375	-0.23542	0.38125	-0.61667	-0.035417	0.34375	-104.195	121.986	11.507	202.214	143.891	-0.765	224.423	-26.670	-86.172	-15.453	-95.688	-99.040	-94.507	210.244	45.188	238.699	0.00061644	0.0010331	0.00017942	1214.5	5.2158e-06	7.7827e-07	1213.5	446.64	9.02e-06	9.408e-06	485.1	194.8	171.16	86.622	5.8537e-06	99.759	0.0011922	0.0012558	0.00035453	1128.4	1.3553e-05	1.3879e-05	1130	417.82	1.3512e-05	1.3561e-05	454.6	183.07	160.87	81.545	1.3934e-05	93.403	-61.616	-15.353	-53.060	-92.180	136.525	102.232	-93.295	-86.798	43.612	-12.742	-88.437	-84.190	-81.511	-77.073	50.589	-80.768	-8191	255	
1794.267	1	1	0	0	0.28789	0.16132	0.52964	0.070061	0.097895	0.15208	0.14594	0.1815	0.060982	0.21626	0.097172	0.13078	0.3915	0.29818	0.077595	0.33217	0.0375	0.33542	0.36667	-0.32083	0.62917	-0.01875	-0.095833	0.42083	-0.24792	0.2125	0.2125	-0.39792	0.36875	-0.32292	-0.039583	0.15208	154.156	138.412	-58.629	133.808	189.746	-103.050	183.743	108.962	54.146	-10.787	-32.115	196.718	-102.181	201.590	122.988	-83.692	0.00060275	0.0010011	0.00034857	1217.8	4.3796e-06	8.8517e-06	1215.6	447.18	6.2659e-06	8.1939e-06	480.7	195.5	170.45	86.691	3.9213e-07	99.893	0.0012055	0.0012733	0.00036175	1130.3	1.3462e-05	1.4081e-05	1130.2	417.48	1.3517e-05	1.3721e-05	453.32	183.78	160.64	81.62	1.3657e-05	93.808	-64.513	-6.495	2.035	-92.197	127.971	71.990	-93.275	-86.858	51.003	134.512	-88.488	-84.429	-81.589	-77.212	23.588	-80.548	-8191	255	
1794.363	1	1	0	0	0.086165	0.25309	0.20181	0.271	0.15247	0.11611	0.22385	0.14898	0.14392	0.34677	0.25279	0.28552	0.33919	0.30021	0.39826	0.33791	-0.045833	0.36042	0.36042	-0.61042	0.43958	-0.19375	-0.27917	0.23125	-0.12917	0.06875	0.079167	-0.38125	0.42708	-0.027083	-0.16042	0.33958	174.991	154.383	-20.474	237.426	17.473	-56.300	171.256	65.153	-83.133	147.644	129.373	-91.005	212.954	-94.952	218.508	107.813	0.00058332	0.00089435	0.00056214	1203.1	6.3631e-06	1.0348e-05	1213.7	447.43	6.5813e-06	3.7301e-06	486.37	196.16	171.57	87.511	1.2489e-05	101.39	0.0011839	0.0012545	0.00035261	1125.7	1.343e-05	1.3607e-05	1133	418.15	1.3504e-05	1.3956e-05	456.46	184.65	161.53	82.081	1.3951e-05	94.628	-59.353	-10.376	24.670	-92.132	9.445	5.066	-93.131	-86.477	37.853	12.089	-88.403	-84.124	-81.758	-77.437	3.439	-80.560	-8191	255	
1794.459	1	1	0	0	0.29864	0.21266	0.24513	0.25065	0.19209	0.22191	0.033069	0.14065	0.28609	0.2948	0.071098	0.17743	0.28983	0.099481	0.18852	0.1649	0.13542	0.083333	0.51667	-0.52917	0.53125	0.066667	-0.48333	0.49792	-0.25208	-0.066667	0.28542	-0.25625	0.0875	0.089583	-0.15833	0.39583	197.295	179.976	119.664	237.718	151.265	-50.822	76.309	165.067	-34.060	127.209	110.664	254.601	241.912	216.990	226.091	178.714	0.00046062	0.00065115	0.00025393	1224.1	3.739e-06	6.1841e-06	1232.6	446.67	5.4421e-06	5.4228e-06	494.19	197.66	171.7	87.548	7.2044e-06	100.99	0.0011894	0.0012559	0.00034846	1133.8	1.3704e-05	1.3848e-05	1140.7	418.09	1.3966e-05	1.3986e-05	457.5	184.9	161.46	82.141	1.3563e-05	93.994	-54.748	25.896	15.956	-92.032	56.361	70.202	-93.422	-86.510	39.161	58.408	-88.535	-84.539	-81.672	-77.458	44.330	-80.852	-8191	255	
1794.555	1	1	0	0	0.28038	0.037327	0.11755	0.25088	0.23413	0.064113	0.30597	0.27277	0.046072	0.15137	0.14071	0.27042	0.25966	0.0064287	0.18805	0.17853	0.12083	-0.072917	0.4375	-0.54792	0.26458	0.20417	-0.44375	0.33958	0.047917	-0.15	0.53958	-0.48125	0.00625	0.16875	-0.2375	0.40208	192.164	5.873	235.368	200.438	155.261	56.484	245.573	-88.771	158.605	224.054	251.967	174.973	208.696	180.150	-87.416	187.349	0.000621	0.00080709	0.00046253	1225	2.8801e-06	4.9357e-06	1223.5	448.21	9.5357e-06	9.5561e-06	485.46	196.6	172.47	87.136	6.9707e-06	100.09	0.0011998	0.0012639	0.0003441	1134	1.3556e-05	1.3992e-05	1136.8	418.79	1.3787e-05	1.3704e-05	454.46	184.4	161.72	81.727	1.3617e-05	93.573	-68.518	1.675	-6.991	-92.015	118.243	19.339	-93.471	-86.965	60.419	89.915	-88.676	-84.050	-81.694	-77.484	19.254	-80.840	-8191	255	
1794.651	1	1	0	0	0.17593	0.21456	0.31241	0.3098	0.26777	0.26566	0.24709	0.082322	0.38476	0.20033	0.17071	0.22154	0.10383	0.42564	0.093851	0.39076	0.1	-0.12083	0.54792	-0.35	0.17708	0.45208	-0.41458	0.50625	0.058333	-0.19167	0.59583	-0.3375	0.054167	0.22708	-0.4625	0.054167	244.774	247.399	33.998	238.805	164.448	170.105	-88.952	30.460	-64.224	10.627	-26.882	214.957	20.037	248.600	252.372	242.432	0.00040357	0.0003177	0.00029055	1219.9	9.9879e-06	1.4692e-05	1230.5	449.07	3.8859e-06	1.6175e-06	490.08	197.2	171.85	87.518	8.906e-06	100.28	0.0012135	0.0012606	0.00035237	1131.1	1.3668e-05	1.4101e-05	1139.9	418.4	1.3908e-05	1.4107e-05	457.37	184.48	161.17	81.637	1.3839e-05	93.704	-71.528	254.031	22.514	-91.986	77.530	31.101	-94.007	-87.337	45.379	-27.408	-89.344	-84.976	-82.231	-77.729	41.699	-81.806	-8191	255	
1794.770	1	1	0	0	0.26833	0.073116	0.099358	0.387	0.15436	0.27447	0.051963	0.054372	0.065706	0.23245	0.26093	0.39157	0.48376	0.09443	0.12141	0.092692	0.5125	-0.27083	0.46042	-0.37292	0.10625	0.34167	-0.69792	0.28333	0.28125	-0.61667	0.5	-0.33125	-0.014583	0.27917	-0.085417	0.066667	-21.710	126.702	-60.356	195.357	164.676	239.589	89.077	188.595	161.778	-21.412	129.669	214.271	236.684	253.525	173.145	179.173	0.00063309	0.0013472	0.00030214	1221.8	8.7323e-06	1.1878e-05	1235.1	448.95	2.8477e-06	7.0899e-06	489.66	195.53	172.52	87.209	1.4097e-05	100.12	0.0012163	0.0012546	0.00034688	1132	1.3389e-05	1.3712e-05	1142.7	418.6	1.3616e-05	1.373e-05	457.37	184.38	161.3	81.572	1.3591e-05	93.844	-64.098	-64.151	-27.007	-92.371	23.420	31.554	-93.970	-87.093	84.707	13.522	-89.322	-85.023	-82.438	-77.956	57.767	-81.150	-8191	255	
1794.866	1	1	0	0	0.29176	0.039219	0.14667	0.083281	0.055854	0.081168	0.35195	0.29104	0.28691	0.15767	0.32917	0.3032	0.2318	0.25404	0.19392	0.24607	0.61458	-0.32083	0.60625	-0.12292	-0.10833	0.48958	-0.39375	0.10625	0.35833	-0.5125	0.45833	-0.15208	-0.26042	0.1625	-0.48542	-0.14375	184.939	-75.491	178.206	-98.945	-71.826	81.740	205.134	-103.503	1.590	-98.969	-81.020	182.616	154.059	-79.167	189.125	237.061	0.00047338	0.00086059	0.00039455	1217.8	8.8421e-06	3.2568e-06	1229.2	449.4	7.3557e-06	1.4099e-05	485.98	195.75	170.95	86.591	5.1219e-06	98.794	0.0012176	0.0012854	0.0003574	1130.4	1.3793e-05	1.387e-05	1138.9	418.7	1.3925e-05	1.4219e-05	455.97	183.72	160.59	80.992	1.4184e-05	92.953	-58.250	8.927	-70.939	-92.818	121.998	-57.595	-93.864	-87.530	85.644	79.774	-89.236	-84.580	-82.501	-78.092	66.134	-81.306	-8191	255	
1794.938	1	1	0	0	0.065155	0.25848	0.086932	0.15527	0.099653	0.24263	0.15918	0.26191	0.011265	0.19767	0.16839	0.16458	0.23647	0.30746	0.17556	0.15366	0.875	-0.42708	0.48958	-0.064583	-0.2125	0.38958	-0.33333	-0.11875	0.5	-0.34583	0.29583	-0.077083	-0.39375	0.29375	-0.14167	-0.1625	238.154	-91.635	87.032	244.480	71.812	-59.582	140.247	227.783	71.146	248.610	201.886	169.610	-23.463	247.082	37.214	124.435	0.00058228	0.001449	0.00033005	1212.8	8.2416e-06	7.6054e-06	1221.7	447.83	9.9099e-06	1.4745e-05	484.84	195.72	171.23	86.352	9.471e-06	98.913	0.0012554	0.0012767	0.00036447	1128.5	1.3992e-05	1.4203e-05	1135.9	417.84	1.3932e-05	1.4254e-05	455.27	183.24	160.79	80.859	1.466e-05	92.65	-70.555	44.645	-47.092	-92.870	8.457	109.712	-94.159	-87.465	130.579	19.284	-89.429	-84.936	-82.562	-78.131	36.650	-81.310	-8191	255	
1795.036	1	1	0	0	0.071385	0.071789	0.21572	0.28696	0.33166	0.091895	0.23945	0.49673	0.022552	0.096654	0.1734	0.212	0.26228	0.48577	0.09066	0.17446	0.67708	-0.42917	0.28125	-0.13542	-0.26667	0.45833	-0.40625	-0.22083	0.56667	-0.43125	0.04375	0.15625	-0.59167	0.28542	-0.10833	-0.3625	-99.457	170.754	104.707	219.314	229.092	232.873	196.726	196.771	132.080	169.620	190.455	-103.195	-59.555	215.571	82.891	226.578	0.00050213	0.00031762	0.00011051	1212.5	1.1505e-05	8.0027e-06	1227.8	449.48	1.5748e-06	6.9571e-06	487.63	196.52	171.42	86.771	4.0431e-06	100.1	0.0012284	0.0013214	0.00037596	1127.8	1.4167e-05	1.4404e-05	1138.7	419.12	1.42e-05	1.4425e-05	455.94	183.6	160.53	81.138	1.4564e-05	93.22	-72.389	-56.493	-16.075	-92.545	104.881	18.745	-93.922	-87.120	17.181	15.476	-89.463	-84.926	-82.353	-77.856	112.756	-81.181	-8191	255	
1795.155	1	1	0	0	0.40981	0.21985	0.30522	0.36623	0.17186	0.12912	0.27689	0.22816	0.17164	0.1281	0.11796	0.27927	0.10073	0.22668	0.049946	0.11497	0.76667	-0.48125	0.17917	0.16042	-0.4125	0.27708	-0.12917	-0.18958	0.42917	-0.35208	0.05625	0.28958	-0.3875	0.23958	0.097917	-0.27917	95.768	41.840	-49.183	234.345	41.855	3.682	140.301	211.797	-92.317	111.862	193.564	242.778	131.271	-94.053	-25.228	197.141	0.00045425	0.0010349	0.00018744	1218	6.751e-06	9.7729e-06	1227.4	452.1	1.0253e-05	1.2585e-05	491.24	197.33	172.7	86.876	8.0174e-06	100.35	0.0012146	0.0013221	0.00036462	1131.5	1.402e-05	1.428e-05	1140.2	420.39	1.3891e-05	1.4283e-05	459.5	184.82	161.36	81.601	1.411e-05	94.017	-68.841	-36.867	-83.435	-92.951	116.709	2.561	-93.940	-87.506	58.013	28.187	-89.547	-85.082	-82.276	-78.204	105.555	-81.374	-8191	255	
1795.251	1	1	0	0	0.11633	0.11194	0.14367	0.034192	0.21301	0.17174	0.11299	0.20473	0.31447	0.41545	0.23967	0.22863	0.35176	0.12255	0.11959	0.14379	0.86875	-0.0083333	0.0083333	0.09375	-0.30208	0.41875	-0.14792	-0.33542	0.3625	-0.25208	-0.15625	0.34375	-0.74792	0.0083333	0.12708	-0.68542	-97.505	178.096	170.569	228.659	-74.147	-15.452	189.693	160.221	102.263	-15.107	154.240	202.401	214.118	117.801	-18.506	204.174	0.00057193	0.00074697	0.00035616	1219.1	5.8022e-06	1.0236e-05	1234.2	451.79	6.6589e-06	3.717e-06	489.53	196.85	171.66	87.089	6.1205e-06	100.37	0.0012109	0.001286	0.00036024	1132.4	1.354e-05	1.4234e-05	1142.9	419.99	1.391e-05	1.4222e-05	457.59	184.32	160.91	81.376	1.4001e-05	93.409	-49.619	-25.954	-18.977	-92.911	-46.638	54.690	-93.830	-87.234	58.488	191.629	-89.396	-84.835	-82.409	-78.137	66.105	-81.443	-8191	255	
1795.347	1	1	0	0	0.097204	0.23856	0.084727	0.26737	0.22683	0.16762	0.3411	0.1833	0.15854	0.17194	0.21663	0.22368	0.19956	0.31417	0.14464	0.2966	0.86458	-0.12083	-0.0875	0.37917	-0.32708	0.27083	0.0041667	-0.48958	0.56458	0	-0.25208	0.4375	-0.46042	0.045833	0.20208	-0.36042	197.752	98.136	165.635	245.016	89.054	-51.476	216.545	211.483	-72.388	-101.676	182.153	222.163	-85.962	195.474	244.552	-47.541	0.00044083	0.0012893	0.00034025	1210.3	3.1317e-06	1.6434e-05	1227.8	447.87	1.0218e-05	1.0886e-05	489.05	196.43	172.09	87.288	1.0729e-05	100.53	0.0012087	0.0012763	0.00035015	1129.1	1.3597e-05	1.3925e-05	1141.1	418.57	1.3615e-05	1.4072e-05	457.62	184.43	161.19	81.665	1.3545e-05	93.83	-56.426	44.671	-18.365	-92.636	9.071	42.429	-94.137	-87.531	44.410	59.475	-89.135	-85.005	-82.451	-78.210	25.738	-81.556	-8191	255	
1795.468	1	1	0	0	0.20793	0.093785	0.12648	0.19121	0.070566	0.38274	0.32953	0.26276	0.28217	0.14623	0.11659	0.33968	0.30279	0.28959	0.17103	0.17159	0.79583	0.0375	-0.25208	0.22292	-0.25	0.11667	0.035417	-0.64792	0.425	0.15	-0.35417	0.44583	-0.28125	-0.15625	0.11875	-0.61667	-95.189	162.863	116.447	153.507	201.493	225.599	218.181	235.306	200.025	-12.616	245.222	212.546	225.271	223.541	208.405	162.386	0.00045755	0.0010045	0.00038686	1222.6	8.8261e-06	9.0381e-06	1235.8	451.59	3.0373e-06	1.6543e-05	487.58	198.37	172.92	86.681	9.0424e-06	100.27	0.0011997	0.0012328	0.00033758	1132.3	1.3128e-05	1.3397e-05	1143.4	420.04	1.3621e-05	1.3629e-05	456.47	185	161.84	81.506	1.3605e-05	93.845	-62.356	-39.304	-81.426	-92.627	50.798	75.732	-94.114	-87.330	-11.502	11.691	-89.477	-84.700	-82.166	-77.891	49.344	-81.351	-8191	255	
1795.564	1	1	0	0	0.12448	0.29185	0.14373	0.13686	0.20226	0.21211	0.14917	0.22025	0.33962	0.17707	0.16547	0.25634	0.20368	0.33072	0.17083	0.32597	0.78125	0.047917	-0.39167	0.26667	-0.18958	0.12292	0.24792	-0.31875	0.19167	0.070833	-0.35	0.35417	-0.35208	-0.06875	0.49583	-0.52708	-78.146	232.785	60.118	-10.729	5.781	219.542	137.866	183.007	-101.071	71.854	162.390	193.531	243.611	-103.344	-43.509	-91.789	0.00052952	0.0020768	2.9189e-05	1214.5	6.8006e-06	6.9746e-06	1231.3	448.93	6.0611e-06	1.4244e-05	488.77	195.58	171.24	86.429	2.216e-06	99.081	0.0012122	0.0012851	0.00035442	1128.9	1.4154e-05	1.4255e-05	1139.3	419.25	1.4477e-05	1.4739e-05	457.27	183.8	161.07	80.912	1.4839e-05	92.845	-44.725	-28.734	-77.065	-92.717	49.478	15.175	-94.108	-87.452	-1.225	15.765	-89.203	-85.055	-82.002	-78.115	-71.527	-81.074	-8191	255	
1795.635	1	1	0	0	0.11053	0.11291	0.10142	0.3609	0.27325	0.109	0.26525	0.26744	0.3666	0.19523	0.22463	0.29081	0.033438	0.24278	0.025948	0.19119	0.52917	0.12917	-0.33958	0.35833	-0.029167	-0.18125	0.34167	-0.46875	0.24792	0.30208	-0.55625	0.30625	-0.25	-0.38958	0.48542	-0.45833	140.324	225.696	160.587	-105.310	109.835	29.176	133.054	209.236	89.101	21.470	195.998	234.385	114.099	222.358	-78.732	135.520	0.00048325	0.0010805	0.00035708	1203.4	6.1457e-06	6.7229e-06	1215.2	447.5	8.7526e-06	1.303e-06	487.5	194.77	171.17	85.547	3.8471e-06	98.597	0.0012932	0.0013642	0.00038493	1123.1	1.4855e-05	1.4841e-05	1131.1	418.5	1.483e-05	1.4981e-05	455.54	182.57	160.53	80.398	1.4831e-05	92.427	-69.050	-47.523	-21.102	-93.159	45.859	79.041	-93.764	-87.513	6.058	144.333	-89.182	-84.807	-82.319	-78.039	100.557	-81.634	-8191	255	
1795.756	1	1	0	0	0.28085	0.089354	0.1042	0.33895	0.13976	0.27854	0.17824	0.52826	0.15794	0.14519	0.20904	0.17804	0.1708	0.16038	0.26691	0.17589	0.58542	0.3875	-0.34583	0.24375	0.225	-0.26458	0.30208	-0.29167	-0.041667	0.48125	-0.65833	0.16667	0.022917	-0.44167	0.5625	-0.33958	245.142	218.770	-7.410	-104.210	12.253	-86.736	176.229	202.106	60.225	31.392	226.633	150.613	-87.195	50.635	209.220	-96.295	0.00057785	0.00074516	0.00017429	1199.9	3.5592e-06	5.586e-06	1218.4	447.71	9.0456e-06	1.2292e-05	484.98	195.73	171.42	86.65	8.1212e-06	99.289	0.0012599	0.0013363	0.00037014	1116.6	1.4241e-05	1.4485e-05	1129.1	417.73	1.4227e-05	1.4392e-05	454.78	183.55	160.79	81.178	1.43e-05	92.937	-51.372	-53.245	-21.384	-92.669	13.954	74.006	-93.699	-87.313	118.555	61.015	-89.267	-84.776	-82.112	-77.925	132.769	-81.162	-8191	255	
1795.850	1	1	0	0	0.15686	0.055761	0.36033	0.33396	0.068844	0.10947	0.25604	0.25716	0.13233	0.20297	0.24324	0.15355	0.20534	0.1436	0.085593	0.33247	0.33958	0.59167	-0.39375	0.3375	0.16458	-0.19792	0.55625	-0.3125	-0.058333	0.38333	-0.3875	0.06875	-0.16875	-0.40833	0.55833	-0.19583	-95.801	-63.217	232.329	239.119	252.657	-42.979	238.890	164.622	-84.652	246.261	-90.685	220.119	-97.857	211.748	-57.044	-102.215	0.00043835	0.00068238	0.00024632	1205.1	5.4218e-06	1.7689e-05	1215.6	450.69	3.7514e-06	1.2425e-05	485.6	198.18	171.87	87.052	2.1022e-06	100.25	0.0012329	0.0012985	0.00036377	1119.9	1.3968e-05	1.4326e-05	1131	419.13	1.3927e-05	1.3931e-05	456.98	184.38	161.26	81.454	1.4324e-05	93.683	-67.997	38.535	-3.027	-92.657	75.667	40.090	-93.501	-87.133	-4.857	36.522	-89.067	-84.561	-81.922	-77.560	63.713	-81.418	-8191	255	
1795.947	1	1	0	0	0.25178	0.10535	0.24525	0.20485	0.39558	0.1308	0.26481	0.30063	0.13102	0.17622	0.091386	0.41032	0.20296	0.25126	0.1147	0.17654	0.097917	0.52917	-0.21458	-0.06875	0.24583	-0.4375	0.30625	-0.29583	-0.26458	0.60625	-0.31667	-0.05	0.51875	-0.50417	0.49792	-0.21042	220.069	160.089	104.867	226.781	197.229	152.377	150.242	153.992	-50.908	191.055	163.666	182.828	-87.415	235.792	200.184	167.333	0.00059384	0.00055448	0.00021659	1209	5.1409e-06	2.1591e-06	1219.5	450.52	6.8475e-06	5.9927e-06	488.78	197.84	171.87	87.09	5.684e-06	100.52	0.0012094	0.0012818	0.00035892	1120.6	1.3881e-05	1.4124e-05	1132.5	419.36	1.4159e-05	1.4183e-05	458.72	185.22	161.57	81.701	1.4501e-05	93.898	-65.333	-54.009	-47.057	-92.714	93.818	49.482	-93.825	-87.005	87.861	56.202	-89.534	-85.071	-82.073	-77.907	73.963	-81.282	-8191	255	
1796.067	1	1	0	0	0.10899	0.31936	0.20683	0.191	0.15973	0.1336	0.204	0.077579	0.17442	0.18147	0.22454	0.092763	0.40585	0.25061	0.15271	0.20004	0.077083	0.59583	-0.16667	0.070833	0.26042	-0.29583	0.15625	0.03125	-0.425	0.45	-0.25417	-0.13542	0.34583	-0.6125	0.41667	0.13333	77.615	-59.131	117.522	240.176	217.824	33.766	198.171	138.193	160.285	-6.680	219.839	201.604	252.673	210.532	100.545	157.833	0.00048618	0.00046385	0.0002052	1203.3	6.9321e-06	1.0831e-05	1213.2	449.25	1.6765e-06	7.8451e-06	488.59	196.65	170.91	86.916	1.3491e-05	99.785	0.0012404	0.0012913	0.00036441	1114.3	1.368e-05	1.4213e-05	1127.5	418.16	1.3893e-05	1.4221e-05	456.81	183.78	160.51	81.375	1.3957e-05	93.156	-72.870	-11.643	-18.416	-92.965	15.924	25.103	-94.073	-86.750	88.125	92.205	-89.400	-84.838	-81.941	-77.817	109.529	-81.088	-8191	255	
1796.163	1	1	0	0	0.097107	0.14736	0.088718	0.41962	0.10685	0.061421	0.21153	0.11971	0.14796	0.11916	0.25331	0.056322	0.14761	0.22674	0.088194	0.43952	0.14167	0.5375	-0.01875	-0.24167	0.53333	-0.32292	0.05	0.25833	-0.35417	0.51667	-0.31042	-0.20625	0.40833	-0.5875	0.31458	0.1125	39.684	-53.702	-99.062	232.433	210.961	192.994	228.799	127.504	113.875	37.711	203.472	-36.629	-76.887	247.960	-1.153	185.614	0.00048646	0.00092441	9.1481e-05	1202.6	8.1705e-06	1.1224e-05	1215.2	447.29	4.6821e-07	3.6108e-06	486.68	195.84	170.65	86.733	5.7948e-06	99.625	0.0012219	0.0012933	0.00035793	1116.5	1.3655e-05	1.4275e-05	1123.1	417.65	1.3659e-05	1.4147e-05	454.64	183.4	160.59	81.307	1.3886e-05	93.138	-58.206	4.489	-45.172	-92.626	71.770	31.926	-93.922	-87.077	-79.086	-7.789	-89.026	-84.591	-82.072	-77.810	54.792	-81.334	-8191	255	
1796.235	1	1	0	0	0.23435	0.14622	0.12114	0.28228	0.098911	0.25877	0.18218	0.18059	0.30062	0.1205	0.21007	0.15151	0.079235	0.42124	0.072728	0.18027	-0.0041667	0.3625	-0.05	-0.22292	0.35417	-0.175	0.16042	0.39583	-0.18958	0.25417	-0.0020833	-0.40208	0.30833	-0.35625	-0.060417	0.41042	-97.427	243.867	189.136	-104.419	93.908	26.090	208.797	-93.724	36.392	-60.505	208.999	206.126	6.387	229.608	25.174	119.822	0.00052852	0.0011462	0.00036184	1204.3	1.0125e-05	8.139e-06	1212.5	447.54	1.3065e-06	4.9896e-06	483.83	196.39	171.97	86.926	1.2824e-05	99.427	0.0012081	0.0012922	0.00035488	1116.6	1.3705e-05	1.4223e-05	1123.1	417	1.4013e-05	1.4252e-05	453.52	183.57	160.67	81.382	1.3934e-05	93.174	-64.049	-9.119	7.384	-92.799	91.197	104.496	-94.061	-87.152	83.796	49.452	-89.161	-84.808	-82.085	-77.603	80.011	-81.167	-8191	255	
1796.331	1	1	0	0	0.15561	0.17946	0.26871	0.067793	0.11358	0.1034	0.12566	0.23109	0.078828	0.21027	0.36896	0.29846	0.19812	0.47821	0.37099	0.24725	0.022917	0.37917	0.1625	-0.20208	0.27917	-0.24167	-0.085417	0.41458	-0.28333	0.25208	0.058333	-0.43333	0.1875	-0.097917	-0.15625	0.33333	191.271	80.208	-43.346	175.726	236.973	-75.833	194.154	238.829	80.332	-87.320	247.996	218.712	219.287	-91.288	241.980	236.481	0.00052895	0.0018101	0.0004005	1201.6	1.3591e-05	1.4339e-05	1215.3	446.16	3.6619e-06	2.1809e-06	488.03	197.34	171.54	86.65	8.3504e-06	100.01	0.0012178	0.0012806	0.00035657	1115.4	1.3891e-05	1.3972e-05	1126.9	416.91	1.3901e-05	1.4119e-05	455.62	184.25	160.67	81.496	1.3921e-05	93.456	-65.551	-28.612	-39.492	-92.403	40.790	-1.525	-93.954	-86.898	-48.421	-0.568	-89.067	-84.340	-81.873	-77.564	9.155	-80.735	-8191	255	
1796.452	1	1	0	0	0.27178	0.23556	0.096527	0.40869	0.10627	0.05035	0.1107	0.1606	0.17889	0.15633	0.27798	0.21527	0.083618	0.081921	0.21248	0.031081	0.11875	0.29167	0.30833	-0.59583	0.49375	-0.070833	-0.36042	0.38125	-0.50833	0.33125	0.13333	-0.61458	0.29583	-0.054167	-0.12292	0.4625	-63.563	63.504	-103.168	217.162	67.573	-27.208	30.121	179.297	239.818	145.996	222.163	-102.376	93.895	178.796	179.326	216.091	0.00047361	0.0008614	0.00029574	1201	7.9165e-06	5.0398e-06	1202.1	445.03	8.146e-06	5.5769e-06	486.29	196.69	171.41	86.959	1.0373e-05	99.939	0.0012283	0.0012787	0.00035312	1115.9	1.386e-05	1.4069e-05	1120.2	416.51	1.3823e-05	1.3693e-05	454.16	183.79	160.7	81.476	1.3818e-05	93.104	-63.257	-24.846	-21.644	-92.626	106.487	14.289	-93.694	-87.077	23.732	76.503	-88.969	-84.616	-82.049	-77.411	56.399	-80.816	-8191	255	
1796.548	1	1	0	0	0.036975	0.20585	0.16908	0.19212	0.25201	0.20967	0.29484	0.39435	0.10347	0.18452	0.26217	0.23637	0.40268	0.18848	0.045724	0.28273	-0.091667	0.18958	0.39792	-0.55	0.47917	0.2	-0.43125	0.51667	-0.22292	0.05625	0.31042	-0.54167	0.35208	0.01875	-0.3375	0.29583	0.083	-10.006	-42.546	-101.956	-52.908	3.988	-92.148	219.259	199.990	-82.976	249.040	219.659	220.589	-104.699	170.791	251.114	0.00050721	0.00044893	0.00048999	1208.6	4.7938e-06	6.9837e-06	1215.6	447.6	9.1574e-06	1.9682e-05	487.91	196.92	172.01	87.611	5.1175e-06	100.87	0.0011821	0.0012491	0.00034512	1117.8	1.352e-05	1.3835e-05	1127.4	417.33	1.3472e-05	1.38e-05	456.49	184.36	161.31	82.081	1.3551e-05	93.865	-72.032	24.408	-8.527	-92.248	119.751	65.671	-93.525	-87.122	38.925	-3.254	-88.725	-84.277	-81.546	-77.257	26.171	-80.923	-8191	255	
1796.644	1	1	0	0	0.21394	0.18874	0.16133	0.24209	0.15512	0.04401	0.20416	0.0056848	0.42488	0.071759	0.16644	0.086846	0.11865	0.036066	0.05124	0.26048	0.0625	0.00625	0.53542	-0.57292	0.28958	0.29792	-0.5625	0.38333	-0.052083	-0.01875	0.32083	-0.44375	0.20417	0.21042	-0.13542	0.13542	26.206	-4.573	-96.478	205.775	-59.771	122.122	203.534	92.789	250.734	-96.017	50.563	228.401	239.050	-61.854	-86.882	187.382	0.00051642	0.00034542	0.00033093	1210	8.0319e-06	8.69e-06	1218.2	449.53	8.2489e-06	5.0631e-06	490.64	197.5	172.07	88.157	2.9425e-06	100.53	0.0011931	0.0012464	0.00034348	1120	1.3446e-05	1.3425e-05	1128.3	418.08	1.3875e-05	1.3654e-05	457.59	185.37	161.73	82.327	1.3644e-05	94.307	-72.099	248.368	0.076	-92.315	49.602	71.685	-93.621	-86.835	10.584	13.143	-89.100	-84.468	-81.842	-77.540	28.435	-80.774	-8191	255	
1796.740	1	1	0	0	0.2377	0.42763	0.14627	0.1851	0.17285	0.14357	0.15889	0.13806	0.32051	0.2421	0.48757	0.078552	0.35896	0.19036	0.055046	0.071313	0.24583	-0.2125	0.46042	-0.43542	0.24583	0.17083	-0.49167	0.27083	0.058333	-0.20833	0.40417	-0.36875	-0.047917	0.29583	-0.30833	0.28125	32.506	166.522	211.604	237.823	254.829	128.724	160.717	226.838	8.162	-28.559	212.407	139.743	174.764	-39.101	95.491	-38.334	0.00065325	0.00069918	0.00020506	1203.1	1.6078e-06	9.5093e-06	1220.5	447.93	3.7642e-06	1.0902e-05	488.38	197.42	172.49	87.493	1.0344e-05	100.89	0.0011951	0.0012697	0.00035375	1120.2	1.3659e-05	1.3657e-05	1130.6	418.55	1.3605e-05	1.374e-05	457.6	185.37	161.46	81.864	1.4362e-05	93.859	-57.147	-103.353	-3.707	-92.041	133.074	59.441	-93.262	-86.870	37.216	10.547	-89.229	-84.141	-82.069	-77.406	96.018	-80.602	-8191	255	
1796.859	1	1	0	0	0.13175	0.1108	0.18508	0.31315	0.098427	0.18409	0.22883	0.22536	0.27574	0.10674	0.086431	0.10602	0.13846	0.25008	0.12955	0.34272	0.52083	-0.28542	0.575	-0.61458	0.22083	0.42917	-0.54375	0.16458	0.14792	-0.18958	0.57708	-0.34792	-0.047917	0.30833	-0.30208	0.0375	246.614	-47.734	16.156	222.362	46.373	34.816	-84.009	240.313	62.474	66.740	-69.380	177.111	-52.736	221.509	133.669	-75.083	0.00058236	0.0010871	0.00017885	1202.1	8.2843e-06	7.9792e-06	1213	447.27	7.5175e-06	1.3384e-05	485.3	195.05	170.31	86.173	9.7325e-06	99.196	0.0012077	0.0012812	0.00036155	1116.3	1.3866e-05	1.4078e-05	1125.5	417.1	1.4026e-05	1.425e-05	454.22	182.96	160.21	80.936	1.4456e-05	92.493	-65.639	-33.902	-104.392	-92.285	39.818	70.408	-93.681	-86.992	22.815	66.630	-88.984	-83.944	-81.664	-77.742	37.509	-80.790	-8191	255	
1796.931	1	1	0	0	0.064513	0.14902	0.19231	0.19918	0.28518	0.17278	0.13693	0.17675	0.16265	0.19492	0.36672	0.081329	0.27331	0.37394	0.077193	0.11944	0.60625	-0.42917	0.53958	-0.20417	-0.19375	0.42083	-0.36458	0.14792	0.44375	-0.26042	0.44792	-0.0875	-0.04375	0.44583	-0.325	0.2125	120.278	141.229	105.809	216.479	-63.008	159.954	220.747	218.417	16.778	99.846	232.391	67.477	236.364	240.605	-13.659	116.017	0.0006333	0.00092972	0.00034947	1200.9	3.7097e-06	7.8135e-06	1212.1	446.86	1.202e-05	1.383e-05	487.86	195.83	170.25	86.175	1.1983e-05	99.063	0.0012237	0.001303	0.00036334	1115.4	1.3912e-05	1.435e-05	1123	417.13	1.4217e-05	1.4449e-05	454.26	182.99	160.27	80.998	1.4554e-05	92.35	-67.904	49.956	18.878	-92.413	37.275	26.472	-93.817	-86.853	60.324	84.780	-89.069	-84.398	-81.545	-77.448	32.164	-81.009	-8191	255	
1797.029	1	1	0	0	0.10495	0.25871	0.32203	0.16604	0.15322	0.047042	0.47865	0.14358	0.073288	0.17195	0.062378	0.39732	0.32441	0.19993	0.28989	0.19832	0.80833	-0.15833	0.36875	0.039583	-0.17708	0.63958	-0.29583	0.10208	0.56667	-0.36667	0.40208	0.0083333	-0.35625	0.26042	-0.30208	-0.029167	8.974	220.682	-82.471	221.126	-94.998	84.895	243.009	-103.911	-91.794	89.968	151.952	-70.886	238.431	160.809	100.346	236.236	0.00047149	0.00091636	0.00032775	1202.5	1.1567e-05	1.1341e-05	1208.2	447.78	5.327e-06	1.3542e-05	487.07	195.62	171.85	86.611	7.6328e-06	99.392	0.0012374	0.0013395	0.00036863	1114.1	1.4114e-05	1.4506e-05	1122.7	417.4	1.3854e-05	1.4423e-05	454.76	183.11	160.89	81.397	1.4152e-05	92.93	-54.839	-0.689	-19.352	-92.335	3.305	72.107	-93.614	-87.054	183.389	67.931	-89.050	-84.724	-82.047	-77.708	26.926	-81.000	-8191	255	
1797.148	1	1	0	0	0.087729	0.078197	0.25672	0.27232	0.097957	0.33577	0.070484	0.31502	0.22471	0.16707	0.39873	0.40417	0.20011	0.10925	0.11183	0.02342	0.8625	-0.21458	0.42292	0.05625	-0.070833	0.35833	-0.31875	-0.045833	0.27917	-0.175	0.16875	0.18542	-0.41667	0.325	-0.052083	-0.26042	197.489	-90.552	166.826	-28.689	-103.346	186.308	-40.411	226.258	118.653	100.434	253.941	234.751	-92.374	73.892	-74.241	216.201	0.00064838	0.001025	0.00035279	1196.1	1.052e-05	1.2649e-05	1218.7	448.82	1.5509e-06	8.0645e-06	486.82	197.24	171.32	87.382	2.3743e-06	100.1	0.0012078	0.0012875	0.00035636	1111.8	1.3656e-05	1.3941e-05	1127.8	418	1.3667e-05	1.3987e-05	454.83	184.21	161.19	81.75	1.3808e-05	93.47	-57.109	-12.295	-11.280	-92.316	20.890	31.102	-93.480	-86.923	138.871	42.008	-89.158	-84.597	-81.884	-77.478	95.887	-81.285	-8191	255	
1797.244	1	1	0	0	0.29241	0.14143	0.1381	0.077296	0.13592	0.10842	0.29763	0.29296	0.13583	0.25225	0.20517	0.17787	0.14524	0.28988	0.29752	0.085026	1.0146	-0.27083	0.3625	0.16667	-0.38125	0.47708	-0.1375	-0.3	0.63958	-0.31458	0.30625	0.21667	-0.43542	0.52917	0.01875	-0.42917	24.571	99.626	167.692	-43.280	221.242	80.515	164.608	219.536	-11.931	84.665	196.512	244.014	141.576	223.581	122.034	219.318	0.00060591	0.0013444	0.00035087	1201.8	6.1322e-06	8.0212e-06	1223.9	447.66	2.1791e-06	5.3276e-06	486.81	195.07	172.53	87.057	2.7149e-06	99.663	0.0012042	0.0012511	0.00034903	1114	1.3584e-05	1.3989e-05	1129.3	417.55	1.391e-05	1.3964e-05	454.32	182.88	161.1	81.603	1.3604e-05	92.892	-66.647	-32.204	-28.880	-92.300	108.467	36.805	-93.312	-87.032	-37.118	85.721	-89.104	-84.785	-81.776	-77.763	-10.871	-81.245	-8191	255	
1797.340	1	1	0	0	0.31697	0.29533	0.3313	0.28804	0.26047	0.28078	0.045896	0.3681	0.28718	0.20455	0.13646	0.29511	0.21079	0.48218	0.22168	0.14683	0.8	-0.17292	0.27708	0.45417	-0.27292	0.33125	0.0041667	-0.27917	0.52292	-0.19583	-0.12083	0.25625	-0.34792	0.125	0.125	-0.41458	179.148	-50.962	32.216	232.881	134.823	217.230	98.485	184.964	92.033	23.306	-64.017	254.035	234.148	220.256	195.300	212.832	0.00047452	0.00023182	0.00022106	1203.7	1.0704e-05	8.9083e-06	1207.2	449.28	9.8231e-06	1.536e-05	484.99	196.24	172.31	86.974	4.7009e-06	99.447	0.0011856	0.0012566	0.00034881	1114.8	1.3542e-05	1.3934e-05	1123.8	418.04	1.3664e-05	1.4006e-05	453.37	183.37	161.28	81.512	1.3528e-05	92.829	-66.553	-30.174	-3.123	-92.447	103.503	73.469	-93.613	-86.930	48.984	54.729	-89.248	-84.764	-81.936	-77.753	44.329	-81.211	-8191	255	
1797.436	1	1	0	0	0.17253	0.040262	0.14141	0.33655	0.10579	0.18652	0.19632	0.25404	0.23207	0.22333	0.012696	0.32758	0.25699	0.3747	0.14591	0.30685	0.87083	-0.275	0.1	0.38958	-0.29583	0.31458	0.24792	-0.51042	0.48958	-0.014583	-0.029167	0.375	-0.50625	0.03125	0.47292	-0.42083	-91.663	76.343	62.785	190.499	-76.362	188.671	155.204	173.236	-12.865	97.691	-14.468	-55.677	243.139	240.639	-19.409	187.763	0.00060646	0.00068463	0.00036185	1203.1	3.1741e-06	7.4161e-06	1213.3	449.63	8.6312e-06	1.1338e-05	485.43	196.39	172.97	87.029	2.1662e-06	99.993	0.001221	0.0012702	0.00034976	1115.3	1.3933e-05	1.406e-05	1124.3	418.14	1.3881e-05	1.4047e-05	455.17	183.78	161.41	81.644	1.3985e-05	93.182	-57.563	39.402	-41.733	-92.637	-58.916	-10.589	-93.736	-86.979	78.698	7.826	-89.281	-84.740	-81.998	-77.675	220.470	-80.885	-8191	255	
1797.532	1	1	0	0	0.1525	0.19854	0.15811	0.4379	0.44591	0.13544	0.066617	0.28343	0.11192	0.18083	0.33316	0.42233	0.14763	0.36665	0.16429	0.32637	0.93542	-0.016667	0.0625	0.49583	-0.1125	0.22083	0.26875	-0.3375	0.43125	0.10625	-0.27917	0.54167	-0.37917	-0.075	0.41875	-0.4625	-40.936	228.910	-95.480	198.588	-35.660	11.768	-44.544	215.228	99.122	116.956	226.667	-78.179	236.138	221.760	245.965	193.975	0.00050616	0.0004789	0.00028435	1196.2	6.6479e-06	1.018e-05	1223.1	447.07	7.6634e-06	7.2925e-06	486.91	196.18	172.56	87.392	9.3e-06	100.4	0.001215	0.0012758	0.00035869	1115.1	1.3834e-05	1.3925e-05	1130	419.04	1.4164e-05	1.4051e-05	456.31	183.95	161.38	81.62	1.4023e-05	93.454	-47.517	23.405	0.080	-92.466	72.313	15.743	-93.950	-87.094	55.528	-68.561	-89.297	-84.764	-81.918	-77.753	0.564	-81.411	-8191	255	
1797.628	1	1	0	0	0.13509	0.053018	0.23841	0.50276	0.10639	0.06744	0.2017	0.39331	0.042515	0.33995	0.12012	0.39432	0.086078	0.28164	0.088752	0.16479	0.88125	0.052083	-0.041667	0.53125	-0.24167	0.05	0.45	-0.4375	0.31042	0.25625	-0.26667	0.37292	-0.15625	-0.29583	0.61667	-0.4	101.857	65.711	203.998	209.357	43.297	-4.196	202.391	172.659	154.620	-56.981	179.168	214.040	-50.238	226.507	163.927	252.537	0.00039446	0.0013744	0.00031969	1205.4	1.0946e-05	7.3345e-06	1221.1	448.86	1.0052e-05	1.7733e-05	485.81	196.53	172.58	87.076	8.2892e-06	99.591	0.0012192	0.0012744	0.00035432	1118.7	1.3678e-05	1.3811e-05	1131.4	419.11	1.3723e-05	1.3946e-05	455.98	184.11	161.87	81.818	1.4115e-05	93.258	-84.235	-16.181	-11.367	-92.841	60.673	114.737	-94.226	-87.302	18.229	23.249	-89.435	-84.606	-81.949	-77.928	29.116	-81.174	-8191	255	
1797.749	1	1	0	0	0.099053	0.33199	0.25424	0.22251	0.17973	0.081589	0.27309	0.3391	0.048789	0.32343	0.22793	0.29015	0.28181	0.21217	0.06203	0.30617	0.73333	0.39375	-0.20833	0.33542	-0.060417	-0.0041667	0.4125	-0.36458	0.23958	0.14375	-0.35208	0.37708	0.0020833	0.0083333	0.675	-0.46458	-39.586	56.674	213.455	-87.444	85.136	44.352	142.874	-82.459	152.645	203.815	193.628	-74.348	243.034	94.684	32.295	216.569	0.00056161	0.00076577	8.5272e-05	1212.9	1.1032e-05	5.6513e-06	1223.5	451.63	5.178e-06	1.2526e-05	490.82	196.71	173.34	88.36	7.1625e-06	100.59	0.0012192	0.0012788	0.00035993	1121.2	1.3885e-05	1.3941e-05	1134.9	421.17	1.3541e-05	1.3864e-05	460.18	185.13	162.8	82.64	1.3995e-05	93.98	-57.948	0.396	24.863	-92.380	32.835	220.618	-93.407	-86.736	108.609	72.434	-89.394	-85.261	-82.120	-77.893	11.085	-81.502	-8191	255	
1797.843	1	1	0	0	0.16451	0.10729	0.057942	0.34915	0.41513	0.1869	0.21004	0.15755	0.056294	0.056071	0.16363	0.25172	0.20157	0.14624	0.074367	0.089896	0.62083	0.29375	-0.22083	0.41042	0.17083	-0.14375	0.42292	-0.39167	0.22708	0.57708	-0.45208	0.44792	-0.06875	-0.19792	0.64167	-0.25	95.426	-15.494	82.955	236.993	112.829	-99.358	171.433	208.109	15.303	-16.922	-71.140	176.508	182.809	231.339	197.524	244.597	0.00046188	0.00042753	0.00033619	1207.2	7.0268e-06	6.3163e-06	1224	450.41	7.6017e-06	1.4298e-05	494.51	198.53	174.06	88.577	8.9349e-06	101.29	0.0011704	0.0012703	0.00035191	1120.9	1.3541e-05	1.3756e-05	1138.9	421.34	1.3562e-05	1.3964e-05	462.07	185.94	163.25	82.931	1.3999e-05	94.443	-69.591	-24.735	-2.876	-92.785	36.249	80.756	-93.694	-87.120	75.624	39.224	-89.281	-85.023	-82.091	-78.069	-3.663	-81.316	-8191	255	
1797.939	1	1	0	0	0.29296	0.10064	0.058966	0.0438	0.056485	0.25984	0.10183	0.31236	0.14502	0.12882	0.28014	0.24088	0.16931	0.21516	0.2171	0.10919	0.50833	0.57292	-0.17708	0.23333	0.21875	-0.10833	0.51875	-0.175	0.10625	0.56667	-0.3875	0.20208	0.19167	-0.6	0.42917	-0.15208	-6.179	-19.542	240.569	175.382	-78.285	185.717	126.336	220.875	170.533	-99.714	185.929	191.095	210.792	224.113	228.038	117.171	0.00049262	0.00085557	0.00027195	1205.9	1.1285e-05	1.035e-05	1230.1	454.27	8.127e-06	1.6866e-05	494.55	199.92	176	88.661	5.1947e-06	101.34	0.0011801	0.0012312	0.00034224	1120.4	1.33e-05	1.3599e-05	1139.9	421.73	1.3319e-05	1.3378e-05	460.91	185.98	163.88	83.071	1.3335e-05	94.431	-64.967	-27.434	-8.865	-92.889	65.523	5.328	-94.217	-87.414	57.370	37.577	-89.422	-85.190	-82.279	-78.306	245.765	-81.518	-8191	255	
1798.036	1	1	0	0	0.14492	0.155	0.11463	0.27488	0.28153	0.11911	0.31862	0.36118	0.28915	0.063349	0.35477	0.27809	0.38753	0.1404	0.073389	0.24946	0.21458	0.62292	-0.24167	0.31875	0.26875	-0.32708	0.33333	-0.25208	-0.1	0.425	-0.25417	0.15833	0.38333	-0.425	0.5	-0.079167	33.708	-92.570	200.422	200.169	8.396	145.221	182.244	169.239	143.223	-68.152	145.492	254.195	169.381	207.990	46.829	146.363	0.00045155	0.00060928	0.00025363	1218.7	2.523e-06	1.3426e-05	1222.7	451.06	5.9034e-06	8.291e-06	493.12	198.45	174.29	89.154	3.1407e-06	100.59	0.0011592	0.0012224	0.00033922	1124.9	1.3077e-05	1.3356e-05	1136.1	421.38	1.2952e-05	1.3147e-05	458.83	184.85	163.05	83.045	1.2856e-05	94.152	-63.406	254.241	-11.822	-92.968	62.289	95.562	-93.949	-87.253	36.736	23.287	-89.238	-85.298	-82.239	-78.036	-65.960	-81.589	-8191	255	
1798.132	1	1	0	0	0.32578	0.16564	0.097666	0.40608	0.16713	0.076519	0.063457	0.38727	0.21687	0.0057152	0.10978	0.47041	0.22454	0.17439	0.11941	0.20059	0.15417	0.39167	-0.17708	-0.03125	0.3625	-0.48542	0.54792	0.0875	-0.3	0.52917	-0.20833	0.091667	0.46667	-0.54792	0.50208	0.089583	-75.939	54.803	-17.576	242.563	179.717	223.095	132.933	210.831	233.503	249.603	226.632	149.055	224.690	-103.366	250.879	157.489	0.00064546	0.0010126	0.00025505	1206.9	1.1512e-05	2.9895e-06	1226	452.33	4.5923e-06	7.6542e-06	491.16	197.41	173.98	87.907	9.9324e-06	100.08	0.0011314	0.0011874	0.00033678	1122.3	1.2982e-05	1.3247e-05	1137.2	421.25	1.3179e-05	1.377e-05	458.09	184.75	162.77	82.506	1.356e-05	93.715	-67.997	-20.364	20.615	-92.732	-0.587	-5.111	-94.070	-87.358	133.232	4.278	-89.485	-85.535	-82.411	-77.986	50.376	-81.766	-8191	255	
1798.228	1	1	0	0	0.31501	0.1732	0.10085	0.2691	0.06024	0.056301	0.10732	0.21818	0.29254	0.027812	0.086713	0.44131	0.44225	0.14395	0.23207	0.16858	0.28542	0.47292	-0.15833	-0.1	0.50208	-0.35625	0.10833	0.2125	-0.29375	0.64167	-0.25625	-0.26667	0.32292	-0.50417	0.20625	0.25833	-89.424	-40.371	33.822	-46.143	243.241	-40.538	114.798	215.610	198.575	239.823	-48.482	211.569	179.396	176.817	-50.270	101.660	0.00052164	0.0008759	0.0002701	1208.3	8.5049e-06	6.8631e-06	1226.8	451.94	2.3284e-06	7.9376e-06	489.83	196.59	173.28	88.187	5.2035e-06	100.47	0.0011731	0.0012331	0.00033864	1119.6	1.3242e-05	1.343e-05	1133.3	420.67	1.3221e-05	1.3323e-05	458.2	184.43	162.32	82.756	1.328e-05	93.816	-60.510	66.418	-33.441	-93.043	45.683	15.832	-94.182	-87.670	91.987	-52.570	-89.366	-85.335	-82.248	-78.113	38.604	-81.278	-8191	255	
1798.324	1	1	0	0	0.23517	0.16151	0.19275	0.31042	0.17017	0.20144	0.099224	0.24499	0.085183	0.27205	0.26257	0.35148	0.12122	0.16918	0.31497	0.18172	0.039583	0.55208	0.072917	-0.1	0.59583	-0.25833	0.0375	0.014583	-0.34792	0.40417	0.025	-0.3375	0.51667	-0.25833	0.075	0.16875	43.919	37.551	63.777	156.051	-90.801	227.275	-46.099	-70.906	252.990	197.196	223.275	214.516	224.221	-97.071	244.395	201.209	0.00051736	0.00065318	0.00018507	1204.1	8.4698e-06	1.1008e-05	1224.9	451.95	5.8805e-06	1.1447e-05	490.23	196.58	173.16	88.076	8.2911e-06	100.63	0.0011851	0.0012256	0.00034632	1118.9	1.3608e-05	1.3584e-05	1135.5	421.11	1.3755e-05	1.3624e-05	458.73	184.59	162.65	82.664	1.3503e-05	93.829	-66.578	1.146	-0.125	-92.783	80.965	4.619	-94.293	-87.459	104.827	53.912	-89.378	-85.288	-82.815	-78.368	4.726	-81.823	-8191	255	
1798.420	1	1	0	0	0.11007	0.20589	0.058625	0.30449	0.1975	0.20443	0.2004	0.32709	0.22956	0.21442	0.23673	0.24179	0.14147	0.27731	0.28048	0.14535	0.089583	0.76458	0.225	-0.4625	0.58125	-0.24167	-0.29583	0.19375	-0.24583	0.46667	0.13542	-0.34792	0.37083	-0.35417	0.052083	0.53125	137.044	-5.460	133.871	225.650	-11.268	-90.706	-67.191	-96.626	67.082	180.267	231.004	172.219	215.175	-93.439	159.106	-103.966	0.00051155	0.00074	0.00021255	1214.3	4.0231e-06	4.821e-06	1226.2	450.7	5.1438e-06	1.0519e-05	493.16	197.41	174.21	88.357	5.5418e-06	100.63	0.0011901	0.0012143	0.00034514	1122.3	1.3421e-05	1.3195e-05	1135.1	421.3	1.3527e-05	1.3335e-05	458.72	184.53	163.01	82.859	1.3366e-05	93.732	-65.253	-58.619	-30.749	-93.233	128.726	55.074	-94.289	-87.559	-12.171	98.837	-89.789	-85.294	-82.451	-78.426	35.166	-81.970	-8191	255	
1798.516	1	1	0	0	0.022887	0.37416	0.17005	0.67072	0.14117	0.29746	0.075041	0.20082	0.18694	0.062615	0.070089	0.314	0.33022	0.44342	0.098417	0.30786	0.30208	0.40625	0.325	-0.44583	0.48542	0.0083333	-0.22708	0.30417	-0.275	0.27708	0.2	-0.5375	0.31875	-0.20417	-0.23333	0.23542	195.603	143.719	185.457	219.737	-18.715	-12.422	219.080	183.481	146.851	-96.100	85.371	168.929	240.747	209.422	145.589	134.861	0.00056676	0.0009715	0.00035659	1211.4	5.4486e-06	9.1773e-06	1230.3	453.44	6.5926e-06	1.684e-05	490.46	198.02	173.79	88.424	6.6895e-06	100.26	0.0011771	0.0012088	0.00033877	1123.3	1.3329e-05	1.3605e-05	1136.9	422.34	1.3524e-05	1.3572e-05	459.23	185.51	163.36	83.06	1.3525e-05	93.662	-58.623	-72.593	-7.625	-93.162	138.748	15.600	-94.538	-87.766	58.478	14.161	-89.793	-85.518	-82.306	-78.257	11.769	-81.670	-8191	255	
1798.637	1	1	0	0	0.19099	0.23344	0.21717	0.31	0.20599	0.0996	0.21123	0.19602	0.15883	0.044176	0.13876	0.19711	0.15647	0.065441	0.29324	0.10037	0.125	0.04375	0.39792	-0.64375	0.45417	-0.039583	-0.33333	0.34167	-0.15	0.08125	0.26667	-0.65	0.3375	0.11042	-0.30417	0.30833	78.487	84.834	144.123	239.686	147.049	211.390	163.256	-52.914	216.271	-21.501	240.396	168.872	-73.804	226.685	151.648	232.812	0.00048647	0.0012837	0.00028913	1208.8	7.9589e-06	8.7642e-06	1230.7	455.24	3.1881e-06	1.2292e-05	492.02	198.48	174.19	88.552	2.6308e-06	100.34	0.0011999	0.0012227	0.0003494	1124.1	1.3254e-05	1.373e-05	1139.5	422.49	1.3525e-05	1.3649e-05	459.83	185.69	163.39	83.104	1.3696e-05	93.961	-61.661	-36.014	-87.855	-93.150	25.999	70.184	-94.306	-87.452	83.581	24.833	-89.394	-85.379	-82.667	-78.490	116.928	-82.000	-8191	255	
1798.731	1	1	0	0	0.2287	0.23529	0.090291	0.23504	0.24275	0.11366	0.49886	0.29837	0.2357	0.33915	0.42401	0.12354	0.22769	0.16847	0.036211	0.10867	0.039583	-0.01875	0.4625	-0.40417	0.425	0.17708	-0.52708	0.37292	-0.075	-0.04375	0.30417	-0.35	0.11667	0.13958	-0.41667	0.44792	154.036	216.732	-26.380	-63.753	-63.976	-64.046	187.341	160.893	10.993	184.194	210.044	-90.813	162.326	189.530	-33.721	133.919	0.00058287	0.00074715	0.00022703	1215.5	5.4529e-06	1.1627e-05	1233.6	454.78	6.1868e-06	1.6537e-05	492.69	198.39	174.59	88.306	1.0023e-05	100.09	0.0011863	0.0012299	0.00034805	1126.8	1.3331e-05	1.3973e-05	1141.1	422.62	1.3423e-05	1.3654e-05	460.23	185.45	163.46	82.905	1.4005e-05	93.43	-56.443	18.072	5.524	-93.099	160.868	56.945	-94.167	-87.617	16.472	2.836	-89.590	-85.299	-82.771	-78.237	-18.244	-81.815	-8191	255	
1798.829	1	1	0	0	0.27862	0.038708	0.24374	0.32935	0.22768	0.036592	0.28657	0.28673	0.1014	0.24189	0.35622	0.26454	0.089712	0.33815	0.051545	0.20876	0.325	-0.058333	0.56667	-0.45208	0.25833	0.32917	-0.48542	0.45	0.045833	-0.035417	0.41667	-0.27708	0.16667	0.34167	-0.19583	0.33958	244.447	46.990	-44.747	227.510	86.985	-9.972	163.505	177.108	-78.777	190.695	178.313	232.493	253.789	246.710	-19.751	221.659	0.00050704	0.0011551	0.00028689	1202.3	3.0273e-06	1.0823e-05	1215.5	450.68	1.1244e-05	7.8817e-06	485.57	196.12	173.09	87.853	9.7937e-06	99.629	0.0012027	0.0012765	0.00035665	1120.5	1.3528e-05	1.4243e-05	1134.5	420.78	1.3739e-05	1.4092e-05	455.92	183.44	162.86	82.486	1.3784e-05	92.801	-75.520	-31.577	21.447	-93.179	14.501	15.370	-94.205	-87.879	25.444	81.265	-89.759	-85.266	-82.636	-77.928	-2.480	-81.675	-8191	255	
1798.924	1	1	0	0	0.18562	0.086496	0.10419	0.50587	0.082867	0.089323	0.094118	0.42059	0.18818	0.22449	0.24778	0.20203	0.17529	0.087508	0.18122	0.087836	0.47708	0.025	0.61458	-0.25417	0.21667	0.41458	-0.44375	0.26042	-0.09375	-0.3375	0.52917	-0.41667	-0.0625	0.17917	-0.2375	0.18125	152.525	-58.393	28.057	194.412	-19.503	138.462	200.237	233.986	36.306	158.720	91.090	188.835	-30.439	196.905	85.137	147.612	0.00056855	0.00038352	0.00041839	1201.7	3.8877e-06	1.6558e-05	1222.9	453.17	7.9865e-06	9.0543e-06	490.45	197.09	173.15	87.915	8.3091e-06	99.022	0.0011965	0.0012616	0.00035523	1118.7	1.3509e-05	1.4061e-05	1133.5	421.31	1.348e-05	1.3984e-05	457.6	183.83	162.6	82.671	1.3875e-05	92.874	-67.500	-21.797	-23.080	-92.901	160.952	75.246	-94.195	-87.737	48.170	63.025	-89.829	-85.149	-82.560	-78.173	83.139	-81.865	-8191	255	
#DATA ENDS
