BOXY.EXE: ISS Imagent and Oximeter Data Acquisition Program Version 0.80
Ascii Record File

#ACQ INFORMATION
2  Detector Channels 
16  External MUX Channels 
1  Auxiliary Channels 
5000  Waveform (CCF) Frequency (Hz)
1  Waveforms Skipped 
30  Waveforms Averaged 
1  Cycles Averaged 
16  Acquisitions per Waveform 
10.0806  Updata Rate (Hz) 

#FILE INFORMATION
TRUE -- External MUX Channel results are PARSED.
FALSE -- AC DC and Phase are NOT grouped.
TRUE -- Companion Program Settings File CREATED.
FALSE -- AC data not excluded
FALSE -- DC data not excluded
FALSE -- Phase data not excluded
FALSE -- Auxillary Chn. data not excluded
Tab delimiters

#CALIBRATION STATE
TRUE -- Waveform Calibration Values APPLIED.


#AUX CALIBRATION VALUES
Val Type	aux-1	

Term	1.0000e+00	
Factor	0.0000e+00	


#WF CALIBRATION VALUES
A = Detector Channel
Val Type	A-AC1	A-AC2	A-AC3	A-AC4	A-AC5	A-AC6	A-AC7	A-AC8	A-AC9	A-AC10	A-AC11	A-AC12	A-AC13	A-AC14	A-AC15	A-AC16	A-DC1	A-DC2	A-DC3	A-DC4	A-DC5	A-DC6	A-DC7	A-DC8	A-DC9	A-DC10	A-DC11	A-DC12	A-DC13	A-DC14	A-DC15	A-DC16	A-Ph1	A-Ph2	A-Ph3	A-Ph4	A-Ph5	A-Ph6	A-Ph7	A-Ph8	A-Ph9	A-Ph10	A-Ph11	A-Ph12	A-Ph13	A-Ph14	A-Ph15	A-Ph16	

Term	0.00000e+00	0.00000e+00	0.00000e+00	0.00000e+00	0.00000e+00	0.00000e+00	0.00000e+00	0.00000e+00	0.00000e+00	0.00000e+00	0.00000e+00	0.00000e+00	0.00000e+00	0.00000e+00	0.00000e+00	0.00000e+00	0.00000e+00	0.00000e+00	0.00000e+00	0.00000e+00	0.00000e+00	0.00000e+00	0.00000e+00	0.00000e+00	0.00000e+00	0.00000e+00	0.00000e+00	0.00000e+00	0.00000e+00	0.00000e+00	0.00000e+00	0.00000e+00	0.00000e+00	0.00000e+00	0.00000e+00	0.00000e+00	0.00000e+00	0.00000e+00	0.00000e+00	0.00000e+00	0.00000e+00	0.00000e+00	0.00000e+00	0.00000e+00	0.00000e+00	0.00000e+00	0.00000e+00	0.00000e+00	
Factor	1.00000e+00	1.00000e+00	1.00000e+00	1.00000e+00	1.00000e+00	1.00000e+00	1.00000e+00	1.00000e+00	1.00000e+00	1.00000e+00	1.00000e+00	1.00000e+00	1.00000e+00	1.00000e+00	1.00000e+00	1.00000e+00	1.00000e+00	1.00000e+00	1.00000e+00	1.00000e+00	1.00000e+00	1.00000e+00	1.00000e+00	1.00000e+00	1.00000e+00	1.00000e+00	1.00000e+00	1.00000e+00	1.00000e+00	1.00000e+00	1.00000e+00	1.00000e+00	X	X	X	X	X	X	X	X	X	X	X	X	X	X	X	X	

B = Detector Channel
Val Type	B-AC1	B-AC2	B-AC3	B-AC4	B-AC5	B-AC6	B-AC7	B-AC8	B-AC9	B-AC10	B-AC11	B-AC12	B-AC13	B-AC14	B-AC15	B-AC16	B-DC1	B-DC2	B-DC3	B-DC4	B-DC5	B-DC6	B-DC7	B-DC8	B-DC9	B-DC10	B-DC11	B-DC12	B-DC13	B-DC14	B-DC15	B-DC16	B-Ph1	B-Ph2	B-Ph3	B-Ph4	B-Ph5	B-Ph6	B-Ph7	B-Ph8	B-Ph9	B-Ph10	B-Ph11	B-Ph12	B-Ph13	B-Ph14	B-Ph15	B-Ph16	

Term	0.00000e+00	0.00000e+00	0.00000e+00	0.00000e+00	0.00000e+00	0.00000e+00	0.00000e+00	0.00000e+00	0.00000e+00	0.00000e+00	0.00000e+00	0.00000e+00	0.00000e+00	0.00000e+00	0.00000e+00	0.00000e+00	0.00000e+00	0.00000e+00	0.00000e+00	0.00000e+00	0.00000e+00	0.00000e+00	0.00000e+00	0.00000e+00	0.00000e+00	0.00000e+00	0.00000e+00	0.00000e+00	0.00000e+00	0.00000e+00	0.00000e+00	0.00000e+00	-2.96995e+01	-1.33769e+02	-1.26516e+02	-1.84058e+02	-3.99527e+01	-6.47538e+01	-1.56688e+02	-1.62015e+02	-4.30249e+01	-7.73077e+01	-1.71935e+02	-1.70049e+02	-1.80086e+02	-1.77848e+02	-5.58511e+01	-1.50534e+02	
Factor	2.88775e-05	1.68689e-04	4.92294e-05	1.52286e-01	1.73567e-06	1.67541e-06	1.71212e-01	6.27324e-02	1.47108e-06	2.05293e-06	9.73605e-02	3.15056e-02	2.51475e-02	1.01407e-02	1.80213e-06	1.43710e-02	4.62138e-06	5.26198e-06	1.46997e-06	7.92126e-02	5.64241e-08	5.80173e-08	8.33705e-02	3.25776e-02	5.66462e-08	5.81525e-08	4.88203e-02	1.58724e-02	1.31955e-02	5.30411e-03	5.73294e-08	7.26215e-03	X	X	X	X	X	X	X	X	X	X	X	X	X	X	X	X	



#DISTANCE SETTINGS
A = Detector Channel
A-1	A-2	A-3	A-4	A-5	A-6	A-7	A-8	A-9	A-10	A-11	A-12	A-13	A-14	A-15	A-16	

2.5000e+00	3.0000e+00	2.5000e+00	3.0000e+00	2.0000e+00	3.0000e+00	1.5000e+00	3.0000e+00	3.0000e+00	3.0000e+00	3.0000e+00	3.0000e+00	3.0000e+00	3.0000e+00	1.5000e+00	3.0000e+00	

B = Detector Channel
B-1	B-2	B-3	B-4	B-5	B-6	B-7	B-8	B-9	B-10	B-11	B-12	B-13	B-14	B-15	B-16	

1.0000e+01	1.0000e+01	1.0000e+01	1.4400e+00	1.0000e+01	1.0000e+01	1.5100e+00	1.9400e+00	1.0000e+01	1.0000e+01	1.9900e+00	2.4900e+00	2.4100e+00	2.9000e+00	1.0000e+01	2.9800e+00	




#DATA BEGINS
time	group	step	mark	flag	A-AC1	A-AC2	A-AC3	A-AC4	A-AC5	A-AC6	A-AC7	A-AC8	A-AC9	A-AC10	A-AC11	A-AC12	A-AC13	A-AC14	A-AC15	A-AC16	A-DC1	A-DC2	A-DC3	A-DC4	A-DC5	A-DC6	A-DC7	A-DC8	A-DC9	A-DC10	A-DC11	A-DC12	A-DC13	A-DC14	A-DC15	A-DC16	A-Ph1	A-Ph2	A-Ph3	A-Ph4	A-Ph5	A-Ph6	A-Ph7	A-Ph8	A-Ph9	A-Ph10	A-Ph11	A-Ph12	A-Ph13	A-Ph14	A-Ph15	A-Ph16	B-AC1	B-AC2	B-AC3	B-AC4	B-AC5	B-AC6	B-AC7	B-AC8	B-AC9	B-AC10	B-AC11	B-AC12	B-AC13	B-AC14	B-AC15	B-AC16	B-DC1	B-DC2	B-DC3	B-DC4	B-DC5	B-DC6	B-DC7	B-DC8	B-DC9	B-DC10	B-DC11	B-DC12	B-DC13	B-DC14	B-DC15	B-DC16	B-Ph1	B-Ph2	B-Ph3	B-Ph4	B-Ph5	B-Ph6	B-Ph7	B-Ph8	B-Ph9	B-Ph10	B-Ph11	B-Ph12	B-Ph13	B-Ph14	B-Ph15	B-Ph16	aux-1	digaux	

1118.554	1	1	0	768	0.20535	0.17428	0.095501	0.19118	0.17419	0.24445	0.34458	0.36957	0.17362	0.094142	0.29475	0.082481	0.31681	0.17468	0.26578	0.24991	0.052083	-0.3	0.18125	-0.8375	0.20208	-0.058333	-0.6875	0.225	-0.54375	-0.12083	0.18333	-0.75417	-0.0875	-0.17292	-0.60417	0.083333	253.926	467.545	462.097	157.104	482.825	207.170	430.261	420.226	408.458	160.606	381.452	306.850	204.682	407.541	430.537	435.080	0.00079364	0.00051745	0.00010936	1255.3	4.5546e-06	4.4533e-06	1264.3	347.85	6.7931e-06	5.7908e-06	400.3	135.96	116.08	40.572	5.2681e-06	51.027	0.00025297	0.00018759	5.2407e-05	1272.7	2.1709e-06	2.0816e-06	1282.2	351.24	2.1601e-06	2.033e-06	405.31	137.46	118.08	41.44	2.0464e-06	51.982	291.284	218.088	227.484	157.523	323.447	303.556	156.776	162.291	301.967	273.528	161.631	166.115	166.849	171.455	317.510	170.433	-8191	255	
1118.650	1	1	0	0	0.20616	0.064702	0.077977	0.4383	0.079003	0.2671	0.05308	0.025213	0.24114	0.20163	0.15413	0.11553	0.26534	0.17386	0.089161	0.22294	-0.079167	-0.35833	0.2625	-0.72917	0.15208	0.0625	-0.75208	0.14583	-0.43333	-0.27917	0.18125	-0.46875	-0.28333	0.00625	-0.64792	0.14792	314.915	237.173	449.511	489.928	264.604	295.300	317.900	344.992	464.974	162.739	483.951	502.726	165.924	485.725	168.981	450.972	0.00078117	0.00047975	0.00016196	1256.8	5.7493e-06	3.2458e-06	1268.7	346.58	5.7005e-06	6.2298e-06	401.28	136.26	116.73	40.416	3.929e-06	51.046	0.00025556	0.0001888	5.1682e-05	1273.7	2.1311e-06	2.0873e-06	1283	350.95	2.1863e-06	2.057e-06	405.49	137.36	118.19	41.328	1.9927e-06	52.007	289.957	247.944	233.131	157.763	314.478	297.887	157.200	162.546	312.871	294.990	161.534	166.153	166.971	171.531	273.517	170.384	-8191	255	
1118.746	1	1	0	0	0.16645	0.076154	0.18222	0.15051	0.3283	0.090449	0.23841	0.22932	0.19874	0.27507	0.19943	0.34758	0.13093	0.10321	0.08543	0.094428	0.12292	-0.32083	0.26875	-0.675	-0.064583	0.18333	-0.88958	0.13125	-0.37292	-0.31458	0.20833	-0.65	-0.18333	0.13333	-0.48333	-0.064583	168.163	269.090	373.082	246.267	489.980	403.767	353.700	443.991	306.531	275.582	282.428	493.797	348.604	452.747	254.522	260.542	0.00077331	0.00052613	0.00017532	1255.1	7.3882e-06	5.6984e-06	1267	346.08	7.3919e-06	4.6755e-06	396.66	134.97	116.83	40.396	5.2919e-06	50.671	0.00025175	0.00018343	5.1568e-05	1273	2.1891e-06	2.027e-06	1284.6	351.06	2.143e-06	2.0396e-06	404.92	137.2	118.24	41.351	2.0482e-06	51.832	287.066	233.755	250.225	157.583	322.713	300.518	157.577	162.765	304.643	269.816	161.839	166.301	166.778	171.436	295.419	170.409	-8191	255	
1118.843	1	1	0	0	0.16075	0.21928	0.30187	0.28981	0.27221	0.042427	0.35954	0.16486	0.11508	0.14409	0.09281	0.29524	0.14196	0.2175	0.19646	0.080093	0.075	-0.41875	0.39375	-0.57292	-0.31458	0.27083	-0.85833	0.027083	0.14375	-0.68333	0.1875	-0.33958	-0.22917	-0.014583	-0.62083	-0.083333	272.404	193.234	321.369	484.891	285.259	246.955	444.970	479.082	268.266	171.307	389.847	428.350	477.107	244.078	247.017	454.351	0.00080552	0.0003237	0.00013689	1246.8	8.3998e-06	4.7197e-06	1273.2	346.33	4.8158e-06	7.1144e-06	399.54	135.89	116.51	40.255	5.8461e-06	50.904	0.0002588	0.00018591	5.2689e-05	1271.9	2.1456e-06	2.0289e-06	1285.3	350.8	2.1535e-06	1.9859e-06	404.91	137.46	117.94	41.246	2.0648e-06	51.936	290.272	232.971	230.233	158.226	318.413	295.911	157.166	162.082	277.879	297.550	161.029	165.595	166.444	170.869	304.802	169.665	-8191	255	
1118.939	1	1	0	0	0.23046	0.20465	0.27744	0.14472	0.16035	0.081906	0.23357	0.29987	0.18209	0.12923	0.50567	0.25135	0.16686	0.13252	0.028603	0.12405	0.45625	-0.56042	0.28542	-0.63333	-0.36875	0.4	-0.75625	-0.20208	0.0083333	-0.51875	0.072917	-0.38333	-0.60625	0.13125	-0.49583	-0.38542	146.853	279.287	448.757	487.489	172.739	337.631	320.871	474.481	394.211	498.981	485.025	501.161	447.689	157.189	285.240	440.585	0.0008088	0.00047812	0.00020456	1255.5	6.3296e-06	7.7503e-06	1270	347.65	4.5294e-06	4.4559e-06	399.67	135.74	116.15	40.444	5.4028e-06	50.982	0.00025593	0.00018098	5.2156e-05	1275.1	2.1546e-06	2.0659e-06	1283.2	351.18	2.1733e-06	2.0093e-06	405.22	137.37	118.03	41.296	2.05e-06	51.914	287.804	230.477	251.530	157.086	313.188	301.966	156.754	162.056	292.703	259.687	161.040	165.238	165.800	170.690	276.261	169.796	-8191	255	
1119.035	1	1	0	0	0.15215	0.1262	0.051821	0.3804	0.20076	0.31864	0.24449	0.13497	0.12493	0.15313	0.094974	0.053688	0.045533	0.32627	0.13461	0.23364	0.47292	-0.54167	0.089583	-0.25	-0.46458	0.13125	-0.55417	-0.34792	0.2125	-0.4625	0.075	-0.077083	-0.6	0.30208	-0.33542	-0.35	222.289	359.532	296.866	148.940	292.358	149.842	436.407	304.615	482.131	191.907	178.418	335.454	315.589	473.970	500.687	494.978	0.00076066	0.00053476	0.00012412	1256.2	6.065e-06	2.032e-06	1269.8	345.8	5.1429e-06	6.3769e-06	400.32	135.64	116.61	40.244	4.2621e-06	50.643	0.00025361	0.00018048	5.1284e-05	1272.3	2.1554e-06	2.048e-06	1283	350.63	2.12e-06	1.9846e-06	404.78	137.3	118.19	41.284	2.0394e-06	51.802	286.681	232.045	214.882	157.501	318.133	293.087	157.346	162.076	305.218	270.984	160.916	165.912	166.294	170.838	307.435	170.063	-8191	255	
1119.156	1	1	0	0	0.043329	0.16144	0.30654	0.093758	0.20828	0.33358	0.37027	0.28936	0.23433	0.10608	0.12506	0.36368	0.3166	0.16682	0.23695	0.068503	0.57292	-0.79167	-0.033333	-0.24167	-0.65	0.21458	-0.61875	-0.2875	0.225	-0.76875	-0.05	0.010417	-0.80833	0.11042	-0.4375	-0.36042	237.697	383.645	299.757	440.283	218.805	425.051	486.580	488.485	380.422	440.540	206.905	457.378	435.750	445.198	271.828	182.892	0.00081753	0.00056418	0.00015159	1258	4.3917e-06	3.9284e-06	1269.8	347.02	5.679e-06	5.7873e-06	397.09	135.74	116.61	40.513	5.879e-06	50.984	0.00025271	0.00018657	5.2251e-05	1274.8	2.1543e-06	1.9836e-06	1281.8	350.93	2.116e-06	1.9848e-06	404.89	137.21	118.3	41.367	2.0802e-06	51.967	289.528	230.103	250.410	157.594	323.442	300.227	157.278	162.413	320.157	291.723	161.178	166.175	166.514	171.230	309.834	170.318	-8191	255	
1119.252	1	1	0	0	0.11203	0.12823	0.23458	0.25174	0.36264	0.13151	0.37089	0.21803	0.22975	0.12116	0.24914	0.21431	0.11198	0.19598	0.22726	0.1241	0.59792	-0.57917	0.24167	-0.16667	-0.54792	0.18333	-0.48542	-0.36875	0.225	-0.5875	-0.11667	-0.054167	-0.67083	0.17292	-0.13958	-0.66875	156.565	501.997	277.784	151.767	239.730	358.264	400.518	493.857	160.562	174.924	405.277	469.721	488.225	339.645	330.814	365.402	0.00081041	0.00042275	0.00016419	1249.9	5.1697e-06	4.7063e-06	1258.6	348.35	3.3394e-06	6.304e-06	400.74	135.71	117.06	40.416	7.1527e-06	50.775	0.00025618	0.0001845	5.136e-05	1273.2	2.0594e-06	2.014e-06	1279.7	351.7	2.0966e-06	2.0151e-06	405.07	137.2	118.5	41.289	2.1177e-06	51.867	291.248	248.062	237.332	157.747	309.712	282.766	157.442	162.331	304.072	264.609	161.354	166.116	166.810	171.153	314.178	169.975	-8191	255	
1119.348	1	1	0	0	0.064092	0.062443	0.13707	0.14162	0.17542	0.18653	0.23854	0.38858	0.35348	0.045007	0.1884	0.047325	0.26718	0.42893	0.2092	0.057828	0.80208	-0.53125	-0.20833	-0.064583	-0.51875	0.12708	-0.41042	-0.70833	0.45208	-0.50625	-0.28958	0.24583	-0.75	0.0875	0.064583	-0.54375	371.399	500.521	223.921	255.916	382.113	401.423	497.862	414.735	201.440	371.411	363.036	163.607	154.767	146.979	479.181	200.582	0.00082439	0.00058837	0.00017499	1257.3	7.618e-06	5.397e-06	1269.6	346.76	5.7494e-06	3.4023e-06	398.67	135.4	116.5	40.609	6.6102e-06	50.905	0.00025938	0.00018566	5.1921e-05	1272.5	2.0871e-06	2.0703e-06	1283.1	351.27	2.135e-06	2.0559e-06	405.04	137.33	118.28	41.379	2.1359e-06	51.857	286.688	222.702	222.108	157.324	303.800	311.397	157.560	162.743	306.218	262.821	161.827	166.206	166.889	171.066	307.160	169.998	-8191	255	
1119.444	1	1	0	0	0.18376	0.1244	0.084465	0.12804	0.09232	0.066688	0.32485	0.3516	0.10012	0.13556	0.039345	0.091899	0.39179	0.22341	0.066114	0.1184	0.52292	-0.18125	-0.27083	0.12917	-0.65625	-0.14583	0.16667	-0.70208	0.43958	-0.24375	-0.44583	0.42917	-0.55	-0.11667	0.077083	-0.64583	245.861	184.996	484.288	410.669	293.442	422.399	437.297	419.464	195.131	362.268	153.348	462.878	216.377	419.633	443.576	317.927	0.00081104	0.00042549	0.00016779	1255.7	7.5238e-06	5.1147e-06	1277	345.66	6.6109e-06	3.2095e-06	401.3	135.66	116.24	40.274	4.8475e-06	50.754	0.00025706	0.00018772	5.2031e-05	1273.4	2.1723e-06	2.0816e-06	1284.9	350.6	2.1587e-06	2.0553e-06	405.84	137.21	118.08	41.273	2.1496e-06	51.848	288.022	230.970	226.543	157.505	318.657	301.963	157.279	162.582	285.604	246.412	161.389	166.043	166.657	171.116	296.189	170.038	-8191	255	
1119.538	1	1	0	0	0.23682	0.18363	0.068354	0.18423	0.048363	0.28755	0.22635	0.32513	0.13488	0.13515	0.4181	0.39871	0.24381	0.085957	0.26041	0.13861	0.60208	-0.3	-0.35208	0.175	-0.53125	0.0083333	-0.20833	-0.60625	0.28958	-0.04375	-0.58333	0.16875	-0.5875	-0.125	0.20833	-0.52708	454.088	323.659	337.201	392.093	229.731	309.222	401.388	432.405	490.671	269.392	406.757	165.545	454.383	456.922	326.349	195.894	0.00083255	0.0006826	0.00017695	1252.6	4.8282e-06	3.7897e-06	1271.6	345.91	5.7578e-06	7.2209e-06	399.56	136.32	116.94	40.273	5.8929e-06	50.484	0.00025783	0.00019258	5.0656e-05	1272.5	2.1989e-06	2.0815e-06	1283.7	350.51	2.1746e-06	2.0673e-06	405.07	137.33	118.25	41.169	2.1669e-06	51.802	290.020	216.995	230.764	157.467	301.108	282.844	156.808	162.047	317.381	261.720	161.306	165.639	166.282	171.051	319.211	170.029	-8191	255	
1119.635	1	1	0	0	0.19813	0.19325	0.22094	0.20738	0.053951	0.2109	0.21749	0.31804	0.1303	0.11644	0.25882	0.24907	0.28253	0.1758	0.24604	0.13435	0.7625	-0.14792	-0.53333	0.15208	-0.40625	-0.24375	-0.016667	-0.57708	0.17917	-0.16042	-0.54792	0.15625	-0.72917	-0.38542	0.14167	-0.64167	306.087	474.370	386.936	210.249	359.948	194.635	472.823	486.206	186.485	498.920	455.770	474.045	144.878	446.866	260.524	235.725	0.00082173	0.00029816	0.00015915	1255.1	7.9359e-06	6.6022e-06	1268.6	346.06	6.692e-06	1.9663e-06	400.65	135.56	116.46	40.37	5.9678e-06	50.399	0.00025858	0.00018999	5.2089e-05	1273.6	2.1982e-06	2.0368e-06	1282.4	350.82	2.1845e-06	2.0619e-06	405.46	137.16	118.05	41.294	2.1593e-06	51.726	289.155	254.024	227.653	157.061	299.607	301.647	156.866	162.125	319.347	286.406	160.971	165.823	166.810	171.081	292.465	169.919	-8191	255	
1119.755	1	1	0	0	0.28734	0.058261	0.11183	0.20845	0.29776	0.23205	0.083031	0.13876	0.071329	0.12783	0.13899	0.13735	0.10161	0.071821	0.17394	0.34676	0.42292	0.016667	-0.35833	0.070833	-0.39792	-0.36042	0.077083	-0.58125	0.0125	-0.072917	-0.86042	0.19167	-0.45417	-0.43125	0.20625	-0.52917	245.629	257.611	468.290	500.570	316.465	158.216	445.684	189.228	500.874	314.437	178.071	444.136	420.197	432.689	411.050	484.178	0.00079383	0.00047733	0.00011508	1251	3.929e-06	5.4338e-06	1269.7	346.49	4.4828e-06	3.9676e-06	400.05	135.53	116.59	40.424	4.6526e-06	50.588	0.00026471	0.00019151	5.2735e-05	1272.1	2.1896e-06	2e-06	1282.3	351.07	2.1878e-06	2.0941e-06	405.58	137.15	117.97	41.171	2.2468e-06	51.765	291.537	222.525	257.050	157.500	314.611	288.463	157.070	162.483	322.170	280.716	161.201	165.815	166.423	170.870	290.987	169.588	-8191	255	
1119.851	1	1	0	0	0.3066	0.24683	0.063265	0.25698	0.05742	0.26021	0.27029	0.16746	0.20061	0.21878	0.27421	0.29452	0.24138	0.029904	0.22536	0.062531	0.32708	0.20208	-0.25	0.08125	-0.2	-0.48958	0.1875	-0.43333	0.19375	0.40625	-0.78125	0.13125	-0.0041667	-0.28958	0.085417	-0.275	471.864	397.225	450.637	469.328	150.206	151.346	395.313	171.317	318.248	222.717	462.557	483.030	314.154	338.274	200.654	146.283	0.00076643	0.00038062	0.00015302	1252.5	7.2684e-06	4.9005e-06	1267.2	345.92	4.0724e-06	6.2579e-06	399.75	134.81	116.43	40.266	6.3067e-06	50.49	0.00025835	0.00019192	5.3182e-05	1272.5	2.3006e-06	2.0398e-06	1281	350.87	2.1607e-06	2.1031e-06	405.29	136.66	118.04	41.168	2.174e-06	51.696	289.775	232.536	221.606	156.821	301.052	281.972	156.619	161.888	310.233	280.115	160.943	165.487	166.261	170.838	289.035	169.485	-8191	255	
1119.947	1	1	0	0	0.10248	0.093417	0.18618	0.42461	0.30915	0.15934	0.32807	0.13654	0.088228	0.059691	0.34041	0.12694	0.059594	0.13624	0.13326	0.045349	0.0625	0.34375	-0.625	-0.052083	-0.089583	-0.42292	0.14167	-0.46667	-0.24583	0.26458	-0.77708	-0.085417	-0.058333	-0.54792	0.25625	-0.4125	355.466	323.410	427.251	461.473	200.158	474.368	468.618	284.535	183.282	231.033	449.767	422.887	206.363	164.970	347.526	169.838	0.00080013	0.00060005	0.00017631	1255.8	5.1349e-06	5.9002e-06	1263	347.84	4.9846e-06	4.0247e-06	398.59	135.53	116.55	40.357	6.0637e-06	50.684	0.00025661	0.0001949	5.2264e-05	1272.7	2.2323e-06	2.0452e-06	1281.3	350.4	2.1586e-06	2.1052e-06	404.54	136.95	118.03	41.153	2.1862e-06	51.695	289.705	216.007	222.660	156.998	308.314	293.433	157.245	162.239	290.502	271.100	161.149	165.681	166.321	170.828	302.435	169.800	-8191	255	
1120.044	1	1	0	0	0.27679	0.0099727	0.066416	0.16782	0.16008	0.23613	0.18037	0.23302	0.17154	0.035515	0.36865	0.07572	0.25296	0.28351	0.052875	0.23297	-0.18958	0.28125	-0.46667	-0.11875	0.09375	-0.58542	-0.00625	-0.32708	-0.33125	0.30625	-0.53125	-0.10625	-0.010417	-0.6375	0.20833	-0.24167	188.008	441.056	180.236	203.470	351.526	329.964	357.436	216.363	501.939	392.724	493.601	206.461	145.585	470.999	436.915	430.489	0.00080425	0.00053955	0.00012149	1254.2	6.8108e-06	4.9206e-06	1264.3	346.65	4.0324e-06	2.5367e-06	399.99	134.91	116.61	40.45	5.5408e-06	50.644	0.00025751	0.00019206	5.3538e-05	1272.5	2.2169e-06	2.0221e-06	1280.6	350.51	2.1592e-06	2.1098e-06	404.87	136.62	118.04	41.163	2.1926e-06	51.683	289.669	227.514	238.908	156.888	298.666	293.213	156.895	162.142	323.059	270.186	160.996	165.719	166.395	171.082	301.474	170.292	-8191	255	
1120.115	1	1	0	0	0.10458	0.13576	0.26327	0.48283	0.2902	0.10894	0.43697	0.13343	0.2661	0.065279	0.41504	0.056738	0.28524	0.19357	0.065775	0.19413	-0.19583	0.33542	-0.36875	-0.26042	0.091667	-0.57708	-0.19375	-0.21667	-0.44792	0.31458	-0.6	-0.36042	0.039583	-0.62708	0.16667	-0.14583	191.630	192.133	405.074	487.620	205.221	409.090	416.718	452.301	416.347	476.585	433.102	495.702	352.577	213.803	341.688	189.960	0.00081462	0.00034835	0.0001479	1257.1	5.6612e-06	4.839e-06	1269.4	345.81	6.093e-06	4.3497e-06	397.81	135.4	116.86	40.184	9.4455e-06	50.452	0.00025713	0.00019589	5.2512e-05	1272.8	2.2506e-06	2.0943e-06	1281.8	350.52	2.1534e-06	2.1515e-06	404.08	136.85	117.92	41.127	2.2004e-06	51.625	290.219	213.679	219.149	156.972	304.493	308.269	156.759	161.800	304.987	273.385	161.034	165.635	166.258	170.705	306.111	169.924	-8191	255	
1120.236	1	1	0	0	0.29291	0.14434	0.12677	0.23669	0.13391	0.077789	0.17699	0.064417	0.13667	0.11355	0.073965	0.34821	0.54693	0.15633	0.16358	0.17636	-0.085417	0.32708	-0.37083	-0.38333	0.18125	-0.57083	-0.025	-0.10417	-0.43333	0.20208	-0.42917	-0.44792	0.11667	-0.53125	0.10208	0.014583	434.021	232.058	283.475	424.644	245.151	477.692	475.837	272.471	170.944	204.931	167.858	153.751	485.684	307.571	379.676	300.132	0.00076827	0.00061334	0.0001246	1252.8	5.6089e-06	3.6611e-06	1265.5	346.91	5.5035e-06	4.063e-06	399.13	135.56	116.54	40.181	6.7593e-06	50.435	0.00025304	0.00019867	5.3945e-05	1271.2	2.1994e-06	2.0341e-06	1281.2	350.91	2.1726e-06	2.1069e-06	404.34	136.77	117.89	41.113	2.225e-06	51.616	289.419	226.842	237.618	156.967	304.057	324.576	156.782	162.024	326.396	308.975	160.855	165.625	166.017	170.663	301.069	170.110	-8191	255	
1120.330	1	1	0	0	0.08511	0.036542	0.31023	0.43504	0.12838	0.020135	0.3596	0.061834	0.32518	0.14515	0.02491	0.31513	0.28456	0.17106	0.0846	0.21733	-0.28125	0.31458	-0.38542	-0.58333	0.17708	-0.60833	-0.27917	-0.033333	-0.575	0.20833	-0.33125	-0.5875	0.10208	-0.47917	0.072917	0.09375	214.874	253.882	267.486	471.829	493.591	472.000	428.182	351.825	234.158	351.124	484.575	480.593	161.123	489.544	350.068	412.379	0.00075886	0.00040881	0.00015968	1255.7	5.8499e-06	5.9628e-06	1267.7	346.69	4.3916e-06	6.2636e-06	398.81	135.55	116.71	39.982	5.4437e-06	50.34	0.00025757	0.00019481	5.3574e-05	1271.3	2.2206e-06	2.1379e-06	1281.2	350.41	2.1588e-06	2.1386e-06	404.53	136.8	117.91	41.064	2.1102e-06	51.618	288.711	210.233	210.139	156.783	305.457	303.441	157.140	162.109	305.842	276.284	161.051	165.337	166.240	170.742	287.817	170.032	-8191	255	
1120.428	1	1	0	0	0.19369	0.19909	0.2391	0.20584	0.23933	0.39215	0.33098	0.22795	0.091131	0.22307	0.20583	0.092664	0.20512	0.12004	0.021876	0.18917	-0.38958	0.1125	-0.091667	-0.64583	0.19583	-0.47292	-0.425	0.066667	-0.64375	0.064583	-0.14167	-0.68958	-0.010417	-0.47083	-0.24375	0.035417	185.693	171.840	453.030	400.282	500.061	454.734	462.471	468.101	435.065	491.292	177.581	269.579	226.146	421.566	285.978	407.221	0.00080954	0.00053224	0.00016524	1251.9	4.5939e-06	3.6466e-06	1264.1	346.96	4.6898e-06	5.1925e-06	399.51	135.63	116.49	40.168	5.8906e-06	50.647	0.0002575	0.00019345	5.2989e-05	1270.7	2.255e-06	2.126e-06	1281.1	350.54	2.1451e-06	2.1095e-06	405.16	136.78	117.99	41.125	2.1288e-06	51.643	287.575	211.841	234.672	156.925	306.067	318.885	156.680	161.962	319.766	300.546	160.956	165.306	166.129	170.584	305.141	169.431	-8191	255	
1120.547	1	1	0	0	0.14264	0.085834	0.16086	0.4183	0.35111	0.12707	0.45471	0.31656	0.15305	0.18417	0.14369	0.037176	0.12611	0.048236	0.13252	0.035732	-0.16667	0.085417	0.19583	-0.51458	0.15208	-0.21667	-0.58542	0.31042	-0.52917	-0.16458	-0.18542	-0.65	0.27083	-0.23958	-0.18333	0.225	194.240	300.931	327.722	485.232	365.140	410.554	456.160	411.854	481.792	181.691	237.504	433.297	318.455	149.229	192.344	386.389	0.00080879	0.00048399	0.00014365	1251.2	7.5356e-06	5.3242e-06	1265.3	346.49	5.5077e-06	3.4892e-06	398.94	134.63	116.25	40.064	4.8834e-06	50.677	0.00026066	0.0001932	5.2211e-05	1269.6	2.2553e-06	2.0751e-06	1280.4	350.25	2.1639e-06	2.0284e-06	404.09	136.65	117.8	41.082	2.0635e-06	51.736	292.726	253.553	223.251	156.765	307.809	294.470	156.336	161.630	300.884	304.476	161.006	165.620	166.098	170.688	302.108	169.732	-8191	255	
1120.643	1	1	0	0	0.16429	0.10987	0.27132	0.31217	0.083935	0.15462	0.43104	0.25704	0.13836	0.11144	0.24887	0.27249	0.35162	0.47443	0.10196	0.039953	-0.15417	-0.070833	0.20833	-0.82292	0.14375	-0.1625	-0.7125	0.14792	-0.45417	-0.225	-0.0041667	-0.58333	0.11667	-0.12708	-0.44375	0.28958	383.162	301.827	327.231	165.541	172.728	413.153	449.723	471.996	442.291	481.692	498.590	234.280	463.819	459.839	463.272	372.677	0.00078497	0.00060292	0.00013434	1256.9	5.338e-06	3.7577e-06	1265.9	344.47	4.0152e-06	4.3369e-06	399.8	135.54	116.34	40.348	5.027e-06	50.623	0.00025535	0.00018935	5.347e-05	1272.3	2.2563e-06	2.1238e-06	1280.7	350.11	2.1904e-06	2.0286e-06	404.61	136.84	117.83	41.171	2.1669e-06	51.581	289.657	253.002	238.270	157.003	308.713	288.775	156.444	161.478	304.519	282.403	160.832	165.120	165.819	170.476	302.714	169.360	-8191	255	
1120.717	1	1	0	0	0.25432	0.048513	0.16662	0.19499	0.17748	0.17445	0.11446	0.021864	0.20424	0.31069	0.12806	0.1141	0.1134	0.34398	0.31142	0.20734	-0.041667	-0.19167	0.24375	-0.65208	0.175	0.13125	-0.60417	0.097917	-0.30625	-0.35	0.24583	-0.77083	-0.1375	-0.014583	-0.54792	0.13542	396.310	260.707	214.297	459.180	438.794	302.034	203.093	367.878	383.272	179.585	219.976	162.304	373.742	189.442	297.251	427.766	0.00080932	0.00045851	0.0001086	1257.9	5.9923e-06	4.6452e-06	1267.5	346.53	5.9537e-06	4.183e-06	400.19	135.73	116.22	40.375	6.599e-06	50.525	0.00026156	0.00018672	5.1599e-05	1273.3	2.2672e-06	2.0543e-06	1281.2	350.47	2.1773e-06	2.0648e-06	404.47	136.84	117.7	41.142	2.1159e-06	51.637	290.181	227.450	235.656	156.938	302.966	278.368	156.703	161.758	304.054	282.108	161.011	165.794	166.150	171.038	293.471	169.760	-8191	255	
1120.836	1	1	0	0	0.10759	0.38764	0.2922	0.31213	0.17972	0.094252	0.078594	0.24476	0.036937	0.08218	0.22325	0.28998	0.14909	0.13706	0.16255	0.068512	-0.1125	-0.23542	0.48125	-0.7375	-0.00625	0.052083	-0.69375	0.070833	-0.24167	-0.4125	0.26042	-0.6625	-0.077083	0.1875	-0.6375	-0.070833	435.454	230.482	176.764	455.992	496.349	370.935	346.168	395.383	160.120	207.790	428.888	372.167	492.683	387.554	278.700	421.318	0.0008113	0.00034758	0.00013093	1251.5	6.7895e-06	2.6753e-06	1265.7	344.98	4.6428e-06	3.8724e-06	397.81	135.59	116.39	40.308	5.372e-06	50.275	0.0002604	0.0001876	5.4793e-05	1271.2	2.2204e-06	2.0221e-06	1280.7	349.8	2.1803e-06	2.097e-06	403.99	137.04	117.94	41.122	2.1178e-06	51.565	288.533	202.812	230.940	156.688	299.728	260.216	156.345	161.605	305.771	273.135	160.978	165.183	165.839	170.803	285.301	169.424	-8191	255	
1120.932	1	1	0	0	0.052491	0.19734	0.1165	0.27025	0.06071	0.10863	0.14315	0.34381	0.14003	0.14638	0.15792	0.018892	0.3074	0.11573	0.22077	0.2145	0.13958	-0.54792	0.39167	-0.63542	-0.35833	0.13333	-0.78125	0.05	-0.19167	-0.41042	0.30417	-0.60833	-0.30208	0.36042	-0.47292	0.12917	454.583	176.966	390.797	490.053	171.789	152.182	446.492	366.978	351.534	498.405	470.362	151.607	428.852	237.063	208.765	384.465	0.00076369	0.00037645	0.00015659	1253.8	2.9947e-06	5.1246e-06	1272.6	344.45	5.3358e-06	6.5431e-06	399.2	135.05	116.5	40.157	5.3095e-06	50.639	0.00025831	0.00019303	5.5182e-05	1271.6	2.19e-06	2.1087e-06	1283.3	349.54	2.1074e-06	2.1125e-06	404.34	136.75	117.75	41.095	2.1084e-06	51.582	289.453	249.532	247.130	157.042	324.644	286.263	156.684	161.942	298.125	291.178	161.190	165.485	165.951	170.784	251.419	169.856	-8191	255	
1121.028	1	1	0	0	0.23767	0.12154	0.1317	0.24931	0.29261	0.22082	0.17148	0.27911	0.14443	0.092628	0.15335	0.1506	0.1301	0.067682	0.10852	0.088158	0.20208	-0.34375	0.31667	-0.46875	-0.30625	0.125	-0.82917	-0.010417	0.064583	-0.4875	0.045833	-0.39583	-0.37292	0.085417	-0.61458	-0.18125	396.110	400.691	334.037	453.978	188.480	436.286	412.624	446.064	149.937	143.578	458.768	476.334	435.768	229.806	473.351	160.129	0.00083475	0.00043912	0.00013824	1252.1	6.5896e-06	6.3473e-06	1265.7	345.53	5.612e-06	3.5522e-06	398.56	135.21	116.05	40.283	4.9384e-06	50.572	0.00025504	0.00019287	5.4361e-05	1271.4	2.1305e-06	2.1152e-06	1280.9	350.29	2.149e-06	2.0231e-06	404.55	136.94	117.74	41.108	2.1322e-06	51.696	290.423	253.409	232.122	157.128	304.336	295.728	156.678	161.553	307.611	282.809	161.082	165.562	165.939	170.767	302.440	169.846	-8191	255	
1121.148	1	1	0	0	0.27654	0.056184	0.057698	0.038842	0.19154	0.1353	0.10421	0.052209	0.23143	0.16593	0.3606	0.23666	0.098466	0.23051	0.20015	0.22189	0.61458	-0.49792	0.37292	-0.35417	-0.29792	0.035417	-0.67083	-0.1625	0.064583	-0.55833	-0.0625	-0.1375	-0.46458	0.33333	-0.39792	-0.091667	296.490	217.986	384.468	178.550	313.520	204.427	395.339	496.678	214.511	390.165	495.723	164.349	436.023	411.792	174.397	402.156	0.00077218	0.00066753	0.0001296	1255.2	5.6763e-06	5.1456e-06	1264.9	345.76	5.7357e-06	5.0842e-06	399.18	135.44	116.43	40.248	7.1628e-06	50.563	0.00025381	0.00018859	5.2922e-05	1271	2.185e-06	2.1501e-06	1280.8	350.23	2.1976e-06	2.0816e-06	404.57	136.96	117.84	41.028	2.1633e-06	51.683	289.323	230.568	232.528	156.967	325.081	308.506	156.514	161.688	289.792	289.024	160.621	165.441	166.046	170.660	284.538	169.648	-8191	255	
1121.245	1	1	0	0	0.32393	0.30954	0.17903	0.26562	0.1887	0.098916	0.043972	0.17389	0.13308	0.071154	0.15739	0.1811	0.30628	0.27941	0.098748	0.17262	0.28542	-0.58542	0.23958	-0.35625	-0.39167	0.36458	-0.58125	-0.275	0.28125	-0.575	-0.11042	0.0041667	-0.83333	0.3	-0.4	-0.23333	238.019	349.629	196.865	156.867	293.273	340.672	468.446	170.944	238.692	409.651	302.737	159.787	409.489	145.964	412.310	245.131	0.00082539	0.00045374	0.00014463	1248.2	7.2921e-06	6.3501e-06	1265	345.99	6.2741e-06	4.8156e-06	398.04	134.9	116.13	40.183	4.8629e-06	50.745	0.00026581	0.00019297	5.4524e-05	1269.6	2.1841e-06	2.0967e-06	1280.4	350.13	2.2257e-06	2.0376e-06	403.97	136.67	117.68	41.078	2.1719e-06	51.686	288.057	220.972	248.022	156.951	319.791	307.420	156.862	161.964	322.231	287.875	161.079	165.583	166.035	170.594	297.441	169.455	-8191	255	
1121.339	1	1	0	0	0.081084	0.20846	0.074837	0.34968	0.17057	0.11656	0.23965	0.16054	0.25447	0.096255	0.52022	0.062892	0.28384	0.094084	0.16298	0.21983	0.62292	-0.46875	0.14375	-0.25417	-0.47708	0.44375	-0.36875	-0.39375	0.40833	-0.39375	-0.16042	-0.0020833	-0.59792	0.13333	-0.28333	-0.56667	185.619	249.533	238.828	502.988	304.820	462.051	487.820	501.445	228.064	406.038	443.650	462.430	172.518	433.167	206.604	421.920	0.00081968	0.00062168	0.00012535	1253.4	3.4634e-06	3.228e-06	1269.2	346.01	5.8856e-06	4.0357e-06	398.2	135.55	115.67	40.379	6.6312e-06	50.583	0.00026028	0.00018911	5.4223e-05	1272.5	2.2276e-06	2.1262e-06	1281.5	350.42	2.2269e-06	2.0649e-06	404.24	137	117.95	41.178	2.1366e-06	51.637	286.574	226.421	241.740	156.949	338.452	302.864	156.585	161.736	313.460	282.054	160.761	165.604	166.071	170.530	316.512	169.770	-8191	255	
1121.412	1	1	0	0	0.24097	0.16163	0.28321	0.24648	0.15706	0.10102	0.048666	0.14696	0.27864	0.25858	0.1545	0.23296	0.12724	0.025532	0.074597	0.13627	0.71458	-0.43958	0.029167	0.091667	-0.46458	0.3875	-0.4	-0.23333	0.41667	-0.47292	-0.38958	0.17292	-0.53125	0.0083333	-0.19375	-0.62917	435.887	273.437	502.787	481.672	480.934	235.470	216.290	503.178	172.347	354.827	152.248	270.513	502.463	171.119	435.642	398.192	0.00076949	0.00038159	0.00018725	1254	6.9299e-06	5.1023e-06	1269	345.25	6.3359e-06	5.7842e-06	398.12	134.57	115.93	40.41	5.9428e-06	50.46	0.0002634	0.0001931	5.4337e-05	1271.8	2.2238e-06	2.0891e-06	1282.7	350.33	2.2384e-06	2.0253e-06	404.34	136.65	117.72	41.131	2.1377e-06	51.652	287.109	206.911	227.780	157.251	306.756	280.788	156.852	161.800	311.445	298.986	160.984	165.618	166.437	170.525	298.698	169.829	-8191	255	
1121.531	1	1	0	0	0.22797	0.15276	0.24325	0.36554	0.15356	0.06602	0.25303	0.10693	0.014137	0.32288	0.19303	0.22285	0.17011	0.3383	0.029403	0.18955	0.49583	-0.71667	-0.13333	-0.175	-0.50417	0.016667	-0.52708	-0.57917	0.41667	-0.28958	-0.3875	0.3125	-0.45625	-0.20208	0.19167	-0.68333	354.410	486.252	343.354	501.893	392.032	305.267	389.340	426.509	332.074	197.474	239.414	310.790	299.235	466.508	414.295	163.329	0.0007767	0.00057194	0.00013055	1247.3	6.0305e-06	4.7942e-06	1269.2	346.77	6.6133e-06	6.1678e-06	397.96	135.57	116.2	40.315	4.351e-06	50.369	0.00026197	0.00019191	5.2064e-05	1271	2.1908e-06	2.1187e-06	1282.4	350.6	2.2486e-06	2.0979e-06	404.51	136.81	117.67	41.027	2.1439e-06	51.561	288.707	217.126	265.089	156.978	314.360	295.607	156.722	162.010	318.754	303.132	161.002	165.708	166.175	170.956	273.519	169.962	-8191	255	
1121.627	1	1	0	0	0.26792	0.32505	0.083043	0.17818	0.15018	0.13313	0.076099	0.10808	0.20808	0.36758	0.32494	0.2691	0.061544	0.2354	0.15879	0.26617	0.63958	-0.20417	-0.225	-0.13125	-0.60208	0.016667	0	-0.63125	0.39167	-0.3125	-0.48542	0.075	-0.48958	-0.12083	-0.045833	-0.6125	201.524	367.545	423.258	452.044	166.888	258.642	310.508	336.875	391.385	421.913	145.963	502.534	213.505	446.444	214.455	155.079	0.00085014	0.00058786	0.00017423	1251.6	6.9244e-06	4.427e-06	1264.3	344.42	5.7392e-06	5.3869e-06	399.76	135.24	116.09	40.299	6.8259e-06	50.701	0.00026321	0.00018898	5.2668e-05	1271.4	2.1923e-06	2.0918e-06	1281.2	349.68	2.2088e-06	2.0746e-06	405.04	136.91	117.78	41.166	2.1803e-06	51.682	288.151	243.522	253.476	157.230	304.436	289.644	156.863	161.715	294.594	279.550	160.308	165.203	166.027	170.535	290.497	169.398	-8191	255	
1121.724	1	1	0	0	0.06362	0.18507	0.088695	0.35559	0.1562	0.29891	0.24979	0.3164	0.14808	0.060198	0.11784	0.10654	0.13231	0.31696	0.20865	0.20299	0.60833	-0.1	-0.48125	0.26875	-0.26458	0.0125	0.13125	-0.54792	0.1375	-0.17083	-0.475	0.29792	-0.41042	-0.12083	0.32292	-0.65417	311.846	386.081	256.116	470.180	429.662	191.554	475.973	412.016	354.785	382.923	234.917	222.112	182.494	414.246	480.132	306.946	0.00081382	0.00044771	9.163e-05	1254.5	4.3423e-06	6.1251e-06	1267	347.68	6.413e-06	5.2152e-06	397.76	135.57	116.64	40.365	5.3621e-06	50.418	0.00025623	0.00019189	5.287e-05	1271.2	2.2091e-06	2.0108e-06	1281	350.99	2.215e-06	2.0854e-06	404.68	136.84	118.03	41.195	2.1491e-06	51.664	289.297	209.160	201.632	157.001	284.181	286.681	156.721	161.820	307.351	266.770	160.918	165.532	166.071	170.296	279.262	169.642	-8191	255	
1121.820	1	1	0	0	0.42279	0.26701	0.13186	0.095012	0.087238	0.31442	0.18187	0.30345	0.42162	0.1952	0.097793	0.19782	0.098191	0.32689	0.23018	0.20084	0.52708	0.16042	-0.58333	0.13333	-0.37917	-0.34583	0.05625	-0.63333	0.010417	0.09375	-0.61042	0.27917	-0.40833	-0.41042	0.28333	-0.6	370.967	211.677	288.606	166.735	280.112	286.458	407.307	440.158	237.938	379.902	177.262	472.800	257.146	483.297	240.479	409.328	0.00079524	0.00048388	0.0001892	1254.2	5.0396e-06	5.1421e-06	1265.7	345.7	4.0648e-06	8.0594e-06	399.11	135.75	115.87	40.228	4.8862e-06	50.528	0.00025926	0.00019068	5.3433e-05	1271.8	2.2159e-06	2.0321e-06	1281.3	350.37	2.1501e-06	2.0993e-06	404.65	136.89	117.76	41.144	2.1153e-06	51.638	287.373	219.226	218.985	156.943	317.364	271.608	156.768	161.986	323.245	281.454	161.095	165.641	166.321	170.982	314.324	169.847	-8191	255	
1121.940	1	1	0	0	0.13835	0.14924	0.137	0.22291	0.24081	0.21661	0.18407	0.09865	0.15569	0.073554	0.081964	0.17164	0.093206	0.22417	0.14263	0.31753	0.42083	0.10833	-0.525	-0.035417	-0.0625	-0.4	0.083333	-0.73542	-0.070833	0.12083	-0.72083	0.19167	-0.34792	-0.49167	0.34167	-0.46667	490.845	472.275	388.556	483.999	337.234	173.872	448.638	439.519	481.297	280.230	434.663	439.481	447.526	493.915	154.390	478.506	0.00074525	0.00062628	0.00015041	1252.6	7.8434e-06	4.4789e-06	1269.4	345.68	4.139e-06	6.678e-06	400.6	135.27	116.6	40.378	5.2303e-06	50.703	0.0002535	0.00019454	5.2542e-05	1271.6	2.176e-06	2.0416e-06	1282.7	350.42	2.1995e-06	2.1482e-06	404.79	136.67	117.8	41.126	2.1147e-06	51.666	290.055	238.161	241.492	156.840	301.260	309.331	156.823	161.998	314.592	273.219	160.601	165.668	166.238	170.729	285.925	169.951	-8191	255	
1122.012	1	1	0	0	0.049566	0.062862	0.087412	0.047896	0.041262	0.16247	0.213	0.14848	0.078818	0.092241	0.11422	0.20351	0.1773	0.19131	0.087504	0.13099	0.38125	0.15	-0.34375	0.23125	0.064583	-0.675	0.25833	-0.41875	-0.25208	0.13958	-0.625	0.10208	-0.22292	-0.56458	0.31458	-0.48333	359.310	449.813	169.476	489.734	278.491	419.066	445.245	446.452	454.519	326.950	242.191	464.337	164.753	460.963	288.972	329.153	0.00082201	0.00049678	0.00016634	1251.3	4.984e-06	4.7368e-06	1263.5	346.12	4.8446e-06	3.8397e-06	399.19	135.23	116.68	40.02	4.8132e-06	50.476	0.00025943	0.00019413	5.2444e-05	1269.6	2.2128e-06	2.1104e-06	1281.4	350.66	2.151e-06	2.1063e-06	404	136.86	117.79	41.014	2.188e-06	51.639	290.287	241.311	250.633	156.927	314.166	282.897	156.860	162.032	308.794	290.083	161.367	165.800	166.369	170.849	300.117	170.023	-8191	255	
1122.108	1	1	0	0	0.11751	0.13973	0.2074	0.13819	0.08071	0.14882	0.10057	0.36615	0.029741	0.091246	0.085558	0.18621	0.1213	0.028525	0.2316	0.14639	0.275	0.30833	-0.42292	-0.014583	-0.047917	-0.73333	0.12292	-0.4	-0.19375	0.32292	-0.575	0.027083	0.083333	-0.6375	0.25625	-0.23333	166.198	418.846	217.140	458.314	465.274	225.184	500.630	399.819	154.707	290.235	191.893	219.784	260.764	305.515	432.280	176.943	0.0007949	0.00043319	0.00011229	1248.6	5.6288e-06	5.6407e-06	1271.4	345.12	4.9053e-06	7.3429e-06	399.04	135.07	116.62	40.312	5.2685e-06	50.571	0.00025523	0.00019513	5.2643e-05	1270.2	2.2734e-06	2.1159e-06	1282.8	349.98	2.1644e-06	2.134e-06	404.96	136.85	117.86	41.126	2.1983e-06	51.602	290.863	220.383	209.257	157.086	306.940	313.270	157.303	162.396	309.243	266.128	161.738	165.925	166.608	171.188	312.658	170.314	-8191	255	
1122.229	1	1	0	0	0.11811	0.17666	0.1355	0.14738	0.24075	0.19277	0.19964	0.38952	0.10379	0.24174	0.29382	0.092591	0.35109	0.25148	0.365	0.14172	0	0.1625	-0.56667	-0.35417	0.14167	-0.775	0.13542	-0.25625	-0.59375	0.225	-0.62708	-0.225	0.091667	-0.75	0.10625	-0.23333	222.862	465.792	187.677	481.858	288.017	456.915	495.770	377.899	403.761	469.001	496.557	377.783	481.871	436.697	278.066	441.439	0.00077871	0.00055862	0.00016541	1247.7	7.0234e-06	5.404e-06	1270.6	346.26	4.8492e-06	4.6279e-06	400.24	135.06	115.98	40.188	5.2704e-06	50.416	0.00025752	0.00019616	5.2337e-05	1270.2	2.2131e-06	2.0596e-06	1283.6	350.65	2.1445e-06	2.0819e-06	404.97	136.85	117.8	41.127	2.1494e-06	51.607	289.130	230.838	236.217	157.381	311.954	307.988	156.926	162.420	297.849	280.481	161.429	166.061	166.495	170.888	303.828	169.997	-8191	255	
1122.325	1	1	0	0	0.067372	0.099778	0.24801	0.35195	0.19426	0.052864	0.38761	0.20345	0.41336	0.12976	0.063817	0.077967	0.16186	0.11176	0.11003	0.26819	-0.0020833	0.25833	-0.44792	-0.19792	0.23333	-0.61667	-0.08125	-0.23542	-0.425	0.20625	-0.575	-0.21875	0.14583	-0.80208	0.066667	0.06875	306.633	460.898	433.416	467.925	419.491	337.342	427.363	430.330	214.070	266.338	174.036	424.170	310.124	473.920	310.094	492.771	0.00078776	0.00038993	0.00017627	1255	6.3242e-06	4.1138e-06	1268.9	345.03	3.9359e-06	4.6372e-06	400.25	134.55	115.98	40.142	5.2229e-06	50.572	0.00025206	0.00019504	5.2055e-05	1272.6	2.2443e-06	2.12e-06	1282.2	350.62	2.1565e-06	2.0711e-06	405.53	136.65	117.82	41.125	2.163e-06	51.757	288.970	234.899	226.797	157.325	294.194	299.844	156.931	162.230	295.999	299.288	161.482	165.882	166.399	171.085	299.060	170.016	-8191	255	
1122.419	1	1	0	0	0.044999	0.13168	0.13732	0.12769	0.21035	0.15724	0.094974	0.10288	0.21558	0.32364	0.25609	0.43921	0.089679	0.078208	0.37444	0.11698	-0.072917	0.35833	-0.16042	-0.44583	0.45625	-0.6	-0.22917	-0.083333	-0.48958	0.225	-0.12917	-0.61458	0.125	-0.45208	-0.060417	0.095833	216.775	227.327	198.308	369.023	394.357	279.617	404.829	446.240	178.700	314.707	491.444	240.591	502.663	440.606	319.666	477.805	0.00079115	0.00051186	0.00015056	1255.4	6.9713e-06	3.7891e-06	1265.3	346.33	5.1415e-06	5.2268e-06	401.17	135.29	116.12	40.264	6.7535e-06	50.53	0.00025739	0.00019593	5.3406e-05	1273	2.2841e-06	2.0207e-06	1280.1	350.61	2.1867e-06	2.1415e-06	404.99	136.87	117.84	41.129	2.1198e-06	51.626	288.239	227.250	224.264	157.369	311.664	305.845	156.953	162.504	304.351	265.988	161.433	166.025	166.871	171.100	310.441	170.475	-8191	255	
1122.517	1	1	0	0	0.20685	0.071461	0.06433	0.31499	0.11216	0.032669	0.2097	0.20146	0.21109	0.25014	0.31626	0.13033	0.09486	0.17214	0.23929	0.17011	-0.18333	0.15625	-0.045833	-0.55625	0.31458	-0.51458	-0.33125	-0.041667	-0.56042	0.125	-0.15208	-0.50833	0.125	-0.51875	-0.18125	0.2	233.909	446.689	249.256	490.303	350.935	413.632	396.178	466.087	417.637	487.452	440.455	390.917	394.911	168.318	495.540	467.502	0.00080976	0.00058558	0.00012062	1252.5	3.037e-06	5.4287e-06	1265.4	344.27	3.2884e-06	6.4266e-06	399.02	134.95	115.71	39.982	5.6973e-06	50.498	0.00025848	0.00019322	5.2922e-05	1270.7	2.238e-06	2.0476e-06	1280.8	350.14	2.2283e-06	2.1605e-06	404.6	136.74	117.43	41.072	2.1975e-06	51.672	289.026	245.120	251.926	157.667	329.733	305.183	157.359	162.600	315.665	283.001	161.776	166.548	166.759	171.555	319.414	170.374	-8191	255	
1122.612	1	1	0	0	0.069218	0.074178	0.32376	0.36146	0.16709	0.24923	0.3048	0.15478	0.37162	0.17152	0.29946	0.15012	0.074558	0.28243	0.067508	0.08037	-0.225	0.27708	0.1125	-0.46667	0.26875	-0.21667	-0.48125	0.05	-0.40208	0.14583	0.00625	-0.69375	0.33542	-0.27708	-0.3125	0.32083	269.291	203.014	450.406	503.253	437.595	155.731	332.226	158.003	458.100	307.264	346.303	166.536	423.423	478.898	374.865	316.756	0.0007813	0.00071655	0.00019078	1255.7	3.4232e-06	5.5042e-06	1265.1	346.56	5.7385e-06	5.009e-06	399.37	134.59	115.33	40.176	5.9351e-06	50.642	0.0002542	0.00019365	5.4977e-05	1274.4	2.2711e-06	2.0915e-06	1281.9	350.49	2.1561e-06	2.0636e-06	404.72	136.5	117.54	41.126	2.1595e-06	51.589	287.504	224.957	235.105	157.584	304.784	314.149	157.343	162.597	327.219	283.395	161.930	166.337	167.030	171.879	315.719	170.670	-8191	255	
1122.708	1	1	0	0	0.1884	0.021102	0.20962	0.30666	0.2327	0.28008	0.14024	0.17932	0.23509	0.20221	0.13356	0.1557	0.19539	0.22775	0.31937	0.041814	-0.01875	0.00625	0.12917	-0.58958	0.48958	-0.18542	-0.56667	0.0875	-0.40417	0.039583	0.060417	-0.54583	0.14583	-0.14375	-0.38333	0.21667	498.981	238.413	196.833	414.171	241.100	237.834	421.244	423.454	414.033	493.382	432.362	437.960	155.774	424.017	197.630	163.674	0.00076688	0.00049533	0.00011601	1249.3	5.2618e-06	4.2964e-06	1270.7	346.01	5.7266e-06	8.323e-06	398.47	135.28	116.11	40.166	4.6124e-06	50.669	0.00025819	0.00019032	5.5479e-05	1271.6	2.2581e-06	2.0958e-06	1283.3	350.4	2.1463e-06	2.1314e-06	404.83	136.85	117.75	41.147	2.1484e-06	51.68	290.867	243.529	243.453	157.858	292.241	315.484	157.372	162.770	301.685	276.390	161.714	166.218	166.834	171.702	287.418	170.480	-8191	255	
1122.828	1	1	0	0	0.25848	0.16278	0.20721	0.32741	0.19198	0.26488	0.51963	0.1083	0.13146	0.080755	0.11722	0.13775	0.30554	0.23838	0.13463	0.19157	-0.22708	-0.045833	0.22083	-0.70417	0.25208	0.025	-0.625	0.15625	-0.35833	-0.09375	0.13958	-0.77917	-0.10625	-0.17292	-0.62917	0.25417	245.953	410.691	306.499	463.176	354.771	186.036	432.011	353.301	160.127	227.893	492.797	239.006	376.351	246.037	491.623	182.329	0.00078633	0.00042652	0.00015293	1258.7	4.516e-06	4.6909e-06	1270.7	345.15	6.3638e-06	6.7386e-06	397.58	135.57	116.64	40.177	4.1763e-06	50.593	0.00025602	0.00018839	5.4726e-05	1273.4	2.2352e-06	2.1232e-06	1283	350.42	2.1404e-06	2.0759e-06	404.56	136.84	117.83	41.078	2.1268e-06	51.57	290.202	223.073	249.061	157.364	297.147	305.344	157.251	162.779	299.332	304.733	161.979	166.314	167.000	171.309	293.382	170.403	-8191	255	
1122.925	1	1	0	0	0.11051	0.14824	0.2465	0.26537	0.087746	0.086571	0.3261	0.21222	0.14605	0.083919	0.052126	0.23384	0.17504	0.42989	0.13443	0.10612	-0.0020833	-0.33125	0.425	-0.68542	-0.052083	0.14375	-0.69375	-0.03125	-0.22083	-0.29792	0.16875	-0.6125	0.077083	-0.10625	-0.6375	0.11667	450.138	272.993	269.370	459.635	260.821	268.953	347.602	154.719	236.822	215.009	179.582	405.184	454.897	455.770	342.993	480.161	0.00081136	0.000426	0.00011916	1250.3	3.2685e-06	2.3657e-06	1270.4	346.46	5.745e-06	7.0738e-06	397.57	135.2	116.33	40.375	9.2871e-06	50.728	0.00025781	0.00019683	5.6085e-05	1271.4	2.227e-06	2.0981e-06	1282.6	350.12	2.2214e-06	2.0814e-06	404.32	136.92	117.82	41.145	2.1776e-06	51.638	289.714	229.748	220.001	157.642	318.944	323.769	157.248	162.292	310.917	296.522	161.956	166.116	166.706	171.366	290.779	170.465	-8191	255	
1123.021	1	1	0	0	0.11368	0.1476	0.09473	0.19646	0.3417	0.082316	0.15692	0.075829	0.098077	0.055247	0.10018	0.29633	0.073396	0.30985	0.21738	0.13891	0.1625	-0.33125	0.325	-0.58542	0.0041667	0.22083	-0.65625	0.35625	-0.14375	-0.36875	0.17708	-0.60208	-0.041667	0.13125	-0.58125	-0.010417	344.777	482.579	267.283	451.224	418.280	364.632	308.685	168.898	470.536	290.819	386.054	253.464	192.948	158.819	317.601	388.113	0.00078188	0.00036846	0.0001134	1255.9	6.8833e-06	3.8655e-06	1269.9	345.89	5.84e-06	5.7425e-06	398.8	134.85	116	40.323	4.4931e-06	50.347	0.00026062	0.00019341	5.407e-05	1274	2.2158e-06	2.1395e-06	1282.9	350.14	2.1823e-06	2.1606e-06	404.67	136.71	117.57	41.169	2.1508e-06	51.585	290.520	238.261	218.020	157.408	315.883	296.917	156.930	162.161	310.835	275.143	161.588	166.093	166.658	171.141	304.176	170.073	-8191	255	
1123.117	1	1	0	0	0.25305	0.14092	0.32368	0.35158	0.12758	0.29451	0.27201	0.23824	0.096206	0.1549	0.24203	0.4321	0.15257	0.052678	0.15586	0.24362	0.36667	-0.30417	0.46875	-0.63333	-0.0125	0.25625	-0.67708	-0.11042	0.066667	-0.50417	0.1125	-0.61042	-0.25625	0.21458	-0.35	0.14375	346.246	154.647	397.850	205.505	295.362	387.745	382.627	456.615	401.013	159.545	416.964	349.150	307.202	326.012	145.273	393.669	0.00076838	0.00038187	0.00015119	1251.5	4.8132e-06	5.1487e-06	1262.5	344.87	5.3935e-06	4.0658e-06	397.75	134.76	116.14	40.207	3.7397e-06	50.61	0.00026144	0.0001917	5.4196e-05	1273	2.2231e-06	2.0935e-06	1280.3	350.04	2.2367e-06	2.0866e-06	404.22	136.62	117.7	41.142	2.1524e-06	51.671	288.704	231.364	259.755	157.099	311.464	282.672	156.312	161.531	318.691	271.351	160.759	165.115	165.868	170.416	300.488	169.652	-8191	255	
1123.238	1	1	0	0	0.0035733	0.24854	0.31351	0.17885	0.35227	0.11386	0.079279	0.028602	0.17616	0.26329	0.066143	0.14131	0.061621	0.17113	0.049838	0.16192	0.39583	-0.41667	0.39375	-0.34375	-0.31458	0.35625	-0.58333	-0.15	0.25417	-0.675	0.17708	-0.47708	-0.41458	0.275	-0.45625	-0.21667	358.207	392.547	463.390	363.713	228.382	192.754	457.400	423.881	419.731	440.194	439.226	374.269	285.085	429.235	305.482	492.864	0.00076877	0.00051866	0.000165	1253.9	6.7961e-06	5.4173e-06	1271.4	346.46	6.5329e-06	5.3049e-06	398.54	134.59	116.39	40.301	6.591e-06	50.735	0.00025735	0.00019512	5.4223e-05	1271.2	2.2677e-06	2.2016e-06	1284	350.05	2.2483e-06	2.1469e-06	404.02	136.57	117.8	41.139	2.1502e-06	51.636	289.642	226.504	251.419	157.162	304.999	294.726	156.444	161.495	294.293	273.382	161.022	165.962	166.141	170.772	286.239	169.980	-8191	255	
1123.309	1	1	0	0	0.10797	0.26455	0.22032	0.069857	0.1925	0.044597	0.10913	0.29867	0.16104	0.21471	0.064417	0.20158	0.37733	0.17624	0.23989	0.32758	0.46458	-0.39375	0.28958	-0.35	-0.48125	0.34375	-0.64583	-0.28958	0.27708	-0.46458	0.01875	-0.19167	-0.54375	0.06875	-0.45625	-0.19583	155.972	222.948	414.750	441.343	407.965	443.210	343.541	408.574	337.386	411.073	368.009	424.369	500.353	435.508	369.478	146.290	0.00075763	0.00045636	0.00011731	1252.3	3.8151e-06	2.1885e-06	1267.1	346.63	6.4505e-06	5.5954e-06	396.63	134.8	116.55	40.274	6.4327e-06	50.52	0.00025771	0.00018962	5.3476e-05	1273.5	2.2378e-06	2.1653e-06	1282.9	350.45	2.2667e-06	2.1199e-06	403.37	136.4	117.99	41.088	2.1684e-06	51.631	288.432	231.559	232.470	157.273	314.634	278.903	156.828	162.008	305.263	277.143	161.266	165.768	166.299	171.206	280.636	169.824	-8191	255	
1123.405	1	1	0	0	0.17203	0.23853	0.043425	0.32077	0.23314	0.12778	0.11692	0.13529	0.25806	0.16606	0.17379	0.072446	0.36041	0.2262	0.10335	0.11846	0.53542	-0.44375	0.22083	-0.17708	-0.6	0.19375	-0.5125	-0.18333	0.2	-0.575	-0.047917	-0.041667	-0.59583	0.23333	-0.46875	-0.59583	168.769	350.980	283.540	486.863	381.690	296.238	144.458	441.237	481.264	383.123	454.925	421.213	455.732	452.114	221.202	287.893	0.00082348	0.00061767	0.00015344	1255.3	8.6503e-06	4.9826e-06	1270.2	346.92	6.31e-06	6.4452e-06	398.25	135.77	116.39	40.298	5.2229e-06	50.439	0.00026385	0.00019387	5.3988e-05	1274.5	2.2208e-06	2.142e-06	1283.3	350.8	2.243e-06	2.0999e-06	403.78	137.01	117.7	41.134	2.24e-06	51.564	289.912	239.509	233.232	157.225	317.520	299.400	157.050	162.106	296.877	274.959	160.765	165.776	166.394	170.647	297.962	169.948	-8191	255	
1123.500	1	1	0	0	0.18977	0.22572	0.11783	0.2695	0.15202	0.25635	0.25386	0.33208	0.14624	0.047723	0.030311	0.27983	0.14333	0.19181	0.099829	0.088964	0.54583	-0.57292	0.10625	0.077083	-0.57708	0.275	-0.52708	-0.60208	0.575	-0.51042	-0.14167	-0.064583	-0.71667	0.275	-0.11667	-0.5	303.760	377.750	338.049	422.959	355.334	458.641	494.691	181.997	301.483	162.617	206.093	498.818	158.598	219.068	417.405	261.948	0.00079187	0.00046361	0.00020527	1254.4	6.8249e-06	4.0026e-06	1269.8	347.57	6.7663e-06	3.7434e-06	398.11	135.44	115.95	40.187	5.5507e-06	50.753	0.00026514	0.00019431	5.4416e-05	1273.5	2.2071e-06	2.1165e-06	1284.2	350.79	2.2342e-06	2.1118e-06	403.93	137.04	117.75	41.091	2.2452e-06	51.672	291.219	228.975	240.750	157.499	303.832	312.500	157.126	161.913	318.403	270.573	161.044	165.794	166.476	170.633	296.335	170.011	-8191	255	
1123.620	1	1	0	0	0.052233	0.21548	0.14231	0.26364	0.29187	0.41205	0.37448	0.32341	0.029673	0.16566	0.076576	0.20337	0.082405	0.1636	0.30182	0.059809	0.84792	-0.35208	-0.26667	-0.13333	-0.50417	-0.10625	-0.18125	-0.47917	0.27083	-0.48958	-0.14792	0.175	-0.70208	0.1	-0.020833	-0.43958	274.787	324.433	239.546	461.336	426.369	501.725	447.513	504.169	436.452	381.451	157.343	409.073	404.602	285.779	432.510	475.455	0.00082313	0.00036131	0.0001631	1253.9	7.8058e-06	5.2713e-06	1270.7	346.63	3.5276e-06	8.1762e-06	397.12	135.84	116.04	40.117	4.5627e-06	50.791	0.00025865	0.00019267	5.5225e-05	1273.1	2.2726e-06	2.1698e-06	1284	350.77	2.2346e-06	2.1698e-06	403.73	136.75	117.73	41.073	2.2271e-06	51.735	289.036	224.837	255.567	157.010	312.705	297.161	157.095	162.259	307.655	307.409	160.926	165.629	166.129	170.648	318.219	170.161	-8191	255	
1123.717	1	1	0	0	0.11051	0.19248	0.14464	0.13604	0.17531	0.21408	0.30586	0.31165	0.39665	0.10051	0.068349	0.22858	0.21569	0.30329	0.23767	0.047975	0.48125	-0.32292	-0.2125	0.12708	-0.63333	-0.060417	-0.2125	-0.69167	0.23542	-0.30625	-0.34792	0.13333	-0.69792	-0.16042	0.14167	-0.60625	344.001	240.469	309.621	215.416	301.760	177.708	396.507	362.135	383.958	284.528	253.429	441.867	360.128	402.936	395.082	341.420	0.00079694	0.00031955	0.00016345	1254.5	7.3405e-06	3.5827e-06	1266.7	348.26	7.3129e-06	4.6414e-06	398.31	134.61	116.14	40.236	8.1683e-06	50.8	0.00026188	0.00019321	5.4625e-05	1274	2.2055e-06	2.18e-06	1282.9	350.98	2.2316e-06	2.1032e-06	404.18	136.43	117.91	41.104	2.214e-06	51.763	289.102	256.793	232.161	157.619	329.424	300.043	157.206	162.514	299.025	250.993	161.425	166.414	167.085	171.074	287.824	170.453	-8191	255	
1123.813	1	1	0	0	0.26431	0.29256	0.10639	0.17112	0.2109	0.12568	0.17516	0.12035	0.31354	0.28334	0.019263	0.18888	0.089842	0.25124	0.2806	0.046006	0.51042	-0.39792	-0.31458	0.25	-0.38958	-0.16875	-0.1	-0.59167	0.25	-0.12083	-0.62708	0.25625	-0.59792	-0.0083333	0.20833	-0.82708	374.591	228.523	148.267	424.500	372.691	337.311	492.392	338.190	314.610	390.479	334.611	460.098	368.329	475.814	420.236	147.707	0.00082891	0.00048577	0.00013145	1253.1	7.7128e-06	6.4383e-06	1269	346.61	6.317e-06	3.1199e-06	397.53	135.93	116.07	40.221	6.0399e-06	50.506	0.00025889	0.00019156	5.3908e-05	1272.4	2.2e-06	2.1517e-06	1283.8	350.67	2.1633e-06	2.1382e-06	405.03	136.91	117.67	41.064	2.2252e-06	51.629	292.167	211.505	247.055	157.374	325.788	286.587	157.330	162.139	304.459	287.932	161.620	165.868	166.802	171.334	299.383	170.006	-8191	255	
1123.909	1	1	0	0	0.18681	0.19131	0.10556	0.35669	0.22873	0.34712	0.34301	0.2821	0.16827	0.27807	0.27673	0.1225	0.26713	0.038715	0.22909	0.12948	0.59792	-0.077083	-0.42083	0.05	-0.4375	-0.1	-0.064583	-0.47083	0.0625	-0.14792	-0.77083	0.36875	-0.38333	-0.29792	0.23125	-0.52708	390.228	399.939	486.507	478.429	449.581	184.769	427.983	379.258	414.568	333.010	194.184	394.817	427.799	370.684	246.134	184.697	0.00082789	0.00062177	0.0001373	1254.5	5.0955e-06	3.6806e-06	1263.3	344.15	5.131e-06	7.1948e-06	398.63	135.49	115.99	40.205	7.2207e-06	50.309	0.00026202	0.00020021	5.506e-05	1273.4	2.1789e-06	2.1555e-06	1280.5	349.78	2.1911e-06	2.1644e-06	404.39	136.81	117.78	41.106	2.1881e-06	51.519	288.643	225.625	200.675	157.546	284.271	323.474	157.557	162.898	310.556	300.571	161.745	166.011	166.477	170.857	296.045	169.794	-8191	255	
1124.005	1	1	0	0	0.21546	0.47102	0.17572	0.18428	0.22328	0.10999	0.27181	0.19996	0.21079	0.24701	0.015072	0.26516	0.13572	0.057171	0.088351	0.17059	0.19792	-0.16667	-0.63958	-0.016667	-0.30208	-0.44375	-0.01875	-0.78125	-0.083333	-0.052083	-0.81042	0.22917	-0.33542	-0.6	0.26042	-0.55417	402.954	491.014	286.458	456.204	177.129	361.397	472.495	443.026	232.802	450.960	317.831	484.593	281.365	152.740	456.149	372.001	0.00077847	0.00040192	0.00014478	1252.8	7.4719e-06	6.617e-06	1269.3	345.68	4.9046e-06	5.0646e-06	400.09	135.57	116.38	40.417	4.3942e-06	50.757	0.00026164	0.00019587	5.1945e-05	1271.8	2.242e-06	2.1864e-06	1281.8	350.2	2.2526e-06	2.1475e-06	404.92	137.04	117.9	41.153	2.1687e-06	51.706	289.335	211.269	283.547	157.303	317.286	318.748	157.317	162.270	292.341	273.470	161.178	166.005	166.778	171.164	296.648	169.944	-8191	255	
1124.101	1	1	0	0	0.17921	0.17641	0.16875	0.14114	0.29494	0.079989	0.39695	0.2396	0.15389	0.15976	0.13536	0.28489	0.23786	0.13679	0.23304	0.27172	0.23125	0.27292	-0.48542	-0.060417	0.014583	-0.56667	0.16042	-0.52708	-0.041667	0.18542	-0.65625	0.05	-0.275	-0.52292	0.27292	-0.82917	174.013	236.803	339.081	205.845	498.978	180.746	442.449	478.373	354.376	178.657	414.716	486.014	347.107	335.192	277.765	471.791	0.00078917	0.00057914	0.00010184	1254.1	6.6951e-06	6.2005e-06	1268	347.57	6.0613e-06	5.9082e-06	398.04	135.42	116.34	40.044	3.8974e-06	50.63	0.00026274	0.00019157	5.3084e-05	1273.7	2.2511e-06	2.1289e-06	1283.2	350.9	2.1468e-06	2.1404e-06	404.88	136.86	117.88	41.122	2.1866e-06	51.665	290.486	234.260	263.503	157.076	302.061	300.076	156.938	162.092	294.136	265.231	161.736	165.625	166.347	170.871	298.290	170.223	-8191	255	
1124.197	1	1	0	0	0.039946	0.21918	0.17082	0.26635	0.079945	0.091834	0.19923	0.14063	0.24281	0.074483	0.21712	0.12779	0.23884	0.24595	0.23764	0.18909	0.26458	0.2875	-0.60833	0.016667	-0.054167	-0.425	0.26042	-0.47292	-0.28125	0.1875	-0.57917	-0.089583	-0.09375	-0.6625	0.35417	-0.4125	171.700	275.150	394.047	471.008	233.113	303.075	406.859	335.579	145.477	327.147	160.950	487.351	146.010	180.339	476.184	372.062	0.00077401	0.00013251	0.00016492	1253.7	4.3967e-06	2.4554e-06	1270.3	346.4	7.0208e-06	4.6452e-06	399.68	135.16	116.36	40.173	4.7901e-06	50.492	0.00025782	0.00018927	5.2049e-05	1271.3	2.2393e-06	2.1327e-06	1282	350.3	2.2011e-06	2.1386e-06	404.81	136.65	117.83	41.117	2.2288e-06	51.58	292.315	226.545	227.463	157.189	314.680	275.647	156.754	162.263	312.147	287.173	161.404	165.848	166.522	170.948	275.853	170.055	-8191	255	
1124.318	1	1	0	0	0.35083	0.29127	0.20713	0.23578	0.18906	0.19241	0.26851	0.1069	0.18058	0.11542	0.35289	0.12583	0.33132	0.34617	0.30546	0.11895	0.010417	0.18958	-0.5	-0.21458	0.12083	-0.63333	0.18958	-0.35208	-0.21458	0.23333	-0.60417	-0.16667	0.10625	-0.64583	0.38125	-0.19167	350.942	271.116	452.154	491.126	342.587	371.992	444.089	399.880	469.498	454.910	502.774	467.762	355.385	472.015	256.824	235.969	0.00079265	0.00034732	0.00018038	1257.5	4.7059e-06	6.0196e-06	1271.7	345.94	6.928e-06	5.8909e-06	398.01	135.03	116.51	40.365	5.8404e-06	50.524	0.00026512	0.00019333	5.3755e-05	1273.2	2.3164e-06	2.0508e-06	1283.8	350.62	2.2431e-06	2.0959e-06	404.35	136.72	117.91	41.13	2.1931e-06	51.641	291.658	226.489	231.691	156.962	312.454	295.567	156.973	162.239	320.813	264.301	161.653	165.891	166.023	170.783	291.445	170.058	-8191	255	
1124.412	1	1	0	0	0.079364	0.16941	0.18051	0.27676	0.30005	0.026208	0.11023	0.22894	0.28662	0.17612	0.14549	0.22232	0.43643	0.25794	0.10406	0.19423	-0.027083	0.37292	-0.25625	-0.26458	0.25625	-0.36042	0.079167	-0.29792	-0.40208	0.40833	-0.74583	-0.22292	0.077083	-0.74792	-0.045833	-0.32292	322.563	389.123	257.092	223.504	257.427	158.934	414.863	493.334	464.772	406.313	250.976	438.588	502.119	499.014	468.305	428.733	0.00081612	0.00051328	0.00015623	1259.4	7.7135e-06	4.2221e-06	1268.8	346.75	4.9695e-06	5.368e-06	399.55	135.71	116.6	40.219	5.1997e-06	50.353	0.0002561	0.00019286	5.34e-05	1274.1	2.2571e-06	2.0972e-06	1283.7	350.71	2.1634e-06	2.1319e-06	404.66	136.97	118.01	41.101	2.2212e-06	51.523	285.701	255.910	242.725	156.963	313.493	273.512	156.687	162.302	304.490	280.340	161.491	165.398	166.219	170.728	290.534	170.301	-8191	255	
1124.510	1	1	0	0	0.13827	0.060066	0.15683	0.25859	0.19173	0.18294	0.024763	0.16301	0.051446	0.1922	0.29632	0.34051	0.15824	0.35306	0.19943	0.1304	-0.18542	0.23125	-0.5875	-0.45	0.24167	-0.46042	-0.11042	-0.045833	-0.72292	0.25833	-0.57917	-0.53958	0.18542	-0.68333	-0.175	-0.13125	319.086	158.755	446.532	438.529	292.673	191.282	290.320	482.546	408.297	488.389	462.658	456.969	463.685	399.344	381.518	495.529	0.00077646	0.00053327	0.0001394	1254.8	4.5652e-06	3.8097e-06	1266.1	347.05	5.2441e-06	7.9199e-06	399.09	134.7	116.12	39.976	4.6792e-06	50.527	0.00025605	0.00019456	5.4472e-05	1273.1	2.2258e-06	2.0822e-06	1279.8	351.18	2.1743e-06	2.1444e-06	405.24	136.56	117.88	41.05	2.1851e-06	51.644	287.951	221.480	233.040	157.252	330.238	299.275	156.812	161.861	304.480	285.849	161.235	165.799	166.306	170.950	290.660	169.897	-8191	255	
1124.605	1	1	0	0	0.29049	0.22865	0.10489	0.16394	0.15617	0.22481	0.34558	0.33961	0.26762	0.28857	0.25766	0.11046	0.33439	0.15554	0.13324	0.22916	-0.3	0.1125	-0.36458	-0.59167	0.15625	-0.55208	-0.24167	-0.097917	-0.57083	0.052083	-0.26667	-0.61458	0.029167	-0.56667	-0.27292	0.083333	215.438	334.962	179.832	302.025	336.172	356.870	482.784	480.908	146.956	443.443	436.558	370.583	450.657	218.447	159.541	474.003	0.00075646	0.00035845	0.00017203	1252.4	5.0284e-06	4.4414e-06	1261.4	346.41	5.6711e-06	6.041e-06	399.17	135.2	115.99	40.282	4.4908e-06	50.557	0.00024948	0.00019375	5.3139e-05	1270.4	2.2263e-06	2.1261e-06	1280	350.39	2.1844e-06	2.1112e-06	404.17	136.83	117.67	41.109	2.1798e-06	51.592	286.304	201.808	235.033	157.112	304.150	310.787	156.869	162.330	295.413	275.849	160.989	166.097	166.291	170.643	294.179	169.490	-8191	255	
1124.701	1	1	0	0	0.068604	0.095679	0.22355	0.35343	0.13687	0.16351	0.18491	0.2506	0.10519	0.090879	0.27589	0.10874	0.18937	0.24306	0.14542	0.17631	-0.28542	0.16042	-0.11875	-0.61667	0.30625	-0.55208	-0.40208	0.15833	-0.55417	0.12083	-0.10625	-0.62708	0.2875	-0.18958	-0.47292	0.37708	341.176	497.043	241.591	434.291	158.086	201.200	416.325	478.459	145.766	326.145	420.544	496.367	498.950	175.128	398.646	433.055	0.00078039	0.00046705	0.00014424	1251.8	4.9248e-06	5.3186e-06	1271.1	345.93	4.9664e-06	3.6642e-06	398.84	134.9	115.87	40.178	6.9679e-06	50.329	0.0002546	0.00019559	5.5176e-05	1272.9	2.2394e-06	2.1255e-06	1284	350.35	2.1646e-06	2.0982e-06	404.39	136.71	117.56	41.097	2.1804e-06	51.593	291.007	220.806	233.756	156.791	299.320	307.395	156.508	161.971	293.195	291.229	161.253	165.503	166.169	171.024	310.643	169.971	-8191	255	
1124.797	1	1	0	0	0.22269	0.08218	0.10538	0.40758	0.11227	0.2664	0.37138	0.24164	0.11741	0.11743	0.16242	0.2319	0.21355	0.24821	0.19934	0.2851	-0.15833	-0.05625	0.0375	-0.76042	0.20417	-0.40417	-0.3625	0.097917	-0.43958	-0.064583	0.041667	-0.71042	0.12917	-0.43333	-0.42083	0.30417	178.473	352.531	346.409	450.662	349.143	257.454	467.162	467.147	462.584	179.498	379.087	150.143	235.616	188.382	475.144	477.016	0.000786	0.00029021	0.00019346	1257.6	6.2658e-06	4.108e-06	1268.8	345.77	6.4089e-06	6.1479e-06	398.82	136.06	115.87	40.305	5.1247e-06	50.487	0.00025284	0.00019339	5.3571e-05	1273.9	2.2266e-06	2.1396e-06	1284.2	350.18	2.1765e-06	2.0751e-06	404.99	136.89	117.8	41.123	2.1494e-06	51.589	287.616	235.940	207.442	156.833	294.510	287.108	156.824	162.011	304.083	283.167	161.475	165.914	166.630	171.356	301.944	170.270	-8191	255	
1124.893	1	1	0	0	0.12645	0.19806	0.083558	0.28826	0.21846	0.15288	0.36176	0.14371	0.13981	0.20983	0.10016	0.18392	0.19593	0.13364	0.035648	0.20014	-0.0375	-0.089583	0.16458	-0.88333	0.29375	-0.20208	-0.62917	0.38125	-0.5	-0.35625	0.1125	-0.68125	0.22708	-0.24792	-0.43125	0.30625	390.042	218.101	277.786	483.566	410.652	490.638	424.491	249.789	320.422	399.076	410.137	446.111	155.134	462.172	210.882	405.489	0.00079363	0.00051463	0.00012383	1257.6	4.346e-06	4.2111e-06	1268.9	344.94	6.856e-06	7.3915e-06	400.1	135.86	116.08	40.303	4.7808e-06	50.727	0.00025823	0.00019311	5.4125e-05	1274.1	2.2465e-06	2.1092e-06	1282.9	349.9	2.188e-06	2.0907e-06	405.24	137	117.74	41.12	2.1309e-06	51.572	289.546	224.830	217.754	157.414	304.390	295.742	156.900	162.202	294.742	282.300	161.554	166.216	166.632	171.415	277.739	169.931	-8191	255	
1125.014	1	1	0	0	0.18618	0.14179	0.49885	0.13642	0.41147	0.23291	0.2111	0.12635	0.22229	0.12178	0.26567	0.19123	0.34488	0.13403	0.1692	0.045088	-0.072917	-0.375	0.2625	-0.60417	0.19792	-0.12292	-0.72708	0.15625	-0.37083	-0.3	0.1125	-0.42083	0.027083	0.033333	-0.42917	0.175	226.327	439.844	453.718	445.970	416.503	382.254	481.566	468.447	310.587	469.732	160.612	173.768	463.745	178.992	397.077	167.697	0.00084056	0.00051457	0.00010273	1257.3	5.2119e-06	6.0909e-06	1274	345.82	6.7035e-06	6.8347e-06	398.51	135.95	116.61	40.38	6.3142e-06	50.667	0.00026591	0.0001926	5.3838e-05	1275	2.2682e-06	2.1654e-06	1284.7	350.81	2.2235e-06	2.1161e-06	405.22	136.97	118.03	41.172	2.1138e-06	51.651	289.480	222.729	247.812	157.316	312.651	313.146	157.009	162.050	303.158	264.912	161.705	165.975	166.501	171.129	307.052	170.425	-8191	255	
1125.110	1	1	0	0	0.44119	0.10874	0.16963	0.29202	0.13729	0.16616	0.18406	0.10607	0.24441	0.18777	0.18691	0.067947	0.14178	0.3345	0.10043	0.16833	0.010417	-0.3625	0.22292	-0.67917	-0.0375	0.1875	-1.0042	0.0625	-0.13958	-0.47917	0.17292	-0.46875	-0.22083	0.11667	-0.56042	0.12917	209.695	485.348	369.960	498.544	321.821	453.863	421.417	221.831	262.881	445.942	412.087	431.614	460.374	461.917	202.397	470.664	0.00075748	0.00069475	0.00015498	1253.2	5.795e-06	4.3514e-06	1269.2	346.02	8.1415e-06	6.425e-06	399.97	135.46	116.13	40.136	4.4026e-06	50.566	0.00025553	0.00019097	5.3066e-05	1273.9	2.2454e-06	2.1537e-06	1284.7	350.64	2.2162e-06	2.039e-06	404.73	137.04	117.93	41.08	2.0903e-06	51.655	286.554	208.874	248.895	157.666	300.604	309.321	157.321	162.470	307.559	311.935	161.714	166.190	166.786	171.439	293.596	170.354	-8191	255	
1125.182	1	1	0	0	0.19485	0.20389	0.32904	0.16144	0.16423	0.24851	0.17927	0.024552	0.35316	0.20348	0.08041	0.18014	0.12569	0.2604	0.16038	0.10092	0.20208	-0.51458	0.10833	-0.65417	-0.17708	0.08125	-0.80625	-0.039583	-0.05	-0.55	0.125	-0.43125	-0.3375	0.08125	-0.61667	0.0020833	343.683	155.547	145.509	484.023	222.654	160.227	359.981	467.238	151.281	472.985	455.875	479.512	465.434	460.715	371.097	334.111	0.00077434	0.00055481	0.00012676	1254	6.911e-06	4.8478e-06	1275.1	346.64	5.3675e-06	6.6675e-06	399.18	135.15	116.36	40.003	5.7285e-06	50.404	0.00025749	0.00019291	5.3884e-05	1273.8	2.2346e-06	2.08e-06	1285.4	350.66	2.1901e-06	2.053e-06	405.15	136.79	118.05	41.122	2.0861e-06	51.566	289.974	242.018	213.909	157.565	309.078	290.980	157.343	162.315	315.844	288.534	161.047	165.595	166.133	171.248	286.442	169.928	-8191	255	
1125.278	1	1	0	0	0.21339	0.12385	0.31263	0.22389	0.11788	0.20101	0.38924	0.30783	0.11897	0.37444	0.22089	0.34703	0.18354	0.29689	0.1714	0.031052	0.32292	-0.35	0.2625	-0.6125	-0.18958	0.14375	-0.83958	0.0375	0.13958	-0.65625	0.26875	-0.35417	-0.43333	0.24375	-0.53333	0.041667	421.784	227.975	489.790	492.710	329.593	281.377	487.943	482.143	371.344	354.306	425.487	245.370	416.279	431.271	361.568	342.139	0.00078707	0.00024911	0.00010697	1259.2	7.7905e-06	4.2135e-06	1268.5	346.08	7.0164e-06	4.716e-06	398.52	135.4	116.85	40.309	5.5672e-06	50.435	0.00025711	0.00018782	5.3289e-05	1274.2	2.1749e-06	2.1233e-06	1284.1	350.74	2.1976e-06	2.0605e-06	404.32	136.8	117.95	41.113	2.188e-06	51.657	289.383	230.127	220.466	157.577	290.838	326.614	157.347	162.367	290.335	285.087	161.657	166.032	166.589	171.365	304.786	170.151	-8191	255	
1125.397	1	1	0	0	0.30649	0.069487	0.34794	0.15491	0.19344	0.10176	0.062133	0.30195	0.38754	0.25007	0.21265	0.098201	0.19502	0.29462	0.027412	0.14886	0.35	-0.63542	0.11667	-0.49583	-0.33125	0.35625	-0.66875	-0.1	0.045833	-0.60625	-0.11875	-0.375	-0.67292	0.066667	-0.56667	-0.32917	250.647	201.852	470.070	359.738	198.083	170.584	145.820	152.948	395.525	232.011	492.528	462.055	453.919	338.831	418.680	473.389	0.00083928	0.00029059	0.0001487	1255.3	5.868e-06	3.8802e-06	1263.9	346.79	6.3203e-06	5.9869e-06	398.16	134.98	115.58	40.159	7.8169e-06	50.477	0.00026052	0.00018834	5.5148e-05	1273.4	2.167e-06	2.1141e-06	1283.1	350.54	2.2038e-06	2.08e-06	404.6	136.71	117.65	41.098	2.1908e-06	51.613	288.687	223.198	228.407	157.797	322.004	303.786	157.790	162.645	328.791	274.190	161.584	166.418	166.866	171.240	300.127	170.340	-8191	255	
1125.493	1	1	0	0	0.047541	0.30617	0.14949	0.13172	0.22559	0.1107	0.2273	0.27727	0.033366	0.043996	0.13512	0.19742	0.26901	0.46232	0.24869	0.071825	0.30417	-0.59792	0.033333	-0.325	-0.35417	0.21667	-0.675	-0.23958	0.14583	-0.64583	-0.022917	-0.097917	-0.67708	0.17292	-0.52917	-0.37083	310.056	461.037	419.732	456.918	269.317	219.864	169.426	450.874	364.224	238.105	502.573	429.369	440.674	489.198	249.370	418.034	0.00073886	0.00041065	0.00021706	1251.5	7.4206e-06	4.4863e-06	1266.2	344.89	6.2454e-06	5.3971e-06	395.97	134.04	115.69	39.956	4.8521e-06	50.312	0.00026052	0.00019408	5.7032e-05	1272.7	2.1713e-06	2.1233e-06	1283.4	350.25	2.2065e-06	2.1634e-06	404.18	136.56	117.64	41.014	2.2022e-06	51.61	291.890	229.184	251.277	157.971	323.044	287.946	157.927	162.670	290.567	273.171	162.128	166.694	167.058	171.730	284.033	171.003	-8191	255	
1125.591	1	1	0	0	0.054631	0.036629	0.097296	0.24296	0.081255	0.086174	0.44229	0.13693	0.27273	0.18411	0.1689	0.16367	0.27552	0.13478	0.33403	0.31696	0.57292	-0.45	0.1625	-0.15833	-0.59792	0.20625	-0.62083	-0.50833	0.22917	-0.49375	-0.064583	-0.052083	-0.83542	0.077083	-0.27292	-0.52292	421.911	431.032	175.025	214.310	393.434	167.305	486.577	377.630	435.826	311.391	418.507	348.888	223.670	328.018	461.109	494.242	0.00079278	0.00047784	0.00014844	1242.5	7.1081e-06	5.9663e-06	1260.3	344.73	4.8431e-06	8.1193e-06	396.51	132.86	114.94	39.644	5.5754e-06	49.972	0.00025575	0.00019473	5.4122e-05	1272.1	2.1677e-06	2.1471e-06	1280.9	350.62	2.2276e-06	2.1129e-06	403.66	136.34	117.61	40.983	2.1527e-06	51.513	290.361	238.071	236.147	158.291	292.528	294.293	157.778	162.816	336.740	280.916	162.314	167.009	167.326	171.872	322.953	171.010	-8191	255	
1125.709	1	1	0	0	0.1067	0.0921	0.1866	0.10851	0.18532	0.13766	0.16944	0.25231	0.14541	0.12001	0.10941	0.17764	0.067758	0.11591	0.22471	0.24398	0.66875	-0.60625	-0.03125	0.03125	-0.84167	0.15833	-0.46667	-0.71458	0.26458	-0.46458	-0.30625	-0.022917	-0.71042	0.047917	-0.10417	-0.55208	392.025	350.212	383.972	453.480	397.087	455.717	322.644	380.493	175.067	156.334	231.885	421.070	232.498	365.410	224.027	415.286	0.00079268	0.0007349	0.00014425	1241	5.6143e-06	2.9571e-06	1265.2	342.44	6.2505e-06	4.3074e-06	398.74	135.42	116.23	40.487	5.8066e-06	50.754	0.00025935	0.00020057	5.5044e-05	1271.7	2.1709e-06	2.1829e-06	1284.6	349.84	2.2769e-06	2.1596e-06	404.15	136.5	117.79	41.134	2.2441e-06	51.587	290.394	243.469	231.006	158.232	318.339	252.286	157.673	163.075	319.653	302.994	161.575	165.912	166.107	170.779	309.788	170.075	-8191	255	
1125.781	1	1	0	0	0.19094	0.064709	0.10288	0.3325	0.14361	0.17488	0.16571	0.1667	0.29685	0.25567	0.045774	0.11782	0.37139	0.037187	0.14802	0.081859	0.64167	-0.575	-0.21042	0.020833	-0.49167	0.175	-0.12917	-0.73958	0.23125	-0.41042	-0.37917	0.16042	-0.8375	-0.225	0.0625	-0.73333	449.984	341.141	478.697	423.179	204.482	332.326	373.019	286.387	228.331	239.547	483.863	230.614	471.119	350.544	213.175	179.416	0.00084305	0.00050118	0.00016638	1251.8	7.3329e-06	3.3436e-06	1267.3	346.71	5.8627e-06	4.7171e-06	396.52	135.17	116.05	40.29	2.6352e-06	50.4	0.00026658	0.00019703	5.422e-05	1273.2	2.2498e-06	2.1472e-06	1282	350.47	2.2329e-06	2.1579e-06	403.63	136.72	117.77	41.09	2.1761e-06	51.554	290.248	259.531	258.766	157.340	294.611	310.514	157.197	162.246	310.215	280.419	161.857	165.855	165.989	170.471	258.038	169.660	-8191	255	
1125.877	1	1	0	0	0.1572	0.1988	0.16868	0.22857	0.099437	0.1576	0.18145	0.084174	0.21463	0.11681	0.16571	0.10919	0.11148	0.22119	0.14444	0.095093	0.54583	-0.48333	-0.4125	0.054167	-0.4375	0.014583	-0.05625	-0.59792	0.29583	-0.34583	-0.39167	0.26875	-0.46875	-0.077083	0.12917	-0.81875	225.633	257.360	258.808	147.341	327.648	259.654	377.405	436.852	336.148	377.183	424.005	162.952	161.629	498.278	330.957	155.811	0.0007844	0.00041937	0.0001125	1256.2	7.1804e-06	4.9808e-06	1269.7	346.12	4.3857e-06	4.9443e-06	398.15	134.62	115.9	40.055	5.5888e-06	50.468	0.0002637	0.00019352	5.3608e-05	1274.1	2.2122e-06	2.1074e-06	1283.5	350.68	2.213e-06	2.0979e-06	404.34	136.59	117.8	41.028	2.1884e-06	51.559	289.618	223.999	238.656	157.035	325.431	292.988	156.590	161.919	316.132	279.276	161.216	165.509	165.918	170.819	293.558	169.691	-8191	255	
1125.998	1	1	0	0	0.25013	0.15132	0.19679	0.091749	0.28407	0.20876	0.052508	0.30213	0.22914	0.032883	0.2609	0.026259	0.13436	0.38876	0.27931	0.1416	0.53958	-0.25833	-0.46667	0.035417	-0.40625	-0.14167	0.077083	-0.64167	0.14375	-0.25833	-0.49167	0.13958	-0.57083	-0.33542	0.3375	-0.6625	438.829	199.214	298.145	185.136	227.586	369.111	323.871	419.853	297.336	422.402	482.818	181.591	473.402	444.610	298.288	436.519	0.00082505	0.00063526	9.2813e-05	1254.4	4.8647e-06	2.4753e-06	1268.2	345.9	4.508e-06	8.2769e-06	400.42	135.34	116.05	40.195	3.6529e-06	50.595	0.0002609	0.00018949	5.3715e-05	1272.5	2.2017e-06	2.163e-06	1283	350.52	2.2155e-06	2.1376e-06	405.1	136.79	117.67	41.053	2.1728e-06	51.583	290.824	220.706	207.721	157.152	308.536	295.874	157.343	162.335	291.998	297.018	161.092	165.725	166.617	171.011	292.108	170.396	-8191	255	
1126.094	1	1	0	0	0.099951	0.094286	0.46764	0.30557	0.20311	0.12023	0.26434	0.31369	0.10707	0.028422	0.26997	0.2395	0.215	0.13505	0.1166	0.31924	0.35833	-0.058333	-0.56042	0.0875	-0.51042	-0.3	0.12292	-0.64375	-0.033333	0.12708	-0.78125	0.085417	-0.37708	-0.31667	0.2625	-0.60833	502.393	193.003	373.802	482.940	394.298	315.222	416.375	464.778	418.255	235.965	489.166	268.773	202.143	398.120	429.520	149.811	0.000798	0.00052166	0.00015878	1256.2	6.4338e-06	5.1964e-06	1269.9	344.61	6.5349e-06	3.6967e-06	398.52	135.11	116.07	40.156	4.0099e-06	50.373	0.00026171	0.00019596	5.4419e-05	1273.5	2.2117e-06	2.0791e-06	1281.8	349.86	2.246e-06	2.1098e-06	403.73	136.67	117.84	41.06	2.1637e-06	51.519	291.273	230.878	229.159	157.460	291.320	323.717	157.093	162.171	305.302	242.620	161.445	165.673	166.387	170.892	275.878	169.894	-8191	255	
1126.190	1	1	0	0	0.24464	0.26093	0.15893	0.11789	0.12337	0.16849	0.22334	0.17293	0.041464	0.064618	0.043699	0.22563	0.11988	0.074808	0.11511	0.11016	0.35833	0.2	-0.58958	0.06875	-0.23333	-0.31667	0.0625	-0.68125	-0.225	0.027083	-0.58333	-0.033333	-0.2875	-0.67708	0.14167	-0.4875	417.514	414.583	165.790	496.056	454.001	479.694	502.723	443.746	201.456	264.034	229.350	494.261	273.016	364.836	217.332	161.732	0.00082806	0.00024611	0.00016339	1253.1	5.6043e-06	4.7814e-06	1267.7	344.61	6.7161e-06	6.9259e-06	400.36	135.1	116.35	40.082	5.5043e-06	50.367	0.00026137	0.00018887	5.2548e-05	1273.3	2.2503e-06	2.0871e-06	1283	349.95	2.1885e-06	2.0863e-06	404.18	136.63	117.74	40.977	2.1926e-06	51.569	290.501	235.658	228.862	156.851	303.541	297.988	156.784	162.031	306.356	284.217	160.842	165.857	166.536	170.893	289.439	170.053	-8191	255	
1126.311	1	1	0	0	0.16323	0.10657	0.19087	0.14702	0.051942	0.20212	0.057263	0.12956	0.10319	0.026149	0.14236	0.2199	0.21829	0.12524	0.26437	0.12329	0.16875	0.083333	-0.59167	0.016667	-0.18958	-0.60417	-0.035417	-0.58542	-0.34792	-0.010417	-0.92917	-0.21667	-0.21458	-0.96042	0.38958	-0.5875	421.751	237.616	408.839	421.857	190.929	247.321	415.630	497.740	451.396	424.118	493.240	460.325	442.225	419.572	322.156	501.651	0.00075652	0.00051894	0.00012793	1253.3	5.9972e-06	3.9991e-06	1268.8	344.75	5.5621e-06	4.4413e-06	399.18	134.98	116.63	40.086	4.2301e-06	50.729	0.00025796	0.000194	5.3746e-05	1272.6	2.2315e-06	2.0922e-06	1282.6	350.34	2.1838e-06	2.1085e-06	405.24	136.43	117.87	41.063	2.235e-06	51.579	287.292	235.521	222.777	157.364	325.252	306.809	157.132	162.303	312.084	296.233	161.258	165.619	166.562	171.363	312.089	169.879	-8191	255	
1126.407	1	1	0	0	0.19687	0.21618	0.3078	0.12348	0.053022	0.089164	0.25061	0.22814	0.30702	0.085747	0.12739	0.07198	0.40042	0.097873	0.18221	0.12411	0.045833	0.19375	-0.53958	-0.095833	-0.045833	-0.575	0.05625	-0.50833	-0.44375	0.06875	-0.67083	-0.25	-0.2125	-0.75417	0.27708	-0.38542	308.944	169.031	159.758	389.604	415.762	155.150	158.158	416.426	432.112	250.260	148.371	449.391	493.252	381.935	350.034	414.562	0.00079954	0.00035451	0.00011612	1259	7.1613e-06	4.1068e-06	1269.9	347.09	4.2839e-06	5.7359e-06	399.46	135.22	115.82	40.124	5.98e-06	50.196	0.00026152	0.00019751	5.4527e-05	1273.5	2.2108e-06	2.026e-06	1283.6	350.99	2.1631e-06	2.164e-06	403.94	136.66	117.58	41.108	2.2759e-06	51.6	290.181	230.339	226.406	157.466	309.000	320.288	157.333	162.418	310.490	292.919	161.846	166.128	166.917	171.484	297.729	170.704	-8191	255	
1126.479	1	1	0	0	0.16947	0.094364	0.039161	0.46935	0.13929	0.13756	0.13585	0.08246	0.12366	0.21614	0.17134	0.27376	0.29768	0.29136	0.098912	0.15732	-0.21042	0.19583	-0.50417	-0.28333	0.03125	-0.51667	0.1	-0.38958	-0.37708	0.1625	-0.87917	-0.19375	-0.058333	-0.69167	-0.14167	-0.33333	345.528	176.680	393.982	480.558	309.917	289.461	489.126	504.040	418.649	284.616	482.539	157.645	452.889	463.548	341.490	498.262	0.00078867	0.0005459	0.00018011	1256.3	6.0882e-06	4.0785e-06	1265.6	346.61	5.1795e-06	6.5019e-06	396.64	134.49	115.6	40.158	4.2553e-06	49.994	0.00025748	0.00020135	5.3838e-05	1274.8	2.2812e-06	2.0617e-06	1283.4	350.85	2.1831e-06	2.2349e-06	404.61	136.49	117.65	41.131	2.2129e-06	51.505	291.729	203.383	240.543	157.747	301.782	306.433	157.272	162.559	312.371	285.238	161.904	166.465	167.073	171.556	320.241	170.955	-8191	255	
1126.575	1	1	0	0	0.10993	0.067544	0.19544	0.24244	0.13759	0.029055	0.13029	0.22847	0.21322	0.075226	0.30217	0.18267	0.093576	0.14704	0.14997	0.076011	-0.23125	0.35833	-0.29375	-0.34375	0.18333	-0.68125	-0.17708	-0.4375	-0.51667	0.17917	-0.56042	-0.39583	0.175	-0.7	-0.125	-0.15208	374.219	295.588	156.740	425.580	234.843	478.550	444.951	369.042	453.663	497.199	489.899	209.832	365.156	192.661	229.444	240.272	0.00081966	0.00044335	0.00015271	1247.9	5.2967e-06	4.4295e-06	1261	343.86	4.3549e-06	5.1313e-06	395.11	134.3	115.44	39.954	7.712e-06	50.299	0.0002602	0.00020249	5.3816e-05	1273.6	2.2598e-06	2.1477e-06	1283.2	350.04	2.1489e-06	2.1612e-06	403.92	136.35	117.59	41.055	2.2041e-06	51.622	292.014	219.414	228.321	157.866	297.037	313.832	157.651	162.993	325.511	287.428	162.246	166.553	167.074	171.695	302.681	170.573	-8191	255	
1126.694	1	1	0	0	0.12061	0.12873	0.17903	0.10913	0.12539	0.32663	0.12498	0.32697	0.045209	0.11175	0.36997	0.058944	0.077593	0.1248	0.11571	0.1098	-0.27917	0.21042	-0.25	-0.57708	0.28125	-0.58333	-0.083333	0.022917	-0.69375	0.1375	-0.4875	-0.47292	0.14583	-0.73125	-0.05	0.0020833	423.892	393.163	351.766	146.119	231.529	396.518	453.208	436.093	459.207	193.624	203.157	397.482	269.126	428.432	313.603	221.416	0.00082493	0.00025761	0.00015818	1247.7	7.4638e-06	5.2863e-06	1266.7	343.46	6.2032e-06	6.2108e-06	396.49	135.02	115.37	40.008	4.3382e-06	50.272	0.00026487	0.00020236	5.479e-05	1274.7	2.2534e-06	2.1376e-06	1283.9	349.57	2.2063e-06	2.2024e-06	403.74	136.63	117.76	41.018	2.1971e-06	51.528	291.938	237.226	221.516	157.829	299.248	318.260	157.481	162.819	319.488	303.954	161.851	166.282	167.165	171.471	293.824	170.466	-8191	255	
1126.790	1	1	0	0	0.19721	0.22378	0.085915	0.27723	0.052369	0.24601	0.16045	0.3425	0.36672	0.056531	0.28575	0.21674	0.32267	0.40295	0.17306	0.26366	-0.058333	0.26458	-0.24583	-0.62083	0.26042	-0.78125	-0.44167	0.0020833	-0.73333	0.22708	-0.30417	-0.59583	0.2125	-0.38333	-0.28958	0.13958	486.647	318.898	346.877	472.325	465.493	350.951	376.935	155.452	210.868	278.259	449.473	464.975	201.550	164.166	376.600	479.252	0.0008146	0.00052757	0.00013238	1249.7	5.9748e-06	5.1494e-06	1269.6	345.01	5.7076e-06	6.8375e-06	397.86	134.62	115.51	40.104	3.9275e-06	50.006	0.00026418	0.00020015	5.4615e-05	1274.3	2.3251e-06	2.1756e-06	1283.1	350.31	2.2392e-06	2.2077e-06	404.27	136.47	117.5	41.009	2.2005e-06	51.461	287.651	242.805	242.234	157.814	291.667	295.375	157.417	162.712	305.381	274.609	161.999	166.281	167.019	171.425	295.070	170.727	-8191	255	
1126.886	1	1	0	0	0.42647	0.099647	0.12074	0.21128	0.1582	0.12966	0.43828	0.3807	0.22811	0.13444	0.34048	0.11897	0.27005	0.088332	0.21369	0.13212	-0.39167	0.10208	-0.027083	-0.81042	0.27708	-0.4	-0.54583	0.2125	-0.48542	0.18333	-0.23958	-0.77917	0.014583	-0.58333	-0.3	0.16458	285.835	226.949	420.223	456.286	474.260	401.089	439.940	422.313	457.466	319.300	147.669	448.936	489.234	231.077	148.457	199.466	0.00081275	0.00037066	0.00012892	1248.3	6.3036e-06	4.2969e-06	1265	344.8	5.4759e-06	6.2198e-06	396.9	133.74	115.27	39.913	5.4304e-06	50.117	0.00025942	0.00020393	5.5338e-05	1272	2.3243e-06	2.2286e-06	1283.1	350.16	2.2363e-06	2.2002e-06	404.08	136.09	117.35	41.025	2.1977e-06	51.425	288.056	211.882	254.823	157.766	310.977	297.578	157.423	162.733	310.061	281.670	161.966	166.417	167.087	171.679	273.315	170.596	-8191	255	
1126.982	1	1	0	0	0.14319	0.18704	0.14612	0.068365	0.15162	0.14835	0.19695	0.30144	0.13114	0.084681	0.21298	0.17195	0.14648	0.12239	0.19718	0.28657	-0.24167	0.00625	0.14375	-0.83958	0.31458	-0.31667	-0.69583	0.31458	-0.45625	-0.15417	0.10417	-0.81042	0.2625	-0.39583	-0.37083	0.22917	196.781	308.322	323.323	219.170	184.753	233.853	430.615	489.597	386.517	461.372	165.469	421.048	432.695	150.184	335.049	495.283	0.00081718	0.000468	0.00014555	1250.8	6.0657e-06	2.2604e-06	1257.8	344.71	5.6014e-06	6.3678e-06	400.27	134.94	115.76	39.978	6.3208e-06	50.53	0.00026312	0.00020165	5.5825e-05	1273.9	2.2885e-06	2.1217e-06	1280.4	350.05	2.2647e-06	2.2047e-06	404.3	136.43	117.29	40.946	2.2483e-06	51.435	291.642	239.148	229.549	157.814	311.341	312.793	157.646	162.612	308.344	294.655	161.721	165.814	166.666	171.176	293.104	170.398	-8191	255	
1127.078	1	1	0	0	0.10356	0.23417	0.15831	0.66089	0.2481	0.1237	0.25073	0.24479	0.1769	0.12695	0.35033	0.13024	0.22455	0.36194	0.31513	0.29579	-0.275	-0.014583	0.0625	-0.68542	0.12083	-0.21667	-0.71042	0.14583	-0.45833	-0.31458	0.16042	-0.68542	-0.066667	-0.23542	-0.33542	0.25417	230.790	357.762	293.804	471.669	256.092	479.639	492.344	252.691	405.752	427.834	465.472	190.817	374.075	149.029	292.305	439.078	0.00079538	0.00051886	0.00011247	1250.1	5.3268e-06	5.9862e-06	1272.4	345.93	5.206e-06	4.555e-06	397.75	134.49	115.8	40.054	5.2857e-06	50.361	0.00026388	0.00019604	5.6033e-05	1273.1	2.2831e-06	2.1694e-06	1284.3	350.34	2.2981e-06	2.1703e-06	403.98	136.38	117.4	40.972	2.186e-06	51.401	289.425	211.283	222.303	157.605	317.117	300.604	157.364	162.699	310.892	255.169	161.667	166.192	166.625	171.395	294.854	170.418	-8191	255	
1127.174	1	1	0	0	0.02743	0.35489	0.11274	0.17842	0.044863	0.16725	0.098469	0.21529	0.050473	0.18868	0.086485	0.12238	0.12756	0.14412	0.20073	0.1921	0.029167	-0.097917	0.29167	-0.68542	-0.15417	0.039583	-0.76667	-0.060417	-0.36042	-0.35208	0.30625	-0.68125	-0.05625	-0.14583	-0.60417	0.24583	212.117	474.585	180.713	163.000	466.083	325.577	407.956	421.940	353.273	379.556	246.374	165.807	483.677	403.015	163.858	405.627	0.00078552	0.00050595	0.00012258	1249.8	7.1999e-06	4.6923e-06	1261	343.52	6.2327e-06	5.2927e-06	394.83	134.13	114.74	39.713	5.6112e-06	50.008	0.00026025	0.00019761	5.6833e-05	1273.3	2.2873e-06	2.1483e-06	1282.4	349.96	2.2274e-06	2.135e-06	403.63	136.44	117.32	40.893	2.2247e-06	51.438	290.119	221.197	237.254	157.863	301.087	290.269	157.719	162.886	323.244	285.363	161.913	166.672	167.125	171.758	276.917	170.699	-8191	255	
1127.271	1	1	0	0	0.31817	0.13849	0.1675	0.042582	0.13921	0.29374	0.13899	0.30507	0.3191	0.093951	0.13181	0.24579	0.075716	0.092084	0.15074	0.25781	0.24792	-0.19167	0.275	-0.97917	-0.06875	0.13542	-0.83542	-0.05	-0.22917	-0.4875	0.077083	-0.51458	-0.1375	0.27708	-0.63125	-0.14167	417.796	170.428	443.791	434.106	486.635	229.504	425.854	479.550	472.382	397.461	354.457	488.723	448.659	442.624	446.430	370.927	0.000767	0.00033605	0.00012289	1259.2	5.108e-06	4.5131e-06	1265.4	345.57	6.9537e-06	6.873e-06	396.49	135.04	116.06	40.178	6.9162e-06	50.23	0.00026485	0.00019308	5.8413e-05	1276.8	2.2798e-06	2.2605e-06	1284.4	350.03	2.2909e-06	2.1948e-06	403.22	136.47	117.5	40.981	2.2541e-06	51.409	288.991	258.053	252.383	157.486	312.502	303.984	157.511	162.749	300.001	274.481	161.461	166.282	166.317	171.089	294.111	170.049	-8191	255	
1127.391	1	1	0	0	0.079217	0.14517	0.19525	0.23019	0.1717	0.21584	0.1068	0.40542	0.11873	0.12612	0.32123	0.056732	0.13419	0.1587	0.21845	0.36305	0.29583	-0.53333	0.44792	-0.80417	-0.21667	0.18542	-0.89792	-0.17083	-0.11042	-0.43542	0.085417	-0.56458	-0.3125	0.15417	-0.37083	0.091667	217.285	389.431	194.540	150.475	309.511	216.634	453.675	422.726	378.702	463.041	183.994	282.014	181.771	403.894	381.173	465.957	0.00076341	0.00058196	0.000169	1257.5	4.3504e-06	5.2825e-06	1270.3	346.15	5.9629e-06	4.1823e-06	398.35	134.73	115.79	40.089	6.5744e-06	50.147	0.00026525	0.00020729	5.7124e-05	1276.1	2.2914e-06	2.2371e-06	1283.9	350.34	2.3223e-06	2.1846e-06	403.75	136.59	117.37	40.989	2.2802e-06	51.334	289.953	233.652	236.892	157.448	295.531	291.209	157.308	162.558	285.587	259.569	160.901	165.883	166.434	170.926	284.549	169.932	-8191	255	
1127.486	1	1	0	0	0.061848	0.092957	0.10488	0.25544	0.11933	0.083678	0.1117	0.02813	0.14125	0.29564	0.29089	0.21895	0.023566	0.098979	0.17717	0.10748	0.36667	-0.55417	0.40625	-0.50833	-0.49167	0.20833	-0.63125	-0.15208	-0.06875	-0.675	0.12917	-0.41667	-0.625	0.13333	-0.5625	-0.097917	313.817	247.625	270.373	410.699	261.765	193.836	454.904	353.787	352.846	411.626	406.672	435.667	476.727	205.799	303.582	387.734	0.00080072	0.00034032	0.00013217	1255.5	7.5887e-06	5.0494e-06	1268.9	346.1	5.5216e-06	7.7082e-06	398.42	134.34	116.15	40.133	6.4559e-06	50.303	0.00026964	0.00020441	5.6076e-05	1276.1	2.309e-06	2.2668e-06	1285.8	350.74	2.3847e-06	2.2883e-06	404.76	136.33	117.68	41.01	2.2901e-06	51.477	292.181	226.156	265.665	157.317	312.015	287.657	156.834	161.879	306.269	301.726	161.345	165.806	166.369	171.053	302.428	169.776	-8191	255	
1127.582	1	1	0	0	0.28096	0.22055	0.17058	0.043244	0.185	0.1764	0.16897	0.14786	0.25773	0.027038	0.18639	0.13177	0.17017	0.31164	0.041216	0.22909	0.43542	-0.50208	0.35	-0.33333	-0.55625	0.28125	-0.875	-0.16667	0.21875	-0.64375	-0.045833	-0.29583	-0.525	0.35208	-0.3875	-0.16875	431.547	466.543	407.176	482.504	449.640	266.840	275.684	428.024	303.067	357.422	396.548	188.290	145.445	500.470	146.088	481.470	0.00079785	0.00035377	0.00015787	1255	5.9014e-06	4.0536e-06	1270.4	344.86	5.298e-06	5.1453e-06	398.48	135.15	116.12	40.096	3.995e-06	50.638	0.00026928	0.00020619	5.8146e-05	1275.9	2.3176e-06	2.2057e-06	1285.4	350.11	2.2719e-06	2.1965e-06	404.46	136.55	117.64	40.966	2.2461e-06	51.512	289.530	202.924	224.321	157.331	306.521	298.590	156.822	162.061	314.492	290.621	160.897	165.794	166.341	171.076	293.642	169.678	-8191	255	
1127.678	1	1	0	0	0.16961	0.16384	0.099038	0.32168	0.19526	0.30623	0.15643	0.20333	0.12879	0.093582	0.069985	0.11726	0.10556	0.097871	0.21269	0.16137	0.6	-0.62708	0.14375	-0.27083	-0.52083	0.27083	-0.56667	-0.53958	0.0083333	-0.49792	0.10625	-0.125	-0.725	0.14167	-0.33333	-0.40417	492.013	410.244	310.767	461.468	451.842	434.250	437.427	426.497	494.287	251.102	426.652	468.948	236.998	424.199	485.773	207.972	0.00078119	0.0005752	4.6628e-05	1265.1	4.8327e-06	5.2854e-06	1274.9	346.28	3.8661e-06	4.6365e-06	398.47	134.73	116.55	40.057	8.5566e-06	50.517	0.00027309	0.00021045	5.6566e-05	1279.1	2.3253e-06	2.239e-06	1286.9	350.42	2.2971e-06	2.2447e-06	405.04	136.41	117.72	41.009	2.2425e-06	51.541	289.857	254.032	253.274	157.064	296.986	304.661	157.048	161.928	301.098	298.359	161.081	165.777	166.312	170.692	297.071	169.859	-8191	255	
1127.774	1	1	0	0	0.12943	0.19562	0.06164	0.49464	0.094429	0.17543	0.51048	0.21066	0.20567	0.27831	0.3187	0.16062	0.1127	0.13798	0.20204	0.29432	0.675	-0.48333	0.11667	-0.15208	-0.40417	0.23958	-0.50208	-0.50208	0.3875	-0.39167	-0.33125	-0.03125	-0.42083	0.070833	-0.04375	-0.60833	247.508	399.898	277.103	465.704	482.167	391.211	462.006	257.914	293.636	483.268	413.159	430.864	155.699	160.713	413.530	463.770	0.0008866	0.0005922	0.00014926	1260.9	7.8527e-06	4.6123e-06	1271.6	345.74	4.7735e-06	5.9186e-06	397.55	134.52	116.12	40.053	5.0922e-06	50.279	0.00027632	0.0001981	5.6147e-05	1277.8	2.3278e-06	2.2441e-06	1286.8	350.51	2.2788e-06	2.1228e-06	404.43	136.54	117.63	40.918	2.2425e-06	51.518	289.846	209.728	226.744	157.339	294.687	302.003	157.063	162.350	303.999	318.762	161.316	165.897	166.240	170.992	296.086	169.800	-8191	255	
1127.870	1	1	0	0	0.25765	0.15191	0.23232	0.046652	0.12251	0.14298	0.189	0.39468	0.24681	0.054791	0.4141	0.094367	0.2174	0.36241	0.12169	0.35804	0.45208	-0.425	-0.09375	0.01875	-0.61042	0.22917	-0.46042	-0.69167	0.37083	-0.4375	-0.3375	0.035417	-0.64375	0.1	0.05	-0.48542	460.095	154.745	265.745	423.929	443.761	294.581	448.456	422.787	313.754	184.023	411.386	448.574	147.147	156.938	334.927	437.365	0.00081248	0.00058211	0.00016312	1258.1	6.3545e-06	6.2487e-06	1274.2	346.42	6.5536e-06	5.0324e-06	400.81	134.47	115.95	40.121	5.4243e-06	50.55	0.00027073	0.00019675	5.5338e-05	1275.7	2.3564e-06	2.1823e-06	1286.2	350.67	2.3152e-06	2.2132e-06	405.2	136.34	117.59	40.997	2.2749e-06	51.543	289.753	232.647	239.671	157.281	289.066	272.187	157.006	161.966	290.906	297.430	161.341	166.062	166.766	171.041	315.096	170.303	-8191	255	
1127.991	1	1	0	0	0.23498	0.16398	0.05997	0.35713	0.18388	0.054761	0.2887	0.14667	0.072769	0.31033	0.36514	0.21278	0.082443	0.015411	0.095281	0.2191	0.57708	-0.26875	-0.091667	0.29375	-0.625	0.10833	-0.075	-0.66042	0.16042	-0.45417	-0.44167	0.17083	-0.71042	-0.016667	0.19167	-0.58125	267.049	478.132	428.460	175.124	482.182	318.284	441.820	469.769	187.658	200.555	488.941	480.976	192.816	428.335	208.711	336.370	0.00075184	0.00035152	0.00015912	1259	6.5185e-06	3.3673e-06	1273.7	346.72	5.7366e-06	4.8354e-06	399.84	134.88	116.16	39.938	4.6654e-06	50.156	0.00026836	0.00020385	5.607e-05	1275.4	2.32e-06	2.1439e-06	1284.8	350.3	2.3688e-06	2.1682e-06	404.68	136.51	117.72	40.891	2.2638e-06	51.369	290.701	232.764	245.325	157.583	311.106	299.600	157.466	162.257	310.990	314.112	161.505	166.065	166.692	171.073	286.046	170.202	-8191	255	
1128.087	1	1	0	0	0.067876	0.33242	0.26911	0.32356	0.11476	0.12114	0.18622	0.23731	0.14107	0.084425	0.095142	0.13135	0.23778	0.28218	0.15839	0.28442	0.4625	-0.275	-0.31042	0.13125	-0.59583	0.01875	-0.091667	-0.81875	0.37292	-0.20833	-0.66875	0.25	-0.58125	-0.23958	0.17917	-0.75833	426.440	281.793	427.346	403.338	489.838	351.537	445.255	244.268	221.617	325.080	168.083	472.120	263.964	503.091	169.573	469.560	0.00082458	0.00048386	0.00012141	1257.3	4.6761e-06	4.5606e-06	1271.5	346.09	5.4607e-06	5.0282e-06	399.65	134.12	115.97	40.272	4.5716e-06	50.496	0.00026813	0.00019965	5.5608e-05	1275.6	2.3029e-06	2.2196e-06	1286.2	350.68	2.2891e-06	2.2138e-06	404.3	136.28	117.52	40.987	2.2925e-06	51.533	290.888	254.640	249.219	157.630	306.668	302.108	157.523	162.526	311.594	295.128	161.598	166.100	166.648	171.068	295.452	170.096	-8191	255	
1128.183	1	1	0	0	0.16732	0.13472	0.12855	0.28774	0.3111	0.047968	0.19461	0.11001	0.16013	0.12496	0.20718	0.12773	0.19077	0.15732	0.23664	0.20688	0.59583	-0.16042	-0.26667	0.045833	-0.52083	-0.1125	-0.11042	-0.68333	0.16458	-0.30417	-0.60417	0.24583	-0.51875	-0.10833	0.29167	-0.52083	446.427	479.595	381.527	427.372	453.048	374.043	480.224	177.650	439.795	177.095	495.214	183.361	371.171	422.513	343.082	457.029	0.0007824	0.00057794	0.0001677	1258.6	5.3987e-06	6.4418e-06	1266.7	346.97	5.7695e-06	4.8938e-06	399.47	135.44	116.06	40.057	5.0269e-06	50.43	0.00026575	0.00020746	5.7562e-05	1275.8	2.2782e-06	2.2443e-06	1283.7	351.26	2.2431e-06	2.177e-06	404.61	136.69	117.63	40.97	2.2938e-06	51.46	287.281	240.718	258.158	157.304	315.740	293.539	157.122	162.274	311.169	268.968	161.602	165.756	166.366	171.138	279.713	170.445	-8191	255	
1128.279	1	1	0	0	0.24692	0.18599	0.067663	0.36774	0.15853	0.13012	0.080078	0.22075	0.31416	0.1935	0.3123	0.14369	0.041645	0.10554	0.16301	0.15189	0.51042	0.16667	-0.475	0.17292	-0.34792	-0.28542	0.020833	-0.53542	0.052083	0.10625	-0.625	0.095833	-0.26458	-0.36042	0.19792	-0.69583	183.970	485.190	461.017	444.616	480.586	173.682	246.027	432.754	378.492	170.880	430.296	440.292	199.277	365.520	322.280	296.835	0.00077822	0.00061078	8.4297e-05	1258	5.2516e-06	5.3769e-06	1271.3	347.28	5.4723e-06	4.4086e-06	401.47	134.66	116.39	40.042	4.1681e-06	50.41	0.00026374	0.00020589	5.6294e-05	1276.6	2.308e-06	2.1503e-06	1284.3	351.04	2.3279e-06	2.2454e-06	405.43	136.51	117.68	40.948	2.2932e-06	51.447	289.623	230.873	202.271	157.657	333.882	269.406	157.196	162.574	296.268	303.328	161.336	165.868	166.634	170.716	313.566	170.381	-8191	255	
1128.375	1	1	0	0	0.13886	0.11073	0.19208	0.41107	0.20625	0.080507	0.22768	0.32866	0.085636	0.25528	0.043877	0.034073	0.1335	0.30582	0.32177	0.084225	0.47292	0.17917	-0.57708	0.19375	-0.0083333	-0.53333	0.14792	-0.57708	0.10417	0.15208	-0.7125	0.1875	-0.375	-0.6125	0.125	-0.47917	331.232	409.464	498.494	461.144	295.540	252.773	428.709	434.856	175.731	330.015	296.556	158.427	413.604	441.706	418.454	461.766	0.00081254	0.00054424	0.00016459	1259.3	7.0263e-06	3.217e-06	1265.7	346.34	6.4532e-06	5.9131e-06	396.56	134.38	115.64	39.977	3.6165e-06	50.261	0.00026437	0.00020453	5.5987e-05	1277.5	2.3034e-06	2.2175e-06	1284.2	350.92	2.3087e-06	2.2481e-06	404.27	136.43	117.52	40.972	2.2339e-06	51.47	290.644	242.186	207.570	157.540	297.214	301.263	157.402	162.912	294.208	256.488	161.963	166.300	167.021	171.390	310.220	170.563	-8191	255	
#DATA ENDS
