BOXY.EXE: ISS Imagent and Oximeter Data Acquisition Program Version 0.80
Ascii Record File

#ACQ INFORMATION
2  Detector Channels 
16  External MUX Channels 
1  Auxiliary Channels 
5000  Waveform (CCF) Frequency (Hz)
1  Waveforms Skipped 
30  Waveforms Averaged 
1  Cycles Averaged 
16  Acquisitions per Waveform 
10.0806  Updata Rate (Hz) 

#FILE INFORMATION
TRUE -- External MUX Channel results are PARSED.
FALSE -- AC DC and Phase are NOT grouped.
TRUE -- Companion Program Settings File CREATED.
FALSE -- AC data not excluded
FALSE -- DC data not excluded
FALSE -- Phase data not excluded
FALSE -- Auxillary Chn. data not excluded
Tab delimiters

#CALIBRATION STATE
TRUE -- Waveform Calibration Values APPLIED.


#AUX CALIBRATION VALUES
Val Type	aux-1	

Term	1.0000e+00	
Factor	0.0000e+00	


#WF CALIBRATION VALUES
A = Detector Channel
Val Type	A-AC1	A-AC2	A-AC3	A-AC4	A-AC5	A-AC6	A-AC7	A-AC8	A-AC9	A-AC10	A-AC11	A-AC12	A-AC13	A-AC14	A-AC15	A-AC16	A-DC1	A-DC2	A-DC3	A-DC4	A-DC5	A-DC6	A-DC7	A-DC8	A-DC9	A-DC10	A-DC11	A-DC12	A-DC13	A-DC14	A-DC15	A-DC16	A-Ph1	A-Ph2	A-Ph3	A-Ph4	A-Ph5	A-Ph6	A-Ph7	A-Ph8	A-Ph9	A-Ph10	A-Ph11	A-Ph12	A-Ph13	A-Ph14	A-Ph15	A-Ph16	

Term	0.00000e+00	0.00000e+00	0.00000e+00	0.00000e+00	0.00000e+00	0.00000e+00	0.00000e+00	0.00000e+00	0.00000e+00	0.00000e+00	0.00000e+00	0.00000e+00	0.00000e+00	0.00000e+00	0.00000e+00	0.00000e+00	0.00000e+00	0.00000e+00	0.00000e+00	0.00000e+00	0.00000e+00	0.00000e+00	0.00000e+00	0.00000e+00	0.00000e+00	0.00000e+00	0.00000e+00	0.00000e+00	0.00000e+00	0.00000e+00	0.00000e+00	0.00000e+00	0.00000e+00	0.00000e+00	0.00000e+00	0.00000e+00	0.00000e+00	0.00000e+00	0.00000e+00	0.00000e+00	0.00000e+00	0.00000e+00	0.00000e+00	0.00000e+00	0.00000e+00	0.00000e+00	0.00000e+00	0.00000e+00	
Factor	1.00000e+00	1.00000e+00	1.00000e+00	1.00000e+00	1.00000e+00	1.00000e+00	1.00000e+00	1.00000e+00	1.00000e+00	1.00000e+00	1.00000e+00	1.00000e+00	1.00000e+00	1.00000e+00	1.00000e+00	1.00000e+00	1.00000e+00	1.00000e+00	1.00000e+00	1.00000e+00	1.00000e+00	1.00000e+00	1.00000e+00	1.00000e+00	1.00000e+00	1.00000e+00	1.00000e+00	1.00000e+00	1.00000e+00	1.00000e+00	1.00000e+00	1.00000e+00	X	X	X	X	X	X	X	X	X	X	X	X	X	X	X	X	

B = Detector Channel
Val Type	B-AC1	B-AC2	B-AC3	B-AC4	B-AC5	B-AC6	B-AC7	B-AC8	B-AC9	B-AC10	B-AC11	B-AC12	B-AC13	B-AC14	B-AC15	B-AC16	B-DC1	B-DC2	B-DC3	B-DC4	B-DC5	B-DC6	B-DC7	B-DC8	B-DC9	B-DC10	B-DC11	B-DC12	B-DC13	B-DC14	B-DC15	B-DC16	B-Ph1	B-Ph2	B-Ph3	B-Ph4	B-Ph5	B-Ph6	B-Ph7	B-Ph8	B-Ph9	B-Ph10	B-Ph11	B-Ph12	B-Ph13	B-Ph14	B-Ph15	B-Ph16	

Term	0.00000e+00	0.00000e+00	0.00000e+00	0.00000e+00	0.00000e+00	0.00000e+00	0.00000e+00	0.00000e+00	0.00000e+00	0.00000e+00	0.00000e+00	0.00000e+00	0.00000e+00	0.00000e+00	0.00000e+00	0.00000e+00	0.00000e+00	0.00000e+00	0.00000e+00	0.00000e+00	0.00000e+00	0.00000e+00	0.00000e+00	0.00000e+00	0.00000e+00	0.00000e+00	0.00000e+00	0.00000e+00	0.00000e+00	0.00000e+00	0.00000e+00	0.00000e+00	2.16202e+01	-1.27640e+02	-1.20072e+02	-1.81829e+02	-6.16250e+01	-7.02085e+01	-1.55860e+02	-1.62015e+02	-1.48752e+01	-5.71797e+01	-1.72273e+02	-1.70198e+02	-1.80175e+02	-1.76607e+02	-7.27239e+01	-1.49939e+02	
Factor	4.79762e-05	1.77696e-04	5.16229e-05	1.64818e-01	2.61545e-06	2.05122e-06	1.93509e-01	5.38336e-02	2.73419e-06	1.91366e-06	1.19766e-01	3.42918e-02	3.29175e-02	9.95306e-03	2.68039e-06	1.45024e-02	5.05911e-06	5.72559e-06	1.60112e-06	8.38037e-02	6.11931e-08	6.30998e-08	9.23443e-02	2.74153e-02	6.11160e-08	6.32174e-08	5.83758e-02	1.68713e-02	1.67443e-02	5.10467e-03	6.19901e-08	7.18827e-03	X	X	X	X	X	X	X	X	X	X	X	X	X	X	X	X	



#DISTANCE SETTINGS
A = Detector Channel
A-1	A-2	A-3	A-4	A-5	A-6	A-7	A-8	A-9	A-10	A-11	A-12	A-13	A-14	A-15	A-16	

2.5000e+00	3.0000e+00	2.5000e+00	3.0000e+00	2.0000e+00	3.0000e+00	1.5000e+00	3.0000e+00	3.0000e+00	3.0000e+00	3.0000e+00	3.0000e+00	3.0000e+00	3.0000e+00	1.5000e+00	3.0000e+00	

B = Detector Channel
B-1	B-2	B-3	B-4	B-5	B-6	B-7	B-8	B-9	B-10	B-11	B-12	B-13	B-14	B-15	B-16	

1.0000e+01	1.0000e+01	1.0000e+01	1.4400e+00	1.0000e+01	1.0000e+01	1.5100e+00	1.9400e+00	1.0000e+01	1.0000e+01	1.9900e+00	2.4900e+00	2.4100e+00	2.9000e+00	1.0000e+01	2.9800e+00	




#DATA BEGINS
time	group	step	mark	flag	A-AC1	A-AC2	A-AC3	A-AC4	A-AC5	A-AC6	A-AC7	A-AC8	A-AC9	A-AC10	A-AC11	A-AC12	A-AC13	A-AC14	A-AC15	A-AC16	A-DC1	A-DC2	A-DC3	A-DC4	A-DC5	A-DC6	A-DC7	A-DC8	A-DC9	A-DC10	A-DC11	A-DC12	A-DC13	A-DC14	A-DC15	A-DC16	A-Ph1	A-Ph2	A-Ph3	A-Ph4	A-Ph5	A-Ph6	A-Ph7	A-Ph8	A-Ph9	A-Ph10	A-Ph11	A-Ph12	A-Ph13	A-Ph14	A-Ph15	A-Ph16	B-AC1	B-AC2	B-AC3	B-AC4	B-AC5	B-AC6	B-AC7	B-AC8	B-AC9	B-AC10	B-AC11	B-AC12	B-AC13	B-AC14	B-AC15	B-AC16	B-DC1	B-DC2	B-DC3	B-DC4	B-DC5	B-DC6	B-DC7	B-DC8	B-DC9	B-DC10	B-DC11	B-DC12	B-DC13	B-DC14	B-DC15	B-DC16	B-Ph1	B-Ph2	B-Ph3	B-Ph4	B-Ph5	B-Ph6	B-Ph7	B-Ph8	B-Ph9	B-Ph10	B-Ph11	B-Ph12	B-Ph13	B-Ph14	B-Ph15	B-Ph16	aux-1	digaux	

1146.623	1	1	0	512	0.053598	0.080057	0.012119	0.2535	0.16652	0.19168	0.35825	0.28793	0.16856	0.14659	0.21532	0.17666	0.23522	0.20998	0.029318	0.1452	-2.1833	-2.6583	-2.3646	-2.7729	-2.5833	-2.3708	-2.675	-2.5958	-2.5396	-2.5438	-2.1271	-2.9042	-2.7792	-2.1583	-2.7938	-2.7375	-0.142	158.913	154.229	177.850	51.277	30.387	151.405	-115.161	-54.469	-87.951	126.385	169.593	-81.204	186.456	10.818	170.081	0.0020962	0.00057181	0.00015394	567.9	8.5597e-06	6.2209e-06	798.98	234.02	1.0387e-05	6.4434e-06	353.27	199.34	112.38	59.862	9.3142e-06	109.07	0.00022191	5.3379e-05	1.5091e-05	564.65	6.1971e-07	5.9038e-07	797.46	234.44	6.7597e-07	5.6171e-07	351.83	199.59	112.11	60.582	6.766e-07	109.8	-9.303	-71.313	-65.332	-145.271	-12.385	-4.905	-146.108	-139.388	17.375	-12.074	-141.426	-137.506	-137.737	-132.536	-36.599	-134.664	-8191	255	
1146.744	1	1	0	0	0.34119	0.17746	0.18531	0.01684	0.17661	0.083246	0.042353	0.1869	0.14801	0.24011	0.091694	0.083669	0.17686	0.3126	0.16279	0.42386	-1.9375	-2.7021	-2.1625	-2.6604	-2.7625	-2.3417	-2.75	-2.5021	-2.5146	-2.8396	-2.3729	-2.6771	-2.6417	-2.425	-2.6417	-2.7583	182.145	-72.712	9.169	120.784	33.268	5.387	-106.862	138.897	-30.866	-40.164	80.816	23.026	159.831	-130.923	-13.251	143.586	0.0022165	0.00057416	0.00015156	568.74	1.0233e-05	6.1563e-06	802.81	234.83	9.5179e-06	6.2422e-06	352.94	199.53	112.95	59.898	9.6774e-06	109.66	0.00022929	5.3785e-05	1.6281e-05	565.48	6.3156e-07	5.8841e-07	799.31	234.5	7.0729e-07	5.6566e-07	352.6	200.02	112.43	60.663	7.4052e-07	110.6	-11.038	-70.861	-63.583	-145.263	-4.663	-12.038	-145.980	-139.533	20.080	-6.145	-141.857	-137.699	-137.745	-132.612	-33.353	-134.824	-8191	255	
1146.840	1	1	0	0	0.17979	0.31034	0.13355	0.083579	0.067551	0.2958	0.30229	0.16457	0.11244	0.35698	0.22442	0.26535	0.22336	0.22401	0.13506	0.37923	-1.8125	-2.7062	-2.5396	-2.5604	-2.4562	-2.3187	-2.8021	-2.3292	-2.3354	-2.6958	-2.3063	-2.6208	-2.7521	-2.3187	-2.5875	-2.7521	36.109	-8.502	-90.176	-75.241	68.375	59.852	190.133	141.548	50.089	181.050	-123.439	176.254	142.875	83.078	-42.637	77.852	0.0022193	0.00060369	0.00021449	571.37	9.0577e-06	6.1922e-06	809.02	235.97	9.8062e-06	7.2009e-06	359.2	202.99	114.63	60.393	8.1819e-06	111.04	0.0002295	5.3522e-05	1.5944e-05	567.16	6.5732e-07	5.7408e-07	802.89	236.33	7.0869e-07	5.6619e-07	356.57	202.89	113.84	61.363	7.187e-07	111.93	-11.210	-72.316	-69.562	-144.861	-11.296	-6.245	-145.793	-139.245	21.034	1.722	-141.233	-137.556	-137.220	-132.565	-24.721	-134.723	-8191	255	
1146.936	1	1	0	0	0.074289	0.21832	0.24363	0.13044	0.17767	0.17686	0.16397	0.075914	0.18395	0.10419	0.31625	0.08723	0.10705	0.22513	0.26213	0.27476	-1.8604	-2.6667	-2.3958	-2.2604	-2.7062	-2.3708	-2.5854	-2.6562	-2.4021	-2.7583	-2.5146	-2.8292	-2.8875	-2.2875	-2.6042	-2.8896	154.310	-68.091	48.954	125.462	87.168	41.348	-91.094	-123.279	-110.356	0.557	-109.213	69.856	151.040	-119.407	-85.822	110.272	0.0021678	0.00056851	0.00017464	569.12	8.371e-06	6.7887e-06	807.86	236.84	9.3675e-06	6.666e-06	358.17	202.06	113.46	60.325	6.6631e-06	109.83	0.00022861	5.5216e-05	1.5608e-05	568.61	6.271e-07	6.1272e-07	804.72	236.41	7.2626e-07	5.5934e-07	355.86	202.25	113.31	61.16	6.961e-07	110.72	-11.442	-71.935	-61.253	-145.645	-8.034	-10.212	-146.327	-139.677	23.634	0.224	-141.211	-137.336	-137.451	-132.342	-16.393	-134.219	-8191	255	
1147.032	1	1	0	0	0.12394	0.11441	0.11815	0.29872	0.41755	0.056405	0.11487	0.28674	0.10212	0.19199	0.053431	0.22154	0.25419	0.19567	0.023946	0.088648	-1.5938	-2.5646	-2.3563	-2.5021	-2.5563	-2.3333	-2.6688	-2.6521	-2.1354	-2.6292	-2.3708	-2.275	-2.8583	-2.2958	-2.4062	-2.9375	102.873	182.007	41.248	-114.769	-50.456	-147.111	179.201	183.048	121.504	143.918	194.125	159.596	-140.501	162.830	-73.310	-59.135	0.0021901	0.00057279	0.00017425	569.83	8.137e-06	7.3576e-06	804.06	234.72	9.5164e-06	6.5923e-06	355.07	200.63	113.78	60.337	9.4741e-06	109.67	0.00022819	5.6719e-05	1.5951e-05	566.32	6.206e-07	5.817e-07	799.74	234.96	7.0996e-07	5.5263e-07	353.9	201.31	113.28	60.997	7.2955e-07	110.61	-11.269	-73.097	-59.063	-145.087	-9.485	-19.656	-145.839	-139.284	20.288	-2.031	-141.259	-137.231	-137.459	-132.052	-30.207	-134.543	-8191	255	
1147.153	1	1	0	0	0.14024	0.10686	0.10956	0.145	0.23213	0.16055	0.041246	0.14162	0.22596	0.044127	0.173	0.26204	0.21602	0.038805	0.18212	0.12227	-1.7833	-2.6271	-2.6792	-2.2521	-2.6396	-2.3479	-2.6521	-2.7708	-2.1771	-2.6188	-2.5729	-2.1792	-2.9229	-2.5583	-2.25	-2.9854	83.780	44.647	-59.387	163.474	124.021	-1.793	-133.538	99.676	30.550	-142.564	87.861	135.087	159.438	35.682	74.833	192.189	0.0021763	0.00067024	0.00016924	566.6	8.7856e-06	7.6714e-06	799.09	235.39	1.0028e-05	5.3698e-06	355.87	202.12	114.11	60.347	8.5979e-06	110.13	0.00022874	5.5288e-05	1.4667e-05	565.39	6.0301e-07	5.9366e-07	800.14	235.57	7.1595e-07	5.492e-07	354.11	201.79	113.34	61.115	7.4298e-07	110.96	-11.666	-62.326	-61.458	-145.495	-7.242	-16.901	-145.916	-139.256	27.739	14.586	-140.882	-136.705	-136.989	-131.721	-24.528	-133.980	-8191	255	
1147.224	1	1	0	0	0.23349	0.069837	0.24708	0.21692	0.24491	0.22488	0.1398	0.14018	0.14301	0.40206	0.19858	0.31095	0.16958	0.32134	0.24374	0.35768	-1.9896	-2.5979	-2.5375	-2.325	-2.8458	-2.2812	-2.55	-2.8354	-2.2354	-2.7062	-2.7812	-2.1146	-2.85	-2.3542	-2.4354	-3.0021	-0.512	154.608	-63.426	127.085	15.536	9.602	-145.254	99.696	-77.932	-134.699	-35.232	-150.759	136.369	141.433	136.399	95.946	0.0022223	0.00061926	0.00017929	568.69	8.812e-06	7.0104e-06	806.72	236.29	1.136e-05	6.6396e-06	356.12	204.32	114.54	60.625	7.9955e-06	111.09	0.00023093	5.654e-05	1.5534e-05	567.73	6.3501e-07	6.4178e-07	803.32	236.03	7.3467e-07	5.8608e-07	355.73	203.12	114.05	61.255	7.4737e-07	111.67	-11.070	-69.574	-62.318	-145.008	-10.342	-13.604	-145.691	-138.864	26.487	1.844	-140.801	-136.883	-137.063	-131.849	-29.929	-133.993	-8191	255	
1147.343	1	1	0	0	0.12566	0.20018	0.30611	0.10506	0.11184	0.077707	0.072766	0.36631	0.21122	0.262	0.25082	0.33892	0.093756	0.097314	0.097629	0.4063	-1.9083	-2.7375	-2.4062	-2.2771	-2.8646	-2.5229	-2.4688	-2.925	-2.2771	-2.6792	-2.7792	-2.3104	-2.6208	-2.8021	-2.3708	-2.9667	171.739	-135.311	59.248	-129.564	-18.917	28.533	-78.146	117.612	47.366	36.955	166.430	-106.582	-83.320	-118.924	-137.748	135.785	0.0021813	0.00063783	0.00016721	571.85	8.6597e-06	6.1586e-06	810.1	236.27	1.0856e-05	6.4929e-06	358.58	203.56	114.75	60.894	1.0228e-05	110.91	0.00022898	5.5121e-05	1.5931e-05	567.55	6.2353e-07	5.6172e-07	805.89	236.39	7.2002e-07	5.8726e-07	357.32	203.55	114.09	61.497	7.6429e-07	111.72	-11.991	-79.177	-56.494	-144.642	-12.617	-15.960	-146.042	-139.251	22.183	-7.770	-141.087	-136.868	-136.548	-131.990	-34.005	-133.938	-8191	255	
1147.439	1	1	0	0	0.10027	0.3634	0.049813	0.30916	0.15618	0.041885	0.20949	0.1229	0.2982	0.18061	0.095659	0.12553	0.30784	0.27032	0.0086091	0.11228	-1.9417	-2.5333	-2.5958	-2.3083	-2.6604	-2.7062	-2.4042	-2.8333	-2.3771	-2.5083	-2.7229	-2.3396	-2.6	-2.6375	-2.25	-3.1813	83.925	-73.176	28.864	6.995	102.663	153.795	97.040	51.377	126.436	-129.657	186.738	-151.679	199.864	-144.726	105.035	89.835	0.0022174	0.00058018	0.00017221	569.78	9.0263e-06	5.3364e-06	807.93	236.98	1.0557e-05	5.5401e-06	355.75	202.29	114.64	60.266	1.032e-05	109.96	0.00023285	5.462e-05	1.4937e-05	566.02	6.3845e-07	5.6422e-07	802.64	236.22	6.8959e-07	5.6803e-07	354.93	202.34	113.85	61.089	7.5538e-07	110.71	-10.827	-70.201	-59.263	-144.812	-1.295	-23.061	-145.771	-138.839	21.438	-0.408	-140.920	-136.422	-136.959	-131.699	-30.152	-133.581	-8191	255	
1147.536	1	1	0	0	0.245	0.28839	0.079225	0.11765	0.25335	0.045639	0.18426	0.28347	0.094067	0.13599	0.079736	0.27303	0.13041	0.51261	0.062733	0.079185	-2.3167	-2.3271	-2.8063	-2.3208	-2.4583	-2.6208	-2.3396	-2.6875	-2.3063	-2.4354	-2.8771	-2.4562	-2.6458	-2.9313	-2.3563	-2.9646	15.475	-116.929	15.189	97.436	-72.680	32.267	94.741	132.579	72.045	3.672	-153.053	-119.343	146.653	197.854	53.904	-151.654	0.0021285	0.00063949	0.00017742	565.77	8.8819e-06	7.207e-06	803.57	234.97	9.4388e-06	7.1842e-06	356.31	201.92	114.43	60.158	7.8264e-06	110.04	0.00022518	5.8974e-05	1.5131e-05	563.62	6.5655e-07	5.516e-07	799.49	235.09	7.0513e-07	5.9293e-07	354.07	202.04	113.72	60.946	7.1844e-07	110.85	-11.712	-76.731	-58.145	-144.470	-13.877	-12.390	-145.492	-139.897	21.047	6.321	-141.893	-137.853	-137.667	-132.624	-39.282	-134.661	-8191	255	
1147.632	1	1	0	0	0.09776	0.073436	0.090677	0.32513	0.045391	0.076084	0.24876	0.11616	0.051889	0.051481	0.11952	0.16221	0.20142	0.27553	0.13932	0.071902	-2.3271	-2.4917	-2.9375	-2.3396	-2.5917	-3.0187	-2.3771	-2.5271	-2.7021	-2.4375	-2.9229	-2.3312	-2.6417	-2.9958	-2.1604	-2.8125	-154.511	89.658	-53.501	-147.228	-82.163	-25.497	-72.492	85.272	12.794	169.831	-125.601	20.382	193.596	169.434	152.720	-91.273	0.0022854	0.00065682	0.00018377	565.4	9.1636e-06	5.8693e-06	805.34	234.66	8.6557e-06	6.2213e-06	357.16	203.68	114.82	60.455	9.6491e-06	111.19	0.00023135	5.8162e-05	1.494e-05	563.33	6.3195e-07	5.5357e-07	799.51	235.7	7.0258e-07	5.8884e-07	356.32	203.7	114.38	61.414	7.3071e-07	112.09	-9.667	-68.791	-67.133	-145.078	-14.402	-17.182	-145.601	-139.367	29.250	-7.260	-140.941	-136.961	-137.393	-132.578	-23.980	-134.555	-8191	255	
1147.752	1	1	0	0	0.19885	0.14958	0.18868	0.16242	0.22392	0.11341	0.22209	0.058326	0.28657	0.18455	0.23789	0.10828	0.30583	0.115	0.13806	0.1468	-2.2271	-2.2542	-2.6979	-2.4542	-2.3833	-2.8187	-2.3646	-2.6896	-2.7062	-2.1521	-2.8604	-2.4688	-2.5917	-3.0604	-2.3771	-2.6188	37.585	98.785	196.147	194.045	84.772	-127.231	26.317	23.189	57.257	-94.340	155.341	87.382	194.760	100.928	-48.923	9.330	0.0023001	0.00065809	0.00015581	566.44	8.2677e-06	6.7955e-06	805.85	236.42	1.064e-05	6.4828e-06	359.5	204.74	115.78	61.073	9.5519e-06	112.22	0.00023165	5.6397e-05	1.5324e-05	564.36	6.5668e-07	5.6816e-07	802.83	236.24	6.9367e-07	6.2072e-07	358.15	205.02	114.98	61.837	7.2348e-07	113.13	-12.331	-77.008	-60.884	-145.366	-15.873	-10.443	-146.002	-139.293	19.327	11.501	-141.260	-137.120	-137.182	-132.426	-37.507	-134.336	-8191	255	
1147.824	1	1	0	0	0.15489	0.18693	0.13418	0.18198	0.043696	0.24704	0.1278	0.054016	0.24664	0.047153	0.14016	0.30147	0.12782	0.13835	0.15855	0.08045	-2.3625	-2.25	-2.5812	-2.4833	-2.4313	-2.7083	-2.5583	-2.6021	-2.6146	-2.1896	-2.6104	-2.6417	-2.3917	-2.6437	-2.3812	-2.6375	-20.788	3.447	77.564	-131.627	9.701	-122.629	-137.568	92.491	77.807	176.594	191.547	192.701	51.428	187.766	-37.787	-116.182	0.0022983	0.00065758	0.00016519	569.4	9.9037e-06	5.9717e-06	808.24	236.54	9.7664e-06	6.5182e-06	359.91	204.33	115.65	61.113	9.8977e-06	111.92	0.00023718	5.9749e-05	1.5024e-05	565.73	6.5132e-07	5.0835e-07	804.41	236.83	6.6973e-07	6.1321e-07	358.37	205.01	115.29	61.94	7.3523e-07	112.75	-9.914	-66.819	-58.821	-145.060	-5.930	-8.405	-145.891	-139.452	21.083	-4.476	-141.046	-137.072	-137.595	-132.168	-40.506	-134.248	-8191	255	
1147.920	1	1	0	0	0.18576	0.083494	0.12582	0.30923	0.080614	0.32661	0.19427	0.35116	0.075883	0.2515	0.038011	0.14785	0.23682	0.18626	0.18264	0.2677	-2.3417	-2.1083	-2.7667	-2.5875	-2.35	-2.7896	-2.6333	-2.4729	-2.7646	-2.2292	-2.5146	-2.7062	-2.4333	-2.85	-2.5604	-2.4708	-75.914	161.082	82.130	156.106	-89.869	68.383	136.966	133.728	-0.201	-0.942	86.260	149.428	127.123	201.079	-86.076	169.258	0.002195	0.00071558	0.00012584	568.51	9.8744e-06	7.2863e-06	802.87	235.64	9.6975e-06	6.0642e-06	359.37	204.26	116.63	61.267	1.0394e-05	111.23	0.00022877	5.8055e-05	1.4483e-05	564.78	6.7873e-07	5.5778e-07	798.91	236.67	6.7406e-07	5.974e-07	357.62	204.67	115.81	61.926	7.373e-07	112.17	-10.692	-68.609	-69.116	-145.145	-12.865	-8.493	-147.244	-140.881	18.398	-8.223	-141.537	-137.551	-137.576	-132.239	-30.424	-134.429	-8191	255	
1148.041	1	1	0	0	0.073729	0.068115	0.042946	0.18246	0.21948	0.15648	0.18392	0.33267	0.11084	0.20281	0.13885	0.20733	0.22765	0.30297	0.14085	0.24729	-2.2896	-2.2625	-2.5271	-2.5875	-2.3167	-2.8271	-2.4292	-2.4521	-2.8625	-2.2792	-2.5708	-2.5896	-2.3083	-2.6625	-2.7375	-2.4292	169.676	52.739	-108.836	121.914	-40.180	147.668	161.143	136.619	-20.729	55.919	75.087	186.816	89.927	127.286	-38.992	-154.832	0.0022527	0.00061997	0.00015966	567.63	9.951e-06	7.2225e-06	806.95	237.07	9.3293e-06	6.6647e-06	358.21	205.86	116.36	61.289	8.2377e-06	111.98	0.00022867	5.7304e-05	1.5307e-05	564.13	6.8804e-07	5.6882e-07	799.99	237.57	6.6858e-07	5.9095e-07	358.22	205.8	116.07	62.153	7.3071e-07	112.7	-10.967	-68.287	-61.274	-145.311	-15.506	-5.220	-146.017	-139.323	20.741	4.265	-141.074	-137.235	-137.503	-132.017	-25.646	-134.084	-8191	255	
1148.135	1	1	0	0	0.28105	0.21982	0.1069	0.097747	0.084856	0.057388	0.15362	0.20231	0.17554	0.09182	0.10856	0.30063	0.20333	0.18464	0.1607	0.12047	-2.4625	-2.5146	-2.4396	-2.5479	-2.3271	-2.775	-2.5021	-2.4292	-2.8021	-2.2687	-2.5563	-2.7583	-2.1604	-2.75	-2.4375	-2.7708	-7.404	-0.995	139.309	-128.674	-130.721	166.969	100.155	-52.347	39.871	90.265	136.670	112.838	132.373	137.568	-51.045	117.209	0.0022566	0.00061232	0.00019235	570.12	5.5899e-06	7.2935e-06	804.92	238.1	1.1059e-05	5.5979e-06	360.74	206.17	116.72	61.35	1.069e-05	112.18	0.00022984	5.5288e-05	1.5888e-05	565.35	6.4151e-07	5.6395e-07	801.46	238.1	6.6667e-07	5.787e-07	359.61	206.36	116.2	62.23	7.4982e-07	112.91	-11.612	-80.147	-60.545	-144.946	-6.096	-13.728	-146.434	-140.002	20.494	0.978	-141.808	-137.569	-137.832	-132.555	-31.168	-134.402	-8191	255	
1148.231	1	1	0	0	0.14018	0.21563	0.32317	0.12889	0.19773	0.12653	0.097313	0.2719	0.24728	0.074216	0.22304	0.27055	0.16681	0.30421	0.21482	0.17644	-2.2125	-2.1479	-2.4167	-2.7479	-2.2771	-2.6292	-2.8708	-2.4583	-2.6521	-2.3667	-2.45	-2.6479	-2.4167	-2.7625	-2.5542	-2.3604	124.864	-14.979	69.330	158.156	79.929	81.617	104.932	178.348	-16.436	-124.619	-156.079	187.786	110.626	159.186	155.763	157.688	0.0022302	0.00062315	0.00018336	571	6.581e-06	5.8831e-06	804.23	239.09	1.1081e-05	6.6062e-06	362.03	207.7	117.01	61.597	8.1921e-06	112.6	0.00022745	5.7685e-05	1.5257e-05	566.22	6.2812e-07	5.6961e-07	803.92	238.93	7.2002e-07	5.679e-07	360.43	207.72	116.43	62.294	7.227e-07	113.22	-12.099	-68.016	-51.796	-145.228	-4.947	-11.481	-146.271	-139.517	19.604	-5.708	-141.266	-137.393	-137.593	-132.412	-26.269	-134.480	-8191	255	
1148.327	1	1	0	0	0.18671	0.23711	0.33812	0.238	0.12732	0.21347	0.14829	0.21311	0.14924	0.25221	0.25715	0.06327	0.20954	0.47611	0.037643	0.30128	-2.4479	-2.5958	-2.3229	-2.8771	-2.0542	-2.55	-2.7958	-2.1437	-2.6083	-2.5271	-2.3417	-2.75	-2.3854	-2.4646	-2.8063	-2.4708	150.071	6.543	-1.231	-152.351	136.926	-45.683	-22.749	183.543	34.136	92.566	-107.526	165.093	115.059	157.209	202.406	147.438	0.0022453	0.00048647	0.00019713	563.84	7.2033e-06	5.1429e-06	803.28	237.16	1.1535e-05	6.5822e-06	358.93	204.06	116.06	60.886	9.7723e-06	110.15	0.0002288	5.7745e-05	1.5941e-05	563.99	6.5808e-07	5.6671e-07	800.41	237.25	6.8246e-07	5.55e-07	357.42	204.28	115.36	61.532	6.8964e-07	111.16	-11.594	-78.475	-58.920	-145.305	-14.398	-21.803	-145.874	-139.467	27.833	-7.743	-141.279	-137.386	-137.411	-132.323	-33.459	-134.379	-8191	255	
1148.424	1	1	0	0	0.37819	0.20046	0.19362	0.23412	0.20992	0.064719	0.15731	0.13238	0.16752	0.17444	0.20444	0.14691	0.20446	0.21571	0.54135	0.11825	-2.075	-2.5438	-2.2542	-2.7562	-2.3063	-2.4375	-2.7271	-2.2021	-2.5792	-2.3708	-2.3521	-2.9	-2.3042	-2.5021	-2.4417	-2.2458	-128.523	-23.506	185.998	187.894	-48.697	-44.865	64.854	62.521	28.570	53.748	176.843	64.273	-14.163	172.907	-76.605	144.527	0.002183	0.00063724	0.0001911	560.75	8.7664e-06	6.629e-06	797.69	234.39	1.172e-05	7.307e-06	354.43	203.32	114.79	60.63	8.7602e-06	110.21	0.00022406	5.4667e-05	1.5744e-05	560.71	6.2863e-07	5.6934e-07	796.21	235.77	7.0564e-07	5.6975e-07	355.4	203.52	114.66	61.291	6.713e-07	111.05	-11.151	-70.738	-64.211	-144.936	-17.665	-13.140	-146.016	-139.886	26.879	-8.544	-141.603	-137.424	-137.490	-132.386	-29.887	-134.661	-8191	255	
1148.520	1	1	0	0	0.1414	0.054973	0.17004	0.10947	0.087622	0.053085	0.28501	0.1777	0.063157	0.18558	0.10731	0.15301	0.37189	0.17761	0.16124	0.32005	-2.2604	-2.5875	-2.4375	-2.7021	-2.5563	-2.3042	-2.7646	-2.3083	-2.3604	-2.6521	-2.1521	-2.7042	-2.4292	-2.5146	-2.7271	-2.3	-138.557	-116.458	-51.248	168.174	193.583	125.357	118.892	157.985	-77.538	62.199	202.269	-127.771	178.653	167.217	118.864	159.343	0.0022065	0.00064195	0.00015765	564.44	7.4742e-06	5.7812e-06	797.47	234.41	1.1382e-05	6.7482e-06	355.45	203.56	114.12	60.185	8.5649e-06	110.09	0.00023054	5.7948e-05	1.453e-05	561.84	6.0645e-07	5.4765e-07	795.98	235.01	6.8717e-07	5.9161e-07	354.94	203.47	113.72	61.04	6.9274e-07	110.94	-11.089	-69.067	-62.637	-144.929	-5.021	-21.367	-146.322	-139.692	19.305	-0.332	-141.400	-137.377	-137.847	-132.471	-40.627	-134.549	-8191	255	
1148.616	1	1	0	0	0.11193	0.063959	0.16241	0.24291	0.26347	0.2333	0.21394	0.17917	0.25645	0.055463	0.13081	0.15566	0.091815	0.18934	0.079602	0.34333	-2.2542	-2.5583	-2.1312	-2.7917	-2.1896	-2.4604	-2.9167	-2.3438	-2.475	-2.7562	-2.2604	-2.9604	-2.5604	-2.2708	-2.8229	-2.4083	32.293	10.876	42.751	157.405	66.640	-102.963	90.253	-18.379	113.928	182.300	155.195	169.838	164.617	-143.097	201.434	70.890	0.0022022	0.00063323	0.00017377	563.61	9.9994e-06	6.6752e-06	799.67	234.44	9.4346e-06	6.6502e-06	355.8	204.08	114.31	60.309	9.6438e-06	110.51	0.00022818	5.2854e-05	1.5521e-05	561.54	6.5681e-07	5.9209e-07	797.48	235.22	6.7877e-07	5.3629e-07	355.81	203.83	113.99	61.077	6.8719e-07	111.38	-12.178	-70.851	-72.250	-145.098	-19.967	-3.067	-145.701	-139.382	23.248	-8.510	-140.958	-137.173	-137.171	-132.161	-33.125	-134.193	-8191	255	
1148.712	1	1	0	0	0.14562	0.23651	0.34325	0.25523	0.53501	0.060552	0.32239	0.10595	0.15478	0.0812	0.17076	0.20077	0.11517	0.27516	0.092766	0.16737	-1.9375	-2.6813	-2.1208	-2.6208	-2.4375	-2.2687	-2.8104	-2.5646	-2.5021	-2.8854	-2.1417	-2.5854	-2.7229	-2.3375	-2.6417	-2.6688	-102.081	173.452	176.323	-120.592	63.299	136.867	142.499	67.503	-126.411	167.630	-8.455	-137.955	-1.201	-119.942	1.246	176.143	0.0021776	0.00053044	0.00017439	561.25	8.2328e-06	7.9844e-06	802.27	234.81	9.8829e-06	6.9105e-06	356.7	203.75	114.65	60.321	8.9998e-06	109.4	0.00022994	5.2162e-05	1.5077e-05	561.39	6.5043e-07	6.0011e-07	797.96	235.11	7.092e-07	5.5039e-07	355.68	203.38	114.26	60.981	7.0281e-07	110.59	-11.780	-63.623	-60.308	-145.511	-18.692	-8.339	-145.924	-139.454	12.866	5.360	-141.763	-137.373	-137.304	-132.472	-41.721	-134.250	-8191	255	
1148.831	1	1	0	0	0.33836	0.046544	0.032645	0.036687	0.17889	0.2493	0.47386	0.047923	0.1084	0.12159	0.34119	0.16102	0.16709	0.20412	0.17586	0.12883	-1.9396	-2.5458	-2.0792	-2.625	-2.4458	-2.3375	-2.8542	-2.3729	-2.3083	-2.6146	-2.2792	-2.6917	-2.5917	-2.4625	-2.6979	-2.6167	188.118	141.492	-43.790	183.610	-81.629	29.976	137.791	194.054	-113.419	50.349	-95.841	189.974	126.150	160.299	-42.763	135.466	0.0022085	0.00066399	0.00020129	561.59	9.6433e-06	7.4289e-06	799.92	234.9	8.978e-06	5.0334e-06	355.1	202.58	114.51	60.483	8.5251e-06	110.01	0.00022708	5.1972e-05	1.5414e-05	560.43	6.2914e-07	5.8906e-07	794.34	234.8	6.6018e-07	5.3155e-07	354.23	202.67	114.33	60.962	7.196e-07	110.43	-10.496	-69.313	-57.059	-145.030	-13.301	-4.404	-145.933	-139.148	24.841	-8.717	-140.909	-137.033	-137.498	-132.221	-35.831	-134.273	-8191	255	
1148.927	1	1	0	0	0.10543	0.22499	0.16148	0.095349	0.13621	0.041839	0.16235	0.094847	0.17568	0.16658	0.14682	0.1772	0.13431	0.36952	0.095063	0.42538	-1.9604	-2.6271	-2.2896	-2.5958	-2.5396	-2.3667	-2.8125	-2.5021	-2.4521	-2.7417	-2.5375	-2.6292	-2.6708	-2.3125	-2.6271	-2.6875	-67.595	20.170	63.673	-100.344	-60.438	-14.978	-133.864	174.702	147.622	131.264	123.637	-0.041	70.067	155.990	-151.931	139.606	0.0021458	0.00069215	0.00017961	563.75	7.6424e-06	5.2091e-06	798.92	234.31	1.1039e-05	7.095e-06	356.82	202.77	114.86	60.138	9.9492e-06	109.9	0.00022478	5.5168e-05	1.5758e-05	560.06	6.4176e-07	5.8749e-07	796.02	234.59	7.0971e-07	5.276e-07	354.85	202.93	114.22	60.909	7.227e-07	110.63	-12.345	-79.517	-65.941	-144.673	-11.237	-17.663	-145.581	-139.054	20.178	0.999	-141.380	-137.383	-137.366	-132.153	-26.470	-133.918	-8191	255	
1149.023	1	1	0	0	0.19796	0.2418	0.24393	0.060063	0.22795	0.20089	0.1195	0.1294	0.18656	0.33155	0.18575	0.16324	0.14766	0.35742	0.12161	0.47434	-1.725	-2.8688	-2.5958	-2.3229	-2.7479	-2.2042	-2.6917	-2.7979	-2.2104	-2.5729	-2.5521	-2.3958	-2.6646	-2.3	-2.4625	-2.7479	185.033	174.382	107.572	130.618	-156.066	122.658	153.053	156.731	44.867	14.859	117.718	-26.232	153.864	191.063	-7.223	134.893	0.0021812	0.00067395	0.00021191	564.3	6.3525e-06	6.8186e-06	800.03	235.84	1.1237e-05	6.4165e-06	356.7	204.49	115.47	60.593	1.1742e-05	110.7	0.00022763	5.45e-05	1.5414e-05	561.04	6.1257e-07	5.9182e-07	796.68	235.78	6.7813e-07	5.3116e-07	356.32	204.62	115.06	61.351	7.3148e-07	111.34	-11.364	-61.550	-67.897	-144.808	-11.276	-18.156	-145.666	-138.871	22.293	9.978	-140.642	-136.801	-136.981	-131.729	-34.398	-133.979	-8191	255	
1149.119	1	1	0	0	0.17738	0.064402	0.27723	0.13943	0.20073	0.06329	0.2787	0.14348	0.14231	0.094381	0.089419	0.2312	0.29859	0.19442	0.097566	0.063193	-1.8375	-2.7458	-2.3333	-2.4104	-2.8979	-2.3375	-2.4313	-2.6229	-2.3542	-2.6937	-2.4958	-2.5083	-2.6104	-2.2938	-2.5479	-2.8354	-41.792	-1.424	-35.769	160.459	-76.655	57.492	-38.658	-148.305	115.771	-74.779	43.690	-146.764	136.253	85.424	14.285	-100.005	0.0022087	0.00053768	0.00015815	566.53	9.1091e-06	5.7233e-06	804.99	235.22	1.0756e-05	7.2847e-06	360.34	204.99	115.86	60.596	9.6809e-06	110.44	0.00022833	5.4214e-05	1.6228e-05	562.97	6.2175e-07	6.1141e-07	800.13	236.26	7.0207e-07	5.625e-07	359	205.27	115.4	61.505	7.3226e-07	111.55	-11.097	-69.689	-62.967	-144.834	-22.214	-27.354	-145.676	-138.921	30.785	0.767	-141.010	-136.946	-137.243	-132.028	-27.060	-134.445	-8191	255	
1149.216	1	1	0	0	0.15921	0.15814	0.14229	0.17085	0.24917	0.073439	0.023582	0.089396	0.22328	0.15679	0.071251	0.050948	0.10981	0.23567	0.13378	0.45703	-1.8	-2.5	-2.6562	-2.1271	-2.7146	-2.2896	-2.4437	-2.8479	-1.9792	-2.8063	-2.4313	-2.2979	-2.9375	-2.3875	-2.4083	-2.8021	99.014	125.156	-97.617	-111.805	-5.468	-70.270	32.824	162.382	188.860	-25.264	128.432	181.877	22.353	-129.044	-17.982	117.438	0.0022666	0.00062055	0.00013957	566.05	7.4323e-06	6.3186e-06	799.04	235.44	8.9539e-06	7.2379e-06	357.93	204.38	115.78	60.708	7.5978e-06	110.31	0.00023499	5.4393e-05	1.5214e-05	561.99	6.3182e-07	5.7644e-07	796.63	235.64	7.0665e-07	5.6659e-07	356.27	204.37	115.35	61.464	7.3691e-07	111.08	-12.001	-76.206	-69.921	-144.835	-6.509	-11.013	-145.705	-138.790	21.605	2.885	-141.206	-137.056	-137.242	-132.300	-25.719	-134.195	-8191	255	
1149.312	1	1	0	0	0.22585	0.19807	0.26058	0.10904	0.093355	0.083246	0.33014	0.3039	0.0082584	0.30805	0.26925	0.2001	0.22326	0.32257	0.12222	0.14574	-2.0146	-2.3958	-2.5687	-2.2396	-2.4979	-2.3438	-2.3542	-2.9229	-2.3146	-2.6396	-2.5167	-2.2708	-2.6729	-2.5854	-2.2354	-2.8833	33.284	123.092	109.151	161.097	6.710	82.321	119.014	135.015	117.016	-124.829	114.874	104.153	163.713	129.798	59.226	176.179	0.0021815	0.00062784	0.00018091	564.67	7.2599e-06	7.4824e-06	800.18	236.28	9.25e-06	6.518e-06	358.58	205.1	116.03	60.706	9.7005e-06	110.61	0.0002306	5.9296e-05	1.5164e-05	561.35	6.2723e-07	5.8407e-07	796.77	236.39	7.1875e-07	5.8094e-07	357.2	204.66	115.51	61.558	7.3742e-07	111.39	-11.584	-81.043	-62.309	-144.852	-13.483	-9.036	-145.617	-139.044	26.574	-6.868	-140.966	-137.202	-137.341	-132.223	-39.329	-134.267	-8191	255	
1149.432	1	1	0	0	0.35388	0.11768	0.1168	0.3582	0.087161	0.18841	0.19313	0.19344	0.081458	0.076278	0.29001	0.22494	0.14154	0.21621	0.16399	0.39753	-1.8771	-2.4354	-2.5583	-2.2292	-2.5708	-2.5167	-2.4292	-2.8542	-2.1125	-2.3771	-2.7208	-2.2792	-2.8	-2.5958	-2.2812	-2.7833	57.646	63.126	93.720	174.718	-148.631	157.117	88.796	-142.926	146.027	-6.261	-153.011	-155.770	201.275	84.319	26.171	-150.837	0.0022654	0.00070931	0.00016794	563.99	7.4134e-06	7.2713e-06	803.09	236.91	9.6127e-06	5.4038e-06	357.92	204.96	115.52	60.842	9.1036e-06	110.68	0.00023452	5.6158e-05	1.4447e-05	562.51	6.1129e-07	5.679e-07	798.65	237.14	6.7444e-07	5.5934e-07	357.81	205.11	115.48	61.537	7.4659e-07	111.63	-11.716	-68.337	-53.228	-144.875	-3.870	-3.238	-145.820	-139.004	8.467	4.053	-141.166	-137.504	-137.444	-132.174	-42.371	-134.226	-8191	255	
1149.527	1	1	0	0	0.22036	0.11275	0.064246	0.12346	0.14476	0.038339	0.1874	0.29314	0.16164	0.19221	0.16074	0.11767	0.093102	0.22219	0.064822	0.21039	-1.8271	-2.3312	-2.7979	-2.1958	-2.4708	-2.6708	-2.2729	-2.6937	-2.3396	-2.3708	-2.7354	-2.1625	-2.6813	-2.4208	-2.3854	-2.7854	149.849	57.536	109.873	-118.728	-72.965	-14.138	-144.532	197.193	35.611	99.244	-132.981	-105.922	-137.929	57.768	-112.590	148.747	0.0021676	0.00060525	0.00014656	567.18	7.0169e-06	6.6966e-06	804.75	235.13	8.3086e-06	6.1466e-06	359.19	205.46	115.91	60.413	9.6307e-06	111.19	0.00022466	5.4775e-05	1.471e-05	563.74	6.0517e-07	5.6435e-07	800.87	236.16	7.0856e-07	5.9582e-07	358.43	205.39	115.32	61.235	7.4169e-07	112.08	-11.855	-58.573	-59.599	-144.827	0.935	-2.128	-145.527	-139.049	27.171	-1.585	-140.949	-137.110	-137.200	-131.856	-30.844	-133.684	-8191	255	
1149.623	1	1	0	0	0.29909	0.15987	0.23708	0.14067	0.22679	0.13849	0.065516	0.26525	0.057103	0.052657	0.084748	0.045411	0.12517	0.19893	0.042341	0.30983	-2.0667	-2.3312	-2.675	-2.3104	-2.5	-2.5812	-2.2521	-2.8396	-2.3625	-2.1625	-2.6979	-2.2396	-2.6125	-2.825	-2.1167	-2.7938	-94.653	124.260	181.433	-109.603	28.803	20.256	12.315	192.646	1.555	91.310	78.711	179.978	-95.570	181.241	-50.057	156.247	0.0021482	0.00072502	0.00018635	562.8	8.5134e-06	6.1443e-06	800.87	235.98	9.1173e-06	6.9132e-06	355.9	202.64	114.73	60.225	7.6554e-06	110.13	0.0002313	5.8604e-05	1.4734e-05	561.39	6.5362e-07	5.6619e-07	799.27	235.17	6.8781e-07	5.845e-07	355.32	203.19	114.05	60.782	7.2968e-07	110.88	-11.023	-72.221	-55.856	-144.715	-8.393	-8.155	-145.117	-138.841	13.110	6.951	-140.266	-136.546	-137.162	-132.193	-40.586	-133.731	-8191	255	
1149.696	1	1	0	0	0.19342	0.18565	0.15764	0.17661	0.17594	0.16119	0.049076	0.073448	0.20147	0.063628	0.13034	0.15867	0.20709	0.28651	0.24124	0.069921	-2.075	-2.2188	-2.8542	-2.1771	-2.3125	-2.5479	-2.1937	-2.8271	-2.3479	-2.2521	-2.8958	-2.4771	-2.5354	-2.9813	-2.1646	-2.7292	160.471	-144.597	123.995	202.416	-45.113	131.104	186.740	158.076	128.756	-156.436	114.400	-154.408	189.453	-139.360	-23.727	-135.407	0.00215	0.00054571	0.00019975	561.95	7.8731e-06	5.8997e-06	798.73	232.03	9.2784e-06	6.693e-06	354.31	202.14	113.63	59.581	1.0514e-05	109.3	0.00022449	5.2055e-05	1.5724e-05	560.27	5.9791e-07	5.3885e-07	796.31	232.75	6.9061e-07	5.8502e-07	353.01	201.66	113.21	60.175	7.4556e-07	110.03	-11.506	-65.971	-58.597	-144.851	-17.723	-28.524	-145.722	-138.938	21.044	6.501	-141.019	-136.890	-136.918	-131.965	-40.309	-134.072	-8191	255	
1149.815	1	1	0	0	0.081508	0.13407	0.17353	0.19513	0.16382	0.072673	0.28372	0.057872	0.26495	0.081504	0.15326	0.47397	0.12295	0.23637	0.14946	0.21801	-2.2583	-2.075	-2.7708	-2.2562	-2.2687	-2.8604	-2.2875	-2.5771	-2.7583	-2.2687	-2.6125	-2.5563	-2.3	-2.7083	-2.4479	-2.6979	73.742	-4.100	109.445	197.954	-11.349	-63.843	171.661	165.328	-2.496	-68.668	166.972	133.337	-97.929	174.519	197.626	171.648	0.0021528	0.00063819	0.00016085	562.81	8.4347e-06	6.6336e-06	796.57	232.86	8.5004e-06	6.5296e-06	353.86	202.29	114.03	59.467	9.4915e-06	109.79	0.00022102	5.6266e-05	1.463e-05	559	6.0823e-07	5.6579e-07	794.64	232.81	6.3904e-07	5.8516e-07	353.01	202.09	113.31	60.248	6.9881e-07	110.23	-11.940	-60.711	-66.003	-145.081	-13.592	-4.984	-145.534	-138.964	20.165	-8.213	-140.614	-136.663	-137.185	-131.784	-27.082	-133.764	-8191	255	
1149.911	1	1	0	0	0.24377	0.11811	0.13841	0.2211	0.17652	0.11261	0.43665	0.19343	0.064913	0.20581	0.065421	0.10365	0.018559	0.1705	0.15031	0.044138	-2.0396	-2.0938	-2.7125	-2.6375	-2.1958	-2.8187	-2.15	-2.6	-2.6125	-2.1208	-2.5604	-2.3979	-2.3563	-2.9313	-2.4562	-2.5563	-32.607	109.759	-14.481	-139.553	1.889	-119.385	77.624	-137.663	33.887	18.464	66.514	83.464	-114.293	-136.924	-7.683	1.106	0.0022394	0.00052251	0.00017777	562.7	9.5807e-06	5.9011e-06	803.24	232.6	1.0186e-05	4.9387e-06	355.25	201.94	113.97	59.709	8.2314e-06	109.76	0.00022771	5.6481e-05	1.4834e-05	559.22	6.3386e-07	5.1479e-07	797.7	233.13	6.4859e-07	5.4709e-07	354.31	202.31	113.36	60.395	6.9377e-07	110.72	-12.156	-69.986	-58.787	-144.684	-12.954	-9.381	-145.681	-138.832	16.930	3.663	-140.386	-136.739	-137.402	-132.069	-20.246	-134.049	-8191	255	
1150.008	1	1	0	0	0.043213	0.29737	0.16363	0.2093	0.26026	0.20144	0.2134	0.11388	0.25589	0.2237	0.16282	0.4288	0.25933	0.18501	0.072797	0.17415	-2.3333	-2.3438	-2.3604	-2.6208	-2.2917	-2.8542	-2.4437	-2.3917	-2.7	-2.375	-2.6437	-2.6	-2.2562	-2.8792	-2.4188	-2.425	-140.858	-105.862	99.896	163.206	43.546	77.256	-40.642	-120.457	-145.369	73.332	199.247	161.623	120.997	202.875	-13.372	200.336	0.0021901	0.00057129	0.00017087	560.84	9.2521e-06	5.7362e-06	803.25	233.44	1.1426e-05	6.6006e-06	354.12	202.17	113.34	59.721	8.1385e-06	109.27	0.00022762	5.4262e-05	1.469e-05	558.98	6.2991e-07	5.0992e-07	799.55	232.87	6.4325e-07	5.7014e-07	354.29	202.36	112.94	60.297	6.7995e-07	110.21	-11.165	-61.271	-62.673	-144.662	-3.719	-28.658	-145.521	-138.856	22.877	-0.019	-141.018	-136.948	-137.291	-131.977	-37.602	-133.985	-8191	255	
1150.104	1	1	0	0	0.26963	0.027932	0.28273	0.072703	0.32602	0.24566	0.059187	0.20952	0.05816	0.23657	0.13246	0.29863	0.05448	0.25728	0.134	0.032208	-2.2104	-2.2917	-2.5708	-2.6	-2.0917	-2.6646	-2.5292	-2.3646	-2.6146	-2.3417	-2.7604	-2.6021	-2.1271	-2.7812	-2.4542	-2.5917	174.790	138.088	163.880	-18.112	189.458	125.793	156.265	176.747	128.730	-70.584	-34.500	137.780	152.761	1.555	-122.465	-73.812	0.0021873	0.00065398	0.00019907	557.51	8.9007e-06	6.8425e-06	799.53	231.94	9.7714e-06	5.7171e-06	352.77	200.82	113.15	59.154	8.8966e-06	108.85	0.00022315	5.5991e-05	1.5124e-05	556.82	6.4648e-07	5.587e-07	794.34	231.89	6.5993e-07	5.6619e-07	352.42	200.63	112.65	59.857	7.2167e-07	109.46	-11.567	-58.700	-63.884	-144.777	-8.007	-9.423	-145.904	-139.252	16.922	1.294	-141.046	-137.093	-137.041	-132.121	-26.457	-133.951	-8191	255	
1150.224	1	1	0	0	0.23709	0.08059	0.1139	0.065224	0.17839	0.25703	0.15122	0.19237	0.3906	0.12934	0.043426	0.14913	0.38152	0.16872	0.10506	0.23611	-2.3167	-2.2625	-2.5687	-2.6229	-2.3104	-2.825	-2.5396	-2.3875	-2.825	-2.1167	-2.6271	-2.7667	-2.2354	-2.7687	-2.6333	-2.2875	23.976	147.051	-137.035	79.058	-95.578	51.591	-93.688	-128.534	-77.192	175.097	182.742	43.953	168.537	-88.827	150.704	162.572	0.0021771	0.00062823	0.00017226	557.87	8.4814e-06	7.0956e-06	797.54	230.87	1.155e-05	5.8294e-06	354.64	200.88	112.75	58.991	8.2503e-06	108.76	0.00022452	5.66e-05	1.5648e-05	556.14	6.4495e-07	5.4897e-07	791.71	231.5	6.7851e-07	5.8423e-07	351.49	200.78	112.55	59.761	6.7789e-07	109.55	-11.464	-70.735	-65.480	-144.948	-5.628	-14.738	-145.783	-139.116	26.192	-5.948	-140.756	-137.005	-137.144	-131.852	-39.084	-134.053	-8191	255	
1150.320	1	1	0	0	0.16716	0.13809	0.16259	0.31108	0.16366	0.14226	0.039606	0.18325	0.12717	0.31538	0.12315	0.12085	0.13864	0.22425	0.19469	0.27628	-2.5146	-2.3312	-2.4271	-2.8271	-2.1646	-2.525	-2.7687	-2.2896	-2.7062	-2.425	-2.3625	-2.7896	-2.3542	-2.4854	-2.5167	-2.3438	146.959	-92.354	26.872	197.539	-128.278	39.111	39.570	138.102	-151.841	135.030	50.734	97.254	138.696	-118.329	90.960	183.139	0.0021824	0.00063698	0.00014982	558.05	9.1782e-06	7.3274e-06	797.72	230.6	9.1522e-06	5.9466e-06	352.08	200.81	113.29	59.35	1.074e-05	108.73	0.00022351	5.3093e-05	1.5231e-05	556.03	6.3284e-07	5.7855e-07	793.86	231.1	6.3128e-07	5.6856e-07	351.72	200.92	112.35	59.844	6.9636e-07	109.62	-10.740	-74.789	-63.423	-145.096	-12.576	-9.580	-146.051	-139.269	22.288	3.716	-140.997	-137.216	-137.322	-132.121	-32.765	-134.215	-8191	255	
1150.392	1	1	0	0	0.13169	0.07622	0.098354	0.1932	0.065009	0.11634	0.30227	0.09925	0.25396	0.14121	0.22705	0.20203	0.37699	0.25069	0.15083	0.31096	-2.125	-2.3792	-2.2167	-2.7667	-2.2167	-2.3479	-2.6667	-2.1625	-2.5646	-2.4021	-2.3104	-2.8729	-2.3979	-2.2854	-2.5917	-2.3292	-36.880	-46.271	172.735	178.848	-104.551	-146.103	105.062	-105.467	133.861	-43.011	65.532	194.539	184.581	135.252	168.223	150.176	0.0022224	0.00061084	0.0001933	561.82	9.0678e-06	6.9378e-06	794.76	230.56	1.0287e-05	6.149e-06	353.62	202.17	113.29	59.216	8.9704e-06	109.19	0.0002299	5.2318e-05	1.5534e-05	556.91	6.6089e-07	5.4713e-07	793.84	231.01	6.8208e-07	5.5908e-07	352.54	201.77	112.52	59.842	6.5051e-07	109.76	-10.113	-70.989	-51.810	-145.327	-10.694	-13.815	-145.855	-139.288	25.305	2.969	-141.148	-136.835	-137.342	-132.017	-32.943	-134.032	-8191	255	
1150.513	1	1	0	0	0.37102	0.35259	0.10101	0.30167	0.029884	0.138	0.17569	0.20497	0.086852	0.112	0.15901	0.2234	0.16762	0.16541	0.082212	0.075557	-2.1437	-2.5292	-2.1333	-2.7438	-2.3354	-2.5062	-2.6104	-2.1063	-2.7938	-2.4479	-2.2396	-3.0604	-2.4479	-2.5083	-2.7417	-2.3833	19.688	146.896	63.548	194.043	109.936	147.635	106.801	128.273	-37.420	176.895	136.306	190.792	-87.112	163.955	-125.873	142.559	0.0021774	0.00058097	0.00017371	556.97	9.1468e-06	7.2511e-06	794.34	230	1.0678e-05	6.4984e-06	350.22	199.65	111.7	58.734	9.2881e-06	107.69	0.00022472	5.425e-05	1.5094e-05	554.43	6.3552e-07	5.5278e-07	791.54	230.22	7.0704e-07	5.5065e-07	349.63	199.66	111.57	59.363	6.7556e-07	108.48	-10.639	-75.915	-51.784	-145.271	-12.559	-10.828	-145.994	-139.299	17.518	-2.775	-141.090	-137.066	-137.434	-132.203	-12.024	-134.088	-8191	255	
1150.609	1	1	0	0	0.081095	0.075314	0.31898	0.084639	0.20743	0.19857	0.054365	0.21719	0.022167	0.11645	0.11442	0.10052	0.056723	0.20594	0.1731	0.11561	-2.1458	-2.6813	-1.9208	-2.8083	-2.5646	-2.3146	-2.675	-2.45	-2.5333	-2.5271	-2.3021	-2.9604	-2.325	-2.5667	-2.7479	-2.3937	141.470	131.902	-57.095	-80.954	-79.377	82.524	120.754	116.539	17.787	-74.050	184.867	185.616	130.305	89.760	-11.149	-127.670	0.002121	0.00056065	0.00016146	554.82	8.3127e-06	5.6963e-06	788.43	229.8	8.95e-06	5.9859e-06	352.58	199.06	111.48	58.51	9.0362e-06	107.7	0.00022462	5.4703e-05	1.4937e-05	552.84	6.2047e-07	5.4463e-07	787.77	229.9	6.5903e-07	5.5934e-07	349.4	199.36	111.06	59.161	6.8383e-07	108.43	-10.534	-70.415	-62.012	-144.911	-9.844	-18.269	-146.049	-139.262	30.870	-4.031	-140.717	-137.146	-137.062	-132.053	-20.659	-134.240	-8191	255	
1150.705	1	1	0	0	0.16916	0.062275	0.18465	0.16076	0.2467	0.066542	0.17325	0.091569	0.086798	0.15002	0.3374	0.076451	0.03683	0.38773	0.082217	0.42333	-2.1229	-2.4417	-2.0958	-2.8708	-2.4625	-2.2833	-2.8396	-2.2521	-2.5958	-2.525	-2.3354	-2.7646	-2.2521	-2.5375	-2.6375	-2.3271	-36.392	138.302	77.850	116.744	143.414	185.473	-48.043	56.167	172.376	172.177	-103.712	162.602	8.379	79.008	14.768	181.292	0.0021434	0.00058804	0.00014642	555.59	8.2384e-06	6.3699e-06	791.24	229.35	8.9556e-06	6.8354e-06	348.92	199.14	111.66	58.475	1.022e-05	107.75	0.00022105	5.1017e-05	1.4277e-05	554.14	6.1002e-07	5.2531e-07	788.76	229.51	6.5903e-07	5.4946e-07	349.33	199.28	111.28	59.182	7.0837e-07	108.69	-11.722	-60.864	-63.152	-145.134	-16.348	-22.935	-145.890	-139.368	25.779	5.672	-140.992	-137.022	-137.323	-132.138	-35.162	-134.185	-8191	255	
1150.824	1	1	0	0	0.17618	0.24336	0.041984	0.32726	0.097922	0.31165	0.30046	0.13299	0.088847	0.31484	0.1933	0.31013	0.30552	0.25169	0.08336	0.32282	-2.1042	-2.5896	-2.0042	-2.7479	-2.5812	-1.8229	-2.9979	-2.5125	-2.3958	-2.7667	-2.2771	-2.6292	-2.65	-2.4729	-2.7333	-2.5563	-132.993	-102.148	-139.512	131.856	135.547	191.543	112.290	63.881	-138.501	62.933	186.676	178.286	193.580	135.698	-41.455	161.015	0.002193	0.00051914	0.00014505	556.39	7.7882e-06	6.8383e-06	795.92	229.22	1.0087e-05	6.8628e-06	351.08	200.94	112.28	58.336	8.9399e-06	108.17	0.00022816	5.0254e-05	1.5341e-05	553.72	5.9536e-07	5.8525e-07	791.44	229.65	6.7126e-07	5.5724e-07	350.74	200.58	111.5	59.16	6.6872e-07	109.08	-11.906	-77.907	-66.067	-144.873	-1.295	-15.025	-146.042	-139.211	16.596	-2.310	-141.122	-136.960	-137.205	-132.006	-26.736	-133.993	-8191	255	
1150.920	1	1	0	0	0.10681	0.081176	0.091771	0.092853	0.15775	0.126	0.15884	0.31453	0.073346	0.080396	0.21876	0.1763	0.038058	0.15452	0.18113	0.013474	-1.9104	-2.7938	-2.3333	-2.6396	-2.6646	-2.075	-2.7708	-2.3167	-2.45	-2.8833	-2.2583	-2.5104	-2.6979	-2.4396	-2.7	-2.4875	-82.194	45.143	112.100	-30.492	-108.627	-64.336	-127.106	146.804	200.844	109.031	89.804	166.697	116.349	127.598	172.394	-107.634	0.0021674	0.00072495	0.00016484	555.72	7.0622e-06	5.904e-06	795.55	228.4	7.4126e-06	4.7865e-06	350.26	199.43	111.16	58.002	9.1435e-06	106.95	0.00022325	5.2795e-05	1.4714e-05	554.3	6.2175e-07	5.7618e-07	791.99	228.88	6.5369e-07	5.0192e-07	349.06	199.07	110.9	58.796	6.7221e-07	107.95	-10.846	-68.093	-62.090	-145.117	-10.176	-12.351	-145.709	-139.254	13.424	-1.661	-141.043	-136.789	-137.701	-132.223	-35.311	-134.115	-8191	255	
1150.992	1	1	0	0	0.09729	0.22743	0.19093	0.53648	0.17685	0.1978	0.15139	0.17701	0.21578	0.068702	0.055904	0.3909	0.222	0.22694	0.037651	0.10794	-1.7021	-2.6229	-2.35	-2.5646	-2.4167	-2.2042	-2.8146	-2.7521	-2.2521	-2.95	-2.4771	-2.6292	-2.5792	-2.2875	-2.7208	-2.6292	148.712	-38.804	147.555	144.772	-83.727	-156.063	165.959	-111.591	-76.255	-69.028	88.333	136.224	145.795	-115.938	115.602	184.012	0.0021152	0.00060113	0.00020417	553.56	7.4969e-06	6.6448e-06	788.28	227.66	1.0264e-05	7.6328e-06	348.69	198.37	110.74	58.028	7.9569e-06	106.91	0.00022263	5.0385e-05	1.5271e-05	551	6.1397e-07	5.9156e-07	786.6	227.88	6.8488e-07	5.5974e-07	346.91	198.06	110.55	58.668	7.041e-07	107.81	-11.118	-62.083	-63.868	-144.815	-6.781	-6.814	-145.827	-138.927	21.956	9.206	-140.819	-136.906	-137.191	-132.086	-30.409	-133.936	-8191	255	
1151.112	1	1	0	0	0.2028	0.13567	0.11803	0.20102	0.14302	0.28548	0.23412	0.1374	0.28425	0.10277	0.081685	0.22528	0.43572	0.29013	0.089576	0.28011	-1.7125	-2.5833	-2.3354	-2.4896	-2.6833	-1.9958	-2.5625	-2.7313	-2.3333	-2.7583	-2.5	-2.4813	-2.8125	-2.5229	-2.3333	-2.6708	156.742	152.390	136.898	-93.614	62.938	126.549	109.400	124.895	-120.515	179.558	172.790	116.021	-112.878	-148.976	163.783	168.012	0.0021571	0.00059769	0.00014911	554.6	8.8991e-06	6.7893e-06	793.12	227.31	9.4845e-06	5.837e-06	348.7	197.58	110.69	57.974	7.6418e-06	107.08	0.00022111	5.1685e-05	1.454e-05	550.57	5.9612e-07	5.7e-07	788.48	227.92	6.7406e-07	5.3946e-07	346.93	198.02	110.26	58.589	6.9933e-07	107.97	-10.892	-71.142	-62.246	-144.784	-13.707	-20.653	-146.114	-139.268	16.759	-7.150	-141.435	-136.827	-137.260	-131.886	-32.011	-133.867	-8191	255	
1151.209	1	1	0	0	0.12218	0.10113	0.21534	0.073265	0.04274	0.11007	0.16348	0.20089	0.11732	0.045324	0.32607	0.38722	0.2725	0.31241	0.15888	0.18875	-1.7062	-2.7521	-2.4188	-2.5125	-2.7562	-2.2271	-2.3333	-2.4229	-2.1813	-2.8312	-2.675	-2.3771	-2.6479	-2.4229	-2.6833	-2.9792	-152.300	-0.216	146.653	76.274	-154.466	53.519	-136.819	-126.535	-52.878	-44.883	193.109	111.805	190.727	157.603	-19.986	187.616	0.0021247	0.00060625	0.00018537	554.8	8.169e-06	6.1095e-06	795.08	228.05	1.0413e-05	5.6081e-06	347.17	198.42	109.97	57.56	8.0583e-06	107.02	0.00022235	5.1661e-05	1.48e-05	552.19	5.8401e-07	5.6856e-07	789.63	227.43	6.8921e-07	5.2668e-07	347.64	197.93	109.94	58.318	6.6601e-07	107.9	-10.529	-80.113	-62.742	-144.668	-14.379	-13.707	-145.864	-139.076	33.650	0.040	-140.958	-136.884	-137.066	-131.938	-30.478	-133.980	-8191	255	
1151.305	1	1	0	0	0.21065	0.15105	0.14651	0.15284	0.095784	0.14814	0.067845	0.090249	0.2277	0.15595	0.21789	0.30118	0.13537	0.20648	0.22074	0.48298	-1.6562	-2.3375	-2.6188	-2.5021	-2.8063	-2.3292	-2.5687	-2.8167	-2.2687	-2.4833	-2.4208	-2.525	-3.0062	-2.3354	-2.3542	-3.0896	188.880	-7.654	-147.660	186.384	-98.252	-79.922	194.758	-96.947	-11.576	95.407	52.124	176.620	152.450	182.201	-54.304	165.603	0.0021501	0.00060007	0.00016308	553.17	8.3238e-06	6.3339e-06	793.57	225.89	9.1765e-06	6.4053e-06	347.53	197.57	110.83	57.598	1.0866e-05	106.92	0.000224	5.3725e-05	1.4097e-05	551.55	5.8758e-07	5.9182e-07	790.41	227.06	6.8857e-07	5.4617e-07	347.54	198.16	110.14	58.286	7.258e-07	107.67	-10.761	-66.576	-65.283	-144.681	-3.419	-18.777	-146.287	-139.481	23.718	-7.537	-141.047	-137.170	-137.551	-132.218	-29.963	-134.296	-8191	255	
1151.401	1	1	0	0	0.15622	0.094907	0.020384	0.044489	0.14407	0.12023	0.23037	0.14311	0.12814	0.17814	0.488	0.25609	0.056912	0.31406	0.18735	0.13498	-1.8312	-2.4562	-2.7021	-2.225	-2.6437	-2.4521	-2.5854	-2.7521	-2.0833	-2.7958	-2.6292	-2.3063	-2.5083	-2.525	-2.5167	-2.9292	166.285	-34.086	-43.572	145.928	66.191	132.705	126.774	-59.075	32.835	-53.001	-140.248	131.041	42.479	155.235	185.603	24.997	0.0021499	0.00065744	0.00013342	552.42	6.2775e-06	6.1381e-06	789.08	226.52	9.5331e-06	7.3296e-06	347.01	196.79	110.31	57.578	1.0308e-05	106.33	0.00022179	5.1805e-05	1.4377e-05	550.06	5.7547e-07	5.2215e-07	786	226.7	6.8806e-07	5.1772e-07	345.78	197.1	109.8	58.177	6.9171e-07	107.3	-10.698	-63.805	-62.027	-145.000	-9.197	-16.005	-145.884	-139.015	30.366	-12.070	-140.881	-137.016	-137.840	-133.017	-33.150	-134.745	-8191	255	
1151.520	1	1	0	0	0.23838	0.14263	0.15038	0.057369	0.34209	0.29494	0.090936	0.18717	0.22887	0.13184	0.15047	0.19766	0.362	0.2226	0.13982	0.3397	-1.8771	-2.5208	-2.7667	-2.1854	-2.5729	-2.45	-2.2792	-2.6708	-2.2292	-2.5625	-2.7229	-2.3917	-2.8083	-2.7188	-2.3625	-2.8896	-8.036	141.887	149.719	-140.077	-19.409	195.109	-107.187	96.042	-136.687	-114.490	-95.056	93.540	163.614	167.761	-100.207	109.278	0.0021361	0.00058213	0.00016266	554.74	8.2132e-06	6.2931e-06	787.53	227.14	9.8639e-06	5.4656e-06	347.91	197.29	110.34	57.957	8.5103e-06	107.36	0.00021744	5.2699e-05	1.4467e-05	551	5.8452e-07	5.5501e-07	786.79	227.38	6.6425e-07	5.3406e-07	346.85	197.91	110.19	58.54	6.9158e-07	108.13	-11.545	-66.801	-55.150	-145.692	-4.035	-20.680	-146.303	-139.897	22.704	0.717	-141.824	-137.573	-137.692	-132.650	-27.802	-134.799	-8191	255	
1151.616	1	1	0	0	0.15967	0.1877	0.082101	0.12725	0.082418	0.13854	0.051777	0.071247	0.10821	0.11314	0.10903	0.11339	0.13905	0.30657	0.14245	0.36447	-1.9792	-2.4062	-2.6833	-2.3167	-2.6229	-2.4917	-2.2833	-2.9437	-2.2188	-2.2208	-2.7729	-2.3979	-2.6292	-2.4958	-2.3625	-2.8083	-43.592	102.842	65.341	-52.530	148.521	28.817	156.167	-60.704	-102.362	167.557	185.656	125.658	-23.840	202.498	177.650	158.704	0.0021276	0.00053492	0.00020298	553.84	7.6167e-06	5.8349e-06	793.29	226.11	1.0673e-05	4.8506e-06	347.55	198.56	110.26	57.72	9.0735e-06	107.38	0.00022251	5.2747e-05	1.4293e-05	550.96	5.9217e-07	5.629e-07	788.72	226.69	7.1722e-07	5.6751e-07	347.55	198.32	110.04	58.409	7.2528e-07	108.19	-10.519	-69.593	-69.752	-145.324	-26.081	-6.191	-146.044	-139.502	12.742	-1.866	-141.280	-137.137	-137.396	-132.245	-18.941	-134.307	-8191	255	
1151.688	1	1	0	0	0.20166	0.27094	0.21191	0.3192	0.27087	0.19184	0.18191	0.20347	0.071095	0.2201	0.15682	0.15372	0.19037	0.1387	0.037686	0.19845	-1.8438	-2.3167	-2.6562	-2.1292	-2.4479	-2.5229	-2.2229	-2.8563	-2.3396	-2.2313	-2.7854	-2.4479	-2.4604	-2.6813	-1.9667	-2.5583	51.802	167.964	-121.113	178.184	-75.357	-91.933	-118.288	14.718	-62.597	-57.154	-37.271	139.933	-97.827	193.917	188.305	124.295	0.002147	0.00068002	0.00017407	552.62	7.3325e-06	6.563e-06	792.16	226.8	1.0168e-05	5.8029e-06	350.8	198.97	110.46	57.887	9.0073e-06	107.97	0.00022033	5.3427e-05	1.3466e-05	550.71	6.0415e-07	5.1781e-07	789.99	226.79	6.6094e-07	5.6382e-07	349.46	199.45	110.18	58.607	7.2735e-07	108.91	-10.846	-82.719	-55.897	-145.180	-3.561	-3.645	-145.621	-139.420	21.134	13.197	-142.519	-138.505	-139.053	-133.647	-26.383	-135.581	-8191	255	
1151.785	1	1	0	0	0.10487	0.21555	0.19208	0.15244	0.060765	0.18675	0.29541	0.095124	0.14494	0.058627	0.38285	0.061495	0.090545	0.18689	0.24406	0.28902	-1.6792	-2.1708	-2.6896	-2.4625	-2.4208	-2.6771	-2.4333	-2.7792	-2.5271	-2.1833	-2.8292	-2.4146	-2.4167	-2.6917	-2.125	-2.8937	173.642	121.906	-119.092	186.920	88.424	189.271	193.151	-140.794	-83.733	-115.033	-66.272	-134.798	-42.460	141.806	-9.316	150.404	0.0022256	0.00050932	0.00018049	554.14	8.2684e-06	6.6865e-06	794.27	227.24	1.0282e-05	5.4947e-06	349.29	198.81	110.43	57.727	1.0335e-05	107.45	0.00022357	5.1876e-05	1.3856e-05	551.61	6.2366e-07	5.1137e-07	790.4	227.11	6.5725e-07	5.5934e-07	347.98	198.57	110.09	58.471	6.8021e-07	108.35	-11.479	-71.553	-56.216	-145.783	-11.846	-18.656	-146.133	-139.508	18.415	-14.155	-141.457	-137.219	-137.451	-132.341	-27.551	-134.381	-8191	255	
1151.904	1	1	0	0	0.25103	0.061218	0.096759	0.23238	0.055192	0.02555	0.29491	0.042717	0.17191	0.38243	0.079274	0.40361	0.24408	0.37657	0.035994	0.1956	-1.9667	-2.2438	-2.7208	-2.4	-2.5292	-2.7792	-2.2188	-2.5	-2.5521	-2.15	-2.9792	-2.3167	-2.2562	-2.8167	-2.3271	-2.7479	113.799	-61.388	117.818	129.276	174.400	122.056	174.282	87.886	-142.908	14.275	-119.429	188.817	-156.389	145.995	84.220	-86.897	0.0021896	0.00061342	0.00017026	554.7	7.9348e-06	6.7e-06	790.88	226.54	1.1294e-05	5.1627e-06	349.14	198.26	110.92	57.973	7.4833e-06	107.44	0.00022534	5.8174e-05	1.394e-05	550.84	5.9421e-07	5.1742e-07	788.55	227.05	6.8475e-07	5.1509e-07	347.64	198.68	110.16	58.632	6.7802e-07	108.58	-11.193	-75.941	-65.085	-145.095	-19.807	-14.454	-145.951	-139.456	24.594	15.893	-141.545	-137.490	-137.775	-132.502	-18.906	-134.393	-8191	255	
1152.000	1	1	0	0	0.21036	0.048528	0.17078	0.014975	0.16601	0.16243	0.08634	0.070306	0.025631	0.23022	0.043805	0.11867	0.1039	0.051479	0.15885	0.054896	-2.25	-2.1021	-2.5729	-2.4708	-2.3146	-2.7396	-2.3021	-2.4896	-2.5083	-2.2	-2.8375	-2.5396	-2.1833	-2.7	-2.2125	-2.8271	-36.784	137.824	153.216	-119.060	5.382	-30.495	100.131	173.982	137.869	178.219	-1.682	-131.612	-42.456	16.324	104.376	85.215	0.0021526	0.00050491	0.00017535	554.04	8.6579e-06	5.7688e-06	791.33	226.86	9.6385e-06	5.3884e-06	349.88	199.31	110.65	57.924	7.3739e-06	108.98	0.00022284	5.4023e-05	1.4247e-05	552.23	6.3819e-07	5.4739e-07	789.48	227.55	6.309e-07	5.7581e-07	349.09	199.31	110.29	58.795	6.6381e-07	109.56	-11.529	-68.749	-60.597	-145.119	-12.483	-10.645	-146.783	-140.811	23.976	3.076	-141.724	-137.641	-137.955	-132.902	-36.186	-134.576	-8191	255	
1152.097	1	1	0	0	0.20254	0.18086	0.15584	0.081444	0.034185	0.12268	0.07343	0.11133	0.17964	0.057136	0.15393	0.12471	0.18347	0.059989	0.15561	0.073964	-2.225	-2.1271	-2.6667	-2.475	-2.2042	-2.7333	-2.5708	-2.5583	-2.6875	-2.2458	-2.4958	-2.4833	-2.0333	-2.6813	-2.2938	-2.6396	-79.400	103.473	-110.450	-143.280	25.416	-148.056	-88.928	-130.511	124.218	152.500	190.249	-12.666	-92.266	-139.222	-146.508	-85.530	0.0021565	0.00053932	0.00019138	555.75	8.5438e-06	6.8862e-06	795.11	228.11	9.6111e-06	6.6516e-06	352.55	200.65	110.17	58.149	1.0689e-05	108.72	0.0002229	5.3999e-05	1.4944e-05	553.46	6.3628e-07	5.0966e-07	792.84	228.25	6.3713e-07	5.5842e-07	350.08	200.1	109.68	58.82	6.8641e-07	109.67	-11.947	-73.871	-48.101	-144.980	-15.955	-8.350	-146.124	-139.248	22.143	-3.191	-140.966	-136.800	-136.774	-131.982	-33.771	-133.922	-8191	255	
1152.193	1	1	0	0	0.090779	0.18169	0.072277	0.14152	0.19721	0.29381	0.12829	0.21675	0.080429	0.22883	0.23232	0.33631	0.14952	0.2374	0.14731	0.16413	-2.2542	-2.1146	-2.4	-2.55	-2.275	-2.9354	-2.4833	-2.2917	-2.5312	-2.2167	-2.7938	-2.7042	-2.3979	-2.7833	-2.2167	-2.2708	135.924	40.687	11.933	-114.996	13.396	188.506	122.293	-112.078	-25.125	17.578	32.932	86.466	-89.230	159.408	125.150	170.575	0.0021671	0.00065338	0.00021972	556.2	6.9277e-06	6.3972e-06	796.57	227.75	9.4866e-06	6.2625e-06	348.03	200.09	111.07	57.988	8.9009e-06	108.38	0.00022226	5.623e-05	1.5588e-05	554.53	6.6407e-07	5.2544e-07	794.63	228.01	6.5025e-07	5.6448e-07	348.92	200.05	110.56	58.779	7.2089e-07	109.26	-11.157	-82.121	-58.588	-145.542	-13.746	-23.646	-146.404	-139.584	22.527	11.026	-141.311	-137.072	-137.198	-131.970	-30.449	-134.171	-8191	255	
1152.289	1	1	0	0	0.35482	0.25365	0.049079	0.22383	0.23488	0.32032	0.13235	0.12935	0.091735	0.032641	0.15886	0.22174	0.091036	0.22876	0.17249	0.062083	-2.3833	-2.3646	-2.4521	-2.5833	-1.8979	-2.6125	-2.4604	-2.1521	-2.8937	-2.4271	-2.4708	-2.6146	-2.35	-2.6917	-2.5354	-2.3937	-110.739	-109.664	4.557	160.466	-79.415	175.016	-40.922	163.828	-85.312	-142.211	200.721	151.972	117.659	167.440	66.021	135.249	0.0021576	0.00059938	0.0001832	554.18	7.1738e-06	6.345e-06	790.52	227	8.3552e-06	6.0644e-06	347.13	198.38	110.13	57.728	8.218e-06	107.08	0.00022415	5.2318e-05	1.5131e-05	552.14	6.5872e-07	5.3056e-07	788.76	227.08	6.2491e-07	5.5078e-07	346.23	198.09	109.66	58.314	6.6962e-07	108.37	-10.631	-70.468	-60.488	-145.031	-21.020	-16.350	-146.079	-139.471	7.289	-4.580	-141.417	-137.119	-137.384	-132.231	-30.612	-134.120	-8191	255	
1152.385	1	1	0	0	0.17045	0.15963	0.17089	0.24133	0.058572	0.1019	0.30896	0.11707	0.2976	0.15961	0.13285	0.22866	0.32156	0.25076	0.35153	0.038646	-2.3958	-2.5125	-2.4604	-2.6063	-2.2854	-2.7729	-2.6063	-2.125	-2.4583	-2.35	-2.3125	-2.7708	-2.3958	-2.7021	-2.6562	-2.3875	-43.681	136.092	23.868	-156.815	165.770	173.533	104.212	148.808	116.812	140.373	190.185	125.479	179.278	158.037	-126.245	-90.877	0.0021808	0.00067173	0.00017687	553.72	6.724e-06	6.5945e-06	792.09	226.57	1.0245e-05	5.298e-06	348.87	198.79	110.41	57.816	8.9739e-06	108.04	0.00022136	5.1852e-05	1.5484e-05	551.74	5.9102e-07	5.4647e-07	789.17	226.48	6.6209e-07	5.143e-07	348.31	198.51	109.74	58.445	6.7634e-07	108.94	-11.776	-65.097	-53.770	-145.143	-13.851	-9.408	-145.736	-139.444	25.717	6.189	-141.031	-137.383	-137.527	-132.138	-26.525	-134.255	-8191	255	
1152.506	1	1	0	0	0.16323	0.16685	0.35807	0.28928	0.20574	0.34483	0.12175	0.3163	0.18305	0.096659	0.16353	0.14311	0.17425	0.1407	0.23415	0.33247	-2.5292	-2.3979	-2.4083	-2.8	-2.0292	-2.4604	-2.8187	-2.0979	-2.4396	-2.3729	-2.3979	-2.7604	-2.4062	-2.6417	-2.6813	-2.3083	80.811	-105.062	163.861	169.257	25.630	-104.622	100.829	195.392	200.902	26.052	-76.865	170.676	177.229	86.028	-60.711	-99.650	0.0021652	0.00061166	0.00016687	555.56	7.8066e-06	6.6108e-06	796.26	227.49	9.4994e-06	5.7593e-06	352.3	200.92	111.06	58.559	8.0256e-06	109.22	0.00022574	5.5502e-05	1.5404e-05	553	6.554e-07	5.0992e-07	792.24	228.49	6.4414e-07	5.6843e-07	351.06	200.96	110.95	59.053	6.8447e-07	110.29	-11.199	-56.665	-67.484	-145.262	-23.010	-11.606	-146.043	-139.206	8.630	6.869	-141.062	-137.003	-137.183	-132.138	-33.585	-134.205	-8191	255	
1152.600	1	1	0	0	0.11422	0.29094	0.061741	0.29004	0.089023	0.20486	0.3195	0.21417	0.091133	0.053456	0.097888	0.1449	0.24345	0.35699	0.1546	0.058248	-2.1625	-2.3729	-2.2188	-2.6875	-2.0667	-2.5083	-2.9583	-2.3312	-2.7646	-2.3896	-2.1417	-2.7646	-2.525	-2.5333	-2.575	-2.4854	-65.335	187.510	3.037	-112.663	-153.770	104.275	187.236	190.358	106.414	-15.628	185.201	-130.052	-67.123	154.190	155.720	147.852	0.0021884	0.00057788	0.00016966	559.74	7.9224e-06	7.2865e-06	798.39	228.86	1.0289e-05	6.5735e-06	353.83	202.35	111.88	58.341	1.1805e-05	109.35	0.00022804	5.4775e-05	1.5061e-05	554.62	6.3067e-07	5.8275e-07	795.84	228.91	6.6425e-07	5.5328e-07	351.99	201.9	111.23	59.179	7.3691e-07	110.38	-12.299	-83.515	-61.455	-145.233	-6.653	-15.617	-146.089	-139.384	30.363	-5.424	-141.155	-137.062	-137.524	-132.238	-26.154	-134.290	-8191	255	
1152.696	1	1	0	0	0.074934	0.1859	0.24445	0.23519	0.12199	0.18178	0.12454	0.081204	0.14542	0.18145	0.092098	0.020611	0.21876	0.31271	0.33542	0.1124	-2.0771	-2.5271	-1.9708	-2.7521	-2.3146	-2.2438	-2.6271	-2.1625	-2.6188	-2.7104	-2.2938	-2.9875	-2.35	-2.3625	-2.6792	-2.5062	7.306	-60.455	-16.394	-95.015	71.011	9.522	-117.959	144.219	127.850	-154.542	62.166	-60.010	188.291	-136.059	99.922	-33.391	0.0021558	0.00060417	0.0001521	554.62	9.2988e-06	6.346e-06	792.84	228.66	1.1362e-05	5.5698e-06	350.82	200.72	111.4	58.23	8.6425e-06	109.09	0.00022016	5.4596e-05	1.5124e-05	552.81	6.4763e-07	5.4437e-07	792.77	228.9	6.7228e-07	5.5328e-07	350.5	200.92	110.47	59.085	6.5684e-07	110.17	-12.240	-63.550	-58.643	-145.391	-13.953	-20.231	-146.150	-139.523	31.376	-0.414	-141.499	-137.178	-137.481	-132.437	-45.591	-134.262	-8191	255	
1152.792	1	1	0	0	0.15742	0.32702	0.039566	0.10759	0.3908	0.10976	0.27232	0.29972	0.11992	0.20834	0.19341	0.1984	0.21455	0.051665	0.093071	0.1159	-1.9813	-2.7104	-2.1583	-2.7708	-2.4333	-2.2562	-3.0146	-2.1917	-2.4292	-2.7375	-2.1167	-2.6542	-2.5375	-2.25	-2.7708	-2.475	-113.133	111.453	78.544	143.994	104.295	-99.601	129.652	118.876	40.427	-78.881	180.805	113.153	159.487	-103.193	61.929	47.664	0.0022572	0.0006691	0.00020048	556.18	5.7666e-06	7.7929e-06	793.26	228.74	8.9056e-06	5.5754e-06	353.16	202.3	112.93	58.919	7.6701e-06	110.37	0.00022887	5.5598e-05	1.4667e-05	552.66	5.9051e-07	5.6146e-07	791.48	228.95	6.8641e-07	5.413e-07	352.32	202.73	112.17	59.601	6.8732e-07	111.19	-11.334	-65.510	-66.115	-145.215	-1.702	-14.743	-146.152	-139.294	17.729	7.481	-141.508	-137.345	-137.664	-132.460	-20.092	-134.562	-8191	255	
1152.889	1	1	0	0	0.17369	0.13082	0.13949	0.46707	0.20364	0.31174	0.065524	0.15917	0.11237	0.15518	0.18476	0.20298	0.18507	0.28623	0.05947	0.22313	-2	-2.3563	-1.9104	-2.6833	-2.6604	-2.2354	-2.7375	-2.3708	-2.3063	-2.8167	-2.3187	-2.7625	-2.5708	-2.5667	-2.5312	-2.3958	-130.214	84.727	-94.281	182.486	179.777	130.962	-154.806	153.894	-147.873	116.888	37.688	18.655	154.455	-118.479	-79.740	-118.861	0.0023125	0.00059257	0.00017997	555.55	8.3761e-06	6.4991e-06	799.03	229.68	9.5474e-06	5.9205e-06	353.71	203.22	111.69	58.835	1.0502e-05	110.53	0.00023228	5.5574e-05	1.4804e-05	552.44	6.2659e-07	6.0694e-07	795.75	230.13	6.6807e-07	5.3787e-07	353.44	203.17	111.46	59.442	6.9171e-07	111.35	-11.581	-77.332	-62.550	-145.171	-9.179	-2.160	-146.007	-139.444	26.710	-7.747	-141.453	-137.603	-137.506	-132.351	-24.705	-134.265	-8191	255	
1152.985	1	1	0	0	0.22302	0.079355	0.11563	0.42199	0.16408	0.092059	0.20423	0.29531	0.28392	0.023258	0.21538	0.21519	0.33152	0.27299	0.32484	0.18921	-1.9125	-2.5292	-2.0312	-2.5563	-2.5542	-2.0292	-2.7667	-2.55	-2.3604	-2.7958	-2.4062	-2.5604	-2.5542	-1.9625	-2.5687	-2.8292	11.622	102.385	-38.826	147.446	-80.886	189.609	-48.257	-56.130	-82.308	-135.393	150.962	-135.939	199.993	66.574	172.654	144.006	0.0022392	0.00059916	0.00016195	556.5	7.8472e-06	7.8012e-06	799.39	229.78	8.3237e-06	6.5577e-06	355.13	203.31	112.79	58.65	8.716e-06	110.77	0.00023035	5.4393e-05	1.495e-05	553.51	6.2736e-07	5.9432e-07	796.66	229.84	7.0704e-07	5.2154e-07	354.74	203.58	112.02	59.578	6.9946e-07	111.65	-11.433	-69.135	-68.466	-145.348	-3.921	-9.003	-146.065	-139.654	26.640	6.354	-141.030	-137.200	-137.257	-132.251	-21.432	-134.202	-8191	255	
1153.081	1	1	0	0	0.17042	0.13417	0.20946	0.080561	0.13191	0.14801	0.28797	0.3652	0.11103	0.31575	0.26234	0.074715	0.17934	0.21746	0.11549	0.34243	-1.8021	-2.6521	-2.1292	-2.5104	-2.7479	-2.1104	-2.65	-2.5646	-2.2292	-2.6937	-2.4208	-2.5625	-2.7542	-2.2938	-2.7062	-2.7125	-19.746	-20.772	-34.295	106.931	-69.927	-57.921	76.290	133.095	116.551	101.002	101.419	70.539	-0.127	195.390	-104.884	158.498	0.0021715	0.00058499	0.00016828	554.49	7.9087e-06	7.2284e-06	797	229.88	1.0542e-05	5.9253e-06	353.93	202.93	112.15	58.748	8.0153e-06	110.03	0.00022696	5.4584e-05	1.5184e-05	552.91	5.9855e-07	5.8196e-07	794.8	229.81	7.0309e-07	5.6329e-07	353.1	202.7	111.71	59.361	6.6317e-07	110.86	-10.588	-75.132	-60.708	-145.203	-16.110	-5.753	-147.033	-139.997	24.359	-4.135	-141.473	-137.084	-137.322	-132.164	-37.532	-134.430	-8191	255	
1153.201	1	1	0	0	0.10418	0.11735	0.34698	0.21126	0.10797	0.27594	0.072499	0.027984	0.13285	0.095609	0.12098	0.068263	0.14359	0.34274	0.085482	0.32662	-1.6771	-2.8042	-2.3438	-2.2042	-2.6396	-2.0875	-2.6562	-2.7104	-2.1	-2.5563	-2.375	-2.3396	-2.725	-2.275	-2.375	-2.7917	-112.639	-157.301	-99.492	-118.932	189.199	-13.474	122.852	172.969	-109.244	28.611	-150.047	129.216	145.572	183.733	-25.622	117.466	0.002232	0.00056809	0.00014967	557.45	9.7137e-06	7.7602e-06	798.17	230.34	1.0704e-05	5.637e-06	355.27	204.11	113.94	59.218	6.94e-06	111.62	0.00022897	5.2926e-05	1.4997e-05	553.07	5.9332e-07	5.6264e-07	795.42	230.61	7.1709e-07	5.6408e-07	355.07	204.27	113.15	60.037	7.0023e-07	112.5	-12.070	-68.410	-58.917	-145.072	-6.952	-16.424	-145.962	-139.406	20.600	-0.335	-141.436	-136.948	-137.228	-132.134	-27.000	-133.994	-8191	255	
1153.298	1	1	0	0	0.066162	0.056534	0.10225	0.24802	0.22982	0.21695	0.24224	0.12792	0.23563	0.17958	0.28857	0.17958	0.2196	0.025851	0.22427	0.37415	-1.7542	-2.5979	-2.4625	-2.3021	-2.6833	-2.1729	-2.7146	-2.6875	-1.975	-2.7	-2.5458	-2.2583	-2.8042	-2.1958	-2.2833	-2.8042	7.099	125.823	-17.812	161.849	38.768	25.284	184.364	118.176	159.086	-40.718	-98.070	167.010	11.755	-114.512	-78.371	161.750	0.0022312	0.00069463	0.00019208	558.54	8.3927e-06	6.8738e-06	799.33	232.55	9.4668e-06	5.5008e-06	358.78	206.21	114.98	59.898	1.0228e-05	112.07	0.00023281	5.4846e-05	1.5614e-05	557.42	6.3424e-07	5.8025e-07	798.84	233.14	7.4434e-07	5.5974e-07	358.32	206.34	114.29	60.52	7.1263e-07	113.03	-11.805	-72.880	-58.637	-144.944	-7.623	-8.320	-145.677	-139.193	25.411	3.480	-140.560	-136.954	-137.255	-131.973	-36.999	-136.106	-8191	255	
1153.394	1	1	0	0	0.28292	0.050479	0.16027	0.184	0.17433	0.15316	0.1791	0.21589	0.27823	0.10605	0.20634	0.1701	0.28534	0.16683	0.28196	0.095501	-1.4875	-2.4437	-2.4896	-2.1458	-2.5833	-2.0271	-2.3917	-2.6917	-2.0938	-2.5208	-2.6813	-2.3042	-2.6167	-2.2125	-2.4688	-2.9333	-150.155	167.585	-63.461	125.184	186.363	-112.920	106.455	-113.191	-94.294	-130.269	170.786	162.400	196.728	120.105	-72.301	-55.010	0.0022911	0.00062502	0.00020096	555.05	7.5789e-06	6.9041e-06	802.14	232.8	1.0124e-05	6.6203e-06	357.54	205.02	112.7	59.262	1.0834e-05	111.24	0.00023529	5.456e-05	1.5601e-05	556.69	6.1805e-07	5.817e-07	799.39	232.64	6.7393e-07	5.4248e-07	356.89	205.58	112.24	59.983	7.2193e-07	112.26	-11.811	-69.740	-56.203	-147.172	-17.362	-17.259	-147.668	-141.104	19.884	-4.303	-142.940	-138.946	-139.234	-134.122	-35.352	-136.130	-8191	255	
1153.490	1	1	0	0	0.046867	0.18611	0.12954	0.092108	0.17492	0.050258	0.1913	0.17075	0.094786	0.29958	0.24283	0.21645	0.15526	0.30953	0.15576	0.32541	-1.6875	-2.3292	-2.425	-2.2188	-2.5792	-2.1604	-2.2687	-2.8896	-2.1229	-2.4833	-2.6667	-2.25	-2.8271	-2.425	-2.1021	-2.7438	55.680	120.157	60.671	18.839	-64.093	-86.198	178.537	143.591	177.937	-75.691	153.778	-60.331	188.203	151.293	120.340	51.436	0.0022694	0.00069352	0.00017048	555.39	6.1964e-06	5.6683e-06	798.68	229.57	1.0282e-05	6.2442e-06	352.8	202.94	111.98	58.369	1.0134e-05	109.33	0.00023239	5.3153e-05	1.5137e-05	554.39	6.0823e-07	5.6619e-07	795.79	230.36	6.8845e-07	5.7238e-07	353.37	203.44	111.42	59.2	7.1327e-07	110.57	-10.989	-63.499	-57.421	-146.746	-19.894	-19.371	-147.781	-141.187	25.105	2.868	-142.997	-138.848	-138.867	-134.126	-39.066	-136.024	-8191	255	
1153.584	1	1	0	0	0.28493	0.11454	0.17914	0.11132	0.086904	0.25852	0.19026	0.12024	0.20926	0.096759	0.2736	0.31561	0.13652	0.15819	0.28722	0.27254	-1.7625	-2.5479	-2.5854	-2.0521	-2.4792	-2.4708	-2.5083	-2.4625	-2.1146	-2.3521	-2.6521	-2.0312	-2.5042	-2.4042	-2.1271	-2.9271	41.108	131.438	-79.131	-121.400	68.625	142.046	-147.782	59.795	29.714	27.939	85.118	-122.015	-23.922	115.980	-158.988	77.103	0.002211	0.00062352	0.00016373	551.22	9.1922e-06	5.5403e-06	789.8	228.53	9.7149e-06	5.907e-06	352.81	201.77	112.3	58.451	9.3128e-06	109.83	0.0002251	5.2496e-05	1.4197e-05	551.58	5.909e-07	5.6093e-07	789.23	229.3	6.7864e-07	5.6435e-07	353.18	202.34	112.19	59.279	7.0049e-07	110.74	-10.862	-69.575	-58.669	-147.033	-6.787	-4.022	-147.665	-141.028	24.331	6.029	-143.213	-138.893	-139.242	-134.150	-27.541	-135.779	-8191	255	
1153.680	1	1	0	0	0.33782	0.11017	0.10149	0.14866	0.43406	0.049615	0.36639	0.14723	0.16574	0.19442	0.16935	0.39129	0.074682	0.089542	0.25805	0.09067	-1.9146	-2.3604	-2.4688	-2.2708	-2.3667	-2.4104	-2.2104	-2.7313	-2.3708	-2.2292	-2.6208	-2.1042	-2.4458	-2.7438	-2.1854	-2.7729	-137.413	-133.012	174.887	97.155	-126.023	183.268	114.298	-2.084	-22.383	30.828	87.581	156.700	-51.193	185.369	92.304	57.436	0.0022118	0.00054453	0.00019956	550.72	8.4138e-06	7.9781e-06	793.53	227.94	1.0003e-05	5.0652e-06	352.26	201.41	110.58	58.141	8.3177e-06	109.3	0.00022609	5.3105e-05	1.469e-05	550.71	5.8873e-07	5.746e-07	792.65	229.15	6.6655e-07	5.9556e-07	351.59	201.95	110.6	58.956	7.0165e-07	110.48	-11.247	-69.464	-66.808	-146.968	0.543	-13.308	-147.527	-141.198	24.329	-8.672	-142.981	-138.796	-139.057	-134.008	-33.891	-136.036	-8191	255	
1153.777	1	1	0	0	0.091052	0.13851	0.15773	0.23907	0.11258	0.14537	0.18513	0.17828	0.21808	0.050874	0.025428	0.35085	0.35665	0.24369	0.12428	0.2264	-2.0208	-2.2562	-2.675	-2.0729	-2.6625	-2.6	-2.3	-2.5687	-2.3104	-2.2625	-2.7771	-2.3479	-2.6562	-2.5667	-2.0958	-2.7292	-13.223	-57.942	163.264	190.230	73.796	5.714	164.774	-69.054	89.316	-111.995	23.527	120.041	-141.941	137.350	-149.053	63.145	0.0022337	0.00067797	0.00020542	552.04	8.7475e-06	6.3789e-06	797.43	228.64	1.145e-05	6.6445e-06	352.93	202.94	112.62	58.598	8.9656e-06	110.56	0.00022819	5.7292e-05	1.5411e-05	551.29	6.053e-07	5.2123e-07	794.03	229.85	6.5878e-07	5.6487e-07	353.56	203.16	112.24	59.422	7.1263e-07	111.71	-11.938	-66.600	-64.927	-147.130	-9.008	-13.703	-147.759	-140.966	24.739	6.512	-142.988	-138.618	-139.049	-133.934	-33.208	-135.851	-8191	255	
1153.874	1	1	0	0	0.30699	0.24125	0.12713	0.19996	0.25488	0.30194	0.086896	0.22964	0.31237	0.21997	0.26468	0.25437	0.11978	0.18467	0.062155	0.18847	-1.9792	-2.0333	-2.4062	-2.3812	-2.2958	-2.3208	-2.1958	-2.7167	-2.6333	-2.2146	-2.7042	-2.2542	-2.5646	-2.8812	-2.1688	-2.7354	131.878	153.980	-158.795	95.910	-101.127	-123.963	30.474	81.987	-121.040	43.167	161.660	171.696	5.693	115.878	75.628	124.894	0.0022677	0.00067858	0.00018141	552.13	9.5214e-06	6.7413e-06	801.98	231.33	9.755e-06	6.2558e-06	356.3	203.77	112.74	58.772	8.9399e-06	110.03	0.00023036	5.5001e-05	1.421e-05	552	6.2188e-07	5.4174e-07	797.99	232.24	6.7457e-07	5.6356e-07	356.5	204.55	112.65	59.606	7.156e-07	111.42	-11.937	-70.081	-60.264	-146.729	-14.168	-7.935	-147.748	-141.117	11.433	-4.981	-142.911	-138.908	-138.839	-133.825	-29.006	-136.072	-8191	255	
1153.993	1	1	0	0	0.26412	0.049966	0.03774	0.159	0.058112	0.11886	0.16156	0.28885	0.29371	0.13531	0.083161	0.042519	0.27507	0.30919	0.23778	0.2552	-2.0583	-1.9979	-2.7979	-2.4292	-2.4062	-2.6771	-2.2	-2.6021	-2.5646	-2.0312	-2.7229	-2.6083	-2.4062	-2.8937	-2.1437	-2.6729	135.901	129.045	-105.109	-135.496	19.927	152.847	-155.654	119.667	-20.950	68.913	95.211	55.748	-131.188	180.189	10.965	122.425	0.0022639	0.00060419	0.0001923	553.6	8.2378e-06	5.6569e-06	792.52	228.79	9.0706e-06	4.9872e-06	350.76	201.98	112.07	58.331	9.1416e-06	109.42	0.00023141	5.7196e-05	1.465e-05	551.94	6.155e-07	5.4529e-07	790.72	229.59	6.3764e-07	5.5737e-07	351.77	202.08	111.83	59.152	7.2051e-07	110.6	-12.096	-64.216	-65.868	-146.801	-5.364	-14.082	-147.524	-141.129	21.312	-0.890	-142.794	-139.042	-139.157	-133.759	-32.848	-135.966	-8191	255	
1154.090	1	1	0	0	0.3152	0.061535	0.1887	0.36653	0.17158	0.15356	0.23104	0.12935	0.15095	0.088841	0.15185	0.12297	0.25592	0.26656	0.26466	0.23763	-2.2917	-2.1271	-2.6708	-2.4167	-1.9979	-2.3208	-2.2188	-2.4583	-2.6458	-2.1875	-2.4583	-2.4104	-2.2604	-2.775	-2.2833	-2.5021	-120.702	-27.636	196.086	146.525	53.184	-38.143	94.347	21.508	-111.994	67.197	-108.329	-93.726	117.511	186.867	-128.349	89.782	0.0021811	0.00057839	0.00016725	552.91	9.0706e-06	5.9568e-06	789.72	228.73	9.6834e-06	5.958e-06	350.64	200.58	111.25	58.216	9.2372e-06	108.95	0.00022416	5.7614e-05	1.457e-05	551.39	6.5936e-07	5.4963e-07	791.02	229.82	6.7724e-07	5.7251e-07	352	201.53	110.78	59.003	6.9119e-07	110.17	-11.845	-78.177	-67.291	-147.203	-8.606	-8.291	-147.653	-140.921	14.184	-11.304	-142.704	-138.924	-138.998	-133.885	-27.992	-136.117	-8191	255	
1154.186	1	1	0	0	0.065601	0.35167	0.11221	0.14217	0.12509	0.16425	0.059622	0.19294	0.015852	0.060724	0.14703	0.12144	0.19304	0.098945	0.25268	0.12236	-2.1562	-2.1312	-2.6958	-2.7	-1.9813	-2.6458	-2.5104	-2.5833	-2.5396	-2.1063	-2.6021	-2.5646	-2.0333	-2.8125	-2.3146	-2.2542	48.337	-107.240	-61.580	-144.481	144.399	63.062	-45.635	94.306	-119.732	77.236	-93.250	145.542	-156.409	-35.138	155.426	155.137	0.0022071	0.00063319	0.00019595	549.85	8.2549e-06	6.0129e-06	792.88	228.7	8.9267e-06	6.2941e-06	351.23	201.59	112.38	58.038	8.0124e-06	108.84	0.00022077	5.2997e-05	1.4834e-05	550.35	6.1244e-07	5.5107e-07	790.28	229.15	6.3472e-07	5.5236e-07	351.22	201.7	111.44	58.869	6.7595e-07	110.16	-12.012	-74.371	-68.872	-146.800	-15.970	-21.137	-147.850	-141.199	29.387	-0.663	-142.544	-138.742	-139.030	-133.930	-38.261	-135.924	-8191	255	
1154.282	1	1	0	0	0.19883	0.24215	0.14937	0.19079	0.32174	0.17904	0.31836	0.13238	0.1908	0.15812	0.093556	0.038349	0.31072	0.3827	0.07443	0.45496	-2.3	-2.1146	-2.3083	-2.6208	-2.1188	-2.5896	-2.4604	-2.4125	-2.725	-2.0771	-2.5667	-2.7313	-2.3812	-2.6979	-2.3354	-2.3458	-21.598	36.849	134.023	-110.327	187.545	134.259	72.205	83.152	63.251	128.557	154.442	25.526	186.973	166.331	70.510	97.371	0.0021777	0.00061312	0.00016676	550.42	9.1e-06	6.4222e-06	792.16	226.32	8.9551e-06	5.1185e-06	348.55	198.58	109.23	56.771	7.5756e-06	107.26	0.0002245	5.5538e-05	1.4437e-05	549.67	6.7708e-07	5.441e-07	789.58	227.34	6.5471e-07	5.3616e-07	348.54	198.91	109.02	57.726	6.6187e-07	108.32	-11.120	-69.210	-62.245	-146.788	-21.906	-12.652	-147.516	-141.053	21.038	-1.944	-142.782	-138.759	-139.031	-133.811	-26.297	-135.823	-8191	255	
1154.378	1	1	0	0	0.24425	0.13818	0.038491	0.25454	0.14841	0.0298	0.077681	0.080991	0.10664	0.27141	0.13201	0.19206	0.055284	0.43131	0.10739	0.13255	-2.3563	-2.2875	-2.2979	-2.4625	-2.1417	-2.5708	-2.475	-2.3292	-2.7812	-2.2396	-2.7125	-2.7271	-2.2438	-2.6771	-2.3417	-2.4604	82.109	174.284	105.865	178.274	-13.114	-15.330	177.716	-88.189	27.823	131.624	-93.148	166.014	74.330	161.232	117.186	-26.926	0.0021574	0.00056521	0.0001534	545.7	5.9093e-06	6.0563e-06	778.09	219.47	8.618e-06	4.518e-06	337.07	189.79	104.11	54.33	7.7056e-06	103	0.00021798	5.4357e-05	1.4063e-05	544.07	6.0008e-07	5.1229e-07	779.12	220.16	6.1842e-07	5.2326e-07	336.65	190.34	104.07	55.074	6.4263e-07	104.08	-12.039	-70.269	-63.588	-147.089	-18.187	-13.449	-147.597	-141.072	26.456	7.048	-142.826	-138.495	-138.847	-133.792	-33.829	-135.591	-8191	255	
1154.474	1	1	0	0	0.1201	0.38041	0.08728	0.1946	0.22258	0.055351	0.1355	0.20066	0.12312	0.24691	0.12835	0.087152	0.084286	0.33666	0.36889	0.25629	-2.2729	-2.0458	-2.4562	-2.7	-2.0333	-2.6188	-2.4083	-2.2479	-2.6312	-2.2333	-2.3583	-2.8417	-2.3125	-2.5875	-2.6208	-2.4375	20.895	-88.194	-78.024	84.409	-51.245	-113.446	187.152	172.823	-138.546	-139.732	-152.304	185.919	120.889	148.645	113.614	135.979	0.0020922	0.00053074	0.00019102	536.56	8.369e-06	5.3864e-06	779.22	219.42	8.1927e-06	6.8114e-06	341.12	194.91	107.83	56.28	7.2416e-06	106.79	0.00021246	5.0445e-05	1.406e-05	537.47	6.169e-07	5.0651e-07	777.82	220.58	6.1473e-07	5.4815e-07	341.62	195	107.63	57.062	6.5335e-07	107.84	-12.171	-79.817	-67.505	-146.875	0.193	-11.188	-147.726	-140.905	26.438	-13.333	-142.742	-138.704	-139.028	-133.718	-42.625	-135.832	-8191	255	
1154.595	1	1	0	0	0.10668	0.083386	0.18779	0.080828	0.059264	0.17111	0.44052	0.18513	0.089987	0.053837	0.078417	0.21991	0.066552	0.15658	0.094054	0.27889	-2.2167	-2.1542	-2.2188	-2.5938	-2.2646	-2.6562	-2.6979	-2.2521	-2.5917	-2.5833	-2.2396	-2.6521	-2.3187	-2.4854	-2.6167	-2.5583	-150.957	-155.402	13.240	175.156	169.507	-70.211	172.533	144.651	122.531	-150.645	99.132	104.302	174.263	8.728	-141.264	155.686	0.0022116	0.00052536	0.00016585	546.85	9.4961e-06	7.1712e-06	785.59	225.83	1.036e-05	5.6506e-06	350.42	198.72	109.9	57.136	9.2267e-06	107.9	0.00022256	5.3761e-05	1.5017e-05	546.99	6.206e-07	5.3319e-07	787.57	226.77	6.4617e-07	5.3458e-07	349.11	199.28	109.69	58.066	6.7298e-07	109.07	-13.263	-62.101	-55.786	-146.902	-9.325	-15.611	-147.259	-141.186	11.688	9.787	-142.865	-138.437	-139.040	-133.959	-42.303	-135.827	-8191	255	
1154.689	1	1	0	0	0.1269	0.20998	0.073916	0.17222	0.18281	0.17488	0.28875	0.090467	0.1832	0.16101	0.16128	0.22718	0.15605	0.11869	0.11918	0.29552	-2.1896	-2.1042	-2.0104	-2.8708	-2.5667	-2.2229	-2.7687	-2.3688	-2.8292	-2.5938	-2.1604	-2.7896	-2.5333	-2.2896	-2.5667	-2.3667	139.008	160.094	62.721	191.477	182.989	-80.333	155.458	59.256	25.240	140.502	142.127	-110.427	181.802	150.687	77.534	130.626	0.0022433	0.00051748	0.0001793	552.37	7.8107e-06	7.3914e-06	788.53	225.86	1.1259e-05	5.2659e-06	349.09	199.3	110.11	57.283	7.7138e-06	108.32	0.00022583	5.3331e-05	1.5094e-05	550.44	5.9039e-07	5.913e-07	789.56	226.91	6.6018e-07	5.4907e-07	348.82	199.79	109.83	58.169	6.6872e-07	109.64	-10.772	-69.036	-69.744	-146.910	-4.680	-15.060	-147.729	-141.027	29.821	9.767	-142.900	-138.716	-139.110	-133.754	-38.551	-135.928	-8191	255	
1154.785	1	1	0	0	0.1241	0.22814	0.061929	0.12856	0.13474	0.25647	0.092202	0.32293	0.13859	0.064455	0.081096	0.20135	0.055732	0.14541	0.2929	0.31953	-2.05	-2.4208	-2.3271	-2.7562	-2.1021	-2.3104	-2.8979	-2.0312	-2.3354	-2.5375	-2.1333	-2.7687	-2.4042	-2.375	-2.7729	-2.3396	-92.516	-95.124	-135.303	2.883	-154.728	63.680	132.051	157.744	115.099	-48.072	-57.804	162.063	169.454	114.511	9.665	173.236	0.0021919	0.0005984	0.00015033	550.3	8.779e-06	6.4104e-06	790.63	226.66	9.7804e-06	4.7483e-06	349.95	200.19	110.59	57.512	8.9038e-06	108.09	0.00022434	5.2329e-05	1.4627e-05	549.37	5.9051e-07	5.6553e-07	787.17	228.02	6.5598e-07	5.1311e-07	349.32	200.21	110.29	58.392	6.8008e-07	109.33	-11.355	-72.280	-59.672	-146.998	-12.784	-17.261	-147.717	-141.273	27.221	5.684	-142.991	-138.886	-139.282	-133.884	-38.735	-136.014	-8191	255	
1154.881	1	1	0	0	0.03175	0.21101	0.30561	0.20841	0.27277	0.12864	0.047895	0.17992	0.26303	0.12044	0.29623	0.30994	0.15983	0.13989	0.35982	0.32058	-1.9042	-2.6375	-2.2375	-2.7875	-2.3646	-2.1188	-2.6396	-2.3896	-2.4688	-2.8312	-2.2896	-2.7313	-2.4729	-2.5583	-2.7958	-2.65	-74.404	195.870	146.502	-158.933	-114.648	57.151	51.882	-48.150	-73.200	152.183	129.001	151.640	-136.366	-81.389	-60.000	199.015	0.0022649	0.00065484	0.00014172	549.7	8.9789e-06	4.6e-06	787.44	225.72	9.158e-06	6.2177e-06	347.75	198.79	110.2	57.138	7.7976e-06	108.1	0.00023071	5.2425e-05	1.502e-05	548.73	5.9332e-07	5.4936e-07	786.54	226.77	6.5432e-07	5.413e-07	347.53	199.04	109.65	58.034	6.2365e-07	109.04	-11.866	-71.482	-71.369	-146.877	-10.315	-17.496	-147.664	-141.115	21.550	-4.441	-143.062	-138.904	-139.284	-133.971	-30.860	-135.927	-8191	255	
1154.978	1	1	0	0	0.23605	0.12331	0.28001	0.27858	0.11256	0.16219	0.057342	0.36982	0.10944	0.19354	0.02887	0.21572	0.29526	0.39399	0.022503	0.32394	-1.9604	-2.7062	-2.0396	-2.6229	-2.5229	-2.2812	-2.5542	-2.3354	-2.4604	-2.8042	-2.1833	-2.4396	-2.5208	-2.2833	-2.3729	-2.1771	137.961	-6.467	-114.690	199.731	18.502	118.025	-122.567	176.192	-5.967	20.337	179.118	-144.483	183.734	177.649	-76.231	89.806	0.0022299	0.00066213	0.00015367	550.51	7.9823e-06	6.091e-06	789	224.82	9.7096e-06	5.5591e-06	348.68	199	110.41	57.7	8.4506e-06	108.66	0.00022581	5.097e-05	1.4637e-05	549.19	5.9969e-07	5.4752e-07	788.35	226.56	6.3815e-07	5.1483e-07	348.8	199.89	110.1	58.624	6.753e-07	110.1	-11.635	-66.538	-56.819	-147.104	-10.997	-14.726	-147.614	-141.120	21.505	4.051	-142.935	-138.883	-139.194	-133.998	-36.724	-136.161	-8191	255	
1155.074	1	1	0	0	0.21253	0.2178	0.16176	0.36574	0.085208	0.0015373	0.22189	0.09359	0.092557	0.033053	0.18205	0.10943	0.17788	0.18509	0.23364	0.026131	-1.8229	-2.6562	-2.2833	-2.3625	-2.4083	-2.2146	-2.65	-2.2917	-2.3604	-2.6437	-2.3083	-2.5563	-2.65	-2.2354	-2.4083	-2.7333	-88.288	-84.356	-158.183	186.136	-95.177	180.000	66.776	-140.340	-25.244	-0.872	145.512	176.676	178.701	181.156	101.620	-98.746	0.0021962	0.00055358	0.00019433	551.17	8.1967e-06	7.2722e-06	794.3	226.45	1.0981e-05	6.0701e-06	350.98	200.77	109.73	57.874	8.9748e-06	109.91	0.00022519	4.9097e-05	1.5114e-05	549.82	5.9829e-07	5.6356e-07	792.34	227.63	6.6375e-07	5.2233e-07	352	201.48	109.75	58.795	6.9029e-07	110.98	-11.325	-77.056	-68.127	-147.019	-13.975	-7.990	-147.653	-140.942	29.118	-4.071	-142.834	-138.692	-138.907	-134.095	-36.218	-136.006	-8191	255	
1155.170	1	1	0	0	0.11491	0.029199	0.16169	0.080593	0.036711	0.062096	0.14817	0.21737	0.17909	0.10759	0.19598	0.44763	0.084757	0.21136	0.2594	0.29819	-1.5729	-2.6125	-2.2313	-2.3354	-2.6146	-1.9479	-2.4313	-2.6208	-2.1521	-2.7354	-2.1937	-2.3104	-2.7417	-2.0271	-2.5625	-2.5146	138.667	82.174	-120.622	9.794	22.614	44.360	163.064	11.197	119.036	-129.525	118.865	173.841	59.789	168.107	-2.037	-142.177	0.0022384	0.00063609	0.00018628	551.05	8.1973e-06	6.6913e-06	797.5	225.23	9.1342e-06	6.4786e-06	349.95	198.67	109.59	57.317	9.8909e-06	107.94	0.00023214	5.066e-05	1.5104e-05	551.29	5.8618e-07	5.7355e-07	793.31	226.89	6.7368e-07	5.2378e-07	348.9	199.47	109.15	58.115	6.5193e-07	109.08	-11.150	-68.272	-63.683	-146.639	-17.471	-17.700	-147.713	-141.091	19.002	-13.407	-142.829	-138.740	-139.386	-134.140	-38.775	-135.947	-8191	255	
1155.266	1	1	0	0	0.12431	0.14078	0.30667	0.20946	0.13112	0.083802	0.13278	0.10062	0.028618	0.18361	0.10362	0.26944	0.11811	0.21605	0.017832	0.06966	-1.8438	-2.5458	-2.2792	-2.3688	-2.6771	-2.0438	-2.4604	-2.4938	-2.1958	-2.8187	-2.3292	-2.4437	-2.5833	-2.2104	-2.6104	-2.5271	71.650	-21.581	-141.181	-152.061	131.016	-8.072	126.764	104.905	110.927	125.973	134.215	125.672	116.121	-133.144	62.639	128.747	0.0022302	0.00050389	0.00016941	548.61	8.9596e-06	6.6055e-06	788.35	222.74	1.0253e-05	5.6111e-06	345.47	196.56	108.42	56.779	9.2509e-06	107.47	0.00022835	5.2329e-05	1.4217e-05	547.99	6.0607e-07	5.3661e-07	786.44	224.23	6.4452e-07	4.981e-07	345.05	196.97	108.02	57.545	6.744e-07	108.61	-10.643	-67.799	-62.473	-146.660	-7.044	-18.741	-147.678	-141.299	26.011	-14.476	-142.809	-138.655	-139.357	-134.035	-30.544	-136.070	-8191	255	
1155.387	1	1	0	0	0.1196	0.037762	0.15023	0.27831	0.1229	0.14819	0.16956	0.13184	0.1332	0.23212	0.34463	0.38319	0.1045	0.27689	0.21835	0.40223	-1.5458	-2.4521	-2.3479	-2.3792	-2.6292	-2.0958	-2.4437	-2.7583	-2.0125	-2.5312	-2.4188	-2.3	-2.6958	-2.1354	-2.3708	-2.9521	59.978	-53.586	1.714	166.381	-125.375	-44.444	36.341	191.292	58.888	-14.732	-153.565	184.435	-89.012	134.448	-147.795	183.811	0.0021847	0.00058103	0.00016452	546.59	6.9145e-06	5.5994e-06	786.78	223.31	1.052e-05	6.1636e-06	342.07	194.41	106.91	56.193	8.8869e-06	106.87	0.00022257	4.8274e-05	1.398e-05	547.42	5.524e-07	5.3753e-07	786.16	223.56	6.8042e-07	5.2049e-07	343.1	195.73	106.68	56.878	6.7337e-07	107.89	-10.776	-76.802	-51.220	-146.825	-10.595	-21.550	-147.724	-140.979	17.546	0.613	-142.582	-138.751	-139.079	-133.889	-40.136	-135.777	-8191	255	
1155.458	1	1	0	0	0.27842	0.056216	0.22924	0.18439	0.15122	0.20811	0.094575	0.16547	0.09185	0.24181	0.31679	0.23449	0.12221	0.1659	0.25053	0.1239	-1.4854	-2.3104	-2.4313	-2.1125	-2.4229	-2.05	-2.3583	-2.7938	-2.2125	-2.3229	-2.2292	-2.1	-2.7333	-2.5375	-2.2375	-2.5875	35.707	-140.534	-98.558	-46.269	-79.997	34.758	178.985	154.385	200.118	191.052	-90.163	74.160	131.374	105.491	39.640	89.516	0.0021428	0.00047163	0.0001965	549.57	6.2729e-06	7.0344e-06	789.84	220.77	8.1057e-06	6.8857e-06	344.2	194.94	106.82	55.882	8.4321e-06	107.07	0.00021984	4.9825e-05	1.4417e-05	547.58	5.6629e-07	5.3516e-07	787.69	222.02	6.6082e-07	5.5565e-07	344.36	195.64	106.56	56.804	6.9597e-07	108.08	-12.055	-74.260	-53.304	-146.730	-13.388	-10.814	-147.728	-141.147	26.739	-2.198	-142.727	-138.791	-139.093	-133.749	-26.057	-136.017	-8191	255	
1155.554	1	1	0	0	0.51665	0.017192	0.13587	0.15336	0.23168	0.27502	0.20107	0.14518	0.47657	0.33352	0.32845	0.33957	0.14668	0.25656	0.34113	0.090119	-1.5708	-2.4542	-2.575	-2.1604	-2.5792	-2.0333	-2.2417	-2.8396	-2.1937	-2.4979	-2.4458	-2.1333	-2.6854	-2.3958	-2.1813	-2.7354	-137.484	82.732	-35.675	80.080	65.835	-29.640	97.217	60.781	95.749	-74.232	127.480	170.746	165.997	171.002	107.183	42.810	0.0022134	0.00048585	0.0001553	546.2	7.8481e-06	6.2711e-06	788.5	222.27	9.4029e-06	6.0629e-06	343.01	195.89	106.36	55.768	6.8118e-06	106.16	0.00022506	5.1101e-05	1.4073e-05	547.54	5.9765e-07	5.3043e-07	787.9	223.01	6.7151e-07	5.2233e-07	344.01	195.73	106.04	56.639	6.7995e-07	107.41	-10.917	-66.175	-55.351	-146.767	-6.669	-7.996	-147.868	-141.129	16.840	8.121	-142.693	-138.831	-138.980	-133.794	-29.184	-135.871	-8191	255	
1155.675	1	1	0	0	0.12548	0.069765	0.20691	0.26294	0.092371	0.090504	0.22585	0.25317	0.20631	0.25756	0.096116	0.16558	0.13195	0.22979	0.21103	0.28488	-1.6792	-2.4875	-2.4437	-2.3167	-2.5375	-2.3771	-2.3542	-2.8583	-2.2458	-2.3354	-2.7417	-2.2083	-2.5187	-2.5354	-2.3312	-2.9104	-88.063	133.290	109.896	-88.835	-8.943	89.933	158.885	90.585	87.252	-156.730	41.362	119.068	102.379	-105.980	47.614	166.702	0.0022131	0.00053804	0.00017978	548.91	8.4723e-06	4.403e-06	780.81	219.57	1.065e-05	5.9594e-06	338.66	191.19	104.23	55.265	7.9957e-06	105.21	0.0002244	5.5192e-05	1.377e-05	545.62	5.8822e-07	5.1821e-07	781.98	220.44	6.4554e-07	5.5724e-07	338.31	192.25	104.25	56.004	6.9145e-07	106.07	-11.483	-80.105	-67.919	-146.914	-7.176	-2.708	-147.849	-141.125	23.038	-5.317	-142.953	-138.698	-139.246	-133.860	-36.620	-135.826	-8191	255	
1155.770	1	1	0	0	0.046615	0.18945	0.16975	0.11238	0.39953	0.26397	0.16567	0.086439	0.26981	0.12886	0.2784	0.12331	0.0063139	0.15791	0.25155	0.1832	-1.7875	-2.2833	-2.5167	-2.3125	-2.5542	-2.2792	-1.9312	-2.9604	-2.3208	-2.2167	-2.5958	-2.1562	-2.6375	-2.4729	-2.1562	-2.6479	-19.357	3.137	8.093	173.670	161.125	-60.593	172.493	107.186	-116.701	-129.306	18.887	150.794	-30.273	-149.017	-80.292	152.331	0.0021491	0.00051534	0.00015919	540.38	8.1571e-06	6.1789e-06	777.6	219.62	9.6586e-06	6.2178e-06	338.1	192.58	105.2	55.324	9.1149e-06	105.47	0.00021783	5.2186e-05	1.2726e-05	541.36	5.7777e-07	5.0322e-07	779.16	220.25	6.2644e-07	5.1535e-07	338.7	193.03	104.93	56.101	7.0927e-07	106.66	-12.026	-69.837	-66.756	-147.128	0.008	-28.299	-147.875	-141.196	21.494	-5.107	-142.947	-138.756	-139.110	-134.147	-35.587	-135.794	-8191	255	
1155.867	1	1	0	0	0.29849	0.13458	0.10528	0.19412	0.08388	0.071566	0.062208	0.21476	0.17968	0.21805	0.29388	0.2625	0.061163	0.039456	0.14608	0.25662	-1.6437	-2.2958	-2.7062	-2.1646	-2.2792	-2.6312	-2.1458	-2.725	-2.2042	-2.1833	-2.8521	-2.2542	-2.4188	-2.6354	-2.1104	-2.6271	-114.964	-93.936	-51.217	182.863	185.701	136.676	-109.351	140.898	-29.480	-0.758	110.714	197.431	87.160	-134.446	100.695	75.202	0.0021481	0.00058896	0.00018196	546.04	8.2165e-06	6.469e-06	784.97	220.22	9.4152e-06	4.9963e-06	342.15	194.47	107.08	55.846	8.9363e-06	106.46	0.00021996	5.0433e-05	1.3419e-05	544.23	6.1002e-07	5.2241e-07	782.89	221.41	6.1065e-07	5.7594e-07	341.31	194.55	106.18	56.473	6.8357e-07	107.38	-11.157	-58.337	-74.498	-146.896	-7.829	-13.900	-148.067	-140.973	20.104	4.771	-142.847	-138.815	-139.029	-134.053	-24.306	-135.755	-8191	255	
1155.986	1	1	0	0	0.084043	0.28765	0.091027	0.19346	0.075322	0.13035	0.10545	0.13094	0.040727	0.18239	0.16112	0.031829	0.10948	0.17624	0.10953	0.20223	-1.9917	-1.8813	-2.6896	-2.2292	-2.3875	-2.7	-2.1562	-2.6875	-2.4562	-2.1188	-2.8333	-2.3937	-2.3229	-2.8146	-2.0604	-2.4854	-11.641	-36.653	16.357	178.911	162.110	-151.877	-152.150	135.127	-132.762	161.400	123.986	143.496	-137.490	179.261	-32.820	172.495	0.0021602	0.00064364	0.00016186	546.93	7.68e-06	6.1249e-06	785.55	220.29	9.9531e-06	6.4508e-06	342.32	194.35	106.47	55.516	9.547e-06	105.92	0.0002193	5.3153e-05	1.38e-05	544.81	6.0326e-07	5.0756e-07	784.25	221.21	6.3344e-07	5.1311e-07	342.4	194.52	106.05	56.307	6.7014e-07	107.08	-11.307	-74.494	-78.139	-147.029	-16.869	-11.413	-147.749	-141.006	20.750	-4.236	-142.946	-138.751	-139.110	-133.715	-31.740	-136.086	-8191	255	
1156.058	1	1	0	0	0.12291	0.093568	0.23563	0.24153	0.2889	0.11137	0.12826	0.29646	0.043391	0.10495	0.1941	0.3228	0.19482	0.20401	0.10023	0.13061	-2.0458	-2.0167	-2.5979	-2.225	-2.2646	-2.6375	-2.2208	-2.5667	-2.5417	-2.1271	-2.4708	-2.3375	-2.3646	-2.9604	-2.1896	-2.4104	-144.232	-139.463	21.029	-66.255	138.221	-95.934	58.575	194.692	-125.702	-9.499	128.547	145.790	135.030	-125.487	139.135	148.843	0.0021554	0.00059304	0.00016163	545.41	7.2594e-06	6.0109e-06	782	218.78	9.4176e-06	4.6158e-06	338.66	191.03	105.07	54.704	8.2307e-06	104.49	0.00021886	5.1363e-05	1.412e-05	543.81	5.7879e-07	4.8994e-07	782.2	219.93	6.1753e-07	5.334e-07	338.42	191.64	104.43	55.418	6.5296e-07	105.3	-10.497	-66.218	-67.146	-146.917	-17.236	-16.997	-148.142	-141.278	4.452	1.850	-142.794	-138.750	-139.162	-133.854	-41.366	-135.922	-8191	255	
1156.154	1	1	0	0	0.13676	0.24868	0.1534	0.29639	0.15207	0.43039	0.15131	0.36042	0.084631	0.10864	0.13289	0.14391	0.34638	0.29467	0.20753	0.22478	-2.1958	-2.1208	-2.4854	-2.4542	-2.3479	-2.7021	-2.1917	-2.6333	-2.5938	-2.2229	-2.5333	-2.5292	-2.1542	-2.6646	-2.2542	-2.6917	-153.602	-129.538	-29.709	158.905	-148.712	116.953	165.521	173.309	37.970	136.798	-133.804	33.333	164.493	145.356	96.107	151.977	0.0022322	0.00057097	0.00017449	539.67	8.2758e-06	4.9631e-06	778.87	216.86	7.7543e-06	6.9692e-06	335.87	189.96	103.47	54.255	9.1074e-06	103.54	0.00021778	5.19e-05	1.384e-05	540.73	5.9727e-07	4.8035e-07	775.44	218.09	5.9308e-07	5.3511e-07	335.98	189.93	103.14	54.976	6.4379e-07	104.63	-11.183	-68.278	-59.349	-147.121	-23.019	-12.236	-147.834	-141.407	25.104	-3.554	-142.998	-138.944	-139.177	-133.836	-42.463	-135.970	-8191	255	
1156.275	1	1	0	0	0.10811	0.2981	0.15305	0.1053	0.13938	0.2352	0.41987	0.27953	0.20737	0.032791	0.071372	0.39715	0.15059	0.1378	0.1828	0.29321	-2.2625	-1.9542	-2.4708	-2.3042	-2.2771	-2.8167	-2.2646	-2.3333	-2.5042	-2.1917	-2.5333	-2.5458	-2.2042	-2.8271	-2.3042	-2.2854	-153.637	14.820	53.053	160.379	28.781	-21.190	164.825	151.962	-60.380	-147.214	128.361	172.654	-147.277	-145.060	-63.088	176.345	0.0020482	0.00047568	0.00018697	541.25	8.9291e-06	5.8728e-06	777.09	215.97	8.6412e-06	5.6017e-06	335.45	190.35	104.45	54.402	9.0666e-06	104.24	0.00021293	5.1566e-05	1.3926e-05	539.75	6.0122e-07	5.0861e-07	776.47	217.8	6.2784e-07	5.3774e-07	336.36	190.64	103.97	55.173	6.7892e-07	105.36	-12.095	-73.993	-65.687	-147.042	-8.525	-7.994	-147.958	-141.322	24.306	-10.086	-142.817	-138.738	-139.222	-133.754	-31.465	-136.006	-8191	255	
1156.371	1	1	0	0	0.32617	0.28126	0.19596	0.29126	0.12658	0.18083	0.037033	0.17448	0.30064	0.076768	0.048032	0.12763	0.073825	0.27346	0.2625	0.21573	-2.1604	-2.1917	-2.4562	-2.5792	-2.1312	-2.6875	-2.65	-2.2833	-2.4542	-2.1937	-2.5229	-2.7562	-2.2917	-2.5125	-2.0396	-2.3479	-101.094	164.296	104.492	197.650	1.813	56.566	-35.741	161.575	-93.974	-78.696	86.467	133.564	129.947	146.424	74.644	100.522	0.0020658	0.00061459	0.00021549	543.47	7.2072e-06	5.5071e-06	778.72	217.47	9.954e-06	6.0062e-06	338.01	190.28	104.13	54.212	9.8326e-06	104.34	0.00021387	4.9813e-05	1.4083e-05	541.34	5.7547e-07	4.9665e-07	778.94	217.98	6.2338e-07	5.2405e-07	337.69	190.56	103.76	55.003	6.5852e-07	105.26	-11.085	-74.395	-64.774	-146.788	2.047	-11.427	-147.931	-141.179	19.873	-4.823	-142.657	-138.761	-139.258	-133.855	-23.064	-135.813	-8191	255	
1156.467	1	1	0	0	0.10294	0.1722	0.17289	0.19661	0.11072	0.2614	0.083319	0.1651	0.14495	0.21857	0.094291	0.17498	0.058338	0.053688	0.14553	0.10105	-2.4104	-2.0021	-2.3958	-2.65	-1.9833	-2.5333	-2.6854	-2.1937	-2.5604	-2.075	-2.4396	-2.7687	-2.225	-2.8458	-2.5729	-2.4188	80.608	43.785	-118.255	187.594	176.703	82.894	198.836	91.467	-70.119	32.302	140.883	177.136	170.979	-102.839	-37.344	181.102	0.0021018	0.00063195	0.00015222	542.39	6.7536e-06	7.0952e-06	778.78	216.6	9.0325e-06	5.8743e-06	334.39	188.52	102.13	53.71	7.4337e-06	103.29	0.00021251	5.326e-05	1.3339e-05	541.13	5.6846e-07	5.1913e-07	778.72	216.91	6.0658e-07	4.9217e-07	334.92	188.91	102.26	54.438	6.1202e-07	104.07	-10.638	-72.090	-63.876	-146.940	-8.465	-6.349	-147.839	-141.426	25.357	7.035	-143.060	-138.881	-139.140	-133.832	-38.537	-135.615	-8191	255	
#DATA ENDS
