BOXY.EXE: ISS Imagent and Oximeter Data Acquisition Program Version 0.80
Ascii Record File

#ACQ INFORMATION
2  Detector Channels 
16  External MUX Channels 
1  Auxiliary Channels 
5000  Waveform (CCF) Frequency (Hz)
1  Waveforms Skipped 
30  Waveforms Averaged 
1  Cycles Averaged 
16  Acquisitions per Waveform 
10.0806  Updata Rate (Hz) 

#FILE INFORMATION
TRUE -- External MUX Channel results are PARSED.
FALSE -- AC DC and Phase are NOT grouped.
TRUE -- Companion Program Settings File CREATED.
FALSE -- AC data not excluded
FALSE -- DC data not excluded
FALSE -- Phase data not excluded
FALSE -- Auxillary Chn. data not excluded
Tab delimiters

#CALIBRATION STATE
TRUE -- Waveform Calibration Values APPLIED.


#AUX CALIBRATION VALUES
Val Type	aux-1	

Term	1.0000e+00	
Factor	0.0000e+00	


#WF CALIBRATION VALUES
A = Detector Channel
Val Type	A-AC1	A-AC2	A-AC3	A-AC4	A-AC5	A-AC6	A-AC7	A-AC8	A-AC9	A-AC10	A-AC11	A-AC12	A-AC13	A-AC14	A-AC15	A-AC16	A-DC1	A-DC2	A-DC3	A-DC4	A-DC5	A-DC6	A-DC7	A-DC8	A-DC9	A-DC10	A-DC11	A-DC12	A-DC13	A-DC14	A-DC15	A-DC16	A-Ph1	A-Ph2	A-Ph3	A-Ph4	A-Ph5	A-Ph6	A-Ph7	A-Ph8	A-Ph9	A-Ph10	A-Ph11	A-Ph12	A-Ph13	A-Ph14	A-Ph15	A-Ph16	

Term	0.00000e+00	0.00000e+00	0.00000e+00	0.00000e+00	0.00000e+00	0.00000e+00	0.00000e+00	0.00000e+00	0.00000e+00	0.00000e+00	0.00000e+00	0.00000e+00	0.00000e+00	0.00000e+00	0.00000e+00	0.00000e+00	0.00000e+00	0.00000e+00	0.00000e+00	0.00000e+00	0.00000e+00	0.00000e+00	0.00000e+00	0.00000e+00	0.00000e+00	0.00000e+00	0.00000e+00	0.00000e+00	0.00000e+00	0.00000e+00	0.00000e+00	0.00000e+00	0.00000e+00	0.00000e+00	0.00000e+00	0.00000e+00	0.00000e+00	0.00000e+00	0.00000e+00	0.00000e+00	0.00000e+00	0.00000e+00	0.00000e+00	0.00000e+00	0.00000e+00	0.00000e+00	0.00000e+00	0.00000e+00	
Factor	1.00000e+00	1.00000e+00	1.00000e+00	1.00000e+00	1.00000e+00	1.00000e+00	1.00000e+00	1.00000e+00	1.00000e+00	1.00000e+00	1.00000e+00	1.00000e+00	1.00000e+00	1.00000e+00	1.00000e+00	1.00000e+00	1.00000e+00	1.00000e+00	1.00000e+00	1.00000e+00	1.00000e+00	1.00000e+00	1.00000e+00	1.00000e+00	1.00000e+00	1.00000e+00	1.00000e+00	1.00000e+00	1.00000e+00	1.00000e+00	1.00000e+00	1.00000e+00	X	X	X	X	X	X	X	X	X	X	X	X	X	X	X	X	

B = Detector Channel
Val Type	B-AC1	B-AC2	B-AC3	B-AC4	B-AC5	B-AC6	B-AC7	B-AC8	B-AC9	B-AC10	B-AC11	B-AC12	B-AC13	B-AC14	B-AC15	B-AC16	B-DC1	B-DC2	B-DC3	B-DC4	B-DC5	B-DC6	B-DC7	B-DC8	B-DC9	B-DC10	B-DC11	B-DC12	B-DC13	B-DC14	B-DC15	B-DC16	B-Ph1	B-Ph2	B-Ph3	B-Ph4	B-Ph5	B-Ph6	B-Ph7	B-Ph8	B-Ph9	B-Ph10	B-Ph11	B-Ph12	B-Ph13	B-Ph14	B-Ph15	B-Ph16	

Term	0.00000e+00	0.00000e+00	0.00000e+00	0.00000e+00	0.00000e+00	0.00000e+00	0.00000e+00	0.00000e+00	0.00000e+00	0.00000e+00	0.00000e+00	0.00000e+00	0.00000e+00	0.00000e+00	0.00000e+00	0.00000e+00	0.00000e+00	0.00000e+00	0.00000e+00	0.00000e+00	0.00000e+00	0.00000e+00	0.00000e+00	0.00000e+00	0.00000e+00	0.00000e+00	0.00000e+00	0.00000e+00	0.00000e+00	0.00000e+00	0.00000e+00	0.00000e+00	2.16202e+01	-1.27640e+02	-1.20072e+02	-1.81829e+02	-6.16250e+01	-7.02085e+01	-1.55860e+02	-1.62015e+02	-1.48752e+01	-5.71797e+01	-1.72273e+02	-1.70198e+02	-1.80175e+02	-1.76607e+02	-7.27239e+01	-1.49939e+02	
Factor	4.79762e-05	1.77696e-04	5.16229e-05	1.64818e-01	2.61545e-06	2.05122e-06	1.93509e-01	5.38336e-02	2.73419e-06	1.91366e-06	1.19766e-01	3.42918e-02	3.29175e-02	9.95306e-03	2.68039e-06	1.45024e-02	5.05911e-06	5.72559e-06	1.60112e-06	8.38037e-02	6.11931e-08	6.30998e-08	9.23443e-02	2.74153e-02	6.11160e-08	6.32174e-08	5.83758e-02	1.68713e-02	1.67443e-02	5.10467e-03	6.19901e-08	7.18827e-03	X	X	X	X	X	X	X	X	X	X	X	X	X	X	X	X	



#DISTANCE SETTINGS
A = Detector Channel
A-1	A-2	A-3	A-4	A-5	A-6	A-7	A-8	A-9	A-10	A-11	A-12	A-13	A-14	A-15	A-16	

2.5000e+00	3.0000e+00	2.5000e+00	3.0000e+00	2.0000e+00	3.0000e+00	1.5000e+00	3.0000e+00	3.0000e+00	3.0000e+00	3.0000e+00	3.0000e+00	3.0000e+00	3.0000e+00	1.5000e+00	3.0000e+00	

B = Detector Channel
B-1	B-2	B-3	B-4	B-5	B-6	B-7	B-8	B-9	B-10	B-11	B-12	B-13	B-14	B-15	B-16	

1.0000e+01	1.0000e+01	1.0000e+01	1.4400e+00	1.0000e+01	1.0000e+01	1.5100e+00	1.9400e+00	1.0000e+01	1.0000e+01	1.9900e+00	2.4900e+00	2.4100e+00	2.9000e+00	1.0000e+01	2.9800e+00	




#DATA BEGINS
time	group	step	mark	flag	A-AC1	A-AC2	A-AC3	A-AC4	A-AC5	A-AC6	A-AC7	A-AC8	A-AC9	A-AC10	A-AC11	A-AC12	A-AC13	A-AC14	A-AC15	A-AC16	A-DC1	A-DC2	A-DC3	A-DC4	A-DC5	A-DC6	A-DC7	A-DC8	A-DC9	A-DC10	A-DC11	A-DC12	A-DC13	A-DC14	A-DC15	A-DC16	A-Ph1	A-Ph2	A-Ph3	A-Ph4	A-Ph5	A-Ph6	A-Ph7	A-Ph8	A-Ph9	A-Ph10	A-Ph11	A-Ph12	A-Ph13	A-Ph14	A-Ph15	A-Ph16	B-AC1	B-AC2	B-AC3	B-AC4	B-AC5	B-AC6	B-AC7	B-AC8	B-AC9	B-AC10	B-AC11	B-AC12	B-AC13	B-AC14	B-AC15	B-AC16	B-DC1	B-DC2	B-DC3	B-DC4	B-DC5	B-DC6	B-DC7	B-DC8	B-DC9	B-DC10	B-DC11	B-DC12	B-DC13	B-DC14	B-DC15	B-DC16	B-Ph1	B-Ph2	B-Ph3	B-Ph4	B-Ph5	B-Ph6	B-Ph7	B-Ph8	B-Ph9	B-Ph10	B-Ph11	B-Ph12	B-Ph13	B-Ph14	B-Ph15	B-Ph16	aux-1	digaux	

1266.881	1	1	0	512	0.21876	0.065269	0.053246	0.12863	0.38584	0.035821	0.40309	0.21641	0.12528	0.19572	0.20945	0.32625	0.11157	0.18539	0.16312	0.16017	-1.9417	-2.3292	-2.6625	-2.0417	-2.5563	-2.5458	-2.3063	-2.5979	-2.2417	-2.2854	-2.4146	-2.0687	-2.3604	-2.2875	-2.1146	-2.8583	-48.258	217.299	130.251	15.678	-60.712	245.192	244.625	54.321	-41.340	253.196	-87.767	209.682	26.360	180.780	23.301	176.547	0.001223	0.00068621	0.00017866	626.52	1.0292e-05	6.7051e-06	915.08	249.09	6.256e-06	6.5302e-06	416.92	222.98	117.32	67.991	7.5537e-06	133.03	0.00019368	4.2846e-05	1.1144e-05	609.76	5.1479e-07	4.1199e-07	892.11	245.27	5.6991e-07	4.6636e-07	407.42	219.86	115.58	67.369	6.1306e-07	131.42	-21.550	-0.292	3.137	-81.679	51.568	47.124	-81.550	-76.148	113.724	65.944	-77.357	-73.117	-73.139	-69.135	37.164	-70.622	-8191	255	
1266.977	1	1	0	0	0.17599	0.16583	0.16248	0.1138	0.1125	0.065916	0.24452	0.17552	0.010803	0.026192	0.11723	0.11531	0.16652	0.16108	0.18677	0.2403	-1.7854	-2.2313	-2.6917	-2.1292	-2.4583	-2.5979	-2.2875	-2.8104	-2.2896	-2.2458	-2.7729	-2.1875	-2.6813	-2.8	-2.1958	-2.8542	258.395	240.809	-70.850	223.826	-92.340	241.651	239.502	163.679	120.394	52.217	106.710	143.212	207.941	-80.235	227.154	189.715	0.0012397	0.00067013	0.00022173	625.49	7.5692e-06	8.7329e-06	912.64	249.42	6.3585e-06	5.9832e-06	414.77	223.48	117.56	68.089	9.6542e-06	133.38	0.00018954	4.3992e-05	1.2025e-05	611.19	5.0612e-07	4.3986e-07	893.67	244.66	5.5144e-07	4.3488e-07	406.57	219.92	115.58	67.366	6.3798e-07	131.53	-21.785	0.842	11.651	-81.516	63.683	56.161	-81.570	-75.861	94.074	55.603	-77.198	-72.902	-73.166	-68.931	41.699	-70.666	-8191	255	
1267.073	1	1	0	0	0.35001	0.32901	0.16612	0.15491	0.12199	0.27496	0.15821	0.18071	0.15831	0.34816	0.063545	0.066419	0.18348	0.15207	0.093011	0.21735	-1.8563	-1.8687	-2.5146	-2.2125	-2.2729	-2.5146	-2.375	-2.7708	-2.3812	-2.2521	-2.8125	-2.4729	-2.4292	-2.7479	-2.05	-2.7375	197.079	-41.000	98.548	193.906	149.149	35.200	107.860	200.260	215.796	98.209	27.661	-1.561	26.012	96.670	13.708	195.879	0.001215	0.00057896	0.00017676	621.76	8.2396e-06	7.4468e-06	913.82	248.65	7.9023e-06	7.0721e-06	414.47	221.98	116.35	67.472	6.0928e-06	132.19	0.00019541	4.6854e-05	1.1818e-05	608.01	5.4373e-07	4.3434e-07	891.43	243.97	5.2802e-07	4.4002e-07	405.53	219.17	114.51	66.935	6.0453e-07	130.34	-22.330	-16.465	1.879	-81.907	56.268	60.488	-81.390	-76.044	92.663	69.849	-76.932	-72.878	-73.437	-68.901	53.254	-70.636	-8191	255	
1267.169	1	1	0	0	0.28566	0.13044	0.26442	0.24733	0.07081	0.0278	0.32306	0.17259	0.14423	0.14061	0.28701	0.14864	0.17797	0.076448	0.29733	0.23792	-2.1958	-2.2	-2.5292	-2.0771	-2.1437	-2.6542	-2.0792	-2.325	-2.3458	-1.9792	-2.6688	-2.625	-2.4604	-2.7938	-2.0563	-2.75	26.831	-89.696	261.244	255.022	37.158	215.157	145.821	236.327	77.950	180.669	207.443	-83.798	104.227	17.539	82.222	193.824	0.0012213	0.00064665	0.00021229	621.23	8.4175e-06	7.5479e-06	905.12	247.03	7.4446e-06	6.3059e-06	414.92	221.69	116.46	67.339	6.7145e-06	131.68	0.00018941	4.6473e-05	1.2312e-05	606.58	5.0701e-07	4.3631e-07	887.07	242.54	5.7513e-07	4.4279e-07	403.34	218.21	114.25	66.703	6.3424e-07	130.02	-21.180	-7.183	2.597	-81.738	50.667	45.931	-81.575	-76.101	98.947	73.827	-77.112	-72.862	-73.193	-69.091	36.885	-70.785	-8191	255	
1267.265	1	1	0	0	0.18107	0.11368	0.038182	0.32332	0.21169	0.16195	0.17209	0.067516	0.091114	0.23811	0.05216	0.18611	0.20122	0.36453	0.20126	0.30031	-1.9271	-1.8813	-2.4625	-2.3271	-2.2604	-2.5354	-2.3479	-2.4938	-2.4313	-2.2417	-2.7708	-2.6208	-2.3104	-2.9167	-2.3875	-2.6188	135.198	183.761	-15.156	249.684	146.612	-23.444	197.371	-85.647	238.603	175.939	78.343	187.507	-1.267	242.704	-70.747	215.995	0.0012814	0.00060219	0.00023319	620.73	8.7787e-06	6.8189e-06	910.28	248.27	6.7637e-06	7.4003e-06	411.75	221.24	116.25	66.875	6.142e-06	131.45	0.00018882	4.6628e-05	1.2662e-05	606.32	5.5023e-07	4.0371e-07	888.01	243.79	5.3655e-07	4.5701e-07	404.55	218.33	114.3	66.563	6.2003e-07	129.92	-20.856	0.729	4.301	-81.804	62.890	56.132	-81.513	-76.115	99.610	58.455	-77.156	-72.663	-73.197	-68.962	40.393	-70.691	-8191	255	
1267.361	1	1	0	0	0.1456	0.17308	0.1071	0.23505	0.25669	0.10874	0.25032	0.25787	0.2071	0.14781	0.1538	0.095603	0.12678	0.25644	0.033661	0.35101	-2.2562	-2.0542	-2.3729	-2.3917	-2.2167	-2.7167	-2.5854	-2.4979	-2.6125	-2.1688	-2.6417	-2.7687	-2.1375	-2.7708	-2.2167	-2.5938	-5.491	214.419	164.584	-86.277	199.925	-51.867	217.957	234.679	211.701	-19.784	222.601	-16.146	245.248	41.312	196.053	175.326	0.00125	0.00070842	0.0002216	620.55	9.559e-06	7.185e-06	910.5	248.1	7.4395e-06	6.5084e-06	416.93	223.62	115.55	67.493	8.3746e-06	133.13	0.00019107	4.5447e-05	1.2072e-05	606.76	5.4347e-07	4.2645e-07	889.78	243.52	5.4635e-07	4.6096e-07	406.25	219.5	113.69	66.994	6.2236e-07	131.39	-20.921	1.680	10.335	-81.823	59.265	47.370	-81.663	-75.994	92.287	62.722	-76.800	-72.915	-73.272	-69.211	43.848	-70.784	-8191	255	
1267.458	1	1	0	0	0.10942	0.076933	0.17903	0.20093	0.15954	0.16481	0.2387	0.19463	0.34508	0.19412	0.043597	0.11663	0.31642	0.15572	0.096724	0.31495	-2.2792	-2.2625	-2.4542	-2.6437	-1.9354	-2.6479	-2.3333	-2.2542	-2.6333	-2.1188	-2.3583	-2.5083	-2.1771	-2.65	-2.2396	-2.5229	152.064	133.934	228.319	223.463	-84.736	24.275	217.090	214.259	210.077	31.023	123.044	230.741	-53.172	245.291	231.294	217.432	0.0012659	0.00068378	0.00020601	623.92	8.9285e-06	6.5446e-06	908.57	248.11	8.0002e-06	6.5175e-06	413.44	221.55	114.98	66.268	8.829e-06	130.27	0.00019172	4.3944e-05	1.2389e-05	608.14	5.4921e-07	4.1935e-07	890.71	243.18	5.4304e-07	4.5596e-07	404.52	217.71	112.98	65.78	5.973e-07	128.86	-20.546	1.664	-0.851	-81.690	59.565	53.141	-81.690	-75.967	86.173	71.396	-76.994	-72.902	-73.421	-68.914	36.332	-70.733	-8191	255	
1267.577	1	1	0	0	0.14369	0.079248	0.31377	0.0027486	0.15903	0.15535	0.236	0.33277	0.11701	0.25211	0.26501	0.20382	0.2303	0.099578	0.19282	0.37693	-2.25	-2.0375	-2.3937	-2.5771	-2.0417	-2.4542	-2.4021	-2.2167	-2.5271	-1.9813	-2.4708	-2.5417	-2.15	-2.7062	-2.5646	-2.5458	-26.173	27.372	-30.157	33.508	-8.585	129.061	-93.714	187.165	27.274	-55.132	-78.736	143.317	161.352	-84.042	204.587	208.709	0.0012649	0.00060803	0.00023382	615.93	8.5943e-06	6.6767e-06	905.47	242.71	6.6787e-06	6.8756e-06	409.26	216.32	112.02	64.794	8.17e-06	128.22	0.00018325	4.3204e-05	1.1581e-05	602.08	5.2027e-07	4.2382e-07	884.9	238.63	5.5068e-07	4.3857e-07	398.32	213.32	110.41	64.333	5.6566e-07	126.85	-19.644	-8.595	-0.785	-81.852	56.764	40.358	-81.750	-76.063	106.611	47.809	-77.361	-72.859	-73.440	-69.005	41.492	-70.682	-8191	255	
1267.673	1	1	0	0	0.052459	0.21886	0.096385	0.087343	0.065128	0.31389	0.19078	0.055333	0.25546	0.050429	0.30215	0.10286	0.16542	0.30338	0.23238	0.22907	-2.1667	-2.1917	-2.3438	-2.5792	-2.1354	-2.4208	-2.5958	-2.1021	-2.4583	-2.2375	-2.2917	-2.6854	-2.0896	-2.4125	-2.2792	-2.225	-75.894	-47.989	184.645	-41.139	212.569	-41.362	242.925	-88.453	264.204	-55.937	233.610	193.186	258.928	171.850	-33.076	189.196	0.0011926	0.00071025	0.00021871	616	9.8737e-06	6.6252e-06	903.27	241.57	7.5542e-06	6.2713e-06	405.28	215.91	112.54	64.903	8.1934e-06	129.34	0.00017975	4.3896e-05	1.2645e-05	600.31	5.3773e-07	4.3605e-07	884.28	237.12	5.1287e-07	4.1842e-07	396.49	212.5	110.3	64.432	5.8464e-07	127.84	-19.564	-12.462	9.848	-81.839	60.431	53.092	-81.798	-76.095	86.042	63.314	-77.068	-72.639	-73.235	-69.084	48.717	-70.470	-8191	255	
1267.769	1	1	0	0	0.10976	0.1223	0.1616	0.21946	0.14063	0.18451	0.077927	0.12391	0.10055	0.040366	0.26732	0.11287	0.28614	0.19521	0.12132	0.25693	-2.075	-2.2792	-2.0104	-2.5042	-1.8125	-2.1833	-2.3812	-2.2021	-2.4854	-2.2875	-2.2271	-2.625	-2.2646	-2.6146	-2.5875	-2.3563	-69.035	149.515	-77.631	128.837	-65.505	202.294	81.891	199.771	-82.431	193.215	248.818	101.330	204.055	217.425	213.049	186.446	0.0011676	0.00061494	0.0001718	616.94	8.7681e-06	5.8633e-06	900.65	243.5	7.857e-06	7.7568e-06	409.34	216.29	112.87	65.16	6.2223e-06	129.27	0.00018549	4.3383e-05	1.2108e-05	602.92	5.1797e-07	4.2159e-07	885.69	239.36	5.4202e-07	4.5609e-07	399.57	213.27	110.88	64.504	5.8064e-07	127.96	-21.469	-3.268	7.150	-81.681	56.514	51.656	-81.884	-76.199	94.992	76.382	-77.086	-72.842	-73.491	-68.984	38.069	-70.676	-8191	255	
1267.865	1	1	0	0	0.13385	0.09334	0.072477	0.13008	0.22292	0.27551	0.11455	0.037565	0.13824	0.16967	0.18895	0.11858	0.3	0.16834	0.090071	0.11962	-2.2417	-2.5	-2.4813	-2.7729	-2.3104	-2.5792	-2.7562	-2.2438	-2.6625	-2.4375	-2.2979	-2.7104	-2.3354	-2.4708	-2.3312	-2.1667	205.603	-58.472	202.689	210.197	210.030	229.508	-42.272	70.485	13.646	190.380	4.683	132.075	-79.531	236.788	212.393	112.000	0.0012208	0.00068866	0.00020753	617.63	9.0222e-06	6.1492e-06	898.81	241.75	6.5737e-06	6.1686e-06	403.73	214.46	110.76	63.98	7.4815e-06	127.63	0.00018649	4.163e-05	1.1471e-05	601.47	4.8967e-07	4.2987e-07	883.37	236.58	5.5132e-07	4.3646e-07	396.07	211.35	108.98	63.537	5.7832e-07	126.11	-20.174	-1.046	2.210	-81.772	59.871	63.174	-81.617	-76.307	93.185	70.749	-77.099	-72.712	-73.372	-69.127	49.839	-70.565	-8191	255	
1267.961	1	1	0	0	0.22112	0.092256	0.29897	0.19189	0.064837	0.21303	0.32783	0.28285	0.094863	0.049198	0.1066	0.26138	0.15159	0.20706	0.098931	0.12453	-1.9917	-2.1729	-1.8292	-2.7042	-2.0812	-2.2542	-2.5708	-2.2104	-2.2854	-2.3917	-2.3292	-2.5979	-2.3833	-2.2313	-2.6333	-2.4146	91.010	251.280	6.922	207.183	157.759	16.384	217.674	108.828	203.565	59.818	219.237	214.037	-91.782	-93.661	209.537	-42.922	0.0011743	0.00075314	0.00016935	609.58	9.3199e-06	6.62e-06	896.49	237.56	7.7091e-06	6.0146e-06	402.86	212.56	109.86	63.381	8.4124e-06	126.84	0.00018512	4.3526e-05	1.1908e-05	597.13	5.1861e-07	4.6497e-07	879.51	233.77	5.5259e-07	3.8655e-07	393.82	209.33	108.13	62.928	5.6566e-07	125.45	-21.091	-6.689	2.804	-81.835	57.679	48.510	-81.781	-76.354	94.468	60.200	-77.462	-72.972	-73.029	-69.014	49.928	-70.590	-8191	255	
1268.057	1	1	0	0	0.29651	0.17055	0.10035	0.10689	0.12279	0.22232	0.18614	0.17474	0.18225	0.069351	0.13571	0.14935	0.085376	0.069294	0.077518	0.13594	-1.7979	-2.2833	-2.0417	-2.4833	-2.2687	-2.1562	-2.5187	-2.2313	-2.05	-2.4062	-2.1104	-2.4542	-2.3979	-2.3708	-2.5083	-2.3979	-86.196	-55.410	124.809	220.548	152.486	119.064	210.009	200.333	133.935	180.015	-35.041	166.396	-52.574	-69.454	35.355	199.147	0.0012251	0.00058865	0.00019935	612.16	8.0754e-06	6.5006e-06	898.94	240.32	6.5894e-06	6.1659e-06	404.25	213.45	110.71	63.703	6.5266e-06	127.46	0.00018199	4.126e-05	1.2235e-05	597	4.9477e-07	4.3999e-07	878.77	235.19	5.2776e-07	3.8615e-07	394.55	210.44	108.74	63.348	5.6889e-07	125.94	-20.484	-4.701	5.419	-81.874	72.552	56.096	-81.825	-76.022	93.420	60.286	-77.355	-73.116	-73.688	-69.129	36.609	-70.875	-8191	255	
1268.178	1	1	0	0	0.15228	0.12558	0.25204	0.20716	0.058552	0.14945	0.032632	0.11073	0.091042	0.22126	0.25333	0.40848	0.043994	0.14143	0.12999	0.083965	-1.8354	-2.5167	-1.95	-2.5271	-2.6125	-2.1729	-2.7104	-2.4875	-2.3146	-2.7042	-2.2917	-2.8042	-2.7896	-2.2958	-2.8125	-2.4875	60.341	159.141	76.878	-19.789	134.203	-87.720	2.330	-4.900	7.232	57.525	78.157	242.836	175.632	-55.268	220.000	198.677	0.0012083	0.00065203	0.00019533	611.29	7.4194e-06	7.0322e-06	899.33	239.03	5.9176e-06	6.7038e-06	402.86	215.04	110.82	63.85	7.3777e-06	127.89	0.00018561	4.1976e-05	1.2098e-05	598.13	4.7323e-07	4.204e-07	881.76	234.53	5.5055e-07	4.0156e-07	394.74	211	108.66	63.409	5.6269e-07	126.19	-20.801	-9.786	-3.175	-81.660	42.643	46.005	-81.784	-76.138	89.586	63.385	-77.619	-72.920	-73.387	-69.078	46.751	-70.720	-8191	255	
1268.274	1	1	0	0	0.15417	0.11595	0.24534	0.24447	0.12407	0.14466	0.19007	0.28759	0.11949	0.22759	0.066658	0.40466	0.018185	0.17166	0.16269	0.33094	-2.0812	-2.7917	-2.3312	-2.5167	-2.5354	-2.1312	-2.8417	-2.4813	-2.3333	-2.5854	-2.3667	-2.525	-2.6521	-2.2542	-2.65	-2.5667	-44.319	-48.131	200.653	254.433	259.154	189.326	264.983	195.729	57.991	-70.183	199.094	252.935	61.706	-65.139	188.461	265.161	0.0011722	0.00077166	0.00019885	611.56	7.3772e-06	7.0307e-06	901.69	237.84	8.4235e-06	6.7783e-06	403.13	212.57	109.69	63.34	4.4139e-06	127.1	0.00018352	4.3121e-05	1.2509e-05	596.19	4.7361e-07	4.5248e-07	881.5	233.71	5.354e-07	3.9735e-07	394.22	209.69	107.93	62.763	5.4396e-07	125.45	-21.877	-10.971	10.070	-82.007	55.751	39.352	-81.628	-76.243	93.410	65.623	-77.430	-73.017	-73.417	-69.043	39.286	-70.729	-8191	255	
1268.370	1	1	0	0	0.17342	0.12834	0.14483	0.094629	0.096054	0.099985	0.16801	0.24825	0.19137	0.045254	0.14865	0.08313	0.29159	0.069631	0.21791	0.26108	-1.8958	-2.5875	-2.1458	-2.4896	-2.6667	-2.2896	-2.75	-2.5687	-1.9792	-2.7021	-2.2333	-2.3646	-2.4833	-2.3375	-2.6292	-2.4958	-16.558	1.169	195.344	214.221	126.310	54.962	43.407	181.550	53.517	37.174	-70.533	141.878	217.282	-89.056	-53.638	214.487	0.0012117	0.00069444	0.00020926	610.92	8.8314e-06	6.8723e-06	893.07	236.29	7.2993e-06	5.7965e-06	399.04	209.54	107.88	61.693	7.454e-06	123.97	0.00018535	3.7181e-05	1.2145e-05	595.61	4.7935e-07	4.0371e-07	875.46	231.72	5.5272e-07	4.0367e-07	389.39	206.19	105.78	61.244	5.7935e-07	122.03	-20.292	-5.105	1.049	-81.949	57.169	49.509	-81.769	-76.228	101.063	63.544	-77.243	-72.862	-73.181	-68.943	42.777	-70.785	-8191	255	
1268.466	1	1	0	0	0.094381	0.21576	0.22246	0.056369	0.074782	0.14301	0.19305	0.32714	0.072427	0.23359	0.24105	0.352	0.10957	0.18428	0.075714	0.11392	-1.725	-2.7333	-2.325	-2.3875	-2.65	-2.1729	-2.6375	-2.4188	-2.2354	-2.6417	-2.2917	-2.4896	-2.6896	-2.375	-2.5312	-2.8729	-25.417	48.254	-3.484	212.695	186.576	128.099	244.826	258.919	240.848	-61.728	-7.400	224.085	247.892	-86.527	224.657	193.144	0.0011511	0.00066365	0.0001923	601.8	7.8242e-06	6.5442e-06	889.56	230.7	7.45e-06	7.8427e-06	387.17	203.12	103	59.242	6.7813e-06	118.95	0.00017963	4.0664e-05	1.1665e-05	588.07	4.8024e-07	4.3605e-07	868.31	226.15	5.5437e-07	4.042e-07	379.17	199.42	101.4	58.487	5.3027e-07	117.58	-20.842	-7.045	0.899	-81.977	68.049	52.762	-81.750	-76.064	99.724	59.828	-77.642	-72.848	-73.257	-68.748	47.042	-70.600	-8191	255	
1268.561	1	1	0	0	0.14647	0.084295	0.21731	0.19309	0.03094	0.10486	0.13036	0.056329	0.36428	0.49971	0.12873	0.1455	0.076561	0.29568	0.033378	0.14308	-1.7354	-2.5125	-2.3937	-2.3875	-3.0312	-2.2604	-2.55	-2.5729	-2.0438	-2.4271	-2.3812	-2.2583	-2.4437	-2.4083	-2.4521	-2.7167	-81.550	92.721	144.699	-10.219	117.640	-61.638	115.156	248.616	113.892	259.474	48.301	34.413	99.858	255.335	189.132	172.373	0.0010978	0.00058988	0.00019613	594.68	6.8925e-06	5.4035e-06	878.94	226.85	6.9576e-06	7.0149e-06	385.67	201.38	103.08	59.081	7.0568e-06	120.07	0.0001738	3.8588e-05	1.0778e-05	580.54	4.2848e-07	3.9582e-07	862.75	221.93	5.2331e-07	3.9221e-07	377.62	198.42	101.16	58.542	5.0793e-07	118.88	-22.459	-3.562	-0.967	-81.907	58.156	55.402	-81.912	-76.298	97.376	60.160	-77.398	-72.866	-73.669	-69.030	27.828	-70.566	-8191	255	
1268.657	1	1	0	0	0.0959	0.26348	0.07276	0.27278	0.24667	0.25488	0.17951	0.34117	0.011231	0.20656	0.13021	0.43867	0.13868	0.20973	0.086281	0.37539	-1.6208	-2.4604	-2.2667	-2.3125	-2.4313	-2.1729	-2.4083	-2.5646	-2.0479	-2.6458	-2.5938	-2.3104	-2.7208	-2.4792	-2.4958	-2.9583	170.092	174.929	82.230	201.255	-31.875	126.339	163.086	265.631	33.269	261.860	125.049	206.496	162.275	244.903	184.238	241.559	0.0011473	0.00059823	0.00015972	597.38	7.3697e-06	7.2301e-06	886.57	229.91	5.5135e-06	5.4294e-06	393.53	206.9	105.75	61.276	7.2503e-06	124.07	0.00017754	3.6811e-05	1.1338e-05	582.52	4.2848e-07	4.0726e-07	867.42	225.8	5.0752e-07	3.7983e-07	385.14	203.72	104.29	60.731	5.6798e-07	122.38	-22.067	-2.256	0.045	-81.844	55.862	49.336	-81.819	-76.346	96.228	65.218	-77.407	-72.979	-73.378	-69.034	47.001	-70.564	-8191	255	
1268.778	1	1	0	0	0.25617	0.16658	0.18965	0.24855	0.13837	0.21187	0.15529	0.27671	0.16447	0.17696	0.22157	0.058588	0.13372	0.21319	0.09102	0.2567	-2.0125	-2.5667	-2.5583	-2.1979	-2.5563	-2.25	-2.4313	-2.7333	-2.1542	-2.4771	-2.6875	-2.3625	-2.7458	-2.4813	-2.4729	-2.9729	189.768	143.399	152.818	209.414	-60.117	201.857	-88.973	64.665	-87.332	40.668	173.928	169.974	64.392	129.611	237.615	228.005	0.0011709	0.00063545	0.00019056	599.87	8.5843e-06	6.8583e-06	888.13	233.89	8.0363e-06	6.8061e-06	393.95	208.37	106.67	61.499	8.5752e-06	123.76	0.00017677	4.052e-05	1.1228e-05	586.79	4.8202e-07	4.1422e-07	870.22	229.4	5.3336e-07	3.6745e-07	385.46	205.07	104.96	60.958	5.5882e-07	121.98	-21.006	-9.244	2.355	-81.891	60.103	50.424	-81.726	-76.283	81.548	55.361	-77.559	-73.079	-73.351	-68.930	40.180	-70.665	-8191	255	
1268.874	1	1	0	0	0.20418	0.23778	0.15496	0.095172	0.15361	0.12985	0.31783	0.14476	0.094174	0.16629	0.1376	0.17973	0.083145	0.18861	0.06718	0.47209	-1.6812	-2.3333	-2.5208	-2.325	-2.625	-2.425	-2.3854	-2.5292	-2.1063	-2.2417	-2.5229	-2.2479	-2.6042	-2.4042	-2.0542	-2.7687	16.312	-4.480	95.776	260.342	106.779	54.075	162.086	176.330	-71.891	192.015	-61.714	260.911	-30.563	255.448	-26.115	228.652	0.0011304	0.0006112	0.00023966	600.11	7.0879e-06	6.8122e-06	890.04	232.76	6.1156e-06	6.8605e-06	396.27	209.38	108.49	62.447	7.581e-06	125.69	0.00017487	4.1069e-05	1.1798e-05	585.67	4.5436e-07	4.016e-07	868.37	228.79	5.0663e-07	4.2013e-07	387.66	206.32	106.57	61.963	5.818e-07	124.17	-21.624	-6.203	-0.627	-81.930	54.324	42.826	-81.791	-76.120	81.731	65.247	-77.374	-73.221	-73.339	-69.145	41.723	-70.813	-8191	255	
1268.945	1	1	0	0	0.16274	0.25383	0.14978	0.062536	0.15821	0.10847	0.079942	0.18128	0.066615	0.21262	0.036715	0.27684	0.21966	0.30103	0.10296	0.10592	-1.6729	-2.2438	-2.5521	-2.1542	-2.5104	-2.5667	-2.0667	-2.7458	-2.3854	-2.5521	-2.9104	-2.2812	-2.3542	-2.375	-1.9146	-2.6958	100.903	153.304	-65.703	-54.051	246.328	123.850	233.073	-5.292	160.448	3.418	172.626	264.948	256.205	148.340	254.937	-90.047	0.0011465	0.00063473	0.00016996	607.94	6.6071e-06	6.8469e-06	895.12	237.52	7.2511e-06	5.8025e-06	403.44	215.45	111.57	64.745	7.8519e-06	128.83	0.0001829	4.2608e-05	1.0187e-05	591.47	4.7705e-07	3.8096e-07	874.05	233.41	5.3833e-07	4.3317e-07	394.99	211.74	109.58	63.946	6.0311e-07	127.63	-19.831	-3.321	1.825	-81.958	59.290	47.669	-81.742	-76.024	100.430	61.748	-77.233	-73.212	-73.480	-69.137	51.327	-70.811	-8191	255	
1269.041	1	1	0	0	0.23683	0.18952	0.31635	0.12907	0.12146	0.27204	0.19257	0.18924	0.10025	0.090765	0.11327	0.13674	0.2698	0.10607	0.037122	0.29452	-1.8438	-2.1312	-2.4604	-2.2062	-2.6479	-2.4	-2.1063	-2.425	-2.0875	-2.1958	-2.7208	-2.2938	-2.575	-2.6979	-2.1063	-2.6833	193.161	228.969	36.244	-85.291	120.372	62.508	-45.517	184.102	260.656	127.910	215.364	263.230	264.813	-81.198	-32.868	204.127	0.0012305	0.00071976	0.0002103	613.43	8.5399e-06	6.6811e-06	899.42	240.58	7.1213e-06	7.1475e-06	406.2	216.65	112.08	64.795	7.1998e-06	129.52	0.00019014	4.6473e-05	1.1895e-05	598.87	5.1504e-07	3.9214e-07	880	235.96	5.4597e-07	4.4871e-07	397.57	213.61	110.18	64.362	6.0066e-07	128.17	-20.101	-3.445	-10.075	-82.019	60.037	51.947	-81.696	-76.311	97.417	60.821	-77.302	-73.005	-73.594	-69.023	37.396	-70.715	-8191	255	
1269.162	1	1	0	0	0.18573	0.21302	0.064541	0.13896	0.20708	0.068366	0.29668	0.10321	0.17903	0.19047	0.15574	0.20916	0.094187	0.52517	0.11757	0.29172	-2.0167	-1.9979	-2.4292	-2.0292	-2.4021	-2.725	-2.1479	-2.6729	-2.3875	-2.2646	-2.8979	-2.3875	-2.3792	-2.5771	-1.9979	-2.5521	262.429	-1.572	122.767	188.320	222.658	134.850	206.362	263.536	43.440	-10.670	75.240	180.235	87.243	-66.739	48.579	187.609	0.0011884	0.00056462	0.0002155	612.26	8.0265e-06	6.8611e-06	899.55	239.09	7.3414e-06	6.2148e-06	404.2	214.59	110.15	64.144	7.766e-06	127.82	0.00018628	4.2477e-05	1.2035e-05	597.5	4.9911e-07	3.9582e-07	878.03	234.48	5.3082e-07	4.2962e-07	394.47	210.95	108.84	63.552	6.1228e-07	126.47	-20.110	-12.325	5.027	-81.842	55.062	50.788	-81.723	-76.201	99.635	67.411	-77.194	-72.923	-73.529	-69.059	35.931	-70.838	-8191	255	
1269.258	1	1	0	0	0.24804	0.11373	0.07832	0.22415	0.17559	0.06265	0.11678	0.20294	0.2633	0.25404	0.2123	0.13067	0.13702	0.16871	0.19523	0.14398	-1.9542	-2.1146	-2.725	-2.4	-2.4021	-2.8688	-2.2646	-2.5375	-2.2896	-2.0542	-2.5917	-2.5229	-2.2875	-2.8625	-2.2875	-2.5708	52.361	254.802	159.679	208.694	-21.992	10.738	-91.684	223.274	-0.475	228.898	118.506	215.717	75.874	255.237	164.371	212.887	0.001102	0.00077083	0.00021053	609.26	7.6619e-06	8.049e-06	894.2	237.43	7.2162e-06	6.7835e-06	400.56	213.28	110.21	63.77	6.549e-06	127.68	0.00018451	4.491e-05	1.1228e-05	594.41	4.8457e-07	4.2619e-07	873.9	233.57	5.2598e-07	4.4845e-07	393.65	209.91	108.17	63.125	5.53e-07	126.21	-22.228	-16.012	-6.611	-81.864	50.654	52.067	-81.577	-76.153	99.953	66.788	-77.326	-73.204	-73.624	-69.054	48.299	-70.720	-8191	255	
1269.354	1	1	0	0	0.14905	0.16647	0.16183	0.30839	0.20362	0.20515	0.052023	0.10625	0.14134	0.17515	0.23043	0.15431	0.048	0.049906	0.046873	0.20609	-1.8271	-1.8917	-2.4083	-2.3646	-2.1479	-2.6854	-2.1042	-2.2021	-2.4604	-2.1417	-2.5896	-2.4375	-2.1021	-2.8729	-2.2792	-2.6021	148.909	190.807	165.335	-87.297	-1.891	191.289	28.038	166.138	86.339	173.036	-69.918	94.883	-26.135	199.233	19.624	236.960	0.0012261	0.00059994	0.00021991	610.13	1.0937e-05	7.3748e-06	896.02	236.82	7.7986e-06	6.4573e-06	402.22	213.89	110.19	63.663	7.5882e-06	128.17	0.00018091	4.3538e-05	1.1882e-05	595.2	5.3888e-07	3.7334e-07	876.24	233.44	4.9669e-07	4.2593e-07	393.49	210.34	108.18	63.079	5.7935e-07	126.39	-18.067	-1.477	10.508	-82.019	48.606	54.202	-81.794	-76.218	97.099	66.173	-77.111	-73.105	-73.458	-69.107	39.541	-70.641	-8191	255	
1269.451	1	1	0	0	0.27166	0.08586	0.062393	0.075236	0.21479	0.18891	0.21439	0.14386	0.082377	0.25183	0.26639	0.27383	0.20332	0.10051	0.033055	0.37422	-2.1229	-2.0354	-2.2896	-2.3667	-1.9188	-2.7417	-2.4354	-2.5917	-2.5729	-1.8521	-2.6458	-2.625	-2.3375	-2.8125	-2.0854	-2.3542	-6.911	209.708	226.416	260.030	134.860	119.427	-88.754	224.977	-84.210	-81.785	-32.061	263.404	264.722	-77.115	235.369	196.364	0.0012209	0.00071071	0.00021294	606.88	7.3363e-06	5.5557e-06	899.63	235.82	7.3859e-06	5.5829e-06	402.07	213.98	109.75	63.907	7.8393e-06	128.76	0.0001815	4.5626e-05	1.2432e-05	592.49	5.0089e-07	3.8754e-07	878.15	232.79	5.214e-07	4.0683e-07	393.77	210.83	108.03	63.259	5.7535e-07	127.36	-21.123	1.126	-6.814	-81.863	60.468	52.449	-81.751	-76.183	99.825	66.750	-77.428	-73.040	-73.457	-69.095	38.506	-70.751	-8191	255	
1269.569	1	1	0	0	0.28897	0.13127	0.11099	0.23754	0.064943	0.1633	0.25126	0.060603	0.19549	0.15178	0.11672	0.15086	0.2125	0.16137	0.090249	0.19906	-2.1688	-2.4292	-2.4771	-2.5729	-2.1792	-2.4625	-2.2146	-2.2729	-2.6417	-2.1646	-2.65	-2.6	-2.3438	-2.8292	-2.4	-2.1875	241.921	186.444	89.255	252.059	6.932	175.692	53.090	102.874	105.367	-60.874	123.363	14.667	231.021	229.098	250.424	204.949	0.0012019	0.00057695	0.00020897	608.52	8.4102e-06	6.2244e-06	902.54	238.5	6.992e-06	6.1377e-06	405.21	214.66	110.57	63.784	7.8551e-06	128.57	0.00018339	4.4994e-05	1.1758e-05	595.25	5.2907e-07	4.091e-07	881.59	234.17	5.2356e-07	4.2698e-07	395.58	211.09	108.43	63.305	5.933e-07	126.99	-19.640	-5.474	5.546	-81.844	67.776	52.488	-81.713	-76.146	87.703	49.703	-76.963	-73.036	-73.506	-69.236	30.577	-70.682	-8191	255	
1269.643	1	1	0	0	0.38614	0.1205	0.13804	0.20343	0.14051	0.22688	0.052301	0.09776	0.3211	0.08032	0.30389	0.37548	0.079428	0.17897	0.15259	0.39996	-2.2208	-2.0812	-2.3896	-2.3875	-2.0187	-2.5729	-2.4417	-2.5104	-2.6396	-2.2979	-2.4333	-2.7708	-2.2208	-2.6333	-2.2792	-2.1437	218.227	120.363	9.071	120.003	229.677	39.934	-46.257	261.612	7.956	151.376	170.788	200.548	81.956	-58.161	246.408	158.109	0.0012123	0.0006799	0.00019113	610.13	8.6162e-06	7.4654e-06	896.52	238.08	6.858e-06	7.168e-06	403.97	213.87	110.53	63.982	6.328e-06	128.49	0.00018504	4.3252e-05	1.1305e-05	595.02	5.0918e-07	3.8543e-07	877.63	233.72	5.1121e-07	4.3712e-07	395.25	210.99	108.31	63.433	5.7405e-07	126.81	-18.639	-1.799	0.509	-81.841	55.767	51.337	-81.942	-76.213	90.321	66.603	-77.232	-72.962	-73.476	-69.107	39.472	-70.617	-8191	255	
1269.739	1	1	0	0	0.023943	0.33947	0.15397	0.053789	0.14545	0.17408	0.12298	0.20447	0.17588	0.0405	0.1654	0.14623	0.28116	0.06122	0.15884	0.15873	-2.0354	-1.9792	-2.3708	-2.5021	-2.0792	-2.6229	-2.6937	-2.3312	-2.7	-2.1063	-2.3312	-2.5708	-2.0438	-2.5021	-2.2396	-2.3979	-75.253	39.613	156.007	200.755	196.403	130.570	164.341	263.441	162.750	2.930	89.591	88.953	-80.942	-86.247	-50.446	163.317	0.0012051	0.00068323	0.00023779	608.99	7.0926e-06	7.9528e-06	898.76	236.95	7.9308e-06	5.0814e-06	402.93	213.03	109.93	63.37	7.6825e-06	128.01	0.00017979	4.2405e-05	1.2118e-05	594.01	4.731e-07	4.3223e-07	877.16	232.84	5.1197e-07	4.1276e-07	393.21	209.86	107.68	62.772	5.5287e-07	126.37	-20.388	-5.645	11.294	-81.920	64.741	39.508	-81.734	-76.282	89.354	74.559	-77.067	-72.890	-73.651	-68.992	37.052	-70.682	-8191	255	
1269.858	1	1	0	0	0.024562	0.044648	0.28862	0.30625	0.17254	0.18737	0.1363	0.15809	0.19242	0.13914	0.22059	0.35253	0.32079	0.24913	0.17177	0.37199	-2.2	-2.3604	-2.1417	-2.7979	-2.1542	-2.2771	-2.4646	-2.3375	-2.7708	-2.3208	-2.0729	-2.6021	-2.2667	-2.2875	-2.4813	-2.2375	40.850	237.617	263.349	-25.957	150.908	69.709	-62.325	236.444	31.467	-59.030	114.431	196.303	251.360	-31.889	-9.055	196.140	0.001239	0.0005286	0.0001856	604.6	7.6979e-06	7.4811e-06	896.69	235.15	7.1662e-06	6.9409e-06	399.92	212.1	108.4	62.902	8.5484e-06	127.27	0.00018349	4.0723e-05	1.1518e-05	590.9	4.8955e-07	4.3013e-07	875.92	231.3	5.2483e-07	4.2527e-07	391.14	208.68	106.31	62.227	5.5352e-07	125.72	-21.560	2.221	2.785	-82.133	55.310	49.693	-81.759	-76.164	89.268	59.801	-77.263	-72.876	-73.533	-69.212	41.087	-70.625	-8191	255	
1269.954	1	1	0	0	0.078984	0.22082	0.058579	0.14954	0.21997	0.11827	0.18906	0.18221	0.17697	0.04674	0.085474	0.23907	0.061668	0.14063	0.13825	0.27286	-2.2104	-2.3979	-2.3208	-2.6188	-2.1083	-2.1729	-2.6708	-2.1333	-2.5854	-2.3333	-2.275	-2.6437	-2.2396	-2.5312	-2.6146	-2.4792	262.098	82.988	143.222	233.543	-28.880	83.057	-34.159	61.845	155.881	-60.092	136.154	-92.342	37.341	-48.489	188.700	214.047	0.0011848	0.00065666	0.00020089	605.98	8.0716e-06	6.3793e-06	892.4	235.3	5.4062e-06	5.822e-06	400.07	210.85	107.23	62.286	8.2538e-06	126.58	0.00018509	4.1212e-05	1.2215e-05	590.6	5.1007e-07	4.2855e-07	875.06	230.3	5.2662e-07	3.9458e-07	390.25	207.83	105.86	61.72	5.481e-07	125.07	-21.629	-6.315	-0.841	-82.175	64.886	45.979	-81.570	-76.117	84.241	52.146	-77.242	-72.883	-73.684	-69.068	40.427	-70.650	-8191	255	
1270.050	1	1	0	0	0.19096	0.12144	0.11784	0.20868	0.21942	0.13555	0.1179	0.087144	0.15651	0.06968	0.29906	0.31314	0.23321	0.21149	0.11353	0.21385	-2.2208	-2.0833	-1.9771	-2.7729	-2.3458	-2.3375	-2.9396	-2.4292	-2.4437	-2.5979	-2.2417	-2.8229	-2.2583	-2.4437	-2.6875	-2.4229	48.545	-44.875	-26.709	218.301	254.352	175.854	235.026	181.006	246.108	59.084	-73.626	-85.277	186.699	-43.597	44.691	175.354	0.0011819	0.00067052	0.00020546	604.46	6.4334e-06	6.6981e-06	896.84	233.14	5.8899e-06	6.9788e-06	398.7	210.99	107.62	62.479	7.6805e-06	126.51	0.00017928	4.1534e-05	1.2038e-05	589.16	4.7501e-07	4.0147e-07	874.43	229.18	4.6907e-07	4.3475e-07	388.81	207.52	105.78	61.756	5.6385e-07	124.91	-20.840	-5.723	-6.044	-81.818	44.600	65.757	-82.215	-76.032	99.339	58.556	-77.335	-73.121	-73.102	-69.254	43.523	-70.830	-8191	255	
1270.171	1	1	0	0	0.10111	0.17093	0.19742	0.16891	0.15758	0.087557	0.12228	0.15943	0.017366	0.16659	0.11461	0.36753	0.23792	0.28734	0.11535	0.47773	-1.9979	-2.1958	-2.0354	-2.5625	-2.0958	-2.2042	-2.8542	-2.1167	-2.2708	-2.4333	-2.3604	-2.6562	-2.3375	-2.2875	-2.6542	-2.5646	120.952	184.150	209.472	-92.133	247.534	94.185	147.509	168.925	-10.382	80.717	152.452	197.654	137.491	-73.730	95.374	190.168	0.0011727	0.00071917	0.000219	605.07	8.1735e-06	6.1315e-06	891.18	235.33	6.4881e-06	7.5752e-06	403.36	213.18	109.1	63.284	8.509e-06	127.88	0.00018265	4.1415e-05	1.2189e-05	590.2	4.9324e-07	4.2343e-07	873.46	230.72	5.0726e-07	4.1012e-07	392.62	210.04	107.21	62.736	5.2666e-07	126.38	-20.701	-5.383	0.833	-81.919	57.301	45.964	-81.850	-76.496	98.775	63.825	-77.397	-73.006	-73.614	-69.047	41.332	-70.714	-8191	255	
1270.242	1	1	0	0	0.23448	0.18947	0.16267	0.19648	0.24147	0.21429	0.062535	0.1872	0.10003	0.29491	0.28244	0.32687	0.15254	0.14837	0.16153	0.069559	-1.925	-2.4854	-2.2417	-2.5438	-2.3312	-2.1354	-2.7417	-2.5	-2.2354	-2.6479	-2.2917	-2.8	-2.6271	-2.2396	-2.8854	-2.6708	227.190	181.126	250.576	228.069	55.993	93.810	-74.880	255.918	14.419	-86.928	-57.798	210.451	82.120	-85.313	-25.776	87.547	0.0011752	0.00067497	0.00018377	607.99	9.0308e-06	6.5756e-06	898.21	236.18	5.7847e-06	6.5822e-06	406.08	214.58	110.09	63.975	7.9688e-06	129.36	0.00018574	3.9292e-05	1.1451e-05	593.07	5.1415e-07	4.392e-07	877.44	232.46	5.3069e-07	3.9511e-07	394.55	211.61	108.18	63.415	5.419e-07	127.75	-19.113	-1.912	6.537	-81.904	57.624	56.875	-81.807	-76.275	95.637	62.677	-77.435	-72.978	-73.571	-69.150	40.380	-70.573	-8191	255	
1270.339	1	1	0	0	0.34525	0.088054	0.09978	0.062142	0.18531	0.11008	0.10266	0.18515	0.27985	0.083505	0.16475	0.16044	0.1169	0.11465	0.2862	0.19467	-2.05	-2.6667	-1.8771	-2.2958	-2.3396	-2.2292	-2.8417	-2.4979	-2.3375	-2.8542	-2.4917	-2.6583	-2.6063	-2.3833	-2.6729	-2.525	-91.183	-30.449	161.788	170.851	-9.422	170.622	146.956	220.845	77.026	118.206	6.887	-53.432	-74.871	100.031	-76.952	214.802	0.0012092	0.00058902	0.00018138	612.17	7.7121e-06	7.7953e-06	897.17	236.98	9.2259e-06	6.2916e-06	404.84	214.73	109.6	63.676	7.0937e-06	128.78	0.00018602	4.0437e-05	1.1708e-05	594.74	4.5194e-07	4.2934e-07	878.78	232.82	5.4381e-07	3.7812e-07	394.69	211.55	107.74	63.057	5.5365e-07	127.2	-21.437	-6.926	5.800	-81.844	61.195	39.136	-81.798	-76.226	89.883	65.013	-77.470	-72.974	-73.552	-69.150	34.894	-70.793	-8191	255	
1270.435	1	1	0	0	0.16309	0.15558	0.16499	0.18042	0.18995	0.09275	0.14502	0.22793	0.088209	0.35043	0.1203	0.42537	0.22415	0.080281	0.27524	0.19937	-2.0042	-2.6667	-2.0917	-2.325	-2.6583	-2.1979	-2.8042	-2.6104	-2.2938	-2.7188	-2.35	-2.4146	-2.4146	-2.3937	-2.5104	-2.525	264.495	95.739	176.251	259.146	152.858	15.049	218.812	157.101	-66.021	58.529	196.145	-70.056	-91.525	148.578	-90.015	190.969	0.001202	0.00063866	0.00018476	610.19	8.3896e-06	6.9694e-06	892.09	236.06	7.4988e-06	6.8884e-06	403.23	213.58	108.71	63.174	7.8743e-06	127.56	0.00018433	3.9864e-05	1.1631e-05	594.63	4.7807e-07	4.204e-07	874.4	231.53	5.3744e-07	3.9182e-07	392.91	209.88	107.01	62.536	5.8813e-07	126.11	-19.904	3.527	4.672	-81.926	65.229	55.749	-81.724	-76.255	99.038	63.313	-77.357	-72.922	-73.471	-69.134	38.228	-70.704	-8191	255	
1270.554	1	1	0	0	0.11923	0.095607	0.095317	0.017447	0.18886	0.15842	0.39172	0.25504	0.12856	0.23537	0.29817	0.23371	0.16093	0.15334	0.20597	0.14923	-1.7833	-2.3896	-2.3417	-2.4167	-2.7396	-2.1937	-2.7583	-2.5229	-2.2458	-2.7104	-2.475	-2.2458	-2.4521	-2.1583	-2.3396	-2.5333	38.419	-57.495	171.829	58.425	-29.258	-44.633	213.812	185.745	68.334	-92.757	235.187	245.391	59.577	10.841	97.542	208.155	0.0011685	0.00068477	0.00016831	605.9	8.6634e-06	6.7377e-06	893.15	236.12	7.3725e-06	7.6555e-06	400.41	213.06	108.82	63.228	9.6658e-06	127.76	0.00018235	4.1236e-05	1.0731e-05	591.27	4.615e-07	4.179e-07	873.87	231.73	5.6214e-07	4.3278e-07	392.34	209.8	107.21	62.646	6.013e-07	126.55	-19.577	-12.481	-5.624	-82.128	57.696	53.374	-81.721	-76.334	94.362	61.625	-77.328	-73.006	-73.641	-69.104	45.562	-70.730	-8191	255	
1270.650	1	1	0	0	0.3087	0.2295	0.042548	0.10779	0.031158	0.14285	0.15682	0.24664	0.15549	0.15938	0.25582	0.15925	0.22109	0.1801	0.18136	0.28838	-1.8396	-2.5854	-2.3063	-2.4062	-2.7333	-2.1312	-2.4417	-2.4083	-2.0312	-2.3375	-2.3563	-2.2104	-2.775	-2.3688	-2.3187	-2.5333	186.048	30.836	-49.377	203.518	-27.243	211.726	133.074	226.359	98.558	-45.474	-80.992	178.870	-65.162	199.788	153.487	173.282	0.0012017	0.00068402	0.00018702	606.49	7.6765e-06	7.0164e-06	894.94	235.41	8.3409e-06	5.9293e-06	403.43	215.27	109.65	63.578	7.427e-06	128.7	0.00018628	3.9423e-05	1.1605e-05	591.62	4.6851e-07	4.0344e-07	876.39	231.83	5.3171e-07	4.0973e-07	393.62	211.15	107.57	63.029	5.8387e-07	127.36	-21.640	-10.260	-0.093	-81.989	55.561	52.608	-81.620	-76.262	92.097	61.074	-77.410	-72.804	-73.175	-69.280	47.804	-70.634	-8191	255	
1270.746	1	1	0	0	0.2306	0.095081	0.38441	0.19817	0.12632	0.19935	0.081668	0.18778	0.068009	0.1957	0.24249	0.3214	0.22181	0.40617	0.040898	0.060642	-1.5812	-2.4313	-2.4562	-2.2708	-2.6542	-2.0896	-2.475	-2.6146	-2.0687	-2.4813	-2.1813	-2.5187	-2.4625	-2.4188	-2.1063	-2.8563	50.580	-16.723	-76.426	203.337	130.731	-53.440	149.446	72.808	28.359	-20.306	241.084	-88.096	-48.946	-89.921	151.020	153.252	0.0012486	0.00077686	0.00019851	608.52	7.6788e-06	7.6311e-06	897.26	236.6	7.3216e-06	5.1519e-06	403.69	214.92	110.3	63.766	8.1682e-06	130.17	0.00018757	4.4004e-05	1.1201e-05	593.57	4.9197e-07	4.4209e-07	878.58	232.69	5.7016e-07	4.2277e-07	394.97	211.88	108.02	63.204	5.982e-07	128.57	-21.837	-4.201	5.224	-82.271	57.961	47.531	-81.753	-76.295	99.076	70.117	-77.387	-73.039	-73.696	-69.196	47.591	-70.774	-8191	255	
1270.842	1	1	0	0	0.20542	0.024033	0.092899	0.19772	0.013774	0.25337	0.168	0.22503	0.16709	0.17311	0.043898	0.24882	0.18715	0.30183	0.1275	0.34334	-1.6938	-2.5479	-2.5021	-2.1521	-2.5646	-2.3042	-2.2812	-2.5875	-2.1208	-2.6229	-2.4729	-2.1396	-2.8104	-2.5167	-2.1042	-2.6167	122.824	-6.148	49.810	-49.263	217.418	231.028	60.292	-26.278	-14.754	25.874	224.818	220.689	215.017	-37.368	135.539	226.591	0.0012021	0.00066948	0.0001793	609.49	8.3353e-06	7.506e-06	900.1	235.99	9.3282e-06	7.0396e-06	402	214.72	109.59	63.563	7.7318e-06	129.43	0.00018933	4.4528e-05	1.1154e-05	594.57	4.7004e-07	4.2053e-07	878.71	232.49	5.5959e-07	4.2316e-07	394.31	211.11	107.74	63.136	6.0234e-07	127.56	-21.499	-11.176	-9.927	-82.112	55.575	49.566	-81.675	-76.217	102.137	55.889	-77.181	-73.101	-73.522	-69.160	43.279	-70.906	-8191	255	
1270.938	1	1	0	0	0.30158	0.11184	0.19681	0.25409	0.093664	0.074794	0.072446	0.041529	0.018245	0.12349	0.259	0.11269	0.24832	0.26212	0.21839	0.23663	-1.8083	-2.4313	-2.5062	-2.1479	-2.6833	-2.3167	-2.2833	-2.5417	-2.1646	-2.3458	-2.7167	-2.3083	-2.7979	-2.6604	-2.0333	-2.9604	193.932	68.945	28.283	80.046	80.609	131.503	106.025	-37.942	78.351	164.582	240.714	173.565	-82.666	246.446	169.763	231.846	0.0011564	0.000632	0.00019589	607.08	8.83e-06	6.9198e-06	896.73	237.06	6.1418e-06	6.5798e-06	403.17	214.21	110.19	63.838	7.6819e-06	129.25	0.00018382	3.9674e-05	1.1948e-05	593.42	4.926e-07	4.1843e-07	877.46	232.67	5.5437e-07	4.0696e-07	394.15	211.46	108.16	63.167	6.0712e-07	127.73	-21.795	-4.430	0.686	-81.786	43.131	44.191	-81.744	-76.152	89.106	62.912	-77.194	-72.849	-73.596	-69.233	44.042	-70.851	-8191	255	
1271.034	1	1	0	0	0.26461	0.13978	0.044028	0.17557	0.19265	0.22258	0.32868	0.15675	0.30256	0.22496	0.18359	0.089288	0.14316	0.19795	0.2495	0.22818	-1.9	-2.3625	-2.4479	-2.075	-2.4979	-2.4604	-2.475	-2.8458	-2.4479	-2.4	-2.6063	-2.0792	-2.475	-2.2771	-2.0854	-2.7375	151.371	178.781	152.891	254.276	172.917	253.730	240.725	222.436	18.433	-2.339	-35.259	262.485	230.237	236.603	60.832	179.837	0.0011958	0.00065605	0.00020525	606.28	9.026e-06	6.9238e-06	899.21	236.91	7.0579e-06	7.2275e-06	404.49	215.08	110.39	64.19	8.8308e-06	129.48	0.00018649	4.3264e-05	1.1471e-05	593.39	4.9018e-07	4.0318e-07	876.19	233.02	5.2394e-07	4.3185e-07	394.87	212.23	108.38	63.604	6.252e-07	128.32	-20.387	-4.857	16.841	-82.015	53.570	52.015	-81.614	-76.163	103.584	62.021	-77.324	-72.986	-73.535	-69.119	39.510	-70.702	-8191	255	
1271.131	1	1	0	0	0.18748	0.1643	0.13745	0.037178	0.17956	0.27313	0.24629	0.15051	0.077787	0.28595	0.16503	0.18387	0.14274	0.3111	0.10673	0.30595	-2.2167	-2.3271	-2.5875	-2.1188	-2.4104	-2.4583	-2.4188	-2.7375	-2.2687	-2.3729	-2.7771	-2.1083	-2.3104	-2.4854	-2.2417	-2.7458	142.104	228.122	48.308	230.091	265.573	16.850	248.599	195.730	176.422	155.267	30.028	209.108	-20.072	238.788	-66.661	247.298	0.001209	0.00067237	0.00018663	609.04	6.5228e-06	7.9953e-06	899.52	238.7	7.5113e-06	5.9701e-06	406.74	216.06	109.94	64.087	8.4113e-06	130.62	0.00018821	4.2417e-05	1.1108e-05	594.06	4.8674e-07	4.2435e-07	877.46	233.87	5.3005e-07	4.1842e-07	396.78	213.03	107.74	63.544	5.8581e-07	128.83	-20.211	-18.412	2.749	-81.948	65.711	59.448	-81.719	-76.320	78.459	61.993	-77.410	-72.816	-73.327	-69.308	43.964	-70.774	-8191	255	
1271.251	1	1	0	0	0.27766	0.079652	0.21736	0.11517	0.19036	0.18554	0.2423	0.10517	0.1282	0.23247	0.13212	0.26851	0.22562	0.17143	0.22412	0.3518	-2.0604	-2.0375	-2.4813	-2.2	-2.4396	-2.6396	-2.2396	-2.5958	-2.2271	-2.1875	-2.8271	-2.4292	-2.5563	-2.6833	-2.1417	-2.8833	248.564	178.825	238.056	246.943	155.350	-1.882	-49.536	198.399	64.035	-46.630	222.232	249.824	-88.569	-87.434	-25.549	205.167	0.0012544	0.00063876	0.00016681	606.65	7.8906e-06	7.5621e-06	894.2	237.41	8.0758e-06	7.5628e-06	403.7	216.84	109.93	63.871	8.7448e-06	129.03	0.00018907	4.2119e-05	1.1191e-05	593.83	4.7998e-07	4.2119e-07	877.72	233.53	5.4559e-07	4.6755e-07	395.49	212.8	107.79	63.393	6.1577e-07	127.75	-19.204	-0.897	3.013	-81.869	46.770	45.302	-81.718	-76.203	91.135	62.067	-77.220	-72.856	-73.373	-69.387	48.083	-70.869	-8191	255	
1271.347	1	1	0	0	0.14841	0.20188	0.23535	0.40797	0.14868	0.40655	0.20396	0.079197	0.32119	0.1422	0.25289	0.18662	0.029996	0.31459	0.11833	0.14819	-1.9667	-2.1562	-2.5375	-2.2667	-2.1292	-2.4938	-2.2604	-2.5896	-2.2229	-2.1937	-2.7062	-2.4521	-2.4562	-2.5354	-2.0542	-2.7417	3.535	124.822	32.053	248.656	-90.469	103.012	-69.720	228.197	-41.375	-74.059	218.465	138.601	10.374	157.229	36.559	246.914	0.0012028	0.00081689	0.00019356	604.75	8.5446e-06	8.223e-06	891.96	236.94	7.1267e-06	7.0933e-06	404.12	214.33	109.5	63.856	8.3691e-06	129.14	0.00018421	4.5208e-05	1.1128e-05	591.52	5.0357e-07	4.3986e-07	872.46	232.59	5.4762e-07	4.4977e-07	394.01	211.16	107.69	63.15	6.0647e-07	127.5	-21.070	-4.801	5.682	-82.009	68.810	51.605	-81.637	-76.193	80.622	62.428	-77.359	-73.079	-73.438	-69.206	44.742	-70.853	-8191	255	
1271.444	1	1	0	0	0.15232	0.1008	0.10249	0.12345	0.13761	0.092575	0.27243	0.25192	0.069435	0.067826	0.34862	0.30035	0.10805	0.070527	0.21225	0.2256	-2.2208	-2.1604	-2.6292	-2.2958	-2.0042	-2.4313	-2.3646	-2.6771	-2.6229	-2.025	-2.4292	-2.5	-2.3042	-2.7	-2.2562	-2.6208	-24.102	215.288	150.454	127.043	-93.689	54.705	92.126	176.446	-26.708	231.514	-62.480	-32.062	207.384	195.483	-60.107	210.019	0.0011959	0.00068535	0.00017144	604.06	8.6136e-06	6.4078e-06	896.57	237.32	7.8235e-06	6.123e-06	405.4	215.53	110.6	64.313	7.0742e-06	129.98	0.00018703	4.6306e-05	1.0644e-05	591.3	5.3264e-07	4.0095e-07	874.63	233.16	5.1834e-07	4.5135e-07	396	212.68	108.54	63.711	5.8839e-07	128.59	-18.912	-7.772	2.745	-81.892	54.181	59.011	-81.867	-76.339	98.720	71.567	-77.310	-73.043	-73.737	-69.259	52.947	-70.824	-8191	255	
1271.540	1	1	0	0	0.035853	0.15946	0.19525	0.23402	0.19966	0.091354	0.30449	0.14663	0.15606	0.29593	0.073264	0.21359	0.41369	0.20702	0.11722	0.12638	-2.4833	-2.2458	-2.4958	-2.4729	-2.3646	-2.5812	-2.35	-2.2833	-2.5417	-2.1688	-2.8083	-2.7375	-2.175	-2.7729	-2.3312	-2.6146	-34.714	259.748	40.776	133.620	-44.211	71.136	112.545	-68.453	51.117	224.386	204.008	-10.489	238.889	170.387	17.076	166.430	0.0012348	0.00074119	0.00016606	603.95	8.9062e-06	7.6341e-06	894.47	237.63	7.2958e-06	7.0009e-06	404.83	216.42	110.73	64.056	7.0905e-06	129.44	0.00018501	4.2679e-05	1.0534e-05	591.59	5.1237e-07	4.1896e-07	875.82	233.48	5.3566e-07	4.4423e-07	395.95	213.03	108.59	63.423	6.0699e-07	128.14	-21.000	-2.176	-0.365	-81.966	53.932	43.090	-81.531	-76.158	87.255	48.159	-77.380	-72.832	-73.606	-69.220	48.359	-70.732	-8191	255	
1271.636	1	1	0	0	0.11801	0.13454	0.23471	0.032726	0.17885	0.21509	0.2376	0.17471	0.27841	0.20611	0.25459	0.09951	0.25701	0.29919	0.12854	0.23706	-2.2042	-2.1042	-2.1771	-2.7896	-2.3125	-2.8229	-2.5062	-2.2979	-2.5292	-2.1562	-2.6583	-2.8021	-2.3458	-3.1104	-2.1354	-2.5104	138.466	-2.923	101.300	168.331	29.012	234.731	262.421	198.677	247.747	38.658	-81.055	253.941	-84.243	219.846	123.779	151.354	0.0012277	0.00068853	0.00021906	605.57	7.9739e-06	7.1629e-06	895.48	237.25	7.9394e-06	6.4928e-06	406.31	216.72	109.19	63.652	6.8853e-06	129.34	0.00018551	4.6497e-05	1.2115e-05	591.28	4.8763e-07	3.9608e-07	876.54	232.79	5.4355e-07	4.2882e-07	397.15	213.15	108	63.152	5.9756e-07	127.85	-20.372	-4.816	-0.185	-81.682	57.067	46.970	-81.690	-76.342	96.453	64.670	-77.320	-72.957	-73.408	-69.213	43.301	-70.548	-8191	255	
1271.730	1	1	0	0	0.15444	0.080066	0.1715	0.24267	0.18291	0.13032	0.12074	0.17746	0.18278	0.045799	0.046717	0.19733	0.14896	0.1347	0.14604	0.18273	-2.3917	-2.3208	-2.4458	-2.6396	-2.0604	-2.5167	-2.3833	-2.1479	-2.6125	-2.2542	-2.5583	-2.6437	-1.9917	-2.7812	-2.5229	-2.3667	-32.426	252.976	-14.515	257.504	-56.969	-33.760	217.249	164.704	55.541	68.732	99.180	-62.160	-8.704	148.515	-6.663	218.596	0.0012348	0.0007565	0.00017941	604.04	8.6592e-06	6.2363e-06	890.27	235.15	6.9081e-06	6.6602e-06	403.69	215.13	109.71	63.186	8.1539e-06	128.5	0.00017949	4.4242e-05	1.1214e-05	589.64	5.0561e-07	3.9253e-07	872.55	231.57	4.9784e-07	4.2593e-07	394.94	211.59	107.49	62.619	5.4487e-07	126.8	-22.389	-5.700	0.901	-82.006	49.573	53.622	-81.772	-76.134	100.200	61.410	-77.442	-73.005	-73.621	-69.210	48.525	-70.807	-8191	255	
1271.851	1	1	0	0	0.2449	0.068907	0.16268	0.072779	0.13845	0.18121	0.19013	0.15663	0.13143	0.22859	0.066567	0.11154	0.097762	0.31797	0.065743	0.38641	-2.3104	-2.25	-2.2667	-2.6312	-2.0187	-2.4333	-2.5604	-2.5271	-2.8104	-2.3125	-2.2792	-2.6771	-2.175	-2.4917	-2.2542	-2.2938	-50.238	149.465	9.762	48.281	50.507	101.759	224.347	260.784	-62.200	-11.820	-29.020	200.251	1.451	211.958	56.598	198.309	0.001177	0.00061385	0.00021851	602.25	8.3942e-06	8.5742e-06	896.85	236.08	9.0807e-06	7.3725e-06	401.5	214.07	109.3	63.223	7.8105e-06	128.28	0.00018159	4.1165e-05	1.1525e-05	588.61	5.4105e-07	4.2566e-07	874.9	231.02	4.958e-07	4.2711e-07	394.44	211.21	107.22	62.51	5.8555e-07	126.65	-20.613	-12.897	0.387	-81.977	54.787	45.579	-81.929	-76.297	91.405	64.214	-77.281	-73.027	-73.308	-69.200	53.729	-70.880	-8191	255	
1271.947	1	1	0	0	0.12286	0.061822	0.21868	0.12364	0.17956	0.45674	0.29355	0.22697	0.28417	0.20766	0.12703	0.020216	0.18551	0.084513	0.19436	0.45562	-1.9875	-2.2354	-2.225	-2.4854	-1.9354	-2.4292	-2.5292	-2.3354	-2.6875	-2.4688	-2.4167	-2.7896	-2.3187	-2.525	-2.2958	-2.0687	78.527	57.583	185.880	234.123	111.466	-23.363	-74.536	152.234	-84.763	183.788	-91.075	-17.325	-32.211	45.660	-80.002	175.349	0.001191	0.00067241	0.00019619	603.02	7.8668e-06	6.7452e-06	890.79	234.2	7.5974e-06	6.9398e-06	403.18	213.83	107.95	62.483	7.9925e-06	127.21	0.00018467	4.4409e-05	1.2088e-05	587.56	5.1428e-07	4.133e-07	873.21	230.3	5.1503e-07	3.9932e-07	393.19	210.16	106.25	61.819	5.552e-07	125.63	-19.837	-5.617	5.757	-81.881	54.229	55.340	-81.901	-76.197	92.408	72.578	-77.159	-72.711	-73.605	-69.447	43.292	-70.577	-8191	255	
1272.043	1	1	0	0	0.14075	0.14012	0.26164	0.19312	0.15992	0.31015	0.19371	0.19833	0.16726	0.052563	0.10901	0.16981	0.17537	0.29172	0.11165	0.36886	-1.9667	-2.2562	-2.2604	-2.6479	-2.2062	-2.575	-2.6437	-2.3187	-2.5854	-2.4271	-2.2854	-2.6792	-2.1979	-2.4958	-2.4417	-2.2958	65.897	165.426	137.893	-16.705	203.989	-0.759	103.239	207.369	52.629	217.429	227.251	-35.585	-63.021	256.391	126.764	257.725	0.0012199	0.00061546	0.00020084	602.61	8.6103e-06	6.4149e-06	888.74	232.68	7.8783e-06	5.873e-06	402.41	212.35	107.96	62.269	8.8769e-06	127.24	0.0001818	4.2214e-05	1.1785e-05	586.83	5.0446e-07	3.8859e-07	872.35	228.65	5.3795e-07	4.063e-07	392.47	209.28	105.72	61.682	5.5752e-07	125.98	-21.665	-3.455	8.429	-81.941	59.776	51.298	-81.682	-76.226	95.263	67.214	-77.162	-73.032	-73.671	-69.233	37.935	-70.744	-8191	255	
1272.115	1	1	0	0	0.042898	0.13969	0.1258	0.040847	0.034114	0.21493	0.17077	0.086373	0.026893	0.078516	0.061893	0.3049	0.1259	0.19583	0.22073	0.29236	-2.3479	-2.325	-2.2562	-2.8521	-2.2313	-2.4854	-2.5667	-2.2583	-2.4562	-2.4437	-2.2208	-2.8563	-2.2521	-2.2875	-2.4604	-2.3438	94.477	-22.512	22.647	43.980	38.669	99.001	132.250	247.546	-23.326	225.828	112.931	-76.830	-45.368	169.798	-26.919	169.971	0.0012433	0.0005828	0.00018637	602.52	8.8683e-06	7.2217e-06	892.69	232.8	7.9164e-06	6.1477e-06	401.54	211.28	105.94	61.837	8.339e-06	126.34	0.00017998	3.8982e-05	1.1398e-05	586.92	5.246e-07	4.2868e-07	871.42	228.39	5.3871e-07	3.9274e-07	391.24	208.01	104.18	61.202	5.2692e-07	124.9	-20.125	-13.211	-9.361	-82.038	55.913	46.458	-81.673	-76.185	94.299	53.427	-77.354	-72.929	-73.192	-69.093	37.252	-70.645	-8191	255	
1272.235	1	1	0	0	0.2347	0.15623	0.25591	0.16335	0.19949	0.06784	0.039935	0.10597	0.080112	0.11379	0.12426	0.087372	0.23075	0.1457	0.24424	0.25416	-2.1958	-2.4354	-1.9396	-2.6312	-2.2938	-2.225	-2.7542	-2.2208	-2.375	-2.5458	-2.0646	-2.3729	-2.3917	-2.4833	-2.6125	-2.3458	186.417	247.456	31.384	187.315	-43.936	136.425	141.375	222.763	264.356	69.935	-71.289	212.486	222.238	-37.982	129.215	252.076	0.0011504	0.00068519	0.00021445	599.99	6.6092e-06	5.3298e-06	889.64	232.44	7.2711e-06	6.1588e-06	400.09	210.76	107.12	61.97	7.4762e-06	126.81	0.00018321	3.9709e-05	1.2389e-05	585.95	4.7399e-07	4.1961e-07	871.07	228.26	5.079e-07	3.8668e-07	391.1	207.83	105.21	61.367	5.4435e-07	125.36	-22.600	5.397	0.015	-82.127	58.599	50.278	-81.526	-76.245	97.529	58.303	-77.127	-72.989	-73.425	-69.353	49.030	-70.724	-8191	255	
1272.332	1	1	0	0	0.11012	0.098281	0.17381	0.3077	0.20282	0.076628	0.12136	0.17208	0.16645	0.11183	0.29348	0.17073	0.42966	0.1761	0.2111	0.2818	-1.7542	-2.2854	-2.1896	-2.8583	-2.3146	-2.1083	-2.7625	-2.4437	-2.375	-2.6854	-2.2	-2.7625	-2.3917	-2.1833	-2.5104	-2.3521	-90.457	249.611	254.608	219.821	127.854	-24.109	140.390	234.566	191.091	231.464	-73.338	260.982	-62.354	7.882	40.082	-93.091	0.0011913	0.00068691	0.00014381	604.29	8.1332e-06	9.609e-06	891.78	231.86	8.6179e-06	5.504e-06	398.71	211.39	106.93	62.063	7.0142e-06	127	0.00018513	3.8898e-05	1.1541e-05	586.37	5.0025e-07	4.5498e-07	871.93	228	5.503e-07	3.9669e-07	391.52	208.2	104.82	61.328	5.5972e-07	125.7	-19.786	-7.414	-1.691	-82.263	58.362	57.702	-81.637	-76.498	85.558	55.099	-77.184	-73.108	-73.411	-69.181	42.454	-70.633	-8191	255	
1272.428	1	1	0	0	0.22177	0.3284	0.1504	0.25624	0.08659	0.063077	0.29066	0.18049	0.20272	0.26859	0.07267	0.10997	0.19885	0.23111	0.13104	0.22684	-1.8062	-2.4167	-2.0271	-2.4458	-2.7271	-2.3729	-2.8521	-2.4688	-2.2042	-2.5542	-2.3625	-2.5458	-2.6937	-2.3688	-2.5021	-2.5042	246.817	230.286	81.500	192.680	72.799	-79.096	186.258	223.767	-57.090	174.262	174.681	-2.091	176.266	216.442	169.254	262.508	0.0012159	0.00061873	0.00018852	602.61	8.4334e-06	7.6207e-06	893.19	231.86	5.915e-06	7.2289e-06	400.24	212.01	106.77	61.794	6.454e-06	127	0.00018307	3.9733e-05	1.1548e-05	586.69	4.6966e-07	4.4827e-07	873.88	227.81	5.163e-07	3.8023e-07	391.96	208.62	104.72	61.267	5.4952e-07	125.86	-21.156	-7.520	-0.833	-82.271	64.898	48.542	-81.815	-76.292	105.856	57.351	-77.364	-72.920	-73.457	-69.217	32.328	-70.622	-8191	255	
1272.524	1	1	0	0	0.13517	0.15391	0.16483	0.26332	0.15122	0.043194	0.3164	0.14171	0.082722	0.13349	0.22991	0.27403	0.17256	0.35113	0.33261	0.17626	-1.9292	-2.675	-2.2125	-2.5354	-2.5062	-2.3292	-2.8104	-2.5021	-2.3792	-2.6833	-2.1417	-2.5187	-2.5792	-2.2938	-2.5896	-2.6229	54.556	129.285	-13.544	201.220	57.767	127.563	208.967	196.477	65.995	38.348	151.842	232.758	238.593	136.530	-79.182	217.086	0.0011862	0.00071356	0.00017186	604.05	8.4384e-06	6.378e-06	888.99	231.25	6.9912e-06	6.9571e-06	399.94	210.8	105.15	61.193	5.7982e-06	126.11	0.00018494	3.9065e-05	1.1311e-05	586.74	4.9146e-07	4.5603e-07	873.12	227.14	5.6507e-07	4.0828e-07	391.25	207.58	103.82	60.716	5.1452e-07	124.5	-20.928	-10.113	-1.196	-81.799	59.165	46.518	-81.806	-76.467	96.622	65.353	-77.247	-72.920	-73.679	-68.983	38.245	-70.589	-8191	255	
1272.643	1	1	0	0	0.049174	0.037152	0.2486	0.12311	0.237	0.16075	0.073961	0.081739	0.035513	0.18041	0.17677	0.12223	0.087297	0.16349	0.32838	0.30872	-1.7938	-2.8104	-2.2354	-2.4458	-2.5708	-2.0979	-2.4917	-2.3583	-1.8958	-2.7229	-2.1854	-2.4167	-2.45	-2.2292	-2.3812	-2.4917	179.139	207.334	219.376	153.241	1.949	48.934	211.342	253.056	93.835	-1.240	170.720	-25.366	24.784	151.289	71.617	212.356	0.0011848	0.00067991	0.00021039	596.85	8.9505e-06	5.8729e-06	882.95	230.69	7.3324e-06	6.595e-06	396.65	209.4	105.05	60.987	5.945e-06	125.04	0.0001832	4.0866e-05	1.1608e-05	584.5	4.8368e-07	4.041e-07	869.07	226.24	5.4686e-07	4.0749e-07	388.01	206.27	103.44	60.463	5.3919e-07	123.96	-22.033	-2.834	-1.413	-81.830	55.072	52.687	-81.932	-76.625	89.936	60.438	-77.320	-72.928	-73.507	-69.112	53.621	-70.636	-8191	255	
1272.739	1	1	0	0	0.15549	0.14982	0.18157	0.13851	0.1432	0.094028	0.22353	0.11699	0.14021	0.18302	0.15901	0.075529	0.30668	0.11498	0.17331	0.30278	-1.7417	-2.5479	-2.1729	-2.2125	-2.5187	-2.0458	-2.6063	-2.6708	-2.1521	-2.7229	-2.5854	-2.3354	-2.6896	-2.1979	-2.4375	-2.8667	76.370	139.798	192.032	134.179	-7.623	96.643	-55.268	-53.925	0.263	260.295	-57.991	159.449	186.296	119.670	122.265	209.149	0.0011619	0.00068553	0.00016994	598.46	9.0886e-06	6.2099e-06	891.19	230.84	6.7337e-06	7.1359e-06	397.24	209.81	106.06	60.717	7.7781e-06	126.17	0.00018242	3.891e-05	1.1194e-05	584.28	4.861e-07	4.2671e-07	870.09	226.1	5.1618e-07	3.9853e-07	389.47	206.86	103.73	60.409	5.614e-07	124.6	-20.713	-8.102	3.325	-81.841	61.146	55.798	-81.832	-76.596	97.888	60.580	-77.154	-72.838	-73.667	-69.234	31.367	-70.682	-8191	255	
1272.812	1	1	0	0	0.16228	0.062088	0.28729	0.15242	0.062497	0.074057	0.17274	0.098078	0.24525	0.0075466	0.13061	0.13974	0.35175	0.19834	0.047256	0.39866	-1.8	-2.6437	-2.3021	-2.2458	-2.6688	-2.1604	-2.475	-2.6875	-2.2583	-2.6021	-2.4583	-2.2854	-2.6937	-2.5187	-2.2938	-2.7958	253.846	210.457	24.702	-54.849	-79.755	35.779	260.955	204.790	249.098	201.374	88.522	252.217	181.053	227.710	-39.830	240.770	0.0012274	0.00057116	0.0001785	598.07	7.6087e-06	7.2216e-06	887.4	230.03	6.6667e-06	7.0057e-06	400.04	210.85	105.68	61.468	9.5469e-06	127.39	0.00017978	3.8051e-05	1.0994e-05	581.77	4.7514e-07	4.3473e-07	870.48	226.11	5.1592e-07	3.7417e-07	390.6	207.78	103.91	60.84	5.9201e-07	125.77	-21.310	0.836	6.280	-81.995	58.597	41.321	-81.714	-76.436	83.763	56.918	-77.317	-72.834	-73.665	-69.238	45.023	-70.447	-8191	255	
1272.931	1	1	0	0	0.36186	0.080386	0.2877	0.10356	0.19065	0.16401	0.12416	0.33503	0.15797	0.010898	0.095947	0.16194	0.29887	0.086884	0.17778	0.24781	-1.6812	-2.5042	-2.225	-2.1125	-2.6729	-2.4208	-2.4875	-2.7604	-2.15	-2.4875	-2.6479	-2.275	-2.6917	-2.4333	-2.1146	-2.8375	45.189	186.070	-61.301	183.975	-67.655	166.255	-80.239	185.197	187.502	196.268	-62.433	197.704	234.243	-83.249	234.178	230.865	0.0012288	0.00064816	0.00017352	600.11	8.8638e-06	6.8302e-06	890.57	230.02	8.2198e-06	7.3745e-06	402.12	211.09	105.45	61.074	7.4057e-06	126.72	0.00018408	4.1236e-05	1.0734e-05	584.79	4.8419e-07	4.0989e-07	872.23	226.68	5.2547e-07	4.1144e-07	392.92	208.04	103.55	60.563	5.5843e-07	125.42	-20.296	-0.665	7.648	-82.001	62.865	58.085	-81.612	-76.331	93.489	57.203	-77.218	-73.058	-73.442	-69.127	43.463	-70.672	-8191	255	
1273.027	1	1	0	0	0.14119	0.17022	0.090259	0.14225	0.21768	0.31332	0.24604	0.32198	0.17284	0.16472	0.22454	0.048928	0.1379	0.32779	0.12217	0.13873	-1.8375	-2.6562	-2.5667	-2.3729	-2.6146	-1.9708	-2.1417	-2.6708	-2.2333	-2.5375	-2.7729	-2.3021	-2.5375	-2.5417	-2.0687	-2.7583	-71.821	229.410	180.645	74.134	-75.317	-66.349	253.961	185.663	175.875	224.079	169.715	239.403	265.107	219.289	-58.543	190.342	0.0012069	0.00066791	0.00019208	596.84	7.8971e-06	6.6269e-06	888.36	229.86	7.4211e-06	5.4005e-06	399.49	209.93	105.1	61.117	6.9632e-06	126.87	0.00018029	4.1332e-05	1.1051e-05	582.23	4.8993e-07	4.0095e-07	871.37	225.85	5.3757e-07	3.8589e-07	391.09	206.83	103.23	60.468	5.6953e-07	125.4	-22.864	-4.698	-0.649	-81.849	59.282	53.981	-81.920	-76.510	100.789	64.735	-77.515	-73.036	-73.534	-69.108	45.518	-70.798	-8191	255	
1273.124	1	1	0	0	0.21441	0.33328	0.16637	0.15092	0.10087	0.22446	0.28114	0.094813	0.19414	0.038366	0.22823	0.26725	0.19477	0.091629	0.086382	0.036544	-1.7521	-2.3771	-2.5563	-2.2958	-2.625	-2.2938	-2.2146	-2.6917	-2.1417	-2.0708	-2.4042	-2.4167	-2.4958	-2.6708	-2.2354	-2.9833	193.666	175.695	251.922	172.876	214.648	247.502	-89.495	127.925	16.635	-36.663	139.000	143.875	-47.457	249.671	242.940	-18.347	0.0011598	0.00068088	0.00015958	597.82	1.0111e-05	6.8174e-06	891.81	230.24	6.8546e-06	6.77e-06	398.46	211.44	105.38	61.41	5.075e-06	127.19	0.000179	3.8767e-05	1.0367e-05	583.31	4.8317e-07	4.2251e-07	872.36	226.22	5.4011e-07	4.1328e-07	391.33	207.95	103.7	60.8	5.4358e-07	125.89	-22.604	3.570	10.803	-81.668	60.757	48.624	-81.558	-76.258	101.060	64.819	-77.525	-73.020	-73.493	-69.111	40.675	-70.594	-8191	255	
1273.220	1	1	0	0	0.29335	0.1818	0.13165	0.17335	0.19744	0.2915	0.25984	0.13932	0.1211	0.048846	0.30788	0.39875	0.18983	0.24044	0.15496	0.28858	-2	-2.2354	-2.5792	-2.0083	-2.4125	-2.4833	-2.3812	-2.8646	-2.3458	-2.3583	-2.4688	-2.2667	-2.4167	-2.7417	-2.1771	-2.8396	-43.885	231.386	134.736	-26.632	162.848	117.850	214.898	96.305	254.249	-57.316	185.528	217.916	6.677	189.385	-14.884	207.320	0.001199	0.00067975	0.00021094	597.5	8.3514e-06	6.7195e-06	894.44	230.39	5.7145e-06	6.7167e-06	401.51	212.39	105.32	61.353	6.6519e-06	127.74	0.00018373	4.2584e-05	1.1401e-05	583.98	4.4378e-07	4.1567e-07	874.68	226.35	5.2547e-07	4.3014e-07	392.15	208.71	103.52	60.833	5.4745e-07	126.19	-20.987	-0.931	7.118	-81.795	53.684	58.508	-81.771	-76.515	104.531	63.342	-77.078	-72.745	-73.668	-69.102	50.918	-70.600	-8191	255	
1273.340	1	1	0	0	0.18645	0.14131	0.046439	0.58271	0.11398	0.09422	0.33107	0.14275	0.13428	0.27432	0.25125	0.28492	0.13748	0.20635	0.14629	0.1272	-1.9333	-2.2333	-2.5521	-2.1625	-2.4437	-2.5	-2.1813	-2.5542	-2.2521	-2.2646	-2.5833	-2.3604	-2.4375	-2.5708	-2.3292	-2.9646	78.574	82.594	94.236	186.864	133.180	235.946	249.726	165.521	230.857	6.790	173.329	199.205	211.088	225.485	-40.990	245.175	0.0012233	0.00057957	0.00020434	598.76	9.9836e-06	7.1004e-06	892.18	229.11	7.9918e-06	6.6864e-06	401.33	212	105.58	61.342	7.1358e-06	127.83	0.00018231	4.0485e-05	1.0557e-05	582.81	5.2052e-07	3.9056e-07	875.89	225.73	5.4508e-07	4.495e-07	393.52	208.87	103.73	60.734	5.6721e-07	126.35	-20.095	-4.654	-2.904	-81.850	65.013	46.982	-81.738	-76.279	90.212	53.659	-77.341	-72.863	-73.536	-68.993	44.072	-70.707	-8191	255	
1273.412	1	1	0	0	0.46833	0.13594	0.087876	0.20875	0.34099	0.10657	0.22193	0.43494	0.059715	0.16514	0.13741	0.143	0.33327	0.21394	0.28131	0.39088	-1.8146	-2.1521	-2.6688	-2.2687	-2.3021	-2.5521	-2.0458	-2.4625	-2.1729	-2.2042	-2.6833	-2.6708	-2.3229	-2.6792	-1.9688	-2.6083	-23.630	89.464	183.001	222.275	-10.763	48.535	-23.843	243.989	104.987	136.450	-38.052	118.908	149.190	-76.739	184.188	237.785	0.0012217	0.00057944	0.00015588	594.84	9.3467e-06	7.0724e-06	895.36	231.2	6.3974e-06	5.7798e-06	402.09	210.09	105.08	60.899	6.3128e-06	126.45	0.00018245	4.0592e-05	1.0304e-05	581.99	4.7527e-07	3.7755e-07	876.29	226.24	4.9504e-07	4.362e-07	391.65	207.59	103.33	60.243	5.7819e-07	125.3	-21.030	-1.628	4.127	-81.760	59.856	48.873	-81.592	-76.246	91.001	73.609	-77.281	-72.981	-73.616	-69.162	42.610	-70.582	-8191	255	
1273.533	1	1	0	0	0.18154	0.11775	0.14649	0.25096	0.10512	0.14365	0.21969	0.065677	0.10947	0.11444	0.22484	0.14342	0.073254	0.21196	0.065039	0.23824	-1.9646	-2.3167	-2.6625	-2.4083	-2.1937	-2.4938	-2.1813	-2.5833	-2.5417	-2.1625	-2.5333	-2.4375	-2.4	-2.7438	-2.2083	-2.6083	123.296	239.498	-11.020	240.164	20.115	-17.039	-91.491	198.675	262.305	52.431	226.890	158.563	72.262	226.816	161.817	204.681	0.0012338	0.00063788	0.00021477	596.55	8.8087e-06	7.1293e-06	893.5	229	7.1518e-06	5.3194e-06	402.84	210.89	105.91	61.31	7.5849e-06	127.7	0.00018018	3.9017e-05	1.1014e-05	582.46	5.0229e-07	4.0818e-07	874.43	225.62	5.1783e-07	4.2606e-07	393.07	208.05	103.73	60.683	5.7832e-07	126.28	-18.620	-12.430	4.153	-81.888	62.998	56.517	-81.966	-76.429	100.440	59.602	-77.341	-72.929	-73.699	-69.023	43.393	-70.766	-8191	255	
1273.629	1	1	0	0	0.2961	0.31819	0.10006	0.10789	0.18615	0.2293	0.12419	0.094041	0.17895	0.18235	0.38752	0.27316	0.11404	0.10938	0.23694	0.3159	-2.1312	-2.0333	-2.5979	-2.5021	-2.2792	-2.6104	-2.4583	-2.2875	-2.4771	-2.125	-2.6437	-2.7	-2.2292	-2.4688	-2.0083	-2.6146	83.892	69.149	182.762	218.827	96.630	-66.388	1.252	-8.678	64.098	97.325	241.848	-8.918	-28.732	250.906	-26.056	173.288	0.0012221	0.00064137	0.00019947	595.62	8.5952e-06	7.7617e-06	896.11	230.9	6.19e-06	6.9563e-06	403.89	213.42	106.06	61.873	8.4268e-06	129.28	0.00018104	4.5316e-05	1.1328e-05	582.93	5.0025e-07	4.1436e-07	876.38	226.8	5.0383e-07	4.1328e-07	395.05	209.87	104.32	61.361	5.8348e-07	127.63	-21.046	1.026	10.606	-81.978	56.948	53.439	-81.728	-76.418	101.334	63.662	-77.279	-72.628	-73.552	-69.185	48.572	-70.710	-8191	255	
1273.723	1	1	0	0	0.30533	0.14014	0.27263	0.2688	0.13236	0.036517	0.21495	0.22135	0.33147	0.16894	0.20045	0.22431	0.11223	0.13531	0.21778	0.050833	-2.35	-2.2396	-2.3729	-2.425	-2.1854	-2.5958	-2.15	-2.4354	-2.6792	-2.0812	-2.6208	-2.4375	-2.0479	-2.9208	-2.3667	-2.4229	12.085	-74.368	154.931	149.530	-58.058	-81.024	-93.163	233.818	15.821	170.137	245.328	184.394	151.469	232.917	187.791	-25.635	0.0012002	0.00067595	0.00019487	600.77	7.5813e-06	7.6449e-06	897.74	232.15	7.1106e-06	6.294e-06	407.13	214.76	106.16	62.159	8.4999e-06	129.77	0.00018277	4.1666e-05	1.1695e-05	584.93	4.8279e-07	3.8806e-07	879.28	227.52	5.093e-07	4.4568e-07	396.77	210.94	104.55	61.547	5.8374e-07	128.23	-21.674	-8.726	2.855	-81.910	59.898	41.880	-81.748	-76.252	93.046	65.333	-77.244	-72.905	-73.568	-69.106	42.247	-70.677	-8191	255	
1273.819	1	1	0	0	0.18631	0.18265	0.10155	0.26029	0.25284	0.10452	0.01498	0.10529	0.067698	0.10703	0.12104	0.23926	0.13443	0.24692	0.1062	0.4451	-2.1104	-1.9813	-2.5458	-2.6333	-2.1271	-2.7292	-2.5125	-2.2271	-2.7208	-2.375	-2.425	-2.6208	-2.0833	-2.4542	-2.4062	-2.3812	163.528	175.764	80.094	-51.853	-33.643	34.377	89.557	-6.133	-69.884	77.065	-11.353	-80.890	-60.561	208.534	-0.128	213.397	0.0012675	0.00078727	0.00020037	601.34	8.298e-06	6.525e-06	903.11	231.49	6.578e-06	5.7924e-06	404.92	214.37	105.83	61.858	7.4251e-06	128.52	0.0001816	4.6544e-05	1.0908e-05	585.78	5.0994e-07	3.9621e-07	881.08	227.69	4.7734e-07	4.2198e-07	394.46	210.69	104.51	61.201	5.5752e-07	127.11	-20.775	-5.499	9.260	-81.973	58.072	53.636	-81.950	-76.227	92.941	56.509	-77.155	-72.831	-73.282	-69.239	44.559	-70.616	-8191	255	
1273.940	1	1	0	0	0.26539	0.1209	0.1153	0.10973	0.14987	0.14069	0.14661	0.21588	0.064066	0.10978	0.24769	0.25882	0.15839	0.33001	0.29305	0.14987	-2.3896	-2.2521	-2.3604	-2.4979	-1.8833	-2.475	-2.4896	-2.2792	-2.6396	-2.175	-2.4854	-2.6729	-2.4771	-2.5417	-2.2979	-2.3458	-36.861	-3.096	-36.573	250.685	248.692	177.166	244.170	143.937	-24.348	240.352	202.540	164.183	56.665	244.268	107.043	172.307	0.0012057	0.0007564	0.00015097	592.71	9.2936e-06	8.0923e-06	896.05	229.94	9.7318e-06	6.9973e-06	401.06	211.75	105.4	61.328	8.5168e-06	127.39	0.00018454	4.3586e-05	1.1138e-05	581.84	5.1772e-07	3.9805e-07	875.99	225.59	5.3426e-07	4.3673e-07	392.03	208.42	103.38	60.466	5.6334e-07	125.97	-22.816	-2.628	1.231	-82.107	59.293	60.080	-81.572	-76.237	87.482	67.363	-77.220	-73.099	-73.624	-69.176	38.642	-70.698	-8191	255	
1274.036	1	1	0	0	0.25485	0.16609	0.098265	0.061833	0.20419	0.12213	0.19717	0.40846	0.10589	0.090661	0.026014	0.25811	0.041251	0.19736	0.1487	0.29516	-2.2354	-2.4167	-2.2667	-3	-2.1688	-2.4729	-2.2583	-2.1417	-2.6833	-2.2042	-2.4292	-2.9354	-2.3604	-2.6292	-2.525	-2.2438	-23.108	129.100	189.051	237.418	45.709	157.330	175.860	204.412	22.245	121.868	227.602	234.531	119.835	219.319	82.756	206.996	0.001213	0.00073611	0.0002099	597.55	8.7102e-06	7.295e-06	897.11	229.35	7.9713e-06	7.1873e-06	401.1	211.34	105.42	60.967	6.4223e-06	127.91	0.00017933	4.0365e-05	1.1595e-05	582.11	5.0982e-07	4.1291e-07	874.54	225.71	4.9033e-07	4.0709e-07	392.7	208.48	103.32	60.46	5.1297e-07	126.52	-21.650	-11.028	-2.178	-82.049	66.039	48.314	-81.834	-76.370	98.661	61.117	-77.533	-73.074	-73.719	-69.091	41.732	-70.688	-8191	255	
1274.108	1	1	0	0	0.23674	0.085669	0.095109	0.23605	0.18346	0.12081	0.12607	0.24859	0.34205	0.10263	0.25583	0.12807	0.0048183	0.16716	0.24309	0.26298	-2.2917	-2.025	-2.0479	-2.5854	-2.2458	-2.7042	-2.6354	-2.3458	-2.6854	-2.1896	-2.2604	-2.6188	-2.2854	-2.4688	-2.6375	-2.5833	152.077	94.610	81.427	99.755	-58.295	28.839	4.284	251.318	-35.318	142.450	261.375	236.201	262.692	230.824	-39.814	252.898	0.0012044	0.00054316	0.00020983	597.8	7.7201e-06	7.68e-06	899.9	230.67	7.6911e-06	5.4673e-06	402.54	212.48	106.03	61.184	7.2726e-06	128.29	0.00018046	4.1284e-05	1.1488e-05	582.19	4.6137e-07	3.878e-07	876.96	226.18	5.3044e-07	3.8391e-07	393.53	209.38	103.7	60.589	5.3738e-07	127.05	-19.189	-5.155	0.301	-81.915	61.433	53.600	-81.674	-76.290	100.254	74.070	-77.591	-72.917	-73.613	-69.234	51.936	-70.493	-8191	255	
1274.204	1	1	0	0	0.057683	0.31844	0.26023	0.13975	0.11531	0.18922	0.078475	0.34358	0.056228	0.14301	0.35027	0.11528	0.11438	0.38359	0.068631	0.26611	-2.2875	-2.3083	-2.2	-2.4437	-2.2104	-2.3417	-2.4292	-2.3396	-2.5146	-2.6292	-2.0979	-2.6542	-2.2812	-2.3646	-2.6458	-2.4521	-32.159	112.675	220.076	-32.193	131.834	-66.084	-8.828	194.322	186.312	235.512	185.802	215.009	63.182	-92.877	26.914	227.075	0.001198	0.00052622	0.00018222	599.23	8.5309e-06	7.0714e-06	901.82	231.85	7.2464e-06	6.1958e-06	404.27	213.45	105.91	61.183	7.0474e-06	128.62	0.00018434	3.8898e-05	1.1081e-05	583.52	4.9311e-07	4.5129e-07	880.68	227.44	5.1236e-07	4.1605e-07	395.29	210.49	104.01	60.826	5.6321e-07	127.04	-20.196	-5.926	-10.721	-82.043	65.999	55.237	-81.747	-76.523	100.819	57.169	-77.203	-72.914	-73.517	-69.152	46.041	-70.652	-8191	255	
1274.300	1	1	0	0	0.21021	0.043149	0.080831	0.15548	0.081675	0.17534	0.16897	0.082793	0.18931	0.13304	0.27098	0.20501	0.10802	0.18019	0.16949	0.16926	-2.1146	-2.5292	-2.2438	-2.6083	-2.2417	-2.0854	-2.7812	-2.1729	-2.4354	-2.4792	-2.0083	-2.8542	-2.3271	-2.4625	-2.6292	-2.2271	170.751	88.672	221.108	241.655	-90.993	161.241	245.649	83.268	162.194	93.847	234.796	194.056	-62.675	173.082	-29.600	214.988	0.0012103	0.00050401	0.00015435	595.8	7.2486e-06	7.5938e-06	897.44	231.24	7.0044e-06	7.5535e-06	405.73	212.48	106.27	61.352	7.3745e-06	128.3	0.00018307	3.8683e-05	1.0981e-05	582.67	4.7029e-07	4.2553e-07	876.95	226.88	5.0523e-07	4.0301e-07	395.45	210.08	104.09	60.873	5.2304e-07	127.01	-21.009	-8.380	-6.893	-81.883	51.705	46.199	-81.573	-76.414	98.930	57.063	-77.455	-72.961	-73.566	-69.115	38.892	-70.826	-8191	255	
1274.421	1	1	0	0	0.18621	0.20446	0.16492	0.20571	0.094341	0.20041	0.14328	0.091891	0.15123	0.16965	0.30392	0.21405	0.078616	0.21501	0.15994	0.074819	-2.0667	-2.5396	-2.2958	-2.6604	-2.2479	-2.2229	-2.8229	-2.2521	-2.6458	-2.6333	-2.0208	-2.5625	-2.4292	-2.3896	-2.7979	-2.6312	74.410	183.932	-69.984	165.340	-42.030	88.174	105.851	252.130	261.435	144.290	207.560	220.426	236.722	262.383	56.068	201.710	0.0012569	0.00058541	0.00018365	599.7	8.0783e-06	6.9447e-06	896.15	231.36	7.0939e-06	5.6315e-06	406.02	213.72	106.02	61.681	6.4934e-06	128.41	0.00018679	3.8755e-05	1.1451e-05	583.66	4.3218e-07	3.9358e-07	877.25	227.12	4.8956e-07	4.0406e-07	395.8	210.68	104.3	60.999	5.1219e-07	127.11	-19.152	-14.191	6.445	-81.957	71.410	49.464	-81.858	-76.458	93.700	60.976	-77.372	-72.800	-73.440	-69.128	42.391	-70.666	-8191	255	
1274.517	1	1	0	0	0.17041	0.072745	0.29352	0.14247	0.018954	0.24408	0.28947	0.23724	0.17782	0.11129	0.11341	0.18634	0.17947	0.13524	0.23492	0.33234	-2.0687	-2.625	-2.0375	-2.5021	-2.2958	-2.0479	-2.5354	-2.1375	-2.2979	-2.5792	-2.2958	-2.4854	-2.2313	-2.2417	-2.7208	-2.7667	26.598	66.317	210.850	130.870	251.335	62.899	259.447	-82.285	208.561	124.188	21.624	195.045	172.164	-36.606	212.404	232.460	0.0012369	0.00067884	0.00018142	596.02	1.0587e-05	6.9293e-06	899.52	230.5	6.8127e-06	7.3677e-06	404.79	213.55	105.82	61.224	8.5283e-06	128.44	0.00018568	4.0914e-05	1.1832e-05	582.63	5.1428e-07	4.3591e-07	878.45	226.66	5.4011e-07	4.0235e-07	395.77	210.41	103.71	60.636	5.2911e-07	127.11	-20.001	4.848	-0.344	-82.118	65.133	44.329	-81.947	-76.382	93.809	70.427	-77.137	-72.905	-73.653	-69.213	43.908	-70.667	-8191	255	
1274.613	1	1	0	0	0.20922	0.11217	0.087072	0.1062	0.32383	0.14289	0.27359	0.19023	0.12643	0.028537	0.12793	0.08067	0.090511	0.37453	0.23499	0.092605	-1.7271	-2.5208	-1.9208	-2.3604	-2.4437	-1.9458	-2.6729	-2.4	-2.2062	-2.4458	-2.0146	-2.5854	-2.7125	-2.2	-2.4375	-2.6583	-81.425	50.413	211.424	-26.041	-19.533	-65.990	172.765	183.101	243.047	181.284	-69.287	-22.079	167.386	253.371	-90.301	118.404	0.0012235	0.00061784	0.00017869	597.88	8.6053e-06	7.3661e-06	899.5	231.12	7.5982e-06	6.9504e-06	403.1	213.99	104.95	61.1	8.188e-06	128.18	0.00018429	3.8958e-05	1.1405e-05	582.36	4.5487e-07	4.4157e-07	878.72	226.15	5.382e-07	3.8628e-07	394.92	210.73	102.64	60.608	5.5404e-07	127.13	-22.191	-4.759	-2.644	-81.831	67.523	46.125	-81.616	-76.474	89.826	64.671	-76.925	-72.926	-73.278	-69.276	39.851	-70.626	-8191	255	
1274.709	1	1	0	0	0.16788	0.12696	0.12362	0.098347	0.099881	0.19385	0.042187	0.36051	0.13779	0.2794	0.16731	0.25067	0.20162	0.082907	0.071711	0.078042	-1.7875	-2.725	-2.175	-2.4896	-2.6708	-2.0208	-2.7021	-2.4792	-2.3	-2.6396	-2.3521	-2.3812	-2.5708	-2.2229	-2.6063	-2.6396	99.014	-72.356	235.993	11.055	60.879	119.161	213.236	198.861	222.142	42.147	-56.853	244.033	218.042	265.372	211.726	116.748	0.001199	0.00068426	0.00018776	595.68	7.746e-06	7.2079e-06	895.97	229.5	7.2554e-06	7.8807e-06	402.74	213.07	104.73	61.076	6.6506e-06	128.14	0.00018427	3.823e-05	1.2052e-05	581.89	4.7119e-07	4.3789e-07	876.95	225.59	5.3413e-07	3.9722e-07	394.53	209.85	103.29	60.558	5.3828e-07	126.96	-17.826	-10.700	2.331	-82.152	64.596	55.239	-81.714	-76.548	109.247	58.762	-77.236	-72.659	-73.486	-69.072	40.695	-70.833	-8191	255	
1274.804	1	1	0	0	0.30031	0.22219	0.073225	0.039005	0.071041	0.090617	0.14432	0.25645	0.10164	0.25525	0.21009	0.23919	0.096936	0.14691	0.12679	0.43837	-1.7104	-2.5792	-1.9	-2.2979	-2.775	-2.275	-2.6417	-2.45	-2.0625	-2.4875	-2.1542	-2.5854	-2.5187	-2.3167	-2.5354	-2.6208	195.563	93.687	249.404	177.750	13.492	-55.686	163.461	95.543	-33.357	17.787	66.523	185.975	71.579	211.879	180.434	195.659	0.0012275	0.00066927	0.0002107	595.03	8.4808e-06	7.9475e-06	897.21	231.26	7.8859e-06	7.3291e-06	404.71	214.12	105.89	61.827	6.7322e-06	129.27	0.00018292	3.9972e-05	1.2199e-05	582.18	4.6762e-07	4.4025e-07	877.03	226.61	5.5768e-07	3.8589e-07	395.34	210.87	104.3	61.133	5.2382e-07	127.85	-19.600	-5.748	6.863	-81.663	53.906	54.810	-81.890	-76.285	104.391	55.601	-77.163	-73.052	-73.588	-69.153	36.355	-70.571	-8191	255	
1274.900	1	1	0	0	0.15132	0.20299	0.24509	0.36472	0.16602	0.15786	0.072602	0.18294	0.084968	0.015053	0.10175	0.095489	0.17648	0.32212	0.1034	0.10992	-1.7208	-2.6375	-2.2479	-2.1688	-2.3688	-1.9458	-2.4208	-2.4167	-2.15	-2.4938	-2.5458	-2.4125	-2.9354	-2.3354	-2.35	-2.7354	219.500	-86.378	212.460	201.289	26.189	252.007	163.674	213.323	21.850	53.846	-48.527	141.724	236.409	194.181	218.920	109.469	0.0012157	0.00073342	0.00018027	601.73	7.6365e-06	8.4712e-06	901.35	231.56	6.3709e-06	6.8047e-06	406.87	215.57	105.96	62.102	7.106e-06	130.06	0.00018989	4.194e-05	1.1675e-05	584.83	4.5767e-07	4.5629e-07	879.62	227.44	5.3973e-07	4.0485e-07	397.14	212.07	104.49	61.428	5.4009e-07	128.41	-23.558	-13.470	-1.351	-81.950	64.447	46.844	-81.938	-76.417	105.609	61.646	-77.324	-72.658	-73.569	-69.096	46.008	-70.869	-8191	255	
1275.020	1	1	0	0	0.12244	0.11857	0.18125	0.26109	0.3316	0.14192	0.36797	0.32482	0.20371	0.20692	0.12069	0.28222	0.27205	0.1389	0.044338	0.25891	-1.6521	-2.5	-2.2812	-2.3646	-2.4917	-2.2708	-2.4042	-2.4771	-2.025	-2.6479	-2.5729	-2.425	-2.6521	-2.3271	-2.2667	-2.7313	230.318	262.175	254.905	239.318	180.198	69.622	171.646	224.823	241.689	130.933	230.205	222.049	-57.987	243.495	209.805	227.562	0.0012188	0.00072895	0.00020032	599.91	6.8636e-06	6.7367e-06	901.66	231.96	7.5328e-06	5.5014e-06	406.3	215.55	106.56	62.067	8.5987e-06	130.23	0.00018525	3.9077e-05	1.1311e-05	583.92	4.5308e-07	4.3657e-07	880.54	227.74	5.5132e-07	3.685e-07	398.01	212.53	104.72	61.414	5.8464e-07	128.69	-21.510	-15.255	-6.103	-82.159	55.045	45.076	-81.682	-76.170	89.480	65.068	-77.247	-72.969	-73.790	-69.224	43.391	-70.544	-8191	255	
1275.116	1	1	0	0	0.25102	0.32716	0.12921	0.071163	0.21529	0.14473	0.17979	0.20273	0.020244	0.2293	0.26155	0.022237	0.25719	0.37615	0.093335	0.19533	-1.8104	-2.5146	-2.2542	-2.1271	-2.7292	-2.3854	-2.4938	-2.75	-2.2083	-2.4792	-2.5333	-2.3521	-2.7229	-2.3479	-2.1854	-2.9479	8.453	-27.494	-51.714	-16.070	9.174	-7.931	-50.800	216.149	157.366	21.126	211.356	85.803	-74.812	190.943	239.577	241.355	0.0011893	0.00074601	0.00017804	598.23	8.629e-06	6.8518e-06	904.49	231.75	8.1275e-06	6.4288e-06	404.24	215.12	105.4	61.501	6.1648e-06	128.79	0.00018534	4.2835e-05	1.0471e-05	584.6	4.8075e-07	4.0318e-07	879.66	227.19	5.3387e-07	4.4476e-07	395.98	211.51	104.04	60.99	5.4668e-07	127.55	-22.907	-9.638	3.268	-81.707	62.176	59.944	-81.661	-76.483	100.416	61.843	-77.574	-72.903	-73.640	-69.201	48.018	-70.641	-8191	255	
1275.213	1	1	0	0	0.28025	0.054049	0.18637	0.075906	0.25461	0.19198	0.10702	0.14817	0.2549	0.1084	0.10559	0.30901	0.21624	0.20996	0.24305	0.27534	-1.9292	-2.4938	-2.425	-2.0979	-2.4917	-2.1833	-2.2417	-2.6188	-2.1604	-2.7583	-2.875	-2.3812	-2.4125	-2.4875	-2.0396	-2.7458	-80.415	222.686	-22.975	-44.476	0.802	80.139	220.910	-63.559	245.948	108.508	213.288	217.691	-39.117	130.931	192.692	185.030	0.0011707	0.00061106	0.00018569	596.92	8.3433e-06	6.4456e-06	897.43	231.68	7.1771e-06	7.3056e-06	404.15	215.12	105.86	61.513	7.9198e-06	129.27	0.00018399	3.9495e-05	1.0851e-05	583.11	4.5257e-07	4.1698e-07	877.49	227.04	5.0141e-07	4.0828e-07	395.08	211.4	104.13	61.017	5.6269e-07	127.82	-22.287	-1.076	6.991	-82.155	60.992	44.646	-81.863	-76.171	93.423	59.007	-77.402	-72.956	-73.555	-69.244	39.698	-70.661	-8191	255	
1275.309	1	1	0	0	0.13581	0.1908	0.33199	0.2762	0.13835	0.061626	0.063033	0.27321	0.24214	0.075664	0.27895	0.21029	0.18715	0.17851	0.15949	0.31784	-1.7104	-2.1958	-2.5	-1.9937	-2.6354	-2.4667	-2.4	-2.6729	-2.2646	-2.1625	-2.7167	-2.5021	-2.5792	-2.6708	-2.2188	-2.625	-45.851	2.564	-38.241	237.425	-8.854	208.049	89.261	-49.866	80.778	235.650	200.246	-68.528	-5.421	-49.242	-40.054	176.128	0.0012065	0.00065002	0.00019404	597.31	8.5267e-06	7.1148e-06	899.97	231.26	6.3208e-06	6.1511e-06	405.53	216.17	106.86	62.037	7.2623e-06	130.58	0.0001841	4.4397e-05	1.0597e-05	582.73	4.7297e-07	3.9122e-07	878.63	227.48	5.2038e-07	3.772e-07	396.95	212.68	104.81	61.607	5.778e-07	129.03	-20.453	-2.618	3.842	-82.109	55.323	50.172	-81.533	-76.415	99.278	60.767	-77.289	-72.862	-73.656	-69.295	42.906	-70.842	-8191	255	
1275.405	1	1	0	0	0.18887	0.16605	0.10467	0.1524	0.16557	0.17656	0.30887	0.041777	0.18833	0.15613	0.22034	0.27058	0.35826	0.10451	0.1503	0.10113	-2	-2.4938	-2.6437	-2.2687	-2.5583	-2.5354	-2.3312	-2.7396	-2.4833	-2.2292	-2.8125	-2.3563	-2.2812	-2.5062	-2.1396	-2.9875	87.176	-12.719	11.002	249.989	111.928	10.791	138.589	24.459	170.796	118.744	215.097	265.286	242.673	185.105	38.851	213.459	0.0012215	0.00059433	0.00016951	600.66	7.8538e-06	7.0893e-06	901.71	232.54	7.5523e-06	7.397e-06	410.31	216.64	107.47	62.422	6.2704e-06	131.44	0.00019096	4.1439e-05	1.0414e-05	585.9	4.6099e-07	4.1067e-07	882.03	229.01	5.6736e-07	4.3686e-07	400.15	213.94	105.67	62.013	5.9304e-07	130.18	-20.647	0.049	-4.868	-81.973	56.720	67.631	-81.805	-76.461	100.484	66.563	-77.458	-72.671	-73.657	-69.245	40.734	-70.613	-8191	255	
1275.501	1	1	0	0	0.25768	0.10322	0.19536	0.10053	0.041761	0.14745	0.064515	0.20078	0.11873	0.078388	0.19791	0.14695	0.079631	0.1303	0.16571	0.038515	-2.0354	-2.2562	-2.8042	-2.3167	-2.35	-2.6188	-2.3083	-2.7271	-2.2125	-2.0583	-2.8167	-2.4562	-2.5458	-2.6688	-2.2167	-2.8083	29.282	186.153	106.729	-72.967	26.261	215.799	233.794	24.646	-11.962	-65.659	212.739	164.285	170.047	125.223	203.916	62.459	0.0012726	0.00077097	0.00019756	600.66	7.4218e-06	7.6659e-06	900.21	233.86	8.4004e-06	6.2813e-06	407.82	217.31	106.79	62.488	5.0236e-06	130.55	0.00019048	4.2178e-05	1.0844e-05	585.95	4.949e-07	3.8964e-07	881.09	229.78	5.2789e-07	4.2738e-07	399.16	213.87	105.27	61.854	5.5675e-07	129.27	-21.057	-2.912	10.623	-82.071	55.889	50.830	-81.626	-76.273	97.243	67.020	-77.100	-72.933	-73.755	-69.429	38.834	-70.669	-8191	255	
1275.622	1	1	0	0	0.17832	0.077297	0.037757	0.19258	0.14738	0.086539	0.020063	0.24233	0.20314	0.10216	0.1115	0.50074	0.17057	0.31068	0.061421	0.13736	-2.1	-2.0333	-2.4625	-2.2583	-2.3375	-2.5938	-2.3083	-2.6896	-2.4125	-2.0208	-2.6792	-2.3979	-2.2396	-2.8271	-2.1229	-2.4708	135.351	29.029	169.869	213.404	112.887	255.653	227.512	169.727	46.946	137.078	48.531	256.667	134.837	-85.675	206.725	217.832	0.0012646	0.00065457	0.00021606	600.33	8.3595e-06	6.8325e-06	899.36	233.45	7.8474e-06	7.5255e-06	408.19	216.43	107.66	62.293	7.9708e-06	130.35	0.00018859	4.4457e-05	1.2055e-05	584.62	4.9158e-07	3.7926e-07	878.9	228.43	5.1478e-07	4.6557e-07	398.71	213.49	105.54	61.77	5.849e-07	128.86	-22.207	2.208	-2.515	-81.794	56.714	47.024	-81.648	-76.503	91.122	64.680	-77.632	-72.784	-73.616	-69.243	40.118	-70.680	-8191	255	
1275.716	1	1	0	0	0.082998	0.064857	0.10194	0.045711	0.12639	0.1763	0.30478	0.19878	0.20647	0.13027	0.23778	0.090716	0.29999	0.295	0.15067	0.21581	-1.9896	-2.0396	-2.5229	-2.2375	-2.0812	-2.5438	-2.2333	-2.5479	-2.5479	-2.3063	-2.7583	-2.6646	-2.0062	-2.5563	-2.2396	-2.6375	-27.828	182.471	115.960	31.765	244.244	64.941	175.822	140.664	-17.924	192.014	164.345	132.843	-16.872	260.659	-33.754	257.641	0.0012535	0.0006657	0.00018095	599.91	7.6173e-06	7.4605e-06	900.34	232.62	1.0424e-05	6.6042e-06	407.93	218.32	107.09	62.661	6.2941e-06	130.77	0.00018637	4.2799e-05	1.1218e-05	584.99	4.8942e-07	4.1712e-07	880.02	229.09	5.6443e-07	4.5042e-07	399.02	214.48	105.46	61.954	5.5546e-07	129.57	-20.923	-5.549	2.565	-81.761	56.810	47.460	-81.613	-76.119	99.587	63.591	-77.368	-72.906	-73.690	-69.387	36.526	-70.708	-8191	255	
1275.812	1	1	0	0	0.26783	0.06234	0.1563	0.24275	0.11124	0.17892	0.24438	0.04739	0.045858	0.066408	0.31636	0.2045	0.28275	0.30354	0.12058	0.1528	-2.0938	-1.9271	-2.3917	-2.3958	-2.2479	-2.7479	-2.6063	-2.4208	-2.6063	-2.075	-2.4458	-2.4292	-2.2542	-2.8312	-2.2792	-2.5292	113.175	37.444	-24.579	125.485	12.879	-7.128	216.788	-92.381	-50.083	-22.031	209.177	-82.376	-72.302	194.339	-39.935	180.500	0.0012103	0.00062002	0.00020497	599.38	7.2843e-06	5.5517e-06	901.84	234	6.9278e-06	6.2159e-06	407.92	218.28	107.6	62.636	7.6011e-06	131.35	0.00018556	4.0437e-05	1.0964e-05	585.34	4.8419e-07	3.6611e-07	880.93	229.35	4.944e-07	4.3185e-07	399.22	214.82	105.54	61.931	5.5778e-07	129.95	-21.646	-1.628	0.120	-81.888	70.627	49.418	-81.716	-76.323	107.329	66.358	-77.368	-72.824	-73.630	-69.342	38.070	-70.752	-8191	255	
1275.908	1	1	0	0	0.097805	0.14032	0.21611	0.24588	0.30487	0.15028	0.22466	0.19202	0.36629	0.17371	0.14502	0.11695	0.34797	0.34401	0.049019	0.12915	-2.2854	-2.1333	-2.4542	-2.4479	-1.9417	-2.6021	-2.4354	-2.3646	-2.6583	-2.0354	-2.5896	-2.6708	-2.1521	-2.7812	-2.1083	-2.2458	49.339	-73.535	211.311	174.876	145.906	-74.721	232.508	204.150	-29.482	4.744	-31.144	224.642	-76.652	256.277	-71.342	223.335	0.0012396	0.0007007	0.00017395	598.81	7.4824e-06	6.2807e-06	901.91	233.32	8.8193e-06	6.6541e-06	406.95	218.05	107.85	62.187	7.9301e-06	130.57	0.0001853	4.4898e-05	1.2162e-05	585.11	4.8751e-07	3.9556e-07	880.72	229.26	4.9873e-07	4.387e-07	398.66	214.38	105.45	61.664	5.7935e-07	129.34	-19.208	0.898	5.935	-81.892	63.278	61.619	-81.823	-76.380	96.421	54.767	-77.375	-72.786	-73.507	-69.304	39.082	-70.796	-8191	255	
1275.982	1	1	0	0	0.10201	0.10118	0.10116	0.21109	0.2481	0.044986	0.25576	0.28583	0.25261	0.19135	0.17061	0.1438	0.028948	0.36755	0.10133	0.17604	-2.2771	-2.2854	-2.4375	-2.6312	-1.9813	-2.7042	-2.4854	-2.5125	-2.7313	-2.2125	-2.3187	-2.6354	-1.975	-2.6979	-2.3563	-2.6437	133.233	48.441	-81.293	-88.901	247.061	206.726	60.302	-22.896	129.386	39.824	-43.066	-85.218	137.838	233.075	241.911	176.360	0.0011985	0.00051571	0.00020433	596.19	8.9912e-06	6.164e-06	899.47	233.1	7.9428e-06	7.7604e-06	406.48	216.31	106.62	61.942	6.3725e-06	129.82	0.00018732	4.2023e-05	1.0651e-05	583.82	5.306e-07	3.8096e-07	877.75	228.43	5.531e-07	4.1236e-07	398.07	213.31	104.82	61.344	5.4267e-07	128.45	-23.114	-14.526	-7.638	-82.136	66.150	60.550	-81.728	-76.163	98.427	61.531	-77.317	-72.934	-73.664	-69.088	40.491	-70.729	-8191	255	
1276.101	1	1	0	0	0.24236	0.13923	0.17572	0.16942	0.24995	0.12474	0.031511	0.25511	0.13419	0.067956	0.047054	0.11418	0.27262	0.21029	0.15157	0.15193	-2.25	-2.0938	-2.4042	-2.7833	-2.15	-2.6458	-2.3854	-2.0958	-2.475	-2.2833	-2.4917	-3.0521	-2.1437	-2.5583	-2.4792	-2.2396	-51.576	-79.709	-67.541	70.474	130.355	252.359	116.351	-81.692	149.851	259.609	-75.710	230.724	-50.883	-30.454	212.670	245.402	0.0011974	0.00062148	0.00018843	596.61	9.6422e-06	7.472e-06	896.44	232.03	6.9143e-06	6.2154e-06	406.1	216.41	107.39	62.235	8.3754e-06	129.98	0.00018518	4.3288e-05	1.1388e-05	582.86	4.9528e-07	4.0463e-07	877.24	227.8	5.0446e-07	3.9182e-07	397.68	213.29	105.03	61.477	5.6489e-07	128.6	-21.266	-5.665	7.176	-81.975	56.878	48.358	-81.948	-76.579	100.772	66.816	-77.454	-73.046	-73.853	-69.285	52.066	-70.551	-8191	255	
1276.197	1	1	0	0	0.083883	0.26042	0.21691	0.013494	0.081514	0.05939	0.17827	0.303	0.23941	0.22279	0.13709	0.18361	0.15516	0.26793	0.11738	0.12513	-2.275	-2.3667	-2.2375	-2.8167	-2.0438	-2.3042	-2.6104	-2.3104	-2.7083	-2.1917	-2.1146	-2.6042	-2.1604	-2.7313	-2.3792	-2.2896	-59.110	253.834	63.195	-73.482	-81.860	56.142	-47.242	196.685	46.698	228.472	147.084	217.999	215.244	212.081	253.484	203.174	0.001201	0.00061785	0.00014669	598.14	8.9493e-06	7.1604e-06	897.95	232.21	6.2716e-06	7.0117e-06	409.32	216.33	106.93	61.794	8.3091e-06	130.21	0.00018434	4.0998e-05	1.0611e-05	582.2	5.0778e-07	4.1107e-07	877.55	227.33	4.9313e-07	4.0867e-07	398.76	213.13	104.87	61.233	5.6308e-07	129.02	-21.663	-9.196	-0.924	-81.936	48.078	46.851	-81.690	-76.385	103.546	66.182	-77.159	-73.031	-73.918	-69.084	46.731	-70.738	-8191	255	
1276.293	1	1	0	0	0.14365	0.15844	0.27412	0.13038	0.17276	0.039475	0.16522	0.078869	0.1442	0.05952	0.046864	0.24465	0.072157	0.35807	0.026595	0.34264	-1.9688	-2.5229	-2.2167	-2.7625	-2.1146	-2.6333	-2.5187	-2.0979	-2.4979	-2.5438	-2.2958	-2.6958	-2.2104	-2.4271	-2.6542	-2.3104	230.586	-50.678	-12.103	170.520	235.272	86.266	111.542	-49.056	116.909	37.268	223.812	-91.582	206.041	192.607	77.652	223.960	0.0012164	0.00066823	0.00020532	596.3	8.5861e-06	7.7092e-06	896.44	231.43	8.9493e-06	6.8374e-06	408.07	214.94	106.16	61.754	7.4806e-06	129.94	0.00018902	3.9471e-05	1.2032e-05	581.63	5.1861e-07	4.0726e-07	878.05	227.18	4.8893e-07	4.1236e-07	398.51	212.82	104.45	61.092	5.0922e-07	128.27	-21.297	-6.433	-1.554	-82.064	47.227	39.339	-81.713	-76.353	103.856	69.747	-76.998	-72.797	-73.902	-69.292	41.176	-70.653	-8191	255	
1276.414	1	1	0	0	0.087273	0.037631	0.068386	0.19039	0.2319	0.17492	0.39744	0.12661	0.091614	0.25618	0.05436	0.22153	0.11875	0.15534	0.16497	0.34042	-2.1479	-2.1542	-2.1104	-2.9188	-2.2438	-2.3563	-2.6917	-2.3479	-2.4979	-2.4896	-2.2875	-2.8583	-2.3583	-2.4813	-2.4437	-2.3167	85.194	126.793	-30.055	180.347	15.545	192.884	241.251	222.846	22.934	51.265	179.647	228.661	200.172	-49.716	225.383	222.859	0.0011499	0.00054013	0.00018471	594.29	7.4284e-06	6.8526e-06	895.64	230.35	8.2259e-06	5.9812e-06	405.17	215.32	106.61	61.699	8.4966e-06	128.7	0.00018505	3.9387e-05	1.1782e-05	580.75	4.9057e-07	4.0568e-07	875.62	226.11	5.3387e-07	3.959e-07	396.26	211.87	104.26	60.923	5.583e-07	127.46	-20.248	-11.833	1.362	-81.872	62.758	43.077	-81.661	-76.550	106.618	70.868	-76.995	-72.863	-73.671	-69.215	43.413	-70.730	-8191	255	
1276.510	1	1	0	0	0.30514	0.12074	0.26063	0.2077	0.19411	0.26001	0.20679	0.056912	0.23292	0.1706	0.16808	0.075385	0.083069	0.19659	0.10062	0.12052	-2.1021	-2.5292	-2.1458	-2.4646	-2.3458	-2.3125	-2.6292	-2.1813	-2.7	-2.3896	-2.1625	-2.875	-2.3229	-2.2313	-2.6271	-2.4188	155.039	76.722	255.264	-39.796	-65.035	32.541	164.002	-45.132	5.400	51.069	-82.894	186.255	210.579	-60.821	217.462	238.954	0.0011979	0.00067199	0.00019548	593.97	7.4638e-06	6.9534e-06	894.51	231.8	7.4256e-06	6.9953e-06	407.01	217.22	107.5	62.41	7.7565e-06	130.92	0.00018372	4.2489e-05	1.1758e-05	579.69	4.652e-07	4.3552e-07	874.72	226.82	5.2318e-07	4.1486e-07	398.29	213.98	105.59	61.821	5.5352e-07	129.59	-20.693	-15.572	1.125	-81.791	61.130	51.442	-81.697	-76.220	93.023	58.829	-77.479	-72.925	-73.757	-69.406	38.727	-70.786	-8191	255	
1276.581	1	1	0	0	0.20609	0.16259	0.077273	0.074541	0.15572	0.23191	0.078116	0.2184	0.24684	0.12296	0.059441	0.11609	0.22897	0.23933	0.15439	0.080882	-1.8125	-2.4562	-2.2896	-2.4375	-2.2917	-2.1958	-2.6458	-2.2938	-2.2583	-2.5896	-2.1896	-2.7521	-2.3604	-2.3042	-2.7521	-2.4813	-44.881	69.346	217.903	70.727	254.108	-91.278	109.353	238.840	-64.218	254.947	187.228	216.277	252.752	-66.559	114.558	254.175	0.0012015	0.00063289	0.00016701	595.37	7.5363e-06	8.4023e-06	896.92	232.61	7.2189e-06	6.8666e-06	411.32	219.99	108.45	62.916	7.9775e-06	131.79	0.00018429	4.0246e-05	1.1752e-05	582.22	4.8763e-07	4.3013e-07	876.74	229.03	5.2776e-07	3.7759e-07	400.99	216.06	106.57	62.42	5.3273e-07	130.44	-20.921	-4.974	6.031	-81.897	50.702	51.815	-81.680	-76.373	94.757	63.889	-77.070	-72.785	-73.747	-69.371	45.718	-70.863	-8191	255	
1276.702	1	1	0	0	0.37394	0.18265	0.23924	0.21673	0.093465	0.23042	0.17689	0.1861	0.18337	0.19052	0.2277	0.025116	0.18957	0.18645	0.31607	0.33847	-1.7271	-2.5292	-2.0438	-2.725	-2.4917	-1.9979	-2.8354	-2.5083	-2.3625	-2.6937	-2.2896	-2.625	-2.4979	-2.1271	-2.4646	-2.4958	213.470	147.709	-71.199	201.129	66.162	169.799	259.149	226.394	51.582	27.429	-66.634	52.044	-84.855	-48.274	-40.598	232.117	0.0012357	0.00072478	0.00018907	596.98	9.6657e-06	6.7912e-06	895.84	234.69	8.3917e-06	7.7273e-06	411.15	220.36	108.94	63.359	7.2248e-06	132.5	0.00018964	4.1511e-05	1.1972e-05	584.21	4.8814e-07	4.2172e-07	880.28	230.4	5.4762e-07	4.1434e-07	402.41	217.29	107.16	62.653	5.6747e-07	131.01	-20.391	-3.104	-1.034	-81.991	67.040	45.615	-81.692	-76.312	99.039	64.488	-77.104	-72.854	-73.884	-69.453	38.754	-70.876	-8191	255	
#DATA ENDS
