BOXY.EXE: ISS Imagent and Oximeter Data Acquisition Program Version 0.80
Ascii Record File

#ACQ INFORMATION
2  Detector Channels 
16  External MUX Channels 
1  Auxiliary Channels 
5000  Waveform (CCF) Frequency (Hz)
1  Waveforms Skipped 
30  Waveforms Averaged 
1  Cycles Averaged 
16  Acquisitions per Waveform 
10.0806  Updata Rate (Hz) 

#FILE INFORMATION
TRUE -- External MUX Channel results are PARSED.
FALSE -- AC DC and Phase are NOT grouped.
TRUE -- Companion Program Settings File CREATED.
FALSE -- AC data not excluded
FALSE -- DC data not excluded
FALSE -- Phase data not excluded
FALSE -- Auxillary Chn. data not excluded
Tab delimiters

#CALIBRATION STATE
TRUE -- Waveform Calibration Values APPLIED.


#AUX CALIBRATION VALUES
Val Type	aux-1	

Term	1.0000e+00	
Factor	0.0000e+00	


#WF CALIBRATION VALUES
A = Detector Channel
Val Type	A-AC1	A-AC2	A-AC3	A-AC4	A-AC5	A-AC6	A-AC7	A-AC8	A-AC9	A-AC10	A-AC11	A-AC12	A-AC13	A-AC14	A-AC15	A-AC16	A-DC1	A-DC2	A-DC3	A-DC4	A-DC5	A-DC6	A-DC7	A-DC8	A-DC9	A-DC10	A-DC11	A-DC12	A-DC13	A-DC14	A-DC15	A-DC16	A-Ph1	A-Ph2	A-Ph3	A-Ph4	A-Ph5	A-Ph6	A-Ph7	A-Ph8	A-Ph9	A-Ph10	A-Ph11	A-Ph12	A-Ph13	A-Ph14	A-Ph15	A-Ph16	

Term	0.00000e+00	0.00000e+00	0.00000e+00	0.00000e+00	0.00000e+00	0.00000e+00	0.00000e+00	0.00000e+00	0.00000e+00	0.00000e+00	0.00000e+00	0.00000e+00	0.00000e+00	0.00000e+00	0.00000e+00	0.00000e+00	0.00000e+00	0.00000e+00	0.00000e+00	0.00000e+00	0.00000e+00	0.00000e+00	0.00000e+00	0.00000e+00	0.00000e+00	0.00000e+00	0.00000e+00	0.00000e+00	0.00000e+00	0.00000e+00	0.00000e+00	0.00000e+00	0.00000e+00	0.00000e+00	0.00000e+00	0.00000e+00	0.00000e+00	0.00000e+00	0.00000e+00	0.00000e+00	0.00000e+00	0.00000e+00	0.00000e+00	0.00000e+00	0.00000e+00	0.00000e+00	0.00000e+00	0.00000e+00	
Factor	1.00000e+00	1.00000e+00	1.00000e+00	1.00000e+00	1.00000e+00	1.00000e+00	1.00000e+00	1.00000e+00	1.00000e+00	1.00000e+00	1.00000e+00	1.00000e+00	1.00000e+00	1.00000e+00	1.00000e+00	1.00000e+00	1.00000e+00	1.00000e+00	1.00000e+00	1.00000e+00	1.00000e+00	1.00000e+00	1.00000e+00	1.00000e+00	1.00000e+00	1.00000e+00	1.00000e+00	1.00000e+00	1.00000e+00	1.00000e+00	1.00000e+00	1.00000e+00	X	X	X	X	X	X	X	X	X	X	X	X	X	X	X	X	

B = Detector Channel
Val Type	B-AC1	B-AC2	B-AC3	B-AC4	B-AC5	B-AC6	B-AC7	B-AC8	B-AC9	B-AC10	B-AC11	B-AC12	B-AC13	B-AC14	B-AC15	B-AC16	B-DC1	B-DC2	B-DC3	B-DC4	B-DC5	B-DC6	B-DC7	B-DC8	B-DC9	B-DC10	B-DC11	B-DC12	B-DC13	B-DC14	B-DC15	B-DC16	B-Ph1	B-Ph2	B-Ph3	B-Ph4	B-Ph5	B-Ph6	B-Ph7	B-Ph8	B-Ph9	B-Ph10	B-Ph11	B-Ph12	B-Ph13	B-Ph14	B-Ph15	B-Ph16	

Term	0.00000e+00	0.00000e+00	0.00000e+00	0.00000e+00	0.00000e+00	0.00000e+00	0.00000e+00	0.00000e+00	0.00000e+00	0.00000e+00	0.00000e+00	0.00000e+00	0.00000e+00	0.00000e+00	0.00000e+00	0.00000e+00	0.00000e+00	0.00000e+00	0.00000e+00	0.00000e+00	0.00000e+00	0.00000e+00	0.00000e+00	0.00000e+00	0.00000e+00	0.00000e+00	0.00000e+00	0.00000e+00	0.00000e+00	0.00000e+00	0.00000e+00	0.00000e+00	2.16202e+01	-1.27640e+02	-1.20072e+02	-1.81829e+02	-6.16250e+01	-7.02085e+01	-1.55860e+02	-1.62015e+02	-1.48752e+01	-5.71797e+01	-1.72273e+02	-1.70198e+02	-1.80175e+02	-1.76607e+02	-7.27239e+01	-1.49939e+02	
Factor	4.79762e-05	1.77696e-04	5.16229e-05	1.64818e-01	2.61545e-06	2.05122e-06	1.93509e-01	5.38336e-02	2.73419e-06	1.91366e-06	1.19766e-01	3.42918e-02	3.29175e-02	9.95306e-03	2.68039e-06	1.45024e-02	5.05911e-06	5.72559e-06	1.60112e-06	8.38037e-02	6.11931e-08	6.30998e-08	9.23443e-02	2.74153e-02	6.11160e-08	6.32174e-08	5.83758e-02	1.68713e-02	1.67443e-02	5.10467e-03	6.19901e-08	7.18827e-03	X	X	X	X	X	X	X	X	X	X	X	X	X	X	X	X	



#DISTANCE SETTINGS
A = Detector Channel
A-1	A-2	A-3	A-4	A-5	A-6	A-7	A-8	A-9	A-10	A-11	A-12	A-13	A-14	A-15	A-16	

2.5000e+00	3.0000e+00	2.5000e+00	3.0000e+00	2.0000e+00	3.0000e+00	1.5000e+00	3.0000e+00	3.0000e+00	3.0000e+00	3.0000e+00	3.0000e+00	3.0000e+00	3.0000e+00	1.5000e+00	3.0000e+00	

B = Detector Channel
B-1	B-2	B-3	B-4	B-5	B-6	B-7	B-8	B-9	B-10	B-11	B-12	B-13	B-14	B-15	B-16	

1.0000e+01	1.0000e+01	1.0000e+01	1.4400e+00	1.0000e+01	1.0000e+01	1.5100e+00	1.9400e+00	1.0000e+01	1.0000e+01	1.9900e+00	2.4900e+00	2.4100e+00	2.9000e+00	1.0000e+01	2.9800e+00	




#DATA BEGINS
time	group	step	mark	flag	A-AC1	A-AC2	A-AC3	A-AC4	A-AC5	A-AC6	A-AC7	A-AC8	A-AC9	A-AC10	A-AC11	A-AC12	A-AC13	A-AC14	A-AC15	A-AC16	A-DC1	A-DC2	A-DC3	A-DC4	A-DC5	A-DC6	A-DC7	A-DC8	A-DC9	A-DC10	A-DC11	A-DC12	A-DC13	A-DC14	A-DC15	A-DC16	A-Ph1	A-Ph2	A-Ph3	A-Ph4	A-Ph5	A-Ph6	A-Ph7	A-Ph8	A-Ph9	A-Ph10	A-Ph11	A-Ph12	A-Ph13	A-Ph14	A-Ph15	A-Ph16	B-AC1	B-AC2	B-AC3	B-AC4	B-AC5	B-AC6	B-AC7	B-AC8	B-AC9	B-AC10	B-AC11	B-AC12	B-AC13	B-AC14	B-AC15	B-AC16	B-DC1	B-DC2	B-DC3	B-DC4	B-DC5	B-DC6	B-DC7	B-DC8	B-DC9	B-DC10	B-DC11	B-DC12	B-DC13	B-DC14	B-DC15	B-DC16	B-Ph1	B-Ph2	B-Ph3	B-Ph4	B-Ph5	B-Ph6	B-Ph7	B-Ph8	B-Ph9	B-Ph10	B-Ph11	B-Ph12	B-Ph13	B-Ph14	B-Ph15	B-Ph16	aux-1	digaux	

1281.863	1	1	0	256	0.27991	0.24111	0.14851	0.2077	0.071273	0.18813	0.337	0.10822	0.19784	0.19043	0.1743	0.15826	0.13379	0.131	0.32899	0.36598	-2.0229	-2.2812	-2.6063	-2.1625	-2.3542	-2.6021	-2.1937	-2.6167	-2.425	-2.3708	-2.6333	-2.2458	-2.3563	-2.8354	-2.2229	-2.8063	235.655	26.805	105.303	218.537	123.285	257.168	121.217	156.116	70.757	173.852	97.146	-29.583	242.195	-56.287	226.713	258.311	0.001199	0.00073401	0.00019468	584.86	7.3747e-06	7.3265e-06	872.17	232.79	8.1823e-06	7.0482e-06	405.76	219.06	110.62	64.168	7.548e-06	129.78	0.00019059	4.5339e-05	1.1461e-05	571.12	5.2256e-07	4.4709e-07	853.54	229.02	5.6571e-07	4.2803e-07	395.52	215.45	108.57	63.592	6.2197e-07	128.12	-20.630	-5.253	-9.062	-81.958	63.904	53.913	-81.750	-76.236	102.976	64.888	-77.302	-73.133	-73.575	-69.257	48.615	-70.949	-8191	255	
1281.959	1	1	0	0	0.31846	0.088856	0.1266	0.17614	0.029242	0.10255	0.13922	0.19052	0.24725	0.13381	0.22854	0.23209	0.15427	0.26912	0.12286	0.1947	-1.9146	-2.2375	-2.7208	-2.3542	-2.4083	-2.675	-2.4042	-2.6125	-2.6625	-2.3917	-2.875	-2.3896	-2.3979	-2.6604	-1.8937	-2.5187	84.583	100.768	257.668	261.262	248.322	138.930	-74.423	188.208	236.615	-21.486	-16.359	219.583	171.943	253.832	-34.122	253.402	0.0012272	0.00069695	0.00019235	586.22	8.052e-06	6.1084e-06	873.15	232.42	8.5326e-06	6.3406e-06	403.78	218.18	110.12	64.035	6.6503e-06	129.57	0.00018788	4.7057e-05	1.1008e-05	570.78	5.0051e-07	3.6874e-07	852.42	228.94	5.5094e-07	4.3581e-07	393.93	214.96	108.16	63.387	6.004e-07	128.05	-19.710	-6.203	-7.023	-81.742	57.181	55.489	-81.639	-76.188	88.819	66.043	-77.539	-73.116	-73.387	-69.359	42.372	-70.847	-8191	255	
1282.055	1	1	0	0	0.070798	0.1562	0.20802	0.15809	0.09347	0.20003	0.15194	0.253	0.12642	0.25349	0.1299	0.16732	0.2155	0.17239	0.15121	0.40015	-2.0208	-1.9208	-2.5563	-2.2667	-2.3396	-2.5646	-2.35	-2.4854	-2.4125	-2.0625	-2.6021	-2.4958	-2.225	-2.6208	-2.2854	-2.5062	111.459	-32.319	11.667	41.563	-37.194	-29.464	228.633	218.309	-25.492	221.229	209.107	227.920	264.591	215.091	58.743	233.350	0.0012214	0.00074578	0.00019206	586.22	6.936e-06	7.3087e-06	870.47	232.5	5.7142e-06	7.2791e-06	401.63	218.34	110.29	64.23	7.2866e-06	129.79	0.0001837	4.7558e-05	1.0587e-05	571.5	5e-07	4.1462e-07	853.35	228.63	5.1146e-07	4.7268e-07	394.25	215.24	108.11	63.479	6.1706e-07	128.19	-19.434	-9.737	3.532	-81.884	57.840	50.871	-81.582	-76.294	101.553	60.210	-77.320	-73.241	-73.835	-69.345	43.566	-71.010	-8191	255	
1282.176	1	1	0	0	0.090354	0.22831	0.15293	0.23731	0.1508	0.11787	0.11514	0.28012	0.089803	0.33745	0.074477	0.092821	0.18527	0.26297	0.18939	0.19703	-1.9917	-1.9375	-2.4125	-2.2896	-2.2438	-2.4729	-2.1833	-2.4458	-2.3812	-2.0708	-2.5875	-2.6208	-2.2896	-2.7479	-2.3979	-2.5042	-67.931	225.678	-76.448	193.957	21.045	232.420	190.895	181.831	58.455	83.921	121.235	114.221	-28.393	-70.459	38.060	156.091	0.0012534	0.00052315	0.00020957	583.83	7.5098e-06	7.2752e-06	872.56	233.04	6.811e-06	8.4217e-06	402.31	218.16	109.78	63.868	7.0255e-06	128.68	0.00018766	4.5876e-05	1.2325e-05	569.03	5.0127e-07	4.5419e-07	851.86	228.68	4.9975e-07	4.7993e-07	393.43	214.5	107.73	63.194	5.9536e-07	127.2	-18.698	-1.654	3.278	-81.757	61.642	55.436	-81.706	-76.177	89.693	65.219	-77.130	-73.129	-73.657	-69.177	38.512	-70.886	-8191	255	
1282.272	1	1	0	0	0.21097	0.030871	0.10961	0.082735	0.1637	0.21033	0.17258	0.2626	0.16028	0.15621	0.16358	0.28078	0.19715	0.23787	0.052796	0.49119	-2.0875	-2.1396	-2.5062	-2.3	-2.2313	-2.5771	-2.4625	-2.5521	-2.6875	-2.2188	-2.775	-2.8208	-2.2479	-2.8917	-2.1042	-2.5187	-76.975	-56.835	-9.510	9.345	93.569	23.098	-40.274	221.426	-43.051	195.237	-81.806	189.852	-40.035	-82.923	40.925	247.083	0.0011899	0.00068883	0.00024687	583.59	9.8874e-06	7.1152e-06	864.47	231.6	7.7211e-06	6.8986e-06	400.7	216.33	108.81	63.679	7.298e-06	128	0.00018932	4.466e-05	1.3099e-05	568.83	5.3353e-07	3.8964e-07	847.55	227.54	5.5845e-07	4.1328e-07	392	213.08	107.36	63.046	6.0582e-07	126.6	-21.230	1.395	2.607	-82.015	57.823	46.986	-81.606	-75.944	89.412	52.705	-77.188	-72.903	-73.593	-69.468	38.693	-71.106	-8191	255	
1282.343	1	1	0	0	0.14065	0.0134	0.11095	0.1399	0.11956	0.060624	0.19016	0.11371	0.18233	0.099549	0.22774	0.24784	0.1903	0.20334	0.079305	0.13449	-2.4083	-2.0167	-2.6604	-2.6896	-2.3521	-2.7229	-2.5167	-2.4542	-2.8167	-2.3229	-2.6042	-2.575	-2.3333	-2.85	-2.2792	-2.675	-6.045	192.626	119.912	192.868	-17.629	-53.420	224.891	232.927	-47.162	140.670	213.896	34.072	226.972	-93.194	-47.982	111.158	0.0011702	0.00065089	0.00021593	582.96	8.237e-06	7.4248e-06	869.74	231.24	7.2045e-06	5.6315e-06	400.15	216.61	109.78	63.785	8.7585e-06	128.9	0.00018346	4.1797e-05	1.2098e-05	567.46	5.0599e-07	4.2553e-07	848.11	227.14	5.2942e-07	4.1658e-07	391.74	213.65	107.82	63.149	6.1151e-07	126.97	-21.156	4.690	4.614	-81.678	58.349	53.771	-81.701	-76.222	113.425	70.591	-77.323	-73.169	-73.778	-69.397	33.111	-70.850	-8191	255	
1282.464	1	1	0	0	0.087695	0.18827	0.16696	0.19298	0.090408	0.24659	0.1985	0.13924	0.1965	0.18004	0.12337	0.24624	0.29742	0.26858	0.13706	0.13344	-2.5333	-2.2479	-2.3875	-2.95	-2.3042	-2.6521	-2.5646	-2.2792	-2.6771	-2.4938	-2.5458	-2.6042	-2.1542	-2.6979	-2.6542	-2.5854	212.447	38.894	142.929	200.749	199.475	25.963	260.772	113.526	-13.682	201.135	236.609	203.754	228.323	-89.574	219.263	121.437	0.0011857	0.00070697	0.0002084	581.16	7.959e-06	7.8146e-06	867.75	231.45	8.1729e-06	6.0101e-06	403.79	217.23	109.72	63.767	5.8732e-06	128.68	0.00018097	4.4147e-05	1.1922e-05	567.34	5.1568e-07	4.1659e-07	849.4	227.48	5.2012e-07	4.3541e-07	392.77	213.84	107.55	63.084	5.6527e-07	127.03	-21.557	-1.555	-1.860	-81.934	65.654	53.676	-81.872	-76.177	94.009	61.342	-77.057	-73.014	-73.549	-69.208	28.045	-70.771	-8191	255	
1282.560	1	1	0	0	0.18284	0.15708	0.22515	0.16837	0.033578	0.065257	0.28024	0.37242	0.15152	0.031771	0.39429	0.21993	0.074306	0.18082	0.12446	0.36715	-2.3729	-2.3688	-2.4437	-2.8438	-2.2562	-2.7896	-2.7458	-2.4833	-2.8	-2.4437	-2.4437	-3.0271	-2.3708	-2.5271	-2.6354	-2.4646	256.119	77.153	105.942	-90.691	-92.658	112.735	201.332	-62.626	253.424	-76.189	178.900	153.989	45.171	-76.386	74.584	205.392	0.0011953	0.00067342	0.00018835	582.23	7.96e-06	6.9362e-06	864.67	231.99	6.4865e-06	6.1897e-06	400.53	216.57	109.22	63.28	8.4744e-06	127.79	0.0001837	4.3264e-05	1.1758e-05	567.15	4.8304e-07	4.0003e-07	848.2	227.36	5.2942e-07	3.8852e-07	391.77	212.92	107.06	62.744	5.7974e-07	126.39	-23.274	-13.241	-7.948	-81.766	52.706	56.439	-81.858	-76.183	103.035	72.108	-77.400	-73.004	-73.651	-69.114	30.029	-70.792	-8191	255	
1282.655	1	1	0	0	0.074649	0.093265	0.18499	0.19846	0.093192	0.097893	0.16782	0.40135	0.14409	0.097875	0.11561	0.20906	0.059021	0.14172	0.055475	0.096669	-2.5396	-2.3979	-2.2438	-2.8542	-2.2521	-2.6167	-2.775	-2.3292	-2.8417	-2.4521	-2.4021	-2.8396	-2.4	-2.7146	-2.4813	-2.4688	163.725	229.861	24.823	-83.237	-87.849	46.842	-47.525	252.769	-90.871	112.772	-68.058	160.155	197.640	259.907	38.348	-89.837	0.0011784	0.00062416	0.00019827	583.94	7.5332e-06	7.0741e-06	865.13	231.42	7.4305e-06	6.1116e-06	397.34	215.29	108.53	63.02	8.2925e-06	126.67	0.00018008	4.1606e-05	1.2189e-05	567.44	4.9197e-07	4.1909e-07	847.51	226.37	5.0433e-07	4.0275e-07	389.66	211.6	106.73	62.455	5.9046e-07	125.39	-21.050	-4.960	1.393	-81.466	50.870	51.564	-81.774	-76.109	93.278	62.034	-77.301	-73.074	-73.727	-69.337	33.343	-71.051	-8191	255	
1282.751	1	1	0	0	0.094475	0.22947	0.12378	0.093163	0.14107	0.19723	0.099291	0.18199	0.0773	0.24072	0.17886	0.18369	0.11802	0.2999	0.076558	0.048972	-2.275	-2.5312	-2.3625	-2.7146	-2.225	-2.5104	-2.5375	-2.1833	-2.4708	-2.3563	-2.2458	-2.7583	-2.3896	-2.525	-2.7708	-2.4479	-3.824	175.631	246.670	198.662	161.130	33.272	116.599	152.765	32.896	96.447	112.256	76.790	18.397	226.265	12.357	112.222	0.0012064	0.00068732	0.0001928	579.66	6.8041e-06	7.2521e-06	860.35	230.55	6.8466e-06	6.8314e-06	398.33	214.49	109.26	63.345	7.4657e-06	127.46	0.00017776	4.1689e-05	1.1938e-05	565.91	5.0625e-07	4.3986e-07	845.54	226.31	4.9542e-07	4.2553e-07	390.45	211.79	107.03	62.726	5.6656e-07	125.87	-20.526	-9.298	0.050	-81.802	65.716	53.857	-81.793	-76.292	106.996	55.249	-77.597	-72.981	-73.342	-69.204	39.188	-70.911	-8191	255	
1282.847	1	1	0	0	0.097047	0.17006	0.098954	0.097677	0.087966	0.097714	0.3371	0.1315	0.081267	0.38352	0.067831	0.17232	0.078654	0.067205	0.18488	0.081232	-2.2333	-2.5583	-2.3187	-2.6271	-2.1625	-2.15	-2.7083	-2.4333	-2.7083	-2.6375	-2.3312	-2.8604	-2.3458	-2.3	-2.6708	-2.3479	126.288	146.701	91.493	196.161	58.038	32.954	-38.711	150.778	-36.984	173.295	-85.115	-25.291	-87.323	250.174	18.155	231.469	0.0011979	0.00063312	0.00019174	580.59	9.1535e-06	6.4787e-06	864.8	231.09	6.1239e-06	6.7555e-06	401.49	216.73	108.55	63.669	6.0494e-06	127.81	0.00018516	4.1033e-05	1.1895e-05	566.27	5.1542e-07	4.5603e-07	844.76	227.13	5.2916e-07	4.2777e-07	391.41	213.16	107.33	63.003	5.3841e-07	126.35	-19.505	-2.604	5.508	-81.780	57.366	52.148	-81.929	-76.320	100.812	58.849	-77.311	-72.988	-73.488	-69.413	36.110	-70.830	-8191	255	
1282.943	1	1	0	0	0.22849	0.16547	0.30789	0.08714	0.078832	0.17194	0.25634	0.080651	0.11396	0.1539	0.2694	0.15289	0.078598	0.40402	0.14155	0.30165	-1.9917	-2.4313	-2.0708	-2.7292	-2.4562	-2.4125	-2.8583	-2.5667	-2.6125	-2.625	-2.2292	-2.7062	-2.4042	-2.2458	-2.5625	-2.3667	233.920	141.901	180.495	-65.238	260.833	52.379	233.321	201.141	77.244	217.676	173.088	-88.974	-7.921	248.306	112.969	210.482	0.0012328	0.00066509	0.00018129	577.89	8.7127e-06	7.3987e-06	865.58	231.05	7.0931e-06	7.3931e-06	400.55	217.28	109.55	63.981	7.1682e-06	128.22	0.00018692	4.2167e-05	1.2585e-05	566.64	4.8649e-07	4.2842e-07	847.2	227.44	5.1732e-07	4.0907e-07	391.57	213.47	107.6	63.097	5.7638e-07	126.59	-22.564	-10.340	-1.789	-81.941	61.432	54.733	-82.008	-76.178	89.647	65.310	-77.389	-73.077	-73.409	-69.330	48.646	-70.880	-8191	255	
1283.039	1	1	0	0	0.098477	0.07467	0.21889	0.19108	0.098843	0.13276	0.065166	0.29391	0.03361	0.18799	0.17092	0.24157	0.16015	0.24874	0.21046	0.38929	-1.9229	-2.5771	-2.1125	-2.7604	-2.3958	-2.2146	-3.0833	-2.3521	-2.5396	-2.7729	-2.275	-2.7958	-2.6604	-2.4333	-2.7208	-2.4729	36.826	148.813	80.052	238.762	186.142	84.173	228.980	218.334	65.382	98.734	217.249	-56.005	234.180	-88.521	8.805	228.878	0.0011785	0.00072095	0.00016462	580.55	9.0501e-06	6.758e-06	866.24	232.04	7.2812e-06	6.886e-06	399.4	217.27	110.72	64.128	6.9094e-06	128.27	0.00018413	4.1439e-05	1.2068e-05	567.32	4.5806e-07	4.5077e-07	844.7	227.73	5.3056e-07	4.1131e-07	391.17	213.86	108.26	63.475	5.8387e-07	126.56	-20.364	-4.908	8.288	-82.136	57.894	54.004	-81.652	-76.071	105.191	61.495	-77.333	-73.231	-73.645	-69.027	36.252	-70.871	-8191	255	
1283.135	1	1	0	0	0.14356	0.22328	0.28661	0.21026	0.056176	0.13815	0.062801	0.24805	0.021105	0.076509	0.080527	0.31605	0.21091	0.23179	0.2661	0.20133	-2.0417	-2.4375	-2.0438	-2.3792	-2.4542	-2.1479	-2.5979	-2.4542	-2.3521	-2.8563	-2.4188	-2.875	-2.7396	-2.2771	-2.7146	-2.4917	4.914	-87.218	172.973	113.535	240.632	-18.195	-67.279	242.054	29.489	77.267	214.983	134.265	49.750	65.759	-89.834	170.887	0.0012313	0.0006839	0.00019227	579.76	8.6601e-06	8.23e-06	864.99	233.64	7.3698e-06	6.4182e-06	401.85	219.58	111.31	65.035	7.7136e-06	129.5	0.0001867	4.0377e-05	1.2399e-05	567.34	4.6226e-07	4.3131e-07	848.89	229.18	5.4801e-07	4.0459e-07	393.41	215.3	109.42	64.313	5.4706e-07	127.94	-18.502	-17.550	3.018	-81.927	60.900	41.551	-81.600	-76.129	94.145	60.859	-77.145	-73.056	-73.698	-69.261	37.640	-70.943	-8191	255	
1283.256	1	1	0	0	0.23498	0.23859	0.028317	0.23971	0.13405	0.11218	0.10821	0.1	0.12531	0.16267	0.087437	0.095441	0.038452	0.31542	0.11693	0.17439	-1.8125	-2.7	-2.1854	-2.4208	-2.6896	-2.1604	-2.7438	-2.4646	-2.2479	-2.7	-2.425	-2.7	-2.7479	-2.4708	-2.5521	-2.6375	194.206	64.739	100.992	236.580	44.064	94.243	106.901	-71.893	1.267	121.641	-90.688	-86.874	-80.221	221.596	-51.649	165.228	0.0012182	0.00071564	0.00017491	582.43	7.4759e-06	8.495e-06	872	233.13	6.9114e-06	6.4237e-06	402.86	218.69	111.39	64.827	6.4681e-06	129.85	0.0001876	4.1499e-05	1.1081e-05	569.77	4.6481e-07	4.5498e-07	850.26	229.73	5.4291e-07	3.8536e-07	394.21	215.73	109.3	64.19	5.5727e-07	128.35	-20.779	-0.432	11.634	-81.585	57.851	59.174	-81.526	-76.233	104.650	66.809	-77.329	-73.268	-73.699	-69.327	32.620	-71.026	-8191	255	
1283.352	1	1	0	0	0.19975	0.16853	0.20682	0.1901	0.025782	0.2627	0.277	0.22836	0.1706	0.080364	0.091352	0.13212	0.38867	0.21719	0.04482	0.15395	-1.7292	-2.6771	-2.2125	-2.2687	-2.4708	-2.3438	-2.6583	-2.6458	-2.4104	-2.7396	-2.5938	-2.4833	-2.6729	-2.2104	-2.2667	-2.6896	197.865	141.710	-35.447	-20.674	208.406	202.282	249.981	172.357	111.553	246.050	105.478	187.116	254.946	196.919	130.047	200.082	0.0012374	0.00075235	0.00020031	587.49	8.7105e-06	7.7429e-06	866.9	234.52	6.0017e-06	6.6696e-06	406.66	219.47	110.71	64.758	8.4203e-06	130.11	0.00019117	4.6079e-05	1.1808e-05	572.28	4.8508e-07	4.4012e-07	851.24	230.42	5.4788e-07	3.9774e-07	395.75	215.79	109.15	64.179	5.9666e-07	128.65	-20.951	-4.424	-2.417	-81.648	56.455	43.618	-81.430	-76.151	99.804	61.455	-77.306	-72.942	-73.513	-69.273	28.679	-70.711	-8191	255	
1283.448	1	1	0	0	0.24407	0.11081	0.31162	0.15567	0.083839	0.32478	0.1495	0.13305	0.17504	0.14406	0.20073	0.049282	0.20606	0.084349	0.3718	0.31815	-1.7521	-2.4938	-2.3271	-2.2792	-2.5917	-2.2292	-2.7354	-2.7667	-2.1937	-2.7417	-2.4104	-2.4979	-2.7833	-2.3812	-2.3646	-2.7729	144.785	144.617	143.406	-0.784	147.818	57.091	264.092	177.919	258.787	11.259	130.925	257.261	-34.331	66.445	32.541	199.091	0.0012316	0.0007493	0.00015804	586.19	8.0917e-06	7.752e-06	871.64	233.01	5.7523e-06	5.6073e-06	400.31	217.84	110.19	63.904	7.4717e-06	128.74	0.00019019	4.2202e-05	1.1725e-05	571.29	4.6443e-07	4.768e-07	852.36	228.68	5.4457e-07	3.822e-07	392.88	214	107.98	63.413	5.5584e-07	126.92	-21.023	-8.398	1.065	-82.073	54.248	46.573	-81.879	-76.328	95.396	61.115	-77.159	-72.789	-73.836	-69.400	45.776	-70.993	-8191	255	
1283.544	1	1	0	0	0.058447	0.13864	0.13337	0.14799	0.13624	0.04832	0.29543	0.32205	0.15881	0.064449	0.057422	0.14939	0.044651	0.19598	0.10784	0.35274	-1.7521	-2.5771	-2.3271	-2.2458	-2.7583	-2.2313	-2.4417	-2.7458	-2.1854	-2.5125	-2.4208	-2.1271	-2.7708	-2.4271	-2.3333	-2.6729	64.573	84.515	68.749	243.337	91.376	-55.561	170.723	-92.770	12.371	188.731	81.984	201.725	-50.986	257.650	39.407	218.201	0.0011753	0.00064931	0.00015852	581.05	8.5235e-06	9.0107e-06	863.6	231.29	7.0115e-06	7.0898e-06	403.1	217	109.87	64.052	7.2947e-06	128.17	0.00018704	4.1117e-05	1.1151e-05	568.99	4.7871e-07	4.5787e-07	847.19	227.84	5.461e-07	4.3752e-07	392.24	213.38	107.78	63.323	5.7612e-07	126.96	-20.824	-9.008	6.238	-81.790	58.349	50.515	-81.622	-76.218	108.505	66.425	-77.171	-73.069	-73.580	-69.304	41.193	-70.959	-8191	255	
1283.639	1	1	0	0	0.24305	0.14866	0.12495	0.14372	0.15444	0.029142	0.10998	0.11897	0.079477	0.31832	0.078227	0.077371	0.23377	0.0024644	0.1684	0.31587	-1.7729	-2.5896	-2.5333	-2.3125	-2.775	-2.4125	-2.55	-2.8479	-2.2229	-2.5292	-2.6583	-2.4	-2.6667	-2.4917	-2.3667	-2.9271	-55.316	-32.483	-21.955	244.546	126.544	218.546	202.756	-76.555	104.233	-84.283	136.456	7.406	242.135	241.273	75.900	204.314	0.0012477	0.00060177	0.00021246	583.52	8.3419e-06	7.0318e-06	870.25	232.45	9.1882e-06	7.9904e-06	401.05	217.38	109.62	64.056	9.2404e-06	128.52	0.00018602	4.1797e-05	1.1625e-05	569.26	4.5461e-07	4.4972e-07	849.57	227.97	5.6889e-07	4.254e-07	392.16	213.47	107.66	63.349	5.707e-07	127.11	-20.268	-4.674	5.469	-81.675	57.109	46.067	-81.698	-76.510	101.133	69.758	-77.075	-73.221	-73.805	-69.197	39.605	-70.822	-8191	255	
1283.735	1	1	0	0	0.065381	0.13649	0.18066	0.027979	0.12825	0.067108	0.13016	0.21872	0.19024	0.14866	0.091646	0.36113	0.26781	0.098041	0.17766	0.25266	-1.9292	-2.4083	-2.5708	-2.3604	-2.6042	-2.35	-2.3458	-2.9125	-2.3604	-2.5	-2.6792	-2.3688	-2.8708	-2.5354	-2.2958	-3.0417	201.701	-45.240	27.273	106.639	111.449	-15.387	112.302	207.576	-30.294	161.694	174.465	239.106	-82.641	255.708	-86.780	182.170	0.0011905	0.00060635	0.00021	583.73	8.5888e-06	6.4312e-06	864.78	231.49	6.6495e-06	7.1813e-06	400.55	215.9	108.29	63.556	6.9409e-06	127.97	0.00018718	4.3693e-05	1.1515e-05	569.28	4.6749e-07	3.9687e-07	849.03	227.85	5.2343e-07	4.1552e-07	391.99	213.03	106.38	62.984	6.1215e-07	126.66	-20.905	3.960	-12.291	-81.939	57.041	49.051	-81.865	-76.418	99.003	58.463	-77.347	-73.213	-73.560	-69.137	41.587	-70.924	-8191	255	
1283.856	1	1	0	0	0.16046	0.22235	0.12488	0.21582	0.11689	0.14298	0.35074	0.19212	0.10429	0.14381	0.32164	0.24593	0.082566	0.15891	0.023835	0.26589	-1.9438	-2.5729	-2.8937	-2.2958	-2.8042	-2.7	-2.4292	-2.8292	-2.2604	-2.4667	-2.7021	-2.3896	-2.3417	-2.75	-2.0062	-2.7958	136.539	74.932	260.656	227.223	250.136	147.829	208.862	-86.217	87.013	105.537	145.986	64.041	176.408	260.999	7.812	150.997	0.0012284	0.00074312	0.00018252	580.61	6.3619e-06	6.7316e-06	863.55	230.06	9.1206e-06	5.4234e-06	395.75	214.18	107.51	62.841	6.1663e-06	126.84	0.00018595	4.1821e-05	1.1088e-05	566.22	4.4811e-07	4.0726e-07	846.66	225.94	5.4075e-07	4.1394e-07	388.25	210.76	106.06	62.289	5.5249e-07	125.07	-18.615	1.591	5.093	-81.893	53.414	52.733	-81.697	-76.244	97.205	70.843	-77.326	-72.986	-73.830	-69.198	45.661	-70.784	-8191	255	
1283.952	1	1	0	0	0.36077	0.096178	0.085141	0.20099	0.092488	0.20682	0.03008	0.24872	0.12355	0.16434	0.32338	0.17442	0.37142	0.36188	0.12539	0.097069	-1.8937	-2.3812	-2.7521	-2.4396	-2.6937	-2.725	-2.4104	-2.8438	-2.5375	-2.4729	-2.8583	-2.35	-2.3208	-2.725	-2.1292	-2.7792	218.579	-35.769	264.837	-20.535	-18.538	34.926	-28.282	215.344	26.409	181.481	214.855	-74.706	225.218	191.649	-3.230	30.441	0.0011669	0.00072445	0.00016232	578.22	9.0048e-06	6.9066e-06	862.57	230.33	6.7622e-06	7.2971e-06	397.01	213.41	107.62	62.716	5.2538e-06	125.85	0.00018239	4.1785e-05	1.0774e-05	565.84	4.462e-07	3.8386e-07	844.25	225.4	5.0102e-07	4.2843e-07	388	210.06	105.87	62.111	5.3776e-07	124.52	-20.585	-0.525	5.291	-81.872	59.221	53.097	-81.558	-76.392	109.064	65.934	-77.199	-73.119	-73.253	-69.399	50.503	-70.820	-8191	255	
1284.046	1	1	0	0	0.084644	0.078639	0.10705	0.30618	0.24698	0.087448	0.12975	0.37089	0.16202	0.12027	0.22941	0.3129	0.34568	0.082932	0.12189	0.27593	-1.9979	-2.2812	-2.6458	-2.2521	-2.4146	-2.4396	-2.2125	-2.7438	-2.5	-2.5125	-3.0333	-2.5375	-2.6604	-2.8854	-2.2521	-2.9479	82.760	199.887	239.636	175.808	172.301	21.470	258.132	156.615	-91.657	-29.033	248.884	194.568	171.869	139.225	-11.450	182.202	0.0011677	0.00069876	0.00024118	580.82	8.876e-06	7.715e-06	868.75	230.95	6.1776e-06	6.8211e-06	399.06	215.06	108.86	63.365	8.6422e-06	127.32	0.00018024	4.2477e-05	1.1188e-05	566.56	4.8011e-07	3.9595e-07	847.29	226.73	5.2318e-07	4.2751e-07	389.7	211.54	106.86	62.764	5.9975e-07	125.89	-19.391	-1.862	-4.517	-81.984	67.086	55.056	-81.699	-76.203	89.051	61.637	-77.364	-73.042	-73.573	-69.248	45.644	-70.816	-8191	255	
1284.142	1	1	0	0	0.11554	0.35368	0.056717	0.22055	0.10986	0.20986	0.18588	0.28605	0.29538	0.11395	0.14008	0.12253	0.1738	0.38206	0.10861	0.17612	-2.15	-2.2646	-2.7208	-2.3583	-2.5646	-2.7021	-2.2292	-2.5208	-2.325	-2.0708	-2.7854	-2.3083	-2.4188	-2.7687	-2.4479	-2.7062	23.947	35.980	34.896	-1.022	111.927	93.758	37.072	182.062	-83.510	15.666	-43.769	217.009	240.970	262.657	139.989	175.708	0.0012462	0.0006214	0.00021724	581.11	7.9795e-06	7.1875e-06	868.28	231.31	7.6883e-06	6.7781e-06	400.14	215.42	108.96	63.475	6.1899e-06	128.08	0.00018072	4.318e-05	1.0514e-05	567.45	4.8228e-07	3.8504e-07	848.67	227.3	5.0663e-07	4.3528e-07	391.22	212.15	106.91	62.847	5.9252e-07	126.49	-20.496	0.382	0.735	-82.000	61.206	52.242	-81.945	-76.188	98.279	56.463	-77.544	-73.001	-73.283	-69.246	28.275	-70.716	-8191	255	
1284.238	1	1	0	0	0.029352	0.17003	0.12877	0.21378	0.11069	0.1096	0.16652	0.31076	0.23426	0.1148	0.20908	0.065805	0.19229	0.15064	0.12439	0.25965	-2.0875	-2.1667	-2.4917	-2.2812	-2.2271	-2.7396	-2.1958	-2.6229	-2.5125	-2.0125	-2.6125	-2.6396	-2.3729	-2.8438	-2.3	-2.6604	-43.106	254.419	-12.326	261.461	-78.351	168.489	244.870	167.693	-53.073	7.354	190.565	225.291	-33.457	-64.378	132.010	215.170	0.0011951	0.00053297	0.00019245	579.05	9.3319e-06	5.7362e-06	868.73	230.08	6.3991e-06	7.2629e-06	396.58	214.26	108.54	62.776	6.7928e-06	126.32	0.00018224	4.2584e-05	1.1398e-05	567.13	5.0433e-07	3.7426e-07	848.06	225.76	4.8065e-07	4.4384e-07	388.62	210.88	106.27	62.27	5.7393e-07	124.99	-23.372	-0.799	-2.037	-81.728	64.549	37.853	-81.710	-76.256	89.101	65.099	-76.997	-72.978	-73.761	-69.065	51.671	-70.879	-8191	255	
1284.335	1	1	0	0	0.14352	0.13513	0.22503	0.026378	0.19341	0.049108	0.49234	0.25345	0.3719	0.041857	0.26367	0.31233	0.068998	0.073258	0.10647	0.016503	-2.1646	-2.2604	-2.4229	-2.3167	-2.1479	-2.6042	-2.1937	-2.3458	-2.6	-2.1917	-2.6937	-2.5229	-2.3646	-2.9396	-2.2812	-2.6417	37.056	-71.494	72.273	108.449	-8.752	47.921	206.395	-38.942	168.229	1.735	191.417	-92.137	103.082	196.813	87.595	-41.046	0.0011711	0.00061232	0.00019255	577.47	7.2358e-06	6.613e-06	865.81	228.98	7.0127e-06	6.9231e-06	394.52	212.87	107.32	62.404	6.3359e-06	125.93	0.00018143	4.3097e-05	1.0931e-05	566.19	4.8062e-07	4.0095e-07	844.46	225.29	4.9733e-07	4.3778e-07	387.2	209.72	105.67	61.954	5.7806e-07	124.29	-20.254	-3.558	1.656	-81.936	58.713	52.991	-81.570	-76.145	87.494	65.606	-77.159	-73.059	-73.774	-69.213	50.716	-70.902	-8191	255	
1284.431	1	1	0	0	0.089874	0.051371	0.069887	0.087095	0.067508	0.26961	0.059664	0.17006	0.15552	0.14811	0.027706	0.35424	0.2436	0.20201	0.18266	0.086894	-2.3604	-2.25	-2.6917	-2.5958	-2.1542	-2.7188	-2.5521	-2.5187	-2.5187	-2.0125	-2.4625	-2.6083	-2.1562	-2.65	-2.225	-2.5312	225.747	192.741	48.663	188.252	-9.443	29.272	253.954	-74.116	100.847	63.047	208.726	233.218	211.773	236.293	233.921	-67.726	0.001226	0.00059388	0.00020879	578.82	9.3137e-06	7.2352e-06	862.23	229.43	6.6893e-06	6.7524e-06	396.94	213.73	107.96	62.715	6.1197e-06	126.16	0.00017969	4.1952e-05	1.0844e-05	565.32	4.9541e-07	3.9621e-07	843.51	225.14	4.9669e-07	4.6175e-07	388.07	209.87	105.87	62.058	5.9304e-07	124.76	-20.899	-11.129	0.300	-81.499	67.747	56.656	-81.638	-76.429	93.128	67.032	-77.445	-73.066	-73.674	-69.170	49.504	-70.885	-8191	255	
1284.527	1	1	0	0	0.29966	0.24095	0.023565	0.080904	0.082454	0.12792	0.29138	0.1118	0.22474	0.16403	0.27311	0.19844	0.10815	0.20985	0.13873	0.097675	-2.2896	-2.0958	-2.475	-2.6542	-2.2042	-2.8937	-2.5833	-2.4708	-2.7792	-2.4833	-2.6854	-2.8688	-2.2417	-2.7167	-2.6146	-2.5333	-78.666	143.700	52.745	230.770	-72.579	235.739	200.059	219.921	28.438	85.996	221.418	177.728	204.405	-14.665	242.132	3.006	0.0011557	0.00065949	0.00018132	579.05	6.0036e-06	7.9334e-06	863.56	230.33	4.6379e-06	7.1955e-06	397.07	214.33	108.26	63.178	6.3576e-06	127.12	0.00018385	4.2823e-05	1.1184e-05	565.87	4.7463e-07	4.0673e-07	845.3	225.64	4.4169e-07	4.3185e-07	389.46	210.77	106.02	62.387	5.2085e-07	125.64	-20.130	-12.379	17.223	-81.851	54.464	40.001	-81.779	-76.443	97.734	72.777	-77.088	-73.028	-73.875	-69.203	47.125	-70.711	-8191	255	
1284.648	1	1	0	0	0.28233	0.22918	0.21387	0.17675	0.17274	0.35493	0.22933	0.10727	0.20995	0.03921	0.048367	0.421	0.061652	0.19146	0.12452	0.41394	-2.4833	-2.2833	-2.4562	-2.8021	-2.2938	-2.5667	-2.5208	-2.2229	-2.5333	-2.2083	-2.4271	-2.6333	-2.1625	-2.5146	-2.5125	-2.575	180.263	228.239	-22.523	256.677	-73.205	-93.158	21.346	218.844	191.322	236.790	-44.814	230.291	-80.402	-78.885	-15.424	264.097	0.0011975	0.00069105	0.0002024	580.32	7.6293e-06	6.4133e-06	863.77	228.95	7.1765e-06	6.6709e-06	398.94	213.19	107.16	62.7	6.559e-06	126.55	0.00017954	4.0783e-05	1.1902e-05	565.91	4.8623e-07	3.5651e-07	845.86	225.41	5.2967e-07	4.2777e-07	389.52	210.42	105.68	62.171	5.2692e-07	124.87	-19.929	-11.108	-0.750	-81.943	73.495	46.967	-81.927	-76.165	94.235	60.675	-77.207	-72.938	-73.385	-69.164	34.989	-70.746	-8191	255	
1284.744	1	1	0	0	0.15586	0.19767	0.15629	0.22328	0.23484	0.17015	0.15705	0.25035	0.26134	0.066422	0.13457	0.33704	0.057776	0.23619	0.15438	0.061117	-2.1688	-2.1854	-2.4333	-2.7521	-2.1542	-2.6396	-2.7375	-2.4375	-2.5292	-2.2917	-2.4062	-2.6958	-2.1312	-2.4854	-2.3937	-2.2438	204.276	-53.942	48.412	215.601	150.813	35.696	68.486	259.530	237.604	125.372	257.512	257.988	223.735	170.412	237.857	-36.283	0.0012088	0.00065142	0.00019199	578.95	7.9818e-06	6.1767e-06	858.31	229.42	7.1756e-06	5.4931e-06	397.81	213.48	107.46	62.502	8.4596e-06	125.07	0.00017766	4.2143e-05	1.1458e-05	564.67	4.8649e-07	3.9293e-07	843.21	224.85	5.0688e-07	4.0406e-07	387.58	209.51	105.59	61.946	5.7238e-07	123.87	-21.004	-10.279	2.130	-81.727	64.019	52.022	-81.672	-76.068	100.697	63.979	-77.462	-73.292	-73.549	-69.030	42.584	-70.995	-8191	255	
1284.815	1	1	0	0	0.19368	0.1089	0.17801	0.018504	0.18521	0.1383	0.11123	0.072705	0.21343	0.36766	0.083056	0.1632	0.1646	0.094976	0.20796	0.17421	-2.1958	-2.2292	-2.2542	-2.6	-2.2729	-2.5208	-2.6167	-2.3833	-2.7125	-2.3896	-2.5354	-2.7604	-2.4917	-2.5729	-2.5167	-2.2687	156.864	74.605	167.374	101.569	-61.161	58.901	224.385	-14.468	-42.845	-54.878	166.216	228.926	208.600	250.300	11.626	147.445	0.0011562	0.00060884	0.00018613	576.32	7.2023e-06	7.7113e-06	863.49	229.6	8.535e-06	6.3829e-06	399.41	214.25	108.54	63.201	8.2609e-06	126.34	0.00017954	4.1821e-05	1.1912e-05	564.52	4.7871e-07	4.1633e-07	843.78	225.43	5.107e-07	4.0222e-07	388.54	210.59	106.42	62.591	5.45e-07	125.24	-19.309	1.492	-0.179	-81.796	56.679	49.373	-81.701	-75.868	99.078	63.174	-77.399	-73.169	-73.685	-69.073	48.871	-70.793	-8191	255	
1284.936	1	1	0	0	0.24227	0.088384	0.19519	0.26079	0.067572	0.13224	0.12422	0.19623	0.20074	0.035973	0.22613	0.20093	0.16717	0.12642	0.105	0.28208	-2.1104	-2.5812	-2.1396	-2.6562	-2.4688	-2.3375	-2.7521	-2.2438	-2.5667	-2.3521	-2.1354	-2.8646	-2.5417	-2.5187	-2.8021	-2.5833	107.753	38.409	-67.796	254.258	259.662	43.701	179.603	118.373	-20.728	216.378	187.435	177.077	213.822	-93.993	195.407	258.049	0.0011428	0.00060352	0.00017695	578.85	8.3091e-06	6.6014e-06	860.95	231.07	8.3774e-06	6.3285e-06	398.16	214.88	108.43	63.035	7.7284e-06	127.01	0.00017945	3.9495e-05	1.2255e-05	565.91	5.1288e-07	3.9897e-07	843.29	226.45	5.1834e-07	4.013e-07	388.97	211.39	106.55	62.544	5.5404e-07	125.47	-22.270	-12.585	-1.106	-81.863	52.982	53.767	-81.644	-76.179	105.200	66.797	-77.133	-73.005	-73.883	-69.159	39.072	-70.828	-8191	255	
1285.032	1	1	0	0	0.15973	0.16953	0.057083	0.15022	0.25607	0.066304	0.23099	0.1345	0.23426	0.15547	0.16089	0.16411	0.34641	0.16055	0.11487	0.27381	-2.2521	-2.5354	-2.2271	-2.8396	-2.3979	-2.3104	-2.725	-2.3063	-2.4479	-2.5938	-2.3604	-2.9958	-2.3646	-2.4688	-2.9542	-2.55	263.542	89.820	-71.262	-84.697	223.171	15.357	170.146	208.711	-61.498	156.458	113.867	37.277	189.805	-22.724	101.158	172.136	0.0012528	0.00065501	0.00020116	579.31	8.9142e-06	6.2787e-06	858.25	228.71	8.3118e-06	6.7069e-06	398.18	212.36	107.06	62.255	6.7062e-06	124.95	0.00018119	3.9554e-05	1.2035e-05	563.7	5.0038e-07	4.0371e-07	841.9	224.16	5.4126e-07	3.905e-07	386.25	208.76	105.09	61.589	5.357e-07	123.61	-22.618	4.775	3.048	-81.928	64.201	49.520	-81.665	-76.390	99.682	53.317	-77.527	-73.097	-73.681	-69.138	38.857	-70.908	-8191	255	
1285.128	1	1	0	0	0.043114	0.31296	0.31835	0.20549	0.079776	0.081617	0.051281	0.26898	0.22048	0.077422	0.19187	0.23652	0.1825	0.28707	0.1669	0.27405	-2.0604	-2.5104	-2.0792	-2.7125	-2.4083	-2.2562	-2.8208	-2.2062	-2.2479	-2.3896	-1.8146	-2.4813	-2.3187	-2.2896	-2.7354	-2.5292	-48.112	-77.766	-41.845	-76.654	3.649	56.589	-47.617	177.658	37.049	44.495	191.224	233.803	205.865	259.137	238.257	224.587	0.0011977	0.00064557	0.00020422	575.46	8.8013e-06	6.4572e-06	858.68	227.75	7.8487e-06	7.6384e-06	392.39	211.34	106.85	62.513	8.1133e-06	124.96	0.00018249	3.7741e-05	1.1351e-05	562.45	4.6927e-07	3.8517e-07	838.23	223.65	5.1261e-07	4.1763e-07	384.51	208.05	105.03	61.746	5.2588e-07	123.27	-21.492	-7.708	0.734	-81.898	59.284	55.481	-81.701	-76.076	93.041	60.288	-77.329	-73.035	-73.394	-69.332	46.530	-70.933	-8191	255	
1285.224	1	1	0	0	0.3351	0.25241	0.13743	0.28394	0.035764	0.064577	0.073507	0.11579	0.16877	0.067918	0.26599	0.1322	0.28351	0.15252	0.31969	0.090113	-2.2	-2.6958	-2.1792	-2.5687	-2.3187	-2.0312	-2.7188	-2.3771	-2.1542	-2.4583	-2.1292	-2.675	-2.5479	-2.3563	-2.7729	-2.6688	-5.332	100.071	84.020	253.189	65.018	-33.143	194.340	132.268	143.792	63.274	-35.207	206.942	73.449	232.857	41.978	259.094	0.0011842	0.00064986	0.00016308	576.17	9.1733e-06	6.583e-06	858.6	229.23	8.563e-06	6.6468e-06	395.99	212.67	107.61	62.477	8.1413e-06	125.6	0.00018102	3.7264e-05	1.1368e-05	563.28	4.9962e-07	4.2868e-07	839.04	224.5	5.2993e-07	3.7193e-07	386.14	208.92	105.61	61.879	5.552e-07	124.01	-20.976	-0.970	4.518	-81.685	51.344	53.086	-81.733	-76.044	106.754	58.457	-77.569	-72.981	-73.535	-69.292	53.441	-70.979	-8191	255	
1285.343	1	1	0	0	0.23324	0.14587	0.26714	0.11746	0.12742	0.41615	0.078656	0.048439	0.11535	0.14674	0.2165	0.33932	0.15723	0.23497	0.30278	0.13448	-1.8042	-2.9021	-2.2667	-2.6521	-2.6479	-2.15	-2.8917	-2.5646	-2.4104	-2.7062	-2.3375	-2.7979	-2.7229	-2.4083	-2.7292	-2.7229	163.932	120.736	-6.240	101.407	-62.977	-87.087	-51.038	252.331	257.822	-51.032	39.736	241.070	184.929	187.036	-58.295	-76.945	0.0012302	0.00060605	0.00018814	580.32	7.7951e-06	7.7922e-06	858.68	228.57	7.7859e-06	7.2121e-06	394.71	212.72	107.8	62.473	7.8186e-06	125.44	0.00018179	3.9507e-05	1.0878e-05	563.4	4.49e-07	4.087e-07	840.98	224.41	5.3617e-07	3.7799e-07	385.8	209.3	105.65	61.92	5.4965e-07	124.37	-17.840	3.276	5.180	-81.916	51.596	53.064	-81.399	-75.926	95.111	68.047	-77.104	-73.030	-73.264	-69.248	32.108	-70.849	-8191	255	
1285.439	1	1	0	0	0.21184	0.15713	0.26049	0.11892	0.11626	0.075834	0.1442	0.13295	0.1316	0.15044	0.11077	0.1388	0.22367	0.19721	0.12342	0.17164	-1.6729	-2.525	-2.1229	-2.5146	-2.7208	-2.3771	-2.7021	-2.7062	-2.4208	-2.8979	-2.3854	-2.7083	-2.7042	-2.4208	-2.6917	-2.7146	-77.540	-29.191	7.830	68.540	-79.176	41.464	256.630	85.486	188.237	-36.741	71.891	251.678	72.871	216.180	47.958	-93.797	0.001162	0.00071165	0.00018553	574.37	6.6515e-06	7.4527e-06	858.08	228.07	8.3201e-06	6.574e-06	394.98	211.73	107.26	62.621	5.2147e-06	125.45	0.00018087	3.8481e-05	1.0647e-05	563.21	4.5194e-07	4.3723e-07	840	224.51	5.5132e-07	3.7009e-07	385.46	208.76	105.14	61.814	5.0393e-07	123.73	-19.022	-15.125	-0.935	-81.766	56.837	43.727	-81.732	-76.132	98.161	57.697	-77.399	-73.035	-73.557	-69.362	44.447	-70.906	-8191	255	
1285.536	1	1	0	0	0.061412	0.10515	0.10415	0.054617	0.086535	0.11422	0.13004	0.11695	0.19707	0.19702	0.2042	0.15724	0.056705	0.37935	0.20811	0.07152	-2.0021	-2.7729	-2.5167	-2.7854	-2.6312	-2.225	-2.9062	-2.7	-2.2979	-2.6167	-2.5458	-2.3646	-2.5792	-2.2208	-2.4417	-2.7188	-85.462	179.947	190.920	78.558	16.216	69.854	205.753	-68.172	110.765	-33.048	-60.408	214.314	133.210	226.003	28.345	235.757	0.0011637	0.00063904	0.0002287	575.22	8.3546e-06	7.5789e-06	855.76	227.77	7.3071e-06	5.556e-06	394.1	211.63	106.4	62.159	7.2733e-06	124.26	0.00018272	3.9113e-05	1.1962e-05	561.57	4.3689e-07	4.162e-07	837.35	223.35	5.0573e-07	3.5942e-07	384.31	207.82	104.85	61.525	5.6243e-07	122.94	-20.512	-4.670	2.489	-81.833	57.512	54.613	-81.680	-76.311	102.479	73.077	-77.481	-72.877	-73.689	-69.134	51.268	-70.877	-8191	255	
1285.632	1	1	0	0	0.13251	0.10164	0.13839	0.22181	0.17179	0.16157	0.13047	0.12426	0.018944	0.091882	0.28831	0.29633	0.047871	0.43747	0.054465	0.33231	-1.7146	-2.6229	-2.3042	-2.2833	-2.7104	-2.1021	-2.5104	-2.6146	-2.1042	-2.5958	-2.2396	-2.3625	-2.6729	-2.4958	-2.6292	-2.9646	201.358	196.248	43.346	227.855	240.121	24.991	86.375	225.509	-7.544	228.914	220.675	244.289	53.334	246.667	67.289	221.811	0.0011795	0.00058328	0.00018035	575.02	8.159e-06	7.2362e-06	855.96	228.17	8.1291e-06	7.1009e-06	396.13	212.59	107.41	62.849	6.716e-06	125.76	0.00017904	3.52e-05	1.1675e-05	560.86	4.4467e-07	4.3329e-07	836.44	224.31	5.6507e-07	4.1434e-07	386.13	209.48	105.91	62.198	5.4254e-07	123.92	-22.246	0.198	7.860	-81.869	55.425	55.954	-81.455	-76.069	115.314	71.717	-76.953	-73.151	-73.305	-69.258	44.073	-70.849	-8191	255	
1285.728	1	1	0	0	0.068192	0.23499	0.08032	0.16071	0.1657	0.099809	0.21043	0.29313	0.11294	0.23089	0.39938	0.076935	0.16023	0.31875	0.17347	0.15317	-1.9292	-2.4833	-2.4562	-2.3937	-2.7229	-2.425	-2.5125	-2.7625	-2.1854	-2.6979	-2.4271	-2.4375	-2.5229	-2.3875	-2.1854	-2.7979	68.348	149.357	-67.152	139.262	195.627	256.367	148.422	231.721	68.003	227.871	177.186	-86.227	140.248	236.553	111.923	171.598	0.0011481	0.00065049	0.00021871	575.49	8.2145e-06	6.8742e-06	858.63	230	7.0173e-06	7.0411e-06	396.91	215.85	109.04	63.765	8.2499e-06	127.22	0.00018119	3.7849e-05	1.1992e-05	563.29	4.5257e-07	3.8438e-07	840.47	226.38	5.1656e-07	4.2738e-07	388.17	211.75	107.27	63.143	5.9226e-07	125.76	-21.154	-7.841	3.739	-81.931	56.954	55.937	-81.708	-76.078	89.390	60.729	-77.234	-73.093	-73.564	-69.228	36.111	-70.929	-8191	255	
1285.824	1	1	0	0	0.096201	0.32461	0.16462	0.1935	0.18881	0.080988	0.23971	0.20881	0.22882	0.18677	0.16476	0.28789	0.26313	0.21517	0.3273	0.20452	-1.6896	-2.6271	-2.4542	-2.3271	-2.8604	-2.4521	-2.5042	-3.05	-2.3	-2.4021	-2.7438	-2.2104	-2.6229	-2.4271	-2.3063	-2.95	116.354	87.051	190.761	5.952	-48.726	99.725	146.484	178.444	264.155	-70.747	19.668	193.022	-69.403	151.571	85.325	240.781	0.001232	0.00062272	0.00017057	579.49	7.3954e-06	6.4486e-06	854.69	230.19	6.4912e-06	5.6636e-06	398.62	214.87	109.6	63.474	8.0992e-06	126.6	0.00018278	3.9173e-05	1.0501e-05	565.46	4.3192e-07	4.2684e-07	840.02	226.35	5.2967e-07	4.1184e-07	389.58	211.6	107.18	62.875	5.8129e-07	125.1	-18.406	-14.663	7.119	-81.920	55.047	53.006	-81.795	-76.222	99.846	70.077	-77.233	-73.034	-73.589	-69.142	36.367	-70.891	-8191	255	
1285.945	1	1	0	0	0.24857	0.086818	0.044941	0.27747	0.088908	0.21179	0.21583	0.38214	0.17268	0.16225	0.17245	0.31198	0.27075	0.36255	0.16755	0.24785	-1.9021	-2.3875	-2.5604	-2.1542	-2.5792	-2.3292	-2.3146	-2.6688	-2.0958	-2.4062	-2.65	-2.15	-2.7458	-2.5042	-2.2354	-2.9208	200.801	-58.639	19.551	238.062	147.213	-85.474	236.065	258.626	101.509	25.884	180.021	216.361	251.768	236.707	177.756	-80.739	0.0012231	0.00067882	0.00020005	577.08	7.6557e-06	6.9482e-06	858.91	229.12	8.2641e-06	6.6689e-06	393.39	212.14	107.97	62.699	6.9258e-06	124.64	0.00018231	4.089e-05	1.1321e-05	563.72	4.7641e-07	4.1843e-07	838.75	224.78	5.1439e-07	4.2158e-07	385.11	209.1	105.84	62.077	5.45e-07	123.31	-21.401	-7.728	-0.905	-81.591	65.466	53.480	-81.524	-76.192	81.971	63.340	-77.397	-72.886	-73.475	-69.378	52.619	-70.868	-8191	255	
1286.039	1	1	0	0	0.18944	0.12737	0.068113	0.19297	0.13007	0.12523	0.29419	0.1171	0.12523	0.13234	0.11598	0.11901	0.18179	0.16879	0.21227	0.086188	-1.8958	-2.4125	-2.6333	-2.3042	-2.375	-2.5375	-2.3563	-2.7396	-2.3125	-2.35	-2.8104	-2.425	-2.7354	-2.7896	-2.0917	-2.6917	156.638	120.571	87.805	242.652	-42.504	-34.599	-83.262	4.342	51.290	207.935	225.459	263.689	154.739	121.740	-21.697	175.235	0.0012183	0.0005951	0.00019677	577.29	8.7253e-06	7.1685e-06	855.45	227.33	8.6973e-06	6.3581e-06	394.02	212.39	108.3	62.995	7.26e-06	125.4	0.00017766	4.0604e-05	1.0998e-05	561.81	4.7692e-07	3.8635e-07	836.23	224	5.4011e-07	3.9577e-07	384.84	208.95	105.85	62.202	5.9175e-07	123.97	-18.599	3.300	0.826	-82.023	45.092	49.174	-81.635	-76.188	107.104	52.493	-77.106	-72.947	-73.753	-69.219	50.244	-70.914	-8191	255	
1286.113	1	1	0	0	0.21227	0.27626	0.076865	0.26889	0.045449	0.058052	0.13532	0.054644	0.19609	0.08467	0.55387	0.23612	0.14604	0.062094	0.13017	0.12669	-1.9917	-2.3063	-2.5542	-2.2333	-2.55	-2.6625	-2.2583	-2.6188	-2.425	-2.3937	-2.95	-2.3854	-2.6	-2.8375	-2.1854	-2.8812	119.945	-20.049	130.080	192.669	99.106	222.927	241.271	165.347	195.106	24.928	-62.379	169.600	208.514	-55.227	62.064	133.685	0.0011942	0.00074893	0.00018151	575.85	7.9294e-06	7.458e-06	858.86	227.72	9.2271e-06	6.3156e-06	392.56	212.2	107.3	62.711	7.9314e-06	125.71	0.00018286	4.0628e-05	1.0517e-05	562.08	4.884e-07	4.0279e-07	838.02	224.18	5.489e-07	4.2343e-07	384.52	209.2	105.42	62.194	5.5417e-07	124.28	-21.683	-7.101	8.411	-81.894	64.987	44.600	-81.586	-76.065	93.342	77.375	-77.108	-73.097	-73.643	-69.130	40.425	-70.742	-8191	255	
1286.209	1	1	0	0	0.10569	0.26954	0.22335	0.12898	0.18174	0.20936	0.24575	0.21433	0.083738	0.076528	0.088726	0.14869	0.27204	0.12828	0.21624	0.15776	-2.0729	-2.4646	-2.7521	-2.175	-2.4188	-2.7083	-2.275	-2.8021	-2.7375	-2.3604	-3.0521	-2.5	-2.4583	-2.8854	-2.2438	-2.9	182.006	-37.470	141.964	-32.216	100.334	82.600	129.210	-24.878	-22.229	91.195	236.330	-80.861	-7.067	135.671	32.197	149.024	0.0011998	0.00068202	0.00017276	574.42	9.3427e-06	6.4645e-06	858.59	229.26	7.5479e-06	6.8995e-06	395.8	212.9	108.35	63.284	6.7136e-06	126.59	0.0001778	4.3252e-05	9.7802e-06	562.24	4.9184e-07	4.0463e-07	838.05	224.55	5.1083e-07	4.0933e-07	386.78	209.79	106.24	62.552	5.6424e-07	124.87	-21.917	-14.110	0.278	-81.826	56.670	47.121	-81.696	-76.240	93.653	63.903	-77.464	-73.101	-73.576	-69.290	40.404	-70.931	-8191	255	
1286.328	1	1	0	0	0.11562	0.092843	0.093395	0.20155	0.14954	0.12221	0.12113	0.10635	0.082454	0.25608	0.22065	0.24588	0.26584	0.34453	0.10396	0.28056	-1.9854	-2.2521	-2.6562	-2.3854	-2.2625	-2.7042	-2.2708	-2.4729	-2.5875	-2.1021	-2.6688	-2.5771	-2.4229	-2.6479	-2.025	-2.7708	-88.076	124.880	203.025	157.524	185.172	255.546	218.524	192.752	96.037	42.814	243.404	167.613	101.571	258.014	106.383	198.548	0.0012396	0.00078463	0.00019343	575.2	7.6096e-06	7.2558e-06	851.28	229.68	5.7588e-06	6.2637e-06	393.15	212.43	108.23	62.773	7.6593e-06	125.06	0.00017819	4.2489e-05	1.1648e-05	561.75	4.5602e-07	4.0003e-07	836.11	224.94	5.149e-07	4.3449e-07	384.63	209.36	106.03	62.274	5.6941e-07	123.73	-19.380	-12.937	13.776	-81.705	60.696	50.669	-81.697	-76.176	99.730	69.984	-77.261	-73.302	-73.684	-69.345	39.423	-70.877	-8191	255	
1286.424	1	1	0	0	0.21825	0.21998	0.20043	0.21868	0.1064	0.2257	0.24227	0.31539	0.1134	0.21714	0.20284	0.21939	0.26998	0.25164	0.10487	0.34941	-2.25	-2.1312	-2.775	-2.5917	-2.3312	-2.5438	-2.4	-2.5187	-2.7062	-2.4	-2.8417	-2.5833	-2.2438	-2.7708	-2.1208	-2.8208	-69.627	-73.051	78.247	198.562	223.241	38.365	262.127	261.914	225.153	112.727	239.650	227.454	229.090	-49.899	21.434	-74.895	0.0011836	0.00073485	0.00018724	573.18	8.4318e-06	6.6047e-06	854.87	229.2	6.795e-06	5.9932e-06	394.86	213.43	108.34	63.382	8.0754e-06	125.95	0.00017793	4.4302e-05	1.0421e-05	560.91	4.7654e-07	3.5717e-07	834.77	225.01	4.9351e-07	4.2461e-07	384.82	209.46	106.21	62.677	5.8387e-07	124.53	-21.323	-6.428	5.355	-81.734	67.023	60.183	-81.796	-76.176	92.167	57.043	-77.315	-73.133	-73.580	-69.103	39.418	-70.980	-8191	255	
1286.520	1	1	0	0	0.02853	0.11332	0.16694	0.21969	0.22741	0.27122	0.3579	0.34273	0.24685	0.201	0.11031	0.18578	0.082674	0.20819	0.050043	0.21611	-2.1813	-2.2375	-2.6312	-2.4917	-2.2562	-2.7229	-2.4813	-2.4271	-2.5396	-2.0812	-2.7458	-2.7375	-2.4604	-2.8833	-2.4188	-2.5729	24.049	-45.745	-52.116	36.793	119.907	185.140	162.688	172.074	-80.494	204.147	114.331	-90.338	119.518	260.349	56.847	200.659	0.0011794	0.00055584	0.00018247	574.02	9.037e-06	8.2791e-06	855.08	229.55	9.0032e-06	7.1848e-06	394.81	213.29	108.72	63.51	7.6292e-06	126.81	0.00017741	4.1737e-05	1.0758e-05	561.55	4.8113e-07	3.8386e-07	836.09	225.21	5.3438e-07	4.5938e-07	385.91	210.08	106.65	62.756	5.5688e-07	125.12	-21.642	-8.125	5.965	-81.893	62.077	50.712	-81.729	-76.023	90.063	57.694	-77.219	-73.104	-73.768	-69.327	42.756	-70.820	-8191	255	
1286.616	1	1	0	0	0.06112	0.15005	0.20162	0.19289	0.19227	0.1238	0.25367	0.11227	0.10821	0.10646	0.26491	0.16618	0.33116	0.068563	0.25676	0.22168	-2.1083	-2.175	-2.3312	-2.6479	-2.1458	-2.7292	-2.5229	-2.3521	-2.5792	-2.1167	-2.4833	-2.5875	-2.1083	-2.9188	-2.3812	-2.5563	123.858	120.569	-6.016	154.593	54.186	125.391	185.611	105.920	46.202	72.212	222.321	-65.606	210.341	252.281	-78.045	154.634	0.0012666	0.00078083	0.00018716	576.97	8.8879e-06	7.3079e-06	858.15	230.3	8.6762e-06	7.4139e-06	397.28	214.67	108.7	63.36	6.9446e-06	127.56	0.00017968	4.324e-05	1.1368e-05	562.73	5.2448e-07	4.0476e-07	840.78	225.88	5.1681e-07	4.2013e-07	388.2	211.21	106.87	62.941	5.6979e-07	125.99	-21.195	3.393	-0.395	-81.659	66.865	53.751	-81.452	-76.179	94.529	64.556	-77.203	-72.929	-73.802	-69.440	49.063	-70.870	-8191	255	
1286.737	1	1	0	0	0.17589	0.13886	0.2212	0.07711	0.318	0.118	0.26842	0.074847	0.027262	0.1679	0.040673	0.20994	0.23564	0.28841	0.22352	0.083829	-2.4854	-2.1667	-2.6396	-2.6521	-2.1333	-2.6417	-2.3667	-2.3438	-2.6646	-2.2625	-2.5542	-2.7854	-2.3146	-2.8146	-2.3729	-2.5062	259.373	29.370	145.034	203.858	42.838	156.526	188.753	188.081	244.135	167.325	182.584	-54.482	-92.811	178.653	24.513	210.324	0.0012292	0.0006127	0.00020245	576.65	9.1361e-06	6.0919e-06	858.21	229.96	7.5854e-06	6.8942e-06	393.93	213.56	108.19	63.297	6.9727e-06	125.72	0.0001838	3.8994e-05	1.0534e-05	563.08	4.9847e-07	3.7452e-07	839.97	225.25	5.2114e-07	4.4331e-07	385.92	210.35	106.26	62.673	5.3441e-07	124.4	-19.709	0.233	0.978	-81.656	53.388	60.168	-81.775	-76.096	101.698	61.287	-77.360	-73.243	-73.301	-69.075	45.741	-70.875	-8191	255	
1286.808	1	1	0	0	0.18494	0.071441	0.18002	0.073241	0.35226	0.11507	0.22473	0.21445	0.11814	0.082665	0.28326	0.15034	0.32966	0.30026	0.19756	0.21781	-2.5167	-2.4292	-2.3417	-2.6333	-2.075	-2.7	-2.5854	-2.2104	-2.6312	-2.3583	-2.4958	-3.0083	-2.175	-2.7062	-2.4938	-2.4833	230.061	24.611	103.137	124.120	38.009	130.169	168.558	168.203	253.153	127.477	250.049	238.577	-48.853	-69.140	36.884	-29.850	0.0011311	0.00056749	0.00018302	577.63	6.9343e-06	6.9038e-06	857.35	229.28	7.2944e-06	6.1933e-06	394.78	213.27	108.53	63.297	8.0892e-06	125.86	0.00017752	3.6966e-05	1.1418e-05	562.3	4.7042e-07	3.9884e-07	837.91	224.57	5.0535e-07	4.0907e-07	386.3	209.79	106.49	62.711	5.6915e-07	124.52	-21.111	-3.258	-0.168	-81.993	47.507	50.420	-81.465	-75.903	91.529	65.921	-77.223	-72.993	-73.630	-69.371	42.048	-70.822	-8191	255	
1286.904	1	1	0	0	0.093373	0.16293	0.14727	0.26407	0.21111	0.20001	0.22644	0.17921	0.095004	0.22781	0.244	0.093284	0.19401	0.16602	0.13455	0.26669	-2.0625	-2.2854	-2.1292	-2.675	-2.0104	-2.5354	-2.5146	-2.2396	-2.6396	-2.575	-2.5292	-2.8917	-2.3104	-2.8937	-2.5958	-2.5833	28.650	258.272	81.603	-70.274	-28.983	-87.673	-67.680	224.077	224.230	239.974	152.463	200.072	100.672	244.600	55.647	227.287	0.0012131	0.00068194	0.00020187	578.99	8.9527e-06	7.0281e-06	850.15	229.12	7.4947e-06	5.3912e-06	395.52	213.61	108.29	63.228	7.9246e-06	126.23	0.00018201	4.2071e-05	1.1495e-05	563.7	4.6647e-07	3.8517e-07	835.69	225.1	5.1452e-07	3.6995e-07	386.32	209.88	106.39	62.673	5.6295e-07	124.82	-19.972	-1.878	-0.026	-81.843	51.878	45.548	-81.651	-76.310	95.437	74.017	-76.945	-73.148	-73.774	-69.187	41.535	-70.904	-8191	255	
1287.025	1	1	0	0	0.075881	0.19856	0.096809	0.28322	0.25501	0.19551	0.072843	0.14057	0.14616	0.10763	0.21882	0.28349	0.047336	0.11326	0.41924	0.020612	-2.2417	-2.4042	-2.3042	-3.0833	-2.3146	-2.5083	-2.8479	-2.325	-2.6458	-2.7042	-2.5396	-3.0333	-2.4604	-2.675	-2.6979	-2.5146	31.626	192.766	-90.625	201.093	103.891	137.853	-70.948	212.510	-15.676	188.975	253.113	169.604	109.526	141.627	49.506	125.893	0.0011839	0.00067794	0.00019153	575.91	8.6087e-06	7.6158e-06	856.63	229.9	7.344e-06	6.7313e-06	395.3	214.28	108.9	63.328	6.8934e-06	127.15	0.0001789	4.033e-05	1.1972e-05	561.8	4.7501e-07	4.3473e-07	839.05	225.57	4.8906e-07	3.88e-07	386.47	210.84	106.58	62.885	5.4771e-07	125.52	-21.044	-6.552	-8.592	-81.948	56.590	52.231	-81.593	-75.961	99.344	72.997	-77.234	-73.086	-73.293	-69.342	39.319	-70.913	-8191	255	
1287.119	1	1	0	0	0.22283	0.40204	0.12992	0.18316	0.22652	0.20928	0.17492	0.068595	0.2381	0.074927	0.14753	0.091622	0.18144	0.18282	0.21174	0.0958	-2.1729	-2.4208	-2.2521	-2.9458	-2.525	-2.5667	-2.925	-2.4833	-2.5542	-2.4708	-2.2667	-2.9813	-2.5042	-2.6188	-2.8521	-2.4979	183.015	141.316	-37.546	202.775	10.119	-39.529	237.138	210.432	60.391	-62.903	252.033	250.811	217.477	258.089	127.409	245.849	0.001215	0.00066662	0.00018018	574.83	8.3929e-06	7.2829e-06	855.93	227.25	7.5395e-06	7.3886e-06	395.39	213.04	107.88	63.184	6.8049e-06	125.3	0.00018021	4.0795e-05	1.1178e-05	561.8	4.7399e-07	3.8399e-07	837.87	224.58	4.7861e-07	3.9669e-07	385.59	209.84	106.17	62.537	5.2834e-07	123.87	-21.755	-5.886	5.482	-81.903	55.327	59.055	-81.778	-76.095	111.986	65.395	-77.241	-72.977	-73.531	-69.173	53.744	-70.951	-8191	255	
1287.217	1	1	0	0	0.15423	0.073397	0.19747	0.13007	0.29529	0.076883	0.10787	0.41835	0.23886	0.17165	0.04236	0.14003	0.085431	0.094046	0.25464	0.36007	-2.2812	-2.5792	-2.225	-2.9229	-2.625	-2.5354	-2.9146	-2.225	-2.55	-2.7625	-2.1771	-2.8208	-2.5521	-2.5062	-2.7458	-2.2229	139.424	115.063	261.413	16.589	63.519	-30.581	-59.047	185.113	148.710	-84.500	219.251	226.030	101.693	-11.508	223.994	201.470	0.0011882	0.00075198	0.00017005	575.22	8.2335e-06	6.9804e-06	853.7	228.77	7.5728e-06	6.7558e-06	391.66	212.95	106.52	62.83	7.9852e-06	124.8	0.00017845	3.9518e-05	1.1358e-05	560.27	4.6201e-07	3.97e-07	835.02	224.22	5.023e-07	3.8655e-07	383.43	208.96	104.77	62.213	5.3247e-07	123.17	-18.543	-10.048	1.318	-81.706	58.222	44.084	-81.454	-76.108	98.223	73.526	-77.117	-73.057	-73.336	-69.293	33.398	-70.970	-8191	255	
1287.336	1	1	0	0	0.33241	0.12757	0.091652	0.2086	0.22529	0.12097	0.16196	0.13928	0.13384	0.1238	0.057007	0.15966	0.15717	0.27412	0.16083	0.11701	-2.0604	-2.5604	-2.1375	-2.6771	-2.3646	-2.1562	-2.7313	-2.2646	-2.3521	-2.5667	-2.3688	-2.8937	-2.7625	-2.4771	-2.8875	-2.7125	32.308	175.371	236.019	200.293	257.280	22.972	231.468	137.326	-63.057	139.699	107.738	12.309	140.673	219.993	-62.854	245.045	0.0011756	0.00057158	0.00020864	570.84	8.1713e-06	7.2178e-06	853.07	229.01	7.7791e-06	7.9913e-06	392.69	212.4	107.77	62.891	6.5971e-06	124.91	0.00017614	3.8731e-05	1.1231e-05	559.89	4.4518e-07	4.2671e-07	834.53	224.38	5.1847e-07	3.9471e-07	383.82	208.93	105.93	62.436	5.2976e-07	123.55	-20.407	-11.543	-4.204	-81.682	57.868	50.303	-81.742	-75.903	98.170	58.424	-77.540	-73.037	-73.463	-69.152	42.920	-70.885	-8191	255	
1287.408	1	1	0	0	0.25037	0.096872	0.25555	0.13468	0.099708	0.16723	0.1531	0.16936	0.19433	0.13895	0.27468	0.25169	0.33907	0.028989	0.1522	0.087227	-2.0708	-2.8417	-2.2729	-2.9604	-2.5125	-2.2375	-2.9188	-2.5333	-2.5292	-2.9521	-2.5167	-2.825	-2.7833	-2.4437	-2.5958	-2.7292	5.124	84.641	86.140	89.682	248.709	27.444	214.503	89.905	3.702	131.602	80.808	201.387	259.129	235.947	178.665	220.654	0.0012153	0.00066963	0.00020333	574.94	7.5453e-06	7.6952e-06	853.47	227.55	7.8294e-06	6.6432e-06	392.36	211.72	106.6	62.43	6.876e-06	124.8	0.00018062	3.7025e-05	1.2022e-05	560.86	4.4773e-07	4.2435e-07	833.49	223.3	5.1656e-07	4.0235e-07	383.19	207.69	104.74	61.757	5.0638e-07	123.16	-22.315	-9.930	2.322	-81.624	59.010	45.511	-81.846	-76.250	92.536	66.872	-77.209	-72.981	-73.485	-69.112	37.710	-70.857	-8191	255	
1287.504	1	1	0	0	0.089779	0.2116	0.14448	0.030742	0.075899	0.24472	0.05179	0.096554	0.33367	0.21523	0.13804	0.16443	0.1049	0.18812	0.31855	0.39382	-2.0333	-2.7708	-2.2313	-2.4354	-2.4958	-2.0167	-2.7438	-2.3688	-2.3063	-2.6083	-2.3979	-2.5438	-2.5729	-2.3438	-2.6458	-2.5333	-33.586	-36.611	161.792	28.303	231.758	89.277	91.144	250.550	-10.027	264.610	-66.042	249.824	157.581	-93.634	-69.923	168.918	0.0011592	0.00073601	0.00017027	574.83	8.9991e-06	6.3105e-06	856.78	229.02	7.5262e-06	6.803e-06	394.87	212.24	107.42	62.632	7.0575e-06	124.84	0.00017604	3.9638e-05	1.1645e-05	561.84	4.8202e-07	4.1291e-07	836.55	225.04	5.4342e-07	4.0327e-07	384.72	208.92	105.51	62.072	5.2485e-07	123.19	-22.342	-5.412	0.516	-81.628	51.561	46.092	-81.683	-76.259	91.769	64.325	-77.231	-72.887	-73.510	-69.355	52.304	-70.715	-8191	255	
1287.625	1	1	0	0	0.20032	0.16007	0.23055	0.14727	0.12493	0.19022	0.29243	0.03951	0.19892	0.068851	0.28978	0.060249	0.20519	0.30216	0.16911	0.28031	-1.8438	-2.5854	-2.0396	-2.4646	-2.6083	-2.025	-2.7354	-2.4813	-2.0146	-2.6417	-2.4021	-2.4208	-2.7438	-2.3042	-2.6625	-2.6833	-91.870	135.633	95.912	-4.667	67.870	218.293	254.907	226.277	-76.983	-81.840	224.148	-92.485	61.361	259.913	73.255	262.266	0.0012222	0.00062179	0.00016286	571.7	9.2965e-06	7.4865e-06	849.4	228.05	7.3961e-06	6.9818e-06	391.28	211.56	107.87	62.364	7.0589e-06	124.64	0.00017922	3.6489e-05	1.0717e-05	559.75	4.5385e-07	4.4617e-07	833.07	223.79	5.2674e-07	4.0802e-07	383.3	207.37	105.45	61.942	5.4642e-07	122.9	-19.908	-5.459	8.332	-81.567	54.528	47.634	-81.572	-76.183	95.559	65.538	-77.185	-73.088	-73.959	-69.059	48.059	-70.728	-8191	255	
1287.721	1	1	0	0	0.41753	0.077005	0.058824	0.30708	0.1805	0.30118	0.12136	0.040377	0.24296	0.060277	0.17188	0.097379	0.21841	0.28491	0.16151	0.089363	-1.95	-2.8542	-2.3792	-2.4042	-2.8396	-2.275	-2.7854	-2.7	-2.0542	-2.5646	-2.4667	-2.6917	-2.8708	-2.4062	-2.6792	-2.8771	9.198	77.987	-20.955	199.308	18.729	71.661	224.304	-5.331	-6.652	176.578	20.196	130.427	-66.920	245.122	99.527	121.797	0.0012082	0.00059441	0.00019765	573.36	8.044e-06	7.5032e-06	852.31	228.59	7.8127e-06	6.5278e-06	394.05	211.04	107.71	62.946	7.4587e-06	124.57	0.00018046	3.594e-05	1.1174e-05	560.64	4.4454e-07	4.1659e-07	834.73	224.55	5.3553e-07	3.606e-07	384.36	208.03	105.6	62.197	5.4564e-07	123	-20.735	-5.997	3.669	-81.396	59.324	51.464	-81.845	-76.195	100.534	56.101	-77.189	-73.041	-73.381	-69.140	47.847	-70.896	-8191	255	
1287.817	1	1	0	0	0.14759	0.038009	0.16784	0.29535	0.15073	0.0048375	0.20595	0.14428	0.15242	0.28862	0.015607	0.047433	0.17802	0.21184	0.23311	0.071522	-1.9375	-2.6979	-2.325	-2.3229	-2.6854	-2.3667	-2.6979	-2.8	-2.4188	-2.7917	-2.4708	-2.3104	-2.4688	-2.4229	-2.5083	-2.9021	-85.863	39.520	68.196	-88.612	30.354	101.011	210.636	48.832	80.190	84.211	176.557	94.983	-27.195	213.307	173.799	-70.959	0.001171	0.00063067	0.00015806	572.11	8.5179e-06	7.6457e-06	851.74	228.21	5.8069e-06	5.6451e-06	394.83	211.39	107.81	62.994	7.4666e-06	125.55	0.00017899	3.9471e-05	1.0604e-05	559.76	4.4416e-07	4.3355e-07	834.18	223.81	5.3005e-07	3.8312e-07	384.35	208.57	105.91	62.406	5.5972e-07	123.92	-19.431	-13.313	2.082	-81.937	47.997	53.904	-81.673	-76.016	90.728	65.684	-77.208	-73.033	-73.700	-69.402	51.611	-70.719	-8191	255	
1287.913	1	1	0	0	0.11608	0.19013	0.095344	0.36068	0.22712	0.18041	0.30779	0.1368	0.22736	0.097963	0.31811	0.069617	0.081908	0.18605	0.088822	0.25574	-1.8458	-2.6771	-2.5417	-2.5021	-2.8042	-2.3812	-2.4771	-2.8042	-2.4167	-2.6729	-2.6667	-2.4354	-2.9104	-2.675	-2.5979	-3.1396	-24.295	-36.859	-62.136	-70.573	218.628	128.850	150.017	148.694	170.704	-23.485	257.251	4.742	30.138	215.371	-66.388	175.714	0.0011637	0.00066087	0.00015452	576.21	9.1319e-06	6.8267e-06	857.43	228.49	7.3588e-06	6.8275e-06	393.58	212.81	107.6	62.723	6.9617e-06	124.83	0.0001824	4.0008e-05	1.0044e-05	561.79	4.5793e-07	4.1304e-07	837.59	224.54	5.3795e-07	3.6179e-07	384.91	208.89	105.59	62.169	5.6527e-07	123.49	-20.602	2.150	0.810	-81.957	49.633	48.038	-81.742	-76.162	90.146	56.229	-77.016	-72.855	-73.401	-68.990	33.527	-70.865	-8191	255	
1287.985	1	1	0	0	0.20998	0.20855	0.13237	0.018923	0.1721	0.1648	0.15404	0.15334	0.35153	0.13699	0.19275	0.10333	0.17163	0.29547	0.14651	0.11015	-1.8229	-2.7125	-2.7333	-2.2667	-2.5229	-2.1813	-2.3	-2.625	-2.0646	-2.3292	-2.7604	-2.1437	-2.675	-2.4229	-2.2625	-2.8229	-13.031	71.784	7.931	-48.637	17.613	-7.043	195.725	218.065	-89.503	-65.764	264.985	118.636	71.467	-93.928	170.740	220.592	0.0012454	0.0007034	0.00021803	576.36	8.1061e-06	6.5122e-06	853.66	228.33	6.9146e-06	7.1646e-06	391.76	210.13	106.85	62.229	5.2414e-06	123.5	0.00018145	3.9757e-05	1.1021e-05	561.34	4.2899e-07	4.3092e-07	833.65	223.8	5.1821e-07	3.7509e-07	382.58	207.1	104.75	61.62	5.5016e-07	122.24	-19.618	-4.240	-2.537	-81.508	61.236	47.309	-81.567	-76.175	102.677	60.690	-77.110	-73.028	-73.685	-68.961	50.738	-70.863	-8191	255	
1288.105	1	1	0	0	0.1448	0.068972	0.036804	0.21737	0.23102	0.12861	0.051488	0.11972	0.10315	0.28319	0.1774	0.1849	0.14923	0.16072	0.16216	0.048926	-1.8229	-2.4792	-2.7104	-2.3812	-2.7167	-2.5146	-2.3771	-2.6146	-2.15	-2.4625	-2.7104	-2.0563	-2.5875	-2.475	-2.0875	-2.6292	128.352	66.893	120.787	-82.906	218.078	-45.712	183.344	-93.673	0.922	193.436	240.174	-93.845	-37.959	166.860	257.593	61.296	0.0011435	0.000691	0.00020194	569.13	7.4253e-06	6.1569e-06	853.35	227.45	5.8911e-06	5.5494e-06	391.63	210.13	106.88	62.372	7.9308e-06	124.49	0.00017893	4.0759e-05	1.0401e-05	557.31	4.4824e-07	4.0344e-07	832.75	222.81	5.3846e-07	3.8168e-07	381.81	206.94	104.93	61.84	5.6501e-07	122.67	-20.395	-0.196	-9.446	-82.025	70.631	58.481	-81.789	-76.096	111.955	61.120	-77.382	-72.958	-73.377	-69.291	41.529	-70.993	-8191	255	
1288.202	1	1	0	0	0.1369	0.39522	0.21051	0.097218	0.24653	0.051977	0.2276	0.19103	0.071637	0.18517	0.22599	0.077966	0.1919	0.33484	0.22014	0.21311	-1.7917	-2.3354	-2.5187	-2.2167	-2.5833	-2.3688	-2.3479	-2.6312	-2.25	-2.2687	-2.8854	-2.3875	-2.3854	-2.6063	-2.3479	-2.8021	187.674	190.382	201.603	-24.790	251.340	173.494	180.993	244.242	43.644	131.889	208.666	246.967	165.725	246.498	106.295	230.371	0.0011073	0.00065008	0.00018951	571.82	8.454e-06	6.3686e-06	852.38	226.59	7.7876e-06	6.4717e-06	391.56	210.22	106.33	61.913	8.2766e-06	123.44	0.00017647	4.1654e-05	1.1101e-05	558.06	4.6226e-07	3.9556e-07	831.6	222.06	5.3718e-07	4.0683e-07	381.39	206.66	104.59	61.367	5.7767e-07	122.03	-21.165	-1.057	-1.896	-81.782	64.274	62.043	-81.688	-76.302	93.158	68.299	-77.120	-72.954	-73.478	-68.940	49.293	-70.848	-8191	255	
1288.298	1	1	0	0	0.32391	0.1723	0.19319	0.18118	0.18451	0.11016	0.12707	0.16057	0.15408	0.054676	0.086613	0.45089	0.041671	0.12489	0.24044	0.35169	-2.0187	-2.3292	-2.7146	-2.3583	-2.4771	-2.7292	-2.1104	-2.625	-2.3646	-2.3229	-2.6875	-2.4208	-2.5229	-2.7833	-2.2125	-2.7021	230.367	130.103	131.312	189.254	68.149	203.598	157.753	71.041	190.985	-74.243	17.930	251.444	205.099	190.817	250.174	201.675	0.0011434	0.00063444	0.00018326	574.06	7.9779e-06	6.1483e-06	850.02	225.14	7.7045e-06	5.8182e-06	388.86	210.24	105.72	61.42	7.0652e-06	122.3	0.00018035	4.1045e-05	9.5934e-06	557.74	4.5079e-07	3.924e-07	831.64	221.27	4.9886e-07	3.8787e-07	380.14	206.11	104.01	60.915	5.4719e-07	121.03	-21.541	-12.173	3.829	-81.650	60.233	56.086	-81.928	-76.052	94.870	65.473	-77.096	-73.043	-73.658	-68.975	47.842	-71.076	-8191	255	
1288.417	1	1	0	0	0.075308	0.070058	0.2243	0.13968	0.078069	0.061609	0.23236	0.18757	0.17464	0.036745	0.25692	0.16062	0.17065	0.13439	0.22329	0.10518	-1.95	-2.3771	-2.6688	-2.2	-2.3333	-2.4917	-2.2667	-2.5667	-2.3063	-2.1583	-2.6167	-2.4083	-2.2313	-2.7313	-2.2208	-2.7104	166.179	123.651	120.246	97.625	130.711	245.700	-90.511	-91.815	95.003	234.681	20.818	176.251	149.067	-55.945	84.023	-82.188	0.001181	0.0006645	0.00018711	569.12	8.1753e-06	7.2361e-06	849.43	224.1	7.1856e-06	6.9564e-06	385.99	206.7	105.62	61.199	6.7538e-06	121.47	0.00017559	4.1165e-05	1.0307e-05	555.87	4.9337e-07	3.7268e-07	829.02	220.16	4.9886e-07	4.2461e-07	377.36	203.98	103.29	60.528	5.6282e-07	119.9	-19.927	-8.938	-5.157	-81.791	58.155	53.081	-81.737	-76.327	89.916	57.275	-77.191	-73.052	-73.399	-69.114	37.624	-70.874	-8191	255	
1288.513	1	1	0	0	0.076966	0.060222	0.32187	0.15402	0.10557	0.16548	0.31433	0.09857	0.08503	0.29386	0.17661	0.26703	0.28923	0.10921	0.17245	0.37324	-2.0708	-2.0771	-2.7542	-2.45	-2.3167	-2.7021	-2.3667	-2.3812	-2.4104	-2.2417	-2.7875	-2.4646	-2.5104	-2.8083	-2.3667	-2.3812	-86.551	143.316	15.970	-76.634	-93.001	79.355	264.407	169.391	163.687	25.645	192.508	223.996	259.655	233.976	68.481	209.931	0.0010961	0.00067956	0.00018075	570.04	8.082e-06	5.6157e-06	843.63	225.89	8.9846e-06	7.382e-06	386.83	208	105.77	61.28	5.8005e-06	121.95	0.0001742	4.2656e-05	1.1235e-05	555.32	4.4391e-07	3.4021e-07	827.09	220.9	4.8473e-07	4.1144e-07	377.14	204.33	103.78	60.87	5.3286e-07	120.66	-21.957	-2.097	-0.816	-81.868	59.436	56.563	-81.771	-76.108	105.353	63.602	-77.236	-72.992	-73.272	-69.124	31.827	-70.780	-8191	255	
1288.609	1	1	0	0	0.20047	0.10099	0.17259	0.11718	0.17423	0.13165	0.1391	0.078443	0.057426	0.17402	0.158	0.11484	0.1902	0.10167	0.096978	0.14714	-2.0292	-2.1333	-2.6292	-2.2896	-2.4	-2.675	-2.4354	-2.7375	-2.4875	-2.2917	-2.7333	-2.5	-2.3042	-2.7667	-2.2708	-2.7104	-81.338	203.176	90.431	21.115	-36.815	217.367	116.258	179.012	158.640	-51.078	30.018	262.666	-0.010	37.481	-70.586	229.155	0.0011024	0.00076484	0.00022132	569.5	6.8122e-06	7.1435e-06	846.3	225.01	7.0774e-06	5.6746e-06	386.66	208.44	106.61	61.587	7.1241e-06	122.69	0.0001742	4.1606e-05	1.0891e-05	555.3	4.8725e-07	3.4429e-07	826.79	221.13	4.8473e-07	4.0341e-07	379.13	205.42	104.47	61.125	5.5391e-07	121.36	-22.572	-3.898	9.554	-81.893	52.073	47.434	-81.594	-76.219	94.035	64.872	-77.346	-72.975	-73.549	-68.979	53.296	-70.728	-8191	255	
1288.705	1	1	0	0	0.14544	0.11372	0.11465	0.094379	0.19834	0.20344	0.19909	0.16232	0.26189	0.35305	0.13881	0.16917	0.15452	0.088868	0.0074475	0.27554	-2.3125	-2.2708	-2.6229	-2.5042	-2.3604	-2.8479	-2.3125	-2.5333	-2.6208	-2.35	-2.625	-2.6583	-2.2354	-2.8333	-2.1979	-2.6333	127.814	218.634	177.411	-41.361	-91.619	-74.639	241.027	190.240	6.528	67.514	260.164	227.529	62.128	216.170	103.081	175.712	0.0011421	0.00050333	0.0001696	570.76	8.1299e-06	7.1972e-06	848.02	225.89	6.5277e-06	7.3884e-06	388.51	209.44	106.16	61.941	9.027e-06	123.73	0.00017939	3.9662e-05	9.9103e-06	556.59	4.847e-07	3.6006e-07	828.83	221.76	4.986e-07	4.2224e-07	380.26	206.27	104.49	61.435	5.7186e-07	122.21	-21.097	-0.089	2.850	-81.795	63.294	42.372	-81.603	-75.911	97.076	62.931	-77.138	-73.088	-73.426	-69.396	42.006	-70.769	-8191	255	
1288.801	1	1	0	0	0.14544	0.28332	0.39975	0.1768	0.19295	0.14329	0.056619	0.13316	0.033452	0.11715	0.30344	0.036058	0.17344	0.22123	0.12127	0.16649	-2.1917	-1.95	-2.6333	-2.5792	-2.3167	-2.6708	-2.6229	-2.3854	-2.6854	-2.0542	-2.4958	-2.8312	-2.2396	-2.8812	-2.4313	-2.475	71.639	172.979	-26.456	50.635	141.454	23.615	71.012	-85.229	36.642	151.331	74.754	-89.815	-20.910	245.701	103.675	-65.418	0.0011458	0.00062594	0.00016415	570.76	7.857e-06	6.7963e-06	849.48	226.15	6.7455e-06	6.3263e-06	388.71	207.73	106.52	62	7.0754e-06	122.37	0.00017761	4.1809e-05	1.1271e-05	556.55	4.4939e-07	3.4968e-07	830.56	221.89	4.7429e-07	3.9643e-07	378.73	205.18	104.38	61.311	5.4887e-07	121.17	-21.096	-10.459	6.132	-81.652	67.962	52.136	-81.743	-76.134	93.059	59.323	-77.370	-73.149	-73.441	-68.954	47.906	-70.724	-8191	255	
1288.897	1	1	0	0	0.10051	0.091295	0.13463	0.1078	0.092326	0.077696	0.10008	0.16255	0.26927	0.23114	0.13256	0.15768	0.13513	0.43985	0.26421	0.20832	-2.2917	-2.0958	-2.2646	-2.5333	-2.0625	-2.6208	-2.6104	-2.4875	-2.8208	-2.2958	-2.6667	-2.7583	-2.1562	-2.6083	-2.2812	-2.2146	122.168	126.352	10.425	-29.694	229.296	105.592	248.086	1.838	-63.242	139.605	12.257	260.671	-62.949	-46.257	234.148	-84.514	0.0011211	0.00063304	0.0001403	567.96	8.8507e-06	6.7428e-06	848.49	224.97	6.5543e-06	6.6764e-06	388.21	208.21	105.62	61.722	7.4365e-06	122.41	0.00017508	4.0759e-05	1.0474e-05	554.24	4.8865e-07	3.9069e-07	827.85	221.36	4.8129e-07	4.0907e-07	378.33	204.65	104.11	61.092	5.4538e-07	120.96	-19.778	-13.456	-2.189	-82.016	58.232	64.251	-82.017	-76.277	100.682	63.047	-77.167	-73.063	-73.296	-69.106	34.047	-70.815	-8191	255	
1289.018	1	1	0	0	0.25379	0.14307	0.24931	0.15269	0.12559	0.1322	0.29047	0.17294	0.29871	0.10581	0.11748	0.15714	0.3065	0.11649	0.16705	0.20764	-2.1813	-2.3521	-2.4875	-2.6292	-2.2083	-2.6063	-2.4708	-2.2562	-2.8458	-2.3583	-2.6458	-2.7604	-2.0792	-2.6354	-2.5958	-2.175	-22.792	103.373	-83.374	210.152	47.547	110.602	194.376	156.561	211.907	92.810	122.191	-76.089	231.403	231.819	235.432	220.060	0.0011623	0.00063633	0.00016956	570.41	8.0193e-06	6.5825e-06	842.1	225.51	7.8054e-06	6.0478e-06	386.45	208.88	105.71	61.667	6.8663e-06	122.11	0.00017702	4.262e-05	1.0467e-05	555.76	5.0574e-07	3.7439e-07	825.56	220.89	5.009e-07	3.7838e-07	377.72	204.71	103.99	60.981	5.3789e-07	120.73	-20.914	-3.037	-0.825	-81.793	57.578	49.522	-81.665	-75.932	97.676	67.503	-77.178	-73.031	-73.384	-69.045	44.259	-70.595	-8191	255	
1289.112	1	1	0	0	0.047883	0.18342	0.1366	0.39983	0.19605	0.16849	0.11959	0.13928	0.12173	0.097237	0.21031	0.29471	0.15973	0.11027	0.073176	0.31817	-2.2583	-2.2292	-2.3563	-2.7021	-2.2042	-2.4708	-2.3625	-2.3667	-2.8104	-2.4625	-2.4521	-2.7854	-2.4	-2.7188	-2.675	-2.3917	100.531	104.053	251.340	221.446	24.664	212.928	111.968	245.194	195.579	-71.972	175.939	193.776	237.806	-72.840	237.793	258.265	0.0011391	0.00062266	0.00021363	567.97	6.7398e-06	7.0053e-06	848.06	225.39	7.4778e-06	5.5211e-06	386.62	208.5	105.83	61.761	7.5432e-06	122.96	0.00017437	4.1618e-05	1.1558e-05	554.04	4.5729e-07	3.761e-07	827.99	220.7	4.9326e-07	3.9168e-07	378.3	205.04	103.99	61.134	5.2123e-07	121.62	-20.493	-12.617	-7.439	-81.936	59.210	45.711	-81.716	-75.987	92.566	56.782	-77.377	-73.153	-73.466	-69.074	34.936	-70.702	-8191	255	
1289.209	1	1	0	0	0.13203	0.27896	0.032048	0.075366	0.24045	0.32139	0.31996	0.15321	0.043086	0.17524	0.10776	0.096328	0.27819	0.15807	0.099811	0.17601	-2.075	-2.2917	-2.0292	-2.8375	-2.3083	-2.6333	-2.9062	-2.2062	-2.85	-2.8125	-2.3146	-2.6271	-2.2125	-2.5771	-2.6979	-2.6333	152.064	247.029	79.189	207.617	120.672	-47.294	220.404	232.049	189.951	-51.702	179.728	-73.881	227.138	94.196	-19.085	88.945	0.0011977	0.00059927	0.00020353	565.2	8.3123e-06	6.8121e-06	848.68	224.37	6.8627e-06	7.1012e-06	387.71	207.1	105.72	61.533	6.7736e-06	121.84	0.00017721	3.7181e-05	1.1248e-05	552.81	4.9745e-07	3.9385e-07	827.07	220.25	5.1197e-07	3.851e-07	378.22	204.11	103.6	60.906	4.985e-07	120.29	-20.254	0.470	5.355	-81.825	59.177	44.899	-81.557	-76.191	97.730	66.932	-77.079	-73.040	-73.476	-69.050	38.997	-70.750	-8191	255	
1289.280	1	1	0	0	0.13528	0.11212	0.063317	0.16197	0.074593	0.10795	0.17514	0.21256	0.35151	0.33588	0.15517	0.12764	0.20895	0.21785	0.17655	0.34054	-2.4188	-2.4104	-2.2854	-2.6354	-2.3875	-2.4396	-2.8083	-2.2521	-2.5021	-2.5312	-2.4917	-2.9458	-2.5208	-2.4125	-2.65	-2.2729	223.375	86.055	-87.071	-94.150	-67.135	142.016	250.038	-85.872	95.029	-49.032	242.003	240.161	-86.452	17.561	130.335	161.336	0.0011358	0.00070624	0.00018236	567.47	8.9898e-06	7.0254e-06	842.12	223.69	8.7274e-06	5.9773e-06	387.43	207.43	105.67	61.909	6.4053e-06	122.03	0.00017333	4.0747e-05	1.0524e-05	553.43	4.5946e-07	3.995e-07	824.81	219.88	5.0459e-07	3.6245e-07	376.69	203.89	103.98	61.023	5.1387e-07	120.58	-21.399	-4.150	5.342	-82.150	56.687	56.317	-81.774	-76.330	98.640	62.433	-77.313	-73.205	-73.770	-69.087	35.309	-71.009	-8191	255	
1289.401	1	1	0	0	0.16872	0.32683	0.32136	0.071951	0.052563	0.12033	0.21249	0.058082	0.11242	0.14237	0.20136	0.27129	0.20294	0.25469	0.14142	0.2509	-2.3771	-2.6625	-1.9333	-2.8646	-2.2958	-2.4	-2.6646	-2.25	-2.6146	-2.7604	-2.1437	-2.8417	-2.6937	-2.3375	-2.6021	-2.6667	262.084	171.534	-3.268	94.440	71.083	-29.877	170.193	250.769	220.050	224.806	56.793	-42.761	176.040	-59.589	158.480	232.591	0.0011684	0.00062297	0.00016139	566.86	8.1364e-06	6.6194e-06	845.44	227.52	8.9428e-06	6.6154e-06	388.93	208.93	106.95	62.53	7.7991e-06	124.02	0.00017785	3.7932e-05	1.1712e-05	553.93	4.5882e-07	3.7781e-07	826.95	222.79	5.2572e-07	3.502e-07	380.07	206.16	105.14	61.9	5.3402e-07	122.38	-22.590	-5.381	-8.416	-81.721	57.214	47.817	-81.504	-76.000	98.809	64.048	-77.432	-73.072	-73.469	-69.119	52.697	-70.720	-8191	255	
1289.497	1	1	0	0	0.1794	0.15575	0.076033	0.10337	0.091423	0.048199	0.16984	0.15946	0.20171	0.10868	0.10948	0.080052	0.18958	0.19348	0.22506	0.22963	-2.225	-2.3812	-2	-2.8646	-2.6979	-2.2729	-2.8583	-2.5438	-2.4562	-2.7979	-2.2812	-2.6167	-2.5583	-2.2979	-2.6333	-2.4396	-1.716	183.090	-21.915	8.660	-66.367	214.846	209.225	161.596	169.592	13.515	237.636	114.095	209.661	-93.726	87.885	245.401	0.0011258	0.00077004	0.00019879	569.16	8.4317e-06	5.584e-06	851.35	227.52	7.4511e-06	6.0151e-06	391.64	210.92	107.81	63.047	7.1553e-06	124.67	0.00017683	4.2536e-05	1.1361e-05	555.99	4.5589e-07	4.0607e-07	829.98	223.5	5.0535e-07	3.7825e-07	381.82	207.78	106.06	62.384	5.2188e-07	123.31	-20.448	-14.160	6.893	-81.872	70.878	50.352	-81.630	-75.983	93.081	58.253	-77.347	-73.110	-73.504	-68.946	50.409	-70.859	-8191	255	
1289.593	1	1	0	0	0.082872	0.13828	0.24745	0.13098	0.23386	0.11102	0.1177	0.11098	0.24634	0.1279	0.11289	0.092247	0.16504	0.13196	0.1172	0.28805	-2.2438	-2.8667	-2.1167	-2.5563	-2.6375	-2.25	-2.6875	-2.4917	-2.3667	-2.8021	-2.3125	-2.5625	-2.4938	-2.3354	-2.7917	-2.6208	148.195	117.254	0.201	-5.968	4.468	193.388	239.738	-65.257	196.943	226.175	45.555	179.827	-33.516	169.918	170.972	229.807	0.0011765	0.00063291	0.00019843	573.1	7.3265e-06	6.4657e-06	851.15	228.93	6.2291e-06	7.3251e-06	389.39	211.28	107.99	63.063	7.273e-06	124.09	0.00017928	3.8326e-05	1.2205e-05	558.64	4.5716e-07	4.0528e-07	831.48	224.06	5.0688e-07	3.6771e-07	381.5	208.19	106.08	62.389	5.4203e-07	122.87	-20.462	-11.021	1.336	-81.508	64.640	55.897	-81.715	-76.157	97.412	64.748	-77.417	-72.886	-73.537	-69.046	46.230	-70.694	-8191	255	
1289.689	1	1	0	0	0.085977	0.16666	0.079702	0.14068	0.25675	0.40164	0.20995	0.23161	0.15696	0.33532	0.059012	0.24427	0.096976	0.32349	0.28996	0.324	-1.7021	-2.6813	-2.1667	-2.7771	-2.6521	-2.2687	-3.0708	-2.3396	-2.5	-2.7938	-2.3104	-2.6208	-2.7771	-2.3625	-2.7396	-2.6917	-54.615	-66.708	188.276	-71.952	126.023	252.055	49.520	156.771	79.290	-40.513	-54.778	-17.490	-47.447	263.801	63.648	190.794	0.0011723	0.00056352	0.00019927	570.63	1.0054e-05	6.175e-06	845.96	226.24	7.5757e-06	7.0732e-06	387.94	209.88	107.34	62.588	7.9394e-06	122.71	0.00017998	3.7956e-05	1.1591e-05	556.78	4.7386e-07	3.9148e-07	826.16	222.8	5.3107e-07	3.8655e-07	379.33	206.46	105.37	61.986	5.3337e-07	121.65	-20.669	-1.474	-6.687	-81.794	53.913	49.647	-81.589	-75.935	99.174	56.020	-77.453	-73.032	-73.550	-69.289	47.481	-70.890	-8191	255	
1289.810	1	1	0	0	0.12242	0.12058	0.29248	0.10315	0.16329	0.14164	0.15644	0.2251	0.16995	0.18363	0.14656	0.28845	0.26317	0.018297	0.059034	0.0597	-2.0187	-2.6833	-2.0958	-2.5292	-2.5792	-2.2521	-2.9062	-2.6979	-2.2958	-2.7354	-2.5042	-2.3	-2.4813	-2.5062	-2.65	-2.7729	77.449	191.849	98.929	14.552	40.255	147.634	138.603	215.480	200.297	150.320	-26.812	248.180	-94.063	58.410	171.808	250.663	0.0011581	0.00063074	0.00019133	568.9	8.7851e-06	7.5148e-06	844.62	227.48	8.3456e-06	6.1044e-06	389.82	209.15	107.27	62.639	7.4792e-06	123.73	0.00017434	3.6739e-05	1.1365e-05	554.52	4.4276e-07	4.0699e-07	826.45	222.74	5.3617e-07	3.8128e-07	379.47	206.5	105.41	62.029	5.5481e-07	122.28	-21.137	-14.101	-8.012	-81.945	50.162	48.386	-81.621	-76.232	98.851	58.335	-77.282	-73.003	-73.474	-69.034	38.685	-70.691	-8191	255	
1289.906	1	1	0	0	0.20032	0.18849	0.08523	0.25654	0.24932	0.2132	0.16473	0.014686	0.18629	0.25289	0.21031	0.2049	0.30865	0.080443	0.34723	0.28245	-1.9417	-2.6583	-2.4437	-2.6188	-2.6604	-2.1813	-2.5312	-2.7	-2.4604	-2.7958	-2.4375	-2.4208	-2.6042	-2.375	-2.6271	-3.1146	-4.333	119.334	94.247	249.546	100.835	252.119	203.166	236.081	-11.308	3.775	235.477	99.184	185.720	13.504	139.283	240.913	0.0010995	0.00068215	0.00021688	568.74	8.3318e-06	6.5536e-06	846.42	226.59	8.2085e-06	6.2739e-06	389.96	210.71	106.96	62.712	7.0463e-06	124.14	0.00017733	3.7407e-05	1.0681e-05	555.88	4.4913e-07	4.1948e-07	827.61	222.89	5.023e-07	3.7878e-07	380.5	207.11	105.09	62.109	5.3802e-07	122.61	-20.280	-1.728	6.744	-81.601	60.269	51.383	-81.807	-76.070	93.024	63.480	-77.161	-72.896	-73.433	-69.061	52.031	-70.870	-8191	255	
1289.978	1	1	0	0	0.037612	0.11535	0.048006	0.23489	0.43766	0.23653	0.1087	0.48811	0.19833	0.15663	0.10061	0.1335	0.1017	0.39595	0.20675	0.2994	-1.8083	-2.8292	-2.4479	-2.3833	-2.7333	-2.3083	-2.4542	-2.8688	-2.2438	-2.6417	-2.5604	-2.4854	-2.7062	-2.2792	-2.375	-2.775	43.408	239.681	190.684	226.734	-59.155	67.158	263.426	173.275	143.728	33.086	59.636	244.426	251.490	-43.675	214.905	258.316	0.0011799	0.00061088	0.00016804	570.33	7.8658e-06	6.9294e-06	848.25	226.36	7.4574e-06	6.9486e-06	390.3	210.8	106.92	62.672	8.4538e-06	123.91	0.00017727	3.7216e-05	1.0758e-05	556.06	4.2313e-07	4.1212e-07	828.86	223.05	5.2432e-07	3.7061e-07	381.05	207.02	105.14	62.139	5.7741e-07	122.34	-21.997	-6.416	5.774	-81.746	62.685	52.266	-81.582	-75.911	96.308	67.065	-77.385	-72.830	-73.575	-69.119	47.550	-70.746	-8191	255	
1290.098	1	1	0	0	0.1156	0.030771	0.1892	0.30615	0.35036	0.095258	0.35636	0.31965	0.11834	0.068227	0.10818	0.12882	0.044148	0.19343	0.094518	0.24201	-1.7479	-2.6833	-2.45	-2.4396	-2.5771	-2.3167	-2.5812	-2.9021	-2.1562	-2.5563	-2.7125	-2.4	-2.8187	-2.3937	-2.3396	-2.8729	232.049	-4.148	75.255	142.405	147.038	-66.621	203.372	224.984	142.008	-8.881	251.222	-52.791	-83.740	231.943	197.007	-88.321	0.001163	0.00061267	0.0001789	569.78	7.2499e-06	7.3682e-06	848.31	226	8.1113e-06	6.0974e-06	386.91	209.53	107.47	62.641	7.6912e-06	122.89	0.00018058	3.9125e-05	1.0881e-05	555.94	4.3587e-07	3.8451e-07	826.1	222.31	5.2229e-07	3.6152e-07	378.49	206.2	105.09	61.894	5.6682e-07	121.52	-19.215	-2.677	2.975	-81.680	65.886	59.447	-81.697	-76.183	96.629	64.527	-77.252	-73.005	-73.383	-68.891	36.605	-70.802	-8191	255	
1290.193	1	1	0	0	0.19306	0.11028	0.2967	0.094351	0.17428	0.11034	0.29605	0.12708	0.21838	0.17535	0.21318	0.10365	0.16433	0.12115	0.21559	0.096011	-1.5542	-2.3958	-2.5021	-2.1896	-2.6208	-2.2854	-2.2979	-2.6083	-2.275	-2.4062	-2.6583	-2.4062	-2.7771	-2.5	-2.5271	-3.1896	213.203	173.085	196.237	209.081	171.511	76.194	126.892	238.678	205.963	126.808	-86.330	72.925	44.723	157.580	-12.828	246.564	0.0011225	0.00072296	0.00018125	570.95	5.8528e-06	5.9825e-06	846.27	226.34	8.24e-06	5.7252e-06	388.29	209.93	106.4	62.482	7.1625e-06	123.49	0.00017644	4.2512e-05	1.0944e-05	555.84	4.4199e-07	3.9135e-07	824.42	222.55	5.3718e-07	4.1315e-07	379.21	206.15	104.98	61.905	5.5507e-07	121.71	-21.323	-13.310	-5.307	-81.826	51.990	54.890	-81.716	-76.158	100.758	58.792	-77.280	-72.915	-73.571	-69.143	44.477	-70.874	-8191	255	
1290.289	1	1	0	0	0.11061	0.2504	0.27498	0.046972	0.29931	0.10288	0.10887	0.27258	0.29816	0.087013	0.1222	0.10217	0.12187	0.10332	0.074446	0.34134	-1.7812	-2.7188	-2.6917	-2.2417	-2.7583	-2.5	-2.5146	-3.0271	-2.2708	-2.6479	-2.6958	-2.2833	-2.6271	-2.6792	-2.0792	-3.0125	46.452	-54.839	91.650	58.848	206.000	-54.669	125.620	201.231	37.979	138.702	111.817	226.658	-73.228	-80.388	-23.985	224.429	0.001169	0.00077653	0.00016354	568.31	8.6528e-06	6.8227e-06	841.76	227.08	6.2897e-06	6.178e-06	388.3	210.95	107.19	63.023	7.6477e-06	123.97	0.00017913	4.0938e-05	1.003e-05	555.01	4.5704e-07	3.8727e-07	823.96	223.09	5.1019e-07	3.8484e-07	379.92	206.85	105.41	62.146	5.512e-07	122.26	-18.259	-0.785	-14.444	-81.908	57.494	46.187	-81.610	-75.718	100.638	66.325	-77.321	-72.876	-73.715	-69.181	40.208	-70.944	-8191	255	
1290.387	1	1	0	0	0.17965	0.082803	0.088262	0.15263	0.15226	0.077485	0.066266	0.22339	0.067803	0.22983	0.26787	0.11483	0.095348	0.16916	0.26809	0.25703	-1.7938	-2.3333	-2.6042	-2.2583	-2.5896	-2.5458	-2.4583	-2.7354	-2.6042	-2.3937	-2.5854	-2.4271	-2.4521	-2.6479	-2.125	-2.6979	54.961	155.217	172.501	2.903	115.007	188.341	243.225	254.574	99.753	1.714	-7.825	137.260	-6.807	121.474	194.803	232.059	0.0011887	0.0006566	0.00018613	567.99	7.9083e-06	7.0243e-06	843.85	227.16	8.3937e-06	6.3215e-06	388.47	210.14	106.41	62.76	7.1811e-06	123.32	0.00017753	4.0103e-05	1.0998e-05	554.6	4.6214e-07	3.9385e-07	825.95	222.84	5.177e-07	3.9932e-07	380.48	206.76	105.03	61.999	6.0415e-07	122.14	-19.746	-12.641	0.886	-81.709	70.145	50.260	-81.535	-76.141	89.886	66.015	-77.370	-73.033	-73.342	-68.993	44.204	-70.611	-8191	255	
1290.506	1	1	0	0	0.21339	0.1146	0.036438	0.27914	0.029409	0.20375	0.083985	0.13002	0.23166	0.13312	0.2762	0.3412	0.17571	0.090252	0.14996	0.25751	-1.9375	-2.1688	-2.8167	-2.3312	-2.5521	-2.5792	-2.4208	-2.7708	-2.4875	-2.5375	-2.8187	-2.6312	-2.6104	-3.0229	-2.0708	-2.8563	77.513	46.840	119.397	-21.515	-88.832	-72.569	94.859	207.132	250.787	35.932	187.401	148.721	190.705	146.784	99.595	172.715	0.0011141	0.00058226	0.00018371	568.92	7.799e-06	6.7567e-06	839.94	224.87	7.6371e-06	6.8827e-06	385.91	209.1	107.46	62.454	6.9042e-06	123.31	0.00017978	4.0807e-05	1.0781e-05	554.32	4.6201e-07	3.7544e-07	823.79	221.89	4.9759e-07	3.8655e-07	377.7	205.58	105.05	61.791	5.4732e-07	121.59	-23.820	-0.979	5.017	-81.735	59.630	46.015	-81.868	-76.230	96.911	63.829	-77.568	-72.817	-73.205	-68.938	44.303	-70.848	-8191	255	
1290.577	1	1	0	0	0.2434	0.065702	0.21134	0.14	0.11972	0.087025	0.38048	0.25402	0.25988	0.066377	0.18382	0.17486	0.18065	0.25412	0.052417	0.2593	-1.9333	-2.1875	-2.5917	-2.2792	-2.4667	-2.375	-2.2521	-2.7062	-2.2729	-2.1021	-2.8958	-2.3354	-2.3833	-2.7021	-2.225	-2.8104	-79.856	50.130	-16.965	241.349	208.031	30.673	232.129	229.221	99.737	-43.968	-32.799	191.546	161.288	206.038	16.493	237.409	0.001151	0.0005837	0.00019191	565.01	7.8761e-06	6.8344e-06	844.37	226.96	7.8923e-06	6.6988e-06	390.58	209.99	107.8	62.968	8.1505e-06	124.16	0.00017833	3.9208e-05	1.0771e-05	554.35	4.9515e-07	4.1159e-07	826.04	222.79	5.1885e-07	4.3383e-07	380.95	207.06	105.74	62.408	5.7638e-07	122.69	-21.109	-14.630	-1.022	-81.644	69.982	50.473	-81.425	-76.149	94.752	66.121	-77.207	-73.185	-73.710	-69.296	47.629	-70.891	-8191	255	
1290.698	1	1	0	0	0.18683	0.36945	0.18276	0.22124	0.18648	0.23615	0.17287	0.28825	0.11047	0.15421	0.20513	0.22222	0.11732	0.099619	0.11554	0.14967	-2.1479	-2.3792	-2.8229	-2.4292	-2.3312	-2.4708	-2.3083	-2.3854	-2.3521	-2.2521	-2.725	-2.5333	-2.3583	-2.8708	-2.3542	-2.7708	69.666	-37.605	121.786	215.668	41.544	17.558	220.186	191.362	-31.881	243.361	71.176	-37.158	252.655	161.854	171.967	213.198	0.0011919	0.00073137	0.00018361	571.92	8.5368e-06	5.0827e-06	845.89	226.55	6.9909e-06	6.6254e-06	390.77	210.43	107.11	62.982	7.6316e-06	124.26	0.00017966	4.089e-05	1.02e-05	555.6	4.6532e-07	3.3666e-07	827.33	223.22	5.1312e-07	4.013e-07	381.45	206.76	105.51	62.324	5.3893e-07	122.85	-20.139	-9.594	4.731	-82.098	51.991	49.325	-81.878	-76.000	96.300	54.798	-77.193	-72.993	-73.451	-69.111	39.292	-70.780	-8191	255	
1290.794	1	1	0	0	0.15912	0.20382	0.25288	0.082746	0.089489	0.17813	0.1921	0.015626	0.25433	0.13678	0.30804	0.31775	0.18003	0.14834	0.036004	0.12762	-1.9937	-2.0042	-2.5187	-2.4958	-2.4562	-2.8417	-2.4146	-2.7625	-2.6333	-2.1937	-2.7833	-2.6208	-2.3896	-2.675	-2.2958	-2.4813	-25.951	212.970	40.109	164.699	112.860	-25.752	237.309	180.003	242.796	201.779	86.221	203.709	74.347	243.264	-34.712	171.800	0.0011843	0.00065722	0.00018681	569.72	7.547e-06	7.1233e-06	844.55	227.05	7.1632e-06	6.1561e-06	389.82	209.66	107.36	62.97	7.3152e-06	124.26	0.00017056	4.2214e-05	1.1321e-05	556.01	4.7884e-07	3.4534e-07	827.06	222.86	5.0421e-07	4.0973e-07	381.18	206.92	105.66	62.394	5.7651e-07	122.8	-19.620	-4.063	-3.186	-81.907	62.094	56.248	-81.730	-76.011	101.492	73.796	-77.372	-72.905	-73.611	-69.317	48.513	-70.605	-8191	255	
1290.890	1	1	0	0	0.07204	0.083442	0.18293	0.25517	0.19157	0.078402	0.2742	0.30397	0.17163	0.058146	0.17069	0.20343	0.20664	0.218	0.2388	0.35857	-2.3438	-2.0542	-2.5917	-2.6667	-2.3937	-2.6875	-2.2	-2.45	-2.4833	-2.0625	-2.7521	-2.5729	-2.1896	-2.6917	-2.3688	-2.4417	217.923	-12.996	-23.244	125.788	74.392	-60.849	210.422	217.702	-14.049	-56.763	217.055	-88.540	226.865	236.582	112.068	250.092	0.0011584	0.00071542	0.00015833	568.49	6.4445e-06	6.1736e-06	839.09	226.68	8.115e-06	5.8164e-06	387.71	208.66	107	62.517	4.8238e-06	122.64	0.00017537	4.1916e-05	1.0397e-05	554.85	4.5857e-07	3.7926e-07	824.75	222.39	5.2687e-07	4.0367e-07	378.79	205.44	104.99	61.915	5.1594e-07	121.44	-20.209	-3.856	1.087	-81.804	57.678	57.494	-81.487	-75.957	114.004	60.271	-77.222	-72.883	-73.328	-69.008	54.421	-70.905	-8191	255	
1290.986	1	1	0	0	0.24543	0.039087	0.3696	0.18709	0.12337	0.077155	0.062963	0.13085	0.37073	0.10597	0.071223	0.33402	0.22079	0.15306	0.080539	0.24615	-2.3521	-2.1667	-2.4792	-2.6521	-2.2604	-2.4833	-2.4625	-2.5833	-2.7792	-2.2667	-2.7	-2.7083	-2.2438	-2.9042	-2.5542	-2.4104	102.850	176.727	97.710	254.335	123.739	263.615	67.222	31.940	18.066	43.448	197.366	-45.636	229.037	-84.820	66.006	199.873	0.0011484	0.00066873	0.00017557	569.93	7.9364e-06	5.7087e-06	844.71	226.2	6.9956e-06	5.8428e-06	387.26	208.52	107.33	62.57	6.1415e-06	123.25	0.00017412	4.0461e-05	1.0487e-05	555.65	4.3995e-07	3.619e-07	825.78	222.28	4.9848e-07	3.9735e-07	377.95	205.6	105.07	62.041	5.2214e-07	121.78	-21.054	-2.133	0.961	-81.866	46.883	45.903	-81.737	-75.985	96.566	46.227	-77.384	-73.261	-73.543	-69.093	40.810	-70.889	-8191	255	
1291.107	1	1	0	0	0.10178	0.13562	0.37796	0.13662	0.23278	0.029287	0.13225	0.13524	0.11433	0.20337	0.021241	0.0566	0.33243	0.18765	0.096761	0.35838	-2.1583	-2.2854	-2.3479	-2.5667	-1.9354	-2.4083	-2.4	-2.1333	-2.5833	-2.1771	-2.3208	-2.7333	-2.1583	-2.8438	-2.5687	-2.4313	-92.712	22.372	223.190	220.015	74.726	222.252	120.533	225.734	255.948	48.208	-77.843	227.330	188.228	238.586	214.910	180.237	0.0011816	0.00067728	0.00016411	570.57	7.0336e-06	7.6037e-06	844.56	226.51	7.2047e-06	6.6401e-06	387.83	209.15	107.85	63.003	6.4417e-06	123.86	0.00017586	4.2715e-05	1.0431e-05	556.09	4.8457e-07	3.9345e-07	825.29	222.58	5.0637e-07	4.0525e-07	378.81	206.28	105.53	62.276	5.2937e-07	122.36	-21.093	-4.057	-3.820	-81.655	73.467	49.923	-81.570	-76.141	88.551	53.684	-77.179	-73.042	-73.337	-69.099	44.752	-70.724	-8191	255	
1291.179	1	1	0	0	0.0525	0.18878	0.14778	0.28773	0.13368	0.13504	0.30684	0.22964	0.1404	0.28357	0.050296	0.38112	0.13864	0.098297	0.068861	0.30907	-2.2938	-2.3271	-2.575	-2.9188	-2.0729	-2.6063	-2.7229	-2.2125	-2.8354	-2.4125	-2.5854	-2.7833	-2.2958	-2.8667	-2.4229	-2.4229	60.537	218.850	-39.193	233.738	96.221	70.235	166.393	176.625	26.622	149.747	94.573	191.726	-34.493	196.360	185.259	188.153	0.0011833	0.00052593	0.00016496	566.34	8.5561e-06	7.5075e-06	845.13	226.12	7.2124e-06	5.6656e-06	387.37	208.9	107.48	62.831	7.8129e-06	123.86	0.00017551	3.9435e-05	1.0704e-05	554.54	4.8827e-07	3.5283e-07	826.96	222.19	4.8409e-07	3.8365e-07	378.99	205.97	105.13	62.105	5.2666e-07	122.33	-19.869	-1.700	0.891	-81.648	48.803	51.940	-81.736	-76.219	95.267	62.966	-76.935	-72.962	-73.360	-69.000	55.315	-70.966	-8191	255	
1291.275	1	1	0	0	0.24252	0.051486	0.17286	0.095836	0.10548	0.24399	0.17933	0.1003	0.091873	0.33644	0.0351	0.26474	0.049886	0.34458	0.19073	0.43874	-2.3917	-2.3146	-2.1896	-2.5812	-2.0979	-2.3479	-2.5875	-2.1708	-2.5833	-2.3438	-2.5229	-3.0146	-2.3021	-2.775	-2.6708	-2.4896	82.954	255.919	149.684	221.369	-0.641	22.784	176.632	-65.375	24.170	183.426	-60.073	204.744	81.934	251.704	-1.403	248.025	0.0011595	0.0008153	0.00019195	569.34	8.8155e-06	6.2653e-06	846.18	225.77	6.6516e-06	6.5152e-06	385.05	207.13	105.48	62.085	7.3925e-06	122.27	0.00017503	4.2119e-05	1.1308e-05	555.55	4.8202e-07	4.0528e-07	824.77	221.48	4.8791e-07	3.8576e-07	375.98	204.04	104.16	61.502	5.1891e-07	120.9	-21.662	-4.053	1.989	-81.957	58.827	50.314	-81.708	-75.975	98.773	59.213	-77.062	-72.984	-73.490	-69.032	33.896	-70.616	-8191	255	
1291.369	1	1	0	0	0.16566	0.13899	0.20099	0.31047	0.15781	0.17375	0.16764	0.058941	0.15167	0.22853	0.26143	0.23797	0.14468	0.29401	0.20109	0.29087	-2.2604	-2.3021	-2.1667	-2.8729	-2.2958	-2.5458	-2.575	-2.0646	-2.475	-2.4625	-2.1646	-2.6458	-2.3625	-2.5833	-2.6583	-2.1729	167.497	81.687	136.740	191.051	57.907	133.773	137.986	120.855	-57.030	95.573	198.700	256.493	34.838	208.899	-66.129	235.056	0.001099	0.00065076	0.00018259	564.87	8.5116e-06	6.9378e-06	839.36	225.25	8.0751e-06	6.3635e-06	385.91	207.93	106.7	62.556	6.2993e-06	123.7	0.00017343	3.9065e-05	1.1798e-05	553.31	4.5984e-07	4.0081e-07	821.64	221.61	4.874e-07	4.0907e-07	377.69	204.79	104.83	61.915	5.2808e-07	122.11	-20.687	-9.067	8.132	-81.799	55.984	53.379	-81.731	-76.183	91.613	61.523	-77.458	-72.856	-73.402	-69.069	44.830	-70.656	-8191	255	
1291.490	1	1	0	0	0.071087	0.12259	0.40537	0.20608	0.18187	0.14402	0.18972	0.060267	0.20035	0.095828	0.14799	0.39187	0.24873	0.11235	0.095612	0.21867	-2.2646	-2.45	-2	-2.7521	-2.4375	-2.6188	-2.9167	-2.1312	-2.5146	-2.5354	-2.4313	-2.7646	-2.5479	-2.4104	-2.6021	-2.3521	-5.453	248.408	52.762	187.408	178.423	59.772	221.044	7.125	12.235	187.971	231.620	224.027	209.765	11.399	252.446	223.623	0.0011728	0.00073447	0.00018982	570.25	8.3118e-06	6.8509e-06	842.08	227.18	6.067e-06	5.7004e-06	387.38	209.52	106.89	63.268	7.4921e-06	124.25	0.0001747	3.687e-05	1.1198e-05	556.25	4.4837e-07	4.1541e-07	824.75	222.83	5.0013e-07	4.0485e-07	379.19	206.31	105.35	62.489	5.1775e-07	122.97	-20.582	-12.563	2.843	-81.750	52.691	47.792	-81.527	-76.237	105.200	70.678	-77.293	-73.001	-73.223	-69.101	34.487	-70.828	-8191	255	
1291.586	1	1	0	0	0.090812	0.26243	0.23313	0.13552	0.14381	0.24507	0.31278	0.25881	0.097439	0.098873	0.14334	0.037953	0.042131	0.087149	0.10967	0.22287	-2.2979	-2.5792	-2.2708	-2.7292	-2.275	-2.1771	-2.6063	-2.4354	-2.6229	-2.4437	-2.1792	-2.7458	-2.4104	-2.2604	-2.7854	-2.6333	-86.644	-58.240	51.693	203.160	116.236	-49.801	224.763	209.517	-80.157	-92.851	173.625	135.212	152.078	173.393	43.993	199.116	0.0011952	0.00066558	0.00020029	569.71	7.801e-06	7.1905e-06	848.66	226.75	7.2459e-06	6.6417e-06	388.46	210.18	107.89	63.316	7.3367e-06	124.87	0.00017659	3.7992e-05	1.1078e-05	555.39	4.6112e-07	4.1212e-07	826.31	223.16	5.0319e-07	3.822e-07	379.59	206.86	105.77	62.766	5.1943e-07	123.6	-19.606	-8.468	0.925	-82.112	52.461	43.750	-81.647	-76.256	93.056	56.739	-77.268	-72.884	-73.534	-69.165	39.053	-70.649	-8191	255	
1291.682	1	1	0	0	0.058047	0.27128	0.14999	0.096105	0.079971	0.13595	0.15849	0.095703	0.24249	0.1335	0.15097	0.19795	0.32492	0.16748	0.22828	0.32739	-2.3646	-2.4792	-1.8813	-2.6104	-2.2854	-2.5667	-2.8896	-2.6208	-2.4833	-2.5938	-2.2854	-2.5375	-2.3208	-2.2771	-2.6875	-2.3937	218.180	119.164	69.523	-24.491	47.196	150.637	217.257	-18.200	139.654	46.291	185.595	203.232	-73.595	220.881	29.612	164.642	0.0011978	0.00064179	0.00020078	573.04	8.5068e-06	5.85e-06	846.02	225.95	8.2426e-06	6.7849e-06	388.51	208.22	106.55	62.66	8.0193e-06	123.54	0.00017958	3.7837e-05	1.0984e-05	556.36	4.7935e-07	3.9004e-07	826.48	222.41	4.8002e-07	3.7522e-07	378.26	205.32	104.88	62.102	5.3596e-07	122.05	-21.124	-2.268	-2.268	-81.726	55.532	50.297	-81.396	-75.900	87.968	56.916	-76.924	-72.816	-73.517	-68.847	47.259	-70.631	-8191	255	
#DATA ENDS
