BOXY.EXE: ISS Imagent and Oximeter Data Acquisition Program Version 0.80
Ascii Record File

#ACQ INFORMATION
2  Detector Channels 
16  External MUX Channels 
1  Auxiliary Channels 
5000  Waveform (CCF) Frequency (Hz)
1  Waveforms Skipped 
30  Waveforms Averaged 
1  Cycles Averaged 
16  Acquisitions per Waveform 
10.0806  Updata Rate (Hz) 

#FILE INFORMATION
TRUE -- External MUX Channel results are PARSED.
FALSE -- AC DC and Phase are NOT grouped.
TRUE -- Companion Program Settings File CREATED.
FALSE -- AC data not excluded
FALSE -- DC data not excluded
FALSE -- Phase data not excluded
FALSE -- Auxillary Chn. data not excluded
Tab delimiters

#CALIBRATION STATE
TRUE -- Waveform Calibration Values APPLIED.


#AUX CALIBRATION VALUES
Val Type	aux-1	

Term	1.0000e+00	
Factor	0.0000e+00	


#WF CALIBRATION VALUES
A = Detector Channel
Val Type	A-AC1	A-AC2	A-AC3	A-AC4	A-AC5	A-AC6	A-AC7	A-AC8	A-AC9	A-AC10	A-AC11	A-AC12	A-AC13	A-AC14	A-AC15	A-AC16	A-DC1	A-DC2	A-DC3	A-DC4	A-DC5	A-DC6	A-DC7	A-DC8	A-DC9	A-DC10	A-DC11	A-DC12	A-DC13	A-DC14	A-DC15	A-DC16	A-Ph1	A-Ph2	A-Ph3	A-Ph4	A-Ph5	A-Ph6	A-Ph7	A-Ph8	A-Ph9	A-Ph10	A-Ph11	A-Ph12	A-Ph13	A-Ph14	A-Ph15	A-Ph16	

Term	0.00000e+00	0.00000e+00	0.00000e+00	0.00000e+00	0.00000e+00	0.00000e+00	0.00000e+00	0.00000e+00	0.00000e+00	0.00000e+00	0.00000e+00	0.00000e+00	0.00000e+00	0.00000e+00	0.00000e+00	0.00000e+00	0.00000e+00	0.00000e+00	0.00000e+00	0.00000e+00	0.00000e+00	0.00000e+00	0.00000e+00	0.00000e+00	0.00000e+00	0.00000e+00	0.00000e+00	0.00000e+00	0.00000e+00	0.00000e+00	0.00000e+00	0.00000e+00	0.00000e+00	0.00000e+00	0.00000e+00	0.00000e+00	0.00000e+00	0.00000e+00	0.00000e+00	0.00000e+00	0.00000e+00	0.00000e+00	0.00000e+00	0.00000e+00	0.00000e+00	0.00000e+00	0.00000e+00	0.00000e+00	
Factor	1.00000e+00	1.00000e+00	1.00000e+00	1.00000e+00	1.00000e+00	1.00000e+00	1.00000e+00	1.00000e+00	1.00000e+00	1.00000e+00	1.00000e+00	1.00000e+00	1.00000e+00	1.00000e+00	1.00000e+00	1.00000e+00	1.00000e+00	1.00000e+00	1.00000e+00	1.00000e+00	1.00000e+00	1.00000e+00	1.00000e+00	1.00000e+00	1.00000e+00	1.00000e+00	1.00000e+00	1.00000e+00	1.00000e+00	1.00000e+00	1.00000e+00	1.00000e+00	X	X	X	X	X	X	X	X	X	X	X	X	X	X	X	X	

B = Detector Channel
Val Type	B-AC1	B-AC2	B-AC3	B-AC4	B-AC5	B-AC6	B-AC7	B-AC8	B-AC9	B-AC10	B-AC11	B-AC12	B-AC13	B-AC14	B-AC15	B-AC16	B-DC1	B-DC2	B-DC3	B-DC4	B-DC5	B-DC6	B-DC7	B-DC8	B-DC9	B-DC10	B-DC11	B-DC12	B-DC13	B-DC14	B-DC15	B-DC16	B-Ph1	B-Ph2	B-Ph3	B-Ph4	B-Ph5	B-Ph6	B-Ph7	B-Ph8	B-Ph9	B-Ph10	B-Ph11	B-Ph12	B-Ph13	B-Ph14	B-Ph15	B-Ph16	

Term	0.00000e+00	0.00000e+00	0.00000e+00	0.00000e+00	0.00000e+00	0.00000e+00	0.00000e+00	0.00000e+00	0.00000e+00	0.00000e+00	0.00000e+00	0.00000e+00	0.00000e+00	0.00000e+00	0.00000e+00	0.00000e+00	0.00000e+00	0.00000e+00	0.00000e+00	0.00000e+00	0.00000e+00	0.00000e+00	0.00000e+00	0.00000e+00	0.00000e+00	0.00000e+00	0.00000e+00	0.00000e+00	0.00000e+00	0.00000e+00	0.00000e+00	0.00000e+00	2.16202e+01	-1.27640e+02	-1.20072e+02	-1.81829e+02	-6.16250e+01	-7.02085e+01	-1.55860e+02	-1.62015e+02	-1.48752e+01	-5.71797e+01	-1.72273e+02	-1.70198e+02	-1.80175e+02	-1.76607e+02	-7.27239e+01	-1.49939e+02	
Factor	4.79762e-05	1.77696e-04	5.16229e-05	1.64818e-01	2.61545e-06	2.05122e-06	1.93509e-01	5.38336e-02	2.73419e-06	1.91366e-06	1.19766e-01	3.42918e-02	3.29175e-02	9.95306e-03	2.68039e-06	1.45024e-02	5.05911e-06	5.72559e-06	1.60112e-06	8.38037e-02	6.11931e-08	6.30998e-08	9.23443e-02	2.74153e-02	6.11160e-08	6.32174e-08	5.83758e-02	1.68713e-02	1.67443e-02	5.10467e-03	6.19901e-08	7.18827e-03	X	X	X	X	X	X	X	X	X	X	X	X	X	X	X	X	



#DISTANCE SETTINGS
A = Detector Channel
A-1	A-2	A-3	A-4	A-5	A-6	A-7	A-8	A-9	A-10	A-11	A-12	A-13	A-14	A-15	A-16	

2.5000e+00	3.0000e+00	2.5000e+00	3.0000e+00	2.0000e+00	3.0000e+00	1.5000e+00	3.0000e+00	3.0000e+00	3.0000e+00	3.0000e+00	3.0000e+00	3.0000e+00	3.0000e+00	1.5000e+00	3.0000e+00	

B = Detector Channel
B-1	B-2	B-3	B-4	B-5	B-6	B-7	B-8	B-9	B-10	B-11	B-12	B-13	B-14	B-15	B-16	

1.0000e+01	1.0000e+01	1.0000e+01	1.4400e+00	1.0000e+01	1.0000e+01	1.5100e+00	1.9400e+00	1.0000e+01	1.0000e+01	1.9900e+00	2.4900e+00	2.4100e+00	2.9000e+00	1.0000e+01	2.9800e+00	




#DATA BEGINS
time	group	step	mark	flag	A-AC1	A-AC2	A-AC3	A-AC4	A-AC5	A-AC6	A-AC7	A-AC8	A-AC9	A-AC10	A-AC11	A-AC12	A-AC13	A-AC14	A-AC15	A-AC16	A-DC1	A-DC2	A-DC3	A-DC4	A-DC5	A-DC6	A-DC7	A-DC8	A-DC9	A-DC10	A-DC11	A-DC12	A-DC13	A-DC14	A-DC15	A-DC16	A-Ph1	A-Ph2	A-Ph3	A-Ph4	A-Ph5	A-Ph6	A-Ph7	A-Ph8	A-Ph9	A-Ph10	A-Ph11	A-Ph12	A-Ph13	A-Ph14	A-Ph15	A-Ph16	B-AC1	B-AC2	B-AC3	B-AC4	B-AC5	B-AC6	B-AC7	B-AC8	B-AC9	B-AC10	B-AC11	B-AC12	B-AC13	B-AC14	B-AC15	B-AC16	B-DC1	B-DC2	B-DC3	B-DC4	B-DC5	B-DC6	B-DC7	B-DC8	B-DC9	B-DC10	B-DC11	B-DC12	B-DC13	B-DC14	B-DC15	B-DC16	B-Ph1	B-Ph2	B-Ph3	B-Ph4	B-Ph5	B-Ph6	B-Ph7	B-Ph8	B-Ph9	B-Ph10	B-Ph11	B-Ph12	B-Ph13	B-Ph14	B-Ph15	B-Ph16	aux-1	digaux	

534.307	1	1	0	256	0.10509	0.098896	0.21039	0.34303	0.20889	0.13053	0.15488	0.055268	0.26215	0.26532	0.28319	0.36124	0.20167	0.040599	0.15278	0.1268	-2.2583	-2.8042	-2.8646	-2.7271	-2.9708	-2.8604	-2.95	-3.0875	-2.775	-2.7521	-3.1813	-2.5021	-3.1417	-3.1083	-2.6083	-3.0271	136.319	197.101	108.819	291.181	185.276	131.124	279.733	285.186	127.016	99.079	351.685	36.239	354.506	292.422	263.435	159.583	0.00030256	0.00056145	8.8829e-05	1180.6	4.9966e-06	2.3621e-06	1277.4	238.46	6.2876e-06	4.3347e-06	302.51	84.799	66.34	19.626	3.2407e-06	27.112	0.00085617	0.00093201	0.00025854	1174.3	1.011e-05	1.0227e-05	1268.3	240.4	1.0141e-05	1.0341e-05	307.46	87.123	68.528	20.512	1.0192e-05	28.414	278.314	123.611	136.176	5.188	220.620	138.747	5.178	12.728	170.291	141.111	11.962	19.292	19.428	26.236	81.038	25.756	-8191	255	
534.401	1	1	0	0	0.19955	0.23901	0.031376	0.30654	0.12796	0.10776	0.2364	0.27569	0.1666	0.20805	0.18742	0.10779	0.11509	0.36021	0.065158	0.11486	-2.2292	-2.7562	-2.9833	-2.7792	-2.9458	-2.9458	-2.6479	-3.0771	-2.6625	-2.8667	-3.1458	-2.7042	-2.8875	-2.9333	-2.4062	-3.2	215.566	74.862	33.668	290.954	193.253	135.132	7.359	285.654	60.768	346.689	18.849	-4.066	350.795	290.751	20.091	22.732	0.0003822	0.00066063	0.000128	1186.4	4.8268e-06	4.8134e-06	1282.6	238.15	5.9538e-06	2.9644e-06	302.86	85.196	66.67	19.787	6.792e-06	27.026	0.00086065	0.00092615	0.00026073	1180.2	1.0054e-05	1.055e-05	1270.5	240.07	1.0095e-05	1.0405e-05	307.98	87.127	68.345	20.57	1.025e-05	28.344	303.585	150.638	42.332	4.845	177.859	160.267	5.124	12.916	218.609	161.597	12.201	19.259	19.767	26.569	126.477	25.801	-8191	255	
534.473	1	1	0	0	0.25466	0.28931	0.13055	0.22115	0.32037	0.042783	0.20017	0.13573	0.11204	0.15954	0.086741	0.26658	0.28862	0.087992	0.26921	0.15216	-2.3833	-2.6604	-3.0563	-2.7313	-3.0146	-2.9417	-2.5979	-3.1229	-2.7875	-2.7438	-3.1479	-2.7062	-2.8333	-3.0875	-2.4938	-3.2812	169.872	62.557	203.533	298.028	278.535	110.530	276.231	287.682	172.874	260.586	186.940	2.879	326.601	284.690	88.413	316.405	0.00047904	0.00047509	0.0001935	1184.8	9.3676e-06	8.4008e-06	1278.9	237.71	2.2152e-06	1.8286e-06	303.77	85.454	66.759	19.607	2.7182e-06	26.99	0.000873	0.00093796	0.00026294	1176.6	1.0059e-05	1.028e-05	1269.3	240.12	9.9819e-06	1.0352e-05	308.42	87.347	68.69	20.571	1.0477e-05	28.475	283.441	103.340	119.171	5.016	248.447	154.893	5.066	12.721	229.633	240.915	12.291	18.973	19.373	26.236	289.197	25.657	-8191	255	
534.571	1	1	0	0	0.092433	0.13527	0.22244	0.32151	0.13007	0.25929	0.20388	0.16664	0.047853	0.14668	0.09572	0.22171	0.074654	0.18648	0.13825	0.23181	-2.4688	-2.5292	-3.275	-2.7521	-2.8292	-3.0604	-2.6542	-3.2104	-2.8	-2.5438	-3.0438	-2.7396	-2.7604	-3.0875	-2.4646	-2.8792	286.295	164.612	237.612	294.841	221.380	17.322	242.304	84.828	348.845	124.268	253.672	292.376	352.022	66.851	344.693	221.572	0.00036761	0.00021658	0.00024672	1185.4	9.5888e-06	4.4172e-06	1281.6	238.93	2.5295e-06	2.3392e-06	304.45	84.661	66.479	19.638	1.0633e-05	27.084	0.00088656	0.00097513	0.00027084	1178.4	1.0325e-05	1.0544e-05	1272.8	240.75	1.0193e-05	1.0403e-05	308.89	87.189	68.584	20.579	1.035e-05	28.405	276.110	142.910	60.588	5.227	150.993	231.990	5.240	12.849	104.092	123.927	12.439	19.116	19.099	26.283	165.838	25.878	-8191	255	
534.690	1	1	0	0	0.073634	0.28423	0.071675	0.18737	0.023833	0.33353	0.072623	0.26438	0.1046	0.30689	0.12035	0.097857	0.17272	0.18392	0.2104	0.076687	-2.6854	-2.6583	-3.2583	-2.9854	-2.6833	-3.2083	-2.7812	-2.9437	-3.0542	-2.6167	-3.1792	-2.9146	-2.7354	-3.1375	-2.8063	-3.0333	14.391	0.300	279.987	233.602	93.914	57.153	344.146	274.710	293.534	128.872	1.478	99.996	113.181	71.503	185.818	244.428	0.00031219	0.00092327	0.00014383	1183.4	1.2981e-05	5.801e-06	1276.8	237.84	5.7298e-06	4.0982e-06	303.72	84.636	66.403	19.554	3.5243e-06	27.168	0.00087898	0.00095319	0.00026403	1176.3	1.028e-05	1.0238e-05	1269.4	239.95	1.0025e-05	1.0246e-05	307.48	87.009	68.329	20.477	9.8896e-06	28.268	282.141	60.479	123.389	5.175	156.022	112.499	5.244	12.647	138.509	181.836	12.109	19.325	19.652	25.746	92.036	25.600	-8191	255	
534.786	1	1	0	0	0.33788	0.016138	0.13835	0.10802	0.18625	0.17381	0.35196	0.24051	0.18887	0.25331	0.14545	0.12895	0.092143	0.086233	0.40604	0.32041	-2.6125	-2.6667	-3.0417	-3.0167	-2.7625	-3.3271	-2.725	-2.9104	-3.0042	-2.6417	-3.2125	-3.025	-2.6271	-3.0958	-2.8646	-2.8083	153.254	89.218	50.720	34.785	35.525	226.682	288.235	241.252	42.636	171.088	105.818	253.081	17.893	59.545	77.106	6.405	0.00042752	0.00051316	0.00013056	1182.9	7.7858e-06	4.4805e-06	1276.3	237.73	3.3319e-06	5.9998e-06	302.49	84.794	66.731	19.637	3.7592e-06	27.237	0.00083028	0.00090594	0.0002589	1173.6	9.8742e-06	9.9194e-06	1267.9	239.55	9.6631e-06	9.9695e-06	306.98	87.128	68.541	20.517	9.9392e-06	28.43	282.392	127.733	32.611	5.088	167.034	148.996	5.157	12.828	168.536	112.081	12.555	19.572	19.114	26.555	244.768	25.962	-8191	255	
534.882	1	1	0	0	0.11661	0.32564	0.15516	0.07753	0.28605	0.22542	0.2213	0.25083	0.475	0.15192	0.23103	0.036968	0.25303	0.10499	0.30424	0.091387	-2.5833	-2.6	-2.9792	-3.0271	-2.775	-3.0792	-2.9729	-2.925	-3.0396	-2.6583	-3.0062	-3.1229	-2.6937	-3.2875	-2.8917	-2.7104	163.342	283.902	42.987	103.370	229.948	220.118	345.700	272.407	142.871	279.389	206.995	2.774	5.550	17.793	100.602	306.099	0.0003314	0.00077811	0.00010962	1179	5.0466e-06	5.3085e-06	1279.2	238.46	1.4548e-05	7.312e-06	302.92	85.013	66.315	19.739	9.0147e-06	27.158	0.00085017	0.00092279	0.00025857	1173.3	9.878e-06	1.0073e-05	1267.9	240.07	9.5657e-06	9.7797e-06	307.6	87.109	68.174	20.523	9.5334e-06	28.312	294.570	49.021	114.163	5.019	34.665	131.557	5.101	12.539	260.452	142.094	12.169	19.363	19.629	26.199	208.665	25.615	-8191	255	
534.978	1	1	0	0	0.11675	0.17506	0.20308	0.20197	0.14805	0.16193	0.050962	0.13823	0.1603	0.12754	0.10405	0.19794	0.25659	0.21205	0.11647	0.14934	-2.8042	-2.7729	-3.0375	-3.1667	-2.5604	-3.2042	-2.8958	-2.7625	-3.0875	-2.6771	-2.9625	-3.225	-2.4417	-3.0271	-2.8104	-2.6979	262.056	52.335	278.163	242.682	63.516	73.338	332.230	-1.525	68.246	151.098	79.959	65.678	286.696	249.335	283.423	9.355	0.00036769	0.0003226	5.1949e-05	1180.7	5.4436e-06	6.3838e-06	1277.5	237.74	3.2135e-06	3.0812e-06	303.14	84.601	66.651	19.601	4.3936e-06	27.093	0.00080884	0.00087271	0.00024179	1172.1	9.4353e-06	9.4838e-06	1266.1	239.21	9.1963e-06	9.2708e-06	306.77	86.823	67.983	20.427	9.134e-06	28.27	279.550	56.208	118.439	5.248	185.467	165.402	5.058	12.816	37.591	114.577	12.440	19.510	19.522	26.574	234.437	25.731	-8191	255	
535.099	1	1	0	0	0.30346	0.01668	0.19218	0.034458	0.19512	0.12503	0.24915	0.1831	0.34834	0.069491	0.025556	0.019846	0.080954	0.025213	0.10285	0.26077	-2.7333	-2.7938	-2.9521	-3.2125	-2.5792	-3.0521	-3.0646	-2.6063	-3.2021	-2.7396	-2.7417	-3.0875	-2.8	-3.1583	-3.0438	-2.675	79.293	321.160	20.654	65.223	23.589	246.044	273.375	310.686	314.469	339.031	37.649	101.471	292.689	306.194	277.931	200.349	0.00038274	0.00017479	0.00013908	1175.8	8.7947e-06	6.2981e-06	1275.5	239.17	1.042e-05	4.5152e-06	302.35	84.658	66.094	19.667	3.5403e-06	27.144	0.00079301	0.00085218	0.0002356	1169.6	9.3283e-06	9.4938e-06	1263.7	239.82	9.4022e-06	9.67e-06	307.1	86.765	68.09	20.433	9.5146e-06	28.259	296.662	159.842	36.615	4.952	142.098	93.507	5.408	13.112	279.337	194.536	12.158	19.234	19.377	26.170	89.421	25.544	-8191	255	
535.170	1	1	0	0	0.12713	0.13379	0.34767	0.027486	0.24544	0.11804	0.11835	0.15752	0.2048	0.1994	0.13871	0.10344	0.1084	0.049342	0.045514	0.4219	-2.8271	-2.6729	-2.6813	-3.1208	-2.5271	-3.0646	-3.0333	-2.7375	-3.2917	-2.9083	-2.9667	-3.1521	-2.7479	-2.9208	-3.1229	-2.6104	149.539	313.416	7.296	212.585	69.854	56.823	50.515	263.911	11.078	213.203	4.541	33.046	298.490	29.866	337.551	319.700	0.0003218	0.00050126	0.000119	1177.4	6.2181e-06	2.8034e-06	1275.7	237.33	3.5813e-06	5.7948e-06	302.25	84.534	66.262	19.71	3.7354e-06	27.187	0.00080133	0.00086004	0.00024279	1168.8	9.2269e-06	9.577e-06	1264	239.19	9.22e-06	9.5714e-06	306.8	86.551	68.108	20.472	9.3232e-06	28.291	285.276	110.742	68.104	5.036	215.144	146.037	5.106	12.679	271.456	132.674	12.373	19.589	19.283	26.313	150.108	25.927	-8191	255	
535.291	1	1	0	0	0.090856	0.19629	0.21236	0.25279	0.27663	0.14126	0.27049	0.19091	0.13575	0.076194	0.28503	0.14293	0.12764	0.14138	0.14256	0.24509	-2.6042	-2.8	-2.7583	-3.2604	-2.6542	-3.0042	-3.2083	-2.6917	-2.9292	-2.9021	-2.85	-3.2062	-2.7729	-2.8479	-3.1417	-2.8667	64.695	65.528	190.184	322.558	279.211	223.032	248.399	288.814	58.834	67.405	295.619	349.806	323.962	249.840	249.770	296.852	0.00042102	0.00073155	0.0001194	1175.8	2.4757e-06	3.0841e-06	1273.9	237.5	5.6302e-06	1.8326e-06	303.28	84.556	66.001	19.573	6.7661e-06	27.06	0.00079543	0.00085144	0.00023971	1169.9	9.2827e-06	9.3547e-06	1263.2	238.94	9.1787e-06	9.3406e-06	306.48	86.508	67.92	20.456	9.324e-06	28.218	285.983	77.395	32.870	5.149	118.973	153.580	5.223	12.687	2.455	204.146	12.192	19.272	19.407	26.452	192.784	25.870	-8191	255	
535.387	1	1	0	0	0.17859	0.11107	0.052764	0.11335	0.10673	0.23675	0.31777	0.27142	0.10934	0.058946	0.18554	0.2333	0.17839	0.17257	0.29055	0.27781	-2.6437	-2.9083	-2.6667	-3.3896	-2.5896	-3.1271	-3.2896	-2.7604	-3.1583	-2.9375	-2.6583	-3.2062	-2.8708	-2.7188	-3.0896	-2.7042	276.057	227.658	301.028	235.955	254.060	80.066	249.758	233.802	80.644	141.486	52.269	246.198	270.983	335.051	108.639	198.368	0.00038698	0.00066822	1.9355e-05	1180.1	3.8449e-06	3.6411e-06	1274.2	237.55	3.9129e-06	2.1812e-06	301.8	84.411	66.259	19.471	1.0579e-05	27.154	0.00078913	0.00084772	0.00023905	1169.4	9.066e-06	9.2981e-06	1262.4	238.8	9.1141e-06	9.3275e-06	306.48	86.594	67.899	20.401	9.394e-06	28.237	286.349	138.762	8.239	5.127	172.606	92.406	5.328	12.817	173.614	177.459	12.387	18.833	19.347	26.927	151.640	25.795	-8191	255	
535.482	1	1	0	0	0.24024	0.05908	0.11767	0.26318	0.34145	0.031253	0.081872	0.30503	0.035942	0.080021	0.070212	0.15904	0.36748	0.28002	0.22565	0.17246	-2.5146	-2.8854	-2.575	-3.1792	-2.8521	-2.6312	-3.2854	-2.7687	-2.9854	-3.2583	-2.7438	-3.0854	-2.9125	-2.6292	-3.1396	-2.6625	140.598	332.033	276.479	9.293	325.601	259.493	341.489	-3.619	10.049	189.685	347.756	77.213	10.322	327.894	322.273	75.699	0.00032594	0.00033053	0.0001166	1177.7	9.8545e-06	5.129e-06	1274.5	237.42	4.2593e-06	5.9164e-06	303.41	84.451	65.802	19.602	6.9575e-06	26.955	0.00079994	0.00087965	0.00024661	1170.4	9.5098e-06	9.4299e-06	1264.3	239.39	9.1987e-06	9.5818e-06	307.01	86.63	67.749	20.352	9.2055e-06	28.159	284.987	143.976	87.266	5.150	166.937	93.710	5.344	12.935	197.073	158.332	12.205	19.479	18.944	26.281	164.545	25.881	-8191	255	
535.578	1	1	0	0	0.16018	0.32856	0.067907	0.17161	0.039091	0.27759	0.10856	0.10489	0.24995	0.036804	0.045667	0.1262	0.13172	0.37519	0.1422	0.14543	-2.4354	-3.0458	-2.5708	-3.275	-3.0729	-2.7417	-3.3604	-2.8771	-2.7917	-3.0354	-2.7625	-2.95	-2.8792	-2.6312	-3.1479	-2.7917	324.161	45.137	281.000	32.466	49.698	112.870	191.192	131.308	94.115	55.278	183.162	226.645	11.859	-1.051	40.739	308.283	0.00036052	0.00019001	0.00019477	1172.4	1.8357e-06	3.326e-07	1269.9	236.79	6.5655e-06	1.0006e-05	301.89	84.445	66.202	19.634	5.7457e-06	27.02	0.00077725	0.00083923	0.00023606	1167	9.0465e-06	9.1953e-06	1261.1	238.84	9.1563e-06	9.1909e-06	305.93	86.352	67.835	20.388	9.1918e-06	28.099	285.306	342.312	99.322	5.438	259.704	51.787	5.561	12.740	275.856	123.002	12.039	19.134	19.300	26.142	80.064	26.136	-8191	255	
535.698	1	1	0	0	0.43698	0.18486	0.23144	0.33944	0.22669	0.22361	0.16857	0.22299	0.21502	0.053749	0.025345	0.25864	0.1113	0.15313	0.13506	0.074058	-2.4313	-2.9396	-2.5458	-3.0125	-2.7938	-2.6188	-3.2604	-2.8667	-2.7729	-3.1354	-2.6521	-3.0792	-3.0396	-2.5333	-3.25	-2.8958	311.197	90.555	85.191	349.200	323.111	261.098	271.397	18.202	161.888	152.480	261.175	120.242	229.317	101.076	119.007	41.577	0.00036266	0.00033456	6.994e-05	1172.8	7.7159e-06	3.8613e-06	1271.1	237.04	3.9798e-06	3.1892e-06	301.85	84.144	65.692	19.63	6.0459e-06	27.07	0.00075932	0.00081937	0.00023298	1165.9	8.9017e-06	9.1284e-06	1261.3	238.69	8.7835e-06	8.9487e-06	306.4	86.49	67.784	20.39	9.0889e-06	28.178	274.971	63.298	152.064	5.061	203.209	166.363	5.197	13.053	268.009	125.328	12.283	19.618	19.453	25.980	229.403	25.796	-8191	255	
535.770	1	1	0	0	0.049045	0.10927	0.020916	0.22607	0.14323	0.073624	0.057774	0.064084	0.11464	0.16728	0.34264	0.027381	0.29299	0.35334	0.12742	0.046711	-2.3958	-3.2396	-2.7125	-3.1146	-3.0062	-2.6583	-3.2542	-2.9688	-2.6229	-3.0854	-2.8187	-2.875	-3.1646	-2.75	-3.0917	-2.9917	0.433	57.542	178.960	290.260	151.408	41.588	314.043	301.928	163.303	202.372	46.471	82.431	279.850	82.857	346.152	109.167	0.00037453	0.00022569	0.00016972	1175.1	3.0657e-06	5.384e-06	1270.5	236.77	6.0527e-06	5.0723e-06	301.87	84.701	66.454	19.515	7.1357e-06	27.18	0.0007904	0.00083617	0.00023804	1168	9.2024e-06	9.4309e-06	1261.6	238.6	9.2197e-06	9.3974e-06	306.12	86.591	67.972	20.401	9.1408e-06	28.191	276.506	145.485	74.235	5.205	227.407	80.924	5.159	12.546	179.557	105.235	12.299	19.475	19.525	26.744	219.318	25.535	-8191	255	
535.866	1	1	0	0	0.031257	0.16831	0.15781	0.18861	0.28178	0.27463	0.48213	0.33824	0.097566	0.25367	0.094896	0.22493	0.28141	0.13015	0.062739	0.21785	-2.3083	-3.1604	-2.7313	-2.7	-3.1792	-2.6333	-2.8875	-3.1958	-2.7896	-2.9792	-2.9458	-2.7313	-3.2021	-2.7125	-3.0021	-2.9708	203.315	49.056	136.732	8.880	313.779	290.877	319.187	239.456	188.469	164.604	87.672	41.481	42.111	292.624	175.985	331.135	0.00037436	0.00022125	0.00013764	1177.2	8.9122e-06	4.39e-06	1273.1	237.83	4.5166e-06	1.8427e-06	301.49	84.694	66.303	19.492	9.5557e-06	27.204	0.00079162	0.00084548	0.00023921	1169.8	9.2222e-06	9.2891e-06	1263.6	239.22	9.1202e-06	9.1624e-06	306.53	86.558	67.937	20.355	9.0835e-06	28.237	293.693	325.644	92.864	5.100	255.097	86.000	5.392	12.981	222.167	183.635	12.459	19.525	19.393	26.680	206.410	25.661	-8191	255	
535.987	1	1	0	0	0.060013	0.065038	0.11078	0.2719	0.15593	0.12933	0.3671	0.22377	0.20265	0.21975	0.21635	0.26667	0.24357	0.083492	0.060508	0.23237	-2.1479	-3.0187	-2.9208	-2.7438	-3.1354	-2.6771	-2.9896	-3.0354	-2.5021	-3.0229	-3.0229	-2.7354	-3.0771	-2.5875	-2.8021	-3.1792	352.595	221.430	32.339	335.956	20.964	275.294	287.253	177.293	275.510	160.568	100.213	306.534	12.886	145.326	331.539	159.149	0.00029122	0.00012798	5.6316e-05	1176.1	3.3765e-06	7.6587e-06	1275	237.08	8.0247e-06	4.3007e-06	302.85	84.229	66.43	19.567	6.5363e-06	27.179	0.00077926	0.0008297	0.00023319	1169	8.8102e-06	8.9326e-06	1263.8	239.12	8.8319e-06	9.038e-06	306.5	86.447	67.975	20.44	9.0768e-06	28.257	291.086	187.651	77.942	5.000	116.253	124.512	5.317	12.893	217.764	139.492	12.232	19.397	19.705	26.271	5.449	25.981	-8191	255	
536.083	1	1	0	0	0.19852	0.16363	0.1266	0.20095	0.13426	0.29666	0.32042	0.10835	0.039495	0.25375	0.19491	0.17281	0.037731	0.033013	0.15112	0.18494	-2.1937	-2.8812	-2.85	-2.6979	-3.0708	-2.775	-2.9875	-2.9146	-2.5896	-3.0812	-2.8854	-2.6917	-3.0771	-2.7646	-2.7812	-3.0146	147.519	186.353	151.397	277.813	19.272	293.190	283.306	38.166	8.713	225.476	310.352	318.606	278.325	272.156	214.274	211.743	0.00030645	0.00011618	0.00013357	1173.3	5.2854e-06	7.57e-06	1278.5	237.47	1.8057e-06	7.643e-07	301.84	84.746	66.299	19.661	6.4731e-06	26.951	0.00078192	0.00083676	0.00023243	1168.5	9.1004e-06	9.1775e-06	1265.4	239.01	9.0686e-06	9.2664e-06	305.96	86.656	67.985	20.457	9.3249e-06	28.278	294.549	144.683	152.303	5.004	199.801	157.606	5.205	12.687	65.458	303.497	12.301	19.134	19.152	26.363	250.558	25.918	-8191	255	
536.179	1	1	0	0	0.1517	0.069252	0.10981	0.26336	0.023433	0.093794	0.20685	0.15703	0.055264	0.19098	0.097258	0.031726	0.13406	0.20678	0.14291	0.14736	-2.2146	-2.8792	-2.8042	-2.8729	-2.9354	-2.8771	-2.7708	-3.3	-2.4229	-2.9417	-3.0271	-2.7833	-3.2021	-2.775	-2.6396	-3.2125	90.230	213.213	72.374	13.921	185.688	202.612	213.361	100.069	349.662	67.909	173.628	3.241	129.517	58.421	240.155	29.913	0.00026211	0.00029257	6.7372e-05	1178.1	7.3759e-06	2.5375e-06	1280.2	237.07	1.9091e-06	1.8096e-06	304.31	84.649	66.556	19.597	1.1055e-05	26.988	0.00078845	0.00085906	0.00023641	1169.8	9.187e-06	9.4504e-06	1266.7	239.09	9.3175e-06	9.6476e-06	307.25	86.804	68.213	20.473	9.5514e-06	28.293	304.615	72.846	116.562	5.078	158.590	92.424	5.371	12.696	233.149	220.851	12.077	19.279	19.436	26.651	111.170	25.645	-8191	255	
536.274	1	1	0	0	0.05549	0.052616	0.13121	0.13241	0.16556	0.12273	0.25427	0.28234	0.1627	0.29016	0.063274	0.20605	0.14933	0.075982	0.19868	0.11378	-2.4271	-2.9313	-2.9938	-2.8771	-3.1188	-2.8479	-2.875	-3.2167	-2.6646	-2.9688	-3.225	-2.5062	-3.0292	-2.8042	-2.6396	-3.2458	69.470	261.854	231.997	275.656	56.204	231.808	262.690	15.349	345.804	111.317	38.428	306.667	63.668	278.432	129.675	26.642	0.00038862	0.00074803	9.8862e-05	1182	3.5147e-06	4.1848e-06	1275	237.9	4.5014e-06	5.1482e-06	304.26	84.691	66.715	19.627	1.8222e-06	27.177	0.00080919	0.00087517	0.00024213	1174.4	9.2551e-06	9.5484e-06	1266.6	239.56	9.2541e-06	9.5238e-06	307.44	86.76	68.111	20.454	9.3932e-06	28.36	288.677	42.172	50.605	5.061	285.879	170.296	5.235	12.807	79.989	96.000	12.459	19.231	19.546	26.453	197.546	25.535	-8191	255	
536.371	1	1	0	0	0.31934	0.070044	0.25231	0.42833	0.17661	0.36353	0.1132	0.078284	0.082833	0.045162	0.12646	0.093194	0.16278	0.13265	0.14332	0.073955	-2.2438	-2.8625	-2.9229	-2.6979	-2.7583	-2.9688	-2.7542	-3.2062	-2.8771	-2.7583	-3.2146	-2.6562	-2.975	-3.0667	-2.7896	-3.2521	55.175	185.103	215.079	18.862	31.668	177.786	212.611	333.210	291.580	290.974	36.799	168.814	86.200	182.716	148.665	94.335	0.00041637	0.00040732	0.00013965	1182	3.706e-06	3.0635e-06	1274.7	238.2	8.9683e-06	3.1984e-06	303.44	84.91	66.218	19.757	7.2765e-06	27.186	0.00079852	0.00086225	0.00024015	1172	9.4542e-06	9.5806e-06	1265.6	239.73	9.4925e-06	9.7192e-06	307.52	86.921	68.23	20.537	9.7966e-06	28.35	289.111	104.223	10.955	5.024	191.348	87.473	5.423	12.758	211.269	285.566	12.048	19.510	19.414	26.638	100.355	25.869	-8191	255	
536.466	1	1	0	0	0.11963	0.19575	0.25513	0.11424	0.13284	0.079232	0.24001	0.30728	0.25623	0.28838	0.097157	0.058871	0.26586	0.21197	0.13364	0.097978	-2.3104	-2.7021	-2.9604	-2.7771	-2.9458	-2.9125	-2.5667	-3.2208	-2.8021	-2.8229	-3.1083	-2.7792	-2.9125	-3.2208	-2.8021	-3.1188	265.697	137.015	315.146	293.663	289.749	304.440	255.431	219.838	274.845	88.731	214.653	182.054	-0.261	279.102	266.239	126.393	0.00037986	0.00052431	0.00010586	1174.1	5.2109e-07	3.5753e-06	1273.6	238.1	6.8181e-06	5.3752e-06	304.74	84.718	66.081	19.772	6.8299e-06	26.936	0.00083247	0.00091266	0.00024879	1171	9.6815e-06	9.9039e-06	1265.8	239.58	9.8271e-06	9.7965e-06	307.98	86.878	68.054	20.425	9.3371e-06	28.267	295.280	42.032	24.953	5.233	79.490	97.827	5.315	12.812	170.682	92.043	12.246	19.659	19.657	26.151	133.430	26.054	-8191	255	
536.562	1	1	0	0	0.17769	0.20736	0.15005	0.54286	0.043766	0.21915	0.32176	0.3109	0.23352	0.069842	0.10766	0.28904	0.16901	0.09874	0.21172	0.14374	-2.4604	-2.6417	-3.075	-2.8229	-2.9521	-3.0792	-2.675	-3.0292	-2.9771	-2.7208	-3.1625	-2.7292	-2.9229	-3.2333	-2.675	-3.0604	72.647	233.440	78.802	334.445	56.358	9.692	262.691	327.510	89.686	1.042	335.173	53.738	30.605	139.950	317.488	292.155	0.0004851	0.00025684	4.8042e-05	1172	7.3491e-06	3.7217e-06	1267.2	237.77	5.7043e-06	1.8062e-06	302.25	84.423	65.759	19.501	1.0845e-05	27.18	0.00078048	0.00083709	0.00023198	1166.8	9.0558e-06	9.1568e-06	1261.3	239.1	9.0159e-06	9.2698e-06	306.39	86.549	67.652	20.433	9.2763e-06	28.299	301.488	156.661	342.394	5.157	233.084	152.090	5.065	12.966	269.220	342.259	12.461	19.406	19.229	26.303	156.928	26.054	-8191	255	
536.658	1	1	0	0	0.082323	0.08005	0.32828	0.13631	0.094875	0.13504	0.14218	0.22107	0.15719	0.41663	0.063305	0.024011	0.2706	0.067518	0.13166	0.23323	-2.5542	-2.5125	-3.0646	-2.9229	-2.6937	-3.1604	-2.7521	-2.9396	-2.9479	-2.5438	-3.1708	-2.8292	-2.7083	-3.0896	-2.6521	-3.1063	290.744	297.135	45.036	219.888	23.870	109.678	258.545	201.120	303.115	7.317	290.031	189.305	40.586	254.877	147.236	77.768	0.00038618	0.00042975	0.00021906	1173.9	1.9166e-06	8.189e-06	1268.6	238.66	8.5511e-06	3.5875e-06	302.42	84.05	65.633	19.629	5.6743e-06	27.11	0.00079603	0.00084951	0.00024216	1168.1	9.3982e-06	9.6351e-06	1262.4	239.72	9.4019e-06	9.7797e-06	307.02	86.885	68.033	20.509	9.6626e-06	28.339	303.801	26.605	94.134	5.147	257.956	108.130	5.254	12.649	209.391	227.748	12.325	19.489	18.982	26.397	151.149	25.971	-8191	255	
536.779	1	1	0	0	0.090062	0.16864	0.059938	0.34517	0.11573	0.17983	0.42733	0.2223	0.23959	0.13354	0.18413	0.13983	0.25553	0.10912	0.20763	0.10798	-2.6854	-2.4021	-3.2625	-3.0354	-2.6542	-3.1063	-2.8563	-2.95	-3.0312	-2.7313	-3.0917	-3.0396	-2.6063	-3.2521	-2.5396	-2.85	254.955	256.063	0.409	330.904	-1.238	159.669	281.484	8.839	279.863	78.166	304.877	352.579	154.429	156.706	96.225	29.408	0.00054042	0.00027891	0.00014726	1174.2	1.3189e-05	6.8868e-06	1274.2	237.61	4.2316e-06	1.2237e-06	304.4	84.695	66.146	19.631	6.1434e-06	27.2	0.00082445	0.00087569	0.00024718	1168.3	9.4838e-06	9.5722e-06	1262.4	239.14	9.2821e-06	9.5548e-06	307.1	86.633	67.921	20.449	9.7448e-06	28.416	299.535	184.386	142.214	5.083	178.805	122.972	4.954	12.943	232.087	230.808	11.845	19.108	19.273	26.252	180.294	25.836	-8191	255	
536.873	1	1	0	0	0.15992	0.089588	0.19804	0.21162	0.17092	0.17672	0.13621	0.049319	0.15781	0.22072	0.12948	0.20118	0.11363	0.10089	0.097565	0.34393	-2.75	-2.4938	-3.0542	-2.9542	-2.7542	-3.1229	-2.8833	-2.9292	-3.0625	-2.6042	-3.1021	-3.05	-2.6875	-3.2313	-2.7396	-2.925	244.894	-3.161	236.792	-1.722	63.112	316.300	246.705	149.921	314.477	191.892	37.030	209.221	45.832	238.790	163.492	190.250	0.0003357	0.0003334	6.477e-05	1177.7	2.7797e-06	1.0652e-06	1269.3	238.03	4.6408e-06	6.1677e-06	303.12	84.663	66.77	19.651	1.3082e-05	27.249	0.00081928	0.00088714	0.00024815	1168.3	9.5121e-06	9.6785e-06	1262.4	239.72	9.5862e-06	9.8509e-06	307.83	86.727	68.335	20.519	9.7015e-06	28.349	282.350	62.167	-2.841	5.110	264.411	49.270	5.233	12.968	223.911	126.461	12.620	19.338	19.665	26.414	188.581	25.654	-8191	255	
536.969	1	1	0	0	0.045328	0.093756	0.049816	0.13917	0.14245	0.1403	0.028627	0.37986	0.089911	0.11326	0.14768	0.030623	0.23998	0.072285	0.10879	0.04358	-2.8292	-2.6667	-2.9854	-3.1937	-2.5812	-3.1208	-3.0187	-2.7	-3.1667	-2.6542	-2.9062	-3.1833	-2.5854	-2.8521	-2.8438	-2.5062	272.099	348.018	153.258	33.117	84.009	260.459	202.060	296.279	192.584	346.999	160.219	332.471	334.650	348.299	76.824	47.740	0.0002767	0.00040676	3.5358e-05	1176.6	3.3061e-06	1.6138e-06	1275.6	237.99	6.8475e-06	8.4842e-07	303.06	85.031	66.565	19.518	6.5451e-06	27.232	0.00081551	0.00089922	0.00024848	1171.1	9.6466e-06	9.8104e-06	1267.2	239.79	9.6444e-06	9.9459e-06	307.68	87.048	68.164	20.461	9.817e-06	28.411	287.844	62.177	72.432	5.237	164.417	246.691	5.373	12.812	215.073	211.939	12.376	19.233	19.263	26.967	92.647	25.629	-8191	255	
537.065	1	1	0	0	0.18454	0.35948	0.26994	0.1722	0.07937	0.24834	0.54605	0.17627	0.054174	0.14632	0.12962	0.072984	0.032045	0.13694	0.1241	0.13716	-2.8688	-2.6312	-2.875	-3.2354	-2.7146	-3.1188	-3.2854	-2.7917	-3.15	-2.8688	-2.9104	-3.0125	-2.5229	-2.9833	-2.9	-2.6312	17.767	189.308	-3.564	139.307	160.392	176.244	287.995	346.842	84.730	168.979	13.284	163.734	227.250	225.252	125.132	243.494	0.00033505	0.00031584	0.00017185	1177.7	7.5118e-06	3.2326e-06	1273.8	237.35	7.0276e-06	3.6146e-06	303.42	84.926	66.013	19.632	7.1793e-06	27.153	0.00083391	0.00091005	0.00025316	1171	9.9718e-06	1.0068e-05	1266.5	240.06	1.0065e-05	1.0085e-05	308.26	87.033	68.171	20.545	9.8633e-06	28.423	277.543	126.404	135.932	4.997	185.625	340.199	5.372	12.933	179.141	158.350	12.260	19.541	19.531	26.617	142.397	25.835	-8191	255	
537.162	1	1	0	0	0.43836	0.18605	0.083115	0.17261	0.17902	0.26951	0.43515	0.20977	0.18516	0.16827	0.29328	0.13973	0.1019	0.2975	0.080256	0.14588	-2.7771	-2.6667	-2.8729	-3.1937	-2.6937	-2.9083	-3.1125	-2.5625	-3.0729	-2.9229	-2.9313	-3.25	-2.5875	-2.9292	-2.85	-2.625	261.824	153.070	71.121	335.567	17.661	215.837	295.051	258.253	210.047	336.750	345.352	297.561	64.958	276.356	18.720	92.955	0.00043019	0.00074588	0.00013918	1178.2	5.8796e-06	6.9808e-06	1275.4	237.86	1.1946e-05	4.0085e-06	303.81	84.612	66.248	19.51	6.2415e-06	27.117	0.00085148	0.0009265	0.0002575	1173	9.8842e-06	1.0159e-05	1264.8	239.98	9.873e-06	1.0146e-05	307.96	86.74	68.218	20.528	1.0104e-05	28.455	290.835	115.235	197.532	5.203	203.995	91.833	5.237	12.910	211.924	155.129	12.242	19.610	19.514	26.125	107.714	25.857	-8191	255	
537.258	1	1	0	0	0.099814	0.22078	0.077513	0.13616	0.085021	0.036785	0.35056	0.23964	0.25461	0.028875	0.24964	0.2592	0.15013	0.044581	0.064751	0.055299	-2.8438	-2.7125	-2.5687	-3.1937	-2.5146	-3.1333	-3.1562	-2.5958	-3.0312	-2.9146	-2.7167	-3.1833	-2.8125	-2.8542	-3.1625	-2.6083	43.624	31.748	205.032	315.882	301.910	131.421	306.916	302.282	178.409	11.268	173.022	284.090	0.592	170.856	251.443	273.634	0.00034102	0.00050399	0.00013285	1176.4	1.7433e-06	1.7336e-06	1277.8	239.99	2.3991e-06	3.8947e-06	302.87	84.486	66.32	19.509	3.8978e-06	27.362	0.00086042	0.0009177	0.00025829	1170.4	9.9469e-06	1.0103e-05	1264.5	240.35	9.7844e-06	1.008e-05	308.09	86.788	68.102	20.511	9.6117e-06	28.433	280.593	139.761	90.566	5.135	300.775	147.099	5.213	12.858	225.875	77.936	12.477	19.419	18.749	26.727	96.332	26.130	-8191	255	
537.378	1	1	0	0	0.15486	0.044252	0.15199	0.17876	0.2185	0.14052	0.2306	0.069449	0.07584	0.11623	0.16676	0.028197	0.16269	0.23389	0.0037096	0.075159	-2.7	-2.6646	-2.6042	-3.2125	-2.7833	-2.6896	-3.1333	-2.5917	-3.0875	-3.0479	-2.7062	-3.3688	-2.6667	-2.8812	-2.9708	-2.55	130.788	85.527	122.230	46.494	125.725	340.752	300.570	265.678	281.218	39.679	227.196	213.797	270.840	177.212	323.811	315.700	0.00030348	0.00066071	0.00011907	1177.7	4.882e-06	6.6428e-06	1275.6	236.61	5.5466e-06	1.9345e-06	304.63	84.295	66.367	19.729	1.9723e-06	27.378	0.00083004	0.00090965	0.00025144	1170.2	9.6887e-06	9.9287e-06	1264	239.25	9.7671e-06	9.8746e-06	308.26	86.885	68.172	20.554	9.8821e-06	28.427	289.742	111.712	167.622	5.081	41.621	27.620	5.217	12.781	311.750	119.453	12.461	19.554	19.214	26.302	129.022	25.786	-8191	255	
537.475	1	1	0	0	0.14372	0.18842	0.34547	0.20572	0.14216	0.17395	0.17748	0.21474	0.19414	0.10101	0.19418	0.29581	0.095745	0.1281	0.35078	0.23607	-2.6167	-2.9271	-2.6708	-3.2021	-2.7917	-2.7396	-3.2458	-2.5083	-2.9437	-2.8667	-2.8146	-3.1292	-2.9625	-2.7625	-3.0125	-2.6896	128.649	86.824	134.735	334.932	225.980	316.595	288.377	344.310	30.678	48.350	215.045	295.507	47.997	202.980	47.873	279.620	0.00028776	0.0003619	0.00014012	1176.6	2.6535e-06	3.8968e-06	1272.2	237.55	5.2438e-06	8.5891e-06	305.08	84.702	66.102	19.625	8.6367e-06	27.113	0.00084278	0.00090988	0.00025141	1168.3	9.8476e-06	9.9243e-06	1265.3	239.67	9.7434e-06	1.0109e-05	308.65	87.126	68.17	20.567	1.0152e-05	28.407	292.106	138.178	116.409	5.028	186.072	204.618	5.211	12.786	156.583	185.010	12.341	19.234	19.891	26.595	142.768	25.977	-8191	255	
537.571	1	1	0	0	0.14629	0.04827	0.15244	0.1296	0.31304	0.11251	0.086936	0.071518	0.11151	0.16221	0.075281	0.19386	0.16258	0.1758	0.25386	0.21273	-2.4583	-2.8396	-2.5812	-3.1937	-3.0062	-2.7167	-3.2271	-2.8479	-2.7	-3.0812	-2.7333	-3.0875	-2.9146	-2.6188	-3.1896	-2.7646	127.813	342.139	277.585	42.928	242.661	316.684	10.866	342.496	307.473	297.062	91.654	283.600	146.902	39.582	313.634	301.927	0.00037388	0.00035403	5.2454e-05	1175.1	6.1973e-06	4.8955e-06	1271.5	237.91	3.687e-06	2.4095e-06	302.35	84.545	65.907	19.601	4.8871e-06	27.15	0.00085423	0.00093824	0.00025798	1168.9	1.013e-05	1.0372e-05	1262.7	240.17	1.011e-05	1.0312e-05	308.02	86.952	68.039	20.483	9.8058e-06	28.38	280.316	99.250	90.777	5.055	292.383	103.961	5.242	12.548	297.513	156.715	12.493	19.366	19.057	26.493	129.593	25.689	-8191	255	
537.642	1	1	0	0	0.1587	0.0539	0.15942	0.21786	0.061096	0.12016	0.2806	0.13683	0.31508	0.035439	0.20097	0.022425	0.21531	0.21377	0.12162	0.18155	-2.2729	-2.9146	-2.3979	-3.0854	-2.7812	-2.4479	-3.2896	-2.7958	-2.6271	-3.1833	-2.6458	-3.0708	-2.9188	-2.4479	-3.1271	-2.7771	331.346	93.115	305.723	334.886	105.903	181.877	288.027	254.681	185.428	175.326	15.761	85.889	347.837	209.206	208.435	124.306	0.00033362	0.00045288	6.3111e-05	1176.8	6.2088e-06	5.0088e-06	1271.9	237.44	5.1797e-06	6.4567e-06	300.74	85.006	66.177	19.496	1.8042e-07	26.814	0.00082087	0.00089417	0.00024308	1168.4	9.361e-06	9.498e-06	1260.1	239.01	9.2681e-06	9.4272e-06	306.56	86.564	67.885	20.444	9.1198e-06	28.184	285.299	106.258	48.741	5.317	229.935	95.267	5.324	12.721	330.905	140.233	12.187	19.296	19.372	26.011	342.915	26.066	-8191	255	
537.761	1	1	0	0	0.15155	0.18688	0.19469	0.03251	0.23453	0.26607	0.18484	0.3442	0.26523	0.15709	0.090878	0.19229	0.14408	0.1956	0.17066	0.070902	-2.35	-3.0792	-2.5125	-2.9188	-3.1125	-2.4938	-3.1771	-2.8937	-2.7667	-3.1354	-2.625	-2.7062	-2.9896	-2.6646	-3.1063	-2.875	242.751	205.403	216.118	347.532	214.968	32.535	231.932	299.630	206.489	160.299	318.818	30.567	326.620	208.895	277.713	56.025	0.00038717	0.00020834	3.9658e-05	1173.2	1.1744e-05	8.6444e-06	1265.6	237.19	4.2806e-06	2.6716e-06	302.35	84.819	66.057	19.565	6.472e-06	27.086	0.00081485	0.00085468	0.00024064	1166.7	9.4599e-06	9.7076e-06	1260.5	239.04	9.4968e-06	9.6756e-06	306.95	86.739	67.878	20.433	9.6002e-06	28.355	278.993	56.722	229.071	5.107	142.721	12.562	5.242	12.961	228.624	323.822	12.196	19.945	19.347	26.353	125.512	26.098	-8191	255	
537.857	1	1	0	0	0.11968	0.131	0.031902	0.33944	0.10278	0.36931	0.32594	0.02422	0.12876	0.06197	0.033015	0.22723	0.25547	0.090692	0.049808	0.21485	-2.275	-3.0563	-2.5646	-2.975	-2.9167	-2.5708	-3.1771	-3.0604	-2.4458	-3.1604	-2.8896	-2.5167	-3.0271	-2.5667	-2.975	-2.85	329.600	207.785	289.729	312.013	52.739	158.461	285.749	11.917	109.136	252.110	135.194	260.777	265.810	271.628	157.436	29.947	0.0003246	0.00073446	0.00010443	1176.4	1.2576e-05	5.5788e-06	1271.1	237.73	1.8665e-06	5.6158e-06	300.89	84.186	66.093	19.678	6.6898e-06	27.256	0.00082446	0.00087748	0.00024579	1168.5	9.5664e-06	9.7414e-06	1264.6	239.39	9.4768e-06	9.7338e-06	307.43	86.722	67.934	20.467	9.4336e-06	28.377	272.917	79.209	11.797	5.249	210.141	158.067	4.968	12.640	161.751	135.318	12.416	19.183	19.234	26.308	185.853	26.311	-8191	255	
537.954	1	1	0	0	0.14211	0.2136	0.34178	0.38547	0.21042	0.15474	0.2474	0.16578	0.080353	0.15603	0.11869	0.085453	0.15871	0.18634	0.12283	0.18385	-2.2208	-2.9792	-2.9604	-2.7562	-2.9292	-2.6229	-2.975	-3.075	-2.5417	-2.8542	-2.9604	-2.8396	-3.1479	-2.5938	-2.7854	-3.0542	73.684	217.842	332.367	268.159	90.636	303.341	245.520	295.205	152.702	234.984	332.716	216.155	337.050	29.035	186.920	24.582	0.0004754	0.00079285	0.00013476	1172.6	7.7236e-06	3.7863e-06	1271	236.78	5.9972e-06	5.9483e-06	303.1	84.799	66.03	19.602	3.5108e-06	27.102	0.00080496	0.00087019	0.00024305	1166.5	9.3376e-06	9.3722e-06	1263.1	238.76	9.2297e-06	9.5576e-06	306.32	86.473	67.843	20.449	9.2529e-06	28.271	293.022	39.011	108.518	5.193	125.202	98.529	5.340	12.778	286.223	114.185	11.931	19.243	18.865	26.448	224.356	25.989	-8191	255	
538.051	1	1	0	0	0.25439	0.078838	0.04087	0.26889	0.19422	0.24837	0.21065	0.10509	0.23743	0.21362	0.2232	0.10684	0.048314	0.19723	0.13408	0.16876	-2.1396	-3.2542	-2.8521	-2.7146	-3.1729	-2.6688	-2.9667	-3.1521	-2.6312	-3.0771	-2.9396	-2.6937	-3.1708	-2.7188	-2.85	-3.1188	253.997	336.749	270.845	318.249	72.095	213.001	341.667	0.264	199.852	236.982	330.245	36.659	221.068	-4.207	119.024	148.310	0.00036563	0.00058795	0.00010254	1175.3	7.1539e-06	6.0596e-06	1273.5	236.33	2.9807e-06	3.3534e-06	301.77	84.343	65.847	19.567	8.3696e-06	27.024	0.00080217	0.00086707	0.00024178	1168.8	9.2145e-06	9.5441e-06	1261.3	238.85	9.3239e-06	9.3414e-06	306.23	86.595	67.762	20.395	9.2675e-06	28.275	273.181	121.564	81.253	5.197	222.074	152.825	5.264	12.945	150.208	170.936	12.385	19.492	19.461	26.528	254.007	25.815	-8191	255	
538.170	1	1	0	0	0.070204	0.092701	0.071242	0.087911	0.45756	0.22695	0.2418	0.10633	0.30003	0.14362	0.2205	0.12499	0.15704	0.074889	0.098832	0.096384	-2.1354	-2.9	-3.0167	-2.8271	-3.075	-2.8292	-2.9458	-3.2271	-2.4021	-3.0104	-3.0792	-2.5729	-3.0042	-2.8708	-2.7229	-3.0417	73.331	253.870	79.385	246.351	127.569	45.403	314.800	276.211	147.889	79.384	233.387	26.473	13.739	279.856	61.753	91.793	0.0003855	0.00047211	0.00023398	1176.2	3.6193e-06	2.2513e-06	1274.2	238.07	1.1041e-05	6.5425e-06	302.43	84.969	66.55	19.525	3.4064e-06	27.102	0.00078836	0.00084221	0.00023558	1168.2	9.2176e-06	9.2749e-06	1262.3	238.95	9.2853e-06	9.4561e-06	306.93	86.695	67.928	20.432	9.2427e-06	28.2	265.650	113.657	115.658	5.118	165.634	228.569	5.541	13.194	267.968	122.697	12.218	19.360	19.367	26.613	114.230	25.993	-8191	255	
538.266	1	1	0	0	0.15167	0.1687	0.29509	0.18504	0.22027	0.22583	0.36995	0.13384	0.06669	0.13263	0.049803	0.23516	0.29784	0.18358	0.20846	0.094406	-2.3521	-2.7458	-3.05	-2.5833	-3.0479	-2.7375	-2.9062	-3.2458	-2.7396	-2.8875	-3.0833	-2.6354	-3.0729	-2.9542	-2.7396	-3.1937	224.768	258.620	93.316	286.616	351.058	242.182	223.467	277.693	161.644	280.869	195.514	64.835	103.621	223.602	319.926	20.626	0.0002563	0.00047908	6.7365e-05	1177.7	6.162e-06	3.6702e-06	1269.1	236.84	8.1277e-06	5.0567e-06	302.46	84.894	65.767	19.585	7.596e-06	27.172	0.00079854	0.00085131	0.00023867	1167.8	9.2887e-06	9.3846e-06	1261	238.96	9.0755e-06	9.324e-06	306.01	86.752	67.636	20.443	9.1025e-06	28.26	279.213	68.975	191.867	5.107	174.212	102.470	5.341	12.953	204.563	174.488	12.152	19.404	19.333	26.661	116.587	25.997	-8191	255	
538.338	1	1	0	0	0.2002	0.12092	0.13972	0.24288	0.29188	0.29549	0.19375	0.16503	0.010983	0.3383	0.095854	0.053793	0.21043	0.079279	0.17579	0.22141	-2.4396	-3.0646	-3.1583	-2.6813	-3.075	-3.1042	-2.8438	-3.15	-2.7833	-2.7542	-3.3729	-2.6021	-3.0583	-2.9875	-2.6979	-3.1708	121.768	308.184	64.672	314.175	318.097	91.348	198.304	346.028	111.236	143.980	-2.376	44.836	34.802	307.996	331.630	339.684	0.00038427	0.00046807	0.00021725	1171.3	3.8555e-06	4.1704e-06	1266.2	236.74	6.2475e-06	1.4423e-06	302.31	84.776	66.55	19.601	3.7847e-06	27.21	0.00077965	0.00082788	0.00023295	1164.8	9.0028e-06	9.2247e-06	1259	238.34	8.8117e-06	9.157e-06	306.21	86.45	67.696	20.38	9.1692e-06	28.269	281.360	97.305	120.622	5.027	321.620	100.020	5.499	12.933	183.661	93.154	12.389	19.071	19.411	26.549	171.711	25.864	-8191	255	
538.459	1	1	0	0	0.086799	0.1933	0.1495	0.1594	0.096116	0.054655	0.14809	0.093632	0.08547	0.12319	0.095012	0.14594	0.17084	0.16208	0.18712	0.18919	-2.1854	-2.7229	-3.0312	-2.6188	-2.9583	-3.0208	-2.7188	-3.0354	-2.725	-2.6833	-3.1188	-2.6021	-2.9188	-3.0521	-2.5625	-3.1229	335.992	141.033	56.445	328.309	224.774	170.214	296.298	319.813	312.251	140.406	222.301	147.875	68.892	132.680	236.803	115.578	0.00041153	0.00028651	0.00012158	1176.2	6.5144e-06	6.805e-06	1269.2	238.14	6.3369e-06	2.9054e-06	303.01	84.867	65.421	19.626	6.0374e-07	27.188	0.00078479	0.00083842	0.00023965	1164.9	9.092e-06	9.2997e-06	1258.8	238.85	9.1205e-06	9.2502e-06	306.4	86.474	67.603	20.337	9.0704e-06	28.251	288.146	63.093	209.812	4.927	197.094	203.127	5.254	13.165	192.527	16.674	12.380	19.645	19.232	26.580	334.263	25.692	-8191	255	
538.555	1	1	0	0	0.36078	0.23974	0.16263	0.2349	0.049566	0.18614	0.33823	0.070896	0.04605	0.10838	0.29927	0.073916	0.09194	0.23706	0.15224	0.064127	-2.4062	-2.6688	-3.1667	-2.7083	-2.9583	-2.9771	-2.8063	-3.0625	-2.8896	-2.6708	-3.2354	-2.8292	-2.9813	-3.1375	-2.7333	-3.1396	306.979	220.004	241.364	304.458	24.839	8.123	280.959	230.645	67.071	3.979	36.279	11.785	-1.687	66.228	30.544	301.922	0.00029415	0.00040018	0.00012125	1164.2	5.6649e-06	4.9486e-06	1264.3	236.23	6.8009e-06	2.8393e-06	301.39	84.465	65.571	19.435	4.8661e-06	27.122	0.00078118	0.00084294	0.00023384	1160.8	9.2045e-06	9.2724e-06	1256.9	238.16	9.0672e-06	9.3904e-06	305.82	86.452	67.502	20.346	9.0172e-06	28.245	293.726	352.203	59.098	5.304	169.930	141.833	5.059	12.749	211.023	208.107	12.645	19.208	19.290	26.684	250.008	26.013	-8191	255	
538.651	1	1	0	0	0.089809	0.21117	0.23178	0.35147	0.20707	0.14984	0.30447	0.10594	0.31746	0.078754	0.19772	0.22286	0.19293	0.12992	0.19634	0.11083	-2.3854	-2.5875	-3.1854	-2.7812	-2.9313	-3.1458	-2.7417	-2.9625	-3.0708	-2.6646	-3.1792	-2.7729	-2.8458	-3.1583	-2.6896	-3.0083	101.265	241.732	2.105	304.840	243.813	94.167	207.893	41.116	4.153	182.354	327.110	296.787	253.731	292.831	100.600	345.701	0.00041458	0.0004942	7.7734e-05	1173.1	7.881e-06	3.54e-06	1265.1	236.69	5.1794e-06	2.3429e-06	300.94	84.356	65.713	19.517	7.5014e-06	27.163	0.00077801	0.00084724	0.00023497	1163.1	9.2585e-06	9.3812e-06	1257.4	238.55	9.1621e-06	9.389e-06	305.85	86.366	67.719	20.361	9.2054e-06	28.255	289.368	74.921	154.928	5.201	209.146	87.634	5.269	12.816	142.708	266.267	12.257	19.098	19.310	26.678	115.478	25.827	-8191	255	
538.770	1	1	0	0	0.1358	0.14435	0.18766	0.20708	0.20832	0.30858	0.10734	0.094193	0.20625	0.094426	0.31536	0.13743	0.14494	0.076421	0.32578	0.070585	-2.675	-2.5062	-2.9958	-2.9313	-2.6083	-3.1521	-2.9167	-3.125	-3.1458	-2.7208	-3.0312	-3.0438	-2.7062	-3.0604	-2.6479	-2.8187	128.744	329.779	113.823	351.347	25.028	173.462	115.867	349.258	22.022	86.416	53.011	170.089	68.055	143.432	99.308	267.337	0.00045836	0.00013298	0.00018785	1166	6.2048e-06	8.2287e-06	1267	236.5	3.303e-06	6.931e-06	301.84	84.41	65.431	19.485	6.3885e-06	27.01	0.00078293	0.00084551	0.00023658	1162.3	9.2145e-06	9.3326e-06	1256.2	238.35	9.2663e-06	9.2733e-06	306.47	86.326	67.592	20.347	9.1565e-06	28.196	297.017	144.452	78.312	5.046	72.372	181.164	5.559	12.937	176.691	197.088	12.616	19.369	19.346	26.270	137.784	25.801	-8191	255	
538.866	1	1	0	0	0.14145	0.10551	0.042729	0.043779	0.044382	0.055658	0.19268	0.13181	0.35525	0.21362	0.34781	0.15249	0.10887	0.19167	0.15121	0.21602	-2.6771	-2.6	-3.0646	-3.1562	-2.5896	-2.9938	-2.9104	-3.0167	-3.1063	-2.4604	-3.1271	-2.9729	-2.8396	-3.15	-2.8604	-2.8646	146.822	272.509	53.334	267.449	270.743	-4.169	33.211	133.379	234.033	120.738	120.275	-2.375	186.562	64.133	123.724	346.741	0.00034435	0.0002623	0.00015941	1169.8	5.808e-06	6.0776e-06	1269	237.11	9.0103e-06	2.4242e-06	302.27	84.455	65.935	19.738	2.0483e-06	27.079	0.00079	0.00084488	0.00023878	1162.9	9.1875e-06	9.3152e-06	1257.8	238.7	9.1239e-06	9.2594e-06	306.33	86.461	67.677	20.382	9.091e-06	28.14	291.219	37.729	85.112	5.100	192.464	169.520	5.311	12.954	205.470	105.492	12.519	19.562	19.502	26.169	327.022	25.787	-8191	255	
538.938	1	1	0	0	0.079695	0.23326	0.16769	0.23115	0.30095	0.053274	0.12231	0.19838	0.22678	0.17401	0.072836	0.20998	0.38336	0.13593	0.23515	0.21197	-2.6667	-2.55	-2.9062	-3.1396	-2.5312	-3.0604	-2.9688	-2.725	-3.3875	-2.6625	-3.0354	-3.1083	-2.6063	-3.1208	-2.8604	-2.7583	141.729	151.619	69.473	333.663	168.082	332.571	334.806	11.307	91.159	305.218	71.005	183.501	318.336	225.204	69.603	252.253	0.00024463	0.00031166	0.00013554	1171.9	7.7222e-06	2.3242e-06	1267.3	235.91	4.375e-06	5.8431e-06	302.38	84.685	65.31	19.563	6.0743e-06	26.922	0.00077782	0.00083143	0.00023185	1163	9.1145e-06	9.2829e-06	1256.8	238.12	9.1552e-06	9.3907e-06	306.36	86.686	67.484	20.369	9.2279e-06	28.222	309.095	323.231	104.563	4.982	114.250	119.549	5.346	13.070	199.698	106.867	12.494	19.267	19.539	26.177	124.807	26.136	-8191	255	
539.058	1	1	0	0	0.13255	0.1779	0.30541	0.12496	0.28706	0.1738	0.1776	0.3355	0.088648	0.15124	0.26954	0.079954	0.1506	0.14518	0.13187	0.026099	-2.8896	-2.5542	-2.9813	-3.1875	-2.5792	-3.1083	-3.1042	-2.9104	-3.25	-2.8354	-2.8833	-3.0167	-2.5771	-2.9	-2.7833	-2.7167	137.293	168.908	64.839	313.109	5.030	129.392	317.479	341.915	333.125	260.445	229.654	264.025	247.467	36.179	24.312	44.076	0.00047382	7.9095e-05	7.7539e-05	1167.4	1.0701e-05	2.1143e-06	1266.1	236.97	1.187e-05	6.7365e-06	301.17	84.708	65.919	19.688	7.4298e-06	27.11	0.00078389	0.00084862	0.00023513	1162.9	9.1015e-06	9.2834e-06	1256.1	238.47	8.9377e-06	9.2754e-06	305.66	86.386	67.561	20.407	9.1629e-06	28.217	284.564	83.909	49.076	5.212	197.662	117.456	5.315	12.998	222.555	161.947	12.142	19.552	19.373	26.192	146.229	25.551	-8191	255	
539.155	1	1	0	0	0.21168	0.24488	0.0052496	0.15024	0.25781	0.38417	0.53055	0.2227	0.15171	0.53581	0.10134	0.19794	0.17189	0.14223	0.048723	0.13233	-2.9271	-2.7687	-3.0021	-3.2042	-2.8187	-2.95	-3.0792	-2.7979	-3.1958	-2.5563	-2.7917	-3.3375	-2.4917	-2.9854	-3.0229	-2.575	53.468	310.494	243.396	329.224	217.643	269.511	287.709	347.978	224.020	144.816	225.371	166.403	286.714	297.048	14.256	8.321	0.00038419	0.00037752	0.00023463	1170.4	5.0671e-06	5.4237e-06	1267.5	236.61	6.8106e-06	3.8518e-06	301.42	84.56	65.658	19.501	2.1419e-06	27.203	0.00078776	0.00084536	0.00023784	1163.7	9.0531e-06	9.1976e-06	1258.5	238.53	9.174e-06	9.3221e-06	305.52	86.316	67.677	20.384	9.3209e-06	28.235	289.564	115.333	61.066	5.122	275.311	128.464	5.440	12.995	143.210	150.224	12.158	19.438	19.541	26.608	126.770	25.985	-8191	255	
539.251	1	1	0	0	0.14173	0.19181	0.080305	0.19622	0.23875	0.30837	0.27488	0.30875	0.27015	0.14256	0.26089	0.097271	0.27866	0.069683	0.1756	0.33137	-2.9104	-2.7708	-2.8438	-3.125	-2.4771	-2.7062	-3.1125	-2.7812	-3.0917	-2.9292	-2.8125	-3.0875	-2.6042	-2.9938	-3.1	-2.6542	69.834	29.945	33.056	317.408	26.049	42.772	328.409	346.615	42.634	330.206	209.664	220.584	-4.838	160.660	2.308	271.036	0.00038819	0.00047315	0.00018136	1176.4	2.6802e-06	2.1683e-06	1264.5	236.27	1.2151e-06	1.4539e-06	301.02	84.401	65.647	19.52	4.5929e-06	27.02	0.00079603	0.00085822	0.00024253	1166.7	9.2427e-06	9.3522e-06	1257.4	238.51	9.2773e-06	9.5485e-06	306.01	86.482	67.636	20.429	9.337e-06	28.212	278.632	129.837	131.157	5.195	156.578	152.051	5.028	13.075	85.868	305.416	12.327	19.669	19.714	26.302	138.997	26.024	-8191	255	
539.347	1	1	0	0	0.22227	0.155	0.13158	0.46029	0.028091	0.16325	0.28525	0.11018	0.06708	0.097215	0.16246	0.12042	0.25688	0.17936	0.12025	0.12392	-2.6229	-2.9167	-2.6437	-3.1	-2.6458	-2.7875	-3.3208	-2.5896	-2.8937	-2.7208	-2.6542	-3.1583	-2.775	-2.7792	-3.0938	-2.6458	151.070	52.534	11.673	322.735	154.136	31.278	320.635	327.046	118.293	102.850	269.278	96.275	266.601	12.256	155.382	293.597	0.0003555	0.00028489	4.8097e-05	1171	4.8764e-06	3.1199e-06	1265.4	237.27	1.573e-05	2.3455e-06	301.31	84.51	66.086	19.623	4.7074e-06	27.136	0.00080381	0.00087145	0.00024758	1164.2	9.5173e-06	9.7442e-06	1257.4	238.7	9.7281e-06	9.9167e-06	306.29	86.6	67.846	20.48	9.7964e-06	28.435	286.963	143.142	103.176	5.103	221.886	343.652	5.528	12.725	263.185	184.103	12.477	19.374	19.682	26.273	219.979	26.038	-8191	255	
539.467	1	1	0	0	0.134	0.053909	0.21928	0.20386	0.17485	0.2154	0.31138	0.14601	0.26698	0.085836	0.044442	0.25248	0.13193	0.20293	0.26592	0.25932	-2.6354	-2.975	-2.5792	-3.1688	-2.8312	-2.7521	-3.3833	-2.7146	-2.9479	-3.0687	-2.6375	-3.1312	-2.7479	-2.5792	-3.0125	-2.4917	263.516	101.519	-4.062	331.297	225.892	77.775	251.980	1.399	34.469	353.601	244.763	281.617	-4.649	80.616	318.784	239.138	0.0002525	0.00022104	0.00017478	1172.9	5.0208e-06	1.621e-06	1266.4	236.65	7.0542e-06	1.3685e-06	301.61	84.72	65.781	19.591	2.4948e-06	27.013	0.00084707	0.00091007	0.00025567	1164.3	9.7964e-06	9.9318e-06	1257.2	238.91	9.6568e-06	9.9699e-06	306.77	86.738	67.73	20.446	9.6942e-06	28.271	286.431	122.424	86.729	5.270	65.636	17.402	5.129	12.904	152.496	235.116	12.211	19.575	19.423	25.785	33.044	26.381	-8191	255	
539.564	1	1	0	0	0.18852	0.26002	0.14272	0.11849	0.23959	0.10462	0.11031	0.095931	0.11332	0.106	0.25407	0.14117	0.089087	0.092892	0.070516	0.12638	-2.4833	-3.0396	-2.6146	-3.2458	-2.8688	-2.8042	-3.2313	-2.7708	-2.8167	-3.1417	-2.7313	-3.2188	-2.9271	-2.6125	-3.2042	-2.7479	208.631	219.326	204.250	325.828	348.897	201.827	324.606	270.765	68.679	54.128	351.221	115.734	156.614	307.942	115.712	86.760	0.00051284	0.00032827	0.00017446	1170.4	7.0297e-06	1.1749e-06	1260.4	236.5	3.9622e-06	5.9787e-06	301.49	84.476	65.944	19.504	9.5291e-06	27.048	0.00083455	0.00089888	0.00025268	1164.3	9.6679e-06	9.9134e-06	1254.2	238.68	9.5025e-06	9.7388e-06	305.79	86.37	67.786	20.447	9.547e-06	28.325	298.674	45.655	152.686	5.203	201.998	154.287	5.315	13.059	168.285	202.192	12.046	19.388	19.496	26.406	124.017	25.986	-8191	255	
539.635	1	1	0	0	0.092203	0.23904	0.037097	0.27901	0.075268	0.17522	0.14869	0.095173	0.12772	0.036389	0.25119	0.21964	0.23203	0.15814	0.24629	0.26198	-2.3937	-3.0812	-2.6125	-3.2729	-2.9562	-2.4479	-3.3146	-2.8625	-2.6688	-2.9521	-2.5917	-2.8688	-2.9688	-2.6896	-3.1937	-2.7812	250.679	182.115	269.085	284.117	81.851	188.487	89.888	253.077	58.714	32.848	114.473	310.085	128.648	17.227	324.893	295.739	0.00039172	0.00027795	0.00013935	1169.7	6.1893e-06	3.1665e-06	1268.6	236.67	2.952e-06	1.0822e-06	301.68	84.646	65.875	19.459	5.6002e-06	27	0.00080877	0.00088818	0.00024595	1163.1	9.4051e-06	9.5425e-06	1257.5	238.41	9.3592e-06	9.4377e-06	306.24	86.534	67.673	20.352	9.4345e-06	28.217	309.672	44.507	112.352	5.015	178.007	102.902	5.390	12.878	36.871	78.982	12.186	19.862	19.642	26.328	151.406	25.698	-8191	255	
539.731	1	1	0	0	0.18501	0.11799	0.059937	0.14947	0.083094	0.21211	0.056178	0.18268	0.092516	0.030406	0.11628	0.1221	0.16436	0.16424	0.24839	0.026649	-2.4417	-3.1667	-2.7208	-3.1271	-2.9625	-2.6729	-3.2125	-3.1729	-2.6542	-3.0417	-2.6625	-2.9625	-3.1167	-2.5792	-3.1063	-2.9792	274.145	345.539	109.444	306.651	90.655	49.433	215.844	43.687	194.445	61.533	127.821	97.886	266.074	28.663	211.257	339.168	0.00018656	0.00044886	5.6503e-05	1171	1.002e-05	1.0504e-06	1261.9	238.16	5.3381e-06	3.1257e-06	302.54	84.224	65.752	19.491	1.222e-06	27.146	0.00080549	0.00086502	0.00024625	1162.9	9.6272e-06	9.6343e-06	1256.3	238.74	9.4252e-06	9.706e-06	306.73	86.328	67.636	20.407	9.4464e-06	28.196	307.966	104.181	65.932	5.073	201.448	247.756	5.239	12.861	300.657	146.192	12.371	19.805	19.686	26.461	228.810	26.086	-8191	255	
539.850	1	1	0	0	0.10089	0.38823	0.11623	0.26652	0.39002	0.24449	0.45663	0.27402	0.072224	0.07202	0.089032	0.057084	0.010515	0.13	0.057341	0.18281	-2.4792	-3.0292	-2.7021	-3	-3.0438	-2.5875	-3.1625	-2.8896	-2.5021	-3.3333	-2.9167	-2.9729	-3.0542	-2.6854	-3.0354	-3.0583	99.710	11.460	48.211	302.346	309.540	62.423	279.293	335.357	302.466	277.568	18.148	228.567	346.453	277.629	4.276	184.515	0.00035539	0.00010888	0.00015898	1170.6	4.8405e-06	4.4344e-06	1270.4	237.25	2.3149e-06	2.5472e-06	301.71	84.894	66.514	19.47	3.0717e-06	27.249	0.00079108	0.0008586	0.00024165	1164.8	9.3214e-06	9.534e-06	1258.9	238.91	9.3417e-06	9.5176e-06	305.83	86.764	67.842	20.41	9.2598e-06	28.265	289.068	201.946	47.601	5.225	262.250	79.159	5.226	12.642	265.358	105.752	12.209	19.589	19.301	26.603	151.168	25.687	-8191	255	
539.947	1	1	0	0	0.15577	0.062081	0.10366	0.47966	0.079611	0.27549	0.25452	0.045995	0.045021	0.23634	0.039605	0.10216	0.12564	0.26131	0.18058	0.25367	-2.2062	-3.0896	-2.8646	-2.8708	-3.1021	-2.6854	-3.0687	-2.9125	-2.5917	-3.0104	-2.7687	-2.7208	-3.2042	-2.5271	-2.9667	-3.0083	240.207	-3.474	284.822	334.094	226.936	275.279	333.831	245.151	212.834	339.453	319.303	130.845	289.382	347.492	260.069	229.057	0.00033045	0.00031409	0.0001134	1166.6	4.7395e-06	7.1527e-07	1262.9	236.6	6.5094e-06	2.6126e-06	302.67	84.452	65.786	19.398	7.8254e-06	27.055	0.00080408	0.00086922	0.00024492	1163.1	9.2371e-06	9.4901e-06	1256.2	238.75	9.1591e-06	9.3936e-06	306.59	86.444	67.564	20.404	9.5352e-06	28.272	306.814	40.968	176.118	5.171	75.736	85.704	5.356	13.002	191.683	194.090	12.121	19.560	19.836	26.543	146.688	25.895	-8191	255	
540.043	1	1	0	0	0.2493	0.14948	0.13468	0.20547	0.2098	0.18318	0.32913	0.28523	0.078645	0.13569	0.17677	0.15789	0.2199	0.040836	0.20585	0.076065	-2.1896	-3.1208	-2.6458	-2.9208	-3.225	-2.6896	-2.8458	-3.1229	-2.5479	-2.9667	-2.7917	-2.7438	-3.125	-2.6917	-2.9062	-3.2521	353.161	302.441	350.927	312.524	176.456	342.372	263.486	236.147	189.790	145.264	325.574	102.999	261.000	172.053	95.279	83.898	0.00037307	0.00014163	3.4699e-05	1172	8.8572e-06	5.766e-06	1263.4	237.42	2.2165e-06	3.7135e-06	301.63	84.492	66.176	19.509	2.7583e-06	26.919	0.00080464	0.00087132	0.00024268	1164.2	9.3573e-06	9.4915e-06	1258.6	238.68	9.2522e-06	9.5656e-06	306.23	86.475	67.707	20.381	9.3807e-06	28.195	281.300	18.685	91.535	5.264	127.729	193.831	5.193	12.830	235.272	160.433	12.265	19.646	19.713	26.367	190.628	26.155	-8191	255	
540.139	1	1	0	0	0.14192	0.17048	0.20265	0.092188	0.21166	0.34678	0.35793	0.099323	0.23614	0.1551	0.036924	0.063544	0.17395	0.1397	0.13661	0.15092	-2.2625	-2.9875	-2.8729	-2.6583	-2.9646	-2.6375	-2.8729	-3.0583	-2.8	-2.9625	-3.1604	-2.6583	-3.3063	-2.7771	-2.8312	-3.1937	53.998	184.702	305.856	21.870	56.388	304.898	290.256	318.541	302.850	308.127	197.650	66.769	334.724	17.274	175.439	95.523	0.00042548	0.00016253	0.00013146	1169	7.7761e-06	3.916e-06	1263.6	236.49	5.0206e-06	5.7989e-06	300.84	84.393	65.804	19.545	2.176e-06	26.957	0.00080059	0.00086359	0.00023866	1161.5	9.2458e-06	9.3785e-06	1254.5	238.01	9.2444e-06	9.4633e-06	305.99	86.421	67.618	20.38	9.322e-06	28.178	276.273	141.187	107.130	5.260	132.183	183.610	5.239	12.892	214.569	125.645	11.965	19.723	19.336	26.601	271.228	25.848	-8191	255	
540.235	1	1	0	0	0.11511	0.13294	0.16834	0.24003	0.21533	0.10376	0.33674	0.19303	0.31296	0.052819	0.1022	0.07214	0.14554	0.17869	0.12181	0.19049	-2.4333	-2.95	-2.8312	-2.6708	-3.0667	-2.7104	-2.7583	-3.2083	-2.6375	-2.9813	-2.8875	-2.5187	-3.2062	-2.8167	-2.6542	-2.9729	175.858	100.688	171.109	333.074	229.966	96.712	323.255	316.280	86.003	115.754	155.322	185.976	199.103	282.273	9.146	256.560	0.0005539	0.00035746	0.00012631	1167.7	5.0786e-06	6.1287e-06	1264.6	236.76	6.3764e-06	3.7589e-06	300.9	84.232	65.815	19.558	4.5154e-06	27.087	0.00081198	0.00086115	0.00024251	1161.2	9.2963e-06	9.5161e-06	1254.9	238.69	9.2651e-06	9.5657e-06	306.09	86.246	67.618	20.388	9.2347e-06	28.282	293.122	64.520	112.382	5.279	181.713	110.761	5.376	13.249	186.794	163.393	12.406	19.686	19.277	26.618	95.507	25.875	-8191	255	
540.331	1	1	0	0	0.14116	0.041549	0.25786	0.19131	0.14426	0.051047	0.069964	0.08268	0.21144	0.15589	0.19586	0.27429	0.16993	0.077604	0.024032	0.22029	-2.2896	-2.9208	-2.8896	-2.775	-3.1312	-2.9521	-2.7167	-3.1083	-2.7229	-2.8417	-3.0271	-2.6104	-3.0167	-3.0833	-2.6833	-3.2417	235.918	225.214	158.336	261.152	76.229	7.414	53.084	97.337	131.145	329.586	353.979	236.485	324.123	350.952	251.805	348.177	0.00038984	0.0002393	3.581e-05	1165.3	9.755e-06	7.5412e-06	1264.2	236.99	7.104e-06	4.4611e-06	301.64	84.22	65.924	19.574	5.1153e-06	27.27	0.00080387	0.00085452	0.00023916	1160.4	9.1358e-06	9.2762e-06	1255.1	238.55	9.1046e-06	9.1992e-06	305.8	86.378	67.52	20.359	9.0579e-06	28.206	254.110	96.233	146.085	5.311	167.656	105.594	5.266	13.050	243.000	174.256	12.519	19.586	19.309	26.298	65.838	25.692	-8191	255	
540.452	1	1	0	0	0.20275	0.36567	0.12932	0.37583	0.088007	0.20268	0.45725	0.12357	0.4118	0.069335	0.20357	0.10316	0.19439	0.055253	0.13296	0.13211	-2.3875	-2.5625	-3.1562	-2.7667	-2.6104	-2.9479	-2.7313	-2.9479	-2.8271	-2.6896	-3.2375	-2.5667	-2.975	-3.0146	-2.6542	-3.0771	274.298	82.131	40.220	294.179	41.758	257.795	252.452	333.081	294.822	114.926	37.619	169.903	118.081	179.671	158.695	279.713	0.00032052	0.00039602	4.8346e-05	1166.9	8.3968e-07	9.9254e-07	1262.4	236.75	7.7726e-06	8.0182e-06	302.8	84.394	65.801	19.622	1.1558e-05	27.108	0.00076515	0.00083416	0.00023284	1159.2	9.1261e-06	9.1103e-06	1255.6	238.61	8.9935e-06	9.3184e-06	305.84	86.25	67.451	20.346	9.0805e-06	28.227	285.574	22.049	227.701	5.152	252.626	157.107	5.359	12.997	204.369	133.214	12.056	19.558	19.452	26.359	99.053	25.471	-8191	255	
540.548	1	1	0	0	0.39225	0.16	0.27578	0.12018	0.088532	0.29642	0.1951	0.24906	0.28891	0.34711	0.21587	0.063337	0.26877	0.21878	0.27178	0.066244	-2.3667	-2.6688	-3.0583	-2.6458	-2.8917	-3.0729	-2.7521	-3.0792	-2.8292	-2.5792	-3.3271	-2.7208	-2.8187	-3.0021	-2.5062	-3.025	18.721	68.700	115.979	332.300	25.852	73.058	210.147	331.261	327.282	306.839	300.775	124.352	313.384	36.718	30.565	101.237	0.00033687	0.00092236	0.00013983	1167.9	5.2497e-06	3.2848e-06	1266.8	236.37	3.4292e-06	7.2897e-06	301.81	84.613	65.714	19.303	6.2574e-06	27.138	0.00076871	0.00083188	0.0002276	1159.6	8.9978e-06	9.0647e-06	1253	237.79	8.9345e-06	8.9097e-06	305.76	86.354	67.332	20.261	8.7768e-06	28.202	288.019	61.002	188.608	5.246	169.687	167.278	5.437	13.051	252.907	112.634	12.341	19.749	19.506	26.188	214.105	26.138	-8191	255	
540.644	1	1	0	0	0.17636	0.23797	0.16411	0.37055	0.18985	0.27829	0.35268	0.15034	0.10521	0.13232	0.17572	0.24705	0.23026	0.32269	0.19447	0.078743	-2.3104	-2.6229	-3.1333	-2.6583	-2.6917	-3.1542	-2.7167	-2.9208	-2.8854	-2.75	-3.1542	-2.8	-2.8396	-3.2083	-2.6458	-2.7604	283.669	302.461	207.697	260.247	157.160	229.346	302.539	282.850	124.111	1.197	268.390	187.362	235.580	352.766	293.222	78.946	0.00024735	0.00048642	0.00015231	1165.3	6.3871e-06	4.2593e-06	1265.9	236.16	2.0446e-06	5.393e-06	301.17	83.851	65.89	19.489	6.7551e-06	27.135	0.00076643	0.00082927	0.00022529	1158.3	8.8703e-06	8.9291e-06	1252.7	237.66	8.6647e-06	8.9885e-06	304.86	86.014	67.333	20.266	8.7234e-06	28.097	274.258	108.685	172.936	5.127	177.109	87.731	5.495	12.751	284.063	95.025	12.395	19.365	19.478	26.311	129.073	26.090	-8191	255	
540.740	1	1	0	0	0.19278	0.10162	0.28148	0.24385	0.075577	0.02307	0.052872	0.020469	0.056031	0.32634	0.080798	0.13593	0.26882	0.056833	0.40794	0.16055	-2.3438	-2.6083	-3.0312	-2.8708	-2.7292	-3.2167	-2.9083	-3.0938	-3.0958	-2.6354	-3.0208	-2.9854	-2.5021	-3.2	-2.6792	-2.8875	113.993	335.010	31.521	315.287	87.714	76.054	276.356	240.945	235.262	307.994	134.282	222.525	314.940	243.697	166.707	292.012	0.0003394	8.1483e-05	6.0996e-05	1167.5	5.6947e-06	3.4173e-06	1262.5	236.74	5.0987e-06	3.5998e-06	300.34	84.343	66.161	19.729	5.5136e-06	27.221	0.00075043	0.00080795	0.00022876	1158.2	8.8661e-06	9.0085e-06	1254.1	237.84	8.7018e-06	8.915e-06	305.42	86.122	67.438	20.367	9.0011e-06	28.238	290.906	244.469	158.178	5.089	203.934	156.017	5.271	13.042	223.563	128.196	12.627	19.305	19.668	26.394	119.918	25.780	-8191	255	
540.835	1	1	0	0	0.19139	0.058381	0.30114	0.074806	0.3322	0.13256	0.16421	0.099936	0.099607	0.093417	0.17374	0.06217	0.16856	0.24573	0.18966	0.2015	-2.6979	-2.6667	-2.9083	-3.0396	-2.5229	-3.2104	-2.9833	-3.0438	-3.0771	-2.6771	-3.175	-2.9125	-2.5125	-3.2729	-2.6813	-2.8937	135.185	145.349	286.231	219.714	300.021	233.851	214.281	351.015	2.658	83.140	304.793	250.253	98.082	348.491	157.882	305.671	0.00032134	0.00062462	0.00015378	1167.7	5.292e-06	7.9782e-06	1265.1	237.42	5.6633e-06	2.3063e-06	301.87	84.314	65.24	19.542	3.1804e-06	27.333	0.00077087	0.0008542	0.00023332	1159.7	9.0985e-06	9.2512e-06	1255.4	238.47	9.1675e-06	9.2222e-06	305.57	86.325	67.397	20.398	9.3321e-06	28.264	294.518	99.112	53.466	5.291	212.333	144.022	5.393	12.650	229.848	109.419	12.658	19.448	19.262	26.297	97.826	26.332	-8191	255	
540.931	1	1	0	0	0.057699	0.094345	0.16706	0.1968	0.17923	0.27188	0.095819	0.18541	0.22447	0.21424	0.16447	0.02944	0.048588	0.26983	0.19024	0.10332	-2.6917	-2.4354	-2.8208	-3.0792	-2.4542	-3.2062	-2.9062	-2.7292	-2.9708	-2.5938	-3.0625	-3.0625	-2.4646	-3.1229	-2.6292	-2.8271	190.399	11.268	286.825	274.990	119.935	178.693	196.211	178.319	120.195	11.731	265.314	259.640	116.265	164.354	106.529	203.440	0.00046989	0.00027752	7.6235e-05	1169.6	3.931e-06	5.1315e-06	1265.7	237.12	1.1057e-05	3.2474e-06	300.19	84.931	65.684	19.554	4.1274e-06	27.119	0.0007878	0.00085044	0.00023083	1162.4	9.243e-06	9.2265e-06	1257.1	238.46	9.0408e-06	9.2357e-06	305.41	86.562	67.585	20.397	9.3153e-06	28.268	288.382	45.796	146.315	5.030	140.673	178.282	5.335	12.757	189.631	162.257	12.238	19.748	19.064	26.479	162.867	25.600	-8191	255	
541.027	1	1	0	0	0.072663	0.25468	0.097493	0.33561	0.3169	0.062394	0.24994	0.33622	0.19493	0.21762	0.19038	0.32275	0.21285	0.23686	0.24824	0.059335	-2.6896	-2.5708	-2.9437	-3.1896	-2.5208	-3.0604	-2.9688	-2.65	-3.0875	-2.65	-2.9042	-3.0833	-2.6729	-3.0333	-2.8063	-2.7625	237.202	206.218	185.251	325.280	52.982	154.669	319.592	321.993	93.437	24.305	201.818	9.624	108.366	333.903	68.094	76.999	0.00041799	0.00010238	0.00017947	1172.6	6.3719e-06	4.5103e-06	1265.2	237.2	6.0219e-06	1.818e-06	300.24	84.457	65.948	19.589	7.7808e-06	27.112	0.00079536	0.00086981	0.00023789	1163.2	9.3116e-06	9.3296e-06	1256.6	238.09	9.1815e-06	9.5722e-06	305.4	86.591	67.535	20.468	9.5733e-06	28.345	303.092	72.330	90.349	5.232	161.004	118.156	5.313	12.966	198.087	48.950	12.514	19.180	19.513	26.559	146.185	25.981	-8191	255	
541.148	1	1	0	0	0.34303	0.27172	0.25942	0.20424	0.17238	0.16868	0.073934	0.22393	0.17179	0.11128	0.12867	0.3313	0.22237	0.37805	0.21321	0.06158	-2.8333	-2.5938	-2.6771	-3.3146	-2.6896	-3.025	-3.0354	-2.625	-3.0167	-2.6937	-2.7646	-3.1396	-2.5563	-2.9146	-2.925	-2.7354	62.236	181.205	328.572	328.145	79.005	255.549	117.283	282.223	210.607	40.603	273.843	15.691	79.734	264.363	241.614	142.374	0.00026515	0.00019988	0.00016577	1172	1.2837e-05	3.0226e-06	1269.5	237.49	5.4859e-06	1.7933e-06	304.2	84.961	65.795	19.579	3.5015e-06	27.093	0.00080919	0.00087786	0.00024635	1165.1	9.5367e-06	9.6582e-06	1258.6	239.03	9.5852e-06	9.7858e-06	307.33	86.695	67.687	20.489	9.6853e-06	28.317	314.103	160.244	70.867	5.110	177.224	274.743	5.458	13.175	206.958	173.571	12.592	19.355	19.391	26.610	304.391	26.042	-8191	255	
541.244	1	1	0	0	0.072253	0.24202	0.16797	0.092749	0.20267	0.060071	0.064546	0.2725	0.091967	0.24974	0.21101	0.14234	0.21161	0.13687	0.27737	0.20897	-2.6063	-2.6542	-2.6792	-3.2896	-2.5458	-2.8875	-3.0687	-2.6562	-3.0042	-2.9125	-2.8563	-3.1979	-2.5917	-2.8667	-2.9188	-2.3812	30.797	159.498	349.324	4.829	38.967	307.628	276.779	222.063	113.656	189.283	316.886	40.062	351.636	82.835	25.987	318.136	0.0004033	0.0004545	2.0538e-05	1175.6	3.2407e-06	1.6207e-06	1271.2	237.05	4.7935e-06	1.7778e-06	301.33	84.134	66.245	19.653	3.9756e-06	27.384	0.00083128	0.00088803	0.0002482	1167.4	9.7827e-06	9.8545e-06	1262.9	238.89	9.606e-06	9.861e-06	306.76	86.626	67.702	20.507	9.5528e-06	28.445	289.991	148.272	54.257	5.091	107.834	66.796	5.188	13.008	222.336	180.101	12.484	19.667	19.239	26.137	119.266	26.304	-8191	255	
541.340	1	1	0	0	0.17031	0.10326	0.10329	0.18372	0.14316	0.16236	0.1695	0.21756	0.11375	0.073821	0.14105	0.27636	0.18173	0.19918	0.19039	0.32381	-2.7771	-2.8354	-2.5458	-3.3396	-2.6229	-2.8792	-3.0563	-2.6333	-2.9917	-2.9521	-2.4833	-3.2042	-2.775	-2.9271	-3.2375	-2.6542	325.066	137.030	209.568	238.454	147.362	42.892	268.526	81.093	320.392	342.290	10.811	261.906	272.080	67.878	269.815	115.791	0.00043165	0.00082185	1.6299e-05	1171.5	7.4566e-06	3.4149e-06	1266.3	237.35	2.0106e-06	6.2975e-06	303.5	84.999	66.032	19.584	6.3768e-06	26.932	0.00081845	0.00088498	0.00024676	1167.4	9.5472e-06	9.8022e-06	1260.6	238.97	9.4581e-06	9.6649e-06	306.75	86.785	67.765	20.441	9.2183e-06	28.262	290.688	90.291	141.215	5.197	160.267	331.877	5.304	12.883	318.238	85.978	12.326	19.303	19.199	26.719	131.689	25.797	-8191	255	
541.436	1	1	0	0	0.18152	0.032801	0.30352	0.12239	0.14737	0.20106	0.13809	0.20512	0.212	0.14087	0.18812	0.045714	0.22515	0.11337	0.062454	0.074813	-2.5625	-2.8146	-2.65	-3.3146	-2.5938	-2.7292	-3.2417	-2.6	-3.0958	-2.9042	-2.6958	-3.2979	-2.975	-2.7042	-3.1167	-2.6542	304.817	69.400	24.006	0.402	63.183	171.468	209.448	306.542	303.286	293.773	161.627	265.065	293.220	106.725	189.550	-2.754	0.00045426	7.2444e-05	8.8566e-05	1174.6	6.0468e-06	5.5609e-06	1274.3	236.8	1.3534e-06	3.6994e-06	301.19	84.572	65.798	19.668	8.925e-06	27.267	0.00079233	0.0008464	0.00023796	1166.2	9.2284e-06	9.4552e-06	1261.8	238.64	9.3206e-06	9.431e-06	306.29	86.667	67.481	20.455	9.4875e-06	28.309	299.146	186.656	131.681	5.093	210.351	189.410	5.523	12.859	252.559	136.285	12.859	19.785	19.251	26.156	173.878	26.000	-8191	255	
541.532	1	1	0	0	0.088228	0.098657	0.19574	0.11058	0.055848	0.16574	0.18596	0.22921	0.17076	0.15177	0.13925	0.2679	0.27284	0.063512	0.083676	0.13084	-2.6688	-2.9396	-2.5438	-3.325	-2.7729	-2.7542	-3.1979	-2.5271	-2.7375	-3.0917	-2.65	-3.1667	-3.025	-2.5604	-3.075	-2.7104	346.853	224.559	338.360	9.702	259.516	13.755	9.587	252.599	214.144	0.647	303.374	306.479	6.806	8.320	22.525	305.645	0.00028447	0.00043832	0.00015107	1176	8.3979e-06	3.6754e-06	1268.8	237.03	4.9208e-06	7.8666e-06	301.79	84.324	66.152	19.679	2.0381e-06	27.237	0.00081812	0.00087677	0.00024705	1166.9	9.7096e-06	1.0017e-05	1262.3	239.27	9.752e-06	9.9828e-06	307.56	86.617	67.719	20.469	9.3788e-06	28.28	269.596	155.813	135.044	5.330	181.000	104.705	5.260	13.018	277.621	176.419	12.155	19.536	19.248	26.119	49.667	26.026	-8191	255	
541.628	1	1	0	0	0.1719	0.13532	0.11331	0.20516	0.11032	0.1399	0.26839	0.12571	0.18672	0.17194	0.10671	0.30031	0.2276	0.054415	0.10894	0.20997	-2.4292	-2.9792	-2.6271	-3.0792	-2.8812	-2.5812	-3.325	-2.8438	-2.7146	-3.1458	-2.6917	-2.9854	-2.8583	-2.6958	-3.1479	-2.925	232.475	233.621	237.585	271.530	65.966	339.866	296.286	84.609	331.786	244.857	340.982	276.099	29.962	300.499	53.791	255.222	0.00047022	0.00044688	0.00013486	1172.1	6.6629e-06	2.4269e-06	1265.2	235.78	5.8774e-06	3.4704e-06	299.94	83.878	64.977	19.5	2.3246e-06	27.009	0.00077459	0.00081678	0.00022399	1161.7	8.0747e-06	8.0883e-06	1252.5	237.13	7.8568e-06	7.5998e-06	303.15	85.444	66.346	20.104	7.3523e-06	27.865	306.981	66.879	90.210	5.275	205.547	121.523	5.307	12.988	245.458	171.502	12.387	19.924	19.247	26.521	143.031	25.795	-8191	255	
541.724	1	1	0	0	0.19717	0.14839	0.10209	0.32526	0.19549	0.15773	0.31095	0.14738	0.082491	0.14731	0.1336	0.018773	0.13333	0.20112	0.08449	0.12343	-2.4354	-3.2479	-2.6312	-2.9854	-2.875	-2.3563	-3.3917	-2.9208	-2.7521	-3.1437	-2.8167	-2.9729	-3.2521	-2.8229	-3.1063	-2.8187	254.994	67.644	212.990	327.375	219.866	261.785	234.631	13.182	341.026	38.894	175.234	152.200	259.347	82.137	95.594	99.616	0.00046145	0.00049284	9.2701e-05	1159.8	6.3623e-06	3.199e-06	1255.3	235.39	8.22e-06	4.4366e-06	300.73	83.868	65.56	19.405	5.653e-06	26.894	0.00063534	0.00066618	0.00018666	1151.6	7.1783e-06	7.3576e-06	1245.3	235.88	7.0183e-06	7.1089e-06	302.52	85.171	66.545	20.081	7.0594e-06	27.828	293.262	113.106	222.155	5.243	117.749	166.431	5.513	12.840	224.930	120.337	12.149	19.298	19.341	26.421	84.161	25.962	-8191	255	
541.821	1	1	0	0	0.083459	0.1203	0.0909	0.078042	0.12519	0.021988	0.28047	0.23693	0.2068	0.077763	0.20998	0.052165	0.14767	0.02466	0.082398	0.38803	-2.1312	-3.0479	-2.5021	-2.9146	-3.0792	-2.6125	-3.2125	-2.9417	-2.7625	-3.1688	-2.6917	-2.9188	-3.1792	-2.65	-2.8438	-3.0438	34.552	16.682	27.809	199.630	312.330	152.369	243.555	315.677	221.430	223.639	345.333	92.844	290.573	218.040	228.913	324.188	0.00042042	0.00041755	0.00014856	1162.5	1.6673e-06	8.4099e-06	1257.8	235.32	2.4415e-06	9.5535e-06	298.68	83.82	65.496	19.33	5.8307e-06	26.795	0.00061715	0.00065962	0.0001833	1151.4	7.2453e-06	7.2307e-06	1244.1	235.61	7.1233e-06	7.409e-06	301.88	85.324	66.679	20.082	7.5149e-06	27.803	290.469	45.528	77.949	5.125	178.386	152.756	5.328	12.898	184.900	177.575	12.347	19.419	19.208	26.419	183.518	26.081	-8191	255	
541.939	1	1	0	0	0.091433	0.031465	0.16427	0.31477	0.063717	0.24859	0.20307	0.18376	0.082847	0.10752	0.074774	0.34601	0.25433	0.071195	0.15816	0.33598	-2.0854	-3.1917	-2.7313	-2.8	-2.9688	-2.55	-3.1479	-3.0417	-2.7208	-3.0042	-2.8333	-2.7167	-3	-2.6312	-2.875	-2.975	189.080	194.898	119.049	122.765	104.999	261.577	254.999	2.532	111.789	12.173	231.059	66.229	57.990	232.271	288.116	280.177	0.00039951	0.00043281	9.2917e-05	1163.2	8.633e-06	2.6304e-06	1259.3	235.03	2.944e-06	6.4693e-07	301.22	84.034	65.12	19.405	3.1508e-06	27.008	0.00063688	0.00067653	0.00019236	1152	7.6146e-06	7.614e-06	1245.4	236.18	7.4668e-06	7.6965e-06	303.06	85.597	66.622	20.123	7.5159e-06	27.885	286.728	48.800	141.484	5.293	165.766	195.378	5.130	12.919	275.475	242.950	12.308	19.325	19.607	26.468	180.473	25.756	-8191	255	
542.036	1	1	0	0	0.34316	0.19433	0.21065	0.18328	0.10023	0.092956	0.092241	0.22126	0.18463	0.10812	0.032097	0.36484	0.058157	0.15557	0.12728	0.32989	-2.1937	-2.9354	-2.7042	-2.7979	-2.9417	-2.6979	-3.0875	-3.0542	-2.5792	-3.0583	-2.8604	-2.5375	-3	-2.6	-2.7104	-2.9708	311.553	236.774	123.107	265.612	256.958	137.964	60.723	53.948	348.808	10.828	284.169	343.597	67.055	48.821	229.793	344.649	0.00040087	0.0005573	0.00017452	1158.7	6.5202e-06	5.9158e-06	1264	235.63	6.6498e-06	4.7074e-06	300.64	84.157	65.258	19.411	1.0999e-05	26.964	0.0006483	0.00068132	0.00019417	1152.5	7.2726e-06	7.5536e-06	1247.5	236.47	7.393e-06	7.5056e-06	302.74	85.596	66.564	20.125	7.4129e-06	27.913	282.213	88.916	126.082	5.153	170.695	104.117	5.402	13.060	195.508	163.902	12.418	19.528	19.336	26.749	183.668	26.341	-8191	255	
542.132	1	1	0	0	0.041412	0.13171	0.23499	0.12663	0.021923	0.26749	0.16985	0.27311	0.15635	0.036729	0.024477	0.21673	0.19903	0.21349	0.20561	0.16441	-2.1604	-3.0479	-2.9146	-2.7271	-3.0833	-2.775	-2.9104	-3.0521	-2.5187	-2.9396	-3.075	-2.8229	-3.1292	-2.7521	-2.8583	-3.2958	122.927	5.824	92.362	347.027	1.853	47.895	22.757	285.472	234.793	255.144	131.413	254.949	306.305	326.056	217.999	207.381	0.00044746	0.00016963	0.00014122	1166.5	8.4243e-06	7.5704e-06	1262.3	234.85	3.7174e-06	5.6844e-06	300.83	84.17	65.821	19.389	6.8895e-06	26.89	0.00064661	0.00068664	0.00018807	1153.6	7.3432e-06	7.2609e-06	1246.6	235.66	6.9733e-06	6.8541e-06	302.25	85.258	66.347	20.029	6.5799e-06	27.695	281.642	113.191	102.066	5.105	105.199	161.421	5.208	12.956	200.126	181.859	12.443	19.921	19.388	26.785	107.778	26.064	-8191	255	
542.228	1	1	0	0	0.12881	0.15563	0.046506	0.24044	0.2042	0.13028	0.32086	0.15071	0.11824	0.1999	0.091276	0.25431	0.16985	0.13383	0.22622	0.33215	-2.3333	-2.8354	-2.8292	-2.7833	-3.025	-2.7333	-2.8417	-3.1979	-2.6333	-3.0167	-3.0375	-2.5729	-3.2104	-2.7625	-2.8333	-3.3833	316.390	263.873	78.495	311.214	183.794	337.096	265.488	262.325	173.098	237.952	251.408	139.610	319.886	265.380	33.200	326.703	0.00044427	0.00022997	0.00012738	1164.3	3.9266e-06	1.2552e-06	1257.5	235.55	1.4446e-06	2.5633e-06	301.15	83.701	65.263	19.419	3.4557e-06	26.845	0.00058489	0.00061084	0.00017131	1150.6	6.6892e-06	6.81e-06	1243.4	235.64	6.776e-06	6.9031e-06	302.28	85.277	66.421	20.024	6.9933e-06	27.742	289.056	143.602	40.952	5.239	197.794	139.609	5.375	13.150	268.010	201.740	12.347	19.215	19.740	26.568	237.496	26.065	-8191	255	
542.324	1	1	0	0	0.15982	0.18712	0.1489	0.1657	0.20178	0.10454	0.10156	0.27231	0.24148	0.2649	0.19078	0.23197	0.39177	0.25049	0.16556	0.070026	-2.2958	-2.7833	-2.9917	-2.6667	-2.9646	-2.8917	-2.9938	-3.1958	-2.6104	-2.9729	-3.2292	-2.4396	-3.0958	-2.7188	-2.7104	-3.275	326.170	277.359	60.622	353.553	240.273	82.329	270.904	252.450	354.351	131.188	349.743	346.451	314.563	275.380	74.028	266.733	0.00027348	0.00054283	0.00010055	1165.3	6.5411e-06	1.0253e-06	1253.2	234.5	4.8983e-06	4.5363e-06	298.83	83.427	65.007	19.367	1.0097e-05	27.056	0.00059934	0.00062578	0.00017408	1150.5	6.8868e-06	6.9738e-06	1241.2	235.42	6.9334e-06	6.913e-06	301.51	85.109	66.346	20.075	7.0077e-06	27.791	278.680	69.853	86.644	5.264	183.031	181.135	5.316	13.034	189.635	153.245	12.369	19.597	19.198	26.489	166.301	26.036	-8191	255	
542.420	1	1	0	0	0.16734	0.1374	0.059112	0.12583	0.10583	0.10463	0.33864	0.18384	0.22963	0.23125	0.066462	0.13658	0.044217	0.093078	0.14734	0.10625	-2.2625	-2.8	-3.1167	-2.7792	-2.8708	-2.9729	-2.6813	-3.0208	-2.7062	-2.8771	-3.2271	-2.6292	-2.8187	-2.9313	-2.5208	-3.1958	63.344	164.201	334.834	76.714	349.351	59.466	8.336	297.381	243.406	301.848	236.365	294.595	239.933	113.425	155.508	47.234	0.00041738	0.00021668	9.6227e-05	1160.9	1.6177e-06	3.8235e-06	1255.4	234.15	6.8493e-06	3.4811e-06	301.35	83.815	65.416	19.454	2.2501e-06	26.746	0.00061765	0.00065379	0.00018055	1147.9	7.1101e-06	7.3026e-06	1242.1	235.44	7.2117e-06	7.4212e-06	302.68	85.436	66.586	20.096	7.2987e-06	27.848	268.827	51.581	144.504	5.320	177.799	149.342	5.452	12.661	193.490	184.267	12.066	19.128	19.765	26.864	249.452	26.072	-8191	255	
542.541	1	1	0	0	0.053058	0.24551	0.16819	0.18526	0.046886	0.082333	0.26198	0.2697	0.20331	0.22202	0.15608	0.07779	0.10868	0.08781	0.12698	0.13728	-2.3833	-2.6833	-3.1688	-2.8875	-2.8125	-2.9333	-2.7875	-3.1437	-2.8771	-2.8396	-3.0958	-2.7479	-2.8063	-2.9396	-2.6917	-3.1688	272.163	353.561	49.586	323.954	48.898	319.838	236.823	343.345	28.036	329.511	298.080	93.960	204.831	-1.793	142.603	191.444	0.00033838	0.00015371	7.8735e-05	1160.6	6.6369e-06	3.2827e-06	1256.5	235.76	8.6844e-06	3.518e-06	300.97	83.459	65.541	19.269	3.3691e-06	27.094	0.00062976	0.00066393	0.00018534	1151.2	7.2131e-06	7.168e-06	1245.1	236.12	7.0015e-06	7.1652e-06	302.41	85.46	66.452	20.028	7.0959e-06	27.828	276.753	89.724	10.050	5.226	181.088	166.573	5.459	13.112	277.527	221.423	12.213	19.567	19.719	26.589	167.883	25.939	-8191	255	
542.637	1	1	0	0	0.3628	0.15777	0.2845	0.30352	0.17145	0.14758	0.052395	0.26693	0.039737	0.28581	0.13717	0.074399	0.070051	0.071038	0.10545	0.23093	-2.4417	-2.5958	-3.0812	-2.9437	-2.8354	-3.2417	-2.8708	-2.825	-2.8521	-2.4979	-3.1021	-2.6167	-2.9604	-3.0667	-2.5979	-2.9958	5.449	105.485	49.253	333.874	197.672	187.897	212.511	234.671	18.474	282.528	84.478	293.423	323.650	58.058	243.028	70.403	0.00031252	0.00020224	0.0001446	1157.3	5.7761e-07	7.7553e-06	1254.9	235.14	7.2659e-06	1.2407e-06	299.05	83.829	65.578	19.399	1.1418e-05	26.818	0.00062153	0.00065432	0.00018324	1148.3	7.1959e-06	7.2018e-06	1242.7	236.15	7.0897e-06	7.2373e-06	301.93	85.333	66.594	20.072	7.2114e-06	27.839	302.654	124.806	106.265	5.246	85.615	158.511	5.433	12.890	240.940	71.425	12.305	19.576	19.228	26.804	126.064	26.169	-8191	255	
542.731	1	1	0	0	0.12353	0.17888	0.15796	0.18557	0.40862	0.18548	0.23688	0.10766	0.17228	0.1713	0.20282	0.086414	0.24196	0.13239	0.098245	0.15208	-2.6104	-2.4938	-3.1333	-3.0125	-2.7313	-3.3438	-2.7396	-2.9708	-2.9313	-2.6979	-3.1833	-2.6688	-2.7812	-3.2042	-2.4938	-2.7354	246.561	58.795	129.547	323.440	189.244	18.623	302.694	78.793	115.819	21.859	230.137	213.216	105.599	59.869	157.342	239.824	0.00018865	9.0255e-05	0.00013184	1165	5.8988e-06	4.3041e-06	1258.1	236.07	5.2597e-06	2.904e-06	299.66	84.272	65.513	19.445	9.8626e-06	27.279	0.00063357	0.00067418	0.00019546	1152.5	7.6351e-06	7.8658e-06	1247.1	236.91	8.2933e-06	8.4665e-06	303.69	85.969	67.13	20.267	8.8022e-06	28.235	282.322	149.931	57.993	5.191	187.689	90.416	5.363	12.962	214.406	184.867	12.335	19.489	19.496	26.656	184.214	26.176	-8191	255	
542.828	1	1	0	0	0.099862	0.10064	0.21632	0.18772	0.048887	0.20835	0.34884	0.25384	0.015445	0.17025	0.10768	0.30901	0.14755	0.072983	0.19304	0.16151	-2.6104	-2.5271	-2.9375	-2.9333	-2.5583	-3.1688	-2.8833	-2.7604	-2.8812	-2.6833	-2.9437	-2.7687	-2.5917	-3.1833	-2.7854	-2.7521	167.806	134.075	329.993	46.215	186.449	92.939	297.444	265.746	56.743	71.157	183.158	144.197	183.029	15.894	247.494	153.471	0.00039874	2.8423e-05	8.4415e-05	1165.2	3.4546e-06	1.1082e-06	1257.7	236.27	5.1683e-06	3.6495e-06	299.96	84.203	65.275	19.497	7.1838e-06	27.076	0.00075162	0.00080505	0.00022306	1157.4	8.6442e-06	8.5023e-06	1249.2	237.71	8.3794e-06	8.4933e-06	303.78	85.958	67.005	20.266	8.2987e-06	28.099	265.677	52.737	156.270	5.370	144.619	52.568	5.274	12.913	227.006	150.803	12.398	19.500	19.619	26.932	188.307	25.733	-8191	255	
542.924	1	1	0	0	0.049302	0.1065	0.12102	0.098322	0.25161	0.15123	0.15591	0.27392	0.34053	0.37153	0.13545	0.28131	0.17589	0.36057	0.12961	0.10725	-2.6167	-2.4938	-3.1354	-2.8187	-2.5583	-3.0854	-2.8542	-2.7021	-3.0187	-2.4792	-2.8896	-2.9125	-2.5812	-3.1104	-2.6958	-2.8125	85.002	234.502	122.188	345.902	9.265	150.694	277.141	327.259	265.167	347.918	239.894	58.739	38.033	337.992	105.796	322.083	0.00049668	0.00024045	0.00016489	1162.8	7.8893e-06	3.4923e-06	1258.6	236.36	1.4738e-06	5.4685e-06	299.74	83.706	65.417	19.444	8.9021e-06	26.957	0.00069716	0.00075961	0.00020747	1155.6	7.9643e-06	7.988e-06	1248	236.79	7.9761e-06	8.0207e-06	303.23	85.633	66.9	20.17	7.9285e-06	28.008	280.934	5.496	100.637	5.228	247.723	268.192	5.282	12.991	249.192	194.698	12.565	19.688	19.484	26.835	185.790	25.813	-8191	255	
543.020	1	1	0	0	0.24646	0.12926	0.18852	0.21697	0.27379	0.066756	0.15045	0.3616	0.11373	0.11744	0.21554	0.2778	0.10478	0.13941	0.15684	0.080358	-2.7542	-2.5458	-2.775	-2.9958	-2.525	-3.0125	-2.9333	-2.825	-3.0917	-2.725	-3.0021	-3.1125	-2.5312	-3.075	-2.8354	-2.8292	56.576	77.459	346.862	242.880	123.017	96.876	332.114	271.509	98.425	71.277	254.526	205.386	217.390	185.477	236.042	308.549	0.0003013	0.00068265	0.00010408	1162.8	3.7606e-06	3.2014e-06	1262.1	236.64	3.4847e-06	3.6789e-06	298.65	84.302	65.288	19.475	1.6302e-06	27.132	0.0006803	0.00072747	0.00020046	1154.4	7.9246e-06	7.7794e-06	1249.3	237.06	7.7299e-06	7.9235e-06	303.05	85.802	66.756	20.209	7.8569e-06	28.079	288.507	166.114	63.096	4.993	268.030	186.642	5.348	13.137	244.923	231.037	12.428	19.485	19.478	26.417	97.556	26.524	-8191	255	
543.116	1	1	0	0	0.18315	0.15242	0.16848	0.069417	0.16355	0.16089	0.40471	0.1665	0.1598	0.18631	0.03542	0.13493	0.19546	0.066892	0.13861	0.35509	-2.6458	-2.5854	-2.7938	-3.3854	-2.6646	-3.0312	-2.8417	-2.7562	-3.0479	-2.8625	-2.9083	-3.1021	-2.5417	-2.9125	-2.8812	-2.6167	10.197	201.092	248.724	313.690	10.069	15.240	330.886	35.258	151.522	187.190	153.300	229.611	280.504	26.390	166.793	41.304	0.00034357	0.00059615	0.00010061	1166.7	4.3615e-06	4.4683e-06	1260.7	237.01	4.5019e-06	3.9174e-06	298.82	84.344	65.654	19.519	6.2549e-06	27.008	0.0006735	0.00072418	0.00020085	1155.8	7.7928e-06	8.1032e-06	1249.6	237.52	7.8437e-06	8.0464e-06	303.62	85.859	66.95	20.245	7.745e-06	27.985	299.994	70.487	108.875	5.208	242.428	142.452	5.179	12.947	245.277	152.490	12.611	19.700	19.012	26.811	153.046	26.249	-8191	255	
543.237	1	1	0	0	0.16204	0.19472	0.20982	0.2648	0.17568	0.23745	0.19151	0.0091042	0.18379	0.21249	0.078012	0.21905	0.12261	0.15341	0.26097	0.3269	-2.6417	-2.7792	-2.7208	-3.1854	-2.6708	-2.8417	-3.2771	-2.6729	-3.0771	-2.8229	-2.7042	-3.2188	-2.6333	-2.7667	-2.9104	-2.5771	319.463	13.862	201.325	-4.943	184.205	126.608	308.171	199.144	132.019	183.133	31.836	126.746	54.768	248.159	203.999	12.524	0.00027647	0.00053018	2.9011e-05	1167.7	1.7909e-06	1.956e-06	1264.8	235.72	5.5731e-06	5.8803e-06	301.21	84.434	65.634	19.598	6.3244e-06	27.121	0.00066337	0.00071619	0.00019989	1158.3	7.8691e-06	7.9504e-06	1251.5	237.28	7.8155e-06	7.9306e-06	304.76	86.039	67.023	20.262	7.7821e-06	28.08	261.310	77.094	61.470	5.378	166.098	-0.887	5.426	12.989	215.026	92.562	12.204	19.720	19.397	26.591	143.469	25.864	-8191	255	
543.333	1	1	0	0	0.11334	0.17279	0.20643	0.19242	0.20153	0.11013	0.25357	0.16771	0.12305	0.085383	0.078693	0.1937	0.020852	0.010968	0.20531	0.24572	-2.5333	-2.6729	-2.4917	-3.1292	-2.8167	-2.8125	-3.1083	-2.5812	-2.9688	-2.9	-2.6833	-2.9313	-2.6417	-2.8292	-2.9813	-2.575	217.474	256.185	293.930	284.853	327.851	37.099	277.320	328.534	61.910	186.049	228.180	335.071	73.398	202.472	233.645	353.741	0.00041949	0.00055627	8.5233e-05	1172.7	4.3569e-06	3.0686e-06	1270.9	235.46	7.4183e-06	2.1183e-06	301.26	84.647	65.663	19.546	4.2591e-06	26.852	0.0006736	0.00071502	0.00019973	1160.2	7.6757e-06	7.5549e-06	1254.4	237	7.5263e-06	7.6284e-06	303.87	85.721	66.809	20.221	7.3585e-06	27.899	308.190	41.774	118.975	5.133	213.480	162.730	5.619	13.336	212.721	138.169	12.505	19.226	19.526	26.594	163.508	25.632	-8191	255	
543.404	1	1	0	0	0.36081	0.23456	0.11999	0.12784	0.17466	0.17046	0.16312	0.26131	0.24673	0.11728	0.11782	0.072814	0.063969	0.037632	0.13165	0.092456	-2.6458	-2.6854	-2.6896	-3.3063	-2.8646	-2.7313	-3.2271	-2.725	-2.8729	-2.9125	-2.7229	-3.1979	-2.65	-2.7792	-2.9354	-2.625	315.099	279.046	46.900	206.847	60.260	295.372	296.539	323.810	99.553	274.059	261.896	249.652	7.986	147.253	340.189	128.189	0.00036123	0.00016776	0.00018839	1163.3	9.0904e-06	5.7942e-06	1260.4	236.42	8.075e-06	2.2978e-06	300.3	84.612	65.819	19.574	4.1401e-06	27.057	0.00063138	0.00068235	0.00019081	1154.6	7.4317e-06	7.6349e-06	1249.9	237.19	7.5949e-06	7.8488e-06	304.3	86.019	66.98	20.25	7.8328e-06	28.043	290.374	80.032	62.902	5.174	141.290	111.065	5.381	12.977	226.199	128.624	12.263	19.453	19.246	26.785	156.945	25.932	-8191	255	
543.501	1	1	0	0	0.17218	0.15931	0.11151	0.18232	0.17675	0.097195	0.11759	0.20539	0.20887	0.029293	0.19757	0.21115	0.31906	0.11389	0.089944	0.22849	-2.4583	-2.9062	-2.4083	-3.0646	-2.6833	-2.6646	-3.3833	-2.6458	-2.8187	-3.0229	-2.5542	-3.1542	-2.8417	-2.6542	-3.1292	-2.7938	136.537	196.643	201.501	316.307	247.687	348.062	299.872	350.547	190.993	170.340	294.172	197.574	340.365	1.165	175.297	301.903	0.00031687	0.00043774	3.9172e-05	1167.3	2.6028e-06	4.4792e-06	1262.8	236.68	6.1662e-06	1.0962e-06	303.64	84.535	65.654	19.618	5.3966e-06	26.991	0.00067411	0.00073204	0.00020552	1158.7	7.911e-06	7.9441e-06	1253.2	237.64	7.9102e-06	8.3026e-06	305.37	86.241	67.212	20.325	8.3116e-06	28.116	309.183	134.072	335.473	5.215	155.176	127.788	5.231	13.197	257.142	253.226	12.464	19.635	19.275	26.381	159.526	25.942	-8191	255	
543.621	1	1	0	0	0.1609	0.086574	0.038746	0.36909	0.11137	0.094272	0.21476	0.14043	0.29882	0.026045	0.19497	0.099453	0.13312	0.25358	0.12393	0.20427	-2.5438	-3.0208	-2.4917	-3.0563	-2.8688	-2.625	-3.1208	-2.7562	-2.7812	-3.1188	-2.5042	-3.1021	-2.8438	-2.6188	-3.0542	-2.6896	78.182	291.260	250.099	296.562	355.137	260.835	306.138	286.470	338.278	324.747	228.331	-4.572	74.461	327.370	114.910	144.990	0.00032138	0.0002972	6.0662e-05	1171.9	5.3885e-06	2.613e-06	1265.1	236.55	4.436e-06	1.7068e-06	303.63	84.506	65.613	19.415	6.8058e-06	27.209	0.00071081	0.0007532	0.0002138	1162.3	8.3985e-06	8.5279e-06	1253.3	237.86	8.5857e-06	8.6907e-06	305.94	86.292	67.186	20.361	8.8809e-06	28.314	279.603	108.536	180.981	5.134	221.441	164.594	5.185	13.126	260.725	156.515	12.219	19.496	19.415	26.433	128.742	26.216	-8191	255	
543.717	1	1	0	0	0.17442	0.20471	0.072556	0.3342	0.085927	0.33998	0.16438	0.085209	0.064885	0.085191	0.1352	0.1308	0.09871	0.3264	0.12252	0.17341	-2.2313	-3.0521	-2.6333	-3.0438	-2.7771	-2.5375	-3.1396	-2.6625	-2.5729	-3.1646	-2.725	-2.9979	-3.0687	-2.5083	-3.1146	-2.7792	287.672	225.085	297.874	303.579	341.919	18.422	331.127	174.122	195.791	41.073	219.969	317.749	189.443	338.328	9.008	257.423	0.00032182	0.00032333	9.1975e-05	1171.7	1.038e-05	4.0395e-06	1266.6	236.32	2.001e-06	5.0483e-06	301.89	83.89	65.704	19.68	1.0799e-05	27.158	0.00075137	0.00082621	0.00022979	1162	8.855e-06	9.0072e-06	1256.5	238.4	9.0164e-06	9.1731e-06	306.06	86.34	67.648	20.482	9.2235e-06	28.346	302.803	48.169	122.365	5.371	157.185	207.338	5.533	12.885	169.559	86.759	12.332	19.600	19.539	26.533	135.372	26.087	-8191	255	
543.813	1	1	0	0	0.027323	0.45492	0.15912	0.35145	0.14639	0.35086	0.19149	0.15408	0.26911	0.073812	0.13026	0.33935	0.18208	0.35916	0.074384	0.23074	-2.1771	-3.0667	-2.5667	-2.9854	-3.0417	-2.5021	-3.1813	-2.9	-2.6604	-3.2417	-2.8896	-2.9167	-2.9667	-2.7354	-3.1437	-2.9792	211.427	64.036	151.094	320.253	196.952	262.751	264.880	96.930	99.882	34.725	299.689	277.684	19.794	34.546	161.677	349.235	0.00054447	0.0002995	0.0001402	1170.3	5.1414e-06	2.9197e-06	1274.1	237.12	4.3633e-06	4.854e-06	302.77	84.959	65.754	19.567	9.0417e-06	27.161	0.00079226	0.00085464	0.00023589	1164.5	8.9253e-06	9.076e-06	1257.7	238.44	8.7261e-06	8.8e-06	305.92	86.235	67.374	20.396	8.4074e-06	28.162	303.348	87.925	92.487	5.231	310.291	92.298	5.492	12.956	265.257	136.264	12.257	19.639	19.873	26.029	116.923	25.717	-8191	255	
543.932	1	1	0	0	0.29723	0.27716	0.14985	0.19899	0.21464	0.10347	0.23463	0.2746	0.12783	0.15942	0.21742	0.22109	0.12769	0.21534	0.13902	0.1002	-2.3375	-3.1125	-2.6771	-3.1333	-3.0938	-2.4958	-3.2375	-2.8896	-2.5687	-2.9979	-2.6854	-2.6917	-3.2521	-2.675	-2.7396	-3.1208	43.876	79.904	221.148	295.974	4.172	28.641	288.088	13.733	281.339	53.012	341.587	298.747	35.029	325.028	64.889	97.179	0.00030476	0.00033002	0.00012945	1170.6	1.5046e-06	7.0321e-06	1267.3	236.08	6.068e-06	3.8435e-06	300.8	84.489	65.712	19.426	6.2612e-06	27.157	0.00071872	0.00077229	0.00021836	1159.8	8.412e-06	8.5195e-06	1253.3	237.96	8.4669e-06	8.753e-06	305.29	86.32	67.308	20.332	8.3954e-06	28.141	282.787	111.374	134.220	5.350	235.150	119.076	5.332	13.001	227.632	93.475	12.309	19.341	19.275	26.482	163.554	26.489	-8191	255	
544.004	1	1	0	0	0.18771	0.2091	0.13009	0.24644	0.14368	0.18448	0.15049	0.080099	0.15713	0.25616	0.20937	0.1007	0.19995	0.27752	0.17702	0.064343	-2.2021	-3.0479	-2.6646	-2.9167	-3.1333	-2.75	-3.0604	-3.0146	-2.4396	-3.125	-2.9188	-2.7125	-3.0563	-2.6396	-2.9729	-3.2542	100.000	298.706	171.064	263.818	182.214	109.283	191.080	168.869	239.620	73.019	260.366	255.546	263.441	-3.127	220.926	327.953	0.00031505	0.0006742	0.00017441	1165.4	7.2509e-06	4.9923e-06	1262.6	236.37	8.2622e-06	4.5765e-06	303.21	83.945	65.943	19.524	3.8219e-06	27.106	0.00073049	0.00076449	0.00021371	1158.4	8.2143e-06	8.2846e-06	1250.2	237.72	7.9907e-06	8.0361e-06	304.99	85.75	66.998	20.236	7.7763e-06	28.045	280.780	48.238	151.969	5.265	227.123	182.070	5.268	12.905	308.082	199.493	12.130	19.546	19.356	26.576	196.170	25.875	-8191	255	
544.100	1	1	0	0	0.17262	0.15752	0.21368	0.22207	0.061995	0.21874	0.1925	0.23463	0.26947	0.033417	0.13538	0.077436	0.21924	0.22241	0.183	0.12785	-2.3042	-2.9625	-2.9479	-2.8271	-3.2938	-2.5458	-3.0312	-3.1271	-2.7104	-3	-3.1063	-2.4646	-3.1354	-2.8187	-2.7938	-3.25	13.921	22.715	269.932	309.186	253.487	115.594	313.527	242.744	1.122	172.136	328.796	50.813	303.082	233.312	84.206	241.002	0.00032085	0.00066971	5.2076e-05	1169.6	4.1674e-07	2.3681e-06	1260.2	235.88	2.647e-06	6.9225e-06	299.96	84.24	65.439	19.38	3.6004e-06	27.095	0.00066295	0.0007049	0.00019707	1157.2	7.5407e-06	7.572e-06	1247.5	236.8	7.3166e-06	7.3231e-06	302.92	85.572	66.589	20.104	7.0166e-06	27.932	274.577	108.823	101.654	5.059	223.883	176.502	5.369	13.050	254.045	153.881	12.280	19.434	19.604	26.494	120.096	26.105	-8191	255	
#DATA ENDS
