BOXY.EXE: ISS Imagent and Oximeter Data Acquisition Program Version 0.80
Ascii Record File

#ACQ INFORMATION
2  Detector Channels 
16  External MUX Channels 
1  Auxiliary Channels 
5000  Waveform (CCF) Frequency (Hz)
1  Waveforms Skipped 
30  Waveforms Averaged 
1  Cycles Averaged 
16  Acquisitions per Waveform 
10.0806  Updata Rate (Hz) 

#FILE INFORMATION
TRUE -- External MUX Channel results are PARSED.
FALSE -- AC DC and Phase are NOT grouped.
TRUE -- Companion Program Settings File CREATED.
FALSE -- AC data not excluded
FALSE -- DC data not excluded
FALSE -- Phase data not excluded
FALSE -- Auxillary Chn. data not excluded
Tab delimiters

#CALIBRATION STATE
TRUE -- Waveform Calibration Values APPLIED.


#AUX CALIBRATION VALUES
Val Type	aux-1	

Term	1.0000e+00	
Factor	0.0000e+00	


#WF CALIBRATION VALUES
A = Detector Channel
Val Type	A-AC1	A-AC2	A-AC3	A-AC4	A-AC5	A-AC6	A-AC7	A-AC8	A-AC9	A-AC10	A-AC11	A-AC12	A-AC13	A-AC14	A-AC15	A-AC16	A-DC1	A-DC2	A-DC3	A-DC4	A-DC5	A-DC6	A-DC7	A-DC8	A-DC9	A-DC10	A-DC11	A-DC12	A-DC13	A-DC14	A-DC15	A-DC16	A-Ph1	A-Ph2	A-Ph3	A-Ph4	A-Ph5	A-Ph6	A-Ph7	A-Ph8	A-Ph9	A-Ph10	A-Ph11	A-Ph12	A-Ph13	A-Ph14	A-Ph15	A-Ph16	

Term	0.00000e+00	0.00000e+00	0.00000e+00	0.00000e+00	0.00000e+00	0.00000e+00	0.00000e+00	0.00000e+00	0.00000e+00	0.00000e+00	0.00000e+00	0.00000e+00	0.00000e+00	0.00000e+00	0.00000e+00	0.00000e+00	0.00000e+00	0.00000e+00	0.00000e+00	0.00000e+00	0.00000e+00	0.00000e+00	0.00000e+00	0.00000e+00	0.00000e+00	0.00000e+00	0.00000e+00	0.00000e+00	0.00000e+00	0.00000e+00	0.00000e+00	0.00000e+00	0.00000e+00	0.00000e+00	0.00000e+00	0.00000e+00	0.00000e+00	0.00000e+00	0.00000e+00	0.00000e+00	0.00000e+00	0.00000e+00	0.00000e+00	0.00000e+00	0.00000e+00	0.00000e+00	0.00000e+00	0.00000e+00	
Factor	1.00000e+00	1.00000e+00	1.00000e+00	1.00000e+00	1.00000e+00	1.00000e+00	1.00000e+00	1.00000e+00	1.00000e+00	1.00000e+00	1.00000e+00	1.00000e+00	1.00000e+00	1.00000e+00	1.00000e+00	1.00000e+00	1.00000e+00	1.00000e+00	1.00000e+00	1.00000e+00	1.00000e+00	1.00000e+00	1.00000e+00	1.00000e+00	1.00000e+00	1.00000e+00	1.00000e+00	1.00000e+00	1.00000e+00	1.00000e+00	1.00000e+00	1.00000e+00	X	X	X	X	X	X	X	X	X	X	X	X	X	X	X	X	

B = Detector Channel
Val Type	B-AC1	B-AC2	B-AC3	B-AC4	B-AC5	B-AC6	B-AC7	B-AC8	B-AC9	B-AC10	B-AC11	B-AC12	B-AC13	B-AC14	B-AC15	B-AC16	B-DC1	B-DC2	B-DC3	B-DC4	B-DC5	B-DC6	B-DC7	B-DC8	B-DC9	B-DC10	B-DC11	B-DC12	B-DC13	B-DC14	B-DC15	B-DC16	B-Ph1	B-Ph2	B-Ph3	B-Ph4	B-Ph5	B-Ph6	B-Ph7	B-Ph8	B-Ph9	B-Ph10	B-Ph11	B-Ph12	B-Ph13	B-Ph14	B-Ph15	B-Ph16	

Term	0.00000e+00	0.00000e+00	0.00000e+00	0.00000e+00	0.00000e+00	0.00000e+00	0.00000e+00	0.00000e+00	0.00000e+00	0.00000e+00	0.00000e+00	0.00000e+00	0.00000e+00	0.00000e+00	0.00000e+00	0.00000e+00	0.00000e+00	0.00000e+00	0.00000e+00	0.00000e+00	0.00000e+00	0.00000e+00	0.00000e+00	0.00000e+00	0.00000e+00	0.00000e+00	0.00000e+00	0.00000e+00	0.00000e+00	0.00000e+00	0.00000e+00	0.00000e+00	2.16202e+01	-1.27640e+02	-1.20072e+02	-1.81829e+02	-6.16250e+01	-7.02085e+01	-1.55860e+02	-1.62015e+02	-1.48752e+01	-5.71797e+01	-1.72273e+02	-1.70198e+02	-1.80175e+02	-1.76607e+02	-7.27239e+01	-1.49939e+02	
Factor	4.79762e-05	1.77696e-04	5.16229e-05	1.64818e-01	2.61545e-06	2.05122e-06	1.93509e-01	5.38336e-02	2.73419e-06	1.91366e-06	1.19766e-01	3.42918e-02	3.29175e-02	9.95306e-03	2.68039e-06	1.45024e-02	5.05911e-06	5.72559e-06	1.60112e-06	8.38037e-02	6.11931e-08	6.30998e-08	9.23443e-02	2.74153e-02	6.11160e-08	6.32174e-08	5.83758e-02	1.68713e-02	1.67443e-02	5.10467e-03	6.19901e-08	7.18827e-03	X	X	X	X	X	X	X	X	X	X	X	X	X	X	X	X	



#DISTANCE SETTINGS
A = Detector Channel
A-1	A-2	A-3	A-4	A-5	A-6	A-7	A-8	A-9	A-10	A-11	A-12	A-13	A-14	A-15	A-16	

2.5000e+00	3.0000e+00	2.5000e+00	3.0000e+00	2.0000e+00	3.0000e+00	1.5000e+00	3.0000e+00	3.0000e+00	3.0000e+00	3.0000e+00	3.0000e+00	3.0000e+00	3.0000e+00	1.5000e+00	3.0000e+00	

B = Detector Channel
B-1	B-2	B-3	B-4	B-5	B-6	B-7	B-8	B-9	B-10	B-11	B-12	B-13	B-14	B-15	B-16	

1.0000e+01	1.0000e+01	1.0000e+01	1.4400e+00	1.0000e+01	1.0000e+01	1.5100e+00	1.9400e+00	1.0000e+01	1.0000e+01	1.9900e+00	2.4900e+00	2.4100e+00	2.9000e+00	1.0000e+01	2.9800e+00	




#DATA BEGINS
time	group	step	mark	flag	A-AC1	A-AC2	A-AC3	A-AC4	A-AC5	A-AC6	A-AC7	A-AC8	A-AC9	A-AC10	A-AC11	A-AC12	A-AC13	A-AC14	A-AC15	A-AC16	A-DC1	A-DC2	A-DC3	A-DC4	A-DC5	A-DC6	A-DC7	A-DC8	A-DC9	A-DC10	A-DC11	A-DC12	A-DC13	A-DC14	A-DC15	A-DC16	A-Ph1	A-Ph2	A-Ph3	A-Ph4	A-Ph5	A-Ph6	A-Ph7	A-Ph8	A-Ph9	A-Ph10	A-Ph11	A-Ph12	A-Ph13	A-Ph14	A-Ph15	A-Ph16	B-AC1	B-AC2	B-AC3	B-AC4	B-AC5	B-AC6	B-AC7	B-AC8	B-AC9	B-AC10	B-AC11	B-AC12	B-AC13	B-AC14	B-AC15	B-AC16	B-DC1	B-DC2	B-DC3	B-DC4	B-DC5	B-DC6	B-DC7	B-DC8	B-DC9	B-DC10	B-DC11	B-DC12	B-DC13	B-DC14	B-DC15	B-DC16	B-Ph1	B-Ph2	B-Ph3	B-Ph4	B-Ph5	B-Ph6	B-Ph7	B-Ph8	B-Ph9	B-Ph10	B-Ph11	B-Ph12	B-Ph13	B-Ph14	B-Ph15	B-Ph16	aux-1	digaux	

635.814	1	1	0	256	0.26015	0.32922	0.12031	0.088427	0.26069	0.055337	0.29827	0.22018	0.26908	0.32178	0.14456	0.12859	0.067597	0.14641	0.074275	0.085129	-2.5896	-2.3479	-2.4688	-2.8	-2.3521	-2.8646	-2.5292	-2.5563	-2.6958	-2.4417	-2.8958	-2.7313	-2.3708	-2.9854	-2.6417	-2.5646	62.227	183.708	318.889	259.723	231.179	11.776	297.147	219.873	51.521	275.106	172.148	245.524	252.215	266.651	143.407	182.250	0.00033216	0.00015309	4.9217e-05	1097.6	4.5458e-06	2.9955e-06	1203.3	221.27	1.0144e-06	1.5722e-06	284.84	80.457	59.901	18.331	3.0829e-06	25.95	0.00027495	0.00027305	7.8191e-05	1082	3.034e-06	2.9857e-06	1186.5	220.73	2.9995e-06	3.0197e-06	284.51	80.655	60.157	18.682	3.0223e-06	26.48	296.464	83.784	81.458	6.237	230.994	117.831	6.132	13.869	253.968	177.799	13.467	20.528	19.855	27.693	138.176	26.904	-8191	255	
635.910	1	1	0	0	0.032651	0.11129	0.25213	0.026726	0.22648	0.021822	0.12277	0.23815	0.32694	0.22645	0.16165	0.0011793	0.18387	0.29006	0.086119	0.032706	-2.5792	-2.5146	-2.6604	-2.7938	-2.3354	-2.8354	-2.8833	-2.6188	-3.0458	-2.5771	-2.7292	-3	-2.3	-2.7313	-2.5458	-2.3917	115.274	244.653	121.500	214.282	279.465	249.973	244.002	321.274	81.761	143.290	-4.038	180.000	242.565	2.988	61.556	157.014	0.00036691	0.00038085	2.4539e-05	1093.4	4.6876e-06	1.9575e-06	1204.7	222.1	3.0935e-06	2.962e-06	287.22	80.127	59.903	18.331	5.0033e-06	26.333	0.00027186	0.00027208	7.5196e-05	1080.7	3.0237e-06	2.9015e-06	1187.4	221.01	2.8739e-06	2.9018e-06	285.24	80.666	60.213	18.631	2.8478e-06	26.548	286.551	85.153	148.391	6.224	185.153	128.319	6.185	13.944	262.448	164.702	13.584	20.353	20.146	27.695	164.628	27.091	-8191	255	
636.006	1	1	0	0	0.42943	0.15789	0.18835	0.11848	0.034128	0.25241	0.2817	0.31618	0.19866	0.19475	0.11643	0.10675	0.20054	0.035133	0.49043	0.22854	-2.4688	-2.4792	-2.5333	-3.0167	-2.2188	-2.6771	-2.8438	-2.4292	-2.8521	-2.5083	-2.575	-2.8333	-2.6771	-2.7333	-2.7479	-2.4521	200.415	289.026	107.293	335.056	329.224	302.455	316.851	267.305	290.989	130.265	174.703	61.309	62.834	162.192	166.424	163.262	0.00036392	0.00038092	7.6476e-05	1093.3	5.0744e-06	2.3584e-06	1202.4	221.52	7.3839e-06	2.9014e-06	286.25	80.44	60.38	18.537	2.9638e-06	26.188	0.00027072	0.00026743	7.2234e-05	1080.4	2.9202e-06	2.9236e-06	1188	220.56	2.9401e-06	2.9599e-06	285.12	80.818	60.241	18.73	2.8794e-06	26.508	286.931	92.693	63.565	6.256	184.973	158.725	6.117	14.100	222.488	166.942	13.361	20.516	19.775	27.797	196.950	26.796	-8191	255	
636.102	1	1	0	0	0.18141	0.12435	0.1236	0.25357	0.1999	0.11972	0.28998	0.18226	0.13799	0.15891	0.27155	0.050497	0.052802	0.04292	0.18483	0.1426	-2.6312	-2.3521	-2.3063	-2.9875	-2.3271	-2.5479	-2.8354	-2.4479	-2.6417	-2.5417	-2.3542	-3.0667	-2.3396	-2.6937	-2.9521	-2.4792	92.144	38.800	259.376	288.452	89.877	200.185	257.430	268.370	223.082	288.794	102.848	35.462	338.405	205.192	170.582	299.429	0.00031612	0.00040682	0.00010091	1094.2	1.8993e-06	4.0289e-06	1204.5	221.59	5.143e-06	7.6495e-07	286.06	80.062	60.175	18.262	5.4472e-06	25.848	0.0002835	0.00027479	7.651e-05	1079.5	2.9493e-06	2.9725e-06	1186.1	220.61	2.9325e-06	2.9508e-06	285.05	80.664	60.167	18.662	2.99e-06	26.448	279.904	116.722	151.684	6.096	200.140	132.557	6.310	13.891	211.278	90.604	13.379	20.478	20.093	27.680	140.385	26.698	-8191	255	
636.198	1	1	0	0	0.15929	0.29198	0.040694	0.12229	0.17414	0.34282	0.1479	0.060436	0.21528	0.20719	0.10743	0.13552	0.29553	0.11601	0.20052	0.12013	-2.3458	-2.6937	-2.5292	-2.9437	-2.275	-2.5729	-3.0333	-2.5833	-2.7875	-2.6229	-2.5271	-2.8063	-2.4146	-2.6188	-2.975	-2.5271	258.397	183.648	6.187	307.929	343.314	48.049	353.248	176.176	39.662	-3.911	51.940	0.805	286.245	124.161	206.800	248.636	0.00040799	0.00014918	6.4257e-05	1097.3	3.3081e-06	8.743e-08	1201.7	222.39	2.6888e-06	3.4857e-06	286.09	79.804	60.406	18.309	2.41e-06	26.118	0.00027929	0.00027393	7.694e-05	1080	3.0609e-06	3.0477e-06	1186.6	220.87	2.9771e-06	2.9446e-06	285.03	80.605	60.003	18.639	2.9719e-06	26.53	284.482	86.115	8.276	6.090	163.551	65.018	6.162	14.042	235.567	133.422	13.144	20.686	19.571	27.407	174.943	27.367	-8191	255	
636.294	1	1	0	0	0.2946	0.14884	0.052352	0.043055	0.094786	0.15448	0.14954	0.30187	0.013589	0.17873	0.23404	0.13635	0.17124	0.28059	0.23556	0.16538	-2.3417	-2.6625	-2.4146	-2.9437	-2.6813	-2.6125	-3.0833	-2.3354	-2.7146	-2.7938	-2.5438	-3.0396	-2.4646	-2.6229	-2.9083	-2.2062	327.793	185.013	126.930	211.216	113.602	-3.665	328.997	16.892	53.906	312.298	328.473	165.570	261.472	344.409	71.787	144.296	0.00033604	0.00024378	0.00010026	1094.7	4.7568e-06	5.1458e-06	1203.2	220.96	2.9101e-06	2.328e-06	285.64	80.28	59.962	18.377	4.7608e-06	25.903	0.00028125	0.00028055	7.6437e-05	1078	3.1446e-06	3.0331e-06	1185.8	220.5	3.0149e-06	3.0246e-06	284.58	80.762	60.093	18.682	2.9789e-06	26.385	271.935	85.131	17.468	6.273	161.492	179.849	6.280	14.046	222.633	95.331	13.227	20.369	19.703	27.349	121.824	27.522	-8191	255	
636.390	1	1	0	0	0.17069	0.17005	0.070172	0.17121	0.25901	0.26931	0.2293	0.30641	0.13286	0.11465	0.13805	0.13367	0.05811	0.1066	0.16992	0.040974	-2.3104	-2.7042	-2.4729	-2.8354	-2.5667	-2.3563	-3.1042	-2.7354	-2.5167	-2.8229	-2.3625	-2.8771	-2.6104	-2.3563	-2.775	-2.4208	242.825	249.413	322.649	-2.290	272.621	343.853	321.206	257.449	17.851	224.521	116.602	237.490	317.005	225.900	108.051	269.772	0.00030903	0.00022349	9.1522e-05	1091.3	4.5478e-06	2.3613e-06	1205.3	221.28	9.2139e-06	1.7291e-06	286.53	80.345	60.041	18.252	2.1071e-06	25.945	0.00028865	0.00028123	7.8511e-05	1079	3.1813e-06	3.0922e-06	1186	220.61	3.0842e-06	3.0368e-06	284.51	80.685	60.042	18.642	2.9622e-06	26.51	300.197	53.793	136.033	6.058	190.342	133.047	6.421	13.962	217.723	176.648	13.146	20.401	19.506	27.677	134.175	27.391	-8191	255	
636.511	1	1	0	0	0.14103	0.23752	0.16411	0.2658	0.18359	0.14151	0.081606	0.36556	0.10928	0.038378	0.11961	0.27369	0.13239	0.3751	0.19708	0.080534	-2.3833	-2.8417	-2.5	-2.85	-2.7562	-2.4813	-3.1104	-2.5125	-2.5375	-2.9354	-2.5375	-2.775	-2.7667	-2.4104	-2.6083	-2.7042	208.234	6.796	353.414	317.516	223.401	216.739	311.103	355.524	76.287	126.044	195.191	299.625	0.474	48.222	248.085	135.702	0.00035265	0.00039216	9.2563e-05	1093.9	1.8642e-06	2.308e-06	1200.6	221.87	1.1036e-06	3.7688e-06	287.01	80.655	60.489	18.349	2.8485e-06	26.03	0.00028657	0.00027012	7.8151e-05	1079.4	2.9867e-06	2.9951e-06	1185.3	220.76	2.9322e-06	2.9682e-06	284.93	80.66	60.006	18.65	2.9613e-06	26.43	285.865	64.664	98.130	6.101	81.985	144.495	6.119	14.032	337.969	129.339	13.551	20.761	19.919	27.572	121.324	26.835	-8191	255	
636.605	1	1	0	0	0.25253	0.21744	0.14116	0.14822	0.10382	0.066488	0.16079	0.12231	0.32856	0.028057	0.20917	0.14079	0.17799	0.1018	0.20309	0.26489	-2.1	-2.7271	-2.4229	-2.8146	-2.6875	-2.3875	-3.075	-2.4979	-2.3771	-2.775	-2.4667	-2.8187	-2.8438	-2.2812	-2.7188	-2.6042	333.634	216.581	282.705	282.073	56.426	340.572	276.815	53.371	230.663	272.880	321.221	279.850	6.339	250.973	67.829	312.757	0.0004118	0.00053106	0.00010115	1092.1	7.3913e-06	6.0863e-06	1203.5	221.06	1.8339e-06	2.7883e-06	287.64	79.887	60.39	18.247	5.0627e-06	25.845	0.00028414	0.00027473	7.8975e-05	1079.3	3.1017e-06	3.0986e-06	1185.5	220.66	3.0912e-06	2.971e-06	285.28	80.408	60.157	18.631	3.0179e-06	26.415	279.648	104.893	94.024	6.027	194.746	145.174	6.212	13.969	316.468	130.068	13.523	20.485	19.881	27.439	94.765	27.159	-8191	255	
636.702	1	1	0	0	0.040186	0.16849	0.26862	0.26306	0.062211	0.22981	0.25408	0.15003	0.11042	0.19274	0.15842	0.26873	0.26275	0.15062	0.073738	0.30128	-1.8896	-2.9167	-2.4771	-2.775	-2.9479	-2.4396	-2.9125	-2.8396	-2.3521	-2.8625	-2.4313	-2.6146	-2.8333	-2.4354	-2.6688	-2.9313	283.120	314.927	216.086	349.993	41.949	165.525	289.277	39.155	123.935	329.050	47.756	82.875	25.374	228.416	89.330	288.607	0.00028886	0.00039881	4.9512e-05	1090.3	5.2691e-06	1.5034e-06	1202.9	221.58	3.7429e-06	1.8071e-06	286.14	80.076	60.499	18.287	1.3039e-06	25.916	0.00026687	0.00027437	7.4762e-05	1077.7	2.9458e-06	3.0059e-06	1184	220.54	3.0469e-06	2.9706e-06	284.78	80.569	60.21	18.631	2.9779e-06	26.411	292.793	93.508	37.295	5.926	156.148	114.784	6.424	14.110	206.133	136.940	13.669	20.574	20.007	27.812	43.872	27.136	-8191	255	
636.798	1	1	0	0	0.092251	0.075969	0.080919	0.0163	0.22416	0.19881	0.24049	0.16319	0.22849	0.1479	0.14976	0.16959	0.24317	0.050987	0.1015	0.15554	-1.8979	-2.8937	-2.45	-2.7417	-2.9	-2.2354	-3.1104	-2.9104	-2.3208	-2.8	-2.625	-2.5854	-2.9604	-2.4417	-2.65	-2.9646	200.385	288.008	26.525	240.520	74.375	25.844	132.812	46.575	29.607	307.042	231.289	266.085	31.765	11.277	85.974	349.256	0.00044451	0.00012112	0.00012373	1091.9	7.673e-06	6.7248e-06	1200.6	220.98	2.5671e-06	1.1531e-06	287.44	79.925	60.371	18.228	3.8413e-06	25.963	0.00028638	0.00027746	7.7984e-05	1078.6	3.0932e-06	3.0632e-06	1185.2	220.1	3.0563e-06	3.0279e-06	284.77	80.267	60.078	18.573	2.9683e-06	26.408	285.639	116.444	104.712	6.378	188.636	105.921	6.314	14.209	235.593	100.629	13.324	20.663	19.538	28.161	168.225	27.165	-8191	255	
636.894	1	1	0	0	0.10157	0.095964	0.23329	0.17557	0.26059	0.20273	0.14319	0.19899	0.11328	0.16622	0.1567	0.1896	0.19617	0.13056	0.28953	0.26845	-1.8312	-2.6771	-2.6458	-2.6104	-2.9021	-2.5062	-2.9583	-2.7771	-2.2375	-2.7667	-2.6979	-2.5229	-2.8521	-2.4979	-2.525	-2.8479	73.513	324.714	90.671	355.952	224.530	200.370	323.400	304.749	230.815	109.314	339.865	316.887	8.813	30.203	244.493	320.016	0.00036492	0.00018202	0.00011761	1088.3	6.3477e-06	3.413e-06	1202.3	220.74	6.6842e-06	2.3458e-06	286.28	80.114	59.813	18.336	5.9275e-06	25.906	0.00027835	0.00027146	7.586e-05	1074	2.9983e-06	3.0266e-06	1182.3	220.39	2.9995e-06	2.9816e-06	284.67	80.34	59.751	18.64	3.0737e-06	26.346	282.786	79.866	73.648	6.128	147.088	105.201	6.327	14.049	250.335	134.750	13.644	20.637	19.996	27.649	137.720	27.296	-8191	255	
636.990	1	1	0	0	0.0584	0.19912	0.094386	0.22239	0.11356	0.10399	0.28073	0.31442	0.40279	0.022552	0.088352	0.26262	0.10836	0.092091	0.2016	0.13516	-1.8771	-2.7417	-2.7729	-2.4271	-2.8479	-2.6021	-2.7812	-2.9083	-2.5417	-2.6875	-2.9271	-2.4604	-3.0375	-2.6771	-2.6604	-3.0438	89.337	329.253	79.753	253.017	315.529	336.865	339.803	283.956	130.086	52.137	267.688	45.992	301.161	139.127	351.895	301.575	0.00035705	0.00034977	0.0001371	1086.3	4.6507e-06	3.3746e-06	1205.7	221.3	6.617e-06	4.2305e-06	286.49	79.909	59.428	18.337	3.8413e-06	26.111	0.00028236	0.00028204	8.0209e-05	1076.3	3.1363e-06	3.0844e-06	1186.5	220.22	3.1191e-06	3.0463e-06	284.5	80.546	59.967	18.66	3.0996e-06	26.499	293.236	90.593	69.962	6.148	144.342	134.438	6.191	13.543	227.085	84.918	13.420	20.357	19.885	27.458	147.921	27.240	-8191	255	
637.111	1	1	0	0	0.079663	0.19867	0.17988	0.30752	0.070256	0.12881	0.15448	0.10498	0.12821	0.10315	0.33294	0.045463	0.17552	0.25632	0.12144	0.088438	-2.0792	-2.7062	-2.7854	-2.5479	-2.875	-2.5583	-2.8167	-2.7146	-2.3667	-2.8	-2.8063	-2.2667	-2.6875	-2.5771	-2.4833	-2.9562	71.284	12.039	12.546	24.719	100.132	167.513	295.818	326.186	134.515	306.146	207.615	181.467	253.695	282.121	287.626	343.402	0.00034884	0.00011672	0.00010397	1092.6	4.5958e-06	2.3589e-06	1200.5	221.26	5.1021e-06	3.2513e-06	286.96	80.081	59.878	18.259	5.3106e-06	25.981	0.00028368	0.00028567	7.7151e-05	1078.8	3.0882e-06	3.0907e-06	1184.5	220.45	3.2119e-06	3.1331e-06	285.04	80.522	59.809	18.593	3.2292e-06	26.405	298.345	-3.586	121.496	6.303	236.765	134.830	6.202	13.868	236.049	157.004	13.234	20.663	19.691	27.670	105.217	26.928	-8191	255	
637.207	1	1	0	0	0.023257	0.21988	0.17901	0.25112	0.12921	0.13857	0.17155	0.20111	0.11542	0.096864	0.19232	0.077356	0.209	0.23676	0.28068	0.10616	-1.9229	-2.6292	-2.8083	-2.5792	-2.7167	-2.5812	-2.5208	-2.9458	-2.3708	-2.6208	-2.9146	-2.4917	-2.8833	-2.65	-2.4625	-3.0083	83.568	20.309	19.941	301.084	55.737	117.675	287.128	319.509	351.561	154.818	328.791	97.315	325.239	321.580	303.571	176.425	0.00032604	9.533e-05	0.0001049	1094.4	1.9406e-06	4.0589e-06	1200.8	220.99	5.5648e-06	4.2847e-06	286.7	80.21	60.152	18.264	5.5139e-06	25.926	0.00029871	0.00030068	8.3395e-05	1079.5	3.2763e-06	3.3655e-06	1186.4	220.71	3.2716e-06	3.2342e-06	284.47	80.539	60.142	18.646	3.2728e-06	26.441	288.483	305.124	72.475	6.131	222.132	208.996	6.393	13.950	318.113	170.821	13.341	19.970	19.680	27.532	141.462	26.971	-8191	255	
637.303	1	1	0	0	0.068458	0.11863	0.1204	0.31644	0.22675	0.2261	0.14176	0.25581	0.077062	0.076318	0.095721	0.17586	0.047939	0.16768	0.14523	0.1011	-2.3438	-2.5458	-2.9208	-2.5125	-2.9896	-2.8563	-2.4188	-3.0854	-2.6958	-2.6042	-2.9604	-2.3583	-2.7208	-2.8271	-2.2604	-3.0187	299.476	306.611	244.775	310.295	90.686	78.303	315.717	323.885	60.360	206.586	197.800	163.300	240.234	192.903	297.483	145.702	0.00035835	0.0003393	6.8009e-05	1094.5	2.8202e-06	3.6517e-06	1200.4	221.52	3.4801e-06	4.508e-06	285.7	79.995	59.75	18.27	5.667e-06	25.966	0.00029625	0.00029556	8.0846e-05	1079.8	3.2747e-06	3.1977e-06	1185.4	220.66	3.2412e-06	3.1975e-06	284.18	80.525	59.843	18.637	3.1906e-06	26.4	293.570	37.807	20.457	6.045	196.816	143.163	6.222	14.181	210.330	165.888	13.179	20.123	19.936	27.655	240.715	26.996	-8191	255	
637.375	1	1	0	0	0.22836	0.13741	0.23818	0.27151	0.17247	0.11145	0.21393	0.14509	0.15491	0.17467	0.11231	0.24618	0.064333	0.21379	0.13916	0.035643	-2.3708	-2.5792	-2.9437	-2.6271	-2.6396	-2.8167	-2.4958	-2.6979	-2.6646	-2.5708	-2.9708	-2.4396	-2.7625	-2.9583	-2.5354	-2.7646	249.262	199.569	320.420	288.031	295.755	193.815	245.449	264.813	23.905	306.535	59.199	20.835	125.573	12.059	19.753	-0.464	0.00036587	3.98e-06	8.9562e-05	1095.4	5.8626e-06	5.0912e-07	1204.7	221.29	2.416e-06	2.4884e-06	284.32	80.046	59.798	18.219	3.9146e-06	26.007	0.00029003	0.00029031	7.9569e-05	1081.1	3.1071e-06	3.1174e-06	1186.6	220.14	3.1085e-06	3.0583e-06	284.11	80.513	59.983	18.608	3.0924e-06	26.348	285.579	11.888	135.028	6.106	100.803	285.029	6.417	14.089	214.343	169.642	13.347	20.597	19.871	27.346	107.855	26.952	-8191	255	
637.494	1	1	0	0	0.12892	0.15471	0.11594	0.20958	0.15743	0.15818	0.3651	0.098053	0.08759	0.12371	0.048725	0.14967	0.1614	0.14099	0.14409	0.036409	-2.1604	-2.2771	-2.825	-2.6979	-2.5854	-2.9688	-2.3896	-2.8875	-2.7062	-2.5479	-3.0812	-2.7417	-2.5146	-2.9437	-2.2812	-2.7125	50.090	153.767	170.871	349.275	256.355	36.928	256.898	336.358	205.106	286.176	136.990	337.622	341.913	199.123	8.163	275.957	0.00035237	0.00033436	8.9746e-05	1096.7	9.0046e-06	1.577e-06	1203.7	220.99	3.2407e-06	6.0006e-06	285.15	79.8	59.649	18.235	5.7185e-06	25.927	0.00028331	0.0002799	7.6734e-05	1079.5	3.0901e-06	2.9533e-06	1184.1	220.25	3.1155e-06	3.0228e-06	284.25	80.377	59.776	18.573	2.9651e-06	26.337	298.016	63.794	79.964	6.310	152.292	237.297	6.555	13.915	173.779	180.221	13.623	20.452	19.748	27.724	171.284	27.089	-8191	255	
637.590	1	1	0	0	0.073918	0.12349	0.16091	0.31009	0.29095	0.072443	0.2422	0.12559	0.02551	0.17357	0.12156	0.094835	0.29986	0.10903	0.11326	0.13595	-2.3292	-2.3125	-2.8333	-2.575	-2.5521	-2.9813	-2.6688	-2.925	-2.7938	-2.4917	-2.9521	-2.6125	-2.4271	-2.825	-2.4104	-2.7958	327.132	102.455	284.631	339.725	343.846	120.885	342.039	158.785	76.703	331.029	160.337	256.361	303.108	254.604	355.045	64.104	0.00034614	0.00023604	2.4075e-05	1092.6	3.0618e-06	1.6361e-06	1202.5	221.36	4.2058e-06	5.4227e-06	287.15	79.805	59.627	18.167	1.1006e-06	25.715	0.00027889	0.00027446	7.6106e-05	1077.8	3.1317e-06	3.0413e-06	1185	220.18	3.0438e-06	3.0085e-06	284.97	80.229	59.686	18.502	2.9212e-06	26.227	292.827	130.334	218.813	6.010	255.095	77.269	6.085	13.883	242.204	160.248	13.479	20.527	19.875	27.673	18.439	27.407	-8191	255	
637.686	1	1	0	0	0.18589	0.16073	0.23045	0.072491	0.25188	0.15601	0.28561	0.13418	0.25835	0.16595	0.095056	0.11297	0.075982	0.13442	0.19919	0.097535	-2.3563	-2.2417	-2.8208	-2.8063	-2.3625	-2.8375	-2.6354	-2.6125	-2.8354	-2.2917	-2.7396	-2.5104	-2.4188	-3.0542	-2.4396	-2.5208	331.103	268.358	287.086	145.877	231.732	59.155	167.726	311.396	14.089	227.359	15.047	304.989	340.888	54.557	8.811	-1.956	0.00047244	0.00022715	6.1907e-05	1091.7	4.5748e-06	3.148e-06	1200.4	221.51	2.1676e-06	3.6286e-06	284.89	80.088	60.039	18.151	3.592e-06	25.862	0.00026996	0.00026911	7.2934e-05	1077.4	3.0031e-06	2.9574e-06	1183.8	220.41	2.992e-06	3.0181e-06	283.98	80.25	59.8	18.526	3.0671e-06	26.329	297.078	123.187	120.187	6.035	154.662	163.162	6.257	13.838	269.797	144.115	13.380	20.402	19.996	27.551	190.849	27.472	-8191	255	
637.782	1	1	0	0	0.23057	0.1018	0.20657	0.23364	0.11338	0.041461	0.29918	0.23565	0.02198	0.063409	0.11994	0.19973	0.088971	0.17732	0.020997	0.10459	-2.5438	-2.5021	-2.7167	-2.8333	-2.3271	-2.9729	-2.7	-2.5396	-2.8187	-2.5208	-2.7229	-2.775	-2.2479	-2.9146	-2.5854	-2.4938	253.983	61.897	349.140	350.363	67.444	184.573	350.430	317.868	46.575	249.337	300.137	9.200	291.631	105.678	321.156	309.435	0.0003804	0.00016037	0.00016917	1092.3	2.3015e-06	3.26e-06	1200.9	220.71	2.5145e-06	3.137e-06	285.96	79.864	59.994	18.111	6.8887e-06	25.766	0.00027914	0.00028767	7.7958e-05	1078.5	3.0849e-06	3.0223e-06	1183.7	220.06	3.0937e-06	3.1077e-06	284.17	80.316	59.945	18.536	3.0946e-06	26.305	287.793	128.560	113.480	6.085	234.719	118.433	6.423	13.935	218.405	143.756	13.416	20.544	19.785	27.954	134.066	27.032	-8191	255	
637.903	1	1	0	0	0.22968	0.083493	0.14848	0.35584	0.2696	0.055026	0.085177	0.25038	0.41604	0.050268	0.1656	0.21807	0.16357	0.074357	0.08914	0.1668	-2.2604	-2.3937	-2.4437	-2.975	-2.2729	-2.8646	-2.8312	-2.2562	-2.8771	-2.5125	-2.8146	-2.8542	-2.5	-2.8812	-2.5354	-2.5729	2.160	196.232	185.014	337.139	318.010	170.884	213.530	224.948	124.751	154.101	181.059	309.008	209.701	66.592	245.050	332.947	0.00036916	0.00021633	0.00016726	1091.3	4.1092e-06	2.4582e-06	1198.5	220.41	3.703e-06	3.698e-06	285.38	79.478	60.27	18.234	2.5645e-06	25.846	0.00027923	0.00028345	7.6867e-05	1077.6	3.1168e-06	3.1133e-06	1184.5	219.65	3.0717e-06	3.1103e-06	283.9	80.222	59.91	18.554	3.0927e-06	26.258	294.811	126.959	126.723	5.897	209.367	117.433	6.249	13.794	217.814	141.035	13.011	20.553	19.988	27.389	203.656	27.831	-8191	255	
637.999	1	1	0	0	0.077138	0.25185	0.22553	0.32518	0.14433	0.073088	0.39488	0.25371	0.3391	0.10814	0.1363	0.17087	0.22895	0.15868	0.085985	0.18177	-2.3104	-2.3604	-2.6333	-2.9625	-2.2979	-2.875	-2.9292	-2.3667	-3.0062	-2.4792	-2.9313	-3.0479	-2.575	-2.7729	-2.6958	-2.4458	347.300	291.733	113.131	322.237	76.410	52.410	272.731	129.880	211.859	254.476	108.513	-1.721	8.465	67.166	342.424	78.422	0.00037222	0.00018142	1.5346e-05	1094.7	4.7275e-06	3.0055e-06	1199.1	220.91	4.6e-06	2.5175e-06	285.29	79.857	59.724	18.082	1.0419e-05	25.968	0.00027972	0.00027461	7.6173e-05	1078.3	3.054e-06	3.0531e-06	1184.1	220.07	3.1643e-06	3.1369e-06	284.05	80.382	59.772	18.527	3.1187e-06	26.359	290.154	87.483	126.690	6.004	197.803	129.469	6.218	14.044	252.891	109.407	13.398	20.398	19.994	27.616	149.035	27.165	-8191	255	
638.070	1	1	0	0	0.17055	0.073464	0.02451	0.26532	0.079043	0.10126	0.13408	0.20905	0.13707	0.17293	0.10022	0.2552	0.14131	0.21671	0.14572	0.25826	-2.4875	-2.4792	-2.4917	-3.2875	-2.4667	-2.675	-2.8792	-2.3688	-2.8604	-2.7229	-2.5396	-2.95	-2.5187	-2.6125	-2.7125	-2.3146	92.991	232.532	300.346	298.991	47.331	147.251	327.267	51.521	291.931	325.508	293.572	341.074	217.932	-3.974	290.345	335.178	0.00033379	0.00023426	0.00012128	1091.9	6.4827e-06	2.4429e-06	1199.7	220.5	8.3313e-06	1.4886e-06	286.12	80.025	59.988	18.316	7.4187e-06	25.891	0.00028777	0.00029848	8.3021e-05	1077.1	3.3348e-06	3.2959e-06	1185.4	220.11	3.4509e-06	3.3882e-06	284.38	80.439	59.959	18.576	3.1558e-06	26.261	290.861	106.693	92.908	6.210	188.998	171.651	6.322	14.007	207.121	341.554	13.324	20.843	19.605	27.889	184.731	27.463	-8191	255	
638.191	1	1	0	0	0.29493	0.053034	0.092657	0.1371	0.071937	0.2115	0.15909	0.14528	0.12868	0.050855	0.25469	0.13843	0.21708	0.092652	0.05356	0.085225	-2.4896	-2.5021	-2.5667	-3.1312	-2.4604	-2.6417	-2.9542	-2.5979	-2.8	-2.6396	-2.5771	-2.8729	-2.4854	-2.6208	-2.9896	-2.5625	62.093	102.215	97.467	13.682	76.519	34.071	320.505	339.782	278.862	270.711	235.814	341.784	295.776	205.593	105.352	6.482	0.00038911	8.5541e-05	4.5044e-05	1093.8	6.0021e-06	2.1986e-06	1201.8	221.35	4.8116e-06	8.8386e-07	284.99	79.668	60.124	18.152	4.1212e-06	25.74	0.0002986	0.00029647	8.2945e-05	1079.5	3.2867e-06	3.2809e-06	1184.7	220.57	3.2593e-06	3.3226e-06	284.37	80.411	60.109	18.592	3.2408e-06	26.34	292.373	246.697	49.447	6.120	139.556	172.736	6.265	14.045	252.600	288.464	13.449	20.641	19.299	27.721	115.212	27.388	-8191	255	
638.287	1	1	0	0	0.2457	0.13774	0.1005	0.19948	0.091917	0.35537	0.25499	0.28671	0.0051866	0.14496	0.087732	0.18946	0.10666	0.20683	0.13813	0.20528	-2.3896	-2.8146	-2.4854	-2.9354	-2.5354	-2.4458	-2.9458	-2.3667	-2.5917	-2.6667	-2.4521	-2.9042	-2.5687	-2.6458	-2.9667	-2.3896	71.262	34.104	313.634	340.307	33.343	60.748	133.576	265.670	133.007	34.496	187.979	355.248	237.189	169.989	55.131	33.567	0.00041693	0.00030054	0.00011652	1095.2	3.7742e-06	4.8196e-06	1201.8	220.28	3.9205e-06	2.9508e-06	284.11	79.926	59.779	18.26	7.6699e-06	25.864	0.0003032	0.00030035	8.4342e-05	1079.8	3.3469e-06	3.3201e-06	1185.6	219.84	3.2985e-06	3.3271e-06	284.63	80.268	59.82	18.592	3.3103e-06	26.391	289.654	107.612	85.251	6.080	224.713	173.885	6.319	13.968	292.292	180.354	13.610	20.586	19.789	27.748	155.191	27.018	-8191	255	
638.383	1	1	0	0	0.28509	0.25878	0.079393	0.16566	0.2794	0.23257	0.15888	0.12335	0.099311	0.29391	0.12685	0.12301	0.11898	0.16274	0.14996	0.20509	-2.3792	-2.6646	-2.4146	-2.8937	-2.6354	-2.5625	-2.9354	-2.4667	-2.4729	-2.8688	-2.3458	-2.7687	-2.7188	-2.3854	-2.95	-2.5146	255.669	209.900	81.911	329.514	260.464	242.196	182.336	186.632	315.392	2.808	35.582	19.355	281.070	15.487	250.829	344.178	0.00038009	0.00029349	0.00010612	1091.6	4.8149e-06	3.6866e-06	1204.2	221.91	5.3608e-06	4.5974e-06	285.32	80.532	59.742	18.067	1.1036e-06	25.846	0.00031255	0.00029911	8.5463e-05	1078.9	3.4086e-06	3.3114e-06	1186.8	220.47	3.3457e-06	3.3334e-06	284.79	80.592	59.94	18.565	3.3555e-06	26.345	286.851	123.405	63.362	6.044	188.490	146.643	6.098	13.933	216.135	95.799	13.320	20.487	19.695	27.634	170.439	27.140	-8191	255	
638.502	1	1	0	0	0.17291	0.12099	0.2127	0.042923	0.16691	0.045248	0.19387	0.3358	0.11145	0.17727	0.26217	0.16056	0.14003	0.049992	0.27402	0.20312	-2.1625	-2.7604	-2.4771	-2.8042	-2.6312	-2.4729	-2.9458	-2.5271	-2.7146	-2.7979	-2.275	-2.7542	-2.7021	-2.3583	-2.8583	-2.5917	157.255	185.206	41.650	24.947	250.461	180.893	260.500	9.993	334.322	71.591	344.686	228.932	53.989	19.380	194.749	7.602	0.00039939	0.00032855	4.7078e-05	1091	4.3273e-06	3.7129e-06	1200.7	220.71	5.7201e-06	3.2898e-06	284.44	79.423	60.155	18.242	4.1131e-06	25.961	0.00030899	0.00030591	8.4886e-05	1078.6	3.3371e-06	3.3021e-06	1185.7	220.07	3.3826e-06	3.2071e-06	284.35	80.313	59.965	18.569	3.1676e-06	26.315	289.377	120.574	87.871	6.258	154.119	101.599	6.123	13.698	249.147	142.960	13.239	20.388	19.704	27.572	166.744	27.078	-8191	255	
638.598	1	1	0	0	0.33865	0.11203	0.10945	0.12377	0.057624	0.08554	0.091155	0.030575	0.062486	0.093188	0.11664	0.24089	0.20033	0.055334	0.26135	0.2049	-2.0125	-2.85	-2.3396	-3.0625	-2.6521	-2.4729	-3.0646	-2.675	-2.5646	-2.9	-2.5812	-2.7938	-2.8312	-2.4021	-2.6375	-2.6458	291.653	120.692	58.187	6.427	313.357	58.837	3.484	343.728	150.467	123.024	192.111	31.672	335.055	117.513	95.936	333.514	0.00036654	0.00026173	4.7627e-05	1096.1	5.1904e-06	2.4095e-06	1199.3	220.84	5.0521e-06	4.6463e-06	285.98	79.74	59.655	18.13	5.6205e-06	25.839	0.00030101	0.00028988	8.3041e-05	1080.8	3.3318e-06	3.3209e-06	1184.9	220.2	3.1696e-06	3.1847e-06	284.16	80.335	59.901	18.541	3.1647e-06	26.275	295.354	46.536	154.281	6.292	164.072	150.004	6.452	13.938	192.196	165.192	13.322	20.512	20.014	27.675	178.242	27.176	-8191	255	
638.670	1	1	0	0	0.099718	0.37795	0.11467	0.29829	0.14398	0.17993	0.3436	0.27892	0.23075	0.39552	0.12724	0.22652	0.22901	0.32672	0.1647	0.17398	-2.0021	-2.9521	-2.3312	-2.7313	-2.7792	-2.2812	-3.0563	-2.6562	-2.625	-3.0479	-2.5062	-2.5229	-2.9479	-2.2646	-2.7958	-2.8063	156.096	173.422	41.030	347.554	109.066	336.499	277.202	337.398	161.375	48.283	179.835	316.260	93.445	308.964	67.322	15.234	0.00036847	0.00026447	9.8443e-05	1094.9	3.1082e-06	3.8256e-06	1198.4	220.55	6.3931e-06	3.0811e-06	283.98	79.769	59.752	18.163	5.4566e-06	25.798	0.00029527	0.00028936	8.3095e-05	1079.8	3.2334e-06	3.2414e-06	1184	220.14	3.2456e-06	3.1847e-06	283.96	80.317	59.819	18.5	3.0816e-06	26.31	292.557	130.973	78.977	6.106	110.036	97.512	6.197	13.796	233.957	147.838	13.686	20.464	19.706	27.419	123.007	27.108	-8191	255	
638.791	1	1	0	0	0.10663	0.040177	0.45427	0.24289	0.10631	0.11446	0.15593	0.1419	0.16441	0.198	0.29483	0.25919	0.30491	0.097124	0.21693	0.054276	-1.9813	-2.9583	-2.3917	-2.5625	-3.0104	-2.3063	-3.0417	-2.7938	-2.4437	-2.9104	-2.6708	-2.525	-2.9167	-2.3625	-2.625	-2.8521	61.579	143.459	89.167	333.735	60.005	22.914	33.448	128.077	96.476	257.145	308.269	141.214	63.564	179.272	41.573	233.605	0.00046095	0.00033089	0.00011333	1093.7	6.2158e-06	4.5647e-06	1198.3	221.26	2.7916e-06	4.9211e-06	282.81	79.481	59.313	18.122	6.7307e-06	25.792	0.00028852	0.00028225	8.0523e-05	1080.4	3.2523e-06	3.123e-06	1184.4	220.34	3.1684e-06	3.1892e-06	283.2	80.138	59.749	18.527	3.1135e-06	26.272	295.923	95.641	111.487	6.126	224.415	134.180	6.510	13.925	222.102	162.039	13.486	20.532	19.986	27.625	128.683	26.796	-8191	255	
638.887	1	1	0	0	0.15947	0.098541	0.016709	0.13182	0.034154	0.15436	0.060035	0.094229	0.14428	0.16847	0.10828	0.13789	0.27566	0.09868	0.018015	0.32284	-1.9146	-2.8563	-2.6042	-2.8	-2.9729	-2.3833	-2.8771	-2.9417	-2.3729	-2.8583	-2.6396	-2.5271	-2.9771	-2.4146	-2.7687	-2.9188	22.439	332.919	45.410	333.142	61.606	323.413	314.239	337.634	135.186	233.911	262.092	47.718	303.658	172.843	12.163	74.719	0.0003504	0.00010169	0.00014039	1094.5	6.8903e-06	5.296e-06	1201.8	221.36	4.7269e-06	4.8347e-07	285.18	79.825	59.579	18.075	4.9214e-06	25.861	0.00029076	0.00028682	8.0766e-05	1079.3	3.1824e-06	3.1558e-06	1185.6	220.11	3.2114e-06	3.1303e-06	284.07	80.221	59.69	18.503	3.2076e-06	26.296	278.581	67.823	96.512	6.148	154.595	180.375	6.261	13.960	256.575	124.421	13.682	20.396	20.046	28.055	167.244	27.011	-8191	255	
638.983	1	1	0	0	0.073289	0.15716	0.13802	0.030795	0.2707	0.034165	0.2414	0.34682	0.095266	0.21283	0.068184	0.22131	0.31256	0.3036	0.25556	0.29188	-2.0021	-2.775	-2.8063	-2.4125	-2.8688	-2.4167	-2.6708	-2.9625	-2.4562	-2.6854	-2.5146	-2.5083	-2.8583	-2.3958	-2.6021	-2.7938	1.347	282.469	197.934	91.667	264.830	250.475	312.046	313.552	102.828	341.805	135.121	183.737	39.469	194.171	292.595	273.699	0.00038869	0.00046062	0.00013847	1094.1	1.9691e-06	4.7383e-06	1199.8	220.62	6.281e-06	1.9887e-06	283.14	79.62	59.892	18.261	3.9511e-06	25.795	0.0002925	0.00029558	8.1303e-05	1079	3.262e-06	3.1436e-06	1183.8	219.94	3.1695e-06	3.1963e-06	283.76	80.16	59.846	18.552	3.2272e-06	26.269	282.049	32.337	99.441	6.133	220.756	216.114	6.449	13.869	190.154	194.870	13.200	20.291	19.761	27.638	140.449	27.124	-8191	255	
639.079	1	1	0	0	0.32106	0.13532	0.27841	0.035208	0.19674	0.29756	0.084277	0.23853	0.096271	0.26814	0.040913	0.096656	0.29524	0.22116	0.18436	0.061483	-1.8708	-2.7146	-2.725	-2.5583	-2.9437	-2.6688	-2.6917	-2.9917	-2.325	-2.6312	-2.8167	-2.2104	-2.8625	-2.5583	-2.3417	-2.9833	252.029	189.085	181.595	198.680	0.014	72.247	235.439	282.515	2.387	94.666	38.740	268.222	22.859	11.903	13.364	99.334	0.00033883	0.00023801	0.00013792	1092.2	5.2784e-06	4.0495e-06	1200.6	221.9	2.2705e-06	1.0579e-06	284.29	79.913	59.836	18.138	4.4638e-06	25.78	0.00030466	0.00029505	8.2364e-05	1079.4	3.2694e-06	3.2289e-06	1184.8	220.62	3.2274e-06	3.1445e-06	283.17	80.275	59.817	18.546	3.2436e-06	26.249	299.753	50.186	74.763	6.118	133.966	162.234	6.224	13.891	275.754	77.745	13.251	20.231	19.859	27.547	130.973	27.113	-8191	255	
639.200	1	1	0	0	0.078107	0.1189	0.15588	0.2734	0.13835	0.15316	0.053548	0.16631	0.05706	0.022396	0.28544	0.087597	0.053004	0.15444	0.1961	0.12014	-2.0854	-2.8812	-2.8479	-2.55	-3.0229	-2.5583	-2.5354	-2.9688	-2.4583	-2.6562	-2.8521	-2.5146	-2.8604	-2.7375	-2.4	-3.0625	350.034	54.155	28.211	274.707	258.505	149.615	98.982	25.147	161.016	165.212	310.453	0.436	88.323	155.497	258.996	339.443	0.00028739	0.0002526	0.00013029	1093.8	5.0938e-06	4.7905e-06	1201	220.89	2.3274e-06	3.7339e-06	286.29	80.163	59.537	18.228	6.4748e-06	25.811	0.00029503	0.00029536	8.185e-05	1078.7	3.3717e-06	3.2044e-06	1184.3	219.79	3.2809e-06	3.2706e-06	284.22	80.336	59.766	18.515	3.2821e-06	26.159	281.540	111.000	90.007	6.299	162.317	162.455	6.270	13.922	319.972	143.179	13.462	20.639	19.786	27.732	149.106	27.089	-8191	255	
639.271	1	1	0	0	0.079477	0.17504	0.25739	0.16832	0.13153	0.1224	0.20295	0.092647	0.15136	0.35608	0.11302	0.24753	0.32007	0.079215	0.11671	0.22029	-2.2667	-2.4562	-2.8521	-2.4833	-2.7625	-2.8854	-2.6312	-2.8063	-2.4354	-2.3146	-2.775	-2.3896	-2.7271	-2.8896	-2.2	-2.9771	257.481	149.129	128.415	315.388	257.023	87.420	321.069	216.831	69.811	92.324	286.984	302.676	44.740	77.924	128.355	42.955	0.00033147	0.00023807	7.0016e-05	1088.2	5.1635e-06	1.6739e-06	1202.1	220.61	7.0377e-06	1.3622e-06	286.09	79.963	59.592	18.111	8.6729e-06	25.802	0.00030314	0.00029866	8.0666e-05	1076.4	3.2291e-06	3.2391e-06	1183.9	219.77	3.2221e-06	3.2914e-06	284.11	80.142	59.73	18.516	3.2422e-06	26.182	286.544	162.698	110.192	6.140	213.787	122.780	6.377	13.983	204.415	165.727	13.085	20.538	19.919	27.493	125.895	26.886	-8191	255	
639.368	1	1	0	0	0.25335	0.2106	0.10833	0.39765	0.099915	0.28384	0.2155	0.073726	0.051543	0.229	0.052255	0.17774	0.18899	0.08273	0.13952	0.39013	-2.0479	-2.5417	-2.6792	-2.4854	-2.5896	-2.6542	-2.6146	-2.8479	-2.4896	-2.5	-2.8833	-2.4833	-2.6604	-2.8896	-2.3729	-2.8208	205.048	127.115	273.901	270.070	110.949	352.444	327.551	190.169	279.314	205.166	70.472	118.757	110.016	236.842	326.752	23.878	0.00036091	0.00043778	8.4375e-05	1093.7	7.2651e-06	2.973e-06	1198.7	220.12	2.6528e-06	2.151e-06	284.62	80.202	59.808	18.26	5.3043e-06	25.967	0.00029326	0.00028773	8.1277e-05	1079.7	3.2877e-06	3.1716e-06	1183.4	220.16	3.2077e-06	3.1507e-06	284.1	80.25	59.752	18.508	3.1842e-06	26.294	292.263	85.479	68.058	6.155	162.722	138.763	6.071	13.955	246.462	205.479	13.615	20.237	19.646	27.535	236.882	27.259	-8191	255	
639.464	1	1	0	0	0.10368	0.12807	0.12454	0.30358	0.1839	0.037016	0.22701	0.18611	0.095819	0.075624	0.24041	0.16816	0.21718	0.32221	0.28396	0.097956	-2.15	-2.4042	-2.9458	-2.4208	-2.7333	-2.8	-2.475	-2.8	-2.5875	-2.4229	-2.9167	-2.5229	-2.5583	-2.8229	-2.3	-2.8458	253.622	175.469	343.897	280.280	-2.962	332.592	278.379	303.837	62.945	277.095	243.810	236.801	16.783	328.463	85.460	203.983	0.00028766	0.00019257	6.977e-05	1092.1	2.8306e-06	1.2731e-06	1197.8	220.53	5.381e-06	3.4883e-06	284.71	79.596	60.063	18.058	5.2199e-06	25.836	0.00029283	0.00028721	8.046e-05	1079	3.1666e-06	3.1861e-06	1183.8	219.77	3.1449e-06	3.1875e-06	283.69	80.131	59.8	18.507	3.1039e-06	26.234	295.260	96.451	125.279	6.135	150.147	53.662	6.346	13.901	251.705	190.518	13.395	20.099	19.944	27.909	181.733	27.105	-8191	255	
639.583	1	1	0	0	0.26033	0.1616	0.14455	0.19914	0.17514	0.18846	0.23376	0.16829	0.16861	0.15491	0.081583	0.35106	0.22227	0.21479	0.21196	0.30939	-2.2021	-2.4604	-2.7958	-2.6333	-2.4667	-2.9896	-2.55	-2.6167	-2.7042	-2.4	-2.9042	-2.6521	-2.5271	-2.85	-2.4083	-2.775	331.745	281.418	94.823	267.761	207.576	197.494	293.603	315.844	293.691	326.861	255.608	313.072	225.792	254.624	148.966	262.391	0.00033823	0.00041897	6.9689e-05	1089.8	3.935e-06	3.8632e-06	1200.3	221.17	2.1178e-06	4.1959e-06	284.63	79.629	59.992	18.316	5.7951e-06	25.799	0.00028499	0.00028661	7.8438e-05	1078.3	3.2054e-06	3.1341e-06	1183.1	220.02	3.1563e-06	3.2373e-06	283.08	80.046	59.924	18.543	3.1907e-06	26.223	291.805	128.512	37.859	6.077	190.446	171.036	6.275	14.210	227.266	150.766	13.434	20.790	19.909	27.624	183.166	27.021	-8191	255	
639.679	1	1	0	0	0.2635	0.087908	0.24197	0.27831	0.24801	0.13621	0.20353	0.038488	0.2828	0.183	0.15308	0.15617	0.11584	0.29488	0.13126	0.20463	-2.5417	-2.3563	-2.6792	-2.7958	-2.4833	-2.9667	-2.6854	-2.5792	-2.8646	-2.2542	-3.0771	-2.5875	-2.5479	-3.1208	-2.5854	-2.6458	245.949	208.343	331.035	323.943	119.345	128.362	325.344	214.143	268.968	102.891	230.970	52.923	207.494	69.738	182.014	288.550	0.00032184	0.0003971	1.454e-05	1094.2	4.6305e-06	1.7075e-06	1199.3	221.2	1.048e-06	2.4149e-06	285.34	80.114	59.687	18.107	2.9457e-06	25.789	0.00028475	0.00028722	8.1644e-05	1078.5	3.2314e-06	3.1212e-06	1181.7	220.46	3.133e-06	3.3036e-06	283.49	80.037	59.748	18.512	3.1386e-06	26.225	288.734	74.442	3.100	6.204	157.092	134.030	6.350	13.951	185.674	112.126	13.621	20.659	19.879	27.899	158.885	26.946	-8191	255	
639.775	1	1	0	0	0.066601	0.13216	0.075336	0.3427	0.062204	0.16834	0.25512	0.30419	0.046415	0.087143	0.12443	0.13871	0.13629	0.1654	0.16051	0.08626	-2.4021	-2.3438	-3.1	-2.8104	-2.4729	-2.7938	-2.6188	-2.6875	-2.7958	-2.4875	-2.7854	-2.8354	-2.6021	-3.0979	-2.7979	-2.7313	251.847	270.299	116.686	340.216	191.863	170.904	348.763	246.175	303.078	263.557	197.226	-2.547	290.467	255.252	295.904	181.066	0.00035025	0.00042512	3.3974e-05	1091.8	6.95e-06	2.8099e-06	1204	220.95	7.3349e-06	9.5112e-07	285.66	79.403	59.828	18.103	1.9268e-06	25.849	0.00029988	0.00029169	8.1097e-05	1077.3	3.2337e-06	3.1852e-06	1184.8	220.2	3.1004e-06	3.1066e-06	283.57	80.004	59.636	18.443	3.1434e-06	26.263	289.525	93.194	163.343	6.249	138.888	99.432	6.203	14.004	218.441	93.624	12.891	20.484	19.999	27.827	149.669	27.048	-8191	255	
639.871	1	1	0	0	0.056244	0.02197	0.30986	0.19168	0.26478	0.032633	0.17065	0.32543	0.27501	0.31652	0.23548	0.18507	0.030449	0.040054	0.15227	0.18145	-2.7	-2.4833	-2.6625	-2.9021	-2.35	-2.8958	-2.5042	-2.625	-2.9313	-2.4354	-2.9062	-2.7896	-2.5396	-2.9062	-2.6042	-2.5521	114.015	122.592	301.776	260.694	42.271	71.056	305.749	341.108	71.715	55.432	3.643	127.734	250.124	135.772	292.894	348.143	0.00033363	4.511e-05	0.00011876	1094.9	4.7907e-06	7.7967e-07	1198.9	219.83	5.3729e-06	3.1232e-06	284.41	79.866	59.689	18.172	6.8076e-06	25.731	0.00028488	0.00028988	8.1253e-05	1079.2	3.245e-06	3.1976e-06	1183.6	219.75	3.1296e-06	3.2188e-06	283.25	80.288	59.874	18.489	3.2039e-06	26.149	285.803	305.633	84.186	6.213	146.441	190.198	6.020	14.161	195.688	128.363	13.237	20.590	19.910	27.797	109.827	26.745	-8191	255	
639.967	1	1	0	0	0.12381	0.18014	0.29671	0.17655	0.2165	0.079324	0.17995	0.14964	0.19692	0.21209	0.19925	0.24618	0.22446	0.21123	0.040872	0.20182	-2.5	-2.4938	-2.5667	-2.9229	-2.3396	-2.7042	-2.8104	-2.5104	-2.9458	-2.4833	-2.8583	-2.7167	-2.4708	-3.0167	-2.7042	-2.3771	165.620	202.185	339.295	322.242	225.885	297.367	157.106	19.938	192.976	33.674	322.122	271.935	44.976	240.264	277.594	350.149	0.00036484	0.00035408	7.8267e-05	1094.1	2.8883e-06	3.9096e-06	1196.9	220.31	4.2089e-06	2.1909e-06	285.13	79.653	59.867	18.182	6.6078e-06	25.848	0.00029267	0.00028692	8.0706e-05	1077.7	3.25e-06	3.2091e-06	1183	219.9	3.2244e-06	3.2153e-06	283.5	80.129	59.795	18.519	3.1166e-06	26.203	294.917	120.964	104.845	5.829	186.979	121.879	6.290	14.076	285.612	160.896	13.366	20.744	20.225	27.780	149.113	26.652	-8191	255	
640.063	1	1	0	0	0.11045	0.29267	0.13042	0.21429	0.15375	0.24112	0.29027	0.32158	0.13803	0.1131	0.30661	0.22228	0.25983	0.12392	0.17199	0.095496	-2.5938	-2.5417	-2.5271	-2.9208	-2.4917	-2.8	-2.7625	-2.5187	-2.7354	-2.5792	-2.4625	-2.9437	-2.5042	-2.6646	-2.8417	-2.2417	39.342	285.132	159.299	0.660	124.893	314.362	261.278	276.354	-3.794	61.562	312.242	301.164	300.179	16.229	47.220	347.906	0.00032062	0.00037626	5.0969e-05	1095.3	7.8696e-06	2.9635e-06	1201.1	220.57	7.257e-06	2.2314e-06	285.33	79.775	59.588	18.178	2.0657e-06	25.779	0.00029101	0.00029648	8.0276e-05	1079.8	3.2323e-06	3.227e-06	1182.5	219.97	3.1939e-06	3.127e-06	283.95	80.209	59.677	18.463	3.202e-06	26.166	275.123	88.349	100.845	5.933	213.093	101.552	5.970	13.624	178.283	184.317	13.461	20.887	20.133	27.547	174.376	27.128	-8191	255	
640.184	1	1	0	0	0.075106	0.24344	0.093547	0.093692	0.30674	0.21817	0.32359	0.17416	0.16918	0.11181	0.11673	0.11419	0.13643	0.29026	0.17137	0.35888	-2.5354	-2.4437	-2.5062	-2.8583	-2.5458	-2.7708	-2.9604	-2.525	-2.6104	-2.5875	-2.3458	-3.1479	-2.4396	-2.6604	-2.9896	-2.3271	32.154	190.449	349.519	168.823	341.619	289.523	253.458	310.872	352.839	55.415	67.194	287.017	52.702	-4.029	-3.854	19.955	0.00041486	0.0005342	0.00016878	1091.5	3.0584e-06	2.5928e-06	1197.8	220.68	6.8074e-06	2.2404e-06	284.65	79.896	60.01	18.137	4.9425e-06	25.791	0.00029665	0.00028992	8.3388e-05	1078.8	3.3607e-06	3.1955e-06	1182	219.75	3.1975e-06	3.32e-06	283.57	80.202	59.823	18.483	3.1452e-06	26.197	297.077	122.319	98.666	6.162	179.930	142.824	6.399	13.799	237.809	147.788	13.539	20.607	19.864	27.556	157.765	26.816	-8191	255	
640.280	1	1	0	0	0.12134	0.19715	0.314	0.20274	0.080431	0.091319	0.19586	0.25012	0.084014	0.30812	0.028083	0.15426	0.11398	0.076725	0.082973	0.31372	-2.4229	-2.6604	-2.475	-3.0604	-2.4208	-2.5333	-2.9292	-2.5458	-2.7583	-2.675	-2.5208	-2.9	-2.6417	-2.7854	-3.0167	-2.4479	151.659	339.033	295.873	312.302	289.012	200.319	10.354	61.899	112.315	159.656	199.092	272.775	315.927	351.214	307.458	33.353	0.00034513	0.00044655	9.3911e-05	1093.6	2.9028e-06	4.2586e-06	1197.4	220.33	4.4793e-06	2.2428e-06	285.19	79.636	59.8	18.073	4.8113e-06	25.589	0.0002967	0.00029222	8.2431e-05	1077.8	3.2583e-06	3.2076e-06	1181.6	219.94	3.1789e-06	3.2237e-06	283.52	80.128	59.861	18.491	3.2442e-06	26.166	286.077	101.123	54.139	6.352	134.975	102.428	6.143	14.233	218.687	155.103	13.295	20.709	20.118	27.676	215.787	27.118	-8191	255	
640.375	1	1	0	0	0.19835	0.14374	0.14496	0.12699	0.060803	0.0081436	0.13678	0.14378	0.22087	0.21113	0.15653	0.19695	0.055476	0.19138	0.15915	0.081049	-2.4354	-2.8146	-2.4479	-3.1271	-2.525	-2.4333	-2.9042	-2.575	-2.5958	-2.7687	-2.4375	-2.875	-2.6146	-2.5042	-2.9042	-2.6021	250.064	74.126	328.300	9.163	275.678	183.736	7.210	69.901	10.074	312.613	280.984	13.464	92.320	126.891	246.805	331.468	0.00029727	0.00024975	8.8042e-05	1090.9	6.6949e-06	1.7296e-06	1203.7	220.89	4.3245e-06	5.1022e-06	285.29	80.022	59.837	18.239	9.3252e-07	25.776	0.00029448	0.00029242	8.085e-05	1077.4	3.2355e-06	3.1921e-06	1183.1	220.29	3.2095e-06	3.175e-06	283.36	80.287	59.569	18.526	3.1979e-06	26.235	275.692	145.861	96.635	6.033	181.466	99.714	6.194	13.990	198.738	189.980	13.548	20.431	19.908	27.865	29.238	27.028	-8191	255	
640.472	1	1	0	0	0.075261	0.067084	0.11886	0.35988	0.099162	0.066593	0.14858	0.40765	0.39143	0.11143	0.15049	0.078481	0.094943	0.061087	0.14475	0.15769	-2.3063	-2.7604	-2.2667	-2.9583	-2.7042	-2.5146	-3.0542	-2.6854	-2.4646	-3.0167	-2.5146	-2.8021	-2.6312	-2.4708	-2.8688	-2.5021	260.134	6.333	64.634	348.373	188.182	30.015	317.435	316.928	199.576	28.349	289.207	277.398	331.986	331.982	-2.211	128.699	0.000387	6.9836e-05	8.2861e-05	1089.8	8.8817e-06	2.8954e-06	1197.2	221.06	3.0731e-06	1.4338e-06	286.18	79.352	59.704	18.302	3.8517e-06	25.712	0.00028829	0.00029111	7.9399e-05	1078.2	3.1703e-06	3.1382e-06	1182.9	220.03	3.051e-06	3.0729e-06	283.62	79.87	59.592	18.537	3.1123e-06	26.163	301.135	95.452	105.367	6.074	146.013	177.872	6.044	13.917	189.714	102.740	13.363	20.368	19.764	28.324	165.650	26.900	-8191	255	
640.567	1	1	0	0	0.048833	0.18109	0.16026	0.16974	0.29014	0.085493	0.096422	0.29701	0.17415	0.056057	0.048545	0.25747	0.09592	0.087174	0.23934	0.14115	-2.3146	-2.8771	-2.4917	-2.8083	-2.8292	-2.4229	-3.1063	-2.6688	-2.5354	-2.8438	-2.4188	-2.7	-2.8688	-2.5083	-2.8646	-2.5083	28.789	149.851	229.704	15.411	106.767	226.986	227.565	302.883	312.062	277.196	318.990	344.583	81.718	187.059	283.596	107.491	0.0002683	6.3337e-05	6.9124e-05	1094.4	6.9564e-06	1.9306e-06	1195.9	221.24	2.8334e-06	3.4623e-06	283.58	79.765	59.814	18.104	6.2644e-06	25.811	0.0002865	0.0002774	7.9285e-05	1078.3	3.1085e-06	3.0847e-06	1181.4	219.84	3.1155e-06	3.0284e-06	283	80.115	59.648	18.475	3.0211e-06	26.2	290.948	48.978	121.231	6.157	195.563	93.211	6.396	13.991	226.114	153.443	13.345	20.449	19.632	27.958	186.084	27.053	-8191	255	
640.663	1	1	0	0	0.092744	0.22639	0.065591	0.17533	0.19053	0.16651	0.25181	0.2511	0.1496	0.12529	0.20052	0.027581	0.22454	0.178	0.15722	0.0991	-2.2458	-2.8	-2.4104	-2.9188	-2.7167	-2.2875	-3.125	-2.6271	-2.5438	-2.8021	-2.4646	-2.7042	-2.7271	-2.3063	-2.7354	-2.7438	341.400	105.924	247.557	319.734	166.341	280.794	220.285	349.315	288.463	150.218	213.546	308.349	110.000	322.290	296.388	111.653	0.00040139	0.00019392	0.00010119	1092.9	1.7078e-06	4.0618e-06	1193.6	220.59	6.1537e-06	2.3421e-06	285.52	79.668	59.564	18.137	6.962e-06	25.671	0.00028523	0.00028022	7.7084e-05	1078.3	3.0783e-06	3.0918e-06	1180.1	219.64	3.1162e-06	3.0201e-06	283.51	80.052	59.599	18.427	3.0447e-06	26.128	288.949	80.356	103.964	6.312	219.299	159.911	6.243	13.859	192.486	160.928	13.196	20.740	19.815	27.854	173.540	26.646	-8191	255	
640.759	1	1	0	0	0.044176	0.11978	0.20308	0.37388	0.18779	0.1282	0.26242	0.1232	0.18334	0.078598	0.099332	0.1157	0.11204	0.16701	0.12866	0.051929	-2.2229	-2.7896	-2.3625	-2.8208	-2.7583	-2.2042	-2.95	-2.6604	-2.3917	-2.8958	-2.4917	-2.4771	-2.8333	-2.425	-2.7375	-2.8063	186.876	234.569	58.844	299.302	125.624	-1.675	50.143	333.090	48.543	48.009	133.580	208.719	-1.497	306.325	105.304	16.390	0.00034957	0.00036136	8.5062e-05	1095.2	3.3031e-06	2.7627e-06	1202.1	220.49	1.0675e-05	1.2031e-06	282.98	79.561	59.547	18.127	6.126e-06	25.71	0.00028563	0.00027924	7.7294e-05	1078.7	3.1869e-06	3.0476e-06	1183.3	220	3.1167e-06	3.0688e-06	282.71	79.962	59.647	18.461	3.1322e-06	26.162	295.656	51.166	123.474	6.080	205.138	86.006	6.261	14.013	235.490	166.871	13.244	20.557	20.079	28.008	138.130	26.934	-8191	255	
640.880	1	1	0	0	0.36703	0.062574	0.23161	0.27884	0.030596	0.096764	0.2037	0.068304	0.094654	0.24234	0.38607	0.014279	0.12749	0.16834	0.16277	0.28519	-1.7542	-2.7687	-2.5812	-2.7167	-2.8312	-2.4208	-2.9979	-2.7458	-2.3625	-2.9792	-2.5771	-2.5417	-2.8604	-2.4062	-2.6625	-2.7896	179.869	8.715	245.534	344.937	190.542	198.796	256.476	240.060	153.913	0.404	340.252	34.234	254.966	287.757	93.620	322.595	0.00033727	0.00021137	9.2523e-05	1092.7	3.567e-06	3.9315e-06	1197.6	220.53	8.8082e-06	4.22e-06	283.6	79.498	59.371	18.15	4.6598e-06	25.865	0.00029111	0.00028392	8.0333e-05	1077.8	3.2097e-06	3.1798e-06	1182.9	219.74	3.2046e-06	3.1796e-06	282.8	79.869	59.583	18.474	3.2144e-06	26.197	282.562	129.814	59.706	6.203	233.398	236.599	6.583	13.720	235.617	155.909	13.389	20.732	20.247	27.238	155.294	27.092	-8191	255	
640.976	1	1	0	0	0.30572	0.038809	0.18928	0.19305	0.17143	0.17231	0.07159	0.18112	0.13271	0.2375	0.20415	0.01962	0.20056	0.11356	0.13165	0.060779	-1.8687	-2.6875	-2.7333	-2.575	-2.8937	-2.3688	-2.8375	-2.8688	-2.525	-2.8479	-2.6792	-2.3042	-2.9229	-2.4208	-2.7188	-2.9021	62.709	8.266	161.292	354.596	299.316	167.325	306.683	215.411	66.979	95.230	355.539	40.007	11.290	244.311	142.785	126.369	0.00028824	0.00012341	9.7462e-05	1093	2.8273e-06	3.6832e-06	1197.6	220.4	5.1046e-06	5.7053e-06	283.08	79.796	59.62	18.05	7.7602e-06	25.593	0.00029779	0.00030022	8.4322e-05	1078.9	3.3553e-06	3.4241e-06	1182.9	219.81	3.4168e-06	3.3986e-06	282.96	80.13	59.702	18.437	3.385e-06	26.124	292.105	28.214	147.274	6.258	215.086	161.592	6.454	13.814	268.427	108.795	13.402	20.296	19.986	27.322	153.151	27.426	-8191	255	
641.072	1	1	0	0	0.21602	0.2086	0.20137	0.15652	0.13737	0.2381	0.15331	0.27941	0.26516	0.21486	0.10228	0.10705	0.15585	0.05177	0.15151	0.082434	-1.9438	-2.8021	-2.7292	-2.6125	-2.9708	-2.4354	-2.7458	-2.8583	-2.2208	-2.6708	-2.7396	-2.5375	-2.8917	-2.5354	-2.4833	-3.0438	352.988	199.444	247.987	220.564	342.960	43.619	320.051	298.221	230.459	189.236	312.632	187.045	246.392	250.343	92.951	118.892	0.00034017	0.00033372	3.6064e-05	1088.7	1.626e-06	1.2323e-06	1197.9	220.05	6.4416e-06	2.8231e-06	283.6	79.186	59.496	18.074	3.2715e-06	25.743	0.00031457	0.00030721	8.5873e-05	1077.5	3.4262e-06	3.3885e-06	1182.4	219.75	3.4168e-06	3.4023e-06	283.05	79.964	59.622	18.452	3.4627e-06	26.164	284.305	71.401	149.516	6.105	145.250	213.976	6.120	13.973	216.723	183.169	13.332	20.430	19.774	27.685	171.230	27.180	-8191	255	
641.168	1	1	0	0	0.074109	0.28827	0.069691	0.15964	0.17443	0.22538	0.25412	0.24616	0.090741	0.16859	0.25302	0.14259	0.034339	0.089803	0.366	0.23309	-2.0521	-2.7208	-2.6562	-2.5021	-2.9417	-2.4917	-2.5625	-2.8521	-2.3833	-2.5521	-2.6833	-2.3542	-2.925	-2.6333	-2.3042	-2.875	273.419	192.113	29.119	289.232	296.791	44.497	277.129	19.704	281.103	158.353	105.758	60.132	257.976	142.540	275.901	225.225	0.00029842	0.00022067	0.00010044	1094.6	4.4979e-06	3.5087e-06	1201.6	219.75	3.6964e-06	2.2784e-06	282.52	79.737	59.648	18.166	4.8288e-06	25.823	0.00031824	0.00032028	8.9035e-05	1080.2	3.5548e-06	3.4408e-06	1184.5	219.76	3.548e-06	3.5353e-06	283.09	79.983	59.739	18.477	3.5039e-06	26.188	285.993	109.892	129.764	6.139	126.410	118.970	6.329	14.021	314.458	85.514	13.456	20.531	19.980	27.943	115.796	26.979	-8191	255	
641.264	1	1	0	0	0.16353	0.14498	0.09948	0.39061	0.24764	0.31001	0.11398	0.17504	0.10143	0.22464	0.28083	0.14378	0.27561	0.19812	0.20325	0.051748	-2.1979	-2.6354	-2.7021	-2.5208	-2.7167	-2.5979	-2.5521	-3.0042	-2.4646	-2.3958	-2.8688	-2.3187	-2.7667	-2.65	-2.425	-2.9896	67.510	182.375	53.718	4.813	317.849	179.409	265.893	338.767	25.144	98.943	15.426	259.811	286.578	43.743	180.518	297.283	0.00037351	0.00030506	8.3837e-05	1098	7.3603e-06	3.1431e-06	1198.3	221.71	3.0039e-06	2.5527e-06	283.47	79.562	59.715	18.013	2.7919e-06	25.775	0.00032962	0.00032564	9.1167e-05	1081.2	3.5645e-06	3.5218e-06	1183.7	220.37	3.489e-06	3.3721e-06	283.57	80.217	59.72	18.434	3.3923e-06	26.164	282.808	111.207	117.288	6.223	209.456	131.575	6.386	14.214	177.066	189.446	13.536	20.242	19.651	27.658	136.981	26.801	-8191	255	
641.359	1	1	0	0	0.1341	0.36373	0.15833	0.39352	0.071709	0.17883	0.17043	0.18646	0.20027	0.13506	0.21408	0.2874	0.056052	0.18253	0.12107	0.31839	-2.2021	-2.6312	-2.9938	-2.6875	-2.7167	-2.8271	-2.4854	-2.9125	-2.6729	-2.6	-2.7958	-2.5833	-2.6729	-2.8104	-2.4042	-2.7708	135.199	67.854	225.776	300.738	181.823	152.347	333.895	336.993	159.837	209.633	173.740	80.245	318.442	65.390	206.281	42.483	0.00033825	0.00012383	0.00011523	1096.3	8.5025e-06	1.3678e-06	1198.4	221.45	3.0877e-06	4.1503e-06	283.76	79.806	59.7	17.979	3.7632e-06	25.711	0.00031153	0.00031519	8.5883e-05	1081.1	3.4175e-06	3.4157e-06	1184	220.11	3.4719e-06	3.4189e-06	282.92	80.242	59.851	18.454	3.4113e-06	26.21	280.932	88.533	147.284	6.300	162.607	134.113	6.223	13.914	265.339	212.029	13.464	20.200	19.677	27.514	141.830	27.157	-8191	255	
641.455	1	1	0	0	0.23687	0.1951	0.21566	0.44414	0.12268	0.15092	0.23757	0.097159	0.07842	0.1573	0.18678	0.21171	0.026857	0.091173	0.18847	0.30596	-2.2104	-2.4208	-2.7938	-2.7021	-2.4542	-2.6229	-2.7188	-2.6937	-2.7771	-2.3688	-3.0542	-2.3521	-2.5104	-2.8563	-2.2771	-2.8833	346.871	243.726	86.252	303.285	188.310	189.788	339.278	156.775	81.928	41.057	21.930	175.929	211.729	324.804	166.614	273.713	0.00027042	0.00026253	0.00018484	1092	6.9773e-06	2.1713e-06	1202.3	221.36	5.3538e-06	3.6691e-06	284.75	79.167	59.69	18.2	4.1446e-06	25.549	0.00031277	0.00030989	8.6864e-05	1080.1	3.4341e-06	3.5069e-06	1184.9	220.13	3.3932e-06	3.5091e-06	283.84	80.023	59.91	18.515	3.4662e-06	26.21	282.463	47.371	94.142	6.446	157.000	160.465	6.335	13.872	154.053	139.070	13.408	20.453	19.411	27.400	124.429	27.340	-8191	255	
641.551	1	1	0	0	0.25265	0.38352	0.12717	0.10739	0.058398	0.23798	0.083769	0.1821	0.1855	0.19373	0.071132	0.26152	0.28938	0.24152	0.0072182	0.13594	-2.1958	-2.3479	-2.85	-2.6833	-2.7208	-2.9688	-2.6312	-2.825	-2.6917	-2.4688	-2.9021	-2.5708	-2.55	-2.7812	-2.4771	-2.8125	101.620	350.478	230.458	353.956	130.520	258.724	3.111	264.500	34.428	211.996	225.202	282.658	269.694	343.626	91.529	122.539	0.00034491	0.00020852	0.00010919	1092.4	4.5424e-06	3.5232e-06	1205.2	219.97	2.3301e-06	2.544e-06	284.43	79.884	59.347	18.064	6.0469e-06	25.715	0.0003107	0.00031181	8.5573e-05	1080.2	3.4292e-06	3.3302e-06	1187.3	219.78	3.3856e-06	3.4152e-06	283.66	80.153	59.789	18.432	3.3706e-06	26.114	287.297	117.056	77.527	6.132	157.317	165.465	6.197	13.994	295.668	164.163	13.516	20.779	19.787	27.338	185.184	26.971	-8191	255	
641.672	1	1	0	0	0.22719	0.34182	0.25335	0.16991	0.16488	0.26227	0.37565	0.1077	0.16511	0.31425	0.12567	0.21121	0.11408	0.13833	0.10643	0.10091	-2.275	-2.225	-2.7375	-2.5833	-2.6333	-2.9521	-2.5396	-2.8104	-2.6104	-2.2667	-2.9375	-2.5708	-2.3937	-2.9042	-2.3187	-2.7875	87.159	11.485	46.074	276.434	9.384	282.153	320.603	27.224	299.153	80.286	303.439	24.656	290.847	236.839	149.777	27.959	0.00030741	0.00024422	9.1894e-05	1096.2	4.3644e-06	3.5204e-06	1201.9	220.73	4.8517e-06	4.9086e-06	283.18	79.576	59.646	18.149	2.9296e-06	25.678	0.00031242	0.00031319	8.6747e-05	1080.2	3.413e-06	3.3912e-06	1185.1	220.27	3.3607e-06	3.46e-06	283.16	80.09	59.697	18.474	3.3924e-06	26.138	283.044	74.352	96.060	6.401	179.700	91.591	6.079	14.079	288.289	140.518	13.278	20.689	19.891	27.810	126.130	26.834	-8191	255	
641.768	1	1	0	0	0.13295	0.17714	0.15859	0.14122	0.096662	0.24047	0.18339	0.028148	0.092147	0.20589	0.24526	0.16739	0.15755	0.17855	0.10505	0.19311	-2.3542	-2.2021	-2.825	-2.8208	-2.3917	-2.8604	-2.5687	-2.7625	-2.8521	-2.2917	-2.8958	-2.5917	-2.5583	-2.8438	-2.2792	-2.6271	29.138	45.413	327.485	6.806	44.580	38.337	287.266	294.966	240.524	132.332	296.300	105.773	339.662	87.615	15.223	267.284	0.00037023	0.00030461	6.8541e-05	1094.3	5.0644e-06	3.0208e-06	1201.8	220.69	2.5141e-06	5.2789e-07	285.41	79.48	59.532	18.176	5.1585e-06	25.691	0.00030562	0.00031517	8.6914e-05	1080.1	3.5069e-06	3.4454e-06	1185.1	219.87	3.4062e-06	3.424e-06	284.29	80.077	59.727	18.474	3.3125e-06	26.156	296.331	91.680	83.816	6.013	135.497	132.723	6.328	14.106	222.388	29.068	13.874	20.322	19.707	27.574	239.019	27.169	-8191	255	
641.864	1	1	0	0	0.32158	0.055619	0.052318	0.24882	0.099629	0.19088	0.23211	0.30394	0.1108	0.1255	0.079664	0.082321	0.073836	0.12277	0.42915	0.16131	-2.5417	-2.4	-2.8187	-2.7458	-2.4125	-2.8937	-2.6375	-2.5021	-2.8208	-2.2625	-2.8354	-2.6771	-2.2062	-2.9521	-2.4917	-2.5521	340.731	160.552	143.537	262.165	188.729	175.483	282.478	352.968	7.195	57.302	22.244	58.216	73.913	43.495	51.924	169.070	0.00036356	0.00033528	5.5068e-05	1091.3	4.9883e-06	3.9131e-06	1195.7	221.66	4.2696e-06	8.1632e-07	284.27	79.678	59.93	18.037	6.9355e-06	25.661	0.00030213	0.00031566	8.5663e-05	1078.8	3.4146e-06	3.3361e-06	1183.1	220.22	3.2995e-06	3.3553e-06	283.81	80.09	59.881	18.437	3.3045e-06	26.167	296.122	132.306	121.793	6.155	195.456	183.039	6.257	13.749	248.783	303.139	13.015	20.504	20.186	27.768	133.740	27.034	-8191	255	
641.958	1	1	0	0	0.13956	0.26815	0.10818	0.3086	0.17122	0.30681	0.13471	0.080046	0.26882	0.14046	0.060353	0.10145	0.32974	0.1868	0.042852	0.16857	-2.6333	-2.3688	-2.7375	-2.8333	-2.0979	-2.8312	-2.6667	-2.4167	-2.7604	-2.3604	-2.5333	-2.8438	-2.2417	-2.7667	-2.7125	-2.5354	178.987	206.537	132.514	299.453	210.481	309.108	344.612	342.745	278.871	208.573	345.201	253.714	339.559	-2.717	14.144	89.365	0.00034532	2.2887e-05	0.00011351	1091.6	2.6299e-06	4.3419e-06	1204.6	220.39	3.1671e-06	9.5516e-07	284.32	79.63	59.343	17.973	2.6749e-06	25.826	0.00030396	0.00031059	8.4949e-05	1078.4	3.4152e-06	3.2708e-06	1185.2	219.66	3.3591e-06	3.4232e-06	283.59	79.944	59.764	18.425	3.4266e-06	26.189	297.136	141.880	79.856	5.871	119.864	105.938	6.525	14.113	205.634	133.884	13.529	20.491	19.939	27.657	183.371	27.269	-8191	255	
642.055	1	1	0	0	0.29053	0.21247	0.20584	0.18469	0.25366	0.05059	0.18237	0.10698	0.032784	0.14047	0.26041	0.069293	0.13229	0.18032	0.32753	0.19846	-2.4813	-2.5083	-2.55	-2.8958	-2.5125	-2.7062	-2.675	-2.45	-2.8375	-2.4979	-2.7062	-2.9188	-2.4792	-2.6833	-2.6083	-2.3083	331.405	132.954	285.191	314.114	292.462	184.120	117.687	296.193	195.459	45.997	327.401	109.810	284.890	202.366	353.774	312.175	0.00031641	0.00049525	2.8952e-05	1092.8	3.616e-06	5.0483e-06	1203	220.41	3.0555e-06	4.6287e-06	285.66	79.785	59.907	18.144	4.9538e-06	25.612	0.00030685	0.00030447	8.3995e-05	1080	3.4426e-06	3.3992e-06	1185.7	219.65	3.3844e-06	3.4479e-06	284.56	80.089	59.758	18.496	3.3397e-06	26.131	278.602	49.087	134.626	6.191	158.611	131.767	6.385	13.737	182.525	229.931	13.202	20.451	19.689	27.707	254.776	27.211	-8191	255	
642.151	1	1	0	0	0.044586	0.14908	0.2569	0.17995	0.16693	0.10297	0.22087	0.23603	0.13423	0.028241	0.10432	0.15202	0.11559	0.10669	0.12019	0.1969	-2.3896	-2.4729	-2.4521	-3.0083	-2.2875	-2.7646	-2.8458	-2.3958	-2.675	-2.5729	-2.5687	-2.7604	-2.4229	-2.6896	-2.9104	-2.3479	229.183	293.322	295.788	326.598	171.977	308.367	337.659	323.181	237.609	140.262	61.313	256.482	9.370	26.201	210.741	176.292	0.00040271	0.00038734	6.7053e-05	1092.9	5.1505e-06	2.8544e-06	1205.6	220.73	8.0665e-06	3.5235e-06	283.46	79.823	59.465	18.121	4.1129e-06	25.715	0.00030799	0.00030736	8.5827e-05	1079.9	3.4072e-06	3.4029e-06	1185.6	220.13	3.4243e-06	3.32e-06	284.01	80.179	59.78	18.432	3.2604e-06	26.142	292.451	132.021	59.661	6.017	159.559	149.199	6.358	14.165	227.543	119.288	13.027	20.553	19.807	27.666	136.583	26.805	-8191	255	
642.271	1	1	0	0	0.09164	0.11428	0.24105	0.11413	0.13112	0.22579	0.23775	0.056008	0.061022	0.21612	0.18329	0.23371	0.11745	0.2046	0.10119	0.10425	-2.4229	-2.6646	-2.4437	-3.0958	-2.3042	-2.6771	-2.9479	-2.4146	-2.7042	-2.6771	-2.3812	-2.9479	-2.4729	-2.6	-2.6979	-2.3979	40.228	219.994	309.778	1.916	208.218	20.793	256.211	280.438	242.078	21.888	250.923	47.039	122.497	19.499	167.797	16.614	0.0003306	0.00029039	0.00011652	1094.5	1.0408e-06	5.5826e-06	1201.8	219.94	1.9458e-06	5.044e-06	286.98	79.555	59.65	18.14	6.6451e-06	25.786	0.0002968	0.00029779	8.4092e-05	1080.2	3.3018e-06	3.3013e-06	1184.3	219.65	3.2498e-06	3.2774e-06	284.3	80.104	59.601	18.506	3.2301e-06	26.201	284.077	106.471	93.076	6.223	163.189	163.350	6.155	14.030	237.855	176.418	13.583	20.450	19.907	27.542	168.215	27.156	-8191	255	
642.367	1	1	0	0	0.026483	0.074971	0.095815	0.31911	0.14615	0.18506	0.050665	0.27684	0.22344	0.18893	0.068999	0.25332	0.17342	0.16667	0.072041	0.25306	-2.3646	-2.525	-2.5229	-3.0938	-2.5125	-2.7	-2.8812	-2.3937	-2.6813	-2.6688	-2.5833	-2.9208	-2.6396	-2.5875	-2.8542	-2.4479	48.122	49.448	186.036	341.240	105.058	-0.553	98.580	310.248	343.341	187.440	115.062	312.417	15.132	284.819	198.384	300.942	0.00033157	0.0002319	0.00012629	1098.8	2.8681e-06	5.0061e-06	1204.7	221.01	4.9463e-07	4.6371e-06	283.77	79.371	59.697	18.11	4.7841e-06	25.687	0.00030423	0.00029264	8.2905e-05	1080.6	3.3633e-06	3.2688e-06	1185.1	219.99	3.3136e-06	3.2661e-06	282.94	79.982	59.822	18.464	3.2076e-06	26.135	287.964	159.619	180.316	6.124	179.063	190.673	6.256	13.953	249.738	173.573	13.560	20.418	19.890	27.531	165.869	26.872	-8191	255	
642.439	1	1	0	0	0.1225	0.38352	0.253	0.37047	0.017217	0.11336	0.39401	0.19088	0.42081	0.10696	0.1754	0.052096	0.07078	0.036361	0.11826	0.13094	-2.375	-2.8708	-2.2604	-2.9229	-2.5458	-2.4938	-3.1146	-2.5146	-2.6167	-2.8521	-2.2083	-2.9333	-2.5708	-2.3667	-2.8479	-2.4833	323.375	149.416	345.491	308.688	331.939	211.776	350.683	-2.180	158.445	221.874	215.886	-3.013	135.053	248.074	231.631	199.770	0.00040261	0.00015558	3.6384e-05	1093.7	3.3337e-06	2.985e-06	1202.4	220.68	3.3133e-06	5.6491e-06	284.58	79.471	59.731	18.13	6.2662e-06	25.441	0.00029966	0.000298	8.2044e-05	1080.8	3.3243e-06	3.2502e-06	1183.2	219.64	3.1885e-06	3.2313e-06	283.83	80.087	59.708	18.47	3.2226e-06	26.074	289.975	342.449	41.493	6.133	174.466	130.166	6.123	13.870	231.269	146.936	13.537	20.589	19.683	27.978	133.124	27.388	-8191	255	
642.560	1	1	0	0	0.13138	0.19609	0.28475	0.36355	0.16403	0.091255	0.22375	0.11977	0.18153	0.19124	0.10457	0.1092	0.19146	0.083563	0.10764	0.23237	-2.3896	-2.6688	-2.2667	-2.8854	-2.5646	-2.4354	-2.9333	-2.475	-2.3563	-2.9437	-2.3063	-2.6688	-2.6792	-2.4021	-2.7812	-2.5771	-1.817	89.205	287.727	345.395	354.633	224.081	301.416	88.249	242.996	76.175	208.422	18.987	300.729	59.015	308.218	335.303	0.00031809	0.0004221	1.0308e-05	1094.4	4.5597e-06	3.1349e-06	1198.2	219.97	5.7358e-06	2.1286e-06	283.39	79.845	59.501	18.266	4.3349e-06	25.786	0.00028929	0.0002919	8.103e-05	1079.8	3.2894e-06	3.2703e-06	1183.6	219.62	3.2824e-06	3.2394e-06	282.96	80.081	59.654	18.51	3.1751e-06	26.149	273.889	55.875	53.052	6.186	195.771	164.116	6.233	13.995	179.071	177.235	13.610	20.315	19.789	27.499	219.641	27.199	-8191	255	
642.656	1	1	0	0	0.15586	0.088192	0.047201	0.36035	0.22298	0.2607	0.19877	0.25981	0.1541	0.25739	0.10239	0.20852	0.099766	0.16282	0.12057	0.036406	-2.15	-2.7792	-2.4562	-2.7708	-2.6208	-2.2958	-3.0396	-2.5896	-2.5312	-2.875	-2.4146	-2.5604	-2.7125	-2.4646	-2.8104	-2.3958	65.464	317.744	9.070	335.887	190.279	336.955	322.154	1.955	314.913	282.572	335.851	220.322	17.360	233.366	235.552	106.962	0.00035003	0.00059134	0.00015988	1095.2	5.3839e-06	4.041e-06	1200.9	220.95	1.188e-06	1.0616e-06	282.65	79.697	59.61	18.017	3.1324e-06	25.623	0.00029777	0.00028459	8.2978e-05	1080.6	3.2306e-06	3.2245e-06	1185.2	219.93	3.315e-06	3.3127e-06	282.89	80.124	59.75	18.43	3.1765e-06	26.08	286.721	82.524	108.373	6.214	164.858	136.480	6.458	14.077	194.339	88.541	13.423	20.669	19.804	27.786	116.549	27.166	-8191	255	
642.752	1	1	0	0	0.030275	0.12533	0.1275	0.095561	0.20964	0.20767	0.28564	0.17977	0.31211	0.20795	0.19177	0.072557	0.12813	0.04288	0.049556	0.28137	-1.9937	-2.9125	-2.4375	-2.7521	-2.5771	-2.3625	-2.7854	-2.5687	-2.4354	-3.0229	-2.4917	-2.6521	-3.0292	-2.3417	-2.6312	-2.6479	92.055	297.496	98.418	221.253	2.191	133.089	331.535	300.586	262.738	136.400	337.500	282.577	89.847	308.591	51.049	347.507	0.00037221	0.00030613	0.00011118	1096.5	5.1416e-07	3.1945e-06	1203.7	220.12	3.6267e-06	1.0497e-06	283.08	79.585	59.28	18.206	7.3157e-06	25.532	0.00030094	0.00029401	8.0606e-05	1079.3	3.2277e-06	3.206e-06	1184.2	219.86	3.2612e-06	3.208e-06	283.56	80.111	59.644	18.487	3.231e-06	26.142	281.672	79.636	124.181	6.172	348.505	89.976	6.181	14.019	220.677	217.523	13.518	20.663	20.311	27.801	171.818	27.408	-8191	255	
642.848	1	1	0	0	0.064038	0.1488	0.255	0.11321	0.065794	0.23941	0.14423	0.16963	0.056217	0.098605	0.30434	0.25074	0.13904	0.24243	0.37167	0.15991	-2.0042	-2.8458	-2.3833	-2.5938	-2.8854	-2.35	-2.7396	-2.7542	-2.3375	-2.7667	-2.4896	-2.5792	-2.7875	-2.3583	-2.5396	-2.7	130.265	59.315	146.848	313.698	69.328	92.722	179.392	323.713	178.297	79.996	74.886	216.562	354.311	284.788	183.785	131.607	0.00042695	0.00016912	0.00010882	1089.4	4.7073e-06	5.4144e-06	1201.1	220.99	2.0714e-06	5.524e-06	284.22	79.889	59.863	18.045	3.5036e-06	25.757	0.00029894	0.00029249	8.3632e-05	1078.2	3.2501e-06	3.2015e-06	1184.1	219.65	3.2628e-06	3.2719e-06	283.37	80.161	59.843	18.456	3.2989e-06	26.14	281.274	37.959	139.138	6.247	164.649	81.629	6.257	13.857	196.280	139.025	13.365	20.168	20.035	27.906	174.484	27.440	-8191	255	
642.944	1	1	0	0	0.27401	0.29608	0.095187	0.068762	0.18104	0.11274	0.19825	0.068769	0.06562	0.14956	0.29585	0.048673	0.15355	0.16609	0.095865	0.11897	-1.7771	-2.9042	-2.5229	-2.5	-2.65	-2.5479	-2.7667	-2.6937	-2.3667	-2.8125	-2.5354	-2.3354	-2.8958	-2.4125	-2.6208	-2.8229	351.733	3.420	99.526	226.141	32.869	154.188	268.576	316.367	338.064	96.893	12.135	97.135	28.797	315.417	14.914	105.989	0.00035449	0.00040555	5.0585e-05	1094.4	8.6224e-06	3.4909e-06	1205.4	220.95	3.3271e-06	2.2592e-06	285.36	79.568	59.181	18.14	8.9379e-06	25.688	0.00029604	0.00030035	8.4582e-05	1079.8	3.3726e-06	3.3267e-06	1183.9	219.98	3.3162e-06	3.2637e-06	283.74	79.997	59.509	18.49	3.2945e-06	26.152	292.991	118.947	112.047	6.500	183.282	168.683	6.074	13.901	213.606	166.646	13.153	20.406	19.870	27.712	179.148	27.069	-8191	255	
643.063	1	1	0	0	0.17778	0.080764	0.20123	0.15065	0.12784	0.21225	0.21983	0.044172	0.15044	0.087353	0.18097	0.11401	0.12568	0.21231	0.31948	0.077042	-1.9917	-2.6271	-2.6083	-2.4562	-2.8375	-2.4292	-2.625	-2.8833	-2.2979	-2.8146	-2.7292	-2.4917	-2.8542	-2.2792	-2.6312	-2.8063	5.464	272.676	125.905	330.192	155.193	339.693	197.329	214.230	280.513	230.952	2.255	85.944	230.385	300.407	177.912	30.923	0.00046272	0.00047899	8.0237e-05	1093.3	5.9838e-06	2.6016e-06	1202.4	220.48	6.167e-06	7.3955e-07	283.1	79.776	58.967	18.037	6.3161e-06	25.596	0.00030486	0.00029882	8.3909e-05	1079.2	3.2523e-06	3.2575e-06	1184.6	220.05	3.2767e-06	3.2269e-06	282.95	80.076	59.589	18.419	3.087e-06	26.08	290.029	102.779	95.823	6.224	160.985	66.440	6.371	14.062	228.232	270.765	13.315	20.103	19.949	27.781	133.945	27.007	-8191	255	
643.135	1	1	0	0	0.29704	0.14523	0.27121	0.22589	0.16938	0.11369	0.31899	0.38841	0.3865	0.12363	0.15605	0.16203	0.17711	0.022066	0.10917	0.21691	-1.9229	-2.6771	-2.7271	-2.4354	-2.7917	-2.4521	-2.6792	-2.9042	-2.4	-2.725	-2.7146	-2.4042	-2.7583	-2.6417	-2.3521	-2.8292	5.032	352.569	88.660	310.622	255.140	113.014	289.332	338.589	47.057	88.336	236.432	310.240	285.451	273.064	21.499	297.956	0.00029996	0.00045057	0.00013562	1093.7	2.0656e-06	4.038e-06	1199.8	220.31	1.544e-06	8.9532e-07	282.95	79.627	59.618	18.009	6.2529e-06	25.634	0.00029417	0.00028465	7.9125e-05	1080.1	3.1433e-06	3.1843e-06	1182.8	219.71	3.136e-06	3.1244e-06	283.36	79.937	59.676	18.448	3.1286e-06	26.178	298.067	122.489	134.524	6.154	213.256	138.692	6.066	14.048	256.028	95.805	13.673	20.730	19.597	27.549	143.593	27.102	-8191	255	
643.233	1	1	0	0	0.39167	0.31273	0.26768	0.10626	0.1919	0.23514	0.22784	0.43317	0.1459	0.12596	0.41683	0.29396	0.23399	0.26716	0.20198	0.070792	-1.9146	-2.5375	-2.7562	-2.5563	-2.6875	-2.5729	-2.6208	-3.0312	-2.225	-2.3667	-2.6958	-2.4208	-2.8021	-2.6229	-2.4354	-3.0458	339.818	239.982	327.160	1.004	28.301	168.575	185.302	327.467	236.747	286.941	73.333	37.004	287.201	81.826	42.919	287.272	0.00035455	0.00018619	0.0001052	1095.4	3.2319e-06	2.7018e-06	1205.5	220.53	4.4833e-06	4.3599e-06	284.78	79.663	59.592	18.21	5.8979e-06	25.757	0.00029261	0.00029567	8.1387e-05	1078.8	3.2015e-06	3.1416e-06	1184.6	219.8	3.1957e-06	3.2054e-06	283.06	80.059	59.712	18.449	3.223e-06	26.144	293.196	110.865	94.729	6.053	175.179	93.532	6.435	13.972	221.292	132.181	13.651	20.229	19.713	27.512	178.481	27.208	-8191	255	
643.352	1	1	0	0	0.098806	0.12793	0.043827	0.14424	0.14732	0.154	0.28239	0.23654	0.031503	0.15262	0.16906	0.23829	0.16841	0.32375	0.21552	0.11111	-2.1292	-2.5083	-2.9792	-2.4542	-2.5896	-2.7	-2.525	-2.8667	-2.2646	-2.5125	-2.9333	-2.2646	-2.6917	-2.725	-2.2708	-2.9062	26.292	-1.046	300.636	354.122	203.494	3.136	247.694	354.926	26.900	272.262	246.018	180.871	56.506	123.010	138.624	70.352	0.00040313	0.0004759	5.4834e-05	1094.8	6.8576e-06	2.9313e-06	1202.3	221.27	7.1531e-06	2.5225e-06	284.57	79.595	59.337	18.019	4.4941e-06	25.623	0.00028628	0.00028066	7.9746e-05	1077.5	3.173e-06	3.1776e-06	1183.2	219.79	3.2039e-06	3.2581e-06	283.48	80.028	59.631	18.428	3.2784e-06	26.113	298.024	88.416	161.533	6.144	178.519	43.406	6.295	14.221	227.334	156.985	13.098	20.506	20.155	27.588	221.483	27.135	-8191	255	
643.448	1	1	0	0	0.098156	0.25929	0.040453	0.28288	0.22841	0.063982	0.32972	0.11701	0.012944	0.18719	0.22815	0.13172	0.16664	0.14766	0.18847	0.085926	-2.0792	-2.4417	-2.7562	-2.4333	-2.6417	-2.575	-2.3021	-2.8792	-2.575	-2.275	-2.8875	-2.3646	-2.7208	-2.6417	-2.2625	-2.8583	96.785	43.554	269.564	321.592	182.304	169.227	0.163	298.191	45.747	15.704	275.265	136.112	175.673	242.241	314.936	44.969	0.00034954	0.00043774	1.1395e-05	1092.7	5.005e-06	5.0199e-06	1201	220.59	2.7917e-06	2.0861e-06	284.1	79.825	59.463	18.195	4.2864e-06	25.839	0.00029431	0.0003015	8.1981e-05	1080.6	3.2859e-06	3.202e-06	1185.2	220.16	3.1481e-06	3.2707e-06	283.21	79.966	59.471	18.465	3.2775e-06	26.22	289.597	41.711	47.072	6.090	197.342	143.337	6.255	13.998	221.322	182.918	13.521	20.698	19.628	27.162	159.981	26.983	-8191	255	
643.544	1	1	0	0	0.088764	0.18944	0.30077	0.23567	0.28746	0.067472	0.36897	0.096536	0.1962	0.10538	0.17122	0.087889	0.045104	0.11572	0.11397	0.10405	-2.0625	-2.4729	-2.75	-2.5021	-2.6833	-2.8521	-2.3625	-2.7625	-2.6771	-2.3688	-3.0125	-2.4188	-2.5479	-2.8187	-2.5333	-2.8833	274.076	348.065	256.612	275.481	24.285	163.042	284.776	201.126	300.934	71.869	294.851	184.240	113.623	333.490	93.161	316.159	0.0003703	0.0003268	7.0183e-05	1092.2	5.3535e-06	3.3952e-06	1209.5	220	4.8454e-06	1.9106e-06	285.68	79.686	59.701	18.142	2.7858e-06	25.573	0.00029995	0.00029554	8.3291e-05	1079.3	3.3285e-06	3.2274e-06	1188.4	219.66	3.272e-06	3.3323e-06	283.94	80.124	59.655	18.511	3.3644e-06	26.159	294.863	119.244	16.690	6.247	234.125	139.389	5.915	14.096	231.859	131.407	13.453	20.785	20.437	27.624	224.504	27.331	-8191	255	
643.665	1	1	0	0	0.2892	0.089137	0.22999	0.31356	0.27088	0.24167	0.07898	0.28796	0.11363	0.18797	0.08455	0.33905	0.077518	0.34185	0.14801	0.26909	-2.1813	-2.3396	-2.75	-2.5896	-2.4396	-2.6271	-2.4771	-2.6396	-2.7208	-2.4979	-3.15	-2.4333	-2.4646	-2.8	-2.475	-2.6854	102.097	96.556	230.935	311.719	259.690	56.050	138.665	282.665	251.421	102.948	82.200	87.534	323.917	45.128	311.611	256.566	0.00034581	0.00033856	0.00013529	1094	4.3605e-06	1.6525e-06	1205.4	219.96	3.5831e-06	3.4546e-06	285.82	79.341	59.799	18.079	8.5813e-06	25.53	0.00030154	0.00030701	8.5663e-05	1080.8	3.3327e-06	3.3715e-06	1185.9	220.15	3.2571e-06	3.3941e-06	283.58	79.967	59.809	18.46	3.3874e-06	26.108	289.237	93.211	115.103	6.161	188.550	129.127	6.304	14.089	233.456	201.679	13.532	20.475	19.562	27.885	157.826	27.616	-8191	255	
643.736	1	1	0	0	0.076129	0.17879	0.19627	0.14111	0.21682	0.26538	0.10573	0.095665	0.059415	0.17841	0.18939	0.38722	0.13646	0.10986	0.153	0.2543	-2.3187	-2.2646	-2.7833	-2.6063	-2.3396	-2.9125	-2.7708	-2.5875	-2.6979	-2.3333	-2.6771	-2.5354	-2.3646	-2.7604	-2.3417	-2.5625	288.693	50.546	298.370	324.936	61.708	225.064	336.726	88.905	135.593	322.655	228.860	241.304	289.639	315.080	344.879	279.050	0.00030507	8.1595e-05	7.9026e-05	1091.6	2.3721e-06	2.0957e-06	1204.3	220.96	4.6417e-06	2.561e-06	283.93	79.097	59.454	18.25	7.9082e-07	25.8	0.00030735	0.00030078	8.4926e-05	1079.4	3.4317e-06	3.2433e-06	1186.1	219.89	3.3346e-06	3.3986e-06	283.47	79.958	59.597	18.537	3.437e-06	26.16	289.403	295.958	140.410	6.121	172.890	73.027	6.415	13.964	207.927	134.593	13.553	20.844	19.946	28.023	200.459	27.019	-8191	255	
643.832	1	1	0	0	0.22579	0.25328	0.22961	0.31647	0.12214	0.05839	0.25527	0.33156	0.14626	0.18386	0.16552	0.33646	0.097977	0.077302	0.11479	0.22245	-2.4313	-2.2	-2.6562	-2.6688	-2.1729	-2.7938	-2.4562	-2.6188	-2.7708	-2.3167	-2.6562	-2.6396	-2.2792	-2.8042	-2.2875	-2.6396	69.586	298.724	254.591	-1.459	-3.151	23.352	163.576	40.278	271.051	97.206	269.853	30.833	74.684	46.953	270.369	349.290	0.00031117	0.00026291	5.4428e-05	1096	4.324e-06	4.9032e-06	1205.9	220.46	5.0975e-06	1.8383e-06	283.61	79.255	59.399	18.087	2.7582e-06	25.829	0.00031012	0.00032042	8.7388e-05	1081.4	3.5087e-06	3.4551e-06	1187.5	219.64	3.4352e-06	3.3854e-06	283.8	79.88	59.753	18.471	3.4991e-06	26.144	304.919	80.144	121.960	6.119	165.097	99.912	6.266	14.007	205.155	174.524	13.275	20.275	19.797	27.782	168.530	27.201	-8191	255	
643.951	1	1	0	0	0.18001	0.079115	0.069042	0.10494	0.15938	0.26529	0.27742	0.3232	0.087616	0.028014	0.24895	0.044902	0.078795	0.10639	0.20724	0.3088	-2.5062	-2.2938	-2.5667	-2.9313	-2.2792	-2.7875	-2.7146	-2.3333	-3.0687	-2.3896	-2.7833	-2.7542	-2.3875	-2.7687	-2.5667	-2.5271	352.871	228.625	220.210	19.872	324.386	187.788	270.927	288.449	116.311	296.340	78.704	190.861	5.467	151.051	189.051	194.794	0.00043124	0.00023077	6.0603e-05	1095.8	2.5175e-06	3.6136e-06	1199.5	221.03	4.8521e-06	6.2547e-06	284.64	79.505	59.858	18.05	5.9611e-06	25.567	0.00031811	0.00031411	8.9172e-05	1081.3	3.5191e-06	3.4982e-06	1184.3	219.75	3.5238e-06	3.5348e-06	283.86	80.041	59.792	18.435	3.4381e-06	26.124	283.934	108.479	192.473	6.132	174.395	202.307	6.348	14.096	217.431	175.183	13.439	21.016	20.077	27.711	109.391	27.175	-8191	255	
644.047	1	1	0	0	0.10873	0.020265	0.065379	0.15494	0.14543	0.2308	0.15012	0.13276	0.18764	0.13329	0.14377	0.070124	0.20223	0.26271	0.19799	0.18039	-2.5125	-2.4458	-2.4396	-2.8896	-2.3083	-2.9083	-2.9	-2.4792	-2.8458	-2.4188	-2.6083	-2.85	-2.2833	-2.8208	-2.6479	-2.5875	158.646	316.043	54.247	309.561	205.320	343.840	305.142	207.450	49.216	218.701	229.646	64.684	296.176	17.312	100.257	71.704	0.00034931	9.2212e-05	7.774e-05	1093.2	4.2726e-07	6.6991e-06	1199	221.1	2.5245e-06	6.4465e-06	283.38	79.037	59.174	18.1	2.8022e-06	25.676	0.0003169	0.00031453	8.9012e-05	1079.8	3.5139e-06	3.5312e-06	1184.7	220.05	3.5013e-06	3.5034e-06	283.35	79.737	59.673	18.468	3.4583e-06	26.185	284.344	146.407	108.712	6.234	132.716	124.851	6.365	14.025	202.367	131.310	13.646	20.480	20.022	27.848	148.063	27.413	-8191	255	
644.144	1	1	0	0	0.064462	0.068684	0.054518	0.33323	0.054161	0.10743	0.1842	0.16537	0.26631	0.26252	0.12956	0.27486	0.20045	0.12594	0.14107	0.17546	-2.4271	-2.5104	-2.4688	-2.9042	-2.4208	-2.6208	-3.0104	-2.1854	-2.9333	-2.475	-2.5125	-2.8792	-2.1875	-2.4896	-2.7229	-2.2938	133.247	291.436	201.508	303.699	298.170	229.479	331.116	221.011	158.610	20.903	340.790	278.555	24.458	19.094	167.407	11.601	0.00029434	0.00011835	9.0566e-05	1094.1	1.3036e-06	5.8423e-06	1198.6	220.46	4.5487e-06	2.0727e-06	283.34	78.794	59.944	18.049	6.3669e-06	25.625	0.00031304	0.00031346	8.5486e-05	1080.3	3.43e-06	3.4944e-06	1183.1	219.85	3.3979e-06	3.4808e-06	282.96	79.804	59.711	18.462	3.4293e-06	26.055	273.669	109.590	120.490	6.176	257.772	116.552	6.254	13.983	255.681	148.157	13.381	20.547	20.113	27.921	99.201	26.947	-8191	255	
644.240	1	1	0	0	0.11258	0.083641	0.074533	0.22725	0.2068	0.15856	0.17133	0.40933	0.1936	0.043492	0.23757	0.31044	0.17422	0.12894	0.33957	0.050728	-2.3042	-2.5625	-2.3542	-2.8896	-2.2833	-2.6479	-2.8104	-2.3771	-2.8667	-2.5521	-2.5167	-2.9708	-2.3375	-2.5354	-2.6792	-2.4062	333.070	43.290	271.075	344.278	67.506	295.098	295.779	354.414	166.413	291.131	81.391	251.830	2.774	129.269	131.172	156.389	0.00034985	0.0002381	0.00015075	1091.3	5.0842e-06	6.1551e-06	1199.1	220.37	1.1701e-06	3.0106e-06	285.1	79.324	59.381	18.107	2.9873e-06	25.552	0.00031192	0.00032291	8.8018e-05	1079.4	3.4147e-06	3.4509e-06	1184.3	219.7	3.3442e-06	3.4193e-06	283.03	79.759	59.654	18.469	3.3539e-06	26.073	291.488	63.171	108.961	6.187	165.804	137.656	6.221	13.862	94.965	160.203	13.521	20.311	19.608	27.613	240.030	26.964	-8191	255	
644.360	1	1	0	0	0.13348	0.16694	0.18331	0.31837	0.329	0.16349	0.16859	0.085859	0.19195	0.13549	0.082366	0.17302	0.051181	0.14001	0.13124	0.34231	-2.4437	-2.5875	-2.2729	-2.9958	-2.4562	-2.6667	-3.1021	-2.3958	-2.7292	-2.6312	-2.3104	-2.975	-2.4104	-2.5312	-2.8042	-2.375	300.021	306.644	103.480	348.587	135.536	126.806	321.950	27.447	9.355	129.869	274.199	349.114	299.727	0.751	155.510	291.884	0.00029409	0.00040943	9.3741e-05	1092.1	3.3296e-06	1.5627e-06	1202.7	220.24	3.7073e-06	3.3079e-06	283.02	79.348	59.706	18.043	5.7227e-06	25.739	0.00031245	0.00031358	8.8462e-05	1078.8	3.4255e-06	3.4268e-06	1186.1	219.85	3.3853e-06	3.3773e-06	282.9	79.89	59.762	18.424	3.3715e-06	26.093	296.768	98.924	108.364	6.172	177.823	154.865	6.219	13.887	244.049	179.299	13.520	20.062	19.904	27.772	156.319	26.762	-8191	255	
644.432	1	1	0	0	0.30391	0.32452	0.12999	0.1608	0.2412	0.12755	0.24674	0.36987	0.1675	0.19588	0.18931	0.18621	0.090649	0.099382	0.18619	0.010187	-2.4313	-2.7062	-2.3917	-2.9688	-2.3812	-2.4979	-3.1125	-2.5625	-2.6479	-2.7146	-2.3417	-3.0271	-2.4771	-2.5646	-2.9104	-2.725	195.985	34.881	260.819	265.995	253.602	127.674	215.056	325.156	307.995	228.046	226.143	-1.326	336.926	12.142	295.153	94.036	0.00029869	0.00011839	3.4497e-05	1096.4	4.3941e-06	3.7356e-06	1198.9	221.66	5.437e-06	3.8283e-06	284.6	78.908	59.763	18.066	8.4024e-06	25.74	0.00031164	0.00031587	8.6757e-05	1080.8	3.4656e-06	3.3682e-06	1185.3	220.1	3.3922e-06	3.4139e-06	283.4	79.786	59.602	18.402	3.3194e-06	26.135	294.650	100.538	116.306	6.305	212.359	181.039	6.432	14.082	187.774	182.274	13.844	20.667	19.787	27.699	138.558	27.349	-8191	255	
644.528	1	1	0	0	0.14086	0.11836	0.10613	0.028974	0.24777	0.17413	0.20972	0.14784	0.14959	0.32053	0.014359	0.24019	0.28448	0.15032	0.23347	0.041575	-2.2021	-2.6396	-2.1417	-3.1354	-2.5979	-2.4688	-2.9688	-2.4646	-2.7271	-2.8583	-2.4771	-2.7313	-2.4375	-2.4521	-2.8312	-2.3917	81.512	277.514	293.400	295.377	144.536	196.736	232.744	239.114	140.807	215.163	210.164	294.509	53.734	243.761	287.693	277.178	0.0003158	0.0003617	5.8849e-05	1087.7	4.8426e-06	4.6309e-06	1201.4	220.95	4.146e-06	4.0564e-06	283.99	79.816	59.406	17.994	3.2341e-06	25.293	0.00030122	0.00030389	8.3382e-05	1076.4	3.3207e-06	3.3104e-06	1184.2	219.84	3.3228e-06	3.279e-06	283.08	79.946	59.542	18.396	3.2203e-06	26.012	285.309	123.375	131.070	6.192	193.165	134.272	6.374	14.176	205.607	179.328	13.456	20.903	20.077	28.188	142.451	27.013	-8191	255	
644.624	1	1	0	0	0.21637	0.011132	0.22416	0.094331	0.24832	0.16875	0.27169	0.19225	0.18844	0.16441	0.082406	0.089535	0.10152	0.24737	0.11646	0.18725	-2.0563	-2.8167	-2.2375	-2.7021	-2.5542	-2.2146	-2.8854	-2.5083	-2.65	-2.7271	-2.2313	-2.8125	-2.7021	-2.2479	-2.8646	-2.7146	85.313	99.568	103.440	137.199	113.771	75.877	269.040	84.278	8.473	289.351	321.554	318.899	202.204	147.040	180.335	345.330	0.00026234	0.00027095	6.2414e-05	1095.2	7.3932e-06	3.1435e-06	1200.6	220.44	3.095e-06	5.4081e-06	284.03	79.815	59.55	18.114	4.1707e-06	25.479	0.00030496	0.00029645	8.3078e-05	1079.2	3.3128e-06	3.2091e-06	1183.8	219.98	3.3237e-06	3.1985e-06	282.86	79.887	59.502	18.411	3.1696e-06	26.073	291.124	74.580	82.927	6.295	190.712	160.862	6.294	13.753	242.799	137.594	13.299	20.495	20.017	27.569	118.589	27.161	-8191	255	
644.745	1	1	0	0	0.058614	0.15683	0.051621	0.082026	0.1678	0.26796	0.32387	0.13031	0.068453	0.023462	0.26089	0.32912	0.11115	0.12994	0.062735	0.13608	-2.1125	-2.8146	-2.2667	-2.6854	-2.6688	-2.3146	-2.7729	-2.625	-2.5125	-2.5125	-2.55	-2.6229	-2.6917	-2.3271	-2.9083	-2.5917	217.833	269.514	120.861	320.718	316.169	281.904	337.725	157.794	303.677	310.933	256.599	258.706	330.397	77.141	162.832	210.321	0.00029428	0.00012351	3.8838e-05	1097.7	3.916e-06	1.3065e-06	1205.1	220.18	6.8823e-06	4.9913e-06	285.09	80.167	59.452	18.119	4.8922e-06	25.774	0.0002919	0.00028828	8.0947e-05	1080.6	3.2736e-06	3.1467e-06	1185.2	219.74	3.2537e-06	3.2361e-06	282.93	80.11	59.382	18.398	3.1221e-06	26.127	289.581	110.131	71.495	6.235	177.869	141.267	6.240	14.173	167.561	163.254	13.459	20.850	19.929	27.742	139.597	27.099	-8191	255	
644.841	1	1	0	0	0.17544	0.14598	0.14186	0.27944	0.080768	0.26819	0.276	0.092993	0.1009	0.22625	0.15945	0.081158	0.2822	0.40347	0.22059	0.27749	-1.9667	-2.775	-2.3646	-2.9854	-2.7667	-2.2417	-2.8479	-2.6562	-2.1583	-2.9729	-2.3917	-2.5729	-2.9396	-2.4354	-2.65	-2.9104	121.692	281.133	249.275	276.163	180.104	87.841	242.151	335.503	172.692	271.067	348.877	19.290	57.050	264.194	221.399	291.592	0.00034209	0.00048345	5.7947e-05	1096.7	5.6832e-06	2.4669e-06	1207.1	220.41	7.7068e-06	4.812e-06	282.77	79.267	59.363	18.136	2.8919e-06	25.63	0.00029443	0.00029204	8.1297e-05	1079.9	3.1703e-06	3.1865e-06	1184.3	219.55	3.1428e-06	3.1411e-06	282.29	79.737	59.502	18.407	3.1111e-06	26.028	289.662	71.892	123.257	6.319	124.939	200.048	6.206	14.086	232.412	126.651	13.373	20.454	19.901	27.484	162.776	27.125	-8191	255	
644.936	1	1	0	0	0.29199	0.20478	0.23257	0.24101	0.095108	0.072171	0.078294	0.30311	0.25798	0.20374	0.097021	0.473	0.024931	0.25825	0.071076	0.26959	-1.8604	-2.9458	-2.6146	-2.5396	-2.7354	-2.4083	-2.7583	-2.8333	-2.1333	-2.9562	-2.6125	-2.5563	-2.7042	-2.4	-2.6521	-2.6833	231.455	335.257	322.888	291.403	89.834	13.180	321.192	349.806	153.768	194.251	315.812	292.472	62.513	353.227	66.023	263.666	0.00031819	0.0001347	3.423e-05	1091.9	6.2443e-06	2.6715e-06	1200.5	221.1	5.0038e-06	1.5984e-06	284.24	78.998	59.193	18.055	6.8316e-06	25.608	0.00028943	0.00028472	8.047e-05	1077.8	3.1666e-06	3.1762e-06	1184.2	219.54	3.1182e-06	3.1266e-06	283.15	79.849	59.393	18.383	3.1034e-06	26.027	291.730	132.806	55.339	6.358	166.826	178.098	6.258	13.890	204.835	188.859	12.953	20.708	19.777	27.732	150.319	27.105	-8191	255	
645.033	1	1	0	0	0.11851	0.44586	0.15272	0.055797	0.10528	0.1831	0.33576	0.26789	0.19173	0.11976	0.3569	0.15416	0.14076	0.36668	0.091371	0.18977	-2.1396	-2.8979	-2.5417	-2.325	-2.8375	-2.6063	-2.5729	-2.9146	-2.4188	-2.9479	-2.6583	-2.5667	-2.9688	-2.3708	-2.6417	-2.8354	187.118	114.385	194.310	-3.633	264.783	214.162	299.724	285.887	123.262	162.945	307.367	295.760	343.289	336.709	275.507	1.284	0.00032676	0.00035136	8.9912e-05	1094.8	4.1947e-06	5.4543e-06	1201.3	220.33	2.6849e-06	4.1875e-06	283.78	79.61	59.431	18.06	1.0482e-06	25.607	0.00028714	0.00028392	7.9756e-05	1078.1	3.1147e-06	3.107e-06	1183.7	219.06	3.0596e-06	3.0774e-06	282.99	79.931	59.398	18.411	3.1656e-06	26.038	290.411	86.357	143.476	6.176	197.694	129.133	6.368	14.090	298.204	162.914	13.633	20.571	19.892	27.546	344.540	27.347	-8191	255	
645.128	1	1	0	0	0.066889	0.063885	0.12597	0.23476	0.24423	0.20656	0.1972	0.010426	0.14896	0.046579	0.27267	0.21221	0.10836	0.25254	0.068779	0.11298	-1.9937	-2.8729	-2.6604	-2.5771	-2.8312	-2.3792	-2.6458	-2.8042	-2.2229	-2.6021	-2.7438	-2.1875	-2.8563	-2.5208	-2.4771	-2.8021	200.491	197.999	201.547	349.882	72.968	45.977	280.148	228.785	65.150	10.292	318.079	27.261	163.856	300.395	245.045	351.395	0.0003205	0.00033137	4.3405e-05	1092.6	3.6605e-06	3.1928e-06	1200.1	221.08	6.3764e-06	1.2635e-06	283.02	79.527	59.089	18.024	2.9517e-06	25.756	0.00028944	0.00028998	7.9729e-05	1077.5	3.1183e-06	3.1036e-06	1181.5	219.52	3.1198e-06	3.1607e-06	282.21	79.715	59.401	18.364	3.2076e-06	26.114	285.922	98.773	28.645	6.336	186.592	102.383	6.464	14.388	183.464	201.326	13.442	20.354	19.770	27.951	242.405	27.373	-8191	255	
645.224	1	1	0	0	0.14139	0.14347	0.046261	0.1988	0.35954	0.17542	0.22107	0.15761	0.21389	0.12792	0.14723	0.22889	0.40821	0.17794	0.10358	0.31689	-1.9979	-2.6271	-2.5854	-2.45	-2.7583	-2.4833	-2.6083	-2.8812	-2.5479	-2.7625	-2.8688	-2.3937	-2.6958	-2.6292	-2.5958	-2.9729	204.898	106.155	347.831	327.575	288.994	180.885	281.090	340.459	15.052	161.100	67.196	354.274	287.397	72.672	265.126	26.460	0.00041431	0.00038316	6.254e-05	1091.9	3.8848e-06	2.0581e-06	1198.1	220.2	3.6551e-06	2.1804e-06	283.26	79.26	59.311	18.069	4.8949e-06	25.631	0.00029413	0.00028767	7.9359e-05	1076.4	3.1771e-06	3.1365e-06	1183.1	219.25	3.1491e-06	3.1569e-06	282.53	79.754	59.336	18.369	3.0756e-06	26.024	293.499	129.674	104.575	6.341	202.102	205.425	6.184	13.952	50.479	206.432	13.054	20.231	19.641	27.559	168.779	27.474	-8191	255	
645.345	1	1	0	0	0.27367	0.17173	0.11824	0.12058	0.1967	0.35928	0.29399	0.22522	0.13661	0.091508	0.26725	0.061632	0.16907	0.15978	0.055852	0.15647	-1.9562	-2.5646	-2.9229	-2.6083	-2.6125	-2.6375	-2.4771	-2.925	-2.3375	-2.6958	-2.8917	-2.3104	-2.775	-2.6813	-2.4625	-2.8187	213.759	115.280	215.299	351.127	314.428	76.990	274.060	255.174	133.783	195.605	328.867	239.473	268.983	241.306	179.617	43.013	0.00036287	0.00012003	0.00011496	1090.6	4.512e-06	2.8907e-06	1194.8	219.29	1.6659e-06	4.2941e-06	283.48	79.043	59.652	18.203	2.488e-06	25.549	0.00028855	0.00028354	8.0176e-05	1076.3	3.213e-06	3.1546e-06	1179	219.11	3.16e-06	3.1355e-06	282.37	79.557	59.487	18.386	3.1699e-06	26.026	289.987	30.923	54.570	6.232	236.608	133.819	6.307	13.954	139.316	170.319	13.314	20.445	20.094	28.068	136.799	27.471	-8191	255	
645.441	1	1	0	0	0.19032	0.039551	0.15285	0.13871	0.24691	0.035116	0.091324	0.14018	0.22512	0.28704	0.16403	0.033736	0.095844	0.064386	0.054882	0.18524	-2.1458	-2.5292	-2.7917	-2.4667	-2.5625	-2.5917	-2.3729	-2.9667	-2.4833	-2.6229	-2.8937	-2.3292	-2.7042	-2.7104	-2.3583	-2.8125	142.055	130.096	65.108	321.235	263.035	290.190	230.571	69.458	251.642	166.923	318.486	6.808	307.554	48.073	-1.451	320.430	0.00045547	0.00058809	0.00017932	1094.3	4.833e-06	3.7009e-06	1200.2	220.5	5.0869e-06	1.0737e-06	285.03	78.836	59.899	17.994	4.9944e-06	25.626	0.00028982	0.00028745	8.1073e-05	1077.8	3.1715e-06	3.1606e-06	1181.3	219.43	3.1897e-06	3.0982e-06	283	79.616	59.61	18.374	3.134e-06	26.011	287.380	75.088	90.124	6.081	197.976	131.277	6.405	13.843	225.527	114.624	13.364	20.798	19.962	28.170	157.204	27.278	-8191	255	
645.537	1	1	0	0	0.13632	0.24094	0.078721	0.22236	0.21385	0.11687	0.17013	0.17262	0.045611	0.18315	0.14203	0.21623	0.15908	0.28132	0.27281	0.31005	-1.925	-2.3688	-2.8792	-2.5812	-2.7687	-2.7125	-2.6146	-3.0583	-2.7021	-2.4979	-2.9792	-2.6396	-2.6042	-2.9146	-2.3875	-2.9875	265.291	290.132	143.796	299.809	33.497	19.163	213.532	20.218	38.090	73.226	288.070	298.565	38.421	21.976	274.703	343.432	0.00037007	0.0002343	9.0146e-05	1093	3.8705e-06	3.7288e-06	1202.3	220.54	1.3598e-06	8.5932e-07	282.44	79.178	59.409	18.032	5.1408e-06	25.479	0.00028613	0.00029487	7.9075e-05	1077.8	3.1915e-06	3.0933e-06	1183.3	219.65	3.1713e-06	3.1094e-06	281.89	79.727	59.382	18.371	3.1689e-06	25.997	290.142	132.102	66.564	6.274	165.768	104.162	6.311	14.225	142.937	276.289	13.176	20.606	19.711	27.743	138.414	26.882	-8191	255	
645.633	1	1	0	0	0.081502	0.10636	0.11311	0.10512	0.12742	0.18807	0.26755	0.10052	0.08467	0.1879	0.10536	0.34823	0.056325	0.1794	0.10808	0.1429	-2.2125	-2.2708	-2.8021	-2.7167	-2.5875	-2.8438	-2.6583	-2.9688	-2.7583	-2.475	-2.9	-2.5917	-2.6458	-2.7687	-2.375	-2.5896	328.852	117.920	56.887	288.120	48.701	247.990	254.506	149.508	323.136	338.223	145.809	271.033	180.545	137.672	208.593	20.030	0.00037949	0.00039648	0.00011978	1092.4	2.5364e-06	7.2038e-06	1197	219.19	7.5012e-06	1.7601e-06	284.48	78.967	59.569	18.097	4.399e-06	25.712	0.00029142	0.00028975	8.0253e-05	1076.7	3.0976e-06	3.1432e-06	1180.1	219.07	3.1069e-06	3.0974e-06	282.61	79.632	59.537	18.368	3.1207e-06	26.058	290.822	67.421	122.492	6.311	148.177	140.336	6.393	14.069	225.084	115.721	13.086	20.230	19.578	27.965	140.775	27.517	-8191	255	
#DATA ENDS
