BOXY.EXE: ISS Imagent and Oximeter Data Acquisition Program Version 0.80
Ascii Record File

#ACQ INFORMATION
2  Detector Channels 
16  External MUX Channels 
1  Auxiliary Channels 
5000  Waveform (CCF) Frequency (Hz)
1  Waveforms Skipped 
30  Waveforms Averaged 
1  Cycles Averaged 
16  Acquisitions per Waveform 
10.0806  Updata Rate (Hz) 

#FILE INFORMATION
TRUE -- External MUX Channel results are PARSED.
FALSE -- AC DC and Phase are NOT grouped.
TRUE -- Companion Program Settings File CREATED.
FALSE -- AC data not excluded
FALSE -- DC data not excluded
FALSE -- Phase data not excluded
FALSE -- Auxillary Chn. data not excluded
Tab delimiters

#CALIBRATION STATE
TRUE -- Waveform Calibration Values APPLIED.


#AUX CALIBRATION VALUES
Val Type	aux-1	

Term	1.0000e+00	
Factor	0.0000e+00	


#WF CALIBRATION VALUES
A = Detector Channel
Val Type	A-AC1	A-AC2	A-AC3	A-AC4	A-AC5	A-AC6	A-AC7	A-AC8	A-AC9	A-AC10	A-AC11	A-AC12	A-AC13	A-AC14	A-AC15	A-AC16	A-DC1	A-DC2	A-DC3	A-DC4	A-DC5	A-DC6	A-DC7	A-DC8	A-DC9	A-DC10	A-DC11	A-DC12	A-DC13	A-DC14	A-DC15	A-DC16	A-Ph1	A-Ph2	A-Ph3	A-Ph4	A-Ph5	A-Ph6	A-Ph7	A-Ph8	A-Ph9	A-Ph10	A-Ph11	A-Ph12	A-Ph13	A-Ph14	A-Ph15	A-Ph16	

Term	0.00000e+00	0.00000e+00	0.00000e+00	0.00000e+00	0.00000e+00	0.00000e+00	0.00000e+00	0.00000e+00	0.00000e+00	0.00000e+00	0.00000e+00	0.00000e+00	0.00000e+00	0.00000e+00	0.00000e+00	0.00000e+00	0.00000e+00	0.00000e+00	0.00000e+00	0.00000e+00	0.00000e+00	0.00000e+00	0.00000e+00	0.00000e+00	0.00000e+00	0.00000e+00	0.00000e+00	0.00000e+00	0.00000e+00	0.00000e+00	0.00000e+00	0.00000e+00	0.00000e+00	0.00000e+00	0.00000e+00	0.00000e+00	0.00000e+00	0.00000e+00	0.00000e+00	0.00000e+00	0.00000e+00	0.00000e+00	0.00000e+00	0.00000e+00	0.00000e+00	0.00000e+00	0.00000e+00	0.00000e+00	
Factor	1.00000e+00	1.00000e+00	1.00000e+00	1.00000e+00	1.00000e+00	1.00000e+00	1.00000e+00	1.00000e+00	1.00000e+00	1.00000e+00	1.00000e+00	1.00000e+00	1.00000e+00	1.00000e+00	1.00000e+00	1.00000e+00	1.00000e+00	1.00000e+00	1.00000e+00	1.00000e+00	1.00000e+00	1.00000e+00	1.00000e+00	1.00000e+00	1.00000e+00	1.00000e+00	1.00000e+00	1.00000e+00	1.00000e+00	1.00000e+00	1.00000e+00	1.00000e+00	X	X	X	X	X	X	X	X	X	X	X	X	X	X	X	X	

B = Detector Channel
Val Type	B-AC1	B-AC2	B-AC3	B-AC4	B-AC5	B-AC6	B-AC7	B-AC8	B-AC9	B-AC10	B-AC11	B-AC12	B-AC13	B-AC14	B-AC15	B-AC16	B-DC1	B-DC2	B-DC3	B-DC4	B-DC5	B-DC6	B-DC7	B-DC8	B-DC9	B-DC10	B-DC11	B-DC12	B-DC13	B-DC14	B-DC15	B-DC16	B-Ph1	B-Ph2	B-Ph3	B-Ph4	B-Ph5	B-Ph6	B-Ph7	B-Ph8	B-Ph9	B-Ph10	B-Ph11	B-Ph12	B-Ph13	B-Ph14	B-Ph15	B-Ph16	

Term	0.00000e+00	0.00000e+00	0.00000e+00	0.00000e+00	0.00000e+00	0.00000e+00	0.00000e+00	0.00000e+00	0.00000e+00	0.00000e+00	0.00000e+00	0.00000e+00	0.00000e+00	0.00000e+00	0.00000e+00	0.00000e+00	0.00000e+00	0.00000e+00	0.00000e+00	0.00000e+00	0.00000e+00	0.00000e+00	0.00000e+00	0.00000e+00	0.00000e+00	0.00000e+00	0.00000e+00	0.00000e+00	0.00000e+00	0.00000e+00	0.00000e+00	0.00000e+00	2.16202e+01	-1.27640e+02	-1.20072e+02	-1.81829e+02	-6.16250e+01	-7.02085e+01	-1.55860e+02	-1.62015e+02	-1.48752e+01	-5.71797e+01	-1.72273e+02	-1.70198e+02	-1.80175e+02	-1.76607e+02	-7.27239e+01	-1.49939e+02	
Factor	4.79762e-05	1.77696e-04	5.16229e-05	1.64818e-01	2.61545e-06	2.05122e-06	1.93509e-01	5.38336e-02	2.73419e-06	1.91366e-06	1.19766e-01	3.42918e-02	3.29175e-02	9.95306e-03	2.68039e-06	1.45024e-02	5.05911e-06	5.72559e-06	1.60112e-06	8.38037e-02	6.11931e-08	6.30998e-08	9.23443e-02	2.74153e-02	6.11160e-08	6.32174e-08	5.83758e-02	1.68713e-02	1.67443e-02	5.10467e-03	6.19901e-08	7.18827e-03	X	X	X	X	X	X	X	X	X	X	X	X	X	X	X	X	



#DISTANCE SETTINGS
A = Detector Channel
A-1	A-2	A-3	A-4	A-5	A-6	A-7	A-8	A-9	A-10	A-11	A-12	A-13	A-14	A-15	A-16	

2.5000e+00	3.0000e+00	2.5000e+00	3.0000e+00	2.0000e+00	3.0000e+00	1.5000e+00	3.0000e+00	3.0000e+00	3.0000e+00	3.0000e+00	3.0000e+00	3.0000e+00	3.0000e+00	1.5000e+00	3.0000e+00	

B = Detector Channel
B-1	B-2	B-3	B-4	B-5	B-6	B-7	B-8	B-9	B-10	B-11	B-12	B-13	B-14	B-15	B-16	

1.0000e+01	1.0000e+01	1.0000e+01	1.4400e+00	1.0000e+01	1.0000e+01	1.5100e+00	1.9400e+00	1.0000e+01	1.0000e+01	1.9900e+00	2.4900e+00	2.4100e+00	2.9000e+00	1.0000e+01	2.9800e+00	




#DATA BEGINS
time	group	step	mark	flag	A-AC1	A-AC2	A-AC3	A-AC4	A-AC5	A-AC6	A-AC7	A-AC8	A-AC9	A-AC10	A-AC11	A-AC12	A-AC13	A-AC14	A-AC15	A-AC16	A-DC1	A-DC2	A-DC3	A-DC4	A-DC5	A-DC6	A-DC7	A-DC8	A-DC9	A-DC10	A-DC11	A-DC12	A-DC13	A-DC14	A-DC15	A-DC16	A-Ph1	A-Ph2	A-Ph3	A-Ph4	A-Ph5	A-Ph6	A-Ph7	A-Ph8	A-Ph9	A-Ph10	A-Ph11	A-Ph12	A-Ph13	A-Ph14	A-Ph15	A-Ph16	B-AC1	B-AC2	B-AC3	B-AC4	B-AC5	B-AC6	B-AC7	B-AC8	B-AC9	B-AC10	B-AC11	B-AC12	B-AC13	B-AC14	B-AC15	B-AC16	B-DC1	B-DC2	B-DC3	B-DC4	B-DC5	B-DC6	B-DC7	B-DC8	B-DC9	B-DC10	B-DC11	B-DC12	B-DC13	B-DC14	B-DC15	B-DC16	B-Ph1	B-Ph2	B-Ph3	B-Ph4	B-Ph5	B-Ph6	B-Ph7	B-Ph8	B-Ph9	B-Ph10	B-Ph11	B-Ph12	B-Ph13	B-Ph14	B-Ph15	B-Ph16	aux-1	digaux	

846.811	1	1	0	512	0.4519	0.16468	0.11972	0.32987	0.13236	0.16538	0.28231	0.1329	0.13332	0.15657	0.16757	0.15471	0.10997	0.29445	0.2029	0.094629	-2.1771	-2.3563	-2.9188	-2.6604	-2.5792	-3.0396	-2.5208	-2.9458	-2.8708	-2.5583	-3.2062	-2.7354	-2.65	-3.0958	-2.4938	-3.0125	193.098	264.558	227.928	52.211	100.032	85.494	317.203	384.754	47.663	57.797	315.062	387.994	189.004	357.493	121.779	50.391	0.0014184	0.00060701	0.00018316	957.06	8.1077e-06	4.6903e-06	1177.9	267.43	1.029e-05	6.2837e-06	420.97	154.89	82.258	38.176	9.2144e-06	81.212	0.00025895	0.00015528	4.2683e-05	892.05	1.7413e-06	1.5968e-06	1097.3	250.35	1.7659e-06	1.7044e-06	390.14	146.02	76.591	36.103	1.776e-06	76.363	301.384	136.475	135.248	52.350	199.154	223.646	52.458	57.565	242.611	203.488	56.647	62.395	62.051	68.822	210.664	66.534	-8191	255	
846.907	1	1	0	0	0.20111	0.040021	0.22055	0.47784	0.28716	0.11396	0.19818	0.50792	0.077794	0.16365	0.21946	0.24973	0.1689	0.18833	0.21317	0.19806	-2.2812	-2.4667	-2.8375	-2.8583	-2.6688	-3.125	-2.6479	-2.9854	-2.9771	-2.4771	-2.8979	-2.825	-2.7062	-2.8521	-2.5729	-2.875	132.468	205.106	77.008	393.992	397.775	284.634	331.782	342.096	203.853	156.659	398.325	392.570	352.564	358.730	208.155	353.159	0.0014209	0.00054569	0.00016895	960.25	9.4104e-06	4.7252e-06	1185.6	268.23	7.8876e-06	4.0587e-06	418.13	156.49	82.692	38.064	9.9088e-06	80.639	0.00026337	0.00016073	4.5305e-05	894.89	1.7757e-06	1.7673e-06	1105.2	251.2	1.8376e-06	1.7116e-06	391.07	146.28	77.125	36.245	1.7769e-06	76.151	302.537	148.175	134.381	52.353	207.565	190.904	52.105	57.685	273.461	222.439	56.807	62.135	61.711	69.130	198.003	66.462	-8191	255	
847.003	1	1	0	0	0.10282	0.055406	0.011985	0.038791	0.25566	0.22457	0.030586	0.22745	0.30796	0.14722	0.051527	0.27546	0.079392	0.18188	0.21887	0.25221	-2.4979	-2.2708	-3.0062	-2.8396	-2.4333	-3.0042	-2.5729	-2.7667	-2.8625	-2.5812	-2.9729	-2.8042	-2.5438	-3.1896	-2.7083	-2.8604	150.285	273.542	110.630	309.050	325.661	108.821	283.250	81.200	54.307	300.286	322.731	391.038	267.800	189.277	363.464	300.874	0.001385	0.00065376	0.00020802	971.01	7.9808e-06	7.2052e-06	1207.9	272.08	8.371e-06	4.1816e-06	419.63	155.8	83.675	37.831	7.6673e-06	79.647	0.00025888	0.00016418	4.4925e-05	907.85	1.8446e-06	1.8342e-06	1122.4	253.86	1.8861e-06	1.8259e-06	391.52	145.79	77.741	35.99	1.8414e-06	74.989	303.767	129.423	136.003	52.335	192.994	179.933	52.183	57.708	241.897	195.512	56.660	62.534	61.947	68.602	184.113	66.506	-8191	255	
847.099	1	1	0	0	0.15101	0.074425	0.17183	0.21413	0.12727	0.29279	0.060013	0.29049	0.25999	0.01044	0.079271	0.2942	0.038101	0.12018	0.080484	0.34044	-2.5729	-2.4354	-2.9521	-2.9771	-2.4875	-2.9958	-2.7292	-2.6646	-2.9167	-2.55	-2.9167	-2.9271	-2.55	-3.1688	-2.7375	-2.6292	52.199	323.453	213.733	79.016	356.196	87.291	292.655	356.575	229.115	265.509	142.763	377.982	367.911	310.388	209.841	323.357	0.001407	0.00050869	0.00013782	985.81	9.6739e-06	5.8108e-06	1197.8	270.39	7.3494e-06	6.5694e-06	413.2	153.57	83.374	37.78	6.6387e-06	78.256	0.00027292	0.00017292	4.9638e-05	917.32	1.9146e-06	1.805e-06	1114.4	253.39	1.8695e-06	1.8085e-06	385.94	143.26	77.145	35.674	1.8381e-06	73.799	300.003	130.044	128.408	52.383	183.979	197.621	52.250	57.650	246.379	185.418	56.545	62.349	61.872	68.644	192.867	66.371	-8191	255	
847.195	1	1	0	0	0.15147	0.17718	0.33297	0.10571	0.29007	0.10983	0.20647	0.32479	0.1601	0.19542	0.26731	0.13561	0.051242	0.041324	0.15788	0.087355	-2.4521	-2.6479	-2.7917	-2.9354	-2.5271	-2.9542	-2.8312	-2.55	-3.0104	-2.7292	-2.9188	-3.0812	-2.5083	-2.9896	-2.8396	-2.8417	368.365	199.656	175.247	394.931	111.302	135.007	376.798	325.343	372.864	138.696	390.281	85.637	345.734	191.947	245.885	389.734	0.0013189	0.00049675	0.00015173	980.4	8.4474e-06	6.6824e-06	1198.9	268.99	1.3708e-05	5.3415e-06	411.84	152.21	82.489	37.609	5.6936e-06	77.739	0.00026103	0.00016118	4.6983e-05	913.49	1.8309e-06	1.7548e-06	1111.2	252.24	1.9062e-06	1.8039e-06	385.3	142.78	76.82	35.571	1.8437e-06	73.488	303.968	167.640	124.650	52.351	213.636	190.434	52.219	57.773	258.860	206.024	56.840	62.130	61.861	68.585	210.449	66.410	-8191	255	
847.316	1	1	0	0	0.35597	0.18534	0.18464	0.27263	0.2396	0.11302	0.082701	0.22026	0.19945	0.26044	0.061456	0.19305	0.28795	0.1168	0.10592	0.18098	-2.7167	-2.4938	-2.725	-2.925	-2.3021	-2.8479	-2.9813	-2.3875	-2.9646	-2.6042	-2.8667	-3.0104	-2.5521	-2.9375	-2.8854	-2.7562	232.689	361.311	390.495	384.273	56.348	233.588	280.370	279.000	40.550	375.640	317.402	291.868	322.048	309.060	399.289	257.307	0.001332	0.00058001	0.00012474	977.47	7.4118e-06	4.906e-06	1196.4	269.13	7.8907e-06	5.6336e-06	413.75	152.45	82.099	37.053	3.9954e-06	77.423	0.00026581	0.00017224	4.8501e-05	912.96	1.9283e-06	1.7602e-06	1110.2	252.09	1.7797e-06	1.8511e-06	386.02	142.48	76.492	35.212	1.8582e-06	73.091	300.634	113.523	116.581	52.422	202.998	182.957	52.362	57.808	266.239	195.157	56.530	62.184	61.762	68.657	217.737	66.555	-8191	255	
847.412	1	1	0	0	0.11265	0.16946	0.33025	0.10316	0.2728	0.16043	0.26245	0.073286	0.27404	0.080805	0.20926	0.17484	0.29286	0.15677	0.12858	0.09191	-2.6688	-2.7167	-2.6354	-3.1063	-2.5812	-2.7479	-3.0375	-2.4896	-2.8208	-2.6833	-2.7583	-3.225	-2.4667	-2.8292	-2.9083	-2.6479	259.455	44.219	324.030	71.772	185.723	371.307	291.805	199.035	369.812	318.721	324.086	48.096	72.782	375.483	201.462	45.892	0.0013195	0.00054392	0.00012856	975.7	6.7807e-06	4.6409e-06	1193.2	269.19	7.0486e-06	5.1052e-06	415.7	152.75	81.228	36.688	5.5554e-06	77.126	0.00025886	0.00016219	4.4741e-05	910.33	1.8275e-06	1.7047e-06	1110.5	251.81	1.8131e-06	1.7756e-06	386.49	142.17	75.689	34.685	1.7458e-06	72.399	303.095	98.551	118.076	52.415	183.002	213.459	52.182	57.461	238.539	199.932	56.577	62.102	61.464	68.952	192.977	66.208	-8191	255	
847.508	1	1	0	0	0.1063	0.16907	0.13298	0.19116	0.057513	0.24673	0.31533	0.087325	0.18477	0.23058	0.062242	0.22279	0.14963	0.22432	0.094425	0.26414	-2.6896	-2.8854	-2.5938	-3.2083	-2.5646	-2.8417	-3.2125	-2.5438	-2.7875	-2.8688	-2.5604	-3.0938	-2.725	-2.7021	-2.9188	-2.7729	81.909	113.728	257.158	333.873	396.568	384.115	377.556	327.187	304.487	370.238	315.961	51.369	345.104	368.385	258.850	396.301	0.0013016	0.0004018	0.00015742	979.72	9.4734e-06	6.4177e-06	1186.2	269.09	7.2344e-06	6.6972e-06	409.52	150.87	81.893	36.508	7.8919e-06	75.999	0.00025583	0.00016077	4.5772e-05	914.01	1.8397e-06	1.7245e-06	1109.8	252.31	1.7971e-06	1.7526e-06	383.92	141.1	76.227	34.535	1.7161e-06	71.796	302.069	144.354	143.786	52.415	188.526	178.142	52.352	57.586	267.556	202.952	56.424	62.147	61.769	68.694	170.326	66.410	-8191	255	
847.605	1	1	0	0	0.29238	0.23871	0.093882	0.21947	0.14379	0.080209	0.22912	0.37353	0.11449	0.045619	0.24345	0.42599	0.18611	0.14332	0.27038	0.17612	-2.5542	-2.7375	-2.5292	-3.1729	-2.6188	-2.4875	-2.9896	-2.3563	-2.8438	-2.8042	-2.4646	-3.0229	-2.5958	-2.6021	-3.0396	-2.7687	202.037	319.946	321.720	367.236	316.924	90.315	364.403	348.270	324.470	241.876	364.736	380.170	230.582	304.737	61.360	311.984	0.0013488	0.00045801	0.00011853	981.74	1.3024e-05	4.6685e-06	1187.8	267.2	7.4902e-06	3.7833e-06	409.22	149.68	81.798	36.293	7.1475e-06	75.8	0.00025278	0.00015662	4.5268e-05	913.4	1.8049e-06	1.7203e-06	1105.4	251.06	1.8094e-06	1.7419e-06	383.06	140.45	75.888	34.328	1.8418e-06	71.295	302.025	120.254	164.708	52.230	201.376	222.996	52.262	57.366	261.273	231.420	56.636	62.279	61.698	68.956	204.699	66.322	-8191	255	
847.701	1	1	0	0	0.21008	0.23648	0.057381	0.20122	0.062101	0.12356	0.087639	0.1674	0.12645	0.32082	0.28451	0.26869	0.15459	0.16659	0.35874	0.041584	-2.3458	-2.8333	-2.3771	-3.0542	-2.8063	-2.7833	-3.3021	-2.6813	-2.7667	-2.8604	-2.6854	-2.9938	-2.8688	-2.5208	-3.1146	-2.6958	276.990	263.598	310.780	379.335	59.813	112.148	382.165	231.248	183.705	150.260	394.130	390.608	391.634	158.771	178.681	375.535	0.0013804	0.00076074	7.6266e-05	980.15	7.6289e-06	6.5286e-06	1191.4	268.1	5.6756e-06	4.2815e-06	412.14	151.28	81.288	36.391	2.1084e-06	75.925	0.0002628	0.00016158	4.5962e-05	913.65	1.8085e-06	1.7794e-06	1106.8	251.08	1.7609e-06	1.7187e-06	382.72	140.8	75.602	34.403	1.7569e-06	71.78	301.269	136.222	146.608	52.263	190.879	181.751	52.090	57.209	254.604	204.511	56.388	62.284	61.812	68.394	149.485	66.331	-8191	255	
847.797	1	1	0	0	0.19291	0.25629	0.12663	0.19821	0.28429	0.14696	0.28926	0.096109	0.18682	0.12217	0.19854	0.081026	0.23387	0.13704	0.051123	0.05217	-2.3042	-2.8417	-2.3021	-3.0146	-2.7708	-2.6646	-3.2083	-2.8667	-2.7458	-3.175	-2.6229	-2.8125	-2.8	-2.4833	-3.0875	-2.8375	239.817	145.072	346.837	338.798	161.370	145.900	317.509	264.965	52.013	43.446	108.326	125.137	254.880	224.040	103.447	220.871	0.0012369	0.00047543	0.00014458	980.27	6.9124e-06	5.8337e-06	1190	269.88	5.4442e-06	4.8796e-06	415.49	151.35	81.554	36.673	5.1982e-06	77.45	0.00025361	0.0001529	4.4821e-05	913.34	1.751e-06	1.7786e-06	1110.2	251.72	1.8258e-06	1.7005e-06	386.27	141.76	76.05	34.83	1.8663e-06	72.978	300.771	152.056	114.232	52.220	213.538	144.815	52.196	57.409	234.734	182.155	56.450	62.159	61.687	68.972	201.085	66.378	-8191	255	
847.891	1	1	0	0	0.19304	0.22988	0.20889	0.53958	0.22153	0.14649	0.40121	0.16481	0.16227	0.13656	0.13081	0.13917	0.13696	0.32418	0.2344	0.30202	-2.1229	-2.9146	-2.5521	-2.9729	-2.9271	-2.45	-3.1229	-2.5542	-2.5583	-3.0833	-2.7271	-2.8229	-2.9479	-2.8417	-2.9979	-2.8063	357.457	51.492	396.183	315.308	228.611	210.390	59.847	377.920	190.900	352.034	108.561	319.141	375.026	346.212	394.065	382.013	0.0012836	0.00063504	0.00014594	981.54	8.7938e-06	3.9257e-06	1197.7	271.34	1.0819e-05	6.3862e-06	414.08	151.96	82.466	37.278	7.3978e-06	77.422	0.00024922	0.00015923	4.5999e-05	915.49	1.7969e-06	1.7911e-06	1114.7	253.25	1.8358e-06	1.7538e-06	386.47	142.84	76.838	35.343	1.8492e-06	73.262	303.945	142.959	135.462	52.597	224.875	208.037	52.529	57.225	232.026	218.978	56.651	62.048	61.616	68.395	174.086	66.288	-8191	255	
848.012	1	1	0	0	0.15887	0.26732	0.11336	0.11324	0.27698	0.088895	0.19268	0.28004	0.1777	0.21024	0.1979	0.21285	0.26938	0.25335	0.1856	0.31503	-2.1917	-3.0375	-2.3646	-2.775	-2.9021	-2.3521	-3.0104	-2.7771	-2.5687	-3.0792	-2.6063	-2.7188	-2.9792	-2.6562	-2.9021	-2.8896	192.655	233.161	118.021	265.492	164.167	86.412	302.481	296.382	85.261	102.116	69.032	374.520	310.841	57.569	183.246	181.273	0.0013472	0.00064222	0.00020966	975.18	1.049e-05	3.7365e-06	1186	267.2	1.087e-05	6.5873e-06	410.03	150.5	81.268	36.819	9.2217e-06	76.638	0.00026148	0.00015495	4.5265e-05	910.17	1.7214e-06	1.7484e-06	1103.6	251.09	1.8477e-06	1.6559e-06	382.22	140.91	75.675	34.81	1.8405e-06	72.112	300.807	123.899	125.140	52.365	184.406	195.015	52.185	57.514	238.829	207.985	56.781	62.459	61.570	68.723	210.762	66.555	-8191	255	
848.108	1	1	0	0	0.1595	0.216	0.043454	0.27931	0.089239	0.091057	0.47358	0.14295	0.1305	0.11399	0.27711	0.19336	0.046001	0.11565	0.12815	0.10976	-2.0771	-3.0438	-2.6063	-2.7417	-3	-2.5729	-2.9583	-2.9521	-2.5604	-3.0646	-2.6854	-2.6937	-3.0146	-2.625	-2.8625	-3.0292	116.689	205.743	352.381	387.770	217.238	200.906	305.350	347.974	42.626	251.093	363.798	351.917	104.456	376.951	317.617	43.284	0.0013284	0.00082239	0.00013278	984.71	1.2204e-05	7.3686e-06	1190.3	269	1.1455e-05	5.0805e-06	411.96	150.67	81.727	36.413	9.5975e-06	75.744	0.00026174	0.00015902	4.5352e-05	915.32	1.8511e-06	1.8217e-06	1105.7	251.82	1.9067e-06	1.786e-06	382.65	140.31	75.909	34.451	1.7254e-06	71.375	306.822	126.237	155.969	52.378	204.215	180.032	52.477	57.483	249.953	207.722	56.591	62.532	61.901	68.544	189.358	66.286	-8191	255	
848.204	1	1	0	0	0.3441	0.22748	0.16587	0.15858	0.25214	0.15669	0.29138	0.073458	0.25256	0.14861	0.20913	0.23738	0.17467	0.078297	0.073458	0.15893	-1.9646	-2.9958	-2.7708	-2.6125	-2.9729	-2.6271	-2.9646	-3.0292	-2.45	-3.1104	-2.9542	-2.6771	-3.2854	-2.8667	-2.6167	-2.9688	189.466	370.824	320.464	345.585	251.931	97.233	327.728	391.208	333.528	374.724	316.792	392.120	314.172	298.207	44.159	336.830	0.0012342	0.00034418	0.00014403	982.28	1.1278e-05	7.3756e-06	1184.4	268.98	1.1521e-05	6.2097e-06	409.11	148.99	81.368	36.069	8.6894e-06	75.677	0.00026238	0.00016067	4.3974e-05	914.97	1.8173e-06	1.74e-06	1106.2	251.53	1.782e-06	1.7584e-06	382.63	139.89	75.777	34.193	1.7737e-06	70.977	305.249	162.558	115.645	52.359	224.562	182.269	52.430	57.547	246.617	177.561	56.671	62.284	61.750	68.425	209.561	66.410	-8191	255	
848.276	1	1	0	0	0.14796	0.15039	0.13165	0.16035	0.25508	0.15256	0.25439	0.07508	0.25906	0.13181	0.068485	0.079595	0.3627	0.20785	0.12371	0.088197	-2.075	-3.0979	-2.6625	-2.7188	-2.8583	-2.7188	-2.7354	-3.1083	-2.5146	-2.8333	-2.7792	-2.4938	-2.9104	-2.5563	-2.7021	-3.1937	314.661	258.182	225.893	295.157	227.481	310.536	286.657	258.067	83.268	303.774	307.389	345.852	366.707	333.993	214.147	292.641	0.0013342	0.00059511	0.00010456	983.13	9.0231e-06	6.9769e-06	1200.7	268.12	7.438e-06	5.5207e-06	411.12	148.14	81.592	35.499	4.3951e-06	73.396	0.00025729	0.00015934	4.3897e-05	918.35	1.8353e-06	1.768e-06	1114.6	251.29	1.887e-06	1.7875e-06	382.9	138.71	75.525	33.565	1.8062e-06	69.171	301.712	109.789	171.528	52.323	157.175	176.845	52.368	57.536	256.979	182.000	57.043	62.135	61.319	68.849	160.318	66.236	-8191	255	
848.396	1	1	0	0	0.12242	0.1722	0.09453	0.11293	0.017609	0.20576	0.23165	0.061479	0.063847	0.10366	0.10473	0.25121	0.16458	0.11281	0.1939	0.18614	-2.0583	-2.8396	-2.6708	-2.5	-2.9708	-2.6896	-2.6646	-3.0312	-2.4771	-2.9042	-3.0792	-2.6917	-3.0083	-2.7479	-2.4146	-3.1188	80.203	397.784	51.104	58.493	162.542	110.757	340.895	210.213	246.987	255.982	129.015	315.859	386.458	346.614	392.827	88.801	0.001312	0.00054741	0.00016844	995.46	9.4125e-06	3.5346e-06	1193.3	269.01	8.4291e-06	5.9541e-06	405.6	145.63	80.507	34.782	1.1356e-05	72.136	0.00025965	0.00016912	4.6282e-05	927.19	1.8273e-06	1.7276e-06	1111.7	251.48	1.8686e-06	1.7908e-06	378.08	136.16	74.654	32.868	1.8811e-06	67.954	305.056	118.490	139.379	52.337	186.334	209.758	52.062	57.439	249.540	240.909	56.144	61.957	61.515	68.638	193.085	66.670	-8191	255	
848.493	1	1	0	0	0.022871	0.053676	0.062109	0.14238	0.26494	0.25867	0.28678	0.055199	0.23487	0.15771	0.014722	0.1884	0.13025	0.20075	0.0521	0.20389	-2.1792	-2.5792	-2.8521	-2.625	-2.9979	-2.825	-2.5042	-2.8521	-2.4396	-2.575	-3.125	-2.6437	-2.8937	-2.7646	-2.475	-3.0375	177.437	195.875	101.711	395.022	289.154	76.456	324.439	319.824	232.439	264.235	399.515	98.787	345.563	342.552	391.258	381.341	0.0011932	0.00034089	0.00013584	994.8	7.9205e-06	7.5291e-06	1192	269.62	7.0902e-06	7.0451e-06	405.68	146.08	80.518	34.817	8.0795e-06	72.05	0.00025054	0.00015989	4.5412e-05	927.09	1.75e-06	1.7509e-06	1108.8	251.77	1.7952e-06	1.7186e-06	378.61	136.57	74.91	32.965	1.7591e-06	67.831	303.089	110.375	103.195	52.358	196.766	169.714	52.113	57.539	267.052	214.223	56.641	62.144	61.290	68.382	190.300	66.459	-8191	255	
848.589	1	1	0	0	0.17885	0.11325	0.17449	0.059521	0.10865	0.070328	0.35671	0.3068	0.20125	0.30314	0.18191	0.071935	0.20274	0.12904	0.16283	0.1507	-2.1229	-2.6771	-2.7958	-2.4562	-2.8271	-2.8604	-2.4729	-2.975	-2.6	-2.6896	-3.175	-2.6375	-2.6688	-2.9729	-2.2896	-3.0958	168.740	385.881	186.842	136.231	391.000	213.665	377.634	338.484	59.024	124.589	343.152	377.364	335.910	140.591	79.423	323.711	0.0012474	0.0005482	6.8843e-05	988.5	6.7342e-06	5.0841e-06	1189.5	269.52	1.1323e-05	3.3383e-06	405.76	147.08	81.05	35.391	7.5897e-06	73.386	0.00024601	0.00015898	4.1559e-05	924.09	1.7318e-06	1.6888e-06	1109.9	251.75	1.7671e-06	1.6758e-06	379.07	137.29	75.425	33.306	1.8251e-06	68.995	301.920	144.205	137.129	52.323	208.117	224.722	52.151	57.302	244.297	212.149	56.522	62.069	61.521	68.524	202.016	66.489	-8191	255	
848.685	1	1	0	0	0.20867	0.10978	0.20747	0.33469	0.14577	0.2104	0.46682	0.29796	0.17204	0.2028	0.2257	0.079227	0.046353	0.26726	0.20668	0.15694	-2.4062	-2.6021	-3.0438	-2.575	-2.6208	-3.0479	-2.7271	-3.1917	-2.6083	-2.5542	-3.0104	-2.7	-2.7729	-2.7083	-2.4333	-2.9708	190.383	199.505	174.763	331.375	119.017	66.099	374.874	327.250	51.315	291.468	249.026	83.352	115.886	344.999	72.052	305.986	0.0011664	0.00063966	0.00016671	989.92	1.0468e-05	3.9173e-06	1192.1	269.77	6.5055e-06	4.3633e-06	410.02	147.9	80.623	35.3	7.1071e-06	73.658	0.00024296	0.00015595	4.3821e-05	921.63	1.7402e-06	1.7033e-06	1108	252.09	1.7193e-06	1.7229e-06	381.11	137.95	75.257	33.478	1.755e-06	69.583	305.547	134.502	128.430	52.284	224.314	180.098	52.100	57.435	236.317	213.874	56.302	62.285	61.312	68.708	186.038	66.364	-8191	255	
848.804	1	1	0	0	0.25018	0.22867	0.080456	0.23819	0.30815	0.029083	0.17213	0.10492	0.28891	0.2316	0.19264	0.063439	0.1864	0.27326	0.19966	0.16416	-2.2833	-2.4562	-2.8375	-2.8979	-2.6604	-2.9292	-2.5583	-2.9458	-2.7333	-2.4958	-3.2229	-2.8271	-2.6979	-2.8875	-2.4167	-2.9875	138.309	194.125	389.437	53.338	263.077	259.940	395.098	148.372	319.812	365.083	393.623	45.340	77.657	83.288	154.343	380.300	0.0012899	0.0003715	0.00011114	987.09	9.4947e-06	5.3434e-06	1184.1	268.33	1.1144e-05	6.8358e-06	407.36	146.55	80.405	35.007	8.0694e-06	72.838	0.00024666	0.00015642	4.246e-05	919.66	1.7768e-06	1.6515e-06	1102.5	251.73	1.7305e-06	1.6631e-06	378.55	137.14	74.784	33.203	1.7606e-06	68.647	300.432	122.608	147.892	52.391	190.875	148.330	52.201	57.404	254.300	220.496	56.528	62.305	61.551	68.667	184.345	66.395	-8191	255	
848.877	1	1	0	0	0.21592	0.13935	0.37673	0.30456	0.054828	0.13005	0.098976	0.24274	0.040001	0.11755	0.12945	0.04892	0.076627	0.10763	0.16237	0.35111	-2.4083	-2.5438	-2.9917	-2.7125	-2.6542	-3.0146	-2.5833	-3.0187	-2.9667	-2.4938	-2.8875	-2.775	-2.4958	-3.0687	-2.3958	-2.9354	164.184	201.592	220.380	363.178	275.580	96.427	361.083	365.653	94.814	210.513	58.965	294.946	75.965	62.075	259.151	326.053	0.0012978	0.00054843	0.00012092	981.2	7.3515e-06	5.6699e-06	1181.2	267.93	6.636e-06	4.0749e-06	404.05	146.62	80.973	35.5	7.7145e-06	73.559	0.00024071	0.00015484	4.1762e-05	915.87	1.7061e-06	1.5877e-06	1097.1	250.74	1.6913e-06	1.67e-06	377.24	137.27	75.061	33.638	1.7698e-06	69.211	304.839	123.372	153.874	52.367	202.185	182.170	52.239	57.318	243.282	208.624	56.700	61.956	61.893	68.738	216.412	66.503	-8191	255	
848.996	1	1	0	0	0.17983	0.17649	0.075912	0.18231	0.12374	0.17094	0.15509	0.26325	0.16087	0.14938	0.10103	0.19276	0.13116	0.061325	0.10938	0.13281	-2.5917	-2.3667	-2.8521	-2.675	-2.3396	-2.9542	-2.6708	-2.7	-2.9604	-2.3875	-3.0229	-2.9521	-2.3771	-3.1146	-2.7104	-2.7625	115.494	346.652	249.072	53.039	227.609	165.194	340.774	343.407	273.094	123.661	238.375	314.688	393.312	123.635	90.428	398.854	0.0012511	0.0005556	0.00013733	983	1.0073e-05	5.8154e-06	1182.8	268.08	8.1265e-06	5.0973e-06	406.62	147.56	79.871	35.562	7.9888e-06	73.627	0.00024447	0.0001588	4.3764e-05	914.81	1.803e-06	1.6192e-06	1095.7	250.8	1.7404e-06	1.7219e-06	378.32	137.41	74.751	33.641	1.7801e-06	69.451	304.180	153.553	108.418	52.256	188.367	177.572	52.076	57.500	248.380	181.300	56.327	62.314	61.877	68.569	196.301	66.321	-8191	255	
849.092	1	1	0	0	0.11149	0.19656	0.15909	0.34232	0.33245	0.18326	0.094686	0.116	0.099524	0.11672	0.16643	0.070479	0.12789	0.038328	0.48859	0.17946	-2.4729	-2.4708	-2.8792	-2.95	-2.4708	-2.9958	-2.7042	-2.5958	-3.0687	-2.5687	-3.0354	-2.9313	-2.4938	-3.1083	-2.7417	-2.8563	80.708	168.633	208.272	364.379	127.537	304.034	237.942	387.623	196.153	99.768	120.741	357.318	67.580	398.229	255.164	344.365	0.0012508	0.00063889	0.00012117	979.91	7.9631e-06	4.3669e-06	1185.2	269.43	6.6521e-06	7.3432e-06	406.57	146.68	80.86	35.084	8.6476e-06	73.008	0.00024898	0.00016212	4.2303e-05	915.2	1.813e-06	1.6436e-06	1102.8	251.52	1.7255e-06	1.6808e-06	378.17	137.02	75.106	33.208	1.7583e-06	68.775	302.083	130.959	146.898	52.251	211.398	161.493	52.183	57.274	248.067	218.317	56.326	62.220	61.570	68.930	200.340	66.302	-8191	255	
849.188	1	1	0	0	0.10512	0.19151	0.11847	0.1242	0.2385	0.11158	0.17026	0.34075	0.27983	0.11372	0.12441	0.15085	0.17329	0.20974	0.1252	0.12109	-2.6813	-2.3333	-2.5979	-3.0354	-2.3396	-2.8833	-2.7708	-2.6417	-2.9458	-2.7188	-2.7646	-3.0042	-2.3583	-2.8271	-2.6229	-2.5958	174.517	94.316	218.971	99.530	232.969	147.497	351.816	399.164	331.532	371.802	304.878	363.801	386.883	71.456	41.849	398.335	0.0013677	0.00030957	0.00014615	986.13	1.1803e-05	3.3541e-06	1190.4	270.43	7.3836e-06	5.1401e-06	407.66	146.48	81.098	35.368	8.7003e-06	72.98	0.00025338	0.00015497	4.4111e-05	921.16	1.7801e-06	1.7276e-06	1104.3	252.64	1.7403e-06	1.7395e-06	380.29	137.13	75.195	33.407	1.7628e-06	68.739	298.023	113.637	130.032	52.127	220.474	178.654	52.132	57.374	232.912	205.229	56.414	61.985	61.386	68.440	202.853	66.433	-8191	255	
849.285	1	1	0	0	0.091157	0.049434	0.22581	0.03276	0.136	0.16723	0.19886	0.078787	0.17836	0.12157	0.23003	0.21096	0.14971	0.22938	0.23093	0.23136	-2.5979	-2.4979	-2.5521	-2.9167	-2.4542	-3.0021	-3.0271	-2.4271	-2.8458	-2.6333	-2.7438	-2.9229	-2.6208	-2.9417	-2.8167	-2.5417	215.894	63.157	108.871	366.771	46.044	195.489	79.003	112.420	354.199	137.611	59.297	302.307	360.367	48.484	148.609	321.532	0.0012303	0.00054666	0.0001226	980.2	5.7551e-06	5.9318e-06	1177.1	268.69	7.8277e-06	6.0548e-06	404.97	145.64	80.227	34.814	8.372e-06	71.472	0.00024442	0.00015677	4.3797e-05	918.56	1.7634e-06	1.6439e-06	1097.5	251.04	1.7752e-06	1.6837e-06	375.65	135.69	74.772	33.042	1.632e-06	67.506	302.862	141.451	137.016	52.408	218.052	183.335	52.127	57.452	262.355	210.819	56.078	62.021	61.961	68.787	192.184	66.298	-8191	255	
849.405	1	1	0	0	0.084205	0.1966	0.18762	0.30493	0.19737	0.11808	0.18636	0.10646	0.22112	0.2047	0.31083	0.084864	0.13236	0.41268	0.069355	0.11142	-2.725	-2.5521	-2.6458	-2.95	-2.4625	-2.6562	-2.8708	-2.5708	-3.0062	-2.5167	-2.5563	-3.2042	-2.625	-2.7417	-2.65	-2.6021	366.305	126.250	101.435	367.679	50.460	137.818	329.995	364.673	100.208	152.814	358.768	63.990	381.276	304.295	53.843	357.118	0.0012798	0.00042591	0.00016609	988.94	7.8415e-06	4.3671e-06	1171.3	267.51	8.1755e-06	4.6764e-06	402.12	143.73	80.538	34.709	8.7303e-06	71.366	0.00024684	0.00015713	4.3013e-05	918.59	1.7179e-06	1.6561e-06	1093.1	250.25	1.731e-06	1.6747e-06	375.17	135	74.592	32.94	1.6447e-06	67.339	302.506	103.813	138.102	52.306	212.342	177.368	52.029	57.355	259.851	199.444	56.243	62.330	61.003	68.490	206.771	66.501	-8191	255	
849.501	1	1	0	0	0.16256	0.11066	0.012215	0.048072	0.09833	0.077639	0.16113	0.19664	0.17301	0.2108	0.13493	0.33145	0.012249	0.13472	0.28481	0.1705	-2.5708	-2.6354	-2.4583	-3.1	-2.4688	-2.6729	-3.1813	-2.7042	-2.8312	-2.8312	-2.3875	-2.9792	-2.5917	-2.7042	-2.9708	-2.4667	219.396	380.014	388.206	136.035	111.810	252.719	107.138	393.900	195.653	188.262	213.634	51.876	163.755	87.626	56.167	360.022	0.0011974	0.00055196	7.9614e-05	992.24	8.0664e-06	4.7509e-06	1184.4	268.23	8.5317e-06	4.5274e-06	402.54	145.14	81.02	34.796	7.9345e-06	71.517	0.00024244	0.00015798	4.3824e-05	924	1.8113e-06	1.6974e-06	1101.9	250.76	1.8686e-06	1.7376e-06	376.5	135.46	75.103	32.99	1.7586e-06	67.718	298.923	149.793	158.898	52.184	193.965	189.344	52.291	57.469	242.071	206.470	56.412	62.031	61.938	68.660	185.774	66.500	-8191	255	
849.573	1	1	0	0	0.095258	0.073133	0.22068	0.38505	0.27686	0.12417	0.11571	0.15741	0.26571	0.16417	0.10069	0.038327	0.035839	0.14609	0.26574	0.20334	-2.55	-2.9354	-2.5563	-2.9292	-2.5083	-2.7542	-3.1396	-2.4708	-2.8708	-3.0042	-2.5187	-3.0354	-2.6125	-2.6333	-2.8792	-2.6292	112.919	215.741	145.584	60.201	269.428	221.554	358.896	56.193	167.133	139.798	117.982	393.567	66.493	323.860	281.932	379.513	0.0012698	0.00053768	0.00011756	990.37	5.9319e-06	4.3008e-06	1189.7	268.8	9.5235e-06	6.0533e-06	404.12	145.23	80.493	35.15	8.2265e-06	72.191	0.00024839	0.00015589	4.6012e-05	924.81	1.8172e-06	1.718e-06	1106.9	251.77	1.841e-06	1.8139e-06	376.76	136.15	75.081	33.154	1.7471e-06	68.107	300.687	148.524	155.701	52.478	204.107	170.120	52.038	57.244	255.582	223.085	56.507	62.286	61.611	68.854	203.268	66.333	-8191	255	
849.694	1	1	0	0	0.041405	0.095049	0.11591	0.18073	0.14823	0.37559	0.19559	0.1135	0.22158	0.18069	0.31311	0.15198	0.11703	0.037213	0.16089	0.27217	-2.4542	-2.8125	-2.55	-3.0208	-2.7229	-2.5833	-3.1625	-2.6104	-2.8979	-2.8542	-2.5375	-2.9688	-2.7771	-2.7396	-3.0646	-2.5646	63.228	318.236	283.554	42.152	376.372	301.733	325.517	361.235	288.364	181.775	311.483	242.365	360.860	150.172	69.856	320.504	0.0012419	0.00054265	0.00013626	996.52	8.1201e-06	5.7622e-06	1181.4	268.9	9.2528e-06	6.8351e-06	403.57	145.53	80.845	35.112	7.0156e-06	72.764	0.00025291	0.00015619	4.6119e-05	924.15	1.7699e-06	1.7789e-06	1098	251.68	1.8545e-06	1.7202e-06	375.52	136.02	75.285	33.517	1.7977e-06	68.454	303.325	142.720	129.231	52.021	197.676	199.078	52.165	57.562	233.692	207.745	56.579	62.006	61.465	68.500	205.630	66.251	-8191	255	
849.788	1	1	0	0	0.18302	0.22675	0.011712	0.28594	0.17659	0.13726	0.057156	0.18496	0.1582	0.2175	0.094848	0.20974	0.22398	0.17493	0.067365	0.24302	-2.2417	-2.8271	-2.3958	-2.9437	-2.7646	-2.5625	-3.0812	-2.5417	-2.7083	-2.9979	-2.5833	-2.7542	-2.7667	-2.575	-2.8521	-2.6813	207.980	362.945	134.187	360.637	192.303	273.712	392.288	352.637	346.054	359.853	331.886	391.102	123.136	380.102	179.427	374.260	0.0012276	0.00042877	0.00012462	982.55	5.958e-06	6.9371e-06	1174.6	268.49	7.4325e-06	4.4085e-06	401.55	147.49	82.587	36.676	6.0281e-06	75.51	0.00024784	0.00015852	4.4508e-05	919.59	1.7903e-06	1.7786e-06	1093.9	251.12	1.8016e-06	1.7624e-06	375.94	137.63	76.327	34.714	1.8511e-06	71.021	299.922	116.511	137.553	52.396	231.594	175.897	52.121	57.822	242.553	208.163	56.656	62.326	62.280	68.870	197.599	66.272	-8191	255	
849.884	1	1	0	0	0.075482	0.16361	0.05144	0.04917	0.15236	0.15618	0.11606	0.071205	0.19776	0.147	0.16495	0.2002	0.084395	0.25654	0.27248	0.29508	-2.0292	-3.0042	-2.5187	-3.0563	-2.8083	-2.3667	-3.1042	-2.7854	-2.475	-3.1583	-2.7125	-2.7917	-2.7208	-2.5333	-2.9792	-2.7667	247.458	376.143	381.221	126.744	169.342	181.633	40.368	374.462	198.059	378.861	340.073	323.781	116.362	86.567	277.534	321.021	0.0013684	0.00040644	0.00020664	983.88	5.8514e-06	5.442e-06	1175.6	270.46	9.225e-06	2.4202e-06	407.85	150.77	83.996	37.613	9.2574e-06	76.979	0.00025897	0.00016488	4.6419e-05	916.98	1.8742e-06	1.7987e-06	1092.8	252.7	1.828e-06	1.7148e-06	379.8	140.68	77.326	35.696	1.8895e-06	72.607	301.140	104.457	135.438	52.584	192.791	164.342	52.328	57.591	232.387	169.562	56.507	62.386	61.580	69.004	201.875	66.305	-8191	255	
849.980	1	1	0	0	0.20591	0.29758	0.13064	0.2194	0.077059	0.11125	0.12791	0.097598	0.27241	0.11942	0.11582	0.17142	0.10583	0.088554	0.15329	0.41451	-2.0646	-3.1729	-2.5542	-2.9062	-2.8292	-2.4646	-2.8937	-2.8667	-2.4729	-2.9437	-2.7521	-2.8167	-3.0333	-2.55	-3.0708	-3.1125	96.447	58.040	201.390	348.964	101.334	269.353	333.357	248.968	139.700	75.057	198.648	219.992	115.610	59.981	256.768	377.971	0.0012985	0.00037187	0.00015355	974.28	8.823e-06	4.74e-06	1171.6	270.33	6.9281e-06	5.3919e-06	408.15	149.96	82.899	37.146	8.5141e-06	76.19	0.00026396	0.00016169	4.4378e-05	911.6	1.8381e-06	1.7384e-06	1091.6	252.55	1.8614e-06	1.6963e-06	379.94	140.51	77.222	35.257	1.7959e-06	71.804	303.083	127.454	124.981	52.490	202.310	167.084	52.276	57.860	234.738	200.838	56.781	62.014	61.866	68.253	205.563	66.494	-8191	255	
850.101	1	1	0	0	0.032571	0.19466	0.045862	0.26524	0.13167	0.23244	0.15801	0.087629	0.16555	0.15875	0.10044	0.13855	0.12863	0.076393	0.14254	0.18575	-2.2479	-2.8208	-2.625	-2.7562	-3.0375	-2.4625	-2.8875	-2.8583	-2.5042	-2.95	-2.8229	-2.6333	-2.925	-2.6688	-2.9708	-2.9104	294.368	391.443	39.906	366.441	65.937	288.371	315.747	334.363	322.959	140.871	104.385	293.122	97.207	107.097	329.376	105.487	0.001361	0.0004795	0.0001794	970.74	8.5795e-06	5.1357e-06	1170.5	268.94	1.0875e-05	4.7929e-06	404.4	147.56	81.793	36.16	9.4731e-06	73.892	0.0002585	0.00015835	4.5452e-05	910.76	1.7682e-06	1.7079e-06	1090.1	252.15	1.8066e-06	1.7514e-06	377.86	138.34	76.212	34.235	1.7618e-06	69.594	304.277	128.526	156.010	52.337	207.622	199.662	52.024	57.857	246.122	224.859	57.035	62.310	61.531	68.771	186.932	66.663	-8191	255	
850.173	1	1	0	0	0.17741	0.23834	0.084982	0.32144	0.17122	0.055439	0.14641	0.063507	0.12444	0.081131	0.26992	0.34139	0.19181	0.20793	0.11339	0.20332	-1.9417	-2.9125	-2.8146	-2.9062	-2.8688	-2.6667	-3.0062	-2.9854	-2.4708	-3.025	-2.7313	-2.5021	-3.1104	-2.6354	-2.8563	-3.0875	149.812	207.000	339.735	321.645	384.460	397.826	314.069	329.072	157.393	85.840	65.316	42.524	271.140	316.103	227.422	292.678	0.0012589	0.00069742	0.00021748	980.76	1.1134e-05	2.7988e-06	1162.8	269.5	8.7476e-06	4.7094e-06	401.49	148.21	81.862	36.516	5.1005e-06	74.995	0.00025351	0.00016046	4.3264e-05	911.81	1.7761e-06	1.7479e-06	1081.7	251.82	1.78e-06	1.7615e-06	374.99	137.89	76.249	34.488	1.7773e-06	70.423	300.560	106.866	112.738	52.320	203.529	209.365	52.413	57.708	255.994	212.806	56.748	62.295	62.143	68.572	194.123	66.124	-8191	255	
850.269	1	1	0	0	0.18225	0.087348	0.16737	0.12903	0.17145	0.19816	0.11615	0.3245	0.08178	0.036718	0.27453	0.15787	0.20423	0.12406	0.14896	0.12117	-2.0896	-2.9729	-2.6729	-2.5771	-3.1125	-2.6042	-2.8354	-3.0062	-2.4583	-2.925	-2.8937	-2.7542	-3.1	-2.625	-2.6042	-3.1188	254.068	88.618	379.077	307.664	325.934	123.162	263.355	323.296	211.946	98.226	376.107	89.022	269.844	360.492	324.215	59.552	0.0012407	0.00051003	0.00013458	969.93	8.5873e-06	5.7262e-06	1156.2	269.78	4.4378e-06	5.2597e-06	403.21	149.09	82.121	36.87	6.4485e-06	75.085	0.00025213	0.00015976	4.2636e-05	905.06	1.6279e-06	1.6794e-06	1077.7	251.69	1.7633e-06	1.675e-06	376.82	139.37	76.424	34.876	1.7154e-06	70.9	302.279	123.548	138.296	52.578	206.393	192.948	52.319	57.477	259.647	202.665	56.274	62.253	61.672	68.711	181.318	66.471	-8191	255	
850.365	1	1	0	0	0.29188	0.13426	0.08464	0.33731	0.097569	0.19537	0.10254	0.31784	0.23346	0.052037	0.45262	0.34772	0.093745	0.18669	0.11034	0.16017	-1.9312	-2.8187	-2.6229	-2.5521	-2.9813	-2.6604	-2.5125	-2.9896	-2.5667	-2.7979	-3.0438	-2.475	-2.9042	-2.8271	-2.5875	-3.0708	54.134	89.927	43.106	367.959	186.880	47.463	367.380	324.602	308.861	162.699	44.353	55.945	178.233	48.261	325.144	370.674	0.0012901	0.00055314	0.00013279	967.87	8.3792e-06	5.1982e-06	1167.5	269.34	9.4971e-06	3.4188e-06	404.37	148.53	82.11	36.483	7.9125e-06	75.275	0.00025189	0.00015365	4.3981e-05	903.58	1.7411e-06	1.722e-06	1084.3	251.16	1.768e-06	1.7236e-06	378.44	139.23	76.302	34.582	1.6952e-06	70.805	301.271	134.352	143.111	52.675	201.713	167.237	52.026	57.659	249.249	208.662	56.152	62.264	61.899	68.654	192.988	66.364	-8191	255	
850.486	1	1	0	0	0.14295	0.17788	0.22295	0.28413	0.15029	0.19993	0.11345	0.12536	0.12906	0.11529	0.14639	0.11256	0.1453	0.31927	0.11585	0.16449	-2.1104	-2.6521	-2.9333	-2.4229	-2.9729	-2.5458	-2.7229	-3.0771	-2.4792	-2.6667	-3.0542	-2.5625	-2.6625	-2.8	-2.5646	-3.0521	325.604	332.251	92.272	324.312	246.523	221.763	207.554	324.088	166.474	294.926	275.671	132.781	305.261	58.956	332.221	169.650	0.001264	0.00077266	0.00013161	974.74	8.8993e-06	6.262e-06	1169.5	270.73	1.0443e-05	4.4177e-06	407.31	150.42	83.008	37.153	6.6379e-06	75.985	0.0002532	0.00016344	4.2173e-05	907.81	1.7555e-06	1.7639e-06	1090.3	253.07	1.7846e-06	1.6911e-06	381.36	140.9	77.276	35.143	1.7676e-06	71.656	301.397	127.684	166.646	52.518	192.820	162.725	52.298	57.541	261.213	194.374	56.677	62.123	61.640	68.507	194.661	66.222	-8191	255	
850.582	1	1	0	0	0.20909	0.034839	0.076574	0.27654	0.16499	0.16712	0.32382	0.035195	0.26608	0.15878	0.072411	0.11549	0.40641	0.022021	0.054882	0.18142	-2.175	-2.6604	-2.9354	-2.7708	-2.775	-2.8042	-2.5354	-3.0438	-2.6229	-2.6188	-3.0042	-2.5104	-2.8229	-2.9604	-2.4271	-2.9958	84.932	59.994	176.606	370.322	48.094	370.994	351.602	120.234	172.671	132.409	333.010	47.407	357.903	364.548	353.622	93.616	0.001317	0.00044699	0.00010706	978.41	7.5347e-06	5.6166e-06	1168.4	270.37	9.2397e-06	4.6062e-06	405.13	149.08	83.003	37.111	8.1685e-06	76.211	0.00025432	0.00015439	4.5538e-05	910.99	1.7842e-06	1.692e-06	1088	253.35	1.7534e-06	1.7505e-06	378.99	140.3	77.136	35.178	1.7557e-06	71.698	297.696	125.442	119.476	52.336	215.564	187.309	52.285	57.682	254.874	173.729	56.439	62.369	61.817	68.665	184.884	66.555	-8191	255	
850.678	1	1	0	0	0.23902	0.27689	0.12927	0.22361	0.096227	0.17248	0.1147	0.039263	0.17588	0.11646	0.039002	0.12307	0.30213	0.093002	0.022656	0.18328	-2.2667	-2.5854	-3.1167	-2.8104	-2.5792	-3.0875	-2.6625	-2.8896	-2.7729	-2.4958	-3.1354	-2.8208	-2.7833	-3.0563	-2.45	-2.9104	383.864	385.557	99.284	320.216	60.413	99.320	77.115	339.051	196.438	184.757	381.770	363.418	360.531	316.101	196.000	327.364	0.0013399	0.00033027	0.00011641	980.01	5.7987e-06	2.9509e-06	1161.2	272.08	6.0413e-06	2.6218e-06	409.31	149.73	83.278	37.275	5.3419e-06	76.624	0.00025667	0.00016106	4.4624e-05	913.87	1.7746e-06	1.6648e-06	1085.5	253.26	1.7404e-06	1.7164e-06	379.5	140.55	77.389	35.481	1.8066e-06	72.058	301.280	133.068	121.166	52.639	207.401	205.713	52.559	57.715	258.865	214.691	56.648	62.395	61.944	68.577	179.829	66.607	-8191	255	
850.798	1	1	0	0	0.23873	0.08181	0.11888	0.26844	0.25242	0.044936	0.29268	0.10944	0.14704	0.10082	0.063198	0.21318	0.26201	0.22764	0.2902	0.078373	-2.3104	-2.525	-2.9313	-2.6063	-2.7708	-2.9417	-2.5104	-2.875	-2.8396	-2.5292	-3.1	-2.7125	-2.6562	-2.9792	-2.4729	-2.9333	206.808	217.255	222.718	47.618	79.103	259.280	364.469	161.514	251.860	56.446	43.534	296.189	366.557	74.963	108.994	325.807	0.001296	0.00072012	0.0002033	980.8	1.1573e-05	4.3397e-06	1171.5	271.35	1.1293e-05	3.8421e-06	407.04	150.42	83.228	37.708	9.309e-06	77.096	0.00024945	0.00015792	4.2833e-05	915.35	1.8354e-06	1.6564e-06	1089.9	253.48	1.8204e-06	1.6743e-06	379.87	141.15	77.718	35.811	1.787e-06	72.616	301.900	157.152	148.398	52.089	204.634	238.749	52.445	58.013	247.799	168.233	56.734	62.296	62.212	68.680	174.824	66.638	-8191	255	
850.868	1	1	0	0	0.082416	0.11471	0.15622	0.20641	0.25391	0.34755	0.28344	0.158	0.17936	0.10925	0.1891	0.017471	0.060755	0.21084	0.095879	0.40053	-2.4917	-2.4958	-3.0292	-2.7458	-2.4375	-3.1167	-2.8104	-2.9208	-2.6292	-2.3708	-3.1312	-2.8583	-2.6083	-3.0875	-2.3771	-2.8271	49.387	249.360	89.488	369.390	59.741	266.721	335.489	272.617	100.479	203.255	308.344	116.127	184.312	117.993	299.057	299.952	0.0012888	0.00069258	0.000142	980.9	5.8242e-06	3.6792e-06	1170.8	271.36	7.8956e-06	3.3198e-06	408.33	151.37	84.003	38.058	6.5592e-06	77.691	0.00025331	0.00016027	4.4034e-05	916.3	1.8047e-06	1.6595e-06	1092.6	253.18	1.7822e-06	1.7362e-06	380.99	141.77	78.259	35.984	1.8034e-06	73.464	301.776	111.875	149.931	52.400	212.785	189.139	52.128	57.857	232.574	206.814	57.210	62.706	61.858	68.454	183.778	66.743	-8191	255	
850.966	1	1	0	0	0.088661	0.11254	0.19573	0.17963	0.089172	0.099718	0.23862	0.18889	0.071406	0.23974	0.19997	0.043848	0.072635	0.064009	0.16823	0.10015	-2.4875	-2.1458	-3.1417	-2.8083	-2.45	-2.8896	-2.6208	-2.7521	-2.9625	-2.4521	-2.8937	-2.8167	-2.6229	-2.9979	-2.3542	-2.6042	196.165	289.224	70.722	322.710	288.766	264.441	380.868	377.315	133.390	177.536	314.477	337.681	243.515	140.071	367.663	374.460	0.0013725	0.00034265	0.00017309	984	8.6116e-06	5.5164e-06	1177	272.08	8.6022e-06	5.8301e-06	407.52	151.11	84.38	38.18	7.9306e-06	77.272	0.00025753	0.00015743	4.4921e-05	918.96	1.8767e-06	1.6927e-06	1096	254.96	1.7225e-06	1.7607e-06	378.85	141.59	78.689	36.179	1.784e-06	72.81	304.529	132.210	116.821	52.719	219.012	186.207	52.297	57.818	282.467	170.643	56.600	62.502	61.720	68.621	200.440	66.492	-8191	255	
851.085	1	1	0	0	0.30805	0.17693	0.15406	0.30458	0.16042	0.13641	0.03871	0.53864	0.10442	0.11803	0.19441	0.074663	0.14999	0.11754	0.095836	0.17698	-2.6229	-2.5292	-2.6437	-2.8354	-2.5854	-3.0208	-2.7104	-2.7875	-3.125	-2.4875	-2.9	-2.9771	-2.3063	-3.0417	-2.4896	-2.5042	301.652	57.933	189.138	79.121	226.444	374.867	374.951	295.396	94.041	304.217	254.783	176.364	237.197	351.137	168.653	347.172	0.0012565	0.00068974	7.3057e-05	980.55	6.4642e-06	5.7448e-06	1170.5	271.73	1.016e-05	6.2672e-06	404.16	149.83	82.977	37.682	1.106e-05	75.75	0.0002532	0.00015569	4.4434e-05	914.53	1.7727e-06	1.7292e-06	1089.7	254	1.7721e-06	1.7119e-06	376.76	140.04	77.695	35.674	1.7395e-06	71.342	299.643	104.795	126.944	52.184	200.749	178.917	52.394	57.808	257.734	188.100	56.895	62.464	62.265	68.534	191.071	66.159	-8191	255	
851.181	1	1	0	0	0.14673	0.18139	0.2807	0.10627	0.14925	0.18551	0.19693	0.12765	0.17217	0.18247	0.15571	0.070519	0.038575	0.42059	0.055008	0.10884	-2.7062	-2.4229	-2.65	-2.8688	-2.3771	-2.9854	-2.7	-2.5812	-2.7812	-2.5375	-2.7188	-3.0479	-2.6188	-2.7979	-2.8521	-2.5021	208.332	357.413	244.146	380.805	293.870	176.333	298.075	85.481	66.427	133.458	88.096	296.398	265.454	361.735	119.772	368.313	0.0012421	0.00043233	0.00013975	984.85	6.2701e-06	8.5676e-06	1174.4	270.62	7.785e-06	3.7539e-06	401.68	147.94	83.505	36.932	7.3188e-06	74.681	0.00024706	0.00015249	4.3257e-05	917.96	1.724e-06	1.7083e-06	1087.7	253.05	1.6985e-06	1.7414e-06	375.56	138.36	77.405	34.977	1.7019e-06	70.272	305.040	161.210	152.329	52.526	215.562	184.185	52.145	57.796	250.798	205.005	56.693	62.103	61.920	68.565	174.994	66.386	-8191	255	
851.277	1	1	0	0	0.35455	0.16976	0.34667	0.21054	0.12122	0.25991	0.2197	0.077045	0.050562	0.069461	0.13081	0.036583	0.093418	0.1449	0.098622	0.092743	-2.5438	-2.4021	-2.7896	-3.125	-2.3333	-2.6521	-2.9896	-2.4604	-2.9938	-2.5958	-2.5667	-3.0583	-2.5062	-2.7042	-2.9521	-2.625	188.665	92.287	300.275	350.915	249.773	300.875	241.364	351.841	236.270	119.433	377.657	232.999	277.319	57.191	140.244	308.138	0.0012168	0.00067131	0.00019178	981.84	7.3089e-06	5.1336e-06	1172.5	271	7.255e-06	4.697e-06	400.43	146.98	82.809	36.579	8.2148e-06	73.537	0.00024237	0.00015254	4.306e-05	917.57	1.8195e-06	1.6857e-06	1090.8	252.84	1.7455e-06	1.6535e-06	375.21	137.62	76.975	34.55	1.7414e-06	69.331	304.749	161.926	160.006	52.471	208.990	199.026	52.161	57.673	267.788	205.073	56.689	62.253	61.886	69.037	184.867	66.468	-8191	255	
851.398	1	1	0	0	0.081718	0.17655	0.074141	0.24369	0.1121	0.15716	0.12713	0.37456	0.23254	0.32088	0.035229	0.056632	0.14519	0.21226	0.043147	0.40086	-2.3063	-2.5563	-2.3875	-2.9125	-2.55	-2.9208	-3.0167	-2.7417	-2.7896	-2.7208	-2.5333	-3.0083	-2.4396	-2.8375	-2.8875	-2.5979	219.486	336.709	126.338	348.681	47.973	73.362	220.306	394.701	319.413	215.538	95.103	41.352	161.123	380.577	353.509	340.046	0.0012684	0.00035062	0.00014814	991.24	1.1592e-05	6.9993e-06	1188.2	270.14	5.5617e-06	5.8481e-06	403.59	146.69	83.249	36.411	4.8326e-06	73.307	0.00024877	0.00015501	4.2566e-05	924.07	1.7843e-06	1.6313e-06	1099.8	253.34	1.7216e-06	1.6525e-06	375.31	137.36	77.319	34.486	1.7227e-06	69.176	304.031	136.717	149.419	52.274	200.818	195.887	52.192	57.616	237.713	188.692	56.562	62.124	61.985	68.367	219.345	66.268	-8191	255	
851.470	1	1	0	0	0.070523	0.1918	0.098501	0.050246	0.12351	0.11053	0.32167	0.10028	0.1382	0.27112	0.27306	0.13335	0.14012	0.20794	0.14173	0.24243	-2.5646	-2.7083	-2.3875	-3.1813	-2.6396	-2.8271	-2.95	-2.3812	-2.875	-2.6229	-2.6104	-3.0771	-2.7333	-2.6458	-2.9938	-2.2708	94.843	217.679	310.099	119.579	189.890	323.417	367.141	370.709	399.481	190.922	41.455	390.207	302.529	343.105	236.283	339.281	0.0013333	0.00046876	0.00017809	994.93	8.3931e-06	7.0698e-06	1173	272.46	9.0723e-06	3.4208e-06	396.43	145.81	83.262	36.447	1.0547e-05	72.618	0.00025493	0.00016069	4.4968e-05	926.28	1.7973e-06	1.6934e-06	1087.9	253.88	1.8221e-06	1.7576e-06	371.16	136.35	77.271	34.557	1.7599e-06	68.473	300.982	138.420	119.378	52.298	184.578	177.366	52.483	57.631	240.750	243.482	56.663	62.216	61.872	68.682	197.878	66.292	-8191	255	
851.566	1	1	0	0	0.18	0.30038	0.064939	0.26741	0.15305	0.11168	0.1007	0.37105	0.2985	0.16471	0.19211	0.2198	0.17149	0.16467	0.082088	0.0012117	-2.5333	-2.7417	-2.4646	-2.9167	-2.5	-2.5958	-3.2271	-2.4208	-2.7	-2.85	-2.4833	-3.0208	-2.6958	-2.6188	-3.025	-2.5792	40.276	358.980	264.743	385.487	155.373	264.782	231.147	377.699	281.156	183.216	78.362	372.185	331.690	116.179	46.492	180.000	0.001307	0.00052375	0.00015786	999.42	3.0044e-06	6.353e-06	1168.2	270.94	1.0972e-05	2.0227e-06	399.31	144.96	83.177	36.236	8.6771e-06	71.993	0.00025235	0.0001512	4.4241e-05	930.54	1.7876e-06	1.7509e-06	1087.7	253.6	1.7819e-06	1.6795e-06	370.22	135.57	77.287	34.347	1.724e-06	68.155	302.818	146.032	128.403	52.261	159.550	193.877	52.238	57.751	277.427	246.457	56.466	62.457	61.850	68.969	189.455	66.308	-8191	255	
851.662	1	1	0	0	0.17214	0.12129	0.2501	0.15877	0.15536	0.15988	0.24307	0.041276	0.24458	0.037287	0.19453	0.14665	0.022701	0.17552	0.046517	0.15066	-2.4979	-2.7646	-2.4604	-3.0812	-2.6396	-2.6208	-3.2042	-2.5104	-2.7188	-2.9292	-2.4813	-2.9062	-2.9125	-2.5042	-3.0125	-2.7188	246.898	53.172	55.731	322.857	162.835	330.028	360.951	141.238	254.260	106.611	357.759	382.455	95.755	387.606	93.923	360.656	0.0012356	0.00059655	0.00016473	1003.8	7.5799e-06	6.3956e-06	1171.3	270.99	1.5763e-05	6.9267e-06	398.86	146.23	83.11	36.438	1.0734e-05	72.519	0.00024908	0.00014833	4.3941e-05	933.55	1.7183e-06	1.6733e-06	1091.8	253.55	1.7857e-06	1.6339e-06	371.85	136.31	77.299	34.505	1.7799e-06	68.372	302.289	120.994	150.224	52.353	195.750	185.672	52.443	57.709	255.916	223.322	56.531	62.299	61.561	68.572	214.285	66.321	-8191	255	
851.781	1	1	0	0	0.10288	0.1254	0.078048	0.20118	0.17554	0.02668	0.29218	0.1971	0.21082	0.066551	0.20053	0.14085	0.1521	0.12062	0.22995	0.18222	-2.3083	-2.9771	-2.4167	-3.0917	-2.5938	-2.2979	-2.9708	-2.6937	-2.5333	-2.8875	-2.6396	-2.9021	-2.8875	-2.4562	-2.9333	-2.7292	64.507	292.027	249.880	360.129	112.394	128.801	316.441	312.755	189.150	73.060	193.733	318.170	325.050	354.803	116.412	258.174	0.0012969	0.00013072	0.00013815	998.86	7.3006e-06	5.4159e-06	1168.3	271.23	9.2072e-06	4.0575e-06	399.48	146.3	83.296	36.983	7.6823e-06	73.083	0.00024817	0.00015056	4.4511e-05	932.34	1.8048e-06	1.7333e-06	1089.6	253.95	1.8312e-06	1.6786e-06	372.14	137	77.479	34.83	1.819e-06	68.886	301.655	126.231	145.290	52.459	201.106	197.370	52.282	57.489	285.975	186.203	56.517	62.476	61.583	68.481	198.391	66.410	-8191	255	
851.877	1	1	0	0	0.11486	0.28449	0.10976	0.41831	0.056725	0.17166	0.18745	0.36729	0.20357	0.10015	0.487	0.2978	0.10846	0.26941	0.39503	0.093978	-2.1896	-2.9042	-2.4917	-2.8625	-2.7292	-2.5812	-3.0354	-2.7354	-2.4896	-2.9083	-2.7021	-2.7167	-2.7708	-2.4938	-2.8354	-2.7771	338.914	88.911	190.604	367.751	225.039	312.747	345.716	352.981	269.003	180.613	399.343	373.847	298.995	355.976	97.924	387.210	0.0012365	0.00029678	9.0673e-05	1000.7	8.0942e-06	7.2994e-06	1167.7	272.58	1.0206e-05	4.445e-06	397.61	145.8	83.129	36.911	8.1083e-06	73.496	0.00025552	0.00015343	4.4474e-05	932.79	1.8146e-06	1.7442e-06	1086.4	254	1.8485e-06	1.7243e-06	371.51	136.62	77.848	34.998	1.6885e-06	69.181	301.959	126.363	202.480	52.586	200.471	196.765	52.496	57.413	242.252	179.304	56.598	62.074	61.855	68.998	198.989	66.158	-8191	255	
851.973	1	1	0	0	0.13391	0.24449	0.23006	0.11998	0.13985	0.087019	0.051095	0.3603	0.27626	0.14189	0.085198	0.18862	0.24284	0.17139	0.10334	0.17755	-2.1	-2.9688	-2.725	-2.7229	-2.8292	-2.4542	-3.1208	-2.8521	-2.6042	-2.9958	-2.6479	-2.7	-2.8792	-2.4042	-2.9062	-2.6354	371.278	266.575	132.478	381.225	327.761	304.374	168.458	46.318	365.083	141.966	59.277	316.451	74.658	307.649	137.254	320.192	0.0012214	0.0006016	0.00012694	993.24	9.769e-06	6.3173e-06	1164.7	272.26	6.9186e-06	3.5536e-06	397.52	145.73	84.505	37.508	7.5628e-06	74.122	0.00025073	0.00016119	4.3193e-05	928.11	1.8448e-06	1.6782e-06	1083.6	253.99	1.751e-06	1.7221e-06	370.62	137.02	78.483	35.511	1.7836e-06	69.781	303.060	145.032	110.464	52.543	198.859	197.382	52.150	57.650	241.967	232.019	56.344	62.304	62.064	68.775	200.219	66.232	-8191	255	
852.047	1	1	0	0	0.21856	0.10906	0.24986	0.063307	0.22972	0.056584	0.049677	0.28389	0.093777	0.16887	0.025086	0.10373	0.23466	0.22961	0.34886	0.34139	-2.0292	-2.9792	-2.4917	-2.8104	-2.8771	-2.5062	-3	-2.7896	-2.4146	-3.0417	-2.8	-2.5896	-2.9479	-2.4542	-2.8083	-2.95	311.982	199.040	371.515	146.448	219.529	121.563	330.488	373.228	366.486	369.434	249.169	89.607	368.069	285.784	379.033	311.351	0.001265	0.0005319	0.00017224	997.46	5.9055e-06	3.0408e-06	1168.4	270.78	8.3524e-06	6.7372e-06	393.93	146.08	83.44	37.16	7.105e-06	73.558	0.00025691	0.00015883	4.6733e-05	931.66	1.9193e-06	1.7972e-06	1084.3	253.41	1.901e-06	1.7793e-06	369.34	136.51	78.005	35.252	1.8791e-06	69.177	301.354	169.852	124.245	52.525	222.971	226.715	52.173	57.727	244.802	210.260	56.459	62.218	61.764	68.480	172.695	66.327	-8191	255	
852.166	1	1	0	0	0.098481	0.28804	0.060969	0.22481	0.055414	0.16262	0.031983	0.051633	0.19484	0.12024	0.14539	0.29223	0.10622	0.11063	0.034729	0.043008	-2.1125	-2.8563	-2.8458	-2.5667	-3.0333	-2.5062	-2.9521	-2.8521	-2.2875	-2.8521	-2.6875	-2.4833	-3.0625	-2.5438	-2.8354	-3.0458	167.980	218.581	392.238	52.227	198.027	119.469	344.834	211.416	182.181	251.771	51.656	330.560	90.932	365.585	101.196	378.491	0.0012274	0.00052049	6.9131e-05	1001.5	9.2513e-06	7.1336e-06	1160.6	270.39	8.3378e-06	2.9887e-06	393.84	144.54	83.343	36.045	1.2344e-05	71.842	0.00026159	0.00016231	4.7503e-05	933.37	1.9188e-06	1.8618e-06	1082.8	253.52	1.8783e-06	1.8288e-06	368.85	135.22	77.344	34.314	1.8216e-06	67.627	300.799	129.215	105.496	52.633	203.482	179.765	52.430	57.831	279.771	205.332	56.755	62.213	61.965	68.609	211.285	66.196	-8191	255	
852.262	1	1	0	0	0.20271	0.036574	0.054872	0.28444	0.12583	0.090309	0.19437	0.18291	0.22003	0.18481	0.10751	0.31203	0.090997	0.059618	0.23551	0.084436	-1.9292	-2.9958	-2.7229	-2.5396	-2.9146	-2.6188	-2.8354	-2.9	-2.5417	-2.725	-2.7667	-2.7229	-3.1417	-2.5146	-2.6625	-2.7958	393.567	110.127	349.607	343.134	325.607	57.891	390.378	96.741	363.687	137.027	355.822	340.863	148.721	70.151	364.528	301.507	0.0011882	0.00034168	0.00018079	1001.3	1.0467e-05	6.0731e-06	1171.9	271.14	8.8448e-06	2.6104e-06	396.23	143.93	83.686	36.48	7.5954e-06	71.917	0.00025678	0.00016664	4.5612e-05	933.25	1.7964e-06	1.7944e-06	1090	253.94	1.874e-06	1.8184e-06	369.75	135.08	77.575	34.513	1.8696e-06	67.611	303.746	127.695	164.506	52.474	218.981	186.766	52.359	57.591	249.568	187.616	56.610	62.076	61.898	68.694	200.609	66.393	-8191	255	
852.358	1	1	0	0	0.12141	0.054994	0.10177	0.30546	0.073551	0.080874	0.23354	0.26367	0.033002	0.079268	0.068495	0.11619	0.19359	0.23563	0.080037	0.13601	-2.1562	-2.6312	-2.9229	-2.5938	-2.7812	-2.6792	-2.7958	-3.0542	-2.5521	-2.6458	-2.8729	-2.7125	-2.9708	-2.775	-2.3812	-3.0354	126.973	256.848	187.409	362.677	201.915	88.282	334.071	255.139	41.850	160.164	252.780	382.510	63.147	49.889	181.461	232.704	0.0013221	0.00075101	0.00018384	996.27	9.0018e-06	5.2121e-06	1154.6	268.88	9.2021e-06	3.9071e-06	390.96	143.14	83.358	36.945	7.6039e-06	71.658	0.00026474	0.00017298	4.6709e-05	930.77	2.0365e-06	1.9681e-06	1075.5	252.08	1.9543e-06	1.932e-06	364.54	133.8	77.402	34.968	1.9985e-06	67.592	299.403	134.297	137.696	52.385	197.272	210.289	52.399	57.659	272.652	208.708	56.941	62.253	61.829	68.876	187.431	66.572	-8191	255	
852.478	1	1	0	0	0.22941	0.104	0.07074	0.20433	0.29908	0.21327	0.10284	0.19097	0.090525	0.056249	0.16914	0.15047	0.28492	0.099219	0.28624	0.13117	-2.0875	-2.7521	-2.9771	-2.625	-2.9479	-2.8146	-2.5854	-3.0979	-2.5146	-2.8583	-3.0229	-2.5979	-2.8937	-2.8271	-2.6229	-3.1542	280.438	133.071	160.296	41.275	352.138	187.510	291.575	49.449	389.170	254.310	94.104	389.054	52.120	254.825	223.976	371.724	0.0012241	0.00039502	0.00017732	993.82	4.1857e-06	3.7029e-06	1149.5	268.57	6.3047e-06	6.9357e-06	390.56	143.23	82.306	36.944	6.7922e-06	72.426	0.00026669	0.00017432	4.8674e-05	925.45	1.9653e-06	1.8838e-06	1069.2	250.81	2.0024e-06	1.8423e-06	364.5	133.92	77.054	35.069	1.9651e-06	68.379	300.413	112.399	145.437	52.666	169.277	152.342	52.395	57.674	247.734	180.739	56.690	62.436	61.973	68.953	183.295	66.445	-8191	255	
852.575	1	1	0	0	0.14992	0.10343	0.13224	0.39109	0.041396	0.054445	0.24393	0.12593	0.16837	0.066534	0.32768	0.29805	0.13534	0.12261	0.063736	0.083258	-2.3479	-2.625	-3.0062	-2.3438	-2.7938	-2.8771	-2.55	-3.0354	-2.7292	-2.6937	-3.0208	-2.4458	-2.8708	-2.8792	-2.5708	-3.0062	350.746	167.194	96.926	353.795	390.765	85.330	43.941	277.780	118.295	276.645	378.893	74.414	323.496	383.900	59.039	346.352	0.0012367	0.00051177	0.00014842	984.67	1.1712e-05	5.2155e-06	1145.9	269.27	8.33e-06	4.3161e-06	392.53	147	83.121	38.259	8.6476e-06	74.927	0.00026489	0.00017399	4.717e-05	920.63	1.9545e-06	1.8108e-06	1070.6	252.18	1.9775e-06	1.8573e-06	367.58	136.37	77.916	36.192	1.9894e-06	70.693	304.883	116.550	135.398	52.636	220.761	191.879	52.520	57.892	254.519	250.618	56.544	62.422	62.072	68.906	205.933	66.465	-8191	255	
852.671	1	1	0	0	0.16286	0.18547	0.28191	0.22793	0.15838	0.049418	0.087239	0.12943	0.26053	0.24979	0.10413	0.36977	0.22099	0.020015	0.046895	0.35782	-2.2667	-2.3708	-3.1042	-2.5771	-2.8542	-2.7521	-2.6312	-2.9021	-2.6042	-2.3417	-3.0229	-2.6312	-2.6854	-3.0208	-2.1917	-3.1083	380.690	196.247	130.915	61.338	207.081	313.779	64.786	80.970	346.607	316.176	290.749	312.058	384.957	159.713	101.745	328.920	0.0013199	0.00058375	0.00010798	981.29	1.1534e-05	5.2075e-06	1156.1	269.83	8.366e-06	3.5187e-06	394.81	147.17	85.503	38.893	6.8781e-06	76.492	0.00027784	0.00018081	4.8998e-05	917.89	2.0256e-06	1.8788e-06	1073.1	252.63	2.0093e-06	1.9554e-06	368.4	137.86	79.473	37.117	2.0605e-06	71.923	304.906	104.506	119.667	52.613	209.422	196.402	52.589	57.731	243.650	219.786	57.384	62.470	61.784	69.271	202.582	66.401	-8191	255	
852.767	1	1	0	0	0.21961	0.17048	0.028167	0.18693	0.037571	0.17317	0.3497	0.11172	0.14966	0.25605	0.094406	0.18072	0.28664	0.15348	0.22405	0.16354	-2.3958	-2.5208	-2.9875	-2.65	-2.6	-2.8646	-2.4896	-2.9854	-2.8688	-2.6521	-2.9521	-2.6771	-2.6021	-2.9521	-2.5146	-3.0854	134.369	304.868	148.414	292.414	68.897	254.353	349.274	341.698	364.300	140.775	125.598	169.292	53.295	377.666	205.773	286.334	0.0013537	0.00048524	0.00017206	984.27	7.5209e-06	5.1157e-06	1132.9	269.94	9.5841e-06	5.2038e-06	389.54	144.38	84.699	38.813	1.0385e-05	74.908	0.00028459	0.00018472	5.0562e-05	918.49	2.1721e-06	2.003e-06	1058.4	252.15	2.0782e-06	2.0095e-06	364.36	136.1	78.613	36.783	2.0381e-06	70.687	303.011	132.069	141.094	52.800	195.727	171.107	52.771	57.915	257.422	181.776	56.672	62.793	62.506	68.679	211.006	66.289	-8191	255	
852.861	1	1	0	0	0.11057	0.26612	0.19324	0.22319	0.15662	0.11024	0.3606	0.086829	0.13856	0.11138	0.24598	0.11344	0.10155	0.31138	0.13442	0.23801	-2.3354	-2.3833	-2.9	-2.8187	-2.5375	-3.0062	-2.7021	-2.9729	-2.8917	-2.5125	-2.9688	-2.675	-2.6917	-2.9625	-2.4917	-2.7729	334.910	234.909	293.058	367.355	238.443	286.737	64.708	350.121	130.777	125.383	83.545	384.065	303.213	330.009	214.387	69.062	0.0013775	0.00066668	0.0001763	977.46	1.0485e-05	4.8345e-06	1133	268.51	1.0748e-05	3.8576e-06	394.16	144.69	83.653	38.304	8.5683e-06	73.779	0.00028254	0.00018353	4.9678e-05	912.15	2.0591e-06	1.8503e-06	1054.5	251.49	2.0292e-06	1.9632e-06	364.99	135.59	77.99	36.346	1.9646e-06	69.719	303.728	127.903	130.724	52.622	196.806	178.589	52.419	58.021	247.109	220.436	57.155	62.439	62.645	68.893	177.181	66.524	-8191	255	
852.957	1	1	0	0	0.1012	0.05748	0.19939	0.297	0.10768	0.13069	0.14862	0.24768	0.16508	0.049907	0.17595	0.11459	0.15684	0.30265	0.20118	0.094373	-2.7396	-2.4354	-2.9375	-2.6833	-2.5479	-3.0583	-2.6688	-2.75	-2.7938	-2.5542	-2.8708	-2.7604	-2.4542	-3.1437	-2.6896	-2.6875	246.289	353.193	267.045	278.856	397.903	395.363	44.601	40.579	64.145	271.913	393.728	390.769	288.632	381.198	342.582	197.058	0.0013404	0.00083548	0.00019431	974.39	8.5689e-06	7.8621e-06	1129	267.27	1.2909e-05	4.782e-06	386.37	142.68	83.07	37.487	4.8215e-06	72.53	0.00026234	0.00017505	4.8114e-05	909.66	1.9096e-06	1.835e-06	1051.8	250.29	1.9243e-06	1.832e-06	361.96	133.91	77.318	35.462	1.8418e-06	68.349	302.055	121.181	145.026	52.836	194.589	205.692	52.442	58.094	257.062	205.418	57.049	62.440	61.774	68.891	226.279	66.319	-8191	255	
853.078	1	1	0	0	0.1606	0.21029	0.045406	0.02994	0.13615	0.21112	0.16215	0.22411	0.18154	0.21222	0.020221	0.063065	0.23455	0.1191	0.22813	0.13192	-2.55	-2.55	-2.8812	-2.9458	-2.6937	-2.8667	-2.6646	-2.6271	-3.0375	-2.6188	-2.7188	-2.9146	-2.4229	-3.1125	-2.6583	-2.7938	77.487	188.762	95.492	377.232	215.266	69.262	342.819	359.898	327.089	386.667	157.547	259.472	380.164	250.050	342.571	88.405	0.0011857	0.00074658	8.6455e-05	978.85	1.0082e-05	5.711e-06	1138.2	267.61	8.1975e-06	6.397e-06	389.42	143.68	82.866	37.341	9.4311e-06	73.344	0.00025363	0.00016653	4.6302e-05	912.52	1.8651e-06	1.7383e-06	1057.3	250.29	1.9082e-06	1.8276e-06	363.73	134.61	77.275	35.397	1.9137e-06	69.147	301.909	144.992	150.898	52.694	203.571	175.255	52.728	57.786	249.558	204.527	56.709	62.395	62.139	68.948	202.950	66.480	-8191	255	
853.174	1	1	0	0	0.25459	0.35953	0.21323	0.10415	0.14256	0.1526	0.29958	0.25538	0.21627	0.098111	0.052938	0.25483	0.2834	0.10778	0.36989	0.063502	-2.5917	-2.5021	-2.6937	-2.8104	-2.4271	-2.6729	-2.9271	-2.8229	-3.0083	-2.525	-2.7458	-3.1271	-2.5208	-2.8354	-2.6854	-2.4771	45.960	303.998	121.186	127.593	62.677	192.780	365.926	310.077	89.798	72.383	320.965	41.544	353.865	50.481	238.219	343.258	0.0012037	0.00088293	0.00011182	979.96	1.2734e-05	5.9485e-06	1148.1	269.86	7.8348e-06	6.1754e-06	392.86	144.92	83.55	37.971	9.0863e-06	74.393	0.00024848	0.00016149	4.5619e-05	916.6	1.8687e-06	1.7622e-06	1064.1	252.34	1.7468e-06	1.7003e-06	366.81	135.8	78.015	36.021	1.7353e-06	70.253	301.539	119.220	146.869	52.689	219.823	219.767	52.460	57.999	258.211	210.520	56.723	62.385	61.803	68.975	192.465	66.281	-8191	255	
853.270	1	1	0	0	0.27529	0.15443	0.10783	0.084026	0.059513	0.14118	0.18697	0.22253	0.12491	0.15414	0.12669	0.24428	0.19762	0.1791	0.27027	0.16044	-2.3229	-2.475	-2.6063	-3.0146	-2.3187	-2.7875	-2.8958	-2.5542	-2.9104	-2.6229	-2.7375	-3.2042	-2.7646	-2.9458	-2.6813	-2.4625	93.134	86.353	214.570	59.848	127.054	153.848	368.962	187.391	178.947	294.873	111.350	298.521	273.821	366.994	378.568	387.390	0.0012219	0.00039176	0.00013944	982.08	7.739e-06	2.2525e-06	1139	271.06	8.5477e-06	4.1958e-06	400.86	149.67	86.39	40.37	8.5686e-06	79.843	0.00025391	0.00016089	4.3921e-05	914.33	1.795e-06	1.6469e-06	1062.3	253.68	1.6868e-06	1.688e-06	371.71	140.48	80.306	38.345	1.7068e-06	75.319	301.946	131.935	146.569	52.678	184.518	149.848	52.748	57.819	269.030	172.689	57.286	62.318	62.208	69.028	220.006	66.521	-8191	255	
853.342	1	1	0	0	0.16048	0.066253	0.070126	0.25221	0.15371	0.11684	0.18279	0.11928	0.31998	0.19921	0.2734	0.32835	0.36539	0.1845	0.13843	0.35884	-2.5583	-2.6437	-2.5479	-3.0521	-2.4813	-2.7083	-3	-2.5104	-2.9833	-2.7958	-2.8271	-2.9979	-2.4479	-2.8458	-3.0792	-2.6021	331.136	329.204	374.239	41.275	352.458	186.831	330.515	363.243	392.154	316.243	229.268	346.434	384.775	385.816	235.473	352.890	0.0013803	0.00042665	0.00017847	980.79	7.0209e-06	5.5221e-06	1152.5	277.39	8.971e-06	6.2766e-06	409.14	155.41	88.565	42.306	1.2041e-05	82.216	0.00025834	0.00015896	4.5629e-05	913.52	1.7398e-06	1.6971e-06	1072.6	259.02	1.7324e-06	1.7389e-06	379.9	145.51	82.43	40.128	1.7928e-06	77.742	299.874	151.757	135.672	52.756	204.369	205.850	52.602	58.116	244.544	198.025	57.104	62.761	61.919	68.855	178.381	66.435	-8191	255	
853.438	1	1	0	0	0.15948	0.10539	0.23713	0.20145	0.25599	0.31183	0.16693	0.17519	0.13345	0.20228	0.28411	0.035153	0.13207	0.24379	0.092807	0.075715	-2.5583	-2.6042	-2.4708	-3.3	-2.4604	-2.8625	-3.1083	-2.5563	-2.7625	-2.8479	-2.6042	-3.0833	-2.65	-2.6792	-3.0062	-2.6021	233.805	44.972	394.328	290.080	166.484	367.832	292.897	388.078	117.498	134.723	293.121	278.221	182.506	379.379	189.669	121.610	0.0013525	0.00060479	0.00014406	983.94	1.1183e-05	6.2877e-06	1153.6	275.51	8.8206e-06	6.446e-06	405.49	155.31	88.686	42.187	9.1997e-06	82.432	0.00026216	0.00015786	4.4838e-05	918.66	1.8479e-06	1.7884e-06	1074.4	258.48	1.8685e-06	1.7315e-06	378.98	145.18	82.538	40.012	1.8283e-06	77.645	304.066	155.214	131.286	52.880	194.177	172.519	52.703	57.977	245.651	211.062	57.146	62.682	62.293	68.949	180.605	66.227	-8191	255	
853.559	1	1	0	0	0.14866	0.16332	0.0080395	0.086344	0.11169	0.16478	0.12223	0.19184	0.19234	0.10962	0.14719	0.30953	0.13942	0.12618	0.27184	0.24277	-2.2938	-2.7542	-2.6125	-3.0458	-2.5083	-2.5667	-3.1437	-2.6208	-2.7333	-2.9604	-2.4146	-2.9646	-2.7771	-2.6437	-2.8729	-2.6063	339.995	69.980	163.067	113.190	103.486	106.785	349.092	196.991	41.814	285.312	395.640	243.260	100.953	387.455	104.742	42.243	0.0013713	0.00049918	0.0001456	988.42	6.9385e-06	4.3168e-06	1164.4	277.2	7.6025e-06	4.5319e-06	406.44	154.77	88.383	42.339	7.4065e-06	81.808	0.00025927	0.00015776	4.4418e-05	921.55	1.751e-06	1.7509e-06	1079.3	259.27	1.8036e-06	1.6816e-06	378.01	145.03	82.563	40.081	1.7581e-06	76.923	303.641	138.605	158.015	52.920	202.641	174.531	52.489	58.218	232.520	181.974	56.941	62.538	61.965	68.685	206.204	66.281	-8191	255	
853.655	1	1	0	0	0.14033	0.10926	0.26578	0.10801	0.012239	0.052731	0.079183	0.18423	0.070414	0.28938	0.16166	0.10977	0.11116	0.26004	0.075276	0.18967	-2.2479	-2.7938	-2.4813	-3.0125	-2.7396	-2.6875	-3.1229	-2.6167	-2.7542	-3.1021	-2.4271	-2.9021	-2.8042	-2.5938	-2.9917	-2.7	197.638	349.254	143.313	387.460	145.209	259.935	271.798	286.441	326.070	385.396	375.406	115.109	176.229	380.991	265.096	42.079	0.0013697	0.00032071	0.0001812	987.41	8.6705e-06	5.9658e-06	1147	274.38	9.5589e-06	6.5874e-06	402.8	152.87	87.431	42.03	8.7493e-06	80.935	0.00026159	0.00016076	4.4828e-05	920.93	1.887e-06	1.7584e-06	1067.6	257.43	1.8393e-06	1.7366e-06	374.85	142.89	81.859	39.79	1.843e-06	76.337	303.127	123.188	140.909	52.946	218.609	181.051	52.497	57.918	243.350	203.245	56.817	62.409	62.464	68.819	185.843	66.345	-8191	255	
853.751	1	1	0	0	0.16311	0.1552	0.29517	0.25118	0.031659	0.20489	0.25518	0.28645	0.26575	0.13161	0.15338	0.23119	0.11385	0.07537	0.054161	0.18578	-2.3729	-2.925	-2.4583	-3.0208	-2.75	-2.6125	-3.0146	-2.6021	-2.7354	-2.8708	-2.5062	-2.9458	-2.7062	-2.5187	-2.8729	-2.8396	169.292	155.153	67.099	330.760	382.317	264.873	380.180	387.157	194.831	90.563	59.223	76.655	67.509	309.278	215.236	62.112	0.001429	0.0007433	0.00015579	986.12	9.6039e-06	5.0371e-06	1144.1	273.96	9.9095e-06	6.2582e-06	399.59	151.5	87.535	41.74	9.214e-06	80.286	0.00026892	0.00015971	4.6506e-05	918.59	1.7761e-06	1.7952e-06	1064.5	256.4	1.839e-06	1.77e-06	372.52	142.09	81.63	39.557	1.826e-06	75.591	299.378	112.697	132.233	53.066	200.109	156.867	52.598	58.148	273.115	190.102	57.097	62.459	62.445	68.678	179.961	66.205	-8191	255	
853.847	1	1	0	0	0.2638	0.07696	0.21953	0.15552	0.17338	0.14986	0.34108	0.099306	0.39774	0.24504	0.23807	0.1411	0.23251	0.29463	0.20839	0.075643	-2.1937	-3.0271	-2.3917	-2.8646	-2.9042	-2.3958	-3.0917	-2.6833	-2.5	-3.0146	-2.5646	-2.8104	-2.9104	-2.5833	-2.8646	-2.7583	276.277	167.530	209.938	175.006	354.961	369.672	351.260	269.352	152.447	303.027	317.925	314.503	65.172	40.636	197.101	302.182	0.0013877	0.00042259	0.00016173	982.41	9.6024e-06	5.4852e-06	1146.1	273.44	4.3014e-06	7.0114e-06	393.11	150.01	86.925	40.765	9.0815e-06	78.057	0.00027362	0.00015984	4.7033e-05	916.57	1.8748e-06	1.8695e-06	1066.4	255.72	1.964e-06	1.8409e-06	369.77	140.41	81.167	38.665	1.9052e-06	73.745	301.652	139.666	120.568	52.952	190.260	193.343	52.403	58.214	238.351	210.767	57.300	62.697	62.205	68.820	207.587	66.306	-8191	255	
853.966	1	1	0	0	0.128	0.15727	0.14188	0.14036	0.12958	0.042392	0.29885	0.33451	0.28351	0.17074	0.099265	0.18417	0.14463	0.1816	0.12263	0.096798	-2.1417	-3.1604	-2.4667	-2.8271	-2.9896	-2.4458	-2.9083	-2.7458	-2.1813	-2.9667	-2.6688	-2.7771	-2.9792	-2.4729	-2.9375	-2.9021	60.806	256.230	301.895	314.704	91.998	300.912	348.516	378.349	180.232	66.224	389.873	292.273	232.136	345.374	46.928	371.479	0.001337	0.00054273	6.0812e-05	988.03	5.2828e-06	6.9031e-06	1145	272.5	6.8146e-06	7.1863e-06	394.32	148.31	86.542	40.41	9.0793e-06	77.247	0.00026989	0.00016417	4.768e-05	918.89	1.9385e-06	1.8429e-06	1066.2	254.13	1.9259e-06	1.822e-06	368.7	139.33	80.398	38.18	1.8481e-06	73.174	301.385	139.118	121.184	52.741	223.200	216.713	52.452	58.326	239.550	207.719	57.221	62.199	62.053	68.951	171.090	66.288	-8191	255	
854.040	1	1	0	0	0.031717	0.17303	0.24142	0.14371	0.092502	0.16171	0.20213	0.11907	0.0842	0.11567	0.42246	0.16746	0.18283	0.16051	0.22921	0.26897	-2.2104	-2.9021	-2.7375	-2.5333	-2.9	-2.5312	-2.9938	-3.125	-2.3438	-2.9021	-2.6646	-2.6708	-3.1333	-2.3542	-2.8167	-2.9229	45.122	321.790	324.640	343.615	346.551	137.322	276.933	198.903	64.379	209.484	323.372	236.063	70.281	392.231	129.148	325.786	0.0013132	0.00035268	0.00016498	980.02	7.1005e-06	6.2944e-06	1139.9	272.89	9.6597e-06	5.3637e-06	399.45	150.09	86.958	41.283	9.5024e-06	79.249	0.00026898	0.00016472	4.8107e-05	915.24	1.9097e-06	1.8758e-06	1063	255.28	1.9217e-06	1.7731e-06	370.82	140.84	81.377	39.105	1.8501e-06	74.672	305.651	120.321	149.918	52.823	225.803	161.042	52.625	57.898	254.200	188.434	57.211	62.397	61.844	68.486	196.423	66.001	-8191	255	
854.158	1	1	0	0	0.11513	0.21188	0.25813	0.30496	0.18718	0.1541	0.29872	0.10741	0.39633	0.089468	0.084734	0.11563	0.25131	0.18916	0.14207	0.26108	-2.025	-2.9417	-2.7833	-2.5042	-2.9854	-2.5375	-2.7208	-2.8833	-2.4229	-2.8292	-2.6854	-2.7	-3.0625	-2.3396	-2.6396	-3.1417	134.143	46.517	100.347	353.832	379.418	153.803	301.254	111.401	138.183	355.264	227.238	256.128	369.041	42.500	332.022	390.942	0.0013232	0.00064763	0.00022635	983.02	9.7678e-06	3.8089e-06	1136.5	272.84	1.0055e-05	5.4747e-06	394.03	150.2	86.189	40.426	7.4939e-06	78.002	0.00026584	0.0001661	4.6082e-05	913.32	1.8529e-06	1.8449e-06	1058.2	255.09	1.846e-06	1.7377e-06	369.17	139.82	80.477	38.259	1.7616e-06	73.518	302.766	111.058	135.303	52.898	210.397	198.183	52.601	57.991	243.094	215.263	56.687	62.458	62.211	68.739	190.119	66.624	-8191	255	
854.255	1	1	0	0	0.22316	0.074751	0.054214	0.19955	0.24408	0.14176	0.31155	0.22867	0.29414	0.062127	0.31136	0.19195	0.19926	0.16399	0.050891	0.029328	-1.8729	-2.8042	-2.6542	-2.5083	-3.0396	-2.5521	-2.6271	-2.9042	-2.5604	-2.8583	-2.8063	-2.5125	-2.9437	-2.7521	-2.6188	-2.8	395.237	195.005	343.549	46.871	393.220	286.123	328.964	368.653	117.423	61.520	353.460	331.003	135.292	274.362	152.382	208.084	0.0013059	0.00065426	0.0001778	988.49	7.3519e-06	7.9254e-06	1150.4	273.64	8.623e-06	6.6579e-06	406.6	151.41	86.959	40.037	6.1052e-06	78.513	0.0002643	0.00016155	4.6713e-05	917.79	1.8159e-06	1.7555e-06	1073.9	256.32	1.8817e-06	1.7173e-06	377.2	141.28	80.53	37.918	1.8665e-06	74.018	302.763	138.910	135.937	52.737	195.017	185.593	52.448	57.896	241.199	174.359	56.972	62.432	61.935	68.780	199.697	66.440	-8191	255	
854.351	1	1	0	0	0.34556	0.15458	0.25062	0.34072	0.053099	0.26211	0.038233	0.066941	0.076667	0.34192	0.099327	0.084058	0.14375	0.25432	0.24544	0.22589	-1.8042	-2.7	-2.8333	-2.6354	-3.075	-2.5104	-2.7417	-2.9771	-2.3104	-2.6792	-2.7979	-2.5354	-2.8708	-2.5667	-2.525	-3.0979	363.903	150.777	170.559	332.641	326.535	387.424	297.145	397.394	358.446	216.541	358.762	358.219	358.937	270.633	101.020	383.505	0.0012382	0.00062004	0.00016382	998.65	5.7867e-06	5.2482e-06	1171.8	276.43	7.9984e-06	5.9814e-06	408.05	152.75	86.23	39.579	1.0915e-05	78.611	0.00026542	0.00016176	4.4268e-05	932.53	1.8183e-06	1.7797e-06	1094	258.56	1.8321e-06	1.7405e-06	380.63	142.77	80.482	37.53	1.8135e-06	74.102	303.026	129.379	149.850	52.529	192.160	210.493	52.448	57.802	265.401	191.886	56.824	62.497	61.987	68.623	190.738	66.272	-8191	255	
854.447	1	1	0	0	0.041523	0.13588	0.26696	0.12012	0.31179	0.15364	0.2169	0.10585	0.18861	0.080206	0.20605	0.36414	0.07992	0.12251	0.062993	0.31293	-2.0792	-2.8125	-2.8604	-2.3688	-2.9229	-2.5958	-2.5938	-3.0104	-2.4667	-2.6	-3.1021	-2.4521	-2.8375	-2.7958	-2.4729	-3.0396	218.419	299.105	223.183	297.343	152.534	334.227	326.385	59.986	240.857	262.931	65.767	319.088	46.866	378.016	399.245	359.527	0.0013455	0.00052609	0.00015684	1011	2.0753e-06	6.9506e-06	1177.9	277.93	8.8502e-06	4.6622e-06	407.7	151.14	86.362	39.456	8.9887e-06	77.63	0.00027025	0.00016583	4.6869e-05	942.68	1.8452e-06	1.722e-06	1097.4	259.88	1.8396e-06	1.812e-06	378.97	141.59	80.403	37.231	1.8731e-06	72.961	303.110	137.546	174.693	52.793	220.246	181.561	52.306	57.861	276.778	207.676	56.754	62.244	61.990	68.462	211.731	66.459	-8191	255	
854.568	1	1	0	0	0.17875	0.099821	0.29576	0.22743	0.038599	0.32651	0.24034	0.073554	0.15809	0.068216	0.14655	0.32179	0.29659	0.22076	0.11816	0.1953	-1.9667	-2.4875	-2.9458	-2.6188	-2.7792	-2.8458	-2.4396	-2.9667	-2.65	-2.5312	-2.9104	-2.4875	-2.9979	-2.9771	-2.4375	-3.0062	253.036	261.919	162.641	344.143	229.921	274.514	307.029	278.585	77.874	77.405	382.717	80.770	75.202	398.594	249.651	70.648	0.0014002	0.00075957	0.00013689	1012.1	5.7209e-06	5.8532e-06	1177.6	275.99	7.1854e-06	4.4951e-06	403.26	148.42	85.464	38.105	8.4227e-06	75.008	0.00026797	0.00016521	4.4858e-05	940.04	1.8693e-06	1.7348e-06	1095.4	258.69	1.8812e-06	1.7402e-06	376	139.29	79.489	36.17	1.8481e-06	70.718	302.082	130.483	168.158	52.663	180.210	168.090	52.315	57.568	275.860	193.395	56.660	62.259	62.392	68.901	224.356	66.334	-8191	255	
854.639	1	1	0	0	0.29847	0.1001	0.24801	0.13364	0.001739	0.19861	0.32632	0.2986	0.11124	0.11583	0.15162	0.10618	0.26347	0.18803	0.19303	0.2144	-2.3854	-2.5146	-3.0458	-2.4979	-2.7938	-2.9437	-2.5021	-2.9813	-2.7042	-2.55	-3.2104	-2.6833	-2.6167	-3.0229	-2.2792	-2.8542	394.332	321.453	382.073	341.916	180.000	299.031	289.843	384.098	153.984	237.577	298.643	279.226	45.287	58.757	164.101	312.854	0.0013183	0.00046895	0.00011122	1011.5	6.4779e-06	7.3123e-06	1178.9	275.76	1.0065e-05	6.9399e-06	404.43	149.56	85.099	38.16	9.9382e-06	76.225	0.00025819	0.00015929	4.4941e-05	943.35	1.7698e-06	1.7622e-06	1098.4	258.65	1.8283e-06	1.7709e-06	379.2	139.96	79.471	36.2	1.8986e-06	71.779	303.180	132.898	124.166	52.588	212.070	175.687	52.527	57.436	248.754	181.613	56.734	62.577	61.785	68.835	197.180	66.425	-8191	255	
854.735	1	1	0	0	0.097139	0.12372	0.14284	0.117	0.24941	0.11139	0.31222	0.2604	0.081747	0.05452	0.10427	0.19464	0.024079	0.21012	0.049275	0.14705	-2.2854	-2.475	-2.9792	-2.6792	-2.6583	-2.7167	-2.5062	-2.8792	-2.75	-2.4	-3.0708	-2.6063	-2.4854	-3.0021	-2.4625	-3.0083	153.472	382.211	385.065	81.433	271.099	325.579	380.809	49.264	136.995	206.657	233.690	358.284	254.661	231.139	174.515	344.903	0.0013529	0.00059433	0.00019994	1016.3	5.245e-06	4.6666e-06	1191	276.81	8.2963e-06	3.9321e-06	410.28	151.37	86.09	38.423	7.7749e-06	77.073	0.00026596	0.00016651	4.5108e-05	946.36	1.8664e-06	1.8031e-06	1106.8	260.08	1.8494e-06	1.7896e-06	382.76	141.56	79.805	36.398	1.9027e-06	72.569	301.206	110.110	126.342	52.427	197.939	193.998	52.398	57.733	260.992	155.513	56.591	62.124	61.388	68.907	189.214	66.580	-8191	255	
854.854	1	1	0	0	0.18137	0.20372	0.15044	0.29658	0.21052	0.057874	0.12047	0.19901	0.059455	0.25926	0.094246	0.11631	0.21661	0.17498	0.2779	0.089554	-2.4479	-2.3083	-2.9062	-2.6625	-2.6625	-2.9896	-2.7938	-2.7625	-2.8875	-2.5167	-3.1042	-2.6917	-2.4938	-2.9938	-2.6104	-2.7062	374.713	363.828	373.736	343.781	181.847	230.043	314.937	387.433	227.174	168.381	394.436	307.336	353.545	258.177	135.153	235.927	0.0013889	0.00043039	0.00014102	1014.8	8.1253e-06	3.5516e-06	1191.4	280.81	7.1067e-06	4.5003e-06	409.83	151.41	86.143	38.266	1.0342e-05	76.557	0.0002718	0.00017412	4.6249e-05	947.56	1.8327e-06	1.8054e-06	1107.1	262.16	1.8383e-06	1.7515e-06	382.73	141.82	80.06	36.367	1.8854e-06	72.035	303.180	120.435	147.802	52.544	210.462	165.838	52.154	57.730	263.324	207.885	56.873	62.298	61.913	69.066	152.264	66.352	-8191	255	
854.950	1	1	0	0	0.042767	0.23223	0.10371	0.24839	0.16661	0.079551	0.17484	0.18956	0.1491	0.19145	0.24254	0.34768	0.028651	0.16499	0.35486	0.054964	-2.5292	-2.3083	-2.8771	-2.9083	-2.5042	-2.95	-2.7687	-2.7708	-3.0292	-2.3167	-2.9583	-2.8187	-2.6396	-3.1146	-2.4021	-2.875	320.757	105.200	44.537	342.240	196.802	114.379	250.527	335.277	44.669	177.429	360.189	376.174	277.774	295.648	122.265	290.081	0.0013561	0.00049391	0.00016619	1013	1.0482e-05	5.8582e-06	1181.8	278.63	7.7218e-06	4.3044e-06	408.12	149.14	85.214	37.71	8.5955e-06	74.606	0.00026136	0.00017437	4.4931e-05	945.71	1.9262e-06	1.7993e-06	1098.9	260.6	1.8915e-06	1.7948e-06	381.03	139.87	79.06	35.645	1.8058e-06	70.269	302.225	135.648	137.436	52.527	218.241	225.263	52.349	57.552	304.694	199.229	56.591	62.099	61.546	68.765	190.909	66.388	-8191	255	
855.047	1	1	0	0	0.047129	0.47312	0.19663	0.25578	0.052239	0.096124	0.22149	0.35997	0.11142	0.20666	0.027289	0.084552	0.1048	0.22391	0.16391	0.054099	-2.625	-2.2438	-3	-2.7438	-2.4417	-2.975	-2.8375	-2.7208	-2.9354	-2.5375	-2.85	-2.8625	-2.5729	-3.0375	-2.35	-2.6063	78.764	74.903	255.868	61.512	205.263	329.097	58.675	275.685	118.550	53.852	71.275	366.428	157.271	390.527	379.312	312.941	0.0013028	0.00047658	0.0001338	1012.2	8.1058e-06	6.215e-06	1182.3	279.23	7.7366e-06	6.1454e-06	409.1	150.33	85.812	37.526	6.2824e-06	75.4	0.00026165	0.00015993	4.6172e-05	945.11	1.9262e-06	1.812e-06	1103	260.95	1.842e-06	1.8301e-06	381.92	140.37	79.527	35.673	1.8114e-06	71.08	301.614	151.947	123.203	52.329	218.466	188.068	52.427	57.556	233.130	187.655	56.564	62.279	61.808	68.963	196.750	66.382	-8191	255	
855.143	1	1	0	0	0.098561	0.10435	0.096966	0.20638	0.11995	0.24675	0.25183	0.20885	0.17402	0.17455	0.078507	0.14368	0.13646	0.33434	0.1267	0.11674	-2.5479	-2.6667	-2.65	-2.75	-2.4188	-3.025	-2.8792	-2.6896	-3.0625	-2.5708	-2.8167	-2.9083	-2.5354	-3.0729	-2.7354	-2.6292	88.169	163.190	133.658	387.367	279.647	289.368	382.315	359.419	63.358	191.930	166.907	314.639	318.725	333.507	125.867	369.567	0.0012578	0.0005764	0.00016285	1012.7	9.7687e-06	7.285e-06	1187.9	280.28	9.8014e-06	5.2625e-06	412.19	151.75	85.941	37.807	6.6778e-06	76.285	0.00025926	0.00016374	4.6286e-05	944.9	1.9907e-06	1.8178e-06	1105.7	262.14	1.8522e-06	1.8084e-06	384.75	141.99	79.982	35.988	1.8715e-06	71.776	303.174	121.805	144.136	52.355	191.796	168.101	52.364	57.563	263.342	217.486	56.582	62.322	61.923	68.891	186.657	66.433	-8191	255	
855.239	1	1	0	0	0.22492	0.21189	0.15095	0.20188	0.23964	0.083049	0.18043	0.1279	0.17747	0.138	0.35375	0.29431	0.18057	0.36506	0.17715	0.26201	-2.7083	-2.3271	-2.5667	-2.9854	-2.4417	-2.6083	-2.8688	-2.6937	-2.8917	-2.7938	-2.7938	-2.9042	-2.6917	-3.2292	-2.8646	-2.7292	378.747	62.240	252.031	343.751	131.258	184.158	130.845	83.677	382.325	291.188	48.351	315.551	332.592	342.711	90.022	396.766	0.0012552	0.00048925	0.00016024	1020	6.3981e-06	8.6008e-06	1188.1	281.59	6.0799e-06	3.6473e-06	417.02	153.36	87.332	38.809	7.7908e-06	78.031	0.00025903	0.00016583	4.6086e-05	948.57	1.9517e-06	1.8199e-06	1109.2	262.79	1.8682e-06	1.8532e-06	387.58	143.98	80.79	36.887	1.928e-06	73.697	302.262	135.547	146.672	52.493	203.494	170.301	52.281	57.585	273.443	182.345	56.655	62.289	61.550	68.792	169.807	66.389	-8191	255	
855.335	1	1	0	0	0.087637	0.24797	0.14007	0.21559	0.12757	0.15819	0.17272	0.058272	0.17644	0.19712	0.033511	0.13572	0.028032	0.22622	0.33976	0.12154	-2.5208	-2.7292	-2.5812	-3.0417	-2.4313	-2.8292	-2.9729	-2.6521	-2.8917	-2.7229	-2.7146	-3.1104	-2.5958	-2.8292	-2.8833	-2.6167	205.326	201.255	159.703	69.852	209.642	354.984	363.125	255.124	185.136	150.367	51.471	358.466	166.273	63.716	145.340	72.314	0.0013252	0.00069323	0.00015412	1016	4.5207e-06	6.3682e-06	1190.2	282.14	1.1965e-05	4.7813e-06	414.6	155.44	87.811	39.608	5.7339e-06	79.294	0.00026405	0.00017354	4.8714e-05	947.88	1.9285e-06	1.8649e-06	1105.7	264.04	1.9423e-06	1.8733e-06	386.27	145.11	81.414	37.593	1.8991e-06	74.766	302.945	129.206	123.215	52.474	198.538	203.177	52.243	57.783	279.313	173.591	56.740	62.445	61.932	68.935	159.047	66.646	-8191	255	
855.431	1	1	0	0	0.19663	0.29588	0.21882	0.2138	0.17929	0.11881	0.26757	0.030876	0.07383	0.063757	0.1071	0.19543	0.19947	0.29612	0.23324	0.23187	-2.6188	-2.8271	-2.4146	-3.0979	-2.7667	-2.8417	-2.9979	-2.5062	-2.7729	-2.8333	-2.5333	-3.0667	-2.7792	-2.775	-2.7562	-2.6667	49.241	204.815	194.328	375.191	357.985	251.295	307.535	373.929	217.677	53.342	53.260	379.787	285.794	82.755	353.607	294.626	0.0013884	0.00061331	3.6563e-05	1006.7	1.1271e-05	7.2611e-06	1181.5	283.31	1.0061e-05	5.9051e-06	416.14	156.52	88.232	40.303	1.0583e-05	81.064	0.00026615	0.00016987	4.7046e-05	942.17	1.9855e-06	1.8847e-06	1102.7	264.8	1.87e-06	1.8677e-06	388.36	146.85	82.158	38.345	1.8968e-06	76.356	302.491	131.316	162.140	52.860	194.862	164.354	52.431	57.849	254.977	197.472	56.938	62.326	61.953	68.984	169.216	66.441	-8191	255	
855.527	1	1	0	0	0.18408	0.067388	0.17335	0.14948	0.29839	0.081177	0.17892	0.2423	0.26138	0.18443	0.083862	0.067252	0.03192	0.16075	0.14471	0.06504	-2.4458	-2.8542	-2.4458	-3.2313	-2.6833	-2.6042	-3.0729	-2.6604	-2.8187	-2.8542	-2.5708	-3.0563	-2.8396	-2.775	-3.2812	-2.6312	191.581	101.615	137.651	384.630	161.179	180.034	121.713	347.483	202.448	223.673	306.971	47.018	216.183	372.377	244.294	236.040	0.0012759	0.00050881	5.5577e-05	1010.3	6.7467e-06	5.9935e-06	1190.8	282.37	6.4549e-06	5.5038e-06	419.24	157.81	88.47	41.081	4.2203e-06	81.81	0.00027502	0.00016918	4.6055e-05	938.51	1.8603e-06	1.8153e-06	1105.5	264.93	1.8737e-06	1.793e-06	390.71	148.15	82.613	38.818	1.8782e-06	77.178	302.904	121.351	125.366	52.561	188.908	180.374	52.671	57.961	242.760	204.033	56.712	62.231	61.845	68.845	244.670	66.335	-8191	255	
855.646	1	1	0	0	0.056633	0.13418	0.15373	0.23165	0.14906	0.24807	0.22372	0.11683	0.23965	0.14422	0.10258	0.084512	0.3146	0.20197	0.25109	0.035806	-2.5458	-2.7521	-2.3937	-3.225	-2.7667	-2.7021	-3.175	-2.7042	-2.7083	-3.0563	-2.8	-3.0708	-2.8604	-2.7062	-2.9083	-2.4625	195.444	102.942	370.423	328.683	282.618	305.424	375.694	268.909	184.403	146.476	377.611	301.504	107.171	391.196	152.060	163.248	0.0013999	0.00058198	0.00021924	1009.4	1.0264e-05	4.3556e-06	1192.1	283.69	1.0108e-05	3.7288e-06	420.35	157.09	88.385	40.066	4.8815e-06	80.935	0.00027378	0.00017245	4.6843e-05	941.19	1.9465e-06	1.8979e-06	1110.6	264.91	1.8486e-06	1.8222e-06	392.64	147.48	82.196	37.917	1.9077e-06	75.996	302.803	140.819	152.512	52.391	218.663	147.021	52.467	57.718	242.061	229.847	56.814	62.531	62.364	68.964	204.065	66.508	-8191	255	
855.742	1	1	0	0	0.17795	0.040183	0.34332	0.28914	0.064074	0.098311	0.32115	0.16765	0.13711	0.050154	0.073822	0.13848	0.43046	0.11854	0.09939	0.35114	-2.2062	-2.8521	-2.5333	-2.9271	-2.7062	-2.6063	-2.9562	-2.575	-2.5583	-2.9479	-2.5958	-3.0104	-2.8688	-2.4583	-2.8917	-2.7	157.153	343.272	175.226	342.217	129.156	217.901	43.667	369.243	173.057	211.934	369.491	94.444	329.381	259.801	196.273	366.023	0.0013599	0.00072626	0.00025693	1017.3	1.2117e-05	6.0823e-06	1199.2	283.52	8.4312e-06	6.1734e-06	418.24	157.37	87.733	39.888	9.4235e-06	79.799	0.00026718	0.00017345	4.7406e-05	947.5	1.9208e-06	1.8012e-06	1114.1	265.18	1.9341e-06	1.908e-06	391.08	147.09	81.908	37.851	1.869e-06	75.314	304.746	135.830	142.874	52.591	197.721	187.713	52.593	57.788	260.556	199.223	56.807	62.616	61.746	68.717	206.930	66.577	-8191	255	
855.838	1	1	0	0	0.11788	0.14491	0.061483	0.11645	0.1602	0.1962	0.2159	0.078654	0.088392	0.061791	0.11187	0.020062	0.31881	0.22712	0.1233	0.24169	-2.1813	-2.9396	-2.4146	-2.7542	-2.8646	-2.4208	-2.8688	-2.6937	-2.3792	-3.0958	-2.6271	-2.7771	-2.9688	-2.5167	-2.9813	-2.8229	243.074	187.557	209.773	59.729	132.851	326.152	318.636	77.606	149.896	323.006	279.725	328.866	388.074	329.100	228.932	347.278	0.0012983	0.00063262	0.00010568	1011.8	8.5462e-06	5.3899e-06	1187.2	281.79	8.9415e-06	5.7835e-06	416.26	156.14	88.107	40.092	6.2179e-06	80.018	0.00027488	0.00016836	4.7236e-05	944.54	1.9197e-06	1.8542e-06	1106.2	263.9	1.9528e-06	1.7923e-06	388.07	146.15	82.158	37.956	1.8644e-06	75.258	301.128	142.781	143.656	52.439	188.569	184.276	52.179	57.871	250.572	202.885	56.628	62.407	61.858	68.916	192.903	66.182	-8191	255	
855.935	1	1	0	0	0.30547	0.19552	0.064822	0.11857	0.12451	0.30504	0.28707	0.30316	0.17769	0.21273	0.2051	0.51476	0.081416	0.14726	0.091102	0.28069	-2.0646	-3.1688	-2.6562	-2.8187	-2.9583	-2.5146	-2.9188	-2.7812	-2.4104	-3.1333	-2.7979	-2.6521	-2.9396	-2.6521	-2.8	-3.0167	331.674	344.009	50.449	57.635	70.317	114.461	282.375	333.875	325.149	383.724	381.453	328.347	352.070	352.609	167.716	370.672	0.0013906	0.00061981	0.00015772	1014.8	6.4644e-06	5.9902e-06	1186.9	282.78	1.0318e-05	5.1479e-06	416.35	155.71	87.398	39.886	1.2137e-05	79.51	0.00027317	0.0001652	4.9108e-05	945.49	1.8822e-06	1.8943e-06	1106.3	264.51	2.0138e-06	1.9351e-06	389.03	146.01	81.769	37.831	1.9945e-06	74.908	301.946	146.275	153.857	52.803	205.895	158.762	52.477	57.693	255.420	186.067	56.751	62.548	62.042	68.792	178.874	66.618	-8191	255	
856.031	1	1	0	0	0.32902	0.11453	0.05219	0.3405	0.13881	0.21764	0.073211	0.3476	0.043625	0.0063311	0.32054	0.087367	0.194	0.059721	0.13667	0.12164	-2.0729	-2.9208	-2.7917	-2.8333	-2.9979	-2.4625	-2.8521	-2.9562	-2.5396	-2.9083	-2.6375	-2.5938	-3.1292	-2.6333	-2.8438	-3.0979	381.993	286.595	147.821	388.505	81.595	150.713	391.378	322.676	192.205	329.212	396.944	221.912	284.893	345.133	188.270	373.234	0.0013415	0.00049955	0.00014026	1016.8	9.5017e-06	6.3365e-06	1193	281.83	1.1045e-05	6.3056e-06	414.44	153.7	86.96	39.304	5.1887e-06	77.925	0.00027267	0.00016825	4.7523e-05	946.93	1.9141e-06	1.919e-06	1110.3	263.44	1.9439e-06	1.8474e-06	386.88	144.12	81.025	37.074	1.9098e-06	73.322	305.256	122.909	150.492	52.434	184.155	201.298	52.551	57.618	256.003	221.493	56.962	62.352	61.900	68.800	196.005	66.310	-8191	255	
856.151	1	1	0	0	0.13259	0.20405	0.23656	0.28529	0.085832	0.1617	0.21011	0.09648	0.11403	0.10575	0.043763	0.22353	0.13547	0.22103	0.086936	0.061969	-2.0292	-3.0729	-2.7438	-2.6937	-2.8125	-2.5687	-2.7771	-2.8896	-2.5625	-2.9042	-2.9125	-2.5333	-3.2208	-2.6229	-2.7875	-2.9688	142.453	323.313	106.864	294.657	355.077	162.904	375.481	374.163	120.461	168.780	307.632	309.965	376.835	41.422	138.041	332.169	0.001271	0.00056124	0.0001271	1016.3	8.1658e-06	4.4652e-06	1189.8	280.35	8.5827e-06	2.5052e-06	411.18	152.08	86.302	38.052	8.6039e-06	75.818	0.0002774	0.00017019	4.7376e-05	949.94	1.931e-06	1.9299e-06	1108.5	262.96	1.9902e-06	1.8698e-06	384.84	142.54	80.224	36.161	1.9101e-06	71.616	298.920	139.641	131.790	52.484	183.541	171.800	52.098	57.795	255.609	189.399	56.430	62.370	61.827	68.776	177.179	66.473	-8191	255	
856.248	1	1	0	0	0.075095	0.20792	0.26533	0.20992	0.12276	0.29309	0.29285	0.19423	0.17005	0.28881	0.22886	0.23652	0.093719	0.073684	0.11398	0.34343	-2.0667	-2.8312	-2.6854	-2.6167	-2.9021	-2.6813	-2.5958	-3.1667	-2.5042	-2.9917	-2.7812	-2.6333	-2.95	-2.6146	-2.5438	-2.9708	209.157	388.725	40.538	255.355	154.295	210.923	268.578	380.926	224.235	83.847	293.454	318.500	60.729	280.289	43.310	384.899	0.0013327	0.0003563	0.00016914	1015	8.5058e-06	7.8056e-06	1182.1	281.21	8.6444e-06	5.5881e-06	410.06	152.07	86.87	38.108	5.6499e-06	75.864	0.00026896	0.00017301	4.8537e-05	946.73	1.9391e-06	1.9177e-06	1100.5	263.18	1.9887e-06	1.8344e-06	382.37	142.11	80.622	36.214	1.9235e-06	71.514	297.220	149.946	127.376	52.743	208.593	168.959	52.337	57.783	278.084	194.035	57.069	62.241	62.152	69.125	199.569	66.234	-8191	255	
856.342	1	1	0	0	0.050835	0.16275	0.16551	0.064091	0.14484	0.17529	0.30862	0.14976	0.024463	0.12148	0.25344	0.21992	0.16628	0.34585	0.21115	0.029357	-2.1896	-2.8167	-2.875	-2.5979	-2.8958	-2.6396	-2.7083	-3.0417	-2.4104	-2.9042	-3.0646	-2.5271	-2.8563	-2.5354	-2.5958	-3.1729	69.950	304.838	117.825	300.131	127.894	245.221	314.894	323.617	312.651	263.269	293.922	89.819	358.587	53.571	97.450	73.555	0.0013498	0.00051888	0.00018959	1012.5	4.0902e-06	5.9847e-06	1182.5	280.4	7.8849e-06	6.9362e-06	410.54	152.14	85.881	38.441	1.0286e-05	76.411	0.00027137	0.00017592	4.7466e-05	944.58	1.976e-06	1.8152e-06	1098.6	262.09	1.9533e-06	1.8566e-06	383.23	142.28	80.129	36.429	1.9248e-06	72.103	304.723	111.217	117.833	52.498	224.210	197.327	52.311	57.708	283.622	195.799	56.717	62.196	61.942	68.587	165.975	66.615	-8191	255	
856.438	1	1	0	0	0.24469	0.18121	0.06772	0.15218	0.15455	0.15319	0.39368	0.46436	0.21183	0.11589	0.11659	0.24431	0.054259	0.22132	0.065783	0.14398	-2.1875	-2.6604	-3.0542	-2.3771	-2.7896	-2.8	-2.6354	-3.1479	-2.6146	-2.6312	-3.0333	-2.675	-2.8292	-2.9604	-2.3229	-3.0167	287.202	359.732	103.861	392.236	144.462	302.344	307.158	392.575	261.540	226.419	108.134	341.155	394.947	293.591	381.045	124.128	0.0013427	0.00032081	5.1153e-05	1011.9	7.6929e-06	4.648e-06	1184.3	281.5	1.2357e-05	6.2686e-06	414.38	152.05	86.746	38.395	5.4906e-06	76.498	0.00026207	0.00017198	4.8851e-05	943.85	1.936e-06	1.9026e-06	1100.8	263	1.9482e-06	1.861e-06	385	142.76	80.886	36.475	2.0055e-06	72.183	304.047	154.440	152.573	52.759	207.358	191.697	52.428	57.622	245.089	220.147	56.693	62.376	61.939	68.955	185.865	66.484	-8191	255	
856.534	1	1	0	0	0.14353	0.23916	0.25376	0.2051	0.044416	0.10536	0.1114	0.17255	0.15999	0.027113	0.12815	0.20836	0.15008	0.19376	0.16972	0.31607	-2.175	-2.5979	-3.1	-2.4917	-2.7708	-2.8625	-2.4917	-3.1958	-2.6583	-2.6042	-3.025	-2.6688	-2.7313	-2.9229	-2.3896	-2.9854	127.892	220.403	181.823	288.635	129.531	360.673	265.125	324.970	165.415	366.344	296.712	74.476	345.135	103.768	324.139	354.406	0.0013421	0.00031001	0.00017546	1014.1	6.8239e-06	4.9638e-06	1192.8	280.71	4.6033e-06	5.5362e-06	414.67	153.52	86.29	38.125	6.9162e-06	76.861	0.00027455	0.00017894	4.6843e-05	946.72	1.9308e-06	1.8885e-06	1106.9	262.89	2.0459e-06	1.8884e-06	387.08	143.68	80.539	36.254	1.9692e-06	72.489	304.965	139.190	134.308	52.557	215.399	179.995	52.547	57.813	270.489	196.051	56.801	62.166	61.859	69.077	180.664	66.574	-8191	255	
856.630	1	1	0	0	0.15383	0.26829	0.25974	0.17586	0.1709	0.1388	0.43285	0.22618	0.26243	0.17645	0.16598	0.1896	0.16087	0.14702	0.16515	0.23433	-2.2167	-2.6125	-3.0563	-2.8229	-2.5563	-2.9208	-2.6792	-2.9833	-2.7979	-2.6813	-3.1521	-2.625	-2.7292	-2.9646	-2.4562	-3.1063	216.251	261.013	235.835	322.604	74.828	187.394	295.646	70.754	282.353	287.478	268.046	370.156	297.317	127.438	70.175	354.716	0.0013327	0.00064059	0.0001479	1015.3	6.7693e-06	3.9012e-06	1189.5	283.13	7.8823e-06	3.9555e-06	412.07	153.09	86.946	38.658	9.9752e-06	77.023	0.00026726	0.00017576	4.6236e-05	948.9	1.9741e-06	1.8425e-06	1105.4	264.5	1.9371e-06	1.8658e-06	385.36	143.39	81.042	36.467	1.9439e-06	72.261	298.217	126.979	132.885	52.448	223.689	166.989	52.246	57.657	271.675	188.755	56.795	62.183	61.572	68.446	207.848	66.572	-8191	255	
#DATA ENDS
