BOXY.EXE: ISS Imagent and Oximeter Data Acquisition Program Version 0.80
Ascii Record File

#ACQ INFORMATION
2  Detector Channels 
16  External MUX Channels 
1  Auxiliary Channels 
5000  Waveform (CCF) Frequency (Hz)
1  Waveforms Skipped 
30  Waveforms Averaged 
1  Cycles Averaged 
16  Acquisitions per Waveform 
10.0806  Updata Rate (Hz) 

#FILE INFORMATION
TRUE -- External MUX Channel results are PARSED.
FALSE -- AC DC and Phase are NOT grouped.
TRUE -- Companion Program Settings File CREATED.
FALSE -- AC data not excluded
FALSE -- DC data not excluded
FALSE -- Phase data not excluded
FALSE -- Auxillary Chn. data not excluded
Tab delimiters

#CALIBRATION STATE
TRUE -- Waveform Calibration Values APPLIED.


#AUX CALIBRATION VALUES
Val Type	aux-1	

Term	1.0000e+00	
Factor	0.0000e+00	


#WF CALIBRATION VALUES
A = Detector Channel
Val Type	A-AC1	A-AC2	A-AC3	A-AC4	A-AC5	A-AC6	A-AC7	A-AC8	A-AC9	A-AC10	A-AC11	A-AC12	A-AC13	A-AC14	A-AC15	A-AC16	A-DC1	A-DC2	A-DC3	A-DC4	A-DC5	A-DC6	A-DC7	A-DC8	A-DC9	A-DC10	A-DC11	A-DC12	A-DC13	A-DC14	A-DC15	A-DC16	A-Ph1	A-Ph2	A-Ph3	A-Ph4	A-Ph5	A-Ph6	A-Ph7	A-Ph8	A-Ph9	A-Ph10	A-Ph11	A-Ph12	A-Ph13	A-Ph14	A-Ph15	A-Ph16	

Term	0.00000e+00	0.00000e+00	0.00000e+00	0.00000e+00	0.00000e+00	0.00000e+00	0.00000e+00	0.00000e+00	0.00000e+00	0.00000e+00	0.00000e+00	0.00000e+00	0.00000e+00	0.00000e+00	0.00000e+00	0.00000e+00	0.00000e+00	0.00000e+00	0.00000e+00	0.00000e+00	0.00000e+00	0.00000e+00	0.00000e+00	0.00000e+00	0.00000e+00	0.00000e+00	0.00000e+00	0.00000e+00	0.00000e+00	0.00000e+00	0.00000e+00	0.00000e+00	0.00000e+00	0.00000e+00	0.00000e+00	0.00000e+00	0.00000e+00	0.00000e+00	0.00000e+00	0.00000e+00	0.00000e+00	0.00000e+00	0.00000e+00	0.00000e+00	0.00000e+00	0.00000e+00	0.00000e+00	0.00000e+00	
Factor	1.00000e+00	1.00000e+00	1.00000e+00	1.00000e+00	1.00000e+00	1.00000e+00	1.00000e+00	1.00000e+00	1.00000e+00	1.00000e+00	1.00000e+00	1.00000e+00	1.00000e+00	1.00000e+00	1.00000e+00	1.00000e+00	1.00000e+00	1.00000e+00	1.00000e+00	1.00000e+00	1.00000e+00	1.00000e+00	1.00000e+00	1.00000e+00	1.00000e+00	1.00000e+00	1.00000e+00	1.00000e+00	1.00000e+00	1.00000e+00	1.00000e+00	1.00000e+00	X	X	X	X	X	X	X	X	X	X	X	X	X	X	X	X	

B = Detector Channel
Val Type	B-AC1	B-AC2	B-AC3	B-AC4	B-AC5	B-AC6	B-AC7	B-AC8	B-AC9	B-AC10	B-AC11	B-AC12	B-AC13	B-AC14	B-AC15	B-AC16	B-DC1	B-DC2	B-DC3	B-DC4	B-DC5	B-DC6	B-DC7	B-DC8	B-DC9	B-DC10	B-DC11	B-DC12	B-DC13	B-DC14	B-DC15	B-DC16	B-Ph1	B-Ph2	B-Ph3	B-Ph4	B-Ph5	B-Ph6	B-Ph7	B-Ph8	B-Ph9	B-Ph10	B-Ph11	B-Ph12	B-Ph13	B-Ph14	B-Ph15	B-Ph16	

Term	0.00000e+00	0.00000e+00	0.00000e+00	0.00000e+00	0.00000e+00	0.00000e+00	0.00000e+00	0.00000e+00	0.00000e+00	0.00000e+00	0.00000e+00	0.00000e+00	0.00000e+00	0.00000e+00	0.00000e+00	0.00000e+00	0.00000e+00	0.00000e+00	0.00000e+00	0.00000e+00	0.00000e+00	0.00000e+00	0.00000e+00	0.00000e+00	0.00000e+00	0.00000e+00	0.00000e+00	0.00000e+00	0.00000e+00	0.00000e+00	0.00000e+00	0.00000e+00	-3.07926e+01	-1.28271e+02	-1.20390e+02	-1.82640e+02	-5.31061e+01	-6.98235e+01	-1.56706e+02	-1.61923e+02	-2.71094e+01	-5.58764e+01	-1.71880e+02	-1.72244e+02	-1.82251e+02	-1.75846e+02	-4.83795e+01	-1.49687e+02	
Factor	2.16434e-05	1.48562e-04	4.59262e-05	1.79083e-01	1.83042e-06	1.46645e-06	1.61506e-01	4.43601e-02	1.22595e-06	1.51507e-06	7.54698e-02	3.27657e-02	3.22323e-02	7.27048e-03	1.73491e-06	1.09512e-02	4.41571e-06	5.22226e-06	1.46095e-06	9.02003e-02	5.58854e-08	5.75731e-08	7.66786e-02	2.25032e-02	5.57212e-08	5.76405e-08	3.70078e-02	1.60665e-02	1.62787e-02	3.72003e-03	5.69695e-08	5.40908e-03	X	X	X	X	X	X	X	X	X	X	X	X	X	X	X	X	



#DISTANCE SETTINGS
A = Detector Channel
A-1	A-2	A-3	A-4	A-5	A-6	A-7	A-8	A-9	A-10	A-11	A-12	A-13	A-14	A-15	A-16	

1.0000e+01	1.0000e+01	1.0000e+01	1.4500e+00	1.0000e+01	1.0000e+01	1.5100e+00	1.9500e+00	1.0000e+01	1.0000e+01	2.0100e+00	2.5000e+00	2.4400e+00	2.9500e+00	1.0000e+01	3.0100e+00	

B = Detector Channel
B-1	B-2	B-3	B-4	B-5	B-6	B-7	B-8	B-9	B-10	B-11	B-12	B-13	B-14	B-15	B-16	

1.0000e+01	1.0000e+01	1.0000e+01	1.4500e+00	1.0000e+01	1.0000e+01	1.5100e+00	1.9500e+00	1.0000e+01	1.0000e+01	2.0100e+00	2.5000e+00	2.4400e+00	2.9500e+00	1.0000e+01	3.0100e+00	




#DATA BEGINS
time	group	step	mark	flag	A-AC1	A-AC2	A-AC3	A-AC4	A-AC5	A-AC6	A-AC7	A-AC8	A-AC9	A-AC10	A-AC11	A-AC12	A-AC13	A-AC14	A-AC15	A-AC16	A-DC1	A-DC2	A-DC3	A-DC4	A-DC5	A-DC6	A-DC7	A-DC8	A-DC9	A-DC10	A-DC11	A-DC12	A-DC13	A-DC14	A-DC15	A-DC16	A-Ph1	A-Ph2	A-Ph3	A-Ph4	A-Ph5	A-Ph6	A-Ph7	A-Ph8	A-Ph9	A-Ph10	A-Ph11	A-Ph12	A-Ph13	A-Ph14	A-Ph15	A-Ph16	B-AC1	B-AC2	B-AC3	B-AC4	B-AC5	B-AC6	B-AC7	B-AC8	B-AC9	B-AC10	B-AC11	B-AC12	B-AC13	B-AC14	B-AC15	B-AC16	B-DC1	B-DC2	B-DC3	B-DC4	B-DC5	B-DC6	B-DC7	B-DC8	B-DC9	B-DC10	B-DC11	B-DC12	B-DC13	B-DC14	B-DC15	B-DC16	B-Ph1	B-Ph2	B-Ph3	B-Ph4	B-Ph5	B-Ph6	B-Ph7	B-Ph8	B-Ph9	B-Ph10	B-Ph11	B-Ph12	B-Ph13	B-Ph14	B-Ph15	B-Ph16	aux-1	digaux	

928.883	1	1	0	256	0.19922	0.079092	0.061935	0.034552	0.18185	0.15868	0.11456	0.046026	0.075175	0.3231	0.021567	0.15829	0.14231	0.16494	0.033146	0.14629	-3.2479	-4.3458	-3.5604	-4.0979	-4.4125	-3.4042	-4.6042	-4.2729	-3.6875	-4.4896	-3.8521	-3.8771	-4.3625	-3.5604	-4.2417	-4.2667	207.019	241.750	323.432	158.368	272.078	431.460	444.465	377.887	304.329	484.958	155.324	161.570	406.638	178.888	248.504	152.056	0.00042411	0.00039273	6.9615e-05	1119.8	5.2573e-06	2.9778e-06	1256.3	246.68	5.1173e-06	2.7688e-06	301.59	89.776	67.21	19.935	4.811e-06	28.361	0.00019184	0.00015375	4.367e-05	1103.6	1.7591e-06	1.7291e-06	1240.6	244.22	1.8299e-06	1.6513e-06	300.39	89.383	66.929	20.24	1.7606e-06	28.719	290.732	246.872	267.086	155.630	293.858	299.333	155.623	162.313	295.491	323.527	162.085	168.408	168.971	174.815	315.299	174.665	-8191	255	
929.004	1	1	0	0	0.058989	0.2497	0.060552	0.18652	0.2254	0.026842	0.28835	0.10823	0.077883	0.086701	0.24915	0.098645	0.085531	0.2937	0.26138	0.33252	-3.4479	-4.4187	-3.5104	-3.9688	-4.4667	-3.4625	-4.6562	-4.275	-3.4	-4.425	-3.8083	-3.9542	-4.5229	-3.4729	-4.2625	-4.3313	308.179	291.925	501.824	460.910	182.122	205.727	477.357	415.287	189.700	267.240	460.202	331.379	219.311	157.378	290.439	226.998	0.0004259	0.00036448	0.00011414	1128	5.4187e-06	2.8223e-06	1261.3	247.08	2.8822e-06	2.8313e-06	302.1	90.199	67.629	19.981	4.6676e-06	28.248	0.00019509	0.00016033	4.5545e-05	1108.2	1.7915e-06	1.7447e-06	1244.2	245.34	1.8792e-06	1.667e-06	300.71	89.917	67.248	20.347	1.7682e-06	28.77	288.826	224.493	237.241	155.504	296.582	304.371	155.300	162.253	327.348	306.525	162.346	169.017	168.914	174.977	307.787	175.005	-8191	255	
929.100	1	1	0	0	0.26139	0.099117	0.14481	0.26848	0.11857	0.04268	0.23183	0.21638	0.092884	0.16461	0.087554	0.17509	0.097933	0.10306	0.085839	0.034646	-3.2313	-4.5167	-3.8625	-3.9104	-4.5125	-3.6562	-4.2958	-4.4271	-3.5396	-4.3688	-4.0104	-3.8458	-4.6042	-3.9188	-4.1208	-4.4521	384.097	239.031	373.485	503.117	424.330	398.833	429.241	426.746	266.670	395.983	462.183	414.022	485.770	219.050	480.391	310.023	0.00046323	0.00036705	0.0001134	1126	5.2935e-06	2.9917e-06	1263	247.67	3.874e-06	4.5431e-06	302.81	89.591	67.822	20.016	3.5505e-06	28.43	0.00019528	0.00016009	4.3993e-05	1111.2	1.8242e-06	1.7759e-06	1245.5	246.16	1.8063e-06	1.699e-06	301.56	89.541	67.459	20.327	1.7532e-06	28.739	290.973	251.440	246.199	155.562	307.663	300.830	155.523	162.117	336.891	353.415	162.219	168.737	169.249	174.560	349.275	174.455	-8191	255	
929.171	1	1	0	0	0.077183	0.18036	0.050482	0.059632	0.17713	0.099783	0.1393	0.24918	0.053931	0.19788	0.10689	0.10667	0.1059	0.21893	0.13403	0.23297	-3.3312	-4.35	-3.9688	-3.7646	-4.6562	-3.6979	-4.2917	-4.4583	-3.5708	-4.2104	-4.1167	-3.6437	-4.5563	-3.8104	-3.8854	-4.4896	413.585	248.809	153.361	395.094	172.009	151.704	465.038	419.484	492.442	404.340	169.073	339.669	249.957	382.213	195.154	417.922	0.00043052	0.00025815	0.0001011	1120.6	5.0667e-06	2.228e-06	1261.2	247.35	4.4363e-06	3.2993e-06	300.97	90.331	67.878	19.986	4.8994e-06	28.299	0.00019612	0.0001489	4.2252e-05	1110.1	1.7217e-06	1.6705e-06	1244.7	245.59	1.7626e-06	1.5685e-06	301.1	89.724	67.237	20.254	1.6622e-06	28.688	288.951	208.330	244.009	155.491	310.697	320.132	155.793	162.405	324.314	295.973	162.491	168.652	169.199	175.078	319.279	174.897	-8191	255	
929.268	1	1	0	0	0.083007	0.1767	0.26184	0.28963	0.27194	0.15453	0.10291	0.30553	0.15785	0.25149	0.19292	0.16573	0.209	0.064987	0.15605	0.1023	-3.1396	-4.2354	-4.0687	-3.8042	-4.3875	-3.8187	-3.9813	-4.6521	-3.6458	-4.0729	-4.3104	-3.5229	-4.5479	-3.9208	-3.7021	-4.5062	264.151	404.827	166.762	396.147	229.772	413.519	464.708	448.419	432.537	335.750	447.407	468.249	189.642	375.338	155.392	173.728	0.00039119	0.00041466	0.00014405	1124.3	3.7639e-06	4.2499e-06	1259.4	246.98	3.9133e-06	3.9338e-06	301.43	89.901	67.067	19.766	4.1434e-06	28.194	0.00018559	0.00014327	3.9297e-05	1107.5	1.6406e-06	1.5539e-06	1243.8	245.3	1.6478e-06	1.5724e-06	300.38	89.174	66.849	20.099	1.5696e-06	28.564	290.972	243.546	241.375	155.863	296.024	296.261	155.582	162.337	304.822	274.314	162.633	168.890	169.060	175.311	316.093	175.077	-8191	255	
929.388	1	1	0	0	0.13856	0.13986	0.12029	0.2518	0.21833	0.18538	0.14679	0.096633	0.11795	0.18661	0.15932	0.23372	0.12779	0.057727	0.17711	0.16938	-3.1375	-4.0479	-4.3333	-3.8187	-4.5167	-3.9917	-3.9792	-4.5687	-3.5417	-4.0563	-4.4187	-3.5646	-4.4417	-4.0125	-3.6312	-4.4833	358.198	489.932	321.293	370.943	493.035	353.695	446.202	429.275	412.655	467.454	354.108	160.725	213.951	171.746	358.818	482.086	0.00043266	0.00042186	0.00011656	1122.5	5.2972e-06	4.1294e-06	1261.2	246.37	3.801e-06	4.8245e-06	302.8	89.638	66.942	19.769	3.1026e-06	28.11	0.00017981	0.00013835	3.7763e-05	1103.7	1.5967e-06	1.5617e-06	1243	244.65	1.6509e-06	1.5122e-06	300.29	89.13	66.727	20.075	1.5724e-06	28.553	290.133	233.192	244.954	155.575	290.770	328.121	155.686	162.469	323.662	312.095	162.412	168.728	169.174	175.045	319.926	174.841	-8191	255	
929.484	1	1	0	0	0.10649	0.057978	0.069096	0.14777	0.078143	0.076935	0.22345	0.040469	0.153	0.19038	0.16213	0.17308	0.12212	0.1256	0.087629	0.13253	-3.4042	-3.8104	-4.3688	-3.6	-4.3333	-4.0333	-3.5917	-4.4667	-3.6729	-3.9437	-4.4979	-3.6625	-4.3333	-4.4396	-3.5396	-4.4833	155.797	364.144	322.088	407.957	459.657	431.096	382.124	403.103	393.607	198.449	410.263	306.912	480.134	247.060	165.566	334.387	0.00043463	0.00014769	9.1251e-05	1116.1	6.0167e-06	3.9299e-06	1259.5	245.78	5.8118e-06	1.8362e-06	300.63	88.987	66.167	19.692	3.5814e-06	27.975	0.00017978	0.00013965	3.6767e-05	1103	1.5044e-06	1.4914e-06	1241	243.78	1.519e-06	1.3704e-06	298.74	88.498	66.371	19.963	1.5166e-06	28.446	292.601	216.047	227.964	155.539	307.537	278.398	155.488	162.600	325.783	341.829	162.307	168.684	169.148	175.412	342.768	175.235	-8191	255	
929.580	1	1	0	0	0.07933	0.024021	0.25811	0.31903	0.055044	0.079893	0.18382	0.21695	0.12314	0.14329	0.26291	0.11329	0.15913	0.1063	0.10745	0.2576	-3.5917	-3.7604	-4.4583	-3.6042	-4.3187	-4.3	-3.6521	-4.4271	-3.9437	-3.8208	-4.6292	-3.5292	-4.3271	-4.4354	-3.775	-4.6125	174.843	479.723	156.626	173.901	182.137	495.540	428.996	408.289	491.649	373.598	426.154	164.806	403.479	159.738	256.185	487.016	0.00045283	0.00029793	2.4348e-05	1121.1	4.1271e-06	3.4498e-06	1258.2	246.17	4.2832e-06	2.0914e-06	302.04	89.761	67.381	19.785	4.8269e-06	28.295	0.00017291	0.00013293	3.7464e-05	1105.6	1.5696e-06	1.4382e-06	1241.3	244.57	1.6293e-06	1.5845e-06	300.09	89.318	67.019	20.174	1.6153e-06	28.639	287.180	211.433	311.528	155.525	295.985	269.614	155.451	162.367	306.871	324.919	162.290	168.596	169.065	174.914	302.913	174.925	-8191	255	
929.677	1	1	0	0	0.2474	0.16791	0.14112	0.08644	0.13962	0.13748	0.43235	0.10206	0.36542	0.15764	0.17779	0.13838	0.046929	0.047231	0.14597	0.1547	-3.6292	-3.7958	-4.6062	-3.7083	-4.1833	-4.4125	-3.8271	-4.4833	-4.1833	-3.7208	-4.5771	-3.6646	-4.1792	-4.5188	-3.5479	-4.4583	360.325	421.683	446.322	320.371	499.104	357.016	459.598	381.976	175.784	400.998	145.865	258.006	263.811	436.257	243.075	263.892	0.00045356	0.00040233	9.3587e-05	1117.7	4.6964e-06	2.9558e-06	1259.6	246.51	4.7232e-06	2.9276e-06	300.41	89.4	67.026	19.53	3.6673e-06	27.911	0.00018149	0.00014184	3.7997e-05	1103.6	1.614e-06	1.4672e-06	1242	244.4	1.572e-06	1.4698e-06	299.71	88.883	66.477	19.906	1.486e-06	28.316	289.512	237.964	236.544	155.608	274.699	294.737	155.366	162.465	327.713	307.715	162.464	169.213	169.749	175.470	301.695	175.360	-8191	255	
929.771	1	1	0	0	0.03621	0.11961	0.19217	0.26061	0.25977	0.14784	0.22063	0.15419	0.13463	0.099074	0.27343	0.28653	0.16813	0.15015	0.16963	0.015297	-3.7812	-3.5687	-4.4688	-3.9354	-3.9896	-4.4333	-3.7875	-4.3417	-4.1667	-3.7479	-4.5083	-3.9167	-3.8583	-4.4896	-3.45	-4.4604	476.273	355.391	448.573	450.251	303.782	490.817	466.967	503.504	441.238	196.395	373.529	447.726	195.919	215.657	201.220	354.605	0.0004378	0.00038362	6.3843e-05	1108.9	3.9709e-06	2.7119e-06	1245.3	243.97	3.919e-06	4.4199e-06	296.99	87.914	66.35	19.33	2.7618e-06	27.72	0.00017145	0.00012999	3.3836e-05	1095.4	1.4672e-06	1.3411e-06	1230.3	241.3	1.4056e-06	1.3801e-06	296.21	87.523	65.603	19.598	1.4362e-06	28.046	288.439	245.097	267.258	155.710	275.163	326.414	155.665	162.601	302.227	337.170	162.332	169.231	169.284	175.445	310.596	175.224	-8191	255	
929.869	1	1	0	0	0.14387	0.18874	0.26155	0.31079	0.12748	0.12258	0.21373	0.13813	0.26501	0.17571	0.3682	0.12381	0.37827	0.080143	0.21139	0.2425	-4.0062	-3.5833	-4.5042	-3.9875	-3.8729	-4.4354	-3.6937	-4.1729	-4.2604	-3.5417	-4.5333	-3.9333	-3.8729	-4.6208	-3.5146	-4.1646	394.546	468.838	496.037	427.549	467.912	188.746	457.362	344.851	368.199	351.434	413.240	431.459	467.081	237.816	415.763	160.607	0.00043224	0.00031591	7.7412e-05	1106	4.315e-06	3.3926e-06	1249.2	242.57	2.9433e-06	2.2042e-06	298.61	87.552	66.238	19.31	4.5076e-06	27.781	0.00016236	0.00012612	3.2786e-05	1089.8	1.4684e-06	1.3275e-06	1229.2	240.71	1.4207e-06	1.4216e-06	296.37	87.47	65.701	19.623	1.4978e-06	28.082	288.498	239.593	245.085	155.656	312.317	279.247	155.506	162.812	301.726	332.270	162.522	169.032	169.364	175.444	319.187	175.195	-8191	255	
929.988	1	1	0	0	0.055763	0.21878	0.19149	0.19402	0.14392	0.085496	0.35506	0.16227	0.13516	0.41926	0.21526	0.20683	0.12707	0.10291	0.067598	0.10288	-3.9604	-3.6396	-4.3167	-4.325	-3.6042	-4.5667	-3.8729	-4.0917	-4.4771	-3.5292	-4.4667	-4.1083	-3.7104	-4.5292	-3.8375	-3.9979	374.104	295.185	291.920	496.911	209.821	376.715	385.608	461.191	277.336	432.610	451.061	462.834	398.551	312.780	413.005	196.377	0.0004088	0.00010183	7.9317e-05	1103.8	4.8299e-06	3.8712e-06	1243.5	242.13	4.6202e-06	3.775e-06	296.79	88.055	65.587	19.199	5.7926e-06	27.555	0.00016487	0.0001252	3.4545e-05	1089.2	1.4697e-06	1.352e-06	1226.3	240.23	1.4404e-06	1.3953e-06	295.81	87.566	65.417	19.515	1.4227e-06	27.958	292.329	253.602	220.241	155.341	312.988	355.536	155.602	162.874	337.531	301.752	162.930	169.261	169.393	175.790	297.511	175.421	-8191	255	
930.084	1	1	0	0	0.15894	0.093094	0.029593	0.19161	0.050189	0.27231	0.037477	0.19736	0.20563	0.12752	0.075779	0.15782	0.067196	0.22749	0.1039	0.090954	-4.1604	-3.5479	-4.3292	-4.2396	-3.6271	-4.4125	-4.0104	-4.0938	-4.4292	-3.55	-4.3313	-4.4229	-3.5375	-4.5146	-3.8354	-3.8729	373.706	357.314	220.964	418.028	234.807	432.473	189.604	183.931	167.819	446.936	337.433	502.192	425.284	383.283	167.167	175.684	0.00042579	0.00048996	6.4531e-05	1101	5.3556e-06	3.4047e-06	1236.3	241.59	4.2514e-06	3.9682e-06	295.9	87.669	64.967	19.047	2.4451e-06	27.304	0.00016126	0.00012809	3.4393e-05	1088.1	1.4599e-06	1.295e-06	1222.7	239.56	1.3936e-06	1.3317e-06	294.24	87.063	64.759	19.296	1.2394e-06	27.661	290.897	240.720	239.991	155.893	262.669	295.742	155.603	162.939	318.825	322.316	163.081	169.639	170.203	176.062	313.695	175.627	-8191	255	
930.180	1	1	0	0	0.11116	0.14999	0.086698	0.31988	0.12974	0.25994	0.12787	0.093561	0.087222	0.12594	0.10642	0.10616	0.25448	0.24026	0.11659	0.1518	-4.2292	-3.5125	-4.2125	-4.4021	-3.6333	-4.375	-4.3104	-3.8187	-4.6979	-3.6875	-4.0563	-4.4458	-3.7167	-4.4479	-4.05	-3.6437	490.489	172.682	358.828	444.919	208.270	296.177	472.753	408.410	426.998	209.088	395.951	209.845	458.226	148.539	489.106	452.750	0.00043655	0.00032985	0.00011146	1094.7	4.7799e-06	3.3817e-06	1231.8	239.72	3.6658e-06	3.8368e-06	295.63	87.625	65.145	18.825	3.7286e-06	27.145	0.00015441	0.00011151	3.1337e-05	1079.8	1.3239e-06	1.1895e-06	1215.4	237.49	1.2898e-06	1.2365e-06	292.8	86.669	64.487	19.139	1.2318e-06	27.564	287.874	253.311	233.520	156.012	303.036	318.010	155.817	163.266	338.030	287.644	163.299	169.534	170.515	176.820	284.603	176.364	-8191	255	
930.276	1	1	0	0	0.030146	0.17602	0.24942	0.066039	0.2015	0.39693	0.036777	0.14978	0.15855	0.22675	0.18205	0.20289	0.20449	0.39163	0.16199	0.20639	-4.1188	-3.8063	-4.0167	-4.475	-3.7333	-4.3208	-4.3208	-3.7354	-4.525	-3.8604	-3.9271	-4.5354	-3.4979	-4.3979	-4.2312	-3.6771	491.880	405.139	310.782	225.223	146.696	276.998	487.530	262.075	149.827	188.557	380.324	473.486	425.000	390.189	166.698	185.396	0.00042125	0.00042653	0.00010259	1096.8	3.7463e-06	2.9785e-06	1232.7	239.19	3.462e-06	3.2823e-06	296.41	86.864	64.738	18.865	5.0114e-06	27.412	0.00015427	0.00011178	3.1185e-05	1078	1.3307e-06	1.213e-06	1213.9	237.57	1.3415e-06	1.2853e-06	293.78	86.656	64.356	19.167	1.3522e-06	27.729	289.060	237.437	258.921	156.365	308.702	320.322	156.233	163.541	317.367	361.366	163.520	169.777	170.427	176.332	306.052	176.251	-8191	255	
930.397	1	1	0	0	0.12381	0.065907	0.30344	0.19608	0.097572	0.068531	0.18516	0.15473	0.2558	0.38642	0.14747	0.041065	0.1728	0.24935	0.021009	0.24489	-4.1729	-3.9542	-3.7146	-4.5958	-3.5354	-4.2729	-4.2708	-3.6167	-4.4396	-3.875	-3.8104	-4.6542	-3.6833	-4.2729	-4.2146	-3.8083	417.890	452.198	234.491	463.443	395.425	240.054	446.685	367.225	310.893	367.700	362.947	443.801	363.226	361.179	271.584	431.339	0.00043764	0.00034227	0.00011008	1098.2	4.2552e-06	3.5824e-06	1235.8	240.02	3.7542e-06	2.9526e-06	293.57	87.626	65.738	19.047	3.6434e-06	27.507	0.00016284	0.00011754	3.4351e-05	1079.3	1.4197e-06	1.3271e-06	1215.6	237.91	1.374e-06	1.3411e-06	293.61	86.972	64.786	19.301	1.4267e-06	27.828	290.321	249.464	234.054	156.225	315.091	282.611	156.104	163.384	299.663	334.994	163.489	169.588	170.120	176.214	329.374	176.145	-8191	255	
930.469	1	1	0	0	0.2574	0.24407	0.067678	0.17248	0.12624	0.21612	0.18223	0.12611	0.07565	0.28077	0.13111	0.13519	0.27016	0.10295	0.084	0.036952	-4.2083	-4.0458	-3.8375	-4.725	-3.8521	-4.0708	-4.5542	-3.6208	-4.4521	-3.8812	-3.7917	-4.5917	-3.7854	-3.9625	-4.4	-3.6312	210.679	147.188	348.078	418.396	479.609	308.179	164.880	457.045	345.187	430.709	291.581	451.155	468.652	191.702	250.712	330.106	0.00043652	0.00024528	0.00010866	1092.4	4.2188e-06	3.1569e-06	1231.2	240.04	3.9348e-06	2.9278e-06	295.65	88.042	65.551	18.985	4.3536e-06	27.392	0.00016874	0.0001211	3.6557e-05	1078.9	1.4791e-06	1.3436e-06	1216.4	238.07	1.4636e-06	1.3823e-06	293.7	87.129	64.783	19.318	1.417e-06	27.772	289.018	222.842	248.629	156.375	275.041	288.415	156.106	163.039	319.435	324.698	162.900	169.639	169.639	176.033	305.512	175.485	-8191	255	
930.565	1	1	0	0	0.17678	0.045845	0.15199	0.13017	0.11102	0.11178	0.18059	0.15959	0.074942	0.20678	0.062037	0.12747	0.12847	0.043799	0.20259	0.16466	-3.9938	-3.9938	-3.5208	-4.6458	-3.6521	-3.9208	-4.6208	-3.6479	-4.1687	-4.0875	-3.5792	-4.4313	-3.8042	-3.9646	-4.4958	-3.7479	233.461	384.516	364.213	419.788	416.948	345.243	253.020	265.326	388.845	442.495	442.686	375.264	226.845	155.940	284.024	402.139	0.00040664	0.0002207	3.6088e-05	1092.7	5.325e-06	3.7696e-06	1237.1	239.01	3.6532e-06	3.1158e-06	294.89	87.092	64.987	18.866	2.3012e-06	27.487	0.00016606	0.00012715	3.5358e-05	1080	1.4606e-06	1.4009e-06	1215.4	237.58	1.4174e-06	1.2999e-06	292.87	86.52	64.534	19.191	1.344e-06	27.695	289.222	222.715	286.492	155.723	296.026	319.434	155.668	162.829	322.219	327.261	163.054	169.090	169.484	176.354	335.453	175.492	-8191	255	
930.661	1	1	0	0	0.21173	0.08266	0.12253	0.26714	0.14496	0.19187	0.22342	0.18565	0.17252	0.0208	0.27899	0.029398	0.12009	0.069257	0.086592	0.19044	-3.8812	-4.2063	-3.4646	-4.6708	-4.0437	-3.6833	-4.6667	-3.7083	-4.1396	-4.4854	-3.5104	-4.5917	-4	-3.8771	-4.6312	-3.8333	152.179	175.045	371.730	385.529	211.735	338.843	464.112	180.109	412.895	274.387	162.099	436.699	481.128	443.552	207.343	429.538	0.00040698	0.00024043	0.00010364	1091.4	4.6609e-06	4.0248e-06	1231.7	239.12	4.2008e-06	3.3629e-06	295.25	87.888	64.72	18.866	3.9297e-06	27.286	0.00015933	0.00012286	3.5227e-05	1077.6	1.3998e-06	1.3471e-06	1214	237.16	1.4436e-06	1.4291e-06	293.39	86.979	64.525	19.192	1.3828e-06	27.663	283.887	208.427	252.743	156.093	285.619	326.224	155.815	163.128	319.939	309.232	162.998	169.463	169.525	176.151	318.515	175.834	-8191	255	
930.780	1	1	0	0	0.11211	0.10305	0.15953	0.15176	0.10713	0.30965	0.13475	0.1149	0.13212	0.13945	0.084527	0.14437	0.18191	0.12076	0.076387	0.20968	-3.775	-4.3812	-3.6479	-4.5021	-4.025	-3.725	-4.6521	-3.7042	-4.075	-4.4833	-3.7687	-4.3979	-4.1917	-3.6167	-4.6813	-3.8771	277.213	488.691	203.173	432.252	379.418	489.804	348.920	443.053	257.604	155.662	145.173	380.346	202.809	203.427	292.745	380.641	0.00040737	0.00021042	7.8429e-05	1093.8	4.7672e-06	2.7383e-06	1228.1	238.52	3.5197e-06	2.8679e-06	293.5	87.292	64.696	18.67	4.3437e-06	27.114	0.00016682	0.00012265	3.4725e-05	1078.1	1.4349e-06	1.3335e-06	1211.4	236.38	1.3892e-06	1.2324e-06	292.08	86.464	64.064	19.018	1.2943e-06	27.428	292.649	231.878	229.782	156.288	288.401	254.967	156.160	163.127	320.936	264.194	162.881	169.777	169.944	176.595	305.590	175.724	-8191	255	
930.876	1	1	0	0	0.24038	0.12493	0.16666	0.17251	0.12565	0.19596	0.41563	0.097128	0.1191	0.22944	0.037344	0.086984	0.13236	0.030343	0.11961	0.02757	-3.6854	-4.6625	-3.4792	-4.4583	-4.1312	-3.6417	-4.7063	-4.0583	-3.8542	-4.5458	-3.6375	-4.3146	-4.4812	-3.5625	-4.4917	-3.9333	289.802	186.168	151.892	174.494	403.107	430.790	438.087	284.666	332.939	292.497	241.708	361.045	501.719	346.757	184.383	450.563	0.00044836	0.00015512	0.00010365	1088.1	3.9978e-06	3.4253e-06	1226.5	238.81	5.0384e-06	4.4487e-06	291.87	87.537	64.761	18.822	3.9345e-06	27.136	0.00015715	0.0001073	3.2308e-05	1073.3	1.3378e-06	1.2928e-06	1208.6	236.53	1.4435e-06	1.2626e-06	291.13	86.552	64.21	19.128	1.3994e-06	27.613	287.747	255.644	240.750	155.972	308.822	295.173	155.950	163.186	309.675	321.900	163.252	169.543	169.927	176.464	311.534	175.863	-8191	255	
930.972	1	1	0	0	0.091175	0.079456	0.16651	0.042949	0.1111	0.013348	0.17849	0.026512	0.18454	0.2389	0.37167	0.31842	0.086944	0.092155	0.21105	0.069782	-3.3896	-4.5104	-3.5292	-4.2292	-4.1771	-3.7521	-4.5646	-4.0396	-3.5583	-4.5521	-3.8063	-4.2354	-4.2312	-3.55	-4.2854	-4.2521	368.419	272.855	386.799	146.552	382.236	397.279	373.195	327.799	442.517	427.291	162.125	401.792	255.210	185.747	157.924	278.645	0.00040134	0.00035175	0.00010276	1090.3	5.167e-06	3.1294e-06	1223.9	238.39	2.7688e-06	3.2844e-06	293.47	87.228	64.923	18.826	3.8059e-06	27.221	0.00016893	0.0001244	3.6667e-05	1075.1	1.4732e-06	1.4645e-06	1209	236.84	1.5275e-06	1.377e-06	292.69	86.792	64.517	19.187	1.3774e-06	27.577	290.924	235.711	254.706	156.577	263.922	282.250	156.056	163.339	309.424	334.572	163.085	169.505	170.228	176.255	309.201	175.682	-8191	255	
931.068	1	1	0	0	0.20975	0.099455	0.087115	0.12926	0.2066	0.12276	0.22573	0.075058	0.36087	0.077309	0.21993	0.054276	0.17123	0.13031	0.15967	0.2145	-3.2188	-4.5958	-3.7521	-4.0667	-4.3833	-3.6292	-4.45	-4.3271	-3.5708	-4.5167	-3.7771	-4.1167	-4.5271	-3.6875	-4.2188	-4.2583	501.746	364.581	186.128	208.869	319.408	485.097	374.751	351.440	423.231	154.505	443.384	383.659	369.567	501.251	290.901	394.980	0.00042038	0.00028011	7.9706e-05	1095.6	5.3081e-06	3.5086e-06	1223	238.98	4.6767e-06	3.2792e-06	293.96	87.653	64.774	18.917	3.7419e-06	27.225	0.00017117	0.00012563	3.6299e-05	1076.7	1.4297e-06	1.4134e-06	1208.4	236.54	1.5246e-06	1.3431e-06	291.99	86.696	64.392	19.212	1.461e-06	27.582	291.858	223.143	197.263	156.463	272.620	290.211	156.153	162.837	304.840	343.118	163.071	169.531	169.911	176.117	286.404	175.635	-8191	255	
931.164	1	1	0	0	0.21057	0.10449	0.12338	0.22626	0.1651	0.13353	0.18922	0.14738	0.10392	0.25767	0.3023	0.26756	0.043729	0.20359	0.10423	0.16287	-3.0708	-4.6479	-3.6562	-4.0188	-4.525	-3.7021	-4.3271	-4.475	-3.5667	-4.6375	-4.1208	-3.9375	-4.725	-3.8458	-4.1208	-4.4604	454.904	198.653	361.044	168.054	434.182	478.999	369.553	426.843	466.641	337.176	473.605	381.165	171.535	434.703	216.715	460.548	0.00043464	0.00043277	0.00013761	1088.9	6.3641e-06	2.8046e-06	1224.4	238.21	2.8156e-06	2.9596e-06	293.19	87.467	64.195	18.634	5.7562e-06	26.999	0.00017314	0.00012495	3.6201e-05	1073	1.4449e-06	1.4484e-06	1207.1	236.21	1.4381e-06	1.3051e-06	291.03	86.488	64.037	18.962	1.3308e-06	27.408	288.750	233.690	264.684	156.183	285.161	265.786	156.156	163.097	321.739	310.480	163.290	169.857	169.502	176.154	290.396	175.913	-8191	255	
931.260	1	1	0	0	0.21118	0.14821	0.1319	0.10457	0.18931	0.19631	0.074811	0.14636	0.20029	0.11185	0.21527	0.15599	0.1104	0.16465	0.083782	0.045962	-3.2896	-4.3917	-4.2604	-3.7542	-4.6479	-3.4833	-4.2958	-4.4792	-3.5646	-4.3229	-4.2042	-3.7667	-4.5708	-3.725	-4.0479	-4.5729	227.104	238.052	347.137	453.472	460.971	205.215	188.738	180.165	317.316	382.632	426.517	467.028	175.510	193.480	218.759	388.814	0.00044124	0.00031095	0.00013	1089	3.0754e-06	3.4943e-06	1222.1	237.68	4.4218e-06	2.0137e-06	291.87	86.11	64.471	18.69	4.1029e-06	26.991	0.00015761	0.0001111	3.1681e-05	1072.9	1.3361e-06	1.3245e-06	1206.7	235.42	1.4126e-06	1.2305e-06	290.6	86.068	64.032	18.967	1.3019e-06	27.357	291.370	228.510	211.831	156.240	304.297	290.163	156.160	163.355	320.302	278.195	163.316	169.743	170.542	176.727	315.709	176.336	-8191	255	
931.357	1	1	0	0	0.17805	0.29978	0.12059	0.035469	0.089958	0.078364	0.14134	0.16516	0.13539	0.086782	0.23977	0.17765	0.12002	0.19979	0.20802	0.1249	-3.1375	-4.3229	-4.0875	-3.7042	-4.4354	-3.9417	-4.0479	-4.6583	-3.5312	-4.2854	-4.2854	-3.4958	-4.575	-3.875	-3.9729	-4.5792	435.043	351.421	214.045	145.162	170.380	303.075	414.517	147.251	301.526	412.510	470.806	284.634	451.874	394.585	481.138	187.200	0.00044824	0.00036859	9.7399e-05	1085.3	3.9727e-06	3.0533e-06	1223.9	236.47	2.8711e-06	3.0929e-06	291.61	85.941	64.187	18.479	5.2061e-06	27.044	0.00015813	0.00011173	2.9956e-05	1069.5	1.2333e-06	1.2099e-06	1204.4	234.65	1.3324e-06	1.1953e-06	289.56	85.585	63.672	18.829	1.2638e-06	27.323	291.689	266.668	275.123	156.440	291.404	312.370	156.268	163.184	328.913	298.954	163.261	169.880	170.739	176.997	300.758	176.270	-8191	255	
931.477	1	1	0	0	0.15227	0.22957	0.22536	0.18222	0.16279	0.1019	0.19922	0.12342	0.13735	0.10196	0.11079	0.082204	0.18103	0.10421	0.28509	0.070534	-3.1458	-4.225	-4.1188	-3.7188	-4.4396	-4.0292	-4.0521	-4.625	-3.7229	-4.0833	-4.4042	-3.5125	-4.5563	-4.0021	-3.8083	-4.5854	418.465	363.689	370.923	459.645	348.462	418.755	456.254	149.200	349.801	418.224	424.452	295.775	373.050	459.505	496.627	220.769	0.00039415	0.00046564	0.00014714	1086.6	3.8658e-06	2.9087e-06	1219.2	236.62	2.6535e-06	1.5252e-06	293.23	85.942	64.087	18.436	4.1857e-06	26.917	0.00015674	0.00011305	3.0342e-05	1068.2	1.3294e-06	1.2129e-06	1202.1	234.57	1.3612e-06	1.2612e-06	290.54	85.638	63.547	18.797	1.3318e-06	27.262	289.862	245.160	233.333	156.610	309.802	317.050	156.511	163.668	329.742	308.804	163.595	170.163	170.696	176.817	331.123	176.061	-8191	255	
931.573	1	1	0	0	0.0552	0.050614	0.19629	0.11135	0.11992	0.068115	0.19645	0.15722	0.15951	0.034625	0.039676	0.15868	0.093478	0.26015	0.14162	0.31467	-3.2958	-4.2542	-4.2312	-3.725	-4.2771	-4.2708	-3.7167	-4.8354	-3.7375	-3.9625	-4.6208	-3.4104	-4.3979	-4.1875	-3.6813	-4.4604	164.192	452.345	366.788	447.423	336.455	240.276	401.516	475.730	366.971	270.903	462.169	451.646	209.055	204.888	199.803	431.661	0.00039908	0.00022935	0.0001088	1078.6	3.7921e-06	2.4504e-06	1218.9	236.29	4.2826e-06	4.3386e-06	292.58	86.944	63.935	18.473	4.9603e-06	26.853	0.00015661	0.00011187	3.0175e-05	1066.6	1.3081e-06	1.2538e-06	1200.3	234.29	1.4144e-06	1.3178e-06	289.81	86.045	63.821	18.878	1.3248e-06	27.34	288.990	211.064	239.522	156.299	341.625	301.658	156.055	163.580	316.487	304.310	163.219	169.711	170.523	176.555	300.768	175.961	-8191	255	
931.670	1	1	0	0	0.025015	0.15728	0.082506	0.040234	0.14834	0.15426	0.21092	0.37543	0.15867	0.1333	0.090862	0.15106	0.15378	0.074338	0.13892	0.1341	-3.5333	-3.8271	-4.6062	-3.7333	-4.2604	-4.2208	-3.7958	-4.6937	-3.9146	-4.0062	-4.7146	-3.7625	-4.2792	-4.3938	-3.6646	-4.5188	402.081	319.305	479.939	353.158	416.989	156.167	497.422	489.870	450.424	308.875	147.326	362.435	154.605	177.158	473.874	173.649	0.0004028	0.00019776	9.8312e-05	1077.4	4.4979e-06	3.1108e-06	1220.8	235.24	3.3597e-06	6.6323e-07	291.71	85.274	64.064	18.381	2.8358e-06	26.589	0.00015348	0.00011585	3.1213e-05	1064.7	1.2624e-06	1.1744e-06	1201.7	233.86	1.2681e-06	1.1534e-06	289.06	85.131	63.212	18.593	1.1397e-06	26.958	289.123	243.071	210.840	156.489	295.289	338.406	156.375	163.765	281.438	320.537	163.718	169.981	170.673	176.836	292.891	176.575	-8191	255	
931.766	1	1	0	0	0.14251	0.18159	0.19172	0.11789	0.080487	0.029751	0.38353	0.2128	0.048532	0.13426	0.22587	0.037978	0.081823	0.15593	0.12195	0.20932	-3.8396	-3.7917	-4.5979	-3.9208	-4.0875	-4.6	-3.7729	-4.6208	-3.9583	-3.7	-4.625	-3.7646	-4.0167	-4.45	-3.7729	-4.5354	155.571	212.352	166.845	392.199	162.346	207.104	478.840	436.354	218.942	206.592	476.444	496.246	340.262	475.851	222.241	145.236	0.00040179	0.00026343	9.1421e-05	1070.5	4.6964e-06	2.0161e-06	1209.4	233.17	4.7937e-06	2.8427e-06	290.22	85.947	63.651	18.443	3.4415e-06	26.882	0.00013898	9.8222e-05	2.5609e-05	1057.2	1.1954e-06	1.0728e-06	1192.3	231.68	1.26e-06	1.2275e-06	288.08	85.024	63.147	18.674	1.3467e-06	27.153	289.455	240.519	229.422	155.787	290.994	328.873	155.970	163.158	332.450	317.961	162.819	169.747	170.161	176.739	333.429	176.331	-8191	255	
931.860	1	1	0	0	0.29064	0.23969	0.10316	0.16292	0.16691	0.19718	0.04953	0.16397	0.1337	0.09612	0.086084	0.10097	0.15101	0.23778	0.066192	0.1437	-3.5604	-3.6875	-4.5167	-4.1562	-3.9625	-4.4313	-3.6958	-4.4688	-4.1104	-3.5938	-4.4958	-3.7271	-3.925	-4.4313	-3.6604	-4.3146	485.710	417.830	149.745	185.503	323.075	375.671	409.824	380.697	165.453	309.890	267.332	285.369	392.811	480.008	409.350	432.314	0.00042422	0.00029852	9.9775e-05	1075.8	4.2463e-06	2.231e-06	1212	234.8	2.9088e-06	4.6321e-06	289.67	86.008	63.453	18.303	5.0222e-06	26.61	0.00015906	0.00011889	3.2722e-05	1060.4	1.3935e-06	1.2293e-06	1195.6	232.99	1.2587e-06	1.1855e-06	287.66	84.949	62.925	18.497	1.1349e-06	26.915	289.806	192.886	267.144	156.170	309.560	309.336	156.164	163.502	316.440	308.319	163.592	169.780	170.621	177.280	313.999	176.904	-8191	255	
931.956	1	1	0	0	0.19975	0.10963	0.0378	0.26702	0.2987	0.24375	0.13266	0.26064	0.20893	0.26885	0.22171	0.05884	0.073978	0.22463	0.16183	0.13975	-3.875	-3.6229	-4.5813	-3.8917	-3.8229	-4.5083	-3.9042	-4.2417	-4.3479	-3.6375	-4.525	-4.1104	-3.7875	-4.5813	-3.6521	-4.3958	487.670	426.789	298.349	417.144	334.687	390.631	416.741	240.860	250.356	416.165	400.281	189.596	428.095	495.422	361.227	334.729	0.00038552	0.00039439	0.00010906	1075.2	6.3432e-06	4.4361e-06	1206.7	234.18	3.6024e-06	2.7032e-06	289.73	85.122	63.123	18.18	3.9635e-06	26.588	0.00013576	9.6993e-05	2.5676e-05	1056	1.1463e-06	1.0724e-06	1188.2	231.1	1.1343e-06	1.1316e-06	287.05	84.496	62.629	18.444	1.2139e-06	26.959	289.570	235.321	242.079	156.318	312.453	283.868	156.550	163.900	310.356	332.855	163.748	170.215	170.814	177.347	310.363	177.380	-8191	255	
932.077	1	1	0	0	0.27281	0.11059	0.20924	0.05861	0.12552	0.18	0.29429	0.13066	0.13163	0.13226	0.095729	0.09839	0.10997	0.14361	0.11769	0.28097	-4.1417	-3.4313	-4.4042	-4.1417	-3.7021	-4.5	-3.8229	-4.2771	-4.4771	-3.6833	-4.5854	-4.3125	-3.6479	-4.65	-3.8229	-4.0687	239.255	344.456	209.622	306.593	323.058	411.323	467.392	344.610	448.587	308.202	420.984	338.699	315.237	446.619	371.226	503.012	0.00042583	0.00036996	9.3576e-05	1072.2	5.9393e-06	2.886e-06	1204	234.25	3.7274e-06	2.452e-06	288.87	85.104	63.015	18.196	4.8503e-06	26.662	0.00015119	0.0001122	3.001e-05	1053.9	1.3033e-06	1.1331e-06	1187.5	231.56	1.2376e-06	1.1677e-06	287.24	84.551	62.643	18.476	1.2175e-06	26.983	293.848	229.959	247.968	156.586	305.975	270.607	156.665	164.103	311.416	307.009	163.979	170.290	171.359	177.513	311.518	177.004	-8191	255	
932.173	1	1	0	0	0.22884	0.11939	0.20389	0.065387	0.032899	0.048118	0.29548	0.12498	0.10449	0.098585	0.17953	0.16889	0.068718	0.079023	0.097145	0.084829	-4.1771	-3.6937	-4.3938	-4.3125	-3.7083	-4.4938	-3.9979	-4.0375	-4.5646	-3.4542	-4.4271	-4.4229	-3.5104	-4.55	-3.7021	-4.0021	387.455	366.992	387.552	425.106	484.894	295.758	482.193	165.214	177.941	412.442	447.615	163.048	428.709	264.904	176.618	331.234	0.00041515	0.00039966	8.1923e-05	1069.3	4.7601e-06	3.8428e-06	1208.6	233.08	3.3378e-06	2.867e-06	288.57	85	63.324	18.248	4.6899e-06	26.618	0.00014886	0.00010898	2.8884e-05	1055.3	1.323e-06	1.1381e-06	1190.6	231.58	1.3183e-06	1.1928e-06	287.26	84.489	62.683	18.515	1.2713e-06	26.878	289.180	253.242	263.939	156.649	294.452	293.778	156.368	163.871	328.735	328.739	163.908	170.059	170.903	177.313	313.020	177.100	-8191	255	
932.269	1	1	0	0	0.10304	0.15032	0.19973	0.22304	0.16152	0.14572	0.20158	0.09786	0.21479	0.068824	0.12869	0.19126	0.19934	0.1926	0.20025	0.18291	-4.0542	-3.6375	-4.1479	-4.4854	-3.5438	-4.4708	-4.1354	-3.8104	-4.5708	-3.5938	-4.3354	-4.3875	-3.6813	-4.6292	-4.0188	-3.8125	496.184	342.508	263.665	483.688	372.217	419.639	484.673	156.869	338.688	370.708	369.122	161.567	182.658	468.535	210.546	378.835	0.00037926	0.00022243	7.1213e-05	1072.9	3.2621e-06	2.287e-06	1207.5	232.94	3.7001e-06	2.8086e-06	288.42	85.085	63.177	18.205	3.5682e-06	26.48	0.00014913	0.00010713	3.0065e-05	1055	1.263e-06	1.1299e-06	1189.7	231.09	1.2526e-06	1.1981e-06	286.32	84.324	62.657	18.441	1.224e-06	26.879	289.903	198.737	227.476	156.672	289.140	320.590	156.356	163.715	303.044	282.842	163.390	169.915	170.643	177.338	296.261	176.630	-8191	255	
932.341	1	1	0	0	0.033946	0.31217	0.059267	0.23731	0.15282	0.23804	0.25659	0.047019	0.12932	0.17334	0.081422	0.064858	0.074605	0.37446	0.20613	0.30844	-4.3208	-3.6229	-4.1583	-4.4792	-3.7729	-4.5104	-4.1208	-3.8667	-4.5979	-3.8917	-3.9167	-4.4313	-3.5563	-4.1729	-4.1604	-3.6875	346.281	167.954	217.363	152.002	384.019	379.003	433.658	483.572	451.144	491.331	358.731	307.604	273.313	484.431	292.186	169.272	0.00041894	0.00027343	0.00012945	1073.3	5.1333e-06	3.8709e-06	1208.7	233.28	3.3734e-06	2.3825e-06	288.49	85.367	63.039	18.156	3.2508e-06	26.443	0.00015359	0.00011406	3.086e-05	1055.6	1.2825e-06	1.1772e-06	1188.3	231.25	1.241e-06	1.2196e-06	286.71	84.455	62.649	18.446	1.233e-06	26.855	291.633	241.186	249.778	156.775	308.547	307.178	156.745	163.897	332.483	308.527	164.192	170.562	170.962	177.603	319.446	177.000	-8191	255	
932.461	1	1	0	0	0.18863	0.17012	0.13575	0.04868	0.12987	0.15175	0.32872	0.25548	0.12139	0.032552	0.20246	0.18928	0.11942	0.17898	0.064088	0.33203	-4.1979	-3.6042	-4.0104	-4.4792	-3.7083	-4.3583	-4.5479	-3.7125	-4.5167	-3.9479	-4.0958	-4.5229	-3.7042	-4.2396	-4.1875	-3.5729	253.896	372.801	201.498	301.861	364.794	342.347	362.820	451.366	478.064	430.888	462.713	413.836	423.858	181.569	348.028	186.352	0.00041795	0.00019145	0.00010073	1068.1	3.5573e-06	3.9468e-06	1209.1	232.88	4.1894e-06	3.2629e-06	286.84	85.087	62.857	18.122	4.4667e-06	26.482	0.00015363	0.00011085	3.1803e-05	1053.9	1.3425e-06	1.1938e-06	1187.5	230.8	1.3309e-06	1.285e-06	286.15	84.32	62.487	18.42	1.2831e-06	26.833	291.914	246.041	256.798	156.995	314.522	319.275	156.892	164.283	326.206	314.926	164.295	170.621	170.571	177.451	307.850	176.809	-8191	255	
932.558	1	1	0	0	0.074477	0.081744	0.1139	0.14436	0.14663	0.12438	0.27568	0.13775	0.15673	0.10025	0.24618	0.025202	0.16261	0.089364	0.13486	0.1202	-4.1458	-3.9521	-3.6229	-4.7208	-3.4979	-4.2167	-4.4729	-3.7062	-4.325	-4.0938	-3.9125	-4.6708	-3.7333	-4.1125	-4.4104	-3.7604	505.648	149.285	328.458	156.913	486.571	433.437	466.334	191.672	501.981	328.336	410.203	362.697	437.935	384.648	227.140	280.736	0.00040396	0.00034278	7.8427e-05	1068.4	4.774e-06	2.0792e-06	1203.9	232.67	2.754e-06	2.3934e-06	287.07	85.141	63.27	18.075	3.4641e-06	26.514	0.00015375	0.0001112	3.2588e-05	1054.2	1.3144e-06	1.1897e-06	1185.6	230.73	1.2361e-06	1.1559e-06	285.97	84.4	62.565	18.387	1.2924e-06	26.868	293.070	245.695	257.159	156.544	290.349	310.258	156.430	163.873	349.205	311.123	163.867	170.443	170.728	177.202	305.299	177.021	-8191	255	
932.654	1	1	0	0	0.14269	0.16648	0.19858	0.21726	0.11082	0.1816	0.093824	0.12284	0.16855	0.09836	0.16333	0.13787	0.12556	0.13978	0.20689	0.078832	-4.1875	-4.1521	-3.7417	-4.6479	-3.6729	-4.1396	-4.5146	-3.6333	-4.1562	-4.0917	-3.5875	-4.5917	-3.8104	-4.0229	-4.55	-3.6146	374.235	152.985	270.220	439.993	332.051	379.174	494.479	231.881	448.449	337.677	474.415	244.967	271.658	279.893	480.803	384.393	0.00041245	0.00028426	0.00011879	1072	4.7427e-06	2.6402e-06	1206.5	232.76	3.5299e-06	2.8797e-06	288.35	84.542	62.594	18.078	2.6343e-06	26.523	0.00015072	0.00011037	3.1237e-05	1054	1.2504e-06	1.2407e-06	1186.8	230.48	1.2765e-06	1.2079e-06	285.99	84.133	62.353	18.361	1.139e-06	26.738	289.700	225.611	262.223	156.747	300.772	301.975	156.911	163.745	338.855	304.242	163.150	169.779	170.283	176.900	285.708	176.468	-8191	255	
932.750	1	1	0	0	0.086291	0.29127	0.13836	0.39148	0.14974	0.32655	0.28712	0.11096	0.16512	0.31465	0.028535	0.081868	0.024438	0.16104	0.2292	0.28836	-4.0729	-4.2312	-3.6458	-4.7229	-3.7333	-3.9021	-4.6729	-3.7021	-3.9896	-4.3104	-3.6937	-4.6604	-4.0292	-3.7917	-4.5375	-3.8875	150.030	401.060	241.739	442.636	430.564	325.162	450.622	386.275	293.127	436.077	366.414	360.771	485.297	463.599	331.425	166.684	0.00040827	0.00014562	8.2962e-05	1070.5	5.2589e-06	2.1793e-06	1202.1	232.36	4.2327e-06	2.2376e-06	287.88	85.263	62.759	17.978	4.7056e-06	26.464	0.00014634	0.00010901	3.1414e-05	1052.9	1.3208e-06	1.1572e-06	1185.1	230.1	1.2827e-06	1.0886e-06	285.49	84.257	62.228	18.247	1.1724e-06	26.715	288.981	200.593	244.520	156.005	309.054	287.878	155.951	163.397	300.977	326.846	163.300	169.561	170.328	177.190	307.796	176.516	-8191	255	
932.869	1	1	0	0	0.17342	0.24285	0.089141	0.1376	0.024993	0.15654	0.10533	0.24812	0.13032	0.23521	0.1665	0.005438	0.083834	0.18336	0.15392	0.1087	-3.75	-4.25	-3.4375	-4.55	-3.9896	-3.8542	-4.5	-3.7708	-4.075	-4.4229	-3.3875	-4.5771	-4.0604	-3.6813	-4.4896	-3.8146	350.682	356.393	314.376	475.778	398.413	503.026	380.053	160.976	328.734	475.675	152.793	296.016	352.412	373.767	390.526	465.500	0.00043075	0.00027974	7.0366e-05	1067.1	5.0615e-06	2.3821e-06	1199.1	230.95	3.2736e-06	2.6407e-06	287.05	84.771	62.484	17.949	3.8184e-06	26.35	0.00015061	0.00010352	3.0376e-05	1050.7	1.2645e-06	1.1542e-06	1183.7	229.33	1.2844e-06	1.071e-06	285.1	83.944	62.219	18.282	1.1681e-06	26.694	290.308	251.582	253.283	156.264	318.067	285.334	156.017	163.224	323.848	321.821	163.362	169.676	170.078	177.003	325.903	176.521	-8191	255	
932.940	1	1	0	0	0.21711	0.13775	0.16308	0.052891	0.08797	0.36686	0.21217	0.18483	0.22852	0.10865	0.19341	0.093935	0.04758	0.16414	0.19683	0.12328	-3.6125	-4.3458	-3.4125	-4.4979	-4.1292	-3.6583	-4.7292	-4.0542	-3.7896	-4.7042	-3.6979	-4.2958	-4.4479	-3.7313	-4.425	-3.8979	288.540	164.220	267.367	172.849	201.476	435.739	437.001	410.357	212.253	464.016	499.183	391.081	264.288	357.731	171.511	491.300	0.00038753	0.00033557	0.00010586	1066.6	4.146e-06	4.0514e-06	1202.3	231.45	2.8547e-06	3.0438e-06	287.06	85.006	62.777	17.965	1.9043e-06	26.339	0.00014271	0.00010059	2.9536e-05	1051.4	1.2166e-06	1.1665e-06	1184.5	229.56	1.2595e-06	1.0969e-06	285.03	84.164	62.249	18.275	1.063e-06	26.602	290.694	227.188	229.073	156.514	305.957	334.018	156.279	163.598	314.594	282.896	163.228	170.049	170.439	177.017	317.138	176.559	-8191	255	
933.038	1	1	0	0	0.13241	0.11884	0.15376	0.1638	0.031637	0.069672	0.35414	0.16684	0.16	0.18134	0.18075	0.2086	0.37828	0.070917	0.11013	0.074702	-3.6396	-4.5229	-3.7042	-4.2812	-4.3833	-3.5646	-4.6333	-3.9479	-3.6042	-4.5625	-3.7833	-4.2458	-4.3792	-3.5167	-4.2333	-4.1917	310.480	264.453	417.239	493.549	365.974	247.409	432.112	324.579	367.085	480.099	384.950	423.377	162.160	283.869	500.979	382.078	0.00040543	0.00048873	7.2302e-05	1064.4	3.9264e-06	3.1154e-06	1201	231.71	4.372e-06	2.3149e-06	286.95	83.988	62.568	17.984	3.3761e-06	26.449	0.00014243	0.0001026	2.8869e-05	1049.6	1.1488e-06	1.1283e-06	1182.2	229.25	1.1628e-06	1.0745e-06	285.19	83.762	61.906	18.22	1.1556e-06	26.625	285.714	220.879	270.214	156.348	273.345	264.834	156.127	163.429	315.941	292.750	163.729	170.319	170.703	177.399	325.439	176.784	-8191	255	
933.157	1	1	0	0	0.12269	0.067285	0.072561	0.10772	0.17123	0.14181	0.04977	0.06834	0.24326	0.036557	0.16574	0.1637	0.23928	0.060693	0.25489	0.17251	-3.3729	-4.5	-3.7042	-4.2667	-4.4833	-3.6625	-4.5625	-4.2604	-3.7958	-4.5125	-3.8312	-4.1042	-4.4375	-3.5958	-4.2396	-4.2917	225.566	435.949	207.990	411.298	316.179	217.029	403.996	412.365	470.089	499.862	170.019	445.342	461.187	153.184	253.867	412.004	0.00040787	0.00019127	5.7285e-05	1060.8	2.9868e-06	3.154e-06	1198.5	230.92	3.2051e-06	3.2429e-06	287.08	84.647	62.428	18.071	4.5449e-06	26.308	0.00014825	9.8657e-05	3.0433e-05	1047.4	1.1741e-06	1.1423e-06	1179.4	228.86	1.2073e-06	1.0924e-06	284.47	83.81	62.129	18.253	1.1947e-06	26.615	287.952	271.243	222.560	156.666	250.666	296.607	156.430	163.839	320.220	288.596	163.341	170.329	170.762	176.929	328.234	176.613	-8191	255	
933.253	1	1	0	0	0.14913	0.068326	0.11798	0.07989	0.25028	0.045403	0.20971	0.21889	0.13756	0.043206	0.19233	0.12336	0.14979	0.18228	0.14913	0.077714	-3.3229	-4.6021	-3.8479	-4.1083	-4.4479	-3.6542	-4.4792	-4.4437	-3.4354	-4.5958	-3.9479	-3.9	-4.6687	-3.6896	-4.2979	-4.4458	475.216	446.850	372.495	166.666	231.731	333.381	363.828	450.031	159.122	308.615	491.920	395.356	192.385	454.896	159.384	455.111	0.00037436	0.000254	1.8903e-05	1061.7	3.6603e-06	2.6532e-06	1198.2	231.18	4.2657e-06	3.3023e-06	286.32	84.599	62.92	17.995	4.9038e-06	26.256	0.00014334	9.7188e-05	2.8419e-05	1046.8	1.2064e-06	1.0638e-06	1181.8	229.25	1.254e-06	1.0791e-06	284.41	84.059	62.065	18.246	1.1602e-06	26.629	288.777	247.392	220.039	156.615	271.900	300.392	156.499	163.422	348.843	305.947	163.533	170.070	170.593	177.490	318.239	176.827	-8191	255	
933.350	1	1	0	0	0.27432	0.025731	0.24269	0.1474	0.044936	0.19697	0.18934	0.27372	0.29922	0.072802	0.17119	0.22602	0.11075	0.1933	0.039932	0.14928	-3.3563	-4.6646	-3.7708	-4.0458	-4.475	-3.7354	-4.2604	-4.4542	-3.5458	-4.45	-3.9771	-3.9125	-4.3812	-3.7167	-3.9146	-4.4313	421.605	160.173	282.353	388.836	442.287	438.877	427.278	480.619	235.154	318.482	435.009	400.233	447.152	206.628	257.816	151.857	0.00040972	0.00032463	0.00011043	1060.8	3.5056e-06	2.384e-06	1198.7	231.21	3.4998e-06	2.2898e-06	286.8	83.688	62.66	17.801	4.4478e-06	26.066	0.00014717	9.5633e-05	2.8276e-05	1046.2	1.1723e-06	1.0216e-06	1179.4	228.63	1.2254e-06	1.0403e-06	284.14	83.353	61.851	18.1	1.132e-06	26.509	289.704	237.701	235.155	156.709	297.235	285.063	156.570	163.703	317.700	313.695	163.170	170.258	170.877	177.655	320.755	176.778	-8191	255	
933.470	1	1	0	0	0.19273	0.15026	0.37718	0.21788	0.26361	0.052055	0.10753	0.18	0.25641	0.29291	0.13435	0.054697	0.11775	0.16747	0.27994	0.065168	-3.1625	-4.4542	-4.0542	-3.9188	-4.5146	-3.8937	-4.1167	-4.5563	-3.75	-4.4229	-4.3562	-3.7104	-4.5188	-3.8083	-3.9104	-4.6604	441.622	243.634	379.850	490.592	451.524	333.148	333.661	471.180	198.645	317.478	149.994	170.887	345.103	453.389	150.978	186.360	0.00040984	0.00017276	9.1361e-05	1059.5	5.914e-06	4.4995e-06	1194.1	229.95	4.073e-06	3.5478e-06	285.29	84.474	62.329	17.904	4.0658e-06	25.976	0.00014547	9.6111e-05	2.7192e-05	1046.1	1.1571e-06	1.1067e-06	1178.7	228.14	1.2172e-06	1.0262e-06	283.51	83.701	61.757	18.127	1.1889e-06	26.471	291.048	226.361	236.493	156.608	288.875	294.452	156.390	163.682	312.960	293.749	163.230	170.175	170.859	177.375	305.094	176.630	-8191	255	
933.566	1	1	0	0	0.23532	0.11304	0.15286	0.084863	0.084755	0.15453	0.20968	0.11366	0.089972	0.050916	0.10265	0.20517	0.17402	0.12099	0.1112	0.1645	-3.2438	-4.2479	-4.3271	-3.6729	-4.5563	-3.8063	-4.0792	-4.4229	-3.7125	-4.275	-4.4062	-3.6813	-4.5604	-3.9792	-3.6583	-4.65	380.764	179.917	495.542	448.791	380.988	416.970	446.197	391.046	429.632	170.838	497.234	462.463	317.695	173.974	285.876	414.912	0.00043234	0.00031049	0.00011128	1060.6	5.6095e-06	2.4896e-06	1195.8	231.17	3.4771e-06	2.0141e-06	287.47	84.807	63.103	17.882	4.3309e-06	26.163	0.00014498	9.8222e-05	2.7624e-05	1043.2	1.1897e-06	1.1108e-06	1176.8	228.59	1.1987e-06	1.0555e-06	284.39	83.936	62.025	18.136	1.1313e-06	26.499	288.361	222.483	221.846	156.397	292.301	289.293	156.306	163.773	321.179	297.277	163.776	170.422	170.970	177.663	309.736	176.594	-8191	255	
933.638	1	1	0	0	0.1962	0.064694	0.093084	0.29619	0.092475	0.14428	0.24437	0.13566	0.16806	0.1381	0.26284	0.088834	0.31083	0.054133	0.029277	0.16215	-3.1854	-4.2083	-4.2854	-3.6646	-4.4458	-3.8729	-3.7542	-4.475	-3.7417	-4.0542	-4.5687	-3.5625	-4.5271	-4.0521	-3.7062	-4.5896	373.287	155.913	476.025	455.130	260.802	170.507	475.661	438.289	215.696	390.870	430.418	494.607	198.955	292.089	289.077	357.126	0.00041203	0.00014576	8.8956e-05	1057.1	4.4273e-06	2.1264e-06	1194.3	229.48	4.1099e-06	3.9357e-06	285.22	83.856	61.842	17.837	2.6789e-06	26.316	0.00014642	9.5263e-05	2.6032e-05	1042.4	1.0942e-06	1.064e-06	1175.3	227.9	1.1257e-06	1.0464e-06	282.9	83.35	61.638	18.076	1.0526e-06	26.493	287.949	257.644	258.471	156.775	303.668	293.109	156.113	163.356	324.249	323.820	162.874	169.518	170.230	176.630	319.090	176.203	-8191	255	
933.759	1	1	0	0	0.033	0.044955	0.18044	0.086853	0.066383	0.075447	0.35606	0.15901	0.29076	0.1704	0.23072	0.20457	0.17129	0.38848	0.24456	0.14375	-3.4271	-3.9688	-4.5542	-3.6646	-4.3688	-4.0875	-3.7833	-4.6042	-3.8563	-3.9042	-4.6542	-3.6208	-4.3333	-4.2833	-3.5646	-4.6292	494.559	208.385	269.059	231.764	301.166	284.895	479.147	359.939	337.420	308.173	441.688	178.653	165.649	493.852	357.309	169.696	0.00039111	0.00032305	9.7542e-05	1053.1	3.7621e-06	2.9248e-06	1185.3	228.79	3.5447e-06	2.0527e-06	282.68	83.622	61.619	17.902	4.8991e-06	26.181	0.0001367	9.6188e-05	2.424e-05	1037.6	1.066e-06	1.007e-06	1172.5	226.82	1.1199e-06	1.0599e-06	282.08	83.234	61.356	18.054	1.1346e-06	26.487	285.770	226.574	257.128	156.087	306.339	287.841	155.803	163.404	330.241	288.640	163.031	169.867	170.899	176.743	325.567	176.099	-8191	255	
933.853	1	1	0	0	0.0776	0.21869	0.18565	0.14049	0.10445	0.2557	0.30335	0.0162	0.20365	0.25801	0.15217	0.13223	0.2833	0.25243	0.21409	0.037253	-3.5708	-3.7625	-4.5375	-3.6604	-4.1083	-4.1958	-3.7646	-4.475	-4.1042	-3.7583	-4.4208	-3.8125	-4.1208	-4.3792	-3.3979	-4.5	450.122	329.239	332.640	185.234	339.802	182.438	409.667	186.835	467.498	210.085	437.707	455.445	383.403	328.281	396.658	502.906	0.00038859	0.00046743	0.00010667	1053.5	4.989e-06	3.3929e-06	1189	230.13	3.8881e-06	4.5478e-06	284.95	84.183	62.219	17.761	4.1452e-06	26.156	0.00013729	9.9571e-05	2.5244e-05	1038	1.134e-06	1.014e-06	1171.3	227.54	1.1349e-06	1.0539e-06	283.04	83.443	61.643	18.062	1.1281e-06	26.532	288.747	260.509	233.074	155.987	315.853	253.927	156.102	163.611	331.055	323.826	162.962	169.691	170.659	177.036	321.196	176.313	-8191	255	
933.949	1	1	0	0	0.26915	0.19321	0.2063	0.1664	0.020608	0.15262	0.1938	0.31329	0.089619	0.098736	0.18604	0.12948	0.20124	0.12475	0.077969	0.13431	-3.5812	-3.6188	-4.4729	-3.7333	-4.2229	-4.3625	-3.7417	-4.5104	-3.9958	-3.6979	-4.6021	-3.8563	-3.8667	-4.575	-3.4479	-4.3854	421.141	411.481	160.484	491.293	195.101	230.779	457.094	484.460	321.426	417.450	231.251	152.892	355.282	505.524	486.936	188.845	0.00041347	0.00029848	8.4444e-05	1049.8	4.5189e-06	3.3514e-06	1186.9	229.9	2.3444e-06	2.1217e-06	284.67	84.266	62.425	17.859	5.3978e-06	26.133	0.00014019	0.00010116	2.7073e-05	1037.6	1.1544e-06	1.005e-06	1172.9	227.91	1.1065e-06	1.0653e-06	283.64	83.475	61.742	18.079	1.117e-06	26.431	291.749	211.018	239.557	155.913	302.223	305.035	155.986	163.770	310.202	318.838	162.961	169.494	170.358	177.118	299.050	176.617	-8191	255	
934.045	1	1	0	0	0.090424	0.18899	0.2601	0.029219	0.21049	0.17097	0.26186	0.11542	0.31646	0.10401	0.022371	0.13379	0.076393	0.18555	0.02629	0.046753	-3.7729	-3.6417	-4.6687	-4.0146	-3.8208	-4.3812	-3.7687	-4.4208	-4.2292	-3.675	-4.7208	-3.9458	-3.8104	-4.6	-3.5	-4.2729	408.942	165.273	336.770	396.073	380.730	366.925	401.804	477.825	357.644	229.665	192.328	375.559	388.069	499.599	220.043	495.941	0.00041623	0.00030178	0.00010304	1056	4.5385e-06	3.0592e-06	1185.7	228.83	3.9345e-06	2.9639e-06	283.48	84.188	61.813	17.894	4.2583e-06	26.214	0.00014109	9.6579e-05	2.6075e-05	1038.4	1.1487e-06	1.0111e-06	1172	227.04	1.1595e-06	1.0565e-06	282.49	83.304	61.557	18.114	1.0833e-06	26.493	289.546	239.027	260.212	156.128	289.467	277.978	156.203	163.557	329.863	328.542	163.507	169.865	170.752	177.378	286.984	176.544	-8191	255	
934.166	1	1	0	0	0.079049	0.063611	0.21463	0.055176	0.12269	0.090257	0.25406	0.053668	0.24096	0.19915	0.11098	0.22282	0.15202	0.083476	0.097268	0.1665	-4.0792	-3.5146	-4.6146	-3.85	-3.6458	-4.6729	-3.8042	-4.1583	-4.3229	-3.6625	-4.575	-4.0458	-3.8	-4.6521	-3.6146	-4.0625	331.522	389.543	295.941	362.268	279.345	219.754	403.041	166.501	363.041	480.538	253.136	172.101	386.749	463.383	185.076	406.146	0.00040477	0.00034925	8.0947e-05	1049.9	5.5678e-06	2.1227e-06	1190.4	229.7	3.76e-06	3.321e-06	282.85	84	62.294	17.806	2.5315e-06	26.152	0.00013646	9.5524e-05	2.3628e-05	1036.6	1.1532e-06	1.0026e-06	1170.1	227.19	1.1172e-06	1.0931e-06	282.29	83.124	61.596	18.09	1.1236e-06	26.509	287.897	239.875	245.637	156.160	292.736	299.691	156.062	163.434	323.838	320.168	163.592	169.718	170.762	177.003	290.224	176.733	-8191	255	
934.238	1	1	0	0	0.22006	0.09726	0.16502	0.28987	0.21939	0.24789	0.19432	0.18675	0.16426	0.23553	0.059744	0.057214	0.10433	0.25237	0.11847	0.20182	-4.1479	-3.5604	-4.4458	-4.2667	-3.5938	-4.7167	-3.95	-4.0792	-4.5479	-3.6188	-4.5542	-4.25	-3.5771	-4.7375	-3.7687	-4.0021	332.343	267.908	373.700	441.380	251.582	253.545	473.542	503.058	157.272	454.212	420.569	412.811	448.923	190.434	408.860	223.548	0.00042226	0.00027258	7.8608e-05	1051.7	3.8691e-06	3.6208e-06	1189.4	229.64	3.4629e-06	2.4159e-06	284.92	83.685	61.84	17.836	3.6445e-06	26.238	0.00014012	9.5121e-05	2.536e-05	1036.2	1.1734e-06	1.0126e-06	1169.7	226.85	1.0819e-06	1.0121e-06	281.91	83.163	61.472	18.064	1.0679e-06	26.449	289.514	234.251	238.309	156.076	308.941	316.203	156.222	163.623	317.981	300.443	163.641	170.047	170.494	177.453	332.897	177.213	-8191	255	
934.334	1	1	0	0	0.11537	0.20755	0.2093	0.13975	0.15743	0.08586	0.06372	0.011247	0.17127	0.011434	0.20423	0.018507	0.17584	0.17392	0.1016	0.21391	-4.2312	-3.5333	-4.3146	-4.3958	-3.5125	-4.6354	-3.7625	-4.0854	-4.5104	-3.6375	-4.4062	-4.4667	-3.6896	-4.4854	-4.0833	-3.8625	499.953	214.759	439.091	187.722	164.738	197.900	389.209	215.700	433.114	371.555	496.083	324.591	454.843	241.542	211.395	433.758	0.00038187	0.00029226	9.6535e-05	1052.4	4.3964e-06	3.0998e-06	1188.1	228.93	1.9275e-06	4.1124e-06	283.9	83.497	61.863	17.856	3.2215e-06	26.035	0.00013399	9.5535e-05	2.5208e-05	1034.6	1.1901e-06	1.0023e-06	1167	226.96	1.171e-06	1.0824e-06	282.48	83.08	61.567	18.083	1.0701e-06	26.451	286.087	246.376	237.235	156.505	293.177	281.461	156.303	163.891	339.454	280.107	163.841	170.621	170.823	177.003	311.769	176.687	-8191	255	
934.430	1	1	0	0	0.11414	0.23918	0.17001	0.12334	0.17646	0.24978	0.19903	0.29116	0.10408	0.22668	0.13781	0.068336	0.12543	0.1364	0.23548	0.19198	-4.2875	-3.6604	-4.1792	-4.4021	-3.6312	-4.3792	-4.1229	-3.8937	-4.6	-3.8354	-4.2083	-4.4583	-3.7188	-4.3271	-3.9604	-3.8292	219.138	235.185	366.611	354.349	227.419	477.019	415.658	455.758	504.882	477.419	182.360	498.745	147.747	473.586	396.226	431.238	0.00039183	0.00028442	9.8596e-05	1048.3	4.7576e-06	3.6478e-06	1177.8	228.8	4.0137e-06	3.2017e-06	284.11	83.492	62.125	17.961	1.3645e-06	26.125	0.00014007	0.00010068	2.6781e-05	1032.6	1.2024e-06	1.0814e-06	1166.5	227.15	1.1874e-06	1.1709e-06	282.53	83.24	61.551	18.117	1.1368e-06	26.491	291.469	251.992	259.852	156.219	318.123	291.562	155.883	163.331	308.772	341.859	163.503	169.831	170.627	177.154	252.561	177.060	-8191	255	
934.551	1	1	0	0	0.20437	0.057828	0.13384	0.11932	0.034055	0.16469	0.31257	0.19701	0.049422	0.10185	0.011011	0.14578	0.060212	0.062742	0.20229	0.23249	-4.1542	-3.6792	-3.9604	-4.5229	-3.6813	-4.4083	-4.3313	-3.7875	-4.6687	-3.6042	-3.9604	-4.5583	-3.7021	-4.3646	-4.1333	-3.55	489.232	367.745	211.319	278.607	235.512	371.901	464.589	491.814	328.333	418.529	396.428	167.778	254.584	198.544	245.391	398.956	0.00039175	0.00031788	8.6709e-05	1048.5	4.2892e-06	2.5661e-06	1182.2	228.14	4.217e-06	3.2227e-06	284.85	83.489	62.12	17.897	3.5283e-06	26.282	0.00014508	0.00010549	2.8373e-05	1033.2	1.2359e-06	1.0747e-06	1168	227.1	1.214e-06	1.1394e-06	282.93	83.232	61.505	18.131	1.1706e-06	26.548	289.182	246.991	244.442	156.175	298.262	296.227	155.700	163.593	317.659	321.494	162.801	169.568	169.676	176.386	309.278	176.336	-8191	255	
934.645	1	1	0	0	0.1018	0.061874	0.16462	0.044413	0.15259	0.047893	0.28053	0.19752	0.12354	0.14882	0.16109	0.11785	0.16502	0.19218	0.041379	0.20579	-4.2875	-3.7708	-3.8563	-4.5521	-3.5708	-4.1646	-4.3229	-3.7562	-4.5437	-3.8896	-3.9875	-4.5687	-3.5396	-4.2875	-4.2917	-3.7146	327.032	415.301	451.022	490.811	177.325	332.857	424.978	458.154	456.835	502.597	395.025	368.597	426.677	418.792	271.373	268.353	0.00039504	0.00030081	0.00013162	1047.8	2.8521e-06	3.6488e-06	1181.8	229.43	2.3783e-06	1.6678e-06	285.6	84.145	62.707	18.002	5.1052e-06	26.384	0.00014648	0.00011079	3.0997e-05	1035.6	1.2681e-06	1.1182e-06	1167.6	227.77	1.2441e-06	1.2029e-06	283.67	83.726	62.02	18.238	1.2633e-06	26.633	290.334	250.087	229.861	155.614	303.555	280.793	155.417	163.093	321.012	318.422	162.749	169.605	169.827	176.494	291.632	175.628	-8191	255	
934.741	1	1	0	0	0.27088	0.13942	0.11831	0.011806	0.15529	0.11801	0.27931	0.26535	0.16284	0.13833	0.10199	0.012577	0.35019	0.063553	0.15078	0.13497	-4.2104	-3.9792	-3.8458	-4.6417	-3.7	-4.1562	-4.825	-3.6854	-4.2854	-3.975	-3.7896	-4.525	-3.7354	-3.95	-4.425	-3.6646	307.870	320.115	182.393	355.219	208.832	419.408	461.109	485.447	323.868	236.847	459.285	306.821	339.747	359.327	432.634	349.708	0.0004114	0.00014993	0.00010926	1049.6	3.1091e-06	2.1495e-06	1184.6	229.47	3.9553e-06	2.5348e-06	283.86	84.375	62.244	17.966	2.2804e-06	26.409	0.00014922	0.00011046	3.0312e-05	1036.9	1.2956e-06	1.1609e-06	1168.8	227.47	1.237e-06	1.1204e-06	282.94	83.659	61.791	18.192	1.149e-06	26.62	290.266	261.774	267.763	155.874	310.442	261.940	155.715	163.083	323.921	311.268	163.023	169.394	170.215	176.768	317.111	176.020	-8191	255	
934.839	1	1	0	0	0.15274	0.047338	0.20279	0.17165	0.13177	0.071513	0.19401	0.073899	0.10892	0.19814	0.13807	0.22409	0.23377	0.14579	0.07608	0.12803	-4.2125	-4.0813	-3.5521	-4.6958	-3.775	-3.8688	-4.6229	-3.7583	-4.2396	-4.2812	-3.7083	-4.5771	-3.9417	-3.7854	-4.5271	-3.7271	467.585	177.400	407.440	166.776	503.186	354.021	386.259	382.506	419.408	334.643	502.166	199.188	500.895	195.532	495.583	382.551	0.0004027	0.00052327	8.2929e-05	1055.1	5.3228e-06	3.3252e-06	1183.9	229.75	4.2831e-06	2.2469e-06	284.64	83.691	62.566	18.009	4.9973e-06	26.366	0.0001498	0.0001043	2.9593e-05	1037.3	1.2317e-06	1.1576e-06	1170.5	227.73	1.2262e-06	1.1151e-06	282.73	83.505	61.909	18.237	1.1511e-06	26.553	290.470	243.148	234.268	155.784	307.422	279.590	155.680	162.780	323.120	304.884	162.786	169.943	170.007	176.850	315.974	175.845	-8191	255	
934.933	1	1	0	0	0.38007	0.21878	0.099231	0.041041	0.076568	0.064945	0.086323	0.28293	0.2577	0.0741	0.31912	0.14939	0.31098	0.14156	0.16354	0.26912	-4.0167	-4.3521	-3.5563	-4.6604	-4.0583	-3.875	-4.8354	-3.7146	-4.0396	-4.4104	-3.7146	-4.6312	-3.9292	-3.7313	-4.6417	-3.6562	410.428	385.437	272.939	193.877	210.475	445.459	430.622	398.827	352.009	481.628	407.180	498.864	146.430	148.908	264.915	447.645	0.00038751	0.00037852	8.1977e-05	1053.7	3.4916e-06	1.9621e-06	1186.4	229.1	4.1065e-06	7.6431e-07	285.04	84.214	62.109	17.985	3.5489e-06	26.405	0.00014747	0.00010369	3.1045e-05	1037.3	1.2721e-06	1.1967e-06	1169.9	227.59	1.2361e-06	1.1634e-06	283.81	83.749	61.828	18.244	1.1528e-06	26.654	288.260	260.571	220.854	155.749	300.476	299.638	155.524	162.952	303.101	335.867	163.041	169.613	170.205	176.594	315.376	175.593	-8191	255	
935.030	1	1	0	0	0.13844	0.1418	0.10531	0.25791	0.23949	0.084297	0.095575	0.20551	0.1717	0.3217	0.038066	0.13413	0.20544	0.15992	0.13482	0.10255	-3.6833	-4.4083	-3.4854	-4.5479	-4.0479	-3.6979	-4.7771	-3.7167	-3.9229	-4.5	-3.7167	-4.3812	-4.1479	-3.6833	-4.3167	-3.9583	444.098	335.226	260.139	416.546	404.352	265.969	498.837	483.888	238.759	370.235	195.689	498.141	365.153	164.601	160.112	145.298	0.00039181	0.00036511	6.7682e-05	1052.7	3.9553e-06	3.2811e-06	1185.7	229.53	3.391e-06	1.3609e-06	283.33	84.439	62.58	17.874	4.8329e-06	26.2	0.00014725	0.00010018	2.9526e-05	1036.6	1.1454e-06	1.0993e-06	1168.6	227.37	1.1652e-06	9.9454e-07	282.5	83.383	61.622	18.126	1.12e-06	26.575	288.340	238.880	235.792	155.948	269.306	286.756	156.117	163.342	340.079	316.039	163.382	170.049	170.956	177.211	305.938	176.045	-8191	255	
935.150	1	1	0	0	0.23118	0.039887	0.19087	0.30958	0.22296	0.12124	0.30983	0.20446	0.12878	0.13256	0.091467	0.13774	0.1818	0.081364	0.20904	0.11198	-3.5438	-4.5042	-3.5271	-4.3458	-4.0312	-3.5604	-4.5437	-3.7896	-3.7708	-4.5021	-3.5646	-4.2271	-4.2937	-3.5625	-4.4896	-3.925	191.851	366.685	202.440	150.665	228.630	182.297	429.838	444.782	298.812	375.908	483.447	244.779	162.198	457.974	437.652	417.729	0.00039303	0.00035896	0.00012988	1050.6	2.2756e-06	3.7749e-06	1187.4	229.53	3.2394e-06	2.2323e-06	284.69	84.587	62.509	17.951	2.0741e-06	26.366	0.00014781	0.00010826	3.177e-05	1037.6	1.3314e-06	1.3413e-06	1171.1	228.05	1.3927e-06	1.201e-06	283.79	83.689	62.061	18.182	1.2215e-06	26.577	290.982	224.919	232.096	155.734	291.279	263.077	155.604	162.897	334.511	349.385	162.597	169.149	169.610	176.484	288.829	175.924	-8191	255	
935.246	1	1	0	0	0.08847	0.11537	0.2992	0.05388	0.1654	0.16888	0.13469	0.28925	0.058128	0.10134	0.21001	0.06116	0.097166	0.26332	0.050441	0.26833	-3.4458	-4.5042	-3.4667	-4.3562	-4.4896	-3.3833	-4.6729	-4.0292	-3.7292	-4.5854	-3.8667	-4.0583	-4.55	-3.7562	-4.4271	-4.1583	217.841	428.259	250.960	173.401	442.642	148.108	162.476	289.484	319.600	327.354	451.318	349.886	164.822	456.679	481.716	482.061	0.00045216	0.00019377	5.9648e-05	1050	4.891e-06	1.9303e-06	1184.2	228.88	2.9454e-06	2.7828e-06	284.73	84.381	62.115	17.902	3.3549e-06	26.271	0.00014851	9.8244e-05	2.8263e-05	1038.7	1.1174e-06	1.1143e-06	1169.4	227.13	1.2092e-06	1.0722e-06	283.25	83.558	61.759	18.181	1.2254e-06	26.584	287.900	232.551	216.419	155.690	316.941	283.967	155.634	162.893	330.474	293.571	162.511	169.590	169.659	176.797	326.386	175.703	-8191	255	
935.342	1	1	0	0	0.23434	0.046849	0.10524	0.051742	0.1856	0.13834	0.030472	0.22727	0.10561	0.049066	0.063256	0.045887	0.19525	0.11152	0.13392	0.11408	-3.3979	-4.5458	-3.8438	-4.0292	-4.2583	-3.6729	-4.5271	-4.3333	-3.8771	-4.6312	-3.8333	-4.05	-4.5813	-3.6479	-4.2	-4.3125	292.947	402.528	218.701	478.677	428.016	160.874	426.882	405.492	481.008	181.399	294.402	436.505	502.379	470.045	258.682	472.747	0.00040386	0.00027439	8.6257e-05	1049.3	5.3589e-06	3.331e-06	1184.9	228.94	4.1713e-06	3.8376e-06	283.81	84.407	62.435	17.953	4.2678e-06	26.14	0.00015461	0.0001085	3.1797e-05	1036.5	1.328e-06	1.2117e-06	1170.3	227.7	1.3992e-06	1.263e-06	283.28	83.731	62.035	18.246	1.2053e-06	26.606	291.000	247.750	220.235	155.894	291.520	288.599	155.661	162.822	313.743	287.809	162.509	169.529	169.814	176.434	312.559	175.881	-8191	255	
935.439	1	1	0	0	0.049321	0.18708	0.18606	0.12156	0.16985	0.23489	0.11965	0.10714	0.01568	0.13461	0.076089	0.053963	0.19319	0.15854	0.11384	0.038023	-3.1104	-4.4375	-3.9188	-3.7833	-4.5437	-3.5896	-4.5854	-4.3438	-3.425	-4.5167	-4.1479	-3.7771	-4.5833	-3.7708	-4.0854	-4.4458	312.986	182.328	212.129	374.384	354.776	299.545	495.334	154.665	290.939	403.342	502.576	335.089	251.287	346.727	463.706	339.460	0.00040225	0.00032389	7.7025e-05	1049.6	3.7058e-06	2.668e-06	1188.4	230.26	4.5832e-06	8.8764e-07	284.43	83.889	62.132	17.961	3.2006e-06	26.162	0.00014943	0.00010523	3.0507e-05	1036.5	1.2248e-06	1.193e-06	1170.3	227.75	1.2764e-06	1.0366e-06	282.84	83.597	61.737	18.18	1.1575e-06	26.505	291.508	242.091	236.943	155.751	305.001	309.404	155.461	162.946	324.446	346.050	162.828	169.385	169.715	176.270	289.257	176.180	-8191	255	
935.535	1	1	0	0	0.14385	0.17982	0.14727	0.19569	0.16064	0.16327	0.28531	0.12509	0.14113	0.19211	0.19831	0.1972	0.1606	0.24557	0.15902	0.027343	-3.1979	-4.4	-4.0729	-3.8729	-4.5333	-3.7979	-4.2792	-4.4	-3.6063	-4.3917	-4.0667	-3.8708	-4.5917	-3.7875	-4.0271	-4.5312	238.852	412.290	198.034	499.625	267.105	391.273	473.813	145.147	424.213	423.121	412.084	199.968	222.428	158.697	246.735	342.438	0.00037194	0.000258	0.00012164	1050.7	3.7757e-06	3.0272e-06	1185.9	228.86	1.9089e-06	2.4218e-06	285.98	84.047	62.024	17.753	4.183e-06	26.155	0.00014775	0.00010653	2.8708e-05	1035	1.2049e-06	1.1948e-06	1169.1	227.35	1.2544e-06	1.0824e-06	283	83.641	61.755	18.105	1.1725e-06	26.568	288.893	235.333	247.055	155.549	292.364	280.239	155.638	162.636	328.808	310.619	162.572	169.158	169.992	176.952	291.273	175.812	-8191	255	
935.631	1	1	0	0	0.29544	0.17453	0.14117	0.31559	0.24586	0.18894	0.097248	0.24263	0.10222	0.12106	0.012242	0.034072	0.19974	0.17958	0.21538	0.048715	-3.1917	-4.2917	-4.1667	-3.7687	-4.4396	-3.8937	-4.1438	-4.6083	-3.5479	-4.2771	-4.3063	-3.5771	-4.4375	-4.0375	-3.6292	-4.6312	390.760	208.544	250.601	464.241	449.607	339.374	422.076	504.515	172.063	207.343	293.218	435.670	461.362	468.084	488.388	237.100	0.00044445	0.00044253	7.5494e-05	1047.6	6.6472e-06	3.1352e-06	1181.6	228.64	3.4145e-06	3.1948e-06	284.51	84.396	61.729	17.866	3.822e-06	26.306	0.00014884	0.0001046	2.987e-05	1035.2	1.1973e-06	1.1362e-06	1167.6	227.18	1.2775e-06	1.158e-06	283.06	83.622	61.652	18.169	1.2608e-06	26.621	290.294	222.364	247.692	155.704	312.598	283.832	155.467	162.829	342.638	303.020	162.532	169.039	169.827	176.450	288.560	175.845	-8191	255	
935.727	1	1	0	0	0.077002	0.024305	0.11694	0.057982	0.24571	0.09144	0.20212	0.18329	0.14136	0.06754	0.17304	0.25308	0.16819	0.22875	0.19807	0.17167	-3.3375	-4.2438	-4.3292	-3.675	-4.5021	-3.8479	-3.7771	-4.6	-3.6854	-4.2708	-4.6021	-3.5062	-4.3938	-4.1521	-3.5417	-4.6521	240.130	150.816	222.757	432.195	262.001	472.366	434.658	399.890	314.762	398.547	255.013	412.688	147.126	446.874	371.064	188.814	0.00042722	0.00042633	7.3435e-05	1050.2	4.0678e-06	2.7357e-06	1184.1	228.64	4.2763e-06	1.84e-06	284.04	83.878	61.943	17.79	2.0764e-06	26.267	0.00015254	0.00010826	2.8339e-05	1034.2	1.1858e-06	1.1245e-06	1167.8	227.09	1.2288e-06	1.1443e-06	282.27	83.396	61.574	18.051	1.1928e-06	26.495	292.306	242.720	236.149	155.646	311.049	299.144	155.389	162.994	312.642	345.778	162.645	169.492	169.733	176.353	339.943	175.820	-8191	255	
935.823	1	1	0	0	0.32039	0.16788	0.31543	0.19269	0.23692	0.19061	0.11357	0.058317	0.04222	0.060516	0.13537	0.12135	0.022539	0.13661	0.051589	0.084533	-3.3	-4.0333	-4.4396	-3.6	-4.4583	-4.1542	-3.7771	-4.6042	-3.7521	-3.9333	-4.5312	-3.6188	-4.3812	-4.1958	-3.6667	-4.4479	205.262	242.381	261.046	442.537	200.483	267.870	476.126	345.669	420.112	370.553	396.425	456.033	365.296	146.584	359.290	193.601	0.00041389	0.00032926	0.00014586	1047.3	3.1541e-06	2.4212e-06	1182.9	228.79	3.3768e-06	2.9492e-06	283.69	84.486	62.107	17.926	5.9226e-06	26.186	0.00014371	0.00010053	2.7399e-05	1031.8	1.2037e-06	1.1052e-06	1165.3	226.88	1.2692e-06	1.1479e-06	281.88	83.52	61.757	18.163	1.2593e-06	26.535	289.753	227.424	260.604	155.699	310.161	313.571	155.589	162.792	318.147	292.069	162.544	169.287	170.012	176.682	306.795	175.862	-8191	255	
935.942	1	1	0	0	0.25026	0.13743	0.086977	0.23272	0.17485	0.14142	0.1207	0.37975	0.14384	0.18833	0.061351	0.039696	0.12139	0.04495	0.28113	0.06655	-3.4396	-3.8958	-4.4625	-3.6917	-4.2771	-4.2979	-3.8	-4.6708	-3.85	-3.9271	-4.5875	-3.8063	-4.2063	-4.5125	-3.4896	-4.7417	182.664	318.948	240.889	435.344	241.970	270.239	468.543	444.878	455.691	289.842	350.858	256.930	187.215	180.644	238.596	375.842	0.00038217	0.00028847	0.00012074	1044.8	4.9024e-06	1.2514e-06	1180.4	228.95	4.2735e-06	2.5476e-06	283.95	84.083	62.088	17.887	3.4607e-06	26.249	0.00015135	0.00011003	3.0872e-05	1031.5	1.2622e-06	1.1575e-06	1164.8	226.88	1.2938e-06	1.1586e-06	281.99	83.395	61.7	18.142	1.2373e-06	26.566	288.584	233.832	201.919	155.978	286.484	304.809	155.759	163.073	320.622	271.706	162.830	169.289	169.567	177.231	333.123	175.877	-8191	255	
936.038	1	1	0	0	0.081635	0.079589	0.12177	0.12773	0.10752	0.050763	0.20465	0.30018	0.18749	0.21301	0.092296	0.089472	0.153	0.044651	0.1363	0.06227	-3.7125	-3.8312	-4.5125	-3.7833	-4.2167	-4.3917	-3.7875	-4.6021	-4.0729	-3.7979	-4.85	-3.8875	-4.2208	-4.5312	-3.7062	-4.2042	314.049	258.097	367.952	245.665	295.907	427.742	429.032	485.864	301.772	305.733	270.771	299.332	376.539	244.779	330.050	474.918	0.0004121	0.00022404	0.00010652	1051.4	3.288e-06	2.547e-06	1184.3	229.6	4.283e-06	3.12e-06	285.04	83.648	62.714	17.998	2.1037e-06	26.075	0.00015182	0.00010699	3.0643e-05	1033.8	1.3071e-06	1.2246e-06	1167.4	227.34	1.335e-06	1.3053e-06	283.28	83.381	61.881	18.215	1.2608e-06	26.498	286.927	205.370	249.162	155.682	279.785	315.707	155.814	163.089	313.840	301.143	162.598	169.455	169.830	176.681	299.607	176.492	-8191	255	
936.110	1	1	0	0	0.16805	0.11733	0.31049	0.066038	0.11241	0.4047	0.14246	0.13047	0.10851	0.017726	0.1821	0.03901	0.18858	0.084046	0.13011	0.16312	-3.8646	-3.6417	-4.5604	-3.7271	-4.1021	-4.5771	-3.8187	-4.4458	-4.1062	-3.6833	-4.6937	-3.9188	-3.9375	-4.4583	-3.5312	-4.2312	276.231	179.611	305.801	341.318	383.937	177.711	443.277	207.522	331.748	189.455	459.774	409.025	379.304	503.992	427.246	145.178	0.00041553	0.00041834	8.118e-05	1048.1	5.8066e-06	2.3938e-06	1180.8	227.69	2.1981e-06	3.1234e-06	283.81	83.883	62.125	17.915	3.2006e-06	26.027	0.00015173	0.00011289	2.9803e-05	1035	1.2904e-06	1.2064e-06	1166.6	226.8	1.1686e-06	1.1645e-06	282.78	83.281	61.59	18.121	1.2328e-06	26.46	288.131	253.659	209.159	155.486	301.203	300.432	155.709	163.121	337.264	309.519	163.109	169.917	170.312	176.632	304.097	175.883	-8191	255	
936.231	1	1	0	0	0.054869	0.28152	0.16729	0.33554	0.22069	0.041409	0.017934	0.12085	0.11398	0.06062	0.12423	0.14876	0.067052	0.08539	0.31711	0.17652	-3.8792	-3.5167	-4.6062	-3.9854	-3.9708	-4.45	-3.8042	-4.3208	-4.2521	-3.4854	-4.6854	-3.9604	-4.0229	-4.6021	-3.6958	-4.2792	478.882	263.648	259.921	164.630	238.817	449.431	483.273	409.766	272.219	266.130	450.681	385.053	403.641	465.947	366.754	275.471	0.00039753	0.00010048	9.1552e-05	1047	3.3903e-06	2.8428e-06	1181.8	229.03	4.1448e-06	2.504e-06	283.61	83.438	62.045	17.905	4.1473e-06	26.051	0.00014217	0.00010846	2.7779e-05	1032.3	1.2438e-06	1.1449e-06	1165.9	227.28	1.1656e-06	1.1318e-06	282.49	83.257	61.673	18.132	1.1357e-06	26.49	287.837	206.140	246.726	155.506	288.614	274.941	155.640	163.269	319.555	354.913	162.937	169.401	170.261	176.822	313.685	176.185	-8191	255	
936.327	1	1	0	0	0.15297	0.24701	0.15911	0.15988	0.19503	0.18938	0.21165	0.14275	0.18383	0.23929	0.28605	0.12009	0.12909	0.023484	0.096352	0.23297	-3.9021	-3.625	-4.2479	-4.2562	-3.7208	-4.475	-3.8688	-4.2083	-4.6292	-3.6604	-4.4854	-4.2104	-3.6	-4.45	-3.7062	-4.1229	361.369	502.343	502.140	430.685	433.875	145.773	424.836	428.588	244.699	186.642	423.764	491.468	471.268	445.802	157.383	343.938	0.00037874	0.00036049	9.9421e-05	1050.8	4.0801e-06	2.1948e-06	1185.3	228.05	2.8692e-06	2.4179e-06	282.72	84.017	61.831	17.749	4.4255e-06	26.067	0.00013929	0.0001076	2.7265e-05	1033.1	1.2235e-06	1.0312e-06	1166.5	226.4	1.1404e-06	1.0748e-06	281.56	83.098	61.375	18.019	1.1523e-06	26.414	286.373	235.942	248.735	155.448	287.256	317.219	155.584	163.170	306.935	306.111	162.681	169.691	169.984	176.620	335.793	176.249	-8191	255	
936.423	1	1	0	0	0.1839	0.078032	0.15954	0.21637	0.10439	0.1333	0.3248	0.24394	0.16524	0.064434	0.034361	0.15646	0.14412	0.049154	0.066005	0.24215	-4.1937	-3.6437	-4.3792	-4.2937	-3.6188	-4.7167	-4.1	-4.1375	-4.5292	-3.6354	-4.4792	-4.1479	-3.7062	-4.4875	-4.0146	-3.9271	435.103	282.836	160.897	171.622	230.383	491.576	413.093	348.508	491.468	237.065	225.915	465.950	176.665	448.244	419.988	242.638	0.00040438	0.00023009	8.5945e-05	1044.7	5.8394e-06	3.2751e-06	1178.9	227.61	3.1555e-06	4.0239e-06	282.69	83.748	61.892	17.79	4.5997e-06	26.121	0.00013888	9.7178e-05	2.6708e-05	1029.8	1.223e-06	1.0875e-06	1161.2	226.06	1.154e-06	1.1072e-06	281.59	83.155	61.432	18.073	1.1336e-06	26.479	291.575	239.589	272.395	155.523	308.983	294.471	155.586	162.766	298.468	308.322	162.698	169.368	169.855	176.510	311.725	175.776	-8191	255	
936.519	1	1	0	0	0.044252	0.16718	0.058673	0.11458	0.11895	0.088201	0.23848	0.22198	0.065581	0.078978	0.13641	0.15244	0.10207	0.10803	0.11819	0.14626	-4.1937	-3.7646	-4.1375	-4.55	-3.5458	-4.5	-4.3229	-3.8417	-4.7125	-3.7542	-4.2354	-4.45	-3.7854	-4.4396	-4.3042	-3.7521	287.227	377.083	381.562	371.114	484.407	196.616	148.952	478.694	166.268	499.521	456.054	252.353	292.095	463.653	394.052	312.017	0.00040629	0.00045399	3.9079e-05	1046.6	3.5106e-06	2.5247e-06	1182.8	228.89	2.2655e-06	3.5439e-06	282.57	83.855	62.03	17.82	4.0693e-06	26.236	0.00013727	0.00010084	2.7481e-05	1031.7	1.182e-06	1.0372e-06	1163.5	226.81	1.1652e-06	1.0757e-06	281.39	83.102	61.345	18.081	1.1176e-06	26.514	290.468	227.893	217.557	155.611	285.527	265.495	155.634	163.034	322.695	295.664	162.624	169.529	170.045	176.761	288.073	175.885	-8191	255	
936.640	1	1	0	0	0.077905	0.08802	0.32423	0.29325	0.14915	0.17445	0.073578	0.13072	0.13836	0.1089	0.041553	0.17071	0.23304	0.27669	0.046037	0.022572	-4.1896	-3.7479	-4.1333	-4.4021	-3.6083	-4.3208	-4.375	-3.7188	-4.5979	-3.6937	-3.9979	-4.4375	-3.7542	-4.2937	-4.2271	-3.625	194.162	263.838	260.816	397.620	251.774	283.715	401.473	411.473	441.474	191.825	381.897	229.468	467.325	188.636	493.381	479.983	0.00040959	0.00040363	0.00012114	1045	3.6006e-06	1.665e-06	1181.4	227.49	3.1055e-06	1.97e-06	283.97	83.793	62.297	17.987	4.0253e-06	26.125	0.00013974	0.00010232	2.7944e-05	1030.9	1.2177e-06	1.0531e-06	1164.5	226.12	1.1725e-06	1.0648e-06	281.76	83.229	61.582	18.125	1.0892e-06	26.451	290.523	225.083	245.332	155.405	323.743	317.254	155.470	162.979	332.513	288.366	162.636	169.440	170.152	176.676	295.096	175.717	-8191	255	
936.734	1	1	0	0	0.026888	0.050311	0.25425	0.083661	0.065664	0.14262	0.12485	0.081613	0.055807	0.024393	0.065227	0.1437	0.20571	0.10032	0.137	0.15091	-4.2958	-3.7083	-3.8667	-4.4458	-3.7042	-4.2021	-4.6562	-3.6646	-4.5583	-3.9688	-3.7771	-4.7812	-3.6854	-4.1937	-4.3396	-3.6312	489.316	204.641	390.382	486.252	459.163	383.175	471.191	355.101	428.367	164.680	159.826	187.625	204.529	309.664	450.688	501.914	0.00043841	0.00015229	5.7001e-05	1042.5	5.7982e-06	3.6154e-06	1175	228.53	4.3811e-06	1.8804e-06	283.54	84.04	61.785	17.88	3.3933e-06	26.268	0.00013932	9.4958e-05	2.4237e-05	1029.8	1.1434e-06	1.0057e-06	1162.6	226.16	1.0817e-06	1.0026e-06	281.97	83.308	61.416	18.123	1.0395e-06	26.501	289.586	287.396	251.958	155.617	299.872	300.823	155.548	163.059	313.635	306.990	162.982	169.524	170.003	176.829	329.504	175.839	-8191	255	
936.830	1	1	0	0	0.1723	0.20316	0.24882	0.31415	0.21332	0.18433	0.095398	0.024378	0.074199	0.089281	0.11475	0.14829	0.16279	0.077889	0.15786	0.30438	-4.2417	-3.9562	-3.6688	-4.5479	-3.8042	-3.9792	-4.5188	-3.6979	-4.575	-4.0854	-3.7979	-4.5667	-3.6667	-3.9396	-4.475	-3.4854	488.607	483.972	164.737	476.189	344.408	199.863	495.911	296.567	212.944	379.401	235.531	146.929	499.788	217.527	245.701	463.689	0.00040929	0.00030368	6.331e-05	1042.3	4.7016e-06	2.1272e-06	1181.5	227.93	3.5216e-06	2.8929e-06	284.22	83.335	62.014	17.935	2.7443e-06	26.213	0.00013266	9.1466e-05	2.7095e-05	1030.4	1.1077e-06	1.0379e-06	1163.2	225.99	1.097e-06	1.0099e-06	281.68	83.034	61.445	18.172	9.9934e-07	26.606	291.191	243.181	230.258	155.996	296.217	238.641	155.715	163.129	326.181	314.106	163.228	169.536	170.402	176.601	296.898	176.137	-8191	255	
936.926	1	1	0	0	0.03547	0.15421	0.25453	0.19387	0.21421	0.2586	0.14659	0.17235	0.14039	0.17099	0.10613	0.10752	0.13592	0.13277	0.23012	0.061088	-4.0604	-4.1229	-3.5729	-4.8729	-3.6583	-3.9625	-4.5479	-3.7188	-4.3479	-4.4062	-3.7229	-4.5312	-4	-3.95	-4.4625	-3.6042	306.725	253.083	316.368	489.176	167.709	359.735	166.367	370.702	196.986	214.048	160.927	465.211	247.856	317.247	287.803	395.320	0.00040046	0.00045234	8.2342e-05	1043	2.7051e-06	2.0706e-06	1180.6	227.6	2.8274e-06	2.4574e-06	284.43	84.067	62.094	18.055	2.923e-06	26.409	0.00013617	9.5121e-05	2.6662e-05	1031.7	1.0747e-06	9.7119e-07	1165.2	226.08	1.066e-06	9.8361e-07	281.67	83.265	61.419	18.238	9.7204e-07	26.662	289.086	224.356	242.001	156.041	287.203	306.107	155.811	163.239	316.083	321.430	163.318	169.679	170.465	176.719	326.248	176.215	-8191	255	
937.022	1	1	0	0	0.21058	0.19502	0.23318	0.15511	0.039962	0.15984	0.31089	0.014475	0.18021	0.13799	0.23397	0.11914	0.1328	0.12106	0.048327	0.040735	-3.7583	-4.4	-3.5667	-4.7167	-3.9104	-3.8396	-4.6917	-3.7021	-3.9437	-4.275	-3.6792	-4.525	-4.0604	-3.6792	-4.5375	-3.6792	332.241	391.859	166.747	442.633	374.171	194.819	458.278	169.219	280.486	376.356	434.560	321.965	455.114	155.206	179.774	419.742	0.00038119	0.00022438	5.8187e-05	1045	4.1875e-06	2.4911e-06	1185.7	228.19	3.8934e-06	2.9089e-06	283.61	84.131	62.044	18.073	3.4836e-06	26.45	0.00013243	9.2303e-05	2.6349e-05	1030.6	1.1141e-06	1.0849e-06	1165.5	226.3	1.1205e-06	1.0009e-06	281.52	83.565	61.676	18.326	1.0145e-06	26.722	290.733	251.732	265.921	156.108	282.909	322.553	155.905	163.234	325.067	323.857	163.516	170.063	170.396	176.797	319.425	176.121	-8191	255	
937.119	1	1	0	0	0.077882	0.098126	0.17678	0.19568	0.024334	0.16594	0.2992	0.25515	0.1754	0.085165	0.10639	0.30298	0.11024	0.079304	0.097622	0.1117	-3.8771	-4.1792	-3.4479	-4.4625	-4.0208	-3.6417	-4.725	-3.7583	-4.0604	-4.6146	-3.6083	-4.4771	-4.2604	-3.6917	-4.3729	-3.8104	478.136	491.227	255.432	162.213	196.881	264.236	461.788	501.961	234.155	399.108	475.424	489.717	406.273	375.385	362.256	427.082	0.00041636	0.00042857	9.6767e-05	1042.4	5.7626e-06	2.4714e-06	1182.6	229.57	4.7259e-06	2.1233e-06	283.66	84.6	62.446	18.097	3.0451e-06	26.258	0.00013225	8.806e-05	2.6802e-05	1030.7	1.0439e-06	9.8894e-07	1166.6	226.76	1.1115e-06	9.411e-07	281.78	83.566	61.918	18.402	1.0008e-06	26.755	291.807	232.682	264.651	156.627	307.019	312.385	156.118	163.637	319.143	309.862	163.299	170.190	170.385	177.128	328.015	176.597	-8191	255	
937.239	1	1	0	0	0.16731	0.12536	0.17938	0.26254	0.04472	0.19782	0.015457	0.2762	0.086486	0.1595	0.059847	0.18036	0.12451	0.079146	0.13569	0.070859	-3.6479	-4.3479	-3.55	-4.4625	-4.1104	-3.5042	-4.7396	-3.9313	-3.9437	-4.5167	-3.6417	-4.3833	-4.3313	-3.6833	-4.4458	-3.8563	156.639	435.398	191.151	171.496	425.154	464.329	177.184	416.165	383.013	317.939	392.631	146.168	405.706	390.209	357.222	480.064	0.00040911	0.00028761	8.5495e-05	1047.4	3.8982e-06	2.825e-06	1181	229.39	3.9438e-06	2.7378e-06	283.68	84.869	62.143	18.245	6.2913e-06	26.658	0.00013594	9.1836e-05	2.8254e-05	1033.6	1.1034e-06	1.0761e-06	1167.6	227.48	1.1559e-06	9.4987e-07	281.97	84.083	61.977	18.554	1.0728e-06	26.955	289.757	232.397	212.034	156.654	302.459	302.338	156.478	163.687	316.418	318.050	163.342	169.926	170.548	176.709	313.792	176.328	-8191	255	
937.335	1	1	0	0	0.0085235	0.075537	0.10404	0.12043	0.18626	0.15325	0.052328	0.36311	0.069188	0.099608	0.21724	0.065644	0.19084	0.28918	0.13361	0.10071	-3.4188	-4.5125	-3.6771	-4.4229	-4.275	-3.6104	-4.6375	-4.1375	-3.7854	-4.5604	-3.7687	-4.0646	-4.3396	-3.8729	-4.4833	-3.9271	447.614	468.452	280.892	352.252	185.828	368.125	196.823	460.991	216.187	220.901	500.285	156.137	371.207	311.844	351.025	268.480	0.0003923	0.00039941	8.4633e-05	1049.3	5.9822e-06	2.6345e-06	1187.7	229.53	5.1241e-06	2.7377e-06	284.5	85.194	62.493	18.312	3.4136e-06	26.584	0.00013484	9.0922e-05	2.5844e-05	1034.2	1.0432e-06	9.5703e-07	1171	227.29	1.0869e-06	9.333e-07	282.78	84.297	62.067	18.602	9.9578e-07	26.957	287.657	234.446	244.342	156.443	331.803	310.562	155.914	163.380	328.789	316.281	163.101	170.379	170.369	176.355	327.623	176.018	-8191	255	
937.407	1	1	0	0	0.094593	0.070706	0.10641	0.40105	0.12273	0.17232	0.26553	0.28977	0.11996	0.13185	0.15932	0.097728	0.17928	0.18018	0.031368	0.22996	-3.2875	-4.5271	-3.7062	-4.2333	-4.4542	-3.6521	-4.4313	-4.3104	-3.6208	-4.7042	-3.7938	-4.0417	-4.5188	-3.6229	-4.2667	-4.0729	152.661	367.790	459.547	175.492	450.021	314.901	291.481	411.283	360.802	416.901	466.999	440.003	477.164	398.874	483.416	497.891	0.00040697	0.00033941	0.00010247	1047	4.6738e-06	4.6366e-06	1183.3	228.73	3.6834e-06	4.3287e-06	283.56	84.179	62.598	18.337	3.1142e-06	26.478	0.00013352	8.6037e-05	2.389e-05	1032.8	9.7112e-07	9.2369e-07	1167.9	226.58	1.0075e-06	8.3134e-07	281.58	83.682	61.909	18.515	9.3964e-07	26.835	292.152	251.493	234.961	156.544	302.416	277.151	156.225	163.500	297.538	286.458	163.735	169.875	170.578	177.086	298.230	176.325	-8191	255	
937.503	1	1	0	0	0.067651	0.12519	0.13757	0.13708	0.084807	0.11445	0.24036	0.20203	0.027063	0.16283	0.22702	0.063463	0.16547	0.19971	0.099629	0.35915	-3.2729	-4.4	-3.8688	-4.0062	-4.4875	-3.5458	-4.4896	-4.3854	-3.4583	-4.6271	-4.0729	-3.7042	-4.675	-3.6354	-4.3208	-4.2812	152.310	301.440	263.663	370.221	459.636	415.136	433.621	424.370	180.479	272.118	431.238	243.762	475.837	428.387	320.346	182.479	0.00040909	0.00026187	0.00010555	1044.9	5.2654e-06	2.5513e-06	1179.4	227.99	2.4423e-06	3.1243e-06	281.23	84.525	62.199	18.333	3.894e-06	26.379	0.00012519	7.7366e-05	2.2785e-05	1030.8	9.5122e-07	9.0138e-07	1163.1	225.86	1.0033e-06	8.5128e-07	281.06	83.893	61.812	18.507	8.8279e-07	26.834	293.253	235.174	257.875	156.517	300.781	246.309	156.421	163.401	337.460	318.970	163.331	170.205	170.773	176.971	309.001	176.241	-8191	255	
937.622	1	1	0	0	0.062291	0.20498	0.12667	0.2778	0.15906	0.063719	0.14702	0.35327	0.17753	0.083243	0.12839	0.11227	0.14757	0.23004	0.15627	0.32587	-3.1854	-4.6354	-3.9188	-4.0083	-4.5292	-3.6958	-4.2562	-4.5583	-3.3063	-4.4375	-4.1271	-3.7417	-4.5396	-3.6479	-4.1292	-4.4729	478.593	191.020	368.221	440.655	495.726	474.016	438.906	416.434	225.050	471.367	293.806	416.501	416.266	208.460	152.756	493.040	0.00041689	0.0003514	5.7692e-05	1044.9	2.9579e-06	2.9765e-06	1173.2	226.69	2.8576e-06	2.336e-06	280.35	83.858	62.363	18.059	3.1972e-06	26.264	0.00012812	7.3786e-05	2.0965e-05	1028	8.5039e-07	7.758e-07	1156.8	224.56	8.9328e-07	7.2159e-07	278.91	83.302	61.265	18.252	7.4357e-07	26.601	292.278	208.669	256.712	156.536	276.794	313.793	156.308	163.505	319.419	325.315	163.535	170.393	170.683	177.248	316.050	176.536	-8191	255	
937.718	1	1	0	0	0.079287	0.19178	0.23924	0.087861	0.20279	0.22148	0.14133	0.13016	0.19003	0.21234	0.24008	0.1301	0.25403	0.055098	0.17739	0.29484	-3.1604	-4.3708	-4.1354	-3.6104	-4.5583	-3.725	-4.0188	-4.6021	-3.5875	-4.3875	-4.275	-3.6542	-4.375	-3.8208	-3.9437	-4.5354	190.174	205.570	204.823	217.169	355.067	382.247	492.158	424.622	441.520	161.265	488.950	195.397	199.397	292.790	333.027	494.791	0.00042018	0.00034982	0.00011705	1033.5	3.8717e-06	2.1928e-06	1167.2	225.81	4.4901e-06	3.9192e-06	280.6	84.039	61.782	18.052	3.548e-06	26.445	0.00011818	6.6573e-05	1.9485e-05	1018.3	7.7192e-07	7.5745e-07	1151	222.93	9.0315e-07	7.9088e-07	278.38	83.048	61.237	18.328	8.0766e-07	26.705	289.716	231.025	259.687	156.445	290.189	303.596	156.630	163.772	309.112	309.115	163.649	170.718	170.439	177.002	309.086	176.413	-8191	255	
937.814	1	1	0	0	0.21437	0.060373	0.15017	0.24846	0.073571	0.12754	0.10381	0.024933	0.23304	0.20768	0.153	0.11137	0.16675	0.12063	0.20903	0.087729	-3.1896	-4.2625	-4.1687	-3.7521	-4.5417	-3.975	-4.075	-4.6125	-3.6562	-4.1312	-4.2854	-3.6083	-4.4229	-4.0604	-3.6188	-4.5604	455.620	286.597	232.126	454.509	187.261	191.434	149.865	467.933	282.514	191.301	454.630	492.438	489.651	258.579	177.085	453.243	0.00040475	0.00030284	0.00012477	1034.2	5.6831e-06	2.7888e-06	1168.4	226.35	1.9333e-06	2.0848e-06	279.53	83.952	61.527	18.088	3.502e-06	26.376	0.00011979	6.9271e-05	1.8588e-05	1017.5	8.4317e-07	7.4269e-07	1149.9	223.92	8.9119e-07	7.5773e-07	278.22	83.069	61.269	18.401	8.6665e-07	26.783	289.151	230.886	245.929	156.545	308.744	315.524	156.475	163.848	312.805	298.391	163.712	170.206	171.061	177.202	312.497	176.536	-8191	255	
937.912	1	1	0	0	0.077366	0.049261	0.10299	0.30119	0.2205	0.11954	0.24047	0.24779	0.14894	0.10609	0.13879	0.20952	0.16498	0.25527	0.23751	0.088526	-3.275	-3.9417	-4.2208	-3.6437	-4.5437	-4.0792	-3.8958	-4.675	-3.6208	-3.95	-4.5271	-3.6125	-4.2875	-4.3396	-3.6104	-4.4437	456.409	351.922	289.986	474.124	443.805	421.304	311.685	188.805	364.619	237.463	490.615	215.928	428.201	438.588	325.298	209.765	0.0004116	0.00044674	0.00012872	1028.8	3.7818e-06	1.9952e-06	1164.9	226.7	3.6417e-06	2.954e-06	281.99	83.988	62.222	18.378	4.9465e-06	26.583	0.00012248	7.9106e-05	2.1086e-05	1017.3	9.0639e-07	8.5256e-07	1152.2	224.01	9.8986e-07	8.6064e-07	279.37	83.32	61.57	18.554	9.4546e-07	26.917	289.087	224.703	245.588	156.700	322.751	267.173	156.629	163.963	323.968	294.894	163.670	170.257	170.839	176.760	304.378	176.460	-8191	255	
938.007	1	1	0	0	0.044756	0.16632	0.20766	0.26325	0.17581	0.016107	0.32059	0.15027	0.19506	0.24788	0.10203	0.26179	0.11014	0.20331	0.13181	0.11112	-3.4417	-3.9521	-4.5	-3.7354	-4.4208	-4.2083	-3.6833	-4.5771	-3.6708	-3.9271	-4.6354	-3.5667	-4.3333	-4.3021	-3.6167	-4.6	195.633	502.484	171.307	472.088	166.446	398.562	467.217	499.691	379.758	375.236	177.670	148.377	371.174	452.442	452.277	505.221	0.00039824	0.00025209	9.0265e-05	1037.4	3e-06	1.4072e-06	1173	226.14	4.5018e-06	2.7518e-06	281.54	84.042	62.096	18.215	3.4419e-06	26.394	0.00012777	8.4002e-05	2.193e-05	1021.3	9.4016e-07	8.3145e-07	1156	224.63	9.3472e-07	8.538e-07	279.64	83.687	61.46	18.485	9.0546e-07	26.803	289.774	255.648	217.787	156.710	323.659	297.232	156.744	163.962	323.996	321.598	163.948	170.295	170.768	177.146	305.060	176.425	-8191	255	
938.103	1	1	0	0	0.26519	0.12323	0.13579	0.031667	0.15098	0.1209	0.42411	0.2101	0.095484	0.11503	0.1044	0.1377	0.050488	0.19372	0.16089	0.12776	-3.5104	-3.7438	-4.5792	-3.7729	-4.3479	-4.5563	-3.6646	-4.6458	-3.9688	-3.6521	-4.7021	-3.6458	-4.0708	-4.4396	-3.425	-4.5208	357.530	240.008	165.419	151.515	352.735	416.560	413.173	172.410	213.302	336.834	387.827	421.924	353.048	174.577	238.976	280.158	0.00042328	0.00026115	0.00012655	1035.6	5.9547e-06	2.5974e-06	1174.1	226.23	3.6766e-06	2.7151e-06	281.28	84.051	62.541	18.19	4.7465e-06	26.622	0.0001258	7.3405e-05	2.0173e-05	1020.7	9.4155e-07	8.2102e-07	1153.1	223.98	9.5527e-07	8.7133e-07	278.44	83.387	61.526	18.481	9.3406e-07	26.903	290.031	214.271	232.831	156.753	293.216	312.915	156.782	164.288	321.111	307.963	164.042	170.448	171.487	176.941	311.653	176.821	-8191	255	
938.199	1	1	0	0	0.18033	0.11429	0.064147	0.26107	0.1738	0.059915	0.19517	0.074281	0.26023	0.066301	0.039319	0.17362	0.21342	0.13284	0.26691	0.070767	-3.5563	-3.6188	-4.5521	-3.7938	-4.1104	-4.3646	-3.7479	-4.4625	-3.9417	-3.5917	-4.7875	-3.7479	-3.8042	-4.5125	-3.5625	-4.4979	419.192	446.354	183.460	208.043	417.986	329.959	175.421	277.328	394.327	474.075	206.873	323.346	147.189	346.635	172.561	436.590	0.00041898	0.00028961	0.00010957	1030	5.691e-06	3.2135e-06	1175.2	226.1	3.1614e-06	2.6438e-06	280.68	84.299	62.293	18.212	4.2663e-06	26.675	0.00012632	8.0727e-05	2.1366e-05	1017.8	9.4691e-07	7.8479e-07	1154.2	224.53	9.1429e-07	8.4731e-07	278.86	83.44	61.409	18.45	8.7626e-07	26.85	288.732	214.731	247.318	156.881	267.497	283.988	156.745	164.436	299.619	321.134	164.076	170.981	171.070	177.205	315.555	176.922	-8191	255	
938.320	1	1	0	0	0.31948	0.14474	0.13173	0.09684	0.069523	0.10801	0.25554	0.16969	0.073883	0.17324	0.3141	0.15685	0.20714	0.13402	0.1017	0.2303	-4.0167	-3.5083	-4.3938	-3.9083	-3.9458	-4.5792	-3.7604	-4.4583	-4.2604	-3.7354	-4.5667	-3.95	-3.9437	-4.5521	-3.6896	-4.3875	297.863	287.549	262.168	426.641	162.858	295.693	418.273	410.716	200.519	260.414	190.802	449.710	359.719	374.522	321.925	500.685	0.00038624	0.00032459	6.6142e-05	1033.3	3.1774e-06	1.1544e-06	1168.1	225.62	3.7365e-06	3.9944e-06	281.87	84.29	61.92	18.184	4.3912e-06	26.574	0.00011562	7.0294e-05	1.9333e-05	1019.1	8.3851e-07	6.8368e-07	1151.9	223.75	8.6043e-07	8.0661e-07	279.42	83.437	61.364	18.389	9.2409e-07	26.855	288.679	248.341	259.078	157.324	294.419	310.955	156.772	164.344	306.408	318.120	164.083	170.451	171.520	177.119	305.484	177.359	-8191	255	
938.416	1	1	0	0	0.12735	0.070032	0.10681	0.13965	0.17939	0.18118	0.23088	0.10767	0.13563	0.19281	0.084585	0.28371	0.054855	0.14096	0.20507	0.0076415	-4.1188	-3.5646	-4.4708	-4.0729	-3.7896	-4.4125	-3.8146	-4.3458	-4.45	-3.5104	-4.6479	-3.9062	-3.7229	-4.4896	-3.7188	-3.9792	340.466	454.361	242.101	447.778	294.821	340.478	385.618	306.133	447.174	219.638	154.708	177.313	412.597	362.410	344.207	221.829	0.00042925	0.00029572	9.4997e-05	1037.1	4.4381e-06	3.8593e-06	1172	226.51	4.218e-06	3.4266e-06	281.83	84.058	61.986	18.279	2.7165e-06	26.465	0.00012142	7.655e-05	2.0587e-05	1021.2	9.5739e-07	8.2569e-07	1153.7	224.36	8.9038e-07	8.7049e-07	279.83	83.399	61.498	18.516	9.4225e-07	26.785	288.855	233.664	245.881	157.006	289.636	299.409	156.928	164.480	318.320	312.649	163.932	170.546	171.392	177.193	289.898	177.054	-8191	255	
938.512	1	1	0	0	0.070872	0.042574	0.095056	0.20346	0.20531	0.16267	0.064145	0.087458	0.17736	0.17257	0.15079	0.16227	0.17852	0.13878	0.30254	0.13573	-4.0604	-3.4875	-4.4042	-4.2854	-3.8333	-4.5604	-4.0208	-4.1729	-4.3854	-3.7479	-4.3396	-4.0354	-3.6937	-4.5271	-3.7771	-3.8542	213.033	277.450	284.047	451.874	353.994	420.991	416.589	421.247	219.910	181.319	445.878	214.050	426.371	437.871	245.346	283.294	0.00040691	0.00035454	9.77e-05	1033.6	5.1201e-06	2.5323e-06	1172.1	226.46	4.5573e-06	3.4812e-06	281.04	83.821	62.204	18.255	3.9702e-06	26.588	0.00012073	8.4383e-05	2.1884e-05	1019.6	9.4993e-07	8.4369e-07	1154.7	224.9	9.1963e-07	8.5968e-07	279.15	83.422	61.563	18.456	8.924e-07	26.817	288.759	241.861	264.595	156.775	283.187	297.535	156.885	164.321	313.209	332.939	164.191	170.783	171.144	177.168	299.640	177.139	-8191	255	
938.633	1	1	0	0	0.01284	0.17746	0.074243	0.38879	0.20694	0.22821	0.23613	0.066481	0.094969	0.10847	0.16295	0.17169	0.31325	0.087344	0.11609	0.19989	-4.1813	-3.5604	-4.0021	-4.4708	-3.6188	-4.5792	-3.9667	-3.9771	-4.5375	-3.4917	-4.3354	-4.2979	-3.8542	-4.6271	-4.125	-3.7521	236.456	292.004	467.291	488.839	353.932	317.311	485.142	326.569	380.538	303.410	489.469	407.582	187.596	224.996	442.549	332.297	0.00042131	0.00039557	7.9171e-05	1035.1	3.8104e-06	3.6915e-06	1170.8	225.92	4.0338e-06	2.1602e-06	281.17	84.074	61.981	18.185	3.8582e-06	26.291	0.00011868	7.5342e-05	2.0441e-05	1019.7	9.2921e-07	7.68e-07	1152.5	223.66	8.7947e-07	8.0456e-07	278.86	83.431	61.264	18.326	7.5876e-07	26.646	288.773	238.386	246.146	157.122	290.839	288.223	156.788	164.277	320.784	316.246	164.239	170.650	171.486	177.790	305.490	177.065	-8191	255	
938.704	1	1	0	0	0.035787	0.21297	0.11512	0.1549	0.17823	0.049493	0.1928	0.13579	0.18274	0.17	0.23243	0.10996	0.18177	0.16822	0.12337	0.19362	-4.2604	-3.7021	-4.2271	-4.525	-3.5833	-4.5188	-4.2458	-3.7979	-4.5125	-3.7083	-4.1625	-4.6354	-3.6562	-4.4958	-4.2583	-3.6917	292.970	270.611	457.360	465.913	219.601	250.169	190.309	454.379	270.839	250.292	446.093	428.921	396.768	198.896	315.240	368.629	0.00036586	0.00011898	8.6045e-05	1035.4	5.7493e-06	1.3078e-06	1168	225.78	4.1504e-06	3.1974e-06	279.56	83.911	61.907	18.092	3.5684e-06	26.371	0.0001123	6.8803e-05	2.0484e-05	1019	8.8741e-07	6.94e-07	1149.5	223.49	8.3826e-07	7.426e-07	277.99	83.1	61.33	18.341	8.0541e-07	26.73	287.590	224.085	227.808	156.786	307.268	287.224	156.930	164.578	328.732	294.425	164.357	170.975	171.288	177.562	327.953	176.900	-8191	255	
#DATA ENDS
