BOXY.EXE: ISS Imagent and Oximeter Data Acquisition Program Version 0.80
Ascii Record File

#ACQ INFORMATION
2  Detector Channels 
16  External MUX Channels 
1  Auxiliary Channels 
5000  Waveform (CCF) Frequency (Hz)
1  Waveforms Skipped 
30  Waveforms Averaged 
1  Cycles Averaged 
16  Acquisitions per Waveform 
10.0806  Updata Rate (Hz) 

#FILE INFORMATION
TRUE -- External MUX Channel results are PARSED.
FALSE -- AC DC and Phase are NOT grouped.
TRUE -- Companion Program Settings File CREATED.
FALSE -- AC data not excluded
FALSE -- DC data not excluded
FALSE -- Phase data not excluded
FALSE -- Auxillary Chn. data not excluded
Tab delimiters

#CALIBRATION STATE
TRUE -- Waveform Calibration Values APPLIED.


#AUX CALIBRATION VALUES
Val Type	aux-1	

Term	1.0000e+00	
Factor	0.0000e+00	


#WF CALIBRATION VALUES
A = Detector Channel
Val Type	A-AC1	A-AC2	A-AC3	A-AC4	A-AC5	A-AC6	A-AC7	A-AC8	A-AC9	A-AC10	A-AC11	A-AC12	A-AC13	A-AC14	A-AC15	A-AC16	A-DC1	A-DC2	A-DC3	A-DC4	A-DC5	A-DC6	A-DC7	A-DC8	A-DC9	A-DC10	A-DC11	A-DC12	A-DC13	A-DC14	A-DC15	A-DC16	A-Ph1	A-Ph2	A-Ph3	A-Ph4	A-Ph5	A-Ph6	A-Ph7	A-Ph8	A-Ph9	A-Ph10	A-Ph11	A-Ph12	A-Ph13	A-Ph14	A-Ph15	A-Ph16	

Term	0.00000e+00	0.00000e+00	0.00000e+00	0.00000e+00	0.00000e+00	0.00000e+00	0.00000e+00	0.00000e+00	0.00000e+00	0.00000e+00	0.00000e+00	0.00000e+00	0.00000e+00	0.00000e+00	0.00000e+00	0.00000e+00	0.00000e+00	0.00000e+00	0.00000e+00	0.00000e+00	0.00000e+00	0.00000e+00	0.00000e+00	0.00000e+00	0.00000e+00	0.00000e+00	0.00000e+00	0.00000e+00	0.00000e+00	0.00000e+00	0.00000e+00	0.00000e+00	0.00000e+00	0.00000e+00	0.00000e+00	0.00000e+00	0.00000e+00	0.00000e+00	0.00000e+00	0.00000e+00	0.00000e+00	0.00000e+00	0.00000e+00	0.00000e+00	0.00000e+00	0.00000e+00	0.00000e+00	0.00000e+00	
Factor	1.00000e+00	1.00000e+00	1.00000e+00	1.00000e+00	1.00000e+00	1.00000e+00	1.00000e+00	1.00000e+00	1.00000e+00	1.00000e+00	1.00000e+00	1.00000e+00	1.00000e+00	1.00000e+00	1.00000e+00	1.00000e+00	1.00000e+00	1.00000e+00	1.00000e+00	1.00000e+00	1.00000e+00	1.00000e+00	1.00000e+00	1.00000e+00	1.00000e+00	1.00000e+00	1.00000e+00	1.00000e+00	1.00000e+00	1.00000e+00	1.00000e+00	1.00000e+00	X	X	X	X	X	X	X	X	X	X	X	X	X	X	X	X	

B = Detector Channel
Val Type	B-AC1	B-AC2	B-AC3	B-AC4	B-AC5	B-AC6	B-AC7	B-AC8	B-AC9	B-AC10	B-AC11	B-AC12	B-AC13	B-AC14	B-AC15	B-AC16	B-DC1	B-DC2	B-DC3	B-DC4	B-DC5	B-DC6	B-DC7	B-DC8	B-DC9	B-DC10	B-DC11	B-DC12	B-DC13	B-DC14	B-DC15	B-DC16	B-Ph1	B-Ph2	B-Ph3	B-Ph4	B-Ph5	B-Ph6	B-Ph7	B-Ph8	B-Ph9	B-Ph10	B-Ph11	B-Ph12	B-Ph13	B-Ph14	B-Ph15	B-Ph16	

Term	0.00000e+00	0.00000e+00	0.00000e+00	0.00000e+00	0.00000e+00	0.00000e+00	0.00000e+00	0.00000e+00	0.00000e+00	0.00000e+00	0.00000e+00	0.00000e+00	0.00000e+00	0.00000e+00	0.00000e+00	0.00000e+00	0.00000e+00	0.00000e+00	0.00000e+00	0.00000e+00	0.00000e+00	0.00000e+00	0.00000e+00	0.00000e+00	0.00000e+00	0.00000e+00	0.00000e+00	0.00000e+00	0.00000e+00	0.00000e+00	0.00000e+00	0.00000e+00	-7.31199e+01	-1.32799e+02	-1.26468e+02	-1.82714e+02	-5.26673e+01	-6.72776e+01	-1.58600e+02	-1.62015e+02	-4.81301e+01	-6.81745e+01	-1.74789e+02	-1.71091e+02	-1.81647e+02	-1.76664e+02	-5.28905e+01	-1.49745e+02	
Factor	1.45622e-05	1.40397e-04	4.03230e-05	1.48927e-01	1.29784e-06	1.50963e-06	1.69133e-01	4.23035e-02	9.54360e-07	1.51249e-06	7.52042e-02	2.43297e-02	1.97584e-02	7.93508e-03	1.28624e-06	1.14015e-02	1.42596e-05	3.90213e-05	1.10580e-05	7.54603e-02	3.58379e-07	4.54558e-07	8.02644e-02	2.15652e-02	3.46059e-07	4.54774e-07	3.70643e-02	1.20591e-02	1.01503e-02	4.07504e-03	3.89001e-07	5.66024e-03	X	X	X	X	X	X	X	X	X	X	X	X	X	X	X	X	



#DISTANCE SETTINGS
A = Detector Channel
A-1	A-2	A-3	A-4	A-5	A-6	A-7	A-8	A-9	A-10	A-11	A-12	A-13	A-14	A-15	A-16	

2.5000e+00	3.0000e+00	2.5000e+00	3.0000e+00	2.0000e+00	3.0000e+00	1.5000e+00	3.0000e+00	3.0000e+00	3.0000e+00	3.0000e+00	3.0000e+00	3.0000e+00	3.0000e+00	1.5000e+00	3.0000e+00	

B = Detector Channel
B-1	B-2	B-3	B-4	B-5	B-6	B-7	B-8	B-9	B-10	B-11	B-12	B-13	B-14	B-15	B-16	

1.0000e+01	1.0000e+01	1.0000e+01	1.4400e+00	1.0000e+01	1.0000e+01	1.5100e+00	1.9400e+00	1.0000e+01	1.0000e+01	1.9900e+00	2.4900e+00	2.4100e+00	2.9000e+00	1.0000e+01	2.9800e+00	




#DATA BEGINS
time	group	step	mark	flag	A-AC1	A-AC2	A-AC3	A-AC4	A-AC5	A-AC6	A-AC7	A-AC8	A-AC9	A-AC10	A-AC11	A-AC12	A-AC13	A-AC14	A-AC15	A-AC16	A-DC1	A-DC2	A-DC3	A-DC4	A-DC5	A-DC6	A-DC7	A-DC8	A-DC9	A-DC10	A-DC11	A-DC12	A-DC13	A-DC14	A-DC15	A-DC16	A-Ph1	A-Ph2	A-Ph3	A-Ph4	A-Ph5	A-Ph6	A-Ph7	A-Ph8	A-Ph9	A-Ph10	A-Ph11	A-Ph12	A-Ph13	A-Ph14	A-Ph15	A-Ph16	B-AC1	B-AC2	B-AC3	B-AC4	B-AC5	B-AC6	B-AC7	B-AC8	B-AC9	B-AC10	B-AC11	B-AC12	B-AC13	B-AC14	B-AC15	B-AC16	B-DC1	B-DC2	B-DC3	B-DC4	B-DC5	B-DC6	B-DC7	B-DC8	B-DC9	B-DC10	B-DC11	B-DC12	B-DC13	B-DC14	B-DC15	B-DC16	B-Ph1	B-Ph2	B-Ph3	B-Ph4	B-Ph5	B-Ph6	B-Ph7	B-Ph8	B-Ph9	B-Ph10	B-Ph11	B-Ph12	B-Ph13	B-Ph14	B-Ph15	B-Ph16	aux-1	digaux	

1900.631	1	1	0	256	0.078921	0.12522	0.16117	0.075918	0.24198	0.25185	0.13796	0.23446	0.079979	0.33897	0.15849	0.35574	0.26854	0.18854	0.081435	0.09815	-2.2208	-2.9208	-3.1437	-2.5938	-2.9854	-2.8312	-2.6771	-3.025	-2.6063	-2.7083	-2.9792	-2.5167	-2.875	-2.8875	-2.675	-2.9979	311.153	279.723	305.060	437.740	208.883	309.482	358.689	447.539	527.586	493.577	460.717	435.114	481.195	330.754	339.424	386.149	0.00012507	0.00020666	5.5388e-05	321.67	1.7453e-06	1.6551e-06	451.08	118.79	1.6738e-06	2.2981e-06	153.83	45.605	30.133	8.3311	1.7275e-06	14.892	0.00011143	4.65e-05	1.145e-05	313.68	4.9576e-07	2.036e-07	438.38	116.74	7.9738e-07	3.7329e-07	148.84	44.631	29.757	8.336	5.5514e-07	14.702	251.861	251.086	265.732	182.596	314.781	340.068	181.585	188.388	317.633	332.272	186.052	191.179	193.397	199.317	324.107	195.277	-8191	255	
1900.728	1	1	0	0	0.094672	0.15209	0.074587	0.15352	0.078174	0.14484	0.05063	0.11441	0.011951	0.24036	0.13958	0.26365	0.046965	0.054374	0.32452	0.23689	-2.4083	-2.8083	-3.0958	-2.6437	-2.9333	-2.9146	-2.5292	-3.0333	-2.7167	-2.6521	-3.1167	-2.7396	-2.8688	-2.8771	-2.5938	-3.1146	232.561	471.727	261.431	479.871	486.625	475.013	243.797	227.254	461.744	419.516	208.611	189.766	386.891	310.811	398.178	486.340	0.000141	0.00016756	5.1954e-05	319	1.551e-06	1.529e-06	442.12	117.35	1.0254e-06	1.6759e-06	152.04	45.261	30.079	8.4177	1.84e-06	14.818	0.00011369	4.3249e-05	9.0307e-06	310.47	5.2637e-07	2.358e-07	433.14	115.94	7.2456e-07	3.5529e-07	148.13	44.435	29.488	8.3291	6.3618e-07	14.711	254.837	261.634	278.156	182.617	325.316	327.043	181.721	188.272	342.278	310.858	185.383	191.048	193.194	199.533	342.685	195.933	-8191	255	
1900.846	1	1	0	0	0.27438	0.010837	0.12664	0.28175	0.2045	0.22842	0.074497	0.1808	0.18633	0.25823	0.17895	0.16786	0.14959	0.11519	0.28447	0.18557	-2.5542	-2.65	-3.1292	-2.7292	-2.8021	-3.1146	-2.6	-2.9833	-2.8542	-2.7104	-3.2458	-2.7167	-2.9188	-3.1604	-2.4167	-2.9417	443.798	289.429	429.842	415.272	414.233	338.871	412.855	457.437	235.020	298.023	387.532	173.160	195.878	285.795	373.696	420.943	0.00014393	0.00013331	6.8585e-05	316.7	1.6962e-06	2.0179e-06	438.9	116.37	1.26e-06	1.3516e-06	150.45	44.631	29.579	8.2902	1.6541e-06	14.858	0.00012094	4.1867e-05	1.1358e-05	307.1	6.0327e-07	3.4092e-07	428	114.83	6.6112e-07	3.6382e-07	146.77	43.948	29.284	8.2534	6.8886e-07	14.526	253.309	243.294	250.427	182.675	326.880	345.613	182.129	188.050	316.407	334.562	185.583	190.659	193.167	199.850	327.409	196.307	-8191	255	
1900.943	1	1	0	0	0.12266	0.19743	0.19774	0.1892	0.39671	0.19125	0.30835	0.075146	0.064135	0.12833	0.22982	0.27649	0.24293	0.18945	0.14503	0.11851	-2.3563	-2.6937	-3.15	-2.6437	-2.8833	-3.2771	-2.7375	-3.1021	-2.8187	-2.7438	-3.1021	-2.8854	-2.6979	-3.1375	-2.6146	-2.9833	351.426	400.148	509.371	462.967	437.995	190.059	459.334	295.886	366.942	322.663	493.715	482.825	284.774	433.140	189.633	393.342	0.00014751	0.00018563	4.6622e-05	309.44	1.5885e-06	1.2717e-06	431.13	116.05	1.6357e-06	2.0292e-06	147.24	44.052	29.396	8.1756	1.2552e-06	14.418	0.00011723	5.1784e-05	5.8976e-06	301.99	4.8082e-07	1.3069e-07	420.18	113.57	7.6998e-07	2.8518e-07	144.36	43.474	28.97	8.1166	4.8139e-07	14.286	254.240	246.051	266.247	182.575	335.192	328.313	182.118	188.331	308.524	326.829	185.730	190.784	193.036	199.846	313.202	195.758	-8191	255	
1901.039	1	1	0	0	0.39133	0.19379	0.1454	0.067114	0.064295	0.11337	0.14774	0.31823	0.21935	0.30855	0.047583	0.015051	0.17381	0.21208	0.093407	0.11203	-2.8125	-2.5333	-3.2333	-2.7417	-2.625	-3.1896	-2.8583	-2.9417	-3.1542	-2.5208	-3.125	-2.8333	-2.6125	-3.0687	-2.6875	-2.8229	499.164	273.119	400.337	356.122	281.266	513.287	491.601	243.117	249.734	415.524	201.224	316.668	412.900	409.190	228.889	478.643	0.00014343	0.0001774	6.4166e-05	305.48	1.8464e-06	2.1443e-06	426.96	114.87	1.2178e-06	1.2529e-06	148.04	44.072	29.375	8.1416	1.3096e-06	14.382	0.0001125	4.3167e-05	7.0264e-06	296.89	6.3463e-07	5.9661e-08	415.36	112.63	5.71e-07	2.3307e-07	144.12	43.235	28.884	8.0449	4.7815e-07	14.218	253.495	253.485	263.646	182.590	326.419	332.864	181.668	188.342	331.460	333.233	185.766	190.834	193.369	199.802	341.784	195.917	-8191	255	
1901.135	1	1	0	0	0.081746	0.062509	0.051499	0.053654	0.21504	0.17022	0.17537	0.021193	0.14796	0.055432	0.079227	0.054138	0.25995	0.10358	0.26314	0.17023	-2.7417	-2.7313	-2.9917	-2.8271	-2.8396	-3.0521	-2.6833	-2.9625	-3.1958	-2.7833	-3.0458	-2.6896	-2.6833	-3.0687	-2.8187	-2.8563	182.893	326.874	335.715	528.996	518.396	373.336	493.148	185.684	472.388	292.581	190.969	370.674	485.077	301.489	344.897	508.960	0.00012832	0.00013269	5.3417e-05	302.96	1.4703e-06	2.1562e-06	425.37	115	1.4565e-06	1.9514e-06	149.33	45.259	30.085	8.2109	1.7829e-06	14.692	9.9788e-05	4.0485e-05	8.0862e-06	295.07	5.3384e-07	1.1364e-07	415.41	113.3	6.294e-07	4.6425e-07	145.76	44.205	29.463	8.1243	5.2434e-07	14.433	257.673	263.560	255.633	182.637	330.199	331.260	181.612	188.265	320.323	333.287	185.505	190.856	193.474	199.350	320.741	195.210	-8191	255	
1901.231	1	1	0	0	0.24746	0.15335	0.32864	0.28058	0.054071	0.2091	0.11509	0.18822	0.10885	0.050438	0.10439	0.12873	0.2253	0.0081362	0.098548	0.073309	-2.7521	-2.4875	-2.925	-3.2083	-2.5625	-3.0521	-3.0229	-2.8854	-3.3312	-2.7021	-2.9062	-3.0708	-2.6458	-3.0875	-2.8583	-2.7833	206.299	239.883	320.167	403.684	390.538	269.794	191.601	221.930	394.635	508.766	397.778	447.957	284.703	281.100	388.758	174.046	0.00012534	0.00022401	5.6695e-05	314.01	1.9956e-06	1.4988e-06	441.93	119.25	1.6566e-06	1.8895e-06	153.46	46.359	30.82	8.2238	1.7688e-06	14.532	9.7114e-05	5.4223e-05	8.0862e-06	304.49	7.0556e-07	7.4813e-08	431.02	116.72	5.3351e-07	3.3729e-07	150.06	45.594	30.39	8.1873	5.7054e-07	14.327	258.866	253.938	251.032	182.671	332.503	320.214	182.198	188.217	326.491	318.290	185.859	190.811	192.898	199.060	329.646	195.669	-8191	255	
1901.327	1	1	0	0	0.24104	0.20614	0.12409	0.072836	0.089207	0.073389	0.13969	0.08157	0.039354	0.1839	0.26632	0.10165	0.13398	0.15407	0.16768	0.07319	-2.7271	-2.8146	-2.9167	-3.0542	-2.7938	-3.1146	-2.9125	-2.7438	-3.0979	-2.6917	-2.9396	-3.2062	-2.4813	-3.1104	-2.875	-2.6437	419.712	184.444	265.282	348.202	371.584	302.775	388.806	490.266	407.322	222.272	192.728	186.257	226.496	238.028	451.582	308.027	0.00014106	0.00011647	3.9767e-05	319.76	2.1921e-06	1.8206e-06	451.64	119.74	1.5409e-06	1.7263e-06	155.1	46.726	31.211	8.2353	1.5901e-06	14.491	0.00010962	3.7233e-05	9.7218e-06	310.41	7.1004e-07	2.8126e-07	437.37	117.68	5.9263e-07	3.7993e-07	151.48	45.914	30.745	8.1574	3.9305e-07	14.293	253.274	247.814	253.539	182.411	331.609	297.356	181.500	188.185	322.396	330.332	185.680	190.658	193.464	200.208	324.551	195.896	-8191	255	
1901.448	1	1	0	0	0.10873	0.31353	0.20916	0.16743	0.12814	0.10257	0.053873	0.21226	0.1368	0.30596	0.064691	0.19637	0.24967	0.38271	0.11476	0.15016	-2.8812	-2.8312	-2.8104	-3.1208	-2.6833	-3.2271	-2.9771	-2.4813	-3.3625	-2.8021	-2.875	-3.0875	-2.5792	-3.0021	-2.9354	-2.6417	172.814	466.502	255.136	497.566	237.732	412.919	328.816	504.644	240.501	494.320	262.953	522.298	248.259	202.091	317.127	280.559	0.00014059	0.0002	4.0631e-05	319.08	1.1545e-06	2.1015e-06	451.89	121.16	1.2978e-06	1.5663e-06	157.76	47.66	31.814	8.2814	1.7852e-06	14.716	0.00010772	4.4956e-05	7.1877e-06	311.25	6.197e-07	2.0076e-07	442.47	118.75	4.7583e-07	1.9044e-07	154.31	46.937	31.388	8.2356	4.7004e-07	14.559	250.235	256.059	272.853	182.508	358.463	325.133	182.176	188.486	316.211	310.245	185.939	191.020	193.338	199.319	327.417	195.992	-8191	255	
1901.544	1	1	0	0	0.163	0.22072	0.20719	0.08605	0.31829	0.12199	0.26538	0.15368	0.079996	0.27565	0.0723	0.10247	0.18384	0.074963	0.059389	0.12846	-2.875	-2.925	-2.8646	-3.1688	-2.7354	-3.0958	-3.0625	-2.7125	-3.0833	-2.8896	-2.7417	-3.2583	-2.6542	-2.9604	-3.2188	-2.7562	459.499	464.800	526.326	220.580	393.459	369.697	276.217	329.575	522.288	440.368	206.226	492.593	223.795	518.547	417.496	233.137	0.0001377	0.00025619	4.295e-05	328.16	1.5809e-06	1.7841e-06	467.2	124.37	2.0355e-06	2.0038e-06	162.26	49.818	33.032	8.4938	1.7379e-06	14.987	0.00011158	2.8616e-05	1.198e-05	319.17	5.7863e-07	1.5057e-07	455.73	121.95	7.6277e-07	2.8234e-07	159.48	48.653	32.378	8.4497	3.3146e-07	14.879	259.086	269.859	252.807	182.390	331.177	304.997	181.637	188.478	317.593	312.151	185.966	191.170	193.366	199.539	312.530	195.958	-8191	255	
1901.638	1	1	0	0	0.14853	0.097839	0.14677	0.22872	0.17884	0.24829	0.26397	0.19403	0.21701	0.11281	0.091159	0.067623	0.0877	0.14301	0.042825	0.11761	-2.5187	-2.7896	-2.7229	-3.1479	-2.7271	-2.9562	-2.9688	-2.6729	-3.0833	-2.9042	-2.6688	-3.0125	-2.7792	-2.6708	-3.1562	-2.725	200.849	323.629	387.862	233.474	441.312	251.817	460.451	195.512	448.019	207.526	351.591	389.802	403.906	439.208	233.723	302.878	0.00014218	0.00022298	3.4995e-05	336.49	1.8026e-06	1.6045e-06	473.98	126.47	1.8365e-06	2.3429e-06	164.99	49.09	32.628	8.4036	1.5251e-06	14.731	0.00010831	2.6908e-05	9.1459e-06	328.33	6.742e-07	2.197e-07	463.66	124.07	6.4526e-07	3.515e-07	160.24	48.221	32.232	8.3693	2.1233e-07	14.624	251.478	248.617	257.354	182.428	324.235	334.428	181.876	188.389	311.007	302.194	185.881	190.508	193.272	199.483	336.938	195.379	-8191	255	
1901.735	1	1	0	0	0.13443	0.017113	0.1994	0.016756	0.14373	0.058234	0.07163	0.18499	0.22906	0.1502	0.06794	0.026419	0.033758	0.066903	0.12871	0.24465	-2.7104	-3.0542	-2.375	-3.1292	-2.7438	-2.775	-3.1729	-2.8417	-2.8417	-2.9521	-2.7708	-3.1063	-2.7271	-2.7271	-3.1167	-2.8604	408.028	468.251	351.647	197.668	510.007	233.693	365.105	399.446	277.910	459.719	521.806	415.856	528.337	476.521	415.160	503.677	0.00013945	0.00017181	5.2813e-05	332.61	1.5604e-06	2.7665e-06	470.75	124.55	1.7431e-06	2.0096e-06	161.25	47.818	31.999	8.3964	1.9346e-06	14.724	0.0001161	2.7396e-05	1.1358e-05	323.36	6.5553e-07	5.0759e-07	456.15	121.97	6.8347e-07	3.2024e-07	157.09	46.941	31.39	8.3272	2.9499e-07	14.616	255.683	272.499	248.528	182.801	326.937	316.281	181.790	188.163	313.881	313.573	186.021	190.834	192.944	199.753	338.308	195.359	-8191	255	
1901.831	1	1	0	0	0.17167	0.16469	0.1638	0.039646	0.058328	0.22248	0.14533	0.22453	0.035595	0.21785	0.016569	0.092317	0.14291	0.23485	0.11168	0.14789	-2.5604	-3.0271	-2.6583	-3.1208	-2.7583	-2.6021	-3.0271	-2.5271	-2.8292	-3.0146	-2.6583	-2.8312	-2.8479	-2.7687	-3.1708	-2.6167	329.714	455.504	217.123	422.671	218.502	488.771	315.413	449.121	442.246	181.417	282.772	234.934	361.965	433.454	364.218	464.287	0.0001532	0.00019449	6.454e-05	328.89	1.5602e-06	1.2819e-06	466.08	122.29	1.4269e-06	1.1694e-06	159.05	46.953	31.289	8.4149	1.7577e-06	14.815	0.00011942	4.3249e-05	1.2325e-05	320.28	5.2114e-07	3.3618e-07	451.17	120.36	6.8347e-07	1.1938e-07	154.3	46.09	30.793	8.3773	2.6987e-07	14.712	253.021	269.322	257.937	182.937	323.456	329.147	182.233	188.394	330.072	310.134	185.838	191.210	193.655	199.394	316.360	195.516	-8191	255	
1901.927	1	1	0	0	0.060231	0.10412	0.1641	0.10137	0.14718	0.25533	0.13679	0.30047	0.19978	0.20448	0.26414	0.26017	0.26875	0.09202	0.16458	0.026474	-2.4229	-3.0208	-2.5917	-2.9562	-2.7083	-2.7417	-3.2208	-2.9021	-2.9417	-3.1312	-2.7646	-2.9875	-2.9771	-2.7188	-3.0375	-2.7167	453.439	287.062	199.902	305.093	394.661	284.255	500.999	246.843	499.463	222.896	210.990	223.777	470.691	430.640	481.960	521.894	0.00014634	0.00015188	4.6503e-05	327.82	1.7594e-06	1.7099e-06	457.04	121.1	1.6714e-06	2.5225e-06	157.02	46.582	31.243	8.4589	1.3567e-06	14.691	0.00011158	2.4226e-05	1.3224e-05	317.97	5.1069e-07	5.5305e-07	447.4	119.47	7.3538e-07	2.9655e-07	153.63	45.783	30.627	8.3774	3.3227e-07	14.548	252.764	253.720	266.572	182.904	328.358	333.024	181.984	188.104	314.167	312.767	185.690	190.701	193.428	198.961	319.982	195.269	-8191	255	
1902.023	1	1	0	0	0.32436	0.21218	0.25664	0.17497	0.094905	0.042947	0.13142	0.18577	0.1622	0.16034	0.0633	0.29661	0.20535	0.17048	0.12683	0.2701	-2.2729	-3.2208	-2.5708	-2.9771	-2.9854	-2.7188	-3.1083	-2.8812	-2.7354	-3.1542	-2.6375	-2.8875	-3.0354	-2.6312	-2.9854	-2.8979	271.000	257.619	243.671	450.614	327.649	436.465	310.779	498.440	351.564	335.575	525.656	411.007	487.239	183.592	232.908	481.427	0.00014111	0.00022928	4.3337e-05	324.15	1.5906e-06	1.1626e-06	453.07	121.12	1.4146e-06	1.1361e-06	154.8	45.64	30.501	8.2782	1.625e-06	14.62	0.00011036	1.6991e-05	1.0966e-05	316.38	3.4643e-07	2.9167e-07	442.77	118.41	7.4979e-07	1.0043e-07	151.72	45.009	30.15	8.2616	3.0958e-07	14.472	253.182	248.612	279.181	182.947	319.356	321.920	181.590	188.411	308.500	307.289	185.668	191.023	193.361	199.278	335.195	195.856	-8191	255	
1902.119	1	1	0	0	0.29951	0.17307	0.12433	0.30179	0.092881	0.04127	0.25414	0.19354	0.15878	0.19574	0.30298	0.073932	0.028573	0.11665	0.035813	0.21703	-2.2417	-2.8688	-2.6375	-2.8104	-3.0958	-2.5375	-3.0208	-3.05	-2.7333	-3.0792	-2.9062	-3.0083	-2.8896	-2.8125	-2.9938	-3.0938	406.104	271.645	245.358	521.432	468.720	259.848	525.437	509.765	501.012	373.257	213.258	310.888	455.556	504.216	383.279	208.155	0.00013794	0.00021174	3.7481e-05	317.97	2.0566e-06	2.3349e-06	448.27	119.16	1.4696e-06	2.3006e-06	153.89	45.334	30.32	8.3013	1.4519e-06	14.636	0.00011167	1.317e-05	8.2244e-06	311.07	4.5096e-07	3.8448e-07	436.71	117.26	5.8542e-07	2.6244e-07	150.14	44.669	29.89	8.2568	1.6938e-07	14.47	255.064	254.215	264.219	183.031	343.389	318.633	181.861	188.469	310.233	311.493	185.537	191.246	193.737	199.506	316.522	195.675	-8191	255	
1902.240	1	1	0	0	0.32675	0.3209	0.10271	0.27783	0.11157	0.18985	0.043505	0.28251	0.11676	0.12611	0.1956	0.031934	0.092058	0.06033	0.095532	0.053378	-2.1854	-2.9896	-2.5604	-2.6312	-3.25	-2.6167	-3.0438	-3.0417	-2.7313	-3.1833	-3.0229	-2.8125	-3.1854	-2.7208	-2.925	-2.9646	516.091	354.033	356.374	404.968	490.123	292.897	320.511	471.022	510.212	380.327	331.578	287.193	464.612	181.479	296.218	269.173	0.00015313	0.00018405	6.1335e-05	313.3	1.8354e-06	1.7765e-06	443.09	118.78	1.3591e-06	1.9331e-06	152.74	45.648	30.071	8.3043	1.826e-06	14.677	0.00011904	1.9836e-05	1.4122e-05	305.89	4.9128e-07	2.841e-07	431.19	116.35	7.9449e-07	1.0327e-07	149.2	44.832	29.776	8.2577	4.5059e-07	14.49	252.085	246.019	273.418	182.840	323.083	303.992	182.001	188.421	320.575	337.069	185.408	191.410	193.203	200.041	330.020	195.898	-8191	255	
1902.336	1	1	0	0	0.12595	0.14507	0.11186	0.077559	0.070193	0.18205	0.09933	0.028103	0.2703	0.091763	0.14058	0.16747	0.13677	0.10198	0.21854	0.21545	-2.1396	-3.0667	-2.8292	-2.6813	-3.1042	-2.7125	-2.8729	-2.9333	-2.7958	-3.0271	-2.7979	-2.6583	-3.0521	-2.8375	-2.9292	-3.3021	258.720	498.579	256.534	181.990	259.943	238.424	494.271	258.826	421.962	339.440	407.143	497.353	463.333	408.819	215.144	238.782	0.00015171	0.00020851	5.6805e-05	312.38	1.9556e-06	1.7861e-06	434.76	117.75	1.7132e-06	2.4326e-06	151.94	44.932	30.154	8.2614	1.354e-06	14.416	0.00012733	2.2519e-05	6.5887e-06	303.41	2.6505e-07	3.93e-07	423.76	115.46	7.844e-07	1.3833e-07	147.73	44.205	29.556	8.1697	3.89e-07	14.222	254.066	245.209	253.778	182.883	321.591	315.337	181.609	188.615	307.670	322.961	186.089	190.797	193.240	199.171	329.497	195.552	-8191	255	
1902.408	1	1	0	0	0.29949	0.012636	0.1692	0.19119	0.12276	0.20373	0.23016	0.20889	0.17575	0.16147	0.21589	0.07886	0.25499	0.013578	0.17059	0.059507	-2.3021	-3.0854	-3.0625	-2.8458	-2.9938	-2.7375	-2.7438	-3.0375	-2.6896	-3.1125	-2.8875	-2.7104	-2.9292	-2.6333	-2.9042	-3.1458	312.543	461.731	352.992	475.516	490.971	341.719	177.708	515.089	512.318	298.676	212.839	180.958	236.515	474.991	352.109	325.483	0.00013385	0.00015287	6.0035e-05	303.29	1.1793e-06	2.1237e-06	424.65	115.72	1.3377e-06	1.4871e-06	148.32	44.63	29.597	8.1053	1.3973e-06	14.266	0.00011521	8.8611e-06	7.3951e-06	295.66	2.7625e-07	1.7709e-07	414.52	113.64	6.2002e-07	1.7054e-08	144.44	43.63	29.134	8.0595	4.0197e-07	14.102	251.887	252.712	246.034	182.776	321.760	309.808	181.948	188.421	330.495	331.292	186.052	191.094	193.238	199.562	351.287	196.102	-8191	255	
1902.528	1	1	0	0	0.031034	0.24618	0.075641	0.18015	0.13885	0.16807	0.19375	0.15677	0.094243	0.14656	0.10501	0.11872	0.11789	0.26245	0.1358	0.079729	-2.3896	-3.0167	-2.9437	-2.4292	-3.175	-2.8375	-2.8563	-3.1625	-2.6458	-2.9688	-3.1292	-2.5687	-3.0563	-2.6937	-2.8292	-3.1667	521.641	204.253	415.398	482.657	296.615	289.147	354.216	481.470	240.527	478.190	371.019	513.227	309.943	389.705	247.712	486.715	0.0001393	0.00024003	4.9296e-05	294.25	1.6467e-06	2.459e-06	412.88	112.89	1.7001e-06	1.2851e-06	144.31	43.669	29.05	8.0342	1.1362e-06	14.072	0.00011152	2.8616e-05	5.4138e-06	286.84	2.7476e-07	2.4622e-07	399.83	110.86	6.4309e-07	2.1791e-08	141.28	42.786	28.57	7.9455	4.2628e-07	13.906	254.310	253.241	273.207	182.815	316.994	351.968	181.875	188.296	309.129	339.515	185.736	191.073	193.327	199.165	326.744	196.192	-8191	255	
1902.624	1	1	0	0	0.11915	0.11847	0.21665	0.19363	0.075684	0.10807	0.060135	0.075987	0.24452	0.168	0.30092	0.065803	0.07241	0.077212	0.26436	0.081515	-2.3333	-2.9479	-3.0312	-2.7604	-3.0687	-2.8521	-2.9917	-3.1729	-2.75	-2.8083	-2.9708	-2.6146	-3.0083	-2.9562	-2.7938	-3.1125	322.577	273.403	457.681	502.676	232.979	328.803	367.034	378.163	322.350	353.355	384.572	201.300	526.718	390.040	173.586	419.163	0.0001325	0.00023239	5.1054e-05	287.08	1.922e-06	1.2574e-06	401.37	110.91	1.643e-06	1.1944e-06	143.38	43.32	28.938	8.052	1.5141e-06	13.9	0.00010811	2.577e-05	4.6075e-06	279.39	3.0164e-07	8.1442e-08	392.02	108.86	6.7698e-07	2.0181e-07	140.14	42.52	28.405	7.9612	4.8382e-07	13.813	253.088	251.385	262.547	182.500	328.214	313.598	182.199	188.472	334.471	325.830	185.567	191.093	193.549	199.561	337.881	196.190	-8191	255	
1902.720	1	1	0	0	0.31361	0.15311	0.18131	0.15125	0.12909	0.12022	0.098612	0.15482	0.29396	0.11982	0.13873	0.14001	0.19954	0.054769	0.0778	0.19267	-2.3667	-2.7479	-3.1271	-2.6375	-2.9771	-2.9625	-2.775	-3.1312	-2.8125	-3.0354	-3.3396	-2.5938	-2.9646	-2.9979	-2.6833	-3.2313	393.963	173.258	289.696	461.311	246.232	443.076	190.904	249.791	406.085	352.024	341.450	229.199	203.153	357.551	357.814	406.975	0.00013591	0.00022577	5.2458e-05	287.77	2.17e-06	1.9055e-06	402.62	112.88	1.1967e-06	1.8693e-06	144.68	43.401	29.146	7.8518	1.3532e-06	13.84	0.00011607	3.52e-05	2.1195e-06	280.19	4.0542e-07	2.9357e-08	393.04	109.88	5.299e-07	1.6391e-07	140.7	42.535	28.496	7.8573	4.5383e-07	13.719	254.778	246.108	281.345	182.579	329.726	319.417	181.955	188.510	335.275	330.031	185.619	190.774	193.417	200.421	346.399	195.850	-8191	255	
1902.839	1	1	0	0	0.065084	0.071557	0.20928	0.14444	0.27471	0.17726	0.14632	0.15549	0.23118	0.12794	0.0030464	0.1287	0.14752	0.21081	0.046691	0.018803	-2.2625	-2.8375	-3.0375	-2.5938	-2.8438	-3.1333	-2.6417	-3.0771	-2.6896	-2.7583	-3.1625	-2.6667	-2.8625	-2.9667	-2.6875	-2.9437	357.608	468.611	177.508	254.425	294.097	440.071	261.387	362.338	447.256	402.448	365.758	329.125	286.676	405.751	281.904	367.023	0.0001246	0.00018958	5.2873e-05	286.58	2.0088e-06	2.1716e-06	404.73	112.06	1.3631e-06	1.5882e-06	146.02	43.882	28.972	7.852	1.9372e-06	14.016	0.00010104	3.6013e-05	1.6817e-06	279.89	3.5091e-07	1.8656e-07	397.48	110.02	5.9046e-07	2.0181e-07	141.98	42.9	28.71	7.8527	4.9192e-07	13.803	254.312	250.814	263.441	183.196	322.319	323.899	181.844	188.196	333.891	316.576	185.427	191.163	193.627	199.143	322.385	195.830	-8191	255	
1902.936	1	1	0	0	0.13268	0.087807	0.16672	0.24714	0.20123	0.211	0.24404	0.24622	0.11939	0.059331	0.16267	0.19563	0.072721	0.094481	0.26054	0.0748	-2.5521	-2.4354	-3.1854	-2.6771	-2.8667	-3.1083	-2.7979	-3.0021	-2.9646	-2.7208	-3.1542	-2.8646	-2.8563	-3.0458	-2.7042	-2.8667	199.129	204.296	291.113	202.967	192.814	213.997	244.249	242.161	270.424	295.662	507.035	398.711	345.691	199.673	397.028	331.393	0.00013294	0.000161	5.9143e-05	291.45	1.5391e-06	1.9529e-06	415.43	114.07	1.4192e-06	1.5222e-06	149.23	44.872	29.782	8.0148	1.3945e-06	14.144	0.00010525	3.6339e-05	6.4966e-06	285.05	3.8974e-07	1.2784e-07	405.66	112.13	5.09e-07	3.6287e-07	146.17	44.271	29.465	7.9649	5.4136e-07	14.07	253.320	238.351	275.904	182.799	336.175	306.327	181.584	188.527	327.548	310.401	185.975	190.720	193.482	199.030	321.863	196.000	-8191	255	
1903.007	1	1	0	0	0.26452	0.15958	0.31359	0.14473	0.19018	0.16484	0.090177	0.07348	0.052145	0.11903	0.13966	0.43594	0.32091	0.20845	0.23157	0.027885	-2.4396	-2.7708	-3.2167	-2.6875	-2.9688	-3.1083	-2.6937	-2.9833	-2.9938	-2.4458	-3.1437	-2.9375	-2.7313	-3.1583	-2.8646	-3.0604	500.942	301.617	177.918	311.748	278.659	439.233	457.837	224.023	241.191	185.279	466.759	171.292	449.232	500.318	303.390	522.396	0.00013231	0.00024475	4.3081e-05	302.45	1.6317e-06	1.0654e-06	433.21	117.61	1.7113e-06	1.63e-06	155.55	46.954	30.902	8.2376	1.5729e-06	14.544	0.00010297	4.1541e-05	3.3404e-06	295.1	5.2189e-07	-4.4509e-08	421.39	115.66	6.0849e-07	3.5056e-07	151.66	46.027	30.667	8.1729	5.1867e-07	14.317	253.711	251.079	236.524	182.631	320.712	309.780	181.878	188.542	330.367	311.283	185.858	190.117	193.566	199.929	320.539	195.415	-8191	255	
1903.128	1	1	0	0	0.22665	0.063842	0.16034	0.08034	0.15493	0.069975	0.16335	0.21351	0.26124	0.08616	0.18197	0.23825	0.3005	0.22883	0.12662	0.12629	-2.5833	-2.5625	-3.0292	-2.9833	-2.7021	-3.1437	-2.8958	-2.9	-3	-2.8667	-3.1917	-2.9271	-2.6042	-3.2729	-2.5563	-2.9896	274.676	422.061	439.852	334.990	428.214	468.076	511.917	451.917	408.497	493.492	495.123	279.471	462.629	274.486	263.762	470.255	0.00013659	0.0001468	4.6781e-05	314.83	1.8032e-06	1.8701e-06	450.41	120.42	1.4689e-06	1.8908e-06	155.8	47.364	31.741	8.1872	1.224e-06	14.433	0.0001038	2.0486e-05	4.0776e-06	307.34	6.1447e-07	4.735e-09	436.35	117.92	4.7727e-07	3.2971e-07	153.32	46.472	31.098	8.126	4.0845e-07	14.164	256.271	250.932	243.547	182.809	346.830	321.168	181.848	188.071	329.773	322.080	185.899	190.720	193.552	199.475	344.519	196.265	-8191	255	
1903.224	1	1	0	0	0.1457	0.034908	0.27082	0.24969	0.18519	0.1063	0.19273	0.31725	0.061899	0.2753	0.091212	0.056613	0.14531	0.098831	0.053034	0.19418	-2.7979	-2.5854	-3.0854	-2.7604	-2.6771	-3.1813	-2.9	-2.9562	-3.0542	-2.8292	-2.9146	-3.0771	-2.6458	-3.1042	-2.7958	-3.0042	303.686	249.584	444.975	462.352	188.675	405.127	446.080	510.601	173.417	225.310	506.757	264.083	437.340	429.597	514.088	172.086	0.00012533	0.00017622	6.6822e-05	317.26	2.0702e-06	2.1588e-06	449.17	120.29	1.551e-06	2.4696e-06	157.82	47.912	31.431	8.1758	2.0556e-06	14.368	9.9936e-05	3.7558e-05	8.3396e-06	308.17	6.7719e-07	1.9413e-07	437.29	117.9	4.9746e-07	5.0594e-07	154.05	46.894	31.087	8.1309	3.6793e-07	14.227	254.877	264.994	253.353	182.275	316.200	316.653	181.871	188.456	326.813	321.464	185.781	191.175	193.488	199.419	332.687	196.214	-8191	255	
1903.320	1	1	0	0	0.21328	0.17788	0.11532	0.16391	0.22707	0.12921	0.024736	0.18411	0.14647	0.32566	0.085768	0.11969	0.26515	0.091693	0.24467	0.057267	-2.7396	-2.525	-2.9479	-2.9896	-2.6833	-3.1188	-2.925	-2.725	-3.1354	-2.8625	-2.9667	-3.0229	-2.7583	-2.9979	-3.0479	-2.6958	385.931	487.210	339.428	405.944	236.770	294.746	396.056	200.396	377.605	218.738	173.938	364.989	286.786	196.080	526.538	438.377	0.00014233	0.0002024	5.5967e-05	315.6	1.4318e-06	1.2118e-06	448.93	120.33	1.5325e-06	2.6248e-06	157.45	47.347	31.45	8.2621	1.5103e-06	14.752	0.00010831	3.707e-05	7.5563e-06	308.21	5.2264e-07	-3.5986e-08	438.36	117.66	6.0921e-07	2.0654e-07	153.94	46.437	30.878	8.2513	3.4767e-07	14.522	252.798	264.583	265.447	182.939	323.315	309.682	181.830	188.400	327.051	307.198	185.628	190.849	193.156	200.166	315.032	196.383	-8191	255	
1903.416	1	1	0	0	0.24865	0.21343	0.1444	0.15244	0.26105	0.17702	0.11339	0.1151	0.1029	0.10596	0.26293	0.16255	0.04583	0.11345	0.1806	0.16505	-2.6188	-2.7729	-3.0083	-3.125	-2.5687	-3.0062	-2.9104	-2.725	-3.0375	-2.7979	-2.7812	-3.2	-2.6771	-3.0833	-2.9625	-2.6646	383.228	359.598	494.447	170.123	372.174	423.406	276.987	215.447	502.883	356.329	325.944	504.360	501.240	277.861	427.378	484.365	0.00013424	0.00019716	5.7483e-05	321.67	2.1657e-06	1.9179e-06	456.31	121.13	1.8183e-06	1.9262e-06	157.15	46.502	30.999	8.1979	1.5252e-06	14.368	0.00010219	2.7152e-05	9.837e-06	311.63	6.2418e-07	8.523e-08	443.35	118.25	6.4093e-07	2.0181e-07	153.83	45.81	30.45	8.169	3.4119e-07	14.224	254.697	269.007	251.603	182.790	324.780	341.730	182.127	188.106	326.990	307.837	185.744	191.052	193.714	199.692	318.473	195.723	-8191	255	
1903.512	1	1	0	0	0.072878	0.088398	0.1912	0.055638	0.10502	0.14455	0.15688	0.20672	0.21525	0.19359	0.12956	0.13853	0.071425	0.22318	0.22914	0.17457	-2.7188	-2.8271	-2.7979	-3.0458	-2.6688	-3.2208	-2.9979	-2.8063	-3.1396	-2.9313	-2.7562	-3.1875	-2.9354	-3.1521	-2.9062	-2.7646	188.435	212.315	189.670	238.070	324.042	408.687	379.221	462.985	484.280	425.853	529.039	298.398	233.287	426.389	230.848	416.609	0.0001473	0.00014899	5.2308e-05	313.73	1.2674e-06	2.2694e-06	446.94	119.3	1.731e-06	1.1897e-06	155.03	45.926	30.494	8.2183	1.5603e-06	14.479	0.00011194	2.3494e-05	7.7406e-06	306.31	5.6893e-07	6.7237e-08	435.22	116.83	5.4432e-07	2.3686e-07	151.58	45.012	29.956	8.137	3.266e-07	14.29	253.130	254.304	242.223	182.800	350.637	311.916	182.057	188.177	324.340	315.620	185.972	191.013	193.409	199.521	325.067	196.451	-8191	255	
1903.631	1	1	0	0	0.10177	0.31639	0.065078	0.2735	0.25736	0.10671	0.092287	0.38279	0.20803	0.22505	0.24541	0.14389	0.16186	0.45108	0.28075	0.22043	-2.8167	-2.9292	-2.9062	-3.2146	-2.825	-2.9813	-3.125	-2.7562	-3.1083	-3.0896	-2.7417	-3.1937	-2.7938	-3.0563	-3.1167	-2.6917	344.624	507.681	279.644	174.672	293.302	514.842	381.949	454.337	284.462	395.403	230.270	451.557	329.249	471.158	265.772	436.803	0.00013893	0.00014741	5.3291e-05	310.5	1.9896e-06	1.8864e-06	445.8	118.09	1.9294e-06	1.9994e-06	152.94	45.155	30.154	8.159	1.9446e-06	14.554	0.00010249	1.9917e-05	8.8003e-06	303.95	5.9954e-07	1.5152e-07	434.2	116.04	5.1981e-07	1.6959e-07	149.63	44.504	29.614	8.1394	2.7959e-07	14.39	253.532	251.949	263.932	182.685	335.742	334.603	182.405	188.471	325.862	304.721	185.623	190.943	193.033	200.242	319.747	195.697	-8191	255	
1903.705	1	1	0	0	0.12202	0.011991	0.23729	0.20262	0.090091	0.079781	0.14032	0.082084	0.17476	0.19772	0.058197	0.16909	0.17742	0.034202	0.10168	0.055762	-2.5146	-3.0292	-2.8333	-3.1521	-2.7708	-3.0521	-3.2271	-2.8104	-3.1542	-3.0646	-2.6125	-3.3021	-2.8479	-2.8604	-3.2687	-2.8208	299.750	300.018	472.393	513.387	321.367	206.904	444.852	437.762	425.894	361.283	277.166	392.032	507.969	179.064	471.077	357.544	0.00013439	0.00012348	6.182e-05	313.54	2.0147e-06	1.7373e-06	450.5	118.83	2.0664e-06	1.7783e-06	155.49	46.124	30.399	8.2273	1.5701e-06	14.893	0.00010763	7.1539e-06	7.7637e-06	303.99	6.2044e-07	2.1591e-07	437.35	116.71	6.157e-07	7.3901e-08	151.4	44.817	29.857	8.1943	8.6715e-08	14.668	250.881	245.465	267.290	182.424	326.172	337.402	182.197	188.363	319.034	324.918	185.804	190.882	193.556	199.810	348.125	196.157	-8191	255	
1903.801	1	1	0	0	0.13087	0.11789	0.12621	0.2283	0.079659	0.20585	0.10805	0.10331	0.16858	0.17125	0.047974	0.12158	0.22243	0.097717	0.37415	0.099712	-2.4979	-2.9938	-2.8417	-3.0312	-2.825	-2.8771	-3.2792	-2.7229	-3.0062	-2.9875	-2.7208	-3.1104	-2.8792	-2.8354	-3.1854	-2.8688	310.925	325.819	516.654	290.879	492.847	337.001	508.147	247.169	380.962	313.575	315.446	407.739	325.818	293.942	517.153	400.773	0.000143	0.000187	5.1188e-05	322.21	2.5517e-06	1.8105e-06	464.03	120.66	1.8467e-06	1.8769e-06	158.4	45.659	30.254	8.3472	2.239e-06	14.753	0.00011339	1.8129e-05	9.7449e-06	314.4	6.0476e-07	2.3107e-07	451.55	118.88	6.5247e-07	8.3375e-08	154.07	44.783	29.953	8.2472	3.0472e-07	14.572	252.526	272.496	247.357	182.637	344.034	314.543	181.958	188.339	317.501	325.626	186.018	191.098	193.856	200.190	325.154	196.198	-8191	255	
1903.920	1	1	0	0	0.039484	0.13004	0.18915	0.18662	0.085516	0.062304	0.23961	0.23746	0.28199	0.11925	0.052053	0.23406	0.11516	0.24458	0.15485	0.19553	-2.4458	-3.0104	-2.7229	-3.0792	-2.9229	-2.6333	-3.2292	-2.9417	-2.9375	-3.1229	-2.85	-3.0375	-2.95	-2.7896	-3.2896	-2.9083	216.451	418.025	430.347	344.937	346.166	193.379	498.202	198.542	466.177	260.637	467.998	218.918	515.037	483.508	230.070	172.915	0.00013585	0.00021094	5.5683e-05	330.37	1.9806e-06	1.9617e-06	468.82	121.1	1.6197e-06	1.1011e-06	157.91	45.218	30.494	8.2109	1.5043e-06	14.826	0.00011054	2.0242e-05	9.4454e-06	319.24	4.196e-07	3.8069e-07	455.73	119.05	6.1714e-07	-7.9585e-08	154.7	44.531	29.997	8.1757	2.1476e-07	14.672	256.297	255.239	294.270	182.478	327.392	344.555	181.850	188.135	319.070	331.754	185.352	190.705	193.331	199.608	323.754	196.034	-8191	255	
1904.016	1	1	0	0	0.19425	0.24679	0.090386	0.09074	0.18314	0.042854	0.1697	0.092464	0.17929	0.2618	0.14988	0.16121	0.34957	0.1045	0.14786	0.26661	-2.6604	-2.9562	-2.6646	-3.0708	-2.9354	-2.775	-3.0938	-2.8146	-2.8604	-3.2646	-2.7479	-3.0417	-2.7833	-2.625	-3.1	-2.8542	235.082	345.158	247.880	479.823	387.398	262.436	492.685	251.158	396.478	414.986	196.989	336.436	467.728	293.208	429.732	400.845	0.00014477	0.00015154	6.0332e-05	328.9	2.4185e-06	1.5844e-06	475.25	122.47	1.2282e-06	1.8834e-06	159.78	45.856	30.671	8.2339	1.9808e-06	15.011	0.00011705	1.9023e-05	9.791e-06	321.6	4.9576e-07	3.0114e-07	461.73	120.24	6.64e-07	1.1369e-07	156.39	44.911	30.148	8.1947	2.8041e-07	14.82	253.016	252.039	266.828	182.584	324.686	332.075	182.267	188.117	336.988	314.591	186.030	190.848	193.523	199.869	327.210	196.367	-8191	255	
1904.112	1	1	0	0	0.16467	0.079053	0.23895	0.16249	0.079494	0.27842	0.10197	0.1009	0.17102	0.074155	0.06693	0.14801	0.094525	0.16896	0.18737	0.065526	-2.3729	-3.0604	-2.5854	-2.85	-3.1771	-2.8021	-3.0229	-2.9354	-2.6792	-3.1167	-2.95	-2.9854	-3.0229	-2.6104	-2.9354	-3.1417	285.220	481.370	224.462	515.745	229.967	218.243	183.652	289.995	319.796	265.674	476.278	251.669	291.837	419.914	295.556	253.007	0.00014302	0.00013856	4.4403e-05	331.08	1.8011e-06	2.096e-06	477.64	123	1.7387e-06	1.2932e-06	162.57	46.753	31.116	8.3308	1.7265e-06	14.772	0.00011734	7.4791e-06	7.0956e-06	324.02	4.8082e-07	5.038e-07	466.3	120.82	7.2528e-07	-1.8949e-08	159.27	45.839	30.64	8.2763	3.0634e-07	14.678	253.029	259.318	247.427	183.257	314.417	342.146	182.399	188.540	320.271	338.170	185.928	191.078	193.402	200.264	330.289	195.856	-8191	255	
1904.208	1	1	0	0	0.16904	0.061342	0.20278	0.18267	0.25997	0.14618	0.29106	0.15909	0.11973	0.13348	0.056565	0.18605	0.16705	0.20667	0.17632	0.11087	-2.2479	-3.1688	-2.8708	-2.9583	-3.0333	-2.7917	-3.0625	-3.1354	-2.6771	-3.0292	-2.7208	-2.8708	-3.1583	-2.5708	-3.0583	-2.9417	247.010	439.668	470.830	474.370	469.771	353.728	514.490	229.155	382.064	270.209	400.062	498.542	526.343	172.583	395.533	270.874	0.0001465	0.00020072	3.2678e-05	340.88	2.1114e-06	2.2958e-06	485.24	123.84	1.8305e-06	2.3866e-06	162.97	47.86	31.932	8.3169	1.8614e-06	14.725	0.00011925	1.756e-05	7.4642e-06	332.36	4.8829e-07	4.3372e-07	470.85	121.94	9.0696e-07	7.3901e-08	159.09	46.814	31.283	8.2417	3.9467e-07	14.493	251.790	257.266	253.566	182.318	334.074	309.835	182.259	188.317	327.579	328.354	185.801	190.528	192.976	199.729	333.363	196.154	-8191	255	
1904.304	1	1	0	0	0.13165	0.045542	0.12326	0.11461	0.040129	0.10957	0.01725	0.18567	0.12268	0.10232	0.14322	0.11974	0.11127	0.13481	0.046628	0.27189	-2.1667	-3.0875	-2.9792	-2.7521	-2.9188	-2.8812	-3.0854	-3.1479	-2.7458	-3.0062	-2.9958	-2.7417	-3.1188	-2.6833	-2.9208	-2.85	231.767	524.667	390.395	174.873	449.240	381.396	478.308	420.980	511.149	286.618	458.900	357.942	189.046	325.215	513.956	513.931	0.00013678	0.00023573	5.7054e-05	341.79	1.7918e-06	1.522e-06	483.48	124.58	1.499e-06	1.8628e-06	164.88	48.454	32.302	8.3277	1.7623e-06	14.819	0.00011942	6.0158e-06	8.2705e-06	333.88	5.5623e-07	3.3334e-07	472.62	122.08	7.4547e-07	1.0801e-07	161.52	47.593	31.685	8.2812	4.4573e-07	14.559	251.286	273.465	252.080	182.448	326.157	315.098	181.728	188.688	328.025	331.032	185.828	190.938	193.167	199.713	341.879	196.205	-8191	255	
1904.400	1	1	0	0	0.036897	0.3425	0.26332	0.027628	0.19407	0.18166	0.24232	0.06248	0.086302	0.17488	0.16085	0.17477	0.23348	0.16276	0.092323	0.22947	-2.2667	-2.8917	-2.9458	-2.6396	-3.1437	-2.6833	-2.9667	-3.0646	-2.6875	-3.0792	-2.975	-2.7979	-3.2021	-2.8312	-2.8021	-3.1604	490.100	330.565	389.706	483.089	347.454	494.088	467.443	527.673	186.659	380.906	220.800	255.371	231.430	425.650	453.051	431.790	0.00014426	0.00020328	5.9428e-05	349.48	1.7707e-06	2.1287e-06	493.6	126.36	1.3974e-06	1.9039e-06	169.22	49.975	32.995	8.5085	1.6021e-06	14.91	0.00011972	2.7477e-05	5.5751e-06	341.12	4.8904e-07	4.7729e-07	480.99	123.65	8.2333e-07	1.3454e-07	165.03	49.122	32.448	8.4272	4.8544e-07	14.739	255.773	244.981	265.594	182.821	314.375	333.813	181.905	188.043	296.125	323.745	185.764	191.242	193.345	199.675	326.806	196.136	-8191	255	
1904.521	1	1	0	0	0.024807	0.28202	0.11314	0.074467	0.12987	0.23492	0.0090777	0.01596	0.12463	0.1166	0.21161	0.18453	0.011691	0.16248	0.19909	0.2281	-2.3271	-2.9021	-3.05	-2.7583	-3.15	-2.9875	-2.8937	-3.2792	-2.5125	-2.9417	-2.925	-2.6646	-3.2062	-2.8917	-2.725	-3.2438	402.930	275.516	306.270	244.500	410.181	322.869	451.319	258.980	527.779	490.695	290.741	257.329	505.254	334.349	371.449	467.874	0.00013409	0.00013446	6.0162e-05	357.63	1.5584e-06	1.9274e-06	505.8	128.42	1.2246e-06	1.9217e-06	173.27	51.677	34.556	8.7131	2.8424e-06	15.179	0.00011803	3.2111e-05	6.151e-06	348.2	2.8894e-07	3.4187e-07	491.19	126.15	7.6998e-07	1.1275e-07	170.03	50.907	33.911	8.6854	6.4347e-07	15.036	258.619	263.262	268.712	182.348	318.652	324.842	181.671	188.168	318.732	306.880	185.888	190.601	192.960	199.761	331.044	195.661	-8191	255	
1904.617	1	1	0	0	0.16314	0.026832	0.03271	0.10473	0.12315	0.10408	0.18281	0.22969	0.24763	0.16458	0.081645	0.061198	0.14338	0.053197	0.13539	0.15427	-2.3125	-2.85	-2.9646	-2.8208	-2.9833	-3.0021	-2.8937	-3.0938	-2.8167	-2.8125	-3.2625	-2.5729	-3.1833	-2.8625	-2.7542	-3.075	257.444	432.877	214.424	333.420	253.324	322.517	469.756	465.781	523.173	334.911	381.563	510.172	253.745	517.389	474.073	265.281	0.0001483	0.00015138	5.4649e-05	367.81	1.466e-06	2.0327e-06	508.89	129.51	1.8658e-06	1.6074e-06	173.91	52.384	34.734	8.6301	1.9315e-06	14.943	0.00011889	2.5933e-05	1.0482e-05	357.59	5.301e-07	3.8164e-07	496.1	127.41	8.1829e-07	1.9896e-07	169.94	51.28	33.987	8.5753	4.741e-07	14.756	257.579	255.093	248.293	182.373	333.722	336.749	181.650	188.436	324.677	313.354	185.598	191.257	193.336	199.540	319.379	195.948	-8191	255	
1904.712	1	1	0	0	0.13619	0.16767	0.18163	0.095723	0.077239	0.17211	0.050355	0.181	0.27542	0.19976	0.13719	0.22254	0.076818	0.028351	0.21069	0.014829	-2.3542	-2.85	-3.0625	-2.8625	-3.1583	-2.9958	-2.8896	-3.1833	-2.8937	-2.8729	-3.0875	-2.8521	-3.1083	-2.9208	-2.6937	-3.0938	185.378	465.759	374.160	218.669	232.295	493.669	500.808	232.735	351.568	171.062	233.096	175.136	345.713	282.398	237.799	215.364	0.00012683	0.00014584	5.453e-05	357.94	2.3387e-06	2.4096e-06	495.69	129.31	1.6726e-06	2.0026e-06	170.69	51.717	34.118	8.4527	2.0602e-06	14.666	0.00011274	4.3167e-05	3.087e-06	349.32	5.3831e-07	3.3145e-07	484.88	126.15	8.3775e-07	3.3634e-07	167.29	50.543	33.483	8.3924	5.6e-07	14.438	256.475	236.171	263.277	182.628	305.281	325.883	181.685	188.447	315.836	320.674	185.901	190.723	192.888	199.109	325.135	195.445	-8191	255	
1904.810	1	1	0	0	0.14592	0.088548	0.030534	0.1887	0.21156	0.16719	0.28115	0.22144	0.29046	0.1452	0.087777	0.20315	0.2227	0.24244	0.14528	0.14422	-2.4208	-2.9229	-2.975	-2.65	-3.0083	-3.025	-2.8542	-3.0854	-2.6792	-2.7021	-3.2146	-2.7542	-2.8521	-3.0042	-2.5979	-3.225	450.778	306.267	259.364	440.766	282.526	492.433	212.759	458.720	475.051	378.939	452.952	446.782	499.494	490.518	247.378	377.052	0.000135	0.00024684	6.6796e-05	352.95	1.973e-06	2.4915e-06	493.81	125.68	1.5164e-06	1.4884e-06	168.29	50.665	33.159	8.348	1.976e-06	14.579	0.00011111	4.4305e-05	7.349e-06	343.35	5.7789e-07	9.7541e-08	479.14	123.56	7.3465e-07	3.6571e-07	163.94	49.72	32.731	8.3098	5.989e-07	14.382	255.495	264.147	272.193	182.759	322.718	325.317	181.881	188.521	320.515	310.831	185.586	190.913	193.083	199.698	332.552	195.421	-8191	255	
1904.928	1	1	0	0	0.27629	0.17014	0.21359	0.29078	0.20659	0.31649	0.25225	0.31031	0.24336	0.16792	0.1782	0.14573	0.12942	0.23321	0.26273	0.15941	-2.3729	-2.9042	-2.9813	-2.8708	-2.9979	-3.0875	-2.6437	-2.9875	-3.0271	-2.3208	-3.275	-2.8958	-3.0021	-3.0125	-2.6875	-2.9354	219.900	469.977	413.872	422.024	217.854	282.769	431.211	429.982	176.192	481.105	310.654	181.108	172.277	253.310	237.594	414.363	0.00013668	0.00025569	5.5531e-05	348.74	2.203e-06	2.7443e-06	488.53	124.88	1.5572e-06	2.62e-06	164.77	49.98	32.73	8.4524	1.7212e-06	14.514	0.00010858	6.219e-05	6.6809e-06	340.44	6.7644e-07	1.4394e-07	475.16	122.36	7.2889e-07	4.5572e-07	161.27	48.798	32.227	8.2796	5.7216e-07	14.327	252.139	250.009	258.665	182.510	320.418	334.774	181.589	188.773	311.513	317.179	185.572	190.594	193.525	199.353	332.223	195.986	-8191	255	
1905.000	1	1	0	0	0.08407	0.096775	0.16802	0.31779	0.1723	0.06936	0.12985	0.14396	0.03332	0.17662	0.26894	0.15448	0.076385	0.052838	0.26913	0.10704	-2.5229	-2.7458	-3.0417	-2.7667	-2.8083	-3.1688	-2.7917	-3.2292	-3.0187	-2.6271	-3.3333	-2.6375	-2.8083	-3.0312	-2.7771	-3.0354	222.852	403.821	409.148	199.234	323.718	432.614	523.554	484.260	486.491	457.244	266.579	484.960	364.236	381.172	435.063	495.634	0.00014055	0.00021589	5.7313e-05	347.64	1.8181e-06	1.6977e-06	479.93	122.67	1.751e-06	1.8808e-06	163.46	48.89	32.291	8.1151	1.2567e-06	14.316	0.00010531	4.1948e-05	2.9488e-06	337.51	5.8311e-07	8.4283e-08	467.59	120.5	6.95e-07	4.813e-07	159.03	48.158	31.767	8.0957	4.8787e-07	14.049	254.953	256.726	243.038	182.186	325.365	323.188	181.785	188.413	318.361	315.198	185.595	191.019	193.659	199.772	347.191	196.371	-8191	255	
1905.096	1	1	0	0	0.23779	0.16783	0.36799	0.049585	0.26491	0.24679	0.22636	0.12792	0.064819	0.15205	0.012735	0.058974	0.11782	0.18444	0.029003	0.025688	-2.5917	-2.5854	-2.9521	-3.0583	-2.8	-3.2854	-2.875	-2.9646	-3.1063	-2.6375	-3.275	-2.8854	-2.6771	-2.9354	-2.8125	-2.7479	341.895	330.585	174.780	206.185	495.741	346.748	443.421	529.207	259.335	522.355	330.841	503.226	368.812	359.557	218.673	314.723	0.00013422	0.00021102	6.0163e-05	338.79	1.5531e-06	2.3326e-06	473.48	120.83	1.7248e-06	2.2477e-06	161.3	48.836	32.062	8.0637	1.5955e-06	14.015	0.00010808	4.4549e-05	4.8148e-06	330.54	6.6673e-07	-3.5039e-08	460.3	118.29	5.0395e-07	3.8277e-07	157.27	47.897	31.554	8.0347	4.0683e-07	13.843	254.653	256.019	240.582	182.531	326.905	331.114	182.040	188.296	321.946	293.759	185.584	190.621	193.362	199.721	333.965	196.311	-8191	255	
1905.217	1	1	0	0	0.019593	0.072304	0.15742	0.11657	0.19994	0.16353	0.16562	0.10144	0.24062	0.12876	0.27115	0.19963	0.049383	0.045538	0.025531	0.19	-2.6	-2.6854	-2.9958	-2.9083	-2.7521	-3.1208	-2.8833	-2.8812	-3.0687	-2.65	-2.9792	-2.9396	-2.8292	-3.1396	-2.7542	-2.8271	495.939	379.205	318.159	350.165	239.344	293.327	241.696	442.391	307.114	217.546	477.961	381.522	267.297	292.093	264.772	195.937	0.00013279	0.00025406	5.3074e-05	335.18	1.6192e-06	2.0772e-06	469.8	119.89	1.401e-06	2.1207e-06	161.17	48.701	31.994	7.9175	1.8091e-06	13.862	0.00010555	5.2191e-05	5.4138e-06	326.76	6.966e-07	1.1364e-07	457.87	117.67	5.3279e-07	3.6192e-07	157.27	47.893	31.514	7.8767	4.9598e-07	13.69	256.565	255.946	249.125	182.593	330.990	347.321	181.957	188.472	309.310	304.546	185.591	190.927	193.263	199.658	321.628	196.088	-8191	255	
1905.313	1	1	0	0	0.18991	0.12046	0.29514	0.11527	0.13463	0.11769	0.057116	0.13144	0.10848	0.08212	0.28085	0.012	0.082473	0.037856	0.20356	0.067619	-2.7438	-2.8292	-3.0583	-2.9896	-2.8125	-3.1646	-2.7687	-2.8542	-3.2396	-2.6271	-2.8521	-2.9354	-2.4333	-3.0167	-3.0917	-2.7542	526.969	328.051	525.250	206.863	270.711	260.190	484.481	509.693	487.133	222.168	484.232	466.226	261.301	385.444	226.319	436.010	0.00011845	0.00020128	5.7234e-05	337.92	1.5849e-06	2.0963e-06	471.33	120.05	2.0533e-06	2.231e-06	160.7	48.356	32.03	7.8267	1.5872e-06	13.481	9.7589e-05	3.8534e-05	6.151e-06	328.23	5.7714e-07	-1.3258e-08	458.37	117.49	5.7028e-07	2.5202e-07	157.14	47.688	31.359	7.7684	5.3245e-07	13.378	254.397	238.916	251.742	182.298	314.695	313.619	181.595	188.455	332.104	318.298	185.844	190.596	193.267	199.451	328.533	196.399	-8191	255	
1905.409	1	1	0	0	0.27433	0.20775	0.15921	0.13293	0.26216	0.15151	0.2024	0.0884	0.037697	0.20647	0.05252	0.20935	0.2186	0.044092	0.17778	0.12729	-2.7854	-2.7729	-2.9062	-3.2562	-2.6521	-3.1312	-2.9938	-2.8333	-3.0208	-2.7375	-2.9583	-3.025	-2.6208	-2.9792	-2.8417	-2.7125	331.397	424.359	429.228	364.929	234.468	309.197	231.539	505.962	514.304	460.697	374.766	239.790	511.116	182.743	423.165	337.219	0.00013412	0.00012735	4.0826e-05	332.66	1.3575e-06	2.2521e-06	465.82	118.93	1.3667e-06	1.9849e-06	158.53	48.162	31.455	7.739	2.7356e-06	13.61	9.7797e-05	2.2762e-05	5.8976e-06	324.85	6.3836e-07	1.4868e-07	453.29	116.27	4.8953e-07	3.0981e-07	155.31	47.355	31.006	7.7304	5.0327e-07	13.329	254.067	240.257	267.666	182.295	335.690	336.279	181.773	188.182	321.602	332.708	185.786	190.932	193.186	199.825	331.020	195.718	-8191	255	
1905.505	1	1	0	0	0.2233	0.21389	0.3884	0.095923	0.13151	0.22493	0.15753	0.063744	0.20918	0.17572	0.013225	0.086735	0.095725	0.17051	0.10735	0.12548	-2.5792	-2.5729	-2.8354	-3.1333	-2.6979	-2.9458	-3.0792	-2.6188	-2.9437	-2.9688	-2.8125	-3.0792	-2.7458	-3.1396	-3.0187	-2.7229	519.241	233.438	225.059	426.445	367.587	394.815	231.425	248.170	196.086	249.504	439.462	175.395	427.647	295.005	337.609	175.805	0.00012526	0.0001691	4.4357e-05	329.27	1.8044e-06	1.9792e-06	459.74	117.54	1.0372e-06	1.9466e-06	157.95	48.301	31.686	7.7834	1.9257e-06	13.404	9.9877e-05	3.0079e-05	7.372e-06	320.73	5.9506e-07	3.6365e-07	448.91	115.17	4.6285e-07	3.4677e-07	154.19	47.315	31.07	7.7308	3.6955e-07	13.313	253.707	270.374	270.425	182.576	325.874	323.532	181.855	188.493	328.781	327.892	186.049	190.868	193.346	199.746	338.802	195.682	-8191	255	
1905.602	1	1	0	0	0.21493	0.13133	0.2432	0.082753	0.038287	0.097624	0.036281	0.2919	0.11999	0.066749	0.31131	0.032854	0.086842	0.23274	0.25081	0.21297	-2.6646	-2.5792	-2.7979	-3.1833	-2.6708	-2.9604	-3.0708	-2.7771	-3.1042	-2.9562	-2.8438	-3.1437	-2.6521	-2.9938	-3.1333	-2.7542	373.148	506.198	284.602	278.424	503.455	438.079	468.352	514.691	391.813	241.702	441.462	449.186	473.239	352.743	424.851	307.177	0.00013203	0.00022672	5.1512e-05	327	1.9774e-06	1.901e-06	457.13	117.06	1.6775e-06	1.8993e-06	157.43	48.364	31.792	7.6935	1.8258e-06	13.578	9.9253e-05	4.8614e-05	7.4642e-06	318.57	6.6524e-07	1.7614e-07	446.7	114.72	5.4432e-07	1.2696e-07	154.83	47.705	31.266	7.7091	3.7684e-07	13.373	254.589	255.515	243.942	182.144	340.824	333.798	181.433	188.118	324.026	297.057	186.137	191.046	193.683	199.071	323.126	196.408	-8191	255	
1905.698	1	1	0	0	0.21723	0.18483	0.03927	0.27247	0.17886	0.36616	0.19242	0.077303	0.12631	0.21677	0.066468	0.22657	0.12784	0.055465	0.086145	0.21296	-2.725	-2.8125	-2.6292	-3.0938	-2.875	-2.8625	-3.3667	-2.725	-2.9729	-3.0333	-2.7479	-3.2812	-2.7687	-2.9562	-3.075	-2.6042	217.303	296.683	245.038	298.017	172.184	490.440	237.215	268.445	272.135	427.285	172.045	427.934	434.155	311.251	192.710	334.578	0.00013077	0.00024068	5.5154e-05	330.18	1.5309e-06	1.7044e-06	462.9	118.68	1.6422e-06	1.701e-06	160.76	49.304	32.502	7.7799	1.6133e-06	13.371	0.00010309	3.5119e-05	7.9249e-06	322.3	5.2338e-07	2.3296e-07	453.25	116.48	5.6235e-07	3.2497e-07	157.63	48.593	31.972	7.7218	2.6744e-07	13.214	259.674	254.314	259.575	182.569	304.324	323.142	182.044	188.612	325.272	336.269	185.798	190.839	193.233	199.151	347.630	195.670	-8191	255	
1905.792	1	1	0	0	0.087839	0.10718	0.012005	0.18572	0.14473	0.15701	0.16233	0.038571	0.12597	0.058497	0.4142	0.19173	0.12798	0.12586	0.079497	0.14715	-2.6104	-3.0958	-2.6562	-3.3063	-2.9292	-2.9875	-2.9375	-2.8229	-3	-2.9146	-2.6708	-3.075	-2.8333	-2.8187	-3.225	-2.7521	367.349	264.329	500.843	437.243	290.297	439.232	171.395	296.513	411.515	355.636	459.923	459.811	457.867	352.217	475.231	459.628	0.0001291	0.00019307	6.1301e-05	332.52	1.9019e-06	2.2217e-06	470.74	119.6	1.7969e-06	2.1194e-06	163.96	51.155	33.521	7.7706	1.458e-06	13.508	9.6312e-05	2.1706e-05	1.2394e-05	323.26	5.301e-07	4.2994e-07	457.73	117.28	7.2024e-07	2.7476e-07	159.81	50.211	33.138	7.7335	3.2984e-07	13.343	253.876	240.465	252.384	182.732	322.885	303.528	181.828	188.869	309.217	296.221	186.153	190.854	193.620	200.031	328.414	196.041	-8191	255	
1905.890	1	1	0	0	0.069495	0.16287	0.14646	0.056833	0.22755	0.1198	0.16222	0.0040065	0.11406	0.11681	0.33181	0.23359	0.23138	0.046835	0.13756	0.33236	-2.4521	-2.625	-2.6396	-3.0938	-2.8292	-2.8667	-3.1458	-2.7917	-2.9875	-2.9375	-2.7167	-3.0292	-2.8896	-2.7104	-3.0271	-2.6875	452.423	323.953	366.436	414.340	383.328	346.477	436.627	345.499	494.252	393.379	452.548	227.248	419.199	213.132	442.368	241.195	0.00012953	0.00016734	6.3556e-05	339.51	1.6605e-06	1.4489e-06	479.64	122.54	1.5586e-06	1.6135e-06	169.68	53.3	35.354	8.0045	1.3061e-06	13.967	9.8421e-05	2.8209e-05	1.3938e-05	329.66	5.2114e-07	4.5172e-07	467.09	120.17	7.5196e-07	8.6218e-08	165.34	52.658	34.837	7.9973	1.9126e-07	13.766	254.697	247.406	254.511	182.828	328.743	320.054	182.016	188.659	309.801	324.007	186.380	190.939	193.464	199.178	315.085	196.172	-8191	255	
1906.009	1	1	0	0	0.21104	0.21309	0.23101	0.11337	0.27587	0.1198	0.12769	0.27068	0.1971	0.20478	0.13528	0.30082	0.10378	0.12436	0.041342	0.2517	-2.3042	-3.0854	-2.5292	-2.9792	-2.8708	-2.6625	-3.1292	-2.6667	-2.8375	-3.0333	-2.7167	-2.9792	-3.1437	-2.6396	-3.2208	-2.7354	293.109	450.278	280.606	512.528	452.260	333.395	456.898	412.467	275.256	361.612	216.414	492.181	456.051	232.599	347.158	292.156	0.000123	0.00016916	6.2456e-05	343.8	1.9052e-06	2.2426e-06	485.88	124.89	1.7414e-06	1.9655e-06	173.79	55.068	36.263	8.2651	1.7313e-06	14.122	0.00010519	2.9916e-05	1.6564e-05	335.59	5.8535e-07	4.0247e-07	475.98	122.7	8.4496e-07	1.1748e-07	168.98	54.167	35.744	8.1695	4.044e-07	13.943	252.911	267.340	275.322	182.388	319.409	347.286	182.220	188.435	317.376	316.754	186.117	190.959	193.822	199.493	349.097	196.334	-8191	255	
1906.105	1	1	0	0	0.022071	0.053854	0.16992	0.34425	0.084613	0.088259	0.16371	0.13487	0.034716	0.076479	0.18738	0.10634	0.19268	0.2562	0.063237	0.19813	-2.275	-3.0938	-2.6542	-2.9979	-3.0396	-2.7292	-3.0125	-2.8958	-2.7771	-3.0083	-2.8396	-2.925	-3.1708	-2.5708	-2.9667	-2.8937	248.218	257.317	245.306	218.283	455.617	228.941	444.564	415.192	440.154	527.470	515.755	357.025	411.794	200.699	351.356	490.100	0.00013646	0.00022247	5.4393e-05	347.15	1.1214e-06	1.7556e-06	485.08	123.79	1.4781e-06	2.6616e-06	170.77	53.78	35.413	8.2012	1.5273e-06	13.754	0.0001131	3.6501e-05	1.327e-05	337.92	4.5619e-07	4.2141e-07	474.45	122.03	7.9882e-07	2.4065e-07	167	52.864	34.968	8.0949	2.6095e-07	13.669	254.771	259.941	259.503	182.288	321.950	295.430	182.122	188.565	316.853	318.152	186.457	191.155	193.535	199.440	320.395	195.672	-8191	255	
1906.201	1	1	0	0	0.035568	0.21461	0.22053	0.19874	0.29273	0.072797	0.2119	0.12439	0.075977	0.22997	0.086354	0.044471	0.32016	0.018401	0.17621	0.088461	-2.3063	-3.1521	-2.6229	-2.9896	-3.2333	-2.6937	-3.2125	-2.9688	-2.7479	-3.2146	-2.875	-2.7271	-3.1042	-2.7521	-3.0417	-2.9021	201.112	303.692	216.888	471.364	496.582	373.546	491.757	198.274	307.730	287.490	436.823	186.748	216.130	487.879	214.448	198.033	0.00013695	0.00024476	6.358e-05	341.74	1.5528e-06	2.2913e-06	478.8	123.64	1.154e-06	1.7023e-06	168.79	53.194	34.79	8.1801	1.5566e-06	13.862	0.00011114	2.5526e-05	1.4629e-05	334.12	4.6739e-07	3.4944e-07	468.4	121.16	7.9377e-07	1.0611e-07	165	52.174	34.156	8.0833	3.6064e-07	13.731	252.426	243.656	266.963	182.460	336.296	322.730	181.752	188.493	326.547	310.561	186.225	191.451	193.044	199.673	335.635	195.718	-8191	255	
1906.297	1	1	0	0	0.29126	0.12476	0.2284	0.16761	0.13178	0.06995	0.081885	0.12074	0.073091	0.19974	0.18218	0.12854	0.17139	0.2774	0.091703	0.24349	-2.1229	-3	-2.8187	-2.85	-3.2271	-2.6458	-2.8563	-3.0021	-2.6104	-3.0271	-2.8063	-2.8292	-3.1708	-2.5979	-2.9062	-2.9625	324.021	437.714	266.698	273.706	217.699	239.781	432.902	464.839	273.965	437.803	472.930	172.179	252.061	481.331	222.480	484.180	0.0001487	0.00016287	6.4527e-05	339.78	1.3289e-06	1.5111e-06	479.31	122.49	1.6497e-06	1.4383e-06	167.91	52.813	34.306	8.0586	1.3932e-06	13.968	0.00011937	2.9429e-05	1.0528e-05	331.22	3.8003e-07	4.0531e-07	465.86	120.28	7.4619e-07	2.6528e-08	163.97	51.68	33.863	8.0451	3.1931e-07	13.82	255.917	256.465	255.489	182.719	311.538	321.803	182.234	188.863	316.668	336.160	186.030	190.955	193.129	199.692	318.290	196.410	-8191	255	
1906.393	1	1	0	0	0.11381	0.1556	0.16074	0.20182	0.21487	0.24134	0.040497	0.2204	0.23768	0.12745	0.10094	0.03126	0.24971	0.082951	0.13847	0.17922	-2.0792	-3.0938	-2.7833	-2.5687	-3.1042	-2.7542	-2.7604	-2.9271	-2.5062	-2.9062	-2.7125	-2.5854	-2.9479	-2.6708	-2.8688	-2.8771	174.073	376.178	251.565	270.640	311.150	417.350	204.487	450.107	491.487	192.506	176.759	282.069	383.412	357.858	428.252	359.193	0.00012081	0.00020256	4.6723e-05	339.07	2.245e-06	1.396e-06	479.58	122.12	2.2666e-06	1.6187e-06	167.16	52.233	34.476	7.9851	2.2753e-06	13.845	0.0001095	1.3983e-05	1.0044e-05	330.72	4.3229e-07	1.6857e-07	469.03	120.29	9.3796e-07	4.3677e-07	164.32	51.456	33.915	7.9559	5.2839e-07	13.625	256.413	250.151	251.496	182.607	331.843	325.493	181.974	188.672	315.605	330.566	186.272	190.833	193.617	199.004	324.493	195.684	-8191	255	
1906.490	1	1	0	0	0.02635	0.14335	0.033669	0.1457	0.13912	0.008724	0.12953	0.018507	0.17468	0.22574	0.23294	0.081672	0.15853	0.15686	0.10833	0.22273	-2.2396	-2.8854	-3.0187	-2.5667	-3.1167	-2.7646	-2.8917	-3.2167	-2.7313	-3.1	-2.8458	-2.5563	-3.0229	-2.7167	-2.7313	-3.0292	449.807	358.679	415.900	528.309	350.389	506.115	385.244	360.338	474.611	520.668	415.794	525.168	491.913	196.965	412.276	223.007	0.00012967	0.00024315	5.4595e-05	338.9	1.4368e-06	2.3799e-06	480.65	121.66	1.5597e-06	1.6927e-06	167.12	52.387	33.802	8.0693	1.6709e-06	13.675	0.00011158	3.6582e-05	1.0666e-05	330.31	5.0845e-07	3.7217e-07	467.24	119.55	8.1108e-07	2.056e-07	163.36	51.489	33.664	7.9301	4.9841e-07	13.499	254.443	252.865	255.029	182.421	332.469	322.906	181.551	188.522	306.963	321.242	185.616	190.755	193.634	199.865	325.102	195.910	-8191	255	
1906.610	1	1	0	0	0.030607	0.16335	0.10895	0.26575	0.19335	0.13166	0.31963	0.14262	0.12276	0.11027	0.10913	0.22058	0.31903	0.1643	0.1453	0.045259	-2.0792	-3.0104	-2.8979	-2.7375	-3.0167	-2.8438	-2.8833	-3.2875	-2.7062	-2.9604	-2.9125	-2.625	-3.1375	-2.8021	-2.5187	-3.2375	523.346	290.178	250.334	494.788	212.177	258.638	369.778	519.149	332.636	466.469	458.746	238.391	258.839	233.709	175.028	216.055	0.00013341	0.0001806	7.7976e-05	333.58	1.3567e-06	2.4257e-06	476.51	121.33	1.5204e-06	2.381e-06	166.11	52.08	33.939	8.0015	1.2501e-06	13.785	0.000109	3.0404e-05	7.1416e-06	326.89	4.0691e-07	2.6989e-07	463.78	119.09	7.6926e-07	4.7941e-07	162.87	51.176	33.468	7.9217	4.0764e-07	13.553	252.051	226.785	254.363	182.423	355.277	326.496	181.695	188.439	326.340	340.922	185.992	191.235	193.419	199.333	351.342	195.774	-8191	255	
1906.705	1	1	0	0	0.27223	0.17455	0.074328	0.19768	0.16896	0.15326	0.073999	0.14799	0.22544	0.19933	0.07893	0.23864	0.22769	0.19897	0.07037	0.093419	-2.1542	-2.7562	-3.0104	-2.4708	-3.0792	-2.9958	-2.7458	-3.2438	-2.8521	-2.7646	-3.1271	-2.6875	-2.9188	-2.8542	-2.7188	-3.0021	424.841	238.227	280.178	175.836	357.966	469.020	358.366	487.799	449.258	180.948	475.226	454.854	395.426	443.510	176.443	214.621	0.00012825	0.00022124	8.1995e-05	334.08	1.9957e-06	1.317e-06	473.31	121.73	1.4682e-06	2.32e-06	166.13	52.682	34.418	8.0311	2.0286e-06	13.749	0.0001041	4.0647e-05	5.9206e-06	326.16	5.1741e-07	2.1402e-07	463.42	119.02	7.7863e-07	3.5624e-07	163.01	51.789	33.843	7.9632	4.9922e-07	13.638	255.686	243.716	261.766	182.863	339.576	344.058	182.087	188.551	310.829	330.375	186.256	191.164	193.560	200.012	320.507	196.311	-8191	255	
1906.801	1	1	0	0	0.067519	0.053251	0.30422	0.15638	0.21127	0.089916	0.049281	0.16835	0.10479	0.056299	0.08038	0.11656	0.13127	0.054254	0.27666	0.11372	-2.3542	-2.8625	-3.0479	-2.6104	-3.0812	-2.9479	-2.7104	-3.2271	-2.8417	-2.9458	-3.2979	-2.7042	-3.2	-2.9437	-2.6646	-3.2333	207.789	357.967	275.942	253.190	403.958	204.647	383.421	524.818	250.566	516.597	210.872	517.388	317.515	322.916	477.754	319.555	0.00014184	0.00022863	3.7041e-05	337.12	2.3278e-06	1.8029e-06	480.06	121.72	1.0741e-06	2.1556e-06	167.64	53.245	34.979	8.0855	1.8866e-06	13.707	0.0001161	3.7314e-05	4.6997e-06	328.63	5.7042e-07	2.2254e-07	467.94	119.71	6.3877e-07	2.4634e-07	164.47	52.464	34.402	8.0009	6.1997e-07	13.568	256.352	248.219	265.426	182.592	318.321	323.418	182.084	188.953	302.621	325.514	186.104	191.258	193.095	199.038	329.487	196.433	-8191	255	
1906.872	1	1	0	0	0.037444	0.1323	0.079778	0.069778	0.092433	0.13894	0.22883	0.062422	0.12994	0.15095	0.086076	0.042387	0.07332	0.10893	0.14774	0.1986	-2.4938	-2.6458	-3.1042	-2.8646	-2.9333	-3.0125	-2.5958	-3.0625	-2.7562	-2.7354	-3.1896	-2.6708	-3.0375	-3.075	-2.6417	-2.9875	377.460	257.276	305.303	211.909	304.210	337.229	314.605	174.784	468.421	441.693	509.083	385.258	210.950	485.772	354.390	358.127	0.00012158	0.00017955	5.1011e-05	339.68	1.3567e-06	1.7075e-06	479.7	122.61	1.5076e-06	2.0116e-06	169.35	54.513	35.554	8.0674	2.2054e-06	13.747	0.00010597	4.5606e-05	3.686e-06	329.48	4.1288e-07	8.3336e-08	466.77	120.27	7.7431e-07	4.7846e-07	165.92	53.557	35.163	8.0027	4.9598e-07	13.584	256.400	250.875	248.986	182.521	317.117	332.927	181.457	188.421	331.263	317.538	186.445	190.992	193.054	199.433	344.488	195.932	-8191	255	
1906.993	1	1	0	0	0.13883	0.13655	0.068961	0.11803	0.23636	0.26132	0.16012	0.25704	0.08817	0.14994	0.14085	0.20209	0.060165	0.18079	0.03287	0.26668	-2.5438	-2.8125	-3.15	-2.6979	-2.8917	-3.0292	-2.6437	-3.0104	-2.9521	-2.4583	-3.2625	-2.7542	-2.8146	-3.0104	-2.7042	-3.0604	275.856	407.685	432.818	267.474	507.548	359.572	268.922	321.735	416.054	289.730	436.920	435.937	217.830	207.570	385.268	523.600	0.00012823	0.00018842	5.3008e-05	335.96	2.2185e-06	2.2002e-06	484.81	123.86	1.8843e-06	2.0723e-06	171.81	56.115	36.752	8.2568	1.4205e-06	14.206	0.00010484	4.9833e-05	5.8055e-06	327.66	5.5698e-07	2.197e-07	470.54	121.51	7.224e-07	4.2256e-07	168.39	55.111	36.246	8.1984	6.0457e-07	13.993	252.252	261.362	259.182	182.646	325.453	324.711	181.782	188.837	313.322	332.196	186.435	191.055	193.258	199.109	336.146	195.929	-8191	255	
1907.089	1	1	0	0	0.032025	0.11804	0.089675	0.23575	0.14478	0.15694	0.099507	0.075414	0.18699	0.31015	0.06608	0.13778	0.10743	0.2425	0.096194	0.23152	-2.5479	-2.6375	-3.0542	-2.7938	-2.8083	-3.0875	-2.8083	-2.975	-3.0167	-2.5125	-2.9188	-2.8542	-2.6854	-2.9813	-2.7646	-2.8396	182.495	198.169	510.901	387.292	199.448	455.192	243.099	326.068	511.173	288.024	419.500	524.130	418.063	442.486	477.214	437.213	0.00013634	0.0002288	6.1108e-05	345.42	2.2025e-06	2.554e-06	498.07	127.73	1.9077e-06	2.0838e-06	178.3	58.283	37.899	8.5033	1.4075e-06	14.67	0.00010891	5.4223e-05	1.2694e-05	337.13	7.7425e-07	2.7179e-07	483.07	125.36	7.4403e-07	3.7898e-07	173.86	57.326	37.449	8.4411	5.0165e-07	14.525	253.714	267.067	249.764	182.423	335.360	311.520	181.839	188.868	310.668	320.363	186.160	191.104	193.384	199.379	344.348	195.518	-8191	255	
1907.185	1	1	0	0	0.04441	0.21439	0.039086	0.097952	0.11966	0.12882	0.1723	0.14991	0.19193	0.31953	0.25413	0.115	0.33348	0.21751	0.071811	0.23197	-2.5604	-2.6792	-2.8458	-2.7604	-2.8875	-3.1104	-2.8812	-2.8271	-3.1521	-2.625	-3.1437	-2.7812	-2.7562	-3.125	-2.8125	-2.7	200.006	380.331	252.913	275.071	465.856	295.563	269.082	283.898	487.392	350.759	448.244	352.713	394.066	329.682	389.465	393.247	0.00014212	0.00021846	5.8557e-05	354.74	1.7853e-06	3.0129e-06	506.74	130.23	1.7555e-06	2.0091e-06	181.19	59.119	39.04	8.4192	1.3948e-06	14.688	0.00011613	6.2271e-05	9.6067e-06	346.95	7.4737e-07	4.5266e-07	495.86	128.25	6.9284e-07	5.4573e-07	177.36	58.238	38.294	8.4309	7.0263e-07	14.41	256.665	261.461	279.500	182.282	324.025	330.377	182.076	188.718	322.247	313.889	186.223	190.586	193.177	198.887	341.343	195.646	-8191	255	
1907.282	1	1	0	0	0.25914	0.091641	0.15495	0.027081	0.058682	0.21658	0.32014	0.20867	0.22151	0.092623	0.21728	0.24216	0.19173	0.23935	0.092235	0.081301	-2.5708	-2.4875	-2.9125	-2.9458	-2.5208	-3.1625	-2.8708	-2.7646	-3.0958	-2.5938	-3.1333	-2.8333	-2.7875	-3.1292	-2.7792	-2.7208	526.679	180.226	505.875	423.464	495.277	512.674	190.596	525.166	407.261	505.982	432.435	491.709	224.293	239.895	183.308	191.832	0.00013338	0.00027861	6.3461e-05	356.66	1.6392e-06	1.8785e-06	505.91	129.68	1.7586e-06	2.2928e-06	178.92	58.531	38.268	8.4434	1.3727e-06	14.475	0.00010683	5.6256e-05	1.2256e-05	346.15	7.5857e-07	4.5456e-08	492.74	126.78	7.6782e-07	4.8793e-07	175.29	57.415	37.685	8.3383	4.2142e-07	14.298	255.022	248.387	249.971	182.305	319.804	333.321	182.101	188.682	340.051	305.612	186.400	191.161	193.481	199.783	310.268	195.889	-8191	255	
1907.402	1	1	0	0	0.41804	0.30813	0.33914	0.065369	0.27243	0.16553	0.28375	0.30379	0.20052	0.058832	0.15483	0.17194	0.20233	0.17332	0.31095	0.28647	-2.6312	-2.6312	-3.0354	-2.9417	-2.5542	-3.125	-2.8854	-2.7479	-3.0917	-2.7042	-2.9313	-2.9417	-2.4	-3.1208	-2.8021	-2.5875	459.596	360.302	490.072	379.310	279.574	189.645	427.950	436.202	523.933	438.431	223.488	517.399	497.506	304.235	343.673	411.998	0.00013759	0.00016956	5.8476e-05	351.87	1.9433e-06	2.3071e-06	502.16	128.55	1.8598e-06	1.5942e-06	178.65	58.016	38.374	8.3939	1.4807e-06	14.396	0.00010481	4.4631e-05	1.0367e-05	342.44	6.8615e-07	4.6971e-07	489.04	126	5.5081e-07	4.1403e-07	174.07	57.114	37.453	8.3284	4.1169e-07	14.259	251.925	269.297	256.051	182.882	336.182	321.548	182.028	188.881	319.861	323.411	186.560	191.138	193.509	199.287	328.905	195.969	-8191	255	
1907.474	1	1	0	0	0.1865	0.17928	0.12162	0.33512	0.26363	0.1849	0.17519	0.17759	0.11827	0.11824	0.12143	0.10781	0.12904	0.1986	0.29062	0.26326	-2.7375	-2.7521	-2.9354	-3.1104	-2.6437	-3.0854	-2.9938	-2.6521	-3.1833	-2.7417	-2.9313	-3.0396	-2.6604	-2.8708	-2.7771	-2.7625	292.918	342.440	282.193	174.015	343.207	446.286	474.483	196.945	520.507	192.681	263.137	224.984	438.863	463.164	211.277	431.395	0.00013137	0.0002055	5.6064e-05	349.97	1.5821e-06	1.6643e-06	502.73	128.78	1.7405e-06	1.3237e-06	179.19	58.182	37.725	8.4486	1.8513e-06	14.672	0.00010537	6.6336e-05	1.2993e-05	341.7	6.4881e-07	2.2538e-07	489.23	125.9	6.4165e-07	3.4866e-07	174.34	57.31	37.358	8.4171	4.7734e-07	14.452	252.100	246.740	269.074	182.546	330.253	319.589	181.987	188.684	322.339	320.249	186.340	191.226	193.246	199.136	334.503	196.015	-8191	255	
1907.570	1	1	0	0	0.090508	0.061248	0.15528	0.11054	0.22536	0.1617	0.25967	0.16817	0.18353	0.14804	0.31095	0.23526	0.11497	0.30065	0.073817	0.14236	-2.7833	-2.5875	-2.6083	-3.15	-2.6292	-2.925	-3.0792	-2.5604	-3.1792	-2.7938	-2.7146	-3.1479	-2.4146	-3.0875	-3.075	-2.7125	334.856	296.185	324.669	461.360	381.543	256.613	307.068	320.528	219.147	189.491	179.463	483.942	358.991	514.059	288.485	429.764	0.00014	0.00021121	6.0438e-05	351.16	2.0357e-06	1.7591e-06	506.06	129.69	1.6474e-06	1.8055e-06	179.54	58.247	37.848	8.496	1.8466e-06	14.693	0.00010912	4.2029e-05	1.5182e-05	343.06	7.4812e-07	3.8637e-07	491.18	127.36	6.3372e-07	3.7614e-07	175.02	57.006	37.299	8.436	5.1867e-07	14.531	256.086	248.432	243.823	182.462	322.982	323.198	182.036	188.781	317.619	312.179	186.113	190.952	193.274	199.448	331.319	196.078	-8191	255	
1907.691	1	1	0	0	0.046679	0.22113	0.12155	0.013603	0.10167	0.11202	0.21732	0.13736	0.079718	0.1453	0.074362	0.24739	0.11395	0.23108	0.052247	0.10971	-2.5521	-2.7938	-2.7542	-3.1208	-2.8646	-3.0625	-3.05	-2.6667	-3.0729	-2.9625	-2.7583	-3.0396	-2.7625	-2.825	-3.1708	-2.7812	342.999	422.824	377.293	439.059	262.977	272.994	404.495	450.851	291.459	466.731	225.320	431.807	262.339	186.488	400.617	310.394	0.00014762	0.00017672	5.1165e-05	350	1.7292e-06	1.5496e-06	501.11	129.36	2.2198e-06	1.8686e-06	179.24	57.769	37.497	8.5097	1.7843e-06	14.616	0.00011209	3.3493e-05	1.3776e-05	342.42	7.2273e-07	2.036e-07	489.03	127.25	7.8512e-07	3.7329e-07	175.21	56.775	36.987	8.4391	3.2579e-07	14.529	252.870	247.125	269.331	182.745	326.315	300.432	181.625	188.642	320.112	308.128	185.932	191.034	193.143	199.482	337.847	196.103	-8191	255	
1907.785	1	1	0	0	0.1883	0.38499	0.14569	0.18371	0.15183	0.093523	0.11152	0.13488	0.20014	0.13026	0.1627	0.087438	0.29059	0.12827	0.18579	0.1135	-2.5542	-2.8688	-2.6562	-3.1771	-2.8083	-2.8979	-3.3125	-2.6771	-2.9896	-2.8208	-2.6104	-3.0271	-2.9646	-2.8896	-3.0771	-2.7896	314.321	393.822	252.318	292.777	315.234	359.307	485.716	277.792	229.128	330.524	453.300	448.576	476.968	397.360	246.277	182.241	0.00013307	0.00017507	6.1874e-05	352.33	2.087e-06	2.332e-06	508.28	131.58	1.5432e-06	2.5502e-06	184.08	59.477	38.469	8.834	1.5258e-06	15.163	0.00011345	4.4387e-05	1.373e-05	343.41	7.2572e-07	4.9907e-07	496.64	129.24	6.7554e-07	4.1214e-07	179.96	58.495	37.988	8.7215	2.6906e-07	15.039	255.709	264.280	266.498	182.345	312.129	323.198	182.051	188.811	303.690	311.452	186.215	191.287	192.948	199.524	329.148	196.240	-8191	255	
1907.883	1	1	0	0	0.1293	0.18487	0.29308	0.097422	0.27306	0.29094	0.30259	0.12223	0.19152	0.18412	0.23183	0.081616	0.13695	0.34509	0.21284	0.13644	-2.6354	-3.0417	-2.5375	-3.0479	-2.9771	-2.7521	-3.1042	-2.8	-3.0583	-2.7854	-2.8125	-3.0479	-2.925	-2.7583	-3.2271	-2.7833	421.243	383.859	210.159	202.008	459.204	459.284	469.310	383.582	336.495	479.837	245.774	233.643	184.419	192.900	436.104	413.666	0.000153	0.0001654	5.9704e-05	358.28	1.6334e-06	2.3265e-06	521.66	135.27	2.1616e-06	2.7449e-06	187.23	60.661	39.566	9.1111	1.5694e-06	15.607	0.00012005	2.7559e-05	1.6218e-05	349.33	5.5623e-07	5.0948e-07	507.92	132.45	8.8389e-07	3.0318e-07	183.77	59.836	38.791	9.0455	3.1606e-07	15.55	252.701	248.440	266.587	182.640	342.834	325.521	182.391	188.842	322.439	323.073	185.849	191.075	192.868	199.429	339.853	196.013	-8191	255	
1908.002	1	1	0	0	0.2149	0.12201	0.17308	0.10488	0.34331	0.058605	0.21187	0.17792	0.11901	0.15344	0.24671	0.2084	0.17428	0.095774	0.034224	0.18047	-2.4938	-3.1188	-2.7687	-3.1917	-2.9208	-2.6583	-3.15	-2.8625	-2.8792	-3.0979	-2.7396	-3.0958	-3.0083	-2.5833	-3.1792	-2.875	323.936	316.395	378.192	420.138	284.602	398.207	364.349	223.359	249.168	500.738	387.950	192.476	490.698	300.554	306.212	464.003	0.00014677	0.0002579	7.3689e-05	361.76	2.0314e-06	2.3017e-06	519.32	138.2	2.1222e-06	2.1404e-06	190.99	62.508	40.043	9.4409	1.6714e-06	16.117	0.00012311	4.2842e-05	1.9259e-05	352.03	7.5708e-07	4.7066e-07	507.73	135.93	9.4445e-07	3.6761e-07	186.77	61.16	39.543	9.3544	3.6469e-07	15.881	252.091	264.431	274.439	182.861	339.991	332.775	181.951	188.574	317.095	313.728	186.122	190.751	193.432	199.119	334.884	196.075	-8191	255	
1908.098	1	1	0	0	0.18353	0.030576	0.10227	0.1192	0.16168	0.096131	0.30654	0.11482	0.018595	0.10281	0.12992	0.25078	0.17078	0.36686	0.045922	0.16645	-2.4458	-2.9646	-2.7333	-2.975	-3.0021	-2.65	-3.1125	-2.8042	-2.8333	-3.0625	-2.8229	-2.8917	-2.9167	-2.6271	-3.0938	-2.8312	345.327	239.913	513.237	446.559	519.841	514.113	503.448	287.521	516.170	335.393	482.242	470.979	385.506	280.506	462.362	179.601	0.00014616	0.00017841	6.2113e-05	357.53	2.0181e-06	2.3689e-06	518.66	140.24	1.3407e-06	2.0965e-06	192.79	63.915	41.074	9.7306	2.6505e-06	16.169	0.00012245	1.7803e-05	1.5159e-05	348.43	5.9804e-07	6.0892e-07	508.1	137.98	9.495e-07	2.4918e-07	189.16	62.66	40.596	9.5876	6.9372e-07	16.095	252.222	261.058	269.147	182.839	322.854	325.502	181.963	188.778	317.105	315.810	186.144	190.655	193.634	199.201	334.882	195.738	-8191	255	
1908.170	1	1	0	0	0.11243	0.28809	0.020741	0.09429	0.31079	0.1259	0.25659	0.17418	0.080981	0.15108	0.26747	0.30353	0.18443	0.19201	0.084472	0.25954	-2.3937	-3.2021	-2.6958	-2.8854	-2.9979	-2.7083	-3.1312	-2.9146	-2.7125	-3.4125	-2.8083	-2.8729	-2.9375	-2.75	-3.0583	-2.8542	289.609	366.668	176.766	297.869	455.040	417.765	525.416	522.465	365.540	382.388	218.906	498.217	506.685	377.432	367.882	368.167	0.00016678	0.00025173	7.5332e-05	358.61	1.8463e-06	2.144e-06	526.51	142.03	2.298e-06	2.0945e-06	196.17	65.51	42.428	9.9012	2.1859e-06	16.606	0.00013636	4.3249e-05	1.8983e-05	349.83	5.9356e-07	7.3392e-07	511.71	139.82	1.0987e-06	2.7476e-07	192.34	64.642	41.88	9.7855	6.1511e-07	16.39	254.013	255.980	269.989	182.840	329.712	332.769	182.286	188.595	328.406	329.244	186.082	190.879	193.322	199.122	343.542	195.634	-8191	255	
1908.290	1	1	0	0	0.16676	0.332	0.14553	0.11422	0.10351	0.20955	0.14257	0.091012	0.22309	0.1891	0.10911	0.22405	0.10834	0.13102	0.13002	0.25824	-2.3167	-3.1562	-2.5625	-2.7875	-2.9771	-2.7188	-3.1625	-2.8458	-2.5854	-2.9917	-2.8521	-2.975	-3.0375	-2.6583	-2.9604	-3.0208	337.977	384.466	362.147	506.509	465.405	439.487	367.525	496.073	441.361	326.488	303.452	518.838	490.721	494.096	189.479	458.124	0.00015688	0.00023464	7.1956e-05	362.01	2.2618e-06	2.306e-06	529.56	144.51	1.7184e-06	2.0908e-06	200.95	68.265	44.279	10.096	2.0667e-06	17.076	0.0001341	3.1623e-05	1.5942e-05	353.56	6.7793e-07	6.9888e-07	518.27	142.21	1.085e-06	5.0783e-07	196.66	67.161	43.649	10.106	5.7135e-07	16.836	252.910	247.984	253.056	182.612	323.746	308.965	182.106	188.964	322.422	304.193	186.513	191.058	193.146	198.627	324.632	195.725	-8191	255	
1908.386	1	1	0	0	0.12378	0.11786	0.053819	0.053314	0.37954	0.22054	0.082342	0.22075	0.057889	0.050619	0.056012	0.16924	0.19693	0.1557	0.13175	0.13743	-2.3229	-3.1854	-2.7313	-2.7062	-3.0604	-2.6063	-2.9333	-2.8104	-2.6229	-3.0167	-2.825	-2.6125	-3.1896	-2.6917	-2.7479	-3.0458	207.968	470.292	441.846	231.725	253.549	511.018	518.513	407.696	455.431	508.817	391.219	479.077	172.734	444.275	241.713	445.316	0.00016194	0.00024969	7.7459e-05	366.42	1.6107e-06	2.6058e-06	535.6	147.02	2.0068e-06	2.9189e-06	203.45	69.901	45.434	10.279	1.9837e-06	17.077	0.00014055	5.1703e-05	1.8937e-05	357.78	7.4289e-07	7.0172e-07	521.7	144.57	1.3049e-06	4.5383e-07	198.95	68.367	44.498	10.22	6.9372e-07	16.871	254.895	261.874	255.377	182.802	344.419	324.088	181.924	188.456	308.760	324.854	186.077	190.499	193.072	198.937	334.348	195.196	-8191	255	
1908.483	1	1	0	0	0.28061	0.08532	0.30274	0.086071	0.078158	0.028974	0.085633	0.19547	0.20348	0.11372	0.12667	0.21365	0.20344	0.09529	0.2433	0.29505	-2.3646	-3.125	-2.8563	-2.8083	-3.2271	-2.8896	-2.8396	-2.9771	-2.7104	-3.0812	-3.0312	-2.8083	-3.2313	-2.6833	-2.9042	-3.1104	355.551	466.685	288.471	345.314	416.962	341.242	420.914	489.144	480.672	187.626	512.792	272.501	387.386	203.631	332.958	459.669	0.0001791	0.00019931	7.9383e-05	365	1.5216e-06	1.6569e-06	532.98	145.8	2.1522e-06	2.7675e-06	202.22	70.229	45.308	10.505	1.6969e-06	17.041	0.00015255	5.6418e-05	1.8292e-05	355.65	6.3239e-07	5.2085e-07	518.81	143.9	1.1737e-06	4.5193e-07	198.03	68.886	44.707	10.349	8.5256e-07	16.945	254.644	255.131	259.919	182.406	326.218	315.190	182.126	188.824	318.551	322.868	186.538	190.611	193.713	198.984	325.449	195.927	-8191	255	
1908.579	1	1	0	0	0.085685	0.21759	0.061493	0.11823	0.15002	0.082965	0.23068	0.32057	0.17508	0.24341	0.15894	0.11347	0.10711	0.15182	0.16177	0.10127	-2.2604	-3.0521	-2.9792	-2.7375	-3.0125	-2.6417	-2.9021	-3.1646	-2.6875	-2.9292	-3.0354	-2.5938	-3	-2.9708	-2.7188	-3.1979	385.489	375.833	349.345	392.097	365.690	178.391	473.054	430.077	419.698	198.081	239.081	461.199	425.356	463.176	474.793	347.388	0.00016413	0.00029582	7.1265e-05	363.57	1.8628e-06	2.8996e-06	537.85	148.25	2.1063e-06	2.7109e-06	206.02	71.274	46.488	10.634	2.0418e-06	17.55	0.00014168	7.349e-05	1.4974e-05	357.04	6.6524e-07	7.1025e-07	523.37	145.31	1.0692e-06	7.788e-07	201.59	70.508	45.731	10.537	7.2938e-07	17.35	252.845	266.125	265.564	182.638	326.322	322.494	181.865	188.533	315.371	319.667	185.741	190.803	193.011	198.415	326.850	195.690	-8191	255	
1908.698	1	1	0	0	0.2784	0.1606	0.16196	0.25559	0.29438	0.20217	0.1681	0.093564	0.045892	0.18455	0.049854	0.13041	0.46514	0.15276	0.15219	0.044344	-2.0604	-2.8271	-2.7792	-2.4958	-2.9729	-2.7375	-2.7125	-3.1312	-2.7146	-2.9042	-3.2062	-2.8854	-3.0563	-2.7417	-2.6479	-3.2167	285.811	410.154	379.753	384.051	488.388	177.146	199.762	380.450	452.873	322.561	226.627	231.466	527.859	490.400	461.940	226.534	0.00016225	0.00024215	7.275e-05	374.76	2.551e-06	2.4345e-06	547.49	148.82	1.5292e-06	2.6731e-06	207.69	72.504	46.947	10.643	2.6068e-06	17.408	0.00014774	6.9994e-05	1.7693e-05	365.66	6.9361e-07	6.4774e-07	533.34	146.38	1.0742e-06	5.391e-07	203.58	71.506	46.333	10.59	7.2695e-07	17.225	257.387	259.506	266.684	182.623	315.728	322.151	181.853	188.798	318.280	315.757	186.368	190.998	193.159	198.529	326.201	195.516	-8191	255	
1908.771	1	1	0	0	0.080368	0.069277	0.16373	0.1855	0.076111	0.16968	0.17324	0.14719	0.069754	0.096955	0.1744	0.23205	0.099652	0.22611	0.26073	0.077507	-2.2646	-2.7729	-3.0104	-2.4813	-2.9458	-2.9562	-2.6917	-3.1437	-2.9167	-2.8854	-3.1021	-2.7417	-3.1	-2.8917	-2.6375	-3.1375	190.436	233.353	440.367	260.039	445.584	373.917	225.893	254.406	443.132	530.104	187.351	371.232	311.555	376.956	217.238	230.611	0.00015477	0.00021453	8.5476e-05	375.71	1.9959e-06	2.8326e-06	541.28	146.21	2.1287e-06	2.342e-06	202.66	70.284	45.677	10.328	2.9346e-06	16.827	0.00013677	6.341e-05	1.4721e-05	366.76	6.4508e-07	5.4642e-07	527.97	143.57	1.054e-06	5.8742e-07	198.98	69.402	45.051	10.247	9.2631e-07	16.64	252.668	253.686	258.070	182.637	334.961	330.998	182.048	188.780	323.595	321.398	186.313	190.868	192.773	198.729	329.770	195.935	-8191	255	
1908.865	1	1	0	0	0.22273	0.11671	0.11309	0.11707	0.17424	0.049255	0.22385	0.11609	0.072965	0.12095	0.096651	0.11554	0.0085314	0.021676	0.18329	0.19286	-2.1917	-2.5354	-3.0687	-2.4208	-2.9958	-2.9646	-2.4521	-2.9375	-2.7125	-2.625	-3.2562	-2.8083	-2.8729	-2.9417	-2.6437	-2.9625	432.232	354.154	188.718	175.566	299.668	174.475	506.030	413.989	464.958	222.752	517.477	460.601	506.410	339.170	528.123	398.724	0.00016645	0.00023308	7.1578e-05	372.65	2.5336e-06	2.8761e-06	533.02	143.05	2.0788e-06	2.736e-06	201.79	69.464	45.176	9.9555	1.7317e-06	16.473	0.00013951	5.7394e-05	1.145e-05	362.78	9.2432e-07	6.3259e-07	521.78	141.1	9.8843e-07	6.3289e-07	196.88	68.38	44.263	9.9416	6.9939e-07	16.371	253.160	256.824	256.222	182.294	335.666	316.907	181.665	188.896	314.723	319.342	186.308	191.113	193.127	198.541	328.752	195.726	-8191	255	
1908.963	1	1	0	0	0.13848	0.013049	0.23843	0.15309	0.23988	0.18191	0.16341	0.085798	0.19715	0.15082	0.14687	0.15542	0.19591	0.17423	0.19962	0.13217	-2.3396	-2.9208	-3.2042	-2.6333	-3.0146	-3.0396	-2.5771	-2.9771	-2.9792	-2.6479	-3.1479	-2.725	-2.8625	-3.0062	-2.5625	-3.1833	307.512	497.710	388.085	520.290	205.623	322.853	479.694	449.571	376.184	386.607	300.178	354.926	485.701	237.237	406.768	454.215	0.00016274	0.00012566	6.8159e-05	371.42	1.8276e-06	2.1182e-06	537.63	142.3	2.3809e-06	2.0092e-06	199.92	68.707	44.328	9.8997	1.9516e-06	16.316	0.00013089	5.65e-05	1.327e-05	362.52	7.6678e-07	4.1289e-07	523.09	139.5	1.0202e-06	6.3195e-07	195.8	67.713	43.847	9.7381	7.1398e-07	16.223	258.889	234.776	264.790	182.539	334.760	320.207	181.947	188.732	328.509	343.728	186.316	191.346	193.249	198.904	319.879	195.918	-8191	255	
1909.082	1	1	0	0	0.024902	0.22456	0.17915	0.10877	0.19553	0.11229	0.19297	0.1239	0.10127	0.08613	0.14914	0.11431	0.040272	0.12171	0.117	0.14801	-2.2979	-2.4896	-3.3187	-2.8396	-2.7729	-3.1521	-2.6854	-3.125	-3.125	-2.7479	-3.0938	-2.9583	-2.95	-3.0167	-2.8187	-2.7917	361.371	399.852	215.008	298.022	521.451	382.202	460.976	464.044	261.570	489.457	489.968	220.200	248.639	379.963	338.146	450.767	0.00015533	0.00030717	7.8184e-05	371.53	1.6542e-06	1.9002e-06	538.89	140.99	1.73e-06	2.6598e-06	198.68	68.339	44.294	9.4919	1.9153e-06	16.141	0.00012994	6.91e-05	1.2993e-05	362.35	8.4443e-07	2.055e-07	521.74	138.42	9.1778e-07	7.6175e-07	194.61	67.353	43.688	9.4773	7.3667e-07	15.926	251.464	259.694	263.041	182.087	323.108	324.490	181.688	188.947	313.626	309.244	186.457	190.793	192.987	198.384	326.637	195.658	-8191	255	
1909.178	1	1	0	0	0.17812	0.073075	0.089836	0.043682	0.068524	0.15905	0.28318	0.28226	0.012811	0.053608	0.044052	0.20295	0.22993	0.1501	0.1497	0.10581	-2.6813	-2.5375	-3.1479	-2.8354	-2.6479	-3.0708	-2.6667	-2.8708	-2.9437	-2.7438	-3.0396	-3.0125	-2.7625	-3.3167	-2.9146	-2.8354	312.204	501.082	450.992	242.087	475.104	527.577	470.198	431.462	277.541	473.993	223.587	196.071	496.794	374.834	454.248	220.374	0.00015379	0.00021937	6.4947e-05	369.31	1.0078e-06	3.2177e-06	528.66	138.6	1.9622e-06	2.354e-06	195.84	66.964	43.648	9.4021	1.8827e-06	15.916	0.00012355	6.2597e-05	9.0998e-06	360.16	7.7947e-07	5.4831e-07	516.28	136.76	8.4857e-07	6.5279e-07	191.61	66.093	42.973	9.3313	7.0831e-07	15.669	256.739	243.509	241.230	182.683	317.654	328.648	181.801	188.667	316.188	325.557	186.537	190.944	193.703	198.827	330.067	195.703	-8191	255	
1909.274	1	1	0	0	0.16702	0.10675	0.095662	0.23945	0.17767	0.12881	0.10139	0.17482	0.1324	0.1883	0.16918	0.32273	0.20478	0.14117	0.079637	0.14045	-2.5667	-2.6271	-2.9646	-3.1125	-2.6958	-3.1437	-2.8208	-3.0104	-3.2271	-2.7229	-3.1	-3.1417	-2.6875	-3.1437	-2.8	-2.7479	243.637	192.811	400.801	494.945	357.097	307.142	330.829	517.555	382.663	280.362	344.127	521.295	292.355	399.158	193.830	365.213	0.00015107	0.00030864	7.3412e-05	365.83	2.1792e-06	2.4105e-06	527.67	136.68	2.0263e-06	2.1503e-06	194.47	66.64	42.973	9.346	2.232e-06	15.633	0.00012341	7.7961e-05	1.0137e-05	357.11	8.3174e-07	3.788e-07	511.66	134.54	8.3487e-07	5.8173e-07	189.25	65.37	42.302	9.2444	6.7751e-07	15.401	252.937	255.810	256.416	182.385	320.281	311.959	181.917	188.694	332.772	306.158	186.323	190.866	193.216	199.227	336.868	195.889	-8191	255	
1909.371	1	1	0	0	0.079536	0.2743	0.02243	0.23267	0.27402	0.10195	0.24005	0.036495	0.1774	0.14395	0.05187	0.20502	0.13349	0.14058	0.10488	0.17325	-2.7896	-2.6562	-3.0771	-3.0917	-2.8146	-3.1708	-2.7562	-2.8125	-3.2958	-2.7938	-2.85	-3.1854	-2.675	-3.1063	-2.8146	-2.9562	303.910	258.618	198.917	481.964	180.257	212.585	423.311	231.479	225.959	257.813	180.042	445.170	469.204	176.882	363.903	512.122	0.00014239	0.00027764	5.3797e-05	362.23	2.2815e-06	2.2908e-06	523.98	134.6	2.1388e-06	2.8886e-06	187.71	65.572	42.134	9.1778	2.2866e-06	15.332	0.00011155	6.1215e-05	1.2371e-05	353.88	8.2576e-07	2.6611e-07	509.1	132.47	7.6926e-07	7.4754e-07	184.92	64.07	41.489	9.1243	6.5725e-07	15.189	252.726	253.171	268.021	182.374	330.176	310.129	181.656	188.948	320.833	304.878	186.077	191.108	193.115	198.519	331.084	196.063	-8191	255	
1909.467	1	1	0	0	0.22939	0.095137	0.18461	0.2219	0.17803	0.064248	0.07531	0.19391	0.15433	0.10873	0.091553	0.041493	0.093954	0.38485	0.05507	0.046644	-2.7417	-2.6167	-2.975	-2.9521	-2.6708	-3.0854	-2.9208	-2.7354	-3.1917	-2.7	-2.9083	-3.0271	-2.6875	-2.9708	-2.7104	-2.6604	308.701	402.994	240.822	371.826	431.512	411.981	471.639	388.354	288.895	298.246	213.988	486.880	399.955	420.708	302.369	231.792	0.00014707	0.00025337	5.6106e-05	360.77	2.0874e-06	1.8987e-06	513.07	132.62	1.4442e-06	1.9137e-06	187.76	64.075	41.548	8.9636	1.8622e-06	15.022	0.00011229	5.7638e-05	1.0275e-05	351.04	8.6384e-07	3.9679e-07	502.97	130.23	7.2312e-07	5.1257e-07	182.67	63.097	40.788	8.9188	5.9728e-07	14.842	251.242	252.252	250.783	182.644	346.398	330.411	181.770	189.109	311.634	317.319	186.402	191.010	193.352	199.017	310.308	195.255	-8191	255	
1909.563	1	1	0	0	0.1953	0.14567	0.20489	0.089743	0.070327	0.099523	0.25306	0.15375	0.17426	0.15237	0.22694	0.33669	0.077253	0.12439	0.083502	0.22438	-2.6708	-2.75	-2.7583	-3.1229	-2.725	-2.9625	-2.8771	-2.5146	-3.0479	-2.7562	-2.9688	-3.1562	-2.7062	-3.0979	-2.9792	-2.5812	236.205	218.461	493.361	468.994	414.668	307.630	391.524	288.852	416.861	225.597	374.294	469.535	528.741	311.384	513.361	502.015	0.00013147	0.00020483	5.5712e-05	354.66	1.5732e-06	2.5045e-06	508.17	130.73	1.8064e-06	3.2344e-06	181.79	62.807	40.774	8.9236	1.7685e-06	14.761	0.00010674	5.4223e-05	1.2394e-05	347.43	7.1078e-07	4.5645e-07	496.4	128.05	7.3826e-07	6.7742e-07	179.05	62.086	40.235	8.8056	4.0116e-07	14.568	253.583	242.727	258.934	182.473	338.868	317.854	182.015	189.037	333.304	319.845	186.285	191.345	192.898	199.338	322.258	195.860	-8191	255	
1909.684	1	1	0	0	0.18668	0.12788	0.030762	0.16462	0.11216	0.20488	0.25718	0.12146	0.13693	0.094435	0.15129	0.23997	0.23657	0.088278	0.066896	0.11594	-2.7146	-2.8458	-2.7542	-3.1771	-2.7042	-2.8958	-2.9292	-2.7	-2.9792	-2.8917	-2.6417	-3.2458	-2.5833	-2.7083	-3.1042	-2.5208	324.789	335.752	360.228	442.862	498.921	412.258	442.264	256.602	295.055	265.398	247.745	448.030	527.012	392.190	457.569	234.388	0.00014458	0.00021326	5.3379e-05	355.1	2.2555e-06	2.4883e-06	506.35	128.89	2.1771e-06	2.7307e-06	182.11	62.927	40.638	8.8318	1.6153e-06	14.788	0.00011509	4.8695e-05	1.4767e-05	346.29	7.5708e-07	5.6346e-07	493.94	126.21	7.1447e-07	2.5297e-07	177.55	61.825	39.958	8.7514	4.1575e-07	14.542	255.598	265.635	269.251	182.509	333.522	318.834	182.099	188.875	321.855	308.354	185.940	191.229	193.742	198.737	341.904	196.060	-8191	255	
1909.780	1	1	0	0	0.31548	0.071254	0.093806	0.32008	0.27664	0.10112	0.12585	0.093379	0.076609	0.30033	0.28042	0.17442	0.022111	0.048732	0.17452	0.25541	-2.5458	-2.7271	-2.6021	-3.1042	-2.5979	-2.8354	-3.2479	-2.6437	-2.8688	-2.7979	-2.6667	-3.2792	-2.7938	-2.9521	-3.1708	-2.7354	529.678	337.860	246.194	502.912	389.858	509.668	340.721	440.182	382.674	195.282	406.049	395.048	506.156	450.647	381.525	301.410	0.00014125	0.00016734	3.5119e-05	355.28	1.8801e-06	2.6722e-06	506.78	128	1.6987e-06	2.9871e-06	182.59	63.547	40.629	8.8259	1.4762e-06	14.798	0.00011931	3.6664e-05	1.6195e-05	345.45	7.9739e-07	5.521e-07	494.22	125.64	6.8563e-07	3.9509e-07	178.06	62.342	40.076	8.7832	3.7522e-07	14.615	253.852	274.444	256.637	182.425	335.005	309.827	181.614	189.122	313.246	315.218	186.463	190.887	193.457	198.780	325.570	195.953	-8191	255	
1909.874	1	1	0	0	0.18801	0.19948	0.18398	0.29289	0.24211	0.19814	0.094405	0.10978	0.28602	0.16544	0.19775	0.031794	0.23539	0.13869	0.072639	0.14078	-2.5042	-3.0125	-2.5854	-3.2104	-2.6646	-2.8875	-3.1229	-2.6146	-3.0354	-2.85	-2.5708	-3.0625	-2.8	-2.575	-3.0583	-2.4583	452.544	510.449	255.574	500.605	428.317	500.475	398.979	519.694	404.796	405.976	183.588	364.946	377.079	465.176	265.834	441.370	0.00013374	0.00024104	6.5268e-05	356.71	1.4557e-06	2.3843e-06	512.19	127.11	1.9833e-06	2.337e-06	181.64	63.637	41.031	8.8094	1.6288e-06	14.695	0.000121	4.2761e-05	1.714e-05	348.28	5.9954e-07	4.574e-07	498.07	124.85	7.7359e-07	5.0878e-07	177.65	62.446	40.226	8.7622	3.655e-07	14.583	257.574	275.092	276.277	182.346	331.676	331.156	181.888	189.132	316.145	330.267	186.773	191.117	193.662	198.837	327.426	195.875	-8191	255	
1909.970	1	1	0	0	0.085589	0.14411	0.20037	0.17228	0.26486	0.32217	0.089861	0.12201	0.19304	0.12423	0.47209	0.21856	0.13578	0.021995	0.31567	0.2977	-2.5312	-2.9813	-2.5729	-3.1979	-2.8812	-2.6333	-3.3063	-2.7083	-2.8667	-3.1271	-2.625	-2.8708	-2.9562	-2.6937	-3.1	-2.8167	353.735	418.557	473.487	400.062	414.682	305.139	198.779	254.878	243.828	262.383	487.987	383.486	381.858	305.400	448.799	452.355	0.0001514	0.00020614	4.5986e-05	366.94	2.4167e-06	1.6244e-06	518.48	125.94	1.974e-06	2.6309e-06	180.33	62.92	40.356	8.8145	1.8628e-06	14.692	0.00011999	3.6989e-05	1.0735e-05	355.99	6.8092e-07	6.9794e-07	505.15	123.73	7.9738e-07	2.615e-07	176.71	62.137	39.972	8.7103	4.1331e-07	14.51	254.384	236.658	265.877	182.262	319.901	323.549	181.426	188.911	314.635	316.674	186.806	191.212	193.145	198.787	336.084	195.652	-8191	255	
1910.066	1	1	0	0	0.171	0.086193	0.20273	0.097522	0.13102	0.089667	0.18276	0.040436	0.075138	0.081527	0.34612	0.23041	0.28205	0.14103	0.058506	0.032727	-2.3729	-2.9833	-2.5417	-3.0229	-2.9938	-2.7354	-3.1333	-2.8583	-2.775	-3.1188	-2.7604	-2.9125	-2.9583	-2.7979	-2.9938	-2.8521	356.136	175.549	340.811	393.039	273.496	277.724	503.540	366.187	434.134	208.569	466.361	489.913	448.632	367.979	243.440	371.483	0.00013339	0.00023997	6.0918e-05	369.32	2.364e-06	2.0312e-06	520.64	123.61	1.8868e-06	1.7712e-06	181.97	63.279	40.315	8.8565	2.0808e-06	14.694	0.00011259	4.8777e-05	1.5067e-05	359.63	6.5777e-07	6.0702e-07	508.54	121.72	8.5433e-07	8.0533e-08	177.26	62.256	39.8	8.7731	5.5271e-07	14.56	252.794	242.516	252.915	181.956	326.441	306.729	181.476	188.955	317.927	296.098	186.600	191.410	193.442	198.567	335.566	195.781	-8191	255	
1910.163	1	1	0	0	0.033052	0.15466	0.18308	0.23432	0.11214	0.234	0.23125	0.44795	0.11504	0.38047	0.12321	0.25863	0.12553	0.23475	0.079279	0.20946	-2.3958	-2.9417	-2.7208	-2.9875	-3.0417	-2.6708	-3.125	-2.8292	-2.6625	-3.1208	-2.6417	-2.9125	-2.925	-2.65	-2.9875	-2.7812	415.378	432.734	506.845	453.998	365.946	421.587	514.599	391.507	416.279	435.548	420.712	512.108	425.870	511.533	445.150	452.936	0.00014448	0.00025714	5.7345e-05	373.06	1.7441e-06	2.4324e-06	526.31	124.58	1.9712e-06	2.5388e-06	182.92	64.485	40.427	8.8884	2.6503e-06	14.986	0.00012403	4.081e-05	1.7601e-05	361.64	6.182e-07	6.2596e-07	512.36	122.45	9.0985e-07	4.4151e-07	178.54	63.238	40.107	8.8185	6.4347e-07	14.78	255.061	258.143	269.669	182.347	322.843	323.684	181.718	188.893	309.796	321.364	186.815	191.273	193.567	198.955	320.726	195.429	-8191	255	
1910.259	1	1	0	0	0.099582	0.071095	0.17243	0.08623	0.12427	0.28191	0.031321	0.021265	0.11367	0.14161	0.2272	0.11987	0.072135	0.27233	0.062323	0.061578	-2.3042	-3.0167	-2.575	-2.8312	-2.9813	-2.5771	-3.1542	-3.1104	-2.7354	-3.2083	-2.7333	-2.925	-2.9729	-2.65	-2.8833	-2.9042	217.222	392.109	330.305	313.770	210.843	179.581	443.640	176.191	371.422	269.645	175.797	479.970	475.260	353.875	364.073	192.052	0.00014148	0.00019267	7.9314e-05	371.26	1.843e-06	2.8953e-06	531.78	125.02	2.157e-06	2.5295e-06	183.79	65.501	41.36	8.9787	2.1813e-06	15.159	0.0001199	3.8615e-05	1.9352e-05	362.19	7.2422e-07	7.576e-07	517.2	122.7	9.9348e-07	3.4961e-07	179.52	64.093	40.631	8.8907	4.8949e-07	14.93	253.666	260.988	259.162	182.290	337.103	325.742	181.537	189.014	322.635	332.224	186.642	191.208	193.495	199.211	336.463	196.075	-8191	255	
1910.379	1	1	0	0	0.022153	0.1873	0.11098	0.12722	0.28113	0.16468	0.22998	0.16545	0.51903	0.12878	0.16781	0.34038	0.25367	0.2552	0.15427	0.1709	-2.3146	-3.175	-2.6833	-2.7562	-3.1208	-2.6729	-2.9354	-2.8688	-2.4292	-3.0938	-2.9958	-2.8354	-2.95	-2.7208	-2.8042	-2.9792	237.316	307.147	434.967	456.385	260.252	222.789	515.347	486.106	244.824	420.241	193.449	259.187	245.488	465.477	199.214	428.946	0.00015125	0.0001902	4.9464e-05	373.79	1.8658e-06	2.132e-06	532.94	125.03	1.6602e-06	2.1165e-06	183.47	65.313	40.981	8.9252	2.7151e-06	15.033	0.00012335	3.707e-05	1.3039e-05	364.48	6.3986e-07	6.2123e-07	518.08	122.81	1.036e-06	3.894e-07	179.48	63.848	40.452	8.8781	7.1074e-07	14.839	254.355	253.445	255.880	182.262	335.483	314.223	181.352	188.919	323.179	320.954	186.666	191.348	193.604	198.746	325.696	195.473	-8191	255	
1910.475	1	1	0	0	0.085021	0.17248	0.14291	0.16685	0.30027	0.38979	0.21282	0.2053	0.22206	0.086209	0.3169	0.19357	0.045968	0.20162	0.10921	0.26048	-2.2417	-2.8854	-2.6562	-2.7396	-3.0729	-2.7	-2.8896	-3.0625	-2.6479	-3.0646	-2.8771	-2.7979	-3.1063	-2.7458	-2.7521	-3.0917	338.560	450.738	529.562	453.874	436.413	391.624	473.593	176.721	527.560	364.250	447.208	293.326	192.598	232.260	173.187	298.573	0.00013527	0.0002952	6.2529e-05	371.05	2.2327e-06	2.6538e-06	529.89	124.55	1.8558e-06	2.4187e-06	182.68	64.026	40.536	8.8095	1.8954e-06	14.898	0.00011987	4.7476e-05	1.7739e-05	362.57	6.7495e-07	5.9093e-07	515.87	122.53	8.5361e-07	4.1024e-07	178.75	63.038	40.05	8.7792	6.4185e-07	14.659	252.028	255.658	275.145	182.402	315.291	341.003	181.501	189.380	324.022	340.361	186.694	191.031	193.233	199.156	315.597	195.648	-8191	255	
#DATA ENDS
