BOXY.EXE: ISS Imagent and Oximeter Data Acquisition Program Version 0.80
Ascii Record File

#ACQ INFORMATION
2  Detector Channels 
16  External MUX Channels 
1  Auxiliary Channels 
5000  Waveform (CCF) Frequency (Hz)
1  Waveforms Skipped 
30  Waveforms Averaged 
1  Cycles Averaged 
16  Acquisitions per Waveform 
10.0806  Updata Rate (Hz) 

#FILE INFORMATION
TRUE -- External MUX Channel results are PARSED.
FALSE -- AC DC and Phase are NOT grouped.
TRUE -- Companion Program Settings File CREATED.
FALSE -- AC data not excluded
FALSE -- DC data not excluded
FALSE -- Phase data not excluded
FALSE -- Auxillary Chn. data not excluded
Tab delimiters

#CALIBRATION STATE
TRUE -- Waveform Calibration Values APPLIED.


#AUX CALIBRATION VALUES
Val Type	aux-1	

Term	1.0000e+00	
Factor	0.0000e+00	


#WF CALIBRATION VALUES
A = Detector Channel
Val Type	A-AC1	A-AC2	A-AC3	A-AC4	A-AC5	A-AC6	A-AC7	A-AC8	A-AC9	A-AC10	A-AC11	A-AC12	A-AC13	A-AC14	A-AC15	A-AC16	A-DC1	A-DC2	A-DC3	A-DC4	A-DC5	A-DC6	A-DC7	A-DC8	A-DC9	A-DC10	A-DC11	A-DC12	A-DC13	A-DC14	A-DC15	A-DC16	A-Ph1	A-Ph2	A-Ph3	A-Ph4	A-Ph5	A-Ph6	A-Ph7	A-Ph8	A-Ph9	A-Ph10	A-Ph11	A-Ph12	A-Ph13	A-Ph14	A-Ph15	A-Ph16	

Term	0.00000e+00	0.00000e+00	0.00000e+00	0.00000e+00	0.00000e+00	0.00000e+00	0.00000e+00	0.00000e+00	0.00000e+00	0.00000e+00	0.00000e+00	0.00000e+00	0.00000e+00	0.00000e+00	0.00000e+00	0.00000e+00	0.00000e+00	0.00000e+00	0.00000e+00	0.00000e+00	0.00000e+00	0.00000e+00	0.00000e+00	0.00000e+00	0.00000e+00	0.00000e+00	0.00000e+00	0.00000e+00	0.00000e+00	0.00000e+00	0.00000e+00	0.00000e+00	0.00000e+00	0.00000e+00	0.00000e+00	0.00000e+00	0.00000e+00	0.00000e+00	0.00000e+00	0.00000e+00	0.00000e+00	0.00000e+00	0.00000e+00	0.00000e+00	0.00000e+00	0.00000e+00	0.00000e+00	0.00000e+00	
Factor	1.00000e+00	1.00000e+00	1.00000e+00	1.00000e+00	1.00000e+00	1.00000e+00	1.00000e+00	1.00000e+00	1.00000e+00	1.00000e+00	1.00000e+00	1.00000e+00	1.00000e+00	1.00000e+00	1.00000e+00	1.00000e+00	1.00000e+00	1.00000e+00	1.00000e+00	1.00000e+00	1.00000e+00	1.00000e+00	1.00000e+00	1.00000e+00	1.00000e+00	1.00000e+00	1.00000e+00	1.00000e+00	1.00000e+00	1.00000e+00	1.00000e+00	1.00000e+00	X	X	X	X	X	X	X	X	X	X	X	X	X	X	X	X	

B = Detector Channel
Val Type	B-AC1	B-AC2	B-AC3	B-AC4	B-AC5	B-AC6	B-AC7	B-AC8	B-AC9	B-AC10	B-AC11	B-AC12	B-AC13	B-AC14	B-AC15	B-AC16	B-DC1	B-DC2	B-DC3	B-DC4	B-DC5	B-DC6	B-DC7	B-DC8	B-DC9	B-DC10	B-DC11	B-DC12	B-DC13	B-DC14	B-DC15	B-DC16	B-Ph1	B-Ph2	B-Ph3	B-Ph4	B-Ph5	B-Ph6	B-Ph7	B-Ph8	B-Ph9	B-Ph10	B-Ph11	B-Ph12	B-Ph13	B-Ph14	B-Ph15	B-Ph16	

Term	0.00000e+00	0.00000e+00	0.00000e+00	0.00000e+00	0.00000e+00	0.00000e+00	0.00000e+00	0.00000e+00	0.00000e+00	0.00000e+00	0.00000e+00	0.00000e+00	0.00000e+00	0.00000e+00	0.00000e+00	0.00000e+00	0.00000e+00	0.00000e+00	0.00000e+00	0.00000e+00	0.00000e+00	0.00000e+00	0.00000e+00	0.00000e+00	0.00000e+00	0.00000e+00	0.00000e+00	0.00000e+00	0.00000e+00	0.00000e+00	0.00000e+00	0.00000e+00	-1.56894e+02	-1.27752e+02	-1.28220e+02	-1.82394e+02	-8.05549e+01	-6.51345e+01	-1.55939e+02	-1.62015e+02	-8.46711e+01	-6.06474e+01	-1.70818e+02	-1.71805e+02	-1.80520e+02	-1.77372e+02	-7.45731e+01	-1.49506e+02	
Factor	2.48450e-05	1.80034e-04	5.53765e-05	1.74917e-01	1.47804e-06	1.91503e-06	1.73878e-01	5.40847e-02	1.39976e-06	1.81173e-06	9.61147e-02	3.08946e-02	3.55403e-02	9.85352e-03	1.70142e-06	1.43833e-02	1.14720e-05	1.78812e-05	4.98075e-06	8.74279e-02	1.80401e-07	1.98474e-07	8.17633e-02	2.71597e-02	1.79927e-07	1.99377e-07	4.67774e-02	1.50850e-02	1.80288e-02	4.99142e-03	1.87127e-07	7.05837e-03	X	X	X	X	X	X	X	X	X	X	X	X	X	X	X	X	



#DISTANCE SETTINGS
A = Detector Channel
A-1	A-2	A-3	A-4	A-5	A-6	A-7	A-8	A-9	A-10	A-11	A-12	A-13	A-14	A-15	A-16	

2.5000e+00	3.0000e+00	2.5000e+00	3.0000e+00	2.0000e+00	3.0000e+00	1.5000e+00	3.0000e+00	3.0000e+00	3.0000e+00	3.0000e+00	3.0000e+00	3.0000e+00	3.0000e+00	1.5000e+00	3.0000e+00	

B = Detector Channel
B-1	B-2	B-3	B-4	B-5	B-6	B-7	B-8	B-9	B-10	B-11	B-12	B-13	B-14	B-15	B-16	

1.0000e+01	1.0000e+01	1.0000e+01	1.4400e+00	1.0000e+01	1.0000e+01	1.5100e+00	1.9400e+00	1.0000e+01	1.0000e+01	1.9900e+00	2.4900e+00	2.4100e+00	2.9000e+00	1.0000e+01	2.9800e+00	




#DATA BEGINS
time	group	step	mark	flag	A-AC1	A-AC2	A-AC3	A-AC4	A-AC5	A-AC6	A-AC7	A-AC8	A-AC9	A-AC10	A-AC11	A-AC12	A-AC13	A-AC14	A-AC15	A-AC16	A-DC1	A-DC2	A-DC3	A-DC4	A-DC5	A-DC6	A-DC7	A-DC8	A-DC9	A-DC10	A-DC11	A-DC12	A-DC13	A-DC14	A-DC15	A-DC16	A-Ph1	A-Ph2	A-Ph3	A-Ph4	A-Ph5	A-Ph6	A-Ph7	A-Ph8	A-Ph9	A-Ph10	A-Ph11	A-Ph12	A-Ph13	A-Ph14	A-Ph15	A-Ph16	B-AC1	B-AC2	B-AC3	B-AC4	B-AC5	B-AC6	B-AC7	B-AC8	B-AC9	B-AC10	B-AC11	B-AC12	B-AC13	B-AC14	B-AC15	B-AC16	B-DC1	B-DC2	B-DC3	B-DC4	B-DC5	B-DC6	B-DC7	B-DC8	B-DC9	B-DC10	B-DC11	B-DC12	B-DC13	B-DC14	B-DC15	B-DC16	B-Ph1	B-Ph2	B-Ph3	B-Ph4	B-Ph5	B-Ph6	B-Ph7	B-Ph8	B-Ph9	B-Ph10	B-Ph11	B-Ph12	B-Ph13	B-Ph14	B-Ph15	B-Ph16	aux-1	digaux	

1842.674	1	1	0	512	0.073164	0.12948	0.19605	0.2019	0.30726	0.104	0.38173	0.14546	0.15317	0.13195	0.12856	0.27445	0.14188	0.24772	0.13078	0.12681	-2.4917	-3.5833	-2.9917	-3.3125	-3.4396	-3.0938	-3.3688	-3.5	-3.1646	-3.5583	-3.2958	-3.2542	-3.5646	-3.1396	-3.4375	-3.3458	-2.421	202.667	91.524	256.123	152.810	188.852	247.486	257.738	5.976	31.849	94.477	232.707	212.430	294.361	95.401	-27.986	0.00045338	0.00054081	0.0004413	1312.6	2.152e-05	1.1294e-05	1314.2	474.73	8.6305e-06	4.5364e-06	498.64	155.07	171.96	76.123	2.5022e-05	77.787	0.011397	0.017186	0.0048517	1167.2	0.00017605	0.00019089	1159.5	418.91	0.00017459	0.00019166	458.05	143.56	159.93	68.294	0.0001804	71.766	77.108	252.320	102.161	-33.243	81.080	40.106	-34.213	-28.724	188.655	59.752	-30.816	-27.943	-25.756	-20.246	173.151	-24.012	-8191	255	
1842.793	1	1	0	0	0.17033	0.10524	0.1158	0.19363	0.022755	0.082639	0.15771	0.2604	0.22093	0.017203	0.31403	0.098921	0.10381	0.21878	0.042685	0.18208	-2.5396	-3.3563	-3.1437	-3.3458	-3.575	-3.0104	-3.5729	-3.3708	-3.0354	-3.5667	-3.3021	-3.2021	-3.5604	-3.2417	-2.9875	-3.5375	-13.299	300.377	13.579	-3.375	-40.762	288.053	273.722	273.710	224.132	70.217	298.256	146.423	204.106	196.424	276.825	305.064	0.00018823	0.0036351	0.00083523	1316.4	7.4843e-06	2.6822e-05	1330.4	475.61	1.5275e-05	9.9573e-06	501.27	155.01	171.34	75.055	2.0416e-05	76.19	0.011451	0.017472	0.0049505	1173.2	0.00017898	0.00019666	1172.3	419.82	0.00017748	0.00019645	459.74	144.5	160.83	67.929	0.00019098	70.991	137.750	80.774	12.851	-33.297	294.447	152.319	-34.505	-28.869	57.954	58.458	-31.241	-27.666	-25.733	-20.186	173.011	-23.766	-8191	255	
1842.889	1	1	0	0	0.10914	0.27799	0.1462	0.21044	0.047305	0.23576	0.33379	0.30394	0.13375	0.10038	0.44825	0.15225	0.054562	0.24072	0.057078	0.19757	-2.6354	-3.375	-3.0854	-2.9979	-3.5104	-2.9688	-3.3563	-3.7521	-2.9688	-3.3125	-3.3479	-3.2687	-3.4146	-3.2396	-3.2	-3.425	278.151	18.915	199.233	-15.932	292.419	88.049	231.698	263.040	67.042	83.767	292.691	-6.603	261.905	251.198	171.281	252.052	0.0003956	0.0012805	0.00094611	1306.4	1.3321e-05	5.6585e-06	1296.5	471.17	2.5095e-05	1.3062e-05	489.07	150.78	170.38	74.254	3.0953e-05	74.546	0.011827	0.01873	0.0052169	1172.1	0.00018888	0.0002113	1160.1	418.52	0.00018784	0.00021228	455.51	142.48	160.28	67.35	0.00020646	70.25	161.032	170.029	-17.263	-32.922	-34.071	-34.716	-34.228	-29.092	107.578	-0.064	-31.129	-27.575	-25.869	-20.590	137.878	-23.811	-8191	255	
1842.985	1	1	0	0	0.14751	0.22123	0.23128	0.28001	0.23554	0.11844	0.1742	0.44405	0.13422	0.082674	0.14637	0.28735	0.25284	0.37009	0.12915	0.10858	-2.4896	-3.4646	-3.3833	-3.0938	-3.4562	-3.0896	-3.1813	-3.5104	-2.9688	-3.225	-3.3063	-3.0062	-3.7917	-3.0646	-3.2083	-3.7396	101.732	122.241	37.309	-46.697	183.343	120.864	249.737	264.069	266.638	70.193	290.758	308.131	286.889	277.078	28.341	303.720	0.00015575	0.00058806	0.00041933	1296.3	1.4336e-05	2.8121e-05	1282.7	465.64	4.5916e-06	3.5311e-06	489.56	149.21	167.58	73.764	9.491e-06	75.214	0.012802	0.02025	0.0056852	1165.5	0.00020359	0.00022719	1152.4	416.32	0.00019992	0.00022534	454.98	141.24	159.32	67.135	0.00020904	70.252	216.399	256.887	-39.610	-33.215	62.465	171.751	-34.274	-28.732	263.440	169.993	-31.408	-28.104	-25.501	-20.461	272.092	-23.561	-8191	255	
1843.081	1	1	0	0	0.18073	0.27083	0.17048	0.02642	0.052446	0.12633	0.24802	0.21071	0.090639	0.13437	0.30693	0.23837	0.13631	0.22502	0.1586	0.064268	-2.6417	-3.1708	-3.4604	-3.0062	-3.3958	-3.2396	-3.1167	-3.5042	-3.0812	-3.3146	-3.5438	-3.2354	-3.5708	-3.2	-3.1625	-3.5333	127.356	307.117	18.848	293.838	140.593	98.761	198.064	207.997	23.313	238.727	270.235	300.892	50.948	19.657	41.381	79.516	0.0003977	0.0023433	0.00071452	1289.9	1.2429e-05	5.5781e-06	1286	464.77	1.0189e-05	1.2334e-05	488.53	149.49	167.44	73.611	4.3502e-06	75.648	0.013141	0.020398	0.0057002	1164	0.00020412	0.00022772	1152.6	415.29	0.00019909	0.00022262	456.13	141.51	159.81	67.366	0.00021567	70.675	70.025	249.882	-34.372	-33.380	51.975	132.792	-34.260	-29.114	99.104	121.132	-31.509	-27.796	-26.182	-20.396	-23.770	-24.371	-8191	255	
1843.177	1	1	0	0	0.033111	0.25756	0.13651	0.20864	0.095231	0.15432	0.28981	0.11943	0.25243	0.16052	0.11149	0.10398	0.12395	0.17034	0.24506	0.22141	-2.7375	-3.3479	-3.3979	-2.975	-3.4313	-3.0917	-2.9958	-3.7854	-2.9771	-2.9562	-3.5167	-3.1562	-3.3292	-3.4021	-3.0521	-3.2833	140.295	36.181	110.330	229.524	-13.812	-2.134	225.278	292.434	140.568	233.758	-35.374	23.479	221.684	283.340	162.759	182.449	0.00043344	0.0021395	0.001014	1296.3	1.5508e-05	2.5576e-05	1290.5	464.84	1.7018e-05	1.3126e-05	487.07	148.95	166.62	72.608	3.7727e-05	73.846	0.013586	0.021081	0.0057919	1166.3	0.00021231	0.00023395	1157.3	417	0.00021091	0.00023526	457.2	141.95	160.73	67.032	0.00022961	70.073	117.977	103.028	23.667	-33.174	300.119	89.707	-33.768	-28.535	65.728	107.649	-30.960	-27.636	-25.666	-20.372	144.861	-23.422	-8191	255	
1843.273	1	1	0	0	0.064662	0.12214	0.18349	0.16016	0.1428	0.14289	0.25835	0.055866	0.097239	0.33345	0.070569	0.08228	0.23915	0.19533	0.081842	0.082663	-2.7729	-3.1604	-3.5354	-3.025	-3.35	-3.2396	-3.2562	-3.7917	-3.2125	-3.1312	-3.5375	-2.9396	-3.45	-3.3542	-3.1271	-3.5354	128.461	312.131	-32.154	-25.260	33.801	51.923	266.291	172.362	269.862	200.699	279.609	209.700	300.618	242.609	117.638	269.231	0.00019971	0.0031807	0.00056638	1283.7	2.0937e-05	2.4819e-05	1273	460.73	5.5812e-06	1.0222e-05	480	145.82	165.29	71.919	2.3493e-05	73.127	0.014482	0.022489	0.0062189	1164.9	0.00022424	0.00025015	1148	414.93	0.00022685	0.00025253	453.05	140.53	160.2	66.388	0.00023452	69.539	180.668	46.860	159.034	-33.287	87.716	135.799	-34.319	-28.907	39.981	-18.665	-31.193	-27.792	-25.549	-20.287	175.692	-24.262	-8191	255	
1843.370	1	1	0	0	0.15532	0.20847	0.18078	0.074872	0.13172	0.10835	0.21166	0.054474	0.20307	0.14046	0.028836	0.27483	0.045678	0.22462	0.06064	0.19241	-3.0125	-2.9896	-3.3792	-3.2542	-3.2458	-3.425	-3.3792	-3.6	-3.1292	-2.8021	-3.6229	-3.075	-3.1375	-3.6937	-2.8271	-3.3104	220.969	218.977	160.933	293.506	37.658	90.068	-13.120	259.142	221.754	259.253	6.647	255.789	-38.626	103.905	125.221	289.021	0.00064412	0.0014093	0.0008572	1269.5	1.7108e-05	1.9498e-05	1262	457.84	2.4308e-06	1.2451e-05	474.58	145.38	165.5	71.736	1.3747e-05	73.178	0.01469	0.023021	0.0063659	1160.1	0.00022717	0.00025069	1139.7	413.21	0.00022512	0.00025094	451.09	140.33	160.37	66.494	0.00023611	69.715	65.012	305.648	131.266	-33.345	44.777	38.829	-34.260	-28.738	163.914	34.039	-30.834	-27.651	-25.850	-20.273	3.209	-23.652	-8191	255	
1843.488	1	1	0	0	0.087578	0.14215	0.20184	0.29887	0.35088	0.148	0.30448	0.32175	0.16641	0.18458	0.15602	0.16035	0.27856	0.3073	0.14273	0.23659	-2.9125	-2.9917	-3.1937	-3.1208	-3.1229	-3.375	-3.2667	-3.5229	-3.2188	-2.9854	-3.7042	-3.0812	-3.05	-3.6896	-3.0667	-3.2833	88.772	216.927	218.022	225.864	304.742	175.693	256.487	234.418	234.663	258.050	312.019	201.507	269.056	292.207	121.513	237.746	0.00031083	0.00046174	0.00040253	1276.6	2.4039e-05	1.4014e-05	1258.3	462.33	1.5279e-05	1.9827e-05	483.9	148.47	167.71	73.298	1.2864e-05	74.531	0.014884	0.022561	0.0062598	1163.3	0.00022834	0.0002449	1140.5	415.77	0.0002185	0.00023742	454.37	141.71	160.26	67.053	0.00021689	70.17	87.433	54.393	-36.247	-32.700	133.007	70.088	-34.419	-28.810	114.348	102.727	-31.563	-28.001	-25.584	-20.162	71.743	-23.959	-8191	255	
1843.585	1	1	0	0	0.16742	0.15797	0.24702	0.22227	0.21205	0.23247	0.21054	0.24701	0.037232	0.14052	0.17037	0.07742	0.13398	0.052859	0.11851	0.068506	-2.9875	-2.9667	-3.4167	-3.5021	-2.875	-3.4354	-3.2271	-3.1937	-3.5104	-3.1125	-3.4354	-3.25	-3.125	-3.6688	-3.1063	-3.3854	104.558	175.177	117.418	265.018	59.444	39.077	267.193	277.277	165.188	38.651	45.973	38.441	-41.886	245.084	9.203	230.706	0.00012229	0.00015954	0.0012576	1297.5	5.712e-06	9.2192e-06	1284.2	466.94	1.4589e-05	1.8848e-05	486.92	153.77	169.91	74.061	1.0212e-05	75.033	0.013621	0.02081	0.0059057	1171.1	0.00021552	0.00023433	1155.8	417.99	0.00021227	0.00022896	458.05	144.14	162.17	67.516	0.00021731	70.818	142.181	57.624	83.609	-33.491	217.740	117.190	-34.596	-28.928	102.873	264.922	-31.316	-27.683	-26.098	-20.361	187.066	-23.852	-8191	255	
1843.681	1	1	0	0	0.0091563	0.10849	0.1215	0.52608	0.18485	0.17716	0.34584	0.18265	0.11739	0.23659	0.10602	0.14709	0.13238	0.14746	0.012797	0.33538	-2.9667	-3.0542	-3.3146	-3.15	-2.8667	-3.4375	-3.1354	-3.2458	-3.4146	-2.9167	-3.375	-3.4771	-2.8479	-3.5021	-3.1646	-3.3167	308.373	287.422	194.431	-46.341	19.498	291.820	233.010	245.327	257.894	-41.691	308.498	272.539	-31.432	216.333	249.680	255.395	0.00037325	0.0001206	0.00040117	1302.9	2.2303e-05	2.6173e-05	1283.5	467.65	2.172e-05	1.2943e-05	485.35	150.92	169.28	73.196	9.4658e-06	74.351	0.013567	0.021086	0.0059919	1174.2	0.00021427	0.00023546	1159.5	419.65	0.00021448	0.00023671	457.64	143.36	161.83	67.128	0.00022702	70.29	156.911	148.286	-39.639	-33.129	43.064	162.157	-34.445	-28.851	36.086	173.993	-31.136	-28.156	-25.771	-20.825	16.678	-23.787	-8191	255	
1843.777	1	1	0	0	0.047962	0.25724	0.22335	0.033724	0.079876	0.084241	0.31116	0.354	0.26484	0.1379	0.056826	0.19938	0.2275	0.31492	0.093502	0.074496	-2.9896	-2.8521	-3.4354	-3.5375	-2.7375	-3.3771	-3.3312	-2.9938	-3.4708	-3.0271	-3.1167	-3.3708	-2.9688	-3.5271	-3.0833	-2.9938	305.662	0.954	109.157	-29.641	164.251	182.546	269.112	300.158	192.567	110.758	245.575	215.129	231.731	281.488	94.762	184.595	0.00013823	0.0010572	0.00037258	1284.1	1.6954e-05	2.1323e-05	1266.7	466.14	1.0164e-05	2.2283e-05	482.37	150.65	168.06	72.021	8.9223e-06	73.426	0.014221	0.022182	0.0063214	1169.3	0.00022293	0.00024836	1149.8	418.74	0.00022145	0.00024825	456.48	143.53	162.29	66.87	0.00023764	70.201	244.033	152.233	7.473	-33.077	256.036	-8.943	-34.235	-29.149	1.431	269.417	-30.875	-27.686	-26.318	-20.385	246.919	-23.382	-8191	255	
1843.873	1	1	0	0	0.25321	0.23213	0.1822	0.23348	0.11149	0.090997	0.34087	0.18286	0.21786	0.058308	0.098526	0.099199	0.20085	0.30211	0.089407	0.099254	-3.0292	-2.9688	-3.125	-3.5229	-2.9437	-3.3042	-3.5	-3.1104	-3.6437	-3.0729	-3.2667	-3.4875	-3.0833	-3.4167	-3.4813	-3.1396	159.613	-44.152	5.006	-14.056	-44.624	225.430	252.630	204.070	161.751	198.283	290.577	216.974	159.488	245.015	19.049	-25.152	0.00017922	0.001483	0.00076746	1286	4.1184e-05	2.2804e-05	1270.7	463.96	7.3105e-06	1.8495e-05	478.69	148.64	169.31	72.385	1.163e-05	72.858	0.0147	0.023086	0.0064509	1172.4	0.00022913	0.00025294	1152.6	418.65	0.0002239	0.00025351	455.45	142.77	162.36	67.096	0.0002423	70.023	171.870	279.324	158.559	-32.899	117.179	195.493	-34.430	-28.921	179.360	96.710	-31.380	-27.466	-25.780	-20.165	49.771	-23.751	-8191	255	
1843.969	1	1	0	0	0.22494	0.08288	0.079498	0.19772	0.18277	0.12524	0.57211	0.18123	0.073378	0.18669	0.0354	0.1153	0.19865	0.16604	0.06328	0.17806	-3.0604	-3.2854	-3.0104	-3.4354	-3.0917	-3.3854	-3.3375	-3.1708	-3.5125	-2.9292	-3.2062	-3.5833	-3.075	-3.45	-3.4062	-3.0917	-23.908	29.668	283.877	260.989	163.021	297.540	217.499	268.299	4.498	3.378	155.069	216.254	113.266	183.684	99.108	29.330	0.00044861	0.0017168	0.00046421	1283.3	2.0376e-05	1.968e-05	1268.2	462.7	1.245e-05	1.9151e-05	478.17	148.64	166.82	72.769	1.5238e-05	73.597	0.014977	0.023295	0.0064658	1172.1	0.00023368	0.00026156	1155	418.46	0.00023901	0.00026807	459.49	143.12	163.29	67.387	0.00025281	70.351	101.066	95.503	-10.788	-33.108	103.350	118.211	-34.605	-28.636	133.979	247.904	-31.454	-27.684	-25.967	-20.357	85.294	-23.629	-8191	255	
1844.090	1	1	0	0	0.18359	0.27243	0.19578	0.20834	0.14532	0.050908	0.10362	0.30012	0.25088	0.21838	0.059807	0.12039	0.28753	0.30621	0.20545	0.17457	-3.1729	-3.0125	-2.9229	-3.6521	-2.8833	-3.3688	-3.725	-3.0938	-3.425	-3.3979	-3.0833	-3.6708	-3.0708	-3.2479	-3.5125	-3.0104	306.842	55.502	-31.029	275.254	223.256	189.653	192.537	253.027	227.077	241.467	183.739	-3.853	301.506	-38.128	239.528	236.381	0.00031291	0.0013185	0.00038927	1279.9	2.3512e-05	8.2849e-06	1258.7	460.25	2.557e-05	6.523e-06	475.99	146.02	164.19	71.808	2.054e-05	71.416	0.015498	0.024105	0.0067483	1173.8	0.00024487	0.00027297	1153.6	418.65	0.00025244	0.00027727	458.7	142.28	162.21	67.197	0.00025913	69.537	168.371	-1.257	29.107	-33.096	117.226	40.184	-34.809	-28.732	40.358	242.401	-31.421	-27.660	-25.603	-20.171	191.187	-23.856	-8191	255	
1844.186	1	1	0	0	0.14486	0.047219	0.13597	0.12475	0.067684	0.094689	0.22314	0.15949	0.21275	0.18507	0.31901	0.085401	0.17656	0.05337	0.18412	0.1372	-2.9229	-3.3937	-3	-3.4042	-2.8354	-3.1604	-3.5583	-2.95	-3.2375	-3.2042	-2.925	-3.5833	-3.0833	-3.1458	-3.5604	-2.9854	7.921	216.694	194.811	227.274	-15.040	2.033	183.258	-24.605	130.823	42.380	285.360	313.136	-26.715	310.051	68.266	134.360	0.00020453	0.0029371	0.00030002	1273.2	2.5673e-06	8.0611e-06	1235.8	456.15	1.8438e-05	1.163e-05	464.67	142.81	163.73	71.325	7.5845e-06	71.322	0.016129	0.024918	0.0068538	1166.8	0.00025136	0.00027336	1133.2	415.07	0.00024937	0.00027559	451.22	140.47	160.89	66.784	0.00025554	69.086	80.176	36.160	-34.687	-32.932	309.584	128.492	-34.656	-28.792	188.320	147.722	-31.219	-27.315	-26.009	-20.327	7.097	-24.008	-8191	255	
1844.280	1	1	0	0	0.15374	0.098896	0.13796	0.22854	0.1622	0.12555	0.3008	0.37893	0.12847	0.11447	0.18583	0.29769	0.072232	0.48287	0.1815	0.26055	-2.75	-3.1875	-2.8458	-3.5458	-3.1042	-2.9813	-3.7521	-3.1083	-3.0021	-3.2458	-2.9208	-3.5354	-3.4625	-2.9729	-3.4396	-3.1271	300.843	215.063	100.409	268.249	247.877	111.315	252.000	270.570	105.563	236.435	171.315	232.664	202.064	-44.370	45.160	228.717	0.00029505	0.0020466	0.00030409	1262.3	3.4359e-05	3.3427e-05	1245.9	461.1	1.2221e-05	1.6116e-05	471.68	143.95	163.3	71.6	1.5539e-05	71.593	0.015729	0.024012	0.0065702	1158.6	0.00023619	0.00025684	1129.8	415.16	0.00023156	0.00025453	449.8	139.77	159.86	66.595	0.00024487	69.079	86.272	8.080	-42.765	-33.406	-27.440	18.826	-34.228	-28.956	127.245	23.167	-31.261	-27.634	-25.856	-20.619	29.395	-23.847	-8191	255	
1844.377	1	1	0	0	0.15779	0.013024	0.15092	0.39444	0.15582	0.20158	0.35684	0.27439	0.29355	0.15477	0.16293	0.25036	0.10382	0.098588	0.12811	0.15909	-2.6437	-3.4854	-2.9188	-3.4313	-3.3708	-2.9354	-3.55	-3.1021	-3.2833	-3.5812	-3.0958	-3.6208	-3.4167	-3.0458	-3.55	-3.2896	189.153	145.461	249.779	233.310	-34.982	-8.013	255.826	251.455	9.201	4.557	279.059	268.699	-37.018	310.325	88.983	277.879	0.000439	0.0017836	0.00060952	1275	1.0258e-05	1.0734e-05	1248.4	461.66	1.2175e-05	1.5489e-05	477.91	145.69	164.48	73.171	1.5277e-05	73.609	0.015336	0.023481	0.0065384	1162.9	0.00023812	0.00026036	1138.4	416.64	0.00023176	0.00025386	453.2	141.01	159.96	67.202	0.00023398	70.044	128.882	19.780	285.345	-32.994	312.122	62.349	-34.364	-28.818	-44.385	44.572	-31.126	-27.741	-25.689	-20.460	90.823	-24.097	-8191	255	
1844.473	1	1	0	0	0.13906	0.049565	0.21005	0.036509	0.10585	0.14174	0.18779	0.17787	0.21521	0.28458	0.041738	0.1965	0.14393	0.20071	0.051494	0.045049	-2.6146	-3.3521	-3.0792	-3.1875	-3.3708	-3.0833	-3.5667	-3.1458	-3.3917	-3.4813	-3.1042	-3.4417	-3.3	-3.1063	-3.3229	-3.3812	92.951	-24.561	197.595	46.616	76.141	264.442	141.635	220.259	256.974	238.626	13.979	268.628	273.896	238.399	59.698	300.009	0.00064135	0.0010085	0.00081783	1283.2	1.4703e-05	1.3656e-05	1260.9	464.16	1.2537e-05	1.4076e-05	483.71	150.16	167.45	73.96	3.4519e-05	74.181	0.014601	0.022359	0.0062011	1167.4	0.00022489	0.00024346	1148.9	418.43	0.00021926	0.00024158	454.94	142.3	160.76	67.449	0.00022451	70.112	91.636	85.610	27.494	-33.005	184.617	108.172	-34.648	-28.884	62.571	248.414	-31.014	-27.816	-26.242	-20.200	75.443	-23.575	-8191	255	
1844.569	1	1	0	0	0.18737	0.18672	0.16366	0.13101	0.10794	0.14871	0.044663	0.25944	0.01364	0.10868	0.054298	0.065271	0.13984	0.24789	0.15867	0.084234	-2.7625	-3.2771	-2.8917	-3.1083	-3.4271	-2.7812	-3.2979	-3.3333	-2.9167	-3.5771	-2.9625	-3.1104	-3.5229	-3.1625	-3.2625	-3.175	117.145	37.142	105.290	292.369	266.308	267.397	-1.148	259.013	281.055	41.583	180.457	254.302	308.587	277.365	241.059	152.730	0.00042133	0.00018186	0.00081558	1296.3	7.2826e-06	2.6169e-05	1265.6	464.71	9.3447e-06	1.6324e-05	480.15	148.1	167.46	73.145	1.1888e-05	74.145	0.013821	0.021243	0.0059547	1168.9	0.00021262	0.00023008	1140.3	416.62	0.00021455	0.0002366	452.92	141.06	160.35	67.138	0.0002244	69.764	136.461	89.232	18.545	-33.071	104.115	61.005	-34.311	-28.891	194.023	151.502	-31.334	-28.187	-26.042	-20.633	293.553	-23.859	-8191	255	
1844.665	1	1	0	0	0.080628	0.24701	0.13751	0.11811	0.079407	0.058934	0.22776	0.36465	0.36268	0.19403	0.062364	0.12937	0.028118	0.17543	0.13398	0.26962	-2.4208	-3.4188	-3.1688	-3.1958	-3.4479	-2.8958	-3.4479	-3.2125	-2.9375	-3.6021	-3.1063	-3.0854	-3.4021	-3.2146	-3.2125	-3.4	-37.330	-29.741	45.393	261.163	24.714	307.195	246.487	232.130	239.148	148.691	263.253	57.265	264.213	53.410	144.286	224.170	0.00033809	0.0027884	0.00023575	1299.6	2.0016e-05	1.9014e-05	1276.1	468.6	9.1815e-06	9.7105e-06	486.37	150.08	169.23	74.27	1.5479e-05	74.918	0.013437	0.020461	0.0057034	1164.7	0.00019796	0.00021751	1139	417.54	0.00018805	0.00021043	451.54	140.34	158.85	67.267	0.00019072	69.549	135.927	95.262	145.945	-33.417	171.644	142.983	-33.992	-28.896	120.524	107.692	-30.717	-28.217	-25.666	-20.443	188.785	-23.428	-8191	255	
1844.761	1	1	0	0	0.17792	0.1506	0.095616	0.33314	0.15856	0.0079167	0.20379	0.31951	0.21462	0.16099	0.12996	0.051611	0.13004	0.16214	0.098023	0.062183	-2.5792	-3.2729	-2.8312	-3.0083	-3.5396	-2.9104	-3.3292	-3.3438	-2.9688	-3.4833	-3.1146	-2.9542	-3.6375	-3.1396	-3.0417	-3.4313	252.717	78.257	39.934	297.936	86.130	94.312	288.260	214.795	-43.264	208.063	257.537	246.100	293.104	-44.833	290.964	58.900	0.00023825	0.0036299	0.00033339	1314.8	2.0004e-05	1.6281e-05	1310.6	474.42	6.2405e-06	1.3984e-05	500.22	155.67	173.99	76.58	2.5617e-05	77.601	0.011419	0.017775	0.004959	1167.3	0.00017577	0.00019495	1157.4	420.3	0.00017058	0.00019206	458.02	143.36	161.1	68.738	0.00017282	71.165	68.521	84.672	82.569	-33.299	117.965	245.851	-34.681	-29.006	234.325	83.008	-31.047	-27.787	-26.073	-20.230	113.274	-24.624	-8191	255	
1844.882	1	1	0	0	0.26501	0.13019	0.13146	0.07801	0.053323	0.22189	0.1721	0.10934	0.071428	0.26699	0.19372	0.056852	0.16755	0.1351	0.10582	0.33004	-2.4271	-3.2958	-3.1771	-3.1458	-3.5083	-2.9646	-3.2896	-3.6333	-3.0396	-3.4771	-3.2854	-3.0104	-3.35	-3.1417	-3.2	-3.6021	69.263	252.341	20.132	289.063	32.394	113.951	299.789	-17.972	129.278	-41.877	199.586	43.035	308.672	247.226	115.790	279.970	0.0002401	0.0030297	0.00051844	1336.4	1.1539e-05	6.3948e-06	1338.1	490.14	2.0797e-05	2.0164e-05	508.96	158.01	175.81	77.47	1.4344e-05	79.297	0.010677	0.016489	0.004589	1179.4	0.00016445	0.00017985	1176.3	428.14	0.00016028	0.0001773	463.64	145.14	162.19	69.267	0.00016305	71.797	75.460	148.282	302.262	-33.007	75.772	45.463	-34.381	-29.310	171.153	146.315	-31.381	-27.570	-25.389	-20.494	204.441	-24.007	-8191	255	
1844.978	1	1	0	0	0.21937	0.18297	0.19403	0.26917	0.20116	0.065295	0.24268	0.10069	0.16091	0.072492	0.11922	0.24099	0.14427	0.13099	0.03779	0.14799	-2.3812	-2.95	-3.2188	-3.1562	-3.3854	-3.0938	-2.9167	-3.5146	-2.8979	-3.3917	-3.4583	-2.8708	-3.4708	-3.3063	-2.9938	-3.45	259.797	156.062	-34.852	303.703	155.816	-45.217	245.623	15.792	149.155	139.534	274.818	262.892	92.611	234.167	138.964	267.136	0.00023585	0.0021391	0.00053021	1339.7	1.2205e-05	2.5504e-05	1337.6	483.41	1.2618e-05	3.0541e-05	505.59	154.85	174.63	76.625	1.9044e-05	76.944	0.010046	0.015729	0.0042835	1185.3	0.00015871	0.00017426	1170.1	424.92	0.00015675	0.00017604	457.71	142.15	160.68	68.439	0.000164	70.187	57.031	32.687	81.229	-33.496	-8.882	125.477	-34.270	-29.145	223.246	145.536	-31.042	-27.560	-25.841	-20.462	99.167	-23.713	-8191	255	
1845.050	1	1	0	0	0.1375	0.085453	0.051277	0.13471	0.18986	0.15163	0.081789	0.1564	0.089008	0.026609	0.10057	0.12547	0.25762	0.25177	0.067089	0.22357	-2.4604	-3.1521	-3.0917	-2.9083	-3.4458	-3.3604	-3.1583	-3.5875	-2.9646	-3.2	-3.5208	-2.9083	-3.3333	-3.3333	-2.8771	-3.4479	128.578	288.861	230.542	268.146	153.968	73.801	242.523	241.849	259.774	148.288	-23.259	133.917	276.207	301.188	-42.038	234.138	0.00026265	0.0013642	0.00047718	1329.4	9.9309e-06	7.3905e-06	1321.4	478.83	1.0763e-05	5.3842e-06	499.2	151.68	170.55	75.716	1.6994e-05	75.482	0.010144	0.015673	0.00437	1176.6	0.0001615	0.00017849	1160.6	420.81	0.00016013	0.00017734	452.34	139.98	158.07	67.404	0.00016762	69.465	104.340	103.906	93.806	-32.939	222.337	276.413	-34.202	-28.926	25.679	32.807	-30.869	-27.468	-25.757	-20.636	76.466	-24.274	-8191	255	
1845.170	1	1	0	0	0.22529	0.02817	0.17147	0.30638	0.081972	0.13536	0.43342	0.35119	0.27857	0.26956	0.21431	0.32488	0.34654	0.23156	0.1823	0.21379	-2.7167	-3.15	-3.3354	-3.1479	-3.0646	-3.1708	-3.0563	-3.5021	-2.9042	-3.0333	-3.3792	-2.9396	-3.2167	-3.3979	-2.9562	-3.2438	239.972	229.692	105.576	285.865	173.239	307.680	243.051	284.478	107.360	60.899	253.606	-38.855	263.496	248.334	290.537	248.390	0.00020269	0.0019643	6.6887e-05	1324.7	1.0693e-05	2.8855e-05	1302.6	480.51	2.3157e-05	1.2809e-05	499.57	151.1	170.99	75.486	1.1422e-05	76.463	0.010541	0.016238	0.0044821	1167.2	0.0001629	0.00018134	1151.5	420.27	0.00016068	0.00017786	453.02	139.57	157.63	67.494	0.00015964	70.123	141.760	20.753	263.704	-33.243	62.139	124.132	-34.438	-29.017	75.967	70.749	-31.048	-27.750	-25.692	-20.427	161.323	-23.886	-8191	255	
1845.266	1	1	0	0	0.18525	0.28784	0.12748	0.17285	0.25625	0.20518	0.23534	0.28102	0.042426	0.14756	0.30854	0.2549	0.12928	0.17266	0.087037	0.44549	-2.7125	-3.1333	-3.6104	-3.0417	-3.1479	-3.4292	-2.9083	-3.4104	-3.2083	-3.0292	-3.4188	-3.1396	-3.2146	-3.3958	-2.9	-3.4167	-42.008	0.600	62.402	309.544	-15.368	-42.035	242.135	269.824	298.468	37.923	19.259	280.935	280.327	308.831	287.750	191.173	0.00030647	0.0006481	0.0002405	1322.2	1.8865e-05	1.6799e-05	1316.5	479.87	1.8096e-05	1.7899e-05	505.12	152.63	171.65	75.731	1.1446e-05	77.297	0.010127	0.015448	0.0043335	1169.3	0.00015831	0.00017543	1158.1	420.35	0.00015997	0.00017582	455.81	140.11	157.97	67.606	0.00015959	70.401	66.331	229.700	223.916	-33.654	262.340	69.510	-34.385	-28.785	-10.819	180.606	-31.279	-27.608	-25.839	-20.522	184.329	-24.113	-8191	255	
1845.363	1	1	0	0	0.13723	0.10911	0.27665	0.38656	0.17547	0.084295	0.040075	0.14235	0.031467	0.13231	0.19306	0.17863	0.36065	0.11772	0.11539	0.20428	-2.5667	-2.8229	-3.4396	-3.1875	-3.0896	-3.3958	-2.9479	-3.3937	-3.2708	-3.0667	-3.4396	-3.0458	-3.4542	-3.4021	-2.8896	-3.5292	148.911	200.807	309.389	-40.668	293.363	-13.863	137.106	227.283	121.249	25.536	-37.053	227.572	-20.258	293.001	134.078	269.877	7.8038e-05	0.0016357	0.00030327	1320.4	1.5177e-05	8.5284e-06	1313.4	476.31	3.7315e-06	1.7741e-05	499.22	150.98	170.08	75.383	1.4072e-05	75.993	0.0099963	0.015156	0.0042964	1168.1	0.00015793	0.00017326	1156	419.51	0.00015406	0.00016775	452.73	138.79	156.61	67.055	0.00015552	69.325	264.961	16.911	4.961	-33.282	37.791	115.632	-34.084	-28.763	197.519	99.879	-31.107	-27.625	-25.930	-20.285	185.625	-24.205	-8191	255	
1845.481	1	1	0	0	0.25195	0.13468	0.26644	0.27767	0.19169	0.11058	0.074048	0.32264	0.2025	0.13888	0.078951	0.1298	0.27739	0.22986	0.12225	0.14922	-2.8333	-2.8167	-3.3146	-3.2313	-3.1083	-3.475	-2.9188	-3.4375	-3.0312	-2.85	-3.4792	-3.3292	-3.2229	-3.5167	-2.8563	-3.35	300.773	-21.526	94.757	264.484	5.703	74.689	148.639	241.046	-2.602	-10.767	256.772	15.734	303.115	271.077	287.872	200.518	0.00028401	0.0020322	0.00036563	1325.6	7.1838e-06	1.9011e-05	1307.2	479.52	1.5411e-05	8.4516e-06	502.82	152.05	171.64	75.593	1.9053e-05	77.277	0.009713	0.014968	0.004218	1164.2	0.00014886	0.00016284	1148.4	418.5	0.00014409	0.00015721	451.03	138.61	156.74	67.281	0.00014417	69.762	68.250	146.301	246.104	-33.384	221.886	101.094	-34.177	-28.885	16.728	175.922	-31.172	-27.835	-26.256	-20.400	161.933	-24.158	-8191	255	
1845.578	1	1	0	0	0.29885	0.045198	0.14436	0.42147	0.21733	0.10678	0.24173	0.17937	0.090493	0.084732	0.097526	0.11791	0.34029	0.10295	0.19175	0.37406	-2.7667	-2.7458	-3.4021	-3.5021	-2.8875	-3.4271	-3.2792	-3.2667	-3.2208	-3	-3.4229	-3.4	-2.8458	-3.7521	-2.9188	-3.3396	214.930	288.959	299.854	310.534	91.627	285.671	239.561	290.942	257.495	97.500	296.662	215.535	247.256	274.696	129.675	238.673	5.4435e-05	0.0017617	0.00028125	1336.3	2.0408e-05	8.1842e-06	1332.3	483.56	4.4054e-06	1.4872e-05	507.31	154.47	173.28	77.466	6.5859e-06	78.498	0.0087882	0.013556	0.00385	1167.7	0.00013841	0.00014995	1160.8	420.46	0.0001372	0.00015196	454.94	139.65	157.5	68.021	0.0001362	70.648	-31.212	148.267	90.259	-32.836	87.936	135.120	-34.424	-28.577	130.643	-29.131	-31.255	-27.529	-25.545	-20.434	178.539	-23.958	-8191	255	
1845.649	1	1	0	0	0.19538	0.26606	0.11931	0.25867	0.36384	0.15711	0.38012	0.046593	0.25152	0.10819	0.18089	0.19725	0.087144	0.10917	0.12554	0.173	-2.9792	-2.7833	-3.3312	-3.1396	-2.8708	-3.6542	-3.2125	-3.1208	-3.375	-3	-3.2417	-3.3625	-2.9875	-3.6021	-3.1292	-3.2021	-7.122	116.183	-2.585	-45.021	93.344	166.807	262.284	235.810	29.753	106.309	51.083	65.723	146.821	250.984	14.447	163.038	0.00022018	0.001185	0.00093706	1346.5	2.0343e-05	1.3766e-05	1353	489.3	9.2453e-06	1.6356e-05	515.41	157.81	174.24	77.979	5.2822e-06	80.391	0.0083459	0.012818	0.0035588	1172.3	0.00012648	0.0001428	1170.3	424.35	0.00012644	0.00014353	459.86	142.18	158.88	68.948	0.00013303	71.853	85.113	-22.477	86.714	-33.233	12.017	40.465	-34.427	-29.017	153.474	160.067	-31.426	-27.853	-26.018	-20.363	26.304	-23.909	-8191	255	
1845.770	1	1	0	0	0.081367	0.11565	0.066811	0.32003	0.12737	0.15336	0.298	0.4329	0.15946	0.15773	0.13628	0.11133	0.24787	0.2564	0.2001	0.32607	-3.1188	-2.8958	-3.1312	-3.4188	-2.8937	-3.3917	-3.3375	-3.0896	-3.4271	-3.0438	-3.4333	-3.5646	-2.8021	-3.4833	-3.1167	-2.9958	257.106	224.215	42.832	292.049	312.864	152.314	234.377	215.658	159.093	223.740	-41.453	243.059	-25.213	251.646	138.323	309.194	0.00026234	0.0019879	0.00070449	1350.1	7.8914e-06	1.2252e-05	1358.9	491.33	3.6836e-06	9.3437e-06	515.55	159.49	175.83	77.505	7.6988e-06	79.231	0.0082092	0.012995	0.0036089	1179.7	0.00013188	0.00014707	1180.9	426.15	0.00013072	0.00014872	461.27	143.37	159.71	68.545	0.00013969	71.153	90.665	27.934	19.193	-33.407	19.339	303.359	-34.627	-29.044	81.137	11.433	-31.628	-27.722	-25.959	-20.740	6.540	-24.200	-8191	255	
1845.866	1	1	0	0	0.014581	0.066937	0.23765	0.13068	0.12828	0.13314	0.3581	0.13913	0.066653	0.19826	0.18346	0.14809	0.12952	0.18299	0.15927	0.17201	-3.2792	-3.0375	-3.0021	-3.4625	-2.8708	-3.3375	-3.475	-3.0917	-3.2583	-3.2167	-3.1167	-3.5458	-2.9604	-3.275	-3.1958	-3.1646	214.608	108.378	-11.647	268.790	211.930	286.918	255.558	163.793	132.356	75.623	240.122	222.956	165.145	310.378	283.572	175.759	0.00019595	0.0010916	0.00031497	1347.5	6.218e-06	2.2672e-05	1346.7	486.9	1.5836e-05	4.2068e-06	509.01	156.47	176.17	76.427	2.3778e-05	78.026	0.0088238	0.013733	0.00383	1177.6	0.00013953	0.00015656	1169.2	423.78	0.00013959	0.00015716	457.14	142.28	160.16	68.097	0.00015208	70.665	87.088	84.457	76.743	-33.202	241.147	59.475	-34.387	-29.171	238.174	274.250	-30.877	-27.763	-26.159	-20.335	67.811	-23.993	-8191	255	
1845.962	1	1	0	0	0.10239	0.18311	0.30685	0.12617	0.027947	0.21691	0.040436	0.31052	0.12409	0.17693	0.30273	0.098224	0.35647	0.14895	0.37132	0.11578	-2.95	-3.0375	-2.9875	-3.5167	-2.875	-3.0563	-3.2979	-2.9125	-3.4188	-3.0167	-3.0021	-3.3104	-2.8604	-3.2958	-3.3146	-2.7979	131.377	223.919	259.917	273.107	4.112	36.362	259.541	261.670	4.615	-16.681	-41.372	13.423	-20.180	237.204	73.820	236.812	0.00026159	0.00039638	0.00030473	1340.6	1.8731e-05	7.6806e-06	1331	481.11	1.9416e-06	1.0236e-05	505.55	154.21	172.19	76.113	1.7222e-05	77.895	0.0096112	0.014535	0.0040796	1174.7	0.00014684	0.00016327	1161.3	421.25	0.00014964	0.00016427	455.94	141.26	158.96	67.958	0.00015889	70.716	47.670	222.973	-17.218	-33.149	130.959	87.695	-34.365	-28.896	25.440	91.228	-31.331	-28.042	-26.230	-20.407	141.237	-23.829	-8191	255	
1846.058	1	1	0	0	0.15018	0.10552	0.031628	0.36528	0.16776	0.16104	0.26327	0.12539	0.1811	0.24607	0.22293	0.14505	0.14535	0.1417	0.11114	0.36344	-2.975	-3.1	-2.8958	-3.5042	-3.0146	-2.9333	-3.3708	-3.0104	-3.1917	-2.9771	-3.0146	-3.4875	-3.0167	-3.1667	-3.3042	-3.0167	-12.245	240.024	-19.546	254.052	97.396	96.607	272.156	201.527	122.351	77.125	121.448	264.459	-24.733	232.336	153.849	265.808	0.00037528	0.0018326	0.00032774	1340.2	8.3411e-06	2.112e-05	1315	479.99	2.0368e-05	2.591e-05	501.49	153.91	173.72	76.176	8.4544e-06	78.18	0.010092	0.015323	0.0042693	1173.7	0.00015551	0.00017298	1159.7	421.36	0.00015802	0.00017302	455.79	141.51	159.65	68.014	0.00015881	71.311	120.774	19.343	-4.415	-33.264	93.395	-45.187	-34.418	-28.950	311.885	61.664	-30.974	-27.746	-26.176	-20.453	195.101	-23.852	-8191	255	
1846.179	1	1	0	0	0.024675	0.23755	0.067111	0.10432	0.22039	0.082147	0.26463	0.27047	0.27727	0.16245	0.18184	0.39318	0.23664	0.16723	0.19019	0.22387	-2.8146	-3.0542	-2.8229	-3.3208	-3.0062	-3.0729	-3.2021	-3.1458	-3.2917	-3.1875	-2.9958	-3.3312	-3.2375	-3.1042	-3.4542	-3.0708	-25.492	45.115	274.916	291.970	17.968	-16.501	237.132	252.576	185.258	199.761	-42.001	306.967	285.913	288.396	-31.326	197.079	0.00034849	0.0025541	0.00028052	1332.2	7.1588e-06	2.7263e-05	1324.1	483.35	1.969e-05	2.1135e-05	503.91	153.36	172.61	76.029	5.26e-06	77.227	0.01008	0.015278	0.0042258	1171.1	0.00015662	0.00017221	1163.3	423.66	0.00015899	0.00017661	458.09	141.36	158.9	67.687	0.00016205	70.392	90.150	-9.543	141.475	-33.137	116.270	224.702	-34.445	-28.647	97.867	182.590	-31.334	-27.650	-25.882	-20.288	104.036	-23.964	-8191	255	
1846.273	1	1	0	0	0.1776	0.11835	0.10342	0.065437	0.1052	0.040045	0.086103	0.15419	0.30996	0.13787	0.052333	0.14212	0.038231	0.10566	0.10878	0.098598	-2.7438	-3.1167	-2.8438	-3.5104	-2.975	-2.9354	-3.5187	-2.8187	-3.2271	-3.3729	-2.9562	-3.5708	-3.275	-3.125	-3.45	-3.0896	165.419	208.420	-7.312	-26.556	137.000	32.491	125.103	226.747	85.119	-28.885	49.116	281.933	150.453	-8.466	-3.210	234.186	0.00038942	0.0018442	0.00090215	1331.5	5.0037e-06	1.9254e-05	1304.1	480.41	1.6021e-05	2.8425e-05	493.71	149.87	170	74.81	7.7797e-06	76.427	0.010339	0.015721	0.004422	1172.9	0.00016018	0.00017751	1150.5	420.75	0.00016188	0.00017591	450.54	139.32	157.9	66.981	0.00016786	69.595	109.471	-8.738	147.030	-33.118	122.887	101.579	-34.564	-28.898	132.090	83.077	-31.138	-28.270	-26.211	-20.211	122.697	-24.221	-8191	255	
1846.347	1	1	0	0	0.26395	0.094727	0.098873	0.21944	0.22762	0.11156	0.2839	0.14376	0.2032	0.15422	0.15999	0.10227	0.14439	0.31412	0.075436	0.2201	-2.5958	-3.3375	-2.7313	-3.2625	-3.1167	-3.0479	-3.4688	-3.2521	-3.15	-3.2896	-3.0021	-3.3125	-3.2083	-2.8896	-3.5479	-3.1354	86.552	301.705	150.816	264.048	26.529	302.974	288.991	227.302	255.295	166.437	279.396	116.936	-38.725	255.159	299.770	259.957	0.00010331	0.00047837	0.00093539	1317	1.957e-05	2.6232e-05	1296	479.68	1.1544e-05	1.2848e-05	498.04	152.84	170.93	74.893	1.259e-05	75.819	0.010394	0.015649	0.0044258	1166	0.00015559	0.0001724	1146.3	419.85	0.00015791	0.00017516	452.7	140	158.47	67.105	0.00017175	69.686	162.526	243.792	60.502	-32.931	88.461	62.920	-34.499	-29.201	84.501	110.608	-31.408	-27.511	-25.145	-20.344	76.456	-23.528	-8191	255	
1846.443	1	1	0	0	0.21736	0.10447	0.13185	0.32979	0.14826	0.24547	0.25666	0.1843	0.25064	0.076719	0.028013	0.12618	0.1588	0.07323	0.27995	0.059964	-2.5354	-3.3812	-2.85	-3.2125	-3.2188	-2.85	-3.3167	-3.1292	-3.0812	-3.3417	-2.9146	-3.4854	-3.2292	-3.1188	-3.4062	-3.2208	-2.109	68.394	81.849	283.274	296.376	7.711	219.719	241.250	214.889	-12.814	27.525	289.021	44.840	-7.361	55.088	30.179	0.00015061	0.0033748	0.00042893	1314.4	1.938e-05	2.0404e-05	1307.1	478.44	2.6434e-06	3.6965e-05	500.3	151.8	171.51	75.09	9.1184e-06	76.358	0.010437	0.016022	0.0045114	1162.9	0.00015867	0.00017507	1148.1	419.64	0.00015482	0.0001711	453.34	140.03	158.04	67.268	0.00016214	70.137	98.943	-28.212	-42.310	-33.201	189.983	75.655	-34.813	-28.890	70.760	162.402	-31.153	-28.116	-26.326	-20.498	129.749	-23.802	-8191	255	
1846.562	1	1	0	0	0.20201	0.11771	0.22918	0.33966	0.3289	0.19546	0.3789	0.25588	0.10981	0.045715	0.22978	0.039324	0.17643	0.15355	0.16236	0.057908	-2.6521	-3.2979	-2.8354	-3.2771	-3.3417	-2.9479	-3.475	-3.3604	-2.9	-3.4938	-3.1125	-3.1312	-3.4396	-3.0958	-3.125	-3.4958	119.089	218.672	164.761	311.332	196.054	5.658	245.940	306.019	98.728	184.256	-28.125	23.644	-47.217	212.529	91.534	260.312	0.00023269	0.0012718	0.0002581	1329.3	4.1206e-06	1.121e-05	1313	481.56	1.0515e-05	2.2043e-05	504.61	155.97	174.43	76.288	6.1622e-06	78.468	0.010059	0.015835	0.0044613	1171	0.00015701	0.00017598	1157.8	421.1	0.00015298	0.00017134	456.1	142.4	159.66	67.995	0.0001543	70.857	112.884	-8.887	284.395	-33.253	56.452	142.673	-34.480	-29.308	90.347	67.202	-31.217	-27.793	-26.066	-20.377	44.107	-24.098	-8191	255	
1846.658	1	1	0	0	0.14016	0.10935	0.29256	0.21567	0.092248	0.11107	0.28315	0.20118	0.15494	0.12496	0.15817	0.067948	0.29858	0.098551	0.26526	0.060996	-2.3563	-3.3937	-3.1625	-3.1021	-3.3729	-2.8812	-3.4188	-3.3563	-2.7917	-3.4667	-3.2208	-3.3042	-3.4813	-3.0042	-3.3063	-3.3729	187.101	279.903	-10.943	254.933	111.057	200.052	286.491	264.443	-16.557	41.873	299.390	228.575	223.304	292.210	153.469	307.068	0.00039259	0.00075558	0.00015369	1340.6	3.6459e-06	1.3961e-05	1330	481.35	1.2129e-05	2.0227e-05	503.43	155.97	172.85	76.176	2.7532e-06	77.683	0.0093135	0.014574	0.0039804	1173.5	0.0001416	0.00015664	1159.1	419.88	0.00014552	0.00016359	453.34	141.21	158.24	67.818	0.00015332	70.458	108.257	23.091	1.465	-33.229	2.420	171.135	-34.375	-28.809	217.818	142.828	-31.062	-27.592	-25.547	-20.294	194.586	-23.738	-8191	255	
1846.754	1	1	0	0	0.19354	0.13963	0.15559	0.12598	0.19487	0.16229	0.18256	0.11747	0.18957	0.098845	0.2247	0.17348	0.084882	0.42272	0.27658	0.14018	-2.6396	-3.3646	-3.1646	-3.2583	-3.3667	-2.8479	-3.3604	-3.3688	-2.9146	-3.425	-3.3979	-2.9938	-3.4417	-3.1771	-2.9375	-3.475	92.285	27.352	16.847	242.029	172.225	-32.858	262.360	67.214	73.215	11.928	276.339	-14.902	145.439	280.064	188.310	125.373	0.00026351	0.0026528	0.00083225	1338.2	1.3872e-05	1.6697e-05	1322	480.04	2.211e-05	1.8322e-05	504.02	155.75	173.9	76.555	1.3756e-05	77.795	0.009479	0.014609	0.0040423	1169	0.00014656	0.00016054	1154.5	419.73	0.00014644	0.00016143	454.87	141.93	158.85	68.161	0.00015458	70.643	81.906	76.666	25.102	-33.187	196.173	76.192	-34.298	-28.739	114.637	59.710	-31.264	-27.726	-25.698	-20.469	70.881	-23.870	-8191	255	
1846.850	1	1	0	0	0.26157	0.21256	0.15083	0.10666	0.17602	0.08757	0.17726	0.13804	0.10573	0.14654	0.12996	0.19696	0.16055	0.3906	0.30429	0.047456	-2.3875	-3.35	-3.1229	-2.9917	-3.3604	-2.9771	-3.1188	-3.5167	-3.1479	-3.3438	-3.325	-3.0646	-3.4875	-3.2958	-2.9667	-3.4958	33.082	169.847	307.231	-32.810	-40.885	101.122	242.143	-39.348	146.453	138.572	274.395	149.642	-40.061	-9.371	142.286	246.419	9.7458e-05	0.0025389	0.00071722	1333.8	7.357e-06	3.2516e-05	1325.3	483.31	9.1494e-06	6.9027e-06	504.2	156.86	174.62	76.99	1.3206e-05	78.23	0.0099766	0.015154	0.0041977	1174.8	0.0001527	0.00016639	1162.1	422.11	0.000151	0.00016614	457.16	143.04	160.62	68.581	0.00015476	71.225	165.998	5.437	21.255	-32.911	294.001	86.077	-34.453	-29.026	-37.642	163.776	-31.106	-27.879	-25.940	-20.281	135.033	-24.249	-8191	255	
1846.946	1	1	0	0	0.24339	0.19292	0.21952	0.14201	0.07618	0.075128	0.22976	0.29788	0.15763	0.21802	0.18952	0.18251	0.15555	0.25209	0.13228	0.29546	-2.7979	-3.2208	-3.1104	-2.8937	-3.4333	-3.1458	-3	-3.4604	-3.1854	-3.2854	-3.3271	-2.8354	-3.4229	-3.225	-3.0833	-3.5896	49.032	259.403	136.678	277.951	73.987	190.284	273.973	216.936	55.143	118.927	238.771	300.637	279.134	-45.692	221.781	250.153	0.00024969	0.0021036	0.00034027	1346.5	2.7353e-06	3.9558e-05	1326	487.83	9.7855e-06	1.4204e-05	511.54	158.88	176.41	77.096	1.249e-05	78.688	0.0096647	0.015257	0.0041042	1180.1	0.00015382	0.00016746	1166.7	426.1	0.00015059	0.0001655	461.01	144.24	161.5	68.833	0.00015685	71.685	133.556	108.484	9.654	-33.196	110.108	84.652	-34.217	-29.067	72.454	74.074	-30.968	-27.351	-25.137	-20.286	123.578	-23.985	-8191	255	
1847.043	1	1	0	0	0.2296	0.035497	0.18512	0.21271	0.14724	0.23805	0.11786	0.1491	0.22787	0.099755	0.075683	0.030368	0.24253	0.1242	0.13834	0.068009	-2.4292	-3.1396	-3.4417	-2.7938	-3.2833	-2.9729	-3.4208	-3.4208	-2.8	-3.1688	-3.55	-3.0396	-3.4083	-3.35	-2.9833	-3.6292	171.742	197.305	226.495	260.685	284.847	10.909	206.563	283.258	144.672	116.630	-19.467	253.059	-6.617	195.944	301.145	254.316	0.0004204	0.0026163	0.0011408	1339.9	2.8487e-05	1.7185e-05	1330	483.93	1.0282e-05	5.7241e-06	504.01	154.07	173.53	75.424	3.5809e-06	76.66	0.010001	0.015251	0.0042398	1183	0.00015554	0.00016931	1163.7	425.11	0.00015731	0.00017554	457.09	142.32	160.74	67.52	0.00016767	70.039	98.882	19.319	15.541	-33.240	129.405	-18.046	-34.818	-29.057	119.370	-31.312	-31.100	-27.606	-25.637	-20.398	267.281	-24.071	-8191	255	
1847.163	1	1	0	0	0.092883	0.40773	0.10179	0.0914	0.10533	0.11415	0.43525	0.27856	0.17262	0.27193	0.14657	0.076868	0.2791	0.45292	0.27434	0.23858	-2.4896	-3.1292	-3.3667	-3.0167	-3.1854	-3.2979	-3.3187	-3.4396	-2.9417	-3.1792	-3.4792	-2.9146	-3.2792	-3.4729	-2.8125	-3.3563	122.858	255.918	216.155	269.501	4.640	34.247	253.749	306.366	281.177	41.775	223.184	244.926	299.135	-43.219	182.551	271.368	0.00042252	0.0012694	0.00016069	1329.3	4.7623e-06	5.6663e-06	1313.2	480.42	8.6028e-06	5.9372e-06	498.73	154.03	172.51	75.471	1.8412e-05	76.068	0.010382	0.01573	0.0043807	1170.1	0.00015692	0.00017056	1153.8	422.32	0.00015523	0.00017104	453.96	140.6	158.58	67.306	0.00016872	69.723	45.687	237.175	30.085	-33.614	35.588	164.360	-34.566	-28.907	98.377	-22.603	-31.192	-27.862	-25.859	-20.498	53.102	-23.813	-8191	255	
1847.259	1	1	0	0	0.10756	0.14763	0.183	0.25918	0.12104	0.079624	0.3487	0.10843	0.12318	0.12411	0.21843	0.10372	0.39346	0.31125	0.2443	0.36183	-2.6542	-3.1583	-3.3083	-3.2125	-3.2396	-3.3146	-3.0667	-3.675	-3.0687	-3.1042	-3.55	-3.1375	-3.2687	-3.4104	-2.9083	-3.2687	177.542	275.325	84.627	287.577	179.299	310.671	242.772	-14.253	210.013	251.207	288.258	-13.812	-23.919	283.225	-33.193	221.899	0.00058614	0.0013402	0.00047637	1323.2	8.0424e-06	2.1287e-05	1295	480.81	9.003e-06	2.1564e-05	499.73	152.24	171.55	75.096	1.0925e-05	76.035	0.010584	0.016162	0.0046077	1169.7	0.00016435	0.00017835	1148.5	422.17	0.00015917	0.00017757	455.07	140.54	159.25	67.266	0.00016942	69.838	58.656	95.716	-41.014	-32.909	38.122	44.001	-34.580	-28.951	263.051	158.206	-31.311	-28.066	-25.490	-20.545	118.739	-24.134	-8191	255	
1847.354	1	1	0	0	0.12978	0.11823	0.098837	0.40594	0.097675	0.11806	0.55302	0.34455	0.1799	0.093947	0.20767	0.043946	0.33184	0.2954	0.22955	0.089846	-2.35	-2.9646	-3.2812	-3.0396	-3.0083	-3.3146	-2.9083	-3.2625	-3.3125	-2.8792	-3.3521	-3.1042	-3.2417	-3.4604	-3.0167	-3.2458	291.237	-44.949	123.444	296.070	213.936	117.586	264.468	-9.769	75.827	-19.566	239.087	303.300	-35.570	278.789	54.880	-42.465	0.00042147	0.001454	0.00035687	1327.3	5.5063e-06	1.1174e-05	1305.3	479.32	1.4259e-05	2.7947e-05	501.24	153.26	173.09	75.893	7.3469e-06	77.793	0.010706	0.01653	0.0047482	1174	0.00016853	0.00018605	1156	421.52	0.00016513	0.00018238	456.47	141.43	159.64	67.998	0.00016656	71.014	90.453	-7.299	97.152	-33.220	94.791	153.536	-34.398	-29.024	2.663	14.330	-31.416	-27.949	-25.454	-20.201	306.645	-23.808	-8191	255	
1847.450	1	1	0	0	0.22442	0.03635	0.16881	0.38493	0.14758	0.1002	0.26352	0.22164	0.17593	0.21136	0.2859	0.069956	0.039396	0.28743	0.14753	0.21432	-2.7271	-2.6854	-3.3646	-3.2938	-2.9125	-3.4104	-3.1854	-3.3646	-3.3146	-2.6292	-3.3729	-3.2146	-3.2021	-3.425	-2.9042	-3.1875	218.683	282.139	53.447	-41.370	299.906	299.111	294.819	209.163	6.386	-46.918	-44.451	88.289	63.392	298.267	235.819	303.294	0.00037627	0.0016531	0.00060952	1331.4	2.1231e-05	8.1103e-06	1323.7	485.53	1.714e-05	1.6533e-05	505.15	155.28	174.07	76.31	1.515e-05	77.146	0.010211	0.015894	0.0044892	1178.6	0.00016112	0.00018013	1167.8	425.56	0.00016299	0.00018429	458.56	142.31	160.55	68.088	0.00016689	70.37	99.773	19.817	103.156	-33.500	7.634	-29.229	-34.208	-29.068	199.025	12.107	-31.097	-27.724	-26.085	-20.380	52.533	-23.940	-8191	255	
1847.570	1	1	0	0	0.09716	0.30288	0.096055	0.13052	0.15056	0.18408	0.16457	0.12071	0.11888	0.14927	0.29637	0.071597	0.13146	0.12475	0.15723	0.1548	-2.8812	-2.9562	-3.4104	-3.2604	-2.9979	-3.475	-3.1896	-3.375	-3.4917	-3	-3.3438	-3.3583	-3.0875	-3.6333	-2.9833	-3.1437	36.117	253.860	53.345	91.523	121.994	123.040	212.460	-46.512	16.642	291.566	252.631	237.391	30.971	-0.358	109.355	187.167	0.0002856	0.0025606	0.00028985	1336.7	1.3107e-05	1.7761e-05	1316.3	480.73	4.6748e-06	2.744e-05	500.6	153.17	172.52	75.668	1.3159e-05	77.357	0.010318	0.015903	0.0044431	1174.6	0.00015881	0.00017873	1156.9	422.51	0.00016139	0.00017963	455.96	141.19	159.76	67.906	0.00016947	70.478	86.191	44.343	116.256	-33.082	14.011	279.592	-34.765	-29.098	27.068	112.360	-31.193	-27.791	-25.769	-20.484	143.958	-24.165	-8191	255	
1847.642	1	1	0	0	0.10056	0.09403	0.13049	0.22262	0.13454	0.036186	0.13203	0.22438	0.32247	0.20588	0.30871	0.027333	0.11574	0.21435	0.13974	0.18162	-3.1063	-3.1042	-3.3563	-3.2521	-2.9188	-3.4292	-3.2333	-3.0479	-3.3083	-3.0563	-3.4833	-3.4375	-2.9833	-3.5854	-3.1604	-3.0729	35.837	56.041	310.144	284.947	297.938	109.305	272.565	240.709	0.122	90.141	282.150	82.434	259.350	242.852	286.166	299.082	0.00064471	0.0011426	0.0012177	1333.3	1.5579e-05	3.4511e-06	1317.5	483.19	1.7527e-05	4.3906e-06	502.11	154.47	173.46	75.383	3.2908e-06	77.097	0.010632	0.016288	0.0045454	1175.5	0.00016545	0.00018059	1159.4	423.15	0.00016698	0.00018431	457.04	141.84	160.45	67.632	0.00017206	70.509	107.139	59.730	38.251	-33.465	76.570	4.552	-33.941	-29.039	71.237	139.949	-30.697	-27.864	-25.509	-20.465	-45.745	-23.790	-8191	255	
1847.738	1	1	0	0	0.039253	0.094583	0.14468	0.16055	0.20574	0.024909	0.14413	0.29058	0.095204	0.12946	0.15975	0.099612	0.18922	0.18311	0.27905	0.23802	-3.1396	-3.0458	-3.1417	-3.3417	-2.7687	-3.4729	-3.3937	-3.1229	-3.2792	-3.025	-3.3979	-3.4	-2.9313	-3.4437	-3.2896	-3.1396	136.371	223.464	102.984	307.002	275.662	-39.482	244.454	288.303	-42.504	255.775	235.915	47.901	283.266	267.447	112.928	-17.094	0.00013865	0.0028329	0.00044783	1331.2	1.991e-05	2.4103e-05	1322.4	480.59	9.5068e-06	1.9311e-05	500.56	154.44	174.23	76.073	2.6453e-05	77.291	0.01094	0.016553	0.0045877	1178	0.00016856	0.00018212	1161.6	423.71	0.00016825	0.00018787	458.08	143.2	161.5	68.068	0.00017393	70.939	129.750	-7.250	181.931	-33.113	29.862	114.465	-34.654	-29.091	104.887	189.634	-31.029	-27.660	-26.202	-20.126	124.226	-23.991	-8191	255	
1847.834	1	1	0	0	0.1192	0.023264	0.085152	0.39544	0.12496	0.078102	0.11382	0.16263	0.16162	0.21517	0.14936	0.25131	0.17914	0.16387	0.13208	0.17896	-3.1396	-3.0062	-3.0396	-3.3771	-2.8187	-3.5354	-3.4688	-3.2417	-3.6562	-3.3	-3.2771	-3.55	-3.1396	-3.4521	-3.2521	-2.9271	23.680	132.314	12.585	310.951	139.434	-36.033	174.231	239.507	-30.801	195.564	16.844	224.359	236.871	236.730	88.875	275.172	0.00014106	0.0031179	0.00010561	1337.4	2.1045e-05	1.1526e-05	1328.4	486.73	1.064e-05	1.7852e-05	505.58	155.78	174.32	75.187	2.1214e-05	76.628	0.010863	0.016498	0.0045129	1182	0.00016287	0.00017875	1169.9	426.41	0.00016262	0.00018026	461.8	143.88	161.48	67.73	0.0001746	70.491	100.430	177.894	161.269	-33.322	105.440	192.037	-34.443	-28.977	121.796	63.147	-30.829	-27.776	-26.046	-20.238	217.673	-24.182	-8191	255	
1847.955	1	1	0	0	0.18136	0.25481	0.065723	0.064077	0.20997	0.055063	0.33142	0.16984	0.048369	0.10205	0.10365	0.14358	0.074769	0.32677	0.14796	0.13132	-3.0062	-3.0542	-2.95	-3.4875	-2.9042	-3.1958	-3.2979	-3.1479	-3.4875	-3.1646	-3.0458	-3.5	-2.9458	-3.1625	-3.2479	-3.0062	277.319	131.579	279.978	280.562	139.135	250.857	248.808	278.235	190.214	24.768	-11.917	216.336	82.679	297.983	189.962	170.188	0.00049085	0.0015595	0.00036309	1329.5	9.9965e-06	1.0151e-05	1301.7	477.53	7.3473e-06	2.8065e-05	493.29	150.33	171.25	73.477	1.3262e-05	75.009	0.011095	0.017055	0.004772	1177.9	0.00017267	0.00018916	1151.4	421.27	0.00017048	0.00018909	452.98	140.1	159.31	66.688	0.00018118	69.378	129.307	285.291	234.948	-33.187	212.121	262.668	-34.224	-29.209	64.355	-13.824	-31.209	-27.815	-25.583	-20.376	168.540	-23.932	-8191	255	
1848.051	1	1	0	0	0.066524	0.18842	0.11429	0.30482	0.063056	0.21647	0.28033	0.15971	0.35398	0.044483	0.1709	0.12845	0.063195	0.26321	0.12571	0.22761	-2.9292	-3.1958	-2.8292	-3.5542	-2.9417	-3.2062	-3.5563	-3.0979	-3.2396	-3.0208	-3.1396	-3.4979	-3	-3.1479	-3.4396	-2.8396	124.048	243.070	134.145	249.294	260.506	166.878	290.619	217.971	-3.322	270.362	-34.276	-17.882	-17.343	292.921	58.484	222.881	0.00022437	0.0017728	0.00086629	1314	1.6149e-05	1.5597e-05	1296.6	475.79	1.0553e-05	1.8017e-05	492.93	149.17	168.82	74.086	2.3256e-05	74.439	0.011369	0.017311	0.0049409	1172	0.00018166	0.0001961	1146.1	420.16	0.00018132	0.0001958	452.8	139.51	158.82	66.686	0.00018528	69.175	144.577	100.016	107.076	-33.321	110.597	112.620	-34.148	-28.732	295.593	88.074	-31.377	-27.825	-25.818	-20.207	277.491	-24.007	-8191	255	
1848.147	1	1	0	0	0.10834	0.05478	0.18495	0.17337	0.20171	0.13629	0.090965	0.43742	0.076678	0.20091	0.0832	0.063594	0.3018	0.19739	0.15873	0.10139	-2.8354	-3.0958	-2.7375	-3.3646	-3.125	-2.9708	-3.6854	-3.0354	-3.0208	-3.1917	-2.9354	-3.45	-3.2313	-3.1208	-3.5625	-2.7833	26.213	123.132	130.116	223.974	23.793	209.539	73.225	267.335	85.916	9.159	220.934	252.059	305.511	261.008	117.235	258.693	0.000455	0.0015745	0.00024917	1319.9	1.0413e-05	7.8117e-06	1297.9	478.14	3.2919e-06	2.9964e-05	494.99	151.33	172.8	74.475	1.0312e-05	76.108	0.011403	0.017473	0.0049999	1171.1	0.00017597	0.00019125	1151.9	420.93	0.00017569	0.00019259	455.45	140.97	160.26	67.104	0.00018222	70.135	144.331	68.159	-24.762	-33.023	81.080	103.486	-34.284	-28.869	274.708	89.434	-31.344	-27.593	-25.856	-20.245	79.170	-23.880	-8191	255	
1848.244	1	1	0	0	0.20169	0.19018	0.33751	0.070166	0.17911	0.11004	0.3912	0.20472	0.17998	0.12016	0.071247	0.11173	0.082476	0.13584	0.14348	0.0060101	-2.7875	-3.3896	-2.9104	-3.35	-2.9271	-2.9333	-3.5729	-3.2042	-3.1854	-3.1562	-3.1604	-3.35	-3.15	-3.1042	-3.6979	-3.3187	-10.529	85.589	176.568	-2.309	174.219	71.710	256.125	301.261	78.929	189.101	24.256	74.973	263.577	191.546	279.612	210.764	8.9911e-05	0.0021542	0.00071837	1326.1	1.1681e-05	1.9705e-05	1315.5	483.46	2.0469e-05	1.943e-05	500.17	153.99	173.11	75.464	1.6301e-05	77.165	0.010998	0.016833	0.0047749	1176.8	0.00016911	0.00018704	1161.4	423.79	0.0001683	0.00018699	458.45	142.27	160.42	67.715	0.00017365	70.531	95.496	302.067	74.234	-33.544	69.763	163.986	-34.417	-29.179	102.449	73.226	-30.861	-28.138	-26.069	-19.985	71.485	-23.761	-8191	255	
1848.340	1	1	0	0	0.12942	0.15581	0.10198	0.12781	0.069406	0.16439	0.21163	0.15735	0.14406	0.25836	0.095296	0.18035	0.17614	0.28649	0.14701	0.2413	-2.675	-3.2896	-2.9938	-3.4688	-2.9854	-2.9604	-3.7271	-3.2521	-3.0521	-3.5292	-3.0354	-3.4313	-3.4354	-3.1375	-3.4125	-2.9979	83.792	193.335	195.629	-38.423	298.580	272.248	263.171	192.264	189.049	124.728	155.772	-24.650	312.299	287.076	257.332	184.836	0.00012758	0.0019202	0.00081771	1334.3	5.8193e-06	7.4931e-06	1312.3	484.03	5.7414e-06	2.687e-05	502.36	155.65	172.16	76.012	8.2105e-06	76.577	0.010488	0.016208	0.0045297	1179.7	0.00016014	0.00017904	1160.4	424.07	0.00016025	0.00018033	456.62	142.39	160.09	67.592	0.00016932	69.963	141.159	5.033	63.883	-33.494	136.734	123.793	-34.367	-28.928	262.580	1.799	-31.553	-27.814	-25.951	-20.048	123.097	-23.930	-8191	255	
1848.434	1	1	0	0	0.0712	0.10055	0.22895	0.096131	0.26295	0.21171	0.48891	0.26083	0.18976	0.17856	0.24019	0.21124	0.17734	0.11033	0.026481	0.20037	-2.7479	-3.5021	-2.9292	-3.3792	-3.2667	-2.6437	-3.6646	-3.1833	-2.9896	-3.475	-2.9646	-3.3354	-3.3187	-2.9292	-3.4313	-3.5021	170.317	133.797	203.338	255.001	159.912	273.534	254.050	235.768	243.151	311.283	231.684	299.826	242.786	237.325	130.502	259.712	0.00060686	0.0020697	0.00019234	1336.5	1.9566e-05	1.6093e-05	1320.4	480.28	7.9775e-06	2.4637e-05	504.33	154.08	172.59	75.419	1.6054e-05	76.916	0.010387	0.015967	0.0044163	1174.1	0.00015456	0.00017194	1157	421.93	0.00015337	0.00017127	456.14	141.6	159.34	67.416	0.00016618	70.291	108.076	57.744	307.854	-32.646	99.430	15.153	-34.246	-29.061	220.063	184.281	-31.372	-27.516	-26.139	-20.598	127.799	-24.003	-8191	255	
1848.532	1	1	0	0	0.26705	0.16545	0.032486	0.17552	0.14164	0.2027	0.15176	0.5117	0.162	0.27833	0.16315	0.068637	0.25685	0.19242	0.057717	0.28571	-2.45	-3.4313	-3.0292	-3.0042	-3.2646	-3.0521	-3.5458	-3.3417	-2.9958	-3.3979	-3.2208	-3.2771	-3.3271	-3.1437	-3.425	-3.3479	308.966	23.053	254.341	228.012	228.380	309.293	-41.114	203.836	-35.036	-44.298	307.361	-35.084	256.846	-17.626	312.637	273.747	0.00024941	1.1377e-05	0.00040568	1331.9	1.6176e-05	8.3163e-06	1327.2	486.8	1.6471e-05	1.3226e-05	505.17	155.93	173.21	76.438	1.8663e-05	78.039	0.010289	0.015899	0.0044168	1177.2	0.0001576	0.00017357	1162.4	424.18	0.00015417	0.00016942	457.86	142.32	159.72	67.832	0.00015803	70.853	136.691	292.307	57.627	-33.119	94.112	-37.162	-34.518	-29.189	193.204	199.086	-31.176	-27.888	-26.050	-20.668	84.471	-23.930	-8191	255	
1848.651	1	1	0	0	0.18837	0.23284	0.23174	0.28595	0.23283	0.1793	0.096096	0.096686	0.066845	0.23458	0.21655	0.10113	0.12657	0.026168	0.10738	0.070057	-2.7042	-3.325	-2.9813	-3.1875	-3.3646	-2.8688	-3.2979	-3.5229	-2.7979	-3.2417	-3.2396	-2.9562	-3.5875	-3.2583	-3.0708	-3.4125	-2.706	301.206	26.442	303.984	-17.982	171.395	299.708	6.145	-1.805	52.626	291.014	170.646	263.897	108.161	-45.198	287.848	0.00043878	0.00087064	0.00022775	1336.1	8.6778e-06	1.2698e-05	1328.7	487.69	1.302e-05	2.5041e-05	508.22	157.95	175.22	76.76	9.0822e-06	78.351	0.010051	0.015533	0.0043639	1179.9	0.0001596	0.00017457	1165.6	425.01	0.0001604	0.000176	460.66	143.91	161.11	68.385	0.00016193	71.182	119.193	5.356	85.140	-33.299	157.660	94.388	-34.258	-29.014	70.542	-37.356	-31.186	-27.664	-25.845	-20.476	-39.235	-23.914	-8191	255	
1848.747	1	1	0	0	0.12833	0.17483	0.13582	0.39143	0.095988	0.11519	0.35105	0.28715	0.13821	0.23319	0.21112	0.047291	0.045821	0.18413	0.27712	0.16986	-2.7687	-3.3396	-3.3292	-3.1771	-3.2229	-3.0854	-3.3063	-3.2958	-3.1542	-3.4479	-3.2396	-2.9875	-3.4521	-3.0354	-2.9729	-3.2479	3.051	135.996	8.189	287.777	44.675	54.911	217.925	277.737	1.239	95.998	194.615	201.782	94.448	-33.820	235.686	272.359	0.00054897	0.0023614	0.00015486	1339.5	2.668e-05	4.1271e-05	1327.7	482.32	6.8856e-06	2.1062e-05	504.61	154.05	173.66	75.277	1.6148e-05	76.18	0.010112	0.015523	0.0042946	1183.9	0.00015859	0.00017279	1168.4	423.86	0.00016155	0.00017709	458.82	142.16	160.2	67.471	0.00016775	69.96	77.177	18.445	-35.949	-32.917	-16.209	-19.207	-34.626	-29.148	33.246	39.691	-31.344	-27.808	-26.059	-20.233	73.224	-23.983	-8191	255	
1848.843	1	1	0	0	0.17352	0.062872	0.11762	0.17718	0.078963	0.14775	0.34545	0.11009	0.091466	0.096255	0.098318	0.23561	0.06325	0.15045	0.010371	0.22818	-2.2958	-3.525	-3.4333	-3.0167	-3.4813	-3.075	-3.1083	-3.3958	-2.8729	-3.1396	-3.3667	-2.9604	-3.4125	-3.0687	-2.9708	-3.6625	89.053	154.618	97.479	214.606	57.379	98.764	264.114	168.997	97.284	269.090	295.855	239.075	13.673	122.662	237.239	239.544	0.00021116	0.001349	0.00038389	1332.9	3.6125e-05	2.1764e-05	1313.4	481.08	2.6561e-05	3.2944e-05	499.78	152.47	173.21	75.251	4.0632e-06	76.452	0.010605	0.016178	0.0044679	1176.9	0.0001625	0.00017435	1153.3	420.72	0.00016101	0.00017804	454.18	140.6	159.39	67.174	0.00016676	69.651	102.277	19.212	-23.673	-33.120	89.811	105.683	-34.428	-28.774	15.035	78.749	-31.181	-27.783	-25.944	-20.339	74.424	-24.178	-8191	255	
1848.939	1	1	0	0	0.06553	0.066069	0.27765	0.30632	0.044315	0.36405	0.29068	0.13028	0.26975	0.13332	0.075981	0.43749	0.38715	0.31466	0.15002	0.14086	-2.4917	-3.1729	-3.3208	-2.9938	-3.3479	-3.1562	-3.2146	-3.7125	-3.0687	-3.3312	-3.3271	-2.9083	-3.4292	-3.1167	-3.1292	-3.5312	85.546	-30.904	89.928	-35.457	21.946	14.726	288.286	276.927	6.500	26.057	-34.673	214.395	-35.915	299.441	-28.047	304.448	0.00030198	0.0015755	0.0005322	1331.2	1.6653e-05	1.4914e-05	1311.5	481.02	9.8147e-06	2.1411e-05	502.04	152.85	172.76	75.011	8.5012e-06	76.432	0.010572	0.016074	0.0044928	1173.5	0.00016446	0.0001778	1157.7	423.27	0.00016193	0.00017776	456.04	140.63	160.22	67.289	0.00017143	69.936	53.672	20.904	15.067	-33.226	84.808	82.891	-34.424	-29.166	58.743	205.997	-31.206	-27.422	-25.612	-20.432	161.177	-24.033	-8191	255	
1849.035	1	1	0	0	0.1233	0.14772	0.073766	0.25569	0.1122	0.038069	0.040258	0.13182	0.18078	0.02424	0.36232	0.37717	0.097613	0.15508	0.1999	0.32462	-2.5354	-3.025	-3.2917	-2.85	-3.2271	-3.1958	-2.9062	-3.6896	-3.175	-3.0896	-3.4896	-3.0875	-3.2313	-3.3208	-3.1146	-3.3479	133.141	156.748	61.718	257.798	157.417	247.728	221.765	4.900	298.040	193.101	-46.413	206.593	-35.149	246.394	179.407	297.235	0.0003977	0.0022268	9.77e-05	1333.2	1.3733e-05	3.2145e-05	1312	484.43	1.3481e-05	1.7747e-05	498.98	153.9	172.8	75.324	1.5486e-05	77.528	0.010583	0.015789	0.004551	1175.9	0.00016287	0.00017783	1158.4	425.65	0.00016261	0.0001808	457.71	142.1	160.09	67.484	0.00016826	70.497	46.394	10.084	-21.210	-33.366	67.366	124.421	-34.238	-29.147	196.512	197.471	-30.793	-27.516	-26.092	-20.606	-26.301	-24.063	-8191	255	
1849.132	1	1	0	0	0.20124	0.27374	0.18407	0.086889	0.07906	0.090528	0.11821	0.28272	0.19746	0.23314	0.22622	0.096137	0.19811	0.5768	0.32627	0.28667	-2.5542	-3.0312	-3.2021	-3.0167	-3.1542	-3.3063	-3.1375	-3.2917	-3.0354	-3.2292	-3.6646	-2.9688	-3.2	-3.4208	-2.825	-3.5729	-13.847	57.515	67.658	211.877	16.424	200.424	231.363	277.776	268.490	165.403	-36.062	-40.362	207.903	-37.392	119.012	183.440	0.00033195	0.00070596	0.00023555	1331.5	1.7833e-05	7.5286e-06	1336.6	487.86	1.9014e-06	1.133e-05	506.51	155.42	174.63	75.208	1.5226e-05	77.106	0.010232	0.015598	0.0043747	1178.2	0.00015746	0.00017187	1171	427.37	0.00015636	0.00017572	461.79	142.7	161.43	67.615	0.00016778	70.381	120.157	145.699	206.935	-33.058	117.801	41.977	-34.224	-29.174	119.400	163.559	-31.230	-27.621	-25.702	-20.233	76.122	-23.516	-8191	255	
1849.252	1	1	0	0	0.08974	0.066137	0.1784	0.23503	0.18351	0.31459	0.14895	0.33024	0.22876	0.23452	0.1595	0.13684	0.29232	0.23172	0.25624	0.14402	-2.8146	-3.075	-3.45	-3.0583	-3.1063	-3.3854	-2.9375	-3.3708	-3.0646	-3.0229	-3.5938	-2.9354	-3.2208	-3.3063	-2.6458	-3.5625	219.042	65.338	178.357	235.266	-35.334	117.864	193.877	290.991	186.448	78.038	-13.979	-29.068	280.053	311.049	25.000	173.014	0.00018632	0.00040084	0.00030349	1343.5	1.6984e-05	2.5383e-05	1328.5	487.47	7.1174e-06	1.0448e-05	504.25	155.91	173.37	75.596	1.8042e-05	76.22	0.010168	0.015709	0.0043156	1179.9	0.0001519	0.0001694	1160.4	425.62	0.0001518	0.00017232	457.44	141.74	160.45	67.369	0.00017029	69.807	188.024	40.456	54.021	-33.032	171.396	159.845	-34.372	-28.922	100.234	84.431	-30.943	-27.982	-25.887	-20.545	124.742	-23.657	-8191	255	
1849.347	1	1	0	0	0.13503	0.24769	0.24496	0.098853	0.18458	0.16716	0.29585	0.16508	0.10286	0.05348	0.11659	0.33189	0.25785	0.2545	0.19793	0.31182	-2.8125	-2.9167	-3.2479	-3.05	-2.9521	-3.3563	-3.0833	-3.3167	-3.3083	-3.0312	-3.4375	-3.0292	-3.1937	-3.5167	-2.8688	-3.2458	192.166	-35.244	80.523	-41.229	110.570	106.519	217.479	202.445	53.405	156.657	279.134	265.663	235.381	276.351	122.476	232.541	0.00026053	0.0015316	0.00032401	1331.9	1.1085e-05	2.7362e-05	1310.6	483.34	1.3844e-05	1.7175e-05	504.71	153.29	173.41	74.923	7.8221e-06	76.07	0.010718	0.016441	0.0046125	1175	0.00016452	0.00018198	1152.2	423.49	0.00015796	0.00017656	456.27	140.61	159.75	67.289	0.00016555	69.737	71.659	32.805	80.880	-33.160	272.259	66.028	-34.552	-29.078	199.007	92.854	-31.158	-27.768	-25.893	-20.201	244.551	-23.884	-8191	255	
1849.443	1	1	0	0	0.18621	0.14448	0.08534	0.058665	0.1824	0.075718	0.11243	0.27741	0.10744	0.052584	0.089219	0.073604	0.10224	0.28706	0.10759	0.19951	-2.8458	-2.8625	-3.3396	-3.2188	-2.8729	-3.3083	-2.9313	-3.4458	-3.4271	-2.8688	-3.4958	-3.3458	-3.1542	-3.4729	-3.1292	-3.1771	228.800	-24.605	76.010	61.515	214.849	105.091	224.572	303.693	181.609	246.031	151.561	13.995	252.218	269.775	254.455	235.724	0.00038272	0.00085796	0.00037656	1331.8	8.1795e-06	2.0603e-05	1315.4	485.07	1.1511e-05	1.4378e-05	502.52	156.81	174.07	75.986	2.0316e-05	76.817	0.010412	0.016074	0.0044376	1175	0.00016162	0.00017906	1156.3	424.99	0.00016157	0.0001772	457.88	142.48	160.55	67.808	0.000165	70.279	150.718	251.356	10.491	-33.033	32.730	-5.650	-34.367	-28.941	129.748	299.587	-31.109	-27.673	-26.073	-20.742	65.439	-23.836	-8191	255	
1849.516	1	1	0	0	0.2875	0.14865	0.15675	0.075006	0.15332	0.073376	0.34947	0.29643	0.1465	0.20981	0.29606	0.37126	0.1959	0.21931	0.10834	0.08403	-2.9458	-2.9458	-3.3354	-3.3708	-2.9292	-3.4271	-3.1146	-3.0896	-3.3667	-3.0583	-3.5542	-3.35	-2.8917	-3.4	-3.1292	-3.2313	176.057	5.161	113.227	-11.316	294.626	262.352	202.159	294.962	280.098	32.181	251.088	304.996	25.462	-34.231	1.628	306.905	0.00028247	0.002471	0.00034367	1334.4	1.8173e-05	2.8536e-05	1322.9	490.64	1.7084e-05	2.1075e-05	513.44	158.01	178.49	76.591	1.5305e-05	77.906	0.010428	0.016125	0.0044742	1180.9	0.0001635	0.00017687	1166.7	429.28	0.00015852	0.00017395	465.16	144.73	164.01	68.461	0.00015779	71.261	161.106	107.618	-35.672	-33.314	5.568	78.780	-34.609	-29.087	170.073	138.402	-30.910	-27.845	-25.827	-20.550	135.559	-23.859	-8191	255	
1849.635	1	1	0	0	0.14436	0.094925	0.14044	0.13301	0.11935	0.11683	0.27875	0.24053	0.2363	0.088245	0.24239	0.1853	0.12571	0.50976	0.15837	0.25555	-3.1146	-2.7521	-3.3667	-3.4583	-3.0687	-3.2687	-3.125	-3.1979	-3.3333	-2.7375	-3.4188	-3.25	-2.7229	-3.6521	-3.1833	-3.0833	82.094	129.577	46.569	-31.493	-15.653	180.459	237.881	279.012	199.552	190.467	266.210	236.610	-25.519	291.279	66.456	218.990	0.00035368	0.00037243	0.00054325	1362.4	2.0428e-06	8.0003e-06	1332.1	491.43	1.6366e-05	1.8483e-05	513.33	156.29	176.58	76.72	8.4251e-06	77.235	0.0099601	0.015477	0.0042865	1191.4	0.00015725	0.00016992	1169.9	430.38	0.00015577	0.0001699	462.95	143.51	162.64	68.622	0.00016065	70.848	55.805	101.632	106.380	-33.204	281.885	-28.774	-34.597	-28.979	32.080	71.364	-31.545	-27.656	-25.998	-20.292	-36.465	-24.051	-8191	255	
1849.731	1	1	0	0	0.33005	0.19534	0.21447	0.15963	0.11514	0.086005	0.21902	0.34061	0.27427	0.026577	0.10066	0.11437	0.1875	0.15986	0.247	0.23126	-2.9688	-2.7646	-3.1292	-3.5896	-2.9	-3.4521	-3.2979	-3.0458	-3.3625	-3.1104	-3.4042	-3.4	-3.1729	-3.4604	-3.1229	-2.875	46.891	81.407	291.194	174.282	124.996	60.041	295.321	270.103	223.105	-42.279	293.065	206.206	279.009	218.586	213.034	264.213	0.00031789	0.00095897	0.0006611	1338	1.3289e-05	1.5483e-05	1317.1	489.78	1.9752e-05	2.3506e-05	507.11	155.36	174.57	76.726	1.86e-05	77.47	0.010425	0.015821	0.0043837	1187	0.00015906	0.00017478	1162.8	430.42	0.00015909	0.00017502	459.86	142.6	161.87	68.246	0.00016332	70.656	102.728	30.743	281.697	-33.392	29.296	228.945	-34.736	-29.010	68.035	66.465	-31.288	-28.264	-25.726	-20.324	189.772	-23.918	-8191	255	
1849.827	1	1	0	0	0.072119	0.1179	0.032524	0.27849	0.16242	0.15189	0.085464	0.43354	0.15929	0.35151	0.21511	0.11947	0.22129	0.44502	0.12371	0.032529	-3.0958	-2.95	-2.8542	-3.5812	-3.125	-3.1542	-3.5167	-3.1063	-3.4021	-2.7417	-3.2729	-3.4604	-2.8521	-3.4562	-3.2833	-3.1604	167.590	179.085	23.169	293.419	152.915	2.480	205.484	-39.757	-27.982	-3.848	262.669	300.926	291.401	293.189	181.293	299.056	0.00038287	0.00093716	0.00069669	1351	1.3029e-05	1.2609e-05	1321.3	488.21	1.1253e-05	2.2704e-05	503.64	156.2	175.82	76.437	2.4493e-05	77.963	0.010334	0.015533	0.0044385	1189.3	0.00016317	0.0001783	1160.9	429.2	0.00016384	0.00017996	460.13	143.33	162.02	68.433	0.00016838	70.984	58.275	-28.178	186.760	-33.018	104.525	110.159	-34.653	-29.043	135.103	199.336	-31.133	-28.135	-25.810	-20.615	201.799	-24.262	-8191	255	
1849.924	1	1	0	0	0.23963	0.12092	0.067345	0.15125	0.097457	0.25754	0.30471	0.13064	0.079779	0.10109	0.22757	0.17755	0.12661	0.15204	0.11283	0.13174	-2.9062	-3.1	-2.9667	-3.6979	-2.8	-3.0625	-3.3688	-3.0167	-3.3125	-3.1833	-2.975	-3.4458	-3.1854	-3.0896	-3.35	-2.9896	33.642	102.523	237.143	218.823	149.947	248.369	271.463	247.664	200.527	-39.609	215.029	208.777	281.826	255.758	36.867	-23.473	0.00045117	0.0015152	0.00056929	1339.7	2.6311e-05	1.5066e-05	1340.6	490.64	3.859e-06	1.5485e-05	509.89	158.85	174.87	77.142	7.5619e-06	78.18	0.010389	0.015718	0.0044166	1183.9	0.00015764	0.00017467	1171	430.13	0.00015944	0.00017444	464.17	145.2	162.16	68.897	0.00016949	71.295	119.271	278.827	40.119	-33.542	132.698	161.972	-34.347	-28.969	90.929	37.673	-31.213	-28.015	-25.605	-20.569	-13.387	-24.127	-8191	255	
1850.044	1	1	0	0	0.19172	0.097536	0.27678	0.13792	0.20907	0.22803	0.18844	0.19983	0.077819	0.16339	0.099055	0.036511	0.30443	0.27712	0.10389	0.048669	-2.7292	-3.1479	-2.9229	-3.7375	-3.0208	-2.9021	-3.4646	-3.0438	-3.2062	-3.2	-3.0563	-3.5375	-2.8937	-3.2833	-3.525	-2.9542	35.869	8.630	238.358	207.012	47.616	203.718	215.863	260.306	222.129	125.070	290.617	286.141	297.211	260.861	229.992	128.027	0.0003043	0.00037298	0.00039393	1339.6	2.1314e-05	2.5687e-05	1324	489.61	1.428e-05	1.6436e-05	510.64	157.37	176.65	76.961	2.129e-05	78.083	0.010287	0.015755	0.0044553	1185.4	0.0001574	0.00017378	1169.1	428.74	0.00015492	0.00017335	462.93	143.48	161.77	68.645	0.00016179	71.223	106.028	128.597	253.632	-33.222	109.621	150.462	-34.231	-28.947	187.918	95.105	-31.294	-27.741	-25.841	-20.613	59.363	-24.427	-8191	255	
1850.116	1	1	0	0	0.052485	0.21575	0.086708	0.32137	0.2637	0.29805	0.12678	0.050753	0.18689	0.078632	0.24534	0.2333	0.13357	0.15977	0.26503	0.19462	-2.7396	-3.1729	-2.9062	-3.5917	-3.2	-3.1021	-3.5875	-3.0375	-3.0917	-3.3729	-2.8458	-3.3417	-3.1708	-3.1167	-3.3792	-3.1562	99.071	171.236	165.780	235.900	80.368	298.710	208.954	238.699	112.263	2.930	304.688	294.322	277.626	235.698	122.262	158.638	0.00023559	0.0015599	0.00034174	1342.9	1.1707e-05	6.0698e-06	1323.8	490.2	1.4392e-05	3.1218e-05	507.8	155.86	173.76	76.697	2.3564e-05	77.188	0.010065	0.015835	0.0044111	1182.9	0.00015712	0.00017614	1163.9	428.13	0.00015685	0.00017549	460.14	142.63	160.83	68.389	0.00016475	70.266	118.178	24.439	94.256	-33.047	19.829	46.386	-34.038	-29.218	70.226	97.189	-31.204	-27.118	-25.760	-20.253	-13.218	-23.808	-8191	255	
1850.212	1	1	0	0	0.19998	0.0024502	0.038991	0.25206	0.069725	0.025111	0.25555	0.50578	0.048219	0.21495	0.10561	0.17051	0.083019	0.28562	0.051647	0.21522	-2.8646	-2.9354	-2.8333	-3.3167	-2.9125	-3.0854	-3.6688	-2.9813	-3.0896	-3.4625	-2.9688	-3.525	-3.2729	-3.325	-3.5062	-3.0875	157.423	203.387	91.270	179.307	251.869	166.025	184.523	293.661	300.902	263.884	292.721	275.189	257.428	304.174	68.597	307.576	0.00032705	0.0021484	0.00086611	1336.1	1.0809e-05	3.4478e-05	1312.4	488.06	1.4925e-05	1.798e-05	507.88	154.41	173.97	76.419	1.2393e-05	77.729	0.010219	0.016105	0.0045197	1179.1	0.00015949	0.00017879	1158.9	426.63	0.00015883	0.00017664	458.96	141.53	159.76	68.244	0.00016243	70.528	126.317	68.311	242.440	-33.427	-39.216	127.376	-34.646	-29.153	16.494	61.097	-31.459	-27.692	-25.826	-20.544	134.487	-23.827	-8191	255	
1850.333	1	1	0	0	0.19063	0.089327	0.004039	0.28352	0.25199	0.34734	0.30508	0.32716	0.31457	0.17707	0.1639	0.15255	0.16304	0.26712	0.11831	0.12744	-2.8563	-3.4083	-2.8187	-3.425	-3.2229	-3.0792	-3.4062	-2.9354	-3.1188	-3.5604	-2.8667	-3.4229	-3.3083	-2.9104	-3.3583	-2.8958	311.896	20.506	177.902	240.534	126.237	36.251	285.545	266.839	42.152	56.437	310.273	301.130	260.901	284.282	249.126	15.181	0.00020314	0.00078473	0.00065701	1342.8	2.8283e-05	1.9568e-05	1322.9	483.34	2.0126e-05	3.28e-05	506.87	154.49	173.1	75.752	1.2176e-05	78.181	0.0099448	0.015456	0.0042319	1178.6	0.00015628	0.00017514	1161.2	426.26	0.00015663	0.00017726	460.25	141.57	160.16	68.005	0.00016392	70.983	78.755	-3.370	35.877	-33.294	104.005	138.390	-34.392	-28.938	285.713	79.096	-31.164	-28.061	-25.626	-20.791	186.700	-23.920	-8191	255	
1850.427	1	1	0	0	0.10497	0.17088	0.21978	0.2012	0.2756	0.054789	0.19975	0.12007	0.24042	0.077178	0.24621	0.18451	0.27259	0.34918	0.19895	0.063724	-2.6208	-3.4104	-2.7562	-3.4396	-3.2458	-2.8417	-3.6	-3.1375	-2.8146	-3.4667	-2.9354	-3	-3.4062	-3.0417	-3.0896	-3.0438	182.533	190.015	235.345	268.138	63.455	238.779	254.213	242.539	146.492	-25.484	285.829	216.369	216.392	248.478	88.890	263.588	0.00029399	0.00081497	0.0005191	1334.3	2.4673e-05	1.1494e-05	1315.9	486.86	6.1041e-06	9.2988e-06	497.4	152.69	171.99	75.724	3.3303e-05	75.991	0.010282	0.015806	0.0043331	1179.3	0.00016088	0.00017895	1161.9	425.54	0.00016422	0.00017976	455.91	140.21	159.16	67.469	0.00016837	69.67	162.742	242.334	54.405	-33.119	132.109	38.503	-34.323	-29.081	25.491	152.350	-31.359	-28.040	-25.894	-20.615	91.118	-24.508	-8191	255	
1850.525	1	1	0	0	0.017727	0.18696	0.08786	0.33883	0.21724	0.1044	0.1759	0.49508	0.14382	0.036249	0.32499	0.2038	0.25342	0.35251	0.098235	0.13926	-2.6208	-3.3438	-2.8021	-3.1833	-3.4688	-2.7708	-3.5979	-3.4333	-2.9229	-3.4146	-3.175	-2.9896	-3.4146	-3.0979	-3.2938	-3.1833	250.825	91.841	281.383	265.932	115.385	67.114	280.665	230.508	152.036	114.510	232.983	261.432	304.549	293.362	177.043	231.783	0.00021783	0.00038403	0.00038523	1318.1	5.3493e-06	3.2742e-05	1283.9	480.01	1.7583e-05	2.6379e-05	490.34	149.42	167.57	74.059	2.4359e-05	73.999	0.010715	0.016382	0.0045696	1166.4	0.0001693	0.00018537	1142.8	421.18	0.00016785	0.00018631	449.36	138.81	157.26	66.506	0.00017373	68.619	103.527	76.515	232.620	-33.133	23.602	125.413	-34.464	-28.917	192.497	110.376	-31.597	-27.547	-25.870	-20.539	-16.312	-24.209	-8191	255	
1850.644	1	1	0	0	0.19069	0.0092191	0.19727	0.075128	0.16342	0.23397	0.23847	0.23988	0.16877	0.25122	0.073126	0.24652	0.14927	0.11912	0.12923	0.077469	-2.4938	-3.1708	-2.9167	-3.1708	-3.3708	-3.0083	-3.4354	-3.4542	-2.8333	-3.3312	-3.2188	-2.9813	-3.4188	-3.125	-3.1396	-3.3958	243.159	-1.082	298.718	231.484	281.295	226.848	246.609	269.386	201.066	306.833	50.406	210.486	216.608	5.330	275.805	235.996	0.00029846	0.0011253	0.00061678	1311.6	3.9982e-06	3.1943e-05	1285.8	473.32	1.4931e-05	2.4975e-05	491.27	147.88	166.92	73.539	1.1735e-05	74.488	0.011077	0.016954	0.0047216	1165.1	0.00017685	0.00019354	1140	419.39	0.00018008	0.00019839	451.64	139.07	157.61	66.448	0.00018744	69.098	35.785	144.441	27.851	-32.980	126.294	117.070	-34.551	-29.185	215.242	73.331	-31.121	-27.802	-25.939	-20.311	219.696	-24.108	-8191	255	
1850.740	1	1	0	0	0.05731	0.052304	0.13684	0.22635	0.13452	0.17679	0.10376	0.37054	0.066316	0.16418	0.26873	0.093732	0.043537	0.1117	0.17666	0.085599	-2.3292	-3.3021	-3.0875	-2.8833	-3.2375	-3.0896	-3.2125	-3.4167	-2.85	-3.3688	-3.1333	-3.0458	-3.425	-3.0917	-2.9833	-3.4625	168.885	159.808	159.225	278.809	235.210	54.074	-20.842	262.574	-9.881	126.220	-32.376	237.837	194.622	278.440	269.832	121.737	0.00020646	0.0017366	0.00070174	1314.1	1.2267e-05	2.623e-05	1287.9	474.19	1.3652e-05	2.1073e-05	493.59	151.44	170.78	74.003	2.9835e-05	75.974	0.011642	0.017825	0.004984	1168.2	0.00018037	0.0001936	1142.8	420.99	0.0001758	0.00019251	454.09	140.63	158.85	66.925	0.00018419	69.968	60.321	49.672	150.946	-33.102	119.494	208.248	-34.596	-28.759	66.800	53.240	-31.357	-27.724	-26.095	-20.490	38.659	-24.078	-8191	255	
1850.812	1	1	0	0	0.094703	0.10683	0.11714	0.20486	0.063864	0.11278	0.2688	0.3004	0.020383	0.060707	0.13215	0.27681	0.37274	0.034706	0.26486	0.18177	-2.2708	-3.2292	-3.0792	-2.7417	-3.3708	-3.1271	-2.9958	-3.4771	-2.8896	-3.2042	-3.3479	-2.9188	-3.3937	-3.1521	-3.0604	-3.5604	-39.984	63.812	201.468	223.712	111.037	234.014	247.332	228.415	239.599	54.341	304.186	222.377	258.296	312.191	185.519	116.894	0.00022726	0.0010897	0.00048076	1321.7	8.7325e-06	2.2562e-05	1311.2	479.83	7.27e-06	2.3592e-05	500.44	153.6	171.34	74.897	1.5194e-05	75.519	0.011304	0.01724	0.0049002	1171.5	0.00017477	0.00019091	1158.2	424.45	0.00017299	0.00019254	458.87	142.32	159.93	67.606	0.00018381	70.369	92.958	97.590	143.332	-33.401	53.927	132.380	-34.767	-28.986	197.163	77.898	-30.956	-27.753	-26.235	-20.418	196.209	-24.020	-8191	255	
1850.932	1	1	0	0	0.11675	0.13877	0.070755	0.19593	0.030465	0.2645	0.23833	0.13845	0.24285	0.21151	0.30404	0.10307	0.26228	0.23781	0.13374	0.24873	-2.3667	-2.95	-3.4208	-3.0854	-3.3333	-3.1146	-3.0604	-3.4375	-3.0187	-3.3479	-3.3563	-2.8042	-3.35	-3.1333	-3.0792	-3.5104	73.202	269.355	185.814	-24.822	247.467	250.737	242.304	298.940	257.234	42.431	244.104	254.256	-32.206	275.962	45.934	291.509	0.00032564	0.00075877	0.00049761	1326	1.6874e-05	1.7787e-05	1307	479.53	1.199e-05	1.5182e-05	497	152	171.88	75.121	1.86e-05	75.635	0.011231	0.017083	0.0047789	1176.3	0.00017117	0.00018521	1153.9	423.82	0.00016648	0.000185	455.28	141	159.54	67.212	0.00017937	69.536	111.848	18.930	4.794	-33.034	9.227	59.932	-34.534	-28.806	222.823	156.578	-31.003	-28.033	-25.955	-20.271	4.697	-24.347	-8191	255	
1851.028	1	1	0	0	0.14752	0.1706	0.14166	0.1719	0.098194	0.11283	0.142	0.28672	0.21863	0.17952	0.11721	0.30916	0.1137	0.10868	0.1211	0.067339	-2.4771	-3.0333	-3.3417	-2.7979	-3.3646	-2.8917	-3.1375	-3.4854	-3.1271	-3.0687	-3.5062	-3.025	-3.1917	-3.3729	-2.9083	-3.35	240.222	214.254	201.550	235.633	-34.387	62.113	-31.504	278.356	310.423	147.225	-39.074	212.241	234.609	116.115	168.788	251.738	0.00038642	0.0016532	0.00066399	1330.8	1.0063e-05	3.0258e-05	1294.3	477.78	1.5503e-05	2.343e-05	496.24	153.19	170.92	74.679	1.4775e-05	75.758	0.010985	0.01718	0.0048073	1175.1	0.00016967	0.00018861	1147.1	422.39	0.00017092	0.00019474	453.86	141.67	159.66	67.334	0.00017795	69.596	101.422	101.625	17.230	-33.167	153.215	182.742	-34.294	-29.013	90.837	168.897	-31.357	-27.449	-25.782	-20.540	116.060	-24.049	-8191	255	
1851.125	1	1	0	0	0.24878	0.025431	0.085287	0.088656	0.01079	0.099778	0.17057	0.13134	0.14308	0.065317	0.16369	0.15786	0.13878	0.12779	0.038038	0.38852	-2.8042	-3.0187	-3.4938	-3.2542	-3.1896	-3.4042	-3.1625	-3.3292	-3.2208	-3.0104	-3.4938	-3.1271	-3.2438	-3.2667	-2.8187	-3.4729	77.809	187.214	-30.076	-29.567	95.063	233.358	205.259	233.228	68.259	168.028	290.620	-32.640	257.696	-45.712	203.023	238.083	0.00027685	0.00089553	0.00048601	1335.7	3.8059e-05	1.224e-05	1303.1	482.36	2.7476e-05	3.7428e-06	498.86	152.73	170.33	75.276	1.6397e-05	76.509	0.010802	0.016761	0.0046434	1176.7	0.00016457	0.00018547	1151.9	424.02	0.00016506	0.00018666	455.31	141.22	159.68	67.646	0.00017216	70.195	96.514	79.371	107.971	-33.205	130.838	13.575	-34.352	-28.960	57.342	-21.035	-30.869	-27.533	-25.830	-20.631	-0.496	-24.014	-8191	255	
1851.221	1	1	0	0	0.17974	0.21024	0.15498	0.18373	0.10408	0.10246	0.16403	0.27778	0.060601	0.074526	0.11353	0.13857	0.092228	0.24113	0.20412	0.19995	-2.6896	-2.8875	-3.3729	-3.025	-3.1125	-3.3604	-2.7917	-3.5521	-3.0792	-2.7167	-3.6042	-2.9229	-3.0479	-3.3563	-2.8	-3.0229	219.579	8.992	308.502	296.027	102.550	166.329	260.714	215.687	295.872	297.849	288.072	215.074	-21.637	286.661	141.219	248.882	0.00051953	0.00017451	0.00030504	1340.4	4.8161e-06	1.1023e-05	1322.5	485.62	2.7823e-05	1.6256e-05	506.46	157.37	173.41	76.564	2.0543e-05	77.506	0.010723	0.016506	0.0045655	1180.4	0.00016317	0.00017968	1163	425.46	0.00015977	0.00017835	461.26	144.17	161.05	68.604	0.00016763	70.988	94.353	12.083	63.218	-33.351	216.400	154.036	-34.291	-28.876	103.134	181.959	-31.217	-27.781	-25.980	-20.402	80.549	-24.072	-8191	255	
1851.341	1	1	0	0	0.073434	0.13611	0.10288	0.15228	0.050495	0.0044139	0.10717	0.085478	0.05991	0.18816	0.38034	0.1876	0.14928	0.16604	0.046935	0.34408	-2.8396	-3.0479	-3.1167	-3.2104	-3.2625	-3.4	-2.9771	-3.4208	-3.1042	-3.0104	-3.5146	-3.0396	-3.1417	-3.5687	-2.9062	-3.3667	27.352	154.132	87.524	26.689	252.924	-30.130	20.762	210.782	79.190	121.240	271.734	146.360	88.103	-17.142	23.241	267.323	0.0003637	0.0014612	0.00039145	1339.6	8.4687e-06	9.6408e-06	1317.4	484.03	1.1048e-05	2.0557e-05	503.45	155.54	174.46	76.106	1.8755e-05	77.351	0.010494	0.016397	0.0045365	1183.8	0.00016366	0.00017904	1163.6	425.82	0.00016152	0.00018053	458.3	142.66	160.88	68.207	0.00016532	70.745	125.306	-13.620	311.121	-32.956	191.548	218.598	-34.369	-28.812	62.332	117.177	-31.053	-27.357	-26.228	-20.607	-40.224	-24.058	-8191	255	
1851.413	1	1	0	0	0.13091	0.13962	0.39333	0.11706	0.032361	0.02924	0.32861	0.31402	0.19655	0.37136	0.086965	0.29833	0.066865	0.25164	0.18623	0.17345	-2.8875	-2.7438	-3.4271	-3.0104	-2.8583	-3.3958	-3.0687	-3.2292	-3.4625	-2.7458	-3.4562	-3.1729	-2.9208	-3.6458	-3.1542	-3.1646	-1.728	264.251	-17.983	-29.668	246.959	164.016	308.214	241.114	114.213	265.452	246.373	229.861	183.259	302.654	-24.707	244.921	0.00031627	0.0012564	0.00076184	1342.5	5.9267e-06	1.2216e-05	1318.2	487.11	1.8763e-05	2.776e-05	506.08	156.05	175.47	76.72	1.4469e-05	77.347	0.010387	0.015982	0.0044293	1183.5	0.00016095	0.00017707	1158.6	427.09	0.00015905	0.00017415	458.79	143.28	161.52	68.491	0.00015885	71.064	131.578	-41.617	215.701	-33.182	180.566	166.119	-34.293	-28.894	57.744	164.026	-31.354	-27.522	-25.928	-20.370	72.507	-23.874	-8191	255	
1851.507	1	1	0	0	0.066485	0.11887	0.25752	0.28816	0.11545	0.18166	0.12044	0.30252	0.092696	0.18364	0.1571	0.32557	0.090682	0.10898	0.20276	0.057154	-2.8979	-2.8667	-3.4729	-3.2729	-2.7979	-3.3438	-2.975	-3.2438	-3.4938	-2.6167	-3.2354	-3.3312	-2.8312	-3.4396	-3.0438	-3.0229	309.150	-9.668	-12.147	242.626	-9.857	187.846	311.121	293.279	210.371	301.314	266.665	275.646	261.767	214.824	258.756	-8.692	0.00042529	0.0031071	0.00033728	1348.1	2.1178e-05	2.676e-05	1321.8	488.68	5.5543e-06	2.1172e-05	508.32	157.46	175	77.154	5.6455e-06	78.466	0.010298	0.015829	0.0043922	1184.9	0.0001619	0.00017495	1161.9	428.4	0.00015942	0.00017426	461.43	143.91	161.58	68.719	0.00015749	71.467	69.100	251.109	30.808	-33.151	-22.525	138.070	-34.864	-29.064	223.114	184.508	-30.976	-28.283	-25.542	-20.568	-43.897	-24.010	-8191	255	
1851.605	1	1	0	0	0.071449	0.07509	0.22166	0.36355	0.26222	0.15428	0.22824	0.27595	0.014514	0.23989	0.11686	0.14446	0.11491	0.17152	0.096552	0.17292	-2.8958	-2.8667	-3.0812	-3.2729	-2.8104	-3.3792	-3.3833	-2.9479	-3.4583	-2.9604	-3.2479	-3.3625	-2.9417	-3.3542	-3.1146	-3.1021	290.865	66.256	305.879	238.150	175.902	190.462	275.658	225.713	255.081	214.221	97.998	21.900	-20.679	292.430	70.033	275.546	0.00063176	0.00019948	0.00062116	1343.3	5.4597e-06	1.3002e-05	1330.6	490.38	1.7558e-05	3.9387e-06	510.83	157.13	175.11	76.894	2.2932e-05	78.919	0.010231	0.01554	0.0044339	1187.3	0.00016101	0.00017541	1169.9	429.97	0.00015971	0.00017494	464.2	143.94	161.54	68.634	0.00016411	71.64	89.330	-33.001	14.365	-33.241	127.252	-12.831	-34.471	-29.162	180.327	177.636	-31.023	-27.858	-25.902	-20.702	174.059	-23.919	-8191	255	
1851.724	1	1	0	0	0.081012	0.051794	0.18289	0.25344	0.31432	0.16295	0.20533	0.13306	0.21962	0.31121	0.34958	0.12599	0.16237	0.25606	0.21118	0.28788	-3.0979	-2.975	-3.2083	-3.1688	-2.8958	-3.3667	-3.3083	-3.0208	-3.3708	-2.9729	-3.3646	-3.3854	-3.0938	-3.3438	-3.1417	-2.9396	151.004	6.151	232.486	258.071	146.819	162.946	256.095	-32.499	260.213	66.891	290.156	249.963	257.522	254.379	62.716	-36.961	0.00045347	0.0014254	0.00061618	1344.2	1.2726e-05	2.2581e-05	1309.5	483.33	9.4095e-06	1.121e-05	499.75	151.94	170.36	75.163	6.1665e-06	76.694	0.010294	0.015732	0.0045496	1187.9	0.00016871	0.00018592	1162.4	426.68	0.00016974	0.00018616	459.59	141.63	158.53	67.417	0.00017043	69.941	116.455	83.474	-43.905	-32.898	84.695	143.505	-34.474	-28.797	112.160	219.132	-31.501	-28.082	-26.078	-20.404	154.644	-24.201	-8191	255	
1851.820	1	1	0	0	0.1882	0.10306	0.11175	0.23761	0.201	0.071495	0.24239	0.31553	0.10254	0.055951	0.23008	0.10123	0.16306	0.34325	0.38518	0.17766	-2.9875	-3.0083	-2.9604	-3.5167	-2.9708	-3.3833	-3.2875	-2.7625	-3.4625	-3.1021	-3.1042	-3.6104	-3.0187	-3.2625	-3.1937	-3.0792	-43.478	54.260	151.069	186.915	74.282	107.818	274.274	279.473	150.898	-35.458	253.107	-30.273	160.346	-0.998	-19.162	-45.195	0.00033172	0.0029102	0.0013296	1315.8	1.6407e-05	7.1096e-06	1295.9	478.03	1.2501e-05	1.6911e-05	492.83	150.51	168.82	73.935	1.4042e-05	75.104	0.010331	0.015736	0.0045479	1169.1	0.00016358	0.00017993	1146.3	420.84	0.00016825	0.00018624	452.88	139.19	157.19	66.58	0.00017529	69.319	132.326	19.776	18.654	-33.427	213.905	100.788	-34.436	-29.003	44.424	90.119	-31.043	-27.583	-25.901	-20.350	91.473	-24.366	-8191	255	
1851.916	1	1	0	0	0.1093	0.065297	0.23711	0.13692	0.064901	0.13163	0.10093	0.15256	0.10433	0.052365	0.29965	0.44565	0.40002	0.19436	0.1608	0.22884	-2.7562	-2.9875	-3.0687	-3.45	-3.0458	-3.4229	-3.4521	-2.8104	-3.3063	-3.0833	-3.1896	-3.3688	-3.025	-3.3688	-3.1396	-2.9479	92.941	264.483	279.977	269.998	190.228	-43.342	-9.149	234.280	204.698	167.844	51.417	262.079	267.563	-27.178	68.817	241.764	0.00034018	0.0019515	0.00035725	1310.6	1.6867e-05	3.8728e-05	1283.1	473.45	5.6995e-06	3.7812e-05	492.48	149.38	168.2	74.257	2.2865e-05	75.631	0.010642	0.016782	0.0046422	1160.9	0.00016711	0.00018584	1138.9	417.67	0.00016623	0.0001863	451.83	138.33	156.18	66.758	0.00017378	69.619	114.646	57.121	1.404	-33.682	148.485	139.078	-34.550	-29.164	295.318	95.691	-31.145	-27.989	-26.122	-20.557	73.149	-23.684	-8191	255	
1852.013	1	1	0	0	0.060117	0.063399	0.28642	0.20757	0.17277	0.19161	0.17221	0.3545	0.019459	0.2964	0.12059	0.34246	0.22846	0.25531	0.16021	0.092119	-3.0854	-3.275	-2.8292	-3.4146	-3.0208	-3.1104	-3.4167	-3.1813	-3.3625	-3.1437	-3.0292	-3.6979	-3.0771	-2.9688	-3.3479	-3.125	100.595	-41.875	141.319	-5.772	53.743	125.471	-31.932	304.157	303.500	49.154	-26.940	283.460	271.497	250.799	285.992	215.608	0.00022995	0.0012807	0.00018895	1312.2	1.9182e-05	1.4122e-05	1298.3	473.45	1.3088e-05	9.9335e-06	496.16	152.51	170.34	75.13	2.2874e-05	77.464	0.010605	0.016469	0.0046313	1162.1	0.00016427	0.00018503	1145	416.82	0.00016601	0.00018714	452.91	140.37	157.54	67.458	0.00016999	70.846	140.734	80.702	68.275	-33.138	303.548	178.395	-34.354	-28.871	85.727	8.176	-30.879	-28.273	-26.068	-20.108	167.540	-24.324	-8191	255	
1852.109	1	1	0	0	0.2002	0.12278	0.10406	0.19658	0.078887	0.071556	0.25652	0.15401	0.19167	0.11164	0.16355	0.11448	0.19379	0.20451	0.05159	0.14955	-2.9542	-3.3875	-2.8	-3.4188	-3.2062	-3.1688	-3.3833	-3.1083	-3.2	-3.2458	-2.9708	-3.6083	-3.1458	-2.9562	-3.3583	-2.9792	304.544	288.324	123.883	-23.224	282.955	222.034	262.302	274.447	284.809	-40.318	286.656	191.503	295.893	204.443	2.671	45.131	0.00028738	0.0032319	0.0004135	1324.4	1.4779e-05	1.9412e-05	1315.7	482.04	7.5352e-06	1.0261e-05	501.28	154.52	171.28	75.89	2.7284e-05	77.979	0.010469	0.016196	0.0044312	1167.7	0.00015723	0.0001725	1157.2	421.05	0.00015653	0.00017437	455.71	141.03	158.36	67.767	0.00016577	70.933	150.656	-13.010	31.486	-33.324	168.939	283.624	-34.811	-28.890	174.476	-2.634	-31.207	-27.695	-25.861	-20.047	18.639	-23.708	-8191	255	
1852.205	1	1	0	0	0.25557	0.21559	0.21808	0.21309	0.089407	0.15718	0.088881	0.31106	0.049141	0.05182	0.25055	0.074298	0.14433	0.16406	0.13737	0.19732	-2.8063	-3.3375	-2.7625	-3.3979	-3.2917	-2.9771	-3.5062	-3.3521	-3.0333	-3.1688	-3.0229	-3.4271	-3.3312	-3.1583	-3.3604	-3.0729	-2.073	215.516	28.982	274.416	58.390	31.681	298.398	211.592	76.256	90.352	293.426	-3.031	207.890	248.604	7.196	271.857	0.00027181	0.00050212	0.00016977	1329.3	1.2847e-05	2.0401e-05	1312	478.18	1.3935e-05	1.1219e-05	496.31	154.52	172.45	75.69	1.1646e-05	77.398	0.010325	0.015682	0.0043394	1167.9	0.00015742	0.00017352	1148.6	418.11	0.00015731	0.00017449	452.31	141.51	158.49	67.594	0.00015722	70.424	9.399	196.140	248.033	-33.169	61.876	4.145	-34.476	-29.100	99.344	100.493	-31.160	-27.544	-25.976	-20.408	176.661	-24.110	-8191	255	
1852.326	1	1	0	0	0.15707	0.21437	0.12457	0.089118	0.083922	0.38677	0.2659	0.48251	0.22641	0.14197	0.30256	0.52171	0.33526	0.19153	0.03525	0.068466	-2.8021	-3.2375	-2.8271	-3.2771	-3.1625	-2.8458	-3.725	-3.2354	-2.9062	-3.4688	-2.9229	-3.2542	-3.2292	-2.7208	-3.5458	-3.3854	275.013	220.138	108.423	310.195	34.189	77.409	280.163	304.417	-45.048	197.962	228.647	259.106	227.468	255.112	219.104	65.534	0.00030313	0.0030389	0.00017724	1328.9	2.4593e-05	1.2949e-05	1318.3	477.7	4.7079e-06	8.3281e-06	502.86	155.58	172.41	76.312	3.3408e-06	78.888	0.0099462	0.015129	0.0041439	1167	0.00015097	0.00016539	1152.5	419.67	0.00015232	0.00016773	454.55	141.61	159.02	68.064	0.00015502	71.517	79.687	301.099	54.680	-33.045	107.750	263.843	-34.563	-28.605	5.991	101.281	-31.123	-27.131	-25.808	-20.356	253.905	-23.910	-8191	255	
1852.422	1	1	0	0	0.10116	0.17522	0.22552	0.31585	0.17638	0.14566	0.26897	0.25115	0.16723	0.30348	0.31716	0.25225	0.20816	0.21701	0.15135	0.16127	-2.3521	-3.3583	-2.9021	-3.4146	-3.1188	-3.0812	-3.3271	-3.2208	-2.9208	-3.3979	-3.0396	-3.0333	-3.4542	-2.9	-3.4479	-3.3208	-20.775	282.386	54.304	302.713	13.201	-31.241	242.295	256.425	270.150	223.047	245.193	296.109	207.219	242.877	169.193	228.034	0.00029523	0.00090796	0.00072024	1331.8	9.3181e-06	2.2167e-05	1330	484.56	1.4442e-05	1.5384e-05	506.49	158.38	174.44	77.57	1.8151e-05	80.416	0.0097456	0.014852	0.0040701	1169.9	0.00014887	0.00015911	1160.8	423.58	0.00014737	0.00015739	457.19	143.86	159.72	69.064	0.00014699	72.597	104.023	10.695	97.234	-33.048	177.199	3.360	-34.557	-28.913	24.096	127.484	-31.222	-27.937	-25.862	-20.570	77.213	-24.085	-8191	255	
1852.516	1	1	0	0	0.24133	0.061664	0.20206	0.13204	0.041656	0.060855	0.16437	0.17194	0.14331	0.12678	0.061534	0.15333	0.32927	0.21801	0.17859	0.18647	-2.6688	-3.5062	-2.9875	-3.2917	-3.2375	-2.7687	-3.3375	-3.35	-2.8167	-3.5667	-3.0083	-3.0938	-3.6146	-3.0771	-3.2479	-3.2729	67.169	48.303	19.852	297.371	60.477	289.918	195.247	210.486	207.608	230.056	268.663	-18.859	254.934	-37.324	266.346	250.109	0.00049175	0.0017363	0.00036146	1340.8	1.4866e-05	1.8471e-05	1340.8	488.77	8.8702e-06	9.3098e-06	519.62	161.24	176.4	78.916	1.9995e-05	80.846	0.0094003	0.014421	0.0040234	1180.4	0.0001483	0.00016102	1173.2	425.48	0.00014854	0.0001613	464.64	146.3	161.29	69.695	0.00015183	73.206	121.611	135.817	-7.740	-33.340	264.722	69.250	-34.184	-29.171	169.753	138.137	-30.907	-27.565	-26.087	-20.414	173.362	-24.241	-8191	255	
#DATA ENDS
