BOXY.EXE: ISS Imagent and Oximeter Data Acquisition Program Version 0.80
Ascii Record File

#ACQ INFORMATION
2  Detector Channels 
16  External MUX Channels 
1  Auxiliary Channels 
5000  Waveform (CCF) Frequency (Hz)
1  Waveforms Skipped 
30  Waveforms Averaged 
1  Cycles Averaged 
16  Acquisitions per Waveform 
10.0806  Updata Rate (Hz) 

#FILE INFORMATION
TRUE -- External MUX Channel results are PARSED.
FALSE -- AC DC and Phase are NOT grouped.
TRUE -- Companion Program Settings File CREATED.
FALSE -- AC data not excluded
FALSE -- DC data not excluded
FALSE -- Phase data not excluded
FALSE -- Auxillary Chn. data not excluded
Tab delimiters

#CALIBRATION STATE
TRUE -- Waveform Calibration Values APPLIED.


#AUX CALIBRATION VALUES
Val Type	aux-1	

Term	1.0000e+00	
Factor	0.0000e+00	


#WF CALIBRATION VALUES
A = Detector Channel
Val Type	A-AC1	A-AC2	A-AC3	A-AC4	A-AC5	A-AC6	A-AC7	A-AC8	A-AC9	A-AC10	A-AC11	A-AC12	A-AC13	A-AC14	A-AC15	A-AC16	A-DC1	A-DC2	A-DC3	A-DC4	A-DC5	A-DC6	A-DC7	A-DC8	A-DC9	A-DC10	A-DC11	A-DC12	A-DC13	A-DC14	A-DC15	A-DC16	A-Ph1	A-Ph2	A-Ph3	A-Ph4	A-Ph5	A-Ph6	A-Ph7	A-Ph8	A-Ph9	A-Ph10	A-Ph11	A-Ph12	A-Ph13	A-Ph14	A-Ph15	A-Ph16	

Term	0.00000e+00	0.00000e+00	0.00000e+00	0.00000e+00	0.00000e+00	0.00000e+00	0.00000e+00	0.00000e+00	0.00000e+00	0.00000e+00	0.00000e+00	0.00000e+00	0.00000e+00	0.00000e+00	0.00000e+00	0.00000e+00	0.00000e+00	0.00000e+00	0.00000e+00	0.00000e+00	0.00000e+00	0.00000e+00	0.00000e+00	0.00000e+00	0.00000e+00	0.00000e+00	0.00000e+00	0.00000e+00	0.00000e+00	0.00000e+00	0.00000e+00	0.00000e+00	0.00000e+00	0.00000e+00	0.00000e+00	0.00000e+00	0.00000e+00	0.00000e+00	0.00000e+00	0.00000e+00	0.00000e+00	0.00000e+00	0.00000e+00	0.00000e+00	0.00000e+00	0.00000e+00	0.00000e+00	0.00000e+00	
Factor	1.00000e+00	1.00000e+00	1.00000e+00	1.00000e+00	1.00000e+00	1.00000e+00	1.00000e+00	1.00000e+00	1.00000e+00	1.00000e+00	1.00000e+00	1.00000e+00	1.00000e+00	1.00000e+00	1.00000e+00	1.00000e+00	1.00000e+00	1.00000e+00	1.00000e+00	1.00000e+00	1.00000e+00	1.00000e+00	1.00000e+00	1.00000e+00	1.00000e+00	1.00000e+00	1.00000e+00	1.00000e+00	1.00000e+00	1.00000e+00	1.00000e+00	1.00000e+00	X	X	X	X	X	X	X	X	X	X	X	X	X	X	X	X	

B = Detector Channel
Val Type	B-AC1	B-AC2	B-AC3	B-AC4	B-AC5	B-AC6	B-AC7	B-AC8	B-AC9	B-AC10	B-AC11	B-AC12	B-AC13	B-AC14	B-AC15	B-AC16	B-DC1	B-DC2	B-DC3	B-DC4	B-DC5	B-DC6	B-DC7	B-DC8	B-DC9	B-DC10	B-DC11	B-DC12	B-DC13	B-DC14	B-DC15	B-DC16	B-Ph1	B-Ph2	B-Ph3	B-Ph4	B-Ph5	B-Ph6	B-Ph7	B-Ph8	B-Ph9	B-Ph10	B-Ph11	B-Ph12	B-Ph13	B-Ph14	B-Ph15	B-Ph16	

Term	0.00000e+00	0.00000e+00	0.00000e+00	0.00000e+00	0.00000e+00	0.00000e+00	0.00000e+00	0.00000e+00	0.00000e+00	0.00000e+00	0.00000e+00	0.00000e+00	0.00000e+00	0.00000e+00	0.00000e+00	0.00000e+00	0.00000e+00	0.00000e+00	0.00000e+00	0.00000e+00	0.00000e+00	0.00000e+00	0.00000e+00	0.00000e+00	0.00000e+00	0.00000e+00	0.00000e+00	0.00000e+00	0.00000e+00	0.00000e+00	0.00000e+00	0.00000e+00	-1.56894e+02	-1.27752e+02	-1.28220e+02	-1.82394e+02	-8.05549e+01	-6.51345e+01	-1.55939e+02	-1.62015e+02	-8.46711e+01	-6.06474e+01	-1.70818e+02	-1.71805e+02	-1.80520e+02	-1.77372e+02	-7.45731e+01	-1.49506e+02	
Factor	2.48450e-05	1.80034e-04	5.53765e-05	1.74917e-01	1.47804e-06	1.91503e-06	1.73878e-01	5.40847e-02	1.39976e-06	1.81173e-06	9.61147e-02	3.08946e-02	3.55403e-02	9.85352e-03	1.70142e-06	1.43833e-02	1.14720e-05	1.78812e-05	4.98075e-06	8.74279e-02	1.80401e-07	1.98474e-07	8.17633e-02	2.71597e-02	1.79927e-07	1.99377e-07	4.67774e-02	1.50850e-02	1.80288e-02	4.99142e-03	1.87127e-07	7.05837e-03	X	X	X	X	X	X	X	X	X	X	X	X	X	X	X	X	



#DISTANCE SETTINGS
A = Detector Channel
A-1	A-2	A-3	A-4	A-5	A-6	A-7	A-8	A-9	A-10	A-11	A-12	A-13	A-14	A-15	A-16	

2.5000e+00	3.0000e+00	2.5000e+00	3.0000e+00	2.0000e+00	3.0000e+00	1.5000e+00	3.0000e+00	3.0000e+00	3.0000e+00	3.0000e+00	3.0000e+00	3.0000e+00	3.0000e+00	1.5000e+00	3.0000e+00	

B = Detector Channel
B-1	B-2	B-3	B-4	B-5	B-6	B-7	B-8	B-9	B-10	B-11	B-12	B-13	B-14	B-15	B-16	

1.0000e+01	1.0000e+01	1.0000e+01	1.4400e+00	1.0000e+01	1.0000e+01	1.5100e+00	1.9400e+00	1.0000e+01	1.0000e+01	1.9900e+00	2.4900e+00	2.4100e+00	2.9000e+00	1.0000e+01	2.9800e+00	




#DATA BEGINS
time	group	step	mark	flag	A-AC1	A-AC2	A-AC3	A-AC4	A-AC5	A-AC6	A-AC7	A-AC8	A-AC9	A-AC10	A-AC11	A-AC12	A-AC13	A-AC14	A-AC15	A-AC16	A-DC1	A-DC2	A-DC3	A-DC4	A-DC5	A-DC6	A-DC7	A-DC8	A-DC9	A-DC10	A-DC11	A-DC12	A-DC13	A-DC14	A-DC15	A-DC16	A-Ph1	A-Ph2	A-Ph3	A-Ph4	A-Ph5	A-Ph6	A-Ph7	A-Ph8	A-Ph9	A-Ph10	A-Ph11	A-Ph12	A-Ph13	A-Ph14	A-Ph15	A-Ph16	B-AC1	B-AC2	B-AC3	B-AC4	B-AC5	B-AC6	B-AC7	B-AC8	B-AC9	B-AC10	B-AC11	B-AC12	B-AC13	B-AC14	B-AC15	B-AC16	B-DC1	B-DC2	B-DC3	B-DC4	B-DC5	B-DC6	B-DC7	B-DC8	B-DC9	B-DC10	B-DC11	B-DC12	B-DC13	B-DC14	B-DC15	B-DC16	B-Ph1	B-Ph2	B-Ph3	B-Ph4	B-Ph5	B-Ph6	B-Ph7	B-Ph8	B-Ph9	B-Ph10	B-Ph11	B-Ph12	B-Ph13	B-Ph14	B-Ph15	B-Ph16	aux-1	digaux	

1897.845	1	1	0	256	0.0791	0.089269	0.10324	0.43437	0.11225	0.11534	0.21906	0.36964	0.33906	0.13999	0.22956	0.23313	0.1519	0.22011	0.080388	0.37948	-2.8417	-3.3417	-2.8812	-3.3521	-3.0125	-2.9833	-3.6646	-3.3521	-3.2792	-3.4125	-3.0583	-3.2458	-3.2479	-2.9771	-3.2125	-3.0229	85.611	246.366	273.020	256.865	159.796	255.089	-22.231	269.247	-18.418	280.388	-45.715	284.956	15.419	270.703	196.510	222.714	0.00024989	0.0015605	0.00040924	1300	8.4704e-06	1.2167e-05	1340.9	418.55	3.473e-06	6.6078e-06	464.34	151.22	154.13	65.342	8.2959e-06	67.322	0.0053911	0.008323	0.0023401	1124.4	8.2128e-05	9.1288e-05	1152.4	361.85	8.6286e-05	9.2197e-05	407.33	133.56	136.54	57.727	8.7045e-05	59.863	134.120	81.102	19.527	-33.677	36.421	68.047	-35.013	-29.367	34.702	97.812	-31.437	-27.813	-25.806	-20.274	129.551	-23.744	-8191	255	
1897.964	1	1	0	0	0.15963	0.2263	0.14009	0.26132	0.155	0.36696	0.36001	0.1897	0.11695	0.11263	0.23111	0.19071	0.1681	0.38136	0.11614	0.030809	-2.7354	-3.4583	-3.0729	-3.1646	-3.1417	-2.725	-3.3	-3.1188	-2.9583	-3.4813	-3.0625	-3.3688	-3.2938	-2.6312	-3.3292	-3.1979	44.828	195.560	301.380	261.875	62.093	247.290	271.885	252.951	179.272	-45.891	274.063	-39.669	197.977	-17.243	225.104	274.194	0.00018672	0.00149	2.903e-05	1312.2	9.7167e-06	3.3674e-06	1351.9	418.76	9.0714e-06	4.6144e-06	467.49	154.2	156.3	67.02	1.7657e-05	69.206	0.0053599	0.0084036	0.0023305	1127.3	8.1864e-05	9.0628e-05	1156.3	362.63	8.2857e-05	9.1076e-05	412.01	136.15	138.37	58.797	8.6785e-05	61.453	82.334	86.903	135.061	-33.558	77.405	196.121	-35.093	-29.415	64.073	281.042	-31.187	-27.435	-25.689	-19.745	101.418	-24.226	-8191	255	
1898.060	1	1	0	0	0.20796	0.016765	0.20872	0.11585	0.15724	0.214	0.23781	0.29138	0.2331	0.15653	0.359	0.091411	0.13358	0.32493	0.16425	0.094153	-2.5604	-3.4354	-2.9562	-3.2687	-3.2042	-2.8875	-3.3375	-3.0083	-2.9583	-3.4208	-3.1958	-3.3167	-3.3583	-2.8187	-3.2125	-2.9333	34.077	-2.227	22.663	248.856	94.687	198.498	270.855	249.032	-30.021	-36.728	294.553	279.026	116.775	263.106	101.889	-29.069	0.00021611	0.00082891	0.00025562	1311.9	1.5601e-05	5.6638e-06	1353.5	428.57	5.4137e-06	1.9536e-05	470.34	157	157.53	67.71	2.8379e-06	69.657	0.0052771	0.0081668	0.0022448	1128.7	8.1747e-05	9.0949e-05	1166.2	368.57	8.3845e-05	8.9295e-05	414.74	138.11	139.92	59.402	8.3493e-05	61.534	130.358	61.098	128.007	-33.452	112.004	32.242	-35.296	-29.423	291.290	166.659	-31.431	-28.137	-25.808	-19.827	206.744	-24.382	-8191	255	
1898.156	1	1	0	0	0.088811	0.087712	0.22203	0.19962	0.020526	0.1794	0.14747	0.44798	0.33721	0.1066	0.15769	0.26479	0.11278	0.17627	0.26237	0.13732	-2.2854	-3.1813	-2.9729	-3.1104	-3.3729	-2.9562	-3.3875	-3.3854	-2.85	-3.3021	-3.0271	-2.9354	-3.3896	-2.8667	-3.3083	-3.3312	294.680	300.063	40.502	261.184	163.655	38.286	247.031	281.439	280.300	18.814	80.016	298.258	304.929	238.975	252.752	267.425	0.00015307	0.0019194	0.00024414	1311.4	1.1228e-05	1.9272e-05	1359.7	429.26	7.2597e-06	7.4549e-06	473.72	157.32	157.21	67.799	1.0283e-05	69.202	0.0052496	0.0081234	0.0021967	1127	8.1446e-05	8.9627e-05	1161	368.65	8.2565e-05	8.9621e-05	415.22	138.21	140.27	59.263	8.7789e-05	61.104	137.462	90.697	130.995	-33.632	51.814	110.741	-34.964	-29.280	253.472	149.971	-31.156	-27.848	-25.593	-20.168	124.975	-24.217	-8191	255	
1898.252	1	1	0	0	0.20969	0.21363	0.059641	0.31333	0.069515	0.049081	0.45778	0.1915	0.10524	0.059382	0.042513	0.11848	0.23593	0.13697	0.13057	0.10893	-2.5229	-3.2229	-3.0062	-3.0375	-3.5333	-3.0875	-3.3604	-3.2542	-2.7146	-3.3104	-3.2208	-3.0167	-3.3312	-2.9479	-3.1792	-3.4229	149.886	267.883	158.568	266.825	231.943	225.765	237.945	258.019	-34.414	269.369	51.800	144.393	289.792	15.482	40.779	238.941	0.00036405	0.0008667	0.00029293	1314	1.3319e-05	1.3365e-05	1353.9	425.39	5.4365e-06	2.457e-05	471.81	156.04	156.42	67.054	8.0433e-06	67.844	0.0053733	0.0081136	0.002238	1129.1	8.2359e-05	9.1656e-05	1162.7	367.16	8.7203e-05	9.18e-05	413.87	137.07	139.6	58.864	8.6818e-05	60.483	115.494	-35.298	-29.609	-33.357	24.772	200.609	-34.775	-29.104	34.406	72.192	-31.213	-28.024	-25.619	-20.286	194.880	-24.126	-8191	255	
1898.373	1	1	0	0	0.19384	0.098005	0.15086	0.050161	0.056572	0.20112	0.081185	0.28566	0.081341	0.19208	0.14002	0.17781	0.089196	0.47226	0.12664	0.3104	-2.3229	-3.1479	-3.3458	-3.0917	-3.4667	-3.1542	-3.4292	-3.55	-2.7812	-3.2875	-3.2562	-2.8812	-3.4708	-3.2771	-3.1542	-3.525	199.891	-10.743	110.536	60.459	151.362	200.615	211.508	234.641	-14.252	120.394	34.919	217.372	88.406	260.470	231.521	297.354	0.00029934	0.0017096	0.00046764	1309	1.7308e-05	5.5919e-06	1354.9	425.33	2.0773e-06	1.6872e-05	468.5	153.08	154.08	65.487	2.0822e-05	67.619	0.0055117	0.0082452	0.0022814	1134	8.4602e-05	9.3046e-05	1163	366.72	8.6202e-05	9.2273e-05	412.7	135.54	138.33	57.788	9.19e-05	60.162	75.737	3.256	13.822	-33.420	300.558	278.550	-35.193	-29.386	79.150	165.230	-31.234	-27.740	-25.832	-20.538	77.664	-23.691	-8191	255	
1898.444	1	1	0	0	0.24646	0.2361	0.11819	0.23038	0.23372	0.027002	0.18758	0.19977	0.22694	0.34833	0.024577	0.22515	0.17985	0.26876	0.11296	0.13726	-2.6375	-3.2562	-3.1646	-2.875	-3.2271	-3.1979	-3.1937	-3.5354	-2.9375	-3.3208	-3.3563	-2.9396	-3.3271	-3.1688	-3.0021	-3.5458	36.423	131.046	57.532	225.516	182.242	215.670	291.230	295.038	311.713	30.465	195.084	268.241	242.422	-41.204	188.546	97.804	0.00016833	0.00025867	0.00047924	1315.8	1.2914e-05	1.6976e-05	1355.3	423.27	1.1062e-05	2.9071e-05	468.71	152.9	153.26	65.881	6.5417e-06	67.068	0.0055457	0.0083255	0.0023392	1136.2	8.6005e-05	9.3772e-05	1165.5	366.04	8.6486e-05	9.6254e-05	411.03	134.87	137.03	57.608	8.787e-05	59.487	86.426	278.901	35.108	-33.663	36.945	127.651	-34.881	-29.461	64.217	148.631	-31.550	-27.760	-25.932	-20.458	42.583	-23.726	-8191	255	
1898.541	1	1	0	0	0.2234	0.16334	0.23289	0.40605	0.10852	0.097926	0.32309	0.26774	0.16258	0.24932	0.2049	0.079047	0.10307	0.22084	0.24743	0.25415	-2.5479	-3.2521	-3.3271	-2.9896	-3.2333	-3.0542	-3.2062	-3.5604	-3.2042	-3.2313	-3.425	-2.9708	-3.3125	-3.1437	-2.9521	-3.3833	243.555	-26.055	77.033	-37.559	28.264	116.146	271.851	251.937	6.656	69.809	-13.619	50.971	280.037	164.146	178.550	144.466	0.00028338	0.00055228	0.00015084	1307.3	1.9465e-05	1.8979e-05	1358.5	427.8	2.5905e-06	2.568e-05	472.32	153.06	157.55	66.332	5.8541e-06	68.17	0.0054123	0.0081079	0.0022634	1129.7	8.1617e-05	8.8703e-05	1160.8	367.91	8.0795e-05	8.8722e-05	413.32	136.26	139.56	58.156	8.7813e-05	60.38	63.698	283.883	7.615	-33.528	44.851	123.010	-34.942	-29.516	222.571	79.935	-31.337	-27.646	-25.755	-20.047	130.920	-24.062	-8191	255	
1898.661	1	1	0	0	0.16132	0.14144	0.074756	0.29539	0.05922	0.035681	0.20691	0.29472	0.14121	0.13935	0.30074	0.11061	0.027595	0.23043	0.22875	0.23834	-2.1146	-3.1312	-3.2938	-3.0812	-3.225	-3.3937	-2.9771	-3.5042	-3.0417	-3.075	-3.4083	-2.9708	-3.1958	-3.4271	-2.9125	-3.5479	50.627	119.254	-14.452	-19.372	124.938	89.510	244.845	273.930	-33.985	99.433	190.485	237.649	-34.552	-36.147	235.373	254.279	1.3843e-05	0.0028062	0.00048231	1304.1	6.0871e-06	8.4875e-06	1356.9	429.41	8.6748e-06	6.698e-06	471.83	155.92	157.37	66.856	9.7262e-06	68.476	0.0052164	0.0078195	0.0022281	1122	7.9744e-05	8.6675e-05	1158.9	369.01	8.0545e-05	9.1696e-05	415.19	137.03	139.54	58.492	8.6119e-05	60.286	311.559	-13.964	43.942	-33.964	96.392	264.177	-35.185	-29.296	103.449	23.829	-31.491	-28.003	-25.650	-20.203	53.064	-23.898	-8191	255	
1898.757	1	1	0	0	0.11595	0.24861	0.11659	0.25194	0.26946	0.22359	0.23396	0.31183	0.28818	0.15167	0.20758	0.15936	0.10831	0.12691	0.24254	0.1402	-2.6625	-3	-3.1854	-3.0896	-3.1125	-3.1833	-3.0708	-3.5563	-2.9604	-2.9354	-3.4208	-3.1354	-3.3	-3.425	-2.7396	-3.3958	183.687	253.347	14.518	294.843	77.283	180.921	233.903	242.751	121.640	116.456	-8.652	8.141	48.483	278.704	124.021	276.461	0.00032977	0.0011653	0.00011882	1315.6	1.9991e-06	9.5327e-06	1353.7	427.9	3.5275e-06	3.5721e-06	469.51	152.2	154.74	65.774	4.2229e-06	67.319	0.0052802	0.0081942	0.0022977	1130.7	8.485e-05	9.1748e-05	1167.4	367.11	8.3179e-05	9.5077e-05	412.33	134.64	137.89	57.767	9.2396e-05	59.808	101.394	-24.451	237.902	-33.753	285.248	-23.628	-34.694	-29.163	135.121	24.489	-31.391	-27.271	-25.951	-20.298	95.194	-23.738	-8191	255	
1898.854	1	1	0	0	0.1246	0.16029	0.11831	0.13465	0.24	0.1478	0.26645	0.2323	0.05994	0.11272	0.15372	0.16337	0.3935	0.1112	0.28733	0.038103	-2.4896	-2.6958	-3.3729	-3.2083	-3.0792	-3.2792	-3.2021	-3.3312	-3.1937	-2.8312	-3.5875	-3.1125	-3.1125	-3.1833	-2.6333	-3.2292	32.232	97.503	6.969	241.382	152.092	47.969	254.013	225.871	198.024	-27.651	292.894	308.810	309.725	290.212	19.009	246.932	0.00044563	0.00093318	0.0001261	1316	4.9662e-06	9.7566e-06	1357.3	422.25	1.0738e-05	1.7462e-05	468.3	151.72	154.09	65.888	7.8196e-06	67.486	0.0055014	0.0085789	0.0024283	1133.3	8.8396e-05	9.7491e-05	1167.8	365.46	8.5636e-05	0.00010028	411.41	134.71	137.36	57.943	9.2355e-05	59.904	82.475	-45.044	-28.474	-33.574	57.615	262.727	-34.945	-28.823	96.834	130.846	-31.742	-27.740	-25.685	-19.966	264.091	-23.831	-8191	255	
1898.972	1	1	0	0	0.11014	0.090945	0.05277	0.054898	0.084391	0.14088	0.13058	0.22676	0.2435	0.11623	0.26426	0.14625	0.32431	0.16603	0.090768	0.16249	-2.7542	-2.9479	-3.3104	-2.9813	-2.9146	-3.2062	-2.9479	-3.225	-3.0729	-2.8083	-3.2896	-3.1729	-2.8563	-3.5312	-2.9667	-3.2708	72.535	56.098	214.614	211.131	186.826	68.809	309.426	245.790	188.638	-14.866	305.567	254.474	211.848	222.658	248.267	122.241	0.00017947	0.00099928	0.00035299	1306.8	1.1106e-05	1.6546e-05	1351.7	421.76	9.1645e-06	1.0034e-05	462.91	149.85	153.5	65.207	7.7127e-06	67.194	0.0056754	0.0087632	0.0024186	1129.8	8.9836e-05	9.7347e-05	1160.1	362.88	8.8358e-05	9.921e-05	406.5	133.17	137.09	57.596	9.0612e-05	59.336	113.649	277.840	83.439	-33.467	27.775	118.848	-34.757	-29.116	119.427	96.476	-31.516	-27.857	-26.048	-20.156	26.261	-23.530	-8191	255	
1899.044	1	1	0	0	0.19743	0.12205	0.23032	0.11502	0.18676	0.14673	0.26209	0.333	0.10557	0.19934	0.12831	0.074281	0.32198	0.13757	0.15058	0.1958	-2.9062	-2.9146	-3.2875	-3.275	-2.7313	-3.1271	-3.075	-3.0417	-3.2313	-2.8271	-3.3396	-3.4104	-3.0667	-3.4479	-2.9313	-3.0542	160.751	209.339	301.213	250.180	143.381	228.934	303.397	257.574	6.034	302.087	295.315	146.046	236.924	-23.998	210.408	295.494	0.00031688	0.0011266	0.00050074	1318.7	1.062e-05	1.2855e-05	1335.8	410.67	9.0253e-06	8.7946e-06	452.62	145.77	149.66	63.383	1.5164e-05	64.052	0.0056601	0.0087909	0.0024126	1131.1	9.2133e-05	9.9275e-05	1151.2	357.68	9.2648e-05	0.00010708	400.07	130.09	134.59	56.19	9.9245e-05	57.471	122.013	55.642	131.188	-33.527	99.035	76.925	-34.816	-29.111	60.896	109.242	-31.338	-27.845	-25.568	-19.875	121.505	-23.264	-8191	255	
1899.140	1	1	0	0	0.13247	0.1168	0.14326	0.29866	0.17858	0.23451	0.15121	0.31844	0.25852	0.09533	0.31814	0.26676	0.42587	0.17851	0.036631	0.13617	-2.9958	-2.6188	-3.1604	-3.3312	-2.9104	-3.4271	-3.2104	-3.1021	-3.3	-2.7917	-3.2083	-3.4667	-3.0292	-3.3104	-2.9542	-3.1188	156.715	198.428	210.371	300.429	62.903	10.508	219.553	281.399	166.608	25.534	254.835	297.466	250.820	225.798	286.219	291.336	0.00027498	0.00064419	0.00019329	1302.7	1.2232e-05	9.5112e-06	1326	407.76	1.9365e-05	5.0326e-06	446.79	142.26	145.82	62.955	1.5134e-05	65.02	0.0063125	0.0096632	0.0026496	1129.9	9.99e-05	0.00010558	1138.9	352.8	9.4818e-05	0.00010488	394.5	127.47	132.2	55.802	9.6344e-05	57.871	80.106	161.015	16.038	-33.647	41.590	110.468	-35.057	-29.079	273.982	25.390	-31.134	-27.762	-25.359	-20.231	190.047	-24.148	-8191	255	
1899.236	1	1	0	0	0.0815	0.058296	0.21367	0.23611	0.20176	0.14646	0.087742	0.23339	0.17776	0.070744	0.2133	0.1515	0.16764	0.11767	0.10137	0.072969	-3.0667	-2.7812	-3.2333	-3.2417	-2.8917	-3.3896	-3.2792	-2.9813	-3.5354	-3.1646	-3.1333	-3.3917	-2.9604	-3.2938	-2.85	-2.7438	290.936	298.861	21.337	-45.411	22.409	257.811	299.493	282.308	198.338	-34.303	21.844	-31.215	-0.884	305.436	80.903	207.486	0.00030015	0.0004027	0.00020773	1308.3	9.6672e-06	1.3919e-05	1336.3	416.24	1.1983e-05	7.0236e-06	461.26	151.23	151.65	65.618	6.2555e-06	66.548	0.0060941	0.0091517	0.0025341	1128.5	9.4319e-05	9.9004e-05	1149.6	359.77	8.8921e-05	9.789e-05	406.68	133.96	136.51	57.603	8.8969e-05	59.576	77.398	51.286	74.678	-33.851	168.511	-4.524	-35.183	-28.989	92.879	153.440	-30.998	-27.821	-25.480	-19.964	195.090	-23.595	-8191	255	
1899.357	1	1	0	0	0.15858	0.13564	0.082614	0.19969	0.13513	0.17969	0.1755	0.10522	0.13434	0.09364	0.21546	0.066624	0.15959	0.12492	0.064986	0.048038	-3.1917	-3.0333	-3.0792	-3.5062	-2.7521	-3.1063	-3.2729	-3.0146	-3.35	-2.7417	-3.1521	-3.3563	-2.7208	-3.1625	-3.2333	-3.0417	167.585	10.916	121.118	277.872	308.447	95.934	275.728	-6.795	257.242	167.648	159.054	66.875	-18.927	-11.290	138.271	-40.797	0.00019616	0.00081695	0.00023517	1318.5	6.2514e-06	1.7032e-05	1351.2	418.62	6.9788e-06	8.7881e-06	458.27	149.82	153.9	65.481	4.2051e-06	66.371	0.0057079	0.0086633	0.0023736	1134.7	9.047e-05	9.4776e-05	1156.4	362.39	8.6991e-05	9.5153e-05	406.14	132.93	137.12	57.439	8.8774e-05	59.304	109.514	81.543	19.663	-33.626	135.641	123.010	-34.794	-28.890	-18.962	115.709	-31.431	-27.417	-25.360	-20.111	101.967	-23.717	-8191	255	
1899.453	1	1	0	0	0.14291	0.14507	0.22917	0.28311	0.15385	0.17799	0.39053	0.20792	0.067171	0.19853	0.16914	0.26804	0.24664	0.43599	0.17991	0.074882	-3.1292	-2.9125	-2.9083	-3.4875	-2.6417	-3.2104	-3.4688	-2.9646	-3.3146	-3.225	-3.1917	-3.4896	-2.7396	-3.2125	-3.2375	-2.8167	223.279	289.882	201.661	256.627	170.908	76.199	292.923	231.825	144.123	80.629	211.849	269.247	304.573	249.009	23.296	1.583	0.00028224	0.00098223	0.00016563	1323.4	1.3281e-05	1.2292e-05	1348.9	419.22	5.1036e-06	9.9452e-06	463.72	151.04	153.9	65.839	1.0725e-05	66.972	0.0055613	0.008443	0.0023821	1134.6	8.6712e-05	9.3333e-05	1154.4	364.37	8.6741e-05	9.3749e-05	408.14	133.94	137.76	57.979	9.1602e-05	59.478	104.387	117.482	12.788	-33.514	76.782	144.134	-34.732	-28.645	202.863	124.296	-31.012	-27.769	-25.569	-19.979	187.786	-24.064	-8191	255	
1899.549	1	1	0	0	0.17897	0.13796	0.22843	0.22205	0.20978	0.048429	0.12411	0.14853	0.14142	0.028595	0.1805	0.23314	0.16228	0.22893	0.12965	0.18399	-3.0438	-3	-2.5854	-3.4854	-2.9021	-3.1937	-3.4271	-2.9646	-3.4958	-3.2396	-3.1562	-3.5312	-3.0833	-3.1688	-3.3417	-2.8792	168.012	-18.243	255.548	283.361	57.909	288.945	270.991	3.690	237.403	190.648	112.048	216.503	-23.491	254.496	-36.528	250.273	0.00020916	0.0017264	0.0005087	1319.6	5.8164e-06	2.2343e-05	1353	420.18	2.476e-06	8.7562e-06	459.71	149.76	154.48	65.554	1.1568e-05	66.906	0.0057365	0.0085802	0.0024319	1134.3	8.8361e-05	9.974e-05	1159.8	362.75	8.8151e-05	9.7535e-05	406.56	133.08	137.77	57.813	9.3974e-05	59.745	102.211	84.798	19.298	-33.642	57.765	79.970	-34.989	-29.182	48.345	48.381	-31.137	-27.509	-25.700	-20.048	51.443	-23.660	-8191	255	
1899.621	1	1	0	0	0.057885	0.11733	0.12711	0.18297	0.27102	0.24835	0.25237	0.21331	0.18885	0.15362	0.29878	0.10521	0.035028	0.35207	0.062512	0.14214	-2.7208	-2.8354	-2.6417	-3.3083	-3.1146	-3.0771	-3.4542	-3.0729	-3.1875	-3.1604	-3.0271	-3.4646	-3.1021	-2.9958	-3.3104	-3.0292	123.260	211.930	141.931	268.209	-0.152	-16.236	220.279	223.771	172.946	61.165	304.531	26.791	244.303	241.653	229.439	-6.389	0.00018224	0.00016803	0.00047759	1325	1.5051e-05	2.1265e-05	1343	416.43	7.2499e-06	1.7997e-05	459.93	148.9	152.96	65.221	3.1178e-06	66.373	0.0058944	0.0089413	0.0025046	1140.9	8.9568e-05	0.0001007	1157.7	361.49	9.0933e-05	0.00010121	406.22	132.29	136.61	57.517	9.8577e-05	59.381	89.558	184.042	-33.099	-33.541	79.614	73.465	-35.052	-29.060	52.637	98.261	-31.110	-28.577	-25.565	-20.143	77.883	-24.254	-8191	255	
1899.742	1	1	0	0	0.11446	0.13066	0.33158	0.19636	0.019902	0.12091	0.3021	0.23042	0.14259	0.21195	0.1403	0.37864	0.33903	0.16433	0.17952	0.10933	-2.7125	-3.1813	-2.8812	-3.5917	-3.0792	-3.0521	-3.5854	-3.1375	-3.2687	-3.4375	-3.1396	-3.4	-3.1562	-2.9417	-3.2667	-2.9979	193.455	-9.489	22.619	281.912	-46.042	126.959	224.870	204.538	186.052	-19.294	201.514	244.237	274.377	296.450	102.330	-45.663	0.00025725	0.0010676	0.00028458	1319.1	3.8812e-06	1.1015e-05	1349.7	415.44	4.0992e-06	2.8706e-05	457.99	147.68	151.68	65.603	8.6579e-06	66.14	0.006146	0.0093889	0.0026877	1139.5	9.5153e-05	0.00010775	1161.2	359.05	9.3292e-05	0.00010325	403.27	131.31	135.48	57.554	9.5992e-05	58.998	140.349	100.219	62.254	-33.667	212.145	-22.307	-34.879	-29.017	-37.253	58.038	-31.118	-27.956	-25.614	-20.349	163.206	-23.645	-8191	255	
1899.838	1	1	0	0	0.045769	0.15045	0.1266	0.35378	0.22043	0.062063	0.17856	0.33067	0.068008	0.14583	0.07194	0.094126	0.08597	0.35831	0.0095922	0.21534	-2.6708	-3.45	-2.8104	-3.3375	-2.9979	-2.9375	-3.4792	-3.0375	-3.0875	-3.3458	-2.925	-3.3792	-3.3083	-2.9813	-3.2875	-2.9917	53.334	126.302	275.021	305.391	300.691	265.049	237.230	199.501	237.742	257.665	-15.159	278.032	182.598	309.840	55.516	301.146	0.00032434	0.0023587	0.00041415	1314.1	1.4233e-05	2.3069e-05	1335.9	414.61	1.0096e-05	2.9988e-06	457.85	149.68	153.54	65.735	2.2495e-05	66.781	0.006099	0.0090559	0.0025207	1132.6	9.1293e-05	0.0001034	1152	359.05	8.9838e-05	0.0001013	404.22	133.11	137.32	57.919	9.2559e-05	59.456	127.827	115.913	308.262	-33.735	74.626	156.048	-35.182	-29.253	175.947	286.277	-31.549	-27.817	-26.187	-20.080	156.210	-23.825	-8191	255	
1899.934	1	1	0	0	0.064694	0.22481	0.23579	0.14284	0.14386	0.053085	0.10588	0.2601	0.21515	0.047087	0.204	0.15285	0.30088	0.22543	0.10244	0.24967	-2.6083	-3.3271	-2.7188	-3.2167	-3.0312	-2.8167	-3.4646	-3.1083	-2.9917	-3.3896	-2.9	-3.0563	-3.2604	-3.0542	-3.3521	-3.0604	47.959	162.581	235.628	280.781	203.283	229.480	233.203	256.018	20.506	232.342	-42.243	-44.811	263.661	-26.348	43.237	252.479	0.00014815	0.0016568	0.00041931	1315.2	9.6655e-06	1.3796e-05	1342.4	425.68	9.4563e-06	1.2527e-05	465.44	155.35	157.15	67.513	1.2635e-05	68.458	0.0057639	0.008766	0.0024075	1128.1	8.684e-05	9.9286e-05	1158.4	365.69	8.6322e-05	9.5209e-05	410.7	136.29	139.93	59.056	8.8588e-05	60.664	94.078	25.213	52.868	-33.478	294.165	60.213	-34.747	-29.080	130.923	145.337	-31.179	-27.759	-26.028	-20.116	122.603	-23.914	-8191	255	
1900.053	1	1	0	0	0.16884	0.066805	0.24652	0.28079	0.24512	0.035668	0.15559	0.1528	0.15561	0.21452	0.045713	0.29643	0.43516	0.2003	0.12359	0.21766	-2.5979	-3.4583	-2.9688	-3.3521	-3.4437	-2.7188	-3.2792	-3.0125	-2.7979	-3.4792	-3.1292	-3.1375	-3.3229	-3.2042	-3.2708	-3.2958	59.114	-16.992	79.378	288.161	207.166	-28.072	246.080	257.909	41.791	229.607	103.582	294.484	274.274	-41.000	89.611	102.819	0.00023967	0.00051634	0.0005365	1316	1.67e-05	1.7865e-05	1362.3	423.72	5.7329e-06	1.7586e-05	467.08	154.8	157.04	66.96	3.7504e-06	68.323	0.0058166	0.0085593	0.0023593	1134.1	8.6704e-05	9.6822e-05	1162.4	365.5	8.6372e-05	9.5928e-05	411.3	137.15	139.45	58.744	8.9462e-05	60.639	111.582	-4.770	49.343	-33.487	85.723	257.693	-34.967	-28.817	115.923	79.346	-31.129	-27.457	-25.687	-19.895	70.825	-23.638	-8191	255	
1900.149	1	1	0	0	0.22777	0.20554	0.079618	0.21706	0.025816	0.090355	0.26874	0.19013	0.14644	0.17613	0.04439	0.23451	0.12988	0.35807	0.12496	0.31401	-2.4313	-3.1979	-2.8417	-3.0979	-3.2062	-2.7104	-3.3896	-3.3042	-3.0854	-3.6521	-3.1521	-3.1396	-3.5229	-3.0271	-3.0312	-3.2229	169.692	239.871	150.724	273.444	233.317	187.170	283.712	223.183	206.944	31.841	296.456	131.095	292.372	263.260	214.898	239.605	0.0003529	0.00047665	0.00042647	1333.8	8.0466e-06	2.2166e-05	1366.2	426.2	3.6092e-06	9.206e-06	464.41	152.48	156.47	66.409	1.3057e-05	66.921	0.0059261	0.0087548	0.0024379	1144.3	8.9938e-05	9.9233e-05	1167	366.08	8.9419e-05	9.8461e-05	410.18	135.09	138.52	58.272	9.0352e-05	59.74	98.179	71.109	275.864	-33.659	125.533	73.152	-34.853	-29.166	273.222	41.536	-31.205	-27.339	-25.894	-20.320	86.010	-23.756	-8191	255	
1900.245	1	1	0	0	0.089305	0.14889	0.14057	0.19676	0.17882	0.064417	0.29239	0.28594	0.10971	0.26863	0.29152	0.16339	0.17082	0.068406	0.24729	0.17099	-2.3917	-3.2396	-3.2333	-3.2687	-3.4313	-2.9479	-3.325	-3.4979	-2.75	-3.3229	-2.8833	-3.1417	-3.4208	-3.1813	-3.1688	-3.2542	162.132	87.509	-40.784	200.908	4.985	100.644	274.769	248.195	204.789	-25.649	209.035	-15.993	-39.015	111.975	278.797	258.992	0.00020168	0.00082395	0.00029044	1324.3	1.4603e-05	7.0607e-06	1339.3	422.08	3.1311e-06	2.4617e-06	459.56	149.75	152.88	65.47	1.1323e-05	66.985	0.0059642	0.0087368	0.0023948	1136.3	8.8116e-05	9.7886e-05	1153.4	364.17	8.9879e-05	9.7465e-05	406.11	133.34	136.98	57.632	9.2083e-05	59.32	100.124	50.455	65.515	-33.962	47.361	102.771	-34.876	-29.163	190.071	19.442	-30.676	-27.635	-25.930	-20.422	130.938	-24.084	-8191	255	
1900.341	1	1	0	0	0.064386	0.16153	0.032731	0.127	0.18879	0.21331	0.076637	0.24733	0.19692	0.11598	0.071325	0.10129	0.11524	0.082922	0.17586	0.18156	-2.3292	-3.2188	-2.9375	-2.9604	-3.2833	-3.1104	-3.2979	-3.5021	-2.9688	-3.3146	-3.3792	-3.0167	-3.5292	-3.2583	-2.9458	-3.3896	299.053	58.219	46.098	244.305	198.026	207.532	123.719	245.329	279.519	-44.708	215.883	75.869	46.886	22.540	-12.114	217.989	0.00032192	0.00081955	0.00023235	1312.8	3.761e-06	7.6653e-06	1336.8	421.48	1.0833e-05	1.8275e-05	458.74	150.1	153.97	65.615	1.4258e-05	66.63	0.0059311	0.0086233	0.0024511	1129.8	8.9627e-05	9.834e-05	1153	362.52	9.0118e-05	9.883e-05	405.59	133.48	137.38	57.546	9.564e-05	59.114	99.103	-45.988	63.860	-33.613	12.507	38.764	-34.997	-28.909	220.030	143.233	-31.439	-28.064	-25.749	-20.161	59.507	-24.279	-8191	255	
1900.437	1	1	0	0	0.16645	0.10363	0.069565	0.22727	0.090126	0.18665	0.33803	0.13289	0.1364	0.10313	0.13397	0.078246	0.22374	0.12775	0.026163	0.29363	-2.2833	-3.2146	-3.2021	-3.0396	-3.55	-3.0271	-3.0917	-3.2875	-2.8438	-3.1167	-3.2792	-3.1375	-3.4854	-3.0667	-2.9583	-3.475	300.925	271.900	-42.293	289.351	67.972	262.377	246.321	93.464	-43.251	117.706	125.118	259.247	28.655	0.113	291.543	184.156	0.00018379	0.0015422	0.00018076	1309.4	1.0705e-05	1.182e-05	1355.5	421.97	4.576e-06	7.6615e-06	460.58	150.64	154.13	65.806	1.1422e-05	67.066	0.0059891	0.0087468	0.0024629	1130.1	8.7102e-05	9.6097e-05	1159.5	363.56	8.7974e-05	9.6276e-05	407.75	133.92	137.6	57.843	9.2585e-05	59.67	114.437	92.478	-11.279	-33.370	217.364	77.205	-34.626	-29.151	113.038	-37.617	-31.123	-28.027	-25.674	-20.060	188.718	-23.718	-8191	255	
1900.534	1	1	0	0	0.24038	0.020653	0.22651	0.22525	0.16752	0.096442	0.31134	0.33279	0.13377	0.1893	0.14754	0.29508	0.11462	0.10229	0.25603	0.13467	-2.6458	-3.05	-3.2729	-2.925	-3.2604	-2.9854	-2.9208	-3.6042	-2.9125	-3.1375	-3.3604	-3.1354	-3.4521	-3.3833	-3.0292	-3.4396	57.743	102.291	-29.475	295.873	90.920	262.169	-28.956	226.312	277.627	1.194	64.248	213.992	214.193	308.484	276.886	131.225	0.000253	0.00055311	0.00028197	1320.1	5.0732e-06	2.266e-05	1352.1	423.1	1.0732e-05	2.5933e-05	465.45	153.11	154.72	66.747	8.8287e-06	67.73	0.0056366	0.0088014	0.0024942	1135.2	8.8314e-05	9.6252e-05	1163.8	364.96	8.8122e-05	9.8656e-05	410.21	135.57	138.23	58.484	9.4277e-05	59.993	78.679	-0.541	-30.081	-33.382	20.982	212.673	-35.046	-29.261	84.673	128.092	-31.288	-27.846	-25.886	-20.305	86.641	-23.441	-8191	255	
1900.654	1	1	0	0	0.16173	0.11802	0.14544	0.19662	0.10539	0.18136	0.17691	0.18461	0.16386	0.17837	0.22718	0.12979	0.26521	0.2859	0.2072	0.33995	-2.4771	-2.9292	-3.2687	-3.1833	-3.2896	-3.2021	-2.9	-3.35	-2.8625	-3.0021	-3.3917	-2.9208	-3.2896	-3.2771	-2.9354	-3.4771	-22.174	219.389	67.777	260.258	-14.431	70.755	279.004	218.887	-4.604	260.432	2.934	160.939	278.411	266.400	37.204	-36.357	0.00034194	0.0019242	0.00076065	1319.3	3.4537e-06	1.4258e-05	1342.8	420.69	1.2921e-05	1.7035e-05	466.73	151.02	154.15	66.829	4.9763e-06	67.576	0.0057001	0.0090108	0.0024648	1136.2	8.6202e-05	9.6775e-05	1159.7	363.41	8.6913e-05	9.8817e-05	409.64	134.63	137.92	58.5	9.1932e-05	59.962	80.340	28.214	81.773	-33.828	-32.191	76.110	-34.968	-28.802	129.766	34.714	-31.091	-27.760	-26.093	-20.203	71.302	-23.731	-8191	255	
1900.750	1	1	0	0	0.3143	0.055603	0.26065	0.1696	0.029804	0.12514	0.17387	0.15793	0.070802	0.11441	0.17703	0.048562	0.21971	0.16854	0.10509	0.37062	-2.7271	-2.85	-3.4229	-3.0563	-3.0667	-3.1792	-2.9583	-3.4042	-3.0979	-2.9958	-3.2854	-2.8375	-3.0667	-3.3875	-2.975	-3.4667	243.891	147.384	153.516	238.904	188.861	263.728	146.583	311.106	242.059	-21.046	301.252	283.855	278.048	272.058	106.494	296.178	0.00042981	0.0012309	0.00061067	1316.5	1.7063e-06	2.0798e-05	1349.8	419.56	1.3785e-05	1.6299e-05	463.56	152.04	154.95	66.57	1.1127e-05	67.101	0.0058076	0.0090982	0.0024827	1134.8	8.9341e-05	9.9759e-05	1161.5	364.33	8.8627e-05	0.00010032	408.6	134.33	138.07	58.494	9.3235e-05	59.844	89.550	66.242	81.934	-33.363	102.097	11.412	-34.819	-29.031	145.800	53.591	-31.086	-27.620	-25.569	-20.051	92.321	-23.518	-8191	255	
1900.845	1	1	0	0	0.16995	0.057052	0.31981	0.15921	0.19388	0.10626	0.21636	0.35264	0.15599	0.084899	0.29354	0.18993	0.27556	0.34711	0.20747	0.04503	-2.8312	-2.9625	-3.2687	-2.8021	-2.8187	-3.4188	-3.0333	-3.2687	-3.0042	-2.7604	-3.45	-2.8771	-2.9542	-3.5104	-3.0271	-3.3438	-28.318	159.476	-31.162	258.501	94.244	282.959	292.056	278.884	150.329	186.253	185.517	225.019	249.837	284.922	124.690	20.308	0.00021879	0.0016407	0.00030731	1330.4	1.8967e-05	1.9242e-05	1345.6	421.61	7.8418e-06	4.2717e-06	463.11	151.96	155.26	66.927	5.7714e-06	68.03	0.0057694	0.0092329	0.0024882	1141.6	8.9573e-05	0.00010043	1163.6	364.58	9.0158e-05	0.00010183	408.26	134.67	139	58.817	9.4428e-05	60.638	140.517	300.753	218.985	-33.596	50.965	118.347	-35.069	-29.085	56.517	104.051	-31.125	-27.723	-25.685	-20.421	58.442	-23.836	-8191	255	
1900.943	1	1	0	0	0.23966	0.050833	0.27392	0.25914	0.1051	0.38799	0.31125	0.3081	0.10013	0.14928	0.071788	0.12889	0.29636	0.31619	0.17941	0.08893	-2.7792	-2.7646	-3.2687	-3.0875	-2.8708	-3.2896	-2.9813	-3.4292	-3.1208	-2.9875	-3.6125	-3.3167	-3.0375	-3.3875	-2.8396	-3.0875	79.791	144.423	-37.039	-13.855	220.781	-0.189	-36.978	289.746	247.329	272.590	41.467	244.005	0.630	-17.735	177.717	123.015	0.0001194	0.0011627	0.00041681	1319.5	7.1931e-06	1.9111e-05	1355.2	419.18	9.6544e-06	1.7201e-05	460.7	153.16	154.15	66.259	9.2204e-06	67.517	0.0058998	0.0091782	0.0025136	1136.5	9.1691e-05	0.00010069	1165.9	362.76	9.2228e-05	0.00010239	408	135.51	137.97	58.383	9.6482e-05	60.328	43.160	96.714	45.141	-33.454	25.068	124.339	-34.875	-29.238	123.400	14.652	-31.091	-27.821	-25.572	-20.051	21.004	-23.898	-8191	255	
1901.037	1	1	0	0	0.29613	0.28833	0.23066	0.22219	0.11025	0.12321	0.14641	0.11225	0.23596	0.11837	0.031898	0.057918	0.08134	0.28381	0.18424	0.4056	-2.8229	-2.6396	-3.1854	-3.1708	-2.9583	-3.2833	-2.9104	-3.2125	-3.2313	-2.8771	-3.3146	-3.1479	-3.0021	-3.5021	-3.0292	-3.1625	191.728	135.608	-41.569	266.014	14.145	43.321	241.690	290.685	16.181	29.992	291.760	227.432	-23.277	221.578	212.923	221.723	0.00025504	0.00041407	0.00026119	1319.7	1.1634e-05	6.7824e-06	1348	418.92	9.094e-06	1.6069e-05	461.41	150.71	152.05	65.948	8.3919e-06	66.965	0.0060835	0.0094535	0.0025366	1135.7	9.3477e-05	0.00010206	1160	361.77	9.43e-05	0.0001018	406.04	133.91	137.52	58.063	9.6098e-05	59.906	138.140	302.905	29.455	-33.435	203.778	148.151	-34.990	-28.985	159.019	115.185	-30.880	-27.836	-25.765	-20.049	-19.820	-23.597	-8191	255	
1901.133	1	1	0	0	0.037682	0.24787	0.30627	0.13799	0.12589	0.14805	0.08655	0.18111	0.15553	0.12772	0.31985	0.040988	0.22704	0.20905	0.16819	0.22764	-3.0083	-2.8646	-3.2479	-3.2729	-2.9062	-3.4042	-3.1396	-3.3	-3.3021	-2.9083	-3.4833	-3.4354	-2.9771	-3.3958	-2.8896	-2.9958	219.097	250.599	280.860	-30.033	121.595	20.869	289.049	235.880	-29.717	-6.218	-35.580	-41.290	200.607	242.126	245.226	277.382	0.00029838	0.00045606	0.00054853	1319.6	1.0227e-05	7.323e-06	1338.2	419.81	8.761e-06	2.0022e-05	464.43	154.04	157.07	67.315	2.724e-06	69.276	0.0060456	0.0092084	0.0025181	1134.1	9.2501e-05	9.9581e-05	1156.1	364.02	9.0935e-05	9.9204e-05	409.17	136.41	139.72	58.91	9.1327e-05	61.231	75.925	174.313	28.031	-33.616	154.965	48.895	-34.866	-29.091	224.683	168.631	-31.345	-27.305	-26.073	-19.692	103.713	-23.786	-8191	255	
1901.229	1	1	0	0	0.39011	0.1445	0.092971	0.12813	0.027872	0.034635	0.14885	0.19536	0.054538	0.11852	0.050835	0.17759	0.20378	0.075764	0.037525	0.14335	-2.8229	-2.6958	-3.0125	-3.3312	-2.7	-3.3604	-3.2354	-3.1292	-3.3458	-2.8229	-3.3625	-3.4021	-2.7167	-3.4417	-3.1562	-2.9437	84.107	220.647	-11.641	294.144	218.920	311.663	221.419	192.886	133.149	22.037	252.070	283.467	212.658	-33.098	269.013	198.150	0.00026387	0.0033951	0.00019848	1308	1.0365e-05	1.0291e-05	1354.9	426.76	8.6253e-06	6.723e-06	471.57	156.11	158.33	67.523	1.3834e-05	69.844	0.0057102	0.0089512	0.0023607	1129	8.7765e-05	9.3439e-05	1166.2	369.75	8.777e-05	9.6983e-05	415.88	138.87	141.21	59.366	9.1532e-05	61.744	110.931	-24.961	-14.100	-33.525	86.070	76.163	-34.804	-29.042	135.983	187.280	-31.414	-27.557	-25.881	-20.070	117.374	-23.956	-8191	255	
1901.325	1	1	0	0	0.11417	0.15607	0.013454	0.03678	0.20765	0.14259	0.30403	0.29759	0.11732	0.31723	0.26573	0.15659	0.086866	0.14788	0.19785	0.031571	-2.8375	-2.9021	-3.0187	-3.4396	-2.8812	-3.1833	-3.1562	-3	-3.3354	-2.8792	-3.1854	-3.4437	-2.9208	-3.2958	-3.1729	-2.8167	186.395	20.125	-16.273	108.527	-18.519	118.650	235.556	260.119	214.567	294.158	307.339	-30.034	281.838	230.374	-11.365	175.301	0.00031199	0.0012323	0.00023416	1316.5	1.7871e-05	2.1847e-05	1358.5	428.01	1.2026e-05	5.9572e-07	474.48	155.93	158.83	67.546	2.3206e-05	69.387	0.0057695	0.0086889	0.0024978	1134.3	8.8315e-05	9.5348e-05	1166.4	369.44	8.7401e-05	9.4899e-05	415.75	138.7	141.3	59.281	9.2011e-05	61.432	82.907	56.086	42.186	-33.626	61.288	134.876	-34.977	-28.920	107.484	224.698	-31.025	-27.665	-26.076	-20.097	55.021	-23.644	-8191	255	
1901.446	1	1	0	0	0.12736	0.049987	0.23264	0.2461	0.18411	0.14502	0.20525	0.35901	0.32682	0.18897	0.065672	0.2272	0.2622	0.26511	0.11217	0.13208	-2.9875	-3.0062	-2.9104	-3.575	-2.9521	-3.3604	-3.2812	-2.9854	-3.2167	-3.0312	-3.1375	-3.375	-2.9125	-3.1958	-3.2521	-3.0542	22.771	186.424	47.701	-40.027	205.446	131.330	-34.918	241.313	267.577	289.448	36.520	12.432	307.976	255.356	196.040	-45.478	0.00037915	0.0015196	0.00057625	1318.7	1.5986e-05	1.3059e-05	1354.6	429.15	8.6479e-06	2.0527e-05	470.28	156.42	157.58	67.11	5.3361e-06	68.213	0.0056072	0.0087033	0.0025278	1134.3	8.6844e-05	9.5362e-05	1168.5	369.75	8.5636e-05	9.5098e-05	414.51	138.05	140.15	58.756	8.9172e-05	60.583	130.447	-13.027	-14.254	-33.412	-35.457	98.147	-34.755	-29.124	-20.398	124.935	-31.260	-27.579	-25.382	-20.344	-10.566	-23.512	-8191	255	
1901.542	1	1	0	0	0.28871	0.052463	0.21757	0.04112	0.16938	0.32813	0.079617	0.29225	0.15738	0.23339	0.048525	0.17923	0.13802	0.37317	0.11573	0.14263	-2.9562	-3.1188	-3.0896	-3.4625	-2.9292	-3.2292	-3.6083	-2.9979	-3.2417	-3.2188	-2.975	-3.3125	-3.1	-3.2979	-3.3083	-3.0583	273.112	61.466	75.609	144.503	43.873	57.769	273.590	235.959	104.430	139.683	5.237	239.886	185.705	290.211	164.320	310.644	0.0001783	0.0013959	0.00047299	1306.2	1.2943e-06	5.4842e-06	1352.3	425.34	9.2018e-06	2.034e-05	473.76	154.81	158.5	66.69	6.7211e-06	67.929	0.005466	0.0085466	0.0023632	1127.6	8.3631e-05	9.4925e-05	1163.9	368.87	8.407e-05	9.415e-05	415.09	136.81	140.29	58.711	8.9505e-05	60.082	70.511	21.175	30.548	-33.293	151.134	232.207	-34.911	-29.186	195.380	152.218	-31.348	-28.303	-25.646	-20.160	106.041	-23.794	-8191	255	
1901.614	1	1	0	0	0.19953	0.083952	0.085624	0.23793	0.23936	0.18757	0.2126	0.17392	0.084303	0.037942	0.17697	0.21354	0.087785	0.23109	0.1231	0.11371	-2.8104	-3.2708	-2.9521	-3.5604	-3.0208	-3.1208	-3.425	-2.9188	-3.2271	-3.2042	-3.0542	-3.5208	-3.2833	-3.2062	-3.5792	-3.1083	230.989	15.115	92.498	240.923	49.591	111.186	297.130	281.285	68.537	85.578	282.668	8.605	-24.551	305.267	203.438	60.160	0.00022483	0.00058465	0.00049248	1303.7	4.8927e-06	9.0215e-06	1353.9	426.96	7.4728e-06	1.3091e-05	467.74	153.32	155.97	66.951	5.45e-06	67.42	0.0055792	0.0086661	0.0025297	1128.3	8.562e-05	9.6356e-05	1163.2	368	8.6075e-05	9.6383e-05	412.88	135.7	139.1	58.804	9.1355e-05	59.975	3.535	-1.095	-7.855	-33.486	147.424	136.531	-34.927	-29.257	115.316	80.019	-30.605	-27.444	-25.837	-20.236	285.081	-23.701	-8191	255	
1901.735	1	1	0	0	0.30795	0.039113	0.24252	0.22374	0.19838	0.053096	0.19594	0.20139	0.036715	0.1271	0.18165	0.073682	0.19972	0.27835	0.11489	0.20352	-2.7625	-3.3	-2.7646	-3.4667	-2.9458	-2.9708	-3.6229	-3.1604	-3.0875	-3.4542	-2.9729	-3.2375	-3.0333	-2.9458	-3.5	-3.0854	-3.999	286.354	157.081	274.377	106.501	117.806	261.698	309.562	215.491	219.214	296.765	287.524	-20.607	-40.491	278.034	292.470	0.00017445	0.0010972	0.0002222	1318.2	5.3574e-06	1.8801e-05	1359	427.01	8.7471e-06	1.5229e-05	468.95	154.22	157.07	66.89	1.452e-05	68.056	0.0057776	0.0088803	0.0024663	1133.3	8.7214e-05	9.671e-05	1166	367.94	8.6935e-05	9.6634e-05	414.38	136.13	139.83	58.824	8.9747e-05	60.591	92.401	31.663	62.181	-33.198	41.700	13.664	-34.744	-28.875	29.910	87.750	-31.206	-27.580	-25.948	-20.143	148.402	-23.561	-8191	255	
1901.831	1	1	0	0	0.10538	0.14978	0.0026121	0.1508	0.080429	0.041793	0.085365	0.17972	0.088649	0.060934	0.34358	0.12722	0.11198	0.25528	0.075907	0.022679	-2.8479	-3.0833	-2.7958	-3.5042	-3.1188	-2.7458	-3.5292	-3.1646	-3.125	-3.4604	-2.9917	-3.3604	-3.1854	-3.1688	-3.4625	-3.3146	226.876	-23.418	13.904	90.073	-39.940	174.857	277.129	242.762	125.554	157.728	-43.165	292.152	123.366	270.466	138.920	307.761	0.00019448	0.00047521	0.0003609	1320.1	1.7652e-05	2.1718e-05	1369.5	429.97	1.6409e-05	8.5248e-06	473.59	155.87	157.32	67.562	1.1217e-05	68.631	0.0057343	0.0086867	0.002474	1135.1	8.7469e-05	9.4376e-05	1171.8	369.29	8.7128e-05	9.5001e-05	413.21	136.56	139.51	58.887	8.6114e-05	60.325	126.944	95.610	92.606	-33.346	213.312	61.172	-34.826	-29.060	122.960	126.974	-31.225	-27.798	-25.814	-20.200	138.418	-23.754	-8191	255	
1901.925	1	1	0	0	0.056968	0.096378	0.12294	0.19786	0.10436	0.30624	0.12131	0.31333	0.17384	0.046451	0.24608	0.29333	0.18628	0.16733	0.32951	0.18513	-2.7333	-3.2708	-2.7667	-3.3271	-3.4417	-2.9521	-3.6729	-3.275	-3.0312	-3.4833	-2.8563	-3.0917	-3.1917	-3.1646	-3.3917	-3.2896	104.229	220.322	287.876	259.499	94.986	208.800	247.905	-46.644	188.496	188.979	247.520	-12.843	284.516	160.211	255.835	31.647	0.00017614	0.0018331	0.00037399	1331.9	4.2358e-06	1.4615e-05	1360.2	425.21	6.4785e-06	7.1534e-06	463.72	151.85	152.7	65.081	1.7981e-05	65.085	0.0056765	0.0084309	0.0023832	1135.4	8.6351e-05	9.3914e-05	1162.3	366.2	8.7141e-05	9.2751e-05	407.27	133.43	136.18	56.648	8.433e-05	57.643	85.612	13.536	26.411	-33.420	204.645	237.317	-34.711	-28.804	-27.810	251.555	-30.704	-27.435	-25.499	-19.669	161.888	-23.555	-8191	255	
1902.023	1	1	0	0	0.12701	0.15275	0.3406	0.21861	0.28639	0.25338	0.089128	0.19997	0.074872	0.031272	0.095983	0.13845	0.25393	0.29467	0.28686	0.15649	-2.6417	-3.2938	-2.8958	-3.3937	-3.2229	-2.9771	-3.5958	-3.2583	-2.8333	-3.3187	-2.9625	-3.2896	-3.4667	-3.0083	-3.2083	-3.0125	114.969	99.121	157.374	-3.964	42.841	9.668	-26.901	220.579	-20.185	-41.699	255.976	38.379	294.429	-15.167	-15.486	265.153	5.5881e-05	0.00080463	0.00019012	1318	5.6961e-06	1.1125e-05	1352	418.24	1.7071e-05	1.9699e-05	460.98	146.13	148.78	62.394	3.0796e-06	62.81	0.0054695	0.0080694	0.0022957	1127.3	8.1611e-05	8.9651e-05	1155.5	360.04	8.303e-05	8.9363e-05	400.37	128.59	131.76	54.461	7.893e-05	55.2	166.968	-13.342	108.419	-33.686	217.644	82.469	-35.277	-29.080	28.020	179.663	-31.090	-27.756	-25.424	-19.650	302.153	-23.453	-8191	255	
1902.142	1	1	0	0	0.2058	0.089798	0.034438	0.053089	0.10323	0.053224	0.30341	0.12713	0.15273	0.16325	0.039621	0.25424	0.19125	0.30488	0.099397	0.053111	-2.4479	-3.4938	-3.1896	-3.2229	-3.3208	-2.8542	-3.3563	-3.4188	-2.7104	-3.5896	-3.1229	-3.1604	-3.3563	-3.0104	-3.3083	-3.3417	162.148	186.555	68.435	-16.830	88.560	253.407	289.889	111.121	205.361	254.151	181.858	-3.925	33.115	295.604	14.603	203.091	0.000265	0.00076517	0.0004576	1319.6	8.5137e-06	1.3325e-05	1354.8	413.8	8.3864e-06	1.2433e-05	451.59	143.85	145.05	62.07	1.4728e-05	63.209	0.0050979	0.0075289	0.0020722	1129	7.4631e-05	8.2542e-05	1154.6	354.72	7.6401e-05	8.0266e-05	393.03	125.68	127.6	54.148	7.4285e-05	55.684	131.470	22.492	15.530	-33.634	167.517	266.853	-34.484	-29.039	95.413	155.069	-31.398	-27.584	-25.370	-19.869	192.174	-23.286	-8191	255	
1902.214	1	1	0	0	0.10427	0.099313	0.16319	0.16779	0.14887	0.38146	0.10283	0.19204	0.11504	0.11864	0.30514	0.21215	0.14349	0.16512	0.18469	0.16673	-2.425	-3.3625	-3.1063	-3.2875	-3.3937	-2.7229	-3.3187	-3.2729	-2.9646	-3.3479	-3.3458	-2.8812	-3.3792	-2.9062	-3.0875	-3.5083	99.368	144.421	99.822	264.130	233.060	203.115	80.755	198.221	232.244	307.187	309.187	219.465	106.163	96.255	99.823	45.160	0.00019198	0.00052094	0.00027986	1318.4	9.7484e-06	7.2662e-06	1348.2	406.88	5.8864e-06	5.9623e-06	440.61	140.26	139.48	61.509	1.3652e-05	63.365	0.0045426	0.0067542	0.0019036	1130.6	6.8468e-05	7.3705e-05	1150.1	347.6	6.7349e-05	7.1813e-05	385.61	122.83	123.14	53.561	7.0292e-05	55.894	129.262	167.150	46.302	-33.654	193.209	186.894	-34.901	-29.083	80.285	215.169	-31.024	-27.397	-25.520	-19.859	40.817	-23.528	-8191	255	
1902.334	1	1	0	0	0.19716	0.14928	0.20631	0.11543	0.07149	0.14239	0.32627	0.099272	0.029472	0.28963	0.28362	0.24678	0.16716	0.3106	0.14133	0.37714	-2.5583	-3.5021	-3.1083	-3.2	-3.4688	-2.8812	-3.2958	-3.4667	-2.7583	-3.2229	-3.3333	-3.1208	-3.3396	-3.1333	-3.1979	-3.4958	5.154	18.963	289.143	256.580	78.373	-6.236	312.129	192.600	222.551	251.980	211.081	210.326	293.792	261.325	2.872	277.065	0.00020568	0.00041033	0.00048153	1326.2	1.9352e-05	7.8364e-06	1344	404.3	3.658e-06	1.3833e-05	441.58	139.9	140.24	61.519	1.3456e-05	63.533	0.0043705	0.0066614	0.0018799	1133.4	6.7877e-05	7.5349e-05	1148	347.22	7.0797e-05	7.7394e-05	384.83	123.36	123.97	53.544	7.3709e-05	55.834	75.537	149.969	17.919	-33.804	70.963	115.480	-35.182	-29.409	6.415	141.299	-30.705	-27.531	-25.623	-19.960	77.841	-23.632	-8191	255	
1902.430	1	1	0	0	0.13763	0.11716	0.20128	0.21913	0.17447	0.25952	0.095498	0.16642	0.13369	0.19142	0.099364	0.2404	0.20518	0.12052	0.22708	0.18778	-2.5625	-2.9896	-3.3417	-3.0854	-3.3958	-2.9479	-3.1312	-3.4667	-2.8792	-3.3438	-3.3	-3.1479	-3.4646	-3.3208	-2.9792	-3.6125	231.912	-5.896	43.525	211.095	226.104	-27.138	234.766	196.655	-41.332	24.888	39.851	266.708	-23.791	-43.791	63.186	306.115	0.0002608	0.00034288	0.00025258	1328.4	1.2566e-05	1.5309e-05	1352.1	411.25	1.2679e-05	5.9751e-06	454.29	146.57	146.3	63.103	5.4527e-06	65.351	0.004546	0.0069256	0.0019763	1138.5	7.0071e-05	7.8989e-05	1156.5	353.63	7.1913e-05	7.9571e-05	396.88	128.52	129.33	55.109	8.1665e-05	57.532	158.200	42.263	124.547	-33.754	61.293	49.295	-34.869	-29.052	173.757	71.957	-30.969	-27.315	-26.047	-20.089	134.306	-23.628	-8191	255	
1902.526	1	1	0	0	0.21998	0.32239	0.11134	0.376	0.10781	0.21613	0.35724	0.14198	0.12918	0.15773	0.24575	0.17428	0.31539	0.21268	0.20607	0.214	-2.4521	-3.2	-3.0896	-3.0625	-3.4021	-3.2792	-2.9813	-3.4562	-2.8833	-3.1521	-3.5167	-3.1542	-3.4979	-3.1333	-2.9396	-3.6437	182.520	310.119	194.982	277.842	243.942	193.641	229.323	120.694	161.635	-1.802	306.613	223.501	244.907	277.955	229.613	195.799	7.6245e-05	0.00069466	0.00034716	1336.3	3.189e-06	9.8813e-06	1362.3	419.56	4.3634e-06	2.4205e-05	464.57	149.32	148.64	63.734	1.7625e-05	65.482	0.0049648	0.0077883	0.0021867	1144.1	7.9796e-05	8.909e-05	1169.7	360.45	8.4447e-05	9.3072e-05	406.08	132.53	132.58	55.797	8.8939e-05	57.964	66.734	61.910	293.067	-33.796	190.024	41.753	-35.046	-28.991	45.645	111.192	-31.359	-27.586	-25.502	-19.807	68.907	-23.882	-8191	255	
1902.623	1	1	0	0	0.34382	0.19571	0.073226	0.042368	0.14535	0.26896	0.22467	0.18688	0.2156	0.17404	0.18386	0.042566	0.26587	0.29102	0.086285	0.10683	-2.4792	-2.9167	-3.3833	-3.1458	-3.3438	-3.1208	-2.8854	-3.5438	-3.0625	-3.275	-3.5833	-2.8375	-3.3208	-3.2458	-2.9188	-3.3917	256.218	312.164	-39.426	-12.816	-1.488	5.087	238.228	240.714	-15.113	128.503	231.064	130.923	240.929	308.001	150.730	151.248	0.00015873	0.00089386	0.00017424	1316.4	8.5873e-06	2.0749e-05	1355	421.98	2.5143e-06	1.3117e-05	460.58	150.76	149.07	63.818	3.4671e-06	64.79	0.0054971	0.0084049	0.0023293	1137.8	8.5871e-05	9.5628e-05	1167.9	362.29	8.6226e-05	9.5725e-05	406.04	133.62	133.11	55.993	9.1391e-05	57.721	117.645	132.472	275.330	-33.803	207.557	63.722	-35.030	-29.313	120.466	58.886	-31.605	-26.918	-25.506	-19.709	16.673	-23.395	-8191	255	
1902.743	1	1	0	0	0.15123	0.14916	0.067105	0.082693	0.07091	0.22561	0.22935	0.24542	0.057048	0.23466	0.22861	0.1562	0.035198	0.083785	0.057361	0.32474	-2.7229	-3.0208	-3.4833	-2.9958	-2.9437	-3.2521	-3.1896	-3.5354	-3.2938	-2.8875	-3.425	-3.2042	-3.3979	-3.3187	-2.8167	-3.4188	289.993	277.972	219.759	132.590	95.566	223.897	225.140	270.104	159.720	-36.764	238.984	203.487	238.879	199.826	82.543	258.805	0.00024007	0.0006142	0.00027873	1326.4	1.4989e-05	1.7262e-05	1360.3	418.31	1.0137e-05	1.5511e-05	457.96	147.65	145.19	62.495	2.3535e-05	62.792	0.0056755	0.0084883	0.002352	1137.7	8.6108e-05	9.467e-05	1162.7	360.38	8.5671e-05	9.8721e-05	402.35	130.81	131.17	54.855	9.0656e-05	56.02	86.946	43.502	84.969	-33.762	109.927	156.793	-34.989	-29.079	111.605	100.938	-31.302	-27.570	-25.753	-19.690	158.688	-23.730	-8191	255	
1902.815	1	1	0	0	0.071017	0.31461	0.15122	0.1211	0.21324	0.18925	0.072103	0.21921	0.38308	0.1993	0.17153	0.16707	0.19722	0.056542	0.041044	0.1277	-2.7812	-3.1125	-3.2625	-3.2354	-3.0667	-3.2521	-2.8771	-3.3917	-3.1813	-2.8917	-3.3229	-3.1333	-3.3	-3.4521	-2.7333	-3.4208	255.684	24.798	257.717	-1.784	207.838	-43.025	286.541	302.501	275.133	-12.796	308.976	3.428	159.353	31.560	99.252	50.796	0.00030627	0.0014617	0.00031485	1322.3	1.1534e-05	1.0053e-06	1347.4	413.36	7.0024e-06	1.3827e-05	454.34	146.41	147.72	61.61	1.6752e-05	62.718	0.0056369	0.0085629	0.0023402	1137	8.7751e-05	9.5339e-05	1153.7	358.26	8.6692e-05	9.7466e-05	399.26	129.17	131.47	54.316	8.8102e-05	55.415	181.137	74.220	103.445	-33.878	232.923	245.088	-34.914	-28.935	74.904	73.415	-31.656	-27.442	-25.216	-19.225	98.157	-23.359	-8191	255	
1902.911	1	1	0	0	0.16909	0.090198	0.23462	0.068126	0.14296	0.0092258	0.15216	0.20444	0.071485	0.12159	0.14376	0.20358	0.12504	0.092374	0.13406	0.23533	-2.9875	-2.9479	-3.5146	-2.9354	-2.9313	-3.4146	-3.1917	-3.4521	-3.2542	-2.8479	-3.4688	-3.1479	-3.0021	-3.5604	-2.8187	-3.1604	-16.171	42.025	120.079	239.349	54.108	45.725	242.381	-37.352	303.279	249.438	115.613	305.365	268.787	157.741	253.255	288.433	0.00015091	0.00185	0.00038001	1319.5	3.4622e-06	1.723e-05	1351.2	418.16	3.8346e-06	1.4703e-05	459.72	148.36	147.82	62.774	7.1059e-06	63.337	0.0055107	0.0082298	0.0022516	1134.4	8.4215e-05	9.1146e-05	1153.2	359.62	8.1948e-05	9.2615e-05	401.81	130.65	131.41	54.994	8.6843e-05	56.347	201.062	14.087	99.695	-33.330	96.810	82.927	-34.825	-29.112	261.800	51.624	-31.167	-27.366	-25.752	-19.915	106.348	-23.752	-8191	255	
1903.007	1	1	0	0	0.047541	0.12639	0.27079	0.3294	0.044464	0.068467	0.23255	0.18429	0.28343	0.057709	0.097189	0.13179	0.18551	0.35769	0.13003	0.17777	-3.0083	-2.9208	-3.1292	-3.1021	-2.9375	-3.4813	-3.1833	-3.2792	-3.3063	-2.6583	-3.2354	-3.2792	-3.0104	-3.5438	-2.8542	-3.2938	174.929	107.709	277.380	-37.536	109.192	77.539	247.674	284.779	306.918	285.872	172.072	192.081	290.410	303.412	223.084	252.922	0.00039855	0.0013036	0.00035242	1321.7	1.7177e-05	1.1993e-05	1357.8	420.24	1.7572e-05	1.0342e-05	461.21	147.35	148.89	63.032	6.4817e-06	63.471	0.0053189	0.0079743	0.0022121	1133.2	8.4485e-05	8.6503e-05	1162.3	362.13	8.0597e-05	8.9239e-05	404.71	130.83	132.13	55.084	8.2647e-05	56.433	144.752	105.835	39.405	-33.537	201.981	31.541	-35.220	-29.069	41.926	-1.666	-30.894	-27.377	-25.178	-19.538	145.554	-23.385	-8191	255	
1903.126	1	1	0	0	0.20548	0.028972	0.24601	0.12235	0.060479	0.16343	0.40273	0.24472	0.26143	0.07476	0.29125	0.38187	0.20116	0.2625	0.27984	0.21483	-2.9688	-2.8563	-3.2375	-3.1729	-3.0563	-3.4646	-3.1458	-3.1063	-3.3292	-2.8875	-3.325	-3.4	-2.8958	-3.6208	-3.0104	-3.0771	21.847	33.072	143.229	234.723	118.061	27.100	294.841	288.404	245.039	48.208	218.482	259.105	283.964	292.152	-21.588	243.697	0.00030767	0.00060417	0.00021308	1327.1	7.5953e-06	5.1871e-06	1343.2	419.99	5.2578e-06	1.3605e-05	461.41	148.05	147.63	62.641	1.1468e-05	63.036	0.0051768	0.0077348	0.0021455	1136	8.0122e-05	8.3509e-05	1152.4	361.68	7.7107e-05	8.7122e-05	402.96	130.58	131.79	54.987	7.8395e-05	55.828	103.471	294.693	79.216	-33.694	108.969	266.491	-34.658	-28.782	22.937	69.885	-31.340	-27.754	-25.588	-19.630	93.636	-23.530	-8191	255	
1903.222	1	1	0	0	0.087876	0.13394	0.13807	0.22582	0.027341	0.069624	0.26413	0.30574	0.34357	0.15128	0.31658	0.1699	0.26202	0.04808	0.14218	0.19794	-2.9167	-2.8792	-3.2396	-3.5208	-2.7708	-3.3042	-3.1562	-3.1312	-3.4917	-3.0167	-3.2979	-3.4313	-3.0062	-3.6021	-3.1437	-3.0375	237.457	122.852	230.652	249.588	227.868	280.056	198.691	292.068	309.728	248.525	272.819	281.234	-27.150	221.424	251.075	203.973	0.00021568	0.0015902	0.00036364	1323.2	2.4207e-06	2.0877e-05	1339.7	416.99	1.2262e-05	6.614e-06	458.15	147.22	146.97	62.449	8.122e-06	61.76	0.0047974	0.0073107	0.0020366	1131.9	7.4411e-05	7.8731e-05	1146.6	360.2	7.13e-05	8.0289e-05	400.41	128.83	130.37	54.544	7.4861e-05	54.673	141.916	40.608	133.766	-33.696	147.693	106.342	-34.915	-28.890	90.542	-44.172	-31.297	-27.807	-25.567	-19.561	-4.522	-23.334	-8191	255	
1903.318	1	1	0	0	0.13235	0.11689	0.24743	0.13034	0.171	0.079605	0.15681	0.34092	0.069898	0.36145	0.1947	0.34049	0.068038	0.46765	0.23881	0.13978	-3.0167	-2.875	-3.1292	-3.6208	-2.9396	-3.3604	-3.2354	-3.0354	-3.4792	-3.0833	-3.1312	-3.4042	-2.8708	-3.4042	-3.2354	-2.95	178.722	275.140	191.960	311.888	45.752	183.976	251.918	-29.545	-39.340	124.536	299.856	-32.457	-39.093	-31.673	28.656	279.705	0.00023347	0.001174	0.0002035	1323.1	7.2686e-06	1.2219e-05	1352.5	420.59	7.5036e-06	1.3867e-05	459.38	147.22	149.05	62.623	9.0992e-06	61.989	0.0046526	0.0071464	0.0020042	1131.5	7.1509e-05	7.8387e-05	1152.6	361.77	6.9199e-05	7.7746e-05	402.01	128.92	131.29	54.464	7.0722e-05	54.631	158.969	66.005	56.836	-33.459	64.171	134.637	-35.199	-29.240	161.791	261.911	-30.849	-27.610	-25.415	-20.402	270.265	-23.419	-8191	255	
1903.415	1	1	0	0	0.034592	0.024589	0.093134	0.15885	0.037496	0.072433	0.30953	0.010205	0.096653	0.16399	0.26158	0.31148	0.2504	0.23419	0.20666	0.25346	-2.9125	-2.9708	-3.1562	-3.5167	-3.0104	-3.5229	-3.2583	-2.9875	-3.2542	-2.9292	-2.9979	-3.6188	-3.1271	-3.2604	-3.1958	-2.9688	5.332	173.690	282.060	233.435	1.857	218.922	198.578	104.623	290.723	292.944	213.129	282.584	292.661	-22.975	52.712	262.973	0.00034492	0.00082686	0.00015801	1320.4	1.4606e-05	1.5646e-05	1361.6	425.66	5.3586e-06	7.9814e-06	467.98	150.16	151.04	62.627	6.5887e-06	62.861	0.0044387	0.0067891	0.0019284	1130.5	7.1753e-05	7.6448e-05	1157.2	364.13	6.756e-05	7.7181e-05	405.35	131.11	132.7	54.582	7.1515e-05	55.123	121.484	302.956	108.445	-33.797	158.057	180.450	-35.097	-28.849	33.662	145.446	-31.440	-27.495	-26.173	-19.847	173.552	-23.456	-8191	255	
1903.511	1	1	0	0	0.11524	0.075786	0.19069	0.37931	0.041987	0.10378	0.043393	0.43253	0.1114	0.10962	0.043771	0.053507	0.18654	0.26952	0.1463	0.066548	-3.1104	-3.1771	-2.9958	-3.4813	-2.7438	-3.175	-3.3146	-3.05	-3.3146	-3.3	-3.1583	-3.5333	-2.8104	-3.1375	-3.2958	-3.0604	14.124	225.116	296.142	252.439	31.975	290.942	33.811	262.116	-46.746	112.961	284.536	95.388	267.976	281.006	170.577	137.009	0.00029832	0.00048157	0.00056938	1332.7	1.7729e-05	1.8193e-05	1366.5	429.84	7.8433e-06	1.1819e-05	467.7	148.63	150.22	62.061	3.4891e-06	60.832	0.0044129	0.0069352	0.0019121	1138.3	6.9444e-05	7.3947e-05	1159.6	366.08	6.7562e-05	7.397e-05	406.68	130.5	132.47	54.044	6.986e-05	53.817	111.386	32.788	70.306	-33.546	196.210	68.591	-35.106	-28.790	236.085	106.734	-31.139	-27.386	-25.906	-19.817	259.412	-23.361	-8191	255	
1903.607	1	1	0	0	0.32645	0.12794	0.023505	0.24918	0.012656	0.063438	0.073064	0.22899	0.10591	0.22206	0.15917	0.1119	0.2364	0.27636	0.09772	0.095085	-2.9521	-3.0167	-2.9896	-3.4729	-2.8042	-3.0292	-3.7125	-3.1542	-3.4062	-3.1854	-2.8854	-3.4458	-3	-3.1458	-3.4104	-2.8396	251.122	230.256	261.907	-44.527	245.855	291.281	82.839	258.973	86.385	153.169	278.290	169.434	275.435	253.154	150.588	289.912	0.00022749	0.000483	0.00031727	1317.6	3.6457e-06	5.9552e-06	1341.1	422.54	3.018e-06	1.0732e-05	459.52	147.8	150.22	60.98	8.0549e-06	59.359	0.0044381	0.0067443	0.0018962	1127.6	6.9806e-05	7.4603e-05	1144.3	362.98	6.8402e-05	7.5047e-05	400.48	129.22	132.12	52.921	6.9281e-05	52.786	90.669	107.204	95.705	-33.654	40.293	205.247	-35.074	-29.140	135.853	45.405	-31.182	-27.370	-25.555	-19.873	218.291	-23.874	-8191	255	
1903.703	1	1	0	0	0.17637	0.059494	0.20063	0.20935	0.20134	0.21621	0.14685	0.18644	0.0632	0.095901	0.088863	0.36704	0.16431	0.21008	0.24234	0.3215	-2.9729	-3.2042	-2.825	-3.55	-3.1813	-3.1	-3.7042	-3.1021	-3.1813	-3.3479	-2.8708	-3.3708	-3.1833	-3.2708	-3.4417	-3.0875	298.279	177.184	182.287	-2.294	-30.389	252.942	268.131	268.428	159.511	264.543	257.847	308.325	187.622	234.012	157.554	220.907	0.00023625	0.00066432	8.2963e-05	1326.2	8.4319e-06	1.9544e-05	1348.2	427.01	1.0746e-05	1.1004e-05	467.32	148.46	150.87	60.689	9.6053e-06	60.751	0.0044206	0.0066653	0.0018638	1127.3	6.7972e-05	7.5659e-05	1148	365.17	6.728e-05	7.5216e-05	406.07	129.55	133.29	52.868	6.9758e-05	53.29	14.020	51.441	-23.079	-33.608	26.461	132.839	-35.120	-29.329	127.035	-23.115	-31.289	-27.826	-25.591	-19.945	168.196	-23.742	-8191	255	
1903.824	1	1	0	0	0.2684	0.19014	0.14383	0.063758	0.14189	0.061375	0.37837	0.24722	0.042132	0.2786	0.11636	0.091007	0.10962	0.35802	0.023213	0.089194	-2.8812	-3.2875	-2.7771	-3.3125	-3.2521	-3.1708	-3.375	-3.2854	-3.1562	-3.5	-3.1688	-3.5458	-3.1958	-3.0667	-3.2896	-3.0583	61.024	169.871	49.801	304.744	171.288	269.102	269.169	240.073	-25.357	228.420	49.666	95.631	281.253	282.444	230.674	-0.586	0.00046976	0.00058551	0.00015241	1326.3	5.2094e-06	2.5118e-06	1353.8	431.59	7.5998e-06	1.6731e-05	472.53	148.86	151.82	62.267	7.2569e-07	62.383	0.0044695	0.0066558	0.0018097	1131.8	6.7477e-05	7.6306e-05	1154.6	369.23	6.6202e-05	7.2484e-05	409.95	130.23	133.51	54.095	6.8092e-05	54.667	119.300	52.334	-8.834	-33.426	197.474	77.212	-35.053	-29.416	251.084	120.498	-31.257	-27.547	-25.712	-20.283	-42.862	-23.244	-8191	255	
1903.918	1	1	0	0	0.17017	0.15837	0.23156	0.20301	0.11808	0.29347	0.17599	0.48108	0.17419	0.1729	0.28948	0.07113	0.2229	0.099151	0.11285	0.028194	-2.7104	-3.5146	-2.9646	-3.45	-3.4062	-2.9292	-3.4396	-3.1792	-3.0792	-3.4479	-2.9562	-3.5542	-3.4083	-3.0542	-3.3417	-3.1813	43.771	-28.618	300.723	231.994	-17.005	147.653	238.041	222.450	22.925	268.801	-17.417	39.769	280.356	243.210	231.649	84.507	0.00023879	0.00069376	0.00048006	1323.5	5.5605e-06	1.3173e-05	1363.2	427.37	1.468e-05	1.2924e-05	468.9	148.06	150.69	63.621	6.0978e-06	65.046	0.0043902	0.0065241	0.0018184	1131.7	6.6601e-05	7.5965e-05	1158.2	367.06	6.7488e-05	7.3227e-05	407.38	130.14	133.54	55.338	7.0739e-05	57.069	53.198	231.320	63.992	-33.722	37.305	192.858	-35.061	-29.135	132.323	76.824	-31.233	-27.818	-25.712	-19.964	294.891	-23.776	-8191	255	
1904.016	1	1	0	0	0.32231	0.22186	0.085588	0.40656	0.1206	0.086347	0.23526	0.28261	0.17997	0.053589	0.34119	0.28383	0.12457	0.23515	0.18309	0.058965	-2.4104	-3.3937	-2.9708	-3.3583	-3.4437	-2.9896	-3.6104	-3.2438	-2.9854	-3.4188	-2.8812	-2.9813	-3.5667	-3.0375	-3.3792	-3.3896	167.826	31.420	-12.823	-44.245	17.217	-13.217	263.284	274.254	3.501	295.924	275.559	208.560	298.153	-14.776	234.051	37.199	0.00027915	0.00027231	0.00027304	1317.7	1.2997e-05	1.2863e-05	1342.7	424.51	3.756e-06	1.2099e-05	457.66	145.01	150.56	64.932	5.1987e-06	65.962	0.0045099	0.0064734	0.0018171	1124.2	6.6787e-05	7.6735e-05	1141.6	361.68	6.6569e-05	7.264e-05	399.51	127.91	132.69	56.4	6.8291e-05	57.813	133.569	39.599	52.419	-33.708	124.394	119.162	-34.446	-29.052	167.347	98.836	-31.245	-28.093	-26.066	-20.170	52.690	-23.901	-8191	255	
1904.110	1	1	0	0	0.23628	0.11629	0.12393	0.176	0.2152	0.070979	0.24066	0.20792	0.10855	0.13379	0.093223	0.2121	0.061368	0.083453	0.29498	0.11322	-2.6042	-3.4854	-2.9833	-3.2458	-3.3833	-2.9542	-3.6167	-3.3583	-2.8958	-3.4896	-3.0875	-3.0292	-3.3229	-2.9833	-3.3063	-3.4583	57.327	299.680	-14.703	312.638	304.961	98.728	255.224	288.955	268.612	210.764	305.702	298.342	109.861	231.954	-21.770	248.821	0.00022696	0.00073136	0.00014505	1315	8.6511e-06	2.9068e-06	1337.5	422.44	7.9159e-06	1.6143e-05	456.5	147.6	152.88	67.175	2.7009e-06	68.506	0.0044301	0.0062761	0.0018199	1119.1	6.4287e-05	7.116e-05	1136.1	359.41	6.3963e-05	6.999e-05	396.94	129.06	133.7	57.928	6.6802e-05	59.818	109.753	72.392	125.700	-33.573	62.836	16.247	-34.905	-29.092	83.283	1.775	-31.236	-27.942	-25.893	-20.149	-2.335	-24.017	-8191	255	
1904.206	1	1	0	0	0.16938	0.12253	0.045653	0.27876	0.10019	0.012576	0.36182	0.29773	0.31877	0.074039	0.14888	0.16977	0.091028	0.0785	0.11481	0.16677	-2.5396	-3.5021	-2.8479	-3.2667	-3.3792	-3.0917	-3.3708	-3.2146	-2.7896	-3.3312	-3.1562	-3.1021	-3.5521	-2.9042	-3.1271	-3.1854	293.869	-41.943	268.804	259.477	45.882	238.324	248.130	261.703	116.867	-12.525	267.666	18.389	255.132	59.134	167.987	124.645	0.00020867	0.0019427	0.00025951	1318	1.4176e-05	4.0114e-06	1346.9	421.53	9.254e-06	2.0579e-05	458.93	149.95	152.11	67.607	1.718e-06	69.369	0.0043487	0.0063305	0.0017913	1118.2	6.3524e-05	7.4354e-05	1140.4	358.36	6.41e-05	7.1403e-05	396.92	129.64	133.66	58.521	6.9003e-05	60.539	135.610	10.508	146.060	-33.782	124.549	53.192	-34.890	-29.083	74.925	177.093	-31.296	-28.128	-25.745	-20.263	-39.843	-23.864	-8191	255	
1904.303	1	1	0	0	0.40699	0.069404	0.11656	0.39479	0.042396	0.067817	0.15147	0.051526	0.2182	0.20154	0.11852	0.22768	0.36452	0.071842	0.31924	0.31415	-2.3146	-3.175	-3.1396	-3.0812	-3.4458	-2.7125	-3.2313	-3.55	-2.8583	-3.2854	-3.0458	-2.95	-3.5062	-3.2292	-2.95	-3.3583	14.098	77.081	10.475	260.861	-40.273	38.996	251.078	256.972	257.594	165.523	-4.462	243.700	310.975	179.582	4.416	255.910	0.00014089	0.00084564	0.00020706	1319.1	2.8353e-06	7.209e-06	1350.9	417.12	1.2919e-05	4.904e-06	457.27	146.84	152.48	67.899	6.9681e-06	69.57	0.0045039	0.0065188	0.001773	1120.9	6.5555e-05	7.3957e-05	1145.6	358.48	6.5603e-05	7.2694e-05	396.83	128.69	134.16	58.601	6.9745e-05	60.619	87.260	104.447	-19.055	-33.442	140.738	305.259	-34.935	-29.056	97.202	99.234	-31.279	-27.456	-25.380	-20.083	283.329	-24.005	-8191	255	
1904.423	1	1	0	0	0.11395	0.20684	0.1541	0.20291	0.06152	0.066481	0.11918	0.27709	0.16764	0.21773	0.28696	0.051918	0.10781	0.25465	0.22426	0.24552	-2.5812	-3.2604	-3.1354	-3.0438	-3.1354	-3.2333	-3.2208	-3.5479	-2.7812	-3.0875	-3.3521	-2.7687	-3.2938	-3.2833	-3.1271	-3.2292	142.485	5.885	161.427	-40.503	211.274	165.958	-19.639	219.775	311.134	169.443	308.269	236.903	266.001	302.480	226.888	-29.857	0.00028116	5.022e-05	0.00050934	1312	1.3613e-05	1.8268e-05	1340.6	418.65	1.7325e-05	1.031e-05	459.85	148.22	152.72	67.982	6.7566e-06	69.68	0.0044218	0.0065837	0.0017913	1115.8	6.5268e-05	7.3356e-05	1140.5	357.76	6.4646e-05	7.1909e-05	396.48	129.42	134.28	58.731	6.8128e-05	60.63	130.815	111.979	243.243	-33.446	-12.335	39.739	-34.787	-29.101	51.259	164.707	-31.341	-27.601	-25.625	-20.281	129.842	-23.980	-8191	255	
1904.519	1	1	0	0	0.23964	0.13936	0.15249	0.34078	0.14089	0.23682	0.057933	0.38114	0.32836	0.18567	0.25375	0.17737	0.12472	0.13217	0.23884	0.042907	-2.3542	-3.2354	-3.5271	-3.0583	-3.3083	-2.9667	-3.0729	-3.7208	-2.9146	-3.0417	-3.2229	-2.9792	-3.5104	-3.2354	-2.9667	-3.4229	302.958	-2.277	289.755	234.095	-23.276	187.001	144.111	243.719	197.493	259.639	272.026	60.836	9.108	-43.101	154.481	275.795	0.00020221	0.00085952	0.00036066	1307.3	6.8068e-06	1.5022e-05	1333.1	418.66	5.1878e-06	2.5974e-06	458.63	148.06	151.96	68.084	8.244e-06	69.729	0.0045305	0.0064573	0.0017876	1111.8	6.4317e-05	7.177e-05	1133.1	356.67	6.5099e-05	7.2007e-05	396.39	129.45	133.77	58.768	6.8549e-05	60.664	26.197	-1.421	87.500	-33.119	136.125	30.605	-35.347	-28.964	36.547	100.988	-31.290	-27.945	-25.739	-20.186	60.795	-23.923	-8191	255	
1904.616	1	1	0	0	0.066138	0.10637	0.1711	0.13162	0.13919	0.021237	0.17233	0.084764	0.10647	0.20066	0.18482	0.053756	0.27264	0.23821	0.24449	0.22736	-2.4625	-3.2583	-3.2125	-2.9271	-3.4333	-3.2771	-2.9854	-3.3458	-3.0625	-3.2229	-3.4146	-2.9229	-3.4021	-3.5854	-2.9521	-3.4521	-34.534	79.225	255.523	182.430	213.551	114.744	159.017	263.226	310.026	-14.112	-10.871	176.395	-25.344	264.583	11.163	248.414	0.00023347	0.0010626	0.00037056	1313.4	1.4305e-05	1.7903e-05	1340.3	418.03	2.886e-06	1.6494e-05	458.17	149.39	153.47	68.238	6.1702e-06	70.227	0.0044325	0.0065596	0.0018119	1115.9	6.6684e-05	7.1871e-05	1138.9	357.36	6.6134e-05	7.1814e-05	396.84	130.46	134.49	58.899	6.84e-05	60.962	66.028	36.966	302.633	-33.775	90.642	86.219	-34.824	-29.308	85.211	60.165	-31.310	-27.881	-25.853	-20.137	78.779	-23.879	-8191	255	
1904.712	1	1	0	0	0.25904	0.21904	0.28789	0.099173	0.18549	0.07959	0.10489	0.23372	0.16446	0.12258	0.098944	0.15875	0.11416	0.49026	0.16665	0.12619	-2.5333	-3.0396	-3.4396	-2.9292	-2.9375	-3.2146	-2.9688	-3.4979	-3.025	-2.9271	-3.525	-3.0292	-3.3937	-3.4333	-2.8333	-3.4417	235.453	280.511	300.277	8.647	206.653	191.953	255.404	204.670	37.502	-0.523	288.123	45.057	281.519	307.827	110.681	239.754	0.00024128	0.0015593	0.00049303	1318.5	8.9621e-06	1.307e-05	1352.5	421.69	8.3763e-06	1.3971e-05	464.47	151.97	156.7	69.205	1.7249e-05	71.862	0.0044996	0.0065978	0.0018216	1118.4	6.6098e-05	7.2473e-05	1144	360.21	6.5405e-05	7.1194e-05	402.13	133.11	136.76	59.765	6.7339e-05	62.344	109.600	79.692	-44.418	-33.493	94.761	142.907	-35.073	-29.026	11.783	74.207	-31.023	-27.589	-25.638	-20.073	62.145	-23.906	-8191	255	
1904.783	1	1	0	0	0.19914	0.066437	0.054931	0.36346	0.13946	0.23504	0.10922	0.21201	0.30266	0.2153	0.26701	0.11001	0.073887	0.11525	0.11883	0.18927	-2.6854	-2.9417	-3.5292	-2.9979	-3.1625	-3.3312	-2.9771	-3.3	-3.3229	-3.1146	-3.5687	-3.0729	-3.2958	-3.6625	-2.7979	-3.2188	113.543	40.736	239.562	293.493	56.133	164.547	264.275	221.782	234.293	246.169	-6.318	280.024	87.922	2.344	11.827	-42.672	0.00020943	0.00031865	0.0003889	1313.2	8.3798e-06	1.1495e-05	1358.9	428.26	8.6332e-06	8.7279e-06	472.04	155.65	158.13	69.529	1.3793e-05	71.855	0.0041718	0.0064295	0.0017327	1118.7	6.4813e-05	6.9115e-05	1156.7	364.68	6.4831e-05	6.9403e-05	406.81	135.39	138.29	60.352	6.5458e-05	62.42	88.839	306.302	-11.426	-33.548	107.268	108.060	-34.706	-29.164	63.565	168.748	-31.392	-27.830	-25.441	-19.627	29.798	-23.891	-8191	255	
1904.904	1	1	0	0	0.24322	0.24415	0.036965	0.26857	0.082891	0.033216	0.12304	0.29535	0.11618	0.12241	0.12394	0.18164	0.1324	0.38922	0.18451	0.14741	-2.8729	-2.8583	-3.4104	-3.2188	-3.0979	-3.5125	-3.2417	-3.3625	-3.3937	-2.7875	-3.5625	-3.1729	-2.9042	-3.4708	-3.05	-3.3396	146.264	131.762	-26.696	247.592	23.160	210.507	-11.739	225.368	7.935	0.060	208.806	284.661	286.314	311.186	74.552	288.955	0.0002596	0.00079827	0.00048729	1321.1	8.4684e-06	3.1805e-06	1354.9	428.05	3.0762e-06	8.3263e-06	464.52	155.61	157.62	69.631	1.3961e-05	71.6	0.0041663	0.0065615	0.0017708	1122.2	6.4944e-05	7.1122e-05	1151.8	363.69	6.63e-05	7.1955e-05	405.11	135.64	138.84	60.425	6.9435e-05	62.476	112.671	279.536	101.363	-33.734	22.647	302.196	-34.939	-29.003	251.147	153.799	-31.457	-28.160	-25.844	-20.373	280.869	-24.052	-8191	255	
1904.998	1	1	0	0	0.19634	0.055511	0.078001	0.29825	0.22304	0.22265	0.13391	0.31041	0.097713	0.073148	0.18897	0.080478	0.24038	0.074943	0.19068	0.20744	-2.8833	-2.9042	-3.3042	-3.3146	-3.2062	-3.4396	-3.0771	-3.2833	-3.3625	-2.6688	-3.3021	-3.0875	-3.1583	-3.6	-2.9271	-3.0854	13.718	21.940	188.877	288.591	172.319	291.956	259.003	274.175	283.633	241.811	237.367	-25.858	284.692	174.208	209.790	231.629	0.00031463	0.00096937	0.00039389	1315.3	9.4918e-06	1.2964e-05	1361.3	430.27	6.1361e-06	9.4725e-06	472.23	159.4	161.12	71.18	1.2719e-05	73.168	0.004289	0.0065453	0.0018063	1121.1	6.5414e-05	7.0459e-05	1158.2	366.83	6.5233e-05	7.2747e-05	409.4	138.02	140.91	61.468	6.7717e-05	63.735	155.626	98.738	90.203	-33.523	125.801	215.916	-34.594	-28.945	-23.119	123.402	-31.677	-27.165	-25.585	-20.223	67.135	-23.561	-8191	255	
1905.096	1	1	0	0	0.12937	0.24555	0.23019	0.30836	0.13932	0.14625	0.2153	0.37668	0.14865	0.28961	0.33896	0.041166	0.15372	0.32242	0.19218	0.21138	-2.9188	-2.8854	-3.2917	-3.1667	-3.0354	-3.4396	-3.0229	-3.125	-3.3479	-2.9667	-3.2292	-3.2521	-2.8958	-3.65	-3.1979	-2.9542	206.199	220.746	236.794	291.381	12.747	181.332	239.187	261.987	86.939	24.229	311.610	112.641	289.913	293.744	-4.640	310.395	0.00046286	0.00030207	0.00012881	1317.8	2.5238e-06	4.0942e-06	1369.8	435.67	4.2536e-06	8.9396e-06	482.08	159.47	163.44	71.852	1.6729e-05	74.174	0.0041747	0.006718	0.0017979	1122.6	6.452e-05	7.0831e-05	1162.5	371.79	6.3348e-05	7.1458e-05	415.85	139.46	142.8	62.094	6.7022e-05	64.596	85.176	280.042	22.727	-33.257	69.112	22.727	-34.634	-29.132	293.297	78.674	-31.316	-28.012	-25.607	-20.413	222.324	-23.708	-8191	255	
1905.215	1	1	0	0	0.24416	0.13677	0.19533	0.14177	0.22568	0.043531	0.066464	0.28302	0.16851	0.13484	0.077774	0.20674	0.058644	0.34651	0.17145	0.13626	-2.85	-2.9188	-3.2208	-3.2729	-2.825	-3.5083	-3.5229	-2.9437	-3.3812	-2.8563	-3.1854	-3.3708	-2.95	-3.4062	-3.1396	-3.1479	220.716	112.393	272.688	279.753	176.399	-0.698	158.165	294.729	271.489	9.792	18.116	309.671	259.920	269.627	12.196	226.440	0.00026403	0.0014177	0.00011562	1330.4	4.8857e-06	7.2868e-06	1369.5	435.46	1.8799e-06	4.0216e-06	476.23	159.48	160.62	71.353	5.2976e-06	73.556	0.0042153	0.0066972	0.0018266	1132.2	6.3726e-05	7.1469e-05	1167.3	372.8	6.3641e-05	7.24e-05	414.35	139.09	141.38	61.849	6.8096e-05	63.838	59.873	88.526	215.502	-33.515	200.544	86.326	-34.882	-29.220	66.558	181.462	-31.468	-27.796	-25.558	-20.401	46.528	-23.928	-8191	255	
1905.311	1	1	0	0	0.23127	0.14691	0.18942	0.050016	0.29254	0.12932	0.13081	0.1645	0.071074	0.07379	0.24164	0.035762	0.16767	0.17936	0.10952	0.33896	-3.2875	-2.9542	-3.1021	-3.3438	-2.6771	-3.1667	-3.2417	-2.975	-3.5542	-3.0542	-3.075	-3.2208	-2.6875	-3.2729	-3.1292	-3.1479	-12.506	136.306	35.067	303.166	5.724	76.827	140.282	243.503	128.234	-45.902	307.196	194.753	261.649	-41.972	180.210	225.375	0.00030749	0.00014476	0.00018002	1323.7	4.2824e-06	1.0558e-05	1361.2	431.34	1.8273e-05	1.1729e-05	471.93	157.27	160.42	69.947	4.1515e-06	72.408	0.0043131	0.006824	0.0017821	1129.9	6.6584e-05	7.2563e-05	1159.9	369.78	6.4334e-05	7.1667e-05	411.29	137.07	141.03	61.041	6.6284e-05	63.273	88.149	-42.053	-28.748	-33.494	5.353	188.513	-35.037	-29.095	61.690	1.575	-31.482	-27.722	-25.885	-20.397	40.092	-24.278	-8191	255	
1905.383	1	1	0	0	0.11381	0.097831	0.081347	0.082951	0.049009	0.21101	0.12678	0.34782	0.027298	0.17742	0.059738	0.32651	0.09812	0.16833	0.18999	0.16603	-3.1229	-2.9708	-3.1771	-3.5417	-2.9021	-3.1708	-3.2354	-2.8958	-3.4437	-3.0604	-3.2313	-3.6708	-3.0458	-3.2438	-3.0542	-2.8021	114.025	107.332	254.017	-36.125	-12.998	118.219	273.748	262.941	312.293	110.694	-45.107	239.093	180.591	289.987	4.765	206.630	9.7053e-05	0.0010048	0.00042434	1316.7	9.5023e-06	1.4134e-05	1359	433.12	5.4337e-06	2.1011e-05	480.83	157.43	163.37	70.879	1.9307e-05	72.607	0.0042847	0.0065359	0.0017947	1127.2	6.6256e-05	7.1065e-05	1162.9	371.17	6.4457e-05	7.088e-05	413.76	137.53	141.95	61.275	6.7665e-05	63.228	85.566	264.054	39.104	-33.574	216.162	121.986	-34.945	-29.461	113.258	129.332	-31.147	-27.969	-25.726	-20.393	133.498	-23.835	-8191	255	
1905.504	1	1	0	0	0.15403	0.22405	0.075318	0.23293	0.2554	0.14345	0.18861	0.31926	0.21037	0.14718	0.089773	0.1815	0.25488	0.13211	0.019868	0.21521	-2.9417	-3.0312	-3.0521	-3.7313	-2.9813	-3.3083	-3.4375	-2.7625	-3.2438	-3.1833	-3.0958	-3.5896	-3.1813	-3.3271	-3.4021	-2.9313	271.268	185.774	-15.933	-16.386	61.934	196.423	218.530	275.916	42.926	251.358	211.366	265.309	308.092	230.316	215.258	221.997	0.00015231	0.0012126	0.00023342	1327.6	7.478e-06	1.6244e-05	1371.5	434.26	4.3372e-06	1.4616e-05	471.94	156.88	159.65	70.758	4.856e-06	72.784	0.0042654	0.0063957	0.0018304	1130.9	6.473e-05	7.0104e-05	1168.3	371.13	6.5383e-05	7.1814e-05	412.67	137.15	140.98	61.304	6.6091e-05	63.211	124.543	49.338	169.047	-33.790	65.599	72.864	-34.870	-29.264	-38.528	91.707	-31.175	-27.834	-25.743	-20.497	-26.014	-24.187	-8191	255	
1905.600	1	1	0	0	0.14617	0.24269	0.070837	0.33358	0.17958	0.21132	0.19803	0.25291	0.15815	0.17748	0.31514	0.14014	0.03657	0.18703	0.2339	0.06313	-2.7687	-2.9604	-2.7917	-3.3479	-3.1083	-3.0563	-3.5354	-3.125	-3.4396	-3.4208	-3.1021	-3.3	-3.15	-3.2333	-3.7188	-3.1146	157.532	282.741	166.017	-36.755	-46.626	223.464	182.385	266.776	219.516	201.811	228.586	291.128	154.456	254.661	230.567	248.976	0.00010646	0.0014397	0.00025251	1317.5	6.0883e-06	8.5665e-06	1359.7	433.14	8.0786e-06	1.4063e-05	476.16	158.53	159.29	71.014	1.7479e-05	72.265	0.0043295	0.0064575	0.0018643	1125.6	6.7265e-05	7.2064e-05	1166.2	370.9	6.592e-05	7.4074e-05	413.32	138.25	140.85	61.329	6.7946e-05	63.269	59.042	22.794	93.207	-33.698	7.477	207.475	-35.065	-28.906	99.964	67.035	-31.224	-27.481	-25.866	-20.395	153.852	-23.368	-8191	255	
1905.696	1	1	0	0	0.12943	0.1167	0.15612	0.065566	0.24585	0.21854	0.060672	0.25278	0.046464	0.26976	0.12799	0.19214	0.29798	0.24204	0.12133	0.043994	-2.9313	-3.2958	-2.6437	-3.4938	-3.05	-2.9917	-3.5375	-2.8833	-3.05	-3.3896	-3.0979	-3.6063	-3.1271	-3.0125	-3.3896	-3.05	278.543	185.870	81.495	162.144	253.382	205.728	120.748	231.749	40.639	95.718	305.271	-32.251	247.795	215.528	37.820	102.924	0.00025892	0.0020128	0.00038321	1326.6	3.5476e-06	1.467e-05	1363.4	435.49	8.0102e-06	5.4342e-06	474	159.56	162.52	70.515	8.5132e-06	72.312	0.0043215	0.0065024	0.0018996	1127.1	6.5523e-05	7.2971e-05	1162.9	371.7	6.4999e-05	7.1414e-05	414.41	138.59	142.1	61.355	6.7382e-05	63.326	116.609	69.835	206.257	-33.575	108.955	77.182	-35.120	-28.945	-35.339	1.336	-31.486	-28.393	-25.737	-20.195	70.291	-23.953	-8191	255	
1905.817	1	1	0	0	0.22251	0.12019	0.13206	0.47886	0.19599	0.21617	0.22873	0.25658	0.14668	0.10573	0.12154	0.24401	0.29723	0.31222	0.060001	0.063477	-2.8521	-3.2854	-2.8167	-3.5354	-3.0812	-2.9292	-3.4333	-2.9083	-3.2125	-3.4167	-3.1792	-3.3688	-3.25	-2.8896	-3.4188	-3.0312	227.563	-1.962	105.574	260.677	201.647	242.425	-20.782	253.949	184.043	310.043	184.976	303.477	21.278	284.941	187.849	286.372	0.00042047	0.0023085	0.00041399	1320.5	5.995e-06	1.5749e-05	1357.4	436.2	3.6913e-06	1.0886e-05	475.66	160.42	161.94	70.569	4.9371e-06	72.463	0.0043158	0.0064453	0.0018793	1127.2	6.6336e-05	7.3008e-05	1163.7	373.05	6.6949e-05	7.2761e-05	415.17	139.13	141.91	61.379	7.1149e-05	63.183	129.136	28.673	52.554	-33.515	173.695	75.214	-35.020	-29.240	175.975	89.232	-30.959	-27.852	-25.612	-20.499	52.344	-24.137	-8191	255	
1905.911	1	1	0	0	0.36859	0.08483	0.23188	0.27333	0.15022	0.034156	0.27246	0.32073	0.33549	0.086722	0.10535	0.053706	0.20484	0.15812	0.18438	0.24641	-2.6979	-3.3688	-2.8458	-3.5458	-3.0187	-2.85	-3.4542	-3.1688	-3.0083	-3.35	-2.8958	-3.3583	-3.4062	-2.8187	-3.1688	-3.0771	6.621	254.358	199.164	310.323	236.711	219.383	286.628	281.394	-30.066	285.014	308.111	74.487	-40.023	279.283	186.629	194.710	0.00019332	0.0018543	0.00027851	1327.2	1.63e-05	1.4092e-05	1381	441.44	8.9601e-06	6.1135e-06	485.7	160.62	163.09	71.734	1.1063e-05	73.002	0.0045076	0.006707	0.0019933	1130.8	6.7819e-05	7.693e-05	1171.6	375	7.0999e-05	7.6916e-05	418.71	139.05	142.72	61.702	7.3885e-05	63.319	117.154	47.533	54.739	-33.734	36.607	141.387	-34.575	-28.860	83.544	-16.777	-31.396	-27.532	-25.881	-20.041	241.392	-23.870	-8191	255	
1905.984	1	1	0	0	0.20948	0.12016	0.19949	0.26572	0.085287	0.017474	0.35384	0.064765	0.15632	0.1964	0.13473	0.40621	0.13271	0.3484	0.096175	0.090872	-2.6229	-3.3146	-3.0771	-3.3563	-3.125	-2.7354	-3.3021	-3.0958	-2.8854	-3.3104	-3.025	-3.3667	-3.2313	-3.0896	-3.35	-3.5563	140.142	90.368	229.124	280.512	288.778	185.104	262.136	231.294	76.904	103.017	272.044	287.999	312.374	312.332	189.431	233.272	0.00041053	0.00083349	0.00057953	1341.9	1.0399e-05	2.3765e-06	1396.9	439.21	1.1293e-05	1.6048e-05	484.06	160.7	162.51	70.932	1.388e-05	72.367	0.0047025	0.0070573	0.0020207	1135	7.1352e-05	7.9192e-05	1176.4	373.41	7.4445e-05	8.0601e-05	417.99	139.36	142.3	61.457	7.662e-05	63.139	64.625	289.896	96.580	-33.401	117.966	14.937	-34.709	-29.030	305.482	78.984	-31.394	-27.435	-25.515	-20.379	-2.268	-23.181	-8191	255	
1906.103	1	1	0	0	0.044629	0.038443	0.079823	0.091673	0.24636	0.14903	0.2484	0.36388	0.082088	0.06852	0.16865	0.15168	0.077936	0.29909	0.11855	0.12674	-2.5083	-3.4833	-3.0458	-3.3229	-3.35	-2.8417	-3.475	-3.2812	-2.8083	-3.25	-2.9729	-3.1917	-3.4062	-2.9167	-3.1229	-3.3271	266.942	156.671	298.809	310.758	122.401	106.738	219.263	264.174	71.869	-26.319	276.538	219.144	18.551	298.326	-5.919	194.365	0.000217	0.00024696	0.00042697	1327.7	7.3901e-06	1.1923e-05	1357.2	429.21	6.062e-06	4.1043e-06	473.67	157.57	158.02	69.781	1.5828e-05	70.756	0.0049021	0.007417	0.0021757	1130.9	7.5452e-05	8.2424e-05	1163.9	370.05	7.6842e-05	8.459e-05	414.28	137.81	140.53	60.847	8.0166e-05	62.21	140.440	65.949	273.711	-33.432	125.775	207.107	-34.920	-29.428	281.470	131.218	-31.218	-27.465	-25.897	-20.374	50.133	-23.553	-8191	255	
1906.199	1	1	0	0	0.10563	0.050194	0.26196	0.32807	0.18101	0.13044	0.19314	0.17034	0.23596	0.065217	0.23231	0.20686	0.2712	0.18386	0.18094	0.053922	-2.4792	-3.4021	-3.0521	-3.2646	-3.6146	-3.0187	-3.4062	-3.2458	-2.7188	-3.2271	-3.2167	-3.1271	-3.4938	-3.125	-3.275	-3.3187	83.333	198.465	306.537	299.424	192.033	155.468	-41.560	267.304	131.385	23.358	-38.794	221.748	269.461	258.694	258.500	172.782	0.00018178	0.0019956	0.00032549	1315.7	1.6493e-05	9.02e-06	1360.1	427.17	9.7945e-06	2.166e-05	470.6	155.52	156.75	68.912	6.6578e-06	69.713	0.0049724	0.007701	0.0022033	1126.4	7.8311e-05	8.7367e-05	1164.6	368.55	8.3428e-05	8.961e-05	412.5	136.66	139.73	60.119	8.4148e-05	61.596	93.061	36.505	-10.935	-33.371	77.981	-28.360	-34.767	-29.063	18.909	179.902	-31.930	-27.563	-25.701	-19.843	215.919	-24.035	-8191	255	
1906.296	1	1	0	0	0.23395	0.096625	0.15692	0.28186	0.029725	0.18985	0.28661	0.14894	0.28632	0.12711	0.097364	0.2046	0.047907	0.12864	0.2059	0.25282	-2.4292	-3.2896	-3.0708	-3.1188	-3.6542	-3.1542	-3.2542	-3.5833	-2.8646	-3.4042	-3.2958	-3.0854	-3.4667	-3.0833	-3.0083	-3.4833	259.485	43.761	-0.534	-30.855	237.204	30.271	-45.586	308.776	253.094	148.031	281.441	294.761	262.705	307.956	84.659	252.769	0.0002634	0.00082508	0.00014713	1317.3	3.5759e-06	7.4001e-06	1358.6	432.01	5.6962e-06	8.5571e-06	475.86	156.69	158.84	69.761	9.844e-06	70.584	0.0054278	0.0079678	0.0022211	1131.7	8.0346e-05	8.879e-05	1162.3	371.09	8.3779e-05	8.7975e-05	415.99	138.55	141.43	61.061	8.2057e-05	62.502	98.558	-37.191	90.174	-33.674	118.777	4.272	-35.099	-29.092	283.270	81.554	-31.366	-27.800	-25.878	-20.221	-11.789	-24.119	-8191	255	
1906.392	1	1	0	0	0.07302	0.15584	0.11795	0.17717	0.15343	0.13805	0.12074	0.33325	0.092869	0.0476	0.32526	0.051065	0.24209	0.25486	0.15821	0.11307	-2.3937	-3.1312	-3.1271	-2.8229	-3.3167	-2.8958	-3.1854	-3.5479	-2.7021	-3.1708	-3.3021	-3.0062	-3.475	-3.1583	-3.0125	-3.4479	-14.184	65.292	76.675	272.345	152.893	188.218	283.641	260.713	-27.017	-37.760	281.949	43.883	259.582	259.024	211.502	281.308	3.4689e-05	0.00030931	0.00021319	1305.5	5.988e-06	1.8539e-05	1368.2	436.1	1.5238e-05	1.0356e-05	478.36	159.19	162.95	70.143	6.8831e-06	71.531	0.0051973	0.0078061	0.0021662	1127.4	7.8582e-05	8.7556e-05	1170.9	375.07	8.2828e-05	8.6997e-05	421.22	140.4	143.53	61.27	8.2278e-05	63.045	-30.504	261.864	306.091	-33.402	215.516	122.289	-35.106	-29.175	5.619	201.158	-31.064	-27.793	-26.124	-20.201	162.694	-24.244	-8191	255	
1906.488	1	1	0	0	0.20678	0.14899	0.04133	0.090181	0.11914	0.14464	0.22129	0.38959	0.18913	0.080864	0.38267	0.085594	0.17087	0.25215	0.15098	0.045597	-2.5	-3.2646	-3.0708	-2.9417	-3.425	-3.0583	-3.0375	-3.5854	-3.1042	-3.35	-3.3583	-3.075	-3.6125	-3.2333	-3.1375	-3.3	-28.789	230.809	196.524	88.543	132.961	312.621	242.235	256.070	246.003	39.312	256.168	49.289	110.608	298.223	103.599	240.513	0.00023894	0.001727	0.00015564	1317.1	6.1012e-06	5.4373e-06	1364.9	433.71	1.3443e-05	2.5766e-06	476.95	158.75	161.15	69.296	1.8982e-05	70.287	0.0052101	0.0079238	0.0021991	1132.6	8.1927e-05	8.9062e-05	1169.9	373.57	8.3499e-05	8.9022e-05	417.28	139.61	142.5	60.437	8.812e-05	61.983	105.591	84.495	31.607	-33.471	34.481	245.943	-35.065	-29.049	129.132	138.893	-31.693	-28.055	-25.875	-20.658	147.898	-23.865	-8191	255	
1906.608	1	1	0	0	0.076865	0.076523	0.12568	0.24115	0.15262	0.0425	0.14603	0.21324	0.023139	0.092954	0.093225	0.16224	0.28483	0.13849	0.11267	0.13633	-2.6917	-3.15	-3.2354	-2.9708	-3.1729	-2.9583	-2.95	-3.725	-3.0687	-3.2167	-3.45	-3.0438	-3.2729	-3.3271	-3.0271	-3.4104	311.790	82.893	149.670	112.186	270.551	113.739	-41.946	-41.907	291.756	246.931	-32.792	248.388	287.625	261.738	86.358	308.981	0.00020061	0.0016968	0.00042257	1311.9	7.907e-06	9.5442e-06	1361.8	432.88	9.3829e-06	1.3158e-05	474.53	158.35	159.63	69.342	1.2216e-05	69.754	0.0052518	0.0080369	0.0022338	1129.7	8.1962e-05	8.9154e-05	1162.4	372.54	8.4181e-05	8.879e-05	416.39	139.27	141.8	60.526	8.4498e-05	61.694	101.106	66.970	88.631	-33.389	122.996	296.230	-34.659	-29.107	73.094	120.859	-31.230	-27.449	-26.116	-20.039	177.814	-24.405	-8191	255	
1906.680	1	1	0	0	0.14797	0.098708	0.14313	0.18802	0.17668	0.051947	0.19419	0.25673	0.040045	0.044143	0.21619	0.14466	0.14387	0.30149	0.127	0.11112	-2.4	-3.0146	-3.2812	-2.8729	-3.1854	-3.3271	-3.0042	-3.4292	-3.0167	-3.0979	-3.6979	-3.0396	-3.2583	-3.5438	-2.9396	-3.4875	-17.967	99.536	139.579	288.314	189.546	78.958	215.942	272.774	198.864	122.056	306.370	-33.360	232.285	-29.241	133.540	206.812	8.1623e-05	0.00050701	7.4875e-05	1309.3	1.2617e-05	7.1544e-06	1357.6	432.26	2.9998e-06	1.3947e-05	479.27	158.7	160.25	68.965	2.7682e-06	70.031	0.0052903	0.0079519	0.0022271	1127.2	7.9804e-05	8.7683e-05	1163.4	373.54	8.0026e-05	8.7583e-05	419.26	139.52	142.61	60.354	8.5567e-05	62.008	55.368	42.113	7.976	-33.487	87.825	311.618	-34.921	-29.534	39.327	105.700	-31.619	-27.663	-25.833	-20.196	109.482	-24.271	-8191	255	
1906.776	1	1	0	0	0.10682	0.20651	0.084963	0.3561	0.25902	0.12099	0.2343	0.15926	0.25341	0.12791	0.12308	0.037271	0.26606	0.070317	0.084478	0.033666	-2.6083	-2.7833	-3.2375	-2.9437	-3.0062	-3.2896	-3.0563	-3.6417	-3.0917	-2.9042	-3.5854	-3.1271	-3.275	-3.5208	-2.9792	-3.4729	300.808	100.484	87.648	265.157	242.775	-39.593	234.992	264.460	138.495	308.143	46.621	290.745	-27.189	-10.401	156.470	-4.043	0.00034886	0.00089899	0.00037396	1316.4	9.8812e-06	1.4173e-05	1359.8	431.21	1.1575e-05	1.8518e-05	482.71	159.36	162.22	69.587	2.5168e-05	70.414	0.0051036	0.0077664	0.0022188	1127.1	7.9829e-05	8.7382e-05	1167.7	373.27	7.9597e-05	9.1697e-05	420.74	140	143.05	60.66	8.5729e-05	62.191	116.971	66.909	67.044	-33.136	112.501	151.312	-34.953	-29.141	91.349	46.646	-31.037	-27.910	-25.803	-20.254	51.857	-24.009	-8191	255	
1906.897	1	1	0	0	0.22263	0.046327	0.1214	0.097509	0.052365	0.1863	0.087319	0.20445	0.068734	0.12802	0.37869	0.095938	0.091779	0.14074	0.15846	0.1561	-2.8146	-2.8708	-3.325	-3.0375	-3.0312	-3.3125	-2.8125	-3.2833	-3.0875	-2.7458	-3.5917	-2.9604	-2.9583	-3.5458	-2.7833	-3.4562	135.998	264.281	290.409	287.649	165.673	93.922	105.401	-20.234	177.977	84.579	302.321	220.964	-5.404	185.478	183.664	245.146	0.00019369	0.00036829	0.00041536	1313.5	1.0376e-05	1.1313e-05	1374.6	436.27	9.5448e-06	2.274e-05	484.56	159.74	161.94	69.211	1.1924e-05	70.86	0.0051455	0.0079775	0.0022201	1129	8.0174e-05	8.7214e-05	1174.8	375.17	7.8983e-05	8.8724e-05	423.47	140.2	142.82	60.488	8.4336e-05	62.302	100.815	175.778	39.795	-33.400	19.104	175.384	-34.720	-29.236	74.537	154.434	-31.396	-27.496	-25.834	-20.112	154.161	-23.798	-8191	255	
1906.991	1	1	0	0	0.12041	0.22149	0.099634	0.24073	0.21723	0.18222	0.080664	0.26186	0.069007	0.14399	0.15435	0.29627	0.20797	0.20065	0.28699	0.17458	-2.8792	-2.9	-3.4688	-3.3438	-3.075	-3.4479	-3.05	-3.4062	-3.2562	-2.8812	-3.4292	-3.1625	-3.0167	-3.525	-2.9646	-3.2333	-11.058	49.405	149.391	282.948	95.835	49.840	302.539	233.609	118.789	297.797	266.953	272.983	181.071	273.563	217.671	223.482	0.00034156	0.00025207	0.00013312	1301.3	1.3639e-05	4.7523e-06	1364.4	439.03	1.3381e-05	1.1458e-05	485.81	160.45	161.68	69.739	9.0785e-06	70.286	0.0050513	0.007684	0.0021133	1117.6	7.7411e-05	8.2183e-05	1167.3	377.95	7.6127e-05	8.75e-05	423.49	140.97	143.55	60.85	8.1745e-05	62.129	81.665	90.468	74.067	-33.767	124.155	46.416	-35.044	-29.197	197.965	107.446	-31.375	-27.760	-25.546	-20.121	-19.679	-23.834	-8191	255	
1907.087	1	1	0	0	0.33134	0.064168	0.13429	0.46128	0.24542	0.018208	0.34244	0.20419	0.15557	0.1542	0.26786	0.20353	0.29657	0.2637	0.050424	0.12958	-3.0917	-2.8854	-3.2042	-3.1125	-2.8479	-3.4125	-3.2458	-3.2042	-3.3396	-3.0208	-3.4542	-3.2083	-3.1063	-3.6083	-3.0917	-3.2188	196.069	1.316	187.271	250.347	292.818	-4.076	263.334	241.966	118.475	119.012	299.649	161.235	207.247	293.722	-36.712	291.824	0.00032679	0.00073659	0.00036592	1309.8	1.1073e-05	1.1168e-05	1367.6	435.03	8.9662e-06	2.1946e-05	479.57	156.18	159.22	68.629	9.1911e-06	69.165	0.0051418	0.0076616	0.0021374	1124.7	8.176e-05	8.6069e-05	1170.7	374.49	7.9484e-05	9.0083e-05	421.15	138.79	142.15	60.282	8.5398e-05	61.491	128.484	121.586	8.485	-33.497	44.157	6.370	-34.894	-29.221	109.998	72.002	-31.430	-27.681	-25.912	-20.194	39.393	-24.255	-8191	255	
1907.184	1	1	0	0	0.17584	0.098992	0.22598	0.051382	0.21821	0.10903	0.34879	0.11742	0.053164	0.041268	0.1369	0.22042	0.19905	0.21338	0.089278	0.21273	-3.3396	-2.9229	-3.3854	-3.3896	-2.9208	-3.2458	-3.2604	-3.0979	-3.3708	-2.7979	-3.1583	-3.2583	-2.925	-3.2354	-2.825	-2.9688	256.283	162.173	179.419	261.306	181.977	65.629	226.122	306.032	153.716	160.343	286.381	278.412	244.435	220.177	118.481	278.380	0.00036321	0.00049215	0.00019176	1311.3	9.0155e-06	1.8117e-05	1364.1	432.37	5.9915e-06	1.2828e-05	479.46	158.04	159.44	69.126	9.46e-06	69.718	0.0052769	0.0081142	0.0022497	1129.2	8.2246e-05	9.094e-05	1171.4	373.85	8.1757e-05	9.245e-05	420	138.95	142.22	60.464	8.4851e-05	61.843	124.326	-39.680	93.501	-33.327	228.263	19.906	-34.782	-29.096	122.198	115.350	-31.321	-27.649	-25.560	-20.080	148.763	-23.936	-8191	255	
1907.280	1	1	0	0	0.19232	0.10556	0.17584	0.22016	0.13962	0.13919	0.24979	0.19947	0.31323	0.066592	0.29138	0.29115	0.089248	0.24247	0.18033	0.21478	-3.1479	-2.8792	-3.2854	-3.4333	-2.9042	-3.4542	-3.3521	-3.0417	-3.3792	-2.8167	-3.2125	-3.5021	-2.975	-3.3438	-3.1333	-3.0875	174.938	293.689	-28.226	273.117	179.637	260.262	-36.271	283.113	120.945	278.199	243.947	-40.640	152.422	263.819	70.944	303.189	0.00013779	0.0016575	0.00031662	1318.1	1.4509e-05	1.1491e-05	1365.5	433.38	3.8895e-06	1.7354e-05	479.97	159.1	161.5	70.157	1.782e-05	70.229	0.0053101	0.0080904	0.0022136	1128.9	8.6291e-05	8.8068e-05	1173.2	375.55	8.1116e-05	9.0368e-05	422.41	140.19	143.33	61.083	8.0486e-05	62.702	174.215	68.032	-9.852	-33.397	29.037	-0.284	-34.854	-28.963	232.274	131.676	-31.361	-27.869	-25.875	-20.106	39.590	-24.379	-8191	255	
1907.376	1	1	0	0	0.11688	0.16265	0.067223	0.10453	0.34015	0.15964	0.093494	0.26346	0.14871	0.3207	0.35382	0.080327	0.073682	0.36224	0.15198	0.063904	-2.8104	-2.9271	-2.9792	-3.5333	-3.0583	-3.3396	-3.5542	-2.9208	-3.5542	-3.2062	-3.0458	-3.5271	-2.7938	-3.3563	-3.1583	-2.9521	275.851	-44.537	265.894	35.803	121.023	-28.602	-22.347	174.000	20.874	-29.053	-40.226	270.772	150.520	283.337	234.042	230.297	0.00032695	0.00055647	0.00023881	1309.1	1.2661e-05	2.4567e-05	1371.2	437.55	6.891e-06	1.4338e-05	485.48	160.6	162.87	70.581	1.043e-05	71.614	0.0050911	0.0077944	0.0021273	1125.8	7.9008e-05	8.3677e-05	1171	377.27	7.7113e-05	8.7125e-05	423.19	141.24	144.11	61.524	7.788e-05	63.06	145.949	306.087	88.317	-33.592	74.897	115.316	-35.423	-28.896	57.395	173.505	-31.449	-27.946	-25.910	-20.211	28.366	-24.149	-8191	255	
1907.497	1	1	0	0	0.083577	0.14596	0.15609	0.16392	0.11109	0.067947	0.16429	0.054633	0.04158	0.11709	0.1278	0.058168	0.21143	0.45556	0.11747	0.25437	-2.9771	-3.1813	-2.9479	-3.6458	-2.8646	-3.1063	-3.6125	-2.9708	-3.2521	-3.1417	-3.0604	-3.3771	-3.0125	-3.4146	-3.3854	-3.0854	238.362	307.652	209.078	274.775	9.496	5.829	201.193	16.472	8.511	75.861	46.675	275.646	252.722	-19.607	227.481	249.122	0.00021382	0.00044991	0.00029184	1320.2	1.4103e-05	1.1015e-05	1379.9	438.63	1.087e-05	1.2081e-05	481.06	161.65	163.08	70.352	1.6089e-05	72.049	0.0050204	0.0076732	0.002102	1132.5	8.0762e-05	8.4378e-05	1181.1	378.27	7.6001e-05	8.696e-05	424.83	141.56	144.7	61.565	7.9122e-05	63.272	86.694	0.761	66.626	-33.516	134.833	42.369	-34.807	-28.920	70.638	128.600	-31.286	-27.457	-25.780	-20.001	82.121	-24.050	-8191	255	
1907.593	1	1	0	0	0.1066	0.048116	0.23872	0.085055	0.2192	0.1564	0.3411	0.35995	0.23206	0.13981	0.23557	0.20175	0.045574	0.1151	0.066132	0.14556	-2.925	-3.1188	-2.7417	-3.4437	-3.0292	-2.8646	-3.5042	-3.0979	-3.4396	-2.9542	-2.9562	-3.5	-3.2104	-3.2667	-3.3854	-2.9917	21.225	195.742	-13.648	208.423	196.164	60.627	-17.902	258.124	95.394	145.872	197.762	253.211	273.646	296.393	118.893	199.820	0.00049154	0.0013817	0.00047891	1319.5	1.156e-05	6.2448e-06	1375.7	442.39	2.3325e-05	9.6401e-06	490.35	163.7	165.88	71.464	1.5469e-05	73.149	0.0050511	0.0075235	0.002141	1132.4	7.9056e-05	8.3996e-05	1180.8	379.68	7.6367e-05	8.2701e-05	430.02	143.9	146.72	62.531	8.0235e-05	64.39	105.924	101.659	297.753	-33.556	66.231	11.560	-34.725	-29.361	71.746	121.503	-30.625	-27.879	-25.511	-19.770	64.111	-24.000	-8191	255	
1907.689	1	1	0	0	0.067096	0.10088	0.14205	0.40951	0.018367	0.079968	0.19166	0.17328	0.21378	0.11765	0.18293	0.14119	0.11554	0.18547	0.27804	0.26293	-2.8812	-3.2771	-2.6917	-3.6083	-3.1562	-2.8667	-3.3104	-2.875	-3.3375	-3.3937	-3.0271	-3.3646	-2.9854	-2.9688	-3.4583	-3.1271	-41.953	270.665	139.262	299.265	213.954	-25.248	287.943	284.045	216.065	285.098	243.445	244.208	223.673	222.918	153.008	249.715	0.00017634	0.0014418	0.00021267	1311.7	1.3786e-05	1.459e-05	1382.9	445.2	1.0716e-05	2.7286e-06	491.16	163.74	165.69	72.117	1.6285e-05	73.338	0.0050405	0.0076476	0.0021788	1130.8	8.0407e-05	8.3857e-05	1184.7	381.84	7.6711e-05	8.5833e-05	430.18	144.48	146.62	62.746	8.4941e-05	64.89	138.298	21.447	10.637	-33.226	33.223	161.281	-34.996	-29.347	296.249	177.459	-31.051	-27.691	-25.662	-20.231	78.637	-24.009	-8191	255	
#DATA ENDS
