BOXY.EXE: ISS Imagent and Oximeter Data Acquisition Program Version 0.80
Ascii Record File

#ACQ INFORMATION
2  Detector Channels 
16  External MUX Channels 
1  Auxiliary Channels 
5000  Waveform (CCF) Frequency (Hz)
1  Waveforms Skipped 
30  Waveforms Averaged 
1  Cycles Averaged 
16  Acquisitions per Waveform 
10.0806  Updata Rate (Hz) 

#FILE INFORMATION
TRUE -- External MUX Channel results are PARSED.
FALSE -- AC DC and Phase are NOT grouped.
TRUE -- Companion Program Settings File CREATED.
FALSE -- AC data not excluded
FALSE -- DC data not excluded
FALSE -- Phase data not excluded
FALSE -- Auxillary Chn. data not excluded
Tab delimiters

#CALIBRATION STATE
TRUE -- Waveform Calibration Values APPLIED.


#AUX CALIBRATION VALUES
Val Type	aux-1	

Term	1.0000e+00	
Factor	0.0000e+00	


#WF CALIBRATION VALUES
A = Detector Channel
Val Type	A-AC1	A-AC2	A-AC3	A-AC4	A-AC5	A-AC6	A-AC7	A-AC8	A-AC9	A-AC10	A-AC11	A-AC12	A-AC13	A-AC14	A-AC15	A-AC16	A-DC1	A-DC2	A-DC3	A-DC4	A-DC5	A-DC6	A-DC7	A-DC8	A-DC9	A-DC10	A-DC11	A-DC12	A-DC13	A-DC14	A-DC15	A-DC16	A-Ph1	A-Ph2	A-Ph3	A-Ph4	A-Ph5	A-Ph6	A-Ph7	A-Ph8	A-Ph9	A-Ph10	A-Ph11	A-Ph12	A-Ph13	A-Ph14	A-Ph15	A-Ph16	

Term	0.00000e+00	0.00000e+00	0.00000e+00	0.00000e+00	0.00000e+00	0.00000e+00	0.00000e+00	0.00000e+00	0.00000e+00	0.00000e+00	0.00000e+00	0.00000e+00	0.00000e+00	0.00000e+00	0.00000e+00	0.00000e+00	0.00000e+00	0.00000e+00	0.00000e+00	0.00000e+00	0.00000e+00	0.00000e+00	0.00000e+00	0.00000e+00	0.00000e+00	0.00000e+00	0.00000e+00	0.00000e+00	0.00000e+00	0.00000e+00	0.00000e+00	0.00000e+00	0.00000e+00	0.00000e+00	0.00000e+00	0.00000e+00	0.00000e+00	0.00000e+00	0.00000e+00	0.00000e+00	0.00000e+00	0.00000e+00	0.00000e+00	0.00000e+00	0.00000e+00	0.00000e+00	0.00000e+00	0.00000e+00	
Factor	1.00000e+00	1.00000e+00	1.00000e+00	1.00000e+00	1.00000e+00	1.00000e+00	1.00000e+00	1.00000e+00	1.00000e+00	1.00000e+00	1.00000e+00	1.00000e+00	1.00000e+00	1.00000e+00	1.00000e+00	1.00000e+00	1.00000e+00	1.00000e+00	1.00000e+00	1.00000e+00	1.00000e+00	1.00000e+00	1.00000e+00	1.00000e+00	1.00000e+00	1.00000e+00	1.00000e+00	1.00000e+00	1.00000e+00	1.00000e+00	1.00000e+00	1.00000e+00	X	X	X	X	X	X	X	X	X	X	X	X	X	X	X	X	

B = Detector Channel
Val Type	B-AC1	B-AC2	B-AC3	B-AC4	B-AC5	B-AC6	B-AC7	B-AC8	B-AC9	B-AC10	B-AC11	B-AC12	B-AC13	B-AC14	B-AC15	B-AC16	B-DC1	B-DC2	B-DC3	B-DC4	B-DC5	B-DC6	B-DC7	B-DC8	B-DC9	B-DC10	B-DC11	B-DC12	B-DC13	B-DC14	B-DC15	B-DC16	B-Ph1	B-Ph2	B-Ph3	B-Ph4	B-Ph5	B-Ph6	B-Ph7	B-Ph8	B-Ph9	B-Ph10	B-Ph11	B-Ph12	B-Ph13	B-Ph14	B-Ph15	B-Ph16	

Term	0.00000e+00	0.00000e+00	0.00000e+00	0.00000e+00	0.00000e+00	0.00000e+00	0.00000e+00	0.00000e+00	0.00000e+00	0.00000e+00	0.00000e+00	0.00000e+00	0.00000e+00	0.00000e+00	0.00000e+00	0.00000e+00	0.00000e+00	0.00000e+00	0.00000e+00	0.00000e+00	0.00000e+00	0.00000e+00	0.00000e+00	0.00000e+00	0.00000e+00	0.00000e+00	0.00000e+00	0.00000e+00	0.00000e+00	0.00000e+00	0.00000e+00	0.00000e+00	-1.56894e+02	-1.27752e+02	-1.28220e+02	-1.82394e+02	-8.05549e+01	-6.51345e+01	-1.55939e+02	-1.62015e+02	-8.46711e+01	-6.06474e+01	-1.70818e+02	-1.71805e+02	-1.80520e+02	-1.77372e+02	-7.45731e+01	-1.49506e+02	
Factor	2.48450e-05	1.80034e-04	5.53765e-05	1.74917e-01	1.47804e-06	1.91503e-06	1.73878e-01	5.40847e-02	1.39976e-06	1.81173e-06	9.61147e-02	3.08946e-02	3.55403e-02	9.85352e-03	1.70142e-06	1.43833e-02	1.14720e-05	1.78812e-05	4.98075e-06	8.74279e-02	1.80401e-07	1.98474e-07	8.17633e-02	2.71597e-02	1.79927e-07	1.99377e-07	4.67774e-02	1.50850e-02	1.80288e-02	4.99142e-03	1.87127e-07	7.05837e-03	X	X	X	X	X	X	X	X	X	X	X	X	X	X	X	X	



#DISTANCE SETTINGS
A = Detector Channel
A-1	A-2	A-3	A-4	A-5	A-6	A-7	A-8	A-9	A-10	A-11	A-12	A-13	A-14	A-15	A-16	

2.5000e+00	3.0000e+00	2.5000e+00	3.0000e+00	2.0000e+00	3.0000e+00	1.5000e+00	3.0000e+00	3.0000e+00	3.0000e+00	3.0000e+00	3.0000e+00	3.0000e+00	3.0000e+00	1.5000e+00	3.0000e+00	

B = Detector Channel
B-1	B-2	B-3	B-4	B-5	B-6	B-7	B-8	B-9	B-10	B-11	B-12	B-13	B-14	B-15	B-16	

1.0000e+01	1.0000e+01	1.0000e+01	1.4400e+00	1.0000e+01	1.0000e+01	1.5100e+00	1.9400e+00	1.0000e+01	1.0000e+01	1.9900e+00	2.4900e+00	2.4100e+00	2.9000e+00	1.0000e+01	2.9800e+00	




#DATA BEGINS
time	group	step	mark	flag	A-AC1	A-AC2	A-AC3	A-AC4	A-AC5	A-AC6	A-AC7	A-AC8	A-AC9	A-AC10	A-AC11	A-AC12	A-AC13	A-AC14	A-AC15	A-AC16	A-DC1	A-DC2	A-DC3	A-DC4	A-DC5	A-DC6	A-DC7	A-DC8	A-DC9	A-DC10	A-DC11	A-DC12	A-DC13	A-DC14	A-DC15	A-DC16	A-Ph1	A-Ph2	A-Ph3	A-Ph4	A-Ph5	A-Ph6	A-Ph7	A-Ph8	A-Ph9	A-Ph10	A-Ph11	A-Ph12	A-Ph13	A-Ph14	A-Ph15	A-Ph16	B-AC1	B-AC2	B-AC3	B-AC4	B-AC5	B-AC6	B-AC7	B-AC8	B-AC9	B-AC10	B-AC11	B-AC12	B-AC13	B-AC14	B-AC15	B-AC16	B-DC1	B-DC2	B-DC3	B-DC4	B-DC5	B-DC6	B-DC7	B-DC8	B-DC9	B-DC10	B-DC11	B-DC12	B-DC13	B-DC14	B-DC15	B-DC16	B-Ph1	B-Ph2	B-Ph3	B-Ph4	B-Ph5	B-Ph6	B-Ph7	B-Ph8	B-Ph9	B-Ph10	B-Ph11	B-Ph12	B-Ph13	B-Ph14	B-Ph15	B-Ph16	aux-1	digaux	

1880.102	1	1	0	256	0.21872	0.12127	0.13265	0.33073	0.26367	0.078909	0.20217	0.051059	0.13431	0.13415	0.13891	0.16772	0.074122	0.23778	0.087436	0.15987	-2.6771	-3.3812	-2.7938	-2.9688	-3.2458	-2.8646	-3.5438	-3.4208	-2.9542	-3.4062	-3.175	-3.1542	-3.6875	-2.8604	-3.2229	-3.1688	274.560	24.319	25.136	216.583	213.885	-26.893	286.869	253.875	190.445	205.233	212.688	193.610	283.365	277.431	40.340	307.526	0.00026865	0.0013466	0.00094661	1246.7	2.4476e-05	2.3068e-05	1220.3	351.72	1.1059e-05	4.3419e-06	371.76	117.72	121.06	56.448	1.796e-05	55.382	0.015271	0.023765	0.0063325	1135.6	0.00023734	0.00025601	1110	322.11	0.00023864	0.00025813	363.94	116.5	123.87	53.163	0.0002379	55.031	151.471	0.241	311.605	-33.454	221.415	45.508	-34.868	-29.217	72.253	190.789	-30.943	-27.289	-25.080	-20.123	98.588	-23.750	-8191	255	
1880.199	1	1	0	0	0.15979	0.1001	0.19214	0.12072	0.15289	0.22579	0.15124	0.18391	0.22046	0.11532	0.091717	0.093323	0.14637	0.45456	0.29203	0.19456	-2.5354	-3.2354	-2.8083	-2.9292	-3.1396	-2.9833	-3.4229	-3.2729	-2.8167	-3.5104	-3.2229	-3.2729	-3.5375	-2.9083	-3.3917	-3.3396	217.736	195.441	167.193	264.818	-40.584	88.859	256.427	177.558	245.948	240.104	164.224	255.488	-34.647	274.273	-36.297	125.894	2.369e-05	0.0013647	0.00056556	1256.6	1.308e-05	2.9091e-05	1238.8	355.85	1.8136e-05	6.6184e-06	378.97	120.37	124.81	57.865	2.2294e-05	56.859	0.01508	0.022856	0.0062765	1137.9	0.00023216	0.00024645	1120.2	327.2	0.00022927	0.00024769	369.99	118.65	125.85	53.8	0.00023396	55.795	146.983	-19.924	-0.052	-33.912	130.866	286.707	-34.732	-28.816	190.243	140.575	-31.107	-27.249	-24.901	-19.634	129.449	-23.204	-8191	255	
1880.295	1	1	0	0	0.23407	0.17142	0.086553	0.26345	0.23044	0.066412	0.12791	0.15051	0.1795	0.21751	0.17876	0.26201	0.27326	0.24982	0.17463	0.17304	-2.7188	-3.3063	-3.0125	-2.9604	-3.3812	-2.825	-3.3271	-3.4458	-2.6583	-3.2771	-3.2875	-3.0854	-3.4396	-3.175	-3.0458	-3.2354	256.355	133.813	-18.307	-45.874	237.302	99.846	303.072	207.091	21.604	16.057	183.790	288.326	154.168	-43.681	93.583	250.544	0.00012088	0.0011959	0.0010292	1273.5	4.7956e-06	2.0009e-05	1270.4	365.25	2.606e-05	1.8176e-05	386.57	123.8	125.2	57.898	1.5957e-05	56.432	0.014589	0.022438	0.0062427	1147.4	0.00022639	0.00024632	1143.9	334.57	0.00022924	0.00024772	377.13	121.32	126.78	54.161	0.00023943	55.766	135.014	99.475	142.885	-33.212	32.485	-10.584	-34.565	-29.073	254.123	221.532	-30.991	-26.857	-24.899	-19.467	50.947	-22.618	-8191	255	
1880.389	1	1	0	0	0.057027	0.1402	0.14676	0.33508	0.074796	0.17558	0.26559	0.31578	0.10133	0.12695	0.25901	0.22157	0.086313	0.11199	0.061149	0.27013	-2.4271	-3.3229	-3.2854	-3.0333	-3.425	-3.1833	-3.3521	-3.5271	-2.8479	-3.4396	-3.2167	-2.9313	-3.6875	-3.1583	-3.0563	-3.3708	31.705	40.641	201.416	272.860	172.288	151.207	276.805	234.879	120.038	-7.026	267.827	201.288	293.799	175.217	135.343	-42.213	0.00015892	0.00029824	0.000494	1265.5	1.9752e-05	1.0177e-05	1268.4	360.94	1.1049e-05	1.1521e-05	381.81	120.16	121.12	56.151	9.8323e-06	54.38	0.014765	0.022886	0.0064193	1150	0.00022931	0.00025117	1142.7	330.81	0.00023336	0.00025713	373.67	118.93	123.91	52.884	0.00024532	54.289	45.340	144.438	149.088	-33.548	171.997	244.085	-34.596	-28.939	-10.510	19.482	-30.848	-27.326	-25.726	-19.653	1.278	-23.374	-8191	255	
1880.510	1	1	0	0	0.076559	0.24779	0.23458	0.2773	0.19705	0.27901	0.12284	0.24242	0.14986	0.18963	0.14863	0.25348	0.17354	0.1151	0.13031	0.093284	-2.6688	-3.1562	-3.1979	-2.9417	-3.5667	-3.1708	-2.9625	-3.4146	-2.9688	-3.4167	-3.2583	-2.7729	-3.3312	-3.2167	-3.1396	-3.4667	188.358	-17.540	267.505	271.028	47.704	69.508	239.051	263.605	82.262	32.559	182.662	7.498	-27.720	182.272	248.907	1.055	0.00029724	0.0010134	0.0010759	1264.2	2.4561e-05	1.1696e-05	1241.8	352.56	2.0267e-05	3.404e-05	367.27	114.97	118.37	54.303	2.0942e-05	53.448	0.014752	0.023572	0.0065891	1142.3	0.00023268	0.00025716	1120.3	322.91	0.00023687	0.00026555	364.62	115.16	121.56	51.751	0.0002622	53.746	66.750	252.387	21.765	-33.389	115.021	86.316	-34.842	-29.463	143.029	125.925	-31.132	-27.139	-26.074	-19.553	167.414	-23.152	-8191	255	
1880.581	1	1	0	0	0.052533	0.29659	0.13724	0.30528	0.14302	0.097145	0.14565	0.42077	0.096863	0.2584	0.24638	0.21332	0.17194	0.25544	0.18177	0.014995	-2.4667	-3.0854	-3.3875	-2.9604	-3.2875	-3.0896	-3.1271	-3.6292	-2.9333	-3.2083	-3.4688	-2.95	-3.3187	-3.1604	-2.8396	-3.4771	138.451	-21.717	275.343	-39.459	164.057	87.696	257.354	255.250	36.068	198.957	-13.986	206.055	219.499	259.836	176.017	67.226	0.00050746	0.0012306	0.00057444	1253.9	1.093e-05	2.3475e-05	1214.2	341.6	1.244e-05	4.8498e-06	356.88	111.42	114.8	53.049	9.9222e-06	52.217	0.01571	0.024944	0.007105	1146.5	0.00024696	0.00027573	1115.1	318.37	0.00024456	0.00027562	357.87	112.22	119.21	50.803	0.00026233	52.65	124.885	10.116	55.223	-33.454	187.287	88.372	-34.793	-28.899	216.976	76.029	-30.936	-26.410	-25.030	-19.671	61.325	-22.903	-8191	255	
1880.678	1	1	0	0	0.06652	0.067971	0.13838	0.12451	0.20398	0.040129	0.20823	0.16072	0.080585	0.077767	0.081953	0.30675	0.060575	0.072014	0.10175	0.09009	-2.7104	-3.0271	-3.3187	-2.9646	-3.2333	-3.325	-2.9625	-3.4604	-3.0708	-3.2479	-3.4604	-2.9021	-3.1146	-3.5083	-2.9729	-3.675	48.549	163.345	83.875	261.125	84.625	9.613	275.373	-23.732	77.560	209.025	-34.718	259.177	257.971	290.809	-4.475	-9.148	0.00035673	0.002123	0.00081981	1248.5	1.7594e-05	2.061e-05	1219.3	338.61	3.2401e-06	2.0562e-05	356.71	110.17	113.77	53.092	2.6095e-05	52.707	0.015535	0.024643	0.0070641	1132.8	0.00024506	0.00027616	1105.9	314.78	0.00024646	0.00027613	355.66	111.71	119.12	50.85	0.00025718	53.041	98.728	249.646	24.599	-33.935	133.241	247.402	-34.555	-29.536	241.756	-26.068	-31.147	-26.593	-25.109	-19.840	167.030	-23.587	-8191	255	
1880.774	1	1	0	0	0.090596	0.22216	0.19752	0.29654	0.02448	0.11521	0.04955	0.29605	0.11297	0.10092	0.29292	0.24851	0.093396	0.24756	0.22524	0.15911	-2.7604	-2.8563	-3.4396	-3.1333	-3.2625	-3.125	-3.0438	-3.5021	-3.1854	-2.8979	-3.4813	-2.8667	-3.1521	-3.5125	-3.0062	-3.3875	201.914	27.844	94.150	231.559	234.499	-39.127	113.051	245.651	106.408	47.553	236.159	146.337	269.382	206.829	119.627	204.897	0.00033532	0.0034707	0.00083111	1242.7	1.5477e-05	2.5497e-05	1225.1	339.37	8.9238e-06	1.0361e-05	359.97	112.31	113.46	53.541	3.9537e-05	53.348	0.015814	0.024978	0.0068768	1134.1	0.00024924	0.00027868	1111.3	315.99	0.00024827	0.00028003	357.72	112.98	119.54	51.555	0.00025627	53.336	113.236	43.687	306.612	-34.013	172.212	-42.304	-34.894	-29.024	279.575	199.316	-30.780	-27.398	-25.009	-20.057	-45.105	-23.188	-8191	255	
1880.894	1	1	0	0	0.10771	0.073996	0.14158	0.090756	0.033863	0.044416	0.33497	0.24863	0.091	0.031728	0.1551	0.14418	0.1819	0.26484	0.048724	0.059353	-2.6292	-2.8771	-3.4313	-3.2562	-3.225	-3.325	-3.1208	-3.3729	-2.9958	-2.9708	-3.7	-3.1146	-3.1604	-3.575	-2.9437	-3.3312	230.027	-1.844	132.799	242.362	305.511	308.595	233.096	-16.672	246.729	34.918	258.834	250.665	185.228	266.663	15.751	77.211	0.00020313	0.0018631	0.00050223	1253.6	1.3108e-05	3.7374e-06	1204.4	333.61	7.7342e-06	1.7085e-05	348.83	108.43	112.41	51.971	7.5257e-06	51.659	0.015963	0.025398	0.0070266	1137.7	0.00025198	0.00027901	1096.4	310.26	0.00025137	0.0002767	348.72	109.64	116.9	50.224	0.00025092	52.269	17.677	80.281	-7.478	-33.818	87.947	130.241	-34.861	-29.135	167.891	46.907	-31.196	-26.920	-25.328	-19.577	84.339	-23.204	-8191	255	
1880.991	1	1	0	0	0.12692	0.17892	0.16109	0.32117	0.14116	0.042414	0.19162	0.37791	0.086263	0.075614	0.26406	0.086517	0.097723	0.32653	0.1328	0.20434	-3.1146	-2.9917	-3.1104	-3.2583	-3.0042	-3.5604	-3.0021	-3.2021	-3.2604	-2.9625	-3.3875	-3.0896	-3.1146	-3.5771	-3.1354	-3.2708	237.657	75.595	111.834	294.010	244.479	-1.842	296.994	171.501	193.805	110.908	285.443	134.471	239.411	-15.855	112.734	207.789	0.00034439	0.0031377	0.0006377	1237.8	2.0528e-05	2.5054e-05	1191.4	334.41	2.3056e-05	2.1753e-05	341.31	107.62	112.09	51.844	6.5272e-06	51.742	0.016004	0.024795	0.0068777	1131.2	0.00025382	0.00027424	1086.8	311.12	0.00025094	0.00027438	345.55	109.32	117.44	49.882	0.00025134	52.43	94.616	-39.642	201.373	-33.723	-15.062	174.001	-34.854	-29.164	159.346	205.824	-30.702	-27.146	-25.273	-19.744	135.472	-23.212	-8191	255	
1881.087	1	1	0	0	0.13828	0.05779	0.080131	0.17327	0.03733	0.28783	0.13554	0.035512	0.16082	0.19338	0.19656	0.25814	0.13859	0.065944	0.17996	0.12547	-2.7979	-2.7313	-3.4562	-3.3417	-2.9813	-3.4667	-2.9667	-3.3771	-3.3042	-2.7812	-3.5479	-3.3688	-2.7667	-3.4667	-2.9833	-2.9917	120.186	-30.681	295.357	-14.431	168.629	25.294	122.608	96.111	91.453	215.237	55.726	271.001	111.073	296.461	170.450	296.798	0.00016288	0.001558	0.00068203	1233.6	2.0371e-05	1.5269e-05	1195.4	329.94	2.5433e-06	1.5443e-05	349.15	107.81	112.87	51.588	2.4146e-05	51.329	0.015674	0.024093	0.0068031	1127.3	0.00024769	0.00026649	1086.1	308.46	0.00025014	0.00026769	348.44	110.1	117.29	49.803	0.00025231	52.219	-41.159	46.888	9.781	-33.435	19.725	181.708	-34.883	-29.392	113.789	52.111	-30.749	-26.932	-25.683	-19.804	159.154	-23.281	-8191	255	
1881.207	1	1	0	0	0.14914	0.15684	0.077085	0.15923	0.22738	0.1925	0.10846	0.071324	0.10825	0.32306	0.13006	0.27886	0.2167	0.23247	0.03732	0.072633	-2.8688	-2.8	-3.2271	-3.4896	-2.8542	-3.3812	-3.0167	-3.2375	-3.4437	-2.7917	-3.3042	-3.2146	-2.875	-3.6229	-2.8646	-3.1125	149.159	17.807	-18.151	249.796	106.083	272.948	11.856	169.600	265.669	227.755	132.114	263.154	-6.443	23.988	112.011	296.137	0.00014804	0.00088261	0.00024988	1241.6	1.5638e-05	2.3722e-05	1205.6	335.84	3.5717e-06	2.0006e-05	353.6	110.01	112.45	52.065	1.9875e-05	51.755	0.015789	0.023861	0.0067386	1129.6	0.00024347	0.00026478	1095.3	311.96	0.00024828	0.00026609	352.36	110.99	117.09	49.785	0.0002504	52.257	14.251	119.617	226.555	-33.612	4.756	32.870	-34.739	-29.235	270.260	62.330	-31.072	-26.678	-25.133	-19.543	4.599	-22.924	-8191	255	
1881.279	1	1	0	0	0.1907	0.024269	0.24851	0.13217	0.11433	0.1476	0.21497	0.13886	0.092296	0.23303	0.16276	0.16372	0.20999	0.32675	0.13748	0.1724	-3.0667	-2.9521	-3.1146	-3.5729	-2.9062	-3.3875	-3.3833	-3.1229	-3.4854	-2.9708	-3.4417	-3.3667	-2.9854	-3.2021	-3.1063	-2.975	113.412	218.008	29.520	283.165	4.066	1.612	266.229	242.781	218.605	189.412	260.690	202.973	199.200	282.483	48.105	213.762	0.00040283	0.0014912	0.00025856	1231.7	9.2978e-06	3.7044e-05	1206.8	335.68	1.0394e-05	9.7588e-06	354.33	110.25	113.9	52.337	2.285e-05	51.889	0.015243	0.02341	0.0066904	1121.6	0.00023756	0.00025775	1095.1	310.91	0.00023334	0.00025911	350.46	110.51	116.67	50.026	0.00024417	52.126	53.903	232.722	293.634	-33.371	180.633	156.567	-34.829	-29.339	146.197	-13.495	-30.994	-27.041	-25.381	-19.372	-42.151	-23.030	-8191	255	
1881.375	1	1	0	0	0.14887	0.047187	0.085404	0.2412	0.20017	0.14339	0.14235	0.096987	0.13002	0.16824	0.18334	0.033144	0.18974	0.11339	0.29239	0.15143	-3.0187	-3.0333	-3.1958	-3.2938	-2.8958	-3.3312	-3.1979	-2.725	-3.5646	-2.9271	-3.0729	-3.4854	-2.8625	-3.3083	-3.2146	-3.1396	103.979	170.417	47.434	274.179	122.769	-11.206	184.109	179.363	-35.555	241.663	253.219	219.185	-16.880	282.806	253.327	263.259	0.00030021	0.0014517	0.0006427	1227.7	1.0735e-05	1.5998e-05	1209.7	337.86	1.3385e-05	1.9406e-05	354.3	109.62	115.27	52.508	3.7808e-05	52.285	0.014557	0.022958	0.0064918	1116.5	0.00022763	0.00025277	1093	312.27	0.00023285	0.00025625	351.98	110.56	117.6	50.046	0.00024548	52.055	88.947	120.612	66.735	-33.741	225.226	267.261	-34.799	-28.858	192.144	67.367	-31.077	-26.693	-25.029	-19.962	119.128	-22.850	-8191	255	
1881.494	1	1	0	0	0.064872	0.2109	0.33852	0.38682	0.25744	0.068711	0.075612	0.35004	0.15938	0.025101	0.21058	0.13519	0.20536	0.28491	0.010035	0.19872	-2.9646	-2.9542	-3.0687	-3.4604	-2.6792	-3.1458	-3.3375	-2.925	-3.4333	-2.8583	-3.175	-3.6063	-2.925	-3.3979	-3.3688	-2.8396	56.248	56.845	34.666	301.257	30.106	118.954	181.719	-35.841	301.769	52.137	198.326	29.114	261.065	308.853	291.806	-41.812	8.076e-05	0.0033208	0.00041941	1231.7	1.1072e-05	1.3654e-05	1216.5	339.63	1.33e-05	2.312e-05	357.19	110.58	114.83	52.661	8.1939e-06	52.068	0.014565	0.023141	0.0064795	1121.8	0.00022969	0.00025574	1099.5	313.21	0.00023312	0.00025942	354.35	110.76	118.01	50.088	0.00025082	51.986	265.356	-19.115	-14.907	-33.479	62.566	104.377	-34.744	-29.175	10.720	125.354	-31.141	-27.391	-25.379	-19.454	32.995	-23.208	-8191	255	
1881.590	1	1	0	0	0.14742	0.047306	0.098165	0.25106	0.08873	0.30355	0.19007	0.14603	0.082144	0.19791	0.091625	0.23078	0.15188	0.4075	0.18477	0.15952	-2.9062	-3.0771	-3.075	-3.4938	-3.1063	-3.3583	-3.5104	-2.8375	-3.5146	-3.0104	-2.9875	-3.5375	-2.8979	-3.2167	-3.4083	-2.8542	143.217	223.689	-35.784	280.006	154.678	269.702	255.645	215.445	158.170	183.033	280.406	49.106	126.796	261.883	-35.935	279.965	0.00020199	0.001652	0.0007613	1239.8	5.4578e-06	8.2991e-06	1216	338.47	4.3674e-06	3.8725e-05	358.42	110.47	113.63	52.048	2.1306e-05	52.381	0.015081	0.023863	0.0065971	1123	0.00023411	0.00026265	1103.1	312.6	0.00023802	0.00026347	355.24	110.79	117.75	49.812	0.00025198	52.323	21.209	167.314	-26.743	-33.758	311.459	-30.128	-34.649	-28.812	299.245	247.633	-30.960	-27.413	-25.232	-20.223	180.020	-22.772	-8191	255	
1881.686	1	1	0	0	0.028609	0.18485	0.087509	0.11116	0.18155	0.19278	0.087134	0.3145	0.1145	0.21334	0.32741	0.18758	0.22317	0.12776	0.10679	0.13303	-2.8979	-3.1042	-2.8646	-3.4292	-2.9667	-2.9479	-3.4813	-2.9771	-3.2458	-3.2542	-2.8979	-3.4854	-3.1479	-3.3	-3.3937	-2.9417	227.385	161.981	-18.755	276.238	74.701	-44.381	295.031	237.159	161.718	250.155	-34.012	167.785	268.235	255.679	-23.610	221.035	0.00053511	0.00090649	0.00048814	1253.3	2.291e-05	1.6386e-05	1215.2	337.88	1.655e-05	4.7085e-05	350.49	109.81	112.78	51.872	4.4483e-06	51.448	0.015397	0.024354	0.0066544	1137.9	0.00024059	0.00027051	1106.4	313.16	0.00024185	0.00026901	352.62	110.67	117.56	49.813	0.0002544	52.051	170.297	311.814	11.661	-33.781	292.159	148.586	-35.087	-28.813	149.372	79.131	-31.429	-27.121	-25.083	-19.108	199.459	-23.310	-8191	255	
1881.807	1	1	0	0	0.12359	0.053162	0.25037	0.0087682	0.053101	0.14949	0.17097	0.050707	0.093243	0.14821	0.20353	0.1821	0.06536	0.24873	0.25399	0.14851	-2.8646	-3.3563	-2.8625	-3.5312	-3.0958	-3.1271	-3.5854	-3.1937	-3.2625	-3.2687	-3.0292	-3.3563	-3.2958	-2.9729	-3.3104	-3.1396	119.000	274.899	159.295	293.775	-34.405	5.936	-3.874	230.336	-32.122	67.427	298.968	-43.127	-38.264	191.348	10.266	260.535	0.00018614	0.00027755	0.00082267	1233.2	3.3053e-06	1.8202e-05	1220.1	337.09	4.1693e-06	1.8731e-05	353.97	110.39	113.79	52.112	1.4377e-05	51.27	0.015492	0.024268	0.0066082	1128.7	0.00024192	0.00026951	1100.8	312.11	0.00024452	0.00026909	352.66	110.61	117.85	49.808	0.00024594	51.934	215.960	69.508	100.880	-33.252	13.328	7.353	-35.006	-29.199	12.075	-5.466	-30.919	-27.135	-25.067	-19.573	19.599	-22.972	-8191	255	
1881.879	1	1	0	0	0.10302	0.18392	0.17097	0.17859	0.10323	0.07862	0.14294	0.2108	0.055062	0.12678	0.19745	0.2281	0.080737	0.11353	0.040452	0.42649	-2.5958	-3.4458	-3.0021	-3.4375	-3.2708	-2.8792	-3.5229	-3.1292	-2.8896	-3.1792	-2.9771	-3.425	-3.4333	-3.1042	-3.5854	-3.1979	42.022	41.855	194.179	285.664	-3.862	81.525	236.480	233.522	61.999	246.585	261.399	283.116	301.315	-12.308	41.116	202.090	0.00023961	0.00086293	0.00082078	1238.6	1.7093e-05	1.4862e-06	1214.2	335.68	2.5821e-05	1.998e-05	353.08	109.75	113.34	51.956	6.5795e-06	52.1	0.01558	0.024073	0.0065943	1134.2	0.00024438	0.00026906	1102.1	311.91	0.000244	0.00027069	350.49	111.17	118	49.963	0.00025175	52.606	143.285	166.827	95.845	-33.485	184.571	3.352	-34.898	-29.289	-35.163	-0.628	-31.043	-27.573	-24.886	-19.847	217.882	-22.636	-8191	255	
1881.975	1	1	0	0	0.11472	0.17305	0.054703	0.1493	0.18886	0.19018	0.28263	0.45517	0.23036	0.053039	0.16695	0.096815	0.12833	0.26556	0.053619	0.032013	-2.5687	-3.2521	-2.9958	-3.4979	-3.275	-2.9062	-3.4042	-3.175	-3.0312	-3.5917	-3.1958	-3.4229	-3.5083	-2.9479	-3.2938	-3.1833	34.358	29.504	118.952	241.991	63.838	37.263	286.389	264.858	-1.010	103.247	294.533	125.833	133.883	294.575	-7.818	298.541	0.00062729	0.0034892	0.0011646	1244.6	5.6979e-06	8.1205e-06	1225	337.26	1.5367e-05	1.6524e-05	356.8	112.75	115.12	53.275	1.3314e-05	53.436	0.015591	0.023623	0.0065472	1132.9	0.00024403	0.00026275	1106.8	313.23	0.00024674	0.00027146	354.12	112.62	119.48	50.684	0.00025292	53.759	108.653	109.105	92.476	-33.473	41.895	23.787	-34.524	-29.277	165.664	108.230	-31.508	-27.160	-25.630	-19.733	141.009	-23.140	-8191	255	
1882.071	1	1	0	0	0.090053	0.099594	0.13527	0.093617	0.22746	0.04486	0.18144	0.14976	0.049928	0.17267	0.15977	0.21488	0.20044	0.19972	0.19163	0.19524	-2.4667	-3.6396	-3.0729	-3.3729	-3.4042	-2.8583	-3.4604	-3.3146	-2.9333	-3.55	-3.1792	-3.2438	-3.3	-2.9333	-3.2938	-3.2062	205.914	103.071	303.205	292.861	94.431	289.634	221.682	-44.292	258.254	243.363	70.378	275.362	-39.908	259.868	54.099	199.988	0.00023098	0.0023855	0.00076804	1255.2	1.563e-05	8.1096e-06	1228.7	338.1	8.004e-06	1.5288e-05	355.73	111.41	114.93	52.821	2.6387e-06	53.394	0.015905	0.023997	0.0067418	1141.9	0.00024846	0.00026513	1112	314.32	0.00024941	0.00027271	354.84	112.93	119.65	50.887	0.00026324	53.877	102.035	9.687	153.170	-33.888	180.428	288.435	-34.462	-29.153	41.734	113.094	-31.443	-27.159	-25.069	-20.172	229.759	-23.024	-8191	255	
1882.192	1	1	0	0	0.10511	0.20669	0.10095	0.15648	0.042118	0.040348	0.34572	0.25237	0.19853	0.10946	0.3666	0.16274	0.26356	0.15318	0.057593	0.23323	-2.4042	-3.4229	-2.9958	-3.2354	-3.4521	-3.0833	-3.5125	-3.3458	-2.7042	-3.3417	-2.8229	-3.2229	-3.4146	-3.1396	-3.3979	-3.3604	35.938	169.089	210.578	301.210	139.247	220.216	239.334	265.776	56.568	-8.509	189.188	-45.852	240.443	-10.628	-46.879	308.732	0.00017454	0.0017322	0.00055222	1239.7	8.8326e-06	1.069e-05	1203.6	333.72	1.7301e-05	1.8492e-05	348.91	109.53	113.96	53.15	2.315e-06	52.705	0.016129	0.024692	0.006963	1138.2	0.0002524	0.00027025	1097.7	311.28	0.0002457	0.00027678	349.97	111.7	118.03	50.565	0.00026003	53.358	236.494	-36.897	140.891	-33.765	159.896	45.222	-34.891	-29.035	60.379	78.685	-30.712	-26.961	-25.469	-19.621	202.329	-23.270	-8191	255	
1882.286	1	1	0	0	0.093392	0.23386	0.13358	0.035082	0.055398	0.15693	0.11149	0.11417	0.18663	0.14215	0.091146	0.29327	0.10433	0.23435	0.12278	0.24954	-2.7771	-3.4854	-3.0646	-3.1896	-3.4667	-2.8896	-3.275	-3.3146	-2.8063	-3.2792	-3.0312	-3.0125	-3.4313	-3.1396	-3.1875	-3.4604	240.040	212.534	164.719	213.938	-41.931	300.157	52.505	111.829	48.014	210.904	-28.003	178.033	144.964	-21.312	94.565	255.306	0.00022459	0.0011503	0.00054231	1233.6	1.8304e-05	1.4304e-05	1207.8	336.17	2.4394e-05	3.0644e-05	347.52	108.4	113.41	52.586	6.4408e-06	52.296	0.015622	0.024251	0.0068958	1131.9	0.00025072	0.00027141	1098.4	312.38	0.00024092	0.00027413	349.35	110.91	117.46	50.352	0.00025805	52.875	-45.486	151.606	310.896	-33.647	182.318	183.291	-34.854	-29.213	57.890	118.932	-30.483	-27.103	-25.449	-19.671	292.215	-23.572	-8191	255	
1882.382	1	1	0	0	0.21342	0.13497	0.21832	0.16401	0.069595	0.20913	0.22911	0.028728	0.15643	0.22025	0.11873	0.16198	0.4399	0.19371	0.046172	0.12477	-2.4813	-3.275	-2.9521	-3.0792	-3.3563	-3.0563	-3.0812	-3.3833	-2.8333	-3.2854	-3.1937	-2.9437	-3.3354	-3.175	-2.9333	-3.3729	200.756	200.955	127.537	14.897	-19.341	-41.280	267.066	294.950	0.653	222.350	71.065	183.533	25.081	145.412	-35.118	267.157	0.00016965	0.00064062	0.00061257	1226.4	1.1395e-05	2.1679e-05	1199.5	334.47	1.1984e-05	1.8452e-05	348.97	110.51	115.68	53.619	9.7296e-06	53.383	0.0153	0.024119	0.006749	1121	0.00024121	0.00026508	1094.9	310.21	0.00023733	0.00027235	350.21	111.46	118.7	51.069	0.00025178	53.77	116.923	0.585	84.907	-33.502	145.226	224.895	-34.616	-29.082	-10.584	142.791	-31.089	-27.010	-25.104	-20.140	159.903	-23.725	-8191	255	
1882.478	1	1	0	0	0.0042495	0.015855	0.27267	0.215	0.10711	0.20878	0.2636	0.26327	0.12587	0.23558	0.21758	0.13387	0.14126	0.20245	0.12603	0.28192	-2.5	-3.3604	-2.9896	-2.6354	-3.4062	-3.0646	-3.0187	-3.3542	-2.8021	-3.2062	-3.1354	-2.9333	-3.3917	-3.1042	-3.1875	-3.5833	147.084	-41.330	94.912	294.227	288.601	32.503	235.958	242.389	107.637	157.993	68.601	140.000	151.217	-36.812	46.046	225.272	0.00037401	0.0041784	0.00037802	1235.1	2.1535e-05	3.0512e-05	1203.3	333.46	4.6537e-06	2.077e-05	350.23	110.8	114.51	53.413	2.2439e-05	52.997	0.015097	0.0238	0.0066444	1122.4	0.00024071	0.0002631	1097.1	309.61	0.00023435	0.0002665	350.23	111.36	118.34	51.046	0.00024583	53.5	44.174	38.287	212.960	-33.792	14.181	53.607	-35.134	-28.578	21.803	-29.601	-31.330	-26.846	-25.544	-19.977	157.508	-23.708	-8191	255	
1882.574	1	1	0	0	0.10268	0.22847	0.11182	0.063697	0.26545	0.19475	0.21883	0.17388	0.21017	0.15029	0.18583	0.11143	0.28644	0.13809	0.075023	0.1131	-2.7208	-3.3083	-3.2979	-2.9542	-3.3479	-3.2313	-2.9688	-3.6083	-3.0771	-3.2417	-3.2938	-2.7458	-3.2542	-3.3167	-2.9	-3.5333	169.303	94.181	55.304	274.924	183.879	168.502	272.360	248.886	69.442	255.420	32.426	292.126	279.835	252.004	56.900	166.522	9.6287e-05	0.00022401	0.00045038	1229.7	1.6799e-06	1.2662e-05	1193.9	330.56	1.02e-05	3.3545e-05	344.41	110.43	113.4	53.115	1.6162e-05	52.519	0.015004	0.023879	0.0065672	1117.7	0.00024183	0.00026323	1085.2	306.46	0.00023557	0.00026587	344.68	109.94	117.33	50.637	0.00024248	52.682	-25.735	208.661	-5.931	-33.833	58.350	283.076	-34.978	-29.150	-41.084	35.091	-30.861	-27.230	-25.307	-19.961	57.808	-23.274	-8191	255	
1882.671	1	1	0	0	0.17961	0.16356	0.11076	0.1189	0.14836	0.067325	0.063489	0.10213	0.11589	0.26961	0.14895	0.1458	0.16464	0.21367	0.11905	0.20608	-2.7208	-3	-3.2062	-2.8792	-3.325	-3.1458	-2.9604	-3.5292	-3.2146	-3.1646	-3.3167	-3.0938	-3.1042	-3.1604	-2.6937	-3.2042	139.840	63.241	196.382	34.734	159.820	-7.152	-41.250	257.947	-41.413	201.829	251.483	260.345	235.419	264.159	171.875	195.085	0.00035125	0.0021836	0.00056793	1223.2	1.7018e-05	2.8276e-05	1188.6	334.65	2.1276e-05	2.7292e-05	344.87	110.68	114.65	53.188	2.2945e-05	53.057	0.015162	0.023583	0.0064768	1111.3	0.00024088	0.00025953	1079	308.35	0.00023634	0.00026347	345.1	110.36	118.58	50.748	0.00024329	53.29	94.936	304.723	304.164	-33.535	90.929	285.746	-34.663	-29.071	-24.425	48.436	-31.858	-27.040	-24.966	-19.809	185.962	-23.437	-8191	255	
1882.767	1	1	0	0	0.088349	0.54291	0.030172	0.054128	0.26958	0.099688	0.20884	0.16104	0.030266	0.16465	0.11996	0.13567	0.090142	0.13661	0.11022	0.098162	-2.5854	-2.8125	-3.3125	-2.9396	-3.2646	-3.4354	-3.0333	-3.4771	-3.1021	-2.8375	-3.3021	-2.8604	-3.1229	-3.4104	-2.9083	-3.4208	36.370	208.904	-17.056	190.864	-24.124	181.613	277.527	-25.926	147.579	88.936	219.988	279.251	308.478	89.840	205.412	223.472	0.00014895	0.0012234	0.001173	1221.3	2.141e-05	7.7573e-06	1188.4	332.11	1.4612e-05	2.5054e-05	342.39	110.43	113.89	53.227	1.789e-05	53.482	0.015349	0.023514	0.0064235	1113.7	0.00024184	0.00026191	1079.9	309.55	0.00023573	0.0002644	346.17	111.29	118.56	50.75	0.00024374	53.655	16.876	20.722	298.550	-33.354	34.681	279.299	-34.859	-29.123	235.578	-9.397	-31.194	-27.118	-25.288	-19.688	117.681	-23.774	-8191	255	
1882.887	1	1	0	0	0.12639	0.24408	0.26671	0.20045	0.21473	0.099908	0.22599	0.25916	0.27597	0.26468	0.084869	0.24504	0.31738	0.12435	0.10543	0.063013	-2.7146	-2.8854	-3.4104	-3.0438	-3.1208	-3.3771	-3.0812	-3.7562	-3.1937	-2.8771	-3.4062	-2.8833	-2.9375	-3.3438	-2.8375	-3.5271	123.554	150.330	-15.415	249.750	68.567	169.227	309.853	228.493	310.288	-8.782	8.739	277.453	276.087	152.360	122.732	152.756	0.00012519	0.0010461	0.00036716	1217.6	2.3055e-05	8.3289e-06	1194	334.97	1.323e-05	2.6017e-05	350.08	110.23	114.86	53.288	3.553e-05	53.591	0.015532	0.023995	0.0066489	1117.1	0.00024595	0.00026877	1086.3	310.44	0.00024553	0.0002651	348.92	111.93	118.98	51.002	0.00024585	54.134	125.694	-3.599	28.427	-33.695	134.177	128.839	-34.691	-29.190	103.480	266.866	-30.495	-27.149	-25.162	-19.960	194.722	-23.591	-8191	255	
1882.983	1	1	0	0	0.18957	0.042792	0.12577	0.14073	0.21313	0.12671	0.28545	0.34597	0.20504	0.20711	0.11705	0.23525	0.20782	0.26995	0.14568	0.19387	-2.8542	-2.8875	-3.3979	-3.2938	-2.8208	-3.4062	-3.0354	-3.1937	-3.3167	-2.9375	-3.3458	-3.0458	-2.875	-3.6354	-3.1521	-3.3063	41.980	156.070	223.723	-45.582	128.628	278.145	248.782	277.999	183.222	47.752	162.861	35.904	217.566	287.999	55.595	304.139	8.9908e-05	0.0032377	0.00011202	1231.9	1.2814e-05	6.9678e-06	1193	332.19	3.2554e-05	1.0943e-05	345.33	108.27	112.63	52.744	2.3427e-05	52.877	0.015534	0.023827	0.0065842	1124.5	0.00024346	0.00027094	1085.8	310.16	0.00024256	0.00026498	347.17	110.07	117.58	50.425	0.00025208	53.404	111.693	195.429	132.129	-33.840	189.027	47.612	-34.914	-28.997	137.903	113.974	-30.893	-27.496	-25.373	-19.745	59.760	-22.882	-8191	255	
1883.080	1	1	0	0	0.16658	0.24108	0.2651	0.31594	0.27162	0.24483	0.26052	0.15244	0.086357	0.036116	0.18389	0.18635	0.14063	0.15901	0.04981	0.25099	-2.9917	-2.5792	-3.2125	-3.2687	-2.9271	-3.6271	-3	-3.1125	-3.1917	-2.8646	-3.3771	-3.3271	-2.8854	-3.3563	-2.9667	-3.325	258.687	246.553	106.861	287.079	86.181	300.651	284.839	246.887	307.509	170.324	171.509	82.259	301.220	238.109	199.485	263.932	0.00039156	0.0042367	0.00020641	1220.4	1.7226e-05	3.191e-05	1188.3	333.71	1.8194e-05	1.0751e-05	351.03	109.67	114.84	52.932	1.9542e-05	52.711	0.015711	0.024024	0.0067409	1120.6	0.00024286	0.0002722	1087.3	310.52	0.00023985	0.00026624	349.98	111.21	118.32	50.584	0.00025214	53.046	169.225	24.323	295.539	-33.381	101.168	150.111	-34.695	-29.154	60.851	-47.080	-31.085	-27.259	-25.623	-19.674	196.979	-23.575	-8191	255	
1883.176	1	1	0	0	0.097896	0.090782	0.2379	0.29097	0.20875	0.13869	0.38952	0.11437	0.1749	0.12125	0.040028	0.10772	0.2187	0.10103	0.15917	0.039307	-3.0687	-2.9729	-3.1542	-3.1813	-2.8	-3.3937	-3.1375	-3.125	-3.4104	-3.1583	-3.5292	-3.2458	-2.9188	-3.4396	-3.2542	-3.0958	111.322	40.457	209.736	282.915	78.490	30.373	262.717	268.030	80.389	86.761	-9.185	94.025	312.405	223.557	194.652	133.639	0.00021112	0.0017396	0.00038625	1228.7	1.7291e-05	2.0287e-05	1195.7	337.22	6.908e-06	2.5716e-05	350.66	110.33	115.46	53.092	3.9425e-06	53.781	0.015559	0.02379	0.0067533	1122.4	0.00024189	0.00027006	1095.4	313.04	0.00024127	0.00026794	354.83	111.7	119.27	50.834	0.00025505	53.641	157.276	-1.441	-38.678	-33.946	-15.501	100.301	-34.597	-29.176	-10.391	113.752	-30.858	-27.371	-25.670	-19.599	183.083	-23.454	-8191	255	
1883.272	1	1	0	0	0.24066	0.038318	0.075963	0.18248	0.079405	0.17527	0.15753	0.49539	0.083243	0.3212	0.23471	0.22151	0.22702	0.16291	0.19415	0.20984	-3.2104	-2.825	-3.3917	-3.475	-2.8646	-3.3854	-3.1	-3.1458	-3.5854	-2.9042	-3.3875	-3.1604	-2.8979	-3.4688	-3.1542	-2.8688	63.601	186.199	65.572	-39.268	263.508	30.981	255.515	290.024	178.398	129.499	23.738	94.758	306.789	112.409	158.339	221.615	0.00075666	0.0012965	0.00098045	1238.7	9.2462e-06	5.3526e-05	1217.9	344.07	3.2097e-05	1.3448e-05	363.48	114.89	118.77	55.225	1.3582e-05	54.96	0.015453	0.023834	0.0067002	1129.6	0.00024005	0.0002704	1110.5	317.4	0.00023867	0.00026846	361.7	115.02	121.46	51.982	0.00025254	54.602	33.363	155.273	283.230	-33.463	-30.049	151.591	-34.655	-28.695	193.695	313.182	-30.769	-26.828	-25.287	-20.191	244.069	-23.336	-8191	255	
1883.368	1	1	0	0	0.095458	0.22773	0.13899	0.2615	0.32951	0.31886	0.22603	0.11758	0.33528	0.15157	0.28248	0.24132	0.33734	0.011494	0.20643	0.20342	-3.0083	-2.9729	-3.0271	-3.2125	-2.8792	-3.2958	-3.2833	-2.8125	-3.3375	-3.0125	-3.0708	-3.3979	-2.6583	-3.45	-3.1542	-2.9604	211.651	294.657	224.266	300.902	294.156	224.335	290.076	179.615	308.419	247.796	253.280	231.811	206.731	-3.431	24.012	7.463	9.1965e-05	0.0014468	0.00026867	1257.6	1.4567e-05	1.5072e-05	1236.6	349	9.7955e-06	1.158e-05	366.36	116.59	119.51	55.327	1.4919e-05	54.443	0.015648	0.024007	0.0067659	1143	0.00023954	0.00027044	1128.4	322.48	0.0002365	0.00026749	366.09	117.03	123.45	52.542	0.00024774	54.571	200.686	20.053	30.455	-33.389	22.082	90.277	-35.096	-29.294	187.063	103.718	-31.002	-27.094	-25.753	-20.200	14.928	-23.354	-8191	255	
1883.487	1	1	0	0	0.13622	0.15854	0.10879	0.1033	0.11612	0.096026	0.13335	0.12627	0.15317	0.05926	0.229	0.22251	0.19066	0.10267	0.088871	0.27171	-2.8458	-2.9917	-3.2417	-3.575	-2.9479	-3.2104	-3.3917	-3.1958	-3.5104	-3.2646	-3.1063	-3.4875	-2.9188	-3.1042	-3.2729	-2.9125	-35.331	-4.866	208.589	220.545	116.531	6.798	224.870	212.902	287.966	8.343	-16.576	251.718	260.931	256.956	169.603	-43.320	0.0002845	0.0025843	0.00022121	1242.1	5.9432e-06	9.357e-06	1232.8	347.82	1.4107e-05	4.749e-06	370.28	117.89	121.33	55.501	3.1356e-05	54.654	0.015498	0.023839	0.0066212	1139.4	0.00023907	0.00026813	1123.1	322.48	0.00023977	0.00026731	366.01	116.78	124.04	52.667	0.00024754	54.577	167.169	290.128	147.893	-34.013	122.316	47.983	-34.766	-29.094	197.592	239.274	-30.686	-27.192	-25.514	-19.676	83.870	-23.492	-8191	255	
1883.583	1	1	0	0	0.070704	0.1143	0.14013	0.18237	0.15287	0.19184	0.22868	0.30007	0.077646	0.16988	0.40825	0.062719	0.11783	0.23516	0.20913	0.10928	-3.0812	-3.0938	-2.9062	-3.625	-2.8312	-2.9958	-3.3563	-2.9813	-3.4167	-3.3	-2.7188	-3.3833	-3.1604	-3.2521	-3.4646	-2.9604	278.552	39.051	14.864	282.220	286.324	263.696	292.975	240.313	-34.616	170.615	273.119	8.567	26.464	7.550	-23.720	53.264	0.00048604	0.002442	0.00057516	1265.3	2.7557e-05	3.6673e-05	1248.3	352.97	1.4215e-05	1.394e-05	374.09	116.81	120.97	56.045	8.9382e-06	54.654	0.015652	0.02417	0.0065512	1145.4	0.00023932	0.00026963	1127.5	325.44	0.00024038	0.00026901	368.64	117.5	123.56	52.807	0.00024593	54.583	84.592	82.673	132.195	-33.338	291.383	104.431	-34.861	-29.170	92.434	211.811	-31.286	-26.811	-24.964	-19.844	183.605	-23.503	-8191	255	
1883.679	1	1	0	0	0.21339	0.27018	0.10854	0.21163	0.085795	0.15751	0.20463	0.26421	0.37092	0.10392	0.084559	0.12129	0.25026	0.16933	0.065665	0.067359	-2.6708	-3.2792	-2.9583	-3.3667	-3.0604	-2.9104	-3.5687	-3.0125	-3.2896	-3.2458	-2.8708	-3.4604	-2.9813	-2.9667	-3.4604	-3.0417	246.264	112.404	-27.561	251.176	-2.670	-44.613	-46.210	292.952	271.164	96.006	-10.259	247.101	-17.451	287.711	37.238	294.369	0.00028497	0.0014779	0.0005775	1253.5	2.3428e-05	1.7651e-05	1250.7	354.78	7.9072e-06	4.0222e-05	377.54	118.18	121.84	55.506	1.327e-05	54.981	0.015777	0.024166	0.0065584	1143.8	0.00024217	0.00026771	1131.4	326.39	0.00024145	0.00026717	370.98	118.2	124.81	52.729	0.00024569	54.954	111.470	-24.173	46.677	-33.502	110.315	111.646	-34.539	-29.068	290.900	15.953	-30.773	-27.096	-25.331	-19.883	71.132	-23.330	-8191	255	
1883.751	1	1	0	0	0.19882	0.10081	0.13123	0.25684	0.20447	0.16945	0.22209	0.21692	0.068277	0.1678	0.091277	0.16486	0.22169	0.23868	0.16775	0.10609	-2.8438	-3.1604	-2.8063	-3.3833	-3.0146	-2.9188	-3.6875	-3.2396	-3.1937	-3.2917	-3.0438	-3.4917	-3.1792	-2.9021	-3.2083	-3.0021	29.077	245.083	197.664	287.186	126.517	99.808	223.249	264.887	110.930	285.053	263.080	-2.813	48.411	261.598	79.868	193.113	0.00046275	0.0025188	0.0010888	1262.9	1.3067e-05	2.4909e-05	1264.1	355.9	1.0378e-05	3.5182e-05	376.68	119.6	122.56	55.305	2.2497e-05	54.936	0.016143	0.023966	0.0065874	1148	0.00024312	0.00026488	1141.2	328.28	0.0002427	0.00026689	371.27	119.46	125.1	52.68	0.00024858	54.776	99.391	117.095	58.093	-33.612	73.423	-19.171	-34.707	-29.112	170.489	200.247	-31.085	-27.042	-25.135	-19.572	156.606	-23.283	-8191	255	
1883.872	1	1	0	0	0.068459	0.14397	0.19957	0.3931	0.031673	0.21142	0.13245	0.16119	0.16497	0.22676	0.16943	0.2417	0.14212	0.36911	0.32375	0.075034	-2.9729	-3.2104	-2.7583	-3.2896	-3.1729	-3.1437	-3.5417	-2.8563	-3.0271	-3.3729	-3.1854	-3.3042	-3.2417	-2.9271	-3.2	-3.0458	90.980	104.140	27.609	262.509	147.109	273.898	42.791	301.858	-34.479	-14.399	214.699	289.177	76.950	312.124	171.356	240.438	0.00049133	0.00063614	0.0011624	1257	1.1543e-05	1.7243e-05	1250.1	355.2	1.1926e-05	2.6309e-05	373.04	117.12	119.78	54.962	2.1037e-05	54.548	0.015806	0.023799	0.006693	1143.8	0.000245	0.00026245	1133.5	326.69	0.00024271	0.00026505	369.02	117.48	123.99	52.217	0.00025089	54.449	88.248	14.839	4.245	-33.472	93.604	107.478	-34.943	-28.665	57.817	72.480	-30.842	-27.609	-25.656	-19.839	31.258	-23.085	-8191	255	
1883.968	1	1	0	0	0.13743	0.11234	0.050369	0.42318	0.29835	0.10321	0.33345	0.14373	0.18076	0.10356	0.16931	0.016082	0.058332	0.048688	0.14023	0.085378	-2.4542	-3.3708	-2.8146	-3.6208	-3.3021	-2.9146	-3.4333	-2.8812	-2.8979	-3.4625	-3.05	-3.1146	-3.3396	-3.0417	-3.3375	-3.3375	17.001	9.291	307.769	278.097	267.797	215.194	238.024	295.516	194.251	-26.254	238.558	188.014	42.818	169.683	-32.728	32.474	0.00013456	0.0021024	0.0010511	1257.2	2.7084e-05	8.5376e-06	1240.9	353.78	1.8384e-05	2.0365e-05	375.05	118.15	121.34	55.01	2.4053e-05	54.143	0.015538	0.024134	0.0067345	1143.1	0.00024047	0.00026962	1129.3	326.04	0.00024342	0.00026806	369.37	118.26	124.18	52.202	0.00025562	54.479	152.661	2.733	-11.634	-33.479	99.492	-41.622	-34.695	-28.788	20.744	-24.454	-30.977	-27.070	-25.342	-19.825	78.594	-22.830	-8191	255	
1884.064	1	1	0	0	0.32821	0.097991	0.25197	0.27155	0.058859	0.27359	0.2866	0.057895	0.23078	0.052027	0.08627	0.1789	0.2105	0.14926	0.29775	0.30713	-2.5438	-3.5646	-2.7979	-3.3958	-3.4042	-2.8729	-3.4104	-3.2229	-2.9958	-3.625	-3.1542	-3.2729	-3.0833	-2.8604	-3.3583	-3.3375	40.463	37.503	11.185	297.702	185.241	-4.560	227.704	-19.051	235.933	247.868	-32.196	297.164	256.558	-25.738	274.987	285.725	0.00015879	0.00068967	0.00066634	1250.2	1.4512e-05	1.1201e-05	1256.1	353.18	3.4023e-05	2.703e-05	376.25	118.82	122.4	54.848	8.6058e-06	54.273	0.015417	0.024298	0.0068301	1143.4	0.00024358	0.00027082	1137.8	327.1	0.00024258	0.00027	371.67	118.4	125.18	52.313	0.0002613	54.625	37.724	25.720	309.866	-33.479	98.608	-10.324	-34.506	-29.182	148.609	54.228	-30.835	-27.294	-25.644	-19.898	278.609	-23.406	-8191	255	
1884.160	1	1	0	0	0.13847	0.14011	0.068503	0.25396	0.12283	0.15859	0.16564	0.19808	0.17895	0.20813	0.304	0.16877	0.22022	0.24373	0.076145	0.098244	-2.5312	-3.4979	-2.9375	-3.3187	-3.2812	-3.0083	-3.5146	-3.275	-2.8312	-3.2208	-3.0542	-3.2104	-3.4917	-2.8917	-3.2812	-3.4042	126.145	301.690	176.891	307.784	-32.681	4.100	168.187	-38.584	179.112	155.566	-28.159	295.724	200.016	311.164	219.019	68.073	0.00022412	0.0024116	0.00016884	1257.6	2.2924e-05	2.7418e-05	1259.1	354.02	1.3736e-05	3.172e-05	379.48	119	120.93	54.482	3.5834e-05	54.701	0.015839	0.025604	0.0069982	1151.5	0.00024694	0.00027512	1143.2	328.67	0.00024815	0.00027779	374.93	118.64	125.39	52.294	0.00026272	55.058	-2.239	261.360	242.017	-33.344	290.830	167.418	-34.630	-29.094	96.917	44.958	-31.296	-27.100	-25.634	-19.970	43.777	-22.988	-8191	255	
1884.279	1	1	0	0	0.18258	0.23498	0.17037	0.10842	0.14062	0.070069	0.20523	0.20862	0.15629	0.087401	0.14755	0.13066	0.27803	0.18342	0.097759	0.13313	-2.6125	-3.2729	-2.9833	-3.1146	-3.275	-3.0854	-3.6521	-3.5187	-2.9188	-3.0771	-3.2854	-3.1688	-3.5375	-3.1104	-3.0938	-3.3125	189.367	-33.236	157.041	209.040	225.539	74.789	220.191	285.496	290.957	-39.705	198.395	174.648	234.674	231.821	155.048	163.485	0.00033027	0.0041637	0.00033362	1264.6	7.8247e-06	1.202e-05	1255.8	354.69	2.0895e-05	1.3735e-05	379.73	119.75	122.16	54.977	5.0012e-06	54.701	0.016019	0.025456	0.007016	1151	0.00024995	0.00027736	1148.4	327.76	0.00024689	0.00027877	374.8	118.87	125.54	52.442	0.00025785	54.703	87.829	-14.032	146.861	-33.480	201.416	274.908	-34.726	-28.981	239.287	-3.840	-30.923	-26.904	-25.042	-19.638	104.050	-23.467	-8191	255	
1884.375	1	1	0	0	0.07252	0.097245	0.10416	0.070648	0.121	0.063253	0.1845	0.14269	0.095091	0.11489	0.099472	0.088642	0.04434	0.14202	0.24372	0.096159	-2.4708	-3.4375	-3.2229	-2.9771	-3.1188	-3.0563	-3.2417	-3.4562	-2.7979	-3.2021	-3.2083	-3.0438	-3.5875	-3.2854	-2.9938	-3.2562	35.399	-23.150	-10.346	40.763	214.752	238.438	227.218	129.987	230.294	125.185	253.878	161.730	221.270	-18.028	46.265	119.075	0.00039317	0.00071165	0.00045471	1252.6	1.6891e-06	3.1785e-05	1259.7	357.73	1.1965e-05	3.1676e-05	381.77	120.8	123.89	55.497	1.0439e-05	55.381	0.015829	0.025244	0.0068185	1142.6	0.00024502	0.00027453	1142.7	330.74	0.00025032	0.00027714	377.19	120.11	126.93	52.772	0.00025594	55.141	89.335	36.922	109.992	-33.372	196.569	71.832	-34.285	-28.801	166.274	143.114	-31.141	-27.074	-25.112	-19.913	197.333	-23.300	-8191	255	
1884.448	1	1	0	0	0.11245	0.06795	0.32698	0.14079	0.35234	0.27496	0.23895	0.035628	0.12037	0.16776	0.20749	0.35291	0.11096	0.10504	0.20784	0.27392	-2.5792	-3.2188	-3.0208	-2.9062	-3.3375	-3.1646	-3.0438	-3.5708	-3.0125	-3.2167	-3.3167	-2.9479	-3.3312	-3.4125	-3.1229	-3.2625	-20.002	197.913	69.795	254.123	202.621	310.960	216.947	65.837	184.049	246.809	78.904	278.906	-22.350	268.561	215.445	161.029	4.3116e-05	0.0016003	0.00075419	1260.6	1.7997e-06	2.4237e-05	1270	356.22	7.0755e-06	4.0979e-05	387.75	121.19	123.78	55.344	3.0403e-05	55.36	0.015841	0.025154	0.0067774	1150.2	0.00024989	0.00027491	1148.1	332.05	0.00025096	0.00027795	379.63	120.61	126.95	52.842	0.00026088	55.619	109.192	58.948	-46.412	-33.462	159.794	165.553	-34.460	-29.075	227.804	139.039	-30.924	-26.662	-25.374	-19.847	165.309	-23.221	-8191	255	
1884.567	1	1	0	0	0.079314	0.21352	0.15959	0.10097	0.21067	0.39392	0.23308	0.099475	0.077441	0.12098	0.076707	0.16984	0.13079	0.17479	0.1074	0.32804	-2.5021	-3.1667	-3.4042	-3.1042	-3.4813	-3.1229	-3.2479	-3.6458	-2.9083	-3.2917	-3.3458	-2.9229	-3.4625	-3.2646	-2.6604	-3.6771	32.087	94.479	-33.083	283.733	136.468	-37.836	262.525	19.802	102.381	217.857	229.716	185.498	300.881	-28.767	269.049	287.757	0.00046862	0.00051239	0.00024367	1264.1	1.9504e-05	2.8064e-05	1278.8	360.83	4.6304e-06	1.7641e-05	385.39	121.43	123.34	54.971	3.1275e-05	55.912	0.0163	0.025693	0.0069259	1156.5	0.000256	0.00028118	1155.1	334.03	0.00025698	0.00028255	380.93	121.35	127.91	52.8	0.00025996	56.162	192.171	68.528	35.062	-33.514	82.240	39.443	-34.780	-29.186	209.264	228.876	-30.963	-27.531	-25.344	-19.622	144.432	-23.094	-8191	255	
1884.663	1	1	0	0	0.23166	0.12851	0.14093	0.3446	0.13877	0.26538	0.20017	0.12672	0.19526	0.1577	0.081665	0.19644	0.18382	0.32382	0.24485	0.027409	-2.6771	-3.0521	-3.2375	-2.9354	-3.2875	-3.1312	-3.0479	-3.5062	-3.0729	-3.0125	-3.3187	-2.95	-3.1854	-3.3875	-2.8417	-3.4042	173.674	304.966	11.684	-18.451	108.869	72.658	217.259	251.757	265.449	-25.314	260.293	183.415	8.526	292.931	107.944	120.305	0.00044431	0.0019566	0.00029762	1272	1.0994e-05	9.1817e-06	1286.9	362.66	5.8945e-06	1.5127e-05	388.28	123.31	125.64	55.967	1.2388e-05	56.241	0.016424	0.025498	0.0069933	1162.2	0.00025502	0.00027579	1162.8	336.99	0.0002545	0.00027916	385.19	122.59	128.58	53.273	0.00026017	56.385	248.582	107.287	129.028	-33.376	-8.437	58.635	-34.736	-28.940	57.641	-0.063	-30.704	-26.903	-25.246	-19.572	109.978	-23.249	-8191	255	
1884.760	1	1	0	0	0.077848	0.067884	0.12406	0.083813	0.16317	0.020337	0.0452	0.068383	0.15048	0.2257	0.10278	0.15501	0.058615	0.20415	0.063484	0.11162	-2.525	-3.0125	-3.4104	-3.0563	-3.0458	-3.2625	-2.8042	-3.3979	-3.2	-2.8625	-3.3396	-2.9854	-3.1854	-3.3833	-2.9479	-3.3646	252.387	-25.466	192.770	111.823	-9.841	204.883	307.110	-16.418	276.930	76.477	72.914	160.559	255.812	-27.322	216.250	178.118	0.00037084	0.0014078	0.00037131	1267	1.6332e-05	1.7381e-05	1284.9	364.51	6.7339e-06	8.3016e-06	391.02	124.64	124.52	55.297	1.6257e-05	56.15	0.016296	0.024645	0.0070355	1157.6	0.00025325	0.00027554	1162.1	338.62	0.00025214	0.00027726	386.34	123.84	128.62	52.99	0.00026297	56.163	90.466	74.113	278.274	-33.350	52.150	-4.715	-34.396	-29.347	176.657	308.821	-30.488	-27.419	-25.260	-19.218	235.298	-23.172	-8191	255	
1884.856	1	1	0	0	0.11926	0.062101	0.16915	0.3805	0.16469	0.20689	0.17333	0.26538	0.11925	0.17224	0.21274	0.33292	0.12791	0.088132	0.12621	0.028221	-2.7062	-3.0354	-3.4708	-3.0938	-3.0979	-3.1979	-2.7583	-3.3646	-3.0479	-2.9729	-3.4354	-3.0771	-3.0542	-3.3479	-2.7146	-3.2583	304.562	130.803	108.525	268.300	98.145	167.964	275.076	277.632	238.283	70.970	56.551	258.529	121.341	-27.182	150.554	-9.411	0.00025625	0.0022431	0.00032134	1274.5	9.667e-06	9.0258e-06	1278.2	365.43	1.0188e-05	2.7104e-05	394.91	124.61	124.46	55.768	1.9115e-05	56.145	0.016347	0.024893	0.0071174	1164.1	0.00025485	0.00028016	1164.5	339.59	0.00025541	0.00028029	390.22	123.97	128.41	53.331	0.00026831	56.378	178.014	111.234	149.008	-33.470	289.774	-19.097	-34.698	-29.299	60.717	37.554	-31.207	-27.388	-25.204	-20.115	46.054	-23.010	-8191	255	
1884.976	1	1	0	0	0.27755	0.036267	0.075084	0.13019	0.15865	0.29689	0.16439	0.08767	0.10806	0.13165	0.18579	0.066678	0.19337	0.2053	0.14874	0.14564	-2.8417	-3.0187	-3.5333	-3.2292	-2.8771	-3.3708	-3.025	-3.2896	-3.2667	-2.8104	-3.2646	-2.9771	-3.0896	-3.5104	-3.0687	-3.4771	245.865	-16.175	45.150	-21.525	264.242	212.258	310.828	18.347	160.807	65.064	302.416	282.782	84.996	270.355	252.483	11.106	0.00035372	0.0018019	0.00087084	1274.7	1.8036e-05	7.1415e-06	1290.5	367.96	2.1007e-05	1.0491e-05	399.65	125.68	125.09	56.225	2.0919e-05	56.651	0.016139	0.025205	0.0072211	1165	0.00025363	0.00027993	1174.6	340.6	0.00025264	0.00028396	393.56	125.1	129.32	53.892	0.00026846	56.917	-17.279	118.681	122.813	-32.811	-12.557	203.661	-34.453	-28.631	-34.084	293.104	-31.054	-26.667	-25.443	-19.674	207.955	-22.844	-8191	255	
1885.048	1	1	0	0	0.20229	0.33743	0.090201	0.19142	0.16941	0.084435	0.22537	0.031399	0.10133	0.15997	0.064599	0.10826	0.22043	0.093184	0.30855	0.34731	-2.775	-2.8104	-3.25	-3.1667	-2.8688	-3.3896	-3.2125	-3.2812	-3.2812	-2.825	-3.4938	-3.3667	-2.9333	-3.3896	-3.0104	-3.2646	278.212	279.136	-2.504	-35.437	2.144	85.654	214.866	259.901	20.811	236.161	104.895	286.158	231.315	280.731	-26.935	274.049	0.00057035	0.0029936	0.0008601	1267.5	1.3215e-05	2.4224e-05	1300.4	370.18	7.9474e-06	1.6633e-05	397.8	127.52	127.15	56.75	1.2329e-05	56.436	0.016194	0.02543	0.0072001	1163.5	0.0002517	0.0002818	1176.3	342.49	0.00025183	0.00028134	394.03	125.96	130.2	54.192	0.00026548	56.421	85.656	217.206	303.865	-34.078	118.993	-28.351	-34.437	-29.279	-31.082	-26.776	-31.569	-27.257	-25.067	-19.948	49.749	-23.305	-8191	255	
1885.169	1	1	0	0	0.19688	0.27253	0.089678	0.28112	0.20375	0.24272	0.20433	0.32437	0.12486	0.10827	0.26714	0.18831	0.21809	0.03869	0.08194	0.14214	-2.7333	-2.6646	-3.2438	-3.3854	-2.9062	-3.3458	-2.975	-3.1354	-3.5021	-2.9417	-3.3312	-3.0062	-2.9375	-3.5563	-3.1583	-3.2208	5.049	139.419	263.651	35.877	61.874	2.209	257.047	266.561	-1.493	75.115	100.392	221.359	0.978	-41.975	268.883	177.120	3.6782e-05	0.0016889	0.00043695	1271.4	5.3091e-06	2.6432e-05	1284.8	369.71	1.6313e-05	1.4311e-05	395.58	125.76	127.92	56.74	1.7777e-05	56.35	0.015835	0.024897	0.0071581	1160.4	0.00024667	0.00027603	1166.4	340.32	0.00024688	0.00027669	391.53	124.68	130.03	54.161	0.00026047	56.246	77.877	-23.054	74.188	-33.780	198.324	155.312	-34.498	-29.106	102.764	65.791	-31.039	-26.701	-25.338	-19.535	133.340	-23.246	-8191	255	
1885.265	1	1	0	0	0.10772	0.1177	0.035015	0.18194	0.11761	0.060944	0.14931	0.31752	0.11888	0.15414	0.22686	0.16006	0.074437	0.20289	0.09308	0.062569	-3.1104	-2.9542	-3.2229	-3.5146	-2.8167	-3.4479	-3.1854	-3.1229	-3.4396	-3.0271	-3.2604	-3.4021	-2.8167	-3.5458	-3.2292	-2.9375	82.760	275.122	137.152	265.097	55.844	59.751	175.246	193.700	-1.728	20.329	-11.606	103.428	7.670	287.618	220.997	309.442	0.00028884	0.0017922	0.00057255	1262.9	3.3055e-06	8.5141e-06	1286.7	372.83	1.0991e-05	5.4978e-06	404.81	128.48	128.8	57.262	1.2349e-05	56.738	0.015935	0.02477	0.006993	1152.2	0.00024677	0.00027443	1167.1	343.57	0.00024968	0.00027324	395.14	125.81	130.93	54.321	0.00025284	56.466	113.694	-21.557	22.017	-33.002	-35.685	60.030	-34.787	-29.219	-39.276	239.053	-30.564	-26.982	-25.493	-20.134	75.208	-22.865	-8191	255	
1885.359	1	1	0	0	0.056905	0.19886	0.13043	0.15167	0.12036	0.17903	0.18982	0.2438	0.10323	0.13591	0.075982	0.20795	0.12539	0.17863	0.22492	0.26193	-2.9396	-3.0563	-3.225	-3.5542	-2.7708	-3.1542	-3.2333	-3.0458	-3.4021	-2.8042	-3.2583	-3.4437	-2.9625	-3.3083	-3.1833	-2.9938	260.099	245.190	260.821	237.210	-13.909	160.906	249.190	258.587	27.324	64.265	248.262	6.838	232.123	-20.896	126.027	247.241	0.00023243	0.0019901	0.00036343	1265.2	1.493e-05	1.459e-05	1301.3	371.27	3.5009e-06	8.7e-06	398.88	126.38	127.26	56.342	1.5195e-05	56.225	0.015686	0.024546	0.0069841	1158.5	0.00024929	0.00027705	1173.6	342.71	0.00025327	0.00027834	393.34	125.25	130.41	53.797	0.00025882	56.199	122.036	257.197	14.938	-33.413	33.826	87.421	-34.463	-29.267	164.399	108.480	-31.122	-27.106	-25.112	-19.789	151.081	-22.753	-8191	255	
1885.455	1	1	0	0	0.15049	0.40681	0.27806	0.21635	0.065362	0.26291	0.087329	0.38489	0.081934	0.11381	0.15469	0.143	0.22648	0.079407	0.079836	0.17069	-3.0271	-3.0187	-2.9229	-3.3375	-2.7854	-3.3479	-3.4604	-3.1833	-3.45	-3.2667	-2.9104	-3.3042	-2.8937	-3.4896	-3.1958	-2.95	305.513	-14.104	178.799	296.983	11.983	18.678	190.238	276.046	268.047	226.629	149.157	221.208	304.025	221.010	269.101	159.510	0.00030614	0.0010071	0.00060628	1266.1	8.8201e-06	2.3443e-05	1292	365.99	1.6856e-05	1.6738e-05	400.61	123.99	126.1	55.512	1.0253e-05	55.009	0.016243	0.02526	0.0070203	1158.2	0.00025667	0.00028236	1169.9	340.1	0.00026095	0.00028225	391.66	123.92	129.29	53.056	0.0002605	55.731	295.554	-14.400	73.707	-33.424	177.726	70.101	-35.040	-28.881	61.052	-32.943	-31.288	-27.300	-25.288	-19.502	-5.296	-23.159	-8191	255	
1885.576	1	1	0	0	0.05577	0.097912	0.15162	0.23542	0.20284	0.41524	0.1783	0.086422	0.19799	0.1015	0.1593	0.25767	0.30544	0.11279	0.12883	0.28631	-2.9104	-2.9	-2.6167	-3.4521	-2.9396	-3.1875	-3.5917	-3.0146	-3.3667	-3.1104	-2.7208	-3.45	-2.8563	-3.3208	-3.4125	-3.0604	106.997	151.540	202.545	307.321	67.996	146.316	248.217	24.107	127.704	222.955	294.233	234.862	-40.850	234.566	11.018	248.873	0.00053706	0.00076706	0.0005185	1248.1	2.5353e-05	4.8344e-05	1269	362.94	1.3871e-05	1.597e-05	385.81	121.95	123.47	54.825	1.6465e-05	54.673	0.016304	0.025024	0.0069689	1148.6	0.00025337	0.00027558	1156.8	337.12	0.00025502	0.00027144	387.47	123.45	128.92	53.106	0.00026259	55.604	58.469	31.876	271.030	-33.664	100.763	39.989	-34.521	-28.812	-4.366	166.331	-31.108	-27.050	-25.541	-19.835	-16.784	-23.833	-8191	255	
1885.672	1	1	0	0	0.14278	0.073577	0.18181	0.0662	0.036888	0.07499	0.10494	0.092368	0.23648	0.042033	0.018531	0.23582	0.15553	0.20124	0.08449	0.11064	-2.8208	-2.9021	-2.8646	-3.5812	-3.1396	-3.2396	-3.3458	-2.7021	-3.2562	-3.1646	-2.9333	-3.5062	-3.1063	-3.0125	-3.6354	-3.1917	287.370	206.684	185.075	233.181	104.292	302.398	228.592	262.783	4.267	285.294	53.387	264.058	269.004	-4.788	262.943	303.159	0.00021507	0.0019972	0.00062252	1233	6.6894e-06	2.0978e-05	1258.8	366.03	2.2547e-05	1.8339e-05	394.33	123.42	125.91	55.975	3.4291e-05	55.578	0.016323	0.02488	0.0069667	1140.7	0.00025566	0.0002758	1154.6	340.24	0.00025768	0.00027476	391.56	124.73	129.81	53.671	0.00026246	56.187	186.224	78.240	41.392	-33.339	136.114	97.873	-34.829	-29.525	231.247	107.976	-31.397	-27.508	-25.707	-19.924	80.903	-23.084	-8191	255	
1885.744	1	1	0	0	0.2836	0.060047	0.10836	0.27167	0.19611	0.12337	0.21249	0.12338	0.10786	0.057591	0.12686	0.076056	0.21354	0.28981	0.10093	0.12226	-2.7917	-3.2583	-2.8479	-3.6188	-2.975	-2.8083	-3.4042	-3.0396	-3.3479	-3.3604	-2.9875	-3.3833	-3.1292	-3.0625	-3.3979	-3.2687	51.941	-26.074	122.306	278.924	101.000	-22.238	213.407	311.821	-15.462	299.358	231.389	258.118	218.217	283.151	25.460	307.606	0.00030972	0.0011394	0.0004948	1242.4	2.858e-05	2.1171e-05	1271	367.1	1.1642e-05	1.9584e-06	391.12	123.84	125.6	55.186	1.6663e-05	55.774	0.016207	0.02471	0.0069985	1149.7	0.00024946	0.00027418	1160.4	341.82	0.00025204	0.00027888	391.66	124.96	129.3	53.317	0.00027312	56.558	178.127	250.508	30.296	-33.913	129.985	190.215	-34.983	-29.077	23.298	121.552	-31.349	-27.133	-25.962	-19.617	17.671	-23.968	-8191	255	
1885.840	1	1	0	0	0.19433	0.10024	0.062187	0.13767	0.122	0.14087	0.14671	0.079801	0.15794	0.20564	0.21177	0.26371	0.34639	0.22817	0.2893	0.31454	-2.7208	-3.2604	-2.9875	-3.4458	-3.075	-2.8021	-3.5771	-3.0604	-3.1979	-3.5417	-3.0458	-3.4	-3.525	-2.9604	-3.1917	-3.2417	8.885	282.498	201.035	270.473	272.165	290.082	189.536	-31.047	31.616	311.245	-30.699	267.682	-38.293	229.481	54.357	265.956	0.00010887	0.00035371	0.00013501	1246.7	2.4118e-05	1.0071e-05	1273.4	367.63	9.2202e-06	2.2859e-05	396.25	123.25	125.46	55.292	6.8438e-06	55.165	0.016355	0.025548	0.0071729	1152.9	0.00025697	0.00028618	1168.6	341.49	0.00026532	0.00028791	394.95	124.75	129.61	53.573	0.00027865	56.308	12.580	-7.228	282.202	-33.600	105.300	144.124	-34.693	-29.758	66.854	212.289	-32.120	-27.381	-26.142	-19.785	285.477	-24.056	-8191	255	
1885.936	1	1	0	0	0.38438	0.11392	0.11995	0.14671	0.10454	0.1124	0.24111	0.063725	0.072965	0.19299	0.18356	0.080351	0.05793	0.17709	0.10765	0.15326	-2.7354	-3.4646	-2.9167	-3.3979	-3.0458	-2.7687	-3.6417	-3.0625	-3.075	-3.3604	-2.8417	-3.2812	-3.1354	-3.0958	-3.4188	-3.125	194.734	-38.543	24.372	-1.403	-13.902	-6.713	298.578	197.187	65.685	168.199	99.468	191.342	310.199	260.012	119.252	191.197	0.00029557	0.0024039	0.0011682	1237.5	6.545e-06	3.2783e-05	1267.1	360.03	1.3519e-05	1.4955e-05	391.76	123.81	125.87	55.498	3.2635e-05	55.536	0.016604	0.025761	0.0072567	1153.9	0.00025817	0.00028768	1162.9	338.55	0.00026046	0.00029234	392.65	124.23	129.3	53.332	0.0002816	56.261	154.501	284.591	52.851	-33.670	29.999	179.913	-34.740	-29.527	224.714	199.143	-30.921	-27.148	-25.436	-19.859	145.776	-23.567	-8191	255	
1886.057	1	1	0	0	0.054897	0.077622	0.10967	0.14601	0.25444	0.1497	0.2486	0.28453	0.2575	0.0034143	0.26542	0.13926	0.28125	0.17164	0.066547	0.13498	-2.7333	-3.3208	-2.8396	-3.3333	-3.2896	-2.9333	-3.4208	-3.2229	-3.1	-3.675	-2.9917	-3.2521	-3.4083	-2.9437	-3.4479	-3.3333	210.122	168.010	295.181	215.822	125.049	81.808	214.519	229.345	216.579	20.604	-16.763	60.736	275.256	31.168	311.757	248.497	0.00010842	0.0021229	0.00024306	1244.6	5.635e-06	1.5907e-05	1267.9	365.42	2.1631e-05	2.1331e-05	397.19	124.6	125.48	55.841	2.9472e-05	56.2	0.0167	0.02632	0.0072861	1150.9	0.00025823	0.00028929	1160.8	338.84	0.0002567	0.00029292	390.87	124.38	129.41	53.639	0.00027501	56.259	37.065	-38.238	-2.425	-33.413	168.599	246.902	-34.959	-28.873	2.682	222.752	-31.047	-27.354	-25.589	-19.798	130.734	-23.119	-8191	255	
1886.153	1	1	0	0	0.18458	0.12274	0.095086	0.21183	0.06405	0.19808	0.21957	0.07511	0.047888	0.1537	0.085846	0.016903	0.10078	0.27505	0.036625	0.13238	-2.5771	-3.4833	-3.0375	-3.2229	-3.3542	-2.7938	-3.3604	-3.3583	-3.0563	-3.3958	-3.0646	-3	-3.3271	-3.0146	-3.3833	-3.4479	259.885	27.777	222.115	271.379	153.607	-29.694	270.035	266.641	98.250	183.869	223.800	22.545	187.017	298.342	60.659	17.752	0.00016021	0.0014141	0.00075107	1258	5.9776e-06	1.7107e-05	1286.5	368.45	1.8788e-05	5.9153e-06	398.94	125.06	125.58	56.017	2.5005e-05	56.501	0.016562	0.025928	0.0071991	1156.3	0.0002553	0.00028291	1164	340.15	0.00025607	0.00029061	392.54	124.57	129.53	53.647	0.0002718	56.503	27.250	82.108	117.423	-33.621	-30.444	9.721	-34.646	-29.091	124.797	249.485	-30.947	-27.280	-25.856	-19.722	77.759	-23.501	-8191	255	
1886.249	1	1	0	0	0.033789	0.054472	0.12582	0.10984	0.08366	0.12056	0.10459	0.17102	0.17351	0.20591	0.25089	0.23582	0.22209	0.10716	0.13065	0.25134	-2.6792	-3.2792	-2.9542	-2.9375	-3.5604	-2.8625	-3.4229	-3.4104	-2.7625	-3.6729	-3.0979	-3.0062	-3.3708	-2.8979	-3.25	-3.2667	255.226	-14.694	-16.814	226.787	-39.075	275.487	295.340	211.954	290.841	51.735	268.367	-11.035	15.776	252.410	-19.747	156.852	0.00015363	0.0015561	0.00048863	1259.2	1.0821e-05	9.9867e-06	1281.2	364.65	1.0447e-05	1.3882e-05	394.07	124.98	125.55	56.11	1.5121e-05	57.114	0.016545	0.025835	0.0070582	1156.3	0.00025869	0.00028544	1167.5	338.92	0.00026117	0.00029614	390.37	125.25	129.82	53.861	0.00027015	57.307	120.471	4.789	110.818	-33.628	281.379	169.150	-34.349	-29.197	217.689	167.152	-30.506	-27.163	-25.384	-19.900	6.213	-23.169	-8191	255	
1886.345	1	1	0	0	0.17282	0.26678	0.068059	0.1569	0.087985	0.10999	0.15813	0.20927	0.062414	0.19813	0.091219	0.34527	0.2179	0.32183	0.076696	0.097221	-2.2792	-3.4104	-3.2167	-2.9958	-3.5896	-2.9792	-3.3083	-3.2812	-2.6417	-3.2229	-3.0583	-2.7833	-3.425	-3.1604	-3.1771	-3.2896	86.617	129.211	145.706	295.688	113.424	128.733	189.871	305.001	-3.029	248.536	169.203	162.240	303.423	199.006	183.960	233.588	0.00049878	0.0014945	0.00099132	1262.9	5.3243e-06	4.5935e-05	1274.8	366.87	3.0896e-06	3.5676e-05	395.17	125.33	126.59	56.802	1.9146e-05	57.238	0.016555	0.025706	0.0070268	1161.8	0.00026645	0.00028034	1161.5	339.04	0.00025529	0.00028623	388.4	125.19	130.58	54.171	0.00026417	56.889	47.121	303.990	3.784	-33.257	218.742	129.073	-34.364	-29.326	1.587	28.282	-30.992	-27.374	-25.462	-19.820	83.792	-23.364	-8191	255	
1886.441	1	1	0	0	0.12093	0.23554	0.21738	0.29071	0.076522	0.27803	0.28871	0.1594	0.039373	0.14142	0.18559	0.22137	0.14216	0.1873	0.21611	0.14997	-2.5	-3.2625	-3.0479	-3.1542	-3.5208	-3.0667	-3.1937	-3.6333	-3.0917	-3.225	-3.1083	-2.8833	-3.2396	-2.9375	-3.0271	-3.5396	33.508	308.613	218.537	245.330	131.511	173.985	-33.981	263.185	163.585	109.927	301.127	251.352	248.215	302.370	36.262	283.361	0.00017161	0.00063246	0.00065868	1256.9	2.8003e-05	3.866e-05	1263.7	364.08	1.8034e-05	3.3127e-05	391.04	124.86	127.67	56.624	2.3759e-05	57.125	0.016221	0.024809	0.0067918	1150.8	0.00025606	0.00027173	1149.9	337.73	0.00025185	0.00028276	388.04	124.47	130.11	53.803	0.00025929	56.895	99.083	-45.603	11.530	-33.066	61.766	169.470	-34.565	-29.268	34.398	67.135	-31.297	-27.127	-25.966	-20.023	216.400	-23.478	-8191	255	
1886.538	1	1	0	0	0.037837	0.21704	0.12691	0.10501	0.12853	0.069015	0.053251	0.26162	0.14238	0.11529	0.27496	0.23708	0.15998	0.16933	0.27952	0.37287	-2.4271	-3.2375	-3.3063	-2.775	-3.1771	-3.1292	-3.2792	-3.55	-2.9708	-3.0062	-3.325	-2.7604	-3.3042	-3.3083	-3.0458	-3.3208	99.211	31.666	140.723	-12.905	257.708	146.535	309.905	278.404	219.159	189.490	20.045	272.399	232.527	-23.589	80.758	253.808	0.00059918	0.0021305	0.00056353	1266.7	1.9122e-05	2.8674e-05	1274.3	364.92	1.7527e-05	1.8182e-05	394.63	123.49	125.13	56.341	3.0148e-05	57.164	0.016284	0.024655	0.0068971	1158.1	0.00025654	0.00027479	1158.6	338.4	0.00024903	0.00027528	386.9	123.98	129.26	53.802	0.00025817	57.142	117.615	29.979	311.683	-33.349	280.971	169.616	-34.457	-29.133	77.954	290.012	-31.499	-27.316	-25.895	-20.135	107.799	-23.351	-8191	255	
1886.656	1	1	0	0	0.088609	0.10246	0.14495	0.38761	0.21808	0.19609	0.40677	0.06326	0.083093	0.14911	0.32464	0.062043	0.11765	0.17216	0.079624	0.17689	-2.4792	-3.0771	-3.3229	-2.8896	-3.3042	-3.3063	-2.9604	-3.5229	-2.9604	-3.1229	-3.425	-2.9375	-3.4271	-3.3771	-2.9708	-3.3688	-28.079	234.168	53.386	244.896	193.848	24.538	253.158	304.848	270.423	21.745	298.166	253.218	244.167	310.316	176.431	277.224	0.000132	0.0016749	0.00090892	1246.6	9.655e-06	2.1907e-05	1255.9	362.14	2.0715e-05	2.1518e-05	391.99	126.01	126.76	57.285	6.8797e-06	57.433	0.015923	0.024446	0.0068545	1150	0.00025102	0.00027041	1154.9	338.17	0.00024776	0.0002779	389.36	124.83	129.46	54.145	0.00026043	57.24	93.634	-22.583	80.073	-33.735	35.462	-38.565	-34.959	-29.736	51.341	75.358	-31.252	-27.737	-25.683	-19.646	68.671	-23.503	-8191	255	
1886.753	1	1	0	0	0.14642	0.068913	0.19274	0.068693	0.24493	0.079167	0.19538	0.26762	0.15717	0.085263	0.06044	0.28103	0.22622	0.24175	0.16456	0.22956	-2.5958	-2.8771	-3.3667	-2.9458	-3.1083	-3.3708	-3.15	-3.5896	-3.0854	-2.9958	-3.375	-2.725	-3.1521	-3.5458	-2.9083	-3.5271	213.002	200.412	-39.114	245.270	115.760	-17.939	183.718	-16.211	195.432	37.339	176.892	302.870	274.395	301.696	290.649	293.642	0.00030442	0.0024523	0.00072033	1261.1	3.3613e-05	1.8622e-05	1277.8	365.18	1.0846e-05	2.2288e-05	392.05	125.57	125.68	56.078	1.7076e-05	56.101	0.015741	0.024469	0.0069661	1155.6	0.00025225	0.00027375	1163	338.45	0.00024639	0.00027668	388.28	124.24	129.16	53.929	0.00026382	56.774	1.453	146.254	45.538	-33.637	181.155	49.931	-34.711	-28.967	192.497	7.605	-31.160	-26.946	-25.878	-20.092	73.701	-23.518	-8191	255	
1886.849	1	1	0	0	0.23353	0.14486	0.10279	0.063719	0.080417	0.083306	0.26595	0.19352	0.061533	0.23518	0.10879	0.066837	0.12593	0.11852	0.18394	0.072328	-2.5771	-2.8646	-3.3229	-3.2625	-3.025	-3.4167	-3.0229	-3.4271	-3.0021	-2.7208	-3.6125	-3.1542	-3.25	-3.3229	-2.825	-3.4229	50.344	0.269	121.634	-23.467	254.882	137.715	243.086	-37.401	204.182	175.727	111.716	131.141	36.804	35.214	58.744	170.901	0.00026688	0.0017734	0.00032572	1261.8	1.0521e-05	1.2552e-05	1272.4	363.45	6.2936e-06	7.4713e-06	390.6	124.27	125.71	56.477	1.968e-05	55.977	0.015914	0.024855	0.0070357	1153.5	0.00025283	0.00027664	1159.6	338.1	0.00024947	0.00028171	389.81	123.59	129.03	53.907	0.00026447	56.661	84.407	269.996	308.546	-33.265	176.650	151.294	-34.625	-29.458	-34.538	129.406	-31.548	-26.974	-25.679	-20.400	61.984	-23.571	-8191	255	
1886.945	1	1	0	0	0.064409	0.14317	0.13235	0.048489	0.20083	0.12271	0.14215	0.18768	0.083169	0.12533	0.031555	0.13608	0.13311	0.20306	0.13855	0.16176	-2.9146	-3.0229	-3.2292	-3.1604	-2.9708	-3.4437	-3.0896	-3.2646	-3.4146	-3.1104	-3.4521	-3.3146	-2.9417	-3.4708	-2.9792	-3.4417	142.253	3.968	243.258	206.129	195.621	62.489	219.306	254.218	310.718	59.917	178.751	241.575	3.068	253.379	229.127	184.997	0.00015811	0.0017415	0.0011981	1257.3	2.5144e-05	2.9919e-05	1280.5	365.54	1.5842e-05	1.4886e-05	394	124.4	124.6	56.328	1.8199e-05	55.839	0.01618	0.025124	0.0070563	1148.8	0.00025662	0.00027909	1159.7	337.86	0.00024728	0.00028077	389.95	124.39	129.77	54.23	0.00026324	56.756	154.692	302.177	51.614	-33.473	294.433	127.367	-34.882	-29.095	122.781	161.406	-31.382	-27.495	-26.002	-20.281	97.979	-23.625	-8191	255	
1887.041	1	1	0	0	0.17773	0.16348	0.078019	0.070258	0.065985	0.098796	0.12663	0.1612	0.1944	0.17345	0.13702	0.25635	0.19841	0.18045	0.1824	0.10999	-2.9854	-2.7667	-3.3375	-3.0729	-3.0646	-3.5833	-3.3063	-3.3937	-3.2229	-2.825	-3.2687	-3.1167	-2.8896	-3.4583	-3.125	-3.4271	24.675	146.515	245.674	108.847	68.409	55.335	296.210	3.352	111.316	222.927	26.487	258.219	29.951	-35.976	-36.190	232.135	0.00015929	0.0033049	0.00043603	1231.1	1.7982e-05	2.5083e-05	1265.4	362.32	3.3264e-06	1.7732e-05	394.74	125.09	125.54	56.602	2.6854e-05	56.512	0.016068	0.025134	0.0069144	1141	0.00025033	0.00028067	1157.9	338.11	0.00024909	0.00028069	391.46	125.14	130.16	54.527	0.00025857	57.111	-41.886	118.959	14.729	-34.165	254.612	107.563	-35.023	-29.449	9.833	66.652	-30.973	-27.817	-25.712	-19.671	37.336	-23.443	-8191	255	
1887.137	1	1	0	0	0.13798	0.11194	0.16193	0.13272	0.25477	0.090102	0.17267	0.19471	0.1224	0.060811	0.1025	0.05551	0.31233	0.123	0.085089	0.078442	-3.0146	-2.7771	-3.2958	-3.4271	-3.1146	-3.6896	-3.2625	-3.2854	-3.2708	-2.9375	-3.2875	-3.2354	-3.0417	-3.4688	-3.2271	-3.2313	238.530	223.375	-35.225	243.591	-43.150	118.874	235.642	-11.078	-34.523	164.100	1.658	226.984	22.991	265.587	255.727	298.504	0.00054958	0.0022276	0.00028492	1243.3	6.5626e-06	1.4879e-05	1253.9	362.68	2.6568e-05	2.4409e-06	388.21	124.94	125.6	55.627	1.4223e-05	56.428	0.016223	0.025464	0.0069086	1149.3	0.00025495	0.0002895	1160	338.9	0.00025859	0.00028802	392.08	125.54	130.34	54.1	0.00026544	57.164	131.383	89.848	97.631	-33.845	223.290	82.878	-34.776	-29.603	-2.431	55.377	-31.606	-27.399	-25.374	-19.931	47.368	-23.541	-8191	255	
1887.233	1	1	0	0	0.23038	0.21482	0.3218	0.2	0.21467	0.29856	0.22863	0.069451	0.17404	0.28941	0.032706	0.3122	0.29567	0.11263	0.14215	0.14833	-3.1708	-2.9979	-3.0333	-3.3583	-2.7792	-3.3542	-3.1937	-3.1042	-3.2313	-2.8312	-3.4542	-3.3333	-2.9771	-3.5083	-3.2062	-3.0375	207.739	199.971	3.537	-35.535	147.025	32.304	261.056	9.380	218.953	282.667	90.587	2.548	192.607	-30.586	235.555	155.748	0.00030378	0.0029571	0.00032156	1241.6	2.1346e-05	3.2154e-06	1255.7	357.93	1.039e-05	2.5747e-05	387.81	123.4	124.15	55.696	2.9256e-06	56.037	0.016588	0.02558	0.0070519	1155	0.00026012	0.00028779	1159.3	337.14	0.00025854	0.00028665	388.23	124.66	129.68	53.749	0.00026339	56.751	86.017	106.894	20.012	-33.706	3.666	309.893	-34.886	-29.508	-19.110	87.836	-31.376	-27.322	-25.483	-20.202	-39.944	-23.939	-8191	255	
1887.352	1	1	0	0	0.19343	0.12948	0.17701	0.13074	0.16599	0.35691	0.073299	0.081491	0.090584	0.028713	0.073522	0.079384	0.10265	0.14363	0.28682	0.095061	-3.1125	-2.9062	-3.2021	-3.675	-3.0271	-3.3312	-3.5312	-3.1521	-3.4146	-3.0604	-3.4042	-3.5104	-3.0979	-3.4167	-3.2417	-3.025	147.012	55.156	194.452	171.666	226.937	-12.067	308.184	-29.423	221.049	287.624	7.566	244.880	300.055	250.871	291.353	296.921	0.00024266	0.0008222	0.00068658	1236.7	2.8826e-05	1.8818e-05	1251.7	359.35	2.5214e-05	7.2032e-06	391.29	124.26	124.79	55.446	2.922e-05	55.575	0.01674	0.025381	0.0070209	1150.8	0.00026091	0.00028773	1156.8	338.17	0.00025789	0.00028234	388.61	125.17	129.56	53.583	0.00026376	56.635	169.350	50.654	72.753	-33.962	285.376	28.108	-35.100	-29.302	193.883	116.062	-31.242	-27.339	-25.172	-20.134	162.367	-23.185	-8191	255	
1887.448	1	1	0	0	0.063733	0.072059	0.21159	0.065272	0.15447	0.073459	0.3084	0.51053	0.26879	0.079854	0.18983	0.15945	0.16932	0.06947	0.050996	0.11235	-3.2104	-3.0875	-3.0958	-3.55	-2.8792	-3.2125	-3.2021	-2.9667	-3.2062	-3.0542	-3.2396	-3.5917	-2.975	-3.3708	-3.4313	-3.0375	192.032	169.238	258.183	153.988	19.094	-34.850	223.476	281.172	310.791	32.184	285.898	215.726	-17.663	40.524	0.614	-33.772	0.00020513	0.0011212	0.0001168	1231.4	7.8967e-06	2.9631e-05	1253.6	361.4	9.7485e-06	1.1749e-05	394.49	124.49	125.51	55.892	1.7119e-05	56.357	0.016822	0.024895	0.0069518	1146.3	0.00025673	0.00027951	1154.8	337.77	0.00025198	0.00027415	391.95	125.37	129.79	54.049	0.00026066	57.239	241.077	34.998	47.329	-33.614	150.575	163.554	-34.886	-29.170	45.611	46.762	-31.779	-27.839	-25.640	-20.487	310.363	-23.055	-8191	255	
1887.544	1	1	0	0	0.27283	0.21318	0.10135	0.16369	0.12769	0.047431	0.19358	0.27988	0.19376	0.31196	0.037737	0.036102	0.12618	0.30846	0.16087	0.1926	-2.9854	-3.0604	-2.9833	-3.5458	-2.9292	-3.2958	-3.25	-3.0229	-3.3354	-2.9271	-2.9771	-3.5979	-3.0354	-3.3521	-3.4854	-3.0375	235.665	142.066	85.144	310.643	24.640	68.721	260.264	265.012	257.348	302.736	276.567	309.677	219.930	286.924	189.236	225.691	0.00022398	0.0039984	0.00075181	1246.4	2.3281e-05	1.6047e-05	1268.6	360.75	1.8049e-05	1.6962e-05	389.35	125.17	125.76	56.374	1.224e-05	56.007	0.016561	0.025084	0.0070564	1153.6	0.0002517	0.00028421	1162.6	338.81	0.00025057	0.00027799	390.63	126.24	130.14	54.103	0.00026443	57.186	122.555	49.173	-31.285	-34.009	106.738	-7.979	-34.954	-29.230	124.954	194.081	-31.194	-27.318	-26.372	-20.565	76.533	-23.443	-8191	255	
1887.618	1	1	0	0	0.14593	0.22907	0.18891	0.32504	0.26164	0.21491	0.14608	0.090943	0.15388	0.29181	0.33547	0.12582	0.068009	0.43293	0.18479	0.15521	-2.9604	-3.3812	-3.0396	-3.4042	-2.8792	-2.9021	-3.4	-3.0667	-3.325	-3.3396	-3.0271	-3.55	-3.0229	-3.1167	-3.3625	-2.9979	-31.316	244.341	149.397	282.414	-45.287	221.995	200.536	12.572	102.797	17.407	273.551	228.069	63.796	-37.547	11.907	228.889	0.00019195	0.0020805	0.00048311	1241.2	2.3496e-05	2.5228e-05	1265.7	359.83	1.2474e-05	1.562e-05	386.82	124.77	123.81	55.728	1.2373e-05	56.027	0.016481	0.024992	0.007077	1152	0.00024996	0.00028314	1159.9	338.53	0.00024814	0.00027615	388.26	125.34	128.38	53.6	0.00025755	56.515	233.572	85.943	157.537	-33.814	184.945	29.830	-34.905	-29.569	-9.092	199.620	-31.285	-27.504	-25.505	-20.332	46.627	-23.931	-8191	255	
1887.737	1	1	0	0	0.10047	0.079204	0.18871	0.10721	0.060031	0.098027	0.16611	0.021627	0.24909	0.25709	0.25643	0.2726	0.15605	0.15331	0.10499	0.1851	-2.8271	-2.9646	-2.9729	-3.4313	-3.2062	-3.0062	-3.6354	-3.2229	-3.2354	-3.3417	-2.9625	-3.4583	-3.0521	-2.9083	-3.6	-2.975	20.554	68.473	16.885	123.702	76.849	244.494	250.271	203.297	-19.276	-11.402	-25.264	210.001	-18.354	268.048	80.882	300.584	0.00042367	0.0025389	0.00038447	1237.9	6.7413e-06	2.8144e-06	1258.5	361.2	1.2869e-05	2.3199e-05	390.17	123.45	124.86	56.521	1.4293e-05	55.855	0.015757	0.024128	0.0068525	1143.5	0.00024268	0.00027485	1154.1	336.7	0.00024359	0.00027178	387.89	124.58	129.32	54.105	0.0002585	56.399	221.362	40.108	97.432	-33.475	72.577	29.325	-35.063	-29.854	95.078	119.368	-31.046	-27.776	-25.835	-20.325	209.197	-23.322	-8191	255	
1887.833	1	1	0	0	0.18033	0.086712	0.14204	0.30503	0.028526	0.23736	0.046284	0.11904	0.17075	0.24793	0.21517	0.27108	0.16241	0.14357	0.084588	0.19944	-2.7208	-3.4562	-2.9313	-3.6958	-3.1458	-2.9583	-3.675	-3.1813	-3.1125	-3.3563	-2.8521	-3.4021	-3.125	-3.15	-3.4333	-3.0875	139.072	37.859	285.285	185.749	114.767	-25.583	242.154	202.235	-1.859	43.971	-31.245	196.549	41.716	86.885	239.867	134.364	0.0004145	0.0014095	0.0011298	1241	5.4292e-06	2.0877e-05	1260.2	360.32	1.02e-05	1.2703e-05	383.25	122.24	124.42	56.338	2.358e-05	56.157	0.015879	0.024253	0.0068506	1143.1	0.00024145	0.00026826	1157.7	335.01	0.00024068	0.00027336	385.02	124.04	128.03	53.814	0.00025701	56.442	176.145	63.877	305.298	-33.669	89.965	105.303	-35.036	-29.513	137.865	249.847	-31.815	-27.960	-25.825	-20.009	300.007	-23.798	-8191	255	
1887.929	1	1	0	0	0.24765	0.15108	0.18819	0.13841	0.093335	0.13769	0.44899	0.21529	0.18149	0.21818	0.19079	0.059097	0.1459	0.20382	0.18733	0.15009	-2.5125	-3.3875	-2.775	-3.3125	-3.3042	-2.9125	-3.5104	-3.0417	-2.8021	-3.2438	-2.9875	-3.1271	-3.1125	-3.0542	-3.3958	-3.1042	178.540	279.539	33.932	278.403	202.576	-17.608	228.623	32.447	215.283	310.138	237.529	225.598	-3.795	265.348	19.948	158.527	0.00015606	0.002582	0.00087012	1239	2.0673e-05	1.6482e-05	1254.1	359.03	2.2659e-05	2.9006e-05	389.68	124.42	125.09	56.429	1.445e-05	56.626	0.015865	0.024219	0.006712	1140	0.00023991	0.000268	1151.1	333.09	0.00023872	0.00026811	383.89	124.1	128.5	54.03	0.00024827	56.693	116.833	114.926	34.774	-33.695	164.194	237.268	-34.991	-29.388	122.779	108.698	-31.158	-28.076	-25.508	-20.174	81.424	-23.874	-8191	255	
1888.050	1	1	0	0	0.16188	0.051862	0.12178	0.10817	0.10841	0.13686	0.22865	0.1259	0.094922	0.050958	0.25651	0.33505	0.22481	0.022535	0.073224	0.14915	-2.5417	-3.3396	-2.7979	-3.3812	-3.5146	-2.8667	-3.6063	-3.3083	-2.9813	-3.5167	-2.875	-3.4042	-3.4062	-2.7542	-3.2	-3.1229	12.749	209.539	259.070	284.386	156.020	36.986	312.266	293.112	16.035	91.857	298.749	220.356	306.860	311.224	180.660	221.491	0.00013294	0.00037627	0.00030987	1241.1	2.6261e-05	1.1601e-05	1260	360.06	1.0111e-05	3.7712e-05	389.5	126.07	124.81	56.596	4.7555e-06	56.307	0.015587	0.02403	0.0065572	1142	0.00023638	0.00026308	1156.2	334.42	0.00023887	0.000264	383.24	124.85	128.65	54.285	0.00024353	56.584	116.658	229.814	138.361	-33.918	115.700	72.145	-34.870	-29.473	45.335	21.886	-31.469	-27.684	-25.835	-20.084	276.714	-23.674	-8191	255	
1888.146	1	1	0	0	0.12854	0.15416	0.099563	0.12606	0.052316	0.25243	0.091986	0.21315	0.23461	0.11848	0.1561	0.21497	0.18405	0.15723	0.08633	0.33208	-2.3896	-3.2417	-2.6833	-3.0208	-3.25	-2.7562	-3.2833	-3.1271	-2.8854	-3.4208	-3.1271	-3.2146	-3.35	-2.8729	-3.1083	-3.1937	-45.123	108.619	234.272	51.735	93.720	163.302	274.828	258.478	6.309	171.061	223.624	234.318	213.081	18.033	-32.391	255.036	0.00025364	0.0028808	0.0004462	1243.4	7.2092e-06	1.337e-05	1261.7	359.29	1.3579e-05	1.5037e-05	384.17	124.02	124.75	56.184	1.2315e-05	56.89	0.015312	0.024292	0.0064804	1142.5	0.00023965	0.00026409	1150.1	332.88	0.00024146	0.0002668	381.31	124.27	129.01	53.919	0.0002471	56.7	44.637	89.391	67.863	-33.711	166.077	-23.836	-35.173	-29.357	195.169	73.236	-31.833	-27.975	-25.221	-19.936	174.356	-23.331	-8191	255	
1888.218	1	1	0	0	0.08275	0.24733	0.26656	0.18164	0.12707	0.1134	0.25391	0.37657	0.15009	0.025551	0.23378	0.17767	0.11533	0.16379	0.18857	0.23565	-2.4062	-3.2583	-3.1354	-2.7604	-3.2021	-2.9792	-3.3271	-3.3896	-2.8083	-3.4333	-3.2083	-2.7938	-3.4146	-2.8771	-3.025	-3.325	256.925	268.766	126.452	242.810	123.526	202.159	0.691	-31.206	148.852	77.780	-31.594	-24.125	3.958	223.437	200.542	94.887	0.00014407	0.0040938	0.00053867	1239	8.1907e-06	2.6338e-05	1255.1	356.77	9.636e-06	2.6262e-05	380.73	123.97	124.19	56.347	2.9495e-05	57.04	0.015643	0.024665	0.006595	1143.6	0.00024494	0.00026521	1149.1	333.04	0.00024441	0.00026632	379.67	124.12	128.45	53.82	0.000249	56.888	10.177	155.378	51.102	-34.322	296.331	189.381	-34.953	-29.454	221.431	31.502	-30.791	-27.127	-25.637	-20.594	217.656	-23.668	-8191	255	
1888.338	1	1	0	0	0.14369	0.2251	0.14215	0.18003	0.24102	0.11949	0.11767	0.28428	0.10379	0.32607	0.14297	0.35237	0.21256	0.090327	0.20344	0.095201	-2.3708	-3.4188	-3.2042	-2.8396	-3.3583	-3.0042	-3.3458	-3.4813	-3.0104	-3.3042	-3.2542	-2.9188	-3.4542	-3.0417	-2.9104	-3.2833	23.049	112.833	120.396	211.602	220.188	290.908	213.690	262.315	100.470	203.495	-42.048	292.329	231.305	168.001	155.103	256.103	0.00052001	0.0011842	0.00072493	1247.6	6.4145e-06	3.6698e-05	1255.4	357.28	9.4466e-06	1.0903e-06	386.26	123.8	125.14	56.426	2.7609e-05	57.301	0.015712	0.02434	0.0066457	1146.6	0.00024352	0.00026281	1153.7	333.1	0.00024142	0.00026281	382.18	124.21	128.89	54.169	0.00025145	57.647	128.606	-11.462	62.211	-33.838	287.626	13.538	-35.048	-29.539	107.925	70.664	-31.236	-27.588	-26.129	-20.264	19.430	-24.072	-8191	255	
1888.433	1	1	0	0	0.21683	0.20896	0.053689	0.11432	0.16642	0.091884	0.18581	0.17269	0.11259	0.11269	0.046862	0.14952	0.15057	0.32944	0.23433	0.2333	-2.4437	-3.1229	-3.2271	-2.8771	-3.3396	-2.8833	-3.2396	-3.3271	-2.9313	-3.1792	-3.2792	-2.8417	-3.3354	-3.1458	-2.8875	-3.4708	50.693	-28.448	216.698	298.981	139.974	130.373	270.181	79.747	134.147	291.607	235.854	108.686	290.285	293.388	170.764	254.328	0.0003622	0.0011912	0.00089784	1258.5	1.1393e-05	2.1263e-05	1263.4	361.59	8.6259e-06	3.8387e-05	386.11	125.48	125.51	57.203	9.6993e-06	58.197	0.015496	0.024374	0.0066615	1156.4	0.00024243	0.00026351	1161.1	336.04	0.00024052	0.00026221	385.06	125.1	129.52	54.423	0.00024998	57.707	177.416	155.678	214.727	-33.884	-14.855	257.795	-34.773	-29.636	94.721	39.071	-30.804	-27.257	-25.903	-20.476	3.635	-23.662	-8191	255	
1888.530	1	1	0	0	0.31074	0.092666	0.14917	0.18183	0.049809	0.24283	0.062724	0.24218	0.20409	0.25754	0.10114	0.2716	0.29616	0.18001	0.073203	0.32569	-2.6042	-3.0729	-3.3229	-2.9313	-3.4208	-2.9708	-3.0354	-3.6125	-2.9688	-3.2542	-3.4771	-3.0667	-3.1604	-3.2104	-2.8312	-3.3875	310.035	274.454	105.425	250.189	146.571	4.941	27.517	-45.486	236.125	-29.384	245.871	198.790	282.250	239.915	271.190	305.671	0.00020863	0.00062102	0.00064656	1252.3	1.1688e-06	4.3919e-06	1263.3	358.93	6.3779e-06	3.1425e-05	388.54	124.37	125.98	56.937	2.0909e-05	57.861	0.015256	0.024079	0.0066364	1149.6	0.00023726	0.00026117	1156.6	335.78	0.00023843	0.00026643	384.77	124.84	129.55	54.584	0.00025177	57.63	65.628	148.552	133.679	-34.036	131.643	46.069	-34.878	-29.480	119.867	82.431	-31.145	-27.518	-25.466	-20.136	67.422	-23.528	-8191	255	
1888.649	1	1	0	0	0.088082	0.22148	0.12628	0.1523	0.17171	0.14998	0.28953	0.10693	0.079856	0.10573	0.10131	0.084365	0.14159	0.15159	0.2204	0.24609	-2.4792	-2.9458	-3.1688	-2.8229	-3.3187	-3.3583	-3.0771	-3.6063	-2.9938	-3.1312	-3.4417	-2.9042	-3.3854	-3.3417	-2.7771	-3.5125	4.192	219.458	82.521	285.944	151.980	23.085	261.837	272.490	69.976	309.913	285.899	233.705	292.314	286.557	178.203	226.699	0.00018763	0.0026859	0.00058305	1248	2.5426e-05	2.7539e-05	1264.4	360.32	1.533e-05	1.7316e-05	386.58	125.39	125.29	57.21	2.4851e-05	57.673	0.015082	0.024202	0.0066637	1145.7	0.00023457	0.00026166	1155.3	334.94	0.00023437	0.00026448	383.76	124.43	129.29	54.449	0.00024693	57.188	202.661	0.348	143.782	-34.170	67.884	128.400	-34.810	-29.532	249.455	305.461	-31.747	-27.392	-25.964	-20.464	134.353	-23.727	-8191	255	
1888.745	1	1	0	0	0.12744	0.26217	0.20064	0.20424	0.14401	0.10712	0.3836	0.251	0.24842	0.076796	0.023975	0.16932	0.23187	0.16741	0.26865	0.16702	-2.6458	-3.1188	-3.3583	-3.05	-3.3896	-3.3521	-2.8354	-3.3521	-2.9396	-3.0042	-3.625	-2.8333	-3.1188	-3.2104	-2.6542	-3.3354	247.475	9.276	203.348	-40.190	-30.278	300.392	232.914	269.814	157.764	250.155	253.199	206.987	297.626	277.760	307.788	169.426	0.00044711	0.0024573	0.0010585	1240.4	9.2217e-06	3.0418e-05	1253.3	359.65	1.1317e-05	3.3232e-06	390.84	124.47	127.44	57.252	1.2566e-05	57.098	0.014717	0.023749	0.006635	1140	0.00023486	0.00026194	1151.8	335.65	0.00023122	0.00026129	385.02	123.97	129.68	54.435	0.0002487	57.114	108.445	301.730	16.085	-33.708	120.612	271.152	-35.052	-29.324	121.503	-40.389	-31.300	-27.434	-25.427	-20.165	74.811	-23.770	-8191	255	
1888.842	1	1	0	0	0.16376	0.17659	0.14249	0.25207	0.26365	0.026513	0.25628	0.24707	0.15597	0.27273	0.22884	0.40104	0.30506	0.16501	0.10221	0.069572	-2.6792	-2.8958	-3.2562	-3.1083	-3.2417	-3.3083	-2.8875	-3.3833	-3.2042	-3.0042	-3.5083	-3.275	-3.2	-3.5687	-2.8792	-3.225	71.383	35.231	74.418	272.330	100.563	-14.659	172.525	265.021	-45.736	188.437	274.846	268.420	283.129	32.212	111.493	191.697	0.00027732	0.0026983	0.00025009	1241.4	1.4104e-05	1.2267e-05	1276.3	361.75	2.8337e-05	1.2038e-05	388.71	125.6	125.78	56.707	2.0064e-05	56.525	0.015046	0.023878	0.0066572	1139.6	0.00023472	0.00026313	1157.6	335.78	0.0002359	0.00026786	384.52	124.39	129.16	54.062	0.00024715	56.555	79.952	33.157	117.613	-34.062	141.200	189.323	-35.026	-29.819	78.169	269.238	-31.632	-27.761	-25.816	-20.218	175.683	-23.469	-8191	255	
1888.913	1	1	0	0	0.22373	0.045019	0.080135	0.26077	0.46149	0.25141	0.20137	0.054114	0.10016	0.18863	0.078167	0.12103	0.11111	0.16382	0.068594	0.037427	-2.7458	-2.825	-3.1354	-3.1729	-2.9313	-3.0458	-2.9208	-3.2125	-2.9688	-2.7083	-3.2792	-2.9854	-2.9375	-3.3937	-2.9521	-3.5375	165.777	12.192	87.897	260.980	248.466	174.155	246.973	134.513	192.533	91.602	-7.251	172.963	163.485	249.390	80.476	190.607	0.00036967	0.0039777	0.00056931	1242.8	1.6101e-05	2.9138e-05	1257	362.02	1.1278e-05	2.1087e-05	390.74	123.69	126.04	56.208	2.3979e-05	56.49	0.015167	0.023876	0.0066349	1137.2	0.00023491	0.00025895	1148.3	335.89	0.00023533	0.00025854	384.06	122.96	128.86	53.834	0.00023751	56.262	161.480	138.667	286.763	-33.813	116.172	0.746	-35.108	-29.236	221.634	3.376	-31.458	-27.339	-25.407	-20.113	289.345	-23.863	-8191	255	
1889.034	1	1	0	0	0.10741	0.18949	0.14952	0.1667	0.20924	0.12009	0.28663	0.23332	0.19599	0.22494	0.036603	0.23281	0.055147	0.24273	0.23878	0.22135	-2.7896	-2.7	-3.3812	-3.275	-2.9167	-3.325	-2.8479	-3.1521	-3.2188	-2.7854	-3.5438	-3.3833	-3.1771	-3.5208	-3.075	-3.3208	-31.064	286.156	-14.014	263.622	12.615	82.270	262.269	-44.369	150.969	-13.178	-34.533	290.078	16.859	-46.491	-47.050	3.478	0.00034352	0.0011611	0.0008199	1230.6	1.1676e-05	1.1328e-05	1254.8	365.21	1.7364e-05	2.8853e-05	394.88	126.14	128.35	57.723	1.6545e-05	57.786	0.014925	0.023072	0.006476	1129.6	0.00023083	0.00025214	1141	336.76	0.00023045	0.00025278	385.24	124.68	130.39	54.658	0.00023139	57.081	227.809	304.619	270.105	-33.660	-34.813	35.894	-35.085	-29.377	160.949	119.534	-31.467	-27.513	-25.382	-20.077	173.101	-23.725	-8191	255	
1889.130	1	1	0	0	0.20156	0.11619	0.097303	0.15204	0.25271	0.13112	0.35564	0.31594	0.09914	0.12967	0.12107	0.092632	0.28127	0.18345	0.030168	0.17901	-2.775	-2.5563	-3.2354	-3.2188	-2.8229	-3.4854	-3.1063	-3.0187	-3.3688	-2.9583	-3.1542	-3.4375	-3.2313	-3.4104	-2.9583	-2.9708	311.257	264.113	145.701	-46.405	109.169	189.670	227.054	229.161	241.164	0.319	41.299	167.145	-7.018	0.343	195.060	288.070	0.00026351	0.0017918	0.00024872	1238.9	7.8173e-06	1.0285e-05	1271.9	371.75	9.4696e-06	2.7311e-05	403.33	130.42	130.65	58.392	1.0962e-05	58.915	0.014419	0.02236	0.0062787	1130.6	0.00022748	0.000247	1149.8	342.95	0.00022511	0.00024714	393.1	127.43	131.78	55.374	0.00023076	58.13	199.896	223.565	261.907	-33.714	-31.491	7.333	-35.055	-29.304	-2.824	50.977	-31.398	-27.508	-26.169	-20.113	85.456	-23.726	-8191	255	
1889.226	1	1	0	0	0.26607	0.081231	0.086154	0.2724	0.12302	0.1578	0.25854	0.46708	0.053918	0.20997	0.30675	0.090116	0.21296	0.28686	0.19898	0.13337	-2.9146	-2.7896	-3.1854	-3.2625	-2.7604	-3.3021	-3.1979	-3.175	-3.375	-2.9	-3.1958	-3.4583	-2.9167	-3.4688	-2.9604	-2.8479	-1.795	-45.188	215.635	-41.758	298.119	54.992	272.968	263.333	-27.070	180.300	10.442	299.353	215.915	-37.144	42.244	143.874	0.00059215	0.00092148	0.00037152	1241	3.0085e-06	1.0101e-05	1282.1	371.98	1.2676e-05	1.7091e-05	402.98	129.62	130.07	58.079	1.1466e-05	58.795	0.014758	0.022416	0.006447	1139.4	0.00023225	0.00024881	1165.1	344.47	0.00023196	0.00025357	395.43	128.99	131.83	55.397	0.00023889	58.512	166.568	132.376	103.947	-33.849	303.800	63.595	-35.088	-29.714	87.771	162.080	-31.618	-27.739	-25.822	-20.170	2.517	-23.856	-8191	255	
1889.322	1	1	0	0	0.086023	0.16403	0.33144	0.18689	0.2003	0.26467	0.23506	0.25355	0.079449	0.18842	0.14256	0.053334	0.23009	0.047	0.15325	0.18268	-3.0354	-2.7542	-3.1229	-3.5083	-3.0104	-3.3417	-3.2708	-2.9646	-3.4292	-2.8792	-3.0021	-3.3312	-2.6688	-3.2979	-2.8667	-2.9479	188.687	290.826	6.916	309.902	197.174	59.473	242.080	238.698	-27.470	275.837	83.301	123.680	-14.703	159.557	48.408	294.310	0.0001155	0.0017732	0.00051072	1240.9	9.9015e-06	1.3463e-05	1282.2	373.08	2.0394e-05	1.5559e-05	408.34	129.74	132.07	59.051	1.4503e-05	59.227	0.014816	0.022619	0.0064639	1139.4	0.00023089	0.00024743	1161.5	345.69	0.00023021	0.00024642	397.32	128.7	132.9	55.922	0.00023652	58.921	96.535	17.303	171.916	-33.770	1.482	151.381	-35.162	-29.416	260.217	32.174	-31.672	-27.405	-25.486	-20.210	237.649	-23.994	-8191	255	
1889.441	1	1	0	0	0.037155	0.17819	0.18596	0.20712	0.09076	0.17121	0.36793	0.2058	0.18258	0.15195	0.19843	0.34606	0.22585	0.38437	0.18523	0.22402	-2.9458	-2.9792	-3.0167	-3.1354	-2.8187	-3.3542	-3.2562	-3.1708	-3.6021	-3.15	-3.2625	-3.3646	-3.15	-3.3812	-3.3125	-2.9396	250.677	121.706	171.718	286.495	24.044	145.807	271.874	234.713	116.058	99.604	-20.870	273.054	-32.506	268.828	55.341	203.418	0.00036561	0.0016133	0.00021177	1245.3	4.1611e-06	5.757e-06	1276.4	375.18	2.442e-05	3.0189e-06	410.32	134.56	133.28	59.608	5.1301e-06	60.331	0.014582	0.022281	0.0065272	1138.8	0.00022505	0.00024586	1161.8	347.21	0.00022554	0.00024688	400.16	130.9	133.52	56.403	0.00023142	59.189	27.243	261.847	194.426	-33.732	169.707	226.448	-35.285	-29.204	265.777	-33.299	-31.365	-27.470	-25.626	-20.262	46.661	-23.585	-8191	255	
1889.515	1	1	0	0	0.068713	0.18292	0.20397	0.14807	0.30538	0.27763	0.11294	0.15774	0.22289	0.078516	0.064432	0.043267	0.19702	0.078158	0.22948	0.24698	-2.8604	-3.1188	-2.9437	-3.5604	-2.7375	-3.1083	-3.3688	-2.9729	-3.3042	-3.1833	-3.1312	-3.475	-3.2	-3.3604	-3.4979	-2.8937	230.587	60.543	195.904	259.486	125.314	205.865	-24.104	213.809	125.826	116.852	59.269	24.110	2.035	210.844	147.990	278.566	0.00050141	0.0019441	0.00017274	1240.4	1.0623e-05	3.1131e-05	1279.8	377.82	1.0345e-05	2.885e-05	416.85	135.27	132.83	60.16	1.3572e-06	60.782	0.014123	0.02199	0.0063139	1137.1	0.00021945	0.00024218	1165.1	348.86	0.00022375	0.00024271	403.8	131.27	133.33	56.819	0.00023038	59.334	157.943	-20.666	117.243	-33.420	79.654	167.678	-35.250	-29.266	85.778	49.959	-31.699	-27.772	-25.847	-20.181	131.269	-23.844	-8191	255	
1889.611	1	1	0	0	0.25672	0.1904	0.18369	0.19233	0.12596	0.13388	0.18005	0.32163	0.24176	0.13739	0.21676	0.087497	0.11287	0.049983	0.28286	0.11323	-2.7729	-3.0708	-2.7458	-3.5812	-3.0625	-3.2521	-3.4458	-3.075	-3.4875	-3.4271	-3.1333	-3.3833	-2.9167	-3.3667	-3.4938	-2.925	187.417	65.860	211.815	249.860	203.033	106.475	240.850	271.846	-29.919	-21.750	239.452	35.895	256.250	-42.518	90.843	221.703	0.00034961	0.00076757	0.00097273	1256.2	1.9596e-05	1.3072e-05	1282.2	379.7	1.2005e-05	2.7526e-05	413.26	134.1	133.58	60.239	1.3016e-05	60.522	0.014055	0.022043	0.0062255	1146.9	0.00021956	0.00024616	1170.3	350.12	0.00022348	0.00024649	404.42	131.01	134.07	56.844	0.00023555	59.233	20.656	2.234	281.068	-33.572	95.044	311.875	-34.790	-29.475	-44.375	205.147	-31.184	-27.765	-25.659	-20.692	47.611	-24.421	-8191	255	
1889.730	1	1	0	0	0.20462	0.26993	0.15173	0.30635	0.18114	0.19787	0.34531	0.30902	0.18872	0.1435	0.18908	0.23677	0.22463	0.21446	0.18483	0.029975	-2.9062	-3.0667	-2.9458	-3.4167	-3.1521	-2.8875	-3.375	-2.8958	-3.2729	-3.3396	-2.9708	-3.2313	-3.0542	-2.9708	-3.5667	-3.0458	-5.244	285.139	58.791	248.826	22.520	77.263	228.665	244.809	-0.110	137.076	241.609	5.054	156.704	-40.200	222.699	47.845	0.00036712	0.0019849	0.0005911	1245.9	5.4426e-06	3.4317e-05	1286.7	378.78	1.6648e-05	3.3542e-05	410.83	134.9	133.37	59.685	1.4246e-05	59.988	0.014207	0.022426	0.0062209	1142.1	0.00022138	0.00024777	1166.1	348.39	0.00022772	0.0002481	401.6	130.1	133.97	56.603	0.00022961	58.381	42.844	21.978	60.886	-34.036	-26.197	160.168	-34.897	-29.646	237.387	141.949	-31.299	-27.299	-25.782	-20.086	102.849	-23.788	-8191	255	
1889.826	1	1	0	0	0.16946	0.1054	0.18193	0.20451	0.2573	0.11833	0.16193	0.15255	0.046501	0.37134	0.28856	0.12532	0.13548	0.20206	0.15436	0.032463	-2.9771	-3.2938	-2.7667	-3.5979	-3.2521	-2.7667	-3.5083	-3.0396	-3.2708	-3.2917	-3.0187	-3.2958	-3.1063	-2.9542	-3.3917	-2.9437	90.594	218.806	-41.747	-41.736	-7.739	109.048	260.692	237.357	36.963	-36.105	295.666	-20.395	-7.861	265.218	-12.097	274.028	0.00016721	0.0019377	0.0011043	1235.3	1.0876e-05	1.9777e-06	1272.4	377.64	1.3584e-05	5.4598e-06	413.86	131.92	132.23	59.035	4.1906e-06	59.623	0.014072	0.022085	0.0060212	1133.6	0.00021838	0.00024239	1154.3	347.19	0.00022117	0.00024201	399.91	128.85	132.85	56.264	0.00022835	58.204	246.864	148.386	110.651	-33.832	72.855	89.385	-35.162	-29.549	155.481	280.974	-31.294	-27.708	-26.272	-20.370	41.920	-24.248	-8191	255	
1889.922	1	1	0	0	0.151	0.25289	0.28713	0.11328	0.053384	0.22167	0.13515	0.31505	0.15259	0.2122	0.1423	0.21736	0.24913	0.13339	0.2084	0.15874	-2.6792	-3.4417	-2.8	-3.3958	-3.3792	-3.1646	-3.6604	-3.2708	-3.1688	-3.3208	-2.8833	-3.2042	-3.0271	-2.7062	-3.3167	-3.2875	-10.985	269.198	205.529	287.302	105.542	118.060	249.145	279.472	20.231	111.006	271.091	232.232	93.089	258.673	65.954	151.606	0.00038595	0.00082674	0.00054124	1249.2	1.1743e-05	1.7242e-05	1276.1	376.49	8.3995e-06	1.3855e-05	410.99	133.4	132.47	59.91	7.0462e-06	59.721	0.014054	0.022119	0.0059824	1138.7	0.00022057	0.00024289	1157.9	345.97	0.00022194	0.00024	398.69	129.33	133	56.243	0.00022566	58.327	104.113	-28.216	-44.407	-33.963	43.057	200.926	-34.649	-29.405	129.807	188.381	-31.296	-27.807	-25.779	-20.268	21.283	-24.049	-8191	255	
#DATA ENDS
