BOXY.EXE: ISS Imagent and Oximeter Data Acquisition Program Version 0.80
Ascii Record File

#ACQ INFORMATION
2  Detector Channels 
16  External MUX Channels 
1  Auxiliary Channels 
5000  Waveform (CCF) Frequency (Hz)
1  Waveforms Skipped 
30  Waveforms Averaged 
1  Cycles Averaged 
16  Acquisitions per Waveform 
10.0806  Updata Rate (Hz) 

#FILE INFORMATION
TRUE -- External MUX Channel results are PARSED.
FALSE -- AC DC and Phase are NOT grouped.
TRUE -- Companion Program Settings File CREATED.
FALSE -- AC data not excluded
FALSE -- DC data not excluded
FALSE -- Phase data not excluded
FALSE -- Auxillary Chn. data not excluded
Tab delimiters

#CALIBRATION STATE
TRUE -- Waveform Calibration Values APPLIED.


#AUX CALIBRATION VALUES
Val Type	aux-1	

Term	1.0000e+00	
Factor	0.0000e+00	


#WF CALIBRATION VALUES
A = Detector Channel
Val Type	A-AC1	A-AC2	A-AC3	A-AC4	A-AC5	A-AC6	A-AC7	A-AC8	A-AC9	A-AC10	A-AC11	A-AC12	A-AC13	A-AC14	A-AC15	A-AC16	A-DC1	A-DC2	A-DC3	A-DC4	A-DC5	A-DC6	A-DC7	A-DC8	A-DC9	A-DC10	A-DC11	A-DC12	A-DC13	A-DC14	A-DC15	A-DC16	A-Ph1	A-Ph2	A-Ph3	A-Ph4	A-Ph5	A-Ph6	A-Ph7	A-Ph8	A-Ph9	A-Ph10	A-Ph11	A-Ph12	A-Ph13	A-Ph14	A-Ph15	A-Ph16	

Term	0.00000e+00	0.00000e+00	0.00000e+00	0.00000e+00	0.00000e+00	0.00000e+00	0.00000e+00	0.00000e+00	0.00000e+00	0.00000e+00	0.00000e+00	0.00000e+00	0.00000e+00	0.00000e+00	0.00000e+00	0.00000e+00	0.00000e+00	0.00000e+00	0.00000e+00	0.00000e+00	0.00000e+00	0.00000e+00	0.00000e+00	0.00000e+00	0.00000e+00	0.00000e+00	0.00000e+00	0.00000e+00	0.00000e+00	0.00000e+00	0.00000e+00	0.00000e+00	0.00000e+00	0.00000e+00	0.00000e+00	0.00000e+00	0.00000e+00	0.00000e+00	0.00000e+00	0.00000e+00	0.00000e+00	0.00000e+00	0.00000e+00	0.00000e+00	0.00000e+00	0.00000e+00	0.00000e+00	0.00000e+00	
Factor	1.00000e+00	1.00000e+00	1.00000e+00	1.00000e+00	1.00000e+00	1.00000e+00	1.00000e+00	1.00000e+00	1.00000e+00	1.00000e+00	1.00000e+00	1.00000e+00	1.00000e+00	1.00000e+00	1.00000e+00	1.00000e+00	1.00000e+00	1.00000e+00	1.00000e+00	1.00000e+00	1.00000e+00	1.00000e+00	1.00000e+00	1.00000e+00	1.00000e+00	1.00000e+00	1.00000e+00	1.00000e+00	1.00000e+00	1.00000e+00	1.00000e+00	1.00000e+00	X	X	X	X	X	X	X	X	X	X	X	X	X	X	X	X	

B = Detector Channel
Val Type	B-AC1	B-AC2	B-AC3	B-AC4	B-AC5	B-AC6	B-AC7	B-AC8	B-AC9	B-AC10	B-AC11	B-AC12	B-AC13	B-AC14	B-AC15	B-AC16	B-DC1	B-DC2	B-DC3	B-DC4	B-DC5	B-DC6	B-DC7	B-DC8	B-DC9	B-DC10	B-DC11	B-DC12	B-DC13	B-DC14	B-DC15	B-DC16	B-Ph1	B-Ph2	B-Ph3	B-Ph4	B-Ph5	B-Ph6	B-Ph7	B-Ph8	B-Ph9	B-Ph10	B-Ph11	B-Ph12	B-Ph13	B-Ph14	B-Ph15	B-Ph16	

Term	0.00000e+00	0.00000e+00	0.00000e+00	0.00000e+00	0.00000e+00	0.00000e+00	0.00000e+00	0.00000e+00	0.00000e+00	0.00000e+00	0.00000e+00	0.00000e+00	0.00000e+00	0.00000e+00	0.00000e+00	0.00000e+00	0.00000e+00	0.00000e+00	0.00000e+00	0.00000e+00	0.00000e+00	0.00000e+00	0.00000e+00	0.00000e+00	0.00000e+00	0.00000e+00	0.00000e+00	0.00000e+00	0.00000e+00	0.00000e+00	0.00000e+00	0.00000e+00	-1.56894e+02	-1.27752e+02	-1.28220e+02	-1.82394e+02	-8.05549e+01	-6.51345e+01	-1.55939e+02	-1.62015e+02	-8.46711e+01	-6.06474e+01	-1.70818e+02	-1.71805e+02	-1.80520e+02	-1.77372e+02	-7.45731e+01	-1.49506e+02	
Factor	2.48450e-05	1.80034e-04	5.53765e-05	1.74917e-01	1.47804e-06	1.91503e-06	1.73878e-01	5.40847e-02	1.39976e-06	1.81173e-06	9.61147e-02	3.08946e-02	3.55403e-02	9.85352e-03	1.70142e-06	1.43833e-02	1.14720e-05	1.78812e-05	4.98075e-06	8.74279e-02	1.80401e-07	1.98474e-07	8.17633e-02	2.71597e-02	1.79927e-07	1.99377e-07	4.67774e-02	1.50850e-02	1.80288e-02	4.99142e-03	1.87127e-07	7.05837e-03	X	X	X	X	X	X	X	X	X	X	X	X	X	X	X	X	



#DISTANCE SETTINGS
A = Detector Channel
A-1	A-2	A-3	A-4	A-5	A-6	A-7	A-8	A-9	A-10	A-11	A-12	A-13	A-14	A-15	A-16	

2.5000e+00	3.0000e+00	2.5000e+00	3.0000e+00	2.0000e+00	3.0000e+00	1.5000e+00	3.0000e+00	3.0000e+00	3.0000e+00	3.0000e+00	3.0000e+00	3.0000e+00	3.0000e+00	1.5000e+00	3.0000e+00	

B = Detector Channel
B-1	B-2	B-3	B-4	B-5	B-6	B-7	B-8	B-9	B-10	B-11	B-12	B-13	B-14	B-15	B-16	

1.0000e+01	1.0000e+01	1.0000e+01	1.4400e+00	1.0000e+01	1.0000e+01	1.5100e+00	1.9400e+00	1.0000e+01	1.0000e+01	1.9900e+00	2.4900e+00	2.4100e+00	2.9000e+00	1.0000e+01	2.9800e+00	




#DATA BEGINS
time	group	step	mark	flag	A-AC1	A-AC2	A-AC3	A-AC4	A-AC5	A-AC6	A-AC7	A-AC8	A-AC9	A-AC10	A-AC11	A-AC12	A-AC13	A-AC14	A-AC15	A-AC16	A-DC1	A-DC2	A-DC3	A-DC4	A-DC5	A-DC6	A-DC7	A-DC8	A-DC9	A-DC10	A-DC11	A-DC12	A-DC13	A-DC14	A-DC15	A-DC16	A-Ph1	A-Ph2	A-Ph3	A-Ph4	A-Ph5	A-Ph6	A-Ph7	A-Ph8	A-Ph9	A-Ph10	A-Ph11	A-Ph12	A-Ph13	A-Ph14	A-Ph15	A-Ph16	B-AC1	B-AC2	B-AC3	B-AC4	B-AC5	B-AC6	B-AC7	B-AC8	B-AC9	B-AC10	B-AC11	B-AC12	B-AC13	B-AC14	B-AC15	B-AC16	B-DC1	B-DC2	B-DC3	B-DC4	B-DC5	B-DC6	B-DC7	B-DC8	B-DC9	B-DC10	B-DC11	B-DC12	B-DC13	B-DC14	B-DC15	B-DC16	B-Ph1	B-Ph2	B-Ph3	B-Ph4	B-Ph5	B-Ph6	B-Ph7	B-Ph8	B-Ph9	B-Ph10	B-Ph11	B-Ph12	B-Ph13	B-Ph14	B-Ph15	B-Ph16	aux-1	digaux	

1558.555	1	1	0	512	0.15091	0.25472	0.20754	0.24529	0.10502	0.21569	0.12109	0.27048	0.1549	0.18272	0.23038	0.11882	0.22529	0.23239	0.19723	0.15402	-3.1042	-3	-3.0938	-3.4604	-2.8542	-3.1958	-3.1854	-2.9792	-3.3083	-3.1771	-3.1146	-3.5521	-2.825	-3.3125	-3.3708	-3.1312	223.367	148.692	-75.030	266.962	121.215	261.927	142.938	115.182	-55.246	-33.862	-68.620	-21.714	263.392	174.595	179.630	85.350	0.00040213	0.00092306	0.0008553	749.41	9.3753e-06	2.9338e-05	591.04	272.55	3.0321e-05	2.2826e-05	240.03	78.537	93.257	35.409	1.0338e-05	31.786	0.041631	0.064329	0.018116	1013.3	0.00065615	0.00072045	847.45	353.56	0.0006673	0.00072712	393.77	128.91	152.68	51.521	0.00067797	55.397	220.944	109.470	86.940	-62.713	228.973	145.281	-63.988	-57.489	29.316	14.327	-60.943	-59.019	-55.214	-49.551	108.237	-53.631	-8191	255	
1558.651	1	1	0	0	0.048624	0.038228	0.060229	0.17781	0.16699	0.042701	0.15685	0.26842	0.13468	0.13413	0.10965	0.114	0.030838	0.16803	0.27295	0.2243	-2.9437	-3.1396	-3.1042	-3.3583	-3.1167	-3.1625	-3.4896	-2.9667	-3.2458	-3.1437	-2.7812	-3.5042	-3.0271	-3.0354	-3.4167	-2.9437	90.898	229.170	194.107	-17.435	47.919	272.549	-38.722	196.640	236.226	-42.141	210.605	19.674	190.399	-59.345	-39.068	242.161	0.00031661	0.0030194	0.0004478	751.82	2.5179e-05	1.7234e-05	596.38	273.96	1.0693e-05	2.0007e-05	240.48	79.734	94.356	35.513	5.0101e-05	31.95	0.041395	0.064062	0.018059	1014.4	0.00064945	0.00071792	852.23	354.87	0.00066336	0.00073507	397.67	130.41	154.4	52.326	0.00070301	56.345	265.928	-14.873	106.697	-62.423	204.235	20.883	-64.119	-57.448	72.650	210.141	-60.661	-58.909	-55.733	-49.816	122.020	-53.712	-8191	255	
1558.747	1	1	0	0	0.24423	0.081597	0.32627	0.26382	0.041058	0.12925	0.10028	0.14552	0.19147	0.31864	0.33856	0.23492	0.19329	0.30572	0.24314	0.095993	-2.9583	-3.1667	-2.8958	-3.5646	-3.1688	-3.1958	-3.475	-3.0833	-3.2479	-3.2062	-2.9979	-3.4958	-3.0667	-3.0563	-3.475	-3.0187	1.035	66.296	-29.603	163.548	51.763	194.836	140.696	176.849	36.617	-27.081	227.147	266.404	-41.427	261.535	263.591	-24.407	0.00028755	0.0017658	0.00039072	757.99	2.4754e-05	1.7027e-05	601.27	275.17	5.4445e-06	3.429e-05	242.29	80.002	94.591	35.877	6.5717e-07	32.226	0.042711	0.066012	0.018516	1026.8	0.0006603	0.00072946	857.93	356.69	0.00066421	0.00073611	400.4	130.88	154.97	52.345	0.00070077	56.249	236.271	192.527	172.195	-62.467	107.679	112.577	-63.354	-57.627	156.957	129.711	-61.248	-58.827	-55.158	-49.610	-66.292	-53.552	-8191	255	
1558.844	1	1	0	0	0.11425	0.10476	0.15117	0.33545	0.063589	0.23466	0.12516	0.025279	0.067426	0.23529	0.1639	0.22199	0.20255	0.1944	0.095452	0.1212	-2.6896	-3.2812	-2.9	-3.2833	-3.1063	-2.8521	-3.5771	-3.0396	-3.1646	-3.375	-3.1479	-3.1875	-3.1542	-3.0062	-3.5125	-2.9625	133.442	9.950	134.287	-69.492	-7.330	43.013	27.863	274.331	92.116	237.467	41.870	211.633	256.487	163.497	237.856	142.455	0.00021539	0.0019761	0.0011116	758	2.722e-05	2.1372e-05	597.59	273.97	6.2668e-06	1.7748e-05	238.33	77.159	92.339	35.106	2.3984e-05	31.223	0.042279	0.065915	0.018305	1023.2	0.00064579	0.00071789	848.37	351.86	0.000645	0.0007155	390.75	126.26	150.01	50.777	0.000672	53.904	245.084	-3.338	275.876	-62.275	79.967	106.281	-64.599	-57.544	105.098	-59.897	-61.440	-58.928	-55.080	-49.520	-48.702	-53.376	-8191	255	
1558.964	1	1	0	0	0.10741	0.20798	0.21756	0.074001	0.24259	0.29541	0.07719	0.17338	0.15674	0.097502	0.018914	0.14169	0.12904	0.27026	0.18614	0.11672	-2.7521	-3.1833	-2.975	-3.3167	-3.2938	-2.6583	-3.3812	-3.1271	-3.2938	-3.325	-3.0375	-3.1562	-3.3583	-2.9417	-3.3229	-3.1813	105.391	117.905	180.185	-41.251	223.068	244.856	214.272	209.880	105.078	-8.218	64.985	-65.306	222.384	-39.876	79.165	227.142	0.00043158	0.00087613	0.00087145	747.34	2.4417e-05	1.7211e-05	581.93	271.37	6.702e-06	1.9522e-05	236.85	76.122	91.456	34.541	2.6761e-06	30.855	0.040213	0.063008	0.017525	998.92	0.00062401	0.0006937	830.46	345.98	0.00063502	0.00071138	385.1	124.98	149.82	50.666	0.00067699	53.885	178.991	82.870	257.715	-62.727	176.312	186.114	-63.987	-57.439	-63.003	-9.189	-61.179	-58.684	-55.466	-49.619	197.125	-54.498	-8191	255	
1559.060	1	1	0	0	0.20263	0.10475	0.11284	0.40226	0.097137	0.12414	0.046401	0.22925	0.23036	0.090645	0.011232	0.16404	0.06194	0.1993	0.14034	0.068529	-2.6167	-3.4521	-3.0833	-3.3229	-3.2979	-3.1146	-3.4958	-3.2208	-3.0083	-3.4708	-2.9437	-3.275	-3.4167	-3.0375	-3.4958	-3.0542	278.943	2.556	61.746	-18.221	179.724	284.457	-13.467	272.537	101.622	270.923	-13.155	186.471	75.541	-71.154	242.121	17.630	0.00035837	0.001894	0.00036101	753.8	3.8659e-05	2.0495e-05	588.93	272.27	1.2741e-05	2.1851e-05	238.55	77.494	91.917	35.352	1.3949e-05	31.698	0.040624	0.063652	0.017598	1002.2	0.00062548	0.00069801	830.94	346.2	0.00062787	0.00070024	383.83	124.68	150.05	50.776	0.00066898	54.46	180.028	23.352	-54.358	-62.653	65.999	204.264	-64.111	-57.536	212.990	202.898	-60.856	-58.723	-55.317	-49.311	-35.550	-53.969	-8191	255	
1559.132	1	1	0	0	0.20549	0.08338	0.20363	0.20344	0.18956	0.27653	0.14705	0.26494	0.15941	0.21817	0.12252	0.011517	0.097905	0.087056	0.15655	0.01138	-2.5792	-3.5208	-2.6958	-3.2167	-3.2521	-2.8958	-3.4792	-3.2667	-2.8333	-3.5062	-2.9958	-3.3438	-3.5625	-2.8937	-3.2021	-3.0625	248.429	91.625	-56.359	248.910	77.588	140.405	117.229	-59.103	270.866	180.833	284.430	239.452	219.723	229.703	96.595	186.567	0.00047316	0.0014492	0.00022795	753.29	2.2325e-05	1.8595e-05	597.19	275.2	2.6945e-05	2.5394e-05	242.14	78.336	92.767	35.297	2.8516e-05	31.5	0.041282	0.064019	0.017707	1006.2	0.00064221	0.00070638	838.85	350.3	0.00063118	0.00070642	386.39	125.36	150.64	50.932	0.0006598	54.665	122.219	118.162	238.307	-62.551	253.329	21.282	-63.880	-57.280	97.768	8.931	-61.309	-58.179	-55.153	-49.574	275.691	-53.673	-8191	255	
1559.251	1	1	0	0	0.13475	0.063342	0.17612	0.23934	0.2263	0.1318	0.10427	0.29773	0.11508	0.16904	0.024334	0.30009	0.041924	0.13471	0.18809	0.18579	-2.5854	-3.4667	-2.9875	-3.3063	-3.3479	-2.9083	-3.4458	-3.1063	-2.9396	-3.4625	-3.1937	-3.0771	-3.4292	-2.875	-3.2062	-3.1229	-70.563	119.315	101.980	272.010	130.532	121.789	189.258	251.743	164.449	46.427	41.894	-8.487	0.943	-73.691	-4.997	75.066	6.4336e-05	0.0015542	0.00044745	758.69	1.7215e-05	1.807e-05	595.16	275.41	9.5976e-06	1.7374e-05	238.91	77.795	92.193	35.044	8.0977e-06	31.69	0.041065	0.063849	0.017664	1013.8	0.00064434	0.00070384	838.72	350.7	0.00063097	0.00069958	383.85	125.07	149.7	50.434	0.00065555	53.965	16.740	281.835	21.437	-61.950	186.615	-16.762	-63.810	-57.413	223.017	51.882	-61.213	-58.627	-55.100	-49.583	103.383	-53.581	-8191	255	
1559.347	1	1	0	0	0.1255	0.077346	0.082333	0.19481	0.08831	0.17268	0.26959	0.19707	0.094389	0.18628	0.26085	0.3124	0.11208	0.27336	0.29455	0.06023	-2.3812	-3.2896	-2.8479	-3.2125	-3.3625	-3.05	-3.2313	-3.4354	-2.9354	-3.4979	-3.1375	-2.9313	-3.4417	-3.0875	-3.0979	-3.4458	-66.073	56.639	233.650	272.245	73.330	-2.813	96.759	256.577	104.915	-33.647	20.581	38.839	-10.541	255.594	135.482	68.729	0.00015615	0.0020313	0.00056515	744.47	3.2016e-05	1.9644e-06	581.16	272.84	5.8662e-06	3.0067e-05	236.76	76.614	91.174	34.701	4.8159e-06	30.684	0.040575	0.062904	0.017457	1000.4	0.00064349	0.00070074	829.08	349.68	0.00064178	0.00071178	384.59	125.81	150.96	50.502	0.00067732	54.664	106.771	-73.474	12.590	-62.320	150.739	-22.723	-64.367	-57.790	-43.847	35.766	-60.852	-58.884	-55.217	-49.705	96.205	-53.501	-8191	255	
1559.443	1	1	0	0	0.11611	0.22308	0.088263	0.25504	0.10035	0.15335	0.40142	0.039425	0.18773	0.18697	0.09809	0.14012	0.018822	0.13153	0.099475	0.21857	-2.5958	-3.3021	-3.2396	-3.2708	-3.3833	-2.9875	-3.3146	-3.4958	-2.7729	-3.3979	-3.5354	-2.8646	-3.7292	-3.0583	-3.0458	-3.3854	169.199	74.763	125.841	206.972	143.047	-60.814	-71.947	119.752	275.965	200.538	1.645	204.473	126.277	224.744	40.539	3.956	0.00045979	0.0037983	0.00044331	740.22	3.2139e-05	1.116e-05	587.49	272.43	2.559e-05	1.6637e-05	235.29	77.477	93.45	35.142	1.4278e-05	30.931	0.042601	0.06518	0.018322	1013	0.00067358	0.00072759	841.61	353.24	0.00066131	0.00072992	389.49	127.86	152.91	51.136	0.0006982	55.347	96.674	-17.471	0.346	-62.626	67.703	39.529	-64.167	-57.363	72.203	193.106	-61.338	-58.445	-55.156	-49.569	-38.228	-53.839	-8191	255	
1559.539	1	1	0	0	0.27962	0.04213	0.12317	0.079177	0.10839	0.20012	0.19138	0.1742	0.092249	0.12326	0.30018	0.23032	0.017526	0.20209	0.35668	0.098017	-2.5833	-3.2292	-3.1125	-2.9542	-3.4417	-2.9646	-3.2062	-3.4021	-2.6	-3.3208	-3.2812	-2.7375	-3.3937	-3.2062	-3.1937	-3.3583	5.040	30.418	109.078	277.702	-27.276	26.218	242.527	172.734	205.944	-41.168	233.879	21.907	223.119	217.705	-21.185	221.649	0.0003019	0.0021371	0.0014886	749.38	3.8662e-05	4.2019e-05	596.84	274.4	6.1265e-06	9.2233e-07	239.84	78.146	93.168	35.336	1.5826e-05	31.026	0.042739	0.065602	0.018392	1019	0.00066836	0.00072158	847.37	354.02	0.00064939	0.00071871	389.98	126.9	150.85	50.698	0.00066643	54.559	-43.481	-48.722	85.597	-62.366	53.263	129.368	-64.165	-57.769	164.494	55.487	-61.024	-58.141	-55.643	-49.745	-13.926	-53.772	-8191	255	
1559.660	1	1	0	0	0.11765	0.0079908	0.18594	0.10628	0.30888	0.20771	0.13131	0.18947	0.023519	0.15522	0.22485	0.14066	0.18597	0.10111	0.056351	0.080082	-2.5771	-3.1562	-3.2375	-2.9542	-3.2542	-3.0521	-3.0896	-3.4333	-2.8125	-3.2333	-3.4146	-2.9771	-3.3104	-3.1083	-2.9917	-3.6729	281.094	21.079	-20.166	257.253	125.521	258.674	58.132	145.356	-7.497	245.066	258.102	242.652	217.330	-41.505	33.327	155.071	0.00018991	0.0023461	0.0006895	754.09	2.6705e-05	6.3149e-06	598.91	274.9	3.7116e-06	2.2062e-05	241.36	78.1	93.397	35.079	3.6459e-05	31.296	0.040473	0.063673	0.017949	1012.8	0.00065134	0.00070975	848.29	354.5	0.00063922	0.00071324	390.89	126.98	150.72	50.617	0.00066573	54.328	104.515	181.120	88.580	-62.546	71.170	-44.124	-64.223	-57.595	96.045	-24.203	-61.212	-58.941	-55.643	-49.732	-17.921	-53.561	-8191	255	
1559.756	1	1	0	0	0.31211	0.1937	0.12231	0.15289	0.10553	0.14166	0.17554	0.27325	0.38407	0.085958	0.16373	0.064422	0.059725	0.11326	0.20796	0.2411	-2.4542	-3.0396	-3.4646	-2.8104	-3.3312	-3.2896	-3.1937	-3.5167	-2.8	-3.1833	-3.5833	-3.0458	-3.2375	-3.4042	-3.0312	-3.3167	-23.135	-52.968	201.439	29.633	-3.791	218.982	198.546	193.644	99.782	174.269	204.377	36.140	100.812	-26.268	283.025	182.931	0.0003626	0.0013163	0.00082435	749.78	1.3444e-05	7.1726e-06	587.71	270.33	2.001e-05	3.6308e-05	238.35	76.812	91.516	34.505	2.0658e-05	30.512	0.040183	0.063055	0.017823	1004.3	0.00064244	0.00070654	839.44	350.27	0.00064047	0.00072656	389.35	126.28	150.26	50.552	0.00067825	54.164	108.738	206.675	79.954	-62.580	-22.811	272.399	-64.034	-57.945	161.429	169.830	-61.124	-58.758	-54.919	-49.732	-31.062	-53.809	-8191	255	
1559.852	1	1	0	0	0.15396	0.080814	0.14173	0.28887	0.12777	0.17705	0.13088	0.11653	0.23817	0.19378	0.17478	0.16133	0.20289	0.089614	0.21319	0.18872	-2.6	-2.9833	-3.3354	-2.95	-3.3063	-3.0021	-3.0438	-3.4562	-2.8688	-3.1458	-3.2771	-3.1562	-3.3417	-3.3958	-2.8125	-3.4021	-28.651	41.807	154.224	230.042	19.646	2.333	-67.852	65.712	107.173	139.392	253.502	-9.380	171.089	-33.902	230.046	86.798	0.00050258	0.0033132	0.00036436	744.87	4.4323e-05	3.5951e-05	591.18	270.97	2.1251e-05	2.5269e-05	234.9	76.785	91.206	34.933	3.0032e-05	30.666	0.040896	0.064299	0.01807	1003.7	0.00065085	0.0007169	841.91	349.62	0.00064477	0.00073091	390.12	126.76	151.56	51.08	0.00068613	54.717	108.505	87.999	83.309	-62.568	164.024	105.690	-64.046	-57.607	-51.248	215.545	-61.057	-59.008	-54.883	-49.810	75.159	-53.583	-8191	255	
1559.948	1	1	0	0	0.16585	0.14382	0.11241	0.15123	0.29131	0.0596	0.19557	0.19027	0.2879	0.077998	0.089342	0.13148	0.18692	0.08452	0.12553	0.12779	-2.5583	-2.7521	-3.3583	-3.1625	-3.1437	-3.2542	-2.9396	-3.4104	-3.0479	-3.0458	-3.5125	-2.9396	-3.3833	-3.4062	-2.7354	-3.3812	245.355	157.711	253.039	-36.460	-51.806	-38.064	222.159	-55.928	43.308	-31.154	58.169	185.443	266.329	211.179	-68.964	22.327	0.00038425	0.0040011	0.00072158	751.43	1.5078e-05	1.5241e-05	591.68	274.08	6.367e-06	5.3774e-06	238.1	77.998	93.269	35.147	1.6667e-05	31.213	0.041409	0.065527	0.018106	1006	0.00064993	0.00071432	838.62	350.41	0.00064098	0.00071966	390.03	126.05	151.63	50.859	0.00066593	54.417	139.709	-61.957	22.151	-62.819	205.423	15.959	-64.027	-57.723	61.308	156.794	-61.190	-58.783	-55.699	-49.227	98.516	-53.921	-8191	255	
1560.045	1	1	0	0	0.17873	0.04923	0.12911	0.15736	0.21052	0.14761	0.038926	0.18297	0.0052939	0.16377	0.4581	0.16985	0.12417	0.23349	0.20089	0.19375	-2.7938	-2.9417	-3.5062	-3.0083	-3.2021	-3.425	-2.775	-3.3458	-3.2687	-3.0938	-3.3	-2.9729	-3.2667	-3.3333	-2.9021	-3.3646	183.728	-1.968	-36.801	180.084	90.583	-52.218	161.493	226.218	199.305	283.631	267.220	280.833	280.737	-72.277	202.889	153.096	0.00032103	0.00093065	0.0005281	750.87	4.2045e-06	9.3062e-06	597.55	274.43	1.2305e-05	6.4685e-06	240.6	79.974	93.687	35.238	3.9416e-05	31.093	0.040715	0.064046	0.017682	1004.5	0.00064992	0.00071241	843.26	353.02	0.00064652	0.00072244	393.52	128.46	153.83	51.519	0.00067581	54.983	-5.764	-60.371	-34.701	-62.683	192.579	186.470	-63.925	-57.629	113.479	34.708	-61.626	-59.260	-56.031	-49.911	164.277	-53.752	-8191	255	
1560.141	1	1	0	0	0.27885	0.19957	0.26934	0.040661	0.070128	0.26378	0.11521	0.057573	0.14787	0.25656	0.078838	0.17042	0.078704	0.29788	0.035167	0.2463	-2.7208	-2.6417	-3.4083	-3.2021	-2.8812	-3.3063	-3.0375	-3.4229	-3.0042	-2.9917	-3.4479	-3.1875	-3.0625	-3.475	-2.9542	-3.2021	-33.209	205.491	115.268	224.672	83.566	35.988	-12.243	183.276	97.803	96.254	240.919	-66.646	238.968	200.623	-48.341	58.843	0.00021499	0.00089275	0.00031543	750.75	1.6243e-05	3.3539e-05	586.39	272.06	1.2152e-05	2.9447e-05	233.31	77.346	92.023	34.811	2.0451e-05	30.388	0.041829	0.064865	0.017859	1007.8	0.00065787	0.00072011	837.33	350.96	0.00065356	0.00072077	388.8	126.07	151.54	50.54	0.00066462	53.869	251.655	-69.398	271.189	-62.109	114.010	110.737	-64.235	-57.583	179.981	-47.269	-61.289	-58.920	-54.720	-49.829	60.264	-54.751	-8191	255	
1560.260	1	1	0	0	0.19277	0.16853	0.046519	0.15712	0.16114	0.1289	0.10521	0.073439	0.23734	0.25158	0.2637	0.12827	0.20147	0.14856	0.051509	0.099486	-2.7083	-2.6937	-3.5021	-3.1958	-2.9562	-3.3417	-2.8792	-3.2875	-3.4146	-2.8688	-3.2542	-2.9583	-3.0021	-3.6021	-3.0375	-3.2333	64.622	171.543	228.943	36.322	25.305	-3.230	-12.856	220.693	-56.251	155.329	184.622	89.892	123.149	260.232	57.711	1.078	0.00012019	0.0011757	0.00027328	748.17	1.3936e-05	2.5531e-05	582.62	271.62	1.8683e-05	3.9396e-05	231.55	76.775	91.833	34.695	5.6601e-06	30.606	0.041586	0.064326	0.017729	1001.2	0.0006501	0.00071254	829.29	349.01	0.00064397	0.00071051	385.04	125.87	151.13	50.393	0.00066067	54.093	101.635	231.779	-8.288	-62.697	-46.998	144.121	-63.904	-57.542	12.164	7.507	-61.118	-58.840	-55.448	-49.416	12.862	-53.828	-8191	255	
1560.356	1	1	0	0	0.19677	0.25206	0.052774	0.20596	0.12979	0.078392	0.041658	0.21105	0.061418	0.1393	0.19372	0.23838	0.18405	0.21409	0.18106	0.076959	-2.8771	-2.95	-3.4042	-3.1625	-2.8646	-3.4458	-3.1312	-3.1208	-3.3833	-2.8542	-3.3104	-3.025	-2.9021	-3.4021	-3.0229	-3.1958	200.162	81.203	172.432	229.579	-9.218	117.287	-45.971	247.256	90.876	62.733	224.912	270.720	86.351	110.112	254.908	106.779	0.00037658	0.0013104	0.00043871	748.34	2.1854e-05	2.3945e-05	582.36	273.54	1.3543e-05	1.7276e-05	236.05	76.668	93.164	34.844	2.5816e-05	30.831	0.041158	0.063325	0.017554	1001.9	0.00063975	0.00069764	829.85	350.59	0.00063848	0.00070387	387.59	126.56	151.65	50.572	0.00067096	54.6	111.368	270.878	130.965	-62.444	127.957	45.499	-63.839	-57.522	146.971	133.199	-60.580	-59.352	-55.457	-49.701	140.108	-53.728	-8191	255	
1560.427	1	1	0	0	0.090485	0.11427	0.09342	0.22259	0.049841	0.085385	0.12262	0.13092	0.23478	0.27065	0.21858	0.024752	0.29956	0.1733	0.11972	0.025455	-3.0896	-2.8354	-3.2042	-3.4271	-2.8833	-3.4313	-3.0687	-3.1104	-3.3479	-2.8146	-3.2396	-3.1875	-2.9292	-3.3979	-3.0687	-2.9792	176.841	27.564	277.529	277.826	148.017	97.460	199.459	209.356	194.494	227.991	281.793	175.103	257.247	142.769	-20.247	72.326	0.00023554	0.0029249	0.00047809	750.15	6.0857e-06	3.8688e-05	593.7	274.14	1.5735e-05	1.9902e-05	239.94	78.483	94.051	34.888	2.6506e-05	31.234	0.041669	0.064187	0.017989	1014.5	0.00065215	0.00071775	841.34	354.45	0.00064257	0.00070866	391.26	127.71	151.94	50.767	0.00067164	54.697	-24.963	34.366	160.233	-62.561	-69.420	60.884	-64.352	-57.614	97.738	61.666	-61.013	-58.925	-54.939	-49.498	173.186	-53.133	-8191	255	
1560.524	1	1	0	0	0.11243	0.21057	0.040036	0.049322	0.14127	0.1159	0.058845	0.25037	0.094205	0.12717	0.16251	0.13536	0.10761	0.20408	0.15136	0.22299	-2.9125	-2.7812	-3.2104	-3.425	-2.9792	-3.2542	-3.225	-2.9979	-3.3521	-2.8625	-3.1042	-3.2271	-2.9688	-3.2375	-3.3438	-2.4979	225.912	101.655	-47.805	41.093	162.869	216.354	-25.774	258.942	-34.497	167.224	175.629	174.968	235.668	150.588	122.242	211.223	0.00017079	0.0029861	0.00067463	750.95	2.6243e-05	2.3373e-05	586.45	272.42	2.5911e-05	1.1745e-05	235.24	77.384	91.982	34.82	8.7283e-06	30.376	0.041798	0.064011	0.018069	1014.7	0.00064633	0.00071516	841.18	352.47	0.00064668	0.00071378	390.92	127.16	151.13	50.579	0.00068516	54.163	238.696	64.749	59.322	-62.505	121.724	86.258	-63.653	-57.616	112.012	100.725	-61.030	-58.260	-55.002	-49.511	53.477	-54.203	-8191	255	
1560.644	1	1	0	0	0.25803	0.3412	0.20934	0.19739	0.10414	0.083595	0.19221	0.31032	0.095721	0.1481	0.099678	0.092478	0.094676	0.056437	0.41447	0.17502	-3.1	-2.8958	-2.9625	-3.5125	-2.8958	-3.3438	-3.1521	-2.8646	-3.4583	-2.8854	-3.3125	-3.375	-2.9292	-3.2313	-3.1604	-3.0812	133.861	13.482	45.204	217.424	267.151	267.630	-59.373	231.630	57.869	-10.537	-12.113	274.046	-9.837	191.709	271.075	-67.153	0.00032773	0.0024442	0.00090276	746.84	2.7035e-05	1.6369e-05	577.58	272.34	8.8922e-06	1.4673e-05	235.37	76.301	92.159	34.552	7.3741e-06	30.44	0.041867	0.064836	0.018231	1009.2	0.00065021	0.00072637	835.78	351.22	0.00065128	0.00072806	389.34	126.84	151.53	50.762	0.00069361	54.43	-11.723	-33.952	150.922	-63.053	264.986	68.262	-63.758	-57.927	135.569	-7.164	-60.938	-58.691	-55.696	-49.975	249.333	-53.911	-8191	255	
1560.740	1	1	0	0	0.21205	0.11439	0.13627	0.014297	0.081547	0.17091	0.2136	0.31349	0.084851	0.11045	0.10259	0.046155	0.29427	0.19724	0.098915	0.15165	-2.9583	-3.0875	-2.8063	-3.5062	-2.8792	-3.0396	-3.4	-2.9021	-3.4646	-3.2542	-2.8979	-3.5667	-2.9542	-3.2854	-3.1875	-2.8708	252.207	174.963	-75.422	190.056	33.438	123.724	191.440	151.191	149.371	57.027	101.927	280.998	-66.423	-41.229	281.050	17.613	0.00039226	0.0016313	0.00097137	745.12	1.0648e-05	2.2269e-05	578.92	269.47	1.3118e-05	1.5647e-05	231.65	75.953	92.164	34.496	1.2505e-05	29.882	0.042599	0.066165	0.018604	1014.1	0.00066808	0.00074776	844.81	352.8	0.00066974	0.00075035	394.32	128.68	154	51.454	0.00071131	54.923	5.538	-31.850	127.003	-62.491	70.474	155.611	-64.465	-57.476	40.797	254.024	-60.971	-59.357	-55.310	-49.403	153.233	-53.953	-8191	255	
1560.836	1	1	0	0	0.14456	0.1026	0.45049	0.27391	0.091682	0.24646	0.17054	0.15339	0.12632	0.020925	0.23399	0.08292	0.23669	0.0036024	0.26917	0.049865	-3.1271	-3.1167	-2.6958	-3.6188	-2.7396	-3.3729	-3.1896	-3.0625	-3.2313	-3.0042	-3.1792	-3.4146	-2.9625	-3.2417	-3.3187	-2.9813	101.968	229.191	-65.696	275.802	135.606	128.574	239.190	200.064	104.767	171.259	198.531	141.729	203.404	163.931	139.039	157.048	0.00030025	0.0013184	0.00069102	749.33	2.1557e-05	3.2617e-05	585.92	271.9	8.9699e-07	3.3903e-05	237.42	77.257	93.386	34.655	1.7971e-05	30.884	0.043811	0.068386	0.019155	1028.7	0.00068926	0.0007768	858.83	358.13	0.00069328	0.00077929	402.12	131.08	157.04	52.269	0.00072602	55.82	214.254	206.787	68.808	-62.350	-72.913	176.379	-64.011	-57.485	110.093	-68.179	-61.203	-59.201	-55.604	-49.565	136.025	-53.570	-8191	255	
1560.933	1	1	0	0	0.18617	0.062609	0.24605	0.24758	0.12476	0.11966	0.058185	0.26074	0.35681	0.18107	0.11413	0.26388	0.093181	0.24366	0.14336	0.2656	-2.8	-3.2938	-2.8438	-3.3833	-2.8854	-3.1562	-3.375	-3.0229	-3.1896	-3.4313	-3.0667	-3.2917	-2.925	-2.8812	-3.4313	-3.0083	96.040	69.723	186.187	247.359	185.747	106.938	205.934	264.954	137.628	162.844	263.141	271.354	224.529	254.051	249.721	236.515	0.00019002	0.001148	0.00081934	752.09	1.9781e-05	1.1859e-05	586.6	274.37	6.1622e-06	1.8775e-05	237.61	76.981	91.822	34.598	2.5459e-05	30.213	0.044739	0.069841	0.019393	1032.7	0.00069539	0.00077457	861.07	359.19	0.00069082	0.0007698	397.77	130.06	155.62	51.683	0.00071189	55.205	282.012	144.218	-51.115	-62.543	18.012	-57.954	-64.067	-57.540	14.334	127.408	-60.871	-58.926	-55.580	-49.908	142.774	-53.539	-8191	255	
1561.029	1	1	0	0	0.048435	0.17341	0.14655	0.30823	0.17921	0.12845	0.15962	0.16474	0.075497	0.21565	0.022212	0.25732	0.12289	0.13579	0.044473	0.13079	-2.85	-3.1667	-2.7771	-3.4042	-2.9708	-3.0021	-3.6292	-3.1813	-3.2125	-3.3583	-3.0229	-3.5625	-3.1917	-2.8792	-3.5333	-3.2479	122.223	152.604	68.845	228.955	127.659	43.579	-43.400	268.851	27.191	11.363	231.535	-67.775	185.629	223.042	115.604	57.675	0.00040771	0.0012677	0.00058447	748.32	2.2526e-05	3.8132e-05	581.12	270.81	1.394e-05	1.1934e-05	229.59	75.228	91.513	34.187	2.2156e-05	29.669	0.044561	0.069008	0.019058	1024.2	0.00069387	0.00076409	849.68	354.47	0.000687	0.00076178	390.23	127.71	153.83	51.104	0.00070406	54.565	87.522	28.956	-31.376	-62.375	192.562	21.366	-64.091	-58.114	114.369	94.231	-61.499	-59.202	-55.027	-49.245	127.953	-53.844	-8191	255	
1561.125	1	1	0	0	0.12056	0.13429	0.15553	0.046584	0.1702	0.12139	0.13212	0.33485	0.05646	0.15022	0.10998	0.26817	0.16956	0.47493	0.32626	0.14469	-2.7958	-3.2917	-2.7125	-3.3458	-3.1625	-2.9458	-3.5792	-2.9729	-3.1896	-3.4854	-3.0875	-3.3667	-3.1771	-3.15	-3.4437	-2.9917	239.108	102.273	-58.678	84.254	168.388	281.344	199.575	245.313	272.051	194.877	75.821	240.026	207.903	246.264	61.588	184.404	0.00061244	0.0022356	0.00061793	743.89	2.7614e-05	1.9134e-05	578.41	269.81	1.4986e-05	1.9961e-05	232.75	75.742	91.645	34.624	3.7067e-05	29.928	0.0445	0.068797	0.019113	1026.2	0.00070207	0.00077231	853.52	356.74	0.0006975	0.0007654	394.13	129.49	155.29	51.398	0.00070556	55.041	210.202	232.222	136.939	-62.422	161.259	160.828	-64.266	-57.843	41.813	-7.420	-61.472	-59.583	-54.967	-49.642	74.312	-53.912	-8191	255	
1561.221	1	1	0	0	0.25645	0.012074	0.14786	0.093053	0.2246	0.14918	0.0047941	0.21269	0.19817	0.10507	0.14284	0.11415	0.19266	0.095846	0.23187	0.14786	-2.5167	-3.2646	-2.8146	-3.3937	-3.2938	-3.0167	-3.3104	-3.0187	-3.0938	-3.5417	-3.0708	-3.1063	-3.1792	-2.9125	-3.3646	-3.0771	159.786	47.999	243.231	73.610	56.405	4.239	16.401	199.971	199.388	-6.627	271.190	93.776	236.533	-35.990	165.562	-36.698	1.8408e-05	0.0037548	0.00086378	744.75	1.6679e-05	3.031e-05	585.64	271.87	2.3302e-05	7.4501e-06	235.04	76.971	91.535	34.652	8.11e-06	30.361	0.044079	0.06848	0.018992	1030.4	0.0007008	0.00076968	861.83	359.76	0.00070904	0.00077805	401.36	132.08	157.74	52.207	0.00073304	56.293	109.531	201.048	-70.019	-62.252	90.547	103.098	-63.978	-57.616	57.044	192.813	-61.431	-59.471	-55.602	-49.443	262.325	-53.704	-8191	255	
1561.340	1	1	0	0	0.11399	0.26174	0.21451	0.13438	0.25209	0.079841	0.11881	0.10568	0.15614	0.043721	0.18812	0.22859	0.16037	0.11993	0.088906	0.07219	-2.4646	-3.2167	-2.8812	-3.3187	-3.1458	-2.9396	-3.4	-3.0938	-2.9208	-3.4688	-3.1813	-3.3458	-2.9875	-2.7375	-3.4542	-3.3792	142.475	112.065	232.271	239.118	166.565	-6.563	156.679	174.861	265.063	126.558	209.111	221.572	-37.859	-73.626	71.470	206.241	0.0003073	0.0025261	0.00040491	753.49	3.5836e-05	2.2691e-05	589.51	272.71	1.9881e-05	1.36e-05	237.28	77.881	93.061	34.984	1.814e-05	30.37	0.045151	0.070266	0.019453	1041.1	0.00070444	0.00076725	864.34	361.62	0.00069952	0.00076678	400.91	132.09	156.89	51.978	0.00071794	55.712	218.097	-8.973	26.383	-62.524	277.965	44.654	-64.464	-57.568	109.625	39.116	-61.072	-59.142	-55.149	-49.542	-74.264	-53.627	-8191	255	
1561.436	1	1	0	0	0.29127	0.20849	0.15169	0.25225	0.035647	0.18469	0.23787	0.15042	0.14945	0.14288	0.012294	0.23192	0.26808	0.17988	0.16394	0.11398	-2.5771	-3.4958	-2.8792	-3.1771	-3.4146	-3.1	-3.2667	-3.1875	-2.9375	-3.475	-3.1667	-3.2062	-3.2667	-2.9437	-3.3563	-3.4833	-25.598	-52.269	57.632	277.059	204.204	164.885	-50.476	226.453	89.682	41.872	238.597	-61.690	228.883	141.073	135.888	240.826	0.00025483	0.0027833	0.00082485	750.49	1.6314e-05	3.2914e-05	578.53	270	1.5945e-05	9.7669e-06	231.05	75.067	91.282	34.282	8.3436e-06	30.047	0.044095	0.068921	0.019097	1029.8	0.0006836	0.00075203	850.63	355.01	0.00067429	0.00074118	391.38	127.86	152.97	50.94	0.00070141	54.357	260.694	156.454	93.847	-62.795	-6.189	278.434	-63.621	-57.819	83.734	142.795	-61.057	-59.735	-55.038	-49.288	161.482	-53.371	-8191	255	
1561.532	1	1	0	0	0.17154	0.099585	0.12566	0.093378	0.10404	0.22144	0.31117	0.095035	0.12767	0.15308	0.065204	0.10495	0.16727	0.39566	0.052994	0.38077	-2.4813	-3.3542	-3.0458	-3.3375	-3.2771	-2.6833	-3.4604	-3.3312	-2.8229	-3.4042	-3.1312	-3.025	-3.5896	-2.8583	-3.0312	-3.5	159.211	174.744	270.817	-19.060	155.941	-39.526	175.923	49.173	267.770	84.421	-7.593	242.705	13.019	208.320	240.397	180.818	5.7765e-05	0.0032671	0.0002168	745.87	1.2538e-05	1.8584e-05	576.79	270.12	1.6282e-05	1.0483e-05	231.83	74.876	91.676	34.167	4.2039e-05	29.765	0.04271	0.067026	0.018708	1018.6	0.00066744	0.00074188	845.49	352.91	0.00066505	0.00073946	388.9	125.54	151.34	50.189	0.00067327	52.915	123.809	81.171	149.525	-62.739	46.923	-40.089	-64.340	-57.717	14.604	217.417	-60.965	-59.221	-55.636	-49.614	-23.580	-53.345	-8191	255	
1561.653	1	1	0	0	0.19495	0.16951	0.12782	0.14006	0.11231	0.21411	0.18009	0.13991	0.12117	0.14986	0.026158	0.092587	0.14384	0.10471	0.086819	0.086563	-2.4938	-3.1813	-3.2333	-2.9938	-3.5167	-2.9188	-3.2708	-3.55	-2.9083	-3.275	-3.3667	-3.1604	-3.3979	-2.8583	-3.1792	-3.4042	-35.287	35.000	114.660	-31.643	-52.405	194.553	138.312	246.951	90.607	26.959	118.283	103.544	278.745	246.220	20.744	-19.567	0.00016208	0.0010148	0.00096453	753.95	1.6217e-05	4.8926e-05	581.9	269.06	1.6481e-05	6.7405e-06	232.32	74.261	90.94	34.404	2.3773e-05	29.89	0.040595	0.063719	0.017643	1003.1	0.00062922	0.00070172	831.97	348.07	0.00063319	0.00071054	383.66	124.22	149.68	50.374	0.00067277	53.404	69.343	253.009	-73.358	-62.444	153.188	260.823	-64.061	-57.788	217.539	-59.611	-61.090	-58.982	-55.267	-49.316	179.290	-53.272	-8191	255	
1561.725	1	1	0	0	0.15806	0.094921	0.38399	0.28348	0.15168	0.25288	0.072223	0.064211	0.102	0.090332	0.11186	0.15043	0.32747	0.1437	0.14315	0.060581	-2.3937	-3.2833	-3.2313	-2.9667	-3.5438	-2.9646	-3.1167	-3.4	-3.0375	-3.4104	-3.2979	-2.9708	-3.4667	-3.1229	-2.9521	-3.2479	168.450	39.744	220.520	268.662	-32.929	75.205	163.733	277.946	212.661	-50.077	-73.994	131.278	-50.189	127.231	211.694	60.626	0.00010308	0.0021562	0.00022885	758.32	2.3007e-05	1.949e-05	582.93	273.37	7.7064e-06	3.4759e-05	236.22	76.051	92.065	34.95	1.5928e-05	30.149	0.040946	0.065099	0.017967	1014.2	0.00064363	0.0007153	838.88	351.37	0.00064506	0.00072114	387.98	125.32	151.28	50.896	0.00067179	53.489	215.477	141.474	-72.713	-62.489	79.355	188.201	-64.231	-57.606	58.350	17.842	-61.432	-59.114	-55.211	-49.164	15.342	-53.421	-8191	255	
1561.821	1	1	0	0	0.099049	0.31274	0.12029	0.26654	0.20552	0.25195	0.2466	0.27379	0.2798	0.088184	0.24066	0.04195	0.079434	0.26797	0.075861	0.034145	-2.5021	-3.2604	-3.3625	-3.0312	-3.4	-3.2125	-2.8854	-3.3375	-3.1688	-3.3979	-3.2896	-2.7812	-3.4458	-3.0646	-2.8937	-3.5521	-61.866	38.114	-60.728	275.563	91.326	198.583	219.266	185.537	47.029	258.340	-72.429	101.222	206.915	-18.277	-9.982	-41.724	0.00036711	0.0015052	0.0009888	757.02	2.8783e-05	2.5174e-05	583.62	270.81	8.5677e-06	2.2402e-05	229.7	73.505	90.18	34.347	3.332e-05	29.234	0.040662	0.064076	0.017592	1009.2	0.00063578	0.00070641	830.32	349.2	0.00064251	0.00071784	381.99	123.15	150	50.273	0.00067448	53.033	4.408	268.962	87.958	-62.792	126.260	57.804	-64.157	-57.346	135.084	97.024	-61.261	-58.873	-55.619	-49.787	204.726	-53.313	-8191	255	
1561.941	1	1	0	0	0.10704	0.090991	0.1545	0.10014	0.24665	0.10914	0.18206	0.41228	0.21831	0.16017	0.17552	0.12711	0.2026	0.26246	0.29061	0.28219	-2.7417	-3.0521	-3.3354	-3.0667	-3.4542	-3.1854	-2.8667	-3.7083	-2.875	-3.1646	-3.6437	-2.8937	-3.1042	-3.1688	-2.9979	-3.5396	52.866	121.176	102.702	148.428	272.002	-19.347	230.670	201.145	20.501	97.245	158.915	-45.574	-66.224	224.983	262.814	123.160	0.00038659	0.0033679	0.00036676	747.03	1.9225e-05	7.0115e-06	572.61	266.81	2.3813e-05	1.156e-05	227.94	73.469	89.306	34.345	1.4869e-05	29.3	0.041679	0.06552	0.017941	1009.9	0.00065182	0.00071757	825.49	347.95	0.00064564	0.00071291	377.13	121.85	149.11	49.953	0.00065895	52.559	91.990	32.894	64.197	-62.427	69.504	182.543	-64.398	-58.010	250.455	34.823	-61.445	-58.265	-55.343	-49.151	-69.879	-54.028	-8191	255	
1562.037	1	1	0	0	0.20522	0.024087	0.19177	0.11745	0.084578	0.17767	0.12914	0.092465	0.13654	0.13764	0.13998	0.1932	0.088688	0.27412	0.29501	0.21142	-2.5396	-3.075	-3.4375	-2.9062	-3.2583	-3.1833	-2.9396	-3.6833	-2.9417	-2.9979	-3.5312	-2.9417	-3.2188	-3.5104	-2.8312	-3.3896	100.336	236.866	48.117	264.264	225.213	73.484	92.746	-19.154	245.572	-56.566	205.562	113.468	273.619	-19.271	15.440	-5.546	0.0001038	0.00054855	0.00051271	755.22	8.8455e-06	2.3824e-05	582.28	268.73	2.7879e-05	1.067e-05	232.15	74.501	90.625	34.51	1.3308e-05	30.009	0.040713	0.063631	0.017694	1008.7	0.00064254	0.0007063	828.19	348.73	0.00064718	0.00071836	383.18	124.04	150.96	50.58	0.0006777	53.969	162.291	215.129	217.748	-62.662	107.146	197.970	-64.387	-57.785	-0.560	257.361	-60.930	-59.055	-55.475	-49.381	188.660	-53.799	-8191	255	
1562.132	1	1	0	0	0.11571	0.076839	0.027229	0.16195	0.088948	0.12045	0.23235	0.28755	0.2267	0.077743	0.41276	0.28045	0.18541	0.14745	0.1346	0.072662	-2.6354	-2.975	-3.5646	-2.9896	-3.1979	-3.3812	-3.1625	-3.3563	-3.1312	-3.0312	-3.4021	-3.0833	-3.5042	-3.3708	-2.9042	-3.3292	113.661	-44.971	152.376	180.512	241.267	186.315	16.854	265.007	124.596	84.417	-38.680	191.852	113.254	224.009	284.225	-63.331	0.00013216	0.0025446	0.00080532	754.73	9.6028e-06	3.8903e-05	584.04	271.53	2.4424e-05	1.8963e-05	233.03	74.91	91.962	34.721	1.2384e-05	30.049	0.042199	0.065245	0.018441	1022.7	0.00066736	0.00073214	844.48	354.99	0.00066829	0.00073351	388.59	125.88	153.16	50.985	0.00068736	54.366	190.709	91.675	-33.394	-62.768	97.283	53.813	-64.262	-57.473	64.593	-3.864	-61.066	-59.007	-55.153	-49.130	134.114	-54.128	-8191	255	
1562.228	1	1	0	0	0.16119	0.14308	0.16963	0.24592	0.10548	0.11543	0.20222	0.070132	0.092047	0.14843	0.11613	0.094682	0.092438	0.20326	0.09919	0.070823	-2.7562	-2.9875	-3.4542	-3.0729	-3.2021	-3.2938	-2.9854	-3.3646	-3.2562	-2.9021	-3.3896	-3.0312	-3.2729	-3.3063	-2.8833	-3.4437	4.702	108.160	187.994	249.867	267.295	197.822	173.323	165.255	118.618	120.840	175.437	-33.190	208.571	-50.091	202.155	70.748	3.8835e-05	0.0019699	0.00029963	769.68	1.5067e-05	2.4703e-05	588.94	273.2	1.7686e-05	2.0703e-05	230.62	74.408	90.553	34.571	1.2772e-05	29.932	0.042609	0.065932	0.018549	1034.3	0.00067356	0.00073485	850.81	356.91	0.00067236	0.00074422	389.65	126.15	151.82	50.916	0.00069128	54.197	205.549	133.977	101.687	-62.819	32.881	34.480	-63.837	-57.610	-64.270	49.002	-60.468	-58.621	-54.982	-49.105	-0.117	-53.735	-8191	255	
1562.324	1	1	0	0	0.11956	0.087867	0.071921	0.23918	0.073724	0.27424	0.058261	0.18774	0.14854	0.17724	0.30974	0.19408	0.10241	0.29969	0.090311	0.18168	-2.7333	-2.9062	-3.2729	-3.225	-3.0708	-3.3667	-3	-3.2729	-3.2146	-3.0375	-3.4688	-3.1188	-3.0104	-3.4708	-3.0646	-3.1979	232.796	216.512	129.216	-43.375	138.728	227.953	214.824	262.003	-8.355	51.567	204.025	267.987	269.422	-3.382	125.160	-10.145	0.00028235	0.0023197	0.00020004	757.23	3.1961e-06	1.608e-05	577.21	269.92	2.2813e-05	1.8459e-05	229.19	74.229	90.587	34.453	3.0528e-05	29.688	0.042239	0.065617	0.018631	1022.5	0.00066608	0.00073315	841.89	353.28	0.00066478	0.00073531	386.32	124.86	150.55	50.798	0.00068727	53.915	197.421	4.727	119.934	-62.543	-44.132	50.480	-64.558	-57.690	-24.392	179.009	-61.620	-58.757	-55.433	-49.731	8.516	-53.788	-8191	255	
1562.420	1	1	0	0	0.29415	0.17677	0.078898	0.35057	0.033149	0.04454	0.086986	0.33482	0.31667	0.15436	0.1913	0.12163	0.45366	0.30312	0.066479	0.091898	-3.0312	-3.0646	-3.4042	-3.0646	-2.9479	-3.6083	-3.0729	-3.1813	-3.4062	-3.0125	-3.5979	-3.0854	-3.1729	-3.5875	-2.8667	-3.0271	-5.994	2.160	-26.928	264.687	147.656	-60.760	231.010	189.533	-22.232	-23.799	260.066	7.197	275.634	-74.527	242.223	261.603	0.00062845	0.0021822	0.00084631	753.7	9.5268e-06	4.6981e-06	581.79	269.93	1.8448e-05	1.2184e-05	232.28	74.013	90.719	34.536	1.3473e-05	29.927	0.041879	0.065232	0.018493	1020.7	0.00066139	0.00073135	839.39	353.38	0.00065792	0.00073422	389.05	125.23	151.63	51.162	0.00069322	54.319	145.640	28.217	79.779	-62.425	85.593	-21.752	-63.733	-57.923	-49.113	144.297	-60.961	-59.300	-54.991	-49.493	45.053	-53.358	-8191	255	
1562.516	1	1	0	0	0.10388	0.13263	0.16935	0.04566	0.1669	0.02738	0.39198	0.23271	0.15573	0.16153	0.098155	0.31429	0.014419	0.11929	0.22425	0.14856	-3.0792	-2.7292	-3.1312	-3.2062	-3.1396	-3.6083	-2.8854	-3.0083	-3.3854	-2.9125	-3.2792	-3.2292	-2.9417	-3.4333	-2.9437	-3.1625	177.261	59.497	-1.766	0.764	-58.974	96.063	190.511	30.406	77.120	-47.679	283.189	-40.856	248.635	181.727	159.734	237.442	0.00038662	0.0019906	0.00068933	757.5	1.9226e-05	3.8634e-05	585.62	274.46	1.5436e-05	2.6052e-05	234.96	76.001	91.409	34.854	3.8925e-05	30.231	0.042544	0.066589	0.018919	1031.6	0.00067548	0.00075024	853.59	356.43	0.00067923	0.0007536	394.61	127.57	154.01	52.048	0.00071133	55.198	78.199	220.280	271.752	-62.841	-41.081	73.326	-64.033	-57.914	44.022	200.771	-60.988	-58.692	-54.811	-49.431	172.512	-53.286	-8191	255	
1562.613	1	1	0	0	0.019142	0.12691	0.060829	0.087483	0.25727	0.06528	0.11505	0.035577	0.10521	0.24061	0.21191	0.080036	0.21086	0.096819	0.12242	0.24316	-3.0521	-2.9188	-3.3021	-3.2062	-2.9437	-3.5521	-2.9458	-3.1583	-3.4042	-2.7479	-3.2854	-3.3688	-3.0187	-3.4062	-2.8542	-2.9667	16.644	108.487	115.045	259.911	253.822	233.889	103.203	60.844	113.062	66.773	163.243	-43.363	-32.835	7.937	129.298	276.976	2.166e-05	0.0031486	0.00099919	767.18	1.2566e-05	5.5346e-06	589.32	274.53	1.4282e-05	1.5096e-05	235.08	76.046	92.075	34.862	2.7005e-06	30.438	0.043773	0.068743	0.019343	1046.2	0.00069019	0.00076962	864.07	360.61	0.00069848	0.00076898	397.31	128.12	154.75	52.037	0.00071184	55.16	213.702	-34.509	272.911	-62.129	75.792	126.392	-63.978	-57.629	247.192	56.651	-60.632	-59.264	-55.640	-49.077	48.453	-53.289	-8191	255	
1562.733	1	1	0	0	0.17768	0.20141	0.14888	0.23124	0.10969	0.249	0.20854	0.33203	0.24815	0.2408	0.1374	0.44624	0.15794	0.13381	0.30239	0.084513	-3.2021	-2.9458	-3.1083	-3.2375	-2.7021	-3.4146	-3.2708	-2.9917	-3.4854	-2.9271	-3.1167	-3.2583	-3.15	-3.4604	-3.1396	-2.9708	-51.519	-50.865	172.422	-68.965	118.932	71.173	-65.333	243.947	215.092	-69.233	249.954	167.364	-47.466	222.749	102.961	249.798	0.00023161	0.0018051	0.00072357	757.26	2.7585e-05	2.5035e-05	583.62	272.15	2.3734e-05	2.131e-05	232.02	74.667	91.643	34.744	2.1693e-05	29.487	0.043731	0.068662	0.019206	1040.3	0.00069583	0.00077241	859.1	358.98	0.00071469	0.00079059	399.13	129.64	157.04	52.49	0.00073648	55.595	143.020	131.142	99.016	-62.736	125.039	28.047	-64.188	-57.601	276.493	284.099	-60.878	-59.242	-55.314	-49.578	31.793	-53.945	-8191	255	
1562.829	1	1	0	0	0.091378	0.26208	0.27115	0.097757	0.18797	0.27341	0.075255	0.13416	0.1023	0.15795	0.14468	0.16244	0.10724	0.21921	0.085263	0.21512	-2.7646	-2.9229	-3.0833	-3.3854	-2.7125	-3.2375	-3.3917	-3.0208	-3.1958	-3.075	-3.0625	-3.4417	-3.0771	-3.3167	-3.0021	-2.7729	169.182	72.636	163.634	-74.282	261.613	235.350	137.300	236.835	83.440	172.319	172.410	199.430	-12.873	258.690	246.744	146.712	0.00026536	0.0020363	0.00072714	752.33	1.9039e-05	1.397e-05	580.58	271.2	2.3566e-05	2.6588e-05	229.78	75.085	90.695	34.893	1.9808e-05	30.04	0.045468	0.070603	0.019547	1044.5	0.00071206	0.00078616	860.2	360.34	0.00073159	0.00080668	403.6	131.31	159.63	53.045	0.00076007	56.575	225.049	230.111	105.698	-62.946	47.131	8.840	-64.159	-57.821	256.257	21.253	-61.090	-59.086	-55.165	-49.559	228.000	-53.581	-8191	255	
1562.926	1	1	0	0	0.23243	0.10804	0.27314	0.24208	0.086012	0.095963	0.10928	0.13853	0.11249	0.095546	0.086573	0.077855	0.15918	0.22513	0.15095	0.019877	-3.0667	-2.9375	-3.1021	-3.4437	-2.8417	-3.0667	-3.2333	-3.0146	-3.3125	-2.9146	-2.8479	-3.3646	-3.0708	-3.2771	-3.175	-3.1188	267.437	278.648	31.451	-75.567	128.854	-13.066	193.339	129.938	-20.122	212.578	168.656	242.298	275.631	250.702	-15.548	263.236	0.00028675	0.0033982	0.00081161	759.47	4.0506e-06	4.8064e-05	583.61	273.52	1.2392e-05	2.8524e-05	232.64	76.145	92.576	34.681	2.9059e-05	30.509	0.046718	0.071916	0.019857	1055.2	0.00072073	0.00078634	863.71	361.51	0.00072134	0.00079253	402.17	131.28	158.85	52.696	0.00074433	56.373	218.113	104.210	267.696	-62.456	184.618	268.247	-63.933	-57.921	215.207	263.859	-60.798	-59.479	-54.994	-49.338	159.941	-53.679	-8191	255	
1563.022	1	1	0	0	0.13789	0.042393	0.038525	0.12814	0.04817	0.093017	0.10529	0.18223	0.14406	0.28724	0.13342	0.2771	0.17531	0.10495	0.14096	0.22766	-3.0583	-2.8583	-2.8438	-3.5646	-2.8479	-3.1917	-3.2542	-3.0438	-3.4479	-3.1417	-2.9521	-3.6375	-3.1625	-3.0896	-3.3438	-2.9417	279.271	257.743	252.349	218.641	-34.171	-10.646	206.627	257.048	232.534	-47.209	-29.590	276.141	81.102	187.342	71.036	74.835	0.00036243	0.0020206	0.00065113	762.92	1.384e-05	3.14e-05	590.47	275.75	7.0818e-06	2.4885e-05	234.58	76.817	93.496	35.194	6.9975e-06	30.601	0.045829	0.070439	0.019621	1055.7	0.0007159	0.00078322	871.07	364.78	0.00073064	0.00080129	408.17	134.04	161.15	53.374	0.00075918	57.096	152.032	41.013	103.547	-62.403	-37.720	189.538	-63.916	-57.779	180.143	-37.032	-61.583	-59.318	-55.286	-49.848	-17.356	-53.441	-8191	255	
1563.118	1	1	0	0	0.17386	0.09069	0.08162	0.22506	0.10777	0.1494	0.14519	0.11931	0.17748	0.10698	0.10093	0.049767	0.067232	0.062487	0.13389	0.16864	-3.0896	-2.9	-2.9854	-3.4875	-2.9833	-3.1708	-3.4083	-3.0125	-3.2167	-3.0167	-3.0375	-3.4104	-3.0729	-3.15	-3.5083	-3.2333	143.591	221.454	207.486	230.423	212.928	227.090	280.163	110.608	176.170	-74.838	204.132	165.211	63.932	82.433	84.544	61.842	0.00026582	0.0018457	0.0010762	760.62	2.5954e-05	1.0154e-05	584.84	271.67	1.0314e-05	2.0664e-05	229.23	75.581	92.137	34.463	1.6293e-05	29.835	0.046398	0.071756	0.020051	1060.1	0.00072613	0.00079685	869.05	363.88	0.00072799	0.00079846	402.79	131.81	158.59	52.478	0.00075788	56.15	23.854	-22.410	207.021	-62.687	102.907	194.110	-64.169	-57.740	29.783	173.139	-61.229	-59.222	-54.954	-49.409	271.316	-53.634	-8191	255	
1563.214	1	1	0	0	0.17138	0.17894	0.14734	0.34775	0.053376	0.29433	0.10112	0.11092	0.27119	0.21573	0.069991	0.31616	0.24625	0.16971	0.09839	0.12691	-2.9083	-3.1979	-2.7667	-3.6333	-3.3229	-3.2687	-3.3854	-3.175	-3.1312	-3.275	-3.0646	-3.4833	-3.1271	-3.2083	-3.4625	-2.8417	168.871	156.975	167.924	237.783	6.665	63.294	188.219	196.592	65.499	-41.317	276.216	60.794	242.443	-73.385	102.132	-4.521	3.6524e-06	0.0014733	0.00058443	754.83	1.2439e-05	2.2098e-05	572.02	269.92	3.7686e-05	8.2587e-06	229.96	74.171	90.991	34.664	2.763e-05	29.619	0.045669	0.070962	0.019887	1049.4	0.00071246	0.00078168	857.71	359.22	0.00070894	0.00078342	396.77	128.94	155.44	51.781	0.0007311	55.084	241.137	1.014	53.110	-62.729	133.908	8.129	-64.606	-57.505	-31.064	61.934	-61.147	-59.361	-55.450	-49.495	89.388	-53.765	-8191	255	
1563.333	1	1	0	0	0.20603	0.11047	0.17016	0.22521	0.14314	0.13331	0.11627	0.21214	0.16109	0.2538	0.059406	0.21089	0.21732	0.064586	0.15493	0.15694	-2.7292	-3.1688	-2.9313	-3.3792	-3.1312	-2.8917	-3.5187	-2.9542	-3.0229	-3.5458	-3.0479	-3.4771	-3.0396	-3.0458	-3.5625	-3.1333	31.781	206.721	114.371	263.502	64.860	130.053	275.770	241.068	119.850	-33.001	177.001	-71.990	199.359	138.751	-41.647	97.479	0.00021945	0.0013126	0.00028445	754.68	1.1865e-05	1.9012e-05	574.82	271.74	1.697e-05	2.247e-05	230.73	74.48	91.521	34.699	4.0355e-05	29.997	0.043963	0.068314	0.019264	1039.8	0.00068641	0.00076195	851.74	357	0.00068909	0.00077375	394.78	127.43	154.59	51.724	0.0007297	55.009	235.353	56.247	265.579	-62.358	189.587	-46.654	-63.737	-57.625	-35.886	274.879	-61.136	-59.082	-55.007	-49.092	39.644	-53.403	-8191	255	
1563.429	1	1	0	0	0.14088	0.062353	0.042957	0.29134	0.027668	0.082473	0.16188	0.23596	0.10139	0.21729	0.16559	0.3886	0.1602	0.31708	0.052747	0.12388	-2.7771	-3.3604	-2.6875	-3.3875	-3.2042	-2.9562	-3.6167	-3.2125	-2.9417	-3.2938	-2.8583	-3.4583	-3.3312	-2.6396	-3.2542	-3.3167	132.438	187.035	59.885	273.961	-50.499	189.912	225.389	180.425	98.226	-53.218	229.464	-74.746	-11.736	255.910	-28.385	-1.067	0.00039227	0.001273	0.0010788	762.34	1.9454e-05	2.6512e-05	586.45	270.72	2.2353e-05	2.4013e-05	233.01	75.386	91.656	34.794	2.2581e-05	30.025	0.043799	0.068713	0.019298	1043	0.00068912	0.00076714	859.43	358.78	0.00069804	0.00079242	401.78	129.88	157.54	52.868	0.00075008	55.994	-17.003	37.289	4.978	-62.675	92.736	-63.670	-64.105	-57.644	-54.294	-11.308	-61.363	-58.745	-55.105	-49.582	176.320	-54.057	-8191	255	
1563.525	1	1	0	0	0.14179	0.086336	0.14864	0.077294	0.15625	0.21057	0.15187	0.14644	0.057163	0.16132	0.14601	0.14161	0.035471	0.064898	0.18001	0.25362	-2.7333	-3.3333	-2.8625	-3.275	-3.2417	-2.9792	-3.5812	-3.1958	-2.825	-3.4958	-2.9	-3.3208	-3.4021	-2.7792	-3.4792	-3.1375	82.781	193.887	66.740	225.976	39.811	-44.135	59.090	186.224	106.241	191.987	213.243	-24.262	-75.408	272.674	252.531	180.202	0.00066189	0.00046689	0.00059466	768.32	2.2517e-05	1.8245e-05	589.89	272.95	2.3799e-05	2.8687e-05	228.15	73.716	90.053	34.572	2.9264e-05	29.705	0.045081	0.07061	0.019459	1048.8	0.000692	0.00076205	852.17	355.85	0.00067801	0.00076219	391	125.19	152.65	51.372	0.00070727	54.002	250.470	116.036	40.286	-62.367	30.131	-62.306	-63.953	-57.442	194.781	68.087	-61.280	-58.987	-55.409	-49.631	265.185	-53.853	-8191	255	
1563.621	1	1	0	0	0.12532	0.15673	0.16951	0.13606	0.23375	0.050731	0.20975	0.14236	0.062456	0.13931	0.098125	0.11089	0.088312	0.24691	0.13274	0.037769	-2.4542	-3.4792	-2.9521	-3.3146	-3.2562	-2.9792	-3.3958	-3.3708	-2.8917	-3.375	-2.925	-3.125	-3.4083	-3.0646	-3.2229	-3.3125	-17.787	-56.510	278.785	25.835	250.851	-25.109	30.929	167.642	123.463	36.101	-6.137	13.676	183.780	161.220	120.901	81.861	0.00039655	0.0027999	0.00037882	757.26	4.6726e-06	1.5532e-05	572.85	267.32	1.0704e-05	2.2118e-05	227.19	73.485	90.092	34.695	1.0785e-05	29.625	0.043233	0.06761	0.018689	1028.3	0.00068792	0.00075532	841.29	352.2	0.0006753	0.00075543	384.23	123.68	151.37	50.93	0.00068532	53.216	-45.213	195.163	80.576	-62.643	168.871	85.206	-64.095	-57.411	32.054	164.334	-61.301	-58.680	-54.813	-49.122	-30.778	-53.767	-8191	255	
1563.717	1	1	0	0	0.23073	0.051501	0.063578	0.3544	0.068386	0.31994	0.18101	0.069727	0.10697	0.18765	0.081241	0.27653	0.18183	0.17677	0.21049	0.085858	-2.4854	-3.3729	-2.8354	-3.2167	-3.3625	-3.0083	-3.2146	-3.3833	-2.8125	-3.2875	-3.2771	-3.1583	-3.35	-2.9125	-3.2375	-3.1708	269.619	-62.283	-4.054	245.594	125.451	108.185	214.429	-64.543	51.554	175.708	225.212	180.957	-48.694	-3.760	228.503	-71.394	0.00027833	0.00079532	0.00080429	764.51	2.4302e-05	1.1005e-05	579.74	270.39	7.0983e-06	2.3276e-05	230.89	73.345	91.495	34.758	2.1603e-05	29.881	0.041917	0.065046	0.017816	1018.4	0.00066286	0.00072492	832.57	350.84	0.00066053	0.00073866	384.28	124.07	152.23	51.089	0.00068544	53.681	171.394	47.604	247.198	-62.697	197.769	-2.125	-64.369	-57.686	-59.355	13.183	-60.738	-59.025	-54.805	-49.170	226.540	-53.684	-8191	255	
1563.814	1	1	0	0	0.14899	0.080569	0.33065	0.079155	0.13167	0.29865	0.13687	0.13201	0.23762	0.16702	0.12651	0.20207	0.074406	0.064211	0.056528	0.17253	-2.3229	-3.4167	-3.0938	-3.0687	-3.3167	-3.0646	-3.3917	-3.3375	-3.0396	-3.275	-3.1042	-3.0167	-3.5354	-3.1854	-3.1667	-3.2167	219.965	243.949	0.482	279.943	-22.081	46.054	223.220	233.520	260.602	189.474	201.867	272.459	59.094	-69.706	-61.676	112.375	0.00022711	0.0014776	0.00048653	762.79	1.3232e-05	1.9721e-05	589.32	275.77	2.0402e-05	4.3985e-06	233.7	74.663	92.82	35.344	2.9225e-05	30.196	0.042052	0.064719	0.017879	1021.9	0.00066267	0.00071756	837.37	353.41	0.00065461	0.00073154	385.59	124.94	152.63	51.163	0.00067773	54.14	231.023	-0.849	-25.875	-62.585	176.874	27.023	-63.950	-57.479	-61.316	241.959	-61.337	-58.341	-54.670	-48.754	43.130	-53.683	-8191	255	
1563.910	1	1	0	0	0.077723	0.049652	0.2529	0.17178	0.3952	0.14185	0.18517	0.40929	0.27004	0.10757	0.097743	0.086052	0.24757	0.15916	0.23047	0.30223	-2.4688	-3.2833	-3.1333	-2.8688	-3.5208	-3.0438	-3.3854	-3.3417	-2.6896	-3.5	-3.2667	-2.8667	-3.6729	-2.9646	-3.1583	-3.5979	172.647	163.947	262.564	215.568	-58.610	229.678	247.691	284.126	-72.272	163.686	85.036	-56.847	257.720	209.342	195.869	249.887	0.00028631	0.0021959	0.00096944	771.56	5.2285e-06	8.7791e-06	592.88	275.29	1.0827e-05	1.606e-05	233.32	74.67	92.271	35.024	1.8698e-05	29.698	0.041976	0.064363	0.017872	1029.6	0.00065688	0.00070501	838.21	353.9	0.00064224	0.00071085	383.29	123.67	150.48	50.591	0.00066571	53.676	39.985	265.160	73.124	-62.271	-46.351	126.836	-64.293	-57.636	-50.900	132.186	-60.950	-58.741	-55.157	-49.535	224.083	-53.438	-8191	255	
1564.006	1	1	0	0	0.16515	0.15375	0.021768	0.034971	0.1377	0.2096	0.073656	0.036199	0.18045	0.086448	0.42936	0.14425	0.16856	0.071796	0.031233	0.13751	-2.4562	-3.1083	-3.2417	-2.9417	-3.3458	-3.0438	-2.8771	-3.6354	-3.0021	-3.2958	-3.3833	-2.9271	-3.5292	-3.2333	-2.9958	-3.6125	-70.539	197.581	-64.726	90.042	65.311	111.762	69.318	256.662	112.944	17.205	274.552	267.787	246.721	174.845	276.272	-25.193	0.00054466	0.0032138	0.00052469	766.52	2.1716e-05	7.3217e-06	583.23	270.31	1.6611e-05	2.9879e-05	230.42	74.003	90.74	34.448	2.9571e-05	29.69	0.041506	0.064241	0.018028	1026.1	0.000661	0.00071602	835.18	351.69	0.00064991	0.0007204	382.94	123.87	150.25	50.404	0.00067732	53.618	-52.657	91.854	-30.484	-62.797	7.716	-2.194	-64.123	-57.341	58.852	82.304	-61.269	-58.606	-55.249	-49.035	123.240	-53.388	-8191	255	
1564.125	1	1	0	0	0.31239	0.20605	0.083614	0.2546	0.22933	0.13782	0.067714	0.014338	0.094379	0.097765	0.14376	0.13169	0.10963	0.21678	0.13935	0.071273	-2.5479	-3.0979	-3.3854	-2.7729	-3.2896	-3.1542	-3.0583	-3.4	-3.0479	-3.2646	-3.3937	-3.0042	-3.3979	-3.2333	-2.8333	-3.4938	182.060	164.301	222.241	256.915	-66.155	179.288	251.378	-37.308	-4.804	265.247	-73.389	16.342	244.422	261.542	16.592	207.163	0.00020272	0.0025713	0.00060996	763.19	4.3367e-06	7.8037e-06	582.86	271.13	3.2356e-06	1.8015e-05	232.11	74.727	91.317	34.705	1.8725e-05	30.123	0.041432	0.064493	0.018167	1025	0.00066965	0.00073063	844.17	355.33	0.0006701	0.00074736	393.17	127.12	154.48	51.629	0.00071825	55.289	145.300	-1.431	126.866	-62.777	127.611	73.054	-63.896	-57.560	166.731	203.291	-61.990	-59.343	-55.587	-49.396	206.762	-53.695	-8191	255	
1564.198	1	1	0	0	0.2245	0.14697	0.19336	0.23754	0.24299	0.30399	0.30579	0.098591	0.12614	0.069004	0.1426	0.29008	0.12719	0.12743	0.15796	0.080001	-2.7417	-3.2062	-3.3979	-2.8438	-3.3458	-3.1875	-3.2188	-3.5438	-3.3	-3.0542	-3.4646	-3.0146	-3.2667	-3.4083	-3.0062	-3.3854	241.013	172.559	-73.144	-24.482	77.303	34.193	-74.453	197.138	149.205	-6.178	-72.732	186.748	-28.388	228.735	-51.102	16.797	0.00018589	0.0033125	0.00060284	766.94	1.8325e-05	3.5514e-06	580.71	272.77	2.8589e-05	9.4023e-06	229.86	74.288	91.424	34.888	1.9792e-05	30.246	0.043507	0.06779	0.019021	1039.1	0.00067847	0.00074303	848.14	355.28	0.00066137	0.00073302	389.08	124.87	150.47	50.901	0.00067657	53.699	15.092	175.455	57.042	-62.606	-25.046	144.924	-63.917	-57.529	141.452	193.643	-61.319	-58.020	-54.872	-49.362	98.564	-53.455	-8191	255	
1564.294	1	1	0	0	0.078759	0.13985	0.092854	0.29819	0.041893	0.26643	0.19277	0.14845	0.18576	0.094066	0.11373	0.18718	0.05828	0.39378	0.21001	0.11327	-2.8271	-2.8229	-3.2917	-3.0667	-3.1	-3.0563	-3.1021	-3.3187	-3.1312	-3.1979	-3.5938	-2.8646	-3.3104	-3.5375	-2.9167	-3.2479	51.078	42.386	194.915	224.509	-48.549	190.615	-66.529	266.056	277.724	278.403	47.839	80.042	88.075	274.863	-27.357	102.706	4.3745e-05	0.0015089	0.00042815	768.56	8.2804e-06	1.9532e-05	590.6	273.17	1.0183e-05	1.6352e-05	236.05	75.678	92.32	35.281	6.1708e-06	30.106	0.040987	0.0646	0.018196	1029.4	0.00065775	0.00073645	852.48	355.48	0.00065918	0.00074345	394.22	126.37	152.8	51.734	0.00069765	54.557	165.814	6.124	79.278	-62.667	220.133	103.104	-64.400	-57.517	105.238	248.428	-61.508	-59.046	-54.720	-49.353	169.809	-53.209	-8191	255	
1564.413	1	1	0	0	0.31141	0.29701	0.15375	0.166	0.12801	0.051427	0.10001	0.087081	0.091053	0.20965	0.28453	0.20162	0.20818	0.10518	0.083505	0.19498	-2.5604	-2.9271	-3.3417	-3.0563	-3.1354	-3.3229	-3.0604	-3.3729	-2.8979	-3.0062	-3.5	-3.2167	-3.0833	-3.4104	-2.9562	-3.4583	54.871	30.401	266.203	228.391	204.137	162.479	176.633	121.595	95.383	21.149	196.749	10.594	243.845	94.998	18.145	47.659	0.00026903	0.0021575	0.00058787	765.94	1.5336e-05	2.4102e-05	583.99	270.54	1.3819e-05	2.0148e-05	228.37	74.147	90.905	34.732	2.4337e-05	29.525	0.04238	0.06721	0.018747	1034.7	0.00067833	0.00076319	853.97	356.56	0.00069352	0.00078399	398.95	128.76	157.33	52.722	0.00075261	56.092	73.872	238.620	-53.313	-62.829	227.713	201.076	-64.358	-57.531	19.048	-58.430	-60.964	-59.122	-55.500	-49.452	139.666	-54.363	-8191	255	
1564.509	1	1	0	0	0.077938	0.091309	0.1843	0.13801	0.27175	0.25616	0.086958	0.082646	0.10364	0.12343	0.18355	0.18089	0.02714	0.09453	0.12509	0.32643	-2.7521	-2.9208	-3.375	-2.9896	-3.1729	-3.5042	-2.8417	-3.4896	-3.3146	-2.8792	-3.4437	-3.1396	-3.2292	-3.3875	-2.8625	-3.3917	190.012	-7.053	-66.502	25.396	156.530	135.013	83.044	-36.096	135.339	27.438	209.937	261.012	116.603	174.352	101.798	171.431	0.00035897	0.0033503	0.0010162	759.28	2.9267e-05	2.5883e-05	574.12	269.58	2.5393e-05	1.9598e-05	229.41	73.6	91.134	34.555	1.9966e-05	29.409	0.046268	0.072913	0.020149	1053.9	0.00072871	0.00081187	860.68	358.72	0.00071319	0.00079286	395.57	127.27	155.3	51.921	0.00071375	54.572	27.357	61.847	25.821	-62.497	249.616	79.047	-63.741	-57.683	-21.064	-64.673	-60.983	-58.989	-55.105	-49.644	236.312	-53.776	-8191	255	
1564.606	1	1	0	0	0.24744	0.076138	0.15343	0.20242	0.30801	0.087986	0.091694	0.31917	0.2198	0.16223	0.16938	0.19131	0.15574	0.14327	0.28636	0.14008	-2.7875	-2.8812	-3.3312	-3.1833	-3.1146	-3.4604	-3.0771	-3.1521	-3.2146	-2.9	-3.4083	-2.9792	-3.0146	-3.5229	-2.8063	-3.2438	191.120	276.746	-48.730	228.611	196.585	234.626	-43.204	-70.480	80.554	-71.182	172.891	-61.000	217.946	92.331	18.596	275.811	0.00052023	0.0025988	0.00056214	765.12	1.2447e-05	2.0515e-05	578.67	271.04	1.8692e-05	2.7877e-05	231.98	73.53	91.953	35.148	2.6579e-05	29.785	0.04415	0.068633	0.018838	1036.1	0.00069042	0.00076812	847.16	355.59	0.00069312	0.00076967	393.62	127.15	155.35	52.034	0.00070341	54.482	153.537	69.509	263.577	-62.233	67.273	153.376	-63.740	-57.618	-16.784	-45.177	-60.730	-58.736	-55.011	-49.011	-32.718	-54.055	-8191	255	
1564.702	1	1	0	0	0.093962	0.086248	0.35702	0.1895	0.18507	0.11699	0.19843	0.057488	0.12592	0.17455	0.34097	0.29759	0.041833	0.2476	0.068608	0.2508	-2.9375	-2.7562	-3.3375	-3.1958	-2.8271	-3.3792	-2.9854	-3.2479	-3.2313	-2.8896	-3.3646	-3.1104	-2.7833	-3.5896	-2.9979	-3.0271	177.395	4.102	214.431	-47.190	-70.241	1.230	131.949	162.844	112.944	79.822	272.942	15.363	158.970	250.061	176.200	204.906	0.00030413	0.0025629	0.00056776	762.18	1.2787e-05	1.3855e-05	584.71	274.12	1.4887e-05	1.4078e-05	232.88	74.992	91.554	35.231	2.4416e-05	30.612	0.043744	0.067071	0.018341	1025.1	0.00066583	0.00073304	836.64	353.27	0.00066094	0.0007313	388.51	125.9	153.39	51.789	0.00069627	54.878	151.620	241.255	54.041	-62.886	-56.283	257.170	-63.882	-57.767	-44.499	40.094	-61.341	-58.311	-54.836	-49.373	238.859	-53.823	-8191	255	
1564.822	1	1	0	0	0.18239	0.38974	0.154	0.28245	0.18216	0.23696	0.16857	0.18625	0.0029506	0.066581	0.029931	0.15986	0.28069	0.059963	0.2118	0.058765	-3.0104	-2.9583	-3.275	-3.2104	-2.9479	-3.4771	-3.0958	-3.1688	-3.3458	-2.7958	-3.2313	-3.3563	-2.9188	-3.5667	-2.9208	-3.2146	28.446	153.756	257.422	267.225	273.882	27.482	-60.825	-55.598	76.508	123.012	99.220	272.636	-53.988	-68.381	89.718	148.529	5.4651e-05	0.0036595	0.00062072	762.77	1.8083e-05	1.6889e-05	580.38	272.63	7.4103e-06	2.1629e-05	229.77	73.916	90.655	34.944	3.0077e-05	29.418	0.043842	0.067235	0.018493	1036	0.00067879	0.00074165	841.29	354.61	0.00066983	0.0007315	385.64	125.16	152.09	51.039	0.00068474	53.825	-11.310	45.501	-55.181	-62.788	-36.271	25.698	-63.997	-57.675	235.879	105.218	-60.713	-58.595	-55.497	-49.833	94.794	-53.250	-8191	255	
1564.894	1	1	0	0	0.089184	0.26104	0.21605	0.16113	0.068989	0.21183	0.076923	0.30435	0.057184	0.22685	0.089755	0.016524	0.09905	0.35695	0.16551	0.25486	-3.0271	-3.0292	-3.1729	-3.3521	-3.0021	-3.4458	-3.2167	-3.0333	-3.3771	-2.9208	-3.1979	-3.2979	-2.8229	-3.3104	-3.3042	-3.1437	281.286	187.063	-13.936	172.028	221.158	-40.974	197.752	211.544	242.492	-14.817	17.007	0.914	185.210	217.522	119.469	132.972	6.3914e-05	0.00044947	0.0011574	752.41	1.9154e-05	1.1751e-05	573.63	268.63	8.6796e-06	7.0165e-06	225.12	74.179	91.456	34.957	6.388e-06	29.246	0.042914	0.065001	0.018284	1021.1	0.00067053	0.00073709	833.65	352.85	0.00067808	0.00074985	388.98	128.06	154.95	51.772	0.00072779	55.412	-9.130	127.560	21.455	-62.816	183.318	227.744	-63.482	-57.677	-27.292	157.950	-61.047	-59.401	-54.994	-49.155	268.883	-53.551	-8191	255	
1565.015	1	1	0	0	0.077292	0.22945	0.16231	0.14698	0.12257	0.10065	0.070231	0.32552	0.14863	0.2192	0.077164	0.0484	0.16375	0.14871	0.034537	0.0052419	-3.0083	-2.9375	-3.1688	-3.2562	-2.925	-3.3646	-2.9792	-2.9771	-3.4021	-2.9708	-3.3354	-3.275	-3.0271	-3.7083	-3.2146	-2.9938	24.262	235.964	11.053	-26.691	114.965	212.042	165.531	199.157	-28.109	31.459	186.549	-71.800	59.273	-61.875	190.516	162.631	0.00070884	0.0017689	0.00096784	754.66	1.1273e-06	2.1995e-05	574.89	269.91	1.6596e-05	8.3563e-06	227.91	75.461	91.985	34.463	2.7487e-05	29.462	0.045439	0.069374	0.019493	1044.6	0.00070519	0.00077409	854.59	358.68	0.00070236	0.00077777	397.49	130.3	157.11	52.047	0.00073863	55.493	110.145	170.284	63.640	-62.537	-38.513	-66.224	-64.333	-57.247	214.854	-19.523	-61.550	-59.459	-55.467	-49.710	194.451	-54.055	-8191	255	
1565.111	1	1	0	0	0.2416	0.24669	0.042679	0.071817	0.063791	0.10256	0.091676	0.34349	0.13931	0.057375	0.36619	0.073912	0.21519	0.11217	0.13645	0.38595	-3.2021	-3.0438	-3.2917	-3.5104	-2.9521	-3.3563	-3.3187	-3.1208	-3.4271	-2.925	-3.1958	-3.4229	-3.0062	-3.225	-3.1875	-3.0458	-75.276	-72.419	32.591	-24.477	-7.837	-73.566	279.899	266.233	204.097	198.790	235.308	-6.954	31.405	225.993	223.403	226.245	0.00016038	0.0018131	0.00059783	765.44	1.2514e-05	1.2852e-05	580.93	272.23	1.5891e-05	1.0195e-05	230.54	73.953	90.979	34.92	2.1924e-05	30.204	0.044983	0.06905	0.019346	1043.3	0.00068107	0.00074545	846.07	354.37	0.00065512	0.00072471	385.32	124.64	150.56	50.901	0.00067866	53.558	-9.947	15.247	34.742	-62.433	-72.306	209.274	-64.545	-57.679	88.173	25.226	-60.928	-59.291	-55.072	-49.316	280.318	-53.579	-8191	255	
1565.205	1	1	0	0	0.064975	0.21856	0.14357	0.052945	0.33625	0.18281	0.031372	0.14595	0.09723	0.11632	0.13833	0.048637	0.07871	0.23132	0.12502	0.14185	-3.0333	-3.1729	-2.9292	-3.5458	-2.9104	-3.1937	-3.3125	-2.9	-3.2896	-3.4146	-3.1562	-3.4583	-3.0021	-3.375	-3.1875	-3.025	280.480	102.478	93.213	283.703	-25.514	-21.410	47.481	-57.154	173.921	-75.665	22.973	194.405	283.231	-72.302	277.902	269.022	0.00035411	0.0016996	0.00080835	771.16	8.2398e-06	5.4581e-06	592.47	273.53	1.3089e-05	3.2528e-05	231.61	72.84	90.392	34.892	2.7986e-05	29.686	0.041666	0.064529	0.018107	1029.7	0.00064738	0.00071982	845.14	353.36	0.00064703	0.00072194	383.86	122.76	148.58	50.553	0.0006661	52.203	157.440	259.915	120.512	-62.383	178.956	17.515	-64.456	-57.715	-31.200	86.160	-61.510	-58.905	-55.221	-49.198	55.279	-53.386	-8191	255	
1565.301	1	1	0	0	0.072461	0.14981	0.15703	0.20672	0.11023	0.18672	0.37105	0.083495	0.11926	0.31623	0.026985	0.3086	0.10579	0.1708	0.097163	0.044328	-2.8521	-3.075	-3.0229	-3.3917	-2.9813	-3.0208	-3.4125	-3.0167	-2.9792	-3.2438	-3.1375	-3.5563	-3.0333	-3.3438	-3.475	-2.7917	237.479	96.277	81.710	246.693	264.167	247.364	255.809	86.609	-63.577	252.773	-41.564	225.890	94.834	226.833	55.362	184.996	0.00046297	0.00093583	0.00083484	769.36	3.7942e-06	1.035e-05	576.38	269.23	5.2063e-06	1.7558e-05	224.61	70.585	88.912	34.652	1.9708e-05	29.063	0.040287	0.062266	0.017346	1009.8	0.00061451	0.00068276	819.29	342.87	0.00061045	0.00068308	369.89	117.69	144.34	49.447	0.0006338	50.783	88.184	166.762	69.127	-62.376	-45.571	93.024	-64.313	-57.344	73.981	231.186	-60.710	-58.467	-55.081	-48.949	-74.575	-53.610	-8191	255	
1565.422	1	1	0	0	0.32132	0.22632	0.2649	0.10267	0.13268	0.012038	0.27421	0.13113	0.1552	0.13998	0.14854	0.17263	0.033294	0.15453	0.21148	0.096067	-2.8146	-3.2146	-2.9854	-3.4813	-3.1	-3.0917	-3.325	-3.0354	-3.1333	-3.275	-2.8625	-3.4521	-3.1104	-3.0542	-3.4729	-3.0271	277.661	191.629	-36.211	224.033	280.441	-18.878	-23.454	228.478	116.100	113.097	-9.441	242.387	203.286	208.780	40.372	268.485	0.00033969	0.0010865	0.00021039	771.21	1.4041e-05	1.9379e-05	582.85	271.24	2.9168e-05	3.4524e-05	226.05	71.285	90.33	34.899	2.9162e-05	29.534	0.038429	0.060273	0.016641	997.5	0.00058779	0.00065401	804.72	339.92	0.00058079	0.00065005	361.83	115.37	142.16	49.087	0.00060145	50.291	119.008	122.637	281.941	-62.564	201.344	-44.518	-63.682	-57.341	4.400	-21.878	-61.348	-58.128	-54.498	-48.799	149.988	-53.411	-8191	255	
1565.494	1	1	0	0	0.28853	0.19453	0.089339	0.16044	0.11657	0.14428	0.078812	0.068348	0.10593	0.13153	0.19712	0.20759	0.14402	0.070672	0.032779	0.076895	-2.7938	-3.2542	-2.9021	-3.4583	-3.0563	-2.7708	-3.475	-3.1417	-3.1667	-3.3583	-2.8875	-3.1208	-3.2042	-2.8292	-3.3979	-2.9646	257.243	141.663	173.287	253.077	191.382	232.722	-64.392	163.576	249.493	12.027	244.400	229.863	80.277	-60.586	132.100	-13.608	0.00015658	0.0012779	0.0006395	775.73	2.4619e-07	1.6295e-05	588.23	274	2.3766e-05	2.775e-05	231.49	71.843	90.808	35.312	5.961e-06	29.912	0.036813	0.057888	0.015884	995.67	0.00057791	0.00063939	805.85	340.57	0.00057568	0.00064189	362.48	115.15	142.4	49.129	0.00059031	50.344	234.475	249.327	22.956	-62.966	67.624	-51.786	-64.226	-57.423	263.868	75.062	-61.146	-58.480	-54.419	-48.876	124.275	-53.643	-8191	255	
1565.590	1	1	0	0	0.30696	0.15929	0.12556	0.20688	0.079821	0.11118	0.23584	0.13511	0.19627	0.22657	0.16297	0.10345	0.16408	0.056947	0.38485	0.18998	-2.7083	-3.2771	-2.8792	-3.425	-2.9479	-2.6708	-3.4562	-3.1583	-2.9542	-3.2979	-2.9188	-3.5604	-3.1562	-2.8396	-3.3729	-3.0875	25.534	237.312	116.843	-65.141	94.619	248.813	179.729	272.956	137.646	-28.193	227.530	247.526	122.707	-21.950	281.761	15.266	0.00010688	0.0018966	0.00046808	783.58	9.4865e-06	6.0418e-06	592.62	275.75	3.5342e-05	1.4218e-05	232.78	72.651	90.176	35.644	1.4683e-05	30.061	0.036543	0.057788	0.015739	1000.8	0.00058119	0.00064451	812.58	344.28	0.00059481	0.00066167	370.24	118.01	145.8	49.915	0.0006177	51.641	-36.753	-60.950	-47.179	-62.767	-14.974	142.484	-64.313	-57.733	161.419	21.247	-60.838	-58.696	-54.669	-49.012	-50.645	-53.189	-8191	255	
1565.686	1	1	0	0	0.21695	0.099303	0.14819	0.080353	0.19754	0.12318	0.092062	0.091855	0.18491	0.12162	0.41635	0.024533	0.40354	0.15495	0.10798	0.19653	-2.5958	-3.4792	-2.9292	-3.1375	-3.3563	-3.0938	-3.3979	-3.1354	-3.1229	-3.4125	-3.1167	-3.225	-3.2438	-3.0375	-3.3417	-3.1542	250.522	77.427	199.581	213.952	67.194	26.340	192.344	254.211	-59.919	167.730	-3.814	121.971	166.386	239.887	19.815	264.436	0.00015009	0.0015184	0.00022174	780.43	1.6116e-05	1.2202e-05	583.23	272.4	1.1817e-05	1.1604e-05	227.89	70.902	90.618	35.368	1.3779e-05	29.27	0.038347	0.059675	0.016321	1003.5	0.00058956	0.00064524	804.54	341.58	0.00058589	0.00064255	362.08	115.8	143.77	49.107	0.00060807	50.825	89.354	40.497	26.531	-62.334	283.558	134.061	-64.308	-57.604	-4.380	154.341	-61.148	-58.574	-54.967	-48.895	189.960	-53.001	-8191	255	
1565.807	1	1	0	0	0.18655	0.09192	0.0057497	0.16266	0.13691	0.26323	0.25985	0.19555	0.17862	0.063987	0.16215	0.13958	0.26735	0.024736	0.13909	0.13096	-2.6604	-3.3729	-2.9354	-3.3083	-3.3729	-2.7917	-3.4479	-3.3063	-2.7792	-3.4479	-2.8583	-3.1708	-3.375	-3.0146	-3.2083	-3.1854	262.857	134.777	252.824	261.430	131.133	161.471	180.625	239.371	86.128	140.118	58.640	-71.655	-38.104	22.627	-20.752	231.739	0.00049379	0.0025234	0.0012687	767.24	1.4853e-05	3.1467e-05	576.65	273.38	8.1405e-06	1.7662e-05	227.79	71.704	90.183	35.181	1.4062e-05	29.838	0.038097	0.059078	0.016241	1000.4	0.00059492	0.00064529	804.23	342.5	0.00058439	0.00064358	363.02	115.82	143.97	49.112	0.00061087	51.119	196.495	-4.293	92.339	-62.441	155.048	54.855	-64.424	-57.848	226.343	156.200	-61.498	-58.552	-54.804	-49.014	-66.136	-53.423	-8191	255	
1565.903	1	1	0	0	0.17214	0.20054	0.15959	0.1704	0.28062	0.18409	0.065928	0.11631	0.022664	0.088891	0.34572	0.31254	0.14214	0.080345	0.17927	0.13214	-2.5875	-3.3833	-2.9667	-3.3354	-3.1083	-2.5458	-3.5208	-3.1396	-2.975	-3.4437	-2.8979	-2.9979	-3.3917	-2.7479	-3.2604	-3.2854	4.055	-23.513	223.521	227.695	107.698	109.892	156.213	248.855	178.291	-51.837	262.874	220.478	152.091	152.740	213.314	153.929	0.00032056	0.002053	0.00049651	774.74	1.8732e-05	2.786e-05	584.56	273.97	1.9915e-05	1.8492e-05	230.82	72.487	91.904	35.504	1.806e-05	30.081	0.03802	0.058954	0.016478	1008.4	0.00060085	0.00065332	812.71	346.5	0.00059732	0.00066166	370.21	118.83	146.74	49.985	0.00063211	52.036	98.572	-38.733	35.700	-62.755	88.626	16.802	-64.215	-57.652	148.693	95.981	-61.330	-58.766	-54.760	-48.608	-33.094	-53.477	-8191	255	
1565.999	1	1	0	0	0.21441	0.15984	0.22656	0.18863	0.19555	0.13118	0.063759	0.17943	0.13947	0.040156	0.28545	0.16634	0.31998	0.26014	0.066521	0.31102	-2.4917	-3.4292	-3.0542	-3.1083	-3.5333	-2.7438	-3.3354	-3.3563	-2.9708	-3.3937	-3.2938	-3.1958	-3.325	-3.0292	-3.3042	-3.4521	92.094	165.759	69.142	235.430	276.106	128.463	8.064	-50.368	140.141	179.540	-7.414	-24.984	216.838	-59.656	182.556	271.422	0.00016763	0.0028261	0.00043528	781.41	1.5731e-05	2.0945e-05	586.23	275.89	1.7324e-05	1.0774e-05	233.01	73.891	92.099	35.526	1.9968e-05	30.261	0.038806	0.06089	0.016947	1020.3	0.00060956	0.00067499	825.39	352.04	0.00061885	0.000686	379.75	122.14	149.82	50.818	0.00065579	53.003	199.877	-37.971	86.448	-62.436	6.747	164.180	-64.146	-57.550	61.284	-21.161	-60.662	-59.062	-54.497	-49.129	253.035	-53.318	-8191	255	
1566.095	1	1	0	0	0.17253	0.20369	0.1362	0.16486	0.10886	0.2496	0.079599	0.12724	0.21279	0.2272	0.041894	0.14292	0.12359	0.24745	0.11351	0.098641	-2.6437	-3.1917	-3.2208	-3.0708	-3.3354	-3.1125	-3.3688	-3.2583	-2.9104	-3.3479	-3.2104	-2.9771	-3.3208	-2.9458	-3.1958	-3.4542	-29.642	29.148	85.443	225.867	51.053	107.929	178.586	-35.258	86.160	239.097	103.867	-64.616	88.288	215.780	-52.509	247.315	0.00020208	0.0014309	0.0014296	774.53	2.9738e-06	4.0565e-05	585.37	273.07	2.2841e-05	8.1115e-06	227.91	71.099	89.811	34.883	3.8761e-05	29.544	0.039597	0.061985	0.017301	1017.9	0.00061359	0.00067687	822.51	348.06	0.00061153	0.00068118	373.06	118.76	146.6	49.881	0.0006442	51.821	65.031	61.576	181.750	-62.472	203.108	65.636	-64.048	-57.116	170.957	214.172	-61.165	-58.474	-54.167	-49.148	46.942	-52.510	-8191	255	
1566.189	1	1	0	0	0.19114	0.043263	0.1634	0.093177	0.035404	0.32777	0.035482	0.1	0.20672	0.0024409	0.23004	0.23294	0.25647	0.22922	0.29797	0.11268	-2.4271	-3.0312	-3.2917	-3.0021	-3.2458	-3.1688	-3.1771	-3.3604	-2.9	-3.3083	-3.3042	-3.0458	-3.5083	-3.1667	-3.0167	-3.5021	-14.509	139.557	-23.169	232.675	81.795	65.846	269.158	256.473	-6.712	19.741	244.350	211.044	111.121	13.772	260.844	-43.319	3.4727e-05	0.00046033	0.0011955	768.71	7.0698e-06	1.5574e-05	578.72	272.23	8.5844e-06	2.0363e-05	229.08	71.369	89.65	34.735	2.7522e-05	29.536	0.039196	0.061629	0.017344	1010.1	0.00061574	0.00068266	814.76	345.45	0.00060682	0.00067767	369.62	117.98	146.15	49.864	0.00064475	51.89	64.226	180.160	206.261	-62.466	-11.494	23.062	-64.449	-57.383	112.958	186.818	-61.265	-58.985	-54.627	-49.026	129.717	-52.851	-8191	255	
1566.286	1	1	0	0	0.19819	0.057556	0.056152	0.11753	0.10631	0.13278	0.1156	0.088373	0.1295	0.04522	0.049417	0.041076	0.050488	0.19344	0.067239	0.17229	-2.5375	-3.3187	-3.2812	-3.0896	-3.3479	-3.0563	-2.9688	-3.5833	-2.9896	-3.0979	-3.325	-3.025	-3.4021	-3.0604	-3.0375	-3.4771	73.451	7.207	-52.968	-35.233	-70.312	16.028	64.597	-5.372	103.219	210.468	141.897	226.046	99.500	-73.502	-49.299	265.031	0.0001099	0.0041794	0.00047169	765.46	1.1676e-05	4.6696e-06	581.53	271.77	1.9462e-05	9.5158e-06	228.73	72.277	91.251	35.013	3.867e-05	30.006	0.039823	0.063107	0.017848	1018.8	0.00064719	0.00071978	833.02	351.87	0.00064875	0.00072409	381.11	121.49	150.12	50.941	0.00066808	52.93	172.115	185.199	48.598	-62.696	54.579	-4.748	-63.945	-57.569	31.997	-56.461	-61.174	-59.102	-55.493	-49.139	84.207	-53.666	-8191	255	
1566.406	1	1	0	0	0.27463	0.14395	0.076953	0.094918	0.14042	0.18771	0.1348	0.24109	0.34423	0.064015	0.051408	0.23306	0.053573	0.11896	0.17401	0.02534	-2.4125	-2.9792	-3.2479	-2.9146	-3.2333	-3.0312	-3.1854	-3.5792	-2.8854	-3.3125	-3.5312	-2.9479	-3.2854	-3.2917	-2.9792	-3.4271	-42.413	224.335	159.167	145.588	10.182	-43.623	-58.163	281.778	-26.586	-43.960	203.866	185.738	231.619	-47.986	95.300	220.613	0.00034564	0.0019842	0.0009325	774.02	1.3588e-05	4.1841e-05	586.51	273.92	2.2433e-05	7.8938e-06	233.05	72.643	91.43	35.272	4.587e-06	29.944	0.040828	0.063939	0.01794	1022.2	0.00064076	0.00071161	831.97	352.53	0.00064509	0.00072255	382.63	122.42	151.19	51.514	0.00067555	53.533	156.990	190.543	152.260	-62.562	170.062	91.752	-64.517	-57.708	-31.366	21.338	-60.802	-58.764	-54.937	-48.828	9.072	-53.584	-8191	255	
1566.502	1	1	0	0	0.2171	0.1462	0.20926	0.23069	0.11199	0.15491	0.20836	0.26492	0.10109	0.20192	0.12394	0.085859	0.12231	0.12662	0.14545	0.16494	-2.5312	-2.9938	-3.2021	-2.7854	-3.2167	-3.1708	-3.0146	-3.4979	-2.9167	-3.0708	-3.4208	-2.7229	-3.1375	-3.3292	-2.7188	-3.3167	236.915	203.157	258.019	177.226	80.523	111.453	267.624	214.362	167.281	216.404	181.725	127.142	268.228	176.652	254.100	212.062	0.00031508	0.0017088	9.5108e-05	776.77	1.2805e-05	1.4175e-05	589.14	274.31	1.7887e-05	6.8744e-06	232.3	72.646	90.991	35.337	1.0503e-06	29.871	0.041483	0.064909	0.018099	1032.7	0.00065113	0.00071558	836.17	354.72	0.00064396	0.00071325	379.98	121.65	149.87	51.107	0.0006646	53.274	121.294	-20.625	175.930	-62.378	76.164	147.933	-64.136	-57.487	5.644	222.381	-61.174	-58.545	-54.561	-49.416	203.345	-53.240	-8191	255	
1566.597	1	1	0	0	0.30994	0.046196	0.16331	0.058813	0.082976	0.17526	0.052956	0.14706	0.35728	0.062389	0.2366	0.37556	0.1614	0.12873	0.21153	0.2942	-2.8146	-2.9875	-3.4104	-3.0917	-3.2833	-3.4188	-3.0021	-3.4917	-3.075	-2.9625	-3.4562	-3.1354	-3.1875	-3.4042	-2.9938	-3.2875	9.754	199.200	233.911	-25.730	-1.760	200.237	-74.530	22.027	-46.519	232.314	207.162	177.733	225.499	-65.845	112.618	214.873	0.00040156	0.0028114	0.00052498	767.25	2.6846e-05	3.1506e-05	574.24	272.78	8.3269e-06	1.3713e-05	227.15	71.555	90.538	34.95	1.1765e-05	29.47	0.041149	0.06373	0.017855	1018.4	0.00064265	0.00070368	820.03	349.69	0.00063952	0.00070638	376.61	120.83	149.56	50.754	0.00066635	52.798	120.541	57.151	268.608	-62.633	106.252	-54.630	-64.183	-57.521	249.715	103.441	-61.117	-58.090	-54.790	-49.249	58.819	-53.115	-8191	255	
1566.695	1	1	0	0	0.15113	0.16344	0.14587	0.29129	0.29746	0.051004	0.17596	0.13525	0.15487	0.16404	0.22864	0.27775	0.18296	0.20122	0.13035	0.12407	-2.8083	-2.9667	-3.3833	-3.1688	-2.9542	-3.2771	-3.1125	-3.4625	-3.0021	-3.1458	-3.5771	-3.075	-3.3104	-3.225	-2.9646	-3.4333	126.297	35.273	-64.551	-62.677	38.676	-36.779	140.240	-42.513	6.698	89.284	198.305	189.008	281.162	-49.867	241.184	113.838	0.00025397	0.0031264	0.00061859	766.6	2.2599e-05	2.1293e-05	579.46	272.91	3.0271e-05	2.6328e-05	228.39	72.288	91.475	35.076	1.1671e-05	29.65	0.041327	0.063952	0.01792	1022.1	0.00064636	0.00070899	829	353.01	0.00065751	0.00072387	383.42	123.48	152.13	51.307	0.0006811	53.5	-17.018	-3.237	160.730	-62.380	35.417	54.040	-64.221	-57.435	212.136	86.878	-61.480	-58.250	-55.165	-49.687	121.948	-53.778	-8191	255	
1566.789	1	1	0	0	0.23803	0.27381	0.14778	0.11411	0.22281	0.34622	0.063858	0.088588	0.081938	0.12904	0.075723	0.30596	0.22995	0.12434	0.17678	0.15119	-2.9646	-3.025	-3.5438	-3.3896	-3.1063	-3.325	-3.1021	-3.3271	-3.2542	-2.8521	-3.4375	-3.2479	-3.1063	-3.3729	-2.9562	-3.275	226.684	-64.148	155.293	276.606	63.691	152.585	19.351	189.231	200.452	239.887	-29.592	214.438	-62.410	196.672	112.152	24.962	0.00029227	0.004441	0.00045789	772.24	1.6932e-05	4.4853e-06	578.45	275.39	2.3765e-05	1.9829e-05	232.07	73.295	90.908	35.304	1.9007e-05	30.273	0.04157	0.063508	0.01787	1020.9	0.00062834	0.00068537	820.46	348.94	0.00061822	0.00067996	375.12	119.89	147.88	50.66	0.00064877	52.951	-33.766	56.335	85.093	-62.789	-37.186	107.515	-64.628	-57.387	42.649	125.501	-61.362	-58.517	-55.005	-49.040	166.159	-53.570	-8191	255	
1566.885	1	1	0	0	0.062486	0.15262	0.14747	0.10842	0.1332	0.12572	0.12567	0.10772	0.11305	0.10856	0.30865	0.17006	0.23318	0.12268	0.12605	0.10162	-2.8042	-2.8333	-3.2104	-3.2479	-2.9646	-3.4062	-3.0375	-3.3	-3.1396	-2.9833	-3.3354	-3.1562	-3.1396	-3.4583	-3.0417	-3.2792	-5.941	166.430	240.839	268.818	-70.197	65.705	-68.770	185.382	172.832	222.562	-64.069	273.142	178.537	210.098	199.790	119.733	0.00013529	0.0033215	0.00047519	775.11	2.344e-05	2.9621e-05	589.19	277.83	2.4713e-05	5.4607e-06	232.24	73.947	91.768	35.321	1.3659e-05	30.366	0.039818	0.062285	0.017595	1023.5	0.00063122	0.00069834	836.22	355.13	0.00064551	0.00071399	386.03	123.88	151.26	51.429	0.00067771	53.551	-63.596	267.814	143.975	-62.312	0.583	53.433	-64.216	-57.488	137.644	228.114	-60.800	-58.330	-54.638	-49.205	203.248	-53.057	-8191	255	
1566.981	1	1	0	0	0.22665	0.16154	0.11802	0.15282	0.054704	0.11697	0.12055	0.084534	0.32562	0.029702	0.10883	0.16592	0.25885	0.38051	0.11872	0.10897	-3.0625	-2.8292	-3.2208	-3.1688	-3.0563	-3.4854	-3.1104	-3.2292	-3.2729	-2.85	-3.3438	-3.1625	-2.8917	-3.4333	-2.9354	-3.1667	-74.927	220.645	-60.760	-70.909	-31.400	162.402	255.286	235.224	-21.513	30.275	280.198	-29.087	-55.918	21.398	240.530	204.879	0.00038025	0.0018277	0.00045243	771.91	1.8334e-05	3.1372e-05	576.99	271.1	1.845e-05	7.5826e-06	226.41	72.421	90.328	34.943	3.0973e-05	29.673	0.04103	0.064014	0.017929	1029.1	0.00064001	0.00070488	827.83	349.52	0.00063614	0.00070406	376.43	120.96	148.46	50.791	0.00066348	52.443	207.004	56.508	214.305	-62.881	276.687	253.551	-64.484	-57.523	97.747	-22.816	-61.265	-58.759	-55.722	-49.056	19.510	-53.664	-8191	255	
1567.102	1	1	0	0	0.14606	0.096183	0.21529	0.18602	0.20212	0.17751	0.086385	0.27848	0.121	0.14967	0.19495	0.13139	0.2189	0.080961	0.1474	0.1484	-3.1042	-3.0187	-3.1583	-3.1875	-2.9292	-3.3833	-3.0938	-3.1271	-3.325	-2.9042	-3.3667	-3.4938	-2.8542	-3.2854	-3.1729	-3.0875	124.422	-8.880	11.339	166.906	-63.170	-14.647	207.951	218.064	120.387	251.202	250.838	-39.971	256.471	230.244	-62.430	24.026	0.00043036	0.003029	0.00098688	770.72	2.6352e-05	3.1004e-05	575.7	272.97	1.9413e-05	1.3595e-05	228.6	72.308	91.256	35.222	2.6815e-05	29.646	0.040325	0.062834	0.017471	1015.1	0.00062496	0.00068865	818.49	346.66	0.00062188	0.00068874	372.07	118.77	146.29	50.215	0.00063957	51.774	110.497	119.116	77.638	-62.649	209.416	94.986	-63.961	-57.330	-59.506	-38.101	-61.430	-58.492	-55.179	-48.873	85.910	-53.253	-8191	255	
1567.198	1	1	0	0	0.19906	0.029472	0.28234	0.21426	0.071391	0.28658	0.14704	0.18681	0.082141	0.08779	0.20755	0.30802	0.21174	0.39959	0.16759	0.14637	-3.1979	-2.775	-3.1604	-3.5208	-2.825	-3.4729	-3.2917	-3	-3.3646	-3.0333	-3.2812	-3.3958	-2.8854	-3.4313	-3.1167	-3.0042	226.187	84.009	114.305	-34.133	22.583	-46.864	266.219	174.596	232.978	171.422	-31.700	258.648	213.781	215.658	25.075	-35.983	0.00012643	0.0033221	0.00062202	776.32	2.0459e-05	2.185e-05	586.46	274.01	1.6973e-05	2.2717e-06	230.28	73.449	90.87	34.993	6.9595e-06	30.09	0.03896	0.060974	0.016908	1014.3	0.00061444	0.00068172	821.16	348.05	0.00062164	0.00069069	374.98	120.21	148.02	50.694	0.00065637	52.761	254.521	101.345	100.739	-62.580	122.701	211.782	-64.051	-57.514	143.659	268.056	-61.352	-58.496	-54.366	-49.621	226.195	-53.462	-8191	255	
1567.294	1	1	0	0	0.12279	0.1885	0.18533	0.080044	0.52995	0.14265	0.025385	0.23853	0.12816	0.17743	0.23363	0.20043	0.12141	0.10708	0.28154	0.059491	-3.1396	-3	-3.0646	-3.4396	-2.7458	-3.2604	-3.3208	-2.7396	-3.3312	-3.075	-3.0687	-3.3583	-3.0563	-3.4396	-3.1458	-2.85	248.781	-68.171	56.112	-18.395	-5.490	-8.626	-56.613	242.563	167.713	54.215	-27.532	228.148	267.258	-51.736	206.723	272.097	0.00037499	0.00018834	9.9996e-05	776.75	2.6138e-05	7.8473e-06	595.69	277.15	1.6419e-05	2.6936e-05	235.14	74.222	93.373	35.764	9.534e-06	30.768	0.040408	0.063147	0.017552	1029.8	0.00064185	0.00071273	837.03	353.71	0.00065003	0.00071105	384.01	122.68	150.83	51.179	0.00065745	53.183	152.206	93.411	279.412	-62.701	-22.844	-20.906	-63.876	-57.404	234.480	8.917	-61.069	-58.381	-55.080	-49.067	-51.111	-53.590	-8191	255	
1567.366	1	1	0	0	0.11689	0.17892	0.14834	0.12348	0.27949	0.16523	0.18657	0.36966	0.10343	0.035897	0.18772	0.20612	0.014348	0.04983	0.24319	0.16103	-3.1104	-3	-3.0062	-3.3917	-2.9729	-3.3521	-3.4604	-2.7354	-3.5729	-3.2313	-3.0854	-3.4917	-2.9583	-3.2667	-3.2021	-2.7958	266.196	63.666	166.932	277.160	73.512	232.393	208.761	-55.992	277.550	4.789	-7.108	-3.837	-63.699	33.198	34.354	198.288	0.0003218	0.0022792	0.00031434	766.58	5.3363e-06	2.4162e-05	579.25	272.8	9.3068e-06	1.0884e-05	231.08	71.684	90.519	34.882	2.5199e-05	29.491	0.040231	0.062891	0.017414	1024.1	0.00063859	0.00070103	822.91	349.81	0.00063614	0.00069643	373.05	118.96	146.91	49.918	0.00063498	51.33	114.432	86.297	173.790	-62.819	-4.487	59.707	-64.643	-57.746	146.157	200.756	-60.787	-58.648	-55.223	-48.951	186.760	-53.518	-8191	255	
1567.487	1	1	0	0	0.13672	0.15273	0.088082	0.037798	0.1334	0.045488	0.12537	0.17705	0.053963	0.27303	0.17654	0.159	0.12742	0.27853	0.098371	0.18379	-2.875	-3.1458	-2.9042	-3.4292	-2.8979	-3.1521	-3.3167	-2.9792	-3.2438	-3.4479	-2.9688	-3.3375	-3.0292	-3.2146	-3.5375	-2.9042	-62.065	195.384	145.295	154.274	45.888	99.956	-0.129	233.245	-6.535	181.126	48.001	253.095	-18.694	281.489	80.113	37.617	0.00036924	0.0031827	0.0009374	765.73	1.2022e-05	1.3999e-05	581.96	271.17	2.2785e-05	4.6482e-06	223.67	71.633	90.332	34.744	3.74e-05	29.225	0.038638	0.059912	0.016599	1005.2	0.00061098	0.00067159	812.24	345.72	0.00062447	0.00069601	371.97	119.6	148.1	50.161	0.000659	52.414	177.449	48.580	75.083	-62.389	91.812	119.709	-63.813	-57.726	161.535	-33.280	-60.762	-59.303	-55.120	-49.092	235.356	-53.042	-8191	255	
1567.583	1	1	0	0	0.2196	0.049534	0.13316	0.18936	0.13941	0.27258	0.16515	0.082487	0.069446	0.24016	0.11485	0.19958	0.19584	0.16156	0.053076	0.053621	-3.0583	-3.5396	-2.7771	-3.425	-3.1729	-3.1229	-3.4583	-2.9146	-3.3354	-3.35	-3.0604	-3.325	-3.1688	-3.1063	-3.5146	-2.8542	198.745	95.384	210.430	-30.169	-3.094	-42.604	117.281	53.125	193.730	-71.521	240.567	201.643	231.604	-47.070	-39.255	-47.490	0.00039788	0.001863	0.00083642	771.21	1.6909e-05	3.2006e-05	577.4	273.73	1.7388e-06	1.4016e-05	230.65	71.144	90.969	35.065	7.8705e-06	29.622	0.040555	0.062645	0.017411	1023.5	0.00063235	0.00069022	819.97	349.41	0.00062633	0.0006956	374.52	119.16	147.16	50.095	0.00064802	52.195	149.361	-57.427	-24.605	-62.639	198.888	1.851	-64.534	-57.679	-45.567	241.816	-60.585	-59.391	-55.021	-48.690	192.075	-53.653	-8191	255	
1567.677	1	1	0	0	0.14882	0.13769	0.27885	0.3708	0.27188	0.077948	0.17883	0.28511	0.1478	0.17437	0.11016	0.041382	0.43719	0.36677	0.12414	0.13282	-2.7729	-3.1208	-2.9021	-3.4625	-3.0062	-3.0667	-3.6292	-3.1521	-3.0938	-3.2062	-2.9604	-3.3958	-3.0896	-3.025	-3.4208	-2.8333	-62.604	-20.466	-8.340	231.400	95.562	25.817	253.071	245.464	20.000	46.514	-10.777	94.101	251.665	22.003	4.076	81.568	0.0007024	0.0023697	0.00061752	773.08	1.056e-05	5.8278e-05	584.7	275.93	8.0967e-06	1.3532e-05	232.44	72.526	92.325	35.912	2.068e-05	30.557	0.0394	0.061062	0.017034	1018.1	0.00061528	0.00067318	817.69	347.9	0.00059748	0.00066564	368.93	117.49	144.51	49.744	0.00061576	51.693	261.061	252.494	120.423	-62.360	-66.188	235.373	-63.693	-57.740	84.109	140.547	-60.937	-58.439	-54.847	-48.745	105.084	-52.686	-8191	255	
1567.775	1	1	0	0	0.0482	0.15017	0.14851	0.33716	0.045614	0.068541	0.081255	0.13695	0.25678	0.16869	0.28454	0.089981	0.12567	0.24509	0.30172	0.14871	-2.9083	-3.225	-2.925	-3.275	-3.1583	-2.8979	-3.6979	-3.1208	-3.1	-3.2125	-2.9188	-3.3646	-3.1417	-3.1417	-3.4062	-2.9688	109.276	79.306	199.022	-41.193	-11.858	74.384	117.462	276.413	-11.725	37.869	275.538	225.677	-18.646	28.323	220.051	176.398	0.00016977	0.0024045	0.00053875	774.74	1.4484e-05	2.0203e-05	589.11	274.96	2.1489e-05	2.4972e-05	231.06	71.956	90.801	35.007	3.5411e-05	30.144	0.037487	0.058414	0.016565	1010.3	0.00060179	0.00065838	819.87	347.13	0.00059596	0.00066725	368.72	117.35	144.06	49.554	0.00062142	51.297	142.530	194.873	-51.309	-62.436	8.543	-2.351	-64.212	-57.317	84.308	-1.109	-61.223	-58.152	-54.741	-49.417	-8.509	-53.638	-8191	255	
1567.894	1	1	0	0	0.088531	0.047997	0.21824	0.19265	0.048548	0.18432	0.015532	0.21623	0.096772	0.25319	0.11902	0.077388	0.12324	0.18056	0.15704	0.20265	-2.6625	-3.2854	-2.9396	-3.3396	-3.0771	-2.9375	-3.6042	-3.1	-2.9188	-3.475	-2.7521	-3.4792	-3.2104	-2.6479	-3.2646	-3.2021	-32.557	274.977	169.064	-74.423	169.288	148.507	80.577	271.935	177.842	159.980	261.878	47.021	-71.414	32.604	-64.325	78.157	0.00031201	0.0041601	0.00042781	772.34	2.929e-06	2.1487e-05	577.15	272.26	2.8894e-05	5.8104e-06	226.35	70.545	89.15	35.225	1.6719e-05	30.031	0.037427	0.05847	0.016355	999.04	0.0005923	0.00065638	806.17	342.54	0.00059295	0.0006668	365.26	115.39	142.47	49.266	0.00060832	50.444	253.775	-50.824	131.931	-62.621	243.809	52.763	-64.212	-57.196	90.184	0.598	-60.920	-58.510	-55.279	-48.946	-10.446	-52.856	-8191	255	
1567.990	1	1	0	0	0.11014	0.18145	0.20601	0.16947	0.11596	0.034066	0.091117	0.15527	0.19857	0.057152	0.086903	0.040794	0.1955	0.073868	0.14542	0.025925	-2.575	-3.4583	-3.0812	-3.2062	-3.2042	-3.1063	-3.5021	-3.1083	-2.9229	-3.675	-3	-3.1042	-3.4062	-3.0271	-3.3438	-3.0208	-54.630	104.412	148.098	-43.557	283.735	268.685	-40.533	229.798	56.617	3.875	210.647	178.352	75.144	211.166	158.081	68.825	0.00010374	7.351e-05	0.0009055	773.32	8.5885e-06	2.4951e-05	581.42	274.11	6.2803e-06	3.5405e-05	230.02	70.937	91.285	35.36	7.0114e-06	30.22	0.036605	0.05715	0.015904	989.29	0.00057244	0.00063314	799.18	341.73	0.00057284	0.00065417	365.27	115.88	144.29	49.565	0.00060769	51.158	146.765	175.706	265.109	-62.648	62.133	-48.263	-64.034	-57.713	107.568	148.618	-61.025	-58.695	-54.739	-48.847	152.286	-53.246	-8191	255	
1568.086	1	1	0	0	0.26704	0.14411	0.15502	0.051083	0.2942	0.18508	0.11538	0.097944	0.25523	0.24726	0.11603	0.081754	0.22278	0.12863	0.2388	0.086342	-2.3854	-3.3479	-2.9792	-3.2438	-3.2771	-2.8792	-3.4813	-3.375	-2.8083	-3.3146	-3.2125	-3.0729	-3.3604	-2.9437	-3.1437	-3.1937	24.504	150.794	-56.018	-71.552	204.435	71.997	229.485	265.916	234.735	-43.063	241.298	168.550	180.621	38.440	174.066	1.047	0.00016079	0.001064	0.00079477	772.83	1.3532e-05	1.2863e-05	587.12	274.4	1.0696e-05	2.0644e-05	233.39	72.62	92.061	35.398	2.6677e-05	30.583	0.03729	0.058132	0.016056	995.59	0.00058175	0.00063467	800.33	342.36	0.00056674	0.00063924	363.83	115.62	143.55	49.302	0.0005942	51.037	194.494	85.714	150.404	-62.493	242.844	14.549	-64.077	-57.409	236.315	145.072	-61.067	-58.029	-54.212	-48.823	149.203	-53.747	-8191	255	
1568.182	1	1	0	0	0.29971	0.14848	0.3195	0.026997	0.062351	0.17072	0.41821	0.09844	0.14294	0.047746	0.29462	0.12981	0.14418	0.30321	0.11739	0.13313	-2.5958	-3.3146	-2.9458	-3.0354	-3.4854	-3.025	-3.2667	-3.1958	-3.0083	-3.4208	-3.1208	-2.8854	-3.4354	-3.1354	-3.2146	-3.2062	201.058	57.418	124.851	205.770	-31.001	-25.804	-61.280	192.765	57.191	-56.726	195.036	-70.227	252.529	218.396	266.799	129.549	0.00016743	0.0028742	0.00057313	778.76	1.4913e-05	3.1471e-05	596.46	277.55	5.0362e-06	9.3362e-06	232.95	72.916	91.633	35.497	2.0067e-05	29.758	0.03696	0.057747	0.016021	1007	0.00059808	0.00064989	817.01	347.87	0.00059352	0.00066182	370.31	117.79	144.96	49.619	0.00060262	51.162	199.124	27.689	4.806	-62.350	-71.297	105.178	-64.680	-57.705	184.784	275.124	-60.872	-58.237	-54.115	-49.195	-7.119	-53.295	-8191	255	
1568.279	1	1	0	0	0.35777	0.18176	0.27933	0.079527	0.21704	0.12499	0.1686	0.062873	0.13232	0.060029	0.11478	0.024533	0.095585	0.30311	0.21598	0.072257	-2.5687	-3.3708	-3.1458	-3.1021	-3.2562	-3.1042	-3.3479	-3.2	-2.8542	-3.2542	-3.15	-2.9458	-3.5583	-3.025	-3.0896	-3.3604	238.250	51.326	-18.921	71.816	221.809	209.130	-48.325	28.890	-59.902	106.824	-71.128	26.334	-64.253	144.907	245.494	221.578	0.00024248	0.0024207	0.00072943	775.88	1.266e-05	2.3834e-05	583.17	272.98	1.2319e-05	3.2478e-05	229.46	71.8	90.921	35.086	1.5447e-05	29.349	0.037317	0.057989	0.01604	1001.6	0.00059429	0.0006511	804.68	344.28	0.00059785	0.0006584	368.6	117.3	145.15	49.594	0.0006199	51.575	131.672	88.579	61.475	-62.331	113.805	179.782	-63.971	-57.557	-18.591	251.990	-60.534	-58.380	-55.209	-48.939	-69.699	-53.578	-8191	255	
1568.375	1	1	0	0	0.14843	0.32226	0.26709	0.084895	0.21879	0.15194	0.17193	0.21874	0.21922	0.19152	0.17871	0.085356	0.21974	0.11739	0.26252	0.062557	-2.4875	-3.3396	-3.2479	-2.9917	-3.4979	-3.3104	-2.85	-3.4313	-2.8833	-3.1688	-3.3583	-3.1479	-3.4917	-2.9437	-3.0375	-3.4625	21.708	97.150	2.467	181.440	186.241	-49.300	209.444	241.098	-63.487	75.856	120.387	44.220	189.327	62.039	91.723	158.384	0.0001099	0.00032468	0.00069033	772.55	1.9496e-05	3.8335e-05	582.84	275.69	1.3135e-05	2.4656e-05	230.13	73.175	91.474	35.277	1.7619e-05	29.861	0.03867	0.059747	0.016593	1009.4	0.00061562	0.00066811	816.82	349.37	0.00062709	0.00068825	379.67	122.13	150.09	51.081	0.00067238	54.044	-66.852	58.505	134.886	-62.434	93.250	-39.318	-63.889	-57.726	193.561	24.364	-61.092	-58.377	-54.834	-48.581	136.071	-52.870	-8191	255	
#DATA ENDS
