BOXY.EXE: ISS Imagent and Oximeter Data Acquisition Program Version 0.80
Ascii Record File

#ACQ INFORMATION
2  Detector Channels 
16  External MUX Channels 
1  Auxiliary Channels 
5000  Waveform (CCF) Frequency (Hz)
1  Waveforms Skipped 
30  Waveforms Averaged 
1  Cycles Averaged 
16  Acquisitions per Waveform 
10.0806  Updata Rate (Hz) 

#FILE INFORMATION
TRUE -- External MUX Channel results are PARSED.
FALSE -- AC DC and Phase are NOT grouped.
TRUE -- Companion Program Settings File CREATED.
FALSE -- AC data not excluded
FALSE -- DC data not excluded
FALSE -- Phase data not excluded
FALSE -- Auxillary Chn. data not excluded
Tab delimiters

#CALIBRATION STATE
TRUE -- Waveform Calibration Values APPLIED.


#AUX CALIBRATION VALUES
Val Type	aux-1	

Term	1.0000e+00	
Factor	0.0000e+00	


#WF CALIBRATION VALUES
A = Detector Channel
Val Type	A-AC1	A-AC2	A-AC3	A-AC4	A-AC5	A-AC6	A-AC7	A-AC8	A-AC9	A-AC10	A-AC11	A-AC12	A-AC13	A-AC14	A-AC15	A-AC16	A-DC1	A-DC2	A-DC3	A-DC4	A-DC5	A-DC6	A-DC7	A-DC8	A-DC9	A-DC10	A-DC11	A-DC12	A-DC13	A-DC14	A-DC15	A-DC16	A-Ph1	A-Ph2	A-Ph3	A-Ph4	A-Ph5	A-Ph6	A-Ph7	A-Ph8	A-Ph9	A-Ph10	A-Ph11	A-Ph12	A-Ph13	A-Ph14	A-Ph15	A-Ph16	

Term	0.00000e+00	0.00000e+00	0.00000e+00	0.00000e+00	0.00000e+00	0.00000e+00	0.00000e+00	0.00000e+00	0.00000e+00	0.00000e+00	0.00000e+00	0.00000e+00	0.00000e+00	0.00000e+00	0.00000e+00	0.00000e+00	0.00000e+00	0.00000e+00	0.00000e+00	0.00000e+00	0.00000e+00	0.00000e+00	0.00000e+00	0.00000e+00	0.00000e+00	0.00000e+00	0.00000e+00	0.00000e+00	0.00000e+00	0.00000e+00	0.00000e+00	0.00000e+00	0.00000e+00	0.00000e+00	0.00000e+00	0.00000e+00	0.00000e+00	0.00000e+00	0.00000e+00	0.00000e+00	0.00000e+00	0.00000e+00	0.00000e+00	0.00000e+00	0.00000e+00	0.00000e+00	0.00000e+00	0.00000e+00	
Factor	1.00000e+00	1.00000e+00	1.00000e+00	1.00000e+00	1.00000e+00	1.00000e+00	1.00000e+00	1.00000e+00	1.00000e+00	1.00000e+00	1.00000e+00	1.00000e+00	1.00000e+00	1.00000e+00	1.00000e+00	1.00000e+00	1.00000e+00	1.00000e+00	1.00000e+00	1.00000e+00	1.00000e+00	1.00000e+00	1.00000e+00	1.00000e+00	1.00000e+00	1.00000e+00	1.00000e+00	1.00000e+00	1.00000e+00	1.00000e+00	1.00000e+00	1.00000e+00	X	X	X	X	X	X	X	X	X	X	X	X	X	X	X	X	

B = Detector Channel
Val Type	B-AC1	B-AC2	B-AC3	B-AC4	B-AC5	B-AC6	B-AC7	B-AC8	B-AC9	B-AC10	B-AC11	B-AC12	B-AC13	B-AC14	B-AC15	B-AC16	B-DC1	B-DC2	B-DC3	B-DC4	B-DC5	B-DC6	B-DC7	B-DC8	B-DC9	B-DC10	B-DC11	B-DC12	B-DC13	B-DC14	B-DC15	B-DC16	B-Ph1	B-Ph2	B-Ph3	B-Ph4	B-Ph5	B-Ph6	B-Ph7	B-Ph8	B-Ph9	B-Ph10	B-Ph11	B-Ph12	B-Ph13	B-Ph14	B-Ph15	B-Ph16	

Term	0.00000e+00	0.00000e+00	0.00000e+00	0.00000e+00	0.00000e+00	0.00000e+00	0.00000e+00	0.00000e+00	0.00000e+00	0.00000e+00	0.00000e+00	0.00000e+00	0.00000e+00	0.00000e+00	0.00000e+00	0.00000e+00	0.00000e+00	0.00000e+00	0.00000e+00	0.00000e+00	0.00000e+00	0.00000e+00	0.00000e+00	0.00000e+00	0.00000e+00	0.00000e+00	0.00000e+00	0.00000e+00	0.00000e+00	0.00000e+00	0.00000e+00	0.00000e+00	-1.56894e+02	-1.27752e+02	-1.28220e+02	-1.82394e+02	-8.05549e+01	-6.51345e+01	-1.55939e+02	-1.62015e+02	-8.46711e+01	-6.06474e+01	-1.70818e+02	-1.71805e+02	-1.80520e+02	-1.77372e+02	-7.45731e+01	-1.49506e+02	
Factor	2.48450e-05	1.80034e-04	5.53765e-05	1.74917e-01	1.47804e-06	1.91503e-06	1.73878e-01	5.40847e-02	1.39976e-06	1.81173e-06	9.61147e-02	3.08946e-02	3.55403e-02	9.85352e-03	1.70142e-06	1.43833e-02	1.14720e-05	1.78812e-05	4.98075e-06	8.74279e-02	1.80401e-07	1.98474e-07	8.17633e-02	2.71597e-02	1.79927e-07	1.99377e-07	4.67774e-02	1.50850e-02	1.80288e-02	4.99142e-03	1.87127e-07	7.05837e-03	X	X	X	X	X	X	X	X	X	X	X	X	X	X	X	X	



#DISTANCE SETTINGS
A = Detector Channel
A-1	A-2	A-3	A-4	A-5	A-6	A-7	A-8	A-9	A-10	A-11	A-12	A-13	A-14	A-15	A-16	

2.5000e+00	3.0000e+00	2.5000e+00	3.0000e+00	2.0000e+00	3.0000e+00	1.5000e+00	3.0000e+00	3.0000e+00	3.0000e+00	3.0000e+00	3.0000e+00	3.0000e+00	3.0000e+00	1.5000e+00	3.0000e+00	

B = Detector Channel
B-1	B-2	B-3	B-4	B-5	B-6	B-7	B-8	B-9	B-10	B-11	B-12	B-13	B-14	B-15	B-16	

1.0000e+01	1.0000e+01	1.0000e+01	1.4400e+00	1.0000e+01	1.0000e+01	1.5100e+00	1.9400e+00	1.0000e+01	1.0000e+01	1.9900e+00	2.4900e+00	2.4100e+00	2.9000e+00	1.0000e+01	2.9800e+00	




#DATA BEGINS
time	group	step	mark	flag	A-AC1	A-AC2	A-AC3	A-AC4	A-AC5	A-AC6	A-AC7	A-AC8	A-AC9	A-AC10	A-AC11	A-AC12	A-AC13	A-AC14	A-AC15	A-AC16	A-DC1	A-DC2	A-DC3	A-DC4	A-DC5	A-DC6	A-DC7	A-DC8	A-DC9	A-DC10	A-DC11	A-DC12	A-DC13	A-DC14	A-DC15	A-DC16	A-Ph1	A-Ph2	A-Ph3	A-Ph4	A-Ph5	A-Ph6	A-Ph7	A-Ph8	A-Ph9	A-Ph10	A-Ph11	A-Ph12	A-Ph13	A-Ph14	A-Ph15	A-Ph16	B-AC1	B-AC2	B-AC3	B-AC4	B-AC5	B-AC6	B-AC7	B-AC8	B-AC9	B-AC10	B-AC11	B-AC12	B-AC13	B-AC14	B-AC15	B-AC16	B-DC1	B-DC2	B-DC3	B-DC4	B-DC5	B-DC6	B-DC7	B-DC8	B-DC9	B-DC10	B-DC11	B-DC12	B-DC13	B-DC14	B-DC15	B-DC16	B-Ph1	B-Ph2	B-Ph3	B-Ph4	B-Ph5	B-Ph6	B-Ph7	B-Ph8	B-Ph9	B-Ph10	B-Ph11	B-Ph12	B-Ph13	B-Ph14	B-Ph15	B-Ph16	aux-1	digaux	

1861.640	1	1	0	256	0.3047	0.049863	0.076976	0.10855	0.21317	0.15194	0.2086	0.33912	0.12005	0.23275	0.040751	0.16398	0.11566	0.11623	0.19809	0.12082	-3.0104	-2.9313	-3.05	-3.4375	-2.7521	-3.2917	-3.2854	-2.9479	-3.4375	-3.2667	-2.9458	-3.2667	-2.6646	-3.1104	-3.35	-2.7125	215.987	260.829	277.643	92.099	247.165	155.991	197.402	265.797	26.298	294.775	262.483	268.321	234.738	270.472	240.569	-31.986	0.00015336	0.00088999	0.0009947	1097.6	8.7725e-06	6.184e-06	1006.1	276.62	9.2665e-06	2.6349e-05	267.78	80.041	83.658	37.352	3.0128e-05	38.631	0.010566	0.016734	0.0047223	984.74	0.00017633	0.00019026	907.33	254.73	0.00017263	0.0001903	265.62	80.455	85.287	35.561	0.00017165	38.787	115.913	279.713	247.755	-33.563	164.946	86.325	-34.749	-29.374	0.004	197.884	-31.184	-27.943	-25.306	-19.482	305.398	-23.372	-8191	255	
1861.736	1	1	0	0	0.17086	0.12363	0.07461	0.20846	0.16538	0.11629	0.13938	0.13283	0.17046	0.21337	0.12265	0.071458	0.15708	0.09641	0.10235	0.21952	-2.9271	-2.8438	-3.0187	-3.3646	-2.8125	-3.2771	-3.3646	-2.8792	-3.2562	-3.1208	-2.7687	-3.3875	-2.975	-3.3063	-3.2542	-2.7792	86.878	292.525	203.771	-46.716	98.925	298.536	-24.620	196.866	125.805	221.794	-39.560	192.765	-18.188	-46.640	13.710	88.543	0.00026508	0.0014523	0.00046091	1097.2	1.323e-05	2.2146e-05	1023.8	282.73	1.3105e-05	3.7322e-06	273.8	81.497	85.27	38.03	2.4737e-05	39	0.010514	0.01625	0.0046133	982.42	0.00016621	0.00017983	917.02	257.82	0.00016483	0.00018542	269.39	82.19	87.016	35.964	0.00017302	38.901	159.311	287.804	231.831	-33.633	235.463	-12.890	-34.855	-29.488	136.852	1.658	-30.797	-27.108	-25.811	-20.163	7.886	-23.175	-8191	255	
1861.832	1	1	0	0	0.055958	0.072935	0.14279	0.097897	0.21134	0.12683	0.16009	0.14596	0.14295	0.051847	0.21555	0.095661	0.076565	0.33644	0.16044	0.075331	-2.8729	-3.125	-2.9646	-3.4542	-2.9062	-3.0583	-3.3083	-3.0563	-3.2	-3.175	-3.0396	-3.5375	-2.875	-3.0146	-3.4104	-2.8417	142.757	259.506	290.455	248.631	296.429	88.663	228.902	204.487	228.286	306.640	-29.138	93.535	43.479	264.696	-43.601	144.552	0.00027146	0.00027423	0.00058921	1101.2	7.9856e-06	1.0341e-05	1030.5	290.16	7.6121e-06	6.8644e-06	278.95	84.744	86.433	38.382	8.8141e-06	39.375	0.010435	0.016067	0.0045901	983.12	0.00016281	0.00017544	922.69	262.25	0.00015867	0.00017761	274	83.444	88.208	36.434	0.00016898	38.988	138.064	84.336	0.343	-33.652	17.232	36.254	-34.901	-28.920	297.432	58.946	-31.476	-27.108	-25.550	-19.290	128.346	-23.522	-8191	255	
1861.928	1	1	0	0	0.091515	0.23477	0.28314	0.16706	0.25028	0.1452	0.22323	0.33683	0.096342	0.25896	0.092789	0.13812	0.13088	0.16227	0.29744	0.066856	-2.6479	-3.1271	-2.7271	-3.5062	-2.9271	-2.9521	-3.4875	-2.9792	-3.1229	-2.9729	-2.9188	-3.4375	-3.0812	-3.0375	-3.3875	-2.9917	243.697	107.904	187.159	273.961	107.437	292.392	285.942	257.743	142.234	199.148	209.165	181.867	223.417	53.623	8.177	175.225	0.00013045	0.0011292	0.00029719	1100.4	2.2491e-05	8.6275e-06	1033.6	291.25	1.4444e-05	1.35e-05	284.02	85.553	88.717	38.958	1.7844e-05	39.591	0.010241	0.016133	0.0045012	982.48	0.00016716	0.00018084	927.95	265.76	0.00016373	0.00018142	278.13	85.233	90.446	37.298	0.00017513	39.876	59.798	46.376	54.786	-33.659	107.989	268.667	-35.073	-28.783	129.068	0.599	-31.100	-27.357	-25.877	-19.435	280.134	-22.904	-8191	255	
1862.047	1	1	0	0	0.057564	0.17766	0.20845	0.31339	0.056023	0.19956	0.17234	0.18828	0.11684	0.20554	0.23232	0.14735	0.17039	0.2309	0.085911	0.043146	-2.6646	-3.2646	-2.9729	-3.3083	-3.1896	-3.1063	-3.2646	-3.0187	-3.2104	-3.1458	-2.9583	-3.1208	-3.25	-3.1312	-3.4521	-2.8146	227.185	265.906	35.436	228.260	104.968	169.312	-21.970	208.442	220.060	224.115	249.882	266.450	14.188	-18.569	136.519	232.110	4.7141e-05	0.0011307	0.00045646	1097.3	7.0927e-06	3.381e-05	1026.4	291.13	4.5022e-06	1.5179e-05	281.62	85.177	88.34	39.431	1.0796e-05	40.246	0.010842	0.016961	0.0047119	986.62	0.00017114	0.0001877	926.17	265.07	0.0001679	0.00018773	276.61	84.523	90.082	37.322	0.0001721	40.012	9.480	227.713	-32.152	-33.971	154.498	178.563	-34.796	-29.135	158.179	40.724	-30.758	-26.910	-25.445	-20.020	28.093	-23.071	-8191	255	
1862.143	1	1	0	0	0.2293	0.11843	0.27356	0.28938	0.15015	0.10313	0.082468	0.10323	0.062401	0.070513	0.17032	0.13036	0.17149	0.06194	0.27757	0.24076	-2.5125	-3.2083	-2.9667	-3.2479	-3.1583	-2.8521	-3.5021	-3.025	-3.0854	-3.1292	-2.9437	-3.0979	-3.1208	-2.8917	-3.275	-2.9271	121.201	44.185	285.531	160.906	215.751	-7.403	205.368	138.185	-17.942	49.658	31.580	264.142	257.846	-7.261	84.573	66.133	0.00027978	0.0025227	0.00061668	1113	2.4105e-05	1.4921e-05	1045.2	293.27	6.3784e-06	7.7628e-06	288.33	85.762	88.577	38.68	1.4939e-05	40.315	0.010879	0.016703	0.0046155	991.94	0.00016777	0.0001883	936.46	266.85	0.00016304	0.00018034	278.84	84.772	89.677	37.039	0.0001655	39.908	67.226	5.060	247.561	-33.463	-11.543	152.557	-34.983	-29.633	204.124	298.915	-30.968	-27.925	-25.173	-19.405	147.391	-22.986	-8191	255	
1862.217	1	1	0	0	0.1169	0.072457	0.20805	0.2365	0.13216	0.04595	0.26255	0.2519	0.11086	0.14068	0.13406	0.16464	0.22097	0.34034	0.24213	0.32368	-2.5146	-3.5833	-2.9062	-3.2083	-3.1875	-2.8604	-3.5229	-3.1167	-2.8563	-3.3042	-3.0125	-3.2146	-3.2104	-2.8396	-3.1521	-3.2208	114.669	2.989	116.412	-5.538	312.723	263.840	245.149	275.391	3.970	162.015	187.371	-23.310	277.406	296.981	185.867	88.747	0.00020955	0.002521	0.00053193	1117.3	1.1282e-05	1.6578e-05	1038.5	292.02	3.6413e-06	1.2764e-05	277.79	84.383	87.749	38.176	5.0268e-06	39.08	0.01035	0.016011	0.0044456	993.86	0.00016252	0.00018048	929.03	265.22	0.00016013	0.00017827	272.59	82.992	88.443	36.442	0.00015821	38.776	31.095	305.578	13.046	-33.519	2.379	38.666	-35.361	-29.212	285.432	159.412	-30.739	-27.945	-25.526	-19.490	101.233	-23.066	-8191	255	
1862.336	1	1	0	0	0.2333	0.131	0.072103	0.25563	0.2319	0.24152	0.22562	0.090729	0.089845	0.1194	0.26777	0.19198	0.17957	0.34708	0.051215	0.26883	-2.4604	-3.4125	-2.8021	-2.9979	-3.2438	-2.8979	-3.35	-3.0938	-2.8187	-3.5062	-2.9333	-3.0146	-3.475	-2.8875	-3.2292	-3.2875	252.364	200.778	212.296	289.022	312.319	-17.958	95.728	281.970	-43.618	217.333	206.996	265.548	-1.378	-16.975	226.289	256.790	4.1876e-05	0.0017198	0.00061586	1098.6	1.5106e-05	3.713e-05	1035.3	290.91	5.6322e-06	2.2194e-05	284.44	85.031	89.316	38.641	3.101e-05	39.363	0.010002	0.015405	0.0042455	978.96	0.00015854	0.00017691	924.51	264.46	0.00016057	0.00017625	274.14	83.927	89.232	36.522	0.00016029	39.045	-20.150	-1.873	38.433	-33.382	168.217	137.588	-35.159	-29.226	64.236	150.006	-31.264	-26.935	-26.086	-19.806	110.165	-23.005	-8191	255	
1862.432	1	1	0	0	0.19297	0.055022	0.24101	0.33146	0.031589	0.15249	0.23986	0.057874	0.22519	0.20489	0.10666	0.12837	0.077806	0.099349	0.016781	0.19112	-2.7396	-3.1542	-3.0396	-3.2542	-3.325	-2.7146	-3.2771	-3.3604	-2.8125	-3.1979	-2.9938	-3.0583	-3.5083	-2.9688	-3.0604	-3.1917	258.312	234.451	-46.912	264.445	91.752	306.451	164.790	-37.417	157.268	206.890	156.143	86.725	63.128	-36.823	163.477	136.474	0.00014222	0.0023928	0.00062297	1098	1.3648e-05	1.4823e-05	1043.4	295.41	9.3894e-06	2.8033e-05	282.67	85.699	88.973	38.951	8.0262e-06	39.638	0.010222	0.01546	0.0042253	983.25	0.00015411	0.00017178	931.96	266.5	0.00015398	0.00016796	276.06	84.689	89.243	36.95	0.00016421	39.596	30.118	61.501	95.470	-33.734	281.367	106.151	-35.291	-29.430	154.430	29.584	-31.355	-27.104	-26.298	-19.841	148.268	-23.490	-8191	255	
1862.528	1	1	0	0	0.1751	0.10601	0.21825	0.2574	0.16445	0.24083	0.21909	0.22668	0.21204	0.10523	0.26153	0.039415	0.14834	0.24291	0.18445	0.11301	-2.3583	-3.4021	-3.1479	-3.0042	-3.5062	-3.1333	-3.2562	-3.4188	-2.7625	-3.3479	-3.2354	-3.175	-3.4167	-3.0625	-3.1375	-3.5333	220.477	77.645	-32.599	285.982	36.918	32.711	289.758	288.890	205.760	83.123	293.571	137.614	17.383	55.296	74.726	68.053	0.00025972	0.0017733	0.00070505	1113.5	2.903e-05	1.9202e-05	1044.8	292.39	3.0354e-06	4.3264e-06	282.29	86.242	86.847	39.153	1.729e-06	40.477	0.010303	0.015535	0.0044316	989.45	0.00015922	0.00017692	930.37	265.22	0.00015706	0.00017377	274.4	84.587	88.5	36.939	0.00016784	40.002	90.132	140.894	29.686	-33.608	1.106	141.512	-34.816	-29.294	31.816	179.644	-30.836	-27.100	-26.398	-19.971	279.617	-23.203	-8191	255	
1862.649	1	1	0	0	0.083484	0.13657	0.19493	0.39132	0.11283	0.17159	0.15606	0.21468	0.043518	0.43206	0.15267	0.13185	0.0090633	0.29007	0.12381	0.06903	-2.4813	-3.3104	-3.1854	-2.8312	-3.55	-2.9167	-3.0104	-3.4292	-3.0646	-3.3417	-3.2292	-2.6917	-3.5229	-3.2167	-3.0938	-3.5271	103.658	97.795	207.891	258.930	228.838	100.757	20.548	214.575	203.839	47.697	-11.164	273.414	296.227	243.674	-6.042	113.424	0.00026207	0.0021096	0.0002434	1111.5	7.9919e-06	1.7913e-05	1042.1	291.01	1.6333e-05	1.675e-05	282.07	85.735	86.783	39.115	1.0628e-05	40.235	0.010649	0.01601	0.0045052	996.74	0.00016175	0.00018	935.62	264.93	0.00016149	0.00017977	274.44	84.868	88.442	37.083	0.0001677	39.905	160.918	263.526	120.664	-33.414	244.350	94.596	-35.086	-29.073	16.228	263.830	-30.775	-27.373	-25.906	-19.729	119.584	-23.336	-8191	255	
1862.743	1	1	0	0	0.043819	0.25416	0.19184	0.19565	0.25522	0.019814	0.187	0.08588	0.17383	0.29443	0.067714	0.11151	0.25883	0.12035	0.12346	0.061849	-2.3229	-3.0687	-3.1667	-3.0438	-3.375	-3.1333	-2.8333	-3.5417	-2.8479	-3.0812	-3.0854	-2.675	-3.3854	-3.2167	-2.9562	-3.35	266.770	99.261	101.528	273.540	10.821	177.526	220.231	107.182	263.266	15.993	-28.444	296.924	298.644	100.238	220.737	22.455	0.00010953	0.001036	0.00070136	1118.1	1.7267e-05	1.2058e-05	1040	291.35	1.2814e-05	3.794e-05	282.11	84.198	87.797	39.282	1.3128e-05	40.749	0.010376	0.015831	0.0044542	997.6	0.00015883	0.0001806	931.3	263.71	0.00015809	0.00017866	273.6	84.319	88.616	37.247	0.00016742	40.174	2.747	172.780	215.599	-33.830	105.462	165.894	-35.107	-29.097	48.369	60.489	-31.451	-27.232	-25.188	-19.368	280.045	-23.071	-8191	255	
1862.816	1	1	0	0	0.25046	0.1097	0.1022	0.15088	0.18429	0.2263	0.096784	0.14159	0.101	0.17711	0.16295	0.16383	0.29392	0.13801	0.18413	0.13197	-2.5333	-3.1875	-3.1354	-2.9979	-3.2125	-3.1479	-3.0333	-3.5812	-2.7771	-2.9729	-3.4167	-2.8688	-3.45	-3.2812	-2.9458	-3.3521	62.535	105.011	126.847	304.359	116.192	40.778	7.387	235.190	-32.787	220.966	186.233	188.990	214.283	245.546	0.168	295.001	9.9064e-05	0.001012	0.00034183	1119.5	6.0741e-06	6.5476e-07	1051.3	290.82	7.4292e-06	1.136e-05	282.06	86.285	88.608	39.614	7.1425e-06	41.597	0.010489	0.016006	0.0044513	996.64	0.00015883	0.00017889	935.82	265.47	0.00015784	0.00017952	274.53	84.911	89.577	37.442	0.00016683	40.529	279.002	134.279	69.408	-33.561	191.952	138.198	-35.109	-29.364	156.822	164.965	-31.048	-27.601	-26.203	-20.068	159.476	-23.319	-8191	255	
1862.937	1	1	0	0	0.19073	0.30802	0.0642	0.28472	0.10741	0.10549	0.3668	0.22191	0.24395	0.061136	0.31259	0.055672	0.18623	0.071202	0.082607	0.42052	-2.6125	-2.9708	-3.2458	-2.9354	-3.2167	-3.3479	-2.9938	-3.5021	-3.025	-3.0708	-3.4604	-2.8625	-3.2042	-3.3458	-3.0104	-3.4104	245.541	119.300	64.339	297.116	212.307	197.687	-44.284	305.862	71.512	194.801	24.382	-46.195	268.952	83.781	-23.875	273.948	0.00022122	0.0011147	0.00034729	1113.6	1.7861e-05	2.6483e-05	1057.1	293.01	4.3087e-06	1.3109e-05	282.34	86.551	89.787	39.847	2.8994e-06	41.031	0.010387	0.016104	0.0044481	997.66	0.00015819	0.00017792	940.72	266.52	0.00015914	0.00017852	275.5	85.411	89.806	37.805	0.00016743	40.788	91.505	76.313	117.440	-33.837	92.931	-12.572	-35.019	-29.296	-34.472	104.705	-30.667	-27.227	-25.775	-20.266	195.496	-23.499	-8191	255	
1863.031	1	1	0	0	0.067262	0.13568	0.10323	0.34678	0.1065	0.16353	0.15663	0.2761	0.212	0.12133	0.24189	0.22884	0.10381	0.1845	0.20132	0.048462	-2.7042	-2.9146	-3.4333	-3.0187	-2.9708	-3.0812	-2.7875	-3.6	-3.2396	-3.1688	-3.5938	-3.1021	-3.075	-3.4292	-2.8	-3.2438	262.566	249.499	13.629	268.808	57.292	-7.890	204.942	272.433	292.493	226.284	286.214	288.736	75.954	-46.024	305.791	68.337	0.00010606	0.0010973	0.00045637	1125	1.405e-05	1.9028e-05	1056.5	294.14	1.8223e-05	1.6451e-05	287.38	87.104	89.27	39.939	1.3676e-05	41.375	0.010578	0.016338	0.0045501	1005.2	0.00016217	0.00018266	943.97	267.64	0.00016414	0.00018086	277.95	85.802	90.123	37.799	0.00016799	40.856	295.507	-15.305	81.334	-33.713	176.187	104.502	-34.929	-29.361	67.607	178.185	-31.034	-27.551	-25.857	-19.353	9.038	-22.611	-8191	255	
1863.128	1	1	0	0	0.086898	0.17721	0.075553	0.26881	0.16019	0.1469	0.18833	0.23536	0.085227	0.15283	0.20205	0.2282	0.089099	0.28387	0.12875	0.082455	-2.8583	-3.1208	-3.3167	-3.0708	-2.9813	-3.4354	-3.1813	-3.4917	-3.2875	-2.825	-3.2812	-3.0208	-3.1542	-3.5458	-3.1125	-3.3625	269.812	209.638	176.251	-9.184	101.621	44.380	309.460	246.985	246.401	177.244	31.908	244.195	286.999	20.048	36.197	166.236	0.00012785	0.0014016	0.00061944	1129.8	9.7183e-06	1.4883e-05	1049.5	293.06	1.8944e-05	8.6044e-06	285.24	85.861	88.876	39.273	7.5768e-06	40.696	0.010469	0.016153	0.0044181	1001.4	0.00016311	0.00017756	937.39	266.21	0.0001603	0.00017661	274.9	85.001	89.77	37.286	0.00016433	40.183	116.608	188.265	254.231	-33.936	123.179	2.472	-34.844	-29.121	119.841	13.449	-30.930	-27.983	-25.572	-19.878	266.448	-23.393	-8191	255	
1863.224	1	1	0	0	0.096227	0.06275	0.17038	0.050665	0.058831	0.26584	0.11617	0.27858	0.030097	0.051259	0.26473	0.15896	0.14106	0.089138	0.20947	0.041901	-2.9396	-3.0458	-3.4229	-3.1437	-2.8792	-3.4625	-3.0229	-3.3667	-3.4646	-2.9521	-3.2896	-3.1021	-3.0021	-3.3125	-2.9521	-3.3083	307.800	252.351	54.705	170.828	134.315	-18.424	197.531	297.673	224.736	162.586	249.622	263.526	255.532	-23.076	248.568	23.107	7.9478e-05	0.0011539	0.00096969	1118.8	8.7659e-06	3.8556e-07	1040	294.78	1.7131e-05	2.2797e-05	285.98	84.997	88.85	39.736	6.7134e-06	40.911	0.010428	0.01618	0.0043961	997.86	0.00016169	0.00017854	932.49	267.38	0.00016192	0.00017763	274.84	84.851	89.831	37.334	0.00016674	40.272	134.038	84.961	-1.466	-33.624	78.788	288.283	-34.999	-29.263	132.831	171.255	-30.802	-27.049	-25.969	-19.479	-27.967	-23.472	-8191	255	
1863.344	1	1	0	0	0.24185	0.20315	0.26035	0.086682	0.11777	0.11887	0.044582	0.21753	0.2711	0.21781	0.13922	0.048394	0.18301	0.11318	0.032442	0.068781	-2.9521	-2.7396	-3.25	-3.0417	-2.9917	-3.6042	-3.0062	-3.1875	-3.25	-2.8875	-3.375	-3.2458	-2.8729	-3.2104	-2.9271	-3.2771	-30.515	58.536	79.179	-31.590	192.017	23.182	88.360	295.748	103.819	177.505	179.730	309.191	262.931	262.878	215.067	-16.598	0.00035404	0.001156	0.00022749	1110.1	4.1552e-06	1.6698e-05	1036.2	293.31	2.5955e-06	9.1176e-06	280.8	86.144	89.163	39.558	1.0701e-05	40.629	0.010251	0.01589	0.0044048	992.5	0.00016024	0.00017612	931.47	265.79	0.00016044	0.00017735	275.24	85.12	89.762	37.312	0.00016615	40.159	73.333	98.746	26.587	-34.064	25.896	125.372	-34.589	-29.273	-35.931	-8.841	-30.975	-27.412	-25.796	-19.587	30.339	-22.607	-8191	255	
1863.440	1	1	0	0	0.092491	0.17029	0.082726	0.26732	0.047521	0.10351	0.14484	0.058027	0.11187	0.12919	0.014575	0.11657	0.21482	0.064683	0.16652	0.27976	-3.1708	-2.9021	-3.1667	-3.2958	-2.7646	-3.5729	-3.0542	-2.7917	-3.4167	-2.9458	-3.2229	-3.2604	-2.7708	-3.3229	-3.0583	-3.1083	21.842	133.100	73.740	252.529	273.386	209.610	58.480	-23.726	142.061	192.855	187.501	22.505	-42.196	170.718	33.201	18.651	0.00036117	0.001715	0.00028675	1110.5	8.3639e-06	2.9611e-06	1043.2	291.36	1.3837e-05	3.9857e-06	283.35	86.213	88.507	39.632	1.396e-05	41.061	0.01025	0.016063	0.0044333	994.71	0.00016096	0.00017399	936.51	266.44	0.00015844	0.00017467	275.97	85.399	89.864	37.467	0.00016607	40.421	17.897	92.854	270.866	-33.687	69.850	32.205	-34.867	-29.314	119.511	268.397	-30.794	-27.530	-25.862	-19.613	311.441	-23.021	-8191	255	
1863.512	1	1	0	0	0.044591	0.098289	0.23088	0.30984	0.1029	0.067997	0.15989	0.090089	0.12167	0.15301	0.10594	0.21744	0.25585	0.13873	0.13158	0.38969	-3.0187	-2.8729	-2.9354	-3.3667	-2.9542	-3.2083	-3.0958	-2.95	-3.3646	-2.9437	-3.2167	-3.2583	-2.9229	-3.15	-3.0812	-3.0021	-26.959	295.326	23.960	296.606	84.317	182.390	154.899	84.387	32.430	227.272	150.312	-41.329	-29.299	207.479	24.450	182.459	0.00040018	0.0030783	0.00080452	1105.9	1.8655e-05	7.6848e-06	1040.5	293.63	1.6182e-05	5.5321e-06	276.03	83.332	87.752	38.985	4.2908e-06	40.397	0.010172	0.015713	0.0044035	991.05	0.00015803	0.00017295	929.42	265.06	0.00015659	0.00017557	271.14	83.222	88.6	37.043	0.00016534	39.831	63.305	21.530	-34.885	-34.044	90.422	91.085	-35.100	-29.303	125.641	-43.952	-31.145	-27.405	-26.186	-19.882	-33.582	-22.779	-8191	255	
1863.608	1	1	0	0	0.051185	0.11384	0.124	0.25395	0.088403	0.041723	0.063853	0.11425	0.19726	0.21774	0.070025	0.014941	0.192	0.073015	0.19247	0.36828	-3.0521	-2.9667	-2.8833	-3.2417	-2.9125	-3.1958	-3.4104	-2.9583	-3.0812	-2.8354	-3.0312	-3.5333	-2.9	-3.1188	-3.2958	-2.9562	-7.939	270.488	-31.498	13.244	290.163	16.470	238.532	189.312	131.836	114.271	43.497	214.052	173.296	-43.981	-33.525	221.420	0.0003247	0.0024591	0.00032374	1093	1.2626e-05	1.0445e-05	1011.6	285.32	5.2866e-06	1.3775e-05	274.57	82.911	86.009	39.078	2.65e-05	40.232	0.01007	0.015961	0.0044379	977.54	0.00015689	0.00017578	909.71	260.5	0.00015816	0.00017489	267.88	82.342	87.952	37.033	0.00016705	39.537	206.763	11.369	17.465	-33.706	45.641	160.640	-35.069	-29.308	-3.714	71.669	-31.257	-27.781	-25.965	-19.560	144.374	-23.162	-8191	255	
1863.729	1	1	0	0	0.1468	0.18779	0.1298	0.032321	0.16166	0.07739	0.077181	0.30719	0.18713	0.067402	0.21071	0.055263	0.24638	0.26371	0.06095	0.27712	-3.0708	-2.8604	-2.8125	-3.4458	-3.1083	-3.3354	-3.4792	-2.7458	-3.3604	-3.1833	-2.8542	-3.4042	-2.9375	-3.2313	-3.175	-2.8396	210.911	35.818	26.929	273.866	-22.762	204.424	247.300	249.131	46.388	2.619	233.315	126.915	-29.346	-10.655	93.355	280.324	0.00018226	0.0011722	0.000411	1090	1.7076e-05	2.2206e-05	1019	286.61	1.521e-05	6.2295e-06	275.72	83.624	87.62	39.406	2.0629e-05	40.899	0.010078	0.015893	0.0044148	976.29	0.00015858	0.00017638	911.53	261	0.00015894	0.00017578	268.53	82.473	88.03	37.255	0.00016408	39.981	163.139	-40.445	22.918	-33.917	75.498	160.214	-34.862	-29.544	56.650	260.232	-30.617	-27.298	-25.834	-20.204	217.814	-22.775	-8191	255	
1863.823	1	1	0	0	0.13949	0.38025	0.12382	0.20227	0.14095	0.16537	0.1726	0.25224	0.21244	0.28363	0.060577	0.036711	0.11051	0.28753	0.23651	0.080258	-3.1729	-3.1229	-2.8917	-3.4542	-3.0083	-3.2354	-3.4188	-2.9521	-3.2417	-3.1646	-2.9708	-3.5	-3.0771	-2.9688	-3.3438	-3.0979	-18.490	135.388	76.726	1.230	257.610	41.642	297.904	23.554	181.980	13.448	93.909	13.531	246.801	-12.020	51.152	268.673	9.4547e-05	0.0012839	0.00075209	1103.8	5.0385e-06	4.883e-06	1032.8	289.63	1.1979e-05	2.7782e-05	277.91	85.016	87.85	39.77	1.6804e-05	41.022	0.010137	0.016215	0.0043498	982.17	0.00015772	0.00017528	920.4	262.73	0.00015734	0.00017675	270.42	83.749	89.225	37.673	0.00016786	40.532	232.692	132.170	81.677	-33.631	-13.061	182.603	-35.492	-29.351	81.168	93.675	-30.958	-27.329	-25.759	-19.827	172.392	-23.081	-8191	255	
1863.920	1	1	0	0	0.10786	0.11942	0.077603	0.21687	0.1206	0.2102	0.20775	0.26335	0.16165	0.064769	0.1531	0.28326	0.15372	0.23501	0.10473	0.088198	-2.8042	-3.2625	-2.7687	-3.4313	-2.95	-3.1604	-3.5229	-2.9604	-3.2917	-3.3146	-3.1125	-3.4	-3.1	-2.9292	-3.4417	-2.9813	249.477	111.148	297.756	309.169	-18.158	98.447	234.280	269.255	229.550	64.895	286.338	-19.262	269.225	-19.340	120.498	112.848	0.00046333	0.0007932	0.00055681	1105.8	7.3714e-06	1.281e-05	1028.6	287.32	9.9251e-06	6.6274e-06	272.5	83.066	86.301	39.629	7.531e-06	41.225	0.010344	0.016125	0.0044651	987.57	0.0001589	0.00017587	918.98	261.35	0.00015879	0.00017754	267.11	82.291	88.25	37.52	0.00016589	40.389	98.023	24.570	-17.934	-33.668	-31.842	120.464	-35.357	-29.681	233.013	234.158	-30.780	-27.299	-26.038	-19.405	5.386	-23.109	-8191	255	
1864.017	1	1	0	0	0.10622	0.25786	0.092881	0.18665	0.072528	0.076084	0.29489	0.16332	0.15866	0.21992	0.2908	0.16439	0.1643	0.29625	0.10547	0.14636	-2.5854	-3.3771	-3	-3.5833	-3.0708	-2.8563	-3.3229	-3.0292	-3.0042	-3.3896	-2.7208	-3.3688	-3.2708	-3.0021	-3.5021	-2.6813	-47.106	237.092	177.407	290.132	126.128	108.234	300.809	258.059	94.215	243.238	309.691	57.189	281.919	301.798	64.456	259.577	0.00031152	0.0023305	0.00053175	1099	8.8602e-06	1.6832e-05	1013.9	282.52	1.0901e-05	8.8997e-06	266.28	82.85	86.311	39.758	9.3523e-06	40.425	0.010377	0.016116	0.0045631	983.37	0.00016299	0.00017782	909.71	259.01	0.0001642	0.00017962	264.87	82.22	88.649	37.437	0.00016646	39.846	156.699	104.686	227.777	-33.947	303.862	287.080	-34.825	-29.810	57.497	130.832	-31.182	-27.535	-25.962	-20.225	56.468	-22.884	-8191	255	
1864.112	1	1	0	0	0.3435	0.13872	0.21955	0.24369	0.14309	0.20538	0.36572	0.31824	0.074031	0.2093	0.13213	0.12968	0.13686	0.22569	0.21932	0.20693	-2.5312	-3.5354	-2.9458	-3.2271	-3.1312	-2.8688	-3.6792	-3.0583	-2.9979	-3.5521	-2.8438	-3.2125	-3.1521	-3.075	-3.4875	-2.8875	4.821	218.437	-20.660	295.202	-0.157	240.155	-28.763	242.394	228.909	-36.009	115.382	200.766	152.276	-11.306	-39.598	-41.273	0.00027307	0.003317	0.0009307	1096.3	1.9526e-05	1.5175e-05	1021.8	286.69	7.2905e-07	1.3909e-05	271.87	84.105	87.441	39.533	1.0493e-05	41.152	0.010352	0.016029	0.0044454	982.9	0.00016106	0.00017675	912.03	261.3	0.00016333	0.00017899	266.9	83.454	88.719	37.721	0.0001674	40.726	82.686	73.900	-39.208	-33.742	13.732	66.686	-34.571	-29.461	310.632	66.893	-30.895	-27.296	-26.245	-19.925	116.738	-23.341	-8191	255	
1864.208	1	1	0	0	0.24246	0.12558	0.27752	0.39889	0.11327	0.20108	0.086689	0.091109	0.24884	0.063987	0.035004	0.094986	0.23528	0.063017	0.11598	0.16809	-2.3958	-3.4625	-2.9479	-3.2875	-3.1646	-2.6937	-3.1937	-3.2021	-2.9729	-3.5625	-2.9208	-2.9917	-3.3063	-2.9708	-3.0687	-3.1937	145.567	75.762	86.977	234.356	7.635	14.645	-31.352	302.663	26.395	121.924	294.545	-15.309	237.173	-15.069	190.942	224.014	0.00035978	0.0013334	0.00027764	1108.8	9.5799e-06	9.2036e-06	1015.2	285.79	1.6581e-05	1.4111e-05	270.26	84.052	86.499	40.441	1.0519e-05	41.488	0.010465	0.015866	0.0045576	988.93	0.00016279	0.00017892	912.17	260.66	0.00016233	0.00017634	266.33	83.349	88.073	38.052	0.00016974	40.889	192.219	35.813	41.205	-33.796	133.655	256.892	-35.363	-29.378	83.264	-27.872	-31.402	-27.458	-25.391	-19.914	124.850	-23.120	-8191	255	
1864.329	1	1	0	0	0.203	0.08339	0.040602	0.12265	0.10924	0.16588	0.1068	0.17835	0.15473	0.041486	0.2138	0.0984	0.10969	0.14853	0.2755	0.11045	-2.5792	-3.4104	-2.6875	-3.0958	-3.1708	-2.8875	-3.3396	-3.3333	-2.8125	-3.3	-3.0521	-3.1	-3.5833	-3.0667	-3.2208	-3.2917	84.581	310.910	120.358	-26.490	196.133	170.657	225.721	300.426	97.742	-44.622	213.704	312.007	-13.676	-5.627	46.760	-32.360	0.0001559	0.0017515	0.0003843	1110.4	2.1994e-05	1.6701e-05	1025.4	287.09	1.0231e-05	1.5862e-05	273.43	84.127	87.075	39.969	8.0194e-06	40.704	0.010471	0.016116	0.0045653	993.97	0.00016335	0.00017734	919.18	262.6	0.00016397	0.00017967	268.84	83.611	88.499	37.859	0.00016785	40.277	244.840	300.359	99.743	-33.659	119.224	48.332	-34.635	-29.778	-23.871	55.184	-31.134	-27.375	-26.228	-19.607	176.989	-22.615	-8191	255	
1864.425	1	1	0	0	0.048162	0.10379	0.10717	0.13187	0.061174	0.092889	0.12504	0.11096	0.18619	0.1435	0.12688	0.13613	0.043526	0.14032	0.056902	0.08439	-2.3792	-3.1479	-3.0062	-3.0292	-3.4771	-2.8542	-3.4125	-3.475	-2.8104	-3.1792	-3.0187	-2.9875	-3.2562	-2.925	-3.2	-3.3688	280.873	232.471	103.845	-22.275	148.901	-39.278	2.365	310.985	292.652	91.956	97.642	268.343	111.276	15.246	241.054	193.015	0.00020059	0.0017865	0.00045086	1101	3.5336e-06	2.3642e-06	1029.2	289.42	1.672e-05	1.3527e-05	278.93	85.117	88.464	40.292	1.2335e-05	41.277	0.010291	0.016077	0.0045597	986.41	0.00015913	0.0001757	920.66	263.69	0.00015981	0.0001767	271.65	83.981	89.321	37.938	0.00016668	40.409	116.112	172.720	-9.330	-34.143	51.236	189.579	-35.135	-29.567	243.297	-2.850	-30.571	-27.515	-25.849	-19.726	196.108	-23.599	-8191	255	
1864.521	1	1	0	0	0.13328	0.017341	0.23433	0.2246	0.25682	0.14272	0.21008	0.24029	0.21823	0.06773	0.088157	0.1324	0.19649	0.14916	0.032604	0.29446	-2.5417	-3.3896	-2.9417	-3.025	-3.1979	-3.0812	-3.4542	-3.5	-2.8521	-3.4021	-3.1188	-2.525	-3.4792	-3.0062	-3.1792	-3.2583	75.559	75.761	102.546	274.802	22.370	46.530	222.743	226.190	38.134	166.422	216.572	264.164	232.896	234.538	49.525	274.025	0.00034591	0.002246	0.00029833	1105.5	1.4902e-05	1.5118e-05	1025.3	291.71	5.6382e-06	3.3473e-06	282.77	85.898	89.281	40.254	1.6537e-05	41.048	0.010084	0.015789	0.0044392	989.33	0.00015824	0.00017395	924.13	265.3	0.00016021	0.00017453	273.93	84.736	89.488	38.052	0.00016437	40.388	112.770	309.534	-30.109	-33.994	4.414	96.034	-35.133	-29.479	51.116	274.319	-31.046	-27.744	-25.845	-19.646	29.469	-23.157	-8191	255	
1864.617	1	1	0	0	0.073565	0.24592	0.041686	0.21033	0.088172	0.078998	0.19289	0.15652	0.34574	0.13903	0.1124	0.089946	0.14871	0.17468	0.11277	0.19699	-2.4229	-3.2833	-3.1125	-3.1208	-3.3375	-3.0229	-3.0187	-3.2271	-2.8042	-3.2938	-3.0667	-2.7479	-3.35	-3.3625	-3.1854	-3.6229	20.746	241.331	47.461	272.339	187.154	-1.427	277.925	246.406	174.090	133.489	18.058	38.146	110.147	252.212	-22.437	0.370	0.00024177	0.00038421	0.00039159	1102.7	1.3291e-05	1.6222e-05	1035.6	293.48	6.8038e-06	9.9082e-06	283.19	85.518	89.8	40.031	1.3161e-05	41.057	0.0099679	0.015691	0.0044794	990.14	0.00015612	0.00017398	927.62	266.2	0.00015922	0.00017709	275.07	84.537	89.9	37.991	0.0001696	40.643	146.950	-24.110	27.059	-33.720	41.978	155.784	-34.963	-29.318	213.437	33.863	-31.628	-26.507	-26.313	-19.810	263.552	-24.136	-8191	255	
1864.713	1	1	0	0	0.35681	0.046504	0.25038	0.42041	0.093573	0.24515	0.013682	0.072589	0.14132	0.13797	0.36208	0.22357	0.21527	0.26766	0.27389	0.097901	-2.4562	-3.075	-3.1063	-2.7146	-3.3292	-3.1646	-3.1333	-3.3438	-2.9688	-3.0042	-3.3604	-2.8333	-3.2917	-2.9062	-2.8937	-3.4854	158.061	-5.945	89.108	-41.476	266.848	306.323	147.127	6.178	167.257	214.258	177.978	-28.446	274.376	-29.409	198.723	248.312	0.00026065	0.0014739	0.00046854	1106.4	9.3703e-06	3.1841e-06	1035.7	295.32	2.46e-05	1.2314e-05	283.32	85.222	88.967	39.939	1.0034e-05	40.881	0.010395	0.016249	0.0045634	995.99	0.00016156	0.00017883	929.81	267.05	0.00016311	0.00017684	275.06	84.651	89.61	37.96	0.00016715	40.431	32.353	55.917	60.358	-33.764	188.733	223.832	-35.124	-29.276	150.489	241.037	-31.234	-27.490	-25.638	-20.359	-13.783	-23.337	-8191	255	
1864.809	1	1	0	0	0.23887	0.14658	0.053481	0.19343	0.14428	0.15748	0.10912	0.077569	0.15375	0.13048	0.11318	0.15085	0.17403	0.15524	0.26007	0.13095	-2.5333	-3.0625	-3.2792	-2.7458	-3.0458	-2.9604	-2.975	-3.3625	-3.1958	-3.0229	-3.3604	-2.8438	-3.0479	-3.1646	-2.8167	-3.4458	124.286	53.030	158.108	103.052	281.025	222.897	-31.376	297.305	105.320	68.169	281.611	168.576	193.501	-24.488	283.734	222.473	0.00020447	0.0015523	0.00022047	1123.8	4.1076e-06	4.506e-05	1040.8	293.07	1.4208e-05	1.9139e-05	281.25	85.718	88.579	39.635	2.5999e-06	40.624	0.010303	0.016064	0.0044901	1001.3	0.00016251	0.00017961	931.84	265.59	0.00016434	0.00018006	274.07	84.152	89.401	37.685	0.00016681	40.06	66.433	69.106	90.002	-33.761	104.665	112.555	-35.136	-29.646	152.777	1.310	-31.456	-27.419	-26.046	-20.026	10.371	-23.223	-8191	255	
1864.905	1	1	0	0	0.11387	0.11409	0.057714	0.30395	0.022823	0.14451	0.26642	0.30483	0.064361	0.10057	0.13814	0.29903	0.15833	0.23792	0.35179	0.14131	-2.6854	-2.9437	-3.0917	-2.8083	-3.0938	-3.3646	-2.9271	-3.3688	-3.1146	-2.9208	-3.5271	-2.9313	-3.1562	-3.2625	-2.6125	-3.2979	266.661	161.154	35.915	274.703	95.430	25.334	-35.415	258.581	-46.198	218.010	115.973	246.333	163.363	2.591	295.957	-5.964	0.00027236	0.0012973	0.00050276	1108.8	1.378e-05	1.0427e-05	1029.8	288.29	9.3973e-06	1.3368e-05	275.72	83.353	86.816	39.533	2.6484e-06	40.538	0.010203	0.015989	0.0043768	989.51	0.00016044	0.00017702	925.04	263.88	0.00016667	0.00018263	271.9	83.636	89.416	37.813	0.00017481	40.601	124.091	-42.031	309.515	-33.565	282.330	170.278	-34.953	-29.485	-27.860	37.505	-30.839	-27.400	-25.569	-19.745	89.861	-23.303	-8191	255	
1865.024	1	1	0	0	0.090634	0.21423	0.1351	0.24562	0.29167	0.19791	0.22962	0.14948	0.089287	0.16778	0.1287	0.1456	0.10849	0.19283	0.13921	0.14214	-2.6937	-3.1333	-3.3917	-3.0833	-3.0208	-3.3375	-2.8563	-3.2583	-3.2542	-3.0104	-3.3604	-3.0833	-3.0187	-3.5125	-2.8167	-3.325	185.026	227.026	196.532	4.706	46.085	36.859	273.683	292.286	-23.515	8.727	3.383	180.036	267.167	296.354	43.267	205.938	0.00014476	0.0029343	0.00057443	1099.9	7.9932e-06	1.1635e-05	1024	287.14	1.009e-05	1.2754e-05	278.97	84.512	87.36	39.47	1.936e-05	41.275	0.011066	0.017173	0.0047943	996.62	0.00017609	0.00019278	924.83	264.65	0.0001781	0.00019696	273.85	84.609	90.386	37.995	0.00018284	41.152	158.529	71.065	128.493	-33.543	311.628	-41.073	-35.479	-29.330	61.642	143.563	-31.389	-28.004	-26.274	-19.613	55.878	-23.602	-8191	255	
1865.121	1	1	0	0	0.17811	0.066391	0.11735	0.061165	0.16293	0.15523	0.25669	0.35025	0.097415	0.083951	0.15318	0.24465	0.041286	0.30675	0.094704	0.084774	-2.8563	-2.8729	-3.3542	-2.9604	-3.2146	-3.2875	-2.8312	-3.2646	-3.0062	-2.7104	-3.5208	-3.075	-2.975	-3.3042	-2.5917	-3.2562	290.844	-43.883	189.768	-19.434	253.522	130.013	264.984	242.990	238.039	93.217	278.783	220.496	257.308	-45.972	256.875	227.576	5.3091e-05	0.0017173	0.00025122	1112.7	8.5458e-06	2.2119e-05	1039	293.09	1.9993e-05	2.3419e-05	281.02	85.969	88.971	40.518	6.9677e-06	41.969	0.011293	0.017514	0.0048431	999.58	0.00017529	0.00019315	936.31	268.27	0.00017832	0.0001975	276.55	86.484	91.687	38.757	0.00018889	41.745	139.980	194.247	23.595	-33.794	20.275	173.990	-34.979	-29.064	206.703	85.125	-31.781	-26.930	-25.542	-19.875	200.114	-22.984	-8191	255	
1865.217	1	1	0	0	0.091402	0.20287	0.083928	0.22501	0.09595	0.11149	0.17045	0.1891	0.065765	0.023649	0.075229	0.1104	0.018485	0.017519	0.10618	0.26802	-2.9813	-2.9542	-3.3042	-3.0417	-3.075	-3.4021	-3.0708	-3.1	-3.05	-2.8937	-3.3354	-3.1542	-2.8521	-3.3604	-2.8479	-3.1771	125.136	37.756	-29.912	-39.520	150.841	195.732	184.322	262.743	-1.497	55.318	290.525	220.957	272.371	289.035	216.749	274.149	0.00033674	0.00234	0.00059442	1123.8	5.0653e-06	1.1864e-05	1036.5	290.97	2.3969e-05	1.0357e-05	279.26	85.062	87.534	40.021	3.9403e-06	41.099	0.011494	0.0177	0.0048814	1009.1	0.0001781	0.00019335	932.88	268.28	0.00017755	0.00019584	276.79	85.979	90.947	38.442	0.00018923	41.357	155.638	-6.557	201.215	-33.704	172.908	2.181	-35.218	-29.202	170.616	227.773	-30.915	-27.453	-26.070	-19.850	153.430	-23.364	-8191	255	
1865.313	1	1	0	0	0.072576	0.23344	0.16855	0.32496	0.053852	0.13134	0.31828	0.23157	0.086372	0.079513	0.13792	0.085231	0.13829	0.070349	0.10356	0.31801	-2.8792	-2.8688	-3.2729	-3.2479	-2.7708	-3.3146	-3.1875	-3.325	-3.2917	-2.7979	-3.05	-3.275	-3.0771	-3.4958	-2.8167	-2.8312	8.945	-16.851	223.054	248.033	135.794	308.067	246.081	289.135	-4.994	187.686	201.704	-14.140	288.643	201.661	193.749	223.230	8.674e-05	0.0017969	0.00036816	1107.4	4.769e-06	1.8321e-05	1016.3	285.95	8.836e-06	9.9042e-06	272.15	84.828	87.794	39.61	2.3216e-05	41.535	0.011362	0.017991	0.0049876	999.22	0.00018098	0.00019931	920.65	264.84	0.00017947	0.00020061	272.74	84.959	90.861	38.254	0.00018543	41.345	35.642	20.221	218.272	-33.890	308.253	188.729	-35.326	-29.512	290.460	48.921	-31.478	-28.195	-25.640	-19.750	19.497	-22.936	-8191	255	
1865.409	1	1	0	0	0.098138	0.13519	0.18739	0.2566	0.05896	0.07233	0.19188	0.24305	0.19293	0.085494	0.17724	0.1419	0.1046	0.2077	0.08187	0.2375	-2.9604	-2.8292	-3.3688	-3.4667	-2.8438	-3.4688	-3.0771	-2.9792	-3.2979	-2.9562	-3.2104	-3.2792	-2.8792	-3.2792	-3.0896	-2.9021	49.334	227.628	253.781	270.573	201.791	217.878	293.869	285.262	250.915	-24.135	5.642	49.707	198.182	48.391	-20.416	-32.144	0.00029984	0.0013705	0.00052422	1098.7	9.3613e-06	2.9725e-05	1016.8	292.05	2.0551e-05	6.9265e-06	275.95	83.863	87.912	40.464	2.1275e-05	41.313	0.011388	0.017528	0.0049669	993.5	0.00017761	0.00019405	922.58	266.41	0.0001772	0.00019774	274.8	84.996	90.905	38.582	0.00018666	41.253	126.113	75.189	164.917	-33.655	74.595	109.054	-35.095	-29.140	63.608	115.713	-30.891	-27.717	-26.211	-19.899	195.487	-23.703	-8191	255	
1865.505	1	1	0	0	0.14433	0.36325	0.15684	0.072138	0.031853	0.022513	0.29838	0.33425	0.036969	0.10403	0.10528	0.11276	0.24892	0.38183	0.19121	0.23826	-3.0604	-2.8229	-2.8937	-3.4	-2.8063	-3.3688	-3.225	-2.9313	-3.2229	-2.7417	-3.1042	-3.2021	-2.7687	-3.3521	-3.1021	-2.9458	291.751	228.231	184.531	-40.519	96.882	43.540	289.646	45.455	113.648	179.778	-12.737	168.170	282.213	-21.750	91.151	306.691	0.00018636	0.0013037	0.00056316	1103.1	7.966e-06	3.4445e-05	1027.1	289.22	1.2382e-05	2.3132e-05	277.16	85.01	88.763	39.934	2.0988e-05	40.8	0.011299	0.017557	0.0048747	994.73	0.00017665	0.00019633	923.82	265.16	0.00017559	0.00019852	275.35	85.395	91.184	38.52	0.00018565	41.265	84.509	-39.439	40.297	-33.841	124.323	88.644	-35.132	-29.598	243.267	176.658	-30.968	-27.048	-25.599	-19.986	170.431	-23.232	-8191	255	
1865.601	1	1	0	0	0.13764	0.093888	0.027715	0.13328	0.096642	0.17491	0.091836	0.27903	0.17626	0.17044	0.027102	0.087194	0.053751	0.15064	0.14712	0.12837	-3.0312	-3.0125	-3.0146	-3.5583	-2.9208	-3.2687	-3.125	-2.7521	-3.2333	-3.1437	-3.0521	-3.2917	-2.8187	-3.2146	-3.2146	-2.8958	175.029	267.011	140.251	272.137	-38.923	-1.720	9.041	207.453	300.469	33.512	215.613	249.994	255.017	53.920	40.711	213.614	0.00017645	0.00040779	7.0971e-05	1095.1	9.3001e-06	1.6355e-05	1018.3	287.59	1.7579e-05	2.2967e-05	276.39	83.242	87.604	39.67	3.1207e-05	40.647	0.011248	0.017763	0.0049325	993.38	0.00018161	0.0001961	921.75	265.33	0.00017643	0.00019886	273.66	84.216	90.318	38.177	0.00018286	40.764	232.782	6.809	182.294	-34.193	279.942	107.054	-35.137	-29.530	163.091	9.926	-30.751	-27.783	-25.864	-19.862	59.241	-23.188	-8191	255	
1865.697	1	1	0	0	0.028504	0.11757	0.06662	0.23554	0.13076	0.083445	0.08304	0.037046	0.15387	0.20977	0.21119	0.33437	0.069668	0.20456	0.23154	0.17764	-2.9521	-3.0563	-2.8187	-3.3396	-2.7583	-3.0354	-3.375	-3.1021	-3.3292	-3.1188	-2.8979	-3.2708	-2.8875	-3.2188	-3.2646	-2.8187	231.445	98.530	-7.342	261.670	236.125	157.544	124.209	306.884	180.705	164.631	-31.029	60.949	62.344	273.172	-19.188	257.317	0.00020266	0.0011391	0.00063299	1086.5	2.1611e-05	3.1084e-05	1002	286.81	3.2772e-06	1.0733e-05	271.58	83.041	87.236	39.792	8.2012e-06	40.82	0.011211	0.01751	0.0048603	982.52	0.00017848	0.00019543	910.58	263.31	0.00017686	0.00019875	270.5	83.691	89.797	38.132	0.00018062	40.753	73.783	296.947	164.360	-33.912	206.488	62.918	-35.203	-29.082	5.514	-24.605	-30.963	-27.191	-25.970	-19.766	86.013	-23.877	-8191	255	
1865.816	1	1	0	0	0.19788	0.18109	0.10526	0.17341	0.15025	0.10507	0.20332	0.1099	0.16083	0.18952	0.13465	0.22955	0.066614	0.17875	0.20801	0.1098	-2.6708	-3.0542	-2.9562	-3.5667	-3.0458	-3.1292	-3.4896	-3.0229	-3.3708	-3.2	-2.9188	-3.4125	-3.0396	-3.1937	-3.4229	-2.7979	30.620	-39.215	157.650	36.912	-23.211	219.197	-32.753	274.742	45.762	110.098	-30.964	194.994	305.246	293.740	25.665	251.908	0.00024358	0.0011169	0.00044677	1092.3	1.2824e-05	1.097e-05	1006.5	287.58	1.0981e-05	2.7137e-06	274.18	84.785	87.694	39.975	3.245e-05	40.892	0.011399	0.01738	0.004869	984.94	0.00017866	0.00019579	911.24	264.64	0.00017916	0.00020006	272.17	84.52	90.653	38.162	0.00018399	41.073	52.251	288.860	246.379	-33.832	84.098	132.312	-35.108	-29.307	206.777	297.384	-30.713	-27.481	-26.092	-19.741	170.699	-23.201	-8191	255	
1865.912	1	1	0	0	0.31526	0.10423	0.1215	0.14893	0.062935	0.12083	0.16131	0.19267	0.12799	0.062425	0.15535	0.11657	0.091653	0.079991	0.13635	0.12531	-2.7	-3.2021	-2.8417	-3.4292	-2.8542	-3.1312	-3.5812	-3.05	-3.3312	-3.1521	-2.7208	-3.1354	-3.0354	-2.9854	-3.4521	-2.9083	305.431	181.167	193.444	-34.017	127.947	164.974	310.865	-1.725	179.148	48.985	203.547	-45.998	244.846	226.436	296.516	183.073	6.1568e-05	0.0009184	0.00026416	1096.7	1.1146e-05	8.7742e-06	1007.8	287.15	1.2756e-05	1.468e-05	273.68	84.393	88.241	39.871	2.1617e-05	41.191	0.011348	0.017474	0.0048926	985.46	0.00018053	0.00019544	915.07	264.85	0.00017678	0.00019939	272.35	84.756	91.25	38.413	0.00018471	41.366	9.132	-25.040	212.877	-33.778	72.863	249.891	-35.168	-29.010	20.858	138.565	-31.474	-27.670	-26.673	-19.812	124.712	-23.563	-8191	255	
1866.009	1	1	0	0	0.1854	0.10628	0.21087	0.16397	0.20983	0.11902	0.2226	0.083242	0.1137	0.15001	0.1472	0.26387	0.062659	0.16582	0.0405	0.21934	-2.8375	-3.3271	-2.7354	-3.45	-2.9875	-2.8146	-3.5979	-2.9562	-2.975	-3.2167	-2.6917	-3.2479	-3.2417	-2.9188	-3.3458	-3.0062	59.230	246.090	251.466	229.122	299.269	113.539	292.237	259.866	111.984	15.371	161.789	271.235	5.871	72.120	209.091	113.391	0.00027295	0.0010131	0.00023534	1100.6	7.6771e-06	2.9891e-05	1022.7	288.57	1.4904e-05	1.2646e-05	276.36	84.226	89.269	40.169	1.3258e-05	41.72	0.011639	0.017972	0.0049618	995.64	0.00018395	0.00019654	927.22	266.01	0.00017841	0.00019705	275.81	85.853	91.395	38.431	0.00018262	41.457	146.029	305.092	136.652	-33.515	60.907	281.911	-35.004	-29.388	228.425	237.302	-30.607	-27.142	-26.240	-19.690	133.306	-23.306	-8191	255	
1866.105	1	1	0	0	0.12725	0.28227	0.15692	0.21932	0.14946	0.088846	0.076874	0.2535	0.082517	0.15512	0.32094	0.04094	0.16085	0.067219	0.27377	0.29802	-2.6813	-3.2167	-2.9708	-3.175	-3.0292	-2.6312	-3.4688	-3.2479	-3.15	-3.4208	-2.8021	-3.1667	-3.1458	-2.8646	-3.2167	-3.1917	88.975	221.201	264.125	299.195	-5.124	-1.919	265.084	243.269	59.678	185.970	-28.248	272.653	185.724	70.926	-33.784	-40.215	7.5682e-05	0.0011604	0.00055248	1121.8	1.4573e-05	2.3003e-05	1038.4	293.48	1.1835e-05	2.652e-05	282.01	86.762	90.63	40.16	2.3224e-05	41.465	0.011344	0.017392	0.0048939	1005.8	0.00017734	0.00019245	935.76	269.66	0.00017477	0.00019266	278.96	86.88	92.055	38.443	0.00018105	41.457	218.436	162.895	91.114	-33.818	180.302	-30.468	-35.020	-29.193	64.941	184.706	-31.323	-27.536	-25.846	-20.274	96.469	-23.487	-8191	255	
1866.201	1	1	0	0	0.1172	0.13969	0.088402	0.5336	0.097802	0.10839	0.039019	0.15409	0.064341	0.15194	0.15168	0.04992	0.02028	0.043029	0.12901	0.060581	-2.65	-3.5042	-2.9792	-3.1437	-2.9167	-2.7812	-3.4292	-3.2188	-3.0021	-3.5167	-3.0687	-3.0771	-3.3104	-2.8438	-3.4229	-3.2625	40.779	60.779	22.128	302.482	137.433	205.105	43.618	235.515	274.584	-43.114	19.442	289.368	277.583	-38.015	112.032	185.592	6.3057e-05	0.0021901	0.00035885	1112.9	9.7123e-06	1.5571e-05	1042.7	294.01	8.3578e-06	3.6159e-06	280.51	86.382	90.096	39.984	3.8037e-05	41.323	0.011201	0.017415	0.0048444	1009.3	0.00017637	0.00019453	941.01	269.83	0.00017681	0.00019539	278.8	86.827	92.485	38.443	0.00018751	41.602	163.350	104.629	-16.561	-34.117	3.859	102.217	-34.992	-29.176	138.938	59.157	-31.184	-27.468	-26.048	-20.007	77.507	-23.414	-8191	255	
1866.297	1	1	0	0	0.12157	0.087487	0.28048	0.13592	0.24643	0.17863	0.28426	0.099939	0.021732	0.11629	0.21515	0.21697	0.16956	0.12524	0.18096	0.15571	-2.6292	-3.2875	-2.9562	-3.3646	-3.3271	-2.9125	-3.4313	-3.1542	-3.0604	-3.4375	-3.1417	-3.2146	-3.1354	-2.9375	-3.1292	-3.2375	12.548	217.236	273.296	175.563	303.853	58.611	178.971	265.828	187.139	149.931	88.849	266.367	-30.369	224.070	68.827	276.187	9.3371e-05	0.00069083	0.00035426	1119.1	1.4431e-05	1.6491e-05	1038.8	293.21	8.4273e-06	7.9659e-06	280.04	86.218	89.361	40.42	2.5968e-05	41.676	0.011448	0.017558	0.0049395	1007.9	0.00017899	0.00019643	940.09	269.95	0.00017537	0.00019948	280.15	87.094	92.505	38.682	0.00018618	41.597	300.512	264.089	123.790	-33.735	14.957	32.692	-34.936	-29.328	240.443	34.781	-31.352	-28.228	-25.865	-19.596	118.415	-23.099	-8191	255	
1866.418	1	1	0	0	0.14022	0.19933	0.080757	0.071729	0.19709	0.058424	0.27731	0.11659	0.13863	0.23171	0.30911	0.13555	0.17947	0.16772	0.074492	0.20161	-2.6146	-3.3937	-3.1562	-3.0521	-3.3208	-3.0646	-3.2562	-3.375	-2.9	-3.5375	-3.3083	-3.0687	-3.3542	-2.9417	-3.0646	-3.2771	-13.921	218.062	307.223	229.590	293.477	70.250	192.614	242.745	200.139	175.684	280.284	264.913	-5.166	242.046	-46.227	268.587	9.8073e-05	0.00078547	0.00062576	1116.4	2.2446e-05	8.0799e-06	1035.1	293.42	2.0186e-05	2.1942e-05	284.68	87.284	89.279	40.203	1.549e-05	41.452	0.011487	0.017911	0.004998	1008.2	0.00017919	0.0002013	940.75	269.03	0.00017852	0.00019717	280.44	87.227	92.236	38.732	0.00018532	41.658	107.269	-24.285	151.049	-33.883	295.879	179.359	-35.075	-29.735	108.961	197.939	-31.621	-27.530	-25.707	-19.802	14.093	-23.402	-8191	255	
1866.514	1	1	0	0	0.22772	0.24491	0.080026	0.03665	0.053781	0.32953	0.2496	0.22023	0.066223	0.23284	0.16363	0.13433	0.23427	0.16419	0.12202	0.34577	-2.5104	-3.4083	-2.975	-2.9146	-3.4729	-3.15	-3.3937	-3.2792	-2.8125	-3.2875	-3.375	-2.9854	-3.4292	-2.9396	-3.1333	-3.4479	300.527	300.566	116.825	170.461	7.017	129.670	303.561	282.116	176.746	75.039	232.779	-18.025	222.983	224.677	-5.936	294.627	0.00057774	0.00094049	0.00086839	1114.3	1.18e-05	2.4909e-05	1035.6	292.7	1.711e-05	1.846e-05	277.79	86.013	89.492	39.978	8.4735e-06	40.803	0.011384	0.017742	0.0048956	1004.5	0.00017561	0.00019711	935.51	268.86	0.00017601	0.00019697	276.36	86.213	91.849	38.302	0.00018523	40.94	48.835	138.530	20.663	-33.665	74.744	252.901	-34.958	-29.243	35.773	-2.046	-31.013	-27.496	-26.655	-19.878	-35.498	-23.287	-8191	255	
1866.610	1	1	0	0	0.14069	0.1807	0.10749	0.077887	0.17695	0.07085	0.25645	0.15469	0.20373	0.29255	0.1301	0.092366	0.25423	0.087695	0.20424	0.077655	-2.4646	-3.1771	-3.1063	-2.8521	-3.4833	-3.2521	-3.1125	-3.6396	-2.8104	-3.2729	-3.2104	-2.9437	-3.2979	-3.0896	-3.025	-3.5021	185.518	292.740	178.275	127.814	-13.049	-30.812	289.124	-19.885	210.739	123.024	-40.454	-29.859	21.471	208.821	172.222	204.941	0.00030104	0.0027135	0.00041705	1098.6	1.5619e-05	2.9369e-05	1024	287.8	1.5996e-05	1.9759e-05	275.21	84.245	88.06	39.798	2.8406e-06	41.032	0.011607	0.017847	0.0049875	993.8	0.00018042	0.00020115	922.28	265.87	0.0001808	0.00019852	274.37	85.606	91.154	38.491	0.00018549	41.129	163.060	148.541	267.042	-34.057	174.425	300.784	-35.191	-29.397	180.554	100.968	-31.065	-27.764	-26.137	-19.912	18.343	-23.368	-8191	255	
1866.706	1	1	0	0	0.064861	0.23762	0.23157	0.21455	0.0059496	0.13385	0.39285	0.23583	0.26166	0.10422	0.10996	0.091116	0.039747	0.11648	0.033186	0.27404	-2.6729	-3.2333	-3.0854	-2.8667	-3.4854	-3.25	-3.0375	-3.5667	-2.7521	-3.3167	-3.4521	-3.0229	-3.2417	-3.0563	-3.0646	-3.6188	34.905	7.334	220.786	292.482	274.229	127.234	250.410	240.334	66.795	184.740	268.529	115.301	134.815	250.361	245.718	227.556	0.00052946	0.0013992	3.0738e-05	1094.4	2.3891e-06	1.4326e-05	1025.3	290.46	2.0415e-05	1.6668e-05	283.38	86.565	90.21	40.725	1.5871e-05	41.525	0.011776	0.017918	0.0049932	987.93	0.00017935	0.00019896	923.84	267.17	0.00018072	0.00019935	279.51	87.202	92.974	38.838	0.00018451	41.92	25.517	88.639	-9.475	-33.662	278.709	118.983	-34.985	-29.811	115.436	96.844	-31.434	-27.879	-25.910	-19.760	100.946	-23.202	-8191	255	
1866.802	1	1	0	0	0.12051	0.18653	0.25569	0.12425	0.088275	0.20446	0.13826	0.28934	0.094181	0.057774	0.25679	0.26468	0.10407	0.12276	0.14673	0.23542	-2.7479	-3.3354	-3.375	-2.9813	-3.3396	-3.2229	-2.95	-3.5146	-2.9562	-3.15	-3.4729	-3.025	-3.2583	-3.1104	-2.7042	-3.4667	65.872	104.788	-40.819	2.191	-2.444	19.345	248.820	235.760	-15.505	30.166	293.295	256.080	29.694	121.574	213.860	248.719	0.00021988	0.00038879	0.00012899	1106.8	1.0804e-05	2.9456e-06	1047.9	295.83	1.3464e-05	2.4577e-05	280.75	87.857	90.519	40.472	1.194e-05	41.973	0.011673	0.01782	0.0049427	1004.2	0.00018133	0.00020176	943.43	271.98	0.0001826	0.00020073	281.47	88.429	93.63	39.009	0.00018836	42.096	137.317	179.131	52.994	-34.011	155.657	62.910	-35.048	-29.205	-19.993	156.216	-31.118	-27.716	-25.888	-19.783	288.058	-23.266	-8191	255	
1866.897	1	1	0	0	0.19582	0.050237	0.14864	0.10725	0.32142	0.11725	0.076263	0.15815	0.047261	0.10752	0.22128	0.17641	0.35795	0.43841	0.083234	0.13424	-2.6792	-3.0646	-3.2812	-3.0938	-3.275	-3.4833	-2.9104	-3.3542	-2.9813	-3.0312	-3.6417	-2.9333	-3.2896	-3.3854	-3.0896	-3.4604	239.457	81.150	174.982	172.201	-46.951	232.453	-30.431	240.432	260.794	175.248	1.944	188.665	-39.438	301.041	102.893	160.016	0.00031637	0.0035077	0.00025084	1112.1	5.6455e-06	2.2659e-05	1038	294.24	8.335e-06	2.6589e-05	277.84	86.186	88.778	40.372	1.6727e-05	41.163	0.012004	0.018087	0.0050605	1007	0.00018305	0.00020363	939.43	270.09	0.00018391	0.00020309	278.8	87.527	92.617	38.744	0.00019336	41.651	37.140	196.472	306.681	-33.952	38.591	81.492	-34.828	-29.114	309.894	75.665	-31.709	-27.451	-25.549	-19.741	137.838	-23.110	-8191	255	
1866.993	1	1	0	0	0.13845	0.14414	0.07791	0.093323	0.1051	0.1713	0.26337	0.30511	0.14702	0.14717	0.22081	0.22328	0.070749	0.17988	0.1973	0.24102	-2.7271	-2.9583	-3.3521	-3.0833	-3.0563	-3.1562	-2.7062	-3.1667	-3.0042	-2.8167	-3.3854	-3.1521	-3.2104	-3.3542	-2.9292	-3.3375	131.200	2.646	165.980	-8.782	117.600	90.991	4.547	227.083	260.417	170.739	250.481	76.525	23.454	284.174	-44.308	260.237	6.3143e-05	0.00091172	0.00018551	1104.3	7.7647e-06	9.3681e-06	1020.1	287.39	1.156e-05	1.51e-05	274.18	86.076	88.671	40.508	7.1272e-06	41.294	0.012154	0.018588	0.005238	1000.9	0.00019035	0.00021129	930.23	267.12	0.00018959	0.00020847	276.85	86.935	92.901	38.957	0.00019559	41.736	295.755	29.409	264.195	-33.919	171.083	109.220	-35.128	-29.561	306.555	26.535	-31.341	-27.211	-25.796	-20.248	202.392	-22.752	-8191	255	
1867.091	1	1	0	0	0.12181	0.17677	0.15273	0.3363	0.13301	0.075809	0.30164	0.14713	0.19957	0.048257	0.16057	0.18169	0.093588	0.12805	0.046967	0.1559	-2.8	-2.8104	-3.4083	-2.9229	-2.7667	-3.2417	-2.8021	-3.25	-3.3833	-2.8396	-3.4979	-3.1833	-2.8583	-3.4437	-2.8646	-3.2646	102.881	119.535	91.571	271.282	57.714	309.516	235.380	264.916	247.474	231.171	222.849	156.056	266.706	-28.579	255.636	74.121	0.00052278	0.0012942	0.00023069	1106.3	8.8232e-06	9.9931e-06	1021.7	285.99	2.3219e-05	3.3945e-05	279.16	85.811	89.479	40.977	6.5927e-06	41.915	0.012268	0.018686	0.0051916	1004.6	0.00018786	0.00020768	932.32	267.15	0.00018532	0.00020783	279.75	87.752	93.116	39.322	0.0001985	42.141	149.313	81.318	149.412	-33.740	241.394	298.148	-34.907	-29.703	114.493	167.031	-30.541	-27.444	-25.938	-19.976	228.253	-23.614	-8191	255	
1867.210	1	1	0	0	0.23021	0.12228	0.061302	0.14293	0.092729	0.18303	0.13722	0.17496	0.13764	0.17312	0.16045	0.17281	0.29111	0.29619	0.19881	0.29869	-2.8771	-2.975	-3.3542	-3.4125	-2.9854	-3.2792	-2.9792	-3.2062	-3.2833	-2.8583	-3.3146	-3.1958	-3.0333	-3.3646	-2.8375	-3.0958	6.498	-11.344	-18.098	247.912	68.976	110.614	174.900	242.536	248.292	99.657	45.450	-45.148	-5.402	7.232	106.691	25.871	0.00022394	0.0015928	0.00043487	1110.2	1.1032e-05	1.731e-05	1034.2	293.18	2.6295e-05	1.4785e-05	281.38	88.415	90.726	41.055	3.1261e-05	42.004	0.012257	0.018669	0.0052127	1008.7	0.0001873	0.00020699	945.85	270.59	0.00018632	0.00020826	282.23	89.02	94.011	39.458	0.00019395	42.595	205.799	25.678	69.274	-33.612	125.821	-26.724	-34.976	-29.351	68.880	-11.282	-31.136	-27.625	-25.579	-19.368	82.150	-23.067	-8191	255	
1867.281	1	1	0	0	0.32614	0.19747	0.13556	0.10424	0.18933	0.14816	0.11285	0.17669	0.171	0.1015	0.13708	0.026975	0.13815	0.04094	0.14168	0.074748	-2.9896	-2.7667	-3.3292	-3.1458	-2.6562	-3.4708	-3.1667	-3.1771	-3.3729	-2.8167	-3.0771	-2.9458	-2.8167	-3.5708	-3.2	-3.0833	79.827	283.303	196.543	157.318	161.088	22.221	268.425	268.260	209.366	298.247	256.748	-23.359	-25.423	308.990	312.084	187.910	0.00046246	0.0012333	0.0003655	1130.8	1.4812e-05	2.1807e-05	1051	294.63	8.6034e-06	3.9655e-05	279.41	87.116	91.705	41.346	1.068e-05	42.319	0.012072	0.018754	0.0052451	1020.6	0.00018687	0.00020973	952.43	271.23	0.00018772	0.00021093	281.56	88.854	94.144	39.596	0.00019473	42.337	77.498	18.622	206.400	-33.553	92.816	34.520	-35.256	-29.024	-42.510	194.563	-31.430	-27.521	-25.756	-19.677	137.092	-23.538	-8191	255	
1867.377	1	1	0	0	0.16338	0.13432	0.056063	0.20104	0.10904	0.19406	0.22355	0.17702	0.099344	0.097207	0.062202	0.3628	0.14667	0.12467	0.047903	0.18496	-2.9896	-2.8	-3.0646	-3.2542	-2.8521	-3.4625	-3.425	-3.0604	-3.2583	-2.8	-3.3729	-3.3708	-2.9167	-3.3396	-3.0104	-2.975	30.393	257.742	18.125	-37.299	198.019	212.241	219.441	285.199	292.195	244.279	6.102	247.509	136.144	31.152	57.674	-8.098	0.00017113	0.0015995	0.00043575	1120.2	1.4234e-05	1.4218e-05	1055.2	295.71	9.6123e-06	1.9993e-05	284.63	88.875	92.143	40.837	1.6679e-05	41.826	0.011766	0.01865	0.0050772	1013.6	0.00018269	0.00020286	953.39	272.1	0.00018383	0.0002046	283.66	89.322	94.62	39.288	0.00019179	42.124	31.235	223.351	130.699	-33.584	86.197	32.176	-34.781	-29.296	90.107	151.524	-30.951	-27.963	-25.983	-20.200	50.611	-23.306	-8191	255	
1867.498	1	1	0	0	0.062785	0.044766	0.042491	0.16012	0.3316	0.054616	0.083384	0.028998	0.36323	0.14732	0.10627	0.15089	0.064657	0.22033	0.072087	0.08006	-3.125	-2.9396	-3.1167	-3.3167	-2.8438	-3.3104	-3.4021	-3.0187	-3.325	-2.7542	-3.0438	-3.3438	-2.8729	-3.3583	-3.0167	-2.8312	12.376	133.830	162.783	223.721	46.643	4.454	224.594	105.151	262.477	19.793	181.328	-29.456	298.571	-5.071	282.011	-28.506	0.00048779	0.0012099	0.00069169	1134.5	1.7555e-05	2.374e-05	1060.2	295.48	1.6792e-05	8.6838e-06	287.17	87.245	91.695	40.565	1.1266e-05	41.615	0.011751	0.018666	0.0050408	1018.5	0.00018244	0.00020258	956.83	272.56	0.00018209	0.00020461	284.08	88.893	94.516	39.163	0.00019232	42.071	53.941	75.573	18.505	-33.644	19.126	270.900	-35.314	-29.361	131.036	125.401	-31.127	-27.401	-25.805	-20.379	290.205	-22.926	-8191	255	
1867.594	1	1	0	0	0.2157	0.1725	0.18623	0.23418	0.16652	0.2572	0.15421	0.43443	0.27031	0.13769	0.20904	0.037122	0.2449	0.1175	0.08259	0.23912	-3.1104	-2.9646	-2.9188	-3.3042	-2.8417	-2.9458	-3.1729	-2.8646	-3.3312	-3.1729	-2.9396	-3.4167	-2.8833	-3.6271	-3.3792	-3.0083	120.307	208.251	57.824	207.774	290.701	148.148	280.959	242.833	272.016	113.701	-42.508	258.410	295.761	-20.261	-44.045	-5.014	0.00030235	0.0013765	0.00069845	1124	1.0747e-05	1.2594e-05	1050.5	297.45	7.2903e-06	4.1904e-05	289.06	88.405	90.749	40.499	2.1827e-05	42.044	0.011848	0.018675	0.0051122	1013.1	0.00018432	0.00020268	954.48	273.69	0.00018177	0.0002019	285.06	88.585	94.275	39.02	0.00018951	42.302	10.520	274.466	10.074	-34.061	52.283	34.733	-35.390	-29.689	-22.738	35.365	-31.262	-28.121	-25.576	-19.312	-18.926	-23.404	-8191	255	
1867.690	1	1	0	0	0.28339	0.12762	0.17541	0.30871	0.14581	0.045422	0.27885	0.03471	0.12109	0.10821	0.1528	0.079591	0.081297	0.10642	0.18492	0.32387	-2.9271	-3.1125	-2.8937	-3.4875	-2.8396	-3.2979	-3.5438	-3.1167	-3.1896	-3.0208	-3.0812	-3.4042	-2.9542	-3.0938	-3.2521	-3.0146	107.757	121.291	96.029	206.280	22.418	266.252	227.092	98.812	113.899	34.249	143.444	-8.057	261.637	297.749	107.308	217.981	0.00036933	0.0022491	0.00064519	1124.7	1.544e-05	1.9157e-05	1060.3	297.57	8.9083e-06	2.5589e-05	290.17	87.653	90.633	40.325	4.5046e-06	41.345	0.011797	0.018772	0.0050199	1018.2	0.00018579	0.00020174	960.05	275.18	0.00018444	0.0002023	287.06	88.657	94.074	38.764	0.00018672	41.565	75.712	42.783	50.212	-33.594	286.163	63.243	-35.189	-28.895	-1.342	0.477	-30.984	-27.218	-26.168	-19.815	185.498	-22.956	-8191	255	
1867.811	1	1	0	0	0.16261	0.028154	0.13567	0.08654	0.25175	0.20879	0.1027	0.18893	0.1118	0.098949	0.063552	0.044406	0.074128	0.15675	0.20377	0.20398	-2.9604	-2.975	-2.7438	-3.3812	-2.9938	-3.275	-3.5104	-3.0083	-3.0312	-3.2625	-3.0187	-3.3812	-3.1792	-2.8854	-3.5312	-2.8396	10.896	-32.189	125.075	-41.088	250.652	92.546	299.443	220.225	66.469	71.452	177.488	275.986	-12.691	-33.320	-2.837	232.183	0.00015446	0.0010448	0.00071046	1118.5	1.5068e-05	1.7042e-05	1058.5	296.32	8.3717e-06	3.566e-05	285.82	87.794	90.499	40.275	2.2382e-05	40.952	0.011564	0.018064	0.0049811	1011.1	0.00018185	0.00019866	952	272.77	0.00018124	0.00020273	283.11	88.184	93.686	38.565	0.00018853	41.248	185.059	209.324	83.075	-33.963	238.475	-19.565	-35.373	-29.762	102.693	73.931	-31.569	-27.461	-25.913	-19.870	67.217	-22.738	-8191	255	
1867.883	1	1	0	0	0.22147	0.17892	0.27408	0.27486	0.11628	0.19755	0.10039	0.17807	0.22911	0.10965	0.21715	0.19064	0.075765	0.18652	0.019082	0.26922	-2.7958	-3.2125	-2.8917	-3.6729	-3.0708	-2.925	-3.4083	-3.0958	-3.1604	-3.3958	-2.9896	-3.1813	-2.9396	-2.8833	-3.3563	-2.9	53.869	288.645	297.991	307.049	289.861	63.144	132.379	197.222	41.121	116.282	-38.189	179.453	-29.987	25.447	168.983	257.749	0.00034642	0.0012613	0.00062177	1122.2	8.9874e-06	1.6566e-05	1056.1	294.71	1.9593e-05	6.3309e-06	288.05	87.752	89.949	39.804	1.9828e-05	41.329	0.011767	0.018478	0.0050495	1012.7	0.00018289	0.00020211	953.48	272.42	0.00018363	0.00020328	284.96	87.959	93.862	38.769	0.00019613	41.782	147.153	50.764	87.706	-33.795	-18.780	113.742	-35.142	-29.134	183.697	26.708	-31.367	-27.785	-25.405	-19.334	261.425	-23.384	-8191	255	
1867.977	1	1	0	0	0.1002	0.079681	0.32731	0.26865	0.21192	0.33268	0.23331	0.1285	0.37219	0.12491	0.25317	0.28868	0.071049	0.049882	0.24196	0.13172	-2.5271	-3.2104	-2.7375	-3.2542	-3.2083	-2.6437	-3.475	-3.1479	-3.0729	-3.4833	-2.9062	-3.1333	-3.2646	-2.8146	-3.2792	-2.9708	122.732	228.787	216.282	233.237	168.801	212.199	5.382	-20.712	28.717	-39.532	38.179	240.439	-25.379	205.617	81.001	-21.713	0.0005739	0.0010142	0.00034222	1122.7	8.7134e-06	9.1047e-06	1050	297.08	4.7006e-06	8.8839e-06	288.54	88.067	91.501	40.274	2.4255e-05	41.435	0.012086	0.018804	0.0052853	1019	0.00018882	0.00020766	956.23	274.75	0.00018725	0.00020586	286.75	89.152	94.886	38.846	0.00019697	41.986	49.492	-31.658	74.038	-33.875	125.230	-34.799	-35.144	-29.441	263.670	-35.075	-31.316	-27.622	-26.088	-20.454	98.419	-22.962	-8191	255	
1868.098	1	1	0	0	0.17314	0.15068	0.42212	0.13318	0.046381	0.098357	0.2846	0.21091	0.18744	0.13346	0.15884	0.14521	0.31181	0.047952	0.15316	0.094803	-2.4917	-3.4271	-2.8438	-3.2958	-3.2771	-2.7938	-3.2833	-3.0917	-2.8583	-3.4917	-2.9646	-3.2188	-2.9958	-2.8021	-3.3125	-3.1146	271.338	161.044	123.122	-42.513	83.870	31.836	251.571	162.007	31.409	300.071	37.438	287.111	36.417	204.981	310.790	105.288	0.00015512	0.0035152	0.0002238	1132.6	3.8044e-06	8.7587e-06	1064.9	299.76	9.2176e-06	2.0995e-05	289.74	89.319	91.581	40.421	2.4627e-05	41.978	0.012196	0.01912	0.0053761	1025.6	0.0001919	0.00021207	969.26	276.93	0.00019189	0.0002151	290.62	90.131	95.354	39.107	0.00020108	42.432	85.244	250.009	191.839	-34.049	123.779	108.571	-35.304	-29.666	64.045	106.138	-31.474	-27.323	-25.873	-20.111	30.013	-23.135	-8191	255	
1868.194	1	1	0	0	0.18578	0.14985	0.21852	0.58096	0.040992	0.26951	0.13719	0.15261	0.036483	0.062543	0.14273	0.1488	0.19996	0.1408	0.14538	0.28759	-2.5979	-3.2938	-2.6979	-3.0771	-3.0792	-2.6896	-3.4313	-3.1042	-2.8688	-3.1396	-2.975	-3.1479	-3.3167	-2.8292	-3.1896	-3.1104	117.834	44.764	193.896	309.439	172.679	37.974	280.416	261.658	61.836	178.575	200.211	112.017	148.371	-30.169	-15.218	148.005	3.929e-05	0.0024292	0.00041889	1135.7	1.2046e-05	1.7603e-05	1060.5	296.53	1.3584e-05	4.4425e-06	288.56	88.015	91.23	40.851	3.0762e-05	41.809	0.012127	0.019078	0.0053884	1030	0.00019161	0.00021268	967.41	277.02	0.00019233	0.00021572	289.58	89.843	95.347	39.247	0.00019783	42.184	267.332	149.874	242.149	-33.899	153.888	277.844	-34.852	-29.429	126.140	280.609	-31.237	-27.399	-26.517	-19.852	226.596	-23.549	-8191	255	
1868.290	1	1	0	0	0.032076	0.28653	0.15485	0.17013	0.15415	0.21441	0.23291	0.04912	0.16227	0.10654	0.24437	0.14297	0.10019	0.045213	0.24652	0.14819	-2.5312	-3.3417	-2.8708	-3.0479	-3.3063	-2.9167	-3.6208	-3.2958	-2.8063	-3.2021	-2.7792	-3.0646	-3.5021	-2.8792	-3.1854	-3.2896	158.562	-26.684	209.603	-46.447	83.947	-20.212	-0.789	215.627	80.848	261.769	209.605	74.094	198.814	262.816	123.205	195.009	0.00043883	0.00068524	0.00085243	1132.2	1.1663e-05	1.2818e-05	1064.8	295.16	6.9719e-06	1.0318e-05	284.12	86.139	89.987	39.561	4.0896e-05	41.068	0.012275	0.019123	0.0054385	1029.6	0.00019321	0.00021257	968.92	275.37	0.00019428	0.00021856	286.94	88.55	94.547	38.657	0.00020293	41.672	159.046	301.457	235.989	-33.920	-23.801	75.199	-34.938	-29.756	250.109	285.428	-30.829	-27.817	-26.392	-19.840	204.972	-23.052	-8191	255	
1868.411	1	1	0	0	0.20156	0.1291	0.24378	0.17618	0.20154	0.23625	0.1281	0.20692	0.052552	0.19773	0.16875	0.16339	0.20066	0.014084	0.062979	0.2119	-2.525	-3.275	-2.7562	-2.975	-3.5187	-2.8333	-3.1729	-3.3333	-2.6521	-3.4042	-3.1729	-2.9875	-3.5729	-3.1167	-3.1562	-3.5146	67.474	230.551	176.464	272.057	51.310	288.659	238.905	263.129	115.426	42.420	175.453	-44.417	309.351	275.212	101.083	261.340	0.00015593	0.0018139	0.00043847	1134.7	1.5224e-05	1.231e-05	1062.6	295.03	2.2885e-05	2.3938e-05	285.54	87.529	89.591	39.354	1.1908e-05	40.986	0.012484	0.01934	0.0053634	1024.4	0.00019259	0.00021311	959.27	273.14	0.00019191	0.00021418	284.86	88.996	93.69	38.39	0.0002016	41.743	49.744	-26.552	136.976	-33.640	-16.730	-33.023	-35.161	-29.314	49.573	135.875	-31.153	-27.721	-25.670	-20.710	249.043	-23.765	-8191	255	
1868.507	1	1	0	0	0.14475	0.13629	0.095416	0.29932	0.073912	0.022391	0.24606	0.054817	0.17457	0.14901	0.12691	0.12025	0.21533	0.20686	0.092484	0.072321	-2.6229	-3.3792	-3.0708	-2.8021	-3.4813	-2.9271	-3.3333	-3.4896	-3.1583	-3.3104	-3.2104	-2.8979	-3.4042	-3.2354	-3.0167	-3.3667	298.311	253.693	65.948	267.098	129.377	-41.973	236.641	311.841	102.028	272.237	227.160	299.777	24.901	300.593	53.497	108.187	0.00031161	0.00081542	0.00019884	1137.5	1.9684e-05	9.8423e-06	1056.7	293.36	1.272e-05	1.7978e-05	284.68	86.532	88.821	39.106	3.5637e-05	41.088	0.01243	0.019335	0.0054618	1029	0.00019456	0.00021423	963.1	272.52	0.00019455	0.00021386	285.1	88.7	93.582	38.244	0.00020012	41.445	112.478	65.453	87.133	-33.751	250.748	288.812	-35.476	-29.422	-19.741	71.476	-31.174	-28.311	-26.092	-19.795	285.231	-23.501	-8191	255	
1868.578	1	1	0	0	0.19588	0.12044	0.13435	0.31169	0.31557	0.12616	0.30186	0.084729	0.16326	0.2125	0.058763	0.19177	0.084906	0.069781	0.15444	0.097766	-2.4854	-3.3229	-3.2771	-3.0583	-3.2438	-2.9062	-3.1875	-3.5979	-2.9562	-3.3875	-3.1771	-2.7083	-3.2521	-3.2729	-3.0687	-3.4771	183.090	282.221	240.159	265.391	-10.165	60.711	-38.652	258.079	225.238	170.735	272.453	279.002	-37.077	-1.767	75.045	309.238	0.00039359	0.0016957	6.5872e-05	1125.9	8.6925e-06	9.6686e-06	1048	289.11	2.2046e-05	8.438e-06	279.63	85.515	86.887	38.817	1.6627e-05	39.448	0.012423	0.019452	0.0053952	1021.9	0.00019623	0.00021226	956.9	269.73	0.000197	0.00021533	281.52	86.826	91.793	37.482	0.00019851	40.317	119.275	36.848	47.036	-33.983	108.815	215.853	-35.222	-29.505	192.114	212.732	-30.988	-27.839	-25.685	-19.673	166.552	-23.447	-8191	255	
1868.675	1	1	0	0	0.21769	0.2273	0.1518	0.088814	0.035769	0.12147	0.33159	0.088525	0.10442	0.13504	0.175	0.14341	0.18866	0.15987	0.062525	0.23203	-2.3542	-3.2104	-3.1917	-3.0521	-3.4979	-3.3042	-2.9042	-3.4146	-2.9583	-3.1188	-3.475	-2.7292	-3.2	-3.3104	-2.9583	-3.4521	84.420	-29.113	57.247	53.472	170.776	309.687	276.399	169.945	-1.855	-1.177	246.824	78.013	302.594	308.326	-35.163	93.598	0.00035333	0.002442	0.00052757	1108.3	3.0781e-05	1.7583e-05	1035.4	287.08	1.9566e-05	6.1393e-06	275.15	83.714	86.274	37.174	1.6703e-05	38.544	0.01243	0.0191	0.0053803	1009.1	0.00019158	0.00020776	942.16	267.4	0.00019214	0.00021013	277.24	85.937	90.558	36.508	0.00019952	39.7	14.852	-19.652	112.400	-33.848	81.123	149.581	-35.344	-29.605	243.772	1.122	-31.581	-27.837	-25.760	-19.336	299.425	-22.961	-8191	255	
1868.771	1	1	0	0	0.27801	0.11464	0.10319	0.12608	0.11811	0.056351	0.34449	0.09231	0.098131	0.38646	0.46356	0.17252	0.29154	0.13969	0.12827	0.065481	-2.5396	-3.1042	-3.2292	-3.2292	-3.1312	-3.0125	-2.9313	-3.65	-3.0229	-2.8563	-3.2479	-2.8979	-3.3812	-3.2458	-2.6396	-3.2646	270.957	190.477	232.109	298.959	66.204	123.291	267.195	-27.912	127.817	-15.153	301.764	185.017	272.727	291.774	160.032	179.782	0.00020046	0.0020317	0.00073083	1107.7	3.1146e-05	3.1513e-05	1040.7	288.88	1.4912e-05	1.2408e-05	281.52	83.587	86.617	37.245	1.9735e-05	38.227	0.012325	0.0188	0.0053672	1008.3	0.00019204	0.00021088	944.96	268.76	0.00019413	0.0002101	279.69	86.091	91.22	36.673	0.00019856	39.585	-34.019	64.795	34.997	-33.609	115.280	121.367	-35.027	-29.501	103.492	51.726	-30.831	-27.779	-26.115	-19.486	93.305	-23.839	-8191	255	
1868.890	1	1	0	0	0.051545	0.26841	0.17755	0.14786	0.19463	0.1722	0.23363	0.23546	0.21122	0.17467	0.18772	0.058321	0.14583	0.1381	0.19669	0.32519	-2.4542	-2.8521	-3.2833	-3.0687	-3.1708	-3.2729	-2.9	-3.5729	-3.3208	-2.9688	-3.4625	-2.8875	-3.1063	-3.375	-2.9833	-3.1479	108.300	222.273	42.660	252.431	5.830	73.354	188.589	293.349	57.438	171.811	214.218	308.072	14.568	-45.359	-20.011	254.609	0.00041887	0.0019562	0.00033813	1115.6	2.5804e-05	3.1849e-05	1039.3	288.03	2.281e-05	2.7291e-05	275.81	83.284	86.342	37.013	1.1228e-05	38.22	0.012235	0.019021	0.0053294	1010.2	0.00018924	0.00020696	946.15	266.19	0.00019042	0.00021028	279.01	85.383	90.698	36.31	0.0002032	39.494	181.801	20.281	296.430	-34.016	46.279	129.464	-35.037	-28.994	244.717	52.091	-31.341	-27.257	-26.021	-19.858	234.232	-23.367	-8191	255	
1868.986	1	1	0	0	0.062209	0.12148	0.12944	0.26752	0.19936	0.096559	0.29751	0.071783	0.10101	0.060473	0.312	0.40753	0.3261	0.081978	0.18818	0.050625	-2.6562	-2.7896	-3.4917	-3.1771	-3.0958	-3.2167	-2.9104	-3.3104	-3.1333	-2.9688	-3.4292	-2.9792	-3.1479	-3.4062	-2.8771	-3.2687	109.037	36.634	119.897	278.875	296.455	232.749	248.284	245.811	263.648	200.565	250.271	46.721	171.673	42.142	190.738	133.412	0.00013428	0.0013667	0.00045339	1112.4	3.8317e-05	7.4487e-06	1051.7	288.2	6.8357e-07	1.9826e-05	279.31	83.263	84.911	36.485	1.1704e-05	37.663	0.012457	0.0194	0.0054878	1019	0.00019503	0.00021441	956.58	267.55	0.00019461	0.00021425	280.85	85.195	89.945	35.877	0.00020052	38.875	95.115	43.535	119.297	-33.838	45.700	36.466	-34.824	-29.828	41.880	130.312	-31.447	-27.070	-25.927	-19.702	50.484	-22.795	-8191	255	
1869.082	1	1	0	0	0.30615	0.16028	0.14765	0.23408	0.13185	0.1363	0.26573	0.20507	0.20832	0.086768	0.14531	0.12901	0.13507	0.13626	0.30417	0.01604	-2.7917	-2.9917	-3.3333	-2.9875	-3.175	-3.2521	-2.9979	-3.2438	-3.1479	-2.8458	-3.3854	-2.9042	-2.9333	-3.6146	-2.9104	-3.05	205.922	-3.511	116.366	238.529	195.443	117.157	251.308	193.715	173.373	113.155	164.192	-13.020	290.094	108.796	59.129	73.920	0.00028215	0.0011707	0.00035568	1110.5	1.2662e-05	2.5192e-05	1045.5	287.42	1.3086e-05	1.5985e-05	272.81	82.924	84.757	36.725	1.757e-05	37.696	0.012338	0.01918	0.0054166	1016.6	0.00019418	0.00021512	948.72	266.65	0.00019281	0.00021544	278.16	85.326	90.084	35.952	0.00020541	39.001	277.197	151.129	91.909	-33.960	126.676	294.344	-34.954	-29.395	86.106	137.800	-30.860	-27.602	-26.075	-19.975	138.170	-22.792	-8191	255	
1869.178	1	1	0	0	0.16463	0.076827	0.093327	0.19692	0.12739	0.13129	0.3874	0.21481	0.17761	0.1883	0.12151	0.29185	0.32032	0.153	0.26725	0.14645	-2.8688	-2.7229	-3.3979	-3.0958	-3.0958	-3.3104	-2.9958	-2.9875	-3.4062	-2.8438	-3.2812	-3.0625	-3.0396	-3.5062	-2.8	-3.0271	108.376	162.108	-14.006	236.342	129.804	156.978	210.124	25.773	-45.519	227.840	298.506	245.407	150.113	297.816	111.706	211.804	0.00047644	0.0029601	0.0006118	1119.7	1.2106e-05	1.5747e-05	1045.6	287.84	1.7694e-05	2.9591e-05	270.76	81.617	83.218	36.069	6.4056e-06	36.98	0.012329	0.019612	0.005376	1018.4	0.00019207	0.0002153	948.09	266.38	0.00019467	0.00021467	276.71	84.21	89.465	35.669	0.00020277	38.685	114.972	85.619	21.147	-34.011	68.191	239.698	-35.004	-29.428	5.608	261.709	-31.272	-26.905	-25.836	-19.674	68.300	-22.828	-8191	255	
1869.274	1	1	0	0	0.032688	0.13827	0.091799	0.12342	0.13912	0.15423	0.073284	0.086475	0.13963	0.14587	0.16766	0.30906	0.098713	0.077039	0.31729	0.20147	-2.875	-2.6937	-3.0104	-3.3833	-2.8958	-3.2167	-2.9979	-3.0833	-3.2521	-2.8854	-3.2083	-3.0958	-2.7729	-3.2771	-2.8979	-3.1521	192.112	173.241	120.018	242.831	-10.171	278.268	194.392	284.350	300.080	151.845	290.585	121.648	204.255	134.395	183.818	265.583	0.00035917	0.002256	0.00042457	1117.1	2.1308e-05	8.9396e-06	1045.1	286.22	1.4161e-05	6.5916e-06	276.39	81.737	84.579	35.909	2.3449e-05	37.764	0.012552	0.019362	0.0053939	1016.1	0.00019442	0.00021589	949.24	265.71	0.00019679	0.00021788	277.18	84.193	89.957	35.631	0.00020791	39.073	60.098	139.902	-13.773	-34.009	45.340	58.855	-35.025	-29.529	12.393	51.796	-31.726	-27.349	-25.989	-19.694	-21.771	-23.155	-8191	255	
1869.370	1	1	0	0	0.12316	0.064769	0.2045	0.091262	0.18476	0.27784	0.11017	0.14618	0.080758	0.039467	0.22404	0.23709	0.25817	0.18804	0.070732	0.25157	-2.9896	-2.9542	-3.1333	-3.4854	-2.8521	-3.2417	-3.35	-3.1208	-3.4042	-2.9083	-3.0208	-3.1229	-2.7083	-3.2687	-3.35	-2.7604	1.181	224.956	248.177	226.825	200.229	94.913	243.963	-33.807	-16.495	152.654	27.053	-43.021	297.463	254.655	173.472	238.358	0.00014008	0.00086798	0.00069837	1123.4	2.3061e-05	1.2264e-05	1059.4	290.45	1.6845e-05	1.1942e-05	279.81	84.551	86.587	36.946	1.3589e-05	38.228	0.012773	0.019662	0.005494	1028.2	0.00019914	0.00021737	962.58	269.41	0.00020092	0.00022478	284.37	87.297	92.325	36.604	0.0002126	39.833	-38.189	271.576	160.628	-33.626	201.791	148.997	-35.168	-29.541	173.626	175.928	-30.939	-27.085	-25.618	-19.800	200.661	-23.494	-8191	255	
1869.491	1	1	0	0	0.096049	0.10839	0.15567	0.13324	0.17694	0.20719	0.21767	0.43626	0.011574	0.22143	0.17896	0.2325	0.15244	0.070718	0.2303	0.15652	-2.7604	-2.9583	-3.1646	-3.575	-2.7875	-3.2646	-3.4688	-3.2667	-3.3104	-3.075	-3.2875	-3.2917	-2.5792	-3.3479	-3.0271	-2.8292	8.324	67.825	105.348	239.983	114.905	99.974	276.672	286.761	-46.116	23.314	298.339	-4.902	-27.182	-32.843	34.040	138.772	0.00012295	0.0022874	0.00090584	1135.3	1.3844e-05	2.5445e-05	1065.6	290.97	2.8571e-06	1.3549e-05	280.32	85.409	86.631	37.325	6.4678e-06	38.407	0.013026	0.019973	0.0055008	1036.8	0.00019984	0.00022065	970.58	272.04	0.00020272	0.00022074	284.54	87.854	92.342	36.724	0.00021167	39.896	219.002	2.942	79.143	-33.779	264.590	29.500	-35.230	-29.357	-1.282	-23.676	-30.804	-28.028	-25.903	-19.448	73.502	-23.244	-8191	255	
1869.587	1	1	0	0	0.086317	0.25136	0.12357	0.30654	0.16974	0.18118	0.23218	0.23223	0.33283	0.15657	0.30816	0.2224	0.24689	0.31667	0.13737	0.23356	-3.0896	-2.8458	-2.9667	-3.4417	-2.8479	-3.2854	-3.3708	-2.7062	-3.5396	-3.1458	-3.1437	-3.1896	-2.7792	-3.2396	-3.2396	-2.9021	45.534	144.441	34.469	-41.468	32.226	223.379	-45.082	220.419	-43.430	188.730	-28.858	224.844	84.807	293.554	190.977	102.893	0.00029364	0.00021606	0.00012543	1133.9	4.3501e-06	1.8173e-05	1057.7	292.45	1.8889e-05	1.6875e-05	279.17	83.894	86.885	37.522	1.0423e-05	38.215	0.012918	0.019932	0.0055607	1036.5	0.00020296	0.00021731	961.3	270.6	0.0001984	0.00022474	282.48	86.544	91.716	36.703	0.00020707	39.565	32.396	240.037	31.042	-33.660	149.884	294.984	-35.244	-29.623	-30.229	287.734	-31.580	-27.919	-25.878	-19.766	17.364	-22.710	-8191	255	
1869.683	1	1	0	0	0.1456	0.05746	0.054519	0.07196	0.16752	0.14929	0.15809	0.12968	0.11478	0.15257	0.13123	0.092358	0.20998	0.13037	0.079243	0.11699	-2.7083	-3.0333	-2.9375	-3.4229	-2.9562	-3.175	-3.3438	-2.8458	-3.1271	-3.0542	-2.9437	-3.6625	-3.0563	-3.0708	-3.2062	-2.8333	63.136	256.668	299.917	297.267	111.925	227.748	273.191	263.902	67.077	278.802	243.175	-2.416	70.879	-33.010	45.722	5.496	8.4843e-05	0.0011898	0.0010301	1128.2	1.2317e-05	1.1461e-05	1048.8	288.11	6.1969e-06	1.7117e-05	277.67	83.386	86.369	37.005	1.5448e-05	38.095	0.012623	0.019528	0.0054943	1026.7	0.00020236	0.00021804	954.5	269.4	0.0001985	0.00022301	283.42	86.339	91.47	36.43	0.00021227	39.706	185.623	-37.231	-33.874	-33.744	204.779	128.898	-35.399	-29.365	191.741	17.726	-30.909	-27.620	-26.246	-19.557	293.859	-22.373	-8191	255	
1869.779	1	1	0	0	0.19286	0.082779	0.36587	0.20866	0.071146	0.1145	0.19725	0.24574	0.16268	0.13076	0.078213	0.048938	0.16788	0.059878	0.16244	0.086535	-2.9083	-3.1417	-2.9021	-3.6667	-3.1604	-3.2125	-3.3937	-3.0062	-3.475	-3.3896	-2.9583	-3.6667	-3.0542	-3.0104	-3.2833	-3.1667	302.767	-33.177	268.636	-0.270	82.701	309.724	-20.267	200.800	202.485	-39.152	17.327	141.041	41.500	273.421	-14.476	-27.971	8.7258e-05	0.0018769	0.00053016	1118.8	7.0045e-06	2.2295e-05	1050.1	287.01	1.636e-05	1.6073e-05	278.89	82.295	84.45	36.48	1.1942e-05	37.461	0.012979	0.019909	0.0055958	1025.9	0.00020131	0.00022201	957.79	268.8	0.00020054	0.00022596	283.35	85.976	90.377	36.052	0.00021568	39.217	107.681	7.665	90.723	-33.521	209.036	117.327	-34.824	-29.588	-24.392	142.668	-31.499	-27.988	-25.764	-20.022	242.963	-22.915	-8191	255	
1869.876	1	1	0	0	0.18557	0.25053	0.023177	0.13058	0.066735	0.12408	0.21084	0.063701	0.14617	0.12458	0.12259	0.10929	0.10904	0.10735	0.20616	0.26183	-2.8042	-3.0729	-2.9896	-3.5229	-2.9313	-2.7521	-3.5	-2.9396	-3.2208	-3.1458	-2.775	-3.2729	-3.1188	-3.0979	-3.4938	-2.9979	136.486	16.317	50.954	210.601	290.415	133.637	266.689	160.117	91.742	252.998	287.666	206.629	140.168	19.155	114.180	225.578	6.5528e-05	0.00044262	0.0010267	1119.4	2.3824e-05	1.1557e-05	1028.2	286.68	1.6133e-06	2.2134e-05	269.43	79.72	83.006	35.567	1.8128e-05	36.405	0.012918	0.020124	0.0057043	1019.1	0.00020743	0.00022375	946.1	266.63	0.0002027	0.00023066	278.09	84.015	89.762	35.319	0.00021668	38.463	74.723	304.072	85.838	-33.555	96.333	226.275	-34.981	-29.535	53.155	111.887	-31.455	-27.333	-26.183	-20.299	112.633	-23.368	-8191	255	
1869.970	1	1	0	0	0.11077	0.2126	0.091456	0.24037	0.18287	0.44354	0.078362	0.15707	0.10347	0.10836	0.045231	0.20033	0.10865	0.21495	0.15086	0.10619	-2.6271	-3.3771	-2.7979	-3.35	-3.1813	-2.8979	-3.6229	-3.0917	-3.0312	-3.6083	-3.0229	-3.1	-3.0792	-3.0958	-3.4896	-3.0875	182.578	235.951	-17.658	292.467	84.579	298.568	294.807	224.155	273.024	273.708	216.165	44.617	230.875	292.848	231.970	286.636	0.00026939	0.0021276	0.00049427	1103.3	1.4216e-05	1.2285e-05	1020.5	283.29	9.9348e-06	2.0168e-05	273.23	80.196	83.756	35.673	2.5134e-05	37.053	0.013169	0.020885	0.0058361	1013.6	0.00020993	0.00023021	939.16	265.38	0.00020688	0.00023385	279.43	83.942	90.247	35.588	0.00021355	38.81	168.289	67.325	49.348	-33.897	208.092	197.487	-35.082	-29.557	39.338	92.698	-30.992	-27.243	-25.490	-19.878	-42.804	-22.808	-8191	255	
1870.066	1	1	0	0	0.22417	0.049679	0.15979	0.25126	0.36229	0.11002	0.24155	0.19535	0.17212	0.04579	0.2734	0.13697	0.2097	0.21207	0.01908	0.22801	-2.8063	-3.3042	-2.5708	-3.3458	-3.3042	-2.8312	-3.5271	-3.1229	-3.0938	-3.1437	-3.0187	-3.1646	-3.2375	-2.9	-3.4021	-3.0896	-26.813	90.313	72.025	258.517	173.397	258.489	244.918	215.895	21.850	51.131	279.691	232.186	308.851	-44.929	187.971	140.613	0.00038216	0.0023604	0.00021162	1113.2	1.1028e-05	1.3172e-05	1035.3	288.36	1.4048e-05	2.2326e-05	279.96	82.383	84.011	35.899	2.8068e-05	37.158	0.013199	0.020494	0.0057086	1016	0.00020942	0.00022806	949.36	268.15	0.00020598	0.00022933	283.32	85.418	90.871	35.883	0.00021262	39.195	182.429	37.375	283.171	-33.633	122.414	33.918	-34.906	-29.242	305.021	185.455	-30.988	-27.469	-25.699	-20.059	43.795	-22.482	-8191	255	
1870.187	1	1	0	0	0.080695	0.11033	0.24419	0.28285	0.044891	0.2074	0.13571	0.23403	0.19307	0.062056	0.16065	0.27727	0.13719	0.29644	0.061011	0.19038	-2.525	-3.4708	-2.9542	-3.1354	-3.2792	-2.8812	-3.3208	-3.3292	-2.9125	-3.3812	-3.1396	-3.1688	-3.2583	-2.9083	-3.3292	-3.3271	86.496	27.884	201.530	206.355	234.390	145.290	13.103	298.723	270.892	118.767	-0.037	-27.250	246.255	5.800	119.397	299.126	0.00014189	0.00070928	0.00019426	1125.2	1.3695e-05	3.8853e-05	1056.3	291.23	1.3518e-05	1.4384e-05	282.28	84.435	86.67	37.326	1.7174e-05	38.346	0.013299	0.020817	0.0056829	1025.4	0.00021021	0.00023118	966.09	272.75	0.00021015	0.00023418	289.31	87.903	93.822	37.043	0.00021919	40.556	83.516	4.352	112.838	-33.752	279.763	96.226	-35.062	-29.475	118.084	138.367	-31.598	-27.856	-25.250	-19.503	-15.402	-23.323	-8191	255	
1870.283	1	1	0	0	0.080374	0.11474	0.30858	0.37881	0.20389	0.16593	0.13404	0.12574	0.082516	0.20406	0.066954	0.20774	0.10313	0.10361	0.13695	0.20514	-2.5208	-3.4396	-2.9708	-3.2188	-3.4354	-2.9313	-3.2229	-3.2083	-2.9729	-3.4583	-3.0375	-2.75	-3.4042	-2.925	-3.3583	-3.2458	25.995	-18.667	-47.443	193.344	134.225	155.485	222.994	245.513	279.255	144.164	147.720	273.515	15.066	285.266	269.163	307.458	0.0002653	0.00081252	0.00055163	1133.8	6.9998e-06	1.9764e-05	1073	294.02	8.3614e-06	1.455e-05	286.56	86.026	89.073	38.628	1.6709e-05	39.529	0.014009	0.021645	0.0060046	1040	0.00022681	0.00024378	980.57	277.47	0.00022317	0.00024682	293.92	89.766	96.104	38.404	0.00022847	41.542	111.244	111.142	-1.001	-34.156	11.120	42.839	-35.109	-29.547	56.901	-29.473	-31.234	-27.748	-26.702	-19.643	244.374	-23.238	-8191	255	
1870.379	1	1	0	0	0.21947	0.12405	0.30269	0.20758	0.12374	0.14476	0.47458	0.19718	0.25404	0.11616	0.17259	0.20526	0.25058	0.32456	0.13193	0.11317	-2.4062	-3.2313	-2.8896	-3.1542	-3.3	-3.0187	-3.3896	-3.3792	-3.0292	-3.4104	-3.1458	-2.8229	-3.3542	-2.8937	-3.1229	-3.3771	141.323	289.275	208.199	288.602	251.477	42.304	273.113	298.023	-26.091	90.792	274.216	290.344	275.079	164.486	175.586	143.274	0.00036926	0.00089189	0.001178	1127.5	8.3248e-06	8.7798e-06	1046.5	294.6	2.9216e-06	3.8959e-05	285.06	86.702	88.904	38.555	5.3945e-06	39.352	0.01429	0.021774	0.0060716	1038.2	0.00022575	0.00024699	965.65	277.1	0.00022687	0.00024862	293.39	90.912	96.904	38.712	0.00023167	42.018	145.644	191.899	127.242	-33.433	140.470	130.334	-35.022	-29.220	302.265	44.921	-31.816	-27.608	-25.599	-19.987	269.081	-22.887	-8191	255	
1870.451	1	1	0	0	0.17689	0.13049	0.13699	0.27891	0.34393	0.31177	0.11033	0.19461	0.17205	0.153	0.32261	0.27905	0.11485	0.18004	0.09191	0.053469	-2.5375	-3.2208	-3.0604	-3	-3.375	-3.0125	-3.2917	-3.4375	-2.7583	-3.0979	-3.1979	-3.0125	-3.3375	-2.7958	-3.0583	-3.4292	205.886	97.612	304.765	261.635	-36.778	272.726	-41.163	230.400	153.690	170.471	5.379	255.829	269.745	121.858	253.031	248.924	0.00032875	0.0010938	0.00054707	1129.4	1.7153e-05	1.5345e-05	1064.1	298.75	1.1705e-05	1.166e-05	288.56	88.921	91.435	40.191	2.6858e-05	40.744	0.01448	0.022114	0.0060835	1042.9	0.00022329	0.00024785	977.08	280.98	0.00022465	0.00024577	297.9	92.321	98.555	39.571	0.00022819	42.902	133.312	-37.798	104.626	-33.778	-14.528	106.154	-34.914	-29.250	168.733	168.873	-31.156	-26.986	-25.914	-19.360	210.174	-22.633	-8191	255	
1870.571	1	1	0	0	0.25669	0.13784	0.28273	0.078515	0.13628	0.11655	0.047361	0.13542	0.083004	0.19414	0.19363	0.16652	0.075004	0.10055	0.14465	0.16616	-2.4688	-3.0479	-3.2458	-3.0771	-3.4042	-3.0042	-2.9604	-3.5771	-3.0333	-3.0917	-3.2687	-2.8563	-3.5167	-3.0125	-2.9792	-3.5333	99.687	4.393	310.352	250.906	-37.600	295.328	202.918	281.421	235.289	167.399	-25.365	-43.185	51.115	27.626	262.262	277.958	0.00035012	0.0030013	0.00025579	1142.6	1.478e-05	1.839e-05	1074.1	304.6	1.2596e-05	1.9537e-05	295.86	91.012	93.431	40.716	1.7544e-05	42.064	0.014064	0.02157	0.0060647	1047	0.00021887	0.00024035	991.71	285.56	0.00022177	0.00024255	305.11	95.207	99.938	40.233	0.00023485	43.83	2.594	12.619	180.887	-33.988	-6.273	-37.937	-34.849	-29.305	89.995	90.745	-31.129	-27.978	-25.442	-19.798	75.575	-22.673	-8191	255	
1870.667	1	1	0	0	0.23278	0.09825	0.2085	0.23047	0.093283	0.25961	0.24973	0.044633	0.11915	0.11629	0.16778	0.022251	0.14332	0.10224	0.10213	0.29994	-2.6667	-3.0292	-3.1833	-2.9333	-3.3542	-3.3646	-3.1917	-3.4833	-2.8979	-3.1875	-3.3812	-2.9188	-3.2104	-3.2875	-3.0938	-3.4521	146.277	247.745	64.952	308.394	18.257	245.950	279.282	121.461	95.912	130.071	257.260	64.170	101.053	241.428	110.272	148.339	0.000355	0.0030155	0.00071185	1163.2	1.1396e-05	2.0273e-05	1099.8	311.01	2.4589e-05	6.8095e-06	309.33	94.041	95.676	41.136	9.4141e-06	42.455	0.014245	0.022081	0.0062408	1067.8	0.00022274	0.00024521	1011.9	290.1	0.00021986	0.00024269	312.73	96.939	101.68	40.657	0.00022753	44.077	151.105	140.771	225.771	-33.977	16.379	56.749	-34.996	-29.440	45.751	107.402	-30.965	-27.397	-25.493	-19.903	66.570	-23.274	-8191	255	
1870.764	1	1	0	0	0.01966	0.074479	0.12618	0.18522	0.148	0.26489	0.23547	0.22428	0.12963	0.1782	0.25324	0.20511	0.14312	0.18944	0.0037588	0.10712	-2.4771	-3.2833	-3.4521	-2.9562	-3.275	-3.3792	-2.8792	-3.4229	-3.0396	-3.2104	-3.2729	-3.075	-3.5062	-3.3312	-2.9	-3.5646	116.963	266.194	37.540	311.352	229.148	-16.724	197.080	228.657	2.078	244.232	211.878	103.143	105.055	298.624	312.687	217.204	0.00044087	0.001922	0.00065203	1166.2	2.3103e-05	2.9656e-05	1118.6	315	1.0302e-05	1.3659e-05	307.66	95.483	98.008	41.217	2.0959e-05	42.227	0.014169	0.02164	0.0060659	1066.1	0.00021695	0.00024321	1023.5	292.41	0.00021556	0.00023944	313.86	97.737	102.53	40.586	0.00022734	43.71	74.413	44.546	61.717	-33.684	132.319	285.844	-35.115	-29.236	104.511	157.838	-31.483	-27.429	-25.776	-19.768	148.721	-23.271	-8191	255	
1870.860	1	1	0	0	0.17032	0.028404	0.21586	0.059337	0.091968	0.23416	0.21575	0.15511	0.059431	0.16787	0.38504	0.011428	0.22112	0.14585	0.32125	0.17966	-2.8729	-3.0187	-3.375	-3.1396	-3.3063	-3.3375	-2.8604	-3.4313	-3.2396	-3.0208	-3.375	-3.0167	-3.2375	-3.2562	-2.7583	-3.2354	98.936	218.130	-43.835	-18.595	192.312	283.015	254.375	238.545	-27.958	105.803	280.163	18.340	176.315	-9.224	85.611	-31.845	0.00028042	0.0032042	0.000336	1162.6	1.2123e-05	2.3363e-05	1116.6	311.97	2.1022e-05	1.466e-05	307.1	95.876	96.648	41.142	1.0531e-05	41.803	0.013998	0.021675	0.0060698	1065.1	0.00021767	0.00024461	1025	292.72	0.0002165	0.00024398	313.3	97.611	102.17	40.437	0.00022667	43.451	86.103	-4.938	-13.041	-33.762	95.868	154.395	-34.973	-29.279	107.811	233.125	-31.239	-27.565	-25.621	-19.658	231.547	-22.995	-8191	255	
1870.979	1	1	0	0	0.19491	0.12472	0.26841	0.19373	0.11603	0.11137	0.29295	0.081225	0.11952	0.24728	0.15696	0.15394	0.088145	0.14407	0.19953	0.29032	-2.7896	-2.8771	-3.4313	-3.1521	-3.0854	-3.3	-3	-3.3396	-3.1542	-2.7708	-3.5958	-3.0125	-3.0021	-3.5854	-2.8396	-3.2583	-13.084	117.416	209.097	236.771	-18.803	81.297	89.898	288.464	231.563	217.453	3.657	203.826	305.378	119.114	36.050	223.440	2.9913e-05	0.0018824	0.00068588	1163.1	1.1351e-05	2.7747e-05	1123.6	315.28	1.8673e-05	2.6657e-06	318.76	97.723	97.627	42.201	2.2279e-05	43.409	0.013883	0.021675	0.0060191	1059.8	0.00021674	0.0002434	1028.3	294.53	0.00021313	0.00023954	320.23	99.867	103.76	41.224	0.00022455	44.48	40.600	164.658	70.054	-33.703	177.342	41.076	-35.047	-29.176	134.181	176.391	-31.693	-27.015	-25.584	-19.946	144.383	-23.430	-8191	255	
1871.052	1	1	0	0	0.19677	0.21607	0.16934	0.3596	0.048526	0.24592	0.14063	0.1386	0.14174	0.23502	0.16852	0.08812	0.097119	0.16691	0.09426	0.2403	-2.7667	-2.9437	-3.4604	-3.2271	-3.0354	-3.3229	-2.9854	-3.2083	-3.3125	-3.0729	-3.2708	-3.2313	-3.0312	-3.5187	-2.9125	-3.2396	-18.654	259.096	260.376	260.037	230.201	23.459	168.806	234.437	277.490	186.153	-42.250	179.790	270.269	281.794	216.732	209.209	0.00019578	0.0023594	0.00054202	1166.4	1.1863e-05	3.0496e-05	1146.8	326.58	1.2507e-05	8.8687e-06	332.07	102.24	101.97	43.568	7.8502e-06	44.565	0.013738	0.021272	0.0059175	1067.7	0.00021425	0.00024094	1049.2	301.89	0.0002135	0.00023643	329.26	103.2	106.36	42.161	0.00021946	45.308	172.574	133.527	166.234	-33.731	244.602	104.037	-34.907	-29.567	179.221	135.823	-31.100	-27.157	-25.755	-19.714	-11.808	-23.308	-8191	255	
1871.171	1	1	0	0	0.13435	0.019063	0.12699	0.34185	0.15009	0.24065	0.29377	0.29988	0.15902	0.056212	0.23359	0.11402	0.041779	0.23861	0.17952	0.20494	-2.9854	-2.7417	-3.0687	-3.1583	-3.0542	-3.5687	-2.9958	-3.1	-3.4229	-2.8146	-3.3104	-3.3208	-3.1521	-3.3771	-2.9479	-3.2458	32.982	56.828	38.729	-35.035	168.995	291.963	247.606	283.967	231.196	251.788	108.467	270.416	58.089	-2.898	122.819	266.383	0.00012509	0.0020967	0.00045493	1171.7	6.2654e-06	1.1799e-05	1161	327.25	1.7408e-05	1.2631e-05	331.81	102.5	102.67	43.204	1.2681e-05	44.237	0.013831	0.021327	0.0058649	1070.7	0.00021302	0.00023371	1056.5	303.61	0.00021236	0.00023433	329.25	103.45	106.52	42.063	0.0002163	45.213	120.568	136.647	93.441	-33.547	236.875	64.421	-35.042	-28.948	111.278	247.621	-31.239	-27.247	-25.223	-19.460	255.913	-22.815	-8191	255	
1871.267	1	1	0	0	0.23249	0.22527	0.16011	0.12965	0.1234	0.21458	0.15855	0.38051	0.10037	0.21788	0.20594	0.080503	0.18936	0.10602	0.098246	0.097823	-2.9521	-2.8375	-3.1688	-3.3688	-3.0479	-3.2208	-3.1521	-3.0917	-3.3146	-3.0229	-3.3125	-3.1271	-2.7292	-3.6063	-3.1896	-3.2	35.862	89.202	218.745	106.718	196.429	-42.639	124.295	262.603	-8.897	115.135	3.925	188.766	254.904	-10.378	227.482	-13.637	0.00011135	0.0025676	0.00070507	1177.2	1.8277e-05	1.5864e-05	1163.2	327.54	1.191e-05	1.2053e-05	331.23	102.03	101.67	42.69	3.8649e-05	44.451	0.013749	0.021026	0.0058415	1074.6	0.00021428	0.00023621	1060.4	304.25	0.00021605	0.00023505	329.01	103.41	106.59	41.965	0.00022384	45.406	174.079	101.299	303.959	-33.802	299.567	241.932	-35.020	-29.260	309.594	98.875	-31.122	-27.658	-25.581	-19.924	14.534	-23.526	-8191	255	
1871.363	1	1	0	0	0.288	0.084718	0.13247	0.42049	0.22667	0.14834	0.19773	0.23879	0.30336	0.3021	0.19342	0.21086	0.2418	0.17258	0.19492	0.098666	-3.0292	-2.725	-3.0583	-3.2042	-2.9813	-3.425	-3.3208	-3.175	-3.4583	-2.7833	-3.2333	-3.1146	-2.8083	-3.4646	-3.1875	-3.0375	227.069	246.585	104.111	247.144	221.960	53.722	233.852	217.641	258.689	49.272	221.481	-46.171	312.034	-34.187	136.434	106.864	0.00041217	0.0017642	0.00022358	1184.7	1.8009e-05	3.4629e-06	1171.3	326.2	6.6125e-06	3.7257e-05	331.16	102.23	101.37	43.414	8.0275e-06	45.154	0.014124	0.021642	0.0059281	1082.6	0.00021764	0.00023893	1061.3	304.78	0.00021911	0.00024145	330.38	103.75	106.97	42.342	0.00022809	46.158	1.810	33.366	260.388	-33.179	222.698	166.168	-34.904	-29.501	57.195	170.592	-31.244	-27.399	-25.874	-19.749	92.261	-23.161	-8191	255	
1871.459	1	1	0	0	0.16974	0.27778	0.18517	0.26616	0.20958	0.24141	0.23758	0.095396	0.177	0.2911	0.20508	0.25222	0.31475	0.21841	0.024893	0.30174	-3.0583	-2.7771	-2.9771	-3.3063	-3.0229	-3.55	-3.3688	-2.9958	-3.35	-2.875	-3.1521	-3.3646	-2.85	-3.4562	-2.9542	-2.8646	232.168	-25.051	199.134	214.569	18.290	69.880	304.941	130.258	220.345	117.432	264.967	173.273	214.792	311.707	93.302	249.839	0.0003287	0.0024878	0.00034753	1188.8	3.1402e-06	1.8329e-05	1167.8	332.07	2.3747e-05	2.2949e-05	335.85	104.17	103.62	43.981	1.8339e-06	45.515	0.01432	0.022004	0.0060773	1089.6	0.00022149	0.00024053	1069.5	307.3	0.00021898	0.00024004	333.27	105.39	107.68	42.525	0.00022927	46.488	94.533	239.111	62.681	-33.532	291.302	5.991	-34.896	-29.473	119.569	-29.634	-31.211	-27.292	-25.481	-19.901	262.857	-23.201	-8191	255	
#DATA ENDS
