BOXY.EXE: ISS Imagent and Oximeter Data Acquisition Program Version 0.80
Ascii Record File

#ACQ INFORMATION
2  Detector Channels 
16  External MUX Channels 
1  Auxiliary Channels 
5000  Waveform (CCF) Frequency (Hz)
1  Waveforms Skipped 
30  Waveforms Averaged 
1  Cycles Averaged 
16  Acquisitions per Waveform 
10.0806  Updata Rate (Hz) 

#FILE INFORMATION
TRUE -- External MUX Channel results are PARSED.
FALSE -- AC DC and Phase are NOT grouped.
TRUE -- Companion Program Settings File CREATED.
FALSE -- AC data not excluded
FALSE -- DC data not excluded
FALSE -- Phase data not excluded
FALSE -- Auxillary Chn. data not excluded
Tab delimiters

#CALIBRATION STATE
TRUE -- Waveform Calibration Values APPLIED.


#AUX CALIBRATION VALUES
Val Type	aux-1	

Term	1.0000e+00	
Factor	0.0000e+00	


#WF CALIBRATION VALUES
A = Detector Channel
Val Type	A-AC1	A-AC2	A-AC3	A-AC4	A-AC5	A-AC6	A-AC7	A-AC8	A-AC9	A-AC10	A-AC11	A-AC12	A-AC13	A-AC14	A-AC15	A-AC16	A-DC1	A-DC2	A-DC3	A-DC4	A-DC5	A-DC6	A-DC7	A-DC8	A-DC9	A-DC10	A-DC11	A-DC12	A-DC13	A-DC14	A-DC15	A-DC16	A-Ph1	A-Ph2	A-Ph3	A-Ph4	A-Ph5	A-Ph6	A-Ph7	A-Ph8	A-Ph9	A-Ph10	A-Ph11	A-Ph12	A-Ph13	A-Ph14	A-Ph15	A-Ph16	

Term	0.00000e+00	0.00000e+00	0.00000e+00	0.00000e+00	0.00000e+00	0.00000e+00	0.00000e+00	0.00000e+00	0.00000e+00	0.00000e+00	0.00000e+00	0.00000e+00	0.00000e+00	0.00000e+00	0.00000e+00	0.00000e+00	0.00000e+00	0.00000e+00	0.00000e+00	0.00000e+00	0.00000e+00	0.00000e+00	0.00000e+00	0.00000e+00	0.00000e+00	0.00000e+00	0.00000e+00	0.00000e+00	0.00000e+00	0.00000e+00	0.00000e+00	0.00000e+00	0.00000e+00	0.00000e+00	0.00000e+00	0.00000e+00	0.00000e+00	0.00000e+00	0.00000e+00	0.00000e+00	0.00000e+00	0.00000e+00	0.00000e+00	0.00000e+00	0.00000e+00	0.00000e+00	0.00000e+00	0.00000e+00	
Factor	1.00000e+00	1.00000e+00	1.00000e+00	1.00000e+00	1.00000e+00	1.00000e+00	1.00000e+00	1.00000e+00	1.00000e+00	1.00000e+00	1.00000e+00	1.00000e+00	1.00000e+00	1.00000e+00	1.00000e+00	1.00000e+00	1.00000e+00	1.00000e+00	1.00000e+00	1.00000e+00	1.00000e+00	1.00000e+00	1.00000e+00	1.00000e+00	1.00000e+00	1.00000e+00	1.00000e+00	1.00000e+00	1.00000e+00	1.00000e+00	1.00000e+00	1.00000e+00	X	X	X	X	X	X	X	X	X	X	X	X	X	X	X	X	

B = Detector Channel
Val Type	B-AC1	B-AC2	B-AC3	B-AC4	B-AC5	B-AC6	B-AC7	B-AC8	B-AC9	B-AC10	B-AC11	B-AC12	B-AC13	B-AC14	B-AC15	B-AC16	B-DC1	B-DC2	B-DC3	B-DC4	B-DC5	B-DC6	B-DC7	B-DC8	B-DC9	B-DC10	B-DC11	B-DC12	B-DC13	B-DC14	B-DC15	B-DC16	B-Ph1	B-Ph2	B-Ph3	B-Ph4	B-Ph5	B-Ph6	B-Ph7	B-Ph8	B-Ph9	B-Ph10	B-Ph11	B-Ph12	B-Ph13	B-Ph14	B-Ph15	B-Ph16	

Term	0.00000e+00	0.00000e+00	0.00000e+00	0.00000e+00	0.00000e+00	0.00000e+00	0.00000e+00	0.00000e+00	0.00000e+00	0.00000e+00	0.00000e+00	0.00000e+00	0.00000e+00	0.00000e+00	0.00000e+00	0.00000e+00	0.00000e+00	0.00000e+00	0.00000e+00	0.00000e+00	0.00000e+00	0.00000e+00	0.00000e+00	0.00000e+00	0.00000e+00	0.00000e+00	0.00000e+00	0.00000e+00	0.00000e+00	0.00000e+00	0.00000e+00	0.00000e+00	-1.56894e+02	-1.27752e+02	-1.28220e+02	-1.82394e+02	-8.05549e+01	-6.51345e+01	-1.55939e+02	-1.62015e+02	-8.46711e+01	-6.06474e+01	-1.70818e+02	-1.71805e+02	-1.80520e+02	-1.77372e+02	-7.45731e+01	-1.49506e+02	
Factor	2.48450e-05	1.80034e-04	5.53765e-05	1.74917e-01	1.47804e-06	1.91503e-06	1.73878e-01	5.40847e-02	1.39976e-06	1.81173e-06	9.61147e-02	3.08946e-02	3.55403e-02	9.85352e-03	1.70142e-06	1.43833e-02	1.14720e-05	1.78812e-05	4.98075e-06	8.74279e-02	1.80401e-07	1.98474e-07	8.17633e-02	2.71597e-02	1.79927e-07	1.99377e-07	4.67774e-02	1.50850e-02	1.80288e-02	4.99142e-03	1.87127e-07	7.05837e-03	X	X	X	X	X	X	X	X	X	X	X	X	X	X	X	X	



#DISTANCE SETTINGS
A = Detector Channel
A-1	A-2	A-3	A-4	A-5	A-6	A-7	A-8	A-9	A-10	A-11	A-12	A-13	A-14	A-15	A-16	

2.5000e+00	3.0000e+00	2.5000e+00	3.0000e+00	2.0000e+00	3.0000e+00	1.5000e+00	3.0000e+00	3.0000e+00	3.0000e+00	3.0000e+00	3.0000e+00	3.0000e+00	3.0000e+00	1.5000e+00	3.0000e+00	

B = Detector Channel
B-1	B-2	B-3	B-4	B-5	B-6	B-7	B-8	B-9	B-10	B-11	B-12	B-13	B-14	B-15	B-16	

1.0000e+01	1.0000e+01	1.0000e+01	1.4400e+00	1.0000e+01	1.0000e+01	1.5100e+00	1.9400e+00	1.0000e+01	1.0000e+01	1.9900e+00	2.4900e+00	2.4100e+00	2.9000e+00	1.0000e+01	2.9800e+00	




#DATA BEGINS
time	group	step	mark	flag	A-AC1	A-AC2	A-AC3	A-AC4	A-AC5	A-AC6	A-AC7	A-AC8	A-AC9	A-AC10	A-AC11	A-AC12	A-AC13	A-AC14	A-AC15	A-AC16	A-DC1	A-DC2	A-DC3	A-DC4	A-DC5	A-DC6	A-DC7	A-DC8	A-DC9	A-DC10	A-DC11	A-DC12	A-DC13	A-DC14	A-DC15	A-DC16	A-Ph1	A-Ph2	A-Ph3	A-Ph4	A-Ph5	A-Ph6	A-Ph7	A-Ph8	A-Ph9	A-Ph10	A-Ph11	A-Ph12	A-Ph13	A-Ph14	A-Ph15	A-Ph16	B-AC1	B-AC2	B-AC3	B-AC4	B-AC5	B-AC6	B-AC7	B-AC8	B-AC9	B-AC10	B-AC11	B-AC12	B-AC13	B-AC14	B-AC15	B-AC16	B-DC1	B-DC2	B-DC3	B-DC4	B-DC5	B-DC6	B-DC7	B-DC8	B-DC9	B-DC10	B-DC11	B-DC12	B-DC13	B-DC14	B-DC15	B-DC16	B-Ph1	B-Ph2	B-Ph3	B-Ph4	B-Ph5	B-Ph6	B-Ph7	B-Ph8	B-Ph9	B-Ph10	B-Ph11	B-Ph12	B-Ph13	B-Ph14	B-Ph15	B-Ph16	aux-1	digaux	

1597.258	1	1	0	256	0.39254	0.23331	0.21147	0.13262	0.15368	0.18395	0.039014	0.18282	0.035254	0.15774	0.20408	0.039239	0.1646	0.18222	0.14313	0.17273	-2.6792	-2.6458	-3.3771	-2.8104	-3.075	-3.3521	-2.825	-3.4313	-3.0625	-2.9167	-3.5062	-2.9417	-3.0833	-3.3812	-2.9188	-3.4021	-35.482	273.372	85.139	103.868	-28.557	208.140	238.164	235.125	-32.927	237.524	27.854	257.935	275.764	-45.367	-24.549	103.626	0.0001627	0.0012748	0.00033198	1007.1	2.2881e-05	2.5631e-05	838.35	313.01	1.3035e-05	4.1979e-06	258.8	97.614	118.31	47.254	2.4292e-05	40.783	0.024549	0.038139	0.010544	1117.8	0.00039968	0.00042688	950.74	349.28	0.00039388	0.00043837	341.48	123.91	149.9	55.07	0.00039671	53.485	175.488	-54.101	-19.261	-62.393	78.006	72.733	-64.047	-57.677	93.696	234.639	-60.441	-56.668	-54.643	-48.868	-21.654	-52.178	-8191	255	
1597.353	1	1	0	0	0.10918	0.084656	0.2017	0.18047	0.070618	0.27797	0.18623	0.19655	0.061622	0.10526	0.049719	0.024501	0.17127	0.082959	0.18927	0.18078	-2.6312	-2.7438	-3.3146	-2.9729	-3.1896	-3.3958	-2.9646	-3.4188	-3.0854	-2.9771	-3.4854	-3.0917	-3.125	-3.3292	-2.9104	-3.45	188.596	153.467	151.146	214.626	280.181	85.046	189.324	253.355	178.995	220.206	8.867	-26.445	267.424	89.173	274.723	-56.685	0.00031385	0.0015369	0.00090609	1012.1	1.4456e-05	1.3263e-05	850.43	317.61	6.0796e-06	1.7789e-05	263.1	98.863	120.46	48.218	2.7466e-05	41.743	0.024444	0.037611	0.010355	1118.7	0.00038048	0.0004034	949.39	348.92	0.00036463	0.00040119	339.81	122.72	148.66	55.176	0.0003725	53.554	172.464	-68.026	74.132	-61.919	149.560	61.377	-63.974	-57.592	231.127	186.354	-60.214	-57.062	-54.471	-48.388	169.445	-52.380	-8191	255	
1597.449	1	1	0	0	0.22589	0.11631	0.30299	0.044407	0.11043	0.13302	0.32544	0.18983	0.05545	0.06164	0.1531	0.30469	0.13615	0.069331	0.1845	0.2048	-2.7729	-2.7417	-3.5021	-3.0625	-2.9417	-3.5271	-2.9437	-3.2667	-3.2083	-2.7938	-3.3875	-3.1396	-3.0521	-3.4625	-2.7354	-3.3146	106.607	161.571	166.763	57.977	160.739	-63.658	213.978	228.031	43.385	162.177	85.086	190.369	206.099	109.366	-6.612	107.695	0.00016639	0.0013436	0.00049439	1016.5	2.2459e-05	1.0276e-05	854.88	317.07	2.7538e-06	2.5351e-05	264.62	99.826	120.65	48.468	9.8879e-06	41.995	0.022868	0.035201	0.0098241	1113.7	0.00036716	0.00039013	951.1	348.93	0.00035642	0.00039808	342.31	124.07	149.1	55.48	0.00038074	54.115	130.536	30.271	-11.411	-62.235	189.127	153.913	-63.797	-57.941	97.661	62.429	-60.460	-57.193	-54.235	-48.687	260.835	-51.876	-8191	255	
1597.545	1	1	0	0	0.25665	0.13089	0.057618	0.24246	0.15142	0.20956	0.17257	0.09024	0.23927	0.25975	0.068143	0.12929	0.29168	0.14741	0.24477	0.23106	-2.9875	-2.6813	-3.3979	-3.1354	-2.9396	-3.2938	-2.9792	-3.3833	-3.2854	-2.8146	-3.2625	-3.3146	-2.8521	-3.5729	-2.9792	-3.1729	203.673	158.849	123.566	-18.385	135.152	11.891	181.571	62.161	170.200	86.142	110.851	105.517	277.013	282.689	214.877	-60.856	0.00024638	0.0014472	0.00089326	1016.2	7.121e-06	2.2266e-05	845.5	312.21	1.5887e-05	1.0844e-05	260.59	96.006	117.91	47.638	2.746e-05	40.905	0.023328	0.036242	0.010119	1113.3	0.00036905	0.00040373	945.3	345.77	0.00036247	0.00040353	337.46	120.86	146.3	54.636	0.00037773	52.766	130.580	156.775	1.571	-62.068	59.300	127.248	-63.627	-57.581	83.352	-67.408	-60.993	-56.868	-54.661	-48.483	70.426	-52.318	-8191	255	
1597.666	1	1	0	0	0.18824	0.063305	0.21967	0.24451	0.15997	0.080804	0.14856	0.21402	0.065999	0.28208	0.062466	0.18242	0.22626	0.2559	0.23678	0.090327	-3.0187	-2.675	-3.2104	-3.2313	-2.8667	-3.5604	-3.1083	-3.1125	-3.2604	-2.9104	-3.1813	-3.2854	-2.8604	-3.3312	-2.8729	-2.9729	264.366	82.968	63.764	231.552	72.494	165.580	208.147	-60.662	232.031	168.255	-43.571	273.384	-35.528	-50.464	-11.787	41.040	9.4431e-05	0.002382	9.1055e-05	1009.8	8.0328e-06	2.4494e-05	833.75	308.5	1.1346e-05	7.939e-06	255.28	95.509	116.88	47.769	3.5225e-05	41.481	0.023089	0.035828	0.010077	1104.5	0.00036404	0.00041433	937.18	342.34	0.00036498	0.00040673	334.32	119.85	145.76	54.939	0.00038289	53.114	242.414	240.002	143.493	-62.191	54.370	173.005	-63.631	-57.653	89.561	204.538	-60.749	-56.469	-54.184	-48.156	109.589	-52.445	-8191	255	
1597.762	1	1	0	0	0.013056	0.11263	0.13168	0.3115	0.24134	0.24305	0.29503	0.24832	0.064526	0.090435	0.28024	0.12709	0.073674	0.050911	0.28881	0.14407	-2.9375	-2.8375	-3.1396	-3.2708	-2.9917	-3.3604	-3.0917	-3.15	-3.4271	-2.6729	-3.3104	-3.4833	-2.7313	-3.225	-2.9208	-2.9646	179.162	183.833	119.007	276.433	222.189	189.111	239.730	189.016	209.722	202.174	258.946	218.777	250.431	116.063	229.322	205.909	0.00031957	0.0005247	0.00032666	1006	6.59e-06	4.6557e-06	841.82	309.46	1.9815e-06	6.8382e-06	257.21	96.046	117.13	47.983	3.7109e-06	41.476	0.023239	0.036175	0.010111	1104.4	0.00036195	0.00040924	941.05	342.86	0.00036772	0.00041089	337.14	120.61	146.71	55.57	0.00039616	53.911	154.470	-71.182	52.813	-62.256	207.955	253.217	-64.060	-57.541	84.620	197.999	-60.613	-57.110	-53.771	-48.125	215.067	-52.295	-8191	255	
1597.858	1	1	0	0	0.15689	0.072406	0.14191	0.10106	0.19682	0.16824	0.12253	0.21642	0.074493	0.14605	0.092355	0.15397	0.18696	0.059585	0.28391	0.058011	-2.9542	-3.1292	-2.9167	-3.4542	-2.8021	-3.1917	-3.2667	-3.0771	-3.5979	-2.8271	-3.1333	-3.5229	-2.9813	-3.2708	-3.2938	-2.8896	143.841	259.071	-10.888	283.793	-73.442	277.221	173.095	184.434	223.308	161.745	-69.955	226.411	27.550	174.392	137.679	188.300	0.00021162	0.00070213	0.00022	1009.7	1.0824e-05	1.0081e-05	836.73	309.79	1.0138e-05	1.1888e-05	258.4	95.935	116.83	48.367	1.0695e-05	42.252	0.024619	0.038621	0.010729	1117.4	0.00038678	0.00044344	952.55	347.23	0.00038855	0.00043387	343.13	122.37	148.33	56.221	0.00040363	54.728	70.059	74.263	-51.889	-62.133	243.494	-32.046	-63.783	-57.872	284.020	45.559	-60.331	-56.838	-53.707	-48.173	188.652	-52.459	-8191	255	
1597.954	1	1	0	0	0.078988	0.050758	0.19921	0.089823	0.10137	0.2191	0.26804	0.15349	0.12284	0.31791	0.1207	0.1722	0.15891	0.11038	0.11313	0.33173	-2.9042	-3.0708	-3.1042	-3.4313	-2.8063	-3.1479	-3.3417	-3.0167	-3.2021	-3.1896	-3.0146	-3.4688	-3.2375	-3.3146	-3.2687	-2.9583	100.147	182.840	-50.298	157.089	6.498	228.425	-75.092	205.058	154.819	83.194	-41.277	-52.205	275.472	232.391	-57.414	88.581	0.00010871	0.001451	0.00012963	1006.1	8.7119e-06	1.4645e-05	831.27	309.64	1.8664e-05	7.3733e-06	254.39	93.494	115.45	47.461	1.2112e-05	41.058	0.025678	0.039238	0.01103	1120.5	0.00040233	0.00045594	954.01	349.06	0.00041083	0.00045877	344.93	122.48	149.16	56.15	0.00042817	54.341	109.670	-11.483	23.647	-62.415	128.127	103.555	-64.241	-57.927	-19.051	-28.715	-60.893	-56.772	-53.996	-48.209	131.562	-52.299	-8191	255	
1598.050	1	1	0	0	0.13977	0.25439	0.21383	0.037995	0.22138	0.11638	0.082328	0.30546	0.1306	0.064146	0.13719	0.25891	0.050581	0.063799	0.13683	0.035404	-3.05	-3.2083	-2.9708	-3.7229	-2.8167	-3.2021	-3.4375	-2.775	-3.4208	-3.275	-3.0812	-3.4479	-2.8333	-3.1917	-3.2021	-2.8771	263.683	-59.708	267.259	-58.942	-74.875	269.370	57.413	211.173	7.781	75.740	140.273	-64.112	57.292	2.448	-3.791	252.498	0.00019842	0.0015718	0.00038238	990.31	1.1004e-05	8.9799e-06	820.26	302.34	1.4574e-05	2.1143e-05	248.03	93.134	114.55	46.851	2.5219e-05	40.187	0.026716	0.041263	0.011457	1117.3	0.00041723	0.00047502	948.4	346.51	0.0004278	0.00047389	344.08	123.4	150.48	56.121	0.00044802	54.807	155.886	-6.142	259.928	-62.326	179.306	208.464	-64.201	-57.746	-12.284	31.490	-60.806	-56.692	-54.047	-48.499	14.881	-52.338	-8191	255	
1598.146	1	1	0	0	0.080898	0.21436	0.20825	0.2093	0.036713	0.36312	0.33438	0.22044	0.21707	0.042495	0.18513	0.14236	0.020744	0.36167	0.1554	0.063623	-2.9917	-3.2771	-3.0667	-3.2854	-3.0438	-2.9813	-3.2521	-2.9979	-3.2354	-3.2313	-3.0938	-3.4938	-3.1562	-2.9146	-3.4417	-3.0875	244.362	264.813	37.064	-56.511	-6.209	143.958	-37.230	234.548	66.572	14.627	253.408	133.519	16.241	255.397	-71.119	203.206	0.00013321	0.00068773	0.00077275	991.37	2.8197e-05	2.969e-05	813.92	304.74	1.53e-05	1.2154e-05	255.73	94.454	115.96	46.921	2.4997e-05	40.378	0.02879	0.043883	0.012237	1130.7	0.00045236	0.00050923	961.52	353.68	0.00046488	0.00051502	355.35	128.54	154.59	56.797	0.00047628	55.945	40.420	243.071	50.911	-62.575	25.943	209.228	-64.165	-58.112	167.413	177.928	-60.602	-57.437	-54.259	-48.814	119.220	-52.215	-8191	255	
1598.265	1	1	0	0	0.13668	0.14743	0.081546	0.19583	0.36478	0.15859	0.20829	0.09595	0.083188	0.083439	0.16173	0.052521	0.26543	0.2939	0.068492	0.30264	-2.8187	-3.2313	-2.7542	-3.3979	-3.0458	-3.0042	-3.5708	-3.0396	-3.3208	-3.0812	-3.0042	-3.2917	-3.15	-3.1167	-3.45	-3.0458	-52.119	28.309	36.351	-58.320	-46.306	213.978	282.106	-51.617	138.326	136.101	165.146	-11.579	276.916	241.405	16.553	194.509	0.00029526	0.0014797	0.00056251	989.36	1.7959e-05	4.1628e-06	830.56	308.28	1.0062e-05	3.1009e-05	254.11	96.178	116.33	46.67	2.3385e-05	40.788	0.030028	0.045554	0.012753	1140.4	0.00046477	0.00052301	973.13	357.32	0.00047483	0.00052634	360.65	130.44	157.11	57.534	0.0004972	56.935	102.210	-0.494	202.546	-62.412	61.117	88.168	-63.500	-57.743	190.560	205.277	-60.757	-56.991	-54.349	-48.617	158.965	-52.293	-8191	255	
1598.361	1	1	0	0	0.10259	0.020584	0.19176	0.053809	0.12198	0.37924	0.12721	0.059935	0.29572	0.12134	0.25336	0.037134	0.09887	0.098598	0.25308	0.26438	-2.7604	-3.4062	-3.0146	-3.6	-3.0771	-2.8146	-3.6271	-3.2083	-3.1042	-3.3854	-2.7562	-3.35	-3.1521	-2.9917	-3.4188	-2.8146	93.067	203.009	-1.644	212.455	-59.971	259.561	-59.378	194.609	229.636	-73.335	181.941	-62.414	-65.653	266.172	65.966	160.701	0.00030927	0.0019738	0.00066527	1000.9	1.2156e-05	2.821e-05	832.23	310.9	7.9035e-06	1.6878e-05	254.75	96.261	116.74	46.877	1.1635e-05	40.705	0.031385	0.047452	0.013097	1153	0.00047036	0.00051904	984.49	360.16	0.00046684	0.00051769	359.31	129.58	155.45	56.975	0.00048625	55.967	86.009	-68.743	102.793	-62.467	37.710	100.992	-63.796	-57.826	-35.317	81.720	-60.098	-57.531	-54.117	-48.702	112.935	-52.165	-8191	255	
1598.457	1	1	0	0	0.031235	0.079117	0.33035	0.062582	0.096438	0.31568	0.20345	0.087836	0.18661	0.27578	0.135	0.17394	0.042789	0.35203	0.22248	0.16874	-2.5917	-3.1292	-2.8542	-3.4292	-2.975	-2.9479	-3.675	-3.3229	-2.8417	-3.2792	-2.95	-3.2313	-3.2333	-2.5854	-3.4313	-2.8937	161.120	-57.960	47.738	1.473	160.141	258.869	233.288	228.101	240.543	-19.350	21.069	269.495	96.289	232.909	257.454	244.090	0.00024864	0.0011738	0.00053867	981.83	5.9957e-06	1.4602e-05	815.94	305.3	1.3965e-05	9.9606e-06	252.83	94.79	115.25	46.605	4.1973e-05	40.016	0.030032	0.04576	0.012713	1134.6	0.00045372	0.00049838	964.3	352.26	0.00044412	0.00049212	348.65	125.96	152.04	56.017	0.00046056	54.849	45.312	-30.705	134.466	-62.132	274.183	90.504	-63.754	-57.555	179.139	25.300	-59.993	-56.711	-54.424	-48.385	53.009	-52.586	-8191	255	
1598.529	1	1	0	0	0.12542	0.092927	0.13094	0.11205	0.028941	0.1463	0.11132	0.16123	0.02059	0.049652	0.25377	0.17733	0.12676	0.031995	0.19109	0.029209	-2.5438	-3.5229	-2.8812	-3.1729	-3.3625	-3.0604	-3.5104	-3.0354	-3.1271	-3.3042	-2.8083	-3.1792	-3.5292	-2.9125	-3.3729	-3.2792	-32.597	281.308	16.214	-29.903	-22.898	-19.013	182.359	157.642	202.590	166.760	269.831	55.940	245.848	-29.187	205.376	163.954	0.0003133	0.0036574	0.00073019	988.52	1.267e-05	3.5718e-06	825.26	308.3	1.4411e-05	1.2317e-05	256.43	94.917	115.99	47.282	6.9547e-06	40.969	0.028718	0.044021	0.012257	1126.8	0.00044006	0.000486	964.58	352.4	0.00043936	0.00048857	349.97	126.37	152.29	56.506	0.00045869	55.096	152.771	262.393	13.281	-62.160	6.391	282.858	-63.408	-57.616	209.145	40.327	-60.343	-56.731	-54.357	-48.390	65.528	-52.047	-8191	255	
1598.625	1	1	0	0	0.26649	0.14858	0.24138	0.14135	0.16272	0.30769	0.19726	0.26709	0.15648	0.2471	0.03384	0.2473	0.10598	0.22953	0.19486	0.11669	-2.6354	-3.3312	-2.8937	-3.0917	-3.3542	-2.8729	-3.3229	-3.1333	-2.9521	-3.3042	-3	-3.0146	-3.3333	-2.9958	-3.3354	-3.1042	254.068	250.018	51.429	94.337	-4.694	140.874	153.571	261.452	228.409	-39.396	12.298	237.072	164.500	264.782	71.715	118.196	0.00010824	0.0020992	0.00012874	992.36	9.4402e-06	3.5808e-05	832.05	308.57	9.8579e-06	2.7543e-06	254.84	96.428	116.66	47.382	9.9462e-06	41.112	0.028078	0.043861	0.012101	1124.8	0.00043309	0.0004779	968.4	352.57	0.00043452	0.00048635	352.28	127.16	153.67	56.962	0.00046704	55.805	114.486	91.501	229.229	-62.111	147.179	282.912	-63.860	-57.820	92.146	281.279	-60.618	-56.631	-54.268	-48.264	146.209	-52.069	-8191	255	
1598.746	1	1	0	0	0.36276	0.22281	0.26462	0.34972	0.16951	0.27567	0.19185	0.095803	0.13243	0.063222	0.21118	0.21453	0.10677	0.050718	0.10392	0.11186	-2.4437	-3.2958	-2.8125	-3.1229	-3.5604	-2.9562	-3.3667	-3.2396	-2.8521	-3.1333	-3.1063	-3.1417	-3.4083	-2.8125	-3.0771	-3.4	240.178	67.201	43.136	202.710	-25.450	234.688	-35.494	144.485	67.690	121.848	280.720	243.162	-75.098	-27.143	274.042	229.629	0.00016948	0.0019738	0.00013102	994.56	1.1066e-05	1.2891e-05	829.79	311.26	1.7786e-05	2.1198e-05	258.34	97.631	117.54	47.17	2.8469e-05	40.525	0.028902	0.046589	0.012665	1139.8	0.00045641	0.00050254	977.39	357.39	0.00045533	0.00050897	358.68	130.1	156.51	57.346	0.00048366	56.027	126.449	143.977	240.759	-61.943	79.049	144.274	-63.883	-57.650	133.993	110.704	-60.779	-56.606	-54.300	-48.582	-59.631	-52.184	-8191	255	
1598.842	1	1	0	0	0.21259	0.1293	0.11568	0.24664	0.10167	0.15827	0.19818	0.17527	0.15861	0.16203	0.20243	0.052568	0.089809	0.15237	0.061589	0.084341	-2.5208	-3.2313	-2.8125	-3.0208	-3.4771	-3.075	-3.1667	-3.1813	-2.8917	-3.475	-3.15	-2.8521	-3.3792	-3.1437	-3.1771	-3.4437	-14.598	160.916	256.580	238.858	253.273	-55.288	145.707	-65.197	-71.704	140.699	105.072	47.131	254.368	234.199	202.064	177.613	0.00011145	0.0039504	0.00054368	988.6	2.9614e-05	1.4974e-05	820	304.69	8.8711e-06	8.7321e-06	250.23	93.965	114.64	45.851	1.8953e-05	39.148	0.030166	0.047908	0.013024	1137.4	0.00047322	0.00052212	970.04	354.53	0.00047102	0.0005241	354.52	127.88	156.26	56.502	0.00050345	55.492	250.663	280.222	42.651	-62.352	91.205	241.308	-63.359	-57.881	22.500	4.324	-60.319	-58.074	-54.825	-48.604	266.846	-51.891	-8191	255	
1598.938	1	1	0	0	0.23103	0.14652	0.096205	0.19582	0.13459	0.068198	0.18041	0.24378	0.28604	0.14841	0.090184	0.11319	0.15841	0.090451	0.20365	0.12747	-2.2917	-3.3354	-3.0542	-3.15	-3.3646	-2.9479	-3.3688	-3.3917	-2.7583	-3.3167	-3.3208	-3.1979	-3.3292	-3.1146	-3.1042	-3.1958	153.539	-12.319	27.994	212.912	92.986	-64.956	150.717	265.226	161.592	-57.450	173.464	240.257	158.297	148.880	219.134	276.073	0.00027501	0.0024657	0.00014464	977.03	4.0047e-06	1.4649e-05	804.66	303.91	2.0839e-05	1.5546e-05	250.97	93.447	114.87	46.139	1.5922e-06	39.317	0.031632	0.050015	0.013544	1139.4	0.00048819	0.00053199	963.5	353.78	0.00046815	0.00051944	353.3	126.99	155.91	56.506	0.00049578	55.499	103.355	139.609	112.924	-62.058	76.559	-22.603	-63.745	-57.803	14.430	193.919	-60.302	-56.983	-54.515	-48.617	-38.708	-52.346	-8191	255	
1599.059	1	1	0	0	0.16458	0.34805	0.18555	0.055346	0.13981	0.21567	0.14581	0.035451	0.44007	0.02851	0.30933	0.19728	0.09339	0.13646	0.15599	0.24832	-2.3521	-3.2625	-3.3417	-3.0167	-3.3833	-3.1312	-3.0917	-3.3979	-2.9396	-3.325	-3.1271	-2.9875	-3.4	-2.9938	-2.825	-3.6542	236.606	-44.053	106.594	53.917	-51.545	-31.206	215.574	176.287	-58.825	-41.294	130.757	177.884	198.830	214.332	7.024	167.964	7.7647e-05	0.0032752	0.00099627	980.37	8.8626e-06	3.3622e-06	813.69	305.44	6.5093e-06	6.6786e-06	253.33	94.611	116.12	46.56	2.3151e-05	39.596	0.03096	0.048558	0.013263	1139.2	0.00048718	0.00052924	972.39	356.87	0.00047391	0.00052015	356.46	128.24	156.57	56.766	0.00049704	56.18	3.545	163.324	21.259	-61.844	89.297	-64.332	-63.949	-57.892	206.819	156.312	-60.405	-57.175	-54.406	-48.762	194.591	-52.349	-8191	255	
1599.130	1	1	0	0	0.21462	0.096979	0.12939	0.055621	0.21124	0.22153	0.054886	0.37156	0.16961	0.17023	0.025822	0.1772	0.18444	0.23996	0.14697	0.062814	-2.4792	-3.1167	-3.1708	-2.8708	-3.45	-3.2646	-2.8104	-3.5854	-2.9771	-2.9979	-3.3063	-2.7417	-3.2938	-3.0687	-2.9188	-3.4646	171.568	257.612	130.163	258.308	-19.278	127.218	194.575	165.536	264.999	6.646	-64.418	196.895	254.087	255.107	122.643	221.204	0.00019524	0.00043915	0.00025075	986.42	2.2109e-05	7.1764e-06	821.08	307.37	8.2786e-06	7.6693e-06	255.4	96.112	116.15	46.6	3.1929e-05	40.288	0.031228	0.049433	0.013515	1149.4	0.0004947	0.00054239	982.2	361.99	0.00049054	0.00054047	363.96	130.81	158.98	57.336	0.00050365	56.74	152.603	194.004	46.229	-62.030	-61.081	-18.316	-63.559	-58.125	197.193	88.515	-60.496	-57.255	-54.805	-48.378	162.436	-51.825	-8191	255	
1599.227	1	1	0	0	0.24169	0.17366	0.16346	0.11499	0.2365	0.29446	0.09425	0.2132	0.15009	0.12703	0.11726	0.18552	0.28658	0.23798	0.23591	0.096795	-2.7271	-2.9646	-3.3708	-2.8542	-3.1083	-3.2604	-2.9062	-3.3563	-3.0229	-2.9667	-3.3042	-2.9083	-3.5062	-3.2354	-3.0187	-3.2854	111.552	-53.604	163.302	220.481	54.992	107.981	277.750	238.528	101.202	110.138	-56.870	217.742	241.398	231.017	183.081	45.817	0.00023642	0.0020306	0.0013844	982.54	1.1198e-05	2.481e-05	818.09	304.55	1.0636e-05	2.0952e-05	253.94	94.546	115.5	46.118	4.0293e-06	39.382	0.030744	0.048023	0.013237	1146.6	0.00047378	0.00052038	968.57	357.57	0.00046858	0.00052156	357.6	128.11	156.31	56.458	0.00050038	55.493	107.130	37.495	29.346	-62.147	99.803	64.597	-63.655	-58.041	219.535	124.158	-60.542	-57.368	-54.432	-48.644	74.004	-52.755	-8191	255	
1599.347	1	1	0	0	0.18457	0.1898	0.23102	0.080074	0.081158	0.2294	0.2362	0.13442	0.069054	0.135	0.098488	0.17192	0.14916	0.090597	0.15574	0.20811	-2.8417	-3.0229	-3.2958	-2.9771	-3.0812	-3.3563	-2.8646	-3.5979	-3.0479	-2.9167	-3.4792	-2.8292	-3.2854	-3.5979	-2.8354	-3.4083	259.948	100.412	148.249	240.479	-26.841	110.792	163.660	-24.890	281.791	71.807	2.600	-33.835	-46.554	129.274	33.467	181.741	0.0001536	0.0036901	0.00022269	978.91	1.0629e-05	1.8737e-05	808.75	304.49	1.3381e-05	4.7073e-05	251.07	94.251	115.76	45.91	2.4464e-05	39.661	0.030471	0.048054	0.013306	1135.7	0.00047298	0.00051757	963.4	355.91	0.00047039	0.00052412	356.87	127.95	156.54	56.484	0.00049252	55.366	183.900	155.883	122.135	-61.807	138.677	260.112	-63.515	-57.908	268.214	163.463	-60.469	-58.028	-54.600	-48.314	76.735	-52.243	-8191	255	
1599.442	1	1	0	0	0.095118	0.051905	0.19472	0.1251	0.12161	0.081472	0.3257	0.19021	0.14771	0.047188	0.30813	0.14844	0.22827	0.38686	0.22046	0.047976	-2.4354	-2.8417	-3.4688	-3.1271	-3.0458	-3.3312	-3.0854	-3.2979	-3.1562	-3.0167	-3.4083	-2.8667	-3.1792	-3.4229	-2.7938	-3.3042	-28.031	132.777	257.769	-49.238	192.255	192.618	152.487	168.391	12.224	88.433	-33.816	40.742	232.872	249.526	135.347	183.550	0.00024754	0.00093295	0.00053151	987.7	2.4095e-05	4.0879e-06	826.45	311.87	6.3258e-06	1.2347e-05	255.68	96.427	118.03	46.705	2.0736e-05	39.907	0.029697	0.046442	0.012985	1135.7	0.00045103	0.00049471	964.89	357.38	0.00044634	0.00050132	355.66	127.95	156.44	56.506	0.00048154	55.267	153.205	130.610	30.991	-61.995	154.808	157.811	-63.952	-57.678	241.055	134.249	-60.507	-57.024	-53.849	-48.240	-17.733	-52.722	-8191	255	
1599.538	1	1	0	0	0.12709	0.048565	0.17948	0.1032	0.19412	0.17999	0.12781	0.12576	0.21753	0.37839	0.14695	0.2099	0.080094	0.37099	0.17531	0.16088	-2.8167	-2.8646	-3.1333	-3.2104	-3.1292	-3.4542	-2.9625	-3.3979	-3.2479	-2.9146	-3.4354	-3.0729	-3.0833	-3.3458	-2.8646	-3.1042	266.754	-69.135	96.212	-26.627	278.936	232.112	150.767	252.870	215.757	154.889	266.087	283.316	238.366	-15.009	265.925	143.714	0.00021581	0.00025527	0.00053319	990.2	1.6973e-06	1.8108e-05	825.2	310.06	3.6428e-06	1.8716e-05	258.31	97.055	118.4	47.004	1.0942e-05	40.299	0.029389	0.046095	0.013173	1140.3	0.00046054	0.00051202	973.95	359.57	0.00045711	0.00051186	358.71	128.99	157.87	56.984	0.00048239	55.607	240.310	181.243	142.180	-62.032	196.181	83.143	-63.533	-57.998	252.538	68.039	-60.435	-57.466	-54.648	-48.543	-50.790	-52.341	-8191	255	
1599.658	1	1	0	0	0.23458	0.27699	0.20519	0.034015	0.2067	0.10102	0.16637	0.19837	0.1478	0.25981	0.18722	0.12388	0.22453	0.22668	0.11735	0.17513	-2.6125	-2.9354	-3.3833	-2.9854	-2.7833	-3.4313	-3.0104	-3.2188	-3.2229	-2.9042	-3.4062	-3.1542	-2.7875	-3.3833	-2.8979	-3.1063	37.197	1.416	-34.345	224.725	257.512	-11.159	242.654	208.224	74.958	41.179	236.685	248.676	265.765	166.000	11.045	150.566	0.00036416	0.0013008	0.00097678	995.78	1.2693e-05	9.1865e-06	829.08	311.19	1.5196e-05	3.6687e-05	257.47	95.256	116.12	46.27	5.9211e-06	38.991	0.029766	0.047087	0.013307	1149.7	0.00047639	0.00052823	981.27	362.31	0.00047714	0.00053433	361.12	129.35	157.62	57.005	0.00049753	55.218	208.742	6.073	85.098	-62.171	2.965	-74.981	-63.953	-57.893	165.863	92.584	-60.201	-57.435	-54.616	-48.731	-6.379	-52.470	-8191	255	
1599.755	1	1	0	0	0.13618	0.14685	0.20069	0.1057	0.13034	0.21307	0.36772	0.15294	0.10106	0.22602	0.19651	0.08338	0.050282	0.11585	0.2166	0.26886	-2.8917	-2.8979	-3.2896	-2.8604	-2.9208	-3.475	-2.9354	-3.0146	-3.3542	-3.0521	-3.3396	-3.2	-2.8792	-3.5021	-2.7708	-3.0375	220.623	104.393	167.859	90.869	-43.988	101.169	233.159	147.158	82.211	148.408	-4.798	272.603	67.410	228.388	254.203	254.724	9.0906e-05	0.0022341	0.00065512	988.65	8.5692e-06	3.0918e-05	816.81	307	1.3086e-05	3.0419e-05	251.06	95.369	116.34	45.897	2.1884e-05	39.326	0.030535	0.047276	0.0134	1137.8	0.00047129	0.00051877	965.8	357.14	0.00047445	0.00052611	357.3	128.84	157.22	56.772	0.00049349	55.333	96.592	56.707	0.932	-62.116	159.459	196.665	-63.846	-57.934	251.795	54.411	-59.856	-57.787	-54.483	-48.661	89.456	-52.532	-8191	255	
1599.826	1	1	0	0	0.038783	0.19706	0.10776	0.347	0.26649	0.16215	0.11462	0.21578	0.1173	0.27291	0.13427	0.053139	0.039668	0.12404	0.079994	0.14202	-2.8563	-2.8896	-3.1042	-3.2104	-3.1063	-3.4896	-2.9	-3.1229	-3.3563	-2.7062	-3.1458	-3.3792	-2.8458	-3.5896	-3.1542	-2.8542	239.805	-36.779	264.897	-47.122	-45.586	0.040	137.584	263.445	17.288	70.671	-19.124	209.211	243.765	61.404	47.369	274.195	0.00021926	0.0011952	0.00044098	986.5	2.5509e-05	7.7811e-06	819.73	307.81	1.3047e-05	1.6033e-05	255.88	96.133	116.3	46.457	2.6736e-06	39.473	0.030915	0.047414	0.013245	1139.5	0.00047179	0.00051781	964.57	357.27	0.00047178	0.00051752	356.49	129.28	156.92	56.77	0.00048507	55.473	-35.952	44.763	131.392	-62.117	24.957	34.874	-63.987	-57.763	67.377	141.397	-60.513	-57.973	-54.812	-48.777	283.586	-52.230	-8191	255	
1599.922	1	1	0	0	0.12267	0.077923	0.15441	0.18695	0.139	0.076552	0.21102	0.035704	0.15084	0.31715	0.14779	0.099029	0.23242	0.28453	0.12186	0.23649	-3.1417	-2.8021	-2.9833	-3.4292	-2.9625	-3.3	-3.3958	-3.05	-3.2875	-3.1937	-3.2396	-3.4562	-2.7562	-3.4625	-2.9146	-3.1167	273.656	-7.570	-33.887	255.209	145.562	89.423	256.897	13.675	207.314	87.324	255.488	41.612	199.584	265.730	110.949	241.197	7.0714e-05	0.00082444	0.00055209	987.22	5.8289e-06	3.1988e-06	828.15	312.12	2.286e-05	2.8345e-05	257.74	98.139	120.02	46.814	1.5169e-05	40.202	0.030098	0.046729	0.013225	1140.4	0.00047432	0.00051737	973.47	361.1	0.00048563	0.0005295	362.29	132.06	159.93	57.158	0.00048823	55.9	266.420	-71.588	75.087	-62.223	-12.252	25.612	-63.801	-57.715	13.569	13.514	-60.565	-57.907	-54.297	-48.611	170.660	-52.536	-8191	255	
1600.043	1	1	0	0	0.16184	0.2822	0.23339	0.26835	0.11462	0.058655	0.098609	0.31613	0.18495	0.29928	0.1024	0.04932	0.2731	0.24079	0.26291	0.11879	-3.0854	-2.8937	-2.9396	-3.4562	-2.8063	-3.3438	-3.3438	-3.1167	-3.3688	-2.9729	-3.1854	-3.4042	-2.6917	-3.5229	-3.1771	-3.0438	16.737	225.149	163.240	197.669	23.429	106.561	46.053	-67.329	80.021	-1.571	102.534	249.973	163.537	259.714	159.538	162.395	0.0003807	0.0011018	0.0002232	1003.1	6.3114e-06	8.4053e-06	834.54	316.95	1.3908e-05	1.0627e-05	260.28	99.797	120.48	46.299	1.2308e-05	39.195	0.030166	0.046232	0.013116	1151.8	0.00046814	0.00051166	982.44	365.13	0.00048427	0.00052084	364.8	133.54	160.57	56.869	0.00049909	55.574	164.616	184.743	261.656	-61.804	-69.493	-6.017	-63.715	-57.792	6.132	-29.737	-60.772	-57.308	-55.007	-48.906	239.515	-52.534	-8191	255	
1600.139	1	1	0	0	0.069849	0.1066	0.17366	0.13206	0.29769	0.11818	0.2795	0.12902	0.13768	0.23258	0.15541	0.048394	0.1052	0.10201	0.15654	0.077354	-3.0646	-2.8854	-3.0479	-3.4437	-2.775	-3.1083	-3.2583	-2.9104	-3.2812	-2.9188	-3.1229	-3.2833	-2.775	-3.4042	-3.1104	-3.0271	194.298	85.020	-55.276	33.059	90.260	-57.736	205.997	226.185	68.423	261.782	112.395	73.176	161.024	170.311	114.206	88.201	0.00031271	0.0012101	0.00063096	992.1	2.7915e-05	1.4494e-05	816.79	310.84	5.7674e-06	5.0334e-06	255.24	99.148	119.93	45.893	1.9454e-05	38.682	0.030852	0.047377	0.013503	1149.2	0.00047746	0.0005199	971.43	361.08	0.00047408	0.00051546	360.07	131.9	159.34	56.356	0.00050121	55.095	78.457	215.548	52.820	-62.182	-0.656	-49.776	-64.407	-57.484	-40.610	49.285	-60.722	-57.488	-54.772	-48.754	-18.113	-53.194	-8191	255	
1600.234	1	1	0	0	0.21842	0.037076	0.26941	0.11712	0.24319	0.026071	0.13192	0.14326	0.25883	0.055055	0.11946	0.12283	0.17782	0.076664	0.20972	0.081286	-2.9375	-3.0708	-3.0771	-3.4917	-2.8563	-3.1	-3.2542	-2.9813	-3.3729	-2.8917	-2.9813	-3.5812	-2.9667	-3.15	-3.4542	-2.8479	162.838	115.131	56.153	143.340	12.907	281.731	201.644	150.351	175.866	37.647	127.282	235.599	274.830	55.630	170.231	18.080	0.00017632	0.00065216	0.00038866	988.37	6.6731e-06	1.3432e-05	820.13	311.78	1.9459e-05	8.8287e-06	254.86	99.729	119.87	45.928	8.2583e-06	38.798	0.031028	0.048314	0.01368	1154.5	0.00048704	0.00053449	977.21	362.8	0.00048946	0.00052835	362.46	132.89	160.33	56.751	0.00051324	55.62	111.352	-68.195	55.064	-61.940	45.421	112.995	-63.628	-57.703	-1.441	75.861	-60.453	-57.698	-54.860	-48.814	-2.591	-52.953	-8191	255	
1600.330	1	1	0	0	0.15688	0.12905	0.070975	0.11325	0.30505	0.17793	0.30857	0.1115	0.254	0.27996	0.085029	0.069372	0.25225	0.32775	0.16565	0.049005	-2.8312	-2.9583	-2.9417	-3.4688	-3.0521	-2.9688	-3.4271	-2.9167	-3.1083	-3.2812	-2.8646	-3.275	-2.85	-3.1646	-3.3479	-2.7979	268.606	162.217	29.805	235.935	51.268	221.204	241.219	162.203	268.073	147.659	-57.246	205.402	235.456	-68.480	179.327	208.587	0.00022747	0.00096045	0.00037248	996.19	1.569e-05	3.1481e-06	825.09	313.6	2.5737e-05	3.1315e-06	259.91	98.79	120.26	45.601	2.0965e-05	38.983	0.031609	0.049849	0.014088	1167.6	0.00050562	0.00056144	994.98	367.96	0.00051488	0.00056986	374.26	135.93	163.86	57.599	0.00054541	56.493	261.818	-67.763	275.021	-62.082	243.250	114.438	-63.903	-58.095	282.296	7.935	-60.961	-57.938	-54.956	-49.025	241.694	-53.120	-8191	255	
1600.426	1	1	0	0	0.20436	0.12423	0.22706	0.31172	0.062335	0.091374	0.081915	0.34054	0.053966	0.16552	0.023378	0.27634	0.18907	0.010502	0.20364	0.12677	-2.8479	-3.0687	-2.6083	-3.6	-2.9458	-2.95	-3.575	-2.9521	-3.1667	-3.3063	-2.9042	-3.1917	-3.0479	-2.9542	-3.525	-2.975	-74.793	23.854	241.245	238.472	-11.520	263.278	69.330	198.144	184.766	153.050	102.030	269.561	166.646	280.129	236.004	187.514	0.00016392	0.0015178	0.00036015	992.33	1.8264e-05	7.3506e-06	827.43	314.78	1.1576e-05	1.0422e-05	261.3	99.11	120.94	46.067	1.0769e-05	39.099	0.032906	0.05188	0.014525	1173.9	0.00051866	0.00057355	1001	369.26	0.00051796	0.00056542	373.15	134.67	162.46	57.152	0.00052295	55.735	-9.275	53.894	117.893	-62.189	267.686	206.907	-63.418	-57.961	-38.356	180.226	-60.859	-58.150	-54.458	-48.838	207.258	-52.667	-8191	255	
1600.522	1	1	0	0	0.10075	0.17779	0.16499	0.18839	0.14475	0.19962	0.063244	0.28711	0.070077	0.23344	0.084452	0.11659	0.20715	0.15235	0.058164	0.075219	-2.7812	-3.2875	-2.8292	-3.4813	-3.1833	-2.9354	-3.4167	-3.0417	-3.2083	-3.1167	-2.925	-3.3917	-3.1792	-2.8958	-3.3229	-2.9771	275.065	45.190	68.629	-70.862	-68.521	235.369	-6.469	213.042	105.562	121.232	66.814	129.165	272.315	-46.268	188.987	-25.073	0.00027722	0.00070264	0.00060832	992.6	8.4318e-06	5.6052e-06	814.64	311.17	8.7682e-06	3.2503e-05	251.39	96.8	117.93	45.018	4.2457e-05	38.047	0.031273	0.0498	0.013925	1165.7	0.00050279	0.00056722	988.01	365.21	0.00052328	0.00057478	369.17	133.84	162.23	56.722	0.00054369	55.308	92.270	106.256	-19.326	-62.386	-17.273	-48.881	-63.900	-58.007	0.534	141.504	-60.449	-57.981	-55.071	-49.009	128.028	-52.668	-8191	255	
1600.618	1	1	0	0	0.19229	0.067034	0.081169	0.36024	0.3936	0.13385	0.1188	0.069149	0.16531	0.12666	0.01335	0.041607	0.15448	0.17275	0.17038	0.084603	-2.7708	-3.3354	-2.725	-3.4417	-2.9708	-2.9792	-3.2	-2.95	-3.1167	-3.2271	-2.9062	-3.3646	-3.1396	-3.0208	-3.4375	-3.0812	-41.567	174.958	224.024	258.232	122.762	-51.770	158.992	158.579	195.249	20.192	-42.925	160.023	273.583	-45.587	37.762	112.256	0.00066232	0.0020496	0.00052233	988.29	1.0073e-05	1.189e-05	813.68	310.98	8.2384e-06	1.6529e-05	254.03	97.592	118.1	45.084	3.7459e-05	38.059	0.032915	0.051749	0.014349	1166.1	0.00052382	0.00058259	987.73	366.86	0.00053488	0.00059101	371.15	134.49	163.48	56.986	0.00055237	56.001	129.221	66.201	-58.238	-62.275	-12.308	241.370	-64.010	-58.022	71.904	14.352	-60.797	-57.311	-54.747	-48.878	61.625	-53.197	-8191	255	
1600.739	1	1	0	0	0.15781	0.083153	0.075676	0.17553	0.079311	0.053744	0.10925	0.17238	0.11136	0.23553	0.10687	0.44304	0.099832	0.070057	0.078778	0.081038	-2.5042	-3.3583	-2.825	-3.2625	-3.3083	-2.9375	-3.4833	-3.2896	-2.9708	-3.2708	-3.0792	-2.9542	-3.1958	-2.8917	-3.55	-3.1292	190.999	70.872	-72.853	253.571	149.582	-72.333	-18.850	181.813	244.003	-67.657	152.834	251.180	205.093	225.430	136.904	224.919	0.00039107	0.0011784	0.0010211	987.89	9.5693e-06	2.5849e-05	813.2	309.11	1.9572e-05	2.506e-05	255.43	97.473	118.71	45.638	1.5767e-05	38.326	0.034125	0.053275	0.014811	1177.7	0.00054202	0.00059625	996.1	368.7	0.00053548	0.00059717	371.67	135.04	163.54	57.116	0.00054591	56.089	202.911	-54.232	40.066	-62.025	-14.241	89.510	-63.697	-57.909	135.796	21.620	-60.702	-57.746	-55.488	-48.539	149.732	-52.605	-8191	255	
1600.835	1	1	0	0	0.16116	0.086649	0.16818	0.28214	0.27009	0.2239	0.21296	0.24204	0.36908	0.13994	0.24636	0.13319	0.22744	0.20808	0.1506	0.32147	-2.4708	-3.3958	-2.8271	-3.1708	-3.3708	-2.7583	-3.1979	-3.3583	-3.0021	-3.5583	-2.8896	-3.0979	-3.2875	-2.7708	-3.3083	-3.3708	134.329	75.088	27.308	241.288	199.463	166.088	208.442	280.255	-7.216	174.921	14.300	178.068	156.361	228.950	65.523	-14.924	0.00020766	0.0019017	0.0001909	994.12	1.2243e-05	5.7426e-05	819.19	310.91	3.3729e-06	2.0677e-06	257.7	98.675	118.56	45.82	1.8158e-05	38.979	0.033319	0.051725	0.014285	1174.2	0.00052336	0.00056657	991.66	367.02	0.00050688	0.00056593	367.64	133.52	161.36	56.745	0.00051443	55.642	260.864	31.755	71.814	-62.326	98.496	229.869	-63.905	-57.838	102.039	34.248	-60.435	-57.967	-55.045	-48.830	151.108	-52.592	-8191	255	
1600.931	1	1	0	0	0.28573	0.21471	0.16846	0.37384	0.14839	0.069017	0.10985	0.27713	0.11489	0.24146	0.13072	0.29564	0.15642	0.29658	0.10074	0.13343	-2.4562	-3.4542	-3.05	-3.1188	-3.3896	-2.9271	-3.3167	-3.4458	-2.8917	-3.0938	-3.0667	-3.2354	-3.525	-2.8833	-3.1437	-3.3021	-28.990	-38.270	227.289	262.711	-5.451	206.488	233.035	278.401	144.218	108.131	120.803	-43.414	-44.346	282.181	-31.347	195.107	0.00022282	0.0020409	0.00035719	999.06	7.7679e-06	1.871e-05	815.97	310.22	6.0787e-06	1.3144e-05	253.11	95.985	117.15	44.986	1.8996e-05	37.987	0.031569	0.048783	0.013566	1162.6	0.00049832	0.00053668	974.34	360.18	0.00048264	0.00053643	357.32	129.88	157.11	55.331	0.00049918	53.999	190.291	-58.528	3.619	-62.226	200.633	-51.947	-63.880	-57.939	118.997	275.434	-60.578	-57.968	-54.738	-48.875	92.436	-52.497	-8191	255	
1601.027	1	1	0	0	0.050558	0.19687	0.12782	0.33855	0.1742	0.23259	0.17353	0.10394	0.059941	0.065567	0.12761	0.034166	0.25807	0.24073	0.16681	0.03802	-2.3771	-3.3729	-3.0542	-3.0667	-3.2354	-3.0812	-3.3167	-3.2042	-2.8187	-3.375	-3.1104	-3.0875	-3.5479	-2.9667	-3.0208	-3.4354	-59.633	204.602	231.821	214.083	258.822	179.166	263.678	136.341	60.817	215.403	140.070	202.194	-33.758	-46.195	141.757	-72.580	0.00023533	0.0029878	0.00026067	975.65	8.2935e-06	5.2927e-06	809.09	303.98	6.0876e-06	1.3688e-05	247.96	95.36	116.68	44.702	2.0027e-05	37.623	0.030164	0.046759	0.013108	1137.5	0.00048762	0.00052744	960.63	355.79	0.00048186	0.00054189	356	129.31	157.01	54.96	0.00049471	53.411	171.379	8.449	-35.920	-62.119	-13.578	96.891	-63.406	-57.716	-9.901	-3.029	-60.322	-57.708	-54.783	-48.752	167.756	-53.097	-8191	255	
1601.122	1	1	0	0	0.13133	0.10476	0.21493	0.055105	0.32458	0.065784	0.17822	0.27852	0.31472	0.24938	0.16309	0.11289	0.10993	0.31395	0.24244	0.13114	-2.4562	-3.5479	-2.9458	-2.9292	-3.3708	-2.9792	-3.0979	-3.6104	-2.8167	-3.2667	-3.2667	-3.1208	-3.3708	-3.1708	-3.025	-3.3021	178.148	126.196	-27.787	61.629	135.134	-24.494	-71.051	-73.882	62.785	151.812	215.596	161.436	118.959	249.135	-0.648	279.800	0.00032004	0.0014029	0.00027776	978.32	1.4889e-05	3.2331e-05	805.47	303.49	1.9182e-05	1.3835e-05	249.93	94.929	116.19	44.807	5.4623e-06	37.407	0.029222	0.045001	0.012514	1121.1	0.00045629	0.00048987	946.53	350.24	0.00044392	0.00050264	348.7	126.76	153.96	54.651	0.00048138	53.572	211.640	124.542	193.193	-62.050	42.082	189.421	-63.746	-58.031	-52.359	-23.525	-60.388	-57.998	-54.989	-48.618	250.643	-52.236	-8191	255	
1601.218	1	1	0	0	0.11625	0.10591	0.24127	0.11288	0.083241	0.26518	0.20806	0.38246	0.19954	0.039315	0.13995	0.37228	0.1086	0.16344	0.16247	0.15273	-2.3042	-3.2708	-2.9396	-3.0958	-3.3312	-2.7604	-3.1021	-3.6083	-2.8021	-3.2521	-3.2104	-2.8229	-3.5521	-3.0521	-2.9604	-3.4854	-6.503	-24.731	-19.534	-53.254	70.396	53.716	120.467	-69.346	201.311	22.144	256.332	-51.107	103.363	59.875	180.157	65.217	0.00043986	0.0019626	0.0002129	981.57	1.5926e-05	1.353e-05	807.95	306.97	1.4117e-05	1.6353e-05	252.09	95.814	117	44.388	4.0914e-06	37.532	0.029073	0.045543	0.01287	1128.6	0.00046916	0.00051061	959.22	354.46	0.00046577	0.00053456	357.73	129.52	156.81	55.192	0.00049912	54.317	69.917	190.793	88.053	-62.447	274.398	4.374	-63.574	-57.593	108.834	94.274	-60.789	-57.781	-54.597	-48.679	16.004	-52.185	-8191	255	
1601.338	1	1	0	0	0.41789	0.039912	0.1291	0.10157	0.13157	0.22113	0.071777	0.25768	0.17208	0.052275	0.037403	0.16216	0.081539	0.27944	0.22448	0.26352	-2.5979	-3.0458	-3.2375	-3.0646	-3.2229	-3.0687	-3.0062	-3.5333	-2.8854	-3.0958	-3.4146	-2.9542	-3.4042	-3.3312	-2.9708	-3.2938	33.997	-32.119	39.650	-36.910	-3.655	20.584	-66.154	-47.378	-24.594	84.119	-61.822	277.037	19.367	239.112	36.038	18.248	0.0003409	0.0019727	0.00045125	988.21	1.4764e-05	1.0057e-05	818.29	307.82	5.7657e-06	8.6515e-06	251.11	94.507	115.54	44.628	1.3666e-05	37.102	0.030297	0.047422	0.013244	1141.6	0.00047836	0.00051896	966.67	356.33	0.00046204	0.00052678	354.17	126.91	154.6	54.618	0.00048195	53.206	19.419	58.204	5.168	-62.163	-41.337	98.921	-63.623	-57.767	-10.328	220.949	-60.827	-57.228	-54.724	-49.191	76.539	-52.340	-8191	255	
1601.435	1	1	0	0	0.10388	0.11654	0.13974	0.16355	0.26231	0.13159	0.12134	0.10198	0.089286	0.11805	0.083536	0.2159	0.15478	0.22236	0.03805	0.044404	-2.3563	-2.9958	-3.6	-2.9333	-3.2771	-3.1833	-2.9271	-3.5583	-3.0542	-3.2417	-3.25	-2.9292	-3.3854	-3.3354	-2.8812	-3.525	157.003	152.158	188.224	-14.754	74.049	150.310	21.883	247.461	179.579	15.920	-70.099	196.830	274.549	-73.219	116.265	246.726	0.00046157	0.0038766	0.00065983	972.15	8.4097e-06	1.5939e-05	803.39	303.88	6.6266e-06	2.3632e-05	247.12	92.759	115.22	44.246	2.0246e-05	37.137	0.029114	0.045602	0.012713	1122	0.00046197	0.00050759	949.19	350.38	0.00045531	0.0005157	348.47	124.79	152.88	54.27	0.00048036	52.649	223.948	17.506	87.224	-62.117	260.747	0.807	-63.508	-57.851	267.373	66.924	-60.183	-58.078	-55.308	-48.734	128.473	-52.401	-8191	255	
1601.531	1	1	0	0	0.13197	0.16837	0.15555	0.1424	0.057334	0.071542	0.050232	0.059078	0.040952	0.01847	0.21843	0.23789	0.19288	0.30875	0.31008	0.35221	-2.4458	-2.9021	-3.2979	-2.7604	-3.4646	-3.1729	-3.0021	-3.5292	-3.1167	-2.8229	-3.5646	-2.9667	-3.2229	-3.2979	-2.8333	-3.4896	55.406	199.425	-71.430	238.885	-55.304	239.721	210.447	236.094	19.671	20.529	185.284	-48.943	-59.328	-57.331	175.203	202.851	0.00018357	0.002017	0.00053164	979.69	1.8583e-05	3.0003e-05	813.78	305.7	2.0709e-05	2.8134e-05	249.64	93.273	115.32	44.537	6.9428e-06	37.598	0.029538	0.046229	0.012809	1127.8	0.00047485	0.00051649	955.72	352.84	0.00046829	0.00052738	354.83	127.23	156.16	55.065	0.00049372	53.917	-36.003	281.146	-63.296	-62.169	9.654	96.990	-64.097	-57.742	-4.440	126.973	-60.671	-57.456	-54.546	-48.495	-21.912	-52.547	-8191	255	
1601.627	1	1	0	0	0.15854	0.22155	0.13913	0.2155	0.18482	0.051597	0.17798	0.3172	0.14828	0.19045	0.14599	0.065011	0.088196	0.090783	0.1369	0.11506	-2.7313	-2.8042	-3.4708	-3.0646	-2.9938	-3.3042	-3.0396	-3.3729	-3.0812	-2.9333	-3.2979	-3.1375	-3.0062	-3.5271	-2.8604	-3.2146	228.168	-72.655	52.249	-28.970	192.011	112.442	257.199	277.507	-44.935	271.281	236.839	-31.518	240.326	231.870	36.725	110.803	0.00019171	0.0024288	0.00051932	985.13	1.7678e-05	2.7882e-06	817.04	307	1.5214e-05	7.9977e-06	253.16	95.606	117.3	45.015	1.6365e-05	37.897	0.030445	0.047289	0.012984	1135.4	0.0004728	0.0005118	960.36	354.16	0.00045854	0.00050825	355.62	127.31	155.73	54.872	0.00047146	53.75	142.197	-3.395	242.817	-62.440	91.517	235.178	-63.725	-57.793	-30.548	199.448	-60.525	-57.986	-54.898	-48.403	115.974	-52.959	-8191	255	
1601.721	1	1	0	0	0.16171	0.10818	0.16719	0.21184	0.11283	0.098903	0.23799	0.25303	0.12991	0.13108	0.19199	0.17766	0.25753	0.083958	0.29663	0.28963	-2.9646	-2.9813	-3.3312	-3.1167	-3.0667	-3.2812	-3.0938	-3.35	-3.2208	-3.0667	-3.4854	-3.1083	-3.0396	-3.4167	-2.9688	-3.1625	185.464	83.453	203.719	275.760	-70.379	51.142	228.539	156.995	-11.238	67.355	245.516	224.059	282.215	-63.375	87.072	-20.914	8.849e-05	0.0037471	0.00031048	994.49	1.5394e-05	1.7218e-05	818.88	309.35	1.8973e-05	8.2643e-06	255.9	96.01	116.8	45.075	2.1022e-05	37.566	0.029705	0.046114	0.012689	1141.6	0.00046846	0.00051411	966.63	356.48	0.00045748	0.0005073	356.1	127.77	155.08	54.841	0.0004715	53.552	58.163	6.519	116.394	-62.272	5.435	150.366	-63.958	-57.776	-54.252	183.396	-59.946	-57.307	-55.299	-48.922	-59.204	-52.883	-8191	255	
1601.817	1	1	0	0	0.14131	0.053187	0.19316	0.0073	0.086573	0.11904	0.22154	0.04098	0.070602	0.074666	0.038292	0.26707	0.18889	0.12517	0.12873	0.19339	-2.7729	-2.8229	-3.4583	-3.1146	-2.9437	-3.225	-2.9104	-3.2375	-3.3479	-2.85	-3.3292	-3.1146	-3.0812	-3.5125	-2.7854	-3.0958	224.507	158.919	50.209	92.003	253.307	141.164	-74.597	-41.833	66.367	-41.664	161.777	-5.562	234.059	252.418	259.290	-68.391	0.00042833	0.00075566	0.00029685	989.36	1.5018e-05	1.1559e-05	802.98	303.89	1.3168e-05	3.3189e-05	248.61	93.294	116.08	44.626	1.8189e-05	37.435	0.029376	0.045605	0.012632	1138.3	0.00046641	0.00051889	953.86	352.99	0.00046284	0.00050496	352.23	126.31	153.8	54.194	0.00046843	52.893	107.142	-18.964	41.465	-62.177	269.919	150.820	-63.971	-57.558	254.746	75.334	-60.591	-57.635	-54.881	-48.818	-14.511	-52.178	-8191	255	
1601.914	1	1	0	0	0.24222	0.069967	0.15227	0.041483	0.163	0.055503	0.20288	0.1804	0.042282	0.26536	0.05973	0.13614	0.21397	0.29976	0.062397	0.18089	-2.9271	-2.7833	-3.3104	-3.075	-3.0646	-3.5333	-3.1688	-3.2229	-3.4375	-2.5687	-3.3063	-2.9271	-2.9	-3.3896	-3.0167	-3.1937	15.089	160.565	92.335	244.065	1.612	22.026	235.587	118.347	157.631	38.197	8.596	123.019	264.178	-7.565	13.935	-39.446	0.00041771	0.00090594	0.00014845	985.02	2.2863e-05	2.3903e-05	819.94	307.47	1.1312e-05	3.2589e-05	251.17	95.472	117.48	45.007	1.0812e-05	38.052	0.028959	0.044626	0.012481	1130.5	0.00045543	0.00050817	956.05	353.45	0.00045276	0.00049651	352.41	126.88	154.55	54.583	0.00047101	53.269	204.161	87.337	41.620	-62.159	82.213	8.010	-63.746	-57.963	30.779	121.419	-59.920	-57.182	-54.748	-48.682	228.798	-52.440	-8191	255	
1602.010	1	1	0	0	0.053101	0.16728	0.14998	0.21612	0.22178	0.15574	0.12204	0.10343	0.25607	0.046659	0.22458	0.065551	0.089337	0.17762	0.18046	0.12726	-2.8542	-3.0167	-3.175	-3.1854	-2.7708	-3.5083	-3.2104	-3.1333	-3.3875	-2.8917	-3.275	-3.1771	-2.9688	-3.4333	-3.0875	-3.0563	229.046	50.982	36.785	248.295	229.914	-14.845	234.554	35.159	115.361	167.806	247.434	129.115	227.537	252.371	232.276	92.413	0.00049293	0.0019763	0.00081567	993.34	1.929e-05	2.7539e-05	816.29	309.43	7.5368e-06	6.3234e-06	256.15	96.706	117.84	44.757	6.1246e-06	37.919	0.029605	0.045335	0.012799	1142.4	0.00047005	0.00052776	970.18	359.13	0.00047903	0.00052876	364.89	130.88	158.61	55.58	0.00050809	54.533	153.185	-6.261	230.104	-62.258	30.063	174.100	-63.916	-57.800	182.712	-29.846	-60.739	-57.814	-54.997	-49.030	269.777	-52.581	-8191	255	
1602.130	1	1	0	0	0.30184	0.26053	0.22098	0.23937	0.047216	0.40785	0.063486	0.098495	0.099109	0.20873	0.04182	0.085219	0.17611	0.30665	0.10585	0.01994	-3.0854	-2.8187	-3.2458	-3.3396	-2.9437	-3.2042	-3.1521	-3.1979	-3.225	-3.0125	-3.2333	-3.2687	-3.0271	-3.3479	-3.0938	-3.0646	74.881	191.818	247.847	258.600	138.292	55.337	214.014	270.653	121.030	200.171	190.764	119.907	-71.135	267.517	-37.036	192.365	0.00044192	0.0020802	0.0005937	996.18	1.266e-05	2.2235e-05	823.32	310.16	1.3927e-06	7.8764e-06	256.87	96.666	117.77	45.133	1.9803e-05	38.362	0.031391	0.048092	0.01351	1154.8	0.0004787	0.0005451	981.32	362.14	0.00047971	0.00053824	367.77	131.91	159.94	56.052	0.00051488	54.876	181.020	-58.153	255.020	-62.070	3.771	49.630	-63.961	-58.023	61.303	-65.141	-60.630	-57.386	-54.898	-48.818	90.981	-52.473	-8191	255	
1602.227	1	1	0	0	0.046946	0.22675	0.15273	0.31831	0.15068	0.19887	0.10618	0.21707	0.1967	0.23612	0.3663	0.16008	0.2201	0.23528	0.080162	0.08171	-2.975	-2.8583	-3.1083	-3.3396	-2.7854	-3.2687	-3.3063	-3.0062	-3.4729	-2.9	-3.1479	-3.5271	-3.0271	-3.35	-3.3	-2.7812	199.854	146.360	-40.180	228.066	107.060	35.735	160.871	-73.529	129.127	247.501	249.760	280.993	-70.680	-71.999	34.851	-58.576	0.00014219	0.0017079	0.0016287	993.21	6.6031e-06	1.2538e-05	809.01	306.6	1.4646e-05	1.7894e-05	251.74	94.255	116.31	44.489	2.4443e-05	37.263	0.03204	0.048845	0.013668	1153.2	0.00048573	0.0005461	970.49	358.14	0.00047952	0.00053672	360.34	129.27	156.71	55.074	0.00050093	53.427	175.463	108.046	36.431	-62.300	48.179	263.885	-63.876	-58.027	263.967	74.808	-60.812	-57.593	-54.895	-48.873	192.346	-52.420	-8191	255	
1602.298	1	1	0	0	0.098847	0.23887	0.14569	0.32087	0.18121	0.22428	0.022181	0.079681	0.15545	0.091541	0.13909	0.26891	0.26347	0.26137	0.13322	0.09661	-3.1042	-2.8812	-3.0729	-3.325	-2.9792	-3.2792	-3.4271	-2.8708	-3.4375	-2.9271	-3.2062	-3.2146	-3.0229	-3.2417	-3.2625	-2.9188	200.176	78.550	99.495	-74.725	147.985	255.387	100.964	189.268	72.799	15.033	178.469	255.204	275.275	242.597	279.057	193.459	0.00018068	0.00087816	0.00026098	983.45	1.9093e-05	5.9252e-06	813.68	305.03	1.4157e-06	1.5303e-05	249.91	94.547	116.46	44.579	2.525e-05	37.484	0.030692	0.047676	0.013321	1141.7	0.00047813	0.00054749	968.3	356.13	0.00047962	0.00053629	358.35	129.18	156.36	55.037	0.00049236	53.269	36.001	246.509	170.693	-61.783	43.711	35.202	-63.870	-57.981	89.716	173.154	-60.821	-57.271	-54.949	-48.903	45.066	-52.391	-8191	255	
1602.419	1	1	0	0	0.078333	0.18131	0.18101	0.03999	0.22778	0.19654	0.17158	0.2669	0.1014	0.14854	0.13782	0.27415	0.20596	0.15332	0.10115	0.30195	-2.725	-3.0583	-2.7583	-3.6146	-3.0917	-3.2083	-3.4021	-3.0104	-3.2167	-3.1083	-3	-3.3167	-3.125	-3.2479	-3.3375	-2.9854	109.809	196.383	-33.598	130.592	-34.996	-65.457	53.274	217.355	210.135	-61.360	-73.112	262.262	219.033	208.389	271.399	231.008	0.00022784	0.0021103	0.00056019	991.51	1.5028e-05	2.8804e-05	820.91	307.81	9.8092e-06	1.388e-05	253.1	95.507	117.46	44.726	1.5357e-05	37.758	0.03057	0.046867	0.012982	1141.3	0.00046952	0.00053164	971.01	358.07	0.00048365	0.00054213	360.99	130.57	158.3	55.456	0.00050243	53.996	179.400	241.402	-6.754	-61.981	-37.862	85.424	-63.945	-57.835	-32.324	139.165	-60.672	-58.083	-55.130	-48.663	93.792	-52.327	-8191	255	
1602.515	1	1	0	0	0.12829	0.1914	0.21476	0.30697	0.069485	0.051942	0.13011	0.13896	0.10295	0.30078	0.02582	0.12323	0.050852	0.093318	0.090236	0.16928	-2.9021	-3.1521	-2.8042	-3.4979	-2.925	-3.3708	-3.3771	-3.125	-3.2	-3.425	-2.9229	-3.3563	-3.0458	-3.1833	-3.4625	-2.8563	-52.912	-2.870	-51.402	190.470	76.211	261.637	184.307	269.771	271.988	248.788	16.993	19.056	81.477	220.411	202.122	193.119	0.0001417	0.0012929	0.00065333	1004.8	2.3237e-05	2.8973e-05	820.17	308.4	1.1015e-05	2.8437e-05	258.16	95.704	118.03	45.117	1.1791e-05	37.661	0.031307	0.048261	0.013283	1152.2	0.00048382	0.00053781	982.41	360.63	0.00049302	0.00055413	366.26	132.43	160.63	56.233	0.00052406	55.256	-50.429	-0.779	-9.928	-62.173	101.200	-21.034	-63.503	-58.199	-35.341	18.327	-60.373	-57.941	-55.081	-48.841	204.432	-52.615	-8191	255	
1602.611	1	1	0	0	0.15002	0.033967	0.022483	0.26448	0.13278	0.19942	0.053066	0.18597	0.14517	0.23565	0.17428	0.080492	0.24481	0.24568	0.12377	0.096585	-2.7479	-3.1271	-2.8	-3.5104	-2.8958	-3.0792	-3.5	-2.7687	-3.2708	-3.4354	-2.7604	-3.3438	-3.0667	-3.0708	-3.4417	-2.8646	-66.129	112.789	-9.424	-36.607	67.910	136.229	212.176	202.613	-28.009	25.543	12.829	30.714	174.399	243.898	270.066	152.344	0.00014499	0.0016346	0.0004041	1004	1.0535e-05	3.6815e-06	827.03	307.49	1.1642e-05	7.7068e-06	253.31	95.331	115.98	44.284	2.5578e-05	36.571	0.033248	0.050679	0.013959	1170.6	0.00051079	0.00056069	992.6	362.96	0.00051421	0.00056974	367.33	133.4	161.04	55.933	0.00053739	54.775	-49.835	250.898	68.032	-62.179	118.785	26.835	-63.821	-57.853	230.829	173.779	-60.416	-57.920	-55.034	-48.723	-10.017	-52.815	-8191	255	
1602.730	1	1	0	0	0.15796	0.077406	0.030381	0.062113	0.10413	0.069147	0.11486	0.26658	0.15855	0.16207	0.052335	0.11884	0.075132	0.25081	0.090369	0.2396	-2.7687	-3.0563	-2.7917	-3.5458	-3.0396	-3.1	-3.4521	-3.0542	-3.2146	-3.3417	-3.0042	-3.3021	-3.1688	-2.9042	-3.4313	-2.9896	270.751	36.180	-20.427	0.013	117.372	106.444	197.108	187.714	116.962	261.103	129.295	-60.839	23.547	-62.709	277.373	-35.387	0.00019454	0.003414	0.00061264	984.91	3.0817e-05	1.3992e-05	808.7	303.35	2.1228e-05	7.5309e-06	250.28	93.568	113.84	43.958	6.5726e-06	36.731	0.033518	0.050712	0.013953	1151.9	0.00050251	0.00054859	974.22	357.08	0.00049883	0.00054865	359.2	130.1	158.17	55.171	0.00052349	54.295	193.042	166.085	136.258	-62.020	27.637	-60.230	-63.859	-58.134	-25.649	-39.114	-60.414	-57.145	-54.578	-48.739	120.926	-52.567	-8191	255	
1602.826	1	1	0	0	0.035412	0.10973	0.17998	0.15433	0.12803	0.2292	0.10076	0.14181	0.13707	0.12207	0.29503	0.14184	0.11706	0.34696	0.18715	0.14898	-2.4625	-3.4188	-2.7938	-3.4104	-3.1292	-2.8542	-3.4479	-3.3312	-3.0771	-3.325	-2.7646	-3.3167	-3.2542	-2.8375	-3.2604	-3.1437	156.554	-33.584	277.937	235.727	-2.641	-14.229	178.041	-62.806	242.919	172.356	261.909	262.948	177.842	283.177	127.596	132.587	0.00022675	0.0020664	0.00027691	985.63	8.673e-06	1.0181e-05	814.07	304.79	2.8756e-05	1.0408e-05	250.98	94.29	116.09	44.89	2.6078e-05	37.784	0.032332	0.050166	0.013744	1152.6	0.00049527	0.00054119	974.6	357.92	0.00048466	0.00053565	358.39	129.93	156.76	55.336	0.00049458	53.858	148.198	208.476	245.104	-62.212	261.515	68.026	-63.884	-58.052	233.615	175.717	-60.817	-57.754	-54.712	-48.131	194.623	-52.615	-8191	255	
1602.922	1	1	0	0	0.19869	0.34843	0.12526	0.051595	0.17499	0.22049	0.096376	0.28884	0.088035	0.20973	0.2116	0.23141	0.14537	0.22779	0.21693	0.2118	-2.7313	-3.1375	-2.9188	-3.5167	-3.2104	-3.0646	-3.4208	-3.2062	-2.9021	-3.3625	-2.9271	-3.25	-3.2938	-2.8375	-3.1917	-3.2542	70.895	199.429	1.851	276.387	55.376	277.105	256.021	190.152	75.385	-38.563	229.340	235.914	197.799	263.503	-71.817	280.362	0.00024597	0.0022797	0.0011347	994.12	1.4804e-05	1.5898e-05	822.3	308.02	6.5564e-06	3.0244e-06	252.8	95.318	116.02	45.074	3.4511e-05	37.902	0.030017	0.047441	0.013133	1147	0.0004718	0.00052063	979.02	358.14	0.00047654	0.00052975	361.1	131	157.71	55.8	0.0005101	54.879	189.734	218.118	-54.566	-62.493	254.550	26.594	-63.486	-57.756	238.072	156.593	-60.685	-57.743	-55.016	-48.462	67.540	-52.230	-8191	255	
1603.018	1	1	0	0	0.22708	0.16003	0.27527	0.25055	0.20619	0.28108	0.24088	0.36989	0.34421	0.10807	0.26269	0.21812	0.29937	0.26662	0.026586	0.27853	-2.5646	-3.3896	-3.0021	-3.0646	-3.3542	-2.975	-3.2062	-3.3438	-2.9292	-3.1896	-3.1646	-3.1875	-3.1604	-2.8646	-3.3792	-3.3438	54.748	27.754	247.168	283.395	-16.214	219.588	114.953	222.120	94.525	253.391	211.179	217.247	278.441	192.257	104.572	-54.019	0.000135	0.0028322	0.00027081	1002	1.4271e-05	3.9087e-06	829.37	311.23	9.3737e-06	4.3599e-06	257.36	95.998	117.6	44.748	1.2875e-05	37.27	0.031345	0.050002	0.013715	1163	0.00049438	0.00054471	994.97	364.54	0.00049675	0.00055219	367.6	131.28	160.1	55.789	0.00051968	54.43	170.473	206.236	155.225	-62.375	66.240	10.978	-63.812	-57.902	86.042	219.005	-60.517	-57.217	-54.257	-48.487	223.454	-52.472	-8191	255	
1603.115	1	1	0	0	0.099977	0.14865	0.12303	0.18529	0.091504	0.11682	0.26702	0.34786	0.04422	0.13809	0.29421	0.087445	0.12492	0.29892	0.094171	0.227	-2.2562	-3.3979	-3.0646	-3.2833	-3.5375	-2.7667	-3.2625	-3.1479	-2.8688	-3.5375	-3.1667	-2.8958	-3.6167	-3.1104	-3.3187	-3.275	-37.346	-58.059	155.504	87.506	32.470	74.067	278.544	249.974	209.036	173.676	224.737	19.820	269.789	266.319	-49.620	102.757	9.0524e-05	0.0037596	0.00029306	989.71	1.7986e-05	1.3328e-05	806.18	304.03	7.9427e-06	9.1693e-07	248.3	94.187	115.46	44.255	1.3454e-05	36.768	0.031758	0.050319	0.013957	1156.1	0.00050107	0.00055605	984.1	359.87	0.00050311	0.000566	365.08	131.03	160.01	55.651	0.00053339	54.288	213.666	50.603	-13.432	-62.056	105.686	-32.943	-63.529	-57.936	209.832	238.704	-60.817	-58.006	-54.978	-48.846	180.419	-53.085	-8191	255	
1603.211	1	1	0	0	0.21366	0.2429	0.085444	0.33052	0.23989	0.14957	0.10226	0.069884	0.048305	0.17379	0.16595	0.10736	0.24172	0.096445	0.13918	0.1031	-2.4396	-3.5396	-3.1458	-3.0604	-3.3063	-3.0292	-3.2313	-3.2729	-2.9146	-3.4604	-3.2521	-3.0208	-3.2979	-2.9167	-3.0958	-3.4313	114.511	220.603	171.216	254.002	30.051	-49.911	201.419	43.584	164.863	-25.132	32.888	-52.524	216.165	198.854	-1.770	258.675	0.00015822	0.0016667	0.00065877	989.26	2.1887e-05	4.1438e-05	813.65	308.17	1.6927e-05	1.267e-05	253.08	96.543	116.02	43.978	4.2125e-05	37.245	0.032429	0.051679	0.014149	1157.2	0.00050416	0.00055944	984.64	362.66	0.00051531	0.00057602	369.14	133.35	163.37	56.252	0.00055416	55.51	171.670	251.125	24.376	-62.263	180.385	27.731	-63.986	-57.898	-32.167	104.342	-60.539	-57.135	-54.484	-48.612	14.175	-52.745	-8191	255	
1603.307	1	1	0	0	0.23706	0.27809	0.19183	0.13632	0.2028	0.25824	0.22908	0.13441	0.058998	0.24363	0.27162	0.18575	0.18801	0.4169	0.17327	0.36693	-2.3667	-3.2396	-3.2313	-3.0417	-3.4354	-2.9667	-3.2917	-3.3583	-2.7188	-3.4083	-3.3187	-2.8688	-3.3187	-3.1271	-3.1271	-3.325	176.870	-37.536	50.089	190.874	142.919	207.473	224.583	-54.856	90.833	196.484	198.653	89.353	-50.747	248.634	102.443	130.656	0.00042703	0.0013067	0.00095077	993.27	4.5665e-06	2.7091e-05	821.39	308.67	3.2982e-06	3.0372e-05	254.44	96.659	118.11	44.659	3.3552e-05	37.819	0.034108	0.054307	0.014923	1175	0.00053513	0.00058868	998.3	367.68	0.00052337	0.00058047	372.37	134.13	163.79	56.486	0.00053959	55.483	143.934	-2.669	15.268	-61.919	255.697	163.162	-63.783	-58.110	92.128	19.776	-60.760	-57.845	-54.821	-48.628	53.831	-52.836	-8191	255	
1603.428	1	1	0	0	0.10643	0.025759	0.043389	0.28233	0.2691	0.1671	0.26293	0.11381	0.18197	0.29374	0.24415	0.099222	0.26338	0.059356	0.32179	0.05797	-2.375	-3.1229	-2.9792	-2.9062	-3.4042	-3.1875	-3.2438	-3.4042	-2.9062	-3.475	-3.2958	-2.925	-3.2771	-3.4167	-3.15	-3.45	125.004	166.138	81.272	263.488	119.541	27.096	-68.900	185.466	106.375	45.504	79.596	2.736	80.677	212.204	78.837	37.144	0.00029823	0.0022592	0.00019023	999.21	1.1962e-05	5.0186e-06	830.81	313.85	3.0945e-05	2.3881e-05	259.1	98.249	118.92	45.74	2.0255e-05	37.897	0.033188	0.052835	0.014316	1174.1	0.00051926	0.00057237	1003	368.31	0.00050776	0.00055238	367.01	131.84	160.47	55.641	0.0004736	53.265	147.797	-9.740	43.885	-62.217	68.258	-74.324	-63.917	-57.950	250.126	71.223	-60.574	-57.959	-54.500	-48.971	214.234	-52.719	-8191	255	
1603.522	1	1	0	0	0.10986	0.13939	0.12076	0.13369	0.24136	0.014726	0.23936	0.2155	0.05176	0.15982	0.18736	0.17291	0.043384	0.18125	0.083532	0.1219	-2.4938	-3.0042	-3.1604	-3.0375	-3.3896	-3.15	-3.0938	-3.4604	-2.8771	-3.2	-3.4021	-2.8458	-3.4313	-3.1521	-2.9833	-3.4083	147.433	-65.680	-47.444	280.082	121.660	265.031	-65.953	-67.526	69.335	244.563	173.448	241.397	258.337	-45.250	87.683	-69.601	0.00015149	0.0013903	0.00022596	1002.4	1.5267e-05	1.5522e-05	827.69	311.49	1.2672e-05	1.7077e-05	255.22	94.757	116.32	44.379	1.8462e-05	37.241	0.0287	0.044864	0.012204	1142.8	0.00044627	0.00048939	964.63	356.99	0.00044728	0.00049475	351.98	126.64	154.77	54.141	0.00046835	52.435	173.699	211.704	-72.870	-61.984	110.606	15.666	-64.013	-57.639	242.463	256.188	-60.173	-57.938	-54.645	-48.498	118.299	-52.415	-8191	255	
1603.595	1	1	0	0	0.10624	0.18616	0.12478	0.13148	0.14791	0.11651	0.18948	0.22007	0.015074	0.13514	0.13367	0.061206	0.046368	0.37916	0.14005	0.28113	-2.4104	-3.0563	-3.4396	-3.0062	-3.1146	-2.9813	-3.0021	-3.3854	-2.9792	-2.9104	-3.3021	-2.7958	-3.4396	-3.3625	-2.7604	-3.375	173.141	204.577	235.578	237.741	124.321	-16.007	267.886	227.816	21.348	27.241	166.546	-4.370	-35.349	276.251	189.838	278.566	0.0002347	0.00083809	0.00076393	993.41	1.204e-05	3.1738e-05	816.32	309.24	1.9978e-05	9.4808e-06	253.26	95.386	117.69	44.206	2.9384e-05	37.167	0.029089	0.04557	0.012859	1143.7	0.00046278	0.00051055	969.26	358.72	0.00047367	0.00052185	356.69	128.95	158.1	54.612	0.00048525	53.247	89.029	152.287	28.477	-62.123	105.942	76.569	-63.745	-57.657	45.028	244.251	-60.512	-57.520	-55.133	-48.673	100.540	-52.728	-8191	255	
1603.692	1	1	0	0	0.14091	0.17689	0.11592	0.16446	0.20186	0.17387	0.054681	0.26704	0.196	0.21062	0.18134	0.19255	0.14647	0.20783	0.1895	0.12206	-2.5021	-3.1083	-3.3667	-2.9958	-3.1333	-3.4021	-2.8646	-3.3021	-3.0771	-2.9917	-3.675	-2.8396	-3.1667	-3.2521	-2.8104	-3.0417	14.016	2.136	283.980	262.590	-24.195	235.087	219.790	254.046	-64.413	75.783	-56.147	-45.443	196.017	221.042	155.143	266.910	0.00027551	0.0010055	0.00060753	998.84	3.1909e-05	4.6051e-06	827.6	310.15	1.0326e-05	2.7565e-06	255.15	96.301	118.43	44.336	7.1978e-06	37.242	0.030209	0.04699	0.013488	1157.9	0.00048682	0.00053558	985.6	364.97	0.00049892	0.00055397	367.94	132.93	161.87	55.846	0.00053635	55.167	112.213	102.580	166.779	-62.314	25.715	-46.203	-63.797	-57.794	67.032	-67.481	-60.062	-57.440	-54.823	-48.417	98.013	-52.731	-8191	255	
1603.812	1	1	0	0	0.059825	0.13284	0.27497	0.25852	0.14051	0.082268	0.11494	0.30879	0.23103	0.13064	0.33839	0.24856	0.015986	0.23911	0.0932	0.10502	-2.4896	-2.7	-3.375	-3.1333	-3.0479	-3.2313	-2.9958	-3.4417	-3.0521	-2.9646	-3.5396	-3.1667	-3.0646	-3.3167	-2.7583	-3.3312	110.226	138.729	147.639	282.959	-35.914	61.648	190.201	264.931	269.122	202.969	160.979	232.296	174.550	246.597	74.710	49.265	0.0003425	0.0012302	0.001079	1002	1.6963e-05	8.9543e-06	828.94	312.19	6.4661e-06	7.5777e-06	260.1	97.171	118.79	44.695	8.9352e-06	37.498	0.033172	0.051432	0.014772	1180.7	0.00052354	0.00057585	1003.5	369.68	0.00052122	0.0005825	376.16	135.6	163.59	56.792	0.00055849	56.138	170.581	-61.932	-35.968	-62.332	35.919	216.810	-63.613	-58.474	53.207	248.077	-60.299	-57.777	-54.992	-49.002	27.391	-52.888	-8191	255	
1603.907	1	1	0	0	0.26177	0.24941	0.21157	0.27875	0.17697	0.12609	0.30965	0.22736	0.19902	0.10458	0.048374	0.18155	0.22839	0.19541	0.24545	0.21068	-2.6083	-2.7521	-3.3958	-3.1354	-3.0333	-3.4521	-2.9229	-3.1542	-3.1437	-2.9688	-3.4396	-3.1479	-2.9792	-3.5854	-2.9583	-3.4354	-67.193	214.048	110.385	243.479	116.301	54.340	267.985	212.509	22.155	-11.872	193.606	227.958	-22.243	259.079	223.337	-32.655	0.00042517	0.0034485	0.00096746	999.8	1.9181e-05	1.7253e-05	820.92	306.98	3.8571e-06	1.0419e-05	250.68	95.531	116.8	43.523	2.6162e-05	36.064	0.034491	0.054358	0.015564	1194.4	0.00055759	0.0006223	1015.4	374.41	0.0005731	0.00064249	385.13	139.07	167.63	57.287	0.00061859	56.851	152.172	20.772	10.601	-62.280	49.244	3.311	-64.249	-58.062	189.868	270.736	-60.645	-57.780	-55.247	-48.981	-34.951	-52.923	-8191	255	
1604.003	1	1	0	0	0.052172	0.13451	0.12401	0.15265	0.073217	0.12714	0.20494	0.11269	0.053858	0.13972	0.056468	0.35188	0.17051	0.25051	0.1801	0.096135	-2.9146	-2.8563	-3.1771	-3.1458	-3.1042	-3.5875	-2.9813	-3.4021	-3.3667	-2.8021	-3.2708	-3.0542	-3.15	-3.4604	-2.6021	-3.1854	57.905	237.835	91.613	280.237	226.957	-33.713	83.226	-31.402	196.849	-21.348	269.078	256.632	271.083	233.695	-70.123	-64.401	0.00026409	0.0028432	0.0003047	988.03	1.4098e-05	3.3461e-05	804.35	303.57	1.8809e-05	2.2597e-05	248.28	95.654	116.47	42.972	3.7381e-05	35.619	0.038043	0.059746	0.017069	1200.7	0.00060482	0.00067244	1019.1	375.8	0.0006129	0.00068576	392.39	141.53	171.68	58.207	0.00065389	57.754	218.002	-48.263	-46.044	-62.525	276.552	89.646	-63.663	-58.184	78.713	-15.580	-61.014	-58.161	-55.287	-49.216	131.568	-53.034	-8191	255	
1604.099	1	1	0	0	0.046398	0.084859	0.23576	0.18927	0.24932	0.02114	0.18194	0.20742	0.098568	0.082343	0.099547	0.07361	0.17323	0.15362	0.056584	0.17816	-2.9521	-2.9188	-3.2562	-3.3521	-3.0563	-3.3417	-3.0896	-3.2542	-3.2542	-2.8396	-3.5229	-3.2271	-3.0542	-3.4667	-3.05	-3.1625	54.608	-29.171	93.968	42.567	5.617	-27.420	243.920	276.269	187.064	54.661	166.889	-43.502	3.019	-28.475	-7.256	219.412	0.00023144	0.0036707	0.0008666	977.34	1.173e-05	3.0429e-05	806.56	303.74	1.4055e-05	1.3516e-05	250.41	97.369	117.3	43.042	3.8144e-07	36.045	0.040081	0.062981	0.017734	1207.4	0.0006247	0.00068867	1025.2	376.57	0.00062289	0.00068108	391.91	141.07	171.43	57.898	0.00064371	57.855	181.291	82.488	36.814	-62.320	133.005	112.874	-63.630	-58.196	-73.360	109.527	-61.163	-58.316	-55.276	-49.097	-62.910	-52.368	-8191	255	
1604.219	1	1	0	0	0.053016	0.1274	0.18261	0.020262	0.28854	0.15982	0.19565	0.1094	0.051505	0.15733	0.14345	0.024206	0.28243	0.056475	0.1817	0.20444	-2.85	-3.0354	-3.375	-3.2833	-2.8083	-3.6	-3.0333	-3.1604	-3.6146	-3.1312	-3.2396	-3.2354	-3.0521	-3.3667	-3.0062	-3.1583	-21.999	199.349	47.484	179.732	64.126	-47.059	243.610	181.539	143.635	-11.034	-43.510	-56.733	103.280	282.438	202.172	-12.171	0.00018188	0.0030198	0.00074192	981.42	1.1436e-05	3.1052e-05	809.08	306.35	1.0517e-05	1.9147e-05	254.3	97.38	117.66	43.511	1.6343e-05	36.268	0.040127	0.062659	0.017857	1214.9	0.00063878	0.00070394	1031.9	380.62	0.00063702	0.00070129	397.87	143.68	173.38	58.653	0.00064867	58.466	115.923	15.135	83.219	-61.844	85.535	10.387	-64.027	-58.227	206.233	-29.966	-60.911	-57.952	-55.070	-48.938	36.319	-53.079	-8191	255	
1604.291	1	1	0	0	0.20449	0.14842	0.079267	0.07964	0.17174	0.026448	0.047634	0.47514	0.19427	0.20913	0.14296	0.11798	0.089421	0.19913	0.091054	0.11926	-2.9	-2.7708	-3.2792	-3.3958	-2.8896	-3.4333	-3.325	-3.1021	-3.4792	-2.8979	-3.2521	-3.3021	-2.9104	-3.6063	-3.2458	-3.1937	198.304	46.233	233.266	-64.643	-17.937	-14.788	148.501	197.017	253.095	277.604	278.699	-28.235	224.890	219.494	-7.608	205.599	0.0003222	0.0022153	0.0010015	986.04	9.4064e-06	1.7004e-05	809.06	307.55	2.0694e-05	1.573e-05	251.98	98.03	117.08	43.019	1.2036e-05	35.638	0.04036	0.063071	0.017562	1219.4	0.00063837	0.0007008	1035.9	381.91	0.00064337	0.00070095	396.4	143.57	173.47	58.096	0.00064964	57.984	95.255	9.482	56.393	-62.357	65.134	-51.788	-63.914	-57.942	124.904	45.654	-60.667	-58.118	-55.329	-49.533	122.092	-53.628	-8191	255	
1604.412	1	1	0	0	0.055326	0.16078	0.10305	0.065905	0.215	0.1835	0.13865	0.072564	0.092867	0.25105	0.20725	0.15411	0.12799	0.18043	0.10126	0.16468	-2.9271	-2.9729	-3.0812	-3.4021	-2.9208	-3.1604	-3.2042	-3.0396	-3.4708	-2.9271	-3.1229	-3.4958	-3.0646	-3.4833	-3.3479	-3.0354	181.024	-51.477	208.449	163.685	166.259	178.931	188.287	-35.083	118.182	129.621	-9.344	239.886	154.415	190.476	52.117	32.251	0.00025688	0.0021316	0.00041634	972.45	4.0029e-06	1.692e-05	791.7	302.37	2.3836e-05	4.6492e-05	246.74	95.173	116.78	42.069	1.9385e-05	35.117	0.040313	0.062182	0.017234	1204.3	0.00062254	0.00067543	1009.8	373.12	0.00062174	0.00067831	387.85	140.73	171.09	57.372	0.00063953	57.352	41.332	249.469	103.423	-62.170	-37.262	23.805	-64.293	-58.056	157.555	63.169	-60.497	-58.300	-55.466	-49.318	64.611	-53.355	-8191	255	
1604.508	1	1	0	0	0.15497	0.15208	0.1573	0.31997	0.054785	0.3572	0.2344	0.17281	0.29735	0.037307	0.060865	0.08038	0.38254	0.2871	0.31644	0.26832	-2.8917	-2.8937	-2.9479	-3.3333	-2.9271	-3.3042	-3.5333	-2.8667	-3.1854	-2.8937	-3.0208	-3.4583	-3.0896	-3.4688	-3.2208	-2.9062	142.018	99.172	213.843	271.435	-72.953	-68.333	229.624	5.596	235.646	240.885	133.210	257.968	180.901	-65.973	-9.187	209.777	0.00039829	0.0017509	0.00030654	974.49	6.5876e-06	1.6141e-05	792.74	302.46	2.5177e-06	2.0441e-05	248.16	95.613	118.36	42.448	2.9462e-05	35.048	0.03989	0.061675	0.017148	1202.4	0.00062846	0.0006842	1016.5	376.12	0.00064169	0.00069537	393.38	143.9	175.09	58.072	0.00068504	59.003	275.144	51.838	121.672	-62.198	49.084	97.554	-64.243	-58.317	240.584	-4.531	-60.778	-58.386	-55.392	-49.706	215.075	-53.336	-8191	255	
1604.604	1	1	0	0	0.30377	0.15801	0.10885	0.16654	0.17151	0.14401	0.12683	0.072906	0.23731	0.070598	0.19418	0.12708	0.24475	0.10072	0.29776	0.24856	-3.0417	-3.1792	-2.8292	-3.4062	-2.775	-3.1292	-3.25	-2.9604	-3.4167	-3.1562	-2.9646	-3.4688	-2.875	-3.2562	-3.225	-2.8375	264.455	203.051	15.212	201.978	215.944	240.880	-41.739	31.658	168.999	-30.688	-3.340	-40.089	-67.930	2.160	272.686	215.090	0.00034104	0.00096487	0.0004725	970.12	2.4121e-05	4.1975e-06	797.78	302.22	1.9964e-05	2.2292e-05	247.96	97.682	117.95	42.507	7.7152e-06	35.37	0.042744	0.066675	0.018741	1234.6	0.00068978	0.00076043	1051.5	388.26	0.00071446	0.00078087	416.99	151.78	182.72	59.768	0.000763	61.306	189.294	-40.744	251.390	-62.394	58.259	281.769	-63.821	-57.963	215.727	23.440	-61.022	-58.467	-55.555	-49.494	-59.494	-53.323	-8191	255	
1604.698	1	1	0	0	0.17363	0.078306	0.16388	0.26026	0.17349	0.063306	0.28941	0.13239	0.1478	0.097686	0.053118	0.33324	0.12957	0.14261	0.14489	0.11595	-2.7042	-3.0375	-2.8375	-3.7021	-2.8812	-3.1729	-3.4042	-3.0292	-3.1	-3.0938	-2.9458	-3.3083	-3.0187	-2.9562	-3.425	-2.7646	259.626	18.639	-76.485	-59.145	-24.556	198.235	265.663	269.453	238.135	-43.753	72.195	-42.684	234.222	253.554	266.290	171.800	0.00023264	0.0030994	0.00054504	970.88	3.7409e-05	7.0772e-06	801.55	304.82	1.2611e-05	1.085e-05	252.11	98.757	118.01	42.48	1.6838e-05	34.934	0.046008	0.071384	0.020116	1258.9	0.00072949	0.00080608	1076.6	396.19	0.00074794	0.00081332	426.49	154.59	184.22	60.168	0.00076976	61.239	211.101	-11.665	212.445	-62.407	141.905	29.077	-64.208	-58.529	141.129	259.719	-61.062	-58.458	-55.720	-49.522	-34.915	-53.362	-8191	255	
1604.819	1	1	0	0	0.24252	0.15511	0.16104	0.21406	0.092047	0.10136	0.20319	0.10615	0.15963	0.10134	0.33287	0.086288	0.15609	0.13979	0.21779	0.26572	-3.0042	-2.9458	-2.9125	-3.4896	-3.1958	-3.025	-3.475	-2.8542	-3.2438	-3.3354	-2.9167	-3.5458	-3.2417	-2.9021	-3.5333	-2.8125	8.453	227.773	80.060	271.552	11.855	205.818	238.349	-24.232	97.953	175.802	3.429	121.437	183.727	253.764	-46.458	195.053	0.00018796	0.0032168	0.00016116	973.58	2.9166e-05	2.5413e-05	782.71	299.52	1.6255e-05	3.7804e-05	244.46	95.108	115.26	41.539	2.5173e-05	34.007	0.045823	0.071676	0.020108	1250.3	0.00071787	0.00079558	1056.3	388.28	0.0007223	0.00080626	415.96	149.48	179.81	59.011	0.0007626	59.864	155.090	-32.626	225.018	-62.191	155.660	108.523	-64.106	-58.407	268.654	206.134	-61.590	-58.436	-55.533	-49.631	-26.730	-53.724	-8191	255	
1604.891	1	1	0	0	0.21678	0.13865	0.14372	0.1783	0.099372	0.023695	0.14274	0.20854	0.2256	0.092115	0.24278	0.21541	0.27003	0.26376	0.037534	0.055395	-2.9458	-3.45	-2.8438	-3.5208	-3.05	-2.9646	-3.4667	-3.0521	-3.3208	-3.3292	-2.9208	-3.3104	-3.2479	-3.1708	-3.3625	-3.1521	14.686	-35.657	24.167	-38.993	-54.156	256.329	190.648	209.657	73.914	175.647	3.244	105.586	202.138	-59.847	113.084	31.369	0.00027984	0.0023175	0.00092302	961.27	7.6287e-06	1.884e-05	779.75	299.75	2.5013e-05	8.1305e-06	245.83	93.999	114.82	41.802	2.4993e-05	34.49	0.045326	0.07102	0.019763	1233.4	0.00069232	0.0007682	1037.3	381.17	0.0006743	0.00076719	403.83	143.98	175.21	58.013	0.00071046	58.205	-14.417	75.906	110.731	-62.452	250.063	128.114	-64.023	-58.235	71.076	1.899	-60.969	-58.222	-55.944	-49.854	122.284	-53.318	-8191	255	
1604.987	1	1	0	0	0.13296	0.39721	0.37935	0.1878	0.19367	0.36468	0.14193	0.11958	0.23819	0.24969	0.17918	0.14981	0.17537	0.054333	0.11381	0.37224	-2.7208	-3.3125	-2.9375	-3.4979	-3.2625	-3.0438	-3.5292	-3.0542	-3.1083	-3.5312	-3.0771	-3.3417	-3.1729	-3.025	-3.5333	-3.0125	241.018	212.817	50.802	241.375	88.908	150.117	236.988	19.917	46.745	-2.800	201.409	209.464	-71.839	236.470	-25.406	187.452	0.00032162	0.0019195	0.00032136	971.05	1.6416e-05	3.1735e-05	795.75	301.38	2.3968e-05	2.0592e-05	248.47	95.651	115.51	42.412	1.071e-05	34.918	0.042635	0.0667	0.018377	1219.5	0.00064945	0.00071234	1022.9	374.84	0.00062121	0.00069989	389.55	140.33	170.14	57.034	0.00065561	57.028	201.805	123.888	39.234	-62.293	5.691	108.032	-64.114	-58.266	3.817	173.120	-60.506	-57.789	-55.618	-49.306	267.562	-53.068	-8191	255	
1605.108	1	1	0	0	0.13956	0.27293	0.086189	0.12182	0.31663	0.18851	0.24428	0.50114	0.089989	0.12898	0.059308	0.08434	0.1714	0.10022	0.085014	0.23696	-2.6292	-3.4167	-2.9813	-3.1188	-3.0917	-2.7646	-3.4	-3.3167	-2.9771	-3.4792	-2.95	-3.2604	-3.3396	-2.8271	-3.175	-3.2167	250.630	165.900	-42.067	230.371	125.253	279.176	278.528	209.342	1.092	73.693	0.361	273.742	247.019	91.645	28.681	79.480	0.00024877	0.0010819	0.0011829	979.01	4.5124e-06	3.1223e-06	802.13	306.08	2.0572e-05	1.7117e-05	255.02	97.048	118.41	43.362	1.3971e-05	36.119	0.039708	0.062496	0.01727	1208.6	0.00062536	0.00068273	1019.6	374.6	0.00059912	0.00067134	385.85	139.32	169.09	56.611	0.00059645	55.744	39.120	-51.547	-54.632	-62.197	155.852	187.216	-63.926	-58.208	155.460	216.400	-60.802	-57.846	-55.041	-49.328	78.669	-53.080	-8191	255	
1605.204	1	1	0	0	0.080389	0.1243	0.079599	0.071284	0.29858	0.19164	0.092729	0.34465	0.18974	0.050471	0.14783	0.19766	0.21669	0.053524	0.24974	0.32322	-2.5792	-3.3563	-3.0542	-3.3063	-3.4146	-2.8208	-3.2354	-3.1646	-3	-3.4896	-2.875	-3.0229	-3.3583	-3.1167	-3.3104	-3.0896	203.672	74.440	90.048	225.658	181.871	125.776	-64.491	250.243	21.960	90.464	170.258	-39.217	197.036	9.179	64.515	180.172	0.00046444	0.0014233	0.00094747	985.2	3.6331e-05	1.2056e-05	811.55	306.94	3.8416e-06	2.6209e-06	250.65	97.002	118	42.865	1.8277e-05	35.54	0.036095	0.056114	0.015404	1181.8	0.00057271	0.00061437	996.32	367.86	0.0005464	0.00060886	371.35	135.1	163.2	54.464	0.0005316	52.572	35.383	-31.423	42.760	-62.332	71.952	74.409	-63.851	-58.027	89.526	29.594	-60.493	-58.358	-55.661	-49.392	-27.087	-53.276	-8191	255	
1605.300	1	1	0	0	0.37128	0.051856	0.08456	0.11914	0.10556	0.2713	0.048643	0.19211	0.22092	0.14666	0.14099	0.17175	0.17958	0.10964	0.10891	0.17309	-2.5938	-3.2042	-2.9271	-3.2083	-3.3375	-3.0062	-3.3312	-3.175	-2.8354	-3.3833	-3.175	-3.0354	-3.2458	-2.8396	-3.1208	-3.3271	223.936	81.392	94.290	222.653	-34.119	256.474	194.309	-74.527	153.442	275.610	140.303	263.134	-15.391	73.212	27.594	2.851	0.00032969	0.0011404	7.0525e-05	994.56	2.2505e-05	3.0597e-05	817.22	310.63	3.3974e-06	1.5491e-05	256.47	100.34	121.25	43.748	2.1823e-05	36.531	0.031543	0.048268	0.013218	1151.1	0.00048942	0.00052631	969.66	360.9	0.000475	0.00053365	357.89	132.35	160.09	53.607	0.00046521	51.746	128.784	-42.389	229.728	-62.333	84.347	61.350	-63.862	-57.966	282.019	150.348	-60.962	-58.381	-55.511	-49.465	229.720	-52.888	-8191	255	
1605.396	1	1	0	0	0.098116	0.11939	0.27439	0.30436	0.11169	0.18838	0.088944	0.31577	0.13639	0.24948	0.28414	0.18635	0.20768	0.13326	0.075471	0.18128	-2.5	-3.3229	-3.2521	-3.0812	-3.3646	-2.9229	-3.3937	-3.3625	-2.9625	-3.3458	-3.1625	-3.1583	-3.5042	-3.1437	-3.2812	-3.2708	55.269	-20.146	97.367	212.867	199.885	124.216	116.802	249.094	132.322	211.919	-6.643	-69.153	262.098	65.988	110.299	149.210	0.00041304	0.00066201	0.00014398	1017.6	1.5897e-05	7.7226e-06	841.59	319.49	1.0516e-05	9.9014e-06	264.04	102.75	125.07	45.117	1.126e-05	37.694	0.028178	0.043072	0.011841	1143.2	0.00043414	0.00046165	966.46	360.07	0.00041494	0.00046112	350.28	130.62	157.3	53.32	0.00042009	51.576	131.533	233.930	-17.135	-62.360	68.652	70.172	-63.817	-58.039	29.714	226.469	-60.571	-58.029	-55.410	-49.662	-53.894	-52.939	-8191	255	
1605.492	1	1	0	0	0.17055	0.26483	0.17448	0.14694	0.26047	0.32747	0.29362	0.15014	0.068623	0.19821	0.17838	0.062292	0.19164	0.15277	0.31102	0.21672	-2.4833	-3.2875	-3.0792	-3.0667	-3.4854	-2.8625	-3.0542	-3.2562	-2.6646	-3.3771	-3.2167	-3.0375	-3.3375	-2.975	-2.8958	-3.4271	-10.332	164.400	133.624	4.348	2.251	173.759	161.470	182.079	73.904	36.553	-53.535	-70.367	-73.887	201.037	-53.868	206.841	0.00017071	0.0019816	0.00047343	1026.6	1.0995e-05	2.8977e-05	848.54	321.76	1.916e-05	2.4298e-05	267.11	105.4	125.82	45.54	4.491e-06	38.262	0.025875	0.03992	0.0112	1145.3	0.0004177	0.00044744	972.08	361.41	0.00041002	0.00046307	353.78	132.89	158.4	53.708	0.00041961	51.997	105.684	48.194	157.452	-62.218	82.282	107.903	-64.079	-57.931	-19.765	131.742	-60.518	-57.918	-55.301	-49.294	108.506	-53.089	-8191	255	
1605.588	1	1	0	0	0.091721	0.17063	0.23978	0.27933	0.11431	0.1614	0.028437	0.28473	0.29054	0.14224	0.030569	0.15648	0.2655	0.35772	0.11259	0.1127	-2.6167	-3.2708	-3.1083	-2.7583	-3.3125	-3.0208	-3.2271	-3.5458	-2.9583	-3.1979	-3.1417	-2.9042	-3.4396	-3.0646	-2.8854	-3.3917	219.523	73.316	152.823	260.147	245.604	187.270	-48.764	191.559	226.147	-48.748	65.103	5.103	245.802	264.833	187.445	19.668	0.00026307	0.0027434	0.00085522	1030.9	1.7304e-05	1.2645e-05	856.49	323.28	4.4429e-06	1.8534e-05	266.37	103.32	124.74	44.792	2.849e-05	37.849	0.025534	0.039531	0.011173	1150.2	0.00041357	0.00044133	977.55	360.69	0.00039536	0.0004398	350.61	129.55	154.94	52.82	0.00040532	50.723	238.041	199.238	116.821	-62.614	58.175	-14.665	-63.489	-57.895	174.188	22.579	-60.587	-58.205	-55.327	-49.026	-72.797	-52.918	-8191	255	
1605.684	1	1	0	0	0.13069	0.20508	0.23562	0.1272	0.11397	0.21135	0.25298	0.16021	0.02832	0.20852	0.10079	0.059506	0.41423	0.014947	0.10043	0.28243	-2.3292	-3.2833	-3.2708	-2.9229	-3.1917	-2.8438	-2.8167	-3.3104	-2.7417	-3.0458	-3.2833	-2.7604	-3.2167	-3.1146	-2.9583	-3.4333	53.945	64.798	165.882	-24.208	79.125	264.418	220.327	204.458	218.816	78.256	214.616	125.030	262.431	145.695	3.875	256.834	2.4401e-05	0.001805	0.00035585	1019.5	7.6937e-06	1.9372e-05	844.08	317.56	1.0264e-05	1.669e-05	263.24	101.63	122.5	44.16	1.0397e-05	36.8	0.024579	0.038311	0.010887	1133.4	0.00039964	0.00043537	963.11	356.43	0.00040106	0.00045122	352.76	128.95	154.92	52.814	0.0004325	50.929	87.615	209.477	31.492	-62.500	189.839	104.419	-63.888	-58.217	91.289	119.364	-60.979	-57.709	-55.198	-48.935	-31.964	-53.021	-8191	255	
1605.781	1	1	0	0	0.16894	0.1823	0.15353	0.26638	0.07435	0.074121	0.25691	0.2198	0.19358	0.1032	0.19365	0.17009	0.20155	0.31001	0.079982	0.032662	-2.4583	-3.0771	-3.2854	-3.0312	-3.3333	-3.2646	-3.0521	-3.6125	-2.8604	-2.8812	-3.4667	-2.9354	-3.2583	-3.0667	-2.7333	-3.2896	271.650	276.936	50.027	274.606	49.545	237.923	215.499	192.665	65.330	225.094	183.195	-71.003	211.434	251.932	269.276	91.483	0.00060049	0.00083665	0.00074966	1027.1	3.1719e-05	2.4541e-05	842.06	315.19	4.4007e-06	5.0969e-06	262	99.541	121.1	43.852	1.9446e-05	36.697	0.026277	0.041506	0.011677	1148.7	0.00042965	0.00046874	974.07	357.81	0.00042591	0.00047961	358.22	129.64	156.6	53.417	0.0004594	51.862	81.090	250.456	160.347	-62.113	31.974	157.237	-64.135	-58.222	162.359	176.375	-60.834	-58.356	-54.912	-49.197	132.136	-52.966	-8191	255	
1605.899	1	1	0	0	0.077275	0.032786	0.23594	0.21849	0.10057	0.22106	0.23717	0.17995	0.11004	0.24497	0.074014	0.18491	0.1686	0.099226	0.22186	0.11569	-2.5708	-3.0312	-3.4271	-2.9292	-3.2208	-3.2917	-3.1104	-3.3438	-3.1021	-3.1958	-3.5187	-3.175	-3.3	-3.2875	-2.8625	-3.3729	-19.217	226.781	92.432	240.647	230.722	-3.205	236.346	258.723	104.674	167.692	227.163	257.628	13.890	107.702	116.005	143.659	0.00045727	0.0010547	0.00069026	1016	2.2533e-05	2.2306e-05	836.16	313.91	6.8145e-06	1.5773e-05	259.25	100.66	120.46	43.202	2.1748e-05	36.265	0.028159	0.044621	0.012561	1160.3	0.00046663	0.00052968	993.73	363.88	0.00048559	0.00054543	371.64	134.75	161.94	54.256	0.0005106	53.108	103.927	189.881	-75.381	-62.297	134.594	258.359	-64.094	-58.085	49.903	281.833	-61.138	-58.372	-55.013	-49.229	-16.474	-53.220	-8191	255	
1605.996	1	1	0	0	0.14517	0.13475	0.061966	0.17121	0.20376	0.2335	0.1627	0.14073	0.019094	0.098536	0.096874	0.24973	0.14246	0.15361	0.28901	0.12719	-2.6333	-2.8833	-3.3375	-3.075	-3.1583	-3.4667	-2.8875	-3.5375	-3.0479	-3.0208	-3.4792	-3.2375	-3.3	-3.4521	-2.9688	-3.6646	276.240	216.110	-16.729	248.550	235.213	78.577	247.091	192.959	-18.608	80.414	168.604	229.915	-62.766	266.750	118.143	135.826	0.00023864	0.002847	0.00092862	1011.2	2.1602e-05	3.0018e-05	838.93	314.63	1.0011e-05	8.8678e-06	259.69	100.69	121.2	42.773	6.7939e-06	35.225	0.031644	0.050076	0.013983	1179.9	0.00051545	0.0005884	1014.6	371	0.0005288	0.00059445	381.13	138.5	165.86	54.73	0.00053665	53.189	226.815	6.583	8.134	-62.457	110.440	167.401	-63.839	-57.875	141.439	33.505	-60.819	-58.602	-55.288	-49.513	77.027	-53.086	-8191	255	
1606.092	1	1	0	0	0.24335	0.16045	0.21857	0.11246	0.15701	0.29051	0.24561	0.14976	0.085911	0.118	0.22441	0.18289	0.13211	0.064353	0.12336	0.14885	-2.7229	-2.9146	-3.4292	-3.0417	-3.0938	-3.4083	-3	-3.4167	-3.1854	-2.9562	-3.55	-2.9583	-3.1437	-3.1646	-2.7833	-3.3292	166.438	4.346	164.049	-39.367	144.031	-5.355	209.918	227.352	238.016	193.083	190.210	60.793	144.912	272.972	44.442	229.956	0.00026867	0.002529	0.00034863	1001.3	1.2031e-05	1.8459e-05	819.03	305.54	1.8332e-05	7.8593e-07	254.23	97.342	118.33	42.087	2.6164e-05	35.168	0.032549	0.050614	0.013811	1162.6	0.00049793	0.00055618	976.5	356.95	0.00048633	0.00053539	361.64	130.84	158.81	52.949	0.00049016	51.259	167.476	256.336	269.499	-62.569	220.212	58.335	-64.070	-58.174	25.579	-41.334	-61.271	-58.041	-55.188	-49.278	-14.158	-53.742	-8191	255	
1606.188	1	1	0	0	0.22089	0.12143	0.1987	0.4908	0.18418	0.18512	0.13114	0.22347	0.056196	0.099203	0.13892	0.27072	0.19679	0.15749	0.36049	0.13096	-3.0083	-2.7958	-3.6063	-3.1375	-2.9458	-3.3792	-2.9125	-3.3292	-3.3354	-2.9208	-3.4	-3.1104	-3.0292	-3.6604	-2.9771	-3.3208	277.768	10.153	119.215	272.190	-12.594	132.315	247.515	-66.782	278.352	283.840	265.907	225.981	206.873	208.405	11.496	107.137	0.00032733	0.00083298	0.00057819	991.15	1.1913e-05	2.7053e-06	822.38	305.8	2.3691e-05	1.2846e-05	253.47	96.76	117.94	42.616	2.4045e-05	35.574	0.030601	0.047084	0.012925	1148	0.00047433	0.0005283	971.23	355.16	0.0004634	0.00051229	356.73	129.65	157.64	53.079	0.00048902	51.969	255.349	204.969	190.567	-62.101	125.995	145.029	-63.798	-57.998	75.694	-46.295	-61.003	-58.294	-55.587	-49.357	97.339	-53.560	-8191	255	
1606.284	1	1	0	0	0.12657	0.27254	0.32067	0.13382	0.14243	0.18942	0.14969	0.45442	0.35638	0.1507	0.11113	0.11351	0.23958	0.094446	0.21245	0.065714	-2.7792	-2.8688	-3.3146	-3.1813	-3.0104	-3.4396	-3.1688	-3.3542	-3.4021	-3.0833	-3.3979	-3.0938	-2.8292	-3.4437	-2.925	-3.3542	277.176	17.673	80.201	210.358	47.684	168.978	210.558	245.378	-25.904	42.871	98.872	151.775	268.100	105.937	53.756	134.445	0.00016039	0.0022647	0.00026663	1004.9	2.4114e-06	1.6901e-05	826.22	305.22	1.9921e-05	3.1451e-06	254.48	98.156	117.78	42.457	2.6197e-05	35.706	0.031794	0.04859	0.01366	1168.6	0.00051118	0.00056876	992.77	363.66	0.00052043	0.00057241	372.32	135.74	163.24	54.297	0.00053682	53.649	262.281	44.451	-9.598	-62.464	52.280	-65.786	-63.738	-57.899	264.748	179.077	-61.016	-58.214	-55.542	-49.323	-60.878	-53.191	-8191	255	
1606.380	1	1	0	0	0.19144	0.27782	0.23748	0.16444	0.15642	0.28399	0.11943	0.1656	0.15044	0.11282	0.038835	0.24004	0.23407	0.15687	0.070828	0.14719	-2.9688	-2.7229	-3.1146	-3.2021	-2.75	-3.4583	-3.2896	-3.2042	-3.425	-2.975	-3.1354	-3.3271	-2.8979	-3.4313	-2.8646	-3.1104	242.318	209.260	-50.760	256.767	-18.824	125.824	79.889	211.732	-13.643	244.823	253.614	217.556	168.508	187.143	151.491	66.999	0.00030911	0.00059547	0.00077168	1004.1	2.4958e-05	1.447e-05	826.07	307.24	6.1137e-06	1.2161e-05	258.71	99.21	119.09	43.186	2.2885e-05	36.033	0.03386	0.051254	0.014366	1181.9	0.00053299	0.00059771	1007.3	368.58	0.00054284	0.00059502	378.95	138.75	165.77	55.168	0.000546	54.28	202.121	221.606	263.208	-62.558	200.792	208.558	-63.906	-58.175	140.721	62.682	-61.180	-58.497	-55.113	-49.154	136.970	-53.258	-8191	255	
1606.501	1	1	0	0	0.13924	0.17193	0.31052	0.13091	0.33663	0.098417	0.13192	0.21656	0.14999	0.080027	0.11414	0.11439	0.14978	0.12419	0.1446	0.21981	-3.1	-3.0375	-3.2438	-3.2396	-2.7833	-3.3208	-2.9437	-3.0958	-3.3333	-2.9625	-3.2667	-3.3292	-3	-3.625	-3.1354	-3.1104	-58.640	205.645	104.313	197.288	255.707	185.751	176.911	176.550	-38.078	154.249	-1.418	253.604	-37.657	181.114	274.982	181.319	0.00046999	0.00081416	0.0003973	1002.9	1.5749e-05	1.2383e-05	818.06	304.33	1.467e-05	3.9094e-06	253.39	95.581	116.62	42.564	2.2159e-05	35.324	0.033733	0.050397	0.013924	1165.4	0.00049024	0.0005423	979.87	357.14	0.00048442	0.00053544	360.53	132.24	158.1	53.498	0.00050721	51.966	104.582	7.187	-4.699	-62.285	168.608	189.891	-63.928	-58.120	-48.681	17.208	-60.950	-58.056	-55.193	-49.128	118.961	-53.390	-8191	255	
1606.595	1	1	0	0	0.12132	0.3379	0.043095	0.10109	0.20732	0.13219	0.054813	0.12479	0.31296	0.059601	0.12781	0.15124	0.19103	0.075175	0.14345	0.079932	-3.0521	-2.875	-3.1729	-3.4313	-2.9521	-3.3	-2.9542	-3.0792	-3.4792	-3.2104	-3.3125	-3.4521	-2.7375	-3.1542	-3.1583	-2.9021	148.190	182.779	255.013	188.225	151.882	99.354	216.812	-75.588	30.914	82.848	255.585	233.693	257.004	-40.936	83.494	241.662	0.00038253	0.0017506	0.00048899	993.43	1.9854e-05	1.3945e-05	822.82	304.1	3.1862e-05	2.0544e-05	250.08	95.56	116.44	42.635	9.7405e-06	35.546	0.031473	0.047861	0.013396	1152.4	0.00047617	0.00053023	971.39	353.58	0.0004638	0.00051221	354.1	128.88	154.74	52.636	0.00047766	51.055	176.973	67.571	195.754	-62.521	75.635	32.300	-63.694	-58.168	2.212	-42.857	-60.727	-57.981	-55.039	-48.891	227.675	-52.670	-8191	255	
1606.691	1	1	0	0	0.19805	0.062665	0.12928	0.15803	0.089901	0.10573	0.16705	0.067081	0.19403	0.10993	0.10577	0.27046	0.16149	0.066966	0.063111	0.13825	-3.2229	-3.0021	-3.2	-3.4354	-2.8667	-3.3063	-3.3479	-3.25	-3.3042	-3.0854	-3.0729	-3.3271	-2.8042	-3.2188	-3.3708	-3.125	46.883	253.794	-9.078	230.573	281.543	-62.259	-66.575	-30.469	50.827	262.700	229.229	215.276	-57.626	267.301	46.716	253.616	0.00012637	0.005732	0.00023884	1009.5	1.4321e-05	1.6136e-05	829.07	303.14	1.2894e-05	5.4669e-06	257.25	96.152	116.49	43.254	1.0639e-05	36.069	0.029342	0.044646	0.012506	1142.7	0.00043826	0.00048363	965.1	349.3	0.00042398	0.00046956	346.57	125.8	151.14	52.195	0.00044121	50.091	114.666	-15.818	-66.036	-62.391	263.677	6.657	-63.833	-58.251	131.864	59.092	-60.938	-57.856	-55.098	-49.232	85.833	-52.342	-8191	255	
1606.765	1	1	0	0	0.19008	0.19049	0.20517	0.43174	0.18419	0.13333	0.13818	0.16005	0.11608	0.057092	0.044671	0.17828	0.058912	0.27119	0.15289	0.10032	-3.1521	-2.9833	-3.0646	-3.3521	-3.0667	-3.2271	-3.5229	-3.0229	-3.4229	-2.8542	-2.9313	-3.5812	-2.9458	-3.2083	-2.9667	-3.0479	272.514	218.485	-6.198	246.531	280.460	98.566	32.402	181.523	211.153	197.218	-27.233	75.422	106.661	-40.569	141.406	25.666	0.00012666	0.0012263	0.00039036	1012.7	1.6661e-05	1.7809e-05	837.18	308.12	1.8047e-05	4.1405e-06	257.47	96.329	116.75	43.5	7.1727e-06	36.666	0.027173	0.041589	0.011638	1133.9	0.00041254	0.00045833	967.42	346.9	0.00040925	0.00046011	345.74	124.6	150.22	52.434	0.00042999	50.05	85.983	98.643	30.812	-62.042	-33.302	-43.666	-63.848	-57.987	144.120	100.452	-60.882	-57.754	-54.733	-48.317	202.449	-52.597	-8191	255	
1606.884	1	1	0	0	0.16345	0.11621	0.066998	0.19315	0.21867	0.053407	0.17221	0.21867	0.10097	0.14094	0.037334	0.10951	0.028377	0.0065596	0.26553	0.15727	-2.9708	-3.2208	-2.9437	-3.4792	-2.9917	-3.0938	-3.6042	-3.0875	-3.3083	-2.9292	-3.0521	-3.4979	-3.1125	-3.0917	-3.3771	-2.9458	-44.948	4.582	166.505	260.813	243.263	89.381	120.004	-46.935	-61.324	116.340	247.682	190.034	123.806	12.918	38.836	268.837	0.0005965	0.0030625	0.0001086	1010	7.1754e-06	1.366e-05	831.63	303.72	2.0818e-05	1.8987e-05	250.8	93.091	114.09	42.935	3.466e-05	35.394	0.026498	0.040754	0.011259	1127.2	0.00039917	0.00044241	950.95	342.16	0.00039231	0.00044078	335.7	121.27	146.66	51.323	0.00041699	48.816	33.907	172.667	72.433	-62.429	231.669	199.667	-64.174	-58.047	236.875	-51.291	-60.674	-57.423	-55.076	-48.959	-4.639	-52.603	-8191	255	
1606.980	1	1	0	0	0.11297	0.18576	0.13473	0.34842	0.11623	0.080177	0.20106	0.16442	0.10031	0.21573	0.19116	0.22453	0.063487	0.021726	0.091002	0.044053	-3.025	-3.2167	-2.6375	-3.4458	-3.2167	-2.8125	-3.4292	-3.0563	-3.3354	-3.1333	-2.7542	-3.4958	-3.1667	-3.1042	-3.3729	-2.75	12.792	123.225	270.082	-70.453	117.205	165.836	222.478	193.831	134.751	267.865	-40.700	257.690	98.132	256.422	-2.042	162.695	0.00014218	0.0019082	0.00013268	996.89	8.4782e-06	1.6661e-05	819.23	300.01	8.5769e-06	2.1835e-05	249.22	92.634	113.32	43.089	1.5348e-05	35.943	0.025641	0.040478	0.011084	1115.6	0.00040037	0.00044224	944.78	339.4	0.00039968	0.00044445	333.22	119.95	146.17	51.356	0.00040545	48.76	118.344	138.077	243.736	-62.086	156.645	132.136	-64.013	-57.825	76.888	-15.790	-60.436	-57.581	-54.832	-48.804	-46.246	-52.526	-8191	255	
1607.076	1	1	0	0	0.21588	0.29023	0.30933	0.15353	0.20731	0.13772	0.26327	0.049158	0.13498	0.11471	0.20658	0.23922	0.41024	0.071656	0.18296	0.066965	-2.6792	-3.2938	-2.9313	-3.5167	-3.0062	-3.2271	-3.5854	-3.2938	-3.3208	-3.2042	-2.825	-3.4646	-3.2625	-3.0875	-3.4583	-3.1792	152.216	67.323	-17.201	-10.524	244.588	241.582	174.972	262.137	174.854	-46.689	214.443	208.720	268.394	271.528	-44.216	115.461	0.0002802	0.0010984	0.00035027	1001.2	1.9616e-05	8.8945e-06	826.47	301.08	7.9591e-06	1.6861e-05	250.43	92.605	113.31	43.603	2.4976e-05	36.72	0.02489	0.03933	0.010551	1111.2	0.0003805	0.00041395	936.24	336.08	0.00037005	0.00041053	326.51	117.72	142.72	50.931	0.00036923	48.23	74.060	123.820	21.215	-62.265	204.717	-22.516	-64.098	-57.964	87.755	125.913	-60.687	-57.337	-54.404	-48.727	35.728	-52.457	-8191	255	
#DATA ENDS
