BOXY.EXE: ISS Imagent and Oximeter Data Acquisition Program Version 0.80
Ascii Record File

#ACQ INFORMATION
2  Detector Channels 
16  External MUX Channels 
1  Auxiliary Channels 
5000  Waveform (CCF) Frequency (Hz)
1  Waveforms Skipped 
30  Waveforms Averaged 
1  Cycles Averaged 
16  Acquisitions per Waveform 
10.0806  Updata Rate (Hz) 

#FILE INFORMATION
TRUE -- External MUX Channel results are PARSED.
FALSE -- AC DC and Phase are NOT grouped.
TRUE -- Companion Program Settings File CREATED.
FALSE -- AC data not excluded
FALSE -- DC data not excluded
FALSE -- Phase data not excluded
FALSE -- Auxillary Chn. data not excluded
Tab delimiters

#CALIBRATION STATE
TRUE -- Waveform Calibration Values APPLIED.


#AUX CALIBRATION VALUES
Val Type	aux-1	

Term	1.0000e+00	
Factor	0.0000e+00	


#WF CALIBRATION VALUES
A = Detector Channel
Val Type	A-AC1	A-AC2	A-AC3	A-AC4	A-AC5	A-AC6	A-AC7	A-AC8	A-AC9	A-AC10	A-AC11	A-AC12	A-AC13	A-AC14	A-AC15	A-AC16	A-DC1	A-DC2	A-DC3	A-DC4	A-DC5	A-DC6	A-DC7	A-DC8	A-DC9	A-DC10	A-DC11	A-DC12	A-DC13	A-DC14	A-DC15	A-DC16	A-Ph1	A-Ph2	A-Ph3	A-Ph4	A-Ph5	A-Ph6	A-Ph7	A-Ph8	A-Ph9	A-Ph10	A-Ph11	A-Ph12	A-Ph13	A-Ph14	A-Ph15	A-Ph16	

Term	0.00000e+00	0.00000e+00	0.00000e+00	0.00000e+00	0.00000e+00	0.00000e+00	0.00000e+00	0.00000e+00	0.00000e+00	0.00000e+00	0.00000e+00	0.00000e+00	0.00000e+00	0.00000e+00	0.00000e+00	0.00000e+00	0.00000e+00	0.00000e+00	0.00000e+00	0.00000e+00	0.00000e+00	0.00000e+00	0.00000e+00	0.00000e+00	0.00000e+00	0.00000e+00	0.00000e+00	0.00000e+00	0.00000e+00	0.00000e+00	0.00000e+00	0.00000e+00	0.00000e+00	0.00000e+00	0.00000e+00	0.00000e+00	0.00000e+00	0.00000e+00	0.00000e+00	0.00000e+00	0.00000e+00	0.00000e+00	0.00000e+00	0.00000e+00	0.00000e+00	0.00000e+00	0.00000e+00	0.00000e+00	
Factor	1.00000e+00	1.00000e+00	1.00000e+00	1.00000e+00	1.00000e+00	1.00000e+00	1.00000e+00	1.00000e+00	1.00000e+00	1.00000e+00	1.00000e+00	1.00000e+00	1.00000e+00	1.00000e+00	1.00000e+00	1.00000e+00	1.00000e+00	1.00000e+00	1.00000e+00	1.00000e+00	1.00000e+00	1.00000e+00	1.00000e+00	1.00000e+00	1.00000e+00	1.00000e+00	1.00000e+00	1.00000e+00	1.00000e+00	1.00000e+00	1.00000e+00	1.00000e+00	X	X	X	X	X	X	X	X	X	X	X	X	X	X	X	X	

B = Detector Channel
Val Type	B-AC1	B-AC2	B-AC3	B-AC4	B-AC5	B-AC6	B-AC7	B-AC8	B-AC9	B-AC10	B-AC11	B-AC12	B-AC13	B-AC14	B-AC15	B-AC16	B-DC1	B-DC2	B-DC3	B-DC4	B-DC5	B-DC6	B-DC7	B-DC8	B-DC9	B-DC10	B-DC11	B-DC12	B-DC13	B-DC14	B-DC15	B-DC16	B-Ph1	B-Ph2	B-Ph3	B-Ph4	B-Ph5	B-Ph6	B-Ph7	B-Ph8	B-Ph9	B-Ph10	B-Ph11	B-Ph12	B-Ph13	B-Ph14	B-Ph15	B-Ph16	

Term	0.00000e+00	0.00000e+00	0.00000e+00	0.00000e+00	0.00000e+00	0.00000e+00	0.00000e+00	0.00000e+00	0.00000e+00	0.00000e+00	0.00000e+00	0.00000e+00	0.00000e+00	0.00000e+00	0.00000e+00	0.00000e+00	0.00000e+00	0.00000e+00	0.00000e+00	0.00000e+00	0.00000e+00	0.00000e+00	0.00000e+00	0.00000e+00	0.00000e+00	0.00000e+00	0.00000e+00	0.00000e+00	0.00000e+00	0.00000e+00	0.00000e+00	0.00000e+00	-1.56894e+02	-1.27752e+02	-1.28220e+02	-1.82394e+02	-8.05549e+01	-6.51345e+01	-1.55939e+02	-1.62015e+02	-8.46711e+01	-6.06474e+01	-1.70818e+02	-1.71805e+02	-1.80520e+02	-1.77372e+02	-7.45731e+01	-1.49506e+02	
Factor	2.48450e-05	1.80034e-04	5.53765e-05	1.74917e-01	1.47804e-06	1.91503e-06	1.73878e-01	5.40847e-02	1.39976e-06	1.81173e-06	9.61147e-02	3.08946e-02	3.55403e-02	9.85352e-03	1.70142e-06	1.43833e-02	1.14720e-05	1.78812e-05	4.98075e-06	8.74279e-02	1.80401e-07	1.98474e-07	8.17633e-02	2.71597e-02	1.79927e-07	1.99377e-07	4.67774e-02	1.50850e-02	1.80288e-02	4.99142e-03	1.87127e-07	7.05837e-03	X	X	X	X	X	X	X	X	X	X	X	X	X	X	X	X	



#DISTANCE SETTINGS
A = Detector Channel
A-1	A-2	A-3	A-4	A-5	A-6	A-7	A-8	A-9	A-10	A-11	A-12	A-13	A-14	A-15	A-16	

2.5000e+00	3.0000e+00	2.5000e+00	3.0000e+00	2.0000e+00	3.0000e+00	1.5000e+00	3.0000e+00	3.0000e+00	3.0000e+00	3.0000e+00	3.0000e+00	3.0000e+00	3.0000e+00	1.5000e+00	3.0000e+00	

B = Detector Channel
B-1	B-2	B-3	B-4	B-5	B-6	B-7	B-8	B-9	B-10	B-11	B-12	B-13	B-14	B-15	B-16	

1.0000e+01	1.0000e+01	1.0000e+01	1.4400e+00	1.0000e+01	1.0000e+01	1.5100e+00	1.9400e+00	1.0000e+01	1.0000e+01	1.9900e+00	2.4900e+00	2.4100e+00	2.9000e+00	1.0000e+01	2.9800e+00	




#DATA BEGINS
time	group	step	mark	flag	A-AC1	A-AC2	A-AC3	A-AC4	A-AC5	A-AC6	A-AC7	A-AC8	A-AC9	A-AC10	A-AC11	A-AC12	A-AC13	A-AC14	A-AC15	A-AC16	A-DC1	A-DC2	A-DC3	A-DC4	A-DC5	A-DC6	A-DC7	A-DC8	A-DC9	A-DC10	A-DC11	A-DC12	A-DC13	A-DC14	A-DC15	A-DC16	A-Ph1	A-Ph2	A-Ph3	A-Ph4	A-Ph5	A-Ph6	A-Ph7	A-Ph8	A-Ph9	A-Ph10	A-Ph11	A-Ph12	A-Ph13	A-Ph14	A-Ph15	A-Ph16	B-AC1	B-AC2	B-AC3	B-AC4	B-AC5	B-AC6	B-AC7	B-AC8	B-AC9	B-AC10	B-AC11	B-AC12	B-AC13	B-AC14	B-AC15	B-AC16	B-DC1	B-DC2	B-DC3	B-DC4	B-DC5	B-DC6	B-DC7	B-DC8	B-DC9	B-DC10	B-DC11	B-DC12	B-DC13	B-DC14	B-DC15	B-DC16	B-Ph1	B-Ph2	B-Ph3	B-Ph4	B-Ph5	B-Ph6	B-Ph7	B-Ph8	B-Ph9	B-Ph10	B-Ph11	B-Ph12	B-Ph13	B-Ph14	B-Ph15	B-Ph16	aux-1	digaux	

1023.234	1	1	0	256	0.16493	0.3815	0.22042	0.05982	0.094528	0.24005	0.1879	0.11789	0.10896	0.10051	0.091853	0.10341	0.022728	0.16853	0.01929	0.15335	-3.075	-3.2833	-3.6875	-3.5667	-3.5479	-3.85	-3.5125	-3.8937	-3.5833	-3.2646	-3.8083	-3.4271	-3.5312	-3.8812	-3.2479	-3.875	218.683	143.744	13.479	59.589	158.176	21.284	225.403	-15.789	306.316	231.492	300.829	271.376	24.331	239.054	268.847	-8.108	0.00014531	0.00022506	0.00011915	1208.1	2.9299e-06	3.0946e-06	1269.5	250.9	3.3029e-06	3.435e-06	311.06	85.219	67.142	19.614	1.7497e-06	27.497	0.00033546	0.00039752	0.00010677	1189.1	4.2943e-06	3.9906e-06	1251.7	249.14	4.1661e-06	4.3327e-06	309.15	86.03	67.663	19.774	4.3936e-06	27.88	108.289	42.813	27.545	-22.633	111.913	112.368	-22.694	-15.575	144.285	109.312	-15.817	-9.483	-9.120	-2.006	104.175	-2.259	-8191	255	
1023.355	1	1	0	0	0.07464	0.3085	0.12847	0.19248	0.072073	0.14183	0.3004	0.081188	0.21768	0.02171	0.20229	0.19662	0.1364	0.24906	0.17994	0.13796	-3.2479	-3.3063	-3.8583	-3.7021	-3.4875	-3.7979	-3.5271	-3.6542	-3.7375	-3.3688	-3.6667	-3.5958	-3.4813	-3.9333	-3.2875	-3.4958	40.314	150.808	126.039	297.693	222.217	98.632	302.841	-30.189	163.993	110.933	118.697	290.880	-22.753	111.616	310.778	17.671	0.00014861	0.0003958	0.00011269	1201.5	2.3004e-06	5.8251e-06	1264.7	250.1	1.6585e-06	3.1136e-06	311.43	85.645	66.57	19.561	2.9993e-06	27.563	0.00033451	0.00040587	0.00010793	1177.6	4.566e-06	4.323e-06	1243.8	248.24	4.2826e-06	4.4552e-06	308.93	86.109	67.492	19.734	4.3176e-06	27.905	107.980	43.130	36.728	-22.699	119.699	110.642	-22.758	-15.550	90.947	112.742	-15.998	-9.632	-8.764	-2.099	137.175	-2.556	-8191	255	
1023.451	1	1	0	0	0.19606	0.082565	0.14129	0.13944	0.14553	0.07922	0.26294	0.17493	0.1205	0.12181	0.16547	0.1108	0.20556	0.033779	0.055963	0.10119	-3.1937	-3.0062	-3.7	-3.7896	-3.5292	-3.8458	-3.6042	-3.4792	-3.7417	-3.3021	-3.8729	-3.5396	-3.3875	-3.8708	-3.2625	-3.575	180.674	46.256	39.885	62.947	129.225	249.322	297.628	247.131	322.251	180.859	278.543	270.661	322.511	277.923	-20.974	305.918	0.00014121	0.00024988	2.821e-05	1198.4	3.124e-06	3.8101e-06	1268.1	250.61	1.2971e-06	4.565e-06	311.13	85.765	67.397	19.6	4.0642e-06	27.683	0.00032143	0.00039648	0.00011211	1180	4.374e-06	4.3553e-06	1248.9	248.55	4.319e-06	4.3842e-06	308.84	86.157	67.626	19.784	4.376e-06	28.01	111.277	30.762	67.389	-22.756	132.884	102.616	-22.783	-15.480	158.443	118.922	-15.714	-9.576	-9.195	-2.207	158.831	-2.243	-8191	255	
1023.547	1	1	0	0	0.22642	0.1231	0.18053	0.26574	0.1122	0.26212	0.085843	0.38615	0.13765	0.13886	0.30092	0.097875	0.14351	0.077338	0.13283	0.2001	-3.4292	-3.2917	-3.7938	-3.6229	-3.2583	-3.7979	-3.4792	-3.5021	-3.8	-3.3688	-3.7458	-3.7146	-3.2646	-3.7958	-3.5458	-3.4021	294.454	314.113	233.192	215.958	283.362	-25.152	197.255	290.450	295.716	50.305	227.763	-10.794	279.412	87.361	149.024	212.601	0.00017137	0.00025169	5.0422e-05	1199.6	2.0859e-06	3.9137e-06	1264.3	250.55	1.9359e-06	3.0014e-06	309.68	85.269	67.52	19.643	2.82e-06	27.663	0.00034019	0.00041268	0.0001103	1181.6	4.6025e-06	4.3602e-06	1249.1	248.96	4.3696e-06	4.6318e-06	310.15	86.207	67.777	19.866	4.3324e-06	28.047	107.273	72.436	6.612	-22.962	129.126	109.529	-22.624	-15.595	158.423	101.094	-15.799	-9.576	-9.307	-2.491	150.250	-2.297	-8191	255	
1023.643	1	1	0	0	0.36786	0.071575	0.086215	0.19873	0.086831	0.21215	0.21891	0.25638	0.30918	0.091534	0.17833	0.26542	0.045872	0.069245	0.13663	0.16237	-3.4437	-3.3896	-3.6229	-3.7938	-3.2313	-3.6146	-3.4917	-3.4729	-3.8167	-3.3375	-3.75	-3.7958	-3.3146	-3.8229	-3.5167	-3.4583	74.152	116.615	21.116	298.017	176.972	255.421	228.048	302.825	322.810	307.300	120.299	268.484	227.739	302.117	175.764	-10.858	0.00018062	0.00031799	9.3318e-05	1208.3	2.8808e-06	1.9372e-06	1273.2	251.42	3.0051e-06	2.8571e-06	311.16	86.008	67.573	19.793	1.6362e-06	27.806	0.00034603	0.00040832	0.00011887	1187.1	4.5435e-06	4.4868e-06	1255.9	249.81	4.3692e-06	4.6937e-06	310.16	86.541	68.113	19.941	4.6809e-06	28.195	113.717	5.588	60.611	-22.762	142.343	127.980	-22.582	-15.580	140.375	161.482	-15.779	-9.413	-9.356	-2.103	76.345	-2.446	-8191	255	
1023.715	1	1	0	0	0.064545	0.17042	0.15409	0.15378	0.19609	0.092708	0.14124	0.23614	0.13727	0.045718	0.2087	0.15859	0.1073	0.04722	0.087671	0.18584	-3.4042	-3.3667	-3.6521	-3.6792	-3.4188	-3.7833	-3.7896	-3.4583	-3.7833	-3.5083	-3.5146	-3.7562	-3.1813	-3.7375	-3.55	-3.3438	93.422	149.705	210.815	323.630	285.655	-4.803	118.054	226.280	160.856	127.125	272.780	201.794	116.805	308.057	-30.772	-11.196	0.00014187	0.00030933	9.2644e-05	1210	3.1861e-06	4.0129e-06	1279.7	252.03	2.6181e-06	3.7998e-06	313.78	85.838	68.122	19.775	3.7273e-06	27.879	0.00034741	0.00044714	0.00011788	1192.7	4.7551e-06	4.555e-06	1262.5	250.77	4.6076e-06	4.8885e-06	311.66	86.78	68.353	19.954	4.5862e-06	28.206	85.139	70.511	79.561	-22.858	133.909	116.237	-22.812	-15.687	133.115	129.718	-15.931	-9.148	-9.112	-2.258	134.331	-2.548	-8191	255	
1023.834	1	1	0	0	0.17098	0.21713	0.17809	0.42926	0.2098	0.21159	0.15228	0.062389	0.079024	0.29972	0.20382	0.12125	0.014212	0.18747	0.23721	0.06122	-3.475	-3.4479	-3.3937	-3.8771	-3.0583	-3.6688	-3.6771	-3.4625	-3.8333	-3.5771	-3.3042	-3.7375	-3.4208	-3.6458	-3.6833	-3.3083	300.989	289.979	-23.247	280.250	88.302	31.072	309.010	282.840	180.844	127.394	-25.468	323.153	173.306	239.427	8.270	304.466	0.00017009	0.00028801	0.00010074	1217.2	1.5337e-06	2.7325e-06	1279.4	253.17	1.8338e-06	4.0819e-06	313.11	86.286	67.753	19.808	2.4667e-06	27.745	0.00035575	0.00044684	0.00012184	1195.1	4.8445e-06	4.6348e-06	1262.4	251.31	4.8802e-06	4.8777e-06	311.79	86.893	68.344	19.976	4.5296e-06	28.207	118.427	92.693	33.255	-22.745	152.494	114.548	-22.720	-15.604	108.330	131.227	-16.041	-9.242	-9.512	-2.475	104.959	-2.468	-8191	255	
1023.930	1	1	0	0	0.11435	0.02796	0.09988	0.11083	0.10564	0.030508	0.062582	0.052305	0.31306	0.11256	0.18955	0.12595	0.19183	0.10793	0.1791	0.19162	-3.4562	-3.6083	-3.2292	-4	-3.2687	-3.6396	-3.8604	-3.3229	-3.7167	-3.4083	-3.3583	-3.9146	-3.4271	-3.5042	-3.7812	-3.4104	205.917	238.842	45.145	258.743	303.835	281.165	281.928	231.898	157.360	275.027	13.840	270.417	302.458	306.905	118.082	-28.346	0.0001293	0.00037487	8.2123e-05	1219.2	1.6451e-06	2.5554e-06	1285.6	253.67	1.4072e-07	1.5451e-06	313.62	86.489	68.109	19.887	1.8512e-06	27.957	0.00036591	0.00043578	0.00011927	1197.9	4.7314e-06	4.7853e-06	1266.5	251.88	4.7553e-06	4.6912e-06	312.69	87.129	68.735	20.051	4.5176e-06	28.243	100.436	45.759	47.244	-22.842	180.981	99.189	-23.019	-15.658	18.275	144.773	-15.533	-9.462	-9.299	-2.298	98.845	-2.197	-8191	255	
1024.026	1	1	0	0	0.2102	0.2038	0.18596	0.1053	0.14397	0.15398	0.083629	0.14742	0.038498	0.019256	0.24985	0.035395	0.041818	0.22458	0.227	0.29775	-3.2938	-3.4917	-3.2792	-4.0292	-3.3396	-3.6625	-3.7625	-3.4271	-3.6229	-3.6188	-3.4208	-3.7896	-3.4146	-3.5208	-3.6771	-3.2104	262.578	188.424	7.697	264.671	47.093	73.104	217.183	287.489	92.938	101.404	267.447	-27.970	-20.422	14.996	80.548	284.122	0.00013475	0.00043104	0.0001136	1215.8	3.2751e-06	3.6713e-06	1288.3	254.58	1.9192e-06	2.1334e-06	314.64	86.605	67.947	19.787	2.786e-06	27.888	0.0003488	0.00044483	0.00012311	1196.5	4.8727e-06	4.6571e-06	1267	252.03	4.6121e-06	4.6247e-06	312.4	87.141	68.445	20.083	4.3445e-06	28.328	95.294	57.046	69.863	-22.708	140.705	98.604	-22.658	-15.880	132.392	79.340	-15.748	-9.495	-9.405	-2.686	133.461	-2.545	-8191	255	
1024.122	1	1	0	0	0.27237	0.12799	0.18264	0.1798	0.13235	0.1012	0.2941	0.22273	0.16428	0.24538	0.13136	0.17838	0.14554	0.27604	0.23064	0.17144	-3.3271	-3.5	-3.3667	-3.8208	-3.6292	-3.35	-4.0125	-3.0896	-3.5687	-3.5458	-3.3104	-3.8542	-3.4979	-3.3417	-3.8417	-3.4125	61.616	227.155	234.505	-30.664	186.894	300.193	287.896	312.103	298.877	224.704	188.680	39.938	-15.845	-28.171	46.224	159.741	0.0001354	0.00036702	6.8833e-05	1207.9	8.3159e-07	3.5478e-06	1275.9	253.18	1.5224e-06	4.2135e-06	313.08	86.632	67.856	19.929	1.3479e-06	27.778	0.00034643	0.00040806	0.00011425	1194.9	4.5871e-06	4.8006e-06	1263.4	251.66	4.5255e-06	4.5612e-06	312.63	87.282	68.724	20.063	4.4813e-06	28.236	93.355	66.846	44.448	-22.772	190.990	141.881	-22.502	-15.794	132.298	134.414	-15.943	-9.491	-9.082	-2.560	119.993	-2.714	-8191	255	
1024.243	1	1	0	0	0.076389	0.17213	0.093078	0.094533	0.036692	0.13986	0.11108	0.092552	0.15892	0.21123	0.11455	0.065882	0.17189	0.16643	0.098067	0.16437	-3.2854	-3.8458	-3.2938	-3.8104	-3.5167	-3.4083	-4.0312	-3.4958	-3.5833	-3.9958	-3.4333	-3.8	-3.675	-3.4708	-3.6833	-3.5125	152.876	200.564	-2.891	1.801	10.286	-29.469	250.618	144.137	89.350	200.864	-20.298	289.297	-14.904	231.449	178.042	300.303	0.00014848	0.00047683	0.00010071	1212.4	6.1211e-07	2.3018e-06	1285.6	255.05	2.1443e-06	1.7523e-06	314.58	86.707	68.123	19.908	2.9426e-06	28.011	0.00035417	0.00041153	0.00011893	1194.6	4.5608e-06	4.6476e-06	1265.3	252.22	4.6226e-06	4.6031e-06	313.09	87.276	68.6	20.133	4.4634e-06	28.323	100.731	53.705	96.047	-22.611	135.332	88.841	-22.830	-15.701	145.913	121.458	-15.807	-9.417	-8.796	-2.299	107.641	-2.581	-8191	255	
1024.315	1	1	0	0	0.097117	0.34561	0.16184	0.19688	0.13694	0.14857	0.20453	0.17889	0.085198	0.13552	0.29713	0.27039	0.13534	0.12297	0.12432	0.19008	-3.2313	-3.7458	-3.1792	-3.8208	-3.5708	-3.3104	-3.9708	-3.3937	-3.4354	-3.9437	-3.3375	-3.7271	-3.6896	-3.1771	-3.6792	-3.4104	89.335	58.225	224.228	204.310	230.305	290.037	244.508	296.034	260.485	57.484	-13.893	247.722	43.751	53.535	17.355	181.764	0.00013285	0.0003858	7.8045e-05	1220.7	3.6082e-06	2.2848e-06	1288.5	254.16	1.5553e-06	4.1207e-06	314.88	86.982	68.562	19.955	2.7492e-06	27.955	0.00035594	0.00042628	0.00011965	1199.6	4.6765e-06	4.8312e-06	1268.3	252.52	4.5383e-06	4.8025e-06	313.54	87.626	68.83	20.112	4.5893e-06	28.386	107.896	59.546	43.723	-22.757	103.693	121.540	-22.679	-15.563	189.829	167.855	-16.032	-9.636	-9.445	-2.373	138.340	-2.530	-8191	255	
1024.435	1	1	0	0	0.27887	0.23109	0.18127	0.13538	0.070031	0.3967	0.28722	0.27991	0.021224	0.10544	0.053066	0.25013	0.044217	0.027875	0.06499	0.15542	-3.1271	-3.7438	-3.1667	-3.9292	-3.5854	-3.3542	-3.9062	-3.4375	-3.2771	-3.7604	-3.4625	-3.7667	-3.7458	-3.1146	-3.55	-3.5917	216.646	129.500	202.049	299.971	51.778	43.917	225.729	242.469	290.626	-30.222	167.041	259.424	172.880	311.177	308.664	-8.408	0.00011703	0.00035432	0.00012175	1220.4	3.225e-06	3.5476e-06	1289.4	253.94	2.1468e-06	2.8709e-06	314.61	86.863	68.396	20.009	2.5164e-06	27.968	0.0003526	0.00042214	0.00011908	1201	4.7149e-06	4.567e-06	1270.3	252.74	4.3539e-06	4.5167e-06	313.21	87.341	68.647	20.132	4.3507e-06	28.292	104.168	68.417	79.713	-22.808	137.024	108.622	-22.823	-15.819	119.213	122.590	-16.206	-9.788	-9.423	-2.141	103.384	-2.445	-8191	255	
1024.531	1	1	0	0	0.087749	0.05315	0.17168	0.028003	0.11394	0.26331	0.19143	0.17114	0.30297	0.18622	0.10455	0.191	0.065999	0.063946	0.18398	0.11636	-2.9667	-3.8187	-3.3104	-3.7729	-3.875	-3.2062	-3.8167	-3.725	-3.2646	-3.8083	-3.5396	-3.5417	-3.7562	-3.3646	-3.5625	-3.5875	-2.657	207.763	282.272	286.772	249.066	282.762	317.349	237.488	21.367	236.869	-15.094	262.826	315.759	96.459	-26.706	190.723	0.00016116	0.00027009	9.3862e-05	1219.8	2.9559e-06	4.0144e-06	1281.7	254.08	2.0387e-06	4.8312e-06	315.11	86.846	68.12	19.846	2.0992e-06	27.94	0.00033675	0.00039584	0.00011685	1199.4	4.3736e-06	4.5579e-06	1265.5	252.5	4.4521e-06	4.4814e-06	313.12	87.448	68.637	20.109	4.3098e-06	28.294	111.790	90.440	52.180	-22.591	130.741	102.731	-22.658	-15.654	125.867	119.349	-16.129	-9.279	-9.287	-2.351	122.403	-2.512	-8191	255	
1024.628	1	1	0	0	0.15465	0.10378	0.13394	0.19063	0.15658	0.074011	0.084355	0.20054	0.27533	0.1932	0.27286	0.18977	0.11496	0.035115	0.30448	0.10696	-2.9625	-3.7479	-3.4479	-3.7792	-3.7313	-3.2313	-3.9083	-3.725	-3.2396	-3.7479	-3.5646	-3.6292	-3.7271	-3.3896	-3.5833	-3.625	-5.429	317.700	13.090	297.101	185.794	216.503	-16.200	262.406	171.452	82.137	35.169	298.587	273.792	119.576	303.858	237.976	0.00016827	0.00017394	8.7552e-05	1218.9	1.6375e-06	3.9253e-06	1286.7	253.94	1.6311e-06	5.4781e-06	315.35	86.584	68.168	19.842	3.527e-06	27.813	0.00036316	0.00041957	0.00011274	1198.9	4.6592e-06	4.5285e-06	1268.3	252.57	4.5878e-06	4.6854e-06	313.99	87.527	68.563	20.105	4.5499e-06	28.299	99.047	83.423	86.041	-22.532	173.418	93.594	-22.733	-15.749	96.782	100.809	-15.917	-9.422	-9.310	-2.524	134.469	-2.424	-8191	255	
1024.724	1	1	0	0	0.19008	0.26508	0.13267	0.066724	0.16853	0.074314	0.37913	0.19979	0.032933	0.028071	0.19746	0.22021	0.096518	0.12355	0.075957	0.11998	-2.8375	-3.7646	-3.475	-3.3917	-3.7521	-3.4625	-3.8042	-3.5875	-3.3063	-3.7125	-3.5104	-3.2979	-3.8917	-3.3104	-3.6146	-3.8479	57.922	-7.863	283.011	299.413	33.978	10.153	273.835	256.587	209.526	139.017	195.742	145.822	-6.215	45.503	319.067	14.727	0.00015962	0.00025764	0.0001081	1224.7	3.5986e-06	3.8297e-06	1288.1	254.38	1.4959e-06	3.4938e-06	314.75	86.146	68.131	19.774	2.5713e-06	27.947	0.00036954	0.00042185	0.00012422	1200.8	4.9024e-06	4.9366e-06	1268.5	252.48	4.8689e-06	4.9321e-06	313.47	87.121	68.74	20.047	4.5472e-06	28.247	96.661	106.283	44.781	-22.706	149.749	100.083	-22.792	-15.787	164.170	124.480	-16.133	-9.552	-9.144	-2.310	107.127	-2.373	-8191	255	
1024.843	1	1	0	0	0.020779	0.063053	0.079387	0.12783	0.20055	0.13134	0.13815	0.094529	0.10718	0.11376	0.20277	0.25084	0.11643	0.080557	0.069341	0.1117	-2.9146	-3.7021	-3.3688	-3.5667	-3.7771	-3.4667	-3.6271	-3.7146	-3.2875	-3.7812	-3.7417	-3.3208	-3.9688	-3.4604	-3.4854	-3.8708	236.250	296.407	69.963	270.013	325.885	141.154	301.909	225.605	193.406	65.660	273.100	-29.356	301.576	69.648	165.854	-15.446	0.00014324	0.0005903	7.5939e-05	1220.1	1.7887e-06	2.0479e-06	1285.8	254.13	2.2936e-06	5.2297e-06	315.1	86.495	68.055	19.71	2.3786e-06	27.871	0.00035616	0.00043842	0.00012286	1201.1	4.7058e-06	4.7667e-06	1269.5	252.57	4.7977e-06	4.6073e-06	313.87	87.193	68.57	20.003	4.599e-06	28.295	104.532	50.955	37.895	-22.567	124.956	123.306	-22.729	-15.622	166.058	129.824	-15.946	-9.269	-9.069	-2.435	143.677	-2.517	-8191	255	
1024.914	1	1	0	0	0.14466	0.031911	0.19097	0.26497	0.12336	0.20833	0.24507	0.077493	0.27258	0.18089	0.069138	0.056456	0.10664	0.148	0.22153	0.12065	-2.8792	-3.7188	-3.7375	-3.4271	-3.7583	-3.4396	-3.6354	-3.95	-3.3063	-3.6958	-3.8458	-3.2062	-3.7667	-3.4896	-3.3458	-3.8542	39.753	56.978	198.140	-23.750	14.520	42.689	289.907	234.904	284.407	109.845	220.664	311.777	215.039	256.611	-7.174	214.489	0.00015223	0.00015819	0.00011896	1216.5	1.1798e-06	3.3069e-06	1284.2	253.45	2.2933e-06	1.8319e-06	314.45	86.294	67.904	19.639	2.7568e-06	27.74	0.00036232	0.00043395	0.00011755	1197.7	4.8039e-06	4.6807e-06	1267.2	252.27	4.7077e-06	4.6746e-06	313.09	87.076	68.499	19.986	4.7682e-06	28.21	104.361	104.834	42.894	-22.742	139.319	128.721	-22.803	-15.618	173.987	125.374	-15.984	-9.571	-9.267	-2.685	116.304	-2.348	-8191	255	
1025.010	1	1	0	0	0.1055	0.038672	0.13224	0.25777	0.17455	0.27084	0.23702	0.18203	0.045815	0.12737	0.12468	0.085754	0.097618	0.13753	0.18225	0.14623	-3.0271	-3.6479	-3.6312	-3.4437	-3.7896	-3.5938	-3.6396	-3.9021	-3.4583	-3.4938	-3.6458	-3.2667	-3.5917	-3.5812	-3.2729	-3.8292	114.676	75.655	42.688	269.759	296.942	158.509	212.932	237.499	253.380	20.333	285.586	297.641	140.597	15.809	99.889	-24.798	0.00013019	0.00026699	7e-05	1213.4	2.8512e-06	2.7123e-06	1281.8	253.71	2.1139e-06	4.1136e-06	314.04	86.255	68.181	19.798	3.705e-06	27.878	0.00037229	0.00043507	0.00012101	1197.1	4.772e-06	4.7435e-06	1265.2	251.85	4.758e-06	4.7759e-06	312.95	87.059	68.631	20.062	4.6466e-06	28.289	105.232	59.446	30.547	-22.713	126.265	119.670	-22.701	-15.692	174.150	119.417	-16.001	-9.293	-9.511	-2.453	117.313	-2.544	-8191	255	
1025.131	1	1	0	0	0.041821	0.099222	0.1552	0.33834	0.038802	0.089288	0.15099	0.23545	0.077384	0.11778	0.23168	0.2658	0.092271	0.22657	0.14723	0.1484	-2.925	-3.55	-3.8063	-3.4833	-3.6604	-3.6625	-3.4729	-3.8812	-3.6188	-3.6292	-3.8563	-3.4104	-3.7667	-3.6771	-3.3688	-3.875	268.024	66.876	158.778	305.608	-7.556	53.624	272.455	221.933	21.757	99.702	-30.491	260.203	151.595	86.357	40.925	218.200	0.00012876	0.00031656	0.00015578	1218.7	3.0945e-06	2.6451e-06	1287.3	254.65	3.3395e-07	2.1946e-06	315.88	86.38	68.271	19.668	3.3343e-06	27.76	0.0003688	0.00043727	0.00012148	1199.6	4.9903e-06	4.7898e-06	1268	252.43	4.5593e-06	4.4856e-06	313.24	87.122	68.546	20.018	4.5191e-06	28.174	110.305	34.862	50.820	-22.668	111.377	117.803	-22.502	-15.669	73.875	152.578	-15.777	-9.578	-8.926	-2.262	137.394	-2.038	-8191	255	
1025.227	1	1	0	0	0.14977	0.31853	0.16718	0.035439	0.25687	0.049462	0.15613	0.10184	0.30022	0.062521	0.043812	0.17384	0.074423	0.17854	0.28821	0.18746	-3.0667	-3.525	-3.6063	-3.5167	-3.6271	-3.6354	-3.5792	-4.0104	-3.5229	-3.5917	-3.9583	-3.3083	-3.7396	-3.7958	-3.3604	-4.0312	306.130	69.952	283.212	62.058	215.491	174.969	280.148	-5.816	56.286	33.610	205.270	39.069	171.537	202.651	40.572	285.196	0.00017181	0.00029602	9.5312e-05	1216.9	2.2649e-06	1.3858e-06	1283.7	253.98	7.7191e-07	1.8901e-06	313.96	86.452	68.274	19.887	2.8865e-06	27.789	0.00034978	0.00042263	0.00011425	1197	4.4619e-06	4.5231e-06	1264.5	251.8	4.5226e-06	4.5408e-06	312.83	87.219	68.677	20.084	4.3098e-06	28.232	110.898	86.571	68.032	-22.817	119.909	80.619	-22.583	-15.725	79.951	129.998	-15.925	-9.498	-9.773	-2.229	98.362	-2.397	-8191	255	
1025.323	1	1	0	0	0.13952	0.11708	0.11572	0.21956	0.12749	0.091626	0.13735	0.30477	0.4808	0.11516	0.099227	0.10505	0.075308	0.08777	0.070333	0.16079	-3.1625	-3.4146	-3.8875	-3.6083	-3.7104	-3.825	-3.4708	-3.9562	-3.5687	-3.4313	-3.9417	-3.4854	-3.5146	-3.8583	-3.1896	-3.775	37.506	263.077	124.940	15.825	-27.686	220.254	247.470	277.339	203.145	35.521	278.074	16.640	296.358	219.382	222.874	72.664	0.00012757	0.00016982	0.00011039	1213.4	2.6316e-06	2.2218e-06	1282.3	252.4	1.1979e-06	2.7875e-06	314.25	85.823	68.045	19.743	3.1086e-06	27.861	0.00033945	0.00040676	0.00011434	1191.5	4.5641e-06	4.4177e-06	1260.2	251.48	4.4348e-06	4.4955e-06	312.41	87.007	68.353	20.05	4.4439e-06	28.258	103.806	65.902	54.406	-22.774	104.087	109.950	-22.802	-15.669	124.506	148.421	-15.713	-9.348	-9.121	-2.214	128.575	-2.134	-8191	255	
1025.420	1	1	0	0	0.22389	0.17685	0.077836	0.15202	0.21043	0.20282	0.38067	0.14022	0.15027	0.19405	0.072053	0.083675	0.1937	0.27662	0.21228	0.25526	-2.975	-3.2438	-3.7146	-3.5167	-3.5104	-3.725	-3.4521	-3.7	-3.6521	-3.4604	-4.0042	-3.5625	-3.5708	-3.8	-3.3375	-3.6896	199.187	1.686	237.379	323.033	311.049	152.900	253.458	280.637	255.987	189.480	61.384	-24.425	206.606	251.329	64.169	-16.496	0.00014327	0.00036183	0.00013565	1205.8	2.9328e-06	4.0681e-06	1277.8	252.83	1.0951e-06	1.7363e-06	314.44	86.284	68.093	19.916	3.5156e-06	27.954	0.00033525	0.00039637	0.00011019	1189.9	4.4213e-06	4.242e-06	1259.4	251.39	4.3209e-06	4.4046e-06	312.58	87.134	68.473	20.065	4.4053e-06	28.293	97.893	54.518	31.389	-22.942	99.137	95.269	-22.679	-15.748	150.532	149.871	-15.720	-9.308	-9.018	-2.093	135.644	-2.411	-8191	255	
1025.540	1	1	0	0	0.14861	0.12666	0.098513	0.043344	0.045271	0.078394	0.32858	0.18563	0.097269	0.2333	0.075903	0.28122	0.073815	0.19373	0.048919	0.097737	-3.3292	-3.0625	-3.7646	-3.5563	-3.3312	-3.8125	-3.4542	-3.6229	-3.6271	-3.275	-3.8271	-3.5229	-3.375	-3.7333	-3.1729	-3.7375	140.574	323.320	41.054	23.634	84.722	45.379	275.306	-22.261	86.251	223.151	284.721	237.789	20.429	133.148	99.837	-2.008	0.00016702	0.00033712	0.00016315	1211.4	2.1518e-06	1.8432e-06	1271.3	254.02	8.5638e-07	2.4676e-06	313.21	85.854	68.386	19.846	1.0198e-06	28.087	0.00035002	0.00040966	0.0001108	1192.4	4.4078e-06	4.3598e-06	1258.4	252.01	4.2036e-06	4.4266e-06	312.68	87.13	68.519	20.064	4.4653e-06	28.324	103.082	32.209	45.304	-22.633	132.609	128.585	-22.660	-15.615	116.391	170.134	-15.642	-9.618	-9.097	-2.634	111.450	-2.641	-8191	255	
1025.612	1	1	0	0	0.12183	0.11833	0.15614	0.29015	0.10069	0.01057	0.052708	0.27072	0.086238	0.094448	0.10437	0.14142	0.09222	0.22783	0.10405	0.12936	-3.3792	-3.1833	-3.5583	-3.6833	-3.4313	-3.7812	-3.5875	-3.5812	-3.7708	-3.25	-3.7938	-3.6688	-3.3479	-3.8375	-3.3021	-3.4979	105.558	127.880	5.838	262.818	270.053	76.988	158.185	264.397	-25.880	130.170	182.365	285.901	31.254	313.604	24.660	221.503	0.00013965	0.00032396	5.9263e-05	1208.3	2.283e-06	1.5105e-06	1274.3	253.14	1.2268e-06	1.8733e-06	313.98	86.334	68.096	19.878	3.3313e-06	27.749	0.00033472	0.00041257	0.00011168	1188.3	4.4469e-06	4.402e-06	1258.1	251.06	4.3524e-06	4.6899e-06	312.58	87.315	68.458	20.061	4.4326e-06	28.171	116.337	54.354	123.903	-22.863	164.993	143.688	-22.581	-15.496	79.864	149.386	-15.864	-9.706	-9.301	-2.111	124.641	-2.142	-8191	255	
1025.708	1	1	0	0	0.019039	0.28228	0.25436	0.32066	0.12296	0.16118	0.25195	0.17193	0.14416	0.24678	0.36702	0.077333	0.07773	0.17925	0.11349	0.15288	-3.2458	-3.1562	-3.55	-3.5792	-3.2292	-3.7604	-3.7062	-3.475	-3.8417	-3.325	-3.6729	-3.6229	-3.2917	-3.8979	-3.5167	-3.55	248.391	219.785	153.597	239.721	224.561	69.981	-27.929	234.813	300.993	244.746	304.402	94.956	-2.447	64.025	66.720	-25.493	0.00013681	0.00045377	7.8103e-05	1205.3	2.4679e-06	3.8335e-06	1275.8	253.45	3.7189e-06	4.7563e-06	314.2	86.933	68.208	19.752	2.0846e-06	27.794	0.00034046	0.00041704	0.00011068	1189.1	4.548e-06	4.4868e-06	1256.9	251.43	4.3078e-06	4.3344e-06	312.34	87.155	68.536	20.014	4.3351e-06	28.189	98.902	57.828	46.672	-22.559	95.302	95.533	-22.489	-15.780	135.743	127.438	-15.924	-9.475	-9.290	-2.284	123.067	-2.490	-8191	255	
1025.804	1	1	0	0	0.23908	0.1538	0.058761	0.24142	0.22238	0.18843	0.11331	0.17502	0.042563	0.15896	0.12392	0.17402	0.19363	0.12222	0.027265	0.1328	-3.5062	-3.3292	-3.6354	-3.8208	-3.2521	-3.8792	-3.6729	-3.4125	-3.8625	-3.5146	-3.6021	-3.825	-3.3812	-3.7958	-3.6646	-3.3187	249.920	236.300	254.268	319.448	264.796	118.197	141.077	-32.886	205.078	248.462	66.311	212.577	229.573	147.911	114.436	317.610	0.00013379	0.00034542	0.00012016	1208.7	2.1318e-06	3.5877e-06	1272.9	251.65	1.9703e-06	2.8169e-06	313.65	86.046	67.964	19.8	2.9208e-06	27.83	0.00032545	0.00040307	0.00011203	1188.1	4.4698e-06	4.2672e-06	1255.1	251.03	4.4423e-06	4.4374e-06	311.95	86.972	68.374	20.02	4.2704e-06	28.24	99.794	61.674	37.306	-22.526	131.705	113.107	-22.641	-15.817	98.621	113.659	-15.775	-9.737	-9.158	-2.260	94.503	-2.576	-8191	255	
1025.923	1	1	0	0	0.20256	0.32157	0.061998	0.19714	0.071922	0.096248	0.021544	0.1939	0.16575	0.1353	0.18315	0.10834	0.22266	0.068623	0.15925	0.099825	-3.5062	-3.4542	-3.5917	-3.825	-3.3458	-3.475	-3.7083	-3.3167	-3.8187	-3.3875	-3.5667	-3.8958	-3.3083	-3.7354	-3.6	-3.2521	301.719	201.315	290.325	-18.834	282.685	304.317	194.893	236.236	-20.603	69.795	278.625	0.066	324.236	8.652	77.148	241.454	0.00013641	0.00038238	0.00010702	1203.2	1.8925e-06	2.0869e-06	1271.2	253.87	1.6911e-06	4.1774e-06	313.59	86.36	67.859	19.67	3.7485e-06	27.874	0.00033353	0.00039666	0.00011046	1187	4.522e-06	4.18e-06	1255.9	251.53	4.0926e-06	4.4719e-06	312.16	87.084	68.349	19.974	4.2014e-06	28.256	97.314	69.864	82.879	-22.816	123.900	143.741	-22.604	-15.849	175.297	102.989	-16.175	-9.255	-9.063	-2.160	131.642	-2.724	-8191	255	
1026.019	1	1	0	0	0.22829	0.24713	0.29489	0.27405	0.17216	0.094067	0.11486	0.19895	0.10328	0.31058	0.02452	0.1406	0.17438	0.36979	0.15851	0.1176	-3.5042	-3.4854	-3.4333	-3.9625	-3.3854	-3.7562	-3.8958	-3.3979	-3.8771	-3.4333	-3.5979	-3.9771	-3.3625	-3.7229	-3.6521	-3.2812	130.802	212.236	291.301	296.784	222.255	201.527	282.079	197.585	16.933	276.732	-11.008	291.155	262.941	-29.488	188.815	142.192	0.00012127	0.00037756	0.00015132	1206.1	2.9849e-06	3.7422e-06	1275.8	252.31	1.8642e-06	2.3248e-06	313.84	86.618	67.901	19.884	3.677e-06	27.863	0.00032808	0.00038854	0.0001064	1187.5	4.4292e-06	4.3718e-06	1255.1	251.45	4.3273e-06	4.3601e-06	312.43	87.018	68.429	20.079	4.2201e-06	28.263	112.824	105.351	58.499	-22.576	135.664	130.756	-22.794	-15.552	113.586	113.647	-15.733	-9.332	-9.228	-2.170	104.820	-2.460	-8191	255	
1026.115	1	1	0	0	0.047193	0.097963	0.10784	0.15227	0.079507	0.11885	0.18738	0.16457	0.027891	0.11101	0.26001	0.25078	0.18038	0.23077	0.024008	0.12983	-3.3271	-3.4354	-3.4437	-3.9104	-3.3604	-3.4688	-3.8937	-3.4792	-3.7854	-3.4562	-3.5375	-3.8458	-3.3688	-3.8042	-3.8542	-3.4229	319.478	211.532	192.531	277.583	269.846	239.542	243.204	-0.334	303.098	299.236	221.234	316.234	185.264	271.012	149.637	303.294	0.0001486	0.00031839	0.00013446	1207.8	2.5528e-07	3.7643e-06	1276.4	253.71	1.8821e-06	2.447e-06	314.28	87.404	67.879	19.903	3.6345e-06	27.883	0.00033964	0.00039461	0.00011032	1187.5	4.6344e-06	4.445e-06	1258.4	251.6	4.3366e-06	4.3016e-06	312.53	87.264	68.333	20.09	4.2244e-06	28.303	105.449	59.606	66.805	-22.741	67.412	106.905	-22.780	-15.783	82.686	92.812	-16.036	-9.597	-9.074	-2.452	99.745	-2.838	-8191	255	
1026.211	1	1	0	0	0.03961	0.34588	0.15591	0.09865	0.12126	0.2646	0.29014	0.21847	0.13604	0.18812	0.02815	0.25161	0.11509	0.15211	0.099708	0.023282	-3.3333	-3.5792	-3.2583	-4.0062	-3.5021	-3.5187	-3.9458	-3.4437	-3.7104	-3.7167	-3.3021	-3.8375	-3.55	-3.5771	-3.7083	-3.175	314.278	113.981	140.187	309.177	39.252	240.953	310.770	165.316	291.224	285.315	166.217	324.888	164.846	323.914	6.579	124.373	0.00015439	0.00021436	0.00011236	1213.8	2.0851e-06	4.1873e-06	1277.7	253.08	3.4729e-06	2.5336e-06	313.73	86.33	68.217	19.822	1.9334e-06	27.846	0.00034048	0.00038973	0.00011503	1191	4.5096e-06	4.3094e-06	1257.2	251.6	4.1361e-06	4.2293e-06	312.06	87.057	68.41	20.046	4.1776e-06	28.218	105.087	36.314	79.336	-22.808	149.456	126.055	-22.702	-15.674	128.781	106.453	-15.747	-9.226	-9.085	-2.710	125.347	-2.575	-8191	255	
1026.308	1	1	0	0	0.14995	0.23126	0.18213	0.10267	0.22059	0.21299	0.11113	0.039924	0.13564	0.2788	0.26543	0.13982	0.076768	0.082356	0.17953	0.18578	-3.2417	-3.7417	-3.175	-3.9125	-3.3667	-3.4167	-4.0062	-3.4625	-3.6083	-3.6729	-3.2208	-3.8083	-3.5438	-3.3875	-3.7896	-3.3604	-0.040	117.587	261.359	0.359	88.406	242.616	194.018	164.392	133.259	175.529	243.512	316.290	140.321	111.110	-30.514	246.935	0.00010274	0.00040551	7.1632e-05	1208	1.8418e-06	2.9499e-06	1274	253.42	1.5162e-06	4.0994e-06	314.57	86.727	68.246	19.82	3.0176e-06	27.959	0.00031923	0.00038418	0.00010974	1188.2	4.1883e-06	4.0915e-06	1257.3	251.03	4.3123e-06	4.2804e-06	312.49	87.222	68.325	20.073	4.1414e-06	28.273	103.204	73.701	48.419	-22.667	114.061	166.206	-22.859	-15.597	131.658	119.383	-15.779	-9.548	-9.143	-2.035	85.192	-2.302	-8191	255	
1026.404	1	1	0	0	0.078838	0.13267	0.16901	0.26833	0.062879	0.13589	0.2819	0.16737	0.039985	0.3005	0.31591	0.28891	0.21405	0.08553	0.21187	0.28312	-3.1396	-3.5375	-3.2667	-3.9375	-3.2354	-3.2812	-4.025	-3.5083	-3.4938	-3.6667	-3.2313	-3.775	-3.4625	-3.3375	-3.7646	-3.3937	6.031	309.373	-9.782	256.681	217.738	74.697	225.528	224.620	302.068	56.764	303.593	276.255	-33.332	274.892	-10.459	240.308	0.00015694	0.00026523	8.7327e-05	1207.3	2.2172e-06	2.9849e-06	1273.7	252.81	1.9716e-06	2.5482e-06	313.43	86.494	67.951	19.843	2.9185e-06	27.752	0.00031993	0.00038128	0.00010759	1188.2	4.1428e-06	4.1411e-06	1255.3	251.15	4.1616e-06	4.1948e-06	311.55	87.044	68.319	20.076	3.9499e-06	28.204	106.840	69.929	100.364	-22.652	153.779	77.618	-22.599	-15.720	138.327	164.376	-15.770	-9.621	-9.582	-2.046	126.445	-2.308	-8191	255	
1026.524	1	1	0	0	0.13342	0.10874	0.085127	0.087586	0.18816	0.24954	0.16959	0.065318	0.15471	0.11738	0.085242	0.075395	0.24865	0.27134	0.096224	0.22298	-2.8958	-3.8438	-3.3312	-3.8417	-3.6937	-3.4104	-4.1083	-3.4917	-3.4938	-3.8312	-3.45	-3.6625	-3.6708	-3.0896	-3.7521	-3.5687	314.509	263.514	-32.752	-30.500	167.832	-5.649	312.419	235.914	154.191	2.416	255.443	172.925	218.164	52.914	-32.975	272.009	0.00014423	0.00017213	0.00010831	1204.4	2.7774e-06	3.2648e-06	1271.8	253.16	1.4057e-06	2.7736e-06	313.37	86.313	67.724	19.916	3.0338e-06	27.64	0.00031582	0.00037055	0.00010679	1182.9	4.0684e-06	4.1324e-06	1252.5	250.89	4.102e-06	4.1304e-06	311.82	86.963	68.271	20.137	4.1328e-06	28.153	113.809	70.958	68.176	-22.583	139.377	131.950	-22.735	-15.622	201.503	129.869	-15.878	-9.520	-9.200	-2.246	140.157	-1.999	-8191	255	
1026.621	1	1	0	0	0.21537	0.011492	0.083564	0.29321	0.16315	0.33733	0.25159	0.36128	0.27251	0.19703	0.2136	0.26556	0.18138	0.22531	0.075833	0.057564	-2.9583	-3.6479	-3.4375	-3.8417	-3.6104	-3.2104	-3.9271	-3.3854	-3.3292	-3.9188	-3.3688	-3.5833	-3.6396	-3.4104	-3.8354	-3.5229	237.542	142.946	94.898	251.845	109.735	82.406	286.080	271.476	152.246	25.070	84.510	314.887	6.603	272.389	309.426	1.113	0.00015237	0.00020816	0.00014185	1203.2	9.7783e-07	3.5138e-06	1271.1	250.98	1.3248e-06	4.2863e-06	314.2	86.852	68.115	19.937	1.4186e-06	27.841	0.00031625	0.00035498	0.00010302	1184.3	4.1676e-06	4.0551e-06	1252.8	250.29	4.1627e-06	4.0557e-06	312.05	87.381	68.296	20.146	3.8162e-06	28.255	107.176	60.443	71.301	-22.725	118.994	140.541	-22.731	-15.535	100.839	133.074	-15.640	-9.186	-9.585	-2.508	68.775	-2.205	-8191	255	
1026.715	1	1	0	0	0.29	0.14472	0.038281	0.26236	0.083227	0.19627	0.16929	0.30485	0.35775	0.18714	0.086672	0.3107	0.2586	0.2947	0.10976	0.1972	-2.8854	-3.8271	-3.5042	-3.625	-3.6833	-3.2646	-3.8812	-3.5667	-3.2354	-3.8333	-3.4792	-3.6229	-3.8792	-3.2854	-3.7104	-3.5292	57.679	16.300	256.765	-14.682	302.911	-18.055	202.343	203.479	-15.503	204.478	165.587	-21.709	110.524	56.299	54.189	302.485	0.0001591	0.00044153	9.9086e-05	1203.1	2.4332e-06	4.739e-06	1275.1	251.99	1.1369e-06	1.9384e-06	311.97	86.208	67.953	19.896	2.9117e-06	27.817	0.00032722	0.0003612	0.000102	1183.7	4.0624e-06	4.0733e-06	1253	250.54	3.9622e-06	3.9402e-06	311.58	87.131	68.341	20.075	3.7936e-06	28.211	106.672	58.344	54.906	-22.827	138.672	119.450	-22.593	-15.505	155.801	108.863	-15.988	-9.435	-9.320	-2.295	154.546	-2.557	-8191	255	
1026.836	1	1	0	0	0.034977	0.17706	0.031182	0.13284	0.10481	0.060638	0.43961	0.046367	0.18513	0.068689	0.031545	0.12884	0.052094	0.031277	0.13251	0.10897	-2.8854	-3.9292	-3.5146	-3.5354	-3.7542	-3.2521	-3.8438	-3.7729	-3.3604	-3.7271	-3.4938	-3.5208	-3.8187	-3.4375	-3.6854	-3.6396	260.181	260.870	321.419	321.702	113.502	195.542	260.838	32.503	-13.782	276.350	34.021	269.060	282.992	75.276	102.231	244.579	0.00012111	0.00029443	8.6668e-05	1199.7	2.9251e-06	5.7954e-06	1270.6	251.75	1.6322e-06	3.149e-06	313.54	86.889	67.845	19.929	4.472e-06	27.911	0.00031634	0.0003647	0.00010502	1182.6	3.982e-06	4.1506e-06	1249.6	250.4	4.1732e-06	3.9585e-06	311.57	87.035	68.346	20.069	3.8431e-06	28.209	112.369	68.986	51.618	-22.586	122.258	135.000	-22.725	-15.514	138.043	107.486	-15.722	-9.324	-9.326	-2.482	100.431	-2.943	-8191	255	
1026.907	1	1	0	0	0.13856	0.12739	0.095699	0.33403	0.16853	0.088276	0.26932	0.15804	0.041302	0.087228	0.12979	0.30234	0.14488	0.13183	0.29932	0.028579	-2.8563	-3.8187	-3.4979	-3.6146	-3.6271	-3.1646	-3.7042	-3.8146	-3.2125	-3.7792	-3.6875	-3.3583	-3.9729	-3.4167	-3.6396	-3.7625	318.080	301.349	0.465	261.348	89.606	-4.395	268.406	28.291	270.384	280.664	26.402	251.457	315.869	134.329	278.634	208.424	0.00016931	0.00044428	0.00018199	1195.8	1.3667e-06	4.4321e-06	1265	252.65	1.8427e-06	3.1566e-06	313.94	86.476	68.439	19.813	1.8877e-06	27.757	0.00031868	0.00037089	0.00010654	1180.3	4.0722e-06	4.0729e-06	1248.5	250.59	4.2185e-06	4.0204e-06	311.61	87.11	68.442	20.069	3.9059e-06	28.157	101.931	46.794	62.543	-22.713	113.319	103.274	-22.702	-15.555	153.091	108.305	-15.774	-9.267	-9.106	-2.364	119.394	-2.568	-8191	255	
1027.003	1	1	0	0	0.23065	0.22691	0.122	0.158	0.09419	0.10663	0.3826	0.043461	0.093636	0.11191	0.16456	0.20228	0.09218	0.15301	0.12184	0.090916	-3.0979	-3.7292	-3.4083	-3.5875	-3.7729	-3.4792	-3.7812	-3.9208	-3.2896	-3.7875	-3.7375	-3.3688	-3.8937	-3.5563	-3.4771	-3.8354	43.589	102.345	263.941	301.967	147.801	114.104	226.841	240.362	232.878	217.102	170.198	298.080	214.904	277.202	89.483	307.900	0.00017255	0.00042037	9.3249e-05	1197.9	2.0491e-06	2.2e-06	1264.9	252.66	1.6367e-06	2.638e-06	311.77	86.541	67.325	19.885	2.4243e-06	27.912	0.00033016	0.00035099	9.726e-05	1180.1	3.9124e-06	4.0877e-06	1247.7	250.14	4.1368e-06	3.8982e-06	311.03	86.878	68.096	20.007	3.8759e-06	28.17	94.884	94.444	39.840	-22.584	139.603	111.767	-22.675	-15.513	91.183	107.589	-15.917	-9.378	-9.371	-2.251	110.775	-2.795	-8191	255	
1027.100	1	1	0	0	0.28097	0.14415	0.20602	0.04952	0.22317	0.29973	0.13701	0.076751	0.13355	0.30524	0.18132	0.1195	0.18214	0.10362	0.08533	0.16416	-3	-3.6188	-3.575	-3.3771	-3.7938	-3.5729	-3.6917	-4.0188	-3.3708	-3.7167	-3.7708	-3.3958	-3.7979	-3.5667	-3.4062	-4.0792	90.077	166.566	159.467	323.552	319.788	192.093	260.680	118.190	295.586	227.111	299.585	95.609	314.721	-28.078	145.702	267.400	0.00015795	0.00033295	6.7938e-05	1194.1	1.7863e-06	3.7941e-06	1259	251.07	2.4225e-06	3.467e-06	312	86.451	67.906	19.813	3.9239e-06	27.747	0.000321	0.00035882	0.00010126	1177	4.0654e-06	4.0017e-06	1245.1	249.75	4.0416e-06	3.9942e-06	310.76	86.911	68.131	19.988	4.0201e-06	28.152	104.792	81.038	72.171	-22.856	151.457	117.390	-22.522	-15.456	157.877	142.257	-15.724	-9.395	-9.158	-2.474	104.254	-2.459	-8191	255	
1027.218	1	1	0	0	0.20579	0.28221	0.22814	0.27671	0.085558	0.11193	0.30738	0.19364	0.051814	0.082648	0.20171	0.12736	0.023046	0.10131	0.099624	0.14685	-2.9146	-3.7333	-3.8917	-3.4354	-3.8438	-3.7146	-3.7188	-4.0479	-3.3979	-3.5062	-3.8417	-3.3479	-3.8146	-3.5708	-3.5021	-4.0437	120.771	9.667	-20.200	325.488	189.644	89.554	231.740	229.175	111.156	-18.739	284.088	-9.434	222.595	10.847	-2.345	158.536	0.00014263	0.00028122	8.1784e-05	1196.7	3.8153e-06	1.3166e-06	1265	252.17	3.668e-06	4.9477e-06	312.89	86.42	67.785	19.653	2.4969e-06	27.974	0.00031825	0.00035636	0.00010152	1178.4	3.8331e-06	4.003e-06	1247.7	250.06	4.0086e-06	3.8787e-06	311	86.97	68.19	20.011	3.8038e-06	28.234	102.674	71.871	48.397	-22.722	107.864	129.335	-22.577	-15.450	121.715	117.158	-15.603	-9.423	-9.372	-1.872	140.667	-2.530	-8191	255	
1027.315	1	1	0	0	0.13239	0.056122	0.03074	0.16958	0.091107	0.074384	0.21249	0.10161	0.11718	0.2075	0.2714	0.23716	0.15728	0.041961	0.1576	0.071746	-2.9042	-3.6583	-3.7938	-3.5458	-3.7271	-3.7729	-3.5292	-3.9771	-3.6042	-3.6458	-4.0729	-3.5187	-3.7313	-3.8146	-3.2417	-4.0229	236.370	227.411	302.854	303.218	43.817	166.831	246.294	277.418	150.462	253.895	245.401	-8.907	278.598	264.860	324.397	251.500	0.00014378	0.00031726	9.5621e-05	1200	2.3034e-06	3.8145e-06	1266.7	251.17	3.5732e-06	2.7277e-06	313.36	86.554	67.546	19.827	2.6831e-06	27.74	0.00030908	0.00034902	9.9553e-05	1179.8	3.8444e-06	3.7524e-06	1248.9	249.64	3.9685e-06	3.9315e-06	311.78	87.052	68.171	20.075	3.9843e-06	28.169	100.208	46.453	51.813	-22.574	85.318	162.088	-22.651	-15.508	93.817	115.838	-15.832	-9.407	-9.184	-2.371	113.624	-2.997	-8191	255	
1027.411	1	1	0	0	0.16263	0.28366	0.059767	0.2541	0.069796	0.10533	0.18477	0.16158	0.2724	0.25962	0.15814	0.31052	0.27056	0.27496	0.19179	0.14963	-3.2021	-3.6104	-3.7812	-3.5229	-3.7458	-3.6917	-3.5938	-3.8063	-3.5521	-3.3354	-3.8458	-3.4104	-3.8375	-3.85	-3.2354	-3.7896	237.976	-26.144	131.347	266.747	-25.193	302.669	268.421	234.715	34.951	293.441	150.313	-13.213	-13.444	300.816	257.465	-20.326	0.00011632	0.00025985	9.1507e-05	1198.1	2.1077e-06	2.9364e-06	1263.9	250.95	2.2719e-06	2.0695e-06	312.87	85.922	67.918	19.89	3.2545e-06	27.744	0.00030544	0.00036668	9.7529e-05	1178.4	3.9376e-06	3.9137e-06	1247.1	249.82	4e-06	3.8401e-06	311.14	86.841	68.172	20.036	3.8973e-06	28.159	109.966	49.830	49.478	-22.562	142.058	107.914	-22.677	-15.299	155.742	127.791	-15.831	-9.439	-9.049	-2.535	128.148	-2.529	-8191	255	
1027.507	1	1	0	0	0.018779	0.082739	0.13837	0.29116	0.23337	0.10451	0.065656	0.18042	0.098932	0.21046	0.45587	0.15934	0.16447	0.32036	0.14797	0.18263	-3.2583	-3.3812	-4.0813	-3.45	-3.6542	-3.875	-3.4	-3.8917	-3.5438	-3.4917	-3.9458	-3.4958	-3.7771	-3.8146	-3.3458	-3.6729	217.143	214.502	191.214	264.291	276.972	-22.227	293.916	277.205	258.182	188.971	306.545	164.218	231.749	315.695	198.145	260.796	0.0001482	0.00035374	9.7323e-05	1193.7	1.9002e-06	1.2623e-06	1265	251.01	1.2045e-06	1.5558e-06	311.94	85.951	67.551	19.737	2.9268e-06	27.7	0.00030903	0.00037249	9.7623e-05	1175.6	3.9684e-06	3.8798e-06	1248.6	250	3.9397e-06	4.0976e-06	310.34	86.7	68.037	19.947	4.2119e-06	28.072	99.023	63.309	39.218	-22.717	122.808	82.467	-22.497	-15.532	86.633	110.109	-15.872	-9.525	-9.041	-2.399	149.050	-2.661	-8191	255	
1027.603	1	1	0	0	0.13125	0.16898	0.20554	0.23705	0.25716	0.14234	0.41875	0.15816	0.12203	0.086777	0.074165	0.07881	0.086922	0.069285	0.025127	0.20533	-3.2604	-3.3271	-3.8187	-3.7021	-3.3708	-3.7896	-3.5042	-3.7396	-3.5375	-3.35	-4.0833	-3.5646	-3.3937	-3.9	-3.3312	-3.7938	238.857	67.143	30.369	300.441	80.345	-30.778	238.983	184.595	315.766	-7.250	-9.360	252.702	74.596	170.040	119.829	310.462	0.00013778	0.0003223	4.2578e-05	1195.6	2.2669e-06	4.722e-06	1267.9	251.78	1.2719e-06	3.9853e-06	313.14	86.419	67.875	19.782	3.7624e-06	27.855	0.00031481	0.00038072	0.00010094	1177.5	4.1676e-06	4.1229e-06	1248.8	250.02	3.9235e-06	4.167e-06	311.24	87.045	68.174	20.004	3.8365e-06	28.215	105.902	73.568	51.209	-22.710	122.930	117.930	-22.620	-15.787	170.630	121.911	-15.716	-9.387	-8.759	-2.237	119.787	-2.987	-8191	255	
1027.699	1	1	0	0	0.049985	0.070267	0.13389	0.26344	0.12507	0.088253	0.033082	0.29131	0.132	0.033795	0.19284	0.19435	0.22232	0.22312	0.18737	0.066467	-3.5042	-3.2854	-3.7875	-3.7833	-3.4104	-3.875	-3.4792	-3.5708	-3.85	-3.5438	-3.8396	-3.7	-3.5042	-4.1021	-3.5729	-3.6792	315.900	240.989	213.749	304.896	128.415	142.655	205.993	298.532	242.367	201.350	311.894	227.873	235.019	200.141	285.028	30.323	0.00015682	0.00023736	0.00010332	1195.7	1.9062e-06	3.8451e-06	1263.9	251.06	3.1053e-06	4.3804e-06	311.68	85.95	67.617	19.687	3.1677e-06	27.515	0.00030683	0.00036492	9.9532e-05	1176.5	4.0429e-06	3.8744e-06	1247.7	249.58	3.9183e-06	3.9485e-06	310.04	86.613	67.907	19.937	3.9593e-06	27.989	102.657	59.711	73.476	-22.688	156.733	133.315	-22.721	-15.488	123.856	142.943	-15.965	-9.510	-9.068	-1.973	120.742	-2.469	-8191	255	
1027.795	1	1	0	0	0.084129	0.013482	0.097266	0.24965	0.16879	0.066052	0.2878	0.10069	0.24252	0.09428	0.051497	0.11052	0.25093	0.14683	0.12075	0.11931	-3.4604	-3.1813	-3.7792	-3.7375	-3.2313	-4.0312	-3.6813	-3.6312	-3.8375	-3.4062	-3.9604	-3.8333	-3.4792	-3.85	-3.4375	-3.5979	314.357	283.052	88.748	41.001	-32.124	12.514	293.109	192.815	-32.966	161.129	192.338	-26.272	250.767	177.453	49.271	234.507	0.00015034	0.00037754	0.00013878	1193	1.4006e-06	3.5389e-06	1263.9	250.3	2.7385e-06	1.2116e-06	311.88	85.646	67.689	19.642	2.6784e-06	27.464	0.00032017	0.0003821	0.00010192	1174.8	4.2744e-06	4.1299e-06	1244.4	249.07	4.0446e-06	4.2978e-06	310.11	86.326	67.897	19.851	4.309e-06	27.94	100.693	62.752	70.439	-22.742	98.153	124.383	-22.764	-15.431	103.192	106.375	-15.630	-9.581	-9.446	-1.947	125.273	-2.224	-8191	255	
1027.916	1	1	0	0	0.12313	0.15433	0.26611	0.20352	0.096965	0.048199	0.15383	0.2583	0.23209	0.057954	0.25969	0.14415	0.13085	0.11162	0.067747	0.15572	-3.5521	-3.2542	-3.4854	-3.8375	-3.5062	-3.8104	-3.9042	-3.8167	-3.8833	-3.6104	-3.8521	-3.7938	-3.3417	-3.9625	-3.6771	-3.4396	266.236	102.481	121.265	-25.560	198.596	320.665	192.527	48.548	181.142	67.367	281.583	312.676	102.787	231.675	260.393	33.786	0.00014591	0.0003163	0.00015909	1196.7	3.2985e-06	3.0492e-06	1267.6	250.93	2.3317e-06	1.4872e-06	312.53	85.475	67.692	19.668	3.981e-06	27.797	0.00034108	0.00041693	0.00011785	1177.6	4.492e-06	4.4549e-06	1248.1	249.62	4.5634e-06	4.6679e-06	310.74	86.421	68.055	19.888	4.6096e-06	28.138	110.219	61.843	54.398	-22.761	158.904	116.772	-22.662	-15.568	175.088	49.699	-15.859	-9.606	-8.822	-2.691	92.691	-2.556	-8191	255	
1028.012	1	1	0	0	0.2389	0.048366	0.02859	0.059703	0.07921	0.35898	0.26413	0.24107	0.23753	0.13608	0.11356	0.23447	0.081051	0.18059	0.13265	0.20669	-3.4979	-3.4854	-3.6271	-3.8146	-3.4375	-3.9	-3.7021	-3.5917	-3.8083	-3.4833	-3.8021	-3.7062	-3.3312	-3.7625	-3.6792	-3.5417	249.435	308.072	285.477	30.079	-5.985	159.404	238.141	-16.860	314.961	189.086	183.419	308.110	207.129	33.101	269.299	260.378	0.00012911	0.00030566	8.3669e-05	1201.9	1.6045e-06	4.5072e-06	1275.2	253.42	1.9963e-06	1.9667e-06	314.57	86.776	67.892	20.019	2.0358e-06	27.972	0.00035525	0.00043813	0.00011536	1184.4	4.7475e-06	4.6989e-06	1256.1	251.16	4.5777e-06	4.3659e-06	312.37	87.119	68.385	20.141	4.2018e-06	28.256	96.172	77.230	51.242	-22.797	150.513	101.764	-22.625	-15.694	120.271	154.484	-15.987	-9.476	-9.154	-2.241	171.252	-2.152	-8191	255	
1028.108	1	1	0	0	0.26898	0.15915	0.044463	0.24989	0.078189	0.15458	0.17809	0.22945	0.11536	0.22612	0.18014	0.2607	0.20776	0.11168	0.019611	0.050946	-3.3042	-3.4021	-3.5104	-4.0396	-3.3563	-3.8875	-3.8063	-3.45	-3.7646	-3.6604	-3.4313	-3.7875	-3.3896	-3.8917	-3.6167	-3.4208	273.890	-19.923	197.577	259.043	-26.632	-13.511	263.548	262.863	-24.989	141.497	201.073	124.963	-4.271	52.931	6.522	274.470	0.0001706	3.3581e-05	5.1139e-05	1211.8	2.4544e-06	1.3939e-06	1273.7	253.4	3.3536e-06	4.3273e-06	314.47	86.366	67.893	19.822	2.9464e-06	27.803	0.00032557	0.00039491	0.00010771	1189.3	4.3311e-06	4.137e-06	1256.1	251.3	4.1331e-06	4.3128e-06	312.39	87.099	68.424	20.023	4.293e-06	28.213	106.267	63.180	67.450	-22.747	93.986	143.649	-22.669	-15.814	119.772	136.586	-15.853	-9.721	-8.903	-1.915	119.043	-2.541	-8191	255	
1028.204	1	1	0	0	0.20177	0.10309	0.15166	0.18027	0.11281	0.11714	0.19425	0.23568	0.069234	0.19488	0.23966	0.12268	0.14876	0.067716	0.079933	0.22436	-3.6188	-3.4917	-3.4062	-4.0188	-3.25	-3.5875	-3.8646	-3.3354	-3.7604	-3.3771	-3.5417	-3.7896	-3.4771	-3.7521	-3.6396	-3.3708	285.880	120.873	26.531	43.494	38.408	34.181	217.931	288.027	242.380	85.512	209.283	270.945	265.356	38.676	95.349	123.669	0.00014155	0.00032243	4.9462e-05	1200	8.6659e-07	3.6983e-06	1269.5	254.13	5.6514e-07	2.7746e-06	313.23	86.531	68.039	19.83	2.4187e-06	27.582	0.00033106	0.00039737	0.00011381	1184.9	4.6735e-06	4.5198e-06	1254.2	251.62	4.3857e-06	4.5005e-06	311.69	87.081	68.296	20.046	4.5183e-06	28.149	109.623	69.164	50.524	-22.623	126.981	137.226	-22.762	-15.489	185.524	126.650	-15.592	-9.467	-9.123	-2.160	122.090	-2.447	-8191	255	
1028.299	1	1	0	0	0.13352	0.21465	0.091343	0.35897	0.1113	0.1769	0.27031	0.28613	0.23029	0.31067	0.069093	0.074025	0.12063	0.088031	0.24568	0.14023	-3.3292	-3.5125	-3.2958	-3.9875	-3.4208	-3.6208	-3.9458	-3.4854	-3.8125	-3.3854	-3.6458	-3.8604	-3.4479	-3.4479	-3.6417	-3.1708	-21.217	273.353	56.190	-25.475	187.345	33.429	268.360	287.838	97.273	258.123	191.234	277.299	140.250	164.546	308.129	184.784	0.00015609	0.00030437	6.9524e-05	1205.6	9.223e-07	2.6172e-06	1273.2	252.91	4.1631e-07	4.0495e-06	313.84	86.779	68.173	19.781	4.6892e-06	28.04	0.00033197	0.0004125	0.0001179	1187.1	4.6889e-06	4.598e-06	1255.3	251.56	4.641e-06	4.7011e-06	312.79	87.281	68.576	20.026	4.2837e-06	28.29	104.241	62.076	63.280	-22.857	224.753	98.432	-23.042	-15.595	134.072	108.500	-15.659	-9.374	-9.049	-2.524	172.695	-2.651	-8191	255	
1028.395	1	1	0	0	0.12931	0.080995	0.27153	0.26872	0.069275	0.31997	0.16028	0.15178	0.32775	0.072178	0.17821	0.027935	0.26225	0.13503	0.16554	0.08542	-3.3021	-3.5458	-3.5208	-3.8021	-3.475	-3.5167	-3.8708	-3.4479	-3.6854	-3.8333	-3.5167	-3.9646	-3.575	-3.5083	-4.075	-3.3604	262.717	8.620	88.225	0.472	231.106	37.579	248.613	-11.946	117.647	277.388	216.158	137.186	36.487	242.677	19.542	305.049	0.0001419	0.00037198	0.00011679	1211	2.3393e-06	3.0103e-06	1275.8	253.48	1.2834e-06	3.0259e-06	314.63	86.438	68.025	19.815	2.966e-06	27.894	0.00034435	0.0004119	0.00011761	1189	4.4236e-06	4.3114e-06	1257.6	252.08	4.2639e-06	4.3589e-06	312.9	87.132	68.557	20.106	4.1035e-06	28.325	100.156	73.027	41.907	-22.497	129.676	117.722	-22.729	-15.676	144.867	155.716	-15.804	-9.728	-9.262	-2.056	110.716	-2.452	-8191	255	
1028.516	1	1	0	0	0.081656	0.17716	0.10509	0.29197	0.13721	0.033119	0.23321	0.089933	0.18424	0.15326	0.27222	0.072632	0.32956	0.19933	0.12532	0.086691	-3.3312	-3.8021	-3.3667	-3.9313	-3.3896	-3.5667	-4.05	-3.5125	-3.6562	-3.7	-3.3292	-3.8021	-3.5	-3.5229	-3.8229	-3.3375	318.563	-11.998	242.802	285.534	49.159	172.759	249.313	100.840	282.946	92.328	-33.607	-32.988	325.395	199.316	85.622	-29.347	0.00013027	0.00020112	9.53e-05	1205.6	1.2985e-06	1.7004e-06	1271	252.83	2.3737e-06	2.8385e-06	314.25	86.19	68.251	20.091	2.7296e-06	27.981	0.00032616	0.00038307	0.00011012	1186.1	4.168e-06	4.1948e-06	1252.9	251.28	4.0784e-06	4.0635e-06	312.84	87.301	68.695	20.214	4.0813e-06	28.344	98.291	81.516	36.749	-22.543	167.678	119.176	-22.673	-15.760	174.141	99.560	-15.736	-9.525	-9.171	-2.670	116.396	-2.534	-8191	255	
1028.612	1	1	0	0	0.15811	0.18277	0.098373	0.26888	0.14723	0.13746	0.083689	0.15956	0.04515	0.050032	0.18581	0.29337	0.074907	0.20013	0.15187	0.183	-3.2667	-3.8021	-3.2042	-3.7438	-3.5646	-3.3063	-4.0146	-3.6167	-3.4708	-3.6021	-3.3438	-3.7646	-3.8479	-3.4458	-3.8542	-3.55	164.993	182.020	83.137	273.325	317.476	132.842	142.111	186.592	14.804	298.064	118.373	292.432	117.446	78.945	203.681	29.608	0.00015361	0.00018814	8.6205e-05	1207.8	3.2021e-06	2.3754e-06	1273.7	254.13	2.3228e-06	1.1924e-06	314.98	87.039	68.537	20.001	1.5691e-06	27.935	0.0003194	0.00037293	0.00010475	1188	4.1135e-06	4.0125e-06	1256.7	252.11	4.0364e-06	3.929e-06	313.22	87.499	68.807	20.249	3.7285e-06	28.398	117.608	48.949	69.749	-22.788	135.923	111.167	-22.690	-15.623	126.626	141.126	-15.701	-9.545	-9.237	-2.775	93.147	-2.546	-8191	255	
1028.708	1	1	0	0	0.25767	0.27151	0.12341	0.30714	0.36075	0.23604	0.30979	0.10107	0.13507	0.17352	0.10283	0.16713	0.11663	0.26252	0.17842	0.17012	-3.1688	-3.7396	-3.3833	-3.9042	-3.8125	-3.4208	-3.9875	-3.7938	-3.6688	-3.775	-3.5938	-3.8104	-3.7771	-3.4667	-3.8354	-3.6479	46.908	253.386	148.596	289.595	149.805	39.679	302.940	-25.195	28.322	272.003	319.919	207.344	-20.644	215.081	295.301	111.953	0.00015944	0.00035204	8.8511e-05	1206.8	1.5889e-06	3.9409e-06	1274.1	253.49	2.3347e-06	2.8731e-06	314.57	87.338	68.26	20.164	2.6988e-06	28.027	0.00030776	0.00035375	0.00010049	1187.4	4.0695e-06	3.9137e-06	1258	252.17	4.1496e-06	3.8413e-06	313.78	87.795	68.694	20.331	3.695e-06	28.486	107.607	64.741	47.951	-22.451	129.928	94.596	-22.509	-15.751	104.498	114.400	-15.759	-9.437	-9.337	-2.480	119.362	-2.795	-8191	255	
1028.780	1	1	0	0	0.16369	0.18825	0.14913	0.28296	0.16479	0.21369	0.064661	0.17537	0.0077845	0.082511	0.10201	0.14034	0.27845	0.065335	0.058533	0.14267	-3.1854	-3.8792	-3.35	-3.7917	-3.7667	-3.4792	-3.9542	-3.6562	-3.3604	-3.9688	-3.5542	-3.6271	-3.7729	-3.4062	-3.7583	-3.6562	273.193	53.160	90.913	316.176	235.376	150.276	189.907	171.299	88.643	130.987	181.655	22.986	255.076	91.332	129.773	307.825	0.00013235	0.00032933	0.00010222	1208.8	2.4925e-06	2.6138e-06	1273.2	255.05	2.8833e-07	3.0922e-06	315.39	87.528	68.623	20.249	2.8579e-06	28.218	0.00032083	0.00035211	9.8173e-05	1188.5	3.8534e-06	3.8359e-06	1257.1	252.87	3.8849e-06	3.8762e-06	314.42	88.056	68.898	20.431	3.7211e-06	28.596	105.184	57.848	51.892	-22.744	151.478	116.466	-22.646	-15.628	169.075	149.467	-15.854	-9.437	-9.358	-2.570	97.484	-2.766	-8191	255	
1028.900	1	1	0	0	0.10144	0.21969	0.15744	0.21631	0.1234	0.1931	0.2406	0.18602	0.16618	0.36679	0.25833	0.19057	0.075977	0.23468	0.10011	0.092096	-3.0667	-3.875	-3.5958	-3.7208	-3.8896	-3.3167	-3.8833	-3.6979	-3.5229	-3.7354	-3.5458	-3.6667	-3.8292	-3.3396	-3.7604	-3.7458	291.859	285.123	196.624	312.730	237.038	171.806	294.860	-13.838	30.223	183.811	33.000	235.140	319.481	-25.596	269.216	140.820	0.00014662	0.00045445	0.00014505	1211.8	2.3081e-06	3.4652e-06	1276.9	253.73	1.4152e-06	3.0123e-06	316	87.181	68.443	20.26	3.7517e-06	28.226	0.0003177	0.00034857	0.00010152	1190.2	3.9515e-06	3.8471e-06	1259.1	252.71	3.7597e-06	3.5792e-06	314.82	88.081	68.987	20.402	3.4338e-06	28.565	111.527	72.334	73.779	-22.826	114.712	104.184	-22.809	-15.551	120.041	138.212	-15.838	-9.364	-8.990	-2.099	108.158	-2.788	-8191	255	
1028.996	1	1	0	0	0.27045	0.18384	0.028231	0.34608	0.23711	0.1045	0.27984	0.24414	0.05791	0.23566	0.23261	0.28493	0.12795	0.29784	0.17181	0.29593	-2.95	-3.7854	-3.5542	-3.5708	-3.8458	-3.3646	-3.8187	-3.6667	-3.2854	-3.8479	-3.4917	-3.5854	-3.8812	-3.425	-3.8396	-3.7771	25.321	52.432	59.865	286.078	320.512	294.691	271.464	254.010	132.759	88.642	7.623	276.868	21.288	18.717	-22.658	171.193	0.00016257	0.00034346	0.00010492	1206.3	2.0159e-06	4.0449e-06	1275.5	253.83	2.004e-06	3.2688e-06	313.74	87.735	68.195	20.148	2.3443e-06	28.3	0.00029105	0.00030692	9.3005e-05	1185.3	3.4502e-06	3.4617e-06	1254.6	251.84	3.5539e-06	3.3915e-06	312.85	87.949	68.677	20.326	3.2845e-06	28.492	98.432	58.425	65.484	-22.561	131.257	103.475	-22.573	-15.533	110.107	126.112	-15.578	-9.484	-9.432	-2.659	152.567	-2.421	-8191	255	
1029.092	1	1	0	0	0.16304	0.19938	0.32862	0.14708	0.15462	0.15109	0.30957	0.16925	0.11334	0.0083351	0.18517	0.2202	0.15174	0.20603	0.31672	0.23742	-3	-3.6875	-3.5021	-3.5625	-3.7625	-3.4021	-3.7812	-3.8625	-3.3271	-3.6646	-3.7188	-3.3875	-3.95	-3.5042	-3.6	-3.8896	292.608	110.610	177.115	319.700	134.554	133.681	272.186	272.350	86.544	111.756	319.667	278.996	221.163	174.809	279.039	7.727	0.0001391	0.00033681	9.0929e-05	1201.4	2.7865e-06	2.8534e-06	1267.2	252.19	1.8583e-06	3.5361e-06	313.61	86.937	67.826	20.19	3.5191e-06	28.077	0.0002929	0.00031307	8.7775e-05	1180.1	3.5017e-06	3.3807e-06	1250.1	250.85	3.5734e-06	3.45e-06	312	87.411	68.364	20.259	3.4256e-06	28.345	106.769	67.809	64.260	-22.701	143.203	155.615	-22.628	-15.695	157.956	110.772	-15.894	-9.418	-9.253	-2.607	127.311	-2.542	-8191	255	
1029.189	1	1	0	0	0.21954	0.10046	0.084179	0.24101	0.04478	0.078366	0.11153	0.043163	0.13421	0.084179	0.15393	0.26455	0.091073	0.13965	0.18744	0.18198	-3.0771	-3.7333	-3.6063	-3.5125	-3.9042	-3.5083	-3.6479	-4.0667	-3.2958	-3.75	-3.7188	-3.5208	-3.9188	-3.5312	-3.5896	-3.8625	310.089	283.193	158.053	266.965	315.586	317.020	-1.234	292.179	238.755	177.643	16.941	318.204	218.597	116.869	179.648	276.941	0.000145	0.00025077	0.00012722	1191.5	3.0401e-06	1.8183e-06	1256.9	249.06	1.8602e-06	3.0833e-06	309.79	85.435	66.823	19.862	2.3923e-06	27.729	0.0002787	0.00030748	8.4144e-05	1171.1	3.4137e-06	3.4158e-06	1239	247.61	3.3058e-06	3.2681e-06	308.35	86.476	67.398	19.96	3.3788e-06	28.022	103.401	32.557	42.260	-22.690	130.696	116.321	-22.766	-15.431	120.290	128.283	-15.885	-9.363	-9.098	-2.201	101.447	-2.880	-8191	255	
1029.307	1	1	0	0	0.086844	0.15617	0.13768	0.070309	0.15237	0.16738	0.046203	0.34195	0.1928	0.14009	0.10758	0.26672	0.15173	0.093433	0.09546	0.046338	-2.8958	-3.5438	-3.6625	-3.5521	-3.9188	-3.6146	-3.6063	-3.9	-3.4437	-3.7125	-3.8792	-3.4292	-3.95	-3.7938	-3.3937	-3.8417	260.669	181.108	106.404	277.868	209.712	217.348	57.412	267.422	-32.161	194.568	-30.065	320.106	-1.753	15.006	258.058	146.792	0.00013616	0.00026191	9.0158e-05	1177.3	3.1798e-06	2.5052e-06	1241.3	246.47	5.2964e-07	3.2612e-06	307.19	85.441	66.387	19.684	2.5138e-06	27.454	0.0002744	0.00028554	7.7575e-05	1156.5	3.3006e-06	3.0511e-06	1224.8	245.31	3.07e-06	2.9985e-06	305.62	85.786	66.798	19.835	2.8689e-06	27.767	100.294	64.375	55.957	-22.558	115.798	119.132	-22.607	-15.363	115.524	128.010	-15.669	-9.073	-9.180	-2.514	117.406	-2.193	-8191	255	
1029.379	1	1	0	0	0.10611	0.1925	0.07945	0.26513	0.27654	0.035367	0.23687	0.17692	0.16291	0.14367	0.13809	0.12257	0.27074	0.040224	0.057354	0.067037	-3.0479	-3.425	-3.9437	-3.5062	-3.7771	-3.4208	-3.5208	-4.0437	-3.5187	-3.6771	-3.8667	-3.4021	-3.6979	-3.6208	-3.3146	-3.9417	311.531	169.610	313.733	315.476	179.141	98.251	267.497	117.537	21.150	194.947	258.190	256.016	61.761	242.715	323.004	152.717	0.00015732	0.00037151	9.4888e-05	1167.6	2.15e-06	4.2874e-06	1234.2	246.28	7.4272e-07	3.4041e-06	304.6	84.611	65.981	19.538	1.548e-06	27.347	0.00024906	0.00025898	7.2345e-05	1147.4	2.8721e-06	2.9924e-06	1217.6	244.17	2.9508e-06	2.8818e-06	304.11	85.19	66.583	19.708	2.9882e-06	27.699	102.028	53.891	47.668	-22.441	116.553	95.639	-22.600	-15.336	142.182	131.060	-15.576	-9.223	-9.070	-2.529	137.426	-2.165	-8191	255	
1029.477	1	1	0	0	0.18156	0.2914	0.2386	0.078685	0.1872	0.1099	0.17524	0.27882	0.1446	0.030073	0.030026	0.12581	0.10667	0.1431	0.17848	0.046095	-3.0104	-3.675	-4.0375	-3.5833	-3.6937	-3.9292	-3.6083	-3.9958	-3.6083	-3.6167	-3.8958	-3.4771	-3.8438	-3.7458	-3.3479	-3.7667	266.030	-3.722	201.712	271.012	296.611	131.826	268.426	244.285	9.385	-19.450	58.767	294.237	0.296	-22.625	-30.671	3.938	0.00015544	0.00024906	9.9701e-05	1164.6	2.9273e-06	3.3252e-06	1229.8	244.98	1.8196e-06	2.6699e-06	306.67	84.752	66.16	19.483	2.5126e-06	27.474	0.00024808	0.00026479	6.8849e-05	1144.5	3.0728e-06	2.6207e-06	1213.6	243.27	2.8507e-06	2.9288e-06	304.11	85.123	66.493	19.639	2.8015e-06	27.771	112.462	65.648	56.432	-22.483	103.786	134.599	-22.508	-15.632	171.251	121.328	-15.623	-9.500	-9.255	-2.109	115.281	-2.415	-8191	255	
1029.596	1	1	0	0	0.17273	0.09581	0.11531	0.051192	0.14396	0.076771	0.20448	0.17228	0.15404	0.18654	0.096625	0.23936	0.12697	0.055157	0.10923	0.059905	-2.9125	-3.4208	-3.825	-3.575	-3.6646	-3.6896	-3.3708	-4.0875	-3.7104	-3.4542	-4.075	-3.4062	-3.6354	-3.7917	-3.3187	-3.8563	181.509	49.173	213.411	58.384	20.146	92.858	250.604	253.247	15.727	276.610	105.904	322.071	207.999	81.126	201.422	69.503	0.00015153	0.00036363	6.9867e-05	1157.1	2.6881e-06	2.6794e-06	1231.2	245.21	2.1202e-06	3.4812e-06	304.33	84.328	66.155	19.465	3.3947e-06	27.378	0.00024273	0.00025216	6.7852e-05	1141	2.9022e-06	2.7319e-06	1211.9	242.92	2.9118e-06	2.9059e-06	302.4	85.006	66.25	19.582	2.8334e-06	27.612	110.227	58.928	80.510	-22.512	132.121	114.163	-22.417	-15.276	160.433	149.588	-15.350	-9.521	-8.867	-2.361	126.624	-2.032	-8191	255	
1029.692	1	1	0	0	0.075763	0.17877	0.18312	0.15716	0.20018	0.10119	0.20715	0.036932	0.10376	0.20339	0.0075193	0.14259	0.0073685	0.1059	0.15816	0.092653	-3.2542	-3.3563	-3.9562	-3.5583	-3.7562	-3.7479	-3.5292	-3.9625	-3.6042	-3.3937	-4.0125	-3.5812	-3.6667	-3.8021	-3.4792	-3.7375	232.062	-2.077	59.657	280.110	125.232	193.676	257.117	97.817	214.638	33.892	225.823	283.709	119.268	18.706	11.401	168.144	0.00015305	0.00029662	0.00013498	1154.9	2.6735e-06	2.44e-06	1225.3	242.95	2.4603e-06	3.1975e-06	303.38	84.399	65.931	19.313	2.7702e-06	27.288	0.00024997	0.00025473	6.6991e-05	1137.2	2.9443e-06	2.8014e-06	1208.2	241.9	2.7701e-06	2.7796e-06	302.12	84.995	66.107	19.557	2.7075e-06	27.503	103.320	38.562	57.507	-22.588	141.257	108.685	-22.486	-15.456	124.416	126.072	-15.678	-9.361	-8.795	-2.712	129.488	-2.483	-8191	255	
1029.788	1	1	0	0	0.18888	0.074907	0.059336	0.31552	0.10994	0.14036	0.35272	0.1599	0.10765	0.071826	0.12654	0.14291	0.22276	0.1239	0.23302	0.32181	-3.3229	-3.4729	-3.8688	-3.6229	-3.6312	-3.725	-3.7271	-3.7354	-3.7958	-3.4979	-3.9437	-3.5917	-3.5896	-3.7896	-3.3333	-3.6208	146.309	237.605	100.565	-10.168	267.066	162.879	253.329	285.883	294.833	115.004	184.647	267.755	248.405	18.068	110.843	298.527	0.00015271	0.00028369	0.00012003	1152.5	2.064e-06	2.7089e-06	1217.5	242.99	7.4875e-07	1.9832e-06	302.88	83.319	65.572	19.228	2.6002e-06	27.005	0.00024617	0.00024859	6.7168e-05	1132.6	2.9886e-06	2.8837e-06	1199.6	240.53	2.6734e-06	2.7364e-06	300.22	84.152	65.785	19.382	2.7859e-06	27.381	109.913	40.787	36.336	-22.403	104.293	133.137	-22.417	-15.247	163.901	133.408	-15.271	-9.048	-8.984	-2.202	124.671	-2.382	-8191	255	
1029.909	1	1	0	0	0.10459	0.27339	0.17609	0.15299	0.13679	0.066346	0.16418	0.17952	0.077988	0.26852	0.16987	0.13684	0.12127	0.10109	0.079332	0.15767	-3.3229	-3.2708	-3.7458	-3.6188	-3.3958	-3.7667	-3.6292	-3.6958	-3.7667	-3.2438	-3.8125	-3.7958	-3.4292	-3.9688	-3.4938	-3.5542	102.971	246.295	118.155	56.800	197.040	43.006	311.824	275.498	291.562	14.413	54.933	247.678	-27.097	71.764	248.553	-12.535	0.00014082	0.0002978	9.3266e-05	1140.8	1.9814e-06	2.7006e-06	1214	240.52	1.571e-06	4.2274e-06	300.09	83.322	65.849	19.194	3.2732e-06	27.051	0.00023252	0.00024303	6.9118e-05	1123.8	2.9075e-06	2.5223e-06	1194.2	239.04	2.7769e-06	2.6513e-06	298.36	83.79	65.565	19.369	2.6323e-06	27.32	110.475	69.887	46.398	-22.282	148.851	132.026	-22.520	-15.253	136.732	125.108	-15.492	-9.317	-9.501	-2.023	93.378	-2.129	-8191	255	
1030.005	1	1	0	0	0.22373	0.10167	0.11077	0.24611	0.13182	0.1607	0.15416	0.23248	0.15496	0.12928	0.15933	0.17136	0.064029	0.13753	0.052436	0.36417	-3.4333	-3.4437	-3.8771	-3.7708	-3.5354	-4.0625	-3.6937	-3.6875	-3.8646	-3.2313	-3.6958	-3.6813	-3.2979	-4.0167	-3.4583	-3.6562	-20.956	-30.743	140.589	315.230	-14.768	124.802	220.170	-23.274	190.960	36.038	287.155	174.629	-4.607	242.454	-13.620	276.142	0.00014763	0.00028906	7.9686e-05	1137.1	2.1075e-06	5.3368e-06	1204.1	240.41	2.4433e-06	2.3922e-06	299.04	83.064	65.062	19.194	2.7339e-06	26.725	0.00022889	0.0002411	6.7417e-05	1119.7	2.9901e-06	2.5463e-06	1188.4	238.06	2.6468e-06	2.5396e-06	297.64	83.616	65.287	19.26	2.7348e-06	27.196	105.872	65.540	58.744	-22.201	129.513	122.020	-22.409	-15.404	122.868	150.108	-15.448	-9.135	-8.676	-2.000	106.500	-2.459	-8191	255	
1030.077	1	1	0	0	0.096552	0.32629	0.13956	0.097599	0.067085	0.098393	0.18795	0.18779	0.1323	0.15081	0.111	0.10678	0.17591	0.15512	0.048502	0.079231	-3.5646	-3.3958	-3.6104	-3.8208	-3.5104	-4.0833	-3.6625	-3.5792	-3.975	-3.525	-3.9	-3.9458	-3.425	-3.8729	-3.5208	-3.5312	109.823	101.231	267.912	59.760	241.777	187.747	257.325	24.187	275.753	45.048	298.929	275.218	274.730	-26.913	289.338	168.775	0.00015414	0.00022157	9.3159e-05	1137.2	1.822e-06	1.8052e-06	1203.9	239.44	1.9381e-06	3.5132e-06	299.52	82.646	64.592	18.985	2.6686e-06	26.72	0.0002277	0.0002494	6.3224e-05	1116.5	2.8372e-06	2.5405e-06	1186.9	237.67	2.5175e-06	2.6795e-06	297.23	83.252	64.929	19.158	2.741e-06	27.133	102.905	57.244	55.363	-22.462	136.219	102.683	-22.671	-15.287	138.875	139.470	-15.316	-9.061	-8.888	-2.636	90.019	-2.180	-8191	255	
1030.197	1	1	0	0	0.0051198	0.041341	0.1524	0.40839	0.088013	0.25815	0.31871	0.31706	0.15463	0.24045	0.132	0.1091	0.0754	0.17723	0.084091	0.053293	-3.6542	-3.4729	-3.5083	-3.8688	-3.3375	-3.8375	-3.5833	-3.4396	-3.8917	-3.4292	-3.6542	-3.7708	-3.5021	-3.8604	-3.6771	-3.5917	39.155	318.583	216.469	322.447	38.100	25.366	239.096	266.363	277.475	248.592	-8.414	-13.613	1.624	78.853	40.350	131.796	0.00015128	0.00038121	7.3855e-05	1131.9	1.0874e-06	2.1479e-06	1190.5	239.04	2.2864e-06	2.918e-06	296.83	82.78	64.796	18.912	2.0461e-06	26.725	0.00023171	0.00023447	6.5092e-05	1109.9	2.8101e-06	2.5814e-06	1179.5	236.93	2.7075e-06	2.5408e-06	296.23	83.182	64.914	19.139	2.5286e-06	27.086	98.130	70.198	79.592	-22.345	137.718	115.812	-22.194	-15.312	153.869	174.125	-15.688	-9.243	-9.296	-2.173	127.974	-2.033	-8191	255	
1030.292	1	1	0	0	0.09846	0.13779	0.16788	0.21031	0.058768	0.13387	0.12888	0.14672	0.21886	0.18486	0.2446	0.23323	0.060938	0.19573	0.10011	0.26471	-3.3937	-3.5333	-3.5104	-3.8271	-3.3583	-3.8187	-3.7896	-3.5625	-3.7583	-3.5104	-3.7146	-3.9437	-3.4896	-3.7125	-3.6333	-3.3688	317.963	8.678	197.519	289.974	47.480	191.284	278.974	308.947	233.399	-16.862	134.850	89.738	158.138	271.421	131.552	-30.020	0.00012777	0.00042339	0.00011121	1126.5	1.9383e-06	4.8724e-06	1198.7	237.98	2.4181e-06	2.09e-06	298.28	82.785	64.993	18.995	3.1893e-06	26.881	0.00022791	0.0002373	6.4854e-05	1109.4	2.7327e-06	2.4913e-06	1180.1	236.32	2.5985e-06	2.5857e-06	295.96	83.191	64.95	19.154	2.5235e-06	27.148	108.828	66.334	67.777	-22.310	143.956	128.444	-22.496	-15.501	162.620	91.368	-15.601	-8.971	-8.594	-2.269	109.076	-2.109	-8191	255	
1030.388	1	1	0	0	0.18257	0.13769	0.14489	0.10461	0.12181	0.17884	0.26827	0.31253	0.20018	0.080795	0.30219	0.042044	0.026465	0.10139	0.070529	0.21471	-3.4229	-3.4875	-3.3479	-4.0083	-3.4313	-3.6437	-3.7958	-3.2958	-3.725	-3.6833	-3.4417	-3.9042	-3.35	-3.8063	-3.725	-3.4313	236.777	282.016	167.719	313.877	251.267	29.368	217.759	-22.426	92.250	223.410	257.105	277.967	92.692	8.679	153.767	255.986	0.00014323	0.00027555	6.2342e-05	1127.3	2.3235e-06	3.6492e-06	1196.4	237.32	1.7189e-06	3.983e-06	295.45	82.606	64.298	19.029	2.3361e-06	26.634	0.00022105	0.00023327	6.7935e-05	1107.3	2.6985e-06	2.4292e-06	1180.3	235.74	2.5269e-06	2.5155e-06	295.24	82.958	64.709	19.121	2.4498e-06	27.008	99.271	75.515	60.116	-22.413	111.402	144.037	-22.308	-15.337	121.438	127.907	-15.373	-9.436	-8.589	-2.342	130.013	-2.440	-8191	255	
1030.484	1	1	0	0	0.1528	0.10815	0.22786	0.085034	0.098389	0.14928	0.17216	0.20598	0.25959	0.20678	0.24757	0.23827	0.1237	0.076526	0.20926	0.13571	-3.4875	-3.5833	-3.4042	-3.9833	-3.2917	-3.6479	-4.0542	-3.4354	-3.8125	-3.6562	-3.5083	-3.8667	-3.5104	-3.5458	-3.8021	-3.2833	263.794	22.112	74.309	265.452	22.543	151.535	276.830	263.285	223.193	323.735	313.697	295.003	247.657	-25.962	195.335	269.797	0.00014339	0.0003484	7.6558e-05	1126.9	2.0527e-06	3.8851e-06	1193.2	238.28	1.1865e-06	3.3641e-06	297.09	82.427	64.464	18.974	1.2095e-06	26.675	0.00021869	0.00023182	6.3909e-05	1106.7	2.6703e-06	2.5049e-06	1175.9	235.96	2.5074e-06	2.5308e-06	295.22	83.083	64.811	19.13	2.2787e-06	27.061	108.444	47.249	84.946	-22.417	152.653	125.822	-22.211	-15.388	106.585	118.110	-15.438	-9.262	-8.504	-2.100	125.066	-1.865	-8191	255	
1030.580	1	1	0	0	0.063475	0.23185	0.14893	0.4833	0.075646	0.22662	0.2008	0.16557	0.11376	0.11613	0.13935	0.065135	0.16268	0.098944	0.1536	0.10021	-3.3667	-3.5479	-3.3833	-3.9437	-3.5021	-3.5208	-3.9542	-3.3146	-3.6979	-3.825	-3.5812	-3.8625	-3.6813	-3.5312	-3.8896	-3.4708	24.635	278.525	100.762	272.799	5.196	135.023	297.847	249.131	177.126	281.565	57.010	187.357	-30.508	-26.383	194.754	253.288	0.00013292	0.0003859	0.00015061	1123.7	2.4448e-06	3.6329e-06	1188.4	236.91	1.7171e-06	3.613e-06	296.33	82.615	64.556	18.912	3.3965e-06	26.605	0.00021553	0.00022314	6.2965e-05	1103.4	2.623e-06	2.4388e-06	1172.3	235.75	2.5299e-06	2.2966e-06	294.83	83.054	64.795	19.091	2.3777e-06	26.98	109.591	53.077	81.059	-22.437	138.386	108.659	-22.405	-15.378	136.155	132.665	-15.694	-9.177	-9.025	-2.208	97.433	-1.978	-8191	255	
1030.676	1	1	0	0	0.078099	0.10689	0.21296	0.06777	0.067289	0.15383	0.27045	0.15073	0.18811	0.17803	0.1898	0.043613	0.17234	0.051582	0.18645	0.14689	-3.3667	-3.6604	-3.3208	-3.9646	-3.7062	-3.4667	-3.9313	-3.4396	-3.6396	-3.7083	-3.325	-3.6813	-3.6417	-3.3792	-4.0208	-3.3667	40.951	281.912	309.701	288.379	-18.056	86.723	269.918	193.003	89.349	187.644	236.714	281.712	208.246	15.279	265.144	173.868	0.00013745	0.00023773	0.0001137	1120	4.2624e-06	3.24e-06	1186	236.25	1.5778e-06	2.2225e-06	295.13	82.202	65.02	18.932	2.8351e-06	26.584	0.00021902	0.00021562	6.2882e-05	1100.9	2.7105e-06	2.4574e-06	1170.1	235.15	2.5595e-06	2.3032e-06	294.41	82.877	64.757	19.06	2.3364e-06	26.974	109.658	55.983	48.702	-22.360	107.031	94.141	-22.570	-15.367	127.473	123.452	-15.615	-9.011	-8.856	-1.525	139.070	-2.194	-8191	255	
1030.772	1	1	0	0	0.057571	0.2582	0.10048	0.093622	0.094865	0.14541	0.14133	0.1698	0.076638	0.082943	0.49255	0.094845	0.19376	0.060262	0.11413	0.062857	-3.2292	-3.6937	-3.1375	-3.9562	-3.5958	-3.3708	-3.9896	-3.5354	-3.6604	-3.8021	-3.4583	-3.6396	-3.7562	-3.2104	-3.8958	-3.6271	-3.549	209.272	92.149	25.563	71.691	194.014	157.613	237.513	280.346	-3.950	259.156	207.958	190.442	141.358	286.982	-8.538	0.00012789	0.00018093	0.00015619	1116.8	1.7072e-06	3.7376e-06	1187.2	237.26	2.2671e-06	2.5928e-06	295.64	82.096	64.152	18.97	3.3373e-06	26.768	0.00020991	0.00020466	6.2218e-05	1097.5	2.6252e-06	2.5103e-06	1168.2	235.1	2.4875e-06	2.3448e-06	294.01	82.791	64.512	19.083	2.3496e-06	27.055	107.295	44.018	56.320	-22.469	173.722	117.871	-22.367	-15.312	137.358	150.909	-15.265	-9.332	-8.845	-1.747	108.002	-1.934	-8191	255	
1030.869	1	1	0	0	0.031168	0.11892	0.10613	0.19695	0.090487	0.071859	0.12672	0.26241	0.063774	0.01513	0.29263	0.30581	0.19258	0.1318	0.17062	0.20036	-3.2542	-3.7042	-3.2958	-3.7875	-3.6437	-3.3583	-4.0146	-3.5542	-3.3292	-3.9229	-3.5396	-3.5625	-3.6958	-3.2354	-3.8312	-3.5375	-0.313	248.072	148.218	241.229	217.303	187.678	262.584	280.864	217.372	278.068	0.995	-12.540	23.216	217.541	95.602	104.862	0.00014669	0.00024372	6.1906e-05	1117.6	2.5272e-06	3.8101e-06	1187.4	238.33	2.3118e-06	1.2425e-06	295.46	82.288	64.345	18.954	2.1017e-06	26.701	0.00022339	0.00021159	6.4438e-05	1099.2	2.626e-06	2.4962e-06	1169.5	235.73	2.6524e-06	2.2908e-06	294.3	83.002	64.604	19.158	2.4217e-06	27.047	89.371	81.829	87.841	-22.342	144.973	99.562	-22.363	-15.333	127.082	116.387	-15.484	-9.155	-8.618	-2.212	97.910	-2.391	-8191	255	
1030.989	1	1	0	0	0.23529	0.21166	0.10926	0.074507	0.11763	0.12062	0.1107	0.16	0.048636	0.15406	0.25199	0.15151	0.20683	0.061098	0.14065	0.19003	-3.0854	-3.6688	-3.2917	-3.5667	-3.8688	-3.3146	-3.8542	-3.6396	-3.4875	-3.9437	-3.5187	-3.6875	-3.8125	-3.0646	-3.7729	-3.6396	143.926	297.457	201.626	20.909	107.657	218.769	322.926	315.463	274.423	323.154	302.467	154.933	-32.541	118.141	-0.536	58.873	0.00013691	0.00019646	0.0001144	1119	2.7632e-06	4.2903e-06	1193.2	237.72	8.9246e-07	2.3366e-06	295.69	82.318	64.262	18.876	2.7841e-06	26.667	0.00021706	0.00021908	6.3038e-05	1100.2	2.5658e-06	2.5665e-06	1172.1	235.73	2.673e-06	2.2098e-06	295.12	82.843	64.775	19.096	2.4171e-06	27.011	105.923	77.216	55.548	-22.492	152.864	121.930	-22.327	-15.282	124.215	142.895	-15.566	-8.979	-9.116	-2.103	144.243	-2.469	-8191	255	
1031.085	1	1	0	0	0.11838	0.073976	0.16537	0.041094	0.21368	0.27519	0.22731	0.25809	0.059243	0.10243	0.22672	0.1462	0.11005	0.19109	0.070894	0.17038	-3.0333	-3.9229	-3.4083	-3.6896	-3.6542	-3.4208	-3.7646	-3.6937	-3.2979	-3.7604	-3.4667	-3.3917	-3.8688	-3.225	-3.7458	-3.6271	139.644	19.300	39.901	-32.476	54.905	205.250	269.334	317.851	236.690	273.960	289.627	232.828	178.183	314.782	125.504	32.232	0.00014103	0.00043011	6.0884e-05	1117.1	2.0667e-06	1.8977e-06	1190.1	237.57	2.2461e-06	2.7749e-06	295.56	82.677	64.405	18.957	2.9876e-06	26.62	0.00022277	0.00021338	6.53e-05	1099	2.5933e-06	2.538e-06	1169.2	235.38	2.6431e-06	2.3398e-06	294.3	82.934	64.561	19.099	2.4354e-06	26.92	99.555	59.448	59.654	-22.388	149.294	132.529	-22.388	-15.232	122.541	146.357	-15.628	-9.310	-8.779	-1.912	115.135	-2.465	-8191	255	
1031.180	1	1	0	0	0.071389	0.13691	0.19654	0.12482	0.1575	0.23668	0.10955	0.13418	0.018356	0.11237	0.054461	0.18698	0.093391	0.12634	0.15814	0.096344	-2.8937	-3.5979	-3.375	-3.5229	-3.8854	-3.3583	-3.8812	-3.8354	-3.2792	-3.85	-3.625	-3.3458	-3.8771	-3.3604	-3.6813	-3.6646	211.499	205.858	106.741	300.132	122.420	246.366	260.908	188.980	312.790	260.324	-12.638	272.270	225.440	33.423	30.385	90.026	0.00014389	0.00029778	0.00013131	1116.8	1.6837e-06	2.8024e-06	1185	237.08	1.8904e-06	2.4553e-06	296.38	82.298	64.159	18.909	3.5065e-06	26.71	0.0002315	0.00022758	6.4719e-05	1100.3	2.6282e-06	2.4611e-06	1170.3	235.4	2.6239e-06	2.4307e-06	294.51	82.734	64.614	19.093	2.5328e-06	26.946	109.912	75.875	66.765	-22.526	146.303	111.424	-22.375	-15.472	148.367	127.768	-15.527	-9.005	-9.109	-2.014	107.969	-2.259	-8191	255	
1031.278	1	1	0	0	0.045296	0.22905	0.075518	0.23471	0.1044	0.047878	0.2156	0.22872	0.020067	0.32881	0.1254	0.10387	0.18042	0.070897	0.13509	0.11475	-2.9417	-3.7729	-3.5771	-3.6479	-3.9146	-3.4333	-3.5167	-3.9625	-3.4229	-3.9333	-3.6542	-3.3542	-3.9188	-3.4813	-3.5708	-3.7854	239.458	34.998	253.479	258.797	120.857	304.743	181.570	292.248	237.910	99.311	73.242	304.013	290.932	54.003	86.380	56.845	0.00015465	0.00033973	6.1919e-05	1125.3	2.1961e-06	3.6957e-06	1184.7	237.59	1.366e-06	4.2265e-06	296.16	82.318	64.502	18.914	3.3228e-06	26.716	0.00022825	0.00023689	6.2021e-05	1102	2.6293e-06	2.5529e-06	1170.1	235.41	2.6655e-06	2.5686e-06	294.55	82.923	64.573	19.123	2.5274e-06	26.978	116.545	78.148	53.651	-22.386	99.338	137.935	-22.328	-15.355	113.197	114.218	-15.590	-9.055	-8.863	-1.785	146.462	-2.084	-8191	255	
1031.372	1	1	0	0	0.095916	0.13275	0.051701	0.33464	0.14357	0.13516	0.090192	0.13041	0.20366	0.15696	0.061835	0.2488	0.31389	0.067623	0.10386	0.24502	-2.9042	-3.7646	-3.5938	-3.4083	-3.9208	-3.5771	-3.4729	-3.7021	-3.225	-3.6312	-3.7271	-3.5229	-3.8708	-3.6729	-3.475	-3.8271	125.775	58.989	315.950	318.872	226.583	-15.671	33.734	40.646	270.474	100.940	313.918	311.421	-24.391	9.217	256.097	297.292	0.00013857	0.00021407	7.9604e-05	1121	3.5591e-06	2.1275e-06	1188.6	236.58	1.8255e-06	2.667e-06	297.08	82.902	64.31	18.854	2.7604e-06	26.588	0.00021959	0.00022251	6.5549e-05	1101.5	2.6117e-06	2.5037e-06	1171.8	235.38	2.6213e-06	2.5047e-06	295.06	83.076	64.784	19.051	2.4576e-06	26.981	114.182	67.912	42.117	-22.405	136.708	123.429	-22.595	-15.701	126.551	120.074	-15.608	-8.932	-8.984	-2.115	98.097	-2.075	-8191	255	
1031.468	1	1	0	0	0.44544	0.090011	0.14378	0.32767	0.12298	0.32344	0.16364	0.20195	0.40499	0.16674	0.28435	0.2637	0.2197	0.095925	0.17929	0.12443	-2.9562	-3.5125	-3.8104	-3.4667	-3.8646	-3.3729	-3.4479	-4.1354	-3.3583	-3.6729	-3.8083	-3.4167	-3.7458	-3.7271	-3.4167	-3.875	62.049	191.838	-4.518	291.205	215.550	96.535	120.805	15.150	94.781	134.942	-11.915	1.571	236.992	6.491	59.710	313.984	0.00013318	0.00037897	0.00010814	1122.5	2.6904e-06	2.9209e-06	1189	237.51	1.7945e-06	4.3229e-06	296.83	82.542	64.597	18.958	3.0824e-06	26.731	0.00023288	0.00023067	6.2913e-05	1100.9	2.6981e-06	2.4652e-06	1170.9	235.34	2.766e-06	2.5026e-06	294.93	82.947	64.626	19.134	2.5036e-06	27.066	98.073	70.598	64.610	-22.261	107.709	127.471	-22.426	-15.245	118.333	127.461	-15.495	-9.165	-8.845	-2.125	124.476	-2.465	-8191	255	
1031.589	1	1	0	0	0.059988	0.098516	0.31287	0.30958	0.28764	0.17303	0.11487	0.10999	0.094774	0.24066	0.10453	0.36525	0.066376	0.192	0.23114	0.20461	-2.9938	-3.4354	-3.8917	-3.525	-3.8688	-3.8458	-3.5458	-4.0396	-3.1688	-3.6188	-3.8521	-3.4021	-3.7583	-3.6104	-3.325	-3.8896	1.643	275.808	-16.489	280.380	27.204	1.560	203.734	277.759	-10.076	0.651	203.049	321.217	-32.930	46.235	284.358	-12.227	0.00011929	0.00021566	8.7962e-05	1118.4	1.8399e-06	2.7467e-06	1191.9	236.87	1.3559e-06	3.5554e-06	296.74	82.94	64.516	18.84	2.1717e-06	26.708	0.00022987	0.00023246	6.2363e-05	1098.7	2.5794e-06	2.3924e-06	1173.2	235.58	2.6813e-06	2.3335e-06	294.74	82.894	64.749	19.046	2.4635e-06	26.999	104.484	19.970	41.170	-22.289	131.868	112.483	-22.445	-15.452	104.026	153.909	-15.385	-9.281	-9.290	-2.005	110.773	-2.462	-8191	255	
1031.685	1	1	0	0	0.10349	0.17026	0.24527	0.15728	0.37314	0.082947	0.13524	0.012596	0.33668	0.4144	0.13378	0.14965	0.053466	0.055877	0.18846	0.13088	-3	-3.4646	-3.8333	-3.5062	-3.8021	-3.65	-3.6979	-3.9188	-3.5812	-3.5396	-4.0437	-3.5229	-3.6437	-3.5125	-3.4437	-3.8563	299.229	54.109	296.159	176.155	38.805	230.785	250.134	288.100	163.289	163.699	53.218	136.333	109.138	113.638	-6.503	232.917	0.00014787	0.00033251	6.8234e-05	1118.5	1.135e-06	2.3118e-06	1188.2	237.5	1.6974e-06	2.153e-06	296.63	82.265	64.898	18.903	3.879e-06	26.682	0.00022031	0.0002237	6.0537e-05	1099.6	2.576e-06	2.4334e-06	1171.6	235.5	2.5381e-06	2.3996e-06	294.59	82.862	64.756	19.069	2.7605e-06	26.975	109.884	66.515	38.018	-22.343	137.592	132.350	-22.278	-15.367	161.141	131.066	-15.341	-9.010	-8.464	-1.791	91.148	-2.361	-8191	255	
1031.781	1	1	0	0	0.044261	0.17492	0.13423	0.39172	0.129	0.14817	0.14384	0.093423	0.21699	0.24563	0.1839	0.17016	0.17783	0.091231	0.19508	0.1136	-3.1	-3.4646	-3.7396	-3.3667	-3.5062	-3.7833	-3.5062	-3.8958	-3.6292	-3.3979	-3.9292	-3.6083	-3.4396	-3.8688	-3.3104	-3.7958	320.673	117.523	147.295	306.793	40.980	82.624	304.774	258.128	273.816	38.981	1.029	298.736	30.074	298.803	19.322	310.882	0.00013523	0.00023883	5.636e-05	1122	4.9032e-07	2.8136e-06	1188.2	236.01	2.4797e-06	2.6513e-06	297.03	82.086	63.996	18.825	1.1921e-06	26.463	0.00022688	0.00022437	6.2923e-05	1101.1	2.6132e-06	2.4007e-06	1170.5	234.89	2.5958e-06	2.513e-06	294.86	82.747	64.443	19.034	2.5453e-06	26.877	111.689	68.669	88.256	-22.336	115.585	117.484	-22.342	-15.434	99.666	146.288	-15.600	-9.268	-8.443	-2.010	112.552	-1.973	-8191	255	
1031.877	1	1	0	0	0.13596	0.17772	0.25722	0.19006	0.069674	0.066567	0.12154	0.23947	0.17187	0.040629	0.21237	0.15566	0.15555	0.048619	0.042752	0.15461	-3.0396	-3.3312	-3.7167	-3.2542	-3.4854	-3.7167	-3.3	-3.7396	-3.5708	-3.1063	-3.7938	-3.3417	-3.575	-3.7062	-3.1021	-3.6688	141.431	294.578	48.372	242.394	301.580	70.725	283.155	34.702	3.406	210.633	291.621	12.290	88.210	164.180	56.230	142.672	0.00013734	0.00029966	5.8326e-05	1120.5	1.8149e-06	2.7929e-06	1186.3	237.27	1.8407e-06	2.2809e-06	295.17	82.33	64.446	18.752	1.8523e-06	26.564	0.00022698	0.00023447	6.1948e-05	1100.9	2.7068e-06	2.6538e-06	1169.4	234.92	2.6641e-06	2.6222e-06	294.18	82.688	64.531	18.982	2.6868e-06	26.959	107.243	76.562	100.620	-22.415	120.860	129.596	-22.433	-15.216	141.130	120.310	-15.554	-8.915	-8.838	-1.626	147.406	-2.338	-8191	255	
1031.973	1	1	0	0	0.10666	0.1276	0.086442	0.087463	0.37726	0.11807	0.13107	0.33018	0.12128	0.27749	0.02967	0.22135	0.11766	0.11821	0.17205	0.054132	-3.3833	-3.3021	-3.7792	-3.4229	-3.4917	-3.9229	-3.3958	-3.5771	-3.6229	-3.0896	-3.7667	-3.4354	-3.3625	-3.7875	-3.2062	-3.6604	130.620	243.398	14.665	21.437	106.952	256.299	279.605	284.451	236.333	234.940	26.222	321.238	132.982	297.251	7.578	68.035	0.00014166	0.00027156	9.9433e-05	1119.1	1.89e-06	4.2062e-06	1187.8	237.09	2.0858e-06	2.8677e-06	296.74	82.17	64.455	18.806	2.6614e-06	26.578	0.00023374	0.00024806	6.2342e-05	1100	2.8221e-06	2.4454e-06	1170.5	234.94	2.5707e-06	2.7576e-06	294.04	82.689	64.575	19.007	2.5905e-06	26.881	109.203	60.096	57.651	-22.473	149.140	123.840	-22.493	-15.583	104.683	135.490	-15.496	-9.086	-8.730	-1.820	162.919	-2.492	-8191	255	
1032.070	1	1	0	0	0.22722	0.088726	0.1579	0.035797	0.10419	0.155	0.30266	0.20016	0.079888	0.21084	0.16083	0.15559	0.069547	0.20289	0.29395	0.16268	-3.3083	-3.2354	-3.6146	-3.5917	-3.3833	-3.8375	-3.4042	-3.6729	-3.7396	-3.1521	-3.8542	-3.3271	-3.5062	-3.8646	-3.3667	-3.5104	25.576	101.370	29.421	182.239	264.771	207.065	318.590	239.286	202.974	15.230	80.176	280.923	53.829	277.688	319.535	107.385	0.00012882	0.00040522	0.0001246	1117.2	2.1607e-06	2.9598e-06	1192.4	235.97	1.6892e-06	2.713e-06	295.81	81.771	63.869	18.852	2.1182e-06	26.479	0.00022746	0.00024192	6.4584e-05	1099.7	2.85e-06	2.354e-06	1171.4	234.88	2.7203e-06	2.5857e-06	294.32	82.516	64.266	19.026	2.5968e-06	26.842	109.055	50.722	50.026	-22.378	126.537	121.942	-22.267	-15.347	139.409	93.726	-15.325	-8.836	-8.881	-2.009	94.379	-1.986	-8191	255	
1032.166	1	1	0	0	0.33964	0.092909	0.1806	0.12791	0.22542	0.13722	0.12736	0.26562	0.19873	0.15744	0.26444	0.19093	0.14304	0.090466	0.10141	0.25113	-3.1229	-3.1271	-3.7833	-3.6354	-3.3917	-3.8417	-3.5833	-3.6667	-3.7792	-3.2542	-3.5792	-3.6479	-3.4667	-3.8396	-3.3896	-3.4688	176.746	308.449	31.874	302.806	-3.417	-0.992	20.438	323.871	140.928	138.262	288.348	264.924	149.875	120.614	245.299	224.870	0.00012912	0.00015622	8.9927e-05	1116.4	2.7066e-06	2.6409e-06	1188.2	237.66	9.6819e-07	2.6214e-06	296.8	81.969	63.998	18.842	2.6776e-06	26.701	0.00022139	0.00023953	6.2228e-05	1100.6	2.965e-06	2.5161e-06	1170.2	235.15	2.5741e-06	2.6123e-06	294.24	82.603	64.371	19.002	2.5703e-06	26.879	108.271	68.146	58.665	-22.483	117.296	130.110	-22.419	-15.520	114.399	104.096	-15.514	-9.121	-8.924	-1.637	117.784	-2.412	-8191	255	
1032.262	1	1	0	0	0.1808	0.17907	0.05209	0.11696	0.13479	0.14263	0.14913	0.05281	0.18326	0.23492	0.28185	0.20497	0.18407	0.12785	0.22756	0.36205	-3.4583	-3.3063	-3.6333	-3.7104	-3.325	-3.7687	-3.575	-3.3917	-3.5979	-3.4771	-3.6312	-3.7167	-3.3458	-3.8771	-3.4437	-3.3063	151.988	-24.244	-6.643	154.793	215.867	263.518	305.107	297.269	324.737	284.069	273.482	35.668	319.044	21.237	86.481	308.182	0.00015907	0.00032171	9.4563e-05	1118.7	3.7413e-06	3.2739e-06	1189.3	236.27	1.5571e-06	3.2837e-06	296.41	82.346	64.185	18.917	1.9291e-06	26.662	0.00022942	0.00023734	6.4854e-05	1101.5	2.821e-06	2.4218e-06	1171.3	234.47	2.6359e-06	2.4947e-06	293.67	82.77	64.386	19.028	2.5555e-06	26.872	106.774	65.362	67.441	-22.597	118.214	121.363	-22.454	-14.938	128.314	158.370	-15.422	-8.950	-8.685	-2.102	131.225	-2.336	-8191	255	
1032.381	1	1	0	0	0.12259	0.17779	0.19576	0.15385	0.097994	0.074053	0.24225	0.13336	0.19384	0.18847	0.093517	0.036943	0.30889	0.13963	0.13111	0.11433	-3.3312	-3.475	-3.5646	-3.8854	-3.3042	-3.8604	-3.7146	-3.5229	-3.6375	-3.4333	-3.7396	-3.7646	-3.2167	-3.9188	-3.5792	-3.4917	267.326	197.544	216.511	287.361	209.693	260.992	235.306	9.749	161.618	143.679	63.519	269.562	42.830	293.495	322.242	284.730	0.00012615	0.00026433	8.9444e-05	1118.7	2.8632e-06	3.2135e-06	1184.1	236.28	1.7917e-06	2.6254e-06	295.68	81.872	64.014	18.8	2.6328e-06	26.353	0.00022698	0.0002338	6.2332e-05	1100.8	2.8383e-06	2.4789e-06	1169.8	235.1	2.6558e-06	2.5931e-06	293.73	82.741	64.313	19.009	2.5933e-06	26.849	96.754	62.927	59.231	-22.403	113.027	125.556	-22.448	-15.034	97.043	143.890	-15.614	-9.214	-9.325	-2.009	145.410	-2.209	-8191	255	
1032.477	1	1	0	0	0.031617	0.11062	0.21843	0.28224	0.1662	0.095726	0.20624	0.10567	0.17678	0.096884	0.085604	0.13705	0.12221	0.04063	0.18557	0.1356	-3.3917	-3.2604	-3.5167	-3.7792	-3.4396	-3.6229	-3.7646	-3.2687	-3.8312	-3.3875	-3.6063	-3.7708	-3.3104	-3.7167	-3.65	-3.225	242.364	83.443	52.716	317.225	53.135	236.880	277.782	272.656	121.838	258.492	-16.430	17.137	31.700	188.071	322.210	199.467	0.0001528	0.00015858	0.00010418	1118.9	3.6213e-06	4.0985e-06	1192.9	236.67	2.2901e-06	4.5933e-06	296.56	81.894	64.242	18.95	1.8978e-06	26.425	0.00021596	0.00023409	6.4034e-05	1100	2.8578e-06	2.648e-06	1173	234.92	2.5797e-06	2.6152e-06	294.18	82.683	64.42	18.991	2.5742e-06	26.848	105.765	45.857	72.586	-22.529	138.242	121.747	-22.271	-15.215	121.050	116.149	-15.447	-9.107	-8.497	-1.931	121.652	-2.080	-8191	255	
1032.550	1	1	0	0	0.18423	0.015862	0.21728	0.19444	0.091364	0.11091	0.084553	0.33549	0.16922	0.24433	0.089786	0.20974	0.13742	0.27023	0.077914	0.14733	-3.4771	-3.35	-3.3312	-3.9437	-3.1708	-3.5625	-3.725	-3.1667	-3.7167	-3.5187	-3.425	-3.8438	-3.3937	-3.4813	-3.7396	-3.2062	94.407	241.405	132.536	205.282	4.565	10.293	45.485	285.918	-25.391	31.011	266.214	248.806	56.824	326.226	125.755	92.825	0.00011462	0.00033515	6.4156e-05	1121.3	1.0184e-06	2.6489e-06	1187.9	236.8	1.1033e-06	3.3896e-06	296.1	82.385	64.106	18.957	2.7175e-06	26.597	0.00021794	0.00024609	6.558e-05	1101.9	2.9154e-06	2.6331e-06	1171	235.18	2.5917e-06	2.6459e-06	294.38	82.808	64.455	19.092	2.5457e-06	26.913	102.788	64.756	66.809	-22.344	69.650	89.155	-22.517	-15.283	65.803	142.108	-15.177	-9.048	-9.039	-1.955	132.496	-2.200	-8191	255	
1032.669	1	1	0	0	0.074215	0.18397	0.18696	0.31096	0.18762	0.063904	0.27489	0.23577	0.11744	0.064571	0.039287	0.24972	0.33515	0.12076	0.079752	0.19228	-3.2875	-3.3667	-3.2	-3.825	-3.4208	-3.5083	-3.8979	-3.2438	-3.6958	-3.45	-3.2917	-3.8521	-3.3792	-3.5458	-3.6729	-3.3375	140.493	32.108	248.501	13.149	142.800	69.872	244.996	280.279	298.776	156.527	24.597	-6.547	52.812	35.912	36.661	124.062	0.00012872	0.00032931	7.4359e-05	1122.1	2.0824e-06	4.3447e-06	1185.3	235.98	1.4925e-06	2.4183e-06	296.12	82.05	64.095	18.907	2.4288e-06	26.733	0.00022461	0.00024151	6.6555e-05	1102.3	2.6951e-06	2.4933e-06	1169.5	234.81	2.6506e-06	2.6015e-06	294.56	82.64	64.562	19.065	2.5157e-06	26.987	105.454	92.298	63.928	-22.365	117.543	109.553	-22.373	-15.376	133.966	102.812	-15.328	-9.093	-8.866	-2.078	133.230	-2.123	-8191	255	
1032.765	1	1	0	0	0.23673	0.052195	0.19662	0.06919	0.054089	0.097211	0.11571	0.20221	0.047335	0.2336	0.19568	0.13236	0.095179	0.14609	0.057951	0.091875	-3.1562	-3.5167	-3.2896	-3.9833	-3.3583	-3.35	-3.9396	-3.4188	-3.525	-3.5646	-3.2438	-3.8063	-3.3646	-3.4896	-3.7479	-3.4396	197.479	-8.848	317.430	52.160	49.121	126.140	296.456	293.126	65.254	-32.451	269.413	221.946	176.740	324.672	324.745	137.890	0.00012735	0.00025204	0.00010051	1120.6	2.885e-06	3.1796e-06	1186.2	237.14	2.0875e-06	3.108e-06	296.04	81.907	64.338	18.916	2.3344e-06	26.631	0.00022626	0.0002253	6.724e-05	1101.9	2.8406e-06	2.6546e-06	1170.8	235.17	2.6745e-06	2.5416e-06	294.08	82.712	64.551	19.057	2.4674e-06	26.9	102.707	71.890	43.550	-22.360	119.922	124.761	-22.403	-15.611	133.831	121.444	-15.527	-9.229	-8.968	-2.037	122.120	-2.281	-8191	255	
1032.862	1	1	0	0	0.16178	0.09543	0.17866	0.36757	0.25485	0.12542	0.16837	0.19333	0.12128	0.10607	0.23071	0.16356	0.25591	0.03006	0.19907	0.04126	-3.0812	-3.6063	-3.2313	-3.9604	-3.5812	-3.5333	-3.9021	-3.3438	-3.5375	-3.5292	-3.2604	-3.8438	-3.3854	-3.4	-3.8979	-3.3917	324.095	233.619	287.638	292.940	297.438	122.817	278.380	75.658	46.394	116.584	302.607	83.765	307.951	-24.282	34.443	45.341	0.00014768	0.00037615	0.00010249	1119.2	2.4107e-06	2.6761e-06	1189.6	235.52	1.4451e-06	1.7044e-06	295.17	82.163	64.621	18.904	2.8518e-06	26.718	0.00022069	0.00022966	6.7178e-05	1102.4	2.768e-06	2.5992e-06	1171.3	235.09	2.6862e-06	2.5749e-06	294.35	82.885	64.473	19.052	2.4829e-06	27.026	110.123	49.697	48.074	-22.377	97.109	119.028	-22.453	-15.152	122.795	144.071	-15.389	-9.124	-9.037	-2.091	96.574	-2.340	-8191	255	
1032.958	1	1	0	0	0.1515	0.090953	0.15302	0.10712	0.18763	0.24666	0.056998	0.2015	0.31258	0.17364	0.099552	0.12628	0.055386	0.048147	0.083164	0.03274	-3.1167	-3.675	-3.2875	-3.8812	-3.5687	-3.3063	-4.1229	-3.4437	-3.5104	-3.8271	-3.4542	-3.7042	-3.5083	-3.325	-3.8208	-3.4354	228.686	54.326	159.901	-13.096	6.283	59.482	177.701	185.132	252.572	78.217	-4.763	19.392	304.208	246.287	308.597	91.880	0.00013194	0.00022831	0.00010802	1123.8	2.0849e-06	2.2835e-06	1188.1	236.55	2.4012e-06	2.99e-06	295.3	81.556	63.994	18.889	3.4784e-06	26.632	0.00023114	0.00022925	6.366e-05	1105	2.7436e-06	2.5111e-06	1171.2	235.11	2.7656e-06	2.4677e-06	294.04	82.481	64.522	19.056	2.5188e-06	26.961	104.073	86.354	80.284	-22.557	155.416	80.645	-22.399	-15.527	109.315	108.722	-15.775	-9.217	-8.905	-1.770	110.327	-2.024	-8191	255	
1033.078	1	1	0	0	0.28066	0.088303	0.15134	0.15782	0.18667	0.24984	0.12726	0.073174	0.089537	0.082267	0.21563	0.29206	0.11803	0.06073	0.049901	0.10964	-3.1	-3.9188	-3.0833	-3.8563	-3.5875	-3.2833	-4.0542	-3.5	-3.3708	-3.7229	-3.4021	-3.6437	-3.6	-3.3125	-3.6625	-3.5979	212.456	267.857	7.165	227.730	35.993	60.394	240.819	326.514	-20.832	267.578	273.621	66.036	17.302	273.378	245.378	234.136	0.00013399	0.00015365	9.0951e-05	1119.9	1.447e-06	2.543e-06	1190	237.15	1.7827e-06	4.2184e-06	297.01	82.523	64.027	18.994	1.9158e-06	26.793	0.00023343	0.00022988	6.7925e-05	1102.4	2.7004e-06	2.5769e-06	1172.3	235.64	2.7821e-06	2.5765e-06	294.64	82.781	64.436	19.133	2.4385e-06	26.961	106.740	73.357	71.491	-22.388	103.816	145.053	-22.560	-15.248	154.600	143.438	-15.478	-9.547	-9.078	-1.948	160.087	-2.079	-8191	255	
#DATA ENDS
