BOXY.EXE: ISS Imagent and Oximeter Data Acquisition Program Version 0.80
Ascii Record File

#ACQ INFORMATION
2  Detector Channels 
16  External MUX Channels 
1  Auxiliary Channels 
5000  Waveform (CCF) Frequency (Hz)
1  Waveforms Skipped 
30  Waveforms Averaged 
1  Cycles Averaged 
16  Acquisitions per Waveform 
10.0806  Updata Rate (Hz) 

#FILE INFORMATION
TRUE -- External MUX Channel results are PARSED.
FALSE -- AC DC and Phase are NOT grouped.
TRUE -- Companion Program Settings File CREATED.
FALSE -- AC data not excluded
FALSE -- DC data not excluded
FALSE -- Phase data not excluded
FALSE -- Auxillary Chn. data not excluded
Tab delimiters

#CALIBRATION STATE
TRUE -- Waveform Calibration Values APPLIED.


#AUX CALIBRATION VALUES
Val Type	aux-1	

Term	1.0000e+00	
Factor	0.0000e+00	


#WF CALIBRATION VALUES
A = Detector Channel
Val Type	A-AC1	A-AC2	A-AC3	A-AC4	A-AC5	A-AC6	A-AC7	A-AC8	A-AC9	A-AC10	A-AC11	A-AC12	A-AC13	A-AC14	A-AC15	A-AC16	A-DC1	A-DC2	A-DC3	A-DC4	A-DC5	A-DC6	A-DC7	A-DC8	A-DC9	A-DC10	A-DC11	A-DC12	A-DC13	A-DC14	A-DC15	A-DC16	A-Ph1	A-Ph2	A-Ph3	A-Ph4	A-Ph5	A-Ph6	A-Ph7	A-Ph8	A-Ph9	A-Ph10	A-Ph11	A-Ph12	A-Ph13	A-Ph14	A-Ph15	A-Ph16	

Term	0.00000e+00	0.00000e+00	0.00000e+00	0.00000e+00	0.00000e+00	0.00000e+00	0.00000e+00	0.00000e+00	0.00000e+00	0.00000e+00	0.00000e+00	0.00000e+00	0.00000e+00	0.00000e+00	0.00000e+00	0.00000e+00	0.00000e+00	0.00000e+00	0.00000e+00	0.00000e+00	0.00000e+00	0.00000e+00	0.00000e+00	0.00000e+00	0.00000e+00	0.00000e+00	0.00000e+00	0.00000e+00	0.00000e+00	0.00000e+00	0.00000e+00	0.00000e+00	0.00000e+00	0.00000e+00	0.00000e+00	0.00000e+00	0.00000e+00	0.00000e+00	0.00000e+00	0.00000e+00	0.00000e+00	0.00000e+00	0.00000e+00	0.00000e+00	0.00000e+00	0.00000e+00	0.00000e+00	0.00000e+00	
Factor	1.00000e+00	1.00000e+00	1.00000e+00	1.00000e+00	1.00000e+00	1.00000e+00	1.00000e+00	1.00000e+00	1.00000e+00	1.00000e+00	1.00000e+00	1.00000e+00	1.00000e+00	1.00000e+00	1.00000e+00	1.00000e+00	1.00000e+00	1.00000e+00	1.00000e+00	1.00000e+00	1.00000e+00	1.00000e+00	1.00000e+00	1.00000e+00	1.00000e+00	1.00000e+00	1.00000e+00	1.00000e+00	1.00000e+00	1.00000e+00	1.00000e+00	1.00000e+00	X	X	X	X	X	X	X	X	X	X	X	X	X	X	X	X	

B = Detector Channel
Val Type	B-AC1	B-AC2	B-AC3	B-AC4	B-AC5	B-AC6	B-AC7	B-AC8	B-AC9	B-AC10	B-AC11	B-AC12	B-AC13	B-AC14	B-AC15	B-AC16	B-DC1	B-DC2	B-DC3	B-DC4	B-DC5	B-DC6	B-DC7	B-DC8	B-DC9	B-DC10	B-DC11	B-DC12	B-DC13	B-DC14	B-DC15	B-DC16	B-Ph1	B-Ph2	B-Ph3	B-Ph4	B-Ph5	B-Ph6	B-Ph7	B-Ph8	B-Ph9	B-Ph10	B-Ph11	B-Ph12	B-Ph13	B-Ph14	B-Ph15	B-Ph16	

Term	0.00000e+00	0.00000e+00	0.00000e+00	0.00000e+00	0.00000e+00	0.00000e+00	0.00000e+00	0.00000e+00	0.00000e+00	0.00000e+00	0.00000e+00	0.00000e+00	0.00000e+00	0.00000e+00	0.00000e+00	0.00000e+00	0.00000e+00	0.00000e+00	0.00000e+00	0.00000e+00	0.00000e+00	0.00000e+00	0.00000e+00	0.00000e+00	0.00000e+00	0.00000e+00	0.00000e+00	0.00000e+00	0.00000e+00	0.00000e+00	0.00000e+00	0.00000e+00	-1.56894e+02	-1.27752e+02	-1.28220e+02	-1.82394e+02	-8.05549e+01	-6.51345e+01	-1.55939e+02	-1.62015e+02	-8.46711e+01	-6.06474e+01	-1.70818e+02	-1.71805e+02	-1.80520e+02	-1.77372e+02	-7.45731e+01	-1.49506e+02	
Factor	2.48450e-05	1.80034e-04	5.53765e-05	1.74917e-01	1.47804e-06	1.91503e-06	1.73878e-01	5.40847e-02	1.39976e-06	1.81173e-06	9.61147e-02	3.08946e-02	3.55403e-02	9.85352e-03	1.70142e-06	1.43833e-02	1.14720e-05	1.78812e-05	4.98075e-06	8.74279e-02	1.80401e-07	1.98474e-07	8.17633e-02	2.71597e-02	1.79927e-07	1.99377e-07	4.67774e-02	1.50850e-02	1.80288e-02	4.99142e-03	1.87127e-07	7.05837e-03	X	X	X	X	X	X	X	X	X	X	X	X	X	X	X	X	



#DISTANCE SETTINGS
A = Detector Channel
A-1	A-2	A-3	A-4	A-5	A-6	A-7	A-8	A-9	A-10	A-11	A-12	A-13	A-14	A-15	A-16	

2.5000e+00	3.0000e+00	2.5000e+00	3.0000e+00	2.0000e+00	3.0000e+00	1.5000e+00	3.0000e+00	3.0000e+00	3.0000e+00	3.0000e+00	3.0000e+00	3.0000e+00	3.0000e+00	1.5000e+00	3.0000e+00	

B = Detector Channel
B-1	B-2	B-3	B-4	B-5	B-6	B-7	B-8	B-9	B-10	B-11	B-12	B-13	B-14	B-15	B-16	

1.0000e+01	1.0000e+01	1.0000e+01	1.4400e+00	1.0000e+01	1.0000e+01	1.5100e+00	1.9400e+00	1.0000e+01	1.0000e+01	1.9900e+00	2.4900e+00	2.4100e+00	2.9000e+00	1.0000e+01	2.9800e+00	




#DATA BEGINS
time	group	step	mark	flag	A-AC1	A-AC2	A-AC3	A-AC4	A-AC5	A-AC6	A-AC7	A-AC8	A-AC9	A-AC10	A-AC11	A-AC12	A-AC13	A-AC14	A-AC15	A-AC16	A-DC1	A-DC2	A-DC3	A-DC4	A-DC5	A-DC6	A-DC7	A-DC8	A-DC9	A-DC10	A-DC11	A-DC12	A-DC13	A-DC14	A-DC15	A-DC16	A-Ph1	A-Ph2	A-Ph3	A-Ph4	A-Ph5	A-Ph6	A-Ph7	A-Ph8	A-Ph9	A-Ph10	A-Ph11	A-Ph12	A-Ph13	A-Ph14	A-Ph15	A-Ph16	B-AC1	B-AC2	B-AC3	B-AC4	B-AC5	B-AC6	B-AC7	B-AC8	B-AC9	B-AC10	B-AC11	B-AC12	B-AC13	B-AC14	B-AC15	B-AC16	B-DC1	B-DC2	B-DC3	B-DC4	B-DC5	B-DC6	B-DC7	B-DC8	B-DC9	B-DC10	B-DC11	B-DC12	B-DC13	B-DC14	B-DC15	B-DC16	B-Ph1	B-Ph2	B-Ph3	B-Ph4	B-Ph5	B-Ph6	B-Ph7	B-Ph8	B-Ph9	B-Ph10	B-Ph11	B-Ph12	B-Ph13	B-Ph14	B-Ph15	B-Ph16	aux-1	digaux	

1580.883	1	1	0	256	0.18168	0.12326	0.18865	0.19088	0.11441	0.077702	0.061017	0.14664	0.21015	0.15346	0.10258	0.24825	0.17774	0.15992	0.035211	0.257	-2.5563	-3.2125	-2.7604	-3.3417	-2.9813	-2.9667	-3.6375	-2.9042	-2.9625	-3.3833	-2.8583	-3.1375	-3.1354	-3.0667	-3.0563	-2.9917	72.658	-12.136	-25.924	261.846	28.108	66.669	124.441	180.722	89.472	-42.651	271.927	217.754	248.434	183.762	-65.079	270.568	0.00020352	0.0012744	0.00010594	979.89	5.1738e-06	3.774e-06	810.64	282.83	7.7097e-06	4.71e-06	250.11	93.32	103.59	48.415	1.0111e-05	42.338	0.0042413	0.0063724	0.0017592	931.97	6.764e-05	6.9791e-05	773.12	271.69	6.2843e-05	6.9337e-05	249.02	92.012	103.22	46.996	6.49e-05	41.818	132.160	12.316	220.268	-62.410	111.973	-51.045	-63.848	-57.271	4.129	170.340	-60.235	-56.467	-53.330	-48.066	-11.704	-52.134	-8191	255	
1580.979	1	1	0	0	0.14439	0.045628	0.15516	0.33598	0.037899	0.097571	0.095316	0.1663	0.17653	0.13879	0.093431	0.26733	0.080443	0.11382	0.18646	0.20067	-2.7313	-3.2167	-2.6208	-3.2083	-3.0542	-2.8292	-3.4188	-3.1229	-2.8479	-3.3604	-2.9292	-3.1396	-3.0208	-2.8604	-3.3146	-2.9479	-28.764	186.752	268.056	244.968	-27.754	-23.174	106.910	227.177	201.000	10.344	264.458	252.271	-62.211	-59.586	277.672	-22.498	0.00020034	0.0007995	9.754e-05	987.22	5.6113e-06	4.0305e-06	805.26	283.09	3.0514e-06	1.2227e-05	246.83	91.817	102.48	47.68	2.9207e-06	41.109	0.0041402	0.0063354	0.001735	941.65	6.4e-05	7.3388e-05	773.07	271.04	6.1857e-05	6.6722e-05	244.64	90.524	101.83	46.402	6.3362e-05	40.985	150.316	13.675	-65.820	-62.382	21.710	111.823	-63.889	-57.259	71.205	25.314	-60.251	-56.561	-53.468	-48.292	115.175	-51.912	-8191	255	
1581.075	1	1	0	0	0.20697	0.17269	0.019591	0.11447	0.067238	0.24637	0.21733	0.074478	0.083142	0.21002	0.14457	0.16073	0.26086	0.34269	0.17773	0.20323	-2.4938	-3.3083	-2.7708	-3.1667	-3.1667	-2.8583	-3.25	-2.9604	-2.8917	-3.3458	-2.7271	-3.0563	-3.1979	-2.8792	-3.1521	-3.175	154.253	33.454	82.920	175.284	-56.925	53.253	185.937	-74.076	-15.206	130.315	192.878	221.235	215.694	260.052	24.281	228.428	9.4547e-05	0.0010906	0.00021913	975.51	3.6339e-06	1.2055e-05	797.51	279.83	9.6456e-07	6.9057e-06	247.09	90.776	102.68	47.868	1.0353e-05	41.633	0.0040829	0.0061997	0.0017153	924.71	6.321e-05	7.4369e-05	761.35	268.45	6.3722e-05	7.1377e-05	245.86	90.468	102.21	46.376	6.704e-05	41.231	163.562	-34.700	109.022	-62.465	53.737	12.710	-63.953	-57.295	53.188	-48.814	-60.746	-56.383	-53.229	-48.262	28.259	-52.233	-8191	255	
1581.196	1	1	0	0	0.19425	0.1016	0.086426	0.21346	0.18797	0.13555	0.3398	0.29415	0.22049	0.0079153	0.01374	0.084883	0.23882	0.030412	0.29104	0.067552	-2.4854	-3.1312	-2.7792	-3.3667	-3.3229	-2.7917	-3.35	-3.0979	-2.9958	-3.4083	-2.9854	-2.9875	-3.2562	-2.7375	-3.2188	-3.1354	105.571	170.471	-38.040	174.857	35.828	253.750	-67.832	181.600	277.665	-37.319	66.972	63.811	-63.809	89.817	-28.770	173.819	0.00026303	0.0003792	0.00031952	980.7	6.7436e-06	1.3825e-05	801.61	286.65	3.3928e-06	8.0498e-06	251.76	93.845	104.93	48.275	2.4865e-06	41.711	0.0042814	0.0063628	0.0018055	933.11	6.5188e-05	7.7601e-05	771.31	274.9	6.5419e-05	7.1451e-05	251.66	92.612	104.67	47.083	7.3905e-05	41.843	133.718	-17.875	11.821	-62.375	5.839	-48.435	-63.813	-57.422	-73.148	75.345	-59.944	-56.728	-53.158	-48.210	208.421	-52.014	-8191	255	
1581.292	1	1	0	0	0.14211	0.17441	0.070342	0.081889	0.10389	0.13873	0.25829	0.15714	0.21388	0.29095	0.16533	0.17882	0.12467	0.27295	0.14965	0.092486	-2.3875	-3.3896	-2.8958	-3.0938	-3.2292	-2.6667	-3.275	-3.2042	-2.9896	-3.3833	-2.9125	-2.9125	-3.3458	-3.0604	-3.1771	-2.9104	184.545	76.053	237.059	64.285	-71.106	209.325	273.614	244.444	70.319	21.579	215.323	-12.401	211.091	201.307	-2.405	222.489	0.00013048	0.0011023	0.00024072	988.51	3.0951e-06	1.1074e-05	819.77	289.89	2.3049e-06	1.4291e-06	260.3	95.61	105.58	48.836	5.5812e-06	43.117	0.0050312	0.0071596	0.0019835	943.29	7.1861e-05	8.2961e-05	785.43	279.28	7.0366e-05	7.5937e-05	258.24	94.26	105.64	47.613	7.0104e-05	42.684	99.728	-3.098	-28.533	-62.485	-53.452	70.534	-64.307	-57.653	-18.756	255.965	-60.214	-56.532	-54.087	-48.084	-14.314	-52.553	-8191	255	
1581.364	1	1	0	0	0.29411	0.091657	0.14641	0.14568	0.083666	0.18115	0.31123	0.1193	0.052556	0.011139	0.23558	0.05012	0.21857	0.078503	0.043906	0.10977	-2.3479	-3.225	-3.0479	-3.1063	-3.3	-2.7229	-3.2083	-3.2667	-2.7458	-3.3292	-3.0667	-3.0521	-3.4	-2.9625	-3.3333	-3.3292	152.422	277.986	82.672	214.797	-20.921	268.917	187.330	176.822	-40.426	238.662	-0.845	167.777	224.355	231.886	87.204	-46.353	0.00015454	0.0015029	0.00015615	994.4	5.2002e-06	5.1288e-06	831.6	294.23	3.9864e-06	1.2094e-05	259.58	94.979	105.36	48.303	1.5649e-05	41.908	0.0047657	0.0068816	0.0019269	950.21	7.0697e-05	8.6591e-05	795.4	283.82	7.167e-05	7.9838e-05	259.73	94.475	105.49	47.271	7.5475e-05	41.904	136.575	39.504	90.375	-62.526	116.660	-43.100	-64.105	-57.480	-11.201	28.375	-60.955	-56.490	-53.702	-48.367	-47.160	-52.380	-8191	255	
1581.460	1	1	0	0	0.2113	0.11827	0.07402	0.030257	0.29334	0.11383	0.19844	0.21719	0.27406	0.14888	0.05049	0.20795	0.12007	0.11842	0.045972	0.21713	-2.4917	-3.1854	-3.2083	-3.0438	-3.3937	-2.9375	-3.1167	-3.3271	-2.8125	-3.2687	-3.2479	-3.1937	-3.3479	-2.8667	-3.0083	-3.4042	279.884	105.963	76.044	260.166	127.229	244.098	231.950	220.815	-59.224	43.868	279.089	263.105	89.197	-46.078	37.198	205.923	0.00034837	0.0012869	0.00020903	963.99	9.369e-06	9.3856e-06	797.72	285.88	2.8925e-06	8.6374e-06	250.79	92.324	103.67	47.85	2.6319e-06	41.271	0.0051405	0.0071567	0.0019942	925.12	7.0279e-05	8.3578e-05	765.38	275.96	6.8431e-05	7.5236e-05	250.17	91.859	103.18	46.541	7.137e-05	41.009	73.274	4.425	65.549	-62.460	24.288	57.531	-63.829	-57.759	166.915	58.197	-60.071	-56.425	-53.292	-48.551	121.507	-51.850	-8191	255	
1581.580	1	1	0	0	0.15851	0.16357	0.10514	0.10594	0.24162	0.31337	0.067634	0.1543	0.16933	0.14451	0.084481	0.17312	0.094804	0.2677	0.19596	0.11835	-2.35	-3.4458	-3.1854	-2.7583	-3.175	-3.0375	-3.2	-3.325	-2.5938	-3.1	-3.375	-2.8104	-3.4188	-2.9083	-2.8021	-3.4771	64.854	9.125	-46.860	279.458	212.838	-74.115	-67.285	53.571	185.015	62.989	47.992	280.985	-39.228	185.342	153.636	155.897	0.00013589	0.001106	0.0004175	963.1	4.9701e-06	8.1195e-06	796.45	284.83	1.0407e-05	1.9499e-06	248.97	92.251	104.39	47.887	5.6699e-06	41.906	0.0047605	0.0069338	0.0019316	919.16	6.7651e-05	8.1613e-05	762.26	274.4	6.3785e-05	6.8977e-05	247.86	91.141	102.55	46.444	6.0029e-05	41.166	139.229	6.463	94.704	-62.384	80.804	109.998	-64.305	-57.654	79.935	145.804	-60.284	-56.363	-53.565	-48.512	152.306	-52.202	-8191	255	
1581.677	1	1	0	0	0.20833	0.099395	0.25108	0.039671	0.071657	0.18434	0.26474	0.16656	0.085527	0.13526	0.17304	0.16486	0.19403	0.20787	0.12544	0.12415	-2.4813	-3.2229	-3.2104	-2.7938	-3.0958	-3.225	-3.0979	-3.4625	-2.7188	-3.3792	-3.4729	-2.6646	-3.0979	-2.9521	-2.8	-3.4437	-43.225	118.919	144.444	265.797	59.436	189.094	198.129	-52.666	77.789	-64.619	-21.225	212.181	251.583	169.111	122.737	209.515	0.0002586	0.0012424	0.00031182	966.33	9.2519e-06	8.1839e-06	797.6	289.59	5.6996e-06	7.1358e-06	254.09	93.286	104.59	48.499	9.1732e-06	42.225	0.0041715	0.0057382	0.0015702	916.65	5.807e-05	6.7778e-05	765.48	276.47	6.024e-05	6.8111e-05	250.12	92.282	103.53	46.994	6.2959e-05	41.792	113.749	-9.750	17.165	-62.410	33.297	157.073	-63.918	-57.786	93.958	193.646	-60.193	-56.511	-53.616	-48.465	67.753	-52.240	-8191	255	
1581.773	1	1	0	0	0.22675	0.27813	0.16151	0.33052	0.11057	0.085945	0.060637	0.35155	0.12429	0.039353	0.2829	0.084793	0.23414	0.093227	0.25965	0.32935	-2.6625	-2.8396	-3.2042	-2.9646	-3.2979	-3.0167	-3.0187	-3.3375	-3.0125	-3.2188	-3.3167	-2.8521	-3.0833	-3.2833	-2.6729	-3.3354	-74.694	-27.704	186.768	260.513	148.389	26.875	254.240	180.646	-61.776	117.799	-43.908	231.810	-5.878	46.917	40.519	-38.241	0.00025961	0.0010903	0.00030408	974.89	6.1189e-06	6.4984e-06	812.1	289.69	5.1003e-06	8.2083e-06	254.54	94.327	105.68	48.591	1.1259e-05	42.086	0.0042249	0.005958	0.0016213	922.65	5.9452e-05	6.443e-05	775.81	277.47	5.9923e-05	6.5855e-05	251.58	93.227	104.02	47.187	6.415e-05	41.641	147.549	32.437	50.809	-62.360	65.768	206.600	-64.236	-57.522	85.489	106.510	-60.539	-56.525	-53.607	-48.439	252.716	-52.105	-8191	255	
1581.892	1	1	0	0	0.26437	0.26247	0.2638	0.12472	0.096068	0.18871	0.064425	0.13234	0.23169	0.11639	0.063365	0.16629	0.022145	0.10602	0.020887	0.27073	-2.4938	-2.9542	-2.9417	-2.7042	-3.3917	-3.2083	-2.6437	-3.4208	-3.1521	-2.8208	-3.4583	-3.0396	-3.3771	-3.1292	-2.7917	-3.1188	277.368	15.210	133.562	201.920	224.901	115.609	230.249	233.687	199.746	261.936	155.698	51.917	79.699	-73.034	201.534	54.732	0.00030782	0.00076587	0.00011084	957.16	7.269e-06	4.0469e-06	786.16	280.18	5.1508e-06	7.6851e-06	241.04	90.809	101.75	47.285	5.7313e-07	41.016	0.0045877	0.0062336	0.0016826	909.93	6.1452e-05	6.704e-05	754.04	268.35	6.019e-05	6.5421e-05	238.85	89.54	100.53	46.012	6.1127e-05	40.363	119.857	97.950	-19.662	-62.168	110.157	41.051	-63.718	-57.413	136.549	79.573	-60.311	-56.664	-53.403	-48.416	71.466	-51.861	-8191	255	
1581.988	1	1	0	0	0.20783	0.13117	0.084797	0.12592	0.18558	0.041534	0.19092	0.10328	0.15786	0.28106	0.12206	0.29306	0.092153	0.21415	0.15266	0.19003	-2.5938	-2.8792	-3.3583	-2.9375	-3.2521	-3.5833	-2.9021	-3.2542	-3.0625	-2.9375	-3.2875	-2.9771	-3.075	-3.5417	-2.7812	-3.275	37.529	119.918	92.622	215.833	224.781	253.910	0.494	229.755	98.352	-67.782	84.887	272.333	-55.466	38.796	217.218	248.127	0.00014107	0.00049586	0.0001169	948.04	3.1124e-07	5.2257e-06	778.1	276.44	5.3274e-06	1.0369e-05	240.73	90.136	100.51	47.319	4.5651e-06	41.188	0.0040381	0.0059393	0.001603	900.1	5.8725e-05	6.3824e-05	746.02	264.55	5.8642e-05	6.3398e-05	237.03	89.141	100.22	46.014	6.1444e-05	40.608	151.921	257.920	-58.867	-62.342	188.219	-66.656	-64.263	-57.409	54.177	68.657	-60.169	-56.751	-52.911	-48.296	-5.827	-52.556	-8191	255	
1582.059	1	1	0	0	0.15003	0.11547	0.10564	0.060162	0.11628	0.22857	0.1882	0.040356	0.14876	0.22877	0.14219	0.085329	0.080069	0.054702	0.13732	0.20756	-2.6729	-2.9562	-3.3021	-2.9917	-2.8937	-3.2417	-3.0583	-3.3854	-3.1688	-2.8417	-3.2625	-3.0583	-3.0687	-3.6188	-2.7646	-3.3104	218.291	175.075	205.658	157.584	273.064	10.801	-61.877	-48.067	-44.605	-6.321	259.938	-52.709	173.825	269.857	-40.516	-70.732	0.00012269	0.00042554	0.0004009	954.9	6.3423e-06	1.2304e-05	783.43	275.56	4.5814e-06	3.0041e-06	243.55	90.535	101.79	47.821	5.9843e-06	42.033	0.0039019	0.0065388	0.0016738	905.79	6.0798e-05	6.6518e-05	750.06	264.32	6.0934e-05	6.6615e-05	238.6	90.376	100.98	46.552	6.2201e-05	41.336	168.313	58.324	10.338	-62.247	161.861	29.708	-64.121	-57.409	96.929	234.005	-60.408	-56.262	-53.392	-48.174	9.065	-52.068	-8191	255	
1582.180	1	1	0	0	0.21448	0.17683	0.1369	0.48247	0.2786	0.1957	0.16696	0.18291	0.1392	0.13709	0.23547	0.3283	0.060719	0.20689	0.10743	0.14597	-2.7979	-2.7208	-3.125	-3.0667	-3.175	-3.3896	-2.9583	-3.2	-2.9771	-2.7542	-3.4417	-3.1312	-3.0542	-3.7562	-2.9062	-3.2958	133.208	232.940	62.739	268.478	239.541	251.240	166.966	-36.667	84.945	147.802	243.033	212.391	107.013	272.178	-38.773	-63.443	9.4945e-05	0.0011379	0.00020816	959.04	5.8786e-06	8.0462e-06	803.39	277.96	9.1953e-06	8.1116e-06	248.09	93.95	104.02	49.131	8.1485e-06	43.464	0.0038404	0.0061835	0.0016196	915.5	5.853e-05	6.332e-05	769.57	267.58	5.8955e-05	6.5157e-05	243.76	92.835	103.06	47.727	6.4477e-05	42.905	133.239	98.069	30.248	-62.366	268.646	19.490	-64.086	-57.441	46.317	191.133	-60.263	-56.190	-53.170	-48.298	46.378	-51.905	-8191	255	
1582.276	1	1	0	0	0.077291	0.15642	0.22689	0.18374	0.26306	0.16299	0.12812	0.44845	0.12998	0.13218	0.10305	0.0099259	0.015385	0.33564	0.060144	0.058087	-3.075	-2.675	-3.225	-3.1104	-3.0458	-3.4292	-3.0938	-3.2604	-3.3563	-3.0042	-3.3479	-3.1229	-2.75	-3.4083	-2.8958	-3.3083	-60.303	54.081	253.423	282.339	199.043	158.157	234.051	152.971	29.522	141.065	-22.234	37.255	154.513	196.811	144.440	-71.844	0.00016354	0.00096594	0.00031474	975.28	3.3444e-06	9.9597e-06	799.96	276.89	3.0062e-06	3.6788e-06	241.4	91.856	101.14	48.152	5.4476e-06	41.428	0.0040617	0.006956	0.0017148	925.67	6.1583e-05	6.6334e-05	764.93	265.84	5.8713e-05	6.4498e-05	237.91	90.058	100.91	46.559	5.638e-05	40.873	125.726	79.605	-14.994	-62.150	56.568	132.956	-64.032	-57.166	62.726	221.542	-59.913	-56.306	-53.463	-47.951	94.546	-51.704	-8191	255	
1582.372	1	1	0	0	0.098215	0.12033	0.13704	0.092009	0.1995	0.13649	0.15734	0.045948	0.037363	0.14671	0.13157	0.14559	0.258	0.13745	0.081437	0.21938	-2.8187	-2.6146	-3.1688	-3.3583	-2.8604	-3.5	-3.3083	-3.0187	-3.2896	-2.8854	-3.2625	-3.0917	-2.7479	-3.4979	-3.1979	-3.0896	-16.212	53.003	156.782	136.201	221.931	-1.275	239.601	101.261	154.156	241.177	137.104	-48.408	-53.072	219.938	12.180	-49.116	0.00023993	0.0006021	0.00014833	960.24	3.03e-06	3.4353e-06	782.65	270.62	1.3137e-06	4.0038e-06	237.74	89.937	101.87	47.631	4.516e-06	41.452	0.0034391	0.0056411	0.0014482	907.98	5.2315e-05	5.7766e-05	749.25	260.45	5.4066e-05	6.1198e-05	234.2	88.729	100.32	46.148	5.6758e-05	40.726	132.027	47.948	240.520	-62.296	130.252	-50.776	-64.147	-57.399	216.426	178.803	-60.516	-56.674	-52.951	-48.265	-49.358	-52.324	-8191	255	
1582.493	1	1	0	0	0.22619	0.023404	0.28059	0.1596	0.18997	0.17989	0.044598	0.11997	0.075587	0.14957	0.084373	0.2871	0.18198	0.2118	0.047936	0.095896	-2.7104	-2.9229	-3.0938	-3.25	-2.6417	-3.2583	-3.2104	-3.1375	-3.5333	-2.8563	-3.125	-3.1833	-2.6917	-3.3104	-3.2396	-3.0438	202.562	146.712	-17.086	249.478	229.211	84.235	146.813	176.376	190.428	-61.877	12.751	163.612	167.988	-15.656	263.355	20.179	6.6856e-05	0.00087259	9.7897e-05	962.64	3.9832e-06	6.2235e-07	796.74	276.33	4.8604e-06	6.5046e-06	243.39	92.325	102.65	48.171	1.6873e-06	42.52	0.0035815	0.0061062	0.0015256	916.34	5.6319e-05	6.3126e-05	758.1	265.38	6.1115e-05	6.8287e-05	240.94	90.805	102.33	46.827	6.2239e-05	41.612	75.310	97.609	9.295	-62.568	213.024	68.490	-63.704	-57.068	78.733	-20.711	-60.459	-56.448	-53.355	-48.244	-66.270	-51.812	-8191	255	
1582.589	1	1	0	0	0.11898	0.11744	0.077199	0.091242	0.055299	0.20935	0.078061	0.087993	0.089629	0.043451	0.084111	0.18073	0.11451	0.088566	0.21829	0.10378	-3.0917	-2.8729	-3.2313	-3.0792	-2.7667	-3.3187	-3.0792	-2.95	-3.3438	-2.9583	-3.1375	-3.3917	-3.0958	-3.4062	-3.1833	-3.0667	251.371	156.505	-9.606	-57.045	61.678	-71.548	184.282	241.332	-24.858	183.588	132.033	168.972	-41.650	62.324	279.178	-8.941	0.00021788	0.00026074	0.00027285	979.78	4.8485e-06	4.2501e-06	817.37	282.9	6.2298e-06	6.7147e-06	252.68	95.687	105.94	49.387	6.2196e-06	43.745	0.0037908	0.0061689	0.0015348	928.07	5.332e-05	5.7163e-05	773.63	270.98	4.9114e-05	5.3185e-05	245.25	92.96	103.44	47.663	4.996e-05	42.478	148.746	-36.036	4.842	-62.324	-15.757	188.418	-64.193	-57.117	-63.045	19.615	-60.047	-56.340	-53.058	-48.031	65.724	-52.076	-8191	255	
1582.661	1	1	0	0	0.14474	0.25861	0.27525	0.16705	0.14188	0.13839	0.1336	0.18009	0.065259	0.15095	0.14162	0.12197	0.059258	0.18591	0.1821	0.27338	-2.9167	-2.8521	-2.9271	-3.5938	-3.0271	-3.3	-3.2458	-2.9813	-3.2562	-3.0583	-2.9667	-3.3667	-2.8333	-3.4104	-3.2146	-2.8104	207.380	102.809	-2.295	-69.107	138.414	57.568	6.110	216.084	284.361	19.392	185.960	-4.591	148.974	-69.720	152.932	279.820	0.0001872	0.00055738	0.00025258	1000.8	3.6212e-06	5.5865e-06	826.51	285.69	1.0504e-05	5.1511e-06	249.61	93.644	104.82	48.707	3.3611e-06	42.032	0.0032477	0.005708	0.0013875	941.02	5.1054e-05	5.6148e-05	783.16	272.82	5.0274e-05	5.5428e-05	243.92	91.72	102.66	46.963	5.1853e-05	41.347	126.922	80.105	121.220	-62.206	138.800	61.553	-64.011	-57.053	194.363	57.685	-60.425	-55.871	-52.969	-47.995	-61.622	-52.042	-8191	255	
1582.757	1	1	0	0	0.14964	0.27272	0.27271	0.13609	0.16459	0.28399	0.13583	0.19138	0.020561	0.13312	0.043493	0.23182	0.13628	0.19439	0.32435	0.14629	-2.8812	-2.9375	-2.8708	-3.6375	-2.9396	-3.1333	-3.3521	-2.8333	-3.2771	-3.1083	-2.9625	-3.3958	-2.8271	-3.1437	-3.1729	-2.8792	85.571	234.195	76.396	161.006	119.055	43.135	271.132	227.648	-53.880	-48.565	254.162	-54.418	107.737	-60.077	156.923	262.025	0.00017532	0.00057265	0.00022533	981.99	1.2684e-05	2.4411e-06	799.51	279.86	2.5252e-06	1.0856e-05	246.11	91.904	102.9	48.264	2.3112e-06	41.739	0.0033909	0.0055139	0.0015258	926.46	5.5678e-05	6.2052e-05	764.68	268.91	5.9721e-05	6.5104e-05	241.53	90.442	101.95	46.738	5.7882e-05	41.126	162.808	-6.607	177.867	-62.059	11.862	34.096	-63.704	-57.109	47.602	-28.907	-60.825	-56.615	-53.529	-48.243	-26.064	-52.122	-8191	255	
1582.876	1	1	0	0	0.25774	0.27007	0.07724	0.27002	0.087731	0.14775	0.066442	0.28233	0.21428	0.20829	0.28014	0.042293	0.038814	0.23115	0.0836	0.25261	-2.7896	-3.2687	-2.775	-3.3937	-2.8167	-3.0708	-3.5146	-2.8458	-3.3771	-2.95	-2.9062	-3.3458	-3.1583	-2.9667	-3.2396	-2.9354	20.804	50.854	207.190	231.474	267.777	-1.900	-1.206	172.668	-27.646	193.980	215.027	281.161	174.186	-27.163	238.262	249.449	8.6737e-05	0.00036372	0.00039342	985.27	2.3408e-06	2.347e-06	821.92	287.87	5.7205e-06	3.5454e-06	258.4	95.362	105.58	49.057	1.4912e-05	42.814	0.0035793	0.0053133	0.0016377	931.88	5.1996e-05	5.479e-05	777.66	274.49	4.8658e-05	5.3546e-05	250.26	92.728	104.13	47.07	4.9601e-05	41.731	129.182	-38.577	81.750	-62.523	47.080	-54.800	-64.240	-57.532	104.756	108.777	-60.221	-56.556	-53.596	-48.292	63.668	-51.836	-8191	255	
1582.972	1	1	0	0	0.2612	0.19586	0.069166	0.26769	0.28313	0.16398	0.1513	0.095201	0.038916	0.16978	0.19124	0.066273	0.13109	0.22801	0.14485	0.17093	-2.675	-3.2812	-2.7646	-3.5042	-2.7625	-2.9583	-3.45	-3.2708	-3.1479	-3.1813	-3.0542	-3.4188	-3.2604	-3.0312	-3.2938	-2.7604	17.193	255.646	145.811	252.170	27.255	162.910	228.192	22.453	206.078	87.809	142.200	-25.177	200.230	150.766	241.970	154.788	0.00014137	0.00053146	0.00010149	1011	3.7606e-06	4.9576e-06	849.54	302.96	8.8481e-06	6.0148e-06	268.34	97.971	108.47	49.083	6.144e-06	43.071	0.003137	0.0046823	0.0014577	952.47	4.6481e-05	5.1277e-05	802.04	288.01	4.8212e-05	5.3055e-05	261.26	94.886	106.28	47.368	5.3908e-05	42.247	170.469	48.818	234.852	-62.539	-9.685	0.913	-64.037	-57.272	68.500	88.268	-60.683	-56.356	-53.650	-48.325	69.552	-52.188	-8191	255	
1583.068	1	1	0	0	0.10852	0.087038	0.20706	0.35097	0.097109	0.19739	0.26173	0.020674	0.083939	0.054015	0.23249	0.092449	0.28489	0.013446	0.19342	0.14118	-2.7083	-3.0687	-2.6958	-3.6104	-2.9938	-3.0729	-3.3708	-3.0438	-2.9792	-3.3354	-2.9833	-3.3979	-3.0604	-2.9875	-3.0896	-2.8125	165.193	73.661	113.523	226.966	175.671	196.485	222.502	72.099	-34.444	185.129	264.364	-24.735	184.544	238.357	209.462	193.157	6.1052e-05	0.00084021	0.00013009	1009.7	4.1094e-06	1.1498e-05	850.1	307.51	1.9598e-06	3.2202e-06	274.82	97.345	107.62	48.645	4.1087e-06	42.74	0.003492	0.0054005	0.001729	958.32	5.5642e-05	6.2234e-05	811.67	294.45	5.5299e-05	6.0983e-05	268.06	95.417	106.54	47.206	5.6223e-05	41.845	113.772	89.376	-72.421	-62.405	158.915	68.318	-64.067	-57.809	263.685	168.555	-60.204	-56.584	-53.918	-48.323	273.229	-52.221	-8191	255	
1583.164	1	1	0	0	0.13711	0.12903	0.35596	0.12001	0.16105	0.20084	0.062503	0.10435	0.047761	0.12769	0.097752	0.045721	0.2612	0.24782	0.091729	0.1061	-2.6375	-3.3771	-2.6604	-3.2146	-3.2708	-2.8167	-3.5438	-3.0167	-2.9604	-3.4458	-3.0792	-3.3375	-3.0646	-2.9125	-3.3021	-3.0396	240.404	159.831	-48.709	253.271	162.638	-43.592	75.564	174.619	94.745	128.354	-74.407	-74.211	91.224	263.244	97.577	-18.386	2.3045e-05	0.0013856	0.0002431	996.74	3.238e-06	6.6962e-06	826.38	299.52	3.2894e-06	5.6676e-06	261.32	94.265	106	47.373	4.3216e-06	41.252	0.0035174	0.0053925	0.0017137	940.8	5.7125e-05	6.4307e-05	787.42	286.85	5.9981e-05	6.6906e-05	257.13	92.535	104.66	46.121	6.5416e-05	40.828	111.128	34.409	-45.097	-62.510	251.511	129.733	-63.968	-57.488	116.564	99.155	-60.548	-56.887	-53.608	-48.273	98.855	-52.246	-8191	255	
1583.260	1	1	0	0	0.089893	0.10129	0.090773	0.16569	0.24239	0.12946	0.031211	0.31251	0.32469	0.33553	0.053095	0.27041	0.50042	0.30426	0.40814	0.087701	-2.475	-3.0354	-2.8625	-3.2687	-3.2958	-2.8333	-3.3812	-2.9458	-3.125	-3.5167	-2.9333	-3.15	-3.3604	-3.0687	-3.1729	-2.9562	-49.939	187.328	31.030	71.775	65.764	96.915	-59.869	228.973	9.084	100.995	104.441	234.808	257.754	214.788	218.776	48.128	8.2709e-05	0.0014088	0.00032902	981.06	4.3786e-06	8.2482e-06	821.27	296.71	3.931e-06	6.959e-06	262.44	93.579	104.83	47.562	1.3338e-06	41.433	0.0041194	0.0063288	0.0019644	934	6.4811e-05	7.0277e-05	784.62	285.4	6.5168e-05	6.8254e-05	258.08	92.039	103.89	46.249	6.4341e-05	40.984	170.220	281.452	277.951	-62.113	35.684	108.366	-63.865	-57.454	89.963	53.053	-60.762	-56.798	-53.639	-48.533	66.800	-51.920	-8191	255	
1583.357	1	1	0	0	0.44683	0.13586	0.25411	0.18045	0.060015	0.12161	0.063501	0.22749	0.26268	0.1601	0.28594	0.1082	0.13705	0.19783	0.14329	0.22999	-2.5354	-3.3187	-3.0125	-3.2417	-3.325	-2.8688	-3.2083	-3.0917	-2.8937	-3.3187	-3.1854	-3.0646	-3.2875	-3.0979	-3.0187	-3.1479	-52.604	216.069	271.921	206.725	-40.123	-66.469	160.747	-56.035	6.053	47.551	146.031	-11.447	246.375	160.833	112.603	231.099	0.00020844	0.00042132	0.00022737	983.9	4.0993e-06	5.0692e-06	825.81	298.33	5.8358e-06	5.0778e-06	262.9	94.491	105.65	47.715	8.8465e-06	41.853	0.0040419	0.0062327	0.0018957	935.53	6.2887e-05	7.0025e-05	787.74	285.08	6.9187e-05	6.8272e-05	257.77	92.608	104.43	46.369	6.2888e-05	41.276	141.329	277.969	118.160	-62.301	164.900	33.101	-64.037	-57.598	110.268	118.638	-60.474	-56.441	-53.804	-48.474	-27.642	-52.388	-8191	255	
1583.453	1	1	0	0	0.08775	0.26262	0.12801	0.21815	0.11326	0.11373	0.29026	0.26816	0.017399	0.13029	0.20747	0.11318	0.1682	0.158	0.065551	0.2559	-2.4167	-3.3104	-2.8104	-3.0333	-3.2375	-2.8646	-3.1854	-3.2604	-2.6875	-3.2354	-3.2104	-2.9104	-3.4	-3.0083	-3.2271	-3.1583	39.365	26.499	123.053	210.462	36.583	76.835	113.247	190.462	274.896	280.136	116.996	201.045	117.876	233.438	240.166	-31.267	0.00022823	0.00026189	0.00033758	987.69	5.6468e-06	1.2326e-05	821.87	300.37	2.116e-06	7.1515e-06	264.48	95.988	106.75	48.166	3.4575e-06	42.809	0.0040554	0.0063218	0.0019901	939.44	6.7983e-05	7.556e-05	790.93	287.92	7.379e-05	7.52e-05	261.86	94.106	105.33	46.9	6.2809e-05	41.989	105.500	-1.357	-43.494	-62.312	245.770	100.406	-63.651	-57.570	-17.978	32.705	-60.333	-57.334	-54.131	-48.527	37.509	-52.390	-8191	255	
1583.573	1	1	0	0	0.12731	0.12302	0.072703	0.34874	0.13598	0.1061	0.25264	0.27191	0.067474	0.30141	0.22087	0.079163	0.22939	0.30151	0.042378	0.1428	-2.3375	-3.3771	-2.9875	-3.0333	-3.3604	-2.7562	-3.1583	-3.4333	-2.9292	-3.3063	-3.0438	-2.8417	-3.3187	-3.0833	-3.0354	-3.3375	-14.885	80.398	154.853	252.852	139.539	-67.044	205.061	247.563	-32.758	124.349	224.218	144.603	264.728	-65.668	-2.078	269.885	0.00020529	0.00055278	0.00023268	978.08	6.225e-06	1.3259e-05	813.34	293.79	1.255e-05	5.69e-06	254.2	91.467	103.57	46.927	5.5165e-06	40.689	0.0038478	0.0057698	0.0016092	929.76	5.7983e-05	6.3432e-05	774	280.22	6.7468e-05	6.6876e-05	249.98	90.166	102.15	45.704	6.4095e-05	40.265	161.583	23.385	-6.045	-62.370	51.661	65.452	-63.839	-57.598	15.142	155.688	-60.387	-56.974	-53.848	-48.446	-8.921	-52.061	-8191	255	
1583.668	1	1	0	0	0.1702	0.32092	0.16951	0.10434	0.10479	0.20113	0.33707	0.037799	0.19918	0.1349	0.27385	0.24992	0.18418	0.1034	0.16834	0.030714	-2.3583	-3.0563	-3.1312	-2.8583	-3.2667	-2.8688	-3.2458	-3.2521	-2.7646	-3.2354	-3.3042	-2.8583	-3.2146	-3.0229	-3.0396	-3.3583	254.923	-8.367	223.617	51.444	33.539	82.373	179.980	123.510	279.859	-75.515	240.510	210.849	56.855	-67.182	53.454	-24.042	6.2037e-05	0.0006719	0.0002433	963.53	6.5572e-07	1.4674e-06	796.84	288.77	3.927e-06	1.2727e-05	250.58	91.088	102.39	46.87	5.9206e-06	40.637	0.0039963	0.0060053	0.0016585	919.42	6.0824e-05	6.7256e-05	762.74	277.09	6.8142e-05	7.1156e-05	248.01	90.046	102.14	45.867	6.8814e-05	40.54	146.263	38.650	12.776	-62.438	6.713	154.869	-63.739	-57.615	56.817	100.790	-60.804	-56.612	-53.677	-48.464	152.150	-52.168	-8191	255	
1583.764	1	1	0	0	0.09729	0.19497	0.17242	0.24438	0.13722	0.13186	0.045419	0.19865	0.12256	0.13085	0.15898	0.15762	0.18749	0.14432	0.12514	0.20332	-2.4125	-2.9271	-3.0687	-2.9958	-3.1063	-3.0167	-3.0292	-3.2938	-2.8167	-3.1813	-3.2438	-2.6333	-3.3042	-3.0312	-2.8937	-3.4646	46.922	-49.525	230.654	-56.894	96.532	183.847	87.733	273.319	197.289	175.524	12.630	270.240	208.666	77.326	166.832	135.772	0.00015486	0.00023713	0.00050908	963.55	7.8163e-06	1.1069e-05	801.93	289.17	5.541e-06	5.8491e-06	252.49	91.229	103.18	47.278	1.2379e-05	41.506	0.0043929	0.0066361	0.0018752	923.5	6.9473e-05	7.5448e-05	770.33	278.54	7.6996e-05	7.5801e-05	251.53	91.001	102.89	46.024	7.4219e-05	41.037	159.253	267.801	60.112	-62.264	30.548	56.638	-63.865	-57.573	-0.546	94.777	-60.579	-56.914	-53.679	-48.320	63.667	-52.274	-8191	255	
1583.860	1	1	0	0	0.30994	0.065548	0.066417	0.10469	0.16198	0.13614	0.10373	0.31057	0.19853	0.18277	0.063621	0.080406	0.11283	0.20162	0.31878	0.13286	-2.2812	-3.1896	-3.3042	-2.9021	-3.2687	-2.9771	-2.9604	-3.475	-2.9104	-2.9208	-3.175	-2.7188	-3.2812	-3.1813	-2.8729	-3.2708	103.177	94.960	165.443	164.294	92.191	45.717	241.560	243.507	13.746	205.211	143.498	276.002	-59.734	236.021	130.353	211.793	0.00027323	0.0011007	0.00016691	969.21	1.0197e-05	7.9754e-06	809.95	293.38	4.8249e-06	7.577e-06	258.12	92.962	104.81	47.512	5.8712e-06	41.719	0.0044564	0.0067369	0.0018762	929.35	6.8018e-05	7.4836e-05	778.33	281.43	7.3821e-05	7.611e-05	255.22	92.599	104.36	46.454	8.4608e-05	41.708	128.820	-23.264	-42.590	-62.419	16.007	32.151	-63.899	-57.604	-8.262	102.712	-60.234	-56.566	-53.533	-48.324	135.675	-52.181	-8191	255	
1583.956	1	1	0	0	0.068006	0.27154	0.087337	0.19833	0.10718	0.16577	0.05867	0.50429	0.099769	0.057875	0.19344	0.2314	0.16386	0.16811	0.32582	0.11928	-2.5854	-3.125	-3.2521	-2.6958	-3.2042	-3.3104	-2.875	-3.3688	-2.9833	-3.0625	-3.4271	-2.85	-3.1958	-3.3417	-2.8167	-3.4521	161.678	209.966	173.732	229.313	241.828	189.668	166.440	226.514	205.023	79.644	133.688	207.701	224.517	-21.503	165.277	92.571	0.00017086	0.00028236	0.00010723	975.51	4.4708e-06	1.1006e-05	809.38	292.73	1.0408e-05	9.6767e-06	252.46	91.955	102.89	47.068	3.6724e-06	40.657	0.0047551	0.0072426	0.0020622	937.93	7.3634e-05	8.1486e-05	782.35	281.45	7.9259e-05	8.1526e-05	252.4	91.452	103.35	45.892	8.6158e-05	40.883	131.161	236.020	74.898	-62.380	-21.735	153.993	-64.448	-57.541	-14.148	257.886	-60.257	-56.784	-53.843	-48.322	-53.922	-52.227	-8191	255	
1584.052	1	1	0	0	0.21401	0.15698	0.10436	0.31575	0.057401	0.071179	0.36672	0.19523	0.14644	0.16517	0.11176	0.35006	0.15637	0.30214	0.18465	0.10602	-2.4417	-2.9333	-3.4521	-3.0563	-3.1042	-3.3417	-2.8479	-3.4292	-2.8375	-3.0021	-3.4771	-2.8479	-3.0583	-3.2396	-2.8875	-3.2833	159.900	265.397	1.261	271.426	250.120	272.706	241.316	242.038	271.349	25.942	224.411	28.337	17.121	277.801	195.455	144.231	0.00015601	0.00024025	0.0001813	957.55	8.5322e-06	5.134e-06	792.01	285.09	5.9537e-06	1.958e-06	247.98	90.125	101.47	46.602	6.1871e-06	40.611	0.0050639	0.0079	0.002221	922.89	7.926e-05	8.7773e-05	765.99	276.15	7.8162e-05	8.8047e-05	248.85	90.246	102	45.564	8.6422e-05	40.588	115.250	-26.001	77.855	-62.695	83.323	74.623	-64.015	-57.624	58.334	117.142	-60.577	-56.968	-53.538	-48.301	214.976	-51.992	-8191	255	
1584.173	1	1	0	0	0.32186	0.35762	0.20451	0.074744	0.070187	0.27697	0.1617	0.0037069	0.14748	0.054386	0.23263	0.17994	0.12795	0.15334	0.069111	0.070727	-2.5687	-3.2188	-3.4667	-3.0542	-2.9896	-3.3021	-2.8708	-3.2229	-2.9604	-2.8563	-3.4542	-2.8937	-2.9437	-3.4667	-2.7917	-3.3542	217.749	231.636	269.965	-62.979	182.476	262.274	54.898	110.421	56.612	11.111	267.801	59.793	99.832	235.927	-73.079	276.075	0.00010142	0.00066268	0.00021204	963.47	4.5503e-06	2.5147e-06	803.51	287.86	6.7565e-06	1.6676e-05	251.08	90.625	101.94	46.4	3.9046e-06	39.84	0.0049468	0.0076509	0.0021442	926.08	8.0132e-05	8.8097e-05	771.33	278.53	8.3757e-05	0.0001016	253.06	91.16	103.59	45.705	9.8077e-05	40.794	149.776	173.559	258.286	-62.279	31.818	140.110	-64.329	-57.908	213.592	105.596	-60.457	-56.711	-53.775	-48.353	228.615	-52.297	-8191	255	
1584.267	1	1	0	0	0.05452	0.043634	0.19611	0.2068	0.086431	0.063713	0.23448	0.18934	0.088017	0.1216	0.2647	0.33617	0.30365	0.13899	0.12065	0.18282	-2.7104	-2.9667	-3.2583	-3.0812	-3.0125	-3.1437	-2.8833	-3.2542	-3.2812	-2.7687	-3.2583	-3.0792	-3.0708	-3.1813	-2.5646	-3.2854	137.342	266.230	154.101	281.890	-0.662	70.967	218.516	208.909	105.278	277.550	207.444	-38.328	223.160	245.729	232.957	132.276	0.00010975	0.00066157	0.00030522	968.01	4.4735e-06	2.5824e-06	804.32	290.73	2.826e-06	9.9274e-06	254.65	92.119	102.74	46.747	1.0715e-05	40.788	0.005722	0.0088356	0.0024438	933.28	8.8469e-05	9.697e-05	779.05	281.62	8.6804e-05	0.00010349	257.16	92.87	104.71	46.253	0.000101	41.505	111.021	128.700	46.605	-62.079	245.052	59.800	-63.947	-57.699	279.842	96.717	-60.081	-56.641	-53.875	-48.619	-48.294	-52.411	-8191	255	
1584.364	1	1	0	0	0.10513	0.091859	0.23137	0.32029	0.098518	0.11717	0.29213	0.092069	0.14493	0.048503	0.19272	0.19138	0.12061	0.086836	0.071006	0.10271	-2.9667	-2.6458	-3.25	-3.2542	-3.0083	-3.4542	-3.0687	-3.2229	-3.3354	-2.7646	-3.375	-2.8292	-2.9771	-3.4188	-2.9208	-3.0125	165.743	215.272	-48.506	274.930	47.684	-6.102	216.626	195.194	54.284	40.835	22.293	-23.776	-0.221	129.514	259.745	124.367	0.00015269	0.0011896	0.00047504	971.98	4.2732e-06	1.2228e-05	811.39	295.58	5.1245e-06	4.7052e-06	257.52	92.172	102.45	46.446	8.4327e-06	40.105	0.0058733	0.0090705	0.0025376	939.57	9.5119e-05	0.0001017	790.21	286.39	9.0849e-05	0.0001092	260.62	93.28	104.67	46.021	9.6289e-05	40.811	167.771	6.423	-24.036	-62.362	-65.268	165.555	-64.380	-57.569	264.503	118.376	-60.495	-56.561	-53.460	-48.462	244.870	-52.674	-8191	255	
1584.460	1	1	0	0	0.13501	0.085856	0.046928	0.37213	0.11007	0.16137	0.084082	0.14604	0.14807	0.25859	0.268	0.07624	0.2915	0.13354	0.13794	0.14379	-2.8021	-2.6354	-3.1646	-3.0687	-2.8604	-3.2	-3.0583	-3.0896	-3.3333	-2.8063	-3.3792	-3.2104	-2.9562	-3.4083	-3.0062	-3.1646	117.910	8.593	-46.120	253.133	235.947	265.890	197.359	221.816	150.059	69.608	239.895	-10.883	117.211	34.773	20.090	221.026	5.551e-05	0.00034464	0.00040324	961.46	4.8999e-06	3.6722e-06	794.62	285.66	4.5394e-06	2.2728e-06	248.92	89.222	99.792	45.98	1.0998e-05	39.622	0.0056741	0.0086965	0.0023973	925.79	9.7448e-05	9.8222e-05	770.88	278.41	9.0677e-05	0.00010558	251.7	90.451	102.68	45.408	9.6584e-05	40.43	69.253	24.597	15.084	-62.533	117.471	58.980	-64.041	-57.756	43.682	119.716	-60.254	-56.515	-53.531	-48.682	-9.508	-52.480	-8191	255	
1584.556	1	1	0	0	0.20542	0.0017427	0.080638	0.14785	0.18538	0.22055	0.11869	0.08481	0.13548	0.21062	0.14001	0.21721	0.15694	0.32384	0.037275	0.11679	-2.7604	-2.8	-3.1833	-3.3583	-2.6312	-3.2625	-3.1604	-3.1792	-3.35	-2.6979	-3.1688	-3.15	-2.7979	-3.3604	-2.8146	-2.9188	82.559	180.000	2.508	-61.929	-60.684	80.429	-55.149	222.090	263.896	253.990	219.895	175.395	258.701	-65.137	107.100	-30.519	0.00015744	0.00034651	0.00024281	957.44	4.7236e-06	7.7731e-06	798.3	287.96	2.1167e-06	1.2772e-05	248.77	89.559	101.21	45.919	1.7846e-06	39.904	0.0056041	0.0086031	0.0023637	925.05	9.3272e-05	9.7251e-05	772.76	279.19	9.1275e-05	0.00010821	252.9	91.223	103.59	45.596	9.7215e-05	40.994	149.532	-49.286	120.584	-62.416	84.941	97.746	-64.200	-57.483	82.099	94.894	-60.203	-56.904	-53.537	-48.640	166.504	-52.043	-8191	255	
1584.652	1	1	0	0	0.099674	0.19823	0.087256	0.062724	0.19283	0.17752	0.16742	0.25779	0.20458	0.18043	0.24536	0.027825	0.14124	0.15762	0.10781	0.16953	-3.1292	-2.7104	-3.0062	-3.3542	-2.8896	-3.4104	-3.2208	-2.8625	-3.2625	-3.0312	-2.8354	-3.3208	-2.7188	-3.4667	-3.1813	-2.9208	179.895	123.646	-73.201	221.683	280.303	60.853	177.607	225.047	277.023	240.764	260.963	234.194	100.360	262.388	159.258	270.594	0.00017381	0.00060241	0.0003633	958.74	9.1279e-06	2.5039e-06	795.5	289.43	6.186e-06	1.1837e-05	251.48	91.015	102.42	46.53	1.9373e-06	40.743	0.0060762	0.009277	0.0025852	928.97	0.00010221	0.00010268	777.52	281.77	9.2716e-05	0.00010573	256.43	92.235	104.22	45.904	9.4019e-05	41.685	131.314	-10.187	64.955	-62.494	-49.513	115.758	-63.945	-57.484	-13.769	136.943	-60.594	-56.914	-53.636	-48.524	270.580	-52.405	-8191	255	
1584.748	1	1	0	0	0.14556	0.045313	0.24958	0.061876	0.027766	0.090506	0.26574	0.14642	0.17399	0.15151	0.1629	0.056414	0.095383	0.24359	0.18109	0.069967	-2.8021	-2.6167	-3.0146	-3.2417	-2.8312	-3.2208	-2.9875	-3.0542	-3.2667	-3.0042	-3.0187	-3.1208	-2.7604	-3.2313	-3.2146	-2.8396	99.297	44.924	284.091	51.905	34.423	141.396	210.023	251.966	80.981	104.942	35.594	4.172	224.499	247.885	-71.723	126.912	0.00023435	0.0015454	1.5083e-05	964.28	5.2413e-06	1.0342e-05	808.23	291.5	7.7393e-06	2.9354e-06	254.66	91.552	102.1	46.289	1.6901e-06	40.56	0.0060186	0.0091082	0.0025972	934.05	9.9514e-05	0.00010474	788.31	284.13	9.9844e-05	0.00011546	261.27	93.706	105.45	46.158	0.00010678	41.837	147.019	-45.558	-15.942	-62.425	-68.424	49.028	-63.806	-57.583	-16.991	70.935	-60.126	-57.069	-53.634	-48.547	112.127	-52.567	-8191	255	
1584.844	1	1	0	0	0.32188	0.0526	0.035561	0.16554	0.14429	0.13006	0.14064	0.070135	0.24866	0.23133	0.082649	0.25391	0.13882	0.057179	0.081279	0.32508	-2.9062	-2.7542	-2.8479	-3.4271	-3.0312	-3.1542	-3.1792	-2.7104	-3.2771	-2.9625	-3.1292	-3.2833	-2.725	-3.225	-3.2667	-2.9396	130.442	279.446	28.112	219.940	-33.911	260.373	275.923	232.275	70.406	95.582	184.649	253.711	248.570	74.194	193.775	245.199	4.4075e-05	0.00099417	0.00037328	961.01	3.0398e-06	9.5028e-06	793.06	286.22	5.4881e-06	1.7026e-05	247.56	88.326	99.947	45.213	3.6622e-06	39.183	0.0064483	0.0098836	0.0027948	934.35	0.00010921	0.00011097	777.27	279.81	0.00010219	0.00011408	256.42	91.426	103.94	45.31	0.00010959	40.937	84.496	204.491	80.931	-62.674	263.047	231.478	-63.733	-57.523	-7.085	119.652	-60.584	-57.225	-53.665	-48.200	121.090	-52.382	-8191	255	
1584.940	1	1	0	0	0.064645	0.056667	0.18781	0.22066	0.15415	0.12812	0.23549	0.42144	0.049528	0.17043	0.20255	0.16894	0.095882	0.093251	0.079514	0.19824	-2.7896	-2.9208	-2.7958	-3.4562	-2.7313	-3.0875	-3.0771	-3.0854	-3.3833	-3.1688	-2.9271	-3.4083	-2.9333	-3.1833	-3.0687	-2.6708	189.048	199.441	-1.551	-41.941	-70.706	7.522	200.479	248.706	249.616	-2.552	277.694	-74.583	184.769	36.718	-47.774	126.860	0.00014096	0.0012834	0.00046296	955.25	8.1088e-06	5.7695e-06	780.63	286.34	7.6141e-06	4.4966e-06	246.5	89.125	99.952	45.606	4.9422e-06	39.974	0.0067363	0.010349	0.0029342	929.03	0.00010798	0.00011388	771.25	279.4	0.00010248	0.00011348	257.17	91.344	103.5	45.513	0.00010366	41.038	157.499	235.438	-41.192	-62.478	-21.251	-48.594	-64.000	-57.869	31.775	172.957	-60.449	-56.848	-53.753	-48.178	127.438	-52.221	-8191	255	
1585.059	1	1	0	0	0.11717	0.31508	0.20748	0.1042	0.20783	0.12105	0.15588	0.35167	0.17981	0.12984	0.31953	0.14978	0.11303	0.17375	0.29577	0.096143	-2.9313	-3.0938	-2.8271	-3.3708	-2.9	-3.0729	-3.6	-3.0708	-3.2979	-3.1667	-2.7396	-3.2354	-3.0417	-2.9083	-3.3958	-2.9042	68.402	147.001	281.259	249.751	-14.415	62.704	87.670	201.421	-49.436	-74.193	179.942	224.298	-15.681	232.434	255.287	116.152	8.9947e-05	0.00086466	4.8983e-05	959.11	1.5059e-05	4.1934e-06	794.36	285.45	6.0771e-06	1.1129e-05	248.03	89.864	100.45	46.07	1.0211e-05	40.282	0.0063495	0.0097184	0.0027439	931.51	0.00010329	0.00011077	779.36	280.19	0.00010162	0.00011537	259.25	92.409	104.29	45.911	0.00010931	41.686	121.816	21.849	-22.918	-62.487	34.379	-18.964	-63.895	-57.539	144.169	120.712	-60.428	-56.633	-53.764	-48.520	14.190	-52.729	-8191	255	
1585.155	1	1	0	0	0.13788	0.12759	0.043844	0.084629	0.07728	0.14315	0.27422	0.31062	0.16663	0.20556	0.23507	0.06749	0.12591	0.24363	0.35024	0.16098	-2.8312	-3.0396	-2.7771	-3.2896	-2.9792	-2.9479	-3.525	-2.9708	-3.1104	-3	-2.8292	-3.5	-3.1104	-2.7896	-3.3187	-3.175	152.600	76.342	156.200	277.373	-30.283	274.997	156.082	173.520	177.759	-69.673	165.542	97.025	-27.961	257.561	-52.214	174.828	0.00024495	0.0010137	0.00030682	959.22	1.023e-05	1.6669e-05	801.68	287.72	1.044e-05	6.8341e-06	253.57	90.969	101.58	46.118	1.0314e-05	40.199	0.0068541	0.010563	0.0029709	937.59	0.00010914	0.00012669	787.99	283.7	0.00011263	0.00012692	265.56	93.868	105.96	46.295	0.00011939	41.971	136.845	9.799	33.235	-62.623	47.484	28.942	-63.958	-58.029	5.356	242.639	-60.365	-56.744	-53.436	-48.607	109.932	-52.711	-8191	255	
1585.253	1	1	0	0	0.38729	0.18031	0.088887	0.20873	0.054538	0.20434	0.30532	0.20477	0.13455	0.30096	0.21526	0.099121	0.1412	0.13232	0.20163	0.14296	-2.6958	-3.1729	-2.6833	-3.3458	-3.1896	-2.9417	-3.5563	-2.95	-3.0542	-3.2458	-3.0417	-3.3958	-3.0646	-2.8187	-3.3375	-3.0312	255.403	134.884	-62.490	3.014	159.472	-16.586	262.736	-49.467	-75.429	138.118	122.517	267.014	-47.229	-8.256	236.609	-1.957	9.3295e-05	0.00044301	0.00069757	965.72	2.4931e-06	8.7521e-06	800.24	285.07	4.4704e-06	4.9034e-06	246.86	88.754	99.777	45.11	2.1738e-06	39.045	0.0073283	0.011393	0.0031455	944.29	0.00011459	0.00013465	785.03	281.08	0.00011272	0.0001251	258.6	91.659	103.74	45.347	0.00011496	40.748	148.596	37.023	-28.920	-62.653	-25.540	32.962	-63.859	-57.626	61.183	29.746	-60.584	-56.832	-53.868	-48.440	234.191	-52.750	-8191	255	
1585.348	1	1	0	0	0.17063	0.088445	0.078942	0.11626	0.24415	0.20726	0.22692	0.16532	0.24695	0.096597	0.084442	0.1546	0.14407	0.17734	0.033123	0.17313	-2.7146	-3.2521	-2.5708	-3.2188	-2.9479	-2.9875	-3.5	-3.0563	-3.0833	-3.4458	-2.8812	-3.2771	-3.2583	-2.9396	-3.4833	-3.1271	19.709	10.417	-34.911	271.886	-29.758	55.398	151.219	-4.568	-1.414	91.385	253.530	-10.349	-33.982	200.088	187.237	178.196	0.00028415	0.00048408	0.00043433	942.35	6.5963e-06	8.11e-06	777.91	279.49	5.6782e-06	5.1303e-06	241.83	87.079	97.868	44.569	1.291e-05	38.58	0.0071957	0.010955	0.0030648	922.18	0.00011259	0.00013036	766.61	275.77	0.00011627	0.00012934	254.47	90.587	103.1	45.077	0.00012256	40.56	136.029	163.655	-12.756	-62.702	-20.311	105.069	-63.792	-57.819	92.086	98.383	-60.587	-57.178	-53.571	-48.436	127.318	-52.085	-8191	255	
1585.444	1	1	0	0	0.17749	0.024737	0.22109	0.25548	0.13878	0.2054	0.18641	0.18637	0.14123	0.066464	0.22711	0.11637	0.070667	0.18325	0.060043	0.056413	-2.6937	-3.2167	-2.7125	-3.3083	-3.3104	-2.8771	-3.6354	-3.2583	-3.0979	-3.5104	-2.925	-3.0187	-3.2375	-3.2021	-3.3937	-3.0396	142.237	151.950	9.901	260.987	152.368	201.646	-40.227	202.675	254.505	253.337	208.733	68.328	114.055	76.256	-24.649	58.058	0.00027703	0.0012939	0.00024041	944.58	7.7385e-06	1.1784e-05	779.31	280.55	6.8243e-06	1.1478e-05	242.05	87.764	98.941	45.419	1.3744e-05	39.416	0.0080938	0.012112	0.0033828	927.58	0.00012369	0.00014329	770.73	277.94	0.00012345	0.00013415	256.38	91.502	103.77	45.509	0.00011835	40.934	137.081	-53.314	-7.935	-62.528	119.093	22.177	-64.055	-57.800	280.671	80.742	-60.753	-56.901	-53.695	-48.435	95.735	-52.163	-8191	255	
1585.540	1	1	0	0	0.13406	0.098416	0.1959	0.082403	0.05154	0.23598	0.076637	0.15273	0.13438	0.2261	0.12563	0.078726	0.029108	0.16599	0.13767	0.17711	-2.3896	-3.2896	-2.9042	-3.2583	-3.3292	-2.7542	-3.275	-3.2854	-3.0167	-3.2896	-2.9625	-2.9875	-3.2354	-2.8812	-3.2229	-2.9333	-27.292	47.901	6.144	274.436	60.867	-24.346	282.329	264.669	193.966	145.446	275.014	221.257	10.399	277.071	245.852	-68.856	0.0001591	0.00051996	0.00012017	948.26	5.0035e-06	7.8211e-06	792.83	283.18	4.6383e-06	2.0271e-05	246.17	89.442	99.978	45.444	7.9784e-06	39.578	0.0077318	0.01115	0.0030872	930.39	0.00011328	0.00012923	777.5	278.81	0.00011494	0.00012537	258.21	92.745	104.56	45.903	0.00011944	41.649	191.928	35.355	200.049	-62.370	43.384	90.120	-63.834	-57.824	96.799	99.031	-60.430	-56.984	-53.916	-48.478	-48.674	-52.399	-8191	255	
1585.661	1	1	0	0	0.11792	0.096341	0.21861	0.22839	0.37673	0.05372	0.12874	0.13488	0.17915	0.25799	0.11024	0.28209	0.080446	0.087762	0.096846	0.21213	-2.5375	-3.4271	-2.925	-3.0604	-3.2792	-2.8792	-3.5896	-3.275	-2.7854	-3.5458	-2.9542	-3.0687	-3.2646	-2.9771	-3.1521	-3.4208	-17.956	7.971	203.069	257.066	-62.263	218.610	10.369	-66.424	229.930	-20.547	-36.724	-22.941	-57.302	263.043	215.439	252.929	0.00021089	0.00055271	0.00031038	958.78	1.9709e-06	5.9219e-06	798.01	285.64	1.161e-06	1.6613e-05	247.95	89.468	98.894	45.216	2.6823e-06	39.109	0.0078729	0.01163	0.0032629	939.53	0.00012213	0.00014233	789.6	282.96	0.00012457	0.0001347	261.01	93.743	104.63	45.643	0.00012318	41.11	163.602	178.547	114.733	-62.431	15.900	132.418	-64.035	-57.686	-16.964	33.438	-60.738	-57.212	-54.276	-48.429	62.334	-52.263	-8191	255	
1585.757	1	1	0	0	0.11841	0.028828	0.18353	0.17034	0.026842	0.19267	0.025781	0.12812	0.13079	0.27242	0.066303	0.078718	0.22254	0.24077	0.096029	0.23229	-2.5083	-3.1021	-3.0208	-3.0938	-3.4958	-2.7125	-3.1937	-3.3646	-2.9083	-3.0792	-3.2062	-3.1312	-3.6229	-3.1542	-3.0375	-3.2938	29.562	-17.905	137.781	274.720	231.274	188.268	262.022	256.263	159.425	275.089	-12.819	91.842	208.915	-29.129	136.116	272.124	0.00017847	0.0017269	0.00021222	940.46	1.1081e-05	1.5483e-05	781.05	280.68	2.7417e-06	1.6071e-05	242.18	87.184	98.369	45.218	8.1622e-06	39.505	0.0079455	0.011408	0.0032023	924.11	0.00011546	0.00013005	770.61	276.45	0.00011494	0.00012489	252.58	91.67	103	45.355	0.00011691	40.982	162.892	-35.746	-52.922	-62.498	-8.361	32.498	-63.959	-57.884	209.854	27.122	-60.605	-56.617	-53.757	-48.514	95.392	-52.555	-8191	255	
1585.853	1	1	0	0	0.12025	0.29314	0.029104	0.16599	0.053354	0.15236	0.18083	0.37925	0.3126	0.11911	0.22984	0.19604	0.067024	0.24016	0.094049	0.20308	-2.5708	-3.3812	-2.8438	-2.8771	-3.4146	-2.7771	-3.175	-3.3396	-2.9396	-3.1125	-2.9792	-2.8312	-3.5333	-3.0687	-3.0687	-3.3375	-13.478	142.016	-58.802	204.632	195.706	13.655	158.975	207.065	145.518	227.049	-72.499	260.727	236.297	256.321	71.455	128.755	7.9006e-05	0.0010573	0.0002676	948.42	8.9989e-06	8.1556e-06	786.04	278.93	1.0503e-06	8.2744e-06	244.09	88.398	99.593	45.738	9.5658e-06	39.543	0.0074103	0.011004	0.0030703	925.06	0.00011099	0.00012645	775.59	276.14	0.00011002	0.00012216	254.03	92.226	103.72	45.83	0.00011937	41.421	124.992	-30.805	276.657	-62.711	135.256	19.380	-64.185	-57.488	195.481	237.418	-60.596	-56.663	-53.495	-48.297	179.521	-52.260	-8191	255	
1585.949	1	1	0	0	0.11162	0.35685	0.038072	0.2602	0.14849	0.19642	0.26614	0.13945	0.25632	0.19212	0.10135	0.17408	0.16982	0.24374	0.10959	0.083872	-2.2938	-3.2479	-3.2562	-2.9917	-3.2979	-2.9604	-3.1063	-3.5458	-2.9146	-3.2292	-3.1417	-2.8667	-3.3646	-3.1354	-3.0146	-3.525	119.217	47.169	-46.546	-36.380	249.391	89.347	260.172	259.954	234.668	83.420	114.193	18.809	-44.022	248.683	277.955	219.990	0.00026929	0.00047142	0.00046059	951.27	8.8917e-06	4.9111e-06	793.27	281.73	5.3485e-06	1.6938e-06	245.37	88.963	99.715	45.92	9.2023e-06	40.036	0.0078222	0.011403	0.0032478	932.09	0.0001169	0.00012969	783.38	278.12	0.00011707	0.00013047	257.32	93.436	104.47	46.129	0.00012066	41.765	195.754	155.377	29.729	-62.478	44.654	196.376	-63.737	-57.601	-19.633	200.037	-60.841	-56.779	-53.825	-48.450	103.181	-51.907	-8191	255	
1586.045	1	1	0	0	0.11053	0.10455	0.043467	0.25623	0.12618	0.065316	0.22665	0.23247	0.18625	0.17988	0.14212	0.12976	0.25669	0.037389	0.067302	0.16083	-2.3125	-3.1042	-3.2062	-2.9188	-3.3042	-2.9958	-2.9521	-3.3187	-2.8729	-3.05	-3.2667	-2.65	-3.3583	-3.3208	-2.9708	-3.5083	166.618	195.741	219.180	262.398	-50.610	164.479	-21.890	280.197	19.243	-38.578	197.326	121.608	284.089	40.555	274.912	-8.367	1.9584e-05	0.00045741	0.00028669	961.33	1.5343e-06	6.3154e-06	807.68	284.45	3.2392e-06	7.0377e-06	251.24	91.653	102.33	46.913	1.0682e-05	41.111	0.0077283	0.011356	0.003166	939.9	0.00011311	0.0001242	794.66	280.21	0.00010885	0.00012141	259.75	94.785	105.23	46.901	0.00010761	42.218	168.204	183.638	113.685	-62.569	257.661	-46.469	-63.846	-57.860	119.379	156.138	-60.717	-56.768	-53.882	-48.262	28.976	-51.850	-8191	255	
1586.141	1	1	0	0	0.1421	0.20451	0.15857	0.11818	0.10505	0.10421	0.17758	0.1406	0.10751	0.35693	0.22153	0.41064	0.20209	0.15222	0.25657	0.16133	-2.3083	-3.0792	-3.3833	-2.7042	-3.1729	-3.2396	-3.1292	-3.3583	-2.875	-3.1104	-3.3417	-2.6562	-3.2479	-3.2062	-2.7687	-3.5167	95.033	-40.967	-29.490	35.450	124.869	174.477	189.935	-11.920	222.746	139.830	246.847	117.159	143.039	246.626	112.833	5.176	0.00011526	0.0015418	0.00022702	959.75	9.2438e-06	6.8765e-06	796.73	282.41	3.6017e-06	9.8589e-06	244.11	89.726	98.991	46.642	2.9086e-07	40.055	0.006714	0.010223	0.0027347	930.65	9.726e-05	0.00010769	779.51	274.87	9.4551e-05	0.00010449	248.57	91.952	101.69	45.872	9.484e-05	40.907	236.882	-11.956	144.218	-62.576	80.518	100.301	-64.062	-57.563	35.989	61.431	-60.080	-56.822	-53.700	-48.416	57.087	-52.473	-8191	255	
1586.236	1	1	0	0	0.17411	0.30416	0.098432	0.13821	0.10717	0.14698	0.30343	0.16852	0.21796	0.2433	0.15344	0.19451	0.14961	0.25498	0.078315	0.1971	-2.4437	-2.8667	-3.4271	-2.7333	-3.0646	-3.2438	-2.8271	-3.4417	-3.1104	-3.0229	-3.2938	-2.8937	-3.1937	-3.2854	-2.8917	-3.4062	277.245	-24.439	-70.444	40.614	42.925	29.800	250.529	261.318	10.522	271.229	191.027	233.210	233.299	239.965	100.087	-71.374	0.00015505	0.00094733	0.0003649	958.81	4.4814e-06	9.0816e-06	793.83	278.6	1.8772e-06	8.353e-06	243.28	89.132	99.525	46.484	1.5583e-05	40.279	0.006009	0.0097618	0.0026113	927.82	9.7865e-05	0.00010855	776.93	273.27	0.00010179	0.00011427	249.91	92.068	102.86	46.18	0.00010367	41.442	185.009	-32.210	30.370	-62.652	129.480	66.205	-64.093	-57.696	6.755	102.408	-60.139	-57.311	-53.603	-48.468	94.812	-52.063	-8191	255	
1586.356	1	1	0	0	0.061677	0.16417	0.22938	0.19739	0.14351	0.10921	0.11337	0.21888	0.10297	0.16251	0.26809	0.1731	0.21265	0.20311	0.11654	0.12044	-2.7125	-2.7854	-3.4229	-2.9479	-2.9771	-3.3208	-2.7292	-3.1583	-2.9104	-2.8937	-3.3146	-2.8187	-2.8979	-3.2771	-2.725	-3.3292	219.801	-43.737	-60.644	126.457	97.564	-5.738	36.275	269.745	-58.296	183.181	244.230	-19.403	-46.735	234.594	-45.871	274.784	0.00018423	0.001928	0.00034609	964	3.0018e-06	8.6447e-06	799.64	282.51	1.695e-06	7.7332e-06	246.4	90.317	100.82	46.489	3.2849e-06	41.016	0.0066079	0.010877	0.002845	934.16	0.00010587	0.00011755	784.88	277.83	0.00010805	0.00012005	255.58	93.431	104.57	46.435	0.00010553	42.025	159.912	254.493	267.203	-62.692	271.842	89.271	-64.466	-57.874	-15.298	163.754	-60.464	-56.849	-53.618	-48.205	62.264	-51.865	-8191	255	
1586.428	1	1	0	0	0.38509	0.34499	0.17352	0.10931	0.10097	0.030354	0.032563	0.22781	0.064992	0.063834	0.13869	0.31512	0.25282	0.096521	0.11513	0.18391	-2.5625	-3.0021	-3.2938	-2.9521	-3.0938	-3.2583	-3.0708	-3.3917	-3.0979	-3	-3.2271	-3.0062	-3.0854	-3.2729	-2.8604	-3.2646	-6.144	281.870	20.180	222.044	30.608	-40.243	192.701	232.369	62.346	-41.106	87.112	-45.888	226.829	17.697	-69.662	144.876	0.00024813	0.00096937	0.00037642	971.14	1.1056e-06	8.8086e-06	810.36	285.99	5.1578e-06	1.1712e-05	251.07	93.008	101.81	47.211	9.054e-06	41.872	0.0064233	0.010223	0.0026571	940.13	9.5119e-05	0.0001034	794.56	278.83	9.4664e-05	0.00010482	256.02	94.446	104.91	46.911	9.9547e-05	42.76	163.104	-60.028	76.422	-62.492	60.875	16.895	-63.985	-57.962	3.095	-49.288	-60.774	-56.395	-53.459	-48.482	147.640	-52.452	-8191	255	
1586.524	1	1	0	0	0.064288	0.031769	0.10115	0.11425	0.016847	0.16181	0.098586	0.22436	0.27501	0.061807	0.13753	0.20194	0.1633	0.14259	0.21197	0.27923	-2.7812	-2.9542	-3.3083	-3.2062	-2.8104	-3.2083	-2.9437	-3.1979	-3.225	-2.6896	-3.4271	-3.0396	-2.8771	-3.5563	-2.775	-3.1125	-67.257	233.799	241.105	250.567	-75.745	-28.294	-74.426	208.264	93.386	227.648	209.274	123.691	136.105	-26.830	-10.905	-63.247	7.752e-05	0.0015064	8.8239e-05	969.27	4.8616e-06	1.9162e-05	797.86	281.06	6.6744e-06	6.5702e-06	246.04	89.446	98.894	46.226	9.3892e-06	40.087	0.0063863	0.01036	0.002677	939.19	9.8066e-05	0.00010594	780.17	275.39	9.8086e-05	0.00010786	250.11	91.849	103.15	45.825	0.00010058	41.144	66.811	23.431	56.832	-62.416	196.253	91.383	-63.963	-57.856	26.661	-49.704	-60.344	-57.065	-53.352	-48.300	210.379	-52.146	-8191	255	
1586.620	1	1	0	0	0.06775	0.15092	0.17224	0.024565	0.10581	0.23149	0.18697	0.17597	0.1955	0.38415	0.056782	0.183	0.10304	0.12106	0.093437	0.22284	-3.0312	-2.8208	-3.2479	-3.3063	-2.9167	-3.3375	-3.1	-2.9958	-3.075	-2.9479	-3.2313	-3.075	-2.8271	-3.2771	-2.8833	-3.0563	247.288	138.741	83.122	18.942	215.292	117.228	275.171	180.722	101.825	10.135	239.504	194.997	61.977	236.992	-4.230	190.207	7.7314e-05	0.00051019	3.2563e-05	948.21	4.9735e-06	7.1749e-06	789.52	278.19	3.2261e-06	6.1975e-06	242.28	90.594	100.25	46.925	3.3382e-06	41.165	0.0062171	0.0098259	0.0025694	919.61	8.9747e-05	9.6697e-05	766.35	270.9	8.3821e-05	9.0316e-05	243.9	91.171	102.05	46.069	8.5173e-05	41.381	142.758	-54.353	56.071	-62.300	-34.696	98.203	-63.916	-57.440	67.732	200.071	-60.780	-56.869	-54.031	-48.305	-10.331	-52.040	-8191	255	
1586.741	1	1	0	0	0.20263	0.20112	0.1861	0.1879	0.15687	0.21306	0.14977	0.13477	0.034761	0.10451	0.096737	0.26836	0.3129	0.22372	0.15574	0.10267	-2.7875	-3.0167	-3.0187	-3.2583	-2.8688	-3.2875	-2.9958	-3.05	-3.3417	-2.7896	-3.0479	-3.1562	-2.6083	-3.4646	-3.0167	-3.2938	39.693	-1.838	59.873	259.851	181.477	-7.920	-23.064	179.785	-53.729	96.472	57.652	208.462	-48.884	221.147	82.706	-12.474	0.00015758	0.0014261	0.00015841	960.65	6.6014e-06	1.5097e-05	795.56	279.43	5.7721e-06	6.1198e-06	243.12	91.751	101.15	46.961	1.2644e-05	41.207	0.0053541	0.0089379	0.0023297	924.01	8.6206e-05	9.5395e-05	771.37	272.94	8.7308e-05	9.6543e-05	247.62	92.381	103.27	46.344	9.0879e-05	41.754	115.394	-11.703	153.324	-62.418	12.171	118.725	-64.258	-57.412	121.792	166.615	-60.157	-57.156	-53.633	-48.473	173.109	-52.242	-8191	255	
1586.837	1	1	0	0	0.28116	0.2616	0.10557	0.17188	0.17428	0.21314	0.30414	0.070812	0.050299	0.050854	0.26241	0.19952	0.15851	0.21023	0.088737	0.20156	-2.8229	-2.7062	-3.0083	-3.3646	-2.7979	-3.2875	-2.9813	-3.0396	-3.3646	-2.8146	-3.2833	-3.1875	-2.7604	-3.2729	-2.9562	-2.8417	-1.385	27.675	16.139	283.742	231.696	280.770	178.682	212.023	247.651	66.283	283.842	-9.912	227.342	-63.431	73.608	213.086	0.00010191	0.00012594	0.0003016	958.44	3.0538e-06	3.945e-06	801.62	279.54	4.9973e-06	7.7696e-06	245.27	91.27	101.03	47.156	2.5742e-06	41.638	0.0055603	0.0089852	0.0024461	925.57	9.0763e-05	0.0001009	777.34	275.37	9.4033e-05	0.00010527	252.27	93.446	104.07	46.596	9.679e-05	42.261	195.856	224.812	175.798	-62.614	105.073	114.449	-64.067	-57.437	188.081	-13.620	-60.062	-56.504	-53.751	-48.736	-62.216	-52.215	-8191	255	
1586.933	1	1	0	0	0.24344	0.30069	0.17922	0.072544	0.15335	0.12677	0.1889	0.16167	0.12714	0.23051	0.29171	0.13408	0.1427	0.22832	0.058824	0.12781	-3.1396	-2.9146	-2.8312	-3.4458	-2.7521	-3.3229	-3.1667	-2.8479	-3.3375	-2.9292	-3.0604	-3.3583	-2.8937	-3.2354	-3.0375	-2.9042	208.599	-49.009	178.042	244.638	174.751	-61.205	223.771	-8.316	270.847	46.634	212.618	51.864	257.113	261.805	62.609	106.321	8.7616e-05	0.00079181	0.00024488	964.64	4.0687e-06	8.1841e-07	804.45	280.98	5.2097e-06	1.3339e-05	241.77	91.247	100.26	46.665	7.039e-06	40.618	0.0058112	0.0092938	0.0025965	932.23	8.9104e-05	9.83e-05	783.64	274.22	8.8414e-05	9.8504e-05	247.26	92.314	102.65	46.214	9.2902e-05	41.449	49.838	-1.509	1.147	-62.620	254.586	278.032	-63.920	-57.604	53.751	89.706	-60.324	-56.383	-53.953	-48.540	-4.948	-52.230	-8191	255	
1587.054	1	1	0	0	0.23194	0.10788	0.15837	0.20138	0.11611	0.34186	0.050209	0.14876	0.19915	0.16604	0.045192	0.24319	0.14893	0.30245	0.10252	0.15061	-2.9021	-2.8688	-2.9271	-3.2854	-2.9104	-3.1146	-3.4417	-2.8021	-3.1875	-3.1229	-2.8729	-3.5021	-3.0333	-3.3708	-3.3354	-2.7687	211.084	84.208	203.844	-8.671	124.072	253.938	126.726	280.135	278.500	17.568	154.325	31.660	18.502	181.556	109.200	201.627	0.00013038	0.0014009	6.6037e-05	946.68	3.691e-06	1.044e-05	782.9	273.26	3.8676e-06	9.3819e-06	237.08	89.174	98.507	46.013	4.2122e-06	40.207	0.005696	0.0088455	0.0025915	914.3	8.7724e-05	9.6993e-05	759.23	267.16	8.9823e-05	0.00010108	241.61	90.518	101.5	45.576	9.7844e-05	41.06	140.208	275.338	220.349	-62.511	-13.699	41.776	-64.255	-57.278	78.887	43.025	-60.375	-56.515	-53.294	-48.372	97.278	-52.799	-8191	255	
1587.126	1	1	0	0	0.12514	0.24217	0.14474	0.123	0.27006	0.068326	0.33688	0.22865	0.22853	0.10032	0.05805	0.16296	0.21179	0.038394	0.070156	0.12734	-2.9833	-2.775	-2.9604	-3.45	-2.8771	-3.2271	-3.3875	-2.8625	-3.1688	-3.1646	-3.0312	-3.2938	-2.9396	-3.175	-3.2188	-2.8646	0.744	37.894	62.812	-40.417	260.197	29.943	220.191	179.638	-46.930	130.283	250.073	241.258	189.798	162.281	268.651	-55.938	0.00033393	0.00065775	0.00019501	938.04	6.7378e-06	9.7453e-06	778.87	270.93	4.541e-06	5.257e-06	237.43	89.618	99.209	46.214	5.6439e-06	40.778	0.0061938	0.0095872	0.0028782	912.89	9.9166e-05	0.00011086	762.13	267.1	0.00010137	0.0001139	245.03	91.789	102.71	46.165	0.00010661	41.772	178.042	193.313	128.548	-62.301	166.483	60.653	-64.101	-57.595	133.692	7.568	-60.609	-56.897	-53.522	-48.670	86.464	-52.343	-8191	255	
1587.222	1	1	0	0	0.18444	0.090876	0.11045	0.24368	0.3055	0.092092	0.27813	0.27319	0.11706	0.22236	0.17489	0.29889	0.10045	0.083298	0.015272	0.19884	-2.8625	-2.95	-2.9583	-3.4792	-2.8438	-3.0833	-3.4458	-2.7896	-3.2771	-3.1646	-2.9188	-3.4375	-2.9771	-3.2854	-3.2083	-3.0104	-4.581	230.266	68.047	218.608	140.047	113.373	190.425	214.134	-24.919	89.275	210.314	-33.823	154.173	233.748	111.097	271.900	0.00016827	0.00018014	0.00031897	943.55	8.0055e-06	7.2905e-06	783.61	273.71	1.0769e-05	5.7463e-06	240.71	91.149	99.311	46.678	6.1513e-06	41.008	0.0066008	0.010159	0.002956	919.4	0.00010342	0.00011383	767.91	269.96	0.000104	0.00011446	248.97	93.593	103.11	46.767	0.0001086	42.434	118.524	160.288	9.931	-62.732	93.655	134.074	-64.271	-57.750	241.087	127.193	-59.774	-56.495	-53.458	-48.443	-69.061	-52.031	-8191	255	
1587.341	1	1	0	0	0.1632	0.17842	0.11916	0.095491	0.29348	0.095193	0.04262	0.045418	0.076098	0.1206	0.088467	0.2704	0.19729	0.3244	0.22493	0.19322	-2.9688	-3.2979	-2.6875	-3.3708	-3.0312	-2.7229	-3.3583	-2.9208	-3.1021	-3.225	-2.6833	-3.1917	-3.1708	-2.9729	-3.1042	-2.8042	-53.881	94.145	246.458	-66.322	100.318	99.624	194.619	169.524	-34.119	-57.196	-5.946	180.456	-21.721	268.154	-71.115	283.292	0.00024693	0.00079701	0.00072167	949.28	5.8248e-06	1.012e-05	799.79	276.96	1.0609e-05	5.4982e-06	243.57	91.791	100.43	46.79	8.6588e-06	40.697	0.0068674	0.010653	0.0031446	926.04	0.00010941	0.00011945	781.74	273.89	0.0001104	0.00012106	253.42	94.821	104.21	46.774	0.00011069	42.137	158.837	98.282	19.585	-62.216	28.243	-19.712	-64.040	-57.438	56.792	124.564	-60.401	-56.631	-53.329	-48.636	87.818	-52.510	-8191	255	
1587.437	1	1	0	0	0.14978	0.29207	0.24901	0.32897	0.10111	0.26671	0.27422	0.32439	0.15789	0.10614	0.20721	0.25652	0.10867	0.34875	0.11563	0.062368	-2.7021	-3.0146	-2.7333	-3.3625	-3.0104	-2.875	-3.4229	-2.9167	-3.0125	-3.3604	-2.9375	-3.1188	-2.9792	-3.0021	-3.3125	-2.9583	-20.758	23.817	65.243	199.465	181.121	252.146	237.929	-47.834	140.537	277.913	265.418	-42.971	78.673	-64.162	205.648	282.348	0.00018342	0.00061684	0.00016757	943.43	3.1829e-06	1.4587e-05	777.08	269.76	7.4778e-06	3.1818e-06	235.63	89.642	99.113	45.808	9.4589e-06	40.337	0.0068501	0.010302	0.0029845	916.71	0.00010516	0.00011429	761.29	266.54	0.00010867	0.00011652	245.45	92.234	102.5	46.127	0.0001106	41.629	110.626	227.303	19.080	-62.470	23.142	52.791	-63.741	-57.571	-72.013	-7.127	-60.486	-56.942	-53.439	-48.528	102.156	-51.917	-8191	255	
1587.533	1	1	0	0	0.012136	0.059148	0.15287	0.18772	0.10368	0.27851	0.28368	0.037946	0.18508	0.28001	0.1365	0.47214	0.24323	0.22216	0.2082	0.18639	-2.5438	-3.1021	-2.5938	-3.3167	-3.0687	-2.8125	-3.2375	-2.8708	-2.9938	-3.3292	-2.7792	-2.9396	-3.2896	-3.0271	-3.2417	-2.8979	-69.713	246.493	257.023	-59.083	136.521	232.789	260.057	207.517	61.274	102.182	207.830	256.850	175.769	177.398	123.530	175.084	0.0002465	0.00026048	0.00046834	937.18	1.2966e-05	1.9029e-05	776.66	271.67	1.4039e-05	1.9672e-06	238.79	89.783	98.921	46.069	4.996e-06	40.507	0.0068306	0.010435	0.0030895	912.56	0.00010466	0.0001166	763.37	267.3	0.00010987	0.00011643	247.49	92.801	102.93	46.412	0.00011499	42.092	134.892	-31.124	12.867	-62.694	68.414	71.010	-63.997	-57.441	-47.146	203.561	-60.765	-56.609	-53.601	-48.503	18.605	-51.962	-8191	255	
1587.654	1	1	0	0	0.1456	0.0511	0.1632	0.23129	0.32036	0.0531	0.3186	0.2179	0.23222	0.089099	0.20029	0.052556	0.2494	0.048153	0.12261	0.16368	-2.4625	-3.4875	-2.8187	-3.2354	-3.1792	-2.9229	-3.4104	-2.9604	-3.0938	-3.3833	-2.9854	-3.0229	-3.4625	-2.75	-3.4104	-3.1104	237.094	33.445	-24.290	226.622	-9.566	-25.140	206.130	251.670	15.607	188.916	-2.953	45.223	263.037	-10.757	212.353	240.325	7.6421e-05	0.00069147	0.00027661	940.62	7.6417e-06	1.4111e-05	777.26	273.03	3.7761e-06	8.4243e-06	241.56	89.602	99.454	46.365	1.2008e-05	40.827	0.00727	0.011161	0.003305	920.62	0.00011457	0.00012692	770.67	270.52	0.00012206	0.00012987	252.73	93.965	104.01	46.555	0.00012357	42.458	83.072	-62.954	7.758	-62.385	32.060	179.576	-64.421	-57.393	184.306	28.284	-60.332	-56.919	-53.363	-48.407	-28.172	-52.106	-8191	255	
1587.725	1	1	0	0	0.10759	0.21811	0.18657	0.10738	0.15809	0.1591	0.057794	0.14914	0.085834	0.032414	0.19983	0.30601	0.10941	0.032847	0.078916	0.019132	-2.4667	-3.2687	-3.0083	-3.0667	-3.1625	-2.9271	-3.25	-3.2812	-2.925	-3.1688	-3.0479	-3.2167	-3.2229	-2.8688	-3.1437	-3.2396	114.255	54.608	-8.047	187.161	186.277	230.544	233.112	-63.633	205.180	59.610	192.832	277.971	-33.012	57.714	261.195	241.279	0.00021078	0.0010934	0.00034234	946.44	7.4504e-06	1.3573e-05	789.19	274.71	1.0849e-06	8.5088e-06	242.33	92.094	100.05	46.519	7.8755e-06	41.149	0.0076027	0.011641	0.0032977	930.83	0.00011624	0.00012743	780.82	272.87	0.00011799	0.0001247	254.28	94.733	104.28	46.819	0.00011493	42.545	110.492	65.609	-18.002	-62.524	205.863	70.948	-64.244	-57.415	196.322	133.655	-60.574	-56.539	-53.442	-48.643	50.120	-52.075	-8191	255	
1587.821	1	1	0	0	0.15868	0.16902	0.10335	0.19318	0.13311	0.18208	0.02011	0.28835	0.2571	0.11739	0.17485	0.18692	0.25351	0.078893	0.11683	0.16818	-2.4104	-3.0979	-3	-2.9062	-3.1021	-2.9625	-3.3979	-3.1521	-3.0625	-3.275	-3.0625	-3.1125	-3.4125	-2.9208	-3.0938	-3.2354	-59.918	51.199	134.477	238.466	-8.010	-30.639	21.480	259.648	6.795	248.277	209.798	39.303	-69.144	253.072	-65.687	261.438	0.00010848	0.0013275	0.00022829	941.96	1.3502e-05	1.1319e-05	774.33	271.13	1.1343e-05	1.3903e-05	237.27	87.837	97.355	44.937	2.7242e-06	39.324	0.0071771	0.011146	0.0031773	922.79	0.00011588	0.0001284	765.6	268.35	0.00012451	0.00012985	249.1	91.814	102.38	45.454	0.00011948	41.093	246.814	-32.800	153.861	-62.455	103.102	36.513	-64.214	-57.584	251.405	73.411	-60.460	-56.323	-53.541	-48.283	36.306	-52.057	-8191	255	
1587.918	1	1	0	0	0.065623	0.26122	0.20688	0.2028	0.12211	0.071032	0.23934	0.051137	0.25531	0.24324	0.20779	0.15687	0.21302	0.31794	0.14471	0.27862	-2.2896	-3.3375	-2.925	-3.1667	-3.2313	-2.6167	-3.2188	-3.2271	-2.8438	-3.2562	-2.9854	-2.9313	-3.2896	-2.85	-3.1063	-3.2896	-10.024	167.808	114.429	217.247	-27.733	107.951	220.245	245.899	20.174	83.891	81.203	268.908	189.962	239.676	242.426	185.315	0.00029	0.0025812	0.00065212	930.57	8.1902e-06	1.1908e-05	770.32	270.35	3.6009e-06	1.9562e-05	236.03	87.619	97.65	45.066	8.6367e-06	39.032	0.0072586	0.011223	0.0031201	915.88	0.00011277	0.00012578	760.56	268.06	0.00012144	0.0001313	249.93	92.131	103.13	45.45	0.00013177	41.275	164.283	29.281	-14.670	-62.446	63.834	48.118	-64.286	-57.687	280.387	6.943	-60.913	-56.742	-53.444	-48.610	-51.289	-52.259	-8191	255	
1588.038	1	1	0	0	0.061106	0.26303	0.10953	0.10416	0.12724	0.22576	0.19577	0.17243	0.11351	0.29882	0.23663	0.23218	0.09768	0.25297	0.13251	0.18793	-2.2271	-3.2771	-3.3063	-2.7021	-3.4021	-3.0687	-3.1417	-3.0896	-2.8042	-3.1417	-3.1937	-2.7188	-3.375	-3.0979	-3.0021	-3.2729	-20.189	-34.952	60.275	249.901	-21.488	22.994	-11.404	159.354	148.562	37.911	224.634	-50.262	252.735	223.258	-43.223	205.503	3.3204e-05	0.00079906	9.7533e-05	932.52	5.6969e-06	2.9914e-06	771.63	274.57	6.8352e-06	2.577e-06	242	90.041	98.987	45.532	7.4024e-06	40.443	0.0077898	0.012032	0.0032975	917.66	0.00011697	0.00012736	765.35	271.68	0.00012105	0.00012533	253.1	92.985	103.83	45.723	0.00012434	41.915	133.217	56.088	-37.224	-62.467	249.941	193.546	-63.737	-57.601	230.142	229.731	-60.082	-57.086	-53.298	-48.337	53.993	-52.632	-8191	255	
1588.133	1	1	0	0	0.1239	0.1091	0.1806	0.067073	0.079739	0.11601	0.11179	0.17918	0.12587	0.22846	0.058677	0.16444	0.058561	0.3828	0.2045	0.15777	-2.4104	-3.2125	-3.2396	-3.0146	-3.3917	-3.1562	-3.2208	-3.4771	-2.8688	-3.2333	-3.2542	-2.7667	-3.3312	-3.0771	-2.8458	-3.3063	143.766	180.289	70.401	-20.612	113.207	-32.936	213.841	237.008	-44.007	-55.053	-30.213	185.188	275.445	226.052	242.367	115.043	9.4923e-05	0.00072809	0.00031561	947.1	9.364e-06	3.9116e-06	788.24	278.62	1.335e-05	6.3102e-06	246.22	91.859	100.77	46.641	1.5445e-06	41.636	0.0073857	0.01139	0.0031135	926.13	0.00011092	0.0001216	776.22	274.35	0.00011278	0.00011909	254.97	94.292	104.5	46.513	0.00011525	42.78	276.176	-13.172	40.684	-62.437	88.526	145.973	-64.126	-57.543	2.456	-60.830	-60.327	-56.573	-53.225	-48.078	24.327	-52.045	-8191	255	
1588.229	1	1	0	0	0.14779	0.16985	0.12376	0.096061	0.086106	0.064751	0.17642	0.077453	0.21716	0.090623	0.17039	0.014349	0.091156	0.17078	0.058226	0.085337	-2.3396	-2.7854	-3.2583	-2.8958	-3.1542	-3.1562	-3.1354	-3.35	-2.7667	-3.1708	-3.3979	-2.8146	-3.1833	-2.9917	-2.9667	-3.4271	256.399	4.713	215.985	-45.383	94.648	7.359	235.778	-36.830	200.514	-46.387	64.910	-53.608	225.102	253.549	47.532	202.529	0.00016341	0.00075033	0.00051837	957.96	6.742e-06	8.6319e-06	795.69	278.3	8.9896e-06	8.4384e-06	245.16	90.136	99.303	46.319	6.7919e-06	40.846	0.0067799	0.010379	0.0028457	933.36	0.00010291	0.00011152	780.41	273.54	0.00010243	0.00011552	251	92.82	102.86	46.028	0.00010634	41.779	103.370	22.068	-5.083	-62.509	-15.222	227.277	-64.068	-57.746	-74.291	176.946	-60.476	-56.309	-53.605	-48.311	247.502	-52.377	-8191	255	
1588.325	1	1	0	0	0.12945	0.088931	0.010846	0.092847	0.22539	0.08123	0.30813	0.27484	0.25709	0.31492	0.1284	0.23821	0.11056	0.13322	0.093047	0.25264	-2.7167	-3.2021	-3.4083	-2.7625	-2.9958	-3.0479	-3.1104	-3.3479	-2.8729	-2.9125	-3.3083	-2.8125	-3.3104	-3.3312	-2.7229	-3.2958	31.810	-61.506	-4.388	-61.277	250.039	34.908	247.811	-21.246	17.991	256.338	257.542	-20.624	196.817	0.456	-9.865	66.770	0.00018863	0.00063707	0.00039356	946.51	1.3347e-06	3.1822e-06	788.25	275.19	1.2826e-05	2.4722e-06	240.7	90.412	98.779	46.389	1.3762e-05	41.077	0.0062548	0.0096414	0.0026437	919.78	9.5972e-05	0.00010288	766.77	269.15	9.3251e-05	0.00010633	246.13	91.73	101.39	45.755	0.00010043	41.644	147.750	29.325	21.667	-62.664	0.095	67.190	-63.732	-57.634	36.452	34.544	-60.509	-56.659	-52.992	-48.628	95.700	-52.397	-8191	255	
1588.421	1	1	0	0	0.20676	0.19275	0.24159	0.26875	0.11507	0.24145	0.08696	0.1245	0.35693	0.11026	0.49215	0.33449	0.13465	0.1554	0.13515	0.24782	-2.4208	-2.7625	-3.1729	-2.9292	-3.0792	-3.0771	-2.5896	-3.3854	-3.0708	-3.0083	-3.3083	-2.8771	-3.1625	-3.2938	-2.8729	-3.3104	146.689	149.903	200.735	283.827	68.421	62.631	-47.106	-22.509	71.811	-54.826	-46.628	167.855	-16.712	-34.698	84.570	193.178	0.00018061	0.00091349	0.0003058	951.01	3.7153e-06	7.6358e-06	789.81	275.47	3.2252e-06	6.8497e-06	244.97	91.183	99.89	46.67	1.5152e-05	40.972	0.0057762	0.0088662	0.0025008	921.66	9.0823e-05	0.00010088	772.38	269.65	9.2928e-05	0.00011032	249.84	92.803	102.38	46.297	0.00010378	42.025	131.014	56.892	43.225	-62.691	131.418	14.775	-63.887	-57.227	241.497	94.156	-60.311	-57.105	-53.489	-48.604	49.263	-52.226	-8191	255	
1588.517	1	1	0	0	0.11139	0.12556	0.15266	0.23928	0.088615	0.18122	0.15797	0.22094	0.14737	0.19305	0.017564	0.065196	0.22167	0.19772	0.17624	0.13209	-2.6146	-3.05	-3.3354	-3.0042	-2.9625	-3.2562	-3.0229	-3.3208	-3.0604	-2.8812	-3.3771	-3.0229	-2.95	-3.2708	-2.7042	-3.1729	-42.871	173.634	-13.452	270.801	111.117	49.375	96.470	200.226	25.837	240.705	214.983	147.651	-44.825	187.745	22.525	169.495	2.1145e-05	0.00037462	0.00028929	955.5	1.1122e-05	4.8667e-06	800.63	278.64	2.418e-06	2.828e-06	247.39	92.313	99.86	46.685	7.6843e-06	41.297	0.006071	0.0093647	0.0026411	925.28	9.9255e-05	0.00010331	780.02	272.54	9.4457e-05	0.00011031	252.54	93.708	103.07	46.41	0.00010774	42.27	103.629	250.045	279.551	-62.582	123.625	-35.581	-64.025	-57.372	235.370	270.214	-59.818	-56.818	-53.316	-48.742	89.845	-52.180	-8191	255	
1588.613	1	1	0	0	0.029429	0.26076	0.048852	0.31388	0.19446	0.11953	0.47402	0.1898	0.10456	0.053578	0.12774	0.19602	0.14094	0.22846	0.054813	0.055971	-2.925	-2.8187	-3.2938	-2.8625	-2.8063	-3.3854	-3.0354	-3.375	-3.0812	-2.5354	-3.2917	-3.1083	-3.0021	-3.2021	-2.6354	-3.4083	-34.340	116.585	166.175	283.425	98.902	67.584	235.202	122.991	175.429	191.349	-33.555	210.515	224.163	-59.380	-19.266	150.107	0.00022371	0.00018281	0.00034045	957.46	3.5986e-07	1.6294e-05	804.18	281.05	3.5235e-06	7.7138e-06	246.68	91.28	99.906	46.285	9.4552e-06	40.538	0.0061592	0.0094966	0.0026658	930.51	9.9976e-05	0.00010568	786.68	274.39	9.4383e-05	0.00011204	251.56	92.903	102.19	45.926	0.00010231	41.559	121.862	283.241	135.262	-62.590	160.440	88.344	-64.019	-57.328	174.751	253.760	-60.739	-56.899	-53.670	-48.248	69.118	-52.035	-8191	255	
1588.734	1	1	0	0	0.046015	0.15968	0.1301	0.17539	0.17375	0.21499	0.24176	0.11826	0.15811	0.35203	0.1302	0.074142	0.10801	0.18426	0.09823	0.21674	-2.8646	-2.5521	-3.2438	-3.0187	-3.0083	-3.1729	-2.9125	-3.5	-3.175	-2.7396	-3.2521	-3.2146	-2.9833	-3.2687	-2.8521	-3.1958	254.157	239.992	98.255	199.893	60.724	49.903	210.203	37.992	67.777	193.018	272.038	255.013	173.904	-11.363	-71.907	211.975	0.00015223	0.00052671	0.0003612	941.18	6.4654e-06	8.7815e-06	780.77	272.96	1.0502e-05	7.939e-06	240.56	88.906	97.15	45.501	1.2082e-05	40.268	0.0061036	0.0094866	0.0026902	915.89	0.00010322	0.00010809	764.86	267.21	9.7067e-05	0.00011306	246.34	90.945	101.21	45.388	0.0001018	41.332	106.171	-64.778	222.324	-62.508	140.100	-44.805	-64.190	-57.367	75.884	33.510	-60.134	-56.870	-53.847	-48.050	6.486	-52.216	-8191	255	
1588.830	1	1	0	0	0.06632	0.019473	0.12158	0.19286	0.11384	0.2584	0.08893	0.13857	0.14151	0.21938	0.017326	0.3163	0.15991	0.061454	0.25351	0.039596	-2.8812	-2.5521	-3.2667	-3.2271	-2.8542	-3.3479	-2.925	-3.1146	-3.1896	-2.6542	-3.3125	-3.2417	-2.6292	-3.2938	-3.0438	-3.0208	182.458	-58.983	221.508	271.810	82.194	120.892	187.446	79.423	249.641	226.852	109.765	269.514	207.003	284.170	21.795	186.929	0.00019619	0.00090762	0.00032513	943.98	3.6638e-06	7.1281e-06	785.49	275.1	2.478e-06	5.5167e-06	244.18	90.316	99.101	46.099	1.0166e-05	40.8	0.0063545	0.0097788	0.0027396	916.09	0.00010459	0.00011102	769.62	269.75	9.9405e-05	0.00011871	250.56	92.66	102.45	45.886	0.00010468	41.976	114.735	25.508	-21.857	-62.407	169.945	234.117	-64.160	-57.568	133.253	246.647	-60.431	-56.566	-53.185	-48.718	56.759	-52.476	-8191	255	
1588.926	1	1	0	0	0.23701	0.19798	0.15239	0.059402	0.096062	0.30272	0.12902	0.16828	0.20169	0.02713	0.21709	0.096111	0.18712	0.072202	0.15938	0.12187	-2.7833	-2.7146	-3.1063	-3.3333	-2.7479	-3.1375	-2.9083	-3.1771	-3.2687	-2.7417	-3.0417	-3.3333	-2.8667	-3.1604	-3.1604	-2.9688	258.443	-65.241	151.070	130.349	97.866	5.246	-18.470	85.206	73.812	257.909	71.565	-54.395	249.982	43.521	136.628	82.839	0.00018582	0.00054187	0.00036201	949.59	1.7406e-05	1.7142e-05	794.68	277.62	4.2229e-06	1.3182e-05	247	92.273	99.937	46.655	3.1405e-06	40.903	0.0064908	0.010038	0.0027618	921.25	0.00010782	0.00010999	778.53	273.05	0.00010196	0.00011638	255.04	94.12	103.67	46.416	0.00010942	42.563	167.721	-14.413	238.731	-62.905	182.362	48.341	-64.100	-57.513	203.514	53.130	-60.391	-57.244	-53.145	-48.334	157.836	-52.189	-8191	255	
1589.022	1	1	0	0	0.16738	0.29234	0.12315	0.059117	0.14434	0.17148	0.1678	0.053358	0.16334	0.36624	0.13412	0.081381	0.1551	0.15709	0.055327	0.20172	-2.7188	-2.9083	-3.0812	-3.2833	-2.575	-3.4333	-3.0938	-2.9042	-3.3208	-2.9688	-3.1792	-3.1708	-2.8917	-3.3396	-3.1146	-2.9854	-20.295	92.917	229.422	248.667	173.864	36.612	198.925	205.894	136.997	211.507	153.014	221.494	-4.143	197.522	243.391	61.313	0.00020459	0.0011769	0.00037702	952.49	4.3885e-06	1.1971e-05	800.57	280.8	4.4205e-06	6.872e-06	249.33	90.992	99.288	45.55	1.3211e-05	40.171	0.0068936	0.010689	0.002969	928.24	0.00011305	0.00011907	784.75	275.34	0.00010752	0.00011874	259	93.977	103.61	45.773	0.00011086	41.62	141.655	-61.061	227.584	-62.593	-4.739	4.813	-63.784	-57.676	-26.585	38.832	-60.557	-56.897	-53.440	-48.391	2.181	-52.370	-8191	255	
1589.119	1	1	0	0	0.14361	0.040301	0.25183	0.26444	0.045751	0.12787	0.15447	0.13161	0.06671	0.26936	0.044319	0.029911	0.12655	0.016408	0.057582	0.11131	-3.0146	-2.9875	-3.1937	-3.2917	-2.6917	-3.2812	-3.1021	-2.8458	-3.4729	-2.8875	-3.1417	-3.0896	-2.9437	-3.15	-3.1229	-2.7792	237.705	-60.834	274.007	279.843	-63.331	-70.956	147.783	207.523	216.075	13.648	146.657	277.465	136.311	36.180	-3.563	-21.189	0.00024012	0.00092806	0.00036245	936.85	3.3412e-06	1.0158e-05	781.15	271.46	6.8476e-06	4.8752e-06	239.2	88.647	97.108	45.002	9.3975e-07	39.734	0.0068894	0.01056	0.0029296	914.67	0.00011406	0.00011673	765.82	268.82	0.00010554	0.00011574	250.16	91.48	101.54	45.32	0.00011095	41.543	141.210	72.493	-23.893	-62.485	139.219	283.105	-64.183	-57.454	265.040	13.453	-60.329	-56.830	-53.127	-48.128	239.627	-52.199	-8191	255	
1589.213	1	1	0	0	0.17927	0.063042	0.069585	0.14002	0.26201	0.17915	0.11568	0.19879	0.19389	0.18467	0.098026	0.15758	0.22624	0.21829	0.19154	0.18029	-2.8729	-2.9583	-2.8063	-3.5812	-2.8833	-3.1542	-3.5708	-2.7958	-3.3625	-3.0104	-2.8438	-3.3083	-2.8479	-3.1312	-3.3375	-2.8354	11.378	12.129	142.625	204.612	130.525	204.478	164.787	276.427	199.989	254.335	-55.387	-23.463	-13.359	274.087	-4.062	252.752	0.00021293	0.001427	0.00054041	938.21	5.7676e-06	7.4971e-06	785.07	276.88	1.0264e-05	5.5435e-06	244.03	90.633	99.348	46.037	2.3734e-06	40.429	0.0069974	0.010649	0.0029207	913.03	0.00010761	0.00011378	768.87	270.85	9.8448e-05	0.00010656	252.07	92.041	101.69	45.646	9.6808e-05	41.613	133.427	-51.457	172.104	-62.376	106.124	159.740	-63.895	-57.593	-54.058	102.743	-60.291	-56.894	-53.491	-48.582	239.276	-51.989	-8191	255	
1589.334	1	1	0	0	0.18816	0.28107	0.33869	0.11101	0.11987	0.26743	0.091173	0.22768	0.12326	0.092492	0.028664	0.10952	0.11284	0.089428	0.13573	0.1061	-2.7812	-2.9938	-2.7687	-3.35	-3.1083	-3.0917	-3.3292	-2.8396	-3.1292	-3.0583	-2.9188	-3.2979	-2.825	-3.2729	-3.2854	-2.9854	274.327	9.226	80.173	176.626	-49.864	-49.117	236.482	273.723	206.310	101.819	177.470	-16.802	227.628	130.155	11.752	55.941	0.00022398	0.00043183	0.00052829	949.26	6.6381e-06	2.0807e-05	792.15	276.21	7.7812e-06	7.1777e-06	243.11	90.217	97.888	45.546	1.3094e-05	40.277	0.0060489	0.0093654	0.0026863	920.02	9.9429e-05	0.00011801	774.29	271.56	0.00010753	0.00011966	254.27	93.21	103.13	45.662	0.00011811	42.135	152.100	120.888	51.164	-62.241	66.734	145.348	-64.065	-57.654	61.760	131.596	-60.385	-56.694	-53.902	-48.139	-65.402	-52.356	-8191	255	
1589.430	1	1	0	0	0.11617	0.17331	0.025157	0.11052	0.19788	0.24444	0.16547	0.11474	0.062571	0.20841	0.20706	0.12676	0.08285	0.12918	0.12095	0.1701	-2.7583	-3.1708	-2.7854	-3.35	-2.8937	-3.0708	-3.3812	-2.85	-3.2729	-3.1688	-2.8917	-3.2271	-3.1188	-3.0396	-3.1813	-3.1333	98.086	25.129	68.800	251.693	182.439	121.608	260.968	262.802	-39.572	260.552	220.369	1.405	2.631	-59.935	116.694	219.121	0.00011056	0.0018564	0.0001987	944.26	7.9215e-06	3.5193e-06	795.16	280.32	1.0621e-05	1.3669e-05	248.9	91.125	98.647	45.785	1.1697e-05	40.658	0.0072508	0.011278	0.0031698	926.93	0.00011442	0.00013145	784.27	276.26	0.00011617	0.00012897	261.69	94.51	104.1	45.992	0.00012154	42.419	68.013	18.584	112.704	-62.278	54.605	150.545	-63.986	-57.390	-9.185	88.473	-60.594	-56.655	-53.839	-48.692	64.665	-52.375	-8191	255	
1589.526	1	1	0	0	0.12242	0.18236	0.17788	0.18734	0.21672	0.090413	0.28058	0.18633	0.021715	0.21356	0.17799	0.065988	0.1768	0.29105	0.16657	0.12631	-2.6896	-3.0479	-2.9	-3.4229	-2.9917	-2.7458	-3.4417	-2.8917	-3.3125	-3.1813	-2.8812	-2.9583	-2.9917	-2.7583	-3.2979	-2.7125	196.713	237.440	-30.346	223.857	185.634	-39.444	185.168	-70.530	221.929	167.015	194.546	239.344	207.259	-43.314	178.740	156.889	0.00021257	0.00093097	0.00052375	948.63	6.955e-06	2.1107e-06	787.4	277.71	1.3161e-05	6.8727e-06	246.01	89.538	98.448	45.064	9.0189e-06	39.697	0.0074518	0.011265	0.0031361	926.07	0.0001084	0.00012645	772.85	272.09	0.00010405	0.00011518	253.95	91.888	102.26	45.271	0.00010867	41.05	140.121	-2.898	-15.897	-62.464	144.202	205.365	-64.156	-57.811	53.955	22.360	-60.259	-56.997	-53.607	-48.957	248.172	-52.460	-8191	255	
1589.598	1	1	0	0	0.07225	0.20169	0.23305	0.24509	0.1114	0.20095	0.11395	0.20512	0.10055	0.15958	0.21852	0.17446	0.13931	0.29888	0.076594	0.20731	-2.5812	-3.1854	-2.6229	-3.2896	-2.625	-2.9	-3.2479	-2.9229	-3.0833	-3.1667	-2.9125	-3.2167	-2.9583	-2.8667	-3.2979	-2.6896	73.377	-71.922	274.025	276.189	262.480	30.810	222.733	209.356	81.398	-45.370	-42.182	272.908	237.498	-61.583	72.439	196.938	0.000213	0.00043264	0.00020593	937.78	1.5621e-05	7.3731e-06	780.47	275.4	1.2392e-05	1.1831e-05	245.41	88.656	98.156	45.226	1.0826e-05	39.632	0.0071229	0.010562	0.0029613	915.36	0.00010684	0.00012543	768.62	271.61	0.0001085	0.00012113	255.72	91.809	102.73	45.234	0.00011164	41.036	114.685	79.850	-32.389	-62.340	112.475	243.216	-64.132	-57.389	-16.315	-3.971	-60.442	-56.630	-53.558	-48.437	108.440	-52.249	-8191	255	
1589.718	1	1	0	0	0.12244	0.20426	0.14766	0.10926	0.078902	0.29209	0.25428	0.097397	0.10388	0.29635	0.17982	0.14363	0.28792	0.10726	0.20958	0.1361	-2.6375	-3.2271	-2.7167	-3.1146	-3.1458	-2.9104	-3.2708	-3.0167	-3.0021	-3.175	-2.8708	-3.2042	-3.3	-2.7021	-3.4208	-2.9646	-23.204	154.951	76.136	190.588	214.764	262.877	51.772	-34.031	74.801	200.899	229.725	230.211	254.521	178.129	33.997	267.274	0.00027555	0.001083	9.8534e-05	946.74	4.3169e-06	8.7899e-06	788.76	279.57	4.189e-06	1.1283e-05	249.27	90.132	99.375	45.283	5.1461e-06	40.048	0.0071409	0.010577	0.0029261	920.97	0.00010396	0.00012273	775.28	274.84	0.00010227	0.00011409	255.65	92.607	103.12	45.263	0.00010465	41.184	124.427	270.122	193.152	-62.395	65.045	105.651	-63.980	-57.570	29.180	61.520	-60.590	-56.927	-53.592	-48.409	77.554	-52.192	-8191	255	
1589.814	1	1	0	0	0.20445	0.1717	0.10085	0.31413	0.15709	0.21842	0.16393	0.20631	0.21605	0.12441	0.01026	0.14488	0.27068	0.17523	0.085179	0.17222	-2.425	-3.3125	-2.7583	-3.0896	-3.2667	-2.9146	-3.3167	-3.2104	-3.0208	-3.3667	-3.0521	-2.9854	-3.1458	-2.9917	-3.2646	-3.1771	88.520	28.168	209.352	245.080	-68.322	141.136	-18.450	190.614	-11.695	-67.267	58.528	219.041	249.231	171.787	196.159	144.171	0.00021244	0.00094886	0.00011753	955.11	4.3856e-06	1.6048e-05	800.84	285.29	4.8853e-06	1.534e-05	252	92.405	100.23	45.823	9.1497e-06	40.287	0.0069735	0.010051	0.0027684	927.14	9.9797e-05	0.00011424	781.64	278.21	9.6301e-05	0.00010606	256.55	93.814	103.14	45.452	9.7296e-05	41.104	142.045	-6.226	163.452	-62.172	207.985	23.498	-64.138	-57.612	94.844	139.100	-60.401	-56.892	-54.209	-48.469	-58.668	-52.111	-8191	255	
1589.911	1	1	0	0	0.10709	0.08242	0.12674	0.2292	0.23657	0.12117	0.25764	0.096976	0.36753	0.15947	0.11218	0.33183	0.15195	0.21702	0.030921	0.15563	-2.5646	-3.2646	-2.9479	-3.0292	-3.2021	-2.6396	-3.2667	-3.15	-2.9875	-2.9625	-3.2062	-3.1729	-3.1104	-2.8688	-2.9688	-2.9313	64.465	30.783	234.702	-39.005	1.942	85.541	253.518	198.816	191.563	214.105	211.361	190.913	-33.312	241.658	136.331	225.325	0.00014574	0.00030757	7.712e-05	962.06	5.5367e-06	6.9765e-06	795.86	281.28	7.0617e-06	6.3015e-06	246.92	90.034	98.856	44.512	5.4992e-06	39.038	0.0064892	0.0093458	0.0026041	930.2	9.5042e-05	0.00010983	775.96	275.31	9.5826e-05	0.00010569	252.61	91.59	101.91	44.363	0.00010209	39.973	111.070	54.419	211.635	-62.396	-14.492	200.026	-63.901	-57.649	31.798	145.590	-60.398	-57.365	-53.565	-48.566	77.286	-52.185	-8191	255	
1590.007	1	1	0	0	0.13494	0.17711	0.37425	0.25839	0.077677	0.27457	0.38101	0.27058	0.30429	0.054862	0.10031	0.050425	0.24317	0.11091	0.14648	0.20654	-2.3271	-3.1208	-2.8875	-3.0354	-3.1896	-2.9042	-3.2188	-3.1125	-2.9917	-3.3312	-2.9271	-2.9313	-3.5208	-2.9083	-3.0354	-3.3396	263.903	181.651	270.035	-32.600	-58.144	114.749	242.776	270.426	250.242	173.048	78.627	46.080	236.256	219.785	65.884	-72.373	0.0002192	0.00089358	0.0002995	935.56	3.0582e-06	7.9746e-06	782.03	277.93	3.3477e-06	4.2418e-06	243.95	88.442	98.095	44.633	1.2606e-05	38.94	0.0069211	0.0098727	0.0027633	912.74	0.00010184	0.00011326	766.07	272.41	0.00010094	0.00011064	250.73	90.806	101.07	44.257	0.00010032	40.04	93.174	83.245	35.162	-62.652	170.347	24.236	-63.929	-57.758	135.820	86.989	-60.787	-56.323	-53.876	-48.603	137.823	-52.790	-8191	255	
1590.126	1	1	0	0	0.050603	0.10868	0.21575	0.12003	0.21796	0.11256	0.043063	0.24296	0.17467	0.12209	0.21454	0.12357	0.14015	0.12647	0.10061	0.1469	-2.4083	-3.2333	-2.8583	-2.9938	-3.1854	-2.9375	-3.2812	-3.2354	-2.6854	-3.3042	-3.1875	-2.9333	-3.4167	-2.9479	-3.0229	-3.1521	-24.025	76.755	-0.291	161.479	-4.948	280.758	-11.978	247.154	54.148	-59.177	187.794	212.561	237.372	-31.540	-6.584	164.026	0.00011185	0.00048352	0.0001495	947.11	2.2461e-06	1.4694e-05	787.49	276.8	4.2875e-06	1.297e-05	245.09	89.322	98.121	45.254	7.3644e-06	39.465	0.006545	0.009347	0.0026226	917.15	9.4887e-05	0.00010242	771.1	272.59	9.3495e-05	0.00010381	251.53	91.474	101.47	44.794	9.8263e-05	40.618	130.541	-29.917	33.158	-62.506	238.626	127.452	-64.187	-57.549	108.520	-17.524	-60.467	-56.862	-53.641	-48.527	-30.804	-52.283	-8191	255	
1590.222	1	1	0	0	0.42877	0.10143	0.14113	0.14628	0.1537	0.23648	0.090099	0.211	0.10156	0.12895	0.17135	0.086491	0.050523	0.052541	0.12497	0.06453	-2.3271	-3.1708	-2.7646	-2.9688	-3.3521	-2.8521	-3.0875	-3.4458	-2.7542	-3.1354	-3.3917	-2.9583	-3.2562	-3.1521	-2.8125	-3.2083	197.707	22.482	149.710	-71.131	-4.161	-51.787	239.116	-60.675	110.459	70.623	222.622	-11.353	223.676	266.949	74.586	76.888	0.00017352	0.0015333	0.00019158	952.61	2.474e-06	4.1323e-06	795.64	278.69	4.8112e-06	4.5745e-06	247.53	90.665	99.66	45.866	1.5761e-06	40.184	0.0065404	0.0092089	0.0025796	921.34	9.2348e-05	0.00010034	778.28	272.14	9.1026e-05	9.9518e-05	252.2	92.654	101.8	45.386	9.6211e-05	41.275	125.659	224.659	-23.460	-62.722	-11.122	14.445	-64.234	-57.545	141.582	118.811	-59.694	-56.600	-53.375	-48.610	-10.874	-52.303	-8191	255	
1590.295	1	1	0	0	0.040902	0.23463	0.23174	0.043802	0.096776	0.090159	0.20539	0.23719	0.087521	0.18439	0.12885	0.10068	0.13872	0.32577	0.11392	0.20206	-2.4896	-3.0812	-3.0979	-2.7438	-3.425	-3.2917	-2.8958	-3.4437	-2.9875	-2.9958	-2.9667	-3.0208	-3.1833	-3.0604	-2.8979	-3.1833	-7.768	211.007	128.792	192.881	122.554	61.902	-46.629	161.298	-26.482	194.366	98.031	173.971	58.510	-21.443	-61.445	232.780	0.00018271	0.00073552	0.00018844	960.61	5.5026e-06	6.6535e-06	808.88	282.02	5.3307e-06	2.2742e-05	246.13	90.261	98.772	45.777	6.1723e-06	39.858	0.0061602	0.0095487	0.002601	930.41	9.4477e-05	0.00010449	790.33	275.77	9.5085e-05	0.00010511	252.19	92.456	101.49	45.395	0.00010124	40.978	166.211	65.278	-40.052	-62.614	-21.824	43.428	-63.844	-57.461	25.950	92.166	-60.526	-56.377	-53.569	-48.356	220.581	-52.030	-8191	255	
1590.414	1	1	0	0	0.11354	0.072411	0.26917	0.29329	0.17245	0.20045	0.23087	0.28252	0.20169	0.15517	0.068374	0.28051	0.13652	0.44129	0.045103	0.16124	-2.4188	-3.0187	-3.1729	-2.8542	-3.2542	-3.0958	-3.0042	-3.3417	-2.9958	-2.875	-3.4042	-2.6979	-3.2667	-3.1396	-2.8521	-3.5312	53.145	206.884	243.815	235.417	-2.246	248.756	144.522	253.407	1.925	-19.548	30.198	253.175	-46.071	220.435	-71.535	198.045	0.00022551	0.00034701	2.2829e-05	939.84	1.0338e-05	1.5628e-05	777.42	273.31	2.7425e-06	6.2079e-06	237.32	87.783	97.252	45.081	8.0251e-06	39.385	0.0061667	0.010234	0.0026536	913.25	9.5665e-05	0.00010479	764.1	268.04	9.6354e-05	0.00010782	245.73	90.427	100.2	44.775	0.00010442	40.447	139.959	1.739	263.500	-62.577	114.049	98.786	-64.235	-57.611	122.155	137.110	-60.261	-56.521	-53.345	-48.454	6.213	-52.188	-8191	255	
1590.510	1	1	0	0	0.14056	0.099882	0.077782	0.30724	0.059272	0.29428	0.13789	0.12105	0.092202	0.12014	0.11221	0.15159	0.18039	0.29427	0.050158	0.047933	-2.4188	-3.1604	-3.1958	-2.8771	-3.0021	-3.05	-2.8958	-3.3187	-3.025	-3.0333	-3.4583	-2.9625	-3.3146	-3.0917	-3.0146	-3.3646	-29.222	187.812	123.782	212.821	-70.415	90.998	206.329	128.401	14.399	175.648	110.495	122.904	104.928	240.101	149.729	-72.368	2.0848e-05	0.00054984	0.00010896	940.29	7.845e-06	1.8187e-05	777.09	273.01	8.7744e-06	9.6153e-06	239.69	89.251	97.695	45.195	6.5115e-06	39.873	0.0063145	0.010317	0.0027725	911.49	9.8869e-05	0.00010913	767.56	268.1	9.6213e-05	0.0001083	246.95	91.162	101.19	45.174	0.00010426	40.937	111.957	72.636	-4.243	-62.540	159.514	96.610	-64.064	-57.618	0.503	146.237	-60.502	-57.004	-53.460	-48.420	84.613	-52.245	-8191	255	
1590.606	1	1	0	0	0.17708	0.27232	0.031886	0.10876	0.15246	0.21716	0.12996	0.25916	0.12755	0.31358	0.082043	0.12802	0.14715	0.1254	0.18854	0.063045	-2.5271	-2.8208	-3.4229	-2.9708	-2.8979	-3.2229	-2.8708	-3.2604	-3.1896	-2.9708	-3.3354	-2.8771	-3.1521	-3.2167	-2.8458	-3.4604	-61.323	161.989	-23.958	252.177	125.501	220.498	261.175	181.085	57.884	19.010	222.012	234.972	118.843	258.355	79.728	247.865	0.00027922	0.0017902	0.00028495	942.24	1.2868e-05	1.341e-05	787.28	276.13	1.058e-05	1.9554e-05	243.45	90.177	98.933	45.739	5.1459e-06	40.133	0.0064946	0.010792	0.0028154	916.57	0.00010023	0.00011097	774.24	270.26	0.0001002	0.00011245	251.57	92.424	102.92	45.554	0.00010655	41.516	141.397	-7.825	49.053	-62.416	16.704	97.046	-63.819	-57.719	50.865	41.408	-60.186	-57.060	-53.748	-48.631	117.756	-52.281	-8191	255	
1590.702	1	1	0	0	0.11208	0.17668	0.036347	0.33905	0.11436	0.17111	0.15789	0.15201	0.10994	0.040569	0.043781	0.18283	0.26241	0.051695	0.19571	0.17338	-2.5521	-2.6792	-3.4479	-3.0042	-2.8479	-3.1167	-3.1208	-3.2208	-2.8875	-2.85	-3.5208	-2.9813	-2.7958	-3.1479	-2.9521	-3.0687	69.349	186.355	162.787	-65.259	-54.457	231.963	201.149	160.484	80.816	195.142	8.199	171.237	275.650	206.173	-11.283	137.829	0.00010097	0.00070125	0.0003963	949.79	8.1933e-06	4.8857e-06	797.94	276.93	7.3507e-06	7.8317e-06	246.03	91.357	100.11	45.963	6.1472e-06	40.484	0.0066281	0.010807	0.0028402	923.58	0.0001028	0.0001124	783.14	272.59	9.9341e-05	0.00011155	253.23	93.517	103.65	45.871	0.0001031	41.526	158.518	-17.060	34.746	-62.333	18.309	-42.285	-63.950	-57.605	-66.589	154.850	-60.343	-56.728	-53.445	-48.474	272.540	-52.418	-8191	255	
#DATA ENDS
