BOXY.EXE: ISS Imagent and Oximeter Data Acquisition Program Version 0.80
Ascii Record File

#ACQ INFORMATION
2  Detector Channels 
16  External MUX Channels 
1  Auxiliary Channels 
5000  Waveform (CCF) Frequency (Hz)
1  Waveforms Skipped 
30  Waveforms Averaged 
1  Cycles Averaged 
16  Acquisitions per Waveform 
10.0806  Updata Rate (Hz) 

#FILE INFORMATION
TRUE -- External MUX Channel results are PARSED.
FALSE -- AC DC and Phase are NOT grouped.
TRUE -- Companion Program Settings File CREATED.
FALSE -- AC data not excluded
FALSE -- DC data not excluded
FALSE -- Phase data not excluded
FALSE -- Auxillary Chn. data not excluded
Tab delimiters

#CALIBRATION STATE
TRUE -- Waveform Calibration Values APPLIED.


#AUX CALIBRATION VALUES
Val Type	aux-1	

Term	1.0000e+00	
Factor	0.0000e+00	


#WF CALIBRATION VALUES
A = Detector Channel
Val Type	A-AC1	A-AC2	A-AC3	A-AC4	A-AC5	A-AC6	A-AC7	A-AC8	A-AC9	A-AC10	A-AC11	A-AC12	A-AC13	A-AC14	A-AC15	A-AC16	A-DC1	A-DC2	A-DC3	A-DC4	A-DC5	A-DC6	A-DC7	A-DC8	A-DC9	A-DC10	A-DC11	A-DC12	A-DC13	A-DC14	A-DC15	A-DC16	A-Ph1	A-Ph2	A-Ph3	A-Ph4	A-Ph5	A-Ph6	A-Ph7	A-Ph8	A-Ph9	A-Ph10	A-Ph11	A-Ph12	A-Ph13	A-Ph14	A-Ph15	A-Ph16	

Term	0.00000e+00	0.00000e+00	0.00000e+00	0.00000e+00	0.00000e+00	0.00000e+00	0.00000e+00	0.00000e+00	0.00000e+00	0.00000e+00	0.00000e+00	0.00000e+00	0.00000e+00	0.00000e+00	0.00000e+00	0.00000e+00	0.00000e+00	0.00000e+00	0.00000e+00	0.00000e+00	0.00000e+00	0.00000e+00	0.00000e+00	0.00000e+00	0.00000e+00	0.00000e+00	0.00000e+00	0.00000e+00	0.00000e+00	0.00000e+00	0.00000e+00	0.00000e+00	0.00000e+00	0.00000e+00	0.00000e+00	0.00000e+00	0.00000e+00	0.00000e+00	0.00000e+00	0.00000e+00	0.00000e+00	0.00000e+00	0.00000e+00	0.00000e+00	0.00000e+00	0.00000e+00	0.00000e+00	0.00000e+00	
Factor	1.00000e+00	1.00000e+00	1.00000e+00	1.00000e+00	1.00000e+00	1.00000e+00	1.00000e+00	1.00000e+00	1.00000e+00	1.00000e+00	1.00000e+00	1.00000e+00	1.00000e+00	1.00000e+00	1.00000e+00	1.00000e+00	1.00000e+00	1.00000e+00	1.00000e+00	1.00000e+00	1.00000e+00	1.00000e+00	1.00000e+00	1.00000e+00	1.00000e+00	1.00000e+00	1.00000e+00	1.00000e+00	1.00000e+00	1.00000e+00	1.00000e+00	1.00000e+00	X	X	X	X	X	X	X	X	X	X	X	X	X	X	X	X	

B = Detector Channel
Val Type	B-AC1	B-AC2	B-AC3	B-AC4	B-AC5	B-AC6	B-AC7	B-AC8	B-AC9	B-AC10	B-AC11	B-AC12	B-AC13	B-AC14	B-AC15	B-AC16	B-DC1	B-DC2	B-DC3	B-DC4	B-DC5	B-DC6	B-DC7	B-DC8	B-DC9	B-DC10	B-DC11	B-DC12	B-DC13	B-DC14	B-DC15	B-DC16	B-Ph1	B-Ph2	B-Ph3	B-Ph4	B-Ph5	B-Ph6	B-Ph7	B-Ph8	B-Ph9	B-Ph10	B-Ph11	B-Ph12	B-Ph13	B-Ph14	B-Ph15	B-Ph16	

Term	0.00000e+00	0.00000e+00	0.00000e+00	0.00000e+00	0.00000e+00	0.00000e+00	0.00000e+00	0.00000e+00	0.00000e+00	0.00000e+00	0.00000e+00	0.00000e+00	0.00000e+00	0.00000e+00	0.00000e+00	0.00000e+00	0.00000e+00	0.00000e+00	0.00000e+00	0.00000e+00	0.00000e+00	0.00000e+00	0.00000e+00	0.00000e+00	0.00000e+00	0.00000e+00	0.00000e+00	0.00000e+00	0.00000e+00	0.00000e+00	0.00000e+00	0.00000e+00	-1.56894e+02	-1.27752e+02	-1.28220e+02	-1.82394e+02	-8.05549e+01	-6.51345e+01	-1.55939e+02	-1.62015e+02	-8.46711e+01	-6.06474e+01	-1.70818e+02	-1.71805e+02	-1.80520e+02	-1.77372e+02	-7.45731e+01	-1.49506e+02	
Factor	2.48450e-05	1.80034e-04	5.53765e-05	1.74917e-01	1.47804e-06	1.91503e-06	1.73878e-01	5.40847e-02	1.39976e-06	1.81173e-06	9.61147e-02	3.08946e-02	3.55403e-02	9.85352e-03	1.70142e-06	1.43833e-02	1.14720e-05	1.78812e-05	4.98075e-06	8.74279e-02	1.80401e-07	1.98474e-07	8.17633e-02	2.71597e-02	1.79927e-07	1.99377e-07	4.67774e-02	1.50850e-02	1.80288e-02	4.99142e-03	1.87127e-07	7.05837e-03	X	X	X	X	X	X	X	X	X	X	X	X	X	X	X	X	



#DISTANCE SETTINGS
A = Detector Channel
A-1	A-2	A-3	A-4	A-5	A-6	A-7	A-8	A-9	A-10	A-11	A-12	A-13	A-14	A-15	A-16	

2.5000e+00	3.0000e+00	2.5000e+00	3.0000e+00	2.0000e+00	3.0000e+00	1.5000e+00	3.0000e+00	3.0000e+00	3.0000e+00	3.0000e+00	3.0000e+00	3.0000e+00	3.0000e+00	1.5000e+00	3.0000e+00	

B = Detector Channel
B-1	B-2	B-3	B-4	B-5	B-6	B-7	B-8	B-9	B-10	B-11	B-12	B-13	B-14	B-15	B-16	

1.0000e+01	1.0000e+01	1.0000e+01	1.4400e+00	1.0000e+01	1.0000e+01	1.5100e+00	1.9400e+00	1.0000e+01	1.0000e+01	1.9900e+00	2.4900e+00	2.4100e+00	2.9000e+00	1.0000e+01	2.9800e+00	




#DATA BEGINS
time	group	step	mark	flag	A-AC1	A-AC2	A-AC3	A-AC4	A-AC5	A-AC6	A-AC7	A-AC8	A-AC9	A-AC10	A-AC11	A-AC12	A-AC13	A-AC14	A-AC15	A-AC16	A-DC1	A-DC2	A-DC3	A-DC4	A-DC5	A-DC6	A-DC7	A-DC8	A-DC9	A-DC10	A-DC11	A-DC12	A-DC13	A-DC14	A-DC15	A-DC16	A-Ph1	A-Ph2	A-Ph3	A-Ph4	A-Ph5	A-Ph6	A-Ph7	A-Ph8	A-Ph9	A-Ph10	A-Ph11	A-Ph12	A-Ph13	A-Ph14	A-Ph15	A-Ph16	B-AC1	B-AC2	B-AC3	B-AC4	B-AC5	B-AC6	B-AC7	B-AC8	B-AC9	B-AC10	B-AC11	B-AC12	B-AC13	B-AC14	B-AC15	B-AC16	B-DC1	B-DC2	B-DC3	B-DC4	B-DC5	B-DC6	B-DC7	B-DC8	B-DC9	B-DC10	B-DC11	B-DC12	B-DC13	B-DC14	B-DC15	B-DC16	B-Ph1	B-Ph2	B-Ph3	B-Ph4	B-Ph5	B-Ph6	B-Ph7	B-Ph8	B-Ph9	B-Ph10	B-Ph11	B-Ph12	B-Ph13	B-Ph14	B-Ph15	B-Ph16	aux-1	digaux	

1508.807	1	1	0	256	0.10394	0.061755	0.08542	0.29747	0.045547	0.06724	0.15821	0.081175	0.035751	0.081019	0.1103	0.11516	0.099437	0.15776	0.14228	0.05333	-2.8	-3.6458	-3.1479	-3.4042	-3.5396	-3.175	-3.6083	-3.2896	-3.2313	-3.7792	-3.3937	-3.3479	-3.5854	-3.2229	-3.6229	-3.5542	302.898	135.091	278.086	-21.288	164.050	255.800	317.023	315.113	177.562	107.415	251.821	321.964	305.248	289.396	160.541	-22.324	0.0001763	0.0009108	0.00015622	612.57	1.1465e-06	1.0719e-05	569.1	208.35	6.5003e-06	6.2319e-06	195.44	63.863	74.219	33.193	3.8838e-06	31.957	0.0016283	0.0024131	0.00068615	612.28	2.4332e-05	3.2879e-05	567.41	209.27	2.4347e-05	2.6876e-05	201.32	65.444	75.798	33.81	2.5675e-05	32.789	122.249	64.840	-27.234	-22.360	72.335	103.102	-24.753	-17.932	107.735	80.801	-21.215	-17.479	-14.171	-8.951	46.692	-13.458	-8191	255	
1508.879	1	1	0	0	0.11526	0.077973	0.11825	0.40783	0.32534	0.19487	0.17694	0.080132	0.090435	0.10482	0.053986	0.18952	0.17714	0.23654	0.21498	0.081191	-2.7562	-3.6042	-3.0958	-3.4875	-3.4708	-3.0854	-3.6063	-3.2833	-3.1958	-3.6625	-2.9833	-3.3958	-3.5812	-3.0292	-3.5438	-3.3854	181.122	148.278	221.626	281.433	185.038	174.498	283.229	224.224	280.169	232.191	-30.725	68.760	-31.234	312.819	210.776	305.910	0.00023546	0.00047721	5.7342e-05	609.53	2.644e-06	8.0982e-06	563.89	206.75	2.1686e-06	2.5957e-06	194.73	62.958	72.944	33.146	1.0985e-06	31.893	0.001711	0.0024734	0.00068841	608.99	2.4996e-05	3.6434e-05	563.15	207.93	2.5173e-05	2.7385e-05	198.28	64.64	75.21	33.611	2.6242e-05	32.482	105.101	58.314	74.648	-22.431	135.014	127.327	-24.342	-17.803	60.093	179.247	-20.825	-17.484	-14.276	-9.165	78.213	-13.414	-8191	255	
1508.975	1	1	0	0	0.11077	0.092658	0.20196	0.1753	0.19497	0.25739	0.01391	0.19909	0.1216	0.2258	0.24433	0.23489	0.11225	0.1405	0.24921	0.068775	-2.7708	-3.65	-3.1229	-3.4813	-3.4729	-3.0375	-3.6896	-3.6292	-3.0333	-3.7667	-3.2208	-3.1875	-3.5729	-3.1979	-3.3583	-3.4229	19.768	249.039	185.682	117.965	49.827	117.235	137.599	267.469	311.146	24.702	301.473	41.129	192.529	233.567	170.165	99.790	0.00016516	0.00059639	4.639e-05	607.31	3.2163e-06	1.0198e-05	565.33	207.63	2.2577e-06	5.8434e-06	194.31	63.452	73.441	33.055	3.7628e-06	32.005	0.0020908	0.0025002	0.0006907	609.11	2.5346e-05	3.3794e-05	564.33	207.92	2.5571e-05	2.7658e-05	200.15	65.127	75.446	33.661	2.6495e-05	32.6	117.023	55.082	299.740	-22.685	126.044	106.908	-24.613	-18.308	67.192	76.091	-21.306	-17.753	-13.990	-8.747	42.036	-13.673	-8191	255	
1509.095	1	1	0	0	0.07354	0.18413	0.10636	0.16556	0.068963	0.13042	0.058414	0.14061	0.11815	0.17939	0.21562	0.19591	0.091828	0.16741	0.21311	0.18444	-2.5979	-3.6833	-3.0708	-3.3563	-3.5187	-3.1896	-3.5812	-3.4354	-3.225	-3.6271	-3.2375	-3.1417	-3.7542	-3.1917	-3.3729	-3.6375	284.992	-33.037	161.181	236.065	39.365	272.886	281.037	97.032	235.073	6.892	215.324	323.567	193.610	263.928	193.882	220.938	0.00014584	0.00016981	8.1326e-05	609.78	2.2446e-06	9.9955e-06	568.22	208.44	3.3179e-06	5.9008e-06	197.18	64.145	73.944	33.291	6.1313e-06	32.292	0.002065	0.0025355	0.00070448	610.82	2.5616e-05	3.7006e-05	567.13	208.99	2.5674e-05	2.799e-05	200.71	65.889	75.947	33.938	2.6506e-05	32.947	119.545	47.391	-29.319	-22.879	285.408	121.618	-24.549	-18.110	136.370	85.069	-21.402	-17.300	-14.068	-9.081	94.623	-13.307	-8191	255	
1509.192	1	1	0	0	0.17652	0.044935	0.1673	0.2481	0.13593	0.10997	0.076401	0.21008	0.13072	0.33863	0.32187	0.011226	0.097214	0.18529	0.2253	0.19002	-2.4917	-3.5083	-3.2458	-3.3021	-3.7313	-2.9854	-3.4708	-3.5458	-3.0521	-3.6063	-3.3063	-3.125	-3.6583	-3.1937	-3.2104	-3.5938	67.215	43.584	157.581	225.822	216.776	178.786	319.444	212.776	37.536	74.166	302.134	241.506	138.954	13.859	30.611	33.416	7.7751e-05	0.00052163	8.2587e-05	611.69	3.4701e-06	1.356e-05	571.65	209.07	3.2435e-06	1.2191e-06	197.34	64.346	73.661	33.172	1.5421e-06	32.09	0.0022406	0.0025266	0.00069381	613.09	2.5713e-05	3.4108e-05	570.45	209.86	2.5801e-05	2.7728e-05	200.15	66.276	75.94	33.896	2.6037e-05	32.737	137.634	49.382	125.619	-22.606	111.602	122.614	-24.435	-17.862	153.413	206.441	-21.224	-17.541	-14.179	-8.965	123.006	-13.608	-8191	255	
1509.288	1	1	0	0	0.22096	0.15303	0.1519	0.23998	0.24229	0.19315	0.14139	0.35797	0.15138	0.08165	0.17384	0.45885	0.23412	0.23721	0.095583	0.14204	-2.7021	-3.4208	-3.2771	-3.0625	-3.7396	-2.925	-3.4708	-3.4437	-3.2917	-3.4917	-3.4417	-3.1021	-3.5542	-3.1896	-3.325	-3.6083	49.811	315.812	24.388	280.644	308.411	168.402	302.291	280.352	109.113	176.644	317.322	-3.278	199.000	313.976	20.868	252.411	0.0001342	0.00029945	7.6813e-05	609.4	4.0622e-06	1.0884e-05	568.01	206.42	1.2917e-06	5.8689e-06	195.33	63.515	73.732	33.099	3.4097e-06	31.979	0.0020867	0.002462	0.00069629	610.5	2.6012e-05	3.7012e-05	566.17	207.83	2.5716e-05	2.7845e-05	198.06	65.348	75.608	33.645	2.6872e-05	32.467	114.945	68.015	82.815	-23.002	99.727	160.762	-24.738	-17.733	-28.928	106.654	-21.364	-17.383	-14.313	-8.879	133.026	-13.492	-8191	255	
1509.384	1	1	0	0	0.067336	0.070972	0.10725	0.17457	0.057015	0.15656	0.17214	0.27104	0.18948	0.40085	0.027544	0.067974	0.211	0.2848	0.15356	0.10655	-2.8	-3.4292	-3.6312	-3.1104	-3.7042	-3.4792	-3.1979	-3.5292	-3.1375	-3.2812	-3.3479	-3.0896	-3.5854	-3.4458	-2.9854	-3.6937	61.174	149.424	188.237	312.986	86.627	278.363	292.462	263.860	227.207	18.288	50.914	92.275	-0.025	232.326	-35.625	67.927	9.073e-05	0.00034887	0.00023028	609.95	3.0983e-06	9.3552e-06	568.72	207.78	2.3126e-06	4.5874e-06	195.23	63.501	73.92	33.224	1.4973e-06	32.228	0.0022224	0.0025091	0.00069711	610.66	2.5553e-05	3.1473e-05	568.42	208.44	2.5478e-05	2.754e-05	199.21	66.087	75.782	33.871	2.6041e-05	32.811	84.664	56.461	5.052	-22.689	154.332	107.038	-24.644	-17.833	295.455	141.940	-21.501	-17.346	-14.455	-8.637	99.093	-13.169	-8191	255	
1509.503	1	1	0	0	0.043562	0.048605	0.057	0.23105	0.044154	0.2674	0.05193	0.22218	0.2486	0.19158	0.26307	0.21815	0.30821	0.088434	0.27241	0.17059	-2.875	-3.1417	-3.6167	-3.0917	-3.5146	-3.5292	-3.1667	-3.7708	-3.1625	-3.1063	-3.4979	-3.1042	-3.3917	-3.5021	-3.0792	-3.5979	302.951	106.741	43.812	272.646	244.653	58.748	170.112	309.900	-5.334	28.525	321.822	88.520	321.767	317.979	73.597	161.057	6.0169e-05	0.000471	8.802e-06	613.44	5.5502e-06	4.1751e-06	569.06	208.93	1.1112e-06	4.8125e-07	197.39	64.586	74.333	33.514	1.2215e-06	32.538	0.0020391	0.0024649	0.00068674	612.44	2.4875e-05	2.6799e-05	573.43	209.6	2.5011e-05	2.7472e-05	201.02	66.551	76.107	34.05	2.6246e-05	33.149	133.093	-7.837	215.119	-23.067	110.456	65.923	-24.416	-17.949	124.412	215.837	-21.242	-17.669	-14.109	-9.164	80.183	-13.433	-8191	255	
1509.576	1	1	0	0	0.17386	0.22118	0.1426	0.02454	0.13666	0.10538	0.12309	0.24482	0.34363	0.13882	0.11495	0.091786	0.10454	0.12259	0.094478	0.11938	-2.7771	-3.3458	-3.375	-2.9854	-3.5792	-3.425	-3.1188	-3.5187	-3.4208	-3.3563	-3.6292	-3.0646	-3.3021	-3.3667	-3.0187	-3.7667	323.863	248.502	203.282	88.260	142.927	87.924	320.233	294.165	105.802	301.895	-10.185	309.331	282.043	54.873	93.050	203.809	9.9509e-05	0.00017105	8.3616e-05	616.5	4.3668e-06	7.501e-06	575.88	210.13	2.9987e-06	5.5739e-06	200.69	64.631	74.414	33.522	5.1111e-06	32.75	0.0022065	0.0024898	0.00069413	616.68	2.4929e-05	2.772e-05	578.95	211.48	2.5441e-05	2.802e-05	203.6	67.057	76.47	34.151	2.7279e-05	33.306	61.195	48.506	110.208	-22.475	104.790	146.095	-24.554	-17.855	148.223	121.666	-21.337	-17.675	-14.109	-8.837	141.827	-13.480	-8191	255	
1509.695	1	1	0	0	0.024849	0.054292	0.17083	0.22716	0.16159	0.10238	0.13457	0.19458	0.09954	0.17615	0.13727	0.18907	0.14905	0.33857	0.12854	0.16942	-2.9125	-3.125	-3.5687	-3.2708	-3.3167	-3.4	-3.1	-3.6458	-3.2604	-3.1958	-3.6625	-3.1125	-3.4021	-3.6292	-2.8312	-3.4521	290.728	266.537	70.004	222.933	126.714	120.981	-21.360	-32.801	253.561	286.686	105.779	173.487	109.944	261.862	225.040	23.984	8.7801e-05	0.00069152	7.6206e-05	615.8	1.9738e-06	1.6708e-06	571.2	207.95	1.7625e-06	3.4295e-06	198.35	64.056	73.786	33.424	6.0945e-06	32.1	0.0019061	0.0026614	0.00070475	615	2.5257e-05	2.7757e-05	575.58	209.73	2.4519e-05	2.7467e-05	200.67	66.061	75.744	33.939	2.6928e-05	32.917	79.396	43.616	23.669	-22.859	165.445	11.823	-24.691	-18.034	-11.216	196.201	-21.198	-17.582	-14.294	-9.024	168.386	-13.454	-8191	255	
1509.791	1	1	0	0	0.26509	0.087238	0.077102	0.17784	0.11485	0.12744	0.39039	0.12316	0.093422	0.12716	0.23846	0.10547	0.14134	0.19813	0.29774	0.20469	-3.0229	-3.2396	-3.5	-3.1583	-3.15	-3.5104	-3.1021	-3.5479	-3.1854	-2.9688	-3.4042	-3.2687	-3.5208	-3.6042	-2.9833	-3.4188	105.181	304.567	206.211	-9.784	255.914	84.369	165.550	256.876	289.227	169.388	277.517	221.523	11.366	-29.122	26.753	271.129	9.2313e-05	0.00062136	7.8586e-05	611.17	2.7661e-06	8.9705e-06	571.82	208.92	1.7379e-06	6.3336e-06	197.85	64.14	73.909	33.481	1.543e-06	32.35	0.0016918	0.0032744	0.00069626	613.4	2.5207e-05	2.8178e-05	573.49	209.37	2.5276e-05	2.8429e-05	200.83	66.242	75.819	34.076	2.6668e-05	33.051	138.142	79.678	41.928	-22.708	76.901	151.602	-24.427	-18.134	72.955	118.676	-21.130	-17.673	-14.011	-9.036	210.928	-13.172	-8191	255	
1509.887	1	1	0	0	0.04726	0.14808	0.078091	0.047775	0.13949	0.071535	0.13651	0.067343	0.15807	0.18166	0.31076	0.038363	0.093654	0.031111	0.30166	0.093917	-3.1667	-3.1354	-3.6562	-3.4021	-3.3542	-3.5062	-3.2479	-3.4708	-3.3708	-3.175	-3.6458	-3.1813	-3.1292	-3.7583	-3.0729	-3.4354	283.875	47.675	89.852	76.268	211.377	87.940	276.822	67.226	-15.035	317.796	266.867	1.173	246.048	220.519	40.722	109.094	0.0001267	0.00014568	0.00017392	612.69	4.2722e-06	5.4976e-06	576.57	208.58	1.8799e-06	2.0204e-06	199.6	64.769	74.105	33.717	4.6258e-06	32.583	0.0016866	0.0030959	0.0007054	613.65	2.6009e-05	2.8455e-05	577.05	210.03	2.596e-05	2.8895e-05	201.82	66.338	76.348	34.203	2.7436e-05	33.318	109.153	-26.846	126.336	-22.911	111.971	77.419	-24.565	-17.765	93.313	187.265	-21.329	-17.774	-14.337	-8.693	31.409	-13.566	-8191	255	
1509.983	1	1	0	0	0.12384	0.22488	0.15418	0.27061	0.17139	0.013954	0.28022	0.12759	0.10284	0.13243	0.18936	0.30382	0.11451	0.10809	0.23028	0.33817	-3.0812	-3.0354	-3.6437	-3.3417	-3.1125	-3.6437	-3.2812	-3.3542	-3.4625	-3.1063	-3.525	-3.3458	-3.2583	-3.7542	-3.1729	-3.5521	123.800	153.209	319.502	20.801	322.561	322.087	13.432	323.010	296.149	177.830	310.214	311.125	279.478	14.619	94.157	-13.621	0.00019283	0.001286	0.00012362	617.93	6.1479e-06	2.7993e-06	576.31	210.1	1.2852e-06	3.6932e-06	199.35	64.441	74.623	33.853	5.824e-06	33.262	0.0017804	0.0034785	0.00072699	617.29	2.6824e-05	2.9479e-05	579.21	211.16	2.7089e-05	2.9627e-05	203.17	66.459	77.459	34.479	2.8213e-05	33.66	112.118	43.945	31.575	-22.859	88.727	50.225	-25.023	-17.939	194.549	107.650	-21.506	-17.899	-14.246	-8.864	83.371	-13.376	-8191	255	
1510.104	1	1	0	0	0.091932	0.20512	0.18201	0.16669	0.29145	0.084803	0.3123	0.29811	0.30436	0.15255	0.043529	0.095703	0.18892	0.074105	0.12984	0.14103	-2.9896	-2.95	-3.325	-3.3167	-3.1813	-3.5625	-3.1937	-3.4062	-3.6125	-3.0417	-3.525	-3.2687	-3.2938	-3.625	-3.1583	-3.2854	25.629	7.523	117.889	7.369	1.836	165.877	305.623	-27.944	230.064	154.958	153.425	24.632	183.484	313.269	273.375	-23.076	0.00017317	0.00070217	9.3604e-05	614.74	3.2276e-06	2.351e-06	573.6	208.29	3.9895e-06	2.7471e-06	197.86	63.206	73.166	33.436	3.6038e-06	32.117	0.0018433	0.0032929	0.00077188	616.81	2.8577e-05	3.0866e-05	576.77	209.33	2.8339e-05	3.0964e-05	200.33	65.356	76.46	34.03	2.8646e-05	32.911	98.906	28.970	20.782	-23.061	190.938	111.630	-24.683	-18.005	154.549	72.208	-21.359	-17.778	-14.551	-8.661	112.470	-13.390	-8191	255	
1510.176	1	1	0	0	0.23394	0.10194	0.13809	0.19013	0.31535	0.1942	0.13083	0.20793	0.21746	0.20423	0.23534	0.1039	0.27716	0.05502	0.15377	0.058982	-3.1333	-3.0896	-3.2417	-3.4125	-2.9208	-3.7229	-3.3375	-3.3479	-3.8208	-3.0625	-3.5333	-3.4458	-2.9896	-3.7354	-3.1312	-3.4854	217.545	121.390	-31.608	305.164	28.395	293.888	205.461	213.292	268.927	278.384	-15.253	21.030	304.390	256.572	292.264	285.592	0.00014722	0.0012626	0.00016712	612.82	2.3267e-06	3.2157e-06	566.25	205.6	6.7551e-06	7.0705e-06	194.73	62.982	73.014	33.22	2.8703e-06	32.143	0.0018627	0.0035694	0.00075616	612.41	2.8101e-05	3.0556e-05	567.49	207.88	2.8296e-05	3.1029e-05	198.45	64.879	76.415	33.877	2.9556e-05	32.804	110.628	41.385	68.591	-22.692	262.177	-3.512	-24.506	-18.182	113.804	134.146	-21.092	-17.719	-14.409	-8.991	149.614	-13.570	-8191	255	
1510.272	1	1	0	0	0.30911	0.11866	0.13783	0.04861	0.21113	0.13223	0.26214	0.22255	0.083869	0.23824	0.3711	0.12522	0.15864	0.10202	0.040072	0.15102	-3.0292	-3.1063	-3.4083	-3.35	-3.1708	-3.6604	-3.525	-3.0875	-3.5792	-3.2313	-3.3854	-3.4958	-3.2375	-3.5833	-3.4604	-3.2896	68.160	67.684	209.087	174.812	34.798	50.882	-0.498	-34.987	106.122	134.915	253.440	261.066	176.109	227.246	132.250	291.442	0.00013765	0.00046519	1.0558e-05	611.77	1.3077e-06	2.5848e-06	568.93	206.61	1.1337e-06	5.5778e-06	195.65	63.663	73.603	33.15	7.4729e-06	32.199	0.0018912	0.0033626	0.00078366	612.66	2.8494e-05	3.0316e-05	568.38	209.1	2.8518e-05	3.14e-05	199.71	65.289	76.469	33.9	2.9813e-05	32.978	136.450	27.660	294.606	-22.896	247.547	194.643	-24.750	-18.025	59.216	136.719	-21.196	-17.625	-14.203	-8.879	110.291	-13.296	-8191	255	
1510.368	1	1	0	0	0.18829	0.040312	0.043333	0.059988	0.081491	0.19648	0.11808	0.4215	0.2648	0.11309	0.1756	0.22182	0.30252	0.15866	0.16136	0.049767	-3.1333	-3.1271	-3.2042	-3.4458	-3.0938	-3.3375	-3.4125	-3.1333	-3.5208	-3.3042	-3.3375	-3.3	-3.1708	-3.6625	-3.3354	-3.2542	113.853	234.572	322.803	14.237	155.054	309.468	259.007	284.438	277.074	206.632	170.754	248.482	245.379	289.959	229.239	-0.949	0.00017514	0.0011428	0.00022382	610.06	4.5585e-06	4.0154e-06	566.95	206.59	5.267e-06	3.2938e-06	196.32	63.621	73.321	33.347	7.7589e-07	32.5	0.0019059	0.0036164	0.00079168	613.15	2.9055e-05	3.1313e-05	569.9	208.88	2.8754e-05	3.1481e-05	200.68	65.669	76.598	34.097	3.0961e-05	33.276	140.971	35.385	56.295	-22.669	136.895	97.492	-24.481	-18.190	42.189	138.729	-21.539	-17.317	-14.429	-9.321	269.896	-13.535	-8191	255	
1510.487	1	1	0	0	0.17282	0.065166	0.050789	0.24245	0.15219	0.17785	0.15848	0.028925	0.27817	0.1151	0.13703	0.26505	0.020475	0.063374	0.15496	0.14882	-3.0521	-3.1083	-3.1583	-3.5396	-3.1417	-3.5292	-3.4083	-3.05	-3.5604	-3.1646	-3.1521	-3.6167	-3.0604	-3.4083	-3.6021	-2.9521	189.812	233.325	260.220	288.405	113.329	92.306	111.136	243.057	184.027	62.428	166.818	208.035	83.800	82.253	34.785	194.347	0.00016026	0.00068647	0.0001231	610.92	2.5952e-06	1.8363e-06	569.06	205.64	2.3606e-06	4.9257e-06	195.22	63.031	72.84	33.139	6.085e-06	31.798	0.001972	0.0031042	0.00088447	614.15	2.9652e-05	3.2446e-05	569.04	208.71	2.9604e-05	3.2523e-05	199.31	65.088	76	33.767	3.0986e-05	32.589	89.345	32.147	54.831	-22.918	75.548	215.300	-24.284	-17.882	257.525	207.466	-21.347	-17.734	-14.324	-9.208	22.660	-13.358	-8191	255	
1510.583	1	1	0	0	0.11483	0.22518	0.18396	0.14576	0.092347	0.22739	0.13516	0.11289	0.24936	0.10338	0.15397	0.10896	0.22294	0.13435	0.092117	0.13214	-3.2042	-3.2021	-3.1625	-3.5583	-3.1771	-3.4125	-3.6375	-3.1375	-3.5187	-3.1229	-3.225	-3.5	-3.225	-3.3896	-3.6417	-3.2062	81.850	73.064	-34.507	267.484	229.305	170.086	215.934	-25.848	290.729	28.298	37.161	7.536	159.714	57.765	29.392	143.324	0.00013505	0.00035569	0.0004225	604.93	2.7769e-06	1.1555e-06	556.08	203.2	1.9508e-06	2.6554e-06	191.37	62.5	71.961	32.826	2.6888e-06	31.374	0.0019473	0.0029473	0.0010549	607.54	2.9991e-05	3.2746e-05	559.02	205.71	3.0195e-05	3.3005e-05	195.49	64.159	75.532	33.532	3.2057e-05	32.295	106.578	-32.715	45.977	-22.832	137.767	78.704	-24.746	-17.849	151.820	147.940	-21.097	-17.596	-14.449	-8.955	238.379	-13.454	-8191	255	
1510.679	1	1	0	0	0.10578	0.085771	0.16985	0.10577	0.072034	0.39677	0.15483	0.2444	0.12743	0.069109	0.2101	0.067546	0.055109	0.26203	0.19319	0.16447	-3.0646	-3.3312	-3.1854	-3.6208	-3.2062	-3.3271	-3.5021	-3.1188	-3.5687	-3.3979	-3.0375	-3.6813	-3.4083	-3.3937	-3.525	-3.3	179.896	-32.438	149.599	210.045	75.887	154.117	152.858	293.041	158.914	22.164	12.076	24.146	176.806	149.454	-7.482	68.238	0.00021297	0.00036218	0.00042528	599.84	3.1476e-06	4.1717e-06	558.33	202.66	2.6259e-06	2.6151e-06	192.09	61.856	72.279	32.75	1.9029e-06	31.432	0.002025	0.003022	0.0010026	605.33	3.0122e-05	3.4004e-05	560.19	206.01	3.0319e-05	3.3993e-05	196.35	64.078	75.21	33.633	3.2407e-05	32.372	137.382	111.790	98.097	-22.657	96.370	152.298	-24.708	-18.237	117.968	172.782	-20.960	-17.940	-14.662	-8.902	156.607	-13.549	-8191	255	
1510.775	1	1	0	0	0.054323	0.36387	0.15827	0.22376	0.041514	0.065691	0.14885	0.21902	0.28836	0.042762	0.20958	0.12565	0.2821	0.066853	0.10927	0.099572	-2.9771	-3.3125	-3.0312	-3.6604	-3.1354	-3.1458	-3.575	-3.2479	-3.4	-3.5208	-2.8812	-3.6375	-3.1958	-3.3312	-3.5271	-3.2917	245.865	312.587	270.493	-6.584	92.473	0.961	235.526	206.257	-34.703	76.517	297.455	18.860	16.535	154.587	162.976	48.848	0.00014024	0.00037417	0.00039934	607.26	2.449e-06	4.8715e-06	562.51	202.4	3.8402e-07	2.2423e-06	192.74	62.87	72.408	32.882	3.0258e-06	31.81	0.0020493	0.003186	0.0010997	608.79	3.1736e-05	3.5252e-05	562.41	205.93	3.1608e-05	3.5193e-05	197.74	64.826	75.407	33.949	3.3519e-05	32.625	114.990	-31.146	59.103	-22.470	85.390	178.741	-24.309	-17.802	29.132	52.749	-21.112	-18.115	-14.769	-8.958	94.461	-13.391	-8191	255	
1510.872	1	1	0	0	0.17358	0.24515	0.070084	0.21831	0.21714	0.15809	0.18078	0.19996	0.097313	0.25458	0.13152	0.10776	0.2972	0.042887	0.22427	0.081207	-2.9125	-3.65	-3.1167	-3.5208	-3.2792	-3.0812	-3.625	-3.2875	-3.4646	-3.4938	-3.0854	-3.35	-3.3646	-3.0917	-3.6813	-3.1667	63.401	-16.319	-20.128	216.414	281.366	-29.601	262.883	298.660	203.435	133.745	275.691	6.877	-16.682	104.247	35.267	133.449	0.00018846	0.00027229	0.00023396	602.39	2.1908e-06	6.3836e-07	565.05	203.75	5.3053e-06	5.0524e-06	193.53	62.819	72.133	32.993	5.8212e-06	31.428	0.0021627	0.0032379	0.0010391	608.03	3.2199e-05	3.5818e-05	565.14	207.27	3.2413e-05	3.6154e-05	198.25	65.066	75.258	33.848	3.441e-05	32.399	111.785	271.431	96.924	-22.693	129.785	59.193	-24.990	-18.175	139.417	127.082	-21.177	-17.571	-14.355	-9.104	23.804	-13.068	-8191	255	
1510.968	1	1	0	0	0.040877	0.056822	0.098757	0.2089	0.29362	0.079475	0.23836	0.30575	0.20641	0.23837	0.20777	0.090208	0.28835	0.12097	0.093028	0.2127	-3.0667	-3.7771	-3.0875	-3.5292	-3.2062	-3.0687	-3.4875	-3.4021	-3.2562	-3.4938	-3.0375	-3.5125	-3.3333	-3.2479	-3.5083	-3.4396	175.607	141.252	43.505	-32.243	31.896	183.171	257.946	315.879	160.915	182.434	161.995	318.386	268.680	-0.418	-17.230	204.286	9.0477e-05	0.00079914	0.00023579	597.85	7.2392e-07	2.1569e-06	558.74	203.05	5.9926e-06	2.2239e-06	190.43	61.663	71.383	32.517	4.4202e-06	30.806	0.002239	0.0033296	0.0011445	605.36	3.3516e-05	3.6396e-05	559.3	204.36	3.6359e-05	3.6113e-05	195.13	64.01	74.705	33.64	3.4991e-05	31.866	142.675	75.367	64.808	-22.930	173.795	147.337	-24.838	-17.851	195.039	138.627	-21.349	-17.495	-14.661	-9.287	170.883	-13.474	-8191	255	
1511.064	1	1	0	0	0.091732	0.38165	0.11777	0.22002	0.14474	0.17898	0.044535	0.13646	0.24539	0.25679	0.2036	0.09734	0.16662	0.19849	0.10756	0.15786	-2.6208	-3.55	-2.9833	-3.3625	-3.5125	-3.0125	-3.7167	-3.1042	-3.35	-3.5229	-3.1646	-3.3604	-3.5875	-2.9062	-3.4562	-3.2625	214.037	65.714	85.033	248.246	114.547	23.691	-29.311	211.468	316.371	71.903	296.670	256.421	106.083	309.874	35.992	284.169	0.00018378	0.00015743	0.00025746	600.46	4.445e-06	3.9378e-06	554.31	200.6	3.1237e-06	5.1573e-06	190.9	61.804	71.863	32.582	3.0596e-06	30.944	0.0023029	0.0034723	0.0011104	604.7	3.534e-05	3.8602e-05	559.01	203.4	4.3814e-05	3.7885e-05	195.76	64.225	74.897	33.597	3.4925e-05	32.06	129.641	18.460	85.357	-22.635	114.947	159.717	-24.521	-17.771	205.824	177.998	-21.166	-17.665	-14.569	-9.036	146.399	-13.397	-8191	255	
1511.184	1	1	0	0	0.33501	0.11686	0.15835	0.12668	0.095014	0.070313	0.26297	0.305	0.18963	0.12597	0.038765	0.10347	0.21355	0.22485	0.20429	0.15283	-2.6792	-3.6396	-3.2021	-3.2833	-3.4792	-3.0896	-3.6	-3.1458	-3.0979	-3.6771	-3.1792	-3.225	-3.6167	-3.1104	-3.4604	-3.55	-25.653	224.958	305.559	66.415	268.425	87.418	119.142	236.262	310.298	66.260	4.263	264.545	299.095	314.150	40.042	-8.854	0.00015514	0.0005535	0.00026613	601.56	8.1379e-06	5.4257e-06	560.91	200.89	7.7223e-06	6.5553e-06	190.33	62.425	72.927	32.408	1.4905e-06	31.055	0.0022652	0.0033305	0.0011415	606.85	3.5102e-05	3.8624e-05	562.75	203.87	4.2837e-05	4.0715e-05	197.3	64.764	75.799	33.641	3.9764e-05	32.088	114.432	49.366	41.852	-22.487	26.138	97.542	-24.844	-17.607	225.191	-4.141	-21.155	-17.577	-14.180	-9.161	238.768	-13.617	-8191	255	
1511.279	1	1	0	0	0.19551	0.09997	0.086984	0.1051	0.047617	0.1794	0.083879	0.072397	0.24019	0.20038	0.1174	0.1836	0.24318	0.17042	0.18866	0.33886	-2.5521	-3.5625	-3.1625	-3.2354	-3.6688	-2.9146	-3.7042	-3.4479	-3.0062	-3.6229	-3.2375	-3.2562	-3.4333	-3.0083	-3.2417	-3.5146	83.662	217.370	3.663	291.354	143.655	285.264	27.076	-22.580	-11.786	19.513	10.226	75.853	266.225	229.108	274.137	28.661	0.00017918	0.00051664	8.4605e-05	601.28	4.3885e-06	8.4784e-07	562.59	202.43	7.0134e-06	3.5099e-06	192.22	63.347	73.044	32.624	5.6878e-06	31.291	0.0025586	0.0037642	0.0011069	611.24	3.7817e-05	4.1788e-05	567.74	205.4	4.5367e-05	4.1468e-05	199.45	65.683	76.308	33.717	3.785e-05	32.395	98.320	33.162	51.035	-22.709	166.010	10.885	-24.585	-17.939	288.627	300.460	-21.147	-17.237	-14.248	-9.243	156.954	-13.290	-8191	255	
1511.377	1	1	0	0	0.27632	0.15812	0.11605	0.28366	0.093369	0.26189	0.077622	0.18301	0.094458	0.12085	0.14154	0.20643	0.35771	0.14273	0.099717	0.11201	-2.4771	-3.5021	-3.3042	-3.225	-3.8688	-3.2812	-3.4771	-3.7354	-3.1167	-3.5167	-3.5417	-3.2208	-3.6625	-3.0917	-3.4479	-3.6063	142.039	171.119	279.705	41.220	-21.482	292.395	296.618	307.556	128.176	23.661	31.029	-31.514	305.911	103.168	293.083	317.165	0.00015074	0.00035936	0.00023016	605.03	1.8797e-06	5.7928e-06	561.56	203.07	3.7646e-06	4.8952e-06	190.42	61.736	72.574	32.564	8.3787e-06	30.843	0.0023921	0.0035374	0.00099772	614.48	3.6155e-05	3.9002e-05	566.43	205.13	4.1561e-05	3.9743e-05	196.79	64.623	75.47	33.596	3.7423e-05	31.944	130.609	101.346	1.232	-22.626	140.650	13.710	-24.660	-18.205	204.841	36.574	-21.303	-17.392	-14.339	-8.851	199.181	-13.580	-8191	255	
1511.471	1	1	0	0	0.18773	0.12235	0.2971	0.16691	0.33376	0.069558	0.12899	0.16817	0.084157	0.14245	0.21756	0.15139	0.23417	0.20656	0.14281	0.25378	-2.6437	-3.4375	-3.1479	-3.2208	-3.65	-3.0875	-3.4	-3.7271	-3.0958	-3.6188	-3.4	-3.2104	-3.5917	-3.4083	-3.1521	-3.5479	3.010	145.332	61.339	70.912	93.607	256.263	256.979	292.182	-21.596	254.290	119.152	213.021	279.777	322.580	318.882	46.466	0.00023879	0.00054141	0.00011274	601.52	2.8031e-06	2.8022e-06	555.88	201.66	6.0021e-06	6.2585e-06	191.2	62.413	72.783	32.512	4.9959e-06	30.996	0.0023853	0.003498	0.00099713	610.79	3.583e-05	3.9505e-05	562.14	204.44	4.503e-05	4.0849e-05	197.14	64.592	75.684	33.38	4.2844e-05	31.928	85.624	96.656	68.872	-22.852	83.816	214.615	-24.964	-17.761	293.507	176.050	-21.458	-17.512	-14.468	-9.075	132.383	-13.152	-8191	255	
1511.567	1	1	0	0	0.084962	0.14363	0.26029	0.047472	0.089577	0.26549	0.070684	0.26906	0.23596	0.10975	0.076584	0.040588	0.024515	0.20084	0.19732	0.18762	-2.8146	-3.5042	-3.4979	-3.2542	-3.5312	-3.3333	-3.2875	-3.6854	-2.9458	-3.5125	-3.4646	-3.0646	-3.3958	-3.4042	-3.1792	-3.7833	315.843	294.315	172.425	279.187	234.931	17.454	77.551	289.083	105.829	66.472	308.703	162.877	234.648	242.750	236.107	215.682	0.00013784	0.00047214	0.00019803	602.45	2.3884e-06	6.7645e-06	559.74	202.61	2.566e-06	3.6086e-06	190.7	62.388	72.764	32.516	9.7857e-06	30.92	0.0024285	0.0036992	0.0010284	613.92	3.717e-05	4.0731e-05	565.26	205.18	4.267e-05	4.0978e-05	197.9	64.817	75.742	33.466	4.839e-05	32.105	112.936	111.536	58.945	-22.591	294.704	125.976	-24.443	-18.110	-30.923	73.088	-21.316	-17.419	-14.223	-9.238	72.470	-12.917	-8191	255	
1511.664	1	1	0	0	0.23669	0.19608	0.10785	0.065686	0.149	0.15664	0.14362	0.070004	0.049118	0.043042	0.085709	0.19268	0.141	0.038409	0.19462	0.31683	-2.6937	-3.3333	-3.4437	-2.9854	-3.6	-3.3833	-3.3229	-3.6292	-3.0958	-3.4167	-3.5479	-2.9813	-3.4313	-3.5	-3.1437	-3.7708	91.814	55.196	-28.881	270.341	42.896	51.947	301.338	-30.584	69.005	317.730	262.174	-7.490	237.407	5.174	-20.146	289.844	0.00016106	0.00032027	6.5662e-05	606.25	1.7819e-06	1.0771e-05	566.68	202.94	4.4678e-06	4.2245e-06	195.18	62.408	72.907	32.708	9.164e-06	31.502	0.0024727	0.0037823	0.001055	614.29	3.7214e-05	4.147e-05	568.92	205.75	4.3372e-05	4.0724e-05	199.94	65.191	76.104	33.69	4.4152e-05	32.515	107.313	273.101	162.596	-22.947	175.448	128.885	-25.033	-17.947	31.621	243.214	-21.177	-17.472	-14.521	-9.002	111.573	-13.264	-8191	255	
1511.784	1	1	0	0	0.15902	0.083878	0.31614	0.42766	0.10745	0.093259	0.21934	0.10775	0.16505	0.15208	0.16848	0.16413	0.10976	0.16678	0.051342	0.076522	-2.8875	-3.3792	-3.5667	-3.2271	-3.5729	-3.6312	-3.1583	-3.7354	-3.2125	-3.425	-3.3167	-3.0271	-3.4375	-3.4604	-3.1542	-3.7333	-7.734	-27.798	313.331	-6.745	286.724	233.901	250.057	210.630	205.704	25.010	87.943	274.816	77.273	-32.831	303.314	322.830	0.0001186	0.00056554	0.00010959	606.48	1.7988e-06	8.761e-06	564.63	201.78	2.5376e-06	3.9683e-06	191.72	61.805	72.241	32.345	1.1629e-05	31.074	0.0023738	0.0036182	0.00099679	616.86	3.6087e-05	3.9484e-05	567.82	205.14	3.6915e-05	4.3619e-05	197.13	64.46	75.344	33.375	4.5895e-05	31.953	87.870	-21.669	69.328	-22.952	128.166	80.289	-24.825	-17.819	99.915	217.506	-21.424	-17.728	-14.206	-8.720	87.410	-13.602	-8191	255	
1511.880	1	1	0	0	0.29852	0.12036	0.19983	0.034268	0.14072	0.12904	0.18228	0.12403	0.11996	0.068973	0.10705	0.081858	0.12878	0.34506	0.12899	0.069003	-2.8396	-3.2771	-3.4437	-3.2479	-3.4833	-3.5646	-3.2271	-3.5125	-3.1833	-3.3354	-3.5729	-3.35	-3.5292	-3.5292	-3.125	-3.625	106.776	147.530	60.576	160.755	158.777	123.206	239.099	148.578	229.629	135.488	164.324	87.228	227.482	239.252	206.450	255.089	0.00016952	0.00038506	0.00021415	600.48	1.6192e-06	1.2113e-06	554.89	198.52	1.9468e-06	8.2621e-06	188.18	60.788	71.512	31.966	5.009e-06	30.177	0.0023657	0.0036412	0.00099755	609.82	3.7033e-05	4.0328e-05	558.45	202.6	3.7427e-05	5.0226e-05	194.04	63.557	74.946	32.926	4.5311e-05	31.404	134.512	134.299	58.715	-22.671	20.851	138.683	-24.875	-18.023	137.664	-12.006	-21.257	-17.734	-13.863	-9.176	97.713	-13.348	-8191	255	
1511.976	1	1	0	0	0.081549	0.088209	0.12802	0.23706	0.16284	0.13594	0.068136	0.28441	0.16998	0.055175	0.056612	0.17734	0.32794	0.24946	0.24401	0.13951	-2.8104	-3.1271	-3.5312	-3.4333	-3.2146	-3.5854	-3.0292	-3.5438	-3.5125	-3.0812	-3.6417	-3.0875	-3.5125	-3.5229	-3.1521	-3.3375	312.245	271.085	322.839	269.885	322.654	94.931	318.645	290.129	193.675	260.826	213.899	309.739	71.173	251.839	15.257	266.413	0.0001284	0.00052229	9.7433e-05	599.76	1.0071e-05	7.7154e-07	550.94	199.73	1.3244e-06	3.2668e-06	187.35	61.239	71.719	31.897	8.3844e-06	30.278	0.0025896	0.0039501	0.0010806	608.66	4.0648e-05	4.3638e-05	556.56	202.64	3.9942e-05	4.971e-05	194.53	63.846	75.191	32.989	4.8104e-05	31.561	151.079	23.798	313.134	-22.438	189.432	32.535	-24.663	-17.773	-19.563	-21.254	-21.257	-17.435	-14.495	-9.032	81.208	-13.380	-8191	255	
1512.048	1	1	0	0	0.12626	0.2469	0.22872	0.079635	0.033213	0.061972	0.34259	0.21385	0.157	0.093342	0.19368	0.090637	0.10011	0.1535	0.21319	0.10804	-3.1083	-3.2167	-3.6063	-3.1146	-3.5271	-3.6229	-3.2938	-3.6646	-3.5542	-2.9542	-3.6854	-3.3104	-3.2812	-3.7479	-3.2146	-3.5917	-30.934	256.657	69.891	269.014	310.931	162.925	295.026	205.122	-24.349	92.312	282.355	89.575	272.044	215.774	104.611	213.703	0.00011702	0.00029499	0.00010963	603.17	6.6661e-07	7.9926e-06	556.27	201.09	1.881e-06	6.2986e-06	189.36	61.94	71.822	32.109	9.0404e-06	30.891	0.0025248	0.0038659	0.0010542	607.49	4.2668e-05	4.2027e-05	561.21	204.13	3.8845e-05	5.1473e-05	196.19	64.342	75.474	33.086	4.6659e-05	31.911	113.438	19.144	90.355	-22.588	23.719	126.552	-25.020	-17.749	123.218	28.161	-21.066	-17.493	-14.410	-9.196	128.703	-13.386	-8191	255	
1512.169	1	1	0	0	0.16913	0.10852	0.10468	0.17092	0.21888	0.32269	0.18748	0.072757	0.31816	0.2664	0.23772	0.058253	0.099385	0.20228	0.062658	0.18742	-2.9354	-3.1979	-3.7167	-3.2667	-3.2208	-3.6396	-3.2479	-3.5271	-3.4875	-3.1833	-3.7042	-3.3312	-3.2583	-3.5125	-3.2146	-3.4833	-28.561	183.429	323.597	-14.668	26.179	321.358	197.288	307.455	156.378	256.411	40.999	18.855	67.473	6.850	296.040	222.708	0.00012351	0.00041145	4.9228e-05	601	6.3295e-06	3.6018e-06	557.62	200.35	3.8682e-06	7.168e-06	188.5	61.337	71.647	31.775	9.6002e-06	30.113	0.0025799	0.0039314	0.0010812	609.33	4.734e-05	4.2282e-05	563.08	204.11	3.9011e-05	4.799e-05	195.4	63.975	75.105	32.848	4.7532e-05	31.459	125.196	22.973	52.632	-23.017	174.806	82.439	-24.538	-17.811	-31.967	-19.420	-21.239	-17.665	-14.170	-8.976	99.331	-13.516	-8191	255	
1512.265	1	1	0	0	0.12735	0.050021	0.18818	0.35355	0.23951	0.18934	0.21936	0.21244	0.11054	0.084401	0.10604	0.16985	0.18907	0.15949	0.023322	0.10762	-3.3563	-2.9917	-3.6958	-3.4583	-3.2	-3.6854	-3.2271	-3.3354	-3.6292	-3.1562	-3.6333	-3.2812	-3.0292	-3.6583	-3.1604	-3.4	161.257	83.011	-4.733	314.341	70.553	160.870	144.856	200.034	-5.343	199.422	201.408	-31.880	310.867	302.850	240.275	122.500	5.6247e-05	0.00054419	9.0298e-05	593.31	7.2408e-06	8.9497e-06	542.84	197.59	1.6219e-06	3.4767e-06	185.12	60.095	70.727	31.662	7.4471e-06	29.865	0.0026616	0.0040117	0.0011221	601.37	4.6275e-05	4.4466e-05	551	200.81	4.0771e-05	5.2607e-05	191.51	62.876	74.201	32.564	4.0784e-05	31.268	67.815	35.693	54.591	-22.705	203.404	134.047	-24.859	-18.252	215.781	59.433	-21.168	-17.750	-14.398	-9.052	110.413	-13.245	-8191	255	
1512.361	1	1	0	0	0.19572	0.058943	0.1567	0.17667	0.26335	0.088778	0.048798	0.11499	0.18772	0.30754	0.061209	0.16585	0.3258	0.20661	0.14463	0.15473	-2.9979	-3.3333	-3.3563	-3.4813	-3.2333	-3.5333	-3.4688	-3.2208	-3.6688	-3.125	-3.6146	-3.5229	-3.0875	-3.6	-3.3083	-3.1042	27.899	139.904	103.663	216.229	-32.623	4.161	281.025	188.404	145.498	8.501	90.017	50.595	268.270	300.583	318.135	230.616	0.00017635	0.00073596	0.00013265	598.07	5.6463e-06	2.2831e-06	551.42	198.26	1.4111e-06	3.7612e-06	185.36	60.252	70.823	31.844	2.1531e-06	30.224	0.0024772	0.0037303	0.001045	602.32	4.4085e-05	4.0787e-05	552.94	201.17	3.7365e-05	4.6834e-05	192.87	62.918	74.192	32.746	3.8213e-05	31.681	118.601	68.545	28.752	-22.995	159.558	160.582	-24.506	-17.869	58.248	55.563	-20.724	-17.401	-14.519	-9.097	71.492	-13.553	-8191	255	
1512.457	1	1	0	0	0.066071	0.11792	0.042858	0.052895	0.16797	0.038842	0.062257	0.27846	0.12171	0.21335	0.25617	0.14537	0.0728	0.24093	0.18399	0.23268	-3.1167	-2.9979	-3.4396	-3.3958	-3.2188	-3.7083	-3.4167	-3.1688	-3.4313	-2.9104	-3.5479	-3.4896	-3.175	-3.7687	-3.1875	-3.2667	-32.101	-20.103	30.068	86.802	94.804	184.476	134.548	320.625	-23.716	282.718	-24.552	170.468	252.553	269.377	37.372	204.012	0.00016544	0.00045929	0.00023529	600.47	5.7954e-06	3.1165e-06	554.07	200.92	5.149e-06	1.1669e-05	189.09	61.549	71.255	32.14	6.6416e-06	30.797	0.002377	0.0035776	0.00099703	604.39	4.1217e-05	3.8997e-05	559.48	203.32	3.5994e-05	4.5968e-05	196.25	63.95	74.776	33.116	3.7898e-05	32.137	102.056	319.762	74.820	-22.790	164.864	163.076	-24.541	-17.814	-6.873	42.119	-21.315	-17.719	-14.088	-9.240	134.437	-13.300	-8191	255	
1512.576	1	1	0	0	0.21027	0.065986	0.05165	0.10048	0.29582	0.0089882	0.19425	0.070588	0.14343	0.16962	0.080824	0.20373	0.15592	0.27746	0.24563	0.11442	-3.2812	-3.2104	-3.45	-3.2625	-3.0167	-3.3875	-3.3208	-3.0958	-3.6917	-3.1625	-3.2375	-3.5271	-3.1417	-3.5167	-3.4688	-3.2687	119.281	304.425	130.924	299.120	124.040	283.516	228.382	131.881	242.052	210.167	293.758	318.482	104.351	309.959	261.396	246.649	0.00015699	0.00051822	0.00022751	601.48	6.5416e-06	9.7471e-07	558.6	203.39	2.7173e-06	1.01e-05	191.91	62.51	72.197	32.367	4.7841e-06	31.112	0.0023981	0.003647	0.0010032	606.97	4.4126e-05	3.9278e-05	563.62	204.81	3.5067e-05	3.8726e-05	199.18	64.545	75.218	33.276	3.4973e-05	32.454	130.945	47.072	130.430	-22.768	133.898	234.256	-24.808	-17.524	319.464	34.348	-21.433	-17.133	-14.253	-8.783	136.415	-13.424	-8191	255	
1512.672	1	1	0	0	0.12489	0.093187	0.059023	0.27438	0.093852	0.18558	0.15521	0.17807	0.22017	0.084277	0.13549	0.23979	0.07017	0.23597	0.068563	0.32362	-3.25	-3.2812	-3.4417	-3.6521	-3.1104	-3.5563	-3.4437	-3.1146	-3.6104	-3.2979	-3.2667	-3.6292	-3.0458	-3.475	-3.4396	-3.3187	224.867	299.676	51.209	287.294	40.410	314.636	233.996	259.406	244.655	230.714	133.082	211.729	65.416	-2.833	267.814	286.439	0.00018962	0.00057153	5.9271e-05	600.78	6.1586e-06	2.9736e-06	556.26	200.2	3.2975e-06	3.3043e-06	189.36	61.196	71.977	32.141	4.357e-06	30.818	0.0022119	0.0033021	0.00091597	605.49	3.8543e-05	3.6567e-05	559.89	202.41	3.311e-05	3.6256e-05	196.62	63.601	74.354	33.051	3.384e-05	31.927	130.370	8.274	92.033	-23.037	196.649	159.186	-24.865	-17.923	98.744	133.648	-21.536	-17.852	-14.031	-8.768	121.470	-13.548	-8191	255	
1512.744	1	1	0	0	0.15641	0.087848	0.19746	0.087736	0.057655	0.15148	0.12121	0.14447	0.095861	0.11096	0.21562	0.27366	0.14922	0.11864	0.14922	0.17164	-3.1667	-3.3312	-3.2667	-3.6271	-3.2583	-3.5479	-3.5625	-3.1813	-3.7208	-3.3521	-3.2562	-3.4979	-3.2354	-3.325	-3.5896	-3.0542	265.960	269.164	94.729	247.100	105.080	227.525	274.448	313.187	29.808	92.067	11.642	260.822	-15.199	18.331	253.910	224.555	0.00013012	0.00017739	5.3857e-05	600.62	1.4481e-06	6.8129e-06	555.84	200.93	1.8157e-06	3.3704e-06	191.21	61.821	71.957	32.295	6.6704e-06	31.038	0.0021243	0.0031852	0.00087995	604.5	3.7511e-05	3.7345e-05	558.65	202.85	3.239e-05	3.5202e-05	197.15	63.853	74.642	33.059	3.2709e-05	32.134	130.420	60.676	-7.393	-22.709	136.383	190.449	-24.705	-17.733	82.490	130.853	-21.385	-17.533	-14.162	-8.756	164.348	-13.756	-8191	255	
1512.865	1	1	0	0	0.23041	0.12446	0.081402	0.17452	0.099905	0.055269	0.15383	0.21074	0.029899	0.043626	0.24774	0.21032	0.13175	0.23164	0.18101	0.1987	-3.1708	-3.3396	-3.2979	-3.6583	-3.2271	-3.2729	-3.7542	-3.0125	-3.5167	-3.3125	-3.2438	-3.6104	-3.4521	-3.3625	-3.4292	-2.9958	69.354	204.586	230.349	232.995	237.318	299.245	265.666	29.332	273.196	10.671	294.699	-22.133	51.040	272.177	304.528	168.660	0.00015607	0.00050048	4.1666e-05	604.88	3.7711e-06	8.1205e-06	564.39	201.65	4.3323e-06	4.3258e-07	193.68	63.061	73.076	32.695	3.5915e-06	31.44	0.0020777	0.0031697	0.00086396	608.01	3.1398e-05	3.8968e-05	566.38	203.84	3.0832e-05	3.4076e-05	199.91	64.871	75.503	33.449	3.2293e-05	32.636	119.738	51.284	77.295	-22.712	81.014	201.860	-24.790	-18.220	53.244	148.425	-21.181	-17.726	-14.143	-9.292	96.730	-13.298	-8191	255	
1512.961	1	1	0	0	0.2159	0.16312	0.16197	0.20638	0.080114	0.12593	0.22301	0.19963	0.21377	0.27928	0.1306	0.23716	0.15438	0.29061	0.12358	0.16154	-3.0521	-3.3563	-3.175	-3.6125	-3.0979	-3.2292	-3.6063	-3.2208	-3.6208	-3.55	-3.1583	-3.6542	-3.3312	-3.3812	-3.4667	-3.3042	137.512	272.466	95.259	265.742	110.204	73.589	96.783	-4.469	-25.331	10.793	187.555	8.905	-0.487	-18.303	-17.834	244.857	8.4447e-05	8.0876e-05	0.00015063	606.77	6.3384e-06	9.6337e-06	571.29	203.85	4.4449e-06	2.9932e-06	195.53	63.439	73.719	33.126	5.9761e-06	31.951	0.0020267	0.0030686	0.00085894	610.26	3.0821e-05	4.2294e-05	572.03	205.15	3.1138e-05	3.3951e-05	201.6	65.832	76.219	33.885	3.1906e-05	32.974	121.606	52.143	108.857	-22.769	147.722	279.091	-24.687	-17.662	68.265	190.635	-20.873	-17.568	-14.303	-9.010	114.285	-13.670	-8191	255	
1513.057	1	1	0	0	0.091015	0.10851	0.29511	0.28702	0.22967	0.24027	0.16338	0.033735	0.1936	0.14896	0.22224	0.11765	0.14808	0.23917	0.20483	0.12571	-3.1688	-3.3688	-3.1521	-3.6813	-3.2958	-3.3688	-3.4562	-3.0896	-3.4646	-3.4792	-3.1521	-3.4646	-3.375	-3.2708	-3.7396	-3.2104	194.572	-10.675	317.012	170.471	19.943	310.531	93.787	-29.671	109.001	85.201	294.729	43.371	132.710	194.262	262.294	65.746	0.00024573	0.00024868	0.00013052	610.06	3.1368e-06	3.4942e-06	569.82	203.11	2.614e-06	8.1785e-06	192.36	62.645	72.696	32.735	3.0014e-06	31.188	0.0022037	0.0030755	0.00086977	613.44	3.1749e-05	4.0326e-05	570.19	204.61	3.2169e-05	3.5097e-05	199.43	64.728	75.46	33.522	3.2839e-05	32.153	123.025	39.324	320.864	-22.425	127.594	260.169	-24.503	-17.907	143.838	216.503	-21.101	-17.087	-13.944	-8.726	4.339	-13.279	-8191	255	
1513.177	1	1	0	0	0.15501	0.094415	0.18932	0.19694	0.33255	0.20766	0.046745	0.21705	0.16417	0.064517	0.036182	0.20251	0.14221	0.22988	0.15415	0.022227	-3.0667	-3.4646	-3.1458	-3.4708	-3.5375	-3.1	-3.5312	-3.3583	-3.1937	-3.5896	-3.1125	-3.4938	-3.4062	-3.1521	-3.5896	-3.1917	145.786	193.267	262.711	265.489	241.362	53.304	66.600	148.351	178.433	260.012	56.328	83.281	7.952	313.862	314.601	314.571	0.00023428	0.00058874	8.6447e-05	604.42	1.8384e-06	5.7521e-06	562.34	200.47	2.4043e-06	2.017e-06	190.32	62.539	72.399	32.762	6.4258e-06	30.879	0.002363	0.0031393	0.00086738	608.35	3.1954e-05	4.3946e-05	565.08	202.49	3.2476e-05	3.534e-05	196.83	64.491	75.27	33.477	3.456e-05	32.06	111.665	42.400	61.536	-22.727	97.667	4.208	-24.678	-17.941	70.738	-20.061	-21.230	-16.833	-14.246	-8.765	234.411	-13.444	-8191	255	
1513.272	1	1	0	0	0.23865	0.098404	0.29116	0.064171	0.060764	0.23406	0.10862	0.23022	0.11147	0.10749	0.14973	0.14483	0.30968	0.15743	0.12579	0.21419	-2.7812	-3.4562	-3.1292	-3.3771	-3.4271	-2.9021	-3.7917	-3.1896	-3.2875	-3.4875	-3.0333	-3.4833	-3.4938	-3.0438	-3.5521	-3.3771	229.783	91.148	156.579	-30.521	225.875	139.341	13.525	261.333	52.135	236.921	323.053	22.113	313.840	1.995	298.736	252.206	0.00016479	0.00049604	0.00011066	602.2	1.6568e-06	3.6369e-06	557.61	200.29	1.0293e-06	2.2509e-06	191.33	62.538	72.985	32.803	3.6372e-06	31.086	0.0027067	0.0033135	0.00094257	604.62	3.311e-05	4.3147e-05	561.83	202.38	3.3807e-05	3.7036e-05	197.07	65.022	75.608	33.643	3.587e-05	32.188	90.320	29.782	113.952	-22.660	272.652	202.351	-25.124	-17.981	19.592	-6.509	-21.259	-17.224	-14.303	-9.083	108.798	-13.264	-8191	255	
1513.345	1	1	0	0	0.20655	0.074812	0.12397	0.31467	0.063586	0.13373	0.24968	0.19834	0.14853	0.09785	0.18317	0.14073	0.1517	0.1166	0.16548	0.16441	-2.7812	-3.6063	-3.3021	-3.3458	-3.4188	-3.0875	-3.4188	-3.4104	-3.3833	-3.6667	-3.2042	-3.425	-3.5042	-3.2583	-3.5125	-3.3979	103.018	30.644	258.957	284.450	180.686	69.933	3.988	35.286	184.317	53.324	79.408	153.441	291.192	-18.363	-22.159	283.003	0.00021554	0.00031754	0.00015675	603.39	2.9507e-06	8.9366e-06	564.12	201.02	5.5607e-06	5.2782e-06	194.62	62.826	73.113	32.895	2.3935e-06	31.601	0.002629	0.0034381	0.00095562	607	3.4333e-05	4.7157e-05	568.29	203.26	3.4047e-05	3.7608e-05	198.21	65.702	75.898	33.768	3.4812e-05	32.579	103.555	56.916	4.476	-22.726	91.060	281.430	-25.019	-17.790	112.207	67.318	-21.128	-17.385	-14.357	-8.967	-4.014	-13.555	-8191	255	
1513.464	1	1	0	0	0.24988	0.15241	0.158	0.38403	0.24208	0.30742	0.032429	0.15866	0.23913	0.095079	0.11757	0.18706	0.30821	0.2866	0.22563	0.19698	-2.525	-3.1729	-2.8354	-3.1292	-3.3167	-2.9083	-3.4083	-3.2542	-3.025	-3.4688	-2.9396	-3.2458	-3.2313	-3.1562	-3.1375	-3.3521	-11.414	305.030	44.996	191.285	146.628	38.681	235.279	319.117	-26.797	259.017	323.788	265.212	280.908	296.801	8.972	297.517	0.00019308	0.0002986	0.00020333	610.92	1.3362e-06	4.7842e-06	571.79	201.68	1.7085e-06	7.7953e-06	193.64	63.038	73.192	32.788	5.2929e-06	31.441	0.0026963	0.0032546	0.0009052	613.16	3.2327e-05	4.1688e-05	573.53	204.34	3.2459e-05	3.5742e-05	197.73	65.576	75.771	33.587	3.409e-05	32.292	106.424	10.749	50.206	-22.683	191.375	320.586	-24.467	-17.936	54.799	78.170	-21.339	-17.758	-14.451	-8.846	97.373	-13.342	-8191	255	
1513.560	1	1	0	0	0.089413	0.084292	0.065167	0.16842	0.18978	0.02516	0.057874	0.034718	0.34103	0.15341	0.1502	0.09148	0.20457	0.26477	0.24593	0.076356	-2.3479	-3.3292	-2.9458	-2.8458	-3.2167	-3.0438	-3.2396	-3.3542	-2.6521	-3.4188	-3.0604	-3.1042	-3.3688	-2.7396	-3.2396	-3.3083	23.885	-4.187	155.942	313.184	154.353	63.881	-21.896	16.549	265.725	142.350	280.775	48.964	278.520	53.289	-22.400	259.490	0.00025114	0.00042775	0.00016616	606.39	1.6922e-07	3.4628e-06	560.4	199.98	2.8751e-06	5.7185e-06	188.13	62.166	72.112	32.231	9.0591e-07	30.827	0.00255	0.00331	0.00091001	608.46	3.3555e-05	4.1024e-05	565.36	202.22	3.3812e-05	3.7251e-05	194.31	64.717	74.977	33.233	3.5049e-05	31.79	125.071	54.105	0.381	-22.983	194.814	131.044	-24.600	-17.876	156.593	65.370	-21.386	-17.497	-14.415	-8.979	77.841	-13.470	-8191	255	
1513.656	1	1	0	0	0.22984	0.15944	0.14906	0.34019	0.1428	0.082134	0.32358	0.13386	0.10601	0.024723	0.19963	0.16985	0.062803	0.17765	0.097361	0.29752	-2.4208	-3.3208	-2.8063	-2.9625	-3.4437	-2.8979	-3.2958	-3.2042	-2.9083	-3.2938	-3.2146	-2.7979	-3.45	-3.0417	-2.9604	-3.4354	98.975	299.633	142.029	228.003	144.089	49.512	293.104	8.555	102.138	112.006	103.202	87.523	247.573	231.368	156.561	219.060	0.00027131	0.00042482	0.0001408	604.66	1.4247e-06	4.116e-06	560.49	199.54	1.0902e-06	2.2597e-06	190.14	62.779	72.542	32.383	5.722e-06	31.137	0.002729	0.0033427	0.00090697	607.36	3.3509e-05	3.6564e-05	565.5	202.39	3.3809e-05	3.6564e-05	196.08	65.279	75.326	33.346	3.4833e-05	32.015	129.641	77.528	36.780	-22.734	45.442	60.882	-24.651	-17.784	315.544	81.551	-21.466	-17.197	-14.373	-9.112	24.834	-13.173	-8191	255	
1513.753	1	1	0	0	0.23075	0.17234	0.22081	0.14247	0.22194	0.1747	0.33108	0.20887	0.13642	0.086344	0.14106	0.21477	0.24829	0.14634	0.18279	0.14457	-2.3896	-3.15	-3.1688	-3.0521	-3.25	-3.0521	-3.0938	-3.4667	-2.6854	-3.35	-3.2833	-2.8583	-3.3458	-3.0938	-2.9792	-3.3937	265.892	-3.358	41.746	176.789	226.334	261.614	206.576	287.690	-26.781	210.824	89.181	96.661	224.574	-19.376	48.926	37.424	0.00025787	0.00015966	0.00014211	607.51	2.7202e-06	5.9158e-06	566.28	202.02	4.1372e-06	4.878e-06	193.23	62.944	73.206	32.342	1.0278e-06	30.951	0.0025373	0.0032767	0.00091085	610.87	3.3597e-05	3.6975e-05	572.25	204.31	3.4555e-05	3.7359e-05	198.68	65.655	76.106	33.359	3.5552e-05	32.079	105.829	54.499	38.702	-22.757	318.697	69.893	-24.957	-17.874	87.573	147.821	-21.029	-17.346	-14.272	-9.181	114.505	-13.355	-8191	255	
1513.873	1	1	0	0	0.057973	0.10186	0.11279	0.18761	0.076686	0.15842	0.14694	0.21912	0.050335	0.096104	0.14803	0.12126	0.10538	0.12541	0.3364	0.23262	-2.4479	-3.1292	-3.2125	-2.8042	-3.5208	-2.9354	-3.0896	-3.4958	-2.95	-3.3146	-3.1	-2.7854	-3.2583	-3.0958	-2.7708	-3.2208	308.821	26.384	117.295	30.699	167.157	125.211	217.905	230.921	193.945	161.421	192.759	-29.325	195.952	237.250	207.259	193.488	0.00014361	0.0012311	5.9869e-05	612.53	6.4621e-06	3.6957e-06	571.09	204.41	3.2456e-06	4.3832e-06	195.08	63.189	73.229	32.184	4.4489e-06	30.883	0.0025242	0.0036802	0.00094869	616.53	3.4937e-05	3.7872e-05	576.67	207.2	3.52e-05	3.8492e-05	200.83	66.164	76.391	33.172	3.7262e-05	31.892	121.490	102.019	97.356	-22.831	72.680	216.445	-24.904	-17.783	35.453	150.680	-21.420	-17.598	-14.626	-9.068	123.131	-13.508	-8191	255	
1513.945	1	1	0	0	0.26971	0.17776	0.21169	0.15596	0.087237	0.13572	0.087635	0.030568	0.19633	0.12358	0.087592	0.32683	0.14968	0.25551	0.21178	0.099542	-2.5312	-3.1271	-3.3667	-3.0708	-3.3771	-3.1542	-2.9833	-3.5125	-3.0708	-3.1063	-3.2354	-3.075	-3.2	-3.2562	-2.825	-3.4021	220.393	179.598	-9.468	245.971	60.887	119.682	286.864	-23.500	223.501	216.706	274.913	98.603	260.265	314.083	109.059	315.306	0.00016801	0.00041854	0.00010625	610.21	5.8136e-06	2.2533e-06	561.72	202.73	4.8958e-06	3.8365e-06	192.77	62.335	72.962	32.176	5.6975e-06	30.732	0.0022824	0.0039805	0.00095938	614.44	3.4174e-05	3.7598e-05	569.22	204.83	3.3715e-05	3.6707e-05	196.77	64.963	75.602	32.971	3.4628e-05	31.727	114.114	124.807	69.078	-22.770	115.118	88.206	-24.863	-18.045	128.550	160.425	-21.104	-17.787	-14.151	-8.845	101.776	-13.743	-8191	255	
1514.041	1	1	0	0	0.20848	0.16361	0.17789	0.30135	0.084035	0.20844	0.16782	0.16243	0.16356	0.17054	0.10286	0.039355	0.17306	0.21715	0.078092	0.13312	-2.5708	-3.0042	-3.3458	-2.9583	-3.4042	-3.1271	-2.9542	-3.4938	-3.025	-2.8792	-3.3333	-2.9042	-3.3375	-3.1396	-2.9271	-3.2271	298.893	115.325	-24.076	295.531	-28.103	19.245	259.108	279.746	66.265	-6.334	143.865	90.437	39.546	106.904	184.943	310.456	0.00022415	0.00098224	0.00013181	607.81	1.203e-06	4.8114e-06	562.75	202.42	3.0138e-06	4.6296e-06	192.18	62.65	72.749	32.227	2.7077e-06	30.582	0.0021478	0.0040087	0.00091118	610.25	3.2433e-05	3.5432e-05	567.89	204.41	3.2565e-05	3.6069e-05	197.65	64.932	76.121	33.083	3.5712e-05	31.731	107.376	136.693	50.537	-22.825	311.465	157.949	-24.558	-17.959	103.801	132.436	-21.161	-17.346	-14.355	-9.067	45.303	-13.387	-8191	255	
1514.137	1	1	0	0	0.12684	0.10011	0.22813	0.22778	0.10347	0.13507	0.31941	0.1688	0.17862	0.20543	0.24222	0.11552	0.14929	0.092653	0.19136	0.27133	-2.4167	-2.9542	-3.2646	-2.85	-3.2229	-3.1729	-2.8125	-3.3479	-2.9208	-2.9479	-3.2958	-2.9938	-3.0854	-3.5062	-2.6729	-3.4021	106.846	253.112	244.670	63.820	49.860	184.437	-31.992	285.836	150.070	251.496	198.477	213.504	-23.110	312.370	-11.374	143.791	9.2215e-05	0.00065253	0.00019451	610.61	3.9269e-06	6.1569e-06	565.85	202.94	1.9283e-06	5.6015e-06	192.94	63.127	73.182	32.388	3.1359e-06	30.943	0.0021981	0.0039052	0.00094201	613.58	3.4265e-05	3.7371e-05	572.17	205.28	3.3634e-05	3.8116e-05	198.53	65.239	76.607	33.162	3.6686e-05	31.914	122.037	111.711	88.731	-22.789	108.165	13.080	-24.622	-18.121	239.104	155.557	-21.402	-17.632	-14.433	-8.934	116.996	-13.123	-8191	255	
1514.258	1	1	0	0	0.14697	0.099588	0.21615	0.12878	0.12535	0.048339	0.29306	0.36874	0.19676	0.18199	0.13836	0.13309	0.24708	0.10634	0.31001	0.21624	-2.5396	-2.775	-3.1583	-2.9708	-2.9875	-3.1813	-2.7562	-3.4833	-3.1292	-2.825	-3.2125	-2.6979	-3.1146	-3.3292	-2.8208	-3.1292	271.191	179.259	275.489	80.564	141.260	76.413	304.100	304.841	-1.949	19.569	63.337	155.682	268.336	-2.676	-1.065	-5.958	0.00017842	0.00028956	0.0001181	608.85	3.8653e-06	5.8806e-06	568.57	203.86	3.3282e-06	5.8943e-06	195.06	62.842	73.635	32.501	3.114e-06	31.315	0.0023186	0.0042791	0.00098287	614.98	3.5527e-05	3.9097e-05	573.57	206.53	3.5559e-05	3.9313e-05	200.42	65.503	77.194	33.422	3.6977e-05	32.261	112.682	114.775	-16.593	-22.506	156.322	52.483	-24.642	-17.887	272.969	197.920	-21.284	-17.567	-14.120	-8.960	88.188	-13.279	-8191	255	
1514.352	1	1	0	0	0.15027	0.33672	0.14799	0.086137	0.043442	0.14099	0.072064	0.10995	0.16907	0.21261	0.2301	0.2261	0.18987	0.16839	0.04059	0.15764	-2.8854	-2.7896	-3.3396	-2.9813	-2.9729	-3.3417	-2.9646	-3.3021	-3.1979	-2.8187	-3.3375	-2.9208	-3.1083	-3.1063	-3.0479	-3.2104	85.293	147.413	187.328	265.487	-0.582	66.159	308.155	198.726	290.350	299.997	124.995	183.816	-13.308	110.636	45.574	292.624	8.6839e-05	0.00038712	0.00023257	608.4	4.6838e-06	6.991e-07	564.15	201.78	4.8734e-06	3.8185e-06	192.52	62.585	73.033	32.345	4.8927e-06	30.739	0.0022624	0.0039989	0.00093972	613.37	3.3877e-05	3.7706e-05	568.11	205.44	3.3839e-05	3.7044e-05	197.52	64.682	76.118	33.183	3.4902e-05	31.854	62.739	313.107	72.567	-22.835	97.396	103.864	-24.732	-17.927	89.279	76.927	-21.679	-17.487	-13.950	-9.304	102.907	-13.667	-8191	255	
1514.448	1	1	0	0	0.27646	0.25853	0.18242	0.21996	0.18487	0.23681	0.088859	0.15799	0.17809	0.048779	0.056191	0.31192	0.12555	0.23907	0.14619	0.14257	-2.9229	-2.8125	-3.2104	-3.0458	-2.9667	-3.5062	-2.8646	-3.3063	-3.0167	-2.9875	-3.2604	-3.2729	-2.9271	-3.4396	-3.0458	-3.1354	53.275	133.198	142.510	220.925	-27.609	64.974	11.465	83.788	107.327	-28.520	159.320	107.340	304.065	18.623	272.425	169.352	0.00012259	0.00051583	8.9894e-05	609.33	1.6175e-06	6.7093e-06	558.21	201.41	1.9772e-06	4.1873e-06	191.11	62.348	72.602	32.254	6.0699e-06	30.964	0.0022337	0.0041477	0.00092554	610.4	3.3997e-05	3.7327e-05	562.4	203.75	3.3731e-05	3.7813e-05	195.94	64.401	76.387	33.217	3.6047e-05	31.876	114.095	120.777	2.762	-22.656	147.741	157.442	-24.838	-17.891	116.147	92.886	-21.271	-17.670	-14.316	-8.938	98.634	-13.570	-8191	255	
1514.546	1	1	0	0	0.14516	0.1007	0.21135	0.13002	0.35799	0.21791	0.12986	0.12514	0.15934	0.082197	0.23119	0.21142	0.055593	0.30055	0.11785	0.11333	-2.9125	-2.75	-3.3979	-3.0271	-2.9854	-3.3396	-2.9354	-3.2396	-3.1792	-2.8229	-3.3646	-3.1417	-2.9333	-3.475	-2.8896	-3.1188	33.739	121.322	108.033	-7.413	237.999	90.797	214.732	265.126	320.627	321.447	189.689	79.060	78.615	308.241	314.881	97.482	0.00014425	0.00031702	0.00016225	604.05	3.51e-06	8.1663e-06	557.4	199.95	2.822e-06	3.5485e-06	189.33	62.35	72.668	32.533	3.1133e-06	31.07	0.0023014	0.0039919	0.00096737	609.04	3.589e-05	3.8595e-05	562.42	204.15	3.559e-05	3.8446e-05	195.94	64.556	76.045	33.343	3.647e-05	32.066	112.824	311.268	-2.613	-22.609	117.745	179.145	-24.583	-17.922	64.350	235.123	-20.827	-17.425	-14.257	-9.036	142.030	-13.174	-8191	255	
1514.641	1	1	0	0	0.19978	0.10616	0.1586	0.26519	0.067469	0.079545	0.22585	0.21534	0.096882	0.15269	0.3645	0.054356	0.11861	0.073475	0.12938	0.23115	-3.0042	-2.6312	-3.35	-3.2708	-2.8875	-3.3688	-3.0354	-2.8896	-3.45	-2.825	-3.3458	-3.3167	-2.8333	-3.4979	-3.0229	-2.9979	293.241	140.335	319.799	291.424	204.814	275.886	119.588	300.490	27.682	109.919	306.176	18.065	291.539	203.368	227.999	292.964	0.00015762	0.0011365	0.00012175	605.13	1.1647e-06	4.2294e-06	559.11	200.8	1.5703e-06	3.5915e-06	191.48	62.843	72.861	32.671	3.6116e-06	31.643	0.002314	0.0037043	0.0010531	609.47	3.4942e-05	3.7589e-05	566.01	203.55	3.4931e-05	3.7974e-05	196.96	64.936	76.642	33.607	3.5562e-05	32.506	127.054	-19.254	168.807	-22.847	65.302	92.083	-24.704	-18.177	146.406	182.245	-21.228	-17.493	-13.933	-9.175	203.812	-13.386	-8191	255	
1514.737	1	1	0	0	0.25772	0.17909	0.071927	0.19812	0.10021	0.20882	0.1448	0.23844	0.14706	0.30082	0.0064595	0.16265	0.25052	0.072589	0.1099	0.18142	-3.025	-2.9917	-3.1271	-3.3771	-2.9625	-3.3833	-3.0312	-3.0167	-3.4042	-2.9542	-3.2062	-3.3625	-2.9271	-3.3667	-3.1	-2.9271	270.182	321.293	216.662	40.773	78.838	270.566	171.483	270.165	290.917	3.258	73.927	260.216	10.769	80.384	175.856	5.304	0.00011336	0.00024654	2.8033e-05	600.41	6.8033e-06	3.0361e-06	561.93	199.51	3.4807e-06	3.8563e-06	187.42	61.706	72.281	32.712	2.7279e-06	30.988	0.002244	0.0033729	0.0010847	606.03	3.4001e-05	3.6903e-05	562.09	202.12	3.3762e-05	3.6962e-05	193.43	63.977	75.46	33.418	3.4554e-05	32.022	86.998	302.011	210.820	-22.671	103.949	94.092	-24.586	-18.160	-0.223	269.848	-21.121	-17.052	-13.915	-9.000	198.106	-13.180	-8191	255	
1514.857	1	1	0	0	0.19333	0.14291	0.4142	0.27346	0.026626	0.13611	0.12198	0.027235	0.15308	0.23243	0.15731	0.099851	0.16695	0.11936	0.17525	0.12198	-3.0125	-2.9396	-3.1333	-3.5375	-2.7521	-3.4375	-3.1229	-3.2271	-3.375	-3.0458	-3.1667	-3.2771	-2.8396	-3.3833	-3.3229	-3.0125	-28.980	307.080	0.170	316.650	101.248	182.468	-14.235	101.141	152.655	254.271	-14.913	77.430	99.514	296.762	104.903	68.315	0.0001747	0.00042425	0.00023583	594.76	5.8301e-06	4.42e-06	549.4	194.24	1.3554e-06	6.9527e-06	184.47	61.271	71.647	32.568	4.9647e-06	30.79	0.0021961	0.0033082	0.0011349	597.54	3.3564e-05	3.6817e-05	552.13	197.66	3.321e-05	3.697e-05	189.8	63.067	74.509	33.49	3.5428e-05	31.894	91.225	28.176	200.936	-22.649	165.398	132.392	-24.520	-17.792	227.911	152.881	-21.311	-17.379	-14.104	-8.772	135.941	-13.443	-8191	255	
1514.954	1	1	0	0	0.11444	0.13419	0.31539	0.032463	0.18371	0.083022	0.31608	0.15715	0.032022	0.13265	0.079561	0.025676	0.092567	0.33352	0.084429	0.077855	-3.0229	-3.0875	-3.0458	-3.6167	-2.7417	-3.1021	-3.3521	-3.1042	-3.25	-3.1437	-3.1937	-3.4813	-2.9688	-3.2417	-3.3563	-2.8521	283.288	213.073	98.240	49.239	183.542	163.988	254.118	229.749	140.021	-15.377	23.842	154.579	322.341	305.452	70.813	21.499	0.00019325	0.00047514	7.5288e-05	592.21	3.3847e-06	2.9853e-06	553.2	194.99	3.362e-06	3.3883e-06	186.02	61.417	70.772	32.681	3.4036e-06	31.067	0.0021954	0.0033084	0.0010768	597.18	3.3908e-05	3.6514e-05	555.49	198.31	3.3571e-05	3.6921e-05	191.18	63.426	73.989	33.659	3.5502e-05	32.185	79.766	54.943	273.101	-22.505	204.375	207.746	-24.979	-17.655	143.963	43.247	-20.912	-17.217	-14.043	-9.066	118.085	-13.218	-8191	255	
1515.050	1	1	0	0	0.067236	0.098696	0.14066	0.15529	0.12249	0.021709	0.17883	0.42859	0.070919	0.13368	0.20235	0.11979	0.21655	0.13018	0.21278	0.25588	-3.0021	-3.2021	-2.9521	-3.5187	-2.8771	-3.3292	-3.1667	-2.9188	-3.1896	-3.0187	-3	-3.5125	-2.8396	-3.1937	-3.4771	-2.9729	91.902	236.973	55.766	274.493	291.341	275.324	245.873	283.573	202.497	274.873	253.263	150.293	251.008	-1.680	111.037	178.182	0.00010984	0.00033792	8.353e-05	593.94	2.4064e-06	4.1626e-06	553.88	195.42	2.3124e-06	2.9893e-06	187.56	61.794	71.485	33.032	3.4183e-06	31.832	0.0022195	0.0033073	0.0011369	598.18	3.2928e-05	3.6379e-05	557.79	198.15	3.3148e-05	3.6338e-05	193.45	63.867	74.435	34.126	3.4785e-05	32.808	110.304	93.330	304.426	-22.951	233.470	114.772	-24.784	-17.792	139.714	181.546	-21.024	-17.495	-14.032	-8.769	-22.486	-13.702	-8191	255	
1515.146	1	1	0	0	0.13173	0.18881	0.14355	0.10198	0.20368	0.06912	0.157	0.17911	0.077039	0.084867	0.13732	0.19128	0.27941	0.2434	0.11723	0.092788	-3.0438	-2.9583	-3	-3.4521	-2.9792	-3.1958	-3.4062	-2.9646	-3.3937	-3.0583	-2.9771	-3.5542	-3.0104	-3.1833	-3.45	-2.7792	256.404	62.394	113.112	178.314	95.874	233.481	309.983	314.482	260.097	207.460	272.592	-28.070	228.219	-17.390	56.967	286.652	0.00019317	0.0003596	0.00014124	594.93	3.346e-06	8.5652e-06	559.57	195.95	4.7404e-06	4.0839e-06	185.93	61.507	71.656	33.038	5.5693e-06	31.399	0.002164	0.003327	0.0010538	599	3.3068e-05	3.6828e-05	561.44	198.42	3.6709e-05	3.6105e-05	191.94	63.661	74.188	34.099	3.3683e-05	32.425	130.054	42.279	189.628	-22.671	123.667	118.126	-24.949	-17.574	122.248	225.788	-20.942	-17.387	-14.011	-8.913	100.398	-13.550	-8191	255	
1515.242	1	1	0	0	0.1256	0.385	0.19438	0.1005	0.079602	0.17301	0.20542	0.23061	0.11995	0.095704	0.23171	0.23312	0.096184	0.20343	0.18623	0.11921	-2.8604	-3.3146	-2.9542	-3.3625	-3.0646	-3.0458	-3.5292	-3.0938	-3.2521	-3.2542	-2.8479	-3.55	-3.1604	-3.0083	-3.6208	-3.1208	31.510	2.801	90.237	241.642	43.344	79.706	260.324	284.580	52.467	161.096	294.957	285.332	140.217	257.280	156.195	229.856	0.000169	0.00011237	9.4738e-05	588.77	2.9267e-06	6.1296e-06	547.41	193.14	4.1166e-06	3.1041e-06	182.74	60.61	70.495	32.888	3.3049e-06	31.478	0.0021029	0.0032315	0.0010956	592.75	3.1974e-05	3.5462e-05	552.26	194.84	3.6026e-05	3.4861e-05	187.71	62.703	73.333	33.912	3.2164e-05	32.296	117.199	291.266	62.289	-22.481	152.340	74.508	-24.739	-17.844	90.035	138.153	-20.821	-16.889	-13.779	-8.669	126.869	-13.369	-8191	255	
1515.338	1	1	0	0	0.063623	0.22177	0.17437	0.14132	0.21762	0.126	0.16724	0.21907	0.2564	0.2362	0.24847	0.088248	0.21228	0.20941	0.25198	0.16751	-2.725	-3.4229	-2.7729	-3.3458	-3.1396	-2.8625	-3.4875	-3.1292	-3.1958	-3.3354	-2.9208	-2.9917	-3.2458	-2.9125	-3.4167	-2.7938	99.354	252.220	102.475	42.900	-18.154	216.003	271.232	234.243	213.970	47.091	302.802	46.105	-1.515	283.874	309.257	196.765	0.00013551	0.00033336	0.00014898	588.82	1.4654e-06	8.8698e-07	554.3	193.41	6.3806e-06	1.4026e-06	185.66	61.168	71.489	33.435	7.7843e-06	31.843	0.0020487	0.0030838	0.00096039	592.66	3.092e-05	3.4114e-05	554.14	194.9	3.8079e-05	3.3694e-05	189.2	63.092	73.742	34.164	3.0852e-05	32.64	93.208	2.570	54.012	-22.526	139.778	-17.242	-24.485	-17.847	71.349	90.865	-20.815	-17.048	-13.725	-8.729	117.290	-13.440	-8191	255	
1515.434	1	1	0	0	0.25039	0.14349	0.17762	0.21586	0.14102	0.32114	0.047046	0.15074	0.26687	0.12302	0.085108	0.07913	0.15529	0.14247	0.15381	0.033764	-2.6542	-3.425	-2.9062	-3.5438	-3.2	-2.9188	-3.325	-3.0792	-2.9208	-3.4604	-2.8542	-3.3083	-3.2313	-2.8146	-3.525	-3.0896	27.449	199.953	125.245	282.895	170.206	-16.394	20.404	287.693	304.775	312.794	269.925	77.409	21.487	249.984	137.531	119.529	0.00022579	0.00056781	0.00015898	588.96	1.032e-05	3.0998e-06	557.11	194.43	3.8956e-06	2.1465e-06	188.29	61.875	70.608	33.6	4.2311e-06	32.4	0.0019944	0.0029689	0.00085864	596.36	2.9684e-05	3.2704e-05	559.6	196.19	3.5356e-05	3.3113e-05	191.39	63.652	73.491	34.571	3.0777e-05	33.144	110.042	16.887	305.989	-22.455	147.197	113.546	-24.678	-17.801	23.487	163.381	-21.098	-17.278	-14.090	-8.978	118.068	-13.536	-8191	255	
1515.529	1	1	0	0	0.25071	0.13562	0.28227	0.23916	0.23487	0.19853	0.12223	0.063415	0.080761	0.10911	0.31513	0.36157	0.12896	0.27362	0.16413	0.14639	-2.6958	-3.475	-2.8	-3.3542	-3.2229	-2.8667	-3.5875	-3.0729	-2.9604	-3.2875	-2.6917	-3.2313	-3.2542	-2.9417	-3.3646	-3.2	240.987	-15.121	1.880	23.212	57.639	192.078	308.858	155.340	143.654	283.740	284.602	159.045	281.516	-6.053	250.635	239.833	0.00015106	0.00055832	8.286e-05	596.32	1.6864e-06	6.9737e-06	560.93	195.54	8.9507e-06	6.1281e-06	189.74	62.218	71.175	33.808	8.3353e-06	32.554	0.0019943	0.0029237	0.00081796	599.83	2.9862e-05	3.2346e-05	563.23	197.13	3.7406e-05	3.1868e-05	193.25	63.936	73.788	34.547	3.0409e-05	33.32	111.366	77.110	66.466	-22.661	-29.209	187.717	-24.729	-17.659	83.161	155.960	-21.111	-17.335	-13.690	-9.020	195.739	-13.227	-8191	255	
1515.649	1	1	0	0	0.10321	0.15916	0.18326	0.27827	0.31145	0.27009	0.072423	0.075783	0.046519	0.16184	0.28193	0.090184	0.33819	0.19248	0.087315	0.11387	-2.6562	-3.3042	-2.7208	-3.2292	-3.2	-2.8667	-3.4375	-3.0333	-2.9958	-3.3771	-2.9792	-3.1	-3.4417	-3.0208	-3.4167	-3.1604	88.175	235.578	50.991	301.279	53.017	289.583	188.212	4.850	99.807	287.084	284.374	271.565	80.960	232.236	29.447	-14.337	0.00017632	0.00015175	0.00010906	591.05	3.6081e-06	2.0752e-06	556.67	191.61	3.3445e-06	5.1501e-06	184.4	60.771	70.303	33.378	4.1378e-06	32.408	0.0019586	0.0028726	0.0007948	597.01	2.9467e-05	3.1885e-05	557.15	194.35	3.3864e-05	3.1392e-05	188.59	62.929	72.684	34.21	3.4934e-05	33.114	101.326	47.631	80.859	-22.481	114.677	70.290	-24.597	-17.989	41.751	126.400	-21.099	-17.339	-13.713	-8.597	190.093	-13.451	-8191	255	
1515.746	1	1	0	0	0.13178	0.082205	0.20415	0.29637	0.19581	0.033593	0.059403	0.13282	0.17217	0.17573	0.1526	0.041246	0.33665	0.3418	0.12562	0.10082	-2.5792	-3.3208	-2.8729	-3.25	-3.1813	-3.0625	-3.1813	-3.4208	-2.7021	-3.4292	-2.9521	-3.0708	-3.2771	-3.0479	-3.1375	-3.2896	319.150	100.911	-20.467	90.906	247.608	108.565	28.300	248.882	207.799	37.237	34.291	282.507	314.096	231.703	245.677	-0.250	0.00018539	0.00031233	5.625e-05	589.7	2.6802e-06	1.7703e-07	555.98	192.37	6.7614e-06	2.4606e-06	185.9	61.612	69.965	33.828	1.8497e-06	32.764	0.0018996	0.002746	0.00076637	594.04	2.8238e-05	3.0626e-05	557.34	194.35	3.536e-05	2.973e-05	189.68	63.276	72.668	34.496	3.387e-05	33.527	124.850	324.319	-6.267	-22.687	70.224	111.450	-24.761	-17.502	129.436	-7.134	-21.310	-16.984	-13.968	-8.735	200.751	-13.247	-8191	255	
1515.842	1	1	0	0	0.13143	0.15192	0.28075	0.05308	0.23701	0.11349	0.084913	0.098795	0.19953	0.19479	0.3603	0.11116	0.1528	0.13243	0.10409	0.044829	-2.3271	-3.4229	-2.8854	-3.1167	-3.45	-3.0312	-3.1625	-3.2854	-2.7208	-3.2979	-3.2667	-2.8312	-3.5062	-2.9208	-3.2687	-3.3875	323.699	-8.951	282.271	180.621	-3.203	294.758	283.827	301.780	186.400	229.752	208.880	230.083	1.571	51.570	-16.131	94.889	0.00016245	0.00046893	3.6114e-05	593.7	2.0083e-06	4.423e-06	561.04	194.15	2.9638e-06	5.8208e-06	186.68	61.697	70.294	34.017	7.3009e-06	32.963	0.0018398	0.002682	0.0007588	597.51	2.7625e-05	3.0549e-05	560.54	195.45	3.1797e-05	3.1013e-05	190.93	63.519	73.018	34.642	3.7207e-05	33.734	103.376	81.943	151.278	-22.880	42.435	41.559	-24.888	-17.820	88.619	135.472	-21.057	-17.079	-13.804	-9.004	211.660	-13.072	-8191	255	
1515.938	1	1	0	0	0.10035	0.18606	0.13006	0.12691	0.22122	0.26082	0.24527	0.1181	0.28937	0.098646	0.27775	0.26986	0.1707	0.097449	0.15834	0.12997	-2.4333	-3.2479	-3.175	-2.7854	-3.4375	-2.7917	-3.1104	-3.3708	-3.0187	-3.2979	-3.1729	-2.9396	-3.4896	-3.0083	-3.1	-3.3583	-16.410	305.092	-11.882	32.347	255.144	168.640	-21.012	232.942	145.233	286.807	37.559	249.290	83.758	209.615	278.699	137.502	0.00019093	0.00034673	0.00023901	593.55	7.5713e-07	5.1738e-06	564.7	193.97	4.3808e-06	1.133e-05	187.51	61.961	71.47	34.082	3.1765e-06	33.414	0.0018767	0.0027699	0.00077568	597.37	2.85e-05	3.1198e-05	564.97	196.51	2.9386e-05	3.7593e-05	192.18	63.989	73.513	34.772	3.4753e-05	34.03	109.767	124.322	82.547	-22.635	320.550	69.024	-24.631	-17.727	67.341	164.947	-20.863	-16.793	-14.074	-8.763	214.579	-13.353	-8191	255	
1516.034	1	1	0	0	0.22558	0.020774	0.10232	0.21128	0.084418	0.13547	0.14847	0.20404	0.22545	0.17238	0.13304	0.06291	0.37292	0.064404	0.12197	0.12164	-2.4229	-3.2146	-3.0583	-2.9125	-3.3104	-2.8896	-3.0875	-3.125	-2.7708	-3.3146	-3.1437	-2.8479	-3.3646	-2.9417	-3.0104	-3.3833	72.364	123.007	215.466	-5.080	-35.163	85.568	171.450	158.205	186.241	247.463	260.471	100.935	21.626	-1.826	155.980	299.188	0.00015164	0.00044762	8.992e-05	592.57	6.2316e-06	3.3661e-06	559.59	192.67	3.2762e-06	8.6434e-06	185.12	60.985	70.401	34.05	4.9538e-06	32.606	0.0018508	0.002756	0.0007757	597.63	2.7698e-05	3.0069e-05	559.43	194.45	2.7615e-05	3.5504e-05	189.06	62.893	72.586	34.589	3.6084e-05	33.441	141.842	8.772	56.297	-22.846	78.663	51.971	-24.634	-17.777	122.325	142.275	-20.881	-17.135	-13.695	-8.990	267.037	-13.315	-8191	255	
1516.130	1	1	0	0	0.021079	0.21975	0.13002	0.2241	0.17813	0.12923	0.11115	0.13146	0.040188	0.15517	0.086826	0.14791	0.030416	0.11734	0.17445	0.10818	-2.5625	-2.9938	-3.2646	-2.7104	-3.3208	-3.0708	-3.1917	-3.3417	-2.9396	-3.0938	-3.3292	-2.6625	-3.1917	-3.1688	-2.8937	-3.3333	177.112	230.123	-8.526	230.221	49.503	231.831	252.814	266.038	-25.885	175.192	232.825	5.118	289.846	259.188	-18.888	209.074	0.00018971	0.00050726	0.00017986	585.55	4.806e-06	3.551e-06	555.34	191.14	4.6542e-06	9.8155e-06	183.27	61.166	70.119	33.872	8.0272e-07	32.828	0.0017621	0.0026661	0.00073738	589.82	2.7851e-05	2.9558e-05	554.95	193.16	2.6877e-05	3.7627e-05	187.82	62.928	72.221	34.484	3.3317e-05	33.513	107.249	39.973	63.553	-22.497	94.668	85.277	-24.603	-17.722	160.414	137.776	-20.903	-16.867	-13.840	-8.825	148.760	-13.382	-8191	255	
1516.226	1	1	0	0	0.10124	0.18723	0.09433	0.13914	0.16633	0.13923	0.29007	0.15046	0.14261	0.12064	0.10799	0.24782	0.067744	0.046303	0.099802	0.16408	-2.6021	-3.1188	-3.2229	-2.9437	-3.3208	-3.2979	-2.9542	-3.6479	-2.9542	-3.0458	-3.3229	-3.0125	-3.3396	-3.4354	-2.9896	-3.5833	280.338	139.601	277.266	201.022	68.122	74.929	245.254	322.098	65.686	162.009	171.932	151.550	260.756	129.630	181.693	233.694	0.00015833	0.00034751	4.9225e-05	590.7	3.9274e-06	3.3737e-06	557.8	193.16	2.2987e-06	1.0308e-05	186.32	61.307	70.751	33.995	4.8236e-06	32.942	0.0017593	0.0026158	0.00072014	591.78	3.233e-05	2.8986e-05	559.34	194.92	2.6684e-05	3.502e-05	189.99	63.132	72.927	34.616	3.5907e-05	33.608	122.733	55.154	300.099	-22.732	150.283	119.538	-24.526	-17.518	130.003	134.841	-21.193	-16.881	-13.760	-8.459	282.372	-13.456	-8191	255	
1516.347	1	1	0	0	0.19215	0.20029	0.27537	0.28034	0.15378	0.13117	0.18848	0.17581	0.07198	0.14987	0.18565	0.16973	0.24605	0.23111	0.21888	0.13864	-2.7938	-3.0042	-3.5354	-3.1271	-3.2083	-3.4646	-2.8563	-3.3667	-3.0292	-3.0687	-3.5167	-2.9437	-3.3958	-3.3063	-3.0521	-3.2479	58.058	-9.807	13.266	-10.101	214.310	81.406	204.819	294.607	74.534	234.568	161.170	40.014	144.394	-33.073	16.422	238.505	0.00013523	7.0208e-05	0.0001748	593.9	2.9315e-06	1.5215e-06	566.23	195.3	2.4031e-06	1.5554e-05	191.45	62.329	71.714	34.071	3.3377e-06	33.101	0.0018343	0.0027314	0.00076015	595.23	3.2642e-05	3.0597e-05	564.77	197.24	2.7829e-05	3.8931e-05	194.13	64.135	73.868	34.675	3.2002e-05	33.827	93.423	-8.678	74.569	-22.680	19.974	60.883	-24.677	-17.496	62.570	145.545	-21.624	-16.901	-13.917	-8.612	282.468	-13.319	-8191	255	
1516.441	1	1	0	0	0.21607	0.03443	0.052059	0.14896	0.15533	0.11367	0.29268	0.37697	0.045084	0.19038	0.20354	0.11208	0.064774	0.3686	0.2134	0.11678	-2.55	-2.9708	-3.4271	-3.0583	-3.2042	-3.3208	-2.8521	-3.5187	-3.1417	-3.0792	-3.4146	-3.0854	-3.2271	-3.3646	-2.8833	-3.4188	240.156	166.993	-31.755	241.517	45.107	45.962	56.208	283.900	62.431	196.406	288.029	20.274	195.053	32.059	175.605	-33.936	0.0002021	0.00080467	0.000106	599.5	5.0326e-06	6.1568e-06	568.27	197	9.3252e-07	8.711e-06	190.53	61.725	71.386	33.096	1.1333e-06	32.007	0.0018391	0.0026956	0.00074338	600.56	3.5106e-05	3.01e-05	566.3	198.68	2.7946e-05	3.615e-05	193.19	63.542	73.64	33.994	2.9419e-05	33.023	85.849	13.681	59.544	-22.332	37.965	112.120	-24.550	-17.727	94.599	135.816	-21.030	-17.203	-14.074	-8.711	21.222	-13.440	-8191	255	
1516.537	1	1	0	0	0.19606	0.096174	0.21631	0.19167	0.15199	0.25431	0.12216	0.18054	0.018017	0.24222	0.078801	0.24928	0.20199	0.086761	0.078632	0.12079	-2.6646	-2.9979	-3.3375	-3.1167	-3.1271	-3.4333	-2.7354	-3.375	-3.2333	-2.8979	-3.3854	-3.1042	-2.8625	-3.4708	-2.7021	-3.2042	6.570	286.098	298.096	293.408	229.742	168.663	3.112	225.602	23.907	283.233	129.581	293.562	44.253	174.166	-35.666	303.835	0.00014387	0.00045078	7.7353e-05	590.88	9.1559e-06	3.2007e-06	557.22	197.17	4.1604e-06	6.8523e-06	188.18	60.618	70.881	32.818	5.5178e-06	31.233	0.0018647	0.0027894	0.000765	594.58	3.3884e-05	3.108e-05	557.98	198.58	2.9393e-05	3.9785e-05	191.74	62.744	73.396	33.404	3.0669e-05	32.388	130.879	-1.431	91.148	-22.859	78.618	125.519	-24.708	-17.782	116.603	166.166	-21.042	-16.875	-13.945	-8.787	120.452	-12.863	-8191	255	
1516.634	1	1	0	0	0.093343	0.20419	0.16209	0.15595	0.17399	0.11237	0.25912	0.34878	0.1685	0.13028	0.076245	0.11056	0.21734	0.15719	0.1003	0.19708	-3.0979	-2.8563	-3.3312	-2.975	-3.0854	-3.45	-2.7417	-3.3479	-3.2458	-2.9667	-3.4521	-3.1271	-3.0292	-3.4333	-3.0563	-3.1125	-18.587	93.787	182.295	-22.252	179.157	68.590	82.684	293.512	273.591	218.087	274.047	172.764	45.271	214.341	141.240	266.789	0.00015481	0.00022045	0.00010319	601.17	4.1427e-06	5.5946e-06	565.86	200.01	2.1151e-06	7.158e-06	192.05	62.144	72.523	32.941	5.4977e-06	31.848	0.0019977	0.0030313	0.00082905	602.4	3.7936e-05	3.2991e-05	564.4	201.58	3.0196e-05	3.6729e-05	196.34	64.161	74.812	33.639	3.2162e-05	32.948	115.089	321.746	32.480	-22.768	65.728	10.078	-24.616	-17.558	80.596	77.933	-21.005	-17.182	-14.062	-8.930	86.919	-13.420	-8191	255	
1516.730	1	1	0	0	0.24925	0.14641	0.11282	0.055521	0.12407	0.25794	0.32405	0.30058	0.14605	0.06984	0.011011	0.15872	0.17018	0.19321	0.11673	0.36396	-3.1604	-2.7812	-3.2188	-3.0396	-3.0708	-3.4896	-3.0208	-3.3458	-3.3	-2.9562	-3.2854	-3.3438	-2.8646	-3.4479	-2.9021	-3.2354	169.836	88.402	21.121	203.247	82.675	266.679	260.742	237.681	254.750	143.980	48.612	205.983	1.552	-29.469	285.008	180.369	0.00015138	0.00031104	8.6633e-05	605.79	5.5139e-06	1.8418e-06	570.78	203.67	6.4409e-06	6.3861e-06	195.94	62.952	72.891	33.188	1.6186e-06	32.108	0.0020236	0.0030446	0.00084545	608.66	3.6232e-05	3.4029e-05	572.27	204.75	3.0942e-05	3.4101e-05	202.33	65.204	75.558	33.842	3.2662e-05	33.235	113.687	39.097	-0.506	-22.727	65.719	199.094	-24.560	-17.562	123.858	101.891	-21.218	-17.318	-14.190	-9.004	92.865	-13.279	-8191	255	
1516.826	1	1	0	0	0.1967	0.060299	0.080052	0.10879	0.1847	0.27391	0.20053	0.20013	0.1917	0.090735	0.19629	0.04474	0.13199	0.13204	0.17717	0.46563	-3.0417	-2.6667	-3.3292	-3.1854	-2.7188	-3.6042	-3.1417	-3.1396	-3.375	-2.8229	-3.3292	-3.2562	-2.7708	-3.5167	-2.9896	-2.9771	136.269	203.559	215.446	157.454	86.533	298.014	173.737	-11.324	228.696	320.622	102.001	191.872	125.283	101.771	312.505	-26.879	0.00018098	0.00011603	8.4267e-05	610.23	3.1029e-06	3.7681e-06	575.12	204.71	4.3845e-06	3.2988e-06	197.23	63.648	72.948	33.074	2.4582e-06	31.778	0.0020148	0.0030404	0.00086023	614.82	3.8882e-05	3.3447e-05	578.28	206.45	3.0594e-05	3.3947e-05	203.24	65.66	75.688	33.751	3.2612e-05	33.091	108.359	-5.937	0.250	-22.779	29.855	79.927	-24.899	-17.844	74.011	137.115	-20.996	-17.583	-13.879	-8.730	43.303	-13.275	-8191	255	
1516.945	1	1	0	0	0.055153	0.1079	0.12099	0.19595	0.1145	0.092524	0.34369	0.17499	0.14019	0.16905	0.1035	0.053392	0.30062	0.15226	0.11069	0.13883	-2.9	-2.7958	-3.0625	-3.3354	-2.8458	-3.4625	-3.0167	-3.0104	-3.2083	-2.9333	-3.2562	-3.2292	-2.7208	-3.3021	-3.0792	-3.025	151.752	286.189	309.405	262.197	19.813	87.163	245.524	185.285	250.889	146.380	277.249	307.429	-2.617	177.395	96.184	194.666	0.00015386	0.00017263	9.1945e-05	608.54	7.6439e-06	1.9872e-06	568.36	201.8	3.905e-06	4.7169e-06	193.19	62.47	71.987	32.671	3.7365e-06	31.474	0.0020711	0.0031075	0.00086075	610.14	3.4254e-05	3.5945e-05	570.54	204.07	3.1516e-05	3.463e-05	200.4	64.559	75.219	33.489	3.3054e-05	32.687	113.931	8.536	191.269	-22.821	74.543	185.775	-24.415	-17.719	147.478	208.938	-20.919	-17.499	-14.426	-8.920	118.200	-13.713	-8191	255	
1517.041	1	1	0	0	0.13354	0.077529	0.1505	0.10448	0.33766	0.010273	0.113	0.22181	0.22673	0.25692	0.20498	0.12065	0.086237	0.12519	0.16562	0.30275	-3.1312	-2.9167	-3.2792	-3.225	-2.6917	-3.4313	-3.0854	-2.975	-3.4813	-2.9771	-3.2375	-3.4271	-3.0375	-3.2188	-3.2979	-2.8125	130.825	152.719	-2.153	55.932	22.674	96.073	200.147	275.673	42.186	142.134	286.931	304.659	152.013	164.569	36.718	243.321	0.00013685	0.00032462	0.00021188	604.46	6.5973e-06	2.0975e-06	569.54	201.66	2.5292e-06	5.1488e-06	195.42	63.067	72.364	33.004	6.3487e-06	31.954	0.0021058	0.0031432	0.00086986	607.83	3.1331e-05	4.2179e-05	569.47	204.56	3.0926e-05	3.4144e-05	201.05	64.929	75.327	33.751	3.1957e-05	33.175	96.993	33.018	10.608	-22.712	117.216	160.561	-24.609	-17.741	26.927	91.371	-21.237	-17.875	-14.137	-9.221	157.028	-13.626	-8191	255	
1517.113	1	1	0	0	0.20447	0.094628	0.20099	0.23728	0.057231	0.23644	0.14426	0.35187	0.014804	0.23823	0.16663	0.021785	0.26631	0.12121	0.10966	0.15407	-2.9271	-2.7	-3.0292	-3.4583	-2.9042	-3.3	-3.3729	-2.7917	-3.4	-3.0271	-3.0687	-3.3646	-2.9958	-3.3833	-3.1833	-2.7458	137.335	7.725	53.100	224.479	20.514	-33.316	2.322	-28.492	120.247	210.352	122.381	72.127	3.452	-30.308	192.419	308.439	0.00014483	0.00064839	0.000213	607.52	3.7298e-06	8.8628e-06	570.5	202.81	3.703e-07	3.8379e-06	197.24	63.138	72.883	32.98	7.738e-06	31.933	0.0020588	0.0031459	0.00087943	609.86	3.2431e-05	4.1718e-05	572.37	205.49	3.2599e-05	3.6765e-05	203.27	65.359	75.853	33.836	3.4028e-05	33.048	108.073	91.940	53.780	-22.727	162.630	141.968	-24.767	-17.684	110.764	54.476	-21.408	-17.665	-13.894	-9.073	77.149	-13.400	-8191	255	
1517.209	1	1	0	0	0.15683	0.080535	0.21542	0.065635	0.10525	0.22905	0.17026	0.14935	0.19947	0.2066	0.32352	0.25293	0.06166	0.12397	0.18988	0.16221	-2.9875	-3.0604	-2.9167	-3.4604	-2.7604	-3.1458	-3.1521	-2.9813	-3.3042	-3.2792	-2.7646	-3.55	-2.9708	-3.2833	-3.2562	-2.7417	305.985	137.276	191.603	215.908	247.965	319.082	139.930	269.739	310.052	-5.165	284.339	141.084	282.610	319.536	156.913	71.505	0.00021861	0.00081578	0.00026428	612.2	4.4983e-06	9.1083e-06	574.39	203.93	3.5328e-06	3.7785e-06	197.09	62.929	72.614	32.881	4.256e-06	31.839	0.0022742	0.0033166	0.00090485	613.66	3.3242e-05	4.5452e-05	575.24	206.47	3.4324e-05	3.7867e-05	204.25	65.61	76.23	33.774	3.6726e-05	32.83	134.988	34.897	32.039	-22.669	90.881	85.642	-24.620	-17.849	241.795	81.755	-21.327	-17.338	-14.106	-9.036	122.625	-13.412	-8191	255	
1517.329	1	1	0	0	0.247	0.29182	0.11719	0.1919	0.15232	0.10232	0.31241	0.17272	0.17577	0.12952	0.21511	0.081956	0.18826	0.16199	0.17261	0.16566	-2.925	-3.0938	-2.8688	-3.3458	-2.8438	-3.15	-3.3542	-2.8167	-3.3271	-3.2146	-2.9875	-3.4437	-3.0312	-3.1354	-3.4521	-2.9125	28.660	56.176	-0.749	-24.099	104.328	-22.174	213.940	200.496	316.011	92.961	34.118	118.899	318.677	-5.355	68.823	131.426	0.0002271	4.2223e-05	0.00030951	608.03	5.1995e-06	1.4035e-05	567.84	202.03	1.6553e-06	5.1404e-06	194.26	62.395	72.413	32.683	3.7952e-06	31.323	0.0027849	0.0034428	0.00096719	611.44	3.4774e-05	4.4067e-05	568.44	204.82	3.4691e-05	3.7826e-05	201.1	64.735	75.515	33.539	3.5392e-05	32.323	126.721	-22.471	51.167	-22.642	49.311	103.838	-24.922	-17.683	10.678	133.890	-20.968	-17.730	-13.795	-8.861	94.972	-13.604	-8191	255	
1517.426	1	1	0	0	0.052745	0.23944	0.12856	0.051967	0.29955	0.21696	0.17077	0.12705	0.31512	0.25857	0.094214	0.15682	0.15672	0.21032	0.32322	0.22403	-2.7625	-3.0417	-2.8771	-3.4771	-2.9417	-3.0833	-3.5312	-2.9167	-3.2188	-3.1771	-2.9833	-3.3333	-3.1688	-3.0271	-3.3063	-3.05	223.757	178.746	231.763	317.840	292.652	139.545	253.158	282.578	322.919	190.549	294.459	314.463	73.949	-24.360	189.353	178.007	0.00012523	0.00024061	5.9208e-05	606	1.9019e-06	1.2075e-05	561.53	202.03	1.0338e-06	5.9744e-06	194.11	62.44	72.461	32.682	4.2075e-06	31.578	0.0025916	0.003381	0.00094162	607.94	3.4566e-05	4.6464e-05	566.84	204.32	3.4428e-05	3.8017e-05	200.02	64.991	75.626	33.491	3.65e-05	32.479	147.577	112.204	18.015	-22.699	119.369	89.284	-24.511	-17.827	211.326	181.486	-21.361	-17.646	-14.278	-8.828	86.491	-13.477	-8191	255	
1517.522	1	1	0	0	0.1826	0.027786	0.19494	0.046419	0.17395	0.20311	0.25087	0.16095	0.26061	0.28045	0.10707	0.097702	0.19368	0.01608	0.04808	0.25446	-2.8604	-3.225	-2.7604	-3.4167	-3.0417	-3.1042	-3.5563	-2.8104	-3.1188	-3.2	-2.7	-3.3292	-3.0229	-2.9458	-3.5646	-3.0229	296.541	314.603	14.797	37.242	268.397	221.845	194.025	317.192	311.481	113.354	96.692	293.019	305.929	119.212	-27.021	234.947	3.5169e-05	0.00033859	3.4911e-05	606.89	3.5931e-06	9.3934e-06	564.77	203.4	3.3334e-06	3.0342e-06	193.76	63.098	72.125	32.576	6.0557e-06	31.503	0.0028396	0.0034289	0.0009624	609.27	3.5116e-05	4.4624e-05	569.57	205.47	3.5723e-05	3.8821e-05	200.71	66.132	75.922	33.437	3.7859e-05	32.579	2.999	82.754	118.098	-22.753	62.518	119.356	-24.566	-17.760	108.865	229.451	-21.073	-17.244	-14.188	-8.824	70.236	-13.352	-8191	255	
1517.618	1	1	0	0	0.26128	0.19962	0.27698	0.15221	0.089354	0.17234	0.35164	0.37595	0.035443	0.073384	0.057625	0.11193	0.074768	0.010669	0.16609	0.19721	-2.6521	-3.0854	-2.7583	-3.2958	-3.1479	-2.8271	-3.3646	-2.9896	-3.0458	-3.3521	-2.8937	-3.2729	-3.3396	-2.9292	-3.4521	-2.9708	129.372	286.205	164.582	295.824	297.092	114.176	310.046	320.942	24.130	265.105	103.300	-4.919	221.169	180.850	274.018	146.507	0.00014437	0.00095738	0.00022273	606.91	4.915e-06	1.196e-05	565.94	203.39	4.1774e-06	6.906e-06	196.16	63.5	72.762	32.625	3.7645e-06	31.764	0.0027265	0.0036076	0.00099626	611.91	3.7058e-05	4.8815e-05	570.68	206.18	3.7183e-05	4.054e-05	201.99	66.416	76.463	33.611	3.8376e-05	32.802	165.305	43.210	1.905	-22.421	86.632	66.182	-24.881	-17.821	179.531	111.941	-21.476	-17.979	-14.320	-8.920	105.315	-13.519	-8191	255	
1517.737	1	1	0	0	0.053513	0.1476	0.13917	0.020282	0.10786	0.24555	0.18169	0.17513	0.15479	0.15484	0.13964	0.097626	0.285	0.25951	0.047536	0.18612	-2.7687	-3.2771	-3.0396	-3.1771	-3.1521	-2.8521	-3.3229	-3.2167	-3.0271	-3.4771	-2.8312	-3.2208	-3.1646	-2.85	-3.3312	-3.0771	288.144	114.469	-2.844	216.696	307.070	117.913	192.364	200.380	85.821	239.802	190.756	152.760	-8.418	255.445	11.757	-16.793	5.1513e-05	0.00057883	0.00011546	604.36	2.3323e-06	7.4536e-06	566.33	203.12	2.2944e-06	5.3214e-06	195.55	63.625	73.492	32.596	2.8316e-06	31.604	0.0028535	0.0035677	0.00098324	610.45	3.4843e-05	4.0808e-05	571.74	205.54	3.41e-05	3.7164e-05	201.03	66.183	76.173	33.383	3.5523e-05	32.447	123.963	53.341	61.414	-22.853	295.487	67.632	-24.404	-17.567	249.597	178.107	-21.443	-17.496	-13.964	-8.960	171.687	-13.262	-8191	255	
1517.810	1	1	0	0	0.066071	0.047232	0.1628	0.094784	0.08965	0.14434	0.066646	0.28221	0.23294	0.11246	0.062027	0.21549	0.18326	0.18224	0.084449	0.17818	-2.5083	-3.3937	-2.8	-3.2646	-3.2583	-2.8958	-3.2896	-3.0438	-2.9792	-3.5083	-2.9583	-2.9625	-3.4083	-2.9792	-3.2792	-3.1667	192.469	137.602	60.954	193.176	125.923	73.897	84.110	213.221	273.702	146.038	198.884	88.921	9.466	210.551	62.162	19.283	6.4252e-05	0.00019677	8.8317e-05	604.32	3.5972e-06	7.3996e-06	562.11	202.26	1.8382e-07	3.8175e-06	194.05	62.725	73.047	32.517	3.8706e-06	31.217	0.0025598	0.0032846	0.00093858	607.32	3.3567e-05	3.648e-05	569.4	204.7	3.3206e-05	3.7012e-05	199.16	65.242	75.756	33.324	3.6133e-05	32.198	132.170	209.337	137.414	-22.394	137.739	104.657	-24.891	-17.760	253.909	112.666	-21.198	-16.939	-14.369	-8.851	130.288	-13.685	-8191	255	
1517.929	1	1	0	0	0.12945	0.070449	0.22515	0.099204	0.13214	0.1607	0.083483	0.1156	0.17119	0.28031	0.099087	0.15227	0.1622	0.093215	0.16959	0.16868	-2.3667	-3.2792	-2.9813	-3.1104	-3.3604	-2.8375	-3.2938	-3.0979	-2.9792	-3.4396	-3.1042	-3.0958	-3.4271	-2.9542	-3.0979	-3.3104	139.104	88.897	243.081	14.748	68.140	214.174	61.914	290.023	114.518	111.095	312.651	40.734	-2.935	151.913	256.300	193.828	4.1605e-05	0.00039436	0.00020006	604.18	4.2486e-06	2.1301e-06	563.88	202.04	5.2818e-06	6.084e-06	195.83	62.922	73.011	32.581	3.9765e-06	31.53	0.0027854	0.0034742	0.00096509	609.1	3.5251e-05	3.8875e-05	569.49	205.03	3.5124e-05	3.9141e-05	200.38	65.912	75.955	33.363	3.6571e-05	32.434	144.933	100.924	84.361	-23.044	122.747	319.592	-24.705	-18.031	79.323	62.312	-21.146	-17.508	-14.127	-8.842	21.564	-13.379	-8191	255	
1518.025	1	1	0	0	0.054909	0.0077055	0.1318	0.17571	0.2213	0.22583	0.24718	0.074249	0.052507	0.1485	0.35832	0.15521	0.11261	0.094194	0.078488	0.015536	-2.4167	-3.2208	-2.9354	-3	-3.3792	-3.0187	-3.4562	-3.1167	-2.8396	-3.3563	-3.1583	-2.8458	-3.2687	-3.0458	-3.1167	-3.2458	125.242	79.525	66.437	295.210	287.590	144.716	273.825	225.561	322.789	260.923	244.113	-23.074	141.270	210.819	135.642	304.080	0.00010425	0.00022058	9.8194e-05	607.52	2.3286e-06	4.1748e-06	567.61	203.93	2.4854e-06	5.8383e-06	196.43	63.399	72.806	32.654	5.1977e-06	31.411	0.0024009	0.0036869	0.00095759	611.72	3.447e-05	3.8016e-05	576.48	206.11	3.4572e-05	3.8346e-05	202.24	66.264	76.152	33.453	3.6179e-05	32.523	111.437	178.068	69.898	-22.687	101.824	136.290	-24.527	-17.868	96.937	113.112	-21.371	-17.290	-14.116	-9.153	63.062	-13.185	-8191	255	
1518.121	1	1	0	0	0.18039	0.19179	0.16003	0.28031	0.078395	0.1009	0.071174	0.13337	0.091996	0.13191	0.25808	0.36668	0.11483	0.1837	0.038543	0.064257	-2.5167	-3.2625	-3.1	-3.0833	-3.4437	-2.8417	-3.1521	-3.3458	-2.8104	-3.1625	-3.0729	-2.9062	-3.4688	-3.0958	-3.1854	-3.2917	60.060	228.406	207.445	-8.769	59.472	288.350	-35.685	169.551	309.777	-31.633	291.212	250.397	38.546	-7.748	173.527	57.794	0.00014882	0.00091169	0.00030551	610.06	3.7864e-06	6.8194e-06	573.06	203.8	7.9894e-07	4.7321e-06	194.09	63.402	72.956	32.182	1.6652e-06	31.397	0.0023157	0.004199	0.00093885	614.03	3.4243e-05	3.7709e-05	577.58	206	3.398e-05	3.6769e-05	200.68	66.056	76.034	33.145	3.5482e-05	32.185	117.013	16.223	47.781	-22.747	79.732	38.811	-24.574	-17.902	0.633	120.648	-20.919	-17.280	-14.362	-8.804	281.321	-13.080	-8191	255	
1518.217	1	1	0	0	0.067343	0.12403	0.19861	0.21243	0.14609	0.14434	0.18932	0.27413	0.082735	0.14732	0.10748	0.22998	0.36405	0.14767	0.19504	0.23585	-2.4479	-3.2083	-3.15	-3.0021	-3.4771	-2.9813	-3.1604	-3.3812	-2.8729	-3.4188	-3.0146	-2.6437	-3.3146	-2.9625	-3.1625	-3.3833	71.356	-12.954	-26.573	273.020	240.669	278.565	270.089	293.076	55.194	277.824	-9.542	290.064	286.685	25.747	213.104	251.992	9.5391e-05	0.0011361	8.4877e-05	602.34	6.6494e-06	3.4758e-06	559.05	201.32	3.8024e-06	2.5566e-06	190.58	62.066	72.297	31.773	5.0637e-06	30.406	0.0022757	0.0038836	0.00094883	608.24	3.4869e-05	3.8183e-05	567.31	203.66	3.6167e-05	3.9478e-05	196.53	64.573	75.533	32.685	3.8061e-05	31.532	106.979	14.879	64.282	-22.518	166.523	103.224	-24.746	-17.889	42.014	110.369	-21.270	-17.172	-13.982	-9.110	56.054	-13.205	-8191	255	
1518.338	1	1	0	0	0.22927	0.020037	0.18285	0.18181	0.06315	0.17336	0.15317	0.071832	0.062834	0.092986	0.044805	0.16944	0.069392	0.2263	0.16242	0.081201	-2.4	-3.0271	-3.1208	-2.7771	-3.2687	-3.1125	-3.0271	-3.3	-2.9792	-3.1021	-3.2438	-2.8563	-3.2854	-3.1479	-2.8958	-3.4062	265.043	263.292	-19.754	202.676	258.288	-13.087	4.437	251.566	143.259	92.523	178.083	226.519	273.352	242.437	78.677	23.995	0.00015121	0.0012796	0.00012801	603.49	4.8925e-06	3.6955e-06	559.75	200.59	2.7289e-06	1.8877e-06	192.1	62.263	72.37	32.049	2.3403e-06	30.567	0.0024344	0.0043723	0.0010147	606.95	3.6823e-05	4.0239e-05	565.05	203.35	3.601e-05	4.0305e-05	198.55	64.622	76.376	32.844	3.7814e-05	31.632	120.865	14.864	15.637	-22.641	118.128	274.050	-24.331	-17.982	125.184	189.891	-21.458	-17.729	-14.258	-8.939	278.795	-13.271	-8191	255	
1518.410	1	1	0	0	0.11602	0.078102	0.065019	0.24641	0.22746	0.1353	0.21979	0.091876	0.097862	0.13964	0.29541	0.012765	0.10129	0.22236	0.1089	0.087974	-2.5875	-3.2333	-3.3063	-2.7125	-3.1063	-3.2917	-2.9125	-3.4417	-2.9771	-3.0146	-3.5021	-2.9958	-3.4437	-3.2812	-2.9938	-3.4292	323.085	104.247	260.165	-17.152	-27.753	-21.510	24.745	130.374	214.495	47.893	232.709	-6.699	3.342	255.397	116.209	207.815	0.00015759	0.00043768	5.8513e-05	604.83	2.4927e-06	3.3142e-06	561.4	202.11	3.1067e-06	2.1841e-06	194.87	62.43	73.267	31.976	2.3738e-06	30.827	0.0024055	0.0041347	0.0010013	609.22	3.6126e-05	3.9475e-05	570.32	204.99	3.6218e-05	3.9696e-05	200.82	65.361	76.744	32.918	3.8143e-05	32.022	129.239	74.841	51.305	-23.024	190.185	56.895	-24.435	-18.000	78.544	113.483	-20.987	-17.593	-14.558	-9.048	256.042	-13.421	-8191	255	
1518.506	1	1	0	0	0.0082252	0.20505	0.24587	0.08112	0.047102	0.14636	0.10864	0.19576	0.055289	0.24656	0.20763	0.21214	0.17162	0.13479	0.10871	0.16884	-2.5208	-3.2167	-3.1792	-3.0062	-3.1167	-3.1937	-2.7979	-3.525	-3.2229	-3.0792	-3.4833	-2.9188	-3.1521	-3.2979	-2.8688	-3.4708	-24.883	219.514	226.070	292.116	-23.422	272.597	311.676	323.858	165.661	123.464	206.792	226.174	279.208	18.897	300.317	278.659	0.00010488	0.00020605	0.00010857	607.14	9.9758e-06	3.2799e-06	569.3	202.26	4.0599e-06	1.7482e-06	193.08	62.244	72.27	31.607	2.5291e-06	30.403	0.00242	0.0044133	0.0010253	611.87	3.7342e-05	4.0758e-05	572.99	206.05	3.7393e-05	4.1309e-05	199.9	65.03	76.678	32.728	3.9623e-05	31.582	101.015	46.323	251.046	-22.667	80.168	113.346	-24.684	-17.881	108.845	67.289	-21.282	-17.751	-14.058	-9.140	87.432	-13.109	-8191	255	
1518.627	1	1	0	0	0.12094	0.24768	0.1439	0.21282	0.21823	0.20685	0.099885	0.17163	0.23909	0.098413	0.04484	0.24538	0.24518	0.089305	0.14306	0.060838	-2.6479	-2.7562	-3.3833	-2.7375	-3.1083	-3.35	-2.8229	-3.5375	-2.9646	-2.8833	-3.4458	-2.9938	-3.2687	-3.3375	-2.9042	-3.1771	53.757	298.994	40.775	225.301	310.623	254.581	-24.190	265.376	-12.888	71.611	247.099	323.259	203.280	52.546	170.959	178.023	0.00012856	0.0014745	0.00024464	600.51	1.2904e-06	2.6218e-06	555.64	199.98	4.9035e-06	1.2559e-06	188.6	61.24	71.553	31.392	9.8292e-07	30.165	0.0024478	0.0041739	0.001035	605.89	3.6751e-05	4.0481e-05	559.77	203.85	3.5902e-05	3.9811e-05	195.21	63.733	75.493	32.367	3.6658e-05	31.256	95.304	58.116	40.978	-22.512	242.476	79.366	-24.464	-17.682	85.196	98.814	-21.146	-17.155	-14.252	-8.895	2.265	-13.003	-8191	255	
#DATA ENDS
