BOXY.EXE: ISS Imagent and Oximeter Data Acquisition Program Version 0.80
Ascii Record File

#ACQ INFORMATION
2  Detector Channels 
16  External MUX Channels 
1  Auxiliary Channels 
5000  Waveform (CCF) Frequency (Hz)
1  Waveforms Skipped 
30  Waveforms Averaged 
1  Cycles Averaged 
16  Acquisitions per Waveform 
10.0806  Updata Rate (Hz) 

#FILE INFORMATION
TRUE -- External MUX Channel results are PARSED.
FALSE -- AC DC and Phase are NOT grouped.
TRUE -- Companion Program Settings File CREATED.
FALSE -- AC data not excluded
FALSE -- DC data not excluded
FALSE -- Phase data not excluded
FALSE -- Auxillary Chn. data not excluded
Tab delimiters

#CALIBRATION STATE
TRUE -- Waveform Calibration Values APPLIED.


#AUX CALIBRATION VALUES
Val Type	aux-1	

Term	1.0000e+00	
Factor	0.0000e+00	


#WF CALIBRATION VALUES
A = Detector Channel
Val Type	A-AC1	A-AC2	A-AC3	A-AC4	A-AC5	A-AC6	A-AC7	A-AC8	A-AC9	A-AC10	A-AC11	A-AC12	A-AC13	A-AC14	A-AC15	A-AC16	A-DC1	A-DC2	A-DC3	A-DC4	A-DC5	A-DC6	A-DC7	A-DC8	A-DC9	A-DC10	A-DC11	A-DC12	A-DC13	A-DC14	A-DC15	A-DC16	A-Ph1	A-Ph2	A-Ph3	A-Ph4	A-Ph5	A-Ph6	A-Ph7	A-Ph8	A-Ph9	A-Ph10	A-Ph11	A-Ph12	A-Ph13	A-Ph14	A-Ph15	A-Ph16	

Term	0.00000e+00	0.00000e+00	0.00000e+00	0.00000e+00	0.00000e+00	0.00000e+00	0.00000e+00	0.00000e+00	0.00000e+00	0.00000e+00	0.00000e+00	0.00000e+00	0.00000e+00	0.00000e+00	0.00000e+00	0.00000e+00	0.00000e+00	0.00000e+00	0.00000e+00	0.00000e+00	0.00000e+00	0.00000e+00	0.00000e+00	0.00000e+00	0.00000e+00	0.00000e+00	0.00000e+00	0.00000e+00	0.00000e+00	0.00000e+00	0.00000e+00	0.00000e+00	0.00000e+00	0.00000e+00	0.00000e+00	0.00000e+00	0.00000e+00	0.00000e+00	0.00000e+00	0.00000e+00	0.00000e+00	0.00000e+00	0.00000e+00	0.00000e+00	0.00000e+00	0.00000e+00	0.00000e+00	0.00000e+00	
Factor	1.00000e+00	1.00000e+00	1.00000e+00	1.00000e+00	1.00000e+00	1.00000e+00	1.00000e+00	1.00000e+00	1.00000e+00	1.00000e+00	1.00000e+00	1.00000e+00	1.00000e+00	1.00000e+00	1.00000e+00	1.00000e+00	1.00000e+00	1.00000e+00	1.00000e+00	1.00000e+00	1.00000e+00	1.00000e+00	1.00000e+00	1.00000e+00	1.00000e+00	1.00000e+00	1.00000e+00	1.00000e+00	1.00000e+00	1.00000e+00	1.00000e+00	1.00000e+00	X	X	X	X	X	X	X	X	X	X	X	X	X	X	X	X	

B = Detector Channel
Val Type	B-AC1	B-AC2	B-AC3	B-AC4	B-AC5	B-AC6	B-AC7	B-AC8	B-AC9	B-AC10	B-AC11	B-AC12	B-AC13	B-AC14	B-AC15	B-AC16	B-DC1	B-DC2	B-DC3	B-DC4	B-DC5	B-DC6	B-DC7	B-DC8	B-DC9	B-DC10	B-DC11	B-DC12	B-DC13	B-DC14	B-DC15	B-DC16	B-Ph1	B-Ph2	B-Ph3	B-Ph4	B-Ph5	B-Ph6	B-Ph7	B-Ph8	B-Ph9	B-Ph10	B-Ph11	B-Ph12	B-Ph13	B-Ph14	B-Ph15	B-Ph16	

Term	0.00000e+00	0.00000e+00	0.00000e+00	0.00000e+00	0.00000e+00	0.00000e+00	0.00000e+00	0.00000e+00	0.00000e+00	0.00000e+00	0.00000e+00	0.00000e+00	0.00000e+00	0.00000e+00	0.00000e+00	0.00000e+00	0.00000e+00	0.00000e+00	0.00000e+00	0.00000e+00	0.00000e+00	0.00000e+00	0.00000e+00	0.00000e+00	0.00000e+00	0.00000e+00	0.00000e+00	0.00000e+00	0.00000e+00	0.00000e+00	0.00000e+00	0.00000e+00	-5.38884e+01	-1.31177e+02	-1.26498e+02	-1.80885e+02	-4.76343e+01	-6.44995e+01	-1.57193e+02	-1.62015e+02	-3.86883e+01	-6.83090e+01	-1.71742e+02	-1.71381e+02	-1.82817e+02	-1.77069e+02	-5.51087e+01	-1.50010e+02	
Factor	1.82829e-05	1.46436e-04	4.33054e-05	1.59593e-01	1.61267e-06	1.61574e-06	1.65127e-01	4.62107e-02	1.25789e-06	1.65311e-06	7.56542e-02	2.89867e-02	3.37919e-02	8.42540e-03	1.55012e-06	1.18626e-02	1.36964e-05	2.76091e-05	7.65437e-06	8.35740e-02	2.69207e-07	3.11056e-07	8.12785e-02	2.43328e-02	2.59798e-07	3.12300e-07	3.86475e-02	1.48661e-02	1.78292e-02	4.47273e-03	2.79863e-07	6.10705e-03	X	X	X	X	X	X	X	X	X	X	X	X	X	X	X	X	



#DISTANCE SETTINGS
A = Detector Channel
A-1	A-2	A-3	A-4	A-5	A-6	A-7	A-8	A-9	A-10	A-11	A-12	A-13	A-14	A-15	A-16	

2.5000e+00	3.0000e+00	2.5000e+00	3.0000e+00	2.0000e+00	3.0000e+00	1.5000e+00	3.0000e+00	3.0000e+00	3.0000e+00	3.0000e+00	3.0000e+00	3.0000e+00	3.0000e+00	1.5000e+00	3.0000e+00	

B = Detector Channel
B-1	B-2	B-3	B-4	B-5	B-6	B-7	B-8	B-9	B-10	B-11	B-12	B-13	B-14	B-15	B-16	

1.0000e+01	1.0000e+01	1.0000e+01	1.4400e+00	1.0000e+01	1.0000e+01	1.5100e+00	1.9400e+00	1.0000e+01	1.0000e+01	1.9900e+00	2.4900e+00	2.4100e+00	2.9000e+00	1.0000e+01	2.9800e+00	




#DATA BEGINS
time	group	step	mark	flag	A-AC1	A-AC2	A-AC3	A-AC4	A-AC5	A-AC6	A-AC7	A-AC8	A-AC9	A-AC10	A-AC11	A-AC12	A-AC13	A-AC14	A-AC15	A-AC16	A-DC1	A-DC2	A-DC3	A-DC4	A-DC5	A-DC6	A-DC7	A-DC8	A-DC9	A-DC10	A-DC11	A-DC12	A-DC13	A-DC14	A-DC15	A-DC16	A-Ph1	A-Ph2	A-Ph3	A-Ph4	A-Ph5	A-Ph6	A-Ph7	A-Ph8	A-Ph9	A-Ph10	A-Ph11	A-Ph12	A-Ph13	A-Ph14	A-Ph15	A-Ph16	B-AC1	B-AC2	B-AC3	B-AC4	B-AC5	B-AC6	B-AC7	B-AC8	B-AC9	B-AC10	B-AC11	B-AC12	B-AC13	B-AC14	B-AC15	B-AC16	B-DC1	B-DC2	B-DC3	B-DC4	B-DC5	B-DC6	B-DC7	B-DC8	B-DC9	B-DC10	B-DC11	B-DC12	B-DC13	B-DC14	B-DC15	B-DC16	B-Ph1	B-Ph2	B-Ph3	B-Ph4	B-Ph5	B-Ph6	B-Ph7	B-Ph8	B-Ph9	B-Ph10	B-Ph11	B-Ph12	B-Ph13	B-Ph14	B-Ph15	B-Ph16	aux-1	digaux	

29479.146	1	1	0	768	0.12718	0.15646	0.19297	0.022243	0.18248	0.18168	0.17199	0.16135	0.12074	0.19968	0.1457	0.13479	0.12825	0.26897	0.11365	0.18931	-2.2313	-2.6896	-2.8896	-2.5854	-2.8646	-2.8854	-2.6792	-2.9375	-2.7167	-2.6208	-2.9333	-2.7708	-2.6708	-2.7854	-2.6854	-2.8854	133.164	-17.235	-59.129	-136.187	-139.147	-110.821	-28.065	-132.002	165.636	75.052	99.565	152.932	93.400	108.279	-100.200	156.591	0.00014475	3.9913e-05	7.6766e-05	245.1	2.4087e-06	2.2974e-06	440.83	49.946	1.2948e-06	7.0601e-07	127.65	40.962	12.871	5.36	2.8856e-06	21.112	0.00053171	0.00084875	0.0002339	247.64	8.4396e-06	9.3693e-06	445.49	51.176	7.8085e-06	9.2005e-06	130.65	42.488	13.747	5.6608	8.3242e-06	21.802	-84.322	-67.120	-42.318	-129.275	7.505	-46.376	-129.335	-124.761	11.666	-28.323	-125.039	-118.392	-119.743	-112.854	17.505	-114.629	-8191	255	
29479.242	1	1	0	0	0.081534	0.16118	0.041787	0.12402	0.17768	0.078882	0.35014	0.2438	0.22283	0.19475	0.10697	0.16352	0.073358	0.16645	0.15961	0.11628	-2.2188	-2.5729	-2.7562	-2.5938	-2.5854	-2.8667	-2.6479	-2.6312	-2.6104	-2.4	-2.9896	-2.6625	-2.5604	-2.9292	-2.6937	-2.9938	-72.983	-36.851	-114.824	-74.886	-89.061	51.955	-0.966	113.593	-136.525	-59.880	97.242	193.652	54.271	-134.748	163.224	-44.604	0.00015939	0.00010659	1.7361e-05	241.8	2.7413e-06	1.142e-06	442.04	49.917	1.7077e-06	1.4755e-06	127.76	40.923	12.838	5.3403	1.1359e-06	20.802	0.00051136	0.00081343	0.0002184	246.44	7.6769e-06	8.5942e-06	446.13	51.231	7.4784e-06	9.1101e-06	130.36	42.365	13.668	5.5507	7.8793e-06	21.619	-80.242	51.013	60.014	-129.181	-3.706	-53.584	-129.031	-124.616	26.156	66.334	-124.757	-118.788	-119.415	-112.579	78.299	-114.483	-8191	255	
29479.340	1	1	0	0	0.073494	0.038358	0.15936	0.089081	0.095734	0.22494	0.2275	0.1073	0.17517	0.10662	0.12711	0.33036	0.18914	0.11849	0.15114	0.21932	-2.225	-2.4583	-2.8917	-2.6354	-2.5833	-3.0333	-2.7125	-2.6688	-2.8438	-2.7479	-2.9896	-2.8104	-2.6854	-2.8375	-2.6396	-3.0021	-100.236	10.353	126.269	207.875	199.022	67.776	141.075	181.729	-92.428	180.599	-64.218	-11.809	10.745	96.704	-119.495	187.220	0.00014172	0.00017774	3.1527e-05	246.63	1.8972e-06	6.109e-07	441.87	50.354	1.9929e-06	5.0779e-07	127.7	41.016	12.831	5.4013	1.1157e-06	20.969	0.00050001	0.00080849	0.00021912	249.15	7.7604e-06	8.8534e-06	447.3	51.423	7.4091e-06	8.6839e-06	130.3	42.312	13.733	5.6276	7.7825e-06	21.638	-84.183	-6.756	174.943	-129.349	29.157	-39.623	-129.075	-124.881	-49.077	28.457	-124.751	-118.436	-119.780	-113.093	54.790	-114.416	-8191	255	
29479.436	1	1	0	0	0.15527	0.1339	0.11247	0.1194	0.23334	0.13369	0.25958	0.17647	0.26164	0.22647	0.23465	0.25438	0.32756	0.18998	0.20433	0.09027	-2.2604	-2.5458	-2.9146	-2.7146	-2.7271	-2.9938	-2.8104	-2.9208	-2.8333	-2.7313	-2.9167	-2.7729	-2.55	-2.9958	-2.675	-2.75	52.425	130.784	-133.455	211.876	162.039	75.665	-62.674	122.996	100.782	-103.886	-65.770	-117.992	-54.012	89.288	78.795	-6.559	0.00017199	0.00020379	2.644e-05	244.93	3.0853e-06	9.8287e-07	440.25	50.274	1.9035e-06	3.7534e-06	126.3	40.247	12.692	5.2472	1.8309e-06	20.586	0.00050078	0.0007925	0.00021793	248.18	7.7739e-06	8.9286e-06	446.35	51.526	7.5477e-06	9.3397e-06	129.74	41.855	13.559	5.4739	8.2682e-06	21.294	-83.024	-36.596	-70.206	-129.802	6.756	-7.874	-128.936	-124.965	-3.067	36.291	-124.516	-118.241	-119.456	-112.421	-11.993	-114.061	-8191	255	
29479.531	1	1	0	0	0.081495	0.36992	0.20395	0.085877	0.045711	0.17074	0.18737	0.093456	0.16287	0.21038	0.033912	0.18837	0.047544	0.081609	0.21431	0.12712	-2.4667	-2.5583	-2.7771	-2.8208	-2.6021	-2.8396	-2.6458	-2.7375	-2.7812	-2.7396	-2.8729	-2.9021	-2.6667	-2.9021	-2.5729	-2.6958	180.368	-58.939	83.260	210.555	110.283	-6.938	66.232	39.651	-7.497	94.852	-109.649	-97.206	-3.112	108.454	160.139	-131.389	0.00015436	0.00017716	7.486e-05	244.09	1.3926e-06	2.473e-06	437.84	49.764	1.6593e-06	1.8455e-06	127.33	40.678	12.733	5.3114	2.8739e-06	20.777	0.00050252	0.00077978	0.00021402	248	7.6853e-06	8.8372e-06	445.98	51.138	7.4237e-06	8.7971e-06	129.96	42.124	13.49	5.5579	8.1533e-06	21.568	-85.440	1.054	-23.317	-129.678	38.892	14.521	-129.232	-124.850	11.178	16.361	-124.572	-118.504	-119.091	-112.684	13.988	-114.186	-8191	255	
29479.627	1	1	0	0	0.18585	0.033976	0.11272	0.16868	0.26915	0.30276	0.044865	0.19754	0.21152	0.25184	0.35423	0.21408	0.039642	0.073421	0.054893	0.19075	-2.5	-2.6625	-2.7729	-2.7708	-2.5271	-2.9042	-2.7708	-2.7104	-2.9167	-2.8479	-2.8812	-2.8438	-2.7687	-2.925	-2.4437	-2.5417	41.847	-5.570	83.496	-34.175	2.648	158.791	-122.326	179.662	-46.475	72.589	-95.004	126.844	-114.041	203.222	-101.592	82.936	0.00015517	0.00025615	4.4503e-05	245.23	1.7094e-06	5.1803e-07	440.23	50.004	1.2812e-06	3.5414e-06	127.54	40.475	12.628	5.3817	2.38e-06	20.902	0.00048006	0.00078375	0.00021571	247.41	7.5855e-06	8.6616e-06	445.82	51.196	7.1239e-06	8.6832e-06	129.58	41.987	13.486	5.5693	7.8706e-06	21.611	-86.700	-46.664	53.597	-129.134	-18.474	-16.593	-128.974	-124.524	79.941	-20.869	-125.029	-118.539	-118.719	-113.338	38.751	-114.594	-8191	255	
29479.748	1	1	0	0	0.29709	0.028993	0.072531	0.26118	0.17197	0.091537	0.21353	0.12212	0.023133	0.08683	0.32175	0.19775	0.062572	0.13283	0.27336	0.11254	-2.4292	-2.6458	-2.6937	-2.9938	-2.45	-2.7833	-2.7438	-2.6167	-2.875	-2.8583	-2.7729	-2.9708	-2.5542	-2.7938	-2.7021	-2.6271	138.784	129.282	-129.245	93.528	198.872	69.258	199.379	-1.226	46.904	-120.418	-117.102	-107.025	-29.622	-32.606	-44.894	-93.492	0.00016148	0.00023557	4.3277e-05	244.53	3.6945e-06	2.5458e-06	440.72	50.391	1.835e-06	1.514e-06	127.35	41.053	12.644	5.4448	2.1448e-06	20.92	0.00046388	0.00073498	0.00020579	247.45	7.1727e-06	8.2948e-06	445.59	51.396	6.9961e-06	8.4445e-06	129.88	42.183	13.599	5.6376	7.3044e-06	21.635	-81.381	-82.635	-41.000	-129.266	3.823	50.952	-129.020	-124.939	14.857	43.665	-124.614	-118.890	-119.785	-112.976	0.957	-114.183	-8191	255	
29479.842	1	1	0	0	0.14742	0.13585	0.37788	0.091098	0.096586	0.039873	0.49505	0.22715	0.32111	0.21053	0.23485	0.40399	0.16576	0.10449	0.20895	0.12004	-2.3292	-2.725	-2.6625	-2.9313	-2.6917	-2.8667	-2.8917	-2.6604	-2.9083	-2.7833	-2.8125	-2.7667	-2.525	-2.7333	-2.7625	-2.5375	176.128	196.657	119.662	29.552	39.769	0.979	61.098	137.867	128.199	3.341	19.391	-127.511	156.671	-67.745	34.157	208.610	0.00016591	0.00016102	5.2731e-05	244.03	2.5462e-06	2.4514e-06	439.16	49.927	3.0336e-06	3.9921e-07	126.68	40.915	13.037	5.331	3.3691e-06	20.88	0.00044511	0.00069448	0.00018819	246.39	6.8614e-06	7.7006e-06	443.72	50.968	6.5253e-06	7.8199e-06	129.68	42.212	13.637	5.5989	7.0805e-06	21.558	-83.227	-65.877	-28.106	-129.488	1.839	12.341	-129.593	-124.805	21.211	207.432	-124.902	-118.830	-119.216	-112.620	44.000	-114.078	-8191	255	
29479.938	1	1	0	0	0.173	0.21386	0.049282	0.092237	0.011507	0.24717	0.14672	0.10039	0.099783	0.39582	0.15363	0.32907	0.21505	0.099755	0.14587	0.088464	-2.3688	-2.8167	-2.5208	-2.9021	-2.6333	-2.5771	-2.7646	-2.625	-2.8354	-2.7375	-2.5333	-2.7792	-2.4667	-2.625	-2.6625	-2.7396	120.011	135.946	200.710	120.471	113.152	204.155	-112.999	153.984	-33.168	43.523	70.510	26.338	67.921	176.223	-102.569	51.621	0.00014018	0.00020351	1.8368e-05	240.79	3.0252e-07	1.9376e-06	440.41	50.002	1.649e-06	1.3009e-06	127.14	41.197	12.884	5.3483	1.4043e-06	21.129	0.00043172	0.00068534	0.00019922	245.45	7.0325e-06	7.7712e-06	443.48	50.915	6.4203e-06	7.691e-06	129.15	42.511	13.6	5.6342	6.796e-06	21.815	-84.657	-47.842	212.658	-129.479	-2.852	81.615	-128.741	-124.405	19.492	-12.898	-124.297	-118.060	-118.868	-112.602	-5.565	-113.918	-8191	255	
29480.033	1	1	0	0	0.1263	0.14311	0.10974	0.074372	0.34195	0.19354	0.078555	0.40732	0.057918	0.20332	0.054645	0.10937	0.20669	0.11194	0.15883	0.18725	-2.3417	-2.5938	-2.3125	-2.7333	-2.5687	-2.5438	-3.0083	-2.5375	-2.7167	-2.8958	-2.4938	-2.7313	-2.5771	-2.5792	-2.8271	-2.7812	-115.649	179.589	151.113	57.349	-5.978	148.220	94.699	100.920	146.222	45.613	-4.834	173.118	153.234	-48.504	-113.719	203.664	0.00016686	0.00023669	4.326e-05	242.93	3.5511e-07	1.2061e-06	436.74	49.893	6.8466e-07	2.0477e-06	127.98	41.412	12.946	5.4388	1.6653e-06	21.315	0.00044194	0.00067642	0.00019228	245.45	6.7734e-06	7.6053e-06	442.03	50.975	6.1648e-06	7.3976e-06	129.81	42.722	13.673	5.7159	6.4957e-06	21.936	-79.540	-28.378	12.521	-129.479	-32.332	55.706	-128.917	-124.772	68.819	30.117	-124.835	-118.758	-118.902	-113.172	-18.291	-114.504	-8191	255	
29480.131	1	1	0	0	0.12348	0.073367	0.19295	0.24578	0.13439	0.1323	0.11862	0.18494	0.075145	0.12319	0.13992	0.079663	0.08982	0.22268	0.11262	0.25705	-2.0625	-2.55	-2.4792	-2.8771	-2.5917	-2.4958	-2.9708	-2.5271	-2.7229	-2.8979	-2.5625	-2.8854	-2.6375	-2.525	-2.8604	-2.7438	178.598	69.598	16.767	-133.863	-45.090	-3.080	44.000	152.275	-87.714	-123.614	-81.107	191.535	-65.030	179.528	-136.711	-84.879	0.0001535	0.00012379	4.0403e-05	242.47	1.2877e-06	2.0474e-06	438.22	50.045	1.248e-06	5.5948e-07	126.69	40.49	13.198	5.4108	1.672e-06	21.104	0.00041549	0.00065491	0.0001882	246.57	6.5602e-06	7.6351e-06	443.42	51.047	6.5994e-06	7.7106e-06	129.3	42.188	13.643	5.6443	6.6258e-06	21.719	-83.810	-54.059	25.045	-129.561	29.982	66.796	-128.863	-124.555	-31.823	32.488	-124.366	-118.817	-119.574	-112.801	28.165	-113.991	-8191	255	
29480.227	1	1	0	0	0.12978	0.078484	0.091205	0.20811	0.19268	0.15383	0.097754	0.31067	0.26037	0.14773	0.10206	0.28286	0.10709	0.14441	0.26925	0.049891	-2.2042	-2.9188	-2.5167	-2.7	-2.7812	-2.6396	-2.9208	-2.7313	-2.6396	-2.7646	-2.6063	-2.7333	-2.6104	-2.6063	-2.7708	-2.5896	203.953	-7.388	-35.468	192.313	66.732	93.174	122.036	172.133	85.702	-116.898	68.303	188.407	64.636	84.927	-40.063	100.514	0.00015152	6.0862e-05	5.4783e-05	243.42	1.3153e-06	9.2421e-07	436.45	50.105	5.2392e-07	9.7832e-07	127.71	41.41	12.892	5.4772	1.3768e-06	21.298	0.00042818	0.00063852	0.00018594	246.28	6.6668e-06	7.466e-06	442.09	51.013	6.4305e-06	7.3859e-06	129.96	42.683	13.694	5.7263	6.2235e-06	21.947	-79.921	-110.256	-40.594	-129.096	26.782	14.474	-129.349	-124.708	48.094	26.706	-124.464	-118.590	-120.351	-113.238	-51.651	-114.320	-8191	255	
29480.348	1	1	0	0	0.095765	0.32303	0.28994	0.048766	0.086519	0.27797	0.17092	0.17979	0.17394	0.15355	0.31308	0.13789	0.28778	0.070776	0.34909	0.16095	-2.3271	-2.9125	-2.5896	-2.8792	-2.8458	-2.5979	-3.0417	-2.6333	-2.6312	-2.8167	-2.625	-2.7354	-2.7333	-2.5938	-2.9896	-2.6708	39.006	6.328	59.363	27.490	-24.066	179.088	3.604	139.890	-0.759	-114.552	-79.930	-128.508	25.476	126.866	-131.273	139.958	0.00015529	6.0946e-05	5.2823e-05	243.2	1.7139e-06	2.5441e-06	435.94	49.608	3.288e-07	1.8022e-06	126.37	41.337	12.962	5.4761	2.5714e-06	21.261	0.00040601	0.00061062	0.00017551	245.43	6.0936e-06	7.004e-06	441.03	50.756	6.0159e-06	6.7535e-06	129.42	42.61	13.642	5.6952	6.4328e-06	21.962	-94.657	-51.797	-64.994	-129.525	-37.201	9.307	-128.894	-124.877	155.168	-9.902	-124.873	-118.640	-119.581	-113.485	-25.162	-113.992	-8191	255	
29480.443	1	1	0	0	0.3562	0.17148	0.18513	0.15513	0.24481	0.23529	0.49126	0.14821	0.15897	0.29408	0.17916	0.14532	0.1207	0.16657	0.17479	0.23574	-2.15	-2.8688	-2.3667	-2.6604	-2.7438	-2.6167	-3.0375	-2.5208	-2.5563	-2.9917	-2.5438	-2.6208	-3.0271	-2.5625	-2.7562	-2.8604	48.701	-72.539	67.266	-36.206	150.292	-0.403	-123.178	160.717	31.703	208.036	214.412	-31.367	93.838	62.346	18.159	135.981	0.00018111	0.00025889	3.0832e-05	242.01	1.2932e-06	2.1089e-06	438.29	50.338	8.3144e-07	1.7271e-06	128.52	41.729	13.108	5.6119	1.6301e-06	21.494	0.00043238	0.0006269	0.00017776	244.39	6.2832e-06	6.9119e-06	442.09	51.15	6.1172e-06	6.9786e-06	130.62	42.991	13.844	5.8051	5.8777e-06	22.225	-84.157	-30.232	-81.860	-129.777	30.989	14.379	-129.109	-124.527	-11.473	86.064	-124.573	-118.163	-120.261	-112.853	26.475	-114.196	-8191	255	
29480.539	1	1	0	0	0.24158	0.29029	0.028505	0.1184	0.2319	0.12648	0.12659	0.13933	0.10638	0.12701	0.040898	0.12489	0.044221	0.17403	0.26458	0.1746	-2.2062	-2.7188	-2.7979	-2.5771	-2.8167	-2.4479	-2.875	-2.7292	-2.8271	-2.8896	-2.6646	-2.4938	-2.9354	-2.5521	-2.8042	-2.6958	138.278	51.590	18.242	-1.535	117.153	-4.194	-92.168	-43.519	29.368	26.698	206.378	211.648	-67.073	22.983	197.610	-55.363	0.00018187	0.00015368	6.6762e-05	242.99	9.0109e-07	3.0336e-06	438.21	49.898	1.7264e-06	1.6734e-06	128.42	41.758	13.217	5.588	1.6582e-06	21.501	0.00041523	0.00060044	0.00016935	246.15	5.8306e-06	6.6592e-06	444.01	51.229	5.8785e-06	6.6214e-06	130.47	43.1	13.88	5.7971	6.2689e-06	22.129	-83.774	-48.536	-71.216	-129.711	-92.655	32.899	-128.742	-124.530	1.725	4.331	-124.987	-118.591	-118.960	-113.154	-20.727	-114.496	-8191	255	
29480.637	1	1	0	0	0.075452	0.21136	0.049653	0.17343	0.21424	0.069577	0.11967	0.18017	0.041981	0.18555	0.18903	0.29219	0.11703	0.044151	0.13426	0.18676	-2.2479	-2.8917	-2.6813	-2.6917	-2.7167	-2.6167	-2.8104	-2.6771	-2.4542	-2.8063	-2.8083	-2.5042	-3.0646	-2.6125	-2.7667	-2.7708	193.882	-63.429	104.956	-77.914	-93.899	182.001	-84.565	79.348	54.626	174.453	140.848	171.691	138.794	-94.931	170.645	211.246	0.00015558	0.0001206	2.6254e-05	242.27	8.3651e-07	1.8089e-06	439.62	50.419	1.8033e-06	1.3995e-06	128.85	42.309	13.298	5.6367	7.4306e-07	21.724	0.00039868	0.0006005	0.00016179	245.98	5.7879e-06	6.7946e-06	442.85	51.277	5.8325e-06	6.6051e-06	130.86	43.454	13.936	5.8584	5.7955e-06	22.382	-86.551	-32.712	-126.572	-129.564	10.141	37.823	-129.155	-124.735	-8.142	0.549	-124.876	-118.607	-120.009	-112.992	-26.994	-114.257	-8191	255	
29480.707	1	1	0	0	0.080229	0.22889	0.11042	0.15681	0.24595	0.21539	0.2701	0.019146	0.089875	0.41347	0.11373	0.29519	0.21552	0.083683	0.044035	0.17925	-2.1021	-2.7604	-2.7417	-2.6167	-2.9042	-2.6917	-2.6437	-2.8312	-2.6708	-2.8625	-2.7938	-2.6688	-3.0479	-2.5792	-2.6396	-2.9104	66.755	-53.389	-85.933	-90.201	142.550	186.086	81.701	-20.928	207.815	-57.844	141.335	200.296	-52.708	-12.476	-44.885	94.005	0.00016452	0.00018977	6.3173e-05	242.16	1.4676e-06	1.9568e-06	439.12	50.307	1.7236e-06	9.3329e-07	128.41	41.843	13.315	5.599	1.9813e-06	21.71	0.00039021	0.00057899	0.00015658	245.39	5.8586e-06	6.6514e-06	442.53	51.045	5.6674e-06	6.8869e-06	130.52	43.186	13.893	5.8312	5.9558e-06	22.315	-83.932	-11.747	-81.063	-129.491	45.805	38.437	-128.786	-124.539	-10.683	143.342	-124.775	-118.295	-119.486	-112.778	22.531	-113.888	-8191	255	
29480.826	1	1	0	0	0.048028	0.16184	0.15769	0.082762	0.24493	0.27196	0.12876	0.26955	0.11537	0.17909	0.15863	0.087835	0.1029	0.11848	0.22498	0.15698	-2.1417	-2.8312	-2.5687	-2.5625	-2.9917	-2.7479	-2.8375	-2.6021	-2.4458	-2.8875	-2.8771	-2.3833	-2.7542	-2.5292	-2.4188	-2.9292	68.552	63.099	-102.118	120.711	-80.101	180.865	119.557	-35.473	-64.997	50.142	-124.412	67.342	55.718	-4.521	-19.295	151.990	0.00016059	7.6514e-05	1.9311e-05	243.13	1.3059e-06	4.9836e-07	437.78	50.415	6.3221e-07	2.011e-06	129.58	42.215	13.35	5.8141	1.0926e-06	21.983	0.00039292	0.00056478	0.00016063	244.83	5.5356e-06	6.4998e-06	443.24	51.336	5.5391e-06	6.112e-06	131.5	43.633	13.973	5.932	5.6538e-06	22.624	-80.858	-16.051	-86.152	-129.240	3.589	35.884	-129.160	-124.223	4.912	-19.359	-124.920	-118.412	-119.578	-113.448	23.227	-114.380	-8191	255	
29480.922	1	1	0	0	0.030108	0.16209	0.13205	0.061986	0.21033	0.15274	0.24532	0.12338	0.15014	0.10378	0.18067	0.16448	0.049321	0.16647	0.058599	0.055396	-2.1271	-2.6979	-2.6562	-2.4625	-2.9042	-2.7812	-2.7229	-2.9354	-2.5146	-2.7083	-2.8146	-2.6833	-2.8146	-2.6958	-2.5979	-2.8854	99.272	199.776	43.698	-131.377	-19.477	212.923	-115.863	-81.986	81.996	160.843	124.221	166.665	129.936	-115.500	179.432	-37.034	0.00017255	0.00027244	1.1014e-05	243.51	3.2161e-06	1.5646e-06	438.35	50.373	1.1239e-06	1.3877e-06	128.95	42.287	13.414	5.7877	3.4478e-07	22.013	0.00038498	0.00055149	0.00014489	245.63	5.2938e-06	6.0027e-06	444.08	51.288	5.098e-06	5.6487e-06	131.72	43.843	14.108	6.0023	5.037e-06	22.77	-86.318	-61.944	20.537	-129.450	9.260	17.573	-129.057	-125.098	26.642	4.572	-124.479	-118.291	-119.113	-113.408	113.329	-114.447	-8191	255	
29481.020	1	1	0	0	0.14711	0.18053	0.16447	0.30795	0.14566	0.10504	0.33392	0.14332	0.084076	0.11059	0.16271	0.14503	0.17697	0.15999	0.19428	0.083136	-2.3104	-2.7646	-2.675	-2.5396	-2.8458	-2.6458	-2.5417	-2.8167	-2.5083	-2.7167	-2.825	-2.4646	-2.7375	-2.8146	-2.4333	-2.8146	-94.390	179.080	18.052	-123.028	100.315	104.355	158.464	-101.546	197.865	174.325	-128.807	162.798	143.239	124.223	-9.007	149.920	0.00017223	0.00020558	5.3372e-05	241.58	6.6709e-07	2.2451e-06	434.52	50.55	1.4639e-06	1.8777e-06	128.71	42.211	13.131	5.5916	1.948e-06	21.625	0.00035157	0.00052687	0.00013386	244.57	5.1901e-06	5.772e-06	440.88	51.157	5.1315e-06	5.9844e-06	130.7	43.434	13.841	5.846	5.5565e-06	22.358	-87.122	-35.687	-74.508	-129.017	4.481	35.377	-128.757	-125.048	-9.006	-26.420	-124.698	-118.100	-119.471	-112.820	25.338	-114.191	-8191	255	
29481.139	1	1	0	0	0.21553	0.14796	0.14999	0.083632	0.20176	0.023262	0.3879	0.30272	0.21117	0.23033	0.19034	0.23546	0.13858	0.16705	0.1055	0.089247	-2.1708	-2.5542	-2.8563	-2.5667	-2.7104	-2.6375	-2.6188	-2.7625	-2.6125	-2.7646	-2.9354	-2.5125	-2.7271	-2.7417	-2.5687	-2.8396	90.538	-37.967	70.848	104.985	-17.766	109.405	197.972	-91.899	5.987	182.765	104.865	203.815	-70.596	32.965	1.672	-94.313	0.00015006	7.7313e-05	9.6021e-06	239.86	1.9503e-06	2.328e-06	434.72	50.199	6.6751e-07	2.3535e-06	128.49	42.375	13.43	5.7607	2.041e-06	22.051	0.00036903	0.00053516	0.00014366	243.87	5.0998e-06	5.8803e-06	440.48	51.042	4.9307e-06	5.8699e-06	130.57	43.688	13.996	5.9505	5.1996e-06	22.756	-78.815	-120.104	-32.617	-129.416	24.383	-9.606	-129.079	-124.388	43.109	39.159	-124.640	-118.595	-119.758	-112.880	-49.817	-114.128	-8191	255	
29481.234	1	1	0	0	0.2046	0.16671	0.11788	0.057208	0.032738	0.16275	0.13367	0.14147	0.054343	0.1674	0.073242	0.23631	0.29265	0.13589	0.15482	0.23676	-2.1208	-2.5125	-2.7896	-2.6312	-2.6521	-2.8229	-2.6271	-2.8271	-2.7188	-2.5542	-2.925	-2.5542	-2.725	-2.9021	-2.6208	-2.8354	190.963	167.891	136.025	62.397	-46.756	103.594	73.910	190.200	151.087	-135.779	65.551	69.855	164.031	168.837	127.884	153.967	0.0001583	0.00010232	3.0771e-05	242.12	7.839e-07	2.7754e-06	438.09	50.069	1.3355e-06	7.9748e-07	128.05	42.85	13.441	5.7636	1.358e-06	22.159	0.00036701	0.00050203	0.00014094	243.91	5.3477e-06	5.8012e-06	441.92	51.116	5.1251e-06	5.7157e-06	131.02	43.771	14.038	5.9725	5.1868e-06	22.907	-85.920	-49.039	-54.049	-129.224	-64.328	19.966	-128.977	-124.377	19.946	-35.239	-124.744	-118.229	-119.520	-113.229	46.899	-114.457	-8191	255	
29481.307	1	1	0	0	0.021544	0.18461	0.31828	0.066857	0.1813	0.15455	0.29573	0.14414	0.13034	0.16396	0.15204	0.31077	0.050377	0.22085	0.14328	0.062897	-2.2354	-2.6813	-3.0167	-2.6063	-2.8563	-2.8229	-2.575	-2.725	-2.6229	-2.5417	-2.7625	-2.3542	-2.6708	-2.725	-2.5375	-2.5771	189.344	-50.848	161.239	-84.594	160.997	206.610	201.367	-136.112	66.414	212.405	-94.465	178.388	157.001	-44.887	-48.127	-47.905	0.00015552	0.00023556	9.291e-06	242.26	1.053e-06	5.1462e-07	439.21	50.09	1.1833e-06	1.7846e-06	128.17	42.564	13.243	5.7517	2.3294e-06	21.845	0.00034989	0.00052998	0.0001391	245.23	5.0942e-06	5.7312e-06	443.1	51.281	4.9475e-06	6.1354e-06	131.13	43.607	13.952	5.943	5.7424e-06	22.528	-86.228	-7.123	160.431	-129.358	7.138	150.056	-128.859	-124.988	33.580	4.276	-124.772	-118.398	-119.470	-113.177	34.191	-114.034	-8191	255	
29481.428	1	1	0	0	0.33796	0.12892	0.3185	0.063107	0.062807	0.11601	0.29804	0.075153	0.25225	0.093973	0.20164	0.19447	0.14455	0.20228	0.20247	0.1043	-2.3688	-2.525	-2.825	-2.7792	-2.5833	-2.9083	-2.6521	-2.6146	-2.725	-2.6188	-2.7917	-2.6104	-2.525	-2.7271	-2.5979	-2.5104	46.422	78.187	-137.678	-56.545	20.938	-3.705	-134.371	-95.325	152.788	-16.702	67.793	129.610	-88.179	-120.685	130.508	207.418	0.00016032	0.00017757	6.8203e-05	241.3	1.3494e-06	8.5629e-07	437.19	50.146	1.4159e-06	2.7659e-06	128.79	42.21	13.229	5.6754	2.8093e-06	21.728	0.00037249	0.00058376	0.00015483	245.03	5.4851e-06	5.7766e-06	441.55	51.077	5.2652e-06	5.9578e-06	130.79	43.417	13.916	5.8969	5.7471e-06	22.466	-88.578	-50.516	-72.979	-128.798	-21.299	-29.139	-129.142	-124.659	33.042	-13.807	-125.061	-118.545	-119.641	-113.462	44.509	-114.354	-8191	255	
29481.523	1	1	0	0	0.0647	0.20285	0.069273	0.070283	0.11556	0.17011	0.35266	0.12063	0.22859	0.16757	0.030531	0.13714	0.26981	0.17529	0.15695	0.38932	-2.4625	-2.4229	-2.8	-2.6312	-2.6917	-2.7812	-2.675	-2.6271	-2.8417	-2.5	-2.85	-2.6792	-2.525	-2.8312	-2.6	-2.7417	-67.591	-112.657	57.090	-88.096	7.858	-47.249	131.524	50.818	-93.602	167.215	167.728	-61.509	-40.897	192.547	-109.814	-127.238	0.0001793	0.0001618	8.0894e-05	241.8	1.2658e-06	1.7685e-06	437.3	50.537	1.6395e-06	3.1456e-06	129.09	42.24	13.227	5.6364	2.2455e-06	21.956	0.00038575	0.00056725	0.00014894	244.97	5.3993e-06	6.1447e-06	441.83	51.275	5.2057e-06	6.3494e-06	130.68	43.431	13.851	5.8646	5.7588e-06	22.579	-84.290	-128.216	-56.813	-129.549	-12.547	29.954	-128.850	-124.728	12.888	93.891	-124.538	-118.675	-118.509	-113.140	51.332	-114.266	-8191	255	
29481.619	1	1	0	0	0.10818	0.079381	0.1511	0.19827	0.054218	0.33407	0.15326	0.27613	0.069686	0.015038	0.17927	0.29899	0.068146	0.10795	0.18371	0.055507	-2.4	-2.5958	-2.8083	-2.7646	-2.6708	-2.9	-2.6521	-2.6875	-2.9917	-2.6083	-2.7583	-2.725	-2.4583	-2.8833	-2.7083	-2.4896	-34.295	-30.385	-8.758	137.049	-76.185	211.295	0.983	182.609	-83.963	115.878	-115.082	-118.435	-34.693	112.135	-3.754	167.689	0.00016362	0.0001719	5.2003e-05	242.27	2.6812e-06	1.9559e-06	438.32	50.015	1.6922e-06	1.8695e-06	128.02	42.085	13.052	5.6436	2.437e-06	21.731	0.00037177	0.00056012	0.00015738	244.76	5.6343e-06	6.3125e-06	442.85	51.062	5.4033e-06	6.1439e-06	130.4	43.424	13.845	5.8566	5.9174e-06	22.476	-85.193	-11.713	-57.193	-129.072	20.250	90.947	-128.960	-124.635	-6.294	77.356	-124.064	-118.511	-118.666	-112.778	-36.808	-114.687	-8191	255	
29481.738	1	1	0	0	0.14505	0.21859	0.26686	0.2927	0.12386	0.14029	0.16301	0.1734	0.26254	0.035711	0.11717	0.098654	0.10329	0.25147	0.30093	0.26178	-2.5312	-2.65	-2.7292	-2.8	-2.6729	-2.7917	-2.775	-2.6	-2.875	-2.4479	-2.8479	-2.6729	-2.6104	-2.8	-2.7188	-2.7542	17.658	128.364	-87.779	95.786	149.064	-70.436	184.679	137.337	-49.694	123.801	180.785	-134.097	-119.105	37.186	-137.882	191.445	0.0001721	0.0001576	5.0759e-05	243.32	1.0724e-06	1.4288e-06	440.42	50.621	1.231e-06	9.6289e-07	127.82	41.629	13.166	5.4926	9.4702e-07	21.221	0.00039277	0.00058922	0.00016071	246.33	5.7285e-06	6.4104e-06	444.87	51.343	5.6452e-06	6.704e-06	130.32	42.736	13.687	5.7154	6.1098e-06	21.98	-76.775	-31.716	-17.272	-129.395	25.524	32.849	-128.926	-124.631	35.557	8.939	-124.807	-118.754	-118.968	-113.472	107.100	-114.429	-8191	255	
29481.836	1	1	0	0	0.1877	0.37226	0.13671	0.11563	0.21554	0.12972	0.059091	0.23661	0.010394	0.39847	0.1916	0.14955	0.13375	0.086223	0.11999	0.24825	-2.3917	-2.5667	-2.7333	-2.9021	-2.5854	-2.8792	-2.8833	-2.4917	-2.7021	-2.6854	-2.6208	-2.9062	-2.6604	-2.7396	-2.8896	-2.4729	10.050	3.577	-1.624	195.432	152.748	189.389	-142.110	-25.372	211.494	165.981	86.942	-132.259	9.435	113.251	112.533	189.508	0.00015139	7.7289e-05	4.1029e-05	243.53	1.5239e-06	2.4777e-06	438.35	50.415	1.2807e-06	1.5687e-06	127.27	41.418	12.75	5.4141	1.5595e-06	21.351	0.00039329	0.00058175	0.00016608	246.4	6.1345e-06	6.7091e-06	442.11	51.17	5.6907e-06	6.7164e-06	129.53	42.664	13.631	5.6915	6.1535e-06	21.967	-88.903	-24.038	-35.946	-129.160	9.217	42.829	-129.218	-124.654	-37.854	55.619	-124.882	-118.567	-119.354	-112.563	17.005	-114.112	-8191	255	
29481.932	1	1	0	0	0.33531	0.22422	0.16038	0.15379	0.11586	0.1228	0.24294	0.072382	0.34044	0.16072	0.20879	0.21626	0.33523	0.18042	0.27753	0.21649	-2.3563	-2.8854	-2.5646	-2.7542	-2.6771	-2.9292	-2.8563	-2.4625	-2.8208	-2.7396	-2.6167	-3.0146	-2.5312	-2.6708	-2.8167	-2.6437	-113.569	15.142	200.360	35.844	-1.057	198.812	205.058	-72.450	125.738	63.862	36.301	-62.513	-59.425	12.351	159.594	-54.532	0.00014536	0.00024498	5.6503e-05	242.03	1.1875e-06	1.877e-06	438.71	49.941	2.3966e-06	3.7863e-06	128.07	41.068	13.033	5.3835	1.7249e-06	21.118	0.00041166	0.00060516	0.00016156	245.33	6.185e-06	6.7752e-06	443.54	51.19	6.1778e-06	7.4451e-06	130.17	42.419	13.681	5.6536	6.4339e-06	21.871	-85.059	-81.248	-93.188	-129.807	-14.924	73.724	-128.790	-125.119	-16.262	-8.656	-125.109	-118.092	-119.986	-112.943	-21.009	-114.049	-8191	255	
29482.004	1	1	0	0	0.22344	0.20325	0.27745	0.051739	0.14502	0.22295	0.15309	0.20347	0.073017	0.17939	0.15923	0.036306	0.14291	0.035584	0.24801	0.11643	-2.6604	-2.575	-2.6937	-2.875	-2.6292	-2.7604	-2.9542	-2.4958	-2.8792	-2.9021	-2.4979	-2.7833	-2.3688	-2.7354	-2.8917	-2.6771	209.977	-106.290	15.911	184.445	-67.228	0.839	167.237	164.851	-84.368	4.965	-44.299	107.531	213.475	194.718	66.727	27.523	0.00016241	0.00020761	2.382e-05	242.91	3.1958e-07	1.9047e-06	440.73	49.511	2.4558e-06	1.7616e-06	128.64	41.482	13.116	5.4424	1.3936e-06	21.206	0.00042525	0.00061143	0.00016932	246.45	6.2276e-06	6.6754e-06	444.66	51.046	5.938e-06	7.058e-06	130.62	42.761	13.763	5.7041	6.7266e-06	21.981	-87.214	-111.090	-75.922	-129.020	51.041	-57.873	-129.278	-125.165	-12.286	41.361	-125.049	-118.404	-118.844	-113.432	16.664	-114.527	-8191	255	
29482.123	1	1	0	0	0.31312	0.11326	0.11443	0.20813	0.1753	0.24903	0.19914	0.12955	0.1197	0.14265	0.36461	0.11272	0.082896	0.21185	0.018075	0.13956	-2.2771	-2.6375	-2.3542	-2.8167	-2.5875	-2.6583	-2.9604	-2.5687	-2.6479	-2.6937	-2.7167	-2.975	-2.7375	-2.7458	-2.9583	-2.5917	131.989	195.036	132.867	81.046	-27.675	-92.855	-136.677	-0.030	-9.403	-43.135	158.930	-139.372	17.033	-123.579	188.262	149.121	0.00014498	0.00013412	4.8569e-05	246.06	1.9584e-06	2.2936e-06	437.96	50.251	7.2564e-07	2.1696e-06	126.74	41.36	12.891	5.538	5.4168e-07	21.197	0.00043301	0.00064237	0.00018029	247.47	6.2641e-06	6.9333e-06	443.62	51.431	6.2525e-06	6.9031e-06	129.97	42.787	13.758	5.7658	6.3471e-06	21.877	-77.061	-0.245	-98.456	-129.212	-30.771	37.220	-129.376	-124.542	4.847	-38.558	-124.743	-118.556	-119.275	-112.869	102.028	-114.572	-8191	255	
29482.221	1	1	0	0	0.25207	0.041056	0.086293	0.13547	0.26883	0.23245	0.23463	0.21341	0.084804	0.23113	0.11665	0.060228	0.072065	0.18766	0.1262	0.036862	-2.15	-2.6896	-2.4625	-2.7521	-2.6979	-2.7229	-2.7812	-2.4792	-2.7229	-2.7146	-2.5104	-2.8583	-2.5687	-2.5625	-2.9146	-2.8958	142.303	-5.944	-76.071	-126.218	137.143	110.498	113.406	200.327	-26.965	19.710	196.889	-94.087	-70.769	-76.925	97.733	89.988	0.00014556	0.0001198	2.5572e-05	243.47	2.2512e-06	8.5085e-07	434.75	50.292	1.7786e-06	1.2236e-06	126.97	41.16	13.069	5.4536	1.202e-06	21.226	0.00041355	0.00062109	0.00017371	246.4	5.9618e-06	6.9379e-06	440.97	51.1	5.9835e-06	7.0755e-06	129.22	42.435	13.773	5.6794	6.4555e-06	21.824	-81.732	-54.903	-23.526	-129.747	46.983	21.589	-129.230	-124.906	11.400	3.979	-124.718	-118.117	-119.343	-113.200	53.469	-114.177	-8191	255	
29482.316	1	1	0	0	0.14847	0.17461	0.06079	0.05777	0.16455	0.10343	0.1943	0.25693	0.29792	0.18223	0.30908	0.037886	0.19951	0.22529	0.19277	0.17236	-2.1854	-2.8458	-2.4167	-2.9292	-2.7396	-2.5458	-2.8875	-2.6667	-2.5396	-2.7687	-2.5854	-2.8688	-2.7812	-2.5896	-2.8896	-2.4813	-112.271	172.768	216.990	30.672	-110.154	-141.410	132.318	110.645	50.510	75.789	45.941	25.498	-2.565	197.878	-10.309	-34.783	0.00016838	0.00014408	5.3228e-05	244.4	3.1433e-07	1.6234e-06	437.77	49.805	1.723e-06	2.0059e-06	127.41	41.38	13.065	5.5841	1.502e-06	21.555	0.00043977	0.00065422	0.00018262	246.7	6.3639e-06	7.4135e-06	443.39	51.08	6.1166e-06	7.2011e-06	130.3	42.78	13.772	5.7919	6.1652e-06	22.176	-74.685	-23.723	-23.703	-129.236	69.179	19.047	-129.220	-124.571	9.789	-3.207	-124.898	-118.653	-119.147	-112.998	-23.434	-114.081	-8191	255	
29482.412	1	1	0	0	0.21041	0.11092	0.13704	0.087275	0.047761	0.16615	0.14416	0.21377	0.12926	0.083464	0.033346	0.16296	0.17615	0.21102	0.22189	0.3336	-2.0646	-2.8458	-2.4917	-2.75	-2.7	-2.5396	-2.9354	-2.6375	-2.5792	-2.925	-2.5979	-2.7417	-2.6771	-2.5396	-2.8667	-2.6083	163.243	-126.578	-79.018	-92.580	-18.724	-29.116	133.386	-109.097	-64.289	127.628	114.425	107.605	65.628	79.851	124.662	37.182	0.0001572	0.00010938	6.9485e-05	243.38	6.2908e-07	1.4124e-06	436.32	50.192	3.9032e-07	7.2932e-07	127.74	41.507	13.037	5.5668	1.2769e-06	21.269	0.00039968	0.00063438	0.00017178	245.68	6.263e-06	6.5257e-06	442.99	51.205	5.8541e-06	6.8537e-06	130.05	42.707	13.736	5.7431	6.6532e-06	22.001	-85.991	-43.389	-105.021	-129.126	2.091	15.611	-128.968	-125.217	117.665	104.601	-124.746	-118.753	-119.152	-113.071	-49.425	-114.063	-8191	255	
29482.531	1	1	0	0	0.19845	0.25747	0.22404	0.10221	0.1092	0.22896	0.32595	0.10675	0.23635	0.108	0.090971	0.14913	0.44643	0.13057	0.17778	0.13526	-2.1583	-2.8187	-2.6417	-2.7812	-2.7646	-2.4521	-2.7708	-2.6583	-2.6937	-3.0229	-2.675	-2.75	-2.6604	-2.3729	-2.6792	-2.75	141.784	-30.322	205.657	-59.638	63.386	56.860	169.904	193.808	25.151	7.512	-99.587	109.575	102.857	34.569	89.935	-78.523	0.00015761	0.00016853	4.7671e-05	245	1.1626e-06	3.8129e-06	440.93	50.721	1.1596e-06	1.6209e-06	128.54	41.555	13.251	5.4613	1.3312e-06	21.38	0.00043643	0.00063812	0.00018701	247.37	6.6584e-06	7.4841e-06	445.2	51.72	6.4868e-06	7.3859e-06	130.94	42.782	13.903	5.7635	6.7191e-06	22.007	-89.804	14.695	-119.745	-129.494	-89.624	37.883	-128.811	-124.805	10.505	6.656	-124.141	-118.041	-119.309	-113.494	27.052	-114.138	-8191	255	
29482.604	1	1	0	0	0.1742	0.14797	0.1315	0.13682	0.063045	0.2372	0.18238	0.26454	0.15245	0.07591	0.18951	0.12052	0.22858	0.29027	0.24625	0.082015	-2.0542	-2.7	-2.7708	-2.6771	-2.9188	-2.5625	-2.7604	-2.7479	-2.6396	-2.8438	-2.6	-2.4625	-2.8271	-2.3438	-2.8375	-2.65	185.042	101.607	86.432	-74.580	91.112	-123.951	186.033	-33.453	180.842	165.925	-48.710	-141.671	117.039	-19.558	207.946	-4.658	0.00018016	0.00029869	6.1212e-05	244.62	1.7772e-06	2.0683e-06	438.37	50.337	1.3806e-06	1.4781e-07	127.37	41.276	13.024	5.4691	6.1587e-07	21.06	0.00043198	0.00070599	0.00019295	247.48	6.5277e-06	7.8613e-06	443.64	51.369	6.7634e-06	7.5733e-06	130.28	42.596	13.763	5.7425	6.9698e-06	21.8	-87.497	-82.144	-58.631	-129.457	111.327	26.387	-129.082	-124.885	4.604	131.677	-124.567	-118.505	-119.173	-112.820	-58.825	-114.165	-8191	255	
29482.699	1	1	0	0	0.25986	0.18671	0.051066	0.15708	0.086368	0.12017	0.22998	0.13505	0.11611	0.22392	0.091248	0.19117	0.087692	0.29838	0.18964	0.24466	-2.0438	-2.9292	-2.6417	-2.6688	-2.9938	-2.6667	-2.7	-2.8937	-2.6167	-2.9813	-2.8417	-2.4958	-2.8417	-2.4042	-2.625	-2.8937	71.973	17.109	-108.432	102.911	184.604	78.396	142.216	146.385	-138.464	-16.413	21.231	-44.495	105.025	-119.299	61.821	203.697	0.00017333	0.00022512	4.1514e-05	242.67	2.4936e-06	2.4765e-06	440.43	50.438	1.6783e-06	3.3344e-06	128.25	41.777	12.926	5.5364	2.2362e-06	21.479	0.00043754	0.00068632	0.00019168	246.19	6.5664e-06	7.4109e-06	444.86	51.466	6.3147e-06	7.5011e-06	130.52	42.863	13.834	5.7639	6.6881e-06	22.11	-85.236	-25.953	-33.532	-129.287	33.848	14.870	-129.177	-124.632	28.979	-24.539	-124.964	-118.211	-119.569	-112.753	-44.827	-114.659	-8191	255	
29482.820	1	1	0	0	0.19506	0.25101	0.29672	0.13937	0.1863	0.38862	0.087031	0.18549	0.1146	0.21173	0.059933	0.22066	0.089411	0.13883	0.097018	0.040751	-2.175	-2.7917	-2.5958	-2.5271	-2.8854	-2.6813	-2.6437	-3.0917	-2.6521	-2.9208	-2.8458	-2.6583	-2.7542	-2.6042	-2.575	-2.7646	120.946	39.508	-92.200	182.453	-133.306	-78.145	106.513	132.054	50.999	215.985	163.753	99.652	-73.753	122.720	172.272	29.645	0.0001752	0.00011877	3.5959e-05	243	1.0331e-06	1.0814e-06	439.1	50.317	6.9403e-07	1.4059e-06	128.28	40.858	12.795	5.3183	1.4117e-06	20.938	0.00043401	0.00067642	0.00017814	245.09	6.5255e-06	7.6364e-06	442.94	51.294	6.6838e-06	7.3846e-06	130.18	42.272	13.537	5.5837	6.7669e-06	21.643	-87.598	-52.823	-29.034	-129.347	-35.847	38.252	-128.851	-124.668	39.742	71.812	-124.572	-118.593	-119.472	-113.094	77.343	-114.331	-8191	255	
29482.914	1	1	0	0	0.16696	0.26854	0.25059	0.2151	0.13402	0.085194	0.21591	0.055283	0.067802	0.14319	0.17571	0.087793	0.28272	0.11561	0.18703	0.094062	-2.0875	-2.7646	-2.5917	-2.4667	-2.7021	-2.6208	-2.6729	-2.7104	-2.6792	-2.9042	-2.7042	-2.4708	-2.7833	-2.5625	-2.6354	-2.8729	-6.764	43.808	-100.773	-127.128	102.501	115.464	35.294	80.118	124.586	186.398	-69.298	98.271	8.383	66.608	-34.228	179.469	0.00014591	8.9579e-05	3.0305e-05	244.06	2.5882e-06	1.3799e-06	439.03	50.473	1.135e-06	1.3302e-06	128.07	41.32	13.024	5.5346	2.7323e-06	21.306	0.00043968	0.00066803	0.00017731	247.54	7.2389e-06	7.6144e-06	443.88	51.594	6.7001e-06	7.6624e-06	130.45	42.679	13.837	5.7186	6.5954e-06	21.991	-78.834	-45.564	-16.296	-129.900	-61.234	-7.759	-129.361	-124.580	-30.344	-65.771	-124.699	-117.996	-118.663	-113.420	15.533	-114.075	-8191	255	
29483.012	1	1	0	0	0.3023	0.10372	0.17788	0.22973	0.15349	0.14342	0.16638	0.20316	0.24483	0.092043	0.19474	0.16516	0.12138	0.20287	0.089895	0.29041	-2.0896	-2.6625	-2.7625	-2.6792	-2.75	-2.6813	-2.3917	-2.6646	-2.5563	-2.7708	-2.8292	-2.5875	-2.8438	-2.6354	-2.5604	-2.8833	39.168	149.414	-97.264	102.773	210.916	202.477	145.201	92.828	122.713	89.617	190.187	53.530	150.505	158.304	52.972	210.054	0.00016632	0.00015771	3.5485e-05	244.72	2.08e-06	1.5842e-06	439.23	50.05	2.7488e-06	9.1947e-07	127.93	41.561	13.001	5.4872	1.0473e-07	21.427	0.00041871	0.00064899	0.00017226	245.44	6.194e-06	7.3792e-06	442.82	51.213	6.0403e-06	6.9988e-06	130.11	42.89	13.805	5.749	6.3739e-06	22.068	-85.840	-85.086	-99.089	-129.848	88.724	-8.201	-129.038	-125.061	5.711	-48.973	-124.876	-118.116	-118.345	-113.029	125.429	-113.949	-8191	255	
29483.107	1	1	0	0	0.18483	0.16633	0.16765	0.10598	0.18302	0.037684	0.21192	0.26989	0.22633	0.15086	0.12146	0.11855	0.11389	0.25568	0.14109	0.1143	-1.975	-2.7	-2.7313	-2.5542	-2.7812	-2.7729	-2.5417	-2.9208	-2.6688	-2.7125	-2.8583	-2.4417	-2.7083	-2.8125	-2.6437	-2.6979	95.024	18.519	-30.405	-138.212	172.030	-18.469	-71.977	-25.273	83.546	136.951	75.628	-10.623	-79.446	26.043	93.408	184.634	0.00015199	3.1322e-05	6.6262e-05	243.15	2.6918e-06	1.085e-06	436.98	49.785	1.053e-06	1.4599e-06	127.05	41.278	13.104	5.4929	1.1663e-06	21.367	0.00041834	0.00060096	0.00016136	244.59	5.7487e-06	6.2218e-06	440.48	50.775	5.505e-06	6.8049e-06	129.67	42.663	13.788	5.7239	6.392e-06	22.066	-81.226	-98.130	-56.921	-129.374	42.009	-104.547	-129.135	-124.604	-14.424	-18.471	-124.526	-118.900	-119.689	-112.834	163.124	-113.897	-8191	255	
29483.203	1	1	0	0	0.1651	0.18036	0.2781	0.22213	0.28913	0.045983	0.11564	0.12396	0.37448	0.1315	0.074184	0.12746	0.14926	0.09903	0.10976	0.096903	-2.2729	-2.7146	-2.8458	-2.55	-2.6	-2.7708	-2.8229	-2.8312	-2.6854	-2.8083	-2.8771	-2.5896	-2.575	-2.7917	-2.4958	-2.9854	-99.330	43.373	117.070	152.068	-114.139	105.986	46.496	-1.590	51.190	96.885	-104.528	200.631	-75.146	107.815	-4.281	166.011	0.00015525	0.00010048	6.2567e-05	240.48	2.0184e-06	1.5539e-06	437.37	49.881	2.0653e-06	3.2088e-07	126.68	41.378	12.769	5.4222	1.735e-06	21.03	0.00041186	0.00062644	0.00017385	244.31	6.1323e-06	6.8005e-06	442.21	50.923	5.7388e-06	6.7964e-06	129.21	42.625	13.603	5.6248	6.2765e-06	21.725	-88.655	171.263	-85.286	-129.385	3.335	20.597	-129.174	-124.452	31.550	-70.802	-124.921	-118.280	-120.476	-113.488	18.121	-114.007	-8191	255	
29483.301	1	1	0	0	0.19191	0.17678	0.25326	0.20612	0.45283	0.01894	0.1885	0.043076	0.13666	0.035178	0.27873	0.26432	0.088511	0.28636	0.11577	0.11744	-2.4625	-2.4938	-2.8292	-2.4437	-2.6833	-2.7208	-2.6688	-2.7792	-2.6708	-2.725	-2.8896	-2.5583	-2.7333	-2.6479	-2.6521	-2.7833	20.949	-4.733	-28.540	0.462	23.054	27.045	167.302	-128.818	-21.199	-88.346	-121.249	-140.679	-34.040	111.516	-82.826	72.552	0.0001667	0.00019256	4.4134e-05	244.14	2.1104e-06	1.6753e-06	436.48	50.002	3.7022e-07	1.2532e-06	127.74	41.14	12.839	5.418	3.3166e-07	21.119	0.00039409	0.00060263	0.00016508	246.31	6.2192e-06	6.6728e-06	441.99	51.161	6.0549e-06	6.95e-06	130.01	42.448	13.63	5.6707	6.6508e-06	21.84	-82.474	-80.785	-67.436	-129.183	72.175	47.581	-129.040	-124.675	-111.092	-9.400	-124.404	-118.716	-119.156	-113.678	-61.135	-114.167	-8191	255	
29483.422	1	1	0	0	0.22913	0.025942	0.17452	0.24275	0.10503	0.11084	0.15451	0.16725	0.046696	0.063417	0.16164	0.32274	0.16545	0.010372	0.24337	0.10144	-2.2938	-2.3271	-2.7771	-2.5938	-2.5604	-2.725	-2.7521	-2.6	-2.7625	-2.6854	-2.7021	-2.7917	-2.5896	-2.8396	-2.5417	-2.7396	7.040	-112.487	44.356	33.620	211.643	-102.947	120.052	174.798	138.348	-136.269	203.708	185.228	14.102	-41.965	-10.277	35.659	0.00014787	0.00024834	4.4337e-05	242.74	1.9504e-07	1.2637e-06	436.45	50.34	1.6476e-06	1.5241e-06	127.44	41.527	12.99	5.4399	2.2557e-06	21.293	0.00041161	0.00062788	0.00017824	245.62	6.1962e-06	6.8569e-06	443.54	51.23	6.0311e-06	7.2135e-06	130.07	42.865	13.726	5.7185	6.3949e-06	21.946	-87.168	-74.590	-28.414	-129.252	-32.420	-101.062	-128.670	-124.447	-24.276	96.673	-124.683	-118.443	-119.739	-112.711	-19.506	-113.926	-8191	255	
29483.518	1	1	0	0	0.075999	0.11402	0.16163	0.42957	0.030636	0.14954	0.21772	0.30835	0.2087	0.088284	0.13337	0.19832	0.039746	0.14328	0.23175	0.16563	-2.2313	-2.6042	-2.8417	-2.6312	-2.6229	-2.8542	-2.5333	-2.6667	-2.6625	-2.5062	-2.8292	-2.6417	-2.4271	-2.8542	-2.4979	-2.7562	-2.334	42.991	91.134	-89.795	13.800	187.465	176.767	-33.683	-77.499	27.787	154.635	169.744	116.276	150.334	92.109	-104.902	0.00015249	0.00016082	8.5341e-05	242.76	9.8667e-07	1.5251e-06	437.3	50.189	3.4635e-07	1.6728e-06	127.69	41.441	12.932	5.4936	1.0218e-06	21.446	0.00039908	0.00062264	0.00016953	245.52	6.1345e-06	6.6968e-06	442.09	51.146	5.8682e-06	6.7632e-06	130.13	42.714	13.671	5.7132	5.9803e-06	22.013	-75.534	-53.658	-80.792	-129.187	57.287	37.890	-128.737	-125.070	14.371	32.778	-124.650	-118.507	-119.244	-113.242	1.701	-114.255	-8191	255	
29483.613	1	1	0	0	0.2131	0.089818	0.1004	0.022501	0.10605	0.22232	0.32227	0.13289	0.13863	0.16796	0.17888	0.22294	0.10317	0.11687	0.28576	0.21771	-2.5187	-2.575	-2.8333	-2.6104	-2.5479	-2.7854	-2.7313	-2.6063	-2.7021	-2.6708	-2.7792	-2.6188	-2.5792	-2.8563	-2.6479	-2.8417	52.398	87.136	-126.994	-94.884	67.654	169.065	136.891	58.822	76.082	176.398	-44.391	-112.187	-76.749	72.618	42.252	188.149	0.00015806	0.00028306	4.5641e-05	241.51	2.2912e-06	2.3549e-07	436.26	50.199	1.4371e-06	1.1903e-07	127.94	41.471	12.938	5.5314	1.4896e-06	21.305	0.00039217	0.00059348	0.0001579	244.74	5.9803e-06	6.3851e-06	440.98	51.054	5.6533e-06	6.7945e-06	130.11	42.78	13.634	5.6956	6.0206e-06	22.076	-84.555	-50.169	-50.548	-129.456	35.040	-85.779	-129.333	-124.724	37.440	217.221	-124.449	-118.615	-119.322	-112.909	6.356	-114.191	-8191	255	
29483.707	1	1	0	0	0.0089682	0.28304	0.080182	0.1323	0.19647	0.021033	0.11837	0.16248	0.13425	0.1262	0.22258	0.37681	0.26899	0.12287	0.22574	0.073349	-2.4792	-2.4896	-2.7062	-2.7521	-2.5354	-2.9333	-2.7625	-2.5896	-2.9729	-2.4958	-2.7458	-2.8583	-2.4813	-2.7354	-2.8438	-2.65	98.521	-110.460	-9.925	-101.501	18.641	109.771	160.180	82.936	-0.191	209.644	157.871	200.492	-68.202	-57.919	109.289	69.158	0.00018243	0.00016191	7.0359e-05	243.29	1.05e-06	1.5296e-06	437.64	50.812	1.4763e-06	1.2336e-06	127.48	41.463	13.307	5.4462	1.7273e-06	21.245	0.00040439	0.00062356	0.00016623	246.54	6.0156e-06	6.886e-06	442.4	51.352	5.7112e-06	6.8673e-06	129.86	42.527	13.753	5.6897	5.8958e-06	21.968	-85.393	-67.638	-66.542	-129.008	60.408	20.898	-128.907	-125.224	7.171	35.049	-124.849	-118.658	-119.742	-112.613	-13.544	-114.293	-8191	255	
29483.828	1	1	0	0	0.14231	0.075072	0.19427	0.070016	0.093983	0.10872	0.16954	0.060375	0.19693	0.16636	0.23431	0.24668	0.28321	0.09272	0.32823	0.20829	-2.575	-2.7188	-2.8375	-2.7125	-2.5938	-2.8583	-2.675	-2.6104	-2.7313	-2.7479	-2.5354	-2.9	-2.4688	-2.5896	-2.7167	-2.3229	111.221	156.559	-64.323	174.588	-3.807	179.106	-113.058	128.187	48.676	0.902	61.165	-85.162	36.515	24.140	-41.297	61.045	0.00015454	0.00019236	8.2886e-05	243.65	2.2669e-06	9.5027e-07	435.95	50.37	7.9115e-07	3.4531e-06	127.48	41.356	12.69	5.4204	9.1711e-07	21.342	0.00038444	0.0005764	0.00015725	246.12	5.8659e-06	6.2049e-06	441.68	51.111	5.5413e-06	6.583e-06	129.83	42.539	13.61	5.6563	5.736e-06	21.987	-87.021	-70.943	-44.535	-129.437	-50.945	108.746	-128.879	-124.926	-44.711	54.049	-124.749	-117.794	-118.849	-113.424	64.500	-113.848	-8191	255	
29483.900	1	1	0	0	0.14236	0.20975	0.26625	0.27498	0.21381	0.097035	0.2477	0.31196	0.21653	0.17249	0.16773	0.3146	0.058183	0.2664	0.29426	0.33664	-2.4521	-2.4292	-2.5	-2.9396	-2.4813	-2.775	-2.6063	-2.4938	-2.8271	-2.6646	-2.7396	-2.9458	-2.6437	-2.7208	-2.7396	-2.5438	107.634	64.930	68.896	210.620	198.406	-67.330	-72.979	170.586	-55.052	-66.386	-120.377	171.119	-139.197	91.655	-16.548	-74.867	0.00018206	8.4037e-05	5.8947e-05	242.94	1.6777e-06	5.6454e-07	436.54	49.777	2.4e-06	2.6412e-06	126.77	41.238	13.047	5.4463	2.0449e-06	21.183	0.00038085	0.00055581	0.00015026	244.71	5.7504e-06	6.2477e-06	440.28	50.862	5.6501e-06	6.464e-06	129.54	42.637	13.674	5.665	5.7914e-06	21.948	-87.070	-36.663	-44.190	-129.884	28.539	-62.265	-129.093	-123.984	16.356	21.380	-124.587	-118.309	-119.317	-112.606	52.373	-114.146	-8191	255	
29483.996	1	1	0	0	0.35148	0.2676	0.094861	0.11598	0.20384	0.17245	0.19047	0.092614	0.15837	0.12998	0.28331	0.15465	0.12494	0.094543	0.27364	0.15649	-2.3104	-2.6271	-2.6354	-2.7521	-2.6063	-2.6958	-2.6271	-2.4229	-2.7812	-2.8833	-2.6437	-2.9042	-2.575	-2.7708	-2.9083	-2.4021	154.426	-16.087	28.404	-33.791	126.771	62.359	104.388	50.191	89.021	-88.618	-17.914	56.479	-90.371	45.594	178.953	-113.580	0.00018602	0.0002287	7.5424e-05	241.55	7.4503e-07	1.0421e-06	436.83	49.758	1.372e-06	1.6714e-06	127.13	41.732	13.204	5.6158	1.7193e-06	21.726	0.00038575	0.00057801	0.00015564	243.87	5.5731e-06	6.1596e-06	440.94	50.698	5.2209e-06	5.9415e-06	130.22	43.039	13.776	5.7967	5.455e-06	22.362	-83.640	-60.665	1.827	-129.498	29.012	106.551	-128.666	-124.343	-6.046	32.054	-124.623	-118.814	-119.118	-112.669	7.636	-113.973	-8191	255	
29484.092	1	1	0	0	0.095011	0.17777	0.09032	0.047024	0.145	0.25137	0.11026	0.2224	0.097439	0.073269	0.084903	0.2532	0.11709	0.26304	0.21533	0.1286	-2.3729	-2.6312	-2.6042	-2.7833	-2.5646	-2.6562	-2.7833	-2.5417	-2.7938	-2.5729	-2.5042	-2.7958	-2.5917	-2.4521	-2.75	-2.5812	155.474	-12.472	187.893	-114.075	116.735	208.015	-55.415	161.017	-106.692	145.265	-131.360	-64.640	35.337	166.712	-55.599	185.845	0.00015969	4.3609e-05	8.116e-05	241.83	1.3804e-06	1.8178e-06	439.71	50.585	2.3028e-06	1.5605e-06	128.34	41.063	13.039	5.6148	1.4893e-06	21.593	0.00036975	0.00051738	0.00014649	245.13	5.2501e-06	5.971e-06	442.41	51.262	5.1721e-06	6.1458e-06	130.62	42.937	13.776	5.7855	5.7844e-06	22.174	-80.560	-51.312	-52.405	-129.214	26.089	4.091	-128.737	-124.503	9.023	12.704	-124.614	-118.062	-119.200	-112.930	-24.291	-114.288	-8191	255	
29484.213	1	1	0	0	0.107	0.15546	0.071393	0.024285	0.17714	0.24879	0.22092	0.1077	0.056457	0.10773	0.12582	0.18698	0.2	0.0036855	0.086188	0.27393	-2.5021	-2.7583	-2.4062	-2.7438	-2.7521	-2.6583	-2.8583	-2.4521	-2.7687	-2.7771	-2.4979	-2.6792	-2.6562	-2.5417	-2.8646	-2.5792	29.201	-124.275	23.575	112.798	142.375	114.948	-119.010	61.415	-88.249	150.487	-55.845	-41.134	95.652	-119.334	67.118	195.893	0.00016131	0.00035219	6.7109e-05	241.97	1.232e-06	1.6471e-06	434.86	50.07	9.2131e-07	2.8548e-06	127.55	41.351	13.005	5.4879	7.2259e-07	21.345	0.00035887	0.00054419	0.00015186	244.65	5.4127e-06	6.2393e-06	439.92	51.082	5.1667e-06	6.1751e-06	129.88	42.627	13.635	5.6986	5.7226e-06	21.966	-81.597	-67.460	-13.835	-129.029	-14.079	-0.386	-129.046	-124.784	27.244	20.599	-124.486	-118.452	-119.072	-113.142	45.046	-114.162	-8191	255	
29484.309	1	1	0	0	0.24903	0.13228	0.12709	0.16878	0.032996	0.24436	0.026699	0.35437	0.21614	0.12036	0.16956	0.20032	0.14091	0.019134	0.22058	0.023294	-2.3792	-2.5104	-2.3833	-2.925	-2.6562	-2.4271	-2.7875	-2.5146	-2.6021	-2.4542	-2.4792	-2.9854	-2.8854	-2.5292	-2.8042	-2.4479	6.859	-16.023	-21.874	97.707	197.567	-105.237	79.990	110.544	-17.489	159.300	63.800	-107.012	114.269	-10.630	145.920	-29.106	0.00017557	0.0003142	2.6674e-05	241	2.5738e-06	2.8816e-06	436	49.801	1.917e-06	2.0728e-06	127.12	41.073	12.86	5.5111	3.0617e-06	21.219	0.00036107	0.00057565	0.00016302	244.13	5.6685e-06	6.4842e-06	440	50.943	5.6528e-06	6.7307e-06	129.4	42.642	13.571	5.6911	5.9599e-06	21.943	-78.893	-76.293	6.021	-128.960	23.199	24.323	-128.710	-124.791	17.077	22.991	-124.705	-118.270	-119.815	-112.623	-16.785	-113.605	-8191	255	
29484.404	1	1	0	0	0.261	0.16411	0.25146	0.22368	0.19443	0.24689	0.25232	0.11282	0.041688	0.15748	0.049662	0.1514	0.12779	0.2359	0.11818	0.22542	-2.4292	-2.8458	-2.3458	-2.6875	-2.7333	-2.5917	-2.95	-2.4146	-2.6271	-2.7792	-2.5896	-2.7792	-2.6146	-2.3667	-2.7604	-2.4854	75.401	61.923	155.899	-55.151	-2.768	11.873	50.831	183.226	87.657	16.430	41.330	134.732	209.690	181.280	-28.742	184.088	0.00014867	0.00022183	2.2063e-05	240.41	1.674e-06	2.8849e-06	433.51	49.871	1.0042e-06	2.5762e-06	126.35	41.471	12.93	5.5089	1.189e-06	21.326	0.00037996	0.00056829	0.00016403	243.89	5.4806e-06	6.3449e-06	440.2	50.817	5.7161e-06	6.3364e-06	129.15	42.623	13.552	5.6727	5.8037e-06	21.857	-86.263	-50.260	-27.095	-129.243	8.150	8.325	-128.942	-124.949	62.879	-4.089	-124.920	-118.523	-119.867	-112.895	22.662	-114.321	-8191	255	
29484.502	1	1	0	0	0.1192	0.41494	0.033012	0.17582	0.33945	0.31376	0.27845	0.11599	0.058454	0.2093	0.21053	0.072249	0.22747	0.15485	0.20374	0.17158	-2.1979	-2.8104	-2.6354	-2.8354	-2.8292	-2.5312	-2.8646	-2.7604	-2.6604	-2.9417	-2.5958	-2.6083	-2.7354	-2.3187	-2.8312	-2.8812	139.785	195.664	-72.181	179.586	30.564	98.981	193.945	87.014	-63.815	181.041	172.353	-90.186	77.706	-82.315	40.993	155.968	0.00013227	0.00022804	4.3172e-05	241.09	3.0075e-06	2.4758e-06	434.96	49.629	1.7238e-06	3.3379e-07	127.13	41.535	12.874	5.5457	1.0979e-06	21.458	0.00038764	0.00057703	0.00016502	244.68	5.7061e-06	6.7344e-06	439.92	50.833	5.6446e-06	6.1809e-06	129.09	42.68	13.686	5.7635	5.7337e-06	22.128	-83.927	-55.773	-18.591	-129.135	29.323	-21.228	-129.020	-124.580	17.133	171.383	-124.939	-118.416	-119.494	-112.299	11.529	-114.177	-8191	255	
29484.598	1	1	0	0	0.15177	0.127	0.11285	0.18751	0.17547	0.24635	0.047518	0.26242	0.19133	0.16606	0.029883	0.085635	0.029102	0.17499	0.12221	0.12214	-2.1063	-2.7062	-2.6	-2.7417	-2.7333	-2.5792	-2.8979	-2.9042	-2.55	-2.9667	-2.5333	-2.6813	-2.775	-2.5375	-2.7333	-2.7854	203.200	216.482	78.678	119.301	-7.798	-73.764	78.367	-141.591	189.054	-89.105	206.750	-14.847	152.340	-100.380	-66.943	-133.464	0.00016354	5.4513e-05	4.0355e-05	240.74	1.8341e-06	1.4357e-06	433.79	49.969	3.7814e-07	2.0173e-06	127.8	41.422	13.024	5.4751	1.7327e-06	21.113	0.00038624	0.0005852	0.00015746	244.08	5.5086e-06	6.5555e-06	438.97	50.813	5.4936e-06	6.2759e-06	129.85	42.573	13.669	5.694	5.8247e-06	21.843	-82.953	-49.736	-105.788	-129.506	27.353	-58.318	-129.067	-124.962	89.138	14.952	-124.744	-118.836	-119.274	-112.921	82.721	-114.172	-8191	255	
29484.693	1	1	0	0	0.11584	0.061643	0.16855	0.24856	0.16905	0.14828	0.18943	0.19285	0.34225	0.063742	0.12733	0.128	0.1684	0.24573	0.34013	0.11393	-2.1625	-2.9167	-2.5521	-2.6604	-2.5958	-2.8167	-2.7854	-2.7146	-2.6771	-2.9437	-2.6312	-2.6021	-2.7938	-2.6167	-2.8063	-2.6958	-31.457	77.789	186.466	-7.400	-19.157	62.417	-110.027	5.478	-83.067	106.315	-102.483	-29.353	79.490	117.780	150.704	6.042	0.0001515	0.00018936	4.6718e-05	241.56	2.4433e-06	1.6364e-06	434.98	49.846	5.6853e-07	2.2033e-06	127.81	41.856	13.176	5.5799	1.9017e-06	21.71	0.00039503	0.00060688	0.00016468	243.85	5.9405e-06	6.6968e-06	440.6	50.813	5.6138e-06	6.3189e-06	129.93	43.203	13.844	5.8055	5.2125e-06	22.327	-80.858	-49.343	24.401	-129.169	1.726	3.776	-129.262	-124.806	81.158	-37.887	-124.801	-118.340	-119.140	-113.115	18.000	-114.358	-8191	255	
29484.789	1	1	0	0	0.1119	0.16014	0.14019	0.057711	0.15075	0.22642	0.12978	0.31173	0.12886	0.0839	0.18633	0.11357	0.049409	0.29653	0.086915	0.3658	-2.1521	-2.8333	-2.6646	-2.5833	-2.925	-2.5667	-2.8417	-2.7792	-2.6729	-2.9437	-2.7062	-2.5042	-2.9354	-2.6708	-2.7229	-3.0187	46.068	67.020	167.812	80.769	25.061	-103.062	44.825	-120.356	8.911	175.597	210.669	34.011	48.771	-16.815	-130.883	-103.911	0.0001556	0.00022302	6.4864e-05	239.91	1.0705e-06	2.3106e-06	433.77	50.07	1.8696e-06	2.6062e-06	127.5	41.554	13.383	5.612	2.6765e-06	21.713	0.0003837	0.00052963	0.00014532	242.67	5.5288e-06	5.8654e-06	438.39	50.842	5.2452e-06	6.0866e-06	130.03	43.108	13.925	5.7968	5.6194e-06	22.261	-88.208	-23.549	-41.361	-129.468	-6.606	55.872	-129.255	-124.486	13.198	-39.969	-124.779	-118.662	-119.445	-112.871	29.162	-114.648	-8191	255	
29484.908	1	1	0	0	0.17798	0.23572	0.19624	0.1366	0.19845	0.13477	0.23007	0.22393	0.12254	0.2504	0.094607	0.24984	0.070718	0.21354	0.15809	0.069886	-2.0187	-2.8333	-2.6979	-2.6125	-2.8375	-2.5021	-2.5583	-2.8229	-2.7375	-2.9104	-2.7917	-2.6542	-2.7812	-2.6875	-2.6292	-2.6979	0.253	-51.651	-107.420	106.766	138.236	68.947	196.941	-1.028	-104.083	202.402	51.573	180.444	-94.777	-132.175	24.464	-94.793	0.00017248	0.00025578	4.1502e-05	241.66	5.7649e-07	1.1947e-06	435.15	50.567	1.3102e-06	1.0222e-06	127.82	41.828	13.077	5.5566	2.3798e-06	21.322	0.00038627	0.00052912	0.00015196	243.1	5.4828e-06	6.3734e-06	440	51.136	5.3502e-06	6.0411e-06	130.13	43.094	13.807	5.7708	5.855e-06	22.065	-85.976	-113.844	-21.503	-129.494	153.269	68.764	-129.151	-124.887	28.266	29.558	-125.000	-117.989	-120.196	-113.610	13.990	-114.174	-8191	255	
29485.004	1	1	0	0	0.12574	0.1509	0.38574	0.18636	0.13744	0.18209	0.31731	0.097781	0.2504	0.16394	0.05102	0.041285	0.24692	0.28336	0.3141	0.064455	-2.1063	-2.7958	-2.6312	-2.5333	-2.8208	-2.7229	-2.6979	-2.8542	-2.4437	-2.7354	-2.8208	-2.5167	-2.9604	-2.5563	-2.5646	-3.075	125.270	80.776	-34.655	135.790	-138.402	144.221	188.887	129.582	131.147	146.762	188.032	52.731	96.685	114.026	84.648	199.966	0.00017445	0.00021914	4.198e-05	240.47	2.799e-06	1.2304e-06	433.88	49.717	1.718e-06	7.9452e-07	126.85	41.772	13.115	5.5361	6.0039e-07	21.474	0.00036846	0.00053694	0.0001498	242.81	5.461e-06	5.9852e-06	437.93	50.73	5.3037e-06	5.8003e-06	129.54	43.077	13.803	5.7475	5.8392e-06	22.081	-82.357	-31.579	22.885	-129.208	35.756	40.549	-129.019	-124.598	2.785	-61.726	-124.891	-117.956	-119.144	-112.876	-10.052	-113.910	-8191	255	
29485.102	1	1	0	0	0.21715	0.2576	0.056903	0.060588	0.24167	0.21472	0.17878	0.36896	0.13008	0.16501	0.048153	0.039294	0.33657	0.15327	0.021155	0.22236	-2.3208	-2.65	-2.7375	-2.425	-2.7958	-2.6896	-2.4604	-2.7938	-2.6	-2.5167	-2.8479	-2.7396	-2.7708	-2.75	-2.5708	-2.975	-48.751	-10.764	206.313	-4.017	102.804	70.355	28.798	-94.410	71.975	-95.483	-29.782	30.957	107.688	56.060	123.181	112.659	0.00014768	7.8987e-05	3.2433e-05	238.83	1.1149e-06	1.0077e-06	432.15	49.965	9.049e-07	1.2336e-06	127.26	41.631	13.054	5.5489	1.458e-06	21.509	0.00036861	0.00054747	0.00015125	242.22	5.4694e-06	6.133e-06	437.3	50.663	5.4309e-06	6.4347e-06	129.87	43.043	13.767	5.7509	6.0118e-06	22.179	-85.272	-57.946	-87.580	-129.204	30.591	-12.227	-128.683	-124.752	-77.327	84.342	-124.790	-117.854	-119.186	-113.039	-25.240	-114.431	-8191	255	
29485.197	1	1	0	0	0.23089	0.053747	0.12956	0.16077	0.14548	0.053983	0.11558	0.16076	0.27762	0.10486	0.1525	0.1507	0.14814	0.28717	0.26892	0.1938	-2.3708	-2.7104	-2.7062	-2.6271	-2.6813	-2.7167	-2.6271	-2.8125	-2.725	-2.5854	-3.0333	-2.4146	-2.7938	-2.6792	-2.5167	-2.9042	95.756	-137.053	83.304	172.859	0.305	184.356	-108.334	176.850	-1.567	-116.718	137.578	183.301	59.945	16.965	-18.664	123.153	0.00015787	0.00012804	3.6563e-05	240.51	8.3118e-07	2.4448e-06	436.79	49.611	6.4492e-07	6.4578e-07	126.67	41.676	13.198	5.5211	1.8827e-06	21.629	0.00037882	0.00057128	0.00014993	242	5.3438e-06	6.3028e-06	439.27	50.521	5.2328e-06	6.3371e-06	129.62	42.959	13.786	5.7657	5.7553e-06	22.14	-76.222	-114.463	-1.109	-129.243	81.072	5.528	-129.113	-124.288	-88.506	-20.799	-124.766	-118.424	-119.357	-113.538	-6.682	-114.057	-8191	255	
29485.293	1	1	0	0	0.22653	0.074992	0.093578	0.10916	0.34807	0.12797	0.16924	0.21515	0.14797	0.3134	0.12082	0.20125	0.13352	0.12799	0.20275	0.26199	-1.95	-2.6604	-2.9625	-2.5375	-2.7396	-2.825	-2.7708	-2.7917	-2.5604	-2.6083	-2.9229	-2.7396	-2.6813	-2.6188	-2.6562	-2.775	-69.918	61.716	-31.882	147.266	-27.615	214.028	-85.070	-98.748	-98.718	8.960	165.490	210.506	65.752	-116.372	59.924	149.375	0.0001523	6.0762e-05	5.065e-05	239.6	2.1919e-06	7.0492e-07	434.34	50.596	6.0277e-07	2.3659e-06	128.87	42.161	13.128	5.5694	8.8107e-07	21.671	0.0003742	0.00056035	0.00015457	242.49	5.6169e-06	6.0948e-06	440.58	51.034	5.3502e-06	6.1744e-06	130.39	43.225	13.771	5.7933	5.6159e-06	22.265	-91.256	-46.403	-53.024	-129.355	-64.650	-49.856	-129.125	-124.457	191.447	11.052	-124.719	-118.151	-119.315	-113.114	2.152	-113.895	-8191	255	
29485.389	1	1	0	0	0.12141	0.15479	0.12272	0.17603	0.45866	0.21286	0.19529	0.14689	0.18234	0.14766	0.17873	0.066657	0.20942	0.20631	0.1448	0.18853	-2.2646	-2.5521	-2.9396	-2.5354	-2.5771	-2.65	-2.5229	-2.7812	-2.7042	-2.5896	-2.6958	-2.6562	-2.7167	-2.6042	-2.35	-2.8875	141.726	-27.667	-44.389	138.652	-89.707	160.412	164.777	123.455	-85.085	24.826	98.568	161.411	152.233	81.680	71.152	173.862	0.00016709	0.000189	5.499e-05	239.86	1.3299e-06	1.1684e-06	435.27	49.452	1.3993e-06	2.9015e-06	127.49	41.696	12.965	5.5556	2.8348e-06	21.405	0.00037431	0.00056035	0.00014916	242.18	5.2607e-06	6.1557e-06	439.86	50.817	5.3177e-06	6.5277e-06	130	42.909	13.699	5.7534	5.7197e-06	22.125	-87.934	-81.935	-43.172	-128.829	58.697	-32.091	-128.622	-124.456	38.853	-20.193	-124.545	-118.800	-119.523	-112.824	-6.857	-114.323	-8191	255	
29485.484	1	1	0	0	0.14716	0.074082	0.2032	0.20372	0.19378	0.15318	0.14364	0.3044	0.27775	0.20578	0.15776	0.034734	0.14039	0.17041	0.10748	0.28525	-2.2479	-2.4562	-2.75	-2.6771	-2.6312	-2.8104	-2.5	-2.8729	-2.6188	-2.525	-2.6917	-2.6937	-2.6688	-2.8583	-2.5667	-2.7667	172.981	-39.689	118.467	164.420	-86.440	26.358	127.571	73.223	108.856	-124.414	-65.300	-7.159	125.092	79.499	173.032	-43.157	0.00016804	0.00024699	2.7198e-05	239.35	1.2377e-06	1.8381e-06	435.21	49.351	1.2013e-06	1.2999e-06	127.26	41.578	13.08	5.5837	1.8387e-06	21.49	0.00038427	0.0005611	0.00015143	242.36	5.3993e-06	6.3676e-06	440.2	50.667	5.4379e-06	6.7216e-06	129.75	42.867	13.791	5.7543	5.9623e-06	22.252	-85.090	-85.469	-107.892	-129.102	43.569	18.555	-128.953	-124.829	47.320	120.644	-124.531	-118.611	-119.146	-113.228	15.003	-113.977	-8191	255	
29485.604	1	1	0	0	0.19944	0.1056	0.06979	0.081163	0.054215	0.12684	0.1814	0.11774	0.15891	0.17614	0.41393	0.14482	0.20399	0.051244	0.042259	0.17888	-2.1667	-2.5375	-2.6979	-2.4521	-2.7854	-2.9979	-2.5854	-2.7521	-2.825	-2.5771	-2.8729	-2.5833	-2.6354	-2.9604	-2.6083	-2.6625	125.113	143.532	107.723	43.567	146.772	-23.903	85.885	-15.960	204.743	152.971	28.750	118.886	49.616	-83.403	191.948	189.068	0.00016983	0.00012368	4.8278e-05	239.57	1.7995e-06	2.5622e-06	436.76	50.19	1.5276e-06	1.1189e-06	126.67	42.058	13.225	5.4997	1.1731e-06	21.492	0.00038866	0.00057571	0.0001598	242.47	5.8025e-06	6.4363e-06	440.33	51.018	5.4682e-06	6.4965e-06	130.26	43.225	13.805	5.7015	6.0375e-06	22.072	-84.854	-9.449	-89.596	-129.539	12.029	31.611	-128.904	-124.648	-17.411	-7.318	-124.884	-118.711	-118.907	-112.835	14.707	-114.318	-8191	255	
29485.699	1	1	0	0	0.27661	0.14704	0.14952	0.17938	0.19417	0.15683	0.058269	0.15421	0.25255	0.022559	0.26245	0.1829	0.067824	0.081695	0.11711	0.1511	-2.4792	-2.5354	-2.6354	-2.5854	-2.3563	-2.8438	-2.65	-2.7208	-2.7417	-2.6188	-2.825	-2.6979	-2.475	-2.7125	-2.6271	-2.5646	166.985	130.968	2.339	171.622	-127.875	51.875	81.455	173.412	212.252	27.484	-73.101	-85.646	-48.341	-123.282	46.672	-59.667	0.00015245	0.00023515	3.9626e-05	239.76	1.0844e-06	8.9011e-07	438.6	49.873	1.3122e-06	1.8781e-06	127.04	41.371	13.007	5.5075	1.745e-06	21.422	0.00038818	0.0005833	0.00015971	244.02	5.881e-06	6.1317e-06	442.19	50.962	5.525e-06	6.1861e-06	129.87	42.755	13.741	5.7063	5.778e-06	22.014	-76.599	-47.056	-50.264	-129.073	-5.306	31.565	-129.022	-124.517	16.103	24.971	-124.739	-118.341	-119.918	-113.242	61.342	-114.025	-8191	255	
29485.773	1	1	0	0	0.097614	0.094801	0.068491	0.26534	0.041042	0.11096	0.12206	0.15367	0.20639	0.17544	0.084385	0.18191	0.073577	0.12767	0.16288	0.38285	-2.4333	-2.35	-2.6312	-2.8292	-2.675	-2.9104	-2.7521	-2.3646	-2.8042	-2.7104	-2.9437	-2.8438	-2.6917	-2.8625	-2.8083	-2.7375	156.945	39.219	100.482	88.882	37.389	45.431	90.016	148.190	129.894	151.753	-23.491	-117.218	9.962	62.511	103.014	178.959	0.00016872	0.00020604	6.4212e-05	239.25	1.8181e-06	1.8931e-06	436.18	49.716	1.9618e-06	2.0098e-06	126.93	42.081	13.049	5.5186	1.858e-06	21.466	0.00038832	0.00057042	0.00015164	243.26	5.4828e-06	6.0001e-06	439.3	50.674	5.2138e-06	6.2876e-06	130.04	43.014	13.775	5.7022	5.8981e-06	22.007	-90.015	-59.402	-72.196	-129.645	18.533	31.631	-129.162	-124.257	41.389	8.526	-124.461	-118.242	-118.967	-112.782	3.430	-114.025	-8191	255	
29485.869	1	1	0	0	0.24782	0.18994	0.080655	0.12245	0.37925	0.075659	0.27875	0.077438	0.19061	0.11241	0.097428	0.12212	0.15368	0.033691	0.16724	0.096873	-2.4813	-2.3896	-2.7396	-2.7042	-2.4958	-2.7854	-2.8333	-2.4813	-2.7917	-2.6958	-2.7042	-2.8667	-2.5833	-2.6979	-2.8042	-2.5521	-58.145	1.867	8.456	-99.925	158.886	173.079	118.973	37.917	-53.852	74.382	-36.411	151.313	-138.584	54.019	-27.467	168.194	0.00016214	2.9873e-05	4.1088e-05	240.01	2.2762e-06	1.414e-06	433.3	50.077	1.5537e-06	1.1782e-06	126.66	41.627	12.819	5.5224	1.4095e-06	21.382	0.00037899	0.0005783	0.00016318	243.03	5.6887e-06	6.3242e-06	439.58	50.994	5.4011e-06	6.408e-06	130.09	42.847	13.628	5.6897	5.5028e-06	22.053	-80.001	-74.752	-90.066	-129.681	6.359	-38.576	-128.935	-124.680	-8.376	21.539	-124.411	-118.231	-119.293	-113.028	-44.479	-114.528	-8191	255	
29485.988	1	1	0	0	0.055624	0.16132	0.082536	0.14037	0.057084	0.28398	0.17702	0.12159	0.11983	0.01776	0.034871	0.36857	0.1986	0.071672	0.3524	0.078898	-2.4354	-2.5375	-2.5583	-2.7604	-2.7188	-2.8292	-2.6354	-2.5771	-2.7604	-2.6917	-2.5062	-2.6271	-2.4542	-2.6542	-2.6625	-2.5	22.228	43.321	30.189	73.956	102.910	71.067	-58.790	-139.529	7.348	59.195	3.920	-106.054	100.924	59.532	208.379	136.062	0.00016541	0.0001806	7.1117e-05	241.68	2.0301e-06	2.2889e-06	434.07	49.772	1.8358e-06	2.0632e-06	128.06	41.544	13.055	5.484	1.0762e-06	21.426	0.00038076	0.00056334	0.00016181	244.06	5.5171e-06	6.4907e-06	440.76	50.919	5.525e-06	6.3768e-06	130.28	42.991	13.71	5.6892	5.8247e-06	22.081	-78.523	-62.498	-51.110	-129.283	14.552	45.483	-128.964	-124.346	49.902	-38.605	-124.757	-118.490	-119.140	-113.121	0.700	-114.126	-8191	255	
29486.086	1	1	0	0	0.23172	0.13923	0.14041	0.13309	0.12351	0.18734	0.069176	0.25023	0.13366	0.17739	0.041311	0.038828	0.081372	0.14446	0.16011	0.25242	-2.5958	-2.55	-2.6625	-2.6688	-2.5875	-2.8146	-2.825	-2.3375	-2.9104	-2.8292	-2.5729	-2.7792	-2.4771	-2.6708	-2.7104	-2.5167	26.516	83.527	94.017	116.373	104.664	-41.572	87.148	185.008	28.160	75.506	9.900	168.512	67.137	-133.975	203.575	-23.482	0.00016211	9.1581e-05	4.4865e-05	242.77	2.421e-06	2.4098e-06	437.41	49.691	1.4695e-06	2.6239e-06	127.99	41.933	13.025	5.4806	1.0374e-06	21.599	0.00039118	0.00055765	0.00016887	244.95	5.848e-06	6.3475e-06	442.49	50.972	5.3199e-06	6.3976e-06	130.44	43.162	13.738	5.7111	5.8515e-06	22.195	-81.390	-64.613	-121.479	-129.766	-5.181	-8.943	-128.890	-124.976	16.653	-46.195	-124.812	-117.984	-119.561	-113.061	48.926	-114.196	-8191	255	
29486.182	1	1	0	0	0.21922	0.19018	0.16555	0.24785	0.19359	0.11104	0.062497	0.20833	0.10285	0.26191	0.14713	0.14046	0.11026	0.15304	0.26773	0.046878	-2.4604	-2.7167	-2.5146	-2.575	-2.7021	-2.7042	-2.8417	-2.4458	-2.6688	-2.6625	-2.5458	-2.7146	-2.4646	-2.7438	-2.8563	-2.425	23.397	67.133	173.112	6.593	-96.284	78.602	176.836	67.107	-121.150	-61.571	189.795	212.976	109.905	175.683	-101.438	-84.548	0.00015286	0.00018055	4.7062e-05	241.68	8.802e-07	1.1725e-06	439.28	50.179	1.0423e-06	1.4197e-06	128.88	41.838	13.187	5.5091	2.1259e-06	21.549	0.00038376	0.00058313	0.00016211	244.72	5.7313e-06	6.4395e-06	441.3	51.04	5.4119e-06	6.3189e-06	130.91	43.184	13.757	5.7284	5.5553e-06	22.242	-77.058	-104.345	0.268	-129.212	-5.442	-113.900	-129.002	-124.605	29.194	-40.124	-124.906	-118.587	-119.077	-113.157	28.067	-114.248	-8191	255	
29486.303	1	1	0	0	0.061063	0.19345	0.012968	0.24487	0.15734	0.17759	0.34121	0.19362	0.19439	0.14531	0.26139	0.24456	0.18291	0.11832	0.051647	0.19997	-2.2354	-2.5958	-2.6792	-2.8646	-2.7062	-2.6479	-2.9854	-2.4562	-2.7313	-2.8646	-2.5167	-2.6229	-2.5167	-2.4458	-2.8063	-2.5312	3.112	-125.230	168.584	55.617	-82.523	-79.914	112.350	4.832	-103.589	125.007	179.716	61.556	65.064	-76.243	-121.275	-87.193	0.00014026	0.00011361	3.3375e-05	243.03	2.1311e-06	3.6469e-06	435.89	49.986	6.2031e-07	3.242e-06	127.72	42.093	13.299	5.5138	2.7482e-06	21.735	0.00038558	0.00056518	0.00015913	243.78	5.7049e-06	6.435e-06	440.65	51.029	5.5878e-06	6.395e-06	130.32	43.194	13.881	5.752	5.7559e-06	22.288	-82.989	-102.081	-63.248	-129.247	-59.832	7.516	-128.955	-124.450	52.155	40.716	-124.805	-118.354	-119.446	-113.256	16.366	-114.288	-8191	255	
29486.373	1	1	0	0	0.26783	0.16704	0.11747	0.19139	0.041406	0.30199	0.30163	0.1689	0.20847	0.080485	0.2294	0.21726	0.083531	0.16029	0.19862	0.019549	-2.3542	-2.5042	-2.4854	-2.9771	-2.5667	-2.5083	-2.9688	-2.5542	-2.6896	-2.8542	-2.6958	-2.7354	-2.6958	-2.45	-2.7375	-2.7104	-26.911	-44.755	53.669	129.344	98.342	-78.896	35.260	147.907	139.101	93.310	57.286	-120.498	85.379	173.090	146.016	108.627	0.00016325	0.00017016	3.4912e-05	241.99	3.3752e-07	1.5243e-06	436.08	50.598	2.1407e-06	6.5428e-07	129.81	42.44	12.981	5.5839	1.8407e-06	21.826	0.00037092	0.00057295	0.00015727	243.53	5.5844e-06	6.2704e-06	441.12	51.26	5.6035e-06	6.0827e-06	131.72	43.697	13.848	5.8291	5.7716e-06	22.559	-82.423	-77.697	-23.369	-129.273	133.565	61.731	-129.016	-124.782	-6.614	-113.762	-124.629	-118.473	-119.181	-112.903	21.737	-113.968	-8191	255	
29486.469	1	1	0	0	0.36636	0.18262	0.23589	0.14953	0.22518	0.083196	0.13562	0.15131	0.21125	0.073405	0.18132	0.1279	0.23643	0.1856	0.3022	0.1362	-2.1396	-2.8937	-2.5771	-2.8167	-2.6667	-2.5958	-2.8	-2.5667	-2.7083	-2.9458	-2.5729	-2.7146	-2.7458	-2.3417	-2.9188	-2.7917	-138.357	-52.265	84.694	54.717	192.053	5.944	-140.245	201.657	146.723	145.410	54.022	-84.514	-60.269	-61.496	-27.035	111.741	0.00014418	0.00015188	5.8297e-05	241.98	1.409e-06	1.8429e-06	438.48	50.235	1.0733e-06	2.9926e-06	128.91	42.356	13.102	5.5215	1.1704e-06	21.516	0.00038852	0.00057651	0.00015647	244.19	5.5451e-06	6.7247e-06	443.2	51.415	5.4763e-06	6.2642e-06	131.22	43.394	13.837	5.7869	5.9209e-06	22.241	-88.379	-23.686	-31.382	-129.386	-20.534	24.317	-128.847	-124.549	-9.422	2.730	-124.991	-118.196	-118.726	-112.593	75.512	-114.192	-8191	255	
29486.590	1	1	0	0	0.16694	0.17182	0.16062	0.21654	0.45005	0.29783	0.11923	0.19085	0.31358	0.1654	0.27904	0.15334	0.18518	0.1605	0.0492	0.21448	-2.0687	-3.0104	-2.4229	-2.5771	-2.7792	-2.6333	-3.0021	-2.4625	-2.6958	-2.8167	-2.5208	-2.5396	-2.9354	-2.4083	-2.7771	-2.6604	186.998	184.267	-22.341	3.237	48.678	-69.648	78.002	208.556	214.005	70.412	144.831	-104.074	131.601	105.769	9.437	152.617	0.00017391	0.00022907	5.2841e-05	243.01	1.8467e-06	1.2527e-06	435.16	50.302	1.8585e-06	8.716e-07	128.58	41.135	12.991	5.3972	1.1736e-06	21.248	0.00040151	0.00059003	0.00016466	244.52	5.8777e-06	6.54e-06	441.37	51.09	5.6831e-06	6.7548e-06	130.6	42.707	13.68	5.6538	5.8503e-06	21.916	-80.449	-47.961	-89.695	-128.869	96.290	57.582	-129.397	-125.010	25.094	11.371	-124.707	-118.293	-119.141	-112.564	186.111	-114.337	-8191	255	
29486.686	1	1	0	0	0.34815	0.10033	0.28623	0.067293	0.16608	0.12894	0.13355	0.32767	0.10613	0.24075	0.14173	0.11748	0.14431	0.1877	0.20302	0.30814	-1.95	-2.9083	-2.5	-2.5667	-2.8125	-2.3688	-2.8729	-2.6063	-2.5667	-2.8646	-2.6542	-2.5812	-2.8458	-2.4833	-2.8479	-2.6958	185.313	-78.452	104.580	-93.337	49.600	-131.942	150.271	179.375	187.032	117.125	154.790	195.947	141.730	103.711	-32.142	214.915	0.0001599	0.00013712	6.7617e-05	241.15	3.8832e-07	1.3497e-06	433.97	50.101	1.9372e-06	1.6105e-06	128.59	41.372	13.028	5.4053	1.1714e-06	21.389	0.00040045	0.00057807	0.00015991	244.56	5.8766e-06	6.5458e-06	440.79	51.094	5.7859e-06	6.4386e-06	130.46	42.822	13.642	5.6782	6.0281e-06	22.043	-80.630	-53.611	1.554	-129.581	-48.544	74.024	-128.992	-124.951	-18.855	11.180	-124.946	-118.640	-119.271	-113.394	106.025	-114.343	-8191	255	
29486.781	1	1	0	0	0.1952	0.22447	0.14575	0.20727	0.040244	0.17768	0.23014	0.19199	0.094682	0.17135	0.19443	0.22089	0.070728	0.27363	0.06638	0.076905	-2.0292	-2.8208	-2.6896	-2.725	-2.8479	-2.5938	-2.7313	-2.8042	-2.5646	-2.8583	-2.6375	-2.55	-2.8104	-2.5187	-2.9521	-2.8812	205.441	139.137	117.947	-132.663	-83.283	37.154	139.127	-111.947	-74.252	59.603	116.070	110.332	197.248	122.183	193.090	-103.465	0.00015305	0.00010883	7.1118e-05	241.89	2.9187e-06	1.1255e-06	436.06	50.213	9.9781e-07	1.8086e-06	127.88	41.847	13.104	5.5696	1.2428e-06	21.521	0.00039959	0.00058669	0.00016777	244.49	5.9192e-06	6.6501e-06	441.95	50.984	5.9364e-06	6.801e-06	130.35	43.101	13.778	5.724	6.0515e-06	22.217	-83.910	-76.374	-46.982	-129.718	36.359	8.307	-128.773	-124.617	83.954	-14.929	-124.316	-118.154	-118.330	-112.719	-48.751	-114.103	-8191	255	
29486.900	1	1	0	0	0.13768	0.13022	0.3583	0.26934	0.087239	0.075367	0.099076	0.17961	0.16097	0.13124	0.28412	0.22084	0.081212	0.07254	0.10105	0.094934	-2.0854	-2.4021	-2.5896	-2.7646	-2.8438	-2.6312	-2.7812	-2.8667	-2.6021	-2.7979	-2.5271	-2.5583	-2.8563	-2.5042	-2.7521	-2.9354	23.509	57.147	161.829	171.440	195.387	158.667	-109.388	211.825	-120.036	196.482	84.923	40.896	12.531	143.827	151.064	-0.680	0.00015817	0.00013889	4.5081e-05	243.91	2.0527e-06	7.2349e-07	439.69	50.739	3.3713e-06	2.1445e-06	128.43	41.991	13.094	5.492	2.6988e-06	21.505	0.00040076	0.00059526	0.00016404	245.49	6.0555e-06	6.4505e-06	443.78	51.606	5.6685e-06	6.4614e-06	130.84	43.249	13.829	5.7317	6.0293e-06	22.141	-88.009	27.853	-81.819	-129.258	28.956	-24.659	-129.070	-124.199	17.633	49.274	-124.770	-118.299	-119.794	-113.471	7.352	-114.178	-8191	255	
29486.996	1	1	0	0	0.070813	0.24202	0.28052	0.10034	0.21886	0.10101	0.19924	0.085957	0.33445	0.20371	0.15406	0.15377	0.20557	0.13218	0.089168	0.16238	-2.0708	-2.8854	-2.8563	-2.5187	-3.0229	-2.8958	-2.8333	-2.9813	-2.5604	-2.9021	-2.8271	-2.5687	-2.675	-2.7208	-2.6813	-3.0771	-52.190	75.969	-13.254	47.104	-84.897	-126.177	135.275	141.294	-95.527	65.773	-40.003	126.640	93.062	41.473	-136.273	26.314	0.00015373	0.00021076	6.3898e-05	242.59	1.1405e-06	9.1252e-07	437.62	50.743	7.5193e-07	1.0122e-06	128.38	42.171	13.307	5.5169	7.8224e-07	21.395	0.00039352	0.00056541	0.00016658	245.05	5.8188e-06	6.8031e-06	442.65	51.618	5.7902e-06	6.6351e-06	131.05	43.344	13.836	5.7705	6.5307e-06	22.096	-82.760	-2.198	-49.360	-129.308	7.666	35.820	-129.028	-124.622	-9.467	-55.558	-124.837	-118.207	-118.618	-113.331	-29.579	-114.220	-8191	255	
29487.068	1	1	0	0	0.053158	0.13694	0.043352	0.052934	0.054828	0.15858	0.16876	0.25593	0.23666	0.16806	0.062957	0.33084	0.072754	0.1524	0.15451	0.19837	-2.0854	-2.8396	-2.7521	-2.5083	-2.9854	-2.7313	-2.7167	-2.8021	-2.525	-2.7125	-2.8417	-2.4854	-2.6833	-2.7792	-2.7521	-2.8417	-121.815	-17.543	6.794	-49.833	45.490	123.837	158.961	-113.158	172.754	45.254	-75.420	160.935	75.875	-82.865	171.906	30.009	0.00016327	9.1301e-05	4.7002e-05	242.12	8.7481e-08	1.7036e-06	436.45	50.481	6.6503e-07	7.8577e-07	129.52	42.016	12.942	5.5016	1.9802e-06	21.457	0.00040273	0.00062471	0.00017647	245.42	6.2293e-06	7.1336e-06	442.68	51.567	5.9456e-06	7.1152e-06	131.14	43.29	13.797	5.7515	6.4549e-06	22.238	-91.232	-99.941	-71.771	-129.384	-65.291	-33.597	-128.981	-125.079	64.508	-30.475	-124.869	-118.661	-119.812	-112.898	18.435	-113.866	-8191	255	
29487.164	1	1	0	0	0.36162	0.31847	0.35923	0.24442	0.10016	0.1315	0.10383	0.094851	0.098614	0.096192	0.087843	0.2749	0.17197	0.14177	0.23496	0.14614	-2.2667	-2.7417	-2.7667	-2.4292	-2.8396	-2.8021	-2.6771	-2.7333	-2.6	-2.5729	-2.8229	-2.5938	-2.9	-2.5979	-2.5208	-3.0125	184.660	8.071	-16.397	176.095	-90.180	-71.722	35.322	33.602	146.151	175.274	-43.627	-25.092	-49.409	60.982	80.054	5.957	0.00018355	0.00030735	2.0153e-05	242.43	1.9148e-06	1.3565e-07	439.98	50.226	1.566e-06	2.4259e-06	127.77	42.051	13.254	5.544	1.4749e-06	21.792	0.00041928	0.00060309	0.00016667	243.95	5.8351e-06	6.7013e-06	443.45	51.267	5.9023e-06	6.6383e-06	130.85	43.508	13.944	5.7743	5.9774e-06	22.403	-85.982	-48.018	-135.098	-129.308	40.278	-47.954	-129.234	-124.817	12.370	4.644	-124.638	-118.537	-119.171	-113.686	26.811	-114.267	-8191	255	
29487.285	1	1	0	0	0.15875	0.098347	0.12843	0.1659	0.083915	0.20189	0.16683	0.14988	0.075401	0.13187	0.09273	0.25634	0.2346	0.091832	0.061369	0.14291	-2.2333	-2.6417	-2.8563	-2.5979	-2.8896	-2.8812	-2.4708	-2.7667	-2.6479	-2.6688	-2.8125	-2.4396	-2.6479	-2.7208	-2.5833	-2.8	50.099	37.087	-12.255	133.284	82.797	95.667	-79.871	27.331	99.053	35.817	183.817	105.315	-45.407	159.640	-124.768	123.858	0.0001482	3.69e-05	4.879e-05	241.48	1.5545e-06	8.2053e-07	439.54	50.208	8.5131e-07	6.3755e-07	129.56	42.671	13.297	5.583	2.6886e-06	21.928	0.00039003	0.00057151	0.00016082	243.92	5.8923e-06	6.6981e-06	443.62	51.444	5.7718e-06	6.8836e-06	131.41	43.708	13.99	5.8458	6.0882e-06	22.443	-88.185	-97.474	-39.824	-129.492	48.213	43.136	-129.042	-124.898	21.306	-9.666	-124.532	-118.474	-119.474	-112.913	-11.134	-114.039	-8191	255	
29487.383	1	1	0	0	0.18439	0.066292	0.14446	0.11956	0.12114	0.17872	0.076842	0.19446	0.15587	0.1	0.15829	0.17502	0.034832	0.28988	0.24378	0.27017	-2.1521	-2.5208	-2.7646	-2.5271	-2.6771	-2.925	-2.5896	-2.85	-2.8292	-2.6708	-2.9375	-2.7146	-2.7229	-2.9	-2.5104	-2.8771	-116.337	132.637	42.444	-101.433	151.265	139.568	-112.822	-134.904	-9.057	63.306	141.731	-86.881	-28.789	-68.355	102.298	187.369	0.00016555	0.00016693	1.3136e-05	241.67	1.8004e-06	2.3318e-06	434.38	50.283	1.0837e-06	9.7165e-07	128.5	42.011	13.187	5.6095	1.4687e-06	21.703	0.00040855	0.00060602	0.00016628	244.22	6.0442e-06	6.4564e-06	440.65	51.242	5.7518e-06	6.8277e-06	130.71	43.478	13.943	5.8347	5.9698e-06	22.429	-85.634	14.913	-68.311	-129.281	63.054	15.091	-129.230	-124.298	73.093	51.512	-124.303	-118.144	-119.394	-113.930	6.867	-113.921	-8191	255	
29487.479	1	1	0	0	0.17804	0.081698	0.15806	0.22157	0.13937	0.079414	0.29026	0.14972	0.27743	0.23785	0.23974	0.054324	0.10339	0.21985	0.18897	0.11615	-2.2562	-2.3958	-2.5958	-2.6188	-2.5708	-2.9875	-2.5208	-2.7979	-2.7021	-2.5021	-2.9292	-2.7833	-2.7417	-2.6125	-2.75	-2.7729	31.105	117.755	55.242	134.217	138.154	61.106	60.641	-65.927	-3.128	-126.278	137.619	-117.861	109.488	39.161	-12.418	-18.886	0.00016848	0.00014824	3.1899e-05	239.79	2.5339e-06	3.3581e-07	434.94	50.076	6.2182e-07	9.5452e-07	128.99	42.272	13.413	5.5561	1.2562e-06	21.747	0.00038621	0.00059469	0.00016538	242.79	6.1334e-06	6.6287e-06	441.07	51.282	5.9781e-06	7.2584e-06	130.89	43.504	13.916	5.7957	6.2754e-06	22.434	-84.630	45.676	-26.931	-129.037	13.079	55.372	-129.102	-124.699	110.382	18.352	-124.606	-117.857	-118.948	-113.012	1.266	-114.176	-8191	255	
29487.574	1	1	0	0	0.015415	0.094049	0.14609	0.094339	0.088919	0.21935	0.13744	0.066488	0.23402	0.098745	0.28627	0.16808	0.22153	0.14917	0.32458	0.15629	-2.4354	-2.5729	-2.8333	-2.5042	-2.6646	-2.8917	-2.625	-2.7667	-2.8937	-2.5062	-2.7333	-2.7979	-2.6792	-2.9062	-2.7313	-2.8375	149.004	160.483	41.420	-94.121	-46.840	-82.951	183.071	-95.476	97.440	175.986	132.356	-80.903	117.376	200.543	131.680	198.266	0.00019615	0.00020692	6.435e-05	240.46	1.3121e-06	9.4339e-07	437.96	50.229	1.3417e-06	2.1241e-06	128.45	42.605	13.135	5.6443	1.1807e-06	21.822	0.00041386	0.00060861	0.000162	243.67	6.0325e-06	6.595e-06	442.85	51.283	5.6706e-06	6.8628e-06	131.26	43.724	13.854	5.8495	6.0625e-06	22.468	-82.995	-76.376	-62.161	-129.351	34.632	-15.138	-128.983	-124.553	55.787	-0.118	-124.793	-118.777	-120.260	-113.007	-34.323	-114.012	-8191	255	
29487.670	1	1	0	0	0.20841	0.2603	0.11562	0.18323	0.17166	0.23408	0.11218	0.2274	0.031092	0.13352	0.088085	0.089897	0.14422	0.077835	0.027834	0.29717	-2.3708	-2.5104	-2.7896	-2.7562	-2.6958	-2.875	-2.6646	-2.4896	-2.6667	-2.4188	-2.7833	-2.8063	-2.4896	-2.7604	-2.6208	-2.5479	89.243	-69.204	188.593	146.891	171.908	73.724	-93.276	211.070	141.892	-76.422	111.477	62.075	-119.997	-71.328	116.545	-27.017	0.00016345	0.00022745	7.5115e-05	241.69	1.1432e-06	9.5105e-07	439.99	50.577	2.2242e-06	2.6837e-06	129.18	42.327	13.197	5.5435	2.3348e-06	21.721	0.00039431	0.00057111	0.000162	243.65	6.0538e-06	6.597e-06	443.51	51.237	5.8828e-06	6.7229e-06	131.29	43.547	13.914	5.7727	6.094e-06	22.455	-82.475	-74.996	-38.878	-129.357	5.593	10.033	-129.103	-124.670	91.416	22.796	-124.372	-118.461	-119.911	-112.906	11.357	-114.012	-8191	255	
29487.768	1	1	0	0	0.18088	0.11135	0.36814	0.13857	0.14302	0.22164	0.15316	0.10157	0.089277	0.14178	0.12195	0.11379	0.21489	0.13607	0.30203	0.15033	-2.3021	-2.4229	-2.6708	-2.9229	-2.5417	-2.8187	-2.7	-2.4917	-2.825	-2.5229	-2.9583	-2.7479	-2.4	-2.7708	-2.7396	-2.7687	3.904	127.332	199.501	157.828	44.216	-119.691	64.240	66.568	50.625	61.543	183.399	85.773	139.975	187.032	-135.370	188.374	0.00015318	0.00017352	9.8203e-05	242.21	1.694e-06	4.1787e-07	436.08	50.544	1.0542e-06	2.4258e-06	129.02	42.158	13.193	5.6584	2.1104e-06	22.007	0.00040073	0.0005894	0.0001602	244.7	6.0409e-06	6.6644e-06	441.72	51.22	5.6971e-06	6.5804e-06	131.37	43.615	13.883	5.8548	6.0532e-06	22.539	-95.500	-8.140	-59.333	-129.032	106.665	-11.412	-128.829	-124.685	-4.077	24.071	-124.694	-118.218	-119.096	-113.266	29.356	-114.177	-8191	255	
29487.863	1	1	0	0	0.19135	0.2662	0.19342	0.21294	0.15367	0.059757	0.15259	0.16544	0.12746	0.14752	0.19752	0.0675	0.1052	0.08048	0.06649	0.17506	-2.3375	-2.6292	-2.6813	-2.8521	-2.6937	-2.9667	-2.6458	-2.5021	-2.9021	-2.5708	-2.6396	-2.9125	-2.5042	-2.7479	-2.8417	-2.6417	30.285	78.519	61.893	147.538	-43.041	-1.794	54.285	-87.884	180.798	194.497	90.690	160.343	147.665	-4.218	-75.252	156.206	0.00017591	2.4352e-05	3.7708e-05	241.09	1.6197e-06	2.3167e-06	435.73	50.452	1.1642e-06	2.4478e-06	128.26	42.389	13.241	5.6573	1.5808e-06	21.805	0.00040307	0.00063674	0.00016229	243.94	5.9786e-06	6.6287e-06	441.76	51.188	5.8135e-06	7.0105e-06	131.02	43.591	13.948	5.867	6.027e-06	22.613	-85.963	59.894	-37.612	-129.266	10.618	-19.408	-128.864	-124.290	-41.458	-4.479	-124.718	-118.297	-119.229	-113.233	6.893	-114.116	-8191	255	
29487.982	1	1	0	0	0.26222	0.22225	0.081794	0.076519	0.19037	0.067125	0.30054	0.1867	0.17088	0.15694	0.19285	0.20558	0.20072	0.31	0.18011	0.15435	-2.4833	-2.6396	-2.5271	-2.7687	-2.6396	-2.9688	-2.8479	-2.5021	-2.8396	-2.6646	-2.5438	-2.9479	-2.3875	-2.8833	-2.6229	-2.5083	194.624	103.463	139.773	201.289	-58.202	-111.819	58.260	155.159	100.925	-38.549	12.606	200.157	-81.092	-131.123	-107.523	114.289	0.00016514	0.00014792	7.3136e-05	242.25	1.1809e-06	8.3737e-07	437.26	49.97	1.2852e-06	1.8136e-06	129.65	42.223	12.987	5.5871	9.2109e-07	21.898	0.00040864	0.00061971	0.00016591	244.2	6.277e-06	6.9508e-06	443.12	51.242	5.918e-06	6.8543e-06	131.59	43.669	13.842	5.8325	5.9669e-06	22.601	-78.238	-35.490	-50.876	-129.150	11.563	35.090	-128.995	-124.227	-2.972	-29.012	-124.666	-118.117	-119.436	-113.478	17.394	-114.190	-8191	255	
29488.078	1	1	0	0	0.23076	0.21857	0.18232	0.26043	0.37752	0.09243	0.12266	0.089157	0.055903	0.092388	0.21786	0.11392	0.065043	0.23482	0.25863	0.21731	-2.4146	-2.5333	-2.5729	-2.9208	-2.5875	-2.7125	-2.6854	-2.6375	-2.85	-2.5938	-2.7188	-2.9125	-2.4021	-2.7354	-2.8	-2.6292	5.294	181.327	-5.302	-96.526	-112.378	52.956	56.866	62.048	102.714	-8.348	211.722	205.250	77.357	18.905	-138.729	188.532	0.00017056	0.00020052	5.3344e-05	239.42	3.7e-06	7.0952e-07	437.96	50.052	6.4189e-07	1.4785e-06	128.4	42.839	13.124	5.5489	1.6538e-06	21.563	0.00040042	0.00061804	0.00016562	243.67	6.0482e-06	6.9683e-06	443.38	51.41	5.8406e-06	6.6676e-06	131.54	43.862	13.938	5.8051	6.1535e-06	22.345	-88.555	-84.322	-73.269	-129.384	97.821	33.721	-128.922	-124.676	31.416	70.406	-124.796	-118.432	-119.544	-112.583	-32.520	-114.294	-8191	255	
29488.174	1	1	0	0	0.064887	0.12386	0.13949	0.067908	0.28303	0.19587	0.20798	0.26576	0.12347	0.13273	0.16518	0.16434	0.17721	0.10352	0.29323	0.089884	-2.4104	-2.6562	-2.6042	-2.6917	-2.4333	-2.7125	-2.8646	-2.5729	-2.7438	-2.7896	-2.4958	-2.6896	-2.6354	-2.625	-2.8021	-2.5792	99.233	198.015	-70.171	130.111	-58.062	186.441	-106.726	-3.506	-45.396	98.844	-92.613	-86.630	12.221	48.170	60.286	135.741	0.0001716	0.00020099	5.6371e-05	242.23	9.1244e-07	2.3113e-06	435.36	50.904	1.8829e-06	2.896e-06	129.44	42.483	13.276	5.5474	2.1331e-06	21.847	0.00039523	0.00060188	0.0001694	244.95	6.3785e-06	7.1161e-06	443.18	51.668	6.2839e-06	7.22e-06	131.2	43.681	13.954	5.8391	6.1168e-06	22.622	-82.405	-41.118	-13.912	-128.965	80.794	74.229	-129.119	-124.671	-14.288	-32.692	-124.164	-117.800	-119.081	-113.210	-2.216	-114.581	-8191	255	
29488.270	1	1	0	0	0.1879	0.16557	0.043297	0.10953	0.028752	0.18466	0.25842	0.34061	0.064949	0.16061	0.12972	0.10006	0.4622	0.21476	0.066541	0.075726	-2.4521	-2.6708	-2.6312	-2.8958	-2.6625	-2.7625	-2.8438	-2.4979	-2.8896	-2.7625	-2.4437	-2.7438	-2.45	-2.5958	-2.8083	-2.6083	49.209	-126.571	-112.561	-19.403	-106.391	9.599	208.034	148.774	-66.684	-24.555	-35.502	-88.442	-99.375	166.888	53.780	-125.438	0.00017233	0.00010671	8.5334e-06	241.56	6.9494e-07	6.768e-07	438.36	50.054	1.7112e-06	2.7024e-06	129.21	42.3	13.152	5.6198	1.1491e-06	21.597	0.0004085	0.00061988	0.00017123	244.47	6.2518e-06	7.1115e-06	443.31	51.389	6.1458e-06	6.9578e-06	131.66	43.541	13.894	5.838	6.3552e-06	22.431	-87.444	-56.195	-56.054	-129.192	-117.016	5.210	-128.702	-124.606	22.827	-17.588	-124.839	-118.641	-119.654	-112.535	47.557	-114.045	-8191	255	
29488.365	1	1	0	0	0.042178	0.21093	0.075173	0.20503	0.28482	0.1017	0.18114	0.2484	0.26245	0.25918	0.1256	0.13876	0.23019	0.024296	0.41148	0.15803	-2.2792	-2.7146	-2.6833	-2.6937	-2.6437	-2.525	-2.8042	-2.4437	-2.6083	-2.7188	-2.5792	-2.9062	-2.5542	-2.6458	-2.9125	-2.5958	14.593	198.957	-72.870	-91.829	-16.220	-83.589	96.828	82.408	-84.505	-11.328	-56.438	57.601	-20.640	-118.367	-80.699	-73.627	0.00016272	8.6054e-05	6.4618e-05	242.08	1.1545e-06	1.7327e-06	435.74	50.116	6.3221e-07	3.6019e-06	128.06	41.978	13.336	5.5863	3.4406e-07	21.844	0.00041746	0.00064007	0.00017103	244.57	6.4183e-06	7.1478e-06	442.73	51.383	6.2254e-06	7.2961e-06	131.18	43.406	13.858	5.7816	6.21e-06	22.436	-86.503	-36.022	-93.504	-129.301	69.222	19.291	-129.094	-124.597	33.229	-28.012	-124.302	-118.283	-119.376	-113.031	-27.733	-114.270	-8191	255	
29488.463	1	1	0	0	0.12952	0.079492	0.14473	0.16926	0.17168	0.25692	0.23002	0.15056	0.073319	0.31497	0.10663	0.2505	0.18477	0.15435	0.16186	0.13731	-2.2896	-2.7396	-2.5563	-2.9479	-2.8	-2.6312	-3.0646	-2.7333	-2.7229	-2.8917	-2.7021	-2.8875	-2.4562	-2.5771	-2.8396	-2.6417	-131.216	23.801	-131.647	142.000	-19.279	58.124	205.824	167.324	-61.555	-16.433	-61.027	142.142	17.977	167.427	209.092	79.677	0.00016654	8.3237e-05	4.3645e-05	241.11	5.4494e-07	2.4373e-06	442.42	50.787	1.1962e-07	2.577e-06	129.36	42.047	13.286	5.5847	1.2355e-06	21.635	0.00041865	0.00064858	0.00018423	245.2	6.7885e-06	7.4829e-06	445.87	51.874	6.7612e-06	7.721e-06	132.44	43.433	13.987	5.7907	7.0683e-06	22.306	-81.867	-48.690	-41.440	-128.922	-0.153	-39.458	-129.144	-124.741	-58.891	39.168	-124.592	-117.949	-119.668	-113.560	27.141	-114.072	-8191	255	
29488.582	1	1	0	0	0.144	0.056886	0.018487	0.30288	0.081027	0.14222	0.26531	0.18509	0.071948	0.10197	0.10261	0.24842	0.17177	0.088044	0.10236	0.16689	-2.2354	-2.9958	-2.4313	-2.6708	-2.7958	-2.7292	-2.8229	-2.7167	-2.5354	-2.8083	-2.7146	-2.9125	-2.725	-2.6125	-2.8187	-2.6021	105.705	160.699	207.331	-43.360	166.840	89.445	190.176	-63.619	145.143	40.452	-89.341	-114.588	102.542	154.206	105.046	-65.613	0.00015552	0.00023324	4.7964e-05	242.52	1.0202e-06	1.9564e-06	439.46	50.481	3.1001e-07	1.5927e-06	128.78	41.705	13.049	5.5057	5.5817e-07	21.501	0.00042684	0.00064968	0.00018806	246.83	6.6774e-06	7.4492e-06	445.65	51.771	6.3748e-06	7.8869e-06	131.55	43.188	13.824	5.6943	7.1429e-06	22.15	-86.102	-69.607	-113.192	-129.265	11.321	43.332	-128.954	-125.012	196.780	76.832	-125.001	-118.724	-119.293	-113.024	177.041	-114.309	-8191	255	
29488.680	1	1	0	0	0.050694	0.15215	0.27522	0.23545	0.15807	0.25845	0.17542	0.15192	0.15953	0.061792	0.17067	0.31561	0.063784	0.26903	0.12776	0.098539	-2.2438	-2.8563	-2.7167	-2.6958	-2.8083	-2.4896	-2.8187	-2.6354	-2.5521	-3.0396	-2.5625	-2.6688	-2.8979	-2.4813	-2.8208	-2.6375	166.558	-72.428	29.553	170.666	20.673	201.718	136.664	173.387	14.404	22.967	94.408	186.088	189.694	-80.155	-127.436	-72.114	0.00015436	0.00019281	8.8584e-05	243.56	3.4299e-06	3.2538e-06	440.02	51.069	2.2356e-06	2.0145e-06	128.97	41.768	13.123	5.568	2.3644e-06	21.451	0.00044553	0.0006908	0.00019555	246.26	6.7498e-06	7.7181e-06	445.79	51.926	6.4912e-06	7.6611e-06	131.7	43.387	13.841	5.7618	7.0397e-06	22.246	-79.356	-85.022	-12.499	-129.074	54.859	-21.098	-128.864	-124.848	39.210	6.447	-124.495	-118.450	-119.379	-113.111	-12.455	-114.115	-8191	255	
29488.773	1	1	0	0	0.037566	0.21764	0.027555	0.017221	0.20512	0.12184	0.17995	0.10663	0.022788	0.2149	0.18837	0.079446	0.18659	0.15849	0.36146	0.39626	-1.9583	-2.8438	-2.5896	-2.6083	-2.9333	-2.5083	-2.8375	-2.5083	-2.5625	-2.8396	-2.6604	-2.6667	-2.7479	-2.4521	-2.825	-2.9188	-39.171	193.799	-135.134	-108.739	67.503	106.560	-96.630	15.322	31.787	6.261	64.502	-138.389	-14.636	-87.243	-90.015	105.078	0.00017242	9.8786e-05	1.7046e-05	244.5	1.231e-06	1.786e-06	440.52	50.279	1.1858e-06	1.0367e-06	128.35	41.964	12.926	5.4352	9.0362e-07	21.435	0.00045221	0.00068476	0.00019153	246.34	6.7919e-06	7.908e-06	446.47	51.545	7.0443e-06	7.9337e-06	131.4	43.122	13.747	5.6713	7.5091e-06	22.052	-78.514	-58.130	-18.539	-129.152	-12.858	-28.313	-129.037	-124.464	63.936	32.722	-124.583	-118.709	-119.808	-113.315	-61.643	-114.225	-8191	255	
29488.869	1	1	0	0	0.082139	0.17906	0.10024	0.10189	0.38645	0.10742	0.1469	0.056838	0.046069	0.1035	0.22539	0.040419	0.26189	0.068861	0.32827	0.21474	-2.25	-2.6354	-2.4833	-2.4979	-2.8979	-2.625	-2.5938	-2.7521	-2.55	-2.8375	-2.6708	-2.7062	-2.8	-2.4667	-2.7438	-2.7708	-2.632	156.960	170.557	160.112	104.931	-82.414	-21.106	91.986	-10.835	202.227	-71.273	-122.286	164.531	142.174	-24.142	149.173	0.0001555	1.4729e-05	2.7155e-05	244.59	2.5813e-06	3.0931e-06	440.91	50.871	7.0337e-07	1.378e-06	130.24	41.817	13.224	5.4206	1.233e-06	21.147	0.00045738	0.00071151	0.00020337	246.59	7.1143e-06	7.8244e-06	447.33	51.783	7.1201e-06	8.2395e-06	132.2	43.151	13.874	5.6671	8.2379e-06	21.874	-83.432	90.938	-98.212	-128.971	-15.202	60.361	-129.350	-125.143	6.262	19.054	-125.074	-118.671	-119.683	-113.030	32.631	-114.438	-8191	255	
29488.967	1	1	0	0	0.059546	0.31488	0.0095413	0.087998	0.1352	0.29105	0.025923	0.10241	0.21501	0.11662	0.19914	0.057287	0.089825	0.093612	0.16866	0.15357	-2.1021	-2.7646	-2.7375	-2.6042	-2.9333	-2.6208	-2.7729	-2.5833	-2.4208	-2.725	-2.6292	-2.5083	-2.9437	-2.6792	-2.5708	-2.7896	-124.629	72.810	1.415	184.867	-94.336	21.252	122.055	-81.132	155.621	23.244	74.025	91.221	186.296	-105.864	-76.335	113.540	0.0001414	0.00013509	9.3732e-05	246.02	2.2022e-06	6.1043e-07	445.18	50.915	8.594e-07	1.2704e-06	129.74	41.14	12.812	5.2416	2.949e-06	20.854	0.0004941	0.00077622	0.00022199	249.06	7.9394e-06	9.1081e-06	448.88	52.102	7.7918e-06	9.1829e-06	131.67	42.578	13.68	5.5391	8.0216e-06	21.47	-76.159	-48.718	-24.642	-128.771	-38.901	-5.617	-129.330	-124.937	26.405	-39.590	-124.853	-118.336	-119.207	-112.882	-7.037	-113.944	-8191	255	
#DATA ENDS
