BOXY.EXE: ISS Imagent and Oximeter Data Acquisition Program Version 0.80
Ascii Record File

#ACQ INFORMATION
2  Detector Channels 
16  External MUX Channels 
1  Auxiliary Channels 
5000  Waveform (CCF) Frequency (Hz)
1  Waveforms Skipped 
30  Waveforms Averaged 
1  Cycles Averaged 
16  Acquisitions per Waveform 
10.0806  Updata Rate (Hz) 

#FILE INFORMATION
TRUE -- External MUX Channel results are PARSED.
FALSE -- AC DC and Phase are NOT grouped.
TRUE -- Companion Program Settings File CREATED.
FALSE -- AC data not excluded
FALSE -- DC data not excluded
FALSE -- Phase data not excluded
FALSE -- Auxillary Chn. data not excluded
Tab delimiters

#CALIBRATION STATE
TRUE -- Waveform Calibration Values APPLIED.


#AUX CALIBRATION VALUES
Val Type	aux-1	

Term	1.0000e+00	
Factor	0.0000e+00	


#WF CALIBRATION VALUES
A = Detector Channel
Val Type	A-AC1	A-AC2	A-AC3	A-AC4	A-AC5	A-AC6	A-AC7	A-AC8	A-AC9	A-AC10	A-AC11	A-AC12	A-AC13	A-AC14	A-AC15	A-AC16	A-DC1	A-DC2	A-DC3	A-DC4	A-DC5	A-DC6	A-DC7	A-DC8	A-DC9	A-DC10	A-DC11	A-DC12	A-DC13	A-DC14	A-DC15	A-DC16	A-Ph1	A-Ph2	A-Ph3	A-Ph4	A-Ph5	A-Ph6	A-Ph7	A-Ph8	A-Ph9	A-Ph10	A-Ph11	A-Ph12	A-Ph13	A-Ph14	A-Ph15	A-Ph16	

Term	0.00000e+00	0.00000e+00	0.00000e+00	0.00000e+00	0.00000e+00	0.00000e+00	0.00000e+00	0.00000e+00	0.00000e+00	0.00000e+00	0.00000e+00	0.00000e+00	0.00000e+00	0.00000e+00	0.00000e+00	0.00000e+00	0.00000e+00	0.00000e+00	0.00000e+00	0.00000e+00	0.00000e+00	0.00000e+00	0.00000e+00	0.00000e+00	0.00000e+00	0.00000e+00	0.00000e+00	0.00000e+00	0.00000e+00	0.00000e+00	0.00000e+00	0.00000e+00	0.00000e+00	0.00000e+00	0.00000e+00	0.00000e+00	0.00000e+00	0.00000e+00	0.00000e+00	0.00000e+00	0.00000e+00	0.00000e+00	0.00000e+00	0.00000e+00	0.00000e+00	0.00000e+00	0.00000e+00	0.00000e+00	
Factor	1.00000e+00	1.00000e+00	1.00000e+00	1.00000e+00	1.00000e+00	1.00000e+00	1.00000e+00	1.00000e+00	1.00000e+00	1.00000e+00	1.00000e+00	1.00000e+00	1.00000e+00	1.00000e+00	1.00000e+00	1.00000e+00	1.00000e+00	1.00000e+00	1.00000e+00	1.00000e+00	1.00000e+00	1.00000e+00	1.00000e+00	1.00000e+00	1.00000e+00	1.00000e+00	1.00000e+00	1.00000e+00	1.00000e+00	1.00000e+00	1.00000e+00	1.00000e+00	X	X	X	X	X	X	X	X	X	X	X	X	X	X	X	X	

B = Detector Channel
Val Type	B-AC1	B-AC2	B-AC3	B-AC4	B-AC5	B-AC6	B-AC7	B-AC8	B-AC9	B-AC10	B-AC11	B-AC12	B-AC13	B-AC14	B-AC15	B-AC16	B-DC1	B-DC2	B-DC3	B-DC4	B-DC5	B-DC6	B-DC7	B-DC8	B-DC9	B-DC10	B-DC11	B-DC12	B-DC13	B-DC14	B-DC15	B-DC16	B-Ph1	B-Ph2	B-Ph3	B-Ph4	B-Ph5	B-Ph6	B-Ph7	B-Ph8	B-Ph9	B-Ph10	B-Ph11	B-Ph12	B-Ph13	B-Ph14	B-Ph15	B-Ph16	

Term	0.00000e+00	0.00000e+00	0.00000e+00	0.00000e+00	0.00000e+00	0.00000e+00	0.00000e+00	0.00000e+00	0.00000e+00	0.00000e+00	0.00000e+00	0.00000e+00	0.00000e+00	0.00000e+00	0.00000e+00	0.00000e+00	0.00000e+00	0.00000e+00	0.00000e+00	0.00000e+00	0.00000e+00	0.00000e+00	0.00000e+00	0.00000e+00	0.00000e+00	0.00000e+00	0.00000e+00	0.00000e+00	0.00000e+00	0.00000e+00	0.00000e+00	0.00000e+00	-5.38884e+01	-1.31177e+02	-1.26498e+02	-1.80885e+02	-4.76343e+01	-6.44995e+01	-1.57193e+02	-1.62015e+02	-3.86883e+01	-6.83090e+01	-1.71742e+02	-1.71381e+02	-1.82817e+02	-1.77069e+02	-5.51087e+01	-1.50010e+02	
Factor	1.82829e-05	1.46436e-04	4.33054e-05	1.59593e-01	1.61267e-06	1.61574e-06	1.65127e-01	4.62107e-02	1.25789e-06	1.65311e-06	7.56542e-02	2.89867e-02	3.37919e-02	8.42540e-03	1.55012e-06	1.18626e-02	1.36964e-05	2.76091e-05	7.65437e-06	8.35740e-02	2.69207e-07	3.11056e-07	8.12785e-02	2.43328e-02	2.59798e-07	3.12300e-07	3.86475e-02	1.48661e-02	1.78292e-02	4.47273e-03	2.79863e-07	6.10705e-03	X	X	X	X	X	X	X	X	X	X	X	X	X	X	X	X	



#DISTANCE SETTINGS
A = Detector Channel
A-1	A-2	A-3	A-4	A-5	A-6	A-7	A-8	A-9	A-10	A-11	A-12	A-13	A-14	A-15	A-16	

2.5000e+00	3.0000e+00	2.5000e+00	3.0000e+00	2.0000e+00	3.0000e+00	1.5000e+00	3.0000e+00	3.0000e+00	3.0000e+00	3.0000e+00	3.0000e+00	3.0000e+00	3.0000e+00	1.5000e+00	3.0000e+00	

B = Detector Channel
B-1	B-2	B-3	B-4	B-5	B-6	B-7	B-8	B-9	B-10	B-11	B-12	B-13	B-14	B-15	B-16	

1.0000e+01	1.0000e+01	1.0000e+01	1.4400e+00	1.0000e+01	1.0000e+01	1.5100e+00	1.9400e+00	1.0000e+01	1.0000e+01	1.9900e+00	2.4900e+00	2.4100e+00	2.9000e+00	1.0000e+01	2.9800e+00	




#DATA BEGINS
time	group	step	mark	flag	A-AC1	A-AC2	A-AC3	A-AC4	A-AC5	A-AC6	A-AC7	A-AC8	A-AC9	A-AC10	A-AC11	A-AC12	A-AC13	A-AC14	A-AC15	A-AC16	A-DC1	A-DC2	A-DC3	A-DC4	A-DC5	A-DC6	A-DC7	A-DC8	A-DC9	A-DC10	A-DC11	A-DC12	A-DC13	A-DC14	A-DC15	A-DC16	A-Ph1	A-Ph2	A-Ph3	A-Ph4	A-Ph5	A-Ph6	A-Ph7	A-Ph8	A-Ph9	A-Ph10	A-Ph11	A-Ph12	A-Ph13	A-Ph14	A-Ph15	A-Ph16	B-AC1	B-AC2	B-AC3	B-AC4	B-AC5	B-AC6	B-AC7	B-AC8	B-AC9	B-AC10	B-AC11	B-AC12	B-AC13	B-AC14	B-AC15	B-AC16	B-DC1	B-DC2	B-DC3	B-DC4	B-DC5	B-DC6	B-DC7	B-DC8	B-DC9	B-DC10	B-DC11	B-DC12	B-DC13	B-DC14	B-DC15	B-DC16	B-Ph1	B-Ph2	B-Ph3	B-Ph4	B-Ph5	B-Ph6	B-Ph7	B-Ph8	B-Ph9	B-Ph10	B-Ph11	B-Ph12	B-Ph13	B-Ph14	B-Ph15	B-Ph16	aux-1	digaux	

29644.482	1	1	0	256	0.26143	0.19296	0.084109	0.19707	0.020482	0.24534	0.19172	0.097714	0.39448	0.1245	0.42141	0.27748	0.37688	0.14074	0.040579	0.080141	-2.1208	-2.5708	-2.5167	-2.375	-2.6875	-2.5021	-2.5958	-2.9229	-2.5125	-2.6792	-2.7313	-2.4979	-2.6813	-2.6521	-2.4396	-2.8896	85.244	22.423	236.913	156.963	331.053	337.730	252.861	30.683	233.767	237.090	297.639	321.730	9.285	311.050	251.073	153.990	0.00030955	0.00041401	0.00020234	229.55	6.4381e-06	1.0718e-05	485.98	83.515	9.0121e-07	3.2654e-06	229.24	122.06	39.598	18.185	2.1687e-06	67.717	0.0046532	0.0087735	0.0023822	254.02	8.6781e-05	9.8933e-05	507.76	91.258	8.362e-05	9.9258e-05	239.65	127.82	45.63	19.811	8.7889e-05	69.895	221.342	95.218	10.986	3.128	109.468	191.166	3.461	7.652	98.178	14.927	7.023	10.916	11.686	14.507	86.155	13.118	-8191	255	
29644.580	1	1	0	0	0.19185	0.15183	0.13013	0.064526	0.2018	0.028727	0.11958	0.015886	0.078702	0.22174	0.15482	0.12219	0.081842	0.15615	0.051323	0.029163	-2.0438	-2.5563	-2.6854	-2.5271	-2.6312	-2.7125	-2.5792	-2.9125	-2.5208	-2.6312	-2.6583	-2.5479	-2.9021	-2.7354	-2.5354	-2.9188	333.325	253.798	316.747	284.210	130.117	244.064	221.124	149.655	252.426	19.781	235.988	185.487	225.814	-3.993	317.531	242.074	0.00032194	0.00089654	0.0001114	229.94	6.7649e-06	2.2447e-06	485	83.861	4.6106e-06	2.8643e-06	226.89	122.76	39.977	18.39	1.0959e-05	67.398	0.0046923	0.0086094	0.0023696	253.95	8.5613e-05	9.6813e-05	507.77	91.36	8.1992e-05	9.7522e-05	239.36	127.78	45.721	19.888	8.7553e-05	69.966	211.233	55.852	42.732	3.113	162.696	134.302	3.687	8.252	329.980	63.441	6.905	10.934	12.164	14.331	186.947	13.115	-8191	255	
29644.699	1	1	0	0	0.14324	0.27577	0.16733	0.13321	0.11041	0.12126	0.24749	0.044242	0.073329	0.16137	0.074714	0.13118	0.21427	0.24553	0.13094	0.24845	-2.0687	-2.4979	-2.625	-2.3146	-2.7104	-2.6646	-2.6708	-2.7771	-2.4708	-2.7104	-2.875	-2.5146	-2.7667	-2.75	-2.45	-2.8708	212.581	187.547	287.271	206.881	204.942	152.864	252.785	293.596	156.443	126.408	278.777	308.160	273.924	97.330	138.407	241.899	0.00031882	0.00019061	0.00016717	229.45	5.2992e-06	4.4769e-06	483.18	84.024	7.3057e-06	5.3683e-06	227.14	122.12	39.751	18.358	3.0482e-06	67.654	0.0045924	0.0086098	0.002414	253.39	8.6671e-05	9.7081e-05	507.34	91.556	8.3012e-05	9.7341e-05	239.34	127.84	45.732	19.899	8.978e-05	70.02	209.961	29.664	101.689	3.201	11.404	131.814	3.296	7.700	175.344	95.160	6.518	11.140	12.366	14.466	280.141	13.399	-8191	255	
29644.797	1	1	0	0	0.10067	0.16233	0.10027	0.11009	0.11313	0.083465	0.24718	0.18028	0.077767	0.097458	0.47244	0.0071223	0.12846	0.16664	0.18563	0.3312	-2.0604	-2.5271	-2.6729	-2.4271	-2.5917	-2.6396	-2.6396	-2.6667	-2.4708	-2.5104	-2.7833	-2.575	-2.4958	-2.5125	-2.4896	-2.6875	185.125	81.204	318.991	183.091	83.314	98.495	322.198	319.053	146.729	217.800	299.877	74.859	13.241	321.386	11.186	279.310	0.00026495	0.00062935	0.00017883	231.17	3.9359e-06	1.0047e-05	486.83	84.033	3.4817e-06	1.0359e-05	228.53	122.82	40.213	18.518	7.0419e-06	68.171	0.0046074	0.0085582	0.0023946	252.73	8.5298e-05	9.642e-05	507.2	91.71	8.0034e-05	9.6674e-05	240.48	128.36	45.74	19.989	8.8658e-05	70.501	207.580	46.835	75.703	3.154	242.952	199.527	3.894	7.847	120.985	183.028	7.068	10.941	12.001	14.200	110.487	13.196	-8191	255	
29644.893	1	1	0	0	0.20113	0.28319	0.079473	0.097282	0.27737	0.078571	0.069294	0.17302	0.12665	0.22373	0.046564	0.24134	0.18152	0.11171	0.15844	0.13689	-2.0771	-2.4792	-2.6667	-2.3021	-2.6417	-2.65	-2.3833	-2.5375	-2.5917	-2.4062	-2.9271	-2.5938	-2.6771	-2.6813	-2.6188	-2.8417	123.782	335.017	97.380	254.141	207.525	99.981	247.506	290.481	333.772	17.480	58.577	86.886	267.110	321.606	196.632	275.188	0.00030019	0.00060566	0.0002048	230.73	4.7898e-06	4.9964e-06	489.21	84.33	1.9912e-06	3.9423e-06	230.39	123.06	39.883	18.349	3.6561e-06	67.769	0.0045185	0.0085156	0.0024293	254.23	8.2603e-05	9.6386e-05	510.48	91.882	8.0371e-05	9.7613e-05	242.2	128.48	45.473	19.904	8.8405e-05	70.216	215.072	74.495	48.086	2.856	167.268	194.832	3.285	7.790	219.430	78.670	6.691	10.927	11.662	14.252	149.222	13.128	-8191	255	
29644.988	1	1	0	0	0.24663	0.11736	0.14111	0.16002	0.061062	0.15759	0.22146	0.1962	0.20539	0.12667	0.013317	0.11604	0.068009	0.25652	0.15806	0.36479	-1.9937	-2.425	-2.7042	-2.575	-2.625	-2.6396	-2.4188	-2.6312	-2.6354	-2.5312	-2.7104	-2.7083	-2.7	-2.8521	-2.5438	-2.7333	123.558	181.476	225.532	209.780	56.174	31.860	46.391	102.657	154.006	218.744	-7.990	8.553	243.240	40.930	58.460	294.941	0.00036843	0.00089668	0.00025309	230.96	6.7943e-07	4.2211e-06	487.81	83.2	7.284e-06	4.6678e-06	227.15	122.07	39.825	18.318	5.7563e-06	67.842	0.0045267	0.008701	0.0024558	254.14	8.3875e-05	9.7807e-05	510.03	91.44	8.087e-05	9.7298e-05	240.06	127.56	45.429	19.88	8.6716e-05	70.148	208.811	27.954	34.174	3.306	29.854	100.616	2.984	7.946	155.194	130.916	6.604	10.550	11.550	14.728	178.456	13.014	-8191	255	
29645.109	1	1	0	0	0.028052	0.11604	0.068301	0.25234	0.15632	0.14168	0.44432	0.28404	0.18152	0.053233	0.11103	0.30364	0.1248	0.20972	0.193	0.22968	-2.1937	-2.4458	-2.6875	-2.4667	-2.4854	-2.6146	-2.6354	-2.7083	-2.7	-2.6208	-2.8021	-2.6083	-2.5521	-2.6937	-2.3563	-2.7917	345.351	232.623	222.004	227.785	282.016	198.848	273.027	100.123	107.893	147.423	325.630	289.749	9.481	74.162	18.442	-3.325	0.00032743	0.00028206	9.9165e-05	230.83	9.8454e-06	1.8413e-06	484.85	84.911	5.5884e-06	9.4056e-06	229.34	123.11	40.153	18.597	1.8077e-06	68.352	0.0043671	0.0084505	0.0023801	253.34	8.2139e-05	9.5477e-05	508.86	91.96	7.9231e-05	9.6539e-05	240.85	128.35	45.631	20.007	8.6056e-05	70.444	218.368	207.439	74.824	3.063	173.441	326.548	3.338	7.812	286.527	198.717	6.685	10.815	11.791	14.553	102.189	13.292	-8191	255	
29645.180	1	1	0	0	0.29464	0.2045	0.22114	0.13309	0.19427	0.13562	0.14181	0.1839	0.097169	0.17501	0.20824	0.038302	0.16952	0.2691	0.13737	0.36295	-2.2583	-2.35	-2.5917	-2.5104	-2.4979	-2.7062	-2.4875	-2.6	-2.7771	-2.4125	-2.7458	-2.7042	-2.4729	-2.8542	-2.5292	-2.6625	313.402	272.368	135.237	77.735	55.268	178.325	45.363	330.355	292.213	101.799	179.577	26.171	222.301	323.082	24.076	318.251	0.00034454	0.00059779	4.0385e-05	229.03	2.8923e-06	6.3984e-06	490.11	84.261	9.1069e-07	6.5124e-06	229.99	123.35	40.09	18.555	3.9984e-06	68.493	0.0044445	0.0086366	0.0023693	252.83	8.3139e-05	9.6985e-05	510.36	91.744	8.0482e-05	9.7363e-05	241.36	128.65	45.712	20.061	8.6422e-05	70.758	217.446	-2.909	31.376	2.950	277.285	47.654	3.553	7.881	98.087	151.568	6.792	10.812	12.040	14.453	279.990	13.179	-8191	255	
29645.275	1	1	0	0	0.16083	0.14985	0.030194	0.18259	0.21126	0.062421	0.21214	0.19868	0.19425	0.34014	0.14	0.11692	0.27472	0.25142	0.10481	0.34007	-2.2	-2.4521	-2.6417	-2.4979	-2.3854	-2.7292	-2.4292	-2.6562	-2.7125	-2.5083	-2.6271	-2.6208	-2.3125	-2.7375	-2.5771	-2.5271	207.340	336.441	254.262	242.276	223.592	146.888	51.362	182.568	253.645	225.009	34.008	315.934	-3.205	237.046	10.739	207.062	0.00035624	0.00073092	0.00014766	231.34	9.1337e-06	6.3079e-06	488.35	84.057	5.6476e-06	9.4093e-06	229.97	122.7	39.851	18.503	5.8347e-06	68.462	0.0044526	0.0086643	0.0023469	253.36	8.4427e-05	9.7136e-05	509.18	91.742	8.1457e-05	9.7528e-05	242.03	128.58	45.694	20.072	8.511e-05	70.936	219.565	19.564	105.822	3.018	98.135	195.270	3.262	8.019	88.991	121.605	6.849	11.163	11.940	14.582	134.575	13.125	-8191	255	
29645.396	1	1	0	0	0.062538	0.10076	0.050187	0.14759	0.12	0.20694	0.16379	0.11849	0.11034	0.040071	0.068811	0.023812	0.32178	0.057812	0.072292	0.12726	-2.3104	-2.1979	-2.4771	-2.6396	-2.425	-2.7271	-2.5375	-2.5083	-2.7354	-2.5187	-2.7083	-2.7479	-2.5292	-2.7625	-2.5812	-2.6646	248.467	273.988	167.034	20.261	265.751	286.276	337.714	287.525	100.469	259.108	251.278	280.990	225.003	174.290	114.333	251.117	0.00036082	0.00030213	7.7664e-05	231	4.0571e-06	3.4342e-06	488.81	84.672	4.1935e-06	4.7836e-06	229.71	122.56	39.779	18.527	2.1961e-06	67.847	0.0045613	0.0086569	0.0023187	254.65	8.4577e-05	9.7962e-05	510.31	91.991	8.0635e-05	9.5777e-05	240.52	128.19	45.661	20.032	8.4834e-05	70.397	223.354	5.134	106.114	2.469	158.436	257.214	3.504	7.834	106.133	80.500	6.535	10.756	11.890	14.292	15.690	13.249	-8191	255	
29645.490	1	1	0	0	0.21779	0.14774	0.24847	0.16852	0.078743	0.21897	0.02502	0.1247	0.066773	0.17331	0.25717	0.18323	0.19152	0.32641	0.042117	0.28144	-2.2	-2.525	-2.2938	-2.5854	-2.4542	-2.6292	-2.8125	-2.3354	-2.6771	-2.4	-2.5833	-2.8521	-2.4188	-2.7354	-2.7167	-2.7292	55.958	240.727	260.635	312.947	117.134	295.670	139.478	247.783	192.150	342.705	56.783	181.053	160.462	306.392	176.299	273.039	0.00035325	9.4879e-05	0.00015553	230.22	4.4837e-06	1.7589e-06	486.51	84.016	1.4149e-06	4.3674e-06	229.24	122.31	39.978	18.467	4.3983e-06	67.933	0.0045008	0.0084717	0.002316	253.43	8.4184e-05	9.5128e-05	507.22	91.549	8.1362e-05	9.5687e-05	240.34	127.89	45.604	19.961	8.6215e-05	70.351	222.382	5.532	81.197	3.062	191.126	64.288	3.663	7.861	39.922	322.542	6.835	10.939	11.927	13.907	140.291	13.268	-8191	255	
29645.588	1	1	0	0	0.17406	0.16443	0.12511	0.054946	0.19369	0.08053	0.25259	0.14302	0.068055	0.18443	0.24714	0.2666	0.094924	0.13601	0.034555	0.33362	-2.1729	-2.4896	-2.5771	-2.6958	-2.35	-2.7708	-2.8104	-2.3833	-2.7417	-2.7146	-2.7354	-2.8375	-2.3	-2.4896	-2.8771	-2.5208	325.289	149.344	329.491	342.243	25.828	102.088	266.301	173.989	141.632	117.860	192.288	260.842	277.089	22.337	225.159	279.585	0.00026183	0.00059863	0.00016158	227.79	1.9081e-06	9.2921e-06	486.03	84.311	1.5032e-06	5.0758e-06	227.99	123.26	39.571	18.507	1.0796e-05	68.237	0.0046082	0.0086081	0.0023535	254.19	8.5303e-05	9.6378e-05	508.6	91.679	8.1921e-05	9.6753e-05	239.58	128.19	45.503	20.007	8.6744e-05	70.559	222.749	19.079	51.931	3.211	78.525	159.102	3.365	8.022	228.009	224.643	6.577	10.920	11.677	14.378	166.643	13.151	-8191	255	
29645.684	1	1	0	0	0.14209	0.37227	0.048512	0.19568	0.083167	0.16211	0.26653	0.31757	0.015254	0.26986	0.065723	0.43741	0.11506	0.14003	0.10606	0.23498	-2.375	-2.4104	-2.45	-2.6771	-2.5542	-2.6937	-2.7104	-2.3771	-2.5542	-2.3771	-2.5062	-2.7333	-2.5438	-2.5917	-2.6312	-2.6083	280.560	23.118	209.338	329.249	133.406	272.244	291.249	325.750	303.812	145.275	243.920	301.914	36.099	43.669	86.479	261.389	0.00031324	0.00028476	8.5146e-05	230.37	1.2976e-06	2.7718e-06	488.04	83.461	1.8244e-06	2.2573e-06	228.41	122.67	39.427	18.499	6.3497e-06	68.101	0.0045076	0.0084683	0.0023675	253.5	8.3788e-05	9.5223e-05	508.5	91.304	8.0104e-05	9.5652e-05	240.69	128.34	45.225	19.971	8.7057e-05	70.515	217.613	144.434	44.625	2.838	137.336	155.137	3.454	7.986	223.985	206.358	6.654	10.835	11.413	14.714	233.454	13.220	-8191	255	
29645.779	1	1	0	0	0.30665	0.31212	0.24017	0.19918	0.27918	0.28552	0.14972	0.14452	0.095321	0.16077	0.19093	0.085188	0.14935	0.14822	0.055511	0.25709	-2.2042	-2.6875	-2.4333	-2.5625	-2.5646	-2.5521	-2.6437	-2.4521	-2.6542	-2.5625	-2.5125	-2.7875	-2.5667	-2.4521	-2.7042	-2.4771	223.818	182.432	263.173	42.134	48.408	342.506	263.729	-9.842	113.782	292.432	313.729	170.032	218.724	-4.854	-3.976	308.576	0.00031342	0.00066263	0.00011385	229.85	3.6352e-06	1.5361e-06	487.46	83.549	3.8952e-06	6.34e-06	227.33	121.75	39.281	18.28	5.9385e-06	67.315	0.0044318	0.0084028	0.0023758	253.95	8.2206e-05	9.4828e-05	509.21	91.157	8.0275e-05	9.6901e-05	239.58	127.44	45.196	19.782	8.8518e-05	69.859	221.924	97.983	197.328	2.618	227.235	67.462	3.358	7.893	177.859	102.717	7.101	11.064	12.101	14.369	220.645	13.022	-8191	255	
29645.877	1	1	0	0	0.027669	0.091966	0.22275	0.36942	0.085743	0.17356	0.23773	0.40365	0.37622	0.10925	0.25318	0.11128	0.19859	0.12911	0.15481	0.038294	-2.1646	-2.4729	-2.2521	-2.7	-2.6396	-2.5375	-2.7333	-2.5208	-2.5021	-2.675	-2.5312	-2.7292	-2.4125	-2.4854	-2.85	-2.5292	280.372	-5.926	247.517	189.457	286.025	0.786	251.337	122.234	68.299	91.766	-5.442	242.709	223.752	154.265	268.712	297.101	0.000342	0.00032382	0.00024012	229.26	4.4576e-06	5.8824e-06	481.46	82.925	3.9048e-06	5.2836e-07	226.95	121.78	39.205	18.382	4.9605e-06	67.51	0.0043749	0.0084447	0.0023932	252.49	8.1935e-05	9.716e-05	505.61	90.61	7.8813e-05	9.903e-05	238.29	126.93	45.048	19.81	9.0443e-05	69.775	228.426	130.115	93.767	2.746	187.985	130.896	3.318	7.860	125.837	202.917	6.923	10.980	11.589	14.591	303.309	13.132	-8191	255	
29645.973	1	1	0	0	0.079497	0.065192	0.29567	0.030764	0.12764	0.12666	0.2134	0.34409	0.12922	0.22503	0.2615	0.26355	0.18422	0.19678	0.20389	0.14541	-2.2	-2.7792	-2.2833	-2.5625	-2.6729	-2.5167	-2.5271	-2.5083	-2.5167	-2.55	-2.6021	-2.6354	-2.6083	-2.5312	-2.7417	-2.625	218.820	309.312	47.319	299.862	217.423	241.645	245.928	286.926	29.267	254.696	-7.912	283.900	216.045	224.540	48.843	311.766	0.00034411	5.2641e-05	0.0002041	227.72	2.4945e-06	5.0235e-06	486	82.861	5.4321e-06	8.0765e-06	226.42	121.76	39.274	18.328	2.8169e-06	67.684	0.0045092	0.0086266	0.0024409	252.35	8.3437e-05	9.7174e-05	506.96	90.371	8.1287e-05	9.9987e-05	238.12	126.88	45.037	19.809	9.0123e-05	69.83	208.086	175.830	96.375	3.124	188.443	227.465	3.263	7.502	52.491	258.571	6.713	10.861	11.577	14.150	225.623	13.114	-8191	255	
29646.068	1	1	0	0	0.29102	0.15927	0.10541	0.25142	0.018437	0.29693	0.31247	0.10981	0.098082	0.12345	0.20842	0.19787	0.15139	0.12476	0.10365	0.35415	-2.1479	-2.6708	-2.3	-2.9229	-2.6312	-2.3354	-2.5542	-2.45	-2.5479	-2.7125	-2.5167	-2.7854	-2.6271	-2.4292	-2.6875	-2.6521	25.526	64.176	230.117	-5.662	-9.843	198.938	256.094	25.551	273.832	141.187	190.139	2.726	181.669	278.432	171.933	304.124	0.00030763	0.0006603	0.00016003	229.1	6.9301e-06	3.5985e-06	484.42	83.136	4.6662e-06	6.6582e-06	228.2	122	39.372	18.313	1.0338e-05	68.119	0.0045211	0.0088253	0.0024458	252.2	8.483e-05	0.00010002	506.35	90.529	8.2727e-05	9.9186e-05	239.07	127.2	45.162	19.875	8.8461e-05	70.108	197.829	12.618	79.603	2.855	228.610	308.825	3.611	7.402	208.416	153.154	6.524	11.048	12.039	14.024	181.322	12.906	-8191	255	
29646.189	1	1	0	0	0.21742	0.17572	0.19638	0.15093	0.18856	0.028874	0.11962	0.11456	0.26733	0.054714	0.18919	0.26365	0.14512	0.085445	0.10241	0.21681	-1.8563	-2.6604	-2.4562	-2.4958	-2.825	-2.3292	-2.75	-2.5021	-2.3312	-2.6937	-2.5208	-2.6167	-2.7333	-2.5833	-2.7208	-2.6854	9.917	15.625	40.932	111.295	205.044	153.604	333.294	290.275	341.720	89.966	95.191	311.856	328.171	293.263	183.076	-4.608	0.00038849	0.00081048	7.9751e-05	229.49	1.0315e-06	5.9531e-06	484.51	82.728	8.929e-06	6.4539e-06	227.56	121.44	39.048	18.304	4.2041e-06	67.614	0.0045942	0.00881	0.0024479	252.87	8.5694e-05	9.9357e-05	507.4	90.44	8.3603e-05	0.00010008	239.01	127	45.185	19.84	8.7795e-05	70.006	227.594	107.561	20.794	3.326	223.736	160.632	3.120	7.638	158.432	143.345	6.693	10.980	11.522	14.173	96.616	13.270	-8191	255	
29646.283	1	1	0	0	0.15626	0.15013	0.07664	0.13273	0.15612	0.20597	0.098276	0.10497	0.025239	0.093901	0.18908	0.22607	0.016098	0.069218	0.077015	0.092971	-1.7229	-2.6708	-2.4583	-2.3104	-2.7188	-2.3979	-2.6583	-2.6729	-2.5021	-2.8896	-2.6479	-2.5375	-2.6437	-2.4813	-2.8583	-2.7167	219.292	246.652	199.499	333.552	320.195	106.650	56.048	104.193	106.172	24.047	78.025	19.289	344.879	297.212	63.120	176.999	0.00027798	0.00037549	0.00024685	227.91	6.9134e-06	7.1115e-06	478.56	82.372	2.5282e-06	8.2766e-06	226.17	120.88	39.292	18.346	1.9179e-06	67.469	0.0046629	0.0088263	0.0024008	251.91	8.635e-05	0.00010038	502.99	89.959	8.3798e-05	9.9957e-05	237.22	126.5	44.939	19.823	8.6405e-05	69.958	220.732	0.507	51.881	2.956	20.880	246.325	3.555	7.908	152.166	157.439	6.605	10.624	12.416	14.302	214.355	13.226	-8191	255	
29646.381	1	1	0	0	0.17488	0.12061	0.38745	0.10134	0.14906	0.037377	0.065249	0.34088	0.16025	0.11218	0.13895	0.23488	0.26367	0.33579	0.028428	0.21893	-1.8229	-2.6229	-2.6562	-2.3812	-2.8146	-2.4708	-2.3667	-2.6521	-2.4542	-2.7146	-2.7729	-2.6646	-2.5833	-2.4062	-2.4688	-2.9417	132.026	68.298	300.230	316.001	194.311	68.221	315.180	257.453	27.837	266.640	343.000	-1.108	301.426	-1.590	232.283	318.536	0.00024551	0.0011231	0.00016845	230.05	7.2398e-06	7.5646e-06	483.01	82.839	3.1672e-06	4.2195e-06	225.58	121.16	39.247	18.349	4.5427e-06	67.934	0.0046005	0.0086904	0.0023749	252.01	8.6234e-05	9.8317e-05	503.91	89.9	8.3481e-05	9.7308e-05	237.28	126.56	45.001	19.83	8.7409e-05	70.09	217.705	16.001	98.392	2.863	165.106	175.227	3.266	7.967	126.771	70.353	6.580	10.861	11.823	14.681	51.854	13.261	-8191	255	
29646.477	1	1	0	0	0.059222	0.081539	0.17893	0.23552	0.16639	0.17954	0.24795	0.099632	0.031223	0.11999	0.10735	0.1481	0.17299	0.045001	0.084601	0.085006	-1.9792	-2.7687	-2.5875	-2.4896	-2.7625	-2.5542	-2.7396	-2.6583	-2.3292	-2.7417	-2.5687	-2.4688	-2.7188	-2.5167	-2.6458	-2.9583	9.211	52.051	49.500	281.939	256.562	55.637	297.617	42.853	349.907	287.897	314.129	36.227	293.691	128.859	42.803	241.765	0.00031419	0.00049396	0.00013969	227.49	1.5502e-06	3.7905e-06	483.53	83.031	3.1112e-06	5.4642e-06	225.7	121.5	39.206	18.257	5.3694e-06	68.036	0.0046067	0.0085437	0.0023656	251.98	8.5345e-05	9.6089e-05	504.77	90.354	8.2284e-05	9.6269e-05	237.95	127.04	45.061	19.8	8.5944e-05	70.479	213.457	2.662	69.767	2.952	339.701	214.089	3.468	8.259	69.838	210.191	6.324	10.899	11.817	14.334	131.243	12.897	-8191	255	
29646.572	1	1	0	0	0.32787	0.17968	0.19629	0.29495	0.15445	0.17484	0.058463	0.16232	0.10626	0.10004	0.1758	0.16377	0.4178	0.054371	0.072431	0.13141	-1.9979	-2.6479	-2.5396	-2.4771	-2.6771	-2.6875	-2.7521	-2.8812	-2.4437	-2.5792	-2.7104	-2.4708	-2.5521	-2.5563	-2.6375	-2.9833	132.903	143.024	249.940	269.651	104.091	21.833	311.458	339.396	48.589	195.394	281.517	309.374	1.235	11.961	19.574	9.137	0.00034748	0.0002637	0.00027208	230.07	1.7966e-06	9.6122e-06	486.64	83.768	3.1854e-06	4.8929e-06	227.05	122.41	38.828	18.375	6.4782e-06	68.179	0.0045285	0.008467	0.0023374	252.89	8.31e-05	9.5385e-05	507.22	90.393	7.9485e-05	9.4166e-05	238.88	127.51	44.825	19.821	8.5313e-05	70.291	215.183	307.611	37.339	3.259	39.925	122.659	3.546	7.934	143.933	138.620	6.876	10.834	11.348	14.148	143.534	13.048	-8191	255	
29646.668	1	1	0	0	0.1981	0.30107	0.076117	0.29582	0.38245	0.13785	0.20507	0.18127	0.27569	0.12	0.31447	0.092523	0.29913	0.29849	0.12396	0.10554	-1.9125	-2.6729	-2.6604	-2.3208	-2.5563	-2.7417	-2.4979	-2.7979	-2.5604	-2.4833	-2.6854	-2.5312	-2.6667	-2.6333	-2.6583	-2.8312	138.621	253.172	132.764	271.238	57.946	238.119	266.321	274.922	30.969	154.814	234.937	291.446	278.446	39.155	46.477	276.639	0.0002821	0.00063173	0.00014732	227.12	5.6738e-06	5.786e-06	483.72	83.307	2.127e-06	1.6416e-06	226.44	121.95	38.961	18.375	5.1844e-06	67.866	0.0044187	0.008319	0.0023288	252.26	8.1348e-05	9.4048e-05	504.44	90.187	7.8286e-05	9.3679e-05	238.06	127.03	44.734	19.819	8.7715e-05	70.114	222.204	341.247	148.269	3.003	135.914	122.889	3.254	8.298	204.404	120.904	6.691	10.667	11.288	14.368	186.931	12.919	-8191	255	
29646.789	1	1	0	0	0.15429	0.10647	0.13398	0.18997	0.27218	0.13367	0.24748	0.16675	0.10633	0.081961	0.095809	0.13837	0.13849	0.18124	0.11144	0.093042	-2.1083	-2.4646	-2.6958	-2.4333	-2.7208	-2.7021	-2.7521	-2.5792	-2.6208	-2.6146	-2.9833	-2.6667	-2.625	-2.8208	-2.5771	-2.675	325.547	289.299	340.585	70.610	183.647	63.012	288.379	323.789	21.148	347.617	-8.451	338.381	289.496	345.012	271.531	261.491	0.00034944	0.00036613	0.00010942	228.94	2.9128e-06	3.2349e-06	483.74	83.165	5.2484e-06	3.0096e-06	226.02	121.48	39.102	18.39	7.5258e-06	68.062	0.0044626	0.0085783	0.0024017	252.23	8.23e-05	9.7317e-05	506.71	90.015	7.829e-05	9.5024e-05	238.02	126.87	44.742	19.858	8.6962e-05	70.254	207.960	149.867	24.036	3.048	126.166	210.337	3.394	7.872	197.707	94.689	6.506	10.714	11.915	14.305	132.069	13.015	-8191	255	
29646.885	1	1	0	0	0.2344	0.16703	0.066757	0.08112	0.13969	0.35288	0.083966	0.17383	0.36038	0.29824	0.13021	0.20615	0.14792	0.16465	0.11294	0.4214	-2.1208	-2.5563	-2.5104	-2.3792	-2.7104	-2.7021	-2.4479	-2.7271	-2.6937	-2.6333	-3.0187	-2.4938	-2.5938	-2.6813	-2.4958	-2.8083	169.728	122.377	204.490	252.461	80.066	312.747	228.885	109.719	9.119	145.624	130.596	29.188	2.686	174.888	151.162	213.242	0.0003157	0.00041576	0.00011525	229.15	2.3129e-06	5.0016e-06	486.52	82.865	3.1353e-06	1.1875e-05	227.7	121.86	39.698	18.392	5.5018e-06	68.278	0.0042854	0.0083764	0.0023324	251.2	8.0318e-05	9.3802e-05	506.14	90.073	7.7584e-05	9.2454e-05	238.57	126.98	44.882	19.79	8.4912e-05	70.291	223.701	128.003	42.624	2.926	91.273	48.396	3.213	7.969	179.371	171.789	6.725	10.948	11.972	14.353	35.501	13.000	-8191	255	
29646.980	1	1	0	0	0.22663	0.15752	0.17278	0.21503	0.20469	0.16184	0.034953	0.17782	0.047128	0.30227	0.083871	0.30504	0.11401	0.14609	0.099444	0.17448	-2.0958	-2.4104	-2.6729	-2.4625	-2.5187	-2.7792	-2.4625	-2.5146	-2.575	-2.5604	-2.6792	-2.4688	-2.6729	-2.8688	-2.375	-2.9375	187.670	302.216	9.127	206.714	38.454	279.644	263.362	232.838	323.627	58.688	265.357	256.109	339.060	254.253	45.105	-8.331	0.00027084	0.0005102	0.00019639	228.63	1.9502e-06	4.7923e-06	484.73	82.468	1.0112e-05	5.1773e-06	227.38	122.69	39.489	18.349	3.7816e-06	68.135	0.0042947	0.0083074	0.0022696	251.55	7.9592e-05	9.3369e-05	507.27	89.783	7.8113e-05	9.3626e-05	239.14	127.43	45.008	19.854	8.6028e-05	70.361	221.574	100.984	118.327	2.968	140.953	44.983	3.071	8.169	183.332	133.627	6.577	10.884	11.840	14.546	62.399	13.129	-8191	255	
29647.053	1	1	0	0	0.091467	0.072287	0.080179	0.18253	0.11441	0.11277	0.12185	0.11542	0.30605	0.087341	0.15571	0.30048	0.11264	0.27905	0.2477	0.19119	-2.375	-2.3958	-2.6875	-2.5771	-2.5583	-2.6708	-2.325	-2.6896	-2.4313	-2.4771	-2.8458	-2.5792	-2.4458	-2.7625	-2.5062	-2.7313	152.309	123.223	243.174	322.510	47.126	131.525	233.507	201.059	280.133	300.749	85.743	346.705	268.514	340.403	125.360	289.071	0.00027099	0.00025572	0.00022047	229.18	6.1161e-06	4.1477e-06	485.19	82.951	5.0033e-06	7.9524e-06	226.18	121.81	39.282	18.434	5.0824e-06	68.026	0.004404	0.0085376	0.0023201	251.58	8.2487e-05	9.4883e-05	504.9	90.287	7.8021e-05	9.5134e-05	238.09	126.97	45.073	19.936	8.4681e-05	70.381	212.477	52.315	90.895	3.132	118.824	170.509	3.493	7.939	160.836	155.116	6.652	10.675	11.645	14.087	121.173	13.113	-8191	255	
29647.174	1	1	0	0	0.27279	0.056923	0.088865	0.26868	0.31662	0.4522	0.056814	0.16307	0.1351	0.065533	0.19526	0.27995	0.29192	0.10169	0.10172	0.3962	-2.1375	-2.4125	-2.6125	-2.6729	-2.4437	-2.8812	-2.6208	-2.6083	-2.7042	-2.5646	-2.6625	-2.5583	-2.4479	-2.7188	-2.4375	-2.7167	283.905	55.455	23.823	257.904	290.223	80.841	332.515	234.496	97.018	258.995	336.627	233.108	302.267	13.667	121.470	303.890	0.00032346	0.00036057	0.00027582	227.98	1.6219e-06	1.0311e-05	487.52	83.007	3.562e-06	5.3204e-06	227.13	122.43	39.193	18.559	5.0096e-06	68.66	0.0044501	0.008621	0.0023193	251.96	8.284e-05	9.727e-05	506.96	90.333	8.0705e-05	9.8111e-05	238.89	127.62	45.077	19.999	8.6702e-05	70.815	230.835	92.253	52.351	2.825	0.830	188.462	3.422	7.835	200.390	186.775	6.606	10.728	11.228	14.402	118.253	13.053	-8191	255	
29647.270	1	1	0	0	0.18836	0.24303	0.23961	0.087162	0.15489	0.16596	0.116	0.12362	0.14529	0.096113	0.2142	0.14408	0.23132	0.070498	0.13788	0.1863	-2.3708	-2.3271	-2.5812	-2.75	-2.2438	-2.5854	-2.6292	-2.5271	-2.8688	-2.5438	-2.8354	-2.7229	-2.3604	-2.8354	-2.4479	-2.8104	247.630	142.084	313.430	2.052	143.133	107.280	2.833	37.202	66.284	318.424	13.376	324.696	140.021	126.533	6.396	308.908	0.00035081	0.00044	0.00011085	231.47	3.5812e-06	5.5207e-06	486.04	83.936	3.9572e-06	5.3622e-06	228.95	122.75	39.549	18.374	4.9344e-06	68.697	0.0046412	0.0087227	0.002388	254.24	8.6535e-05	9.9007e-05	508.4	90.93	8.2054e-05	9.7886e-05	240.17	128.21	45.536	20.004	8.7832e-05	71.118	225.080	41.383	47.910	2.359	217.171	43.399	3.492	7.787	120.974	224.805	6.680	10.906	11.671	14.480	155.519	13.205	-8191	255	
29647.365	1	1	0	0	0.15252	0.13817	0.10538	0.22162	0.40165	0.30263	0.095257	0.11792	0.21942	0.25046	0.22277	0.39216	0.084859	0.19522	0.2166	0.061488	-2.325	-2.4354	-2.5792	-2.6917	-2.4938	-2.6063	-2.5229	-2.5563	-2.7917	-2.3396	-2.6417	-2.7104	-2.3542	-2.6063	-2.5604	-2.6063	286.667	105.683	161.061	295.889	-6.424	142.270	1.091	190.074	153.337	104.640	309.748	271.805	322.060	327.390	139.757	346.526	0.00039678	0.00058798	0.0001243	231.72	6.2189e-06	3.0667e-06	487.73	83.938	7.9907e-06	1.1387e-05	229.16	123.13	39.317	18.393	9.487e-06	68.989	0.0046516	0.0086197	0.0024123	254.83	8.6552e-05	9.7162e-05	509.78	91.019	8.3023e-05	9.8529e-05	240.54	128.61	45.444	19.975	8.8274e-05	71.144	225.592	63.661	184.679	2.808	161.741	162.842	3.671	7.849	150.135	202.318	7.031	10.566	11.913	14.671	224.939	13.136	-8191	255	
29647.463	1	1	0	0	0.15386	0.14361	0.15108	0.27095	0.089193	0.17784	0.15179	0.14891	0.3285	0.19245	0.18724	0.07261	0.19117	0.19212	0.02932	0.14982	-2.4833	-2.3604	-2.725	-2.7417	-2.5292	-2.6979	-2.7958	-2.5271	-2.5646	-2.5375	-2.4958	-2.7604	-2.5167	-2.5187	-2.6188	-2.7083	229.777	260.361	76.079	182.183	144.590	224.952	327.858	189.944	167.048	141.551	15.694	226.281	328.564	13.680	133.904	319.835	0.00035276	0.00073872	8.7149e-05	228.04	7.5174e-07	2.4134e-06	485.72	83.823	2.3343e-06	5.7424e-06	227.89	122.76	39.28	18.456	7.4437e-06	68.242	0.0046821	0.008736	0.0024271	253.95	8.7047e-05	9.7488e-05	508.37	90.85	8.2357e-05	9.734e-05	239.49	127.97	45.237	19.953	8.7426e-05	70.496	212.365	86.212	114.443	3.028	301.469	240.681	3.385	7.931	236.405	168.017	6.405	10.699	11.447	14.421	204.620	12.818	-8191	255	
29647.580	1	1	0	0	0.23098	0.19714	0.03048	0.2255	0.11881	0.061061	0.029696	0.11918	0.21956	0.14704	0.17586	0.14175	0.31223	0.1195	0.27589	0.24299	-2.1875	-2.4854	-2.4188	-2.6625	-2.5417	-2.5833	-2.6667	-2.5667	-2.7542	-2.4771	-2.4979	-2.7646	-2.5625	-2.6813	-2.7875	-2.6083	116.628	172.420	184.022	327.139	101.844	197.360	329.950	276.819	199.324	67.999	41.764	347.384	116.289	115.835	307.838	338.235	0.00029277	0.0010893	0.00017411	230.66	3.3415e-06	2.0069e-06	485.19	83.108	4.4801e-06	7.4661e-06	227.41	122.34	39.537	18.444	6.1149e-06	68.429	0.0046019	0.0086415	0.0024432	254.75	8.5948e-05	9.6363e-05	507.69	90.666	8.2414e-05	9.7533e-05	239.78	127.93	45.097	19.951	8.7237e-05	70.754	218.166	28.682	45.862	2.696	56.929	272.542	3.029	7.563	107.239	140.097	6.576	10.640	11.670	14.028	175.043	12.866	-8191	255	
29647.652	1	1	0	0	0.19392	0.12774	0.18775	0.19743	0.1078	0.10243	0.059856	0.20031	0.17494	0.076094	0.23497	0.39731	0.103	0.21032	0.19612	0.36258	-2.1667	-2.5229	-2.5062	-2.7062	-2.4146	-2.7146	-2.5938	-2.4771	-2.6688	-2.5625	-2.4271	-2.8063	-2.5229	-2.6063	-2.6667	-2.5896	205.867	33.550	86.268	-0.372	8.522	17.853	267.090	39.305	24.120	97.421	263.715	-2.508	96.685	333.428	151.701	301.612	0.0003262	0.00011168	0.00019385	230.76	2.5091e-06	3.4799e-06	487.55	83.437	5.0366e-06	2.6929e-06	229.38	122.62	39.463	18.453	5.3261e-06	68.352	0.0044622	0.0086493	0.0024248	254.24	8.3398e-05	9.6179e-05	508.23	91.059	7.8899e-05	9.5719e-05	240.86	128.4	45.248	19.935	8.6485e-05	70.796	220.693	58.147	128.394	3.237	213.240	308.174	3.169	7.890	105.715	245.927	6.701	10.759	11.165	14.296	156.002	12.977	-8191	255	
29647.748	1	1	0	0	0.34957	0.13139	0.088346	0.12609	0.072518	0.026414	0.054405	0.18236	0.31747	0.039683	0.040669	0.2061	0.12728	0.040946	0.16638	0.41992	-2.325	-2.6354	-2.3208	-2.6854	-2.4292	-2.5	-2.6583	-2.2354	-2.4458	-2.5479	-2.4292	-2.7833	-2.3583	-2.55	-2.5583	-2.5333	318.122	200.322	153.501	3.342	167.103	302.832	265.173	328.388	309.168	210.102	111.870	308.483	73.121	8.788	79.125	290.741	0.00033802	0.00047487	0.00011624	230.06	7.2682e-06	6.3717e-06	488.38	83.713	7.8418e-06	4.3657e-06	230.63	123.5	39.912	18.584	5.0051e-06	68.996	0.0043733	0.0084415	0.0023638	252.56	8.2094e-05	9.4532e-05	511.17	91.01	7.8979e-05	9.4462e-05	241.81	129.06	45.414	20.021	8.6139e-05	71.275	221.853	337.005	57.588	3.069	168.703	215.981	3.284	7.871	190.403	107.022	6.859	10.846	11.663	14.218	177.954	13.192	-8191	255	
29647.869	1	1	0	0	0.12529	0.15645	0.16524	0.084626	0.14475	0.16053	0.27697	0.18675	0.050392	0.26115	0.13515	0.11647	0.10159	0.10488	0.15362	0.054363	-2.1083	-2.6396	-2.3292	-2.7938	-2.5125	-2.2729	-2.7292	-2.4437	-2.6167	-2.7646	-2.4708	-2.8042	-2.6542	-2.3104	-2.7396	-2.6854	338.284	21.802	297.824	258.420	85.917	26.147	239.272	217.941	211.982	201.667	300.607	314.771	243.658	241.797	242.690	241.327	0.00033776	0.00062475	7.5141e-05	228.89	5.364e-07	1.871e-06	490.6	83.625	4.9716e-06	7.1425e-06	229.63	122.94	39.534	18.552	5.5851e-06	68.555	0.0043177	0.0084303	0.0023357	252.41	7.9304e-05	9.3383e-05	509.39	90.768	7.6824e-05	9.2225e-05	240.08	127.99	45.086	19.924	8.1258e-05	70.793	221.216	125.803	0.651	2.840	312.886	298.282	3.445	7.702	199.637	196.485	6.363	10.740	11.917	14.308	111.438	13.143	-8191	255	
29647.965	1	1	0	0	0.077865	0.03306	0.085474	0.11782	0.10685	0.19155	0.15745	0.030576	0.27548	0.26928	0.072465	0.10997	0.13858	0.099669	0.23913	0.025815	-1.9896	-2.6146	-2.425	-2.6667	-2.8458	-2.4104	-2.6312	-2.4542	-2.5125	-2.7125	-2.3896	-2.8	-2.3979	-2.4313	-2.9062	-2.6208	205.749	224.675	65.130	339.459	34.696	293.598	345.118	31.543	68.172	99.279	287.468	299.379	300.279	322.364	60.880	60.112	0.0004029	0.0004922	0.00010457	227.85	6.0007e-06	6.2876e-06	486.73	83.378	2.8707e-06	9.0053e-06	229.35	122.2	39.854	18.351	2.386e-06	68.238	0.0041876	0.0080502	0.0022194	250.83	7.6014e-05	8.9926e-05	506.77	90.426	7.4466e-05	8.9296e-05	239.3	127.55	44.97	19.802	7.8662e-05	70.361	219.463	348.757	96.315	2.738	111.649	241.759	3.453	7.908	217.099	181.352	7.193	11.129	11.605	14.637	63.512	12.978	-8191	255	
29648.061	1	1	0	0	0.069882	0.09663	0.11726	0.21181	0.19345	0.32161	0.059238	0.20993	0.17128	0.14777	0.064976	0.19634	0.27101	0.32146	0.17523	0.2123	-1.9458	-2.7562	-2.3542	-2.6562	-2.4042	-2.3896	-2.7188	-2.6125	-2.5563	-2.8125	-2.3458	-2.6021	-2.4833	-2.4917	-2.7417	-2.6333	350.147	94.595	263.172	210.330	198.021	182.979	245.818	349.544	345.625	-7.350	235.763	296.250	178.360	214.811	250.459	302.160	0.00031413	0.00044934	0.00018873	228.64	1.0745e-06	2.2069e-06	489.5	84.067	3.835e-06	8.255e-06	228.94	122.83	39.871	18.445	6.6761e-06	68.455	0.0041603	0.0079823	0.0021623	250.97	7.6119e-05	8.8746e-05	507.56	90.032	7.4114e-05	8.8438e-05	239.45	128.12	44.969	19.818	7.882e-05	70.582	210.615	125.669	29.017	3.226	-0.428	134.256	3.478	8.221	192.450	84.228	6.245	10.741	11.706	14.586	139.094	13.024	-8191	255	
29648.182	1	1	0	0	0.2729	0.0961	0.082715	0.1398	0.22465	0.16613	0.19427	0.1301	0.24069	0.37628	0.31913	0.15517	0.22192	0.018758	0.016015	0.13067	-1.825	-2.4958	-2.5104	-2.3521	-2.6417	-2.3604	-2.6958	-2.4646	-2.3875	-2.5187	-2.4021	-2.7667	-2.7188	-2.4062	-2.6458	-2.8354	5.001	345.237	343.816	37.194	113.665	293.847	265.496	348.366	-7.326	110.452	325.212	311.387	272.004	114.482	313.619	330.453	0.00034854	0.00042579	0.00026156	230.81	3.1138e-06	5.7629e-06	488.43	83.98	3.4493e-06	3.4845e-06	229.54	123.24	39.58	18.251	8.0797e-06	68.399	0.0041749	0.0078352	0.0021248	251.92	7.7536e-05	8.8997e-05	507.61	90.436	7.531e-05	8.9221e-05	239.84	128.03	44.803	19.776	7.9247e-05	70.573	205.593	145.772	79.184	3.194	127.448	45.671	3.459	7.923	198.135	135.223	6.737	10.921	11.794	14.356	95.220	13.105	-8191	255	
29648.277	1	1	0	0	0.1506	0.096068	0.1706	0.16871	0.1478	0.071108	0.152	0.01949	0.12797	0.19239	0.18993	0.15341	0.041305	0.23367	0.15478	0.24768	-1.8917	-2.6792	-2.4042	-2.6396	-2.6063	-2.5042	-2.6708	-2.6813	-2.5271	-2.7375	-2.4021	-2.6229	-2.6625	-2.4667	-2.3521	-2.8	290.491	332.497	43.606	14.121	170.131	307.024	297.431	66.001	22.301	286.978	214.289	253.355	301.651	294.013	247.699	294.141	0.00031414	0.001306	8.8846e-05	231.18	3.568e-06	3.366e-06	490.33	83.3	2.77e-06	8.4494e-06	227.66	122.62	39.473	18.278	5.8454e-07	68.041	0.0041889	0.0078425	0.0021909	251.9	7.8231e-05	8.8654e-05	506.17	90.203	7.5584e-05	8.7777e-05	238.75	127.3	44.844	19.676	7.9822e-05	70.304	217.782	56.052	36.768	2.508	281.994	178.771	3.575	7.586	125.683	79.718	6.351	10.809	11.772	14.458	264.632	12.986	-8191	255	
29648.350	1	1	0	0	0.30078	0.11288	0.14853	0.13262	0.22141	0.13951	0.059028	0.15097	0.20315	0.2533	0.10152	0.026846	0.081501	0.30805	0.1337	0.10601	-1.9375	-2.6208	-2.4	-2.3375	-2.8333	-2.5104	-2.6125	-2.6146	-2.3688	-2.8479	-2.6771	-2.4562	-2.7521	-2.5354	-2.8042	-2.875	271.808	197.193	295.396	272.860	301.210	90.833	139.507	327.922	84.091	238.483	211.552	312.624	47.403	328.513	60.428	210.953	0.00035733	0.00020608	0.00017682	230.24	8.1494e-06	4.0572e-06	488.08	83.108	3.9103e-06	6.9164e-06	227.85	122.43	39.569	18.441	9.3186e-06	68.181	0.0042554	0.0078424	0.0021958	251.41	7.7159e-05	8.9389e-05	505.71	90.276	7.5021e-05	8.8599e-05	239.17	127.47	44.974	19.826	8.2282e-05	70.433	220.536	296.877	66.707	3.535	182.780	169.774	3.520	7.938	228.412	112.563	6.818	10.749	11.633	14.275	140.631	13.223	-8191	255	
29648.469	1	1	0	0	0.29914	0.13746	0.25461	0.051522	0.017276	0.17014	0.28837	0.1547	0.12322	0.19307	0.23383	0.10738	0.074578	0.18851	0.23565	0.10001	-1.8854	-2.8021	-2.4708	-2.3708	-2.7875	-2.4958	-2.4188	-2.9125	-2.5146	-2.6208	-2.6708	-2.5271	-2.6708	-2.5354	-2.7167	-2.7229	277.578	10.218	264.671	71.056	222.920	222.399	206.173	116.610	94.757	173.059	303.985	341.151	147.855	332.883	84.925	-5.043	0.00026801	0.00037902	5.7668e-05	230.83	4.322e-06	1.8423e-06	489.16	83.701	1.0577e-06	3.8846e-06	229.59	122.71	39.481	18.556	6.7297e-06	68.776	0.0042656	0.008012	0.002256	251.59	7.781e-05	8.9149e-05	506.79	90.594	7.5368e-05	9.0479e-05	240.35	128.19	45.151	19.929	8.2029e-05	71.004	210.750	316.854	8.490	2.734	118.788	211.366	3.033	8.151	81.928	96.240	6.783	10.682	12.051	14.471	85.566	13.201	-8191	255	
29648.564	1	1	0	0	0.20388	0.09675	0.054317	0.19297	0.078809	0.18441	0.19351	0.06825	0.10412	0.12988	0.21157	0.2749	0.17964	0.17311	0.1322	0.27439	-2.0521	-2.5542	-2.5354	-2.3917	-2.7375	-2.5792	-2.5	-2.6583	-2.4833	-2.6104	-2.7375	-2.5521	-2.8958	-2.4125	-2.5333	-2.8667	163.864	99.445	68.391	55.292	331.190	7.054	222.943	294.132	96.019	99.111	13.692	328.589	168.800	248.365	98.867	284.070	0.00033705	0.00078435	0.00011769	232	4.8366e-06	4.1342e-06	489.71	82.947	4.1571e-06	5.4525e-06	230.73	123.35	39.845	18.511	5.6129e-06	68.93	0.0041978	0.0079595	0.0022644	252.41	7.827e-05	9.2012e-05	510.33	90.543	7.6352e-05	9.128e-05	241.64	128.82	45.309	20.014	8.4327e-05	71.308	221.816	52.481	252.202	3.056	216.765	265.018	3.339	7.831	223.406	138.723	6.769	10.669	11.692	14.553	266.573	13.037	-8191	255	
29648.660	1	1	0	0	0.0084557	0.20279	0.10159	0.025232	0.14777	0.10498	0.14489	0.13525	0.011289	0.24825	0.29776	0.053995	0.12891	0.17616	0.069481	0.14596	-1.8354	-2.425	-2.6583	-2.2583	-2.6042	-2.7021	-2.5667	-2.8583	-2.4313	-2.5708	-2.8187	-2.4917	-2.7313	-2.5333	-2.4396	-2.8146	57.916	199.181	-4.758	30.277	182.914	121.501	182.890	254.559	194.988	254.372	335.719	230.356	189.303	14.754	46.175	245.245	0.00030526	0.0006315	0.00012835	231.67	8.1766e-06	1.6572e-06	487.05	83.722	5.6889e-06	6.9754e-06	228.82	123.17	39.568	18.503	7.8462e-06	68.717	0.0042607	0.0082144	0.0022836	252.97	7.9868e-05	9.1839e-05	508.02	90.68	7.5877e-05	9.2792e-05	240.65	128.17	45.14	19.965	8.4179e-05	70.963	214.690	116.752	74.936	3.259	179.499	161.106	3.232	7.982	181.062	146.047	6.719	10.677	11.953	14.435	164.624	12.890	-8191	255	
29648.758	1	1	0	0	0.087317	0.45106	0.10799	0.24928	0.076303	0.1185	0.2538	0.14902	0.45727	0.099003	0.30088	0.19682	0.10758	0.15699	0.17186	0.2563	-1.9438	-2.5062	-2.8312	-2.4875	-2.7167	-2.7604	-2.3042	-2.7313	-2.5625	-2.6792	-2.95	-2.5458	-2.7021	-2.6458	-2.4667	-2.9583	299.017	109.076	196.646	-7.922	56.315	91.985	335.304	233.963	88.870	89.424	236.019	292.133	289.894	141.339	342.429	296.117	0.00029372	0.00057947	0.00017379	231.42	5.8293e-06	3.781e-06	484.99	83.365	1.7612e-06	6.7052e-06	228.28	122.78	39.489	18.377	8.7158e-06	68.128	0.0043046	0.0082676	0.0022886	252.69	8.0356e-05	9.3418e-05	507.02	90.575	7.7784e-05	9.3331e-05	240.01	128.07	45.113	19.923	8.478e-05	70.493	218.819	78.653	55.276	3.037	190.537	207.051	3.297	8.262	197.588	115.121	6.497	10.819	11.813	14.052	136.495	12.917	-8191	255	
29648.879	1	1	0	0	0.20952	0.050388	0.073166	0.18543	0.21791	0.21939	0.04871	0.14226	0.098202	0.19702	0.11583	0.37004	0.10798	0.085955	0.16315	0.11371	-1.9521	-2.4292	-2.625	-2.4167	-2.6625	-2.6063	-2.4646	-2.7396	-2.425	-2.2146	-2.8438	-2.5229	-2.6292	-2.6667	-2.5354	-2.9229	97.077	176.020	164.008	296.548	298.509	172.377	246.443	326.424	26.327	26.229	35.968	286.242	14.910	14.712	51.182	291.273	0.000373	0.00029539	0.00015258	232.72	4.0612e-06	5.5458e-07	484.8	83.451	3.1511e-06	4.949e-06	228.81	122.22	39.476	18.593	7.813e-06	68.575	0.0044293	0.0084073	0.0023463	253.66	8.1568e-05	9.4329e-05	507.58	90.427	7.7927e-05	9.6169e-05	240.11	127.81	45.099	19.967	8.4667e-05	70.611	224.460	78.213	44.456	2.345	318.257	93.227	3.302	8.169	13.135	77.027	6.997	10.797	11.668	14.173	195.517	12.845	-8191	255	
29648.949	1	1	0	0	0.26814	0.15796	0.093332	0.30236	0.078188	0.40625	0.21203	0.072001	0.14498	0.13997	0.066016	0.10046	0.19116	0.20859	0.12628	0.2721	-2.2021	-2.4646	-2.6417	-2.6479	-2.6188	-2.7687	-2.3688	-2.6792	-2.7438	-2.3792	-2.7458	-2.75	-2.5938	-2.6667	-2.5542	-2.9667	58.429	-1.388	283.584	246.149	323.573	34.348	214.818	277.074	236.940	-1.080	-6.278	279.811	119.584	314.143	119.825	276.062	0.00036843	0.00019277	0.00021945	229.89	5.1347e-06	5.1938e-06	489.97	83.343	7.7659e-06	7.4314e-06	229.07	123.04	39.646	18.391	1.9632e-06	68.538	0.004405	0.0084809	0.0023083	252.8	8.2084e-05	9.4489e-05	509.36	90.552	7.9121e-05	9.4942e-05	240.21	127.98	45.208	19.924	8.4804e-05	70.904	218.435	249.441	77.029	2.841	194.829	155.630	2.967	7.681	133.522	115.297	6.695	10.610	11.549	14.021	306.268	13.132	-8191	255	
29649.045	1	1	0	0	0.1335	0.097532	0.22037	0.25206	0.23843	0.051399	0.30437	0.27323	0.30684	0.062071	0.30979	0.14562	0.07927	0.23211	0.14837	0.22705	-2.1792	-2.4625	-2.7313	-2.5292	-2.5521	-2.7917	-2.5479	-2.6792	-2.7125	-2.5146	-2.7854	-2.4938	-2.4958	-2.8042	-2.7167	-2.7417	12.984	4.965	335.308	328.222	84.614	209.370	337.668	345.725	-6.558	301.886	33.566	4.973	281.701	201.093	9.650	182.553	0.00037533	0.00050102	5.8866e-05	230.2	7.5647e-06	4.7571e-06	487.97	83.673	2.6138e-06	1.8062e-06	229.32	122.44	39.428	18.452	5.3696e-06	68.318	0.0044313	0.0083961	0.0023173	252.67	8.2851e-05	9.4675e-05	508.83	90.896	7.952e-05	9.5734e-05	240.08	127.87	45.282	19.943	8.4744e-05	70.668	208.357	72.431	270.315	2.963	138.762	151.116	3.135	7.877	173.269	297.491	6.540	10.803	11.234	14.365	306.071	12.909	-8191	255	
29649.143	1	1	0	0	0.22794	0.19491	0.20498	0.11198	0.18871	0.043519	0.19881	0.027619	0.13549	0.25367	0.12328	0.13203	0.23716	0.1859	0.12787	0.38979	-2.4521	-2.2333	-2.5604	-2.5917	-2.4083	-2.9083	-2.6063	-2.6125	-2.8042	-2.4625	-2.95	-2.6208	-2.4167	-2.825	-2.5563	-2.7479	73.818	283.039	76.651	300.170	306.543	198.993	300.193	-8.521	66.139	302.433	303.747	321.230	164.473	31.496	16.039	323.717	0.00041618	0.00034814	6.9785e-05	230.39	2.389e-06	6.0098e-06	489.61	83.058	3.1517e-06	5.4357e-06	229.77	122.33	39.901	18.53	4.9092e-06	68.55	0.0044253	0.0084509	0.0023368	253.06	8.2633e-05	9.554e-05	508.18	90.478	8.0821e-05	9.3497e-05	240.42	127.8	45.382	19.971	8.5443e-05	70.864	220.295	69.730	80.193	3.420	210.578	113.031	3.349	8.320	147.795	131.017	6.948	10.579	11.513	14.307	113.631	12.897	-8191	255	
29649.262	1	1	0	0	0.091384	0.14898	0.21691	0.11267	0.17205	0.12434	0.31377	0.49487	0.16471	0.18597	0.22987	0.20009	0.18149	0.15998	0.19725	0.088229	-2.3521	-2.4208	-2.4229	-2.5667	-2.6542	-2.8667	-2.5896	-2.5771	-2.7333	-2.4375	-2.7042	-2.7792	-2.3292	-2.7313	-2.5708	-2.6083	312.467	327.771	56.482	25.688	213.088	-4.119	249.938	-9.496	137.372	166.192	209.423	348.614	298.515	296.610	132.570	5.562	0.00032518	0.00051451	5.3892e-05	230.55	2.6638e-06	4.7726e-06	484.2	83.584	3.7638e-06	4.5248e-07	228.64	123.19	39.899	18.586	2.1319e-06	69.314	0.0044762	0.0085681	0.0023631	253.09	8.4814e-05	9.556e-05	507.81	90.805	8.2607e-05	9.6905e-05	241.45	128.7	45.524	20.136	8.6786e-05	71.678	216.165	56.438	209.343	3.271	73.039	124.089	3.286	7.374	144.232	39.746	6.728	11.002	11.723	14.432	183.983	13.003	-8191	255	
29649.357	1	1	0	0	0.12179	0.30165	0.28067	0.18401	0.27324	0.12852	0.14272	0.043716	0.14021	0.12464	0.098896	0.21179	0.10477	0.23125	0.072182	0.1343	-2.5438	-2.1979	-2.5771	-2.6833	-2.4437	-2.8979	-2.7646	-2.4458	-2.7229	-2.5521	-2.7292	-2.6979	-2.5833	-2.6896	-2.7042	-2.6146	278.358	336.719	4.665	329.859	75.739	110.148	302.327	258.732	244.730	66.195	269.297	36.328	283.721	322.881	316.345	341.094	0.00036361	9.6325e-05	0.00015305	230.7	5.1237e-06	4.2472e-06	490.08	83.715	6.2943e-06	5.3427e-06	229.87	124.18	39.629	18.747	3.6505e-06	69.419	0.004482	0.0085353	0.0023566	253.45	8.3502e-05	9.6735e-05	509.93	91.114	8.1331e-05	9.6662e-05	242.23	129.57	45.673	20.252	8.8018e-05	71.644	214.555	162.349	119.443	2.450	111.882	107.518	3.220	8.218	145.452	75.114	6.628	10.625	10.987	14.338	305.020	12.890	-8191	255	
29649.453	1	1	0	0	0.12943	0.14175	0.19428	0.394	0.20475	0.50621	0.21202	0.25713	0.26904	0.32555	0.12562	0.28583	0.11848	0.10522	0.06988	0.20796	-2.3375	-2.4375	-2.6229	-2.5333	-2.5583	-2.375	-2.65	-2.5604	-2.8417	-2.5958	-2.5854	-2.6792	-2.5083	-2.6188	-2.6813	-2.4917	92.033	215.445	38.293	304.033	12.410	37.701	350.037	28.337	226.094	258.725	317.843	22.988	328.514	-2.986	234.244	54.657	0.00034347	0.00092404	3.4048e-05	230.98	3.7812e-06	2.5002e-06	486.27	84.137	5.0921e-06	5.2622e-06	230.22	123.72	39.841	18.834	8.9507e-06	69.054	0.0045174	0.0086918	0.0024252	254.66	8.3405e-05	9.6739e-05	510.42	91.292	8.1622e-05	9.8925e-05	242.09	129.24	45.627	20.276	8.9392e-05	71.341	219.111	53.244	135.318	2.939	193.202	151.184	3.375	8.151	194.087	131.438	6.497	10.871	12.101	14.511	72.058	12.927	-8191	255	
29649.551	1	1	0	0	0.22705	0.39428	0.14727	0.25869	0.14094	0.13897	0.19313	0.18563	0.28756	0.16211	0.24462	0.17352	0.17118	0.17894	0.10936	0.37146	-2.2313	-2.5	-2.4542	-2.6708	-2.4813	-2.4833	-2.6542	-2.45	-2.9	-2.5167	-2.5687	-2.8542	-2.4542	-2.6333	-2.9188	-2.3333	38.543	51.348	312.635	119.687	145.163	248.855	294.195	223.192	343.718	177.493	338.987	168.825	122.380	-1.223	134.399	264.647	0.00031917	7.233e-05	0.00010321	230.18	2.0066e-06	8.1612e-06	486.2	83.38	4.6916e-06	6.4903e-06	229.38	123.33	39.652	18.57	3.3586e-06	69.187	0.0045468	0.0086782	0.0024045	254.04	8.3713e-05	9.7788e-05	507.5	90.81	8.0926e-05	9.8411e-05	241.04	128.54	45.552	20.146	8.7943e-05	71.439	212.151	172.770	51.185	3.693	179.703	69.328	3.342	7.853	135.798	136.868	6.792	10.733	11.363	14.206	159.369	13.097	-8191	255	
29649.645	1	1	0	0	0.21393	0.17338	0.056529	0.045349	0.38794	0.085509	0.16509	0.076247	0.24596	0.056637	0.097654	0.17494	0.25352	0.32507	0.047613	0.14639	-2.3104	-2.3625	-2.5396	-2.6708	-2.4417	-2.6167	-2.8875	-2.3521	-2.7062	-2.5687	-2.6188	-2.85	-2.5583	-2.5812	-2.7646	-2.6125	214.343	189.767	25.650	317.563	18.944	4.930	247.500	91.913	20.815	-8.962	317.370	208.796	14.186	348.443	135.689	79.136	0.00037304	0.00058657	0.00024885	228.14	4.5833e-06	6.2963e-06	484.78	83.754	3.1718e-06	7.918e-06	230.8	123.66	39.598	18.656	6.5833e-06	69.548	0.0044686	0.0085869	0.0024111	252.37	8.318e-05	9.6859e-05	507.84	90.98	8.0327e-05	9.8188e-05	242.44	129.35	45.617	20.341	8.7471e-05	71.804	216.686	38.270	77.145	3.518	320.582	349.080	3.111	7.675	81.668	169.774	6.107	10.796	11.610	14.442	134.368	13.092	-8191	255	
29649.740	1	1	0	0	0.093795	0.23025	0.042218	0.34182	0.3723	0.13485	0.16231	0.12194	0.036061	0.33087	0.16114	0.28284	0.19971	0.14656	0.27048	0.35289	-2.2479	-2.5854	-2.4562	-2.7521	-2.4896	-2.5146	-2.7917	-2.4396	-2.6667	-2.6417	-2.5104	-2.9896	-2.5604	-2.5938	-2.8896	-2.6271	334.247	99.060	163.871	275.392	281.619	107.311	33.647	170.171	212.895	190.695	242.791	47.082	-1.145	185.888	121.434	283.705	0.00033315	0.00039289	0.00023246	230.1	5.6169e-06	4.3639e-06	491.27	84.305	2.0186e-06	3.9033e-06	231.29	124.41	40.224	18.729	7.0206e-06	69.423	0.00453	0.0087662	0.0023696	254.11	8.5196e-05	9.7681e-05	511.28	91.441	8.2231e-05	9.85e-05	242.59	129.73	45.988	20.288	8.8792e-05	71.792	227.970	18.739	54.024	2.698	348.416	204.506	3.154	7.745	28.821	110.082	6.834	10.592	11.485	14.289	127.304	12.901	-8191	255	
29649.861	1	1	0	0	0.22945	0.073038	0.25728	0.10301	0.17035	0.11433	0.14312	0.19637	0.39668	0.13029	0.084056	0.026331	0.12175	0.1329	0.25564	0.097026	-2.1104	-2.675	-2.5125	-2.6813	-2.5	-2.5771	-2.8375	-2.4646	-2.5229	-2.6667	-2.5521	-2.8625	-2.5021	-2.5563	-2.8417	-2.5958	130.099	180.232	78.370	126.150	37.160	78.688	-9.034	198.763	16.197	238.730	55.878	53.021	256.186	268.936	85.458	31.169	0.0002973	0.00081174	9.1508e-05	231.46	2.0079e-06	5.8039e-06	488.05	84.265	9.4064e-06	2.4081e-06	231.14	123.93	39.983	18.7	4.3805e-07	69.411	0.0046441	0.008812	0.0024424	254.68	8.7423e-05	0.00010057	510.6	91.584	8.2948e-05	0.00010068	242.28	129.36	45.772	20.306	8.7095e-05	71.7	213.561	-10.129	101.037	3.368	163.105	124.522	3.234	7.847	171.858	226.569	6.852	10.851	12.152	14.458	153.878	12.900	-8191	255	
29649.955	1	1	0	0	0.17251	0.024114	0.11451	0.19657	0.073531	0.059569	0.2409	0.16813	0.12003	0.27553	0.14285	0.15384	0.10256	0.058865	0.065398	0.11188	-2.0229	-2.7792	-2.5771	-2.6208	-2.65	-2.6646	-2.8333	-2.5417	-2.6625	-2.7083	-2.5854	-2.7375	-2.6729	-2.2417	-2.7833	-2.6604	164.174	281.945	264.470	242.030	229.803	280.189	211.393	122.590	331.608	90.906	348.692	4.248	85.672	131.121	115.994	321.338	0.00042903	0.0012276	7.4678e-05	230.73	2.6434e-06	9.5689e-06	487.92	83.81	1.7233e-06	7.2851e-06	230.37	124.07	39.919	18.921	1.5409e-05	69.351	0.0045893	0.008627	0.0023843	254.04	8.5176e-05	9.8556e-05	509.63	91.292	8.2459e-05	9.8719e-05	241.87	129.51	45.907	20.384	8.8669e-05	71.776	209.136	64.213	146.111	3.252	140.638	135.282	3.326	7.756	269.361	100.608	6.899	10.278	11.585	14.091	191.880	13.047	-8191	255	
29650.053	1	1	0	0	0.1672	0.20163	0.11445	0.045706	0.16268	0.20646	0.15556	0.18192	0.11458	0.095394	0.052227	0.13458	0.19249	0.040065	0.11035	0.26023	-2.3063	-2.7083	-2.5708	-2.6958	-2.6604	-2.5021	-2.8604	-2.6937	-2.6958	-2.8187	-2.4354	-2.8208	-2.6312	-2.5104	-2.6813	-2.7562	339.996	61.398	72.045	217.340	9.564	229.120	233.308	220.137	68.426	195.061	347.281	314.021	82.022	251.639	68.144	218.805	0.00033876	0.00058632	0.00010114	232.99	5.0157e-06	5.0573e-06	489.04	83.719	4.1895e-06	5.7934e-06	230.4	123.88	40.219	18.61	7.6953e-06	69.141	0.0045771	0.0086018	0.0024	255.06	8.4992e-05	9.69e-05	509.88	91.206	8.2539e-05	9.6914e-05	242.39	129.42	45.894	20.235	8.9004e-05	71.506	219.076	46.865	51.192	2.661	52.749	215.660	3.314	8.206	153.853	95.331	6.822	10.500	12.006	14.059	155.591	13.056	-8191	255	
29650.148	1	1	0	0	0.35722	0.14508	0.10161	0.16682	0.027216	0.18672	0.10455	0.088396	0.094023	0.18105	0.21999	0.086763	0.26893	0.18412	0.19345	0.28059	-1.7917	-2.8021	-2.4792	-2.5958	-2.5479	-2.4792	-2.8479	-2.6667	-2.4146	-2.6437	-2.6188	-2.5271	-2.6917	-2.3854	-2.5792	-2.7292	176.590	3.432	12.897	341.014	298.613	278.460	110.544	13.205	268.840	343.286	211.444	297.576	235.693	15.975	95.554	227.389	0.00032769	0.00032999	0.0002105	232.3	2.0811e-06	6.7895e-06	491.76	83.919	5.0806e-06	2.642e-06	232.24	124.07	40.192	18.717	7.8444e-06	69.785	0.004689	0.0087941	0.0024591	256.14	8.6812e-05	9.8372e-05	511.17	91.882	8.2317e-05	9.8401e-05	243.27	130	46.02	20.346	8.9007e-05	72.106	219.241	348.790	151.801	2.815	110.353	177.932	3.402	8.185	97.435	100.622	6.590	10.730	11.974	14.220	131.291	12.834	-8191	255	
29650.244	1	1	0	0	0.1022	0.11238	0.040374	0.087516	0.083409	0.098781	0.15402	0.14851	0.35022	0.15167	0.2162	0.13173	0.29763	0.031535	0.30297	0.21301	-1.8958	-2.6604	-2.5354	-2.4333	-2.6625	-2.5479	-2.7687	-2.6646	-2.4646	-2.7188	-2.5979	-2.5979	-2.6708	-2.325	-2.6312	-2.7771	79.705	225.786	201.333	145.786	288.405	302.222	14.574	320.753	339.388	6.648	304.206	236.771	60.901	27.433	144.027	2.803	0.00040468	0.0003443	0.00021171	230.68	1.3826e-06	7.6988e-06	489.36	85.105	1.7651e-06	2.0827e-06	230.71	124.39	39.648	18.694	8.4433e-06	69.365	0.0046519	0.0087081	0.002435	255.12	8.5982e-05	9.792e-05	511.76	92.076	8.2696e-05	9.7808e-05	242.76	129.51	45.681	20.232	8.8034e-05	71.664	217.967	233.739	65.724	3.195	212.367	104.266	3.443	7.968	195.140	214.922	6.350	10.751	12.055	14.179	81.581	12.869	-8191	255	
29650.342	1	1	0	0	0.11397	0.29373	0.050078	0.13931	0.10547	0.021679	0.31746	0.088623	0.14392	0.26153	0.29019	0.19244	0.23973	0.11561	0.11225	0.12602	-1.8813	-2.7042	-2.6042	-2.4625	-2.8187	-2.4938	-2.7438	-2.7333	-2.3438	-2.7771	-2.6188	-2.5917	-2.7354	-2.4	-2.4667	-2.9333	95.653	253.855	122.110	237.647	232.358	205.417	312.493	310.921	-7.538	110.259	282.079	307.317	302.342	91.291	77.064	101.541	0.00034134	0.00078146	5.2629e-05	233.19	5.7253e-06	3.4278e-06	486.97	84.17	7.9242e-06	1.8837e-06	230.3	123.6	39.828	18.673	4.048e-06	68.807	0.004594	0.0087454	0.002419	254.81	8.4452e-05	9.8255e-05	510.52	91.454	8.1969e-05	9.8432e-05	241.46	129.26	45.868	20.261	8.9725e-05	71.482	224.018	88.975	183.378	3.421	188.421	169.481	3.045	7.505	172.966	189.467	6.617	10.724	11.582	14.245	196.772	12.890	-8191	255	
29650.438	1	1	0	0	0.11061	0.0041832	0.042598	0.091191	0.20491	0.13746	0.27943	0.23096	0.071122	0.17003	0.14939	0.21929	0.19472	0.20126	0.095835	0.19399	-1.9167	-2.5938	-2.4792	-2.4833	-2.6917	-2.4917	-2.6604	-2.7687	-2.4125	-2.8708	-2.6792	-2.5083	-2.775	-2.4	-2.4229	-2.8667	338.152	266.512	318.998	71.559	102.026	166.165	312.444	142.519	258.528	152.284	296.744	207.837	218.407	261.046	109.986	309.544	0.00029689	0.00017818	8.7847e-05	232.95	2.8395e-06	3.2309e-06	491.88	83.989	1.1068e-05	3.7811e-06	230.25	123.39	40.106	18.658	2.0359e-06	68.895	0.0046247	0.00898	0.0025126	255.16	8.6106e-05	9.9632e-05	510.79	91.075	8.1646e-05	9.8719e-05	241.57	128.73	45.656	20.169	8.9083e-05	71.203	209.124	165.722	101.380	2.844	183.300	138.786	3.439	7.419	192.365	231.036	6.724	10.732	12.042	14.292	176.081	12.963	-8191	255	
29650.559	1	1	0	0	0.20731	0.14464	0.20905	0.16048	0.25895	0.099177	0.17451	0.10203	0.34992	0.13586	0.14634	0.11757	0.13401	0.19949	0.30036	0.33397	-1.9542	-2.6375	-2.4396	-2.4042	-2.7625	-2.4854	-2.4708	-2.8042	-2.45	-2.5812	-2.7042	-2.4125	-2.7333	-2.6188	-2.3729	-2.9271	164.641	210.525	217.410	300.282	216.739	38.154	130.829	38.290	229.778	319.463	301.477	344.102	37.772	316.259	202.340	37.673	0.0003668	0.00047349	6.0439e-05	231.01	3.6277e-06	8.4965e-06	488.45	83.688	3.993e-06	2.2302e-06	230.26	122.19	39.627	18.333	5.6974e-06	68.488	0.0045479	0.0087711	0.0024202	253.99	8.4548e-05	9.835e-05	510.4	90.747	8.1444e-05	9.8048e-05	241.31	128.08	45.283	19.958	9.0441e-05	70.726	218.409	193.465	268.580	3.199	151.410	100.666	2.917	8.275	171.736	244.042	6.442	10.914	11.640	14.553	210.901	13.013	-8191	255	
29650.654	1	1	0	0	0.17267	0.21235	0.13268	0.22826	0.18113	0.20891	0.34562	0.27083	0.10494	0.18244	0.17492	0.16126	0.16613	0.24379	0.38292	0.19428	-1.9562	-2.5667	-2.675	-2.3646	-2.7375	-2.6333	-2.5708	-2.6063	-2.5396	-2.4854	-2.8979	-2.4604	-2.5896	-2.6104	-2.3729	-2.7271	61.438	348.588	117.748	212.399	193.457	167.683	304.492	-0.222	131.500	218.154	51.183	134.068	291.107	202.377	105.435	339.688	0.00029121	0.00033954	0.00018319	229.48	4.0281e-06	6.7985e-06	484.88	82.932	6.3764e-06	4.6258e-06	226.99	121.54	39.12	18.332	5.1079e-06	68.165	0.0046092	0.0087339	0.002408	254.36	8.5291e-05	9.8547e-05	508.86	89.974	8.2618e-05	9.8762e-05	239.34	127.2	45.117	19.92	8.7907e-05	70.491	215.221	33.658	127.700	2.928	218.505	132.063	3.125	7.906	129.343	176.439	6.791	11.204	11.620	14.519	230.642	13.022	-8191	255	
29650.748	1	1	0	0	0.15799	0.27559	0.036363	0.20384	0.043603	0.2419	0.060575	0.2338	0.16675	0.16712	0.25263	0.36193	0.062696	0.058451	0.099653	0.28718	-2.05	-2.4188	-2.6146	-2.2521	-2.6146	-2.5812	-2.4375	-2.6542	-2.5167	-2.6063	-2.8792	-2.4833	-2.8271	-2.6917	-2.5646	-2.7917	104.148	296.735	349.443	271.169	240.177	43.454	327.807	298.464	309.806	55.285	28.878	241.853	330.661	322.550	222.146	290.204	0.00031687	0.00038707	0.00011801	229.61	3.5373e-06	1.0629e-05	483.72	82.403	6.2287e-06	4.3578e-07	227.58	121.68	39.377	18.342	8.2226e-06	68.249	0.0045774	0.0086767	0.0023397	251.96	8.3035e-05	9.5895e-05	505.03	90.055	8.105e-05	9.6855e-05	238.6	127.18	45.058	19.832	8.6213e-05	70.513	205.396	47.990	93.235	3.290	92.381	182.288	3.101	8.009	159.820	155.225	6.719	10.618	11.404	14.026	170.757	13.095	-8191	255	
29650.822	1	1	0	0	0.30461	0.19264	0.12944	0.16924	0.039658	0.10924	0.056319	0.18214	0.078154	0.23094	0.10978	0.097418	0.079546	0.21459	0.068634	0.14633	-2.0667	-2.3104	-2.6813	-2.5812	-2.5396	-2.7	-2.3917	-2.7771	-2.4813	-2.4	-2.7667	-2.5563	-2.5729	-2.8833	-2.2104	-2.6333	208.653	119.269	288.722	70.256	163.571	290.677	312.693	223.730	47.124	342.759	338.762	198.542	11.401	22.097	323.952	245.654	0.00022779	0.00054566	0.00010104	228.92	3.9487e-06	1.3903e-06	485.48	82.783	5.5361e-06	7.5341e-06	227.45	122.16	39.173	18.364	3.1383e-06	68.315	0.0045086	0.0086323	0.0023206	252.65	8.3143e-05	9.5255e-05	506.48	90.155	8.0338e-05	9.5968e-05	239.25	127.48	44.953	19.866	8.4109e-05	70.551	216.649	281.459	178.324	3.719	93.234	298.606	3.118	7.655	175.683	193.101	6.644	10.713	11.679	14.588	282.175	13.044	-8191	255	
29650.941	1	1	0	0	0.16734	0.13091	0.18236	0.061522	0.15105	0.14402	0.35357	0.24668	0.13238	0.17143	0.22924	0.16951	0.33927	0.15078	0.18042	0.13773	-2.0958	-2.4792	-2.5708	-2.5979	-2.6167	-2.7083	-2.5771	-2.7292	-2.5187	-2.4	-2.8771	-2.5396	-2.4813	-2.8104	-2.5354	-2.6917	257.393	197.425	220.286	120.583	66.222	87.935	250.945	42.645	263.545	164.002	323.775	219.211	205.701	327.059	102.416	255.835	0.00030124	0.00067436	1.6097e-05	230.2	7.1594e-06	1.4452e-06	487.3	83.511	6.1977e-06	3.2775e-06	230.5	123.04	39.59	18.479	2.8096e-06	68.728	0.0044896	0.0083336	0.0022951	253.28	8.1947e-05	9.267e-05	507.2	90.46	7.7916e-05	9.4212e-05	241.06	128.11	45.177	19.913	8.4958e-05	70.983	224.263	94.182	185.925	3.194	209.815	158.924	3.525	7.848	238.114	191.445	6.722	10.544	11.867	14.126	192.348	13.024	-8191	255	
29651.037	1	1	0	0	0.16701	0.1972	0.065357	0.047133	0.14234	0.10758	0.090193	0.18042	0.11374	0.1913	0.14916	0.064348	0.2202	0.18015	0.12675	0.12272	-2.1896	-2.3667	-2.4583	-2.5146	-2.5583	-2.6813	-2.625	-2.5958	-2.7292	-2.5104	-2.7313	-2.6312	-2.4458	-2.6437	-2.4375	-2.825	145.336	186.934	232.324	297.976	98.835	83.033	250.903	198.564	327.856	201.290	311.541	278.047	319.854	12.698	212.858	282.982	0.00034763	0.00019666	0.00016628	230.72	4.7322e-06	6.6977e-06	486.4	83.448	5.5133e-06	3.4435e-06	229.59	122.78	39.463	18.37	5.2267e-07	67.808	0.0044611	0.0083626	0.0023492	252.95	8.1996e-05	9.4078e-05	508.98	90.65	7.866e-05	9.4777e-05	240.51	127.83	45.029	19.807	8.505e-05	70.273	225.525	275.120	56.218	2.974	130.364	160.211	3.181	8.027	164.198	105.455	6.791	10.849	11.938	14.215	183.908	12.947	-8191	255	
29651.133	1	1	0	0	0.15086	0.026518	0.23714	0.21285	0.13051	0.11437	0.1171	0.24703	0.19201	0.2437	0.15605	0.12556	0.083886	0.13604	0.089115	0.25623	-2.2167	-2.2396	-2.65	-2.6917	-2.2896	-2.5792	-2.3458	-2.5979	-2.6833	-2.5625	-2.7771	-2.8896	-2.3542	-2.7354	-2.65	-2.7229	346.920	184.736	306.395	244.956	86.285	265.757	192.469	308.689	-8.791	137.951	245.041	-5.173	98.703	26.757	42.861	239.406	0.00030572	0.00034389	0.00010043	230.23	8.7418e-06	8.8856e-06	487.13	82.553	2.9315e-06	5.6743e-06	227.3	121.78	39.212	18.103	8.6468e-07	67.883	0.0044222	0.0084325	0.0023495	252.57	8.1151e-05	9.3821e-05	506.78	89.968	7.7923e-05	9.3528e-05	238.63	126.77	44.605	19.645	8.4933e-05	70.007	230.931	95.581	123.627	3.235	205.211	117.929	3.157	7.930	193.252	144.055	6.682	10.710	11.665	14.359	172.285	12.803	-8191	255	
29651.229	1	1	0	0	0.076547	0.12142	0.11984	0.042673	0.12446	0.13821	0.11797	0.12596	0.092507	0.29454	0.031367	0.094415	0.081097	0.27066	0.087375	0.17372	-2.0958	-2.3646	-2.6458	-2.5417	-2.2375	-2.7854	-2.5854	-2.6104	-2.8458	-2.3875	-2.7854	-2.7188	-2.525	-3.0771	-2.4125	-2.4354	206.091	3.486	251.266	146.977	163.496	54.414	193.787	92.883	254.599	9.940	123.835	1.034	1.608	305.098	187.808	326.661	0.00035792	0.0004091	0.00021991	229.71	2.3259e-06	3.2216e-06	485.17	82.31	5.4977e-06	2.2339e-06	227.9	122.1	39.331	18.429	5.7368e-06	67.89	0.0043319	0.0082772	0.0023116	252.3	7.948e-05	9.2805e-05	506.29	89.856	7.6521e-05	9.4533e-05	239.67	127.35	44.777	19.821	8.587e-05	70.329	215.241	128.655	92.069	3.259	77.321	79.058	3.241	7.954	206.786	101.258	6.619	10.673	11.665	13.661	136.957	12.946	-8191	255	
29651.350	1	1	0	0	0.19852	0.14764	0.16833	0.14533	0.17992	0.095859	0.26819	0.32732	0.22979	0.19422	0.32845	0.17574	0.039762	0.14776	0.067614	0.19628	-2.3042	-2.4542	-2.6625	-2.7333	-2.5292	-2.7208	-2.6542	-2.4	-2.6271	-2.4271	-2.5896	-2.7792	-2.25	-2.7875	-2.5979	-2.7229	2.553	63.415	157.722	301.012	196.631	115.274	287.428	321.214	8.147	222.714	199.371	156.533	333.026	143.409	85.650	225.991	0.00035282	0.00092211	0.00013554	228.61	4.8025e-06	2.6131e-06	482.68	82.943	1.6296e-06	4.9981e-06	228.29	121.54	39.193	18.419	7.0018e-06	68.454	0.0043754	0.0083253	0.0023319	252.78	8.0455e-05	9.3354e-05	507.05	89.949	7.6806e-05	9.3516e-05	239.94	127.44	44.752	19.855	8.4405e-05	70.642	221.378	34.664	47.038	2.847	191.339	196.217	3.330	7.916	81.517	184.884	6.495	10.983	11.749	14.476	126.787	12.823	-8191	255	
29651.445	1	1	0	0	0.093395	0.23137	0.03338	0.083479	0.3745	0.19114	0.13918	0.13122	0.10347	0.11087	0.2268	0.17732	0.23403	0.22386	0.048517	0.05446	-2.3208	-2.4792	-2.4646	-2.8271	-2.3833	-2.725	-2.6625	-2.2771	-2.7938	-2.4667	-2.6917	-2.8521	-2.5	-2.7292	-2.5333	-2.4958	227.395	11.359	337.170	49.972	105.927	282.575	331.578	19.526	322.466	206.789	48.722	224.742	305.177	58.384	293.493	85.741	0.00035803	0.00035826	0.00028466	230.29	2.2678e-06	3.5034e-06	488.4	83.33	4.849e-06	2.4638e-06	229.63	122.39	39.112	18.532	1.1926e-05	68.379	0.0043651	0.0084051	0.0023192	252.14	8.0723e-05	9.229e-05	508.73	90.188	7.7172e-05	9.3919e-05	240.62	127.4	44.789	19.879	8.3492e-05	70.591	211.147	322.295	30.552	3.235	52.090	136.424	3.470	7.567	147.810	53.980	6.861	10.887	11.657	14.035	171.326	13.148	-8191	255	
29651.543	1	1	0	0	0.19058	0.144	0.082164	0.15621	0.065355	0.26979	0.38798	0.24805	0.055253	0.17504	0.14147	0.051486	0.13431	0.059613	0.098158	0.30648	-2.2792	-2.5729	-2.2125	-2.675	-2.4979	-2.8167	-2.6708	-2.4125	-2.8542	-2.6375	-2.4938	-2.7708	-2.5187	-2.6188	-2.8104	-2.7042	330.793	233.642	91.428	318.480	344.835	265.365	242.277	331.077	26.769	86.043	315.462	222.048	210.762	240.169	78.579	316.260	0.00032656	0.00055704	0.00016149	231.94	6.068e-06	8.5341e-06	488.31	82.383	3.7554e-06	4.5533e-06	229.42	121.9	39.496	18.341	7.3765e-06	68.78	0.0043465	0.0081947	0.0022823	252.13	8.1707e-05	9.2331e-05	506.17	89.922	7.7248e-05	9.2864e-05	239.72	127.1	44.873	19.85	8.1637e-05	70.62	212.565	83.185	-1.946	2.790	102.425	109.231	3.481	8.104	102.363	79.717	6.170	10.594	11.386	14.210	150.545	12.962	-8191	255	
29651.639	1	1	0	0	0.11025	0.085632	0.11974	0.17055	0.14572	0.033063	0.11728	0.14181	0.090744	0.18248	0.41585	0.10201	0.26581	0.04946	0.085465	0.12069	-2.1937	-2.5062	-2.3917	-2.7042	-2.6708	-2.55	-2.8542	-2.55	-2.6458	-2.5187	-2.4833	-2.7646	-2.6312	-2.5146	-2.7083	-2.5687	82.529	45.899	236.209	222.379	338.530	139.633	236.851	167.611	19.444	100.109	327.293	260.114	50.104	338.453	184.983	182.983	0.00031812	0.00056333	0.00015942	229.34	9.3748e-06	7.5934e-06	488.31	82.471	2.7366e-06	3.5377e-06	229.24	122.79	39.275	18.5	4.6318e-06	68.468	0.0042837	0.0082174	0.00225	251.7	7.9153e-05	9.1759e-05	506.85	89.723	7.6512e-05	9.1441e-05	239.83	127.47	44.84	19.937	8.1595e-05	70.746	207.463	136.008	47.473	2.968	247.021	116.749	3.537	7.924	283.816	164.700	6.926	10.588	11.250	14.352	232.155	13.004	-8191	255	
29651.734	1	1	0	0	0.14593	0.13212	0.2165	0.25597	0.23498	0.19117	0.38466	0.18557	0.29955	0.17053	0.22358	0.038253	0.13586	0.38733	0.19475	0.20271	-2.1542	-2.6437	-2.4729	-2.8354	-2.5604	-2.5146	-2.7979	-2.5062	-2.6521	-2.6958	-2.5854	-2.7687	-2.5396	-2.6021	-2.8604	-2.55	325.512	286.098	17.072	204.482	280.242	208.789	246.492	339.036	337.773	171.287	281.959	273.553	30.980	234.227	4.940	322.293	0.00030522	0.00061494	0.00010636	229.17	7.3162e-06	4.6296e-06	492.16	83.158	3.7489e-06	3.3004e-06	230.09	123.09	39.659	18.539	7.7685e-06	69.091	0.0042882	0.0080919	0.0022072	251.98	7.9158e-05	8.9455e-05	508.47	90.265	7.6837e-05	9.0581e-05	241.26	128.22	45.02	20.042	8.0107e-05	71.308	208.736	68.850	279.887	2.900	129.704	176.948	3.275	7.556	105.000	206.085	6.994	10.679	11.905	14.114	123.217	12.880	-8191	255	
29651.830	1	1	0	0	0.19582	0.26141	0.11852	0.23571	0.16868	0.15107	0.032864	0.082217	0.14744	0.063763	0.18125	0.20314	0.03452	0.28661	0.30323	0.24327	-2.2271	-2.6396	-2.3812	-2.7708	-2.4833	-2.4604	-2.875	-2.45	-2.6333	-2.8312	-2.4938	-2.7521	-2.5833	-2.3917	-2.9479	-2.7313	9.308	145.544	314.175	328.548	-2.272	107.520	4.386	161.712	286.707	210.230	294.729	347.315	118.253	160.019	257.815	315.457	0.00023886	0.0010213	0.0001369	230.91	6.495e-06	3.2171e-06	488.49	83.9	3.229e-06	1.8803e-06	230.67	124.1	40.064	18.815	2.5727e-06	69.175	0.0042682	0.0080632	0.0022046	252.77	7.7995e-05	8.8952e-05	509.15	90.792	7.6076e-05	8.98e-05	242.5	128.89	45.431	20.204	8.1826e-05	71.367	222.575	39.767	-9.765	2.623	202.251	99.373	3.299	7.889	147.646	216.336	6.755	10.674	11.533	14.182	277.905	12.719	-8191	255	
29651.949	1	1	0	0	0.0925	0.2312	0.23373	0.23984	0.15224	0.098321	0.065985	0.093025	0.12226	0.10352	0.11975	0.29748	0.22695	0.14805	0.14321	0.21222	-1.9438	-2.375	-2.5729	-2.7062	-2.5812	-2.4167	-2.9	-2.5042	-2.6875	-2.7833	-2.4833	-2.775	-2.5292	-2.5271	-2.85	-2.5708	122.357	10.676	-7.860	24.228	103.770	146.979	242.185	329.437	195.161	326.853	344.154	285.352	2.995	343.828	223.582	337.424	0.0003537	0.0004995	0.00019706	230.85	5.2477e-06	1.5578e-06	487.76	83.404	4.3777e-06	4.5492e-06	231.46	123.92	39.695	18.787	8.2149e-06	69.438	0.004287	0.0079024	0.0022046	252.43	7.8327e-05	8.9605e-05	507.51	90.62	7.5457e-05	8.8463e-05	241.78	128.81	45.25	20.163	8.248e-05	71.567	220.537	314.409	51.911	2.726	148.754	132.503	3.103	8.061	227.517	139.258	6.443	10.572	11.358	14.203	146.169	12.973	-8191	255	
29652.045	1	1	0	0	0.16937	0.36015	0.26394	0.11116	0.12265	0.15123	0.20993	0.2591	0.13256	0.088005	0.069655	0.27853	0.14632	0.23548	0.23814	0.22232	-2.0833	-2.7042	-2.425	-2.7562	-2.6813	-2.4104	-2.8542	-2.4896	-2.3937	-2.7771	-2.5229	-2.5354	-2.6125	-2.4188	-2.725	-2.6958	165.956	295.392	47.896	44.460	203.761	195.123	309.495	226.071	273.082	68.276	215.910	274.024	308.858	339.947	271.576	321.163	0.00027751	0.00055363	0.00019194	231.17	4.5414e-06	2.427e-06	490.94	83.857	1.7087e-06	1.0846e-05	231.37	123.34	39.853	18.684	3.8738e-06	69.359	0.004206	0.0079921	0.0022399	253.15	7.812e-05	9.0356e-05	508.81	90.861	7.4715e-05	9.0292e-05	242.03	128.68	45.286	20.137	8.2317e-05	71.589	224.464	67.682	110.336	3.528	268.732	143.937	3.254	7.887	272.465	97.494	6.871	10.775	11.335	14.265	115.162	12.788	-8191	255	
29652.117	1	1	0	0	0.1155	0.2035	0.26578	0.096479	0.13347	0.24407	0.2936	0.074749	0.19658	0.072239	0.05282	0.065348	0.1283	0.19468	0.25279	0.15284	-2.0958	-2.7938	-2.5812	-2.6271	-2.6354	-2.45	-2.8229	-2.6771	-2.4813	-2.7042	-2.4208	-2.5938	-2.6813	-2.2854	-2.8438	-2.5896	82.596	171.801	336.491	242.942	306.525	84.541	51.624	243.602	322.435	220.609	7.991	279.273	343.210	267.990	209.630	248.671	0.00038015	0.00029267	1.8208e-05	232.15	1.1846e-05	5.2025e-07	492.88	83.718	2.9546e-06	6.8088e-06	232.09	123.99	39.858	18.847	8.1356e-06	69.578	0.004178	0.0080437	0.0022387	253.21	7.7832e-05	9.1491e-05	509.87	91.081	7.5239e-05	9.1648e-05	243.19	128.99	45.432	20.203	8.3618e-05	71.572	220.842	20.443	127.498	3.453	142.651	177.565	3.437	7.773	257.118	165.919	6.544	10.734	11.701	14.275	207.426	12.662	-8191	255	
29652.238	1	1	0	0	0.28875	0.19632	0.1291	0.25394	0.031732	0.03845	0.18938	0.062978	0.1855	0.15639	0.17191	0.015565	0.097101	0.074439	0.056792	0.20829	-1.9125	-2.7687	-2.3937	-2.5187	-2.625	-2.4188	-2.6604	-2.5958	-2.4875	-2.7958	-2.6917	-2.4625	-2.6271	-2.3396	-2.6792	-2.7313	80.807	37.281	27.236	314.699	81.121	20.962	333.373	-7.089	2.389	228.563	236.544	30.147	7.371	333.543	2.879	262.583	0.00039579	0.00072338	0.00016492	231.15	9.1558e-06	8.3463e-06	495.31	84.527	3.9606e-06	6.9067e-06	231.27	124.02	39.875	18.665	5.116e-06	69.46	0.0042466	0.0082314	0.0022548	253.59	7.8952e-05	9.2433e-05	512.28	91.143	7.5636e-05	9.3363e-05	242.58	128.89	45.364	20.176	8.3958e-05	71.546	210.665	96.401	80.295	2.978	187.835	95.790	3.058	7.762	164.683	164.940	6.463	10.853	11.842	14.348	134.696	12.791	-8191	255	
29652.334	1	1	0	0	0.10548	0.14579	0.23685	0.13259	0.081315	0.16233	0.10422	0.33605	0.31687	0.089394	0.21319	0.12941	0.18105	0.28772	0.16347	0.36537	-1.7938	-2.7438	-2.3917	-2.4	-2.6562	-2.6146	-2.6771	-2.7021	-2.3688	-2.8	-2.6125	-2.6937	-2.7833	-2.4792	-2.4229	-2.8146	128.793	240.143	115.863	176.005	239.369	131.120	16.758	108.956	64.102	107.147	-3.228	186.371	300.783	339.738	312.271	287.103	0.00028905	0.00058484	0.00022788	230.66	3.8558e-06	7.1518e-06	485.04	83.303	1.0189e-06	3.8109e-06	230.84	123.46	40.218	18.729	3.2911e-06	69.19	0.0043021	0.0082088	0.0022334	252.65	7.8159e-05	9.2419e-05	509.09	90.502	7.599e-05	9.2857e-05	241.56	128.54	45.452	20.175	8.2268e-05	71.301	214.183	78.167	76.142	2.808	178.387	177.223	3.347	7.961	174.495	191.479	6.640	10.550	11.770	14.547	338.639	12.687	-8191	255	
29652.430	1	1	0	0	0.10094	0.21822	0.13363	0.33208	0.27527	0.27468	0.15307	0.20425	0.47222	0.1084	0.39186	0.12272	0.11211	0.068286	0.28072	0.12167	-1.8292	-2.7167	-2.5771	-2.4125	-2.7875	-2.5375	-2.6292	-2.6167	-2.5021	-2.5958	-2.5542	-2.3979	-2.6562	-2.5958	-2.6854	-2.6958	41.634	125.045	102.988	229.674	341.174	81.606	336.964	237.413	226.161	253.953	280.113	289.224	77.831	264.833	257.721	22.312	0.0003024	0.00029246	6.136e-05	232.28	1.1713e-06	5.7323e-06	491.17	83.896	3.0473e-06	5.8157e-06	231.94	123.67	40.186	18.757	1.6658e-06	69.052	0.0042951	0.0081049	0.0022203	252.8	7.8835e-05	9.182e-05	509.77	90.888	7.6533e-05	9.2908e-05	242.08	128.76	45.386	20.198	8.1087e-05	71.343	221.060	71.319	115.287	2.584	122.187	97.736	3.018	7.477	111.031	119.676	6.681	10.628	11.810	14.507	45.616	12.801	-8191	255	
29652.525	1	1	0	0	0.094426	0.24347	0.14224	0.12964	0.19143	0.096992	0.29735	0.10421	0.11217	0.20059	0.12769	0.32735	0.13197	0.20932	0.18497	0.076588	-1.9229	-2.4333	-2.6896	-2.3083	-2.8542	-2.3292	-2.4542	-2.6896	-2.3271	-2.6188	-2.8729	-2.5438	-2.7333	-2.5687	-2.4667	-2.8208	304.974	308.834	319.418	98.432	-5.353	167.784	335.514	16.315	269.915	200.168	63.972	42.351	285.058	10.431	206.880	72.494	0.00035156	0.00055508	7.3793e-05	231.8	4.8876e-06	9.1862e-06	491.11	84.515	6.4705e-06	4.6526e-06	232.06	123.89	40.183	18.704	3.5447e-06	69.661	0.0042709	0.0081128	0.0022171	253.29	7.9635e-05	9.2358e-05	509.74	91.351	7.6597e-05	9.2434e-05	242.96	129.23	45.615	20.243	8.0322e-05	71.783	228.355	4.372	338.573	3.317	112.976	106.387	3.207	7.733	172.982	154.015	6.705	10.669	12.062	14.006	334.108	13.004	-8191	255	
29652.621	1	1	0	0	0.086234	0.10938	0.056207	0.13941	0.074763	0.032486	0.13487	0.15426	0.071017	0.22084	0.11523	0.10918	0.10235	0.21044	0.21563	0.20385	-2.1229	-2.5958	-2.5958	-2.6354	-2.7146	-2.5604	-2.6396	-2.5979	-2.5229	-2.7062	-2.675	-2.4146	-2.925	-2.7417	-2.4854	-2.8708	342.870	225.477	142.657	346.181	-10.107	326.222	253.907	226.459	28.795	169.756	157.010	301.658	325.748	173.142	126.064	-1.306	0.00040378	0.00024539	2.4177e-05	230.64	8.3959e-06	6.8924e-06	491.53	84.406	6.6865e-06	6.8991e-06	232.32	124.37	39.932	18.892	8.6684e-06	69.658	0.0042979	0.0080365	0.0021976	253.48	7.9737e-05	9.1726e-05	510.85	91.198	7.69e-05	9.1452e-05	243.49	129.44	45.487	20.202	7.9701e-05	71.86	213.954	77.794	219.130	2.841	158.463	226.397	3.274	7.786	298.805	99.891	6.588	10.973	11.942	14.541	206.839	12.901	-8191	255	
29652.740	1	1	0	0	0.26885	0.16792	0.24043	0.41	0.18787	0.20659	0.35086	0.30466	0.41463	0.47326	0.15287	0.13667	0.062849	0.31993	0.14267	0.24687	-2.1562	-2.4479	-2.9042	-2.3333	-2.5187	-2.5938	-2.6354	-2.6562	-2.4125	-2.5229	-2.55	-2.4583	-2.5271	-2.7354	-2.4042	-2.9062	98.326	150.163	286.185	347.338	255.287	181.984	11.485	97.433	86.857	93.282	295.468	256.473	340.568	21.764	240.043	192.662	0.00034549	0.0010845	0.00038881	230.06	2.3218e-06	4.5299e-06	490.48	83.715	2.0125e-06	3.3919e-06	232.46	123.96	40.205	18.732	5.8327e-06	69.356	0.0042409	0.0078261	0.0021678	252.83	7.6959e-05	8.8424e-05	509.65	91.156	7.523e-05	8.9482e-05	242.51	128.96	45.545	20.192	8.1338e-05	71.452	227.050	63.790	119.798	3.001	119.712	158.234	3.522	7.849	214.802	140.409	6.672	10.643	11.850	13.999	214.292	13.018	-8191	255	
29652.814	1	1	0	0	0.22783	0.075944	0.15469	0.13892	0.14703	0.082483	0.1704	0.23507	0.24489	0.1551	0.17761	0.30783	0.30311	0.34228	0.1996	0.13773	-2.0583	-2.5563	-2.7188	-2.4021	-2.7021	-2.7521	-2.3438	-2.7188	-2.6667	-2.4667	-2.7438	-2.6667	-2.725	-2.5979	-2.3354	-2.9062	130.400	75.820	46.400	320.840	166.192	220.556	148.097	260.394	332.661	87.683	2.199	228.625	298.121	191.234	231.686	151.703	0.00033671	0.00040157	0.0001702	231.54	8.7797e-06	5.1156e-06	488.89	84.151	7.0393e-06	1.1101e-05	230.5	123.6	40.009	18.741	7.836e-06	68.913	0.0042747	0.0079513	0.0022519	253.85	7.9164e-05	8.9275e-05	509.28	91.262	7.5647e-05	8.9454e-05	242.07	128.87	45.279	20.166	8.1586e-05	71.407	216.410	63.627	155.497	3.090	135.267	201.305	3.235	7.599	147.958	126.794	6.779	10.635	11.795	14.297	209.110	13.131	-8191	255	
29652.910	1	1	0	0	0.1431	0.028836	0.222	0.050908	0.38088	0.24194	0.082813	0.11049	0.28736	0.17921	0.24184	0.10648	0.19708	0.16291	0.12186	0.21909	-2.2458	-2.4333	-2.7792	-2.4458	-2.5042	-2.6875	-2.4917	-2.7604	-2.5896	-2.4896	-2.5583	-2.6625	-2.5354	-2.8417	-2.4125	-2.8958	55.270	132.524	227.452	312.178	265.032	19.117	119.038	270.302	0.149	163.138	319.764	139.486	127.251	199.097	276.812	279.852	0.00035359	0.00083517	0.00018223	230.68	4.3798e-06	6.315e-06	492.23	84.105	2.901e-06	4.899e-06	233.09	123	39.871	18.618	3.8095e-06	68.828	0.004168	0.0079334	0.0022317	252.67	7.7028e-05	8.8117e-05	510.37	90.87	7.3764e-05	8.7902e-05	242.79	128.53	45.215	20.061	8.1512e-05	71.135	216.399	51.346	54.826	2.368	62.662	134.251	3.200	7.971	160.357	197.409	6.336	10.559	12.154	14.191	183.577	12.935	-8191	255	
29653.029	1	1	0	0	0.18609	0.15442	0.3317	0.10548	0.24719	0.17275	0.16587	0.21273	0.30488	0.21735	0.062776	0.15111	0.25129	0.22511	0.077597	0.11109	-2.225	-2.3917	-2.7417	-2.55	-2.6271	-2.8604	-2.3667	-2.5875	-2.6458	-2.3896	-2.6729	-2.4646	-2.4896	-2.6854	-2.4167	-2.6167	203.846	218.451	181.023	153.976	346.614	324.173	155.805	306.647	132.741	134.901	59.036	289.160	341.823	205.580	188.088	326.434	0.0003614	0.00034288	2.9872e-05	233.11	5.0997e-06	7.4869e-06	489.9	84.337	3.353e-06	6.3022e-06	231.55	123.11	39.547	18.614	3.2041e-06	68.327	0.0041925	0.0079052	0.0022552	253.37	7.754e-05	8.9693e-05	511.41	90.908	7.5274e-05	9.1009e-05	241.58	128.15	44.995	19.977	8.2521e-05	70.716	214.102	216.694	153.893	3.196	115.238	164.332	3.015	7.724	38.713	77.735	6.549	10.621	12.188	14.702	144.107	12.951	-8191	255	
29653.127	1	1	0	0	0.18891	0.12782	0.32534	0.16341	0.079828	0.2409	0.25687	0.090915	0.070215	0.22034	0.11617	0.1269	0.08902	0.14363	0.076903	0.29209	-2.1958	-2.3438	-2.7521	-2.3354	-2.3542	-2.7229	-2.375	-2.6229	-2.6792	-2.4271	-2.75	-2.5812	-2.4417	-2.6396	-2.5938	-2.7604	159.387	231.895	25.354	-3.821	46.002	145.196	210.806	303.617	159.794	95.469	-9.274	214.441	251.896	272.297	249.793	6.098	0.00035262	0.00041968	0.00017229	230.27	4.0914e-06	1.0676e-05	490.35	83.554	3.0516e-06	5.1758e-06	228.73	121.89	39.506	18.405	2.7255e-06	68.242	0.0041336	0.0080336	0.0022296	251.62	7.6896e-05	8.9862e-05	506.96	90.006	7.3632e-05	8.9082e-05	239.87	127.09	44.878	19.855	8.0336e-05	70.297	220.930	90.479	157.790	3.592	213.406	136.578	3.076	8.051	137.749	191.182	6.339	10.464	11.527	14.376	207.849	13.062	-8191	255	
29653.223	1	1	0	0	0.17212	0.23646	0.16721	0.12531	0.049626	0.17017	0.032642	0.092849	0.096269	0.10132	0.1525	0.24811	0.29444	0.21285	0.085638	0.13154	-2.525	-2.3479	-2.4917	-2.5083	-2.5458	-2.675	-2.625	-2.5438	-2.8187	-2.4104	-2.7188	-2.6875	-2.2687	-2.8271	-2.4667	-2.5333	303.475	123.594	191.012	168.657	82.599	257.908	294.490	225.209	260.831	65.335	224.087	20.002	66.835	312.081	172.671	17.833	0.00030034	0.00026682	0.00030086	229.74	3.5495e-06	1.0558e-05	487.83	83.727	4.124e-06	9.4017e-06	230.19	122.77	39.786	18.562	7.5881e-06	68.253	0.0040614	0.0079963	0.0021921	251.39	7.6507e-05	8.9821e-05	506.25	90.148	7.4054e-05	8.9718e-05	240.88	127.58	44.957	19.951	8.0037e-05	70.568	214.588	50.248	77.915	3.456	329.768	111.535	3.536	8.052	195.752	172.137	6.500	10.526	11.671	14.347	95.306	12.931	-8191	255	
29653.344	1	1	0	0	0.077516	0.21145	0.083455	0.11161	0.20703	0.19161	0.1758	0.1643	0.11803	0.12428	0.044236	0.2252	0.25074	0.22932	0.074524	0.08318	-2.3521	-2.3333	-2.5542	-2.6792	-2.4021	-2.6896	-2.5479	-2.6833	-2.8792	-2.4167	-2.5354	-2.9083	-2.4313	-2.7292	-2.6042	-2.6875	237.265	136.402	164.108	294.128	236.911	88.838	-4.759	202.263	205.665	176.220	250.380	318.759	324.975	267.492	331.649	98.892	0.00040819	0.00055567	3.7118e-05	230.32	1.1901e-06	5.3142e-06	486.57	84.455	3.3075e-06	7.0258e-06	231.04	122.95	39.569	18.448	6.0965e-06	68.704	0.004155	0.0080321	0.0021718	251.25	7.6334e-05	8.908e-05	507.58	90.511	7.3345e-05	8.9257e-05	241.25	127.7	44.978	19.93	7.8464e-05	70.827	223.383	81.079	116.944	3.198	103.970	27.382	3.222	7.780	246.520	132.495	6.785	10.642	11.920	14.459	29.367	12.921	-8191	255	
29653.414	1	1	0	0	0.11399	0.26005	0.17368	0.23808	0.06241	0.094315	0.10197	0.093123	0.20129	0.056393	0.13011	0.4478	0.050471	0.34319	0.11785	0.25559	-2.3729	-2.4146	-2.4667	-2.6479	-2.4938	-2.6875	-2.5312	-2.4646	-2.5896	-2.5021	-2.6479	-2.6771	-2.4125	-2.55	-2.625	-2.4688	299.224	330.475	9.219	56.273	90.285	108.132	5.246	217.508	78.641	40.224	294.463	329.798	341.684	210.988	16.374	285.421	0.00038837	0.00042718	0.00017189	230.25	5.3209e-06	1.1278e-05	488.26	84.207	3.5691e-06	4.1811e-06	231.53	123.12	39.909	18.612	3.6058e-06	68.879	0.0041538	0.0078919	0.0021402	251.76	7.6764e-05	8.8562e-05	508.92	90.745	7.3346e-05	8.8483e-05	241.9	128.26	45.282	20.017	7.7706e-05	70.915	216.950	63.827	9.749	3.101	159.184	119.396	3.555	7.939	96.393	241.300	6.397	11.068	11.492	14.366	147.441	13.079	-8191	255	
29653.510	1	1	0	0	0.058771	0.13179	0.27912	0.13425	0.13743	0.14536	0.017193	0.181	0.17147	0.065317	0.16435	0.16376	0.29608	0.22835	0.33319	0.19769	-2.4958	-2.3812	-2.5854	-2.6396	-2.3417	-2.5146	-2.5646	-2.4125	-2.6771	-2.5396	-2.5708	-2.7812	-2.5104	-2.6875	-2.8042	-2.6104	272.725	93.213	45.418	237.764	333.505	-4.091	186.203	110.949	193.468	302.584	101.604	311.957	185.270	205.586	195.185	6.214	0.0003221	0.0012779	0.00021563	231.83	9.3612e-06	6.8825e-06	489.16	84.088	2.8846e-06	4.0931e-06	231.45	123.14	39.905	18.578	4.1637e-06	68.844	0.0041626	0.0078576	0.0021505	252.18	7.7933e-05	9.0073e-05	507.24	90.54	7.5266e-05	8.9154e-05	241.11	127.75	45.16	20.042	7.8913e-05	70.816	202.772	91.116	105.152	2.975	174.292	122.908	3.283	8.180	122.826	97.890	6.445	10.488	11.769	14.436	163.626	12.951	-8191	255	
29653.631	1	1	0	0	0.12149	0.037991	0.0091818	0.18382	0.07139	0.14035	0.12397	0.084957	0.12571	0.015912	0.25382	0.14661	0.06827	0.22969	0.12967	0.20222	-2.3021	-2.6188	-2.3625	-2.6708	-2.4062	-2.6833	-2.6396	-2.5375	-2.6104	-2.5729	-2.5458	-2.775	-2.3688	-2.5042	-2.5875	-2.5438	187.069	228.135	95.997	55.203	102.471	197.274	332.052	309.214	255.626	258.345	250.036	265.361	95.789	57.622	249.096	333.310	0.00040753	0.00020194	9.1066e-05	231.46	8.4867e-06	4.1868e-06	490.27	84.055	7.0314e-06	1.9553e-06	232.14	122.87	39.548	18.695	1.777e-06	69.1	0.0041446	0.0077585	0.0021338	250.97	7.6137e-05	8.702e-05	507.51	90.848	7.4312e-05	8.7998e-05	241.48	127.93	45.171	20.113	8.033e-05	71.233	228.428	76.020	160.311	3.539	191.094	132.864	3.535	7.548	134.142	145.523	6.555	10.848	11.915	14.596	171.266	12.836	-8191	255	
29653.727	1	1	0	0	0.041861	0.17921	0.054682	0.13168	0.1527	0.094382	0.071647	0.20354	0.3976	0.13895	0.28294	0.18006	0.10873	0.20366	0.21204	0.16971	-2.2292	-2.5417	-2.4875	-2.8688	-2.3563	-2.6042	-2.8042	-2.4458	-2.6646	-2.6583	-2.4104	-2.9125	-2.5354	-2.675	-2.9125	-2.5146	231.115	37.767	138.852	72.887	60.068	167.914	135.962	315.673	110.738	41.596	102.963	54.498	10.721	222.997	130.322	334.306	0.0004057	0.00076312	8.4799e-05	232.11	2.6154e-06	8.5163e-06	492.65	83.519	3.3694e-06	5.6535e-06	231.98	123.71	39.719	18.719	5.9869e-06	68.988	0.0042382	0.0077611	0.002172	253.05	7.7773e-05	8.7343e-05	509.15	90.682	7.3967e-05	8.8337e-05	241.82	128.22	44.999	20.073	8.1227e-05	71.021	217.497	41.903	37.239	3.103	81.320	90.900	3.212	7.704	225.897	128.724	6.463	10.519	11.333	14.373	231.213	12.843	-8191	255	
29653.822	1	1	0	0	0.083662	0.12439	0.17369	0.04524	0.19624	0.28007	0.024451	0.077358	0.19045	0.13598	0.19022	0.16122	0.057193	0.18788	0.15317	0.08517	-2.3292	-2.6271	-2.4313	-2.7562	-2.6417	-2.5125	-2.7354	-2.4062	-2.5042	-2.6771	-2.3771	-2.7708	-2.4396	-2.45	-2.8042	-2.5458	210.906	143.251	178.098	74.626	326.784	36.671	80.400	255.335	344.734	123.896	237.741	334.902	8.873	199.580	346.870	341.601	0.00032526	0.00039355	0.0001307	229.75	8.0776e-06	5.6895e-06	488.41	83.742	1.9032e-06	2.1185e-06	230.81	122.99	39.868	18.695	2.9231e-06	69.055	0.0042182	0.0077883	0.0022393	253.34	7.7793e-05	8.8672e-05	510.48	90.589	7.5009e-05	9.0695e-05	242.22	128.11	45.05	20.065	8.1378e-05	71.088	215.605	55.915	191.260	3.053	200.956	202.334	3.253	8.137	161.318	163.500	6.470	10.853	11.797	14.283	129.321	13.074	-8191	255	
29653.918	1	1	0	0	0.13602	0.06617	0.18187	0.13478	0.10821	0.22341	0.25687	0.085441	0.073043	0.10896	0.33135	0.21991	0.10245	0.27226	0.17114	0.3711	-1.8479	-2.6375	-2.5333	-2.775	-2.6188	-2.5604	-2.7938	-2.6021	-2.6312	-2.75	-2.6813	-2.8771	-2.5771	-2.4583	-2.7	-2.7208	246.933	296.116	221.477	276.732	265.223	69.342	250.175	74.967	124.401	335.915	310.858	291.806	122.923	79.270	131.092	256.022	0.00039357	0.00070702	0.00013171	230.63	4.7505e-06	1.1286e-05	486.69	83.714	4.3237e-06	3.9224e-06	230.24	122.29	40.161	18.657	6.668e-06	68.85	0.0041987	0.0077725	0.0022313	252.2	7.657e-05	8.9562e-05	507.66	90.594	7.2864e-05	8.9199e-05	241.51	127.76	44.975	20.111	8.0398e-05	70.928	212.994	56.137	63.194	3.035	192.406	132.931	3.337	7.642	187.951	29.898	6.475	10.715	11.504	14.206	164.296	13.111	-8191	255	
29654.014	1	1	0	0	0.26271	0.13885	0.16748	0.16542	0.018428	0.27557	0.40181	0.062719	0.10403	0.13826	0.21504	0.16279	0.078824	0.23287	0.21923	0.074715	-2.2583	-2.8688	-2.5271	-2.7083	-2.5292	-2.3979	-2.7375	-2.4	-2.5583	-2.6688	-2.4708	-2.6312	-2.5646	-2.5396	-2.725	-2.5	-9.406	121.443	104.674	205.499	180.598	146.842	178.953	211.804	56.071	80.629	251.017	273.444	329.814	264.890	334.007	211.776	0.00031728	0.00021759	0.00010721	229.85	4.2399e-06	1.0903e-06	492.28	84.239	2.0775e-06	7.1375e-06	231.44	124.03	39.798	18.822	4.5039e-06	69.552	0.0041048	0.0078647	0.0021928	250.95	7.5394e-05	8.712e-05	509.36	90.799	7.1901e-05	8.8341e-05	242.34	128.57	45.243	20.185	8.1182e-05	71.377	215.936	88.206	190.536	2.706	108.162	153.376	3.564	7.488	131.081	103.924	6.476	10.644	11.630	14.110	227.127	13.007	-8191	255	
29654.109	1	1	0	0	0.31516	0.15606	0.1946	0.11031	0.085584	0.088968	0.1241	0.17403	0.015392	0.34452	0.1492	0.12874	0.11085	0.15265	0.19201	0.21571	-2.1188	-2.6375	-2.525	-2.6292	-2.6312	-2.2896	-2.9354	-2.675	-2.5042	-2.7479	-2.4104	-2.7521	-2.65	-2.4271	-2.7083	-2.7208	132.880	206.693	24.819	230.433	143.497	84.687	282.616	218.091	290.852	330.686	334.466	290.957	37.867	0.708	181.227	303.059	0.00037701	0.00067346	0.00012695	229.32	1.5341e-06	4.3867e-06	490.51	84.953	3.6351e-06	7.1952e-06	234.13	124.66	40.269	18.799	4.1235e-06	69.455	0.0040835	0.0078877	0.002226	252.06	7.5611e-05	8.9263e-05	510.52	91.205	7.2807e-05	8.9959e-05	244.12	129.23	45.432	20.278	7.986e-05	71.66	216.143	74.002	146.765	2.595	28.914	225.375	3.471	8.244	167.912	179.067	6.455	10.753	12.037	14.121	157.616	13.004	-8191	255	
29654.205	1	1	0	0	0.24723	0.12024	0.089043	0.22874	0.10225	0.077981	0.19955	0.14721	0.23734	0.13743	0.18889	0.20987	0.15571	0.18586	0.17848	0.18552	-2.0083	-2.6167	-2.4938	-2.5167	-2.6854	-2.6104	-2.7812	-2.7354	-2.3604	-2.6396	-2.7812	-2.5729	-2.8438	-2.6375	-2.7417	-2.7292	61.170	330.276	289.565	320.029	76.420	253.021	67.118	47.863	11.711	101.778	4.090	303.503	37.416	254.197	25.141	239.814	0.00038254	0.00082471	0.00018328	233.05	5.0169e-06	1.5874e-06	493.53	85.056	6.5496e-07	4.5932e-06	234.1	125.2	40.259	18.927	5.6441e-06	69.523	0.0041686	0.0079426	0.0021897	253.09	7.6367e-05	8.8588e-05	512.37	91.59	7.3853e-05	8.9977e-05	244.63	129.82	45.59	20.39	8.0783e-05	71.78	205.538	80.401	67.231	2.960	132.483	45.300	2.881	7.856	346.162	101.570	6.447	10.525	11.701	14.091	5.125	12.926	-8191	255	
29654.303	1	1	0	0	0.058875	0.1878	0.26702	0.044805	0.077701	0.16677	0.2948	0.066122	0.092956	0.22419	0.3093	0.1707	0.37476	0.20299	0.29935	0.11651	-2.0958	-2.8375	-2.3708	-2.6437	-2.8771	-2.4729	-2.4604	-2.7646	-2.4333	-2.6771	-2.5833	-2.475	-2.7375	-2.35	-2.6188	-2.7271	177.970	285.790	282.451	343.791	236.483	190.997	324.652	142.703	115.064	42.785	161.856	146.612	13.185	322.886	5.062	20.893	0.00031977	3.9812e-05	0.00015509	232.9	4.8723e-06	1.2989e-05	490.54	84.774	6.2343e-06	7.2885e-06	234.06	124.34	40.251	18.882	1.896e-06	69.57	0.0041661	0.0080005	0.0021977	253.97	7.7552e-05	8.9939e-05	509.3	91.441	7.5807e-05	9.0691e-05	243.71	128.96	45.708	20.346	7.9563e-05	71.764	217.034	70.033	136.585	2.519	202.491	148.739	3.386	7.949	141.060	130.184	6.758	10.523	11.704	14.370	180.485	12.875	-8191	255	
#DATA ENDS
