BOXY.EXE: ISS Imagent and Oximeter Data Acquisition Program Version 0.80
Ascii Record File

#ACQ INFORMATION
2  Detector Channels 
16  External MUX Channels 
1  Auxiliary Channels 
5000  Waveform (CCF) Frequency (Hz)
1  Waveforms Skipped 
30  Waveforms Averaged 
1  Cycles Averaged 
16  Acquisitions per Waveform 
10.0806  Updata Rate (Hz) 

#FILE INFORMATION
TRUE -- External MUX Channel results are PARSED.
FALSE -- AC DC and Phase are NOT grouped.
TRUE -- Companion Program Settings File CREATED.
FALSE -- AC data not excluded
FALSE -- DC data not excluded
FALSE -- Phase data not excluded
FALSE -- Auxillary Chn. data not excluded
Tab delimiters

#CALIBRATION STATE
TRUE -- Waveform Calibration Values APPLIED.


#AUX CALIBRATION VALUES
Val Type	aux-1	

Term	1.0000e+00	
Factor	0.0000e+00	


#WF CALIBRATION VALUES
A = Detector Channel
Val Type	A-AC1	A-AC2	A-AC3	A-AC4	A-AC5	A-AC6	A-AC7	A-AC8	A-AC9	A-AC10	A-AC11	A-AC12	A-AC13	A-AC14	A-AC15	A-AC16	A-DC1	A-DC2	A-DC3	A-DC4	A-DC5	A-DC6	A-DC7	A-DC8	A-DC9	A-DC10	A-DC11	A-DC12	A-DC13	A-DC14	A-DC15	A-DC16	A-Ph1	A-Ph2	A-Ph3	A-Ph4	A-Ph5	A-Ph6	A-Ph7	A-Ph8	A-Ph9	A-Ph10	A-Ph11	A-Ph12	A-Ph13	A-Ph14	A-Ph15	A-Ph16	

Term	0.00000e+00	0.00000e+00	0.00000e+00	0.00000e+00	0.00000e+00	0.00000e+00	0.00000e+00	0.00000e+00	0.00000e+00	0.00000e+00	0.00000e+00	0.00000e+00	0.00000e+00	0.00000e+00	0.00000e+00	0.00000e+00	0.00000e+00	0.00000e+00	0.00000e+00	0.00000e+00	0.00000e+00	0.00000e+00	0.00000e+00	0.00000e+00	0.00000e+00	0.00000e+00	0.00000e+00	0.00000e+00	0.00000e+00	0.00000e+00	0.00000e+00	0.00000e+00	0.00000e+00	0.00000e+00	0.00000e+00	0.00000e+00	0.00000e+00	0.00000e+00	0.00000e+00	0.00000e+00	0.00000e+00	0.00000e+00	0.00000e+00	0.00000e+00	0.00000e+00	0.00000e+00	0.00000e+00	0.00000e+00	
Factor	1.00000e+00	1.00000e+00	1.00000e+00	1.00000e+00	1.00000e+00	1.00000e+00	1.00000e+00	1.00000e+00	1.00000e+00	1.00000e+00	1.00000e+00	1.00000e+00	1.00000e+00	1.00000e+00	1.00000e+00	1.00000e+00	1.00000e+00	1.00000e+00	1.00000e+00	1.00000e+00	1.00000e+00	1.00000e+00	1.00000e+00	1.00000e+00	1.00000e+00	1.00000e+00	1.00000e+00	1.00000e+00	1.00000e+00	1.00000e+00	1.00000e+00	1.00000e+00	X	X	X	X	X	X	X	X	X	X	X	X	X	X	X	X	

B = Detector Channel
Val Type	B-AC1	B-AC2	B-AC3	B-AC4	B-AC5	B-AC6	B-AC7	B-AC8	B-AC9	B-AC10	B-AC11	B-AC12	B-AC13	B-AC14	B-AC15	B-AC16	B-DC1	B-DC2	B-DC3	B-DC4	B-DC5	B-DC6	B-DC7	B-DC8	B-DC9	B-DC10	B-DC11	B-DC12	B-DC13	B-DC14	B-DC15	B-DC16	B-Ph1	B-Ph2	B-Ph3	B-Ph4	B-Ph5	B-Ph6	B-Ph7	B-Ph8	B-Ph9	B-Ph10	B-Ph11	B-Ph12	B-Ph13	B-Ph14	B-Ph15	B-Ph16	

Term	0.00000e+00	0.00000e+00	0.00000e+00	0.00000e+00	0.00000e+00	0.00000e+00	0.00000e+00	0.00000e+00	0.00000e+00	0.00000e+00	0.00000e+00	0.00000e+00	0.00000e+00	0.00000e+00	0.00000e+00	0.00000e+00	0.00000e+00	0.00000e+00	0.00000e+00	0.00000e+00	0.00000e+00	0.00000e+00	0.00000e+00	0.00000e+00	0.00000e+00	0.00000e+00	0.00000e+00	0.00000e+00	0.00000e+00	0.00000e+00	0.00000e+00	0.00000e+00	-5.38884e+01	-1.31177e+02	-1.26498e+02	-1.80885e+02	-4.76343e+01	-6.44995e+01	-1.57193e+02	-1.62015e+02	-3.86883e+01	-6.83090e+01	-1.71742e+02	-1.71381e+02	-1.82817e+02	-1.77069e+02	-5.51087e+01	-1.50010e+02	
Factor	1.82829e-05	1.46436e-04	4.33054e-05	1.59593e-01	1.61267e-06	1.61574e-06	1.65127e-01	4.62107e-02	1.25789e-06	1.65311e-06	7.56542e-02	2.89867e-02	3.37919e-02	8.42540e-03	1.55012e-06	1.18626e-02	1.36964e-05	2.76091e-05	7.65437e-06	8.35740e-02	2.69207e-07	3.11056e-07	8.12785e-02	2.43328e-02	2.59798e-07	3.12300e-07	3.86475e-02	1.48661e-02	1.78292e-02	4.47273e-03	2.79863e-07	6.10705e-03	X	X	X	X	X	X	X	X	X	X	X	X	X	X	X	X	



#DISTANCE SETTINGS
A = Detector Channel
A-1	A-2	A-3	A-4	A-5	A-6	A-7	A-8	A-9	A-10	A-11	A-12	A-13	A-14	A-15	A-16	

2.5000e+00	3.0000e+00	2.5000e+00	3.0000e+00	2.0000e+00	3.0000e+00	1.5000e+00	3.0000e+00	3.0000e+00	3.0000e+00	3.0000e+00	3.0000e+00	3.0000e+00	3.0000e+00	1.5000e+00	3.0000e+00	

B = Detector Channel
B-1	B-2	B-3	B-4	B-5	B-6	B-7	B-8	B-9	B-10	B-11	B-12	B-13	B-14	B-15	B-16	

1.0000e+01	1.0000e+01	1.0000e+01	1.4400e+00	1.0000e+01	1.0000e+01	1.5100e+00	1.9400e+00	1.0000e+01	1.0000e+01	1.9900e+00	2.4900e+00	2.4100e+00	2.9000e+00	1.0000e+01	2.9800e+00	




#DATA BEGINS
time	group	step	mark	flag	A-AC1	A-AC2	A-AC3	A-AC4	A-AC5	A-AC6	A-AC7	A-AC8	A-AC9	A-AC10	A-AC11	A-AC12	A-AC13	A-AC14	A-AC15	A-AC16	A-DC1	A-DC2	A-DC3	A-DC4	A-DC5	A-DC6	A-DC7	A-DC8	A-DC9	A-DC10	A-DC11	A-DC12	A-DC13	A-DC14	A-DC15	A-DC16	A-Ph1	A-Ph2	A-Ph3	A-Ph4	A-Ph5	A-Ph6	A-Ph7	A-Ph8	A-Ph9	A-Ph10	A-Ph11	A-Ph12	A-Ph13	A-Ph14	A-Ph15	A-Ph16	B-AC1	B-AC2	B-AC3	B-AC4	B-AC5	B-AC6	B-AC7	B-AC8	B-AC9	B-AC10	B-AC11	B-AC12	B-AC13	B-AC14	B-AC15	B-AC16	B-DC1	B-DC2	B-DC3	B-DC4	B-DC5	B-DC6	B-DC7	B-DC8	B-DC9	B-DC10	B-DC11	B-DC12	B-DC13	B-DC14	B-DC15	B-DC16	B-Ph1	B-Ph2	B-Ph3	B-Ph4	B-Ph5	B-Ph6	B-Ph7	B-Ph8	B-Ph9	B-Ph10	B-Ph11	B-Ph12	B-Ph13	B-Ph14	B-Ph15	B-Ph16	aux-1	digaux	

29659.105	1	1	0	256	0.10557	0.13702	0.15269	0.16575	0.21514	0.16371	0.21482	0.13598	0.26734	0.06231	0.17346	0.2548	0.14421	0.22254	0.15902	0.090536	-2.0854	-2.4167	-2.5938	-2.2667	-2.4854	-2.6	-2.3187	-2.5354	-2.6125	-2.3958	-2.6708	-2.5812	-2.2938	-2.7375	-2.55	-2.7833	58.271	81.063	141.240	263.754	220.401	262.556	297.607	63.505	68.799	317.088	247.028	318.797	23.061	319.016	156.456	-6.789	0.00037805	0.00073094	0.00022151	235.05	4.0244e-06	5.2203e-06	496.01	86.582	4.9159e-06	1.4537e-06	236.78	125.53	41.352	19.506	3.4134e-06	70.92	0.0041962	0.0078668	0.0021896	256.88	7.7272e-05	8.7467e-05	515.99	93.594	7.4951e-05	8.8499e-05	247.24	130.53	46.754	20.888	7.8922e-05	73.103	211.274	80.411	69.032	3.298	234.534	154.553	3.457	7.969	179.304	175.484	6.461	10.744	11.111	14.810	129.468	12.838	-8191	255	
29659.176	1	1	0	0	0.15007	0.30245	0.23017	0.23811	0.10397	0.16908	0.15574	0.11583	0.22795	0.098472	0.10398	0.065741	0.030476	0.16412	0.16192	0.072581	-2.3354	-2.4854	-2.8271	-2.6792	-2.4979	-2.7271	-2.5396	-2.7542	-2.7375	-2.3583	-2.6542	-2.5229	-2.4354	-2.6521	-2.4437	-2.6813	100.178	297.944	268.319	79.192	52.345	272.031	190.670	140.749	269.967	273.679	284.325	275.861	240.560	99.664	167.152	259.884	0.00039916	0.00032989	0.00016334	235.4	5.6831e-06	4.1544e-06	497.74	86.772	5.4328e-06	2.4946e-06	238.13	125.89	41.417	19.681	5.8873e-06	71.274	0.0041849	0.0077258	0.0021718	257.11	7.6368e-05	8.775e-05	515.81	93.664	7.3944e-05	8.8427e-05	248.36	130.79	46.674	20.953	8.021e-05	73.259	213.743	108.803	26.223	3.045	146.445	69.917	3.309	7.703	121.741	154.727	6.191	10.348	11.970	14.603	170.682	12.836	-8191	255	
29659.271	1	1	0	0	0.20093	0.1594	0.23583	0.18529	0.16242	0.11796	0.11526	0.15295	0.16266	0.31351	0.27384	0.40444	0.087448	0.26704	0.16261	0.11473	-2.2458	-2.375	-2.6354	-2.4458	-2.3208	-2.7438	-2.7396	-2.4667	-2.8458	-2.2667	-2.7458	-2.7479	-2.5396	-2.8771	-2.45	-2.6917	174.245	106.946	231.901	192.334	158.337	129.811	169.581	333.466	50.104	112.201	101.241	44.135	261.025	265.697	321.212	322.950	0.00032166	0.00061373	0.000132	237.15	4.52e-06	8.7246e-06	498.67	87.122	4.3127e-06	7.4333e-06	239.31	126.3	41.74	19.666	3.1794e-06	71.294	0.0040797	0.007711	0.0021612	257.04	7.5937e-05	8.5306e-05	518.25	94.064	7.4183e-05	8.8225e-05	249.75	131.53	46.991	21.097	8.026e-05	73.476	214.088	283.824	84.340	3.328	32.749	162.005	3.463	7.792	283.493	155.895	6.839	10.615	12.048	14.060	143.206	12.846	-8191	255	
29659.369	1	1	0	0	0.055586	0.28532	0.18897	0.12372	0.17393	0.12427	0.26395	0.043811	0.058343	0.12841	0.18666	0.12598	0.18549	0.2398	0.22812	0.31407	-2.3771	-2.325	-2.6542	-2.7396	-2.4062	-2.8021	-2.6813	-2.4188	-2.7771	-2.4792	-2.6208	-2.6146	-2.3937	-2.7354	-2.4813	-2.5708	285.010	34.904	28.054	170.797	123.131	136.567	268.239	227.180	200.821	61.753	294.194	332.707	215.874	257.589	70.479	314.527	0.0002608	0.00062113	0.00029593	236.8	5.8264e-06	6.0364e-06	500.71	87.491	1.6683e-06	3.4649e-06	240.95	126.81	41.391	19.507	2.9731e-06	71.73	0.0040917	0.0078112	0.002174	257.5	7.5796e-05	8.7235e-05	520.46	94.295	7.3076e-05	8.8447e-05	250.86	131.8	46.975	21.071	8.1032e-05	73.718	214.418	103.642	82.701	3.273	164.406	170.674	3.480	7.804	75.719	130.055	6.354	10.918	11.995	14.105	102.543	12.800	-8191	255	
29659.488	1	1	0	0	0.32359	0.11578	0.072957	0.071045	0.061825	0.081556	0.10131	0.16977	0.11291	0.25841	0.13254	0.16973	0.33091	0.087105	0.41103	0.082667	-2.2167	-2.5187	-2.5312	-2.6458	-2.3937	-2.7729	-2.775	-2.5438	-2.7167	-2.4917	-2.5542	-2.7792	-2.5083	-2.7917	-2.7167	-2.5542	33.156	15.888	167.970	121.848	72.083	125.148	118.489	187.035	153.247	13.668	335.181	298.383	347.367	279.202	127.759	259.010	0.00034938	0.00087435	7.2465e-05	236.19	1.0309e-05	1.4188e-06	500.16	87.398	6.6726e-06	7.5731e-06	237.43	126.38	41.663	19.551	6.7106e-06	70.875	0.0041409	0.0080114	0.0022249	257.72	7.727e-05	9.0025e-05	518.61	94.179	7.4439e-05	8.9291e-05	248.58	131.14	46.952	20.988	8.0978e-05	73.017	212.936	23.831	176.038	2.592	158.274	125.698	3.537	7.810	166.289	101.337	6.584	10.440	11.386	14.391	132.275	13.022	-8191	255	
29659.586	1	1	0	0	0.053851	0.14463	0.15773	0.10046	0.20328	0.14292	0.090981	0.0166	0.10246	0.20061	0.046932	0.04571	0.077975	0.11989	0.23025	0.048983	-2.3396	-2.4813	-2.6375	-2.8125	-2.5708	-2.7396	-2.6042	-2.5583	-2.8812	-2.7021	-2.475	-2.8438	-2.6271	-2.6729	-2.7479	-2.6625	72.626	334.970	292.789	305.148	147.356	231.549	338.885	309.297	86.645	300.952	126.557	317.041	344.220	309.836	-2.365	315.926	0.00039913	0.00049094	7.8107e-05	236.39	7.8957e-06	8.1309e-06	501.5	87.854	7.4026e-06	4.4503e-06	239.21	126.87	40.927	19.485	8.2248e-06	70.682	0.0041566	0.0079403	0.0021878	257.87	7.5635e-05	8.8934e-05	519.82	94.22	7.4257e-05	8.8716e-05	250.11	131.32	46.782	20.881	8.0583e-05	72.934	218.082	323.646	147.613	2.774	119.965	142.250	3.171	8.103	110.089	76.000	6.455	10.898	11.474	14.371	63.142	13.046	-8191	255	
29659.682	1	1	0	0	0.18023	0.23106	0.22995	0.10075	0.18533	0.045767	0.15935	0.29938	0.14669	0.45636	0.11161	0.27657	0.15136	0.15577	0.065375	0.244	-2.3125	-2.6583	-2.3187	-2.8021	-2.6312	-2.6917	-2.7083	-2.5438	-2.725	-2.5062	-2.5354	-2.875	-2.5208	-2.8042	-2.7771	-2.5479	258.439	147.139	249.932	303.857	183.490	49.680	18.648	246.810	86.959	19.450	286.439	6.132	118.144	146.436	248.954	283.945	0.00032811	0.00063004	0.0002712	236.57	4.6501e-06	7.6694e-06	500.66	87.484	1.0601e-05	3.8702e-06	240.45	126.79	41.74	19.641	4.1631e-06	71.444	0.0041833	0.0080521	0.0021815	258.6	7.8132e-05	8.9935e-05	520.88	94.456	7.5246e-05	8.9353e-05	250.91	131.77	47.203	21.057	8.0997e-05	73.555	212.351	70.639	50.306	3.186	158.444	101.497	3.043	8.314	188.191	152.420	6.546	10.736	11.650	14.569	149.754	12.841	-8191	255	
29659.754	1	1	0	0	0.26796	0.26948	0.051847	0.14607	0.16846	0.17545	0.18442	0.0065245	0.28582	0.095024	0.10975	0.29226	0.038797	0.17856	0.26515	0.37044	-2.4437	-2.6813	-2.3542	-2.7875	-2.5958	-2.6354	-2.8917	-2.5958	-2.6562	-2.8	-2.5229	-2.9583	-2.475	-2.4479	-2.6729	-2.4813	136.378	55.821	200.811	91.776	61.938	-10.015	295.387	334.170	128.149	249.100	-9.757	308.900	64.818	-3.468	133.161	240.034	0.00037424	0.00074095	0.00015563	238.56	9.2064e-06	3.9169e-06	502.89	87.942	6.5904e-07	6.4991e-06	240.79	127.06	41.444	19.661	8.6885e-06	71.341	0.0042618	0.0081286	0.0022095	259.74	7.9115e-05	9.0775e-05	521.84	94.687	7.5964e-05	9.1125e-05	250.85	132.1	47.349	21.092	8.3015e-05	73.447	222.737	60.687	75.303	3.025	177.007	155.263	3.512	7.930	164.104	118.896	6.542	10.889	11.627	13.818	167.503	12.765	-8191	255	
29659.873	1	1	0	0	0.40236	0.12567	0.28791	0.13939	0.19412	0.23074	0.0077789	0.11965	0.20148	0.17538	0.075668	0.015514	0.036134	0.28326	0.11465	0.29155	-2.0604	-2.5354	-2.2896	-2.8667	-2.7042	-2.5312	-2.9688	-2.5062	-2.5542	-2.7917	-2.6167	-2.7208	-2.5479	-2.5354	-2.7938	-2.5812	-0.433	77.889	174.654	303.701	253.386	161.262	179.552	327.498	87.044	86.578	271.809	180.992	323.546	35.214	184.761	250.204	0.00038234	6.2793e-05	0.00016852	239.08	3.1169e-06	7.8582e-06	500.07	87.144	5.6121e-06	1.7202e-06	236.64	125.44	41.13	19.344	3.2939e-06	70.513	0.0043127	0.008166	0.0022067	259.74	7.8139e-05	9.0785e-05	519	94.568	7.5343e-05	9.0704e-05	248.75	130.54	46.802	20.822	8.173e-05	72.542	218.433	193.532	120.762	2.858	73.268	49.609	2.922	8.165	217.377	77.449	6.533	10.669	11.755	14.337	51.061	12.772	-8191	255	
29659.969	1	1	0	0	0.046501	0.18128	0.082421	0.29902	0.15295	0.21061	0.066412	0.13428	0.13088	0.1552	0.28178	0.19445	0.1953	0.099403	0.25981	0.24961	-2.0938	-2.6875	-2.3708	-2.6333	-2.7375	-2.4458	-2.6875	-2.4646	-2.4813	-2.5812	-2.5542	-2.7562	-2.7812	-2.6208	-2.9125	-2.9083	252.889	250.997	238.792	328.811	315.645	57.845	249.321	258.089	276.651	292.671	35.507	299.356	237.548	32.463	49.763	1.478	0.00041153	0.00074477	0.00013021	236.68	1.0459e-05	6.4782e-06	503.01	86.677	1.8446e-06	2.2496e-06	237.14	124.95	40.754	19.055	4.3009e-06	69.921	0.0043266	0.0080986	0.0022635	259.52	8.0246e-05	9.1312e-05	520.13	93.857	7.6359e-05	8.9293e-05	247.61	129.56	46.324	20.535	8.0349e-05	72.059	218.691	127.565	126.009	2.884	204.217	226.779	3.253	7.909	257.584	107.794	6.494	10.599	11.962	14.605	170.512	13.266	-8191	255	
29660.066	1	1	0	0	0.08501	0.25029	0.2901	0.19797	0.24481	0.093434	0.27345	0.084101	0.15565	0.063531	0.18167	0.25496	0.24635	0.16502	0.10454	0.059152	-2.1042	-2.7917	-2.4229	-2.6646	-2.8104	-2.4167	-2.8396	-2.5938	-2.5667	-2.7083	-2.5271	-2.6521	-2.4896	-2.4562	-2.75	-2.6271	266.351	93.174	123.975	242.314	252.201	246.656	36.972	53.849	218.319	177.955	339.848	57.786	109.293	241.481	133.147	335.055	0.00035564	0.00058787	0.0002627	238.5	5.5617e-06	5.5708e-06	499.43	87.193	3.8301e-06	7.4489e-06	237.78	125.02	40.723	19.151	1.168e-05	70.045	0.0042515	0.0078461	0.0022204	260.23	7.8014e-05	8.8712e-05	520.25	93.768	7.5969e-05	9.1145e-05	248.24	129.98	46.345	20.547	8.3306e-05	72.377	213.783	65.662	104.219	3.020	156.770	184.490	3.308	8.035	150.585	84.266	6.748	10.697	11.815	13.895	156.829	13.043	-8191	255	
29660.186	1	1	0	0	0.18759	0.15387	0.12337	0.27615	0.13272	0.18869	0.089205	0.10336	0.2122	0.15839	0.17666	0.091813	0.19284	0.49897	0.059096	0.27547	-2.0375	-2.6917	-2.3979	-2.5062	-2.8271	-2.3708	-2.9	-2.5208	-2.4125	-2.7062	-2.3979	-2.7146	-2.7125	-2.4979	-2.8167	-2.6917	162.488	209.057	51.470	204.257	277.676	324.368	232.114	87.299	272.732	220.528	219.385	45.972	72.682	227.824	68.609	-8.283	0.00037874	0.00063553	3.5317e-05	238	5.1891e-06	7.1737e-06	499.51	86.425	2.4915e-06	3.0404e-06	239.03	124.47	41.402	19.189	2.2639e-06	69.998	0.0042507	0.0080194	0.0022463	260.04	7.8407e-05	8.9199e-05	520.67	93.637	7.5546e-05	8.9358e-05	248.73	129.89	46.377	20.564	8.1912e-05	72.282	218.469	109.049	42.829	2.646	207.244	224.596	3.220	7.584	159.568	89.043	6.465	10.428	11.479	14.702	268.140	13.118	-8191	255	
29660.281	1	1	0	0	0.28952	0.20249	0.21371	0.071454	0.15836	0.21951	0.004657	0.1645	0.20067	0.15215	0.274	0.047236	0.24477	0.26726	0.22094	0.24126	-2.2188	-2.4646	-2.5312	-2.5438	-2.7167	-2.4333	-2.75	-2.4958	-2.3917	-2.7854	-2.6229	-2.6458	-2.7958	-2.3563	-2.7354	-2.9167	46.249	82.201	295.186	39.466	336.323	243.090	157.947	232.859	264.719	36.767	137.917	254.365	12.849	36.660	247.989	295.874	0.00038707	0.00041051	0.00014316	237.41	1.0832e-05	9.03e-06	500.94	86.711	8.7433e-06	1.7525e-06	237.58	124.28	40.633	19.187	3.9331e-06	69.724	0.004216	0.0079209	0.0022104	258.77	7.6999e-05	8.914e-05	519.6	93.35	7.4322e-05	8.9233e-05	247.31	129.31	46.114	20.535	8.0962e-05	71.687	221.332	27.400	70.722	2.517	187.578	188.130	3.322	7.881	174.776	168.453	6.655	10.654	11.741	14.407	342.380	12.791	-8191	255	
29660.354	1	1	0	0	0.16269	0.21323	0.06488	0.037548	0.08489	0.19539	0.054184	0.13616	0.058839	0.1516	0.23608	0.18345	0.088657	0.33786	0.26336	0.30595	-1.9396	-2.5375	-2.8042	-2.5833	-2.7521	-2.5312	-2.4375	-2.5979	-2.4604	-2.7292	-2.675	-2.6021	-2.825	-2.4396	-2.6458	-2.7438	39.589	100.932	45.072	331.358	126.778	205.777	297.419	4.332	14.166	112.164	253.794	324.957	24.783	308.105	309.970	252.880	0.00033996	0.0003998	2.0024e-05	234.89	7.3065e-06	4.7446e-06	498.5	86.279	4.162e-06	8.2552e-06	236.42	123.52	40.63	18.658	1.0406e-06	68.774	0.0041385	0.0079816	0.0022243	257.9	7.7732e-05	9.1868e-05	518.64	93.137	7.5957e-05	9.1979e-05	246.64	128.56	45.902	20.192	8.2071e-05	71.048	220.493	1.161	292.969	3.000	122.296	157.175	3.309	8.006	101.131	130.867	6.547	10.932	11.362	14.590	91.287	12.950	-8191	255	
29660.473	1	1	0	0	0.30919	0.097458	0.36625	0.034938	0.065137	0.080592	0.22719	0.29011	0.2376	0.14286	0.38287	0.20138	0.14893	0.27063	0.21656	0.18492	-1.9	-2.8	-2.625	-2.4646	-2.8708	-2.5438	-2.65	-2.8875	-2.4021	-2.9083	-2.75	-2.5021	-2.8083	-2.4437	-2.8167	-2.8063	346.344	315.738	83.891	348.691	3.867	77.639	273.235	159.250	203.043	328.602	309.100	292.782	-4.901	343.578	310.672	157.352	0.00034794	0.00014833	0.00013178	237.55	6.5943e-06	4.9343e-06	497.56	86.06	3.5715e-06	3.0147e-06	236.67	124.3	40.556	19.088	6.3114e-06	69.415	0.0042571	0.0082076	0.0022618	259.03	7.8432e-05	9.2247e-05	519.61	92.907	7.5702e-05	9.2558e-05	247.96	129.15	46.155	20.517	8.1896e-05	71.615	203.328	19.061	132.331	3.003	201.846	171.050	3.105	8.370	136.570	106.086	6.609	10.648	11.819	14.400	160.265	13.117	-8191	255	
29660.570	1	1	0	0	0.21855	0.19801	0.30314	0.11572	0.16317	0.14946	0.3963	0.18994	0.20897	0.15132	0.21141	0.067439	0.33423	0.025395	0.32127	0.27345	-2.1625	-2.7542	-2.6583	-2.4625	-2.7771	-2.575	-2.7875	-2.6854	-2.5083	-2.8979	-2.85	-2.4958	-2.8333	-2.7542	-2.4542	-3.0292	125.602	186.334	194.651	202.657	9.555	122.680	289.993	191.123	318.081	137.035	50.613	286.325	309.534	117.783	315.975	272.938	0.00030988	0.00072695	6.3865e-05	239.64	7.6228e-06	8.0458e-06	501.38	86.734	2.0177e-06	2.5904e-06	237.73	124.42	40.716	19.019	6.5961e-06	69.401	0.0043328	0.0082385	0.0022333	259.86	8.0148e-05	9.1099e-05	519.25	93.443	7.6174e-05	9.1896e-05	247.99	129.46	46.159	20.471	8.1207e-05	71.628	216.808	144.210	91.648	3.417	184.145	115.972	3.153	7.756	158.474	163.560	6.413	10.832	11.439	14.300	229.382	12.939	-8191	255	
29660.666	1	1	0	0	0.086271	0.13913	0.17276	0.0601	0.2419	0.13488	0.1223	0.22986	0.050216	0.22807	0.17987	0.13238	0.037973	0.01903	0.11771	0.24887	-1.9417	-2.7438	-2.8208	-2.3979	-2.8937	-2.6063	-2.6021	-2.7521	-2.4625	-2.5542	-2.9208	-2.5667	-2.6625	-2.7125	-2.6188	-3.125	320.887	-7.186	94.901	132.361	310.345	263.417	162.041	25.849	198.758	183.851	292.767	262.556	324.792	124.894	236.027	256.092	0.00039508	0.00020478	0.00020864	235.34	8.1558e-06	4.6224e-06	498.28	86.008	4.1925e-06	4.0954e-06	234.14	123.92	40.509	18.997	4.2577e-06	69.474	0.0043239	0.0082039	0.0022189	259.11	7.9885e-05	9.1726e-05	517.94	92.977	7.7519e-05	9.1236e-05	246.03	128.67	46.112	20.441	7.9968e-05	71.717	223.047	292.640	130.130	2.913	145.302	176.148	3.360	8.253	284.027	217.665	6.154	10.519	11.913	14.373	199.139	12.701	-8191	255	
29660.785	1	1	0	0	0.10706	0.15402	0.22499	0.15277	0.21228	0.18024	0.24248	0.051146	0.069218	0.1494	0.17722	0.064752	0.12254	0.14501	0.19964	0.13741	-2.15	-2.5854	-2.6854	-2.4854	-2.7271	-2.6458	-2.7354	-2.8063	-2.6792	-2.4417	-2.8229	-2.6167	-2.5521	-2.6146	-2.3917	-3.0083	317.752	148.471	166.144	182.441	101.439	2.320	220.342	236.125	255.304	145.035	183.651	270.604	300.237	307.297	119.748	205.206	0.00039894	0.00025018	0.00011779	234.15	3.2797e-06	4.8293e-06	498.26	85.953	5.424e-06	8.4365e-06	235.22	123.47	41.045	19.05	7.7427e-06	69.573	0.0042861	0.0081558	0.0022084	258.55	7.9082e-05	9.1676e-05	517.42	93.174	7.7296e-05	9.0788e-05	246.37	128.78	46.303	20.46	8.1023e-05	71.628	216.787	285.384	115.028	2.694	184.165	158.717	3.229	7.837	127.416	121.461	6.277	10.614	12.008	14.448	149.366	12.912	-8191	255	
29660.881	1	1	0	0	0.16109	0.058771	0.1178	0.31912	0.12385	0.1032	0.074048	0.23417	0.17058	0.12523	0.18263	0.13582	0.052297	0.34024	0.029238	0.14648	-2.0104	-2.7354	-2.7708	-2.4396	-2.5542	-2.6729	-2.5687	-2.8937	-2.6229	-2.5125	-2.7854	-2.4875	-2.5396	-2.6167	-2.4167	-2.9688	260.532	57.809	160.269	248.656	18.033	330.658	265.768	31.356	55.138	306.771	335.795	11.483	117.129	348.318	86.309	272.350	0.00029856	0.00056305	3.5792e-05	236.53	7.145e-06	5.4974e-06	501.51	86.613	2.6063e-06	7.5593e-06	237.73	124.49	40.807	19.063	2.611e-06	69.971	0.0043199	0.0081707	0.002255	259.52	8.0047e-05	9.0183e-05	519.13	93.631	7.7082e-05	9.0905e-05	248.33	129.36	46.374	20.39	8.0722e-05	72.025	217.993	92.301	52.779	2.692	152.868	153.980	3.428	7.369	114.002	155.669	6.623	10.563	11.347	14.465	133.070	12.952	-8191	255	
29660.977	1	1	0	0	0.24408	0.31211	0.10309	0.36149	0.15444	0.2213	0.19281	0.035305	0.1384	0.071653	0.084984	0.35297	0.091103	0.071833	0.39534	0.25115	-2.2458	-2.3375	-2.6813	-2.4688	-2.5458	-2.7875	-2.4604	-2.8063	-2.7208	-2.4958	-2.8	-2.7354	-2.5458	-2.8104	-2.4333	-2.8521	35.135	26.516	325.253	259.866	79.420	75.647	333.384	220.331	197.373	25.935	339.202	22.337	71.713	158.480	82.296	247.220	0.00025786	0.00051293	0.00012921	238.65	7.9299e-06	8.4545e-06	499.38	87.282	4.2757e-06	9.8056e-06	237.28	124.57	40.751	19.091	9.1054e-06	69.9	0.00427	0.0079683	0.0022053	260.33	7.8758e-05	8.9468e-05	520.43	94.08	7.6062e-05	8.9685e-05	248.71	129.7	46.255	20.513	8.1894e-05	72.162	223.049	122.763	103.009	3.033	167.731	166.893	3.269	7.862	327.622	74.218	6.490	10.482	12.192	14.507	130.082	12.888	-8191	255	
29661.049	1	1	0	0	0.10044	0.37055	0.14881	0.13496	0.094185	0.14441	0.29764	0.075714	0.14371	0.20543	0.11274	0.13985	0.27438	0.20011	0.1387	0.35853	-2.125	-2.2292	-2.7458	-2.5375	-2.6021	-2.9521	-2.4958	-2.6958	-2.7229	-2.5104	-2.7562	-2.475	-2.5479	-3.0312	-2.5854	-2.8312	316.664	21.992	8.428	50.809	15.703	291.619	40.261	101.166	181.844	140.865	332.034	258.537	255.660	344.980	164.296	296.838	0.00035638	0.00036693	0.00016814	237.43	5.3629e-06	1.7815e-06	497.38	87.151	4.0206e-06	9.4529e-06	237.8	124.38	40.98	19.198	1.1071e-06	70.118	0.0042217	0.0080288	0.0022339	259.25	7.7025e-05	8.8971e-05	518.76	93.933	7.3782e-05	9.0114e-05	248.26	129.79	46.282	20.563	8.0919e-05	72.155	209.694	72.523	96.374	2.969	128.225	217.902	3.518	7.650	159.308	126.021	6.481	10.562	11.845	14.258	46.225	12.980	-8191	255	
29661.146	1	1	0	0	0.1127	0.1898	0.1382	0.089876	0.13866	0.067986	0.15897	0.086121	0.13204	0.060077	0.16204	0.25608	0.056894	0.17718	0.056109	0.12877	-2.3688	-2.4229	-2.6875	-2.5167	-2.3937	-2.6792	-2.6042	-2.5438	-2.6625	-2.3417	-2.8146	-2.65	-2.7208	-2.8104	-2.5229	-2.8042	230.393	164.912	153.360	289.253	7.308	48.284	293.087	21.238	290.006	43.491	160.563	253.513	41.226	195.747	240.073	225.212	0.00030567	0.0008854	0.00011215	237.1	5.6919e-06	6.833e-06	499.07	87.492	7.681e-06	6.3978e-06	238.42	124.49	40.761	19.121	5.2267e-06	70.208	0.0041544	0.0077946	0.0022179	258.68	7.4959e-05	8.8847e-05	519.3	94.342	7.3974e-05	9.0161e-05	249.75	129.92	46.316	20.637	8.2251e-05	72.428	221.028	69.793	79.501	3.095	220.359	90.601	2.903	7.988	180.977	63.656	6.318	10.778	12.079	13.992	110.381	12.807	-8191	255	
29661.266	1	1	0	0	0.086817	0.25666	0.25608	0.068773	0.10081	0.11327	0.082005	0.12955	0.1057	0.037309	0.10064	0.28941	0.42863	0.10582	0.18577	0.28037	-2.2167	-2.2625	-2.7604	-2.5667	-2.4292	-2.7062	-2.6	-2.5896	-2.725	-2.5542	-2.8312	-2.7021	-2.5125	-2.6958	-2.3479	-2.8167	-6.921	240.979	139.960	56.426	154.056	122.286	271.174	317.833	251.918	328.501	135.617	315.097	61.974	287.265	139.263	219.082	0.00041844	0.00097167	0.00010541	235.57	2.4308e-06	6.2093e-06	504.68	87.478	2.2135e-06	2.7012e-06	240.38	125.48	41.155	19.348	4.9982e-06	70.811	0.004193	0.0081787	0.00225	259.24	7.8125e-05	9.1057e-05	522.83	94.417	7.4501e-05	9.1771e-05	251.2	130.63	46.715	20.778	8.3914e-05	73.018	226.300	54.364	239.181	3.108	84.223	138.341	2.954	8.070	216.695	113.725	6.356	10.454	11.953	14.500	159.537	13.124	-8191	255	
29661.361	1	1	0	0	0.30543	0.11924	0.22103	0.025413	0.12714	0.06092	0.11054	0.29776	0.16126	0.096046	0.17858	0.23409	0.031236	0.1573	0.1558	0.27248	-2.4104	-2.2875	-2.4542	-2.7833	-2.5896	-2.8333	-2.4875	-2.4292	-2.8646	-2.5146	-2.5396	-2.7	-2.5438	-2.6813	-2.7104	-2.7313	283.250	302.522	101.585	126.026	218.951	209.813	341.217	135.115	126.096	7.932	198.448	263.971	179.997	313.992	264.171	320.241	0.00036927	0.0012067	0.00014159	239.11	2.9276e-06	6.3309e-06	501.13	88.44	3.1883e-06	8.3573e-06	240.7	126.25	41.53	19.542	1.0937e-05	71.138	0.0042292	0.0081116	0.0022532	259.6	7.8631e-05	9.2261e-05	523.17	94.88	7.623e-05	9.2554e-05	251.51	131.52	46.952	20.943	8.2047e-05	73.291	225.406	69.341	280.007	3.010	161.421	108.020	3.448	8.076	213.942	137.969	6.700	10.301	11.899	14.146	146.174	12.822	-8191	255	
29661.457	1	1	0	0	0.24367	0.2236	0.16683	0.20015	0.25742	0.057521	0.12809	0.16427	0.11773	0.095484	0.04378	0.070509	0.25596	0.23821	0.17646	0.36801	-2.275	-2.575	-2.6604	-2.4979	-2.3854	-2.5375	-2.5667	-2.425	-2.75	-2.6188	-2.75	-2.8958	-2.4188	-2.7313	-2.6271	-2.5917	19.233	59.372	15.663	333.253	64.181	3.438	180.745	98.681	69.273	35.452	333.484	217.605	15.021	281.173	227.053	291.509	0.00036078	0.00053531	0.00020204	239.1	9.9983e-06	1.9958e-06	504.79	87.727	4.9198e-06	4.5357e-06	240.07	126.55	41.667	19.605	7.4681e-06	71.598	0.0043236	0.0082263	0.0022914	259.91	7.9958e-05	9.266e-05	522.24	94.613	7.6519e-05	9.2633e-05	250.99	131.39	47.157	21.087	8.1901e-05	73.756	209.658	53.221	92.857	3.231	233.527	24.782	3.124	8.321	135.856	106.796	6.702	10.758	11.807	14.478	131.600	12.924	-8191	255	
29661.555	1	1	0	0	0.26585	0.11974	0.10007	0.010343	0.16013	0.097046	0.2252	0.069678	0.15007	0.37451	0.04156	0.33238	0.19283	0.12958	0.062321	0.15763	-2.4833	-2.6771	-2.5979	-2.9104	-2.5875	-2.7188	-2.7958	-2.5146	-2.6688	-2.5542	-2.6063	-2.8667	-2.3583	-2.7125	-2.7417	-2.575	76.112	320.290	51.940	80.458	16.134	16.821	174.789	208.832	325.103	173.494	248.536	37.422	318.595	205.530	211.554	231.949	0.00027397	0.00057379	7.4969e-05	236.61	3.262e-06	3.3219e-06	502.63	87.853	7.6574e-06	5.2503e-06	240.21	126.36	42.004	19.429	9.8927e-06	71.482	0.0042736	0.0081539	0.0022251	259.37	8.0369e-05	9.252e-05	522.54	94.802	7.6864e-05	9.1231e-05	250.96	131.43	47.222	20.939	7.868e-05	73.509	214.207	74.931	145.441	2.670	340.746	304.880	3.407	7.942	189.568	211.271	6.931	10.643	11.657	14.478	182.905	13.103	-8191	255	
29661.650	1	1	0	0	0.071659	0.074157	0.13726	0.10298	0.16811	0.15889	0.42933	0.049613	0.15005	0.16257	0.15413	0.040918	0.061038	0.40671	0.12753	0.033117	-2.2313	-2.4375	-2.4521	-2.825	-2.5563	-2.8646	-2.7104	-2.3375	-2.8042	-2.6437	-2.4896	-2.8042	-2.2708	-2.5312	-2.6729	-2.5542	4.048	49.247	48.346	154.152	323.576	108.120	289.979	123.015	301.241	121.298	300.830	26.905	100.610	268.385	323.394	7.392	0.00033036	0.00038665	0.00019535	237.6	4.8714e-06	9.6161e-06	505.73	88.644	1.7778e-06	6.9491e-06	243.5	127.69	41.854	19.736	3.9693e-06	71.755	0.0042348	0.0079607	0.0022056	260.45	7.9878e-05	9.2514e-05	525.9	95.632	7.8081e-05	9.2976e-05	253.32	132.38	47.526	21.118	8.279e-05	74.087	226.204	86.015	71.275	3.340	183.851	202.065	3.305	7.986	214.905	115.039	6.677	10.650	11.297	14.279	207.762	12.811	-8191	255	
29661.746	1	1	0	0	0.38064	0.21994	0.16092	0.056873	0.11101	0.051732	0.16885	0.2236	0.12522	0.12475	0.14408	0.21364	0.2317	0.10106	0.085875	0.14929	-2.3917	-2.6042	-2.3438	-2.7229	-2.5458	-2.7062	-2.8146	-2.3063	-2.7271	-2.7417	-2.4813	-2.7083	-2.425	-2.5563	-2.8271	-2.5208	339.729	143.147	295.067	28.342	57.682	60.961	289.785	343.639	252.439	215.917	304.232	226.646	154.941	9.087	304.860	224.917	0.00028754	0.00040726	2.4093e-05	241.74	6.8767e-06	5.4848e-06	506.63	87.964	5.1367e-06	1.3365e-06	242.96	127.09	41.943	19.41	5.6081e-06	71.187	0.0043764	0.0081362	0.0022642	263.08	8.2118e-05	9.1913e-05	526.76	95.576	7.8666e-05	9.2027e-05	252.87	132.46	47.34	20.913	8.1889e-05	73.515	213.614	29.972	172.257	3.565	152.944	77.712	3.245	7.662	118.563	211.692	6.653	10.832	11.837	14.635	109.879	12.633	-8191	255	
29661.867	1	1	0	0	0.353	0.14031	0.023184	0.23697	0.28578	0.36257	0.29611	0.071852	0.17508	0.13835	0.10474	0.088884	0.13429	0.054368	0.2856	0.23972	-2.3396	-2.4667	-2.2438	-2.8146	-2.5042	-2.7	-2.7854	-2.5542	-2.5271	-2.7062	-2.5833	-2.8146	-2.4229	-2.4646	-2.7146	-2.6937	337.233	290.401	326.376	11.606	44.103	303.719	262.933	135.630	244.939	-4.217	225.453	264.736	124.948	245.551	85.819	156.801	0.00035122	0.00082751	0.0002803	241.74	7.3833e-06	8.5315e-07	508.63	87.825	1.5428e-06	2.0347e-06	239.54	126.46	41.691	19.336	5.4462e-06	71.024	0.0043631	0.0080559	0.0022685	263.43	8.1571e-05	9.0755e-05	525.95	95.182	7.7472e-05	9.17e-05	251.81	131.56	47.067	20.758	8.2694e-05	73.231	210.889	30.183	-4.093	3.104	139.004	141.167	2.990	8.027	226.010	164.380	6.411	10.619	12.164	14.478	195.094	12.879	-8191	255	
29661.961	1	1	0	0	0.071219	0.1832	0.13932	0.11667	0.061826	0.24883	0.2374	0.22552	0.090574	0.20694	0.18879	0.1206	0.13206	0.21458	0.13312	0.086304	-2.1417	-2.7333	-2.3729	-2.6146	-2.5708	-2.5208	-2.8063	-2.7083	-2.6292	-2.5979	-2.5458	-2.8146	-2.65	-2.5167	-2.7271	-2.6458	226.510	211.125	48.840	-5.097	269.918	347.586	246.347	266.568	60.604	70.465	294.177	309.129	261.686	283.149	46.463	186.522	0.00038951	0.00021721	4.143e-05	240.15	1.566e-06	1.0903e-05	505.76	87.892	4.019e-06	7.3713e-06	241.81	126	41.568	19.294	4.0595e-06	70.357	0.0042824	0.0079305	0.0022684	262.38	7.911e-05	8.876e-05	526.32	95.135	7.673e-05	9.0283e-05	252.09	131.48	46.945	20.639	8.2873e-05	72.653	216.667	155.334	113.901	3.566	298.188	121.562	3.378	8.074	150.614	163.108	6.694	11.002	11.969	14.121	57.530	12.933	-8191	255	
29662.057	1	1	0	0	0.10584	0.06694	0.14678	0.11203	0.23258	0.24287	0.092838	0.23109	0.16034	0.26703	0.094448	0.17075	0.20296	0.31553	0.15664	0.068932	-2.3042	-2.6688	-2.3896	-2.6417	-2.7375	-2.4604	-2.8646	-2.4083	-2.4729	-2.7875	-2.5146	-2.7083	-2.6354	-2.4521	-2.8125	-2.6167	165.450	283.390	107.242	281.032	12.214	327.522	262.716	239.511	242.231	230.060	217.146	274.598	85.842	318.256	69.393	190.598	0.00035192	0.00077038	9.2132e-05	240.65	3.9742e-06	9.7457e-06	507.37	88.103	6.9422e-06	1.0246e-05	241.56	127.07	41.564	19.308	4.6486e-06	70.51	0.0042227	0.0080644	0.0022742	262.81	7.7357e-05	9.0943e-05	526.92	95.24	7.5066e-05	9.2158e-05	253.31	131.77	47.112	20.743	8.414e-05	73.031	214.347	91.617	338.594	2.944	175.963	193.055	3.220	7.812	230.206	154.961	6.073	10.528	11.901	14.117	236.719	12.918	-8191	255	
29662.152	1	1	0	0	0.2721	0.17197	0.37956	0.32511	0.24001	0.056061	0.22546	0.17506	0.23451	0.092783	0.37824	0.14853	0.20249	0.070094	0.1144	0.23527	-1.9583	-2.5375	-2.5229	-2.6896	-2.6625	-2.4021	-2.6042	-2.5479	-2.6063	-2.7333	-2.5208	-2.6625	-2.875	-2.4667	-2.7958	-2.6583	109.152	8.449	173.057	254.368	250.004	221.089	289.515	6.986	213.156	55.953	305.247	262.131	312.790	296.928	200.771	342.515	0.00036893	0.00036509	0.0001336	242.1	5.8704e-06	5.3887e-06	508.23	88.564	4.8848e-06	7.8108e-06	242.45	127.28	41.822	19.313	6.542e-06	71.136	0.0042523	0.0082272	0.0023097	263.79	7.8711e-05	9.419e-05	527.37	95.605	7.6622e-05	9.4129e-05	253.66	132.14	47.285	20.811	8.4884e-05	73.128	218.065	69.537	88.227	3.234	128.174	229.087	3.157	7.699	135.361	230.727	6.672	10.568	11.847	14.462	163.957	13.091	-8191	255	
29662.273	1	1	0	0	0.093908	0.15829	0.12894	0.13125	0.16615	0.23752	0.35409	0.4049	0.15024	0.1118	0.12754	0.23758	0.15899	0.11718	0.25005	0.06023	-1.9375	-2.6437	-2.2708	-2.6958	-2.7062	-2.2833	-2.8833	-2.4854	-2.4896	-2.7146	-2.6104	-2.6146	-2.6625	-2.5312	-2.7208	-2.4583	138.569	77.932	345.550	28.398	75.452	120.326	280.260	234.444	99.868	196.121	251.510	300.583	248.285	159.582	280.732	271.299	0.00041147	0.00031465	0.00024618	241.71	5.2516e-06	4.5487e-07	507.08	88.415	1.8133e-06	3.4089e-06	240.6	126.18	40.947	19.281	1.4744e-06	70.732	0.0043062	0.0083836	0.0023089	263.62	7.8994e-05	9.44e-05	525.94	95.073	7.7564e-05	9.4104e-05	252.11	131.22	46.808	20.718	8.4478e-05	72.745	215.025	131.744	38.862	2.922	226.446	128.536	3.176	7.386	221.942	171.126	6.800	10.910	12.383	14.333	277.971	12.948	-8191	255	
29662.346	1	1	0	0	0.13379	0.16592	0.045912	0.17901	0.21926	0.29539	0.074213	0.19158	0.093029	0.32828	0.13733	0.080515	0.19471	0.14822	0.10713	0.33266	-2.1083	-2.7271	-2.3458	-2.375	-2.7229	-2.5083	-2.6896	-2.8896	-2.35	-2.6813	-2.6	-2.65	-2.8729	-2.5875	-2.7604	-2.7729	42.908	232.255	196.867	344.950	326.120	-9.021	100.739	233.868	39.862	236.166	343.081	277.028	104.441	285.451	251.398	279.789	0.00031664	0.00058921	0.00026472	239.13	9.893e-06	1.6996e-06	509.68	87.929	1.137e-06	3.2415e-06	241.03	125.52	41.197	19.068	1.857e-06	70.359	0.0043357	0.008374	0.0022625	262.21	7.9929e-05	9.3192e-05	526.96	94.742	7.6522e-05	9.2145e-05	251.27	130.45	46.756	20.553	8.1269e-05	72.633	219.872	102.193	43.886	2.811	118.436	250.705	3.557	8.008	278.070	185.099	6.588	10.590	12.129	14.415	249.619	12.978	-8191	255	
29662.441	1	1	0	0	0.24382	0.093601	0.087788	0.22189	0.19548	0.087789	0.10658	0.17003	0.23975	0.15784	0.14857	0.15545	0.16327	0.20771	0.052161	0.16386	-1.8271	-2.5771	-2.7021	-2.45	-2.7458	-2.5563	-2.6729	-2.7083	-2.5583	-2.6937	-2.7021	-2.5333	-2.8979	-2.4417	-2.4938	-2.9854	289.425	20.975	124.136	233.334	154.945	14.053	254.219	111.156	130.631	157.040	176.135	341.120	256.078	2.274	93.120	43.720	0.00039277	0.00048969	0.00013829	240.25	4.1585e-06	1.2938e-06	505.58	87.52	4.3564e-06	1.7883e-06	242.22	125.72	41.452	19.327	2.435e-06	70.751	0.0043169	0.0082187	0.002216	262.22	7.837e-05	9.2062e-05	525.4	94.663	7.6192e-05	9.1962e-05	251.46	130.81	46.897	20.646	8.0384e-05	73.001	224.890	50.462	62.231	3.030	172.908	189.926	3.492	7.497	174.815	258.907	6.296	10.659	11.803	14.374	222.036	12.876	-8191	255	
29662.562	1	1	0	0	0.29047	0.13319	0.07252	0.32438	0.166	0.14599	0.46524	0.19444	0.22092	0.11567	0.045597	0.15133	0.23026	0.1149	0.42597	0.018459	-1.9271	-2.7333	-2.6375	-2.3729	-2.8063	-2.6521	-2.425	-2.7417	-2.5896	-2.6333	-2.725	-2.2604	-2.5958	-2.5458	-2.5583	-2.9146	266.435	317.388	139.199	333.417	178.129	67.866	323.611	295.796	97.844	37.678	200.899	36.430	194.846	247.051	326.380	336.173	0.00031355	0.00067056	9.099e-05	240.45	1.0665e-05	3.5313e-06	506.11	87.843	7.594e-06	1.8081e-06	242.03	125.91	41.073	19.201	3.1567e-06	70.651	0.0043275	0.0081034	0.0021888	262.6	7.9041e-05	9.1716e-05	526.34	94.569	7.6113e-05	9.233e-05	252.13	131.06	46.62	20.634	8.0336e-05	72.849	201.931	84.791	5.105	3.505	135.875	82.257	3.276	8.083	183.841	344.741	6.459	10.460	11.569	14.555	137.410	12.929	-8191	255	
29662.658	1	1	0	0	0.083914	0.19733	0.22787	0.21502	0.381	0.18559	0.27896	0.23145	0.16193	0.1158	0.22148	0.19992	0.1808	0.19586	0.13508	0.17414	-2.0875	-2.6063	-2.5792	-2.3646	-2.7438	-2.6958	-2.5375	-2.6667	-2.3688	-2.7917	-2.6833	-2.4562	-2.6896	-2.6167	-2.6	-3.0812	99.851	201.599	228.324	290.652	87.301	19.534	345.110	191.867	56.196	96.095	43.151	329.281	277.181	150.743	182.426	327.027	0.00036115	0.00043696	0.00010178	239.35	5.3065e-06	1.983e-06	505.35	87.41	2.1641e-06	1.7368e-06	240.1	124.36	40.875	19.021	1.2042e-06	70.119	0.0043071	0.0080438	0.0021947	261.85	7.8952e-05	8.9713e-05	523.9	94.113	7.569e-05	8.9291e-05	249.9	129.95	46.196	20.396	7.9014e-05	72.275	221.225	44.293	121.718	2.673	347.823	39.834	3.197	7.961	110.607	23.219	6.481	10.794	11.528	14.561	203.983	12.911	-8191	255	
29662.756	1	1	0	0	0.18386	0.18865	0.10386	0.14025	0.33924	0.073947	0.23011	0.31761	0.14209	0.20811	0.27051	0.1721	0.11362	0.3022	0.18754	0.047042	-1.8958	-2.5125	-2.5104	-2.3771	-2.8292	-2.5354	-2.5312	-2.9104	-2.4896	-2.6542	-2.7396	-2.5396	-2.8146	-2.725	-2.4104	-2.8208	7.039	319.828	86.978	185.826	158.689	270.248	282.990	125.480	36.337	124.022	285.800	324.687	14.093	318.291	226.000	212.499	0.00029372	0.00033898	0.00015216	239.81	4.2894e-06	7.0763e-06	508.4	86.989	5.4676e-06	3.9053e-06	239.93	124.91	40.924	19.021	1.1322e-06	70.308	0.0042095	0.0077088	0.0021801	261.56	7.7433e-05	8.7862e-05	525.5	93.929	7.5237e-05	8.8409e-05	250.18	129.81	46.259	20.337	8.169e-05	72.387	216.995	103.767	91.330	3.008	168.492	119.318	2.977	8.250	171.232	141.689	6.644	10.644	11.595	14.360	137.286	13.078	-8191	255	
29662.850	1	1	0	0	0.18551	0.18211	0.13432	0.085913	0.20247	0.12316	0.21568	0.075639	0.070633	0.084876	0.14509	0.14563	0.18517	0.23687	0.12517	0.24156	-2.0896	-2.4813	-2.8958	-2.3958	-2.7687	-2.7167	-2.5896	-2.9688	-2.5604	-2.5438	-2.8563	-2.5083	-2.7667	-2.7625	-2.4688	-2.8354	199.906	191.207	305.537	211.747	67.637	321.623	287.086	3.882	227.000	258.845	52.287	315.671	88.756	337.438	330.360	332.569	0.00031298	0.00025696	0.00025831	240.59	4.7533e-06	6.816e-06	504.65	87.575	3.2879e-06	7.0286e-06	241.15	125.27	40.918	18.997	8.1166e-06	70.591	0.0042656	0.0077562	0.0022173	261.61	7.7929e-05	8.792e-05	525.05	94.293	7.4279e-05	8.8131e-05	251.84	130.49	46.255	20.465	8.236e-05	72.815	215.388	338.998	66.368	3.286	196.612	162.742	3.312	8.131	95.591	150.848	6.641	10.465	11.077	14.811	89.600	13.060	-8191	255	
29662.945	1	1	0	0	0.0022468	0.20208	0.070872	0.20232	0.07925	0.27217	0.23796	0.18297	0.09921	0.24636	0.1966	0.15828	0.1088	0.090137	0.18079	0.18456	-2.1333	-2.6042	-2.6604	-2.425	-2.5042	-2.6271	-2.5458	-2.5833	-2.5896	-2.3396	-2.8042	-2.5062	-2.5792	-2.7687	-2.3542	-2.7583	338.309	141.550	164.816	219.105	159.917	197.210	240.605	181.411	139.650	74.616	28.239	309.575	312.921	296.003	118.162	314.571	0.00029389	0.00033465	0.00024714	240.86	4.2749e-06	8.0109e-06	506.73	87.257	3.5029e-06	8.543e-06	240.77	125.5	40.791	18.991	8.3183e-06	70.336	0.0041924	0.0079285	0.0022616	262.09	7.8107e-05	8.8341e-05	525.87	94.16	7.4426e-05	8.9566e-05	251.13	130.45	46.207	20.436	8.1998e-05	72.77	222.845	105.741	121.933	2.647	258.136	173.314	3.276	8.028	140.854	107.933	6.478	10.547	11.970	14.356	133.613	12.844	-8191	255	
29663.041	1	1	0	0	0.15929	0.028186	0.29412	0.082567	0.15822	0.25793	0.11505	0.23947	0.036754	0.072611	0.20226	0.13505	0.15641	0.1301	0.10698	0.29107	-2.2167	-2.3271	-2.6479	-2.5271	-2.6354	-2.8104	-2.3646	-2.7333	-2.6229	-2.4521	-2.7854	-2.5604	-2.5542	-2.7375	-2.3583	-3.025	307.011	238.529	330.038	67.758	316.400	152.085	340.806	311.975	321.603	216.444	24.941	269.391	282.527	331.972	6.610	235.042	0.00036741	0.00033831	8.1966e-05	238.72	3.6538e-06	7.2551e-06	504.61	87.371	1.9363e-06	4.9073e-06	240.34	125.16	40.911	19.063	3.1347e-06	70.431	0.0042081	0.0080135	0.0022628	261.91	7.6937e-05	9.06e-05	524.4	94.234	7.349e-05	9.0572e-05	250.87	130.12	46.21	20.456	8.1415e-05	72.647	221.709	20.680	301.362	3.730	51.435	120.255	3.201	7.586	101.062	173.738	6.367	10.654	11.630	14.513	168.332	12.952	-8191	255	
29663.139	1	1	0	0	0.23358	0.13353	0.038823	0.21156	0.22169	0.11305	0.17906	0.14619	0.31808	0.24894	0.14889	0.21326	0.11688	0.17524	0.014692	0.12835	-2.1521	-2.3542	-2.6104	-2.6667	-2.4938	-2.8708	-2.5708	-2.6021	-2.6167	-2.3958	-2.7646	-2.6688	-2.3333	-2.8542	-2.45	-2.9562	1.002	269.912	94.495	29.485	193.760	88.057	314.377	287.314	282.470	328.016	280.903	83.387	318.070	278.859	-7.585	313.395	0.00032931	0.00029654	9.1722e-05	240.39	2.1143e-06	5.9433e-06	506.33	87.82	2.8568e-06	8.9721e-06	240.71	126.19	41.204	19.018	6.2979e-06	70.374	0.0041367	0.0080565	0.0022311	261.52	7.6795e-05	9.0786e-05	525.31	94.3	7.4505e-05	9.2056e-05	251.1	130.55	46.338	20.49	8.2673e-05	72.719	221.533	76.630	122.420	2.741	182.517	84.612	3.539	7.652	169.693	287.052	6.494	10.896	11.994	14.799	114.965	12.950	-8191	255	
29663.234	1	1	0	0	0.07775	0.17681	0.20534	0.10514	0.043001	0.18386	0.29653	0.23777	0.28806	0.25862	0.13405	0.21684	0.08609	0.1365	0.043841	0.26181	-2.3083	-2.3521	-2.6042	-2.5917	-2.3563	-2.7583	-2.65	-2.525	-2.6917	-2.5292	-2.6208	-2.7812	-2.4271	-2.8792	-2.5187	-2.7604	163.142	95.340	196.188	348.671	201.247	335.837	78.804	213.518	68.173	236.121	278.195	236.486	308.759	330.384	79.320	336.327	0.00035827	0.00065177	6.5914e-05	241.04	1.9434e-06	7.5142e-06	509.34	87.735	2.3211e-06	2.3706e-06	241.15	125.84	41.097	19.243	6.0841e-06	71.299	0.0042463	0.0081151	0.00227	261.68	7.7688e-05	9.1401e-05	526.6	94.362	7.5414e-05	9.1682e-05	252.37	131.03	46.614	20.723	8.0411e-05	73.506	232.011	57.108	86.547	2.823	321.745	128.103	3.113	8.055	315.590	196.331	6.515	10.832	11.757	14.413	184.020	12.869	-8191	255	
29663.354	1	1	0	0	0.23855	0.15958	0.19792	0.18204	0.10155	0.055481	0.094437	0.13505	0.10991	0.16483	0.046837	0.29795	0.19047	0.21108	0.072797	0.24286	-2.3563	-2.4208	-2.6333	-2.5354	-2.4979	-2.7896	-2.4667	-2.3833	-2.7021	-2.3167	-2.8729	-2.7042	-2.2729	-2.7875	-2.5917	-2.5771	2.915	251.264	248.470	335.252	193.527	290.127	273.777	30.988	185.638	121.960	88.828	331.314	276.376	-7.765	100.264	240.660	0.00042461	0.00042282	0.00012049	242.32	5.9283e-06	6.4759e-06	510.46	87.558	1.567e-06	3.0908e-06	242.81	126.83	41.339	19.279	6.8828e-06	71.241	0.0043082	0.008281	0.0022487	262.3	7.9106e-05	9.1073e-05	527.54	94.325	7.613e-05	9.1035e-05	253.15	131.7	46.651	20.746	8.1146e-05	73.471	230.451	277.761	1.785	2.947	263.968	82.015	3.209	8.161	204.249	209.375	6.622	10.655	11.711	14.214	152.899	13.012	-8191	255	
29663.451	1	1	0	0	0.033116	0.20943	0.25454	0.22413	0.20545	0.20246	0.28279	0.22791	0.14529	0.32184	0.070706	0.14348	0.23865	0.12755	0.22616	0.19891	-2.225	-2.4208	-2.5687	-2.7146	-2.3292	-2.5833	-2.5896	-2.3979	-2.7604	-2.5708	-2.675	-2.6417	-2.4688	-2.6646	-2.6792	-2.6771	298.895	209.837	256.821	83.217	60.859	252.678	279.766	220.558	220.608	70.392	339.052	228.070	90.106	-2.475	278.816	35.801	0.00033516	0.00080589	0.00014889	239.8	1.5898e-06	8.5985e-06	505.72	87.493	1.7902e-06	5.6678e-06	241.96	126.75	41.304	19.213	7.4547e-06	71.175	0.0042822	0.0082203	0.0021845	261.38	7.9804e-05	9.041e-05	524.11	94.22	7.4621e-05	8.9518e-05	252.24	131.45	46.526	20.597	7.763e-05	73.399	231.918	81.401	78.508	2.845	250.993	95.696	3.482	8.526	236.270	120.330	6.808	10.702	11.814	14.261	118.014	12.938	-8191	255	
29663.547	1	1	0	0	0.25878	0.058731	0.14433	0.197	0.24707	0.065666	0.042659	0.20276	0.041989	0.17505	0.21396	0.064734	0.11126	0.088765	0.13465	0.095537	-2.3271	-2.45	-2.6333	-2.8896	-2.3958	-3.0208	-2.7833	-2.3563	-2.7938	-2.4792	-2.4792	-2.7458	-2.4146	-2.7	-2.6979	-2.6271	345.851	2.234	52.275	251.493	231.615	-2.675	207.003	167.550	175.851	215.699	27.322	-8.273	52.134	121.788	54.585	38.437	0.00038274	0.0005488	0.00017508	237.85	4.7545e-07	8.2735e-06	508.78	87.874	3.1182e-06	5.1419e-06	243.82	125.72	41.223	19.086	3.3031e-06	71.028	0.0042113	0.0077437	0.0021191	260.9	7.6979e-05	8.8776e-05	526.92	94.579	7.5916e-05	8.948e-05	252.64	131.02	46.453	20.505	8.0118e-05	73.371	214.742	321.870	142.856	3.095	245.078	141.101	3.324	8.013	154.361	21.682	6.474	10.644	11.789	14.187	163.896	12.985	-8191	255	
29663.643	1	1	0	0	0.090822	0.054349	0.16226	0.27527	0.15518	0.37497	0.23104	0.13672	0.18408	0.067735	0.10546	0.19731	0.17324	0.1633	0.049129	0.20536	-2.3146	-2.4688	-2.4688	-2.6917	-2.4167	-2.8063	-2.8875	-2.5583	-2.7792	-2.6771	-2.6646	-2.8042	-2.4938	-2.7167	-2.6063	-2.5396	24.633	322.781	218.706	245.492	167.176	248.852	258.412	254.154	325.465	163.662	48.679	316.165	274.692	165.616	18.494	253.221	0.00030133	0.00036686	0.00017841	240.33	2.9843e-06	4.0076e-06	509.74	88.039	5.0166e-06	4.5448e-06	242.12	126.02	41.178	19.223	1.4826e-06	71.356	0.0042927	0.0079559	0.0022023	263.03	7.9307e-05	8.9694e-05	528.86	94.764	7.678e-05	8.9788e-05	252.76	131.48	46.588	20.568	8.2112e-05	73.538	222.695	151.992	104.276	3.145	235.433	143.790	3.294	7.882	197.222	139.035	6.687	10.546	12.400	14.640	28.855	12.904	-8191	255	
29663.738	1	1	0	0	0.26082	0.048395	0.055251	0.20461	0.030365	0.10767	0.31932	0.071473	0.3162	0.25599	0.096193	0.3993	0.058782	0.17934	0.11031	0.34789	-2.3146	-2.5396	-2.2875	-2.8958	-2.4313	-2.4667	-2.7583	-2.3104	-2.7875	-2.4979	-2.4437	-2.7771	-2.6	-2.6396	-2.6333	-2.3479	37.203	191.256	239.021	48.031	90.830	45.865	211.069	237.814	89.716	152.297	293.750	347.193	316.451	327.664	339.930	299.395	0.00034134	0.00034567	0.00024591	240.17	5.0411e-06	4.6382e-06	509.35	88.076	4.1292e-06	8.9393e-06	243.77	126.88	40.947	19.199	9.8896e-06	71.547	0.0042845	0.0079284	0.002223	263.7	7.7996e-05	8.9333e-05	528.86	94.899	7.4843e-05	8.9421e-05	253.77	131.67	46.394	20.485	8.2763e-05	73.506	225.543	139.496	94.284	2.923	62.630	97.056	3.509	8.228	218.441	153.561	6.571	10.759	11.801	14.485	146.907	12.787	-8191	255	
29663.836	1	1	0	0	0.071038	0.30676	0.06242	0.18783	0.18877	0.059804	0.089217	0.12727	0.27158	0.1419	0.30152	0.29035	0.052061	0.15677	0.16125	0.23209	-2.1958	-2.6208	-2.4583	-2.6813	-2.55	-2.5708	-2.8625	-2.4896	-2.8667	-2.7292	-2.5042	-2.8438	-2.5583	-2.6542	-2.9771	-2.6729	284.072	59.742	3.619	296.804	17.225	251.348	339.814	55.010	322.058	88.573	311.031	247.710	26.278	22.390	227.314	297.674	0.00033329	0.00043695	0.00015488	241.01	3.5479e-06	5.5716e-06	507.75	87.722	2.4299e-06	5.1164e-06	243.9	126.46	40.699	19.184	2.0284e-06	71.474	0.0042405	0.0078397	0.0022558	262.61	7.6085e-05	8.9113e-05	527.2	94.484	7.314e-05	8.8712e-05	253.73	131.5	46.219	20.649	8.177e-05	73.603	217.866	149.069	121.953	3.332	134.282	160.872	3.392	8.208	168.350	131.900	6.383	10.855	11.791	14.587	4.814	12.959	-8191	255	
29663.953	1	1	0	0	0.17883	0.15101	0.13844	0.085218	0.034536	0.17895	0.31393	0.11513	0.11704	0.25674	0.15218	0.18127	0.26521	0.20541	0.084224	0.191	-1.9833	-2.3937	-2.3833	-2.7396	-2.7354	-2.6312	-2.9583	-2.4083	-2.5938	-2.6458	-2.4646	-2.6	-2.5979	-2.4688	-2.8333	-2.6125	206.414	313.534	325.494	222.168	204.173	257.855	322.349	250.184	21.011	108.975	197.093	172.518	291.542	-0.622	95.249	326.390	0.00030751	0.0001553	0.00025855	240.95	5.022e-06	6.8746e-06	507.4	87.825	6.3807e-06	2.9653e-06	242.01	126.67	40.774	19.177	5.4771e-06	71.094	0.004114	0.0078025	0.0022299	261.56	7.6552e-05	8.8825e-05	527.67	94.608	7.3729e-05	9.0044e-05	253.33	131.46	46.218	20.557	8.1868e-05	73.412	230.629	18.837	33.544	3.002	111.081	177.227	3.503	7.948	133.552	182.856	6.584	11.061	12.036	14.304	40.987	12.695	-8191	255	
29664.051	1	1	0	0	0.085327	0.1542	0.12722	0.14734	0.090192	0.28645	0.09344	0.1672	0.13107	0.17615	0.12777	0.12248	0.14229	0.056149	0.033701	0.038338	-2.1229	-2.6396	-2.3646	-2.7896	-2.5854	-2.4875	-2.7208	-2.6146	-2.5438	-2.8812	-2.5542	-2.8896	-2.575	-2.5854	-2.8729	-2.6312	196.717	-1.761	39.083	4.825	197.619	163.344	66.350	-9.275	37.217	108.747	285.693	5.792	182.688	39.955	169.902	335.387	0.00035011	0.00066341	0.00014207	242.97	1.0006e-05	7.3136e-06	505.45	88.109	7.4741e-06	9.4832e-06	244.12	127.45	41.225	19.217	7.1893e-06	71.778	0.004176	0.0079759	0.002259	262.53	7.6016e-05	9.0655e-05	529.3	95.111	7.427e-05	9.1061e-05	255.34	132.58	46.651	20.721	8.2895e-05	74.029	214.356	139.028	50.395	3.031	156.579	145.165	3.250	8.137	183.475	94.958	6.681	10.766	11.863	14.333	29.431	13.050	-8191	255	
29664.146	1	1	0	0	0.16428	0.15986	0.094333	0.13802	0.041834	0.11388	0.21552	0.25798	0.086911	0.043498	0.082219	0.17434	0.1491	0.056165	0.30739	0.057646	-2.225	-2.8042	-2.5687	-2.7583	-2.7562	-2.3625	-2.75	-2.6146	-2.6396	-2.85	-2.4646	-2.6813	-2.5271	-2.4708	-2.7396	-2.7	124.208	64.124	176.912	305.364	284.048	343.839	245.279	144.857	160.997	120.645	262.863	325.675	84.565	117.647	198.357	187.361	0.00033317	0.00059213	4.0689e-05	241.9	4.946e-06	2.8922e-06	510.91	88.317	7.6458e-06	2.6826e-06	243.92	127.72	41.143	19.25	6.15e-06	71.676	0.0042347	0.008165	0.0022806	262.79	7.8786e-05	9.2375e-05	531.28	94.923	7.5164e-05	9.1844e-05	255.3	132.67	46.707	20.724	8.2296e-05	73.931	228.897	79.278	127.897	2.816	116.132	313.487	2.905	7.926	190.833	88.000	6.519	10.588	11.345	14.545	124.927	13.209	-8191	255	
29664.242	1	1	0	0	0.12164	0.20052	0.1698	0.075184	0.17475	0.21346	0.22728	0.14582	0.16442	0.094085	0.16648	0.2099	0.14579	0.26324	0.068655	0.031056	-2.075	-2.8104	-2.4417	-2.5917	-2.7271	-2.4771	-2.6833	-2.5938	-2.5042	-2.7208	-2.575	-2.7062	-2.6417	-2.4542	-2.8167	-2.8979	223.195	334.025	333.947	255.358	137.223	280.297	296.402	20.069	119.495	198.172	339.780	316.665	332.708	317.450	1.546	173.811	0.00042882	0.00050153	7.8743e-05	240.93	1.5232e-06	9.8001e-06	511.42	87.74	4.0388e-06	8.9871e-06	242.28	126.67	41.005	19.08	2.7575e-06	71.359	0.0042634	0.0081103	0.0022048	261.59	7.782e-05	9.0333e-05	528.45	94.668	7.4656e-05	8.9962e-05	254.45	131.86	46.599	20.627	7.8403e-05	73.68	221.610	35.019	77.781	3.068	181.449	151.438	3.480	7.629	241.580	165.250	6.480	11.109	11.734	14.465	162.226	13.142	-8191	255	
29664.340	1	1	0	0	0.016063	0.094968	0.042567	0.12752	0.22151	0.19711	0.10331	0.04944	0.15366	0.22338	0.075596	0.076048	0.14806	0.15604	0.4025	0.16835	-1.9771	-2.6083	-2.4542	-2.7542	-2.7125	-2.4479	-2.6146	-2.7896	-2.6021	-2.7438	-2.7708	-2.775	-2.5292	-2.4604	-2.5563	-2.5896	299.491	297.821	316.697	210.577	124.270	243.863	250.678	298.665	328.355	91.511	340.970	301.391	185.397	91.590	5.608	3.233	0.00036602	0.00035274	4.5383e-05	240.56	6.9256e-07	2.8147e-06	510.04	88.626	3.9275e-06	3.9285e-06	244.91	126.91	41.369	19.388	7.8711e-06	72.026	0.0042292	0.007912	0.0021745	262.14	7.749e-05	8.9715e-05	528.65	95.208	7.5831e-05	9.0074e-05	255.45	132.4	46.87	20.756	7.8275e-05	74.082	217.642	36.128	318.794	3.042	92.367	106.410	3.257	8.155	320.200	100.880	6.735	10.900	11.731	14.484	107.946	13.054	-8191	255	
29664.436	1	1	0	0	0.097745	0.16647	0.13828	0.29699	0.027409	0.10325	0.11851	0.20743	0.15568	0.16679	0.12518	0.026685	0.081443	0.3809	0.18703	0.29134	-1.9521	-2.7333	-2.4688	-2.4625	-2.8458	-2.4021	-2.7417	-2.6854	-2.4896	-2.7438	-2.7208	-2.4729	-2.7833	-2.6229	-2.6354	-2.9875	66.981	192.850	33.354	250.096	244.563	22.408	327.437	347.579	302.630	339.139	249.635	65.234	271.425	-9.159	124.948	295.516	0.00034318	0.00067459	0.00028419	241.23	4.0453e-06	8.8587e-06	509.12	88.921	5.3492e-06	2.445e-06	246.98	127.6	41.468	19.241	2.0971e-06	71.9	0.00424	0.0079636	0.0021478	262.66	7.8797e-05	8.8788e-05	530.57	95.487	7.7505e-05	8.9052e-05	256.82	132.78	47.089	20.672	7.9025e-05	74.102	217.698	30.145	90.677	3.068	67.945	192.715	3.531	7.924	193.978	115.958	6.571	10.783	11.677	14.387	127.314	12.996	-8191	255	
29664.531	1	1	0	0	0.032933	0.073327	0.10687	0.31657	0.34004	0.22535	0.22058	0.2703	0.16463	0.18681	0.33374	0.21378	0.19353	0.05789	0.11131	0.29194	-2.1375	-2.825	-2.4292	-2.3875	-2.8458	-2.5479	-2.3875	-2.9542	-2.4417	-2.7917	-2.8271	-2.4542	-2.7583	-2.7792	-2.7271	-2.8958	33.553	141.674	222.508	109.198	115.262	238.509	241.403	335.131	233.076	172.223	26.262	60.203	264.395	268.638	28.888	-4.151	0.00039701	0.0002906	0.00013337	243	4.204e-06	3.4554e-06	515.45	89.826	2.4537e-06	4.6307e-06	247.06	127.95	41.647	18.975	6.4518e-06	71.087	0.0042808	0.0078647	0.0021597	264.09	7.8481e-05	8.7599e-05	535.28	96.076	7.5548e-05	8.9612e-05	257.03	132.97	46.988	20.419	8.2159e-05	73.294	223.241	297.882	99.733	3.373	206.178	73.147	3.785	7.778	89.453	84.013	6.562	10.579	11.845	14.535	237.146	12.905	-8191	255	
29664.652	1	1	0	0	0.1899	0.15457	0.04898	0.10785	0.28094	0.22987	0.079899	0.17707	0.061612	0.17595	0.25373	0.29297	0.20354	0.28437	0.037482	0.30121	-2.0896	-2.5833	-2.6979	-2.5062	-2.6417	-2.55	-2.6146	-2.7042	-2.3937	-2.725	-2.7042	-2.4771	-2.8354	-2.6417	-2.4771	-2.7417	333.817	-10.044	135.988	114.418	199.323	92.091	298.570	83.808	181.553	203.402	322.999	16.605	83.932	284.224	214.142	269.200	0.0004199	0.00054197	0.00019794	242.46	8.2689e-07	6.3511e-06	510.76	88.686	3.1392e-06	6.5917e-06	245.27	126.41	41.323	18.854	5.0967e-06	70.769	0.004283	0.0079537	0.0022209	264.67	7.9307e-05	8.9418e-05	532.9	95.681	7.603e-05	8.7851e-05	255.4	131.84	46.803	20.348	8.0156e-05	73.147	212.033	213.673	124.397	3.324	115.399	201.812	3.490	7.920	88.918	162.697	6.459	10.642	12.060	14.630	147.320	12.982	-8191	255	
29664.748	1	1	0	0	0.36031	0.1306	0.39179	0.14621	0.10673	0.24664	0.14843	0.2592	0.21723	0.23904	0.10987	0.09569	0.18273	0.10994	0.20752	0.17269	-2.0563	-2.5563	-2.525	-2.5812	-2.7687	-2.725	-2.5958	-2.7771	-2.4333	-2.6833	-2.8833	-2.6854	-2.9021	-2.6042	-2.65	-2.8042	309.857	37.944	76.682	166.774	153.277	19.154	301.373	137.426	267.238	227.728	105.164	224.098	258.596	280.051	338.829	279.766	0.00034015	0.00037949	0.00014988	242.66	1.7597e-06	7.3599e-06	511.29	88.127	3.7316e-06	1.4535e-06	245.27	126.9	41.023	18.859	6.2828e-06	71.194	0.0041615	0.0078505	0.0021793	264.24	7.6231e-05	8.8513e-05	530.84	95.269	7.3848e-05	8.743e-05	255.91	132.06	46.388	20.32	8.129e-05	73.227	217.608	150.782	97.852	2.727	176.728	123.753	2.946	7.435	187.138	-5.543	6.537	10.762	11.811	14.730	165.278	13.067	-8191	255	
29664.818	1	1	0	0	0.11091	0.076511	0.11781	0.14054	0.20098	0.093678	0.13708	0.090391	0.31722	0.11112	0.2835	0.097595	0.073336	0.0024534	0.17529	0.22553	-2.0292	-2.5563	-2.8417	-2.5792	-2.7125	-2.7167	-2.6125	-2.8937	-2.7146	-2.5604	-2.8271	-2.5667	-2.4583	-2.55	-2.4333	-2.8875	171.495	328.222	22.774	219.145	297.793	96.435	256.664	213.395	264.236	42.820	151.339	323.621	326.446	102.728	3.760	257.317	0.00033672	0.00054488	9.7249e-05	239.38	7.0341e-06	1.0936e-06	514.58	88.728	5.1902e-06	2.2327e-06	244.26	126.82	41.124	18.984	5.5127e-06	70.885	0.0040832	0.0079143	0.0022196	263.69	7.574e-05	8.8177e-05	532.77	95.367	7.365e-05	8.8554e-05	255.74	131.86	46.257	20.367	8.1673e-05	73.111	219.269	87.522	115.193	2.604	145.741	320.436	3.063	7.855	102.210	167.436	6.521	10.621	11.833	14.481	169.465	13.184	-8191	255	
29664.916	1	1	0	0	0.25979	0.037811	0.077736	0.071646	0.35367	0.037949	0.14551	0.29447	0.17443	0.22342	0.27733	0.2575	0.080288	0.1947	0.17618	0.19479	-2.1354	-2.6292	-2.675	-2.475	-2.8083	-2.5187	-2.6	-2.6875	-2.4729	-2.7625	-2.525	-2.4417	-2.7062	-2.7542	-2.4125	-2.7771	289.854	253.868	221.033	260.332	178.422	190.445	222.729	263.222	344.139	105.291	25.103	328.345	295.978	117.172	133.335	6.206	0.00029965	0.00067211	0.00023124	240.77	3.0088e-06	3.9605e-06	514.52	88.179	7.1277e-07	4.4233e-06	247.16	127.44	40.998	18.98	4.2408e-06	71.228	0.0041363	0.0079477	0.0022292	263.22	7.6575e-05	8.875e-05	533.45	94.898	7.2956e-05	8.8607e-05	256.77	132.24	46.447	20.427	8.1022e-05	73.426	219.608	118.355	110.661	2.898	238.776	119.247	3.504	8.190	64.572	196.992	6.506	10.878	11.861	14.793	107.655	13.202	-8191	255	
29665.033	1	1	0	0	0.18568	0.132	0.31142	0.20079	0.25234	0.073296	0.12534	0.096983	0.31752	0.26097	0.17973	0.29279	0.1354	0.20825	0.13901	0.20963	-2.0021	-2.5062	-2.8042	-2.4021	-2.4688	-2.7438	-2.525	-2.7604	-2.7021	-2.4979	-2.8958	-2.6292	-2.6542	-2.7625	-2.5125	-2.8375	45.181	18.845	337.357	35.064	196.122	179.851	0.788	335.453	128.007	280.515	258.119	185.773	46.381	332.768	28.574	322.900	0.00030693	0.00061333	0.00020903	239.55	2.7531e-06	7.3799e-06	512.69	87.819	4.6978e-06	2.8735e-06	243.96	126.23	41.026	18.927	7.592e-06	70.638	0.0041324	0.0078768	0.0021945	262.27	7.5311e-05	8.9316e-05	531.09	94.789	7.4782e-05	9.081e-05	254.74	131.33	46.169	20.216	7.9983e-05	72.798	222.483	80.961	61.273	3.082	199.768	100.836	3.136	7.946	165.892	189.916	6.569	10.849	11.998	14.620	98.351	13.122	-8191	255	
29665.131	1	1	0	0	0.1701	0.066668	0.22635	0.099709	0.11199	0.054723	0.44624	0.070349	0.16791	0.0487	0.15223	0.26868	0.13557	0.20434	0.16446	0.11046	-2.125	-2.4625	-2.6958	-2.5417	-2.4458	-2.6583	-2.6667	-2.6771	-2.7062	-2.4896	-2.8083	-2.4854	-2.3937	-2.7292	-2.475	-2.7083	151.166	19.341	276.500	201.166	326.871	240.417	194.573	248.630	243.008	247.761	39.342	298.378	14.575	192.755	299.782	46.811	0.00038382	0.00038865	9.112e-05	241.12	2.4688e-06	4.602e-06	510.27	88.509	1.7725e-06	5.6695e-06	244.39	127.06	40.51	18.98	5.4633e-06	71.008	0.0040949	0.0078859	0.0021241	261.01	7.6058e-05	8.8245e-05	529.64	94.825	7.2933e-05	8.9932e-05	254.25	131.71	46.134	20.362	7.8613e-05	73.455	219.553	319.613	171.564	3.253	149.503	68.502	3.332	8.091	269.230	210.376	6.498	10.941	11.586	14.413	105.273	13.068	-8191	255	
29665.227	1	1	0	0	0.073308	0.19315	0.35883	0.51328	0.039796	0.080979	0.38968	0.20655	0.06387	0.08041	0.12354	0.25814	0.19053	0.14293	0.19805	0.091552	-2.2417	-2.4729	-2.6875	-2.6229	-2.4688	-2.6729	-2.525	-2.5563	-2.5354	-2.4396	-2.8833	-2.6292	-2.3667	-2.6146	-2.5583	-2.6917	172.463	320.420	8.859	214.014	251.426	322.937	306.816	32.645	276.642	342.330	232.438	271.657	228.564	25.355	251.824	345.399	0.00031274	0.0002855	0.00012472	240.89	3.3917e-06	5.4212e-06	512.41	88.493	2.8875e-06	3.4508e-06	246.6	127.06	40.845	18.94	8.9983e-06	71.348	0.0041726	0.0079594	0.0021497	261.39	7.6544e-05	8.8863e-05	530.15	94.65	7.3209e-05	8.7653e-05	255.3	131.9	46.139	20.293	7.7029e-05	73.506	205.580	91.088	61.753	3.338	147.925	213.836	3.194	7.762	4.047	87.441	6.829	10.674	11.966	14.550	163.136	13.332	-8191	255	
29665.348	1	1	0	0	0.18329	0.054917	0.24457	0.19121	0.036936	0.086665	0.036573	0.20236	0.18572	0.1188	0.090519	0.076589	0.13908	0.13124	0.24931	0.17506	-2.2938	-2.4	-2.7479	-2.6354	-2.4208	-2.7896	-2.6104	-2.6562	-2.8833	-2.5292	-2.6333	-2.6688	-2.3396	-2.6688	-2.5854	-2.5917	111.758	199.069	185.116	291.407	294.661	136.962	229.702	265.557	285.855	209.826	216.865	256.131	11.754	339.964	205.486	237.034	0.00028305	0.0010469	0.00015407	242.67	1.9114e-06	5.413e-07	513.38	87.896	9.1335e-06	9.3269e-06	244.84	127.32	41.067	18.874	4.1041e-06	71.411	0.0041016	0.0077538	0.0021335	262.41	7.7133e-05	8.7998e-05	530.99	94.678	7.386e-05	8.7553e-05	254.49	131.95	46.335	20.345	7.6201e-05	73.571	212.641	74.859	128.247	2.554	186.865	192.684	3.375	8.396	179.149	118.388	6.561	10.742	11.509	14.656	67.002	13.022	-8191	255	
29665.443	1	1	0	0	0.18821	0.42742	0.27221	0.098131	0.21558	0.12096	0.21844	0.21704	0.184	0.3945	0.41768	0.22644	0.076129	0.15471	0.058669	0.063143	-2.3854	-2.3771	-2.5625	-2.8042	-2.3208	-2.775	-2.5125	-2.5187	-2.7042	-2.4896	-2.625	-2.9521	-2.5208	-2.6125	-2.4625	-2.8292	176.014	194.745	35.679	143.559	291.503	158.785	269.518	166.435	191.503	291.103	298.947	-1.472	109.532	125.660	348.107	156.269	0.00036842	0.00037123	5.8839e-05	241.3	3.9984e-06	5.4325e-06	511.39	87.841	6.9136e-06	7.2235e-06	244.77	126.45	41.255	18.916	6.2255e-06	70.946	0.0041298	0.0075349	0.0021446	261.84	7.6247e-05	8.6489e-05	529.34	94.499	7.3691e-05	8.7221e-05	254.17	131.64	46.341	20.252	7.8629e-05	73.227	223.118	54.613	56.766	3.089	141.486	115.208	3.240	7.961	195.301	135.105	6.414	10.763	11.400	14.684	85.249	13.082	-8191	255	
29665.516	1	1	0	0	0.30193	0.18725	0.064052	0.31503	0.30842	0.25762	0.18043	0.07908	0.16787	0.098316	0.14376	0.32234	0.04821	0.021735	0.13264	0.24182	-2.2812	-2.375	-2.4667	-2.6708	-2.3125	-2.6646	-2.6896	-2.6333	-2.7896	-2.4375	-2.65	-2.9271	-2.3	-2.8083	-2.7208	-2.4896	87.283	287.025	250.521	317.906	254.326	7.954	325.817	213.504	216.618	333.589	296.826	324.582	286.816	279.391	60.391	319.239	0.00031641	0.00086404	0.00013708	238.05	5.2659e-06	4.3055e-06	514.09	88.182	7.4843e-06	2.3236e-06	245.31	126.86	40.859	19.016	4.1892e-06	71.697	0.0041431	0.0076717	0.0021422	261.11	7.7376e-05	8.5843e-05	529.61	94.68	7.2672e-05	8.5875e-05	255.21	132.12	46.223	20.341	7.739e-05	73.696	222.194	66.793	53.396	3.092	233.409	113.925	3.234	7.706	247.132	86.396	6.554	10.887	12.089	14.793	184.756	13.135	-8191	255	
29665.637	1	1	0	0	0.027296	0.07424	0.14024	0.088873	0.16332	0.15317	0.071264	0.1306	0.073343	0.30203	0.33223	0.26869	0.16962	0.3025	0.062522	0.09078	-2.2792	-2.3917	-2.4542	-2.8187	-2.7062	-2.6958	-2.6188	-2.3792	-2.9021	-2.4146	-2.65	-2.9917	-2.4833	-2.6104	-2.6646	-2.6604	187.900	55.003	285.620	102.892	137.298	103.097	162.052	32.956	286.588	154.151	315.589	325.042	11.275	342.714	79.960	265.049	0.00030132	0.0001486	0.00016353	241.72	1.5956e-06	5.9994e-06	512.98	88.899	5.9395e-06	4.0879e-06	247.44	127.77	41.244	18.979	3.2893e-06	71.669	0.0040541	0.0075628	0.0021298	262.14	7.5501e-05	8.5297e-05	531.72	95.476	7.1743e-05	8.5367e-05	256.89	132.92	46.396	20.419	7.8575e-05	74.022	211.159	95.753	39.966	3.308	64.460	121.584	3.239	8.310	125.712	219.135	6.654	10.661	11.560	14.861	200.749	12.978	-8191	255	
29665.732	1	1	0	0	0.22675	0.14752	0.039725	0.2036	0.22869	0.23843	0.18994	0.26914	0.11212	0.29768	0.034273	0.081766	0.097635	0.084352	0.23408	0.38229	-2.2646	-2.6437	-2.5167	-2.8937	-2.5417	-2.8104	-2.8729	-2.4333	-2.6917	-2.5792	-2.5833	-2.7979	-2.5667	-2.5687	-2.6208	-2.7083	331.503	323.279	271.778	153.591	93.394	71.747	273.049	49.211	261.927	6.475	272.179	310.399	192.903	162.639	141.422	229.553	0.00034416	0.0004066	0.00010476	239.51	4.4161e-06	9.833e-06	511.51	88.779	8.0794e-07	4.0095e-06	247.62	128.33	41.178	19.245	4.0012e-06	72.521	0.0040345	0.0076369	0.0021542	262.13	7.4133e-05	8.5376e-05	532.29	95.464	7.157e-05	8.6428e-05	257.49	133.61	46.485	20.667	7.883e-05	74.597	221.150	10.382	144.860	3.023	162.590	130.805	3.137	7.586	345.593	80.211	6.476	10.850	11.467	14.483	187.633	12.992	-8191	255	
29665.828	1	1	0	0	0.11197	0.10959	0.090417	0.13503	0.075842	0.17523	0.037858	0.17112	0.14955	0.16415	0.15137	0.14874	0.27986	0.16544	0.095858	0.30006	-2.225	-2.6583	-2.4938	-2.7542	-2.5854	-2.6583	-2.7562	-2.55	-2.9083	-2.6833	-2.5938	-2.925	-2.4896	-2.6875	-2.8396	-2.4792	-5.155	189.750	248.384	257.615	192.768	218.194	107.897	319.083	93.860	344.030	256.639	318.600	336.334	259.141	339.699	202.034	0.00040751	6.8296e-05	4.1465e-05	241.1	2.4061e-06	6.803e-06	512.91	88.645	2.2405e-06	4.7478e-06	247.43	128.28	41.489	19.155	9.4906e-06	72.522	0.0040319	0.0077848	0.0021703	261.36	7.3876e-05	8.6275e-05	530.47	95.193	7.1735e-05	8.7801e-05	257.35	132.99	46.565	20.578	7.8176e-05	74.561	216.693	301.758	238.195	3.197	116.728	163.223	3.434	8.000	81.995	149.622	6.748	10.576	11.440	14.550	156.104	12.998	-8191	255	
29665.947	1	1	0	0	0.23589	0.06149	0.21069	0.16776	0.25371	0.10925	0.26389	0.33156	0.066101	0.27199	0.26349	0.066356	0.17165	0.081353	0.022169	0.26995	-2.3604	-2.7479	-2.5083	-2.6792	-2.4521	-2.4708	-2.9458	-2.5979	-2.6792	-2.6437	-2.5521	-2.8958	-2.4771	-2.5958	-2.7229	-2.6792	-6.539	300.297	298.738	147.072	148.661	19.910	219.175	344.653	206.340	329.786	212.531	58.561	26.204	227.892	154.660	263.439	0.00030426	0.00028407	9.8986e-05	242.59	2.0451e-06	5.0134e-06	515.69	89.465	5.8686e-06	3.2406e-06	247.74	128.87	41.203	19.181	2.4663e-06	72.551	0.0040048	0.007712	0.0021421	262.33	7.4412e-05	8.7082e-05	533.47	95.571	7.1923e-05	8.6224e-05	257.55	133.36	46.637	20.593	7.7317e-05	74.637	219.285	116.045	216.618	3.355	158.252	235.830	3.371	7.860	150.397	92.863	6.302	10.846	11.977	14.480	170.252	13.082	-8191	255	
29666.043	1	1	0	0	0.10241	0.1898	0.16475	0.2925	0.18594	0.24244	0.21687	0.070108	0.13528	0.20447	0.19915	0.082607	0.068376	0.069671	0.28449	0.36664	-2.2625	-2.7812	-2.4542	-2.7542	-2.6375	-2.6958	-2.6229	-2.5167	-2.6229	-2.7646	-2.5521	-2.8375	-2.5792	-2.5938	-2.7271	-2.6417	69.099	116.484	193.898	71.672	216.467	128.948	291.861	315.835	78.453	311.050	244.953	203.805	109.881	49.603	60.669	278.305	0.00032181	0.00049982	0.00023852	242.89	1.1575e-06	6.0499e-06	513.34	89.91	1.1335e-06	8.4527e-06	246.74	129.27	41.534	19.301	2.2631e-06	72.353	0.0040557	0.0078357	0.0021408	262.88	7.5193e-05	8.7588e-05	533.26	95.809	7.307e-05	8.6965e-05	257.83	134.04	46.845	20.638	7.7493e-05	74.61	222.734	50.507	97.540	3.366	121.092	140.482	3.426	8.322	142.582	166.457	6.556	10.895	11.856	14.513	206.361	13.235	-8191	255	
29666.115	1	1	0	0	0.13316	0.19117	0.10646	0.1944	0.1627	0.25562	0.18604	0.16987	0.2573	0.071756	0.26908	0.055549	0.12385	0.10375	0.15927	0.2748	-2.1042	-2.6875	-2.4854	-2.7021	-2.6583	-2.4792	-2.8104	-2.2479	-2.5125	-2.8521	-2.5687	-2.8875	-2.6625	-2.5667	-2.7104	-2.6437	263.980	102.363	321.652	241.546	79.591	191.357	254.318	44.558	83.982	103.565	19.416	78.471	-3.009	8.904	44.755	322.497	0.00038994	0.00043641	0.00027674	243.32	4.4454e-06	2.3133e-06	516.01	88.888	1.0531e-06	1.9784e-06	247.83	128	41.298	19.217	5.7278e-06	72.131	0.0041217	0.0079106	0.0021218	263.78	7.6503e-05	8.8451e-05	534.72	95.68	7.3524e-05	8.8025e-05	258.71	133.7	46.776	20.653	7.8122e-05	74.382	221.763	36.619	94.017	3.033	51.200	195.404	3.480	8.111	155.191	37.320	6.423	10.723	11.460	14.656	220.541	12.976	-8191	255	
29666.211	1	1	0	0	0.078606	0.27549	0.10606	0.11895	0.28258	0.06922	0.33704	0.054588	0.14873	0.33635	0.31219	0.14591	0.25513	0.29446	0.12374	0.41164	-2.1417	-2.7354	-2.4646	-2.6813	-2.5875	-2.525	-2.8854	-2.6104	-2.6896	-2.7646	-2.5542	-2.6729	-2.7396	-2.5521	-2.75	-2.8979	-10.128	228.686	309.522	19.149	246.545	289.947	270.710	274.101	91.313	-4.547	11.785	263.591	202.427	246.997	168.460	245.562	0.00036785	0.00056969	4.9592e-05	241.7	3.9218e-06	5.1616e-06	513.04	88.757	3.851e-06	7.8489e-06	249.02	127.91	41.336	19.133	3.6583e-06	71.874	0.0042018	0.0078692	0.0021464	263.4	7.734e-05	8.7956e-05	532.44	95.43	7.4744e-05	8.9174e-05	258.07	133.1	46.658	20.543	7.7461e-05	74.257	217.301	93.173	122.626	3.127	217.251	146.546	3.101	7.759	279.398	92.098	6.341	10.737	12.462	14.438	151.494	12.929	-8191	255	
29666.307	1	1	0	0	0.11373	0.22229	0.40078	0.22841	0.25581	0.11614	0.18591	0.10696	0.12422	0.20114	0.27106	0.048424	0.26104	0.27022	0.23691	0.14636	-2.0812	-2.7396	-2.2938	-2.6292	-3.0125	-2.5979	-2.6646	-2.6854	-2.4708	-2.8063	-2.5667	-2.7021	-2.8792	-2.575	-2.5667	-2.8958	18.788	220.802	221.869	4.312	191.230	197.579	295.264	72.623	209.310	304.111	293.824	196.434	132.545	263.356	11.076	12.627	0.00041302	0.00046761	2.3648e-05	242.63	8.173e-06	4.972e-06	517.2	89.002	3.2456e-06	5.7571e-06	247.39	128.91	41.509	19.226	4.9292e-06	72.512	0.0041571	0.0077326	0.0021261	263.81	7.5894e-05	8.8068e-05	533.19	95.613	7.4419e-05	8.7593e-05	257.43	133.84	46.841	20.615	7.9539e-05	74.721	206.971	19.643	21.766	3.634	168.016	126.865	3.221	8.027	197.294	213.097	6.346	10.653	11.727	14.471	196.621	12.994	-8191	255	
29666.428	1	1	0	0	0.017266	0.17912	0.17181	0.25107	0.12604	0.093559	0.24821	0.076049	0.13697	0.11351	0.073371	0.07111	0.12017	0.058776	0.28486	0.33913	-2.1271	-2.7438	-2.5396	-2.5604	-2.8271	-2.4979	-2.6021	-2.6083	-2.4375	-2.8417	-2.7208	-2.6104	-2.7854	-2.5417	-2.6833	-2.9083	49.142	177.934	271.798	233.605	-9.423	347.558	259.301	72.098	348.629	-7.920	160.339	8.761	322.015	299.682	66.547	246.858	0.00036992	0.00046281	0.00013578	242.37	6.6806e-06	6.0885e-06	513.9	90.135	3.5381e-06	3.6312e-06	249.01	129.54	41.322	19.305	8.5698e-06	73.03	0.0042044	0.0078146	0.0021762	264.17	7.7305e-05	8.8052e-05	535.17	95.879	7.4316e-05	8.7837e-05	258.92	134.52	46.812	20.753	8.0422e-05	75.045	216.266	90.026	37.606	2.862	192.686	88.582	3.294	8.050	112.803	121.588	6.239	10.931	11.987	14.400	129.327	13.108	-8191	255	
29666.523	1	1	0	0	0.075148	0.13437	0.021096	0.19285	0.12865	0.12379	0.21987	0.097852	0.081974	0.23473	0.15108	0.26792	0.13568	0.33837	0.093127	0.31588	-2.0667	-2.875	-2.7583	-2.5667	-2.6104	-2.6646	-2.8083	-2.5229	-2.5458	-2.8604	-2.7104	-2.4938	-2.7354	-2.4562	-2.7229	-2.9896	219.801	-8.422	19.586	17.046	14.714	169.681	273.385	325.843	315.379	158.938	136.564	76.887	289.509	293.496	127.192	274.919	0.00038979	0.00041171	0.00010845	243.09	6.2851e-06	9.1914e-06	516.18	88.988	2.5365e-06	1.8994e-06	249.55	129.94	41.994	19.335	5.5931e-06	73.252	0.0041518	0.0077195	0.0021828	263.53	7.6057e-05	8.6959e-05	534.89	96.1	7.3428e-05	8.8823e-05	259.55	134.69	47.051	20.778	8.0577e-05	75.331	221.902	59.699	27.466	3.178	285.483	111.254	3.249	8.085	146.488	51.004	6.523	10.921	11.532	14.154	59.585	12.961	-8191	255	
29666.619	1	1	0	0	0.14687	0.053119	0.12704	0.056835	0.17983	0.29049	0.039454	0.2973	0.11279	0.19575	0.21152	0.099469	0.15819	0.25548	0.13442	0.13239	-2.0604	-2.5271	-2.5563	-2.4729	-2.6646	-2.6083	-2.5354	-2.9604	-2.625	-2.7104	-2.7958	-2.4437	-2.7208	-2.6708	-2.7167	-2.8812	145.487	251.638	25.671	17.253	321.569	331.674	29.840	266.939	15.366	271.813	334.268	279.663	263.784	46.058	193.243	306.319	0.00035093	0.00048927	0.00019068	241.63	7.3427e-06	2.545e-06	517.6	88.698	5.7439e-06	1.1992e-06	249.26	129.51	41.845	19.471	3.5063e-06	73.45	0.0041177	0.0077373	0.0021976	263.42	7.501e-05	8.7577e-05	533.91	96.11	7.1724e-05	8.7892e-05	258.88	134.71	46.895	20.919	7.8593e-05	75.667	229.720	61.925	95.003	2.576	205.080	209.424	3.360	7.935	181.719	148.734	6.583	10.910	11.607	14.338	339.467	12.977	-8191	255	
29666.717	1	1	0	0	0.46604	0.12755	0.19548	0.043882	0.23918	0.14736	0.19541	0.14256	0.12657	0.22535	0.15671	0.13476	0.095085	0.25581	0.054721	0.18926	-1.9813	-2.5375	-2.6813	-2.5	-2.6688	-2.4729	-2.5958	-2.7417	-2.5375	-2.6688	-2.7958	-2.5667	-2.7646	-2.675	-2.4917	-2.825	325.483	334.591	14.348	11.867	120.142	222.806	7.021	275.476	155.237	228.937	121.494	88.140	18.028	334.968	-5.887	192.791	0.000343	0.00013444	0.00019711	242.61	1.3871e-06	2.9179e-06	519.73	89.771	3.2978e-06	2.3296e-06	249.32	129.87	41.57	19.412	8.7171e-06	73.448	0.0040639	0.0077179	0.002154	262.7	7.4282e-05	8.6993e-05	536.57	96.166	7.1023e-05	8.7039e-05	259.25	134.56	47.076	20.859	7.7523e-05	75.578	224.745	130.976	122.239	2.870	164.989	94.547	3.397	7.766	168.822	44.963	6.743	10.699	11.992	14.331	135.204	12.946	-8191	255	
29666.812	1	1	0	0	0.2134	0.20356	0.131	0.19348	0.17591	0.081337	0.14814	0.15642	0.076996	0.010016	0.30329	0.30923	0.094484	0.24296	0.11091	0.12485	-2.0792	-2.4979	-2.7396	-2.7083	-2.6333	-2.6958	-2.6562	-2.85	-2.55	-2.8021	-2.7958	-2.6396	-2.6896	-2.7	-2.6417	-3.0417	205.707	173.997	175.966	212.879	17.398	14.969	238.994	172.886	12.418	156.249	349.837	169.372	104.958	34.351	67.702	157.443	0.00039394	0.00058112	2.7569e-05	242.41	5.8434e-06	6.5481e-06	517.21	89.493	4.6912e-06	7.5207e-07	251.64	130.36	42.246	19.485	6.9228e-06	73.637	0.0040188	0.0077042	0.0021533	263.25	7.4208e-05	8.5653e-05	537.13	96.533	7.193e-05	8.7157e-05	260.89	135.55	47.193	20.92	7.8772e-05	75.8	225.050	115.448	129.363	2.901	138.360	174.108	3.408	7.977	214.497	220.493	6.505	10.761	11.554	14.702	194.383	13.121	-8191	255	
29666.908	1	1	0	0	0.17358	0.20897	0.27246	0.11973	0.092629	0.13897	0.20112	0.24803	0.19837	0.22767	0.21977	0.095422	0.19222	0.071755	0.11355	0.11149	-2.1771	-2.4479	-2.7417	-2.4708	-2.5396	-2.7604	-2.5021	-2.8771	-2.6979	-2.6417	-2.9813	-2.4542	-2.6479	-2.8187	-2.7146	-2.8729	117.239	297.171	315.100	143.734	85.064	343.850	64.857	162.399	287.261	322.129	273.740	-1.400	45.016	143.978	315.279	214.521	0.0003978	0.00045574	8.7908e-05	242.93	5.3147e-06	5.1666e-06	519.12	90.421	4.4212e-06	7.856e-06	251	130.05	41.992	19.549	2.7634e-06	73.562	0.0040878	0.0078393	0.0021571	263.85	7.5207e-05	8.7413e-05	537.98	96.831	7.3428e-05	8.8975e-05	261.22	135.19	47.363	20.905	7.7881e-05	75.702	219.864	70.245	123.908	3.343	198.262	138.987	3.153	8.137	245.949	171.875	6.648	10.920	11.750	14.070	42.881	13.168	-8191	255	
29667.027	1	1	0	0	0.096815	0.2073	0.14628	0.14883	0.089887	0.086658	0.35188	0.17249	0.11435	0.20477	0.14335	0.17231	0.1036	0.12055	0.25762	0.14121	-2.1542	-2.6542	-2.7875	-2.5458	-2.7042	-2.8458	-2.5896	-2.875	-2.7583	-2.5583	-2.8312	-2.6542	-2.7771	-2.7875	-2.6063	-2.8125	5.571	310.350	24.505	115.622	305.159	19.010	286.671	25.244	177.987	-5.359	286.011	253.404	252.306	288.729	92.159	306.814	0.00036186	0.00087314	0.00016904	243.51	5.1917e-06	6.996e-06	515.25	90.119	2.0297e-06	6.9833e-07	250.77	130.1	42.238	19.575	2.5731e-06	73.74	0.0040943	0.0077518	0.0021313	263.02	7.5767e-05	8.6572e-05	535.81	96.89	7.2768e-05	8.7876e-05	261.09	135.33	47.353	20.984	7.7385e-05	75.889	215.083	76.925	79.735	3.146	197.868	102.150	3.811	7.881	150.350	162.979	6.472	10.858	11.629	14.128	168.042	13.160	-8191	255	
29667.123	1	1	0	0	0.056756	0.086072	0.33926	0.14665	0.1768	0.15776	0.10014	0.11352	0.12599	0.22652	0.2737	0.15215	0.17825	0.10779	0.32705	0.14472	-2.3854	-2.3063	-2.8646	-2.5729	-2.6083	-2.8396	-2.6375	-2.5271	-2.6583	-2.5646	-2.9062	-2.6146	-2.5021	-2.9229	-2.4146	-2.7854	311.557	207.662	342.918	315.103	32.170	128.873	251.044	148.109	246.297	201.412	345.427	199.917	137.115	-0.443	211.728	312.637	0.00038543	0.00063832	0.00023794	244.53	8.7738e-06	1.2162e-06	521.57	90.771	6.154e-06	3.4789e-06	249.8	129.89	41.621	19.232	2.9954e-06	73.355	0.0040823	0.0077278	0.0021231	265.15	7.6303e-05	8.5914e-05	537.97	97.098	7.3221e-05	8.8244e-05	260.07	134.98	47.043	20.775	7.8105e-05	75.445	217.372	318.660	75.217	3.333	238.258	99.169	3.484	7.979	190.605	89.042	6.770	10.849	11.935	14.489	164.041	13.076	-8191	255	
29667.221	1	1	0	0	0.14768	0.2117	0.10086	0.18341	0.039462	0.24543	0.21018	0.28468	0.21995	0.25689	0.23649	0.17575	0.093957	0.14712	0.0523	0.20999	-2.2542	-2.3187	-2.7458	-2.6417	-2.7	-2.75	-2.5896	-2.5917	-2.8438	-2.5271	-2.9146	-2.7	-2.5021	-2.8771	-2.6354	-2.7708	189.759	172.555	122.214	314.665	99.765	302.901	338.338	271.442	258.937	276.512	273.186	311.762	326.828	81.084	56.089	260.277	0.00032272	0.00032643	0.00017672	244.13	8.7718e-06	4.7081e-06	518.74	90.495	3.6801e-06	7.0421e-06	248.95	129.91	41.551	19.36	7.985e-06	73.068	0.0040901	0.0077029	0.0021144	265.48	7.6472e-05	8.6166e-05	537.69	96.821	7.4052e-05	8.6519e-05	259.87	134.94	47.143	20.827	7.8088e-05	75.381	218.823	51.794	66.369	2.993	239.907	38.284	3.321	8.020	52.544	170.006	6.930	10.909	11.770	14.913	140.677	13.151	-8191	255	
29667.338	1	1	0	0	0.13221	0.15526	0.13447	0.27431	0.059558	0.064075	0.044039	0.19398	0.080505	0.13923	0.15998	0.17793	0.2825	0.14828	0.33896	0.051138	-2.1604	-2.4125	-2.8771	-2.5854	-2.4729	-2.7542	-2.5333	-2.5479	-2.9292	-2.4896	-2.6917	-2.7021	-2.4104	-2.6562	-2.5646	-2.7333	232.499	301.690	153.685	292.175	134.493	-1.613	112.334	311.281	236.609	234.088	277.149	240.402	312.791	337.118	107.773	267.707	0.00039271	0.00040742	0.00020247	245.6	2.6993e-06	2.3911e-06	519.99	89.962	1.7872e-06	7.2732e-06	251.01	129.97	41.717	19.135	3.2516e-06	72.344	0.0041455	0.0077319	0.0021305	266.15	7.6784e-05	8.5869e-05	538.91	96.574	7.3109e-05	8.5835e-05	260.67	134.89	46.825	20.482	7.8186e-05	74.461	217.431	117.449	42.371	2.785	176.845	14.007	3.092	7.861	169.210	136.080	6.275	10.598	11.540	14.565	105.724	13.109	-8191	255	
29667.410	1	1	0	0	0.21473	0.12157	0.039721	0.31522	0.10252	0.21169	0.19863	0.11354	0.32093	0.13134	0.25294	0.045883	0.10397	0.11805	0.21925	0.033771	-2.3937	-2.55	-2.5333	-2.6979	-2.5187	-2.5958	-2.5687	-2.4333	-2.7542	-2.5521	-2.8292	-2.8771	-2.4188	-2.7792	-2.5875	-2.6396	345.519	215.642	12.901	304.829	70.053	78.591	148.498	-2.137	335.059	4.399	332.341	154.043	223.667	-2.753	31.363	248.559	0.0002817	0.0002414	0.00024011	244.35	5.9202e-06	1.2555e-06	517.41	90.018	7.3484e-06	4.4675e-06	248.88	127.94	40.969	18.992	7.5993e-06	71.738	0.00407	0.0075773	0.0021043	264.41	7.4175e-05	8.5178e-05	535.48	96.264	7.2016e-05	8.5665e-05	258.99	133.28	46.463	20.393	7.8052e-05	73.955	211.721	211.498	131.143	3.011	184.668	303.501	3.502	7.603	210.786	127.061	6.709	10.938	12.107	14.337	187.324	13.071	-8191	255	
29667.506	1	1	0	0	0.060888	0.039046	0.085038	0.090923	0.14131	0.22029	0.05859	0.2286	0.099114	0.17246	0.12572	0.26849	0.10406	0.30811	0.14644	0.08745	-2.3292	-2.4625	-2.5083	-2.8333	-2.4479	-2.7792	-2.6896	-2.6458	-2.6875	-2.4583	-2.6312	-2.7333	-2.4167	-2.9583	-2.6667	-2.5563	274.925	59.627	136.501	65.071	248.400	235.725	133.346	30.022	123.423	338.180	291.896	342.318	27.700	23.822	203.161	318.400	0.00032561	0.00075444	0.00012266	241.69	5.4559e-06	1.0302e-05	515.68	89.692	4.1631e-06	4.3947e-06	247.29	128.71	41.345	19.032	5.3939e-06	72.119	0.0039748	0.0076163	0.0021313	263.22	7.45e-05	8.6859e-05	535	96.064	7.2774e-05	8.741e-05	258.66	133.62	46.431	20.415	7.8848e-05	74.372	216.762	121.827	99.971	3.195	66.633	220.958	3.754	7.975	259.267	103.989	6.635	10.625	12.202	14.564	165.897	12.906	-8191	255	
29667.602	1	1	0	0	0.15348	0.13073	0.07583	0.25743	0.043527	0.029599	0.20093	0.048232	0.10043	0.19391	0.21104	0.097531	0.17322	0.24081	0.12416	0.38963	-2.3458	-2.5625	-2.6375	-2.8167	-2.4771	-2.7375	-2.8896	-2.4667	-2.8104	-2.6688	-2.7125	-2.7938	-2.6396	-2.7812	-2.8583	-2.5854	338.113	-7.834	142.023	59.957	269.356	43.196	310.957	119.945	42.839	161.409	232.717	273.111	87.001	155.197	266.692	288.999	0.00029437	0.00037767	0.00014129	242.77	9.2883e-06	2.2208e-06	518.73	89.523	4.7967e-06	4.8587e-06	248.97	128.71	41.247	18.965	6.8681e-06	72.229	0.0041133	0.0077676	0.0021528	263.79	7.4166e-05	8.7203e-05	536.45	96.131	7.2403e-05	8.8431e-05	258.99	133.59	46.692	20.368	7.8425e-05	74.246	216.258	123.414	236.269	2.928	201.038	163.187	3.183	7.370	176.085	192.551	6.392	10.798	11.911	14.856	158.879	12.974	-8191	255	
29667.723	1	1	0	0	0.16321	0.3306	0.13579	0.11813	0.15972	0.21623	0.19801	0.072537	0.13268	0.12152	0.12207	0.18759	0.20776	0.062375	0.15002	0.35088	-2.2062	-2.5667	-2.4562	-2.775	-2.6229	-2.725	-2.9458	-2.5333	-2.7271	-2.675	-2.7083	-3.0542	-2.5417	-2.6375	-2.8333	-2.5292	164.030	91.555	108.918	0.849	261.673	195.015	10.456	11.733	307.127	187.696	231.431	290.419	69.338	156.571	131.240	280.865	0.00040762	0.00078711	0.00032418	241.78	2.8948e-06	2.9003e-06	521.87	89.717	1.7649e-06	4.7929e-06	250.47	129.21	41.296	18.941	6.2095e-06	71.967	0.004111	0.0078022	0.0021607	264.03	7.4568e-05	8.7269e-05	537.95	96.275	7.0939e-05	8.7196e-05	259.41	134.02	46.782	20.403	7.8704e-05	74.136	216.893	84.155	62.900	3.420	222.720	243.166	3.651	7.743	42.085	176.486	6.710	10.562	11.971	14.701	126.940	13.190	-8191	255	
29667.818	1	1	0	0	0.22627	0.17965	0.11901	0.093578	0.19435	0.15595	0.0543	0.21067	0.27165	0.16485	0.26809	0.15452	0.045888	0.20492	0.1302	0.21581	-2.1646	-2.5521	-2.4146	-2.8646	-2.5167	-2.6562	-2.7792	-2.6312	-2.4729	-2.7979	-2.7417	-2.8667	-2.5812	-2.5396	-2.6875	-2.7104	232.869	253.233	222.478	337.336	325.342	92.136	316.242	23.403	126.238	318.860	268.021	44.830	256.792	16.131	324.418	261.077	0.00036225	0.00035498	9.4275e-05	241.74	1.8855e-06	9.9973e-06	520.22	89.561	4.1834e-06	6.7186e-06	249.22	128.9	41.077	19.205	2.4438e-06	72.579	0.0041033	0.0077862	0.0021691	263.63	7.5981e-05	8.814e-05	535.72	96.291	7.3654e-05	8.957e-05	259.03	133.91	46.754	20.539	7.8266e-05	74.612	219.172	19.519	3.504	3.004	292.267	194.359	3.471	7.888	161.250	31.191	6.793	10.921	12.576	14.422	267.679	13.229	-8191	255	
29667.914	1	1	0	0	0.15837	0.079708	0.20767	0.054179	0.21825	0.11488	0.156	0.055487	0.1317	0.11051	0.15837	0.35683	0.12954	0.19925	0.14587	0.3241	-2.3271	-2.6708	-2.3917	-2.5229	-2.6396	-2.5146	-2.8417	-2.3917	-2.5667	-2.7687	-2.4958	-2.8812	-2.5479	-2.4979	-2.7438	-2.7562	-3.879	309.681	94.494	155.546	30.802	297.221	319.536	277.162	-7.605	198.028	289.531	-4.239	308.572	280.957	309.450	331.335	0.00041812	0.00054013	0.00021916	243.92	4.5023e-06	3.383e-06	519.81	90.01	3.8413e-06	7.0727e-06	249.84	128.73	41.862	19.295	5.3298e-06	72.722	0.0041891	0.0078897	0.0021637	265.39	7.6941e-05	8.8041e-05	537.27	96.522	7.4816e-05	8.9488e-05	259.48	134.01	46.913	20.649	7.8151e-05	74.994	216.621	142.790	62.315	3.317	228.201	164.120	3.207	7.878	173.346	136.609	6.708	10.851	11.887	14.474	53.208	12.894	-8191	255	
29667.986	1	1	0	0	0.039037	0.32012	0.18208	0.38459	0.081099	0.23506	0.13047	0.21279	0.31073	0.28061	0.093088	0.099685	0.39529	0.12519	0.10545	0.31331	-2.1896	-2.7229	-2.4479	-2.6958	-2.5958	-2.4562	-2.7292	-2.5333	-2.6417	-2.7104	-2.5229	-3.0208	-2.6917	-2.4396	-2.8104	-2.7917	33.372	89.821	338.694	337.745	36.650	215.858	32.791	282.191	324.431	263.322	2.860	107.377	115.191	348.815	302.229	274.242	0.00034788	0.00048981	0.00010645	241.62	4.4997e-06	5.4714e-06	518.94	89.657	4.8296e-06	3.2558e-06	249.53	129.32	41.75	19.109	1.1724e-06	72.64	0.0041672	0.007863	0.0021505	264.08	7.6347e-05	8.6593e-05	536.96	96.321	7.3001e-05	8.5874e-05	260.04	134.4	46.761	20.5	7.6894e-05	74.812	228.017	42.234	98.194	2.865	258.742	145.944	3.294	7.952	159.187	37.341	6.647	10.683	11.837	14.677	29.771	13.018	-8191	255	
29668.107	1	1	0	0	0.13398	0.37793	0.10585	0.1073	0.26762	0.13801	0.30167	0.10455	0.085946	0.28205	0.26386	0.22649	0.13164	0.16041	0.26523	0.23698	-2.05	-2.8312	-2.4521	-2.6646	-2.6583	-2.4708	-2.8625	-2.6063	-2.6188	-2.8104	-2.5583	-2.7167	-2.6042	-2.2896	-2.6625	-2.6208	72.871	68.294	213.339	129.284	-5.119	219.666	347.858	158.293	103.137	88.179	41.620	337.101	6.168	157.523	136.309	239.217	0.00033521	0.00020962	0.00021135	243.73	1.1971e-05	5.4818e-06	524.59	90.376	4.396e-06	5.7684e-06	251.68	129.22	41.352	18.922	2.1688e-06	72.237	0.0040957	0.007657	0.002119	264.85	7.4993e-05	8.5062e-05	539.68	96.784	7.2304e-05	8.5692e-05	260.83	134.06	46.778	20.405	7.8283e-05	74.511	210.680	107.874	131.271	3.233	184.513	154.917	3.069	8.113	194.461	92.278	6.100	10.845	12.205	14.663	120.011	13.196	-8191	255	
29668.203	1	1	0	0	0.2307	0.033719	0.10923	0.17127	0.13091	0.073318	0.13099	0.10774	0.37594	0.15178	0.087769	0.29766	0.12809	0.029592	0.21668	0.30742	-1.9146	-2.8333	-2.4437	-2.75	-2.7042	-2.3854	-2.7125	-2.575	-2.5396	-2.7729	-2.6458	-2.7438	-2.6437	-2.4562	-2.7604	-2.6417	218.633	214.398	-7.519	293.841	197.165	243.407	45.438	211.228	321.295	103.947	50.131	213.723	343.003	73.700	246.680	298.222	0.00032537	0.00054606	3.9993e-05	243.31	6.9222e-06	4.7675e-06	518.26	90.565	3.7351e-06	3.179e-06	248.73	129.64	41.385	19.149	2.0259e-06	72.806	0.004153	0.0076281	0.0021421	265.15	7.6151e-05	8.6588e-05	537.74	96.755	7.4236e-05	8.7307e-05	259.28	134.5	46.822	20.53	7.8633e-05	74.864	213.900	98.407	67.942	3.017	157.771	166.849	3.439	7.472	145.960	130.892	6.508	10.729	12.633	14.265	14.373	13.239	-8191	255	
29668.301	1	1	0	0	0.13906	0.23091	0.21443	0.10587	0.17502	0.27307	0.18662	0.15865	0.037685	0.075679	0.076377	0.22339	0.15383	0.11333	0.20699	0.17625	-2.0396	-2.7812	-2.3917	-2.5938	-2.75	-2.4958	-2.7729	-2.575	-2.5917	-2.7042	-2.6229	-2.625	-2.8104	-2.4896	-2.5667	-2.6771	225.026	214.106	-4.723	0.993	240.185	121.239	311.866	116.781	342.976	233.989	4.467	343.233	33.514	297.349	42.725	283.008	0.00033044	0.00067502	0.00019478	244.93	4.2596e-06	6.5485e-06	521.59	89.842	4.8238e-06	2.1333e-06	250.03	129.28	41.47	19.077	7.2935e-06	72.311	0.0041124	0.0076317	0.0021823	265.68	7.5856e-05	8.6371e-05	537.24	96.461	7.2051e-05	8.6555e-05	260.05	134.2	46.549	20.451	7.8961e-05	74.629	216.370	91.013	93.018	3.316	59.956	154.573	3.186	7.867	179.794	142.689	6.507	10.581	12.081	14.670	189.561	13.054	-8191	255	
29668.420	1	1	0	0	0.17351	0.25322	0.20969	0.097162	0.075172	0.29128	0.19124	0.27782	0.27397	0.36468	0.15265	0.21348	0.04447	0.079918	0.10944	0.19803	-2.0083	-2.9021	-2.3646	-2.5312	-2.5979	-2.5417	-2.7354	-2.6375	-2.5062	-2.9	-2.5771	-2.7188	-2.7354	-2.5104	-2.6354	-2.8958	117.465	71.491	143.170	139.939	8.274	125.199	14.360	340.689	233.465	310.882	183.374	227.479	263.261	84.644	342.089	204.004	0.00043447	0.0007085	6.2798e-05	243.58	4.0986e-06	7.8061e-06	517.43	89.53	4.4137e-06	6.5116e-06	250.88	129.34	41.575	18.913	6.1047e-06	72.406	0.0040841	0.0076404	0.0021645	265.68	7.4249e-05	8.7599e-05	538.15	96.249	7.2922e-05	8.8121e-05	260.7	134	46.687	20.402	7.8622e-05	74.613	225.139	105.040	83.883	3.131	194.448	129.894	3.672	7.665	153.503	349.088	6.450	10.637	12.026	14.583	110.036	12.895	-8191	255	
29668.516	1	1	0	0	0.16735	0.24074	0.056749	0.089733	0.064188	0.37593	0.03202	0.044308	0.12743	0.081254	0.16814	0.35236	0.27623	0.10117	0.17286	0.20726	-1.8875	-2.6417	-2.5396	-2.3563	-2.7333	-2.4771	-2.7708	-2.7833	-2.5354	-2.5833	-2.7792	-2.5625	-2.8729	-2.5604	-2.5229	-2.7792	217.883	170.951	-6.464	-9.693	216.593	159.228	172.788	123.595	94.053	123.658	194.983	303.025	258.398	235.443	248.085	289.005	0.0003561	0.00069708	3.9789e-05	244.93	3.6406e-06	9.7763e-06	524.1	89.404	3.7738e-06	4.7641e-06	250.67	129.57	41.606	19.189	4.1902e-06	73.001	0.0040889	0.0078016	0.0021463	265.97	7.5831e-05	8.7999e-05	540.1	96.237	7.3292e-05	8.9243e-05	260.57	134.33	46.825	20.533	7.9716e-05	74.929	212.457	105.199	74.896	3.153	209.908	123.570	3.276	8.050	172.854	66.792	6.715	10.696	12.108	14.637	278.208	13.321	-8191	255	
29668.611	1	1	0	0	0.1193	0.17784	0.05864	0.052619	0.052061	0.24762	0.30435	0.12243	0.17083	0.10805	0.076299	0.19323	0.33788	0.15253	0.09353	0.20258	-2.1396	-2.6625	-2.6292	-2.4646	-2.6312	-2.5542	-2.5146	-2.7917	-2.3417	-2.7104	-2.7354	-2.5458	-2.8625	-2.5187	-2.5333	-2.8583	42.930	236.694	102.896	114.450	277.636	244.996	249.166	279.123	103.508	59.561	50.074	17.475	297.768	10.504	344.427	232.959	0.00038643	0.00045901	9.3137e-05	243.65	3.1967e-06	3.9442e-06	517.91	88.977	3.1378e-06	1.0713e-05	249.8	128.65	41.4	19.251	5.1543e-06	72.539	0.0041277	0.0078488	0.0021645	264.28	7.5072e-05	8.757e-05	535.98	95.733	7.2422e-05	8.7629e-05	260.09	134.03	46.762	20.629	7.8421e-05	74.809	219.042	139.591	160.351	3.306	202.101	257.493	3.455	8.060	226.839	167.329	6.500	10.618	12.453	14.344	164.660	13.062	-8191	255	
29668.707	1	1	0	0	0.2439	0.05177	0.20187	0.084032	0.24579	0.043043	0.24657	0.20276	0.18272	0.058513	0.1076	0.14473	0.18623	0.061801	0.18442	0.21141	-2.0771	-2.5271	-2.6479	-2.35	-2.6771	-2.5458	-2.5896	-2.8979	-2.5062	-2.6833	-2.9292	-2.6229	-2.5729	-2.7167	-2.4813	-2.8917	136.046	177.408	308.414	13.505	256.262	152.576	349.437	27.579	332.016	235.876	241.941	300.696	337.032	91.628	209.167	250.168	0.0003662	0.00026906	0.00014812	245.47	5.1271e-06	1.1612e-05	517.26	89.823	4.4752e-06	1.0241e-05	249.43	129.49	41.603	19.21	9.7579e-06	73.13	0.0041	0.0077851	0.0021142	264.71	7.6214e-05	8.6907e-05	535.77	96.149	7.3891e-05	8.8372e-05	259.73	134.47	46.856	20.636	7.7497e-05	75.198	213.458	95.127	47.722	2.943	247.897	71.577	3.809	7.747	171.187	93.754	6.781	10.802	12.054	14.374	133.830	13.014	-8191	255	
29668.803	1	1	0	0	0.19957	0.1865	0.086757	0.11889	0.14687	0.053077	0.042065	0.23153	0.19367	0.08151	0.21418	0.14511	0.15731	0.012784	0.22174	0.23838	-2.0729	-2.6271	-2.6937	-2.5396	-2.7667	-2.6104	-2.5021	-2.8104	-2.5542	-2.7792	-2.9896	-2.6375	-2.85	-2.5958	-2.5271	-3.0083	89.579	124.367	237.023	-1.412	182.266	206.994	-4.004	344.369	181.860	-2.874	282.355	287.756	274.714	-2.753	286.993	287.836	0.00035195	0.00066022	0.0001046	245.01	4.7239e-06	1.0644e-06	519.8	90.084	3.3641e-06	1.1652e-05	251.36	130.02	41.416	19.272	3.5361e-06	73.551	0.0041769	0.0077371	0.0021391	265.43	7.5172e-05	8.8172e-05	538.88	96.436	7.284e-05	8.8106e-05	261.04	135.05	46.961	20.68	7.7502e-05	75.668	223.478	53.430	264.915	3.229	126.063	134.760	3.699	7.978	178.766	136.144	6.736	10.659	11.735	14.276	59.438	12.896	-8191	255	
29668.900	1	1	0	0	0.1462	0.22485	0.16873	0.20006	0.080614	0.30413	0.11642	0.11606	0.19417	0.15123	0.067841	0.20717	0.19715	0.22755	0.14503	0.37445	-2.0104	-2.6437	-2.7104	-2.5542	-2.6104	-2.675	-2.5917	-2.8438	-2.6208	-2.6292	-2.7313	-2.5229	-2.7438	-2.7896	-2.4229	-2.8604	96.274	265.941	285.359	302.739	221.114	343.982	296.258	12.568	180.390	182.354	290.179	22.466	277.460	187.414	136.147	336.056	0.00037431	0.00027851	0.00012734	243.66	3.598e-06	2.7156e-06	519.23	89.864	1.2842e-06	6.538e-06	251.7	130.19	41.719	19.229	3.8904e-06	73.706	0.00413	0.0077016	0.0020838	265.17	7.4993e-05	8.7158e-05	539.06	96.872	7.2168e-05	8.5654e-05	260.79	135.06	47.057	20.766	7.7515e-05	75.76	217.877	90.264	64.180	3.190	151.524	274.473	3.405	8.446	282.479	153.090	6.544	10.714	11.612	14.419	290.883	13.108	-8191	255	
#DATA ENDS
