BOXY.EXE: ISS Imagent and Oximeter Data Acquisition Program Version 0.80
Ascii Record File

#ACQ INFORMATION
2  Detector Channels 
16  External MUX Channels 
1  Auxiliary Channels 
5000  Waveform (CCF) Frequency (Hz)
1  Waveforms Skipped 
30  Waveforms Averaged 
1  Cycles Averaged 
16  Acquisitions per Waveform 
10.0806  Updata Rate (Hz) 

#FILE INFORMATION
TRUE -- External MUX Channel results are PARSED.
FALSE -- AC DC and Phase are NOT grouped.
TRUE -- Companion Program Settings File CREATED.
FALSE -- AC data not excluded
FALSE -- DC data not excluded
FALSE -- Phase data not excluded
FALSE -- Auxillary Chn. data not excluded
Tab delimiters

#CALIBRATION STATE
TRUE -- Waveform Calibration Values APPLIED.


#AUX CALIBRATION VALUES
Val Type	aux-1	

Term	1.0000e+00	
Factor	0.0000e+00	


#WF CALIBRATION VALUES
A = Detector Channel
Val Type	A-AC1	A-AC2	A-AC3	A-AC4	A-AC5	A-AC6	A-AC7	A-AC8	A-AC9	A-AC10	A-AC11	A-AC12	A-AC13	A-AC14	A-AC15	A-AC16	A-DC1	A-DC2	A-DC3	A-DC4	A-DC5	A-DC6	A-DC7	A-DC8	A-DC9	A-DC10	A-DC11	A-DC12	A-DC13	A-DC14	A-DC15	A-DC16	A-Ph1	A-Ph2	A-Ph3	A-Ph4	A-Ph5	A-Ph6	A-Ph7	A-Ph8	A-Ph9	A-Ph10	A-Ph11	A-Ph12	A-Ph13	A-Ph14	A-Ph15	A-Ph16	

Term	0.00000e+00	0.00000e+00	0.00000e+00	0.00000e+00	0.00000e+00	0.00000e+00	0.00000e+00	0.00000e+00	0.00000e+00	0.00000e+00	0.00000e+00	0.00000e+00	0.00000e+00	0.00000e+00	0.00000e+00	0.00000e+00	0.00000e+00	0.00000e+00	0.00000e+00	0.00000e+00	0.00000e+00	0.00000e+00	0.00000e+00	0.00000e+00	0.00000e+00	0.00000e+00	0.00000e+00	0.00000e+00	0.00000e+00	0.00000e+00	0.00000e+00	0.00000e+00	0.00000e+00	0.00000e+00	0.00000e+00	0.00000e+00	0.00000e+00	0.00000e+00	0.00000e+00	0.00000e+00	0.00000e+00	0.00000e+00	0.00000e+00	0.00000e+00	0.00000e+00	0.00000e+00	0.00000e+00	0.00000e+00	
Factor	1.00000e+00	1.00000e+00	1.00000e+00	1.00000e+00	1.00000e+00	1.00000e+00	1.00000e+00	1.00000e+00	1.00000e+00	1.00000e+00	1.00000e+00	1.00000e+00	1.00000e+00	1.00000e+00	1.00000e+00	1.00000e+00	1.00000e+00	1.00000e+00	1.00000e+00	1.00000e+00	1.00000e+00	1.00000e+00	1.00000e+00	1.00000e+00	1.00000e+00	1.00000e+00	1.00000e+00	1.00000e+00	1.00000e+00	1.00000e+00	1.00000e+00	1.00000e+00	X	X	X	X	X	X	X	X	X	X	X	X	X	X	X	X	

B = Detector Channel
Val Type	B-AC1	B-AC2	B-AC3	B-AC4	B-AC5	B-AC6	B-AC7	B-AC8	B-AC9	B-AC10	B-AC11	B-AC12	B-AC13	B-AC14	B-AC15	B-AC16	B-DC1	B-DC2	B-DC3	B-DC4	B-DC5	B-DC6	B-DC7	B-DC8	B-DC9	B-DC10	B-DC11	B-DC12	B-DC13	B-DC14	B-DC15	B-DC16	B-Ph1	B-Ph2	B-Ph3	B-Ph4	B-Ph5	B-Ph6	B-Ph7	B-Ph8	B-Ph9	B-Ph10	B-Ph11	B-Ph12	B-Ph13	B-Ph14	B-Ph15	B-Ph16	

Term	0.00000e+00	0.00000e+00	0.00000e+00	0.00000e+00	0.00000e+00	0.00000e+00	0.00000e+00	0.00000e+00	0.00000e+00	0.00000e+00	0.00000e+00	0.00000e+00	0.00000e+00	0.00000e+00	0.00000e+00	0.00000e+00	0.00000e+00	0.00000e+00	0.00000e+00	0.00000e+00	0.00000e+00	0.00000e+00	0.00000e+00	0.00000e+00	0.00000e+00	0.00000e+00	0.00000e+00	0.00000e+00	0.00000e+00	0.00000e+00	0.00000e+00	0.00000e+00	-5.38884e+01	-1.31177e+02	-1.26498e+02	-1.80885e+02	-4.76343e+01	-6.44995e+01	-1.57193e+02	-1.62015e+02	-3.86883e+01	-6.83090e+01	-1.71742e+02	-1.71381e+02	-1.82817e+02	-1.77069e+02	-5.51087e+01	-1.50010e+02	
Factor	1.82829e-05	1.46436e-04	4.33054e-05	1.59593e-01	1.61267e-06	1.61574e-06	1.65127e-01	4.62107e-02	1.25789e-06	1.65311e-06	7.56542e-02	2.89867e-02	3.37919e-02	8.42540e-03	1.55012e-06	1.18626e-02	1.36964e-05	2.76091e-05	7.65437e-06	8.35740e-02	2.69207e-07	3.11056e-07	8.12785e-02	2.43328e-02	2.59798e-07	3.12300e-07	3.86475e-02	1.48661e-02	1.78292e-02	4.47273e-03	2.79863e-07	6.10705e-03	X	X	X	X	X	X	X	X	X	X	X	X	X	X	X	X	



#DISTANCE SETTINGS
A = Detector Channel
A-1	A-2	A-3	A-4	A-5	A-6	A-7	A-8	A-9	A-10	A-11	A-12	A-13	A-14	A-15	A-16	

2.5000e+00	3.0000e+00	2.5000e+00	3.0000e+00	2.0000e+00	3.0000e+00	1.5000e+00	3.0000e+00	3.0000e+00	3.0000e+00	3.0000e+00	3.0000e+00	3.0000e+00	3.0000e+00	1.5000e+00	3.0000e+00	

B = Detector Channel
B-1	B-2	B-3	B-4	B-5	B-6	B-7	B-8	B-9	B-10	B-11	B-12	B-13	B-14	B-15	B-16	

1.0000e+01	1.0000e+01	1.0000e+01	1.4400e+00	1.0000e+01	1.0000e+01	1.5100e+00	1.9400e+00	1.0000e+01	1.0000e+01	1.9900e+00	2.4900e+00	2.4100e+00	2.9000e+00	1.0000e+01	2.9800e+00	




#DATA BEGINS
time	group	step	mark	flag	A-AC1	A-AC2	A-AC3	A-AC4	A-AC5	A-AC6	A-AC7	A-AC8	A-AC9	A-AC10	A-AC11	A-AC12	A-AC13	A-AC14	A-AC15	A-AC16	A-DC1	A-DC2	A-DC3	A-DC4	A-DC5	A-DC6	A-DC7	A-DC8	A-DC9	A-DC10	A-DC11	A-DC12	A-DC13	A-DC14	A-DC15	A-DC16	A-Ph1	A-Ph2	A-Ph3	A-Ph4	A-Ph5	A-Ph6	A-Ph7	A-Ph8	A-Ph9	A-Ph10	A-Ph11	A-Ph12	A-Ph13	A-Ph14	A-Ph15	A-Ph16	B-AC1	B-AC2	B-AC3	B-AC4	B-AC5	B-AC6	B-AC7	B-AC8	B-AC9	B-AC10	B-AC11	B-AC12	B-AC13	B-AC14	B-AC15	B-AC16	B-DC1	B-DC2	B-DC3	B-DC4	B-DC5	B-DC6	B-DC7	B-DC8	B-DC9	B-DC10	B-DC11	B-DC12	B-DC13	B-DC14	B-DC15	B-DC16	B-Ph1	B-Ph2	B-Ph3	B-Ph4	B-Ph5	B-Ph6	B-Ph7	B-Ph8	B-Ph9	B-Ph10	B-Ph11	B-Ph12	B-Ph13	B-Ph14	B-Ph15	B-Ph16	aux-1	digaux	

29399.021	1	1	0	768	0.30893	0.04167	0.21958	0.24367	0.098884	0.049986	0.31247	0.15824	0.099838	0.17842	0.16887	0.21237	0.18351	0.085018	0.26145	0.18368	-2.2333	-2.8625	-2.5375	-2.6979	-2.7542	-2.6646	-2.8396	-2.6479	-2.7208	-2.8125	-2.5354	-2.9375	-2.7729	-2.7167	-2.8458	-2.8563	263.496	299.778	403.704	444.845	138.435	388.002	396.896	396.595	445.647	250.762	321.159	439.990	379.574	393.331	176.948	258.701	0.00058427	0.00053393	0.0001975	164.66	4.1749e-06	2.4281e-06	298.54	61.546	9.7379e-06	5.2061e-06	145.57	69.246	28.429	15.032	7.4796e-06	41.041	0.012419	0.024708	0.0068644	250.74	0.00024201	0.00027942	392.2	87.542	0.00023092	0.00027897	191.83	88.141	46.289	20.311	0.00024737	50.139	250.100	227.789	308.287	121.749	325.866	435.236	121.567	127.272	254.954	265.832	126.035	130.966	130.858	134.500	297.091	132.764	-8191	255	
29399.117	1	1	0	0	0.42002	0.19065	0.19767	0.099987	0.11589	0.11735	0.13487	0.096152	0.084076	0.32089	0.16609	0.21198	0.23438	0.15985	0.21923	0.12854	-2.1333	-2.9062	-2.5354	-2.7062	-2.9333	-2.4188	-2.75	-2.7021	-2.6979	-2.9271	-2.7125	-2.7104	-2.875	-2.4083	-2.9583	-2.6833	267.491	455.175	353.859	434.751	161.735	423.140	341.455	427.387	456.360	170.344	454.382	465.420	423.283	134.579	157.178	110.263	0.00045157	0.00060827	0.00023088	164.57	3.5341e-06	4.8164e-06	298.43	61.326	5.3215e-07	1.1197e-05	145.45	69.123	28.641	14.935	4.9601e-06	41.046	0.012259	0.024361	0.0067471	249.63	0.00023679	0.00027434	391.03	87.158	0.00022958	0.0002783	192.08	88.368	46.721	20.434	0.00026796	50.481	247.051	254.717	145.059	121.063	450.282	278.419	122.094	127.456	235.507	178.687	125.893	130.657	130.897	134.292	341.313	132.731	-8191	255	
29399.215	1	1	0	0	0.091567	0.085849	0.2437	0.083308	0.055092	0.093584	0.14966	0.040367	0.034294	0.23845	0.11684	0.31789	0.080954	0.12501	0.23642	0.20036	-2.1771	-2.85	-2.6562	-2.5417	-2.9104	-2.6729	-2.9938	-2.6583	-2.6833	-3.0979	-2.5854	-2.875	-2.95	-2.5896	-2.7	-2.9813	299.012	435.384	321.770	359.102	188.784	198.318	401.029	158.265	360.057	434.803	382.191	171.003	335.016	423.308	452.397	445.744	0.00048767	0.0011944	0.00010457	162.55	4.9835e-06	5.7392e-06	296.28	60.229	3.7158e-06	4.0916e-06	145	68.546	28.475	14.807	6.9643e-06	40.629	0.013352	0.026407	0.0073798	255.62	0.0002609	0.000303	395.41	88.706	0.00025382	0.00030737	193.99	88.801	47.811	20.608	0.00028227	50.29	256.531	217.257	147.610	121.627	301.391	328.892	121.740	127.337	242.911	211.296	125.893	130.712	130.957	134.323	187.041	132.613	-8191	255	
29399.311	1	1	0	0	0.099315	0.26695	0.078347	0.11432	0.1822	0.16064	0.21523	0.2898	0.187	0.091868	0.18425	0.022057	0.36084	0.090465	0.15804	0.25497	-2.0354	-2.8625	-2.6688	-2.7083	-2.8625	-2.7104	-2.9333	-2.9583	-2.5083	-2.8563	-2.7562	-2.8396	-2.8875	-2.7021	-2.7417	-2.9167	299.222	364.011	460.224	230.284	438.643	232.550	189.475	458.392	428.243	426.284	409.343	196.499	131.116	259.965	164.788	369.727	0.00039295	0.00066052	0.0003809	164.49	4.7957e-06	7.9186e-06	295.3	60.794	3.8953e-06	5.0407e-06	145.53	68.992	28.342	15.055	4.2345e-06	40.869	0.014097	0.028096	0.0077924	259.93	0.00027415	0.00031669	400.47	90.259	0.00026775	0.00032207	197.03	90.066	49.241	21.021	0.00029427	51.025	239.936	322.335	169.611	121.424	303.969	254.690	121.532	127.406	288.087	169.615	125.998	130.585	130.585	134.103	333.520	132.429	-8191	255	
29399.404	1	1	0	0	0.19058	0.01334	0.053785	0.058811	0.11973	0.10595	0.36635	0.22031	0.12252	0.11319	0.39678	0.36063	0.23974	0.10555	0.19514	0.11146	-2.0646	-2.7333	-2.6667	-2.7208	-2.8187	-2.7083	-2.8729	-2.9354	-2.5583	-2.8271	-2.6479	-2.6125	-2.7271	-2.5854	-2.7438	-2.8292	240.551	463.420	217.847	377.636	199.921	391.884	336.178	284.538	308.547	454.959	206.636	142.614	292.717	437.042	383.289	119.584	0.00044773	0.00020025	0.00030116	165.15	7.1151e-06	4.6626e-06	298.75	61.156	3.9169e-06	8.0183e-06	145.92	69.488	28.422	15.03	8.4267e-06	40.888	0.014968	0.029808	0.0082271	266.31	0.00028989	0.0003343	405.35	92.155	0.00027884	0.00033524	199.15	91.039	49.953	21.148	0.00030367	51.226	243.767	170.289	346.947	121.371	448.426	152.965	121.852	127.498	304.157	206.313	126.280	130.777	131.224	134.272	284.478	132.582	-8191	255	
29399.502	1	1	0	0	0.205	0.12965	0.097019	0.1228	0.17533	0.231	0.17557	0.16482	0.024922	0.22969	0.35429	0.17276	0.32817	0.099771	0.37686	0.07891	-2.2292	-2.6896	-2.6917	-2.6312	-2.9313	-2.5875	-2.5604	-2.9292	-2.5604	-2.7396	-2.8937	-2.4042	-2.8312	-2.8854	-2.7333	-2.9167	193.422	268.065	302.032	190.803	354.927	400.840	112.378	193.893	390.088	357.660	146.684	451.471	406.150	451.874	208.700	360.062	0.00036801	0.00051833	4.9092e-05	164.49	9.2469e-06	8.3738e-06	297.57	61.732	3.6343e-06	2.4995e-06	146.41	69.699	28.733	15.087	9.721e-06	41.05	0.015114	0.029904	0.0083252	267.27	0.00029434	0.0003387	407.04	92.777	0.00028473	0.00034171	200.85	91.791	50.487	21.341	0.00030854	51.57	261.335	341.566	367.636	121.472	195.717	381.539	121.640	127.365	254.722	402.686	125.986	130.557	131.602	134.327	264.374	132.835	-8191	255	
29399.621	1	1	0	0	0.2066	0.057354	0.16545	0.18022	0.10372	0.12077	0.052725	0.12225	0.24269	0.15712	0.2822	0.18733	0.043788	0.17901	0.17426	0.17002	-2.2313	-2.8604	-2.9437	-2.6292	-2.9167	-2.8063	-2.6354	-2.8833	-2.6146	-2.9062	-2.6542	-2.7333	-2.7979	-2.6354	-2.7104	-3.1208	112.834	347.882	390.384	373.140	306.503	206.590	420.613	140.145	451.164	430.624	337.003	416.108	276.772	206.474	196.414	230.493	0.00044563	0.0010456	0.00016617	165.27	5.1434e-06	3.5871e-06	299.3	61.46	2.4429e-06	6.7113e-06	145.81	69.298	28.99	15.019	4.2058e-06	40.898	0.015546	0.030772	0.0085873	272.07	0.00030765	0.0003526	411.84	94.209	0.00030087	0.00036155	202.81	92.272	51.634	21.552	0.00032466	51.671	253.496	146.145	199.357	121.689	466.244	458.988	121.814	127.287	138.598	157.869	125.811	130.421	132.113	134.007	182.746	132.698	-8191	255	
29399.717	1	1	0	0	0.097062	0.14882	0.11381	0.1799	0.008237	0.19974	0.11436	0.20217	0.25043	0.21877	0.055704	0.13741	0.094174	0.32062	0.20663	0.063766	-2.3063	-2.6813	-2.7438	-2.7188	-2.95	-2.7854	-2.7167	-2.9958	-2.7208	-2.6125	-2.9	-2.5292	-2.6583	-2.7562	-2.7292	-2.8688	221.698	400.058	369.103	170.815	135.071	244.259	465.410	409.764	135.300	386.777	118.216	295.311	217.325	379.397	430.479	279.807	0.0005068	0.00083518	5.7069e-05	164.15	9.1553e-06	6.5321e-06	296.99	61.151	6.6722e-06	9.4427e-07	144.75	68.926	28.622	14.956	5.8537e-06	40.838	0.016171	0.031967	0.0088757	273.69	0.00031353	0.00036331	412.7	94.521	0.00030472	0.00036425	202.51	92.288	51.599	21.594	0.00032843	51.711	251.075	179.859	283.097	121.177	245.684	349.348	121.964	127.634	376.731	414.623	125.783	130.847	130.944	134.419	170.519	132.706	-8191	255	
29399.814	1	1	0	0	0.26424	0.19037	0.084781	0.21056	0.15945	0.033002	0.21485	0.058123	0.12778	0.27212	0.11306	0.33202	0.20099	0.097235	0.24504	0.23287	-2.2125	-2.7188	-2.7979	-2.7292	-2.6583	-2.7375	-2.4229	-2.9833	-2.6792	-2.7146	-2.8937	-2.6188	-2.6813	-2.9125	-2.6021	-2.8167	425.696	135.719	409.217	172.227	150.362	441.060	236.233	122.500	207.785	170.820	237.121	136.057	245.843	392.671	386.064	432.325	0.00055389	0.00042997	0.00023465	165.31	7.6053e-06	4.8324e-06	296.22	61.498	8.0774e-06	3.1334e-06	145.85	69.131	28.885	15.2	1.5528e-05	40.87	0.016335	0.032473	0.0090747	276.44	0.0003201	0.00036921	415.68	95.236	0.00030851	0.00037011	203.67	92.789	51.835	21.698	0.00033029	51.868	260.482	192.997	192.034	121.949	326.890	371.693	121.710	126.696	246.948	109.860	126.363	130.642	130.776	134.194	259.959	132.626	-8191	255	
29399.910	1	1	0	0	0.28137	0.08894	0.18619	0.22047	0.32139	0.28827	0.11604	0.19896	0.15487	0.08605	0.29232	0.12026	0.12351	0.36791	0.26483	0.2549	-2.35	-2.6458	-2.7167	-2.4792	-2.7812	-2.8917	-2.5667	-2.8083	-2.7188	-2.6604	-2.8917	-2.6937	-2.5479	-2.8333	-2.5292	-2.8854	431.065	281.454	266.326	114.720	458.450	146.867	206.820	400.745	167.782	419.212	163.561	185.741	347.194	216.264	178.216	419.507	0.0005097	0.00076757	0.00030701	165.34	8.2955e-06	7.438e-06	297.27	61.567	4.8659e-06	7.2743e-06	146.15	69.415	28.682	15.127	5.6224e-06	41.16	0.0163	0.032167	0.008912	273.19	0.00031388	0.00036371	412.18	94.343	0.00029873	0.0003631	202.25	92.395	51.23	21.574	0.00032345	51.641	246.010	129.405	131.506	121.802	225.145	465.367	121.548	127.533	216.177	125.131	126.053	130.453	131.426	134.171	205.222	132.438	-8191	255	
29400.006	1	1	0	0	0.15708	0.18608	0.033858	0.10682	0.05983	0.15089	0.20409	0.14278	0.020066	0.21084	0.090544	0.16895	0.20381	0.15808	0.2211	0.31257	-2.3208	-2.5875	-2.8146	-2.5062	-2.7333	-2.8771	-2.5833	-2.7771	-2.9125	-2.8021	-2.9146	-2.6063	-2.6917	-2.8479	-2.6771	-2.9917	442.353	186.345	135.647	141.997	398.161	391.368	352.160	357.957	320.004	190.665	137.468	155.561	256.725	398.601	382.691	380.159	0.00047727	0.0005764	0.00036356	164.4	1.4216e-05	8.8969e-06	295.64	60.874	2.9946e-06	3.1797e-06	145.09	68.411	28.384	14.917	9.9425e-06	40.347	0.015999	0.03168	0.0087737	272.31	0.00030851	0.00035682	410.85	93.596	0.0002964	0.00035806	200.78	91.189	50.614	21.352	0.00031599	50.861	246.276	149.296	173.379	121.648	277.516	256.982	121.728	127.333	361.881	198.345	126.074	130.481	131.346	134.329	214.109	132.579	-8191	255	
29400.102	1	1	0	0	0.19616	0.17894	0.16787	0.15756	0.027563	0.099066	0.13801	0.28576	0.075479	0.095579	0.27043	0.19443	0.13584	0.10078	0.25169	0.16341	-2.2625	-2.3792	-2.9333	-2.6292	-2.725	-2.9417	-2.6625	-2.6542	-2.7687	-2.7167	-2.9396	-2.8208	-2.5875	-2.8063	-2.6354	-2.8479	257.121	368.244	259.966	287.891	285.567	252.666	259.030	399.173	308.659	290.257	311.485	454.383	289.936	240.684	133.361	442.264	0.00044707	0.00074522	0.00010148	162.96	3.0468e-06	2.4953e-06	294.09	60.431	2.2668e-06	6.5678e-06	144.08	68.279	28.459	14.915	5.4001e-06	40.497	0.015511	0.030874	0.0085024	266.39	0.00029625	0.00034405	405.45	92.133	0.00029023	0.00035301	199.33	90.775	50.79	21.451	0.00032214	51.022	259.212	377.291	145.072	121.593	426.290	113.450	121.987	127.395	226.093	211.265	126.047	130.608	131.636	134.423	145.215	132.624	-8191	255	
29400.197	1	1	0	0	0.096192	0.40462	0.24972	0.10455	0.061271	0.12879	0.088662	0.10242	0.12577	0.21912	0.17758	0.022092	0.038277	0.10431	0.070166	0.17787	-2.4375	-2.5417	-2.9271	-2.5917	-2.5896	-2.9375	-2.9083	-2.7792	-2.8875	-2.5583	-2.8937	-2.7062	-2.5646	-3.0625	-2.6667	-2.6021	145.240	283.950	441.428	192.025	462.387	360.325	140.637	466.215	171.854	157.648	113.337	394.218	153.518	214.421	273.853	380.716	0.0004257	0.00059705	0.00011135	163.9	6.5052e-06	5.4653e-06	293.05	60.045	3.9308e-06	6.3443e-06	144.41	68.597	28.382	14.858	5.0905e-07	40.23	0.015903	0.031558	0.0087022	268.99	0.00030201	0.00035024	404.49	91.977	0.00029405	0.00035583	199.35	91.004	50.979	21.446	0.00033109	51.343	249.266	374.334	303.393	121.114	328.855	413.023	121.763	127.140	345.718	395.319	126.258	130.718	131.383	134.099	136.793	132.818	-8191	255	
29400.316	1	1	0	0	0.095397	0.24693	0.14417	0.15613	0.22062	0.26349	0.050132	0.27491	0.085216	0.12793	0.15955	0.36179	0.11295	0.13013	0.39527	0.18967	-2.4188	-2.4917	-2.6417	-2.7271	-2.4688	-2.8333	-2.7479	-2.4792	-2.8771	-2.4854	-2.7583	-2.8542	-2.6167	-2.825	-2.6896	-2.7333	318.241	170.646	260.333	347.682	234.213	313.179	129.849	368.540	146.833	404.984	324.640	150.062	150.390	113.720	457.629	449.229	0.00048596	0.0010633	0.00012825	163.13	6.9939e-06	1.2527e-05	293.93	60.938	1.8547e-06	5.0826e-06	144.83	68.574	28.395	14.972	8.7981e-06	40.715	0.01703	0.033987	0.0093519	277.97	0.00033328	0.00038486	415.39	95.598	0.00031902	0.00038422	203.72	92.776	52.592	21.828	0.00034293	51.891	254.481	210.268	269.331	121.467	234.130	370.529	121.819	127.210	204.850	323.997	126.196	130.807	131.462	134.028	439.047	132.535	-8191	255	
29400.412	1	1	0	0	0.4117	0.089571	0.02748	0.1375	0.070532	0.035453	0.12755	0.23473	0.1709	0.088954	0.10748	0.14213	0.14154	0.088641	0.19349	0.19278	-2.3438	-2.3646	-2.8771	-2.6625	-2.4792	-2.7271	-2.6646	-2.5521	-3.0208	-2.5521	-2.6771	-2.8271	-2.4938	-2.925	-2.8438	-2.6458	169.564	224.715	358.660	335.176	320.875	223.591	354.455	130.645	342.747	404.299	449.022	392.706	331.285	440.068	259.439	225.688	0.00045024	0.0004719	0.00027162	164.94	8.3318e-06	1.0213e-05	294.91	61.13	4.9408e-06	7.4691e-06	144.93	68.782	28.938	15.025	1.6852e-05	40.533	0.017176	0.03403	0.0094002	279.13	0.00033281	0.00038412	416.25	95.967	0.00032254	0.00038487	204.37	92.834	52.834	21.92	0.00034857	51.782	262.152	181.607	245.290	121.423	397.948	345.942	121.924	127.337	362.878	300.449	125.833	130.271	131.028	134.501	297.843	132.771	-8191	255	
29400.510	1	1	0	0	0.32165	0.11508	0.37352	0.072326	0.19258	0.12726	0.034	0.072031	0.052651	0.1085	0.28375	0.14891	0.072935	0.15691	0.01819	0.19238	-2.3708	-2.5417	-2.7417	-2.9917	-2.725	-2.7896	-2.8125	-2.6896	-2.8479	-2.8167	-2.7729	-2.9813	-2.5938	-2.8229	-2.8354	-2.5729	434.941	187.754	139.888	140.021	327.283	400.447	172.338	358.323	178.202	353.061	133.750	373.421	388.979	252.855	388.919	410.382	0.00052978	0.0005121	0.00021374	163.83	1.8583e-06	5.1554e-06	292.58	61.171	8.0406e-06	8.7119e-06	144.72	68.699	28.818	15.047	6.5644e-06	40.669	0.017433	0.034329	0.0094762	279.3	0.00033534	0.00038567	416.3	96.406	0.00032732	0.00039295	205.31	93.16	53.608	22.078	0.00035554	52.035	252.198	220.932	140.859	121.373	352.429	149.428	121.617	127.544	339.955	310.364	126.122	130.485	130.605	134.204	266.970	132.685	-8191	255	
29400.582	1	1	0	0	0.28622	0.1947	0.15258	0.17782	0.16704	0.065412	0.14145	0.29758	0.24347	0.389	0.17515	0.1738	0.12919	0.23256	0.040815	0.15655	-2.1375	-2.6063	-2.7	-2.7438	-2.4708	-2.825	-2.9646	-2.6167	-2.9	-2.8458	-2.6396	-2.9271	-2.4875	-2.7979	-2.9417	-2.6625	134.692	150.410	217.805	468.761	262.812	219.659	444.841	219.634	386.111	380.640	400.918	351.270	179.321	167.605	277.752	210.259	0.00048375	0.00068562	0.0001154	163.83	3.7546e-06	6.9217e-06	293.36	60.697	2.9508e-06	5.1878e-06	146.02	68.98	28.894	14.951	9.3449e-06	40.763	0.01765	0.034705	0.0095891	279.49	0.00033712	0.00038795	416.47	96.188	0.00032569	0.0003921	205.58	93.71	53.444	22.102	0.00035553	52.116	255.426	139.438	195.118	121.630	211.255	206.408	121.594	127.205	327.892	142.916	126.180	130.678	131.061	133.939	309.709	132.617	-8191	255	
29400.701	1	1	0	0	0.24626	0.17051	0.18658	0.063467	0.36611	0.16003	0.21787	0.17774	0.12462	0.16987	0.065949	0.26586	0.11891	0.22476	0.15716	0.041849	-2.4333	-2.8792	-2.5833	-2.9625	-2.5812	-2.7729	-2.9938	-2.5854	-2.8604	-2.9771	-2.5292	-2.9979	-2.8104	-2.7062	-2.8688	-2.7396	275.176	405.896	428.397	237.273	378.076	433.624	456.608	441.600	235.800	248.040	439.194	444.539	321.171	159.470	446.687	161.362	0.00054897	0.00023213	0.00020108	164.68	4.7618e-06	3.4985e-06	295.32	61.057	1.0571e-05	4.2652e-06	144.78	69.271	28.903	15.131	1.2528e-05	40.836	0.017646	0.034941	0.0096491	281.64	0.00033884	0.00038888	417.55	96.437	0.00032355	0.0003891	204.47	93.233	52.91	21.943	0.00034619	52.037	258.750	275.147	287.118	121.219	376.669	254.235	121.714	127.107	268.801	210.468	125.810	130.807	130.797	134.179	203.046	132.743	-8191	255	
29400.799	1	1	0	0	0.29547	0.1747	0.035657	0.11656	0.08765	0.097397	0.19284	0.20577	0.14574	0.2729	0.2283	0.23279	0.1665	0.11497	0.24314	0.27482	-2.3	-2.6312	-2.55	-2.6958	-2.8021	-2.625	-2.9896	-2.6312	-3.0479	-2.9479	-2.6208	-2.8458	-2.4542	-2.7229	-2.9583	-2.6271	247.917	355.510	438.909	186.604	236.429	289.486	354.588	415.298	174.241	288.674	175.291	307.264	172.065	318.777	395.083	181.520	0.00052033	0.00080401	0.00010965	164.1	9.4522e-06	3.8664e-06	293.47	61.514	1.1835e-06	5.1174e-06	144.94	69.302	28.426	15.044	4.147e-06	40.534	0.017053	0.033833	0.0094065	279	0.00033164	0.00038202	416.55	96.498	0.00032	0.00038287	204.56	93.035	52.723	21.927	0.00034488	51.861	256.039	209.275	452.567	121.432	251.402	124.385	121.941	127.375	189.454	345.316	125.828	130.483	131.143	134.515	351.664	132.497	-8191	255	
29400.895	1	1	0	0	0.17921	0.20728	0.28081	0.077103	0.19818	0.23578	0.14541	0.24156	0.19216	0.0802	0.15703	0.058889	0.13933	0.15924	0.15306	0.20653	-2.2042	-2.9021	-2.45	-2.7938	-2.5125	-2.7667	-2.9771	-2.7521	-2.575	-2.7896	-2.6146	-2.8563	-2.7354	-2.625	-2.9104	-2.7938	397.039	371.469	270.387	205.527	221.586	287.440	136.867	324.678	134.600	403.680	141.571	293.930	306.388	448.790	139.514	308.968	0.00048753	0.00017279	0.0002338	165.76	3.9004e-06	3.2327e-06	295.31	61.941	1.8024e-06	1.0446e-05	145.14	69.145	29.248	15.314	7.705e-06	41.114	0.017219	0.034941	0.0098887	286.48	0.00035212	0.00040994	424.61	98.872	0.00034306	0.00041245	208.89	95.012	55.015	22.696	0.0003793	53.088	248.772	218.311	397.952	121.344	313.129	394.703	121.432	127.382	456.319	143.862	126.344	130.749	130.514	134.017	392.398	132.805	-8191	255	
29401.016	1	1	0	0	0.14522	0.17315	0.20083	0.10509	0.20654	0.17604	0.21183	0.14308	0.21293	0.17194	0.23116	0.39484	0.1178	0.26305	0.083161	0.27489	-2.3271	-2.7729	-2.4562	-2.7875	-2.6021	-2.6917	-2.9062	-2.6458	-2.7562	-2.8354	-2.5979	-2.6375	-2.6604	-2.5062	-2.8271	-2.55	200.198	248.700	434.707	344.291	421.311	112.405	448.084	162.164	409.258	390.798	137.144	145.687	430.768	408.619	248.006	430.011	0.00053985	0.0012662	8.9605e-05	166.49	1.0039e-05	2.1896e-06	297.89	61.694	5.0949e-06	4.9301e-06	147.13	69.682	29.274	15.305	8.0098e-06	41.178	0.018698	0.0373	0.010347	290.47	0.00036211	0.00041933	427.58	99.745	0.00035036	0.0004236	211.02	95.676	55.396	22.82	0.00038147	53.274	248.822	131.808	113.429	121.481	286.278	437.169	121.801	127.135	224.556	426.345	125.660	130.500	130.832	134.430	243.609	132.746	-8191	255	
29401.111	1	1	0	0	0.22394	0.022206	0.12274	0.11614	0.15276	0.17876	0.34976	0.19632	0.27096	0.22206	0.14971	0.41159	0.24821	0.32892	0.28999	0.018666	-2.2167	-2.9208	-2.4521	-2.7521	-2.8063	-2.6312	-3.0292	-2.575	-2.7833	-2.8688	-2.5333	-2.8812	-2.7771	-2.5917	-2.8479	-2.6562	124.321	442.159	139.632	227.437	439.051	261.516	193.395	147.620	200.781	434.725	418.062	135.343	240.652	275.317	392.269	399.348	0.00048304	0.00077853	0.00019595	163.48	1.8365e-06	7.2405e-06	297.83	62.546	1.1275e-05	6.4414e-06	146.22	70.122	29.722	15.389	2.4491e-06	41.449	0.018802	0.037504	0.010417	289.8	0.00036242	0.00041835	426.64	99.506	0.00033828	0.00040567	208.58	95.014	54.17	22.533	0.00035806	52.954	255.944	211.799	206.997	121.095	452.223	277.146	121.935	127.319	211.707	344.334	125.773	130.626	131.615	134.251	364.435	132.608	-8191	255	
29401.182	1	1	0	0	0.14329	0.17878	0.12011	0.12563	0.25739	0.28824	0.13613	0.25447	0.25805	0.18705	0.25463	0.029546	0.2335	0.009456	0.19718	0.10502	-2.275	-2.6771	-2.5062	-2.6688	-2.6833	-2.7771	-2.8875	-2.6646	-2.7542	-2.8458	-2.5583	-2.6188	-2.8854	-2.8229	-2.875	-2.9625	264.612	354.446	111.599	353.905	398.880	338.153	132.467	432.502	308.840	352.455	112.119	457.800	205.105	382.535	335.484	352.962	0.00054917	0.0001635	0.00012397	163.97	6.5314e-06	4.968e-06	296.23	62.472	1.0421e-06	8.9918e-06	145.82	69.566	29.538	15.347	3.5289e-06	41.175	0.017864	0.035799	0.0099687	286.12	0.00035145	0.00040707	423.85	98.623	0.00033319	0.00039976	206.84	93.798	53.362	22.18	0.00034508	52.298	247.985	436.995	337.325	121.411	326.656	268.204	121.951	127.662	191.910	202.721	126.414	130.730	131.022	134.329	256.406	132.653	-8191	255	
29401.303	1	1	0	0	0.10793	0.33661	0.14053	0.18726	0.16557	0.16994	0.1669	0.053985	0.28796	0.082087	0.095224	0.12727	0.19583	0.10521	0.15363	0.1381	-2.2042	-2.9979	-2.5521	-2.4479	-2.8396	-2.7062	-2.6292	-2.7646	-2.5938	-2.9104	-2.55	-2.65	-2.7812	-2.5521	-2.7146	-2.7604	212.466	462.242	253.922	287.365	307.678	113.524	421.006	437.782	405.396	403.678	400.960	289.920	258.450	135.079	119.287	375.124	0.00049723	0.0009884	0.00032316	165.35	1.0275e-05	8.2526e-06	297.53	62.982	6.1283e-06	2.9313e-06	146.8	69.495	29.373	15.244	5.4552e-06	41.158	0.017287	0.0346	0.0096537	283.7	0.00034654	0.00040448	424.6	99.193	0.0003355	0.0004017	207.88	94.157	53.863	22.328	0.00034651	52.33	246.571	437.810	186.580	121.071	262.944	262.909	121.732	127.568	288.075	319.891	126.251	130.944	131.386	134.336	421.170	132.538	-8191	255	
29401.396	1	1	0	0	0.22181	0.15254	0.07051	0.061788	0.14599	0.183	0.11865	0.093321	0.21588	0.15134	0.15217	0.19079	0.20782	0.18955	0.13555	0.18882	-2.1875	-2.7417	-2.7229	-2.6813	-3.0146	-2.775	-2.6604	-2.6979	-2.6042	-3.0208	-2.5958	-2.5	-2.7896	-2.4292	-2.6417	-2.8208	445.653	459.583	188.548	146.116	305.361	400.319	428.258	114.706	167.736	263.575	282.499	382.263	346.000	132.093	210.434	408.781	0.00057333	0.00075092	0.00020399	166.21	2.7299e-06	4.4363e-06	295.05	62.014	3.9357e-06	9.3568e-06	146.44	69.881	29.244	15.315	4.4878e-06	41.147	0.017183	0.034138	0.0094604	280.31	0.00033612	0.00039122	419.33	97.655	0.00033114	0.00039855	207.86	94.567	54.247	22.494	0.00035751	52.73	250.925	237.452	121.667	121.396	461.832	160.811	121.743	127.265	161.298	242.524	125.883	130.453	131.172	134.081	205.299	132.686	-8191	255	
29401.494	1	1	0	0	0.10901	0.027205	0.12354	0.1334	0.25826	0.14977	0.10393	0.076577	0.043359	0.3313	0.16558	0.3276	0.096187	0.36406	0.15874	0.060649	-2.1063	-2.725	-2.65	-2.4875	-2.7479	-2.5167	-2.6042	-2.7042	-2.5687	-2.7667	-2.8833	-2.5458	-2.7979	-2.5125	-2.6312	-2.9583	418.161	403.424	439.431	412.799	263.737	287.510	206.930	185.645	328.812	140.204	330.679	132.360	405.563	332.360	364.999	305.714	0.00046976	0.00051936	0.00020498	166.43	9.9463e-06	6.95e-06	297.45	62.168	4.2876e-06	8.901e-06	146.84	69.341	29.187	15.255	6.2682e-06	41.168	0.017616	0.034967	0.0096542	282.74	0.00033971	0.00038998	418.68	97.508	0.00032533	0.00038918	206.16	93.862	53.464	22.234	0.00035023	52.481	252.796	322.724	198.741	121.834	314.890	160.658	121.850	127.741	373.613	234.749	126.184	130.666	130.686	134.224	252.170	132.630	-8191	255	
29401.613	1	1	0	0	0.25052	0.084417	0.060638	0.12808	0.28334	0.20343	0.1234	0.15765	0.023165	0.072072	0.02527	0.26169	0.26315	0.28612	0.15217	0.23575	-1.9167	-2.85	-2.6667	-2.5979	-2.9938	-2.8083	-2.6146	-2.8521	-2.575	-2.7333	-2.9521	-2.65	-2.7833	-2.6708	-2.5875	-2.9667	327.582	399.499	312.299	341.654	232.257	204.979	359.258	138.823	172.305	432.844	221.295	387.878	371.404	149.818	177.157	315.945	0.00046294	0.00032067	0.00014043	163.27	4.5931e-06	7.8909e-06	296.9	61.842	4.1541e-06	5.2427e-06	144.87	69.035	28.988	15.258	6.9941e-06	40.948	0.017519	0.034728	0.0096029	281.12	0.00033997	0.00039092	419.15	97.579	0.00032675	0.00039071	205.7	93.702	53.316	22.142	0.00034554	52.143	264.956	189.734	111.355	120.990	428.771	170.207	121.749	127.483	337.290	376.639	125.593	130.798	131.139	134.464	339.473	132.359	-8191	255	
29401.711	1	1	0	0	0.026676	0.21144	0.17636	0.16348	0.077264	0.09657	0.15919	0.078827	0.075186	0.12384	0.26364	0.15399	0.30068	0.1255	0.14943	0.013892	-2.175	-2.8104	-2.7729	-2.6188	-2.9854	-2.7229	-2.7167	-2.9125	-2.4125	-2.6354	-2.8271	-2.6646	-2.8292	-2.8229	-2.7313	-2.8937	160.042	469.108	374.701	363.731	389.794	467.187	398.371	322.467	304.645	254.806	395.364	292.924	279.777	310.368	375.443	277.599	0.00053481	0.0010317	0.00018906	163.9	3.0078e-06	5.035e-06	294.94	61.774	3.1454e-06	5.132e-06	144.45	69.191	29.107	15.115	2.5895e-06	40.714	0.017193	0.033766	0.0093743	279.15	0.00033149	0.00037945	416.25	96.737	0.00032112	0.00038454	204.68	93.081	52.903	21.994	0.00034335	51.936	251.334	135.453	110.232	121.740	285.135	196.647	121.979	127.234	272.866	268.117	125.984	130.588	130.858	133.727	165.906	132.383	-8191	255	
29401.807	1	1	0	0	0.12368	0.21169	0.093089	0.19115	0.19704	0.099471	0.10814	0.2415	0.16524	0.047131	0.058494	0.23695	0.013801	0.15703	0.18813	0.15016	-2.3458	-2.4333	-2.7542	-2.5729	-2.7271	-2.5438	-2.45	-2.8063	-2.7229	-2.6896	-2.9771	-2.6	-2.7083	-2.6333	-2.5979	-2.9708	386.085	320.261	344.942	446.674	126.804	319.608	410.739	368.194	358.653	218.674	452.799	408.370	407.055	186.955	194.609	293.518	0.00051635	0.00063892	2.8057e-05	163.19	6.5988e-06	6.2873e-06	294.69	61.67	5.327e-06	4.8364e-06	145.31	68.972	28.89	15.167	4.2339e-06	40.884	0.016916	0.033422	0.0092914	277.34	0.00032568	0.00037603	413.36	96.476	0.00031481	0.00038063	204.61	93.137	53.008	22.107	0.0003465	52.163	244.170	251.036	221.252	121.388	410.849	350.803	121.531	127.365	299.729	276.964	126.099	130.806	131.775	134.488	298.395	132.735	-8191	255	
29401.879	1	1	0	0	0.29741	0.049452	0.27204	0.17596	0.10117	0.097653	0.079711	0.20269	0.3042	0.26984	0.20043	0.30819	0.22726	0.25274	0.28236	0.19781	-2.2229	-2.6542	-2.6417	-2.4979	-2.7	-2.8833	-2.6521	-2.8812	-2.6917	-2.6458	-3.0083	-2.5229	-2.6771	-2.7292	-2.6875	-2.9167	238.981	238.926	118.761	400.662	468.723	432.810	288.307	352.858	365.234	132.012	468.432	132.429	156.610	363.470	363.882	343.093	0.00046633	0.0006324	0.00015027	162.14	6.2104e-06	1.0497e-05	295.54	62.253	5.8871e-06	3.2977e-06	146.22	69.166	29.304	15.35	6.6939e-06	41.043	0.017141	0.033921	0.0094267	279.1	0.00033061	0.00038346	417.14	97.231	0.00032109	0.00038773	205.98	93.801	53.121	22.221	0.00034393	52.411	249.883	448.062	244.699	121.430	231.214	185.802	121.880	127.433	138.760	388.495	125.838	130.528	130.730	134.230	249.299	132.755	-8191	255	
29401.998	1	1	0	0	0.098416	0.45578	0.098374	0.38509	0.14128	0.15556	0.083876	0.11613	0.019364	0.10871	0.095315	0.16506	0.20776	0.23446	0.096376	0.33378	-2.3083	-2.5417	-2.8021	-2.6688	-2.7667	-2.8146	-2.5042	-2.8896	-2.7708	-2.6021	-3.1458	-2.7646	-2.6833	-2.7729	-2.5271	-2.8708	117.348	254.489	296.449	394.445	458.769	109.627	368.723	323.855	288.701	438.610	378.678	137.145	212.414	222.225	268.970	391.292	0.00061059	0.0011836	0.00033381	165.5	4.8831e-06	2.0954e-06	299.41	62.869	5.564e-06	8.7898e-06	146.97	69.673	29.608	15.362	4.3691e-06	41.104	0.016936	0.033701	0.0093541	279.49	0.00032754	0.00038065	419.14	97.71	0.00031991	0.00038667	207.39	94.291	53.844	22.373	0.00035312	52.546	250.149	331.803	180.894	121.846	276.353	375.687	121.918	127.286	172.648	421.119	125.846	130.660	131.475	134.427	429.354	132.428	-8191	255	
29402.096	1	1	0	0	0.30443	0.1764	0.13477	0.11137	0.11164	0.093692	0.213	0.070137	0.04457	0.034155	0.13428	0.097124	0.11276	0.18578	0.13848	0.16046	-2.3896	-2.55	-2.8458	-2.6208	-2.6792	-2.7958	-2.7958	-2.8312	-2.7917	-2.6854	-3.0083	-2.6292	-2.6646	-2.6646	-2.5979	-2.6188	451.193	127.541	372.870	417.940	366.740	430.119	346.116	378.172	129.744	457.941	387.922	356.491	424.174	236.307	122.929	184.377	0.00062463	0.00044022	0.00017547	165.43	5.957e-06	1.372e-06	295.9	62.152	6.7474e-06	4.3043e-06	146.78	69.189	29.318	15.22	8.6579e-06	40.931	0.01743	0.034662	0.0096027	282.23	0.00033496	0.00038717	417.6	97.431	0.00032067	0.00038799	205.88	93.263	53.083	22.137	0.00034704	52.056	256.552	458.218	411.246	121.652	322.207	298.233	121.906	127.408	269.360	304.036	125.987	130.611	131.608	134.437	376.111	132.800	-8191	255	
29402.191	1	1	0	0	0.060188	0.061192	0.068794	0.22833	0.11164	0.18687	0.33921	0.10492	0.12311	0.30828	0.24457	0.12636	0.035577	0.12629	0.039268	0.25706	-2.2146	-2.4229	-2.8292	-2.6292	-2.5833	-2.975	-2.6625	-2.6792	-2.8375	-2.6271	-2.8646	-2.8979	-2.5542	-2.8604	-2.6396	-2.7125	338.334	418.115	236.716	208.824	213.543	223.615	391.868	360.975	169.880	427.203	403.649	275.385	299.360	413.836	262.778	326.867	0.00052443	0.00098224	5.8818e-05	164.48	1.0669e-05	5.5942e-06	292.28	61.919	4.7816e-07	6.6997e-06	144.58	68.599	28.899	14.969	4.3051e-06	40.247	0.01715	0.034046	0.0094532	278.5	0.00033226	0.00038446	414.64	96.231	0.00031777	0.00037923	201.99	91.664	51.542	21.515	0.00032284	50.842	249.163	137.271	203.789	121.485	260.325	425.503	121.752	127.433	359.824	119.633	125.696	130.555	130.657	134.181	178.599	132.273	-8191	255	
29402.287	1	1	0	0	0.15863	0.19681	0.25516	0.087134	0.1187	0.32655	0.28402	0.1263	0.13402	0.23397	0.11653	0.24735	0.13111	0.12999	0.063985	0.2376	-2.2875	-2.4854	-2.75	-2.6312	-2.45	-2.8729	-2.6208	-2.6688	-2.9813	-2.7146	-2.8104	-2.7188	-2.4521	-2.9646	-2.725	-2.7625	403.106	400.908	460.530	435.124	420.838	182.801	347.445	413.749	467.933	182.852	290.559	389.557	175.965	372.098	313.475	366.325	0.00049559	0.00023473	0.00037618	161.74	1.4701e-05	8.6167e-06	292.42	60.362	8.358e-06	6.6352e-06	141.33	66.66	27.841	14.469	7.5111e-06	39.489	0.015901	0.031625	0.0086873	268.05	0.00030388	0.00034895	402.12	91.851	0.00028495	0.00034027	194.59	88.379	48.889	20.635	0.00030191	49.646	260.528	354.347	217.640	121.951	183.090	282.055	121.894	127.042	331.772	369.167	126.269	130.854	131.343	134.201	134.167	132.564	-8191	255	
29402.406	1	1	0	0	0.25065	0.14716	0.084741	0.097582	0.10987	0.1294	0.0080529	0.18503	0.093336	0.11747	0.077342	0.11686	0.13324	0.077242	0.11637	0.12882	-2.5729	-2.5771	-2.7	-2.7021	-2.6958	-2.8792	-2.7979	-2.5646	-2.8937	-2.7792	-2.7583	-2.9292	-2.5958	-2.9167	-2.6896	-2.7542	367.667	431.241	269.332	301.762	448.199	397.833	226.788	375.715	386.721	218.400	149.498	132.464	118.149	149.438	268.801	218.059	0.00044287	0.00095428	0.00017321	161.92	2.9082e-06	7.5015e-06	290.06	60.139	4.9122e-06	3.3597e-06	141.43	66.015	27.245	14.461	3.5964e-06	39.029	0.015265	0.030585	0.0085142	265.94	0.00030309	0.00034889	400.63	91.073	0.00028113	0.00033489	193.82	87.567	48.691	20.573	0.00030438	49.317	255.218	212.877	273.819	121.740	268.686	179.202	121.532	127.833	354.923	349.065	126.047	130.492	131.203	134.131	180.791	132.529	-8191	255	
29402.479	1	1	0	0	0.45793	0.098199	0.16293	0.06096	0.27239	0.3201	0.13071	0.16295	0.066616	0.069364	0.32541	0.058366	0.13864	0.092191	0.010443	0.027115	-2.5229	-2.675	-2.6375	-2.7479	-2.4167	-2.8521	-2.6896	-2.3937	-2.7875	-2.6292	-2.6583	-2.8688	-2.5542	-2.8708	-2.6208	-2.6479	242.537	309.354	377.220	400.988	235.699	197.161	391.838	201.927	457.867	401.575	359.847	313.210	417.985	457.807	422.232	465.941	0.00051171	0.00018412	0.00020537	162.07	8.6589e-06	9.663e-07	288.18	58.741	5.9363e-06	2.4968e-06	139.88	65.162	27.309	14.15	7.8281e-06	38.677	0.015448	0.030777	0.0085182	266.41	0.00029983	0.00034292	397.23	90.123	0.00027863	0.00033169	190.84	86.204	47.732	20.126	0.00029275	48.574	251.758	316.931	169.689	121.479	165.457	142.584	121.454	127.200	385.017	342.259	126.074	130.552	131.078	134.060	164.472	132.848	-8191	255	
29402.576	1	1	0	0	0.14622	0.041662	0.12635	0.12819	0.14431	0.2885	0.18569	0.11422	0.14256	0.24221	0.2153	0.1145	0.37074	0.11872	0.19282	0.34598	-2.4021	-2.6708	-2.6917	-2.9375	-2.5167	-2.7896	-2.9083	-2.5646	-2.9708	-2.5667	-2.7438	-2.9833	-2.5583	-2.9729	-2.7938	-2.4625	336.713	445.337	445.165	310.759	457.841	365.691	183.386	421.595	253.574	324.883	391.256	120.958	129.277	424.677	295.469	402.058	0.00043752	0.00082137	0.00011953	160.25	1.9468e-06	1.2419e-05	287.78	58.389	3.3635e-06	2.2987e-06	139.27	65.014	27.225	14.178	1.0426e-05	38.876	0.014655	0.029045	0.0080749	260.18	0.00028668	0.00032956	393.74	88.961	0.00027474	0.00032551	190.02	85.647	47.026	19.882	0.00027643	48.277	244.515	221.865	309.236	121.124	393.693	302.486	121.769	127.300	429.351	459.087	125.888	130.440	130.600	134.273	285.108	132.786	-8191	255	
29402.695	1	1	0	0	0.13904	0.14165	0.24542	0.24926	0.076721	0.08671	0.079987	0.32913	0.20634	0.17051	0.092742	0.1017	0.29934	0.022127	0.040272	0.32262	-2.4562	-2.7313	-2.575	-2.775	-2.5729	-2.7896	-2.8146	-2.5729	-2.8354	-2.6813	-2.6417	-2.9146	-2.6021	-2.5833	-2.7146	-2.8042	283.577	203.202	283.237	362.349	352.315	264.026	439.481	257.399	230.293	214.079	146.548	332.662	170.532	265.016	244.134	424.734	0.00042302	0.0009655	7.5754e-05	161.8	2.5665e-06	6.2292e-06	289.48	58.848	6.526e-06	8.4203e-06	138.96	65.128	26.909	14.23	7.6776e-07	38.922	0.013655	0.026919	0.007499	256.33	0.00027093	0.00031433	391.37	88.288	0.00026729	0.00032291	190.33	85.977	47.688	20.133	0.0002928	48.801	264.785	459.788	365.643	121.118	184.097	366.377	121.773	127.506	289.821	185.833	126.192	130.674	131.209	134.270	444.588	132.595	-8191	255	
29402.791	1	1	0	0	0.1273	0.091556	0.22343	0.22394	0.15658	0.045171	0.13652	0.30713	0.17601	0.23389	0.051243	0.093749	0.27979	0.13518	0.19443	0.14102	-2.3667	-2.7188	-2.5833	-2.9938	-2.6229	-2.5938	-2.9	-2.7708	-2.7875	-2.8167	-2.5896	-2.9083	-2.5771	-2.7562	-2.8667	-2.6583	363.460	315.937	319.656	269.633	378.341	169.663	316.889	234.281	408.960	171.916	325.034	401.889	357.850	430.335	266.993	439.641	0.00050908	0.00063112	0.00034339	163.05	2.3308e-06	9.3701e-06	290.4	60.623	2.4729e-06	2.0107e-06	141.29	66.498	27.645	14.51	1.3771e-06	39.51	0.014616	0.029148	0.0081933	264.74	0.00029551	0.00034488	401.83	92.443	0.00029415	0.00035625	197.26	89.017	50.211	21.007	0.00032564	50.057	267.583	318.801	164.052	120.700	279.706	302.518	121.238	127.491	347.296	242.653	126.240	130.589	131.051	134.267	148.606	132.357	-8191	255	
29402.887	1	1	0	0	0.27428	0.11204	0.18442	0.14646	0.032583	0.018499	0.17581	0.20159	0.12674	0.072846	0.073756	0.091768	0.098206	0.11146	0.11824	0.1209	-2.3854	-2.8312	-2.6104	-2.9938	-2.5917	-2.6125	-2.9604	-2.6104	-2.9542	-2.7042	-2.5812	-2.9313	-2.6333	-2.7333	-2.9417	-2.9396	113.822	188.571	383.745	403.963	128.232	249.752	466.451	370.192	155.640	428.408	293.054	145.434	128.712	253.356	207.055	405.555	0.00042901	0.00051793	0.00015977	163.07	1.2463e-05	4.3799e-06	291.39	60.342	2.9362e-06	1.5406e-05	141.75	66.55	27.742	14.524	7.4458e-06	39.521	0.016232	0.032459	0.0091084	275.58	0.00032326	0.00037828	412.24	95.512	0.00032456	0.00039168	201.5	90.399	52.187	21.505	0.00035469	50.611	256.955	448.725	249.207	121.051	356.611	243.451	121.796	127.199	198.574	254.767	125.999	130.599	130.745	134.451	251.455	132.606	-8191	255	
29402.982	1	1	0	0	0.095455	0.215	0.084856	0.20028	0.15588	0.18963	0.1144	0.10645	0.047966	0.15056	0.17815	0.13032	0.12373	0.31543	0.15395	0.12296	-2.2833	-2.9021	-2.7	-2.7958	-2.7854	-2.6083	-2.9042	-2.5229	-2.6771	-2.8521	-2.4813	-2.9958	-2.7479	-2.4542	-3.0229	-2.6896	255.395	208.031	214.586	207.350	183.735	147.575	269.939	465.904	370.264	244.407	306.211	256.071	217.750	125.095	316.881	144.489	0.00045572	0.00065442	0.00015656	163.31	3.6213e-06	6.4606e-06	290.69	60.557	3.2358e-06	8.8721e-06	141.13	66.015	27.63	14.517	1.2633e-05	39.167	0.017599	0.035305	0.0099621	283.32	0.00035272	0.00041369	420.55	98.643	0.00035755	0.00043696	207.43	92.855	55.563	22.391	0.00041745	51.988	251.784	163.660	216.493	121.487	267.476	388.318	121.749	127.008	222.704	159.351	126.061	130.494	131.369	134.177	318.650	132.594	-8191	255	
29403.078	1	1	0	0	0.080853	0.15955	0.24544	0.27206	0.19372	0.14993	0.13584	0.16365	0.12811	0.10267	0.19623	0.19062	0.099393	0.14333	0.20636	0.14939	-2.4562	-2.9188	-2.7438	-2.7938	-2.8583	-2.4458	-2.8021	-2.7208	-2.6229	-2.8396	-2.6583	-2.8438	-2.9729	-2.6854	-2.8063	-2.875	111.985	462.685	452.547	413.523	273.285	466.144	381.583	419.594	311.891	122.260	365.776	153.065	409.340	440.099	174.973	315.599	0.00038406	0.0005231	0.00031369	163.38	5.2721e-06	6.6807e-06	291.86	61.953	9.8936e-06	8.2158e-06	142.44	66.656	28.101	14.623	4.0591e-06	39.708	0.021085	0.042477	0.011923	306.62	0.00042617	0.00050078	445.71	106.2	0.00043055	0.00052286	219.98	97.587	60.036	23.609	0.0004711	53.583	242.189	435.675	201.663	121.724	389.111	293.264	121.808	127.524	270.532	111.386	125.929	130.539	130.558	133.855	196.191	132.493	-8191	255	
29403.176	1	1	0	0	0.262	0.075214	0.096094	0.31602	0.10056	0.15634	0.15823	0.15657	0.21585	0.067647	0.16706	0.18186	0.11919	0.24812	0.19392	0.1082	-2.1979	-2.8729	-2.4083	-2.7292	-2.7604	-2.525	-2.9021	-2.8417	-2.6729	-2.9875	-2.5396	-2.7042	-2.7229	-2.7146	-2.6583	-2.9292	357.851	148.615	383.934	315.418	225.778	448.674	169.818	434.929	228.114	328.802	320.236	390.133	249.084	389.937	383.919	120.039	0.00043796	0.00063156	0.00029812	166.27	7.0866e-06	8.1784e-06	293.91	62.027	6.0242e-06	7.8037e-06	143.11	66.197	28.285	14.471	8.9755e-06	39.576	0.023261	0.046715	0.012981	318.87	0.00046061	0.00053802	456.36	108.77	0.00045496	0.00055557	224.19	98.924	62.501	24.111	0.00051277	54.355	246.524	219.312	296.130	121.734	163.980	460.047	121.704	127.323	129.798	127.220	125.594	130.797	130.568	134.322	277.683	132.607	-8191	255	
29403.297	1	1	0	0	0.15262	0.10022	0.24032	0.096721	0.16335	0.22047	0.10422	0.068472	0.19887	0.050641	0.076299	0.24613	0.12423	0.21998	0.074541	0.46089	-2.3229	-3.0312	-2.6833	-2.7479	-2.8187	-2.6083	-2.8625	-2.8646	-2.7458	-3.0771	-2.5333	-2.7917	-2.7708	-2.5187	-2.7875	-2.8229	309.754	273.986	122.764	241.810	124.004	109.399	301.265	445.351	468.735	174.112	229.760	145.299	138.633	424.841	129.938	355.334	0.00048852	0.0011036	0.00022841	165.8	4.91e-06	7.8621e-06	294.73	61.975	1.0005e-05	5.7812e-06	143.2	66.92	28.261	14.503	3.2633e-06	39.615	0.025304	0.050932	0.014002	330.91	0.00049101	0.00056559	463.62	110.75	0.00047045	0.00056572	225.25	99.122	62.441	24.116	0.00050684	54.366	260.297	252.271	256.421	121.411	122.524	234.246	121.823	127.095	272.501	264.959	125.877	130.433	131.052	133.772	116.602	132.637	-8191	255	
29403.391	1	1	0	0	0.098013	0.17221	0.069615	0.049673	0.3092	0.32957	0.077836	0.29835	0.088245	0.2041	0.07324	0.19188	0.17647	0.28483	0.094625	0.14388	-2.2167	-2.7979	-2.7417	-2.3688	-3.0458	-2.7104	-2.9208	-2.7646	-2.5521	-2.8688	-2.7708	-2.6188	-2.9833	-2.6312	-2.8042	-2.8354	346.182	163.623	412.376	379.652	190.978	182.492	120.089	453.651	374.885	440.762	293.507	456.627	372.358	394.698	131.398	443.020	0.00044715	0.00039141	0.00018722	166.98	1.9751e-05	4.2762e-06	294.72	61.527	8.1386e-06	6.4488e-06	142.42	66.413	28.245	14.624	8.6295e-06	39.837	0.025122	0.049989	0.013797	329.9	0.0004853	0.00056142	462.1	110.45	0.00046846	0.00056353	224.35	98.961	62.602	24.12	0.00050933	54.522	255.661	112.366	441.768	121.294	285.085	186.859	121.649	126.991	323.354	231.133	126.151	130.405	130.899	134.008	329.479	132.679	-8191	255	
29403.486	1	1	0	0	0.33979	0.25563	0.12565	0.053843	0.075828	0.19271	0.27211	0.087144	0.12156	0.083763	0.40458	0.26992	0.16965	0.13276	0.10689	0.25213	-2.1917	-2.8542	-2.6771	-2.55	-2.7812	-2.6312	-2.7583	-2.8292	-2.475	-3.0292	-2.8042	-2.6667	-2.9667	-2.8167	-2.6979	-2.9062	341.941	327.511	135.596	456.051	469.107	313.720	262.480	267.684	211.083	133.662	389.455	410.819	378.217	435.756	429.257	393.336	0.00041333	0.00047486	0.00043645	167.47	8.8791e-06	1.0466e-05	296.75	62.057	4.4435e-06	8.4487e-06	144.76	66.804	28.371	14.691	1.1038e-05	40.069	0.025457	0.050895	0.014079	333.78	0.0004989	0.0005757	468.22	112.27	0.00048258	0.00058051	227.28	100.51	63.919	24.475	0.00052928	55.18	245.030	109.869	256.217	120.952	272.947	387.069	121.935	127.236	339.252	185.760	126.012	130.631	130.812	133.697	242.377	132.287	-8191	255	
29403.582	1	1	0	0	0.10147	0.20816	0.080295	0.34833	0.14215	0.088397	0.11725	0.097336	0.17431	0.18446	0.16056	0.15219	0.16018	0.05501	0.082129	0.031378	-2.3438	-2.8312	-2.8458	-2.6604	-2.9688	-2.7083	-2.6958	-2.7375	-2.6375	-2.6833	-2.8812	-2.8354	-2.9792	-2.5396	-2.6188	-3.0604	265.838	407.376	256.491	210.046	379.804	334.268	148.306	186.625	321.593	451.233	165.895	417.859	327.589	354.244	219.602	315.575	0.00035393	0.00048114	9.4457e-05	168.52	2.8713e-06	5.1587e-06	297.51	63.036	7.1011e-06	5.3246e-06	142.94	67.156	27.852	14.67	7.4007e-06	39.816	0.026422	0.052422	0.014512	340.26	0.00051403	0.00059081	473.78	114.32	0.00049347	0.00058857	228.64	100.94	63.755	24.408	0.0005229	54.911	258.745	404.148	422.597	121.188	207.414	443.743	121.521	127.403	234.506	198.568	125.770	130.318	130.342	134.221	370.067	132.013	-8191	255	
29403.680	1	1	0	0	0.10375	0.18108	0.064569	0.047829	0.18188	0.19859	0.1193	0.20859	0.10398	0.1121	0.14125	0.33194	0.21174	0.15046	0.10659	0.1179	-2.2417	-2.7229	-2.7646	-2.5271	-2.8583	-2.8208	-2.6625	-3.0021	-2.6021	-2.7792	-2.7479	-2.5958	-2.8771	-2.7458	-2.5292	-2.8771	407.682	360.784	363.068	383.907	278.704	192.696	348.832	362.352	168.851	277.485	375.965	409.412	208.219	353.968	410.057	448.928	0.00050885	0.00034987	4.6595e-05	165.28	5.1836e-06	8.3529e-06	294.98	61.511	5.3737e-06	5.0495e-06	143.06	65.878	27.994	14.644	6.4083e-06	39.745	0.025842	0.051231	0.014106	332.34	0.00048998	0.00056398	462.5	110.53	0.00047002	0.00056353	224.68	98.963	62.791	24.195	0.00051733	54.682	264.784	329.633	132.273	120.392	200.347	354.874	121.450	127.413	414.869	394.276	126.188	130.690	130.497	134.481	216.855	132.537	-8191	255	
29403.775	1	1	0	0	0.10497	0.13133	0.1393	0.15616	0.11021	0.099781	0.16042	0.24445	0.24329	0.074007	0.10513	0.15696	0.10764	0.19546	0.060709	0.35637	-2.4208	-2.6458	-2.75	-2.7292	-2.8187	-2.9229	-2.6354	-2.9188	-2.8854	-2.7042	-3.0042	-2.6021	-2.7604	-2.8167	-2.4458	-2.875	263.946	249.438	133.345	255.617	295.047	119.777	111.693	423.729	420.222	244.705	377.596	418.210	365.947	402.498	260.224	410.628	0.00045239	0.0012605	0.00020412	164.34	1.1875e-05	1.5701e-05	296.32	61.734	1.2296e-05	4.4094e-06	142.75	66.787	28.054	14.812	3.303e-06	39.708	0.025559	0.050853	0.014092	332.07	0.0004943	0.00057105	466.83	112.21	0.00048299	0.00058194	227.01	100.38	63.928	24.531	0.00053777	55.131	252.487	190.074	237.419	121.765	362.069	201.325	121.753	126.944	378.669	302.183	126.034	130.427	131.219	134.075	353.420	132.570	-8191	255	
29403.871	1	1	0	0	0.1639	0.16982	0.04337	0.21707	0.23243	0.02959	0.013508	0.1833	0.03765	0.18714	0.41081	0.019609	0.3764	0.060618	0.077941	0.037338	-2.2438	-2.6771	-2.8396	-2.725	-2.7896	-2.5979	-2.7021	-2.8958	-2.6792	-2.5792	-2.8042	-2.45	-2.8646	-2.8021	-2.5062	-2.8563	253.538	293.710	334.664	351.741	179.209	156.930	417.251	382.653	344.064	169.368	464.175	263.343	184.283	445.911	242.406	190.096	0.00046476	0.00023825	0.00033422	165.27	7.9023e-06	1.3287e-05	294.44	62.033	9.3391e-06	8.6527e-06	143	67.003	28.047	14.862	9.7284e-06	40.057	0.026553	0.053032	0.014805	339.48	0.0005195	0.00060086	475.07	114.38	0.00050396	0.00060634	230.2	101.5	64.708	24.85	0.00054135	55.427	250.984	286.221	161.895	121.362	365.330	326.010	121.889	126.808	313.620	389.915	125.736	130.064	131.074	133.934	468.097	132.633	-8191	255	
29403.967	1	1	0	0	0.14462	0.054378	0.16402	0.1009	0.16185	0.04258	0.05151	0.11553	0.17249	0.073417	0.19981	0.22257	0.039701	0.088678	0.14781	0.15969	-2.2438	-2.6125	-2.8208	-2.5208	-2.8292	-2.9458	-2.4688	-2.6875	-2.8021	-2.5708	-2.9792	-2.5021	-2.7083	-2.75	-2.6562	-2.8875	311.695	365.658	120.981	214.307	329.601	359.078	391.814	263.639	205.854	373.269	256.676	195.263	401.539	209.653	405.364	139.874	0.00053467	0.00072873	0.00031586	166.71	8.6993e-06	1.067e-05	296.43	62.879	5.8113e-06	5.6594e-06	144.58	67.299	27.924	14.786	6.7741e-06	39.978	0.026516	0.052858	0.014748	340.42	0.00051714	0.0005952	473.86	114.28	0.00048918	0.00058756	228.9	100.57	63.08	24.336	0.00051278	54.629	251.078	462.517	259.451	121.483	310.091	319.688	121.630	127.650	171.332	168.504	125.714	130.442	130.776	133.669	235.187	132.592	-8191	255	
29404.062	1	1	0	0	0.042598	0.052831	0.1524	0.19529	0.17899	0.064739	0.12053	0.093579	0.19131	0.033897	0.46408	0.05909	0.017914	0.19408	0.10991	0.098486	-2.3625	-2.5938	-2.8708	-2.7833	-2.5917	-2.8292	-2.6104	-2.7667	-2.6063	-2.5979	-2.9875	-2.6375	-2.7583	-2.8833	-2.725	-2.9021	228.521	120.573	344.251	347.247	220.942	251.510	132.014	300.724	193.497	122.763	332.991	164.781	376.700	339.516	439.418	380.048	0.00050756	0.00041838	9.4064e-05	164.07	9.7948e-06	6.515e-06	294.12	62.288	1.0338e-05	6.3141e-06	142.9	66.669	28.301	14.566	6.9359e-06	39.722	0.025044	0.049901	0.013883	328.43	0.00048512	0.00056187	462.42	110.9	0.00046755	0.00056253	223.12	98.324	61.503	23.851	0.00049586	53.903	256.480	112.415	193.810	121.070	251.526	285.039	121.591	127.343	337.756	416.003	126.316	130.507	130.933	134.170	122.425	132.514	-8191	255	
29404.184	1	1	0	0	0.14586	0.16919	0.20541	0.19524	0.11379	0.27137	0.20618	0.14145	0.25208	0.082808	0.12862	0.32791	0.14089	0.21802	0.037615	0.10097	-2.3417	-2.6688	-2.9271	-2.7333	-2.5479	-2.8479	-2.7438	-2.8375	-2.775	-2.7812	-2.85	-2.7729	-2.6312	-2.8958	-2.5271	-2.7354	313.548	310.514	463.083	154.017	428.547	183.641	301.260	116.614	145.063	166.642	400.600	243.930	308.655	383.467	340.454	203.853	0.0003694	0.00066367	0.00026188	166.78	2.3147e-06	1.0369e-05	293.65	61.949	6.6689e-06	7.6538e-06	141.9	66.193	27.631	14.62	1.0561e-05	39.579	0.024248	0.048882	0.0135	324.82	0.00047523	0.00055827	460.32	110.22	0.00046918	0.0005654	222.92	98.221	61.682	23.902	0.00049766	53.851	265.812	236.313	212.931	121.364	191.893	218.884	121.694	127.234	221.861	381.848	126.014	130.544	131.562	134.171	168.875	132.397	-8191	255	
29404.277	1	1	0	0	0.13183	0.28107	0.1529	0.52659	0.20258	0.49566	0.15667	0.18538	0.23149	0.062143	0.12654	0.07775	0.067154	0.15931	0.22225	0.11409	-2.3958	-2.4104	-2.6667	-2.6167	-2.6208	-2.8104	-2.6604	-2.625	-2.9292	-2.5521	-2.7479	-2.6104	-2.5687	-2.9208	-2.6917	-2.8833	129.107	158.154	465.559	454.298	376.074	423.995	128.940	140.039	435.352	162.448	178.737	271.381	272.463	235.307	389.045	204.967	0.0005348	0.00097529	0.00011173	164.44	1.0241e-05	5.5419e-06	294.18	61.959	8.1572e-06	1.1271e-05	142.04	66.849	28.015	14.659	9.9509e-06	39.877	0.024505	0.048972	0.013537	323.63	0.00047429	0.0005518	458.69	109.7	0.00045836	0.00055036	221.73	97.847	61.046	23.742	0.00048279	53.915	262.735	258.505	194.467	121.479	304.352	435.999	121.524	127.120	307.115	296.030	125.928	130.451	131.006	134.139	277.914	132.441	-8191	255	
29404.377	1	1	0	0	0.22373	0.075365	0.05152	0.078048	0.20249	0.22237	0.27076	0.2037	0.17472	0.21965	0.030884	0.2502	0.22023	0.35881	0.36198	0.35586	-2.2229	-2.6208	-2.7521	-2.75	-2.6625	-2.9479	-2.8458	-2.5729	-2.9208	-2.3958	-2.4813	-2.8958	-2.4167	-2.7708	-2.8125	-2.6375	425.992	374.248	337.287	170.595	392.122	188.257	198.422	361.407	277.686	237.383	468.691	307.436	209.192	365.051	427.000	376.580	0.00035057	0.00032003	0.00018976	163.9	5.3569e-06	3.7616e-06	294.84	61.771	5.1389e-06	6.0535e-06	142.55	66.142	27.928	14.744	1.7132e-05	39.771	0.023908	0.047866	0.013304	321.27	0.00047099	0.00054387	456.69	109.54	0.00045578	0.00054923	222.25	98.036	61.464	23.875	0.00049349	54.239	254.390	335.477	442.776	121.634	452.281	157.215	121.561	126.892	284.180	406.265	125.592	130.208	131.042	133.765	284.341	132.679	-8191	255	
29404.471	1	1	0	0	0.43929	0.13283	0.17235	0.12592	0.20982	0.14293	0.052228	0.12709	0.23226	0.14262	0.12827	0.16561	0.27409	0.1507	0.20499	0.34219	-2.3875	-2.5896	-2.6396	-2.9125	-2.6979	-2.6792	-2.7979	-2.7792	-2.9896	-2.6854	-2.5979	-2.9083	-2.7188	-2.8479	-2.7896	-2.6542	459.399	387.339	234.670	448.242	461.880	229.185	430.794	348.061	387.044	468.911	254.048	390.817	365.938	239.025	290.465	425.408	0.00067956	0.0017268	1.9657e-05	166.89	1.7809e-05	2.8623e-06	293.9	62.076	8.8616e-06	1.0565e-05	140.85	65.647	27.812	14.405	4.8241e-06	39.418	0.024655	0.049177	0.013575	326.79	0.00048137	0.00055384	458.46	110.17	0.00046371	0.0005578	221.68	97.573	61.649	23.762	0.00049948	53.719	257.170	405.379	113.723	121.353	314.237	318.495	122.179	127.233	313.359	242.016	126.241	130.475	130.969	133.899	288.245	132.629	-8191	255	
29404.566	1	1	0	0	0.087438	0.30772	0.016928	0.065853	0.15567	0.10093	0.072817	0.19317	0.23753	0.065565	0.19139	0.085886	0.17069	0.13158	0.077496	0.15025	-2.5521	-2.4562	-2.725	-2.7292	-2.7479	-2.8917	-2.7083	-2.6354	-2.7792	-2.7521	-2.7708	-2.8333	-2.6125	-2.7896	-2.8771	-2.5271	159.278	343.393	192.255	150.023	416.641	209.083	268.536	351.824	331.523	159.741	168.851	152.075	175.523	350.305	461.802	125.158	0.00056782	0.00062231	0.00021422	164.22	8.9466e-06	4.8935e-06	289.85	60.591	1.1089e-05	8.5561e-06	140.14	64.984	27.199	14.38	9.1992e-06	39.038	0.024736	0.04916	0.013595	324.93	0.00048363	0.00055456	456.8	109.55	0.00046916	0.0005648	221.8	97.419	61.988	23.863	0.00050843	53.771	269.631	418.545	447.791	121.068	301.574	192.707	121.659	127.520	463.577	318.654	125.926	130.526	131.289	134.362	396.533	132.349	-8191	255	
29404.662	1	1	0	0	0.17141	0.16782	0.18754	0.33751	0.24108	0.24798	0.33169	0.16123	0.17976	0.33595	0.10751	0.25029	0.041852	0.093334	0.21022	0.21606	-2.4188	-2.6292	-2.6479	-2.9333	-2.6937	-2.6937	-2.7313	-2.4042	-2.7875	-2.7521	-2.7104	-2.9021	-2.5333	-2.6771	-3.0854	-2.525	441.518	348.405	392.606	149.537	118.851	383.781	145.473	446.157	258.883	425.757	350.848	461.199	259.857	342.943	117.741	114.035	0.0004461	0.00067751	0.00039583	163.73	3.5065e-06	7.5807e-06	292.39	61.269	2.9622e-06	1.3455e-05	140.93	65.586	27.52	14.574	1.0983e-05	39.257	0.025307	0.050292	0.013941	327.64	0.00049407	0.00056935	461.55	111.17	0.00048036	0.00057596	223.56	98.52	62.557	24.022	0.00051541	54.122	250.068	235.455	190.057	121.471	233.193	224.088	122.065	127.495	331.964	256.872	126.154	130.517	130.933	134.090	267.132	132.551	-8191	255	
29404.783	1	1	0	0	0.14123	0.15497	0.03246	0.19939	0.049639	0.17594	0.044807	0.056373	0.16214	0.28204	0.28358	0.22362	0.10736	0.22301	0.038064	0.29042	-2.4813	-2.5917	-2.5687	-2.8187	-2.575	-2.6437	-2.775	-2.5479	-2.8688	-2.6625	-2.7271	-2.9021	-2.6437	-2.8333	-2.7667	-2.7021	207.836	448.286	252.227	129.739	461.564	415.793	298.223	136.632	265.438	134.943	255.065	115.149	443.469	229.981	320.673	132.439	0.00045956	0.00034162	8.5986e-05	162.27	6.0968e-06	1.3702e-05	289.81	61.091	1.9976e-06	1.1488e-05	140.36	64.846	27.33	14.378	6.9125e-06	39.025	0.025271	0.049961	0.013816	324.86	0.00048129	0.0005523	455.45	108.92	0.00046067	0.00054871	219.96	96.894	60.545	23.577	0.00049311	53.41	266.292	163.311	417.993	121.312	241.169	191.982	121.744	127.380	331.505	211.305	125.756	130.513	130.934	133.894	113.759	132.679	-8191	255	
29404.881	1	1	0	0	0.25535	0.22136	0.018607	0.067511	0.25748	0.21849	0.057886	0.018302	0.20664	0.069393	0.30033	0.13551	0.2164	0.20986	0.17693	0.20053	-2.325	-2.7646	-2.5312	-2.9062	-2.7104	-2.7396	-2.9875	-2.6229	-2.8021	-2.8854	-2.7417	-2.9208	-2.65	-2.7708	-2.8417	-2.7604	341.530	455.007	281.804	244.508	261.717	201.435	122.497	275.793	375.906	232.881	242.511	379.416	432.433	117.851	239.228	421.139	0.00046243	0.00093672	0.00036051	161.81	1.2553e-05	8.6781e-06	290.81	60.993	7.946e-06	2.9156e-06	138.8	64.506	27.466	14.3	3.6947e-06	38.711	0.024308	0.048411	0.013475	322.3	0.00047241	0.00054687	454.27	108.24	0.00045434	0.0005462	218.61	96.201	60.356	23.439	0.00049468	53.094	248.859	292.744	460.223	121.679	338.731	145.994	121.833	127.276	128.878	392.119	125.681	130.659	131.044	133.783	246.280	132.725	-8191	255	
29404.977	1	1	0	0	0.21715	0.16152	0.23631	0.096251	0.030588	0.27824	0.12809	0.089594	0.16049	0.24098	0.24957	0.14022	0.16019	0.11171	0.24136	0.20462	-2.375	-2.8292	-2.4771	-2.8167	-2.8604	-2.7583	-2.8792	-2.7042	-2.6521	-2.8271	-2.5458	-2.7479	-2.75	-2.6729	-2.7771	-2.5625	409.277	364.994	168.181	219.623	390.003	231.745	247.934	356.688	469.386	403.406	417.356	446.714	389.989	422.890	286.366	457.729	0.00058857	0.0019179	0.00017386	161.79	6.4248e-06	1.7381e-07	290.8	61.268	7.6153e-06	1.7135e-05	139.84	64.395	27.676	14.339	1.324e-05	39.118	0.024284	0.048457	0.013521	321.29	0.00047232	0.00055031	457.08	109.81	0.00047066	0.00057089	222.49	97.668	62.553	24.028	0.00052537	53.959	236.275	464.724	343.766	121.250	406.254	219.887	121.946	127.531	240.837	203.589	125.917	130.292	129.888	134.266	270.681	132.248	-8191	255	
29405.072	1	1	0	0	0.18716	0.15904	0.042342	0.11368	0.031454	0.30491	0.12416	0.1231	0.15132	0.2473	0.058769	0.23987	0.18067	0.01426	0.10064	0.050636	-2.25	-2.7604	-2.5396	-2.7771	-2.7438	-2.5583	-2.7	-2.6958	-2.6917	-2.8979	-2.7021	-2.8167	-2.8833	-2.375	-2.8896	-2.5333	245.982	284.479	178.668	282.594	184.553	283.391	157.830	167.625	277.877	156.652	196.520	190.457	440.099	305.567	382.361	346.768	0.00052474	0.0010564	8.0682e-05	163.05	7.0049e-06	1.5456e-05	293.1	61.942	4.8866e-06	2.3869e-06	141.86	65.364	28.188	14.548	8.459e-06	39.381	0.025926	0.052209	0.014505	334.21	0.00050857	0.00059012	468.03	112.68	0.00048622	0.00058518	226.33	98.821	63.379	24.357	0.00052964	54.531	244.118	205.773	328.563	121.553	245.004	283.025	121.919	127.600	207.298	280.723	125.985	130.575	130.869	134.035	260.863	132.498	-8191	255	
29405.168	1	1	0	0	0.062374	0.31467	0.075969	0.21302	0.32334	0.22164	0.25721	0.27459	0.12791	0.11355	0.096506	0.056723	0.18054	0.21396	0.20381	0.19082	-2.1646	-2.8063	-2.4833	-2.7188	-2.7979	-2.5021	-2.8125	-2.7167	-2.75	-2.8625	-2.7083	-2.5938	-2.9292	-2.6854	-2.9208	-2.8729	364.066	195.517	446.972	150.575	133.600	321.961	407.798	329.358	442.001	405.137	392.447	158.410	225.770	388.829	390.017	460.004	0.00040934	0.0011181	3.187e-05	164.89	8.4198e-06	8.7259e-06	293.53	62.591	8.5745e-06	5.8527e-06	141.06	65.447	27.862	14.423	4.238e-06	39.16	0.026152	0.052265	0.014549	334.45	0.00050594	0.00058404	464.55	111.95	0.00047859	0.00057698	223.77	97.808	61.948	23.888	0.00050738	53.847	250.184	330.101	357.442	121.526	398.431	435.468	121.584	127.221	275.302	210.475	125.813	130.416	130.888	133.958	310.684	132.394	-8191	255	
29405.264	1	1	0	0	0.072287	0.15009	0.19196	0.16294	0.43288	0.13653	0.19069	0.19181	0.033759	0.10098	0.04554	0.23732	0.1127	0.079875	0.20856	0.19439	-2.1417	-2.7667	-2.6542	-2.8458	-2.95	-2.5417	-2.95	-2.7104	-2.7479	-2.9604	-2.6646	-2.7188	-2.7771	-2.5021	-2.9813	-2.8646	444.425	207.709	368.529	125.804	426.508	304.281	181.057	437.263	386.402	224.308	358.933	166.605	414.383	387.850	155.971	391.573	0.00043173	0.00033192	0.00039267	163.88	8.6643e-06	2.9002e-06	291.46	61.458	7.4611e-06	2.7179e-06	140.4	64.285	27.427	14.368	5.2052e-06	38.854	0.025033	0.050047	0.013832	325.59	0.00048108	0.00055519	456.13	109.38	0.00046011	0.00055834	220.6	96.541	61.291	23.725	0.00050361	53.35	240.795	193.226	112.708	120.988	436.194	205.299	122.071	127.388	170.482	338.010	125.921	130.326	131.210	134.064	446.568	132.744	-8191	255	
29405.383	1	1	0	0	0.10919	0.16572	0.10924	0.022367	0.014381	0.30566	0.1635	0.06095	0.088916	0.21196	0.24777	0.13805	0.12776	0.070779	0.26657	0.13503	-2.2104	-2.7667	-2.5875	-2.6208	-2.8021	-2.6125	-2.6979	-2.5604	-2.575	-2.9688	-2.775	-2.7875	-2.975	-2.55	-2.7188	-2.8917	268.720	336.092	364.633	450.463	313.541	177.445	345.177	110.012	236.367	453.094	120.754	333.191	252.106	464.006	115.388	421.342	0.00041653	0.00071198	0.00018804	160.96	2.4516e-06	3.9882e-06	288.43	60.79	5.208e-06	1.0838e-05	139.33	63.978	27.283	14.206	5.3839e-06	38.58	0.024953	0.049796	0.01372	323.82	0.0004818	0.00055625	454.05	108.53	0.00046373	0.00055852	219.44	96.035	61.164	23.653	0.00050839	53.244	259.283	246.937	409.640	121.006	313.715	408.585	121.639	127.655	300.524	138.721	126.284	130.752	130.865	133.885	371.481	132.416	-8191	255	
29405.479	1	1	0	0	0.1647	0.13015	0.11703	0.26167	0.11767	0.14722	0.23726	0.031135	0.27896	0.23186	0.33239	0.14508	0.11479	0.11384	0.28841	0.23762	-2.1063	-2.8479	-2.5479	-2.6	-2.6896	-2.6646	-2.7542	-2.6708	-2.5083	-2.8125	-2.7167	-2.7583	-2.9708	-2.5604	-2.7729	-2.8833	160.309	263.372	276.651	317.953	223.688	221.474	153.167	306.186	332.167	306.372	433.616	458.607	159.686	110.946	396.755	414.001	0.00042218	0.0011948	2.5872e-05	162.01	1.2937e-05	9.3045e-06	289.32	61.036	6.5706e-06	1.6165e-05	138.7	64.117	27.121	14.142	8.8042e-06	38.823	0.025406	0.050924	0.014284	332.91	0.00051736	0.00059813	465.55	112.33	0.00049727	0.00059424	223.84	97.46	62.697	23.862	0.00052506	53.598	254.991	168.663	431.039	121.767	242.854	261.873	121.296	126.850	203.833	212.534	126.129	130.613	131.153	134.017	250.068	132.302	-8191	255	
29405.576	1	1	0	0	0.22044	0.31515	0.23887	0.50041	0.22292	0.17526	0.13687	0.062296	0.096274	0.098639	0.21607	0.17379	0.25029	0.074848	0.25253	0.035859	-2.1917	-2.7583	-2.5354	-2.6104	-2.8854	-2.5583	-2.6854	-2.8229	-2.4833	-2.6917	-2.7021	-2.4292	-2.8312	-2.6646	-2.6458	-2.7833	218.934	446.129	398.840	456.923	411.385	446.542	166.409	376.908	241.357	208.829	369.096	399.728	245.307	363.688	378.455	125.946	0.00038949	0.00041196	0.00039145	161.84	2.3161e-06	9.422e-06	287.73	60.38	4.5645e-06	9.2475e-06	139.67	63.852	27.068	14.162	1.4759e-05	38.585	0.026065	0.05185	0.01434	331.07	0.00050782	0.00058371	461.91	110.89	0.00048582	0.00057854	222.26	96.636	61.751	23.622	0.00051181	53.316	241.637	417.109	186.448	121.463	359.883	285.914	121.922	127.176	296.029	115.718	125.820	130.707	131.257	134.176	349.315	132.808	-8191	255	
29405.646	1	1	0	0	0.087709	0.17039	0.061199	0.2136	0.27348	0.11709	0.2283	0.30763	0.2127	0.036494	0.20411	0.16965	0.18251	0.2194	0.22936	0.10284	-2.2083	-2.5187	-2.6125	-2.525	-2.7271	-2.5104	-2.7438	-2.7854	-2.6917	-2.7125	-2.8375	-2.5687	-2.7667	-2.5729	-2.6896	-3.0333	176.894	149.774	206.547	257.249	320.280	260.996	252.845	271.295	345.844	334.093	303.193	455.526	131.979	295.636	276.330	422.477	0.00041462	9.1634e-05	0.00032195	163.3	8.2334e-06	1.2966e-05	291.05	60.829	3.3966e-06	2.7336e-06	139.56	63.67	27.09	14.257	8.7087e-06	38.739	0.025382	0.050519	0.013978	328.44	0.00049105	0.00056701	458.75	110.13	0.00047444	0.0005694	221.64	96.621	61.952	23.786	0.00051784	53.623	259.533	385.734	177.570	121.090	248.022	178.479	121.886	127.248	351.793	459.133	126.002	130.506	131.040	133.861	221.016	132.428	-8191	255	
29405.744	1	1	0	0	0.23092	0.2683	0.23024	0.1781	0.029593	0.24764	0.076704	0.14678	0.081409	0.16887	0.28242	0.27968	0.16514	0.1195	0.25649	0.12432	-2.075	-2.7375	-2.8271	-2.5938	-2.8292	-2.6562	-2.5333	-2.7292	-2.5271	-2.7542	-2.7771	-2.5479	-2.8375	-2.6771	-2.5729	-3.0875	375.814	410.979	252.543	459.403	237.910	206.128	452.931	180.629	277.569	392.004	423.161	413.691	438.569	198.521	303.189	433.399	0.00033466	0.00054946	0.00011129	161.05	9.0978e-06	2.3908e-06	289.65	61.76	7.7748e-06	9.0523e-06	139.8	63.803	27.135	14.325	2.1645e-06	38.86	0.025727	0.051159	0.014244	331.19	0.00050249	0.00057895	462.66	112.05	0.00048773	0.00058775	224.64	97.571	62.923	23.98	0.00052622	53.97	262.583	142.462	263.362	121.228	276.476	353.239	121.837	127.571	288.356	255.984	125.814	130.713	130.736	134.025	236.807	132.400	-8191	255	
29405.863	1	1	0	0	0.18413	0.12596	0.14042	0.079082	0.16022	0.13595	0.091433	0.27435	0.096072	0.05544	0.11955	0.090528	0.16376	0.103	0.16873	0.19572	-2.0979	-2.6646	-2.8625	-2.4667	-2.8833	-2.675	-2.5479	-2.6917	-2.7292	-2.6792	-2.8271	-2.7833	-2.65	-2.7042	-2.5833	-2.9021	236.865	348.316	134.672	369.153	408.359	119.747	337.098	273.977	175.471	235.312	412.428	121.220	399.523	330.075	196.792	413.896	0.0004803	0.00063492	0.00019438	161.61	5.5294e-06	1.3075e-05	291.81	61.639	2.0019e-06	4.5989e-06	140.58	64.349	27.245	14.276	1.555e-06	39.006	0.025766	0.051384	0.014318	331.03	0.00050056	0.00057884	463.5	111.76	0.00048655	0.00058337	224.78	97.752	62.569	24.029	0.00052623	54.011	261.551	420.532	123.788	120.984	168.194	239.768	122.140	127.259	386.386	327.167	125.687	130.439	131.227	134.075	143.991	132.471	-8191	255	
29405.961	1	1	0	0	0.096021	0.079532	0.15694	0.18344	0.13967	0.07315	0.13729	0.072114	0.071792	0.19355	0.057829	0.079827	0.19469	0.31031	0.14173	0.25339	-2.2958	-2.65	-2.8167	-2.7333	-2.6167	-2.8396	-2.4688	-2.9896	-2.7979	-2.5417	-3.025	-2.6417	-2.6667	-2.8146	-2.2125	-2.9354	448.229	271.323	150.788	255.114	445.324	419.643	290.260	174.541	321.199	319.872	337.627	341.778	299.301	369.137	251.504	418.262	0.0004683	0.0010937	0.00025828	162.61	4.7296e-06	9.46e-06	290.6	61.324	6.1321e-06	1.6412e-05	140.83	64.874	27.566	14.375	4.9828e-06	38.943	0.025904	0.051992	0.014419	332.89	0.00050675	0.0005861	464.83	112.15	0.00048731	0.00058575	224.78	97.962	62.764	24.085	0.00052766	54.065	240.351	199.276	253.629	121.534	369.059	188.831	121.585	127.761	360.159	287.977	126.137	130.621	130.967	134.084	327.449	132.262	-8191	255	
29406.057	1	1	0	0	0.08567	0.34619	0.09482	0.066578	0.072379	0.2902	0.18871	0.12095	0.37844	0.17061	0.13607	0.074232	0.053827	0.21182	0.17349	0.032709	-2.0333	-2.6333	-2.7792	-2.8729	-2.5375	-2.8417	-2.3667	-2.7625	-2.7125	-2.5958	-2.8042	-2.7042	-2.6646	-2.7687	-2.6229	-2.8688	303.084	371.061	259.760	279.064	143.090	386.159	143.009	462.128	174.655	258.824	280.810	172.922	167.373	369.645	379.151	192.262	0.00045229	0.0012064	0.00023143	163.98	3.8789e-06	7.0379e-07	289.32	61.113	6.056e-06	1.5822e-05	139.69	64.195	27.066	14.319	1.5994e-05	38.926	0.025948	0.052084	0.014459	332.87	0.00050512	0.00058436	462.89	111.35	0.00048331	0.00058386	223.32	97.415	62.586	24.066	0.00052933	53.955	249.675	468.271	194.631	121.846	455.130	126.071	121.602	127.580	367.229	277.240	126.090	130.506	131.435	134.004	397.403	132.427	-8191	255	
29406.178	1	1	0	0	0.072778	0.17107	0.12704	0.24819	0.15233	0.15403	0.21491	0.27353	0.36599	0.30724	0.15681	0.27257	0.27989	0.38891	0.26515	0.15463	-2.3958	-2.5333	-2.6437	-2.575	-2.55	-2.8125	-2.575	-2.8167	-2.8083	-2.6667	-2.8125	-2.5958	-2.4917	-2.775	-2.6646	-2.7833	279.229	157.719	182.997	312.735	137.353	287.973	353.629	412.494	433.801	138.056	309.644	118.597	463.700	469.354	309.197	388.533	0.00059104	0.0014038	0.00035488	161.37	1.0267e-05	2.6385e-06	287.73	61.281	3.8942e-06	5.2612e-06	139.5	64.28	27.375	14.437	1.5819e-05	38.996	0.02614	0.052754	0.014618	332.74	0.00051147	0.00059208	464.14	112.19	0.00049296	0.00059503	224.12	98.32	63.566	24.405	0.00054216	54.291	246.479	270.710	189.089	121.417	364.703	208.742	121.794	127.468	451.719	375.776	125.989	130.786	131.365	133.815	308.070	132.708	-8191	255	
29406.248	1	1	0	0	0.038967	0.17783	0.29227	0.11419	0.10643	0.10037	0.14363	0.21864	0.1022	0.14376	0.27774	0.20809	0.077172	0.24922	0.26856	0.12116	-2.4167	-2.525	-2.7208	-2.7729	-2.5896	-2.7646	-2.6792	-2.75	-2.7938	-2.625	-2.8771	-2.6833	-2.6937	-2.8229	-2.5021	-2.5687	184.021	255.008	192.212	412.936	459.741	426.900	454.153	167.438	354.055	254.959	354.768	156.862	311.424	139.486	447.306	442.891	0.00051753	0.00055072	0.00029054	161.88	1.0419e-05	9.3571e-06	290.4	61.173	4.7409e-06	4.9031e-06	140.3	65.3	28.272	14.569	1.1875e-05	39.254	0.026929	0.054258	0.01514	338.24	0.00053659	0.00062631	474.46	115.35	0.00052421	0.00063597	230.14	100.79	65.955	24.996	0.00056756	55.196	246.695	222.678	143.390	121.380	267.200	256.986	121.898	127.410	314.199	347.652	126.292	130.715	130.647	134.318	261.963	132.528	-8191	255	
29406.346	1	1	0	0	0.29895	0.2853	0.20553	0.23309	0.11086	0.28402	0.07337	0.11085	0.14771	0.1533	0.22532	0.33835	0.13621	0.17501	0.0045147	0.12146	-2.4458	-2.4271	-2.8021	-2.5958	-2.5583	-2.8958	-2.6104	-2.6208	-2.9979	-2.5646	-2.8104	-2.6771	-2.5812	-2.8542	-2.6167	-2.7979	350.705	328.013	335.041	158.418	404.823	432.878	288.212	415.405	436.596	225.358	426.668	402.158	466.989	467.646	254.970	186.485	0.00046996	0.00070074	0.00017731	162.52	9.5782e-07	4.8399e-06	288.35	61.43	3.695e-06	9.5165e-06	139.75	65.25	27.539	14.643	6.0951e-06	39.258	0.02801	0.055932	0.01548	343.19	0.00054757	0.00063105	474.38	115.48	0.00052689	0.00063528	230.27	100.94	65.867	25.004	0.00056504	55.101	254.409	250.930	172.842	121.531	277.128	399.169	121.611	127.622	300.346	357.820	125.885	130.676	130.715	133.812	231.690	132.675	-8191	255	
29406.465	1	1	0	0	0.12882	0.289	0.088613	0.037151	0.10713	0.14785	0.094678	0.20089	0.28352	0.15418	0.10355	0.066062	0.1572	0.34904	0.2428	0.056832	-2.35	-2.4583	-2.7396	-2.7021	-2.5458	-2.9354	-2.575	-2.6458	-2.8792	-2.6417	-2.7104	-2.9896	-2.4521	-2.9229	-2.6271	-2.6312	136.340	292.752	423.114	199.947	402.233	272.450	306.571	436.975	394.048	306.872	444.265	109.686	346.239	114.663	372.611	212.819	0.00067251	0.0010887	0.00011954	162.73	4.8006e-06	1.136e-05	288.99	61.109	5.5951e-06	2.9621e-06	140.74	64.786	27.846	14.58	7.4947e-06	39.214	0.028169	0.056393	0.015595	344.84	0.00055243	0.00063634	475.53	115.49	0.00052612	0.00063029	229.36	100.51	65.538	24.841	0.00055591	54.861	247.925	351.082	211.047	121.112	165.945	207.516	121.678	127.195	296.712	160.177	125.953	130.386	131.404	134.214	466.628	132.563	-8191	255	
29406.561	1	1	0	0	0.075124	0.059499	0.14948	0.17116	0.091413	0.16587	0.22711	0.30411	0.13297	0.036296	0.13049	0.2458	0.25817	0.023695	0.14502	0.086309	-2.3396	-2.5646	-2.6146	-2.6271	-2.5292	-2.8354	-2.6583	-2.4208	-2.7917	-2.6437	-2.8625	-2.8458	-2.4979	-2.85	-2.7958	-2.55	136.269	332.056	341.303	392.654	284.813	192.875	272.768	359.048	260.549	369.565	354.595	421.344	406.235	109.258	256.952	404.485	0.00064225	0.0018608	7.9155e-05	161.82	4.4009e-06	6.3225e-06	289.35	61.376	3.452e-06	5.6912e-06	141.36	65.115	27.939	14.501	2.0856e-05	39.147	0.027715	0.055537	0.015338	342.39	0.00054247	0.00062553	473.81	115.77	0.00053005	0.0006363	231.07	101.53	66.7	25.143	0.00057823	55.353	261.320	457.340	435.341	122.213	434.948	231.757	121.587	127.105	126.372	199.633	125.927	130.379	131.514	133.967	252.046	132.635	-8191	255	
29406.656	1	1	0	0	0.019006	0.19011	0.12154	0.19893	0.19706	0.11899	0.19385	0.27275	0.0407	0.17807	0.23103	0.087182	0.054376	0.15638	0.11828	0.22633	-2.3729	-2.4625	-2.5417	-2.8125	-2.6063	-2.6125	-2.7542	-2.4854	-2.8333	-2.7729	-2.75	-2.8104	-2.7167	-2.6562	-2.6292	-2.4333	336.633	393.492	170.575	114.803	139.272	411.719	460.132	403.788	215.892	329.928	328.615	132.791	234.122	461.933	412.861	378.709	0.00041025	0.00034977	0.00024269	161.97	5.7507e-06	1.422e-06	291.12	62.037	8.1761e-06	2.7157e-06	141.76	66.729	28.427	14.775	8.0365e-06	39.766	0.028647	0.056902	0.015766	348.62	0.00056178	0.00064573	481.55	118.2	0.00054639	0.0006569	235.54	103.7	68.791	25.872	0.00060782	56.802	261.633	304.174	251.639	121.509	290.026	418.540	121.439	127.171	275.929	228.656	125.813	130.479	131.749	134.223	351.629	132.558	-8191	255	
29406.777	1	1	0	0	0.075916	0.065615	0.17446	0.11917	0.12893	0.10008	0.045139	0.054996	0.079032	0.26593	0.15223	0.18691	0.14552	0.13099	0.14932	0.22982	-2.5229	-2.5542	-2.5229	-2.8042	-2.5708	-2.7646	-2.7667	-2.5771	-2.7833	-2.7479	-2.6271	-2.9917	-2.6813	-2.7771	-2.9104	-2.65	163.572	348.701	136.575	300.545	186.323	190.661	375.706	397.254	121.878	185.810	116.071	387.102	264.600	299.037	410.855	378.971	0.00059849	0.0011356	8.9858e-05	164.36	7.2911e-06	3.3597e-06	293.98	62.704	1.3329e-05	4.1989e-06	142.39	66.47	28.155	15.001	1.0063e-05	39.926	0.030221	0.060383	0.016806	361.19	0.00059196	0.00068041	492.57	120.87	0.00056882	0.00068006	238.96	104.9	69.39	26.022	0.00060744	56.903	253.110	300.961	343.743	120.793	228.034	333.434	121.586	127.474	284.904	259.058	126.094	130.387	130.780	134.006	294.121	132.532	-8191	255	
29406.873	1	1	0	0	0.16894	0.11192	0.10986	0.20107	0.14344	0.12508	0.018476	0.13932	0.12858	0.21057	0.10518	0.25083	0.21856	0.2795	0.15402	0.2307	-2.3	-2.8083	-2.5167	-2.7062	-2.6646	-2.7667	-2.7	-2.6063	-2.9167	-2.8042	-2.4167	-3.1146	-2.575	-2.7458	-3.0229	-2.7333	425.167	138.959	184.926	439.048	294.402	242.721	125.433	315.504	181.949	285.348	380.504	375.103	436.690	409.421	271.522	381.051	0.00039727	0.00016354	0.00029686	166.21	6.4321e-06	1.7104e-05	292.75	62.689	6.2863e-06	6.68e-06	142.4	66.208	28.348	14.86	2.6166e-06	39.633	0.029941	0.059672	0.016666	360.21	0.00058829	0.00068166	493.3	121.3	0.0005715	0.00068939	239.42	104.77	69.72	26.038	0.0006127	56.617	249.172	111.392	426.112	121.025	232.600	278.835	121.839	127.553	304.150	194.479	126.004	130.344	132.101	133.995	337.984	132.746	-8191	255	
29406.943	1	1	0	0	0.091026	0.077143	0.24983	0.1545	0.10227	0.093342	0.093247	0.15786	0.10471	0.12682	0.20039	0.16706	0.31319	0.20968	0.19342	0.33439	-2.4458	-2.7354	-2.4375	-2.8688	-2.6583	-2.6083	-2.8729	-2.6125	-2.7604	-2.75	-2.5625	-2.7438	-2.7083	-2.4813	-2.7958	-2.6333	222.219	274.563	423.216	454.221	343.179	290.381	159.577	174.984	230.374	416.089	183.358	189.784	207.909	256.311	385.602	408.748	0.00062743	0.0015002	0.00010214	162.59	1.0618e-05	1.645e-05	292.57	62.07	1.0798e-05	1.4147e-05	141.45	66.411	28.212	14.721	1.3319e-05	39.355	0.029939	0.059674	0.016583	356.78	0.0005775	0.00066843	487.4	119.5	0.00055612	0.00066904	236.48	103.82	68.413	25.722	0.00060181	56.088	241.715	190.702	124.545	121.762	307.773	193.281	121.483	127.386	335.313	123.980	126.259	130.310	130.961	134.263	384.313	132.605	-8191	255	
29407.041	1	1	0	0	0.079491	0.070622	0.16864	0.077402	0.31276	0.12028	0.21946	0.15412	0.14602	0.22973	0.24491	0.083825	0.32198	0.19846	0.099968	0.27486	-2.3667	-2.7396	-2.4458	-2.8063	-2.6292	-2.4062	-2.8875	-2.5354	-2.7583	-2.9083	-2.6688	-2.8854	-2.7542	-2.6688	-2.7708	-2.7896	377.736	209.919	236.879	143.824	300.490	184.810	466.511	451.801	294.720	459.246	455.217	111.790	139.211	189.918	374.213	121.695	0.0005594	0.00058953	0.0002941	162.48	8.9068e-06	1.1931e-05	290.34	61.837	5.3214e-06	1.0477e-05	141.48	66.134	27.743	14.706	6.7711e-06	39.279	0.029496	0.059206	0.016438	353.67	0.00057232	0.00066548	485.5	118.78	0.00055358	0.00066688	236.13	103.24	68.172	25.599	0.00059632	55.87	253.155	442.044	467.298	121.833	241.859	356.025	121.452	127.221	289.653	209.504	125.851	130.634	131.502	133.364	345.177	132.331	-8191	255	
29407.160	1	1	0	0	0.22593	0.081503	0.24347	0.24778	0.1689	0.049176	0.35891	0.40117	0.084651	0.23077	0.020573	0.038782	0.27915	0.098812	0.17494	0.051967	-2.0125	-2.7146	-2.425	-2.7417	-2.6729	-2.8417	-2.8604	-2.6708	-2.6562	-2.7417	-2.5917	-2.7583	-2.7479	-2.5521	-2.9021	-2.7438	264.050	367.913	387.633	335.599	230.274	356.775	385.559	120.142	116.583	292.845	310.646	259.101	300.801	163.546	245.551	284.639	0.00053007	0.00089861	0.00016806	161.45	7.0283e-06	7.8229e-06	288.54	61.01	4.3814e-06	7.45e-06	140.13	65.501	28.194	14.646	5.3692e-06	39.512	0.029188	0.05825	0.01622	349.95	0.00056265	0.0006518	480.24	116.8	0.00053998	0.00065276	232.94	102.2	67.068	25.375	0.00058389	55.822	244.284	222.282	205.445	121.888	309.049	255.213	121.757	127.266	464.774	396.997	125.906	130.262	131.370	134.070	356.152	132.662	-8191	255	
29407.258	1	1	0	0	0.18021	0.21934	0.16898	0.1518	0.15331	0.22579	0.043273	0.045297	0.24105	0.10635	0.16473	0.22159	0.31981	0.18177	0.055286	0.31624	-2.1146	-2.8229	-2.6458	-2.7583	-2.7208	-2.5104	-2.8833	-2.6604	-2.7396	-2.575	-2.6	-2.7229	-2.675	-2.5	-2.7271	-2.6542	368.059	423.611	361.261	129.752	411.552	350.663	186.581	358.560	365.850	224.665	328.575	434.487	115.194	467.358	181.879	408.458	0.00050038	0.00059905	0.00011239	163.28	1.2406e-06	5.1506e-06	294.07	62.435	5.5549e-06	9.6952e-06	141.7	66.276	28.807	14.775	8.4523e-06	39.582	0.02886	0.058169	0.016197	352.87	0.00057266	0.00066524	486.91	119.63	0.00055639	0.00067238	236.57	103.31	68.586	25.819	0.00060084	56.226	262.787	209.378	206.191	121.350	409.972	271.223	121.829	127.075	444.348	257.130	125.854	130.283	130.458	134.389	212.921	132.411	-8191	255	
29407.354	1	1	0	0	0.12303	0.21089	0.16821	0.19936	0.17382	0.03868	0.036928	0.26253	0.18406	0.17199	0.27392	0.1775	0.18883	0.12339	0.046836	0.17879	-1.9229	-2.6979	-2.4604	-2.6562	-2.7188	-2.4729	-2.8167	-2.6104	-2.4688	-2.8104	-2.6333	-2.6	-2.7104	-2.3333	-2.6833	-2.6896	284.037	450.266	190.006	205.719	394.858	173.880	116.387	381.866	120.672	116.979	364.606	420.280	399.757	307.631	254.277	127.591	0.00059793	0.00050787	0.00032976	165.37	4.4675e-06	8.3853e-06	293.43	62.83	1.1901e-05	1.0319e-05	142.74	66.294	28.83	14.754	9.1488e-06	39.508	0.02959	0.059509	0.016408	356.11	0.0005794	0.00067352	487.62	120.12	0.00055764	0.00067183	236.67	103.37	68.385	25.665	0.00058836	55.875	251.422	115.578	211.209	121.399	137.096	209.271	121.765	127.563	252.858	393.397	126.005	130.680	130.596	133.898	324.229	132.483	-8191	255	
29407.447	1	1	0	0	0.26279	0.16615	0.21655	0.06409	0.21297	0.2593	0.22885	0.23042	0.16848	0.21768	0.32193	0.21488	0.23496	0.1774	0.1893	0.46173	-2.0479	-2.7542	-2.5729	-2.5979	-2.7979	-2.5229	-2.8521	-2.5833	-2.475	-2.7646	-2.5354	-2.6583	-2.5062	-2.4729	-2.7146	-2.8708	350.967	365.252	246.032	178.256	304.335	265.637	282.179	427.728	333.481	125.754	325.829	449.444	409.487	363.161	123.589	431.925	0.00041023	0.00034956	0.00012605	163.84	7.7728e-06	8.1553e-06	288.89	62.494	9.7197e-06	1.5461e-05	141.4	66.224	28.115	14.692	2.307e-06	39.37	0.029105	0.058374	0.01608	351.71	0.00057062	0.00066203	484.8	119.69	0.00056117	0.00067786	237.64	104.08	69.342	25.916	0.00061319	56.564	248.828	198.124	156.808	121.112	329.494	374.240	121.718	127.022	217.211	150.639	125.958	130.364	130.715	133.888	270.615	132.614	-8191	255	
29407.545	1	1	0	0	0.05671	0.15264	0.077617	0.29161	0.090222	0.1038	0.12699	0.24981	0.26134	0.10266	0.13124	0.024871	0.30357	0.15701	0.28945	0.18354	-2.0896	-2.6813	-2.5563	-2.4583	-2.7438	-2.6229	-2.7833	-2.8208	-2.5312	-2.7438	-2.6833	-2.4188	-2.725	-2.5167	-2.7521	-2.7646	134.052	327.376	348.021	452.061	110.594	128.830	171.944	360.304	377.832	461.625	282.582	443.420	306.470	155.977	245.529	300.976	0.00046997	0.0014523	0.00032775	164.32	4.4531e-06	6.0477e-06	291.94	62.345	9.4993e-06	7.0786e-06	142.54	66.435	28.592	14.939	7.8601e-06	39.865	0.030414	0.060672	0.016837	360.9	0.00059753	0.00069212	493.32	122.08	0.0005864	0.00070734	241.86	105.99	71.757	26.612	0.00064473	57.557	254.870	319.425	172.226	121.385	455.515	312.775	121.702	127.614	289.168	193.098	125.594	130.258	131.232	134.222	294.465	132.311	-8191	255	
29407.641	1	1	0	0	0.05697	0.047381	0.16449	0.18698	0.17784	0.17998	0.13022	0.32484	0.18193	0.088306	0.24981	0.13515	0.079759	0.23809	0.23519	0.13894	-2.0396	-2.5333	-2.7854	-2.6354	-2.7604	-2.5104	-2.7125	-2.75	-2.6708	-2.6021	-2.7625	-2.4417	-2.7646	-2.6229	-2.6188	-2.7812	258.281	205.358	149.340	452.006	462.460	156.153	311.299	449.931	151.297	136.749	403.772	373.605	361.460	142.551	398.278	374.067	0.00044883	0.00089664	0.00034986	165.76	7.8401e-06	5.2729e-06	289.85	62.727	8.756e-06	8.0921e-06	141.46	65.968	28.782	14.734	5.2826e-06	39.471	0.032179	0.064299	0.017771	372.47	0.00063117	0.00072605	502.49	124.83	0.00060836	0.00072983	243.39	106.37	72.342	26.621	0.00064985	57.394	259.519	244.197	166.964	121.264	283.011	222.493	121.747	127.510	342.046	458.899	125.749	130.166	130.829	134.032	247.114	132.558	-8191	255	
29407.736	1	1	0	0	0.10747	0.28422	0.040997	0.12084	0.14288	0.1664	0.14741	0.11932	0.26953	0.088373	0.054715	0.17392	0.03172	0.19229	0.23857	0.15575	-1.975	-2.6396	-2.6063	-2.4646	-2.8125	-2.6417	-2.6688	-2.825	-2.3229	-2.8208	-2.9021	-2.5125	-2.7354	-2.6104	-2.5833	-2.8812	216.741	352.757	455.972	457.956	129.319	158.296	206.390	383.403	322.632	215.389	224.578	405.925	208.518	390.432	415.685	343.721	0.00041267	0.00077387	0.00017117	164.09	1.0266e-05	6.8458e-06	293.12	63.258	1.0651e-05	1.1575e-05	141.94	65.975	28.03	14.825	6.1674e-06	39.538	0.032166	0.064049	0.017769	371.91	0.00062731	0.00072269	502.54	125.23	0.00060794	0.00072928	244.06	106.42	72.193	26.556	0.00064687	57.268	245.615	138.185	372.307	121.572	331.569	128.481	121.842	127.372	218.367	211.346	125.852	130.456	131.205	133.608	139.539	132.498	-8191	255	
29407.857	1	1	0	0	0.054289	0.11438	0.24472	0.11374	0.077122	0.19278	0.43534	0.10429	0.10988	0.32655	0.16342	0.060406	0.33231	0.062183	0.077617	0.26962	-2.1562	-2.8333	-2.8417	-2.5292	-2.7167	-2.6792	-2.4646	-2.9208	-2.5958	-2.575	-2.8479	-2.5396	-2.7313	-2.7833	-2.6417	-2.8937	407.651	226.565	139.188	371.112	400.307	132.696	358.755	460.720	112.762	427.806	130.633	396.602	352.230	409.585	354.301	443.324	0.00050108	0.0012278	0.00034221	163.19	1.3846e-05	6.3202e-06	289.53	62.468	6.337e-06	6.5128e-06	142.04	66.22	28.485	14.849	1.4569e-05	39.635	0.031733	0.063059	0.017482	367.95	0.00061516	0.00070569	497.13	123.45	0.00059379	0.00071409	242	105.88	71.305	26.423	0.00064134	57.256	253.203	261.435	208.549	121.799	318.482	219.593	121.864	127.280	283.879	189.266	126.151	130.502	130.943	133.803	194.080	132.248	-8191	255	
29407.953	1	1	0	0	0.0081242	0.17161	0.36772	0.23117	0.17185	0.16125	0.14596	0.27228	0.28404	0.24477	0.21613	0.12612	0.02923	0.10059	0.28325	0.15662	-2.1792	-2.4562	-2.7521	-2.55	-2.7271	-2.6771	-2.4813	-2.7875	-2.7062	-2.5792	-2.8771	-2.5375	-2.5917	-2.7583	-2.6375	-2.8417	171.261	306.924	227.799	415.655	195.419	157.296	441.509	437.911	309.258	308.383	163.344	193.310	332.636	389.557	403.967	354.715	0.00044748	0.00047139	4.6477e-05	165.82	1.5579e-05	2.1731e-06	290.25	63.667	2.4164e-06	1.2106e-05	143.1	66.983	28.807	15.016	7.2581e-06	40.155	0.031542	0.062846	0.017521	368.38	0.00061262	0.00070783	498.12	123.82	0.00059059	0.00071178	243.12	106.53	71.524	26.592	0.00064406	57.691	238.191	185.214	193.539	121.232	166.307	393.821	121.217	127.060	233.102	223.967	126.123	130.412	130.448	134.057	313.333	132.354	-8191	255	
29408.049	1	1	0	0	0.27542	0.072703	0.12454	0.1068	0.16291	0.20229	0.15547	0.19813	0.17162	0.075944	0.11179	0.134	0.23228	0.11721	0.029619	0.072365	-2.0833	-2.5083	-2.825	-2.4917	-2.7521	-2.6042	-2.4271	-2.8104	-2.8479	-2.6021	-2.8292	-2.6083	-2.7417	-2.8417	-2.5062	-2.8104	168.380	332.887	262.451	280.060	283.443	454.311	169.646	318.418	346.789	239.383	205.662	448.507	339.465	319.628	128.298	395.181	0.00048905	0.00038653	5.4708e-05	163.64	1.847e-05	3.833e-06	292.65	62.853	4.3963e-06	1.3476e-05	142.34	66.073	28.782	14.942	5.1195e-06	39.745	0.031436	0.063094	0.017566	367.87	0.00060755	0.00070209	497.06	123	0.00058374	0.0007024	241.18	105.11	70.608	26.388	0.00063226	56.944	244.383	410.304	422.122	121.477	439.743	158.158	121.258	127.425	256.158	404.516	125.922	130.743	131.177	134.057	286.940	132.352	-8191	255	
29408.145	1	1	0	0	0.16424	0.20082	0.068388	0.31327	0.10446	0.28884	0.20987	0.13511	0.050188	0.36345	0.19154	0.11358	0.2742	0.11465	0.12502	0.12533	-2.1542	-2.3438	-2.8333	-2.6167	-2.6875	-2.9125	-2.5687	-2.7375	-2.7313	-2.5521	-2.9146	-2.675	-2.4354	-2.9979	-2.6146	-2.8396	356.278	233.856	407.269	143.150	325.976	357.688	113.378	334.124	240.396	348.949	272.906	380.855	311.408	308.894	262.899	334.219	0.00044894	0.00060048	0.00037039	164.15	6.6118e-06	1.7102e-05	290.34	62.624	1.4252e-05	8.4775e-06	141.6	66.136	28.69	14.883	1.2185e-05	39.584	0.030899	0.062091	0.017198	363.73	0.00060121	0.00069572	494.58	122.23	0.00057882	0.00070163	240.92	105.23	70.822	26.448	0.00063836	57.219	260.594	382.322	123.265	120.923	241.380	398.666	121.745	127.108	249.945	238.789	125.806	130.547	130.943	133.778	252.948	132.489	-8191	255	
29408.242	1	1	0	0	0.20371	0.058281	0.085372	0.30985	0.043473	0.1356	0.29784	0.19961	0.1642	0.10298	0.048186	0.10433	0.09712	0.12901	0.1013	0.13443	-2.3688	-2.6604	-2.9625	-2.6021	-2.4146	-2.7458	-2.6542	-2.6437	-2.7792	-2.4208	-2.6937	-2.6562	-2.5375	-2.7812	-2.4667	-2.7833	347.393	217.656	332.414	330.727	208.014	314.965	444.649	454.018	134.189	297.817	444.592	448.492	444.347	434.723	224.423	443.597	0.00043272	0.000744	0.00023152	165.26	1.0245e-05	5.5031e-06	292.43	63.283	7.3881e-06	2.7705e-06	141.88	66.935	28.406	15.021	9.22e-06	39.83	0.031461	0.063401	0.01757	367.67	0.00061749	0.00071722	500.58	124.38	0.00059254	0.00071663	243.03	106.16	71.337	26.558	0.00063017	57.249	251.503	457.555	392.704	121.315	218.280	458.696	121.741	126.808	329.484	213.709	125.461	130.588	130.827	134.005	115.492	132.109	-8191	255	
29408.338	1	1	0	0	0.22684	0.4827	0.23295	0.13008	0.089573	0.15765	0.081697	0.14541	0.20288	0.039532	0.26225	0.11896	0.14249	0.075577	0.02357	0.22486	-2.3104	-2.475	-2.8583	-2.6875	-2.6292	-2.8125	-2.6417	-2.6458	-2.9688	-2.6208	-2.8396	-2.8396	-2.55	-2.8542	-2.525	-2.675	400.206	325.496	143.946	420.411	227.455	284.266	150.560	433.653	189.431	219.869	385.268	122.786	149.422	261.811	338.372	373.511	0.0005443	0.00097297	0.00016002	165.03	4.1866e-06	2.7191e-06	292.29	63.672	9.7321e-06	1.8226e-05	143.14	66.526	28.415	15.012	6.0637e-06	39.881	0.030927	0.062165	0.017137	362.84	0.00060191	0.00069958	495.96	123.19	0.00058524	0.00070657	242	105.66	70.876	26.371	0.00062693	57.091	256.281	109.885	246.354	121.905	417.599	118.671	122.176	127.602	271.134	206.491	125.875	130.212	130.759	133.618	322.558	132.259	-8191	255	
29408.457	1	1	0	0	0.12512	0.23098	0.035006	0.20042	0.033457	0.14438	0.20491	0.13474	0.051007	0.23483	0.033531	0.2101	0.067439	0.17189	0.072081	0.36819	-2.2771	-2.4333	-2.6708	-2.7062	-2.4917	-2.8958	-2.4917	-2.4688	-2.8521	-2.6917	-2.75	-2.8063	-2.4917	-2.9583	-2.7396	-2.5854	376.136	434.088	211.110	418.617	210.204	448.524	231.169	354.547	122.139	284.217	143.837	370.980	448.457	134.629	375.029	317.070	0.00054092	0.00050404	0.00019171	163.98	6.7921e-06	1.1296e-05	288.58	63.074	5.8388e-06	1.4545e-05	142.31	66.476	28.453	14.971	7.2309e-06	39.806	0.030743	0.061678	0.016985	361.67	0.00059895	0.00069233	493.03	122.21	0.00058191	0.00069733	240.65	105.29	70.984	26.438	0.00063007	57.213	256.700	166.602	121.961	121.308	242.777	176.687	121.815	126.964	269.656	432.420	125.538	130.191	130.362	134.056	150.120	132.424	-8191	255	
29408.553	1	1	0	0	0.32328	0.091371	0.32619	0.15156	0.17395	0.20817	0.1657	0.27889	0.21752	0.39051	0.19875	0.32227	0.21532	0.13045	0.18659	0.08284	-2.3875	-2.6229	-2.5604	-2.475	-2.3229	-2.825	-2.7646	-2.5771	-2.8292	-2.725	-2.6708	-2.8875	-2.5458	-2.7417	-2.5396	-2.5417	436.717	337.792	385.182	415.445	265.482	193.953	354.822	451.303	439.898	122.480	375.959	367.679	448.078	377.495	295.380	326.467	0.00044221	0.0010433	0.00044562	164.63	1.4184e-05	1.5757e-05	291.81	63.305	1.2293e-05	2.1593e-05	142.95	66.14	28.523	15.007	1.1478e-05	39.784	0.031154	0.062282	0.017236	365.05	0.00060706	0.00069714	494.26	122.7	0.00058214	0.00069653	240.85	105.23	71.021	26.457	0.00062938	57.332	261.782	334.199	283.978	121.633	238.280	335.401	121.773	127.312	250.469	244.628	125.931	130.233	131.483	133.975	303.632	132.478	-8191	255	
29408.648	1	1	0	0	0.12376	0.19316	0.17843	0.09413	0.073046	0.15676	0.026942	0.23292	0.16855	0.031574	0.28896	0.28136	0.13332	0.22041	0.20131	0.18286	-2.3875	-2.6104	-2.7083	-2.6125	-2.55	-2.8958	-2.825	-2.5104	-2.8396	-2.6021	-2.6354	-2.8479	-2.4729	-2.8917	-2.7167	-2.5875	222.987	316.572	366.826	430.066	233.040	345.609	215.907	423.719	453.919	236.242	163.342	189.855	229.156	445.724	242.452	398.919	0.00050448	0.00019097	6.9783e-05	165.89	3.9811e-06	1.3781e-05	292.21	63.81	7.3252e-06	8.5896e-06	142.64	66.509	28.553	15.06	5.1949e-06	39.909	0.031555	0.063065	0.017445	368.95	0.00061903	0.00071376	499.83	124.67	0.00059419	0.00071294	243.05	106.08	71.615	26.588	0.00063542	57.533	249.292	119.665	368.910	121.487	447.555	354.623	121.451	127.292	427.166	156.531	125.672	130.783	130.873	133.784	242.276	132.376	-8191	255	
29408.744	1	1	0	0	0.080305	0.20315	0.17483	0.21464	0.11719	0.12893	0.20404	0.12922	0.032289	0.22699	0.23981	0.046314	0.11067	0.32319	0.15894	0.11151	-2.3625	-2.6312	-2.5646	-2.8	-2.6042	-2.775	-2.5646	-2.5854	-2.9	-2.6417	-2.6708	-2.8979	-2.5563	-2.5125	-2.7417	-2.7271	168.136	358.685	151.463	406.496	119.958	345.344	348.819	383.902	334.525	378.570	317.969	399.291	355.223	407.900	396.321	250.645	0.00050287	0.00017923	0.00023427	164.1	2.0503e-05	1.2146e-05	293.57	63.782	1.1816e-05	1.0896e-05	143.35	66.42	28.798	14.998	9.3697e-06	40.009	0.031394	0.062572	0.017326	367.29	0.00061123	0.00070397	497.31	124.07	0.00059012	0.00070799	243.32	106.38	71.523	26.58	0.0006355	57.583	255.935	383.204	287.316	121.398	237.174	246.929	121.828	127.398	304.405	441.849	125.713	130.668	130.056	133.748	392.991	132.339	-8191	255	
29408.842	1	1	0	0	0.19578	0.1999	0.20789	0.10168	0.099198	0.33415	0.29007	0.20612	0.095574	0.14973	0.13491	0.27549	0.071468	0.088952	0.2353	0.011018	-2.3292	-2.6667	-2.6063	-2.7917	-2.7896	-2.8292	-2.6437	-2.4542	-2.8292	-2.5333	-2.6333	-2.9479	-2.5375	-2.7313	-2.7208	-2.5458	155.465	151.596	313.169	351.500	377.050	343.896	369.282	418.448	465.309	457.465	139.563	337.470	390.468	219.531	239.487	418.045	0.00050836	0.00043385	0.00029621	165.51	1.0184e-05	1.2774e-05	291.96	63.674	2.3694e-07	1.3233e-05	142.65	66.399	28.9	15.02	9.0159e-06	39.834	0.031408	0.062596	0.01735	367.22	0.00061178	0.00070462	496.9	123.7	0.00059043	0.00070695	242.24	105.71	71.243	26.515	0.00063778	57.432	248.985	343.540	274.561	121.141	122.271	261.611	121.732	127.263	301.701	414.101	125.848	130.604	130.596	134.076	249.486	132.360	-8191	255	
#DATA ENDS
