BOXY.EXE: ISS Imagent and Oximeter Data Acquisition Program Version 0.80
Ascii Record File

#ACQ INFORMATION
2  Detector Channels 
16  External MUX Channels 
1  Auxiliary Channels 
5000  Waveform (CCF) Frequency (Hz)
1  Waveforms Skipped 
30  Waveforms Averaged 
1  Cycles Averaged 
16  Acquisitions per Waveform 
10.0806  Updata Rate (Hz) 

#FILE INFORMATION
TRUE -- External MUX Channel results are PARSED.
FALSE -- AC DC and Phase are NOT grouped.
TRUE -- Companion Program Settings File CREATED.
FALSE -- AC data not excluded
FALSE -- DC data not excluded
FALSE -- Phase data not excluded
FALSE -- Auxillary Chn. data not excluded
Tab delimiters

#CALIBRATION STATE
TRUE -- Waveform Calibration Values APPLIED.


#AUX CALIBRATION VALUES
Val Type	aux-1	

Term	1.0000e+00	
Factor	0.0000e+00	


#WF CALIBRATION VALUES
A = Detector Channel
Val Type	A-AC1	A-AC2	A-AC3	A-AC4	A-AC5	A-AC6	A-AC7	A-AC8	A-AC9	A-AC10	A-AC11	A-AC12	A-AC13	A-AC14	A-AC15	A-AC16	A-DC1	A-DC2	A-DC3	A-DC4	A-DC5	A-DC6	A-DC7	A-DC8	A-DC9	A-DC10	A-DC11	A-DC12	A-DC13	A-DC14	A-DC15	A-DC16	A-Ph1	A-Ph2	A-Ph3	A-Ph4	A-Ph5	A-Ph6	A-Ph7	A-Ph8	A-Ph9	A-Ph10	A-Ph11	A-Ph12	A-Ph13	A-Ph14	A-Ph15	A-Ph16	

Term	0.00000e+00	0.00000e+00	0.00000e+00	0.00000e+00	0.00000e+00	0.00000e+00	0.00000e+00	0.00000e+00	0.00000e+00	0.00000e+00	0.00000e+00	0.00000e+00	0.00000e+00	0.00000e+00	0.00000e+00	0.00000e+00	0.00000e+00	0.00000e+00	0.00000e+00	0.00000e+00	0.00000e+00	0.00000e+00	0.00000e+00	0.00000e+00	0.00000e+00	0.00000e+00	0.00000e+00	0.00000e+00	0.00000e+00	0.00000e+00	0.00000e+00	0.00000e+00	0.00000e+00	0.00000e+00	0.00000e+00	0.00000e+00	0.00000e+00	0.00000e+00	0.00000e+00	0.00000e+00	0.00000e+00	0.00000e+00	0.00000e+00	0.00000e+00	0.00000e+00	0.00000e+00	0.00000e+00	0.00000e+00	
Factor	1.00000e+00	1.00000e+00	1.00000e+00	1.00000e+00	1.00000e+00	1.00000e+00	1.00000e+00	1.00000e+00	1.00000e+00	1.00000e+00	1.00000e+00	1.00000e+00	1.00000e+00	1.00000e+00	1.00000e+00	1.00000e+00	1.00000e+00	1.00000e+00	1.00000e+00	1.00000e+00	1.00000e+00	1.00000e+00	1.00000e+00	1.00000e+00	1.00000e+00	1.00000e+00	1.00000e+00	1.00000e+00	1.00000e+00	1.00000e+00	1.00000e+00	1.00000e+00	X	X	X	X	X	X	X	X	X	X	X	X	X	X	X	X	

B = Detector Channel
Val Type	B-AC1	B-AC2	B-AC3	B-AC4	B-AC5	B-AC6	B-AC7	B-AC8	B-AC9	B-AC10	B-AC11	B-AC12	B-AC13	B-AC14	B-AC15	B-AC16	B-DC1	B-DC2	B-DC3	B-DC4	B-DC5	B-DC6	B-DC7	B-DC8	B-DC9	B-DC10	B-DC11	B-DC12	B-DC13	B-DC14	B-DC15	B-DC16	B-Ph1	B-Ph2	B-Ph3	B-Ph4	B-Ph5	B-Ph6	B-Ph7	B-Ph8	B-Ph9	B-Ph10	B-Ph11	B-Ph12	B-Ph13	B-Ph14	B-Ph15	B-Ph16	

Term	0.00000e+00	0.00000e+00	0.00000e+00	0.00000e+00	0.00000e+00	0.00000e+00	0.00000e+00	0.00000e+00	0.00000e+00	0.00000e+00	0.00000e+00	0.00000e+00	0.00000e+00	0.00000e+00	0.00000e+00	0.00000e+00	0.00000e+00	0.00000e+00	0.00000e+00	0.00000e+00	0.00000e+00	0.00000e+00	0.00000e+00	0.00000e+00	0.00000e+00	0.00000e+00	0.00000e+00	0.00000e+00	0.00000e+00	0.00000e+00	0.00000e+00	0.00000e+00	-5.38884e+01	-1.31177e+02	-1.26498e+02	-1.80885e+02	-4.76343e+01	-6.44995e+01	-1.57193e+02	-1.62015e+02	-3.86883e+01	-6.83090e+01	-1.71742e+02	-1.71381e+02	-1.82817e+02	-1.77069e+02	-5.51087e+01	-1.50010e+02	
Factor	1.82829e-05	1.46436e-04	4.33054e-05	1.59593e-01	1.61267e-06	1.61574e-06	1.65127e-01	4.62107e-02	1.25789e-06	1.65311e-06	7.56542e-02	2.89867e-02	3.37919e-02	8.42540e-03	1.55012e-06	1.18626e-02	1.36964e-05	2.76091e-05	7.65437e-06	8.35740e-02	2.69207e-07	3.11056e-07	8.12785e-02	2.43328e-02	2.59798e-07	3.12300e-07	3.86475e-02	1.48661e-02	1.78292e-02	4.47273e-03	2.79863e-07	6.10705e-03	X	X	X	X	X	X	X	X	X	X	X	X	X	X	X	X	



#DISTANCE SETTINGS
A = Detector Channel
A-1	A-2	A-3	A-4	A-5	A-6	A-7	A-8	A-9	A-10	A-11	A-12	A-13	A-14	A-15	A-16	

2.5000e+00	3.0000e+00	2.5000e+00	3.0000e+00	2.0000e+00	3.0000e+00	1.5000e+00	3.0000e+00	3.0000e+00	3.0000e+00	3.0000e+00	3.0000e+00	3.0000e+00	3.0000e+00	1.5000e+00	3.0000e+00	

B = Detector Channel
B-1	B-2	B-3	B-4	B-5	B-6	B-7	B-8	B-9	B-10	B-11	B-12	B-13	B-14	B-15	B-16	

1.0000e+01	1.0000e+01	1.0000e+01	1.4400e+00	1.0000e+01	1.0000e+01	1.5100e+00	1.9400e+00	1.0000e+01	1.0000e+01	1.9900e+00	2.4900e+00	2.4100e+00	2.9000e+00	1.0000e+01	2.9800e+00	




#DATA BEGINS
time	group	step	mark	flag	A-AC1	A-AC2	A-AC3	A-AC4	A-AC5	A-AC6	A-AC7	A-AC8	A-AC9	A-AC10	A-AC11	A-AC12	A-AC13	A-AC14	A-AC15	A-AC16	A-DC1	A-DC2	A-DC3	A-DC4	A-DC5	A-DC6	A-DC7	A-DC8	A-DC9	A-DC10	A-DC11	A-DC12	A-DC13	A-DC14	A-DC15	A-DC16	A-Ph1	A-Ph2	A-Ph3	A-Ph4	A-Ph5	A-Ph6	A-Ph7	A-Ph8	A-Ph9	A-Ph10	A-Ph11	A-Ph12	A-Ph13	A-Ph14	A-Ph15	A-Ph16	B-AC1	B-AC2	B-AC3	B-AC4	B-AC5	B-AC6	B-AC7	B-AC8	B-AC9	B-AC10	B-AC11	B-AC12	B-AC13	B-AC14	B-AC15	B-AC16	B-DC1	B-DC2	B-DC3	B-DC4	B-DC5	B-DC6	B-DC7	B-DC8	B-DC9	B-DC10	B-DC11	B-DC12	B-DC13	B-DC14	B-DC15	B-DC16	B-Ph1	B-Ph2	B-Ph3	B-Ph4	B-Ph5	B-Ph6	B-Ph7	B-Ph8	B-Ph9	B-Ph10	B-Ph11	B-Ph12	B-Ph13	B-Ph14	B-Ph15	B-Ph16	aux-1	digaux	

28774.570	1	1	0	256	0.28504	0.05254	0.12888	0.17179	0.087229	0.041519	0.32456	0.26702	0.13483	0.25771	0.24656	0.30593	0.24547	0.15874	0.18917	0.10158	-2.2375	-2.7667	-2.8563	-2.7833	-2.9625	-2.7562	-3.0021	-3.0125	-2.7	-2.8958	-2.9604	-2.4562	-2.9313	-2.6667	-2.6417	-2.9625	122.791	329.417	234.485	325.524	379.764	183.248	367.262	41.060	205.208	276.457	344.545	374.636	148.253	222.898	33.456	70.219	0.00029623	0.00030177	0.00011469	1394.1	4.2013e-06	3.4706e-06	1463.2	277.63	3.5164e-06	3.2617e-06	343.98	97.357	76.782	22.043	4.3954e-06	30.958	0.00064992	0.00095924	0.00027404	1374.1	1.0102e-05	1.1031e-05	1443.5	276.26	9.835e-06	1.1005e-05	344.2	97.826	77.55	22.412	9.8325e-06	31.482	224.628	130.190	106.976	43.835	245.181	194.129	43.828	51.343	207.236	197.726	50.824	57.680	58.047	64.620	212.930	63.873	-8191	255	
28774.668	1	1	0	0	0.22346	0.18539	0.0090248	0.21701	0.24436	0.26197	0.2424	0.067035	0.045407	0.20363	0.084295	0.18071	0.086683	0.11681	0.10988	0.13505	-2.2646	-2.8521	-2.7521	-2.7125	-2.7875	-2.5875	-2.75	-2.9354	-2.6437	-2.8479	-2.8646	-2.7417	-2.8312	-2.5896	-2.7521	-2.9437	181.429	335.427	106.085	335.010	353.464	289.253	303.593	212.208	100.387	254.570	290.867	155.306	320.687	334.472	382.788	298.604	0.00026509	0.00042641	0.00010322	1387.7	2.6644e-06	2.7907e-06	1464	276.72	3.1248e-06	3.2562e-06	345.29	97.09	77.092	22.055	2.9222e-06	31.012	0.00064216	0.00096149	0.00027313	1368.1	1.0151e-05	1.0654e-05	1441	275.72	9.6558e-06	1.086e-05	343.26	97.797	77.525	22.398	9.9456e-06	31.395	226.935	107.655	143.623	43.812	161.807	201.434	44.130	51.262	220.857	201.759	50.823	57.838	58.409	64.553	194.958	64.012	-8191	255	
28774.738	1	1	0	0	0.12424	0.19311	0.44144	0.061285	0.28413	0.22496	0.30337	0.088151	0.11786	0.11765	0.013177	0.067837	0.23057	0.3686	0.18978	0.23161	-2.0375	-2.6854	-2.7396	-2.6854	-3.1146	-2.7875	-2.6562	-2.9813	-2.7125	-2.7104	-2.9021	-2.7625	-2.8333	-2.7542	-2.6271	-3.0542	179.443	230.494	323.128	93.989	298.835	314.169	299.297	307.869	328.197	291.196	87.625	67.461	373.790	133.326	240.907	387.606	0.00025535	0.00025164	5.3212e-05	1384.7	4.1843e-06	3.4654e-06	1457.5	277.08	4.0674e-06	5.5372e-06	344.06	96.791	77.362	21.887	2.4706e-06	30.864	0.00061905	0.00096275	0.0002628	1365.5	1.0211e-05	1.0481e-05	1437.3	275.14	9.5844e-06	1.0545e-05	343.12	97.509	77.503	22.3	9.7836e-06	31.311	224.684	143.938	93.438	43.789	246.137	193.059	44.067	51.118	255.608	195.641	50.841	57.507	58.331	64.595	193.548	63.906	-8191	255	
28774.859	1	1	0	0	0.033999	0.11345	0.13268	0.089521	0.24788	0.21357	0.20482	0.39495	0.14401	0.17504	0.18543	0.28365	0.22873	0.17403	0.15035	0.29519	-2.1792	-2.6375	-2.9333	-2.6813	-2.8542	-2.8708	-2.6896	-2.8438	-2.625	-2.7396	-2.8417	-2.6458	-2.8542	-2.8563	-2.5396	-3.1063	189.522	195.127	100.332	368.675	270.281	151.102	320.258	366.481	386.907	51.653	371.485	212.060	335.822	111.441	130.461	346.788	0.00025333	0.00048478	0.0001096	1383.1	4.8305e-06	5.3845e-06	1453.3	276.96	3.2987e-06	7.5448e-07	342.37	96.771	77.255	22.085	3.7816e-06	30.844	0.00062507	0.00094406	0.00026085	1363.2	9.7728e-06	1.0761e-05	1433.7	274.79	9.7835e-06	1.0659e-05	342.06	97.499	77.43	22.295	9.8768e-06	31.296	226.781	150.907	118.974	44.083	237.525	193.577	44.132	51.071	256.662	141.150	50.656	58.062	58.298	64.502	192.149	63.788	-8191	255	
28774.953	1	1	0	0	0.26674	0.2174	0.14219	0.085283	0.13872	0.031209	0.18698	0.16349	0.1294	0.26341	0.1414	0.092295	0.091738	0.2123	0.35313	0.12168	-2.0625	-2.7208	-3	-2.8375	-2.7875	-2.7979	-2.875	-2.9604	-2.7396	-2.5479	-2.9667	-2.6937	-2.8458	-2.8792	-2.7271	-2.8417	283.963	383.877	312.084	266.633	42.581	39.543	360.427	293.188	154.990	280.869	340.255	83.747	365.183	69.921	129.113	319.725	0.00025597	6.5676e-05	6.2201e-05	1377.1	3.5703e-06	2.1552e-06	1457.8	275.66	3.5661e-06	4.2237e-06	344.05	96.535	76.842	21.948	4.3337e-06	30.768	0.000632	0.0009807	0.00025883	1359.7	1.0286e-05	1.0773e-05	1433.9	273.98	9.744e-06	1.0834e-05	342.36	97.157	77.335	22.284	1.0136e-05	31.248	224.567	154.785	120.845	43.998	203.795	137.764	43.963	51.236	220.625	158.115	50.802	57.851	58.252	64.592	226.291	63.893	-8191	255	
28775.051	1	1	0	0	0.21232	0.11539	0.069515	0.16093	0.057413	0.1921	0.29735	0.14715	0.14487	0.15959	0.18634	0.17295	0.17279	0.049926	0.094911	0.13964	-2.2708	-2.6104	-2.9042	-2.925	-2.7	-2.7354	-2.8229	-3.0938	-2.8354	-2.6354	-3.0687	-2.6854	-2.7667	-2.7542	-2.8229	-2.7625	163.520	279.749	110.915	45.955	168.292	320.641	355.642	308.514	233.386	378.049	391.777	294.875	348.154	369.791	150.596	99.215	0.00023776	0.00041972	8.6787e-05	1382.4	2.4521e-06	3.6211e-06	1454.8	275.74	2.8718e-06	5.2822e-06	341.83	96.371	76.743	21.855	3.0198e-06	30.935	0.00062878	0.00094187	0.00025204	1359.5	9.8047e-06	1.0249e-05	1434.4	273.89	9.5811e-06	1.0552e-05	341.58	97.259	77.12	22.251	9.6629e-06	31.28	228.317	101.231	121.627	43.613	197.097	185.944	44.371	51.178	220.610	210.526	51.022	57.773	58.006	64.495	213.326	63.943	-8191	255	
28775.146	1	1	0	0	0.23433	0.12814	0.21997	0.19419	0.20023	0.22699	0.10336	0.28914	0.14461	0.19835	0.23821	0.087433	0.14616	0.074184	0.15909	0.1588	-2.3854	-2.6583	-2.7896	-2.7625	-2.6521	-2.7958	-2.8833	-2.7958	-2.5229	-2.65	-3.0479	-2.7771	-2.7208	-2.9625	-2.6	-2.6958	382.940	38.372	96.487	323.544	361.415	128.462	154.272	333.761	238.664	59.491	311.430	389.658	339.305	318.399	137.189	227.575	0.00024909	0.00027421	0.00011604	1374.8	7.2195e-06	2.7516e-06	1447.1	275.48	3.7117e-06	6.3726e-06	341.24	96.61	76.77	21.897	4.1122e-06	30.861	0.00061617	0.00094901	0.00025897	1356.2	9.7913e-06	1.0253e-05	1429.2	273.82	9.4014e-06	1.0934e-05	341.38	97.321	77.092	22.253	9.6699e-06	31.245	228.109	116.278	125.919	43.829	217.481	173.707	43.984	51.357	221.362	180.538	50.798	57.785	58.153	64.318	204.619	63.867	-8191	255	
28775.242	1	1	0	0	0.3136	0.021138	0.10505	0.31434	0.16758	0.076908	0.24836	0.053882	0.074361	0.13948	0.1437	0.16991	0.19248	0.177	0.28459	0.1395	-2.2	-2.4688	-2.6604	-2.9333	-2.7333	-3.0104	-2.8917	-2.9167	-2.8229	-2.8208	-2.9938	-2.7521	-2.5854	-2.8563	-2.5604	-2.8229	57.910	328.533	273.408	295.774	359.808	134.953	362.047	392.316	122.594	246.047	121.121	210.668	329.077	372.577	147.163	273.374	0.0002436	0.00041901	6.5641e-05	1374.8	3.1652e-06	4.777e-06	1445.8	275.84	3.3377e-06	4.6396e-06	341.61	96.247	76.327	21.926	4.7626e-06	30.697	0.00062775	0.00095924	0.00025798	1355.2	9.9842e-06	1.0536e-05	1428.5	274.06	9.4036e-06	1.088e-05	340.35	97.217	76.804	22.199	9.6623e-06	31.135	222.311	138.987	129.055	43.856	211.222	184.709	44.049	51.301	214.005	205.340	50.694	57.875	58.307	64.407	209.957	63.871	-8191	255	
28775.363	1	1	0	0	0.29402	0.091033	0.078177	0.26302	0.079628	0.12398	0.28967	0.15513	0.082999	0.063415	0.19661	0.22894	0.20093	0.3077	0.12193	0.2349	-2.5146	-2.6271	-2.8833	-2.9771	-2.5979	-2.9604	-2.8104	-2.7333	-2.9208	-2.3208	-2.925	-2.9313	-2.575	-3.1521	-2.7854	-2.9583	272.729	249.994	257.923	391.840	279.565	313.053	351.522	366.067	43.835	329.897	355.660	244.907	370.982	389.679	300.839	385.496	0.00027539	0.0003654	9.6325e-05	1375.2	3.073e-06	3.3723e-06	1448.5	273.65	3.3108e-06	4.8325e-06	341.59	96.377	76.629	21.76	3.6628e-06	30.919	0.00062507	0.00097414	0.00026704	1354.6	9.7565e-06	1.0766e-05	1427.2	273.05	9.3971e-06	1.0737e-05	340.75	96.948	76.972	22.213	9.8815e-06	31.185	227.466	119.825	129.710	43.852	227.220	176.470	44.243	51.127	219.244	193.935	50.947	57.864	58.046	64.500	238.579	63.808	-8191	255	
28775.436	1	1	0	0	0.13949	0.30873	0.19986	0.34677	0.18001	0.41234	0.17139	0.23058	0.19067	0.22337	0.17932	0.075684	0.12574	0.19954	0.14373	0.28926	-2.3312	-2.6167	-2.9229	-2.9458	-2.7479	-2.7875	-2.9083	-2.7354	-2.9458	-2.75	-3.1375	-2.7333	-2.5125	-2.9229	-2.6375	-2.8625	362.257	104.047	160.920	377.127	251.651	172.703	284.934	332.728	199.907	182.748	262.091	368.866	289.847	255.352	247.135	349.909	0.00025188	0.00020157	0.00012792	1372.5	7.4028e-06	3.1751e-06	1443.3	275.17	2.9309e-06	5.2886e-06	340.32	96.685	76.972	21.829	3.6991e-06	30.711	0.00061426	0.0009329	0.00026371	1353.6	1.0071e-05	1.0525e-05	1423.6	273.56	9.7733e-06	1.0745e-05	339.98	96.791	76.97	22.166	9.8698e-06	31.159	227.273	132.733	100.572	43.859	222.208	168.205	44.141	51.192	241.941	167.140	50.972	58.087	58.324	64.410	202.249	63.694	-8191	255	
28775.531	1	1	0	0	0.076857	0.26666	0.21689	0.26998	0.10803	0.18556	0.25025	0.16353	0.30066	0.0158	0.27914	0.20305	0.38489	0.13394	0.058592	0.14037	-2.4729	-2.4458	-2.7708	-3.1396	-2.6646	-2.875	-2.9125	-2.6625	-2.8958	-2.8312	-2.7458	-2.7188	-2.7188	-2.9625	-2.7458	-2.7521	185.978	342.913	125.620	337.325	102.781	298.412	310.782	308.664	84.569	219.791	314.313	67.526	390.670	115.818	61.955	257.853	0.00025369	0.00020997	5.5488e-05	1367.9	3.3544e-06	3.9523e-06	1444.3	272.8	3.4512e-06	3.7719e-06	340.13	96.096	76.539	21.973	3.7139e-06	30.727	0.00061825	0.00098864	0.00025513	1351.1	1.0229e-05	1.0943e-05	1423.3	272.64	9.4382e-06	1.0973e-05	339.27	97.025	76.747	22.151	9.7311e-06	31.04	226.685	175.505	131.840	43.917	196.007	197.858	44.105	51.228	223.929	170.181	50.899	57.994	58.255	63.965	214.971	64.251	-8191	255	
28775.652	1	1	0	0	0.10824	0.21869	0.28707	0.26926	0.11806	0.14986	0.14747	0.36621	0.088904	0.2584	0.3291	0.15014	0.053462	0.15563	0.14558	0.22987	-2.375	-2.5479	-2.6667	-3.0625	-2.4083	-2.8167	-2.8104	-2.5958	-2.9146	-2.5875	-2.7521	-2.95	-2.5812	-2.8479	-2.7896	-2.7292	104.717	218.731	269.826	358.148	115.327	77.567	390.640	315.910	221.603	258.183	307.356	366.025	155.091	380.973	129.244	228.022	0.00025071	0.0003991	0.00010568	1372.2	6.3432e-06	3.8122e-06	1442.3	274.33	2.9688e-06	5.2693e-06	340.05	95.947	76.16	21.67	5.2336e-06	30.605	0.0006227	0.00096948	0.00026813	1351.6	1.0237e-05	1.1106e-05	1423.1	272.55	9.4545e-06	1.094e-05	339.75	96.637	76.692	22.087	9.8716e-06	31.047	226.708	132.747	149.411	43.861	252.391	152.629	43.974	51.245	254.289	198.351	50.808	58.049	58.344	64.512	223.510	63.763	-8191	255	
28775.748	1	1	0	0	0.13367	0.24335	0.14996	0.23041	0.026207	0.27931	0.34372	0.30257	0.13943	0.051803	0.073039	0.16376	0.18512	0.22065	0.097451	0.095274	-2.3583	-2.4896	-2.6854	-3.0875	-2.5542	-2.7146	-3.0146	-2.7729	-2.8583	-2.6813	-2.8167	-2.9375	-2.6417	-2.8312	-2.9479	-2.7812	95.335	309.094	148.741	342.390	51.850	300.897	315.921	344.229	183.425	279.850	370.811	318.735	43.385	274.522	316.956	290.505	0.00024646	0.00037576	0.00014127	1369.4	5.223e-06	4.4012e-06	1443.3	272.77	4.0186e-06	2.4174e-06	340.02	96.174	75.935	21.711	3.754e-06	30.704	0.00062795	0.00094653	0.00026765	1349.8	1.0249e-05	1.0669e-05	1421.3	272.23	9.6769e-06	1.088e-05	338.83	96.628	76.354	22.081	1.0112e-05	31.062	228.916	89.406	102.844	43.767	232.702	189.681	44.155	51.111	245.254	202.545	50.697	58.318	58.414	64.353	204.717	63.731	-8191	255	
28775.842	1	1	0	0	0.069627	0.25685	0.050371	0.39933	0.1148	0.13607	0.42315	0.14514	0.30019	0.11092	0.41604	0.14995	0.074936	0.13918	0.083543	0.24622	-2.4458	-2.6458	-2.6937	-3.0271	-2.5187	-2.9417	-3.0646	-2.6312	-3.0083	-2.7438	-2.7208	-2.8896	-2.6042	-2.7396	-2.8083	-2.5687	116.026	215.580	248.562	357.391	364.734	237.029	335.865	55.852	138.141	82.685	362.915	129.202	89.630	275.994	67.893	62.560	0.00025059	0.00036345	8.0272e-05	1371.8	6.66e-06	4.8138e-06	1440.3	273.67	2.7359e-06	4.2195e-06	340.72	95.851	76.049	21.882	2.9196e-06	30.572	0.0006384	0.00096603	0.00026974	1350.9	1.0417e-05	1.0987e-05	1418.3	271.93	9.1995e-06	1.0772e-05	339.44	96.699	76.456	22.097	9.5503e-06	30.992	229.471	117.926	132.113	43.932	218.319	178.596	44.094	51.081	234.772	172.058	50.802	57.829	58.039	64.425	214.998	63.740	-8191	255	
28775.939	1	1	0	0	0.13475	0.10415	0.20633	0.34527	0.19779	0.077253	0.31295	0.14725	0.066852	0.25542	0.14093	0.11977	0.10609	0.2791	0.12269	0.067018	-2.3333	-2.6917	-2.5271	-3.0521	-2.5417	-2.6979	-3.1083	-2.6104	-2.6521	-2.8729	-2.6979	-2.8542	-2.6937	-2.7917	-2.8396	-2.8458	195.154	279.354	175.351	382.321	158.627	198.175	367.798	36.897	326.330	43.308	304.490	54.269	354.267	360.198	44.780	159.717	0.00026108	0.00030472	2.9819e-05	1369.6	2.9791e-06	3.6454e-06	1438.3	272.56	3.1623e-06	1.9719e-06	341.55	96.195	75.657	21.748	4.0256e-06	30.322	0.00062553	0.00092968	0.00026784	1348.9	9.9999e-06	1.0251e-05	1417.2	271.55	9.1784e-06	1.0292e-05	339.47	96.497	76.395	22.072	9.2058e-06	30.885	225.991	104.177	155.967	43.982	164.520	222.241	44.101	51.284	218.898	192.473	50.760	57.790	58.357	64.493	209.434	63.951	-8191	255	
28776.035	1	1	0	0	0.13823	0.10897	0.15592	0.21465	0.23794	0.12179	0.39706	0.27655	0.10186	0.23773	0.18129	0.055197	0.11015	0.24829	0.11015	0.17081	-2.225	-2.6937	-2.5542	-3.0625	-2.6917	-2.6562	-3.0729	-2.6188	-2.7313	-2.9958	-2.4688	-3.0271	-2.6667	-2.6042	-2.7917	-2.6562	63.025	160.048	369.800	346.926	85.633	364.402	332.754	56.613	107.058	202.919	336.821	354.325	356.037	117.511	297.390	33.600	0.000232	0.00044846	9.0859e-05	1363.7	3.3215e-06	3.605e-06	1436.9	272.92	4.3092e-06	1.3017e-06	340.01	95.686	75.272	21.73	4.3439e-06	30.531	0.00060244	0.00091334	0.00025865	1345.6	9.7357e-06	1.008e-05	1415	271.43	9.1395e-06	1.0297e-05	338.13	96.41	75.934	22.082	9.2337e-06	30.926	228.633	121.413	125.255	43.988	233.445	207.087	44.159	51.273	249.701	206.765	50.765	58.086	57.958	64.609	203.715	63.577	-8191	255	
28776.131	1	1	0	0	0.058036	0.27711	0.1768	0.33102	0.23921	0.42452	0.14177	0.16425	0.16782	0.1818	0.11148	0.15352	0.1392	0.18699	0.0080086	0.16626	-2.3063	-2.6562	-2.5896	-3.0458	-2.9167	-2.6312	-3.0021	-2.7646	-2.8563	-2.825	-2.7229	-2.8083	-2.6813	-2.7583	-2.9146	-2.6937	341.734	305.820	52.307	56.162	146.224	318.934	340.090	342.003	46.182	124.320	170.248	311.100	263.960	322.810	95.833	372.517	0.0002531	0.0005381	8.5261e-05	1362.7	3.8638e-06	3.8311e-06	1429.6	272.8	4.2391e-06	9.3699e-07	338.25	95.616	75.51	21.724	4.9692e-06	30.444	0.00059839	0.00090546	0.00025046	1344.8	9.581e-06	1.0228e-05	1411.3	270.5	9.2964e-06	9.9851e-06	337.33	96.233	76.087	22.036	9.3859e-06	30.862	226.141	108.817	132.875	43.752	235.499	183.569	44.334	51.251	214.939	104.226	50.758	58.198	58.302	64.216	242.254	63.865	-8191	255	
28776.252	1	1	0	0	0.2257	0.059114	0.18184	0.33152	0.18725	0.30504	0.15759	0.1027	0.054533	0.25164	0.11544	0.10406	0.15877	0.048315	0.16247	0.17691	-2.2354	-2.8458	-2.6729	-2.8646	-2.8771	-2.7	-3.0479	-2.9042	-2.7208	-2.9188	-2.8354	-2.7542	-2.7438	-2.6875	-2.7396	-2.6979	393.139	318.342	252.233	52.188	357.093	357.820	347.553	34.701	146.705	60.832	140.227	107.445	121.658	255.234	90.246	367.764	0.00024479	0.00031488	0.00013339	1360.4	4.0923e-06	5.3261e-06	1428.2	271.47	3.1092e-06	2.2807e-06	339.55	95.211	75.941	21.685	2.4093e-06	30.434	0.00057973	0.00089488	0.00025336	1342.2	9.5793e-06	1.0144e-05	1412.2	270.52	9.415e-06	9.5733e-06	337.43	96.095	76.198	22.037	9.3241e-06	30.945	219.645	132.037	131.243	43.842	252.062	150.879	44.151	51.294	238.158	182.353	50.890	57.704	58.555	64.480	221.305	63.957	-8191	255	
28776.348	1	1	0	0	0.25016	0.11366	0.098963	0.36827	0.14339	0.15675	0.097574	0.15331	0.15909	0.058291	0.090963	0.2462	0.087586	0.10859	0.074494	0.043723	-2.2208	-2.7687	-2.6	-3.05	-2.7583	-2.6063	-2.8917	-2.7125	-2.5625	-3.1021	-2.7792	-2.8771	-2.9813	-2.3396	-2.8104	-2.8208	218.145	163.212	56.734	336.123	79.793	319.557	140.922	299.578	322.939	187.549	123.349	319.876	39.166	337.110	127.619	314.771	0.00026359	0.00046638	0.00014245	1356.9	3.8806e-06	3.871e-06	1433.1	271.74	4.2759e-06	3.4245e-06	339.51	95.642	75.549	21.606	3.4691e-06	30.558	0.00059414	0.00092163	0.00025215	1340.2	9.2736e-06	1.0122e-05	1411.8	270.63	9.3051e-06	1.013e-05	337.72	96.147	76.131	21.996	9.3585e-06	30.91	222.997	109.573	100.771	43.735	228.425	163.723	43.913	51.063	253.804	175.370	50.630	58.129	58.223	64.568	207.612	63.617	-8191	255	
28776.443	1	1	0	0	0.16908	0.14033	0.18705	0.30294	0.066229	0.30527	0.058262	0.30311	0.34856	0.21977	0.19064	0.046679	0.16064	0.13739	0.14287	0.012183	-2.1042	-2.9458	-2.6208	-2.8854	-3.0583	-2.7083	-3.0083	-2.7979	-2.7875	-2.9833	-2.7313	-2.7729	-2.9542	-2.5563	-3.0083	-2.8396	266.658	325.971	59.068	368.968	143.111	343.324	331.602	314.913	297.959	208.836	338.449	358.970	62.833	359.501	76.103	326.514	0.00024393	0.00028983	0.00012456	1359.1	3.7542e-06	4.4974e-06	1431.7	271.54	3.1017e-06	2.1417e-06	336.87	95.78	76.115	21.623	1.1346e-06	30.381	0.00059328	0.00092387	0.0002502	1340.8	9.4374e-06	1.0293e-05	1411.2	270.89	8.9224e-06	9.9962e-06	337.07	96.132	76.212	21.983	8.9824e-06	30.869	228.779	187.598	90.010	43.889	202.957	194.598	44.171	51.129	235.330	162.426	50.680	57.963	58.492	64.513	190.835	63.871	-8191	255	
28776.539	1	1	0	0	0.24226	0.20921	0.26652	0.37677	0.17576	0.22259	0.10473	0.18276	0.062881	0.22506	0.29427	0.26394	0.11473	0.11599	0.13753	0.18663	-2.1063	-2.7771	-2.6542	-2.9833	-2.8521	-2.6292	-2.9958	-2.95	-2.4688	-2.9458	-2.9062	-2.7354	-3.0354	-2.5833	-3.0062	-2.8875	81.219	132.669	81.601	327.671	281.929	90.223	292.047	319.653	89.739	44.808	383.560	286.594	283.245	42.121	329.523	92.095	0.0002442	0.00025943	9.295e-05	1360.8	4.9582e-06	1.148e-06	1432.5	271.39	5.4626e-06	3.4071e-06	339.41	95.251	75.974	21.696	3.3708e-06	30.558	0.00058372	0.00089695	0.00024261	1343.2	9.3538e-06	9.7451e-06	1410.7	270.92	9.0664e-06	1.042e-05	337.6	96.082	76.215	22.067	9.8605e-06	30.912	229.545	150.006	129.180	43.809	226.780	212.988	43.886	51.135	229.112	164.781	51.148	58.148	58.266	64.590	198.201	63.966	-8191	255	
28776.660	1	1	0	0	0.16339	0.2359	0.16366	0.20698	0.23165	0.26838	0.24832	0.11621	0.22463	0.10099	0.19723	0.17642	0.10379	0.071423	0.11631	0.19212	-2.225	-2.8167	-2.6333	-2.8208	-2.8604	-2.7417	-3.0083	-2.8375	-2.6708	-2.9667	-2.8354	-2.6813	-2.9354	-2.7542	-2.9021	-2.9208	72.915	102.721	160.301	337.524	266.151	156.242	345.411	85.164	352.327	256.177	330.198	205.778	52.281	222.662	133.708	197.372	0.00023893	0.00026992	9.5225e-05	1365.8	4.587e-06	3.3772e-06	1436.7	271.93	4.1135e-06	2.876e-06	336.96	95.811	75.747	21.839	2.7696e-06	30.499	0.00062142	0.00095574	0.00026124	1347.9	9.9663e-06	1.0435e-05	1417.1	271.05	9.2369e-06	9.991e-06	337.69	96.28	76.316	22.067	9.4326e-06	30.871	224.190	139.510	87.410	43.893	218.819	152.048	44.087	51.305	210.402	169.441	50.783	58.319	58.334	64.229	203.599	64.031	-8191	255	
28776.732	1	1	0	0	0.28362	0.27292	0.13319	0.31658	0.24061	0.28045	0.20872	0.19201	0.061466	0.33032	0.13106	0.20928	0.14027	0.2302	0.18709	0.10299	-2.1458	-2.9458	-2.5396	-2.7354	-2.7417	-2.7104	-3.0208	-2.8688	-2.6063	-2.9417	-2.7687	-2.8146	-3.0604	-2.8563	-2.7896	-2.9583	389.219	143.522	153.084	386.607	302.329	88.575	88.337	319.352	47.248	313.948	337.545	392.161	353.572	60.383	197.030	304.013	0.00027862	0.00034154	0.00010012	1362.1	4.7481e-06	5.0621e-06	1431.2	272.29	3.9255e-06	3.8942e-06	339.18	95.418	75.227	21.77	3.8414e-06	30.401	0.00059562	0.00087642	0.00023721	1342.4	9.5226e-06	9.8242e-06	1411	270.71	8.7281e-06	1.0014e-05	338.05	96.095	76.143	22.049	9.1778e-06	30.866	228.181	120.605	116.202	44.097	195.628	195.703	44.224	51.230	199.749	216.557	50.853	57.767	57.986	64.378	219.927	64.221	-8191	255	
28776.828	1	1	0	0	0.14516	0.21985	0.098502	0.084852	0.15855	0.27008	0.34464	0.06287	0.19317	0.09449	0.14241	0.069965	0.12519	0.35273	0.1945	0.06144	-2.0583	-2.8042	-2.8063	-2.8479	-2.8458	-2.6979	-2.7917	-2.975	-2.7771	-2.8958	-2.9208	-2.6375	-2.8396	-2.6646	-2.8125	-2.9479	377.285	198.823	163.544	219.527	209.484	114.432	338.464	328.555	370.328	189.876	340.727	96.879	367.961	315.166	162.334	80.388	0.00022456	0.00021386	0.00011618	1363.8	4.6157e-06	5.9645e-06	1435.7	270.89	3.5594e-06	5.0674e-06	337.82	95.531	75.533	21.693	3.2037e-06	30.397	0.00059534	0.00088792	0.00024663	1344.1	9.4632e-06	1.0192e-05	1413.4	270.48	8.9825e-06	1.0114e-05	337.15	95.901	76.108	21.975	9.4541e-06	30.924	232.388	152.094	141.128	44.032	207.928	164.202	44.057	51.185	219.252	197.451	50.564	57.773	58.531	64.243	209.282	63.727	-8191	255	
28776.924	1	1	0	0	0.27499	0.087774	0.2736	0.13645	0.21686	0.050858	0.13092	0.06026	0.11705	0.10757	0.18764	0.09646	0.2672	0.19516	0.048215	0.29486	-2.0563	-2.7021	-2.8187	-2.9292	-2.8937	-2.8854	-2.9125	-2.9542	-2.7292	-2.8187	-2.9958	-2.7167	-3.0208	-2.8729	-2.6854	-2.8	48.927	73.779	337.236	33.589	240.287	291.257	61.842	228.472	103.271	355.490	225.690	163.144	374.511	359.804	186.488	370.896	0.00022339	0.00037161	0.00012311	1359.9	4.7469e-06	4.2083e-06	1428	271.95	4.7088e-06	2.1693e-06	338.18	95.691	75.407	21.594	2.8436e-06	30.554	0.00061351	0.00095832	0.00025215	1343	9.7066e-06	1.0259e-05	1410.8	270.56	9.4501e-06	1.0245e-05	337.15	96.222	76.056	21.999	9.5159e-06	30.861	228.505	114.157	123.397	43.881	213.679	217.390	44.059	51.111	241.475	189.945	50.515	57.897	58.418	64.227	243.231	64.006	-8191	255	
28777.043	1	1	0	0	0.24603	0.1491	0.15256	0.40862	0.033809	0.12871	0.24516	0.29212	0.14844	0.23738	0.12502	0.13548	0.37931	0.099415	0.22601	0.1241	-2.3333	-2.6417	-2.6667	-2.7812	-2.9229	-2.7375	-2.8146	-2.9437	-2.7354	-2.5792	-3.0187	-2.7042	-2.9792	-2.7396	-2.6833	-2.9813	312.769	221.114	115.666	371.497	341.869	65.799	255.243	285.010	279.178	91.342	358.044	76.533	312.067	112.271	216.909	369.298	0.0002473	0.00025198	0.00010967	1359.3	5.8898e-06	2.5424e-06	1436.1	270.99	2.7868e-06	3.6272e-06	337.25	95.418	75.833	21.635	5.0236e-06	30.298	0.0005839	0.00087515	0.00024579	1339.6	9.107e-06	9.5449e-06	1411.3	269.7	8.4705e-06	9.8127e-06	336.09	95.846	76.131	21.974	9.3632e-06	30.806	229.484	113.693	127.459	43.682	239.787	195.169	44.302	51.239	224.538	192.305	50.937	58.133	58.121	64.725	191.507	64.071	-8191	255	
28777.139	1	1	0	0	0.16649	0.028003	0.11966	0.049462	0.2361	0.14195	0.3164	0.1091	0.19103	0.13366	0.083972	0.12826	0.11086	0.27113	0.12456	0.29499	-2.1458	-2.5187	-2.8937	-2.9521	-2.8667	-2.7854	-2.9562	-3.0062	-2.6667	-2.6208	-3.0125	-2.8187	-2.7042	-2.8021	-2.6708	-2.9146	262.694	155.223	319.352	383.652	98.615	165.690	305.791	62.495	266.342	101.887	255.561	330.203	179.989	297.135	136.089	321.628	0.00027186	0.0003352	0.00010545	1361	2.7618e-06	4.925e-06	1428.8	271.09	2.695e-06	3.5454e-06	338.93	94.782	75.777	21.841	2.3809e-06	30.332	0.00059114	0.00090219	0.00025295	1342.2	9.5899e-06	1.0421e-05	1409.4	270.31	8.8764e-06	1.0436e-05	337.22	95.861	76.216	22.064	9.7229e-06	30.831	220.791	123.937	132.785	44.055	180.906	177.442	44.162	51.306	222.613	206.925	50.869	57.949	58.177	64.437	179.079	63.791	-8191	255	
28777.236	1	1	0	0	0.19819	0.17358	0.060582	0.25285	0.19529	0.17347	0.14267	0.027519	0.11585	0.17477	0.095096	0.28813	0.19988	0.23116	0.14503	0.066836	-2.2604	-2.5771	-2.975	-2.6479	-2.6833	-2.9021	-2.7104	-2.8917	-2.8542	-2.7	-2.9	-2.8896	-2.7396	-2.7958	-2.5417	-2.8271	217.198	66.719	284.938	41.445	52.529	138.491	287.338	189.877	327.561	47.144	108.488	61.389	175.901	373.171	269.218	48.538	0.00026003	0.00030547	6.4218e-05	1359.7	4.1783e-06	5.1984e-06	1436.9	272.1	3.4173e-06	2.5695e-06	337.47	95.302	75.212	21.603	4.4394e-06	30.354	0.00060801	0.00091248	0.00024394	1340.4	9.2988e-06	1.0164e-05	1412.7	271.01	8.6155e-06	9.9363e-06	337.29	96.002	75.955	21.963	9.1999e-06	30.814	224.250	108.504	113.403	43.900	200.960	174.600	44.022	51.003	237.969	192.881	50.629	58.022	58.437	64.579	215.980	63.835	-8191	255	
28777.332	1	1	0	0	0.15684	0.16598	0.30699	0.34273	0.17931	0.086168	0.27053	0.049338	0.048481	0.25961	0.24024	0.42344	0.18544	0.13146	0.10633	0.20778	-2.3688	-2.4688	-2.7729	-2.7292	-2.8229	-2.8771	-2.7375	-2.9896	-2.7875	-2.5854	-2.9667	-2.6125	-2.5687	-2.7646	-2.6	-2.925	226.352	286.323	121.390	387.729	175.819	302.339	303.111	284.057	381.531	352.227	241.030	359.019	327.720	312.411	294.520	292.805	0.0002433	0.00043559	0.00010165	1356.6	4.0448e-06	3.5442e-06	1436	271.39	3.7627e-06	2.6973e-06	338.98	95.142	75.524	21.721	5.6231e-06	30.442	0.00057086	0.00090178	0.00024448	1340.4	9.6561e-06	1.0187e-05	1412.7	270.38	8.7979e-06	9.7997e-06	337.34	95.908	75.985	21.977	9.1923e-06	30.875	224.931	137.548	144.646	43.802	246.527	176.899	44.100	51.131	249.442	173.278	50.821	57.731	57.892	64.292	193.401	63.982	-8191	255	
28777.428	1	1	0	0	0.0063214	0.27767	0.26109	0.37451	0.15738	0.016642	0.20251	0.19642	0.23604	0.13153	0.18114	0.32568	0.15736	0.10714	0.12724	0.34417	-2.4396	-2.4188	-2.9292	-2.8979	-2.7583	-2.8312	-2.8458	-2.8708	-2.9667	-2.6229	-2.9896	-2.7167	-2.8521	-2.8	-2.5771	-2.9	116.197	154.242	347.508	345.091	93.884	266.714	277.051	337.579	305.089	219.705	33.295	348.226	80.205	79.968	205.518	307.112	0.00022887	0.00040556	0.00015682	1359.8	3.8913e-06	3.9333e-06	1433.5	272.96	4.0543e-06	1.8292e-06	338.58	94.842	75.795	21.682	4.5969e-06	30.465	0.00059288	0.00091605	0.00025181	1342.3	9.5742e-06	9.9421e-06	1411	270.39	8.9192e-06	9.8518e-06	337.17	95.797	76.151	21.985	9.0203e-06	30.852	232.343	124.422	110.900	43.717	219.840	206.476	44.092	51.179	229.796	181.179	51.044	57.812	58.359	64.325	202.870	64.176	-8191	255	
28777.523	1	1	0	0	0.35118	0.11223	0.20478	0.13594	0.059852	0.052795	0.2563	0.10966	0.099163	0.10881	0.48165	0.1949	0.3638	0.18485	0.19234	0.2421	-2.325	-2.4958	-2.975	-2.8542	-2.6125	-2.7792	-2.7917	-2.7479	-2.7458	-2.5625	-2.9479	-2.5792	-2.4771	-2.8979	-2.7562	-2.7583	346.525	121.826	178.900	255.232	69.401	254.583	46.765	377.970	92.570	48.435	112.365	166.418	77.626	310.196	207.204	369.862	0.000224	0.00027034	9.8944e-05	1363.4	4.8161e-06	3.37e-06	1427.1	270.95	2.7691e-06	5.1951e-06	338.86	95.378	75.967	21.643	4.5201e-06	30.318	0.00058007	0.00085962	0.00023788	1342.8	9.5838e-06	9.8028e-06	1408.3	269.91	8.4261e-06	9.9318e-06	336.99	95.926	76.067	21.954	8.8641e-06	30.812	225.982	162.145	122.419	43.782	204.713	233.432	43.963	51.258	240.432	187.396	50.469	58.150	58.261	64.282	190.879	63.923	-8191	255	
28777.619	1	1	0	0	0.17535	0.1834	0.13719	0.38593	0.04113	0.074426	0.41518	0.22701	0.013012	0.11761	0.13933	0.22004	0.24047	0.24232	0.057431	0.19382	-2.3312	-2.4917	-2.8479	-2.8229	-2.5792	-2.8625	-2.8542	-2.7771	-2.9021	-2.5792	-2.925	-2.8208	-2.6813	-2.6396	-2.8146	-2.6813	59.845	232.125	76.479	331.453	341.948	364.338	280.060	275.585	280.163	162.259	272.692	34.236	362.499	84.616	338.836	381.951	0.00024019	0.00024604	4.9975e-05	1357.9	3.063e-06	4.1684e-06	1424.8	271.28	3.5329e-06	5.8569e-06	338.17	95.471	75.806	21.661	5.4487e-06	30.467	0.00057516	0.0008499	0.00022969	1339.4	9.2226e-06	9.9143e-06	1407.1	269.84	8.5896e-06	9.8862e-06	336.83	96.042	75.98	21.952	9.0413e-06	30.843	232.522	150.414	122.342	43.583	212.080	176.800	44.116	51.307	257.868	178.486	50.862	58.024	58.232	64.640	184.578	64.033	-8191	255	
28777.740	1	1	0	0	0.13088	0.20043	0.082726	0.39473	0.099752	0.28222	0.23858	0.24046	0.061322	0.093156	0.040701	0.24201	0.16071	0.1988	0.13972	0.11797	-2.3583	-2.525	-2.6083	-2.9813	-2.6604	-2.8354	-2.7271	-2.4854	-2.7896	-2.65	-2.9167	-2.9354	-2.6312	-2.8833	-2.7208	-2.6292	225.279	240.143	351.452	333.943	248.553	388.675	347.492	364.759	391.017	107.994	219.356	262.957	370.280	84.208	101.781	242.148	0.00025164	0.00045144	0.00013075	1357	6.1485e-06	3.9112e-06	1429.9	270.49	2.7642e-06	3.7638e-06	336.79	95.294	76.066	21.729	6.0373e-06	30.577	0.00057916	0.00090805	0.00024677	1340.9	8.9803e-06	9.4373e-06	1408.8	269.76	8.7303e-06	9.5629e-06	336.77	95.838	75.992	22.012	9.2617e-06	30.937	227.257	119.311	105.244	43.797	241.217	188.819	44.108	51.203	247.704	193.554	50.733	57.902	58.050	64.670	224.540	63.867	-8191	255	
28777.836	1	1	0	0	0.26652	0.10976	0.087731	0.16987	0.061073	0.098531	0.20471	0.13745	0.11584	0.098891	0.14132	0.069145	0.22883	0.15796	0.23449	0.14872	-2.2917	-2.4521	-2.7875	-3.0542	-2.6271	-2.7958	-2.9313	-2.8312	-2.9667	-2.6521	-2.7354	-3.0229	-2.6562	-2.8583	-2.7146	-2.6583	299.978	148.439	221.911	79.385	388.788	76.660	286.359	284.036	281.328	155.630	272.280	265.355	77.554	112.384	252.212	166.517	0.00026121	0.00039857	9.008e-05	1363.9	2.8151e-06	5.7513e-06	1429.4	271.34	3.8938e-06	1.3506e-06	338.57	95.449	75.274	21.662	4.9241e-06	30.271	0.00057163	0.00087205	0.00024666	1342.9	9.5636e-06	9.7322e-06	1408	269.67	8.5473e-06	9.7613e-06	337.22	95.879	75.875	22.029	9.3731e-06	30.746	229.730	118.213	102.182	43.771	249.303	173.042	44.061	51.108	251.064	166.861	50.690	58.341	58.310	64.424	223.443	64.033	-8191	255	
28777.934	1	1	0	0	0.30303	0.1708	0.2492	0.413	0.33277	0.16978	0.10585	0.33705	0.084867	0.14712	0.085956	0.066972	0.2038	0.175	0.072106	0.13237	-2.3937	-2.5125	-2.5854	-3.0104	-2.7167	-2.8208	-2.9667	-2.7062	-2.975	-2.6583	-2.7646	-2.9396	-2.625	-2.9208	-2.9417	-2.6208	76.629	129.446	327.361	309.218	372.152	124.097	385.776	389.938	363.720	198.540	384.653	71.292	80.806	81.617	374.570	203.763	0.00021768	0.00016201	8.4989e-05	1360.6	1.9465e-06	1.588e-06	1428	271.06	3.659e-06	2.7635e-06	338.81	94.543	75.553	21.641	4.786e-06	30.395	0.00055978	0.00084691	0.00024236	1341	9.0947e-06	9.5423e-06	1406.2	269.86	8.4483e-06	9.7893e-06	336.56	95.586	75.906	21.992	8.9749e-06	30.839	224.089	78.403	111.123	43.955	232.717	210.145	44.189	50.931	219.325	167.052	50.828	57.772	58.057	64.512	205.157	63.941	-8191	255	
28778.027	1	1	0	0	0.24548	0.268	0.19917	0.10069	0.15371	0.036087	0.36297	0.31521	0.23624	0.056427	0.2012	0.28756	0.24377	0.064579	0.17772	0.11359	-2.4708	-2.6104	-2.5563	-2.8646	-2.7042	-2.8833	-3.0375	-2.6813	-2.8333	-2.6875	-2.7062	-2.9208	-2.5896	-2.8479	-2.8292	-2.6583	348.796	72.364	142.743	313.924	279.845	187.804	342.644	380.308	170.825	358.875	62.212	306.168	85.654	85.817	387.948	348.212	0.00024002	0.00034102	9.5729e-05	1360.6	5.749e-06	3.1024e-06	1428.4	270.59	4.7833e-06	3.8234e-06	336.94	94.665	75.701	21.63	2.6951e-06	30.343	0.00058532	0.00086595	0.00025106	1341.4	8.6926e-06	9.195e-06	1408.7	269.7	8.5722e-06	9.1972e-06	336.05	95.691	75.905	21.991	8.7061e-06	30.831	226.355	115.838	93.043	43.862	214.018	200.022	43.966	51.240	252.673	172.949	50.697	57.799	57.808	64.352	207.898	64.044	-8191	255	
28778.123	1	1	0	0	0.10424	0.16286	0.17151	0.3425	0.19905	0.25751	0.23762	0.083572	0.22881	0.18476	0.23277	0.25779	0.14543	0.28138	0.15115	0.12194	-2.3979	-2.7438	-2.4229	-3.0687	-2.45	-2.8333	-3.1063	-2.4604	-2.7833	-2.7271	-2.6542	-2.7979	-2.7687	-2.9646	-2.675	-2.6958	82.457	359.306	301.214	361.324	353.426	52.529	345.583	116.159	58.319	111.820	258.534	37.130	126.492	386.549	256.263	355.971	0.00023506	0.000347	7.7575e-05	1357.9	4.0793e-06	2.5052e-06	1423.9	272.14	3.0455e-06	2.5051e-06	337.28	95.003	75.512	21.656	5.3686e-06	30.421	0.00057967	0.00085295	0.0002259	1339	9.0594e-06	9.311e-06	1404.4	270	8.5544e-06	9.2499e-06	335.81	95.883	75.952	21.95	8.5265e-06	30.865	231.060	93.492	119.315	43.949	172.797	178.515	44.110	51.114	208.238	148.281	50.706	57.987	58.226	64.543	206.571	63.910	-8191	255	
28778.221	1	1	0	0	0.12845	0.077365	0.21406	0.1675	0.032042	0.24618	0.39878	0.25903	0.0096515	0.1917	0.040723	0.30971	0.074586	0.19354	0.10932	0.1717	-2.5146	-2.7812	-2.5312	-3.0062	-2.8625	-2.6688	-3.2271	-2.825	-2.775	-2.8708	-2.7021	-3.0062	-2.6958	-2.6354	-2.8479	-2.7583	50.261	200.923	172.533	357.832	154.634	37.615	336.829	325.862	269.017	92.604	297.169	375.911	80.785	36.285	383.917	358.182	0.00025031	0.00029406	7.8553e-05	1356.7	7.4494e-06	2.3228e-06	1429.4	270	4.7108e-06	3.4445e-06	336.06	94.794	75.634	21.661	4.3419e-06	30.447	0.00055693	0.00084173	0.00023379	1339	8.7722e-06	9.3596e-06	1407.3	269.39	8.5073e-06	9.3495e-06	335.2	95.629	76.144	21.962	8.6542e-06	30.82	228.367	145.494	105.007	44.038	224.949	208.954	44.202	51.033	220.318	211.253	51.021	57.991	57.701	64.515	180.727	63.864	-8191	255	
28778.340	1	1	0	0	0.23165	0.12276	0.18757	0.29541	0.11913	0.177	0.17308	0.22965	0.20374	0.12737	0.17305	0.32007	0.13903	0.21451	0.055116	0.11911	-2.2875	-2.7479	-2.4229	-2.9979	-2.8187	-2.7271	-3.1167	-2.7208	-2.9083	-2.7396	-2.5438	-2.8958	-2.6458	-2.4667	-2.9917	-2.3812	336.451	85.819	274.394	336.967	215.507	163.184	349.629	322.825	291.000	93.782	384.067	247.635	206.133	71.540	326.379	333.857	0.00026049	0.00013795	0.00012006	1359.5	5.0489e-06	5.3786e-06	1427.7	270.49	3.4037e-06	4.3402e-06	337.86	94.551	75.393	21.814	3.4101e-06	30.312	0.00057662	0.00082068	0.00024681	1338.3	8.9141e-06	9.4354e-06	1406.9	269.52	8.3958e-06	9.4054e-06	336.33	95.748	75.833	22.025	8.5166e-06	30.819	227.874	133.119	91.101	43.869	232.420	177.270	44.425	51.282	213.432	156.560	50.873	57.960	58.200	64.197	201.601	63.913	-8191	255	
28778.438	1	1	0	0	0.15676	0.17792	0.29423	0.26743	0.078678	0.19742	0.087168	0.18878	0.17004	0.087352	0.38676	0.11742	0.29458	0.19963	0.21183	0.072772	-2.2083	-3.0042	-2.6937	-2.8896	-2.7396	-2.5167	-3.1083	-2.9042	-2.7667	-3.025	-2.8667	-2.9437	-2.7792	-2.7375	-2.7625	-2.8729	197.277	146.231	340.757	363.275	156.417	285.848	260.067	354.855	270.168	326.617	383.524	346.089	54.995	297.606	148.124	241.106	0.00024091	0.00060496	0.00011912	1354.6	5.088e-06	3.5594e-06	1426.5	271.03	3.1343e-06	1.8544e-06	335.54	95.58	75.355	21.721	3.2444e-06	30.429	0.00057145	0.00084265	0.00022697	1337.6	8.8232e-06	9.3427e-06	1405.2	269.33	8.5013e-06	9.438e-06	335.24	95.91	75.764	22.024	8.4991e-06	30.828	229.177	154.723	146.360	43.948	229.608	172.928	44.186	51.002	230.246	183.268	50.804	58.099	58.155	64.553	235.361	63.736	-8191	255	
28778.533	1	1	0	0	0.098761	0.076138	0.046099	0.37824	0.07291	0.04992	0.35243	0.12681	0.35319	0.28998	0.23819	0.19884	0.112	0.28382	0.054711	0.13321	-2.2208	-2.6896	-2.5125	-3.05	-2.8771	-2.6604	-2.9646	-2.725	-2.5042	-2.975	-2.7229	-2.9229	-2.8271	-2.575	-2.8521	-2.9333	95.063	221.101	168.396	314.700	315.973	260.900	322.281	76.788	263.580	152.684	47.664	303.944	65.064	386.497	232.631	332.731	0.00025289	0.00036991	0.00013865	1361.9	4.0945e-06	2.3255e-06	1427.6	269.49	4.0026e-06	3.4985e-06	338.37	95.033	75.946	21.722	3.2135e-06	30.18	0.00056021	0.00082902	0.00023351	1339.1	8.4615e-06	9.2131e-06	1404.6	268.82	8.1576e-06	9.1211e-06	335.9	95.722	75.999	21.974	8.5049e-06	30.775	219.865	135.025	88.906	43.857	223.925	199.375	44.159	51.359	214.385	197.644	50.694	58.111	58.568	64.625	222.928	64.030	-8191	255	
28778.604	1	1	0	0	0.28818	0.15474	0.16446	0.31794	0.25319	0.16437	0.108	0.2055	0.14264	0.1077	0.2113	0.18443	0.072854	0.088345	0.20952	0.24631	-2.0667	-2.9167	-2.3917	-2.8604	-2.8542	-2.5021	-2.7687	-2.7667	-2.5563	-2.9792	-2.8021	-2.8688	-2.8521	-2.6063	-2.7167	-2.7583	325.929	226.729	244.678	391.194	132.281	141.540	391.178	301.131	286.419	214.418	126.752	294.029	352.471	45.727	271.690	358.157	0.00025644	0.00036686	0.00010127	1351.4	4.9846e-06	3.6174e-06	1423.5	271.18	3.8933e-06	2.7272e-06	337.59	95.305	75.083	21.506	3.0214e-06	30.373	0.0005512	0.00081648	0.0002314	1333.7	8.7111e-06	9.4438e-06	1403.7	269.35	8.175e-06	8.9149e-06	335.88	95.78	75.698	21.959	8.7813e-06	30.864	234.267	130.254	114.368	43.903	196.793	168.939	44.099	51.213	235.982	201.776	50.953	58.192	58.287	64.625	218.980	63.768	-8191	255	
28778.725	1	1	0	0	0.11234	0.24528	0.19557	0.33826	0.20988	0.14548	0.33188	0.28924	0.18347	0.15669	0.040325	0.13628	0.47115	0.22072	0.19478	0.10677	-2.0771	-2.8688	-2.4813	-2.9583	-3.0021	-2.8229	-3.0312	-2.9417	-2.6063	-2.9729	-2.6896	-2.6562	-2.95	-2.6917	-2.7583	-2.6458	242.302	121.659	189.839	375.805	191.303	308.523	337.963	381.063	324.868	200.443	206.334	383.905	44.370	365.413	132.278	326.340	0.00023524	0.00040342	0.00014167	1351.5	3.7024e-06	5.0092e-06	1424.5	269.68	4.0381e-06	3.1655e-06	337.87	95.282	74.771	21.694	2.4493e-06	30.339	0.00054595	0.00084214	0.00022513	1335.4	8.3331e-06	9.3803e-06	1401.7	268.87	8.6864e-06	9.4718e-06	335.88	95.815	75.645	21.949	8.4111e-06	30.757	225.394	150.153	103.078	44.018	194.964	185.183	44.067	51.128	217.273	154.134	50.792	57.717	58.098	64.352	175.177	63.840	-8191	255	
28778.818	1	1	0	0	0.07648	0.2618	0.20056	0.24122	0.12713	0.059784	0.31007	0.15677	0.11297	0.13916	0.4297	0.04658	0.10468	0.025163	0.069333	0.18928	-2.175	-2.7396	-2.625	-2.7521	-3.0521	-2.5833	-2.975	-2.9167	-2.5229	-2.9271	-2.8812	-2.7479	-2.95	-2.7062	-2.7792	-2.7104	240.358	303.878	149.469	330.708	333.867	275.585	246.712	320.606	271.838	251.317	312.885	354.105	374.935	145.677	56.924	332.375	0.00027141	0.00026682	0.0001246	1351.1	3.7281e-06	3.4584e-06	1429.7	269.89	3.4713e-06	3.3474e-06	336.91	94.595	75.581	21.741	5.4959e-06	30.535	0.00055796	0.00081591	0.00022831	1333.9	8.6886e-06	9.4807e-06	1404.1	268.68	8.4851e-06	9.192e-06	335.67	95.609	75.91	22.001	8.5189e-06	30.9	223.445	127.400	114.657	43.682	226.519	185.170	44.086	51.231	230.598	182.395	51.003	57.979	58.406	64.414	194.987	63.972	-8191	255	
28778.916	1	1	0	0	0.26991	0.07373	0.16049	0.23924	0.15999	0.37794	0.45571	0.099786	0.179	0.047912	0.27747	0.32784	0.15373	0.28428	0.24252	0.27465	-2.1312	-2.6562	-2.5792	-2.8812	-2.6708	-2.5708	-2.7542	-2.9729	-2.7313	-2.8063	-2.8125	-2.6937	-2.7938	-2.6417	-2.65	-2.8937	328.813	195.120	94.872	389.478	258.048	389.959	258.425	302.956	159.946	377.431	63.910	240.144	165.178	370.341	284.137	332.235	0.00025625	0.00020118	9.2064e-05	1354.6	3.8437e-06	1.8846e-06	1418.3	270.94	2.8926e-06	3.3884e-06	336.03	95.04	74.837	21.757	4.5058e-06	30.277	0.00055468	0.00081861	0.0002296	1334.7	8.6959e-06	8.937e-06	1401.8	269.11	8.3687e-06	9.5596e-06	334.69	95.708	75.603	22.021	8.6973e-06	30.778	226.379	145.583	152.502	43.655	250.526	139.222	44.135	51.346	226.613	147.768	50.493	57.893	58.360	64.421	198.214	63.962	-8191	255	
28779.014	1	1	0	0	0.079426	0.46019	0.17946	0.2975	0.080099	0.12853	0.24226	0.2178	0.18567	0.27345	0.13419	0.23611	0.1598	0.348	0.092551	0.15986	-2.1813	-2.8479	-2.8021	-2.7042	-2.8208	-2.6729	-3.0542	-2.9354	-2.725	-2.8271	-2.9208	-2.6521	-2.8937	-2.6396	-2.675	-2.9437	186.947	40.711	382.260	265.650	239.073	392.632	294.780	308.579	316.953	243.172	347.572	337.403	219.940	62.443	268.388	168.300	0.00024481	0.00035147	0.00013994	1357	2.1854e-06	3.4817e-06	1419.2	270.63	2.9126e-06	3.9833e-06	336.12	94.885	75.173	21.584	2.4718e-06	30.367	0.00056997	0.0008407	0.00022976	1337	9.0431e-06	9.6324e-06	1400.6	268.88	8.4034e-06	9.3683e-06	335.33	95.396	75.761	21.931	8.8542e-06	30.793	226.081	137.517	123.382	43.893	259.909	190.490	44.197	51.136	227.033	173.120	50.736	57.790	58.520	64.259	236.047	63.662	-8191	255	
28779.133	1	1	0	0	0.1789	0.15968	0.2658	0.18607	0.32203	0.10459	0.20777	0.15551	0.1352	0.16657	0.2368	0.14504	0.29632	0.034686	0.033869	0.24059	-2.2854	-2.7979	-2.5771	-2.7833	-2.9292	-2.9062	-2.8833	-3.0938	-2.6792	-2.825	-2.9313	-2.6979	-2.9417	-2.7542	-2.5771	-2.9229	93.170	132.925	199.661	333.886	74.254	201.378	318.300	63.859	367.833	314.057	256.242	235.757	379.458	315.726	309.004	84.163	0.00023923	0.00031397	5.6103e-05	1351.5	3.274e-06	4.1343e-06	1423.5	270.39	3.885e-06	3.8766e-06	336	94.901	75.618	21.498	5.0252e-06	30.323	0.0005581	0.00080394	0.00023303	1332.9	8.6006e-06	9.3414e-06	1400.9	268.83	8.2123e-06	9.2011e-06	334.8	95.582	75.745	21.878	8.7428e-06	30.725	233.707	134.706	144.864	44.077	236.125	189.854	44.109	51.031	203.520	195.851	50.711	57.633	58.061	64.324	200.259	64.109	-8191	255	
28779.203	1	1	0	0	0.2026	0.23688	0.17428	0.48642	0.14608	0.064335	0.056719	0.17842	0.071684	0.12377	0.34597	0.051068	0.050259	0.041687	0.21334	0.094061	-2.2292	-2.7833	-2.7604	-2.8625	-2.8187	-2.7188	-2.9417	-3.15	-2.8354	-2.7479	-2.8688	-2.6667	-2.8875	-2.7812	-2.6625	-2.9646	379.641	111.223	223.063	359.157	128.522	126.086	348.822	126.396	382.480	302.078	327.271	301.480	219.965	318.771	74.030	282.323	0.00025144	0.00023757	7.0827e-05	1352.3	3.3648e-06	1.6199e-06	1421.8	268.9	4.6927e-06	1.8431e-06	336.66	95.209	75.468	21.655	4.5411e-06	30.093	0.00057679	0.00085398	0.0002271	1331.6	8.9904e-06	9.2306e-06	1401	268.68	8.3244e-06	9.4139e-06	334.7	95.494	75.79	21.962	8.8612e-06	30.691	226.271	123.192	113.047	43.997	189.323	200.651	43.920	51.030	255.030	191.543	50.736	57.789	58.116	64.203	192.753	63.889	-8191	255	
28779.301	1	1	0	0	0.072074	0.2083	0.12236	0.14628	0.155	0.16467	0.24945	0.092239	0.054938	0.22792	0.17158	0.1849	0.13901	0.10489	0.27616	0.11864	-2.0875	-2.7062	-2.9354	-2.8438	-3.0104	-2.8438	-2.7313	-3.0708	-2.6688	-2.7042	-2.7375	-2.7	-3.0396	-2.7917	-2.7812	-2.9271	181.164	146.078	157.302	333.762	305.451	348.121	298.341	198.771	92.806	169.218	46.906	309.461	72.149	86.797	303.695	196.265	0.00022155	0.00028185	9.6368e-05	1360.6	4.4805e-06	2.0977e-06	1415.8	270.9	2.9136e-06	5.7058e-06	338.36	94.456	74.536	21.646	3.1209e-06	30.411	0.00056384	0.00083863	0.00022985	1333.8	8.899e-06	9.4295e-06	1398.8	269.05	8.307e-06	9.451e-06	335.47	95.527	75.552	21.877	9.0682e-06	30.822	231.583	126.091	122.194	43.845	189.750	211.846	43.880	51.220	269.683	173.411	50.828	57.683	58.219	64.667	185.020	64.244	-8191	255	
28779.422	1	1	0	0	0.12078	0.12805	0.17347	0.41611	0.099514	0.22164	0.12639	0.25185	0.13866	0.080543	0.036984	0.11931	0.088766	0.19441	0.20583	0.17692	-2.2833	-2.6333	-2.8625	-2.7771	-2.6917	-2.8333	-2.8042	-3.1562	-2.9354	-2.7646	-3.0458	-2.6292	-2.7562	-2.9271	-2.6958	-3.0042	113.559	304.724	126.070	376.227	330.254	317.912	357.099	308.006	121.181	254.609	240.035	219.966	285.181	50.767	156.912	331.706	0.00026531	0.00054681	0.00011279	1350.1	3.2818e-06	2.0038e-06	1418.2	269.99	4.2681e-06	3.8896e-06	337.36	95.263	74.74	21.701	3.9878e-06	30.366	0.00056232	0.00086963	0.00023277	1332	8.9825e-06	9.4438e-06	1401.6	268.94	8.6215e-06	9.8062e-06	335.7	95.388	75.45	21.952	8.9754e-06	30.782	223.435	111.203	140.495	43.795	209.298	158.661	44.112	50.938	235.218	183.333	50.734	58.253	58.663	64.638	234.705	63.954	-8191	255	
28779.518	1	1	0	0	0.1934	0.23618	0.37429	0.27358	0.20612	0.22829	0.23806	0.15477	0.073389	0.05754	0.069066	0.21114	0.076279	0.092137	0.080051	0.11838	-2.3479	-2.5729	-2.9437	-2.8354	-2.7646	-2.8979	-2.8812	-2.9042	-2.8312	-2.7146	-3.0542	-2.6583	-2.7896	-2.9	-2.6917	-2.7771	279.376	185.810	201.755	363.075	314.213	41.165	338.177	332.440	95.716	237.243	383.664	281.391	349.278	324.200	250.822	363.219	0.00024155	0.00058147	9.7559e-05	1352.7	3.0337e-06	2.9763e-06	1425	270.09	2.7092e-06	3.9054e-06	335.45	95.113	75.363	21.543	4.1228e-06	30.261	0.00055856	0.00085375	0.00023904	1334.1	8.9769e-06	9.4432e-06	1401.5	268.87	8.5436e-06	9.6787e-06	334.89	95.569	75.58	21.878	8.9166e-06	30.802	227.669	115.559	120.565	43.969	218.446	179.046	43.851	51.187	266.435	208.032	50.563	57.813	58.370	63.906	208.441	63.878	-8191	255	
28779.613	1	1	0	0	0.12743	0.28813	0.17653	0.16084	0.17423	0.094999	0.41709	0.25655	0.047664	0.11442	0.18287	0.15047	0.38998	0.23674	0.10791	0.14914	-2.2583	-2.2875	-2.8854	-2.7833	-2.7958	-2.8833	-2.6667	-2.6167	-2.6979	-2.75	-2.7917	-2.8104	-2.7146	-2.7854	-2.8583	-2.9667	375.556	357.910	245.679	42.725	233.479	204.387	343.248	346.213	350.853	91.134	293.229	287.850	345.130	78.219	33.579	370.356	0.0002234	0.00038357	7.9959e-05	1355.1	4.3747e-06	2.3395e-06	1420.9	270.45	4.149e-06	1.4125e-06	335.23	94.636	74.88	21.507	3.9856e-06	30.1	0.0005597	0.00087251	0.00024301	1333.6	9.0796e-06	9.449e-06	1400	268.91	8.4423e-06	9.7874e-06	334.23	95.635	75.568	21.893	8.7766e-06	30.715	233.509	162.512	148.209	43.972	213.324	203.159	44.073	51.134	245.617	192.553	50.614	58.176	58.270	64.545	217.089	64.236	-8191	255	
28779.734	1	1	0	0	0.18668	0.19812	0.18097	0.093001	0.05117	0.18582	0.33507	0.11648	0.079274	0.081431	0.13841	0.19518	0.010456	0.10914	0.3259	0.19968	-2.4125	-2.5229	-2.7771	-2.775	-2.7021	-3.0042	-2.8333	-2.95	-2.8979	-2.6875	-2.9542	-2.8083	-2.6479	-2.9354	-2.6542	-2.7083	174.717	61.817	383.362	62.939	132.929	359.843	357.571	44.922	155.764	186.323	316.927	141.057	138.816	313.375	162.962	324.546	0.00024941	0.0003027	7.3844e-05	1359.6	5.2152e-06	3.3184e-06	1421.9	269.92	4.6837e-06	2.8022e-06	335.05	94.427	75.276	21.681	4.0385e-06	30.477	0.00057245	0.00084771	0.00024004	1334.5	9.2652e-06	9.3725e-06	1400.5	268.93	8.4326e-06	9.7874e-06	334.57	95.237	75.638	21.905	8.8938e-06	30.787	230.145	127.359	131.931	43.801	214.852	163.654	43.954	51.217	229.517	197.257	50.649	57.936	58.223	64.440	218.127	63.958	-8191	255	
28779.828	1	1	0	0	0.14571	0.11839	0.42049	0.30702	0.24214	0.31267	0.049741	0.31068	0.018345	0.15913	0.16044	0.2557	0.1612	0.13603	0.10078	0.12757	-2.2854	-2.6354	-3.0312	-2.875	-2.6896	-2.9042	-2.7354	-2.7646	-2.7667	-2.6354	-2.7854	-2.8979	-2.5062	-2.8542	-2.7292	-2.7208	300.078	115.093	172.522	339.771	102.688	226.494	72.389	321.534	189.670	359.508	261.814	46.001	83.812	164.859	127.612	113.263	0.00026914	0.00032547	0.00013704	1348.2	4.8031e-06	4.3292e-06	1422.6	271.24	2.2824e-06	5.3207e-06	336.27	94.869	74.714	21.471	3.5791e-06	30.283	0.00058136	0.00085525	0.00023796	1332.7	9.1945e-06	9.5248e-06	1400.4	268.98	8.713e-06	9.5453e-06	334.61	95.617	75.589	21.878	9.0011e-06	30.702	228.262	170.372	118.935	43.772	212.279	182.740	44.154	50.950	206.587	172.702	50.608	57.922	58.058	64.586	211.873	63.991	-8191	255	
28779.902	1	1	0	0	0.20944	0.26496	0.2212	0.089303	0.23619	0.35898	0.42519	0.09042	0.27058	0.082266	0.075033	0.13392	0.082313	0.067101	0.24731	0.12366	-2.575	-2.6479	-2.8	-2.9708	-2.5646	-2.6979	-2.6979	-2.7146	-2.9104	-2.75	-2.9917	-2.6729	-2.7083	-2.9104	-2.5792	-2.6437	367.523	38.380	181.928	44.466	221.063	118.832	334.786	310.970	46.416	297.734	311.235	58.009	312.703	376.971	137.321	220.520	0.00023528	0.00040184	0.00010164	1354.4	5.5961e-06	3.9188e-06	1416.4	269.76	2.5628e-06	3.4494e-06	336.43	94.282	75.043	21.605	2.0466e-06	30.346	0.00056406	0.00086762	0.00023652	1332.8	9.0381e-06	9.7147e-06	1397.9	268.47	8.6686e-06	9.7477e-06	334.8	95.277	75.721	21.933	8.8664e-06	30.716	236.237	110.183	123.002	43.940	198.649	186.656	44.069	51.203	245.243	161.267	50.852	57.954	58.157	64.566	206.915	63.975	-8191	255	
28780.020	1	1	0	0	0.28514	0.083383	0.17463	0.39952	0.27832	0.11039	0.10776	0.44554	0.14837	0.25389	0.47198	0.096669	0.12902	0.099908	0.045578	0.15934	-2.3729	-2.4708	-2.7521	-2.8229	-2.5563	-2.8917	-2.9375	-2.5563	-2.9354	-2.7188	-2.8021	-2.9771	-2.6312	-2.7146	-2.7313	-2.8146	311.115	182.903	290.489	354.902	323.229	93.139	34.601	277.091	316.960	64.403	378.727	376.383	241.402	328.129	231.855	69.055	0.00024367	0.0001551	0.00012093	1352.5	6.0006e-06	3.4907e-06	1422	270.3	3.2968e-06	4.3982e-06	334.34	95.207	75.344	21.591	3.3783e-06	30.175	0.00056777	0.00084852	0.00023215	1331.9	8.964e-06	9.5417e-06	1400.8	268.6	8.2161e-06	9.6013e-06	334.04	95.577	75.577	21.911	8.6845e-06	30.629	228.281	82.776	128.478	43.685	232.753	143.476	44.060	51.161	236.745	210.615	50.995	58.258	58.086	64.177	191.541	63.724	-8191	255	
28780.117	1	1	0	0	0.18556	0.16883	0.11919	0.059788	0.14911	0.34928	0.16585	0.32067	0.039267	0.065443	0.16569	0.36922	0.018788	0.41847	0.22031	0.037964	-2.4625	-2.7062	-2.8104	-3.0042	-2.6354	-2.8354	-2.8979	-2.8125	-3.0563	-2.7125	-2.8563	-2.9604	-2.5521	-2.8208	-2.7646	-2.5833	79.801	93.102	241.670	241.099	182.732	77.807	372.472	345.178	163.261	327.632	273.894	334.246	270.242	370.792	153.695	52.166	0.00023411	0.00032996	6.2135e-05	1351.5	4.0441e-06	2.845e-06	1421.2	269.94	3.9045e-06	3.4818e-06	335.13	94.522	75.391	21.724	3.3471e-06	30.159	0.00057499	0.00087607	0.00024264	1332.3	9.028e-06	9.797e-06	1398.3	268.53	8.5068e-06	9.5245e-06	334.6	95.205	75.746	21.908	8.7708e-06	30.685	221.639	143.660	184.283	43.951	206.655	174.166	44.098	51.134	243.913	195.336	50.906	57.723	58.125	64.145	202.506	64.320	-8191	255	
28780.213	1	1	0	0	0.25651	0.20257	0.2193	0.21032	0.15564	0.16225	0.28852	0.04878	0.11265	0.26139	0.2532	0.20871	0.12987	0.060981	0.1397	0.20266	-2.3917	-2.5979	-2.8042	-3.0896	-2.8521	-2.7938	-3.025	-2.8521	-2.6063	-2.6188	-2.6417	-3.025	-2.7958	-2.7396	-2.7667	-2.5542	51.398	307.073	154.005	376.489	247.772	50.205	279.658	269.270	223.958	190.691	291.992	349.280	94.566	41.416	126.128	249.687	0.00026624	0.00026275	9.6534e-05	1350.7	5.9508e-06	2.9468e-06	1416.5	269.82	3.9882e-06	2.8992e-06	335.79	94.652	75.647	21.603	3.6846e-06	30.331	0.00058715	0.00088257	0.00023615	1332.6	9.1648e-06	9.5203e-06	1398.1	268.44	8.6177e-06	9.2636e-06	335.36	95.308	75.673	21.85	9.1008e-06	30.699	223.888	149.355	116.345	43.724	210.053	181.860	44.199	51.165	221.909	193.507	50.741	57.986	58.229	64.157	197.171	64.177	-8191	255	
28780.309	1	1	0	0	0.085314	0.11876	0.19143	0.37284	0.048703	0.24376	0.17352	0.33042	0.074602	0.14812	0.15544	0.022858	0.19765	0.28697	0.19049	0.027571	-2.4792	-2.5667	-2.5854	-3.1229	-2.6542	-2.7229	-2.9625	-2.6771	-2.8875	-2.8271	-2.8021	-2.8375	-2.7542	-2.5854	-2.8438	-2.7521	297.106	57.693	265.326	366.208	381.982	174.912	376.548	329.623	310.378	365.163	67.430	166.798	361.141	390.836	185.309	253.897	0.00023178	0.00037963	7.1021e-05	1347.8	5.1514e-06	2.9657e-06	1424.1	270.06	2.942e-06	1.9223e-06	334.74	94.306	75.139	21.522	3.0143e-06	30.285	0.00057479	0.00085732	0.00024773	1332.1	9.1956e-06	9.5332e-06	1400.8	268.58	8.5971e-06	9.5466e-06	334.25	95.33	75.608	21.866	8.7679e-06	30.698	228.090	109.605	118.598	43.703	209.342	162.187	44.004	51.254	256.946	167.838	50.586	58.061	58.029	64.157	195.277	63.986	-8191	255	
28780.430	1	1	0	0	0.19611	0.16821	0.17569	0.29159	0.14996	0.19401	0.23946	0.3374	0.15329	0.23404	0.20376	0.10833	0.11984	0.13882	0.23387	0.15003	-2.4646	-2.85	-2.5771	-2.9042	-2.5396	-2.7667	-3.1104	-2.7667	-2.9313	-2.8646	-2.6688	-2.9167	-2.6604	-2.5104	-3.0479	-2.6771	290.590	360.676	194.035	285.982	289.692	107.752	358.375	310.268	88.914	105.886	327.130	330.828	378.820	257.517	135.708	252.753	0.00023721	8.4869e-05	7.5761e-05	1351.3	2.8842e-06	3.1918e-06	1415.9	268.46	1.4824e-06	3.5598e-06	335.08	94.821	74.968	21.562	3.9991e-06	30.107	0.00057405	0.00082931	0.00024682	1332	9.2747e-06	9.5579e-06	1397.6	268.42	8.8775e-06	9.5765e-06	334.38	95.516	75.535	21.933	9.0285e-06	30.653	219.166	386.993	129.289	43.819	203.347	162.867	44.072	51.120	191.392	211.217	50.689	57.841	58.176	64.694	176.055	63.892	-8191	255	
28780.502	1	1	0	0	0.032684	0.21537	0.22018	0.10342	0.079377	0.03861	0.27276	0.08497	0.04218	0.25174	0.12764	0.11706	0.04669	0.20839	0.068237	0.2878	-2.3104	-2.6771	-2.5896	-3.0938	-2.8792	-2.6229	-3.0604	-2.7729	-2.8958	-2.8583	-2.6292	-2.9208	-2.675	-2.7354	-2.8312	-2.5521	201.193	84.821	369.123	304.243	153.354	381.833	366.913	344.571	203.217	116.956	277.989	105.171	255.738	57.414	137.707	376.793	0.0002432	0.00033355	6.7999e-05	1348.2	6.9247e-06	8.0393e-07	1417.4	269.97	3.0511e-06	2.7673e-06	335.64	95.257	75.524	21.67	4.5957e-06	30.319	0.00057873	0.00084743	0.00023008	1331.7	9.0487e-06	9.9052e-06	1398.3	268.76	8.7828e-06	9.5199e-06	334.5	95.715	75.632	21.912	8.9679e-06	30.705	228.876	120.783	86.208	43.758	217.238	200.227	43.987	51.273	246.085	176.313	50.660	57.948	58.462	64.285	210.832	63.958	-8191	255	
28780.598	1	1	0	0	0.12143	0.098398	0.22907	0.41566	0.26263	0.1214	0.16833	0.2879	0.19163	0.074057	0.40401	0.060405	0.16216	0.13386	0.20844	0.10791	-2.2708	-2.9	-2.6042	-2.9667	-2.7417	-2.5604	-2.9667	-2.8354	-2.7854	-2.8688	-2.6	-2.9083	-2.8625	-2.6708	-2.8833	-2.9271	358.642	52.792	117.434	328.511	368.803	339.556	309.478	333.216	329.576	338.061	312.211	223.267	186.670	40.329	166.067	280.908	0.00021072	0.00010554	8.7742e-05	1356.1	2.9942e-06	2.9976e-06	1422.2	270.16	3.6699e-06	3.3933e-06	336.07	94.432	74.954	21.543	6.6483e-06	30.204	0.0005589	0.00085755	0.0002439	1334.7	9.1149e-06	1.0045e-05	1400	268.76	8.6312e-06	9.8374e-06	334.91	95.255	75.235	21.901	8.9352e-06	30.657	220.591	134.565	136.547	43.735	187.423	134.128	44.136	51.325	233.515	210.002	50.634	57.764	58.470	64.506	207.022	63.755	-8191	255	
28780.693	1	1	0	0	0.1465	0.27961	0.15415	0.10727	0.1593	0.31882	0.22164	0.08006	0.27508	0.13128	0.22953	0.3278	0.15833	0.18206	0.15386	0.33114	-2.4167	-2.7188	-2.6542	-3.1437	-2.7542	-2.5771	-3.1813	-2.7438	-2.7771	-3.0583	-2.7667	-2.8083	-2.8354	-2.6646	-2.9375	-2.6688	106.336	87.715	179.131	375.657	107.939	381.867	77.138	53.616	185.287	310.213	121.821	350.373	362.622	87.609	335.331	317.492	0.0002289	0.00037697	0.000104	1355.8	5.4062e-06	3.5047e-06	1423.3	269.69	3.5647e-06	5.5471e-06	334.76	94.665	74.993	21.677	4.6805e-06	30.057	0.00058236	0.00088361	0.00024934	1334.4	9.2792e-06	9.6816e-06	1400.9	268.92	8.6956e-06	9.6084e-06	334.31	95.325	75.583	21.881	8.881e-06	30.612	227.604	147.776	111.169	43.806	241.754	215.635	44.105	51.296	239.503	169.548	50.854	58.291	58.432	64.185	158.825	63.870	-8191	255	
28780.812	1	1	0	0	0.2259	0.07898	0.13509	0.2207	0.39967	0.12446	0.27194	0.069613	0.11274	0.058594	0.051562	0.10848	0.12659	0.13097	0.085147	0.096448	-2.1229	-2.7771	-2.5542	-3.0396	-2.7854	-2.5938	-3.0396	-2.75	-2.6188	-2.7771	-2.5542	-2.8104	-2.7313	-2.375	-2.8417	-2.8167	263.533	95.229	116.258	330.157	234.221	192.952	358.774	370.067	171.308	38.068	316.509	372.406	257.710	176.935	202.399	313.316	0.00024588	0.00031362	0.00014703	1351.3	3.5447e-06	5.2589e-06	1421.6	269.67	1.9703e-06	2.8401e-06	335.3	94.834	75.002	21.562	5.0584e-06	30.205	0.00058541	0.00085433	0.00023934	1334	9.2658e-06	9.9389e-06	1400.9	268.16	8.7027e-06	9.9598e-06	334.16	95.486	75.724	21.898	9.004e-06	30.745	227.033	128.432	82.921	43.856	203.912	243.794	43.911	51.339	241.944	159.691	50.508	58.335	57.810	64.394	211.487	63.785	-8191	255	
28780.908	1	1	0	0	0.065486	0.18992	0.22202	0.1615	0.17677	0.034307	0.26494	0.21443	0.15072	0.29144	0.056346	0.15697	0.043219	0.1087	0.042243	0.12697	-2.1437	-2.9479	-2.45	-2.875	-2.8271	-2.5542	-3.0729	-2.8792	-2.725	-2.875	-2.7979	-2.8792	-2.7354	-2.6813	-2.8708	-2.7188	266.571	313.154	326.209	308.586	349.088	213.832	307.430	61.635	225.774	232.254	324.815	383.932	273.695	59.708	349.111	366.459	0.0002561	0.00034157	9.4373e-05	1351.5	4.8458e-06	2.6778e-06	1421.3	269.86	4.4896e-06	1.4878e-06	333.7	94.91	74.924	21.517	3.5855e-06	30.344	0.00059688	0.00085864	0.00024641	1335	9.0094e-06	9.7056e-06	1402.4	268.27	8.8028e-06	9.3612e-06	334.91	95.52	75.507	21.948	8.9912e-06	30.717	222.529	114.539	113.330	43.838	233.876	218.390	44.198	51.395	213.062	219.317	50.607	58.176	58.339	64.236	180.729	64.044	-8191	255	
28781.006	1	1	0	0	0.077911	0.22229	0.098923	0.24519	0.20283	0.068449	0.24012	0.23877	0.15824	0.2065	0.038481	0.14371	0.31317	0.16246	0.11037	0.29373	-2.1979	-2.7417	-2.5604	-2.975	-2.9667	-2.4667	-3.1312	-2.9646	-2.4688	-3.0396	-2.7979	-2.8042	-2.9917	-2.6688	-2.625	-2.7146	110.867	173.673	262.445	367.140	73.185	327.563	327.427	392.643	366.693	217.144	354.935	235.136	251.898	137.831	359.730	337.675	0.00026166	0.00035104	3.8039e-05	1356	5.8258e-06	5.0265e-06	1424.7	270.38	4.7049e-06	2.6097e-06	337.79	94.78	75.539	21.641	1.5192e-06	30.434	0.0005789	0.00088211	0.00024057	1336.3	8.9887e-06	9.5067e-06	1402.9	268.91	9.0323e-06	9.5173e-06	335.81	95.569	75.843	21.912	8.8034e-06	30.748	215.357	123.868	115.230	43.886	224.628	192.918	44.074	51.155	226.754	199.720	50.829	57.930	57.980	64.197	207.145	64.186	-8191	255	
28781.102	1	1	0	0	0.15707	0.077726	0.10683	0.19093	0.12171	0.1357	0.088726	0.27317	0.059028	0.13711	0.1792	0.16119	0.15878	0.075689	0.15946	0.16133	-2.2625	-2.7167	-2.575	-2.7354	-2.6792	-2.7208	-2.8542	-2.8646	-2.6104	-2.9229	-2.7229	-2.7062	-2.9542	-2.7104	-2.7667	-3.0021	128.311	127.364	292.383	366.234	342.150	90.850	391.107	348.752	193.787	242.303	317.172	345.842	51.376	245.122	272.593	353.133	0.00025648	0.00044493	0.00017421	1352.8	5.5896e-06	3.5724e-06	1421.1	270.45	4.002e-06	3.9366e-06	337.29	94.918	75.717	21.589	4.2213e-06	30.401	0.00056769	0.00086767	0.00023614	1333.5	8.8659e-06	9.182e-06	1400.8	268.83	8.687e-06	9.2734e-06	335.42	95.473	75.899	21.946	8.7072e-06	30.696	231.025	114.977	119.139	43.675	230.315	173.024	43.929	51.193	197.232	161.876	50.561	57.970	57.971	64.590	215.167	63.753	-8191	255	
28781.197	1	1	0	0	0.13995	0.1315	0.17379	0.052369	0.28129	0.08159	0.096422	0.11774	0.12781	0.37482	0.18652	0.12627	0.17636	0.15235	0.0046899	0.10494	-2.1813	-2.7438	-2.6958	-2.6083	-2.9875	-2.6188	-2.9042	-2.9208	-2.4958	-2.9354	-2.8354	-2.7521	-2.8396	-2.6854	-2.8667	-2.8646	213.421	191.183	323.418	168.272	98.754	275.471	139.923	357.360	389.425	175.248	52.972	49.468	371.253	254.612	263.538	372.040	0.00022961	0.00025308	0.00014025	1364	4.7055e-06	3.7736e-06	1425.1	269.61	2.9884e-06	2.0271e-06	335.75	95.315	75.805	21.792	3.6446e-07	30.212	0.00055613	0.00081591	0.00022816	1338.2	8.789e-06	9.4237e-06	1402.1	268.36	8.2713e-06	9.2363e-06	334.04	95.52	75.795	21.949	8.5726e-06	30.727	229.180	87.714	111.233	43.900	210.172	189.767	44.228	51.178	221.977	210.187	50.626	58.279	58.299	64.403	79.858	63.609	-8191	255	
28781.293	1	1	0	0	0.09305	0.14771	0.25461	0.078946	0.1642	0.056514	0.35109	0.17438	0.15178	0.24698	0.16511	0.36818	0.074335	0.30467	0.31554	0.22459	-2.1042	-2.8812	-2.425	-2.6604	-2.8229	-2.6854	-2.9146	-3.0396	-2.6604	-2.8729	-2.8458	-2.5292	-2.8688	-2.8333	-2.6437	-2.8792	292.636	318.695	254.312	367.468	315.273	183.711	377.679	68.658	95.422	187.643	291.300	383.510	173.644	267.214	94.651	363.713	0.00022843	0.00027045	0.00010238	1350.5	5.5429e-06	4.5901e-06	1422	270.1	3.9585e-06	3.29e-06	336.26	95.134	75.293	21.751	3.9312e-06	30.131	0.00056717	0.00082965	0.00023577	1334.2	9.0268e-06	1.0021e-05	1401.6	268.55	8.4965e-06	9.4445e-06	335.4	95.571	75.696	21.936	8.8635e-06	30.726	230.260	111.633	150.006	43.948	221.821	171.957	44.078	51.131	216.573	139.012	51.135	58.085	58.058	64.128	217.525	64.020	-8191	255	
28781.414	1	1	0	0	0.055998	0.099375	0.062649	0.092397	0.16923	0.47336	0.16637	0.092705	0.032041	0.17761	0.13299	0.23958	0.27684	0.071303	0.078177	0.17645	-2.0896	-2.7021	-2.7042	-2.7042	-2.8708	-2.7208	-2.8458	-2.9271	-2.5729	-2.8625	-2.9854	-2.6917	-2.9479	-2.6979	-2.5083	-2.8458	197.247	34.812	357.006	352.990	188.896	173.426	300.563	74.557	349.852	264.552	50.935	365.362	227.133	38.125	94.933	44.636	0.00022406	0.00026383	9.2482e-05	1347.8	2.6401e-06	4.9316e-06	1424.6	271.43	1.2116e-06	4.9088e-06	335.79	94.978	75.093	21.719	3.8376e-06	30.419	0.00057648	0.00083109	0.00022805	1333.6	8.8765e-06	9.2598e-06	1402	268.96	8.4315e-06	9.0866e-06	335.64	95.57	75.622	21.98	8.9131e-06	30.841	229.876	130.472	116.927	43.811	242.717	180.946	44.181	50.833	226.267	182.085	50.793	57.949	57.873	64.354	204.055	64.060	-8191	255	
28781.510	1	1	0	0	0.14206	0.13611	0.37592	0.10778	0.22705	0.17756	0.21189	0.30138	0.23945	0.11792	0.15302	0.1007	0.17049	0.22972	0.19962	0.029152	-2.0583	-2.5833	-2.8646	-2.6521	-2.6	-2.9062	-2.8521	-3.0521	-2.7	-2.8417	-2.7604	-2.6458	-2.7562	-2.7771	-2.725	-2.9646	284.504	125.559	271.612	273.718	308.425	52.470	311.049	362.444	151.342	159.584	256.649	346.523	101.749	287.179	145.859	340.373	0.00024018	0.00031162	0.00010322	1349.8	4.0013e-06	2.43e-06	1419.3	269.69	2.981e-06	6.6685e-06	334.78	94.976	75.305	21.56	4.0071e-06	30.35	0.00055916	0.00083449	0.00022638	1333.6	8.8619e-06	9.519e-06	1401.7	269.06	8.4028e-06	9.2818e-06	334.24	95.52	75.75	21.896	8.4904e-06	30.722	226.549	140.682	84.526	43.860	231.166	163.662	44.242	51.378	200.208	195.335	50.642	58.039	58.286	64.640	191.382	64.109	-8191	255	
28781.605	1	1	0	0	0.033779	0.071319	0.053396	0.26833	0.29063	0.21257	0.27031	0.11263	0.13243	0.0123	0.32406	0.074834	0.35073	0.22865	0.16461	0.14071	-2.2146	-2.4271	-2.7479	-2.7188	-2.7333	-2.7188	-2.775	-3	-2.6688	-2.5271	-3.0563	-2.8042	-2.8396	-2.8208	-2.5792	-2.9	241.358	35.160	347.425	58.151	245.493	369.934	341.149	243.893	300.993	248.882	35.856	190.552	359.774	372.015	82.740	197.473	0.00023489	0.00032767	0.00020664	1352.5	4.669e-06	1.6447e-06	1425	270.67	2.581e-06	4.6138e-06	334.3	94.522	75.973	21.606	2.5048e-06	30.448	0.00057031	0.0008369	0.00023126	1334.4	8.936e-06	9.346e-06	1401.5	269.07	8.4472e-06	9.043e-06	334.58	95.566	75.865	21.911	8.916e-06	30.829	229.840	128.682	114.894	43.865	224.512	179.061	44.254	51.082	214.641	173.688	50.955	58.189	58.329	64.777	200.882	64.095	-8191	255	
28781.701	1	1	0	0	0.091274	0.11478	0.071736	0.19862	0.26611	0.072228	0.3167	0.13934	0.12798	0.10803	0.30722	0.13984	0.10241	0.016045	0.066731	0.085452	-2.1875	-2.4667	-2.9792	-2.8438	-2.8812	-2.9208	-2.6583	-2.8417	-2.9042	-2.9458	-2.9854	-2.8875	-2.8167	-2.9917	-2.5333	-2.8875	41.759	260.246	362.904	42.725	372.523	243.958	323.141	377.176	131.851	77.029	359.016	381.705	250.490	106.678	203.920	72.926	0.00023084	0.00038364	0.00010761	1360.7	4.5964e-06	3.6651e-06	1422.8	272.02	3.0288e-06	6.0163e-06	335.4	94.875	75.659	21.714	3.477e-06	30.442	0.00055682	0.00082384	0.00022606	1337.2	9.0453e-06	9.2805e-06	1402.4	269.34	8.4651e-06	9.3404e-06	334.4	95.543	75.668	21.986	8.4921e-06	30.861	220.647	119.410	146.814	43.978	204.086	197.118	44.138	51.073	205.896	197.544	50.313	58.048	58.911	64.605	187.646	63.831	-8191	255	
28781.799	1	1	0	0	0.045153	0.074247	0.23838	0.20918	0.11006	0.12209	0.069806	0.43282	0.21641	0.11369	0.16055	0.25611	0.10508	0.35584	0.1891	0.19539	-2.3563	-2.5625	-2.8042	-2.8354	-2.8396	-2.7979	-2.8417	-2.9458	-2.8521	-2.825	-2.9229	-2.8583	-2.9	-2.9104	-2.6146	-3.0875	367.417	254.714	339.837	383.337	348.750	241.307	220.583	380.766	369.603	365.527	83.074	377.291	378.074	311.129	35.682	323.396	0.00025294	0.00034747	4.0162e-05	1352.6	3.7531e-06	4.1369e-06	1420.9	269.53	2.7752e-06	3.8328e-06	334.16	94.585	76.109	21.589	4.0055e-06	30.38	0.00057086	0.00082476	0.000228	1333.9	8.683e-06	9.3453e-06	1400.2	268.77	8.4883e-06	9.192e-06	333.78	95.453	76.005	21.919	8.5936e-06	30.839	223.117	107.262	205.837	43.885	216.189	204.449	44.235	51.156	198.195	215.840	50.885	57.797	58.494	64.291	219.209	64.088	-8191	255	
28781.893	1	1	0	0	0.19632	0.10309	0.066921	0.22023	0.046577	0.052492	0.2279	0.042127	0.064566	0.0987	0.18488	0.17012	0.31956	0.10684	0.024068	0.25263	-2.3438	-2.4938	-2.6083	-2.7479	-2.7	-2.9479	-2.8146	-2.8854	-2.7229	-2.5042	-3.0083	-2.9042	-2.7271	-2.9333	-2.7875	-2.875	333.695	198.567	68.076	387.733	292.847	150.895	359.984	287.340	138.367	272.283	248.294	335.304	69.895	63.593	84.296	239.836	0.00025961	0.00033444	8.4394e-05	1353	5.4191e-06	1.8749e-06	1424.8	269.73	3.2749e-06	5.0108e-06	335.49	95.615	75.502	21.6	1.9283e-06	30.186	0.000547	0.00083506	0.00022397	1333.9	8.816e-06	9.1055e-06	1403.2	268.46	8.4304e-06	9.7151e-06	334.81	95.803	75.783	21.948	8.9177e-06	30.725	230.807	100.989	131.386	43.939	222.293	172.409	44.335	51.430	237.633	202.495	50.906	57.817	58.321	64.102	192.321	63.979	-8191	255	
28781.988	1	1	0	0	0.070341	0.16958	0.18915	0.069307	0.034085	0.051086	0.27537	0.26532	0.30188	0.058685	0.13086	0.29548	0.21621	0.24863	0.11869	0.22423	-2.4333	-2.5646	-2.8688	-2.6646	-2.575	-2.8438	-2.8354	-2.8937	-2.9083	-2.6125	-2.9708	-2.7646	-2.6229	-3.1	-2.7104	-2.7396	380.915	35.261	328.604	357.478	240.865	372.541	331.475	36.275	322.542	42.305	329.341	377.730	38.353	308.420	223.602	129.469	0.00025139	0.00044443	0.00012077	1356.5	4.9376e-06	3.7584e-06	1420.4	270.8	4.2943e-06	4.5642e-06	334.96	95.474	75.001	21.615	3.2574e-06	30.334	0.00056347	0.00082298	0.00022853	1335.3	8.7683e-06	9.1399e-06	1401.7	268.5	8.3179e-06	9.4842e-06	334.62	95.563	75.709	21.88	8.9131e-06	30.78	229.991	121.554	144.965	43.749	227.547	234.688	44.061	51.409	232.131	178.515	50.721	57.777	58.274	64.435	234.674	63.954	-8191	255	
28782.109	1	1	0	0	0.1743	0.13011	0.20648	0.50034	0.21691	0.37665	0.11997	0.19692	0.34988	0.33608	0.22007	0.10496	0.16052	0.35873	0.11992	0.15688	-2.5458	-2.5021	-2.7875	-2.8875	-2.7146	-2.6958	-2.8542	-2.8208	-2.8854	-2.5938	-2.8396	-2.85	-2.8042	-3.0312	-2.775	-2.6437	281.745	312.724	354.672	391.994	176.529	73.230	366.765	267.821	236.324	317.051	308.834	306.257	372.007	328.308	283.769	223.564	0.00024475	0.0005344	0.00012875	1349.6	1.6456e-06	2.6547e-06	1423.9	270.09	3.2438e-06	1.8301e-06	336.34	95.147	75.185	21.585	1.2632e-06	30.218	0.00056241	0.00086255	0.00023183	1334.3	8.8558e-06	9.3265e-06	1402.4	268.64	8.1403e-06	9.7015e-06	334.69	95.535	75.708	21.954	8.5877e-06	30.646	223.177	142.413	141.045	43.901	187.431	200.049	44.216	51.183	218.099	191.888	50.541	58.060	58.416	64.230	199.509	64.125	-8191	255	
28782.205	1	1	0	0	0.044497	0.10548	0.35257	0.040307	0.15637	0.26092	0.16721	0.12709	0.13755	0.12709	0.11057	0.1066	0.20594	0.21929	0.28323	0.11411	-2.4417	-2.5208	-2.7479	-3.0438	-2.7188	-2.925	-2.9604	-2.7708	-2.9021	-2.6271	-2.9917	-2.8958	-2.625	-2.8792	-2.5021	-2.8125	329.610	257.954	52.233	212.335	218.626	274.122	306.625	357.376	367.440	121.912	290.767	303.920	326.398	362.406	376.570	97.952	0.00027331	0.00045051	0.0001125	1357.7	5.2765e-06	1.8068e-06	1418.4	270.48	3.7524e-06	4.6445e-06	335.69	95.263	75.447	21.439	2.3448e-06	30.277	0.00057225	0.00083696	0.00022636	1336.9	8.6836e-06	8.9357e-06	1400.3	268.85	8.287e-06	9.3768e-06	334.69	95.7	75.9	21.892	8.2356e-06	30.71	221.902	134.832	109.878	43.898	229.175	181.156	43.977	51.205	274.992	181.619	50.880	57.659	58.427	64.547	232.898	64.091	-8191	255	
28782.303	1	1	0	0	0.080067	0.10343	0.14652	0.22938	0.17077	0.18381	0.21583	0.23401	0.18271	0.19544	0.16712	0.029253	0.084491	0.28493	0.38861	0.098368	-2.4542	-2.7479	-2.8688	-3.0021	-2.5229	-2.8063	-2.7708	-2.825	-2.8187	-2.8417	-2.7646	-3.0187	-2.6479	-2.65	-2.8896	-2.7729	240.819	128.789	134.083	374.763	35.743	328.145	266.471	384.240	239.090	317.941	383.754	384.111	322.136	36.832	84.526	384.662	0.00026711	0.00022313	0.00014717	1350.6	3.1496e-06	3.1272e-06	1421.6	269.7	2.2667e-06	4.6103e-06	336.1	95.587	75.273	21.739	2.8151e-06	30.375	0.0005615	0.00083811	0.00022367	1333.8	8.8277e-06	9.0978e-06	1401	268.57	8.2897e-06	9.3775e-06	334.79	95.699	75.697	21.966	8.393e-06	30.763	221.359	114.420	137.667	43.811	197.585	177.420	43.952	50.924	242.109	189.314	50.675	57.555	58.413	64.626	175.074	64.122	-8191	255	
28782.373	1	1	0	0	0.29644	0.28544	0.17596	0.25611	0.12218	0.046081	0.1786	0.085704	0.097067	0.11861	0.2739	0.055608	0.075312	0.099736	0.075898	0.16589	-2.4437	-2.4104	-2.7729	-3.0021	-2.7687	-2.825	-3.0854	-2.6542	-2.8333	-2.65	-2.8167	-2.8417	-2.5521	-2.9729	-2.8229	-2.7792	318.388	214.234	336.360	62.286	176.978	156.169	347.271	254.709	217.174	60.788	318.839	34.323	269.905	91.988	188.400	265.964	0.00025446	0.00015939	0.00010232	1346.5	4.7076e-06	9.4714e-07	1415.1	270.73	5.4058e-06	2.43e-06	335.36	94.877	75.21	21.719	2.919e-06	30.287	0.00057145	0.00081775	0.00022923	1332.6	8.8188e-06	8.7945e-06	1398.1	268.97	8.3157e-06	8.9435e-06	334.61	95.651	75.547	21.963	8.5376e-06	30.711	227.732	152.010	75.045	43.735	215.113	188.782	44.388	51.262	229.210	159.524	50.664	58.209	58.540	64.671	194.499	63.997	-8191	255	
28782.494	1	1	0	0	0.13534	0.21787	0.15399	0.092319	0.17411	0.083755	0.19906	0.24795	0.22131	0.20363	0.26386	0.053797	0.20921	0.092214	0.22296	0.17448	-2.4146	-2.5438	-2.4667	-3.0625	-2.6875	-2.7313	-2.8542	-2.7333	-2.7146	-2.7542	-2.8292	-2.8625	-2.5896	-2.725	-2.6042	-2.6146	276.886	277.459	346.476	121.491	159.476	237.642	237.300	298.817	311.794	283.349	392.835	123.655	244.872	84.296	352.686	263.750	0.00025423	0.00030712	0.00011959	1354	4.5596e-06	3.455e-06	1418.2	270.02	4.047e-06	5.543e-06	336	94.983	75.281	21.597	1.4456e-06	30.326	0.00054121	0.00083351	0.00022588	1335.5	8.9421e-06	9.1768e-06	1400.6	268.89	8.1436e-06	9.4581e-06	334.93	95.497	75.702	21.929	8.7032e-06	30.785	227.682	158.410	125.447	43.822	222.206	193.639	44.272	51.210	260.558	200.497	50.750	57.684	58.321	64.339	118.262	63.954	-8191	255	
28782.590	1	1	0	0	0.26001	0.17513	0.26917	0.50932	0.13365	0.23999	0.18267	0.29848	0.02292	0.15217	0.18459	0.10712	0.14359	0.092967	0.12366	0.18331	-2.2729	-2.65	-2.4979	-3.025	-2.6521	-2.7271	-2.9271	-2.7917	-3.0187	-2.9292	-2.5646	-2.9542	-2.725	-2.6	-2.825	-2.6083	166.451	216.338	287.063	349.041	67.822	162.435	324.713	357.190	354.372	279.855	275.734	282.347	274.548	270.800	342.889	45.407	0.00024514	0.00045177	9.1956e-05	1351.6	3.0613e-06	2.8473e-06	1420.7	268.79	4.8179e-06	4.1557e-06	336.53	95.243	75.485	21.501	4.0675e-06	30.465	0.0005561	0.00081769	0.00023379	1333.3	8.7072e-06	9.2099e-06	1400.5	268.19	8.3152e-06	9.0762e-06	335.62	95.899	75.629	21.925	8.3772e-06	30.78	224.876	132.381	155.048	43.942	185.346	171.893	44.151	51.370	230.054	216.979	50.889	58.122	58.339	64.194	189.607	63.902	-8191	255	
28782.686	1	1	0	0	0.060413	0.075035	0.12187	0.30648	0.026129	0.12817	0.37222	0.064076	0.27268	0.13046	0.099999	0.017639	0.22641	0.30063	0.073776	0.10166	-2.3187	-2.825	-2.6708	-3.0479	-2.6021	-2.5542	-3.0375	-2.7083	-2.8292	-2.825	-2.7146	-2.9104	-2.7542	-2.7771	-2.8271	-2.6813	249.534	260.600	93.417	326.948	121.949	339.889	36.014	291.447	380.379	237.506	70.407	230.800	53.966	311.948	167.671	68.985	0.00025094	0.00046373	8.7286e-05	1346.2	6.8192e-06	3.285e-06	1423.6	269.91	3.7504e-06	4.1518e-06	335.97	94.626	75.307	21.574	3.4899e-06	30.223	0.0005557	0.00080895	0.00022041	1331	8.6741e-06	8.9746e-06	1401.9	268.7	8.0185e-06	9.1452e-06	335.25	95.634	75.749	21.931	8.4128e-06	30.757	228.242	131.407	115.190	43.880	230.476	175.682	43.898	51.087	255.500	190.652	50.833	57.612	58.212	64.386	215.037	63.890	-8191	255	
28782.783	1	1	0	0	0.19953	0.056072	0.086483	0.18293	0.097936	0.31735	0.21641	0.11233	0.10529	0.35809	0.22733	0.11922	0.16157	0.02926	0.15952	0.37578	-2.2687	-2.6063	-2.5687	-3.0042	-2.7542	-2.7125	-3.1417	-2.8396	-2.6542	-2.8312	-2.8083	-2.85	-2.6312	-2.6917	-2.8771	-2.5854	390.929	365.019	214.212	298.307	264.933	379.391	320.604	90.768	247.455	69.241	276.559	137.657	71.252	289.593	144.855	111.993	0.00023114	0.00019903	0.000174	1355.8	4.7407e-06	2.1834e-06	1423.8	268.68	3.2947e-06	2.7883e-06	335.62	94.797	75.002	21.659	2.471e-06	30.466	0.00056364	0.00083149	0.00023796	1333.8	8.5641e-06	9.2986e-06	1401.8	267.91	8.2978e-06	9.2102e-06	335.04	95.469	75.464	21.933	8.3277e-06	30.813	225.184	93.632	124.748	43.997	194.741	214.434	44.015	51.271	208.153	175.859	50.619	58.302	58.317	64.197	193.543	63.560	-8191	255	
28782.900	1	1	0	0	0.013166	0.24403	0.083304	0.47704	0.10106	0.2824	0.30752	0.24889	0.072753	0.054385	0.40358	0.088438	0.14081	0.22559	0.24919	0.10392	-2.2292	-2.6583	-2.5542	-2.9771	-2.8187	-2.675	-3.1458	-2.825	-2.6813	-3	-2.5938	-3.0396	-2.8646	-2.675	-2.8563	-2.7375	208.142	165.195	362.607	340.725	245.032	44.875	366.910	330.393	361.486	88.618	382.872	244.144	312.880	325.288	217.297	268.638	0.00022606	0.00029006	5.0488e-05	1349.2	5.3203e-06	1.7267e-06	1420	269.92	4.2959e-06	4.0136e-06	334.87	94.594	75.277	21.722	1.4159e-06	30.178	0.00056158	0.00081763	0.00022459	1333.1	8.3718e-06	8.9435e-06	1398.6	268.38	8.1728e-06	8.8622e-06	334.86	95.49	75.575	21.978	8.5498e-06	30.714	227.397	146.551	139.426	43.990	204.270	165.995	44.064	51.103	246.734	209.461	50.801	57.937	58.208	64.567	230.259	64.009	-8191	255	
28782.998	1	1	0	0	0.10241	0.045181	0.14459	0.14146	0.13859	0.18831	0.1075	0.3793	0.22283	0.11857	0.15617	0.044369	0.22021	0.15456	0.20525	0.078587	-2.2083	-2.8812	-2.5	-2.9062	-2.7604	-2.4729	-3.0583	-2.6854	-2.9313	-2.9958	-2.8625	-2.8708	-2.6958	-2.6896	-3.0458	-2.7958	251.356	35.523	346.944	340.230	324.224	126.255	307.808	331.258	189.227	212.547	356.919	69.760	68.723	377.293	128.435	174.362	0.000244	0.00028736	9.7375e-05	1352	5.1582e-06	3.451e-06	1419.1	269.77	3.7458e-06	2.9728e-06	335.69	94.552	75.221	21.809	1.2911e-06	30.033	0.00056104	0.00082195	0.0002232	1335.3	8.9522e-06	9.0323e-06	1398.3	268.67	8.3606e-06	9.071e-06	334.85	95.554	75.774	21.986	8.5457e-06	30.709	228.542	125.657	122.031	44.000	211.467	184.060	44.205	51.228	221.809	178.980	50.258	57.939	58.037	64.321	212.783	63.831	-8191	255	
28783.094	1	1	0	0	0.012727	0.21816	0.04435	0.29072	0.097837	0.080201	0.047859	0.18832	0.074931	0.33195	0.12946	0.22274	0.098635	0.18601	0.15998	0.12706	-2.1271	-2.8354	-2.675	-2.8458	-2.9833	-2.7	-3.0646	-2.9188	-2.7771	-3.0667	-2.6854	-2.7604	-2.8833	-2.6021	-2.7771	-2.8229	69.417	276.680	155.500	293.598	217.410	369.838	239.655	270.225	81.407	383.912	390.303	108.846	260.718	39.713	65.702	262.794	0.00021439	0.00048979	4.4265e-05	1353.1	4.209e-06	1.0774e-06	1421.6	269.05	1.2869e-06	3.7143e-06	336.59	94.581	75.275	21.755	2.7129e-06	30.448	0.00056446	0.00081763	0.00023462	1336.2	8.7986e-06	9.2021e-06	1400.7	268.04	8.4965e-06	9.3534e-06	335.35	95.658	75.646	21.97	8.8653e-06	30.723	232.333	142.091	85.520	43.779	205.519	174.661	44.110	51.234	226.035	165.640	50.801	58.058	58.380	64.516	240.131	63.637	-8191	255	
28783.189	1	1	0	0	0.091267	0.02818	0.12527	0.3234	0.25491	0.24831	0.13065	0.32792	0.075702	0.13311	0.040129	0.27819	0.11194	0.25735	0.26134	0.098766	-2.1479	-2.9042	-2.7396	-3.0646	-2.8854	-2.5563	-3.0604	-2.9688	-2.6792	-2.975	-2.9104	-2.9042	-2.7687	-2.7521	-2.8958	-2.7542	292.048	182.519	269.516	379.355	119.290	89.311	249.475	271.811	40.435	378.214	86.335	74.665	362.597	50.139	296.313	368.350	0.00024796	0.00039904	4.6262e-05	1345.9	3.3133e-06	4.2155e-06	1417.9	268.92	4.2923e-06	2.4623e-06	334.75	95.016	75.515	21.657	4.7381e-06	30.328	0.00057197	0.00082879	0.00022926	1333.1	8.9135e-06	9.2449e-06	1399.3	268.68	8.5576e-06	9.371e-06	334.36	95.672	75.888	21.933	8.6641e-06	30.725	222.305	123.456	103.458	44.072	209.581	156.039	44.038	51.133	228.140	209.626	50.839	58.034	58.229	64.693	201.298	63.892	-8191	255	
28783.285	1	1	0	0	0.044213	0.12296	0.16468	0.43591	0.025123	0.12908	0.26581	0.13031	0.20405	0.091437	0.3079	0.20224	0.20273	0.055041	0.20302	0.26532	-2.2208	-2.7188	-2.6375	-2.9833	-2.8438	-2.5833	-3.0521	-2.8417	-2.6146	-2.9021	-2.8292	-2.6562	-2.8438	-2.7375	-2.9104	-3.0667	336.185	154.503	267.650	368.432	160.403	143.639	308.070	330.906	151.803	92.104	353.174	335.290	365.899	347.925	41.239	309.063	0.00023362	0.00039541	0.00014686	1351.3	5.5668e-06	3.3289e-06	1420.9	270.38	3.0982e-06	4.2063e-06	335.68	94.668	76.026	21.626	3.7498e-06	30.369	0.00055345	0.0007887	0.00022531	1333.8	8.9511e-06	9.3466e-06	1401	268.27	8.5555e-06	9.2187e-06	334.63	95.542	75.693	21.954	8.572e-06	30.789	231.042	84.780	126.475	43.734	201.259	155.715	44.178	51.073	223.519	180.841	50.483	57.909	58.128	64.437	216.822	63.880	-8191	255	
28783.383	1	1	0	0	0.33321	0.090109	0.18806	0.39281	0.12883	0.36019	0.16746	0.09529	0.1981	0.15788	0.18776	0.12535	0.084099	0.040911	0.18166	0.036359	-2.1229	-2.9146	-2.6042	-2.8312	-2.9313	-2.7354	-3.0167	-3.0438	-2.7521	-2.8354	-3.0271	-2.725	-2.9604	-2.5042	-2.8271	-3.0771	150.067	181.324	196.712	344.916	35.932	281.643	275.483	177.383	259.063	177.930	337.178	391.886	257.472	198.862	298.477	341.331	0.00026474	0.0002747	5.8564e-05	1356	2.0507e-06	3.3782e-06	1424.6	270.25	4.3867e-06	1.102e-06	336.54	95.13	75.634	21.501	3.172e-06	30.489	0.00055958	0.00080728	0.00023453	1336	8.5731e-06	9.2416e-06	1403	268.91	8.5647e-06	9.6898e-06	334.89	95.784	75.832	21.933	8.5148e-06	30.828	225.862	118.112	82.143	44.009	249.851	133.609	44.135	51.104	224.533	186.583	50.794	58.062	58.178	64.583	218.866	64.405	-8191	255	
28783.504	1	1	0	0	0.080454	0.094672	0.20344	0.13923	0.13286	0.066293	0.11398	0.14073	0.1552	0.25855	0.089034	0.080512	0.080889	0.14754	0.26556	0.21382	-2.0625	-2.7375	-2.5812	-2.7375	-3.0062	-2.7458	-2.9333	-2.9208	-2.5479	-2.8438	-2.8583	-2.5687	-3.0146	-2.7771	-2.5667	-3.0625	254.203	222.954	246.343	279.193	204.901	200.942	256.757	351.012	59.384	225.854	275.165	302.788	182.872	323.520	273.821	78.633	0.00027127	0.00052624	8.1401e-05	1354.8	4.9698e-06	6.8924e-06	1423.1	270.64	3.937e-06	5.174e-06	335.39	94.818	75.63	21.563	5.9127e-06	30.425	0.00056538	0.00083771	0.00022051	1335	8.7105e-06	9.6965e-06	1402.7	268.8	8.444e-06	9.2473e-06	334.56	95.498	75.756	21.917	8.7446e-06	30.783	226.257	123.952	120.017	43.856	217.165	202.888	44.135	51.381	206.968	198.121	50.533	57.819	58.230	64.447	188.390	63.834	-8191	255	
28783.600	1	1	0	0	0.15552	0.21819	0.045412	0.13165	0.27414	0.24886	0.31515	0.33644	0.10605	0.1136	0.061684	0.10285	0.15006	0.099323	0.11364	0.070287	-2.1792	-2.8833	-2.8521	-2.8146	-2.9646	-2.6292	-2.9625	-3.0604	-2.6646	-2.8229	-2.7667	-2.6083	-2.9042	-2.6833	-2.8063	-2.8563	112.877	196.151	71.955	40.444	169.461	258.759	350.096	355.301	366.467	172.709	43.500	287.506	339.233	60.363	320.555	390.451	0.00022403	0.00045686	0.00011557	1354.6	2.1252e-06	3.0085e-06	1427.5	270.44	3.5026e-06	2.6479e-06	333.83	94.7	75.996	21.745	3.1563e-06	30.288	0.00054252	0.00081269	0.00022523	1335.1	8.6926e-06	9.1366e-06	1403.3	268.89	8.622e-06	9.2922e-06	334.2	95.541	75.942	21.972	8.3119e-06	30.728	232.190	120.067	126.226	43.854	212.181	204.682	44.062	51.151	226.442	189.103	50.793	57.794	58.295	64.409	235.338	63.637	-8191	255	
28783.672	1	1	0	0	0.2247	0.094025	0.069372	0.40266	0.27953	0.18746	0.36037	0.12933	0.20616	0.39013	0.15582	0.12408	0.24608	0.09083	0.23247	0.25224	-2.1625	-2.7542	-2.5938	-2.8646	-2.675	-2.8333	-3.0229	-3.0708	-2.8333	-3	-2.9688	-2.7438	-2.9521	-2.8833	-2.6708	-3.0646	75.470	177.346	115.356	336.940	255.992	226.638	347.957	58.742	347.666	150.236	229.377	379.820	61.786	234.689	142.885	37.829	0.00023933	0.00028721	0.00013733	1353.3	4.6414e-06	3.6198e-06	1423.6	269.86	3.7218e-06	2.0026e-06	334.18	95.029	75.681	21.8	3.4152e-06	30.355	0.00055493	0.00084375	0.00023285	1336.6	8.9511e-06	9.0692e-06	1401.5	268.64	8.5354e-06	8.9402e-06	334.69	95.492	75.862	21.962	8.7277e-06	30.764	221.864	114.446	128.416	43.862	205.753	169.767	43.995	51.150	190.862	194.791	50.689	57.905	58.525	64.504	196.125	64.195	-8191	255	
28783.768	1	1	0	0	0.1719	0.14577	0.069517	0.056139	0.076528	0.20169	0.13894	0.11063	0.051073	0.34588	0.16801	0.27028	0.076585	0.15743	0.12212	0.11545	-2.2229	-2.6854	-2.7917	-2.8	-2.7396	-2.7687	-2.8583	-3.0229	-2.725	-2.7125	-3.1354	-2.8042	-2.7646	-2.725	-2.6396	-2.9667	117.140	175.257	276.407	362.707	277.198	226.477	222.440	382.176	368.735	326.483	267.814	329.534	292.826	60.026	257.567	295.394	0.0002459	0.00045715	0.00011928	1361.8	6.6055e-06	1.4955e-06	1420.9	269.98	4.3819e-06	2.0497e-06	335.83	95.142	75.6	21.616	2.7021e-06	30.249	0.0005704	0.00083759	0.0002321	1338	9.0459e-06	9.4127e-06	1400.7	268.71	8.49e-06	9.246e-06	334.55	95.638	75.782	22.014	8.6344e-06	30.712	222.516	115.190	128.945	43.756	209.419	217.537	44.181	51.151	237.511	179.558	50.822	57.778	58.241	64.565	236.096	63.843	-8191	255	
28783.887	1	1	0	0	0.19613	0.22918	0.12951	0.29051	0.15562	0.16667	0.187	0.030906	0.13958	0.065565	0.44469	0.18764	0.15174	0.14408	0.21129	0.17543	-2.2458	-2.7604	-2.8625	-2.7812	-2.8167	-2.7812	-2.9542	-3.0979	-2.7521	-2.6625	-3.0125	-2.6979	-2.7354	-2.8979	-2.5771	-2.9375	157.488	387.215	33.789	375.464	185.119	47.801	341.600	365.098	328.593	157.363	305.293	102.509	284.393	320.128	181.999	96.896	0.00023922	0.00020211	8.5284e-05	1355.6	4.4375e-06	3.7721e-06	1422.8	269.52	3.8379e-06	1.8133e-06	335.96	94.932	74.999	21.691	3.3106e-06	30.358	0.00056095	0.00083541	0.00022724	1335.8	8.8754e-06	9.4295e-06	1402.2	268.65	8.2794e-06	9.2525e-06	334.57	95.669	75.688	21.98	8.8618e-06	30.75	223.378	145.676	153.126	43.811	230.310	189.059	43.991	51.245	231.364	193.209	51.007	57.912	57.808	64.312	209.463	63.851	-8191	255	
28783.982	1	1	0	0	0.13362	0.098735	0.1031	0.18635	0.20286	0.18518	0.26798	0.05463	0.16744	0.1252	0.10065	0.053969	0.026228	0.078339	0.27323	0.25343	-2.3333	-2.7021	-3.0583	-2.8604	-2.7458	-2.9062	-2.7792	-2.9188	-2.8187	-2.7542	-2.8417	-2.7292	-2.7521	-2.8312	-2.7396	-2.9146	210.385	83.169	112.696	364.604	245.740	216.019	357.565	206.950	161.654	125.175	40.766	230.607	354.245	262.936	226.102	313.202	0.00023686	0.00033737	7.251e-05	1354.5	3.7465e-06	3.7485e-06	1424	270.7	3.5451e-06	3.6555e-06	333.85	95.091	75.279	21.584	4.6272e-06	30.497	0.00056954	0.00084311	0.00022926	1334.5	8.8883e-06	8.7582e-06	1402.2	268.94	8.3022e-06	9.2519e-06	334.15	95.557	75.615	21.943	8.7288e-06	30.837	227.644	90.810	110.865	43.736	230.568	183.643	44.122	51.123	213.310	193.860	50.605	57.719	58.343	64.244	179.276	64.123	-8191	255	
28784.078	1	1	0	0	0.11592	0.26618	0.25393	0.16406	0.18845	0.077639	0.44624	0.09735	0.14368	0.17418	0.17287	0.24034	0.2195	0.34198	0.28522	0.28689	-2.3229	-2.7875	-2.9354	-2.7708	-2.8521	-3.0167	-2.8792	-2.8917	-2.7604	-2.6667	-2.9833	-2.7812	-2.6875	-2.9938	-2.6333	-2.75	242.394	309.494	386.998	71.763	234.526	278.631	337.812	369.353	214.077	312.406	340.589	211.409	311.162	34.891	97.388	126.277	0.00023884	0.00030477	0.00010919	1352.1	5.1568e-06	1.216e-06	1421.5	269.87	2.0936e-06	4.0141e-06	336.87	95.139	75.301	21.873	3.2919e-06	30.287	0.00055399	0.00083121	0.00022949	1336.1	8.9113e-06	9.02e-06	1401.4	268.06	8.0624e-06	9.5212e-06	334.79	95.703	75.79	21.988	8.446e-06	30.79	227.861	112.793	114.211	43.993	228.308	214.642	44.092	51.215	199.293	214.369	50.943	57.803	58.494	64.352	219.527	63.833	-8191	255	
28784.174	1	1	0	0	0.15231	0.15002	0.15516	0.38283	0.18965	0.052703	0.22576	0.33419	0.045538	0.209	0.018375	0.13081	0.28902	0.032533	0.2535	0.13325	-2.3333	-2.725	-2.9208	-2.9333	-2.8438	-2.9854	-2.9646	-2.8521	-2.8792	-2.6646	-2.8875	-2.6375	-2.6125	-3.1646	-2.5167	-2.8646	325.109	119.284	186.964	366.910	183.299	291.230	391.842	363.137	97.202	264.592	388.277	108.879	191.434	339.555	115.370	140.545	0.00024362	0.00039763	9.9515e-05	1357.7	7.9099e-06	3.9609e-06	1423.4	269.21	4.2674e-06	1.4837e-06	336.13	95.525	75.448	21.635	3.332e-06	30.31	0.00055379	0.0008273	0.00022995	1336.4	8.9623e-06	9.2001e-06	1402.8	268.39	8.1853e-06	9.073e-06	334.86	95.819	75.692	21.924	8.5207e-06	30.767	224.440	136.835	141.870	43.704	201.464	208.651	43.902	51.194	238.071	136.173	50.810	58.000	57.979	64.655	225.206	63.696	-8191	255	
28784.270	1	1	0	0	0.33592	0.25153	0.10505	0.44992	0.035168	0.16373	0.31083	0.27428	0.10901	0.44871	0.065425	0.15855	0.22659	0.22731	0.18128	0.06742	-2.5354	-2.6458	-2.9104	-3.0208	-2.6417	-2.8896	-2.9833	-2.9917	-2.9146	-2.6542	-2.8667	-2.8	-2.6479	-2.9708	-2.7396	-2.7792	258.690	376.756	330.428	362.095	320.714	148.829	359.668	348.932	367.960	275.223	137.109	341.065	318.705	336.556	295.728	239.778	0.00024553	0.00035959	5.4094e-05	1354.7	3.8475e-06	3.7833e-06	1424.9	270.25	3.4608e-06	1.4435e-06	336.28	95.009	75.927	21.587	3.8803e-06	30.512	0.00055485	0.00080527	0.00023115	1338.1	8.8558e-06	9.0355e-06	1403.7	269.49	8.2632e-06	9.2877e-06	334.64	95.723	75.899	21.949	8.4548e-06	30.874	229.888	122.353	134.661	43.989	197.178	167.239	44.149	51.295	229.542	232.406	50.477	58.053	58.406	64.669	224.100	63.543	-8191	255	
28784.365	1	1	0	0	0.25477	0.23483	0.20069	0.29817	0.10245	0.081339	0.04309	0.19507	0.11146	0.27467	0.60986	0.04816	0.25065	0.1051	0.046418	0.18129	-2.4104	-2.5	-2.5812	-2.9375	-2.6146	-2.8792	-2.7917	-2.7542	-2.9062	-2.6063	-2.775	-2.7188	-2.775	-2.8167	-2.7333	-2.6917	215.451	365.724	76.833	56.579	321.841	188.236	356.133	380.923	288.877	235.588	371.747	52.550	175.093	233.215	192.844	95.772	0.00023977	0.00032131	8.4748e-05	1353	5.3955e-06	3.5069e-06	1424.6	269.52	2.324e-06	2.7419e-06	335.47	94.561	75.428	21.64	4.2359e-06	30.386	0.00054292	0.00084369	0.00023265	1335.7	9.0538e-06	9.0641e-06	1403	268.91	8.1214e-06	9.315e-06	334.98	95.248	75.778	21.953	8.4822e-06	30.799	223.061	123.437	125.933	43.783	236.937	185.298	44.137	51.180	220.230	152.568	50.623	57.742	58.196	64.190	222.750	63.706	-8191	255	
#DATA ENDS
