BOXY.EXE: ISS Imagent and Oximeter Data Acquisition Program Version 0.80
Ascii Record File

#ACQ INFORMATION
2  Detector Channels 
16  External MUX Channels 
1  Auxiliary Channels 
5000  Waveform (CCF) Frequency (Hz)
1  Waveforms Skipped 
30  Waveforms Averaged 
1  Cycles Averaged 
16  Acquisitions per Waveform 
10.0806  Updata Rate (Hz) 

#FILE INFORMATION
TRUE -- External MUX Channel results are PARSED.
FALSE -- AC DC and Phase are NOT grouped.
TRUE -- Companion Program Settings File CREATED.
FALSE -- AC data not excluded
FALSE -- DC data not excluded
FALSE -- Phase data not excluded
FALSE -- Auxillary Chn. data not excluded
Tab delimiters

#CALIBRATION STATE
TRUE -- Waveform Calibration Values APPLIED.


#AUX CALIBRATION VALUES
Val Type	aux-1	

Term	1.0000e+00	
Factor	0.0000e+00	


#WF CALIBRATION VALUES
A = Detector Channel
Val Type	A-AC1	A-AC2	A-AC3	A-AC4	A-AC5	A-AC6	A-AC7	A-AC8	A-AC9	A-AC10	A-AC11	A-AC12	A-AC13	A-AC14	A-AC15	A-AC16	A-DC1	A-DC2	A-DC3	A-DC4	A-DC5	A-DC6	A-DC7	A-DC8	A-DC9	A-DC10	A-DC11	A-DC12	A-DC13	A-DC14	A-DC15	A-DC16	A-Ph1	A-Ph2	A-Ph3	A-Ph4	A-Ph5	A-Ph6	A-Ph7	A-Ph8	A-Ph9	A-Ph10	A-Ph11	A-Ph12	A-Ph13	A-Ph14	A-Ph15	A-Ph16	

Term	0.00000e+00	0.00000e+00	0.00000e+00	0.00000e+00	0.00000e+00	0.00000e+00	0.00000e+00	0.00000e+00	0.00000e+00	0.00000e+00	0.00000e+00	0.00000e+00	0.00000e+00	0.00000e+00	0.00000e+00	0.00000e+00	0.00000e+00	0.00000e+00	0.00000e+00	0.00000e+00	0.00000e+00	0.00000e+00	0.00000e+00	0.00000e+00	0.00000e+00	0.00000e+00	0.00000e+00	0.00000e+00	0.00000e+00	0.00000e+00	0.00000e+00	0.00000e+00	0.00000e+00	0.00000e+00	0.00000e+00	0.00000e+00	0.00000e+00	0.00000e+00	0.00000e+00	0.00000e+00	0.00000e+00	0.00000e+00	0.00000e+00	0.00000e+00	0.00000e+00	0.00000e+00	0.00000e+00	0.00000e+00	
Factor	1.00000e+00	1.00000e+00	1.00000e+00	1.00000e+00	1.00000e+00	1.00000e+00	1.00000e+00	1.00000e+00	1.00000e+00	1.00000e+00	1.00000e+00	1.00000e+00	1.00000e+00	1.00000e+00	1.00000e+00	1.00000e+00	1.00000e+00	1.00000e+00	1.00000e+00	1.00000e+00	1.00000e+00	1.00000e+00	1.00000e+00	1.00000e+00	1.00000e+00	1.00000e+00	1.00000e+00	1.00000e+00	1.00000e+00	1.00000e+00	1.00000e+00	1.00000e+00	X	X	X	X	X	X	X	X	X	X	X	X	X	X	X	X	

B = Detector Channel
Val Type	B-AC1	B-AC2	B-AC3	B-AC4	B-AC5	B-AC6	B-AC7	B-AC8	B-AC9	B-AC10	B-AC11	B-AC12	B-AC13	B-AC14	B-AC15	B-AC16	B-DC1	B-DC2	B-DC3	B-DC4	B-DC5	B-DC6	B-DC7	B-DC8	B-DC9	B-DC10	B-DC11	B-DC12	B-DC13	B-DC14	B-DC15	B-DC16	B-Ph1	B-Ph2	B-Ph3	B-Ph4	B-Ph5	B-Ph6	B-Ph7	B-Ph8	B-Ph9	B-Ph10	B-Ph11	B-Ph12	B-Ph13	B-Ph14	B-Ph15	B-Ph16	

Term	0.00000e+00	0.00000e+00	0.00000e+00	0.00000e+00	0.00000e+00	0.00000e+00	0.00000e+00	0.00000e+00	0.00000e+00	0.00000e+00	0.00000e+00	0.00000e+00	0.00000e+00	0.00000e+00	0.00000e+00	0.00000e+00	0.00000e+00	0.00000e+00	0.00000e+00	0.00000e+00	0.00000e+00	0.00000e+00	0.00000e+00	0.00000e+00	0.00000e+00	0.00000e+00	0.00000e+00	0.00000e+00	0.00000e+00	0.00000e+00	0.00000e+00	0.00000e+00	-1.75373e+02	-1.30324e+02	-1.22335e+02	-1.82865e+02	-7.94388e+01	-6.73137e+01	-1.55847e+02	-1.62015e+02	-8.73043e+01	-6.50213e+01	-1.70182e+02	-1.72231e+02	-1.79732e+02	-1.76323e+02	-7.82466e+01	-1.49486e+02	
Factor	2.80776e-05	1.59647e-04	4.56555e-05	1.56367e-01	1.46645e-06	1.62896e-06	1.65078e-01	5.36098e-02	1.54737e-06	1.86707e-06	8.00233e-02	3.09967e-02	2.31372e-02	8.58255e-03	1.59471e-06	1.26389e-02	1.74870e-05	3.64141e-05	1.03222e-05	7.94208e-02	3.37746e-07	4.14866e-07	7.89372e-02	2.73144e-02	3.43380e-07	4.12689e-07	3.96292e-02	1.53309e-02	1.19582e-02	4.41765e-03	3.63355e-07	6.29802e-03	X	X	X	X	X	X	X	X	X	X	X	X	X	X	X	X	



#DISTANCE SETTINGS
A = Detector Channel
A-1	A-2	A-3	A-4	A-5	A-6	A-7	A-8	A-9	A-10	A-11	A-12	A-13	A-14	A-15	A-16	

2.5000e+00	3.0000e+00	2.5000e+00	3.0000e+00	2.0000e+00	3.0000e+00	1.5000e+00	3.0000e+00	3.0000e+00	3.0000e+00	3.0000e+00	3.0000e+00	3.0000e+00	3.0000e+00	1.5000e+00	3.0000e+00	

B = Detector Channel
B-1	B-2	B-3	B-4	B-5	B-6	B-7	B-8	B-9	B-10	B-11	B-12	B-13	B-14	B-15	B-16	

1.0000e+01	1.0000e+01	1.0000e+01	1.4400e+00	1.0000e+01	1.0000e+01	1.5100e+00	1.9400e+00	1.0000e+01	1.0000e+01	1.9900e+00	2.4900e+00	2.4100e+00	2.9000e+00	1.0000e+01	2.9800e+00	




#DATA BEGINS
time	group	step	mark	flag	A-AC1	A-AC2	A-AC3	A-AC4	A-AC5	A-AC6	A-AC7	A-AC8	A-AC9	A-AC10	A-AC11	A-AC12	A-AC13	A-AC14	A-AC15	A-AC16	A-DC1	A-DC2	A-DC3	A-DC4	A-DC5	A-DC6	A-DC7	A-DC8	A-DC9	A-DC10	A-DC11	A-DC12	A-DC13	A-DC14	A-DC15	A-DC16	A-Ph1	A-Ph2	A-Ph3	A-Ph4	A-Ph5	A-Ph6	A-Ph7	A-Ph8	A-Ph9	A-Ph10	A-Ph11	A-Ph12	A-Ph13	A-Ph14	A-Ph15	A-Ph16	B-AC1	B-AC2	B-AC3	B-AC4	B-AC5	B-AC6	B-AC7	B-AC8	B-AC9	B-AC10	B-AC11	B-AC12	B-AC13	B-AC14	B-AC15	B-AC16	B-DC1	B-DC2	B-DC3	B-DC4	B-DC5	B-DC6	B-DC7	B-DC8	B-DC9	B-DC10	B-DC11	B-DC12	B-DC13	B-DC14	B-DC15	B-DC16	B-Ph1	B-Ph2	B-Ph3	B-Ph4	B-Ph5	B-Ph6	B-Ph7	B-Ph8	B-Ph9	B-Ph10	B-Ph11	B-Ph12	B-Ph13	B-Ph14	B-Ph15	B-Ph16	aux-1	digaux	

1575.682	1	1	0	512	0.04501	0.22174	0.1896	0.057645	0.066413	0.18285	0.087845	0.015992	0.20001	0.045573	0.16003	0.050907	0.056821	0.30409	0.28405	0.26777	-2.4792	-3.0687	-2.9062	-2.9583	-3.1813	-3.1	-3.1854	-3.2792	-2.9396	-3.1875	-2.8812	-3.0104	-3.3604	-2.7854	-3.0417	-3.1542	9.940	-111.391	29.486	-119.944	-162.933	-137.696	-24.465	89.834	-133.631	-134.155	-175.923	-49.127	170.882	159.466	-141.576	-167.188	0.00053127	0.00018025	9.0627e-05	212.26	1.2548e-06	2.0735e-06	261.81	70.33	1.6387e-06	2.3858e-06	107.05	55.407	32.413	16.3	1.3659e-06	32.511	0.00052807	0.00059583	0.00018821	232.37	5.9429e-06	7.1417e-06	286.33	77.345	5.6279e-06	6.3666e-06	118.13	61.102	35.951	18.192	5.853e-06	36.243	147.102	-102.275	-100.763	-164.042	-35.898	-37.245	-165.462	-159.559	-49.314	-25.009	-160.770	-157.840	-156.638	-151.535	-54.117	-154.121	-8191	255	
1575.801	1	1	0	0	0.094848	0.21786	0.0027752	0.11741	0.16751	0.27575	0.10268	0.10679	0.14908	0.058554	0.07086	0.34907	0.13152	0.22796	0.22739	0.18874	-2.425	-3.0438	-3.0729	-2.9813	-3.3312	-2.7562	-2.925	-3.0271	-2.8583	-3.2354	-3.0854	-2.825	-3.2458	-3.0167	-2.9062	-3.3792	-39.683	-46.533	-100.115	29.365	-103.299	-112.859	-0.938	86.563	21.155	98.341	131.269	-105.165	113.082	-78.418	39.484	54.349	0.00054538	0.00026215	5.4117e-05	213.36	1.3226e-06	1.0185e-06	262.79	70.128	1.6943e-06	1.5818e-06	106.45	55.315	32.399	16.324	2.3894e-06	32.43	0.00054643	0.00057572	0.00019113	232.56	5.6411e-06	7.4365e-06	287.09	77.377	5.8303e-06	6.3417e-06	118.07	61.219	35.873	18.168	5.8833e-06	36.29	149.079	-93.445	-63.669	-164.412	-77.605	-33.717	-165.475	-159.361	-14.203	-13.165	-161.016	-157.788	-156.857	-151.236	-51.091	-154.284	-8191	255	
1575.874	1	1	0	0	0.1557	0.26572	0.23683	0.29467	0.037699	0.10527	0.29662	0.15567	0.29731	0.21141	0.2111	0.057625	0.072365	0.10639	0.16215	0.22889	-2.3792	-3.2771	-2.8729	-2.9479	-3.1875	-2.9688	-3.0104	-3.0792	-3.0708	-3.1542	-3.1437	-2.8542	-3.1625	-2.8625	-2.9688	-3.1604	57.839	-87.748	36.038	-128.148	28.290	163.531	-156.637	-70.490	-132.220	38.256	-139.066	-135.465	179.803	109.905	-88.602	170.161	0.00053708	0.00020831	4.1328e-05	213.02	1.5239e-06	2.2256e-06	262.25	70.088	2.1416e-06	2.5687e-06	106.74	55.526	32.357	16.212	2.2193e-06	32.389	0.00055281	0.00056609	0.00019315	233.06	5.6361e-06	7.6707e-06	287.5	77.399	6.3332e-06	6.4156e-06	117.95	61.233	35.824	18.095	6.0408e-06	36.094	148.094	-92.138	-81.474	-164.211	-58.141	-51.541	-165.474	-159.357	-38.240	-46.190	-161.066	-158.026	-156.599	-151.446	-51.111	-153.996	-8191	255	
1575.993	1	1	0	0	0.10148	0.15651	0.29288	0.16184	0.27027	0.094915	0.29344	0.068818	0.25116	0.25416	0.23057	0.08919	0.070541	0.069223	0.31875	0.18912	-2.5792	-3.1104	-2.9938	-2.8646	-3.2687	-2.8438	-3.2375	-3.1312	-2.9333	-3.2458	-2.9979	-2.9562	-3.2375	-2.9313	-2.9354	-3.0896	-148.914	1.994	75.683	-172.446	-18.388	-125.497	-80.168	45.997	65.926	164.797	97.942	-134.932	-0.925	48.374	-102.197	24.996	0.00051118	0.00015481	4.8671e-05	212.57	1.2713e-06	2.2397e-06	259.24	69.451	2.1364e-06	2.4424e-06	105.78	54.777	32.274	16.014	1.6774e-06	32.11	0.00055193	0.00057284	0.00019386	232.67	5.4856e-06	7.6621e-06	284.83	76.578	6.4312e-06	6.2772e-06	116.5	60.291	35.387	17.845	5.9015e-06	35.694	148.289	-79.736	-75.899	-164.087	-37.859	-21.604	-165.350	-159.520	-59.507	-34.235	-161.013	-157.737	-156.933	-151.235	-62.034	-153.789	-8191	255	
1576.089	1	1	0	0	0.20997	0.13881	0.18799	0.091717	0.12729	0.15543	0.21625	0.13152	0.25894	0.20445	0.25352	0.3213	0.35087	0.12995	0.13096	0.032948	-2.6063	-3.0687	-3.0896	-2.8792	-3.125	-3.1167	-3.0229	-3.2438	-2.6688	-3.0792	-3.0563	-2.8708	-3.2958	-2.9375	-3.0438	-3.1208	38.268	-34.539	-19.118	139.378	169.197	-118.237	11.157	-58.967	4.334	-122.119	123.489	52.027	-131.415	175.172	-50.419	123.948	0.00053032	0.00017944	7.3609e-05	211.39	2.0101e-06	2.021e-06	259.59	69.91	1.1587e-06	1.9665e-06	106.09	55.46	32.501	16.384	3.1517e-06	32.552	0.00057168	0.00057959	0.0001813	231.26	5.4067e-06	7.6335e-06	285.32	77.192	6.4799e-06	6.5265e-06	117.74	61.272	35.963	18.226	6.096e-06	36.309	150.854	-86.615	-68.627	-163.796	-71.921	-48.712	-165.319	-159.082	-71.145	-35.914	-160.541	-157.799	-156.751	-151.353	-53.575	-154.045	-8191	255	
1576.186	1	1	0	0	0.12855	0.032314	0.13367	0.15255	0.22658	0.16498	0.065237	0.18341	0.1251	0.17753	0.085501	0.20296	0.23882	0.12447	0.040558	0.20559	-2.6688	-3.0396	-3.0708	-2.7292	-3.0333	-3.2771	-2.675	-3.2438	-2.6979	-3.0708	-3.3896	-2.8104	-3.2833	-3.1458	-2.8688	-3.3542	-12.650	-79.760	-109.765	64.008	23.457	89.724	16.068	-26.706	-96.068	-35.548	-47.630	-167.848	44.009	-160.715	-129.916	87.754	0.00051428	0.00025327	7.0123e-05	212.32	1.8453e-06	1.6624e-06	262.82	70.97	1.8849e-06	7.6982e-07	107.6	56.09	33.376	16.695	1.5905e-06	33.112	0.00056228	0.00056844	0.00017457	232.58	5.4335e-06	7.522e-06	286.95	78.181	6.6229e-06	6.4766e-06	119.35	62.16	36.635	18.528	6.3352e-06	36.879	149.570	-81.865	-101.856	-164.067	-50.625	-50.655	-165.208	-159.277	-59.705	-13.637	-160.791	-158.085	-156.553	-151.489	-51.583	-154.036	-8191	255	
1576.282	1	1	0	0	0.2411	0.21206	0.086946	0.06185	0.042341	0.19904	0.19632	0.066061	0.15729	0.080404	0.13244	0.36614	0.079458	0.24657	0.10682	0.15949	-2.3875	-3.0208	-3.0708	-2.75	-3.2083	-3.0729	-2.7938	-3.2208	-3.0708	-2.9583	-3.3771	-2.9479	-3.1083	-3.175	-2.8187	-3.3375	-110.455	-73.893	-29.562	139.009	159.713	-137.474	-79.489	166.448	-176.894	-38.708	142.496	70.648	-168.902	60.268	110.591	-86.870	0.00054897	0.00026416	6.786e-05	213.47	2.5218e-06	1.4694e-06	262.76	72.276	1.5592e-06	1.4659e-06	109.4	57.378	33.819	16.803	2.5597e-06	33.377	0.00057834	0.00057428	0.00017718	233.13	5.3695e-06	7.3103e-06	288.4	79.148	6.4684e-06	6.5953e-06	120.93	63.467	37.145	18.774	6.6888e-06	37.317	149.004	-98.931	-105.154	-164.442	-53.375	-56.841	-165.020	-159.102	-63.092	-22.618	-160.731	-157.861	-156.545	-151.338	-51.778	-154.243	-8191	255	
1576.402	1	1	0	0	0.087658	0.10322	0.12068	0.080087	0.33385	0.17101	0.11723	0.12993	0.14128	0.032435	0.11698	0.21677	0.18358	0.26921	0.078406	0.16882	-2.5	-2.8854	-3.1312	-3.1167	-3.0062	-3.0687	-2.9	-3.2458	-2.9542	-3.0312	-3.1833	-3.0896	-3.1063	-3.0833	-2.8896	-3.1042	-165.639	-130.740	-88.182	-36.918	-173.039	59.395	-173.446	180.460	-5.831	40.564	-132.389	-4.819	145.660	-161.675	71.527	-135.424	0.0005576	0.00028177	4.8396e-05	213.48	1.5809e-06	1.6997e-06	263.65	71.677	2.1736e-06	2.6856e-06	109.52	57.235	33.696	16.733	2.4623e-06	33.174	0.00058552	0.00059416	0.00016935	233.58	5.3533e-06	7.1616e-06	290.09	79.264	6.6687e-06	6.793e-06	120.88	63.201	37.017	18.671	6.8409e-06	37.039	148.129	-66.747	-70.396	-164.481	-46.418	-37.459	-165.185	-159.187	-82.256	-39.682	-161.132	-157.844	-156.431	-151.220	-43.812	-153.955	-8191	255	
1576.474	1	1	0	0	0.16859	0.17779	0.16961	0.050565	0.25559	0.17002	0.13615	0.15863	0.096709	0.036099	0.19137	0.046193	0.058302	0.19243	0.18851	0.1197	-2.7	-3.0208	-3.2625	-2.8208	-3.0812	-3.2792	-2.9	-3.325	-3.0042	-2.8979	-3.1479	-2.9479	-2.9792	-3.0833	-2.9417	-3.2333	-5.283	-175.092	-62.863	-16.141	-149.257	76.948	-136.454	-3.906	-107.613	53.068	-146.286	-174.989	-150.670	109.876	164.293	-124.067	0.00057256	0.00030985	6.9448e-05	215.89	2.3701e-06	1.9567e-06	262.36	72.398	2.6485e-06	2.7731e-06	109.86	57.184	33.673	16.959	1.8012e-06	33.52	0.0005853	0.00060227	0.00016857	235.04	5.487e-06	6.9162e-06	289.54	79.394	6.6144e-06	7.1748e-06	121.11	63.306	37.162	18.844	7.0953e-06	37.33	148.767	-84.949	-70.024	-163.909	-73.739	-28.182	-165.157	-159.450	-52.791	-19.431	-160.712	-157.984	-156.780	-151.368	-32.270	-154.333	-8191	255	
1576.570	1	1	0	0	0.26636	0.16634	0.10299	0.079887	0.20756	0.22514	0.17219	0.17825	0.23609	0.31028	0.066109	0.082641	0.22556	0.1115	0.063375	0.28846	-2.8958	-2.8417	-3.2979	-2.9854	-3.0333	-3.2562	-2.9708	-3.0167	-3.3708	-2.7458	-3.3187	-2.9542	-3.0396	-3.4042	-2.6771	-3.0979	-161.970	-3.392	-85.178	151.270	-44.734	121.765	137.601	171.940	-143.766	-112.981	-109.441	-123.096	-162.246	159.125	-47.011	147.938	0.00055225	0.00023614	6.8233e-05	214.48	1.2081e-06	1.9723e-06	265.79	72.395	2.2484e-06	1.8156e-06	110.15	56.953	33.389	16.696	2.2992e-06	33.151	0.00058337	0.00061692	0.00016887	235.86	5.703e-06	6.9628e-06	290.55	79.3	6.447e-06	7.3132e-06	120.87	62.902	36.917	18.58	6.9507e-06	36.971	148.695	-88.204	-68.074	-163.940	-20.532	2.476	-165.328	-159.188	-66.855	-37.637	-160.912	-158.382	-156.692	-151.339	-78.751	-154.205	-8191	255	
1576.691	1	1	0	0	0.16442	0.11777	0.027306	0.13383	0.064291	0.0465	0.29535	0.21244	0.07937	0.1377	0.087758	0.15043	0.02864	0.077835	0.092411	0.23393	-2.8438	-2.8396	-3.2062	-3.0208	-2.9229	-3.2146	-2.9646	-3.2042	-3.1229	-3.0563	-3.4188	-3.1604	-2.9729	-3.1917	-3.0396	-3.05	133.800	-163.301	150.616	-105.166	29.246	6.243	-102.133	-176.731	-168.044	-48.599	121.597	38.916	31.038	96.684	-43.256	155.435	0.00053093	0.000112	6.1833e-05	215.55	9.9085e-07	2.216e-06	263.58	71.227	1.5429e-06	1.4319e-06	109	56.727	33.172	16.589	2.0051e-06	33.091	0.00055284	0.00064263	0.000163	235.6	5.8163e-06	6.656e-06	289.27	78.634	6.1844e-06	7.3803e-06	120.21	62.531	36.585	18.444	7.1255e-06	36.882	147.712	-101.256	-75.394	-164.121	-32.302	-34.783	-165.125	-159.517	-71.721	-87.442	-161.119	-157.756	-156.745	-151.485	-51.132	-154.128	-8191	255	
1576.785	1	1	0	0	0.21487	0.18613	0.24721	0.12086	0.12375	0.23788	0.085229	0.11491	0.07332	0.20053	0.03847	0.10447	0.17294	0.21152	0.14757	0.34974	-2.9188	-2.6458	-3.0646	-3.1604	-2.8812	-3.3354	-2.8229	-2.9521	-3.2875	-3.175	-2.8208	-3.1667	-2.9125	-3.1667	-3.1625	-2.8875	-172.534	6.225	-71.373	182.199	-17.010	-57.190	148.576	120.620	-2.700	-72.302	113.086	-85.714	-135.810	-39.666	11.751	-40.915	0.00055177	0.00022543	7.2467e-05	216.44	2.2026e-06	1.9369e-06	263.37	71.635	1.9867e-06	1.7487e-06	108.43	55.82	32.776	16.279	1.3812e-06	32.545	0.00055798	0.0006729	0.00016466	235.86	6.0731e-06	6.573e-06	289.4	78.559	5.9741e-06	7.2625e-06	119.25	61.641	36.233	18.118	7.1263e-06	36.204	146.957	-95.737	-90.428	-164.204	-71.891	-27.912	-165.240	-159.377	-61.297	-42.623	-161.315	-157.817	-156.859	-151.134	-69.834	-154.024	-8191	255	
1576.881	1	1	0	0	0.11639	0.14314	0.1742	0.15231	0.17619	0.1693	0.18955	0.17974	0.0691	0.068465	0.090942	0.22276	0.12063	0.17068	0.22666	0.25593	-2.8979	-3.0625	-2.9333	-3.2021	-3.0146	-3.0604	-2.9229	-2.9896	-3.4667	-2.8312	-3.025	-3.1958	-2.8042	-3.1437	-3.0438	-2.8563	88.266	-24.947	59.565	78.065	-20.986	64.657	125.410	-107.013	-14.351	-166.900	-171.765	8.864	62.485	-169.821	147.449	-0.498	0.00052458	0.00020284	3.8174e-05	214.06	2.8011e-06	1.9938e-06	259.66	70.27	2.3796e-06	1.4047e-06	106.56	55.349	32.36	16.1	2.249e-06	32.264	0.00054231	0.00066873	0.00016094	233.86	5.9612e-06	6.3889e-06	285.99	77.229	5.6443e-06	7.4095e-06	117.54	60.92	35.737	17.96	6.7857e-06	36.04	150.118	-102.127	-66.068	-164.324	-38.694	-10.212	-165.049	-159.789	-28.901	-57.931	-161.070	-157.716	-156.256	-151.049	-37.862	-154.098	-8191	255	
1576.977	1	1	0	0	0.111	0.015999	0.099754	0.40848	0.32276	0.091638	0.38399	0.2797	0.01185	0.095213	0.18832	0.012854	0.13655	0.074187	0.21213	0.164	-2.9396	-2.7521	-2.9708	-3.2417	-2.8104	-3.3104	-3.075	-2.7646	-3.2458	-3.0958	-3.0396	-3.1813	-2.9083	-3.1396	-3.1688	-3.0812	72.936	134.466	-54.149	114.725	-120.143	182.602	-147.530	26.727	-102.749	-2.601	-164.068	-54.735	-150.682	-33.327	160.821	18.577	0.00053133	0.00019734	6.1252e-05	214.19	1.1809e-06	2.2329e-06	260.96	70.626	1.6343e-06	1.81e-06	107.49	55.628	32.758	16.407	1.5666e-06	32.758	0.00053171	0.0007015	0.00015804	234.21	6.2546e-06	6.5869e-06	286.87	77.815	5.5835e-06	7.5582e-06	118.59	61.443	36.115	18.189	6.6638e-06	36.412	149.456	-92.218	-61.509	-164.262	-33.833	-27.059	-165.145	-159.348	-46.048	-50.917	-160.883	-157.926	-156.714	-151.037	-47.302	-154.279	-8191	255	
1577.074	1	1	0	0	0.084027	0.15036	0.19287	0.048656	0.073718	0.17779	0.11283	0.082797	0.13531	0.106	0.16403	0.24715	0.17689	0.2291	0.040633	0.15457	-2.7833	-2.9229	-3.1208	-3.2958	-3.0208	-3.2062	-3.1271	-2.9917	-3.2708	-3.0375	-3.0396	-3.3229	-2.8604	-2.9979	-3.2208	-3.0875	162.592	163.984	-30.153	39.585	-149.419	48.878	101.409	110.104	-93.732	-60.627	-111.901	-94.762	39.934	-146.366	-142.238	-166.749	0.000525	0.00018757	4.0167e-05	214.97	2.2566e-06	2.1385e-06	260.62	70.56	2.5746e-06	2.6351e-06	108.67	55.417	32.57	16.265	2.0126e-06	32.859	0.00052257	0.00064059	0.00015341	234.36	6.052e-06	5.9602e-06	286.59	77.734	5.3853e-06	7.1154e-06	119.02	61.41	36.066	18.156	6.3655e-06	36.55	148.702	-83.399	-90.174	-164.083	-23.517	-0.978	-165.333	-159.621	-69.571	-21.998	-161.011	-157.791	-156.423	-151.402	-54.901	-154.081	-8191	255	
1577.170	1	1	0	0	0.19786	0.11071	0.074725	0.22251	0.071178	0.14824	0.24273	0.13923	0.01445	0.13568	0.10615	0.10564	0.10156	0.038326	0.13684	0.2964	-2.8104	-3.0229	-2.9042	-3.4229	-3.0083	-2.8312	-3.4437	-3.1437	-3.1083	-3.0604	-2.9167	-3.2729	-2.9042	-2.9521	-3.3646	-3.0521	-128.373	134.817	-51.390	161.317	42.957	-21.125	-114.350	-104.715	-167.364	145.234	131.596	62.988	-8.380	-65.766	-155.638	123.491	0.00054865	0.00018102	5.2619e-05	213.87	1.9769e-06	1.7279e-06	262.66	71.15	2.436e-06	2.8221e-06	107.38	55.547	32.754	16.261	2.4961e-06	32.709	0.00050373	0.00062519	0.00015991	234.67	5.9915e-06	6.0709e-06	287.8	77.85	5.2873e-06	7.0647e-06	118.71	61.552	36.06	18.131	6.1558e-06	36.497	148.037	-110.800	-90.242	-163.963	-68.712	-52.955	-165.249	-159.532	-49.398	-43.943	-160.640	-158.005	-157.088	-151.391	-36.149	-154.321	-8191	255	
1577.266	1	1	0	0	0.18077	0.42133	0.10579	0.24143	0.15113	0.11408	0.15137	0.089038	0.21847	0.088047	0.21097	0.35457	0.1005	0.19442	0.15861	0.13856	-2.7562	-3.0292	-2.9292	-3.1375	-3.0479	-3.0729	-3.1479	-2.975	-3.0083	-3.1833	-2.9583	-3.3604	-3.1229	-3.0625	-3.0917	-3.1292	49.445	182.211	80.127	116.144	-75.317	175.729	155.392	116.848	-159.065	-74.778	67.344	136.193	-165.803	-149.693	-4.148	94.009	0.00051997	0.00016627	5.4006e-05	212.05	2.1245e-06	4.4768e-07	259.37	70.474	1.9521e-06	2.4157e-06	107.09	55.741	32.497	16.342	2.6094e-06	32.632	0.00051281	0.00063884	0.00016995	233.19	6.0893e-06	6.2818e-06	285.42	77.44	5.3667e-06	7.3416e-06	117.91	61.323	35.921	18.13	6.2043e-06	36.401	148.250	-96.005	-96.030	-164.272	-83.466	-48.828	-165.194	-159.526	-73.136	-16.712	-161.004	-157.967	-156.665	-151.289	-31.236	-153.967	-8191	255	
1577.362	1	1	0	0	0.079373	0.055026	0.15171	0.13138	0.14878	0.049775	0.16886	0.10842	0.1001	0.21857	0.24702	0.078904	0.13623	0.10734	0.20065	0.15367	-2.5979	-3.2229	-3.0042	-3.25	-3.1667	-2.8854	-3.3875	-2.9104	-3.0604	-3.1708	-2.8438	-3.3521	-3.0229	-2.8792	-3.2854	-2.9583	-62.839	-144.117	171.759	172.425	115.690	156.415	-60.748	44.389	66.184	-151.381	-7.810	-161.131	123.449	-94.082	23.924	-150.150	0.00052719	0.00015221	7.2617e-05	213.06	1.924e-06	1.7583e-06	261.35	71.362	2.4511e-06	2.0185e-06	108.54	56.551	33.058	16.567	2.4638e-06	33.119	0.00052035	0.00064392	0.00017569	233.42	6.3123e-06	6.6197e-06	286.05	78.436	5.5742e-06	6.9108e-06	119.47	62.292	36.56	18.462	6.0726e-06	36.852	148.060	-106.259	-62.415	-163.949	-66.493	-52.349	-165.381	-159.502	-54.059	-42.666	-161.109	-157.901	-156.705	-151.185	-42.555	-154.286	-8191	255	
1577.483	1	1	0	0	0.268	0.13137	0.15683	0.088472	0.075968	0.16552	0.11807	0.085377	0.20758	0.24639	0.2566	0.0073043	0.11699	0.24291	0.31872	0.23199	-2.725	-3.0521	-2.8312	-3.2812	-3.0708	-3.1354	-3.2917	-2.8396	-3.1375	-3.1521	-3.0104	-3.0563	-3.2333	-3.025	-3.2542	-3.0667	-3.460	-155.206	-40.603	111.539	16.641	91.734	27.452	-127.959	-31.574	-10.361	2.214	52.019	110.911	90.230	130.550	123.637	0.000509	0.00014738	5.4321e-05	212.25	1.7115e-06	2.789e-06	260.43	70.949	2.4312e-06	2.5834e-06	108.1	55.909	32.925	16.515	2.1423e-06	32.973	0.00052508	0.00062207	0.00018367	232.76	6.2187e-06	6.8332e-06	286.35	78.269	5.6572e-06	7.0131e-06	119.29	62.085	36.359	18.362	5.9893e-06	36.83	147.878	-113.476	-68.732	-164.138	-54.288	-57.892	-164.986	-159.328	-60.785	-47.490	-160.585	-158.147	-156.692	-151.331	-37.088	-154.079	-8191	255	
1577.577	1	1	0	0	0.047535	0.065129	0.17911	0.078961	0.20838	0.17618	0.1773	0.093905	0.33307	0.12785	0.26937	0.23172	0.016154	0.067524	0.083264	0.21769	-2.6542	-3.1958	-3.1646	-3.1146	-3.1979	-2.7667	-3.2146	-2.8646	-2.8667	-3.2438	-3.0042	-3.15	-3.125	-2.7729	-3.0417	-3.2	-107.129	-0.041	23.698	154.329	157.647	182.383	-99.291	12.321	8.727	-6.118	-137.647	109.774	-133.304	-129.392	-84.911	69.045	0.00052932	0.00022943	5.1308e-05	212.41	1.7778e-06	2.1229e-06	261.47	71.835	1.9416e-06	2.3411e-06	109.35	57.299	33.698	16.863	2.4616e-06	33.822	0.0005331	0.00062443	0.00018438	233.11	6.0942e-06	7.2143e-06	287.8	78.987	5.7845e-06	7.1025e-06	120.92	63.302	37.083	18.787	6.1642e-06	37.672	147.783	-93.718	-95.947	-164.023	-104.855	-30.193	-165.022	-159.387	-42.380	-38.997	-160.668	-157.787	-156.566	-151.298	-62.822	-154.099	-8191	255	
1577.675	1	1	0	0	0.21603	0.0618	0.068682	0.14888	0.01886	0.1691	0.13343	0.20443	0.095842	0.064307	0.046762	0.29783	0.080188	0.15479	0.17428	0.17513	-2.5104	-3.2542	-2.7375	-2.9333	-3.2854	-2.9062	-3.0438	-3.1771	-2.8812	-3.3125	-3.0542	-3.0417	-3.3604	-2.7792	-3.2708	-3.2125	-9.549	-20.457	66.836	1.718	-54.469	65.294	-30.340	79.359	128.533	131.942	34.858	-68.184	30.637	171.821	-158.308	119.383	0.00056741	0.00017925	7.5496e-05	216.72	1.7183e-06	3.2258e-06	266.37	72.071	2.1094e-06	1.7865e-06	109.58	57.326	33.377	16.668	2.2688e-06	33.386	0.0005539	0.00062579	0.00019363	236.27	6.2779e-06	7.325e-06	290.84	79.531	6.1215e-06	6.738e-06	120.91	62.951	36.92	18.582	5.9817e-06	37.145	146.064	-82.964	-73.652	-164.160	-57.861	-32.054	-165.165	-159.862	-43.112	-27.210	-160.666	-158.114	-156.602	-151.400	-51.648	-154.055	-8191	255	
1577.771	1	1	0	0	0.2187	0.22472	0.22273	0.16399	0.089357	0.11521	0.20481	0.09222	0.23457	0.39699	0.14131	0.28366	0.27248	0.21787	0.1282	0.071109	-2.3396	-3.2292	-3.0542	-2.8354	-3.2146	-2.8625	-3.25	-3.2146	-2.7188	-3.1646	-3.0438	-2.875	-3.3292	-3.1417	-3.1146	-3.2958	-123.435	177.749	6.035	-172.260	-131.969	-32.755	-70.461	-145.292	76.724	9.836	39.187	-159.849	91.108	64.720	-12.293	44.259	0.00053114	0.00024269	6.5266e-05	215.78	1.0483e-06	1.8684e-06	262.31	71.537	2.2444e-06	1.6577e-06	108.09	56.441	33.117	16.522	1.2381e-06	33.195	0.00055379	0.00058551	0.00019062	235.45	6.0393e-06	7.401e-06	288.56	78.727	6.08e-06	6.6821e-06	119.5	62.289	36.539	18.457	5.8606e-06	36.951	149.220	-85.948	-59.153	-164.165	-73.921	-4.818	-165.082	-159.254	-90.237	-10.887	-160.742	-157.772	-156.730	-151.484	-71.431	-154.188	-8191	255	
1577.866	1	1	0	0	0.20666	0.052501	0.15768	0.028952	0.083792	0.19633	0.10269	0.12642	0.092435	0.15545	0.066903	0.038431	0.11175	0.11603	0.10636	0.07586	-2.6583	-3.2271	-2.9479	-3.1792	-3.1063	-3.1667	-3.1813	-3.3	-3.0396	-3.3583	-2.9979	-2.8792	-3.3208	-3.0812	-3.0167	-3.4625	67.089	23.616	-75.148	17.723	180.661	171.485	-129.977	163.784	-127.607	28.166	17.409	164.846	34.640	119.356	-133.020	-121.398	0.00055383	0.00023598	7.8708e-05	216.88	1.6983e-06	1.7158e-06	263.24	71.816	1.4859e-06	2.0811e-06	108.79	55.892	33.052	16.468	1.9284e-06	32.994	0.00056137	0.00057959	0.0001936	235.68	5.8606e-06	7.5895e-06	288.41	78.636	6.276e-06	6.2883e-06	119.61	61.804	36.392	18.336	6.0052e-06	36.754	148.940	-95.276	-71.684	-164.112	-40.036	-19.698	-165.248	-159.743	-94.576	-56.035	-160.647	-157.649	-156.614	-151.404	-51.054	-154.252	-8191	255	
1577.962	1	1	0	0	0.14764	0.16815	0.21634	0.12901	0.097374	0.1651	0.032424	0.15081	0.25056	0.30652	0.20277	0.20592	0.084105	0.16461	0.13347	0.075329	-2.5062	-3.1917	-3.2354	-2.8438	-3.3479	-2.9042	-2.9938	-3.1625	-2.8125	-3.2104	-3.1083	-2.8812	-3.1542	-2.8417	-2.9938	-3.2667	139.193	-19.415	36.696	-176.960	-170.824	-108.348	15.534	-88.314	112.696	124.829	-65.430	-170.296	35.610	42.372	-4.723	148.631	0.00056138	0.00024646	3.2852e-05	214.06	1.8308e-06	1.8898e-06	263.2	71.214	1.411e-06	3.0839e-06	107.83	55.963	32.724	16.43	1.1546e-06	32.947	0.00057044	0.00056525	0.00018707	234.96	5.7353e-06	7.6275e-06	287.42	78.182	6.5485e-06	6.4173e-06	119.09	61.826	36.119	18.29	6.0271e-06	36.823	147.218	-97.100	-130.597	-164.087	-21.676	3.090	-165.309	-159.565	-47.589	-27.494	-160.874	-158.007	-156.966	-151.399	-47.655	-153.982	-8191	255	
1578.082	1	1	0	0	0.19294	0.2155	0.15425	0.26437	0.026186	0.14134	0.068714	0.29387	0.10506	0.051381	0.34674	0.070591	0.08709	0.086885	0.23138	0.082862	-2.5604	-3.0146	-3.2208	-3.0167	-3.0208	-3.1229	-3.0146	-3.1167	-2.9042	-3.2667	-3.1312	-2.8896	-3.2042	-2.9458	-2.8146	-3.3854	-147.917	93.013	141.222	142.934	-127.676	34.756	148.510	107.723	-17.209	82.657	60.193	-119.716	87.031	-171.527	13.325	152.751	0.00055009	0.00018743	7.0898e-05	215.38	2.5253e-06	2.2436e-06	262.67	71.124	2.2634e-06	1.6724e-06	107.09	55.512	32.555	16.21	2.8111e-06	32.47	0.0005719	0.00057519	0.00019004	235.03	5.6347e-06	7.7675e-06	287.92	78.127	6.4977e-06	6.2892e-06	118.34	61.228	35.858	18.066	6.224e-06	36.194	146.496	-95.740	-59.993	-163.988	-34.300	-14.569	-165.156	-159.587	-45.110	-16.205	-160.941	-157.709	-156.746	-151.398	-70.094	-154.029	-8191	255	
1578.178	1	1	0	0	0.09988	0.16071	0.19154	0.22376	0.20852	0.078216	0.11175	0.124	0.13407	0.17787	0.13873	0.15242	0.13835	0.21482	0.16318	0.14703	-2.4562	-3.0833	-3.2417	-2.9417	-3.1917	-3.1083	-2.9875	-3.0896	-2.925	-3.0438	-3.15	-2.9396	-3.0417	-2.9938	-2.8812	-3.3854	77.040	-42.065	-63.754	171.613	6.094	-31.344	74.664	-131.665	175.661	-58.845	-11.910	171.125	52.529	128.892	150.360	-61.444	0.00052168	0.00020744	3.9446e-05	214.79	9.9709e-07	1.2706e-06	259.69	69.785	1.8475e-06	1.7136e-06	106.39	54.575	32.241	15.975	1.0547e-06	32.479	0.00056672	0.00056229	0.00017526	234.77	5.4687e-06	7.2653e-06	285.23	76.892	6.5364e-06	6.3958e-06	117.1	60.333	35.546	17.862	6.143e-06	36.109	147.483	-94.984	-67.582	-164.231	31.104	-3.365	-165.189	-159.288	-69.757	-66.130	-161.166	-157.945	-156.817	-151.412	-76.984	-154.052	-8191	255	
1578.275	1	1	0	0	0.11542	0.17539	0.099833	0.0090823	0.28796	0.12598	0.21509	0.23093	0.088623	0.16843	0.34566	0.11793	0.050843	0.098214	0.11928	0.21336	-2.4	-2.9417	-3.2917	-2.8396	-3.0979	-3.2062	-2.9875	-3.0917	-2.9104	-2.8854	-3.1958	-3.0021	-3.0187	-3.2854	-2.9542	-3.2771	7.053	117.147	92.909	-51.722	-62.046	28.107	126.374	-128.133	77.971	175.053	113.153	124.837	62.131	60.706	-101.669	148.315	0.00051816	0.00016867	4.9714e-05	214.16	1.2531e-06	1.8611e-06	261.55	70.71	1.9804e-06	1.8929e-06	107.05	55.548	32.821	16.342	2.944e-06	32.959	0.0005778	0.00057322	0.00018266	234.74	5.4609e-06	7.3457e-06	285.81	77.649	6.6566e-06	6.6116e-06	118.23	61.307	36.058	18.197	6.5464e-06	36.658	146.751	-95.189	-77.432	-164.211	-88.014	-26.955	-164.908	-159.325	-70.870	-35.320	-160.896	-158.125	-156.598	-151.461	-33.250	-154.121	-8191	255	
1578.371	1	1	0	0	0.17245	0.055846	0.093298	0.15078	0.15971	0.15589	0.21453	0.28517	0.17931	0.10601	0.031435	0.1237	0.12362	0.18134	0.12081	0.1406	-2.6646	-2.9604	-3.1604	-2.95	-3.1146	-3.1125	-3.0229	-3.4021	-3.0208	-3.0729	-3.4625	-3.075	-3.0458	-3.2979	-2.8812	-3.2875	102.340	34.392	11.408	147.617	-68.346	-43.469	103.858	80.273	93.162	86.130	-38.844	2.132	35.774	46.557	25.412	102.007	0.0005472	9.0605e-05	6.0647e-05	216.09	1.7278e-06	1.3885e-06	261.37	71.151	1.943e-06	2.327e-06	108.2	56.018	32.84	16.381	1.3166e-06	33.206	0.00058173	0.00059446	0.00017726	236.03	5.4792e-06	7.4019e-06	286.49	77.996	6.6609e-06	6.8601e-06	119.04	61.66	36.165	18.289	6.8235e-06	36.941	149.630	-76.182	-117.380	-164.145	-32.768	-31.514	-165.398	-159.598	-38.281	-37.908	-161.007	-157.843	-156.640	-151.343	-58.846	-154.165	-8191	255	
1578.467	1	1	0	0	0.31099	0.20422	0.15424	0.37123	0.21596	0.10274	0.24281	0.18702	0.21171	0.053221	0.059506	0.092527	0.12992	0.14856	0.19867	0.16911	-2.5417	-3.1375	-3.1813	-3.1979	-3.1771	-3.1271	-2.9917	-3.2271	-2.9542	-2.8729	-3.2979	-2.9542	-3.1458	-3.4354	-2.9396	-3.3563	50.694	72.722	-29.472	87.634	6.070	-37.788	-155.440	157.351	-59.146	-0.242	-23.446	74.257	109.923	49.601	-129.283	-109.443	0.00053469	0.00019633	7.4261e-05	215.95	1.9378e-06	1.9359e-06	262.78	71.245	2.7336e-06	2.5556e-06	108.54	56.21	33.126	16.578	1.6665e-06	33.187	0.00057878	0.00060053	0.00017666	236.04	5.4841e-06	7.4028e-06	287.63	78.322	6.5092e-06	7.0776e-06	119.7	62.109	36.475	18.398	6.7963e-06	37.124	148.720	-99.847	-107.787	-164.264	-42.913	-19.446	-165.645	-159.231	-68.234	-58.794	-160.806	-158.115	-156.548	-151.325	-55.264	-154.106	-8191	255	
1578.563	1	1	0	0	0.27879	0.11219	0.036429	0.097375	0.15187	0.23126	0.28959	0.19842	0.17513	0.10973	0.04018	0.0097059	0.12993	0.15342	0.05249	0.2131	-2.7417	-2.8375	-3.3104	-3.2062	-2.8708	-3.2521	-2.9833	-3.0917	-3.3042	-2.9396	-3.1583	-3.0917	-2.9583	-3.3854	-2.9292	-3.2271	106.787	8.922	5.767	-36.902	-6.056	-135.255	50.189	-89.772	-91.430	-131.769	-87.653	87.519	180.963	93.142	-94.915	-143.534	0.00054324	0.00026539	4.5015e-05	214.57	2.0122e-06	1.687e-06	262.36	71.304	2.0756e-06	3.2324e-06	108.24	56.385	33.166	16.565	1.5155e-06	33.155	0.00057467	0.00064112	0.00016533	234.75	5.6108e-06	7.2653e-06	287.2	78.245	6.5707e-06	7.0192e-06	119.37	62.158	36.491	18.419	6.8833e-06	37.052	146.466	-127.401	-99.255	-163.929	-94.670	-21.628	-165.048	-159.295	-62.877	-28.912	-160.468	-157.912	-156.323	-151.132	-50.528	-154.078	-8191	255	
1578.659	1	1	0	0	0.19571	0.046357	0.20641	0.25227	0.15142	0.27108	0.074165	0.13054	0.18259	0.10585	0.073665	0.099124	0.18993	0.17456	0.12141	0.16336	-2.7438	-2.8937	-2.9583	-3.1229	-2.8625	-3.3479	-2.8958	-3.1229	-3.0563	-2.9833	-3.1958	-3.0729	-2.8271	-3.0583	-2.9833	-2.9583	-139.943	98.734	-52.894	-160.605	-100.598	103.079	-63.270	-104.229	53.535	95.400	47.386	-46.825	-87.905	33.621	-58.904	19.392	0.00055683	0.0002508	4.9719e-05	214.82	1.6277e-06	2.1283e-06	262.28	71.644	2.9357e-06	1.5694e-06	109.42	56.795	33.601	16.758	2.2212e-06	33.276	0.00057787	0.00065007	0.00016408	234.85	5.9507e-06	6.9334e-06	288.11	78.851	6.3075e-06	7.0768e-06	120.45	62.782	36.824	18.609	6.9098e-06	37.089	148.823	-105.790	-100.975	-164.351	-76.789	-59.074	-165.120	-159.341	-81.635	-24.464	-160.692	-157.962	-156.490	-151.309	-63.566	-154.135	-8191	255	
1578.755	1	1	0	0	0.082729	0.040033	0.34808	0.052245	0.047909	0.063446	0.23488	0.26349	0.083659	0.078614	0.023555	0.195	0.16433	0.10233	0.16535	0.20319	-2.6854	-2.8333	-3.0354	-3.0354	-3.1437	-3.4042	-3.1146	-2.8396	-3.2833	-2.7833	-3.2042	-3.3125	-2.8208	-3.3479	-3.0875	-3.1354	-39.713	-10.620	-154.234	162.925	115.788	-92.818	133.820	-7.840	175.821	47.623	-69.212	-121.866	102.316	-125.990	-135.679	-172.116	0.00053061	0.00020114	6.5469e-05	213.29	2.2682e-06	2.9941e-06	263.91	71.204	2.2715e-06	2.7432e-06	108.92	56.606	33.15	16.522	1.743e-06	33.362	0.00057379	0.00066403	0.00016455	233.4	5.9732e-06	6.8678e-06	287.9	78.507	6.2567e-06	7.6081e-06	119.8	62.298	36.418	18.468	7.04e-06	37.199	147.486	-70.052	-87.209	-164.587	-36.855	-45.052	-165.056	-159.321	-48.593	-27.634	-160.948	-157.951	-156.661	-151.342	-80.981	-154.014	-8191	255	
1578.874	1	1	0	0	0.066205	0.1134	0.094957	0.1804	0.082977	0.19481	0.037539	0.26573	0.11399	0.25782	0.096927	0.19334	0.13027	0.038007	0.18487	0.1536	-2.7938	-2.9437	-3.1583	-3.3125	-2.9417	-3.1208	-3.1667	-3.1521	-3.2917	-2.9458	-3.1417	-2.9292	-2.9562	-3.2292	-3.0583	-2.8521	113.086	-27.815	-79.363	161.415	-38.505	172.939	151.356	150.531	-84.849	-126.170	158.109	-171.022	81.257	75.715	34.596	-48.723	0.00056611	0.00026073	3.2936e-05	215.82	2.284e-06	2.6099e-06	263.07	72.088	2.0042e-06	2.9762e-06	110.05	57.393	33.753	16.892	2.706e-06	33.939	0.00056272	0.00067579	0.00016617	235.72	6.1385e-06	6.6145e-06	289.2	79.224	6.1866e-06	7.6966e-06	121.26	63.298	37.022	18.771	7.1324e-06	37.787	149.009	-121.089	-68.241	-164.228	-57.480	-27.759	-164.977	-159.393	-46.532	-29.188	-160.538	-157.949	-156.263	-151.218	-43.725	-154.180	-8191	255	
1578.970	1	1	0	0	0.15921	0.21795	0.089262	0.1346	0.17943	0.37455	0.19632	0.22451	0.1193	0.20428	0.055101	0.1636	0.12462	0.11261	0.15844	0.1523	-2.75	-2.9062	-3.1146	-3.1708	-2.9958	-3.1354	-3.075	-2.9562	-3.2833	-2.9354	-3.0958	-3.3375	-2.9771	-3.0083	-3.0812	-2.925	-111.371	6.350	131.318	19.680	107.204	-38.624	-62.849	-166.019	-57.491	34.045	169.633	148.772	-79.761	-163.623	-93.619	87.163	0.00057787	0.00019678	8.0242e-05	217.14	1.7888e-06	1.1459e-06	263.89	71.742	2.4746e-06	1.692e-06	108.57	56.42	32.828	16.518	1.6021e-06	33.15	0.00056071	0.00068057	0.0001627	237.12	6.3215e-06	6.6102e-06	288.95	78.865	5.8167e-06	7.7259e-06	119.86	62.167	36.381	18.353	7.0067e-06	36.823	148.375	-120.958	-87.969	-164.045	-53.431	29.151	-165.184	-159.205	-70.030	6.972	-160.959	-157.711	-156.738	-151.333	-48.580	-154.078	-8191	255	
1579.044	1	1	0	0	0.20409	0.078266	0.28539	0.085612	0.14886	0.20045	0.21698	0.013723	0.24158	0.094551	0.23253	0.20861	0.087461	0.089896	0.052648	0.21783	-2.8125	-2.9062	-3.0083	-3.1063	-2.9562	-3.2188	-3.25	-2.7188	-3.2729	-2.9021	-3.0271	-3.0604	-2.9792	-3.3312	-2.9229	-3.0021	179.748	-25.175	-16.851	-20.556	160.629	-68.123	158.973	142.408	-144.394	-9.538	32.574	34.928	-158.120	-18.793	-2.085	-132.069	0.0005356	0.0001538	5.1299e-05	215.08	2.3888e-06	1.4957e-06	262.47	71.381	2.4808e-06	2.911e-06	108.09	55.964	32.796	16.423	1.3937e-06	33.123	0.00054006	0.00067396	0.00016642	234.73	6.3771e-06	6.2152e-06	286.67	78.119	5.7294e-06	7.6279e-06	118.94	61.572	36.208	18.289	7.0453e-06	36.792	149.082	-91.706	-77.166	-164.053	-64.652	-57.054	-165.182	-159.655	-73.251	-35.833	-160.873	-158.470	-156.267	-151.464	-8.194	-153.976	-8191	255	
1579.163	1	1	0	0	0.21044	0.10916	0.132	0.11334	0.2472	0.34785	0.14115	0.086644	0.1797	0.10174	0.16529	0.29362	0.059051	0.2173	0.086593	0.25888	-2.8167	-2.9938	-2.9938	-3.2854	-2.8937	-3.05	-3.0167	-2.7771	-3.0729	-2.9146	-2.7313	-3.4437	-2.9604	-3.1396	-3.1833	-2.7396	165.414	-157.134	-65.143	51.761	-102.332	137.090	178.552	141.576	162.900	151.114	181.994	144.247	-112.916	64.040	-19.559	36.340	0.00055757	0.00016562	5.5723e-05	214.44	2.0091e-06	1.922e-06	262.5	71.065	1.805e-06	2.0613e-06	108.25	55.828	32.884	16.463	1.0599e-06	33.214	0.0005351	0.00068398	0.00017238	234.59	6.4073e-06	6.4857e-06	286.81	78.275	5.5298e-06	7.4705e-06	119.17	61.753	36.248	18.303	6.9234e-06	36.907	149.016	-113.629	-99.093	-164.379	-53.140	-24.153	-165.199	-159.463	-70.271	-46.841	-161.033	-158.069	-156.874	-151.365	-3.489	-154.303	-8191	255	
1579.259	1	1	0	0	0.22077	0.15243	0.22294	0.10319	0.11028	0.16173	0.12247	0.069796	0.18102	0.14426	0.21384	0.068698	0.19172	0.2027	0.043431	0.094978	-2.9146	-2.8083	-3.0208	-3.3771	-2.7396	-3.1	-3.2146	-2.9833	-3.1625	-3.0146	-3.0208	-3.2667	-2.7333	-3.0333	-3.3021	-2.8667	62.424	98.555	-70.241	-170.372	-173.023	-11.937	123.612	146.624	-41.334	61.261	124.050	-139.224	157.568	-172.776	-118.274	121.871	0.00052838	0.00020151	6.5863e-05	214.32	2.3822e-06	9.5893e-07	260.76	70.714	2.811e-06	1.7461e-06	107.34	55.824	32.531	16.439	2.0808e-06	32.994	0.00053277	0.00069028	0.00018049	234.32	6.4882e-06	6.4296e-06	286.03	77.945	5.5334e-06	7.6571e-06	118.85	61.539	35.888	18.267	6.607e-06	36.808	145.465	-80.895	-78.336	-164.180	-39.032	-62.466	-165.327	-159.157	-67.138	1.214	-161.409	-157.849	-156.536	-151.246	-72.667	-154.115	-8191	255	
1579.355	1	1	0	0	0.27671	0.11633	0.095241	0.12507	0.20344	0.021845	0.090877	0.11132	0.11592	0.12006	0.052554	0.1603	0.20472	0.3329	0.20626	0.067475	-2.8458	-2.9979	-2.8792	-3.4	-3.0521	-3.0333	-3.3271	-2.9854	-3.2313	-3.2854	-2.9229	-3.2083	-3.0292	-3.0417	-3.3	-2.9875	-87.015	2.692	56.384	56.051	5.161	-83.152	-126.736	165.647	-143.752	-139.603	-107.831	157.032	-74.467	104.751	155.715	-122.603	0.00054182	0.00027583	5.1028e-05	213.48	1.7883e-06	1.9134e-06	259.54	70.357	2.7136e-06	3.3578e-06	107.54	55.087	32.148	16.106	1.9596e-06	32.435	0.00052836	0.00070249	0.000183	234.13	6.3932e-06	6.9784e-06	285.61	77.321	5.5828e-06	7.7173e-06	118.16	60.75	35.476	17.892	6.1793e-06	36.073	147.845	-106.411	-72.467	-163.854	-34.055	-40.290	-165.157	-159.333	-53.226	-9.123	-160.517	-157.584	-156.581	-151.346	-44.103	-153.902	-8191	255	
1579.476	1	1	0	0	0.10916	0.061891	0.099735	0.19132	0.22147	0.10409	0.093789	0.057712	0.029158	0.33569	0.17526	0.30866	0.010606	0.081025	0.037064	0.22447	-2.8583	-3.2667	-2.8979	-3.4208	-2.9604	-3.1292	-3.3312	-2.9437	-3.2729	-3.1875	-3.0958	-3.2188	-3.3604	-2.8479	-3.2104	-3.1833	168.567	144.919	-13.763	85.319	-43.022	48.425	151.660	-77.644	47.295	-47.377	62.904	178.886	-44.986	-166.992	83.963	-145.977	0.00050091	0.00021486	2.6063e-05	213.19	1.0596e-06	1.7033e-06	259.64	69.765	1.3719e-06	2.0705e-06	106.65	54.425	31.914	16.126	2.0925e-06	32.307	0.00051944	0.00066274	0.00018219	233.32	6.375e-06	6.8453e-06	283.06	76.48	5.5384e-06	7.3424e-06	116.92	59.97	35.223	17.844	6.1301e-06	36.064	146.986	-76.479	-76.965	-164.041	-38.039	-25.762	-164.935	-159.557	-59.625	-9.259	-161.105	-157.970	-156.378	-151.267	-62.352	-154.075	-8191	255	
1579.572	1	1	0	0	0.16241	0.16274	0.2378	0.10523	0.17005	0.21648	0.099271	0.14472	0.18178	0.11499	0.051479	0.11797	0.1377	0.12319	0.18821	0.097915	-2.4708	-3.2062	-2.8896	-3.2625	-3.0146	-2.8937	-3.2625	-3.1042	-3.15	-3.3063	-3.0167	-3.2354	-3.0792	-2.825	-3.2875	-3.0375	-36.075	16.234	77.405	-164.908	89.308	-39.051	-46.918	-122.626	131.337	-46.703	-64.160	167.724	123.802	-15.543	-4.454	52.134	0.00051168	0.00019661	1.7857e-05	212.65	2.0478e-06	1.5863e-06	259.6	70.413	2.4353e-06	1.5677e-06	106.85	55.309	32.455	16.257	2.3254e-06	32.852	0.00053736	0.00064301	0.00018827	232.88	6.2849e-06	7.2602e-06	284.04	77.226	5.9054e-06	7.094e-06	117.9	60.847	35.736	18.083	6.1119e-06	36.518	146.785	-103.785	-82.008	-163.995	-62.435	-9.342	-165.134	-159.509	-36.532	-64.700	-160.613	-158.047	-156.590	-151.172	-28.930	-154.382	-8191	255	
1579.643	1	1	0	0	0.18636	0.041294	0.15288	0.10525	0.14232	0.11773	0.26509	0.27207	0.080798	0.21402	0.064541	0.15177	0.097141	0.056867	0.16395	0.21699	-2.6813	-3.0479	-2.9896	-3.0208	-3.1063	-2.9208	-3.2604	-3.0479	-2.9646	-3.2271	-2.9188	-3.0042	-3.1708	-2.7854	-3.4729	-3.1271	40.032	-62.282	163.829	22.664	173.107	-56.209	-45.603	-148.986	-145.095	112.738	51.894	5.183	14.788	-164.730	79.207	-110.699	0.00054653	0.00012945	6.7862e-05	215.34	8.7242e-07	1.0214e-06	260.03	70.352	1.8301e-06	1.7835e-06	106.59	55.427	32.472	16.276	2.6002e-06	32.938	0.00055171	0.00065902	0.00019911	234.65	6.477e-06	7.4935e-06	284.42	77.391	6.2037e-06	7.051e-06	118.2	60.895	35.672	18.123	6.0082e-06	36.692	147.047	-74.664	-105.216	-164.149	-4.561	-56.556	-165.050	-159.461	-50.776	-19.349	-160.891	-157.905	-156.503	-151.149	-69.734	-154.147	-8191	255	
1579.764	1	1	0	0	0.26169	0.20367	0.21707	0.16654	0.19008	0.308	0.042471	0.29545	0.071066	0.30083	0.10883	0.059833	0.11728	0.18671	0.19531	0.12874	-2.35	-3.1646	-2.9083	-3.05	-3.2375	-2.8104	-3.2125	-2.9229	-3.0812	-3.2396	-2.8917	-3.0187	-3.2771	-2.9125	-3.1646	-3.1771	37.957	134.986	-75.174	-136.694	11.773	178.518	164.815	147.761	-96.794	158.252	167.185	70.708	-64.966	-149.238	70.545	181.062	0.00051962	0.00011749	4.0736e-05	213.77	1.5739e-06	1.269e-06	259.96	70.632	1.7121e-06	2.5067e-06	107.57	55.699	32.592	16.346	2.2049e-06	32.827	0.00055124	0.00060493	0.00019481	233.33	6.1639e-06	7.3302e-06	284.4	77.54	5.9762e-06	6.7157e-06	118.53	61.205	35.674	18.161	5.8477e-06	36.63	148.494	-61.939	-94.224	-164.004	-37.964	-59.157	-165.059	-159.484	-76.440	4.803	-160.694	-157.719	-156.453	-151.047	-57.683	-154.199	-8191	255	
1579.858	1	1	0	0	0.29216	0.1789	0.15363	0.095341	0.085777	0.20333	0.088474	0.13663	0.045449	0.11319	0.30563	0.062625	0.080802	0.11977	0.045105	0.15608	-2.5125	-3.2062	-2.9562	-2.9021	-3.3917	-2.8333	-3.3042	-3.0479	-2.9375	-3.1354	-3.1125	-3.0042	-3.275	-2.9792	-3.1688	-3.0896	10.704	27.575	-3.224	65.552	-1.047	0.606	180.620	-30.702	-58.444	-96.705	115.273	-138.173	111.090	55.281	-26.961	112.922	0.00052742	0.00025717	6.3162e-05	210.45	9.3519e-07	1.7214e-06	258.43	70.459	2.4319e-06	2.7149e-06	106.36	55.15	31.863	16.189	1.5611e-06	32.617	0.00056476	0.00058809	0.00018604	230.14	5.8704e-06	7.1374e-06	282	77.035	5.9848e-06	6.2273e-06	117.18	60.72	35.296	18.054	6.1301e-06	36.35	150.121	-117.478	-66.175	-164.072	-83.371	-36.862	-165.009	-159.191	-73.893	1.312	-160.613	-157.548	-156.681	-151.102	-24.333	-154.048	-8191	255	
1579.955	1	1	0	0	0.25961	0.13267	0.054887	0.16918	0.049359	0.18806	0.18979	0.15059	0.07986	0.12936	0.10585	0.38466	0.17171	0.065237	0.051256	0.20377	-2.5792	-3.1229	-3.0021	-3.0042	-3.1937	-2.9313	-3.0854	-3.0938	-2.7271	-3.0625	-3.2	-2.8271	-3.3021	-2.8875	-3.1292	-3.4229	115.265	62.290	93.044	-160.272	-24.856	13.583	89.190	-5.370	159.739	59.171	-77.601	-145.037	170.629	182.295	147.873	55.253	0.00052713	0.00016307	4.3681e-05	210.27	1.7816e-06	1.0166e-06	258.82	70.324	1.3848e-06	1.7015e-06	107.2	55.691	32.348	16.409	1.2333e-06	32.913	0.00054902	0.00058369	0.00018799	229.63	5.9014e-06	7.1582e-06	282.6	77.435	6.1486e-06	6.1207e-06	118.26	61.235	35.652	18.236	6.1081e-06	36.592	149.721	-83.844	-82.146	-163.974	-30.963	-18.551	-165.274	-159.345	-59.611	-5.702	-160.788	-158.119	-156.610	-151.334	-62.903	-153.990	-8191	255	
1580.051	1	1	0	0	0.065992	0.16912	0.21594	0.094931	0.10416	0.13962	0.14303	0.21704	0.13255	0.093531	0.25574	0.20897	0.17386	0.24138	0.16644	0.14797	-2.4958	-3.2083	-3.0583	-2.8958	-3.2458	-2.9938	-3.0604	-3.3542	-2.975	-3.2271	-3.3396	-2.9417	-3.2667	-2.9417	-3.0271	-3.3083	95.506	-50.361	161.058	-8.058	-172.148	-90.535	-19.859	77.829	-129.321	169.215	-15.944	-176.673	104.015	94.797	105.924	-160.404	0.00052985	0.00024622	4.888e-05	211.13	2.4658e-06	1.7224e-06	258.68	70.457	1.998e-06	2.813e-06	107.19	55.709	32.181	16.422	2.0322e-06	32.937	0.00056377	0.00055031	0.00019021	230.21	5.7037e-06	7.2463e-06	282.95	77.327	6.3389e-06	6.2007e-06	117.72	61.253	35.486	18.219	6.2414e-06	36.635	149.181	-103.550	-112.778	-164.129	-43.456	-42.801	-165.287	-159.418	-52.363	-35.909	-160.841	-157.683	-156.782	-151.042	-60.921	-153.727	-8191	255	
1580.171	1	1	0	0	0.41151	0.15153	0.18007	0.2166	0.16644	0.037925	0.13049	0.1126	0.20522	0.28434	0.14946	0.11679	0.21344	0.17489	0.18495	0.17953	-2.3396	-3.3896	-2.925	-2.8667	-3.2438	-3.0625	-3.0042	-3.2896	-2.8083	-3.1271	-3.1354	-2.8583	-3.2042	-2.8792	-3.0438	-3.2062	-110.391	-38.613	2.907	63.169	4.026	45.389	16.383	18.997	146.645	18.694	145.484	-171.167	-112.736	165.188	102.551	177.273	0.00055459	0.00024225	3.4483e-05	210.34	2.8686e-06	1.8625e-06	259.01	70.689	2.4223e-06	2.1587e-06	107.59	55.888	32.433	16.553	2.5169e-06	33.116	0.00056038	0.00057352	0.00018918	230.11	5.2569e-06	7.6396e-06	283.76	77.666	6.3454e-06	6.3219e-06	118.69	61.602	35.65	18.324	6.4268e-06	36.873	146.233	-88.256	-45.456	-164.256	-69.715	-54.100	-165.178	-159.236	-80.476	-56.544	-160.571	-157.651	-156.454	-151.274	-67.224	-154.001	-8191	255	
1580.243	1	1	0	0	0.089359	0.24614	0.24905	0.11679	0.23948	0.27992	0.098307	0.51242	0.055733	0.16774	0.056874	0.11894	0.071047	0.2464	0.066839	0.1782	-2.6688	-3.0125	-3.0729	-2.7042	-3.0958	-3.1354	-2.9083	-3.1312	-3.0104	-3.0729	-3.1813	-2.9646	-3.2562	-2.9437	-3.0687	-3.1083	115.956	161.563	2.641	-72.801	100.981	121.081	-141.405	136.479	-37.258	114.587	169.120	73.645	-163.030	113.960	-127.378	62.074	0.00053986	0.00027562	4.0618e-05	210.92	6.5623e-07	1.4078e-06	258.16	69.995	1.069e-06	2.2829e-06	105.85	54.5	31.712	15.97	1.5391e-06	32.22	0.00055871	0.00055926	0.00018236	230.12	5.1935e-06	7.592e-06	283.01	76.791	6.0864e-06	6.45e-06	116.63	60.108	34.872	17.843	6.1142e-06	35.788	148.853	-90.686	-93.098	-164.043	-51.809	-26.510	-164.959	-159.244	-118.920	-40.343	-160.918	-157.848	-156.627	-151.079	-27.868	-154.289	-8191	255	
1580.339	1	1	0	0	0.2655	0.19379	0.28434	0.31351	0.17633	0.13563	0.041409	0.079632	0.15208	0.1808	0.20996	0.18413	0.20805	0.14697	0.088906	0.22242	-2.65	-3.0521	-3.1292	-2.9083	-3.0667	-3.1854	-2.8458	-3.3688	-2.8812	-3.0979	-3.0812	-2.8792	-2.8896	-3.1937	-3.0375	-3.2083	-65.557	-95.561	145.697	39.740	178.879	-117.130	-60.865	-149.776	-108.704	-135.235	-103.391	136.649	-170.464	48.792	37.394	-134.967	0.0005016	0.00023754	4.2702e-05	209.91	2.092e-06	7.9312e-07	255.7	69.341	2.27e-06	2.4766e-06	105.59	53.941	31.409	15.984	2.7176e-06	32.285	0.00054789	0.00058179	0.00017515	228.83	5.1696e-06	7.299e-06	280.6	76.008	6.5171e-06	6.5549e-06	115.83	59.705	34.756	17.773	6.4072e-06	35.9	148.378	-98.377	-111.483	-164.336	-80.881	-11.930	-165.317	-158.918	-49.061	-15.929	-160.728	-157.677	-156.271	-151.344	-57.893	-154.092	-8191	255	
1580.435	1	1	0	0	0.26401	0.03111	0.077384	0.1688	0.2241	0.12957	0.12344	0.058506	0.30138	0.28796	0.12836	0.16875	0.17113	0.060662	0.057539	0.043526	-2.6833	-2.9437	-3.1875	-2.8396	-3.2458	-3.2271	-3.0104	-3.0812	-2.9729	-2.9313	-3.2188	-3.0771	-2.9042	-3.0312	-3.1104	-3.2021	-76.133	-87.781	-94.918	87.113	-51.425	120.247	26.362	-160.831	-76.003	-0.810	-170.645	28.078	146.386	178.021	93.946	46.201	0.0005277	0.00014221	3.4975e-05	210.06	1.9638e-06	1.6844e-06	256.9	70.005	2.5661e-06	2.1311e-06	105.21	54.47	31.948	16.117	2.3344e-06	32.641	0.00055947	0.00060144	0.00016801	229.7	5.3575e-06	7.1659e-06	281.31	76.654	6.364e-06	6.4422e-06	116.76	60.272	35.15	17.94	6.4723e-06	36.205	147.616	-70.849	-113.761	-163.944	-47.843	-30.055	-165.461	-159.524	-71.702	-14.473	-160.877	-157.786	-156.650	-151.006	-46.606	-153.964	-8191	255	
1580.556	1	1	0	0	0.21721	0.2285	0.027312	0.076283	0.1215	0.12809	0.13423	0.22876	0.069161	0.13018	0.21613	0.05486	0.20519	0.15428	0.10462	0.17386	-2.6771	-3.0271	-3.1854	-3.3125	-3.2375	-3.1021	-2.8708	-3.1188	-3.2062	-2.75	-3.3167	-3.0646	-2.975	-3.3042	-2.8375	-3.2958	-172.336	-25.812	79.855	-119.094	-127.773	58.145	130.499	-15.606	-84.483	-86.742	-174.464	152.056	13.045	-12.811	75.628	167.811	0.00056882	0.000171	6.0904e-05	211.92	1.0823e-06	1.1767e-06	259.08	69.868	2.3347e-06	3.0827e-06	106.55	54.831	32.036	16.272	2.069e-06	32.74	0.00057277	0.00060766	0.00016765	231.64	5.6551e-06	7.1046e-06	283.53	76.769	6.364e-06	6.8842e-06	117.61	60.65	35.313	18.059	6.5941e-06	36.524	147.074	-88.349	-91.251	-164.206	-41.618	-25.005	-165.213	-159.338	-51.557	-37.735	-160.842	-158.018	-156.693	-151.121	-70.353	-154.193	-8191	255	
1580.652	1	1	0	0	0.23554	0.036413	0.1036	0.11189	0.07002	0.13745	0.12924	0.14427	0.092026	0.14354	0.1814	0.20014	0.13739	0.067971	0.19281	0.24984	-2.4479	-2.8271	-3.2396	-2.8729	-3.0062	-3.3833	-2.8208	-3.1979	-3.2729	-3.05	-3.2729	-3.3479	-2.9938	-3.1833	-2.9396	-3.1896	-109.750	99.629	-70.048	-96.218	-40.597	179.136	164.146	-169.103	77.785	12.115	-101.876	151.219	45.827	-4.332	67.847	-70.885	0.00054114	0.00019523	6.222e-05	212.65	2.4447e-06	2.1822e-06	259.78	69.6	4.311e-07	2.0642e-06	106.21	54.562	31.711	15.988	8.0529e-07	32.107	0.00057656	0.00063497	0.00015771	232.62	5.855e-06	6.8099e-06	284.21	76.731	6.374e-06	6.9289e-06	116.99	60.239	34.98	17.778	6.7834e-06	35.805	148.626	-125.246	-118.756	-164.250	-49.934	-44.489	-165.370	-159.264	-98.279	-20.353	-160.839	-157.977	-156.471	-151.389	-101.312	-154.131	-8191	255	
1580.747	1	1	0	0	0.11114	0.14043	0.39863	0.079989	0.068338	0.092582	0.26827	0.23238	0.1541	0.15839	0.2126	0.063922	0.28181	0.028914	0.097372	0.13787	-2.9	-2.9604	-3.1292	-3.0583	-3.0479	-3.3146	-3.1229	-2.8104	-3.2146	-3.1125	-3.4562	-3.1042	-2.8375	-3.2854	-2.9667	-2.975	-23.608	167.031	-63.257	56.512	136.631	34.577	-167.339	-160.474	-9.485	56.420	175.685	97.967	-112.615	34.716	105.108	84.712	0.00052864	0.0001706	3.1803e-05	211.01	1.5618e-06	1.5293e-06	255.8	69.317	3.5966e-06	2.4528e-06	105.14	54.23	31.523	15.98	1.6236e-06	32.355	0.00055139	0.00061183	0.00015767	230.75	5.6143e-06	6.5895e-06	281.21	76.075	6.2095e-06	6.9349e-06	115.87	59.777	34.77	17.792	6.4851e-06	35.896	148.394	-107.116	-96.321	-164.465	-58.407	-47.636	-165.126	-159.120	-67.608	-36.794	-160.821	-157.594	-156.625	-151.029	-44.635	-153.991	-8191	255	
1580.844	1	1	0	0	0.19245	0.11711	0.32201	0.2925	0.15329	0.12662	0.13121	0.21039	0.0035088	0.17892	0.037916	0.2678	0.20458	0.15158	0.24762	0.087397	-2.6521	-2.8729	-3.2354	-3.05	-2.9229	-3.2	-3.0812	-3.1458	-3.0687	-2.9833	-3.4146	-3.0333	-3.0604	-3.3167	-2.825	-3.1292	64.359	-119.185	129.052	75.971	-131.238	138.054	22.911	-168.889	-135.534	-120.431	-63.236	-62.350	122.951	159.812	106.043	-91.942	0.00051875	0.00014858	6.6103e-05	210	9.0908e-07	3.8726e-07	257.78	70.063	2.6244e-06	2.0254e-06	106.36	55.246	32.095	16.247	1.7916e-06	32.635	0.00054639	0.00062776	0.00015602	229.57	5.6826e-06	6.1634e-06	281.98	76.778	5.821e-06	6.9358e-06	117.46	60.822	35.319	18.061	6.8561e-06	36.397	145.830	-58.683	-89.724	-164.166	-6.713	-15.963	-165.444	-159.117	-73.902	-20.987	-160.784	-157.772	-156.594	-151.266	-57.083	-154.207	-8191	255	
1580.939	1	1	0	0	0.11803	0.096901	0.13112	0.16584	0.11505	0.19719	0.18825	0.016681	0.16541	0.17015	0.08881	0.066397	0.087397	0.045978	0.11393	0.19105	-2.9771	-2.7896	-3.0833	-3.1896	-2.9292	-3.4125	-3.0312	-2.9354	-3.1437	-2.9479	-3.1229	-3.1854	-2.7792	-3.3771	-3.1312	-3.1979	105.367	80.455	61.427	-79.137	24.422	62.028	63.107	107.183	-25.357	77.591	103.415	26.364	158.414	-62.675	149.290	12.741	0.0005338	0.00018742	6.7254e-05	209.44	1.1747e-06	1.3308e-06	258.19	70.508	2.7285e-06	1.5819e-06	107.54	55.818	32.456	16.412	1.9432e-06	32.935	0.00053802	0.00063232	0.0001612	229.45	5.7086e-06	5.9706e-06	283.52	77.006	5.655e-06	7.2487e-06	118.3	61.545	35.703	18.272	7.062e-06	36.7	147.614	-124.463	-77.589	-164.046	-5.177	-15.709	-165.230	-159.367	-72.317	-31.819	-160.671	-157.892	-156.706	-151.302	-55.232	-153.880	-8191	255	
1581.035	1	1	0	0	0.32694	0.11879	0.19935	0.33527	0.23065	0.1507	0.13159	0.098726	0.10163	0.073749	0.1135	0.020412	0.046629	0.087683	0.072581	0.21149	-2.8688	-2.85	-2.9167	-3.2896	-2.8896	-3.2188	-3.0812	-3.0833	-3.2542	-2.9479	-3.1	-3.2458	-2.9917	-2.9542	-3.3292	-3.0979	128.919	-40.593	-107.858	50.072	105.646	-85.726	75.250	140.973	-7.069	27.557	-159.108	116.507	55.555	-3.550	129.783	103.631	0.00054904	0.00021054	6.7712e-05	208.87	1.4767e-06	1.943e-06	260.59	70.413	2.345e-06	2.5974e-06	107.55	55.825	32.577	16.505	1.899e-06	32.933	0.00052395	0.00063785	0.0001615	229.43	5.9394e-06	6.2385e-06	284.95	77.56	5.5585e-06	7.4172e-06	119.07	61.885	35.884	18.318	6.7183e-06	36.636	148.428	-120.098	-81.434	-164.008	-30.575	-18.841	-165.031	-158.853	-60.894	-21.675	-160.390	-157.772	-156.407	-151.089	-47.374	-154.041	-8191	255	
1581.156	1	1	0	0	0.13585	0.18997	0.0081952	0.055043	0.075355	0.17056	0.30093	0.058575	0.10448	0.2772	0.083411	0.11147	0.13739	0.2857	0.18829	0.075938	-2.8667	-2.8396	-3.1333	-3.4125	-2.8521	-3.05	-3.2625	-2.7625	-3.1771	-2.9562	-3.0917	-3.35	-3.0625	-3.2188	-3.4167	-3.0458	-143.634	-58.448	120.956	86.166	-39.881	104.595	50.946	-19.100	-24.722	21.155	-18.243	-66.794	-56.981	-137.976	-91.230	-19.562	0.00054056	0.00021084	5.61e-05	208.8	1.1802e-06	2.4399e-06	258.43	70.033	1.4097e-06	2.5976e-06	106.92	55.668	32.374	16.31	9.437e-07	32.557	0.00051718	0.00066357	0.00016438	227.63	6.0844e-06	6.331e-06	283.44	76.959	5.3925e-06	7.5023e-06	117.59	61.228	35.53	18.127	6.582e-06	36.254	151.035	-74.521	-73.304	-164.051	-27.104	-17.463	-165.117	-159.501	-43.013	-26.388	-160.797	-157.897	-156.260	-150.959	-88.324	-154.002	-8191	255	
1581.252	1	1	0	0	0.10534	0.16618	0.098794	0.15124	0.12961	0.051254	0.15191	0.085978	0.21468	0.28331	0.1662	0.13758	0.10615	0.16727	0.20369	0.037033	-2.7313	-3.1063	-2.9125	-3.2229	-3.0604	-3.1042	-3.4354	-2.7458	-3.3479	-2.9958	-3.0896	-3.1458	-2.9083	-3.1667	-3.2875	-3.0354	-106.485	20.910	98.267	-91.686	-87.532	109.172	-120.034	-56.533	-52.174	61.283	123.515	-61.887	163.516	-111.425	68.836	108.991	0.00051598	0.00031379	8.4598e-05	210.23	1.2608e-06	1.9705e-06	258.86	70.438	1.7578e-06	1.9492e-06	107.49	55.721	32.433	16.548	2.011e-06	33.083	0.00051131	0.00066623	0.00016524	228.91	5.9633e-06	6.6984e-06	283.52	77.319	5.1958e-06	7.4086e-06	118.19	61.417	35.789	18.374	6.6335e-06	36.848	148.555	-95.601	-82.475	-164.233	-34.857	-43.484	-165.195	-159.329	-53.148	-36.324	-160.626	-158.084	-156.733	-151.362	-78.713	-154.191	-8191	255	
1581.348	1	1	0	0	0.28437	0.089891	0.1191	0.19032	0.32701	0.22252	0.21625	0.076164	0.23494	0.31566	0.15973	0.026087	0.138	0.13319	0.094603	0.089881	-2.7583	-3.0687	-2.8708	-3.2104	-2.9167	-3.0062	-3.0333	-2.8625	-3.2854	-3.1437	-2.9792	-3.1354	-3.0438	-2.9813	-3.0458	-3.0625	-97.804	-63.491	139.185	-87.391	-65.364	68.522	86.700	-29.257	-125.576	-140.262	16.137	176.626	96.710	-21.628	151.119	-146.381	0.00055574	0.00012345	7.9771e-05	212.07	1.8317e-06	1.487e-06	258.69	70.621	2.3426e-06	2.5648e-06	106.81	55.789	32.263	16.343	1.476e-06	33.032	0.00052669	0.00068208	0.00017621	231.29	6.3728e-06	6.7839e-06	284.42	77.408	5.5642e-06	7.572e-06	118.07	61.333	35.592	18.199	6.5404e-06	36.602	149.806	-74.355	-77.313	-164.202	-58.284	-10.167	-165.304	-159.437	-79.939	-38.874	-160.596	-157.904	-156.600	-151.269	-69.185	-154.038	-8191	255	
1581.444	1	1	0	0	0.086655	0.11183	0.19621	0.22526	0.13289	0.21615	0.24453	0.16408	0.13292	0.098685	0.12274	0.20532	0.081827	0.22549	0.14488	0.22349	-2.7729	-3.3	-2.7917	-3.4583	-3.0521	-2.975	-3.3625	-2.7604	-3.2354	-3.1583	-3.0396	-3.1875	-3.0687	-3.0875	-3.2687	-3.0979	-171.541	133.246	14.675	114.320	-156.486	32.095	-153.961	73.422	144.863	27.657	-133.559	33.680	-167.339	100.911	-114.778	136.537	0.00054391	0.00014469	4.4951e-05	211.24	1.6912e-06	1.1281e-06	258.79	69.54	2.9858e-06	2.7379e-06	104.79	54.599	31.509	15.767	1.2127e-06	31.26	0.00052352	0.00065523	0.00018047	230.95	6.3074e-06	6.8755e-06	283.27	76.389	5.562e-06	7.4722e-06	115.93	60.278	34.779	17.558	6.0022e-06	34.727	148.319	-90.096	-100.585	-163.758	-28.551	-49.351	-165.515	-159.426	-74.199	-24.487	-160.813	-157.747	-156.572	-151.033	-74.049	-153.886	-8191	255	
1581.540	1	1	0	0	0.33482	0.11395	0.18025	0.16164	0.1705	0.041188	0.030039	0.16097	0.23441	0.19307	0.21087	0.19683	0.17302	0.17325	0.065679	0.09068	-2.5021	-3.1937	-2.9479	-3.1854	-3.2708	-2.8958	-3.3125	-2.9938	-2.9958	-3.3812	-2.9708	-3.2167	-3.0146	-2.9354	-3.2396	-3.2375	78.905	80.457	69.424	-157.856	177.688	91.715	46.303	180.569	25.997	21.253	43.215	57.125	87.940	-62.996	-60.765	-23.438	0.00052226	0.00021676	5.395e-05	204.01	1.6052e-06	8.0228e-07	254.35	67.668	2.2101e-06	2.2662e-06	103.9	53.744	31.209	15.703	2.7326e-06	30.918	0.00052421	0.00064961	0.00018036	222.52	6.3468e-06	6.6093e-06	278.67	74.59	5.6951e-06	6.8833e-06	114.57	59.489	34.378	17.422	5.766e-06	34.465	148.068	-77.205	-109.524	-164.174	-60.530	-49.755	-165.531	-159.476	-66.611	-0.454	-160.823	-157.712	-156.638	-151.246	-60.570	-153.887	-8191	255	
1581.636	1	1	0	0	0.057407	0.032504	0.12406	0.18547	0.2596	0.22154	0.038621	0.17965	0.1482	0.09295	0.13703	0.10137	0.10537	0.22071	0.096757	0.18112	-2.4458	-3.1375	-2.9437	-3.0271	-3.2542	-2.8625	-3.2313	-3.1063	-2.9042	-3.4854	-2.9521	-3.2687	-3.1771	-2.7792	-3.4542	-3.0042	-85.825	-20.126	-19.119	24.841	-93.631	-24.077	95.750	72.612	-117.338	-124.575	166.819	-1.814	-38.667	-176.883	-20.891	182.520	0.00051107	0.00024501	4.4754e-05	206.48	1.3908e-06	2.1981e-06	256.21	68.606	3.6292e-06	9.4674e-07	105.56	54.609	31.644	15.93	9.1666e-07	31.055	0.00051495	0.00061396	0.00017494	224.84	6.1484e-06	6.9594e-06	280.61	75.526	5.8518e-06	6.6039e-06	116.34	60.421	34.986	17.732	5.7357e-06	34.699	146.852	-62.350	-89.644	-164.137	-35.967	-63.223	-165.091	-159.488	-56.330	-72.645	-160.489	-157.691	-156.488	-151.076	-38.450	-153.830	-8191	255	
1581.733	1	1	0	0	0.11913	0.058145	0.073249	0.019082	0.072897	0.26571	0.18802	0.15453	0.17444	0.24379	0.10262	0.14658	0.11448	0.16145	0.13924	0.20676	-2.7271	-3.0438	-3.1667	-3.0479	-3.1771	-2.8729	-3.2438	-3.1063	-2.9437	-3.4688	-2.9729	-2.9833	-3.3104	-2.8542	-3.2	-3.1708	120.917	0.594	-154.112	-131.778	90.901	79.758	7.187	-168.599	-153.451	-140.625	-71.513	-114.403	55.763	123.421	80.707	160.815	0.00048887	0.00013263	5.8843e-05	202.78	1.86e-06	2.4968e-06	255.67	68.162	2.2557e-06	2.2886e-06	104.87	54.607	31.383	15.812	1.7945e-06	31.013	0.00052297	0.00057921	0.00018442	221.23	5.9338e-06	6.9015e-06	279.25	74.828	5.8589e-06	6.352e-06	115.89	60.167	34.668	17.641	5.7751e-06	34.563	147.965	-114.671	-69.167	-164.136	-56.787	-29.835	-164.999	-159.154	-39.366	-14.793	-160.438	-157.563	-156.687	-151.230	-48.612	-153.814	-8191	255	
1581.851	1	1	0	0	0.31281	0.13188	0.22118	0.079993	0.13441	0.16672	0.15129	0.062281	0.14699	0.08719	0.24718	0.19639	0.22815	0.26066	0.15089	0.10875	-2.4396	-3.3	-2.8583	-3.0896	-3.2229	-2.8979	-3.2687	-3.0146	-2.8958	-3.1604	-3.1833	-2.9771	-3.25	-2.7583	-3.1562	-3.3312	87.486	154.452	-14.580	-33.489	24.603	157.982	-107.573	7.586	-74.328	135.264	114.765	177.203	9.989	-29.405	46.075	-132.852	0.00051829	0.00015275	4.2151e-05	207.66	2.656e-06	1.0765e-06	259.59	70.082	2.9925e-06	3.0405e-06	106.65	55.854	32.364	16.268	1.9538e-06	32.452	0.00054501	0.00055623	0.00019382	227.2	5.9028e-06	7.2126e-06	284.53	77.146	6.0735e-06	6.4517e-06	118.61	61.624	35.778	18.108	6.1801e-06	36.017	149.174	-75.010	-41.871	-164.058	-44.776	-68.319	-165.369	-159.057	-74.432	-48.447	-160.748	-157.992	-156.717	-151.164	-75.786	-153.889	-8191	255	
1581.948	1	1	0	0	0.21988	0.13299	0.16027	0.065317	0.29	0.079541	0.1327	0.13849	0.20377	0.183	0.1153	0.088159	0.09249	0.53356	0.32948	0.34608	-2.275	-3.2125	-2.9854	-3.1312	-3.1875	-2.9979	-3.2042	-3.1042	-2.8208	-3.2938	-3.1167	-3.0042	-3.3125	-2.9875	-3.0792	-3.2604	-169.078	104.517	148.378	-85.062	-92.193	-152.369	103.003	27.283	172.303	-45.755	-83.700	-32.524	79.150	94.465	120.878	123.058	0.00050451	0.00023965	4.1032e-05	211.56	1.9154e-06	2.4793e-06	261.49	69.996	1.756e-06	1.7808e-06	107.83	55.895	32.315	16.185	1.6349e-06	32.005	0.00054093	0.00056237	0.00019838	230.39	5.6052e-06	7.2325e-06	286.29	77.592	5.9991e-06	6.088e-06	118.8	61.584	35.64	18	6.1293e-06	35.609	146.460	-80.132	-69.103	-163.894	-30.823	-13.137	-165.167	-159.322	-89.309	-33.721	-160.753	-157.894	-156.334	-151.216	-24.415	-154.105	-8191	255	
1582.044	1	1	0	0	0.19089	0.1837	0.19424	0.18337	0.044515	0.060588	0.086195	0.079032	0.1312	0.22007	0.068282	0.11375	0.11844	0.17079	0.20514	0.094691	-2.4229	-3.1708	-3	-2.8563	-3.2542	-3.0625	-3.0438	-3.0979	-3.0938	-3.0104	-3.15	-2.8396	-3.2375	-2.9875	-3.1333	-3.1917	15.456	-127.379	-153.194	166.403	61.991	17.775	31.619	89.466	101.421	-49.666	100.971	-107.029	-30.799	52.517	176.411	48.639	0.00053337	0.00014505	3.7621e-05	210.69	2.0726e-06	9.9492e-07	258.92	70.137	2.8626e-06	2.1932e-06	106.86	55.411	32.348	16.161	2.3476e-06	32.196	0.00054272	0.00054902	0.00018969	229.74	5.4419e-06	7.3483e-06	284.1	77.067	5.9033e-06	6.2368e-06	117.94	61.149	35.505	17.955	6.1445e-06	35.819	148.833	-108.128	-94.962	-164.102	-60.505	-23.190	-165.133	-159.337	-69.221	-21.998	-161.110	-157.885	-156.397	-151.223	-45.911	-153.974	-8191	255	
1582.140	1	1	0	0	0.23267	0.17747	0.088394	0.20111	0.028907	0.25165	0.10061	0.20768	0.10172	0.15286	0.03011	0.26158	0.18535	0.14403	0.12279	0.090912	-2.5958	-3.2313	-3	-2.9417	-3.3458	-3.2771	-2.975	-3.4062	-2.8	-3.2417	-3.0646	-3.0375	-3.1437	-2.9813	-3.0167	-3.2292	-137.262	-59.513	79.612	-167.275	-91.892	82.679	-17.184	-69.397	172.060	93.349	-30.190	-148.551	-83.978	-98.261	40.052	79.086	0.00050459	0.00015927	5.4682e-05	210.28	1.8206e-06	1.3047e-06	257.42	70.2	2.3134e-06	1.3149e-06	107.32	55.262	32.049	16.114	5.8445e-07	32.308	0.00054945	0.00056852	0.00018679	229.11	5.228e-06	7.4806e-06	283.28	76.966	6.1408e-06	6.266e-06	118.14	60.947	35.276	17.893	5.9022e-06	35.885	147.832	-81.383	-65.606	-163.878	-39.694	-63.449	-165.107	-159.275	-62.989	-32.037	-160.930	-157.654	-156.396	-151.149	-26.022	-153.876	-8191	255	
1582.236	1	1	0	0	0.12365	0.13513	0.10763	0.11828	0.13865	0.17742	0.099135	0.16124	0.27102	0.16236	0.089695	0.16226	0.067596	0.20722	0.27013	0.23065	-2.6646	-3.1104	-3.1292	-2.7854	-3.4562	-3.1021	-3.0146	-3.0563	-2.8396	-3.0979	-3.2	-3.0458	-3.1125	-3.0271	-2.9792	-3.2104	-125.268	170.246	-166.455	5.093	36.794	177.934	40.247	-152.298	-150.920	-48.426	138.624	127.942	110.877	145.895	-144.617	-143.384	0.00051025	0.0001961	6.0767e-05	208.9	2.195e-06	2.3019e-06	259.49	70.202	1.6018e-06	1.9559e-06	107.32	55.478	32.176	16.207	2.3283e-06	32.618	0.00054647	0.00055615	0.00018006	229.19	5.2527e-06	7.2411e-06	283.75	76.921	6.2202e-06	6.205e-06	118.14	61.189	35.341	18.019	6.1074e-06	36.336	147.441	-110.970	-109.622	-164.106	-48.611	-36.421	-165.035	-158.811	-61.397	-0.942	-161.021	-157.815	-156.498	-151.025	-61.698	-154.084	-8191	255	
1582.330	1	1	0	0	0.19288	0.065901	0.24144	0.21708	0.12538	0.2914	0.10031	0.088111	0.093631	0.17766	0.20085	0.27302	0.036842	0.23232	0.12597	0.12536	-2.6208	-3.025	-3.2521	-2.9375	-3.2146	-3.0187	-2.7896	-3.2229	-3.1188	-3.0812	-3.5333	-3	-3.2542	-3.0563	-2.7667	-3.1562	45.309	-144.967	-149.976	-60.605	136.490	39.596	105.708	79.677	-160.929	-93.466	56.501	139.599	-90.863	162.996	167.274	119.424	0.00053005	0.0001734	5.3561e-05	210.06	1.9365e-06	1.5965e-06	259.9	70.272	2.5073e-06	2.3014e-06	107.14	55.367	32.047	16.123	2.0848e-06	32.344	0.00056151	0.00056745	0.00017212	230.51	5.2921e-06	7.42e-06	284.54	77.003	6.1308e-06	6.5274e-06	117.67	60.721	35.081	17.85	6.1838e-06	35.958	148.182	-103.823	-65.738	-164.165	-77.000	-51.768	-165.159	-159.369	-72.328	-13.180	-160.772	-157.679	-156.237	-151.329	-57.479	-153.883	-8191	255	
1582.427	1	1	0	0	0.18943	0.11847	0.074346	0.18086	0.083617	0.32232	0.076033	0.28043	0.047734	0.046076	0.071887	0.10894	0.026161	0.22326	0.061301	0.23779	-2.625	-2.8521	-3.3104	-2.9854	-3.0271	-3.3521	-2.8187	-3.3646	-2.9583	-3.0354	-3.3417	-3.1063	-3.1188	-3.2354	-2.9938	-3.2375	24.780	49.813	137.167	-127.699	-0.268	22.365	-57.623	98.169	-3.669	149.752	-113.451	69.591	-89.267	-143.382	63.732	165.071	0.0005306	0.00018174	4.3023e-05	210.08	1.6391e-06	1.1682e-06	256.88	69.468	2.8142e-06	2.2496e-06	106.83	55.118	32.28	16.242	2.6316e-06	32.965	0.00056705	0.00057845	0.00016675	229.89	5.3955e-06	7.083e-06	282.16	76.525	6.4176e-06	6.3932e-06	117.52	60.867	35.441	18.057	6.068e-06	36.523	149.141	-105.694	-80.261	-164.101	-46.415	-14.154	-165.188	-159.421	-68.830	-45.785	-161.117	-157.713	-156.438	-151.203	-51.535	-154.236	-8191	255	
1582.523	1	1	0	0	0.22283	0.16547	0.15921	0.12852	0.13007	0.34666	0.19059	0.064767	0.089432	0.23283	0.1392	0.21551	0.2841	0.31238	0.1289	0.36619	-2.7229	-2.9188	-3.2938	-3.0125	-3.0333	-3.3146	-2.8812	-3.2583	-3.0729	-3.075	-3.2771	-2.8333	-3	-3.2708	-2.7771	-3.3104	-11.895	150.647	-51.220	67.970	-117.427	98.495	97.495	102.882	-82.184	-23.994	4.363	-146.538	-137.586	96.179	160.952	145.075	0.00052695	0.00022567	2.3836e-05	211.79	1.6198e-06	1.9954e-06	259.26	70.64	1.2621e-06	2.0615e-06	108.46	55.847	32.487	16.426	2.1398e-06	33.053	0.00055718	0.0005824	0.00016019	231.3	5.4877e-06	6.9006e-06	283.72	77.577	6.3962e-06	6.4242e-06	119.01	61.505	35.794	18.302	6.3511e-06	36.791	148.603	-109.305	-82.429	-163.992	-14.995	-44.519	-165.227	-159.345	-74.783	-21.786	-160.759	-157.864	-156.630	-151.045	-32.419	-153.987	-8191	255	
1582.643	1	1	0	0	0.21925	0.19561	0.16223	0.18599	0.14497	0.2867	0.08797	0.226	0.49582	0.14795	0.12052	0.22093	0.085819	0.11946	0.061161	0.23099	-2.7188	-2.7396	-3.275	-2.9688	-3.0563	-3.3063	-2.7854	-3.1937	-3.1417	-2.9083	-3.2417	-2.9021	-3.0792	-3.3021	-2.9562	-3.1417	-94.076	-121.624	-88.795	-46.954	145.636	74.532	-167.395	-96.834	18.899	-66.883	-94.661	68.027	59.296	-37.360	105.699	131.251	0.00053645	0.00026158	6.3713e-05	212.16	1.5232e-06	1.0061e-06	258.19	70.269	3.1984e-06	1.3038e-06	108.7	56.05	32.557	16.513	2.7638e-06	33.247	0.00056177	0.00059272	0.00015956	231.46	5.4525e-06	6.8332e-06	283.55	77.406	6.3947e-06	6.885e-06	119.05	61.751	35.746	18.284	6.5336e-06	36.908	147.146	-75.047	-106.911	-163.851	-43.254	-87.048	-165.143	-159.525	-54.605	-53.007	-160.678	-157.724	-156.350	-151.092	-47.398	-154.174	-8191	255	
1582.740	1	1	0	0	0.21073	0.18607	0.37715	0.053973	0.16965	0.16693	0.1974	0.16031	0.16538	0.20498	0.16462	0.11527	0.23247	0.20342	0.20663	0.20102	-2.6146	-2.9417	-3.15	-2.9625	-3.0729	-3.3125	-2.8583	-3.0438	-3.1417	-3.0083	-3.1021	-3.0771	-3.1333	-3.1312	-2.9333	-2.9729	-30.623	-158.181	-102.635	-94.711	-63.587	79.226	-8.131	28.227	-153.040	3.298	-146.383	74.121	48.371	-176.647	149.986	17.374	0.00055057	0.00015589	2.5171e-05	210.61	2.0628e-06	1.7977e-06	258.25	70.589	1.2768e-06	2.6464e-06	108.61	55.928	32.531	16.388	2.2719e-06	32.779	0.0005512	0.00060622	0.00016085	230.55	5.4462e-06	6.4581e-06	283.27	77.496	6.1823e-06	6.891e-06	118.92	61.527	35.624	18.198	6.5586e-06	36.478	149.207	-100.557	-63.399	-163.851	-68.245	-2.529	-165.286	-159.421	-17.320	-22.785	-160.858	-157.777	-156.435	-151.129	-57.406	-154.153	-8191	255	
1582.836	1	1	0	0	0.11832	0.28609	0.083711	0.070992	0.060386	0.11765	0.14111	0.13977	0.17218	0.23582	0.34396	0.1346	0.22071	0.09415	0.13567	0.09664	-2.925	-2.8708	-2.9771	-3.2229	-2.9188	-3.2062	-2.9875	-3.0125	-3.1063	-3.0583	-3.1813	-3.0271	-2.9208	-3.1312	-2.8	-3.0167	87.461	-26.174	-18.078	-153.573	18.326	-156.632	108.466	24.074	179.584	-174.715	133.290	113.773	174.669	-69.430	-70.705	148.606	0.00052544	0.00017337	5.4672e-05	209.28	2.3317e-06	1.6834e-06	258.69	70.644	2.539e-06	1.4458e-06	107.32	55.96	32.348	16.5	1.791e-06	32.872	0.00054741	0.00060887	0.00015883	228.47	5.4771e-06	6.3915e-06	283.32	77.398	5.7237e-06	6.8231e-06	118.69	61.582	35.754	18.272	6.7667e-06	36.534	148.103	-96.522	-78.370	-164.040	-69.195	-33.906	-165.201	-159.466	-84.852	-75.617	-160.778	-157.704	-156.676	-151.317	-44.883	-153.980	-8191	255	
1582.932	1	1	0	0	0.14034	0.08762	0.030881	0.14419	0.2537	0.17928	0.13518	0.098297	0.082915	0.1084	0.1703	0.21488	0.17632	0.13064	0.042381	0.11102	-2.8375	-2.8042	-3.1854	-3.1167	-2.6917	-3.3333	-3.1333	-2.9646	-3.175	-2.9062	-3.125	-2.8667	-2.8021	-3.3667	-2.9854	-2.9437	26.400	16.059	133.319	135.950	-120.406	159.891	146.040	-142.679	1.841	176.377	117.751	23.069	-34.306	-140.890	41.592	83.324	0.00055555	0.00025337	3.8181e-05	210.41	1.8128e-06	2.3146e-06	259.5	71.042	2.7506e-06	2.5141e-06	108.24	56.005	32.414	16.536	1.7745e-06	33.109	0.00053601	0.00061472	0.00015851	229.92	5.6432e-06	6.2221e-06	284.16	78.034	5.7294e-06	7.1653e-06	119.45	61.792	35.848	18.332	6.7009e-06	36.788	148.056	-90.532	-82.711	-164.232	-29.421	-23.988	-165.379	-159.077	-64.000	-22.104	-160.687	-157.913	-156.369	-151.533	-25.347	-154.239	-8191	255	
1583.028	1	1	0	0	0.066502	0.16361	0.025735	0.22447	0.18398	0.20631	0.12225	0.092845	0.078085	0.17583	0.16298	0.062409	0.067878	0.17638	0.089658	0.20764	-2.7375	-2.8063	-3.025	-3.0167	-2.9854	-3.2458	-3.1063	-2.9813	-3.3146	-2.9083	-3.025	-3.2438	-2.8833	-3.1063	-3.3042	-2.8229	-176.317	-6.803	155.911	75.464	-121.230	136.588	128.400	-134.133	-156.482	-85.931	172.596	117.751	-101.566	-88.742	-107.602	-162.552	0.00053362	0.00024703	7.533e-05	212.49	2.3244e-06	2.0476e-06	260.74	70.481	1.5487e-06	2.6468e-06	109.43	56.206	32.759	16.63	2.1251e-06	33.501	0.00052468	0.00064119	0.00016305	231.52	5.8634e-06	6.2766e-06	284.64	77.798	5.429e-06	7.3398e-06	119.98	61.985	36.093	18.481	6.7153e-06	37.345	147.750	-92.862	-93.453	-164.156	-49.623	-29.253	-165.101	-159.697	-26.418	-42.541	-160.646	-157.810	-156.278	-151.050	-40.869	-154.098	-8191	255	
1583.124	1	1	0	0	0.23029	0.096003	0.18656	0.16042	0.18109	0.26961	0.12077	0.082661	0.15205	0.25259	0.10855	0.24324	0.11933	0.23238	0.14533	0.21275	-2.9437	-2.9833	-2.9146	-3.5542	-2.925	-3.0438	-3.2375	-2.8354	-3.1875	-2.8104	-2.8104	-3.2917	-2.8771	-3.1042	-2.9813	-3.0167	15.311	-130.528	-101.666	132.769	166.580	-102.738	74.695	-76.059	-56.630	-85.897	104.123	-41.180	50.886	-132.070	-0.762	-113.309	0.00055352	0.00021415	5.159e-05	213.64	1.4149e-06	1.8816e-06	262.5	71.632	2.2588e-06	2.3792e-06	109.31	56.351	32.674	16.586	1.3905e-06	33.19	0.00053259	0.00064354	0.00016849	233.84	6.1695e-06	6.3915e-06	286.74	78.453	5.4554e-06	7.498e-06	120.4	62.057	35.926	18.373	6.7319e-06	36.943	147.737	-72.881	-65.187	-164.076	-21.985	-29.672	-165.680	-159.592	-82.073	-32.116	-161.009	-157.741	-156.404	-151.237	-41.893	-154.110	-8191	255	
1583.243	1	1	0	0	0.06155	0.11766	0.23015	0.15695	0.08482	0.23015	0.24568	0.18121	0.08872	0.16741	0.065647	0.26249	0.1228	0.22644	0.16263	0.23224	-2.85	-2.9167	-3.1813	-3.1125	-2.9021	-3.2479	-2.9229	-2.9396	-3.0583	-3.0396	-2.9562	-3.3187	-2.8896	-3.1958	-3.2292	-3.0354	-49.067	132.991	-82.296	92.721	121.437	-42.484	174.905	138.850	53.496	107.786	99.263	88.286	84.725	-175.495	-143.257	51.883	0.00054693	0.00013181	6.1504e-05	213.14	2.8296e-06	2.0712e-06	259.17	70.145	3.0117e-06	2.3079e-06	108.24	55.398	32.151	16.292	1.5269e-06	32.801	0.00052344	0.00065439	0.00016204	232.17	6.0112e-06	6.3258e-06	283.92	77.29	5.3961e-06	7.5617e-06	118.57	61.075	35.561	18.145	6.2701e-06	36.573	150.305	-104.094	-41.979	-164.260	-50.531	-40.395	-165.027	-159.336	-77.288	-12.519	-160.895	-157.920	-156.482	-150.967	-44.124	-154.169	-8191	255	
1583.339	1	1	0	0	0.25225	0.16741	0.10013	0.1435	0.19256	0.15543	0.16707	0.19163	0.10437	0.017856	0.31831	0.30276	0.090548	0.2246	0.27556	0.19592	-2.8542	-3.1	-2.8146	-3.1646	-3.1125	-3.1417	-3.1396	-3.0062	-3.2021	-3.0042	-2.95	-3.3958	-2.8854	-2.9521	-3.3479	-2.8604	-35.411	-151.525	119.157	25.563	150.808	159.946	-68.827	75.538	158.797	14.172	155.260	21.310	-168.942	-37.894	123.524	50.218	0.00052295	0.00024888	4.5938e-05	212.04	1.6871e-06	1.6327e-06	258.47	70.866	9.6794e-07	3.3345e-06	107.75	55.706	32.477	16.535	1.7404e-06	33.265	0.00051488	0.00063945	0.00016303	231.12	5.9436e-06	6.2852e-06	283.21	77.588	5.2158e-06	7.2066e-06	118.87	61.472	35.884	18.36	6.2073e-06	37.035	149.558	-104.477	-73.788	-164.042	-54.157	-43.412	-164.900	-159.213	-46.542	-16.342	-160.851	-157.692	-156.503	-151.169	-60.558	-154.078	-8191	255	
1583.411	1	1	0	0	0.16458	0.13621	0.24542	0.11312	0.014974	0.11042	0.14727	0.18821	0.14572	0.085247	0.023845	0.23704	0.22114	0.19783	0.17447	0.17543	-2.6979	-2.9771	-2.925	-3.3438	-2.9062	-2.9896	-3.3854	-2.9875	-3.0687	-3.1708	-3.0146	-3.3	-3.0896	-3.0292	-3.1625	-3.1146	-39.287	-157.572	-35.515	-33.093	177.716	77.167	77.921	-156.380	179.582	-118.340	-49.540	-33.394	102.415	72.445	-122.274	133.090	0.00052832	0.00020747	8.079e-05	210.3	1.4542e-06	2.4421e-06	257.52	70.987	1.6007e-06	2.2325e-06	108.49	56.344	32.856	16.53	2.0848e-06	33.343	0.00052497	0.00067101	0.00016644	230.9	6.465e-06	6.3181e-06	282.62	77.992	5.4197e-06	7.2547e-06	119.88	62.048	36.158	18.442	6.0317e-06	37.14	148.179	-89.648	-86.267	-164.036	-50.399	-31.956	-165.221	-159.275	-58.448	-8.288	-160.953	-158.070	-156.558	-151.044	-71.842	-154.012	-8191	255	
1583.531	1	1	0	0	0.22377	0.12679	0.069284	0.064932	0.15179	0.017699	0.26959	0.054022	0.19918	0.24175	0.073308	0.091115	0.23851	0.19735	0.066814	0.19881	-2.7542	-3.1021	-2.9083	-3.2896	-3.0708	-3.1521	-3.0729	-2.9562	-3.1375	-3.1833	-2.8646	-3.1521	-3.0542	-2.8646	-3.3812	-3.1354	-62.743	35.809	2.483	141.702	-53.292	-52.495	138.847	55.799	-127.214	103.449	-115.683	-42.479	-20.570	-61.652	141.333	-8.219	0.00055558	0.00025476	5.1979e-05	213.03	1.3645e-06	2.505e-06	259.54	71.121	1.7207e-06	1.5032e-06	108.73	55.932	32.621	16.468	1.3872e-06	32.902	0.00054013	0.00063907	0.00016829	231.63	6.1406e-06	6.4883e-06	284.22	77.986	5.3531e-06	6.6658e-06	119.59	61.793	35.991	18.256	5.8924e-06	36.629	149.045	-100.918	-108.376	-164.245	-45.556	-38.333	-165.474	-159.135	-61.723	-42.775	-160.809	-157.746	-156.586	-151.537	-72.479	-154.038	-8191	255	
1583.628	1	1	0	0	0.11086	0.040413	0.094498	0.22221	0.18487	0.022388	0.17804	0.034812	0.11908	0.11646	0.19145	0.098691	0.1174	0.14088	0.21967	0.22489	-2.5458	-3.25	-2.8271	-3.3042	-3.1729	-2.925	-3.3083	-3.1021	-3.0083	-3.2708	-2.8854	-3.3688	-3.0771	-3.0542	-3.1792	-3.0083	58.783	108.817	181.565	110.323	10.877	9.593	37.415	154.765	49.310	140.889	-140.123	150.497	-5.122	66.683	83.544	-172.062	0.00052779	0.00019697	5.9791e-05	210.5	1.9935e-06	1.9022e-06	255.81	69.531	2.3184e-06	1.7361e-06	106.6	54.901	32.031	16.16	1.743e-06	32.416	0.00051328	0.0005956	0.00017758	229.61	6.0893e-06	6.6137e-06	280.65	76.481	5.5019e-06	6.4956e-06	117.39	60.425	35.305	17.941	5.6926e-06	36.089	148.673	-94.221	-60.615	-164.240	-36.611	-15.647	-165.202	-159.476	-48.213	-73.435	-160.720	-157.844	-156.952	-151.435	-45.784	-154.333	-8191	255	
1583.724	1	1	0	0	0.11914	0.18683	0.14805	0.13236	0.16312	0.10021	0.13631	0.10085	0.19686	0.13706	0.058586	0.063515	0.055713	0.12912	0.14036	0.15253	-2.5792	-3.2625	-2.9229	-3.0958	-3.2271	-2.9396	-3.2729	-2.9396	-2.8625	-3.1792	-2.9021	-3.2396	-3.1521	-2.8771	-3.3958	-3.2333	-63.536	10.758	-9.561	141.150	26.670	4.989	-120.246	141.739	-96.085	-157.518	-79.250	-86.569	13.722	90.147	101.887	-156.400	0.0005469	0.00017018	4.9663e-05	211	2.0923e-06	1.2805e-06	257.06	69.95	1.5114e-06	2.0747e-06	107.17	55.572	32.249	16.358	1.6182e-06	32.925	0.00052523	0.00055994	0.00018126	230.27	5.8796e-06	6.6863e-06	281.37	76.934	5.4726e-06	6.548e-06	118.04	61.248	35.61	18.176	5.7705e-06	36.646	146.538	-109.883	-111.947	-163.920	-39.946	-71.843	-165.227	-159.218	-43.817	-24.335	-160.829	-158.086	-156.709	-151.253	-27.989	-154.205	-8191	255	
1583.820	1	1	0	0	0.044212	0.16812	0.11927	0.14162	0.066295	0.12822	0.068292	0.11353	0.24379	0.077002	0.1356	0.06793	0.07443	0.040369	0.16875	0.2298	-2.625	-3.1354	-3.1521	-2.9521	-3.4104	-2.775	-3.3125	-3.1125	-2.9854	-3.4875	-2.9938	-3.2521	-3.6375	-3.0833	-3.2354	-3.2396	-50.929	182.464	-172.348	-138.776	30.411	-21.705	-121.150	-161.954	29.661	142.164	141.205	-27.291	-31.569	-134.290	-65.576	-18.399	0.00052394	0.00010507	2.718e-05	211.16	1.8855e-06	2.2176e-06	256.36	70.451	1.7124e-06	1.5566e-06	108.05	55.321	32.285	16.326	2.2618e-06	33.058	0.00051882	0.0005582	0.00018029	230.73	5.7938e-06	7.0233e-06	281.37	77.154	5.5849e-06	6.2264e-06	118.71	61.169	35.67	18.195	5.6494e-06	36.706	148.045	-64.276	-143.795	-163.825	-56.801	-34.940	-165.207	-159.457	-75.530	-6.048	-160.975	-157.519	-156.493	-151.215	-64.383	-154.425	-8191	255	
1583.941	1	1	0	0	0.20728	0.075835	0.36475	0.11727	0.28153	0.28897	0.072404	0.23249	0.13269	0.15498	0.11121	0.20664	0.24117	0.34284	0.2144	0.13691	-2.6125	-3.1542	-2.9854	-3.0667	-3.15	-2.9583	-3.0792	-3.375	-2.9646	-3.2396	-2.9625	-2.9875	-3.4208	-3.0042	-3.2375	-3.2375	30.740	-169.786	1.222	151.077	-128.828	42.589	-57.073	69.929	3.707	-121.758	173.838	168.915	-170.484	-135.755	158.547	31.193	0.00053046	0.00021629	7.584e-05	211.29	2.0576e-06	1.6487e-06	256.89	70.118	2.579e-06	2.3591e-06	107.01	55.461	32.224	16.398	2.3612e-06	32.959	0.00053164	0.00055441	0.0001824	230.67	5.4792e-06	6.9067e-06	281.32	77.052	5.7938e-06	6.0519e-06	118.44	61.144	35.598	18.174	5.8841e-06	36.47	148.927	-106.713	-78.677	-164.173	-42.543	-46.329	-164.855	-159.521	-49.723	-6.182	-161.022	-157.495	-156.493	-150.975	-67.590	-154.171	-8191	255	
1584.035	1	1	0	0	0.24664	0.29868	0.22823	0.17019	0.29244	0.11677	0.13259	0.204	0.073936	0.17215	0.02915	0.39148	0.26022	0.041907	0.070754	0.10425	-2.55	-3.2458	-3.0271	-2.9771	-3.3792	-3.0979	-2.9979	-3.3625	-2.9083	-3.1958	-3.0438	-2.9542	-3.2458	-2.9083	-3.1542	-3.1958	175.604	-120.391	150.025	-20.814	135.752	11.362	-32.183	161.967	86.698	169.259	87.638	-106.741	113.238	-147.026	92.795	41.485	0.00055927	0.00022783	5.7255e-05	210.53	2.2798e-06	1.3508e-06	254.8	69.048	1.913e-06	7.2271e-07	105.71	54.689	31.849	16.014	1.7934e-06	32.265	0.000541	0.00055046	0.00018219	229.64	5.539e-06	7.019e-06	279.2	75.882	5.8825e-06	6.1052e-06	116.62	60.061	35.054	17.833	5.654e-06	35.925	147.623	-100.687	-95.803	-164.148	-36.266	-49.054	-165.346	-159.344	-132.061	-67.228	-160.696	-158.069	-156.516	-151.098	-67.147	-154.259	-8191	255	
1584.108	1	1	0	0	0.15915	0.098148	0.13667	0.10062	0.17479	0.12464	0.11267	0.14162	0.30206	0.060087	0.25336	0.12345	0.24631	0.19244	0.14338	0.18374	-2.5062	-3.1188	-3.0354	-2.9542	-3.3354	-2.9958	-3.1604	-2.9917	-2.9979	-3.3792	-2.9333	-3.1229	-3.2188	-3.2438	-3.0396	-3.475	-121.444	-21.348	147.108	51.617	-75.615	182.459	100.298	-13.168	28.839	-167.736	-119.849	97.949	47.559	-3.679	-90.180	145.047	0.00053537	0.00021088	5.1578e-05	209.14	2.054e-06	2.0047e-06	254.28	69.39	2.4167e-06	2.4132e-06	106.16	54.87	32.182	16.226	1.9536e-06	32.512	0.00054505	0.00055016	0.00017748	228.75	5.2836e-06	7.42e-06	278.38	76.127	6.1436e-06	5.9952e-06	117	60.304	35.374	18.039	5.7917e-06	36.183	147.622	-101.786	-107.122	-164.090	-68.869	-24.982	-165.354	-159.301	-78.067	-50.549	-161.014	-157.776	-156.301	-151.108	-52.052	-154.241	-8191	255	
1584.204	1	1	0	0	0.11218	0.18654	0.16963	0.22258	0.089242	0.21553	0.16733	0.067267	0.20898	0.29378	0.20425	0.096991	0.17352	0.12795	0.1922	0.10964	-2.6813	-3.275	-2.9646	-3.0042	-3.1688	-3.1562	-2.9813	-3.2313	-2.9542	-3.1917	-3.2292	-2.9813	-3.2583	-3.0917	-2.9958	-3.1937	84.638	-48.349	-33.008	48.810	-139.651	114.503	76.015	-140.021	79.966	170.224	156.363	159.858	176.247	6.502	-15.704	114.566	0.00053638	0.00011123	4.4439e-05	209.33	2.455e-06	1.587e-06	254.07	69.28	1.2369e-06	2.3797e-06	107.06	54.625	32.099	16.233	1.5474e-06	32.877	0.00054337	0.00053984	0.00017842	228.61	5.2942e-06	7.299e-06	278.49	76.204	6.188e-06	6.2565e-06	117.59	60.413	35.345	18.1	5.822e-06	36.45	148.069	-86.949	-76.761	-163.938	-78.741	-31.746	-165.382	-159.071	-49.030	-15.379	-160.610	-157.938	-156.676	-151.182	-49.538	-154.060	-8191	255	
1584.323	1	1	0	0	0.16488	0.23664	0.1534	0.30911	0.15382	0.13928	0.18077	0.2201	0.1453	0.038582	0.18561	0.22348	0.19915	0.049489	0.17528	0.16164	-2.4833	-3.1	-3.3292	-2.9021	-3.2375	-2.9583	-3.0792	-3.1208	-3.0396	-3.1333	-3.2042	-3.0396	-3.1396	-3.0104	-2.8625	-3.3083	82.251	-12.659	-38.923	73.519	-29.449	-176.117	-71.276	40.047	-157.657	80.424	-71.729	-163.052	65.188	-123.510	33.391	141.553	0.00052015	9.8203e-05	6.9722e-05	209.4	1.2124e-06	2.1629e-06	255.14	69.909	2.6342e-06	1.6903e-06	107.21	55.123	32.254	16.38	2.3146e-06	32.896	0.00055492	0.00055607	0.00017199	228.97	5.266e-06	7.4745e-06	279.54	76.27	6.2173e-06	6.4887e-06	117.81	60.809	35.461	18.169	6.3307e-06	36.559	146.673	-110.531	-57.516	-163.779	-41.906	-18.226	-165.286	-159.390	-63.096	-34.637	-160.685	-157.770	-156.770	-151.305	-34.464	-154.331	-8191	255	
1584.420	1	1	0	0	0.15866	0.050087	0.051558	0.25712	0.37289	0.17146	0.12044	0.09543	0.078565	0.11199	0.072245	0.14374	0.2323	0.0992	0.17406	0.22915	-2.5667	-2.8875	-2.9646	-2.9229	-3.2708	-3.2479	-2.7604	-3.2771	-3.0333	-3.0396	-3.3937	-2.9729	-3.0729	-3.2542	-3.0771	-3.3625	166.436	159.377	-175.182	27.205	66.959	79.617	-111.054	125.858	59.086	171.479	-164.282	76.191	-164.080	-45.822	153.382	-168.486	0.00053931	0.00019855	6.8769e-05	209.96	1.0627e-06	2.5123e-06	254.15	69.051	1.3454e-06	1.8792e-06	105.61	54.728	31.902	16.213	2.0364e-06	32.54	0.00057437	0.00056867	0.00016408	229.57	5.3167e-06	7.134e-06	278.71	75.846	6.3275e-06	6.1766e-06	116.73	60.136	35.187	18.046	6.3103e-06	36.241	148.106	-82.159	-71.383	-164.393	-22.010	-31.424	-165.568	-159.531	-47.298	-35.979	-160.763	-157.722	-156.727	-151.553	-37.055	-154.323	-8191	255	
1584.516	1	1	0	0	0.19521	0.26192	0.24156	0.10569	0.095932	0.095966	0.075493	0.31833	0.062118	0.099083	0.050923	0.19675	0.17824	0.15637	0.27429	0.15366	-2.4354	-3.0979	-3.2979	-3.0292	-3.0833	-3.0771	-3.0708	-3.3187	-3.1021	-3.0563	-3.0125	-2.9083	-2.8937	-3.2667	-2.9479	-3.1896	13.867	-83.828	-71.989	-104.624	-155.672	25.650	111.380	138.632	83.214	-171.897	102.050	55.918	-142.538	41.940	53.416	-36.553	0.00052343	0.00020105	4.6714e-05	210.78	1.5708e-06	1.9966e-06	254.25	69.598	2.3391e-06	2.5083e-06	107.5	55.23	32.514	16.647	2.1796e-06	33.301	0.0005527	0.00056305	0.00016825	229.78	5.2076e-06	6.9879e-06	278.59	76.391	6.3711e-06	6.3511e-06	118.09	61.068	35.721	18.465	6.4321e-06	37.041	145.683	-66.963	-78.467	-164.423	-55.982	-60.863	-165.398	-159.330	-47.352	-30.861	-160.947	-157.822	-156.205	-151.339	-48.965	-154.438	-8191	255	
1584.636	1	1	0	0	0.08344	0.16237	0.1234	0.18371	0.26202	0.20249	0.20156	0.27913	0.02997	0.036082	0.1224	0.10946	0.030863	0.22209	0.13038	0.18629	-2.7375	-2.9458	-3.2062	-2.9313	-3.1708	-2.9917	-2.7938	-3.0646	-3.3229	-2.85	-3.2125	-2.8375	-3.0167	-3.225	-2.9583	-3.1792	178.268	-61.210	170.409	-129.746	99.461	76.191	172.526	-76.941	180.103	62.664	-118.106	175.425	12.825	-95.166	-144.150	47.107	0.0005574	0.00017003	5.6904e-05	210.97	2.1835e-06	2.2632e-06	254.9	70.164	2.4748e-06	3.0519e-06	108.36	55.959	32.76	16.844	2.7608e-06	33.684	0.00057445	0.00057572	0.00016169	230.29	5.1971e-06	6.6266e-06	280.28	77.037	6.3017e-06	6.5291e-06	119.17	61.696	36.116	18.678	6.7705e-06	37.536	148.277	-91.923	-78.735	-163.998	-37.404	-28.648	-165.068	-159.259	-60.906	-18.129	-160.988	-157.519	-156.530	-151.056	-37.305	-153.866	-8191	255	
1584.708	1	1	0	0	0.11052	0.18937	0.097295	0.25809	0.11502	0.12536	0.18474	0.3754	0.10789	0.22343	0.1719	0.053244	0.19009	0.048989	0.31895	0.19264	-2.6604	-2.8937	-3.2292	-2.9542	-2.9688	-3.3875	-2.9979	-3.2771	-3.0458	-2.9229	-3.1354	-3.1792	-3.0271	-3.3167	-2.9104	-3.3312	-95.245	73.854	166.883	171.983	-54.286	61.610	-41.557	50.154	-60.477	-20.813	116.836	-169.585	-44.824	-166.927	134.018	-135.176	0.00055745	0.00017102	6.2776e-05	211.36	2.1378e-06	1.3415e-06	259.12	71.259	1.4039e-06	2.9118e-06	110.47	56.898	33.456	17.067	1.5649e-06	34.305	0.00056395	0.00060971	0.00016169	230.83	5.3758e-06	6.9049e-06	282.08	78.034	6.1429e-06	6.9401e-06	121.14	62.84	36.725	19.007	6.7614e-06	38.179	146.777	-80.133	-82.548	-163.748	-39.681	-49.629	-165.002	-159.274	-63.778	-25.182	-160.833	-157.843	-156.503	-151.221	-79.126	-154.133	-8191	255	
1584.804	1	1	0	0	0.12262	0.14835	0.17313	0.081861	0.039925	0.15485	0.19108	0.12244	0.093987	0.33924	0.06857	0.063885	0.40112	0.30087	0.14063	0.38146	-2.4479	-2.9333	-3.2521	-3.1083	-2.8979	-3.3438	-2.8875	-3.1896	-3.2875	-3.0438	-3.2438	-2.9792	-2.9	-3.2208	-2.9583	-3.1125	-159.435	28.158	46.114	72.707	-151.876	-103.091	-58.078	161.811	121.273	138.522	177.950	-167.324	105.830	-104.537	25.436	-167.307	0.00058639	0.00021787	4.6602e-05	211.75	1.8646e-06	1.7325e-06	258.02	71.289	3.2959e-06	2.781e-06	109.52	56.921	33.209	17.107	3.0406e-06	34.391	0.00057445	0.00063353	0.00016122	231.3	5.6333e-06	6.6776e-06	282.63	78.459	6.1644e-06	7.0647e-06	120.96	62.788	36.769	19.027	6.828e-06	38.124	147.156	-128.049	-77.068	-164.330	-37.443	-45.296	-165.485	-159.255	-75.733	-39.243	-160.855	-157.687	-156.305	-151.286	-28.481	-154.250	-8191	255	
1584.925	1	1	0	0	0.1541	0.15391	0.15752	0.15993	0.07088	0.1796	0.16478	0.070394	0.20101	0.13563	0.11063	0.4434	0.047664	0.098884	0.16746	0.16981	-2.6667	-2.6854	-3.1479	-3.2208	-2.8604	-3.3083	-3.0333	-3.1146	-3.1188	-2.8208	-3.1583	-2.9917	-2.9167	-3.1	-3.0687	-3.0979	18.617	-73.380	40.600	-99.784	51.697	-0.666	54.559	-72.784	182.185	-156.212	-68.609	178.800	-150.416	-97.610	-98.962	28.026	0.00056406	0.00021101	5.5646e-05	212.21	1.7269e-06	2.5636e-06	257.5	71.911	2.4756e-06	1.9206e-06	110.79	57.844	33.636	17.445	1.6769e-06	34.761	0.00056548	0.00066061	0.00016303	232.01	5.6108e-06	6.3898e-06	283.42	79.128	5.9283e-06	7.29e-06	122.24	63.666	37.259	19.359	6.8121e-06	38.618	147.952	-125.307	-67.830	-164.023	-67.597	-15.679	-165.113	-159.341	-55.986	-4.702	-160.911	-157.678	-156.205	-151.159	-59.954	-154.097	-8191	255	
1585.021	1	1	0	0	0.045406	0.10326	0.1842	0.068651	0.16928	0.25653	0.084409	0.11997	0.17425	0.2565	0.088162	0.14155	0.28243	0.19724	0.081823	0.12225	-2.8771	-2.925	-3.1771	-3.0979	-2.9479	-3.2604	-3.1937	-3.0292	-3.3875	-2.8438	-3.3021	-2.9854	-3.0083	-3.2479	-2.9917	-2.9521	-49.188	-140.196	-151.742	148.169	-68.864	-75.367	-8.809	-95.397	153.919	-57.526	-82.841	82.760	-38.313	-138.043	-51.651	89.079	0.00056535	0.00022923	3.1395e-05	212.65	1.9653e-06	2.5945e-06	259.21	72.163	2.7985e-06	1.2899e-06	110.71	57.526	33.78	17.411	2.587e-06	34.717	0.00055106	0.00064665	0.00016143	232.93	5.8458e-06	6.395e-06	284.13	79.308	5.7716e-06	7.3072e-06	122.42	63.577	37.21	19.333	6.6736e-06	38.617	147.355	-97.484	-59.402	-163.987	-44.901	-43.748	-165.100	-159.269	-68.554	-64.401	-160.837	-157.566	-156.290	-151.269	-68.946	-154.084	-8191	255	
1585.115	1	1	0	0	0.15578	0.21267	0.14726	0.14516	0.11446	0.21545	0.085473	0.27755	0.044882	0.31939	0.18579	0.095623	0.095167	0.087324	0.37071	0.060103	-2.8521	-2.8354	-3.0042	-3.1479	-2.9458	-3.2271	-2.9958	-2.9854	-3.2521	-3.1	-3.2333	-3.1333	-2.8792	-3.2708	-3.0854	-3.0917	29.214	133.947	-47.893	-44.280	139.767	-24.210	-84.674	104.040	-44.204	-144.403	2.762	83.923	137.729	119.908	-53.872	120.409	0.00057124	0.00023238	5.7255e-05	213.92	2.4979e-06	1.2382e-06	261.17	72.475	1.997e-06	3.2203e-06	112.15	58.478	34.026	17.549	2.3834e-06	35.182	0.00054592	0.00068011	0.00015808	233.49	6.1526e-06	6.3544e-06	285.66	79.56	5.5907e-06	7.5385e-06	123.4	64.218	37.499	19.554	6.5154e-06	39.086	148.420	-90.794	-49.705	-164.085	-60.819	-40.367	-165.031	-159.132	-60.188	-52.985	-161.070	-157.799	-156.340	-150.912	-52.689	-154.081	-8191	255	
1585.211	1	1	0	0	0.13078	0.14287	0.38394	0.076678	0.27244	0.22269	0.18086	0.18886	0.089267	0.08188	0.071423	0.18914	0.020559	0.18588	0.31286	0.070451	-2.7917	-3.1229	-2.8479	-3.3771	-2.8625	-3.3312	-3.1833	-2.9479	-3.2687	-2.9958	-3.0583	-3.3208	-2.9042	-3.2438	-2.9917	-2.9896	-93.399	-74.136	-49.642	-160.814	50.226	175.677	-131.324	40.525	-19.556	107.754	153.975	150.010	-40.359	145.030	-118.943	62.233	0.00056229	0.00018853	4.2181e-05	213.87	1.5017e-06	2.8479e-06	259.88	71.965	2.0636e-06	2.4124e-06	110.14	57.13	33.499	17.369	2.1944e-06	34.464	0.0005324	0.00063778	0.00016158	234.04	6.0752e-06	6.2731e-06	285.46	79.113	5.6178e-06	7.2212e-06	121.72	62.959	36.92	19.234	6.3557e-06	38.347	150.439	-122.200	-86.964	-164.048	-61.362	-43.033	-164.991	-159.243	-70.254	-43.861	-160.701	-157.864	-156.631	-151.182	-27.567	-154.313	-8191	255	
1585.332	1	1	0	0	0.051619	0.091311	0.097875	0.048157	0.14062	0.042736	0.19678	0.17868	0.12214	0.087292	0.075508	0.087552	0.1734	0.19995	0.17373	0.091498	-2.6729	-2.9729	-2.9167	-3.4083	-2.925	-3.1854	-3.0812	-3.2542	-3.1562	-3.2083	-2.8646	-3.3396	-3.0729	-3.1312	-3.4458	-3.0625	-96.144	55.242	-37.275	112.604	108.497	162.813	175.483	170.987	-38.905	96.964	109.609	126.926	-160.453	-132.918	74.312	79.505	0.00054391	0.00021349	3.4809e-05	214.65	2.1679e-06	1.8844e-06	259.36	71.915	1.6289e-06	1.6895e-06	111.12	57.287	33.704	17.489	2.4271e-06	34.746	0.00052432	0.00064415	0.00015651	233.68	6.0147e-06	6.1495e-06	284.34	78.814	5.3424e-06	7.1662e-06	122.11	63.236	37.185	19.399	6.4223e-06	38.571	147.239	-82.777	-104.076	-164.306	-30.280	-48.131	-165.257	-159.316	-58.625	4.382	-160.823	-157.938	-156.344	-151.236	-70.602	-154.310	-8191	255	
1585.404	1	1	0	0	0.16439	0.16175	0.24467	0.19977	0.070186	0.22665	0.21531	0.027706	0.11529	0.078321	0.079821	0.23942	0.13171	0.26738	0.32688	0.16934	-2.8333	-3.0896	-3.0854	-3.3458	-3.1375	-3.2083	-3.1458	-3.1188	-3.2687	-3.2167	-2.9062	-3.1042	-3.1542	-3.2979	-3.2833	-3.1521	27.963	1.986	71.372	-49.740	57.078	170.328	-48.848	-46.516	132.762	-5.577	-46.902	-136.020	-142.495	-121.646	127.893	33.494	0.00054815	0.00016946	0.00010383	214.13	1.5813e-06	2.2985e-06	259.24	71.526	1.9124e-06	2.67e-06	110.38	57.099	33.704	17.417	2.4025e-06	34.453	0.00051922	0.00063672	0.00016991	233.5	6.1329e-06	6.2645e-06	284.58	78.761	5.1292e-06	6.9701e-06	121.75	62.955	37.097	19.287	6.1785e-06	38.356	148.976	-69.629	-88.440	-164.021	-41.216	-33.349	-164.853	-159.244	-58.477	9.037	-160.936	-157.794	-156.301	-151.031	-56.729	-154.251	-8191	255	
1585.500	1	1	0	0	0.067313	0.42631	0.017351	0.23406	0.04329	0.26633	0.13579	0.10001	0.19125	0.099526	0.069289	0.094836	0.067342	0.13993	0.18624	0.50064	-2.9542	-3.0542	-2.8604	-3.1333	-2.9521	-3.1562	-3.3667	-3.0208	-3.0354	-3.2271	-2.6771	-3.3	-3.1792	-3.0479	-3.3625	-2.9896	-61.951	117.934	35.765	175.411	-4.614	-15.710	168.101	-32.082	36.106	129.541	114.502	-158.060	-69.176	109.174	-44.105	178.295	0.00056523	0.00011847	5.2532e-05	213.04	1.5442e-06	1.7832e-06	258.96	71.347	2.5261e-06	1.1047e-06	110.61	57.283	33.485	17.382	2.2444e-06	34.692	0.00052337	0.00063239	0.00017221	232.89	6.0224e-06	6.4814e-06	283.97	78.463	5.3567e-06	6.7208e-06	121.76	63.091	36.953	19.294	6.1112e-06	38.562	148.369	-87.938	-103.063	-163.941	-30.545	-1.107	-165.004	-158.993	-66.214	-43.189	-160.931	-157.772	-156.371	-151.373	-40.434	-154.148	-8191	255	
#DATA ENDS
