BOXY.EXE: ISS Imagent and Oximeter Data Acquisition Program Version 0.80
Ascii Record File

#ACQ INFORMATION
2  Detector Channels 
16  External MUX Channels 
1  Auxiliary Channels 
5000  Waveform (CCF) Frequency (Hz)
1  Waveforms Skipped 
30  Waveforms Averaged 
1  Cycles Averaged 
16  Acquisitions per Waveform 
10.0806  Updata Rate (Hz) 

#FILE INFORMATION
TRUE -- External MUX Channel results are PARSED.
FALSE -- AC DC and Phase are NOT grouped.
TRUE -- Companion Program Settings File CREATED.
FALSE -- AC data not excluded
FALSE -- DC data not excluded
FALSE -- Phase data not excluded
FALSE -- Auxillary Chn. data not excluded
Tab delimiters

#CALIBRATION STATE
TRUE -- Waveform Calibration Values APPLIED.


#AUX CALIBRATION VALUES
Val Type	aux-1	

Term	1.0000e+00	
Factor	0.0000e+00	


#WF CALIBRATION VALUES
A = Detector Channel
Val Type	A-AC1	A-AC2	A-AC3	A-AC4	A-AC5	A-AC6	A-AC7	A-AC8	A-AC9	A-AC10	A-AC11	A-AC12	A-AC13	A-AC14	A-AC15	A-AC16	A-DC1	A-DC2	A-DC3	A-DC4	A-DC5	A-DC6	A-DC7	A-DC8	A-DC9	A-DC10	A-DC11	A-DC12	A-DC13	A-DC14	A-DC15	A-DC16	A-Ph1	A-Ph2	A-Ph3	A-Ph4	A-Ph5	A-Ph6	A-Ph7	A-Ph8	A-Ph9	A-Ph10	A-Ph11	A-Ph12	A-Ph13	A-Ph14	A-Ph15	A-Ph16	

Term	0.00000e+00	0.00000e+00	0.00000e+00	0.00000e+00	0.00000e+00	0.00000e+00	0.00000e+00	0.00000e+00	0.00000e+00	0.00000e+00	0.00000e+00	0.00000e+00	0.00000e+00	0.00000e+00	0.00000e+00	0.00000e+00	0.00000e+00	0.00000e+00	0.00000e+00	0.00000e+00	0.00000e+00	0.00000e+00	0.00000e+00	0.00000e+00	0.00000e+00	0.00000e+00	0.00000e+00	0.00000e+00	0.00000e+00	0.00000e+00	0.00000e+00	0.00000e+00	0.00000e+00	0.00000e+00	0.00000e+00	0.00000e+00	0.00000e+00	0.00000e+00	0.00000e+00	0.00000e+00	0.00000e+00	0.00000e+00	0.00000e+00	0.00000e+00	0.00000e+00	0.00000e+00	0.00000e+00	0.00000e+00	
Factor	1.00000e+00	1.00000e+00	1.00000e+00	1.00000e+00	1.00000e+00	1.00000e+00	1.00000e+00	1.00000e+00	1.00000e+00	1.00000e+00	1.00000e+00	1.00000e+00	1.00000e+00	1.00000e+00	1.00000e+00	1.00000e+00	1.00000e+00	1.00000e+00	1.00000e+00	1.00000e+00	1.00000e+00	1.00000e+00	1.00000e+00	1.00000e+00	1.00000e+00	1.00000e+00	1.00000e+00	1.00000e+00	1.00000e+00	1.00000e+00	1.00000e+00	1.00000e+00	X	X	X	X	X	X	X	X	X	X	X	X	X	X	X	X	

B = Detector Channel
Val Type	B-AC1	B-AC2	B-AC3	B-AC4	B-AC5	B-AC6	B-AC7	B-AC8	B-AC9	B-AC10	B-AC11	B-AC12	B-AC13	B-AC14	B-AC15	B-AC16	B-DC1	B-DC2	B-DC3	B-DC4	B-DC5	B-DC6	B-DC7	B-DC8	B-DC9	B-DC10	B-DC11	B-DC12	B-DC13	B-DC14	B-DC15	B-DC16	B-Ph1	B-Ph2	B-Ph3	B-Ph4	B-Ph5	B-Ph6	B-Ph7	B-Ph8	B-Ph9	B-Ph10	B-Ph11	B-Ph12	B-Ph13	B-Ph14	B-Ph15	B-Ph16	

Term	0.00000e+00	0.00000e+00	0.00000e+00	0.00000e+00	0.00000e+00	0.00000e+00	0.00000e+00	0.00000e+00	0.00000e+00	0.00000e+00	0.00000e+00	0.00000e+00	0.00000e+00	0.00000e+00	0.00000e+00	0.00000e+00	0.00000e+00	0.00000e+00	0.00000e+00	0.00000e+00	0.00000e+00	0.00000e+00	0.00000e+00	0.00000e+00	0.00000e+00	0.00000e+00	0.00000e+00	0.00000e+00	0.00000e+00	0.00000e+00	0.00000e+00	0.00000e+00	-1.75373e+02	-1.30324e+02	-1.22335e+02	-1.82865e+02	-7.94388e+01	-6.73137e+01	-1.55847e+02	-1.62015e+02	-8.73043e+01	-6.50213e+01	-1.70182e+02	-1.72231e+02	-1.79732e+02	-1.76323e+02	-7.82466e+01	-1.49486e+02	
Factor	2.80776e-05	1.59647e-04	4.56555e-05	1.56367e-01	1.46645e-06	1.62896e-06	1.65078e-01	5.36098e-02	1.54737e-06	1.86707e-06	8.00233e-02	3.09967e-02	2.31372e-02	8.58255e-03	1.59471e-06	1.26389e-02	1.74870e-05	3.64141e-05	1.03222e-05	7.94208e-02	3.37746e-07	4.14866e-07	7.89372e-02	2.73144e-02	3.43380e-07	4.12689e-07	3.96292e-02	1.53309e-02	1.19582e-02	4.41765e-03	3.63355e-07	6.29802e-03	X	X	X	X	X	X	X	X	X	X	X	X	X	X	X	X	



#DISTANCE SETTINGS
A = Detector Channel
A-1	A-2	A-3	A-4	A-5	A-6	A-7	A-8	A-9	A-10	A-11	A-12	A-13	A-14	A-15	A-16	

2.5000e+00	3.0000e+00	2.5000e+00	3.0000e+00	2.0000e+00	3.0000e+00	1.5000e+00	3.0000e+00	3.0000e+00	3.0000e+00	3.0000e+00	3.0000e+00	3.0000e+00	3.0000e+00	1.5000e+00	3.0000e+00	

B = Detector Channel
B-1	B-2	B-3	B-4	B-5	B-6	B-7	B-8	B-9	B-10	B-11	B-12	B-13	B-14	B-15	B-16	

1.0000e+01	1.0000e+01	1.0000e+01	1.4400e+00	1.0000e+01	1.0000e+01	1.5100e+00	1.9400e+00	1.0000e+01	1.0000e+01	1.9900e+00	2.4900e+00	2.4100e+00	2.9000e+00	1.0000e+01	2.9800e+00	




#DATA BEGINS
time	group	step	mark	flag	A-AC1	A-AC2	A-AC3	A-AC4	A-AC5	A-AC6	A-AC7	A-AC8	A-AC9	A-AC10	A-AC11	A-AC12	A-AC13	A-AC14	A-AC15	A-AC16	A-DC1	A-DC2	A-DC3	A-DC4	A-DC5	A-DC6	A-DC7	A-DC8	A-DC9	A-DC10	A-DC11	A-DC12	A-DC13	A-DC14	A-DC15	A-DC16	A-Ph1	A-Ph2	A-Ph3	A-Ph4	A-Ph5	A-Ph6	A-Ph7	A-Ph8	A-Ph9	A-Ph10	A-Ph11	A-Ph12	A-Ph13	A-Ph14	A-Ph15	A-Ph16	B-AC1	B-AC2	B-AC3	B-AC4	B-AC5	B-AC6	B-AC7	B-AC8	B-AC9	B-AC10	B-AC11	B-AC12	B-AC13	B-AC14	B-AC15	B-AC16	B-DC1	B-DC2	B-DC3	B-DC4	B-DC5	B-DC6	B-DC7	B-DC8	B-DC9	B-DC10	B-DC11	B-DC12	B-DC13	B-DC14	B-DC15	B-DC16	B-Ph1	B-Ph2	B-Ph3	B-Ph4	B-Ph5	B-Ph6	B-Ph7	B-Ph8	B-Ph9	B-Ph10	B-Ph11	B-Ph12	B-Ph13	B-Ph14	B-Ph15	B-Ph16	aux-1	digaux	

1308.138	1	1	0	512	0.042851	0.040784	0.074852	0.089844	0.17324	0.17661	0.18809	0.10666	0.092713	0.10476	0.089482	0.30534	0.17634	0.19211	0.086952	0.027816	-2.6625	-3.2396	-3.4229	-3.0958	-3.4458	-3.1042	-3.0854	-3.6688	-3.225	-3.4375	-3.3146	-3.0875	-3.3187	-3.35	-3.0729	-3.5312	185.335	-136.930	115.886	159.318	-35.102	-116.146	-86.149	170.219	38.085	-121.369	-59.584	-122.562	69.008	12.887	159.812	102.358	0.00023188	0.00041116	0.00011376	348.45	2.5958e-06	7.3144e-06	396.06	98.329	1.1828e-06	1.9291e-06	143.93	58.527	35.165	10.92	4.1622e-06	20.303	0.0088058	0.017423	0.0049642	409.04	0.00015551	0.00019496	458.1	117.37	0.00015263	0.00017383	169.48	68.91	42.341	13.475	0.00012926	24.099	158.088	103.711	-55.728	-128.706	68.693	-59.974	-129.413	-124.031	103.607	-113.582	-125.499	-121.370	-119.971	-114.282	-14.062	-116.425	-8191	255	
1308.234	1	1	0	0	0.086019	0.12982	0.078294	0.18701	0.15613	0.22011	0.15757	0.16301	0.12161	0.062123	0.090615	0.12619	0.17593	0.13371	0.066536	0.1334	-2.7667	-3.3667	-3.4479	-2.975	-3.2646	-3.1604	-3.325	-3.4417	-3.2917	-3.2979	-3.4833	-3.0833	-3.2292	-3.3563	-3.2313	-3.7	-40.580	-19.025	-18.584	217.401	202.653	77.908	-139.599	-139.959	-112.524	192.761	131.426	-83.127	1.135	57.995	68.427	-52.810	0.0002622	0.00030604	6.2522e-05	355.84	3.519e-06	2.7218e-06	402.69	101.66	3.0078e-06	4.6317e-06	144.64	58.611	35.02	10.432	3.1889e-06	19.358	0.006082	0.011766	0.0032229	401.71	9.7701e-05	0.00011972	451.97	115.88	9.3958e-05	0.00011181	165.93	67.413	40.945	12.594	0.00010863	22.933	157.911	-76.420	1.686	-128.936	-104.184	126.035	-129.110	-123.761	19.226	-45.696	-125.210	-121.469	-120.019	-114.204	-43.030	-116.301	-8191	255	
1308.328	1	1	0	0	0.12431	0.031442	0.12264	0.018939	0.10232	0.091211	0.041158	0.1932	0.20772	0.22144	0.19319	0.20663	0.13862	0.18756	0.25164	0.068755	-2.8729	-3.0396	-3.4021	-3.0396	-3.5354	-3.5208	-3.1542	-3.6208	-3.3438	-3.1896	-3.5979	-3.0896	-3.05	-3.2729	-3	-3.2396	200.958	-96.474	212.480	131.257	210.322	36.043	84.875	-115.927	105.172	189.571	-129.562	143.440	132.221	-67.367	-45.036	57.429	0.00022592	0.00026834	7.7992e-05	354.08	9.5088e-07	3.2647e-06	393.77	98.831	1.3941e-06	4.7813e-06	141.48	57.127	34.762	10.118	2.5913e-06	19.184	0.0058108	0.01103	0.0029328	397.67	8.9999e-05	0.00011156	442.71	112.42	8.3893e-05	9.5312e-05	160.41	64.903	39.638	11.787	6.8671e-05	21.788	141.592	-18.930	-19.785	-128.761	-96.988	10.208	-129.212	-123.689	69.286	-15.278	-125.559	-121.431	-120.383	-114.167	-40.771	-116.277	-8191	255	
1308.425	1	1	0	0	0.12317	0.24856	0.048224	0.26145	0.17485	0.064765	0.028387	0.14158	0.092175	0.14341	0.27999	0.11596	0.30516	0.10033	0.11539	0.063639	-2.8417	-3.2062	-3.5917	-3.1	-3.3875	-3.4104	-3.2042	-3.4562	-3.3771	-3.0271	-3.4062	-3.05	-3.1625	-3.3812	-3.0833	-3.5542	-135.758	100.654	206.573	199.549	93.752	179.262	-8.211	-134.207	74.544	48.960	73.543	193.197	-80.833	-36.446	-0.846	131.609	0.00024151	0.00034969	2.7424e-05	358.34	1.2706e-06	2.5399e-06	401.03	102.21	2.6558e-06	6.091e-06	147.67	59.982	36.295	10.474	3.4386e-06	19.734	0.0031595	0.005816	0.001584	392.42	4.8479e-05	5.7268e-05	438.65	112.96	4.3779e-05	4.963e-05	162.41	66.188	40.326	11.825	3.7534e-05	22.094	151.857	-50.531	-91.159	-128.613	8.035	140.385	-129.282	-123.942	-106.041	13.139	-125.298	-121.724	-120.206	-114.582	53.626	-116.627	-8191	255	
1308.545	1	1	0	0	0.17789	0.30528	0.22715	0.12242	0.23021	0.17118	0.21826	0.26988	0.25132	0.1711	0.060979	0.28679	0.30516	0.045096	0.27014	0.21943	-2.8812	-2.9437	-3.5021	-3.3583	-3.3167	-3.5312	-2.8042	-3.0979	-3.2104	-3.1583	-3.4917	-3.2125	-3.2479	-3.4667	-2.9958	-3.2375	-129.466	34.171	78.198	134.952	-45.205	57.414	-30.252	82.876	-0.024	76.381	199.557	-106.727	12.114	126.634	-118.930	191.341	0.00023071	0.00026309	6.824e-05	365.44	1.7349e-06	1.0645e-06	407.38	104.83	3.4557e-06	1.8455e-06	146.35	58.614	35.834	9.6752	2.3403e-06	18.136	0.0019148	0.0035989	0.0010187	396.54	3.3403e-05	4.1171e-05	442.85	114.75	3.3944e-05	3.9466e-05	160.18	64.275	39.54	10.879	3.3351e-05	20.162	161.014	-86.199	-74.528	-128.670	8.803	-60.991	-129.435	-124.034	-63.725	-123.068	-125.165	-121.505	-120.591	-114.269	40.819	-116.497	-8191	255	
1308.641	1	1	0	0	0.10819	0.09815	0.19119	0.1034	0.12392	0.26944	0.22305	0.05052	0.058711	0.055561	0.25827	0.044804	0.17283	0.10688	0.15996	0.10145	-2.9167	-3.075	-3.3688	-3.425	-3.2083	-3.5583	-3.3229	-3.3729	-3.4042	-2.9625	-3.2917	-3.3542	-3.1125	-3.4375	-3.1833	-3.3	-36.265	212.702	26.180	176.458	-91.919	-14.795	126.568	7.427	-49.138	-73.095	106.282	-34.267	-2.785	-117.832	48.536	172.531	0.00020707	0.00022316	3.662e-06	368.97	2.183e-06	1.2236e-06	405.56	106.15	2.1959e-06	3.5069e-06	146.72	57.376	35.798	9.2384	2.6184e-06	17.459	0.0016425	0.0031358	0.0008651	398.68	2.7977e-05	3.4069e-05	442.68	116.2	2.912e-05	3.4372e-05	160.71	63.208	39.726	10.35	3.2906e-05	19.496	159.069	-52.259	-18.012	-129.081	-29.630	-3.778	-129.573	-124.405	-46.039	-0.412	-125.176	-122.189	-120.734	-114.760	-33.072	-116.740	-8191	255	
1308.713	1	1	0	0	0.07638	0.12687	0.1504	0.074651	0.043265	0.075563	0.15131	0.2332	0.28926	0.039756	0.15466	0.15362	0.21268	0.20831	0.20684	0.13625	-2.8375	-2.9562	-3.275	-3.1333	-3.0375	-3.4125	-3.1354	-3.0646	-3.5229	-2.8167	-3.2396	-3.2521	-3.1875	-3.4167	-3	-3.1854	17.122	-94.497	196.172	-105.999	-78.542	-73.293	180.244	194.198	-44.214	15.549	161.777	67.711	123.210	-13.527	75.551	34.158	0.00020824	0.0001664	7.9135e-05	379.33	1.8188e-06	2.4915e-06	417.1	111.44	3.226e-06	3.6427e-06	153.33	60.876	38.563	10.042	2.4455e-07	18.872	0.0017531	0.0034803	0.00098755	411.05	3.4506e-05	4.294e-05	455.4	122.24	3.755e-05	4.5477e-05	168.51	67.379	42.757	11.298	4.5506e-05	21.067	170.141	30.191	-48.959	-128.878	68.350	37.855	-129.496	-124.416	-19.331	-28.292	-125.478	-121.888	-120.813	-114.684	-101.451	-116.555	-8191	255	
1308.809	1	1	0	0	0.030161	0.19281	0.23114	0.17984	0.2814	0.1968	0.21453	0.20698	0.31877	0.052494	0.23655	0.10342	0.058775	0.066102	0.013247	0.19685	-3.05	-2.9979	-3.3417	-3.1708	-3.0125	-3.4375	-3.2292	-3.3458	-3.4958	-3.0729	-3.3292	-3.4958	-3.2458	-3.5521	-3.225	-2.9667	-2.984	82.980	169.967	-36.518	208.262	-66.808	154.141	37.473	141.503	104.398	-30.302	74.432	-114.496	172.806	9.720	203.460	0.00020763	0.00029697	5.4025e-05	383.1	1.4915e-06	2.6995e-06	422.78	116.18	1.7168e-06	3.3162e-06	158.26	64.623	41.039	10.839	1.2963e-06	19.797	0.0023384	0.0047072	0.001297	417.22	4.2897e-05	5.1065e-05	460.39	127.41	4.1016e-05	4.8609e-05	173.37	71.182	45.246	12.178	3.8323e-05	22.072	159.677	-46.711	-46.017	-129.051	-32.735	-3.367	-129.676	-124.438	-33.792	4.973	-125.672	-122.240	-121.202	-115.713	-57.236	-117.426	-8191	255	
1308.905	1	1	0	0	0.10045	0.032134	0.14523	0.29656	0.1343	0.036817	0.26984	0.14836	0.14647	0.36368	0.2115	0.31043	0.12594	0.013276	0.081618	0.18072	-2.9	-3.0062	-3.4167	-3.4688	-3.0729	-3.2979	-3.175	-3.1458	-3.5146	-3.1833	-3.2396	-3.2771	-3.1292	-3.2604	-3.3021	-3.1021	-41.439	167.173	38.049	88.772	207.070	96.412	146.827	-89.614	130.614	181.524	115.857	179.803	129.771	47.240	96.057	-0.552	0.00021092	0.00021916	0.00011072	390.43	1.538e-06	2.6113e-06	429.02	119.77	2.2007e-06	3.7967e-06	160.78	67.434	44.531	11.736	2.4875e-06	21.111	0.0017744	0.0033214	0.00087697	425.76	2.7882e-05	3.2137e-05	469.68	130.63	2.6457e-05	3.113e-05	175.04	73.496	48.589	12.972	2.1158e-05	23.25	147.336	-30.077	-34.420	-128.955	-23.834	7.557	-129.947	-124.666	-2.321	17.764	-125.937	-122.777	-121.849	-116.016	-48.344	-117.616	-8191	255	
1309.026	1	1	0	0	0.091205	0.12694	0.078703	0.097753	0.2372	0.205	0.27392	0.086856	0.066533	0.20627	0.21541	0.18803	0.037656	0.20511	0.11732	0.08207	-2.9771	-3.0271	-3.0812	-3.3479	-3.0438	-3.3354	-3.2104	-2.9458	-3.4562	-3.2562	-3.2771	-3.3063	-3.1354	-3.4188	-3.25	-3.0271	121.920	-41.788	9.503	169.233	-52.601	117.581	28.893	-22.715	107.912	-126.099	-124.051	76.026	147.886	-76.288	-81.828	92.416	0.00025416	0.00029349	5.1433e-05	405.23	1.9879e-06	1.1117e-06	442.73	124.04	1.7211e-06	1.616e-06	163.4	67.94	45	11.607	2.4636e-06	20.594	0.001028	0.0018995	0.00050396	439.13	1.6618e-05	1.882e-05	477.64	134.25	1.5119e-05	1.8132e-05	177.15	74.042	49.142	12.731	1.4614e-05	22.578	156.742	-45.420	-69.891	-129.005	-33.897	79.890	-129.837	-124.534	-14.788	-10.048	-125.945	-122.994	-121.825	-116.001	-3.873	-118.240	-8191	255	
1309.120	1	1	0	0	0.31095	0.061366	0.16117	0.33325	0.074367	0.078645	0.068809	0.16962	0.1158	0.23987	0.29295	0.15237	0.16544	0.21104	0.078957	0.18833	-2.8708	-3.1354	-3.0229	-3.3521	-3.0333	-3.4479	-3.4792	-3.2604	-3.4229	-3.2438	-3.2042	-3.4729	-3.175	-3.0667	-3.3479	-3.0292	1.497	76.904	-27.561	161.312	-88.580	101.747	79.784	180.816	87.155	59.723	117.035	-78.263	108.510	28.760	-74.027	-77.776	0.00025237	0.00018147	5.3174e-05	404.52	1.6599e-06	3.103e-07	431.69	121.4	3.2802e-06	2.1322e-06	158.05	63.191	42.013	10.363	2.5803e-06	18.192	0.00079128	0.0014427	0.00039437	435.96	1.3504e-05	1.564e-05	467.63	131.1	1.4971e-05	1.8249e-05	170.38	68.842	45.413	11.361	1.6527e-05	20.076	154.670	-81.728	-23.324	-129.179	2.318	188.951	-129.991	-124.526	-17.357	-23.096	-125.579	-122.725	-121.669	-115.699	-40.961	-117.461	-8191	255	
1309.218	1	1	0	0	0.27411	0.15842	0.091887	0.051662	0.14209	0.06336	0.28941	0.14514	0.081983	0.18741	0.28348	0.20954	0.24447	0.20695	0.06621	0.074257	-2.8958	-3.1729	-3.2375	-3.4667	-2.9437	-3.2979	-3.6271	-3.2083	-3.4271	-3.1354	-3.05	-3.3958	-3.2021	-3.1833	-3.3875	-3.1312	-15.800	149.638	-138.948	-45.025	-49.987	17.403	217.390	-46.117	145.674	-26.725	154.539	-124.101	207.994	146.835	152.645	215.509	0.00022598	0.0001635	7.5618e-05	399	1.6781e-06	5.1351e-07	423.66	117.92	1.3679e-06	2.8708e-06	152.99	58.863	38.783	9.2203	3.9856e-06	16.745	0.00089508	0.0017242	0.00047284	426.82	1.6688e-05	1.8993e-05	456.39	127.12	1.572e-05	1.966e-05	165.22	63.763	42.093	10.112	1.8246e-05	18.331	152.002	-80.472	-77.272	-129.000	-66.232	-30.624	-130.224	-124.469	-73.979	-9.145	-125.941	-122.594	-121.859	-115.814	21.085	-117.351	-8191	255	
1309.314	1	1	0	0	0.12297	0.097201	0.10821	0.089132	0.044728	0.13156	0.072234	0.18794	0.023114	0.19718	0.052204	0.10057	0.030295	0.21863	0.093301	0.052719	-2.7167	-3.225	-2.9938	-3.5479	-3.1958	-3.0438	-3.4354	-3.0667	-3.3917	-3.3021	-2.9167	-3.2917	-3.2625	-3.1042	-3.5125	-3.2083	-82.545	-48.597	17.824	75.496	134.810	-93.613	-15.898	139.404	203.493	5.222	58.464	198.562	-54.998	189.553	-18.963	-44.009	0.00020138	0.00016201	3.2796e-05	397.29	2.511e-06	4.6404e-07	420.6	113.5	1.7831e-06	1.4218e-06	147.25	55.766	35.757	8.5254	2.2584e-06	15.893	0.0010352	0.0021349	0.00061795	425.38	2.3448e-05	2.9217e-05	456.6	123.42	3.0805e-05	4.1775e-05	162.19	61.458	39.677	9.7157	4.4755e-05	17.98	150.009	-48.602	-74.020	-128.642	34.344	188.127	-129.870	-124.295	-14.966	14.818	-125.502	-122.310	-121.285	-115.444	-28.680	-116.746	-8191	255	
1309.409	1	1	0	0	0.29559	0.16507	0.16711	0.16918	0.059231	0.13977	0.11992	0.14696	0.21984	0.12405	0.10653	0.042692	0.24693	0.088802	0.1909	0.068638	-2.9896	-3.3792	-3.0479	-3.1937	-3.1104	-2.9188	-3.6208	-3.2708	-3.2812	-3.5062	-3.2667	-3.5104	-3.1375	-3.3063	-3.3833	-3.2583	172.586	81.543	58.461	210.206	196.876	58.416	-39.969	89.360	-122.260	135.492	162.133	-20.908	90.081	-25.813	-35.975	201.578	0.00016537	0.00033191	5.4057e-05	383.11	3.0031e-06	1.9401e-06	414.83	107.67	2.9993e-06	2.2119e-06	144.58	53.768	34.15	8.2223	1.5851e-06	15.427	0.0022994	0.004744	0.0013414	417.34	4.5841e-05	5.3863e-05	453.04	118.5	4.3796e-05	5.2841e-05	159.98	59.573	38.195	9.446	4.6777e-05	17.605	157.538	-29.968	-135.373	-128.876	-28.182	-30.893	-129.559	-124.430	-102.838	92.953	-125.504	-122.050	-121.482	-115.245	-12.271	-117.024	-8191	255	
1309.505	1	1	0	0	0.22714	0.16166	0.16633	0.14975	0.12096	0.17803	0.081005	0.21471	0.1055	0.13755	0.16905	0.16188	0.15718	0.015924	0.18863	0.16311	-2.7458	-3.425	-2.9646	-3.3875	-3.4542	-3.2687	-3.4396	-3.175	-3.0854	-3.3958	-3.1375	-3.5438	-3.5167	-3.0917	-3.3688	-3.1583	25.232	34.231	116.207	199.283	185.169	203.140	-114.565	-18.350	-104.688	2.049	-55.877	136.361	0.657	31.011	168.396	-24.426	0.00021491	0.00024437	5.2972e-05	375.37	4.7703e-06	2.8614e-06	404.88	103.63	1.9904e-06	5.3681e-06	140.7	52.7	32.982	8.0483	3.1181e-06	15.148	0.0023873	0.0049538	0.0014497	410.77	5.0907e-05	6.1329e-05	443.83	115.15	5.3844e-05	6.5162e-05	156.66	59.091	37.509	9.4527	5.7852e-05	17.534	160.718	-87.257	37.218	-128.921	-12.925	66.479	-129.868	-124.378	-14.803	52.599	-125.545	-121.666	-121.270	-114.910	-32.332	-116.733	-8191	255	
1309.626	1	1	0	0	0.05935	0.19012	0.15149	0.11662	0.095467	0.11922	0.17018	0.27981	0.0077973	0.12668	0.028132	0.088113	0.14047	0.13936	0.093058	0.066014	-2.7188	-3.5854	-3.0104	-3.2479	-3.1896	-3.2208	-3.3937	-3.3271	-3.0542	-3.2833	-3.1917	-3.3729	-3.2208	-3.1125	-3.2062	-3.2667	89.965	-43.198	109.977	62.679	-36.523	128.645	82.157	92.927	25.629	-13.887	-93.415	-19.462	-110.224	-13.491	188.476	-77.724	0.0001851	0.00018149	1.5948e-05	362.59	1.5421e-06	3.1839e-06	395.27	100.51	4.5989e-06	1.4042e-06	136.87	51.371	32.153	7.9569	3.7844e-06	15	0.0029671	0.0061779	0.0017972	403.21	6.1246e-05	7.6755e-05	437.78	113.08	6.8438e-05	8.3165e-05	154.72	58.456	37.035	9.5001	7.2775e-05	17.582	170.717	-96.103	209.045	-129.284	-122.535	47.424	-129.729	-124.215	-13.761	71.972	-125.266	-121.634	-120.645	-114.912	-68.079	-116.504	-8191	255	
1309.722	1	1	0	0	0.17153	0.023629	0.096866	0.1415	0.3774	0.15907	0.15675	0.09857	0.031713	0.07883	0.20324	0.033489	0.13251	0.26909	0.39032	0.077407	-2.7229	-3.5062	-3.1042	-3.0521	-3.3	-3.1437	-3.4604	-3.2333	-3.0458	-3.4146	-3.2667	-3.35	-3.3208	-3.1167	-3.4313	-3.3396	-117.297	99.189	-87.445	119.742	-104.820	187.902	49.141	148.627	-134.936	116.838	177.842	80.539	154.249	-135.417	168.683	-93.731	0.00019667	0.00033095	5.4324e-05	361.58	5.2707e-06	2.4013e-06	393.82	99.714	2.3308e-06	1.5519e-06	136.83	51.315	32.024	7.8045	2.2435e-06	14.727	0.0035928	0.0072103	0.0020406	399.29	6.628e-05	8.0114e-05	434.71	111.73	6.3599e-05	7.3012e-05	154.07	57.626	36.403	9.1614	5.9183e-05	17.008	166.145	-116.165	-124.556	-128.680	-60.907	-69.601	-129.660	-124.123	-14.455	83.674	-125.358	-121.797	-120.783	-114.760	-117.978	-116.370	-8191	255	
1309.818	1	1	0	0	0.26846	0.26117	0.21059	0.16803	0.035338	0.059436	0.014759	0.11754	0.16906	0.18397	0.089197	0.23678	0.22104	0.29818	0.22208	0.14666	-2.5687	-3.1583	-3.1167	-3.2333	-3.5521	-3.1604	-3.15	-3.2521	-2.9521	-3.4938	-3.2687	-3.1958	-3.3063	-2.9979	-3.1979	-3.5208	-90.572	-50.164	132.665	126.607	70.418	129.036	-49.213	201.102	125.467	212.980	210.578	157.329	171.212	-15.031	-43.330	135.273	0.00023474	0.00012017	9.3869e-05	368.83	3.0379e-06	1.8669e-06	402.46	102.35	7.7435e-07	5.6461e-06	139.81	51.023	32.426	7.6036	3.948e-07	14.586	0.0029743	0.0058945	0.0017127	403.22	5.4292e-05	6.5957e-05	440.92	113.6	5.1626e-05	6.0115e-05	155.28	57.163	36.37	8.8683	5.1415e-05	16.597	150.360	-25.383	14.460	-129.048	-115.858	39.455	-129.697	-124.416	-110.676	-28.530	-125.265	-121.894	-120.994	-114.929	188.430	-116.765	-8191	255	
1309.939	1	1	0	0	0.30708	0.19707	0.12729	0.083942	0.2068	0.14021	0.22566	0.27594	0.090987	0.16185	0.26918	0.17749	0.052418	0.23034	0.01791	0.16711	-2.725	-3.3333	-3.4208	-3.2625	-3.575	-3.0187	-3.3333	-3.3396	-2.9917	-3.1854	-3.1354	-2.9854	-3.3146	-2.9083	-3.2354	-3.4292	12.711	105.159	-35.119	179.491	49.752	179.927	142.566	140.122	-126.374	-94.026	68.735	187.516	95.360	-43.055	70.666	161.646	0.0001738	0.0002982	7.8667e-05	373.66	1.2764e-06	2.7333e-06	404.14	104.03	2.219e-06	1.3098e-06	139.95	51.373	32.74	7.6973	1.295e-06	14.482	0.0026254	0.0052106	0.0015083	407.58	4.7591e-05	5.8366e-05	442.34	114.78	4.6999e-05	5.4041e-05	155.52	57.432	36.675	8.8635	4.6606e-05	16.474	150.793	4.334	-64.336	-128.711	-27.607	22.642	-129.642	-124.252	-132.149	23.446	-125.554	-121.716	-120.831	-115.104	-50.301	-117.039	-8191	255	
1310.010	1	1	0	0	0.25927	0.18317	0.27205	0.11559	0.047357	0.022991	0.15874	0.12165	0.18188	0.085382	0.10774	0.17458	0.02979	0.24235	0.22958	0.1005	-2.6125	-3.2979	-3.4188	-3.2	-3.55	-3.3	-3.2667	-3.3583	-2.8792	-3.4208	-3.2812	-2.9083	-3.2167	-3.1271	-2.9896	-3.2896	63.855	36.415	123.807	-100.263	-45.583	96.431	207.186	34.864	78.265	-126.661	-23.927	200.099	1.285	-41.752	81.508	72.794	0.00016975	0.00032129	7.1946e-05	378.43	2.8662e-06	3.4148e-06	409.72	105.55	9.7028e-07	8.0519e-07	143.01	52.838	33.334	7.8011	1.9181e-06	14.987	0.0023986	0.0046152	0.0013856	411.24	4.4488e-05	5.6506e-05	446.55	116.51	4.6434e-05	5.3016e-05	158.15	58.809	37.357	9.042	4.873e-05	16.997	157.675	-105.900	23.176	-129.006	-23.403	74.364	-129.883	-124.298	-14.664	1.856	-125.261	-122.059	-121.633	-114.977	46.081	-116.476	-8191	255	
1310.106	1	1	0	0	0.076458	0.22623	0.041097	0.023593	0.17056	0.25073	0.277	0.089066	0.1417	0.15986	0.13956	0.1445	0.086721	0.38652	0.17345	0.21183	-2.8396	-3.2854	-3.3875	-3.0104	-3.3896	-3.1771	-3.2479	-3.3208	-3.1875	-3.4729	-3.4188	-3.0292	-3.3417	-3.2125	-3.1042	-3.5229	-94.796	-71.574	45.848	-56.429	-33.744	134.437	-134.215	117.180	4.279	-105.396	-90.219	-87.589	-89.424	130.418	207.099	113.770	0.0001883	0.00041665	4.9724e-05	376.51	2.2556e-06	3.2414e-06	410	106.54	8.966e-07	4.7953e-06	144.72	53.564	33.601	7.9576	1.5671e-06	15.259	0.0025584	0.0049877	0.0014782	411.43	4.7379e-05	6.0434e-05	449.23	117.31	4.9558e-05	5.7881e-05	160.02	59.699	37.645	9.2224	4.9129e-05	17.309	155.181	-4.011	-142.227	-129.226	-20.518	25.344	-129.784	-124.604	8.988	39.521	-125.427	-121.822	-121.113	-114.926	-7.318	-116.422	-8191	255	
1310.203	1	1	0	0	0.19923	0.083722	0.06127	0.10628	0.24574	0.21258	0.26619	0.079338	0.23108	0.35659	0.30686	0.049658	0.25674	0.33695	0.19427	0.08171	-2.7458	-3.3187	-3.3187	-3.1	-3.3208	-3.0979	-3.1104	-3.4042	-3.1562	-3.1813	-3.5229	-3.1917	-3.4042	-3.3604	-3.1646	-3.4646	216.805	88.041	-132.709	-17.984	-15.074	17.691	-5.129	157.530	11.630	202.036	170.447	23.132	114.399	43.492	18.692	206.940	0.0002109	9.7042e-05	0.00012329	378.88	1.7569e-06	2.7101e-06	413.41	106.09	1.4001e-06	9.4757e-07	145.77	53.98	33.681	8.0563	1.0557e-06	15.184	0.0024788	0.0047539	0.0013853	412.91	4.4965e-05	5.7803e-05	451.51	117.38	4.8986e-05	5.7329e-05	160.89	59.978	37.698	9.3147	4.7485e-05	17.291	158.484	-116.940	-57.293	-128.850	-51.547	48.818	-129.738	-124.202	89.810	26.437	-125.382	-121.823	-120.710	-115.099	75.046	-116.686	-8191	255	
1310.321	1	1	0	0	0.23773	0.11336	0.12471	0.079669	0.18483	0.1929	0.058973	0.32018	0.32356	0.15499	0.052551	0.056081	0.014897	0.13256	0.26273	0.19004	-2.6937	-2.9708	-3.3271	-3.1437	-3.4083	-3.5312	-3.3312	-3.5375	-3.3146	-3.35	-3.5958	-3.0271	-3.325	-3.2938	-3.1604	-3.5333	29.901	102.147	-103.630	112.903	206.164	-123.728	157.328	210.478	-55.936	55.125	-95.376	-91.279	89.993	77.045	-102.825	22.009	0.00023611	0.00026953	4.0749e-05	372.25	2.2321e-06	2.554e-06	404.5	104.49	2.0495e-06	2.3746e-06	141.9	52.234	33.196	7.918	3.6054e-07	14.887	0.0023946	0.0045606	0.0013046	409.61	4.1571e-05	5.2544e-05	444.61	115.89	4.4415e-05	5.1427e-05	157.47	58.498	37.139	9.0864	4.5195e-05	16.88	148.385	-78.773	-24.517	-129.292	-3.406	44.535	-129.722	-124.321	-11.286	-59.007	-125.616	-121.903	-121.617	-115.161	56.482	-117.100	-8191	255	
1310.418	1	1	0	0	0.23418	0.12364	0.28926	0.075827	0.19004	0.37872	0.11003	0.18201	0.079212	0.088893	0.1025	0.22024	0.37909	0.064445	0.052235	0.15163	-2.7562	-3.1979	-3.3021	-3.3563	-3.1167	-3.2542	-3.0104	-3.5563	-3.3417	-3.2229	-3.4021	-3.15	-3.0875	-3.4333	-2.8979	-3.4292	-91.483	128.669	46.253	-32.684	145.304	91.471	-26.929	215.027	122.735	-53.250	74.702	139.269	-83.984	31.251	158.111	-142.601	0.00023576	0.00026198	6.6186e-05	373.86	7.6461e-07	1.9822e-06	404.7	104.51	1.86e-06	2.8394e-06	139.94	51.502	32.507	7.72	2.0845e-06	14.536	0.0022835	0.0043595	0.0012389	407.09	4.0084e-05	5.1153e-05	441.22	114.67	4.4113e-05	5.1995e-05	154.94	57.285	36.446	8.8671	4.7799e-05	16.559	143.822	-12.458	-25.873	-128.944	13.567	-92.391	-129.609	-124.618	-23.785	-34.206	-125.561	-121.778	-121.013	-114.878	-52.537	-116.984	-8191	255	
1310.514	1	1	0	0	0.11883	0.11978	0.029262	0.107	0.046943	0.070132	0.098112	0.12531	0.10997	0.13078	0.13252	0.04962	0.23694	0.13839	0.092139	0.19238	-2.8458	-3.0875	-3.3333	-3.2458	-3.1917	-3.4021	-2.9083	-3.5417	-3.5458	-3.1083	-3.3146	-3.0771	-3.1229	-3.2938	-3.0458	-3.4583	-109.535	34.270	-56.618	118.988	104.865	201.526	41.264	191.417	-127.242	30.200	-37.431	127.365	56.587	105.812	36.590	181.247	0.00016301	0.00015663	2.0538e-05	374.62	3.3289e-06	3.2675e-06	408.74	104.92	2.6273e-06	2.4325e-06	143.22	52.55	33.373	7.8964	1.78e-06	14.974	0.0024059	0.0046573	0.001312	406.87	4.2643e-05	5.141e-05	444.88	114.76	4.2143e-05	4.9087e-05	157.57	58.253	36.94	8.9776	4.23e-05	16.938	162.381	-64.587	-15.729	-128.998	-76.892	-14.412	-129.709	-124.400	-4.876	-36.582	-125.331	-121.919	-120.896	-115.137	-119.562	-116.032	-8191	255	
1310.585	1	1	0	0	0.25472	0.074664	0.11333	0.058199	0.11325	0.21357	0.31639	0.21337	0.18008	0.10118	0.022556	0.035732	0.081022	0.046038	0.17372	0.17535	-2.9958	-2.9292	-3.3312	-3.3396	-3.0729	-3.3229	-3.1813	-3.4958	-3.4396	-3.1458	-3.4646	-3.1271	-3.2896	-3.6146	-3.0875	-3.2458	53.589	158.085	9.795	188.920	122.032	216.252	45.313	101.363	24.253	182.461	-41.713	-33.511	165.578	171.367	-86.007	62.588	0.00019454	0.00040845	0.00012198	380.55	1.6172e-06	2.1706e-07	415.81	106.73	2.3119e-06	1.4262e-06	146.43	52.789	33.347	7.7984	1.3106e-06	14.945	0.00213	0.0041762	0.0011614	412.36	3.8025e-05	4.7294e-05	452.06	116.76	3.8541e-05	4.4915e-05	159.15	58.457	36.96	8.822	3.8821e-05	16.769	158.368	-49.033	-44.960	-128.892	-47.361	57.287	-129.586	-124.292	-28.807	38.823	-125.543	-121.873	-121.465	-115.009	-47.080	-116.513	-8191	255	
1310.706	1	1	0	0	0.072555	0.045424	0.14597	0.20063	0.041119	0.18096	0.30379	0.032055	0.27492	0.11927	0.13104	0.28683	0.18094	0.20221	0.24543	0.20876	-3.0292	-2.9479	-3.6083	-3.3833	-3.0896	-3.4646	-3.0333	-3.5062	-3.3792	-3.15	-3.3354	-3.2146	-3.1458	-3.5417	-3.2375	-3.275	91.445	-95.108	177.760	182.844	-101.431	-29.754	178.285	57.063	64.500	13.133	-29.229	-135.316	-133.918	-122.488	190.921	132.094	0.00014861	0.00013046	6.3768e-05	381.02	3.9771e-07	3.083e-06	416.62	107.23	4.4088e-06	3.7119e-06	144.91	52.903	33.538	7.7741	6.8459e-07	14.988	0.0020522	0.0041461	0.0011532	414.44	4.0189e-05	4.9423e-05	452.6	117.39	4.1499e-05	4.9469e-05	159.54	58.552	37.141	8.8802	4.5263e-05	16.906	161.583	62.867	-12.923	-128.939	51.847	90.548	-129.591	-124.432	-51.179	39.732	-125.370	-121.827	-121.000	-115.139	42.633	-116.891	-8191	255	
1310.802	1	1	0	0	0.14528	0.044817	0.12881	0.2519	0.062553	0.23409	0.18149	0.13919	0.078157	0.22857	0.096595	0.068878	0.21075	0.16369	0.034313	0.27133	-3.0687	-2.9021	-3.4083	-3.2375	-3.1542	-3.5687	-3.1833	-3.3438	-3.4042	-3.2292	-3.3396	-3.3896	-3.2	-3.4708	-3.1042	-3.2042	-3.924	71.609	86.414	179.528	111.569	12.614	135.469	158.834	-45.371	202.233	197.155	-85.134	-124.715	-100.715	158.243	-105.364	0.00017462	0.0002491	3.772e-05	384.26	2.4948e-06	2.1711e-06	417.97	108.36	2.8604e-06	3.6836e-06	146.6	53.417	33.754	7.7769	6.7315e-06	15.025	0.0022771	0.0045251	0.0012299	415.97	4.1947e-05	4.9932e-05	454.73	118.69	4.3022e-05	5.0683e-05	160.68	59.128	37.615	8.9036	4.6643e-05	16.992	152.305	-100.380	-99.733	-129.246	0.980	16.327	-129.340	-124.364	109.817	29.602	-125.369	-121.687	-121.356	-115.195	-10.370	-116.941	-8191	255	
1310.898	1	1	0	0	0.17968	0.20107	0.037784	0.12945	0.17328	0.17605	0.24238	0.11033	0.1395	0.22123	0.080917	0.17815	0.1896	0.12649	0.14922	0.1099	-2.9833	-2.9604	-3.2458	-3.3625	-2.9292	-3.6104	-3.2896	-3.15	-3.3542	-3.1063	-3.425	-3.3979	-3.0292	-3.3083	-3.2792	-3.0521	32.180	144.773	131.365	-38.232	38.127	170.171	186.799	145.941	-98.297	72.699	145.389	104.857	83.333	100.469	105.613	-35.632	0.00021347	0.0002876	1.9119e-05	386.53	1.1299e-06	4.2318e-06	420.83	112.46	1.0194e-06	3.7399e-06	150.9	56.607	36.506	8.3582	7.7699e-07	15.967	0.0023131	0.0047174	0.0013023	419.62	4.3831e-05	5.1666e-05	458.59	122.92	4.3108e-05	5.0832e-05	166.27	62.562	40.444	9.4594	4.2341e-05	17.932	158.082	-131.635	-23.282	-128.686	8.101	26.477	-129.798	-124.575	198.192	9.830	-125.677	-122.284	-121.395	-115.586	87.696	-117.370	-8191	255	
1311.019	1	1	0	0	0.20931	0.1345	0.10674	0.28666	0.20198	0.17991	0.052556	0.044587	0.11993	0.062149	0.21798	0.14886	0.044259	0.1429	0.27761	0.24694	-2.8979	-3.0729	-3.2042	-3.3375	-2.9875	-3.4583	-3.2104	-3.1229	-3.4188	-3.2521	-3.1375	-3.3438	-3.05	-3.3771	-3.375	-3.0271	-84.363	-100.995	-39.507	-90.031	-32.744	68.374	64.962	143.246	-111.967	175.862	126.648	126.888	115.767	-34.634	216.890	207.893	0.00018845	0.00045165	5.5758e-05	394.13	3.3763e-06	3.935e-06	432.79	117.16	4.1578e-06	2.2909e-06	158.79	61.423	39.707	8.8697	2.3432e-06	16.587	0.0020141	0.0039785	0.0010589	425.88	3.4241e-05	3.9254e-05	465.55	127.57	2.9708e-05	3.4905e-05	172.82	67.023	43.434	9.9344	2.8282e-05	18.348	155.007	-64.066	-96.144	-128.608	38.708	31.265	-129.841	-124.411	-4.224	16.647	-125.705	-122.658	-121.704	-115.917	-22.662	-117.838	-8191	255	
1311.113	1	1	0	0	0.12298	0.043163	0.13812	0.2452	0.1363	0.17398	0.15627	0.027625	0.14226	0.067761	0.15101	0.27102	0.12732	0.17709	0.18936	0.28696	-2.9917	-3.1188	-3.1229	-3.4604	-3.0583	-3.3292	-3.2875	-2.8875	-3.425	-3.0583	-3.2438	-3.6063	-3.1083	-3.3312	-3.5312	-3.075	10.564	93.327	182.858	91.806	23.654	116.269	114.478	-95.999	-20.130	216.097	105.285	5.148	204.509	-130.621	-101.485	-129.936	0.0001906	8.1365e-05	6.9225e-05	400.58	1.6164e-06	1.12e-06	432.49	118.23	8.5244e-07	8.3036e-07	156.43	58.464	37.896	8.3155	1.7872e-06	15.473	0.0013731	0.0027286	0.00072823	428.64	2.4147e-05	2.8637e-05	464.34	127.85	2.3807e-05	2.8917e-05	169.34	63.662	41.46	9.2625	2.6907e-05	17.2	159.189	183.429	-54.447	-128.943	-85.470	58.463	-129.888	-124.477	22.085	62.841	-125.625	-122.786	-122.020	-116.120	24.473	-117.656	-8191	255	
1311.209	1	1	0	0	0.20628	0.032299	0.17333	0.16647	0.012849	0.016228	0.22996	0.10869	0.040312	0.026957	0.071442	0.13172	0.10374	0.19345	0.021087	0.14445	-3.0438	-3.2833	-3.0146	-3.2479	-3.0292	-3.2083	-3.2833	-3.0771	-3.4583	-3.3896	-3.2812	-3.4437	-3.075	-3.2375	-3.3375	-3.1646	195.778	181.272	201.337	212.130	35.386	-140.001	139.781	141.262	-97.622	110.128	-101.466	152.384	133.552	-45.764	47.286	80.059	0.00016595	0.00018819	9.3714e-05	393.85	1.4599e-06	7.2771e-07	420.86	112.27	1.4587e-06	1.3826e-06	147.09	52.321	33.582	7.3149	3.6911e-06	13.989	0.0014403	0.0030888	0.00088317	425.45	3.1964e-05	3.9742e-05	456.77	122.78	3.8265e-05	4.9913e-05	161.49	58.132	37.689	8.5225	5.6914e-05	16.073	152.837	-52.128	-3.084	-128.906	19.015	182.824	-129.827	-124.538	-62.238	-45.371	-125.698	-122.490	-121.331	-115.886	24.115	-117.334	-8191	255	
1311.307	1	1	0	0	0.19839	0.14207	0.22296	0.14102	0.13228	0.089365	0.19708	0.16398	0.10246	0.36603	0.079634	0.12848	0.20418	0.18561	0.11614	0.12535	-3.1771	-3.2188	-3.2021	-3.5062	-3.2396	-3.2292	-3.2104	-2.9979	-3.325	-3.2687	-2.925	-3.2375	-3.1333	-3.2021	-3.5729	-3.1417	-98.935	131.251	-2.092	12.192	-13.809	69.475	56.196	-29.987	20.330	96.365	89.040	-91.753	141.761	-61.416	-36.604	167.218	0.00016951	0.00024481	5.9062e-05	372.38	7.1628e-07	8.9633e-07	399.4	102.46	2.2592e-06	3.8614e-06	135.02	46.498	29.869	6.4743	3.6422e-06	12.559	0.0029622	0.0063105	0.0017993	409.66	6.3472e-05	7.7124e-05	442.26	115.05	6.7589e-05	8.6961e-05	153.05	53.381	34.752	7.9303	8.5553e-05	15.115	158.411	-33.124	-67.395	-128.714	67.381	-120.797	-129.735	-124.390	-7.423	80.800	-125.283	-121.792	-121.227	-115.156	29.236	-117.204	-8191	255	
1311.402	1	1	0	0	0.29525	0.1389	0.086026	0.0794	0.089314	0.21067	0.13798	0.15233	0.25189	0.037922	0.15077	0.015503	0.055142	0.11585	0.064091	0.17878	-2.9833	-3.0062	-2.9938	-3.475	-3.4	-3.2125	-3.5687	-3.0312	-3.2021	-3.4958	-3.2042	-3.375	-3.1542	-2.9813	-3.2146	-3.0479	-120.275	-20.216	194.795	-127.124	192.684	-58.121	-36.228	140.789	117.618	-135.761	-3.839	120.743	84.532	-73.241	138.192	63.073	0.0001489	0.00024603	5.0815e-05	361.35	3.0153e-06	6.2812e-06	388.96	97.216	3.8324e-06	3.1646e-06	128.87	43.565	27.585	5.98	3.6097e-06	11.917	0.0044116	0.0096424	0.0027912	406	9.8907e-05	0.00012264	439.51	111.85	0.00010567	0.00013323	150.86	52.014	33.745	7.9821	0.00012854	15.132	131.570	204.605	-128.479	-128.940	27.678	-85.008	-129.335	-124.566	-12.885	-23.516	-125.481	-121.962	-120.769	-114.786	-20.274	-116.557	-8191	255	
1311.498	1	1	0	0	0.086358	0.15068	0.067761	0.087161	0.11219	0.16745	0.17161	0.10425	0.12004	0.2225	0.30937	0.16301	0.26275	0.17681	0.061724	0.30107	-2.7917	-3.4375	-2.875	-3.4042	-3.0958	-3	-3.4417	-3.4146	-3.2667	-3.4437	-3.1021	-3.2875	-3.2729	-3.0375	-3.4271	-3.1625	18.599	65.982	210.701	-48.264	73.866	196.487	-71.104	-24.608	93.025	45.918	-133.244	105.832	-135.897	216.223	58.998	194.333	0.00019644	0.00024045	8.1674e-05	348.15	2.159e-06	2.9372e-06	375.73	90.053	4.3162e-06	3.7182e-06	122.37	41.101	25.456	5.604	2.4908e-06	10.964	0.0064308	0.013895	0.0040673	400.44	0.00014294	0.00017987	433.99	109.27	0.00016302	0.00020697	151.8	52.009	33.86	8.5052	0.00021491	15.846	130.005	-58.029	-110.070	-128.862	4.039	46.688	-129.674	-124.314	-63.820	-127.502	-125.153	-121.888	-120.812	-114.746	16.806	-116.287	-8191	255	
1311.619	1	1	0	0	0.12364	0.26184	0.20578	0.22293	0.13897	0.099574	0.14325	0.17745	0.15174	0.34151	0.016964	0.16701	0.13502	0.21832	0.12725	0.1479	-2.8187	-3.5375	-3.1771	-3.5208	-3.3458	-3.0104	-3.2917	-3.0583	-3.025	-3.3187	-3.1375	-3.4771	-3.3667	-3.2396	-3.3708	-3.1417	-54.811	35.571	135.133	133.628	-101.216	97.010	64.878	-126.545	-80.190	-12.729	195.527	146.153	165.112	42.712	146.707	181.030	5.5005e-05	0.00074462	0.00018754	324.33	4.2984e-06	3.4215e-06	350.8	81.37	1.2561e-05	4.7948e-06	114.44	36.855	22.903	5.1679	5.4164e-06	10.059	0.011899	0.026332	0.007916	408.42	0.00028572	0.00036414	445.21	113.57	0.00033577	0.00041994	164.72	56.065	37.607	10.322	0.00038753	17.756	197.168	-19.596	-3.600	-128.817	172.934	79.193	-129.621	-124.182	-65.032	-39.805	-125.148	-121.729	-120.414	-114.634	-50.386	-116.251	-8191	255	
1311.715	1	1	0	0	0.081522	0.13095	0.068116	0.11567	0.069469	0.078397	0.016599	0.19609	0.15257	0.085341	0.32841	0.10973	0.16193	0.067944	0.1512	0.11499	-2.6875	-3.3917	-2.9854	-3.4042	-3.4062	-3.1625	-3.3708	-3.2938	-3.1854	-3.4146	-3.2313	-3.3271	-3.3479	-3.0542	-3.3417	-3.2646	-65.614	-23.099	19.699	-31.404	175.459	83.738	-19.348	112.441	72.350	18.215	155.304	141.987	-135.082	14.727	147.871	100.368	0.00025404	0.00086529	0.00011756	315.32	2.4342e-06	5.0347e-06	345.57	79.989	8.4303e-06	5.3926e-06	115.26	35.415	22.288	5.0771	6.8502e-06	9.9379	0.018784	0.03899	0.011073	418.56	0.00035079	0.00042246	447.53	112.88	0.00034513	0.00041961	165.14	54.167	36.359	10.035	0.0003661	17.048	170.767	104.729	212.956	-128.858	-109.920	26.235	-129.560	-123.732	-114.331	53.081	-124.914	-121.423	-121.150	-115.238	-65.761	-116.238	-8191	255	
1311.811	1	1	0	0	0.18288	0.24234	0.065682	0.18314	0.3033	0.088185	0.23767	0.16938	0.096403	0.0074261	0.089751	0.031194	0.065798	0.29648	0.077533	0.13185	-2.9333	-3.25	-2.9417	-3.2167	-3.3979	-3.0708	-3.5875	-3.3042	-3.1417	-3.5687	-3.2833	-3.2438	-3.2979	-2.9771	-3.3771	-3.1188	-140.014	-45.093	101.237	133.691	27.485	-79.171	200.063	175.946	-10.515	-56.884	85.997	-10.621	53.049	31.095	3.057	-57.497	0.0001802	0.00047673	0.00022594	328.09	1.6737e-06	3.4465e-06	359.54	83.693	4.513e-06	1.3686e-05	119.67	35.504	22.513	4.9875	2.1362e-06	9.4081	0.016898	0.033885	0.0095419	418.34	0.00029803	0.00035697	451.96	111.85	0.00027694	0.00032354	159.16	49.699	33.189	8.7276	0.0002656	14.818	113.364	128.299	-56.975	-128.974	206.965	65.977	-129.483	-124.245	75.802	34.386	-125.422	-121.485	-120.985	-115.625	56.128	-116.295	-8191	255	
1311.883	1	1	0	0	0.17636	0.15624	0.12867	0.14278	0.12093	0.19889	0.1369	0.11289	0.12226	0.2307	0.17395	0.23105	0.18978	0.13291	0.1013	0.17591	-2.7562	-3.4	-3.0729	-3.2083	-3.4188	-3.1562	-3.2188	-3.1979	-3.1833	-3.3896	-3.4292	-3.3604	-3.3125	-3.1562	-3.1375	-3.4313	-129.841	190.183	21.913	153.521	118.563	19.035	176.765	-5.138	-91.172	-97.440	127.624	66.416	197.422	118.388	-136.865	-61.603	2.5074e-05	0.00062907	0.00011701	338.31	2.602e-06	3.9842e-06	368.6	88.859	5.5819e-06	2.0099e-06	122.04	35.277	23.25	5.1168	2.1513e-06	9.374	0.012617	0.025473	0.0072395	412.47	0.00022443	0.00027116	443.93	111.51	0.00020628	0.00023716	152.76	46.069	31.185	7.6405	0.00016758	13.026	-94.988	64.420	-109.717	-128.617	6.383	193.182	-129.538	-124.315	1.879	-56.637	-125.604	-122.264	-121.522	-115.301	203.100	-116.917	-8191	255	
1312.003	1	1	0	0	0.0006266	0.11167	0.21893	0.043131	0.015091	0.16506	0.21503	0.19558	0.15638	0.054504	0.12292	0.12477	0.14173	0.052979	0.098609	0.10322	-2.6688	-3.3604	-3.1229	-3.2479	-3.6896	-3.3063	-3.3479	-3.5229	-3.0958	-3.3292	-3.2646	-3.1562	-3.5583	-3.3604	-3.3688	-3.3708	180.000	188.415	182.691	92.460	-73.939	62.798	104.097	-30.741	40.466	-33.812	63.503	157.989	120.207	12.081	-96.774	143.312	0.00016932	6.563e-05	0.00010124	348.29	2.6736e-06	1.2308e-06	384.05	94.824	4.4138e-06	2.8518e-07	128.36	36.254	25.501	5.1495	3.8434e-06	9.4147	0.0075092	0.014465	0.0040035	398.33	0.00011819	0.00014263	436.38	110.03	0.00010803	0.00012353	149.09	43.521	30.738	6.9142	0.00010917	12.029	135.354	61.373	95.459	-128.780	171.302	-51.836	-129.576	-124.258	84.645	132.502	-125.855	-122.777	-121.937	-116.442	76.670	-117.983	-8191	255	
1312.098	1	1	0	0	0.11413	0.067395	0.16935	0.47876	0.099314	0.15197	0.032051	0.019264	0.23908	0.13545	0.047585	0.11646	0.11875	0.23212	0.076025	0.027794	-2.6333	-3.2604	-3.2958	-3.2854	-3.3958	-3.0083	-3.1979	-3.5687	-3.2271	-3.4062	-3.3563	-3.0563	-3.3063	-3.1583	-3.1146	-3.5375	189.612	-102.970	88.699	209.571	78.945	-118.685	71.844	51.365	-47.285	-11.942	212.123	-132.137	107.144	74.379	104.819	-66.656	0.00011044	0.00014712	5.9236e-05	403.1	5.5367e-06	5.4173e-06	462.35	107.32	1.1312e-06	1.2861e-06	138.04	39.641	28.106	5.5854	2.8532e-06	9.6351	0.0053846	0.010951	0.0032083	454.05	0.00010162	0.00012619	515.65	122.06	0.00010077	0.00011538	158.94	46.756	33.209	7.2901	0.000105	12.207	192.293	201.661	118.735	-128.888	35.110	28.168	-129.866	-124.973	45.661	143.269	-126.378	-123.663	-122.040	-117.245	-63.867	-118.762	-8191	255	
1312.194	1	1	0	0	0.10034	0.32587	0.1372	0.063348	0.11049	0.069085	0.042432	0.22595	0.19894	0.30848	0.20964	0.052602	0.049912	0.13149	0.13679	0.15035	-2.7875	-3.2542	-3.2292	-2.9333	-3.3521	-3.2792	-3.3354	-3.6375	-3.2625	-3.3104	-3.4375	-3.2396	-3.7354	-3.3292	-3.0667	-3.5292	-11.014	-91.628	23.875	47.728	-33.331	188.214	31.937	132.549	106.467	-83.720	205.246	-15.822	63.672	143.442	144.714	102.500	0.00012401	0.00010417	2.0643e-05	443.27	2.2571e-06	2.7414e-06	498.65	115.59	2.2927e-06	1.6131e-06	146.69	42.166	29.734	5.8949	1.5475e-06	9.7795	0.0053266	0.010902	0.0032855	497.42	0.00010915	0.00014198	562.72	133.55	0.00012387	0.00014613	171.43	50.746	36.047	7.9087	0.00013022	12.776	133.322	-65.062	98.749	-129.112	18.263	102.580	-129.989	-125.112	-123.905	40.199	-126.386	-123.761	-122.326	-117.694	145.554	-118.763	-8191	255	
1312.290	1	1	0	0	0.092828	0.069857	0.10013	0.16396	0.2571	0.18989	0.18386	0.18412	0.12216	0.062005	0.13468	0.15268	0.16669	0.15763	0.16596	0.1377	-2.8	-3.5146	-3.4062	-3.1667	-3.4729	-3.375	-3.0812	-3.4396	-3.2375	-3.1708	-3.5208	-3.1708	-3.3229	-3.3125	-3.2104	-3.3271	125.999	126.435	-105.555	-14.027	108.419	-86.469	201.351	102.935	81.657	179.706	93.236	147.975	-93.943	109.420	-15.641	61.602	0.00022271	0.00048999	6.4379e-05	451.01	3.5885e-06	2.7788e-06	503.98	118.19	1.0918e-06	4.3498e-06	146.44	41.397	29.553	5.8802	1.8209e-06	9.4531	0.0062912	0.012364	0.003498	503.28	0.00010183	0.00012315	556.39	133.17	9.1869e-05	0.00010608	165.77	48.234	34.439	7.3718	8.656e-05	11.655	158.341	-106.094	9.372	-128.786	-128.089	133.421	-129.824	-125.214	-38.483	28.480	-126.615	-123.889	-122.080	-117.786	1.031	-119.209	-8191	255	
1312.410	1	1	0	0	0.16232	0.11348	0.28912	0.17657	0.17889	0.1691	0.26669	0.10216	0.18314	0.10502	0.15729	0.26066	0.07887	0.24876	0.10643	0.15895	-2.3667	-3.0438	-3.3396	-2.9833	-3.2458	-3.2896	-3.2021	-3.3771	-3.3271	-3.3021	-3.4521	-3.1562	-3.3521	-3.3146	-3.0563	-3.3333	-125.017	185.154	-37.125	203.771	-70.583	211.913	170.987	-113.551	18.322	-131.226	156.302	-64.979	60.990	84.865	75.459	75.428	0.0001336	0.00038792	0.00012159	449.6	2.011e-06	4.6656e-07	495.56	110.76	3.4901e-06	3.3983e-06	134.72	40.55	29.389	5.8011	1.8659e-06	8.9782	0.0042778	0.0084639	0.0023844	496.23	7.3837e-05	9.2063e-05	552.88	124.93	7.2249e-05	8.2103e-05	154.01	47.245	34.064	7.1745	7.0071e-05	10.979	158.728	-38.808	-13.927	-128.579	-6.207	160.037	-130.239	-125.378	-65.694	13.953	-127.022	-123.900	-122.687	-118.294	216.082	-119.865	-8191	255	
1312.482	1	1	0	0	0.19253	0.10999	0.12362	0.10573	0.17178	0.049354	0.25475	0.073449	0.28137	0.17442	0.063381	0.37076	0.14223	0.1306	0.12925	0.17826	-2.6146	-2.9938	-3.1188	-2.9833	-3.475	-3.5875	-3.1813	-3.4396	-3.3583	-2.9917	-3.4083	-3.1354	-3.3	-3.3104	-2.9958	-3.2292	64.119	-56.681	160.796	186.390	133.428	-35.061	211.727	94.544	118.976	86.756	-33.449	93.888	148.445	41.540	164.716	20.374	0.00011044	0.00028964	3.3375e-05	448.03	2.8703e-06	2.9512e-06	526.55	106.86	2.8149e-06	5.1838e-06	136.17	42.738	30.697	5.9504	3.955e-06	9.2154	0.0033544	0.0065807	0.0018596	493.55	5.8142e-05	7.3105e-05	578.12	118.65	6.0655e-05	7.0455e-05	151.68	48.222	34.86	7.1525	5.8464e-05	10.988	134.616	-131.303	88.963	-128.861	-28.259	-3.560	-130.169	-124.776	-127.971	27.783	-126.848	-124.003	-122.497	-117.782	-29.502	-119.763	-8191	255	
1312.578	1	1	0	0	0.11916	0.22669	0.20203	0.32926	0.079776	0.15082	0.28813	0.16552	0.24238	0.018947	0.20154	0.42478	0.21276	0.19031	0.0057306	0.35134	-2.6917	-3.1125	-3.2104	-3.075	-3.0333	-3.3771	-2.9646	-3.1396	-3.2375	-3.2438	-3.6646	-3.3083	-3.2333	-3.6708	-3.1854	-3.4458	192.427	161.066	148.302	-88.784	148.848	-85.678	148.304	120.630	29.360	181.403	208.916	201.713	171.663	-70.595	155.870	-12.360	7.9018e-05	0.00010116	1.8908e-05	462.17	4.873e-07	2.2352e-06	553.05	105.54	1.8036e-06	2.122e-06	135.73	43.046	31.074	5.9538	2.7755e-06	9.2252	0.0028811	0.0056686	0.0015547	504.28	5.1242e-05	6.2068e-05	601.81	116.67	4.959e-05	5.7887e-05	150.28	48.206	34.635	6.9172	4.5698e-05	10.667	160.885	-71.818	-100.720	-128.770	-113.549	-5.478	-130.321	-125.138	-45.526	-34.910	-126.767	-124.413	-122.778	-117.579	-23.369	-120.243	-8191	255	
1312.699	1	1	0	0	0.35566	0.050304	0.077781	0.25294	0.2068	0.070005	0.18274	0.24771	0.057869	0.14568	0.12198	0.14455	0.12397	0.15965	0.14302	0.10138	-3.1542	-3.2125	-3.5583	-3.4417	-3.3521	-3.5542	-3.0896	-3.3729	-3.4229	-3.3063	-3.6458	-3.4375	-3.3458	-3.6813	-3.3854	-3.5563	64.845	20.060	169.502	142.913	-78.159	82.834	135.581	212.375	107.832	-123.207	127.677	-95.318	-116.826	-6.917	24.148	144.441	9.9194e-05	0.00024297	6.3295e-05	461.32	2.0503e-06	2.0305e-06	564.92	105.58	1.4311e-06	8.2573e-07	135.67	42.73	30.796	5.8345	1.8309e-06	9.2771	0.0021868	0.0042265	0.0011542	498.59	3.9224e-05	4.8007e-05	609.13	115.34	4.0766e-05	4.7731e-05	148.45	47.53	34.13	6.7381	4.1918e-05	10.592	162.525	108.300	87.258	-128.669	191.105	130.519	-130.139	-124.995	168.469	59.674	-126.832	-123.853	-122.647	-118.022	-6.923	-119.419	-8191	255	
1312.795	1	1	0	0	0.26391	0.17606	0.1071	0.22759	0.095705	0.20961	0.1636	0.1292	0.12146	0.12975	0.1842	0.15687	0.13658	0.099974	0.1583	0.087091	-3.0062	-3.1625	-3.3771	-3.2708	-3.2667	-3.4	-3.2167	-3.2125	-3.2167	-2.925	-3.2396	-3.1958	-2.975	-3.3708	-3.2208	-3.3312	186.277	58.672	-140.195	114.471	202.114	14.534	118.721	215.909	207.563	164.664	156.114	131.146	119.890	18.018	140.539	-2.440	0.00010884	0.00012185	2.4948e-05	462.56	1.8531e-06	1.6363e-06	571.47	105.88	3.1279e-06	2.4484e-06	136.12	42.809	30.84	5.8429	8.2417e-07	9.3126	0.0020533	0.0040343	0.0010925	497.02	3.5552e-05	4.2971e-05	617.41	115.18	3.6539e-05	4.2556e-05	148.51	47.259	34.018	6.7066	3.8608e-05	10.582	168.286	-69.509	-48.724	-128.711	-90.644	-44.164	-130.164	-124.922	-30.860	-35.799	-126.742	-124.023	-122.498	-117.514	-30.923	-119.459	-8191	255	
1312.891	1	1	0	0	0.22983	0.12608	0.24219	0.12454	0.18946	0.13165	0.12652	0.065681	0.10465	0.14409	0.13319	0.12393	0.085499	0.25652	0.3127	0.30686	-3.0563	-3.1771	-3.5042	-3.3937	-3.1021	-3.5104	-3.3812	-3.2687	-3.5271	-3.1271	-3.2979	-3.2896	-3.0021	-3.45	-3.2438	-3.1688	-103.537	150.526	-116.488	210.038	44.523	183.625	49.346	-142.495	15.576	112.964	46.183	68.378	180.265	128.136	18.888	-55.258	9.6569e-05	0.00010171	4.7085e-05	460.25	2.4134e-06	2.7449e-06	577.41	105.43	1.9758e-06	2.0899e-06	136.56	43.077	30.936	5.8925	6.1327e-07	9.3518	0.0018745	0.0037544	0.0010123	496.74	3.3008e-05	3.867e-05	622.31	114.62	3.3641e-05	3.9368e-05	149	47.645	34.128	6.6405	3.4622e-05	10.612	163.242	-68.076	-89.816	-128.722	-6.229	-4.409	-130.050	-124.604	2.229	-23.275	-126.818	-123.547	-122.710	-117.875	-118.620	-119.243	-8191	255	
1312.987	1	1	0	0	0.07519	0.076321	0.060063	0.11497	0.066044	0.16863	0.11291	0.11095	0.121	0.2586	0.13879	0.11942	0.045975	0.1989	0.2696	0.074427	-3.0583	-3.2125	-3.1688	-3.375	-2.9646	-3.2875	-3.1104	-3.1188	-3.3979	-3.0542	-3.2625	-3.2646	-2.9	-3.1792	-3.2021	-3.1	-111.020	-71.483	38.111	84.393	212.255	207.035	196.545	-46.884	120.078	74.985	-138.347	-85.047	138.458	-41.477	-11.176	88.887	0.00011622	0.00019482	5.5878e-05	457.85	1.7763e-06	1.21e-06	582.28	106.27	1.632e-06	9.5831e-07	136.52	43.955	31.73	5.8536	1.9301e-06	9.4085	0.0016555	0.0033834	0.00091719	491.89	3.0549e-05	3.555e-05	623.54	115.45	3.1155e-05	3.861e-05	148.88	48.294	34.999	6.6756	3.5086e-05	10.636	142.932	-6.133	-20.493	-128.507	69.364	22.820	-130.216	-125.075	-64.264	152.824	-126.622	-124.124	-122.911	-117.695	148.748	-119.845	-8191	255	
1313.108	1	1	0	0	0.12939	0.16518	0.08012	0.073835	0.075201	0.13253	0.22041	0.13377	0.031414	0.21281	0.10758	0.20175	0.026266	0.15517	0.18372	0.21732	-3.0792	-3.0667	-3.3667	-3.5583	-3.2	-3.45	-3.2562	-3.0604	-3.4813	-3	-2.9875	-3.3354	-3.0271	-3.2271	-3.0875	-3.0646	183.092	123.555	129.942	51.773	126.914	50.696	163.417	133.048	178.901	84.264	189.088	-102.345	-125.919	169.793	144.580	135.423	0.00011323	0.00034132	7.3928e-05	450.53	2.6595e-06	2.2178e-06	566.23	106.29	1.5002e-06	1.3099e-06	134.52	43.313	31.227	5.8307	1.0043e-06	9.3608	0.0016589	0.003372	0.00091891	482.53	2.9321e-05	3.4114e-05	610.15	114.5	2.7431e-05	3.4453e-05	145.45	47.386	34.265	6.556	3.1823e-05	10.513	165.938	-67.392	-3.881	-128.661	-32.520	2.245	-129.888	-125.012	33.372	93.612	-126.594	-124.266	-122.552	-117.654	40.687	-119.600	-8191	255	
1313.180	1	1	0	0	0.060121	0.10793	0.19226	0.089866	0.074556	0.21994	0.081521	0.09763	0.098634	0.15486	0.28581	0.2092	0.16696	0.38228	0.094841	0.13592	-3.0312	-3.2062	-3.1354	-3.4437	-2.925	-3.4562	-3.4417	-3.1833	-3.4354	-3.4062	-3.2104	-3.4146	-3.0542	-3.0958	-3.2729	-3.1417	156.886	124.030	157.027	58.206	0.053	-3.037	-39.295	-18.171	60.406	-78.822	48.782	182.173	196.324	141.319	175.972	139.978	0.00010868	0.00033262	1.4118e-05	440.61	1.5286e-06	2.8896e-06	561.08	110.54	3.2582e-06	2.4356e-06	139.6	46.388	33.533	6.0651	3.2268e-06	9.8625	0.0015651	0.0033292	0.00090125	474.25	3.0566e-05	3.587e-05	602.24	119.96	2.9765e-05	3.5794e-05	151.6	50.632	36.72	6.8201	3.1188e-05	11.056	164.339	-101.511	183.525	-128.674	-39.421	87.384	-130.191	-125.340	-79.339	208.604	-127.033	-124.372	-122.738	-117.988	24.122	-120.162	-8191	255	
1313.299	1	1	0	0	0.25726	0.21794	0.1081	0.084916	0.075648	0.19535	0.0014471	0.044768	0.064532	0.19588	0.22629	0.10951	0.07731	0.15463	0.051034	0.033764	-3.0271	-3.4229	-3.0042	-3.5563	-3.2167	-3.425	-3.6708	-3.3187	-3.3375	-3.4562	-3.2958	-3.5	-3.2458	-3.3854	-3.5938	-3.2	-94.686	-15.149	-82.238	163.449	163.535	-87.740	180.000	-73.394	-117.384	-101.127	150.186	213.494	-28.199	175.222	-66.499	-32.752	0.00012753	0.000155	3.7685e-05	443.76	2.713e-06	1.0259e-06	555.86	123.33	2.3235e-06	2.1107e-06	165.7	48.234	35.87	6.6862	1.9434e-06	10.56	0.001496	0.0032033	0.0008936	476.92	3.0886e-05	3.5527e-05	596.32	132.87	3.0099e-05	3.708e-05	179.54	52.55	39.217	7.4704	3.1775e-05	11.859	181.663	-21.828	-61.420	-128.726	-14.689	-125.457	-130.370	-125.696	212.570	36.028	-127.864	-125.239	-123.375	-118.969	-29.389	-120.920	-8191	255	
1313.395	1	1	0	0	0.11926	0.059476	0.15418	0.161	0.1328	0.092823	0.077304	0.20231	0.27687	0.13908	0.10865	0.1095	0.12106	0.14211	0.24375	0.1632	-3.0333	-3.2896	-3.1771	-3.6271	-3.3083	-3.3021	-3.3917	-2.9437	-3.1854	-3.0521	-2.9896	-3.3229	-3.1271	-3.1917	-3.2625	-3.1708	36.497	171.270	-84.994	194.745	-66.727	50.735	176.218	-127.087	184.029	41.362	93.971	209.962	38.423	-134.315	-13.501	129.270	0.0001124	7.7136e-05	5.3386e-05	485.88	2.4968e-06	1.2774e-06	550.47	124.37	2.8645e-07	1.0044e-06	165.81	44.954	33.398	6.6628	3.7638e-06	10.352	0.0015132	0.003121	0.00085829	520.41	2.8753e-05	3.3009e-05	590.17	134.3	2.5613e-05	3.0858e-05	178.78	48.979	36.255	7.3906	2.1636e-05	11.478	158.458	-20.366	-32.187	-129.451	-1.703	-35.159	-130.546	-126.119	208.425	89.381	-128.020	-125.581	-123.731	-119.700	-6.906	-121.445	-8191	255	
1313.491	1	1	0	0	0.25634	0.19433	0.19552	0.10663	0.27015	0.15958	0.10822	0.10721	0.16039	0.11442	0.1059	0.020031	0.25327	0.19126	0.17053	0.29122	-3.025	-3.3063	-3.0292	-3.575	-3.0604	-3.0833	-3.5125	-3.0729	-3.4229	-3.3833	-3.1854	-3.3229	-3.1146	-2.9188	-3.2438	-3.0062	-115.515	77.823	-108.319	160.595	-91.614	-55.153	152.322	169.128	79.107	146.724	88.015	-141.917	133.120	114.472	187.541	65.490	0.00012929	0.00013904	6.0568e-05	460.74	2.4763e-06	3.7284e-07	521.87	120.22	2.0866e-06	2.2769e-06	148.39	44.474	33.62	6.6877	1.7414e-06	10.508	0.00099778	0.0019367	0.0005069	490.39	1.6535e-05	1.8475e-05	558.33	128.2	1.4368e-05	1.6655e-05	159.09	47.816	36.206	7.3181	1.378e-05	11.43	160.731	-39.717	-19.376	-129.969	-58.453	44.667	-130.820	-126.584	-59.080	-18.558	-128.311	-125.738	-124.450	-119.664	-25.758	-121.472	-8191	255	
1313.587	1	1	0	0	0.1149	0.24917	0.09783	0.28831	0.22308	0.14379	0.15799	0.14116	0.18818	0.088794	0.10882	0.31317	0.20393	0.22326	0.084262	0.18299	-2.7396	-3.2708	-3.0083	-3.3812	-3.2375	-3.0938	-3.6125	-3.1104	-3.2854	-3.4542	-3.0479	-3.0271	-3.35	-2.9938	-3.4521	-3.1729	207.487	-37.029	-29.136	171.660	28.071	-77.326	198.250	-62.920	101.065	-68.111	-35.150	-80.244	-113.788	117.457	55.852	-75.317	0.0001133	0.00016112	4.7379e-05	460.83	5.3319e-07	7.7797e-07	530.97	113.05	2.3165e-06	2.8867e-06	142.25	43.116	33.101	6.6564	2.4727e-06	10.16	0.00072564	0.0014192	0.00039145	491.26	1.3236e-05	1.5122e-05	566.02	120.81	1.2484e-05	1.4907e-05	152.21	46.28	35.592	7.271	1.2605e-05	11.117	163.947	3.268	-84.175	-129.807	-43.863	2.810	-131.005	-126.683	-56.806	0.595	-128.626	-126.087	-124.638	-119.420	-20.121	-121.479	-8191	255	
1313.683	1	1	0	0	0.11777	0.050143	0.2514	0.14145	0.27858	0.14479	0.28099	0.1103	0.24034	0.31384	0.41891	0.10693	0.1322	0.15429	0.11826	0.26435	-2.6437	-3.3333	-2.925	-3.2021	-3.1604	-3.1312	-3.3229	-3.2938	-3.0625	-3.4562	-3.1896	-3.2458	-3.4625	-3.0417	-3.4125	-3.0646	39.839	113.155	111.044	187.496	-71.861	62.323	147.691	117.607	103.196	-139.385	104.397	-127.041	55.567	119.667	-81.791	43.324	0.00014284	0.00023871	4.181e-05	452.92	1.681e-06	1.2677e-06	528.47	107.26	2.089e-06	1.4412e-06	135.01	39.5	30.43	6.195	1.1056e-06	9.4949	0.00070589	0.0013663	0.00039487	481.02	1.3946e-05	1.655e-05	564.49	115.11	1.4666e-05	1.7056e-05	145.57	42.777	32.908	6.7365	1.4823e-05	10.365	154.415	-64.329	-31.425	-130.299	32.669	-75.027	-131.367	-126.883	-39.893	24.235	-128.318	-126.110	-124.388	-119.708	-49.418	-121.092	-8191	255	
1313.779	1	1	0	0	0.318	0.19237	0.065464	0.066025	0.23257	0.18045	0.33513	0.079832	0.25026	0.38768	0.070153	0.11417	0.096389	0.0031377	0.19671	0.27555	-2.6458	-3.3688	-3.1208	-3.5292	-3.4875	-3.2625	-3.4958	-3.4042	-3.2521	-3.5979	-3.1083	-3.1521	-3.5125	-2.925	-3.3333	-3.2896	17.667	-90.395	105.880	-137.841	182.604	-31.685	-76.289	-72.491	-67.373	45.029	79.338	110.532	-84.782	204.843	3.764	29.080	0.00010296	0.00035625	1.4088e-05	446.5	1.3296e-06	2.1289e-06	523.26	104.64	1.7888e-06	1.7613e-06	130.1	36.671	28.731	5.6131	1.7111e-06	8.6838	0.00079147	0.0014679	0.00042506	475.16	1.3962e-05	1.6353e-05	558.06	111.75	1.2957e-05	1.4992e-05	139.39	39.627	30.808	6.0981	1.2495e-05	9.4584	148.654	-60.614	27.215	-130.035	-55.721	-119.727	-131.171	-126.763	-71.808	-2.088	-128.458	-125.991	-124.384	-119.216	-57.882	-121.113	-8191	255	
1313.875	1	1	0	0	0.153	0.061237	0.22635	0.069688	0.19892	0.20226	0.10603	0.0199	0.065856	0.13366	0.12908	0.23476	0.31371	0.1036	0.10024	0.12089	-2.7313	-3.4021	-3.0833	-3.0854	-3.3125	-3.2146	-3.3396	-3.4729	-3.0229	-3.4167	-3.0417	-2.9875	-3.3667	-2.95	-3.275	-3.2604	158.511	-128.312	106.510	-129.538	-75.451	-111.085	100.624	29.535	-50.515	-19.318	-86.688	197.028	78.719	-118.284	70.840	20.128	0.00011603	0.00016744	3.792e-05	438.99	5.626e-07	1.5023e-06	516.02	104.21	2.3583e-06	2.0841e-06	129.16	35.974	27.89	5.3591	9.8462e-07	8.5829	0.00067522	0.0012048	0.00036472	466.73	1.1798e-05	1.4506e-05	551.3	111.02	1.2232e-05	1.3634e-05	137.91	38.46	30.132	5.9349	1.3692e-05	9.4437	162.700	17.784	-72.285	-130.210	-56.797	71.086	-131.312	-126.696	-66.166	56.868	-128.399	-126.004	-124.259	-119.223	-40.507	-120.205	-8191	255	
1313.972	1	1	0	0	0.078642	0.13939	0.092194	0.057518	0.18953	0.12124	0.19749	0.23392	0.0658	0.03744	0.14959	0.19983	0.19796	0.21248	0.045982	0.19086	-2.6063	-3.2896	-3.1083	-3.2062	-3.3583	-2.9458	-3.2333	-3.3438	-2.9833	-3.4542	-3.35	-3.1604	-3.5792	-3.2833	-3.3604	-3.4521	63.869	-83.872	-27.786	-78.126	87.771	-0.413	-103.745	164.640	-123.856	-31.988	-77.351	141.974	-136.748	-10.295	53.298	170.315	0.00011312	6.7628e-05	2.7621e-05	432.8	1.4038e-06	8.1808e-07	502.48	106.26	1.1635e-06	4.7957e-06	126.35	33.841	24.648	4.4691	2.1948e-06	7.5483	0.00080334	0.0015838	0.00050705	461.96	1.8208e-05	2.3948e-05	536.9	114.22	2.5258e-05	3.0894e-05	137.78	37.444	27.372	5.3261	4.9034e-05	9.0902	163.945	-10.861	-62.127	-129.934	-47.926	98.302	-130.662	-126.493	33.805	-5.055	-127.650	-125.105	-123.356	-117.442	-52.985	-119.398	-8191	255	
1314.068	1	1	0	0	0.073799	0.22428	0.056031	0.14423	0.32252	0.046358	0.16199	0.14152	0.1379	0.31763	0.22174	0.19316	0.19722	0.28635	0.10252	0.088998	-2.6042	-3.2604	-3.0208	-2.9375	-3.4104	-3.1688	-3.4229	-3.3229	-3.1917	-3.4833	-3.3333	-3.2083	-3.3812	-2.9188	-2.9854	-3.5292	-51.850	-135.041	62.572	-86.435	167.565	-12.686	175.340	-6.607	-70.130	-91.662	134.323	176.961	183.244	-124.328	132.098	-4.555	0.00010233	0.00014558	6.2274e-05	350.43	7.8267e-07	2.0743e-06	384.19	84.766	2.2098e-06	2.3588e-06	112.07	31.413	19.642	4.2174	2.3644e-06	8.191	0.0030531	0.0066583	0.002179	389.98	8.1135e-05	0.00011175	430.65	98.299	0.00011014	0.00013679	133.93	39.139	25.573	6.3132	0.00014508	11.412	131.979	-67.822	-102.540	-128.858	-82.732	-142.628	-129.593	-125.036	162.842	-91.442	-126.380	-123.599	-122.042	-117.409	-12.930	-119.096	-8191	255	
1314.187	1	1	0	0	0.15379	0.17844	0.12333	0.086063	0.16686	0.090194	0.19216	0.097798	0.07852	0.057688	0.098622	0.22728	0.33041	0.23406	0.10326	0.08611	-2.7833	-3.4917	-3.4229	-3.0354	-3.4292	-3.2792	-3.3458	-3.2917	-2.9292	-3.5229	-3.4146	-3.1167	-3.2083	-3	-3.1229	-3.6542	46.603	80.907	-48.798	216.275	155.901	-65.145	-88.853	128.598	153.646	51.450	-128.821	-106.205	-129.511	-62.410	119.843	-8.055	0.00013616	0.00037809	8.9693e-05	300.83	2.7968e-06	3.6548e-06	341.99	73.392	3.2876e-06	4.165e-06	108.49	31.486	19.413	4.7474	5.4828e-06	9.083	0.0072818	0.014792	0.0043881	351.86	0.00013902	0.00017954	397.26	89.805	0.00015231	0.0001791	133.45	40.622	25.949	7.1576	0.00016264	12.58	179.071	-38.216	179.697	-128.775	73.876	141.865	-129.409	-124.638	-102.969	-109.991	-126.057	-123.464	-121.742	-118.413	13.674	-118.103	-8191	255	
1314.283	1	1	0	0	0.089506	0.1796	0.056381	0.22983	0.13346	0.2072	0.064938	0.23724	0.075508	0.17967	0.17389	0.11646	0.19775	0.10183	0.21301	0.12531	-2.7396	-3.2479	-3.2521	-2.8583	-3.4042	-3.0167	-3.0729	-3.4583	-3.1604	-3.4688	-3.4688	-3.1333	-3.3042	-3.4625	-3.25	-3.5167	72.274	-28.830	-124.585	137.759	63.935	-65.031	-28.653	-53.091	133.364	69.253	-139.947	131.306	-119.563	85.640	-121.532	-138.229	0.00011036	0.0004219	0.00013005	281.58	6.9698e-07	2.4796e-06	318.19	66.927	1.7207e-06	2.8551e-06	103.98	31.255	18.606	4.5338	3.5144e-06	8.8281	0.0078641	0.015891	0.0045224	330.84	0.00013569	0.00016898	370.13	81.312	0.00013039	0.00015078	126.03	38.995	24.007	6.4191	0.00012134	11.555	131.911	-124.264	47.052	-128.437	3.420	-89.867	-129.035	-123.869	171.206	-91.415	-125.692	-122.131	-121.529	-116.006	48.855	-117.294	-8191	255	
1314.379	1	1	0	0	0.10549	0.31994	0.13605	0.32519	0.1836	0.11396	0.29415	0.22188	0.28147	0.10998	0.038339	0.15971	0.061725	0.27757	0.15785	0.10782	-2.8479	-3.05	-3.3354	-2.8583	-3.2667	-3.0917	-2.9	-3.35	-3.1542	-3.2917	-3.4396	-3.3021	-3.4021	-3.2562	-3.1854	-3.6562	130.969	-2.211	-26.302	-128.350	212.141	4.439	172.909	-9.165	-54.859	101.314	217.545	171.862	-77.123	17.473	128.289	73.157	0.00012683	0.00012594	4.393e-05	278.97	1.9128e-06	4.0441e-06	315.29	65.705	2.6275e-06	7.0273e-06	102.81	29.673	17.946	3.9431	1.7597e-06	7.7618	0.0057747	0.011511	0.0032536	318.37	9.9276e-05	0.000125	357.64	77.732	9.979e-05	0.00011581	120.61	35.911	22.344	5.4562	9.8132e-05	10.078	157.399	203.066	-58.302	-128.235	207.451	129.585	-129.001	-123.776	-128.016	40.453	-125.355	-121.731	-121.055	-115.621	31.496	-116.949	-8191	255	
1314.475	1	1	0	0	0.28449	0.11815	0.31954	0.055492	0.25901	0.022775	0.070976	0.17981	0.070221	0.10953	0.15634	0.12318	0.048114	0.21345	0.11118	0.14321	-2.8604	-3.1583	-3.3896	-2.9021	-3.2479	-3.2958	-3.0771	-3.3667	-3.3229	-3.3042	-3.5458	-3.1625	-3.3167	-3.2812	-3.1521	-3.3604	11.200	117.110	31.476	94.383	110.216	71.840	151.131	-97.626	133.616	13.100	118.915	-135.448	-25.055	214.032	118.686	-8.311	0.00012445	0.0003395	3.6975e-05	280.19	1.2584e-06	2.689e-06	317.73	66.967	6.759e-07	4.835e-06	102.77	26.698	17.405	3.4919	5.0121e-07	6.9197	0.0047446	0.0093703	0.0026261	317.3	8.1172e-05	9.95e-05	356.03	77.438	7.7964e-05	8.7907e-05	118.01	31.814	20.855	4.6668	7.1073e-05	8.626	149.822	197.263	18.476	-128.415	-88.566	174.209	-129.361	-124.203	-130.827	133.726	-125.790	-122.074	-121.469	-116.262	-109.652	-116.843	-8191	255	
1314.571	1	1	0	0	0.18131	0.18744	0.10484	0.20793	0.20946	0.14257	0.2473	0.24863	0.27583	0.13458	0.16821	0.33493	0.053482	0.066917	0.11123	0.19552	-2.9771	-3.0396	-3.3333	-3.0312	-3.2833	-3.4021	-3.2125	-3.4938	-3.1917	-3.4	-3.575	-3.3896	-3.1542	-3.4313	-3.2333	-3.375	-40.874	14.927	-123.009	-92.428	129.495	91.517	-133.738	22.724	-6.158	139.762	106.812	187.443	-11.600	-112.548	192.559	185.389	6.9911e-05	0.00035432	5.7576e-05	302.09	3.2264e-06	9.1102e-07	334.12	71.815	2.3148e-06	1.7334e-06	104.47	26.117	17.73	3.583	1.4215e-06	6.8292	0.0034806	0.0066452	0.0018573	333.53	5.952e-05	7.3662e-05	370.48	81.006	6.3916e-05	7.4253e-05	118.88	30.88	21.11	4.6751	7.1398e-05	8.5558	186.342	-92.391	-84.377	-128.888	192.361	188.115	-129.637	-125.393	-114.813	-75.832	-126.544	-122.850	-122.080	-115.850	-128.766	-117.573	-8191	255	
1314.667	1	1	0	0	0.17406	0.16373	0.16071	0.25154	0.16033	0.12041	0.079213	0.099455	0.12142	0.051788	0.15932	0.38896	0.11364	0.097012	0.10098	0.23952	-2.9854	-3.1833	-3.5604	-3.1667	-3.0979	-3.5292	-3.2938	-3.3438	-3.3542	-3.1083	-3.3833	-3.0187	-2.9375	-3.35	-3.125	-3.2417	158.847	1.705	-11.541	-108.400	-25.661	139.924	23.815	85.853	187.894	126.807	117.266	-96.946	72.121	-0.246	172.957	-134.886	0.00010116	0.00025283	1.136e-05	305.4	2.1938e-06	6.3321e-07	339.58	73.015	5.8411e-07	2.4247e-06	107.88	28.01	18.932	3.7779	3.6302e-06	7.0543	0.0036819	0.0073767	0.0021166	340.78	7.2405e-05	9.2893e-05	378.22	83.804	8.3233e-05	9.8995e-05	124.21	34.038	23.092	5.1521	9.3618e-05	9.2242	166.421	-94.081	154.818	-128.676	-132.361	-89.998	-129.449	-125.013	57.982	208.001	-126.086	-123.357	-122.093	-116.155	-42.981	-117.652	-8191	255	
1314.788	1	1	0	0	0.074837	0.11202	0.1087	0.10465	0.11151	0.16397	0.1881	0.27865	0.048233	0.067272	0.12965	0.14511	0.14179	0.4005	0.19764	0.2316	-2.9042	-3.0021	-3.3521	-3.1208	-3.0708	-3.4479	-3.1875	-3.2771	-3.4083	-3.3542	-3.4521	-3.1625	-3.1437	-3.6208	-3.0708	-3.2604	8.903	-10.960	-75.453	-23.302	-93.687	65.857	205.326	144.030	33.426	119.363	112.819	-100.719	155.319	-85.734	0.819	-134.654	8.7827e-05	0.00036773	0.00013634	309.22	1.2644e-06	1.4908e-06	345.09	74.13	2.1629e-06	1.5042e-06	110.49	28.485	19.529	3.8014	4.8522e-06	7.0158	0.0047095	0.0095745	0.0026873	349.39	8.9183e-05	0.00010832	387.34	85.954	9.1655e-05	0.0001073	127.29	34.766	23.9	5.2075	9.6067e-05	9.1436	113.282	-66.276	-92.805	-128.830	45.944	79.285	-129.363	-125.142	-64.671	-28.739	-126.359	-123.101	-122.417	-116.551	-33.326	-117.886	-8191	255	
1314.884	1	1	0	0	0.16637	0.058946	0.13432	0.27402	0.18593	0.1879	0.071672	0.22827	0.060857	0.19769	0.15668	0.13395	0.17663	0.34973	0.1848	0.049811	-2.9021	-3.1521	-3.4021	-3.2021	-3.0812	-3.5583	-3.2708	-3.3271	-3.5938	-3.1375	-3.1708	-3.2208	-2.9604	-3.2375	-2.9896	-3.3104	15.208	-77.204	-99.819	159.454	-76.873	-122.672	202.928	59.151	126.053	-105.575	124.545	10.579	71.560	-5.056	94.009	151.777	8.8643e-05	7.7194e-05	8.4616e-05	313.89	1.8317e-06	3.6924e-06	347.83	75.196	3.0359e-06	2.1739e-06	109.92	27.948	19.762	3.8561	4.0654e-06	6.8189	0.0046146	0.0094564	0.002595	352.7	8.5541e-05	0.00010322	390.76	86.443	8.3625e-05	9.8565e-05	125.95	33.469	23.66	5.0424	8.0678e-05	8.637	170.203	-80.532	26.872	-128.819	-111.754	0.383	-129.795	-124.889	-121.420	-105.869	-126.846	-123.375	-122.208	-116.614	18.348	-118.480	-8191	255	
1314.980	1	1	0	0	0.092197	0.048927	0.067557	0.27947	0.35741	0.12126	0.3867	0.22894	0.079329	0.25733	0.14835	0.17597	0.12186	0.071672	0.091612	0.31215	-2.875	-2.9146	-3.2542	-3.1417	-2.9167	-3.3375	-3.1896	-3.1562	-3.4708	-3.0812	-3.2062	-3.2167	-3.1063	-3.575	-3.3937	-3.1646	-64.396	-18.698	52.006	124.410	190.732	-127.470	164.859	177.060	109.079	81.560	124.988	82.998	-118.151	106.417	2.735	86.938	0.00016136	0.00024479	3.656e-05	328.77	1.4316e-06	1.1075e-06	357.9	78.857	5.2174e-07	4.0065e-06	110.74	27.598	20.546	3.9114	2.7445e-06	6.6172	0.0037906	0.0077281	0.0021301	364.89	7.1817e-05	8.6786e-05	398.61	89.551	7.4146e-05	9.0602e-05	125.97	33.142	24.402	5.1064	8.0219e-05	8.4772	160.165	14.422	-104.651	-128.932	207.024	136.419	-129.960	-125.153	-13.267	13.944	-126.837	-123.829	-122.822	-116.697	-45.358	-117.970	-8191	255	
1315.076	1	1	0	0	0.24145	0.16051	0.15753	0.16256	0.15151	0.045849	0.18053	0.090936	0.13294	0.17112	0.09175	0.13859	0.17682	0.20969	0.34864	0.087971	-3.1417	-3.0875	-3.4375	-3.4208	-3.1542	-3.45	-3.2729	-3.4021	-3.5042	-3.4042	-3.4	-3.4583	-3.2896	-3.3583	-3.3292	-3.0187	94.614	67.603	-8.552	89.179	149.915	92.079	198.799	206.976	44.444	-21.208	-14.914	98.145	200.351	41.543	-84.852	134.898	5.5938e-05	0.00020376	8.9749e-05	336.46	2.8064e-06	2.0063e-06	363.67	81.624	7.0773e-07	1.3501e-06	111.66	28.245	21.445	4.1353	1.3569e-06	6.7048	0.0036966	0.007706	0.0021367	372.07	7.1082e-05	8.3786e-05	403.52	92.426	6.866e-05	8.3746e-05	126.67	32.902	25.064	5.1657	6.7943e-05	8.3155	179.259	-101.148	-48.834	-128.813	7.066	-138.745	-130.002	-125.062	41.476	-114.213	-126.960	-123.913	-123.123	-117.501	104.291	-118.709	-8191	255	
1315.171	1	1	0	0	0.052246	0.1108	0.12923	0.28272	0.076153	0.23416	0.14858	0.33547	0.2498	0.13194	0.12696	0.047814	0.12262	0.10379	0.066337	0.16858	-3.1271	-3.1	-3.4146	-3.2708	-3.0438	-3.2687	-3.4792	-2.9583	-3.3812	-3.1042	-3.1021	-3.3667	-3.1083	-3.3708	-3.3167	-3.1667	18.060	-45.219	180.214	143.216	107.464	144.619	119.323	94.883	180.558	-75.524	215.378	191.450	43.959	-108.049	-75.238	49.201	0.0001108	0.00049474	0.00011268	350.08	3.7252e-06	2.6793e-06	374.94	87.149	2.6663e-06	1.7325e-06	114.24	28.175	22.314	4.3477	9.2364e-07	6.8251	0.0030542	0.0063841	0.0016932	382.57	5.5231e-05	6.4193e-05	411.3	96.698	5.181e-05	6.4582e-05	127.49	32.495	25.61	5.2434	5.4434e-05	8.2004	159.314	-77.912	-107.936	-129.388	1.675	10.369	-130.160	-125.794	-24.567	-10.662	-127.533	-124.622	-122.976	-118.074	138.337	-118.563	-8191	255	
1315.267	1	1	0	0	0.191	0.076643	0.15383	0.26816	0.27764	0.11648	0.26806	0.15218	0.1869	0.25522	0.065468	0.12694	0.22128	0.021846	0.19245	0.11831	-3.0021	-3.1813	-3.2917	-3.4229	-3.0292	-3.3875	-3.4646	-3.1958	-3.6375	-3.325	-3.1771	-3.3146	-3.0312	-3.1917	-3.25	-2.9583	-60.604	72.717	-56.772	196.799	117.735	-102.428	-138.779	-123.947	48.604	-43.614	182.290	-129.659	182.998	13.939	31.762	-34.688	9.175e-05	0.0003078	6.9316e-05	359.26	2.2477e-06	3.9143e-06	378.74	89.321	2.8186e-06	1.2149e-06	115.73	28.523	23.089	4.4398	1.0055e-06	6.8983	0.002447	0.0051823	0.0013682	391.19	4.3671e-05	5.0273e-05	412.37	98.024	3.8323e-05	4.5748e-05	126.74	32.038	25.58	5.1272	3.3476e-05	7.914	163.043	77.862	-97.158	-129.464	63.945	-2.802	-130.374	-125.989	-129.094	-24.657	-127.408	-124.744	-123.048	-117.806	-6.676	-119.642	-8191	255	
1315.363	1	1	0	0	0.18464	0.15586	0.2583	0.3145	0.094501	0.30805	0.12723	0.039168	0.053483	0.18603	0.049337	0.14226	0.19473	0.12646	0.10516	0.070999	-2.7646	-3.2667	-3.0542	-3.5521	-3.1188	-3.2708	-3.4417	-3.0042	-3.2542	-3.2271	-3.0958	-3.3917	-3.1104	-3.4354	-3.5229	-3.1937	157.658	-116.208	19.953	107.335	-63.136	14.773	28.464	139.255	-39.961	173.812	-101.656	54.637	-46.646	-78.087	-102.221	-48.500	7.8163e-05	4.646e-05	8.8868e-05	362.37	2.5679e-06	1.6355e-06	374.93	89.154	1.5026e-06	1.9033e-06	111.75	28.25	22.953	4.3558	4.8599e-07	6.606	0.0014751	0.0030701	0.00080199	388.33	2.6429e-05	2.978e-05	403.45	96.709	2.3136e-05	2.8819e-05	121.23	31.206	25.051	4.9135	2.3068e-05	7.4997	199.068	-89.636	-77.191	-129.257	-95.876	-11.994	-130.480	-126.048	-61.389	-23.341	-127.894	-124.859	-123.871	-117.525	-33.608	-119.679	-8191	255	
1315.484	1	1	0	0	0.11349	0.075006	0.27069	0.24724	0.14335	0.16401	0.10893	0.093598	0.16059	0.30266	0.21963	0.34077	0.25511	0.18222	0.16181	0.094602	-2.9375	-3.2479	-3.0146	-3.325	-3.1792	-3.2271	-3.5708	-3.0479	-3.5229	-3.5167	-3.1937	-3.3542	-3.2521	-3.1667	-3.3625	-3.2042	11.069	55.765	102.546	171.865	5.640	194.419	60.702	59.245	0.498	15.280	107.557	132.121	-101.781	-39.273	24.216	-33.775	0.00011537	0.00020387	3.7317e-05	358.16	4.1661e-07	3.2827e-06	368.67	88.397	1.5805e-06	2.5767e-06	112.04	29.139	23.484	4.3524	3.1654e-06	6.6402	0.0011069	0.0023376	0.00065726	382.63	2.2207e-05	2.6152e-05	396.08	95.731	2.1282e-05	2.7037e-05	121.12	31.92	25.577	4.9211	2.2729e-05	7.4664	153.502	26.285	-7.948	-129.430	183.416	-59.969	-130.302	-125.771	-38.478	28.809	-127.760	-125.039	-123.417	-117.920	89.332	-119.250	-8191	255	
1315.580	1	1	0	0	0.041855	0.32062	0.14887	0.32705	0.19352	0.10036	0.28109	0.16474	0.066176	0.053473	0.094436	0.097404	0.056308	0.08858	0.12891	0.18592	-2.9979	-3.4708	-3.1396	-3.3792	-3.1667	-3.1083	-3.375	-3.2146	-3.3896	-3.4104	-3.2729	-3.3604	-3.1479	-3.0104	-3.4917	-2.9396	-74.167	-72.488	111.673	132.358	114.690	-12.196	206.711	-81.048	-86.422	124.107	211.977	211.930	-65.175	-32.786	24.233	146.559	7.7024e-05	7.8848e-05	7.114e-05	358.56	1.4453e-06	2.8975e-06	371.87	89.359	9.2831e-07	1.0435e-06	112.5	29.151	23.238	4.3179	1.181e-06	6.5743	0.0011393	0.0024184	0.00065832	383.1	2.2805e-05	2.6736e-05	398.45	96.356	2.232e-05	2.7927e-05	121.91	31.937	25.455	4.902	2.1925e-05	7.4611	167.607	-90.265	202.340	-129.424	43.534	17.480	-130.469	-125.805	-102.214	116.020	-127.598	-125.076	-123.066	-117.932	128.377	-120.247	-8191	255	
1315.652	1	1	0	0	0.15136	0.1148	0.31129	0.24164	0.065931	0.15732	0.28229	0.13466	0.082508	0.19198	0.096414	0.21991	0.22841	0.12277	0.20647	0.078064	-2.6417	-3.3688	-2.8792	-3.3354	-3.2458	-2.8563	-3.2604	-2.9917	-2.8854	-3.4396	-3.0625	-3.4521	-3.5021	-3.0312	-3.3667	-3.3125	-106.683	23.804	134.352	79.433	59.119	-125.455	183.869	158.222	-55.060	98.234	146.156	182.617	-84.332	78.061	-81.930	141.153	7.0741e-05	5.0896e-05	7.3112e-05	358.57	1.7934e-06	2.3048e-06	375.02	89.955	2.8367e-06	1.2151e-06	114.31	30.077	23.604	4.3114	1.7306e-06	6.6804	0.0010913	0.0022053	0.00061608	383.38	1.9999e-05	2.3694e-05	401.47	97.454	1.9034e-05	2.3239e-05	123.74	32.926	25.756	4.8742	2.1574e-05	7.5223	134.075	-127.842	-67.953	-129.358	49.452	-21.707	-130.387	-126.090	-44.943	-111.311	-127.728	-124.913	-123.463	-117.931	-41.002	-119.823	-8191	255	
1315.748	1	1	0	0	0.18475	0.094887	0.096977	0.21426	0.025922	0.1252	0.029913	0.1207	0.18442	0.12168	0.031038	0.19533	0.2152	0.029887	0.19044	0.22848	-2.95	-3.5146	-3.1188	-3.2625	-3.2042	-2.9458	-3.3229	-3.1667	-3.1958	-3.2396	-3.1042	-3.2812	-3.3563	-3.1104	-3.3917	-3.4021	139.129	106.309	202.132	-49.119	51.280	178.267	-90.235	-11.107	-26.263	123.917	55.733	37.254	93.955	84.417	-122.654	-36.260	8.7094e-05	0.00022431	1.8915e-05	358.58	1.7065e-06	4.8267e-07	370.48	89.305	1.2564e-06	2.9185e-06	112.52	29.63	22.954	4.1564	1.9889e-06	6.4873	0.0011863	0.0024149	0.00073393	384.52	2.5602e-05	3.0409e-05	400.26	97.053	2.6862e-05	3.2369e-05	123.16	32.711	25.343	4.8143	2.9436e-05	7.4743	185.083	-98.833	197.912	-129.116	-136.444	204.975	-130.329	-125.773	-113.157	34.226	-127.574	-124.477	-123.756	-117.911	68.824	-119.188	-8191	255	
1315.868	1	1	0	0	0.090409	0.28924	0.13427	0.14977	0.21791	0.14622	0.17104	0.20048	0.13781	0.18714	0.097636	0.19317	0.034385	0.10646	0.061631	0.13213	-2.7604	-3.575	-3.225	-3.4208	-3.4	-3.2167	-3.4146	-3.1917	-3.0312	-3.4146	-3.0208	-3.1	-3.3229	-3.1479	-3.4292	-3.4333	110.052	-81.216	76.177	150.398	14.957	-117.270	-127.958	-9.475	178.474	201.217	93.026	62.467	66.383	95.770	35.298	97.903	8.888e-05	0.00039334	5.5232e-05	350.01	7.5057e-07	1.5416e-06	365.11	87.604	2.6835e-06	2.0576e-06	112.14	29.142	22.729	4.1045	4.1036e-07	6.274	0.0014545	0.0029449	0.0008882	376.49	2.8636e-05	3.4385e-05	393.09	95.04	2.7367e-05	3.1349e-05	121.96	32.208	25.022	4.7153	2.7011e-05	7.2402	154.683	-70.911	0.203	-129.132	-60.939	49.739	-130.503	-125.532	-7.494	8.960	-127.502	-124.441	-123.752	-117.383	-128.074	-119.684	-8191	255	
1315.965	1	1	0	0	0.18624	0.033275	0.13586	0.21151	0.22038	0.032408	0.2018	0.42473	0.059412	0.33535	0.34076	0.18432	0.064623	0.12289	0.056553	0.086271	-2.675	-3.5104	-3.125	-3.2625	-3.4688	-3.2354	-3.5458	-3.4104	-3.0833	-3.4542	-3.3104	-3.2708	-3.4646	-3.2625	-3.475	-3.3333	169.498	150.980	-55.320	127.643	-75.870	13.287	174.540	91.918	13.967	68.118	-120.392	-47.560	-18.006	41.589	-80.866	132.121	5.494e-05	0.00019598	6.0985e-05	353.13	1.7923e-06	3.3721e-06	364.4	87.95	2.6215e-06	1.0619e-06	111.01	28.405	22.386	4.0949	1.225e-06	6.4056	0.0013319	0.0026298	0.00077201	378.12	2.4362e-05	2.9581e-05	392.28	95.123	2.4587e-05	2.7685e-05	120.91	31.399	24.612	4.6955	2.4543e-05	7.2753	177.889	122.529	-70.642	-129.374	-68.504	-23.235	-130.436	-125.785	-29.787	-115.371	-127.628	-124.636	-123.406	-117.504	12.204	-119.471	-8191	255	
1316.061	1	1	0	0	0.26433	0.15484	0.028295	0.11357	0.29569	0.11022	0.3501	0.12267	0.064667	0.2533	0.31743	0.11874	0.062189	0.08288	0.099601	0.062057	-2.65	-3.5542	-3.175	-3.3896	-3.5646	-3.25	-3.3604	-3.4062	-3.2375	-3.3688	-3.2354	-2.9313	-3.4333	-3.1063	-3.2292	-3.4167	-34.671	63.941	204.179	134.418	208.972	-22.803	79.508	150.096	-100.588	-30.551	146.946	152.474	99.400	38.881	-53.603	-108.104	9.9778e-05	0.00023582	2.1779e-05	350.81	1.3165e-06	9.4044e-07	365.75	87.525	1.802e-06	3.163e-06	111.56	28.12	22.231	4.0907	2.8231e-07	6.3533	0.0012989	0.0025224	0.00076119	376.58	2.3581e-05	2.9586e-05	394.08	94.779	2.3298e-05	2.6457e-05	121.19	31.089	24.29	4.6834	2.2194e-05	7.2437	173.324	-48.319	203.364	-129.395	51.154	60.009	-130.308	-125.762	14.959	57.809	-127.274	-124.508	-123.618	-117.658	-54.598	-118.917	-8191	255	
1316.181	1	1	0	0	0.07886	0.22354	0.25033	0.033195	0.078638	0.086381	0.09293	0.19733	0.17254	0.1956	0.18319	0.13346	0.19397	0.067957	0.15076	0.03635	-2.7146	-3.4458	-3.4417	-3.1229	-3.45	-3.1896	-3.2917	-3.525	-3.2396	-3.4646	-3.3958	-3.075	-3.3063	-3.1312	-3.1604	-3.2792	98.379	71.784	-123.836	10.131	40.842	-9.804	18.798	198.313	-91.954	118.362	-26.851	-79.056	173.819	-24.212	-132.533	13.939	5.7559e-05	0.00017032	6.0222e-05	351.69	1.1887e-06	1.8902e-06	361.17	87.04	2.0762e-06	2.1128e-06	109.06	27.094	21.593	4.0758	1.0283e-06	6.3362	0.0011354	0.0021408	0.00065165	375.89	2.0059e-05	2.6176e-05	388.25	93.658	2.0508e-05	2.2957e-05	117.64	29.768	23.605	4.6152	1.9788e-05	7.1244	143.544	14.018	-7.417	-129.459	-11.970	-22.235	-130.298	-125.841	46.871	106.224	-127.819	-124.513	-122.911	-117.892	-90.826	-119.561	-8191	255	
1316.276	1	1	0	0	0.20157	0.19904	0.0077857	0.084365	0.087604	0.12868	0.09837	0.17049	0.27402	0.017429	0.1458	0.13333	0.28624	0.18348	0.2347	0.18155	-2.5417	-3.1437	-3.2667	-3.0625	-3.3333	-3.3396	-3.4292	-3.5438	-3.1063	-3.4062	-3.4917	-3.1771	-3.6083	-3.3104	-3.3	-3.3646	116.600	-143.105	94.083	164.933	-112.084	26.984	127.844	-20.062	-138.218	-113.873	-78.841	169.808	-58.191	198.317	169.917	209.365	7.8337e-05	0.00021164	6.2534e-05	349.47	2.593e-06	2.2975e-06	362.78	86.62	2.9803e-07	1.4995e-06	108.3	26.808	21.644	4.1284	7.4592e-07	6.3084	0.0010245	0.0019066	0.00056423	373.94	1.7086e-05	2.1668e-05	388.21	93.251	1.7489e-05	1.8912e-05	117.22	29.509	23.509	4.621	1.7116e-05	7.091	169.966	-45.523	55.615	-129.377	-83.668	37.975	-130.544	-125.819	164.021	-0.425	-127.530	-124.786	-123.298	-118.138	-51.420	-119.028	-8191	255	
1316.347	1	1	0	0	0.28375	0.18243	0.27025	0.28656	0.2105	0.1407	0.21388	0.15269	0.088387	0.0028194	0.15549	0.13497	0.10568	0.27781	0.18722	0.04683	-2.8521	-3.2167	-3.4229	-3.1104	-3.3729	-3.25	-3.2229	-3.2812	-3.0708	-3.2354	-3.4271	-2.9604	-3.4146	-3.3812	-3.1937	-3.5438	156.149	132.324	-23.254	150.108	54.156	126.579	-126.726	77.367	-35.117	180.000	141.479	189.498	-137.621	-114.048	-35.555	53.528	6.4661e-05	0.00021189	3.5584e-05	352.11	9.546e-07	1.5826e-06	362.85	86.969	1.9412e-07	1.1519e-06	109.57	27.47	21.945	4.1368	2.0494e-06	6.4028	0.0008977	0.0016581	0.00049278	375.49	1.5878e-05	1.9883e-05	388.47	93.398	1.6321e-05	1.8182e-05	117.96	29.981	23.789	4.6341	1.6131e-05	7.126	147.442	-58.811	-2.750	-129.558	199.069	-46.910	-130.364	-125.856	11.988	36.893	-127.751	-125.040	-123.366	-117.864	-88.511	-119.049	-8191	255	
1316.468	1	1	0	0	0.28339	0.21321	0.12904	0.22242	0.04757	0.035421	0.24964	0.098762	0.1994	0.11396	0.07864	0.13469	0.14231	0.29899	0.06034	0.19854	-2.8229	-3.2854	-3.2667	-2.9333	-3.3458	-3.3042	-3.0667	-3.4646	-3.175	-3.1437	-3.4583	-3.1437	-3.4562	-3.2854	-3.3396	-3.55	186.046	178.610	-73.710	208.510	-125.359	63.761	-132.305	20.435	-77.477	17.132	69.561	-135.392	167.887	-90.258	95.954	-38.389	8.6343e-05	0.00018884	5.8585e-05	354.92	1.3632e-06	2.2509e-06	368.5	88.224	3.4769e-06	2.2808e-06	112.53	28.583	22.57	4.2088	5.7085e-07	6.5042	0.00087526	0.001616	0.00048179	377.3	1.5436e-05	2.0819e-05	395.5	95.047	1.8343e-05	2.1427e-05	121.7	31.308	24.498	4.7238	2.0489e-05	7.2933	130.747	-126.867	-79.596	-129.442	-16.403	-28.314	-130.600	-126.138	-61.165	-84.106	-127.830	-124.830	-123.356	-118.135	127.773	-119.513	-8191	255	
1316.564	1	1	0	0	0.1154	0.18012	0.028165	0.091048	0.13563	0.099303	0.20227	0.04994	0.12608	0.046632	0.13604	0.12934	0.11981	0.11256	0.17716	0.12034	-2.7833	-3.1854	-3.5396	-3.2062	-3.2958	-3.3438	-3.1833	-3.4208	-3.2	-3.075	-3.4813	-2.9958	-3.2396	-3.3958	-3	-3.4229	104.162	161.592	-23.685	-102.797	127.123	33.103	29.339	29.657	191.084	-136.433	21.335	-29.585	113.777	186.174	-98.714	-75.167	7.2886e-05	0.00022624	5.92e-05	351.15	1.0033e-06	2.5596e-06	363.82	86.518	9.3501e-07	1.1775e-06	108.81	28.017	21.999	4.1185	1.572e-06	6.1741	0.0010854	0.0020883	0.00060236	377.45	2.0213e-05	2.5738e-05	389.89	93.211	2.1129e-05	2.4241e-05	118.31	30.757	24.049	4.6194	2.1237e-05	7.0459	157.464	-22.565	-45.756	-129.183	-136.491	-20.694	-130.391	-126.075	193.532	-99.583	-127.409	-124.799	-123.469	-117.418	-26.142	-119.781	-8191	255	
1316.660	1	1	0	0	0.12641	0.05854	0.055301	0.24576	0.14528	0.29562	0.23968	0.16421	0.10181	0.051279	0.12241	0.1818	0.21428	0.23951	0.18735	0.19739	-2.7708	-3.1646	-3.3646	-3.1292	-3.2667	-3.4542	-3.025	-3.4854	-3.3896	-3.2	-3.5187	-3.125	-3.3479	-3.4437	-3.0542	-3.3083	131.109	-39.919	-88.765	147.600	2.869	-82.552	132.309	-94.459	-32.176	115.814	163.217	183.551	-59.408	129.183	-107.638	190.682	6.9842e-05	0.00033634	3.4223e-05	350.83	3.9205e-07	5.3229e-07	362.01	86.617	1.1017e-06	2.8023e-06	109.2	27.463	21.923	4.1583	1.1473e-06	6.3086	0.0010451	0.0019856	0.0005515	375.05	1.772e-05	2.1774e-05	388.27	93.302	1.7811e-05	1.9625e-05	117.69	30.004	23.809	4.6333	1.7474e-05	7.0392	160.733	-47.026	-130.144	-129.255	205.181	62.108	-130.240	-125.571	-61.098	-10.937	-127.821	-124.866	-123.494	-117.093	-109.131	-119.444	-8191	255	
1316.779	1	1	0	0	0.08355	0.1882	0.23142	0.18351	0.19944	0.082004	0.16805	0.12281	0.062328	0.13263	0.098981	0.10176	0.081978	0.12868	0.10815	0.11939	-2.7792	-3.0687	-3.3375	-3.1312	-3.2458	-3.4479	-2.9437	-3.4042	-3.3542	-3.05	-3.1854	-3.0708	-3.1146	-3.2687	-2.8729	-3.3479	63.200	32.531	152.674	27.631	185.966	212.421	80.166	30.850	172.815	-102.820	-80.795	149.389	140.671	-108.678	-27.905	163.258	5.5504e-05	0.00014351	5.8274e-05	352.09	7.7863e-07	3.4315e-07	367.32	87.444	2.9627e-06	1.0149e-06	111.18	28.2	22.387	4.2126	2.1072e-06	6.511	0.00090699	0.0017427	0.00048344	376.45	1.7065e-05	2.1291e-05	392.7	93.923	1.8825e-05	2.1805e-05	119.83	30.833	24.163	4.7065	1.8046e-05	7.2327	168.269	-39.107	-57.596	-129.444	-1.450	154.656	-130.628	-125.739	-37.848	86.210	-127.458	-124.425	-123.320	-117.362	-71.708	-119.023	-8191	255	
1316.875	1	1	0	0	0.089794	0.14278	0.2247	0.033343	0.074085	0.020585	0.26791	0.091515	0.20256	0.032412	0.14828	0.094268	0.12871	0.14559	0.24152	0.35421	-2.8542	-3.0354	-3.4479	-3.2479	-3.0229	-3.4604	-3.1229	-3.2083	-3.4771	-3.1375	-3.5604	-3.1375	-3.3104	-3.5604	-3.2687	-3.3333	68.195	160.153	78.823	92.894	-110.039	100.429	164.061	98.489	154.981	173.047	128.381	39.170	-18.396	156.138	70.029	135.092	9.924e-05	0.00015053	5.9701e-05	358.34	1.1532e-06	1.6158e-06	370.79	89.425	2.1648e-06	2.2292e-06	110.76	27.562	22.242	4.2591	1.3355e-06	6.5372	0.00089584	0.0017037	0.00045777	382.05	1.5136e-05	1.7768e-05	397.42	95.524	1.4984e-05	1.7541e-05	119.61	30.258	24.041	4.7505	1.6538e-05	7.2553	157.327	-58.226	22.477	-129.232	-6.200	40.111	-130.590	-125.899	-89.699	17.493	-127.592	-124.767	-123.691	-117.789	31.159	-119.334	-8191	255	
1316.947	1	1	0	0	0.23683	0.062084	0.20712	0.095388	0.11412	0.078634	0.09753	0.12515	0.098495	0.18395	0.18403	0.23308	0.13728	0.079895	0.11879	0.10184	-2.9646	-3.0563	-3.4354	-3.2458	-3.0229	-3.4042	-3.0479	-3.0896	-3.3208	-3.0667	-3.3979	-3.2646	-3.1875	-3.4583	-3.2979	-3.1562	-74.494	-142.637	128.949	-91.410	82.949	-29.284	93.458	-2.306	-104.859	145.196	132.160	-24.420	-13.212	-66.227	139.593	-110.838	6.5925e-05	7.5624e-05	1.0377e-05	354.75	8.8731e-07	1.2553e-06	367.27	87.286	1.8224e-06	3.348e-06	108.94	27.416	21.744	4.221	7.9629e-07	6.3618	0.00080837	0.0016106	0.00042194	378.63	1.4286e-05	1.6654e-05	391.71	93.615	1.4182e-05	1.6973e-05	117.16	29.772	23.608	4.6531	1.4306e-05	7.0801	152.016	-101.683	50.962	-129.357	44.363	-105.993	-130.415	-125.971	-50.345	34.314	-127.628	-124.678	-123.004	-117.745	-6.173	-119.397	-8191	255	
1317.043	1	1	0	0	0.11216	0.19912	0.1587	0.11072	0.21593	0.21006	0.081594	0.1952	0.14062	0.14237	0.17906	0.10223	0.11826	0.1273	0.12101	0.10619	-2.9688	-3.1521	-3.2521	-3.2292	-3.0896	-3.4625	-3.0312	-3.1083	-3.425	-3.0958	-3.4625	-3.3896	-2.8229	-3.2479	-3.1354	-3.0312	66.401	172.672	30.801	-123.458	6.387	-62.661	-85.761	-97.092	33.390	61.664	-9.642	-69.210	-137.689	42.579	-40.681	-120.101	9.6995e-05	0.00013891	4.0362e-05	354.64	2.3099e-06	7.1323e-07	368.35	87.709	1.2318e-06	8.1051e-07	109.53	27.28	21.912	4.2308	1.4749e-06	6.4883	0.00069099	0.0013529	0.00036431	378.02	1.2711e-05	1.4821e-05	392.36	94.136	1.2622e-05	1.5313e-05	117.71	29.667	23.628	4.651	1.3007e-05	7.1096	163.423	-41.336	-108.560	-129.193	-5.784	103.070	-130.327	-125.630	11.010	75.376	-127.579	-124.755	-123.229	-118.348	213.146	-119.314	-8191	255	
1317.164	1	1	0	0	0.14707	0.19786	0.071593	0.1799	0.17439	0.11882	0.091813	0.15508	0.095386	0.059094	0.11514	0.13988	0.18372	0.241	0.23407	0.22205	-3.1	-3.2458	-3.4417	-3.4833	-3.3688	-3.6417	-3.3708	-3.2396	-3.4854	-3.2979	-3.2417	-3.6271	-3.075	-3.4542	-3.1021	-3.2167	210.766	142.103	-114.820	-94.550	32.538	200.732	173.864	135.317	-28.592	-96.303	-93.429	181.838	30.661	-118.092	0.321	183.868	9.7846e-05	4.5517e-05	5.6351e-05	355.96	1.9521e-06	1.4174e-06	367.17	88.24	1.4211e-06	1.7779e-06	110.34	27.23	21.753	4.2055	1.0486e-06	6.3835	0.00063088	0.0012552	0.00033291	379.77	1.151e-05	1.2672e-05	392.63	94.257	1.0646e-05	1.2223e-05	117.38	29.268	23.401	4.6263	9.7508e-06	7.013	156.741	-80.736	-54.321	-129.157	-24.969	25.991	-130.533	-125.830	-47.041	39.973	-128.167	-124.953	-123.316	-117.422	5.062	-119.634	-8191	255	
1317.260	1	1	0	0	0.15072	0.14313	0.035612	0.30493	0.15391	0.12172	0.27967	0.048647	0.21434	0.08616	0.20064	0.055587	0.15094	0.18864	0.12275	0.32931	-3.1312	-3.15	-3.1833	-3.4604	-3.1042	-3.3854	-3.2896	-2.9771	-3.1417	-3.2042	-3.0229	-3.3583	-3.1604	-3.2354	-3.3667	-3	63.944	-28.904	137.470	-88.163	45.961	12.470	206.957	42.062	186.414	-9.528	119.788	17.566	36.347	203.264	-93.792	152.866	6.8165e-05	9.1646e-05	6.2998e-05	357.5	1.3254e-06	1.4608e-06	364.57	87.892	7.4965e-07	1.686e-06	107.7	26.811	21.761	4.2559	1.6229e-06	6.4025	0.000461	0.0009363	0.00024648	379.1	8.3508e-06	9.0743e-06	388.89	93.667	7.1938e-06	8.6725e-06	114.95	28.809	23.231	4.6204	6.5956e-06	6.9298	174.581	-13.156	-0.982	-129.744	19.037	5.535	-130.509	-125.925	-32.279	-38.915	-127.750	-124.617	-123.348	-118.213	20.891	-120.078	-8191	255	
1317.356	1	1	0	0	0.094844	0.20267	0.18578	0.39267	0.36138	0.11306	0.1294	0.087176	0.23783	0.10695	0.086884	0.080508	0.068535	0.043354	0.10287	0.080692	-2.9646	-3.2021	-3.2854	-3.4625	-3.0792	-3.3167	-3.3792	-3.1271	-3.35	-3.3604	-3.1375	-3.3708	-3.1	-3.3104	-3.2812	-2.9354	-33.299	-80.908	115.357	62.529	-16.616	-46.638	160.477	21.859	98.853	117.952	161.254	177.266	145.025	142.787	139.420	6.901	8.9329e-05	0.00011826	3.3219e-05	350.9	1.4988e-06	9.5005e-07	356.65	86.314	1.5256e-06	1.4419e-06	104.09	25.979	21.482	4.2101	1.2463e-06	6.2873	0.00032795	0.00062253	0.0001621	372.95	5.6228e-06	6.3034e-06	378.28	91.622	5.454e-06	6.4784e-06	111.01	27.833	22.93	4.5906	5.8364e-06	6.847	168.530	-34.038	-11.964	-129.333	30.308	29.407	-130.771	-125.892	-74.389	-40.897	-127.816	-124.790	-123.430	-117.899	-1.671	-119.091	-8191	255	
1317.452	1	1	0	0	0.04116	0.23506	0.15277	0.28762	0.079465	0.13953	0.22902	0.22607	0.17768	0.093429	0.24812	0.20382	0.13512	0.079807	0.22959	0.22487	-2.9313	-3.1271	-2.9583	-3.5021	-3.1292	-3.1813	-3.4854	-2.8958	-3.3771	-2.9833	-2.8958	-3.3104	-3.0271	-3.2396	-3.3854	-2.9188	-36.794	-95.788	211.052	154.461	-110.931	-84.732	148.309	-126.712	202.299	51.454	-140.849	119.346	118.025	33.917	159.754	-118.693	7.1765e-05	8.1115e-05	4.2767e-05	353.53	2.5354e-07	1.2643e-06	358.23	87.215	1.8598e-06	2.0615e-06	105.83	26.475	21.711	4.302	8.3551e-07	6.3064	0.0003277	0.00062071	0.00016735	373.81	6.0217e-06	6.6206e-06	380.61	93.044	6.2059e-06	7.3502e-06	113	28.486	23.323	4.6539	6.8931e-06	6.8724	165.579	-84.023	-117.371	-129.359	-0.241	7.316	-130.474	-126.072	-68.601	37.820	-127.889	-125.115	-123.488	-118.513	-43.073	-120.047	-8191	255	
1317.571	1	1	0	0	0.17035	0.13226	0.090378	0.11159	0.096909	0.26129	0.097786	0.27519	0.11284	0.16052	0.20268	0.16178	0.22306	0.23702	0.058428	0.25682	-2.6958	-2.9833	-2.9	-3.3125	-3.1896	-2.9813	-3.1979	-2.8854	-3.0979	-3.1375	-2.9625	-3.0875	-2.975	-3.0333	-3.35	-2.9896	-101.724	146.422	148.322	22.256	174.330	29.508	30.345	-142.952	61.203	-69.210	132.504	123.013	194.714	139.622	-42.611	-77.240	6.7305e-05	2.8707e-05	6.4385e-05	355.96	5.4757e-07	1.5552e-07	361.54	88.499	1.3434e-06	9.6826e-07	108.36	27.284	22.433	4.3008	7.2926e-07	6.3314	0.00036639	0.00072889	0.00019967	378.2	6.94e-06	7.7027e-06	385.23	94.271	6.3547e-06	7.5127e-06	115.4	29.304	23.891	4.6553	6.4897e-06	6.8924	148.962	-50.009	-79.385	-129.388	153.335	92.690	-130.740	-125.736	-93.654	105.919	-127.888	-125.096	-123.282	-117.909	-57.218	-120.025	-8191	255	
1317.645	1	1	0	0	0.074971	0.098615	0.19839	0.10639	0.19183	0.19904	0.095843	0.20371	0.085017	0.087377	0.16549	0.32462	0.046533	0.31003	0.12888	0.096633	-2.8271	-3.2833	-2.9146	-3.3729	-3.15	-2.9625	-3.5646	-3.0083	-3.0708	-3.2979	-3.0375	-3.3	-3.2104	-3.0792	-3.2292	-3.1521	199.424	159.770	5.226	71.368	-70.848	154.176	80.887	119.206	-26.609	-55.222	-70.810	132.875	0.029	17.101	-85.254	197.577	8.6075e-05	0.00012643	3.993e-05	357.1	1.4486e-06	9.9361e-07	361.36	89.164	1.0177e-06	2.1227e-06	106.69	27.574	22.274	4.3365	1.7389e-06	6.3508	0.00034103	0.00061783	0.00017554	379.28	5.9387e-06	6.4909e-06	387.06	94.551	5.4297e-06	6.3073e-06	114.41	29.422	23.958	4.6765	5.3269e-06	6.8704	153.857	-55.629	-48.120	-129.486	-46.709	33.858	-130.638	-126.123	-64.394	5.543	-127.768	-125.373	-123.515	-117.753	-26.224	-119.307	-8191	255	
1317.741	1	1	0	0	0.21904	0.048222	0.26692	0.12471	0.24196	0.12087	0.28997	0.26023	0.1287	0.28694	0.2521	0.11327	0.17621	0.059535	0.040898	0.18834	-2.5708	-3.2271	-2.9979	-3.1937	-3.2687	-3.2333	-3.5312	-3.0083	-3.0333	-3.5083	-3.2125	-3.375	-3.2542	-3.3396	-3.5104	-3.325	-126.029	142.090	211.086	190.151	126.897	-44.157	149.650	-112.863	48.553	-36.726	5.238	133.867	-110.242	-107.215	113.088	116.627	9.3968e-05	0.00018323	8.506e-06	356.03	9.8999e-07	1.1229e-06	357.77	87.496	1.1715e-06	1.9872e-06	105.37	27.146	22.091	4.3397	1.5352e-06	6.2962	0.00029152	0.0005148	0.00015496	376.89	4.8797e-06	5.3794e-06	381.03	93.22	4.5677e-06	5.3383e-06	111.96	29.049	23.787	4.6712	4.327e-06	6.8473	166.221	-32.965	4.334	-129.422	-50.237	-4.945	-130.585	-126.204	8.425	-3.035	-127.960	-124.852	-123.341	-117.716	-7.299	-119.527	-8191	255	
1317.860	1	1	0	0	0.051463	0.10808	0.17412	0.14716	0.11797	0.078413	0.029833	0.25411	0.083561	0.12309	0.1231	0.16686	0.14553	0.1386	0.14157	0.070729	-2.9167	-3.4583	-3.1854	-3.3458	-3.2833	-3.0958	-3.2167	-3.1667	-2.7938	-3.3083	-2.9729	-3.3958	-3.4708	-3.1292	-3.3417	-3.1458	-48.082	85.167	199.884	57.306	-50.741	17.406	160.761	187.041	-14.735	167.420	130.831	101.876	151.390	121.626	75.701	-96.938	0.00010327	0.00011082	1.2574e-05	354.73	1.499e-06	1.3269e-06	357.14	87.118	1.5334e-06	8.7941e-07	104.86	27.115	22.267	4.3711	4.8952e-07	6.3786	0.00025342	0.00042567	0.00012778	374.94	4.3794e-06	5.3051e-06	379.22	92.565	4.3903e-06	4.7184e-06	111.4	28.977	23.808	4.7046	3.9621e-06	6.9262	160.170	-77.034	-74.595	-129.303	-44.186	21.320	-130.634	-126.130	-50.775	1.275	-128.011	-124.884	-123.404	-117.319	-28.900	-119.380	-8191	255	
1317.956	1	1	0	0	0.18134	0.19648	0.083978	0.10971	0.083709	0.11709	0.070771	0.051645	0.11189	0.12852	0.22432	0.16316	0.052331	0.11655	0.17746	0.19996	-2.7646	-3.4479	-2.9104	-3.2083	-3.4417	-3.2833	-3.2938	-3.3167	-3.0229	-3.4917	-3.0521	-3.1667	-3.2917	-2.9417	-3.2458	-3.0854	135.352	106.258	51.815	-46.920	43.188	129.001	55.342	206.320	193.791	82.876	65.759	93.590	-87.290	-38.229	60.330	-82.108	8.0748e-05	0.00012478	2.5283e-05	355.56	1.3498e-06	9.2037e-07	363.08	89.18	1.0289e-06	1.6714e-06	107.55	28.078	22.783	4.413	5.0199e-07	6.5364	0.00025866	0.0004026	0.00012651	376.29	4.4449e-06	5.4218e-06	385.79	94.702	4.9289e-06	5.5051e-06	114.79	30.022	24.412	4.7702	5.3761e-06	7.0676	169.068	-83.885	-66.859	-129.060	-0.133	45.349	-130.657	-126.047	-51.218	16.692	-127.879	-125.196	-123.871	-117.578	8.643	-119.451	-8191	255	
#DATA ENDS
