BOXY.EXE: ISS Imagent and Oximeter Data Acquisition Program Version 0.80
Ascii Record File

#ACQ INFORMATION
2  Detector Channels 
16  External MUX Channels 
1  Auxiliary Channels 
5000  Waveform (CCF) Frequency (Hz)
1  Waveforms Skipped 
30  Waveforms Averaged 
1  Cycles Averaged 
16  Acquisitions per Waveform 
10.0806  Updata Rate (Hz) 

#FILE INFORMATION
TRUE -- External MUX Channel results are PARSED.
FALSE -- AC DC and Phase are NOT grouped.
TRUE -- Companion Program Settings File CREATED.
FALSE -- AC data not excluded
FALSE -- DC data not excluded
FALSE -- Phase data not excluded
FALSE -- Auxillary Chn. data not excluded
Tab delimiters

#CALIBRATION STATE
TRUE -- Waveform Calibration Values APPLIED.


#AUX CALIBRATION VALUES
Val Type	aux-1	

Term	1.0000e+00	
Factor	0.0000e+00	


#WF CALIBRATION VALUES
A = Detector Channel
Val Type	A-AC1	A-AC2	A-AC3	A-AC4	A-AC5	A-AC6	A-AC7	A-AC8	A-AC9	A-AC10	A-AC11	A-AC12	A-AC13	A-AC14	A-AC15	A-AC16	A-DC1	A-DC2	A-DC3	A-DC4	A-DC5	A-DC6	A-DC7	A-DC8	A-DC9	A-DC10	A-DC11	A-DC12	A-DC13	A-DC14	A-DC15	A-DC16	A-Ph1	A-Ph2	A-Ph3	A-Ph4	A-Ph5	A-Ph6	A-Ph7	A-Ph8	A-Ph9	A-Ph10	A-Ph11	A-Ph12	A-Ph13	A-Ph14	A-Ph15	A-Ph16	

Term	0.00000e+00	0.00000e+00	0.00000e+00	0.00000e+00	0.00000e+00	0.00000e+00	0.00000e+00	0.00000e+00	0.00000e+00	0.00000e+00	0.00000e+00	0.00000e+00	0.00000e+00	0.00000e+00	0.00000e+00	0.00000e+00	0.00000e+00	0.00000e+00	0.00000e+00	0.00000e+00	0.00000e+00	0.00000e+00	0.00000e+00	0.00000e+00	0.00000e+00	0.00000e+00	0.00000e+00	0.00000e+00	0.00000e+00	0.00000e+00	0.00000e+00	0.00000e+00	0.00000e+00	0.00000e+00	0.00000e+00	0.00000e+00	0.00000e+00	0.00000e+00	0.00000e+00	0.00000e+00	0.00000e+00	0.00000e+00	0.00000e+00	0.00000e+00	0.00000e+00	0.00000e+00	0.00000e+00	0.00000e+00	
Factor	1.00000e+00	1.00000e+00	1.00000e+00	1.00000e+00	1.00000e+00	1.00000e+00	1.00000e+00	1.00000e+00	1.00000e+00	1.00000e+00	1.00000e+00	1.00000e+00	1.00000e+00	1.00000e+00	1.00000e+00	1.00000e+00	1.00000e+00	1.00000e+00	1.00000e+00	1.00000e+00	1.00000e+00	1.00000e+00	1.00000e+00	1.00000e+00	1.00000e+00	1.00000e+00	1.00000e+00	1.00000e+00	1.00000e+00	1.00000e+00	1.00000e+00	1.00000e+00	X	X	X	X	X	X	X	X	X	X	X	X	X	X	X	X	

B = Detector Channel
Val Type	B-AC1	B-AC2	B-AC3	B-AC4	B-AC5	B-AC6	B-AC7	B-AC8	B-AC9	B-AC10	B-AC11	B-AC12	B-AC13	B-AC14	B-AC15	B-AC16	B-DC1	B-DC2	B-DC3	B-DC4	B-DC5	B-DC6	B-DC7	B-DC8	B-DC9	B-DC10	B-DC11	B-DC12	B-DC13	B-DC14	B-DC15	B-DC16	B-Ph1	B-Ph2	B-Ph3	B-Ph4	B-Ph5	B-Ph6	B-Ph7	B-Ph8	B-Ph9	B-Ph10	B-Ph11	B-Ph12	B-Ph13	B-Ph14	B-Ph15	B-Ph16	

Term	0.00000e+00	0.00000e+00	0.00000e+00	0.00000e+00	0.00000e+00	0.00000e+00	0.00000e+00	0.00000e+00	0.00000e+00	0.00000e+00	0.00000e+00	0.00000e+00	0.00000e+00	0.00000e+00	0.00000e+00	0.00000e+00	0.00000e+00	0.00000e+00	0.00000e+00	0.00000e+00	0.00000e+00	0.00000e+00	0.00000e+00	0.00000e+00	0.00000e+00	0.00000e+00	0.00000e+00	0.00000e+00	0.00000e+00	0.00000e+00	0.00000e+00	0.00000e+00	-1.75373e+02	-1.30324e+02	-1.22335e+02	-1.82865e+02	-7.94388e+01	-6.73137e+01	-1.55847e+02	-1.62015e+02	-8.73043e+01	-6.50213e+01	-1.70182e+02	-1.72231e+02	-1.79732e+02	-1.76323e+02	-7.82466e+01	-1.49486e+02	
Factor	2.80776e-05	1.59647e-04	4.56555e-05	1.56367e-01	1.46645e-06	1.62896e-06	1.65078e-01	5.36098e-02	1.54737e-06	1.86707e-06	8.00233e-02	3.09967e-02	2.31372e-02	8.58255e-03	1.59471e-06	1.26389e-02	1.74870e-05	3.64141e-05	1.03222e-05	7.94208e-02	3.37746e-07	4.14866e-07	7.89372e-02	2.73144e-02	3.43380e-07	4.12689e-07	3.96292e-02	1.53309e-02	1.19582e-02	4.41765e-03	3.63355e-07	6.29802e-03	X	X	X	X	X	X	X	X	X	X	X	X	X	X	X	X	



#DISTANCE SETTINGS
A = Detector Channel
A-1	A-2	A-3	A-4	A-5	A-6	A-7	A-8	A-9	A-10	A-11	A-12	A-13	A-14	A-15	A-16	

2.5000e+00	3.0000e+00	2.5000e+00	3.0000e+00	2.0000e+00	3.0000e+00	1.5000e+00	3.0000e+00	3.0000e+00	3.0000e+00	3.0000e+00	3.0000e+00	3.0000e+00	3.0000e+00	1.5000e+00	3.0000e+00	

B = Detector Channel
B-1	B-2	B-3	B-4	B-5	B-6	B-7	B-8	B-9	B-10	B-11	B-12	B-13	B-14	B-15	B-16	

1.0000e+01	1.0000e+01	1.0000e+01	1.4400e+00	1.0000e+01	1.0000e+01	1.5100e+00	1.9400e+00	1.0000e+01	1.0000e+01	1.9900e+00	2.4900e+00	2.4100e+00	2.9000e+00	1.0000e+01	2.9800e+00	




#DATA BEGINS
time	group	step	mark	flag	A-AC1	A-AC2	A-AC3	A-AC4	A-AC5	A-AC6	A-AC7	A-AC8	A-AC9	A-AC10	A-AC11	A-AC12	A-AC13	A-AC14	A-AC15	A-AC16	A-DC1	A-DC2	A-DC3	A-DC4	A-DC5	A-DC6	A-DC7	A-DC8	A-DC9	A-DC10	A-DC11	A-DC12	A-DC13	A-DC14	A-DC15	A-DC16	A-Ph1	A-Ph2	A-Ph3	A-Ph4	A-Ph5	A-Ph6	A-Ph7	A-Ph8	A-Ph9	A-Ph10	A-Ph11	A-Ph12	A-Ph13	A-Ph14	A-Ph15	A-Ph16	B-AC1	B-AC2	B-AC3	B-AC4	B-AC5	B-AC6	B-AC7	B-AC8	B-AC9	B-AC10	B-AC11	B-AC12	B-AC13	B-AC14	B-AC15	B-AC16	B-DC1	B-DC2	B-DC3	B-DC4	B-DC5	B-DC6	B-DC7	B-DC8	B-DC9	B-DC10	B-DC11	B-DC12	B-DC13	B-DC14	B-DC15	B-DC16	B-Ph1	B-Ph2	B-Ph3	B-Ph4	B-Ph5	B-Ph6	B-Ph7	B-Ph8	B-Ph9	B-Ph10	B-Ph11	B-Ph12	B-Ph13	B-Ph14	B-Ph15	B-Ph16	aux-1	digaux	

1343.906	1	1	0	256	0.12725	0.19371	0.11383	0.13397	0.19133	0.14397	0.13258	0.22666	0.21298	0.13583	0.13064	0.25091	0.11854	0.16634	0.083243	0.29888	-2.9521	-3.1375	-3.4458	-3.2062	-3.2562	-3.5792	-3.1292	-3.4062	-3.2979	-3.15	-3.6146	-3.1896	-3.2625	-3.3833	-3.3604	-3.3354	272.092	70.362	152.356	-43.570	198.090	154.495	167.830	279.798	281.139	86.596	-55.675	9.586	14.557	-15.823	-25.956	32.356	6.9826e-05	0.00020894	8.8705e-05	258.67	2.2537e-06	1.4581e-06	331.72	74.414	2.4073e-06	2.0643e-06	115.12	41.605	22.479	6.1626	2.0883e-07	12.693	0.003354	0.006687	0.0018562	287.37	5.9706e-05	7.4328e-05	366.44	83.905	6.2445e-05	7.3297e-05	129.43	47.122	26.228	7.4078	6.451e-05	14.725	100.547	-8.752	32.924	-52.416	74.875	-26.700	-52.617	-46.486	180.408	-17.895	-48.388	-44.711	-43.842	-38.724	34.524	-40.641	-8191	255	
1344.000	1	1	0	0	0.1243	0.20414	0.21857	0.25081	0.043328	0.030713	0.057046	0.14595	0.12115	0.12686	0.073753	0.22177	0.16737	0.099707	0.075547	0.10992	-3.0021	-3.025	-3.4562	-3.2854	-3.3146	-3.5375	-3.1521	-3.4292	-3.3146	-3.1625	-3.4167	-3.3271	-2.9729	-3.4208	-2.9146	-3.1063	185.148	243.782	56.339	176.965	-12.352	-10.596	-56.777	81.832	25.351	98.948	53.407	146.249	219.818	9.260	145.254	178.048	4.1616e-05	5.1013e-05	5.1063e-05	256.55	1.0496e-06	9.8578e-07	326.33	71.604	2.0297e-06	4.3993e-06	110.19	39.341	21.356	5.8681	4.2331e-06	11.95	0.0031474	0.0063317	0.0017563	286	5.7474e-05	7.0077e-05	360.15	80.515	5.7289e-05	6.7325e-05	123.18	44.47	24.647	6.9371	5.6215e-05	13.814	93.784	-5.718	241.753	-52.589	45.066	-65.129	-52.606	-47.252	38.608	153.051	-47.951	-44.955	-43.469	-39.651	87.760	-41.025	-8191	255	
1344.096	1	1	0	0	0.13382	0.2195	0.34999	0.047945	0.12189	0.073773	0.1824	0.24428	0.10015	0.20579	0.20203	0.12579	0.21388	0.21325	0.28849	0.19342	-2.9792	-2.9688	-3.2979	-3.2292	-2.95	-3.4458	-3.1437	-3.3625	-3.4958	-3.1667	-3.5333	-3.6021	-3.05	-3.475	-3.2583	-3.4167	106.585	26.288	129.004	240.566	-57.027	-16.494	-13.405	204.661	166.720	3.091	249.835	-29.413	-22.286	141.541	65.283	210.661	3.3966e-05	0.00023486	0.00012941	253.2	1.7333e-06	1.7656e-06	323.21	68.574	3.8996e-06	2.2479e-06	105.65	37.189	20.102	5.4591	1.4543e-06	11.374	0.0026966	0.0053619	0.0014479	279.79	4.7726e-05	5.6934e-05	353.93	76.726	4.6783e-05	5.5912e-05	118.21	42.097	23.036	6.4418	4.8485e-05	13.053	175.449	69.195	88.946	-52.259	31.555	-56.102	-53.170	-47.430	23.908	27.481	-48.302	-44.738	-43.623	-39.919	221.880	-40.627	-8191	255	
1344.193	1	1	0	0	0.12044	0.22708	0.27434	0.41795	0.18851	0.20846	0.13835	0.055235	0.20733	0.21739	0.20195	0.14473	0.050064	0.2711	0.15854	0.0916	-3.1125	-3.2042	-3.3438	-3.45	-3.1833	-3.5646	-3.0583	-3.2479	-3.55	-3.2167	-3.2938	-3.3125	-3.0583	-3.3146	-3.0938	-3.1188	39.302	21.087	103.590	-43.501	61.943	101.290	270.736	-26.488	217.703	287.962	117.534	237.066	48.394	234.807	-14.597	204.773	0.00010474	2.6088e-05	1.4656e-05	250.46	5.8061e-07	3.2684e-06	318.89	66.396	1.2225e-06	2.6753e-06	103.79	36.47	19.469	5.3063	4.3151e-06	11.287	0.0024152	0.0049626	0.001389	276.63	4.7351e-05	5.7928e-05	350.8	74.834	5.0375e-05	6.0501e-05	116.54	41.442	22.778	6.3605	5.4005e-05	13.028	128.743	256.868	123.140	-52.522	190.038	92.172	-52.956	-47.222	152.626	117.452	-48.426	-44.513	-43.559	-39.625	118.890	-40.719	-8191	255	
1344.313	1	1	0	0	0.22174	0.22734	0.091436	0.082873	0.165	0.17201	0.35474	0.33444	0.083052	0.076097	0.065337	0.30446	0.063394	0.24175	0.30335	0.19664	-2.8229	-3.1167	-3.1125	-3.1958	-3.0354	-3.3729	-3.3667	-3.175	-3.6063	-3.1417	-3.5146	-3.5458	-3.2083	-3.3625	-3.2062	-2.9979	112.326	61.604	78.143	-15.931	-63.449	-54.216	32.906	-46.593	46.992	113.446	281.061	-16.727	-16.203	186.727	270.563	-14.254	0.00013424	0.00016933	2.5173e-05	252.13	2.673e-06	4.5481e-07	323.84	67.744	2.5637e-06	1.8008e-06	106.19	37.768	20.187	5.5054	4.5076e-06	11.569	0.0025979	0.0053665	0.0015094	277.72	5.0533e-05	5.9989e-05	355.2	76.384	5.2319e-05	6.4441e-05	119.23	42.827	23.521	6.609	6.2174e-05	13.474	103.464	-1.851	-30.100	-52.450	147.950	136.437	-52.813	-47.151	69.657	-18.468	-48.415	-44.582	-43.450	-39.823	79.527	-40.499	-8191	255	
1344.385	1	1	0	0	0.33135	0.21622	0.18901	0.083023	0.12554	0.21846	0.22264	0.02437	0.085379	0.079002	0.34976	0.10416	0.088658	0.10491	0.19127	0.13364	-2.9875	-3.0771	-3.0958	-3.2313	-2.9188	-3.3521	-3.3563	-2.9771	-3.2646	-3.0542	-3.0229	-3.5	-3.0479	-3.2354	-3.1854	-3.1708	26.809	-15.725	-43.880	69.018	222.760	122.470	279.924	218.897	109.273	-53.422	171.034	-26.650	134.356	117.455	186.524	281.392	4.082e-05	0.00023045	4.4676e-05	251.01	2.1934e-06	2.7873e-06	320.95	68.335	1.3565e-06	2.3653e-06	105.63	37.38	20.27	5.5293	1.6558e-06	11.473	0.0030349	0.0064075	0.0017816	280.69	6.1333e-05	7.3504e-05	355.39	77.727	6.1758e-05	7.7321e-05	119.58	43.004	24	6.7986	7.2358e-05	13.565	89.346	57.476	67.567	-52.464	207.469	124.735	-52.723	-47.306	145.911	87.664	-48.387	-44.690	-43.439	-39.151	64.224	-40.456	-8191	255	
1344.505	1	1	0	0	0.20366	0.20608	0.20394	0.41571	0.10443	0.13079	0.1472	0.035865	0.28775	0.34169	0.18499	0.21438	0.13524	0.075486	0.2072	0.15382	-3.0542	-3.1875	-3.0875	-3.3312	-2.9062	-3.3125	-3.2229	-2.9625	-3.15	-3.1937	-3.1437	-3.3146	-3.0062	-3.2562	-3.2687	-3.0604	67.951	130.163	168.835	-23.046	252.747	210.615	133.340	290.293	-44.677	285.284	266.825	98.574	285.695	-36.756	288.892	195.929	6.6226e-05	0.00034045	5.4661e-05	248.74	3.3045e-06	2.4965e-06	316.94	68.32	3.1137e-06	1.564e-06	105.89	37.87	20.699	5.6927	7.2523e-07	11.685	0.0034798	0.0073905	0.0020814	279.91	7.0128e-05	8.4726e-05	352.86	78.597	7.1478e-05	9.0023e-05	121.13	43.899	24.765	7.0864	8.4592e-05	14.076	115.295	224.321	64.855	-52.493	-32.721	44.497	-52.663	-47.082	143.995	188.448	-48.571	-44.649	-43.259	-39.308	-7.154	-40.815	-8191	255	
1344.602	1	1	0	0	0.20557	0.17064	0.04318	0.099091	0.22443	0.1676	0.17796	0.1495	0.2775	0.099295	0.088141	0.30547	0.2242	0.14269	0.096788	0.1088	-2.8104	-3.2062	-2.9375	-3.4062	-3.2708	-3.2125	-3.4979	-3.1021	-3.3208	-3.3271	-3.2	-3.2687	-3.1396	-3.0875	-3.5479	-3.125	-42.228	-13.594	32.070	115.755	260.913	55.388	193.407	-51.839	-41.521	116.779	-36.322	100.294	-0.328	255.214	213.888	277.384	5.709e-05	0.00012405	4.6912e-05	249.09	4.8462e-06	3.3956e-06	319.87	69.163	7.774e-07	1.6396e-06	107.4	38.615	21.244	5.8487	2.0914e-06	12.177	0.0040066	0.0087408	0.0024436	282.56	8.0346e-05	9.4953e-05	357.68	80.103	7.7575e-05	9.7118e-05	123.4	44.907	25.486	7.3025	8.3675e-05	14.466	58.042	280.006	32.997	-52.493	6.670	69.806	-52.738	-46.975	-36.666	-3.365	-48.500	-44.606	-43.775	-39.290	123.912	-40.949	-8191	255	
1344.698	1	1	0	0	0.041877	0.17694	0.095358	0.053944	0.21466	0.16464	0.062522	0.25211	0.075397	0.077473	0.22598	0.24616	0.14845	0.1711	0.16965	0.038339	-3.0292	-3.1937	-2.9479	-3.4208	-3.0333	-3.0208	-3.3792	-3.1167	-3.2167	-3.3917	-3.2271	-3.6021	-3.2458	-3.1833	-3.3917	-3.2062	173.175	49.770	16.642	-38.708	230.919	13.180	277.683	272.103	224.412	112.822	215.596	-37.607	-42.705	11.999	107.465	167.879	7.4486e-05	0.00033394	2.0084e-05	253.88	2.1098e-06	3.2691e-06	324.73	71.402	5.0582e-06	5.5071e-06	109.41	39.531	21.971	6.1346	1.6699e-06	12.414	0.0038928	0.0083878	0.0023115	285.56	7.7924e-05	9.4537e-05	362.68	82.236	8.0455e-05	0.0001016	126.77	46.378	26.407	7.6236	9.0067e-05	15.038	163.666	111.235	231.628	-52.260	281.490	81.978	-52.245	-47.121	-18.607	133.225	-48.289	-44.734	-43.690	-39.155	37.627	-40.836	-8191	255	
1344.792	1	1	0	0	0.094029	0.1414	0.036895	0.16756	0.049201	0.038524	0.17476	0.25169	0.14682	0.11942	0.1088	0.094307	0.092543	0.030473	0.093421	0.24774	-2.9708	-3.4813	-3.1896	-3.4167	-3.1896	-3.2375	-3.2792	-3.1437	-3.3187	-3.5354	-3.1271	-3.2708	-3.2625	-3.0875	-3.4625	-3.0229	201.955	-52.272	253.322	174.115	131.125	-23.665	-35.817	294.153	53.674	-11.910	153.873	267.268	264.651	208.311	76.120	190.314	2.9417e-05	0.00016232	7.3816e-05	255.36	3.8598e-06	1.6257e-06	323.97	71.347	4.8453e-06	4.4032e-06	108	38.968	21.343	5.8988	1.6109e-06	11.893	0.0043567	0.0094275	0.0026475	289.71	8.9572e-05	0.00010788	364.76	83.105	9.0374e-05	0.00011264	125.68	45.688	26.066	7.5284	9.5813e-05	14.592	174.521	244.430	150.109	-52.167	40.703	-2.340	-53.146	-46.861	206.636	102.681	-47.915	-44.796	-43.599	-39.554	-58.320	-40.828	-8191	255	
1344.913	1	1	0	0	0.090785	0.16582	0.3121	0.10456	0.23463	0.018308	0.23088	0.14052	0.1086	0.21443	0.067943	0.21311	0.1009	0.10221	0.16843	0.18427	-2.6875	-3.2333	-2.9625	-3.15	-3.1688	-3.0479	-3.425	-3.0479	-3.1896	-3.6	-3.2792	-3.4875	-3.4292	-3.2583	-3.6792	-3.2729	58.246	113.416	11.975	238.414	250.817	-60.908	238.114	27.640	117.745	62.843	-4.029	255.777	-30.659	-21.661	211.182	147.231	9.9275e-05	0.00033452	3.1085e-05	250.81	2.5941e-06	4.064e-06	318.21	69.621	4.9574e-07	7.2274e-06	105.8	37.627	20.688	5.6959	4.4608e-07	11.634	0.004712	0.0099389	0.0027918	286.21	9.4402e-05	0.00011376	358.57	81.495	9.4068e-05	0.00011564	123.49	44.649	25.552	7.3535	9.9448e-05	14.251	140.287	5.002	99.051	-52.671	149.657	160.806	-52.812	-46.689	165.579	16.351	-48.250	-44.353	-43.057	-39.945	132.619	-40.725	-8191	255	
1344.984	1	1	0	0	0.29666	0.14051	0.32113	0.25377	0.17699	0.21911	0.051254	0.071523	0.033608	0.066094	0.011345	0.12544	0.2021	0.053959	0.1087	0.049668	-2.9729	-3.6375	-3.1542	-3.3417	-3.2208	-3.075	-3.6	-3.2812	-3.2375	-3.4938	-3.2042	-3.1937	-3.2208	-3.0833	-3.4	-3.0208	-59.866	189.903	249.864	-37.306	171.088	286.561	-37.966	167.506	29.436	256.062	138.089	174.127	183.075	50.076	-35.575	-19.349	0.00011991	0.00033889	5.6803e-05	250.21	2.8876e-06	3.3614e-06	314.65	66.681	2.6381e-06	3.206e-06	102.36	35.668	19.494	5.3327	5.5635e-06	10.842	0.0048472	0.01001	0.0028298	284.55	9.4134e-05	0.00011238	354.69	78.3	9.4974e-05	0.00011603	120.11	42.766	24.374	7.0283	0.00010765	13.64	126.578	-0.174	-3.914	-52.268	146.254	251.670	-52.499	-47.035	190.154	-52.070	-48.369	-44.590	-43.756	-39.890	1.869	-40.492	-8191	255	
1345.081	1	1	0	0	0.15461	0.2913	0.16514	0.1904	0.23407	0.19946	0.29477	0.11272	0.12561	0.056172	0.22197	0.18931	0.22885	0.073146	0.10824	0.22657	-2.7458	-3.4313	-3.0812	-3.3292	-3.1562	-3.0042	-3.3875	-3.2438	-3.1188	-3.5042	-3.175	-3.2396	-3.4313	-3.1083	-3.6354	-3.4437	132.058	-37.062	144.802	255.978	-54.897	253.988	116.419	-34.703	277.545	197.903	147.261	143.447	112.331	-20.968	148.773	8.895	8.4176e-05	0.00028912	5.1536e-05	245.77	2.3844e-06	4.3743e-06	312.94	63.885	6.5362e-08	1.2713e-06	100.04	34.157	18.561	4.9512	6.8198e-07	10.408	0.0053203	0.010913	0.0030654	282.28	9.65e-05	0.00011324	351.02	75.027	8.753e-05	0.00010355	116.1	40.443	22.786	6.4789	9.1454e-05	12.904	131.453	264.195	207.818	-52.438	-24.995	145.182	-52.771	-47.119	21.007	44.739	-48.212	-44.739	-43.798	-39.529	215.118	-40.662	-8191	255	
1345.177	1	1	0	0	0.13558	0.029907	0.24439	0.07962	0.1325	0.07802	0.31449	0.25215	0.19281	0.14367	0.21783	0.099647	0.13702	0.14685	0.082971	0.091253	-2.7479	-3.4917	-3.1042	-3.1188	-3.2458	-3.1521	-3.5521	-3.3771	-3.2771	-3.4688	-3.2104	-3.1875	-3.3375	-3.125	-3.4396	-3.3708	266.633	245.939	180.729	182.735	285.481	-28.260	181.832	171.167	-45.254	114.616	44.998	243.254	-63.085	61.386	-41.686	73.572	2.5166e-05	7.2052e-05	0.00011788	248.17	4.9836e-06	2.4209e-06	315.19	63.211	1.8998e-06	4.8579e-06	99.564	34.22	18.326	5.0209	9.6004e-07	10.489	0.0047216	0.0096488	0.0028378	282.72	9.1709e-05	0.00011072	353.52	74.926	8.9813e-05	0.00010559	116.47	40.463	22.802	6.5184	9.1693e-05	12.871	85.362	7.379	48.442	-52.352	130.885	122.883	-52.882	-47.186	175.742	220.555	-48.701	-44.608	-43.783	-39.718	34.420	-40.435	-8191	255	
1345.296	1	1	0	0	0.26991	0.13428	0.24175	0.14836	0.14438	0.1467	0.061717	0.18372	0.2368	0.14917	0.15596	0.092004	0.088703	0.25159	0.19417	0.13046	-2.6437	-3.3771	-3.1083	-3.0125	-3.2542	-2.9667	-3.3333	-3.1521	-3.0604	-3.6104	-3.2313	-3.0771	-3.1646	-3.0583	-3.2542	-3.3375	181.859	192.880	256.519	69.789	-35.181	269.069	28.774	177.087	170.504	236.733	212.269	277.451	225.661	-13.817	182.076	171.599	7.8889e-05	0.00040154	0.00011093	247.93	2.1592e-06	5.5894e-06	313.32	63.421	3.1126e-06	3.0919e-06	100.21	34.188	18.342	5.0414	4.6716e-06	10.629	0.0045441	0.0091286	0.0027168	281.78	8.5876e-05	0.0001062	351.2	74.53	8.492e-05	9.9374e-05	115.84	40.281	22.596	6.488	8.5142e-05	12.949	131.330	72.685	155.664	-52.470	108.558	35.266	-53.083	-47.052	278.869	128.615	-48.899	-44.850	-43.837	-39.475	59.630	-41.437	-8191	255	
1345.392	1	1	0	0	0.24792	0.14439	0.13288	0.27394	0.077651	0.087284	0.051461	0.011347	0.024098	0.27096	0.2478	0.40378	0.01779	0.21062	0.094566	0.072711	-2.675	-3.3563	-3.1688	-3.2125	-3.4313	-3.1417	-3.3	-3.4667	-2.9313	-3.1792	-3.0917	-2.9417	-3.3896	-2.9917	-3.1688	-3.3292	105.753	179.766	117.910	115.271	-6.603	113.478	-43.106	187.105	187.010	-57.328	285.384	260.327	104.227	-57.726	175.548	259.513	9.1877e-05	5.61e-05	5.2436e-06	248.09	3.6271e-06	3.2938e-06	314.96	65.281	4.3617e-06	5.0936e-06	101.64	35.312	19.147	5.3448	5.3486e-06	11.312	0.0043053	0.008809	0.0026241	282.64	8.6463e-05	0.0001102	356.41	76.45	9.3363e-05	0.0001124	119.28	42.155	23.901	7.0218	0.00010324	13.882	189.561	276.041	25.980	-52.624	71.924	85.979	-53.085	-47.145	121.891	106.719	-48.600	-44.754	-43.697	-39.615	-7.796	-40.662	-8191	255	
1345.488	1	1	0	0	0.046957	0.088653	0.1544	0.19227	0.18534	0.18965	0.10444	0.05707	0.0532	0.10048	0.082468	0.084534	0.10069	0.2125	0.080865	0.076921	-2.6562	-3.3646	-3.2812	-3.0125	-3.4938	-3.1458	-3.3896	-3.6021	-2.9292	-3.2833	-3.3417	-2.9125	-3.3729	-3.1479	-3.2354	-3.3875	43.567	107.342	193.403	-4.108	170.395	275.529	219.153	31.610	199.582	138.766	-52.209	207.694	10.772	276.292	156.148	28.961	9.3249e-05	0.00033807	0.00016999	250.75	3.4007e-06	2.1013e-06	322.52	67.654	8.602e-07	6.4825e-07	105.2	37.484	20.13	5.6277	1.8321e-06	11.737	0.0050941	0.010285	0.0030225	287.74	9.5037e-05	0.00012066	364.12	79.412	9.8984e-05	0.00011592	123.7	44.566	24.963	7.3312	0.00010349	14.409	119.556	286.917	51.476	-52.551	46.017	-48.785	-52.924	-47.251	106.269	166.619	-48.412	-44.604	-43.709	-39.899	223.031	-41.017	-8191	255	
1345.584	1	1	0	0	0.04842	0.21875	0.23209	0.098401	0.29958	0.15893	0.2218	0.24109	0.22657	0.13018	0.10103	0.0477	0.31559	0.16943	0.057583	0.26266	-2.5208	-3.0083	-3.1646	-3.0062	-3.4375	-3.3208	-3.2687	-3.5062	-3.1125	-3.2167	-3.4562	-3.1979	-3.4813	-3.2146	-2.9167	-3.3812	270.597	131.265	56.576	27.501	64.342	120.720	241.120	248.075	181.083	-50.932	196.429	127.144	1.440	-25.173	146.622	-64.868	0.00011293	0.00051229	9.8118e-05	252.14	1.2675e-06	2.2774e-06	323.1	67.723	3.14e-06	6.845e-06	105.7	36.883	19.789	5.5709	1.7317e-06	11.608	0.0050451	0.010082	0.002937	289.37	9.1165e-05	0.00011473	364.71	79.06	9.0037e-05	0.00010417	121.85	43.356	24.231	7.0729	8.8555e-05	13.929	113.376	-6.357	90.520	-52.412	13.190	160.588	-52.755	-46.955	141.760	23.592	-48.631	-44.656	-43.187	-40.028	84.183	-40.492	-8191	255	
1345.680	1	1	0	0	0.072799	0.19911	0.028007	0.20663	0.12271	0.18107	0.29253	0.14958	0.18086	0.076264	0.14845	0.11213	0.076525	0.06779	0.12497	0.20568	-2.9021	-3.2521	-3.4688	-3.1188	-3.2958	-3.3438	-3.1625	-3.4083	-3.0042	-3.2583	-3.5396	-3.0792	-3.1604	-3.4542	-3.2042	-3.5083	80.912	-58.056	27.882	262.322	-18.806	50.264	230.496	-59.386	47.960	200.307	8.369	128.335	290.625	-18.962	259.177	107.489	3.3803e-05	0.00020475	5.4726e-05	249.37	5.5792e-06	2.185e-06	319.9	66.69	3.8035e-06	5.8946e-06	103.93	36.857	20.007	5.5045	2.0691e-06	11.662	0.0043606	0.0086949	0.0024992	283.88	7.7733e-05	9.838e-05	358.2	77.325	7.8011e-05	9.1338e-05	119.55	42.904	23.922	6.9045	7.6706e-05	13.785	114.115	43.735	37.809	-52.245	180.105	114.170	-52.590	-46.916	9.314	76.542	-48.538	-44.376	-43.904	-39.942	52.167	-40.846	-8191	255	
1345.776	1	1	0	0	0.27418	0.17792	0.144	0.18708	0.2358	0.30998	0.19209	0.11428	0.11951	0.13697	0.16192	0.040493	0.026897	0.12904	0.038827	0.10668	-2.6958	-3.1167	-3.5333	-3.1042	-3.4229	-3.1875	-3.0854	-3.5396	-3.1063	-3.3229	-3.6646	-3.1917	-3.5083	-3.2562	-3.1771	-3.2542	16.075	42.123	234.086	132.096	200.639	226.978	218.099	-57.701	-45.144	283.781	-42.422	223.767	270.942	216.326	224.839	274.386	6.7665e-05	0.00012413	5.9197e-05	253	1.9832e-06	1.724e-06	323.33	67.833	2.598e-06	5.2596e-06	105.61	37.708	20.158	5.6182	3.0828e-06	11.856	0.0037833	0.0075873	0.0021841	283.88	7.1352e-05	9.0781e-05	360.78	78.051	7.5542e-05	8.7882e-05	120.99	43.728	24.204	7.0267	7.8251e-05	14.018	158.078	65.098	40.165	-52.317	159.368	-22.847	-52.884	-47.214	-56.031	134.679	-48.843	-44.576	-43.647	-40.096	22.432	-41.240	-8191	255	
1345.873	1	1	0	0	0.082725	0.057763	0.28235	0.20012	0.090142	0.13883	0.33493	0.16217	0.2013	0.086324	0.3097	0.031095	0.13602	0.17619	0.12739	0.068866	-2.8063	-2.9771	-3.725	-3.1833	-3.2104	-3.2979	-3.0917	-3.3021	-3.0354	-3.1292	-3.3979	-3.0396	-3.3563	-3.3688	-3.0792	-3.3521	100.823	119.107	176.956	111.616	46.876	119.642	199.009	264.384	96.912	169.648	274.138	291.365	249.120	-11.403	-27.218	42.686	0.00010053	5.4245e-05	8.7214e-05	254.88	5.1773e-06	3.6841e-06	327.17	69.025	5.2408e-06	3.0484e-06	108.28	38.613	20.599	5.7232	3.2262e-06	12.048	0.003937	0.0079259	0.0022352	286.45	7.3231e-05	9.2286e-05	365.23	79.222	7.7906e-05	9.0547e-05	123.51	44.874	24.788	7.1762	8.1137e-05	14.359	82.982	126.979	19.994	-52.278	107.581	-27.148	-52.725	-47.037	96.244	61.104	-48.598	-45.157	-43.460	-39.793	186.842	-40.793	-8191	255	
1345.993	1	1	0	0	0.137	0.090561	0.15552	0.090762	0.058545	0.1098	0.0038143	0.20774	0.087255	0.15068	0.11712	0.12047	0.012774	0.17237	0.19459	0.067861	-2.8583	-3.2333	-3.5042	-3.0542	-3.3667	-3.4229	-2.975	-3.2125	-3.1875	-3.1	-3.5229	-3.2646	-3.2354	-3.4979	-3.0604	-3.2375	50.711	195.271	-33.746	230.456	169.583	-21.148	87.814	272.549	138.201	237.277	203.658	275.545	34.769	279.233	81.101	63.192	9.5978e-05	0.00035094	0.00013974	255.2	1.0917e-06	2.7508e-06	327.31	69.053	1.6407e-06	3.3142e-06	107.16	37.68	20.238	5.6695	2.4975e-06	11.8	0.004097	0.0081835	0.0022846	288.26	7.5114e-05	9.2933e-05	365.99	79.269	7.7193e-05	8.8904e-05	122.04	43.929	24.199	6.9723	7.6055e-05	13.856	74.391	247.712	-25.964	-52.561	-0.217	25.146	-52.867	-47.144	276.987	80.237	-48.513	-44.965	-43.774	-39.726	108.847	-40.566	-8191	255	
1346.089	1	1	0	0	0.079946	0.06672	0.1719	0.11836	0.24894	0.11263	0.18287	0.13258	0.16306	0.084525	0.17799	0.27771	0.31562	0.20176	0.057187	0.070573	-2.65	-2.8896	-3.2812	-3.2479	-3.0563	-3.5687	-3.1208	-3.1708	-3.3208	-3.2812	-3.425	-3.3604	-3.0646	-3.1896	-3.1042	-3.1312	240.676	231.652	36.277	141.450	174.961	238.062	265.709	45.752	-15.896	155.720	28.196	235.478	5.108	286.240	131.342	260.790	8.1966e-05	0.00041077	7.1875e-05	252.61	2.5952e-06	2.7471e-06	324.19	66.974	2.6045e-06	2.4069e-06	103.64	36.489	19.554	5.3769	4.2806e-06	11.136	0.0037497	0.0073717	0.0020461	283.25	6.7463e-05	8.2188e-05	358.9	76.483	6.7954e-05	7.9075e-05	117.93	42.003	23.151	6.5891	6.7526e-05	13.138	156.088	-37.092	10.638	-52.658	139.013	28.762	-52.682	-47.200	1.875	132.771	-48.618	-44.979	-43.932	-40.273	139.614	-40.706	-8191	255	
1346.185	1	1	0	0	0.099758	0.20261	0.15395	0.11635	0.15056	0.13122	0.13924	0.27267	0.023198	0.17995	0.413	0.23993	0.13266	0.22348	0.3855	0.28192	-3.0062	-3.1896	-3.3125	-3.2125	-2.7458	-3.3583	-3.0062	-3.2458	-3.55	-3.1333	-3.3312	-3.1604	-2.9375	-3.3729	-3.1229	-3.275	293.378	2.543	97.774	88.300	143.100	209.792	-4.286	166.745	275.202	25.366	280.790	284.018	-2.491	239.860	16.890	255.627	7.8039e-05	0.00023947	6.9117e-05	252.54	1.7749e-06	3.0924e-06	323.17	65.417	1.0871e-06	4.961e-06	103.37	36.13	19.167	5.3037	2.9428e-06	11.008	0.0032539	0.0065492	0.0018266	280.97	5.9398e-05	7.2347e-05	355.81	74.419	6.0906e-05	7.2572e-05	116.57	41.314	22.675	6.4572	6.5887e-05	12.992	161.015	-58.792	73.166	-52.427	-37.314	209.001	-52.735	-47.777	82.534	106.125	-48.708	-44.966	-44.270	-40.236	83.126	-41.450	-8191	255	
1346.280	1	1	0	0	0.16006	0.15278	0.085367	0.15583	0.19679	0.21784	0.10965	0.21229	0.19881	0.17862	0.13753	0.038913	0.089737	0.19916	0.15947	0.083991	-3.0667	-3.1146	-3.4667	-3.1562	-2.9625	-3.3083	-3.2188	-3.25	-3.4292	-3.1208	-3.4646	-3.1583	-3.1437	-3.3208	-2.8333	-3.1875	8.649	257.749	57.184	-9.990	257.756	-54.459	146.759	244.529	6.618	-18.652	149.627	-64.930	29.241	-47.606	264.028	253.636	2.9993e-05	0.00033205	0.00014761	252.78	1.4579e-06	1.3127e-06	323.07	65.64	2.812e-06	2.7249e-06	104.63	36.17	19.498	5.3784	2.3432e-06	11.37	0.0032055	0.0064922	0.0018059	282.13	5.9739e-05	7.2434e-05	357.67	74.632	6.0153e-05	7.3024e-05	118.07	41.824	22.966	6.5945	6.6809e-05	13.342	47.305	48.684	10.333	-52.466	290.151	163.879	-52.889	-47.268	23.010	191.401	-48.736	-45.006	-43.678	-39.771	205.857	-40.980	-8191	255	
1346.376	1	1	0	0	0.090012	0.17096	0.14669	0.16251	0.066329	0.12536	0.2957	0.26615	0.21447	0.049738	0.28694	0.10526	0.22181	0.21466	0.10782	0.043088	-2.9458	-2.9792	-3.1708	-3.1063	-2.9104	-3.5396	-3.1792	-3.1958	-3.4542	-3.1125	-3.1437	-3.5292	-3.1063	-3.4604	-3.2125	-3.1208	267.786	52.362	122.159	171.437	113.041	191.317	208.856	9.385	115.611	130.091	152.094	208.317	287.065	174.163	214.303	260.947	5.1437e-05	0.00058697	7.6524e-05	254.86	1.5111e-06	3.0649e-06	329.54	67.525	8.2662e-07	2.2518e-06	106.56	37.101	19.856	5.5481	9.5525e-07	11.455	0.0032018	0.0067052	0.0018824	284.67	6.3149e-05	7.5506e-05	364.27	76.641	6.2831e-05	7.8612e-05	120.51	42.828	23.489	6.7418	6.8454e-05	13.524	184.404	166.678	25.562	-52.445	44.040	76.039	-53.063	-47.520	145.646	-14.554	-48.511	-44.922	-43.796	-39.906	77.095	-40.890	-8191	255	
1346.472	1	1	0	0	0.10609	0.12316	0.062693	0.23441	0.22171	0.026823	0.11211	0.18028	0.25588	0.16806	0.26952	0.10958	0.076124	0.11366	0.28347	0.25623	-2.9333	-2.9396	-3.3333	-3.5708	-3.0917	-3.5354	-3.3563	-3.0479	-3.3417	-3.0354	-3.2687	-3.4958	-3.0917	-3.3896	-3.1688	-2.9229	197.567	-7.697	79.818	13.961	128.754	206.806	146.977	287.396	139.378	15.596	278.836	237.123	279.137	238.266	97.803	175.427	7.8621e-05	0.00029257	2.5818e-05	253.8	2.186e-06	2.1318e-06	322.74	66.244	2.534e-06	2.079e-06	103.66	36.321	19.628	5.3959	4.7468e-06	11.239	0.0032465	0.0068176	0.001876	282.76	6.3947e-05	7.6913e-05	357.3	75.734	6.3318e-05	7.963e-05	118.03	41.743	23.249	6.63	6.8836e-05	13.251	148.548	-23.635	-31.582	-52.585	117.376	127.502	-52.609	-47.307	83.267	200.553	-48.548	-44.949	-43.687	-39.670	49.853	-40.650	-8191	255	
1346.593	1	1	0	0	0.14522	0.17558	0.059248	0.021542	0.044859	0.099377	0.21749	0.1091	0.25303	0.17141	0.10119	0.209	0.18576	0.074895	0.064792	0.24044	-2.9708	-3.2812	-3.1625	-3.4729	-2.9625	-3.3333	-3.3125	-3.0563	-3.4125	-3.4167	-3.225	-3.3688	-3.0542	-3.1688	-3.15	-3.0917	222.967	-35.795	112.931	113.496	37.398	205.654	-51.035	269.712	195.202	-41.681	-25.689	277.159	25.176	32.507	277.151	210.576	8.3365e-05	0.00028097	8.849e-05	254.09	2.6205e-06	3.5521e-06	325.38	66.948	2.4209e-06	3.7632e-06	105.57	37.061	20.017	5.4858	4.8892e-06	11.453	0.003257	0.0068723	0.0018745	282.84	6.1665e-05	7.4514e-05	359.3	76.222	6.1496e-05	7.6292e-05	119.46	42.411	23.559	6.718	6.6787e-05	13.48	138.553	-62.263	24.198	-52.334	142.052	123.382	-52.767	-47.102	147.247	73.112	-48.631	-44.900	-43.871	-39.702	71.983	-40.921	-8191	255	
1346.689	1	1	0	0	0.43616	0.25681	0.14438	0.29641	0.082626	0.10778	0.1368	0.20101	0.16337	0.11582	0.12176	0.16301	0.16529	0.19946	0.27408	0.062062	-3.0354	-3.2271	-3.3521	-3.5167	-2.9875	-3.2042	-3.5187	-3.2771	-3.4229	-3.2583	-3.2	-3.4562	-3.1208	-3.2167	-3.4333	-3.2438	251.031	28.027	99.326	-64.400	31.342	161.817	32.978	190.348	-31.757	274.180	-50.407	40.903	241.092	232.462	219.824	232.977	3.3264e-05	0.00057227	0.00010469	254.47	2.6607e-06	2.6677e-06	329.67	67.831	1.0595e-06	2.0961e-06	109.97	38.861	21.018	5.86	5.0601e-07	12.389	0.0031521	0.0066032	0.0018285	283.87	6.0924e-05	7.3605e-05	363.6	77.721	6.263e-05	7.8781e-05	123.85	44.601	24.785	7.2113	7.2124e-05	14.515	193.665	2.518	0.673	-52.625	-50.469	5.378	-52.702	-47.499	60.065	260.047	-48.607	-44.981	-43.644	-39.705	-30.857	-40.573	-8191	255	
1346.785	1	1	0	0	0.18504	0.097979	0.066051	0.086438	0.20377	0.077199	0.12564	0.12376	0.11425	0.17982	0.20684	0.25782	0.32519	0.20891	0.20259	0.15488	-3.0625	-3.2125	-2.9271	-3.35	-3.2896	-3.3937	-3.4958	-3.1833	-3.3417	-3.1875	-2.9	-3.3708	-3.1667	-3.1792	-3.375	-3.225	93.381	11.591	-25.779	124.895	-23.766	184.531	233.846	76.051	216.073	-48.172	152.130	280.380	11.145	253.901	172.526	267.899	3.1493e-05	0.00021953	2.0605e-05	259.88	3.0719e-06	1.4017e-06	338.21	71.2	3.5528e-06	3.0809e-06	112.15	40.152	21.483	6.0543	7.7508e-06	12.49	0.0034767	0.007434	0.0020291	291.29	6.8409e-05	8.1498e-05	374.1	81.285	6.6767e-05	8.3086e-05	127.67	46.001	25.399	7.3655	6.9548e-05	14.574	196.267	45.504	145.916	-52.381	4.606	113.657	-52.683	-47.060	46.508	53.268	-48.356	-44.566	-43.624	-39.741	134.516	-40.941	-8191	255	
1346.881	1	1	0	0	0.19997	0.22183	0.18591	0.23504	0.14572	0.27368	0.14873	0.14877	0.070358	0.038475	0.20396	0.10268	0.078585	0.25177	0.25838	0.095893	-3.0792	-3.3063	-3.2438	-3.4104	-3.1646	-3.0229	-3.4188	-3.1896	-3.3438	-3.1792	-3.0042	-3.4667	-3.0417	-3.325	-3.5583	-3.225	240.164	41.917	207.891	-56.020	221.032	-61.729	78.544	-2.978	140.279	152.583	-35.973	-4.939	-20.859	75.296	-13.499	-34.574	0.00013431	0.00046356	4.7583e-05	259.51	3.2745e-06	3.1629e-06	328.56	69.347	3.512e-06	1.1645e-06	108.47	38.262	20.7	5.8361	2.8594e-06	11.996	0.0033673	0.0071091	0.0019657	288.79	6.6122e-05	7.8237e-05	365.1	79.232	6.4497e-05	7.9946e-05	123.18	44.075	24.6	7.0958	6.8679e-05	14.063	124.580	-7.487	30.697	-52.177	-36.654	256.018	-52.950	-47.180	-42.993	-9.338	-48.613	-44.975	-43.944	-40.022	3.118	-40.678	-8191	255	
1346.977	1	1	0	0	0.030309	0.072191	0.084623	0.080423	0.10377	0.20372	0.082112	0.3678	0.23462	0.13418	0.16747	0.20173	0.11611	0.27625	0.048085	0.2956	-2.7917	-3.1229	-2.9646	-3.45	-3.2812	-2.9375	-3.3083	-3.0146	-3.25	-3.5792	-2.9562	-3.4667	-3.1875	-3.0375	-3.2917	-3.0125	54.197	-12.311	67.615	207.867	32.743	84.592	134.802	207.494	27.304	-3.737	135.727	128.866	134.395	137.271	131.817	-58.529	4.6569e-05	0.00019709	6.8373e-05	255.52	1.0448e-06	1.2522e-07	328.56	68.287	3.6715e-06	3.1426e-06	106.62	37.214	19.973	5.554	9.4684e-07	11.501	0.0033832	0.0070923	0.002	285.99	6.7167e-05	7.9104e-05	362.91	77.565	6.6361e-05	7.9047e-05	120.9	42.844	23.795	6.7893	6.6255e-05	13.534	86.398	289.511	80.521	-52.504	31.008	257.666	-52.865	-47.206	93.831	25.782	-48.579	-44.657	-43.865	-39.974	-0.642	-40.947	-8191	255	
1347.074	1	1	0	0	0.052429	0.10346	0.03631	0.02994	0.22962	0.25396	0.36035	0.20119	0.059637	0.067503	0.15534	0.16589	0.1022	0.12511	0.074085	0.15539	-2.6875	-3.4	-2.9688	-3.3021	-3.3333	-3.1521	-3.3271	-3.0604	-2.95	-3.3542	-2.9417	-3.3979	-3.3896	-2.9292	-3.5458	-3.1063	286.484	197.538	-8.491	12.296	218.687	91.998	250.051	257.824	87.631	200.135	-1.401	-14.231	279.175	-41.851	238.842	204.578	8.4239e-05	0.00020973	4.448e-05	256.08	2.3066e-06	1.6586e-06	326.76	66.727	3.6124e-06	2.1378e-06	105.15	36.449	19.574	5.4099	1.1286e-06	11.227	0.0032261	0.0066332	0.0018912	285.18	6.3864e-05	7.6904e-05	361.37	76.083	6.405e-05	7.7266e-05	119.59	42.062	23.261	6.6203	6.7317e-05	13.269	121.341	57.187	77.732	-52.475	50.722	-21.711	-52.967	-47.313	-26.804	-28.208	-48.270	-44.862	-43.838	-39.895	166.883	-40.797	-8191	255	
1347.170	1	1	0	0	0.12192	0.24163	0.099839	0.075359	0.06812	0.10686	0.089059	0.067653	0.23164	0.19225	0.25635	0.17302	0.25369	0.1529	0.1737	0.14485	-2.7438	-3.2604	-2.8937	-3.3375	-3.4229	-3.2208	-3.4396	-3.275	-3.3208	-3.5125	-3.1417	-3.3292	-3.4042	-2.8104	-3.3271	-3.1937	221.548	-61.604	51.498	-22.638	133.497	235.336	89.217	47.116	201.948	292.176	-8.143	-43.164	82.088	257.392	-62.436	242.397	2.1553e-05	8.8078e-05	8.4844e-06	257.86	1.9575e-06	1.8086e-06	329.01	66.523	2.358e-06	4.332e-06	105.77	36.451	19.757	5.3838	3.0774e-06	11.134	0.0032774	0.0066702	0.0019206	287.19	6.2011e-05	7.475e-05	362.66	75.843	6.2022e-05	7.4335e-05	120.31	42.046	23.275	6.6071	6.7037e-05	13.231	-26.010	-27.514	112.760	-52.540	96.222	106.648	-53.137	-47.804	96.491	76.819	-48.271	-45.004	-43.999	-39.994	112.076	-41.083	-8191	255	
1347.266	1	1	0	0	0.12162	0.16271	0.09642	0.17266	0.034885	0.14121	0.14226	0.14345	0.07039	0.12297	0.347	0.25234	0.16963	0.19383	0.16679	0.31097	-2.6958	-3.3271	-3.0563	-3.1021	-3.4896	-3.0042	-3.2313	-3.2	-2.95	-3.6063	-3.0271	-3.3438	-3.5708	-3.1354	-3.5167	-3.1375	10.800	97.777	63.622	-12.697	147.010	196.944	-0.052	188.714	94.776	-10.369	71.158	266.642	140.381	129.062	79.901	20.022	5.7053e-05	0.0002118	3.007e-05	257.37	1.9458e-06	2.2703e-06	327.08	66.869	3.7354e-06	3.9963e-06	105.45	36.813	19.779	5.464	2.596e-06	11.341	0.0032666	0.0067073	0.0019537	287.09	6.2855e-05	7.7215e-05	360.73	76.218	6.2884e-05	7.3651e-05	119.43	41.977	23.334	6.6909	6.538e-05	13.332	81.508	101.282	71.922	-52.506	50.680	199.860	-52.993	-47.462	102.305	8.070	-48.693	-45.093	-44.003	-40.021	16.565	-40.861	-8191	255	
1347.385	1	1	0	0	0.14937	0.17469	0.13789	0.28515	0.040657	0.14305	0.18797	0.12525	0.18934	0.13968	0.087843	0.27569	0.20239	0.13502	0.13529	0.095156	-2.5687	-3.3563	-3.0812	-3.2708	-3.5187	-3.1083	-3.2667	-3.175	-3.0625	-3.6021	-3.2146	-3.2188	-3.375	-2.9229	-3.4167	-3.4208	248.949	235.708	55.481	-19.557	78.631	132.250	-52.802	101.290	268.784	255.916	31.638	273.742	201.578	291.954	18.651	283.210	5.9871e-05	0.00013671	0.0001198	257.38	8.7265e-07	2.2306e-06	327.05	67.287	1.1332e-06	2.6156e-06	106.5	37.404	19.999	5.6113	7.2105e-07	11.583	0.0032373	0.0065866	0.0019305	286.67	6.2833e-05	7.7436e-05	361.11	76.651	6.361e-05	7.5098e-05	120.82	42.729	23.748	6.8528	6.7283e-05	13.649	100.561	228.387	-6.633	-52.443	-18.685	2.113	-52.797	-47.215	-56.946	85.822	-48.602	-45.204	-44.185	-40.050	18.553	-40.865	-8191	255	
1347.481	1	1	0	0	0.208	0.12007	0.31975	0.082856	0.2204	0.15833	0.22903	0.23977	0.1005	0.24881	0.1107	0.0841	0.064504	0.29694	0.087621	0.086758	-2.7729	-3.5104	-3.1937	-3.0896	-3.3833	-2.975	-3.2042	-3.5375	-2.9729	-3.3708	-3.2104	-2.8292	-3.1521	-2.95	-3.2771	-3.4083	284.849	-33.035	66.194	148.141	-49.979	180.662	-30.464	-23.898	75.068	-53.820	38.071	177.507	170.762	-41.821	252.896	116.963	6.1693e-05	0.00010589	0.00012605	258.78	1.5863e-06	4.9253e-06	329.33	67.783	3.2041e-06	3.8037e-06	107.4	37.562	20.273	5.6597	4.382e-06	11.857	0.003322	0.0066768	0.0019667	287.55	6.2295e-05	7.7905e-05	363.09	77.44	6.3863e-05	7.575e-05	122.46	43.287	23.971	6.927	6.7593e-05	13.883	154.052	118.860	8.938	-52.581	235.893	115.772	-53.252	-47.014	62.429	51.931	-48.579	-45.080	-43.852	-40.211	100.818	-41.110	-8191	255	
1347.554	1	1	0	0	0.21488	0.10048	0.1759	0.11344	0.067209	0.12506	0.25777	0.17238	0.3943	0.086019	0.083336	0.1118	0.057774	0.09901	0.089545	0.086299	-2.7188	-3.5125	-3.275	-3.0729	-3.4417	-3.0542	-3.275	-3.3292	-3.1604	-3.2542	-3.1146	-3.15	-3.3333	-3.1229	-3.4208	-3.6396	193.347	248.876	-15.995	15.380	195.271	145.097	199.487	143.708	3.803	285.755	106.545	156.767	240.702	41.434	55.166	193.496	7.58e-05	0.00013218	8.2357e-05	258.08	3.6012e-07	1.408e-06	331.01	68.943	2.3127e-06	4.4999e-06	109.29	38.439	20.566	5.7271	2.7538e-06	11.861	0.0033724	0.0068257	0.0020207	288.33	6.3161e-05	8.0672e-05	365.9	78.116	6.5009e-05	7.6071e-05	123.61	44.079	24.173	7.0171	6.7782e-05	14.007	113.756	82.744	11.912	-52.369	249.827	55.725	-52.790	-47.371	61.170	31.464	-48.579	-44.930	-43.953	-40.193	158.624	-40.729	-8191	255	
1347.673	1	1	0	0	0.16618	0.20928	0.14979	0.10199	0.26806	0.16266	0.24753	0.087323	0.10002	0.15623	0.15252	0.14484	0.03708	0.082464	0.42175	0.26932	-2.5958	-3.4667	-3.3604	-3	-3.3708	-3.0625	-3.1188	-3.1125	-2.9229	-3.2708	-3.3354	-3.1208	-3.3542	-3.1208	-3.2313	-3.5042	247.109	16.513	105.618	11.999	11.218	28.429	238.238	166.573	219.756	129.184	-50.877	56.578	183.500	225.521	266.620	190.699	8.2261e-05	0.00037674	1.5459e-05	258.01	2.359e-06	2.4212e-06	326.98	67.943	2.2514e-06	1.075e-06	106.47	37.197	20.269	5.7206	2.0372e-06	11.799	0.0034082	0.0068372	0.0019837	287.15	6.2635e-05	8.0595e-05	362.25	77.472	6.6938e-05	7.8345e-05	121.2	43.083	23.97	6.9552	6.8437e-05	13.82	149.925	213.274	-48.567	-52.509	61.052	41.170	-52.655	-47.183	145.478	51.540	-48.615	-44.820	-43.853	-39.556	171.361	-40.823	-8191	255	
1347.769	1	1	0	0	0.14232	0.2474	0.2689	0.25141	0.20678	0.2594	0.19323	0.17271	0.20285	0.11062	0.072452	0.1027	0.25572	0.15046	0.18612	0.18586	-2.8563	-3.1875	-3.2708	-3.0271	-3.3146	-3.2104	-3.1979	-3.5521	-3.1771	-3.3729	-3.4188	-3.0292	-3.4271	-3.1729	-2.9271	-3.3354	11.217	50.565	31.881	-42.135	275.390	140.636	2.983	242.338	-19.231	209.186	201.286	97.642	-46.162	41.865	15.529	147.532	7.95e-05	0.00032916	6.1071e-05	256.16	1.5511e-06	3.9295e-06	326.03	67.527	1.3684e-06	4.8737e-06	106.74	37.519	20.274	5.6382	1.8895e-06	11.802	0.0034647	0.0068785	0.0019999	285.84	6.4743e-05	8.2403e-05	360.16	77.3	6.7725e-05	7.8573e-05	121.2	43.232	23.957	6.9343	7.1028e-05	13.817	104.015	21.035	-10.108	-52.517	129.821	124.971	-52.811	-47.382	284.639	86.887	-48.714	-44.893	-44.111	-40.079	254.572	-40.919	-8191	255	
1347.865	1	1	0	0	0.24766	0.23492	0.10072	0.17957	0.17128	0.14719	0.089288	0.17314	0.080397	0.03756	0.15402	0.090263	0.35589	0.089818	0.12467	0.042876	-2.4792	-2.975	-3.025	-2.8167	-3.1521	-3.1083	-2.8583	-3.2375	-3.1208	-3.2771	-3.4688	-3.1437	-3.4042	-3.3458	-3.1042	-3.45	39.102	197.732	265.483	226.923	-2.306	-60.611	281.859	209.605	-31.703	271.438	170.543	-51.305	78.180	38.239	228.930	266.616	6.3423e-05	0.00039666	0.00013335	256.26	1.3258e-06	2.4706e-06	326.16	67.957	1.124e-06	7.7543e-06	106.79	37.441	19.946	5.5677	1.4343e-06	11.542	0.0035661	0.0071287	0.0020232	286.72	6.6269e-05	8.3362e-05	360.91	77.331	6.9867e-05	7.9499e-05	121.37	43.146	23.825	6.8334	7.071e-05	13.581	119.574	128.607	-45.379	-52.582	293.368	66.398	-52.783	-47.572	261.969	113.596	-48.736	-44.780	-43.862	-40.369	206.126	-40.789	-8191	255	
1347.986	1	1	0	0	0.2772	0.043093	0.14903	0.069808	0.20623	0.24692	0.041556	0.053662	0.073186	0.15181	0.14356	0.23753	0.15392	0.17004	0.39138	0.12208	-2.8417	-3.1271	-3.4708	-3.2229	-3.1667	-3.0604	-2.8479	-3.1958	-3.2708	-3.1708	-3.3646	-3.1417	-3.1813	-3.2583	-2.8312	-3.4021	254.398	29.981	81.075	-30.581	12.018	-58.169	2.403	47.857	213.217	246.710	-29.120	93.530	84.164	-5.516	293.061	178.202	7.1599e-05	0.00024492	0.00014724	256.2	6.2593e-07	5.3745e-06	329.26	67.137	7.9883e-07	4.1347e-06	106.59	36.846	19.879	5.4745	1.6529e-06	11.343	0.0035418	0.0070357	0.0020163	287.43	6.5125e-05	8.1567e-05	362.82	76.322	6.861e-05	8.0048e-05	120.92	42.696	23.581	6.7632	7.2535e-05	13.459	72.259	164.004	19.017	-52.506	255.344	49.638	-52.612	-47.359	45.518	50.527	-48.435	-44.862	-43.856	-39.955	196.715	-41.039	-8191	255	
1348.080	1	1	0	0	0.13108	0.29228	0.052582	0.10786	0.1392	0.17206	0.14918	0.10832	0.038882	0.14418	0.073391	0.055666	0.15	0.054304	0.17147	0.37629	-2.5917	-3.0187	-3.4375	-3.3	-3.2396	-3.2917	-2.9813	-3.2729	-3.1813	-3.2167	-3.4375	-3.1562	-3.2521	-3.2938	-2.9604	-3.2333	-1.695	242.659	264.015	103.904	11.446	1.018	86.742	154.445	250.462	135.209	-2.221	-3.554	234.530	124.533	-20.742	255.546	6.3422e-05	0.00031356	6.5039e-05	256.27	4.1229e-06	1.7092e-06	323.7	65.553	1.7592e-06	3.7591e-06	103.5	35.58	19.178	5.2788	1.4842e-06	10.878	0.0035708	0.0070062	0.001998	286.7	6.5102e-05	8.1009e-05	359.9	75.437	6.8653e-05	7.9855e-05	117.9	41.23	22.853	6.5239	7.1786e-05	12.848	86.964	66.702	211.402	-52.459	110.592	119.634	-52.831	-47.424	110.170	147.331	-48.579	-44.608	-44.021	-39.721	288.292	-41.262	-8191	255	
1348.154	1	1	0	0	0.2028	0.11234	0.19673	0.13219	0.20118	0.31933	0.13949	0.18876	0.25139	0.29369	0.10046	0.046981	0.067687	0.057719	0.12867	0.22558	-2.8042	-3.0187	-3.4792	-3.2542	-3.1125	-3.4188	-3.1667	-3.2667	-3.1625	-3.1083	-3.4188	-3.1	-3.0479	-3.3208	-3.15	-3.4437	-0.481	153.491	32.394	14.663	50.972	182.529	251.826	237.786	100.399	91.190	39.411	251.980	105.251	290.970	259.942	130.998	6.7529e-05	0.00056917	5.0442e-05	255.01	7.4177e-07	3.625e-06	317.81	64.032	3.2451e-06	1.5866e-06	102.54	34.949	18.945	5.1609	1.4203e-06	10.613	0.0035413	0.007207	0.0020018	284.03	6.5827e-05	8.2475e-05	353.95	73.491	6.9191e-05	8.1599e-05	116.08	40.456	22.506	6.3869	7.2817e-05	12.656	104.555	60.077	93.160	-52.566	105.776	132.200	-52.942	-47.159	78.247	76.043	-48.439	-44.862	-44.652	-40.813	177.279	-41.045	-8191	255	
1348.275	1	1	0	0	0.1032	0.30994	0.27358	0.31716	0.1396	0.14044	0.17089	0.08998	0.090522	0.23587	0.15047	0.24528	0.32666	0.34143	0.2721	0.12974	-2.9562	-2.875	-3.3708	-3.225	-3.1229	-3.4792	-2.9292	-3.0938	-3.2833	-3.0563	-3.4708	-3.1188	-2.9458	-3.3563	-3.0687	-3.4333	81.583	187.314	292.900	-61.188	17.122	66.553	177.243	264.383	276.556	-24.927	130.224	-7.905	80.506	61.666	148.228	195.900	1.3861e-05	0.00028273	4.0807e-05	255.15	2.7708e-06	1.2827e-06	320.5	65.188	1.9757e-06	3.2702e-06	103.11	35.793	19.373	5.3516	2.1157e-06	11.082	0.0035643	0.0071965	0.0020168	285.45	6.6203e-05	8.171e-05	356.41	74.514	6.9348e-05	8.3001e-05	117.95	41.54	23.087	6.5959	7.4207e-05	13.148	16.078	252.873	62.458	-52.481	-3.318	66.857	-52.859	-47.438	-4.995	59.141	-48.548	-45.302	-44.046	-40.324	247.393	-40.715	-8191	255	
1348.369	1	1	0	0	0.09675	0.10692	0.10497	0.20562	0.15944	0.15528	0.075157	0.12862	0.13205	0.30152	0.14313	0.023767	0.13298	0.21964	0.11381	0.11046	-2.7062	-3.1188	-3.3333	-3.2667	-2.9958	-3.3979	-3.0104	-3.2125	-3.3375	-3.3063	-3.225	-3.0729	-2.9833	-3.4188	-3.3396	-3.1063	72.324	2.495	88.989	24.920	3.854	193.557	229.353	-48.599	166.165	15.279	48.172	30.420	25.786	167.052	13.880	-19.288	7.56e-05	0.00015971	5.8923e-05	255.21	2.9434e-06	2.8e-06	326.14	66.574	2.9485e-06	1.07e-06	106.14	36.927	19.741	5.4427	1.6832e-06	11.361	0.0036099	0.0074567	0.0020863	287.08	6.9999e-05	8.5405e-05	361.49	76.376	7.2282e-05	8.8137e-05	120.94	42.825	23.773	6.7779	7.913e-05	13.5	100.613	230.794	269.996	-52.603	54.461	49.594	-52.776	-47.501	25.685	227.772	-48.824	-45.001	-43.790	-40.096	162.858	-40.809	-8191	255	
1348.465	1	1	0	0	0.030081	0.1037	0.28248	0.43486	0.097097	0.16462	0.21669	0.34277	0.12507	0.10486	0.18122	0.14908	0.11145	0.042731	0.24895	0.27039	-3.1333	-2.9146	-3.2229	-3.3792	-2.9167	-3.4542	-3.3208	-3.1042	-3.4542	-3.1229	-3.3146	-3.1021	-2.7979	-3.3604	-3.2479	-3.1729	57.691	3.451	25.885	243.532	65.020	-32.273	272.324	289.093	115.597	164.668	131.055	213.099	140.901	-39.127	184.019	48.822	2.3029e-05	0.00054398	8.5869e-05	254.95	1.1358e-06	2.3798e-06	322.29	66.192	3.691e-06	2.5111e-06	103.82	36.12	19.69	5.4107	2.7687e-06	11.153	0.0038146	0.0079351	0.0021923	286.97	7.1903e-05	8.5905e-05	358.73	75.901	7.1211e-05	8.5857e-05	118.84	41.962	23.385	6.6598	7.5598e-05	13.262	131.887	36.079	25.746	-52.319	169.346	92.460	-53.071	-47.184	147.059	30.990	-49.018	-44.994	-43.817	-40.216	65.021	-40.738	-8191	255	
1348.561	1	1	0	0	0.21117	0.14329	0.032341	0.13366	0.28364	0.11452	0.1131	0.07036	0.090721	0.088171	0.096021	0.28016	0.14807	0.12535	0.14127	0.15803	-2.8625	-2.9604	-3.0396	-3.3875	-3.0208	-3.3083	-3.0979	-2.9542	-3.3958	-3.1083	-3.2625	-3.4354	-3.1208	-3.2604	-3.2062	-2.9229	-54.770	140.988	148.364	37.510	201.901	288.082	175.406	-36.127	283.268	237.136	278.605	150.325	-41.794	232.366	126.090	76.473	5.8932e-05	0.00016524	0.00012317	252.89	1.2535e-06	2.5001e-06	319.13	66.601	2.5248e-06	1.9925e-06	104.77	36.263	19.605	5.4637	3.5722e-06	11.167	0.0035769	0.0074718	0.0020478	283.24	6.8665e-05	8.2346e-05	353.68	75.796	6.9072e-05	8.4869e-05	118.82	41.971	23.463	6.6929	7.4171e-05	13.302	126.998	124.462	-7.523	-52.275	-3.986	92.215	-52.885	-47.521	44.821	120.518	-48.382	-45.097	-43.958	-40.357	30.327	-41.002	-8191	255	
1348.682	1	1	0	0	0.33377	0.1431	0.12426	0.11191	0.17848	0.18552	0.15166	0.17293	0.081485	0.2387	0.031584	0.12924	0.17704	0.089593	0.11239	0.090037	-2.9792	-3.2521	-3.1083	-3.3875	-2.8875	-3.4604	-3.3729	-3.1562	-3.3229	-2.9938	-3.1208	-3.55	-3.3167	-3.3042	-3.2875	-3.1042	246.634	169.825	242.315	84.242	152.162	-13.022	152.608	169.775	88.425	-18.186	37.020	280.369	42.729	215.975	-17.093	191.557	8.1653e-05	0.00029304	2.2367e-05	251.21	4.1985e-06	2.8195e-07	321.42	66.865	1.1404e-06	6.3756e-06	105.89	37.221	20.2	5.5249	1.0502e-06	11.566	0.0035257	0.0074088	0.0020271	283.13	6.804e-05	8.0582e-05	355.31	76.54	6.7632e-05	8.3346e-05	120.15	42.961	24.002	6.8637	7.6087e-05	13.759	107.787	-22.167	37.539	-52.331	126.111	289.486	-52.845	-47.243	227.447	98.460	-48.379	-45.067	-43.816	-39.690	20.582	-40.993	-8191	255	
1348.778	1	1	0	0	0.076388	0.048984	0.080496	0.28835	0.26133	0.071031	0.26459	0.045401	0.14881	0.10765	0.11896	0.072914	0.17627	0.047969	0.21169	0.16268	-2.9375	-3.0354	-2.9958	-3.3146	-3.05	-3.5771	-3.4188	-3.1063	-3.2771	-3.2271	-2.8625	-3.1813	-2.9708	-3.1083	-3.3187	-3.0917	108.466	290.036	214.289	242.208	-46.434	273.409	208.181	188.093	149.168	257.158	292.787	-2.553	29.803	163.270	39.030	165.976	5.9171e-05	0.00024724	3.5533e-05	255.01	2.661e-06	3.9648e-06	323.77	67.103	2.935e-06	4.2237e-06	106.23	37.571	20.029	5.5979	1.7055e-06	11.628	0.0037347	0.0080958	0.00224	286.98	7.8567e-05	9.29e-05	361.42	77.948	7.8334e-05	9.7163e-05	122.16	43.72	24.307	7.0056	8.2779e-05	13.91	88.853	254.367	18.865	-52.250	50.483	53.256	-52.648	-47.282	-21.668	139.459	-48.560	-44.651	-44.285	-40.392	111.013	-40.782	-8191	255	
1348.850	1	1	0	0	0.051848	0.11016	0.022859	0.1107	0.21588	0.032232	0.11544	0.13012	0.19351	0.12182	0.15229	0.07579	0.36875	0.16666	0.1751	0.2743	-2.8875	-3.1542	-2.9188	-3.2583	-2.8479	-3.2687	-3.3729	-3.0542	-3.3438	-3.2062	-2.9708	-3.2021	-3.0167	-3.1333	-3.4208	-3.3542	23.904	17.814	253.470	70.396	94.563	35.292	246.477	133.127	-55.779	190.503	26.376	29.534	153.156	285.843	-44.303	17.459	7.8404e-05	0.0001749	0.0001306	254.24	2.109e-06	5.6302e-06	322.74	66.609	3.6047e-06	2.4272e-06	103.7	35.974	19.336	5.2947	2.1659e-06	10.893	0.0039169	0.0081407	0.0022337	286.35	7.4079e-05	8.708e-05	358.13	76.395	7.0155e-05	8.7098e-05	118.27	41.742	23.159	6.5629	7.3262e-05	12.958	104.433	125.621	-11.603	-52.791	229.725	123.114	-52.711	-47.292	91.153	55.355	-48.644	-44.645	-43.832	-39.929	48.124	-40.613	-8191	255	
1348.946	1	1	0	0	0.12718	0.22302	0.064465	0.16344	0.1952	0.2294	0.089689	0.17931	0.16592	0.019553	0.057137	0.15289	0.30207	0.32397	0.22502	0.11636	-2.8792	-3.2104	-2.7021	-3.1958	-3.2396	-3.2583	-3.3771	-3.0625	-3.075	-3.2687	-3.1875	-3.4167	-3.0938	-2.9562	-3.2875	-2.9917	33.970	246.776	127.982	18.411	287.513	3.738	38.987	21.119	60.814	-58.755	-19.860	-1.484	153.751	3.763	-31.052	214.881	4.7372e-05	0.00022083	7.6269e-05	251.66	7.0154e-07	2.2507e-06	316.96	63.776	2.7737e-06	1.2106e-06	101.06	34.586	18.809	5.1282	2.3123e-06	10.665	0.0034858	0.0073731	0.0020582	281.36	6.8597e-05	8.0568e-05	350.21	73.421	6.5865e-05	8.1755e-05	114.95	39.976	22.404	6.3453	6.8831e-05	12.599	103.547	-12.503	37.075	-52.756	208.939	-52.244	-52.987	-47.579	273.910	47.142	-48.674	-45.063	-44.079	-39.939	-22.776	-40.663	-8191	255	
1349.066	1	1	0	0	0.10406	0.091934	0.21992	0.27617	0.12173	0.22833	0.39459	0.14896	0.1505	0.093867	0.27152	0.14964	0.026482	0.13879	0.1686	0.1536	-2.6104	-3.2625	-3.0625	-3.2479	-3.0896	-3.2292	-3.6	-3.0917	-3.2542	-3.3208	-3.1917	-3.3083	-3.1875	-2.9625	-3.4271	-3.0146	203.160	75.455	-23.812	-13.719	-39.733	120.157	-46.515	162.955	289.632	-16.689	-62.409	-57.729	-22.902	54.770	-2.281	280.401	4.2014e-05	0.00044132	4.6384e-05	250.78	1.7344e-06	3.7961e-06	315.13	63.842	2.5809e-06	2.6107e-06	100.79	34.849	18.781	5.1192	2.435e-06	10.966	0.003251	0.0068735	0.0018833	279.8	6.1508e-05	7.299e-05	348.67	72.548	5.7738e-05	7.0726e-05	114.2	39.901	22.151	6.24	5.8455e-05	12.71	54.524	9.860	-41.792	-52.427	188.017	72.275	-53.113	-47.466	97.108	3.322	-48.694	-45.223	-44.092	-40.186	68.480	-41.099	-8191	255	
1349.163	1	1	0	0	0.189	0.17821	0.11766	0.14531	0.25252	0.062023	0.2827	0.3445	0.12256	0.030494	0.28298	0.15782	0.15573	0.067107	0.22045	0.17971	-2.8917	-3.4188	-3.0021	-3.2104	-3.2	-2.9562	-3.3958	-3.1833	-3.2083	-3.3396	-2.8042	-3.3604	-3.375	-2.9708	-3.4167	-3.2	126.905	284.139	-44.790	-22.590	150.384	-22.009	294.405	156.197	-6.660	-62.750	212.917	272.406	114.253	133.848	37.086	256.013	5.6842e-05	0.00026576	8.5815e-05	253.55	1.9187e-06	2.0654e-06	322.16	66.037	2.2397e-06	2.3444e-06	105.77	36.947	19.775	5.4496	1.3829e-06	11.667	0.0028261	0.0058389	0.001642	280.16	5.4003e-05	6.4556e-05	354.32	74.376	5.188e-05	6.3012e-05	118.29	41.99	22.976	6.5381	5.3867e-05	13.374	139.076	123.561	166.802	-52.325	35.124	163.231	-52.917	-47.381	34.871	242.229	-48.647	-44.751	-43.834	-40.315	60.850	-40.543	-8191	255	
1349.257	1	1	0	0	0.043739	0.30325	0.13734	0.10963	0.21335	0.20031	0.085245	0.15534	0.2861	0.11337	0.072736	0.21185	0.28111	0.14122	0.29007	0.2021	-2.6562	-3.2083	-2.8708	-3.2125	-3.1437	-3.0896	-3.4917	-3.1833	-2.7979	-3.2542	-3.0854	-3.3458	-3.375	-3.0375	-3.3271	-3.1729	198.715	121.139	236.035	247.943	-57.809	124.397	236.090	-21.131	-53.552	114.884	-5.900	248.521	147.825	132.930	106.484	182.843	0.00010533	0.00014084	5.9475e-05	254.37	2.1801e-06	2.1303e-06	326.53	66.647	3.2054e-06	1.1303e-06	105.26	37.075	19.617	5.4751	6.9431e-07	11.471	0.0026037	0.0054448	0.0015455	280.94	5.0328e-05	6.1314e-05	357.45	75.054	4.9917e-05	5.9712e-05	117.72	41.952	22.84	6.5212	5.131e-05	13.179	107.209	137.457	86.422	-52.284	47.882	25.361	-52.593	-47.615	165.756	105.664	-48.678	-45.205	-43.735	-39.826	85.069	-40.917	-8191	255	
1349.355	1	1	0	0	0.21475	0.11164	0.1513	0.27801	0.090274	0.10945	0.14646	0.13937	0.43867	0.24051	0.20541	0.17309	0.30531	0.24705	0.11987	0.11322	-2.7146	-3.4542	-3.05	-3.3479	-3.5667	-2.9667	-3.3229	-3.1188	-3.0667	-3.5208	-3.2313	-3.0417	-3.3083	-3.1896	-3.3	-3.1646	143.976	257.108	51.318	231.717	-48.503	134.247	-41.976	142.170	236.787	189.261	23.294	271.850	7.403	262.402	80.032	283.386	8.2299e-05	0.00022348	4.036e-05	252.39	3.7788e-06	1.4073e-06	321.39	65.793	1.1455e-06	2.476e-06	103.93	36.307	19.454	5.4103	1.8898e-06	11.378	0.0025011	0.0051077	0.0014739	277.6	4.8156e-05	5.902e-05	350.69	73.719	4.8271e-05	5.7852e-05	116	41.107	22.564	6.4403	5.0428e-05	12.999	111.990	292.483	17.330	-52.568	-23.531	126.402	-52.876	-47.295	271.523	90.706	-49.111	-45.275	-44.179	-40.442	141.576	-40.972	-8191	255	
1349.449	1	1	0	0	0.083189	0.14251	0.11023	0.13319	0.15061	0.080533	0.12812	0.068624	0.16041	0.12575	0.2299	0.14337	0.11605	0.097609	0.33571	0.1353	-2.725	-3.1	-2.875	-3.2292	-3.3479	-2.6625	-3.3458	-3.2896	-3.0229	-3.35	-3.1208	-3.2396	-3.4208	-2.8375	-3.3583	-3.1292	183.499	85.535	217.174	-59.844	-50.308	262.549	266.321	159.381	99.802	15.642	254.253	100.512	112.307	79.120	99.219	206.360	5.6412e-05	0.00032555	5.5674e-05	253.37	6.8193e-07	2.9045e-06	321.06	65.131	1.8285e-06	4.2684e-06	104.45	36.171	19.482	5.4187	2.1977e-06	11.226	0.0025076	0.0050649	0.0014552	277.07	4.7991e-05	5.8716e-05	350.68	72.974	4.8024e-05	5.6535e-05	115.86	41.015	22.468	6.4263	5.0276e-05	12.951	129.851	18.478	172.144	-52.265	-14.536	46.467	-52.917	-47.458	-4.273	-38.716	-48.847	-44.832	-44.633	-40.491	-34.634	-41.384	-8191	255	
1349.545	1	1	0	0	0.1353	0.11653	0.17436	0.012729	0.14964	0.21392	0.22837	0.060809	0.16922	0.16542	0.078236	0.17335	0.15694	0.21396	0.16109	0.059611	-2.6063	-3.2542	-3.15	-3.0417	-3.3667	-3.1437	-3.5396	-3.2417	-3.1271	-3.4354	-3.1208	-3.0396	-3.3354	-3.0563	-3.2313	-3.3417	258.859	5.414	5.822	227.678	163.536	103.629	256.919	131.148	-16.543	96.534	211.813	27.419	122.326	247.691	47.441	82.610	8.4166e-05	0.00025107	4.1608e-05	253.2	1.4171e-06	2.6743e-06	320.27	65.422	3.2249e-06	2.0978e-06	104.26	36.424	19.327	5.4311	1.5238e-06	11.189	0.0025504	0.0050672	0.0014893	277.88	4.859e-05	6.0207e-05	351.34	73.257	4.9883e-05	5.8072e-05	116.39	41.207	22.502	6.442	5.1135e-05	12.925	112.036	152.026	51.305	-52.638	111.352	118.226	-52.867	-47.182	210.637	179.957	-48.705	-44.991	-44.235	-40.235	66.335	-41.509	-8191	255	
1349.666	1	1	0	0	0.19714	0.31856	0.12398	0.025731	0.15104	0.226	0.041604	0.098923	0.14659	0.19253	0.06167	0.19164	0.073131	0.19534	0.21324	0.11909	-2.6375	-3.3854	-2.9667	-3.0229	-3.4521	-3.1146	-3.2167	-3.3708	-3.1083	-3.4083	-3.3083	-2.9396	-3.4062	-3.2833	-3.2792	-3.4521	208.612	239.017	56.729	164.493	-3.105	54.039	157.071	215.078	214.462	144.812	95.600	266.535	99.640	227.564	286.945	270.368	0.00010034	0.00016218	9.7429e-05	251.79	2.2263e-06	2.0208e-06	319.85	64.119	3.5396e-06	2.7336e-06	101.32	34.875	18.795	5.1996	1.0477e-06	10.542	0.0025933	0.005039	0.0015032	277.81	4.8124e-05	5.9899e-05	350.2	72.241	4.9108e-05	5.698e-05	113.52	39.427	21.721	6.1919	5.0861e-05	12.211	143.142	56.181	207.114	-52.488	-63.817	1.923	-53.096	-47.644	105.035	88.872	-49.161	-44.991	-44.274	-40.651	-3.687	-41.440	-8191	255	
1349.762	1	1	0	0	0.13251	0.081727	0.20765	0.292	0.10936	0.13174	0.10503	0.070519	0.10842	0.014875	0.2463	0.084887	0.11901	0.075426	0.19555	0.072849	-2.4813	-3.4083	-3.4688	-2.9688	-3.3229	-3.1625	-3.2083	-3.2958	-3.0354	-3.2417	-3.2229	-2.9979	-3.3646	-3.2542	-2.8771	-3.4562	204.262	233.979	258.145	6.225	266.556	-34.801	140.477	276.135	85.540	157.171	-43.179	141.843	17.461	176.287	-60.096	197.917	8.1701e-05	0.00026768	4.1984e-05	250.13	1.4667e-06	1.6207e-06	310.62	62.723	1.4504e-06	1.3461e-06	98.768	33.579	18.552	5.0951	2.7584e-06	10.147	0.0025767	0.0050343	0.0014831	275.68	4.6755e-05	5.8968e-05	341.85	70.37	4.8789e-05	5.6571e-05	110.43	38.176	21.476	6.0803	5.2973e-05	11.842	189.616	32.453	58.686	-52.519	62.129	185.755	-53.087	-48.145	24.976	111.402	-49.279	-44.967	-44.924	-40.876	128.995	-41.212	-8191	255	
1349.858	1	1	0	0	0.1864	0.046617	0.25942	0.20559	0.041354	0.14545	0.046315	0.16134	0.18805	0.27154	0.061785	0.083455	0.17763	0.17712	0.14024	0.17716	-2.5062	-3.2458	-3.3542	-3.1083	-3.2979	-3.2729	-3.2625	-3.4458	-2.9313	-3.2646	-3.3208	-2.9229	-3.2583	-3.1021	-3.1188	-3.4	-49.129	183.617	-54.551	171.606	210.738	217.227	181.332	219.778	119.916	57.575	7.617	190.950	281.479	224.714	88.417	226.502	4.52e-05	0.00017508	8.5816e-05	250.91	2.534e-06	1.9317e-06	313.37	62.447	1.8153e-06	3.8997e-06	98.952	33.565	18.364	5.0686	1.3214e-06	10.189	0.0026501	0.0052018	0.0015221	276.4	4.8505e-05	6.1407e-05	341.9	70.258	5.118e-05	5.9357e-05	110.84	38.234	21.509	6.1175	5.4876e-05	11.928	136.778	142.595	-1.664	-52.956	33.161	162.176	-53.091	-47.595	33.813	190.958	-48.703	-45.298	-44.512	-41.051	-52.219	-41.330	-8191	255	
1349.955	1	1	0	0	0.20065	0.16508	0.14598	0.11646	0.10334	0.28118	0.083973	0.076963	0.12093	0.12003	0.041093	0.097966	0.032961	0.16591	0.10979	0.027717	-2.4	-3.2104	-3.3021	-3.0729	-3.3479	-3.2417	-2.9938	-3.4208	-3.1896	-3.2	-3.5062	-3.0812	-3.3083	-3.1542	-3.1875	-3.5	188.936	-10.454	200.447	291.362	285.076	62.103	265.457	4.954	225.477	98.931	185.043	199.942	148.483	1.771	56.692	270.629	7.7864e-05	0.00030894	9.7575e-05	250.96	2.7203e-07	1.24e-06	314.26	62.904	4.2419e-07	2.8016e-06	100.17	34.435	18.891	5.1068	3.9376e-06	10.313	0.0027379	0.0053907	0.0015799	278.02	5.057e-05	6.4035e-05	345	71.133	5.3549e-05	6.2866e-05	112.84	39.144	22.046	6.1979	5.6759e-05	12.079	91.676	-19.909	-20.357	-52.860	168.445	10.229	-52.994	-47.679	144.840	-55.455	-48.900	-45.591	-44.759	-40.373	64.387	-41.030	-8191	255	
1350.075	1	1	0	0	0.3774	0.037664	0.31576	0.18182	0.19323	0.26802	0.18027	0.23458	0.19346	0.062811	0.26788	0.18198	0.10491	0.34658	0.16966	0.045744	-2.6625	-3.2646	-3.2458	-3.2687	-3.325	-3.2979	-3.0896	-3.3312	-3.0958	-3.0979	-3.2917	-3.2708	-3.4313	-3.4	-2.9625	-3.4125	85.726	137.143	6.144	263.580	165.409	65.885	157.748	239.444	-51.959	-46.726	241.716	41.860	179.229	259.209	47.504	263.009	3.9622e-05	0.00027083	0.00010451	253.35	3.7098e-07	3.8782e-06	311.53	62.8	9.7948e-07	3.6601e-06	99.151	33.608	18.583	5.0475	2.9374e-06	10.002	0.0028095	0.0056616	0.0016162	278.89	5.1771e-05	6.6161e-05	343.52	71.171	5.5602e-05	6.4513e-05	111.84	38.471	21.796	6.1097	5.8173e-05	11.711	72.532	171.863	78.156	-52.696	198.163	74.589	-53.109	-47.667	257.758	90.097	-49.265	-45.496	-44.359	-40.798	-11.290	-41.578	-8191	255	
1350.147	1	1	0	0	0.090524	0.25016	0.18682	0.047408	0.05035	0.085199	0.16258	0.13828	0.19907	0.062264	0.101	0.021425	0.34358	0.18614	0.27128	0.189	-2.8292	-3.0917	-3.1229	-2.9479	-3.0312	-3.4042	-3.0979	-3.3333	-3.0438	-3.0417	-3.3333	-3.1437	-3.2333	-3.3354	-2.9854	-3.3396	144.616	-62.309	155.433	209.071	20.447	6.027	84.740	37.946	145.582	45.037	112.567	202.697	-10.682	51.608	7.774	145.391	0.0001022	0.00015408	9.9104e-05	249.04	2.9516e-06	2.7303e-06	305.66	61.948	1.4705e-06	3.2603e-06	97.451	33.128	18.762	4.9618	1.7091e-06	9.9237	0.0028993	0.005822	0.0016602	275.77	5.4031e-05	6.817e-05	336.53	69.965	5.7746e-05	6.7896e-05	109.9	37.961	21.81	6.0921	6.0686e-05	11.699	102.720	0.968	-17.452	-52.993	42.570	131.111	-53.097	-47.525	-43.443	88.034	-48.840	-45.574	-45.046	-40.927	45.895	-41.397	-8191	255	
1350.243	1	1	0	0	0.2288	0.14899	0.22052	0.18387	0.16058	0.13273	0.022651	0.11821	0.39162	0.077129	0.12856	0.2919	0.14638	0.14373	0.072907	0.14178	-2.7021	-2.975	-3.2375	-3.175	-3.1396	-3.2667	-2.7958	-3.2417	-3.2708	-2.8667	-3.4208	-2.8625	-3	-3.2458	-3.1708	-3.4437	279.392	145.613	15.180	43.315	266.941	267.793	36.826	191.183	211.278	257.462	-36.492	210.049	18.142	-8.264	170.565	182.640	9.0706e-05	0.00015049	8.0776e-05	247.32	1.2502e-06	2.6905e-06	306.14	61.747	3.4185e-07	1.5459e-06	97.683	32.82	18.409	4.971	1.7799e-06	9.8788	0.0029605	0.005954	0.0016624	274.23	5.3999e-05	6.72e-05	337.04	69.853	5.6605e-05	6.6856e-05	110.13	37.904	21.632	6.0502	5.855e-05	11.627	145.677	-29.002	29.606	-52.696	141.813	31.042	-53.256	-48.174	169.670	176.606	-49.085	-45.699	-45.090	-40.210	82.512	-41.510	-8191	255	
1350.337	1	1	0	0	0.070842	0.17247	0.37841	0.18455	0.051341	0.39336	0.12321	0.28148	0.23165	0.1089	0.23433	0.10372	0.11926	0.41024	0.08229	0.10133	-2.9896	-2.9333	-3.2375	-2.9375	-2.9292	-3.1917	-3.0417	-3.2771	-3.3	-3.1229	-3.3354	-3.1833	-2.9875	-3.3854	-2.9333	-3.075	218.730	278.544	-40.738	248.706	77.632	188.582	-41.198	-59.036	29.719	-38.843	156.552	109.300	274.704	119.219	23.855	237.846	4.33e-05	0.00024342	0.00011503	249.66	2.278e-07	4.0542e-06	305.93	61.739	2.3184e-06	4.4918e-07	98.205	32.931	18.556	4.9346	2.3592e-06	9.9029	0.0029219	0.0058186	0.0016242	276.63	5.3592e-05	6.6692e-05	338.61	69.843	5.5152e-05	6.5381e-05	110.43	37.956	21.611	5.9771	5.7175e-05	11.581	111.465	6.434	18.700	-52.583	34.810	235.381	-53.139	-47.920	41.099	76.069	-48.706	-45.698	-44.742	-40.768	80.719	-41.220	-8191	255	
1350.458	1	1	0	0	0.060008	0.22515	0.25335	0.19521	0.34769	0.18971	0.139	0.33936	0.12424	0.072864	0.037529	0.18248	0.40691	0.13593	0.24385	0.14763	-3.05	-2.9313	-3.3708	-3.1604	-2.9625	-3.4188	-3.2021	-3.2333	-3.5271	-3.1229	-3.1688	-3.0583	-3.0167	-3.3917	-3.1167	-3.1646	162.815	-16.403	15.401	219.207	84.850	231.313	193.857	195.880	157.274	-9.565	225.136	39.672	9.636	40.116	-40.785	54.913	4.077e-05	0.00019247	6.4704e-05	252.37	1.0353e-06	1.9998e-06	309.46	62.372	2.7272e-06	2.8826e-06	98.648	33.699	18.626	4.9711	1.9572e-06	10.132	0.0028302	0.0057072	0.0015507	278.06	5.2124e-05	6.4152e-05	340.87	70.496	5.3739e-05	6.3717e-05	111.03	38.407	21.786	6.0428	5.6666e-05	11.878	124.589	35.319	17.457	-52.650	242.038	151.835	-52.831	-47.849	71.295	60.866	-49.343	-45.499	-45.190	-40.483	281.967	-41.086	-8191	255	
1350.554	1	1	0	0	0.27358	0.040041	0.11246	0.095374	0.10147	0.15477	0.021955	0.043641	0.012251	0.024645	0.08037	0.14953	0.12201	0.21763	0.2367	0.081947	-2.9188	-2.8167	-3.3208	-3.1896	-3.1146	-3.3917	-3.2313	-3.0979	-3.5271	-3.0396	-3.3271	-3.1083	-3.0792	-3.5604	-3.1292	-2.9292	202.333	34.386	267.367	167.830	178.683	261.779	122.024	102.747	67.160	270.785	-53.774	18.962	173.559	41.565	32.837	98.253	7.8031e-05	0.00028744	6.8226e-05	249.24	5.959e-07	3.5099e-06	307.28	62.129	3.4481e-06	2.835e-06	99.552	33.878	18.946	5.0941	2.8297e-06	10.443	0.0027492	0.005611	0.001542	275.73	5.2226e-05	6.1952e-05	337.55	70.442	5.2975e-05	6.3385e-05	111.41	38.636	21.933	6.124	5.644e-05	12.095	125.231	79.215	36.436	-52.928	177.176	80.326	-53.030	-47.497	130.025	79.497	-49.125	-45.163	-44.511	-40.276	59.815	-41.244	-8191	255	
1350.650	1	1	0	0	0.098039	0.091021	0.16499	0.2477	0.26032	0.20731	0.32624	0.27921	0.065831	0.32079	0.037965	0.10377	0.27148	0.12836	0.1855	0.088911	-2.9292	-3.0854	-3.2396	-3.3604	-2.8812	-3.3917	-3.3292	-3.1979	-3.2833	-3.0833	-3.1875	-2.9542	-3.0167	-3.4083	-3.3604	-2.8979	81.842	227.217	251.292	-30.901	175.018	237.652	92.465	-0.564	142.950	68.611	205.759	266.176	-9.163	222.460	31.042	232.206	6.7754e-06	2.0131e-05	4.5322e-05	249.27	4.1682e-06	1.17e-06	310.75	62.783	4.9016e-07	3.0594e-06	100.24	34.442	19.049	5.1866	1.9645e-06	10.53	0.0027053	0.0056141	0.001545	275.32	5.1845e-05	6.265e-05	339.87	70.84	5.2579e-05	6.3362e-05	112.38	39.32	22.09	6.2267	5.7107e-05	12.279	154.064	157.423	-5.438	-52.660	43.553	48.007	-53.102	-47.532	227.025	94.325	-49.129	-45.483	-44.566	-40.633	231.960	-41.323	-8191	255	
1350.746	1	1	0	0	0.10279	0.22633	0.20122	0.019182	0.15365	0.1734	0.12252	0.17517	0.061515	0.20864	0.1121	0.013929	0.099343	0.084106	0.096213	0.16441	-2.8771	-2.9229	-3.2125	-3.3833	-3.0771	-3.5312	-3.3312	-2.9188	-3.3187	-3.0833	-3.3563	-3.4083	-2.75	-3.5438	-3.0875	-3.1917	41.482	23.916	168.089	115.043	-50.624	69.917	128.966	72.603	179.411	2.087	-39.042	229.673	175.833	285.486	38.369	54.945	6.2401e-05	0.00045512	5.6261e-05	249.23	3.2156e-06	3.2916e-06	312.42	63.374	1.6614e-06	2.3607e-06	101.04	34.829	18.974	5.2688	8.7671e-07	10.812	0.0027394	0.0056297	0.0015795	275.11	5.2657e-05	6.305e-05	342.01	71.426	5.3264e-05	6.5086e-05	113.68	39.923	22.274	6.3475	5.7812e-05	12.556	95.359	66.014	1.557	-52.681	69.213	161.757	-52.970	-47.481	-16.492	147.672	-48.952	-44.976	-44.312	-40.749	245.556	-40.997	-8191	255	
1350.843	1	1	0	0	0.16292	0.095985	0.29746	0.068358	0.17271	0.14925	0.028233	0.17482	0.19192	0.17177	0.13112	0.026203	0.19926	0.083038	0.21434	0.13931	-3.1979	-3.0042	-3.0167	-3.4021	-3.1312	-3.4167	-3.2083	-2.9042	-3.3833	-3.2042	-3.0667	-3.3729	-3.0687	-3.3563	-3.3167	-3.0646	279.140	236.324	-64.945	29.946	119.738	186.169	155.523	-12.628	39.283	41.633	214.896	-38.080	226.301	-60.196	278.550	165.278	0.00011496	0.00021468	9.7087e-05	248.74	3.7764e-06	1.4188e-06	310.17	63.182	1.808e-06	1.6045e-06	99.441	34.109	18.751	5.0968	1.9344e-06	10.287	0.002728	0.0057184	0.0015737	274.4	5.1558e-05	6.0622e-05	341.61	71.026	5.0364e-05	6.2715e-05	111.85	38.865	21.725	6.1144	5.3677e-05	11.964	128.536	35.096	-10.924	-52.770	-32.927	149.046	-52.817	-47.425	106.214	138.101	-49.070	-45.452	-44.694	-40.489	-4.605	-41.134	-8191	255	
1350.939	1	1	0	0	0.28824	0.22371	0.19869	0.098049	0.12932	0.30457	0.10435	0.16869	0.20277	0.11695	0.14975	0.098675	0.31105	0.12189	0.27354	0.16589	-2.8208	-3.2229	-3.3312	-3.35	-2.9229	-3.2208	-3.4833	-3.0938	-3.2833	-2.9646	-3.0104	-3.5354	-3.2146	-3.1875	-3.2438	-3.0104	-49.699	-38.984	116.306	123.392	57.887	281.000	102.341	-38.300	168.500	219.186	261.659	219.570	37.062	233.297	30.279	155.185	4.0792e-05	0.00029576	6.8612e-05	246.76	1.7054e-06	2.6594e-06	305.62	61.641	3.5454e-06	2.956e-06	97.134	33.221	18.223	4.9819	3.1475e-06	10.18	0.0024855	0.0052903	0.0014491	271.73	4.8366e-05	5.7066e-05	335.59	69.264	4.6312e-05	5.7857e-05	108.84	37.607	21.167	5.9623	5.059e-05	11.835	76.235	7.821	54.661	-52.794	155.468	63.948	-53.415	-47.398	125.947	21.765	-49.045	-45.366	-44.516	-40.391	24.055	-41.081	-8191	255	
1351.035	1	1	0	0	0.17757	0.2308	0.055202	0.16838	0.12198	0.16349	0.23398	0.073324	0.1491	0.09288	0.11763	0.17516	0.14129	0.21093	0.17043	0.16681	-2.8229	-3.3708	-3.0187	-3.3292	-3.0687	-3.3312	-3.475	-3.1437	-3.2313	-3.1667	-3.1083	-3.4625	-3.1396	-3.2229	-3.4208	-2.7917	218.552	176.973	-48.722	171.310	255.027	21.124	13.891	53.820	-25.802	81.586	-40.085	291.326	226.075	239.249	17.233	68.592	6.1305e-05	0.00012469	0.0001142	246.58	1.6606e-06	1.5476e-06	308.22	62.183	6.6683e-07	2.7538e-06	99.817	34.522	18.665	5.2424	3.3438e-06	10.824	0.0023946	0.0050187	0.0013954	270.3	4.553e-05	5.3641e-05	337.44	69.502	4.3801e-05	5.378e-05	111.07	38.875	21.592	6.1682	4.589e-05	12.374	120.951	12.159	-5.078	-52.798	54.237	234.491	-53.042	-48.006	42.471	52.575	-48.921	-45.343	-44.462	-40.097	15.306	-40.869	-8191	255	
1351.156	1	1	0	0	0.1686	0.13072	0.21716	0.14924	0.037422	0.17743	0.050803	0.20492	0.18988	0.16026	0.055948	0.071096	0.14377	0.1634	0.047881	0.11301	-2.8646	-3.2812	-3.2354	-3.3917	-2.9458	-3.0438	-3.4708	-3.0146	-3.2083	-3.2687	-3.3146	-3.2208	-3.1417	-3.0083	-3.3146	-3.15	-62.536	177.732	137.380	277.924	239.758	152.167	37.328	-53.722	-44.548	116.297	-24.140	21.302	172.405	-39.638	-46.939	-61.746	4.5415e-05	5.2063e-05	3.5671e-05	249.92	1.5313e-06	3.47e-06	316.17	63.935	3.2272e-06	1.9313e-06	103.8	36.561	19.698	5.5922	7.6229e-07	11.696	0.0021385	0.0045403	0.0012379	272.04	4.109e-05	4.7868e-05	344.72	71.012	3.8369e-05	4.7221e-05	114.51	40.934	22.458	6.462	3.8698e-05	13.146	83.286	244.407	18.149	-52.837	90.471	102.184	-52.695	-47.825	-58.148	64.049	-48.959	-45.262	-44.577	-40.930	91.659	-41.712	-8191	255	
1351.250	1	1	0	0	0.27497	0.13022	0.27684	0.1763	0.083305	0.13566	0.24904	0.086311	0.091892	0.12308	0.1761	0.252	0.14799	0.20561	0.24425	0.11061	-2.9958	-3.2958	-2.925	-3.1396	-3.3375	-3.1937	-3.5042	-3.0958	-3.1104	-3.2812	-2.9271	-3.2708	-3.3063	-3.1229	-3.3604	-3.1396	89.491	127.396	6.109	80.567	1.857	-21.308	177.713	70.094	51.889	188.758	215.912	147.315	270.425	36.218	121.104	170.074	7.1068e-05	0.00016306	4.0254e-05	253.14	2.3426e-06	3.6506e-06	322.11	65.02	1.6764e-06	3.8251e-06	104.44	36.848	19.715	5.5239	1.2315e-06	11.276	0.0018396	0.0039011	0.001077	273.29	3.5795e-05	4.1989e-05	347.84	71.728	3.3826e-05	4.1174e-05	115.06	40.726	22.096	6.2903	3.2479e-05	12.714	109.334	42.576	-3.128	-52.807	71.902	97.701	-52.947	-47.650	27.357	91.021	-48.819	-44.978	-44.465	-40.275	51.606	-40.967	-8191	255	
1351.348	1	1	0	0	0.21007	0.11195	0.11512	0.30588	0.23025	0.093915	0.070208	0.1782	0.075477	0.20572	0.22933	0.10799	0.066119	0.07763	0.10444	0.063214	-2.9542	-3.4771	-3.05	-3.4417	-3.3146	-3.0854	-3.5229	-3.2438	-3.2667	-3.2146	-2.8854	-3.1188	-3.4396	-3.0333	-3.2375	-3.1083	-20.314	-10.087	26.717	219.424	41.425	-8.955	81.608	65.221	39.341	253.727	228.034	-21.259	-5.338	232.215	224.245	181.573	8.287e-05	7.1403e-05	3.6124e-05	246.79	1.5817e-06	3.0831e-06	313.4	62.418	1.4348e-06	6.6085e-07	99.488	34.81	18.424	5.0806	4.4795e-06	10.529	0.0016335	0.0033243	0.00092312	267.74	3.0738e-05	3.6315e-05	339.75	68.931	2.972e-05	3.586e-05	110.05	38.489	20.857	5.8406	2.9564e-05	11.793	127.529	31.246	111.554	-52.620	104.576	73.281	-52.998	-47.363	12.190	18.528	-48.715	-45.512	-44.600	-40.188	135.017	-41.061	-8191	255	
1351.442	1	1	0	0	0.13261	0.22806	0.12256	0.074701	0.13564	0.16676	0.1541	0.18689	0.28241	0.26903	0.0029225	0.25432	0.19472	0.19497	0.02495	0.1016	-2.7708	-3.4938	-3.025	-3.3187	-3.2479	-3.0521	-3.4458	-3.1437	-3.0417	-3.4	-3.0646	-3.1042	-3.0625	-3.0938	-3.4813	-3.4021	201.603	36.551	50.213	36.736	11.991	269.192	175.720	225.624	280.846	143.471	235.151	199.767	262.298	99.185	162.543	70.413	8.3642e-05	0.00028838	3.4582e-05	248.73	2.1392e-07	2.8931e-06	313.19	61.254	1.5723e-06	1.8891e-06	98.686	33.865	18.425	5.03	7.3389e-07	10.417	0.0014918	0.0029465	0.0008439	267.83	2.8251e-05	3.3321e-05	338.71	67.585	2.811e-05	3.3637e-05	108.64	37.406	20.577	5.7592	2.9495e-05	11.671	113.190	48.296	13.544	-52.642	116.392	45.423	-53.245	-47.846	104.161	130.965	-48.930	-45.340	-44.819	-40.386	212.090	-41.646	-8191	255	
1351.538	1	1	0	0	0.099913	0.09383	0.13099	0.24713	0.17624	0.30666	0.14803	0.16944	0.22891	0.20708	0.098576	0.096335	0.083667	0.098307	0.21201	0.2963	-2.8042	-3.4979	-3.1958	-3.1458	-3.3187	-2.9417	-3.3688	-3.3604	-3.2479	-3.2854	-3.1583	-3.1979	-3.4125	-2.9813	-3.3688	-3.1167	285.222	44.348	235.418	82.759	232.136	221.081	12.364	232.888	115.308	190.032	60.005	-48.986	28.464	83.513	106.326	-23.513	5.3989e-05	0.00032344	1.7728e-05	250.79	2.0593e-06	1.02e-06	318.7	61.97	2.1063e-06	2.5589e-06	99.809	34.034	18.321	5.0462	4.6505e-07	10.246	0.0015089	0.0029843	0.00088551	272.01	2.9722e-05	3.6312e-05	344.19	68.5	3.0905e-05	3.6883e-05	109.79	37.829	20.762	5.7978	3.3541e-05	11.614	94.589	246.921	269.514	-52.587	-28.961	73.019	-53.053	-47.860	58.930	76.987	-49.164	-45.375	-45.004	-40.754	11.275	-41.308	-8191	255	
1351.635	1	1	0	0	0.21895	0.17169	0.11768	0.035827	0.040572	0.0085026	0.12731	0.021237	0.10647	0.11995	0.11421	0.056549	0.028007	0.1809	0.2082	0.18612	-2.6708	-3.3063	-3.2875	-3.2125	-3.4083	-3.1979	-3.3125	-3.1646	-3.1104	-3.45	-3.2729	-3.225	-3.5125	-3.1708	-3.2104	-3.3125	161.819	113.925	119.307	-1.404	251.347	-15.291	254.580	64.451	147.872	270.997	113.805	56.736	280.123	-20.702	54.823	185.900	3.7198e-05	0.00020916	0.00010193	251.94	9.1067e-07	2.053e-06	317.39	62.233	1.9047e-06	1.9039e-06	99.479	33.584	18.251	4.9136	1.3658e-06	10.079	0.0017169	0.0033919	0.0010142	273.75	3.2862e-05	4.0946e-05	344.28	69.032	3.4207e-05	4.0206e-05	110.25	37.6	20.733	5.7315	3.8451e-05	11.489	83.728	-26.519	34.365	-52.984	75.235	63.895	-53.040	-48.035	19.143	9.596	-49.252	-45.342	-44.536	-40.233	156.067	-41.060	-8191	255	
1351.755	1	1	0	0	0.11831	0.14452	0.035444	0.22225	0.093225	0.23486	0.0035921	0.15014	0.056908	0.049111	0.26787	0.12217	0.12458	0.2461	0.35009	0.093837	-2.3958	-3.3146	-3.2167	-3.0542	-3.4042	-3.2667	-3.3458	-3.5396	-3.1333	-3.4146	-3.1396	-3.2062	-3.3375	-3.0583	-3.1104	-3.3438	-33.575	151.917	9.733	272.127	239.934	131.643	68.870	193.330	183.775	103.726	239.620	-36.709	-45.754	234.972	42.218	272.251	6.5014e-05	8.662e-05	8.5369e-05	248.25	1.9613e-06	1.7652e-06	313.56	61.403	2.2722e-06	1.7199e-06	97.659	33.184	17.817	4.7927	2.9947e-06	9.9271	0.0019839	0.0039192	0.0011778	271.57	3.7972e-05	4.8361e-05	341.44	68.494	4.0942e-05	4.7798e-05	109.2	37.399	20.538	5.7047	4.3622e-05	11.461	113.250	221.767	-0.929	-52.665	-13.991	184.967	-53.094	-47.903	98.843	111.485	-49.192	-45.874	-44.192	-40.470	136.547	-41.037	-8191	255	
1351.851	1	1	0	0	0.23635	0.05508	0.14953	0.14892	0.098088	0.1112	0.07506	0.19295	0.29784	0.091522	0.03778	0.14563	0.15703	0.26764	0.16453	0.2123	-2.5542	-3.3521	-3.1458	-3.1813	-3.2604	-3.3458	-3.2313	-3.4646	-3.3021	-3.3708	-3.3438	-3.0167	-3.3292	-2.9958	-3.1229	-3.2188	249.057	144.151	37.714	140.343	72.647	-4.128	206.709	-8.372	12.550	102.907	79.030	-30.341	37.492	271.769	102.736	281.173	8.8327e-05	0.00031338	5.2262e-05	246.92	1.4753e-06	8.5469e-07	314.76	61.847	1.2317e-06	1.1221e-06	100.1	33.682	18.139	4.9174	3.2459e-06	10.23	0.0021789	0.0042847	0.0012724	270.38	3.9622e-05	5.0659e-05	343.65	68.903	4.1825e-05	5.0247e-05	111.02	38.013	20.765	5.8545	4.7766e-05	11.829	116.373	62.521	6.372	-52.925	128.948	101.205	-52.932	-47.810	-35.216	5.617	-48.876	-45.265	-44.757	-40.280	108.630	-41.229	-8191	255	
1351.947	1	1	0	0	0.19709	0.31452	0.18282	0.25928	0.2612	0.073249	0.29568	0.024258	0.19605	0.05601	0.1358	0.11826	0.26028	0.18575	0.10686	0.059885	-2.8063	-3.3521	-3.3229	-2.85	-3.4125	-3.275	-3.4271	-3.5729	-3.1083	-3.3063	-3.2479	-3.1104	-3.4917	-3.1063	-3.1542	-3.6375	195.907	271.072	24.798	-2.252	46.919	-40.099	190.761	53.419	42.203	-16.663	-31.567	141.017	27.734	12.383	4.416	250.064	3.1875e-05	0.00012622	0.00016286	249.14	4.3158e-06	5.1464e-06	320.93	62.495	3.5008e-06	1.3988e-06	100.81	34.302	18.114	4.9915	2.6734e-06	10.379	0.0024599	0.0049628	0.0014727	274.3	4.6973e-05	6.0243e-05	350.07	70.337	4.9681e-05	5.8903e-05	113.07	39.066	21.262	6.0938	5.8675e-05	12.253	97.032	-5.736	26.944	-52.896	124.947	81.156	-52.842	-47.495	124.880	227.281	-49.041	-44.914	-44.308	-40.425	264.246	-41.394	-8191	255	
1352.019	1	1	0	0	0.21988	0.20426	0.10819	0.16754	0.11952	0.1338	0.10949	0.1476	0.05002	0.13083	0.19292	0.30988	0.2177	0.12615	0.046629	0.076941	-2.925	-3.2292	-3.3167	-3.1396	-3.4917	-3.4042	-3.1646	-3.4042	-3.0083	-3.2562	-3.3438	-3.0417	-3.4083	-3.2583	-3.0625	-3.4813	102.821	164.571	150.740	171.343	21.399	-7.796	209.054	134.557	191.640	185.311	221.395	213.594	173.089	70.446	125.251	-5.378	0.00011379	0.00012462	7.8955e-05	250.14	1.5061e-06	1.3245e-06	319.45	61.938	1.2978e-06	2.8823e-06	98.42	33.374	17.771	4.8752	5.0996e-06	9.8795	0.0030966	0.006299	0.0018721	278.74	6.1872e-05	8.1199e-05	353.37	71.39	7.1409e-05	8.6877e-05	113.58	39.139	21.754	6.344	8.9329e-05	12.195	106.450	111.865	-1.229	-52.557	34.541	67.990	-53.001	-47.798	74.226	0.133	-48.967	-45.146	-44.777	-40.681	126.134	-41.050	-8191	255	
1352.140	1	1	0	0	0.031542	0.14303	0.10582	0.33607	0.15955	0.12819	0.31695	0.13005	0.080018	0.20726	0.12795	0.23488	0.11822	0.21378	0.16012	0.18409	-2.7229	-3.1146	-3.3333	-3.0083	-3.35	-3.3604	-3.1708	-3.6229	-2.9917	-3.1188	-3.4354	-3.1021	-3.2104	-3.2562	-3.1813	-3.5708	41.062	170.556	33.942	280.172	284.031	90.619	280.013	103.181	-5.805	291.718	186.860	53.728	230.527	294.070	187.892	166.342	6.4695e-05	0.00017575	1.3754e-05	245.82	2.6189e-06	2.8424e-06	310.52	59.661	4.0998e-06	1.7476e-06	94.727	31.506	17.231	4.7039	3.5271e-06	9.5527	0.0045966	0.0093725	0.0026737	279.17	8.3624e-05	0.00010387	346.79	69.669	7.9373e-05	9.0214e-05	109.44	37.256	20.917	6.0012	7.6024e-05	11.472	95.931	20.748	33.416	-52.503	83.671	138.086	-52.860	-47.619	201.994	-27.436	-49.144	-45.200	-44.630	-40.876	6.673	-41.111	-8191	255	
1352.234	1	1	0	0	0.18641	0.28706	0.021773	0.10656	0.11101	0.15789	0.18339	0.14539	0.090884	0.114	0.27864	0.069959	0.090655	0.18574	0.25944	0.22559	-2.4688	-3.1042	-3.4917	-3.1479	-3.3708	-3.2125	-3.0625	-3.2292	-3.125	-3.0958	-3.4917	-3.1167	-3.1875	-3.475	-3.2167	-3.2896	95.007	49.002	31.749	282.670	86.476	-52.826	239.646	101.243	232.482	-17.815	-24.840	-20.316	181.162	261.437	89.650	-48.881	9.887e-05	0.00047974	0.0001029	245.53	1.273e-06	1.9429e-06	309.99	60.316	3.1666e-06	2.6849e-06	97.46	32.893	17.972	4.8587	2.037e-06	9.8557	0.0036458	0.0071274	0.0019495	274.39	5.8696e-05	7.049e-05	341.27	68.192	5.2084e-05	5.7727e-05	109.01	37.29	20.782	5.7903	4.8173e-05	11.442	89.111	110.512	86.537	-52.971	144.067	250.912	-53.066	-47.568	155.780	54.888	-49.134	-45.486	-44.857	-40.039	204.564	-41.116	-8191	255	
1352.330	1	1	0	0	0.047308	0.039184	0.014811	0.22903	0.080162	0.082312	0.23204	0.1592	0.086991	0.19114	0.21357	0.10128	0.24273	0.043284	0.17501	0.082423	-2.7562	-3.0375	-3.2958	-3.2188	-3.3187	-3.1604	-3.0208	-3.2646	-3.2687	-3.0292	-3.4958	-2.9958	-3.0583	-3.2521	-3.0583	-3.575	-10.133	-65.233	293.535	107.421	-61.633	286.271	137.866	219.649	244.612	255.442	-15.967	249.953	5.081	-10.089	148.761	-10.675	7.2344e-05	0.00012406	5.6601e-05	252.97	1.3062e-06	1.766e-06	317.03	62.551	1.1987e-06	8.4729e-07	101.33	34.244	18.554	4.9897	7.2406e-07	10.027	0.0024825	0.004917	0.0013764	277.23	4.514e-05	5.6003e-05	347.26	69.803	4.5549e-05	5.2501e-05	112.38	38.538	21.385	5.8902	4.6548e-05	11.533	91.160	78.281	41.685	-52.595	-29.153	217.882	-52.881	-47.541	225.710	193.395	-48.917	-45.113	-44.454	-40.990	73.304	-41.436	-8191	255	
1352.428	1	1	0	0	0.069338	0.21567	0.4374	0.13033	0.2559	0.21282	0.061882	0.18309	0.10145	0.25913	0.21933	0.11521	0.2753	0.02161	0.18064	0.18434	-2.9521	-2.9542	-3.3646	-3.0708	-3.0896	-3.3	-3.3146	-3.3583	-3.2938	-3.0417	-3.3438	-2.9771	-3.1083	-3.5458	-3.175	-3.3542	289.721	-30.999	230.293	-41.355	34.879	-51.301	31.573	-29.888	49.396	153.003	-37.726	157.452	142.460	272.106	94.491	-31.103	4.5096e-05	0.0003539	5.6197e-05	254.27	1.9068e-06	2.1277e-06	315.03	62.651	4.8492e-07	3.3929e-06	98.759	32.849	18.138	4.8486	2.3057e-06	9.5943	0.00229	0.0045427	0.0012799	279.09	4.3742e-05	5.3603e-05	344.14	69.573	4.6529e-05	5.4551e-05	109.95	37.395	21.098	5.789	5.0979e-05	11.22	109.118	40.017	27.008	-52.599	108.358	109.685	-53.231	-48.058	165.771	-32.059	-49.280	-45.559	-45.502	-40.819	121.806	-41.724	-8191	255	
1352.547	1	1	0	0	0.10692	0.071098	0.094147	0.227	0.059168	0.011128	0.12442	0.15663	0.25169	0.086678	0.050442	0.17235	0.12323	0.10606	0.050964	0.12238	-3.0812	-2.8583	-3.2625	-3.2438	-3.2438	-3.4354	-3.1875	-3.1771	-3.1792	-3.0563	-3.3979	-3.2833	-3.2958	-3.3792	-3.2021	-3.5146	153.771	-2.759	158.082	288.571	211.464	-60.747	43.421	122.231	68.170	127.941	-51.074	73.255	229.914	64.788	159.064	239.292	3.8138e-05	0.00015967	8.9164e-05	252.27	2.2038e-06	4.1314e-06	311.64	61.894	2.8011e-06	4.251e-06	98.969	32.727	18.292	4.9229	8.9443e-07	9.7299	0.0026147	0.0052532	0.0014959	279.39	5.0722e-05	6.3035e-05	343.83	69.917	5.4472e-05	6.3903e-05	110.15	37.592	21.38	5.92	5.6667e-05	11.422	87.616	19.459	105.011	-52.803	147.939	113.054	-53.071	-47.450	92.016	79.543	-49.127	-45.466	-44.975	-40.919	174.302	-41.634	-8191	255	
1352.619	1	1	0	0	0.25769	0.13973	0.077424	0.14499	0.25132	0.049331	0.1756	0.099479	0.27698	0.15099	0.25636	0.1472	0.13901	0.024785	0.21942	0.1467	-3.0667	-3.0771	-3.2896	-3.1437	-2.9271	-3.625	-3.3063	-2.9833	-3.0438	-3.0521	-3.3875	-3.2583	-3.2313	-3.2125	-3.175	-3.0833	250.850	29.896	79.712	215.932	-9.645	247.525	162.964	164.266	96.771	127.073	208.872	-48.780	248.877	237.910	149.376	145.691	3.3525e-05	1.9011e-05	6.6362e-05	255.3	2.2889e-06	9.6405e-07	316.1	61.594	3.3332e-06	3.4488e-06	98.135	33.071	18.256	4.9468	1.3507e-06	9.75	0.0027552	0.0056094	0.0015412	281.35	5.2461e-05	6.4216e-05	347.18	70.028	5.6017e-05	6.6293e-05	110.68	37.679	21.313	5.9574	5.9393e-05	11.374	209.777	187.796	50.103	-52.698	163.259	181.119	-53.015	-47.965	145.581	126.543	-48.966	-45.517	-45.303	-41.502	30.676	-41.829	-8191	255	
1352.715	1	1	0	0	0.048775	0.13962	0.092976	0.20653	0.13188	0.12709	0.33744	0.2369	0.31161	0.18389	0.063829	0.36495	0.077634	0.19438	0.092299	0.22858	-2.875	-2.9042	-3.1229	-3.3083	-3.0958	-3.4188	-3.3896	-3.175	-3.3354	-3.1813	-3.2958	-3.1562	-2.9917	-3.4458	-3.2896	-3.1333	34.804	120.726	95.467	186.628	135.241	184.625	181.730	170.644	192.417	123.728	269.948	38.383	126.678	7.755	187.343	270.465	5.7287e-05	9.1767e-05	4.0815e-05	255.68	1.108e-06	2.5199e-06	315.29	62.121	4.0415e-06	3.7337e-06	96.593	32.234	17.955	4.8048	6.2992e-06	9.5307	0.0027856	0.0057792	0.0015729	282.42	5.1556e-05	6.2993e-05	347.51	69.768	5.3636e-05	6.6005e-05	109.76	37.014	21.126	5.8866	6.1969e-05	11.292	142.552	189.212	18.536	-52.866	250.948	99.003	-52.858	-48.114	59.405	111.034	-48.905	-45.434	-45.000	-41.180	1.083	-41.885	-8191	255	
1352.836	1	1	0	0	0.15454	0.21742	0.26845	0.14516	0.16722	0.11047	0.090551	0.1296	0.13069	0.1381	0.042498	0.18266	0.18651	0.18237	0.04563	0.26784	-3.1083	-3.0625	-3.3458	-3.4083	-3.15	-3.5854	-3.4	-3.1896	-3.4188	-3.2292	-3.0604	-3.3458	-2.8292	-3.2792	-3.2208	-3.0458	267.263	253.431	238.730	15.748	11.743	-33.815	-63.070	8.291	241.390	86.728	216.350	263.115	231.229	58.073	190.099	-65.552	6.2152e-05	0.00021319	0.00010216	257.27	1.6554e-06	1.573e-06	316.7	61.6	1.5537e-06	2.8173e-06	95.86	31.448	17.773	4.7927	3.3118e-06	9.4093	0.0029502	0.006222	0.0017044	285.33	5.688e-05	6.7445e-05	348.29	70.066	5.7465e-05	7.2167e-05	108.89	36.442	21.03	5.9136	6.6663e-05	11.262	96.375	73.413	39.719	-53.344	-7.529	136.110	-53.102	-48.097	-7.897	-64.687	-49.371	-45.798	-45.541	-41.379	95.047	-41.691	-8191	255	
1352.932	1	1	0	0	0.2466	0.43537	0.22645	0.097746	0.21371	0.096511	0.14907	0.094561	0.27927	0.12487	0.060737	0.064184	0.093634	0.27734	0.21333	0.12894	-3.1271	-3.3187	-3.2687	-3.4479	-3.2292	-3.5833	-3.525	-3.1354	-3.5625	-3.2188	-3.1	-3.2521	-2.9917	-3.4229	-3.3917	-3.0521	244.275	-8.068	184.514	-0.215	-11.689	258.263	110.058	43.164	-40.249	218.423	53.603	267.190	161.236	129.796	168.381	-41.073	4.4406e-05	0.00012699	9.3501e-05	254.32	3.4844e-06	6.098e-07	313.56	61.77	3.8149e-06	2.4506e-06	96.947	32.224	18.121	5.008	1.68e-06	9.7824	0.0031973	0.0069256	0.0019267	284.48	6.5143e-05	7.8365e-05	348.87	70.576	6.5548e-05	8.2784e-05	110.72	37.62	21.696	6.2179	7.4282e-05	11.764	64.360	236.329	77.025	-52.864	134.209	175.304	-53.210	-48.232	-18.245	118.918	-49.556	-45.721	-44.947	-41.198	76.073	-42.319	-8191	255	
1353.028	1	1	0	0	0.10445	0.13814	0.068304	0.32165	0.20565	0.10256	0.042511	0.19471	0.03165	0.13845	0.053691	0.36586	0.17946	0.10854	0.12614	0.13232	-3.0021	-3.1583	-3.2479	-3.4479	-2.9979	-3.4271	-3.1937	-3.0875	-3.2354	-3.1042	-2.8083	-3.2438	-2.9688	-3.2646	-3.1792	-2.9938	26.544	204.814	60.505	-16.658	241.827	193.498	109.758	61.815	89.060	112.210	132.060	255.294	-46.406	35.439	208.623	262.420	2.0046e-05	1.4768e-05	6.9741e-05	257.36	1.044e-06	1.056e-06	317.82	62.448	7.9516e-07	1.5078e-06	98.891	33.479	18.553	5.0587	3.2243e-06	10.072	0.0035341	0.0074943	0.0020574	286.64	6.9083e-05	8.1466e-05	352.38	71.77	6.7243e-05	8.5692e-05	113.39	38.647	22.198	6.3006	7.2638e-05	12.023	103.947	5.520	47.630	-52.769	-7.716	100.490	-52.963	-48.548	92.128	160.366	-49.166	-45.753	-45.276	-41.385	64.037	-41.963	-8191	255	
1353.148	1	1	0	0	0.2154	0.25233	0.21784	0.084673	0.010668	0.10384	0.36175	0.11061	0.32532	0.066375	0.22836	0.18042	0.15739	0.15344	0.10965	0.25112	-2.8312	-3.0938	-3.0792	-3.3708	-3.2188	-3.1937	-3.4542	-3.2	-3.5042	-3.2229	-3.1583	-3.2938	-3.1458	-3.2333	-3.3937	-3.1208	118.302	193.773	151.857	-43.344	-46.273	122.255	162.281	125.954	-42.305	27.863	-27.458	257.525	205.083	17.894	152.258	204.375	4.3855e-05	0.00038913	6.9719e-05	257.24	4.2375e-06	2.4282e-06	320.54	63.439	1.6365e-06	4.0786e-06	100.69	33.429	18.57	5.0513	6.3982e-07	9.9969	0.0034159	0.007353	0.0019996	287.67	6.6875e-05	7.8426e-05	355.47	72.4	6.2593e-05	7.7708e-05	114.04	38.722	22.065	6.159	6.3251e-05	11.801	96.810	-3.545	-24.540	-52.816	103.603	86.915	-53.262	-48.125	8.430	124.265	-49.004	-45.276	-45.410	-41.034	270.639	-41.498	-8191	255	
1353.243	1	1	0	0	0.19016	0.048395	0.17868	0.18854	0.26938	0.11229	0.10593	0.061452	0.28277	0.14328	0.14177	0.081729	0.041172	0.1611	0.20125	0.20294	-3.0521	-3.2458	-3.1625	-3.5646	-3.2167	-3.2854	-3.475	-3.2021	-3.2687	-3.2833	-3.0292	-3.4188	-3.2896	-3.1604	-3.4437	-2.9167	-35.732	-58.156	-0.710	289.772	202.355	284.407	61.107	24.776	193.536	79.812	29.228	193.147	-47.285	80.129	106.209	227.381	9.0292e-05	8.7503e-05	7.9338e-05	257.82	1.4977e-06	3.1605e-06	317.32	62.651	1.3892e-06	2.6366e-06	98.997	32.822	18.3	4.8774	1.6053e-06	9.6487	0.0029609	0.0063539	0.0017198	285.06	5.7534e-05	6.7672e-05	349.78	70.987	5.4635e-05	6.7297e-05	111.36	37.486	21.415	5.9	5.4847e-05	11.286	116.516	173.743	12.665	-53.053	208.289	277.317	-53.110	-48.181	242.777	162.585	-49.236	-45.786	-45.310	-40.915	70.319	-41.674	-8191	255	
1353.316	1	1	0	0	0.22447	0.25955	0.14465	0.1251	0.097975	0.15419	0.23602	0.28801	0.13059	0.22445	0.031793	0.18872	0.12986	0.14115	0.12197	0.11404	-2.9938	-3.3042	-2.9792	-3.4062	-3.3729	-3.2521	-3.4938	-2.9583	-3.275	-3.2188	-2.8063	-3.3479	-3.1458	-2.9854	-3.4708	-3.0708	-61.619	211.287	128.232	266.075	226.935	194.319	183.556	282.155	-25.441	156.472	230.506	220.162	11.613	-21.400	133.808	127.810	5.8526e-05	0.00012308	9.5699e-05	256.61	1.5073e-06	2.2523e-06	314.21	62.329	2.4662e-07	1.2474e-06	98.359	32.335	18.116	4.7868	1.681e-06	9.4305	0.0026191	0.005479	0.001488	281.87	4.9925e-05	5.6839e-05	344.73	69.955	4.615e-05	5.708e-05	109.67	36.627	20.957	5.7082	4.686e-05	10.954	78.308	159.526	-5.679	-52.953	139.287	72.760	-53.072	-48.256	229.335	68.158	-49.274	-45.487	-45.067	-40.920	85.469	-41.569	-8191	255	
1353.435	1	1	0	0	0.19184	0.18617	0.14011	0.24231	0.17479	0.063794	0.20739	0.078639	0.31906	0.076765	0.084427	0.040187	0.20062	0.16549	0.24087	0.1613	-2.7188	-3.4	-3.0167	-3.2146	-3.0812	-3.0208	-3.4125	-2.9646	-2.95	-3.275	-3.0187	-3.1604	-3.0521	-3.1396	-3.1729	-3.0833	36.635	-10.693	134.448	174.153	30.724	40.128	14.559	96.133	70.895	174.289	-65.443	101.880	-19.061	208.850	200.290	43.094	7.9407e-05	0.00025632	6.7865e-05	258.62	6.5589e-07	2.2817e-06	317.71	62.521	7.2089e-07	2.4654e-06	99.047	32.44	18.351	4.7938	3.3277e-06	9.4662	0.0022998	0.0047711	0.0013544	283.29	4.6099e-05	5.3982e-05	347.39	70.171	4.4692e-05	5.4585e-05	110.4	36.905	21.089	5.7065	4.6019e-05	10.986	123.762	63.920	233.224	-52.962	16.353	52.416	-53.118	-48.123	93.533	158.336	-49.191	-46.221	-45.007	-41.395	109.663	-41.410	-8191	255	
1353.531	1	1	0	0	0.073482	0.13444	0.066321	0.27074	0.088304	0.21126	0.25286	0.18145	0.21655	0.1893	0.16954	0.2004	0.18601	0.14813	0.27053	0.3007	-2.7313	-3.425	-2.9292	-3.2833	-3.3021	-3.1375	-3.5958	-3.2375	-3.2438	-3.3271	-3.1813	-3.3083	-3.1896	-3.2188	-3.5167	-3.3833	117.669	113.667	116.051	158.794	141.098	9.903	277.965	136.664	277.118	204.587	141.999	13.115	-1.142	-20.103	-23.944	25.116	2.2738e-05	0.00014294	0.00010746	261.82	6.9283e-07	2.8223e-06	320.93	62.863	2.2645e-06	1.978e-06	99.073	32.228	18.089	4.7786	3.2689e-06	9.3286	0.0022639	0.0047153	0.0013682	286.08	4.5968e-05	5.5309e-05	350.73	70.388	4.5765e-05	5.4208e-05	110.17	36.432	20.932	5.6874	4.683e-05	10.859	128.980	56.981	13.054	-53.079	275.585	97.219	-53.089	-47.838	-38.052	-24.624	-49.415	-46.174	-45.427	-41.201	66.312	-42.019	-8191	255	
1353.627	1	1	0	0	0.085592	0.077274	0.10653	0.10135	0.21093	0.08258	0.2533	0.037589	0.056036	0.15035	0.20751	0.17254	0.18982	0.24314	0.13772	0.12694	-2.7875	-3.5708	-3.1729	-3.2958	-3.4271	-3.1083	-3.5083	-3.2667	-3.2	-3.5542	-3.2708	-3.3333	-3.2313	-3.0646	-3.3812	-3.1604	191.838	-63.803	175.592	249.535	-52.946	-32.818	282.606	290.536	23.087	159.053	267.833	256.296	167.243	133.667	178.295	183.652	5.9806e-05	0.00022778	6.2245e-05	262.94	1.7838e-06	1.7864e-06	322.3	62.792	2.347e-06	1.2e-06	97.682	31.742	18.002	4.7259	6.1073e-07	9.2262	0.00232	0.0047983	0.0013934	287.56	4.6095e-05	5.6347e-05	350.76	70.445	4.5622e-05	5.3705e-05	109.26	36.05	20.87	5.6645	4.6455e-05	10.762	93.010	24.213	203.757	-53.009	5.783	134.421	-53.230	-48.214	268.571	93.450	-49.408	-46.061	-45.355	-40.637	247.644	-42.062	-8191	255	
1353.724	1	1	0	0	0.23935	0.10252	0.2101	0.12957	0.16253	0.1514	0.035693	0.14165	0.066981	0.07007	0.18935	0.17069	0.062588	0.15891	0.15355	0.28124	-2.6771	-3.4229	-3.0625	-2.9833	-3.2729	-3.0417	-3.3667	-3.2833	-3.1167	-3.3833	-3.05	-3.025	-3.2104	-3.0083	-3.4021	-3.3208	22.291	-15.980	29.516	235.396	101.441	41.711	176.815	114.135	27.078	73.801	49.175	3.097	192.767	-22.982	-9.803	111.790	6.0373e-05	0.00015643	7.6207e-05	260.94	1.6287e-06	3.3674e-06	318.56	63.01	1.9492e-06	3.2715e-06	97.842	32.024	18.173	4.8131	3.4957e-06	9.4236	0.0023134	0.004732	0.0013954	285.68	4.5164e-05	5.596e-05	348.02	70.318	4.6391e-05	5.393e-05	109.61	36.334	20.981	5.7514	4.7173e-05	10.958	65.154	-48.812	137.323	-52.563	55.135	69.375	-52.936	-48.231	77.843	104.327	-49.276	-45.612	-45.243	-41.025	76.177	-41.793	-8191	255	
#DATA ENDS
