BOXY.EXE: ISS Imagent and Oximeter Data Acquisition Program Version 0.80
Ascii Record File

#ACQ INFORMATION
2  Detector Channels 
16  External MUX Channels 
1  Auxiliary Channels 
5000  Waveform (CCF) Frequency (Hz)
1  Waveforms Skipped 
30  Waveforms Averaged 
1  Cycles Averaged 
16  Acquisitions per Waveform 
10.0806  Updata Rate (Hz) 

#FILE INFORMATION
TRUE -- External MUX Channel results are PARSED.
FALSE -- AC DC and Phase are NOT grouped.
TRUE -- Companion Program Settings File CREATED.
FALSE -- AC data not excluded
FALSE -- DC data not excluded
FALSE -- Phase data not excluded
FALSE -- Auxillary Chn. data not excluded
Tab delimiters

#CALIBRATION STATE
TRUE -- Waveform Calibration Values APPLIED.


#AUX CALIBRATION VALUES
Val Type	aux-1	

Term	1.0000e+00	
Factor	0.0000e+00	


#WF CALIBRATION VALUES
A = Detector Channel
Val Type	A-AC1	A-AC2	A-AC3	A-AC4	A-AC5	A-AC6	A-AC7	A-AC8	A-AC9	A-AC10	A-AC11	A-AC12	A-AC13	A-AC14	A-AC15	A-AC16	A-DC1	A-DC2	A-DC3	A-DC4	A-DC5	A-DC6	A-DC7	A-DC8	A-DC9	A-DC10	A-DC11	A-DC12	A-DC13	A-DC14	A-DC15	A-DC16	A-Ph1	A-Ph2	A-Ph3	A-Ph4	A-Ph5	A-Ph6	A-Ph7	A-Ph8	A-Ph9	A-Ph10	A-Ph11	A-Ph12	A-Ph13	A-Ph14	A-Ph15	A-Ph16	

Term	0.00000e+00	0.00000e+00	0.00000e+00	0.00000e+00	0.00000e+00	0.00000e+00	0.00000e+00	0.00000e+00	0.00000e+00	0.00000e+00	0.00000e+00	0.00000e+00	0.00000e+00	0.00000e+00	0.00000e+00	0.00000e+00	0.00000e+00	0.00000e+00	0.00000e+00	0.00000e+00	0.00000e+00	0.00000e+00	0.00000e+00	0.00000e+00	0.00000e+00	0.00000e+00	0.00000e+00	0.00000e+00	0.00000e+00	0.00000e+00	0.00000e+00	0.00000e+00	0.00000e+00	0.00000e+00	0.00000e+00	0.00000e+00	0.00000e+00	0.00000e+00	0.00000e+00	0.00000e+00	0.00000e+00	0.00000e+00	0.00000e+00	0.00000e+00	0.00000e+00	0.00000e+00	0.00000e+00	0.00000e+00	
Factor	1.00000e+00	1.00000e+00	1.00000e+00	1.00000e+00	1.00000e+00	1.00000e+00	1.00000e+00	1.00000e+00	1.00000e+00	1.00000e+00	1.00000e+00	1.00000e+00	1.00000e+00	1.00000e+00	1.00000e+00	1.00000e+00	1.00000e+00	1.00000e+00	1.00000e+00	1.00000e+00	1.00000e+00	1.00000e+00	1.00000e+00	1.00000e+00	1.00000e+00	1.00000e+00	1.00000e+00	1.00000e+00	1.00000e+00	1.00000e+00	1.00000e+00	1.00000e+00	X	X	X	X	X	X	X	X	X	X	X	X	X	X	X	X	

B = Detector Channel
Val Type	B-AC1	B-AC2	B-AC3	B-AC4	B-AC5	B-AC6	B-AC7	B-AC8	B-AC9	B-AC10	B-AC11	B-AC12	B-AC13	B-AC14	B-AC15	B-AC16	B-DC1	B-DC2	B-DC3	B-DC4	B-DC5	B-DC6	B-DC7	B-DC8	B-DC9	B-DC10	B-DC11	B-DC12	B-DC13	B-DC14	B-DC15	B-DC16	B-Ph1	B-Ph2	B-Ph3	B-Ph4	B-Ph5	B-Ph6	B-Ph7	B-Ph8	B-Ph9	B-Ph10	B-Ph11	B-Ph12	B-Ph13	B-Ph14	B-Ph15	B-Ph16	

Term	0.00000e+00	0.00000e+00	0.00000e+00	0.00000e+00	0.00000e+00	0.00000e+00	0.00000e+00	0.00000e+00	0.00000e+00	0.00000e+00	0.00000e+00	0.00000e+00	0.00000e+00	0.00000e+00	0.00000e+00	0.00000e+00	0.00000e+00	0.00000e+00	0.00000e+00	0.00000e+00	0.00000e+00	0.00000e+00	0.00000e+00	0.00000e+00	0.00000e+00	0.00000e+00	0.00000e+00	0.00000e+00	0.00000e+00	0.00000e+00	0.00000e+00	0.00000e+00	-1.75373e+02	-1.30324e+02	-1.22335e+02	-1.82865e+02	-7.94388e+01	-6.73137e+01	-1.55847e+02	-1.62015e+02	-8.73043e+01	-6.50213e+01	-1.70182e+02	-1.72231e+02	-1.79732e+02	-1.76323e+02	-7.82466e+01	-1.49486e+02	
Factor	2.80776e-05	1.59647e-04	4.56555e-05	1.56367e-01	1.46645e-06	1.62896e-06	1.65078e-01	5.36098e-02	1.54737e-06	1.86707e-06	8.00233e-02	3.09967e-02	2.31372e-02	8.58255e-03	1.59471e-06	1.26389e-02	1.74870e-05	3.64141e-05	1.03222e-05	7.94208e-02	3.37746e-07	4.14866e-07	7.89372e-02	2.73144e-02	3.43380e-07	4.12689e-07	3.96292e-02	1.53309e-02	1.19582e-02	4.41765e-03	3.63355e-07	6.29802e-03	X	X	X	X	X	X	X	X	X	X	X	X	X	X	X	X	



#DISTANCE SETTINGS
A = Detector Channel
A-1	A-2	A-3	A-4	A-5	A-6	A-7	A-8	A-9	A-10	A-11	A-12	A-13	A-14	A-15	A-16	

2.5000e+00	3.0000e+00	2.5000e+00	3.0000e+00	2.0000e+00	3.0000e+00	1.5000e+00	3.0000e+00	3.0000e+00	3.0000e+00	3.0000e+00	3.0000e+00	3.0000e+00	3.0000e+00	1.5000e+00	3.0000e+00	

B = Detector Channel
B-1	B-2	B-3	B-4	B-5	B-6	B-7	B-8	B-9	B-10	B-11	B-12	B-13	B-14	B-15	B-16	

1.0000e+01	1.0000e+01	1.0000e+01	1.4400e+00	1.0000e+01	1.0000e+01	1.5100e+00	1.9400e+00	1.0000e+01	1.0000e+01	1.9900e+00	2.4900e+00	2.4100e+00	2.9000e+00	1.0000e+01	2.9800e+00	




#DATA BEGINS
time	group	step	mark	flag	A-AC1	A-AC2	A-AC3	A-AC4	A-AC5	A-AC6	A-AC7	A-AC8	A-AC9	A-AC10	A-AC11	A-AC12	A-AC13	A-AC14	A-AC15	A-AC16	A-DC1	A-DC2	A-DC3	A-DC4	A-DC5	A-DC6	A-DC7	A-DC8	A-DC9	A-DC10	A-DC11	A-DC12	A-DC13	A-DC14	A-DC15	A-DC16	A-Ph1	A-Ph2	A-Ph3	A-Ph4	A-Ph5	A-Ph6	A-Ph7	A-Ph8	A-Ph9	A-Ph10	A-Ph11	A-Ph12	A-Ph13	A-Ph14	A-Ph15	A-Ph16	B-AC1	B-AC2	B-AC3	B-AC4	B-AC5	B-AC6	B-AC7	B-AC8	B-AC9	B-AC10	B-AC11	B-AC12	B-AC13	B-AC14	B-AC15	B-AC16	B-DC1	B-DC2	B-DC3	B-DC4	B-DC5	B-DC6	B-DC7	B-DC8	B-DC9	B-DC10	B-DC11	B-DC12	B-DC13	B-DC14	B-DC15	B-DC16	B-Ph1	B-Ph2	B-Ph3	B-Ph4	B-Ph5	B-Ph6	B-Ph7	B-Ph8	B-Ph9	B-Ph10	B-Ph11	B-Ph12	B-Ph13	B-Ph14	B-Ph15	B-Ph16	aux-1	digaux	

887.547	1	1	0	256	0.32579	0.12571	0.21189	0.16507	0.17447	0.25571	0.32881	0.29839	0.030709	0.28146	0.18675	0.17649	0.17792	0.35738	0.13383	0.19416	-3.1083	-3	-3.225	-3.6354	-2.9958	-3.4562	-3.4896	-3.3333	-3.4604	-3.1125	-3.3604	-3.7438	-3.1958	-3.4354	-3.3063	-3.1979	229.832	132.535	270.300	-80.611	243.694	135.022	270.938	215.959	164.225	-26.383	164.469	137.348	265.118	-52.660	190.736	249.047	0.00028073	0.00057574	0.00017706	1645.9	3.4008e-06	5.7743e-06	1619.7	428.25	2.7466e-06	5.6755e-06	484.91	160.3	141.57	48.597	4.9469e-06	60.004	0.00043969	0.00036171	0.00010006	1663.2	4.5722e-06	3.8254e-06	1639.9	435.46	4.4182e-06	3.9317e-06	493.3	164.63	144.7	49.986	4.2846e-06	61.63	131.901	13.796	13.622	-69.064	44.331	67.988	-69.085	-64.353	37.964	72.237	-65.035	-60.845	-60.438	-55.420	42.819	-56.272	-8191	255	
887.643	1	1	0	0	0.13829	0.16251	0.30692	0.22233	0.1011	0.096652	0.11025	0.32447	0.0846	0.10365	0.03402	0.11051	0.11333	0.075927	0.26036	0.14077	-2.9708	-3.1188	-3.0396	-3.6208	-3.2854	-3.3396	-3.4188	-3.1312	-3.2	-3.2958	-3.3688	-3.6271	-3.2083	-3.3563	-3.2958	-3.175	190.194	-41.372	34.406	-80.243	267.147	-15.199	152.440	260.451	-12.528	-10.471	56.042	270.198	133.780	251.049	54.027	220.786	0.00029514	0.00055747	0.00015886	1644.4	3.5707e-06	5.1795e-06	1622.9	428.74	2.036e-06	5.838e-06	484.99	160.93	141.44	48.85	4.7566e-06	60.145	0.0004504	0.00036634	0.00010724	1665.2	4.7629e-06	3.694e-06	1643.8	435.53	4.4403e-06	4.0246e-06	493.18	164.99	144.6	50.094	4.436e-06	61.64	132.588	6.925	20.211	-68.950	66.422	74.371	-69.142	-64.411	22.990	70.821	-64.780	-61.002	-60.354	-55.487	58.059	-56.466	-8191	255	
887.739	1	1	0	0	0.22248	0.093986	0.1423	0.40139	0.25154	0.15251	0.32058	0.27775	0.054857	0.094367	0.22095	0.050899	0.13852	0.18287	0.11846	0.105	-2.8521	-3.175	-3.2229	-3.5833	-3.2917	-3.175	-3.6875	-3.1083	-3.4208	-3.2438	-3.2479	-3.5208	-3.2083	-3.1625	-3.4	-3.2292	191.179	272.711	100.489	211.312	-67.828	-9.236	226.158	209.170	126.144	125.148	-76.748	160.726	154.781	257.981	121.952	264.988	0.00030408	0.0005985	0.00017922	1640.8	3.5529e-06	4.6484e-06	1615.5	428.15	2.8344e-06	5.797e-06	485.14	161.37	141.57	48.91	4.1938e-06	60.028	0.00044479	0.00037742	0.0001023	1661.8	4.5814e-06	3.9274e-06	1640	435.11	4.308e-06	3.66e-06	493.33	165.07	144.7	50.143	4.2376e-06	61.672	130.738	4.044	6.877	-68.991	58.016	75.980	-69.014	-64.454	23.387	75.801	-64.776	-60.976	-60.454	-55.635	67.366	-56.236	-8191	255	
887.836	1	1	0	0	0.086885	0.18713	0.32312	0.07637	0.12296	0.118	0.19411	0.34618	0.081275	0.069171	0.16474	0.092409	0.2804	0.41181	0.21653	0.087095	-3.0271	-3.2875	-3.0854	-3.6229	-3.2646	-3.1167	-3.6104	-3.3417	-3.3479	-3.4229	-3.1604	-3.5625	-3.2687	-3.1771	-3.5563	-3.2208	120.141	110.540	6.598	-81.372	203.106	-75.535	244.925	228.514	105.595	13.922	-39.251	39.413	226.854	246.722	80.827	228.146	0.00027674	0.00060313	0.0001527	1647	3.6151e-06	4.8272e-06	1621.9	428.39	3.5052e-06	6.4251e-06	484.21	160.59	140.8	48.83	4.4561e-06	60.259	0.00044938	0.00036376	0.00010561	1666.6	4.5356e-06	3.9948e-06	1641.6	435.97	4.5512e-06	4.0237e-06	493.24	164.73	144.42	50.135	4.3179e-06	61.765	133.364	-0.493	5.241	-68.894	55.173	68.721	-69.187	-64.454	26.214	64.826	-64.921	-60.800	-60.486	-55.379	61.503	-56.380	-8191	255	
887.932	1	1	0	0	0.043096	0.11251	0.14219	0.32942	0.12832	0.24306	0.30484	0.26819	0.2465	0.049061	0.098553	0.030333	0.2569	0.10887	0.23689	0.05282	-2.6937	-3.2792	-3.0687	-3.6292	-3.2396	-3.0875	-3.7417	-3.3333	-3.2833	-3.4708	-3.1167	-3.5458	-3.5021	-3.0958	-3.525	-3.2229	29.436	-11.327	204.491	221.229	-36.843	107.035	241.925	-67.312	-35.433	177.332	149.170	-77.786	266.304	-42.625	-32.087	26.076	0.0002766	0.00055375	0.00015608	1641.4	2.9157e-06	5.4923e-06	1613.2	427.5	2.9194e-06	5.9846e-06	485.61	160.35	141.07	48.762	3.6934e-06	60.244	0.00045492	0.00036316	0.00010797	1661.4	4.4864e-06	4.1106e-06	1638.8	435.28	4.3767e-06	3.7202e-06	493.65	164.61	144.47	50.04	4.0824e-06	61.575	129.250	5.157	20.023	-68.912	73.420	74.595	-68.915	-64.382	17.985	80.078	-64.903	-60.778	-60.268	-55.736	59.915	-56.303	-8191	255	
888.052	1	1	0	0	0.52899	0.26535	0.079612	0.39729	0.14523	0.12659	0.22888	0.24794	0.12054	0.15518	0.3182	0.32739	0.26586	0.066958	0.16149	0.15766	-2.6542	-3.3812	-2.9625	-3.4854	-3.2313	-2.9375	-3.6479	-3.425	-3.2042	-3.3438	-3.3438	-3.3604	-3.3708	-3.3375	-3.4833	-3.2083	-8.869	81.091	173.836	231.224	-3.944	-73.664	146.470	234.479	-26.902	56.929	266.867	-57.614	240.562	107.870	117.926	23.223	0.00029965	0.00052566	0.00016086	1639	2.9605e-06	6.0773e-06	1609.7	425.49	2.311e-06	4.9819e-06	480.78	160.26	140.57	48.653	2.7294e-06	59.645	0.00044399	0.00036642	0.00010122	1660.3	4.2788e-06	3.8868e-06	1639.3	434.76	4.4689e-06	3.4846e-06	492.79	164.82	144.49	50.104	4.1597e-06	61.626	128.044	-0.651	12.306	-68.852	68.559	60.250	-69.102	-64.560	36.632	78.002	-64.970	-61.135	-60.352	-55.730	59.799	-56.345	-8191	255	
888.147	1	1	0	0	0.22218	0.14026	0.16022	0.34141	0.28161	0.10009	0.21576	0.13164	0.19762	0.14075	0.034849	0.09537	0.20714	0.088629	0.029631	0.30893	-2.8375	-3.2438	-3.0396	-3.6979	-3.3646	-3.05	-3.5667	-3.3021	-3.1229	-3.3542	-3.2938	-3.3083	-3.5667	-3.2687	-3.4667	-3.3417	-53.440	-17.672	235.725	233.903	19.488	-0.495	275.717	205.963	256.422	-52.182	270.790	233.394	-61.349	117.566	130.280	196.062	0.00030447	0.00069061	0.00017858	1634.5	3.9141e-06	5.4984e-06	1601.2	425.74	3.0148e-06	5.5132e-06	482.13	159.84	140.62	48.602	4.2685e-06	59.807	0.00043459	0.00036976	0.00010271	1660.4	4.4808e-06	3.9862e-06	1636.2	434.69	4.6743e-06	3.636e-06	492.6	164.43	144.47	50.064	4.146e-06	61.518	129.218	6.145	14.976	-69.114	52.289	59.378	-69.134	-64.505	19.667	56.261	-64.878	-61.079	-60.348	-55.838	55.434	-56.444	-8191	255	
888.245	1	1	0	0	0.034066	0.20626	0.13969	0.37747	0.055515	0.24294	0.2134	0.16808	0.06737	0.16255	0.10378	0.16537	0.17189	0.26328	0.21198	0.23023	-2.7021	-3.5917	-3.1312	-3.3042	-3.4292	-3.0958	-3.7167	-3.4625	-3.2417	-3.4813	-3.35	-3.375	-3.5958	-3.1771	-3.3396	-3.3583	-77.846	231.328	183.800	232.169	137.072	3.543	234.626	174.249	-24.580	98.005	267.600	7.715	215.417	232.272	158.217	180.506	0.00031141	0.00056134	0.0001811	1640.8	3.7598e-06	5.5368e-06	1616.9	426.55	2.5379e-06	5.2476e-06	485.77	160.01	141.48	48.638	4.4391e-06	59.985	0.0004543	0.00035906	0.0001055	1661.4	4.3478e-06	4.0156e-06	1639.5	434.53	4.587e-06	3.4838e-06	493.53	164.71	144.53	50.061	4.0279e-06	61.591	135.053	5.669	14.036	-69.027	65.772	63.994	-69.034	-64.602	10.110	56.414	-64.707	-61.177	-60.420	-55.862	45.511	-56.252	-8191	255	
888.339	1	1	0	0	0.19922	0.31425	0.12319	0.18804	0.17396	0.18667	0.19966	0.13574	0.14635	0.1724	0.213	0.098869	0.14615	0.28128	0.015749	0.23102	-2.6604	-3.45	-3.2125	-3.1979	-3.4271	-3.0438	-3.5271	-3.4021	-2.85	-3.4417	-3.3208	-3.2875	-3.2833	-3.0625	-3.2979	-3.2917	104.742	198.419	200.795	200.585	46.271	1.634	258.852	133.020	10.465	-70.535	224.274	22.514	-75.855	276.666	35.889	233.890	0.00028982	0.00068794	0.00016956	1641.8	3.339e-06	5.9054e-06	1609.4	427.49	2.624e-06	5.0688e-06	485.35	160.95	141.34	48.804	4.005e-06	60.144	0.00044111	0.00035663	0.00010144	1661.3	4.4181e-06	4.0925e-06	1637.6	434.97	4.6979e-06	3.513e-06	493.57	164.92	144.73	50.089	4.1536e-06	61.653	129.766	1.482	11.670	-68.920	73.157	56.794	-68.980	-64.415	22.036	74.269	-64.979	-60.883	-60.411	-55.545	44.673	-55.897	-8191	255	
888.435	1	1	0	0	0.11135	0.089782	0.1584	0.090175	0.18638	0.052243	0.18041	0.22559	0.094815	0.10495	0.10198	0.20017	0.10461	0.21593	0.079892	0.15766	-2.6646	-3.3729	-3.1125	-3.4292	-3.35	-3.1021	-3.4562	-3.6729	-3.0729	-3.2542	-3.3875	-3.4125	-3.5187	-3.1417	-3.2167	-3.5042	-16.220	43.426	1.822	252.223	32.186	125.059	205.229	256.577	52.650	-46.324	215.009	187.168	-20.352	161.913	227.386	247.739	0.00030591	0.00064041	0.00014106	1639.4	3.4678e-06	4.2137e-06	1616.7	428.58	1.9284e-06	6.4359e-06	487.61	160.02	141.5	49.01	4.138e-06	60.041	0.00045211	0.00034639	0.00010122	1662.5	4.4927e-06	3.8548e-06	1640.2	435.76	4.4811e-06	3.6394e-06	494.11	164.74	144.76	50.198	4.2929e-06	61.621	132.049	2.670	20.705	-68.784	63.217	65.818	-69.185	-64.558	9.345	79.897	-65.054	-61.126	-60.437	-55.604	51.177	-56.150	-8191	255	
888.531	1	1	0	0	0.24001	0.14635	0.12056	0.092868	0.10534	0.20317	0.42411	0.107	0.093265	0.2347	0.053595	0.24427	0.17397	0.19649	0.1543	0.19312	-2.6542	-3.3542	-3.2167	-3.3875	-3.4583	-3.0771	-3.3812	-3.425	-2.9917	-3.5104	-3.4146	-3.2958	-3.6021	-3.3271	-3.3	-3.5646	-21.122	17.682	132.288	230.831	27.675	128.285	163.722	177.454	276.861	191.984	267.193	238.080	209.040	269.605	58.845	235.735	0.00029913	0.00065558	0.00017178	1639.5	3.0331e-06	5.6755e-06	1617.7	427.01	2.7381e-06	6.8005e-06	485.09	160.78	141.84	49.081	3.9814e-06	60.188	0.00044992	0.00035147	0.00010073	1662.4	4.307e-06	3.7174e-06	1640.6	434.8	4.6507e-06	3.887e-06	493.4	164.76	144.94	50.19	4.2997e-06	61.659	129.476	4.906	18.863	-68.957	66.179	66.476	-68.923	-64.349	31.682	71.810	-64.843	-61.146	-60.400	-55.461	59.332	-56.285	-8191	255	
888.627	1	1	0	0	0.12823	0.14634	0.05434	0.46173	0.25368	0.17115	0.1994	0.2738	0.091147	0.11854	0.12708	0.20593	0.18333	0.20946	0.096908	0.25406	-2.6854	-3.2604	-3.2104	-3.2583	-3.4313	-3.1813	-3.2896	-3.6437	-3.1896	-3.2521	-3.5417	-3.1708	-3.5042	-3.4542	-3.2146	-3.4771	-76.087	215.127	79.968	231.885	186.504	64.107	196.025	209.340	138.875	220.202	-27.273	-17.724	258.146	205.609	183.938	182.305	0.00029095	0.00052805	0.00014933	1642.7	3.6911e-06	6.5057e-06	1616.5	429.06	2.2716e-06	5.5129e-06	484.72	161.29	141.07	49.063	5.4205e-06	60.211	0.00045277	0.00036111	9.8534e-05	1662.3	4.3231e-06	3.8064e-06	1640.7	435.38	4.4833e-06	3.746e-06	493.79	165.16	144.85	50.167	4.2876e-06	61.699	132.569	-1.184	4.989	-68.887	56.981	70.684	-69.119	-64.550	25.966	67.143	-65.050	-61.148	-60.413	-55.596	57.244	-56.317	-8191	255	
888.748	1	1	0	0	0.061514	0.040127	0.15874	0.18523	0.38909	0.1508	0.27543	0.11417	0.20209	0.19344	0.27219	0.37895	0.26273	0.10896	0.041974	0.23107	-2.6271	-3.1521	-3.525	-3.2938	-3.4229	-3.1417	-3.3	-3.7729	-3.2875	-3.3021	-3.4917	-3.1312	-3.4875	-3.5438	-3.0687	-3.6479	90.935	272.183	82.932	-78.803	162.656	215.995	207.716	275.126	56.538	81.409	-67.436	263.864	243.360	232.162	-48.465	-40.023	0.00030043	0.0005062	0.00014722	1637.6	3.565e-06	5.4729e-06	1616.1	427.74	1.7907e-06	5.705e-06	485.16	160.7	141.61	48.889	3.9304e-06	60.073	0.00045204	0.0003448	9.8233e-05	1659.8	4.4526e-06	3.9672e-06	1639.8	435.29	4.494e-06	3.9928e-06	493.3	164.79	144.63	50.115	4.4912e-06	61.671	132.406	-1.065	17.193	-69.027	61.065	53.555	-69.124	-64.615	35.294	69.219	-64.758	-60.945	-60.382	-55.579	49.011	-56.295	-8191	255	
888.820	1	1	0	0	0.19663	0.15119	0.06664	0.084321	0.15638	0.046977	0.20508	0.29018	0.10548	0.20183	0.12557	0.30945	0.15837	0.11306	0.35511	0.31592	-2.8875	-3.2104	-3.2687	-3.3854	-3.2604	-3.4292	-3.3125	-3.6312	-3.2	-3.2375	-3.6583	-3.4833	-3.4729	-3.3229	-2.8979	-3.5458	19.434	214.028	266.040	-68.687	-80.223	-76.444	235.768	183.735	145.328	63.537	227.413	221.227	243.528	-56.872	-70.605	201.587	0.00030182	0.00064608	0.00017942	1641.6	2.7846e-06	5.2846e-06	1616	428.03	2.9671e-06	6.4901e-06	487.44	160.85	141.27	48.905	3.6068e-06	59.988	0.00045371	0.00037089	0.00010012	1660.7	4.3794e-06	3.911e-06	1640.4	435.47	4.4432e-06	3.7151e-06	494.19	164.83	144.73	50.132	4.3164e-06	61.518	132.620	5.035	11.744	-68.957	54.394	72.144	-69.087	-64.326	34.693	61.489	-65.095	-61.235	-60.363	-55.522	52.163	-56.171	-8191	255	
888.916	1	1	0	0	0.2156	0.17995	0.28898	0.10147	0.31563	0.058982	0.18532	0.22347	0.18533	0.11877	0.082381	0.16241	0.12042	0.22302	0.13307	0.22456	-2.9042	-3.2417	-3.5062	-3.2875	-3.4083	-3.4313	-3.3875	-3.5687	-3.1583	-3.2104	-3.7333	-3.3187	-3.2354	-3.5	-3.0708	-3.3354	186.454	89.607	75.514	185.303	113.603	274.986	203.364	231.889	99.647	104.383	201.915	234.718	255.049	236.856	22.082	70.339	0.000292	0.00061918	0.00019018	1639.9	2.9463e-06	5.3282e-06	1613.4	427.5	2.9694e-06	5.2584e-06	485.5	160.47	141.44	48.797	3.7069e-06	60.04	0.00045371	0.0003976	0.00010451	1660.1	4.283e-06	4.1227e-06	1637.8	435.11	4.6793e-06	4.2086e-06	493.36	164.62	144.61	49.961	4.4261e-06	61.559	130.499	14.989	9.803	-68.838	47.808	62.083	-69.054	-64.516	40.659	66.325	-64.798	-61.008	-60.362	-55.497	61.035	-56.346	-8191	255	
889.012	1	1	0	0	0.19144	0.15463	0.25676	0.19534	0.1518	0.13491	0.3424	0.12054	0.11091	0.027395	0.13418	0.2886	0.14392	0.11138	0.056832	0.098929	-2.8771	-3.0583	-3.3792	-3.3354	-3.2896	-3.4792	-3.1417	-3.2521	-3.4021	-3.0917	-3.6458	-3.2375	-3.2562	-3.5312	-3.075	-3.3229	56.613	186.093	-53.308	-81.663	263.436	262.708	216.101	171.570	224.183	120.263	-12.347	-80.928	-50.847	-46.128	190.460	167.014	0.00031627	0.00062718	0.00016708	1638	3.1191e-06	3.9414e-06	1607.6	426.23	1.7837e-06	6.3908e-06	482.46	159.59	140.39	48.407	3.2683e-06	59.689	0.00045426	0.00038804	0.00010157	1657.9	4.5856e-06	3.7286e-06	1634.2	433.23	4.5448e-06	4.1183e-06	490.44	163.73	143.68	49.646	4.4428e-06	61.134	131.500	0.846	10.951	-69.060	56.587	71.909	-69.021	-64.293	16.905	63.410	-64.810	-60.970	-60.298	-55.469	52.453	-56.157	-8191	255	
889.133	1	1	0	0	0.20801	0.11765	0.22418	0.40686	0.14254	0.067588	0.26496	0.12318	0.13234	0.047339	0.2137	0.19232	0.19474	0.1766	0.094083	0.2231	-2.8521	-3.2292	-3.1937	-3.3792	-3.2604	-3.4896	-3.3563	-3.3667	-3.2188	-3.2	-3.6333	-3.3917	-3.0417	-3.425	-3.1542	-3.4125	-65.601	189.451	-48.871	250.815	-33.355	215.235	194.967	187.156	176.032	171.926	17.384	240.905	45.816	-49.269	56.104	244.323	0.00029296	0.00047838	0.00019553	1633.4	2.7097e-06	4.7872e-06	1603.8	424.18	3.8205e-06	6.0509e-06	482.81	159.35	140.13	48.399	3.8695e-06	59.614	0.00044169	0.00037825	9.9114e-05	1651.7	4.7179e-06	3.9706e-06	1627.5	431.41	4.7515e-06	3.887e-06	489.15	163.39	143.27	49.651	4.4027e-06	61.125	135.353	14.651	0.927	-68.863	61.400	72.721	-68.951	-64.386	30.136	64.140	-64.799	-60.848	-60.358	-55.725	63.454	-56.081	-8191	255	
889.229	1	1	0	0	0.14483	0.16574	0.16247	0.097327	0.24179	0.06816	0.26173	0.070933	0.054148	0.20697	0.046417	0.069303	0.18157	0.20639	0.23015	0.078279	-2.9542	-2.9479	-3.2458	-3.4625	-3.2146	-3.5229	-3.2229	-3.4271	-3.3542	-2.8479	-3.2875	-3.4167	-3.1146	-3.4625	-3.0771	-3.1979	181.511	0.618	-7.145	194.323	-4.285	21.633	277.422	165.237	129.125	-25.537	61.493	61.619	224.494	-69.465	58.425	-29.676	0.00030691	0.00053878	0.00015198	1630	3.0883e-06	5.3534e-06	1606.1	426.56	2.9433e-06	6.5355e-06	481.84	159.38	139.49	48.454	4.2847e-06	59.558	0.00044322	0.00036786	9.8319e-05	1650.2	4.5631e-06	3.707e-06	1628.3	432.22	4.612e-06	4.1785e-06	488.96	163.13	142.99	49.57	4.2641e-06	61.056	132.942	4.480	23.438	-68.850	65.773	73.211	-69.035	-64.409	40.433	81.000	-64.881	-60.935	-60.094	-55.709	58.692	-56.234	-8191	255	
889.325	1	1	0	0	0.077431	0.17902	0.15615	0.21446	0.23964	0.12692	0.25599	0.22251	0.094194	0.16207	0.19944	0.18624	0.30266	0.11326	0.10918	0.18496	-3.1333	-3.0083	-3.3208	-3.4437	-3.1479	-3.4229	-3.4042	-3.2667	-3.3708	-2.9604	-3.3917	-3.2542	-3.3563	-3.4688	-3.2833	-3.2625	12.936	-25.578	53.366	-73.779	105.294	-17.692	212.244	-60.917	-43.892	188.451	239.879	209.892	192.983	-23.790	252.350	205.084	0.00030305	0.00050392	0.00016712	1630.2	3.1686e-06	5.5473e-06	1602.3	423.74	1.9455e-06	4.9149e-06	480.87	159.24	139.94	48.24	4.1024e-06	59.449	0.00044114	0.00036126	0.00010251	1648.3	4.5546e-06	3.7494e-06	1624.8	431.15	4.5269e-06	3.758e-06	488.59	162.73	142.79	49.413	4.4208e-06	60.862	130.475	-3.720	18.240	-69.023	52.148	69.355	-69.146	-64.153	7.205	68.678	-64.844	-60.788	-60.312	-55.668	55.195	-56.187	-8191	255	
889.444	1	1	0	0	0.12989	0.062596	0.1524	0.14311	0.18549	0.21593	0.20861	0.17091	0.1884	0.08742	0.25381	0.26618	0.38254	0.11144	0.081192	0.11002	-3.1875	-3.05	-3.3875	-3.4417	-2.9667	-3.3542	-3.6146	-3.4125	-3.4917	-3.0604	-3.6562	-3.4833	-3.2062	-3.4729	-3.0917	-3.4083	190.809	90.330	263.927	-45.810	184.172	116.436	210.771	87.831	22.152	-63.237	216.601	257.751	-57.425	30.744	3.453	-74.081	0.00029629	0.00048597	0.00017048	1625.7	4.0122e-06	4.7898e-06	1597.8	423.35	2.378e-06	5.426e-06	479.3	158.53	139.31	48.154	3.9275e-06	59.413	0.00043867	0.00035595	9.9824e-05	1643.7	4.6229e-06	3.8868e-06	1619.3	430.5	4.5884e-06	3.8612e-06	487.82	162.65	142.53	49.341	4.439e-06	60.93	130.888	6.971	19.493	-68.933	58.188	59.141	-68.899	-64.406	51.252	65.483	-64.644	-60.955	-60.201	-55.622	48.637	-56.149	-8191	255	
889.516	1	1	0	0	0.05314	0.08246	0.10122	0.31197	0.084728	0.040287	0.49243	0.23017	0.10666	0.21626	0.21795	0.095714	0.21859	0.10258	0.2225	0.21217	-3.0667	-3.1	-3.1375	-3.6104	-3.1708	-3.1771	-3.4708	-3.1229	-3.2458	-3.0521	-3.3854	-3.7042	-3.0083	-3.2479	-3.3375	-3.0771	-14.943	91.257	152.212	233.000	8.862	173.422	207.335	-81.768	-69.032	199.722	207.833	-36.154	-57.976	-61.172	-76.675	169.375	0.00030215	0.00067085	0.00016133	1624.5	3.438e-06	4.8525e-06	1595.3	424.1	2.3656e-06	4.4994e-06	479.51	158.34	139.36	48.124	4.2707e-06	59.501	0.0004375	0.00038887	0.00010621	1643.5	4.6926e-06	3.8021e-06	1619.8	431.06	4.4918e-06	4.2507e-06	487.37	162.39	142.34	49.297	4.5707e-06	60.884	130.431	-0.091	14.606	-68.862	64.003	58.317	-69.033	-64.330	61.393	77.016	-64.791	-61.024	-60.407	-55.402	37.309	-56.044	-8191	255	
889.612	1	1	0	0	0.21119	0.24408	0.15345	0.26458	0.099685	0.22056	0.1821	0.11756	0.12472	0.15306	0.27458	0.24691	0.2011	0.14011	0.22729	0.33827	-2.9604	-3.1604	-3.1271	-3.5333	-3.0854	-3.3646	-3.7062	-3.0521	-3.4896	-3.2625	-3.275	-3.6083	-3.2062	-3.3958	-3.2979	-3.0896	187.992	-39.335	80.105	234.397	87.430	19.843	239.178	200.592	138.694	67.109	277.655	-61.421	261.379	-78.579	253.055	141.599	0.00029144	0.00061324	0.00018571	1628.7	4.0138e-06	6.2866e-06	1596.3	422.12	1.9666e-06	5.9151e-06	479.87	158.22	139.7	48.482	3.5039e-06	59.554	0.0004406	0.00039213	0.00011305	1645.5	4.7425e-06	4.0925e-06	1622.3	430.69	4.4074e-06	4.1957e-06	487.86	162.46	142.65	49.454	4.3474e-06	60.969	135.622	6.605	13.801	-68.795	76.604	67.895	-69.109	-64.335	23.371	72.482	-64.884	-60.884	-60.251	-55.446	56.656	-56.371	-8191	255	
889.732	1	1	0	0	0.095461	0.20143	0.15496	0.28545	0.12609	0.097055	0.33291	0.11455	0.16931	0.26659	0.2401	0.24579	0.12874	0.16205	0.09255	0.13564	-3.0104	-3.2667	-3.1375	-3.7021	-3.0812	-3.1604	-3.7042	-3.1292	-3.4292	-3.2521	-3.1771	-3.55	-3.3542	-3.5292	-3.5417	-3.1729	97.968	107.983	276.706	-81.571	87.459	104.221	191.759	245.233	199.208	4.703	175.844	-67.203	247.578	261.804	116.579	192.770	0.00027551	0.00046758	0.00018728	1630.1	3.7276e-06	4.1753e-06	1601.4	423.78	2.7961e-06	5.7954e-06	479.14	158.58	139.86	48.039	4.8524e-06	59.329	0.00045765	0.00038068	0.00010438	1647.9	4.5807e-06	4.0527e-06	1624.9	430.84	4.4389e-06	4.0263e-06	487.83	162.82	142.87	49.385	4.3648e-06	60.939	125.818	3.726	11.210	-68.823	69.431	64.342	-69.122	-64.541	40.104	76.279	-64.755	-60.879	-60.417	-55.640	51.235	-56.196	-8191	255	
889.828	1	1	0	0	0.14891	0.29083	0.27697	0.31952	0.18002	0.24091	0.25887	0.29074	0.066252	0.056677	0.29778	0.16005	0.23558	0.096205	0.13606	0.082097	-3.0438	-3.3042	-3.1792	-3.5333	-3.0958	-3.2271	-3.5812	-3.2708	-3.3229	-3.3917	-3.1813	-3.4396	-3.2687	-3.1396	-3.4625	-3.2125	235.868	221.228	215.719	220.208	20.816	92.511	201.080	208.417	240.936	252.526	213.698	236.996	271.456	208.691	247.577	239.017	0.00029407	0.00050308	0.00014572	1628.5	3.6263e-06	5.47e-06	1597.2	421.96	2.1887e-06	6.2264e-06	480.27	158.38	139.75	48.265	4.6733e-06	59.277	0.00044206	0.00035671	0.00010432	1649	4.5884e-06	3.8297e-06	1623.8	431.14	4.3223e-06	3.826e-06	488.87	162.77	142.8	49.504	4.2149e-06	60.958	130.401	1.990	5.598	-68.916	65.692	62.143	-69.225	-64.458	22.934	83.822	-64.863	-60.995	-60.427	-55.414	53.538	-56.250	-8191	255	
889.925	1	1	0	0	0.18966	0.10767	0.064617	0.2623	0.16615	0.15566	0.09807	0.015672	0.065254	0.14388	0.063961	0.32969	0.12109	0.05496	0.13886	0.34896	-2.9542	-3.1688	-3.0708	-3.6229	-3.0687	-3.0521	-3.5083	-3.5292	-3.6167	-3.3937	-3.175	-3.5396	-3.3333	-3.2687	-3.4813	-3.225	-70.514	-72.718	118.649	275.608	113.933	235.792	-13.650	-41.280	217.357	57.316	262.231	238.431	180.943	232.328	40.146	201.524	0.00031032	0.00052982	0.0001717	1630.1	2.2076e-06	5.0941e-06	1603.5	424.1	2.2586e-06	6.1928e-06	480.46	159.21	139.91	48.348	4.41e-06	59.596	0.00044216	0.00036285	0.00010378	1650.8	4.4245e-06	3.9196e-06	1626.2	432.02	4.3223e-06	3.7151e-06	489.05	163.47	143.44	49.621	3.9129e-06	61.239	135.564	9.459	14.621	-69.029	91.860	67.215	-69.043	-64.262	45.567	74.375	-64.802	-60.802	-60.529	-55.559	58.136	-56.366	-8191	255	
890.045	1	1	0	0	0.19068	0.07156	0.076598	0.27957	0.02797	0.077016	0.10941	0.014838	0.17783	0.10065	0.13063	0.20143	0.11457	0.26393	0.18497	0.38998	-2.7562	-3.4417	-2.9854	-3.5729	-3.2542	-2.9542	-3.75	-3.1792	-3.2104	-3.5083	-3.0479	-3.3979	-3.3896	-3.0563	-3.4333	-3.2812	-78.558	43.291	-43.104	251.286	33.230	-48.064	192.629	-59.346	20.337	4.135	218.921	-77.282	-63.687	255.699	-32.135	254.244	0.00030989	0.00056863	0.00018603	1629.7	3.7946e-06	6.3129e-06	1601.4	424.8	3.018e-06	6.5023e-06	481.63	159.51	139.97	48.365	4.4293e-06	59.799	0.00043335	0.00035815	9.9071e-05	1650.2	4.3956e-06	3.9905e-06	1627.3	432.92	4.421e-06	3.6626e-06	490.16	163.6	143.65	49.713	3.9099e-06	61.302	132.967	0.701	9.226	-69.031	44.089	59.418	-69.143	-64.532	25.062	71.446	-64.970	-60.976	-60.498	-55.686	56.579	-56.369	-8191	255	
890.117	1	1	0	0	0.35577	0.27703	0.18975	0.22924	0.33044	0.1348	0.39641	0.30582	0.14338	0.16667	0.10197	0.42253	0.2044	0.1014	0.08595	0.3745	-2.5542	-3.2167	-3.1396	-3.5375	-3.3583	-3.0333	-3.5354	-3.4833	-3.1792	-3.3937	-3.3104	-3.3396	-3.4208	-3.0146	-3.3292	-3.3958	-28.694	15.167	97.633	189.513	141.703	59.476	234.039	252.565	-64.628	136.608	245.224	260.691	159.721	202.174	13.085	-41.261	0.00028567	0.00057706	0.00013674	1624.9	3.8602e-06	5.7992e-06	1602.1	425.17	3.6602e-06	6.4646e-06	483.65	159.39	140.87	48.609	4.6087e-06	59.524	0.00043073	0.00035291	0.00010236	1650.4	4.2809e-06	3.7303e-06	1629.1	433.38	4.4775e-06	3.6454e-06	492.25	163.67	143.93	49.875	3.9416e-06	61.277	132.431	-4.957	3.410	-68.965	77.863	78.334	-69.071	-64.418	32.208	72.024	-64.706	-60.952	-60.429	-55.792	54.779	-56.280	-8191	255	
890.213	1	1	0	0	0.16448	0.073753	0.12342	0.45677	0.21861	0.19867	0.31919	0.38335	0.18637	0.19152	0.24863	0.31517	0.13861	0.14459	0.15901	0.087992	-2.7292	-3.3604	-3.0542	-3.3958	-3.3479	-3.2333	-3.6188	-3.2208	-3.1979	-3.3063	-3.3104	-3.2417	-3.5021	-3.1688	-3.1708	-3.45	79.986	-16.552	196.708	255.293	164.739	37.803	209.581	196.178	165.463	47.527	-70.554	230.254	262.760	-67.780	-13.277	-51.264	0.00029516	0.00066342	0.0001587	1629.2	3.2002e-06	4.242e-06	1602.3	425.52	2.9202e-06	6.493e-06	482.37	159.05	139.65	48.38	3.4168e-06	59.457	0.00044118	0.00033493	9.634e-05	1652.9	4.0501e-06	3.6016e-06	1630.9	434.07	4.2529e-06	3.4631e-06	492.75	164.3	143.91	49.925	3.7683e-06	61.422	133.035	10.309	18.822	-69.088	57.846	72.518	-69.167	-64.560	39.688	67.652	-64.798	-61.130	-60.454	-55.798	57.651	-56.517	-8191	255	
890.309	1	1	0	0	0.065354	0.19633	0.1297	0.08534	0.22412	0.20281	0.4354	0.24752	0.13491	0.34192	0.15045	0.34398	0.2313	0.40031	0.12939	0.24128	-2.5438	-3.2458	-3.1083	-3.3354	-3.4188	-3.0187	-3.5729	-3.4229	-3.3125	-3.5104	-3.2729	-3.2562	-3.4542	-3.2646	-3.3896	-3.3417	-68.681	143.718	-3.832	132.240	4.965	125.271	215.885	197.679	105.627	2.378	-48.095	244.604	-69.934	-55.733	-28.013	-81.499	0.00029071	0.00058655	0.00012816	1634.7	4.1274e-06	5.3003e-06	1608	427.2	2.6023e-06	7.0348e-06	485.7	160.45	141.16	48.874	4.2565e-06	60.004	0.00043462	0.00034282	9.5523e-05	1653.5	4.2795e-06	3.7476e-06	1633.8	434.51	4.3602e-06	3.4855e-06	493.43	164.58	144.47	50.076	3.9326e-06	61.498	132.532	6.457	12.775	-68.928	60.810	65.945	-68.950	-64.408	15.249	72.314	-64.766	-61.037	-60.525	-55.507	56.148	-56.334	-8191	255	
890.428	1	1	0	0	0.17657	0.052535	0.17376	0.29152	0.10163	0.12603	0.23031	0.31331	0.18749	0.10754	0.17644	0.016974	0.11657	0.20496	0.11192	0.11372	-2.5521	-3.3792	-3.2938	-3.5417	-3.4062	-2.9958	-3.5833	-3.5083	-3.1125	-3.3854	-3.4146	-3.1312	-3.4708	-3.2771	-3.0083	-3.5563	219.997	-27.644	193.619	209.517	170.351	-77.889	197.277	245.979	-32.417	18.285	258.523	-14.470	205.604	-81.144	23.432	-67.170	0.00029761	0.00046368	0.00017159	1632.3	3.5874e-06	4.7692e-06	1614.9	428.58	2.8313e-06	6.6333e-06	486.79	160.51	141.67	48.801	3.75e-06	60.03	0.00045178	0.0003253	9.748e-05	1655.5	3.9446e-06	3.4391e-06	1635.2	435.08	4.303e-06	3.2731e-06	493.65	164.68	144.87	50.043	3.9485e-06	61.575	135.479	5.433	15.733	-68.906	48.578	68.528	-68.848	-64.496	31.772	66.606	-64.929	-61.032	-60.336	-55.643	57.744	-56.105	-8191	255	
890.524	1	1	0	131072	0.14889	0.12717	0.12317	0.24659	0.065422	0.11496	0.10321	0.19208	0.20648	0.09446	0.14925	0.32283	0.10391	0.07431	0.25985	0.33099	-2.6229	-3.2292	-3.275	-3.2583	-3.4208	-3.1167	-3.4062	-3.4917	-2.9458	-3.3604	-3.4938	-3.2167	-3.5542	-3.1917	-3.175	-3.4479	1.328	141.703	178.250	214.276	5.045	-73.304	175.873	184.054	265.549	-60.724	268.223	87.488	267.733	-16.532	41.986	225.159	0.00030942	0.00051662	0.00018132	1639	3.5603e-06	4.5503e-06	1609.1	428.35	3.0535e-06	6.3736e-06	485.19	160.45	141.34	49.072	3.5625e-06	60.054	0.00044417	0.00031923	9.8706e-05	1657.2	4.2718e-06	3.5713e-06	1633.7	435.92	4.3473e-06	3.5285e-06	493.75	164.84	144.62	50.15	4.065e-06	61.612	132.532	-4.498	4.579	-68.916	60.302	64.620	-69.138	-64.449	40.396	67.138	-64.733	-61.063	-60.287	-55.500	57.145	-56.325	-8191	255	
890.620	1	1	0	0	0.16522	0.26877	0.10126	0.2989	0.10231	0.083607	0.10538	0.13421	0.050146	0.13504	0.18893	0.044955	0.29438	0.13295	0.17147	0.29567	-2.7979	-3.2542	-3.2188	-3.2792	-3.6063	-3.3583	-3.5208	-3.8104	-3.2583	-3.3792	-3.5	-3.1729	-3.5812	-3.2458	-3.3375	-3.5563	55.671	-14.680	120.699	-65.364	273.446	-29.864	212.217	104.813	191.897	98.504	241.936	-81.288	271.884	-82.279	-25.417	239.828	0.0003043	0.00060192	0.00013904	1641.1	2.4361e-06	5.5877e-06	1612.3	428.37	3.4296e-06	5.5003e-06	485.78	160.67	141.51	48.983	4.772e-06	60.037	0.00044093	0.00033615	8.8556e-05	1656.9	4.1177e-06	3.4468e-06	1635.2	435.61	4.3709e-06	3.4116e-06	493.89	164.74	144.9	50.228	4.0597e-06	61.649	129.634	13.409	16.110	-69.066	69.412	75.861	-69.022	-64.502	25.735	68.831	-64.676	-60.997	-60.293	-55.602	47.146	-56.322	-8191	255	
890.717	1	1	0	0	0.087132	0.20407	0.11798	0.1938	0.19872	0.096419	0.30589	0.13376	0.26487	0.06361	0.2793	0.26984	0.1328	0.16261	0.25413	0.22433	-2.8729	-3.275	-3.4042	-3.3354	-3.2979	-3.2833	-3.3958	-3.5625	-2.9729	-3.2667	-3.5042	-3.0417	-3.4604	-3.375	-3.1125	-3.5417	246.131	182.536	151.382	225.383	-64.808	148.950	179.140	248.977	117.729	137.461	227.248	242.015	-55.816	99.829	-20.483	250.644	0.00029156	0.00055604	0.0001605	1636.7	3.8714e-06	5.9877e-06	1615.5	429.86	1.9654e-06	6.2064e-06	487.02	161.03	142.1	49.099	4.2509e-06	60.123	0.00043477	0.00033266	9.3157e-05	1655.5	4.1374e-06	3.6586e-06	1635.2	436.34	3.946e-06	3.6317e-06	494.01	164.88	145.14	50.225	4.1854e-06	61.657	134.561	6.148	11.640	-69.022	53.452	65.664	-69.304	-64.358	-20.249	74.275	-64.710	-60.957	-60.348	-55.504	50.062	-56.249	-8191	255	
890.813	1	1	0	0	0.15095	0.30536	0.21317	0.27272	0.073064	0.21027	0.029439	0.19941	0.13456	0.30079	0.10423	0.079547	0.29766	0.1374	0.17701	0.048947	-2.7479	-3.2125	-3.3604	-3.2292	-3.3542	-3.3229	-3.2979	-3.5729	-3.0917	-3.1875	-3.6354	-3.0667	-3.3458	-3.3125	-2.9313	-3.4208	149.417	222.532	-60.560	247.725	98.983	75.403	157.701	216.653	190.297	122.085	-58.487	-38.125	198.757	245.577	180.716	60.705	0.00029183	0.00053095	0.00016467	1639.7	3.4955e-06	5.098e-06	1613.8	429.34	2.5468e-06	5.8277e-06	485.33	160.56	141.89	48.989	3.2681e-06	60.242	0.00043411	0.00035246	9.4297e-05	1657.6	4.2697e-06	3.7234e-06	1634.7	435.91	4.333e-06	3.8096e-06	493.55	164.59	145.07	50.276	4.0075e-06	61.733	126.230	3.009	13.614	-68.722	71.161	64.593	-69.040	-64.458	30.828	79.144	-64.808	-60.832	-60.388	-55.571	65.349	-56.189	-8191	255	
890.909	1	1	0	0	0.2126	0.16381	0.05733	0.24941	0.055733	0.38314	0.26231	0.24605	0.12225	0.14262	0.19433	0.070114	0.28555	0.016626	0.11452	0.10325	-2.6833	-3.1271	-3.2229	-3.2979	-3.1667	-3.3958	-3.2292	-3.5875	-3.1875	-3.0583	-3.5667	-3.0354	-3.3458	-3.4958	-3.0354	-3.4229	42.081	208.264	164.167	255.371	-54.938	206.749	225.477	235.329	110.120	76.189	236.819	207.876	243.206	187.081	24.109	147.600	0.00030412	0.00056735	0.00016937	1639.8	2.6155e-06	5.6825e-06	1614.8	427.97	2.6051e-06	6.3164e-06	483.83	160.75	142.22	49.033	3.9928e-06	59.945	0.00044133	0.00033144	9.905e-05	1657.4	4.1698e-06	3.4857e-06	1637.3	435.78	4.4296e-06	3.7606e-06	493.05	164.95	145.07	50.268	4.0401e-06	61.653	133.459	-0.138	25.624	-68.854	57.316	72.694	-69.014	-64.340	27.363	71.299	-65.024	-60.763	-60.215	-55.652	63.137	-56.189	-8191	255	
891.005	1	1	0	0	0.16299	0.17705	0.12326	0.32743	0.23671	0.056668	0.11384	0.15838	0.053474	0.21082	0.14517	0.060465	0.36456	0.23673	0.23754	0.35012	-2.8375	-3.0104	-3.4	-3.4479	-3.0896	-3.2125	-3.1167	-3.5125	-3.3125	-3.1896	-3.3917	-3.2562	-3.1333	-3.4083	-2.9917	-3.5542	188.879	-58.626	1.374	249.393	116.276	170.139	272.266	247.144	129.914	74.443	224.920	229.096	229.899	253.093	152.127	271.687	0.00029166	0.00054086	0.00019115	1637.6	4.0353e-06	5.4832e-06	1610.1	427.59	2.755e-06	4.6987e-06	486.58	160.59	141.81	48.985	3.8628e-06	59.848	0.00045328	0.00034609	9.6921e-05	1656.9	4.2141e-06	3.4546e-06	1634.3	435.51	4.4074e-06	3.3127e-06	493.79	164.87	144.96	50.182	4.012e-06	61.5	127.815	-8.593	19.386	-68.784	62.847	56.284	-68.777	-64.298	24.374	73.864	-64.883	-60.779	-60.283	-55.656	42.804	-56.361	-8191	255	
891.126	1	1	0	0	0.19997	0.16125	0.096632	0.35399	0.17805	0.10218	0.23223	0.21088	0.042528	0.16521	0.14103	0.1981	0.34981	0.15783	0.056643	0.23149	-2.9229	-3.0521	-3.3958	-3.3083	-3.2458	-3.4813	-3.3479	-3.5792	-3.1271	-3.0208	-3.5271	-3.2875	-3.2333	-3.6	-3.0896	-3.4396	142.414	-76.799	152.314	260.330	-20.016	-4.401	194.238	169.793	104.753	57.137	200.487	10.669	-81.969	117.762	39.346	220.469	0.00031936	0.00061556	0.00014628	1637	3.8697e-06	5.1482e-06	1611	427.62	2.9312e-06	5.6666e-06	484.36	161.05	141.8	48.887	3.9605e-06	60.22	0.00044752	0.00036611	8.9996e-05	1654.8	4.2303e-06	3.5445e-06	1632.5	435.56	4.3888e-06	3.4657e-06	492.83	164.63	144.85	50.153	4.1377e-06	61.617	132.506	11.509	7.982	-68.997	64.514	73.955	-69.067	-64.476	34.324	72.172	-64.672	-60.780	-60.278	-55.469	60.799	-56.210	-8191	255	
891.220	1	1	0	0	0.12845	0.18545	0.10264	0.21878	0.10116	0.12623	0.44162	0.33283	0.11112	0.039561	0.06132	0.046695	0.14763	0.1163	0.17506	0.14057	-2.9854	-2.9813	-3.2833	-3.4708	-3.0604	-3.4125	-3.1771	-3.3146	-3.1917	-3.0833	-3.5458	-3.1583	-3.2042	-3.3958	-3.0438	-3.2208	-72.601	133.568	193.570	-76.450	-51.897	89.016	224.178	217.571	-50.124	159.401	-63.638	257.595	200.905	197.448	-17.085	133.488	0.00028182	0.00052519	0.00018858	1638.3	3.2342e-06	6.1705e-06	1609.4	427.89	2.0457e-06	6.1972e-06	485.01	160.61	141.53	48.899	4.3706e-06	60.161	0.00043976	0.00033486	8.8857e-05	1653.9	4.3393e-06	3.5722e-06	1632.1	435.15	4.3416e-06	3.6308e-06	493.39	164.48	144.62	50.156	4.0938e-06	61.573	128.185	2.556	9.115	-68.857	74.650	65.747	-69.116	-64.425	29.447	82.268	-64.807	-60.941	-60.339	-55.593	64.689	-56.311	-8191	255	
891.316	1	1	0	0	0.21012	0.069992	0.17675	0.16497	0.24253	0.32113	0.12758	0.26582	0.054753	0.33669	0.16775	0.33264	0.053456	0.15607	0.22564	0.25056	-2.9042	-2.9604	-3.2229	-3.3208	-3.0271	-3.3812	-3.2042	-3.45	-3.3229	-3.125	-3.5958	-3.3771	-3.1625	-3.4958	-3.0354	-3.2708	-47.620	204.811	-43.324	258.885	49.737	192.697	235.349	205.915	28.175	-64.635	73.058	220.536	-67.662	269.706	-12.206	269.764	0.00031746	0.00054722	0.00015233	1634.9	3.5342e-06	4.6871e-06	1606.8	427.75	1.9229e-06	6.867e-06	485.11	160.95	141.13	48.993	5.8989e-06	60.083	0.00043845	0.00034935	9.105e-05	1652.2	4.3323e-06	3.4019e-06	1631.1	435.33	4.1864e-06	3.6549e-06	492.17	164.61	144.41	50.081	4.3504e-06	61.572	133.324	8.815	20.852	-68.969	67.623	65.116	-69.037	-64.463	22.922	70.654	-65.001	-60.976	-60.409	-55.510	55.740	-55.985	-8191	255	
891.414	1	1	0	0	0.28173	0.073094	0.2522	0.2252	0.14602	0.26614	0.10233	0.11203	0.12998	0.13994	0.26079	0.075769	0.19585	0.16257	0.34091	0.13977	-3.0125	-3.0687	-3.2146	-3.5667	-2.9333	-3.3792	-3.4917	-3.4833	-3.4792	-3.0396	-3.2875	-3.3021	-3.2125	-3.4646	-3.0271	-3.1104	-51.921	213.123	76.313	-56.095	-10.135	201.995	135.373	209.491	84.375	14.350	256.331	177.233	228.077	-42.345	273.779	240.166	0.00028944	0.00049843	0.00014738	1635.9	3.3662e-06	6.0861e-06	1608.6	426.22	2.7866e-06	6.4599e-06	484.18	159.89	141.47	49.043	4.1558e-06	60.102	0.00043258	0.00031991	9.2878e-05	1653.2	4.2753e-06	3.4045e-06	1629.9	434.74	4.2429e-06	3.7151e-06	492.8	164.45	144.57	50.124	4.0915e-06	61.533	134.820	2.884	17.553	-69.036	58.382	57.434	-69.088	-64.426	40.163	67.529	-64.681	-61.003	-60.389	-55.432	39.059	-56.335	-8191	255	
891.508	1	1	0	0	0.24662	0.12682	0.071242	0.19984	0.090423	0.042	0.46807	0.046079	0.093174	0.20791	0.15048	0.14532	0.11298	0.16695	0.30256	0.13466	-3.1146	-2.9188	-3.3375	-3.5375	-3.1208	-3.3917	-3.4583	-3.1958	-3.3771	-3.0208	-3.2792	-3.6167	-3.3271	-3.3542	-3.2167	-3.2979	225.814	125.859	-16.790	243.240	227.309	136.595	206.946	175.006	34.535	54.839	236.592	-26.895	273.761	-43.134	58.722	-66.905	0.00030375	0.00058071	0.00015481	1628.9	3.1176e-06	3.9204e-06	1611.2	428.71	3.1355e-06	6.3577e-06	482.91	160.36	141.65	48.953	4.8704e-06	59.743	0.0004269	0.00034244	9.1201e-05	1651.9	4.2113e-06	3.6059e-06	1632.4	435.18	4.3001e-06	3.9644e-06	492.36	164.7	144.59	50.087	4.0332e-06	61.406	129.870	8.202	22.393	-68.983	70.587	72.421	-69.141	-64.479	16.731	67.982	-64.833	-61.018	-60.423	-55.439	64.080	-56.204	-8191	255	
891.605	1	1	0	0	0.25485	0.29026	0.090464	0.33983	0.17745	0.3662	0.16253	0.055797	0.053633	0.26012	0.32116	0.26207	0.24313	0.25756	0.14879	0.22686	-3.1021	-3.1188	-3.1771	-3.6229	-2.9708	-3.5396	-3.4604	-3.3458	-3.4792	-3.2938	-3.2729	-3.4917	-3.1271	-3.4542	-3.2938	-3.1104	111.189	259.315	147.230	245.237	-36.591	146.264	182.069	142.838	-38.597	242.338	248.601	191.457	48.626	-58.156	172.468	-61.447	0.00029223	0.00042524	0.00016758	1633.9	3.1779e-06	6.3372e-06	1607.4	426.04	3.8856e-06	5.5297e-06	486.46	160.56	141	48.681	3.8468e-06	59.955	0.00042945	0.00034775	9.4813e-05	1651.9	4.2394e-06	3.8505e-06	1628.3	434.14	4.3688e-06	3.758e-06	492.56	164.37	144.34	49.959	3.9651e-06	61.466	128.778	11.064	10.442	-68.978	52.545	73.549	-68.902	-64.403	36.363	75.974	-64.853	-60.881	-60.222	-55.612	49.331	-56.190	-8191	255	
891.725	1	1	0	0	0.19469	0.13864	0.26178	0.3455	0.16843	0.22883	0.10286	0.2397	0.2248	0.11098	0.093147	0.21275	0.16491	0.090773	0.092097	0.21098	-3.1729	-3.1229	-3.0375	-3.5979	-3.0396	-3.3646	-3.5625	-3.2396	-3.3396	-3.2	-3.1021	-3.5187	-3.2479	-3.1437	-3.3688	-3.0938	143.881	21.263	101.564	259.854	62.145	62.179	248.295	242.292	42.645	-3.935	235.386	231.401	275.980	153.835	232.122	204.214	0.00026966	0.00063304	0.00017431	1637.9	4.0018e-06	4.9154e-06	1602.2	425.32	2.5727e-06	5.9626e-06	484.38	160.01	140.76	48.825	4.7445e-06	59.999	0.00044198	0.00036179	9.7587e-05	1652.3	4.4646e-06	3.7131e-06	1627.5	433.75	4.3387e-06	3.8328e-06	492.52	164.41	144.21	50.029	4.093e-06	61.507	129.734	-0.936	15.346	-68.892	65.743	69.436	-69.077	-64.374	29.445	62.599	-64.727	-60.874	-60.174	-55.681	43.461	-56.438	-8191	255	
891.821	1	1	0	0	0.22083	0.16518	0.1317	0.22771	0.050968	0.32782	0.34218	0.21584	0.14792	0.32399	0.047302	0.081651	0.074344	0.19435	0.065338	0.15733	-3.0729	-3.2583	-3.0292	-3.6229	-3.0354	-3.2083	-3.4	-2.8604	-3.2313	-3.2271	-3.1146	-3.525	-3.2104	-3.1896	-3.4125	-3.1708	45.294	170.316	261.694	238.175	-32.011	-25.998	211.081	247.910	29.561	46.205	119.960	203.915	160.563	204.784	-29.301	252.466	0.00029506	0.0005932	0.00016041	1635.6	3.1652e-06	5.6636e-06	1605.6	426.82	3.0346e-06	6.3232e-06	484.58	160.22	141.39	48.837	4.1442e-06	59.943	0.00044788	0.00033713	0.00010075	1652.6	4.428e-06	3.8548e-06	1628.4	434.09	4.4525e-06	3.6385e-06	492.89	164.36	144.26	50.055	4.0438e-06	61.4	131.197	14.081	14.854	-68.839	57.767	68.650	-69.068	-64.259	39.772	68.762	-64.958	-60.935	-60.377	-55.564	58.099	-56.291	-8191	255	
891.918	1	1	0	0	0.16457	0.087458	0.070822	0.084635	0.050262	0.15764	0.22313	0.19216	0.098612	0.11157	0.22873	0.28129	0.11091	0.21035	0.1123	0.056588	-2.8104	-3.0979	-3.0583	-3.5979	-3.0125	-3.1312	-3.7188	-3.1646	-3.2188	-3.2042	-3.2146	-3.4396	-3.3854	-3.2083	-3.4167	-3.2562	246.993	59.629	-41.665	247.581	205.725	127.676	245.310	-74.235	83.832	144.639	239.025	245.445	199.509	244.689	-43.436	248.088	0.00029961	0.00056997	0.00014962	1634.5	4.5704e-06	5.8535e-06	1603.5	428.39	2.9634e-06	6.4002e-06	484.97	161.17	141.84	48.847	4.0905e-06	59.89	0.00043528	0.00033789	9.7845e-05	1652.6	4.5385e-06	3.8099e-06	1627.7	434.89	4.2858e-06	3.8612e-06	493.07	164.5	144.6	50.072	3.9167e-06	61.469	128.690	-3.240	7.585	-68.950	55.837	76.581	-69.067	-64.486	26.315	71.514	-64.818	-60.946	-60.352	-55.490	43.511	-56.112	-8191	255	
891.989	1	1	0	0	0.19951	0.041389	0.08094	0.46431	0.19083	0.23652	0.16611	0.34815	0.10643	0.14196	0.086352	0.27364	0.25375	0.084331	0.075941	0.069135	-2.9792	-3.3563	-3.0854	-3.5563	-3.2188	-3.0625	-3.5729	-3.2208	-3.1646	-3.3063	-3.075	-3.3187	-3.4521	-3.2042	-3.3979	-3.3979	2.965	140.991	196.963	243.568	54.041	220.297	258.821	219.015	38.926	200.544	48.453	238.175	248.425	18.542	48.222	227.674	0.00030793	0.00060613	0.00016203	1635.9	3.5826e-06	6.3757e-06	1603.6	427.51	3.2525e-06	5.7994e-06	485.91	160.53	141.34	48.893	4.1507e-06	60.103	0.000434	0.00035246	9.7007e-05	1651.5	4.4048e-06	3.8315e-06	1628.2	434.09	4.3337e-06	3.501e-06	492.5	164.41	144.21	49.958	4.2301e-06	61.409	136.116	9.259	17.481	-68.986	63.761	74.179	-69.012	-64.510	27.277	62.867	-64.629	-60.853	-60.529	-55.407	59.311	-55.974	-8191	255	
892.110	1	1	0	0	0.087226	0.26484	0.068191	0.29666	0.24316	0.11888	0.18831	0.33052	0.20547	0.2186	0.071074	0.064192	0.29594	0.11631	0.13083	0.29508	-2.7521	-3.4437	-2.8854	-3.5354	-3.1354	-2.8917	-3.6562	-3.2417	-3.2042	-3.5479	-3.0521	-3.5292	-3.2729	-3.2938	-3.5229	-3.2313	15.703	-9.164	110.119	274.343	123.092	160.754	254.307	-76.126	2.752	102.689	258.796	70.018	254.074	-25.715	14.191	199.933	0.00028922	0.00057225	0.00016263	1632.6	2.4132e-06	5.3331e-06	1608.1	426.83	9.227e-07	5.4617e-06	485.11	160.32	141.3	48.915	3.206e-06	59.988	0.00044453	0.00032462	9.8813e-05	1649.6	4.3808e-06	3.7606e-06	1628.6	433.86	4.484e-06	3.5827e-06	491.57	164.11	144.14	50.013	4.115e-06	61.388	131.303	12.516	11.670	-69.018	70.274	81.340	-69.133	-64.614	24.036	77.234	-64.799	-60.833	-60.332	-55.595	68.204	-56.102	-8191	255	
892.206	1	1	0	0	0.18519	0.11564	0.15764	0.16583	0.10809	0.1701	0.39497	0.23414	0.098716	0.11816	0.18875	0.070622	0.22412	0.19582	0.14638	0.03393	-2.5271	-3.4833	-3.0375	-3.4396	-3.4583	-3.075	-3.5354	-3.3438	-3.0583	-3.6312	-3.2938	-3.3917	-3.3792	-3.2687	-3.3833	-3.3354	15.000	26.006	6.177	248.041	263.299	75.484	244.945	255.510	238.254	60.944	230.458	239.241	247.628	177.846	184.333	-69.998	0.0002976	0.00050888	0.00015201	1629.7	3.3899e-06	5.7722e-06	1599.7	426.3	2.9616e-06	6.3378e-06	482.27	159.94	141.29	48.712	3.6957e-06	60.09	0.00044621	0.00034578	0.00010036	1648.9	4.4104e-06	3.8064e-06	1623.1	433.66	4.4167e-06	3.5543e-06	490.87	164.23	144.21	49.937	3.8667e-06	61.429	130.307	6.793	14.048	-68.894	41.984	63.576	-69.043	-64.300	45.022	72.809	-64.748	-60.959	-60.342	-55.574	57.931	-55.968	-8191	255	
892.300	1	1	0	0	0.068632	0.27928	0.046554	0.1934	0.2787	0.15802	0.39362	0.27973	0.15337	0.078855	0.28232	0.3244	0.20317	0.30067	0.23737	0.093432	-2.6271	-3.2313	-3.2396	-3.3979	-3.3312	-2.9771	-3.5938	-3.5458	-3.0104	-3.2562	-3.2854	-3.2833	-3.3208	-3.2146	-3.4604	-3.3021	-71.080	184.043	226.572	-70.880	-49.540	266.052	193.328	218.816	16.272	44.106	198.085	208.294	29.298	-45.809	99.745	132.369	0.00030466	0.00044136	0.0001576	1628.6	4.204e-06	5.7893e-06	1602.5	427.72	4.1158e-06	5.4402e-06	483.24	160.05	141	48.838	5.0951e-06	59.922	0.00044282	0.00031976	9.7781e-05	1649.5	4.2225e-06	3.8816e-06	1625	433.91	4.4604e-06	3.5422e-06	491.13	164.02	144.08	50.003	4.3254e-06	61.413	132.146	13.233	16.283	-68.999	60.824	68.855	-69.045	-64.437	23.025	64.605	-64.844	-61.083	-60.192	-55.465	71.083	-56.397	-8191	255	
892.397	1	1	0	0	0.14989	0.09707	0.2984	0.12518	0.10082	0.21105	0.24491	0.29984	0.032122	0.11932	0.27304	0.25588	0.16764	0.15158	0.21736	0.12069	-2.6771	-3.4021	-3.225	-3.3083	-3.2417	-3.3	-3.6188	-3.4125	-3.1396	-3.2646	-3.2417	-3.3021	-3.5583	-3.2687	-3.3063	-3.4854	39.563	229.007	182.008	243.686	276.341	-9.638	204.200	161.662	173.470	121.269	-76.539	236.627	-50.921	238.307	27.674	223.324	0.00028252	0.00048958	0.0001291	1629.3	3.4852e-06	4.7133e-06	1607.2	427.21	3.6359e-06	5.9895e-06	483.03	160.02	141.65	48.587	4.895e-06	60.176	0.00044716	0.00033015	0.00010036	1647.4	4.2922e-06	3.7113e-06	1626.1	434.13	4.4267e-06	3.8569e-06	491.17	163.9	144.04	49.805	4.1831e-06	61.325	136.073	15.190	12.910	-68.885	50.982	71.350	-68.959	-64.331	21.691	60.105	-64.793	-60.832	-60.206	-55.789	46.570	-56.267	-8191	255	
892.517	1	1	0	0	0.18163	0.029876	0.24165	0.4361	0.10768	0.27896	0.036611	0.071034	0.051323	0.0063993	0.22256	0.29341	0.23157	0.26915	0.032343	0.14826	-2.6583	-3.4625	-3.2938	-3.4521	-3.4938	-3	-3.4896	-3.2708	-3.0021	-3.3688	-3.5125	-3.1292	-3.6625	-3.1583	-3.2229	-3.4875	-33.265	173.988	109.193	241.495	-56.217	2.750	124.862	195.854	171.291	-3.144	247.224	276.111	-64.637	237.941	48.422	116.021	0.00030146	0.00063132	0.00014187	1626.2	2.6943e-06	5.077e-06	1605.3	427.02	3.0639e-06	6.3603e-06	483.95	159.75	140.63	48.856	4.024e-06	60.008	0.00042941	0.00034335	9.6168e-05	1646.7	4.2535e-06	3.7156e-06	1625.3	433.22	4.5441e-06	3.8389e-06	490.67	163.77	143.79	49.874	4.1195e-06	61.279	134.377	-3.399	10.895	-68.785	58.955	69.041	-68.990	-64.309	22.705	59.967	-64.983	-60.934	-60.389	-55.446	47.815	-56.168	-8191	255	
892.613	1	1	0	0	0.097591	0.20216	0.15974	0.21211	0.097876	0.105	0.44082	0.20104	0.15779	0.19014	0.14581	0.12305	0.32623	0.14577	0.23388	0.15831	-2.6688	-3.3	-3.2583	-3.3333	-3.3563	-2.95	-3.3896	-3.6229	-3.2083	-3.2729	-3.3104	-3.0563	-3.5417	-3.4	-3.2729	-3.6583	49.364	-57.009	-1.007	235.024	261.114	-25.419	198.194	213.522	-65.473	-34.493	-30.021	255.434	35.670	-74.729	3.435	-38.720	0.00029113	0.00057554	0.00016999	1626.3	3.6501e-06	6.1549e-06	1606.4	426.47	2.5054e-06	5.5681e-06	482.16	160.5	141.34	48.66	4.5442e-06	59.844	0.00045943	0.00034798	9.8921e-05	1646.5	4.2155e-06	4.0086e-06	1625.5	432.61	4.5498e-06	3.8036e-06	490.64	163.87	144.11	49.871	4.1597e-06	61.334	134.564	3.625	15.960	-68.896	54.874	62.821	-68.907	-64.273	33.366	62.374	-64.850	-60.844	-60.299	-55.655	49.301	-56.008	-8191	255	
892.685	1	1	0	0	0.15055	0.12064	0.031816	0.21936	0.19394	0.2576	0.28816	0.18834	0.047042	0.1555	0.26747	0.17843	0.058407	0.28101	0.21546	0.17912	-2.6646	-3.425	-3.3125	-3.2104	-3.4146	-3.0146	-3.4313	-3.75	-3.2438	-3.3542	-3.5479	-3.1396	-3.5187	-3.2938	-3.0312	-3.5125	-25.144	-26.825	68.852	228.393	28.230	218.035	264.967	252.388	102.281	-26.985	-79.147	245.037	-37.062	-59.441	135.769	230.142	0.00028836	0.00058526	0.00014527	1633.6	4.1252e-06	5.2793e-06	1603.6	427.32	2.1508e-06	6.5304e-06	484.61	159.86	141.48	48.685	3.8478e-06	59.914	0.00044861	0.00034677	9.4985e-05	1648.9	4.2662e-06	3.7908e-06	1623.3	433.09	4.6177e-06	3.7606e-06	491.01	163.75	144	49.842	4.1521e-06	61.318	132.110	-5.214	10.175	-68.832	70.629	74.992	-68.902	-64.271	33.895	67.239	-64.699	-60.952	-60.352	-55.511	46.123	-56.187	-8191	255	
892.806	1	1	0	0	0.25225	0.13509	0.20463	0.22405	0.15766	0.1294	0.19295	0.27262	0.082453	0.2007	0.044051	0.18021	0.27542	0.059325	0.11072	0.074684	-2.6354	-3.1979	-3.2896	-3.3667	-3.4604	-3.2146	-3.2271	-3.4417	-3.3104	-3.2083	-3.3187	-3.1583	-3.3854	-3.3792	-3.1333	-3.4646	-80.413	218.301	18.697	142.790	-76.049	-57.218	232.276	159.956	95.205	-71.492	249.438	245.838	243.290	41.102	258.469	21.443	0.00030761	0.00057221	0.00017043	1628.4	2.7987e-06	5.5377e-06	1605.9	426.99	3.9176e-06	6.8491e-06	484.84	159.8	140.75	48.685	4.1449e-06	59.802	0.00045728	0.00035246	0.00010056	1645.9	4.1705e-06	3.9334e-06	1625.6	432.96	4.7343e-06	3.8045e-06	490.62	163.93	143.89	49.881	4.1975e-06	61.229	129.014	10.793	15.261	-68.800	35.420	69.265	-69.017	-64.396	30.564	70.158	-64.744	-60.884	-60.230	-55.362	59.876	-56.342	-8191	255	
892.902	1	1	0	0	0.18588	0.18299	0.2451	0.18098	0.12755	0.14334	0.097345	0.092192	0.32287	0.12415	0.027471	0.16585	0.28756	0.36553	0.10135	0.069247	-2.6417	-3.2417	-3.3937	-3.2083	-3.3479	-3.35	-3.2042	-3.4333	-3.1312	-3.2021	-3.6292	-3.0542	-3.3563	-3.3896	-3.1021	-3.5292	249.184	231.542	273.017	202.538	255.954	-62.952	275.355	257.076	180.655	47.899	274.284	191.352	270.566	243.931	-63.589	268.565	0.00029487	0.00062079	0.0001537	1622.7	3.1602e-06	5.4981e-06	1599.7	424.48	1.7129e-06	5.4828e-06	482.36	160.03	141.03	48.655	4.7781e-06	59.844	0.00043958	0.00033228	9.8168e-05	1644.8	4.4801e-06	3.8427e-06	1622.1	432.63	4.5255e-06	3.6953e-06	490.29	163.66	143.82	49.782	4.2906e-06	61.305	134.496	3.783	5.411	-68.829	43.469	61.198	-68.920	-64.358	16.276	69.783	-64.730	-60.990	-60.417	-55.594	60.868	-56.277	-8191	255	
892.998	1	1	0	0	0.41985	0.093945	0.24377	0.21842	0.12734	0.24546	0.32861	0.25936	0.032969	0.19141	0.15424	0.045257	0.031394	0.13452	0.29965	0.049814	-2.7417	-3.0042	-3.3542	-3.2833	-3.425	-3.5708	-3.4521	-3.6396	-3.2167	-3.0792	-3.6417	-3.1792	-3.4271	-3.6437	-2.8833	-3.4479	-55.084	147.202	72.591	269.967	154.120	70.564	195.268	170.448	-0.925	112.510	276.426	43.229	98.501	226.743	241.466	143.392	0.0002883	0.00055619	0.00014504	1627.6	3.9228e-06	5.7911e-06	1601.2	425.55	2.6522e-06	5.6242e-06	484.97	160.17	140.6	48.784	4.8005e-06	60.064	0.00044865	0.00036027	9.5566e-05	1645.1	4.4083e-06	3.6949e-06	1623.8	432.62	4.4847e-06	3.6944e-06	490.77	163.95	143.75	49.867	4.1536e-06	61.384	132.886	5.559	13.199	-68.870	48.552	65.084	-69.079	-64.366	9.023	72.347	-64.642	-60.901	-60.309	-55.480	56.944	-56.103	-8191	255	
893.094	1	1	0	0	0.18711	0.29158	0.086876	0.34903	0.17195	0.093936	0.23363	0.22397	0.16235	0.12277	0.27234	0.20507	0.24483	0.21675	0.1682	0.21487	-2.8479	-3.0125	-3.2833	-3.3229	-3.1833	-3.2646	-3.1125	-3.4583	-3.4938	-3.0563	-3.5563	-3.1958	-3.3875	-3.4938	-3.0521	-3.3792	-61.655	269.926	155.922	209.896	103.553	73.439	204.466	172.945	240.406	145.958	204.183	230.098	180.512	249.849	100.824	180.845	0.00029656	0.00050814	0.00017392	1627.9	2.5281e-06	6.2751e-06	1600.1	426	2.224e-06	6.7672e-06	482.57	159.73	140.49	48.61	4.2682e-06	59.646	0.00044719	0.00035542	9.6319e-05	1646.4	4.3105e-06	3.6016e-06	1622.8	432.44	4.5312e-06	3.8862e-06	491	163.79	143.75	49.753	4.2785e-06	61.1	132.431	2.611	20.206	-68.831	54.211	62.726	-68.941	-64.285	42.697	71.844	-64.692	-60.933	-60.334	-55.344	49.347	-56.044	-8191	255	
893.215	1	1	0	0	0.1813	0.18511	0.14968	0.33156	0.16736	0.051363	0.24417	0.30079	0.21511	0.26412	0.26621	0.28582	0.21964	0.11936	0.2375	0.096883	-3.0125	-3.1167	-3.3438	-3.4125	-3.3417	-3.5042	-3.2458	-3.5458	-3.5438	-3.0854	-3.4562	-3.2229	-3.2354	-3.4396	-3.0896	-3.4562	42.431	-6.745	10.848	241.701	230.905	21.238	227.096	214.510	4.004	140.523	264.785	235.370	56.180	-4.500	27.734	263.955	0.0002918	0.00066368	0.00014178	1630.1	3.5346e-06	4.9314e-06	1598.5	424.7	1.4e-06	5.3275e-06	481.5	159.33	140.54	48.397	4.2233e-06	59.718	0.0004339	0.00036581	9.5695e-05	1647.2	4.3907e-06	3.6128e-06	1622.9	431.91	4.3509e-06	3.9644e-06	489.44	163.44	143.49	49.742	4.2959e-06	61.194	132.094	13.368	13.440	-68.800	52.343	74.449	-69.007	-64.341	31.646	69.553	-64.728	-61.170	-60.292	-55.519	58.553	-56.279	-8191	255	
893.286	1	1	0	0	0.099321	0.24108	0.3061	0.23032	0.099239	0.068706	0.13693	0.22649	0.090067	0.18474	0.058705	0.33862	0.21255	0.1974	0.058889	0.2748	-2.95	-3.0563	-3.3708	-3.3292	-3.2604	-3.5042	-3.3854	-3.4375	-3.3729	-3.2104	-3.5938	-3.3688	-3.0083	-3.4396	-3.0479	-3.3458	49.535	205.959	73.756	240.596	-79.629	172.846	-72.874	240.638	60.444	-54.646	-3.431	199.737	-56.061	-73.063	266.268	186.588	0.00029524	0.00060949	0.0001595	1628.4	3.3894e-06	5.0626e-06	1597.6	426.44	3.1188e-06	6.4973e-06	480.54	159.17	140.52	48.405	3.9198e-06	59.491	0.00043524	0.00036536	9.7437e-05	1645.7	4.5666e-06	3.6145e-06	1623	432.87	4.2314e-06	3.9781e-06	489.87	163.38	143.57	49.709	4.1672e-06	61.117	131.228	-0.760	25.475	-68.921	50.224	55.508	-69.140	-64.431	39.714	86.182	-64.760	-60.635	-60.310	-55.469	58.201	-56.318	-8191	255	
893.405	1	1	0	0	0.094259	0.21068	0.1805	0.10806	0.16363	0.33363	0.051095	0.29558	0.12968	0.1507	0.20229	0.082533	0.12992	0.22945	0.080998	0.10991	-2.9854	-2.9708	-3.1979	-3.4896	-3.0687	-3.4146	-3.4562	-3.3958	-3.325	-3.0771	-3.3937	-3.3208	-3.2938	-3.4854	-3.1188	-3.2375	176.014	-53.468	78.669	-73.265	24.127	40.536	-67.509	210.798	233.972	-14.616	232.000	-30.067	-69.190	219.615	211.051	228.809	0.00028191	0.00060397	0.00016097	1626.7	2.5856e-06	5.9949e-06	1601	425.35	2.5677e-06	6.1296e-06	481.92	159.9	139.9	48.549	4.2532e-06	59.505	0.00044533	0.00036179	0.00010083	1647	4.3098e-06	3.7744e-06	1623.6	432.04	4.2837e-06	4.1114e-06	490.25	163.58	143.44	49.794	4.2596e-06	61.189	131.057	6.239	13.286	-68.841	49.885	61.881	-68.934	-64.438	21.794	67.218	-64.918	-60.948	-60.229	-55.419	68.943	-56.150	-8191	255	
893.501	1	1	0	0	0.16273	0.24858	0.19844	0.39815	0.14718	0.027027	0.12716	0.2519	0.077027	0.21292	0.27941	0.23964	0.23972	0.28336	0.094719	0.17578	-2.8604	-3.1917	-3.2708	-3.5583	-3.0896	-3.3521	-3.45	-3.4417	-3.4979	-3.0271	-3.5458	-3.3979	-3.2771	-3.4	-3.2625	-3.1521	-49.450	-70.222	42.264	211.477	99.829	84.343	223.767	172.078	112.300	268.061	274.940	201.938	237.689	245.383	28.102	-26.962	0.00031329	0.0006482	0.00014166	1621.3	3.5323e-06	4.4634e-06	1598.3	425.34	2.2478e-06	6.4424e-06	480.66	160.36	140.56	48.539	3.1755e-06	59.544	0.00043863	0.00036353	9.7609e-05	1643.4	4.682e-06	3.3751e-06	1622.8	432.54	4.4375e-06	3.8715e-06	489.54	163.94	143.58	49.778	4.1029e-06	61.085	134.515	5.147	29.347	-69.066	62.708	73.142	-69.011	-64.303	54.190	79.211	-64.770	-60.968	-60.268	-55.573	51.536	-56.184	-8191	255	
893.598	1	1	0	0	0.076846	0.23642	0.22604	0.32112	0.21643	0.086282	0.3681	0.37662	0.076996	0.034486	0.24827	0.20911	0.16964	0.23485	0.13552	0.23721	-3.1188	-2.8812	-3.1042	-3.5667	-3.1646	-3.3688	-3.5292	-3.2562	-3.1896	-3.1875	-3.3104	-3.3979	-3.2812	-3.4104	-3.2229	-3.2521	86.277	196.032	118.814	208.148	-61.817	122.860	132.932	212.197	212.770	-10.305	-65.102	260.590	256.535	245.282	-39.885	122.644	0.00029253	0.00059852	0.00017498	1625.6	4.0076e-06	5.2952e-06	1601.7	424.68	3.7765e-06	4.852e-06	481.56	159.27	140.34	48.381	4.0807e-06	59.885	0.00043451	0.0003564	9.8813e-05	1645.6	4.6187e-06	3.7096e-06	1624.2	432.24	4.2121e-06	3.7933e-06	489.87	163.57	143.62	49.782	4.1369e-06	61.221	125.305	11.030	13.086	-68.980	66.810	62.089	-69.050	-64.581	45.723	64.034	-64.822	-60.974	-60.149	-55.519	55.972	-55.939	-8191	255	
893.694	1	1	0	0	0.19206	0.091058	0.14031	0.23434	0.20429	0.1277	0.17127	0.37287	0.081504	0.197	0.21932	0.11224	0.18876	0.009109	0.11692	0.33792	-2.9042	-3.0812	-2.9792	-3.6042	-2.9708	-3.3375	-3.5083	-3.2333	-3.3396	-3.1396	-3.3917	-3.4667	-3.0771	-3.2938	-3.45	-3.1417	147.179	10.882	65.808	232.251	59.333	-81.879	238.977	213.839	-12.882	31.503	184.309	226.095	246.090	127.848	30.777	244.300	0.00029028	0.00049404	0.00016354	1627.5	3.6661e-06	6.1781e-06	1596.7	425.45	3.3215e-06	6.0218e-06	481.2	159.03	140.35	48.675	4.1005e-06	59.567	0.00043528	0.00032151	9.6577e-05	1647.4	4.4048e-06	3.7796e-06	1622.8	432.53	4.3974e-06	3.728e-06	489.96	163.43	143.76	49.731	3.9189e-06	61.142	131.441	-0.670	16.553	-68.866	48.961	69.650	-69.124	-64.504	15.613	79.361	-64.818	-60.923	-60.386	-55.487	56.790	-56.069	-8191	255	
893.814	1	1	0	0	0.17471	0.089894	0.086136	0.27671	0.029462	0.2321	0.13885	0.23902	0.308	0.16108	0.12993	0.06317	0.17237	0.10519	0.019214	0.13608	-3.0042	-3.1562	-3.0021	-3.5854	-2.9167	-3.1479	-3.5979	-3.2979	-3.4167	-3.3458	-3.1937	-3.4938	-3.3021	-3.2667	-3.5125	-3.1229	66.905	249.702	27.915	242.345	201.997	237.271	216.608	234.252	93.764	100.473	190.782	-35.882	143.962	173.147	-34.865	-57.318	0.00028656	0.00044631	0.00018321	1626.7	3.7593e-06	5.6877e-06	1598.1	425.24	2.2547e-06	5.9042e-06	482.39	159.3	139.76	48.491	3.2433e-06	59.334	0.00044158	0.00035587	9.8426e-05	1647	4.4822e-06	3.6932e-06	1622.8	432.63	4.3101e-06	3.7254e-06	489.89	163.53	143.59	49.753	3.9e-06	61.072	132.935	14.183	10.806	-69.010	61.463	70.028	-69.028	-64.247	29.807	74.682	-64.865	-60.908	-60.410	-55.666	56.873	-56.350	-8191	255	
893.910	1	1	0	0	0.081979	0.11884	0.18466	0.27775	0.18444	0.13856	0.37006	0.30218	0.24602	0.22975	0.16392	0.22221	0.24775	0.20148	0.14818	0.3176	-2.9167	-3.2479	-3.0208	-3.5062	-3.1271	-3.1542	-3.5563	-3.1083	-3.2771	-3.325	-3.1646	-3.3875	-3.05	-3.2167	-3.4208	-3.0583	83.342	-60.689	176.551	245.747	125.209	64.290	245.835	211.423	-45.601	93.156	-16.190	231.928	210.462	205.847	168.002	242.192	0.00028271	0.00054522	0.0001708	1634	3.9806e-06	5.0954e-06	1600.5	425.54	2.8812e-06	5.5067e-06	480.7	159.22	139.75	48.337	4.8128e-06	59.423	0.00044708	0.00033084	9.9372e-05	1648.7	4.4597e-06	3.7727e-06	1625.1	432.45	4.3495e-06	3.7262e-06	489.73	163.55	143.55	49.79	4.1142e-06	61.06	129.164	6.120	16.771	-68.857	74.654	85.159	-68.956	-64.399	40.515	71.065	-65.141	-60.981	-60.591	-55.549	60.681	-56.250	-8191	255	
893.982	1	1	0	0	0.075618	0.20485	0.27464	0.12992	0.11199	0.34973	0.37922	0.1572	0.17274	0.033353	0.02524	0.13785	0.22385	0.26598	0.19713	0.24741	-2.8396	-3.3812	-3.0521	-3.7542	-3.0875	-3.2708	-3.4771	-3.3729	-3.3521	-3.4583	-3.1854	-3.45	-3.2646	-3.0104	-3.3	-3.275	193.516	198.380	156.243	206.128	57.244	77.125	196.868	-72.398	97.530	257.133	86.486	145.257	-34.118	184.318	82.493	214.998	0.0002819	0.00061591	0.00016399	1616.8	3.0806e-06	5.559e-06	1594.1	423.4	1.6907e-06	5.4056e-06	478.81	159.35	140.57	48.571	4.1265e-06	59.655	0.00044646	0.00034548	9.6383e-05	1644.5	4.3513e-06	3.7571e-06	1621.8	431.95	4.3945e-06	3.4503e-06	489.91	163.57	143.73	49.808	4.0749e-06	61.059	131.326	6.830	15.207	-68.732	71.857	75.047	-69.002	-64.301	17.075	67.503	-64.903	-60.948	-60.356	-55.806	62.765	-55.988	-8191	255	
894.078	1	1	0	0	0.19565	0.25514	0.13722	0.15525	0.3089	0.096834	0.11713	0.12752	0.12669	0.16123	0.11683	0.20061	0.15642	0.18866	0.036352	0.055359	-2.7458	-3.5167	-3.1146	-3.6375	-3.2604	-2.9792	-3.6708	-3.3021	-3.1937	-3.3708	-3.1875	-3.4333	-3.3042	-3.2687	-3.4083	-3.3521	209.889	245.650	172.318	174.100	-12.793	68.990	258.731	221.587	25.015	182.539	152.465	274.917	-74.238	243.406	250.130	259.432	0.00030496	0.00058737	0.00015543	1634.3	3.3551e-06	5.3407e-06	1602.1	426.59	2.2654e-06	6.9345e-06	483.34	159.17	140.94	48.583	3.4315e-06	59.591	0.00044861	0.00033167	0.00010062	1649.1	4.2253e-06	3.7338e-06	1624.1	432.08	4.2894e-06	3.6033e-06	489.67	163.36	143.71	49.699	3.9924e-06	61.193	131.625	9.872	25.864	-68.859	48.860	76.556	-69.029	-64.338	35.751	74.930	-64.639	-60.966	-60.259	-55.607	64.282	-56.231	-8191	255	
894.174	1	1	0	0	0.24217	0.072757	0.068275	0.35078	0.12461	0.05438	0.3541	0.21043	0.14274	0.035258	0.15954	0.13597	0.15048	0.17476	0.059463	0.10159	-2.7938	-3.3542	-2.9417	-3.4083	-3.2333	-3.1271	-3.6625	-3.3833	-3.4083	-3.4854	-3.2208	-3.3771	-3.5104	-3.1229	-3.4979	-3.0792	152.905	-55.078	219.518	249.953	197.093	94.658	219.569	178.294	14.189	151.440	178.011	216.616	207.309	113.743	201.744	81.649	0.00027245	0.00062121	0.00015015	1631.5	3.6562e-06	5.7155e-06	1601.1	425.68	3.1847e-06	6.4628e-06	482.95	159.3	140.71	48.578	3.5312e-06	59.822	0.00043258	0.00032409	9.6727e-05	1647.1	4.3126e-06	3.7545e-06	1624.9	432.05	4.3867e-06	3.5689e-06	490.47	163.61	143.76	49.775	4.0991e-06	61.159	129.846	2.473	24.638	-68.825	60.101	50.718	-69.130	-64.297	32.094	70.465	-64.816	-60.970	-60.345	-55.538	61.067	-56.117	-8191	255	
894.293	1	1	0	0	0.19743	0.20614	0.080669	0.34419	0.088743	0.13649	0.21494	0.23859	0.21293	0.25117	0.14186	0.15807	0.075029	0.12704	0.22779	0.2498	-2.4583	-3.2938	-3.1625	-3.5792	-3.2	-3.1542	-3.5687	-3.4229	-3.0958	-3.3312	-3.1271	-3.3667	-3.4979	-2.9979	-3.4542	-3.4188	-57.420	182.176	109.038	244.155	-51.301	108.911	180.756	184.591	20.399	42.845	52.488	243.310	-58.770	-69.303	-54.943	143.990	0.00027329	0.00063937	0.00016269	1630.4	3.8357e-06	4.1216e-06	1606.8	425.06	2.8897e-06	6.8591e-06	482.58	159.34	140.57	48.779	4.3967e-06	59.718	0.00045193	0.00034586	0.00010176	1648.5	4.1437e-06	3.7312e-06	1627.9	432.58	4.4353e-06	3.6841e-06	490.7	163.6	143.65	49.84	4.1506e-06	61.201	136.135	7.407	15.536	-68.924	64.751	72.629	-68.895	-64.378	18.521	75.102	-64.703	-60.895	-60.204	-55.425	65.370	-56.169	-8191	255	
894.389	1	1	0	0	0.047214	0.20588	0.086032	0.26369	0.13205	0.26681	0.45782	0.10881	0.050429	0.18734	0.083597	0.2079	0.085425	0.060369	0.23629	0.15177	-2.7062	-3.325	-3.0187	-3.4333	-3.4	-3.1104	-3.6125	-3.3979	-3.0729	-3.3646	-3.3896	-3.3729	-3.5896	-3.0687	-3.2188	-3.4271	161.100	155.817	229.947	239.554	241.988	-58.639	217.097	167.861	184.848	135.808	147.983	258.108	137.157	42.155	140.233	111.761	0.00029671	0.00054165	0.00015977	1629.2	4.1445e-06	5.3816e-06	1608.1	426.79	2.9024e-06	6.8094e-06	483.77	159.87	140.84	48.631	4.9529e-06	59.831	0.00043896	0.00033304	0.00010217	1648.6	4.3963e-06	3.8634e-06	1628.3	433.19	4.3402e-06	3.5569e-06	490.78	163.75	143.68	49.745	4.1771e-06	61.114	134.649	2.644	16.865	-68.839	51.081	66.208	-69.026	-64.308	29.308	72.817	-64.714	-60.831	-60.295	-55.432	60.880	-56.192	-8191	255	
894.487	1	1	0	0	0.26113	0.053165	0.087092	0.20622	0.20947	0.080184	0.22349	0.29724	0.32696	0.11412	0.0082074	0.15204	0.25225	0.21041	0.14075	0.1749	-2.6729	-3.3812	-3.1083	-3.2687	-3.3208	-3.2083	-3.3563	-3.425	-3.1604	-3.2917	-3.3625	-3.1271	-3.4396	-3.0938	-3.0979	-3.3458	223.188	172.892	260.011	-76.558	70.013	190.493	209.209	220.317	245.242	32.188	121.030	243.237	-71.512	224.663	277.494	-59.169	0.00029906	0.00051213	0.00018545	1633.5	2.943e-06	5.7155e-06	1601.6	425.1	3.3661e-06	6.518e-06	481.73	159.27	140.42	48.488	3.5641e-06	59.36	0.00045233	0.00033865	0.00010182	1649	4.155e-06	3.9542e-06	1624.1	432.47	4.4668e-06	3.7108e-06	489.96	163.23	143.57	49.712	3.9999e-06	61.066	133.993	15.018	6.633	-68.842	71.914	55.124	-68.986	-64.322	49.927	70.071	-64.708	-61.145	-60.234	-55.488	46.944	-56.257	-8191	255	
894.582	1	1	0	0	0.16493	0.11368	0.15213	0.37899	0.04574	0.12142	0.20432	0.32993	0.091215	0.018137	0.14074	0.14415	0.18357	0.17219	0.16239	0.11727	-2.4688	-3.2292	-3.2667	-3.4292	-3.5375	-3.1792	-3.3708	-3.4813	-2.8958	-3.3667	-3.2917	-3.1896	-3.5917	-3.2792	-3.0792	-3.5271	185.831	249.749	57.443	275.644	195.341	172.040	225.073	219.131	249.662	182.986	241.897	187.162	-76.541	-0.531	96.965	166.291	0.00028381	0.00058254	0.00014313	1627.9	3.8135e-06	5.9053e-06	1599.6	422.72	2.7586e-06	5.8011e-06	479.71	157.9	139.25	48.285	5.345e-06	59.735	0.00044023	0.00034677	9.4512e-05	1647.9	4.3182e-06	3.8038e-06	1626.1	432.22	4.4418e-06	3.6093e-06	489.96	163.36	143.54	49.752	4.1248e-06	61.246	129.036	10.276	15.674	-68.984	54.931	57.797	-69.085	-64.407	19.120	62.720	-65.135	-61.172	-60.535	-55.982	60.433	-56.479	-8191	255	
894.678	1	1	0	0	0.059412	0.23535	0.20677	0.29851	0.082885	0.17928	0.087113	0.18256	0.18165	0.18503	0.19824	0.27213	0.25081	0.28836	0.082704	0.21156	-2.4729	-3.1333	-3.0917	-3.1229	-3.3438	-3.1604	-3.2771	-3.4917	-2.9979	-3.2396	-3.3021	-3.1583	-3.3104	-3.1521	-3.0292	-3.4729	205.493	165.710	48.882	237.733	-19.589	-49.289	238.101	-78.426	82.866	156.188	248.288	240.569	203.445	226.499	95.070	201.901	0.0003044	0.00060132	0.00015678	1626.6	3.8028e-06	4.7737e-06	1606.7	425.82	1.5217e-06	5.5315e-06	482.48	160.39	140.6	48.837	4.3065e-06	59.836	0.00045149	0.00036179	0.00010137	1650.4	4.5659e-06	3.7528e-06	1629.5	433.49	4.6578e-06	3.7194e-06	490.91	164.06	143.95	49.937	4.1067e-06	61.293	129.290	8.386	4.208	-68.959	74.099	64.268	-68.938	-64.467	-4.579	75.112	-64.939	-60.957	-60.168	-55.493	57.883	-56.423	-8191	255	
894.774	1	1	0	0	0.15684	0.18055	0.080083	0.33221	0.11567	0.16438	0.30867	0.26623	0.086509	0.1639	0.15574	0.30455	0.20291	0.0013815	0.13923	0.028631	-2.5083	-3.2208	-3.15	-3.2792	-3.4021	-3.2896	-3.225	-3.4583	-2.9833	-3.2625	-3.5333	-2.9979	-3.3438	-3.4667	-3.0438	-3.5208	22.618	155.873	5.200	252.779	86.131	174.464	216.210	229.899	158.835	273.303	-3.739	273.105	226.396	180.000	143.275	80.561	0.0002989	0.00057131	0.00018482	1634.4	3.4888e-06	5.006e-06	1608.2	426.88	3.7883e-06	6.1445e-06	483.88	159.62	140.8	48.558	3.774e-06	59.643	0.00045284	0.00035071	0.00010225	1652.4	4.4463e-06	3.7813e-06	1629.1	433.36	4.6578e-06	3.685e-06	491.15	164.15	144.1	49.83	4.227e-06	61.195	129.360	11.381	11.243	-68.930	65.772	79.756	-69.054	-64.428	30.164	77.166	-64.629	-60.789	-60.290	-55.601	59.966	-56.022	-8191	255	
894.895	1	1	0	0	0.046518	0.052606	0.095534	0.28774	0.12029	0.029222	0.10062	0.28962	0.14819	0.067304	0.38966	0.15728	0.47315	0.1509	0.15801	0.15687	-2.625	-3.0417	-3.4771	-3.1937	-3.2229	-3.1896	-3.3479	-3.6396	-3.0854	-3.1937	-3.4062	-3.0917	-3.3312	-3.3646	-3.0125	-3.7875	76.629	-64.340	195.663	-82.297	-60.935	246.716	155.255	166.632	184.013	254.269	180.364	271.527	-72.434	209.190	184.782	-24.884	0.00029777	0.00052002	0.00014127	1636	3.6139e-06	5.6648e-06	1605.6	426.7	2.6148e-06	7.3799e-06	483.61	161.03	141.72	48.612	3.9204e-06	59.868	0.00045994	0.00034055	9.6211e-05	1655.1	4.1944e-06	3.6733e-06	1629.5	433.76	4.5605e-06	3.5981e-06	491.34	164.16	144.42	49.862	4.1513e-06	61.344	128.060	12.945	12.716	-68.935	60.292	65.993	-68.927	-64.341	33.667	70.924	-64.818	-61.054	-60.149	-55.331	51.131	-56.182	-8191	255	
894.991	1	1	0	0	0.11004	0.079377	0.1744	0.25255	0.13094	0.087439	0.24672	0.15248	0.05445	0.11811	0.20526	0.31444	0.22505	0.21088	0.12354	0.072065	-2.5896	-3.1083	-3.2021	-3.35	-3.0938	-3.3187	-3.1771	-3.5479	-3.2708	-3.3333	-3.55	-3.1792	-3.3812	-3.4354	-3.075	-3.5375	-49.054	10.036	216.219	252.518	145.963	86.220	229.185	208.526	237.234	-23.041	106.350	242.013	228.385	252.619	-52.334	248.560	0.00027558	0.00060542	0.00015503	1635.8	4.119e-06	5.9307e-06	1608.7	427.77	2.4122e-06	6.0739e-06	483.7	159.94	140.87	48.799	3.7271e-06	59.855	0.00044315	0.00033076	9.5889e-05	1651.4	4.3161e-06	3.567e-06	1630	433.55	4.3695e-06	3.5448e-06	491.62	164.07	144.07	49.869	4.2444e-06	61.26	133.641	13.291	8.661	-68.814	69.808	80.356	-68.908	-64.279	26.979	80.569	-64.643	-61.102	-60.313	-55.380	64.653	-56.157	-8191	255	
895.087	1	1	0	0	0.12009	0.20484	0.069136	0.26802	0.19508	0.18511	0.20067	0.31442	0.17084	0.20941	0.11052	0.071354	0.1865	0.17716	0.15038	0.31878	-2.8646	-3.1146	-3.2958	-3.3708	-3.1208	-3.3167	-3.1521	-3.4229	-3.2292	-3.1208	-3.5229	-3.2229	-3.2646	-3.45	-3.1083	-3.4917	-76.208	169.375	113.118	252.657	-41.414	258.216	247.818	211.616	-42.020	267.565	80.909	36.361	42.229	188.265	27.009	228.830	0.00029064	0.00070757	0.00015053	1634.5	3.943e-06	5.4407e-06	1607.2	425.89	3.1936e-06	6.3628e-06	482.62	160.37	141.3	48.713	4.5757e-06	59.61	0.00043575	0.00036627	9.4684e-05	1652.4	4.1845e-06	3.7312e-06	1628.7	433.02	4.5197e-06	3.5878e-06	490.93	163.99	143.93	49.841	4.2664e-06	61.123	128.599	7.159	3.056	-68.971	56.017	73.260	-69.086	-64.507	27.330	85.917	-64.867	-60.894	-60.416	-55.405	60.753	-55.960	-8191	255	
895.183	1	1	0	0	0.3018	0.1398	0.13957	0.32021	0.23555	0.1163	0.27427	0.2937	0.18071	0.12875	0.1702	0.17202	0.13239	0.1554	0.034211	0.2885	-2.9375	-2.9062	-3.3625	-3.3125	-3.3292	-3.3771	-3.2375	-3.4896	-3.3333	-3.0646	-3.4333	-3.3812	-3.1375	-3.4625	-3.1354	-3.4313	-52.252	-37.853	-51.337	233.721	257.870	-57.128	234.146	254.790	59.893	250.951	238.911	237.068	67.907	235.348	258.543	269.983	0.00030308	0.00044074	0.00015479	1634.1	4.0228e-06	6.2709e-06	1602.6	426.31	3.1121e-06	7.275e-06	484.6	159.84	140.42	48.629	4.3242e-06	59.839	0.00042974	0.00034123	9.0921e-05	1649	4.2465e-06	3.8254e-06	1625.4	432.91	4.2586e-06	3.8647e-06	490.63	163.52	143.58	49.795	4.1059e-06	61.245	134.416	5.624	10.147	-68.876	46.685	63.192	-69.006	-64.175	30.893	60.279	-64.689	-60.967	-60.248	-55.327	56.096	-56.042	-8191	255	
895.279	1	1	0	0	0.16159	0.21686	0.14216	0.30079	0.030358	0.23649	0.17133	0.25785	0.1733	0.095606	0.3382	0.11205	0.14977	0.23968	0.24763	0.061476	-2.8042	-3.0167	-3.4833	-3.4208	-3.2229	-3.5208	-3.225	-3.4562	-3.2646	-3.1354	-3.5854	-3.3563	-3.4292	-3.5687	-3.1083	-3.4125	-12.549	271.847	253.155	238.765	-8.859	-21.562	237.104	207.556	62.794	72.315	240.216	-63.647	98.713	-76.058	21.344	-38.950	0.00029715	0.00055409	0.00012939	1631.8	4.1852e-06	6.4053e-06	1608.3	425.29	2.771e-06	6.4316e-06	484.95	159.72	141.12	48.644	3.6011e-06	60.005	0.00042843	0.00036573	9.3738e-05	1648.2	4.2859e-06	3.7079e-06	1626.7	432.81	4.2221e-06	3.9352e-06	491.46	163.86	144.05	49.895	3.9379e-06	61.402	134.207	10.646	14.044	-68.881	54.811	58.157	-68.891	-64.334	35.913	67.408	-64.693	-60.785	-60.218	-55.522	60.388	-56.235	-8191	255	
895.374	1	1	0	0	0.23996	0.19049	0.11601	0.22174	0.11902	0.2521	0.38213	0.3106	0.18113	0.10816	0.25884	0.15839	0.14922	0.024574	0.19372	0.24141	-2.9021	-3.0021	-3.2083	-3.5354	-2.9729	-3.2958	-3.3146	-3.3875	-3.375	-3.1729	-3.425	-3.3063	-3.1875	-3.5646	-3.2562	-3.2979	50.068	122.534	192.332	226.859	265.277	20.450	199.170	272.656	172.965	119.658	206.893	218.866	179.180	109.342	-12.415	217.498	0.00029922	0.00061652	0.00015904	1633.1	3.0852e-06	5.0467e-06	1611.1	427.8	2.3644e-06	6.6904e-06	485.74	160.55	140.81	49.066	5.6196e-06	60.136	0.0004406	0.00035041	8.8878e-05	1652.1	4.3611e-06	3.3431e-06	1630	434.07	4.1241e-06	3.6609e-06	492.82	164.08	144.38	50.055	3.8447e-06	61.416	131.444	-7.230	4.586	-68.927	56.244	67.541	-69.090	-64.409	-2.270	66.594	-64.676	-60.889	-60.008	-55.410	56.459	-56.146	-8191	255	
895.470	1	1	0	0	0.11715	0.11694	0.22718	0.21628	0.22821	0.15559	0.32195	0.024966	0.13437	0.29542	0.29577	0.1179	0.079188	0.38198	0.11942	0.28341	-2.9479	-2.9562	-3.3729	-3.6063	-3.0417	-3.4813	-3.3583	-3.1729	-3.4292	-3.125	-3.5333	-3.425	-3.0792	-3.2958	-3.1896	-3.1146	0.714	-70.360	-62.586	245.930	256.664	248.096	194.582	211.683	140.934	-48.855	226.617	-77.209	213.708	203.029	-23.384	239.771	0.00030475	0.00058438	0.00016088	1638.8	3.4761e-06	4.7495e-06	1615.2	427.16	2.1096e-06	6.0496e-06	484.75	160.61	140.83	48.864	3.9767e-06	59.848	0.00041553	0.00034677	8.8857e-05	1652.8	4.3492e-06	3.2999e-06	1632.4	434.05	4.3337e-06	3.869e-06	492.1	164.21	144.32	50.059	4.0317e-06	61.408	132.480	2.589	21.049	-68.823	55.636	76.633	-68.934	-64.317	32.616	69.332	-64.739	-61.168	-60.197	-55.510	44.369	-56.216	-8191	255	
895.590	1	1	0	0	0.11952	0.12741	0.16624	0.11406	0.073194	0.04981	0.1618	0.27361	0.31556	0.098642	0.27279	0.13125	0.12692	0.11513	0.24531	0.15009	-3.1167	-3.1604	-3.3375	-3.5958	-2.8896	-3.4708	-3.4729	-3.3771	-3.4146	-3.0104	-3.3042	-3.5771	-3.125	-3.4208	-3.2729	-3.1583	-17.743	156.673	267.962	-61.951	231.492	261.611	209.886	231.092	179.676	39.600	206.424	118.622	192.248	-76.865	115.827	-77.542	0.00029909	0.00056279	0.00017815	1633	3.369e-06	5.5827e-06	1609	427.25	2.6252e-06	5.9394e-06	484.01	160.44	141.1	48.857	4.0043e-06	59.889	0.00044257	0.00033933	9.3803e-05	1651.8	4.383e-06	3.6223e-06	1628.8	433.88	4.2615e-06	3.5526e-06	491.62	163.83	144.19	49.96	3.8781e-06	61.289	131.243	5.970	13.754	-68.822	55.101	63.586	-68.882	-64.332	50.569	76.078	-64.814	-60.842	-60.252	-55.414	71.461	-56.194	-8191	255	
895.687	1	1	0	0	0.093733	0.12882	0.074247	0.038169	0.11079	0.14313	0.23541	0.07423	0.17727	0.094924	0.41542	0.27203	0.39881	0.33955	0.16452	0.040204	-2.9188	-3.1	-3.025	-3.6792	-2.9	-3.2833	-3.3521	-3.2938	-3.5438	-3.2375	-3.3375	-3.5146	-3.0458	-3.3563	-3.3417	-3.3604	248.601	17.037	203.139	145.074	4.754	91.339	191.923	269.014	-55.303	220.776	258.809	208.776	227.435	-71.532	87.793	266.174	0.00030082	0.00056764	0.00015139	1635	3.5838e-06	5.8873e-06	1606	425.74	2.2579e-06	6.5067e-06	484.48	160.41	140.77	48.825	4.3504e-06	60.125	0.00044056	0.00035299	9.4534e-05	1652.1	4.193e-06	3.8358e-06	1627.6	433.27	4.1721e-06	3.6652e-06	491.34	163.97	143.93	49.903	4.1263e-06	61.371	132.898	-0.914	12.824	-68.861	49.985	57.453	-68.947	-64.322	42.732	71.650	-64.675	-61.115	-60.341	-55.433	54.435	-56.251	-8191	255	
895.783	1	1	0	0	0.21131	0.15762	0.20764	0.31676	0.17608	0.1246	0.28596	0.39203	0.25977	0.1715	0.032986	0.20953	0.29295	0.072082	0.11474	0.25601	-3.1021	-3.1854	-3.0833	-3.7021	-3.0917	-3.3833	-3.5229	-3.225	-3.5479	-3.1104	-3.2854	-3.4708	-3.1667	-3.3479	-3.3771	-3.3354	-44.016	-0.482	263.266	256.166	-68.405	190.898	224.118	250.370	162.798	105.809	248.988	264.543	-57.025	226.927	-38.969	-73.753	0.00028644	0.00062998	0.00015119	1636.4	2.8744e-06	4.9438e-06	1604.7	427.12	2.4838e-06	4.8329e-06	485.43	160.31	141.43	48.709	4.1931e-06	60.052	0.00043007	0.00034973	9.7738e-05	1652.4	4.1789e-06	3.5704e-06	1629.5	433.71	4.3216e-06	3.5319e-06	492	164.07	144.19	49.935	3.9303e-06	61.383	131.838	8.103	2.104	-68.859	62.679	57.116	-69.038	-64.348	18.368	66.374	-64.734	-60.955	-60.389	-55.278	56.588	-56.145	-8191	255	
895.854	1	1	0	0	0.13702	0.15491	0.13248	0.22445	0.18215	0.23829	0.29494	0.37831	0.20414	0.03313	0.11166	0.13745	0.18145	0.20495	0.1756	0.24376	-3.0729	-3.1437	-3.2875	-3.6979	-3.1562	-3.1521	-3.8271	-3.2792	-3.4562	-3.4042	-3.3396	-3.5667	-3.2917	-3.2438	-3.6167	-3.3646	-32.391	55.326	115.620	-81.027	255.492	183.198	156.574	144.124	269.332	25.720	237.367	257.503	270.880	203.334	93.525	-15.492	0.00027284	0.00056759	0.00020537	1640.3	4.2613e-06	6.2094e-06	1608.4	427.31	3.3355e-06	6.3569e-06	486	159.91	141.37	48.843	4.55e-06	60.121	0.00043615	0.00034176	0.0001001	1657	4.383e-06	3.7874e-06	1632.4	434.17	4.1291e-06	3.7039e-06	492.49	164.1	144.06	50.004	3.9598e-06	61.445	128.462	4.964	13.477	-68.911	67.280	85.296	-69.075	-64.365	39.379	70.799	-64.838	-60.906	-60.340	-55.468	54.820	-56.342	-8191	255	
895.975	1	1	0	0	0.44969	0.13614	0.10638	0.41629	0.11063	0.19665	0.34621	0.22366	0.26166	0.093455	0.25683	0.06038	0.17257	0.32531	0.10977	0.29174	-2.9833	-3.275	-3.0479	-3.6312	-3.1396	-3.1937	-3.5896	-3.3875	-3.3542	-3.5396	-3.1813	-3.4979	-3.4333	-3.3896	-3.3438	-3.2458	8.723	-27.851	3.525	245.592	-30.429	-42.679	205.899	219.763	193.334	113.457	-81.726	8.155	205.491	-74.953	69.659	262.625	0.00031749	0.00059596	0.00015182	1637.2	3.9267e-06	6.3344e-06	1611.4	427.8	3.0939e-06	5.8124e-06	484.15	160.17	140.33	48.769	3.634e-06	60.188	0.00043102	0.00033152	9.5028e-05	1654.1	4.3034e-06	3.5627e-06	1632.5	433.82	4.3438e-06	3.654e-06	491.23	164.14	143.74	49.91	3.9121e-06	61.382	130.453	-8.648	10.595	-68.784	58.625	76.760	-69.013	-64.298	36.031	67.815	-64.746	-60.540	-60.197	-55.714	51.957	-56.232	-8191	255	
896.071	1	1	0	0	0.12401	0.11141	0.16551	0.22955	0.26256	0.089901	0.30738	0.26815	0.060793	0.063123	0.21016	0.075902	0.07863	0.28951	0.085275	0.086778	-2.8167	-3.3333	-3.0938	-3.5771	-3.1667	-3.2979	-3.6771	-3.225	-3.075	-3.5958	-3.0938	-3.6063	-3.3875	-3.1063	-3.3833	-3.1542	132.795	120.096	168.229	272.184	268.929	30.698	201.259	222.455	-5.933	166.271	200.427	236.186	-61.695	-41.395	182.526	229.005	0.00031504	0.00055869	0.00014493	1645.7	3.0135e-06	4.4843e-06	1609.6	426.82	3.6405e-06	6.4986e-06	484.55	159.83	140.88	48.8	4.3646e-06	59.823	0.00043743	0.00033918	9.7157e-05	1657.2	4.2204e-06	3.6404e-06	1631.1	433.59	4.25e-06	3.8328e-06	491.57	163.99	143.89	49.901	3.8576e-06	61.229	134.686	0.409	11.801	-68.745	58.616	81.129	-68.993	-64.236	42.140	73.241	-64.625	-60.998	-60.429	-55.450	63.905	-56.095	-8191	255	
896.167	1	1	0	0	0.11361	0.074479	0.061902	0.17811	0.051396	0.27531	0.081003	0.28927	0.041725	0.27307	0.25842	0.16768	0.16702	0.15305	0.29496	0.2216	-2.9813	-3.4833	-3.0271	-3.4583	-3.3292	-2.9146	-3.8563	-3.2854	-3.325	-3.3958	-3.2938	-3.425	-3.4375	-3.1604	-3.25	-3.3792	-26.263	-42.296	33.598	-79.060	249.356	166.774	174.497	221.766	33.153	181.784	-73.594	74.267	-70.161	274.455	143.820	194.557	0.00029548	0.0005924	0.00018309	1637.8	3.7777e-06	5.1669e-06	1612.2	425.63	2.7156e-06	6.2813e-06	484.59	159.58	141.27	48.63	3.7948e-06	60.078	0.00042818	0.00033349	0.00010507	1654.8	4.3689e-06	3.7554e-06	1630.5	432.94	4.24e-06	3.4803e-06	491.06	163.67	144.05	49.842	4.0083e-06	61.316	132.357	-4.911	15.933	-68.829	54.578	61.248	-68.951	-64.518	6.267	54.224	-64.831	-60.954	-60.260	-55.553	46.809	-56.172	-8191	255	
896.288	1	1	0	0	0.28431	0.18948	0.081073	0.30521	0.057312	0.081342	0.24992	0.28495	0.14886	0.077744	0.32414	0.42528	0.1109	0.064875	0.12444	0.15404	-2.7938	-3.4792	-3.2271	-3.7208	-3.3312	-3.0646	-3.5146	-3.3292	-3.1312	-3.5833	-3.1937	-3.2833	-3.4	-3.2375	-3.4479	-3.2875	-24.156	73.226	246.837	237.499	104.471	101.657	221.970	260.574	29.947	68.645	213.980	240.391	192.935	241.846	263.063	213.491	0.00030051	0.00065718	0.00015971	1638.1	3.4032e-06	5.3599e-06	1609	426.89	2.1206e-06	7.0654e-06	481.17	159.53	140.89	48.519	3.6507e-06	59.959	0.000441	0.00034434	9.5932e-05	1652.7	4.1754e-06	3.4736e-06	1630.6	433.24	4.2071e-06	3.593e-06	490.11	163.72	143.85	49.839	3.9348e-06	61.31	134.006	5.768	22.704	-68.870	62.631	62.963	-69.011	-64.381	50.034	71.015	-64.724	-60.866	-60.212	-55.548	59.649	-56.171	-8191	255	
896.382	1	1	0	0	0.13259	0.096677	0.035289	0.29293	0.052378	0.08835	0.46486	0.25319	0.048906	0.13259	0.21755	0.21872	0.22288	0.23836	0.11153	0.061665	-2.7771	-3.3542	-3.1292	-3.4271	-3.3625	-3.2354	-3.5479	-3.3104	-2.9542	-3.5104	-3.4688	-3.5104	-3.4542	-3.2938	-3.5542	-3.4333	85.900	54.024	216.798	256.421	59.880	213.954	226.885	238.459	11.440	77.086	177.260	180.025	246.537	263.979	22.166	47.730	0.00028572	0.00057231	0.00016644	1634.9	3.4272e-06	5.1956e-06	1606.1	427.19	2.9117e-06	6.2399e-06	484.15	159.31	140.67	48.795	2.2869e-06	59.771	0.00044122	0.00032143	9.8491e-05	1651.9	4.3126e-06	3.592e-06	1629.5	432.96	4.3488e-06	3.562e-06	490.63	163.48	143.89	49.828	3.8213e-06	61.228	134.861	9.563	11.572	-68.799	53.884	67.374	-68.972	-64.312	26.780	69.340	-64.930	-61.014	-60.289	-55.526	51.026	-56.028	-8191	255	
896.456	1	1	0	0	0.15458	0.15427	0.23514	0.18753	0.1418	0.33357	0.34822	0.23418	0.096325	0.082366	0.28065	0.30836	0.14565	0.20021	0.099031	0.24938	-2.8146	-3.5042	-3.0354	-3.2146	-3.35	-3.1396	-3.3729	-3.3563	-3.2062	-3.5271	-3.2458	-3.3208	-3.6167	-3.2687	-3.3583	-3.4813	181.397	145.571	198.535	258.283	-65.062	216.029	267.649	259.899	42.580	22.329	261.460	53.283	-38.406	-12.015	246.063	-50.352	0.00030968	0.00059184	0.00017609	1634.9	3.2977e-06	5.3619e-06	1605.6	425.18	2.8774e-06	7.8392e-06	484.86	161.04	140.25	48.582	4.1996e-06	59.872	0.00043859	0.0003278	9.5007e-05	1652.3	4.1254e-06	3.7269e-06	1628.9	432.73	4.4117e-06	3.6196e-06	491.21	164.1	143.84	49.768	3.8584e-06	61.146	133.100	9.543	14.660	-68.876	52.530	65.155	-69.048	-64.432	33.986	71.364	-64.917	-60.964	-60.098	-55.298	59.694	-56.153	-8191	255	
896.575	1	1	0	0	0.10114	0.1333	0.077248	0.052682	0.21783	0.25143	0.16495	0.34213	0.14317	0.14887	0.1295	0.051037	0.13651	0.079684	0.12678	0.29737	-2.75	-3.2896	-3.1771	-3.3458	-3.3771	-3.2729	-3.6	-3.4292	-3.0354	-3.4958	-3.2542	-3.2104	-3.6208	-3.1792	-3.2833	-3.5042	218.519	242.332	-22.961	129.625	-26.224	126.544	250.064	241.241	-38.141	-1.184	214.802	244.603	7.388	276.258	-16.839	169.766	0.00026893	0.00062325	0.00014477	1637.5	3.9767e-06	4.3812e-06	1608.5	425.96	2.936e-06	5.47e-06	483.92	160.35	140.78	48.703	5.0813e-06	60.049	0.00044082	0.00032029	8.8814e-05	1654.6	4.06e-06	3.4062e-06	1630.8	432.96	4.3201e-06	3.2903e-06	490.97	163.81	143.91	49.85	3.8349e-06	61.308	130.310	12.876	17.972	-68.937	67.958	69.712	-69.053	-64.524	21.809	70.881	-64.773	-60.864	-60.232	-55.569	66.655	-56.138	-8191	255	
896.671	1	1	0	0	0.022278	0.33384	0.30775	0.10393	0.063072	0.11469	0.22932	0.20248	0.22147	0.048226	0.086854	0.13175	0.18917	0.13863	0.16512	0.1829	-2.6854	-3.3667	-3.3146	-3.2875	-3.5021	-3.0062	-3.5479	-3.4208	-3.0812	-3.4	-3.4042	-3.2917	-3.6458	-3.3479	-3.2625	-3.6667	-56.168	-36.265	-38.863	243.940	243.391	46.030	240.768	-62.431	243.239	271.273	-35.592	-46.510	273.107	-77.643	-25.897	196.954	0.00027569	0.00069096	0.00015061	1634	3.7692e-06	5.6773e-06	1613.1	426.77	3.2096e-06	6.8739e-06	485.65	160.13	141.25	48.786	4.2675e-06	59.95	0.00044668	0.00035094	9.277e-05	1652.7	4.1198e-06	3.4633e-06	1633.4	433.39	4.3881e-06	3.4305e-06	491.83	163.88	143.75	49.88	4.0529e-06	61.326	130.030	10.190	20.489	-68.812	51.024	64.027	-68.972	-64.233	39.685	57.800	-64.713	-60.818	-60.196	-55.481	62.228	-56.132	-8191	255	
896.767	1	1	0	0	0.12311	0.15975	0.15327	0.06668	0.21525	0.078436	0.22894	0.31543	0.12877	0.11667	0.21605	0.27036	0.20343	0.32471	0.064843	0.19638	-2.7896	-3.3833	-3.2292	-3.3625	-3.4125	-3.1333	-3.3667	-3.5687	-3.0833	-3.3292	-3.4875	-3.125	-3.4958	-3.3208	-3.0792	-3.3604	-45.454	-78.395	-24.075	250.146	214.939	71.397	227.496	-35.205	153.354	251.372	216.347	215.251	231.464	192.483	172.933	272.681	0.0002802	0.00060877	0.00019867	1632.6	3.1655e-06	5.7463e-06	1614.1	426.44	2.7139e-06	7.5559e-06	484.71	160.56	140.98	48.837	4.6565e-06	60.147	0.00044169	0.00034783	9.9716e-05	1652.2	4.1515e-06	3.7433e-06	1631.2	433.33	4.4203e-06	3.7013e-06	490.92	163.91	143.81	49.837	4.2467e-06	61.298	133.518	0.238	22.284	-68.921	72.604	69.389	-68.864	-64.317	27.289	64.948	-64.610	-60.741	-60.494	-55.666	56.121	-56.155	-8191	255	
896.888	1	1	0	0	0.32244	0.22936	0.23824	0.34833	0.15921	0.076061	0.28647	0.15272	0.099892	0.072633	0.23869	0.19286	0.12421	0.2123	0.10712	0.13398	-2.7729	-3.2417	-3.3104	-3.375	-3.5146	-3.2479	-3.2333	-3.6646	-3.2333	-3.2687	-3.3812	-3.0875	-3.4875	-3.4313	-3.1104	-3.5042	162.584	237.280	142.429	262.431	35.718	67.947	202.654	91.394	75.458	49.198	233.671	255.060	-9.061	243.836	-54.514	159.483	0.00030333	0.00058733	0.00019376	1642	3.2581e-06	4.3652e-06	1613.6	427.69	2.2982e-06	7.3566e-06	484.43	160.07	141.61	48.789	4.0743e-06	59.692	0.00044617	0.00033706	9.2792e-05	1654.6	4.0227e-06	3.8574e-06	1629.7	433.89	4.2908e-06	3.587e-06	491.27	163.73	144.18	49.924	4.2187e-06	61.232	129.933	3.419	15.332	-68.885	69.098	68.893	-68.923	-64.358	28.698	73.380	-64.876	-60.995	-60.080	-55.404	49.849	-56.219	-8191	255	
896.984	1	1	0	0	0.1205	0.11435	0.24996	0.19249	0.11941	0.21217	0.40663	0.15836	0.030336	0.10502	0.24961	0.16291	0.26111	0.22272	0.13098	0.1173	-2.7625	-3.1667	-3.3625	-3.1625	-3.2625	-3.0979	-3.3292	-3.5542	-3.2	-3.1521	-3.5583	-3.2271	-3.4896	-3.5375	-2.9854	-3.55	149.515	-53.449	-34.520	235.153	-66.925	195.302	213.199	-20.022	179.374	123.735	145.183	58.705	252.403	267.277	95.481	263.059	0.00028153	0.0006617	0.00014946	1638.3	3.1476e-06	5.6648e-06	1606	426.54	3.3761e-06	6.034e-06	485.86	160.23	141.36	48.848	3.4208e-06	59.739	0.00044614	0.00034085	9.3373e-05	1653.6	4.2317e-06	3.9507e-06	1629.1	433.55	4.5426e-06	3.758e-06	491.43	163.99	144.1	49.908	4.1354e-06	61.269	127.445	17.264	11.216	-68.872	58.721	69.390	-68.940	-64.333	22.599	59.753	-64.743	-60.944	-60.314	-55.655	56.973	-56.244	-8191	255	
897.080	1	1	0	0	0.10114	0.13107	0.14745	0.47019	0.12618	0.12849	0.50776	0.10657	0.11102	0.070798	0.27052	0.10541	0.18108	0.17633	0.31744	0.056021	-2.7479	-3.1375	-3.4458	-3.1792	-3.3417	-3.2771	-3.1937	-3.5479	-3.3042	-3.3167	-3.5667	-3.2583	-3.3646	-3.4521	-3.0771	-3.5292	257.998	46.707	140.180	242.703	240.877	9.673	221.650	-72.190	270.321	111.902	157.129	45.013	174.651	170.153	111.890	193.427	0.0002838	0.0006217	0.00019009	1634.6	3.6121e-06	5.0762e-06	1610.9	427.58	2.8964e-06	6.2408e-06	483.51	159.47	141.25	48.646	4.728e-06	59.837	0.00043754	0.00036702	9.5286e-05	1652.4	4.174e-06	3.6992e-06	1629.9	433.36	4.4189e-06	3.8337e-06	491.28	163.84	144.02	49.771	4.1263e-06	61.302	130.509	2.456	11.519	-68.827	39.304	63.996	-68.853	-64.145	26.754	73.042	-64.652	-60.820	-60.482	-55.463	52.896	-56.285	-8191	255	
897.152	1	1	0	0	0.088263	0.16146	0.07636	0.27028	0.4489	0.16561	0.32964	0.13413	0.049481	0.20246	0.16511	0.36233	0.13384	0.072322	0.14762	0.1491	-2.6375	-3.0958	-3.4021	-3.5021	-3.0521	-3.3604	-3.2104	-3.5167	-3.1125	-3.1958	-3.5604	-3.2271	-3.4167	-3.3521	-2.975	-3.4813	171.695	173.823	17.470	232.738	-5.410	68.314	183.306	237.580	108.261	-72.069	212.237	-55.892	148.957	256.402	241.825	234.527	0.00026655	0.00051409	0.00015661	1634.8	3.1918e-06	5.1147e-06	1609.8	426.18	3.2509e-06	5.5836e-06	485.13	160.26	141.11	48.813	3.8228e-06	59.71	0.00044523	0.00036323	9.2039e-05	1652.7	4.4392e-06	3.5583e-06	1629.8	433.17	4.3895e-06	3.6875e-06	491.86	163.98	143.91	49.912	4.012e-06	61.248	130.954	3.959	5.888	-68.840	67.008	68.553	-69.016	-64.321	22.320	76.574	-64.704	-61.041	-60.186	-55.568	51.093	-56.255	-8191	255	
897.270	1	1	0	0	0.098341	0.23526	0.024043	0.29526	0.12788	0.22168	0.13531	0.33536	0.1812	0.10127	0.030037	0.083914	0.20546	0.21183	0.26314	0.33251	-2.9521	-3.1333	-3.3354	-3.5354	-3.1417	-3.4813	-3.4625	-3.4708	-3.2896	-3.0062	-3.5542	-3.2875	-3.3792	-3.5667	-2.9792	-3.5417	258.256	-14.536	45.873	271.700	211.486	68.974	25.707	223.625	272.328	60.472	207.542	167.339	275.281	255.010	179.135	215.365	0.00029514	0.00058477	0.0001533	1633.6	2.7872e-06	5.7736e-06	1605.6	427.69	2.6897e-06	5.886e-06	483.21	159.92	140.62	48.703	3.5739e-06	59.692	0.00042978	0.0003492	9.5007e-05	1651.4	4.2457e-06	3.8876e-06	1629	433.3	4.5112e-06	3.7228e-06	491.18	163.78	143.94	49.818	3.9681e-06	61.187	133.148	5.265	9.815	-68.876	58.616	69.844	-68.773	-64.130	52.921	70.410	-64.777	-60.990	-60.344	-55.453	64.784	-55.959	-8191	255	
897.367	1	1	0	0	0.04747	0.11157	0.10031	0.21664	0.05307	0.18998	0.46848	0.18537	0.2134	0.15227	0.18805	0.20706	0.21119	0.16146	0.18827	0.34572	-2.9479	-2.9646	-3.3625	-3.3312	-3.0333	-3.4417	-3.3167	-3.3292	-3.3438	-3.1646	-3.5042	-3.3292	-3.2333	-3.5021	-3.3958	-3.2958	-30.428	-14.534	-74.742	236.748	213.988	31.834	196.303	221.269	211.209	115.394	198.789	181.398	249.077	264.413	103.230	212.249	0.00028215	0.00053972	0.00018501	1641.4	2.6512e-06	5.803e-06	1612.8	426.38	2.9298e-06	7.371e-06	484.04	159.77	140.93	48.717	4.4543e-06	59.972	0.00044278	0.00035807	9.0448e-05	1654.2	4.3084e-06	3.3863e-06	1630.3	433.39	4.3459e-06	3.7022e-06	491.21	163.67	144.01	49.856	4.2073e-06	61.266	132.506	-8.098	19.892	-68.711	59.238	70.752	-69.092	-64.300	21.931	74.556	-64.633	-61.112	-60.004	-55.304	63.124	-56.368	-8191	255	
#DATA ENDS
