BOXY.EXE: ISS Imagent and Oximeter Data Acquisition Program Version 0.80
Ascii Record File

#ACQ INFORMATION
2  Detector Channels 
16  External MUX Channels 
1  Auxiliary Channels 
5000  Waveform (CCF) Frequency (Hz)
1  Waveforms Skipped 
30  Waveforms Averaged 
1  Cycles Averaged 
16  Acquisitions per Waveform 
10.0806  Updata Rate (Hz) 

#FILE INFORMATION
TRUE -- External MUX Channel results are PARSED.
FALSE -- AC DC and Phase are NOT grouped.
TRUE -- Companion Program Settings File CREATED.
FALSE -- AC data not excluded
FALSE -- DC data not excluded
FALSE -- Phase data not excluded
FALSE -- Auxillary Chn. data not excluded
Tab delimiters

#CALIBRATION STATE
TRUE -- Waveform Calibration Values APPLIED.


#AUX CALIBRATION VALUES
Val Type	aux-1	

Term	1.0000e+00	
Factor	0.0000e+00	


#WF CALIBRATION VALUES
A = Detector Channel
Val Type	A-AC1	A-AC2	A-AC3	A-AC4	A-AC5	A-AC6	A-AC7	A-AC8	A-AC9	A-AC10	A-AC11	A-AC12	A-AC13	A-AC14	A-AC15	A-AC16	A-DC1	A-DC2	A-DC3	A-DC4	A-DC5	A-DC6	A-DC7	A-DC8	A-DC9	A-DC10	A-DC11	A-DC12	A-DC13	A-DC14	A-DC15	A-DC16	A-Ph1	A-Ph2	A-Ph3	A-Ph4	A-Ph5	A-Ph6	A-Ph7	A-Ph8	A-Ph9	A-Ph10	A-Ph11	A-Ph12	A-Ph13	A-Ph14	A-Ph15	A-Ph16	

Term	0.00000e+00	0.00000e+00	0.00000e+00	0.00000e+00	0.00000e+00	0.00000e+00	0.00000e+00	0.00000e+00	0.00000e+00	0.00000e+00	0.00000e+00	0.00000e+00	0.00000e+00	0.00000e+00	0.00000e+00	0.00000e+00	0.00000e+00	0.00000e+00	0.00000e+00	0.00000e+00	0.00000e+00	0.00000e+00	0.00000e+00	0.00000e+00	0.00000e+00	0.00000e+00	0.00000e+00	0.00000e+00	0.00000e+00	0.00000e+00	0.00000e+00	0.00000e+00	0.00000e+00	0.00000e+00	0.00000e+00	0.00000e+00	0.00000e+00	0.00000e+00	0.00000e+00	0.00000e+00	0.00000e+00	0.00000e+00	0.00000e+00	0.00000e+00	0.00000e+00	0.00000e+00	0.00000e+00	0.00000e+00	
Factor	1.00000e+00	1.00000e+00	1.00000e+00	1.00000e+00	1.00000e+00	1.00000e+00	1.00000e+00	1.00000e+00	1.00000e+00	1.00000e+00	1.00000e+00	1.00000e+00	1.00000e+00	1.00000e+00	1.00000e+00	1.00000e+00	1.00000e+00	1.00000e+00	1.00000e+00	1.00000e+00	1.00000e+00	1.00000e+00	1.00000e+00	1.00000e+00	1.00000e+00	1.00000e+00	1.00000e+00	1.00000e+00	1.00000e+00	1.00000e+00	1.00000e+00	1.00000e+00	X	X	X	X	X	X	X	X	X	X	X	X	X	X	X	X	

B = Detector Channel
Val Type	B-AC1	B-AC2	B-AC3	B-AC4	B-AC5	B-AC6	B-AC7	B-AC8	B-AC9	B-AC10	B-AC11	B-AC12	B-AC13	B-AC14	B-AC15	B-AC16	B-DC1	B-DC2	B-DC3	B-DC4	B-DC5	B-DC6	B-DC7	B-DC8	B-DC9	B-DC10	B-DC11	B-DC12	B-DC13	B-DC14	B-DC15	B-DC16	B-Ph1	B-Ph2	B-Ph3	B-Ph4	B-Ph5	B-Ph6	B-Ph7	B-Ph8	B-Ph9	B-Ph10	B-Ph11	B-Ph12	B-Ph13	B-Ph14	B-Ph15	B-Ph16	

Term	0.00000e+00	0.00000e+00	0.00000e+00	0.00000e+00	0.00000e+00	0.00000e+00	0.00000e+00	0.00000e+00	0.00000e+00	0.00000e+00	0.00000e+00	0.00000e+00	0.00000e+00	0.00000e+00	0.00000e+00	0.00000e+00	0.00000e+00	0.00000e+00	0.00000e+00	0.00000e+00	0.00000e+00	0.00000e+00	0.00000e+00	0.00000e+00	0.00000e+00	0.00000e+00	0.00000e+00	0.00000e+00	0.00000e+00	0.00000e+00	0.00000e+00	0.00000e+00	-1.75373e+02	-1.30324e+02	-1.22335e+02	-1.82865e+02	-7.94388e+01	-6.73137e+01	-1.55847e+02	-1.62015e+02	-8.73043e+01	-6.50213e+01	-1.70182e+02	-1.72231e+02	-1.79732e+02	-1.76323e+02	-7.82466e+01	-1.49486e+02	
Factor	2.80776e-05	1.59647e-04	4.56555e-05	1.56367e-01	1.46645e-06	1.62896e-06	1.65078e-01	5.36098e-02	1.54737e-06	1.86707e-06	8.00233e-02	3.09967e-02	2.31372e-02	8.58255e-03	1.59471e-06	1.26389e-02	1.74870e-05	3.64141e-05	1.03222e-05	7.94208e-02	3.37746e-07	4.14866e-07	7.89372e-02	2.73144e-02	3.43380e-07	4.12689e-07	3.96292e-02	1.53309e-02	1.19582e-02	4.41765e-03	3.63355e-07	6.29802e-03	X	X	X	X	X	X	X	X	X	X	X	X	X	X	X	X	



#DISTANCE SETTINGS
A = Detector Channel
A-1	A-2	A-3	A-4	A-5	A-6	A-7	A-8	A-9	A-10	A-11	A-12	A-13	A-14	A-15	A-16	

2.5000e+00	3.0000e+00	2.5000e+00	3.0000e+00	2.0000e+00	3.0000e+00	1.5000e+00	3.0000e+00	3.0000e+00	3.0000e+00	3.0000e+00	3.0000e+00	3.0000e+00	3.0000e+00	1.5000e+00	3.0000e+00	

B = Detector Channel
B-1	B-2	B-3	B-4	B-5	B-6	B-7	B-8	B-9	B-10	B-11	B-12	B-13	B-14	B-15	B-16	

1.0000e+01	1.0000e+01	1.0000e+01	1.4400e+00	1.0000e+01	1.0000e+01	1.5100e+00	1.9400e+00	1.0000e+01	1.0000e+01	1.9900e+00	2.4900e+00	2.4100e+00	2.9000e+00	1.0000e+01	2.9800e+00	




#DATA BEGINS
time	group	step	mark	flag	A-AC1	A-AC2	A-AC3	A-AC4	A-AC5	A-AC6	A-AC7	A-AC8	A-AC9	A-AC10	A-AC11	A-AC12	A-AC13	A-AC14	A-AC15	A-AC16	A-DC1	A-DC2	A-DC3	A-DC4	A-DC5	A-DC6	A-DC7	A-DC8	A-DC9	A-DC10	A-DC11	A-DC12	A-DC13	A-DC14	A-DC15	A-DC16	A-Ph1	A-Ph2	A-Ph3	A-Ph4	A-Ph5	A-Ph6	A-Ph7	A-Ph8	A-Ph9	A-Ph10	A-Ph11	A-Ph12	A-Ph13	A-Ph14	A-Ph15	A-Ph16	B-AC1	B-AC2	B-AC3	B-AC4	B-AC5	B-AC6	B-AC7	B-AC8	B-AC9	B-AC10	B-AC11	B-AC12	B-AC13	B-AC14	B-AC15	B-AC16	B-DC1	B-DC2	B-DC3	B-DC4	B-DC5	B-DC6	B-DC7	B-DC8	B-DC9	B-DC10	B-DC11	B-DC12	B-DC13	B-DC14	B-DC15	B-DC16	B-Ph1	B-Ph2	B-Ph3	B-Ph4	B-Ph5	B-Ph6	B-Ph7	B-Ph8	B-Ph9	B-Ph10	B-Ph11	B-Ph12	B-Ph13	B-Ph14	B-Ph15	B-Ph16	aux-1	digaux	

833.960	1	1	0	768	0.024278	0.16709	0.22747	0.22683	0.11853	0.15651	0.2171	0.098613	0.11679	0.10205	0.096405	0.070018	0.1165	0.18362	0.27669	0.25366	-3.2333	-3.2	-3.1458	-3.6417	-3.0958	-3.3792	-3.8187	-3.2208	-3.5708	-3.5062	-3.4958	-3.5917	-3.4667	-3.35	-3.45	-3.25	-20.898	3.931	-23.068	246.607	160.298	248.553	148.568	134.590	-13.196	67.228	245.595	140.929	20.846	89.662	58.581	153.260	0.00028482	0.00050361	0.00016946	1636.8	3.6729e-06	4.8699e-06	1620.5	412.76	3.5702e-06	6.7554e-06	475.43	157.35	137.79	48.253	5.4937e-06	59.539	0.00063095	0.00075408	0.00020687	1657.1	8.2888e-06	8.4996e-06	1643.7	420.44	8.0601e-06	8.5487e-06	483.33	161.36	140.9	49.368	7.9317e-06	60.929	131.218	-12.147	0.763	-69.190	59.801	77.499	-69.066	-64.603	39.221	76.422	-65.103	-60.972	-60.625	-55.805	47.418	-56.482	-8191	255	
834.056	1	1	0	0	0.18502	0.052911	0.080433	0.21485	0.18774	0.040331	0.37131	0.076119	0.23557	0.15309	0.16184	0.14187	0.21669	0.11792	0.1979	0.26552	-3.1042	-3.4896	-3.2604	-3.7812	-3.0271	-3.3083	-3.7167	-3.3896	-3.3396	-3.2646	-3.2521	-3.7333	-3.4062	-3.4542	-3.3979	-3.1646	197.996	223.152	183.441	228.939	0.142	99.239	184.037	-75.489	190.037	70.131	230.340	246.015	186.231	12.365	23.128	232.486	0.00027264	0.00057273	0.00017212	1638.4	2.9846e-06	4.871e-06	1616.6	413.81	3.3011e-06	8.4564e-06	477.2	158.03	137.62	48.113	3.9886e-06	59.381	0.00061882	0.00076242	0.00021722	1658.8	8.2973e-06	8.2048e-06	1640	420.09	8.2096e-06	8.4094e-06	483.38	161.37	140.87	49.27	7.828e-06	60.798	124.179	8.941	3.356	-69.176	79.836	78.489	-69.245	-64.705	18.962	54.231	-65.033	-60.941	-60.517	-55.756	48.188	-56.338	-8191	255	
834.152	1	1	0	0	0.0959	0.043554	0.27026	0.27964	0.061908	0.16137	0.10296	0.15758	0.18415	0.20793	0.0072925	0.16041	0.17758	0.16384	0.38239	0.11707	-3.0583	-3.4188	-2.975	-3.7146	-3.2083	-3.3083	-3.6354	-3.1708	-3.2083	-3.3688	-3.1771	-3.4667	-3.3125	-3.4021	-3.5042	-3.2333	239.473	218.934	220.050	253.516	274.929	-62.415	166.843	198.952	210.707	-67.352	-50.498	4.331	239.439	141.119	197.466	179.013	0.00024622	0.00056573	0.00015938	1641	2.0416e-06	4.9953e-06	1621.8	413.33	1.733e-06	7.3712e-06	475.67	157.13	138.04	48.033	1.6193e-06	59.144	0.00062173	0.00075992	0.00020885	1658	8.3093e-06	7.9931e-06	1642.3	419.88	7.985e-06	8.1033e-06	482.97	161.06	140.83	49.235	7.7872e-06	60.702	132.632	24.068	27.184	-69.213	62.717	72.552	-69.176	-64.750	67.210	66.465	-64.939	-61.220	-60.749	-55.862	99.958	-56.300	-8191	255	
834.248	1	1	0	0	0.26446	0.044883	0.18418	0.24605	0.29688	0.23901	0.58421	0.27756	0.092084	0.21189	0.21662	0.13335	0.17673	0.15611	0.12946	0.36929	-2.9521	-3.5417	-2.9938	-3.5083	-3.4083	-3.1521	-3.7125	-3.3792	-3.1688	-3.4896	-3.15	-3.5208	-3.5854	-3.2521	-3.5354	-3.2917	98.548	67.513	-81.772	-81.484	58.356	-18.676	207.513	235.067	162.297	166.082	256.468	-18.107	193.830	210.677	-63.184	197.772	0.00030304	0.00056459	0.00017156	1634.4	1.7378e-06	5.442e-06	1623.1	412.67	2.5904e-06	5.2679e-06	473.48	157.33	137.31	47.811	4.4792e-06	59.261	0.00062377	0.00071561	0.00020823	1656	8.2136e-06	7.9542e-06	1642.1	419.77	7.9478e-06	7.9804e-06	482.62	161.12	140.74	49.178	8.1687e-06	60.776	125.646	11.966	10.982	-69.256	76.850	66.307	-69.226	-64.781	55.761	68.849	-64.806	-61.161	-60.586	-55.868	55.411	-56.466	-8191	255	
834.345	1	1	0	0	0.19974	0.10109	0.12392	0.30644	0.079688	0.11044	0.21377	0.15169	0.20802	0.14164	0.0096761	0.21774	0.27987	0.11307	0.094896	0.13551	-2.7188	-3.3187	-2.9417	-3.5938	-3.5458	-3.05	-3.7646	-3.3563	-3.1729	-3.4437	-3.1875	-3.4437	-3.5187	-3.2708	-3.5187	-3.3083	238.971	92.624	215.927	254.842	243.423	113.072	239.950	213.789	222.650	44.127	-2.653	159.855	123.084	37.221	36.739	4.273	0.00030276	0.00050688	0.00012934	1636.1	2.8604e-06	5.7694e-06	1618.1	411.03	2.5301e-06	6.3508e-06	474.11	157.18	137.44	48.11	4.6903e-06	59.142	0.00062305	0.00070378	0.00021612	1656	7.8786e-06	8.0994e-06	1643.4	419.12	7.9793e-06	8.0818e-06	482.55	160.83	140.49	49.218	8.1399e-06	60.705	132.081	7.511	21.210	-69.090	24.646	78.667	-69.252	-64.680	32.333	70.643	-64.990	-61.170	-60.691	-56.018	53.654	-56.414	-8191	255	
834.441	1	1	0	0	0.1609	0.20449	0.13151	0.19904	0.10493	0.11491	0.22699	0.18581	0.032706	0.11599	0.21217	0.19978	0.1275	0.21244	0.085454	0.33897	-2.8708	-3.3667	-3.1271	-3.4562	-3.3771	-3.0708	-3.7562	-3.2833	-3.0438	-3.4896	-3.3479	-3.4896	-3.6208	-3.1083	-3.4167	-3.3688	120.058	257.976	-1.234	219.427	-63.252	160.298	223.822	227.735	113.667	47.582	184.033	14.840	-64.357	181.445	123.912	224.549	0.00028924	0.00050614	0.00015137	1641	3.6841e-06	5.2008e-06	1620.6	414.1	3.3893e-06	8.0026e-06	473.69	157.69	138.21	48.2	5.2949e-06	59.143	0.00062264	0.00074034	0.00021702	1656.9	7.7513e-06	8.2705e-06	1642	419.96	8.0852e-06	8.2495e-06	481.98	161.2	140.92	49.227	7.9908e-06	60.706	130.785	3.297	12.529	-69.241	69.234	66.300	-69.180	-64.555	20.979	59.465	-65.138	-61.102	-60.554	-55.675	49.816	-56.103	-8191	255	
834.561	1	1	0	0	0.27307	0.22327	0.10474	0.20151	0.19671	0.12256	0.23243	0.27139	0.082916	0.063545	0.076613	0.1184	0.12795	0.19753	0.022589	0.12136	-2.7542	-3.5354	-2.9583	-3.4771	-3.3458	-3.0729	-3.5375	-3.4771	-3.0604	-3.2062	-3.1333	-3.3375	-3.5083	-3.3208	-3.2729	-3.4458	91.072	83.637	-72.684	226.801	122.446	7.360	194.323	233.996	274.814	210.539	135.769	274.343	-71.997	178.062	30.021	138.222	0.00027207	0.00049999	0.00018058	1637	2.6895e-06	5.5827e-06	1619.4	412.66	3.0234e-06	6.4863e-06	475.15	156.64	137.61	48.059	5.03e-06	59.281	0.00061984	0.00072601	0.00021831	1658	7.8843e-06	8.3094e-06	1642.6	419.4	8.1424e-06	8.4464e-06	482.59	160.92	140.69	49.259	8.1119e-06	60.716	129.504	11.825	15.634	-69.125	77.561	58.416	-69.302	-64.687	44.253	57.482	-65.227	-61.020	-60.524	-55.904	42.876	-56.365	-8191	255	
834.656	1	1	0	0	0.18309	0.17085	0.20787	0.3287	0.30224	0.15179	0.17688	0.18702	0.21447	0.10376	0.16685	0.31957	0.035813	0.14478	0.10514	0.085794	-2.6	-3.3833	-3.3875	-3.4125	-3.3771	-3.1479	-3.6896	-3.325	-3.0375	-3.5583	-3.3417	-3.3583	-3.5521	-3.2188	-3.2229	-3.4188	41.318	8.360	-15.137	222.699	-22.785	41.865	154.350	254.867	-81.435	-57.350	269.778	241.613	219.460	244.716	121.418	243.001	0.00030365	0.00051706	0.00017907	1638.2	2.1226e-06	5.639e-06	1622	413.41	4.0984e-06	4.3777e-06	474.41	156.95	137.48	47.879	4.2549e-06	59.061	0.00063481	0.00074664	0.00021468	1657.4	7.8702e-06	8.5143e-06	1644.2	420.29	8.1889e-06	8.1334e-06	482.36	161.09	140.68	49.19	7.9666e-06	60.704	131.399	5.759	14.656	-69.225	53.642	60.813	-69.299	-64.743	29.540	65.185	-65.066	-61.111	-60.370	-55.741	55.518	-56.593	-8191	255	
834.754	1	1	0	0	0.12119	0.099265	0.16026	0.42104	0.32779	0.018501	0.33899	0.18061	0.1164	0.041431	0.13343	0.1342	0.069737	0.11135	0.15139	0.19057	-2.6562	-3.3042	-3.1271	-3.3833	-3.35	-3.1521	-3.4604	-3.5	-2.9562	-3.4917	-3.2646	-3.2104	-3.5271	-3.1958	-3.2979	-3.4271	117.930	56.972	207.234	-78.898	87.673	254.151	175.478	235.802	-37.592	-56.529	30.922	-21.810	173.600	87.736	198.122	161.192	0.00030515	0.00039336	0.00019554	1637.4	4.4967e-06	4.6669e-06	1617.4	412.04	2.1374e-06	5.1441e-06	474.18	156.93	137.18	47.843	4.3001e-06	58.971	0.0006296	0.00072623	0.00021522	1658.6	7.9398e-06	8.414e-06	1642.2	419.52	8.2719e-06	7.9073e-06	481.58	160.95	140.7	49.175	7.9287e-06	60.689	128.112	17.911	-0.350	-69.341	80.127	84.141	-69.316	-64.729	45.332	73.850	-65.095	-61.018	-60.528	-56.016	47.068	-56.390	-8191	255	
834.850	1	1	0	0	0.051392	0.065927	0.18661	0.17686	0.2177	0.14025	0.25604	0.17686	0.324	0.17953	0.20266	0.26931	0.092373	0.124	0.26634	0.23445	-2.7729	-3.2812	-3.2667	-3.1562	-3.2646	-3.1396	-3.3063	-3.5771	-3.0917	-3.4125	-3.5396	-3.1458	-3.5542	-3.3104	-3.2146	-3.5208	202.654	-68.437	-35.592	-62.348	224.739	-1.975	216.937	145.008	196.423	260.912	123.690	214.128	246.340	101.211	122.473	205.286	0.00029718	0.00058368	0.00016461	1643.2	3.5977e-06	3.2828e-06	1622.7	413.09	1.9313e-06	5.2873e-06	476.47	157.52	137.81	48.143	3.4937e-06	59.338	0.00062618	0.00073663	0.00020019	1657.4	7.816e-06	8.3639e-06	1643.1	419.47	8.0315e-06	8.0724e-06	483.16	161.22	140.85	49.252	8.0892e-06	60.718	131.555	-3.912	6.697	-69.197	39.784	60.039	-69.481	-64.707	17.212	73.816	-64.921	-61.190	-60.353	-55.699	74.701	-56.327	-8191	255	
834.944	1	1	0	0	0.083451	0.1173	0.092072	0.27981	0.11166	0.21171	0.077015	0.20326	0.19989	0.20768	0.23118	0.18684	0.098727	0.19698	0.053611	0.20229	-2.7583	-3.3417	-3.3438	-3.3396	-3.3854	-3.0687	-3.4333	-3.4479	-3.1208	-3.4062	-3.3458	-3.0708	-3.4938	-3.375	-3.2	-3.5146	-13.776	-4.764	-6.561	266.092	47.828	259.433	259.930	116.297	189.881	230.029	266.543	259.934	-37.112	272.744	56.830	186.590	0.00026372	0.00068782	0.00015683	1641.9	2.7618e-06	4.3972e-06	1620	411.59	2.0156e-06	5.8906e-06	475.02	157.1	137.59	47.994	3.996e-06	59.267	0.00062982	0.00073344	0.00019883	1655.8	7.8582e-06	8.3656e-06	1642.5	418.91	8.2218e-06	8.1583e-06	481.61	161.13	140.72	49.184	7.6797e-06	60.788	132.023	-3.682	-2.469	-69.114	61.913	62.020	-69.330	-64.722	39.455	80.508	-64.902	-61.072	-60.463	-55.884	62.952	-56.494	-8191	255	
835.040	1	1	0	0	0.080785	0.14587	0.093217	0.21549	0.24542	0.29855	0.094536	0.29015	0.061542	0.17004	0.42821	0.016235	0.30475	0.23535	0.09951	0.34115	-2.6271	-3.1792	-3.3729	-3.2062	-3.5625	-3.4771	-3.3854	-3.5312	-3.0542	-3.1229	-3.5104	-3.2896	-3.4646	-3.3937	-3.1979	-3.6	126.602	75.695	170.488	248.725	-60.997	10.049	246.020	243.147	75.225	90.420	-73.077	-81.762	222.959	244.418	90.518	235.298	0.00027296	0.00037801	0.00019802	1638.4	3.2776e-06	4.9447e-06	1613.6	412.11	2.5475e-06	5.9328e-06	475.66	157	137.74	48.136	4.4546e-06	59.387	0.00065161	0.00071561	0.00020616	1654.9	7.5761e-06	8.0709e-06	1639.8	419.56	8.0823e-06	7.7938e-06	483.02	160.99	140.75	49.288	7.766e-06	60.843	130.193	19.245	21.457	-69.434	63.020	55.346	-69.254	-64.662	15.054	55.000	-64.963	-61.034	-60.479	-55.937	65.376	-56.412	-8191	255	
835.136	1	1	0	0	0.24238	0.075785	0.077672	0.4581	0.13765	0.26586	0.22514	0.16829	0.1103	0.090143	0.34106	0.18248	0.15721	0.2377	0.013326	0.28045	-2.7083	-3.2792	-3.4271	-3.5375	-3.2792	-3.3187	-3.4229	-3.6562	-3.0875	-3.2875	-3.6125	-3.1417	-3.3979	-3.4583	-3.0812	-3.4667	142.514	-41.607	139.852	259.169	220.171	98.395	180.316	-18.221	-3.170	253.480	236.689	139.715	-63.454	-74.829	22.241	247.001	0.00028399	0.00061781	0.0001685	1645.3	4.0802e-06	5.2367e-06	1618.8	412.49	2.8707e-06	6.2942e-06	473.93	157.12	137.73	48.036	3.8444e-06	59.269	0.00064057	0.00071895	0.00020382	1656.9	7.8498e-06	8.1029e-06	1642.5	419.66	8.372e-06	8.001e-06	483.31	161.41	140.9	49.309	8.1573e-06	60.819	131.920	-0.821	10.843	-69.123	48.626	68.447	-69.255	-64.560	37.290	68.054	-65.219	-61.204	-60.645	-55.660	49.998	-56.479	-8191	255	
835.257	1	1	0	0	0.13628	0.18795	0.15385	0.11901	0.09795	0.090906	0.15568	0.34195	0.089434	0.36521	0.17688	0.16593	0.22038	0.27632	0.07049	0.319	-2.7146	-3.175	-3.5458	-3.2667	-3.275	-3.5229	-3.5563	-3.5042	-3.3708	-3.2854	-3.6271	-3.4396	-3.6437	-3.6688	-3.2979	-3.525	78.040	29.793	64.147	232.223	188.669	232.869	217.276	233.826	31.580	9.163	-80.774	241.362	-27.340	198.030	33.777	-23.544	0.00029734	0.00065871	0.00014384	1631.6	3.3128e-06	5.2648e-06	1615.7	413.27	2.3612e-06	5.48e-06	473.27	157.87	138	48.364	5.4405e-06	58.995	0.00061926	0.00071197	0.00020128	1656	7.8287e-06	7.7969e-06	1641.7	419.95	7.8884e-06	8.0328e-06	483.17	161.43	141.22	49.426	8.1134e-06	60.718	129.674	16.991	8.039	-69.208	58.688	61.274	-69.165	-64.709	66.079	66.758	-64.976	-61.188	-60.519	-55.891	69.067	-56.446	-8191	255	
835.353	1	1	0	0	0.14761	0.094935	0.010629	0.33802	0.070992	0.11869	0.23709	0.34559	0.025014	0.19261	0.45875	0.23814	0.14305	0.19024	0.3105	0.19124	-2.9667	-3.0521	-3.3417	-3.3667	-3.4042	-3.3167	-3.2188	-3.6958	-3.3	-3.3312	-3.625	-3.1583	-3.3167	-3.5104	-3.05	-3.5083	224.732	-44.452	213.977	241.160	184.091	-41.357	220.306	216.928	78.143	202.330	-45.483	273.711	215.435	42.590	134.234	-80.952	0.00030563	0.00053718	0.00016228	1627.3	2.6762e-06	5.364e-06	1609.8	411.89	1.5039e-06	5.851e-06	473.11	156.75	137.75	48.165	4.2265e-06	59.275	0.00061951	0.00070909	0.00020397	1651.5	7.5219e-06	7.7563e-06	1636.5	419.14	7.8698e-06	8.0277e-06	481.82	161	140.88	49.335	7.909e-06	60.868	130.111	1.934	7.546	-69.208	80.181	61.221	-69.289	-64.644	40.402	65.182	-65.005	-61.230	-60.648	-56.039	72.043	-56.209	-8191	255	
835.449	1	1	0	0	0.043172	0.16477	0.25299	0.21617	0.059009	0.061988	0.42164	0.11919	0.11932	0.066359	0.22019	0.095407	0.16772	0.26257	0.11766	0.15519	-2.9542	-3.2125	-3.4479	-3.3792	-3.3812	-3.5229	-3.4833	-3.5563	-3.2896	-3.0812	-3.65	-3.1104	-3.1479	-3.6167	-3.1604	-3.3646	230.296	58.394	72.674	-74.680	83.066	22.746	229.506	126.066	71.165	48.083	205.605	142.220	210.876	187.141	197.006	-61.825	0.0003223	0.00050818	0.00013811	1633.4	2.2582e-06	5.1949e-06	1613.7	412.32	2.5928e-06	5.9056e-06	476.45	157.84	138.72	48.461	3.0537e-06	59.502	0.00062133	0.00071015	0.00019982	1655.1	7.4754e-06	7.949e-06	1641.8	421.51	7.8169e-06	8.2263e-06	484.82	162.34	141.84	49.636	7.9885e-06	61.221	130.344	7.063	25.362	-69.272	55.097	78.418	-69.449	-64.675	35.221	75.438	-65.237	-61.131	-60.560	-55.868	41.716	-56.456	-8191	255	
835.521	1	1	0	0	0.23966	0.25502	0.28684	0.22123	0.24952	0.072949	0.16935	0.12878	0.19171	0.11375	0.27463	0.058449	0.30083	0.098253	0.14764	0.24901	-3.0792	-2.9167	-3.3708	-3.3271	-3.1604	-3.6125	-3.3854	-3.2687	-3.4583	-3.1896	-3.5521	-3.2917	-3.2021	-3.4688	-3.1667	-3.3646	126.504	89.493	16.070	236.390	58.936	102.219	264.191	102.061	90.207	140.344	250.714	163.136	262.000	216.274	146.534	177.641	0.00031194	0.00045652	0.00017781	1630.8	2.4966e-06	6.9871e-06	1610.9	411.99	2.0844e-06	5.419e-06	473.31	157.3	137.63	48.076	4.929e-06	59.393	0.00060811	0.0007081	0.00020186	1655.3	7.6457e-06	8.0285e-06	1638.4	420.57	7.5665e-06	7.8316e-06	482.43	161.53	141.18	49.451	7.8e-06	60.944	133.327	7.716	1.769	-69.320	51.394	62.010	-69.428	-64.654	25.209	66.588	-65.233	-61.175	-60.547	-55.816	43.039	-56.472	-8191	255	
835.642	1	1	0	0	0.21913	0.066361	0.13213	0.32572	0.2116	0.041603	0.25577	0.21543	0.22775	0.17125	0.11836	0.14693	0.30663	0.23623	0.11038	0.35958	-3.0812	-2.9938	-3.3271	-3.4396	-3.225	-3.5104	-3.1292	-3.4208	-3.3625	-2.8792	-3.5292	-3.3792	-3.2375	-3.5187	-3.1917	-3.2667	143.805	83.389	253.000	235.087	256.182	39.421	206.601	248.449	106.880	28.431	-70.495	275.638	235.186	235.474	60.854	185.467	0.00030134	0.00054944	0.00018046	1631.3	3.2623e-06	6.3437e-06	1613.5	413.22	2.5722e-06	5.6056e-06	475.02	157.87	138.5	48.355	4.9598e-06	59.711	0.00061394	0.00075377	0.00019567	1651.3	7.7485e-06	7.943e-06	1639.4	420.72	7.6388e-06	8.1369e-06	483.49	161.9	141.8	49.629	7.7326e-06	61.114	130.104	-8.052	17.117	-69.257	56.773	67.887	-69.339	-64.576	25.300	64.595	-64.982	-61.150	-60.362	-55.872	55.761	-56.457	-8191	255	
835.736	1	1	0	0	0.062931	0.21865	0.2021	0.18367	0.25374	0.051202	0.21051	0.073338	0.12428	0.17741	0.30857	0.32361	0.26942	0.36004	0.0094854	0.11528	-2.9125	-3.0208	-3.2604	-3.6646	-3.0354	-3.5542	-3.1937	-3.2938	-3.5583	-3.1333	-3.4667	-3.4708	-3.0625	-3.4333	-3.1146	-3.2812	-1.568	235.230	-15.664	157.667	44.460	-17.215	201.375	-26.744	250.570	-51.432	260.521	264.109	-49.764	245.437	162.476	255.634	0.00028426	0.00042964	0.00016287	1632.7	3.4061e-06	5.0132e-06	1610.6	411.96	3.0893e-06	4.364e-06	471.49	156.89	137.45	48.266	4.2461e-06	59.629	0.00062727	0.00072972	0.00020012	1654.7	7.7998e-06	7.885e-06	1638.2	421.03	7.8033e-06	7.9898e-06	482.61	161.85	141.34	49.548	7.557e-06	61.068	130.755	-1.548	25.797	-69.218	57.354	70.396	-69.536	-64.759	56.819	76.442	-65.183	-61.221	-60.541	-55.967	65.527	-56.515	-8191	255	
835.834	1	1	0	0	0.13051	0.20066	0.11003	0.1463	0.17926	0.041773	0.12492	0.25116	0.25805	0.1113	0.034005	0.086845	0.30672	0.12206	0.16539	0.12903	-3.0438	-3.0667	-3.1333	-3.5042	-3.0812	-3.2958	-3.4688	-3.2042	-3.3979	-3.3271	-3.325	-3.5958	-3.1813	-3.3646	-3.2938	-3.0625	68.131	203.580	193.198	215.991	190.861	63.428	16.576	174.043	125.465	268.297	-14.980	229.392	186.489	68.456	64.630	265.551	0.00029857	0.00050262	0.00012772	1631.5	3.696e-06	4.6004e-06	1615.4	414.38	1.8512e-06	5.2614e-06	476.23	158.31	138.51	48.351	2.2664e-06	59.854	0.00060975	0.00073723	0.00019337	1651.9	7.8484e-06	7.7053e-06	1638.6	420.8	7.8062e-06	8.038e-06	483.85	161.99	141.44	49.568	7.7811e-06	61.116	127.590	7.218	20.751	-69.401	54.814	57.869	-69.421	-64.634	17.391	65.213	-64.997	-61.186	-60.496	-55.651	63.869	-56.322	-8191	255	
835.953	1	1	0	0	0.20468	0.4251	0.18502	0.49711	0.062053	0.21951	0.47671	0.30482	0.23198	0.084853	0.28584	0.43091	0.13172	0.20104	0.0087103	0.17625	-3.0563	-3.0896	-3.1646	-3.6958	-3.0208	-3.3917	-3.5604	-3.2604	-3.3521	-3.3208	-3.3812	-3.6208	-3.2313	-3.3563	-3.3375	-3.3521	-37.422	73.354	98.347	234.098	-14.390	126.718	216.099	200.376	194.670	-44.813	274.144	252.912	-68.047	208.538	52.625	204.966	0.00027818	0.00042345	0.00017668	1638.4	4.2374e-06	4.1014e-06	1619.3	414.03	3.2777e-06	7.2782e-06	476.54	157.88	138.26	48.587	4.2975e-06	59.557	0.00061383	0.00072441	0.00020152	1654.7	7.9884e-06	8.0078e-06	1640.4	420.94	7.7947e-06	7.9417e-06	483.96	161.84	141.46	49.624	8.1089e-06	60.979	134.436	39.355	20.892	-69.159	74.128	75.877	-69.305	-64.696	50.266	59.181	-64.798	-61.037	-60.460	-55.964	62.172	-56.455	-8191	255	
836.049	1	1	0	0	0.12706	0.090483	0.014189	0.25623	0.29251	0.10232	0.41779	0.18979	0.15651	0.11349	0.22274	0.16789	0.27992	0.20213	0.16176	0.10923	-3	-3.1375	-3.0625	-3.5771	-3.1	-3.4021	-3.4896	-3.0708	-3.3479	-3.0979	-3.1708	-3.5354	-3.2479	-3.4271	-3.4521	-3.2625	35.067	19.852	64.438	225.622	5.641	208.162	216.839	238.477	178.095	21.482	268.311	-17.001	241.246	215.728	166.367	241.009	0.00028898	0.00056087	0.00017188	1632.5	3.7996e-06	5.8278e-06	1613.2	413.62	3.948e-06	5.7007e-06	475.86	157.31	138.23	48.301	5.6139e-06	59.265	0.0006139	0.00073519	0.00019247	1653.4	7.923e-06	7.3768e-06	1639.9	420.74	7.9278e-06	7.8514e-06	484.21	161.72	141.44	49.519	7.9105e-06	61.01	133.685	7.604	13.516	-69.160	58.722	79.551	-69.332	-64.514	49.458	71.454	-65.229	-61.210	-60.459	-56.033	44.003	-56.628	-8191	255	
836.121	1	1	0	0	0.27816	0.15775	0.13127	0.057025	0.045497	0.11094	0.14886	0.41581	0.15505	0.25363	0.098619	0.11292	0.11596	0.14205	0.1339	0.15253	-3.0583	-3.2917	-2.9833	-3.5417	-3.2896	-3.2667	-3.6229	-3.2667	-3.5521	-3.175	-3.3438	-3.4771	-3.3	-3.2292	-3.3708	-3.2833	87.805	17.658	116.905	192.072	0.301	274.678	227.263	150.398	-5.787	253.697	155.387	-81.509	250.394	190.210	267.088	-31.724	0.00028432	0.00048747	0.00013047	1625	3.2113e-06	4.8434e-06	1605.7	410.02	1.2285e-06	6.0244e-06	475.96	157.68	137.84	48.219	3.9939e-06	59.205	0.00061099	0.00071979	0.00020036	1652	7.8153e-06	7.6603e-06	1637.4	420.15	7.8462e-06	7.713e-06	484.21	161.81	141.29	49.511	7.7819e-06	61.057	135.444	-5.010	44.249	-69.378	71.560	61.516	-69.365	-64.684	-15.453	69.354	-65.047	-61.080	-60.748	-55.854	63.044	-56.736	-8191	255	
836.241	1	1	0	0	0.35135	0.23849	0.026302	0.26477	0.16181	0.16622	0.17279	0.24029	0.15187	0.15251	0.20284	0.097613	0.31123	0.11688	0.23477	0.32294	-2.9583	-3.3812	-3.2396	-3.5687	-3.2292	-3.3208	-3.6667	-3.3812	-3.3208	-3.2833	-3.2313	-3.5187	-3.4125	-3.2354	-3.3354	-3.1208	103.144	32.064	-40.048	241.466	46.964	57.604	211.011	253.162	35.613	13.373	174.570	253.466	-38.561	223.187	228.812	243.986	0.00029215	0.00076657	0.00017965	1632.7	2.9687e-06	4.5027e-06	1609.4	412.49	3.8393e-06	5.9034e-06	472.64	156.86	137.33	48.026	4.1371e-06	59.088	0.00060629	0.00072479	0.00020986	1654.2	7.7027e-06	7.726e-06	1639.3	420.64	7.7296e-06	7.8351e-06	482.54	161.66	141.04	49.495	7.8174e-06	60.959	133.918	15.330	15.550	-69.224	54.099	68.261	-69.376	-64.775	18.236	79.838	-65.145	-61.225	-60.569	-56.128	49.418	-56.591	-8191	255	
836.337	1	1	0	0	0.16163	0.21593	0.09457	0.55204	0.195	0.11811	0.24376	0.31917	0.19969	0.17274	0.15419	0.08997	0.094639	0.11257	0.12754	0.18959	-2.8625	-3.4646	-2.9854	-3.4896	-3.1188	-3.0333	-3.7562	-3.2292	-3.35	-3.4542	-3.0563	-3.5062	-3.2188	-3.0583	-3.4729	-3.2104	124.801	34.053	110.565	240.424	132.105	259.643	213.514	203.002	239.926	263.054	138.955	162.063	184.110	232.405	-44.032	110.177	0.00032374	0.0006537	0.00015754	1626.1	3.6958e-06	5.5308e-06	1604.7	410.87	2.4424e-06	6.73e-06	473	156.79	137.84	48.021	4.9855e-06	58.959	0.00060927	0.00070659	0.00020085	1651.8	7.8955e-06	8.0795e-06	1636.6	420.4	7.5086e-06	7.9924e-06	483.05	161.66	141.31	49.457	7.7009e-06	60.953	132.677	-3.073	15.412	-69.238	78.569	61.327	-69.245	-64.884	-8.466	66.923	-65.112	-61.058	-60.485	-55.960	51.745	-56.537	-8191	255	
836.434	1	1	0	0	0.25043	0.39514	0.22056	0.13537	0.14243	0.068941	0.10126	0.25417	0.10525	0.098973	0.16188	0.25633	0.29301	0.2925	0.14721	0.29494	-2.7854	-3.2875	-2.9521	-3.5271	-3.3937	-3.0521	-3.5854	-3.3937	-3.1604	-3.3812	-3.0792	-3.4271	-3.2562	-3.3104	-3.4042	-3.3812	46.217	23.341	154.483	-67.293	-67.983	-31.952	192.468	255.887	-51.225	260.651	269.553	256.660	189.806	263.906	-30.925	168.390	0.00028987	0.00059954	0.00018286	1629.3	3.708e-06	4.0088e-06	1609.1	410.33	2.0031e-06	5.6291e-06	470.74	156.5	137.03	48.194	4.4273e-06	59.243	0.00060658	0.00074088	0.00020629	1652.7	7.9722e-06	8.032e-06	1638.8	420.16	7.6323e-06	8.0259e-06	482.47	161.7	140.98	49.525	7.9484e-06	61.028	132.464	1.692	4.458	-69.359	72.485	58.337	-69.359	-64.963	27.505	82.623	-65.236	-61.370	-60.775	-55.927	46.431	-56.683	-8191	255	
836.554	1	1	0	0	0.016716	0.16023	0.19824	0.3031	0.16022	0.090544	0.14757	0.40068	0.13856	0.078572	0.18498	0.12459	0.3218	0.18604	0.094398	0.21447	-3.0375	-3.3417	-3.0625	-3.5604	-3.3667	-3.1792	-3.6333	-3.25	-3.1063	-3.3083	-3.3438	-3.2854	-3.5083	-3.1229	-3.3771	-3.2938	1.636	245.872	80.618	252.382	32.357	262.849	208.136	235.101	92.083	111.591	172.791	27.881	180.953	236.240	124.660	220.205	0.00028891	0.0004639	0.0001472	1625.6	3.0516e-06	3.3578e-06	1610.2	412.07	3.1044e-06	5.483e-06	473.41	156.74	137.73	48.153	3.677e-06	59.207	0.00060315	0.00072646	0.00020197	1652.4	7.6084e-06	8.102e-06	1638.9	420.44	7.8784e-06	8.0449e-06	483.27	161.64	141.29	49.481	7.5601e-06	60.912	130.148	5.666	8.906	-69.286	64.492	80.369	-69.363	-64.726	32.955	78.271	-65.128	-61.147	-60.822	-55.784	52.898	-56.493	-8191	255	
836.650	1	1	0	0	0.085843	0.037463	0.1503	0.32694	0.12099	0.12039	0.3639	0.21385	0.18504	0.16929	0.095	0.14537	0.3264	0.33481	0.2121	0.12698	-2.5083	-3.4292	-3.1542	-3.4604	-3.4917	-2.9333	-3.6542	-3.4854	-3.1354	-3.3688	-3.2875	-3.3312	-3.575	-2.9396	-3.5458	-3.4583	-37.839	-24.788	46.901	264.992	187.333	92.664	264.321	144.319	171.141	49.269	249.734	223.157	178.118	-79.721	-4.961	188.806	0.00028837	0.00059474	0.00015088	1629.4	2.8116e-06	5.627e-06	1608.5	410.31	1.5766e-06	6.0397e-06	475.93	157.28	138.02	48.305	5.0685e-06	59.334	0.00061368	0.00071903	0.00019573	1652.3	7.9082e-06	8.0449e-06	1637.7	419.84	7.759e-06	7.8222e-06	483.56	161.76	141.2	49.518	7.8348e-06	60.917	128.957	-0.994	12.847	-69.206	44.908	62.433	-69.364	-64.796	65.724	53.636	-65.023	-61.155	-60.513	-55.651	40.396	-56.506	-8191	255	
836.745	1	1	0	0	0.076835	0.22974	0.2202	0.17756	0.051138	0.2361	0.17341	0.29446	0.10134	0.39145	0.16043	0.21039	0.027924	0.35524	0.080475	0.12537	-2.525	-3.3396	-3.1208	-3.475	-3.4229	-3.0917	-3.4688	-3.5396	-2.9354	-3.3875	-3.4042	-3.2146	-3.6271	-3.1688	-3.2583	-3.4292	-82.027	-46.854	71.446	248.253	53.925	171.468	194.882	194.205	63.439	158.640	261.066	181.305	42.917	8.318	205.843	-6.411	0.00028226	0.0006543	0.00015415	1629.9	3.0089e-06	5.179e-06	1607	410.78	2.726e-06	5.9147e-06	472.18	156.88	137.91	48.299	3.7981e-06	59.28	0.00063645	0.00070909	0.00019664	1651.2	7.6605e-06	8.2005e-06	1637.1	419.86	7.7454e-06	7.7328e-06	482.16	161.54	141.09	49.445	7.5108e-06	60.896	128.879	-2.123	15.940	-69.130	53.885	59.300	-69.258	-64.712	40.635	68.883	-65.022	-61.218	-60.534	-55.882	59.073	-56.563	-8191	255	
836.818	1	1	0	0	0.16339	0.057442	0.061389	0.24528	0.12805	0.14953	0.16556	0.10727	0.23333	0.31654	0.24423	0.27902	0.034231	0.3458	0.12363	0.21505	-2.5604	-3.2146	-3.1958	-3.4146	-3.3604	-3.1667	-3.5812	-3.4146	-3.1646	-3.2438	-3.4229	-3.2208	-3.6833	-3.2188	-3.2854	-3.3688	242.357	144.865	-37.668	-45.431	150.818	-30.238	212.042	127.098	-5.976	174.433	-27.082	236.097	-33.979	-64.408	120.976	181.631	0.00030401	0.00066512	0.00013499	1620.7	3.5574e-06	6.8165e-06	1604.7	409.89	1.6088e-06	5.1536e-06	472.51	156.63	137.58	48.12	4.6286e-06	59.24	0.00062461	0.00068906	0.00020305	1649.8	7.6781e-06	8.0821e-06	1634.5	419.2	7.945e-06	7.474e-06	482.43	161.31	140.89	49.355	7.604e-06	60.827	129.168	3.993	10.587	-69.102	44.378	68.709	-69.388	-64.848	28.774	61.779	-65.133	-61.013	-60.404	-56.109	40.700	-56.291	-8191	255	
836.937	1	1	0	0	0.11656	0.12904	0.13578	0.21795	0.19201	0.18021	0.25744	0.20052	0.23264	0.26932	0.39743	0.094135	0.19572	0.1277	0.083542	0.18398	-2.6667	-3.4	-3.1813	-3.3896	-3.3604	-3.1063	-3.3479	-3.6333	-3.1521	-3.3292	-3.4292	-3.1604	-3.5479	-3.2375	-3.1625	-3.5583	208.874	196.809	15.583	229.741	154.828	-26.578	231.530	166.852	-4.743	96.339	187.117	43.775	-31.617	257.122	94.698	248.376	0.00029038	0.00063964	0.00014292	1621.5	2.3814e-06	5.4363e-06	1598.8	409.26	3.4111e-06	4.6111e-06	472.96	155.88	136.99	48.215	3.4361e-06	59.021	0.00061969	0.00070613	0.00019692	1648.8	7.7822e-06	8.1348e-06	1634	418.99	8.3806e-06	7.4301e-06	482.89	161.31	140.74	49.4	7.8644e-06	60.872	137.016	12.909	20.156	-69.429	74.852	67.129	-69.374	-64.829	34.766	63.224	-64.936	-61.168	-60.584	-55.826	53.683	-56.738	-8191	255	
837.033	1	1	0	0	0.088738	0.023713	0.15181	0.37099	0.18147	0.16138	0.24601	0.20508	0.11407	0.094858	0.27981	0.16346	0.14995	0.1787	0.25863	0.093585	-2.6667	-3.3688	-3.1542	-3.1521	-3.4437	-3.2979	-3.4479	-3.4854	-3.1937	-3.3688	-3.375	-3.1292	-3.4667	-3.4521	-2.9646	-3.6229	-28.726	90.293	127.978	255.618	19.023	-54.618	240.174	171.898	-37.972	243.643	186.177	148.606	-66.147	222.070	14.448	252.797	0.00030776	0.00052179	0.00016645	1625.2	4.1144e-06	4.8458e-06	1614.2	413	2.497e-06	7.101e-06	473.7	157.49	138.36	48.25	5.0388e-06	59.743	0.00064745	0.00070037	0.00020689	1649.7	7.6478e-06	7.8652e-06	1637.3	419.92	7.7954e-06	7.6184e-06	481.9	161.5	141.04	49.362	8.0415e-06	60.994	135.558	1.990	12.370	-69.149	54.829	56.874	-69.161	-64.584	-4.510	55.062	-65.025	-61.129	-60.341	-55.738	55.457	-56.429	-8191	255	
837.129	1	1	0	0	0.19716	0.13693	0.15247	0.16395	0.16022	0.23596	0.27649	0.080757	0.11569	0.060432	0.075332	0.11648	0.11797	0.14239	0.05605	0.17557	-2.5021	-3.2	-3.3229	-3.2667	-3.2875	-3.0896	-3.3333	-3.5917	-3.0187	-3.1229	-3.425	-3.1542	-3.6562	-3.3021	-3.1625	-3.4625	140.531	184.300	123.191	262.260	154.963	258.195	217.444	-66.371	215.207	195.725	66.218	-64.370	-30.675	223.567	-27.008	250.445	0.00029349	0.00054644	0.00017034	1634.5	3.7898e-06	4.1589e-06	1619.3	415.06	2.0244e-06	6.4515e-06	476.59	157.82	138.38	48.375	3.99e-06	59.633	0.00062851	0.00070416	0.00020965	1651.2	7.5782e-06	8.0233e-06	1638.6	420.12	7.9564e-06	8.1618e-06	482.58	161.48	141.13	49.448	8.0036e-06	61.004	135.425	-5.209	16.867	-69.152	52.792	80.850	-69.393	-64.711	8.438	64.894	-64.935	-61.021	-60.442	-55.710	55.728	-56.280	-8191	255	
837.226	1	1	0	0	0.22691	0.063687	0.050037	0.16182	0.27392	0.12163	0.30091	0.34262	0.12046	0.27152	0.22173	0.24889	0.090138	0.12787	0.23747	0.078578	-2.8187	-3.2083	-3.2667	-3.2396	-3.2667	-3.3375	-3.3396	-3.7708	-3.0333	-3.2042	-3.5167	-3.2458	-3.525	-3.175	-3.0604	-3.4375	185.590	208.622	96.525	236.691	182.054	22.268	211.663	255.706	152.025	196.695	160.141	209.499	254.500	5.833	-17.379	273.490	0.00029765	0.0004061	0.00012164	1636.9	2.7471e-06	5.2692e-06	1616.4	413.06	2.6518e-06	5.1536e-06	478.21	157.77	138.05	48.429	3.6855e-06	59.759	0.00062469	0.00072669	0.00020569	1653.1	7.5261e-06	8.223e-06	1636.8	419.97	7.8405e-06	7.8884e-06	483.53	161.38	141.02	49.423	8.0824e-06	60.981	123.424	1.490	27.375	-69.140	66.399	55.898	-69.327	-64.537	42.392	62.228	-65.048	-61.139	-60.421	-55.980	58.613	-56.417	-8191	255	
837.346	1	1	0	0	0.44112	0.23854	0.075619	0.28527	0.19178	0.25535	0.097043	0.23834	0.071762	0.26111	0.26146	0.3954	0.35689	0.32515	0.11665	0.31868	-2.7313	-3.1146	-3.4583	-3.2646	-3.2729	-3.3958	-3.1562	-3.3896	-3.3625	-3.2208	-3.5125	-3.2271	-3.4125	-3.5667	-3.1146	-3.4042	167.091	267.600	74.659	228.244	26.200	17.923	-13.267	3.550	265.504	27.779	223.602	254.807	232.687	182.258	248.655	256.316	0.00027615	0.00052229	0.00016444	1635.3	3.4359e-06	5.4993e-06	1619.8	415.18	3.5375e-06	5.9317e-06	476.42	158.23	138.61	48.502	4.6725e-06	59.707	0.0006154	0.00072548	0.0002053	1653	7.5303e-06	8.2826e-06	1638.2	420.42	7.7826e-06	7.8256e-06	483.2	161.54	140.99	49.425	7.9688e-06	61.087	129.020	8.031	4.293	-69.296	61.860	81.784	-69.196	-64.709	26.464	57.141	-64.765	-61.152	-60.369	-55.881	53.305	-56.411	-8191	255	
837.418	1	1	0	0	0.26875	0.20745	0.19489	0.44959	0.11577	0.036018	0.18049	0.12734	0.1602	0.15605	0.033157	0.11953	0.054331	0.14613	0.14455	0.10636	-2.9104	-3.2313	-3.1958	-3.1896	-3.2625	-3.5187	-3.3354	-3.5438	-3.1771	-3.3	-3.7938	-3.1083	-3.2979	-3.6312	-3.0708	-3.4396	267.860	-5.875	-48.610	186.655	-49.505	151.491	261.708	-75.829	23.515	79.277	111.945	-7.028	-2.975	259.291	54.735	216.316	0.0003173	0.0005498	0.0001628	1640.5	3.3406e-06	4.3184e-06	1620.6	413.8	3.8293e-06	6.3438e-06	477.44	157.71	138.83	48.415	5.1027e-06	59.718	0.00063459	0.00074224	0.00020176	1653	7.8069e-06	7.8418e-06	1639.3	420.09	8.0515e-06	8.1068e-06	483.76	161.43	141.27	49.41	8.0672e-06	60.989	129.933	9.812	3.408	-69.075	47.969	63.566	-69.291	-64.757	25.134	67.490	-65.043	-61.002	-60.290	-55.745	61.317	-56.364	-8191	255	
837.514	1	1	0	0	0.10789	0.11482	0.16988	0.37504	0.25136	0.21144	0.068861	0.24555	0.15119	0.051388	0.16797	0.092647	0.16204	0.21557	0.12164	0.23581	-3.0062	-3.1042	-3.4313	-3.3354	-3.125	-3.3271	-3.4375	-3.4271	-3.2958	-3.0125	-3.6896	-3.4354	-3.1896	-3.4729	-3.1063	-3.4292	-40.139	121.538	111.042	218.342	79.770	147.149	166.715	258.498	72.095	212.813	208.995	77.434	-59.816	207.938	6.359	166.221	0.00029126	0.00048367	0.00014212	1641.3	3.7146e-06	5.7871e-06	1620.4	413.77	3.9072e-06	5.4298e-06	475.1	158.06	138.49	48.467	4.0452e-06	59.597	0.00062724	0.00074277	0.00019651	1653.2	7.6535e-06	7.809e-06	1639.4	419.88	8.2218e-06	7.8342e-06	483.09	161.61	141.06	49.491	7.6426e-06	61.01	129.389	-7.264	2.455	-68.954	44.240	66.384	-69.322	-64.598	24.000	64.339	-64.972	-61.077	-60.397	-55.891	57.163	-56.497	-8191	255	
837.635	1	1	0	0	0.12925	0.24594	0.15034	0.2196	0.20692	0.17286	0.14065	0.14811	0.1958	0.17499	0.1966	0.16456	0.5381	0.25403	0.24942	0.17205	-2.8833	-3	-3.2458	-3.2021	-3.2042	-3.3063	-3.2438	-3.4125	-3.375	-3.1729	-3.5938	-3.3854	-3.2646	-3.5729	-3.0438	-3.3063	-71.440	75.810	-7.331	213.204	222.080	230.109	165.035	216.846	184.481	277.240	271.683	250.446	223.334	245.932	270.026	153.299	0.00027267	0.00062821	0.00015432	1640.4	2.3677e-06	5.4319e-06	1620.7	413.5	3.3786e-06	6.2396e-06	476.97	157.99	138.78	48.472	3.132e-06	59.904	0.00062308	0.00072752	0.00019378	1654.7	7.7562e-06	7.6949e-06	1638.9	419.49	7.9957e-06	8.0681e-06	482.83	161.52	141.28	49.519	7.336e-06	61.147	124.945	5.838	2.560	-69.018	70.104	70.637	-69.314	-64.534	52.036	80.660	-64.948	-61.170	-60.382	-55.798	55.725	-56.500	-8191	255	
837.729	1	1	0	0	0.17153	0.36166	0.12274	0.20262	0.126	0.1019	0.2905	0.1923	0.20113	0.16622	0.20862	0.047501	0.16318	0.23397	0.13778	0.23954	-2.9833	-2.9979	-3.4646	-3.4292	-3.1021	-3.3792	-3.2354	-3.4083	-3.5604	-3.3167	-3.3792	-3.4979	-3.2167	-3.6271	-3.2188	-3.0875	-33.731	250.698	133.848	-32.791	191.987	-52.805	245.061	233.410	222.085	225.811	-63.365	204.133	106.937	-22.610	3.603	221.275	0.00030804	0.00049379	0.00013401	1640.2	3.0205e-06	4.5331e-06	1622.8	415.18	2.3483e-06	6.7395e-06	477.84	158.43	138.89	48.581	3.0156e-06	59.882	0.00062082	0.00069445	0.00019603	1656.5	7.7576e-06	7.4105e-06	1641.4	421.39	7.7182e-06	7.8505e-06	484.07	161.75	141.44	49.645	7.8242e-06	61.054	133.971	1.347	24.374	-69.020	52.096	74.755	-69.190	-64.543	38.203	69.491	-64.905	-61.181	-60.547	-56.006	63.253	-56.523	-8191	255	
837.825	1	1	0	0	0.19317	0.23439	0.10602	0.20574	0.086874	0.11671	0.35627	0.1268	0.24849	0.070123	0.21488	0.047743	0.27845	0.23893	0.086729	0.12201	-2.9625	-3.0354	-3.3542	-3.6479	-2.9896	-3.4708	-3.3563	-3.3375	-3.5208	-3.0896	-3.4333	-3.4458	-3.3229	-3.5563	-3.2062	-3.35	266.161	173.445	-60.927	223.703	-64.515	27.657	154.419	213.082	212.110	6.955	252.747	135.199	259.447	201.403	39.196	-72.293	0.00027795	0.00064356	0.00017351	1643	2.7796e-06	5.2115e-06	1620.8	414.83	1.8286e-06	6.9087e-06	480.05	158.98	138.71	48.57	4.0895e-06	59.927	0.00061179	0.00071941	0.00018894	1655.5	7.6457e-06	7.5393e-06	1639.7	420.42	7.8298e-06	7.6528e-06	484.36	162.23	141.69	49.611	7.7743e-06	61.211	130.243	-10.027	7.338	-69.098	43.059	73.244	-69.104	-64.667	24.768	74.421	-64.954	-60.972	-60.587	-55.850	54.950	-56.285	-8191	255	
837.921	1	1	0	0	0.11461	0.14812	0.14279	0.19178	0.15859	0.10756	0.24088	0.13619	0.061886	0.049463	0.30718	0.18227	0.071068	0.15178	0.076781	0.097708	-3.0708	-3.0604	-3.1479	-3.6458	-3.0729	-3.5042	-3.525	-3.2542	-3.5917	-3.1917	-3.4458	-3.4062	-3.1375	-3.4979	-3.45	-3.1125	11.240	125.185	-15.165	205.180	217.389	249.858	238.439	245.614	-55.452	-67.239	247.036	189.101	137.741	-39.320	63.553	-76.212	0.00031597	0.00055079	0.00017746	1644.3	1.5962e-06	4.6862e-06	1621.8	416.84	2.5906e-06	5.5965e-06	478.92	159.16	139.21	48.899	5.053e-06	60.095	0.00061146	0.00068952	0.00020027	1655.7	7.5711e-06	7.5713e-06	1642.1	422.38	7.3662e-06	7.6502e-06	484.98	162.5	142.07	49.869	8.0635e-06	61.366	128.804	1.459	34.887	-69.149	55.740	76.379	-69.119	-64.675	3.443	77.351	-64.994	-61.318	-60.537	-55.655	57.998	-56.452	-8191	255	
838.017	1	1	0	0	0.38364	0.12308	0.15953	0.39289	0.11971	0.092434	0.089455	0.090414	0.13583	0.12659	0.26532	0.27565	0.11148	0.13668	0.043824	0.14123	-3.0417	-3.1896	-3.1958	-3.5125	-3.2375	-3.3667	-3.4708	-3.2104	-3.5667	-3.2	-3.1875	-3.6396	-3.3208	-3.5625	-3.3521	-3.3479	-20.724	170.735	255.457	-80.781	172.239	252.305	134.462	202.683	48.927	-41.419	186.858	-43.480	187.046	188.425	32.803	51.043	0.00029934	0.00067991	0.00014382	1641	2.3256e-06	8.1734e-06	1621.7	417.35	1.3671e-06	4.704e-06	479.86	159.54	139.82	48.863	4.6758e-06	60.105	0.00060297	0.00071174	0.00019748	1655.7	7.4733e-06	7.6232e-06	1641.9	422.9	7.2754e-06	7.8738e-06	485.95	162.78	142.35	49.911	7.7682e-06	61.424	132.712	5.431	11.640	-69.180	61.103	85.901	-69.209	-64.869	15.543	62.464	-64.921	-61.198	-60.531	-55.795	55.018	-56.459	-8191	255	
838.114	1	1	0	0	0.21947	0.073713	0.10917	0.36735	0.26073	0.03224	0.42732	0.32441	0.085952	0.12693	0.075787	0.011456	0.45197	0.22674	0.19484	0.11301	-3.0979	-3.1417	-3.2438	-3.5604	-3.0771	-3.3563	-3.6167	-3.0792	-3.4688	-3.2896	-3.4375	-3.4396	-3.3667	-3.4854	-3.3438	-3.2188	261.590	248.830	202.031	252.852	-15.313	115.763	199.379	234.777	269.706	-59.552	255.891	88.783	214.850	203.395	131.583	157.237	0.00029363	0.00050106	0.00018981	1646.7	4.7631e-06	5.8362e-06	1625.5	416.77	8.8473e-07	6.6129e-06	478.02	158.99	139.61	48.796	5.105e-06	60.029	0.00060068	0.00070499	0.00020077	1657.2	7.7133e-06	7.5799e-06	1641.9	422.48	7.4492e-06	8.0741e-06	484.86	162.49	142.28	49.872	7.8969e-06	61.482	135.752	6.848	-0.900	-69.167	59.574	55.508	-69.186	-64.705	40.964	78.819	-65.071	-61.275	-60.552	-55.822	43.598	-56.358	-8191	255	
838.234	1	1	0	0	0.096439	0.098049	0.10263	0.14008	0.05166	0.11863	0.23951	0.25797	0.097778	0.077809	0.072357	0.014067	0.40044	0.11916	0.13335	0.2021	-3.0271	-3.2917	-2.8812	-3.5396	-3.2708	-3.1521	-3.5729	-3.4396	-3.525	-3.5521	-3.2646	-3.4562	-3.1479	-3.3042	-3.5042	-3.2896	126.004	5.173	140.126	-73.962	-45.721	-73.262	216.236	233.737	-70.276	82.057	-71.170	88.969	204.236	207.492	114.207	133.678	0.00026367	0.00041658	0.00015599	1640.6	3.4705e-06	4.4018e-06	1630	416.16	1.2826e-06	7.4524e-06	479.36	159.87	139.45	48.929	4.7646e-06	60.132	0.00059372	0.00072699	0.00020246	1655.4	7.6732e-06	7.6171e-06	1643.8	422.34	7.4964e-06	8.2435e-06	485.71	162.87	142.23	49.837	7.5994e-06	61.368	134.062	-11.088	11.884	-69.074	88.489	62.927	-69.304	-64.683	42.975	65.211	-65.097	-61.268	-60.485	-55.847	51.683	-56.362	-8191	255	
838.330	1	1	0	0	0.14901	0.080263	0.17322	0.48163	0.097233	0.16884	0.14359	0.21118	0.18986	0.11945	0.17249	0.12809	0.22773	0.17183	0.076825	0.27243	-2.875	-3.3208	-3.1104	-3.5396	-3.1583	-3.3167	-3.4813	-3.1417	-3.325	-3.3729	-3.2479	-3.5792	-3.2438	-3.3896	-3.3542	-3.2771	117.060	56.269	25.725	243.126	10.527	123.009	122.798	234.880	70.142	-11.257	262.871	-24.094	59.402	-81.156	46.285	-59.492	0.00028888	0.00050526	0.00014987	1644.4	2.9687e-06	5.3821e-06	1629.3	416.63	3.3224e-06	5.2803e-06	481.33	159.58	139.11	48.825	3.7711e-06	60.07	0.00061066	0.00070621	0.00020526	1657.5	7.619e-06	7.6171e-06	1644.2	422.89	7.706e-06	7.8136e-06	486.21	162.81	141.88	49.817	7.694e-06	61.431	129.229	-4.642	14.403	-69.259	34.265	52.410	-69.346	-64.604	23.037	64.442	-65.064	-60.877	-60.468	-55.888	53.207	-56.353	-8191	255	
838.427	1	1	0	0	0.29665	0.17498	0.21943	0.16843	0.2337	0.162	0.15739	0.33347	0.077539	0.23454	0.44125	0.27663	0.24427	0.16686	0.091165	0.15585	-2.9083	-3.4625	-3.1979	-3.6396	-3.2042	-2.9229	-3.8021	-3.2562	-3.2188	-3.375	-3.25	-3.4896	-3.3521	-3.3063	-3.4313	-3.2812	24.815	150.758	-26.938	-75.043	202.303	-69.638	252.447	202.619	-8.305	230.979	198.475	269.389	-77.253	-41.296	12.400	164.137	0.00028541	0.0005971	0.00016519	1644.7	3.916e-06	4.3052e-06	1629.9	415.88	1.8957e-06	5.7108e-06	482.26	159.29	139.3	48.814	4.5302e-06	60.025	0.00061926	0.00070378	0.00020012	1657.2	7.8195e-06	8.2031e-06	1643.2	422.66	7.6459e-06	7.8798e-06	486.08	162.88	142.22	49.87	7.5548e-06	61.426	126.747	5.604	2.925	-69.116	6.919	67.880	-69.277	-64.871	7.543	93.745	-64.891	-61.200	-60.403	-55.945	60.448	-56.436	-8191	255	
838.523	1	1	0	0	0.31755	0.23628	0.19821	0.3184	0.12664	0.22314	0.19181	0.22606	0.073924	0.1112	0.19239	0.19491	0.048355	0.15448	0.089985	0.18751	-2.9396	-3.5083	-3.0646	-3.5729	-3.2	-3.2083	-3.6167	-3.3375	-3.2417	-3.6104	-3.1042	-3.375	-3.5104	-3.2208	-3.3979	-3.2854	149.803	272.742	142.495	229.976	-50.412	-75.260	193.390	236.876	114.844	135.660	201.723	183.624	47.364	252.305	-50.548	213.835	0.00028943	0.00051912	0.00018228	1641.6	4.4513e-06	4.7911e-06	1628.3	416.44	1.6842e-06	7.3704e-06	478.04	159.3	139.36	48.674	4.448e-06	59.978	0.0006057	0.00071	0.00020578	1656.2	7.7865e-06	7.9939e-06	1644.3	422.74	7.3254e-06	7.6923e-06	485.51	162.77	142.05	49.82	7.2898e-06	61.302	130.817	1.985	13.176	-69.044	57.004	59.899	-69.244	-64.488	22.059	65.473	-64.873	-60.919	-60.426	-55.820	76.717	-56.351	-8191	255	
838.643	1	1	0	0	0.1436	0.13635	0.14037	0.56021	0.1628	0.20757	0.14436	0.34896	0.16242	0.27935	0.26596	0.10962	0.10708	0.27145	0.034485	0.055313	-2.7083	-3.4562	-3.0729	-3.4354	-3.3563	-3.1188	-3.4854	-3.3875	-3	-3.5125	-3.3583	-3.425	-3.55	-3.2	-3.55	-3.3083	134.781	-57.740	154.185	254.768	25.007	227.905	256.382	251.567	66.157	167.863	276.937	255.785	142.834	273.396	-21.524	144.234	0.00028539	0.00047411	0.00016195	1646.1	3.1622e-06	3.706e-06	1625	417.88	3.7422e-06	6.7923e-06	479.55	158.91	139.58	48.885	4.5056e-06	60.001	0.00060778	0.00067252	0.00019393	1660.2	7.7879e-06	7.9706e-06	1644	422.93	7.9342e-06	7.578e-06	485.63	162.78	142.21	49.863	7.523e-06	61.415	132.600	7.972	9.588	-69.068	49.604	75.778	-69.230	-64.695	33.858	74.583	-65.020	-61.144	-60.475	-55.807	45.303	-56.285	-8191	255	
838.715	1	1	0	0	0.20153	0.2233	0.24012	0.24779	0.27246	0.094819	0.088406	0.31281	0.20254	0.1127	0.10376	0.23221	0.13913	0.17524	0.037312	0.29373	-2.7104	-3.3833	-3.0417	-3.5312	-3.5812	-3.2125	-3.6021	-3.3729	-3.0667	-3.6833	-3.2979	-3.4813	-3.5646	-3.1937	-3.3729	-3.5354	-22.295	157.090	-6.273	249.687	211.923	270.212	54.540	199.145	193.114	52.043	181.553	206.717	223.756	-41.523	186.369	-24.230	0.0002777	0.00061885	0.00012751	1644.2	3.0437e-06	5.7444e-06	1627.6	416.59	3.3529e-06	6.6242e-06	479.41	159.63	139.41	48.917	5.2713e-06	60.189	0.00061587	0.00070188	0.00019696	1657.1	7.5937e-06	7.6923e-06	1644.8	422.1	7.8183e-06	7.4551e-06	486.28	162.72	142.11	49.855	7.6978e-06	61.418	134.151	6.564	6.273	-68.850	80.988	70.829	-69.251	-64.549	42.378	64.346	-65.261	-60.947	-60.584	-55.922	64.617	-56.493	-8191	255	
838.809	1	1	0	0	0.10234	0.056282	0.091219	0.21928	0.37987	0.21649	0.14647	0.14238	0.12532	0.051381	0.26808	0.0083668	0.15616	0.15072	0.36925	0.12014	-2.5667	-3.3708	-2.9437	-3.2667	-3.4146	-3.0062	-3.5583	-3.5396	-3.1583	-3.4688	-3.2458	-3.2042	-3.5896	-3.2458	-3.3625	-3.4375	-12.433	173.351	74.716	223.378	132.467	265.075	220.374	150.086	86.363	23.036	187.111	161.393	-70.372	189.705	9.839	157.636	0.00030273	0.00044817	0.00016094	1643.3	3.354e-06	4.8415e-06	1621.2	417.78	3.0116e-06	6.5566e-06	480.15	159.18	139.18	48.766	4.2135e-06	60.166	0.00062341	0.00065705	0.00020285	1657.6	7.6725e-06	7.4218e-06	1640.1	422.85	7.9492e-06	7.4086e-06	485.62	162.64	141.97	49.833	7.7667e-06	61.434	132.481	10.900	23.971	-69.047	61.860	59.013	-69.196	-64.656	52.413	66.182	-64.847	-61.005	-60.486	-55.868	63.908	-56.444	-8191	255	
838.906	1	1	0	0	0.068907	0.095657	0.08374	0.0976	0.15613	0.24479	0.35607	0.21922	0.18258	0.11405	0.20363	0.20782	0.17053	0.19013	0.15159	0.22119	-2.6542	-3.5938	-3.1813	-3.2	-3.4875	-3.0458	-3.5229	-3.55	-2.9583	-3.2583	-3.35	-3.2458	-3.7042	-3.2833	-3.3021	-3.4	32.618	83.714	149.881	184.706	8.783	102.625	235.172	186.794	136.719	133.812	-76.831	224.412	275.834	213.220	-23.079	115.946	0.0002443	0.00061666	0.00015767	1640.5	3.8535e-06	5.2418e-06	1622.5	415.62	2.2868e-06	6.299e-06	477.37	158.84	138.88	48.637	4.4936e-06	59.877	0.0006154	0.00067753	0.00020029	1655.2	7.4649e-06	7.5497e-06	1642.9	422.61	7.7811e-06	7.2676e-06	484.94	162.72	142.09	49.799	7.6971e-06	61.288	136.774	11.843	8.950	-69.213	66.748	76.156	-69.026	-64.750	39.149	56.100	-65.076	-61.016	-60.355	-55.917	56.422	-56.418	-8191	255	
839.026	1	1	0	0	0.14729	0.028908	0.10935	0.38587	0.24871	0.13245	0.33595	0.23283	0.055895	0.16427	0.31913	0.17692	0.20853	0.07093	0.10882	0.28576	-2.6917	-3.375	-3.2708	-3.4354	-3.4333	-3.1583	-3.6937	-3.5208	-2.8333	-3.275	-3.4625	-3.2354	-3.5917	-3.3979	-3.1417	-3.5333	164.412	23.696	28.879	248.823	3.394	199.085	242.561	257.921	81.883	182.423	260.506	170.794	237.413	99.193	-55.924	229.217	0.00026688	0.00067203	0.00015666	1642.3	2.9127e-06	4.2976e-06	1622.6	416.12	2.1218e-06	7.1608e-06	476.95	158.44	138.94	48.817	3.7799e-06	60.099	0.00061569	0.0006792	0.00019711	1656.3	7.2946e-06	8.1288e-06	1643.8	423.19	7.8841e-06	7.3966e-06	484.91	162.62	142.12	49.868	7.803e-06	61.382	127.496	10.473	15.855	-69.173	61.365	71.103	-69.135	-64.806	47.199	61.020	-64.962	-61.100	-60.395	-55.622	57.761	-56.192	-8191	255	
839.122	1	1	0	0	0.13085	0.07428	0.17156	0.36483	0.14631	0.20615	0.15114	0.55708	0.30871	0.25407	0.25923	0.15868	0.51219	0.16564	0.12735	0.095806	-2.5854	-3.1979	-3.3375	-3.2375	-3.5167	-3.2229	-3.3688	-3.5333	-3.0792	-3.4188	-3.3208	-3.2521	-3.6292	-3.2521	-3.1583	-3.5792	212.255	-8.645	194.385	258.781	248.825	-2.680	217.565	223.193	37.552	143.372	240.806	-52.027	202.365	191.317	259.684	189.305	0.00029265	0.00054417	0.00013005	1639.5	3.9168e-06	6.0546e-06	1617.1	416.21	2.8722e-06	6.7407e-06	476.3	158.01	139.23	48.711	3.3798e-06	59.731	0.00059893	0.00070909	0.00020588	1656	7.5465e-06	8.1305e-06	1641.2	422.06	7.8756e-06	7.7929e-06	484.74	162.4	142.25	49.85	7.7296e-06	61.362	132.679	-6.923	12.483	-69.250	58.627	64.362	-69.140	-64.650	41.752	61.538	-65.077	-61.241	-60.435	-55.755	60.496	-56.468	-8191	255	
839.218	1	1	0	0	0.16516	0.077317	0.23662	0.10949	0.091286	0.092913	0.39652	0.25703	0.048679	0.06003	0.1192	0.23148	0.27276	0.28244	0.15874	0.1733	-2.6833	-3.0542	-3.2875	-3.4125	-3.5083	-3.2271	-3.4417	-3.4188	-3.1229	-3.1604	-3.5271	-3.1167	-3.5271	-3.4979	-3.2521	-3.5146	236.936	88.851	158.199	241.532	55.000	270.781	228.368	227.415	233.688	234.443	228.740	-82.140	256.677	-52.111	47.161	230.825	0.00032348	0.00053103	0.00014049	1636.4	3.2021e-06	5.9214e-06	1619.6	415.31	2.3634e-06	5.1875e-06	478.45	158.71	138.74	48.472	2.8683e-06	59.78	0.00060629	0.00068443	0.00019324	1654.4	7.5374e-06	8.121e-06	1643.9	422.38	7.9342e-06	7.6554e-06	484.96	162.57	142.03	49.815	7.5903e-06	61.325	132.422	14.899	14.307	-69.100	64.417	75.149	-69.284	-64.662	53.863	64.642	-65.078	-61.075	-60.474	-55.825	69.664	-56.677	-8191	255	
839.315	1	1	0	0	0.067826	0.17255	0.052144	0.20634	0.14571	0.27421	0.12774	0.25866	0.13037	0.15448	0.32911	0.35135	0.31518	0.14271	0.12452	0.10756	-2.8625	-3.2229	-3.4583	-3.2167	-3.3458	-3.2125	-3.1125	-3.4854	-3.2396	-3.2521	-3.5583	-3.1792	-3.4417	-3.4521	-3.1896	-3.4542	32.472	275.218	126.160	-65.790	94.928	8.175	194.650	219.283	234.074	212.622	268.691	124.465	245.325	272.327	-1.149	257.587	0.00031545	0.00063276	0.00017628	1635.8	3.4694e-06	5.6479e-06	1616.7	414.15	2.673e-06	6.48e-06	474.58	157.14	137.77	48.136	5.0824e-06	59.544	0.00061299	0.00070871	0.00019548	1654.9	7.5859e-06	7.758e-06	1641.9	422.52	7.7032e-06	7.8419e-06	484.29	162.05	141.98	49.729	7.5207e-06	61.315	134.649	10.187	20.721	-69.198	69.549	52.427	-69.305	-64.737	20.979	61.649	-65.036	-61.454	-60.698	-56.169	49.310	-56.538	-8191	255	
839.411	1	1	0	0	0.081136	0.10071	0.13637	0.22889	0.18062	0.16947	0.32756	0.19791	0.22571	0.20197	0.32078	0.086451	0.17886	0.017434	0.16252	0.13759	-2.8292	-3.0583	-3.4333	-3.3812	-3.3979	-3.3958	-3.4417	-3.6271	-3.3063	-3.1813	-3.6021	-3.1271	-3.4188	-3.4625	-3.0333	-3.55	109.021	240.544	8.640	165.088	-75.447	27.829	211.107	228.408	168.708	18.233	244.943	268.000	257.934	28.260	94.205	214.117	0.00027143	0.00055675	0.00017732	1631.1	3.7505e-06	4.9127e-06	1616.3	412.54	4.9617e-06	8.6471e-06	473.32	158.65	138.86	48.499	3.7096e-06	59.148	0.00061459	0.00070545	0.00018804	1656	7.391e-06	7.5367e-06	1642.5	422.17	7.8985e-06	7.6657e-06	484.73	162.61	142.2	49.825	7.4162e-06	61.299	131.825	0.871	20.153	-69.229	55.139	80.321	-69.486	-64.599	12.915	61.976	-65.171	-61.262	-60.369	-55.745	45.471	-56.448	-8191	255	
839.507	1	1	0	0	0.15039	0.067019	0.22897	0.3337	0.2136	0.069484	0.37009	0.16852	0.10799	0.16819	0.13616	0.20009	0.22318	0.1002	0.069116	0.12688	-2.8521	-3.2271	-3.3875	-3.3771	-3.1688	-3.5167	-3.2396	-3.6229	-3.3458	-3.1604	-3.4229	-3.2229	-3.2271	-3.6292	-3.0271	-3.4167	-57.433	-67.056	221.887	262.415	123.227	-57.125	195.166	143.279	32.867	207.556	-41.059	213.190	263.380	116.951	264.696	272.026	0.00028786	0.00063681	0.00019319	1643.1	3.2937e-06	3.5967e-06	1623	417.96	2.326e-06	4.3074e-06	478.62	159.54	139.25	48.619	5.052e-06	59.95	0.00061856	0.00070788	0.0001852	1657.3	7.6746e-06	7.6655e-06	1643.4	422.98	8.1138e-06	7.9778e-06	485.44	162.81	142.31	49.88	7.7561e-06	61.451	130.165	-12.582	19.517	-69.124	71.928	71.207	-69.386	-64.627	7.424	53.456	-64.986	-61.167	-60.437	-55.927	76.263	-56.386	-8191	255	
839.603	1	1	0	0	0.22765	0.16421	0.19815	0.081426	0.13538	0.16042	0.36185	0.24589	0.12983	0.16276	0.36528	0.17603	0.36246	0.20516	0.17665	0.37319	-2.8521	-2.95	-3.3937	-3.3812	-3.1896	-3.5812	-3.3688	-3.65	-3.2917	-3.1146	-3.3937	-3.2708	-3.4	-3.4021	-3.1292	-3.375	203.307	100.755	75.681	176.085	271.394	13.328	243.545	186.856	143.887	-9.011	225.905	222.454	256.526	2.264	-31.008	181.201	0.00030017	0.00051578	0.00016645	1644.9	2.9518e-06	5.6447e-06	1627.7	418.02	2.3565e-06	7.0192e-06	480.5	158.83	139.85	48.898	3.6665e-06	60.105	0.00061412	0.00069528	0.00018593	1658	7.8259e-06	7.3587e-06	1645.6	423.17	7.9206e-06	7.3261e-06	486.71	162.78	142.35	50.024	7.9211e-06	61.486	136.086	5.868	1.164	-68.924	38.504	65.120	-69.183	-64.667	12.340	79.161	-64.882	-61.003	-60.380	-55.874	74.817	-56.402	-8191	255	
839.724	1	1	0	0	0.35161	0.12758	0.12559	0.19568	0.31072	0.079603	0.1963	0.054299	0.22042	0.20145	0.45869	0.054631	0.17521	0.28151	0.12638	0.49259	-2.9021	-3.1625	-3.3917	-3.3833	-2.85	-3.2208	-3.4125	-3.4604	-3.3146	-3.0875	-3.4167	-3.2062	-3.2125	-3.4375	-3.1333	-3.3063	122.325	-38.862	221.602	206.996	-14.599	127.473	188.904	132.037	262.622	206.152	230.293	167.739	230.347	251.220	140.142	264.857	0.00029377	0.00058254	0.00018178	1643.7	4.0215e-06	5.6703e-06	1623.2	416.36	3.9603e-06	6.369e-06	478.16	159.11	139.03	48.828	3.2291e-06	59.875	0.00061099	0.00067783	0.00018573	1658.5	7.6612e-06	7.7424e-06	1646.1	423.38	7.5451e-06	7.4877e-06	485.91	162.77	142.27	49.962	7.5343e-06	61.446	127.756	9.108	23.527	-69.005	70.378	64.018	-69.207	-64.609	35.360	76.429	-64.965	-61.241	-60.509	-55.882	53.417	-56.072	-8191	255	
839.818	1	1	0	0	0.089122	0.46124	0.083768	0.30362	0.16561	0.1599	0.062924	0.14208	0.10298	0.095366	0.25166	0.13469	0.12963	0.21761	0.084185	0.12558	-2.8542	-3.1688	-3.1562	-3.3271	-3.1104	-3.2167	-3.3937	-3.2708	-3.5792	-3.125	-3.4771	-3.4688	-3.3771	-3.6437	-3.1562	-3.2062	221.401	79.973	181.869	262.882	271.496	5.400	229.045	251.384	118.241	122.807	257.111	80.420	235.905	-75.526	152.948	224.485	0.00032551	0.0005076	0.00014255	1640.1	3.9881e-06	5.4423e-06	1620.6	414.6	3.5838e-06	5.7826e-06	473.9	157.48	138.04	48.569	3.2234e-06	58.837	0.00060053	0.00069263	0.00019513	1658.6	7.7182e-06	7.3673e-06	1645.4	422.97	7.4463e-06	7.609e-06	484.86	162.79	142.26	49.955	7.7531e-06	61.334	133.225	0.745	21.648	-69.212	49.077	70.464	-69.435	-64.674	-0.962	71.628	-65.311	-61.471	-60.619	-56.081	50.991	-57.064	-8191	255	
839.914	1	1	0	0	0.14532	0.14098	0.1421	0.22287	0.14093	0.29544	0.074827	0.16514	0.14264	0.14529	0.15103	0.13111	0.21139	0.319	0.10975	0.29933	-3.0625	-2.9833	-3.3896	-3.4229	-3.0417	-3.4958	-3.3229	-3.2062	-3.4604	-3.0792	-3.5583	-3.5458	-3.1562	-3.5958	-3.2917	-3.3979	141.777	155.713	-52.973	174.542	-57.662	-66.678	165.724	165.951	-24.812	-20.574	257.385	209.744	-79.644	269.087	41.339	3.000	0.00027807	0.00067751	0.00014508	1634.9	2.6749e-06	5.2627e-06	1616.7	413.9	1.6343e-06	6.1831e-06	475.49	157.58	138.16	48.448	5.8735e-06	59.706	0.00060261	0.00069012	0.00019597	1659.7	7.4466e-06	7.3941e-06	1645.5	422.95	7.4921e-06	7.719e-06	485.37	162.58	142.14	49.887	7.7811e-06	61.448	129.774	11.682	18.485	-69.232	72.488	59.964	-69.392	-64.724	13.418	63.254	-64.871	-61.087	-60.713	-56.144	70.725	-56.497	-8191	255	
840.010	1	1	0	0	0.12195	0.19246	0.033079	0.22635	0.20911	0.13356	0.12807	0.18016	0.38946	0.22921	0.37274	0.17493	0.2784	0.1889	0.30867	0.1284	-2.9417	-3.0479	-3.2021	-3.5708	-3.1896	-3.5875	-3.55	-3.3896	-3.3979	-3.0687	-3.3917	-3.6542	-3.3833	-3.4208	-3.15	-3.1375	53.578	181.880	149.146	235.956	65.195	43.939	69.754	154.066	16.193	142.250	-10.472	232.985	-45.256	-22.945	18.420	218.992	0.00030107	0.00052214	0.00020369	1614.5	3.632e-06	4.7654e-06	1612.8	412.64	3.827e-06	6.8424e-06	475.29	157.31	138.46	48.469	3.6997e-06	59.7	0.00060024	0.00070059	0.00019305	1652.8	7.474e-06	7.5497e-06	1644.6	422.2	7.4978e-06	7.7792e-06	485.74	162.63	142.31	49.888	7.7705e-06	61.388	132.041	-3.050	5.341	-69.466	47.587	74.786	-69.353	-64.574	28.259	75.448	-65.264	-61.267	-60.674	-56.089	72.061	-56.642	-8191	255	
840.107	1	1	0	0	0.11286	0.31667	0.15183	0.25544	0.11889	0.10313	0.088561	0.15544	0.087753	0.28325	0.15552	0.13186	0.087472	0.26816	0.29386	0.046766	-3.075	-3.1	-3.2604	-3.4375	-3.2812	-3.4625	-3.6875	-3.1479	-3.3708	-3.1458	-3.5	-3.6417	-3.2208	-3.4646	-3.4271	-3.1333	181.749	140.682	-78.352	-73.357	171.517	79.106	212.405	-82.300	120.172	261.668	185.305	-56.821	239.044	-53.357	41.032	-78.314	0.00029217	0.00053106	0.00016714	1633.7	2.3763e-06	5.3487e-06	1614.6	414.73	2.9813e-06	5.7578e-06	472.61	155.84	138.19	48.422	4.7877e-06	59.651	0.00060829	0.00069832	0.00020391	1660.1	7.9047e-06	7.5774e-06	1646.1	423.41	7.48e-06	7.8729e-06	485.55	162.28	142.38	49.936	7.5169e-06	61.46	128.385	18.442	12.272	-69.100	50.130	63.409	-69.450	-64.689	-1.567	66.462	-65.191	-61.559	-60.832	-56.043	67.368	-56.823	-8191	255	
840.203	1	1	0	0	0.10229	0.088273	0.33879	0.35698	0.21992	0.083421	0.16669	0.34388	0.046712	0.21509	0.17132	0.10238	0.3775	0.10325	0.18068	0.24026	-3.0729	-3.0583	-3.0354	-3.725	-3.1333	-3.2708	-3.6688	-3.2313	-3.3625	-3.2542	-3.3208	-3.6146	-3.1708	-3.35	-3.2812	-3.0958	-68.227	-55.723	-30.752	178.368	245.113	206.405	266.248	192.541	146.920	-47.156	190.756	274.379	275.731	263.650	60.839	128.267	0.00034024	0.00070271	0.00018226	1635.9	3.4226e-06	6.2488e-06	1610.6	413.33	2.4664e-06	6.5486e-06	475.68	157.68	138.02	48.291	3.6076e-06	59.669	0.00060326	0.00071895	0.0001981	1659.6	7.7133e-06	7.822e-06	1645.8	422.82	7.5808e-06	8.0483e-06	486.35	162.71	142.4	49.924	7.4276e-06	61.53	132.566	-0.852	17.068	-69.198	41.657	65.489	-69.467	-64.771	21.103	69.506	-65.108	-61.049	-60.856	-56.070	42.261	-56.336	-8191	255	
840.299	1	1	0	0	0.20121	0.27248	0.24716	0.36267	0.012298	0.14113	0.11535	0.15727	0.19747	0.10909	0.15892	0.15872	0.16522	0.21345	0.13852	0.32654	-2.9854	-3.0104	-2.9729	-3.7083	-3.2417	-3.2479	-3.6208	-3.2792	-3.5729	-3.3875	-3.2583	-3.4896	-3.1125	-3.3021	-3.3104	-3.275	49.860	-67.826	37.336	232.228	213.197	-75.273	240.342	266.499	-28.823	-29.027	-81.760	231.828	247.175	245.287	189.506	171.870	0.0002838	0.00066453	0.00017608	1637.7	2.6489e-06	6.0345e-06	1620.5	415.74	2.9217e-06	4.9809e-06	477.22	159.39	138.45	48.83	4.8945e-06	59.904	0.00061922	0.00072813	0.00019692	1661.2	7.5233e-06	7.7329e-06	1647.4	423.65	7.6674e-06	7.7852e-06	485.98	163.06	142.18	49.952	7.3125e-06	61.502	131.931	-6.082	9.342	-69.236	69.215	60.772	-69.420	-64.755	23.888	79.065	-65.101	-61.234	-60.588	-55.855	42.801	-56.502	-8191	255	
840.419	1	1	0	0	0.3321	0.16055	0.23961	0.26698	0.27499	0.1096	0.19855	0.22398	0.20051	0.10588	0.19512	0.25219	0.37313	0.053719	0.2866	0.028276	-3.0646	-3.2896	-2.8937	-3.5583	-3.2	-3.2	-3.7771	-3.1604	-3.3	-3.3854	-3.2542	-3.3292	-3.2833	-3.4792	-3.3854	-3.1792	-57.094	245.437	54.969	248.348	27.069	250.639	172.997	182.869	-31.686	134.299	183.887	240.176	208.657	22.313	107.505	232.724	0.00028773	0.00057348	0.00016155	1642	3.1316e-06	3.1941e-06	1630	416.84	3.7491e-06	6.2124e-06	478.42	159.16	139.83	48.531	4.5527e-06	59.943	0.00061696	0.0007213	0.00019186	1659.1	8.0074e-06	7.9628e-06	1648.6	423.53	8.0136e-06	7.8445e-06	485.79	162.92	142.61	49.84	7.5797e-06	61.552	133.853	14.681	3.226	-69.234	61.772	85.036	-69.333	-64.702	30.385	69.266	-65.105	-61.220	-60.520	-55.885	53.666	-56.699	-8191	255	
840.516	1	1	0	0	0.03498	0.14969	0.14073	0.3389	0.21447	0.22954	0.28137	0.26638	0.11839	0.20687	0.058635	0.027113	0.28391	0.35182	0.21716	0.057825	-2.9604	-3.3083	-3.1229	-3.6917	-3.1521	-3.2625	-3.6146	-3.3083	-3.0896	-3.4437	-3.3438	-3.4958	-3.4021	-3.0958	-3.3708	-3.0917	131.578	195.871	62.151	251.168	124.186	-20.942	208.105	-79.571	12.385	253.416	169.871	112.539	251.158	238.794	206.819	276.907	0.00029874	0.00056184	0.00019788	1645	4.5194e-06	5.1116e-06	1626.3	416.66	2.8328e-06	6.4605e-06	477.89	158.82	139.37	48.767	3.8558e-06	59.997	0.00061401	0.0007257	0.00019687	1663.4	7.9434e-06	7.5324e-06	1648.9	423.56	7.4986e-06	7.609e-06	486.14	162.93	142.44	49.894	7.3648e-06	61.586	131.559	-0.763	15.573	-69.246	50.798	67.830	-69.301	-64.615	22.901	81.745	-64.984	-61.235	-60.543	-55.749	53.577	-56.469	-8191	255	
840.587	1	1	0	0	0.049623	0.23357	0.14071	0.3472	0.19068	0.20408	0.569	0.13047	0.061425	0.12122	0.15511	0.31121	0.16447	0.05658	0.12786	0.30608	-2.8646	-3.475	-2.9292	-3.5958	-3.175	-2.8667	-3.5687	-3.2833	-3.2792	-3.4813	-3.3417	-3.7083	-3.35	-3.325	-3.5125	-3.4104	149.105	158.202	266.405	188.548	19.983	53.743	222.663	3.797	34.537	85.652	264.699	264.618	187.929	-14.919	17.259	244.065	0.00028929	0.0005986	0.00013185	1643.7	2.2774e-06	5.6785e-06	1624.2	416.39	3.8005e-06	5.8273e-06	477.88	158.36	138.72	48.663	5.5536e-06	60.146	0.00062574	0.00069483	0.00020333	1661.2	7.7288e-06	7.516e-06	1647.4	423.27	7.4921e-06	7.3355e-06	486.01	162.56	142.25	49.884	7.5828e-06	61.542	134.535	13.579	18.531	-69.305	46.893	69.736	-69.246	-64.748	38.067	74.439	-64.967	-61.195	-60.488	-55.886	50.673	-56.571	-8191	255	
840.683	1	1	0	0	0.20776	0.14789	0.17957	0.42729	0.24841	0.2269	0.011175	0.11063	0.26463	0.18437	0.21678	0.17921	0.14262	0.1045	0.23243	0.28189	-2.8312	-3.5292	-3.0167	-3.425	-3.3854	-3.1813	-3.5833	-3.4479	-3.1854	-3.4271	-3.3187	-3.3563	-3.5563	-3.2708	-3.3708	-3.3146	230.473	95.468	35.728	244.578	204.075	-19.735	-71.666	-54.078	194.591	61.721	240.389	270.914	216.475	247.927	-82.193	248.747	0.0002991	0.00054116	0.00018151	1641.8	3.1084e-06	6.0776e-06	1624	417.42	1.5091e-06	5.5071e-06	479.07	158.5	139.03	48.636	4.8703e-06	59.959	0.00060079	0.0006682	0.00020395	1660.6	7.6155e-06	7.5177e-06	1648.3	423.53	7.7203e-06	7.3588e-06	486.56	162.74	142.31	49.841	7.4844e-06	61.481	131.785	2.903	16.267	-69.164	59.912	59.451	-69.343	-64.643	35.669	57.946	-64.997	-61.223	-60.614	-55.867	76.197	-56.482	-8191	255	
840.802	1	1	0	0	0.27374	0.2375	0.20402	0.31588	0.14224	0.2063	0.10485	0.30385	0.089838	0.026657	0.048354	0.2954	0.2414	0.20428	0.20366	0.14257	-2.8521	-3.4521	-3.0792	-3.625	-3.4542	-3.0563	-3.7	-3.4375	-3.1792	-3.5708	-3.2792	-3.3521	-3.4292	-3.2896	-3.4479	-3.3271	240.218	268.433	-78.260	248.893	105.452	-49.120	240.214	245.896	102.576	-28.050	223.460	253.842	276.552	241.583	-37.181	224.884	0.00031376	0.00058121	0.00012367	1641.7	2.5836e-06	5.2021e-06	1623.2	416.57	3.1659e-06	6.1268e-06	478.54	158.62	138.81	48.731	5.6272e-06	59.957	0.0006033	0.00067647	0.00020309	1659.4	7.2425e-06	7.7943e-06	1646.4	422.89	7.5873e-06	7.4215e-06	486.19	162.78	142.16	49.869	7.6698e-06	61.545	132.573	-0.142	7.138	-69.205	87.730	72.537	-69.289	-64.619	48.999	64.071	-65.130	-61.246	-60.407	-55.780	50.735	-56.567	-8191	255	
840.898	1	1	0	0	0.16338	0.029362	0.19639	0.25355	0.16636	0.20376	0.22907	0.23385	0.079562	0.14703	0.22636	0.17675	0.29641	0.1514	0.092274	0.12715	-2.5854	-3.4729	-3.2292	-3.4229	-3.4375	-3.0687	-3.65	-3.5771	-2.8833	-3.525	-3.4354	-3.1958	-3.6667	-3.1562	-3.2958	-3.5604	-11.508	93.023	-7.707	235.141	234.131	-58.584	195.607	-81.947	-52.582	14.754	-79.766	273.151	262.536	237.240	246.828	-56.866	0.00028404	0.00060122	0.00014714	1641	2.6208e-06	4.6679e-06	1622.6	415.54	1.7267e-06	6.8267e-06	477.66	158.54	138.89	48.689	4.7287e-06	60.059	0.00060771	0.00068641	0.00019591	1660.1	7.2214e-06	7.8401e-06	1649.7	422.99	7.7554e-06	7.7276e-06	486.06	162.8	142.1	49.813	7.8083e-06	61.453	131.876	-3.561	16.702	-69.124	59.190	59.010	-69.094	-64.671	64.194	70.689	-65.024	-61.136	-60.587	-55.893	58.109	-56.406	-8191	255	
840.995	1	1	0	0	0.16877	0.13547	0.047758	0.2058	0.10865	0.20363	0.312	0.098261	0.093249	0.098155	0.053218	0.14582	0.1323	0.13701	0.093698	0.1177	-2.6771	-3.3917	-3.2125	-3.2667	-3.2896	-2.9167	-3.4958	-3.5021	-3.2521	-3.4542	-3.5396	-3.2042	-3.6146	-3.2833	-3.2479	-3.3187	190.101	253.710	-32.508	229.622	254.261	15.959	202.411	244.385	263.017	55.807	242.743	-78.189	80.843	166.546	187.718	182.166	0.00031234	0.00060584	0.00017284	1646.8	1.9365e-06	5.4074e-06	1623.7	416.57	2.7567e-06	7.1293e-06	478.9	159.44	138.96	48.65	4.2579e-06	59.833	0.00061197	0.00069559	0.00020451	1663.2	7.5613e-06	8.0536e-06	1647.9	423.53	7.8269e-06	7.7233e-06	486.39	162.95	142.31	49.897	7.7372e-06	61.497	130.965	-20.807	4.503	-69.360	54.111	74.711	-69.446	-64.753	24.767	67.867	-65.055	-61.115	-60.598	-55.954	51.238	-56.609	-8191	255	
841.115	1	1	0	0	0.2895	0.19729	0.19953	0.067415	0.1702	0.20823	0.053366	0.17566	0.14736	0.09238	0.16127	0.065737	0.23919	0.24685	0.1424	0.20778	-2.5479	-3.3812	-3.2646	-3.3667	-3.4292	-3.2062	-3.425	-3.4854	-3.2562	-3.4583	-3.3958	-3.2208	-3.4167	-3.2271	-3.2375	-3.5604	-18.646	159.443	43.952	131.017	189.836	260.224	274.153	222.243	-56.146	82.261	195.863	-62.205	34.275	-59.405	-64.390	177.843	0.00030196	0.00050207	0.00016569	1642.7	2.6702e-06	6.2436e-06	1630.4	415.4	3.1453e-06	6.6834e-06	479.72	159.26	139.22	48.731	3.6889e-06	59.986	0.00062673	0.00071281	0.00020857	1663.4	7.8716e-06	8.3215e-06	1651.8	423.61	7.7783e-06	7.8308e-06	486.46	162.93	142.23	49.935	7.7357e-06	61.505	128.995	-1.994	13.017	-69.319	44.969	65.119	-69.311	-64.703	34.267	71.684	-64.932	-61.115	-60.549	-56.033	66.132	-56.550	-8191	255	
841.187	1	1	0	0	0.06741	0.28687	0.16203	0.31934	0.075453	0.39976	0.2317	0.16555	0.051122	0.094313	0.29541	0.12156	0.23463	0.13482	0.10134	0.18578	-2.65	-3.3479	-3.2146	-3.4562	-3.375	-3.4688	-3.4688	-3.6229	-3.0396	-3.1937	-3.4833	-3.3063	-3.6208	-3.4938	-3.1562	-3.4313	189.788	16.841	220.660	268.905	198.472	130.587	-67.707	250.668	205.014	19.579	236.146	214.201	-44.659	227.443	142.275	-61.299	0.00029367	0.00047953	0.00014573	1645.3	3.4179e-06	5.2453e-06	1622.7	416.19	3.7775e-06	5.5229e-06	477.5	158.03	138.45	48.54	3.7251e-06	60.002	0.00063915	0.00072472	0.0001952	1663.5	7.7027e-06	8.1884e-06	1649	423.15	7.9278e-06	7.8505e-06	485.41	162.57	141.9	49.738	7.8015e-06	61.339	132.655	7.211	15.585	-69.346	72.120	54.193	-69.116	-64.597	51.466	70.969	-65.127	-61.033	-60.482	-55.771	61.573	-56.575	-8191	255	
841.283	1	1	0	0	0.1431	0.18897	0.27008	0.28759	0.060946	0.012709	0.094532	0.18147	0.24429	0.11789	0.11428	0.32546	0.16282	0.15166	0.21664	0.13916	-2.6583	-3.1729	-3.3438	-3.1854	-3.2562	-3.25	-3.3	-3.55	-3.1917	-3.2792	-3.4917	-3.3167	-3.4521	-3.4146	-2.8875	-3.4938	12.059	23.338	188.791	231.476	73.062	183.407	-49.771	171.636	53.473	-80.745	165.150	172.554	-75.836	237.157	38.051	81.057	0.00029455	0.00056368	0.00016087	1643.1	2.0973e-06	5.2808e-06	1624.6	414.55	2.9318e-06	6.2746e-06	476.55	158.04	139.02	48.61	4.6759e-06	59.846	0.00063212	0.00073147	0.00019154	1660.4	7.7949e-06	8.1616e-06	1646.9	421.6	8.3141e-06	7.7379e-06	484.58	162.19	141.9	49.727	7.8273e-06	61.321	133.261	0.089	20.128	-69.098	64.780	76.106	-69.319	-64.719	-6.808	64.575	-64.854	-61.082	-60.414	-55.713	59.832	-56.320	-8191	255	
841.404	1	1	0	0	0.25598	0.13698	0.12478	0.195	0.11401	0.083291	0.36488	0.2812	0.1625	0.21343	0.23054	0.21155	0.13147	0.17018	0.23634	0.055262	-2.7354	-3.1813	-3.3125	-3.2146	-3.3083	-3.325	-3.2292	-3.5417	-3.1208	-3.1708	-3.6	-3.1542	-3.3521	-3.3604	-2.8729	-3.4542	-32.939	-28.228	68.001	219.478	-11.453	74.319	176.799	191.359	243.738	-32.063	-47.589	252.461	239.910	182.673	248.706	255.326	0.00027817	0.00047288	0.00015292	1639.5	5.1702e-06	6.6735e-06	1622.4	415.45	3.5546e-06	6.1625e-06	476.01	158.38	138.38	48.531	5.0024e-06	59.562	0.00063219	0.00071812	0.00020113	1658.3	7.7696e-06	8.0977e-06	1643.8	421.27	8.0236e-06	7.8755e-06	484.25	162.16	141.43	49.636	7.7304e-06	61.093	131.832	8.666	14.844	-69.086	64.166	65.559	-69.152	-64.556	19.182	68.419	-64.814	-61.052	-60.386	-55.849	56.841	-56.360	-8191	255	
841.500	1	1	0	0	0.15851	0.22458	0.11537	0.26783	0.27806	0.36118	0.2857	0.32326	0.24268	0.21905	0.55458	0.29286	0.35413	0.05212	0.091311	0.21817	-2.7604	-3.15	-3.4354	-3.2875	-3.3104	-3.1479	-3.3021	-3.375	-3.2146	-3.1854	-3.5896	-3.0875	-3.2729	-3.3583	-3.0729	-3.3604	-6.056	195.349	-62.759	231.874	239.382	244.841	256.854	248.578	12.139	5.900	264.426	-77.680	-21.293	236.617	14.670	191.582	0.00029551	0.00056449	0.0001826	1640.3	3.6308e-06	3.3185e-06	1622	415.38	4.1196e-06	4.6242e-06	477.59	157.72	138.32	48.444	4.1383e-06	59.718	0.00063747	0.00069703	0.00020176	1658.3	7.6387e-06	7.8038e-06	1644.8	421.54	8.058e-06	7.4877e-06	484.28	161.98	141.51	49.583	7.7834e-06	61.209	132.180	16.707	7.816	-68.906	48.418	79.983	-69.225	-64.692	32.150	67.795	-65.012	-61.093	-60.337	-55.702	37.123	-56.430	-8191	255	
841.596	1	1	0	0	0.06607	0.18364	0.061417	0.25565	0.053029	0.38569	0.36072	0.16179	0.077797	0.14591	0.23273	0.0082393	0.13718	0.20553	0.17479	0.27854	-2.7375	-3.0104	-3.4458	-3.2812	-3.2562	-3.4229	-3.0958	-3.2729	-3.3083	-3.1333	-3.5	-3.075	-3.1188	-3.3771	-2.8958	-3.5	103.415	209.827	84.503	225.900	-80.634	221.953	174.476	206.640	181.918	3.723	-50.192	239.853	161.872	225.332	118.626	210.391	0.00027258	0.00070554	0.00019073	1641.7	3.3022e-06	4.7393e-06	1616.1	413.88	2.7122e-06	6.1444e-06	475.78	157.73	138.36	48.395	4.1431e-06	59.757	0.00061951	0.00070697	0.00020386	1656.5	7.6915e-06	7.5722e-06	1640.3	420.84	7.5801e-06	7.7009e-06	483.66	161.8	141.43	49.607	7.8401e-06	61.151	131.986	10.952	11.336	-69.330	51.706	77.349	-69.367	-64.629	-5.446	78.972	-65.039	-61.178	-60.683	-55.894	71.062	-56.409	-8191	255	
841.715	1	1	0	0	0.11676	0.071258	0.10086	0.21875	0.048778	0.35507	0.15738	0.31129	0.074676	0.13939	0.13695	0.055331	0.28902	0.18692	0.11663	0.044856	-2.8604	-2.95	-3.2375	-3.4104	-3.1229	-3.3833	-3.1833	-3.2021	-3.4	-3.0354	-3.45	-3.3417	-3.2479	-3.3229	-3.1208	-3.2771	107.198	140.456	-38.255	253.964	143.162	179.015	197.574	190.308	1.376	-49.334	248.090	195.015	-43.076	-64.654	-49.281	19.701	0.00028598	0.0005769	0.00017974	1635.5	5.0658e-06	4.7027e-06	1618.4	414.06	4.3819e-06	6.39e-06	476.82	157.55	138.61	48.377	3.6099e-06	59.821	0.00059335	0.0006927	0.00019791	1655.8	7.6886e-06	7.4866e-06	1639.8	420.93	7.5343e-06	7.6631e-06	484.14	161.98	141.49	49.611	7.6176e-06	61.187	132.835	15.260	17.236	-69.057	47.162	77.640	-69.255	-64.619	5.053	69.141	-65.087	-60.743	-60.292	-55.925	46.723	-56.492	-8191	255	
841.811	1	1	0	0	0.26329	0.18243	0.084283	0.14402	0.12269	0.15106	0.19246	0.23436	0.15153	0.068378	0.022217	0.30099	0.22143	0.11107	0.089963	0.23302	-2.9875	-2.9667	-3.2687	-3.3542	-2.9792	-3.3563	-3.3417	-3.4729	-3.3667	-3.075	-3.3688	-3.3208	-3.1583	-3.5958	-2.925	-3.2896	275.998	160.978	164.457	-64.924	94.983	-66.618	187.452	267.789	41.130	74.996	78.027	261.990	252.834	261.284	275.384	194.333	0.00027577	0.00051958	0.00014563	1637.1	2.9493e-06	4.4401e-06	1619.6	413.39	3.4314e-06	5.713e-06	475.73	158.19	138.73	48.356	4.2137e-06	59.732	0.00061157	0.00072108	0.00018496	1655.1	7.441e-06	7.3725e-06	1641.6	420.64	7.4084e-06	8.0259e-06	483.68	162.02	141.61	49.571	7.5971e-06	61.176	129.219	-2.401	7.976	-69.115	66.039	72.346	-69.248	-64.430	39.993	62.845	-64.877	-60.918	-60.355	-55.667	46.277	-56.305	-8191	255	
841.883	1	1	0	0	0.084244	0.13188	0.19844	0.11768	0.29614	0.21206	0.27107	0.25533	0.090472	0.25577	0.11493	0.27808	0.2963	0.1325	0.10288	0.21066	-2.6896	-3.1646	-3.2792	-3.4521	-2.9458	-3.425	-3.3604	-3.4062	-3.3271	-2.9875	-3.4646	-3.3125	-3.1042	-3.4542	-3.1458	-3.2687	1.461	204.239	1.857	-3.906	-71.425	78.765	230.788	240.185	88.426	176.104	217.439	192.029	197.725	275.216	40.708	-76.734	0.00029119	0.00059963	0.00018909	1638.1	2.8124e-06	4.9941e-06	1616.2	413.87	2.8534e-06	5.3341e-06	476.53	158.23	138.76	48.512	4.1242e-06	59.511	0.00058993	0.00069134	0.00018898	1655.5	7.5233e-06	7.3353e-06	1641.5	420.77	7.4642e-06	7.8462e-06	484.01	161.87	141.67	49.677	7.8e-06	61.211	132.861	18.316	14.457	-69.129	32.048	77.540	-69.237	-64.436	21.970	69.179	-64.951	-61.280	-60.562	-55.882	53.070	-56.349	-8191	255	
842.003	1	1	0	0	0.25757	0.19221	0.22688	0.30605	0.025327	0.022457	0.37064	0.20897	0.17867	0.14347	0.10402	0.14836	0.16214	0.28745	0.39718	0.16753	-3.0062	-2.8604	-3.2708	-3.45	-2.9792	-3.3854	-3.4583	-3.3396	-3.3917	-3.0479	-3.3729	-3.4208	-3.1813	-3.5375	-3.1896	-3.2125	131.388	75.058	112.025	272.580	217.149	88.071	252.974	170.670	266.344	266.919	214.555	-64.658	-27.653	-37.776	168.581	-54.781	0.00028337	0.00050395	0.00013558	1636.4	3.2217e-06	6.2634e-06	1620.9	412.97	1.51e-06	6.5111e-06	476.65	158.62	138.79	48.53	5.1355e-06	59.805	0.00060833	0.00074512	0.00019195	1656.1	7.6535e-06	7.5298e-06	1642.1	420.45	7.6059e-06	7.9348e-06	484.3	162.07	141.63	49.573	7.395e-06	61.136	127.883	1.281	31.279	-69.249	52.992	79.018	-69.366	-64.542	41.780	68.921	-64.885	-61.052	-60.464	-55.921	60.841	-56.336	-8191	255	
842.099	1	1	0	0	0.08383	0.10798	0.16189	0.41948	0.4146	0.133	0.16794	0.24283	0.15768	0.030991	0.14012	0.20228	0.2115	0.19752	0.013501	0.22914	-3.0333	-3.225	-3.2833	-3.5521	-2.9667	-3.3375	-3.3896	-3.2188	-3.3104	-3.1813	-3.1833	-3.6333	-3.0729	-3.2958	-3.2646	-3.1188	167.486	3.442	-46.495	253.962	67.598	127.086	273.006	189.195	48.409	-67.694	240.614	-40.279	226.750	227.524	122.931	173.643	0.00029163	0.0004392	0.00018037	1637.4	4.0125e-06	5.9278e-06	1618.3	414.92	2.0252e-06	7.7747e-06	476.53	158.12	138.85	48.424	3.7988e-06	59.877	0.0005951	0.00074141	0.00018524	1655.5	7.8427e-06	7.6837e-06	1641.8	421.14	7.6223e-06	7.817e-06	483.58	162.2	141.81	49.635	7.4912e-06	61.212	133.051	11.497	14.190	-69.054	73.712	76.852	-69.225	-64.667	29.997	73.597	-64.998	-61.038	-60.473	-55.830	45.251	-56.495	-8191	255	
842.196	1	1	0	0	0.3605	0.17371	0.12685	0.50052	0.31192	0.18593	0.53261	0.10393	0.017302	0.16965	0.15877	0.13496	0.19872	0.28929	0.27485	0.05608	-2.9208	-3.1354	-3.1854	-3.7292	-2.9917	-3.2542	-3.4458	-3.2083	-3.4688	-3.2146	-3.2896	-3.4062	-3.0333	-3.2604	-3.3229	-3.175	271.712	11.445	239.377	244.546	79.758	118.098	213.290	205.744	263.016	47.891	183.550	203.545	208.178	158.771	143.693	-74.285	0.00027941	0.00064265	0.00017243	1637	4.2517e-06	5.2969e-06	1616.1	414.09	2.7228e-06	6.8798e-06	475.72	158.12	138.86	48.615	3.8385e-06	59.714	0.00061798	0.00070598	0.00018771	1655.3	7.7935e-06	7.2852e-06	1641.4	420.85	7.7053e-06	7.6339e-06	483.36	161.99	141.44	49.67	7.4685e-06	61.097	127.303	-7.631	15.290	-69.096	73.082	75.070	-69.386	-64.498	36.261	70.309	-64.804	-61.174	-60.524	-55.665	75.101	-56.732	-8191	255	
842.292	1	1	0	0	0.21386	0.2699	0.18001	0.092258	0.047879	0.071655	0.39981	0.1698	0.22875	0.11703	0.17545	0.15001	0.22444	0.15288	0.157	0.29763	-3.0125	-3.1562	-3.0687	-3.5604	-3.0604	-3.2125	-3.5187	-3.2438	-3.2479	-3.2333	-3.1979	-3.4813	-3.1771	-3.175	-3.3396	-3.0521	-40.386	185.655	97.033	235.545	-39.024	-43.523	250.668	170.295	173.133	98.321	198.699	25.841	236.340	276.625	121.643	186.965	0.00029638	0.00061878	0.00014747	1637.4	3.5301e-06	5.1849e-06	1619	414.33	1.272e-06	6.4645e-06	477.04	157.78	138.83	48.581	2.5027e-06	59.848	0.00059266	0.00067632	0.00019741	1654	7.7316e-06	7.6404e-06	1640.6	420.43	7.3998e-06	7.7207e-06	484.02	161.8	141.45	49.689	7.4518e-06	61.238	128.261	12.401	11.137	-69.130	49.404	57.674	-69.281	-64.534	-5.431	64.649	-64.785	-60.955	-60.330	-55.810	63.040	-56.409	-8191	255	
842.388	1	1	0	0	0.15575	0.066697	0.15992	0.28298	0.1253	0.15952	0.17167	0.093091	0.14929	0.3093	0.193	0.19532	0.26821	0.0733	0.19441	0.082098	-3.0854	-3.0896	-2.9708	-3.4917	-3.0312	-3.2229	-3.5479	-3.2146	-3.2625	-3.2125	-3.0563	-3.6354	-3.2271	-3.2125	-3.2979	-3.25	121.917	262.967	110.268	-78.595	259.306	232.031	133.457	43.396	175.450	44.295	-81.827	-63.913	198.695	241.727	64.296	-7.832	0.00029321	0.00066617	0.00017699	1635.2	4.2498e-06	4.8129e-06	1623.5	414.34	2.9099e-06	7.3627e-06	476.16	158.32	138.06	48.393	5.1103e-06	59.851	0.0006088	0.00070325	0.00019193	1654.1	8.12e-06	7.427e-06	1641.8	420.93	7.608e-06	7.3863e-06	483.09	161.8	141.38	49.656	7.4427e-06	61.243	132.355	4.019	18.995	-69.280	66.173	75.053	-69.348	-64.542	31.781	63.989	-64.735	-61.068	-60.549	-55.824	45.861	-56.540	-8191	255	
842.484	1	1	0	0	0.17288	0.13051	0.075874	0.37173	0.18268	0.2119	0.24461	0.3295	0.17405	0.10861	0.30762	0.21107	0.16506	0.24055	0.3109	0.1074	-3.0438	-3.1583	-3.0563	-3.5604	-3.1958	-3.0646	-3.5708	-3.1229	-3.3146	-3.2583	-3.2417	-3.3625	-3.3542	-3.2812	-3.4042	-3.1437	-74.734	94.419	-43.516	217.109	173.834	-3.897	193.759	212.471	83.389	-14.160	211.998	-4.324	10.356	244.081	185.409	172.962	0.00030146	0.00049313	0.00015437	1638.8	2.642e-06	5.5495e-06	1620.3	412.67	2.0297e-06	6.7727e-06	477.22	158.25	137.88	48.311	4.9287e-06	59.832	0.00059222	0.0006839	0.00019384	1656.3	7.4649e-06	7.5471e-06	1641	420	7.6931e-06	7.4731e-06	483.85	161.67	141.25	49.56	7.6524e-06	61.189	133.167	-6.320	10.812	-69.234	62.912	72.227	-69.310	-64.668	23.326	66.062	-65.067	-60.918	-60.604	-55.882	52.460	-56.539	-8191	255	
842.580	1	1	0	0	0.18759	0.11916	0.19129	0.13879	0.13737	0.20081	0.12758	0.20003	0.15882	0.10533	0.20252	0.27338	0.11796	0.12593	0.26983	0.17986	-2.8458	-3.2833	-2.975	-3.6125	-3.1042	-3.2062	-3.4042	-3.0938	-3.2854	-3.3479	-3.1042	-3.4479	-3.275	-3.3187	-3.4396	-3.1625	-81.264	173.486	231.156	191.946	100.801	8.240	229.985	239.248	248.270	139.438	239.913	173.414	-49.345	-13.337	115.789	179.914	0.00032073	0.00073265	0.00017936	1637.4	3.5395e-06	6.1815e-06	1617	413.46	3.164e-06	5.5987e-06	474.39	158.39	138.18	48.44	3.6855e-06	59.741	0.00058971	0.00067594	0.0001892	1652.3	7.6e-06	7.5627e-06	1640.2	420.23	7.3605e-06	7.4026e-06	482.94	162.04	141.35	49.635	7.5419e-06	61.18	128.027	10.075	6.299	-69.155	52.930	58.423	-69.171	-64.597	41.844	56.833	-64.925	-61.030	-60.609	-55.706	46.551	-56.271	-8191	255	
842.676	1	1	0	0	0.15069	0.066398	0.16669	0.56393	0.20387	0.21756	0.35196	0.10834	0.041052	0.07588	0.051751	0.20843	0.25049	0.087902	0.079814	0.26809	-2.7438	-3.3771	-3.0812	-3.5396	-3.1458	-2.9979	-3.6021	-3.3125	-3.2479	-3.3708	-3.1479	-3.3792	-3.3604	-3.1437	-3.3937	-3.4042	225.251	29.829	-39.661	226.938	67.435	255.588	219.401	199.557	192.818	-72.814	255.406	188.700	227.083	138.878	-22.550	272.283	0.00026787	0.00056962	0.0001597	1642.1	2.9427e-06	5.0223e-06	1619.2	413	3.1777e-06	4.7706e-06	476.05	158.3	138.56	48.377	4.8805e-06	59.62	0.00061153	0.00071956	0.00019629	1655.5	7.3016e-06	7.6698e-06	1641.3	420.91	7.5379e-06	7.5324e-06	483.6	161.94	141.44	49.565	7.4246e-06	61.166	130.283	3.048	12.192	-69.139	65.433	63.736	-69.274	-64.479	49.151	61.392	-65.161	-61.008	-60.666	-55.838	54.679	-56.468	-8191	255	
842.795	1	1	0	0	0.044846	0.14042	0.11633	0.2688	0.12802	0.21982	0.34178	0.26523	0.12228	0.076023	0.029182	0.1968	0.21258	0.1668	0.1745	0.13585	-2.7396	-3.3563	-2.8958	-3.4188	-3.4021	-3.1375	-3.3812	-3.3896	-3.1542	-3.3917	-3.3229	-3.475	-3.2979	-3.1271	-3.5458	-3.3729	137.932	-47.849	121.048	211.859	134.820	30.070	225.127	243.498	224.050	175.713	258.140	24.642	244.042	194.229	173.535	233.916	0.00027811	0.00060771	0.0002196	1633.8	3.0127e-06	4.8592e-06	1621.6	414.51	2.7989e-06	6.4631e-06	475.45	158.16	138.61	48.381	3.3237e-06	59.941	0.00059412	0.00067563	0.00020795	1654.4	7.474e-06	7.8271e-06	1641.5	420.52	7.5086e-06	7.7147e-06	483.66	161.86	141.48	49.631	7.4798e-06	61.166	135.847	0.878	15.662	-69.248	61.409	70.950	-69.327	-64.616	30.678	63.338	-64.895	-61.190	-60.544	-55.653	48.088	-56.408	-8191	255	
842.891	1	1	0	0	0.12644	0.11209	0.06119	0.52819	0.15071	0.18924	0.26128	0.27478	0.13541	0.085368	0.45649	0.12444	0.21109	0.25452	0.20238	0.21065	-2.6042	-3.3875	-3.1125	-3.3396	-3.3396	-3.2021	-3.7083	-3.2604	-3.0729	-3.3812	-3.1625	-3.2646	-3.4188	-3.1979	-3.1875	-3.275	193.946	144.975	215.175	250.223	58.039	116.288	-79.231	249.664	15.219	185.872	233.648	-22.115	171.500	-39.183	85.367	101.279	0.00029902	0.00057642	0.00013169	1635.9	2.948e-06	5.9091e-06	1616.7	414.59	2.1428e-06	7.3502e-06	474.3	158.18	138.92	48.572	3.6941e-06	59.577	0.00061787	0.00070325	0.00019773	1653.9	7.4227e-06	7.7969e-06	1639.1	420.8	7.6037e-06	7.5496e-06	483.8	162.04	141.65	49.67	7.2338e-06	61.082	133.432	10.581	-0.380	-69.030	48.401	62.850	-69.284	-64.505	-12.275	72.582	-64.925	-61.108	-60.520	-55.838	58.790	-56.409	-8191	255	
842.988	1	1	0	0	0.15018	0.024209	0.30579	0.44387	0.068158	0.14364	0.24639	0.053972	0.061263	0.16325	0.045827	0.28057	0.32286	0.25524	0.22367	0.0090419	-2.6562	-3.4021	-3.0583	-3.2188	-3.4417	-3.0729	-3.5938	-3.375	-2.9875	-3.1875	-3.1271	-3.1813	-3.4667	-3.2812	-3.1792	-3.3667	143.962	15.118	-21.678	197.049	232.866	-23.706	119.078	185.360	196.894	47.142	-19.770	214.982	213.110	261.073	-36.921	261.659	0.00028772	0.00062707	0.00014527	1635.7	3.3171e-06	5.9995e-06	1617.9	413.58	3.6983e-06	4.8181e-06	476.95	157.56	138.51	48.601	2.8478e-06	59.532	0.00060523	0.00068853	0.00019328	1652.7	7.5416e-06	7.7156e-06	1640.4	420.52	7.6524e-06	7.1859e-06	483.4	161.72	141.48	49.658	7.1702e-06	61.129	130.098	6.230	22.837	-69.107	51.539	55.541	-69.146	-64.621	44.908	66.101	-64.966	-61.123	-60.494	-55.960	61.079	-56.373	-8191	255	
843.084	1	1	0	0	0.084441	0.25396	0.21208	0.38339	0.13756	0.23787	0.27739	0.11049	0.15905	0.10136	0.19207	0.056802	0.08922	0.086994	0.069642	0.033671	-2.3812	-3.3438	-3.1125	-3.2229	-3.3021	-3.1667	-3.4125	-3.5625	-3.1188	-3.4625	-3.3042	-3.0563	-3.4458	-3.0354	-3.2354	-3.5687	32.809	-18.410	-4.900	248.368	112.211	-67.551	249.428	151.118	85.427	89.981	-59.301	89.900	238.899	-31.386	203.867	97.356	0.00027794	0.00059265	0.0001325	1632.2	3.6622e-06	6.7252e-06	1620	414.72	2.6045e-06	5.6258e-06	475.03	157.86	138.07	48.646	4.0299e-06	59.689	0.00060133	0.00066736	0.00019019	1652.8	7.4494e-06	7.9525e-06	1639.4	420.76	7.6602e-06	7.5797e-06	482.64	161.92	141.42	49.599	7.3466e-06	61.231	134.830	-8.341	18.886	-69.120	55.019	71.514	-69.279	-64.672	42.138	67.276	-64.967	-61.143	-60.513	-55.828	31.440	-56.468	-8191	255	
843.180	1	1	0	0	0.063324	0.1318	0.21494	0.13736	0.1491	0.14019	0.062488	0.31924	0.084486	0.17	0.27606	0.27893	0.26471	0.086083	0.14393	0.1901	-2.6479	-3.3125	-3.1021	-3.1271	-3.4	-3.2625	-3.5292	-3.4062	-2.9917	-3.4	-3.3708	-3.0646	-3.5	-3.2271	-3.0563	-3.2917	276.283	-38.412	220.876	203.787	60.026	13.429	-11.073	241.101	-9.929	91.079	-63.467	-63.796	256.014	271.809	190.110	-24.895	0.00026812	0.00053958	0.00019568	1635.7	2.6581e-06	4.5012e-06	1614.8	412.33	2.2842e-06	7.2549e-06	475.52	157.52	137.88	48.584	2.9304e-06	59.87	0.00061623	0.00065196	0.00019367	1653.8	7.4199e-06	7.4927e-06	1639.1	419.72	7.7754e-06	7.443e-06	483.44	161.54	141.14	49.572	7.3163e-06	61.107	128.656	1.999	20.177	-69.166	65.570	68.491	-69.082	-64.593	35.259	80.211	-65.018	-61.225	-60.664	-55.952	69.332	-56.390	-8191	255	
843.276	1	1	0	0	0.045613	0.10652	0.053202	0.26756	0.15653	0.30402	0.064454	0.11665	0.24618	0.31913	0.18101	0.24826	0.22386	0.29142	0.21073	0.054392	-2.4625	-3.1292	-3.2792	-3.2438	-3.4562	-3.2146	-3.3958	-3.5104	-3.1063	-3.2687	-3.4833	-3.0958	-3.4062	-3.3104	-3.1104	-3.4188	99.965	120.136	231.757	253.592	156.730	-21.363	250.068	230.587	-18.191	203.222	254.893	257.073	227.194	-20.798	105.415	174.106	0.0003197	0.00060812	0.00018126	1631.4	4.2303e-06	5.9281e-06	1619.5	414.13	9.3579e-07	5.3381e-06	475.2	157.42	138.56	48.333	2.8279e-06	59.682	0.00061926	0.00069801	0.00019408	1651.5	7.3615e-06	7.707e-06	1640.6	420.73	7.7303e-06	7.3252e-06	483.25	161.56	141.33	49.485	7.6751e-06	61.117	127.476	1.372	0.005	-69.123	49.972	69.017	-69.282	-64.404	33.798	70.512	-65.000	-61.119	-60.399	-55.831	54.186	-56.329	-8191	255	
843.397	1	1	0	0	0.056458	0.13481	0.3576	0.21156	0.19689	0.1334	0.1718	0.1989	0.18217	0.11058	0.28403	0.20668	0.2226	0.27134	0.068635	0.088714	-2.65	-3.2208	-3.4083	-3.2646	-3.2875	-3.2875	-3.3417	-3.6312	-3.1917	-3.1479	-3.3146	-3	-3.4375	-3.2687	-3.0292	-3.5104	-16.094	160.399	5.061	217.946	103.972	1.793	223.197	239.098	239.766	-6.464	72.096	193.302	217.549	-31.230	-65.804	162.752	0.00027359	0.00046146	0.00015389	1634.8	3.1759e-06	5.6517e-06	1620.4	414.42	2.6386e-06	5.7617e-06	474.44	156.96	138.29	48.307	4.7926e-06	59.544	0.00061321	0.00066152	0.00018956	1654	7.2904e-06	7.637e-06	1639.3	420.52	7.6509e-06	7.3476e-06	482.73	161.42	141.26	49.548	7.6327e-06	61.013	130.909	10.558	26.617	-69.249	64.392	74.854	-69.233	-64.654	55.506	60.446	-64.950	-61.186	-60.481	-55.845	51.501	-56.561	-8191	255	
843.493	1	1	0	0	0.11099	0.26235	0.079514	0.098304	0.18391	0.12171	0.35301	0.16052	0.12808	0.067114	0.14473	0.22209	0.17191	0.041873	0.1212	0.1647	-2.7125	-3.3229	-3.1646	-3.2146	-3.3438	-3.2104	-3.5708	-3.4562	-3.0438	-3.0583	-3.6583	-2.9917	-3.3458	-3.3833	-3.1083	-3.425	269.808	-27.807	214.668	180.949	-58.716	-69.893	217.425	244.564	231.912	7.364	139.645	243.987	224.314	255.958	0.456	165.649	0.00030489	0.00051852	0.00019734	1632.9	4.0122e-06	6.1067e-06	1620.4	412.69	2.1711e-06	6.6771e-06	476.02	157.51	137.79	48.226	3.8957e-06	59.65	0.00061252	0.00068398	0.00020156	1650.9	7.3087e-06	7.7857e-06	1638.7	419.64	7.6609e-06	7.5041e-06	482.87	161.51	141.06	49.528	7.6494e-06	61.07	139.803	2.949	19.856	-68.992	49.645	72.217	-69.122	-64.662	15.136	86.017	-64.914	-61.101	-60.436	-55.663	60.152	-56.221	-8191	255	
843.589	1	1	0	0	0.21805	0.08451	0.16012	0.23028	0.17869	0.33849	0.13315	0.11565	0.17307	0.33621	0.086205	0.22143	0.17705	0.095304	0.17542	0.17575	-2.8312	-3.0312	-3.3146	-3.1521	-3.3771	-3.1979	-3.2854	-3.7125	-3.0646	-3.2083	-3.5667	-3.3187	-3.25	-3.5771	-3.0667	-3.3771	106.327	-29.786	119.212	238.436	-59.695	-44.627	155.500	208.302	66.644	184.382	-49.170	259.592	43.526	129.881	92.793	133.607	0.00027215	0.00058922	0.00018055	1635.7	3.8087e-06	4.0578e-06	1617.4	412.85	3.0159e-06	5.4868e-06	474.65	158.08	137.6	48.385	4.0975e-06	59.516	0.00059612	0.0006723	0.00019522	1653.7	7.1982e-06	7.6923e-06	1640.4	419.86	7.618e-06	7.6167e-06	482.56	161.57	140.86	49.486	7.5048e-06	61.051	130.573	10.205	2.773	-69.147	55.182	61.392	-69.172	-64.550	22.439	76.007	-65.040	-61.079	-60.396	-55.798	76.602	-56.504	-8191	255	
843.683	1	1	0	0	0.071883	0.10348	0.053216	0.12194	0.1948	0.21862	0.18462	0.19002	0.43094	0.06347	0.048579	0.15329	0.12726	0.065763	0.34949	0.2098	-2.6521	-3.0292	-3.4688	-3.2729	-3.1958	-3.475	-3.2208	-3.3521	-3.2521	-2.9792	-3.5042	-3.1396	-3.4125	-3.5438	-2.8771	-3.3312	34.453	270.060	18.022	175.101	-55.110	-2.227	-69.545	26.185	59.044	100.133	-65.531	271.066	-27.723	-19.770	146.425	269.202	0.00030842	0.00054843	0.00013485	1635.3	3.3996e-06	4.7081e-06	1616	413.54	1.4066e-06	5.4429e-06	475.21	157.27	138.33	48.252	3.8363e-06	59.566	0.00060206	0.00070037	0.00019799	1652	7.448e-06	7.6906e-06	1639.5	419.75	7.6638e-06	7.6425e-06	483.08	161.43	141.21	49.456	7.6895e-06	61.079	131.844	15.505	19.732	-69.223	60.808	74.619	-69.260	-64.778	18.158	75.837	-64.978	-61.022	-60.508	-55.774	67.466	-56.390	-8191	255	
843.779	1	1	0	0	0.21308	0.047487	0.21256	0.39023	0.13057	0.090944	0.031994	0.12122	0.35176	0.09099	0.22142	0.2035	0.15087	0.1142	0.20639	0.059559	-3.0104	-3.0854	-3.35	-3.3771	-3.2125	-3.3812	-3.2146	-3.3312	-3.3583	-3.0625	-3.6021	-3.4104	-3.2833	-3.5646	-2.9417	-3.2646	69.961	54.122	24.214	264.217	226.282	130.585	92.889	155.999	135.951	-20.022	268.757	206.909	207.260	226.378	7.558	156.391	0.00029371	0.00052784	0.00018514	1634.7	3.0478e-06	3.5324e-06	1617	412.62	2.4086e-06	5.9344e-06	476.22	157.75	138.37	48.39	3.4657e-06	59.43	0.00059649	0.00071076	0.00019776	1653.5	7.4895e-06	7.6664e-06	1640.8	419.23	7.6803e-06	7.6476e-06	483.03	161.45	141.24	49.521	7.3133e-06	61.009	130.040	15.919	11.110	-69.150	48.100	82.000	-69.136	-64.701	52.088	68.086	-65.247	-61.008	-60.554	-55.876	52.185	-56.505	-8191	255	
#DATA ENDS
