BOXY.EXE: ISS Imagent and Oximeter Data Acquisition Program Version 0.80
Ascii Record File

#ACQ INFORMATION
2  Detector Channels 
16  External MUX Channels 
1  Auxiliary Channels 
5000  Waveform (CCF) Frequency (Hz)
1  Waveforms Skipped 
30  Waveforms Averaged 
1  Cycles Averaged 
16  Acquisitions per Waveform 
10.0806  Updata Rate (Hz) 

#FILE INFORMATION
TRUE -- External MUX Channel results are PARSED.
FALSE -- AC DC and Phase are NOT grouped.
TRUE -- Companion Program Settings File CREATED.
FALSE -- AC data not excluded
FALSE -- DC data not excluded
FALSE -- Phase data not excluded
FALSE -- Auxillary Chn. data not excluded
Tab delimiters

#CALIBRATION STATE
TRUE -- Waveform Calibration Values APPLIED.


#AUX CALIBRATION VALUES
Val Type	aux-1	

Term	1.0000e+00	
Factor	0.0000e+00	


#WF CALIBRATION VALUES
A = Detector Channel
Val Type	A-AC1	A-AC2	A-AC3	A-AC4	A-AC5	A-AC6	A-AC7	A-AC8	A-AC9	A-AC10	A-AC11	A-AC12	A-AC13	A-AC14	A-AC15	A-AC16	A-DC1	A-DC2	A-DC3	A-DC4	A-DC5	A-DC6	A-DC7	A-DC8	A-DC9	A-DC10	A-DC11	A-DC12	A-DC13	A-DC14	A-DC15	A-DC16	A-Ph1	A-Ph2	A-Ph3	A-Ph4	A-Ph5	A-Ph6	A-Ph7	A-Ph8	A-Ph9	A-Ph10	A-Ph11	A-Ph12	A-Ph13	A-Ph14	A-Ph15	A-Ph16	

Term	0.00000e+00	0.00000e+00	0.00000e+00	0.00000e+00	0.00000e+00	0.00000e+00	0.00000e+00	0.00000e+00	0.00000e+00	0.00000e+00	0.00000e+00	0.00000e+00	0.00000e+00	0.00000e+00	0.00000e+00	0.00000e+00	0.00000e+00	0.00000e+00	0.00000e+00	0.00000e+00	0.00000e+00	0.00000e+00	0.00000e+00	0.00000e+00	0.00000e+00	0.00000e+00	0.00000e+00	0.00000e+00	0.00000e+00	0.00000e+00	0.00000e+00	0.00000e+00	0.00000e+00	0.00000e+00	0.00000e+00	0.00000e+00	0.00000e+00	0.00000e+00	0.00000e+00	0.00000e+00	0.00000e+00	0.00000e+00	0.00000e+00	0.00000e+00	0.00000e+00	0.00000e+00	0.00000e+00	0.00000e+00	
Factor	1.00000e+00	1.00000e+00	1.00000e+00	1.00000e+00	1.00000e+00	1.00000e+00	1.00000e+00	1.00000e+00	1.00000e+00	1.00000e+00	1.00000e+00	1.00000e+00	1.00000e+00	1.00000e+00	1.00000e+00	1.00000e+00	1.00000e+00	1.00000e+00	1.00000e+00	1.00000e+00	1.00000e+00	1.00000e+00	1.00000e+00	1.00000e+00	1.00000e+00	1.00000e+00	1.00000e+00	1.00000e+00	1.00000e+00	1.00000e+00	1.00000e+00	1.00000e+00	X	X	X	X	X	X	X	X	X	X	X	X	X	X	X	X	

B = Detector Channel
Val Type	B-AC1	B-AC2	B-AC3	B-AC4	B-AC5	B-AC6	B-AC7	B-AC8	B-AC9	B-AC10	B-AC11	B-AC12	B-AC13	B-AC14	B-AC15	B-AC16	B-DC1	B-DC2	B-DC3	B-DC4	B-DC5	B-DC6	B-DC7	B-DC8	B-DC9	B-DC10	B-DC11	B-DC12	B-DC13	B-DC14	B-DC15	B-DC16	B-Ph1	B-Ph2	B-Ph3	B-Ph4	B-Ph5	B-Ph6	B-Ph7	B-Ph8	B-Ph9	B-Ph10	B-Ph11	B-Ph12	B-Ph13	B-Ph14	B-Ph15	B-Ph16	

Term	0.00000e+00	0.00000e+00	0.00000e+00	0.00000e+00	0.00000e+00	0.00000e+00	0.00000e+00	0.00000e+00	0.00000e+00	0.00000e+00	0.00000e+00	0.00000e+00	0.00000e+00	0.00000e+00	0.00000e+00	0.00000e+00	0.00000e+00	0.00000e+00	0.00000e+00	0.00000e+00	0.00000e+00	0.00000e+00	0.00000e+00	0.00000e+00	0.00000e+00	0.00000e+00	0.00000e+00	0.00000e+00	0.00000e+00	0.00000e+00	0.00000e+00	0.00000e+00	-1.75373e+02	-1.30324e+02	-1.22335e+02	-1.82865e+02	-7.94388e+01	-6.73137e+01	-1.55847e+02	-1.62015e+02	-8.73043e+01	-6.50213e+01	-1.70182e+02	-1.72231e+02	-1.79732e+02	-1.76323e+02	-7.82466e+01	-1.49486e+02	
Factor	2.80776e-05	1.59647e-04	4.56555e-05	1.56367e-01	1.46645e-06	1.62896e-06	1.65078e-01	5.36098e-02	1.54737e-06	1.86707e-06	8.00233e-02	3.09967e-02	2.31372e-02	8.58255e-03	1.59471e-06	1.26389e-02	1.74870e-05	3.64141e-05	1.03222e-05	7.94208e-02	3.37746e-07	4.14866e-07	7.89372e-02	2.73144e-02	3.43380e-07	4.12689e-07	3.96292e-02	1.53309e-02	1.19582e-02	4.41765e-03	3.63355e-07	6.29802e-03	X	X	X	X	X	X	X	X	X	X	X	X	X	X	X	X	



#DISTANCE SETTINGS
A = Detector Channel
A-1	A-2	A-3	A-4	A-5	A-6	A-7	A-8	A-9	A-10	A-11	A-12	A-13	A-14	A-15	A-16	

2.5000e+00	3.0000e+00	2.5000e+00	3.0000e+00	2.0000e+00	3.0000e+00	1.5000e+00	3.0000e+00	3.0000e+00	3.0000e+00	3.0000e+00	3.0000e+00	3.0000e+00	3.0000e+00	1.5000e+00	3.0000e+00	

B = Detector Channel
B-1	B-2	B-3	B-4	B-5	B-6	B-7	B-8	B-9	B-10	B-11	B-12	B-13	B-14	B-15	B-16	

1.0000e+01	1.0000e+01	1.0000e+01	1.4400e+00	1.0000e+01	1.0000e+01	1.5100e+00	1.9400e+00	1.0000e+01	1.0000e+01	1.9900e+00	2.4900e+00	2.4100e+00	2.9000e+00	1.0000e+01	2.9800e+00	




#DATA BEGINS
time	group	step	mark	flag	A-AC1	A-AC2	A-AC3	A-AC4	A-AC5	A-AC6	A-AC7	A-AC8	A-AC9	A-AC10	A-AC11	A-AC12	A-AC13	A-AC14	A-AC15	A-AC16	A-DC1	A-DC2	A-DC3	A-DC4	A-DC5	A-DC6	A-DC7	A-DC8	A-DC9	A-DC10	A-DC11	A-DC12	A-DC13	A-DC14	A-DC15	A-DC16	A-Ph1	A-Ph2	A-Ph3	A-Ph4	A-Ph5	A-Ph6	A-Ph7	A-Ph8	A-Ph9	A-Ph10	A-Ph11	A-Ph12	A-Ph13	A-Ph14	A-Ph15	A-Ph16	B-AC1	B-AC2	B-AC3	B-AC4	B-AC5	B-AC6	B-AC7	B-AC8	B-AC9	B-AC10	B-AC11	B-AC12	B-AC13	B-AC14	B-AC15	B-AC16	B-DC1	B-DC2	B-DC3	B-DC4	B-DC5	B-DC6	B-DC7	B-DC8	B-DC9	B-DC10	B-DC11	B-DC12	B-DC13	B-DC14	B-DC15	B-DC16	B-Ph1	B-Ph2	B-Ph3	B-Ph4	B-Ph5	B-Ph6	B-Ph7	B-Ph8	B-Ph9	B-Ph10	B-Ph11	B-Ph12	B-Ph13	B-Ph14	B-Ph15	B-Ph16	aux-1	digaux	

1778.127	1	1	0	512	0.097497	0.165	0.10346	0.16489	0.099935	0.22223	0.31519	0.11424	0.035774	0.14775	0.20848	0.030295	0.21479	0.11671	0.16001	0.18404	-2.7938	-2.7812	-3.0667	-3.1354	-2.8792	-3.3812	-2.8875	-3.0687	-3.3646	-3.0375	-3.1854	-3.2125	-2.9562	-3.3542	-3.0479	-3.175	493.749	212.224	458.212	437.540	488.550	419.297	337.512	472.988	281.844	464.544	396.508	174.973	321.172	315.158	228.061	431.708	0.00096024	0.00027213	9.2772e-05	225.41	2.7493e-06	3.1702e-06	347.5	96.393	3.7696e-06	1.9272e-06	167.25	95.084	53.075	27.835	3.0286e-06	53.666	0.00071915	0.00062655	0.00015303	241.93	5.5031e-06	6.331e-06	372.14	103.8	6.0084e-06	6.7999e-06	180.11	102.1	57.066	30.251	6.8356e-06	58.35	502.727	250.431	239.390	166.013	283.869	287.056	165.276	170.459	301.299	312.456	169.094	171.604	172.440	177.347	291.680	175.163	-8191	255	
1778.248	1	1	0	0	0.048092	0.23714	0.021457	0.15107	0.15379	0.18231	0.1242	0.060727	0.19487	0.20607	0.20215	0.13859	0.022121	0.24325	0.061975	0.26277	-2.8271	-2.8937	-3.1708	-3.1917	-2.7771	-3.2792	-3.0958	-3.0812	-3.2333	-2.8104	-2.9792	-3.1896	-2.9813	-3.1771	-3.1583	-3.1813	343.979	196.700	212.475	494.838	413.185	330.900	254.162	197.677	420.775	203.845	470.878	440.724	446.074	160.399	283.576	152.910	0.00093635	0.00031064	9.6747e-05	225.76	2.064e-06	3.0923e-06	347.41	97.823	2.4967e-06	3.1653e-06	167.82	95.486	53.544	28.06	2.1841e-06	54.121	0.00071671	0.00064559	0.00015685	242.18	5.5074e-06	6.2757e-06	373.25	104.61	5.8682e-06	7.2418e-06	181.08	102.88	57.561	30.501	6.9113e-06	58.893	502.703	221.964	249.143	165.909	305.812	312.438	165.103	170.497	262.389	305.990	168.851	171.672	172.519	177.378	286.380	175.019	-8191	255	
1778.344	1	1	0	0	0.27463	0.29285	0.38192	0.10214	0.18797	0.14301	0.063232	0.11132	0.094646	0.10214	0.18627	0.085819	0.21625	0.092254	0.36197	0.12075	-2.8771	-2.8125	-2.9167	-3.1708	-2.7125	-3.4458	-3.0083	-2.9562	-3.1458	-3.1771	-3.0542	-3.2708	-2.9146	-3.2562	-3.0375	-2.8542	248.269	179.288	343.434	242.951	274.250	356.365	350.996	232.062	452.472	190.983	486.369	395.332	488.831	381.610	258.168	415.632	0.00092314	0.00040006	3.322e-05	227.03	2.4529e-06	2.143e-06	346.78	96.582	3.2865e-06	3.6018e-06	166.6	94.323	53.046	27.63	3.6843e-06	53.226	0.00071095	0.0006418	0.0001604	243.33	5.7171e-06	6.414e-06	372.39	103.82	5.6357e-06	7.2453e-06	179.53	101.72	56.934	30.091	6.6842e-06	58.029	503.481	244.246	241.597	165.770	278.705	322.998	165.325	170.666	275.951	319.245	168.781	171.618	172.612	177.426	285.191	175.151	-8191	255	
1778.440	1	1	0	0	0.11602	0.069397	0.28105	0.20251	0.074721	0.17147	0.15239	0.080988	0.06809	0.063111	0.076241	0.089675	0.09209	0.092031	0.17817	0.10477	-2.9062	-3.0417	-3.0187	-3.3667	-3.0583	-3.0521	-3.0792	-2.9188	-3.3625	-3.075	-3.05	-3.3167	-3.0021	-3.0563	-3.2604	-3.0583	328.399	309.583	274.027	160.982	176.631	311.030	445.735	383.801	225.643	206.846	286.575	407.499	258.279	245.466	203.088	359.383	0.00094796	0.00043581	8.8232e-05	225.93	3.427e-06	3.0251e-06	345.67	97.178	3.0204e-06	1.8865e-06	168.63	94.993	53.1	27.915	3.5109e-06	53.642	0.00070236	0.00063641	0.00016137	242.42	5.9563e-06	6.0856e-06	371.72	104.25	5.6071e-06	7.1748e-06	180.06	102.12	57.208	30.295	6.8402e-06	58.311	503.598	238.059	242.334	165.900	276.583	295.944	165.172	170.413	286.504	316.170	169.083	171.707	172.717	177.329	281.077	175.252	-8191	255	
1778.536	1	1	0	0	0.12058	0.073185	0.15407	0.22229	0.096812	0.21311	0.005489	0.098896	0.052897	0.19451	0.36608	0.080215	0.10438	0.098419	0.30442	0.12289	-2.8187	-3.0167	-2.8625	-3.3187	-2.9667	-3.0042	-3.1271	-3.0542	-3.3208	-3.1312	-3.1	-3.2583	-2.8771	-3.1979	-2.9458	-3.0083	176.109	260.070	385.767	505.179	431.946	254.622	441.232	343.513	327.305	204.185	176.722	362.157	184.274	231.929	288.336	293.331	0.0009185	0.00023549	7.1006e-05	227	2.0184e-06	3.2262e-06	346.34	97.097	2.8248e-06	2.3368e-06	166.29	94.528	53.11	27.809	3.6103e-06	53.512	0.00070349	0.00066486	0.00016707	243.16	6.026e-06	6.2411e-06	371.85	104.25	5.615e-06	7.4817e-06	179.32	101.94	57.048	30.177	6.685e-06	58.269	501.187	260.727	250.906	166.104	306.022	311.297	165.262	170.475	263.283	297.880	169.252	171.757	172.623	177.299	271.702	175.301	-8191	255	
1778.657	1	1	0	0	0.095163	0.16846	0.10203	0.1967	0.14384	0.10732	0.15929	0.19336	0.14208	0.19512	0.07931	0.14614	0.17841	0.21629	0.15002	0.029993	-2.9354	-2.8688	-2.8104	-3.2313	-3.0458	-3.0646	-3.2729	-2.8646	-3.2229	-2.8688	-2.9333	-3.1458	-2.8979	-3.1104	-3.2604	-3.1396	272.531	307.385	344.866	344.940	372.025	400.779	416.882	361.441	185.844	192.945	308.276	313.466	507.790	404.970	193.039	442.069	0.00095485	0.00030325	7.9621e-05	226.9	2.2716e-06	3.3613e-06	348.04	97.513	2.9579e-06	4.2622e-06	169.17	95.729	53.743	28.073	2.6258e-06	54.194	0.00069551	0.00064787	0.00016662	243.48	6.0703e-06	6.2092e-06	373.61	104.78	5.8203e-06	7.2831e-06	181.81	103.02	57.802	30.548	6.4056e-06	59.044	503.017	226.731	240.506	166.167	273.997	316.291	165.284	170.219	275.068	314.117	169.024	171.620	172.606	177.515	280.232	175.248	-8191	255	
1778.729	1	1	0	0	0.20969	0.061364	0.089063	0.01627	0.21966	0.14082	0.054389	0.064715	0.06158	0.2084	0.14214	0.094726	0.15782	0.022382	0.13665	0.085286	-2.6979	-2.9917	-2.9	-3.2562	-2.975	-2.9917	-3.3542	-2.9625	-3.1917	-3.1729	-3.0125	-3.3958	-3.1917	-3.1333	-3.3708	-3.1542	433.801	282.938	510.927	274.106	218.568	386.797	391.063	497.915	494.960	274.523	498.883	201.106	193.119	400.518	476.629	328.406	0.00095948	0.000378	0.00010682	228.05	3.2852e-06	2.3087e-06	347.62	96.982	3.5977e-06	3.2117e-06	167.14	94.819	53.179	27.737	3.6513e-06	53.362	0.00070906	0.00064961	0.00017537	244.27	6.2244e-06	6.6137e-06	373.91	104.49	5.6171e-06	7.0793e-06	180.45	101.98	57.271	30.178	6.3436e-06	58.162	501.688	237.969	241.796	166.338	292.785	305.475	165.480	170.408	267.158	308.393	169.003	171.887	172.573	177.275	276.104	175.454	-8191	255	
1778.825	1	1	0	0	0.12951	0.17889	0.22359	0.16055	0.25104	0.0093572	0.30297	0.059563	0.035096	0.0048671	0.39306	0.074502	0.11988	0.15363	0.087623	0.2519	-2.6042	-2.9917	-2.9083	-3.2104	-3.1437	-2.8312	-3.3479	-2.9417	-2.9667	-3.1688	-3.0729	-3.2271	-3.0708	-3.0833	-3.2875	-2.8479	396.121	363.936	370.213	167.793	180.314	452.112	191.338	461.101	234.996	350.131	505.689	285.880	170.515	161.127	445.138	334.300	0.0009291	0.00032351	9.9863e-05	226.75	2.7229e-06	2.5754e-06	345.82	96.931	3.1153e-06	4.0306e-06	167.78	94.501	53.234	28.006	3.3839e-06	53.758	0.00070236	0.00062966	0.00017864	243.1	6.1209e-06	6.6344e-06	371.82	104.26	5.5828e-06	6.8739e-06	180.28	102.01	57.407	30.394	6.1619e-06	58.517	503.020	235.566	241.358	165.844	267.698	287.368	165.256	170.376	264.069	299.626	169.252	171.832	172.587	177.290	291.522	175.123	-8191	255	
1778.944	1	1	0	0	0.11148	0.036663	0.1865	0.20663	0.26743	0.15158	0.092423	0.22862	0.16787	0.046595	0.17594	0.22278	0.20413	0.082343	0.14709	0.22011	-2.9625	-3.3167	-3.0187	-3.2167	-3.0354	-2.9375	-3.3604	-2.9271	-3.0583	-3.2208	-3.0771	-3.2458	-3.1312	-2.9104	-3.2042	-3.1354	460.809	349.092	165.830	482.172	461.711	491.686	274.527	461.428	352.216	397.176	437.273	432.801	271.808	478.914	307.339	166.952	0.0009554	0.00027915	0.00010502	225.58	2.577e-06	3.8224e-06	345.84	97.216	2.8997e-06	3.5924e-06	167.25	95.32	53.238	27.845	3.2061e-06	53.752	0.00070443	0.00063702	0.00017599	243.85	6.2335e-06	6.6188e-06	372.67	104.58	5.542e-06	6.6434e-06	180.74	102.48	57.498	30.347	6.0605e-06	58.448	501.944	233.376	253.272	166.127	285.254	293.195	165.378	170.607	254.431	289.620	169.016	171.800	172.747	177.431	298.350	175.122	-8191	255	
1779.040	1	1	0	0	0.097501	0.15767	0.20211	0.11501	0.20703	0.070761	0.1471	0.11562	0.24511	0.15349	0.19622	0.19992	0.19783	0.14856	0.11298	0.2905	-2.5729	-3.3375	-2.8521	-3.075	-3.3479	-2.9938	-3.2479	-3.0833	-2.9375	-3.2458	-2.8375	-3.0563	-3.075	-2.9479	-3.2146	-3.175	478.801	324.964	152.952	461.635	416.447	364.460	206.186	418.975	429.490	475.383	433.808	153.272	478.218	500.662	458.655	443.031	0.00096278	0.00030383	5.6003e-05	228.22	2.3335e-06	3.3302e-06	348.69	97.448	3.8179e-06	4.9371e-06	168.67	95.576	54.225	28.136	3.5894e-06	53.938	0.00071478	0.00058854	0.0001761	244.21	6.0295e-06	6.8047e-06	373.78	105.07	5.5656e-06	6.8979e-06	182.48	103.29	58.108	30.596	6.1929e-06	58.819	502.317	239.198	254.391	166.019	298.117	305.803	165.250	170.499	262.815	297.556	169.389	171.691	172.461	177.377	272.051	175.325	-8191	255	
1779.136	1	1	0	0	0.22712	0.19842	0.060044	0.102	0.1651	0.097314	0.4111	0.076237	0.064182	0.045976	0.13493	0.21377	0.33661	0.13725	0.038039	0.16569	-2.5104	-3.0042	-2.7958	-2.9583	-3.0875	-2.8479	-3.2313	-2.9792	-3.075	-3.1771	-3.0312	-3.0521	-3.3792	-2.7354	-3.1479	-3.0708	331.928	460.405	365.341	224.359	306.561	285.561	447.388	462.051	308.877	366.078	414.432	156.050	457.009	486.544	441.027	473.480	0.00094393	0.00027819	6.4445e-05	229.4	2.9171e-06	3.8462e-06	347.82	97.723	3.5938e-06	3.4538e-06	167.52	94.92	53.383	27.661	3.0322e-06	53.101	0.00071908	0.00059234	0.00018814	245.01	6.0091e-06	7.1037e-06	373.13	104.68	5.7402e-06	6.4715e-06	180.91	102.11	57.319	30.155	6.0771e-06	57.83	503.245	245.647	228.698	166.130	282.428	302.236	165.116	170.555	275.781	306.135	169.113	171.600	172.811	177.364	292.691	175.052	-8191	255	
1779.257	1	1	0	0	0.22737	0.035768	0.25294	0.13852	0.12359	0.08971	0.22128	0.18836	0.23948	0.15658	0.10665	0.17697	0.17538	0.061942	0.094996	0.13045	-2.2271	-3.0833	-2.9958	-2.9	-3.3229	-2.9417	-3.3646	-3.0917	-2.8146	-3.25	-3.1646	-2.9833	-3.2521	-3.0292	-3.1979	-3.2021	187.719	411.029	283.324	494.994	254.398	423.321	347.466	366.824	202.922	471.052	245.998	173.465	194.784	398.199	422.362	442.019	0.00093685	0.00025726	0.00011245	225.93	1.7763e-06	2.431e-06	344.1	96.097	2.7248e-06	4.1543e-06	166.24	93.835	53.059	27.523	2.7971e-06	52.739	0.00071707	0.00057678	0.00018326	242.64	5.6453e-06	6.9628e-06	369.19	103.42	5.7759e-06	6.4251e-06	179.07	101.17	56.953	29.946	5.9303e-06	57.418	503.577	238.124	223.414	165.816	308.683	272.080	165.083	170.310	289.154	287.463	168.863	171.620	172.491	177.310	284.726	175.221	-8191	255	
1779.353	1	1	0	0	0.22946	0.15735	0.086645	0.13999	0.090357	0.27616	0.16173	0.18818	0.12252	0.019135	0.13352	0.041782	0.33877	0.079136	0.17632	0.1895	-2.4896	-3.2104	-2.9208	-3.1104	-3.3333	-2.8021	-3.275	-3.1833	-2.9875	-3.425	-3.0938	-2.9458	-3.3458	-2.9833	-2.9625	-3.4583	313.277	344.656	286.225	213.179	161.433	156.885	177.440	365.337	509.192	268.019	180.290	155.529	398.568	259.637	284.719	439.103	0.00091262	0.0003639	7.4829e-05	224.04	2.1624e-06	2.7806e-06	342.99	95.249	2.449e-06	2.9063e-06	163.84	92.722	51.805	26.994	3.2731e-06	51.917	0.00069354	0.00056298	0.00018554	241.48	5.4602e-06	7.2204e-06	367.02	102.3	5.8918e-06	6.3193e-06	176.93	99.812	55.939	29.397	6.0582e-06	56.509	502.200	241.649	238.039	165.799	287.062	286.520	165.277	170.492	271.293	298.081	168.874	171.749	172.804	177.542	308.415	175.333	-8191	255	
1779.424	1	1	0	0	0.10674	0.12746	0.13082	0.17167	0.22445	0.17863	0.14919	0.24922	0.11336	0.11734	0.044804	0.1679	0.045553	0.10216	0.20499	0.23588	-2.5021	-3.2146	-3.05	-2.85	-3.1167	-3.0854	-2.9667	-3.2458	-2.8958	-3.2708	-3.0333	-2.8917	-3.2208	-3.1854	-3.0875	-3.2687	511.380	171.659	262.284	450.256	313.023	283.490	427.571	407.392	228.388	304.065	493.970	167.472	373.930	386.153	398.176	431.872	0.00094333	0.00022204	0.00010728	225.13	2.8624e-06	2.2354e-06	341.32	94.976	2.0742e-06	2.8815e-06	163.8	92.789	51.92	27.024	3.733e-06	52.291	0.00072105	0.00055949	0.00017165	240.45	5.342e-06	7.2273e-06	365.09	101.9	6.0635e-06	6.1594e-06	176.63	99.833	55.959	29.428	6.0302e-06	56.784	502.259	231.295	249.209	166.079	277.130	299.745	165.228	170.533	257.991	314.915	169.052	171.589	172.871	177.499	278.326	175.257	-8191	255	
1779.521	1	1	0	0	0.3036	0.29253	0.21909	0.1845	0.099696	0.19397	0.25432	0.18933	0.28295	0.11648	0.010807	0.20006	0.15361	0.12928	0.21807	0.21358	-2.4729	-3.1354	-3.0417	-3.0833	-3.3583	-2.9833	-3.025	-3.2625	-2.7792	-3.2083	-3.2146	-2.9354	-3.1208	-3.1771	-2.9833	-3.4229	398.906	314.866	395.131	418.931	486.347	256.637	307.266	446.646	287.282	288.695	282.692	415.455	507.677	344.807	289.598	312.040	0.00093646	0.00026705	8.8093e-05	226.16	2.2935e-06	2.3608e-06	338.39	94.646	2.7887e-06	2.5534e-06	162.94	92.051	51.615	26.858	3.7237e-06	51.553	0.0007237	0.00057345	0.00017406	241.64	5.2759e-06	7.0259e-06	364.96	101.51	5.9483e-06	6.1396e-06	175.93	99.229	55.604	29.193	6.1256e-06	56.136	503.128	243.920	250.383	165.848	295.051	304.116	165.225	170.518	260.594	303.401	169.309	172.043	172.687	177.351	279.659	175.194	-8191	255	
1779.641	1	1	0	0	0.21315	0.076211	0.34658	0.21524	0.19613	0.18702	0.30195	0.27546	0.22337	0.18505	0.097821	0.045133	0.064664	0.13146	0.23406	0.13143	-2.575	-3.2104	-3.1396	-2.8979	-3.1021	-3.0625	-3.0229	-3.1083	-2.9688	-3.0521	-3.0979	-2.9458	-3.2979	-3.1417	-2.975	-3.3354	308.281	231.323	294.925	477.119	328.537	308.121	470.025	315.068	504.372	376.867	456.429	301.529	246.965	452.585	277.791	439.124	0.00091136	0.00021949	8.8919e-05	223.3	2.667e-06	2.2178e-06	337.83	92.94	2.8042e-06	3.4831e-06	161.32	91.043	51.413	26.613	3.981e-06	51.072	0.00071835	0.00056123	0.00016913	239.86	5.2386e-06	7.0354e-06	361.48	100.37	5.9147e-06	6.0803e-06	173.83	98.118	55.279	28.97	6.3822e-06	55.617	503.348	246.214	250.679	165.747	277.696	299.102	165.225	170.376	266.224	299.691	169.235	171.578	172.547	177.424	280.756	175.075	-8191	255	
1779.737	1	1	0	0	0.24398	0.14113	0.21623	0.11498	0.10498	0.16528	0.18748	0.18437	0.066657	0.13191	0.0346	0.38683	0.12813	0.17399	0.14003	0.127	-2.575	-2.875	-3.3104	-2.9083	-3.1896	-3.2604	-2.9	-3.2333	-2.9208	-3.0042	-3.4	-2.9333	-3.1146	-3.2938	-2.8229	-3.4313	372.554	338.574	328.189	174.400	276.400	231.412	409.470	482.766	232.636	424.666	188.466	508.395	395.023	314.973	435.593	180.724	0.00091283	0.00024564	8.6118e-05	222.25	1.7387e-06	2.1588e-06	334.69	93.164	3.3561e-06	2.9855e-06	160.93	91.173	51.243	26.649	3.8728e-06	51.124	0.00071653	0.00054735	0.00016522	239.02	5.0915e-06	6.9084e-06	359.68	100.22	6.1236e-06	6.3442e-06	173.58	98.122	55.146	29.046	6.2035e-06	55.717	503.122	239.539	244.708	165.562	289.723	319.576	165.309	170.535	260.680	297.231	169.397	171.815	172.393	177.348	277.963	175.574	-8191	255	
1779.832	1	1	0	0	0.2377	0.12364	0.14546	0.1272	0.11136	0.12492	0.12563	0.32259	0.18794	0.075958	0.048473	0.183	0.24355	0.18256	0.25929	0.099748	-2.6063	-2.9708	-3.2646	-2.9813	-3.1646	-3.3187	-2.9292	-3.2292	-3.0479	-3.1854	-3.1792	-3.2104	-3.1479	-3.2062	-2.8958	-3.3708	239.486	222.369	224.869	403.361	195.581	243.198	195.068	441.037	365.866	247.406	426.837	467.716	199.699	468.132	293.135	253.550	0.0008748	0.00037283	8.1637e-05	222.28	2.3982e-06	2.9957e-06	335.79	93.163	1.3796e-06	3.1511e-06	161.82	91.301	51.148	26.654	3.5561e-06	51.268	0.0007087	0.00057845	0.00016221	238.58	5.0563e-06	6.7312e-06	360.25	100.21	6.1723e-06	6.4001e-06	173.9	98.182	55.075	29.004	6.3352e-06	55.891	502.863	238.658	253.311	165.660	283.306	311.634	165.002	170.366	289.361	287.709	169.182	171.719	172.772	177.627	260.634	175.410	-8191	255	
1779.928	1	1	0	0	0.0058657	0.070404	0.15544	0.082517	0.18256	0.090374	0.15455	0.27542	0.26023	0.083009	0.29668	0.30091	0.33454	0.28349	0.083323	0.15773	-2.65	-2.8083	-3.2771	-2.9104	-3.0938	-3.2854	-2.8292	-3.1042	-3.1063	-2.8354	-3.2583	-3.025	-3.0604	-3.2333	-2.9604	-3.3125	406.946	382.146	330.358	367.494	453.534	188.229	406.829	174.416	218.442	154.652	453.360	468.759	176.860	510.279	165.035	347.902	0.00090031	0.00030796	8.0346e-05	221.9	2.7616e-06	2.5045e-06	336.87	93.646	3.3391e-06	2.7692e-06	161.27	90.891	50.956	26.557	2.6094e-06	50.99	0.00070443	0.00058778	0.00015599	238.99	5.2583e-06	6.5748e-06	361.44	100.45	5.9848e-06	6.493e-06	173.69	98.076	54.876	28.89	6.2338e-06	55.495	503.612	257.296	236.882	165.820	285.228	309.320	165.204	170.211	272.764	331.213	169.469	171.642	172.809	177.651	239.623	175.519	-8191	255	
1780.024	1	1	0	0	0.10331	0.2015	0.10658	0.21775	0.13907	0.042747	0.21322	0.21987	0.3381	0.11161	0.19421	0.16377	0.14448	0.10588	0.19306	0.055392	-2.7	-2.7729	-3.2646	-2.9354	-3.1042	-3.3021	-2.8042	-3.3104	-3.0896	-2.9458	-3.1917	-2.9437	-2.8583	-3.3396	-3.0333	-3.1167	226.008	244.913	363.944	387.722	400.017	253.230	447.411	224.695	468.131	228.705	469.470	501.337	197.135	456.329	202.636	192.087	0.00088981	0.000313	6.0643e-05	223.25	2.4843e-06	2.6918e-06	334.08	92.432	2.9008e-06	3.1999e-06	160	90.471	51.021	26.496	2.7856e-06	50.836	0.00070141	0.00057997	0.00015604	238.61	5.1893e-06	6.5644e-06	358.46	99.606	5.9376e-06	6.4018e-06	172.21	97.288	54.737	28.846	6.6017e-06	55.339	501.506	236.555	227.584	166.062	291.747	312.843	164.996	170.411	268.202	312.962	168.954	171.822	172.681	177.192	275.960	175.126	-8191	255	
1780.120	1	1	0	0	0.2403	0.18802	0.095945	0.32948	0.17745	0.13794	0.090211	0.1563	0.23057	0.077452	0.20015	0.079331	0.11562	0.1908	0.041217	0.030894	-2.6521	-2.9396	-3.2229	-3.1354	-2.9667	-3.3729	-3.0458	-3.2062	-3.1146	-2.9667	-3.3083	-3.0687	-2.8917	-3.2354	-3.0563	-3.2229	370.347	186.597	342.283	428.569	155.013	227.247	320.752	180.326	465.548	487.114	239.533	207.880	158.274	464.598	196.002	177.911	0.0008837	0.00028535	7.8481e-05	223.36	3.3632e-06	2.0368e-06	333.11	93.208	3.2049e-06	2.1734e-06	160.39	90.913	51.326	26.743	2.4448e-06	51.256	0.0006966	0.00059241	0.00015288	238.9	5.3899e-06	6.357e-06	358.84	100.23	5.7766e-06	6.6623e-06	172.88	97.834	55.157	29.039	6.4836e-06	55.798	502.810	235.043	251.835	165.741	292.946	280.796	165.209	170.316	274.478	302.066	169.437	171.643	172.631	177.557	288.988	175.190	-8191	255	
1780.216	1	1	0	0	0.13762	0.093743	0.20118	0.16313	0.031679	0.055927	0.10481	0.19642	0.25472	0.038117	0.066934	0.18765	0.057104	0.21888	0.16183	0.068075	-2.7562	-2.8312	-3.3375	-2.8708	-2.9479	-3.2812	-2.925	-3.0646	-3.3479	-2.9104	-3.2104	-3.0104	-2.6854	-3.225	-2.9958	-3.0333	441.609	329.003	391.381	453.765	381.391	225.861	279.149	236.776	279.233	442.035	162.831	494.625	425.472	429.846	489.147	352.287	0.00094178	0.00035442	7.2096e-05	222.05	2.4331e-06	3.981e-06	337.48	92.95	3.1005e-06	3.1218e-06	161.08	90.85	51.279	26.849	3.3677e-06	51.307	0.00071503	0.00060933	0.0001501	238.93	5.4096e-06	6.3699e-06	360.28	100.01	5.7845e-06	6.6632e-06	173.6	98.037	55.192	29.105	6.5888e-06	56.08	502.305	245.279	224.677	166.207	268.060	300.058	165.461	170.636	271.444	304.921	169.368	171.852	172.697	177.359	278.131	175.303	-8191	255	
1780.337	1	1	0	0	0.23425	0.068942	0.032896	0.15824	0.13996	0.16302	0.15808	0.20141	0.15363	0.070438	0.22216	0.20638	0.061215	0.031964	0.16644	0.070069	-2.6125	-2.7125	-3.0917	-3.2313	-2.7	-3.25	-3.0563	-2.9667	-3.1312	-3.275	-3.125	-3.3125	-3.0563	-3.3396	-3.1146	-3.0521	419.166	470.569	329.701	434.775	277.361	221.308	297.840	376.376	353.125	431.960	176.895	408.378	406.749	188.071	313.265	309.890	0.00089091	0.00020175	9.6204e-05	222.27	3.4033e-06	1.6117e-06	336.73	93.228	3.0652e-06	4.5705e-06	161.4	91.559	51.654	26.808	4.0509e-06	51.331	0.00068225	0.0006154	0.00015589	240.27	5.6819e-06	6.1461e-06	362.13	100.59	5.6293e-06	7.0329e-06	174.2	98.629	55.49	29.147	6.5063e-06	55.925	502.338	225.727	239.622	165.866	280.606	322.754	165.465	170.602	289.100	291.042	169.021	171.804	172.458	177.486	277.314	175.335	-8191	255	
1780.433	1	1	0	0	0.16283	0.18461	0.24888	0.29785	0.062238	0.12486	0.022633	0.18338	0.13125	0.060372	0.16588	0.12138	0.055486	0.065712	0.089538	0.22785	-2.8208	-2.9	-3.0771	-3.1937	-3.0417	-3.2542	-3.1208	-3.0542	-3.2062	-2.8688	-3.1125	-3.3312	-2.8333	-3.1375	-3.0938	-2.9792	428.581	450.338	460.014	311.068	383.847	314.843	340.455	454.959	198.141	305.607	347.873	450.655	325.206	404.153	445.100	498.859	0.00093516	0.00038872	6.9295e-05	222.99	3.1491e-06	3.2659e-06	335.43	93.434	2.9349e-06	3.3975e-06	160.95	91.045	51.448	26.7	3.7945e-06	51.214	0.00068225	0.00061805	0.00015485	239.53	5.767e-06	5.9386e-06	360.46	100.4	5.5756e-06	6.9048e-06	173.51	98.203	55.409	29.132	6.3807e-06	55.776	503.367	232.940	241.937	165.761	280.666	302.292	165.432	170.433	274.384	307.406	168.905	171.783	172.773	177.614	294.304	175.235	-8191	255	
1780.529	1	1	0	0	0.15326	0.16703	0.1093	0.14788	0.12165	0.085319	0.10075	0.18941	0.13028	0.2483	0.19789	0.072046	0.14751	0.33569	0.094977	0.095484	-2.8396	-2.9188	-2.8958	-3.1583	-3.1104	-3.2354	-3.0521	-3.0333	-3.1979	-3.1188	-3.1042	-3.3604	-3.0521	-3.1	-3.2687	-3.0062	302.219	457.094	422.558	249.106	202.626	206.664	454.054	388.846	209.917	272.262	412.179	171.951	363.466	477.971	467.144	440.085	0.00091206	0.00032244	0.00011936	222.77	1.8597e-06	3.1398e-06	335.9	93.346	3.9314e-06	3.646e-06	161.24	91.719	51.411	26.902	2.4314e-06	51.389	0.00068035	0.00062116	0.00015571	239.68	5.6657e-06	6.2005e-06	360.17	100.7	5.5699e-06	6.818e-06	174.03	98.706	55.468	29.219	6.5767e-06	56.005	501.564	234.623	239.752	166.064	266.321	288.209	165.387	170.682	279.281	293.331	169.078	171.788	172.725	177.373	280.438	175.261	-8191	255	
1780.625	1	1	0	0	0.14008	0.19148	0.12574	0.19131	0.13786	0.27266	0.15264	0.079248	0.14563	0.048134	0.1194	0.10036	0.19975	0.24323	0.12605	0.11489	-2.9479	-2.9896	-3.0062	-3.2562	-3.0438	-3.0542	-3.2229	-2.9104	-3.2062	-3.3146	-3.0521	-3.425	-2.8083	-2.9958	-3.4021	-3.0312	373.337	194.934	490.012	394.356	213.580	430.449	364.311	218.027	474.087	331.599	444.729	419.314	294.913	483.647	405.493	387.624	0.00090751	0.00032732	7.097e-05	223.15	3.1215e-06	1.7822e-06	337.77	93.018	3.6092e-06	2.5684e-06	161.93	91.921	51.746	26.842	4.279e-06	51.841	0.00067995	0.00064407	0.00016421	239.3	5.8184e-06	6.1063e-06	360.53	100.46	5.3596e-06	6.916e-06	174.39	98.876	55.655	29.291	6.501e-06	56.33	501.096	219.292	229.632	165.802	299.221	292.643	165.537	170.670	270.780	299.461	169.083	171.651	172.811	177.340	279.510	175.415	-8191	255	
1780.720	1	1	0	0	0.063156	0.058407	0.13048	0.057796	0.14511	0.14051	0.15206	0.066576	0.072587	0.13855	0.18932	0.26869	0.11112	0.1741	0.11226	0.03489	-2.7812	-3.0563	-2.8438	-3.2958	-3.1188	-3.0542	-3.3854	-2.8917	-3.1958	-3.2229	-2.8771	-3.4375	-3.0312	-3.1042	-3.2708	-2.9792	456.563	251.063	482.988	294.621	318.102	494.513	424.207	336.774	232.643	215.465	505.311	231.156	431.698	284.401	336.619	454.233	0.00090212	0.00028218	0.00012453	224.15	3.0343e-06	3.1248e-06	338.38	94.048	2.0991e-06	2.4872e-06	162.05	92.459	51.914	26.999	3.8159e-06	51.554	0.00066418	0.00062883	0.00016776	240.39	5.9999e-06	6.4235e-06	362.35	101.05	5.1807e-06	6.8739e-06	175.02	99.429	55.76	29.34	6.3035e-06	56.152	501.691	246.236	245.491	165.929	289.616	306.903	165.291	170.531	273.998	312.125	168.941	171.722	172.571	177.431	286.956	175.341	-8191	255	
1780.816	1	1	0	0	0.13465	0.26001	0.25274	0.18431	0.13337	0.2007	0.27127	0.076748	0.15392	0.18128	0.14228	0.33239	0.037294	0.088961	0.14408	0.14544	-2.7333	-3.0521	-2.9271	-3.2896	-2.9104	-2.95	-3.2646	-3.0083	-3.3125	-3.3125	-3.0417	-3.375	-3.0812	-3.1229	-3.3333	-3.1688	462.669	154.371	255.424	398.546	426.128	153.631	373.913	457.385	282.392	288.352	290.763	386.816	191.786	206.761	216.091	446.510	0.00090344	0.00030344	6.7059e-05	224.27	2.2572e-06	2.5031e-06	336.4	93.666	3.1205e-06	2.756e-06	161.51	91.042	51.817	26.99	3.7572e-06	51.31	0.00067062	0.00060387	0.0001667	240.4	5.7389e-06	6.1971e-06	361.65	100.91	5.1951e-06	6.9203e-06	173.8	98.383	55.642	29.223	6.1997e-06	55.936	501.319	210.042	234.083	165.823	302.007	313.214	165.528	170.591	285.605	298.122	169.083	171.500	172.878	177.474	280.790	175.221	-8191	255	
1780.937	1	1	0	0	0.047923	0.2067	0.20345	0.1082	0.2682	0.18801	0.21969	0.2239	0.20207	0.26075	0.077636	0.072449	0.094652	0.11579	0.21429	0.17108	-2.825	-3.1437	-2.8396	-3.3208	-3.1333	-3.0292	-3.2833	-2.9979	-3.1042	-3.0833	-3.0375	-3.3312	-3.125	-3.0417	-3.3167	-3.2708	412.776	280.680	478.030	265.688	421.760	165.025	482.822	288.256	179.463	227.537	230.620	356.934	371.164	395.615	226.214	178.560	0.00088105	0.00040759	9.1061e-05	224.02	2.6401e-06	2.5461e-06	337.71	94.327	3.9705e-06	4.9785e-06	163.43	92.614	52.346	27.185	2.5806e-06	52.174	0.00066297	0.00062814	0.00017307	240.47	5.8022e-06	6.3509e-06	362.3	101.66	5.5821e-06	6.7294e-06	175.44	99.397	56.279	29.586	6.0688e-06	56.652	502.731	227.225	240.286	165.934	259.197	304.647	165.247	170.648	277.107	313.312	168.835	171.872	172.625	177.378	314.688	175.193	-8191	255	
1781.033	1	1	0	0	0.075721	0.058802	0.15932	0.12695	0.083967	0.21434	0.086018	0.1788	0.26487	0.05705	0.23975	0.25932	0.15932	0.073334	0.32486	0.10534	-2.7458	-3.0979	-2.9688	-3.2333	-3.1396	-2.9792	-3.4062	-2.95	-3.1208	-3.3125	-2.9354	-3.2938	-3.2812	-2.8312	-3.475	-3.2104	243.931	363.383	304.440	445.263	238.173	210.328	167.805	475.433	241.550	414.799	247.432	424.541	354.993	272.748	324.311	435.615	0.00092275	0.00026406	7.3284e-05	226.33	2.4331e-06	2.0569e-06	336.69	94.831	3.7181e-06	4.0475e-06	163.81	93.225	52.646	27.379	3.4113e-06	52.486	0.00068549	0.00060356	0.00016666	241.75	5.8958e-06	6.7848e-06	363.4	101.94	5.5577e-06	6.7363e-06	176.57	100.27	56.486	29.762	5.9174e-06	57.137	501.861	246.112	243.040	165.771	293.568	315.580	165.238	170.242	265.679	300.545	168.950	171.600	172.383	177.357	294.768	175.054	-8191	255	
1781.127	1	1	0	0	0.028619	0.16106	0.087866	0.11592	0.12593	0.10037	0.1263	0.36034	0.24404	0.087283	0.14547	0.10136	0.053713	0.072228	0.23766	0.15742	-2.5979	-3.5146	-2.8438	-3.3917	-3.1583	-3.0333	-3.35	-3.2396	-2.8875	-3.3021	-3.0792	-3.2812	-3.3292	-2.95	-3.3396	-3.1833	233.296	483.388	384.975	272.148	248.663	365.978	292.000	511.426	236.784	241.423	463.838	274.111	415.823	447.249	446.594	491.790	0.00092146	0.0003646	6.0999e-05	227.34	2.8103e-06	3.6186e-06	339.55	95.673	3.2226e-06	3.507e-06	164.92	93.675	52.954	27.426	3.34e-06	52.674	0.00069744	0.0005975	0.00017696	242.88	5.9359e-06	6.981e-06	365.13	102.73	5.8224e-06	6.5188e-06	177.69	101.06	56.8	29.936	5.7902e-06	57.406	503.078	219.684	247.984	165.844	294.754	303.393	165.166	170.601	283.636	303.089	169.445	171.634	172.693	177.319	280.107	175.204	-8191	255	
1781.223	1	1	0	0	0.076135	0.1765	0.1189	0.20019	0.17744	0.12517	0.07247	0.044287	0.074318	0.09262	0.056132	0.081952	0.29612	0.33513	0.036139	0.056519	-2.525	-3.3625	-2.9667	-3.1375	-3.2083	-2.8354	-3.1979	-3.0812	-3.0646	-3.2479	-3.0104	-3.0583	-3.1979	-2.8146	-3.2458	-3.1813	429.582	166.554	331.861	451.058	273.873	465.404	426.773	225.556	381.730	315.522	468.247	378.557	465.824	450.181	174.088	377.411	0.00094749	0.00024893	8.456e-05	225.85	2.7471e-06	2.9022e-06	342.09	95.569	3.4675e-06	3.2127e-06	163.52	93.24	52.479	27.312	3.0053e-06	52.557	0.00070713	0.00057747	0.00017552	242.41	5.7818e-06	6.9568e-06	365.99	102.87	5.7566e-06	6.2703e-06	176.69	100.52	56.496	29.772	5.8606e-06	57.188	503.331	243.661	247.398	165.992	277.007	299.658	165.160	170.317	281.512	289.921	169.058	171.381	172.381	177.415	280.652	174.986	-8191	255	
1781.319	1	1	0	0	0.060182	0.10737	0.064259	0.28858	0.1536	0.23431	0.30912	0.032157	0.075619	0.099352	0.18981	0.054555	0.16065	0.10313	0.39014	0.15524	-2.5229	-3.2625	-2.9292	-3.0833	-3.4146	-2.8917	-3.2708	-3.2062	-3.1042	-3.2229	-2.7729	-3.1708	-3.2438	-3.0125	-3.2146	-3.2375	375.737	214.978	285.346	489.791	335.898	362.656	436.414	453.383	165.934	206.267	289.196	286.559	350.828	157.743	262.361	206.679	0.00093436	0.00033201	8.3957e-05	224.39	3.3677e-06	2.5463e-06	340.19	95.547	3.52e-06	3.481e-06	164.36	93.676	53.071	27.637	3.1357e-06	52.902	0.00071063	0.00056761	0.00018438	242.1	5.8627e-06	6.9412e-06	365.98	103.13	6.0607e-06	6.0468e-06	177.74	100.91	57.189	30.074	5.9075e-06	57.752	503.449	225.657	265.353	165.850	289.889	296.824	165.244	170.267	273.469	288.930	169.098	171.366	172.506	177.237	288.703	175.165	-8191	255	
1781.416	1	1	0	0	0.12225	0.025986	0.21953	0.061218	0.21884	0.050022	0.072129	0.30798	0.17927	0.23866	0.29459	0.084861	0.1363	0.1405	0.054479	0.21713	-2.3104	-3.2833	-2.8646	-3.0167	-3.1979	-3.0792	-3.0021	-3.2729	-2.8646	-3.3417	-3.2708	-3.1562	-3.3167	-3.1104	-3.2792	-3.3125	201.193	201.224	406.108	351.969	309.317	390.432	331.750	441.693	490.195	430.365	200.925	487.009	395.300	480.271	395.791	407.805	0.00092642	0.00023162	0.00010377	227.09	2.2228e-06	3.3554e-06	342.47	96.197	3.9995e-06	3.6657e-06	166.25	94.86	53.559	28.013	3.7428e-06	53.525	0.000728	0.00055152	0.00018412	243.83	5.5074e-06	7.1279e-06	367.8	103.64	6.2574e-06	6.0382e-06	179.03	102	57.617	30.382	5.981e-06	58.227	501.813	229.473	245.798	165.827	265.808	294.338	165.246	170.395	267.846	327.391	168.730	171.500	172.512	177.213	282.557	175.057	-8191	255	
1781.512	1	1	0	0	0.14597	0.24738	0.072715	0.03286	0.11747	0.20912	0.19504	0.092971	0.071699	0.071968	0.18149	0.041786	0.14945	0.070986	0.10109	0.53046	-2.6292	-3.2354	-3.0271	-2.9083	-3.2625	-3.0208	-3.1688	-3.4292	-2.9854	-3.2271	-3.0667	-2.9417	-3.1688	-3.0396	-3.075	-3.4333	475.986	335.053	411.128	349.154	288.198	352.950	191.238	492.835	273.397	184.354	471.827	343.470	427.377	439.055	268.245	461.828	0.00092031	0.00028985	0.00011232	226.94	3.2323e-06	3.0381e-06	343.94	96.633	3.242e-06	2.2284e-06	166.91	95.531	54.124	28.149	3.7892e-06	54.056	0.0007205	0.00055274	0.00018464	243.85	5.4201e-06	7.153e-06	369.16	103.99	6.296e-06	6.088e-06	180.36	102.95	58.091	30.668	6.0915e-06	58.812	502.275	242.895	238.309	166.052	287.031	286.539	165.142	170.347	267.660	304.016	168.897	171.562	172.565	177.377	289.977	174.833	-8191	255	
1781.608	1	1	0	0	0.18439	0.18408	0.074437	0.18434	0.19112	0.17178	0.30423	0.21322	0.090301	0.039022	0.2693	0.1126	0.1351	0.21644	0.076704	0.1174	-2.3146	-3.3063	-3.1146	-3.0625	-3.25	-2.9854	-3.1562	-3.1958	-3.0104	-3.0792	-3.3646	-2.8937	-3.3208	-3.1437	-2.9583	-3.4333	443.055	188.171	250.899	492.821	222.833	218.948	356.289	289.282	428.506	430.818	505.571	428.035	485.600	345.856	196.196	369.671	0.00093488	0.00027115	6.9346e-05	228.63	2.7169e-06	3.3358e-06	345.73	96.904	3.4372e-06	3.3391e-06	167.13	95.632	53.903	28.042	2.9277e-06	53.533	0.00073551	0.00056252	0.00017969	245.36	5.1985e-06	7.3155e-06	370.52	104.32	6.08e-06	6.2376e-06	180.04	102.69	57.839	30.493	6.1604e-06	58.319	502.472	238.897	239.247	165.759	282.171	295.849	165.023	170.447	299.439	302.646	169.202	171.558	172.623	177.210	293.637	174.957	-8191	255	
1781.729	1	1	0	0	0.14886	0.044474	0.2033	0.20232	0.19838	0.10193	0.18918	0.35531	0.14596	0.038558	0.29193	0.30081	0.076132	0.27762	0.084536	0.12041	-2.4542	-3.1167	-3.1479	-2.7146	-3.1833	-2.9542	-3.0229	-3.1979	-2.8521	-3.0958	-3.3833	-3.1208	-3.3167	-3.2062	-3.0021	-3.2917	375.467	381.681	202.854	156.905	253.712	414.440	464.762	508.030	158.657	193.746	498.852	385.715	294.792	268.249	395.744	431.838	0.00091727	0.00029036	0.0001037	229.21	1.7973e-06	1.911e-06	345.47	97.198	3.7324e-06	3.7896e-06	167.72	95.715	54.13	28.221	2.7938e-06	53.819	0.00073136	0.00056472	0.00018126	245.91	5.2252e-06	7.2956e-06	371.13	104.78	6.3075e-06	6.5385e-06	180.77	103.05	58.181	30.729	6.6267e-06	58.64	502.484	220.577	231.111	165.736	307.421	289.540	164.994	170.367	275.945	295.162	169.065	171.521	172.339	177.227	292.782	175.126	-8191	255	
1781.825	1	1	0	0	0.15015	0.27372	0.15355	0.085733	0.027517	0.15663	0.16656	0.036401	0.2084	0.10859	0.10086	0.09182	0.22347	0.1327	0.24138	0.20339	-2.7	-2.9833	-3.2125	-2.9521	-3.2438	-3.3	-3.1542	-3.2521	-3.0042	-2.9125	-3.2	-2.8833	-3.2875	-3.1667	-2.8458	-3.1521	404.460	188.925	497.521	261.251	255.827	221.802	194.889	511.628	240.300	229.548	413.007	363.641	348.642	440.115	466.629	380.364	0.00095522	0.00029055	9.3907e-05	228.05	3.072e-06	2.115e-06	346.57	97.61	4.8158e-06	2.3345e-06	168.1	95.802	54.493	28.258	3.7708e-06	53.924	0.00073813	0.00058991	0.0001781	245.91	5.4018e-06	7.1219e-06	371.4	105.12	6.4985e-06	6.5299e-06	181.28	103.52	58.525	30.805	6.7342e-06	58.837	501.370	223.450	256.200	165.592	294.540	325.632	165.242	170.587	263.240	292.246	169.039	171.771	172.208	176.961	273.874	175.156	-8191	255	
1781.896	1	1	0	0	0.10092	0.19637	0.22867	0.17735	0.11107	0.13268	0.41165	0.11265	0.16408	0.061584	0.078844	0.47142	0.065249	0.30921	0.13197	0.055376	-2.5583	-2.9792	-3.3833	-2.8125	-3.0896	-3.1771	-3.15	-3.2729	-3.0687	-3.1521	-3.2958	-3.1562	-3.0625	-3.1708	-3.1688	-3.225	410.119	188.100	483.882	318.193	443.701	451.466	412.655	327.742	466.103	159.436	179.588	492.312	343.458	484.501	165.492	318.968	0.00092697	0.0004379	8.1245e-05	229.8	1.8841e-06	2.906e-06	347.46	97.934	2.8399e-06	3.2871e-06	169.41	96.067	54.432	28.237	4.2401e-06	54.119	0.00075576	0.00063239	0.00016668	246.37	5.3976e-06	7.3552e-06	372.47	105.01	6.5729e-06	6.5162e-06	182.01	103.68	58.328	30.76	6.5419e-06	58.863	502.077	246.736	248.611	165.762	287.432	303.127	165.061	170.417	265.034	275.365	169.047	171.539	172.625	177.140	275.759	174.987	-8191	255	
1782.017	1	1	0	0	0.17382	0.13385	0.17631	0.29031	0.17205	0.083596	0.1233	0.027072	0.052503	0.090533	0.098424	0.18347	0.048715	0.051786	0.19192	0.042882	-2.6354	-3.0854	-3.3083	-2.9562	-3.275	-3.2188	-3.1521	-3.1896	-3.1354	-2.9375	-3.4292	-2.9646	-3.0208	-3.4021	-3.0854	-3.3646	279.420	382.633	243.093	289.343	177.285	266.853	374.984	417.710	492.869	442.290	245.407	430.420	494.312	482.875	438.376	251.868	0.00098243	0.0002683	5.8217e-05	227.89	3.2264e-06	3.2832e-06	346.74	97.199	3.7339e-06	3.4195e-06	167.09	94.718	53.35	27.858	3.6242e-06	53.307	0.00076473	0.0005975	0.00016221	245.39	5.6847e-06	6.9654e-06	370.94	104.38	6.5099e-06	6.8575e-06	179.34	102.02	57.45	30.21	6.7841e-06	57.874	502.454	239.630	228.203	165.931	306.445	305.204	165.102	170.875	263.985	307.221	168.965	171.314	172.185	177.017	267.822	174.934	-8191	255	
1782.113	1	1	0	0	0.19751	0.29431	0.2578	0.049073	0.2633	0.039793	0.26141	0.10443	0.08207	0.11915	0.020986	0.14009	0.035393	0.15136	0.053217	0.15779	-2.5542	-2.8875	-3.3479	-2.8542	-2.9833	-3.4479	-2.7833	-3.0375	-3.2521	-2.7417	-3.3083	-3.0417	-3.0625	-3.3417	-2.9479	-3.1667	422.456	361.782	230.572	395.231	212.649	508.227	435.245	452.064	341.061	485.519	354.562	468.543	407.063	428.266	265.741	400.108	0.00094057	0.00035634	0.00010479	228.04	2.6924e-06	3.3015e-06	342.56	96.278	3.1536e-06	3.9526e-06	166.25	94.533	53.454	27.787	4.2566e-06	53.137	0.00074068	0.00061843	0.00016017	244.28	5.7719e-06	6.5981e-06	367.8	103.55	6.2002e-06	6.818e-06	178.38	101.78	57.401	30.226	7.0158e-06	57.865	502.220	236.325	247.729	166.146	287.364	297.528	165.153	170.370	285.281	317.950	168.890	171.526	172.580	177.157	279.787	175.253	-8191	255	
1782.209	1	1	0	0	0.19901	0.20747	0.11971	0.11077	0.091256	0.19265	0.14862	0.15622	0.24661	0.17222	0.089119	0.34752	0.17239	0.24364	0.1125	0.076953	-2.9	-2.7188	-3.15	-2.8896	-2.8563	-3.4396	-2.8271	-3.1063	-3.1896	-3.0896	-3.2417	-3.025	-3.0687	-3.1333	-3.0771	-3.1896	441.716	488.656	371.257	332.787	360.702	459.225	403.986	502.037	177.479	479.649	233.316	437.159	461.415	172.558	336.777	179.008	0.00095185	0.00036546	6.7983e-05	227.19	2.6996e-06	3.8711e-06	342.46	96.219	3.9829e-06	3.4369e-06	165.28	94.352	53.353	27.681	3.3289e-06	52.77	0.00073686	0.00062207	0.00016756	244.14	5.8965e-06	6.7035e-06	367.43	103.22	6.1594e-06	7.0166e-06	178.08	101.55	57.3	30.028	6.8076e-06	57.618	503.156	225.973	235.169	165.793	275.477	323.450	165.061	170.356	285.460	304.122	168.780	171.574	172.514	177.123	271.623	175.109	-8191	255	
1782.305	1	1	0	0	0.32386	0.08385	0.13938	0.18927	0.12426	0.15509	0.23444	0.093983	0.18053	0.10827	0.31187	0.050802	0.10545	0.216	0.35699	0.29834	-2.8833	-2.825	-3.0354	-3.075	-2.8792	-3.3917	-2.9667	-3.1	-3.3667	-2.9667	-3.3646	-3.1479	-2.8521	-3.2938	-3.0792	-3.1	282.869	423.984	430.540	294.206	355.145	283.124	466.067	163.743	350.149	317.052	252.918	400.175	160.954	441.281	270.504	492.765	0.00094531	0.00031964	8.636e-05	227.69	2.4957e-06	2.4264e-06	343.26	95.581	4.5171e-06	3.8863e-06	165.31	94.279	52.964	27.512	2.9539e-06	52.925	0.00073638	0.00064681	0.00015834	243.07	5.7325e-06	6.3051e-06	366.88	102.89	6.2459e-06	7.0561e-06	178.11	101.53	57.073	29.92	7.0029e-06	57.55	502.919	234.495	242.059	165.864	272.112	314.528	165.350	170.641	266.683	285.576	168.988	171.748	172.376	177.346	280.540	175.037	-8191	255	
1782.424	1	1	0	0	0.1441	0.067006	0.21928	0.054258	0.093777	0.14522	0.15333	0.074086	0.21092	0.19862	0.066788	0.29719	0.2624	0.12019	0.1173	0.051368	-2.9167	-2.9042	-3.2667	-3.0812	-3.0312	-3.475	-2.9979	-3.0687	-3.4	-3.0125	-3.0792	-3.2417	-2.9542	-3.1396	-3.1562	-2.9417	247.597	478.976	387.654	346.438	188.532	273.467	454.552	502.870	499.968	284.389	220.300	269.425	449.479	336.404	468.597	494.434	0.00092372	0.00028845	0.00010299	226.77	2.6376e-06	3.0507e-06	339.39	94.587	4.0903e-06	2.866e-06	163.3	92.996	52.126	27.188	3.6493e-06	52.328	0.0007103	0.00064969	0.00015625	242.72	5.9007e-06	6.1374e-06	364.82	101.84	5.8568e-06	7.0458e-06	176.39	100.32	56.246	29.56	6.9272e-06	56.963	502.600	223.464	238.663	165.736	281.663	286.064	165.540	170.474	280.336	307.808	169.130	171.610	172.536	177.301	270.939	175.351	-8191	255	
1782.520	1	1	0	0	0.18158	0.2197	0.11569	0.1107	0.095547	0.12105	0.34464	0.18665	0.10391	0.12281	0.095843	0.1488	0.20707	0.27261	0.24703	0.22067	-2.8375	-3.0042	-3.125	-3.1333	-3.0333	-3.2417	-3.1417	-3.075	-3.2812	-2.9354	-3.1792	-3.275	-2.9771	-3.3063	-3.1937	-3.0417	280.986	510.106	175.345	473.960	491.723	214.740	467.596	350.625	492.241	178.960	468.921	273.606	445.559	325.299	404.547	401.017	0.00093568	0.00034281	0.00010397	225	2.185e-06	3.2164e-06	341	95.062	4.2744e-06	3.764e-06	163.67	93.901	52.991	27.54	3.5309e-06	52.842	0.00070472	0.00064263	0.00016328	241.96	5.8507e-06	6.4408e-06	364.65	102.03	5.7623e-06	7.1223e-06	176.8	100.9	56.812	29.868	6.7993e-06	57.44	503.445	234.786	243.167	165.724	279.939	312.271	165.186	170.879	272.263	296.101	169.001	171.627	172.543	177.357	266.456	175.282	-8191	255	
1782.617	1	1	0	0	0.19231	0.21416	0.098303	0.10855	0.0067803	0.24169	0.15261	0.1865	0.035692	0.059279	0.19405	0.21653	0.11166	0.11862	0.27435	0.20818	-2.8354	-2.9833	-3.0396	-3.2417	-2.9333	-3.1063	-3.2438	-3.1125	-2.9271	-3.1979	-3.1229	-3.4479	-2.8688	-3.3125	-3.0708	-3.2125	399.210	215.918	461.184	297.218	484.730	221.664	444.408	266.864	464.179	204.076	444.302	434.962	172.079	315.580	328.239	449.659	0.00093601	0.0002277	0.00010275	227.62	2.1698e-06	3.7072e-06	340.25	95.185	3.1573e-06	3.2551e-06	164.21	93.857	53.117	27.368	3.9127e-06	52.845	0.00070574	0.00065432	0.00017135	243.19	5.7994e-06	6.4382e-06	365.52	102.44	5.4619e-06	7.6623e-06	177.34	100.89	56.957	29.831	7.0445e-06	57.465	501.883	235.030	243.993	165.791	284.153	289.189	165.227	170.320	266.455	292.092	168.850	171.807	172.437	177.262	272.792	175.149	-8191	255	
1782.713	1	1	0	0	0.079405	0.14928	0.025298	0.24088	0.19119	0.045021	0.095072	0.18766	0.19905	0.1889	0.32539	0.087203	0.038249	0.2105	0.23853	0.33457	-2.7042	-2.9333	-2.9354	-3.2062	-3.1375	-3.2021	-3.2979	-2.8833	-3.4146	-3.2875	-2.9667	-3.2313	-2.9354	-3.0771	-3.3729	-3.025	495.067	174.208	258.229	303.037	458.949	170.664	494.246	312.497	228.229	362.370	291.336	434.633	241.301	458.897	372.123	478.282	0.00092091	0.00031217	8.0127e-05	226.02	3.4087e-06	2.7484e-06	340.79	95.441	2.887e-06	3.2743e-06	165.39	95.154	53.304	27.648	3.9708e-06	53.202	0.00069095	0.00067647	0.00017113	242.4	6.0288e-06	6.3794e-06	366.3	102.77	5.4147e-06	7.431e-06	178.76	102.04	57.308	30.149	6.8674e-06	57.958	501.057	236.122	239.617	165.750	266.059	288.547	165.349	170.398	269.100	295.555	169.124	171.777	172.442	177.332	264.687	175.358	-8191	255	
1782.809	1	1	0	0	0.11361	0.23773	0.13831	0.18366	0.18228	0.12521	0.12366	0.19646	0.19553	0.20015	0.13898	0.13732	0.13621	0.27111	0.25423	0.38732	-2.7208	-3.1333	-3.0354	-3.3229	-2.9854	-2.9437	-3.1167	-2.9396	-3.1771	-3.1729	-3.0875	-3.5458	-3.1458	-3.15	-3.2646	-2.9625	296.692	152.826	372.516	283.960	309.292	196.160	415.139	203.945	478.287	470.703	481.895	405.106	443.182	164.392	390.690	460.143	0.00092076	0.00040968	8.491e-05	227.54	2.2088e-06	2.4349e-06	340.65	95.594	3.3702e-06	2.2885e-06	165.22	94.405	52.964	27.453	4.4503e-06	52.791	0.00070276	0.00068345	0.00017612	243.42	6.4967e-06	6.694e-06	366.61	102.89	5.464e-06	7.6158e-06	178.54	101.61	56.967	29.935	6.7183e-06	57.403	502.827	204.615	250.378	166.043	295.693	296.961	165.320	170.385	286.130	306.449	169.140	171.753	172.595	177.469	257.483	175.173	-8191	255	
1782.905	1	1	0	0	0.35349	0.097356	0.1662	0.13482	0.071608	0.10503	0.053816	0.067282	0.18304	0.17222	0.15373	0.18092	0.036515	0.19795	0.097114	0.036271	-2.8521	-3.0938	-2.8979	-3.1604	-3.1896	-3.2375	-3.3479	-2.9458	-3.0917	-3.2417	-2.825	-3.2792	-3.1104	-2.9792	-3.4146	-2.9354	348.069	414.550	199.839	277.238	355.189	417.355	348.510	444.268	453.417	451.086	241.471	475.505	199.373	155.276	268.862	170.378	0.00092768	0.00023328	7.6106e-05	227.69	2.2383e-06	2.3598e-06	338.73	95.794	3.0136e-06	2.1931e-06	165.32	93.758	53.06	27.499	3.8368e-06	52.749	0.00070797	0.00065917	0.00017681	243.15	6.3116e-06	6.6586e-06	365.03	102.66	5.7545e-06	7.3734e-06	177.95	101.15	57.051	29.981	6.448e-06	57.575	503.799	244.590	229.942	166.125	289.699	312.518	165.310	170.636	270.646	285.659	168.981	171.689	172.434	177.414	268.809	175.234	-8191	255	
1783.026	1	1	0	0	0.087166	0.090294	0.13464	0.20212	0.16609	0.16706	0.16513	0.27716	0.13339	0.20027	0.045895	0.12235	0.18832	0.18162	0.13309	0.1525	-2.675	-3.1229	-2.9167	-3.2875	-3.0729	-2.9417	-3.4167	-3.025	-3.175	-3.4333	-2.8458	-3.4521	-3.1771	-2.9354	-3.3229	-3.0917	266.162	221.416	212.735	255.864	347.310	169.432	424.473	411.807	157.929	495.008	508.184	463.322	509.350	437.077	292.119	509.068	0.00095247	0.00023108	8.7822e-05	228.44	2.414e-06	3.343e-06	341.01	96.028	3.6682e-06	4.5938e-06	166.35	94.496	53.426	27.646	3.0047e-06	53.321	0.0006966	0.00063975	0.00017373	244.34	6.3848e-06	6.7372e-06	366.68	103.26	5.8296e-06	7.0682e-06	179.02	101.85	57.341	30.175	6.0915e-06	58.121	503.121	240.908	239.619	165.572	275.558	297.584	165.318	170.594	274.859	295.931	169.153	171.572	172.693	177.429	262.182	175.236	-8191	255	
1783.120	1	1	0	0	0.16463	0.11638	0.1274	0.17816	0.37141	0.27255	0.22267	0.065641	0.13543	0.26265	0.16602	0.22777	0.18031	0.3214	0.097248	0.17612	-2.5062	-3.0354	-2.9583	-3.0479	-3.1937	-2.9354	-3.1688	-3.2146	-2.9208	-3.2812	-2.8854	-3.3	-3.3187	-2.9292	-3.35	-3.1542	248.728	155.921	220.310	439.348	357.645	230.210	492.716	487.084	294.676	208.918	492.879	462.886	418.607	163.664	169.618	500.273	0.00094437	0.00032431	9.3942e-05	228.71	3.4644e-06	3.4459e-06	344.05	96.734	3.2427e-06	3.6709e-06	168.35	96.358	54.504	28.415	4.7127e-06	54.333	0.00071704	0.00063057	0.00018367	245.26	6.18e-06	7.0406e-06	370.32	104.42	5.7874e-06	6.6959e-06	181.55	103.83	58.528	30.912	6.1452e-06	59.404	502.203	242.325	247.237	165.790	291.327	296.158	165.142	170.699	272.527	293.886	169.108	171.601	172.480	177.586	287.412	175.433	-8191	255	
1783.194	1	1	0	0	0.037679	0.13223	0.29173	0.17349	0.10007	0.14022	0.010078	0.13816	0.11505	0.16066	0.4564	0.29621	0.14127	0.10672	0.29036	0.29466	-2.4792	-3.3125	-2.8021	-3.2875	-3.3104	-2.8521	-3.1688	-2.9729	-2.9354	-3.3771	-3.1813	-2.9021	-3.2771	-3.1125	-3.1625	-3.2583	271.311	207.993	415.036	454.463	206.437	488.714	163.172	410.768	296.769	485.121	405.273	327.785	203.585	469.529	332.359	488.485	0.00093618	0.00034182	9.3844e-05	231.27	2.3246e-06	3.2673e-06	348.78	98.39	3.5097e-06	1.8132e-06	169.46	96.646	54.577	28.396	3.403e-06	54.226	0.0007425	0.00064096	0.00018619	248.37	6.37e-06	7.1098e-06	374.12	105.91	5.9505e-06	6.9082e-06	183.28	104.35	58.533	30.935	6.0423e-06	59.236	503.015	235.816	262.596	165.861	278.064	308.678	165.221	170.846	253.883	277.164	169.407	171.784	172.703	177.353	286.131	175.317	-8191	255	
1783.290	1	1	0	0	0.039074	0.11042	0.18129	0.096635	0.28491	0.088278	0.25354	0.15757	0.14399	0.029554	0.059752	0.065123	0.20018	0.051301	0.043418	0.15765	-2.5333	-3.125	-2.9417	-3.0729	-3.3187	-2.9	-3.1667	-3.1188	-3.0042	-3.3917	-3.0521	-3.2917	-3.1708	-2.8646	-3.2208	-3.2083	500.378	324.670	276.501	459.217	310.001	245.285	492.650	183.948	390.445	256.488	240.917	153.570	370.616	502.940	502.558	386.239	0.00098401	0.0003504	8.7042e-05	229.38	2.8146e-06	3.35e-06	347.94	97.561	3.547e-06	2.3389e-06	168.91	95.713	54.277	28.273	3.7644e-06	54.007	0.00074239	0.00062754	0.00019141	247.57	5.8479e-06	7.2022e-06	371.48	105.1	6.1694e-06	6.2626e-06	181.88	103.17	58.218	30.776	6.2944e-06	58.814	501.989	245.761	234.593	165.980	295.561	297.556	165.517	170.652	262.576	277.649	169.278	171.462	172.577	177.361	288.086	175.306	-8191	255	
1783.386	1	1	0	0	0.043963	0.13107	0.057425	0.13561	0.196	0.18227	0.077001	0.16449	0.15865	0.13621	0.25453	0.17252	0.20902	0.3203	0.18577	0.23262	-2.4083	-3.2375	-3.0417	-3.1083	-3.3479	-2.85	-3.2562	-3.1688	-2.9229	-3.3438	-3.075	-3.075	-3.4042	-3.0187	-3.0979	-3.3292	433.953	419.630	186.274	190.538	444.152	176.916	427.226	228.535	246.353	377.761	436.867	433.465	459.788	468.683	435.843	368.628	0.00093578	0.00031496	8.95e-05	229.89	2.651e-06	2.0422e-06	346.84	97.075	3.8161e-06	3.4148e-06	168.05	95.82	53.936	28.062	4.866e-06	53.839	0.0007201	0.0005758	0.00018692	247.15	5.7811e-06	7.0259e-06	371.27	104.92	6.0542e-06	6.1706e-06	181.39	103.17	57.94	30.607	6.2043e-06	58.603	503.459	240.529	230.424	166.233	281.609	288.949	165.189	170.865	256.041	312.633	168.983	171.600	172.669	177.644	274.449	175.287	-8191	255	
1783.505	1	1	0	0	0.15342	0.12207	0.070828	0.17003	0.3145	0.15808	0.13558	0.42892	0.095446	0.172	0.16402	0.23722	0.28562	0.068946	0.059431	0.18407	-2.5396	-3.1375	-2.9958	-2.9896	-3.2188	-2.8833	-3.3021	-3.2188	-2.875	-3.2792	-3.0938	-3.0458	-3.225	-3	-3.0021	-3.4396	457.857	354.821	296.009	203.331	410.559	203.423	181.910	427.211	407.722	198.404	325.635	302.959	420.495	482.933	479.098	456.633	0.00095292	0.00028236	8.202e-05	229.22	3.2876e-06	2.0924e-06	347.15	97.07	4.2141e-06	2.8297e-06	168.79	95.923	54.11	28.342	3.1731e-06	54.218	0.00073558	0.00056981	0.00018502	246.49	5.6411e-06	7.3319e-06	372.19	104.76	6.2645e-06	6.3993e-06	182.13	103.37	58.131	30.749	6.442e-06	59.094	502.628	226.299	241.373	166.060	284.534	316.997	165.173	170.651	280.751	305.761	169.148	171.659	172.612	177.462	269.248	175.203	-8191	255	
1783.601	1	1	0	0	0.2115	0.055203	0.17357	0.081315	0.22715	0.21591	0.10918	0.1146	0.063681	0.22327	0.018901	0.093357	0.20041	0.11116	0.18424	0.12041	-2.4229	-3.2208	-3.1688	-2.9271	-3.2687	-2.9646	-3.1417	-3.1958	-2.9417	-3.3271	-3.3625	-2.6979	-3.4188	-3.1667	-2.9792	-3.4167	494.148	449.797	498.089	467.029	460.088	395.746	366.138	243.697	205.198	278.449	511.854	504.435	490.695	449.932	448.437	461.260	0.0010009	0.00024958	9.8048e-05	230.32	2.3767e-06	3.333e-06	349.03	97.796	3.5564e-06	2.9131e-06	169.87	96.44	54.435	28.325	4.1116e-06	54.37	0.00075722	0.00056047	0.00019391	247.02	5.411e-06	7.5428e-06	373.4	105.23	6.3003e-06	6.6744e-06	183.03	104.06	58.395	30.851	6.4851e-06	59.143	502.347	233.225	239.828	165.917	277.808	297.474	165.283	170.605	282.099	291.457	169.130	171.668	172.741	177.111	269.126	175.250	-8191	255	
1783.697	1	1	0	0	0.18621	0.082493	0.12354	0.19566	0.15269	0.15429	0.2396	0.080805	0.28694	0.11965	0.20918	0.29515	0.24461	0.088471	0.034397	0.2615	-2.6188	-3.0687	-3.0729	-3.0167	-3.3708	-3.0354	-2.9938	-3.1208	-2.9333	-3.0438	-3.2958	-3.0708	-3.3937	-3.1937	-2.9208	-3.5333	291.393	479.989	394.292	469.146	192.689	222.507	276.599	340.970	512.350	276.939	428.507	489.967	475.744	372.769	339.427	385.186	0.00093759	0.00028766	7.1854e-05	230.37	3.5924e-06	1.9185e-06	347.07	97.866	3.2892e-06	3.3749e-06	168.76	96.558	54.054	28.439	2.5381e-06	54.119	0.00072855	0.00056814	0.0001872	246.58	5.3308e-06	7.4002e-06	372.04	104.83	6.3303e-06	6.5428e-06	182.29	103.54	58.255	30.855	6.5858e-06	59.001	502.285	213.279	280.969	165.754	290.475	284.929	165.485	170.577	279.704	308.886	168.947	171.437	172.442	177.235	286.582	175.361	-8191	255	
1783.818	1	1	0	0	0.1352	0.11788	0.082479	0.33561	0.17002	0.14985	0.033979	0.19669	0.35898	0.15471	0.30778	0.23076	0.13151	0.26747	0.0098475	0.10101	-2.6521	-2.9708	-3.1333	-2.9062	-3.2625	-3.2417	-2.9542	-3.2292	-2.9875	-2.9958	-3.2125	-2.9104	-3.1688	-3.075	-2.9417	-3.2625	499.014	185.112	286.472	329.674	361.672	364.910	258.225	225.668	184.787	369.404	423.374	371.915	221.079	170.012	479.999	465.498	0.00095539	0.00024243	0.00010725	230.65	2.3912e-06	2.2269e-06	347.2	97.192	3.1747e-06	4.6733e-06	168.55	95.661	54.043	28.251	4.5766e-06	53.938	0.00075365	0.00058976	0.00018481	247.01	5.5081e-06	7.656e-06	371.7	104.8	6.726e-06	6.8549e-06	182.05	103.21	58.056	30.693	6.7115e-06	58.715	503.000	233.243	261.570	166.000	284.505	326.306	165.422	170.682	260.778	311.207	168.997	171.606	172.414	177.329	277.801	175.296	-8191	255	
1783.889	1	1	0	0	0.075298	0.1251	0.26781	0.076662	0.14669	0.16995	0.14899	0.26592	0.13172	0.14177	0.22377	0.27094	0.099029	0.16866	0.1828	0.054329	-2.5563	-2.9104	-3.125	-2.7771	-3.1708	-3.1271	-3.0333	-3.2313	-3.0125	-2.9708	-3.2	-2.9646	-3.1437	-3.1833	-2.9313	-3.2354	345.897	234.707	347.206	331.905	204.804	359.199	344.872	412.707	301.391	294.746	461.937	168.335	498.204	197.557	424.231	346.986	0.00096191	0.00027739	0.00010855	228.06	2.4328e-06	3.1234e-06	346.42	96.939	3.3885e-06	3.3451e-06	168.07	95.975	54.032	28.42	3.587e-06	54.452	0.00076301	0.0006132	0.00017195	245.75	5.4279e-06	7.5402e-06	371.06	104.43	6.6952e-06	6.9177e-06	181.81	103.6	58.166	30.798	6.7433e-06	59.376	502.157	251.709	220.984	165.614	279.685	298.398	165.302	170.382	263.629	305.979	169.145	171.867	172.590	177.479	260.329	175.129	-8191	255	
1783.985	1	1	0	0	0.074627	0.21632	0.26223	0.11801	0.26976	0.021334	0.24413	0.13527	0.23715	0.17973	0.172	0.18991	0.14171	0.075564	0.022906	0.28328	-2.7313	-3	-3.0521	-2.7917	-3.1583	-3.0812	-2.9208	-3.3521	-3.1042	-3.0187	-3.3979	-3.1188	-3.0896	-3.4854	-2.8063	-3.2646	327.961	250.898	370.843	255.431	443.622	431.557	450.955	153.309	494.087	338.359	452.144	423.908	472.985	476.918	193.132	467.081	0.00095525	0.00028888	8.9998e-05	229.4	2.4579e-06	3.0509e-06	348.82	97.814	3.8599e-06	2.5247e-06	171.07	97.276	54.757	28.47	3.0293e-06	54.94	0.00076484	0.00061859	0.00016924	247	5.6087e-06	7.3855e-06	373.98	105.44	6.7059e-06	7.0664e-06	184.18	104.86	58.777	31.099	6.9212e-06	59.854	503.567	234.305	240.896	165.866	282.439	296.772	165.465	170.397	299.509	276.603	169.212	171.751	172.624	177.567	265.903	175.205	-8191	255	
1784.106	1	1	0	0	0.39342	0.30166	0.060582	0.10259	0.2955	0.15533	0.12616	0.19504	0.30733	0.1359	0.18835	0.17101	0.24117	0.16589	0.23518	0.15582	-2.8792	-2.8021	-3.2979	-2.9979	-3.1604	-3.3479	-3.0396	-3.0958	-3.1208	-3.075	-3.4917	-3.0729	-3.0667	-3.35	-2.8083	-3.1708	387.229	452.578	477.462	208.419	330.990	476.275	340.753	190.669	277.812	370.210	153.605	482.575	334.041	379.783	309.517	471.114	0.00095949	0.00036143	0.00010031	231.15	2.9133e-06	4.1854e-06	348.02	98.73	3.265e-06	3.1233e-06	169.52	97.062	54.516	28.557	3.5708e-06	54.597	0.00076822	0.0006418	0.00017275	248.17	5.9373e-06	7.3051e-06	374.22	105.68	6.6558e-06	6.6838e-06	183.5	104.56	58.607	30.997	6.8795e-06	59.487	501.816	231.021	236.980	166.121	288.764	287.603	165.359	170.643	293.067	309.292	169.173	171.607	172.630	177.454	280.292	175.223	-8191	255	
1784.200	1	1	0	0	0.13523	0.15444	0.11119	0.17968	0.069334	0.15395	0.18172	0.17183	0.06343	0.044835	0.12478	0.084705	0.077145	0.19705	0.03488	0.30221	-2.5812	-2.9583	-3.2479	-2.9938	-3.1125	-3.2583	-2.9833	-3.0167	-3.1833	-2.8917	-3.2271	-3.1	-2.9938	-3.3896	-3.0479	-3.2542	439.120	441.579	261.958	206.110	311.743	255.463	424.599	168.881	159.745	371.537	443.323	435.743	364.734	190.184	173.800	485.990	0.00096721	0.00040526	0.00012104	230.86	2.6615e-06	3.1306e-06	349.44	98.546	2.9057e-06	2.7924e-06	169.19	96.642	54.225	28.27	3.7956e-06	54.501	0.00076917	0.00064491	0.00016862	247.89	5.8852e-06	6.866e-06	374.29	105.57	6.6694e-06	7.1412e-06	182.77	104.18	58.354	30.82	7.1006e-06	59.145	502.516	240.630	239.606	165.982	261.228	289.355	165.094	170.847	278.347	267.731	168.946	171.731	172.455	177.282	285.037	175.140	-8191	255	
1784.298	1	1	0	0	0.40047	0.21888	0.16988	0.10238	0.14492	0.025168	0.16517	0.098587	0.095626	0.09755	0.10871	0.29819	0.17568	0.21838	0.23832	0.054234	-2.7938	-2.8625	-3.1146	-3.2438	-3.0062	-3.1771	-2.9333	-3.1021	-3.2521	-2.8979	-3.2979	-3.1125	-2.8896	-3.1896	-3.0479	-3.1813	169.839	273.889	419.395	506.021	298.866	241.420	424.168	457.992	258.060	198.159	409.056	354.204	210.817	397.311	327.435	440.303	0.00092152	0.00032913	7.734e-05	230.38	2.9284e-06	3.3786e-06	346.86	97.67	3.5504e-06	2.7637e-06	168.6	96.646	53.952	28.208	4.2145e-06	54.449	0.00074236	0.00063459	0.00016455	246.75	5.7262e-06	6.5462e-06	372.23	104.99	6.4233e-06	7.0544e-06	182.36	104.09	58.183	30.741	7.1944e-06	59.272	503.562	221.620	236.534	166.076	291.434	288.971	165.133	170.660	248.572	294.357	169.076	171.584	172.490	177.385	267.938	175.178	-8191	255	
1784.417	1	1	0	0	0.12771	0.0994	0.31278	0.06054	0.21192	0.17626	0.20826	0.16033	0.040861	0.29122	0.24572	0.137	0.11424	0.056975	0.25332	0.26184	-2.8187	-2.8396	-3.0604	-3.1479	-2.9375	-3.2167	-3.1771	-3.0333	-3.3396	-3.1167	-3.1875	-3.0625	-2.9062	-3.2354	-2.8979	-3.1542	379.928	233.960	485.119	358.442	311.482	210.943	451.243	383.558	174.871	396.835	399.281	446.170	175.304	456.553	503.022	456.181	0.0010097	0.00038541	8.0372e-05	230.34	3.4258e-06	2.6722e-06	348.37	98.883	4.218e-06	2.8603e-06	171.35	97.753	55.041	28.723	2.8105e-06	55.239	0.00075187	0.00065401	0.00016623	247.4	6.0611e-06	6.5048e-06	374.65	106.18	6.2481e-06	7.3527e-06	184.76	105.42	59.051	31.217	7.2482e-06	60.189	501.765	222.101	257.162	165.854	275.641	321.160	165.189	170.600	289.215	293.517	169.127	171.435	172.595	177.205	261.114	175.176	-8191	255	
1784.489	1	1	0	0	0.2011	0.043161	0.24733	0.19555	0.15534	0.13127	0.077269	0.33501	0.18588	0.1989	0.15472	0.099651	0.075256	0.046766	0.23453	0.15583	-2.9688	-2.9333	-3.1813	-3.2104	-2.9042	-3.2458	-3.0125	-3.0479	-3.1729	-2.9958	-3.2354	-3.2562	-2.9167	-3.3292	-3.1104	-3.0167	418.258	468.069	324.581	373.499	350.190	441.085	345.866	440.020	351.917	469.843	480.023	511.854	377.630	175.664	489.716	377.034	0.00096109	0.00023084	0.00010854	231.83	3.4441e-06	3.1001e-06	351.61	98.877	2.5897e-06	3.7509e-06	172.16	98.289	54.886	28.634	3.5356e-06	55.031	0.00073649	0.00068823	0.00016786	248.06	5.9922e-06	6.5661e-06	376.6	106.5	5.7309e-06	7.4946e-06	185.17	105.57	59.094	31.259	7.1536e-06	59.967	501.668	239.454	245.919	165.929	286.834	277.679	165.326	170.559	268.566	302.764	169.077	171.577	172.487	177.083	281.656	175.242	-8191	255	
1784.585	1	1	0	0	0.11179	0.14331	0.2016	0.12059	0.075059	0.19833	0.25221	0.083924	0.043872	0.079032	0.12646	0.16528	0.13545	0.065086	0.19802	0.17146	-2.7167	-3.0312	-3.0187	-3.2062	-2.8167	-3.4417	-3.0812	-2.8937	-3.2438	-3.3375	-3.0396	-3.2833	-2.9938	-3.2542	-3.0833	-2.9417	281.941	361.160	286.720	216.048	480.674	398.238	175.532	457.516	321.905	249.062	368.862	506.412	170.578	220.548	230.617	404.603	0.00097794	0.00025426	7.6261e-05	232.14	2.3663e-06	2.9837e-06	351.32	99.536	3.683e-06	3.3624e-06	170.93	98.128	54.993	28.732	3.6999e-06	54.902	0.00073547	0.00068739	0.00016825	248.74	6.0865e-06	6.5013e-06	376.34	106.83	5.8289e-06	7.7216e-06	185.03	105.59	59.178	31.189	7.3299e-06	59.81	501.557	232.519	241.467	165.883	288.013	299.919	165.208	170.577	270.204	323.454	168.936	171.709	172.661	177.162	291.288	174.893	-8191	255	
1784.681	1	1	0	0	0.12873	0.011891	0.41703	0.18435	0.08479	0.13463	0.29365	0.095254	0.12116	0.1473	0.10881	0.15303	0.29403	0.27412	0.2524	0.26862	-3.0917	-3.0312	-2.9896	-3.3083	-3.0771	-3.2125	-3.0521	-2.9333	-3.125	-3.0812	-2.9688	-3.2625	-2.875	-3.4437	-3.1688	-3.1188	454.207	365.554	364.229	237.546	360.361	463.166	456.746	214.278	499.508	227.701	412.353	376.515	217.433	491.600	431.045	449.196	0.00099942	0.00025105	0.0001056	231.48	3.2878e-06	3.871e-06	350.12	98.942	3.7185e-06	3.9833e-06	171.19	97.027	54.529	28.371	3.4988e-06	54.626	0.0007299	0.00070992	0.00017432	247.86	6.3236e-06	6.5653e-06	375.3	105.99	5.5928e-06	7.5307e-06	184.47	104.61	58.516	30.8	7.0756e-06	59.451	501.970	230.473	250.580	165.809	290.261	285.975	165.424	170.499	272.529	301.248	169.039	171.624	172.385	177.074	277.024	175.173	-8191	255	
1784.802	1	1	0	0	0.053205	0.22389	0.18769	0.23126	0.084558	0.33845	0.087503	0.10651	0.30173	0.24149	0.12509	0.14284	0.10451	0.10896	0.1123	0.16608	-2.9083	-2.9604	-2.9	-3.2125	-2.9104	-3.1771	-3.1583	-2.9875	-3.1354	-2.9708	-2.9313	-3.1708	-2.9938	-3.2042	-3.1542	-3.0687	196.187	266.929	236.621	392.721	263.008	172.480	500.363	455.631	371.044	325.725	397.151	426.758	486.250	372.194	159.729	431.388	0.00097285	0.00032173	7.9653e-05	229.93	2.3621e-06	2.5945e-06	348.79	98.633	3.0775e-06	3.1872e-06	171.79	97.529	54.575	28.264	4.414e-06	55.04	0.00072458	0.00069908	0.00017027	246.42	6.6156e-06	6.4944e-06	374.91	105.97	5.7144e-06	7.3588e-06	184.59	105.24	58.656	30.83	6.716e-06	59.834	501.686	259.468	246.478	165.795	272.397	289.209	165.303	170.346	259.183	300.602	169.042	171.522	172.498	177.245	285.292	175.047	-8191	255	
1784.898	1	1	0	0	0.23408	0.18191	0.18484	0.23203	0.089541	0.055506	0.13771	0.30981	0.25114	0.12952	0.33775	0.24063	0.20327	0.19263	0.064817	0.22555	-2.8646	-2.9917	-2.8729	-3.2229	-2.9813	-3.0229	-3.2396	-2.8375	-3.2417	-3.25	-2.9667	-3.2792	-3.0875	-3.0083	-3.2896	-3.1958	223.783	308.967	450.950	246.853	339.350	394.577	508.598	380.615	359.298	431.177	449.899	218.605	420.088	243.203	373.346	469.692	0.00095965	0.00035662	7.3867e-05	230.41	3.7179e-06	2.7795e-06	350.13	98.845	3.4208e-06	2.4231e-06	171.48	97.639	54.397	28.392	3.3611e-06	54.942	0.00072177	0.00066334	0.00018373	246.9	6.5565e-06	6.7407e-06	375.57	106.15	5.8353e-06	7.4929e-06	184.96	105.17	58.624	30.865	6.523e-06	59.785	502.305	228.998	259.160	166.244	273.915	293.162	165.293	170.614	272.747	310.653	168.884	171.748	172.410	177.133	281.565	175.166	-8191	255	
1784.994	1	1	0	0	0.10501	0.1598	0.014868	0.26045	0.27745	0.050465	0.14218	0.089468	0.21622	0.16916	0.08866	0.30362	0.14419	0.16129	0.077035	0.21833	-2.8042	-3.0646	-2.9437	-3.2792	-3.1146	-3.1208	-3.5104	-3.0167	-3.0583	-3.2125	-2.95	-3.2896	-3.0062	-2.8896	-3.2667	-2.8937	226.693	485.519	390.434	476.084	246.892	448.762	381.641	289.433	484.871	282.138	409.673	235.596	449.535	194.963	179.420	418.500	0.00095925	0.00030268	0.00010199	229.64	2.7475e-06	4.0431e-06	350.62	98.854	3.925e-06	4.5796e-06	171.35	97.193	54.282	28.486	2.7829e-06	55.127	0.0007158	0.00068337	0.00018105	246.92	6.6072e-06	7.0251e-06	375.85	106.29	6.0843e-06	7.5066e-06	184.73	105.12	58.763	31.043	6.6766e-06	60.06	501.153	228.193	255.800	166.293	278.865	308.328	165.160	170.534	283.396	310.110	168.978	171.671	172.349	177.046	290.601	175.182	-8191	255	
1785.090	1	1	0	0	0.10567	0.14411	0.10293	0.16802	0.13323	0.26012	0.1898	0.28044	0.099013	0.091473	0.29224	0.3211	0.12497	0.065209	0.084576	0.28345	-2.6208	-3.3958	-2.8688	-3.2708	-3.2479	-2.875	-3.4146	-2.9313	-3.0438	-3.2021	-3.1542	-3.3	-3.3375	-3.1458	-3.4125	-3.1896	192.705	394.719	368.955	472.936	275.277	311.882	430.583	486.929	344.177	422.732	502.807	478.838	497.506	284.546	489.568	464.642	0.00098212	0.00030171	8.9794e-05	229.6	2.4051e-06	3.0889e-06	348.24	98.858	4.9543e-06	4.5865e-06	171.38	97.933	54.478	28.354	2.7295e-06	54.973	0.00073248	0.00065955	0.00018795	246.5	6.4214e-06	6.9144e-06	374.45	106.35	5.8417e-06	7.0974e-06	184.88	105.15	58.612	30.846	6.205e-06	59.963	502.504	254.974	254.460	165.899	278.947	274.124	165.288	170.533	264.676	294.521	169.235	171.812	172.343	177.106	273.177	175.131	-8191	255	
1785.186	1	1	0	0	0.11831	0.083111	0.053729	0.18588	0.13794	0.24193	0.063546	0.16187	0.13705	0.1006	0.16084	0.097519	0.10047	0.3951	0.20819	0.26029	-2.8708	-3.4313	-2.8312	-3.325	-3.225	-2.9938	-3.2313	-2.975	-3.0833	-3.4292	-3.0396	-3.1646	-3.3125	-3.0104	-3.1604	-3.1354	431.533	432.640	290.219	326.703	508.369	354.363	486.148	176.178	405.754	152.672	476.382	290.744	468.778	500.278	219.666	484.868	0.00099953	0.00032127	5.9088e-05	228.09	2.3295e-06	3.1072e-06	349.2	98.47	3.7704e-06	3.9251e-06	172.13	97.868	54.709	28.495	2.8826e-06	55.542	0.00074199	0.00061585	0.00018754	245.55	6.4517e-06	6.9896e-06	374.02	106.17	6.1715e-06	7.0587e-06	185.37	105.44	58.658	31.041	6.3504e-06	60.551	502.787	243.720	231.322	165.989	286.321	300.466	165.113	170.514	283.174	281.633	169.230	171.835	172.493	177.265	276.655	175.015	-8191	255	
1785.283	1	1	0	0	0.17147	0.094684	0.20882	0.12782	0.14467	0.019325	0.095985	0.18534	0.14867	0.087682	0.14571	0.19896	0.091243	0.28989	0.060541	0.14696	-2.5896	-3.1333	-2.9688	-3.1562	-3.3729	-2.9646	-3.2542	-3.1312	-3.0729	-3.3854	-2.8979	-3.25	-3.1937	-3.0354	-3.0958	-3.125	419.795	366.819	210.118	183.727	446.283	202.192	262.053	285.902	190.820	282.686	367.415	472.867	415.371	379.966	368.705	409.251	0.00099811	0.00034229	0.00010984	229.53	2.0025e-06	4.3216e-06	352.2	98.934	3.9094e-06	2.9243e-06	173.1	98.674	55.206	28.634	4.3359e-06	55.462	0.00073653	0.00064445	0.00019137	246.26	6.3947e-06	7.3094e-06	376.58	106.8	6.2996e-06	7.0742e-06	186.88	106.26	59.129	31.117	6.554e-06	60.417	502.253	250.609	234.576	166.102	292.418	297.623	165.425	170.547	273.525	282.661	168.910	171.801	172.459	177.149	281.171	175.344	-8191	255	
1785.379	1	1	0	0	0.13284	0.1301	0.20076	0.31473	0.085498	0.26287	0.086493	0.24554	0.04666	0.17066	0.19853	0.26284	0.16542	0.2597	0.19191	0.26896	-2.5833	-3.3958	-2.8896	-3.1333	-3.275	-3.0375	-3.2938	-3.0333	-3.0521	-3.4292	-3.1604	-3.2438	-3.2146	-3.0292	-3.2354	-3.3438	358.727	297.473	419.824	388.702	302.433	441.803	433.787	195.120	438.603	478.688	359.883	454.375	480.875	469.593	373.623	461.283	0.00096474	0.00033687	0.0001069	230.32	3.979e-06	2.9271e-06	346.82	98.211	2.8866e-06	2.7384e-06	169.62	96.471	53.827	27.864	3.6197e-06	54.208	0.00074706	0.00059795	0.00019522	245.17	5.9795e-06	7.6819e-06	372.56	105.35	6.1615e-06	6.6727e-06	183.42	103.76	57.671	30.348	6.2573e-06	58.97	502.378	236.867	259.757	165.861	276.140	320.082	165.389	170.588	285.828	302.827	169.161	171.717	172.432	177.161	289.305	175.225	-8191	255	
1785.498	1	1	0	0	0.16579	0.097273	0.21626	0.086676	0.13808	0.26463	0.1753	0.2923	0.14732	0.16965	0.02871	0.023937	0.073414	0.050727	0.42333	0.15147	-2.5771	-3.2229	-3.0604	-3.0062	-3.0583	-2.9667	-3.1604	-3.1458	-3.1667	-3.0729	-3.1188	-3.1458	-3.3604	-3.0875	-3.0521	-3.4354	414.371	410.711	385.807	282.329	416.197	502.599	334.693	437.423	269.753	352.037	233.096	174.935	408.315	212.077	328.971	509.978	0.00095264	0.00028213	0.0001007	226.18	2.52e-06	2.4682e-06	345.22	96.744	3.0403e-06	2.7802e-06	166	94.555	52.78	27.659	3.5104e-06	53.787	0.00073842	0.00061419	0.00019468	241.72	5.8887e-06	7.3362e-06	369.25	103.97	6.2295e-06	6.5411e-06	179.39	101.65	56.546	30.039	6.2777e-06	58.674	503.783	221.249	233.893	165.842	282.548	301.703	165.258	170.480	263.355	314.962	169.069	171.810	172.590	177.254	285.721	175.332	-8191	255	
1785.594	1	1	0	0	0.23032	0.1914	0.16491	0.10393	0.11818	0.067736	0.26089	0.2024	0.28955	0.14545	0.10308	0.15287	0.14604	0.080007	0.16745	0.17569	-2.5062	-3.2167	-3.0854	-2.9562	-3.2729	-2.8625	-3.2125	-3.2625	-2.8208	-3.2042	-3.0438	-3.0396	-3.2458	-2.9167	-3.1771	-3.3604	306.837	379.860	466.865	183.295	255.197	410.881	458.906	265.135	303.324	472.890	376.272	242.488	189.237	237.109	396.949	208.529	0.00094077	0.00025784	0.00010787	224.57	2.8029e-06	3.2013e-06	341.11	95.363	3.1183e-06	4.0854e-06	162.73	91.412	50.503	26.614	2.5953e-06	51.982	0.00073573	0.0005843	0.00019352	241.13	5.6608e-06	7.7174e-06	366.94	102.48	6.1887e-06	6.5059e-06	175.63	98.614	54.409	29.008	6.1301e-06	56.754	502.176	215.744	246.152	165.822	291.360	284.925	165.186	170.480	267.859	299.469	169.328	171.831	172.811	177.462	273.766	175.333	-8191	255	
1785.690	1	1	0	0	0.079975	0.096154	0.22949	0.18238	0.1647	0.19559	0.067154	0.21134	0.24998	0.25463	0.32954	0.23539	0.18368	0.29741	0.052548	0.22078	-2.6437	-3.1271	-2.8604	-2.8667	-3.375	-2.9729	-3.0458	-3.3792	-2.9083	-3.3146	-3.2687	-3.0354	-3.3771	-3.1	-3.0833	-3.3167	289.151	318.633	293.487	346.584	405.091	382.642	371.177	476.743	237.500	255.397	413.965	420.757	506.182	173.524	214.196	263.256	0.00089206	0.00034562	9.4547e-05	224.37	3.1216e-06	2.8502e-06	340.22	91.893	3.6125e-06	3.013e-06	153.58	86.539	48.284	27.129	4.0768e-06	52.441	0.00071707	0.00055645	0.00018208	240.96	5.3336e-06	7.3509e-06	365.95	99	6.1265e-06	6.1147e-06	165.84	93.472	51.935	29.403	6.0264e-06	57.194	503.179	244.614	247.496	165.987	290.205	307.100	165.541	170.591	259.650	305.156	169.765	172.386	173.189	177.633	259.711	175.659	-8191	255	
1785.786	1	1	0	0	0.14978	0.22897	0.058773	0.17019	0.1729	0.073131	0.040733	0.22275	0.13638	0.11482	0.19417	0.17183	0.1016	0.17372	0.1191	0.044157	-2.6229	-3.1312	-3.2	-2.8563	-3.3521	-2.9271	-3.0042	-3.2667	-2.9458	-3.2917	-3.4	-2.9396	-3.1729	-3.0896	-2.9896	-3.1917	487.498	466.360	406.026	475.417	241.942	432.594	182.335	481.467	432.956	186.437	420.174	409.092	463.072	498.864	259.186	460.441	0.00092421	0.00037719	0.00013671	228.1	2.8623e-06	2.4925e-06	343.42	90.871	3.2241e-06	2.5361e-06	150.46	84.182	46.15	26.252	3.9341e-06	50.605	0.00073427	0.00059241	0.00018262	244.31	5.4877e-06	7.414e-06	368.98	97.681	6.2731e-06	6.0854e-06	162.35	90.44	49.856	28.523	6.2103e-06	55.242	502.923	239.038	237.271	165.781	289.801	282.115	165.213	170.823	271.302	311.819	169.724	172.468	173.366	177.941	275.265	175.583	-8191	255	
1785.882	1	1	0	0	0.24787	0.11433	0.10856	0.032201	0.093767	0.037733	0.16773	0.14838	0.034371	0.28724	0.012384	0.13284	0.34551	0.23904	0.057531	0.14157	-2.6208	-3.0708	-3.3479	-3.0187	-3.3021	-3.1146	-3.0875	-3.4604	-3.2104	-3.1125	-3.1354	-2.95	-3.1437	-3.2875	-2.8458	-3.4167	341.524	224.239	319.943	449.995	390.802	303.917	463.253	222.286	390.351	330.228	489.274	411.811	363.128	376.315	446.385	395.031	0.00087441	0.00035742	0.00010267	228.89	2.5833e-06	2.0892e-06	342.35	89.134	3.6147e-06	3.3121e-06	146.19	80.135	44.637	24.978	3.572e-06	48.906	0.00071602	0.00056229	0.00017309	245.59	5.2541e-06	6.9611e-06	367.26	95.767	6.2703e-06	6.2299e-06	158.15	86.37	47.964	27.22	6.1611e-06	53.221	502.717	240.209	254.734	165.792	289.441	329.007	165.414	170.241	272.942	291.575	169.733	172.579	173.427	177.757	260.688	175.414	-8191	255	
1785.978	1	1	0	0	0.32184	0.10524	0.061702	0.17193	0.14061	0.18593	0.057843	0.11025	0.048001	0.053135	0.10768	0.14434	0.17643	0.11644	0.092925	0.22426	-2.7729	-2.9854	-3.3396	-2.725	-3.0187	-3.3479	-2.9354	-3.2687	-3.2646	-2.9333	-3.425	-3.2	-3.1396	-3.1042	-3.1271	-3.3604	368.759	349.443	285.127	330.521	305.709	385.699	471.736	485.751	282.037	177.034	483.634	482.284	223.504	442.970	330.449	157.758	0.00085436	0.00039873	5.3553e-05	230.62	2.5434e-06	2.1397e-06	343.33	88.814	2.685e-06	3.1993e-06	146.43	79.345	44.329	25.177	3.2744e-06	49.261	0.00069981	0.00057906	0.00016421	247.66	5.2034e-06	6.7338e-06	368.54	95.516	6.1744e-06	6.358e-06	157.74	85.484	47.589	27.443	6.3996e-06	53.745	501.243	230.885	220.076	165.547	273.965	297.717	165.166	170.541	275.076	294.157	169.111	172.504	172.804	177.525	253.671	175.177	-8191	255	
1786.099	1	1	0	0	0.082488	0.40216	0.052505	0.19595	0.062086	0.091145	0.20477	0.011395	0.18018	0.05623	0.15585	0.24532	0.20558	0.17572	0.43629	0.0429	-2.5312	-3.0833	-3.2292	-3.0479	-3.2833	-3.325	-2.9188	-3.2229	-3.2417	-2.9646	-3.3917	-2.9729	-3.0458	-3.2625	-2.9917	-3.4375	497.635	332.500	374.892	500.665	439.229	152.883	244.753	450.907	464.517	337.828	511.024	421.273	179.011	160.015	225.117	510.968	0.00088128	0.00020379	6.0219e-05	231.75	1.9784e-06	3.8296e-06	343.27	88.676	2.5766e-06	2.1974e-06	149.07	80.667	44.77	26.183	3.4293e-06	51.503	0.00069806	0.00055987	0.00015341	247.46	5.0922e-06	6.6059e-06	368.87	95.162	6.0564e-06	5.9642e-06	160.48	86.629	48.06	28.446	6.4427e-06	56.036	502.225	253.600	238.428	165.888	285.155	299.827	165.067	170.377	267.277	299.304	169.427	172.530	173.214	177.306	277.547	175.008	-8191	255	
1786.193	1	1	0	0	0.074968	0.31662	0.23064	0.20499	0.11904	0.094775	0.19689	0.055664	0.14623	0.17573	0.12211	0.08571	0.27432	0.23271	0.038473	0.24362	-2.7146	-3.025	-3.2375	-3.1458	-2.8875	-3.4208	-2.9021	-3.1437	-3.0938	-3.0708	-3.325	-3.0563	-3.0542	-3.2313	-3.0271	-3.4125	183.908	329.818	359.318	274.364	423.662	202.240	153.772	461.068	305.237	240.978	350.898	372.805	509.894	411.353	414.682	373.904	0.00092585	0.00031828	9.8027e-05	227.88	3.2028e-06	3.1361e-06	346.06	87.562	3.4477e-06	1.8404e-06	153.3	81.838	45.07	27.098	3.0849e-06	53.018	0.00070717	0.00058232	0.00015296	245.06	5.095e-06	6.312e-06	370.74	94.072	5.9083e-06	6.4405e-06	164.91	88.016	48.413	29.457	6.4193e-06	57.842	501.580	240.740	262.080	165.883	277.301	305.361	165.642	170.769	285.216	296.012	169.011	172.307	172.919	176.664	271.890	175.027	-8191	255	
1786.290	1	1	0	0	0.1059	0.031867	0.14554	0.1029	0.18108	0.19722	0.37581	0.098949	0.19917	0.091702	0.30375	0.082164	0.21309	0.010346	0.23009	0.18302	-2.8333	-2.9583	-3.0854	-3.1354	-3.0042	-3.4688	-3.0771	-3.175	-3.2167	-3.0271	-3.1625	-2.9667	-3.0771	-3.4104	-3.1979	-3.2812	482.099	368.654	320.318	279.593	271.238	504.843	481.614	333.128	378.735	255.634	502.120	213.233	182.702	372.328	191.690	479.149	0.00092008	0.00024647	9.517e-05	226.16	3.6461e-06	3.0071e-06	341.8	85.35	3.2199e-06	2.513e-06	152.37	82.26	45.282	28.095	3.3557e-06	55.387	0.00071401	0.00059643	0.00015019	242.24	5.4989e-06	6.5428e-06	366.65	91.637	5.8503e-06	6.7251e-06	164.04	88.802	48.781	30.537	6.8651e-06	60.313	501.192	236.936	234.909	165.664	268.455	286.388	165.224	170.508	284.268	275.809	169.285	172.163	172.908	176.711	275.514	174.706	-8191	255	
1786.363	1	1	0	0	0.28328	0.13898	0.15795	0.28896	0.24775	0.13798	0.23232	0.15701	0.01904	0.037117	0.19021	0.17604	0.23998	0.089356	0.13873	0.16648	-2.8312	-2.8979	-3.3542	-3	-2.975	-3.2875	-3.0271	-3.1125	-3.3667	-3.0417	-3.1854	-3.2375	-2.9708	-3.1625	-3	-3.0521	377.009	292.911	424.776	333.729	335.793	377.017	412.261	432.160	449.593	254.278	245.676	379.105	167.858	363.217	322.489	425.221	0.00094974	0.00032128	9.6175e-05	227.81	2.719e-06	3.1778e-06	348.76	88.059	2.7485e-06	3.3285e-06	156.46	84.661	46.604	28.172	3.5143e-06	55.157	0.000735	0.00062063	0.00015943	244.23	5.5735e-06	6.5091e-06	373.66	94.821	5.9619e-06	6.8842e-06	168.79	91.294	50.147	30.661	7.037e-06	59.975	502.071	238.784	243.030	165.923	287.214	309.137	165.059	170.477	271.381	295.264	169.515	172.317	173.030	176.821	293.752	174.992	-8191	255	
1786.482	1	1	0	0	0.14297	0.19037	0.24405	0.19793	0.037538	0.091233	0.15857	0.025125	0.16351	0.14012	0.17262	0.24251	0.095011	0.15791	0.11888	0.21363	-2.9521	-3.0042	-3.125	-3.2271	-2.9417	-3.2542	-2.9604	-3.0583	-3.175	-2.9792	-3.1937	-3.2062	-3.0167	-3.4667	-3.15	-2.9479	391.381	259.217	451.410	479.848	309.883	322.499	269.595	368.797	496.508	211.393	432.736	492.474	453.732	228.688	497.140	423.051	0.00099137	0.00030831	8.7248e-05	232.88	2.9457e-06	2.6491e-06	353.72	90.171	3.7905e-06	3.5647e-06	160.36	86.742	47.544	28.219	3.1308e-06	54.35	0.00073904	0.00062397	0.000161	248.66	5.7156e-06	6.1582e-06	378.18	97.046	5.7051e-06	7.1301e-06	172.53	93.504	51.073	30.584	6.7902e-06	59.139	502.143	238.236	218.235	165.745	283.106	309.850	165.106	170.437	268.958	283.888	169.650	172.161	172.904	176.836	264.954	174.856	-8191	255	
1786.578	1	1	0	0	0.055624	0.24699	0.093519	0.040884	0.086003	0.23085	0.16973	0.38056	0.34551	0.07779	0.11642	0.072234	0.11959	0.060171	0.42724	0.11849	-2.85	-3.0563	-3.0208	-3.2625	-2.7438	-3.1375	-3.1792	-3.0021	-3.1625	-3.0167	-3.0833	-3.2687	-2.8187	-3.3167	-3.0146	-3	407.649	434.959	491.288	446.203	462.344	290.764	491.647	167.820	256.156	298.867	390.092	342.065	364.298	366.085	403.363	420.620	0.00095677	0.00011488	5.9839e-05	233.02	2.1457e-06	3.0482e-06	350.6	91.838	3.157e-06	3.793e-06	158.57	86.824	48.151	28.052	3.6528e-06	54.364	0.00071183	0.00062397	0.00014952	249.8	5.7142e-06	5.8315e-06	377.34	98.8	5.3768e-06	6.8489e-06	170.9	93.832	51.792	30.321	6.4458e-06	59.127	503.019	232.454	247.823	165.569	277.091	312.847	165.462	170.765	275.691	286.840	169.486	172.128	172.980	176.877	259.475	175.056	-8191	255	
1786.674	1	1	0	0	0.18015	0.19976	0.1649	0.12665	0.17222	0.10209	0.23286	0.13412	0.2963	0.31177	0.13225	0.089818	0.1765	0.16864	0.10317	0.11382	-2.8604	-2.875	-2.9688	-3.2042	-2.8708	-3.0958	-3.3083	-3.1104	-3.3354	-3.0146	-3.1104	-3.3167	-2.9688	-3.4271	-3.3917	-3.05	328.739	511.324	323.555	432.503	360.639	447.399	376.823	373.193	372.053	478.324	237.209	353.627	463.550	152.894	452.722	481.597	0.00092508	0.00024048	6.2694e-05	231.35	2.931e-06	2.8045e-06	350.44	92.633	3.9014e-06	2.5825e-06	157.04	87.559	48.638	27.971	3.3556e-06	54.023	0.00069226	0.00061441	0.0001532	248.49	5.6917e-06	6.0277e-06	376.33	99.788	5.3353e-06	7.008e-06	169.6	94.54	52.367	30.384	6.4352e-06	58.859	502.254	238.470	289.060	165.470	290.572	313.512	165.312	170.791	264.066	288.024	169.635	172.407	172.973	176.744	278.015	174.961	-8191	255	
1786.770	1	1	0	0	0.22042	0.073332	0.024175	0.34186	0.22123	0.047782	0.092605	0.15027	0.11526	0.070256	0.12956	0.2475	0.1975	0.10095	0.15661	0.16216	-3.075	-2.9979	-2.9896	-3.2396	-2.9	-3.1271	-3.1521	-3.0708	-3.2396	-3.0312	-3.1521	-3.175	-2.8438	-3.2667	-3.2188	-3.0187	435.462	438.695	242.531	396.630	230.178	188.969	247.119	466.432	278.938	427.128	459.298	443.375	445.241	210.891	193.565	443.610	0.0009767	0.00033529	7.5266e-05	230.11	2.625e-06	2.2575e-06	346.15	92.811	4.719e-06	2.8401e-06	156.66	89.722	50.293	28.282	2.9813e-06	54.46	0.00069296	0.00063558	0.00015595	246.79	5.8078e-06	5.8989e-06	373	100.09	5.268e-06	6.7776e-06	169.01	96.553	53.903	30.617	6.2429e-06	59.208	501.112	245.721	245.237	165.640	292.785	292.859	165.291	170.575	265.303	310.766	169.386	172.074	172.873	176.884	286.574	174.846	-8191	255	
1786.891	1	1	0	0	0.22456	0.17841	0.21657	0.14551	0.14283	0.28839	0.14306	0.24877	0.15574	0.1636	0.083065	0.13587	0.21074	0.061207	0.086891	0.25007	-2.9813	-2.9271	-2.8792	-2.9729	-2.9833	-2.9771	-3.225	-2.9	-3.2292	-3.1729	-2.9938	-3.4833	-2.9938	-3.0646	-3.2875	-2.9104	408.695	300.883	466.811	232.167	293.450	234.237	420.007	308.563	264.886	157.044	459.880	175.076	431.564	427.648	409.686	462.407	0.00092374	0.00031535	9.1137e-05	229.14	2.0904e-06	1.8517e-06	346.38	93.809	3.9323e-06	2.7965e-06	159.63	91.128	50.389	27.966	3.3217e-06	54.35	0.00068075	0.00059992	0.00015664	244.88	5.8106e-06	5.8366e-06	371.33	100.98	5.2115e-06	6.8154e-06	171.52	98.462	54.218	30.369	6.0923e-06	59.009	502.964	239.063	265.432	165.873	309.026	297.983	165.406	170.319	262.223	288.708	169.416	172.344	172.678	176.844	251.476	175.048	-8191	255	
1786.987	1	1	0	0	0.19411	0.11724	0.27745	0.092002	0.12821	0.15167	0.026757	0.22909	0.10378	0.19081	0.038827	0.084744	0.062328	0.1326	0.17003	0.021811	-2.7271	-3.0354	-2.9125	-3.2188	-3.0563	-3	-3.3479	-2.875	-3.2333	-3.1396	-2.9292	-3.2542	-3.0417	-3.0875	-3.2979	-2.8896	399.573	485.869	413.495	366.209	221.449	357.254	369.154	373.698	394.259	247.412	492.844	454.542	328.996	317.605	182.921	508.406	0.00093981	0.00040503	9.1671e-05	227.41	2.5534e-06	2.3308e-06	348.34	92.131	3.3292e-06	3.6482e-06	162.68	92.458	50.341	28.037	3.7128e-06	54.391	0.00068403	0.00060705	0.00016543	242.5	5.7543e-06	5.8531e-06	373.06	98.787	5.2623e-06	6.5643e-06	175.86	99.632	54.186	30.358	6.1256e-06	59.173	501.864	234.837	244.096	166.292	258.169	312.959	165.269	170.794	267.277	330.458	169.421	171.919	172.979	176.941	288.952	175.026	-8191	255	
1787.059	1	1	0	0	0.071006	0.14309	0.081722	0.10095	0.40216	0.14405	0.1348	0.19888	0.27162	0.24267	0.12016	0.17241	0.062053	0.13447	0.21309	0.2146	-2.5667	-3.0875	-2.9354	-3.2771	-3.1125	-3.0271	-3.2188	-2.9646	-3.1521	-3.4167	-2.8146	-3.2417	-3.2062	-2.8771	-3.3292	-3.0625	356.954	406.507	190.024	259.061	243.839	434.389	183.397	425.042	338.499	433.721	414.918	484.865	187.353	165.646	294.968	369.540	0.00095652	0.0002741	0.00010426	228.4	2.3692e-06	3.5465e-06	353.56	91.906	4.086e-06	3.8213e-06	164.75	93.742	50.856	28.101	3.0533e-06	54.544	0.00068746	0.00058574	0.00016812	244.5	5.9591e-06	6.3716e-06	379.71	99.085	5.4483e-06	6.4328e-06	177.86	101.12	54.717	30.556	5.9151e-06	59.356	504.187	250.073	240.234	166.169	284.059	295.631	165.223	170.708	282.564	274.866	169.255	171.950	172.814	176.733	286.208	174.924	-8191	255	
1787.179	1	1	0	0	0.15418	0.10427	0.20036	0.23652	0.12665	0.21349	0.0082489	0.083037	0.15751	0.21037	0.25271	0.20446	0.046769	0.15884	0.14097	0.24098	-2.6021	-3.2667	-2.9167	-3.3125	-3.2354	-3.025	-3.2604	-3.0167	-3.2938	-3.325	-3.0833	-3.2417	-3.2062	-2.9208	-3.3104	-3.0354	389.122	216.550	321.880	311.094	289.301	412.329	376.393	490.414	421.920	436.820	499.683	222.851	231.771	162.497	386.326	475.227	0.00094506	0.00024102	6.1688e-05	228.71	3.1258e-06	2.1011e-06	357.31	92.009	4.0012e-06	3.1158e-06	165.86	95.006	52.119	28.728	3.7608e-06	55.783	0.00067427	0.00056836	0.00016595	245.76	5.5784e-06	6.3941e-06	381.86	98.927	5.243e-06	6.3176e-06	179.56	102.24	55.838	31.159	5.9764e-06	60.893	502.208	206.034	222.805	166.029	281.837	310.656	165.150	170.672	293.560	287.650	169.378	171.842	173.010	176.659	277.891	174.838	-8191	255	
1787.274	1	1	0	0	0.20134	0.24551	0.033236	0.065218	0.12162	0.27927	0.15438	0.12905	0.27091	0.014611	0.19101	0.27554	0.12459	0.27981	0.12866	0.18866	-2.7479	-3.1292	-2.9125	-3.2729	-3.1854	-2.7458	-3.3271	-3.1792	-3.0042	-3.2896	-2.8333	-3.1	-3.0812	-2.9917	-3.2229	-3.1854	273.805	224.756	423.840	330.559	241.592	376.347	330.555	469.827	294.181	337.851	485.078	487.127	420.999	478.107	291.582	452.233	0.00096551	0.00039513	8.6741e-05	230.82	3.129e-06	3.3962e-06	359.05	96.259	3.1052e-06	2.9275e-06	173.98	100.48	54.72	30.387	4.875e-06	59.134	0.00071591	0.00060379	0.00018023	247.81	5.9415e-06	6.8963e-06	385.7	104.11	5.7445e-06	6.6013e-06	187.57	107.79	58.986	32.981	6.2558e-06	64.31	502.248	227.858	248.316	165.778	295.706	305.684	165.208	170.461	293.071	324.922	169.250	171.820	172.707	176.591	269.647	174.676	-8191	255	
1787.370	1	1	0	0	0.21582	0.19906	0.1221	0.14103	0.082592	0.18766	0.043867	0.042179	0.094399	0.14286	0.21178	0.14042	0.093849	0.028702	0.29613	0.1248	-2.6271	-3.2208	-3.0208	-3.0833	-3.2708	-2.9188	-3.0938	-3.0292	-2.9792	-3.0708	-2.9771	-3.1354	-3.1937	-2.9833	-3.0625	-3.3354	409.131	372.388	429.082	389.830	296.772	428.003	167.377	399.813	392.400	305.055	378.435	494.736	505.549	413.469	274.963	386.161	0.0010532	0.00032808	8.8711e-05	227.49	3.2993e-06	3.6879e-06	356.8	97.749	3.5291e-06	4.0519e-06	174.87	101.33	55.966	30.864	4.0011e-06	59.675	0.0007758	0.00063626	0.00018933	243.86	6.0851e-06	7.0873e-06	384.01	105.49	6.1494e-06	6.6649e-06	188.82	109.02	59.736	33.488	6.2951e-06	65.15	501.973	236.327	239.829	165.859	274.547	280.073	165.588	170.296	280.567	296.661	169.134	171.781	172.460	176.461	272.789	174.633	-8191	255	
1787.468	1	1	0	0	0.026961	0.26511	0.13358	0.025549	0.10305	0.14914	0.26012	0.17658	0.20466	0.12148	0.067612	0.28899	0.17755	0.26408	0.17642	0.14882	-2.4417	-3.2125	-2.9292	-2.9979	-3.15	-2.8875	-3.0896	-3.1625	-3.0167	-3.4313	-3.0938	-3.0438	-3.3333	-3.0917	-3.1146	-3.4021	494.545	315.838	435.652	494.877	353.803	326.918	306.619	447.047	193.608	480.476	288.001	429.814	393.128	454.322	331.588	436.970	0.0010339	0.0002993	6.6895e-05	226.76	3.1815e-06	3.0682e-06	358.2	98.681	3.2659e-06	4.9852e-06	175.14	101.09	55.07	30.257	3.7542e-06	58.703	0.00077813	0.00061608	0.00019444	242.87	5.9612e-06	7.497e-06	382.91	105.86	6.0714e-06	6.7105e-06	189.13	108.73	59.035	32.85	6.1399e-06	63.811	501.909	266.861	244.990	165.633	278.234	306.073	165.150	170.804	262.183	300.001	169.186	171.606	172.566	176.513	288.067	174.664	-8191	255	
1787.587	1	1	0	0	0.037177	0.22929	0.15578	0.15674	0.098613	0.039124	0.13411	0.14999	0.12141	0.15379	0.087055	0.16966	0.194	0.20815	0.025216	0.17041	-2.4292	-3.2625	-3.1104	-2.9479	-3.3271	-2.9188	-3.2229	-3.2021	-3.1208	-3.3521	-3.1958	-3.0062	-3.3146	-3.2021	-3.2458	-3.4125	211.417	296.181	484.378	435.739	211.688	336.753	446.242	455.466	160.701	257.082	222.690	461.233	489.588	309.772	284.077	367.588	0.0010358	0.00035396	8.8223e-05	221.65	2.9273e-06	3.0075e-06	350.92	95.535	3.3923e-06	3.8774e-06	170.57	97.595	53.18	29.254	4.4541e-06	56.923	0.00077536	0.00059803	0.00018769	237.7	5.8409e-06	7.4399e-06	375.05	102.49	6.2674e-06	6.4388e-06	184.35	105.14	57.032	31.709	6.3489e-06	62.064	501.254	228.367	252.988	165.886	273.186	279.725	165.182	170.348	256.802	297.936	169.046	171.769	172.397	176.353	282.892	174.849	-8191	255	
1787.658	1	1	0	0	0.12148	0.132	0.2006	0.12275	0.11062	0.20249	0.26101	0.15701	0.063279	0.11147	0.028878	0.11999	0.10431	0.22359	0.030037	0.16852	-2.6042	-3.1979	-2.9562	-2.8083	-3.2979	-3.1354	-3.2917	-3.2396	-2.9854	-3.3708	-3.1771	-3.1667	-3.1979	-3.1271	-3.1104	-3.275	198.463	512.112	362.054	231.564	281.351	445.656	385.132	465.562	427.148	233.072	438.046	241.452	495.614	427.792	497.554	434.627	0.00099269	0.00023873	0.0001058	218.84	3.5875e-06	3.4158e-06	346.67	95.174	4.2692e-06	3.6608e-06	170.9	98.054	53.392	29.369	3.592e-06	57.46	0.00076629	0.00056806	0.0001912	234.94	5.6945e-06	7.3812e-06	372.28	102.25	6.2409e-06	6.3073e-06	184.38	105.55	57.307	31.839	6.1785e-06	62.583	502.507	233.278	237.635	165.780	284.888	311.208	165.393	170.340	260.990	302.710	169.265	171.755	172.595	176.683	262.480	175.066	-8191	255	
1787.779	1	1	0	0	0.092597	0.12287	0.21897	0.085818	0.18642	0.15996	0.19216	0.097518	0.18771	0.12838	0.10378	0.067923	0.077171	0.09158	0.13601	0.12564	-2.575	-3.0521	-3.2021	-2.8604	-3.3042	-3	-3.2188	-3.2625	-2.9146	-3.25	-3.2646	-3.125	-3.3104	-2.8875	-3.0083	-3.5062	278.205	154.102	505.028	493.264	273.607	202.049	452.903	250.854	183.619	412.069	467.866	420.271	454.064	399.842	341.921	229.358	0.0010195	0.00025497	0.00010327	220.97	2.6237e-06	2.8905e-06	347.8	96.323	2.5253e-06	2.954e-06	172.68	99.196	54.362	29.848	3.6871e-06	59.096	0.00077813	0.00056571	0.00018887	236.36	5.5067e-06	7.4468e-06	374.58	103.2	6.3024e-06	6.4913e-06	186.76	106.87	58.191	32.387	6.4571e-06	64.12	503.126	227.289	241.690	165.988	264.837	291.877	165.307	170.821	277.052	297.400	169.144	171.777	172.544	176.566	284.258	174.861	-8191	255	
1787.875	1	1	0	0	0.13349	0.11534	0.14804	0.13962	0.33096	0.10202	0.1718	0.084693	0.07649	0.14485	0.04042	0.082701	0.060591	0.087319	0.18992	0.095006	-2.3875	-3.0812	-3.3563	-2.9292	-3.3042	-3.2583	-3.0354	-3.2833	-3.0062	-3.0729	-3.2979	-3.0125	-3.3812	-3.2271	-3.0979	-3.2417	210.523	465.265	276.640	448.267	257.050	312.978	473.741	432.768	178.708	315.085	285.973	320.530	424.829	436.212	161.694	184.237	0.0010408	0.00034121	0.00010489	222.77	2.5936e-06	2.4997e-06	353.34	98.245	3.5049e-06	2.4634e-06	175.2	101.55	55.699	30.735	4.0602e-06	60.613	0.00079092	0.00058505	0.000177	239.75	5.4757e-06	7.4918e-06	380.16	105.74	6.54e-06	6.6004e-06	189.15	109.36	59.764	33.424	6.5631e-06	65.913	503.140	233.668	227.843	165.675	282.449	305.905	165.523	170.382	284.219	274.632	169.452	171.732	172.446	176.867	272.703	174.914	-8191	255	
1787.971	1	1	0	0	0.24012	0.26278	0.19109	0.11117	0.12212	0.10078	0.23616	0.021244	0.2378	0.053148	0.095269	0.1191	0.13678	0.13886	0.2182	0.091641	-2.6167	-2.9833	-3.1896	-2.9958	-3.1854	-3.1292	-2.9125	-3.0833	-3.1229	-3.1271	-3.3063	-2.9062	-3.15	-3.2667	-2.9771	-3.3333	318.201	364.017	172.376	231.204	297.511	408.887	312.648	344.476	265.051	331.036	461.007	183.560	174.251	185.772	358.119	458.962	0.0010638	0.00028923	0.00010821	228.15	2.3849e-06	3.4013e-06	359.33	99.92	3.9584e-06	2.958e-06	175.61	102.34	56.609	31.414	3.8467e-06	60.886	0.00079697	0.00058338	0.00017477	243.99	5.4335e-06	7.4901e-06	384.82	107.37	6.5485e-06	6.3331e-06	188.9	110.49	60.725	34.11	6.7236e-06	66.391	502.549	249.158	240.021	165.843	273.848	295.342	164.975	170.419	260.658	284.522	169.253	171.876	172.485	176.616	279.577	174.627	-8191	255	
#DATA ENDS
