BOXY.EXE: ISS Imagent and Oximeter Data Acquisition Program Version 0.80
Ascii Record File

#ACQ INFORMATION
2  Detector Channels 
16  External MUX Channels 
1  Auxiliary Channels 
5000  Waveform (CCF) Frequency (Hz)
1  Waveforms Skipped 
30  Waveforms Averaged 
1  Cycles Averaged 
16  Acquisitions per Waveform 
10.0806  Updata Rate (Hz) 

#FILE INFORMATION
TRUE -- External MUX Channel results are PARSED.
FALSE -- AC DC and Phase are NOT grouped.
TRUE -- Companion Program Settings File CREATED.
FALSE -- AC data not excluded
FALSE -- DC data not excluded
FALSE -- Phase data not excluded
FALSE -- Auxillary Chn. data not excluded
Tab delimiters

#CALIBRATION STATE
TRUE -- Waveform Calibration Values APPLIED.


#AUX CALIBRATION VALUES
Val Type	aux-1	

Term	1.0000e+00	
Factor	0.0000e+00	


#WF CALIBRATION VALUES
A = Detector Channel
Val Type	A-AC1	A-AC2	A-AC3	A-AC4	A-AC5	A-AC6	A-AC7	A-AC8	A-AC9	A-AC10	A-AC11	A-AC12	A-AC13	A-AC14	A-AC15	A-AC16	A-DC1	A-DC2	A-DC3	A-DC4	A-DC5	A-DC6	A-DC7	A-DC8	A-DC9	A-DC10	A-DC11	A-DC12	A-DC13	A-DC14	A-DC15	A-DC16	A-Ph1	A-Ph2	A-Ph3	A-Ph4	A-Ph5	A-Ph6	A-Ph7	A-Ph8	A-Ph9	A-Ph10	A-Ph11	A-Ph12	A-Ph13	A-Ph14	A-Ph15	A-Ph16	

Term	0.00000e+00	0.00000e+00	0.00000e+00	0.00000e+00	0.00000e+00	0.00000e+00	0.00000e+00	0.00000e+00	0.00000e+00	0.00000e+00	0.00000e+00	0.00000e+00	0.00000e+00	0.00000e+00	0.00000e+00	0.00000e+00	0.00000e+00	0.00000e+00	0.00000e+00	0.00000e+00	0.00000e+00	0.00000e+00	0.00000e+00	0.00000e+00	0.00000e+00	0.00000e+00	0.00000e+00	0.00000e+00	0.00000e+00	0.00000e+00	0.00000e+00	0.00000e+00	0.00000e+00	0.00000e+00	0.00000e+00	0.00000e+00	0.00000e+00	0.00000e+00	0.00000e+00	0.00000e+00	0.00000e+00	0.00000e+00	0.00000e+00	0.00000e+00	0.00000e+00	0.00000e+00	0.00000e+00	0.00000e+00	
Factor	1.00000e+00	1.00000e+00	1.00000e+00	1.00000e+00	1.00000e+00	1.00000e+00	1.00000e+00	1.00000e+00	1.00000e+00	1.00000e+00	1.00000e+00	1.00000e+00	1.00000e+00	1.00000e+00	1.00000e+00	1.00000e+00	1.00000e+00	1.00000e+00	1.00000e+00	1.00000e+00	1.00000e+00	1.00000e+00	1.00000e+00	1.00000e+00	1.00000e+00	1.00000e+00	1.00000e+00	1.00000e+00	1.00000e+00	1.00000e+00	1.00000e+00	1.00000e+00	X	X	X	X	X	X	X	X	X	X	X	X	X	X	X	X	

B = Detector Channel
Val Type	B-AC1	B-AC2	B-AC3	B-AC4	B-AC5	B-AC6	B-AC7	B-AC8	B-AC9	B-AC10	B-AC11	B-AC12	B-AC13	B-AC14	B-AC15	B-AC16	B-DC1	B-DC2	B-DC3	B-DC4	B-DC5	B-DC6	B-DC7	B-DC8	B-DC9	B-DC10	B-DC11	B-DC12	B-DC13	B-DC14	B-DC15	B-DC16	B-Ph1	B-Ph2	B-Ph3	B-Ph4	B-Ph5	B-Ph6	B-Ph7	B-Ph8	B-Ph9	B-Ph10	B-Ph11	B-Ph12	B-Ph13	B-Ph14	B-Ph15	B-Ph16	

Term	0.00000e+00	0.00000e+00	0.00000e+00	0.00000e+00	0.00000e+00	0.00000e+00	0.00000e+00	0.00000e+00	0.00000e+00	0.00000e+00	0.00000e+00	0.00000e+00	0.00000e+00	0.00000e+00	0.00000e+00	0.00000e+00	0.00000e+00	0.00000e+00	0.00000e+00	0.00000e+00	0.00000e+00	0.00000e+00	0.00000e+00	0.00000e+00	0.00000e+00	0.00000e+00	0.00000e+00	0.00000e+00	0.00000e+00	0.00000e+00	0.00000e+00	0.00000e+00	-1.75373e+02	-1.30324e+02	-1.22335e+02	-1.82865e+02	-7.94388e+01	-6.73137e+01	-1.55847e+02	-1.62015e+02	-8.73043e+01	-6.50213e+01	-1.70182e+02	-1.72231e+02	-1.79732e+02	-1.76323e+02	-7.82466e+01	-1.49486e+02	
Factor	2.80776e-05	1.59647e-04	4.56555e-05	1.56367e-01	1.46645e-06	1.62896e-06	1.65078e-01	5.36098e-02	1.54737e-06	1.86707e-06	8.00233e-02	3.09967e-02	2.31372e-02	8.58255e-03	1.59471e-06	1.26389e-02	1.74870e-05	3.64141e-05	1.03222e-05	7.94208e-02	3.37746e-07	4.14866e-07	7.89372e-02	2.73144e-02	3.43380e-07	4.12689e-07	3.96292e-02	1.53309e-02	1.19582e-02	4.41765e-03	3.63355e-07	6.29802e-03	X	X	X	X	X	X	X	X	X	X	X	X	X	X	X	X	



#DISTANCE SETTINGS
A = Detector Channel
A-1	A-2	A-3	A-4	A-5	A-6	A-7	A-8	A-9	A-10	A-11	A-12	A-13	A-14	A-15	A-16	

2.5000e+00	3.0000e+00	2.5000e+00	3.0000e+00	2.0000e+00	3.0000e+00	1.5000e+00	3.0000e+00	3.0000e+00	3.0000e+00	3.0000e+00	3.0000e+00	3.0000e+00	3.0000e+00	1.5000e+00	3.0000e+00	

B = Detector Channel
B-1	B-2	B-3	B-4	B-5	B-6	B-7	B-8	B-9	B-10	B-11	B-12	B-13	B-14	B-15	B-16	

1.0000e+01	1.0000e+01	1.0000e+01	1.4400e+00	1.0000e+01	1.0000e+01	1.5100e+00	1.9400e+00	1.0000e+01	1.0000e+01	1.9900e+00	2.4900e+00	2.4100e+00	2.9000e+00	1.0000e+01	2.9800e+00	




#DATA BEGINS
time	group	step	mark	flag	A-AC1	A-AC2	A-AC3	A-AC4	A-AC5	A-AC6	A-AC7	A-AC8	A-AC9	A-AC10	A-AC11	A-AC12	A-AC13	A-AC14	A-AC15	A-AC16	A-DC1	A-DC2	A-DC3	A-DC4	A-DC5	A-DC6	A-DC7	A-DC8	A-DC9	A-DC10	A-DC11	A-DC12	A-DC13	A-DC14	A-DC15	A-DC16	A-Ph1	A-Ph2	A-Ph3	A-Ph4	A-Ph5	A-Ph6	A-Ph7	A-Ph8	A-Ph9	A-Ph10	A-Ph11	A-Ph12	A-Ph13	A-Ph14	A-Ph15	A-Ph16	B-AC1	B-AC2	B-AC3	B-AC4	B-AC5	B-AC6	B-AC7	B-AC8	B-AC9	B-AC10	B-AC11	B-AC12	B-AC13	B-AC14	B-AC15	B-AC16	B-DC1	B-DC2	B-DC3	B-DC4	B-DC5	B-DC6	B-DC7	B-DC8	B-DC9	B-DC10	B-DC11	B-DC12	B-DC13	B-DC14	B-DC15	B-DC16	B-Ph1	B-Ph2	B-Ph3	B-Ph4	B-Ph5	B-Ph6	B-Ph7	B-Ph8	B-Ph9	B-Ph10	B-Ph11	B-Ph12	B-Ph13	B-Ph14	B-Ph15	B-Ph16	aux-1	digaux	

1328.226	1	1	0	768	0.10403	0.045326	0.12909	0.13462	0.075256	0.18574	0.020592	0.1729	0.29839	0.10763	0.15725	0.40766	0.1267	0.18001	0.051486	0.060378	-2.8458	-3.6896	-3.1917	-3.3167	-3.4917	-3.2167	-3.4833	-3.3438	-3.0854	-3.4354	-3.0417	-3.0458	-3.1937	-3.2229	-3.2188	-3.2917	212.383	247.624	193.759	-43.166	223.021	223.801	123.397	28.308	-22.121	270.138	253.089	225.512	29.066	-34.265	288.787	40.173	6.7097e-05	0.00041022	0.00014994	254.73	1.0205e-06	1.9982e-06	311.96	63.79	1.6005e-06	4.932e-06	106.92	39.441	21.315	6.2887	1.4709e-06	12.932	0.007114	0.014646	0.0041548	300.23	0.00013466	0.00016388	362.18	78.872	0.00013366	0.00015976	129.34	48.055	27.687	8.5156	0.00014377	16.408	160.463	-62.745	45.071	-53.192	102.929	164.334	-53.011	-46.947	89.736	209.315	-48.916	-45.637	-43.939	-40.048	-55.087	-41.835	-8191	255	
1328.322	1	1	0	0	0.14487	0.079238	0.19367	0.095799	0.11915	0.068401	0.20674	0.019574	0.084724	0.17283	0.28298	0.1875	0.20765	0.22338	0.10588	0.025015	-2.6604	-3.4292	-3.1396	-3.1792	-3.3	-3.0729	-3.2729	-3.1667	-3.0187	-3.2833	-3.1854	-3.2354	-3.4417	-2.9396	-3.1063	-3.2917	89.311	44.306	268.588	255.936	131.487	59.836	201.576	82.840	239.017	272.535	37.644	244.776	-3.325	246.344	22.345	169.592	8.8902e-05	0.0001441	0.00010311	254.98	2.2693e-06	5.1201e-06	316.22	66.46	2.2585e-06	5.3952e-06	112.96	42.193	23.251	6.8175	3.1768e-06	14.093	0.0070837	0.014886	0.0042591	302.36	0.00014271	0.00017725	369.37	82.563	0.00015193	0.00018372	138.29	52.223	30.434	9.396	0.00016726	18.097	148.180	219.361	118.176	-52.917	-53.666	80.104	-52.680	-47.237	151.427	35.883	-48.870	-45.280	-44.039	-39.724	268.551	-41.379	-8191	255	
1328.419	1	1	0	0	0.21337	0.018684	0.12547	0.2153	0.28655	0.12908	0.09134	0.22329	0.16244	0.12774	0.068025	0.085023	0.19392	0.097285	0.4089	0.044326	-2.5812	-3.2521	-3.0208	-3.0042	-3.3125	-3.1125	-3.3792	-3.4771	-3.0958	-3.5417	-3.1979	-3.2896	-3.5854	-3.1417	-3.2917	-3.5292	177.981	250.608	224.290	266.403	203.029	10.322	293.962	247.001	197.569	205.901	166.435	29.017	-50.304	241.121	140.780	-62.322	0.0001115	0.00013636	4.798e-05	261.15	3.2052e-06	4.1737e-06	323.6	70.047	6.2478e-06	3.3027e-06	117.87	43.607	23.933	7.0252	5.2944e-06	14.108	0.0082353	0.017123	0.0048971	312.8	0.0001596	0.00019532	381.06	87.301	0.0001576	0.00018779	143.14	53.839	30.98	9.5273	0.00015853	18.022	68.619	62.313	246.170	-52.635	-13.635	110.294	-52.793	-47.010	140.830	194.460	-48.836	-44.841	-43.958	-40.250	189.177	-41.435	-8191	255	
1328.515	1	1	0	0	0.13244	0.20563	0.15071	0.10971	0.18299	0.25722	0.14258	0.075755	0.050206	0.23556	0.33537	0.22126	0.1716	0.37341	0.096019	0.11066	-2.6917	-3.45	-3.2687	-3.1792	-3.4667	-3.3479	-3.3979	-3.3521	-3.15	-3.475	-3.275	-3.1021	-3.3125	-3.15	-3.1771	-3.3104	258.377	54.764	-31.651	119.689	103.656	242.642	275.658	66.865	165.788	92.720	181.772	214.818	217.616	245.411	89.748	101.984	9.789e-05	0.000486	8.0119e-05	258.2	4.454e-06	5.0929e-06	320.24	68	3.4545e-06	3.8639e-06	113.28	41.611	22.377	6.5771	2.6937e-06	13.415	0.0076838	0.015616	0.0044632	306.77	0.00014192	0.00017372	373.08	83.601	0.00013816	0.00016244	135.99	50.399	28.708	8.7531	0.00013415	16.692	128.821	-22.317	83.093	-52.821	204.166	36.953	-52.854	-46.577	130.379	264.984	-48.792	-45.014	-44.134	-39.884	9.793	-41.365	-8191	255	
1328.611	1	1	0	0	0.2017	0.24729	0.076857	0.17092	0.14155	0.048052	0.11927	0.013939	0.081869	0.050561	0.27038	0.054778	0.030989	0.18859	0.11962	0.14573	-2.4417	-3.1854	-3.1667	-2.9479	-3.2958	-3.0646	-3.2167	-3.2792	-3.1562	-3.3479	-3.2729	-3.3563	-3.4417	-3.3729	-3.4292	-3.4021	60.863	58.423	20.711	-29.952	-47.012	229.156	-34.212	270.547	139.235	273.961	54.319	263.182	181.759	149.660	122.468	-5.568	9.985e-05	0.0005092	4.8387e-05	252.62	2.7274e-06	2.584e-06	316.36	66.386	3.9526e-06	4.1251e-06	111.52	41.025	22.421	6.5338	2.0823e-06	13.396	0.0064125	0.012996	0.0036925	295.76	0.00011839	0.00014695	362.33	79.727	0.00012024	0.00014171	132.42	49.28	27.981	8.5349	0.00012134	16.484	111.598	-12.573	-0.410	-52.651	99.444	-4.082	-52.830	-47.265	111.564	38.107	-48.898	-45.419	-43.741	-40.466	118.750	-41.097	-8191	255	
1328.707	1	1	0	0	0.15972	0.23072	0.18179	0.085639	0.056471	0.065753	0.26948	0.20521	0.38867	0.13986	0.081002	0.3234	0.07989	0.12141	0.10062	0.058654	-2.8292	-3.475	-3.4437	-3.2646	-3.4333	-3.25	-3.1542	-3.4021	-3.1292	-3.2875	-3.4417	-3.2771	-3.325	-3.4604	-3.2792	-3.4917	111.929	6.442	274.110	257.666	219.090	190.404	199.477	260.843	-26.236	182.687	270.250	-43.810	189.821	58.757	255.690	294.981	2.264e-05	0.00038882	3.2184e-05	252.69	2.1686e-06	1.0713e-06	316.93	65.378	9.2002e-07	5.3033e-06	110.56	40.244	21.551	6.2418	2.6022e-06	12.81	0.0059538	0.011941	0.0033773	293.15	0.000108	0.00013335	360.76	78.235	0.00010921	0.0001274	130.1	47.827	26.767	8.0816	0.00010739	15.676	116.598	40.791	266.189	-53.117	112.750	151.908	-52.925	-46.930	10.675	102.131	-48.799	-45.437	-44.392	-40.116	143.912	-41.080	-8191	255	
1328.826	1	1	0	0	0.23752	0.16665	0.13903	0.15861	0.0464	0.085886	0.050495	0.039871	0.11843	0.21556	0.09311	0.29763	0.16737	0.36054	0.098478	0.052427	-2.775	-3.3312	-3.3	-3.1604	-3.4375	-3.1917	-3.1479	-3.5062	-3.3083	-3.2458	-3.3688	-3.0438	-3.2812	-3.2271	-3.0958	-3.4271	277.885	128.278	-25.287	-58.329	223.288	-61.495	184.345	177.698	279.605	107.440	43.069	142.593	182.314	75.392	134.323	245.180	9.616e-05	0.00036199	0.00016095	251.75	6.3528e-06	7.854e-07	314.46	62.921	1.6794e-06	4.5631e-06	106.26	38.536	20.57	5.98	3.8237e-06	12.328	0.0051866	0.010281	0.0029097	287.78	9.2751e-05	0.0001134	353.16	74.296	9.0906e-05	0.00010624	124.06	45.301	25.045	7.5642	9.2686e-05	14.948	128.065	92.038	101.132	-52.856	73.951	129.250	-52.914	-47.185	194.127	250.092	-48.390	-45.609	-44.392	-40.118	107.272	-41.329	-8191	255	
1328.922	1	1	0	0	0.11507	0.16768	0.12202	0.13782	0.17186	0.11369	0.18568	0.20525	0.044211	0.16689	0.12012	0.065592	0.15143	0.15636	0.16255	0.05999	-2.7083	-3.2	-3.2854	-3.1875	-3.1958	-3.3854	-3.2167	-3.4125	-3.1583	-3.2167	-3.3312	-2.9958	-3.2271	-3.4167	-3.0938	-3.4938	-63.272	135.239	-63.183	267.190	-15.626	201.777	227.631	214.615	-10.715	215.092	-55.310	241.262	-16.258	246.918	-16.982	163.888	8.0302e-05	0.00038171	0.00013689	249.57	3.3002e-06	2.9198e-06	309.78	61.708	5.304e-06	1.4087e-06	104.76	37.189	19.848	5.7777	2.2433e-06	11.933	0.0045594	0.0091902	0.0026287	284.27	8.4292e-05	0.0001026	346.88	72.091	8.1422e-05	9.3594e-05	119.79	43.26	23.748	7.1402	7.5027e-05	14.092	118.976	106.326	42.850	-53.031	34.824	49.867	-53.068	-47.427	196.600	-50.551	-49.023	-45.276	-44.508	-40.063	-25.385	-41.083	-8191	255	
1329.018	1	1	0	0	0.11629	0.093028	0.18067	0.14477	0.24255	0.13297	0.083101	0.038306	0.34404	0.27736	0.15365	0.20501	0.11584	0.099783	0.11097	0.097707	-2.925	-3.1	-3.4375	-3.1771	-3.4958	-3.6333	-3.2792	-3.3563	-3.125	-3.3312	-3.5771	-3.15	-3.5021	-3.2458	-2.925	-3.4083	253.272	48.245	109.713	-29.313	35.234	7.058	289.262	-13.034	255.111	-4.843	-6.623	89.621	-18.918	285.971	215.640	269.556	7.2572e-05	7.8717e-05	2.2937e-05	244.88	2.9867e-06	4.3113e-06	303.4	58.912	3.621e-07	6.0287e-06	101.05	35.914	19.086	5.5742	2.1611e-06	11.632	0.0035449	0.0070585	0.0019689	273.89	6.3004e-05	7.7643e-05	337.52	68.21	6.3615e-05	7.5949e-05	114.87	41.251	22.588	6.8296	6.589e-05	13.661	133.671	29.471	120.803	-52.780	92.338	99.041	-52.976	-47.237	138.446	-20.732	-49.074	-45.782	-44.662	-40.517	5.888	-41.780	-8191	255	
1329.114	1	1	0	0	0.15193	0.15945	0.15981	0.11061	0.31214	0.17922	0.13468	0.31919	0.12959	0.28897	0.055205	0.20059	0.10907	0.13104	0.076697	0.24688	-2.8937	-3.1542	-3.5146	-3.1229	-3.3583	-3.4354	-3.1625	-3.2458	-3.2354	-2.9021	-3.3375	-3.2188	-3.2896	-3.5042	-3.0896	-3.4917	34.145	267.839	-2.693	120.477	101.081	187.134	189.658	199.858	-14.361	152.623	-63.697	139.961	277.006	66.866	67.914	142.540	5.5161e-05	0.00023869	7.3374e-05	245.95	2.7639e-06	2.5043e-06	307.01	59.737	1.2085e-06	1.0717e-06	103.19	36.741	19.477	5.8283	1.8707e-06	12.069	0.0032045	0.006457	0.0018291	274.41	6.0225e-05	7.4589e-05	340.3	68.615	6.2474e-05	7.4981e-05	116.94	42.268	23.126	7.068	6.8396e-05	14.097	75.395	255.988	85.481	-53.040	196.125	138.374	-53.031	-47.136	36.700	165.782	-49.057	-45.233	-44.696	-40.156	-29.792	-41.599	-8191	255	
1329.211	1	1	0	0	0.26697	0.16281	0.10412	0.1669	0.16409	0.15683	0.15929	0.14486	0.036436	0.079049	0.11624	0.1736	0.15622	0.17712	0.1031	0.13481	-2.7562	-3.1146	-3.2458	-3.175	-3.1188	-3.475	-3.1937	-3.5021	-3.3438	-3.0875	-3.2229	-3.0938	-3.1354	-3.2375	-3.1521	-3.6479	223.936	176.107	199.081	239.112	-45.005	-36.220	-10.583	209.474	98.962	168.516	-54.483	164.229	-26.347	13.920	126.801	79.070	2.2423e-05	0.00018339	1.0495e-05	248.1	3.6842e-06	2.1427e-06	310.15	61.029	2.407e-06	3.5545e-06	105.38	37.436	19.737	5.8417	1.9808e-06	12.038	0.0033908	0.0068888	0.0019104	276.73	6.1959e-05	7.5573e-05	343.58	69.75	6.257e-05	7.3849e-05	119.08	42.873	23.279	7.0482	6.5302e-05	14.01	152.747	25.003	121.180	-52.934	221.677	16.948	-52.999	-47.313	58.199	151.158	-48.770	-45.214	-44.725	-40.346	-33.607	-41.582	-8191	255	
1329.307	1	1	0	0	0.17505	0.041283	0.1427	0.13539	0.1824	0.26281	0.075695	0.096358	0.1577	0.071166	0.18449	0.22271	0.081896	0.15164	0.096188	0.1742	-3.1125	-3.0667	-3.2562	-3.0854	-3.1125	-3.5104	-3.0396	-3.2562	-3.2896	-3.0521	-3.5438	-3.3333	-2.7958	-3.2229	-3.2979	-3.2833	269.284	-4.066	225.205	286.449	-37.665	86.723	-65.085	205.704	143.390	19.629	96.554	106.551	227.065	254.487	91.047	32.118	9.2542e-05	0.0001777	6.017e-05	245.17	2.1357e-06	3.0086e-06	307.66	60.334	1.4493e-06	4.406e-06	102.63	36.558	19.521	5.7588	2.5216e-06	11.803	0.0031565	0.0064479	0.0017765	273.69	5.8595e-05	7.1123e-05	340.41	68.74	5.9249e-05	7.1008e-05	116.37	41.961	23.011	6.9776	6.4173e-05	13.786	83.413	-57.464	129.787	-53.192	105.301	92.582	-53.132	-47.300	56.639	140.213	-49.016	-44.750	-44.237	-40.346	20.890	-41.594	-8191	255	
1329.427	1	1	0	0	0.034127	0.26972	0.29669	0.20578	0.14323	0.24768	0.1605	0.051669	0.078362	0.24185	0.17371	0.24289	0.26526	0.026012	0.3177	0.022912	-2.7375	-2.7958	-3.2396	-3.2167	-3.0958	-3.3646	-3.1083	-3.0542	-3.3083	-3.0958	-3.4417	-3.3104	-3.0938	-3.4271	-3.3688	-3.1979	186.845	-11.007	96.205	170.884	27.549	180.440	109.504	-38.991	44.975	223.776	198.781	-16.820	39.204	-39.869	-24.963	36.490	4.7663e-05	0.0003938	3.6937e-05	242.44	3.3856e-06	1.8157e-06	303.12	57.458	2.5184e-06	2.5231e-06	94.802	33.173	17.647	5.2316	2.2001e-06	10.528	0.0031838	0.0063488	0.0017046	271.02	5.3889e-05	6.4213e-05	332.72	64.901	4.8955e-05	5.8706e-05	106.72	37.797	20.525	6.2117	4.6989e-05	12.03	134.949	55.265	38.628	-52.661	111.013	-9.811	-53.113	-47.623	147.428	-17.610	-49.406	-45.862	-45.222	-40.623	165.349	-41.906	-8191	255	
1329.523	1	1	0	0	0.19814	0.22584	0.17937	0.147	0.091419	0.15454	0.018102	0.22427	0.12583	0.18479	0.056511	0.25583	0.12917	0.16117	0.20267	0.076075	-3.05	-3.0625	-3.1333	-3.375	-2.9729	-3.3333	-3.0646	-3.025	-3.4292	-2.9604	-3.1917	-3.1604	-3.0583	-3.3417	-3.0938	-3.0896	86.019	189.967	180.552	245.356	269.686	184.169	21.159	259.494	-53.687	280.484	112.166	205.447	-51.693	202.255	98.913	171.021	2.6797e-05	9.075e-05	6.599e-05	242.91	6.6985e-07	1.0365e-06	298.1	53.959	1.7127e-06	4.75e-06	88.708	30.756	16.71	4.9086	1.3329e-06	9.7493	0.0021974	0.0044565	0.0012018	265.81	3.921e-05	4.6756e-05	324.82	60.267	3.7207e-05	4.3856e-05	98.239	34.444	19.026	5.7207	3.5618e-05	11.037	153.310	49.535	217.721	-53.636	223.626	202.829	-53.531	-48.134	59.389	85.783	-49.698	-46.422	-45.699	-41.580	41.892	-42.068	-8191	255	
1329.618	1	1	0	0	0.12735	0.20411	0.12695	0.17811	0.20179	0.16959	0.042856	0.032283	0.081375	0.19164	0.014631	0.28417	0.21801	0.12976	0.19017	0.16265	-3.0687	-2.9437	-3.1333	-3.3146	-2.9875	-3.3354	-3.1292	-3.0542	-3.3563	-2.9896	-3.0812	-3.4292	-3.1063	-3.3063	-3.3125	-3.0542	73.131	274.448	163.947	287.876	96.125	-46.571	209.907	66.148	-31.152	220.377	127.219	238.713	266.496	-43.372	22.950	11.822	5.7917e-05	0.00041537	7.2382e-05	240.72	9.9884e-07	9.2891e-07	296.17	53.443	1.1336e-06	8.5203e-07	90.732	31.661	16.638	4.9422	2.5563e-06	10.178	0.001708	0.0034087	0.00093125	261.22	3.0698e-05	3.5857e-05	321.65	59.06	2.9895e-05	3.6322e-05	100.35	35.19	18.95	5.6867	3.2273e-05	11.494	129.566	22.678	51.247	-53.505	97.674	46.793	-53.016	-48.176	74.596	114.428	-49.343	-45.629	-44.936	-40.708	26.344	-41.320	-8191	255	
1329.714	1	1	0	0	0.041138	0.19119	0.14547	0.27274	0.05089	0.053075	0.18284	0.021756	0.047666	0.10659	0.12726	0.065906	0.091907	0.23803	0.1415	0.14432	-2.7938	-2.8479	-3.1312	-3.2396	-3.0292	-3.0854	-3.1917	-2.9062	-3.1354	-2.9875	-3.0187	-3.3208	-2.9042	-3.3896	-3.3833	-3.3208	-44.029	-34.971	228.530	14.377	-58.553	196.379	237.386	257.106	12.267	193.339	-52.673	89.272	-21.602	277.769	101.932	116.202	2.2067e-05	0.00015699	7.8345e-05	237.9	1.4501e-06	2.2304e-06	298.52	55.575	1.2805e-06	2.7399e-06	96.844	34.096	17.833	5.2617	1.4419e-06	10.952	0.0016337	0.0034166	0.0009468	257.6	3.3327e-05	3.9923e-05	324.06	61.749	3.4556e-05	4.216e-05	107.46	38.009	20.339	6.1091	3.8552e-05	12.382	143.380	-10.462	96.161	-53.280	-50.946	85.997	-53.101	-47.686	-4.041	52.172	-49.207	-45.207	-44.515	-40.526	209.969	-41.490	-8191	255	
1329.787	1	1	0	0	0.079802	0.2876	0.28905	0.36417	0.059524	0.24362	0.16996	0.18992	0.22619	0.057369	0.22557	0.012004	0.27005	0.14577	0.15601	0.2388	-3.0104	-3.1813	-3.2625	-3.2417	-2.9938	-3.2208	-3.2104	-3.1417	-3.2188	-3.1146	-3.0729	-3.2292	-2.9562	-3.1688	-3.4396	-3.1125	-24.881	293.663	228.555	-20.090	166.756	239.090	57.144	4.504	53.103	275.117	262.736	232.920	256.152	12.300	271.334	130.231	5.2926e-05	0.00018056	4.4506e-05	236.19	1.5454e-06	4.6452e-07	297.77	55.878	7.5466e-07	1.8189e-06	97.226	34.054	17.721	5.2545	1.2997e-06	10.892	0.0018883	0.0038843	0.0010819	257.71	3.6244e-05	4.3564e-05	325.42	62.228	3.5433e-05	4.3991e-05	107.54	38.071	20.256	6.1015	3.7725e-05	12.386	96.520	-16.985	39.684	-52.911	68.678	232.197	-52.866	-47.412	28.143	86.754	-48.884	-45.830	-44.970	-40.356	155.772	-41.270	-8191	255	
1329.906	1	1	0	0	0.040446	0.38765	0.29793	0.12518	0.1515	0.12941	0.15076	0.11359	0.21516	0.096008	0.14579	0.18665	0.25078	0.099591	0.19384	0.10896	-3.0458	-3.2417	-3.1688	-3.5667	-3.2833	-3.0896	-3.2188	-3.0062	-3.25	-3.2	-3.2396	-3.4083	-3.25	-3.2333	-3.5417	-3.075	157.800	188.499	159.123	223.811	231.631	151.138	144.987	175.217	68.236	20.377	10.295	279.392	48.812	139.607	50.989	151.362	6.5051e-05	0.00014244	7.4491e-06	234.51	1.1182e-06	4.3508e-06	301.6	56.829	5.8409e-07	2.8344e-06	101.93	35.472	18.113	5.3785	3.096e-06	11.417	0.0018549	0.0037386	0.0010374	256.84	3.4736e-05	4.0542e-05	328.84	63.418	3.3535e-05	3.9947e-05	112.24	39.529	20.741	6.2245	3.429e-05	12.843	109.655	-15.232	57.975	-52.719	161.536	93.781	-52.545	-47.663	100.459	59.388	-49.069	-44.991	-44.253	-39.826	91.767	-41.430	-8191	255	
1330.002	1	1	0	0	0.29089	0.077494	0.1808	0.064969	0.19927	0.11403	0.066213	0.069851	0.13233	0.086511	0.13891	0.22938	0.089778	0.13699	0.07977	0.078046	-2.9458	-3.1896	-3.1583	-3.6167	-3.2521	-3.2292	-3.6063	-3.2292	-3.3354	-3.275	-2.9083	-3.2146	-3.075	-2.8521	-3.5187	-3.0812	181.757	285.913	88.568	12.862	268.181	-5.178	132.377	231.987	148.773	39.390	-59.100	-55.778	-52.710	260.833	77.040	142.829	5.8982e-05	0.00011289	5.4837e-05	236.15	1.6425e-06	3.2405e-06	305.76	56.767	1.5275e-06	1.391e-06	102.03	34.76	17.806	5.2228	1.5815e-06	11.098	0.0016315	0.0033774	0.00095304	256.07	3.0439e-05	3.5812e-05	330.86	63.079	2.8633e-05	3.465e-05	111.36	38.645	20.049	5.98	2.9271e-05	12.415	91.273	50.323	107.695	-52.584	127.508	81.620	-52.959	-47.402	42.416	128.250	-48.957	-45.563	-44.328	-39.719	106.672	-41.084	-8191	255	
1330.099	1	1	0	0	0.20169	0.044719	0.073888	0.079789	0.14932	0.28781	0.25616	0.057154	0.076197	0.11126	0.15714	0.085507	0.097694	0.18786	0.14638	0.22943	-2.6833	-3.2875	-2.9562	-3.3896	-3.2188	-2.9	-3.3604	-3.0375	-3.2125	-3.3646	-3.1521	-3.5	-3.2729	-3.0229	-3.2333	-3.2062	-8.384	65.070	239.747	161.271	-40.714	243.719	291.291	195.992	88.109	256.504	-8.015	220.848	261.237	145.758	-62.898	289.946	5.0674e-05	0.00011039	5.8323e-05	232.39	1.6116e-06	2.7077e-06	301.04	56.407	8.832e-07	2.5895e-06	100.86	34.808	17.922	5.358	1.882e-06	11.306	0.0014646	0.0029535	0.00084295	251.89	2.8213e-05	3.3723e-05	326.07	62.149	2.7603e-05	3.2797e-05	110.39	38.541	20.195	6.0724	3.0313e-05	12.78	126.518	269.486	9.890	-52.869	139.430	51.640	-53.117	-47.437	91.382	159.762	-48.995	-45.245	-44.346	-39.799	99.468	-40.707	-8191	255	
1330.219	1	1	0	0	0.30401	0.16947	0.079055	0.13874	0.16236	0.14251	0.093302	0.066233	0.030449	0.14059	0.24483	0.14783	0.070834	0.14433	0.23385	0.16873	-2.7708	-3.2146	-2.9146	-3.1646	-3.1104	-3.0729	-3.3771	-3.1979	-3.2292	-3.4292	-3.2583	-3.1854	-3.3667	-2.9833	-3.4354	-3.0771	146.625	54.121	29.741	92.417	238.436	99.334	204.597	137.543	-16.039	1.821	124.446	153.754	244.541	73.778	69.250	132.903	8.7245e-05	0.00018424	5.7402e-05	235.31	1.6255e-06	1.2004e-06	314.32	62.166	1.4746e-06	4.0955e-06	113.26	40.022	20.781	6.1248	1.6624e-06	12.939	0.001548	0.0032096	0.00092261	256.15	3.1296e-05	3.8903e-05	339.82	68.761	3.2695e-05	3.9256e-05	124.72	44.304	23.437	6.9917	3.5586e-05	14.545	112.754	24.961	236.788	-52.513	82.364	31.825	-52.780	-47.229	236.555	-18.752	-48.629	-45.159	-43.767	-40.050	272.865	-41.114	-8191	255	
1330.315	1	1	0	0	0.1489	0.063404	0.17158	0.08556	0.096728	0.030925	0.24441	0.087469	0.14578	0.18603	0.21429	0.16482	0.099968	0.20628	0.10687	0.018205	-2.6771	-3.3333	-3.1	-3.1792	-3.2042	-2.9792	-3.5208	-3.2687	-3.2083	-3.5917	-3.3292	-3.3458	-3.4042	-2.8521	-3.0354	-3.0854	150.067	9.191	-30.921	184.937	26.889	-29.824	106.653	143.812	64.830	40.729	277.391	250.660	42.926	211.034	65.860	124.407	5.2583e-05	4.3257e-05	2.5736e-05	242.05	3.545e-06	2.835e-06	324.89	66.853	1.4747e-06	2.3958e-06	119.48	42.017	21.607	6.3646	2.0506e-06	13.292	0.0017833	0.0036256	0.0010446	264.18	3.3965e-05	4.1305e-05	351.64	73.867	3.4253e-05	4.1069e-05	131.35	46.455	24.452	7.234	3.5556e-05	14.981	88.352	-12.777	9.622	-52.433	77.205	60.346	-52.485	-47.336	244.128	111.072	-48.602	-45.101	-43.541	-39.986	111.219	-41.210	-8191	255	
1330.387	1	1	0	0	0.073579	0.15796	0.1749	0.087248	0.085689	0.05953	0.16015	0.086743	0.27914	0.20054	0.12081	0.24502	0.0043287	0.25901	0.13063	0.21665	-2.6792	-3.425	-3.1188	-3.1458	-3.5479	-3.25	-3.4229	-3.1479	-2.9458	-3.4354	-3.0896	-3.0646	-3.5	-3.0646	-3.3187	-3.3771	22.018	92.504	237.128	34.726	168.029	105.258	-33.378	-21.257	-53.641	159.550	277.319	261.039	236.149	119.393	-5.244	-29.313	0.00012243	0.00013406	4.2688e-05	243.5	1.1977e-06	2.2079e-06	331.68	70.795	1.608e-06	1.4153e-06	126.44	43.899	22.836	6.5122	9.0785e-07	13.651	0.0017804	0.0036243	0.0010415	266.6	3.3366e-05	4.1446e-05	359.61	78.046	3.363e-05	3.9986e-05	138.04	48.664	25.694	7.4738	3.3868e-05	15.377	134.575	-52.682	0.369	-52.258	53.350	185.870	-52.765	-46.884	97.602	225.046	-48.577	-44.526	-43.769	-39.851	293.778	-40.716	-8191	255	
1330.508	1	1	0	0	0.031057	0.06778	0.1269	0.078831	0.22284	0.043093	0.28283	0.20597	0.2074	0.046522	0.23704	0.24105	0.037808	0.32377	0.13188	0.27266	-2.6979	-3.3937	-3.1833	-3.3521	-3.4688	-3.0292	-3.3	-3.1771	-2.8521	-3.2833	-3.1729	-3	-3.25	-3.0146	-3.1917	-3.4833	-63.918	216.883	102.050	-20.819	-1.319	141.666	-17.877	225.012	205.030	195.147	-4.799	-43.227	52.372	149.575	40.282	245.902	3.3703e-05	0.00024028	7.758e-05	243.46	1.1652e-06	1.3663e-06	327.47	69.871	1.4405e-06	1.8178e-06	123.55	42.594	22.123	6.3358	1.9013e-06	13.278	0.0017276	0.0033878	0.00096985	265.88	3.1606e-05	3.8805e-05	354.84	77.132	3.1745e-05	3.7212e-05	134.98	47.092	24.77	7.1821	3.1459e-05	14.922	97.117	-12.487	30.698	-51.676	84.216	67.638	-52.760	-47.178	6.939	183.381	-48.806	-44.810	-43.452	-39.452	141.971	-41.116	-8191	255	
1330.604	1	1	0	0	0.28961	0.31945	0.21883	0.23845	0.19349	0.3293	0.089798	0.036558	0.085987	0.077483	0.14864	0.071606	0.27522	0.10367	0.21369	0.07914	-2.6521	-3.3167	-2.9979	-3.1583	-3.3208	-3.2396	-3.4146	-3.4229	-3.0687	-3.4417	-3.1333	-2.7896	-3.4437	-3.0729	-3.1125	-3.2562	-60.673	244.712	87.168	45.952	293.349	249.015	-4.986	124.854	205.117	66.631	7.705	-24.045	-53.263	151.519	268.154	151.820	0.00010789	0.00048115	6.7404e-05	242.05	1.2765e-06	9.349e-07	330.01	71.587	3.0991e-07	5.6764e-06	128.63	44.743	23.373	6.735	4.5314e-07	14.157	0.001632	0.0031701	0.00090949	263.94	2.9391e-05	3.608e-05	357.02	78.393	2.9199e-05	3.4038e-05	140	49.386	26.196	7.6041	2.8296e-05	15.721	116.957	-6.787	27.303	-52.166	90.580	262.650	-52.708	-46.855	231.026	94.217	-48.761	-45.168	-43.949	-39.615	292.078	-41.114	-8191	255	
1330.700	1	1	0	0	0.083122	0.20302	0.14623	0.26956	0.25015	0.13478	0.10407	0.23886	0.13118	0.12664	0.18613	0.27094	0.094835	0.10963	0.12787	0.12863	-2.4437	-3.2521	-3.1271	-2.9604	-3.4146	-3.2271	-3.3063	-3.1146	-3.0146	-3.4396	-3.3271	-3.1104	-3.4229	-3.0479	-2.9104	-3.2687	274.479	136.482	209.114	148.326	57.823	185.742	-22.368	242.860	289.078	255.559	277.042	144.432	132.329	255.791	281.963	214.014	9.0635e-05	0.00033453	5.1403e-05	251.07	1.7028e-06	2.2091e-06	342.46	75.859	7.4813e-07	1.6416e-06	133.58	46.543	24.163	6.8721	1.8379e-06	14.484	0.0014024	0.0025979	0.00073917	271.21	2.2689e-05	2.7577e-05	368.88	82.361	2.0909e-05	2.3431e-05	144.28	50.73	26.601	7.6318	1.8879e-05	15.866	125.633	6.090	22.867	-52.315	9.248	100.987	-52.372	-46.875	-7.132	70.379	-48.936	-44.768	-43.862	-39.929	72.257	-41.364	-8191	255	
1330.819	1	1	0	0	0.080475	0.22583	0.073045	0.26563	0.20592	0.19057	0.22023	0.088961	0.023868	0.22	0.20171	0.046236	0.14268	0.12116	0.043675	0.17539	-2.5187	-2.9646	-3.0667	-2.9896	-3.5417	-3.3	-3.0333	-3.3271	-2.7562	-3.2646	-3.3688	-3.0104	-3.4479	-3.2083	-3.0083	-3.3604	-59.785	-42.906	278.679	233.648	223.340	-22.748	259.801	38.212	253.477	38.903	0.317	283.907	210.984	-62.394	143.716	108.618	9.4681e-05	0.00026856	1.2564e-05	252.91	2.2127e-06	2.4684e-06	347.73	76.749	5.5031e-07	1.587e-06	134.82	46.814	24.372	6.9165	1.772e-06	14.492	0.00099734	0.0018294	0.00051972	272	1.6596e-05	2.1093e-05	373.08	83.238	1.6924e-05	1.8985e-05	145.04	51.043	26.766	7.6649	1.695e-05	15.841	97.424	27.944	144.966	-52.062	23.390	87.327	-52.647	-46.890	-49.964	40.193	-48.429	-45.017	-43.969	-40.019	118.139	-40.858	-8191	255	
1330.915	1	1	0	0	0.091316	0.21678	0.26425	0.17917	0.065621	0.26748	0.087537	0.084591	0.38045	0.15993	0.23478	0.13763	0.16246	0.073922	0.086755	0.1954	-2.6	-3.3	-3.3896	-3.0792	-3.4729	-3.2062	-2.9292	-3.1208	-3.0396	-3.0833	-3.3312	-3.0146	-3.3	-3.2917	-3.1229	-3.375	234.851	196.188	270.464	28.016	196.818	5.185	293.769	11.393	185.649	128.232	179.933	79.230	94.176	-11.422	279.639	265.187	5.903e-05	0.00021518	7.3224e-05	250.21	4.8063e-07	3.4062e-06	341.54	75.997	3.7304e-07	9.0833e-07	131.76	46.051	23.888	6.6437	2.7312e-06	14.093	0.00090171	0.001647	0.00047149	268.35	1.5026e-05	1.8834e-05	366.69	82.244	1.5593e-05	1.7512e-05	142.51	49.881	26.038	7.4025	1.5185e-05	15.427	119.096	-8.900	45.068	-52.144	180.016	97.427	-52.679	-47.297	-28.351	38.464	-48.633	-44.885	-43.494	-39.424	44.377	-40.662	-8191	255	
1331.011	1	1	0	0	0.23588	0.28727	0.13671	0.03022	0.098737	0.062158	0.15224	0.27227	0.10072	0.075063	0.12386	0.068527	0.17343	0.073389	0.25568	0.071849	-2.6604	-3.0375	-3.275	-2.9021	-3.3688	-3.1021	-2.9542	-3.2479	-3.0563	-3.2229	-3.3688	-3.05	-3.2083	-3.5229	-3.1333	-3.5312	168.570	158.241	11.600	149.520	153.352	213.315	-51.126	281.778	28.050	205.989	151.599	29.852	-46.830	-47.063	191.645	294.755	7.771e-05	0.00011592	5.888e-05	248.11	1.4492e-06	4.452e-07	340.05	73.66	1.6031e-06	1.8273e-06	131.17	45.649	23.799	6.7774	2.9685e-06	14.437	0.00080141	0.0014351	0.00042125	265.05	1.3359e-05	1.6553e-05	363.51	79.714	1.3602e-05	1.5523e-05	141.47	49.515	25.969	7.4372	1.3447e-05	15.774	89.230	281.973	59.522	-52.376	148.948	32.026	-52.421	-46.721	43.538	18.626	-48.679	-45.155	-43.654	-39.782	74.846	-40.939	-8191	255	
1331.083	1	1	0	0	0.10697	0.23292	0.030539	0.20004	0.13448	0.11002	0.069964	0.1726	0.11851	0.026988	0.1403	0.01883	0.019605	0.11297	0.11581	0.29055	-2.8958	-3.0438	-3.3063	-3.0833	-3.2542	-3.25	-3.1479	-3.2458	-3.1021	-3.1625	-3.3438	-3.2521	-3.3	-3.325	-2.8521	-3.3896	249.107	153.054	158.491	151.039	-24.260	157.755	225.585	36.908	184.319	133.714	-12.527	231.185	151.290	86.127	252.520	268.598	6.6457e-05	0.00012755	7.4798e-05	257.75	5.8075e-07	1.3675e-06	353.67	80.635	1.5915e-06	1.7042e-06	141.22	49.757	26.172	7.3824	1.2739e-06	15.363	0.00073347	0.0013164	0.00037332	274.86	1.2002e-05	1.5151e-05	378.42	86.717	1.2696e-05	1.4545e-05	152.23	54.062	28.66	8.1219	1.2964e-05	16.721	125.920	24.798	62.326	-52.108	-9.175	102.442	-52.494	-46.927	100.133	50.836	-48.693	-45.137	-43.898	-39.909	56.568	-41.448	-8191	255	
1331.203	1	1	0	0	0.15907	0.072744	0.13436	0.2247	0.041766	0.11673	0.31478	0.15124	0.21474	0.086588	0.2187	0.1967	0.057718	0.29306	0.25166	0.12928	-2.8542	-3.1021	-3.3771	-3.05	-3.1833	-3.3625	-3.1	-3.3521	-3.2708	-3.2146	-3.5167	-3.2375	-3.2313	-3.5771	-2.9917	-3.5042	101.936	-57.602	102.137	272.832	185.421	165.301	261.580	-36.611	99.589	153.525	221.640	211.871	115.142	228.972	211.257	-44.392	6.8031e-05	0.0002895	4.8881e-05	260.17	1.0248e-06	1.9674e-06	354.04	79.105	1.2012e-06	8.5474e-07	137.68	47.807	25.157	7.1859	1.4231e-07	14.743	0.00069183	0.0012881	0.00035487	278.11	1.17e-05	1.4714e-05	377.46	85.626	1.2704e-05	1.4907e-05	147.07	51.763	27.31	7.8567	1.3552e-05	16.092	113.376	-43.218	42.199	-52.106	98.605	80.951	-52.633	-46.885	105.296	83.003	-48.900	-45.429	-44.065	-39.980	63.876	-41.004	-8191	255	
1331.300	1	1	0	0	0.076642	0.21126	0.15861	0.12522	0.26493	0.16459	0.17434	0.18492	0.15906	0.11223	0.067888	0.049481	0.12846	0.075297	0.23073	0.13452	-2.8917	-2.85	-3.1354	-2.9604	-3.0521	-3.4104	-3.0146	-3.075	-3.3479	-3.0771	-3.2833	-3.3521	-3.1188	-3.5479	-3.0917	-3.2917	-44.302	-33.051	217.616	14.644	-5.543	188.647	54.819	257.398	10.922	114.692	88.835	-38.837	281.881	233.817	-34.693	262.545	8.2999e-05	0.00018318	8.1913e-05	253.16	1.0423e-06	2.1631e-06	343.73	75.312	2.9674e-06	2.2855e-06	130.69	45.438	23.746	6.9109	7.3379e-07	14.233	0.00073584	0.0013877	0.00038233	271.08	1.3171e-05	1.5935e-05	366.04	81.017	1.3825e-05	1.6199e-05	140.26	49.461	25.964	7.6037	1.4418e-05	15.567	135.700	37.135	62.089	-52.264	61.534	82.659	-52.792	-46.960	53.134	73.860	-48.930	-45.517	-43.789	-39.664	-22.591	-41.389	-8191	255	
1331.396	1	1	0	0	0.25189	0.17792	0.099997	0.061444	0.2043	0.15816	0.42998	0.026168	0.15295	0.18039	0.1593	0.098919	0.19108	0.25395	0.28624	0.27631	-2.5125	-2.9938	-3.4417	-3.2833	-3.2917	-3.3917	-2.9896	-3.1437	-3.3729	-3.2479	-3.5583	-3.3604	-3.1	-3.4083	-3	-3.1312	142.308	176.073	86.239	158.981	217.874	74.093	239.350	-53.230	-8.638	-1.218	243.936	119.619	72.115	3.156	241.922	159.146	0.00011883	0.00026603	9.7347e-06	252.86	4.9339e-07	1.8935e-06	339.34	71.923	1.9348e-06	1.9452e-06	123.75	42.63	22.072	6.4296	1.7762e-06	13.585	0.00076017	0.0014079	0.00038536	269.21	1.2816e-05	1.5544e-05	361.57	77.655	1.2768e-05	1.5202e-05	133.11	46.448	23.996	7.0746	1.3159e-05	14.771	114.783	-15.437	81.725	-52.204	-50.950	114.299	-52.392	-47.264	93.270	121.942	-48.999	-45.504	-44.215	-40.184	71.293	-41.173	-8191	255	
1331.492	1	1	0	0	0.15942	0.17257	0.18296	0.099852	0.20805	0.10471	0.16288	0.23627	0.051798	0.11724	0.16614	0.33558	0.17137	0.10671	0.16904	0.073833	-2.9979	-2.9542	-3.5375	-3.3563	-3.1958	-3.2646	-3.1125	-3.0938	-3.4792	-3.1396	-3.3396	-3.2687	-3.0458	-3.4792	-3.2958	-3.2562	208.931	234.680	283.672	44.684	275.026	167.049	253.594	45.805	245.366	223.921	171.048	229.245	257.052	141.425	10.669	58.568	7.3957e-05	0.00010857	4.5057e-05	245.39	1.3759e-06	9.7373e-07	332.77	68.953	7.5162e-07	1.8223e-06	122.54	42.362	21.87	6.4547	6.3938e-07	13.693	0.00068257	0.0013084	0.00035027	262.24	1.1808e-05	1.3866e-05	355.42	74.214	1.2158e-05	1.4671e-05	131.62	45.951	23.737	7.0685	1.2982e-05	14.987	113.673	72.032	105.705	-52.348	195.587	148.617	-53.027	-46.974	49.740	40.347	-48.952	-44.816	-44.554	-39.955	68.193	-41.021	-8191	255	
1331.611	1	1	0	0	0.29013	0.25546	0.19299	0.18073	0.11707	0.082451	0.091583	0.056146	0.054314	0.049261	0.30033	0.11433	0.1701	0.084015	0.12493	0.19007	-2.925	-2.9292	-3.1604	-3.3083	-2.8917	-3.4375	-3.3083	-3.3375	-3.5604	-3.0042	-3.2062	-3.3083	-3.0333	-3.3	-3.3833	-3.1708	44.174	195.471	-53.356	140.853	220.576	234.606	61.062	204.507	185.658	-29.333	16.564	224.863	-40.034	31.749	273.324	233.334	7.6109e-05	6.7504e-05	3.4804e-05	249.66	1.6849e-06	1.7365e-06	339.26	73.483	1.0006e-06	2.2666e-06	130.7	45.883	24.196	6.9908	5.4466e-07	14.619	0.00069252	0.0013158	0.00035945	266.56	1.2828e-05	1.531e-05	362.71	79.309	1.3521e-05	1.6227e-05	140.62	49.852	26.427	7.7136	1.5929e-05	15.968	93.164	0.452	4.482	-52.325	49.776	71.750	-52.418	-46.970	121.916	155.960	-49.079	-45.171	-43.920	-39.906	151.521	-41.589	-8191	255	
1331.684	1	1	0	0	0.38228	0.082141	0.031002	0.24187	0.14221	0.18193	0.18356	0.23113	0.15156	0.29483	0.16379	0.10086	0.14795	0.05515	0.062271	0.33688	-3.1167	-3.1771	-3.2021	-3.3896	-3.0042	-3.2354	-3.1792	-3.0167	-3.3625	-3.1562	-3.2354	-3.4271	-3.0646	-3.2646	-3.4771	-2.9375	292.475	82.022	232.522	230.343	205.605	48.608	-57.439	-64.512	141.430	70.167	39.613	274.182	-40.498	73.957	-18.716	-23.623	6.6505e-05	0.00014592	1.4681e-05	253.9	1.0035e-06	3.0195e-06	342.07	77.235	2.9238e-06	2.1063e-06	133.22	46.794	24.687	7.1712	2.4149e-06	14.522	0.00082218	0.0016194	0.00044873	271.8	1.5565e-05	1.8542e-05	366.32	83.212	1.6273e-05	2.0057e-05	143.33	50.822	27.023	7.8942	1.81e-05	16.037	110.230	-2.367	15.671	-52.094	106.557	46.667	-53.035	-46.810	73.641	130.523	-49.045	-45.127	-43.881	-40.101	38.817	-41.338	-8191	255	
1331.780	1	1	0	0	0.012855	0.15501	0.15767	0.17874	0.26286	0.064292	0.30183	0.11816	0.20966	0.13541	0.13075	0.098971	0.1236	0.21797	0.1058	0.17114	-3.0771	-3.2229	-3.25	-3.425	-3.0125	-3.2292	-3.2854	-2.875	-3.2188	-3.1375	-3.0229	-3.3479	-2.8854	-3	-3.2229	-3.0146	111.706	95.569	29.583	187.937	25.921	-15.454	-65.138	68.103	107.413	-15.404	-54.885	290.116	-63.742	247.539	-64.151	224.728	8.9016e-05	0.0002419	1.9866e-05	253.18	8.447e-07	1.9283e-06	339.15	75.21	1.314e-06	2.1181e-06	131.77	46.061	24.355	7.1108	7.9855e-07	14.656	0.00092102	0.0018144	0.00049497	271.48	1.6896e-05	1.9498e-05	365.26	81.686	1.6749e-05	2.0931e-05	142.13	50.406	26.727	7.8541	1.88e-05	16.105	90.716	-36.676	64.769	-52.151	20.506	49.987	-52.448	-47.233	57.946	91.230	-48.872	-45.486	-44.418	-40.031	78.027	-41.218	-8191	255	
1331.899	1	1	0	0	0.084773	0.28333	0.124	0.3493	0.22413	0.19592	0.17926	0.15563	0.23213	0.25449	0.15048	0.10127	0.12165	0.19084	0.12216	0.041478	-2.8604	-3.0229	-3.1188	-3.1229	-2.7583	-3.25	-3.3104	-2.9146	-3.2708	-3.1021	-3.0854	-3.2271	-3.0958	-3.2979	-3.4354	-3.1708	74.643	18.989	253.854	173.178	267.922	238.404	67.036	222.055	50.445	209.520	203.960	225.523	-33.581	121.077	277.548	96.459	6.7367e-05	0.00019002	3.3117e-05	254.65	2.4531e-07	1.7336e-06	343.5	75.975	6.0957e-07	3.0286e-06	129.99	45.153	23.338	6.7628	2.0428e-06	13.981	0.00095723	0.0019043	0.00053499	273.46	1.8161e-05	2.113e-05	369.44	82.018	1.7559e-05	2.1508e-05	140.71	49.31	25.597	7.5029	1.8106e-05	15.339	119.304	96.655	-11.270	-51.940	-42.599	42.982	-52.436	-47.108	34.782	94.239	-48.896	-45.320	-43.776	-40.377	96.455	-41.636	-8191	255	
1331.995	1	1	0	0	0.077768	0.19136	0.07347	0.17423	0.082505	0.27569	0.19495	0.11897	0.14504	0.2076	0.079968	0.11893	0.068328	0.20712	0.15882	0.15759	-3.0938	-3.3396	-3.0354	-3.4188	-2.9833	-3.1833	-3.575	-3.2271	-3.4688	-3.25	-3.0021	-3.4354	-3.2542	-3.2708	-3.5312	-3.1229	195.917	145.788	269.513	-13.042	88.271	33.903	230.020	-16.973	-14.983	225.984	28.590	85.262	238.510	190.641	-55.272	-25.565	7.5981e-05	0.00010849	2.34e-05	245.67	1.5799e-06	1.7207e-06	330.43	68.387	6.8594e-07	2.153e-06	119.52	41.182	21.242	6.293	8.5781e-07	13.256	0.00090433	0.0017709	0.00049533	264.29	1.6596e-05	1.9162e-05	353.64	74.08	1.5718e-05	1.92e-05	128.8	44.874	23.323	6.9755	1.6284e-05	14.529	116.676	60.534	24.294	-52.458	125.682	52.299	-52.691	-47.158	-44.833	127.799	-48.826	-45.365	-44.633	-40.043	256.280	-41.045	-8191	255	
1332.092	1	1	0	0	0.17947	0.25652	0.061343	0.12148	0.22766	0.13578	0.058918	0.20696	0.12411	0.11935	0.20428	0.073969	0.21773	0.19763	0.17301	0.15286	-2.875	-3.175	-2.9104	-3.325	-3.1167	-3.275	-3.5	-3.1792	-3.1583	-3.35	-2.975	-3.2042	-3.1104	-2.9437	-3.3875	-3.2687	219.598	259.017	186.219	287.288	269.527	-14.880	128.378	100.889	3.251	-36.936	-48.867	-15.757	85.776	86.736	187.855	229.109	8.538e-05	0.00032004	3.1774e-05	243.3	1.2063e-06	4.1386e-07	326.17	68.427	6.4991e-07	3.0708e-06	121.16	42.342	22.014	6.5526	4.6435e-07	13.893	0.0008287	0.0016479	0.00045751	260.23	1.5125e-05	1.8117e-05	349.56	73.938	1.5231e-05	1.8587e-05	131.24	46.16	24.26	7.2555	1.6053e-05	15.209	109.223	66.716	-56.054	-52.374	75.346	230.332	-52.564	-47.202	144.025	131.707	-48.513	-45.491	-44.207	-39.725	133.181	-40.947	-8191	255	
1332.188	1	1	0	0	0.18381	0.056717	0.29155	0.18736	0.17495	0.029877	0.36101	0.15764	0.018137	0.36722	0.08815	0.19079	0.083087	0.10667	0.30568	0.095939	-2.8479	-3.1958	-3.1937	-3.3208	-3.0438	-3.0792	-3.4562	-3.1104	-3.0083	-3.2875	-3.2812	-3.1521	-3.0458	-2.9333	-3.4313	-3.3646	174.219	195.447	107.365	-42.616	-49.394	246.860	269.693	36.245	178.102	-8.329	-57.454	186.912	-5.522	114.957	26.850	99.280	6.1945e-05	0.0001981	0.00010817	250.42	1.6574e-06	1.7543e-06	337.35	73.555	2.426e-06	1.5462e-06	129.1	45.314	23.626	6.9303	1.4061e-06	14.403	0.00085529	0.0016601	0.00046422	266.75	1.6148e-05	1.9016e-05	362.74	79.398	1.5802e-05	1.9091e-05	139.79	49.422	26.029	7.676	1.6428e-05	15.804	129.503	7.950	25.300	-52.221	175.919	92.933	-52.655	-46.889	103.650	67.748	-48.761	-45.461	-43.955	-39.827	147.537	-41.333	-8191	255	
1332.284	1	1	0	0	0.21631	0.24336	0.15917	0.0073426	0.1082	0.21688	0.10699	0.30366	0.12869	0.14278	0.027647	0.23059	0.22867	0.037858	0.081086	0.169	-2.8375	-3.4417	-3.1729	-3.4813	-3.2271	-3.25	-3.2792	-3.2042	-2.9604	-3.4875	-3.05	-3.2667	-3.1354	-3.1042	-3.4083	-3.1167	294.347	1.574	275.298	53.171	-53.996	271.570	116.796	216.943	262.849	179.048	172.781	-0.510	179.608	253.614	245.762	-36.692	0.00012725	0.0002835	3.8499e-05	252.71	1.3486e-06	1.9685e-06	339.75	73.043	1.7678e-06	2.5241e-06	127.67	44.638	23.214	6.8087	2.3644e-07	14.142	0.00088604	0.0017043	0.00049992	270.56	1.6165e-05	1.9492e-05	364.56	78.961	1.6237e-05	1.9602e-05	137.93	48.625	25.334	7.5262	1.681e-05	15.509	116.131	37.703	-55.365	-52.172	123.381	72.144	-52.823	-47.138	89.806	87.605	-48.654	-45.005	-44.143	-40.393	68.727	-41.459	-8191	255	
1332.380	1	1	0	0	0.071289	0.11468	0.26339	0.15419	0.059717	0.2226	0.17932	0.10355	0.25646	0.13388	0.17155	0.19045	0.04827	0.056369	0.089233	0.13424	-2.6146	-3.4333	-3.1	-3.4646	-3.3979	-3.0187	-3.425	-3.2021	-3.3146	-3.6625	-3.2271	-3.4333	-3.4167	-2.9417	-3.3458	-3.1875	271.278	252.168	203.910	240.747	107.662	198.115	-12.758	211.263	117.276	23.294	30.230	105.736	15.425	266.787	170.841	30.683	5.9214e-05	0.00023161	4.8938e-05	250.32	1.6253e-06	2.4602e-06	337.24	72.434	1.0945e-06	2.6299e-06	127	44.393	23.113	6.7626	2.6811e-06	14.026	0.0008914	0.001719	0.00048379	267.5	1.6115e-05	1.9314e-05	360.6	78.418	1.6249e-05	1.8775e-05	137.16	48.245	25.314	7.5045	1.6524e-05	15.424	107.755	42.379	35.172	-52.433	94.549	104.752	-52.673	-46.881	104.257	73.709	-48.895	-44.994	-43.793	-40.095	59.767	-41.121	-8191	255	
1332.501	1	1	0	0	0.25355	0.11559	0.22339	0.19183	0.28144	0.1382	0.20247	0.2789	0.097978	0.33214	0.13756	0.052901	0.060543	0.088508	0.080783	0.052714	-2.8229	-3.425	-3.125	-3.2271	-3.4104	-3.1417	-3.3625	-3.225	-3.2062	-3.5042	-3.3604	-3.0479	-3.3396	-3.0542	-3.4021	-3.35	268.883	164.712	23.161	233.589	246.991	-54.032	-57.053	-43.846	215.885	-42.088	203.065	253.662	253.023	28.528	-62.902	152.865	0.00011382	0.00028189	9.328e-05	248.02	2.0593e-06	2.3978e-06	335.72	72.688	1.1739e-06	2.9201e-06	127.44	44.476	23.043	6.7807	1.6755e-06	14.069	0.00087442	0.0016461	0.00048439	266.37	1.5932e-05	1.9335e-05	360.6	79.048	1.6001e-05	1.8496e-05	137	48.427	25.287	7.5032	1.5579e-05	15.426	106.906	22.087	47.436	-52.134	54.283	95.839	-52.386	-46.825	97.911	88.193	-48.560	-44.994	-43.745	-40.646	79.961	-41.438	-8191	255	
1332.597	1	1	0	0	0.11439	0.0044818	0.19527	0.058572	0.20383	0.017563	0.22863	0.10048	0.059086	0.075332	0.11502	0.13254	0.053604	0.084516	0.039144	0.072561	-2.9021	-3.3917	-3.1042	-3.0687	-3.4604	-3.0917	-3.4958	-3.3646	-3.3417	-3.4917	-3.1292	-3.1271	-3.3146	-2.9313	-3.3604	-3.4042	-5.177	57.681	194.604	164.606	49.866	137.944	205.477	-15.523	22.228	153.320	189.740	197.191	109.630	225.838	-58.708	203.536	7.407e-05	9.0262e-05	3.227e-05	248.46	1.9698e-06	9.5877e-07	333.9	69.871	1.4104e-06	6.7675e-07	122.55	42.651	21.69	6.5093	1.4635e-06	13.82	0.00083817	0.0015399	0.00045684	265.42	1.429e-05	1.7578e-05	356.87	75.615	1.4742e-05	1.6835e-05	132.09	46.321	23.954	7.224	1.5641e-05	15.128	102.750	30.624	2.722	-51.876	85.447	72.687	-52.517	-47.408	89.796	92.198	-48.468	-45.395	-44.106	-39.910	55.811	-41.295	-8191	255	
1332.691	1	1	0	0	0.15541	0.25538	0.21263	0.10674	0.22668	0.049196	0.13511	0.11995	0.14879	0.10912	0.21227	0.1606	0.098095	0.042485	0.039891	0.25275	-2.8396	-3.4646	-3.3438	-3.2542	-3.4729	-3.0833	-3.2521	-3.4062	-2.9667	-3.3896	-3.0875	-3.2687	-3.3271	-3.2625	-3.2042	-3.5438	64.459	155.389	108.402	-47.982	61.336	229.368	138.418	120.115	18.038	8.913	159.385	284.418	191.634	294.052	167.873	186.764	0.0001035	6.0439e-05	3.4149e-05	248.73	2.6564e-06	8.4492e-07	334.93	69.473	1.6342e-06	3.2549e-06	123.18	42.616	21.753	6.5292	9.3972e-07	13.699	0.00084422	0.0015207	0.00044396	265.77	1.4466e-05	1.7995e-05	358.55	75.431	1.4498e-05	1.6656e-05	132.73	46.295	23.981	7.2276	1.4568e-05	14.996	112.169	60.079	24.703	-52.081	147.009	-11.978	-52.624	-47.285	51.456	123.921	-48.758	-45.328	-44.269	-40.298	152.423	-41.349	-8191	255	
1332.787	1	1	0	0	0.09781	0.14327	0.15994	0.15689	0.16118	0.093146	0.059905	0.17767	0.16152	0.14636	0.18953	0.14007	0.22417	0.2097	0.22811	0.11754	-2.8208	-3.3396	-3.2812	-3.0271	-3.3187	-3.0812	-3.2771	-3.5958	-3.2687	-3.4104	-3.2021	-3.0104	-3.3812	-2.9896	-2.9437	-3.3688	235.460	254.881	141.531	246.249	224.830	-17.874	-38.145	196.416	121.722	92.871	208.353	4.048	80.954	161.109	233.429	282.109	8.7551e-05	4.6713e-05	4.4222e-05	246.12	1.2815e-06	1.9103e-06	329.46	68.956	1.2113e-06	1.442e-06	118.86	41.185	21.266	6.348	2.0292e-06	13.167	0.00078105	0.0014417	0.00041772	263.21	1.3329e-05	1.6821e-05	354.51	74.282	1.3903e-05	1.5891e-05	128.53	44.706	23.19	7.0332	1.3976e-05	14.437	114.347	51.903	35.236	-52.096	88.704	156.175	-52.743	-47.299	212.513	51.719	-49.001	-45.355	-44.429	-40.129	95.801	-41.431	-8191	255	
1332.908	1	1	0	0	0.064894	0.056567	0.13002	0.29353	0.021202	0.17131	0.17281	0.047968	0.22119	0.18249	0.23169	0.22986	0.18805	0.1919	0.095693	0.2301	-2.7313	-3.2271	-3.3833	-2.9896	-3.4354	-3.0896	-3.0917	-3.3375	-3.0062	-3.3354	-3.425	-3.0354	-3.5	-3.1146	-3.2333	-3.5833	65.863	163.340	267.156	-7.429	-22.970	-28.959	193.576	287.959	42.215	294.731	50.601	-53.328	279.728	248.599	48.518	275.026	7.8663e-05	0.00014878	3.6729e-05	243.86	2.4239e-06	1.6682e-06	325.41	67.077	1.7766e-06	1.315e-06	118.58	40.916	20.984	6.3417	3.7009e-07	13.152	0.00074837	0.0013969	0.00039611	260.32	1.3103e-05	1.6491e-05	350.39	72.562	1.4002e-05	1.5509e-05	127.68	44.506	23.029	7.0336	1.4571e-05	14.393	110.706	-42.845	-11.805	-52.413	65.744	114.462	-52.919	-47.182	11.160	277.387	-48.998	-45.300	-44.104	-41.015	115.563	-41.281	-8191	255	
1332.980	1	1	0	0	0.085475	0.13357	0.086154	0.037579	0.067088	0.12111	0.13726	0.27202	0.10441	0.25508	0.15169	0.17676	0.048757	0.018617	0.086007	0.13046	-2.6667	-3.3167	-3.0354	-2.9479	-3.3083	-3.2479	-3.1125	-3.2438	-3.1667	-3.2479	-3.3292	-3.1271	-3.1458	-2.9792	-2.9542	-3.3729	75.954	283.019	268.540	202.283	241.737	39.540	14.600	-4.341	266.124	264.145	101.114	-47.763	92.001	181.544	216.536	292.681	6.8228e-05	0.0001447	2.2857e-05	242.86	1.232e-06	7.1955e-07	326.65	66.296	1.3185e-06	1.4737e-06	117.25	40.081	20.444	6.2252	1.8466e-06	12.862	0.00075853	0.0014079	0.00040198	259.92	1.3096e-05	1.6508e-05	350.45	71.5	1.4011e-05	1.5815e-05	125.74	43.5	22.333	6.8576	1.4191e-05	14.043	122.242	73.139	-15.181	-52.478	83.154	54.296	-52.566	-47.561	70.823	271.015	-48.981	-45.230	-44.176	-40.359	49.443	-41.321	-8191	255	
1333.076	1	1	0	0	0.025431	0.19063	0.13566	0.074269	0.21125	0.22492	0.043445	0.055201	0.27776	0.16285	0.087771	0.30477	0.081124	0.084125	0.12339	0.099644	-2.7917	-3.0833	-3.1896	-3.0979	-3.3229	-3.3937	-3.0292	-3.4062	-3.2875	-3.1375	-3.2062	-3.0604	-3.3604	-3.4667	-3.0312	-3.5146	76.256	-63.549	117.071	51.571	287.087	67.533	127.202	281.748	281.867	10.961	142.656	-57.425	161.239	-13.077	66.191	-47.237	7.4503e-05	0.00027819	2.6342e-05	241.96	6.2297e-07	1.4524e-06	323.08	62.902	6.7888e-07	1.1379e-06	109.78	37.031	18.865	5.7884	1.4569e-06	11.858	0.00075646	0.0013746	0.0003933	259.8	1.274e-05	1.5823e-05	346.56	68.343	1.3286e-05	1.5001e-05	118.08	40.344	20.7	6.3885	1.2982e-05	12.957	116.329	51.289	-3.621	-52.642	78.865	116.837	-52.889	-47.171	201.694	4.313	-48.684	-45.320	-44.866	-40.588	92.948	-41.582	-8191	255	
1333.172	1	1	0	0	0.16694	0.095894	0.16521	0.28822	0.098973	0.096196	0.27059	0.15759	0.10667	0.28413	0.083739	0.047757	0.30092	0.14277	0.16802	0.11173	-2.7333	-3.0458	-3.2583	-2.9604	-3.2542	-3.4688	-3.1229	-3.5417	-3.3104	-3.2542	-3.4396	-3.1292	-3.0021	-3.2646	-3.1917	-3.5479	41.142	248.004	-13.285	279.072	-32.434	194.879	289.975	203.298	9.675	-49.850	199.602	279.411	165.285	15.229	82.765	163.441	4.9342e-05	3.9277e-05	3.685e-05	233.14	2.4665e-07	8.7888e-07	305.66	57.134	6.8017e-07	2.1113e-06	99.344	33.187	17.147	5.3523	1.1623e-06	10.861	0.00069077	0.0012674	0.00035239	249.25	1.1423e-05	1.4043e-05	327.58	61.647	1.1303e-05	1.3258e-05	106.7	36.181	18.772	5.8425	1.1132e-05	11.876	105.192	17.788	-52.698	-52.729	288.948	147.883	-52.823	-47.784	82.810	38.044	-49.153	-45.779	-44.805	-40.690	27.500	-41.483	-8191	255	
1333.293	1	1	0	0	0.17053	0.10896	0.10331	0.11878	0.069682	0.13323	0.15112	0.061451	0.19382	0.20133	0.11881	0.12855	0.15381	0.095189	0.25708	0.21608	-2.9437	-2.9958	-3.0083	-2.9271	-3.1396	-3.2687	-2.9583	-3.2083	-3.1854	-3.3021	-3.4958	-3.0917	-3.2292	-3.4021	-3.2021	-3.1813	230.237	-13.905	196.731	32.621	-48.026	175.436	18.824	119.063	46.758	213.872	111.314	150.341	202.904	242.528	78.732	276.260	5.0358e-05	4.5921e-05	2.7366e-05	227.01	4.9158e-07	1.6825e-06	300.67	54.701	1.1913e-06	3.1989e-06	96.454	32.655	17.065	5.2891	1.1263e-06	10.925	0.00058632	0.0010542	0.00029481	243.06	1.011e-05	1.2134e-05	321.51	58.949	1.048e-05	1.217e-05	103.33	35.479	18.61	5.8202	1.1677e-05	11.962	130.461	-31.922	-50.586	-52.666	117.964	103.989	-53.436	-47.539	166.431	110.790	-49.490	-45.627	-45.226	-40.841	163.905	-41.879	-8191	255	
1333.389	1	1	0	0	0.20893	0.043077	0.14048	0.067929	0.30424	0.098178	0.053366	0.26316	0.21652	0.14562	0.12875	0.015687	0.21958	0.2674	0.052608	0.27054	-2.7396	-2.9417	-3.2896	-3.0792	-3.0167	-3.4167	-3.0542	-3.1417	-3.1083	-2.9188	-3.3583	-3.1583	-3.0667	-3.5563	-3.1875	-3.2896	287.855	250.638	21.313	288.580	159.497	-12.131	203.693	219.136	164.326	125.077	111.160	182.143	292.785	138.162	-27.588	-35.413	6.4417e-05	0.00018019	1.2668e-05	232.11	8.2273e-07	1.3035e-06	309.57	57.285	1.1708e-06	1.7287e-06	103.13	35.338	18.238	5.6556	9.7072e-07	11.685	0.00063452	0.0012152	0.0003351	248.33	1.1733e-05	1.4284e-05	331.33	62.369	1.2728e-05	1.4736e-05	111.09	38.405	19.992	6.2712	1.3645e-05	12.794	129.624	-0.376	61.010	-52.758	142.455	108.710	-52.897	-47.832	-28.400	115.122	-49.228	-45.850	-44.755	-40.592	169.066	-41.558	-8191	255	
1333.485	1	1	0	0	0.087171	0.2711	0.2921	0.1292	0.2072	0.0095352	0.22699	0.16944	0.24302	0.25137	0.17476	0.18482	0.2588	0.18643	0.16295	0.13264	-3.1542	-2.9792	-3.3375	-3.325	-2.9958	-3.6083	-3.3417	-3.3021	-3.4604	-3.1792	-3.6021	-3.3	-3.2188	-3.4917	-3.1229	-3.3021	61.846	177.328	-12.477	-34.227	-12.937	259.295	-52.027	116.403	-7.007	-50.392	-35.179	-9.896	98.093	252.039	269.431	255.274	4.3175e-05	0.00024625	5.2244e-05	236.73	2.001e-06	1.5765e-06	317.77	60.644	2.1107e-07	8.6509e-07	106.78	36.442	18.618	5.7665	1.2453e-06	11.761	0.00073044	0.0013948	0.00038573	253.38	1.3009e-05	1.5411e-05	339.15	65.745	1.3457e-05	1.6033e-05	115.22	39.69	20.521	6.3841	1.4255e-05	12.928	131.988	42.458	30.624	-52.547	75.574	117.712	-52.938	-47.423	51.806	72.300	-49.212	-45.499	-44.800	-40.823	47.511	-41.427	-8191	255	
1333.581	1	1	0	0	0.11747	0.24647	0.074559	0.17906	0.11851	0.33544	0.11897	0.021652	0.0819	0.11619	0.18337	0.24158	0.083051	0.17282	0.17298	0.061874	-3.0354	-2.9854	-3.3792	-3.3208	-3.2062	-3.4021	-3.2438	-3.2208	-3.5396	-3.2438	-3.3812	-3.2646	-3.1229	-3.4542	-3.2396	-3.0417	96.170	110.131	228.309	-2.132	245.853	166.643	260.472	45.335	-23.667	185.218	288.230	238.220	77.224	116.248	206.299	184.539	4.3191e-05	0.00010339	2.4878e-05	236.41	7.1053e-07	8.1097e-07	313.21	60.451	1.2245e-06	1.7328e-06	106.61	36.202	18.93	5.7569	1.8838e-06	11.851	0.00074604	0.001426	0.00039474	252.48	1.3444e-05	1.5883e-05	336.41	65.51	1.3611e-05	1.6264e-05	115.11	39.528	20.611	6.3849	1.4979e-05	13.002	119.672	81.637	-15.999	-52.684	134.269	130.572	-52.631	-47.351	64.290	86.852	-49.398	-45.631	-44.834	-40.465	87.580	-41.414	-8191	255	
1333.677	1	1	0	0	0.19627	0.17869	0.15474	0.16275	0.069672	0.1217	0.18032	0.14593	0.094856	0.12561	0.10232	0.092595	0.092325	0.10464	0.07314	0.15105	-2.8958	-3.0729	-3.2438	-3.3604	-2.7313	-3.325	-3.1229	-3.0646	-3.4062	-3.0479	-3.3396	-3.2812	-2.9917	-3.375	-3.3937	-3.2167	6.596	228.221	4.890	190.873	1.537	-54.159	124.112	42.648	-17.835	-53.521	62.372	147.844	24.779	24.614	112.181	222.062	6.52e-05	0.00010645	3.7671e-05	235.29	1.1178e-06	6.452e-07	314.3	60.816	2.3228e-06	2.2258e-06	106.22	35.746	18.293	5.7263	5.1428e-07	11.704	0.00074188	0.0014898	0.00040962	252.16	1.3899e-05	1.6306e-05	336.85	65.877	1.3534e-05	1.6211e-05	114.39	39.006	20.166	6.2663	1.4166e-05	12.79	128.420	34.999	-21.972	-52.719	79.443	56.784	-52.812	-47.431	94.102	57.777	-48.859	-45.804	-45.213	-41.035	206.590	-41.499	-8191	255	
1333.772	1	1	0	0	0.099226	0.13126	0.078445	0.068806	0.18655	0.33656	0.091481	0.02732	0.22112	0.15645	0.13021	0.19579	0.12914	0.17839	0.29889	0.20003	-3.0792	-3.0542	-3.1625	-3.3458	-2.9229	-3.3438	-3.2458	-3.0958	-3.4313	-3.1375	-3.1521	-3.4083	-2.9	-3.425	-3.2729	-3.0729	231.876	14.448	-26.766	158.639	187.545	80.821	137.644	94.621	239.812	214.051	181.062	206.002	211.315	91.858	-2.718	-61.472	4.2481e-05	4.1699e-05	7.6532e-05	233.06	7.4497e-07	1.4932e-06	310.65	57.993	2.1948e-06	1.267e-06	102.81	35.112	17.912	5.5693	1.9131e-06	11.437	0.00069656	0.001355	0.00037611	249.37	1.2701e-05	1.4917e-05	332.83	62.914	1.2032e-05	1.4799e-05	110.76	37.96	19.619	6.1004	1.306e-05	12.527	103.677	74.641	20.550	-52.712	121.589	71.338	-52.893	-47.542	57.307	51.745	-49.167	-45.593	-44.599	-40.589	71.787	-41.108	-8191	255	
1333.869	1	1	0	0	0.045652	0.10861	0.18007	0.19442	0.092431	0.14656	0.06942	0.15928	0.14127	0.062045	0.12946	0.26184	0.074696	0.11989	0.087647	0.20246	-2.9521	-2.8896	-3.2167	-3.3438	-3.1104	-3.3417	-3.275	-2.9771	-3.3312	-3.2271	-3.1833	-3.3625	-3.0042	-3.2438	-3.2438	-2.9417	176.827	147.694	65.415	29.844	-44.794	-46.138	12.413	283.115	10.480	-60.544	-48.637	231.914	224.499	110.801	-43.060	-8.972	7.8107e-05	0.00017915	2.9004e-05	234.28	1.6289e-06	1.3397e-06	313.51	59.168	8.6761e-07	2.1753e-06	105.82	36.024	18.56	5.8029	9.7103e-07	12.012	0.00065357	0.0013002	0.00035801	250.3	1.2313e-05	1.413e-05	334.88	64.033	1.2458e-05	1.5287e-05	113.64	39.058	20.362	6.394	1.3919e-05	13.124	121.354	44.295	101.762	-52.788	85.621	45.768	-52.953	-47.490	44.194	90.614	-48.730	-45.817	-44.639	-40.452	168.864	-41.347	-8191	255	
1333.988	1	1	0	0	0.10978	0.14	0.27434	0.15967	0.21063	0.19397	0.16167	0.066729	0.062645	0.11393	0.10354	0.035061	0.14214	0.1436	0.21409	0.37423	-2.8625	-3.2812	-3.125	-3.4021	-3.3	-3.3354	-3.4188	-3.0146	-3.325	-3.0167	-3.0292	-3.1729	-2.8854	-3.2333	-3.4729	-3.2188	9.695	85.491	160.836	128.799	103.510	-2.918	104.228	177.244	153.278	121.798	247.408	209.550	49.655	170.849	75.717	93.555	5.4845e-05	0.00010212	1.393e-05	237.11	2.4947e-06	8.7366e-07	318.35	63.113	6.7993e-07	3.863e-07	111.11	37.803	19.598	6.0679	7.6284e-07	12.378	0.00074032	0.0014625	0.00040345	253.91	1.3822e-05	1.617e-05	340.76	68.147	1.3887e-05	1.7364e-05	119.36	41.228	21.535	6.7323	1.5567e-05	13.617	121.829	81.893	52.398	-52.713	108.183	103.916	-52.904	-47.734	50.125	-23.186	-49.000	-45.436	-44.771	-40.883	16.145	-41.238	-8191	255	
1334.085	1	1	0	0	0.077989	0.11408	0.17941	0.057079	0.23272	0.098014	0.22908	0.075016	0.14546	0.049031	0.24281	0.071779	0.23307	0.18348	0.17972	0.17991	-2.9021	-3.3125	-2.9917	-3.4292	-3.1271	-3.1688	-3.3542	-3.0208	-3.1167	-3.1833	-3.0438	-3.3271	-3.1146	-3.1562	-3.3	-2.9813	235.908	157.020	109.224	-61.783	-0.912	-15.814	267.063	-43.823	164.932	37.724	172.098	284.501	20.294	-30.492	137.264	42.154	6.2739e-05	0.00014693	5.933e-05	240.53	7.8366e-07	1.951e-06	322.74	64.67	1.0757e-06	1.5092e-06	113.35	38.966	20.05	6.2716	1.4662e-06	12.675	0.00080327	0.0015365	0.00044241	257.39	1.4788e-05	1.7535e-05	344.51	69.989	1.4294e-05	1.7948e-05	122.75	42.447	22.098	6.8799	1.5305e-05	13.958	68.480	71.719	5.316	-52.752	9.652	102.227	-52.850	-47.779	124.976	160.191	-49.107	-45.480	-44.173	-40.738	90.777	-41.474	-8191	255	
1334.181	1	1	0	0	0.059431	0.073647	0.13923	0.1464	0.21909	0.20687	0.29332	0.27307	0.036447	0.278	0.23548	0.083267	0.21901	0.15931	0.10593	0.20021	-2.9479	-3.3354	-2.8083	-3.5583	-3.4333	-3.2729	-3.5625	-3.1917	-3.425	-3.3083	-2.9562	-3.3667	-3.0187	-2.95	-3.3521	-3.1042	31.375	1.426	-65.237	-60.771	150.694	34.783	203.098	268.628	270.062	117.550	181.892	212.228	142.362	-27.397	239.276	252.582	9.1341e-05	0.00028429	8.599e-05	241.39	2.2432e-06	1.4024e-06	327.44	66.912	1.1338e-07	1.7274e-06	116.74	39.87	20.464	6.2915	1.7377e-06	12.831	0.00079679	0.0015669	0.00044082	259.08	1.5025e-05	1.7373e-05	350.5	72.176	1.4802e-05	1.8013e-05	126.16	43.53	22.478	6.947	1.5441e-05	14.133	106.668	5.914	37.549	-52.058	113.247	89.084	-52.856	-47.367	123.825	58.206	-49.276	-45.309	-44.708	-40.959	91.134	-41.349	-8191	255	
1334.277	1	1	0	0	0.061271	0.11858	0.21883	0.077577	0.20549	0.11207	0.21286	0.17219	0.18852	0.063303	0.19454	0.079908	0.11525	0.021844	0.19558	0.11436	-2.8104	-3.2146	-3.0604	-3.3937	-3.2708	-3.2583	-3.4271	-2.9688	-3.325	-3.3021	-3.0229	-3.3333	-3.275	-3.175	-3.2583	-3.1396	51.700	36.926	176.196	-40.852	205.307	118.291	287.541	93.503	-39.097	42.441	42.526	142.506	124.932	155.561	193.320	-50.455	5.214e-05	0.00010529	5.2361e-05	239.95	1.4705e-06	1.346e-06	320.53	64.043	7.8372e-07	1.636e-06	109.81	37.284	19.233	5.9355	1.963e-06	12.092	0.00079227	0.0015459	0.00041912	257.34	1.4106e-05	1.6892e-05	344.02	69.08	1.3486e-05	1.6081e-05	118.32	40.485	21.002	6.5265	1.3773e-05	13.296	118.133	7.906	75.052	-52.377	65.595	69.215	-52.637	-47.524	27.218	27.626	-49.037	-45.653	-44.767	-41.278	98.523	-41.831	-8191	255	
1334.373	1	1	0	0	0.079983	0.16599	0.10965	0.046661	0.053118	0.15264	0.07022	0.21193	0.025885	0.11777	0.26595	0.032505	0.21039	0.018229	0.16936	0.087459	-2.6896	-3.4021	-3.1688	-3.3312	-3.2438	-3.0729	-3.3917	-3.1375	-3.1021	-3.4437	-3.0042	-3.1312	-3.3042	-3.0208	-3.1833	-3.1146	-48.558	-2.538	54.017	56.529	14.314	172.545	251.633	190.627	117.910	18.585	24.149	63.472	286.171	266.581	96.363	-9.830	5.243e-05	8.062e-05	1.3935e-05	236.16	1.6493e-06	1.2474e-06	313.63	61.001	1.4139e-06	1.7865e-06	106.35	36.227	18.886	5.8357	4.914e-07	12.066	0.00071299	0.0013921	0.00039454	252.6	1.3079e-05	1.5447e-05	335.6	65.909	1.2721e-05	1.4909e-05	114.89	39.442	20.579	6.4493	1.3314e-05	13.279	105.231	6.235	13.131	-52.337	24.506	90.737	-52.963	-47.631	96.749	127.889	-48.898	-45.779	-45.446	-40.665	-54.536	-41.414	-8191	255	
1334.469	1	1	0	0	0.13262	0.20024	0.34503	0.1131	0.12897	0.10607	0.05789	0.1853	0.068086	0.12551	0.27296	0.27568	0.32366	0.059493	0.1499	0.2441	-2.7042	-3.3542	-3.1104	-3.4083	-3.3625	-3.1167	-3.5479	-3.0021	-3.075	-3.5396	-2.9896	-3.3917	-3.4437	-3.2313	-3.4375	-3.2854	59.168	136.742	113.007	137.095	185.792	43.014	144.464	181.905	-30.956	-46.009	-7.727	-28.324	208.397	73.959	172.020	-58.813	6.5021e-05	0.00018648	5.9363e-05	238.81	1.2794e-06	1.6728e-06	317.9	62.66	1.9569e-06	1.5343e-06	111.29	37.961	19.76	6.0645	2.7886e-06	12.605	0.00071292	0.001342	0.00039327	254.1	1.3399e-05	1.593e-05	339.75	67.689	1.3387e-05	1.5928e-05	119.78	41.309	21.54	6.7107	1.4656e-05	13.887	135.966	44.969	98.443	-52.543	83.098	159.679	-52.876	-47.481	77.126	83.556	-48.729	-45.686	-44.795	-40.569	29.895	-41.255	-8191	255	
1334.590	1	1	0	0	0.17405	0.08253	0.095739	0.019211	0.15537	0.17151	0.11005	0.07233	0.02519	0.077703	0.20437	0.33737	0.27942	0.1817	0.22951	0.13828	-2.7062	-3.3833	-3.1396	-3.4458	-3.4125	-3.1979	-3.5271	-3.3125	-3.1896	-3.25	-3.025	-3.0979	-3.3208	-2.9375	-3.1562	-3.25	1.182	13.963	109.788	123.113	261.101	194.811	96.050	217.461	173.288	-13.009	8.856	270.462	84.490	156.882	111.975	175.240	5.9612e-05	0.0001368	6.3019e-05	240.96	1.8148e-06	2.1095e-06	328.24	68.085	8.8503e-07	1.5024e-06	118.42	40.877	21.118	6.4641	9.6073e-07	13.197	0.00079675	0.0015159	0.00043609	258.77	1.4723e-05	1.8061e-05	352.52	73.185	1.5502e-05	1.7989e-05	128.25	44.487	23.207	7.1568	1.6635e-05	14.573	107.997	79.216	34.499	-52.267	116.889	16.789	-52.730	-47.725	83.917	59.578	-48.794	-45.636	-43.939	-40.943	249.698	-41.472	-8191	255	
1334.684	1	1	0	0	0.13171	0.081511	0.10272	0.2916	0.035594	0.11195	0.12309	0.21129	0.10343	0.091102	0.13366	0.10653	0.11511	0.14286	0.3021	0.18953	-2.6896	-3.5917	-3.0667	-3.1917	-3.3438	-2.9938	-3.2729	-3.3375	-3.0917	-3.4396	-3.2521	-3.2687	-3.2521	-2.8479	-3.1396	-3.2104	49.879	186.784	264.028	40.819	7.168	163.983	34.977	288.456	146.230	20.949	-47.772	-21.883	211.581	257.053	-14.424	146.518	9.3095e-05	0.00023981	1.6832e-05	244.81	1.652e-06	2.6363e-06	329.37	69.289	1.2864e-06	1.8197e-06	119.39	40.922	21.296	6.4884	1.4663e-06	13.216	0.00089486	0.0016971	0.00050368	261.85	1.6178e-05	1.9978e-05	352.36	74.797	1.6419e-05	1.9568e-05	128.58	44.516	23.362	7.2033	1.7157e-05	14.516	93.413	282.471	-3.874	-52.372	71.833	62.268	-52.700	-47.477	16.322	76.825	-48.895	-45.291	-44.528	-40.554	77.735	-41.661	-8191	255	
1334.780	1	1	0	0	0.14041	0.05908	0.2856	0.056622	0.13085	0.056125	0.15353	0.21224	0.17221	0.17904	0.079813	0.14661	0.086619	0.13247	0.15299	0.2115	-2.5563	-3.375	-3.075	-3.3042	-3.6271	-3.1437	-3.3354	-3.3937	-2.9417	-3.2271	-3.2313	-3.1979	-3.3438	-2.9292	-3.2812	-3.2396	152.294	242.908	231.555	2.301	281.147	260.862	238.231	185.397	216.971	252.372	275.613	108.683	-46.678	-37.519	221.118	183.215	7.8572e-05	0.00016127	6.6089e-05	241.6	1.9731e-06	1.7289e-06	325.38	67.908	9.3665e-07	3.1959e-06	117.25	39.992	20.774	6.4061	8.1089e-07	13.062	0.00089489	0.001689	0.00050017	260.01	1.5685e-05	1.9621e-05	349.05	73.776	1.6414e-05	1.8819e-05	126.49	43.797	22.868	7.0741	1.6512e-05	14.256	106.917	60.037	22.965	-52.262	135.973	58.430	-52.709	-47.650	186.840	63.677	-48.824	-45.493	-44.851	-40.869	84.664	-41.671	-8191	255	
1334.854	1	1	0	0	0.098568	0.20595	0.15245	0.28837	0.056059	0.16494	0.10258	0.29324	0.18255	0.12399	0.14813	0.24705	0.14583	0.092694	0.063261	0.027222	-2.575	-3.2729	-3.1292	-2.8479	-3.3375	-3.0583	-3.0542	-3.15	-2.9521	-3.3063	-3.3688	-3.0521	-3.5417	-3.2104	-3.2458	-3.5438	278.081	86.996	12.569	-36.674	-40.622	75.012	255.983	211.867	30.909	195.833	90.520	-56.826	205.309	187.482	99.532	145.171	5.8841e-05	8.4391e-05	4.5362e-05	241.74	1.4574e-06	1.2632e-06	325.89	66.934	1.6001e-06	3.4444e-06	116.4	39.5	20.318	6.1821	1.7482e-06	12.756	0.00086754	0.0016083	0.00047392	258.48	1.4577e-05	1.8849e-05	348.64	72.251	1.5508e-05	1.7599e-05	124.94	43.055	22.255	6.8863	1.5399e-05	14.011	130.140	116.988	-7.260	-52.664	88.280	21.156	-52.631	-47.264	-6.586	103.732	-48.755	-45.333	-44.193	-40.672	179.790	-41.255	-8191	255	
1334.950	1	1	0	0	0.25182	0.023538	0.10478	0.028002	0.14854	0.10523	0.073848	0.094747	0.061482	0.070535	0.090364	0.16259	0.10881	0.073346	0.10535	0.12236	-2.6542	-3.4562	-3.2375	-3.3187	-3.4375	-3.3333	-3.2729	-3.5208	-3.2646	-3.4062	-3.2896	-3.1958	-3.4167	-3.2146	-3.3896	-3.375	279.092	-30.414	193.997	204.465	290.068	282.954	200.813	227.325	-33.323	118.344	210.807	266.654	253.470	153.179	271.357	154.618	7.9871e-05	0.00011635	5.5229e-05	239.44	2.2437e-06	1.2295e-06	323.42	64.539	1.2428e-06	9.2984e-07	113.75	38.748	19.942	6.1218	1.6443e-06	12.719	0.00082484	0.0015193	0.00043934	257.51	1.4077e-05	1.7799e-05	347.46	69.844	1.473e-05	1.7024e-05	122.75	42.306	21.835	6.7979	1.5329e-05	13.954	105.920	93.005	26.324	-52.328	72.754	61.269	-52.978	-47.432	113.522	84.361	-49.093	-45.521	-44.784	-40.541	154.782	-41.272	-8191	255	
1335.069	1	1	0	0	0.033891	0.13153	0.21632	0.089977	0.077488	0.092871	0.17497	0.099022	0.20426	0.046509	0.15087	0.22929	0.3683	0.10513	0.1483	0.29841	-2.8417	-3.3812	-3.375	-3.1896	-3.5625	-3.4833	-3.3104	-3.4729	-3.3354	-3.1708	-3.4875	-3.0271	-3.475	-3.3563	-3.1813	-3.4062	78.974	273.085	89.636	157.894	220.355	159.199	87.290	96.674	237.514	25.193	65.021	34.885	237.806	283.166	30.485	221.887	8.7739e-05	0.00016192	3.9323e-05	240.47	5.0996e-07	2.3245e-06	321.11	63.778	1.1026e-06	1.2977e-06	110.4	38.066	19.562	5.9817	4.075e-07	12.416	0.00083777	0.0015092	0.00043738	256.49	1.4414e-05	1.8139e-05	343.46	69.109	1.5353e-05	1.7718e-05	119.9	41.24	21.403	6.6414	1.5941e-05	13.629	107.465	30.922	26.517	-52.234	92.862	97.546	-52.638	-47.475	95.005	7.229	-49.034	-45.617	-44.679	-40.692	216.261	-41.669	-8191	255	
1335.165	1	1	0	0	0.36835	0.21488	0.21507	0.24824	0.14581	0.045598	0.10929	0.19434	0.13685	0.2142	0.2057	0.35341	0.14409	0.023601	0.026411	0.10743	-2.8312	-3.3417	-3.4188	-3.3042	-3.4646	-3.475	-3.1708	-3.6208	-3.0417	-3.3458	-3.3833	-2.9208	-3.2354	-3.2708	-3.1521	-3.4437	164.950	-17.981	19.432	233.486	57.750	-63.246	291.479	69.502	64.083	83.710	35.937	38.234	244.329	62.892	242.428	283.328	3.9646e-05	0.00023825	2.778e-05	238.31	2.4293e-06	1.2466e-06	319.26	63.378	8.0009e-07	1.4245e-06	112.66	38.188	19.759	6.0783	2.966e-07	12.604	0.00085701	0.0016204	0.00044998	254.86	1.4997e-05	1.9117e-05	341.67	68.753	1.6283e-05	1.8445e-05	121.13	41.609	21.693	6.7414	1.7058e-05	13.872	149.669	22.275	106.069	-52.226	90.281	86.949	-52.936	-47.534	135.443	23.957	-49.155	-45.625	-44.433	-40.563	204.355	-41.290	-8191	255	
1335.261	1	1	0	0	0.10179	0.31417	0.13096	0.10651	0.11422	0.12802	0.12063	0.22482	0.21738	0.17052	0.22208	0.18559	0.19166	0.090759	0.18704	0.099191	-2.7062	-3.1771	-3.2771	-3.05	-3.3104	-3.25	-3.2167	-3.3333	-3.0938	-3.2208	-3.425	-3.2104	-3.1562	-3.3438	-3.0312	-3.3292	78.850	-22.186	-2.815	65.236	112.158	135.042	292.068	112.767	112.393	-21.706	255.994	280.562	234.129	29.232	180.288	97.163	6.704e-05	0.00026702	4.2463e-05	240.9	3.0544e-06	2.7634e-06	328.08	67.309	1.5401e-07	1.4722e-06	118.89	40.937	21.366	6.4822	1.49e-06	13.515	0.00090597	0.0017001	0.00049211	258.77	1.6294e-05	2.0097e-05	351.21	73.117	1.7701e-05	2.0225e-05	128.87	44.854	23.51	7.2222	1.8775e-05	14.794	99.595	17.842	61.866	-52.338	133.954	52.094	-52.817	-47.814	14.222	66.165	-49.037	-45.247	-44.405	-40.732	36.850	-41.568	-8191	255	
1335.382	1	1	0	0	0.04226	0.22473	0.090606	0.27545	0.2747	0.13935	0.21145	0.035177	0.25975	0.04667	0.049147	0.10605	0.19997	0.15068	0.22068	0.13069	-2.6542	-3.0479	-3.4646	-3.1583	-3.4	-3.3708	-3.1542	-3.1854	-3.1917	-2.8521	-3.4146	-3.1479	-2.8479	-3.2958	-2.9	-3.1729	218.519	167.477	10.447	-22.965	83.648	31.319	268.834	114.434	211.290	280.990	133.070	207.628	229.821	199.763	127.921	-2.044	9.1742e-05	0.00018426	2.4124e-05	247.68	2.1643e-06	1.1544e-06	333.07	70.047	1.1724e-06	2.4537e-06	121.83	41.703	21.622	6.573	2.2998e-07	13.383	0.00099319	0.001872	0.00051675	265.29	1.7438e-05	2.1617e-05	358.26	75.973	1.8188e-05	2.1198e-05	131.79	45.543	23.698	7.2831	1.8809e-05	14.675	114.556	22.660	10.907	-52.117	46.190	136.258	-52.931	-47.405	102.381	98.396	-48.870	-45.400	-44.100	-40.303	229.774	-41.638	-8191	255	
1335.453	1	1	0	0	0.41233	0.22727	0.12591	0.19544	0.10455	0.11043	0.21201	0.13614	0.17701	0.10834	0.29022	0.10511	0.13684	0.067406	0.096968	0.22839	-2.9271	-2.9167	-3.3417	-2.9375	-3.0896	-3.4813	-3.0542	-3.4437	-3.3625	-3.2042	-3.5146	-3.3354	-3.1875	-3.4625	-3.1708	-3.2917	277.273	241.857	167.630	39.761	170.056	-13.416	111.001	-26.920	256.660	125.137	-38.065	280.795	114.786	18.000	-21.928	280.845	7.357e-05	0.00015493	1.4552e-05	245.24	9.001e-07	2.096e-06	325.82	67.85	1.4903e-06	3.0016e-06	116.79	40.167	20.82	6.3688	2.3909e-06	13.095	0.00097002	0.0018542	0.00051127	262.03	1.6376e-05	2.0335e-05	350.02	73.36	1.6865e-05	2.0088e-05	126.37	43.654	22.849	7.061	1.7613e-05	14.328	141.989	89.512	34.887	-52.471	61.480	66.776	-52.445	-47.537	38.117	48.708	-49.082	-45.589	-44.010	-40.280	162.716	-41.596	-8191	255	
1335.549	1	1	0	0	0.10098	0.15986	0.25732	0.20886	0.25818	0.13324	0.22892	0.21185	0.078517	0.25223	0.11461	0.16825	0.2004	0.27274	0.093648	0.23696	-2.7375	-2.8167	-3.3583	-3.1375	-3.0417	-3.3229	-3.1771	-3.1188	-3.1396	-3.1312	-3.2875	-3.3708	-3.1562	-3.5146	-3.3063	-3.3979	54.430	24.336	48.887	260.065	53.643	132.136	-60.052	226.735	119.151	85.998	-30.152	9.104	203.555	234.848	-36.309	-42.419	7.8359e-05	0.00012688	2.5817e-05	241.7	1.1699e-06	3.0302e-06	328.84	69.191	1.1653e-06	4.3141e-06	121.21	41.547	21.607	6.5805	1.1485e-06	13.508	0.00091329	0.0017576	0.00048828	260.64	1.6508e-05	1.9862e-05	352.81	74.871	1.7045e-05	2.0578e-05	130.52	45.366	23.832	7.3074	1.8312e-05	14.84	127.414	27.294	76.264	-52.375	138.660	107.613	-52.941	-47.128	71.785	48.475	-49.016	-45.475	-44.420	-40.483	222.848	-41.480	-8191	255	
1335.670	1	1	0	0	0.086116	0.20961	0.086403	0.15272	0.31189	0.2184	0.30263	0.083794	0.11136	0.042871	0.10667	0.16452	0.099811	0.20643	0.14554	0.12498	-3.0062	-3.0312	-3.5229	-3.3417	-3.1917	-3.4729	-3.3125	-3.3667	-3.5354	-3.2333	-3.4771	-3.3417	-3.1917	-3.2729	-3.2208	-3.325	184.841	286.399	-36.362	200.290	6.183	87.826	258.011	173.105	239.773	271.160	58.768	245.527	169.804	210.314	79.919	132.223	0.00012982	0.00027611	3.7447e-05	246.54	1.8316e-06	1.8187e-06	335.66	72.753	1.5103e-06	2.1979e-06	126.71	43.775	22.834	6.8649	6.0067e-07	14.099	0.00091726	0.0018127	0.00048931	264.78	1.6537e-05	1.9975e-05	360.1	78.712	1.717e-05	2.0285e-05	136.34	47.715	25.096	7.5786	1.863e-05	15.471	111.944	76.843	25.248	-52.069	70.786	89.654	-52.745	-46.960	16.284	128.350	-48.952	-45.264	-44.311	-40.429	176.692	-41.849	-8191	255	
1335.765	1	1	0	0	0.050315	0.061045	0.10357	0.079626	0.10756	0.24239	0.16845	0.52741	0.20619	0.050787	0.17284	0.11813	0.05543	0.10917	0.024792	0.2883	-2.9729	-3.0646	-3.1771	-3.3125	-3.1667	-3.425	-3.0708	-3.1417	-3.65	-3.2021	-3.3875	-3.3917	-3.1667	-3.3792	-3.1708	-3.1021	-46.351	112.252	13.393	-15.972	113.011	236.658	22.477	-16.191	-17.543	92.293	-52.725	177.113	70.074	109.161	178.194	274.466	8.1428e-05	0.00019391	4.3083e-05	249.8	6.487e-07	3.4242e-06	340.24	73.626	1.3271e-06	1.9892e-06	126.46	43.105	22.153	6.67	2.3096e-06	13.565	0.00092797	0.001853	0.00050658	268.39	1.6949e-05	2.0361e-05	365.02	79.802	1.7095e-05	2.0651e-05	135.94	47.016	24.414	7.3663	1.7802e-05	14.906	89.561	32.378	-19.008	-52.503	-17.368	60.802	-52.539	-47.407	62.442	70.556	-48.827	-45.341	-44.399	-40.615	41.351	-41.503	-8191	255	
1335.862	1	1	0	0	0.2796	0.15095	0.29143	0.25571	0.29716	0.17589	0.080372	0.13688	0.12375	0.22407	0.23056	0.070712	0.19908	0.083174	0.045343	0.17575	-2.725	-3.075	-3.1729	-3.2458	-2.9833	-3.5271	-3.3354	-3.0208	-3.3271	-3.1083	-3.3792	-3.3563	-3.1646	-3.3854	-3.1458	-3.2354	45.908	58.124	102.058	126.270	2.462	66.426	33.794	14.395	194.256	118.884	-50.847	-4.707	-55.505	61.597	50.457	169.035	4.3347e-05	0.00010882	5.3228e-05	242.6	7.4184e-07	1.1243e-06	324.81	67.597	9.6656e-07	2.5695e-06	115.66	39.726	20.334	6.2955	6.9033e-07	12.929	0.00090364	0.0017822	0.0004831	261.36	1.626e-05	1.9196e-05	348.88	73.298	1.5974e-05	1.9379e-05	125.02	43.228	22.46	6.9468	1.6424e-05	14.161	111.816	49.647	-11.087	-52.101	12.839	117.475	-52.649	-47.230	-23.525	51.633	-48.861	-45.551	-44.329	-40.722	183.087	-41.289	-8191	255	
1335.981	1	1	0	0	0.12938	0.14195	0.086279	0.26472	0.30953	0.20111	0.18633	0.035799	0.12338	0.15396	0.23677	0.31808	0.1274	0.11183	0.079971	0.049854	-3.0687	-3.1896	-3.5125	-3.5083	-3.1167	-3.5312	-3.4208	-3.2	-3.5771	-3.2771	-3.2917	-3.6354	-3.2083	-3.5354	-3.4042	-3.0333	33.583	235.051	71.401	117.827	14.930	0.730	9.113	-60.104	-53.342	7.235	286.040	-57.608	167.227	15.364	-9.787	27.120	5.692e-05	0.00013138	6.165e-05	240.91	3.9666e-07	1.1505e-06	321.44	65.353	1.4108e-06	2.729e-06	113	38.777	19.923	6.1303	1.3275e-06	12.772	0.00082793	0.0016584	0.00044424	256.59	1.4948e-05	1.7592e-05	344.35	70.617	1.486e-05	1.7869e-05	121.72	41.992	21.784	6.7813	1.5751e-05	13.971	114.446	273.385	48.821	-52.588	125.879	-48.554	-52.794	-47.295	142.528	98.678	-49.264	-45.914	-44.409	-40.578	77.538	-41.528	-8191	255	
1336.077	1	1	0	0	0.18123	0.13413	0.13288	0.031188	0.14352	0.06062	0.14245	0.17989	0.10342	0.2446	0.26329	0.21212	0.16926	0.31647	0.16616	0.29324	-3.0312	-3.0417	-3.1312	-3.6375	-3.175	-3.3208	-3.3125	-3.0375	-3.4417	-3.0208	-3.1375	-3.3729	-3.0729	-3.2562	-3.2729	-2.9521	132.015	48.742	169.202	-35.212	184.879	214.381	135.823	78.933	8.022	276.339	59.178	292.212	73.741	-32.589	135.813	193.681	7.5087e-05	0.00018449	3.2855e-05	239.22	1.1174e-06	1.9925e-06	320.63	64.449	1.9451e-06	2.0385e-06	111.38	37.951	19.519	6.0172	5.5597e-07	12.617	0.00079635	0.0015924	0.00042947	255.42	1.4843e-05	1.699e-05	344.29	69.459	1.4493e-05	1.7457e-05	120.45	41.55	21.416	6.6929	1.518e-05	13.862	105.139	38.811	28.697	-52.208	264.377	76.145	-52.787	-47.621	87.126	39.063	-49.389	-45.424	-44.764	-40.580	52.096	-41.350	-8191	255	
1336.149	1	1	0	0	0.10417	0.11154	0.16501	0.28648	0.13809	0.04104	0.082488	0.1205	0.10471	0.33417	0.25383	0.0643	0.19258	0.10004	0.016357	0.20533	-3.1521	-3.4146	-3.1542	-3.5875	-3.2229	-3.5167	-3.4333	-3.3104	-3.5083	-3.5312	-3.0771	-3.6479	-3.1562	-3.3208	-3.5771	-3.2417	121.006	-47.316	35.269	11.517	56.190	-18.978	-65.069	-29.755	69.232	236.271	-34.420	267.622	152.459	-10.238	139.249	29.669	7.4848e-05	6.4194e-05	5.6661e-06	238.48	1.9481e-06	1.7488e-06	320.45	63.184	4.1148e-07	2.2281e-07	109.58	37.503	19.14	5.9694	1.6477e-06	12.426	0.00076979	0.0015179	0.00041863	255.31	1.4391e-05	1.6897e-05	343.5	68.481	1.3858e-05	1.6893e-05	118.73	40.756	21.057	6.5576	1.4873e-05	13.583	126.454	-22.551	201.102	-52.489	28.269	83.957	-53.096	-47.663	-39.738	126.406	-48.813	-45.679	-44.743	-40.918	106.723	-40.724	-8191	255	
1336.270	1	1	0	0	0.13697	0.091965	0.19389	0.21993	0.15658	0.32359	0.11137	0.1287	0.22133	0.2064	0.21625	0.14962	0.11212	0.40852	0.14928	0.060194	-3.0646	-3.5104	-3.1104	-3.5229	-3.1729	-3.2354	-3.475	-2.9604	-3.1833	-3.2229	-3.1875	-3.5646	-3.3125	-3.1854	-3.8271	-3.3812	210.439	153.821	83.678	182.797	18.190	181.626	230.610	67.012	176.165	58.761	289.425	171.677	286.040	42.733	286.724	227.618	7.6895e-05	6.1604e-05	1.67e-05	236.55	1.397e-06	1.2663e-06	312.92	61.551	2.1212e-06	2.1411e-06	107.24	36.232	18.679	5.8222	1.1577e-06	12.064	0.00075434	0.0014654	0.00041239	251.76	1.3971e-05	1.5861e-05	335.7	66.608	1.3287e-05	1.6545e-05	115.02	39.506	20.513	6.4434	1.4094e-05	13.309	129.126	3.144	75.200	-52.638	98.084	97.042	-52.717	-47.472	42.603	109.015	-48.874	-45.849	-44.889	-40.629	68.471	-41.416	-8191	255	
1336.366	1	1	0	0	0.016435	0.086185	0.021829	0.25144	0.12119	0.068739	0.16165	0.23854	0.13104	0.098996	0.13689	0.18749	0.25013	0.10116	0.14685	0.082079	-3.1188	-3.6042	-3.0312	-3.3646	-3.2271	-3.3438	-3.35	-3.1979	-3.4917	-3.4375	-3.2188	-3.4	-3.3146	-3.2062	-3.5354	-3.3021	153.546	59.948	294.142	-0.729	-12.158	183.508	278.101	190.216	22.343	255.920	85.255	96.690	71.800	-26.556	34.693	-41.328	9.0702e-05	0.00015414	7.6749e-05	235.14	1.0357e-06	1.8239e-06	313.35	61.34	7.7857e-07	1.2473e-06	106.69	36.177	18.587	5.8475	4.0129e-07	12.202	0.00070232	0.0014061	0.00040241	250.5	1.3149e-05	1.5682e-05	335.47	65.887	1.279e-05	1.5858e-05	114.69	39.453	20.43	6.4343	1.3379e-05	13.363	112.362	-6.102	58.529	-52.707	74.611	54.030	-52.926	-47.051	-41.539	101.383	-49.219	-45.670	-44.844	-40.975	241.070	-41.254	-8191	255	
1336.462	1	1	0	0	0.17995	0.13342	0.2379	0.20334	0.19814	0.066744	0.35391	0.10089	0.078413	0.042319	0.14367	0.21878	0.20087	0.22134	0.30388	0.23156	-2.8208	-3.4396	-3.0021	-3.2083	-3.3792	-3.1479	-3.5583	-3.1833	-3.2479	-3.3958	-3.1271	-3.4062	-3.275	-3.2313	-3.425	-3.3563	0.735	49.866	287.494	284.644	46.928	39.670	183.929	13.402	-36.154	-23.087	185.780	235.853	48.919	282.764	286.571	27.257	6.0711e-05	8.7027e-05	7.1205e-05	234.69	8.5273e-07	1.4812e-06	316.67	61.327	2.252e-06	2.0977e-06	107.62	36.591	18.904	5.8295	1.8823e-06	12.426	0.00071795	0.0014029	0.00040557	251.6	1.3259e-05	1.6153e-05	338.51	66.221	1.3129e-05	1.5633e-05	115.85	39.813	20.598	6.4783	1.3976e-05	13.54	132.973	69.142	20.687	-52.192	222.063	55.441	-52.788	-47.676	50.391	74.035	-49.153	-45.574	-44.806	-40.434	80.953	-41.512	-8191	255	
1336.558	1	1	0	0	0.24805	0.10772	0.14868	0.11801	0.0906	0.30039	0.081156	0.090115	0.12345	0.13373	0.22847	0.27632	0.090682	0.17014	0.27313	0.1155	-2.7313	-3.3771	-3.0458	-3.3104	-3.2521	-3.1729	-3.5167	-3.3167	-3.1979	-3.4625	-3.2271	-3.275	-3.1813	-3.0292	-3.5479	-3.1312	156.731	-49.421	59.714	45.691	42.561	-15.866	116.618	209.161	-41.548	219.901	153.903	-55.516	40.849	-60.163	-25.642	75.642	4.1575e-05	7.7506e-05	4.9455e-05	237.39	1.061e-06	2.3828e-06	318.47	61.79	7.081e-07	1.7077e-06	107.08	36.225	18.723	5.8661	5.0403e-07	12.197	0.00073263	0.0014238	0.00040568	253.4	1.3579e-05	1.6359e-05	340.03	66.773	1.3367e-05	1.5959e-05	115.25	39.606	20.55	6.4701	1.3709e-05	13.34	106.194	-22.612	-56.170	-52.929	76.410	46.980	-52.888	-47.743	154.873	117.962	-49.055	-45.435	-45.048	-40.233	60.689	-41.328	-8191	255	
1336.654	1	1	0	0	0.32888	0.18967	0.04708	0.38557	0.13818	0.13338	0.026177	0.072902	0.17402	0.21741	0.53319	0.066186	0.032281	0.19044	0.067841	0.22613	-2.85	-3.4542	-3.0333	-3.1208	-3.2792	-2.9917	-3.3417	-3.1521	-3.0792	-3.5062	-3.3542	-3.3521	-3.6042	-3.1104	-3.5521	-3.2417	178.738	-53.558	-49.197	-53.814	115.998	137.034	55.896	-27.173	229.288	-56.473	9.168	38.056	87.530	-48.332	27.643	-24.399	4.5665e-05	0.00022747	2.3288e-05	233.31	1.3638e-06	1.2868e-06	313.02	60.633	1.7232e-06	2.1531e-06	105.47	36.306	18.63	5.8776	9.2876e-07	12.231	0.0007299	0.0014203	0.00041166	249.97	1.3297e-05	1.6177e-05	333.99	65.698	1.3342e-05	1.577e-05	113.73	39.346	20.437	6.4736	1.4038e-05	13.387	102.223	70.800	22.886	-52.406	157.459	87.530	-52.786	-47.692	136.123	143.717	-49.152	-45.843	-44.712	-40.844	-40.977	-41.278	-8191	255	
1336.750	1	1	0	0	0.17426	0.11237	0.028651	0.22057	0.08425	0.16629	0.18882	0.15278	0.17599	0.2427	0.27162	0.35264	0.20003	0.23959	0.042215	0.018198	-2.5687	-3.325	-3.1833	-3.2292	-3.7208	-3.1208	-3.3104	-3.1646	-2.8167	-3.4	-3.3271	-3.3875	-3.6396	-3.0417	-3.1937	-3.3708	102.744	87.907	-8.644	-65.672	-55.453	90.181	28.518	251.605	138.021	236.565	112.730	246.640	151.455	-14.360	-10.309	82.134	7.753e-05	0.00012516	2.5172e-05	235.48	1.4893e-06	1.1672e-06	315.69	62.102	2.0216e-06	3.3118e-06	110.27	37.946	19.806	6.1534	1.4721e-07	12.803	0.0007291	0.0013924	0.00040822	251.1	1.2948e-05	1.6165e-05	338.29	67.508	1.3799e-05	1.6428e-05	118.93	41.472	21.553	6.7949	1.4888e-05	13.976	121.741	52.557	44.408	-52.191	-5.086	151.448	-52.689	-47.709	120.752	75.879	-49.278	-45.538	-44.466	-40.336	268.173	-41.378	-8191	255	
1336.845	1	1	0	0	0.12914	0.18119	0.092215	0.057995	0.047117	0.25425	0.2932	0.044313	0.14744	0.046707	0.10598	0.13241	0.15853	0.059132	0.2133	0.34123	-2.8021	-3.4167	-3.2208	-3.1312	-3.3896	-3.2667	-3.2917	-3.0625	-3.2167	-3.6542	-3.4708	-3.2687	-3.3854	-3.0146	-3.2812	-3.4417	9.092	41.630	-47.897	105.578	180.973	7.704	123.854	30.888	164.488	34.216	127.835	-31.686	128.196	72.334	6.167	270.564	5.8715e-05	0.00011867	4.347e-05	240.16	1.0097e-06	8.8776e-07	325.34	65.751	6.5202e-07	1.9325e-06	114.82	39.631	20.104	6.2068	1.7763e-06	13.007	0.00079784	0.0014955	0.00043912	256.7	1.3936e-05	1.7835e-05	348.54	71.219	1.4576e-05	1.6641e-05	123.81	42.994	22.24	6.9116	1.4594e-05	14.175	109.319	71.136	60.187	-52.522	117.636	213.510	-52.858	-47.581	146.030	90.721	-49.107	-45.229	-44.194	-40.579	259.628	-41.064	-8191	255	
1336.943	1	1	0	0	0.25878	0.17232	0.17291	0.13131	0.033537	0.014523	0.21423	0.22059	0.21236	0.14444	0.15453	0.12911	0.21588	0.093677	0.10555	0.23423	-2.6562	-3.3708	-3.2292	-3.275	-3.4	-3.4167	-3.1146	-3.4854	-3.0021	-3.4875	-3.2833	-3.1854	-3.4396	-3.2479	-3.05	-3.3771	134.494	244.907	192.695	263.659	72.699	196.866	128.057	62.818	-3.780	262.100	6.610	231.127	62.929	86.107	291.532	106.439	8.5377e-05	0.00010106	2.3361e-05	239.33	5.5116e-07	1.0294e-06	321.27	64.214	1.4398e-06	1.9795e-06	110.99	38.032	19.47	6.097	9.8991e-07	12.322	0.00079722	0.0014715	0.00041585	256.65	1.3294e-05	1.6648e-05	345.37	69.674	1.3832e-05	1.5184e-05	119.89	41.241	21.386	6.6976	1.3587e-05	13.567	147.998	56.518	185.581	-52.398	42.839	204.358	-52.590	-47.483	100.982	70.014	-49.278	-45.585	-44.768	-41.076	133.988	-41.336	-8191	255	
1337.062	1	1	0	0	0.092236	0.14034	0.053564	0.12501	0.087745	0.14778	0.21537	0.11184	0.12368	0.15364	0.08823	0.17192	0.22525	0.13028	0.097619	0.22005	-2.4708	-3.45	-3.3688	-3.0542	-3.4083	-3.0479	-2.9396	-3.5667	-3.1458	-3.4458	-3.6375	-3.0667	-3.3958	-3.0729	-3.0771	-3.3292	183.939	44.817	-43.238	71.785	17.841	174.982	169.366	245.744	-43.328	182.575	218.214	161.359	244.074	33.266	243.543	14.440	5.5922e-05	0.00013643	1.1258e-05	235.36	9.1905e-07	1.5955e-06	315.25	63.159	6.3178e-07	2.5105e-06	109.43	37.614	19.571	6.0317	1.6052e-06	12.488	0.00073587	0.0013497	0.00038633	251.68	1.2181e-05	1.5303e-05	338.16	67.897	1.2885e-05	1.4433e-05	117.79	40.792	21.229	6.6668	1.2953e-05	13.652	118.839	31.430	-19.454	-52.590	82.725	90.556	-52.655	-47.334	-49.011	115.489	-49.337	-45.409	-45.126	-40.696	71.292	-41.682	-8191	255	
1337.158	1	1	0	0	0.058423	0.15713	0.17645	0.31598	0.091743	0.16717	0.24109	0.19931	0.166	0.19428	0.098562	0.33249	0.31225	0.11474	0.37111	0.13936	-2.6104	-3.2062	-3.4208	-3.1646	-3.1875	-3.1729	-3.1792	-3.3896	-3.1292	-3.4083	-3.1917	-2.7833	-3.2854	-3.2875	-3.25	-3.4792	-30.083	95.041	194.101	-15.615	45.240	78.374	38.543	-48.529	-64.808	21.798	272.258	184.991	285.842	290.416	164.270	292.881	4.9758e-05	0.00026886	5.3942e-05	235.98	7.4178e-07	1.6341e-06	320.32	64.46	2.0129e-06	2.1566e-06	113.28	38.704	20.169	6.2152	6.4584e-07	12.819	0.00070924	0.001283	0.00038446	252.93	1.2046e-05	1.5348e-05	342.53	69.463	1.2574e-05	1.4313e-05	121.42	42.245	21.908	6.8268	1.3097e-05	13.981	138.104	74.937	49.158	-52.386	36.075	44.873	-52.826	-47.532	147.752	72.345	-49.130	-45.629	-44.669	-40.914	31.938	-41.740	-8191	255	
1337.254	1	1	0	0	0.067633	0.054154	0.17835	0.20419	0.091912	0.087352	0.099972	0.028295	0.040977	0.11556	0.061705	0.27574	0.019192	0.32208	0.13231	0.067595	-2.7458	-3.1333	-3.1063	-3.0792	-3.2438	-3.5	-3.3646	-3.3667	-3.0938	-3.3187	-3.5062	-3.0563	-3.0958	-3.1958	-2.9521	-3.2208	42.273	210.539	177.524	199.449	219.823	257.750	-17.939	293.260	72.803	17.265	67.951	-43.741	32.366	104.151	151.785	207.437	0.00010373	0.00015347	6.5483e-05	240.24	1.2251e-06	1.3096e-06	323.9	65.761	1.7945e-06	1.7257e-06	115.75	39.666	20.309	6.3032	1.6294e-06	12.828	0.00068349	0.0012658	0.00036515	255.64	1.1629e-05	1.4327e-05	347.3	70.958	1.1748e-05	1.3197e-05	123.99	42.947	22.064	6.8752	1.1895e-05	14.031	126.173	41.548	40.926	-52.370	-21.721	56.209	-52.957	-47.356	61.603	13.753	-49.029	-45.561	-44.410	-40.778	-23.774	-41.093	-8191	255	
1337.350	1	1	0	0	0.051166	0.072009	0.13045	0.19577	0.33246	0.078072	0.010551	0.087569	0.1379	0.14014	0.053717	0.21135	0.13111	0.23035	0.027162	0.096537	-2.7542	-3.025	-3.4333	-3.2333	-3.5687	-3.4417	-3.2854	-3.5187	-3.2125	-3.1167	-3.4229	-3.0146	-3.2146	-3.2125	-3.1583	-3.4979	113.785	257.786	143.574	148.659	-43.679	54.127	-55.348	132.893	278.700	251.299	147.377	-50.717	136.325	268.842	41.405	139.140	8.7486e-05	0.0002194	4.153e-05	238.23	1.0484e-06	1.7737e-06	321.35	64.648	7.5972e-07	1.247e-06	112.05	38.311	19.713	6.0816	9.9923e-07	12.419	0.00062268	0.0011461	0.00031562	253.99	1.0212e-05	1.2486e-05	342.94	69.572	1.0377e-05	1.1824e-05	120.02	41.366	21.396	6.6745	1.0521e-05	13.508	125.155	24.368	45.922	-52.384	114.604	57.500	-53.020	-47.564	141.940	124.858	-49.124	-45.827	-44.472	-40.927	133.349	-41.717	-8191	255	
1337.446	1	1	0	0	0.064906	0.21394	0.21511	0.14453	0.069604	0.19371	0.12887	0.28135	0.14624	0.45574	0.1773	0.125	0.22746	0.084171	0.27044	0.15721	-2.8396	-3.0375	-3.5125	-3.0792	-3.2062	-3.3521	-3.1396	-3.4458	-3.3229	-3.2083	-3.5167	-3.2687	-3.1	-3.3063	-3.2313	-3.275	-19.739	-17.705	104.715	28.918	-56.254	109.131	103.182	145.478	23.731	-62.283	77.124	265.145	6.415	253.223	89.514	233.826	5.8231e-05	5.7096e-05	5.5205e-05	234.24	1.1566e-06	9.4449e-07	315.17	61.967	9.0972e-07	7.2416e-07	108.35	37.155	18.875	5.8247	1.0339e-06	11.967	0.00055528	0.0010277	0.00027612	250.39	9.3682e-06	1.1335e-05	335.88	66.954	9.4995e-06	1.1198e-05	116.39	40.057	20.595	6.4272	1.0051e-05	13.062	118.509	23.153	8.789	-52.209	85.562	55.634	-52.921	-47.778	108.186	84.000	-48.951	-45.391	-44.831	-41.010	33.949	-41.174	-8191	255	
1337.542	1	1	0	0	0.098162	0.14145	0.10284	0.064996	0.096911	0.079232	0.1058	0.098471	0.094326	0.24493	0.19283	0.17152	0.24217	0.10196	0.033179	0.22655	-2.8375	-2.9375	-3.5542	-3.3542	-3.4854	-3.4875	-3.1583	-3.5187	-3.4938	-3.1854	-3.4729	-3.3312	-3.1813	-3.4062	-3.075	-3.4146	87.141	-61.653	-13.776	-12.730	137.470	88.103	185.696	-6.382	164.911	-58.800	208.870	33.075	208.965	240.415	117.077	47.459	5.0761e-05	6.2723e-05	4.8688e-05	233.99	2.0271e-07	1.1076e-06	312.53	60.274	1.121e-06	1.9693e-06	105.27	36.18	18.516	5.7673	1.9639e-06	11.775	0.0005566	0.00098751	0.00028429	250.37	9.3527e-06	1.1118e-05	334.55	64.88	9.3914e-06	1.1566e-05	113.06	39.132	20.113	6.2989	1.0206e-05	12.803	113.196	138.025	92.532	-52.438	141.140	65.175	-52.835	-47.562	40.862	108.456	-49.104	-45.347	-44.972	-40.560	117.584	-41.043	-8191	255	
1337.663	1	1	0	0	0.015967	0.20777	0.19741	0.078353	0.18619	0.19066	0.27997	0.19508	0.14748	0.24657	0.087626	0.1739	0.22693	0.30212	0.25822	0.11901	-3.0208	-3.2021	-3.7	-3.2771	-3.2229	-3.4792	-3.2625	-3.4	-3.3708	-3.15	-3.55	-3.3146	-3.2917	-3.3792	-3.0354	-3.1542	19.226	236.618	5.491	117.585	36.788	145.389	83.237	199.581	277.127	221.108	43.619	235.384	-16.179	57.249	185.715	-18.876	4.2281e-05	5.784e-05	1.8676e-05	234.2	8.3857e-07	2.5058e-06	310.69	58.664	2.6739e-07	2.2589e-06	102.58	35.505	18.362	5.7655	1.2712e-06	11.644	0.00054108	0.0010066	0.00027403	249.8	9.801e-06	1.1638e-05	332.99	63.492	1.0268e-05	1.225e-05	110.81	38.666	20.055	6.3159	1.1583e-05	12.709	115.447	99.906	180.895	-52.484	36.945	113.034	-52.867	-47.758	69.915	110.271	-49.189	-45.294	-44.887	-41.108	69.000	-41.762	-8191	255	
1337.759	1	1	0	0	0.16418	0.065873	0.10278	0.198	0.12659	0.1653	0.23059	0.15218	0.1981	0.076923	0.11634	0.073143	0.43971	0.2317	0.19095	0.10399	-3.125	-3.1396	-3.5646	-3.3208	-3.225	-3.675	-3.1167	-3.2542	-3.1708	-3.0521	-3.3417	-3.2896	-3.1875	-3.2979	-3.2042	-3.3604	-47.737	206.867	152.065	265.636	-31.082	4.419	39.042	21.074	40.058	-4.347	142.763	-55.404	16.553	-1.207	80.715	-57.618	4.9297e-05	0.00026979	2.6994e-05	236.4	9.4582e-07	1.5919e-06	310.7	58.326	4.6932e-07	3.1109e-07	100.59	34.852	18.177	5.6653	1.4093e-06	11.393	0.00061864	0.0012046	0.00032691	252.48	1.1647e-05	1.3807e-05	330.99	63.095	1.283e-05	1.5488e-05	108.27	37.823	19.915	6.2643	1.4698e-05	12.476	126.353	9.468	-11.417	-52.918	67.792	170.623	-53.047	-47.810	38.168	15.821	-49.149	-45.870	-44.946	-41.035	197.784	-41.819	-8191	255	
1337.854	1	1	0	0	0.12992	0.25408	0.21001	0.074612	0.22318	0.060858	0.14457	0.056098	0.021049	0.20833	0.039799	0.090508	0.13094	0.036705	0.065571	0.086451	-2.9167	-2.9125	-3.3375	-3.3229	-3.275	-3.4979	-3.2021	-3.3354	-3.3833	-2.8979	-3.2396	-3.2167	-3.2396	-3.6833	-3.2354	-3.1229	4.519	232.269	223.533	277.681	39.648	271.889	-55.996	154.577	10.045	279.810	117.654	25.501	209.416	105.341	-12.059	244.068	7.0769e-05	0.00017327	7.4396e-05	234.53	6.1017e-07	1.8439e-06	306.66	58.098	4.6164e-07	1.2007e-07	100.64	34.674	18.226	5.6553	2.2905e-06	11.386	0.00075751	0.001472	0.00040682	251.55	1.3648e-05	1.5677e-05	328.66	62.764	1.3426e-05	1.6372e-05	108.38	37.902	19.989	6.2466	1.5315e-05	12.511	107.846	7.752	-22.975	-52.605	165.061	117.481	-52.855	-47.336	165.551	129.656	-49.365	-45.466	-44.832	-41.400	75.092	-41.585	-8191	255	
1337.950	1	1	0	0	0.13442	0.30847	0.22471	0.09332	0.038965	0.12662	0.32802	0.16444	0.13437	0.20481	0.1694	0.16893	0.0060689	0.15576	0.10752	0.13976	-3.0438	-3.0687	-3.475	-3.4146	-3.2333	-3.4188	-3.1479	-3.1542	-3.5167	-3.3563	-3.2771	-3.5521	-3.0729	-3.475	-3.2833	-3.2229	26.555	264.640	-39.660	-49.013	-27.008	266.440	251.076	133.692	95.975	13.903	216.073	71.515	106.376	183.994	174.718	114.979	5.2494e-05	5.252e-05	6.071e-05	235.82	6.4224e-07	7.5726e-07	308.71	58.189	3.7121e-07	6.9053e-07	100.2	35.015	17.991	5.5811	1.3314e-06	11.07	0.00079223	0.0015788	0.00043155	252.78	1.4949e-05	1.7818e-05	330.93	63.069	1.5092e-05	1.8326e-05	108.51	38.042	19.901	6.1832	1.6805e-05	12.151	128.173	146.080	45.399	-52.565	63.457	110.670	-52.686	-47.766	-32.527	77.966	-49.253	-45.734	-45.194	-41.406	33.220	-41.918	-8191	255	
1338.046	1	1	0	0	0.053771	0.30803	0.14969	0.25195	0.15552	0.21847	0.10557	0.13177	0.050124	0.064348	0.21795	0.024489	0.19873	0.17236	0.094947	0.23143	-2.9042	-3.1625	-3.4104	-3.7042	-3.1729	-3.45	-3.3854	-3.2354	-3.4771	-3.2292	-3.2	-3.2333	-2.9125	-3.25	-3.2542	-3.0062	65.106	121.648	258.330	241.109	49.043	29.744	-38.841	189.390	75.945	-65.707	170.384	55.225	212.172	224.045	207.229	158.459	3.9547e-05	0.00020436	2.1274e-05	235.04	9.8143e-07	7.3416e-07	302.88	54.716	1.306e-06	2.6745e-06	93.675	32.433	17.223	5.2174	1.4911e-06	10.141	0.00082385	0.0016952	0.0004505	251.49	1.5251e-05	1.7755e-05	324.36	59.55	1.4669e-05	1.8096e-05	100.74	35.35	18.942	5.8028	1.5895e-05	11.197	111.604	30.452	16.936	-52.970	86.320	93.315	-53.013	-47.998	96.077	85.005	-49.387	-45.787	-45.699	-41.304	61.869	-42.093	-8191	255	
#DATA ENDS
