BOXY.EXE: ISS Imagent and Oximeter Data Acquisition Program Version 0.80
Ascii Record File

#ACQ INFORMATION
2  Detector Channels 
16  External MUX Channels 
1  Auxiliary Channels 
5000  Waveform (CCF) Frequency (Hz)
1  Waveforms Skipped 
30  Waveforms Averaged 
1  Cycles Averaged 
16  Acquisitions per Waveform 
10.0806  Updata Rate (Hz) 

#FILE INFORMATION
TRUE -- External MUX Channel results are PARSED.
FALSE -- AC DC and Phase are NOT grouped.
TRUE -- Companion Program Settings File CREATED.
FALSE -- AC data not excluded
FALSE -- DC data not excluded
FALSE -- Phase data not excluded
FALSE -- Auxillary Chn. data not excluded
Tab delimiters

#CALIBRATION STATE
TRUE -- Waveform Calibration Values APPLIED.


#AUX CALIBRATION VALUES
Val Type	aux-1	

Term	1.0000e+00	
Factor	0.0000e+00	


#WF CALIBRATION VALUES
A = Detector Channel
Val Type	A-AC1	A-AC2	A-AC3	A-AC4	A-AC5	A-AC6	A-AC7	A-AC8	A-AC9	A-AC10	A-AC11	A-AC12	A-AC13	A-AC14	A-AC15	A-AC16	A-DC1	A-DC2	A-DC3	A-DC4	A-DC5	A-DC6	A-DC7	A-DC8	A-DC9	A-DC10	A-DC11	A-DC12	A-DC13	A-DC14	A-DC15	A-DC16	A-Ph1	A-Ph2	A-Ph3	A-Ph4	A-Ph5	A-Ph6	A-Ph7	A-Ph8	A-Ph9	A-Ph10	A-Ph11	A-Ph12	A-Ph13	A-Ph14	A-Ph15	A-Ph16	

Term	0.00000e+00	0.00000e+00	0.00000e+00	0.00000e+00	0.00000e+00	0.00000e+00	0.00000e+00	0.00000e+00	0.00000e+00	0.00000e+00	0.00000e+00	0.00000e+00	0.00000e+00	0.00000e+00	0.00000e+00	0.00000e+00	0.00000e+00	0.00000e+00	0.00000e+00	0.00000e+00	0.00000e+00	0.00000e+00	0.00000e+00	0.00000e+00	0.00000e+00	0.00000e+00	0.00000e+00	0.00000e+00	0.00000e+00	0.00000e+00	0.00000e+00	0.00000e+00	0.00000e+00	0.00000e+00	0.00000e+00	0.00000e+00	0.00000e+00	0.00000e+00	0.00000e+00	0.00000e+00	0.00000e+00	0.00000e+00	0.00000e+00	0.00000e+00	0.00000e+00	0.00000e+00	0.00000e+00	0.00000e+00	
Factor	1.00000e+00	1.00000e+00	1.00000e+00	1.00000e+00	1.00000e+00	1.00000e+00	1.00000e+00	1.00000e+00	1.00000e+00	1.00000e+00	1.00000e+00	1.00000e+00	1.00000e+00	1.00000e+00	1.00000e+00	1.00000e+00	1.00000e+00	1.00000e+00	1.00000e+00	1.00000e+00	1.00000e+00	1.00000e+00	1.00000e+00	1.00000e+00	1.00000e+00	1.00000e+00	1.00000e+00	1.00000e+00	1.00000e+00	1.00000e+00	1.00000e+00	1.00000e+00	X	X	X	X	X	X	X	X	X	X	X	X	X	X	X	X	

B = Detector Channel
Val Type	B-AC1	B-AC2	B-AC3	B-AC4	B-AC5	B-AC6	B-AC7	B-AC8	B-AC9	B-AC10	B-AC11	B-AC12	B-AC13	B-AC14	B-AC15	B-AC16	B-DC1	B-DC2	B-DC3	B-DC4	B-DC5	B-DC6	B-DC7	B-DC8	B-DC9	B-DC10	B-DC11	B-DC12	B-DC13	B-DC14	B-DC15	B-DC16	B-Ph1	B-Ph2	B-Ph3	B-Ph4	B-Ph5	B-Ph6	B-Ph7	B-Ph8	B-Ph9	B-Ph10	B-Ph11	B-Ph12	B-Ph13	B-Ph14	B-Ph15	B-Ph16	

Term	0.00000e+00	0.00000e+00	0.00000e+00	0.00000e+00	0.00000e+00	0.00000e+00	0.00000e+00	0.00000e+00	0.00000e+00	0.00000e+00	0.00000e+00	0.00000e+00	0.00000e+00	0.00000e+00	0.00000e+00	0.00000e+00	0.00000e+00	0.00000e+00	0.00000e+00	0.00000e+00	0.00000e+00	0.00000e+00	0.00000e+00	0.00000e+00	0.00000e+00	0.00000e+00	0.00000e+00	0.00000e+00	0.00000e+00	0.00000e+00	0.00000e+00	0.00000e+00	-1.75373e+02	-1.30324e+02	-1.22335e+02	-1.82865e+02	-7.94388e+01	-6.73137e+01	-1.55847e+02	-1.62015e+02	-8.73043e+01	-6.50213e+01	-1.70182e+02	-1.72231e+02	-1.79732e+02	-1.76323e+02	-7.82466e+01	-1.49486e+02	
Factor	2.80776e-05	1.59647e-04	4.56555e-05	1.56367e-01	1.46645e-06	1.62896e-06	1.65078e-01	5.36098e-02	1.54737e-06	1.86707e-06	8.00233e-02	3.09967e-02	2.31372e-02	8.58255e-03	1.59471e-06	1.26389e-02	1.74870e-05	3.64141e-05	1.03222e-05	7.94208e-02	3.37746e-07	4.14866e-07	7.89372e-02	2.73144e-02	3.43380e-07	4.12689e-07	3.96292e-02	1.53309e-02	1.19582e-02	4.41765e-03	3.63355e-07	6.29802e-03	X	X	X	X	X	X	X	X	X	X	X	X	X	X	X	X	



#DISTANCE SETTINGS
A = Detector Channel
A-1	A-2	A-3	A-4	A-5	A-6	A-7	A-8	A-9	A-10	A-11	A-12	A-13	A-14	A-15	A-16	

2.5000e+00	3.0000e+00	2.5000e+00	3.0000e+00	2.0000e+00	3.0000e+00	1.5000e+00	3.0000e+00	3.0000e+00	3.0000e+00	3.0000e+00	3.0000e+00	3.0000e+00	3.0000e+00	1.5000e+00	3.0000e+00	

B = Detector Channel
B-1	B-2	B-3	B-4	B-5	B-6	B-7	B-8	B-9	B-10	B-11	B-12	B-13	B-14	B-15	B-16	

1.0000e+01	1.0000e+01	1.0000e+01	1.4400e+00	1.0000e+01	1.0000e+01	1.5100e+00	1.9400e+00	1.0000e+01	1.0000e+01	1.9900e+00	2.4900e+00	2.4100e+00	2.9000e+00	1.0000e+01	2.9800e+00	




#DATA BEGINS
time	group	step	mark	flag	A-AC1	A-AC2	A-AC3	A-AC4	A-AC5	A-AC6	A-AC7	A-AC8	A-AC9	A-AC10	A-AC11	A-AC12	A-AC13	A-AC14	A-AC15	A-AC16	A-DC1	A-DC2	A-DC3	A-DC4	A-DC5	A-DC6	A-DC7	A-DC8	A-DC9	A-DC10	A-DC11	A-DC12	A-DC13	A-DC14	A-DC15	A-DC16	A-Ph1	A-Ph2	A-Ph3	A-Ph4	A-Ph5	A-Ph6	A-Ph7	A-Ph8	A-Ph9	A-Ph10	A-Ph11	A-Ph12	A-Ph13	A-Ph14	A-Ph15	A-Ph16	B-AC1	B-AC2	B-AC3	B-AC4	B-AC5	B-AC6	B-AC7	B-AC8	B-AC9	B-AC10	B-AC11	B-AC12	B-AC13	B-AC14	B-AC15	B-AC16	B-DC1	B-DC2	B-DC3	B-DC4	B-DC5	B-DC6	B-DC7	B-DC8	B-DC9	B-DC10	B-DC11	B-DC12	B-DC13	B-DC14	B-DC15	B-DC16	B-Ph1	B-Ph2	B-Ph3	B-Ph4	B-Ph5	B-Ph6	B-Ph7	B-Ph8	B-Ph9	B-Ph10	B-Ph11	B-Ph12	B-Ph13	B-Ph14	B-Ph15	B-Ph16	aux-1	digaux	

851.414	1	1	0	256	0.1784	0.22489	0.089714	0.24606	0.043737	0.23138	0.3129	0.098299	0.16275	0.15983	0.18068	0.11016	0.39361	0.057998	0.082709	0.26984	-2.725	-3.4625	-3.3521	-3.3396	-3.6625	-3.2667	-3.5625	-3.6271	-3.2542	-3.6167	-3.5396	-3.1917	-3.55	-3.2938	-3.2208	-3.6417	102.996	38.771	22.535	-61.867	180.401	150.626	200.147	-0.147	191.346	-52.711	136.642	199.284	-44.424	-60.635	268.640	134.580	0.00011694	0.00026191	0.00011009	1356.7	1.8373e-06	3.4467e-06	1404.8	250.75	2.4602e-06	2.8074e-06	315.71	89.375	70	20.523	3.2415e-06	29.131	0.0001995	0.00011592	3.4042e-05	1330.1	2.0919e-06	1.2982e-06	1383.9	249.39	2.0939e-06	1.036e-06	312.99	89.56	69.937	20.663	1.274e-06	29.449	119.002	24.751	24.387	-67.365	59.987	81.178	-67.307	-60.398	46.285	58.122	-60.250	-54.021	-53.790	-46.913	55.404	-47.081	-8191	255	
851.510	1	1	0	0	0.24072	0.17413	0.055986	0.11723	0.25934	0.12288	0.15395	0.18635	0.19166	0.1598	0.24399	0.085564	0.30884	0.30501	0.05566	0.22699	-2.8542	-3.4292	-3.3312	-3.5292	-3.6042	-3.4062	-3.7292	-3.6188	-3.2354	-3.3937	-3.5667	-3.2625	-3.6063	-3.3875	-3.3125	-3.5333	206.053	141.185	138.807	232.150	-46.297	193.675	209.609	230.601	-30.134	123.071	-74.286	13.501	-2.940	271.824	124.549	143.863	0.0001332	0.00029067	8.8664e-05	1367.9	1.3062e-06	3.6652e-06	1425.3	252.78	1.5585e-06	3.7106e-06	317.19	89.328	69.839	20.525	3.1169e-06	29.155	0.00019666	0.00011106	3.0407e-05	1342.6	2.1158e-06	1.3604e-06	1397.6	250.47	1.9337e-06	1.2252e-06	313.87	89.172	69.666	20.585	1.6646e-06	29.362	113.156	7.674	9.688	-67.524	122.542	73.070	-67.335	-60.203	49.483	87.785	-60.374	-54.144	-53.984	-47.173	76.414	-46.901	-8191	255	
851.606	1	1	0	0	0.15224	0.066786	0.041142	0.2813	0.073522	0.049198	0.090901	0.22607	0.2418	0.070999	0.1912	0.19437	0.22155	0.25714	0.14527	0.14172	-2.8333	-3.3583	-3.3958	-3.3667	-3.4833	-3.4	-3.4229	-3.5938	-3.1688	-3.4167	-3.4979	-3.2812	-3.4979	-3.3833	-2.9854	-3.5312	61.383	54.815	137.435	271.051	184.489	-7.542	19.142	258.013	16.835	-61.125	225.367	55.462	249.078	105.056	38.435	122.242	0.0001278	0.0003076	7.8469e-05	1364	1.3892e-06	2.9124e-06	1408.8	253.12	1.7454e-06	3.2448e-06	313.68	88.329	69.392	20.393	1.677e-06	28.903	0.00019447	0.00010363	2.7397e-05	1338.7	2.0835e-06	1.2066e-06	1390.1	249.34	1.9437e-06	1.2011e-06	310.8	88.583	69.079	20.449	1.6457e-06	29.098	122.032	14.546	29.124	-67.349	77.893	72.065	-67.247	-60.076	43.826	96.667	-60.195	-54.144	-54.047	-46.837	48.905	-47.163	-8191	255	
851.727	1	1	0	0	0.20524	0.19598	0.066697	0.24247	0.2279	0.11167	0.15211	0.23014	0.021061	0.16368	0.14042	0.092212	0.20485	0.044963	0.12838	0.15169	-3.0438	-3.1604	-3.3917	-3.2979	-3.4813	-3.3396	-3.3271	-3.5708	-3.2042	-3.2521	-3.6	-2.9833	-3.6417	-3.5167	-3.25	-3.6146	188.717	41.410	-75.213	-56.395	-1.665	111.364	148.230	106.413	192.075	40.338	-59.384	270.895	-49.632	244.216	160.825	60.492	0.00012149	0.00027757	9.2824e-05	1357.8	1.8902e-06	2.873e-06	1404.5	251.06	1.3287e-06	4.7643e-06	314.03	87.814	69.557	20.216	1.9373e-06	28.76	0.00018591	0.00011387	3.1375e-05	1332	2.0026e-06	1.2567e-06	1384.1	248.39	1.8993e-06	1.3602e-06	310.8	88.185	69.059	20.359	1.4686e-06	28.986	122.993	19.196	23.424	-67.437	67.130	68.177	-67.126	-60.065	35.635	78.921	-60.340	-53.915	-53.497	-46.720	71.286	-47.136	-8191	255	
851.823	1	1	0	0	0.1318	0.14745	0.049139	0.24149	0.11758	0.10602	0.31295	0.27344	0.10618	0.26344	0.21254	0.1676	0.15724	0.1735	0.13497	0.11477	-2.7917	-3.2271	-3.3563	-3.2687	-3.4708	-3.4021	-3.2292	-3.5875	-3.2854	-3.1667	-3.6021	-3.3479	-3.475	-3.3229	-2.9479	-3.6667	108.448	5.277	119.197	-60.534	96.645	153.285	245.228	181.352	30.710	38.319	-66.857	51.233	156.587	-4.504	-77.598	82.758	0.0001212	0.00033204	8.0737e-05	1357.9	1.721e-06	2.9373e-06	1401.7	249.7	1.1533e-06	3.7346e-06	312.33	87.454	68.436	20.133	2.6509e-06	28.597	0.00020019	0.00011402	3.0773e-05	1329.9	1.9723e-06	1.0691e-06	1379.3	247.07	1.905e-06	1.3507e-06	309.47	87.708	68.387	20.216	1.4527e-06	28.914	116.543	18.266	32.941	-67.312	53.875	72.403	-67.307	-59.890	45.836	82.465	-60.064	-54.106	-53.673	-46.632	70.127	-47.085	-8191	255	
851.919	1	1	0	0	0.30603	0.1553	0.24022	0.1985	0.18114	0.16845	0.19673	0.26809	0.082319	0.063983	0.053907	0.07292	0.067149	0.26375	0.054892	0.045002	-3.075	-3.2354	-3.4375	-3.25	-3.3917	-3.45	-3.375	-3.6562	-3.3063	-3.3792	-3.6896	-3.3292	-3.3396	-3.3479	-3.3208	-3.4729	-50.000	144.801	34.586	260.354	178.374	49.630	268.949	203.186	-59.452	85.451	-39.923	171.887	164.646	73.639	206.371	-10.513	0.00012588	0.00033527	8.9804e-05	1353.6	2.6769e-06	2.9204e-06	1400.9	249.44	1.8397e-06	2.9835e-06	311.82	87.55	68.728	20.124	1.9048e-06	28.686	0.00018321	0.00012601	2.9569e-05	1326.3	2.1813e-06	1.172e-06	1377.4	246.4	1.9086e-06	1.2707e-06	308.48	87.859	68.544	20.189	1.4489e-06	28.934	123.573	14.407	17.832	-67.347	50.519	70.832	-67.321	-60.088	23.589	72.919	-60.230	-54.072	-53.491	-46.739	50.595	-46.908	-8191	255	
852.015	1	1	0	0	0.17333	0.11141	0.11807	0.21271	0.043641	0.048536	0.18965	0.29156	0.32446	0.03013	0.067777	0.26797	0.18998	0.31796	0.14409	0.22329	-2.8979	-3.0875	-3.3688	-3.4167	-3.3292	-3.55	-3.2208	-3.4229	-3.3937	-3.3396	-3.6271	-3.2938	-3.3458	-3.5708	-3.2667	-3.7604	-54.561	204.191	-46.435	262.792	136.299	-42.264	218.334	236.456	47.217	172.190	143.651	254.299	72.083	-55.890	59.067	144.418	0.0001042	0.00036053	8.3054e-05	1351.5	1.1832e-06	2.5184e-06	1395.3	248.92	1.0037e-06	2.9116e-06	310.55	87.041	68.342	20.052	2.3203e-06	28.538	0.00017844	0.00011721	2.6967e-05	1326.8	2.0666e-06	1.1374e-06	1374.4	246.03	1.8314e-06	1.1426e-06	308.28	87.457	68.218	20.15	1.4103e-06	28.696	112.361	19.530	13.175	-67.267	63.669	67.042	-67.340	-60.388	20.167	83.155	-59.806	-53.909	-53.633	-46.685	65.801	-46.855	-8191	255	
852.111	1	1	0	0	0.18518	0.27515	0.2628	0.23688	0.15449	0.20933	0.33572	0.1227	0.26245	0.083468	0.16656	0.22912	0.27056	0.26137	0.13677	0.24308	-3.1104	-3.1188	-3.3604	-3.3187	-3.0292	-3.6208	-3.4167	-3.4833	-3.4833	-3.0312	-3.6667	-3.4604	-3.3	-3.4375	-3.1917	-3.4458	-32.646	192.696	233.327	231.476	35.448	13.365	248.308	169.417	247.657	-56.652	252.516	247.171	216.065	260.594	143.410	273.880	0.0001353	0.00023445	8.9856e-05	1347	1.4182e-06	3.2367e-06	1394.9	247.84	6.7658e-07	3.8566e-06	310.37	86.997	67.97	20.249	2.6522e-06	28.584	0.00018864	0.00012214	2.5375e-05	1321.1	2.1299e-06	1.2593e-06	1371.4	245.38	1.7341e-06	1.4229e-06	308.13	87.461	68.227	20.283	1.4315e-06	28.899	124.239	12.612	34.563	-67.573	68.725	73.447	-67.456	-59.987	70.664	88.923	-60.597	-54.269	-53.280	-46.346	59.023	-47.151	-8191	255	
852.208	1	1	0	0	0.19413	0.11372	0.14458	0.22989	0.32703	0.061305	0.17164	0.13248	0.068984	0.22072	0.057491	0.14101	0.14131	0.20403	0.099514	0.20089	-3	-3.1146	-3.3396	-3.5687	-3.2104	-3.6417	-3.6312	-3.3958	-3.4229	-3.1	-3.6292	-3.2708	-3.1083	-3.4875	-3.3333	-3.3458	241.296	214.196	36.397	203.364	106.973	151.244	175.297	-77.411	-76.103	-51.742	257.912	-60.583	53.491	170.642	170.444	77.859	0.00012708	0.00025525	0.0001121	1353.6	2.1093e-06	2.0961e-06	1399.6	250.14	1.1416e-06	2.4365e-06	312.48	87.308	69.079	20.48	1.8668e-06	28.976	0.00018751	0.00013147	3.1999e-05	1327.9	2.0377e-06	1.1158e-06	1378.1	247.32	1.6962e-06	1.3412e-06	309.6	88.066	69.153	20.532	1.5662e-06	29.161	118.743	16.879	16.516	-67.352	63.056	68.216	-67.307	-60.259	18.677	67.960	-60.102	-54.239	-53.851	-46.699	61.663	-47.356	-8191	255	
852.326	1	1	0	0	0.21973	0.079176	0.13846	0.2529	0.033824	0.30233	0.068326	0.29809	0.18568	0.084025	0.15417	0.026649	0.082999	0.28776	0.15412	0.13537	-3.1208	-3.0396	-3.4896	-3.5917	-3.0979	-3.4542	-3.3958	-3.4896	-3.5438	-3.3104	-3.5021	-3.4479	-3.2958	-3.5667	-3.1521	-3.3292	-32.358	265.021	-9.018	268.442	18.766	203.630	58.981	261.471	149.720	54.506	235.210	189.726	218.246	261.615	-12.541	171.487	0.00011776	0.00035289	8.1641e-05	1361.6	1.4308e-06	3.2611e-06	1415.7	251.09	1.1613e-06	3.8044e-06	316.38	88.703	70.897	20.881	1.4401e-06	29.582	0.00017305	0.00013322	3.3848e-05	1337.9	2.1566e-06	1.1685e-06	1390.8	249.53	1.8092e-06	1.3773e-06	313.65	89.293	70.446	20.967	1.4012e-06	29.768	125.321	6.593	21.055	-67.292	60.897	77.546	-67.380	-60.070	59.586	72.207	-60.408	-54.519	-54.034	-46.830	57.924	-47.656	-8191	255	
852.423	1	1	0	0	0.17186	0.01986	0.10948	0.1327	0.24217	0.17594	0.18874	0.41715	0.35398	0.17194	0.11261	0.10321	0.097734	0.065996	0.14916	0.048926	-3.2854	-3.0979	-3.3104	-3.5521	-3.0583	-3.6208	-3.5062	-3.3958	-3.4854	-3.35	-3.2812	-3.3792	-3.2042	-3.3833	-3.2833	-3.1729	55.444	78.040	213.295	270.439	273.834	162.544	257.345	224.409	156.937	137.716	-72.798	172.531	-45.858	29.428	-45.775	-54.677	0.00013659	0.0004346	0.00011668	1371.4	1.7799e-06	3.2075e-06	1428.5	254.63	1.12e-06	4.3464e-06	317.62	89.786	71.203	21.172	2.2627e-06	29.43	0.00020033	0.00014164	4.2407e-05	1348.6	2.2671e-06	1.2627e-06	1405.1	252.51	1.6597e-06	1.2381e-06	315.83	90.169	71.2	21.223	1.439e-06	29.774	123.795	5.522	15.838	-67.367	77.734	55.759	-67.243	-60.273	7.078	62.401	-60.614	-54.410	-54.021	-47.236	65.042	-47.621	-8191	255	
852.519	1	1	0	0	0.2441	0.10867	0.18844	0.12959	0.076461	0.22303	0.079136	0.17268	0.11783	0.14021	0.13468	0.056254	0.10491	0.13797	0.14718	0.060078	-3.0104	-3.2042	-3.4042	-3.6562	-3.3833	-3.6792	-3.6292	-3.3625	-3.6646	-3.1208	-3.3646	-3.4437	-3.2604	-3.5938	-3.4917	-3.2521	6.276	187.587	18.196	253.804	19.502	-76.765	129.165	236.974	36.388	247.453	-72.478	20.190	255.005	237.079	124.446	143.142	0.00012102	0.00030208	0.00011136	1377.1	1.9939e-06	3.0086e-06	1424.7	254.52	8.9997e-07	3.2859e-06	317.74	90.251	71.302	21.005	2.9728e-06	29.568	0.00019425	0.00012973	3.6558e-05	1352.3	2.3093e-06	1.1798e-06	1403.8	252.2	1.7233e-06	1.3722e-06	315.47	90.188	70.929	21.096	1.545e-06	29.676	116.997	18.031	14.965	-67.493	72.806	53.113	-67.204	-60.369	32.094	70.929	-60.273	-54.099	-53.949	-46.896	50.181	-47.109	-8191	255	
852.615	1	1	0	0	0.050051	0.27031	0.089112	0.020623	0.17734	0.12839	0.28407	0.14073	0.23813	0.25084	0.26503	0.13503	0.20326	0.25351	0.21946	0.14458	-3.15	-3.2583	-3.1083	-3.6312	-3.1667	-3.4562	-3.4292	-3.0979	-3.4229	-3.2562	-3.4167	-3.5021	-3.1354	-3.3958	-3.3583	-3.2167	9.107	70.794	146.365	55.426	235.758	213.534	194.645	153.213	92.550	-21.033	-40.465	173.707	275.363	-71.056	50.444	-69.168	0.00013116	0.00038112	7.296e-05	1371.1	2.0401e-06	3.2331e-06	1421.8	253.28	7.6311e-07	2.9927e-06	317.24	89.367	70.897	20.845	3.2862e-06	29.54	0.00020172	0.00013549	3.8816e-05	1344.9	2.2333e-06	1.2705e-06	1399.5	251.32	1.7004e-06	1.3713e-06	315.04	89.697	70.731	21.013	1.6169e-06	29.604	111.968	5.911	-14.409	-67.285	70.088	63.300	-67.361	-60.038	41.675	90.891	-60.273	-54.354	-53.794	-46.734	58.358	-47.296	-8191	255	
852.711	1	1	0	0	0.028363	0.057537	0.14342	0.18039	0.22272	0.06112	0.11177	0.18029	0.32073	0.12922	0.21934	0.31567	0.075156	0.18215	0.11643	0.16702	-2.9292	-3.3229	-3.2354	-3.5771	-3.2375	-3.3063	-3.6021	-3.3812	-3.3646	-3.2938	-3.3833	-3.4667	-3.3604	-3.1896	-3.4813	-3.1583	168.367	271.624	234.072	229.339	-9.309	279.717	197.070	147.424	228.592	172.203	37.650	-63.648	241.083	261.512	269.790	176.669	0.00011833	0.00042429	0.00012041	1367.9	1.3729e-06	2.9334e-06	1416.9	253.34	1.8312e-06	3.6415e-06	316.86	89.371	70.223	20.844	2.9249e-06	29.137	0.00019727	0.00014505	3.4257e-05	1341.6	2.4022e-06	1.3794e-06	1394.7	251.16	1.953e-06	1.3335e-06	314.1	89.309	70.353	20.88	1.5692e-06	29.473	115.160	17.909	31.533	-67.434	76.745	75.607	-67.188	-60.374	71.246	75.668	-60.105	-54.162	-53.770	-46.439	55.420	-47.130	-8191	255	
852.807	1	1	0	0	0.1367	0.11994	0.098555	0.23957	0.21461	0.047442	0.17576	0.060251	0.080745	0.097654	0.24703	0.19577	0.1826	0.12294	0.11181	0.16297	-3.1312	-3.3438	-3.2062	-3.8063	-3.3292	-3.3854	-3.6042	-3.125	-3.5083	-3.45	-3.2	-3.3688	-3.3021	-3.2896	-3.5542	-3.2667	1.877	195.569	-27.113	191.843	235.539	-33.813	255.880	167.645	-55.012	-1.345	236.783	189.360	160.011	264.378	233.426	135.775	0.00012909	0.00025078	0.00010781	1360.5	1.4027e-06	3.8513e-06	1411.2	253.59	1.6272e-06	3.4264e-06	317.29	88.973	70.012	20.906	3.0316e-06	29.246	0.00020227	0.00012146	4.2579e-05	1338.2	2.2319e-06	1.5653e-06	1393	250.78	1.9151e-06	1.3387e-06	313.4	89.322	69.988	20.859	1.729e-06	29.33	116.870	13.346	17.828	-67.195	98.551	53.426	-67.248	-60.021	60.703	72.353	-60.277	-54.048	-53.771	-46.968	67.673	-47.356	-8191	255	
852.903	1	1	0	0	0.04179	0.10256	0.17406	0.14896	0.24565	0.19317	0.17188	0.37908	0.11353	0.095878	0.30845	0.090777	0.16066	0.14859	0.31884	0.22281	-3.0271	-3.3396	-3.1021	-3.5979	-3.2396	-3.1896	-3.7	-3.2125	-3.3667	-3.5	-3.2313	-3.3667	-3.1937	-3.3021	-3.5417	-3.3229	251.658	80.763	134.662	223.440	58.104	107.552	218.372	215.161	267.410	72.920	-20.783	163.237	1.915	-44.548	201.227	264.495	0.0001328	0.00034062	0.00010761	1365.2	1.7831e-06	3.0945e-06	1408.3	252.07	1.355e-06	3.6185e-06	316.53	88.562	70.211	20.613	2.2833e-06	28.982	0.00020128	0.00013526	4.5805e-05	1338.1	2.2946e-06	1.4054e-06	1389.5	249.58	1.8872e-06	1.2209e-06	313.54	88.786	69.874	20.78	1.5836e-06	29.294	117.034	-2.666	0.723	-67.311	73.772	83.434	-67.436	-60.043	45.035	87.057	-60.141	-54.363	-53.833	-46.495	69.329	-46.931	-8191	255	
852.999	1	1	0	0	0.20122	0.13351	0.097889	0.17889	0.15079	0.092628	0.32491	0.13305	0.048308	0.16888	0.19636	0.30088	0.28218	0.1572	0.19602	0.084307	-2.8937	-3.2687	-3.0125	-3.6771	-3.2917	-3.2083	-3.7938	-3.3312	-3.2333	-3.5812	-3.2438	-3.3167	-3.4062	-3.1833	-3.5146	-3.2375	109.999	83.020	31.747	-67.300	-12.473	269.926	263.422	108.665	-33.093	21.149	253.207	-53.028	236.760	-1.926	26.112	-11.335	0.00013366	0.00035907	8.6596e-05	1362.1	1.4204e-06	3.1341e-06	1412.5	251.56	1.5707e-06	3.133e-06	316.77	88.812	70.206	20.623	2.9683e-06	29.357	0.00019338	0.00013686	3.6859e-05	1336.9	2.3206e-06	1.4797e-06	1391.3	249.88	2.0131e-06	1.3808e-06	313.16	88.796	69.894	20.749	1.4693e-06	29.359	120.652	2.346	18.758	-67.214	70.286	92.476	-67.409	-60.243	50.021	75.636	-60.357	-53.999	-54.038	-46.934	66.824	-47.347	-8191	255	
853.118	1	1	0	0	0.26803	0.17724	0.12362	0.24702	0.02517	0.049253	0.031268	0.22	0.20055	0.045623	0.27237	0.17424	0.24223	0.29538	0.039084	0.04482	-2.9896	-3.5479	-3.1417	-3.5125	-3.3312	-3.0687	-3.5604	-3.3063	-3.2396	-3.5125	-3.2208	-3.4417	-3.5271	-3.1312	-3.3812	-3.3125	77.983	81.826	-39.635	-51.359	97.143	101.118	135.875	170.299	-59.467	-20.057	270.457	223.899	-51.830	280.342	-50.202	160.606	0.00013264	0.00032038	7.9599e-05	1364.2	6.046e-07	2.4929e-06	1408.8	251.91	2.2605e-06	4.1557e-06	314.94	88.799	70.436	20.691	3.5879e-06	29.111	0.00019706	0.00013314	4.0278e-05	1337.9	2.3347e-06	1.535e-06	1391.7	249.84	2.1733e-06	1.3868e-06	313.11	89.09	70.222	20.849	1.6767e-06	29.359	125.380	13.381	17.734	-67.360	80.947	62.354	-67.437	-60.135	38.330	98.051	-60.215	-53.842	-53.954	-46.910	50.319	-47.548	-8191	255	
853.214	1	1	0	0	0.20831	0.29312	0.16322	0.21005	0.23006	0.11506	0.14856	0.21076	0.306	0.20214	0.17948	0.10892	0.11632	0.012005	0.1078	0.063329	-2.7021	-3.5729	-3.2479	-3.4708	-3.3292	-3.2958	-3.6375	-3.2979	-3.1229	-3.4896	-3.15	-3.4208	-3.6229	-3.1271	-3.4688	-3.4688	243.773	-40.058	231.381	-75.750	186.249	181.030	-57.745	78.232	5.005	239.452	131.178	259.052	144.135	40.787	89.555	74.803	0.00013882	0.00036719	0.00010358	1371.8	1.3906e-06	2.7566e-06	1416.7	253.21	2.0367e-06	3.8638e-06	318.45	89.54	70.585	20.878	2.6377e-06	29.133	0.00020452	0.00013048	4.2966e-05	1342.8	2.094e-06	1.4157e-06	1396	250.58	1.9737e-06	1.2707e-06	314.36	89.534	70.531	21.008	1.5337e-06	29.508	118.610	5.034	26.822	-67.248	77.677	72.346	-67.179	-60.271	51.005	74.190	-60.362	-54.552	-53.929	-46.907	58.611	-47.191	-8191	255	
853.288	1	1	0	0	0.24655	0.16875	0.087804	0.093416	0.23604	0.19965	0.28113	0.12507	0.15352	0.15013	0.16621	0.045823	0.12431	0.15645	0.056593	0.19004	-2.9	-3.5354	-3.2021	-3.4583	-3.5375	-3.2542	-3.6437	-3.225	-3.0958	-3.4	-3.2542	-3.2625	-3.3896	-3.1458	-3.4417	-3.3521	54.811	-28.814	276.885	176.349	-47.411	204.196	215.853	-74.048	242.374	-38.033	193.473	130.988	193.586	-4.389	-70.872	-50.967	0.00013238	0.00033732	0.00011414	1364.8	2.1433e-06	3.0483e-06	1422.2	254.2	1.8744e-06	3.9268e-06	316.47	88.864	70.474	20.89	3.2064e-06	29.238	0.00020004	0.00013132	3.8773e-05	1341.1	2.2995e-06	1.2956e-06	1396.7	251.27	2.0617e-06	1.2011e-06	313.88	89.406	70.444	20.964	1.6336e-06	29.527	117.689	10.622	19.247	-67.401	80.831	93.346	-67.463	-60.325	49.526	99.419	-60.094	-54.250	-53.955	-46.796	71.390	-46.916	-8191	255	
853.407	1	1	0	0	0.1514	0.15839	0.087578	0.25593	0.17708	0.28248	0.32911	0.146	0.16022	0.10292	0.096597	0.33405	0.14088	0.073163	0.12796	0.098906	-2.6146	-3.425	-3.2167	-3.4125	-3.3521	-3.1375	-3.5375	-3.4958	-2.9833	-3.4708	-3.3729	-3.2354	-3.4771	-3.2333	-3.4896	-3.4688	4.363	-67.711	201.089	-61.468	168.473	-44.584	235.563	258.740	277.113	106.942	200.621	162.712	-70.288	246.188	101.341	7.557	0.00011389	0.0002868	9.962e-05	1367.4	1.9762e-06	2.8923e-06	1422.4	252.81	7.972e-07	4.2599e-06	316.11	88.854	70.099	20.773	3.2339e-06	29.282	0.0002121	0.00013633	3.6988e-05	1342.5	2.3072e-06	1.4097e-06	1397.8	250.73	1.9394e-06	1.5209e-06	314.04	89.306	70.18	20.883	1.6237e-06	29.456	109.932	8.218	18.764	-67.426	43.740	86.373	-67.308	-60.240	56.847	80.505	-60.155	-54.307	-53.543	-47.125	57.739	-47.079	-8191	255	
853.503	1	1	0	0	0.14465	0.18891	0.11669	0.36357	0.16079	0.10271	0.22905	0.4026	0.060649	0.035753	0.10805	0.11172	0.027462	0.14364	0.046949	0.24069	-2.5438	-3.3708	-3.4479	-3.3333	-3.5229	-3.1979	-3.475	-3.6167	-3.3104	-3.675	-3.4583	-3.1937	-3.7854	-3.4271	-3.3083	-3.5104	96.000	132.676	9.828	277.368	80.707	63.283	271.065	240.420	82.378	7.047	156.991	-75.077	190.520	159.074	108.365	258.880	0.00010953	0.00038734	0.00010605	1364.4	1.8925e-06	3.5579e-06	1412.9	251.21	1.4879e-06	3.3378e-06	316.28	88.63	70.318	20.674	3.1289e-06	29.118	0.0002133	0.00013549	4.0579e-05	1337.6	2.1834e-06	1.573e-06	1391.1	250.12	2.0209e-06	1.2527e-06	313.39	89.05	70.096	20.812	1.7206e-06	29.387	120.403	1.877	17.898	-67.588	59.390	78.816	-67.193	-60.071	21.142	67.983	-60.134	-54.270	-54.025	-47.110	37.661	-46.883	-8191	255	
853.599	1	1	0	0	0.19157	0.15559	0.20228	0.26579	0.16154	0.081677	0.13216	0.15822	0.24391	0.18713	0.15907	0.16329	0.089501	0.06643	0.12117	0.10165	-2.7938	-3.2958	-3.0854	-3.2833	-3.5125	-3.4375	-3.325	-3.5479	-3.0312	-3.2938	-3.6083	-3.2313	-3.5438	-3.1542	-3.1896	-3.6167	267.314	205.131	70.199	-78.096	-59.837	-53.764	210.686	-64.353	238.965	-25.893	252.171	30.163	195.240	150.529	142.462	11.050	0.00012747	0.00036499	0.00014276	1364.4	1.357e-06	3.2809e-06	1405.7	252.9	1.6609e-06	3.2329e-06	314.69	88.492	69.583	20.641	2.5711e-06	28.904	0.00020584	0.00014042	4.3052e-05	1338.7	2.2467e-06	1.5739e-06	1389.7	249.77	1.9866e-06	1.4943e-06	312.54	88.819	69.655	20.799	1.704e-06	29.21	122.190	24.330	17.916	-67.403	60.534	59.549	-67.373	-60.141	58.590	90.629	-60.440	-54.482	-53.572	-46.758	75.085	-47.118	-8191	255	
853.720	1	1	0	0	0.092002	0.1321	0.30744	0.28109	0.26975	0.058021	0.16193	0.2474	0.23831	0.11464	0.17694	0.36486	0.19134	0.26775	0.11199	0.18937	-2.7729	-3.3896	-3.3958	-3.2667	-3.45	-3.1708	-3.4875	-3.625	-3.1521	-3.4562	-3.6292	-3.0062	-3.55	-3.3229	-3.1667	-3.6729	161.595	-5.474	224.915	233.801	-27.109	79.306	197.353	234.648	153.198	271.198	271.013	159.891	272.245	-12.574	62.272	168.253	0.00013512	0.00028506	7.8235e-05	1361.7	1.6192e-06	2.6429e-06	1405.7	251.43	1.3924e-06	4.3243e-06	315.15	88.174	69.574	20.556	2.5672e-06	29.236	0.00020598	0.00015104	3.845e-05	1336.3	2.2214e-06	1.4978e-06	1385.8	249	2.1697e-06	1.6396e-06	311.91	88.601	69.622	20.689	1.6813e-06	29.369	118.363	5.734	17.886	-67.466	52.163	70.206	-67.311	-60.147	64.807	69.843	-60.266	-54.155	-53.459	-46.529	71.756	-47.245	-8191	255	
853.816	1	1	0	0	0.17857	0.17147	0.048284	0.43464	0.14394	0.11858	0.085432	0.38439	0.12675	0.18318	0.16655	0.19303	0.068615	0.048356	0.24557	0.05992	-2.8333	-3.2854	-3.4292	-3.225	-3.4042	-3.25	-3.3979	-3.4854	-3.2167	-3.2958	-3.35	-3.2146	-3.5646	-3.3646	-3.1208	-3.4333	260.527	-58.828	195.761	263.584	80.436	280.742	176.911	243.952	211.413	104.267	264.640	-44.226	62.665	-1.410	196.642	40.974	0.00011389	0.00034753	7.3952e-05	1366.2	1.5651e-06	2.8845e-06	1405.7	252.78	1.3686e-06	4.1007e-06	313.53	87.959	69.485	20.516	2.8507e-06	29.08	0.00019964	0.00013762	3.6063e-05	1337.9	2.2129e-06	1.408e-06	1387.2	249.66	2.1032e-06	1.5932e-06	311.67	88.453	69.571	20.677	1.7767e-06	29.249	121.371	12.318	4.113	-67.500	78.497	84.799	-67.387	-60.053	67.240	76.302	-60.374	-53.715	-53.600	-46.900	64.375	-47.077	-8191	255	
853.888	1	1	0	0	0.23319	0.078424	0.093547	0.3283	0.047408	0.23667	0.11246	0.25956	0.41553	0.051426	0.055406	0.16696	0.047343	0.2449	0.027974	0.15651	-2.7271	-3.1792	-3.4521	-3.3042	-3.4688	-3.3979	-3.2938	-3.7062	-3.2396	-3.3979	-3.5375	-3.1875	-3.4792	-3.5438	-3.3063	-3.4833	91.641	122.431	264.157	254.404	162.819	-69.127	38.322	206.332	94.518	-65.423	16.527	223.764	116.938	220.378	237.463	201.643	0.00013686	0.00025882	8.4559e-05	1362.9	2.2976e-06	3.9301e-06	1403.7	251.31	8.9834e-07	3.0715e-06	313.85	88.122	69.446	20.513	2.3725e-06	28.992	0.00020055	0.00012859	3.3181e-05	1336.5	2.3023e-06	1.573e-06	1385.4	248.89	2.0317e-06	1.502e-06	311.28	88.437	69.329	20.625	1.6729e-06	29.248	127.020	2.399	30.778	-67.352	96.414	75.278	-67.230	-60.066	47.503	83.720	-60.013	-54.125	-53.911	-46.658	49.856	-47.419	-8191	255	
854.008	1	1	0	0	0.22898	0.047252	0.31755	0.090944	0.24635	0.26937	0.16098	0.12594	0.17302	0.044706	0.13884	0.23055	0.083885	0.066043	0.029848	0.33309	-2.8292	-3.0917	-3.5312	-3.325	-3.1688	-3.4542	-3.3771	-3.5229	-3.2354	-3.2375	-3.6667	-3.1833	-3.2812	-3.4229	-3.2083	-3.5938	13.437	207.820	-31.889	266.482	204.133	279.382	213.347	89.081	173.455	90.624	255.333	242.601	-77.860	207.359	-21.402	199.581	0.00012786	0.00031421	0.00010369	1356.9	9.4555e-07	2.2931e-06	1407.7	251.01	1.0028e-06	2.9588e-06	313.5	88.085	69.572	20.712	2.3609e-06	28.899	0.00019017	0.00015013	3.7246e-05	1332.8	2.0131e-06	1.3777e-06	1385.4	248.9	1.9058e-06	1.4986e-06	311.03	88.301	69.461	20.668	1.6745e-06	29.167	121.073	29.041	30.000	-67.466	72.934	54.968	-67.210	-60.431	75.276	83.003	-60.574	-54.216	-53.705	-46.808	56.557	-46.901	-8191	255	
854.104	1	1	0	0	0.053964	0.14851	0.1221	0.14731	0.39505	0.16271	0.34184	0.14334	0.16869	0.14774	0.22999	0.077764	0.19391	0.26016	0.19796	0.11359	-2.8729	-3.0104	-3.3146	-3.3604	-3.125	-3.5812	-3.3729	-3.3542	-3.25	-3.1813	-3.6292	-3.2687	-3.4396	-3.5917	-3.0938	-3.3604	177.135	-24.324	-41.543	255.313	97.958	192.916	231.050	-42.214	230.098	33.764	224.569	-67.480	-27.100	157.971	40.510	151.752	0.0001225	0.00023362	9.5771e-05	1363	1.4961e-06	2.9734e-06	1404.4	250.61	1.4755e-06	3.3249e-06	313.09	88.103	69.43	20.624	2.1849e-06	29.134	0.00020715	0.0001427	3.3655e-05	1335.9	2.4979e-06	1.3898e-06	1385.3	248.67	1.973e-06	1.6576e-06	310.71	88.262	69.422	20.679	1.8334e-06	29.231	108.569	2.155	20.825	-67.339	66.106	64.638	-67.357	-60.179	53.041	73.423	-60.207	-54.268	-53.725	-46.426	58.125	-47.026	-8191	255	
854.199	1	1	0	0	0.027541	0.17634	0.17039	0.27743	0.14171	0.11419	0.09492	0.29169	0.18638	0.34383	0.33467	0.15256	0.16808	0.16154	0.16888	0.12807	-2.9354	-3.1083	-3.3271	-3.4062	-3.0167	-3.4188	-3.3875	-3.4583	-3.2333	-3.2125	-3.5812	-3.5	-3.3271	-3.5833	-3.1479	-3.3438	50.513	-11.935	245.071	219.079	149.370	54.902	222.755	235.732	178.847	90.397	192.845	189.038	90.726	154.910	46.645	272.540	0.0001087	0.00030372	6.6687e-05	1366.9	5.5615e-07	3.0255e-06	1406.8	249.75	2.6898e-06	2.6513e-06	313.97	87.986	69.495	20.535	2.0385e-06	28.939	0.00019717	0.00014095	3.2837e-05	1333.2	2.2052e-06	1.4806e-06	1382.6	247.78	1.9565e-06	1.502e-06	310.26	88.406	69.357	20.645	1.7032e-06	29.119	129.805	1.180	23.804	-67.466	32.721	72.531	-67.360	-60.087	12.005	69.935	-60.047	-54.274	-53.847	-46.725	63.049	-47.294	-8191	255	
854.295	1	1	0	0	0.08801	0.2009	0.21198	0.14133	0.17933	0.23424	0.13384	0.27806	0.046342	0.041823	0.33105	0.068521	0.12889	0.162	0.072441	0.17575	-2.9833	-3.1125	-3.3812	-3.5333	-3.1063	-3.4979	-3.1875	-3.3479	-3.5729	-3.2521	-3.4562	-3.3187	-3.1604	-3.4333	-3.2271	-3.2083	-47.783	-39.953	121.129	276.887	-68.434	-64.268	122.341	230.586	-20.594	275.621	201.015	149.058	276.310	41.225	139.755	42.954	0.00012864	0.00033222	9.6111e-05	1357.1	1.9973e-06	2.6194e-06	1404.7	250.46	1.5597e-06	3.4982e-06	312.57	87.874	69.326	20.347	1.5389e-06	28.927	0.00018489	0.00014406	4.0041e-05	1333.2	2.398e-06	1.3699e-06	1382.8	248.04	1.8764e-06	1.398e-06	310.39	88.17	69.196	20.571	1.7365e-06	29.141	117.749	18.957	24.369	-67.374	80.681	73.560	-67.287	-60.333	116.798	84.643	-60.116	-54.434	-53.569	-46.889	55.849	-46.856	-8191	255	
854.391	1	1	0	0	0.1783	0.20269	0.042821	0.030727	0.082035	0.19103	0.30703	0.2936	0.10921	0.12309	0.19567	0.22367	0.11141	0.27528	0.20336	0.21036	-3.1833	-3.1937	-3.4708	-3.5979	-3.2708	-3.4938	-3.4625	-3.3063	-3.5	-3.0687	-3.5438	-3.4104	-3.1437	-3.5875	-3.2812	-3.3458	171.046	202.629	57.055	191.197	134.677	153.586	189.711	-56.536	222.759	194.863	197.448	249.057	37.114	261.720	135.425	239.036	0.00011629	0.00028452	0.00011534	1361.2	1.6698e-06	2.9361e-06	1400.3	250.13	1.995e-06	2.7207e-06	311.81	87.266	69.492	20.494	3.3424e-06	28.804	0.00019454	0.00015438	4.0687e-05	1329.2	2.3544e-06	1.3181e-06	1380.6	247.71	1.8557e-06	1.4719e-06	310.49	87.914	69.34	20.533	1.8652e-06	29.022	119.793	14.053	29.427	-67.432	60.501	66.167	-67.242	-59.979	20.208	93.985	-60.203	-54.471	-53.699	-46.776	58.644	-47.044	-8191	255	
854.512	1	1	0	0	0.17259	0.16168	0.087697	0.34595	0.07949	0.19701	0.49251	0.12348	0.31792	0.092707	0.17327	0.27683	0.14609	0.095982	0.30066	0.16679	-3.1854	-3.3063	-3.5521	-3.5646	-3.1729	-3.4771	-3.5292	-3.3417	-3.4917	-3.0958	-3.3833	-3.4313	-3.2646	-3.5625	-3.3667	-3.2125	-75.077	244.003	8.019	257.202	37.306	-16.632	216.020	247.883	209.411	-58.751	-75.163	2.602	152.488	209.352	26.384	146.363	0.0001146	0.00033636	0.00011003	1355.6	6.0149e-07	2.3584e-06	1401.9	249.78	1.3609e-06	5.1457e-06	312.82	87.606	69.136	20.282	2.5479e-06	28.696	0.00019112	0.00014475	3.5224e-05	1330.6	2.2833e-06	1.5238e-06	1380	247.45	1.8392e-06	1.4539e-06	310.28	87.869	69.08	20.502	1.6646e-06	29.057	103.474	7.890	17.793	-67.222	72.177	81.756	-67.486	-60.059	24.039	75.055	-60.218	-54.107	-54.261	-47.099	89.578	-47.186	-8191	255	
854.583	1	1	0	0	0.070596	0.08362	0.21744	0.21873	0.28274	0.077248	0.31348	0.17574	0.073327	0.079944	0.10874	0.2892	0.34059	0.23847	0.36607	0.078944	-3.3792	-3.1833	-3.3146	-3.6125	-3.2125	-3.4188	-3.4875	-3.2625	-3.5125	-3.2562	-3.4292	-3.3583	-3.1542	-3.4583	-3.3021	-3.2313	60.630	229.669	177.143	271.942	235.850	183.890	224.214	173.554	142.989	-58.505	40.539	95.257	228.811	202.153	93.576	66.577	0.00012005	0.00032921	9.1754e-05	1354.2	1.943e-06	2.7052e-06	1399.5	249.45	1.6097e-06	2.9622e-06	312.45	87.164	69.504	20.293	2.4297e-06	28.641	0.00019717	0.00013397	3.7461e-05	1331.5	2.2136e-06	1.2264e-06	1378.4	247.05	1.9895e-06	1.4642e-06	309.55	87.972	69.064	20.518	1.4723e-06	28.997	118.897	15.478	6.768	-67.402	45.532	62.975	-67.170	-60.140	46.646	84.072	-60.231	-54.222	-53.698	-46.719	63.487	-47.275	-8191	255	
854.679	1	1	0	0	0.18203	0.26331	0.24307	0.2339	0.15387	0.16277	0.096175	0.18722	0.16251	0.1451	0.17042	0.021211	0.29566	0.094276	0.16474	0.15475	-2.9979	-3.1729	-3.2458	-3.725	-2.9854	-3.3896	-3.5479	-3.2167	-3.4042	-3.3563	-3.3812	-3.65	-3.1896	-3.3729	-3.5	-3.2667	-38.739	156.149	84.967	229.993	274.399	175.313	-19.678	207.335	182.198	169.972	-18.664	138.373	281.871	89.186	27.365	-47.942	0.0001202	0.00040102	0.00012344	1358.5	1.7975e-06	2.5868e-06	1395	248.95	1.1022e-06	4.579e-06	312.35	87.488	69.019	20.404	2.4457e-06	28.737	0.00018405	0.00013519	4.3224e-05	1328.8	2.3558e-06	1.3258e-06	1376.7	246.69	1.8829e-06	1.453e-06	308.85	87.748	68.88	20.501	1.4489e-06	29.002	119.477	10.048	10.258	-67.383	55.821	61.097	-67.403	-59.991	67.974	83.744	-60.317	-54.116	-53.753	-46.694	68.250	-47.314	-8191	255	
854.800	1	1	0	0	0.10587	0.07891	0.2088	0.53945	0.10099	0.15926	0.19635	0.049654	0.15511	0.057898	0.22621	0.086941	0.23947	0.092884	0.037394	0.27338	-2.9917	-3.3479	-3.0604	-3.8375	-3.2062	-3.3333	-3.6146	-3.2708	-3.5542	-3.2479	-3.35	-3.55	-3.1937	-3.2646	-3.3958	-3.2396	156.414	137.567	-50.812	231.534	-38.725	-39.812	196.808	-69.252	182.432	-3.222	223.343	-14.377	-71.825	-53.113	214.832	163.519	0.00012862	0.0003983	0.00012547	1356.1	2.2056e-06	2.4526e-06	1396.2	249.09	1.3184e-06	3.6819e-06	313.54	87.476	68.971	20.494	2.8974e-06	28.695	0.00020088	0.00015264	4.0063e-05	1328.8	2.1792e-06	1.325e-06	1374.9	247.11	1.8593e-06	1.4229e-06	309.05	87.789	68.935	20.542	1.5473e-06	28.979	118.981	13.323	15.376	-67.202	98.055	73.212	-67.272	-60.061	51.979	78.844	-60.133	-54.209	-53.839	-46.843	53.810	-47.171	-8191	255	
854.896	1	1	0	0	0.11424	0.092129	0.11282	0.11516	0.14749	0.28183	0.28805	0.13471	0.059513	0.059056	0.18881	0.068598	0.09547	0.037443	0.12215	0.17362	-3.2125	-3.4771	-3.1542	-3.6583	-3.3521	-3.1896	-3.7729	-3.3604	-3.6417	-3.6104	-3.2729	-3.4083	-3.3271	-3.3021	-3.5625	-3.1792	-22.859	232.340	185.534	206.106	149.446	138.583	211.358	266.833	94.554	168.316	192.875	66.555	-27.732	-46.120	106.688	28.508	0.00011659	0.00028051	0.00010177	1354	2.2074e-06	3.2891e-06	1395.2	248.38	1.1331e-06	4.174e-06	311.5	87.335	69.003	20.381	2.6031e-06	28.857	0.00019108	0.00012297	3.7031e-05	1329.1	2.5085e-06	1.3863e-06	1376.2	246.72	1.7534e-06	1.3086e-06	309.11	87.806	68.942	20.533	1.4436e-06	28.997	123.127	6.146	12.735	-67.160	66.760	81.012	-67.142	-60.243	26.716	87.519	-60.253	-54.219	-53.646	-46.955	77.303	-47.500	-8191	255	
854.992	1	1	0	0	0.12864	0.092565	0.18349	0.29105	0.1478	0.22272	0.26938	0.16038	0.040344	0.064876	0.16281	0.35411	0.18207	0.060517	0.20997	0.15653	-3.0458	-3.4917	-3.1208	-3.7646	-3.2792	-3.3063	-3.6104	-3.275	-3.2979	-3.45	-3.2333	-3.4833	-3.4104	-3.2021	-3.5875	-3.1729	-17.375	219.246	144.591	245.805	159.458	-32.796	248.333	167.196	-70.423	-69.269	-70.604	227.464	81.779	-22.725	-62.472	274.074	0.00010489	0.00035125	7.1937e-05	1351.7	1.4237e-06	2.659e-06	1392.8	248.57	2.2367e-06	3.0304e-06	312.27	87.591	69.139	20.425	4.2794e-06	28.741	0.00018893	0.00013026	3.8923e-05	1326.1	2.2946e-06	1.4443e-06	1375.3	246.69	1.8979e-06	1.1349e-06	308.82	87.852	68.966	20.51	1.7426e-06	29.021	126.219	23.260	32.191	-67.264	55.405	49.457	-67.322	-60.283	51.525	70.047	-60.223	-54.171	-53.771	-46.735	71.660	-47.299	-8191	255	
855.089	1	1	0	0	0.29312	0.093446	0.081593	0.16698	0.19887	0.095838	0.1352	0.19158	0.061213	0.031434	0.24533	0.10279	0.11234	0.21418	0.17182	0.23854	-2.9646	-3.4875	-3.2354	-3.5896	-3.2771	-3.1833	-3.8458	-3.3271	-3.1979	-3.5312	-3.25	-3.5917	-3.5062	-3.2375	-3.5458	-3.2667	64.384	-56.348	245.539	172.569	92.788	247.878	249.440	-75.970	185.519	194.615	269.384	35.163	-48.588	36.923	178.469	234.359	0.0001211	0.00030434	7.2123e-05	1355.4	1.4863e-06	2.1505e-06	1399.1	249.67	2.856e-07	3.7933e-06	312.88	87.535	68.956	20.531	2.5279e-06	28.926	0.00018522	0.00012009	3.7848e-05	1328.3	2.253e-06	1.503e-06	1377.1	246.96	1.8035e-06	1.459e-06	309.1	87.893	68.933	20.547	1.5738e-06	29.044	121.526	10.104	30.589	-67.338	72.175	58.153	-67.238	-60.106	258.203	69.382	-60.071	-54.194	-53.932	-47.057	71.750	-46.867	-8191	255	
855.185	1	1	0	0	0.1704	0.052489	0.20577	0.30825	0.17859	0.37409	0.49122	0.17297	0.17939	0.045502	0.16207	0.071949	0.1361	0.14753	0.094731	0.10729	-2.8083	-3.5042	-3.2875	-3.6854	-3.4646	-3.3	-3.6979	-3.4625	-3.3667	-3.3792	-3.1979	-3.5062	-3.5687	-3.3417	-3.5708	-3.5104	249.647	255.642	-52.238	264.040	-18.947	44.088	230.486	270.364	185.354	133.298	276.134	45.953	96.708	84.588	-39.239	137.031	0.00012269	0.00036112	9.3261e-05	1353.1	1.4597e-06	3.6332e-06	1397.8	249.52	2.731e-06	2.6925e-06	310.02	87.112	69.372	20.295	2.2182e-06	28.534	0.00020114	0.00012563	4.0794e-05	1329.1	2.2833e-06	1.3181e-06	1377.4	246.72	2.0832e-06	1.0953e-06	308.24	87.573	68.921	20.508	1.5443e-06	28.966	124.491	-5.559	22.292	-67.427	76.816	81.851	-67.217	-60.242	25.360	83.265	-60.214	-54.129	-53.835	-46.721	76.810	-47.024	-8191	255	
855.281	1	1	0	0	0.082129	0.062261	0.036105	0.36561	0.25769	0.035725	0.11834	0.2419	0.23247	0.35108	0.083174	0.04675	0.19997	0.071237	0.133	0.092674	-2.9083	-3.6188	-3.1583	-3.6396	-3.4792	-3.1292	-3.6521	-3.3854	-3.3083	-3.4396	-3.2333	-3.4458	-3.5187	-3.2771	-3.4104	-3.1458	22.745	47.237	232.862	244.443	21.010	183.409	153.951	206.906	70.514	-69.087	75.955	-62.805	169.904	240.897	46.777	87.679	0.00013109	0.00036674	9.5115e-05	1352.3	1.3e-06	2.7359e-06	1394.8	248.36	1.8056e-06	3.3965e-06	312.21	86.942	68.514	20.434	2.841e-06	28.775	0.00020026	0.00013261	3.9224e-05	1325.7	2.0968e-06	1.4823e-06	1373.9	246.44	1.9122e-06	1.3e-06	308.91	87.681	68.786	20.485	1.6139e-06	29.006	117.594	14.146	9.424	-67.420	73.632	71.150	-67.141	-60.051	64.359	64.798	-60.087	-53.748	-53.731	-46.636	51.978	-47.312	-8191	255	
855.400	1	1	0	0	0.23916	0.05505	0.26312	0.26401	0.16795	0.065635	0.23663	0.20949	0.064131	0.13072	0.092319	0.34495	0.33536	0.12759	0.11341	0.13453	-2.725	-3.5042	-3.2979	-3.4188	-3.5708	-3.0875	-3.6583	-3.4146	-3.1792	-3.6583	-3.425	-3.4083	-3.6167	-3.1542	-3.5917	-3.4625	196.495	-13.922	125.906	218.819	140.294	-7.919	211.123	251.610	254.586	49.101	91.787	230.034	243.032	153.108	223.500	212.317	0.00013983	0.00032258	9.873e-05	1351.1	2.8758e-06	3.0755e-06	1395.6	248.07	1.6051e-06	3.232e-06	310.39	86.925	68.747	20.402	2.3145e-06	28.555	0.00019585	0.00012548	3.731e-05	1325.2	2.3487e-06	1.4728e-06	1374.3	245.96	1.9895e-06	1.2149e-06	307.83	87.578	68.769	20.43	1.6184e-06	28.921	122.074	13.808	15.668	-67.316	63.075	70.281	-67.372	-60.078	67.631	93.856	-60.118	-54.064	-53.550	-46.516	43.476	-46.994	-8191	255	
855.496	1	1	0	0	0.15848	0.14542	0.06187	0.38966	0.24832	0.11248	0.24735	0.2025	0.020029	0.099781	0.059568	0.1307	0.10979	0.16223	0.055422	0.25997	-2.8271	-3.1979	-3.2958	-3.425	-3.6312	-3.1437	-3.5146	-3.5604	-3.2438	-3.4979	-3.3063	-3.2083	-3.3583	-3.3833	-3.2979	-3.4437	25.044	-62.440	141.316	249.241	218.646	75.979	190.589	240.566	41.229	115.312	199.735	-70.443	183.589	16.419	127.161	189.257	0.00010956	0.00032643	0.0001134	1347.3	1.9505e-06	4.0912e-06	1396.5	250.02	2.0511e-06	2.0074e-06	310.84	86.98	69.041	20.425	2.8678e-06	28.829	0.0001913	0.00011933	3.8923e-05	1324.8	2.1609e-06	1.6534e-06	1372.9	246.69	2.0152e-06	1.1994e-06	308.15	87.407	68.795	20.494	1.6313e-06	28.983	120.195	13.094	29.094	-67.427	79.776	75.170	-67.342	-60.011	55.720	76.109	-60.138	-54.274	-53.843	-46.666	62.731	-47.345	-8191	255	
855.592	1	1	0	0	0.16905	0.079088	0.17545	0.21027	0.14408	0.16203	0.07171	0.3935	0.15981	0.16502	0.14141	0.13705	0.30146	0.080058	0.10228	0.29566	-2.7062	-3.5125	-3.275	-3.4437	-3.6542	-3.2562	-3.4042	-3.55	-3.2771	-3.3708	-3.3812	-3.1229	-3.525	-3.2625	-3.2604	-3.4896	7.568	80.120	16.843	278.684	177.651	221.104	145.965	209.821	19.785	-39.003	140.195	120.974	-63.689	256.339	240.987	232.394	0.00012166	0.00025223	0.00010541	1353.8	2.5116e-06	3.5917e-06	1393.3	247.99	2.1188e-06	3.4505e-06	311.14	87.486	69.004	20.322	2.8587e-06	28.893	0.00020704	0.00012381	3.7805e-05	1324.8	2.1609e-06	1.4555e-06	1372.9	245.77	1.9873e-06	1.3963e-06	307.92	87.688	68.687	20.427	1.6427e-06	29.016	120.220	-0.010	10.782	-67.367	83.417	82.705	-67.252	-60.139	25.212	66.525	-60.333	-54.015	-53.341	-47.023	57.147	-47.417	-8191	255	
855.688	1	1	0	0	0.10105	0.14485	0.30203	0.15741	0.1664	0.079603	0.14438	0.15284	0.18046	0.19362	0.12607	0.30956	0.19117	0.1827	0.19754	0.17563	-2.8625	-3.4083	-3.2021	-3.2188	-3.3708	-3.1854	-3.5396	-3.5938	-3.2	-3.3604	-3.5167	-3.1521	-3.6917	-3.2896	-3.3354	-3.475	-39.590	-73.910	-57.593	-40.136	74.766	251.947	-58.897	194.658	203.547	-26.531	189.166	201.352	256.437	-34.893	71.171	189.387	0.00012222	0.00019587	9.7203e-05	1346.6	1.3711e-06	3.1209e-06	1389.6	248.58	1.762e-06	4.5039e-06	310.78	87.264	68.7	20.268	2.6037e-06	28.724	0.00019753	0.00011417	3.9783e-05	1323.7	2.1123e-06	1.4503e-06	1371.7	246.37	2.1769e-06	1.4229e-06	308.04	87.637	68.631	20.435	1.8751e-06	28.933	118.222	16.299	33.062	-67.377	92.078	79.186	-67.211	-60.029	21.631	64.409	-60.147	-54.220	-53.848	-46.846	72.386	-47.465	-8191	255	
855.809	1	1	0	0	0.20373	0.15026	0.27137	0.10866	0.17193	0.23654	0.32793	0.32928	0.15375	0.14124	0.15309	0.16066	0.20357	0.18676	0.10411	0.10705	-2.7708	-3.2521	-3.3479	-3.4708	-3.3271	-3.2458	-3.3208	-3.5792	-3.0875	-3.2646	-3.4833	-3.2354	-3.4146	-3.3417	-3.1667	-3.6708	163.976	183.756	254.024	-64.930	78.110	134.457	-59.133	258.438	52.564	155.696	194.304	246.646	-58.497	248.946	66.731	-31.369	0.00012792	0.00028101	0.00010648	1350.7	2.4988e-06	4.1382e-06	1391.6	249.4	1.9092e-06	2.8589e-06	310.36	87.23	68.843	20.478	2.2287e-06	28.643	0.00019389	0.00013329	3.3267e-05	1324.2	2.1637e-06	1.5627e-06	1370.9	246.46	1.9794e-06	1.3859e-06	307.58	87.571	68.749	20.489	1.657e-06	28.902	124.608	10.351	23.125	-67.215	72.314	72.512	-67.323	-59.916	45.581	67.863	-60.208	-54.236	-53.913	-47.026	62.443	-47.330	-8191	255	
855.880	1	1	0	0	0.068376	0.073575	0.045608	0.19407	0.099702	0.079887	0.12927	0.16906	0.21468	0.32239	0.067213	0.21775	0.1572	0.1525	0.1373	0.036757	-2.9271	-3.3958	-3.4146	-3.3937	-3.4417	-3.3396	-3.3167	-3.3979	-3.15	-3.2583	-3.5687	-3.1604	-3.3083	-3.3229	-2.975	-3.475	281.445	203.725	189.845	227.548	120.113	-58.524	-53.297	212.160	41.394	-53.730	-67.975	262.248	-54.752	225.795	-59.574	-46.984	0.00011185	0.00030205	9.2013e-05	1347.7	2.0846e-06	2.895e-06	1397.1	248.35	2.2614e-06	4.039e-06	310.2	87.261	68.751	20.317	2.3549e-06	28.647	0.00019411	0.00012995	3.688e-05	1323.9	2.3065e-06	1.325e-06	1373.3	246	2.1776e-06	1.5166e-06	307.49	87.474	68.692	20.392	1.6139e-06	28.96	129.080	8.770	12.428	-67.205	78.294	66.246	-67.374	-60.304	48.162	57.468	-60.355	-53.870	-53.719	-46.825	70.049	-47.807	-8191	255	
855.977	1	1	0	0	0.22637	0.4191	0.12352	0.30552	0.27598	0.20393	0.13434	0.058307	0.11191	0.27162	0.13284	0.031138	0.15255	0.11994	0.10135	0.21705	-2.9437	-3.2646	-3.4333	-3.2667	-3.2604	-3.4688	-3.4042	-3.6021	-3.2479	-3.2229	-3.6312	-3.2083	-3.2604	-3.5896	-3.1188	-3.4708	-2.837	213.017	161.283	269.456	-72.747	35.684	40.262	16.373	250.011	140.273	65.439	258.376	36.197	40.109	240.646	165.474	0.00013345	0.00018937	8.4144e-05	1352.1	1.6668e-06	2.9682e-06	1390.7	247.26	1.7913e-06	3.2738e-06	309.24	87.057	68.643	20.325	2.4338e-06	28.827	0.00020055	0.0001367	3.8192e-05	1323.1	2.3903e-06	1.2593e-06	1370.4	245.86	2.0674e-06	1.557e-06	307.08	87.491	68.588	20.429	1.7078e-06	29.025	116.899	18.861	23.764	-67.328	66.459	75.626	-67.168	-60.100	56.642	89.098	-60.606	-54.207	-53.808	-46.693	73.357	-47.173	-8191	255	
856.073	1	1	0	0	0.21271	0.25894	0.13909	0.22847	0.10794	0.043242	0.12681	0.23559	0.1281	0.080061	0.26291	0.14711	0.25543	0.057788	0.17114	0.052866	-2.9	-3.0563	-3.3375	-3.475	-3.325	-3.4062	-3.2313	-3.3979	-3.4042	-3.1854	-3.6562	-3.2604	-3.3688	-3.3229	-3.0021	-3.5187	119.804	-16.101	79.622	212.205	-34.271	106.736	222.112	177.763	225.875	16.343	-40.011	-59.528	-73.139	169.364	153.052	106.432	0.00010899	0.00028366	0.00010184	1346.5	1.9646e-06	3.6537e-06	1389.1	247.66	1.6746e-06	2.9927e-06	310.9	87.32	68.476	20.234	1.982e-06	28.627	0.00019924	0.00015802	3.602e-05	1321.8	2.2608e-06	1.2022e-06	1370.1	245.48	1.8879e-06	1.594e-06	307.65	87.301	68.452	20.405	1.757e-06	28.874	128.318	-1.076	27.369	-67.482	61.305	80.373	-67.283	-60.359	23.011	72.188	-60.332	-54.076	-53.618	-47.083	67.353	-47.286	-8191	255	
856.192	1	1	0	0	0.17656	0.17785	0.21665	0.3304	0.19409	0.032226	0.19416	0.41112	0.25157	0.035972	0.15043	0.21159	0.17872	0.16177	0.12404	0.091065	-3.1479	-3.0417	-3.375	-3.4437	-3.2333	-3.5187	-3.2333	-3.5771	-3.6125	-3.0875	-3.5563	-3.3167	-3.2458	-3.4542	-2.9729	-3.4583	227.944	115.775	244.014	232.838	264.947	239.710	233.374	236.845	25.982	144.525	-73.748	199.967	-48.332	-38.006	160.759	-61.284	0.00012883	0.00037252	7.5843e-05	1345.4	2.0815e-06	4.1028e-06	1392.9	248.18	1.8784e-06	4.0248e-06	311.4	87.351	68.645	20.399	1.9426e-06	28.928	0.00019837	0.00014126	4.0428e-05	1322.3	2.2566e-06	1.1988e-06	1371.3	245.9	1.8764e-06	1.5269e-06	308.04	87.535	68.51	20.439	1.701e-06	28.913	120.013	11.298	35.682	-67.239	59.562	75.807	-67.263	-60.061	49.508	80.421	-60.265	-54.151	-53.687	-46.638	51.924	-46.974	-8191	255	
856.288	1	1	0	0	0.074245	0.076442	0.062778	0.25001	0.1831	0.088018	0.24298	0.15225	0.10556	0.28435	0.25527	0.042645	0.031539	0.1661	0.22302	0.016581	-2.9896	-3.1396	-3.4771	-3.425	-3.2229	-3.6437	-3.4458	-3.5312	-3.4188	-2.9688	-3.6646	-3.4625	-3.2042	-3.6125	-3.3	-3.5	144.470	122.820	66.866	-68.116	-54.359	275.854	204.622	115.036	-37.683	-24.179	185.574	173.670	-8.147	207.155	-23.219	-34.869	0.00011432	0.00033671	0.00010916	1345.1	1.3345e-06	2.8895e-06	1387.7	247.96	8.2538e-07	3.4663e-06	310.56	86.802	68.57	20.357	3.2554e-06	28.587	0.00018543	0.00014384	3.5375e-05	1321.6	2.2706e-06	1.3137e-06	1367.8	245.48	1.7069e-06	1.5803e-06	307.22	87.213	68.635	20.398	1.6465e-06	28.834	128.794	11.042	19.606	-67.317	81.635	66.174	-67.240	-60.059	91.296	70.522	-60.339	-54.146	-53.546	-46.671	59.714	-46.831	-8191	255	
856.384	1	1	0	0	0.049216	0.25939	0.14956	0.32063	0.19718	0.05971	0.12039	0.30195	0.12928	0.080485	0.12849	0.10865	0.17741	0.13379	0.038382	0.1479	-3.0062	-3.0875	-3.4583	-3.5625	-3.3958	-3.5271	-3.4583	-3.4833	-3.5333	-3.1125	-3.5583	-3.4479	-3.225	-3.5792	-3.2458	-3.2521	-29.398	28.945	71.636	225.741	28.613	263.413	239.223	267.575	242.295	159.577	197.725	-27.358	183.947	159.851	268.373	280.068	0.00011837	0.00027853	9.8779e-05	1346.5	1.8525e-06	2.1236e-06	1389.1	249.18	1.1134e-06	3.5237e-06	308.96	86.686	68.937	20.443	1.7112e-06	28.84	0.00018686	0.00014103	3.9332e-05	1320.8	2.3234e-06	1.4054e-06	1369.4	246.35	1.8056e-06	1.5536e-06	306.52	87.187	68.591	20.426	1.8153e-06	28.915	120.332	14.244	0.852	-67.525	69.071	79.181	-67.348	-59.957	42.123	74.706	-60.383	-54.243	-53.766	-46.825	56.867	-47.064	-8191	255	
856.480	1	1	0	0	0.12887	0.09944	0.27849	0.020446	0.16953	0.19373	0.037335	0.29704	0.26241	0.083074	0.11386	0.14797	0.26172	0.28081	0.20617	0.12466	-2.9708	-3.1562	-3.3812	-3.5354	-3.1042	-3.5521	-3.5146	-3.2417	-3.6833	-3.2458	-3.4271	-3.3187	-3.1417	-3.5438	-3.2833	-3.3063	194.168	80.236	-52.178	108.115	83.436	247.879	185.736	228.490	6.917	24.788	-30.315	270.593	-75.520	5.690	233.230	164.398	0.00011816	0.00034302	7.1116e-05	1344.5	2.1329e-06	3.0669e-06	1389	248.33	1.1422e-06	3.1609e-06	309.72	86.951	68.381	20.261	1.4614e-06	28.536	0.0001831	0.0001493	3.4644e-05	1319.7	2.379e-06	1.3215e-06	1367	245.75	1.8779e-06	1.5098e-06	307.5	87.18	68.405	20.375	1.5397e-06	28.883	131.856	11.077	34.390	-67.413	77.852	65.409	-67.220	-59.843	38.715	62.107	-60.194	-54.108	-53.573	-46.636	96.316	-46.849	-8191	255	
856.576	1	1	0	0	0.26096	0.17188	0.01703	0.33738	0.22602	0.12386	0.20387	0.16374	0.188	0.1075	0.35106	0.072761	0.21301	0.2442	0.061863	0.2068	-2.9896	-3.1125	-3.4896	-3.6333	-3.0333	-3.6479	-3.6771	-3.1312	-3.5396	-3.2917	-3.7146	-3.5625	-3.3458	-3.4729	-3.4479	-2.9458	-51.777	164.652	-52.515	225.237	190.978	-74.052	174.496	278.632	14.213	-29.082	270.778	-14.337	214.488	256.660	-59.564	-53.316	0.00012721	0.00037127	7.0016e-05	1347.4	1.7383e-06	3.1501e-06	1387.5	246.99	1.943e-06	4.3334e-06	309.27	86.383	68.788	20.283	3.2468e-06	28.564	0.00019472	0.00013951	3.9224e-05	1320.6	2.1672e-06	1.3898e-06	1366.6	244.87	1.8643e-06	1.4117e-06	306.74	87.028	68.462	20.302	1.5185e-06	28.829	119.067	16.772	25.797	-67.217	87.024	76.081	-67.348	-60.244	33.677	59.364	-60.364	-53.845	-53.892	-46.830	63.700	-46.903	-8191	255	
856.672	1	1	0	0	0.080988	0.16951	0.047813	0.25756	0.23165	0.19539	0.14961	0.24826	0.13824	0.088112	0.21502	0.3978	0.13943	0.20402	0.078604	0.15239	-3.0292	-3.3333	-3.4875	-3.5708	-3.1937	-3.4354	-3.5458	-3.3979	-3.5542	-3.2812	-3.425	-3.4104	-3.1396	-3.6	-3.5292	-3.3917	-41.747	-29.200	193.455	280.290	209.175	18.853	204.439	163.291	102.400	-75.148	211.934	258.099	-35.717	-0.892	167.847	142.459	0.00012763	0.00027297	9.5319e-05	1347.2	1.8894e-06	2.9528e-06	1383.1	247.73	2.3052e-06	3.1452e-06	309.45	86.76	67.763	20.187	2.3126e-06	28.692	0.00020474	0.00012775	3.974e-05	1320.1	2.2854e-06	1.5635e-06	1365.6	245.22	1.9816e-06	1.4195e-06	306.62	87.022	68.1	20.326	1.4905e-06	28.806	117.405	12.504	11.619	-67.307	64.004	69.560	-67.439	-60.102	43.274	92.933	-60.231	-53.739	-53.523	-46.886	59.535	-46.770	-8191	255	
856.769	1	1	0	0	0.31523	0.13568	0.18217	0.18803	0.10169	0.10535	0.2179	0.14923	0.19439	0.076834	0.34304	0.28992	0.16836	0.14953	0.18132	0.1086	-3.3854	-3.1854	-3.1708	-3.6	-3.275	-3.3187	-3.5458	-3.2188	-3.5208	-3.2562	-3.2667	-3.425	-3.2313	-3.4125	-3.4292	-3.3521	-37.994	201.558	99.185	176.261	212.076	-46.035	246.665	206.125	192.585	257.248	193.386	215.717	178.997	139.793	182.611	140.386	0.0001241	0.00028677	8.4367e-05	1347	1.0644e-06	3.2784e-06	1390.6	247.32	1.6027e-06	4.4323e-06	309.7	86.677	68.409	20.136	2.9739e-06	28.671	0.00019498	0.00013086	3.8902e-05	1321	2.3297e-06	1.6093e-06	1368.1	244.8	1.9029e-06	1.4307e-06	306.38	87.046	68.241	20.245	1.9235e-06	28.832	121.147	10.346	23.106	-67.322	76.222	64.271	-67.336	-60.198	35.809	78.933	-60.316	-54.220	-53.738	-46.419	44.104	-47.214	-8191	255	
856.889	1	1	0	0	0.21513	0.10025	0.098681	0.33611	0.23318	0.15713	0.38394	0.19023	0.1466	0.22263	0.34006	0.15708	0.23484	0.091657	0.18079	0.11418	-3.0854	-3.1167	-3.2042	-3.5479	-3.2542	-3.2896	-3.8771	-3.2292	-3.525	-3.5062	-3.1333	-3.5646	-3.2792	-3.3125	-3.575	-3.3146	243.566	94.405	41.049	-67.710	33.140	110.681	235.535	214.484	172.379	-47.601	-3.161	233.337	190.675	239.990	241.613	-77.593	0.00012071	0.00038772	7.5706e-05	1340	2.0351e-06	2.6187e-06	1383.6	246.88	1.5659e-06	3.927e-06	309.21	86.353	67.947	20.128	1.5783e-06	28.45	0.00018281	0.00013701	4.1805e-05	1316.9	2.31e-06	1.4425e-06	1363.6	244.6	1.9186e-06	1.361e-06	306	86.867	68.06	20.22	1.3043e-06	28.78	120.654	15.270	5.279	-67.264	38.238	80.163	-67.496	-60.131	44.317	66.679	-60.584	-54.181	-53.605	-46.608	84.523	-47.105	-8191	255	
856.985	1	1	0	0	0.14256	0.088489	0.14233	0.21011	0.2478	0.11765	0.2554	0.27021	0.021424	0.37513	0.1763	0.099618	0.14385	0.05765	0.15317	0.14882	-3.0208	-3.2542	-3.0896	-3.8479	-3.2083	-3.1875	-3.6104	-3.2146	-3.4854	-3.4813	-3.3542	-3.5563	-3.3458	-3.2458	-3.4667	-3.1396	72.242	47.992	50.670	250.814	164.203	45.098	185.491	-44.784	155.706	176.072	11.991	259.792	276.312	254.803	134.790	192.200	0.00013562	0.00032191	9.0459e-05	1346.3	1.3536e-06	3.1992e-06	1389.5	245.96	1.7302e-06	3.1289e-06	307.9	86.77	67.968	20.174	2.8952e-06	28.467	0.00019811	0.00013352	4.1052e-05	1318.8	2.0652e-06	1.5938e-06	1364.1	244.06	1.8993e-06	1.3447e-06	305.07	86.768	68.009	20.265	1.6381e-06	28.71	124.228	-13.526	0.952	-67.263	78.481	76.527	-67.298	-60.220	55.471	74.995	-60.273	-54.251	-53.607	-46.674	67.280	-47.122	-8191	255	
857.081	1	1	0	0	0.094635	0.10966	0.27111	0.17978	0.025965	0.093425	0.27708	0.11937	0.029696	0.19335	0.24249	0.026714	0.063099	0.11509	0.1838	0.15573	-2.8937	-3.2833	-3.1167	-3.45	-3.2188	-3.1833	-3.7646	-3.25	-3.1271	-3.4396	-3.2333	-3.5187	-3.2604	-3.1521	-3.5417	-3.3438	173.771	18.454	-15.069	-76.276	-0.178	237.703	186.108	7.326	231.433	126.577	266.487	210.946	166.599	135.962	257.389	34.184	0.00011813	0.00037232	6.4397e-05	1345.1	1.5679e-06	2.9947e-06	1386.7	246.23	1.3003e-06	4.0729e-06	309.26	86.84	68.339	20.221	2.9545e-06	28.483	0.00019589	0.0001207	3.7998e-05	1318.3	2.3178e-06	1.6007e-06	1366.3	244.45	1.9372e-06	1.355e-06	306.36	86.895	68.179	20.267	1.4822e-06	28.709	127.304	5.496	8.710	-67.323	50.315	73.358	-67.471	-60.209	37.878	80.515	-60.278	-54.326	-53.742	-46.708	72.620	-47.477	-8191	255	
857.178	1	1	0	0	0.072299	0.10473	0.23687	0.30983	0.16126	0.16279	0.23151	0.18513	0.088278	0.13641	0.12062	0.30926	0.14232	0.063461	0.2439	0.11085	-2.8604	-3.4313	-3.0375	-3.7396	-3.3125	-3.1542	-3.6333	-3.3375	-3.3271	-3.5208	-3.2604	-3.3937	-3.5083	-3.1417	-3.5167	-3.425	84.895	49.387	27.425	269.743	126.979	280.548	195.108	123.190	-11.764	147.551	-10.474	-72.305	53.275	182.897	8.048	98.366	0.00013024	0.00030733	0.00011439	1341.8	1.7616e-06	3.2783e-06	1388.4	247.15	2.0528e-06	3.5782e-06	307.92	86.414	67.915	20.12	2.5679e-06	28.653	0.00019706	0.00013329	3.9633e-05	1318	2.1545e-06	1.4624e-06	1365.7	244.23	1.9995e-06	1.3816e-06	305.22	86.765	67.989	20.253	1.5178e-06	28.739	115.090	4.929	13.825	-67.569	68.621	74.324	-67.113	-60.042	33.822	67.692	-60.159	-54.235	-53.851	-46.608	65.003	-47.243	-8191	255	
857.272	1	1	0	0	0.057501	0.102	0.070397	0.40147	0.081432	0.19613	0.29596	0.045533	0.13779	0.082622	0.19559	0.4634	0.14057	0.11486	0.30279	0.2761	-2.75	-3.7042	-3.1771	-3.5417	-3.3771	-3.2229	-3.775	-3.2833	-3.4083	-3.6063	-3.4188	-3.3792	-3.35	-3.0271	-3.6083	-3.4083	237.404	140.994	176.177	280.862	106.966	258.512	217.370	135.993	224.489	96.668	202.596	249.830	225.647	-64.577	31.415	180.107	9.2539e-05	0.00029336	9.2333e-05	1342.9	1.2984e-06	2.4979e-06	1385.4	246.81	1.9079e-06	4.3336e-06	308.28	86.427	68.048	20.109	2.2716e-06	28.458	0.00019378	0.00013238	3.9052e-05	1317	2.0237e-06	1.4762e-06	1363	244.37	1.8893e-06	1.4453e-06	305.65	86.816	68.147	20.22	1.4035e-06	28.67	120.987	17.914	28.378	-67.317	78.613	64.018	-67.228	-60.017	47.047	76.221	-60.023	-54.089	-53.734	-46.697	71.659	-47.109	-8191	255	
857.368	1	1	0	0	0.071045	0.085704	0.081174	0.31223	0.11502	0.10159	0.32825	0.067764	0.10916	0.25874	0.2008	0.30098	0.23184	0.090154	0.17164	0.099844	-2.7771	-3.5125	-3.2583	-3.5021	-3.5479	-3.3146	-3.6271	-3.5167	-3.2979	-3.6708	-3.4	-3.3625	-3.5667	-3.25	-3.4	-3.3312	81.557	-20.229	248.670	261.502	255.268	9.608	221.115	4.851	41.058	70.171	-17.643	258.636	208.152	142.207	40.407	8.365	0.00011712	0.00030517	0.00010167	1347.4	1.7321e-06	3.0487e-06	1383.3	246.91	1.2178e-06	3.3424e-06	309.35	86.324	68.132	20.218	2.5904e-06	28.374	0.00019345	0.00012942	3.7998e-05	1318.9	2.0785e-06	1.4425e-06	1363.6	244.35	1.9973e-06	1.4797e-06	306.35	86.828	67.993	20.277	1.676e-06	28.716	123.123	4.734	22.440	-67.259	60.521	79.321	-67.350	-60.100	23.014	84.961	-60.256	-54.182	-53.755	-46.601	61.188	-47.505	-8191	255	
857.489	1	1	0	0	0.13582	0.16499	0.21481	0.25917	0.16636	0.23264	0.20778	0.19912	0.068073	0.098102	0.16775	0.16204	0.25796	0.22062	0.14918	0.064613	-2.7542	-3.5	-3.1917	-3.4083	-3.525	-3.1542	-3.6021	-3.2521	-3.0125	-3.6396	-3.3812	-3.3396	-3.6292	-3.1167	-3.5417	-3.5271	253.863	114.941	124.895	235.534	31.134	10.172	191.922	189.522	-42.461	-69.390	-42.399	-55.598	268.129	-23.726	-70.100	-7.127	0.00012542	0.00036558	0.00010922	1341.8	2.3041e-06	3.0247e-06	1388	246.03	2.2872e-06	2.7196e-06	307.98	86.109	68.445	20.152	2.7721e-06	28.596	0.00020238	0.00012297	3.9654e-05	1316.8	2.2643e-06	1.5748e-06	1363.7	243.89	2.1039e-06	1.2733e-06	305.56	86.663	68.052	20.265	1.6321e-06	28.795	124.643	1.077	22.071	-67.340	96.934	70.482	-66.960	-60.261	50.407	84.473	-60.287	-54.389	-53.589	-46.796	66.889	-47.091	-8191	255	
857.585	1	1	0	0	0.23608	0.10195	0.082727	0.19931	0.074282	0.088279	0.30389	0.21386	0.080518	0.10096	0.13938	0.097467	0.084951	0.26849	0.16055	0.297	-2.8854	-3.4229	-3.2667	-3.4333	-3.4833	-3.3167	-3.3667	-3.3792	-3.1542	-3.5021	-3.4083	-3.1437	-3.6854	-3.1417	-3.4354	-3.5792	189.526	276.493	277.694	262.312	165.681	233.075	210.735	275.265	256.226	-54.637	-59.536	210.892	-55.505	155.468	81.439	259.198	0.00011861	0.00042555	7.206e-05	1336.1	1.8204e-06	3.5686e-06	1377.4	246.75	1.9159e-06	4.3114e-06	309.99	86.373	68.324	20.146	2.9421e-06	28.547	0.00020609	0.00013837	3.7891e-05	1316.3	1.9575e-06	1.5696e-06	1361.7	244.28	2.0495e-06	1.3094e-06	306.01	86.904	67.989	20.23	1.6563e-06	28.714	122.759	16.305	15.643	-67.260	79.030	62.902	-67.246	-59.990	31.106	91.165	-60.156	-54.255	-54.265	-46.475	76.696	-47.092	-8191	255	
857.681	1	1	0	0	0.14872	0.21514	0.28753	0.14749	0.22625	0.14504	0.22728	0.044724	0.18355	0.12173	0.10925	0.01425	0.34855	0.14926	0.10373	0.11873	-2.7958	-3.3937	-3.3667	-3.3875	-3.4	-3.3312	-3.5438	-3.6083	-3.1521	-3.4833	-3.4625	-3.1167	-3.5458	-3.3292	-3.3271	-3.5771	112.598	179.229	86.278	270.276	-16.264	82.192	227.587	142.548	170.572	177.495	271.899	-68.585	226.261	54.326	60.065	49.938	0.0001272	0.00039192	9.4263e-05	1341.4	2.5808e-06	3.0122e-06	1383	247.32	1.5042e-06	3.2947e-06	308.95	86.307	67.911	20.104	2.3396e-06	28.654	0.00019997	0.00012866	4.06e-05	1316.2	2.1187e-06	1.5177e-06	1363.9	244.61	1.9401e-06	1.2063e-06	305.31	86.641	67.965	20.234	1.4814e-06	28.76	114.669	12.931	14.062	-67.085	87.369	75.906	-67.256	-60.223	41.366	90.248	-60.116	-54.043	-53.521	-46.738	37.900	-47.178	-8191	255	
857.753	1	1	0	0	0.15022	0.077881	0.071361	0.34735	0.024375	0.074154	0.13785	0.19556	0.10379	0.047847	0.32217	0.026808	0.082781	0.067743	0.04959	0.22767	-2.6417	-3.4208	-3.3417	-3.2875	-3.6083	-3.2583	-3.5208	-3.5083	-3.1604	-3.5604	-3.5312	-3.2833	-3.5542	-3.3167	-3.1542	-3.5104	157.545	3.001	222.159	240.586	-21.606	-44.377	272.972	191.643	46.298	77.100	253.419	113.635	-10.790	139.944	163.676	-68.280	0.00014054	0.00026934	0.00010368	1343.2	1.8544e-06	3.3089e-06	1385.2	246.23	9.0137e-07	4.0541e-06	307.82	86.567	68.097	20.084	2.6255e-06	28.587	0.00019462	0.0001364	3.7912e-05	1317.2	2.3269e-06	1.3915e-06	1364.7	244.45	1.9937e-06	1.4874e-06	305.57	86.916	67.924	20.21	1.6041e-06	28.817	122.734	18.774	19.970	-67.278	38.820	74.295	-67.260	-60.180	34.779	78.324	-60.398	-54.275	-53.739	-46.775	54.368	-47.066	-8191	255	
857.873	1	1	0	0	0.25268	0.058893	0.23856	0.25175	0.22747	0.1123	0.40916	0.22374	0.18482	0.049938	0.11544	0.20277	0.17857	0.068449	0.24598	0.16704	-2.7313	-3.2625	-3.4208	-3.2083	-3.5	-3.4542	-3.4333	-3.6125	-3.3646	-3.3708	-3.6229	-3.1417	-3.6021	-3.4271	-3.2562	-3.5604	-43.955	200.299	80.543	245.377	243.234	272.766	224.004	278.242	144.222	2.163	217.352	104.703	-73.326	215.173	13.831	260.705	0.00012116	0.00031671	7.2808e-05	1341.1	3.1501e-06	2.1333e-06	1383.2	247.19	1.8875e-06	3.1173e-06	307.89	86.338	68.309	20.132	2.792e-06	28.282	0.00020227	0.00013686	3.5289e-05	1318.1	2.2495e-06	1.5143e-06	1362.7	244.12	2.0746e-06	1.2862e-06	305.18	86.645	68.12	20.246	1.7138e-06	28.626	112.724	22.435	24.031	-67.399	56.425	105.946	-67.121	-60.224	55.177	65.934	-60.155	-54.321	-53.791	-46.768	80.073	-47.181	-8191	255	
857.970	1	1	0	0	0.10015	0.22447	0.19873	0.11262	0.167	0.20679	0.18127	0.11469	0.20694	0.056566	0.23292	0.12673	0.17269	0.19557	0.22204	0.29958	-2.7875	-3.2667	-3.6042	-3.2562	-3.5083	-3.4875	-3.3229	-3.525	-3.2271	-3.275	-3.55	-3.3896	-3.5062	-3.4833	-3.1771	-3.4833	13.665	14.282	226.108	236.498	-6.023	260.314	196.952	44.351	191.284	96.734	-58.688	15.601	-15.794	17.893	259.618	202.125	0.00011489	0.00018926	5.9472e-05	1339.6	1.0087e-06	3.9167e-06	1381	246.85	1.2052e-06	3.4769e-06	309.5	86.579	68.069	20.014	2.7411e-06	28.373	0.00019352	0.00013701	3.3203e-05	1315.3	2.2974e-06	1.2584e-06	1361.6	244.16	1.8693e-06	1.5278e-06	305.76	86.742	67.921	20.176	1.6714e-06	28.733	117.381	-25.535	17.555	-67.303	103.491	74.236	-67.271	-60.158	31.105	60.008	-59.950	-54.168	-53.767	-46.351	60.595	-47.221	-8191	255	
858.066	1	1	0	0	0.022946	0.1309	0.058212	0.074804	0.070362	0.10869	0.36445	0.22251	0.2765	0.17005	0.038127	0.051469	0.23335	0.15422	0.24889	0.19728	-2.9104	-3.2125	-3.5042	-3.3438	-3.2875	-3.35	-3.1958	-3.4896	-3.3375	-3.2771	-3.85	-3.3521	-3.5354	-3.525	-3.1562	-3.5604	-51.494	164.759	124.469	-72.915	160.330	29.495	252.180	210.884	190.895	96.689	231.680	40.360	253.191	183.540	-20.608	254.769	0.00011352	0.00030904	7.9109e-05	1341.1	1.9177e-06	3.7365e-06	1387.2	246.44	1.4874e-06	4.1033e-06	306.72	86.54	67.95	20.146	3.0234e-06	28.429	0.0001905	0.00013966	3.4536e-05	1316.2	2.1489e-06	1.4313e-06	1361.1	243.8	1.8743e-06	1.6164e-06	305.01	86.591	67.802	20.186	1.7138e-06	28.616	121.301	1.075	20.934	-67.512	84.053	60.543	-67.294	-60.166	51.109	86.310	-60.202	-54.369	-53.260	-46.619	58.024	-47.023	-8191	255	
858.162	1	1	0	0	0.27979	0.28689	0.12357	0.2609	0.20696	0.1813	0.27217	0.25942	0.20381	0.12447	0.26235	0.3695	0.13712	0.20842	0.23333	0.18472	-2.8729	-3.1437	-3.4458	-3.3354	-3.3958	-3.55	-3.1542	-3.5708	-3.3812	-3.2958	-3.5042	-3.3417	-3.3667	-3.6958	-3.175	-3.4646	232.626	240.278	66.904	221.854	88.672	212.525	210.904	258.612	64.092	89.077	178.955	191.326	217.399	221.458	166.812	174.074	0.0001236	0.00036899	8.4562e-05	1346.6	1.4678e-06	2.7589e-06	1385.8	246.38	7.4155e-07	2.6213e-06	307.01	86.342	67.923	20.06	2.5814e-06	28.621	0.00019319	0.00015385	3.6622e-05	1315.1	2.2333e-06	1.5125e-06	1360.3	243.53	1.9344e-06	1.6826e-06	304.38	86.451	67.77	20.143	1.7025e-06	28.621	125.637	4.833	31.200	-67.133	50.908	84.755	-67.257	-59.757	24.958	77.975	-60.040	-54.349	-53.613	-46.832	68.505	-47.073	-8191	255	
858.281	1	1	0	0	0.10767	0.099746	0.069595	0.32803	0.23315	0.17929	0.42191	0.33397	0.26857	0.24812	0.10752	0.40803	0.0091652	0.1294	0.025845	0.21478	-2.8937	-3.0604	-3.5979	-3.2542	-3.3167	-3.4646	-3.4458	-3.5708	-3.3312	-3.2146	-3.6437	-3.3354	-3.1437	-3.5042	-3.3146	-3.3604	255.695	-57.416	4.942	196.023	-55.179	172.609	245.595	-68.027	54.173	15.518	255.685	-62.383	39.143	127.113	-72.938	260.548	0.00013413	0.00030265	7.6808e-05	1338.6	1.4814e-06	3.6994e-06	1380.2	244.89	1.2233e-06	3.378e-06	308.12	85.492	67.594	20.043	1.6801e-06	28.158	0.00020194	0.00014945	3.3977e-05	1313.6	2.2889e-06	1.395e-06	1360.6	243.05	2.0288e-06	1.5132e-06	304.82	86.321	67.508	20.196	1.6888e-06	28.47	117.420	2.230	28.656	-67.346	75.219	65.254	-67.384	-60.188	-1.750	92.433	-60.338	-53.865	-53.827	-46.496	71.777	-47.057	-8191	255	
858.354	1	1	0	0	0.061335	0.16323	0.24898	0.36532	0.27508	0.1417	0.39234	0.1147	0.14707	0.18675	0.16874	0.09942	0.18257	0.22189	0.21724	0.21292	-3.0521	-3.1208	-3.4833	-3.5	-3.275	-3.5792	-3.3729	-3.4479	-3.425	-3.1104	-3.5563	-3.5292	-3.2188	-3.3646	-3.0729	-3.2438	37.074	133.867	130.086	243.332	-72.844	267.340	242.021	160.293	65.838	251.420	218.481	158.059	77.701	265.780	100.749	161.033	0.00011175	0.00030116	9.2055e-05	1338.2	1.598e-06	2.9226e-06	1380.6	245.92	1.6946e-06	3.4443e-06	306.91	86.022	67.92	20.174	2.9055e-06	28.47	0.00018365	0.00015347	3.8923e-05	1314.8	2.2101e-06	1.2014e-06	1358.2	243.3	1.8857e-06	1.5476e-06	304.58	86.55	67.736	20.212	1.5768e-06	28.653	119.530	-14.592	5.744	-67.245	57.268	87.961	-67.277	-60.087	19.687	77.747	-60.038	-54.279	-53.859	-46.553	82.264	-47.210	-8191	255	
858.450	1	1	0	0	0.121	0.11526	0.2281	0.23715	0.16567	0.070619	0.17625	0.15202	0.10535	0.10662	0.14773	0.038407	0.075983	0.11158	0.051358	0.10415	-3.15	-3.0979	-3.6521	-3.6	-3.2354	-3.4896	-3.4938	-3.4479	-3.5896	-3.0396	-3.4896	-3.4604	-3.2354	-3.6042	-3.1667	-3.2313	78.470	-47.370	62.038	-66.399	162.130	217.817	212.070	281.209	246.952	72.974	-76.826	176.984	166.766	-20.013	257.365	-47.369	0.00011825	0.0003178	0.00012019	1338	1.9579e-06	2.4252e-06	1383.1	245.29	1.2121e-06	4.1279e-06	307.99	86.377	67.792	19.994	2.3745e-06	28.141	0.00019345	0.00013633	4.0859e-05	1315.7	2.2615e-06	1.2627e-06	1359.8	243.21	1.8686e-06	1.5441e-06	304.41	86.698	67.775	20.155	1.5299e-06	28.577	116.693	6.847	18.480	-67.301	63.085	83.514	-67.347	-60.075	87.112	80.681	-60.373	-54.028	-53.609	-47.005	61.156	-46.881	-8191	255	
858.569	1	1	0	0	0.17971	0.027986	0.068826	0.31841	0.13369	0.22099	0.29477	0.080609	0.21027	0.060781	0.20122	0.10289	0.04493	0.052158	0.25465	0.080396	-3.0542	-3.1917	-3.3438	-3.5812	-3.2958	-3.5521	-3.4771	-3.275	-3.4979	-3.0146	-3.4062	-3.3646	-3.1646	-3.4667	-3.4437	-3.2938	65.162	268.251	7.680	163.075	257.682	95.274	232.034	189.009	148.697	-14.098	28.612	-73.086	-58.803	238.158	12.585	13.365	0.00010974	0.00032545	8.5615e-05	1344	1.4422e-06	2.49e-06	1384	246.66	1.7203e-06	3.3958e-06	307.87	86.125	68.099	20.075	2.7893e-06	28.402	0.00018791	0.00014429	3.5418e-05	1315.4	2.234e-06	1.3414e-06	1360.3	243.91	1.8922e-06	1.459e-06	304.97	86.544	67.843	20.197	1.5806e-06	28.667	121.934	8.353	22.221	-67.158	85.350	76.430	-67.169	-60.075	40.017	65.414	-60.060	-54.043	-53.850	-46.762	66.769	-47.386	-8191	255	
858.665	1	1	0	0	0.3516	0.077538	0.055503	0.29036	0.18411	0.21461	0.19504	0.16752	0.12212	0.17638	0.28414	0.16102	0.30199	0.20371	0.15909	0.22919	-3.0292	-3.0812	-3.3083	-3.6042	-3.15	-3.5667	-3.6437	-3.2396	-3.4771	-3.3083	-3.4542	-3.6646	-3.1021	-3.3292	-3.3625	-3.2687	104.526	121.975	27.079	-52.443	-27.068	62.027	138.591	66.904	-62.105	281.476	234.202	240.284	118.195	189.665	-6.795	-26.639	0.00012817	0.00024161	0.00013649	1340.2	1.7027e-06	3.2486e-06	1379.6	246.3	1.6436e-06	3.4548e-06	307.53	86.297	68.071	20.227	2.3786e-06	28.52	0.0001925	0.00012859	3.9504e-05	1316.7	2.2917e-06	1.1815e-06	1363.1	244.05	1.885e-06	1.2862e-06	305.57	86.688	67.881	20.244	1.6835e-06	28.739	122.790	21.674	16.038	-67.282	48.961	71.923	-67.220	-60.175	14.362	86.066	-60.188	-53.919	-53.915	-46.501	47.027	-46.598	-8191	255	
858.761	1	1	0	0	0.23616	0.038013	0.19075	0.23873	0.25022	0.16094	0.12958	0.18412	0.20004	0.038006	0.17976	0.11947	0.15292	0.11446	0.10472	0.12012	-3.1688	-3.1708	-3.3604	-3.675	-3.1979	-3.4062	-3.6479	-3.3104	-3.4583	-3.3	-3.425	-3.6229	-3.2687	-3.3917	-3.4958	-3.1542	24.458	233.283	71.685	222.975	149.547	-4.026	222.884	254.909	176.326	-36.645	37.801	-31.226	1.805	198.111	280.458	189.129	0.00010639	0.00026632	8.5419e-05	1341.3	1.0684e-06	2.4479e-06	1380.8	246.88	1.8754e-06	2.5047e-06	308.96	86.3	68.285	20.186	2.6252e-06	28.647	0.00019487	0.00013504	3.6515e-05	1319.7	2.2235e-06	1.3379e-06	1361.8	244.27	1.87e-06	1.5433e-06	305.33	86.664	68.211	20.291	1.4572e-06	28.837	115.062	9.922	31.764	-67.377	82.781	73.802	-67.334	-59.864	49.060	60.941	-59.997	-54.282	-53.878	-46.831	50.576	-47.088	-8191	255	
858.882	1	1	0	0	0.080763	0.18111	0.14044	0.11267	0.10831	0.19406	0.17957	0.23842	0.16114	0.22616	0.18542	0.21694	0.20352	0.23671	0.082721	0.12756	-3.1562	-3.1521	-3.0771	-3.7833	-3.1312	-3.425	-3.6875	-3.375	-3.5	-3.3125	-3.2604	-3.4938	-3.2146	-3.4313	-3.6375	-3.35	259.260	74.150	114.718	206.579	-13.768	-3.004	200.178	-76.062	-41.035	143.454	269.575	-47.129	228.231	270.016	-20.360	255.924	0.00010212	0.00029927	9.1451e-05	1349.5	1.9025e-06	2.3323e-06	1384.6	246.42	1.798e-06	3.8191e-06	308.67	86.808	68.371	20.204	3.3674e-06	28.452	0.0002019	0.00012836	3.7547e-05	1320.5	2.4437e-06	1.4546e-06	1365	244.24	1.6847e-06	1.5639e-06	306.14	87.204	68.209	20.35	1.5708e-06	28.756	117.886	18.527	16.443	-67.213	75.178	45.283	-67.355	-60.026	48.229	70.740	-60.363	-53.869	-53.787	-46.871	59.460	-47.439	-8191	255	
858.978	1	1	0	0	0.22662	0.20072	0.13549	0.43742	0.14536	0.027762	0.12567	0.042453	0.019838	0.087022	0.053966	0.12158	0.097177	0.21861	0.12423	0.014586	-2.9958	-3.2125	-2.9854	-3.7438	-3.1896	-3.2104	-3.625	-3.1292	-3.4896	-3.3542	-3.3208	-3.5604	-3.2875	-3.225	-3.5312	-3.1458	-27.419	117.661	87.028	278.438	111.347	185.167	-51.048	279.206	4.068	-4.343	142.827	-28.735	206.566	-73.265	163.961	41.983	9.991e-05	0.00040456	0.00010784	1348.6	2.9443e-06	2.4138e-06	1385.8	246.99	1.3677e-06	3.2041e-06	309.3	86.492	68.984	20.253	2.9901e-06	28.512	0.00019086	0.00012783	4.0493e-05	1324.3	2.3009e-06	1.2005e-06	1367.2	244.54	1.9437e-06	1.5235e-06	306.44	86.894	68.506	20.371	1.573e-06	28.856	114.455	12.961	-4.687	-67.230	57.380	74.753	-67.496	-60.324	57.452	76.914	-60.145	-53.946	-53.519	-47.107	60.104	-47.452	-8191	255	
859.050	1	1	0	0	0.11428	0.11242	0.13794	0.17973	0.26765	0.071398	0.10806	0.17197	0.38889	0.089864	0.34469	0.1486	0.20523	0.33348	0.11371	0.18122	-3.0687	-3.3083	-3.1396	-3.6604	-3.1375	-3.3542	-3.8896	-3.2271	-3.2917	-3.4417	-3.2188	-3.6333	-3.3229	-3.2146	-3.4188	-3.2792	2.572	151.701	10.900	206.542	5.523	2.111	214.226	216.198	240.628	2.531	226.990	-76.755	239.902	166.324	190.787	53.360	0.00013433	0.00035987	9.7637e-05	1342.9	1.9353e-06	2.5066e-06	1383.3	247.14	1.8967e-06	3.8416e-06	311.16	86.404	68.756	20.34	3.1914e-06	28.616	0.00019057	0.00014065	3.9418e-05	1319.8	2.2629e-06	1.5774e-06	1365.8	244.53	1.9179e-06	1.4805e-06	306.3	87.056	68.531	20.404	1.5798e-06	28.869	118.733	14.902	11.750	-67.178	83.373	79.867	-67.367	-59.970	19.406	76.814	-60.162	-53.924	-53.923	-46.775	80.423	-47.100	-8191	255	
859.171	1	1	0	0	0.11934	0.37136	0.16266	0.25253	0.38053	0.22398	0.26741	0.30119	0.23621	0.13378	0.14287	0.096994	0.089001	0.23048	0.039796	0.095814	-2.8292	-3.4292	-3.2479	-3.8	-3.3729	-3.1625	-3.6562	-3.2938	-3.3333	-3.6167	-3.1813	-3.4104	-3.3292	-3.1979	-3.6625	-3.1979	237.248	274.667	67.169	230.225	207.268	185.653	255.225	199.793	242.727	180.116	60.763	274.071	136.391	258.818	104.811	94.499	0.00011545	0.0003279	0.00010644	1342.6	1.1067e-06	3.5251e-06	1383.9	248.41	1.2048e-06	3.4795e-06	307.56	86.973	68.883	20.214	2.4015e-06	28.682	0.00020125	0.00012798	3.9869e-05	1317.4	2.1341e-06	1.5583e-06	1363.9	244.83	1.9344e-06	1.275e-06	305.69	87.07	68.404	20.362	1.4784e-06	28.879	122.418	16.478	33.563	-67.300	100.011	76.761	-67.372	-60.208	57.355	74.465	-60.213	-53.940	-53.490	-47.248	50.502	-47.441	-8191	255	
859.265	1	1	0	0	0.17974	0.16002	0.24421	0.15699	0.12275	0.075865	0.308	0.086424	0.075786	0.11739	0.016949	0.24995	0.13332	0.2453	0.017543	0.19305	-2.925	-3.5625	-3.1625	-3.6312	-3.3563	-3.1854	-3.7917	-3.3708	-3.2104	-3.5271	-3.2	-3.4729	-3.45	-3.2229	-3.4479	-3.2062	147.327	10.219	116.486	236.585	-68.725	264.399	230.350	205.763	-16.369	-64.447	236.818	227.953	275.636	84.612	-19.800	-14.057	0.00013342	0.00025398	9.3438e-05	1348.7	1.3194e-06	2.6491e-06	1390.6	247.48	1.1575e-06	2.7946e-06	309.7	86.735	68.239	20.419	2.0575e-06	28.756	0.00019035	0.00010355	4.1074e-05	1322.2	2.0877e-06	1.5514e-06	1367.3	245.34	1.9379e-06	1.1787e-06	306.57	87.116	68.429	20.447	1.38e-06	28.871	125.087	18.883	26.035	-67.376	98.071	58.622	-67.127	-60.100	56.053	94.902	-60.395	-54.302	-53.638	-46.802	70.589	-47.325	-8191	255	
859.361	1	1	0	0	0.07216	0.12814	0.062695	0.32209	0.23821	0.043126	0.22998	0.24126	0.32881	0.17482	0.30915	0.21683	0.064407	0.17898	0.15335	0.35379	-2.8479	-3.5583	-3.1583	-3.5271	-3.4125	-3.1167	-3.6333	-3.3604	-3.1417	-3.5583	-3.2875	-3.5312	-3.5771	-2.9979	-3.5687	-3.3083	179.095	-31.225	215.469	250.398	115.765	-32.763	218.013	257.653	-50.024	52.306	251.966	-43.406	226.485	224.678	209.596	259.212	0.00011369	0.00041543	0.00010382	1351.2	1.7989e-06	3.0076e-06	1389.3	246.37	1.7782e-06	2.9737e-06	309.39	87.462	68.364	20.415	2.6649e-06	28.64	0.00019258	0.00012995	4.1783e-05	1325.3	2.2573e-06	1.5601e-06	1368.5	244.9	1.9716e-06	1.1934e-06	306.13	87.355	68.515	20.433	1.2755e-06	28.877	121.123	16.497	29.361	-67.275	67.138	76.730	-67.229	-60.221	25.907	57.031	-60.322	-54.163	-53.850	-46.511	82.008	-47.103	-8191	255	
859.457	1	1	0	0	0.16316	0.21299	0.22635	0.40122	0.1554	0.13236	0.084912	0.049286	0.16099	0.06086	0.23304	0.23462	0.068186	0.11278	0.064241	0.046099	-2.7958	-3.5271	-3.1792	-3.4729	-3.4375	-3.2313	-3.5792	-3.4583	-3.2479	-3.4854	-3.3625	-3.3729	-3.5312	-3.3063	-3.3187	-3.5542	230.902	31.380	13.459	259.434	199.411	170.900	253.622	-64.176	271.948	-41.095	-69.893	-26.764	18.179	171.657	-48.110	243.553	0.00013053	0.00031198	9.1513e-05	1347.4	2.0224e-06	3.1949e-06	1389.7	248.18	1.2519e-06	4.8785e-06	308.64	87.311	68.862	20.32	2.3007e-06	28.768	0.00019545	0.00012631	3.873e-05	1323.8	2.2101e-06	1.5203e-06	1369.8	245.46	2.0524e-06	1.3481e-06	306.05	87.359	68.557	20.417	1.4958e-06	28.91	115.254	2.692	-0.234	-67.425	64.970	67.940	-67.354	-60.060	65.440	90.836	-60.408	-54.108	-53.550	-47.093	77.844	-47.241	-8191	255	
859.578	1	1	0	0	0.17039	0.25617	0.13344	0.19933	0.35514	0.12288	0.12278	0.27248	0.036092	0.10399	0.1307	0.17159	0.19067	0.11781	0.10985	0.12917	-2.7021	-3.4208	-3.1854	-3.425	-3.4646	-3.1729	-3.5125	-3.3125	-2.9542	-3.4062	-3.3458	-3.3812	-3.575	-3.2188	-3.6042	-3.4875	-66.052	130.791	-37.711	139.180	-1.839	181.869	279.477	187.307	269.395	114.018	105.606	182.229	200.106	47.430	149.347	231.522	0.00011833	0.0003057	8.7705e-05	1352.3	1.0118e-06	3.3238e-06	1386.6	247.72	1.0076e-06	4.6862e-06	309.61	87.11	68.453	20.361	2.6403e-06	28.422	0.00019305	0.00011835	3.4644e-05	1324.9	2.0497e-06	1.433e-06	1367.4	245.52	2.0052e-06	1.4599e-06	307.13	87.165	68.62	20.465	1.6457e-06	28.788	131.279	16.074	20.208	-67.518	84.354	76.234	-67.211	-60.208	40.479	76.092	-60.323	-54.130	-54.037	-46.953	65.912	-47.055	-8191	255	
859.650	1	1	0	0	0.040138	0.159	0.17132	0.37423	0.08685	0.11584	0.40816	0.15562	0.20346	0.23644	0.017018	0.16845	0.065555	0.17214	0.058869	0.27611	-2.5438	-3.3812	-3.2979	-3.3708	-3.4875	-3.2917	-3.6063	-3.6333	-3.0521	-3.5729	-3.5146	-3.1896	-3.4938	-3.2188	-3.3917	-3.5563	20.549	238.368	236.937	269.997	208.636	63.381	239.921	220.753	149.294	124.608	39.554	268.903	172.135	258.040	3.418	251.244	0.00012183	0.00041584	7.114e-05	1348.1	1.4744e-06	2.4437e-06	1391.6	248.35	2.4392e-06	3.6954e-06	308.26	86.556	69.008	20.323	2.9453e-06	28.732	0.00020383	0.00014133	3.7934e-05	1324.3	2.0603e-06	1.3008e-06	1369.2	245.41	2.0667e-06	1.2286e-06	306.88	87.084	68.639	20.442	1.5889e-06	28.974	123.358	23.330	13.824	-67.348	89.413	85.132	-67.208	-59.991	43.512	79.961	-60.225	-53.979	-53.903	-46.918	70.852	-47.244	-8191	255	
859.746	1	1	0	0	0.25671	0.02932	0.071941	0.12353	0.25574	0.31881	0.20248	0.097283	0.043465	0.24544	0.13075	0.14576	0.11002	0.2814	0.13652	0.24629	-2.825	-3.3792	-3.1958	-3.4208	-3.5479	-3.1354	-3.5146	-3.5438	-3.1042	-3.4062	-3.5208	-3.1208	-3.4167	-3.4313	-3.3229	-3.5375	7.343	-69.014	113.194	-45.297	140.018	58.166	182.141	142.757	39.436	201.850	190.065	140.646	248.176	263.451	182.780	196.835	0.00012044	0.00033645	9.1573e-05	1348.3	2.3705e-06	2.593e-06	1390.3	247.91	1.6154e-06	3.3929e-06	310.42	87.16	68.502	20.47	3.6314e-06	28.772	0.00019669	0.00013716	3.8278e-05	1324.2	2.3459e-06	1.3319e-06	1370	245.38	2.0052e-06	1.3851e-06	307.1	87.524	68.545	20.455	1.7933e-06	28.932	112.752	5.576	18.078	-67.428	97.732	49.982	-67.368	-60.115	44.352	69.752	-60.554	-54.068	-53.844	-46.809	64.606	-47.364	-8191	255	
859.842	1	1	0	0	0.19458	0.16109	0.17339	0.1458	0.092908	0.12273	0.34518	0.11225	0.19308	0.15119	0.3361	0.17673	0.32578	0.30338	0.099525	0.13361	-2.9437	-3.2979	-3.2667	-3.2521	-3.4979	-3.3229	-3.4062	-3.4083	-2.9896	-3.4208	-3.5271	-3.1833	-3.4208	-3.4062	-3.2271	-3.5938	35.521	-71.988	174.665	-52.189	54.305	-73.960	204.082	-10.044	206.875	110.860	247.293	120.352	272.767	8.043	136.797	148.898	0.00010444	0.00024544	8.4245e-05	1350.1	1.786e-06	2.2816e-06	1394.2	248.51	7.8416e-07	3.2401e-06	311	86.478	68.469	20.429	2.2249e-06	28.619	0.00019239	0.00012806	3.531e-05	1323.5	2.1721e-06	1.4555e-06	1371	245.44	1.8779e-06	1.251e-06	306.78	87.282	68.559	20.403	1.6442e-06	28.856	120.929	5.338	23.403	-67.373	65.101	82.494	-67.303	-60.319	92.401	81.681	-60.313	-54.104	-53.551	-46.848	64.606	-47.073	-8191	255	
859.962	1	1	0	0	0.26294	0.23853	0.15798	0.1736	0.23625	0.1144	0.23086	0.13011	0.095428	0.14882	0.21595	0.28657	0.32896	0.19728	0.088168	0.14351	-2.6896	-3.3458	-3.4354	-3.2646	-3.4583	-3.5187	-3.4708	-3.6667	-3.2417	-3.4542	-3.4521	-3.1271	-3.4875	-3.425	-3.1979	-3.5604	28.098	255.783	141.242	245.889	56.117	93.774	235.463	199.117	-70.773	264.087	225.953	174.791	212.848	241.835	166.028	182.817	0.00010873	0.00035518	0.00010482	1354.7	1.4635e-06	2.9734e-06	1391.1	246.8	1.5643e-06	3.256e-06	310.87	86.711	68.452	20.368	2.3806e-06	28.583	0.00020012	0.00013208	3.6171e-05	1324.9	2.1362e-06	1.4028e-06	1370.3	245.41	1.9115e-06	1.3344e-06	306.98	87.156	68.319	20.421	1.5321e-06	28.835	121.515	8.426	24.553	-67.275	76.505	54.586	-67.472	-60.204	37.259	61.854	-60.111	-54.192	-53.737	-46.744	74.349	-47.231	-8191	255	
860.059	1	1	0	0	0.10543	0.17543	0.076206	0.13346	0.14092	0.13546	0.2238	0.23156	0.26898	0.13174	0.03627	0.11529	0.13809	0.15089	0.21438	0.10027	-2.85	-3.1583	-3.3063	-3.3187	-3.4583	-3.2521	-3.5042	-3.5083	-3.2604	-3.2229	-3.4208	-3.1771	-3.4	-3.4104	-3.1729	-3.4729	-1.283	186.242	274.026	217.088	148.335	-20.516	214.500	152.584	3.125	-22.168	224.533	49.805	15.437	222.835	-65.916	64.301	0.00011592	0.00027918	0.00013023	1345.5	1.4389e-06	2.4239e-06	1391.2	247.61	1.6683e-06	3.1817e-06	309.62	86.553	68.493	20.219	1.7719e-06	28.685	0.00018831	0.00013633	3.6321e-05	1323.7	2.1707e-06	1.567e-06	1368.4	245.19	2.0445e-06	1.508e-06	306.38	87.236	68.566	20.391	1.6661e-06	28.858	116.547	-4.833	19.797	-67.321	64.533	73.420	-67.268	-59.985	61.213	69.163	-60.277	-54.361	-53.632	-46.852	69.888	-47.259	-8191	255	
860.155	1	1	0	0	0.29918	0.12241	0.25376	0.32314	0.12847	0.068086	0.15638	0.096671	0.062676	0.19415	0.19416	0.10909	0.14745	0.093063	0.15106	0.060403	-2.8958	-3.1854	-3.5229	-3.4042	-3.4104	-3.4354	-3.4229	-3.6792	-3.4062	-3.2458	-3.6021	-3.1688	-3.3146	-3.4021	-3.2521	-3.4125	166.482	-5.340	260.097	251.062	102.943	128.535	226.081	-48.689	1.451	172.534	191.159	109.643	269.196	-74.969	147.933	218.194	0.00012524	0.00032107	0.00011904	1353.5	2.674e-06	3.0125e-06	1388.2	247.04	1.4594e-06	3.445e-06	307.7	87.195	68.26	20.358	2.4158e-06	28.678	0.00019749	0.00013928	3.4364e-05	1323.9	2.3304e-06	1.2532e-06	1368.4	245.16	1.9673e-06	1.4315e-06	306.14	87.338	68.299	20.403	1.7153e-06	28.883	123.652	2.142	24.574	-67.279	53.703	74.285	-67.416	-60.313	67.738	48.844	-60.128	-54.117	-53.703	-46.883	64.410	-47.187	-8191	255	
860.251	1	1	0	0	0.068325	0.11276	0.11061	0.32041	0.21081	0.21979	0.06564	0.20244	0.1485	0.14326	0.094175	0.16006	0.28036	0.1271	0.088638	0.13735	-2.9125	-3.3958	-3.5292	-3.2667	-3.3688	-3.4792	-3.4542	-3.3167	-3.4417	-3.2104	-3.6542	-3.3333	-3.3083	-3.4042	-3.2646	-3.4688	75.736	48.112	-50.989	223.648	-47.781	140.142	176.661	-52.921	44.837	257.789	220.982	270.329	181.501	230.814	13.722	276.796	0.00010282	0.00026456	6.9072e-05	1345.6	1.2347e-06	3.8232e-06	1388.7	247.7	1.5134e-06	3.5e-06	308.36	86.635	68.493	20.206	3.9244e-06	28.601	0.00019101	0.00014626	3.4278e-05	1322.9	2.2024e-06	1.4399e-06	1368.1	245.27	1.812e-06	1.3447e-06	305.97	87.098	68.46	20.36	1.7017e-06	28.82	109.443	-0.834	13.663	-67.290	69.962	77.195	-67.333	-60.002	46.399	90.875	-60.399	-54.025	-53.636	-46.423	70.884	-47.001	-8191	255	
860.345	1	1	0	0	0.058429	0.15525	0.10476	0.21157	0.025873	0.071372	0.27992	0.2012	0.165	0.17401	0.10554	0.1926	0.091643	0.13737	0.086348	0.053666	-2.9688	-3.1354	-3.5083	-3.5333	-3.3937	-3.5729	-3.4125	-3.5729	-3.3708	-3.0896	-3.5792	-3.45	-3.3229	-3.625	-3.2271	-3.4625	30.031	98.233	123.016	254.016	-67.564	280.748	196.603	193.020	196.074	259.767	50.971	181.553	119.493	-69.968	245.044	196.687	0.0001124	0.00040677	9.3323e-05	1349.9	1.708e-06	4.1883e-06	1387.5	247.55	9.522e-07	3.1646e-06	308.65	86.817	68.601	20.384	2.5295e-06	28.648	0.00020132	0.00014164	3.7289e-05	1324.8	2.2953e-06	1.5091e-06	1367.4	245.29	1.9644e-06	1.5046e-06	306.01	87.171	68.41	20.445	1.3966e-06	28.855	121.034	8.115	24.657	-67.421	89.892	75.327	-67.304	-60.221	30.875	81.584	-60.204	-54.278	-53.954	-46.534	47.573	-47.371	-8191	255	
860.443	1	1	0	0	0.11722	0.024497	0.069486	0.10205	0.23034	0.047182	0.23044	0.2233	0.17982	0.097481	0.35587	0.18794	0.12247	0.045829	0.088063	0.2138	-2.9229	-2.9542	-3.4542	-3.575	-3.0396	-3.4917	-3.5229	-3.4292	-3.5438	-3.1146	-3.5396	-3.2271	-3.2542	-3.4979	-3.3021	-3.2854	250.253	175.973	228.126	221.323	22.164	-62.839	211.158	-57.175	96.166	-36.803	226.401	-71.437	271.050	232.526	155.537	-15.564	0.00014103	0.00036328	0.00010572	1348.5	2.0328e-06	2.3879e-06	1390.6	247.13	1.4158e-06	4.0674e-06	308.18	86.967	68.37	20.316	1.816e-06	28.85	0.00018547	0.00015218	3.5203e-05	1322.7	2.3755e-06	1.2705e-06	1369.4	245.27	1.7927e-06	1.4547e-06	306	87.03	68.349	20.393	1.5859e-06	28.915	120.448	18.536	16.949	-67.277	62.924	79.514	-67.311	-60.105	4.009	88.071	-60.179	-54.301	-53.750	-46.545	68.853	-46.988	-8191	255	
860.562	1	1	0	0	0.24539	0.05139	0.3018	0.29007	0.13823	0.17506	0.25672	0.18441	0.23393	0.14901	0.15383	0.094954	0.3483	0.19099	0.078956	0.16788	-3.1208	-3.2125	-3.3125	-3.525	-3.1771	-3.7208	-3.5	-3.4313	-3.6417	-3.0667	-3.5146	-3.3729	-3.125	-3.45	-3.2292	-3.2167	-74.770	19.573	105.116	223.073	106.676	197.470	232.245	271.473	199.546	25.457	-66.673	28.675	247.842	187.737	188.959	122.462	0.00012999	0.00033354	8.0896e-05	1348.3	2.2011e-06	1.8565e-06	1391.4	248.58	1.7071e-06	3.6422e-06	308.59	86.584	68.837	20.236	2.1545e-06	28.499	0.00017837	0.00013913	3.4515e-05	1322.6	2.3297e-06	1.1374e-06	1369.7	245.16	1.7741e-06	1.4521e-06	305.96	87.143	68.449	20.409	1.4814e-06	28.825	128.090	9.462	7.110	-67.127	80.680	47.089	-67.178	-60.065	30.649	69.927	-59.995	-54.101	-53.567	-46.903	66.588	-47.233	-8191	255	
860.658	1	1	0	0	0.28124	0.14825	0.10085	0.16984	0.081696	0.060064	0.13805	0.20584	0.12968	0.20232	0.24598	0.17649	0.036878	0.36678	0.22691	0.14563	-3.1375	-3.0542	-3.2188	-3.6854	-3.1063	-3.6917	-3.6375	-3.2604	-3.5646	-3.0729	-3.4771	-3.575	-2.9667	-3.4833	-3.1604	-3.2438	106.595	94.114	-63.441	269.766	-23.835	232.937	255.846	271.578	231.948	143.640	248.559	31.217	233.977	208.113	215.567	220.905	0.00012626	0.00035133	7.3304e-05	1344.6	1.9658e-06	3.6394e-06	1384.3	247.79	1.358e-06	4.0067e-06	310.1	86.006	68.57	20.15	1.464e-06	28.696	0.00019523	0.00014482	3.2558e-05	1321	2.3114e-06	1.4486e-06	1366.8	244.9	1.8256e-06	1.4117e-06	306.32	87.056	68.564	20.347	1.489e-06	28.826	121.014	26.470	12.263	-67.461	42.614	86.021	-67.122	-60.115	41.975	78.156	-59.906	-54.221	-53.887	-46.505	89.987	-47.170	-8191	255	
860.754	1	1	0	0	0.11914	0.14931	0.085803	0.27451	0.19713	0.15162	0.28696	0.23147	0.10549	0.083541	0.13906	0.32565	0.13717	0.15377	0.25757	0.26817	-3.025	-2.9896	-3.3688	-3.5667	-3.0583	-3.4625	-3.4583	-3.1542	-3.5104	-3.2854	-3.4958	-3.3875	-3.1896	-3.5458	-3.2812	-3.1521	-41.050	157.539	95.915	-53.331	114.002	-68.980	177.399	254.452	-66.937	119.302	-42.214	264.732	14.276	140.055	-39.143	-67.665	0.00010992	0.00032622	8.6088e-05	1344.8	1.9565e-06	2.2735e-06	1390.5	247.95	1.556e-06	4.2293e-06	308.45	86.873	68.351	20.378	2.9791e-06	28.562	0.00018726	0.0001323	3.5783e-05	1320	2.2263e-06	1.3639e-06	1365.3	245.13	1.8836e-06	1.404e-06	305.88	87.013	68.441	20.388	1.7017e-06	28.783	136.128	16.741	29.300	-67.240	98.717	68.634	-67.287	-59.959	37.773	59.049	-60.144	-54.491	-53.644	-46.515	46.481	-47.574	-8191	255	
860.851	1	1	0	0	0.036454	0.13968	0.057095	0.3729	0.19325	0.12748	0.33297	0.19478	0.14539	0.21619	0.28626	0.10437	0.1163	0.19931	0.13038	0.11796	-3.1208	-3.1604	-3.3063	-3.5646	-3.1042	-3.375	-3.525	-3.3063	-3.4667	-3.3708	-3.2687	-3.6312	-3.2125	-3.1813	-3.4437	-3.1312	272.041	64.096	139.287	243.688	253.858	-67.658	180.928	211.121	-38.034	236.054	194.575	249.337	105.894	179.998	-41.910	274.225	9.4973e-05	0.00030463	7.7462e-05	1348.2	1.8946e-06	3.0055e-06	1387.7	247.43	1.9835e-06	3.5142e-06	308.23	86.409	68.364	20.231	2.179e-06	28.577	0.00018339	0.00014877	3.8644e-05	1319.1	2.3945e-06	1.312e-06	1365.4	244.57	1.9487e-06	1.4126e-06	305.74	86.88	68.16	20.346	1.6472e-06	28.781	119.431	8.927	23.643	-67.328	75.553	80.259	-67.057	-60.097	51.887	64.440	-60.128	-54.159	-53.632	-46.778	53.877	-47.087	-8191	255	
860.947	1	1	0	0	0.18878	0.0034718	0.15278	0.062159	0.19436	0.066829	0.21876	0.3132	0.19627	0.057611	0.18984	0.13088	0.30452	0.094965	0.27918	0.11295	-3.0417	-3.2229	-3.2229	-3.6146	-3.2812	-3.1958	-3.5958	-3.3667	-3.3937	-3.2792	-3.1833	-3.7229	-3.2208	-3.3937	-3.4229	-3.2479	-53.655	-12.405	86.055	-71.839	208.858	203.961	195.741	-70.925	15.741	140.689	-45.850	-27.484	258.519	256.455	51.709	224.762	0.00012438	0.00035665	8.284e-05	1348.3	1.0675e-06	3.8231e-06	1388	246.8	1.4457e-06	3.3935e-06	308.78	87.136	68.487	20.46	2.169e-06	28.5	0.00019327	0.00013602	4.1633e-05	1320.7	2.1799e-06	1.4883e-06	1367.1	244.54	1.9816e-06	1.3902e-06	306.03	87.116	68.456	20.433	1.4337e-06	28.873	121.834	21.290	24.539	-67.256	90.397	68.944	-67.213	-60.371	42.524	78.263	-60.148	-54.198	-53.713	-46.888	58.568	-47.266	-8191	255	
861.043	1	1	0	0	0.1046	0.0035771	0.27804	0.19641	0.082944	0.11469	0.06907	0.23527	0.26804	0.010133	0.096598	0.27133	0.16388	0.20082	0.20639	0.048742	-3.0563	-3.4083	-3.0167	-3.5646	-3.2313	-3.2771	-3.6958	-3.2083	-3.35	-3.4542	-3.2125	-3.3146	-3.2479	-3.3729	-3.5229	-3.2104	203.773	48.992	-22.190	-77.496	239.834	44.767	116.579	-77.757	224.945	84.405	188.939	221.953	230.690	219.570	105.139	29.228	0.00010505	0.00023111	0.0001052	1346.3	1.2922e-06	3.1287e-06	1392.5	247.19	1.0884e-06	3.7273e-06	309.29	86.747	68.236	20.231	2.7944e-06	28.611	0.00018853	0.00013777	4.116e-05	1321.3	2.0673e-06	1.6413e-06	1368.7	244.82	1.9437e-06	1.306e-06	306.17	87.059	68.278	20.364	1.4776e-06	28.878	124.350	10.961	17.030	-67.477	59.054	69.837	-67.238	-60.244	66.855	70.291	-60.448	-54.013	-53.650	-46.770	80.913	-47.111	-8191	255	
861.139	1	1	0	0	0.30325	0.040191	0.22773	0.10402	0.080252	0.21815	0.05103	0.15156	0.15231	0.17679	0.23081	0.19104	0.15416	0.22792	0.11743	0.12417	-2.9354	-3.3312	-3.1354	-3.6917	-3.1229	-3.2229	-3.5958	-3.1813	-3.2188	-3.3979	-3.3021	-3.4854	-3.2771	-3.2167	-3.5187	-3.1979	94.070	74.559	-64.629	218.269	250.629	-1.659	181.789	111.758	-18.478	71.634	-28.704	236.388	242.972	-71.846	-60.840	-51.431	0.00012788	0.00042641	9.9481e-05	1341.1	1.5975e-06	2.6363e-06	1387.1	246.99	2.0068e-06	3.5537e-06	306.8	86.857	68.561	20.314	2.1711e-06	28.614	0.00018846	0.00014702	3.9697e-05	1319.7	2.2692e-06	1.4857e-06	1367.1	244.64	1.9065e-06	1.2415e-06	305.87	87.06	68.489	20.356	1.3944e-06	28.811	122.399	3.502	12.840	-67.312	99.821	74.413	-67.375	-60.238	40.851	78.109	-60.206	-54.080	-54.093	-46.838	71.653	-46.999	-8191	255	
861.258	1	1	0	0	0.17705	0.27911	0.16467	0.18785	0.14353	0.19416	0.062792	0.29224	0.22618	0.104	0.23224	0.080305	0.29256	0.30002	0.075245	0.063317	-2.8042	-3.3125	-3.15	-3.6708	-3.2708	-3.1604	-3.6875	-3.2875	-3.1792	-3.6146	-3.3083	-3.4833	-3.3333	-3.1021	-3.5687	-3.2667	23.898	81.609	3.910	-51.994	210.515	-12.639	223.088	209.641	230.233	238.599	263.690	260.226	91.151	-48.806	243.958	-58.745	0.00013162	0.00029838	8.9677e-05	1347	1.1724e-06	2.7246e-06	1392.2	246.02	9.0922e-07	3.1332e-06	308.8	87.268	68.691	20.182	3.107e-06	28.526	0.00020194	0.00012563	3.9009e-05	1321.1	2.2713e-06	1.4183e-06	1366.9	244.56	1.9229e-06	1.3473e-06	306.06	87.096	68.462	20.323	1.3043e-06	28.858	118.728	7.024	14.179	-67.411	55.318	103.957	-67.254	-60.060	65.200	62.530	-60.293	-54.431	-53.771	-46.877	56.734	-47.123	-8191	255	
#DATA ENDS
