BOXY.EXE: ISS Imagent and Oximeter Data Acquisition Program Version 0.80
Ascii Record File

#ACQ INFORMATION
2  Detector Channels 
16  External MUX Channels 
1  Auxiliary Channels 
5000  Waveform (CCF) Frequency (Hz)
1  Waveforms Skipped 
30  Waveforms Averaged 
1  Cycles Averaged 
16  Acquisitions per Waveform 
10.0806  Updata Rate (Hz) 

#FILE INFORMATION
TRUE -- External MUX Channel results are PARSED.
FALSE -- AC DC and Phase are NOT grouped.
TRUE -- Companion Program Settings File CREATED.
FALSE -- AC data not excluded
FALSE -- DC data not excluded
FALSE -- Phase data not excluded
FALSE -- Auxillary Chn. data not excluded
Tab delimiters

#CALIBRATION STATE
TRUE -- Waveform Calibration Values APPLIED.


#AUX CALIBRATION VALUES
Val Type	aux-1	

Term	1.0000e+00	
Factor	0.0000e+00	


#WF CALIBRATION VALUES
A = Detector Channel
Val Type	A-AC1	A-AC2	A-AC3	A-AC4	A-AC5	A-AC6	A-AC7	A-AC8	A-AC9	A-AC10	A-AC11	A-AC12	A-AC13	A-AC14	A-AC15	A-AC16	A-DC1	A-DC2	A-DC3	A-DC4	A-DC5	A-DC6	A-DC7	A-DC8	A-DC9	A-DC10	A-DC11	A-DC12	A-DC13	A-DC14	A-DC15	A-DC16	A-Ph1	A-Ph2	A-Ph3	A-Ph4	A-Ph5	A-Ph6	A-Ph7	A-Ph8	A-Ph9	A-Ph10	A-Ph11	A-Ph12	A-Ph13	A-Ph14	A-Ph15	A-Ph16	

Term	0.00000e+00	0.00000e+00	0.00000e+00	0.00000e+00	0.00000e+00	0.00000e+00	0.00000e+00	0.00000e+00	0.00000e+00	0.00000e+00	0.00000e+00	0.00000e+00	0.00000e+00	0.00000e+00	0.00000e+00	0.00000e+00	0.00000e+00	0.00000e+00	0.00000e+00	0.00000e+00	0.00000e+00	0.00000e+00	0.00000e+00	0.00000e+00	0.00000e+00	0.00000e+00	0.00000e+00	0.00000e+00	0.00000e+00	0.00000e+00	0.00000e+00	0.00000e+00	0.00000e+00	0.00000e+00	0.00000e+00	0.00000e+00	0.00000e+00	0.00000e+00	0.00000e+00	0.00000e+00	0.00000e+00	0.00000e+00	0.00000e+00	0.00000e+00	0.00000e+00	0.00000e+00	0.00000e+00	0.00000e+00	
Factor	1.00000e+00	1.00000e+00	1.00000e+00	1.00000e+00	1.00000e+00	1.00000e+00	1.00000e+00	1.00000e+00	1.00000e+00	1.00000e+00	1.00000e+00	1.00000e+00	1.00000e+00	1.00000e+00	1.00000e+00	1.00000e+00	1.00000e+00	1.00000e+00	1.00000e+00	1.00000e+00	1.00000e+00	1.00000e+00	1.00000e+00	1.00000e+00	1.00000e+00	1.00000e+00	1.00000e+00	1.00000e+00	1.00000e+00	1.00000e+00	1.00000e+00	1.00000e+00	X	X	X	X	X	X	X	X	X	X	X	X	X	X	X	X	

B = Detector Channel
Val Type	B-AC1	B-AC2	B-AC3	B-AC4	B-AC5	B-AC6	B-AC7	B-AC8	B-AC9	B-AC10	B-AC11	B-AC12	B-AC13	B-AC14	B-AC15	B-AC16	B-DC1	B-DC2	B-DC3	B-DC4	B-DC5	B-DC6	B-DC7	B-DC8	B-DC9	B-DC10	B-DC11	B-DC12	B-DC13	B-DC14	B-DC15	B-DC16	B-Ph1	B-Ph2	B-Ph3	B-Ph4	B-Ph5	B-Ph6	B-Ph7	B-Ph8	B-Ph9	B-Ph10	B-Ph11	B-Ph12	B-Ph13	B-Ph14	B-Ph15	B-Ph16	

Term	0.00000e+00	0.00000e+00	0.00000e+00	0.00000e+00	0.00000e+00	0.00000e+00	0.00000e+00	0.00000e+00	0.00000e+00	0.00000e+00	0.00000e+00	0.00000e+00	0.00000e+00	0.00000e+00	0.00000e+00	0.00000e+00	0.00000e+00	0.00000e+00	0.00000e+00	0.00000e+00	0.00000e+00	0.00000e+00	0.00000e+00	0.00000e+00	0.00000e+00	0.00000e+00	0.00000e+00	0.00000e+00	0.00000e+00	0.00000e+00	0.00000e+00	0.00000e+00	2.93131e+01	-1.38054e+02	-1.55137e+02	-1.83507e+02	-8.93409e+01	-7.38741e+01	-1.57185e+02	-1.62015e+02	-1.04756e+02	-8.47356e+01	-1.72626e+02	-1.72814e+02	-1.80483e+02	-1.78435e+02	-9.61728e+01	-1.51297e+02	
Factor	4.06815e-05	8.32167e-05	3.41537e-05	1.61071e-01	1.09079e-06	8.84274e-07	1.94396e-01	6.71829e-02	1.01989e-06	8.41751e-07	9.46126e-02	3.23926e-02	2.57595e-02	9.54239e-03	8.66236e-07	1.36832e-02	5.31991e-07	5.38450e-07	1.50082e-07	7.64884e-02	5.87831e-09	5.89810e-09	8.61984e-02	3.09803e-02	5.88643e-09	5.89619e-09	4.18274e-02	1.42647e-02	1.18748e-02	4.35937e-03	5.89889e-09	5.99575e-03	X	X	X	X	X	X	X	X	X	X	X	X	X	X	X	X	



#DISTANCE SETTINGS
A = Detector Channel
A-1	A-2	A-3	A-4	A-5	A-6	A-7	A-8	A-9	A-10	A-11	A-12	A-13	A-14	A-15	A-16	

2.5000e+00	3.0000e+00	2.5000e+00	3.0000e+00	2.0000e+00	3.0000e+00	1.5000e+00	3.0000e+00	3.0000e+00	3.0000e+00	3.0000e+00	3.0000e+00	3.0000e+00	3.0000e+00	1.5000e+00	3.0000e+00	

B = Detector Channel
B-1	B-2	B-3	B-4	B-5	B-6	B-7	B-8	B-9	B-10	B-11	B-12	B-13	B-14	B-15	B-16	

1.0000e+01	1.0000e+01	1.0000e+01	1.4400e+00	1.0000e+01	1.0000e+01	1.5100e+00	1.9400e+00	1.0000e+01	1.0000e+01	1.9900e+00	2.4900e+00	2.4100e+00	2.9000e+00	1.0000e+01	2.9800e+00	




#DATA BEGINS
time	group	step	mark	flag	A-AC1	A-AC2	A-AC3	A-AC4	A-AC5	A-AC6	A-AC7	A-AC8	A-AC9	A-AC10	A-AC11	A-AC12	A-AC13	A-AC14	A-AC15	A-AC16	A-DC1	A-DC2	A-DC3	A-DC4	A-DC5	A-DC6	A-DC7	A-DC8	A-DC9	A-DC10	A-DC11	A-DC12	A-DC13	A-DC14	A-DC15	A-DC16	A-Ph1	A-Ph2	A-Ph3	A-Ph4	A-Ph5	A-Ph6	A-Ph7	A-Ph8	A-Ph9	A-Ph10	A-Ph11	A-Ph12	A-Ph13	A-Ph14	A-Ph15	A-Ph16	B-AC1	B-AC2	B-AC3	B-AC4	B-AC5	B-AC6	B-AC7	B-AC8	B-AC9	B-AC10	B-AC11	B-AC12	B-AC13	B-AC14	B-AC15	B-AC16	B-DC1	B-DC2	B-DC3	B-DC4	B-DC5	B-DC6	B-DC7	B-DC8	B-DC9	B-DC10	B-DC11	B-DC12	B-DC13	B-DC14	B-DC15	B-DC16	B-Ph1	B-Ph2	B-Ph3	B-Ph4	B-Ph5	B-Ph6	B-Ph7	B-Ph8	B-Ph9	B-Ph10	B-Ph11	B-Ph12	B-Ph13	B-Ph14	B-Ph15	B-Ph16	aux-1	digaux	

8756.779	1	1	0	256	0.064919	0.21212	0.15754	0.11705	0.10783	0.1213	0.11134	0.1451	0.31229	0.13196	0.046927	0.21046	0.25734	0.14606	0.1716	0.17987	-2.8354	-2.7646	-3.5146	-2.9146	-3.1854	-3.5125	-2.8167	-3.4667	-3.225	-2.9417	-3.4479	-3.1396	-3.2313	-3.5333	-2.7833	-3.3583	17.377	103.430	271.145	205.366	240.025	203.138	186.302	331.054	32.854	276.269	176.602	328.656	213.338	-15.906	148.740	92.640	0.00018366	0.0014842	2.6132e-05	344.23	8.6791e-06	1.5133e-05	410.56	132.96	1.184e-05	6.9425e-06	179.27	71.873	54.952	20.977	2.8616e-06	28.756	0.0023547	0.0021521	0.00055686	660.01	2.5826e-05	2.3166e-05	740.4	257.59	2.5342e-05	2.2663e-05	329.51	128.72	106.23	37.791	2.097e-05	52.91	333.212	340.786	87.727	-4.874	42.818	65.793	-5.861	1.572	-7.043	126.405	-1.032	4.120	5.773	10.684	16.668	7.790	-8191	255	
8756.876	1	1	0	0	0.064265	0.29466	0.04323	0.13324	0.017266	0.1119	0.15072	0.14861	0.1748	0.12142	0.15056	0.35753	0.16059	0.17918	0.10064	0.099255	-2.8396	-2.6312	-3.5667	-2.8187	-3.0396	-3.6271	-2.8875	-3.3042	-3.4167	-2.8146	-3.3917	-3.3292	-2.9854	-3.4354	-2.8833	-3.3021	194.486	129.237	221.611	252.103	122.261	314.092	44.515	315.469	263.297	164.670	19.526	195.094	194.414	343.272	29.967	286.635	0.00046412	0.0015563	0.00010119	344.9	1.4241e-05	5.2457e-06	409.3	132.41	1.4813e-05	4.5758e-06	179.06	72.306	55.126	21.165	1.4166e-05	29.119	0.0022342	0.0020196	0.00053144	671.25	2.4398e-05	2.209e-05	733.07	264.94	2.4412e-05	2.2275e-05	332.1	133.88	105.45	38.044	2.1943e-05	55.59	163.470	-10.442	152.250	-5.006	26.743	63.593	-5.851	1.803	15.233	-6.776	-0.624	4.202	5.820	10.742	149.717	7.796	-8191	255	
8756.995	1	1	0	0	0.10435	0.12111	0.17296	0.36785	0.10705	0.084961	0.13415	0.33103	0.12276	0.23931	0.14751	0.1434	0.11274	0.30142	0.17215	0.20842	-2.9458	-2.575	-3.4042	-3.2229	-2.9771	-3.3563	-3.0521	-3.2229	-3.4583	-2.8854	-3.35	-3.0729	-2.8167	-3.4479	-2.9333	-3.1583	194.467	117.863	-13.189	312.017	240.057	275.898	145.322	99.891	171.941	324.660	202.021	214.117	17.939	324.470	55.991	332.037	0.00043542	0.00090185	0.00053276	346.3	2.4925e-05	1.1031e-05	408.33	133.38	1.5964e-05	4.6403e-06	179.16	72.911	55.411	21.027	1.398e-05	29.416	0.0022419	0.0020866	0.00057532	707.67	2.4515e-05	2.2451e-05	759.85	274.92	2.3817e-05	2.219e-05	341.92	136.27	103.34	37.487	2.2798e-05	55.202	140.269	298.583	123.282	-5.537	17.952	21.198	-5.726	0.916	25.683	79.988	-0.527	3.651	5.631	10.766	183.580	7.187	-8191	255	
8757.091	1	1	0	0	0.061258	0.016441	0.21722	0.18137	0.24227	0.34552	0.094766	0.23717	0.099869	0.16526	0.045961	0.17149	0.15449	0.21982	0.13414	0.17377	-3.025	-2.7396	-3.1458	-3.2542	-2.9938	-3.5938	-2.9417	-3.2125	-3.4625	-2.7479	-3.3688	-3.2354	-2.7729	-3.4917	-2.8354	-3.2021	162.359	200.367	127.428	75.329	118.475	321.908	121.623	-16.709	232.369	243.946	316.320	41.576	74.210	266.719	232.440	309.630	0.00025323	0.00067602	0.00082544	346.59	9.6005e-06	9.5576e-06	409.47	134.68	1.5571e-05	1.5678e-06	179.89	73.145	55.51	21.087	1.5597e-05	29.238	0.0020635	0.0019546	0.00058584	692.94	2.2741e-05	2.1538e-05	778.91	273.8	2.3282e-05	2.2139e-05	358.7	137.25	104.18	38.108	2.5843e-05	56.048	245.131	327.433	124.473	-5.700	10.119	32.082	-5.695	0.594	27.438	265.388	-0.094	3.193	5.886	11.484	168.817	7.263	-8191	255	
8757.187	1	1	0	0	0.09372	0.074803	0.14941	0.11588	0.083003	0.18042	0.27143	0.13926	0.17003	0.086441	0.23877	0.16931	0.21028	0.19838	0.13441	0.18226	-3.0417	-2.6813	-3.1333	-3.2708	-2.6375	-3.5146	-2.9792	-2.9354	-3.5229	-2.7521	-3.3167	-3.2062	-2.8396	-3.5687	-3.0396	-2.8646	135.690	186.901	286.960	22.835	257.199	305.217	264.338	242.351	253.712	150.635	264.963	212.063	90.619	202.486	331.603	21.706	5.6278e-05	0.0005605	0.00089478	348.23	1.0297e-05	1.2231e-05	409.85	134.56	1.0041e-05	8.4804e-06	179.8	73.063	55.533	21.132	9.054e-06	29.462	0.002163	0.0021017	0.00067904	710.15	2.4214e-05	2.3375e-05	828.63	276.68	2.4171e-05	2.3896e-05	379.27	137.71	105.82	39.677	2.8824e-05	56.607	206.326	136.227	130.193	-6.259	24.387	229.206	-5.634	0.455	328.424	221.200	-0.757	2.932	5.856	11.418	177.909	6.929	-8191	255	
8757.283	1	1	0	0	0.16441	0.11224	0.15482	0.15801	0.2283	0.25396	0.13827	0.13766	0.10216	0.058976	0.16957	0.12595	0.04675	0.21319	0.11622	0.12763	-2.9292	-2.6979	-3.0938	-3.4396	-2.7354	-3.4583	-3.2396	-2.8771	-3.6229	-2.7271	-3.0854	-3.5125	-2.9271	-3.2833	-3.1979	-2.825	60.903	287.720	40.423	285.565	10.386	206.518	28.879	-11.857	232.261	135.095	20.980	195.970	31.536	317.860	27.750	163.114	0.00027999	0.0020094	0.0004079	347.87	1.1856e-05	2.7823e-05	414.22	134.61	1.2624e-05	2.3056e-05	179.42	73.283	55.705	21.35	1.4068e-05	29.514	0.0022594	0.0023331	0.00075495	716.65	2.5396e-05	2.6457e-05	873.57	280.91	2.559e-05	2.7365e-05	397.56	139.56	107.85	42.133	3.0152e-05	56.857	88.413	140.256	150.802	-6.424	-14.661	216.329	-6.124	0.883	15.750	180.180	-1.618	3.342	5.917	11.420	-11.786	7.390	-8191	255	
8757.379	1	1	0	0	0.34843	0.15194	0.21906	0.16527	0.097392	0.17843	0.12067	0.087442	0.2398	0.13566	0.19324	0.33105	0.11257	0.081541	0.2414	0.19222	-2.9979	-2.9313	-3.05	-3.2562	-2.7375	-3.4437	-3.3688	-2.7687	-3.5958	-3.1208	-3.1146	-3.4708	-2.8729	-3.2792	-3.4604	-2.8771	274.716	96.359	29.760	76.141	300.624	253.739	17.837	-4.020	-1.739	11.453	224.778	309.202	41.839	335.432	208.304	200.596	0.00013936	0.0031289	0.000389	350.33	1.0649e-05	1.7113e-05	415.5	134.57	9.3634e-06	2.1894e-05	180.54	73.33	55.639	21.427	2.5136e-05	29.725	0.0022793	0.0025579	0.00075791	711.11	2.5217e-05	2.8537e-05	865.13	277.6	2.5291e-05	2.9172e-05	389.91	138.12	107.75	43.487	2.86e-05	55.887	76.267	140.242	284.309	-5.873	45.463	199.763	-6.297	0.806	171.217	189.598	-1.700	3.306	5.942	11.515	12.834	7.301	-8191	255	
8757.475	1	1	0	0	0.20985	0.058279	0.30482	0.20209	0.24105	0.051553	0.10691	0.20761	0.18622	0.18296	0.27664	0.18504	0.14674	0.15643	0.23091	0.083533	-3.1917	-3.0958	-2.9875	-3.5208	-2.6729	-3.3	-3.3604	-2.6937	-3.4333	-3.1771	-3.0062	-3.6208	-2.9229	-3.2812	-3.4333	-2.7729	2.441	-1.945	284.975	264.871	214.480	15.633	220.159	306.829	42.933	197.026	291.283	9.332	288.572	246.738	-7.849	321.651	0.00089834	0.00096502	0.00080149	347.78	1.8377e-05	1.4649e-05	414.25	134.57	1.9926e-05	1.1172e-05	181	72.974	55.464	21.457	1.3242e-05	29.388	0.0022617	0.0026723	0.00071422	697.79	2.5085e-05	2.9513e-05	837.97	272.23	2.5856e-05	3.0395e-05	381	137.16	110.71	44.832	2.8214e-05	56.23	318.319	170.762	301.044	-6.084	185.649	166.354	-6.375	0.666	159.021	214.151	-1.709	3.297	6.285	11.188	10.687	7.196	-8191	255	
8757.596	1	1	0	0	0.04675	0.11792	0.10417	0.15793	0.16532	0.1179	0.19502	0.11041	0.11938	0.090352	0.18656	0.069139	0.12906	0.14223	0.18158	0.24086	-3.0583	-3.1542	-2.8875	-3.4875	-2.8958	-3.2625	-3.5792	-2.8688	-3.4042	-3.2667	-2.9062	-3.5646	-3.0708	-3.2708	-3.55	-2.9188	253.686	25.726	191.938	233.828	-3.850	52.300	292.422	99.575	251.640	155.854	303.695	251.462	316.638	321.380	120.082	170.659	0.0012644	0.00095193	0.00063814	347.89	2.245e-05	1.5301e-05	415.1	133.44	3.0059e-05	1.5103e-05	179.48	73.057	56.017	21.464	5.0958e-06	29.267	0.0024887	0.002875	0.00072096	710.01	2.8367e-05	3.1674e-05	845.87	277.38	2.9118e-05	3.1853e-05	381.82	138.75	117.36	45.383	2.8351e-05	56.586	320.105	329.187	311.526	-5.868	185.441	16.600	-6.244	0.827	171.602	27.045	-1.083	3.699	6.758	10.432	43.307	7.164	-8191	255	
8757.692	1	1	0	0	0.13357	0.23383	0.20745	0.19931	0.13564	0.20197	0.14324	0.2185	0.19131	0.25984	0.10575	0.2349	0.26093	0.14719	0.079346	0.15972	-2.9813	-3.225	-2.8833	-3.5563	-3.0604	-3.1167	-3.5333	-2.7042	-3.2375	-3.2896	-2.7313	-3.4396	-3.025	-3.0417	-3.5396	-2.8854	191.746	213.934	246.257	24.873	202.208	139.239	135.074	77.139	18.020	342.571	15.271	286.055	318.898	0.132	205.047	193.234	0.0017925	0.0023186	0.00017851	348.34	1.9688e-05	1.328e-05	417.93	133.99	1.766e-05	1.8872e-05	180.1	73.751	56.126	21.497	5.9596e-06	29.379	0.0027418	0.0028593	0.00071475	710.02	3.0424e-05	3.0429e-05	828.43	273.9	2.9918e-05	2.9244e-05	367.91	136.03	117.06	42.727	2.557e-05	54.996	305.501	325.013	295.520	-5.390	219.114	45.487	-6.437	1.200	169.912	-8.614	-1.190	3.589	6.318	10.372	-1.297	7.619	-8191	255	
8757.788	1	1	0	0	0.11133	0.051024	0.13356	0.32885	0.174	0.13942	0.080996	0.22932	0.16495	0.12779	0.26062	0.30948	0.093802	0.13292	0.058839	0.17745	-2.7792	-3.3271	-2.7188	-3.4042	-3.0854	-2.9979	-3.6688	-2.8604	-3.2833	-3.4521	-2.9958	-3.3771	-3.1729	-2.9313	-3.4125	-2.9375	335.796	333.481	95.092	289.565	173.284	237.719	140.979	296.865	102.920	198.567	219.122	110.810	329.796	73.875	215.362	329.627	0.0012489	0.0021236	0.000176	346.36	1.2525e-05	1.41e-05	413.84	133.39	3.2773e-06	1.396e-05	180.63	74.161	56.467	21.472	9.8086e-06	29.506	0.0026548	0.0025081	0.00064293	694.02	2.9374e-05	2.6997e-05	794.41	272.06	2.9393e-05	2.6779e-05	358.32	138.49	117.42	41.725	2.4993e-05	56.979	288.983	339.769	162.311	-5.460	244.224	63.013	-6.485	1.555	100.071	27.162	-1.628	3.991	5.700	10.259	42.751	7.709	-8191	255	
8757.884	1	1	0	0	0.097201	0.31564	0.034385	0.21443	0.27436	0.12978	0.06734	0.16141	0.22839	0.10302	0.17013	0.082536	0.10566	0.097806	0.2092	0.18738	-2.5646	-3.3042	-2.6854	-3.4708	-3.2667	-2.8042	-3.6208	-3.0729	-3.0854	-3.5854	-2.7333	-3.3333	-3.3625	-2.7917	-3.4	-3.1	58.848	30.162	30.551	6.959	100.152	-5.473	98.421	-13.696	192.078	256.798	193.182	182.040	19.198	-12.170	177.423	271.386	0.00013931	0.0015859	0.00012895	349.88	1.9317e-05	6.2867e-06	413.72	132.57	2.2219e-05	8.5921e-06	179.67	73.97	56.264	21.387	6.6863e-06	29.484	0.0026713	0.002415	0.00063151	717.3	2.9038e-05	2.5937e-05	786.74	280.94	2.8461e-05	2.5551e-05	352.62	141.67	114.05	40.686	2.4092e-05	57.948	250.655	321.200	322.152	-4.474	25.766	18.219	-6.305	1.719	-1.492	32.364	-1.039	4.298	5.551	10.772	209.910	7.824	-8191	255	
8757.979	1	1	0	0	0.28335	0.16741	0.15418	0.16526	0.039507	0.024233	0.04804	0.19128	0.15087	0.15739	0.19209	0.14107	0.17021	0.21562	0.053955	0.21111	-2.6271	-3.3917	-2.7917	-3.3042	-3.4042	-2.9667	-3.5229	-3.2083	-2.925	-3.5979	-2.9437	-3.1813	-3.45	-2.8125	-3.3417	-3.2687	143.805	297.205	193.113	141.526	251.271	94.649	62.101	250.596	202.491	89.323	215.652	262.412	199.367	18.460	88.592	0.099	0.00055556	0.00051713	0.00011709	347.03	1.9709e-05	1.0808e-05	413.04	133.73	1.9452e-05	1.4436e-05	179.54	74.125	56.028	21.551	1.7392e-05	29.282	0.0025044	0.0022918	0.00061725	731.76	2.7384e-05	2.5146e-05	787.4	288.69	2.7296e-05	2.5051e-05	357.47	145.06	111.54	40.275	2.5086e-05	59.022	131.111	342.451	34.502	-5.039	26.598	-11.520	-5.779	1.132	5.663	34.667	-0.717	3.643	5.435	10.745	173.383	7.459	-8191	255	
8758.075	1	1	0	0	0.11838	0.20485	0.19991	0.32302	0.050104	0.15372	0.069141	0.20875	0.14996	0.11698	0.12975	0.13812	0.24223	0.052513	0.1013	0.2892	-2.5187	-3.6167	-2.9125	-3.2354	-3.375	-2.8896	-3.3625	-3.1063	-2.9167	-3.5938	-2.975	-3.2313	-3.5604	-2.8208	-3.3167	-3.1271	277.267	211.302	65.965	257.001	112.049	207.901	222.256	312.370	142.165	78.711	220.675	47.356	183.788	76.198	226.031	265.142	0.00065141	0.0012799	0.00075068	346.45	1.5309e-05	1.2523e-05	411.19	134.32	1.6873e-05	7.3685e-06	178.27	73.785	56.284	21.452	2.3763e-05	29.409	0.0023901	0.0022428	0.0006447	738.91	2.5761e-05	2.4103e-05	799.44	286.09	2.5118e-05	2.3424e-05	360.67	141.48	106.57	38.833	2.5393e-05	57.057	149.847	-14.710	134.869	-5.727	0.731	69.579	-5.853	0.906	1.394	30.369	-0.641	2.857	5.678	10.777	179.260	7.175	-8191	255	
8758.171	1	1	0	0	0.1125	0.079439	0.22431	0.205	0.10395	0.26291	0.26088	0.038453	0.098433	0.03503	0.17845	0.19809	0.083719	0.13389	0.22826	0.17537	-2.5396	-3.5146	-2.9292	-3.1875	-3.3875	-2.925	-3.1854	-3.425	-2.8229	-3.4708	-3.1104	-2.9417	-3.7229	-2.7042	-3.3833	-3.5187	298.897	203.046	6.739	317.252	124.065	69.390	158.538	268.024	258.883	149.768	222.926	163.517	33.620	251.370	241.505	68.941	0.00023568	0.0011603	0.00064559	347.43	4.7343e-06	7.6938e-06	409.7	134.17	9.091e-06	4.4639e-06	181.34	74.043	56.07	21.411	1.7043e-05	29.463	0.0021931	0.0020952	0.00065846	713.14	2.4069e-05	2.2986e-05	814.44	278.04	2.4159e-05	2.3213e-05	373.51	139.63	106.16	39.228	2.7404e-05	56.434	155.221	305.639	126.347	-5.907	29.733	19.746	-5.459	0.878	51.055	225.302	-0.566	3.088	5.733	11.062	185.135	6.680	-8191	255	
8758.292	1	1	0	0	0.3045	0.025457	0.023561	0.2042	0.16653	0.13016	0.11778	0.10943	0.12043	0.14603	0.32296	0.20753	0.18908	0.066972	0.085402	0.11135	-2.2958	-3.4229	-3.1417	-3.075	-3.4667	-2.7833	-3.0875	-3.3521	-2.7625	-3.3896	-3.1104	-3.0563	-3.7417	-2.8896	-3.0917	-3.5729	291.633	103.665	287.678	269.985	153.250	208.168	291.594	327.106	159.159	48.919	331.064	293.973	247.048	204.943	10.657	-10.767	0.00031065	0.00056988	0.00069595	348.22	1.316e-05	1.8185e-05	413.66	134.15	8.479e-06	1.2419e-05	182.4	74.872	56.534	21.497	4.9942e-06	29.587	0.0021801	0.0021527	0.00070226	700.86	2.3725e-05	2.3769e-05	834.63	270.98	2.3462e-05	2.3809e-05	378.29	135.77	104.02	39.649	2.7044e-05	54.218	254.540	134.794	90.513	-5.881	48.544	190.026	-6.000	0.310	20.849	186.988	-0.856	3.185	5.953	11.571	171.019	6.930	-8191	255	
8758.388	1	1	0	0	0.26495	0.20136	0.096783	0.25371	0.11786	0.18491	0.25437	0.15342	0.085596	0.10729	0.020795	0.19423	0.1235	0.2172	0.27137	0.12733	-2.1146	-3.3708	-3.2458	-2.8396	-3.4542	-3.0583	-3.0687	-3.2562	-2.7375	-3.3479	-3.3063	-2.8542	-3.4188	-2.9875	-3.0167	-3.4562	109.977	79.058	174.573	-2.554	128.792	61.675	328.737	341.208	58.529	203.668	231.191	166.078	107.218	38.095	89.813	88.736	0.0004319	0.0020008	0.00011515	349.43	7.7058e-06	1.8232e-05	417.31	134.77	1.4698e-06	1.7249e-05	182.24	74.931	56.347	21.377	1.2648e-05	29.243	0.0020421	0.0021935	0.00068369	674.81	2.2329e-05	2.4419e-05	818.86	261.41	2.2063e-05	2.4551e-05	367.82	131.56	101.59	40.186	2.5656e-05	52.727	253.869	144.239	9.266	-6.056	-8.966	215.396	-6.262	0.860	334.812	203.778	-1.614	3.401	5.893	11.496	1.214	7.242	-8191	255	
8758.459	1	1	0	0	0.080187	0.18438	0.086682	0.15905	0.12851	0.13293	0.14771	0.12082	0.13926	0.11739	0.17531	0.13826	0.097802	0.10114	0.29285	0.20894	-2.3896	-3.1854	-3.2333	-2.7896	-3.5687	-2.9896	-2.9875	-3.7188	-2.8958	-3.1917	-3.3625	-2.8271	-3.4396	-3.2708	-3.025	-3.5729	257.005	29.744	112.670	-6.637	214.516	115.900	259.772	78.696	-12.047	155.143	174.304	329.880	297.090	-14.950	20.259	18.915	0.0005833	0.0025622	0.00075632	345.26	5.7229e-06	1.1147e-05	416.82	133.95	8.9952e-06	8.9636e-06	181.03	74.251	56.168	21.197	1.4637e-05	29.048	0.0019757	0.0022906	0.00064401	657.66	2.1681e-05	2.5217e-05	791.01	254.04	2.1507e-05	2.5079e-05	352.72	127.86	100.64	40.41	2.3893e-05	51.491	308.001	154.467	320.754	-5.807	176.775	217.415	-6.456	0.950	184.762	201.155	-1.546	3.206	6.077	11.279	7.570	7.193	-8191	255	
8758.556	1	1	0	0	0.30607	0.18438	0.26046	0.14136	0.12508	0.34375	0.13856	0.14545	0.1891	0.20697	0.10011	0.17246	0.12118	0.16471	0.097665	0.12744	-2.6396	-3.2271	-3.2604	-2.7333	-3.45	-3.1875	-2.8063	-3.6208	-2.8812	-3.2729	-3.5708	-2.85	-3.3354	-3.3479	-2.7625	-3.5917	66.325	209.430	66.227	156.791	1.935	47.398	225.700	268.191	161.927	30.292	24.351	305.225	34.918	170.213	159.438	-4.683	0.00090416	0.0010719	0.0005927	348.53	1.9241e-05	1.0893e-05	414.46	134.67	2.033e-05	6.1305e-06	180.82	74.137	56.042	21.224	5.6218e-06	29.254	0.0020087	0.0023699	0.00061032	651	2.2709e-05	2.624e-05	775.49	252.81	2.311e-05	2.6141e-05	348.39	127.82	104.5	40.812	2.3123e-05	51.022	305.828	126.432	314.362	-5.918	166.415	174.014	-6.228	0.807	176.564	75.939	-1.802	3.156	6.511	10.238	123.070	7.228	-8191	255	
8758.676	1	1	0	0	0.13169	0.20528	0.061533	0.23542	0.32024	0.17031	0.16741	0.1943	0.05555	0.10783	0.088982	0.3399	0.14792	0.2381	0.14903	0.10145	-2.4062	-3.1021	-3.3021	-2.6146	-3.3042	-3.2146	-2.8854	-3.6417	-3.0104	-3.0667	-3.5604	-2.8146	-3.2125	-3.2938	-2.8083	-3.4146	113.666	139.038	267.267	75.685	104.341	165.528	198.027	333.224	148.300	198.894	74.381	261.060	266.120	328.799	305.101	293.227	0.0016791	0.0011579	0.00031854	344.72	2.7028e-05	1.1374e-05	415.57	133.92	2.2014e-05	7.1247e-06	180.95	74.517	55.885	21.09	7.7615e-06	29.12	0.0021348	0.0023237	0.00057809	637.68	2.3719e-05	2.5187e-05	758.6	248.8	2.4281e-05	2.4975e-05	341.8	126.75	106.77	39.784	2.2194e-05	50.815	297.687	312.713	332.406	-5.907	175.634	24.092	-6.062	1.275	170.441	45.737	-1.109	3.674	6.628	10.834	158.453	7.743	-8191	255	
8758.772	1	1	0	0	0.19017	0.038578	0.24679	0.13881	0.27781	0.17592	0.11621	0.10948	0.06387	0.2566	0.09036	0.28683	0.16905	0.096076	0.039058	0.24667	-2.7938	-3.025	-3.4188	-2.9	-3.4167	-3.4667	-2.8063	-3.5271	-3.2021	-2.9771	-3.6813	-2.8458	-3.3958	-3.4271	-2.9042	-3.6312	337.412	291.764	242.540	140.898	73.282	191.342	340.070	6.044	271.289	236.389	242.748	284.461	3.096	221.413	136.465	297.331	0.0011874	0.00097861	0.00023279	342.9	1.4075e-05	9.637e-06	413.05	133.74	1.2342e-05	1.6662e-05	181.25	74.28	56.331	21.155	5.2962e-06	29.029	0.0022343	0.0021888	0.00055514	634.39	2.4603e-05	2.3615e-05	745.08	249.52	2.4972e-05	2.3327e-05	335.32	127.72	108.16	38.725	2.1486e-05	51.735	299.140	305.096	322.244	-5.196	172.713	58.419	-6.078	1.425	159.058	20.496	-1.410	3.780	5.900	10.275	12.985	7.628	-8191	255	
8758.869	1	1	0	0	0.13439	0.14282	0.1303	0.35936	0.24183	0.26846	0.1609	0.19657	0.16114	0.25366	0.054682	0.1289	0.089967	0.0053774	0.12668	0.26775	-2.9729	-2.8812	-3.4417	-2.8563	-3.075	-3.4125	-2.8021	-3.4729	-3.2812	-2.7375	-3.4979	-2.9938	-3.0896	-3.4604	-2.725	-3.2646	92.839	327.540	173.105	316.723	116.313	104.642	214.006	280.529	5.673	275.726	294.331	83.767	212.503	198.160	242.599	214.858	0.00068128	0.00085616	0.00027087	342.73	1.0338e-05	7.962e-06	414.61	133.09	1.1504e-05	8.3442e-06	181.14	73.868	55.804	21.116	4.4997e-06	28.871	0.0022953	0.0020964	0.00054703	654.64	2.5382e-05	2.2889e-05	742.13	258.7	2.5434e-05	2.2816e-05	333.72	131.99	108.14	38.192	2.1342e-05	53.371	310.699	312.774	34.846	-4.870	118.814	21.607	-6.301	1.797	-7.443	23.018	-1.223	3.992	6.079	10.877	303.482	8.167	-8191	255	
8758.965	1	1	0	0	0.18963	0.10527	0.065422	0.15608	0.095952	0.19225	0.32622	0.10712	0.10441	0.12246	0.15815	0.24731	0.094434	0.1623	0.18317	0.23439	-2.8438	-2.7979	-3.6021	-3.1292	-3.0333	-3.5771	-2.7812	-3.3063	-3.45	-2.8875	-3.45	-3.1542	-2.9896	-3.6854	-2.8458	-3.3104	-12.411	281.052	109.141	-11.542	316.808	-6.144	264.413	275.205	292.542	19.691	323.387	154.361	287.028	42.685	7.961	319.977	0.00063596	0.00071581	8.6346e-05	343.91	2.7257e-05	3.5975e-06	409.82	133.12	1.3639e-05	6.3524e-06	180.2	74.123	56.279	20.958	1.5576e-05	28.858	0.0022704	0.002051	0.00054311	677.01	2.4752e-05	2.241e-05	740.03	267.19	2.443e-05	2.2233e-05	333.31	135.24	105.86	37.675	2.1656e-05	54.808	149.837	332.762	332.603	-4.905	9.586	267.899	-6.053	1.381	22.487	49.318	-0.970	3.943	5.350	10.846	160.478	7.469	-8191	255	
8759.084	1	1	0	0	0.199	0.10325	0.14121	0.24263	0.090364	0.10326	0.075507	0.25119	0.11183	0.31852	0.10412	0.16615	0.22288	0.16566	0.24765	0.14421	-2.9813	-2.8958	-3.4729	-3.1917	-3.0104	-3.7896	-2.8792	-3.2375	-3.2687	-2.8333	-3.4667	-3.1813	-2.8667	-3.5146	-2.9	-3.2021	47.149	219.126	217.541	108.142	89.234	196.919	11.963	286.124	142.141	84.974	106.396	67.181	229.975	309.366	118.736	93.529	0.00037164	0.00072795	0.00044089	345.57	2.4404e-05	5.1851e-06	411.71	134.61	1.3492e-05	6.8464e-06	180.74	74.16	55.657	20.931	1.698e-05	29.273	0.0021756	0.0020192	0.0005613	695.91	2.3719e-05	2.1914e-05	753.09	271.81	2.3209e-05	2.1622e-05	340.23	136.52	102.97	37.108	2.264e-05	54.746	209.762	337.256	126.147	-5.237	25.581	10.467	-5.743	1.188	9.688	2.728	-0.758	3.928	5.856	10.586	193.762	7.107	-8191	255	
8759.157	1	1	0	0	0.19001	0.16028	0.066611	0.045657	0.15542	0.066943	0.15042	0.030503	0.076621	0.2131	0.090306	0.16182	0.2432	0.25027	0.16574	0.14441	-3.1417	-2.6667	-3.2917	-3.0687	-2.8479	-3.4458	-2.9167	-2.9729	-3.4979	-2.6521	-3.4917	-3.2271	-2.6625	-3.4792	-2.9	-3.0896	233.467	82.597	71.572	273.229	171.010	166.502	280.757	207.602	197.932	257.848	145.901	131.064	257.604	284.663	146.404	1.050	0.00018173	0.00019209	0.00062573	345.49	1.3836e-05	9.3583e-06	410.38	134.52	1.3283e-05	6.1199e-06	181.99	74.594	56.025	21.167	9.4453e-06	29.308	0.0020425	0.0019247	0.00058512	686.63	2.2275e-05	2.1088e-05	771.75	268.58	2.2389e-05	2.1241e-05	353.46	135.74	102.34	37.288	2.4559e-05	54.486	277.812	325.739	121.719	-5.885	-3.154	89.850	-5.528	0.964	323.977	107.954	-0.671	3.147	5.677	10.880	167.365	7.033	-8191	255	
8759.276	1	1	0	0	0.45504	0.11026	0.064244	0.13158	0.10259	0.064275	0.24945	0.051578	0.25552	0.10246	0.35844	0.097797	0.070769	0.086318	0.19198	0.082854	-3.0062	-2.7313	-3.05	-3.2833	-2.8583	-3.5125	-3.0729	-3.0208	-3.4458	-2.9646	-3.1854	-3.3458	-2.9583	-3.3917	-3.1104	-3.1042	-3.072	96.483	263.271	65.147	145.494	183.430	336.910	194.676	307.129	326.288	257.207	-13.550	296.012	54.830	80.803	66.640	5.2891e-05	6.7537e-05	0.0008035	346.77	7.4517e-06	7.38e-06	411.81	134.69	5.1007e-06	8.1278e-06	182.27	74.446	55.81	20.867	1.4228e-05	29.215	0.0020231	0.001949	0.00062889	676.91	2.1902e-05	2.1311e-05	793.28	262.65	2.1776e-05	2.1417e-05	361.28	132.04	100.63	37.503	2.5324e-05	52.782	76.280	196.438	124.743	-5.781	32.993	248.458	-5.624	0.630	30.210	180.804	-0.938	2.906	5.863	11.100	217.120	7.093	-8191	255	
8759.372	1	1	0	0	0.12564	0.1538	0.086806	0.15928	0.23643	0.18726	0.10399	0.12742	0.10055	0.096398	0.16138	0.20207	0.29373	0.12948	0.19874	0.1078	-3.0146	-2.7062	-3.2917	-3.4708	-2.7604	-3.3875	-3.2792	-2.7417	-3.4833	-2.9979	-3.2271	-3.5938	-2.8937	-3.4688	-3.2062	-3.0687	245.209	270.980	5.384	260.462	47.176	42.112	237.349	45.073	288.362	4.134	325.197	340.899	215.624	233.350	-8.998	342.640	0.00039211	0.0021728	0.00011983	344.2	1.1183e-05	2.098e-05	414.55	133.25	9.8191e-06	2.1603e-05	182.2	74.132	55.735	20.902	1.16e-05	28.811	0.0019575	0.0020229	0.00064943	662.08	2.1627e-05	2.2641e-05	805.38	257.86	2.1466e-05	2.2942e-05	362.5	129.19	99.337	38.386	2.5025e-05	51.469	329.958	136.647	66.332	-5.891	48.238	208.912	-6.031	0.722	278.130	182.047	-1.235	3.205	5.815	11.560	-16.611	7.260	-8191	255	
8759.468	1	1	0	0	0.22048	0.032841	0.12436	0.057096	0.21367	0.15817	0.038847	0.19378	0.22358	0.14461	0.17423	0.14766	0.092617	0.12503	0.019748	0.13474	-3.2125	-2.8604	-2.9479	-3.4938	-2.8104	-3.1979	-3.2667	-2.7708	-3.5292	-3.0167	-3.1417	-3.5938	-2.7	-3.2646	-3.3021	-2.8417	126.950	166.173	307.165	166.639	150.334	116.687	124.425	77.998	86.593	299.500	22.309	-14.938	172.132	247.826	135.543	324.502	0.00036393	0.001683	0.00040412	343.23	1.1923e-05	1.4752e-05	414.69	134.28	3.2567e-06	1.5963e-05	180.07	73.87	55.415	20.865	1.2537e-05	28.951	0.0018948	0.002131	0.00062713	646.21	2.0753e-05	2.3714e-05	785.32	251.49	2.0776e-05	2.4034e-05	352.4	127.02	98.706	39.319	2.3844e-05	50.903	338.726	142.730	-7.092	-5.786	181.604	213.669	-6.179	1.151	272.064	202.843	-1.272	3.438	6.257	11.326	5.146	7.153	-8191	255	
8759.564	1	1	0	0	0.085273	0.091669	0.18487	0.16228	0.24188	0.1967	0.20147	0.076192	0.090744	0.15164	0.15986	0.26845	0.22191	0.052481	0.12999	0.14144	-3.1354	-3.1458	-2.8958	-3.5229	-2.8521	-3.2333	-3.4979	-2.7417	-3.5333	-3.1937	-2.9854	-3.5687	-2.8625	-3.1958	-3.3875	-3.0104	333.527	0.876	175.784	116.922	162.825	198.673	228.357	315.526	182.536	100.625	252.885	14.879	235.248	333.629	306.854	293.539	0.00073095	0.0010114	0.00035232	342.37	1.4961e-05	1.4134e-05	415.04	133.75	2.0791e-05	7.5265e-06	180.27	74.205	55.836	21.021	1.7419e-05	29.037	0.0019101	0.0022643	0.00060273	641.71	2.1485e-05	2.5247e-05	774.54	251.16	2.1873e-05	2.5521e-05	347.51	126.74	101.39	40.039	2.2814e-05	50.487	295.930	104.838	310.127	-5.740	183.668	161.814	-6.586	1.246	185.011	243.564	-1.733	3.465	6.609	10.867	13.396	7.487	-8191	255	
8759.685	1	1	0	0	0.071209	0.055047	0.21729	0.12538	0.27134	0.098963	0.12883	0.1406	0.12062	0.19126	0.16402	0.032839	0.066602	0.075744	0.07441	0.11404	-2.9917	-3.2458	-2.875	-3.4917	-3.0083	-3.2604	-3.3667	-2.7354	-3.4437	-3.2833	-2.7979	-3.4	-3.0062	-2.9125	-3.5854	-3.0417	75.357	75.613	178.259	48.715	4.868	53.307	267.008	306.156	42.326	187.984	94.097	152.620	32.944	-2.003	291.979	256.842	0.0011943	0.00061214	0.00036798	345.53	2.712e-05	6.8448e-06	413.67	133.59	1.839e-05	1.1052e-05	181.33	74.159	56.282	20.918	9.9521e-06	29.031	0.0020136	0.0022888	0.00056959	631.12	2.2518e-05	2.4886e-05	753.94	246.44	2.2849e-05	2.4683e-05	339.32	125.03	104.29	39.575	2.2231e-05	50.469	307.840	1.374	319.754	-5.948	201.097	59.686	-6.407	0.875	184.363	63.079	-1.302	3.316	6.228	10.780	51.261	7.556	-8191	255	
8759.757	1	1	0	0	0.086471	0.050067	0.14503	0.14161	0.077755	0.23881	0.14579	0.21212	0.018685	0.2177	0.090899	0.046871	0.031045	0.01693	0.20905	0.31642	-2.8979	-3.3125	-2.7146	-3.6583	-3.1625	-3.0958	-3.4792	-2.9396	-3.35	-3.4583	-2.8937	-3.4417	-3.0312	-2.8854	-3.3875	-2.9458	143.212	194.776	-2.294	71.214	309.519	291.700	287.516	332.013	250.720	134.206	322.811	110.492	105.419	-9.419	49.357	235.408	0.0012392	0.0013124	7.8105e-05	345.1	1.9155e-05	1.0002e-05	415.27	133.84	1.8353e-05	1.6563e-05	181.4	73.752	55.818	20.889	8.6778e-06	28.798	0.0021936	0.0022715	0.00057333	639.97	2.4956e-05	2.4941e-05	759.8	251.53	2.5369e-05	2.4731e-05	342.29	127.72	109.15	39.438	2.2618e-05	51.78	303.307	339.598	89.083	-5.439	184.903	53.687	-6.307	1.213	166.202	-4.041	-1.637	3.615	6.269	10.113	-3.818	7.452	-8191	255	
8759.853	1	1	0	0	0.17975	0.1278	0.13159	0.20603	0.038776	0.25844	0.14139	0.11543	0.10988	0.36137	0.12482	0.1233	0.2864	0.21916	0.1397	0.14027	-2.8063	-3.2771	-2.8167	-3.4125	-3.1396	-3.0687	-3.5625	-2.8396	-3.0896	-3.3667	-2.8563	-3.5167	-3.2833	-2.9042	-3.4854	-2.9958	289.708	328.770	153.811	260.591	116.608	263.301	334.013	304.679	276.178	255.261	168.218	320.609	272.029	34.876	68.444	130.799	0.00084194	0.0014879	0.00043525	343.77	1.0778e-05	1.228e-05	411.96	132.03	4.5437e-06	8.0953e-06	180.47	73.661	56.005	20.952	2.6483e-06	28.846	0.0023777	0.0022396	0.00057668	658.37	2.6615e-05	2.4486e-05	759.21	261.14	2.704e-05	2.448e-05	344.33	133.47	112.16	39.383	2.291e-05	54.17	325.103	310.036	-15.202	-5.111	135.162	34.215	-6.310	1.775	96.358	60.879	-1.657	4.075	5.616	10.444	212.888	7.651	-8191	255	
8759.949	1	1	0	0	0.17663	0.1082	0.18173	0.06615	0.19693	0.18631	0.1389	0.069876	0.094095	0.064082	0.10205	0.11249	0.23647	0.17311	0.033953	0.038109	-2.7229	-3.4562	-2.6	-3.3542	-3.3792	-2.7479	-3.475	-2.9375	-3.1458	-3.5792	-2.8063	-3.3312	-3.1854	-2.8458	-3.5792	-2.9958	182.180	63.361	127.459	301.619	167.142	201.958	312.432	236.175	235.388	78.799	219.074	250.279	258.712	311.160	27.768	68.915	0.00020603	0.0010532	0.00041077	343.92	9.0466e-06	1.2722e-05	412.7	133.04	1.8617e-05	5.5098e-06	180.79	74.436	55.911	20.886	4.4114e-06	28.785	0.0024427	0.002211	0.00057695	687.15	2.675e-05	2.3953e-05	758.2	271.37	2.6525e-05	2.3852e-05	342.28	138.26	110.39	38.971	2.2868e-05	56.191	326.553	335.791	238.809	-4.918	54.448	10.168	-6.294	1.862	-13.983	30.037	-1.153	3.508	5.649	10.661	174.411	7.779	-8191	255	
8760.068	1	1	0	0	0.18478	0.21711	0.091951	0.24329	0.15149	0.11507	0.092949	0.17106	0.071134	0.074121	0.023174	0.15703	0.17526	0.11425	0.11651	0.12334	-2.5229	-3.4938	-2.7583	-3.1813	-3.2104	-2.8271	-3.5396	-2.9437	-2.8979	-3.5417	-2.8021	-3.2812	-3.5479	-2.8771	-3.4854	-3.1104	250.861	72.632	114.813	176.131	191.864	9.878	208.568	311.276	285.761	323.948	230.281	267.874	321.236	321.061	251.652	-3.262	0.000523	0.00078069	0.00023499	345.83	2.5152e-05	1.0879e-05	410.03	133.48	2.2315e-05	4.0944e-06	180.47	74.581	56.117	20.935	1.6977e-05	29.067	0.0023821	0.0021903	0.00059045	715.65	2.616e-05	2.3937e-05	773.1	282.27	2.5849e-05	2.3813e-05	351.73	142.61	108.95	38.915	2.4252e-05	57.775	169.349	278.845	104.379	-5.394	31.210	-15.817	-6.014	1.396	2.207	33.961	-0.640	3.428	5.385	10.475	172.117	7.501	-8191	255	
8760.164	1	1	0	0	0.11748	0.14743	0.079085	0.32552	0.10653	0.28812	0.2605	0.22345	0.052801	0.27723	0.21909	0.12746	0.1413	0.09403	0.2281	0.23076	-2.4729	-3.3604	-2.8292	-3.2313	-3.4521	-2.8771	-3.5333	-3.1146	-2.8458	-3.6521	-2.9479	-2.9979	-3.4875	-2.8854	-3.3688	-3.2271	-1.637	293.722	124.516	230.706	171.211	278.852	15.140	189.294	76.153	141.326	341.277	328.093	281.356	108.655	130.349	312.682	0.00025332	0.00038649	0.0010246	344.55	6.3549e-06	5.7815e-06	412.59	134.46	1.0707e-05	7.1473e-06	181.28	74.391	55.807	20.989	1.9187e-05	29.149	0.0022915	0.0021477	0.00062275	721.62	2.4836e-05	2.3233e-05	793.39	283.17	2.4777e-05	2.338e-05	364.29	142.71	107.63	38.83	2.6569e-05	57.873	178.006	20.244	122.621	-5.803	39.464	67.949	-5.466	0.607	-14.599	-9.713	-0.389	3.456	5.616	10.615	185.133	6.963	-8191	255	
8760.260	1	1	0	0	0.09203	0.084302	0.19968	0.13347	0.2117	0.11395	0.089014	0.063313	0.11904	0.10681	0.13407	0.14804	0.30769	0.18582	0.27873	0.31492	-2.3292	-3.4188	-3.0458	-3.0875	-3.2542	-2.9979	-3.2687	-3.4313	-2.7979	-3.4729	-3.0542	-3.2542	-3.6188	-2.9083	-3.2208	-3.4229	16.570	123.065	55.599	56.629	-9.540	128.516	210.211	93.843	328.882	111.367	193.113	29.686	340.044	251.168	29.947	243.654	0.00017433	0.00037091	0.00045639	347.44	2.1663e-06	2.1905e-06	412.79	133.72	5.0712e-06	8.411e-06	179.13	74.443	55.872	20.761	1.6676e-05	28.904	0.0022931	0.0022069	0.00070071	732.25	2.5611e-05	2.4406e-05	841.34	285.37	2.5321e-05	2.4395e-05	382.87	141.91	107.89	39.418	2.8853e-05	57.147	215.613	-4.987	123.610	-6.415	-6.017	120.182	-5.771	0.563	332.625	208.521	-0.948	2.743	6.044	10.902	169.224	6.778	-8191	255	
8760.356	1	1	0	0	0.15011	0.21746	0.20872	0.16402	0.15203	0.19544	0.21942	0.030018	0.026983	0.082397	0.32772	0.06605	0.1387	0.071751	0.26464	0.18706	-2.3771	-3.3354	-3.1021	-3.025	-3.5479	-2.9458	-3.2313	-3.3833	-2.7771	-3.4771	-3.2292	-3.0438	-3.6021	-2.9979	-3.1813	-3.3646	82.561	77.856	183.970	2.989	154.621	140.197	335.092	66.201	67.118	227.258	304.773	102.808	239.700	309.907	188.518	215.009	0.00034732	0.0015486	0.00064264	348.12	8.4001e-06	2.3804e-05	413.53	134.12	9.0167e-06	2.4008e-05	179.93	74.653	56.189	21.018	1.0543e-05	28.983	0.0022751	0.0022846	0.00074656	718.71	2.5328e-05	2.5525e-05	866.69	281.77	2.5481e-05	2.6367e-05	397.96	141.81	109.22	41.442	3.0577e-05	56.983	280.792	137.778	107.132	-6.263	-11.912	188.792	-6.030	0.435	339.633	199.804	-1.107	2.951	5.399	11.186	19.947	7.031	-8191	255	
8760.451	1	1	0	0	0.225	0.4143	0.20454	0.078875	0.098959	0.088302	0.23568	0.069405	0.15887	0.11828	0.15691	0.27804	0.11642	0.098877	0.082213	0.01747	-2.3792	-3.1729	-3.1229	-2.8583	-3.5792	-2.9833	-3.0729	-3.3438	-2.7854	-3.4104	-3.1958	-2.7792	-3.5875	-3.0292	-3.0938	-3.6083	21.549	244.264	81.566	321.723	192.924	281.860	312.983	263.466	147.845	261.989	88.555	310.612	49.647	337.759	162.025	116.356	0.00015825	0.0028183	0.00019455	345.73	1.0561e-05	2.1936e-05	416.88	134.24	4.9182e-06	2.165e-05	180.02	74.175	55.793	21.107	1.4593e-05	29.213	0.0023139	0.0025112	0.00077183	711.84	2.5203e-05	2.769e-05	868.85	277.58	2.5133e-05	2.8327e-05	394.18	139.93	108.39	43.137	3.0039e-05	56.711	99.926	144.989	225.406	-5.917	10.619	208.700	-6.562	0.605	177.975	172.591	-1.785	3.074	5.519	11.328	19.394	7.317	-8191	255	
8760.547	1	1	0	0	0.061975	0.065413	0.28241	0.15848	0.21178	0.095807	0.049456	0.11017	0.059543	0.15304	0.30124	0.20457	0.18601	0.12773	0.15464	0.14675	-2.5521	-3.2938	-3.4958	-2.9333	-3.4542	-3.0958	-3.0563	-3.6167	-2.8771	-3.2188	-3.3458	-2.8521	-3.3146	-3.2021	-2.9417	-3.6375	65.607	206.234	275.459	313.152	280.361	292.675	244.016	153.160	143.996	270.379	62.862	327.336	218.899	175.806	59.120	95.498	0.00062604	0.0014673	0.00056242	347.03	1.316e-05	2.5324e-05	418.51	133.62	2.1207e-05	1.7833e-05	180.91	74.472	56.002	21.126	1.9817e-05	29.165	0.0023458	0.0027476	0.00076781	715.27	2.6241e-05	3.0592e-05	865.76	278.97	2.6169e-05	3.0645e-05	388.71	139.29	110.31	44.186	2.8252e-05	55.727	339.883	135.793	301.523	-5.966	209.598	205.111	-6.318	0.546	164.007	204.398	-1.903	3.094	6.405	10.784	-11.826	7.006	-8191	255	
8760.645	1	1	0	0	0.094795	0.10988	0.21113	0.25965	0.18842	0.18706	0.1711	0.22248	0.2108	0.19538	0.14099	0.08846	0.11045	0.076838	0.20974	0.16155	-2.5833	-3.1937	-3.3792	-2.8271	-3.4417	-3.2396	-3.0146	-3.4625	-2.7354	-3.2021	-3.4646	-3.1083	-3.4854	-3.4667	-2.9896	-3.6688	108.658	265.689	50.897	18.207	278.034	123.812	220.851	300.174	10.429	334.819	145.421	99.729	311.177	280.939	17.419	266.455	0.0014146	0.0018007	0.00092579	347.71	2.7769e-05	2.7669e-06	415.05	133.8	2.8742e-05	4.2215e-06	180.82	74.588	56.542	20.966	1.0999e-05	28.846	0.0023795	0.0027849	0.00071395	698.6	2.6823e-05	3.0824e-05	837.92	273.57	2.7438e-05	3.089e-05	379.28	137.91	114.41	44.476	2.7597e-05	55.395	310.802	66.860	303.252	-5.992	186.582	47.608	-6.739	0.476	173.138	190.047	-1.790	2.740	6.133	10.184	10.230	7.337	-8191	255	
8760.764	1	1	0	0	0.21012	0.16316	0.2062	0.18795	0.15313	0.1512	0.093247	0.22939	0.10249	0.17737	0.19963	0.12875	0.18277	0.065829	0.22555	0.11057	-2.2875	-3.1312	-3.3542	-2.8729	-3.275	-3.2979	-2.9229	-3.4854	-2.9	-3.1312	-3.5208	-2.8729	-3.3	-3.4792	-2.8271	-3.5208	186.754	289.648	300.075	281.413	310.001	298.906	7.833	231.452	83.773	327.565	323.774	318.841	92.158	185.672	334.503	-14.069	0.0015267	0.0015325	0.00040641	347.16	2.7984e-05	1.9626e-05	415.97	132.47	2.4855e-05	1.1443e-05	180.74	74.505	56.783	21.047	8.9098e-06	28.778	0.0025971	0.0028022	0.00070244	697.21	2.9067e-05	3.0424e-05	828.05	272.39	2.9533e-05	3.0018e-05	374.69	138.07	118.39	43.674	2.7148e-05	55.789	308.565	332.137	339.052	-5.788	202.241	43.308	-6.104	0.614	162.505	18.296	-1.710	3.257	6.031	9.829	7.085	7.567	-8191	255	
8760.860	1	1	0	0	0.12847	0.19583	0.22663	0.18216	0.077573	0.10421	0.037527	0.066011	0.18152	0.22315	0.22729	0.22257	0.27812	0.063681	0.069976	0.044919	-2.6229	-3.0458	-3.4708	-3.0479	-3.2062	-3.4229	-2.5875	-3.3063	-3.25	-2.8458	-3.7208	-2.8833	-3.1479	-3.425	-2.7604	-3.2896	260.284	205.520	91.522	49.906	211.139	284.189	83.968	9.327	147.319	278.270	271.123	23.276	45.595	145.790	136.203	325.997	0.0012113	0.0021209	7.3659e-05	345.8	1.811e-05	2.3374e-05	417.21	132.17	1.6115e-05	2.0394e-05	180.16	74.572	56.747	21.12	9.5202e-06	28.77	0.0027877	0.0027155	0.00069722	710.49	3.1229e-05	2.9805e-05	830.33	279.39	3.1721e-05	2.9381e-05	374.11	142.82	122.39	43.206	2.7108e-05	57.847	313.357	324.738	6.309	-5.388	202.472	27.440	-6.577	1.649	155.959	23.629	-1.528	3.833	5.757	9.990	18.820	7.538	-8191	255	
8760.956	1	1	0	0	0.24637	0.02907	0.39434	0.088976	0.22049	0.011925	0.43693	0.097951	0.14865	0.13966	0.19074	0.30722	0.15439	0.24628	0.24657	0.14758	-2.9146	-2.7583	-3.4417	-2.8896	-3.1125	-3.4583	-2.9146	-3.3958	-3.3479	-2.7958	-3.5375	-3.0438	-3.2542	-3.45	-2.9	-3.4292	333.190	336.770	181.586	40.368	202.691	306.476	219.670	239.131	66.186	154.249	29.289	38.093	55.519	337.733	281.426	145.208	0.00054164	0.0019355	0.00031927	347.45	1.3575e-05	1.6845e-05	417.42	132.68	9.3933e-06	8.4418e-06	179.8	75.063	56.686	21.113	3.3182e-06	28.867	0.0029162	0.0026506	0.00069341	740.18	3.2123e-05	2.904e-05	827.92	292.12	3.2149e-05	2.8695e-05	373.42	148.97	122.3	42.775	2.6976e-05	60.573	303.245	329.501	-7.133	-4.779	46.392	42.257	-6.122	1.957	52.247	-8.551	-1.197	4.040	5.377	10.412	75.330	7.918	-8191	255	
8761.052	1	1	0	0	0.16857	0.044132	0.058519	0.2111	0.089415	0.18297	0.081471	0.063517	0.066716	0.24581	0.15905	0.09157	0.32201	0.13344	0.20465	0.24166	-2.9479	-2.7042	-3.4542	-3.0125	-3.0792	-3.5458	-2.8646	-3.2958	-3.1396	-2.8542	-3.5208	-3.2042	-3.0083	-3.4625	-2.9188	-3.3667	243.564	318.299	28.157	243.347	32.826	60.269	184.298	91.610	133.857	22.128	139.585	138.408	-2.211	44.509	308.575	316.161	0.00076941	0.0014196	6.3962e-05	348.96	6.3547e-06	9.2296e-06	417.35	133.26	2.3684e-05	4.4121e-06	179.51	75.623	57.066	21.136	1.6987e-05	29.014	0.0028756	0.0026075	0.00069382	775.79	3.1464e-05	2.8673e-05	836.61	305.96	3.1523e-05	2.8605e-05	380.43	155.98	121.46	42.933	2.8373e-05	63.106	155.064	335.672	193.689	-5.132	25.770	52.560	-5.986	1.035	-8.241	11.257	-1.010	3.717	5.337	10.240	198.072	7.526	-8191	255	
8761.148	1	1	0	0	0.10937	0.13304	0.11039	0.062048	0.18434	0.14033	0.25374	0.18998	0.080603	0.2657	0.15391	0.13648	0.19218	0.04364	0.13346	0.07845	-3.0375	-2.7729	-3.5396	-3.1562	-2.8896	-3.5958	-3.0312	-3.2167	-3.3875	-2.6729	-3.5729	-3.2604	-2.8312	-3.525	-2.9021	-3.1979	317.632	326.072	225.577	281.373	167.644	288.294	287.395	315.640	182.105	42.646	62.025	36.452	128.968	266.105	168.867	99.516	0.00013985	0.00083756	0.00075193	350.28	1.2422e-05	1.5861e-06	415.84	133.85	1.1827e-05	3.4032e-06	180.34	75.539	57.072	21.059	2.8935e-05	29.109	0.0028271	0.0026233	0.0007355	806.45	3.078e-05	2.8656e-05	864.3	314.7	3.0565e-05	2.8459e-05	393.17	158.22	118.66	42.447	3.023e-05	63.161	199.651	305.682	130.821	-5.415	78.330	4.690	-5.803	0.772	311.608	80.790	-0.405	2.848	5.037	10.046	184.059	6.690	-8191	255	
8761.244	1	1	0	0	0.30245	0.16685	0.17693	0.2804	0.16339	0.069582	0.098102	0.35958	0.0998	0.10783	0.095835	0.12763	0.165	0.015927	0.23196	0.18732	-3	-2.6104	-3.2938	-3.2062	-2.7646	-3.5042	-3.0417	-2.9583	-3.4479	-2.8354	-3.3458	-3.4688	-2.8875	-3.5125	-3.2167	-3.0229	265.846	-13.689	15.436	91.655	271.044	63.100	190.920	307.109	-4.988	18.662	41.158	214.736	330.176	123.699	148.904	178.027	0.00049363	0.00074986	0.00083499	350.99	7.2314e-06	7.8167e-07	417.46	134	8.5125e-06	9.274e-06	181.03	76.087	56.649	21.086	1.8817e-05	29.06	0.0027136	0.0025681	0.0007846	802.37	2.9623e-05	2.8032e-05	894.47	309.98	2.9513e-05	2.7775e-05	406.35	154.88	116.21	42	3.1881e-05	61.419	98.672	337.442	124.536	-5.917	28.010	107.104	-5.432	0.551	20.757	190.646	-0.558	2.724	5.189	10.386	176.937	6.386	-8191	255	
8761.365	1	1	0	0	0.12999	0.116	0.10722	0.16486	0.17997	0.14649	0.11865	0.15025	0.042743	0.1305	0.16357	0.086324	0.14904	0.13893	0.035868	0.22724	-3.0687	-2.8271	-3.1979	-3.3271	-2.8812	-3.5583	-3.2208	-2.8521	-3.5375	-2.8292	-3.3187	-3.3875	-2.8021	-3.4979	-3.0958	-2.9583	67.580	165.654	110.706	16.777	199.248	322.557	147.629	320.525	201.214	136.856	50.179	119.602	22.594	274.557	263.823	320.038	0.00015037	0.00077593	0.00065157	351.34	1.1981e-05	1.5395e-05	416.85	134.18	1.2729e-05	1.8532e-05	180.37	75.849	57.126	20.979	8.0586e-06	29.326	0.0026087	0.002532	0.00082521	780.39	2.8707e-05	2.8317e-05	921.54	302.75	2.9005e-05	2.8653e-05	419.57	152.24	115.78	43.067	3.3829e-05	60.81	252.215	150.480	125.788	-6.289	-5.626	171.877	-5.880	0.499	314.712	187.923	-0.754	2.412	5.408	11.165	173.304	6.618	-8191	255	
8761.459	1	1	0	0	0.23829	0.22897	0.17169	0.15866	0.13027	0.063899	0.18532	0.21856	0.28672	0.097018	0.065216	0.2481	0.038642	0.085987	0.1505	0.019504	-3.0792	-2.9333	-3.0396	-3.4708	-2.85	-3.4792	-3.1417	-2.9083	-3.5875	-2.8875	-3.2604	-3.5729	-2.9396	-3.3521	-3.1271	-2.9354	231.081	284.190	329.010	-2.227	110.429	314.965	322.694	287.793	-0.747	250.654	285.730	327.399	322.483	186.622	62.478	78.726	0.00043853	0.0023285	0.00013525	354.18	1.3633e-05	2.3121e-05	424.87	133.24	3.4328e-06	2.9248e-05	180.39	75.913	56.613	20.988	1.0992e-05	29.102	0.0026072	0.0027213	0.00086912	772.06	2.8655e-05	3.0537e-05	940.06	296.89	2.8365e-05	3.0488e-05	417.88	148.26	113.58	44.161	3.281e-05	58.991	268.119	122.948	231.864	-6.330	58.650	201.746	-5.789	0.701	9.510	205.569	-1.278	2.899	5.244	11.189	28.258	6.820	-8191	255	
8761.556	1	1	0	0	0.18861	0.16515	0.1518	0.016546	0.14072	0.1995	0.057419	0.12445	0.1017	0.16744	0.21727	0.1906	0.30111	0.28034	0.28618	0.10125	-3.0521	-2.8042	-3.1688	-3.4167	-2.8708	-3.2812	-3.3729	-2.6458	-3.3375	-3.0521	-3.0958	-3.4708	-2.9271	-3.2833	-3.5104	-2.8187	238.700	257.796	64.772	288.602	71.476	307.530	222.501	204.878	69.968	145.516	159.984	115.520	324.987	24.060	295.276	331.192	0.00033212	0.0016247	0.00041233	352.25	1.227e-05	2.6516e-05	420.56	134.12	1.1267e-05	1.7553e-05	179.78	76.129	56.334	20.727	1.5785e-05	28.754	0.0025089	0.0028507	0.00082384	748.6	2.7339e-05	3.1639e-05	908	287.58	2.7336e-05	3.1601e-05	401.69	144.01	111.42	44.156	2.9624e-05	55.993	252.448	139.653	274.311	-5.892	165.963	222.446	-6.494	0.905	180.814	198.569	-1.831	2.764	5.690	10.921	9.235	6.802	-8191	255	
8761.627	1	1	0	0	0.12909	0.21019	0.12571	0.043255	0.14952	0.19628	0.019875	0.12364	0.19677	0.099003	0.35142	0.23846	0.05858	0.23978	0.053482	0.15994	-3.2438	-2.9333	-2.9729	-3.6333	-2.8854	-3.3771	-3.3625	-2.7438	-3.5083	-3.1521	-3.0563	-3.6667	-2.9646	-3.0875	-3.5	-2.6792	31.747	135.540	-6.136	35.884	151.427	124.170	71.782	89.930	113.287	101.717	214.856	59.592	46.220	281.005	296.941	186.401	0.0013351	0.00094133	0.00038021	352.68	1.6389e-05	1.0611e-05	422.23	133.58	2.7301e-05	9.772e-06	180.37	75.288	56.819	20.775	1.5575e-05	28.739	0.0023759	0.00279	0.00072705	710.26	2.5825e-05	2.991e-05	838.85	269.44	2.5678e-05	2.9797e-05	373.46	136.92	110.59	43.181	2.6681e-05	53.898	317.522	119.153	313.265	-5.742	195.957	176.868	-6.512	0.700	168.390	305.824	-1.571	2.773	6.197	10.389	17.913	6.838	-8191	255	
8761.748	1	1	0	0	0.0832	0.039267	0.22544	0.13838	0.23522	0.017118	0.13306	0.078623	0.081373	0.089905	0.15974	0.19349	0.12275	0.057065	0.079807	0.066719	-2.9271	-3.1208	-2.8438	-3.6271	-3.0354	-3.1063	-3.6604	-2.9	-3.3021	-3.2917	-3.0396	-3.3896	-3.0438	-2.9979	-3.3688	-2.7958	82.177	209.766	47.863	240.235	304.592	-0.216	177.957	136.442	78.290	229.589	278.550	54.759	263.776	132.166	203.956	180.975	0.0013778	0.00059198	0.000198	354.29	2.9696e-05	1.1919e-05	421	133.23	3.4246e-05	1.4117e-05	180.41	75.268	56.302	20.635	2.7366e-06	28.976	0.0023772	0.0026617	0.00066128	686.89	2.6334e-05	2.8639e-05	810.38	262	2.6528e-05	2.8162e-05	359.48	132.75	111.51	41.339	2.4399e-05	51.947	319.286	338.348	308.711	-5.580	199.699	21.482	-6.272	0.902	175.700	26.121	-1.413	3.004	6.175	10.188	333.785	7.250	-8191	255	
8761.844	1	1	0	0	0.18368	0.27159	0.057732	0.030544	0.15132	0.075252	0.074896	0.13726	0.13239	0.063097	0.17986	0.049841	0.21046	0.19386	0.10878	0.2975	-2.8667	-3.1937	-2.6896	-3.5042	-2.9396	-2.9104	-3.5438	-2.9104	-3.2313	-3.3271	-2.7438	-3.4854	-2.9292	-2.9354	-3.5062	-2.7604	119.091	58.051	167.344	231.420	282.689	108.655	132.500	138.449	241.295	140.009	240.181	64.101	256.700	-11.949	159.040	30.362	0.0013877	0.001536	7.0537e-05	353.61	1.6469e-05	1.0296e-05	419.61	133.06	7.5709e-06	9.7803e-06	182.75	74.559	56.828	20.662	7.9224e-06	28.813	0.0023313	0.0023344	0.00057819	650.76	2.4629e-05	2.3764e-05	750.03	244.75	2.3704e-05	2.2607e-05	326.98	124.29	104.7	37.115	1.994e-05	49.322	300.807	320.727	1.918	-5.560	174.391	43.251	-6.322	1.199	163.069	61.469	-1.570	3.518	5.817	10.168	35.256	7.587	-8191	255	
8761.940	1	1	0	0	0.22261	0.072454	0.15187	0.017266	0.066282	0.40309	0.19985	0.054777	0.26175	0.15113	0.1798	0.07126	0.079629	0.15428	0.16908	0.082474	-2.8104	-3.3854	-2.6229	-3.3583	-2.9104	-3.0625	-3.4688	-2.875	-3.2188	-3.3708	-2.8563	-3.4479	-3.2917	-2.7958	-3.3937	-2.9875	270.328	114.862	313.904	317.605	312.853	-11.353	45.935	179.879	103.562	107.302	278.384	295.518	271.842	109.620	259.377	214.937	0.00065094	0.0020234	0.00041281	354.14	6.8443e-07	1.3505e-05	421.26	133.21	9.7551e-06	6.4457e-06	180.95	74.919	56.683	20.586	7.5254e-06	28.647	0.0020892	0.0019404	0.00050125	633.77	2.3204e-05	2.1004e-05	725.58	245.9	2.3298e-05	2.112e-05	321.21	126.86	104.67	36.342	1.9361e-05	50.259	300.272	326.450	298.818	-5.084	310.704	63.737	-6.100	1.626	28.843	26.696	-1.276	3.880	5.564	10.522	37.217	7.591	-8191	255	
8762.036	1	1	0	0	0.13274	0.16014	0.21347	0.54502	0.12584	0.1684	0.13847	0.064845	0.14408	0.1403	0.43059	0.14892	0.20622	0.24344	0.052717	0.18751	-2.5896	-3.375	-2.5667	-3.275	-3.0958	-2.8458	-3.5625	-2.7958	-2.9375	-3.5271	-2.7854	-3.2104	-3.2083	-2.6729	-3.4021	-3.2562	332.237	225.714	79.324	276.552	170.221	26.855	277.959	120.022	64.512	73.115	-5.286	200.834	339.510	117.787	72.410	188.137	3.7874e-05	0.00045258	4.6235e-05	352.37	6.0004e-06	4.5072e-06	417.93	133.13	1.6941e-05	1.4851e-06	180	74.8	56.473	20.738	6.2972e-06	28.458	0.0020357	0.0018372	0.0004776	640.1	2.1767e-05	1.933e-05	701.22	246.13	2.0925e-05	1.8899e-05	307.42	125.03	98.715	34.664	1.7858e-05	49.811	172.041	-4.946	66.208	-4.883	6.788	67.750	-5.908	1.644	-6.622	182.776	-0.762	3.609	5.465	10.597	192.294	7.491	-8191	255	
8762.157	1	1	0	0	0.2385	0.12128	0.2053	0.38661	0.12437	0.10193	0.092718	0.16913	0.063865	0.14732	0.1668	0.024312	0.1739	0.14626	0.12573	0.02985	-2.6167	-3.4062	-2.7417	-3.2208	-3.3625	-2.9646	-3.6063	-3.2604	-3.0208	-3.5563	-2.8854	-3.1229	-3.4688	-2.8187	-3.4188	-3.25	139.410	278.255	317.541	27.024	99.746	104.540	-10.874	199.045	312.179	286.957	214.713	273.049	164.278	84.930	305.387	204.821	0.00027677	0.00038681	0.0003254	350.64	1.1545e-05	1.4319e-06	417.73	133.72	1.9643e-05	1.6236e-06	180.31	75.158	56.746	20.618	1.1695e-05	28.658	0.0018167	0.001675	0.00045309	636.24	1.9623e-05	1.7928e-05	692.99	245.71	1.895e-05	1.744e-05	305.4	124.26	94.318	33.396	1.7446e-05	48.802	71.963	8.592	152.276	-5.441	17.369	291.649	-5.706	1.584	11.879	19.228	-0.400	3.070	5.638	10.635	172.842	7.569	-8191	255	
8762.253	1	1	0	0	0.31883	0.13671	0.26575	0.17387	0.35849	0.17845	0.11792	0.1748	0.17145	0.097992	0.084293	0.065609	0.15634	0.14939	0.2656	0.25917	-2.4646	-3.4125	-2.7354	-3.0604	-3.4875	-2.6917	-3.5604	-2.9562	-2.8	-3.5458	-3	-3.1271	-3.4313	-3.0312	-3.4292	-3.3396	112.323	33.957	311.625	263.310	-7.547	260.504	160.493	179.152	161.289	126.716	227.521	-4.670	-5.434	293.234	268.850	166.634	0.00022274	0.00059294	0.00065856	349.09	7.5115e-06	2.1019e-06	415.45	134.65	1.6371e-06	5.0981e-06	181.02	75.168	56.116	20.557	1.4367e-05	28.786	0.0016073	0.0015253	0.0004477	620.01	1.7624e-05	1.6448e-05	693.93	240.41	1.7352e-05	1.6356e-05	309.68	121.72	91.66	32.704	1.8046e-05	47.702	146.918	315.268	117.873	-5.769	306.944	155.878	-5.849	0.985	253.010	256.507	-0.694	3.044	5.452	10.621	169.203	7.345	-8191	255	
8762.325	1	1	0	0	0.30589	0.08624	0.0049073	0.12665	0.18678	0.10013	0.039389	0.14181	0.13873	0.1155	0.17088	0.1768	0.21289	0.28877	0.23184	0.15116	-2.525	-3.4729	-2.9854	-3.0854	-3.4104	-2.8333	-3.3708	-3.3125	-2.6771	-3.4583	-3.0021	-3.0521	-3.4042	-2.9062	-3.2542	-3.3417	65.094	240.270	129.498	246.322	306.327	282.560	88.448	70.915	35.607	-15.974	314.224	262.392	173.423	306.981	338.951	301.450	0.00025578	4.5545e-05	0.00064415	349.28	3.6037e-06	5.5555e-06	415.47	135.21	1.9389e-06	8.9189e-06	181.58	75.193	56.232	20.619	9.1134e-06	28.772	0.0015101	0.0014459	0.00046086	599.99	1.6365e-05	1.5607e-05	696.64	230.55	1.586e-05	1.5263e-05	308.25	116.17	88.126	31.958	1.7502e-05	45.402	-8.804	172.568	106.744	-6.159	88.042	172.518	-5.417	0.556	95.008	230.272	-1.094	2.899	5.807	10.915	203.076	7.139	-8191	255	
8762.445	1	1	0	0	0.26277	0.076447	0.14717	0.19559	0.034997	0.1606	0.30425	0.11067	0.24444	0.099709	0.22163	0.25446	0.27385	0.17506	0.22851	0.22155	-2.4229	-3.3854	-3.1625	-2.8083	-3.4437	-2.7833	-3.2375	-3.4646	-2.7021	-3.2979	-3.2104	-2.7812	-3.2896	-2.9188	-3.15	-3.3271	253.479	7.720	19.369	-7.400	80.944	-3.491	190.500	1.843	243.159	159.121	270.132	276.541	180.697	31.700	-15.989	292.507	0.00013719	0.0011698	0.0002225	348.45	8.6285e-06	1.2826e-05	418.19	134.93	3.613e-06	9.9846e-06	181.24	74.572	56.141	20.474	4.3083e-06	28.329	0.0013556	0.0013721	0.00044542	569.95	1.4768e-05	1.5057e-05	684.84	220.05	1.4485e-05	1.5114e-05	303.23	111.3	85.29	31.786	1.648e-05	43.179	281.119	140.227	102.432	-5.639	4.953	214.596	-5.783	0.477	-4.459	216.788	-1.004	2.890	6.010	11.303	200.206	7.420	-8191	255	
8762.540	1	1	0	0	0.25961	0.079675	0.11405	0.028224	0.098244	0.15401	0.067707	0.15173	0.065278	0.039491	0.25792	0.16061	0.30805	0.21588	0.1512	0.21933	-2.3083	-3.3896	-3.2375	-2.7562	-3.5438	-2.8229	-3.1021	-3.3875	-2.7375	-3.3958	-3.3333	-2.7042	-3.4125	-2.9042	-3.0375	-3.3958	241.347	133.507	15.988	10.945	54.687	34.845	331.639	184.802	19.686	80.631	109.202	65.185	38.877	325.740	221.987	321.465	0.00028185	0.0013251	0.00016274	345.25	5.5306e-06	1.1532e-05	418.92	135.62	4.9658e-06	1.3302e-05	181.75	74.048	55.821	20.312	9.5638e-06	28.432	0.0012299	0.001345	0.00040281	540.61	1.3053e-05	1.4441e-05	649.85	208.43	1.2608e-05	1.4343e-05	286.15	105.85	81.777	31.309	1.4237e-05	41.414	-14.163	149.351	5.359	-5.797	46.479	191.720	-6.210	0.758	206.367	177.064	-1.495	3.318	6.168	11.492	35.687	7.247	-8191	255	
8762.636	1	1	0	0	0.31787	0.27938	0.054228	0.17892	0.17299	0.082557	0.13591	0.25442	0.14485	0.19912	0.084548	0.038487	0.15527	0.18262	0.17303	0.1863	-2.2833	-3.1542	-3.2875	-2.7687	-3.4	-3.0667	-2.9792	-3.425	-2.6417	-3.2542	-3.3542	-2.7354	-3.5771	-3.0708	-2.9729	-3.5021	284.469	39.360	207.297	250.468	332.535	87.016	270.372	233.571	62.998	233.724	-6.618	53.137	282.850	193.815	72.836	230.639	0.00030151	0.0013649	0.00029004	344.49	7.8991e-06	1.0257e-05	415.56	135.86	5.895e-06	5.6305e-06	182.73	73.854	55.912	20.357	1.1494e-05	28.506	0.0011159	0.0013098	0.00035624	522.35	1.2268e-05	1.4325e-05	626.74	203.11	1.2092e-05	1.4092e-05	275.08	103.1	80.883	30.92	1.2704e-05	40.265	306.547	123.004	-14.650	-5.382	155.363	251.694	-5.961	0.930	171.777	206.304	-1.453	3.284	6.326	10.928	23.353	7.104	-8191	255	
8762.757	1	1	0	0	0.25347	0.10467	0.13154	0.11034	0.26984	0.10512	0.1866	0.19146	0.067549	0.093467	0.19372	0.18774	0.18463	0.12751	0.19707	0.28714	-2.4604	-3.1688	-3.3917	-2.7271	-3.4396	-3.0563	-2.8167	-3.4917	-2.9813	-3.1854	-3.5771	-2.8104	-3.2792	-3.2292	-2.7917	-3.5938	60.247	150.984	29.589	4.469	284.418	52.139	-7.128	219.731	-5.095	218.137	-13.112	49.143	255.225	42.751	152.598	241.051	0.00066314	0.00036786	0.00038329	343.15	1.2636e-05	4.4238e-06	417.11	135.38	1.4409e-05	3.0736e-06	183.26	74.173	56.224	20.361	5.3438e-06	28.497	0.001093	0.001263	0.00031948	508.15	1.2224e-05	1.381e-05	609.28	198.89	1.2351e-05	1.3566e-05	269.17	101.75	81.934	30.534	1.1769e-05	39.71	303.977	138.036	305.452	-5.593	187.270	342.983	-5.862	1.024	210.869	32.331	-1.227	3.327	6.192	11.278	-13.070	7.621	-8191	255	
8762.853	1	1	0	0	0.021103	0.15092	0.16375	0.22877	0.1942	0.21797	0.054498	0.21012	0.17909	0.10146	0.22368	0.12868	0.1308	0.155	0.10991	0.17871	-2.5333	-2.9562	-3.3521	-2.7708	-3.3187	-3.2667	-2.7146	-3.5521	-2.9708	-2.9604	-3.4771	-2.7604	-3.0583	-3.2854	-2.8917	-3.5229	216.687	97.144	328.787	341.871	311.638	139.924	143.370	243.997	-6.431	178.156	336.529	34.850	15.279	286.347	209.479	237.172	0.00090585	0.00077913	0.00026952	343.25	1.1334e-05	4.8689e-06	417.13	135.58	1.2483e-05	7.3011e-06	183.34	73.572	56.047	20.345	3.8375e-06	28.412	0.0011253	0.0011744	0.00029271	497.31	1.2284e-05	1.26e-05	594.27	194.85	1.2413e-05	1.2291e-05	262.02	99.956	81.937	29.645	1.1075e-05	39.325	305.881	-8.448	-1.418	-5.475	194.311	32.234	-6.021	1.251	178.309	338.277	-1.455	3.797	6.147	10.687	315.951	7.559	-8191	255	
8762.924	1	1	0	0	0.16782	0.20394	0.11873	0.061464	0.28211	0.26705	0.088713	0.29585	0.28523	0.10832	0.17141	0.18903	0.18672	0.26967	0.1134	0.26779	-2.6667	-2.7167	-3.3083	-2.8812	-3.1042	-3.3042	-2.75	-3.5833	-3.0479	-2.8521	-3.475	-2.8104	-3.0687	-3.325	-2.8458	-3.4979	95.833	70.148	332.692	272.498	267.569	272.198	257.612	299.104	310.109	58.052	73.574	-16.532	203.341	281.745	149.887	234.000	0.00049421	0.0011181	0.00027212	341.42	4.3059e-06	8.3441e-06	412.03	135.54	5.5927e-06	3.4571e-06	182.32	73.135	55.544	20.251	3.6208e-06	28.225	0.0011564	0.0011053	0.00028357	500.83	1.2968e-05	1.2151e-05	590.52	197.77	1.3198e-05	1.2043e-05	260.85	101.68	82.927	29.338	1.1042e-05	39.968	290.304	287.185	330.439	-5.353	123.530	4.247	-5.890	1.163	85.498	17.155	-1.220	3.786	6.170	10.989	315.783	7.492	-8191	255	
8763.045	1	1	0	0	0.32246	0.085051	0.021709	0.11642	0.17449	0.23915	0.1136	0.16889	0.11895	0.022535	0.10249	0.13844	0.062667	0.12736	0.13583	0.16985	-2.8917	-2.6417	-3.4062	-2.95	-2.9333	-3.3875	-2.7479	-3.4042	-3.2042	-2.9333	-3.6354	-3.0417	-3.0792	-3.5083	-2.9104	-3.4	29.104	183.840	99.319	314.558	84.902	156.347	10.828	298.888	214.602	250.699	333.895	193.695	6.730	330.485	51.872	244.411	0.0003805	0.00080434	0.00022337	340.71	6.2282e-06	6.4475e-06	414.86	134.82	9.4704e-06	2.2983e-06	181.9	73.337	55.892	20.247	1.7339e-06	28.128	0.001187	0.0010672	0.00027964	511.13	1.3011e-05	1.1737e-05	587.73	201.99	1.3075e-05	1.1752e-05	260.08	104.18	82.894	29.288	1.1234e-05	41.335	321.321	341.402	314.417	-4.990	1.898	57.221	-6.247	1.009	0.202	256.097	-1.165	3.511	5.821	11.109	253.611	7.559	-8191	255	
8763.141	1	1	0	0	0.14481	0.12835	0.092724	0.18452	0.12469	0.19309	0.23457	0.11813	0.13199	0.17979	0.27259	0.27548	0.17923	0.065388	0.042762	0.1319	-2.9021	-2.7583	-3.3333	-3.0792	-2.9813	-3.5187	-2.6979	-3.3563	-3.1437	-2.7792	-3.5312	-3.0729	-3.0854	-3.5667	-2.8521	-3.2042	108.457	123.404	41.833	37.619	313.910	253.483	16.644	139.778	180.202	150.081	275.210	335.830	8.720	209.764	238.827	314.563	0.00019981	0.00039171	0.00016781	341.15	5.9219e-06	2.8578e-06	412.04	133.69	1.0964e-05	4.8921e-06	182.18	73.683	55.504	20.305	1.0541e-05	28.365	0.0011863	0.0010785	0.00028906	528.34	1.2983e-05	1.1837e-05	594.76	207.84	1.2865e-05	1.1798e-05	264.22	106.65	81.97	29.214	1.1715e-05	42.131	227.449	261.151	197.589	-4.861	-3.436	61.383	-5.981	1.029	337.311	37.346	-0.912	3.423	5.792	10.890	184.962	7.525	-8191	255	
8763.237	1	1	0	0	0.12509	0.19614	0.14411	0.14576	0.098759	0.22407	0.17156	0.19476	0.087877	0.06826	0.098415	0.14108	0.17922	0.083646	0.3296	0.10047	-2.9729	-2.6375	-3.2417	-3.0146	-2.7292	-3.6021	-2.8792	-3.0292	-3.3458	-2.6458	-3.3354	-3.2938	-2.9042	-3.4875	-2.8229	-3.0771	115.020	258.868	285.473	65.237	95.152	66.811	-8.720	197.394	317.104	11.837	-5.864	84.832	290.991	45.088	268.461	184.700	0.00026321	0.00046005	0.00029785	343.46	3.8879e-06	4.1915e-06	414.08	134.96	4.2311e-06	3.5352e-06	181.85	74.019	55.732	20.332	1.5145e-05	28.482	0.0011395	0.0010596	0.00030215	534.67	1.2406e-05	1.1595e-05	605.8	209.83	1.233e-05	1.1547e-05	269.86	107.2	81.255	29.203	1.2705e-05	42.315	170.097	6.538	106.877	-5.508	29.452	75.562	-5.796	0.936	103.855	52.995	-0.475	3.254	6.036	10.913	163.886	7.102	-8191	255	
8763.333	1	1	0	0	0.090066	0.074464	0.15612	0.15584	0.25835	0.071311	0.086578	0.1719	0.16178	0.16137	0.18112	0.36338	0.19693	0.055591	0.19119	0.13694	-2.8646	-2.7	-3.1125	-3.1083	-2.8354	-3.3583	-3.0042	-2.9396	-3.4542	-2.9146	-3.4958	-3.2542	-2.7042	-3.4042	-3.0583	-3.0646	328.260	251.058	103.040	267.699	121.169	111.199	64.273	124.670	232.693	-3.504	293.875	333.217	229.432	293.308	293.296	77.003	0.0002158	0.00050016	0.0003773	342.64	3.1437e-06	1.8543e-06	413.53	135.55	3.1545e-06	5.1717e-06	180.69	73.491	55.833	20.243	8.5701e-06	28.191	0.0011256	0.0010744	0.0003356	538.71	1.2534e-05	1.1924e-05	627.63	211.35	1.2685e-05	1.2104e-05	280.54	107.68	82.086	29.558	1.4268e-05	42.16	291.028	304.896	100.658	-5.860	142.522	205.404	-5.892	0.955	324.017	257.011	-0.925	3.424	5.676	11.049	205.878	7.102	-8191	255	
8763.452	1	1	0	0	0.17212	0.30193	0.29518	0.057271	0.24226	0.12499	0.12372	0.13437	0.10068	0.38099	0.1726	0.12567	0.11787	0.062135	0.1648	0.10654	-3.2604	-2.7188	-3.0938	-3.1979	-2.7792	-3.3688	-3.1667	-2.9354	-3.6833	-2.7604	-3.2333	-3.5729	-2.8333	-3.4938	-3.3187	-2.9562	240.142	174.438	337.759	184.995	340.219	318.015	209.096	235.472	16.945	165.332	37.338	177.010	113.873	30.988	115.176	24.425	0.00034388	0.00065575	0.00044665	342.7	3.3305e-06	7.2896e-07	415.01	134.68	8.2491e-06	8.1438e-06	181.46	73.312	55.552	20.266	4.9686e-06	28.159	0.0011514	0.0011314	0.00036752	535.82	1.2584e-05	1.2522e-05	640.62	208.49	1.2566e-05	1.2653e-05	285.05	106.1	81.267	29.992	1.4618e-05	41.496	242.579	86.863	100.491	-5.390	82.379	141.115	-5.706	0.599	19.384	163.637	-0.967	2.779	5.588	11.112	310.676	7.519	-8191	255	
8763.548	1	1	0	0	0.081562	0.033722	0.1113	0.15344	0.21548	0.041026	0.087357	0.16686	0.23903	0.15323	0.064009	0.15853	0.10377	0.25611	0.27373	0.20528	-3.0083	-2.8229	-3.1729	-3.2375	-2.8	-3.5083	-3.2875	-2.8521	-3.4521	-2.8042	-3.0792	-3.5062	-2.6875	-3.3583	-3.15	-2.7812	132.393	319.232	230.637	56.319	75.950	30.053	44.024	243.271	323.291	49.859	218.661	285.017	242.709	42.301	188.083	263.864	0.00034812	0.0010155	0.00016608	341.61	1.9484e-06	1.0682e-05	417.38	134.92	8.3301e-06	9.6554e-06	182.44	73.998	55.511	20.269	1.2785e-05	28.321	0.0011169	0.0011946	0.00037516	528.92	1.2383e-05	1.3393e-05	644.44	206.3	1.237e-05	1.3694e-05	285.84	105.76	81.424	30.909	1.4676e-05	41.527	316.793	137.581	336.270	-5.502	36.974	164.644	-5.670	0.978	54.313	194.341	-1.565	3.233	5.785	11.460	47.082	7.598	-8191	255	
8763.620	1	1	0	0	0.042013	0.12502	0.064856	0.16316	0.28242	0.19464	0.22282	0.20988	0.052633	0.21572	0.01173	0.080246	0.17336	0.057842	0.34384	0.059885	-3.0729	-2.8708	-2.9271	-3.5083	-2.7667	-3.3521	-3.2833	-2.8646	-3.4396	-3.0687	-3.0312	-3.5312	-2.7146	-3.2708	-3.2646	-2.6604	143.420	19.730	277.235	53.846	141.816	206.421	133.237	210.292	218.759	102.970	303.617	302.839	339.669	124.450	87.566	110.246	0.00016832	0.0001746	0.000386	342.99	5.0588e-06	1.0925e-05	416.61	135.42	3.648e-06	5.6719e-06	181.33	73.843	55.656	20.342	9.1625e-06	28.37	0.0011284	0.0013065	0.00037132	528.11	1.2552e-05	1.4558e-05	640.97	206.64	1.2667e-05	1.4865e-05	283.81	105.7	82.415	31.774	1.4248e-05	41.633	277.178	223.500	314.450	-5.588	296.589	194.337	-6.131	0.942	129.740	163.376	-1.317	3.017	6.145	11.153	333.727	7.723	-8191	255	
8763.718	1	1	0	0	0.14357	0.29625	0.16508	0.056574	0.16465	0.3356	0.021334	0.17636	0.19936	0.1037	0.16362	0.1745	0.18045	0.22844	0.057075	0.03319	-2.975	-3.0667	-2.9125	-3.4813	-2.8625	-2.9583	-3.4125	-2.6083	-3.225	-3.1437	-2.8542	-3.5896	-2.9229	-3.1292	-3.5583	-2.8583	325.360	93.949	293.834	284.466	160.471	268.529	190.146	102.320	113.351	30.665	293.789	266.127	294.856	128.330	317.073	326.484	0.00062633	0.00055994	0.000359	341.75	1.3852e-05	5.128e-06	415.68	134.97	1.241e-05	4.7528e-06	180.85	73.843	55.857	20.274	6.2885e-06	28.304	0.0011737	0.0013788	0.00035574	524.03	1.3009e-05	1.5021e-05	627.64	203.47	1.305e-05	1.4894e-05	276.42	103.96	83.301	31.538	1.326e-05	40.739	308.594	122.730	340.768	-5.622	182.625	147.165	-6.128	0.895	185.312	123.091	-1.327	3.570	6.168	10.952	5.791	7.255	-8191	255	
8763.837	1	1	0	0	0.15927	0.069584	0.12472	0.14939	0.40055	0.19766	0.095529	0.24747	0.14683	0.15738	0.27356	0.13219	0.10539	0.36342	0.23914	0.16597	-2.9	-3.1167	-2.7729	-3.4208	-2.8854	-3.2521	-3.5625	-2.7188	-3.1979	-3.3458	-2.8917	-3.425	-3.0104	-3.0312	-3.5	-2.925	101.080	-8.773	303.608	220.669	192.117	99.510	182.606	32.371	231.803	125.555	300.143	316.360	124.866	178.777	174.001	84.922	0.00095071	0.00044979	0.00023479	341.42	1.408e-05	6.3631e-06	415.89	134.33	1.074e-05	8.3409e-06	181.98	73.176	55.714	20.217	5.8868e-06	28.042	0.0012243	0.0013511	0.00033771	517.56	1.3796e-05	1.4756e-05	620.41	202.8	1.4129e-05	1.4753e-05	274.7	104.1	85.943	31.444	1.3366e-05	41.052	308.898	255.073	339.311	-5.582	194.078	54.113	-6.253	1.163	176.538	2.214	-0.969	3.215	6.086	10.947	44.186	7.513	-8191	255	
8763.933	1	1	0	0	0.13177	0.013532	0.3544	0.26872	0.12573	0.09824	0.1095	0.17108	0.27627	0.12717	0.18594	0.14418	0.052692	0.13256	0.22719	0.33207	-2.8667	-3.2708	-2.6542	-3.5125	-3.0687	-2.9083	-3.6562	-2.8458	-3.2438	-3.3937	-2.5729	-3.4604	-3.0354	-2.8729	-3.4875	-2.9167	-4.537	13.149	222.719	315.110	257.314	124.243	282.240	59.419	179.161	290.856	298.954	341.844	141.143	146.281	105.716	311.313	0.0010727	0.00097377	0.00031199	342.92	1.1638e-05	1.0677e-05	414.58	134.38	5.4337e-06	7.4584e-06	180.77	73.337	55.8	20.258	7.1233e-06	27.969	0.0013526	0.0013505	0.00034305	525.12	1.5177e-05	1.4669e-05	621.95	206.47	1.5377e-05	1.4543e-05	275.89	106.04	88.139	31.304	1.338e-05	42.013	295.929	-9.774	315.265	-5.148	164.296	8.589	-6.234	1.184	173.167	53.105	-1.419	3.635	5.968	10.672	92.086	7.608	-8191	255	
8764.029	1	1	0	0	0.15646	0.071007	0.094744	0.10056	0.19088	0.32065	0.20221	0.41212	0.13051	0.16128	0.22733	0.12417	0.21403	0.16095	0.12328	0.12153	-2.825	-3.4396	-2.7042	-3.3854	-3.1833	-2.9083	-3.6708	-3.0292	-3.0438	-3.4583	-3.0208	-3.3646	-3.2708	-2.8167	-3.5646	-3.0021	318.197	20.568	88.179	292.074	160.845	89.994	295.227	142.950	294.564	166.673	161.205	162.542	140.340	30.157	144.422	59.775	0.0002099	0.00056581	5.5988e-06	342.53	7.9308e-06	7.638e-06	415.83	133.99	3.253e-06	6.0737e-06	180.21	73.505	56.132	20.258	2.9916e-06	28.201	0.0014282	0.0013088	0.0003395	537.71	1.5684e-05	1.4154e-05	619.69	211.34	1.5585e-05	1.3993e-05	273.63	108.43	87.934	30.862	1.296e-05	43.036	315.113	339.529	113.000	-5.069	40.626	21.292	-6.180	1.272	2.113	16.629	-1.439	3.876	5.531	11.258	241.825	7.606	-8191	255	
8764.125	1	1	0	0	0.46834	0.18487	0.20037	0.060973	0.064087	0.21391	0.047451	0.20674	0.1767	0.18379	0.015509	0.024185	0.015252	0.11043	0.24711	0.18798	-2.6667	-3.5917	-2.6021	-3.3229	-3.4146	-2.9292	-3.4583	-3.1708	-2.9979	-3.5917	-2.8146	-3.4167	-3.3896	-2.6771	-3.3833	-3.0021	42.255	233.858	293.124	274.738	51.033	232.935	229.494	118.708	303.550	250.002	38.507	288.088	269.226	173.452	135.680	236.491	0.00020057	0.0003969	8.5322e-05	341.43	1.3074e-05	4.6401e-06	414.53	133.74	9.4884e-06	1.6355e-06	181.56	73.196	55.772	20.33	2.9673e-06	28.119	0.0013872	0.0012562	0.00033174	547.96	1.5062e-05	1.3622e-05	614.88	215.23	1.481e-05	1.337e-05	272.61	110.08	85.932	30.503	1.2928e-05	43.527	212.247	333.174	67.486	-5.132	64.315	81.894	-6.061	1.269	-10.585	276.476	-1.355	3.577	5.509	11.026	183.794	7.236	-8191	255	
8764.222	1	1	0	0	0.090858	0.19909	0.11945	0.31077	0.19092	0.14166	0.056937	0.20134	0.21183	0.11943	0.10386	0.058316	0.019223	0.18206	0.12356	0.10049	-2.5229	-3.3125	-2.8604	-3.1104	-3.2167	-2.7062	-3.6458	-2.9917	-2.8688	-3.5854	-2.8833	-3.2188	-3.4625	-2.8667	-3.4646	-3.2188	37.359	53.387	-9.561	8.130	162.545	339.906	228.055	275.527	109.240	342.261	15.792	185.286	15.698	176.681	281.295	328.969	0.00023804	0.00034874	0.00025369	340.61	7.3756e-06	4.288e-06	407.99	133.82	5.043e-06	5.8565e-06	180.56	73.124	55.752	20.339	9.7834e-06	27.977	0.0013048	0.001203	0.00033337	554.18	1.4169e-05	1.3103e-05	617	216.97	1.382e-05	1.2738e-05	273.47	109.6	83.366	29.776	1.3114e-05	42.814	116.129	95.748	119.070	-5.301	-14.567	18.730	-5.837	1.100	335.556	330.227	-0.823	3.430	5.524	10.820	178.306	7.039	-8191	255	
8764.318	1	1	0	0	0.13059	0.191	0.090069	0.28633	0.23717	0.1369	0.136	0.29021	0.10934	0.15775	0.13388	0.15513	0.17013	0.12151	0.21923	0.078439	-2.4333	-3.45	-2.8146	-3.175	-3.2458	-2.7521	-3.1896	-3.15	-2.8312	-3.3896	-2.9771	-3.0708	-3.4	-2.7958	-3.1646	-3.3208	248.040	195.779	299.667	106.369	244.685	26.980	280.647	336.148	271.618	312.712	34.391	49.309	285.223	313.419	97.601	244.295	5.0496e-05	0.0001625	0.00052095	341.78	6.5517e-06	4.0408e-06	411.58	134.45	5.7022e-06	2.3385e-06	180.51	73.49	55.36	20.158	8.3831e-06	28.121	0.0011906	0.0011216	0.00033841	543.67	1.2932e-05	1.2223e-05	621.99	212.82	1.2864e-05	1.2118e-05	277.61	107.88	81.85	29.436	1.3807e-05	42.133	208.645	-12.446	124.801	-5.472	4.592	59.699	-5.641	1.144	-14.517	196.545	-0.716	3.030	5.693	11.037	162.148	7.172	-8191	255	
8764.438	1	1	0	0	0.168	0.061933	0.077628	0.20731	0.081859	0.23214	0.077969	0.0943	0.077859	0.24618	0.033762	0.019367	0.10285	0.17796	0.056495	0.28466	-2.5833	-3.3812	-2.975	-2.9875	-3.5333	-3.0438	-3.3604	-3.3438	-2.9	-3.4083	-3.1688	-2.9979	-3.5042	-2.9396	-3.0938	-3.2938	31.088	33.500	97.271	15.078	179.008	147.483	180.709	55.988	262.280	44.720	62.995	280.680	249.659	-0.431	82.754	274.887	0.00039765	0.00024218	0.00029419	342.19	6.3009e-06	4.1643e-06	410.71	134.35	9.8158e-06	5.7767e-06	179.9	73.62	55.889	20.299	7.8915e-06	28.205	0.0011422	0.0010911	0.00035527	532.88	1.2307e-05	1.201e-05	628.86	207.57	1.2218e-05	1.1981e-05	280.84	105.74	80.884	29.466	1.4064e-05	41.147	305.872	136.063	103.173	-5.799	141.619	233.310	-5.756	0.874	5.203	192.608	-1.081	3.349	5.821	11.104	173.921	6.914	-8191	255	
8764.533	1	1	0	0	0.10496	0.11644	0.091513	0.11202	0.20359	0.16564	0.18268	0.17758	0.057535	0.085193	0.16802	0.2749	0.0483	0.31499	0.216	0.12846	-2.5354	-3.2854	-3.1229	-2.9729	-3.4813	-2.7646	-3.2208	-3.3854	-2.6458	-3.5479	-3.1896	-2.8458	-3.5604	-2.9083	-3.2479	-3.3979	9.251	13.897	284.960	270.937	252.367	55.736	43.698	41.233	140.809	5.766	279.931	201.811	161.104	-3.394	67.318	263.328	0.00027132	0.00055506	0.00016559	340.59	1.0467e-05	8.7377e-06	416.09	134.2	4.1014e-06	1.0392e-05	181.71	73.843	55.832	20.335	2.1416e-06	28.154	0.0010906	0.001113	0.00035896	521.38	1.186e-05	1.2398e-05	632.2	203.57	1.168e-05	1.2437e-05	279.91	103.97	79.787	29.829	1.3552e-05	40.264	314.256	146.521	190.020	-5.608	37.791	178.759	-6.060	0.466	272.705	199.596	-1.580	3.047	6.073	11.506	-2.178	6.871	-8191	255	
8764.629	1	1	0	0	0.34509	0.039124	0.038806	0.24022	0.091922	0.20508	0.075272	0.20649	0.054866	0.020557	0.10898	0.14768	0.32001	0.13519	0.17135	0.045547	-2.3708	-3.2604	-3.0917	-2.8833	-3.5292	-3.0083	-2.9896	-3.4667	-2.7458	-3.1875	-3.4562	-2.9375	-3.5458	-2.8521	-3.0438	-3.3229	-11.592	194.127	20.750	262.281	157.317	304.447	287.285	294.102	54.704	66.267	76.165	160.850	2.745	229.462	275.453	111.471	0.00019222	0.0010757	0.00020491	341.03	8.2335e-06	1.0063e-05	414.24	134.93	4.8892e-06	5.7342e-06	180.2	73.471	55.631	20.182	4.6087e-07	27.95	0.0010335	0.0011584	0.00034337	511.92	1.1368e-05	1.3032e-05	623.23	200.99	1.1525e-05	1.3391e-05	277.02	103.4	80.251	30.753	1.3599e-05	40.226	245.574	137.036	326.197	-5.730	59.253	200.915	-6.148	0.753	167.015	177.907	-1.515	3.363	6.074	11.266	38.913	7.213	-8191	255	
8764.725	1	1	0	0	0.16494	0.11416	0.21024	0.035178	0.096154	0.061233	0.20383	0.18364	0.14512	0.33168	0.19222	0.11932	0.046526	0.19556	0.3068	0.21563	-2.4729	-3.0625	-3.3146	-2.7229	-3.4229	-3.1688	-2.8771	-3.5771	-3.0062	-3.1208	-3.4854	-2.7729	-3.3375	-3.25	-2.7562	-3.4313	148.034	170.741	256.610	258.034	255.629	5.204	156.806	271.027	100.645	207.071	330.320	330.808	74.954	88.016	145.887	4.131	0.00068623	0.0009899	0.00028283	339.74	1.4055e-05	7.1411e-06	410.8	133.76	1.4097e-05	1.0654e-05	179.44	72.954	55.427	20.242	2.016e-06	27.91	0.0010921	0.0012801	0.00034105	512.5	1.1959e-05	1.4058e-05	615.41	199.52	1.2072e-05	1.3936e-05	270.85	101.95	80.765	30.938	1.2758e-05	39.719	295.497	117.399	321.041	-5.532	141.731	212.805	-6.120	0.814	167.994	155.954	-1.537	3.142	6.220	11.063	-6.654	7.364	-8191	255	
8764.821	1	1	0	0	0.16839	0.20602	0.11341	0.19014	0.12214	0.28876	0.17582	0.045132	0.21581	0.11763	0.16053	0.078081	0.042792	0.23759	0.13252	0.13048	-2.3	-3.1	-3.2979	-2.7	-3.3396	-3.0708	-2.9583	-3.4562	-2.8167	-3.0375	-3.4562	-2.9042	-3.2458	-3.3396	-2.8667	-3.4917	239.427	152.007	110.638	-7.008	157.757	105.564	309.069	307.750	51.483	124.552	140.475	255.244	51.086	332.166	140.009	207.533	0.0008121	0.00042583	0.00038987	339.71	1.2125e-05	5.0325e-06	411.77	133.95	2.0606e-05	4.9109e-06	180.51	73.017	55.689	20.328	2.0316e-06	27.969	0.0011309	0.0012808	0.00032087	506.57	1.2645e-05	1.4077e-05	607.59	198.17	1.2974e-05	1.4004e-05	268.72	101.76	82.835	30.793	1.2324e-05	39.597	298.803	89.085	-0.683	-5.481	213.258	86.691	-6.261	0.862	188.651	50.916	-1.354	3.413	5.919	10.531	6.066	7.518	-8191	255	
8764.917	1	1	0	0	0.24818	0.27097	0.074887	0.20147	0.15643	0.059014	0.1017	0.31529	0.050574	0.10356	0.033972	0.079151	0.11268	0.37878	0.20232	0.12626	-2.4333	-2.9042	-3.375	-2.6458	-3.1542	-3.25	-2.7271	-3.4167	-3.1271	-2.9125	-3.55	-2.8854	-3.1583	-3.25	-2.6125	-3.4104	140.323	312.487	338.046	141.559	238.307	331.897	-16.445	260.073	229.518	240.548	235.897	236.779	132.029	189.625	144.611	214.445	0.00094511	0.00056974	0.00036684	337.31	1.4865e-05	1.0395e-05	412.45	133.9	6.4713e-06	5.3951e-06	180.38	73.576	55.522	20.337	5.5872e-06	28.147	0.0012074	0.0012437	0.00031124	504.09	1.3424e-05	1.3398e-05	600.43	197.93	1.3627e-05	1.3326e-05	266.68	102.57	84.573	30.328	1.2034e-05	40.072	292.750	-10.855	16.861	-5.550	200.645	53.390	-6.027	1.225	163.814	50.174	-1.697	3.610	6.021	10.616	15.573	7.962	-8191	255	
8765.013	1	1	0	0	0.18458	0.17448	0.23592	0.45019	0.017871	0.28967	0.091514	0.13795	0.025659	0.1189	0.021608	0.23185	0.30622	0.23901	0.03413	0.19583	-2.6562	-2.6896	-3.4208	-2.575	-3.1	-3.3021	-2.7833	-3.4479	-3.325	-2.8146	-3.4938	-2.9021	-3.0229	-3.4396	-2.8271	-3.4396	169.995	84.762	14.596	317.132	286.028	178.877	226.987	276.742	-13.584	38.749	236.510	8.486	259.647	28.103	134.512	342.911	0.00043317	0.00075993	0.00023007	339.24	7.4135e-06	1.0333e-05	411.66	134.44	3.9666e-06	5.1906e-06	181.28	73.341	55.666	20.272	5.4856e-06	27.906	0.0012649	0.0011867	0.00030467	512.41	1.412e-05	1.2967e-05	601.64	202.62	1.4309e-05	1.2949e-05	265.59	104.68	85.277	30.005	1.2002e-05	41.078	317.061	329.274	337.399	-5.429	186.680	23.626	-6.062	1.009	85.051	25.279	-1.473	3.457	5.896	10.899	40.580	7.527	-8191	255	
8765.134	1	1	0	0	0.0015263	0.034656	0.24746	0.14259	0.19785	0.28313	0.11784	0.35097	0.2553	0.11138	0.067223	0.22083	0.40967	0.19509	0.043654	0.21098	-2.7771	-2.9354	-3.5458	-2.9771	-3.1	-3.5354	-2.8521	-3.3458	-3.2479	-2.8438	-3.4938	-2.9979	-3.1312	-3.4125	-2.7458	-3.3229	180.000	333.753	14.877	309.587	238.565	251.710	245.848	13.451	269.572	161.168	283.650	214.661	311.826	-9.442	334.363	191.871	0.00015138	0.0005795	0.00014548	340.11	7.2416e-06	1.4881e-06	413.97	133.28	9.6842e-06	6.8998e-06	178.98	72.74	55.516	20.25	3.3177e-06	27.591	0.0012787	0.0011573	0.00030133	526.41	1.403e-05	1.2612e-05	599.75	207.75	1.4088e-05	1.273e-05	264.77	106.92	84.804	29.886	1.2274e-05	42.189	290.190	90.259	-11.061	-5.000	328.629	287.962	-5.690	1.398	-4.018	87.327	-1.255	3.401	5.675	10.861	162.140	7.594	-8191	255	
8765.230	1	1	0	0	0.16374	0.14161	0.15179	0.26367	0.21206	0.082958	0.056477	0.18896	0.10118	0.34781	0.090478	0.14753	0.086124	0.16689	0.049691	0.16739	-2.8354	-2.8125	-3.4521	-2.8792	-2.8312	-3.5333	-2.9708	-3.1937	-3.3396	-2.9521	-3.4479	-3.1875	-3.0375	-3.5479	-3.3208	-3.3479	143.162	4.522	193.032	92.128	234.799	78.259	163.635	274.108	268.580	155.167	103.440	16.569	141.778	210.988	259.145	-3.935	0.00021704	0.00026508	0.0002268	341.26	1.6345e-05	3.2366e-06	409.99	134.08	1.6095e-06	2.1504e-06	179.02	72.951	55.227	20.237	8.1902e-06	27.876	0.0012746	0.0011705	0.0003149	543.42	1.3725e-05	1.2458e-05	601.83	210.9	1.3161e-05	1.2029e-05	263.75	106.5	81.592	29.05	1.1818e-05	41.467	181.169	87.320	114.903	-5.291	22.572	-9.813	-5.899	1.160	39.930	334.735	-0.986	3.548	5.447	11.074	175.174	7.355	-8191	255	
8765.325	1	1	0	0	0.13608	0.2209	0.25348	0.09804	0.076625	0.23935	0.3928	0.1249	0.19003	0.21123	0.12452	0.24011	0.099546	0.034092	0.1425	0.18965	-2.9125	-2.55	-3.35	-3.0958	-2.7958	-3.3854	-3.025	-2.9958	-3.3083	-2.5667	-3.3667	-3.1125	-2.7812	-3.4667	-2.875	-2.9729	277.705	295.014	275.523	149.794	-5.511	178.601	289.059	315.225	188.716	110.983	273.577	290.144	329.758	335.178	268.975	274.286	0.00018059	0.00039621	0.00053478	339.13	8.2513e-06	6.4784e-06	408.27	134.32	9.0802e-06	4.3541e-06	178.7	72.612	55.521	20.357	9.6274e-06	28.118	0.0011032	0.0010343	0.00030124	529.06	1.206e-05	1.1317e-05	600.07	207.18	1.1917e-05	1.1133e-05	264.71	103.78	78.81	28.375	1.1864e-05	40.493	234.104	-4.052	124.037	-5.345	-16.002	43.184	-5.463	1.024	324.733	70.210	-0.628	3.068	5.589	10.879	148.685	7.061	-8191	255	
8765.421	1	1	0	0	0.16815	0.12625	0.21524	0.12635	0.079916	0.089429	0.2549	0.23436	0.14532	0.090507	0.016377	0.15373	0.2621	0.23529	0.12261	0.066824	-3.0167	-2.8125	-3.0979	-3.275	-2.8083	-3.4646	-2.9104	-3.1417	-3.4417	-2.8417	-3.2396	-3.5854	-2.9729	-3.4792	-3.075	-3.0667	53.870	252.925	188.258	60.981	-12.897	75.438	268.268	21.469	215.025	248.770	322.042	229.654	-13.709	323.303	78.109	212.963	0.00022542	0.00054762	0.00047055	339.52	6.1599e-06	2.2577e-06	409.72	134.71	1.3769e-05	3.7372e-06	179.65	72.98	55.459	20.208	5.1967e-06	27.984	0.00099823	0.00095431	0.00030299	512.86	1.0972e-05	1.0497e-05	601.85	200.72	1.0915e-05	1.0475e-05	266.48	101.38	77.547	28.183	1.2035e-05	39.512	304.334	288.554	128.791	-5.730	341.435	136.665	-5.724	0.687	-0.118	192.184	-0.622	3.473	5.899	11.362	148.002	7.005	-8191	255	
8765.519	1	1	0	0	0.32289	0.44897	0.13831	0.14449	0.30006	0.13406	0.10572	0.038044	0.17821	0.077555	0.08992	0.17401	0.16287	0.15587	0.10796	0.16839	-3.2562	-2.8812	-3.1458	-3.3812	-2.6854	-3.4208	-3.1479	-3.0479	-3.525	-2.9188	-3.2021	-3.5479	-2.85	-3.225	-3.2229	-3.0771	157.224	130.582	5.324	87.783	198.070	323.537	177.098	266.018	221.370	31.520	119.724	35.056	315.998	196.266	226.148	222.157	0.00042239	0.00077008	0.00016775	339.39	1.0043e-06	3.3263e-06	410.47	134.07	4.3291e-06	6.8447e-06	179.73	72.256	55.187	20.199	2.5138e-06	27.742	0.00093368	0.00093559	0.00030274	497.11	1.0111e-05	1.0258e-05	596.82	194.19	9.9913e-06	1.0373e-05	263.67	98.097	75.91	28.224	1.1836e-05	38.402	318.127	154.219	128.108	-5.519	92.262	194.397	-5.907	1.083	336.584	186.422	-1.288	2.927	5.831	11.278	266.095	7.179	-8191	255	
8765.613	1	1	0	0	0.26222	0.20889	0.036357	0.060716	0.020295	0.16656	0.18836	0.25565	0.10769	0.20767	0.34193	0.083464	0.21427	0.088853	0.074781	0.30156	-3.1167	-2.8312	-3.2208	-3.3979	-2.6146	-3.2812	-3.1583	-2.8292	-3.3875	-3.0958	-3.1437	-3.4333	-2.7104	-3.1937	-3.2917	-2.6667	117.872	223.679	307.142	96.853	268.749	202.369	186.833	246.948	119.635	157.699	318.970	-2.052	221.123	22.172	203.750	324.654	0.00017538	0.0010262	0.00021447	339.31	1.5048e-06	6.9761e-06	409.56	135.21	1.9284e-06	7.2309e-06	180.07	71.868	55.096	20.069	4.2469e-06	27.841	0.00089425	0.00097226	0.00029547	486.18	9.6067e-06	1.054e-05	585.64	189.78	9.2429e-06	1.038e-05	255.4	94.612	73.781	27.939	1.0309e-05	37.022	314.470	152.993	306.968	-5.257	332.343	211.003	-5.945	1.184	236.723	192.147	-1.202	2.972	6.013	11.323	27.955	7.401	-8191	255	
8765.709	1	1	0	0	0.12798	0.064625	0.09632	0.17293	0.041274	0.030797	0.12005	0.18179	0.09128	0.13969	0.15687	0.021706	0.31911	0.07322	0.018647	0.16652	-3.0396	-2.9042	-3.1104	-3.3979	-2.7667	-3.3292	-3.4229	-2.7771	-3.5292	-3.0438	-2.925	-3.4896	-2.6312	-3.1125	-3.3625	-2.7646	259.077	31.844	74.071	24.211	270.277	272.157	-6.007	342.262	175.151	110.548	116.422	294.553	48.857	243.101	125.069	279.402	0.0004616	0.00029317	0.00012826	340.26	6.5491e-06	4.081e-06	408.18	135.39	7.0168e-06	7.2915e-06	180.73	71.946	55.137	20.203	4.1698e-06	27.859	0.00080912	0.00094959	0.00026264	474.12	9.0491e-06	1.0633e-05	571.83	187.22	9.1626e-06	1.0749e-05	251.99	94.335	74.398	28.386	9.7957e-06	36.798	298.603	140.802	310.283	-5.451	258.317	138.020	-5.959	0.821	161.997	244.120	-1.541	3.302	5.822	11.340	14.800	7.316	-8191	255	
8765.805	1	1	0	0	0.14788	0.1877	0.10691	0.093406	0.18164	0.124	0.18602	0.21533	0.12525	0.23388	0.18533	0.21467	0.46353	0.18944	0.13878	0.15251	-2.9104	-3.1417	-2.8292	-3.5458	-2.7854	-3.1958	-3.4104	-2.9354	-3.3667	-3.1021	-2.9625	-3.5854	-2.8896	-3.225	-3.3792	-3.0333	147.676	165.861	332.803	231.525	303.727	177.317	34.663	253.139	94.255	279.662	282.205	-8.123	-13.119	199.840	325.060	235.844	0.00075636	0.00035313	0.00021714	338.67	1.3352e-05	3.8831e-06	412.38	136.15	8.0224e-06	3.3667e-06	181.49	72.294	55.766	20.253	5.6221e-06	27.988	0.00082077	0.00094515	0.00023801	463.6	8.9e-06	1.0057e-05	555.03	183.24	9.0126e-06	1.0047e-05	245.12	92.764	74.884	27.954	8.981e-06	36.465	286.559	88.607	325.216	-5.348	189.310	128.073	-5.986	0.938	177.740	54.379	-1.463	3.301	6.038	10.868	337.276	7.456	-8191	255	
8765.926	1	1	0	0	0.093851	0.17691	0.049968	0.1962	0.14667	0.15664	0.17196	0.12429	0.24016	0.13889	0.096459	0.24983	0.11415	0.10504	0.30254	0.17018	-3.0979	-3.3042	-2.8438	-3.3854	-2.975	-3.2375	-3.3271	-3.0042	-3.2646	-3.4375	-2.8521	-3.4854	-3.1063	-3.1521	-3.4208	-2.8354	180.621	222.271	205.909	86.267	-2.376	89.729	6.322	310.136	186.542	60.414	21.178	279.501	323.808	90.297	-13.136	152.993	0.00084747	0.00088041	9.1295e-05	340.22	5.6588e-06	9.1684e-06	413.7	136.92	1.3885e-05	8.9697e-06	181.29	72.207	55.725	20.15	2.9153e-06	27.803	0.0008568	0.00091668	0.00022937	463.53	9.6981e-06	1.0013e-05	555.15	184.65	9.8728e-06	9.9145e-06	244.53	92.931	76.312	27.556	8.6965e-06	36.173	307.354	-4.892	16.559	-5.275	187.055	43.515	-6.071	0.880	167.110	46.409	-1.195	3.318	6.103	10.866	100.546	7.308	-8191	255	
8766.022	1	1	0	0	0.24213	0.18752	0.2352	0.153	0.17311	0.06723	0.098903	0.26066	0.34189	0.17918	0.24381	0.33351	0.05952	0.16971	0.044957	0.026958	-2.9667	-3.3187	-2.7812	-3.4625	-3.1625	-3.0792	-3.4896	-2.7896	-3.0896	-3.4417	-2.8083	-3.4583	-3.2125	-2.8542	-3.5417	-2.9479	-11.973	163.789	231.077	-7.738	285.114	253.423	181.564	284.832	326.383	194.929	103.259	303.188	19.128	29.174	289.134	123.391	0.00058827	0.00060086	0.00010795	340.11	5.0428e-06	5.1414e-06	412.43	137.04	7.3337e-06	3.5299e-06	181.13	71.782	55.662	20.07	2.3044e-06	27.682	0.00088973	0.00085344	0.00021762	461.85	9.8429e-06	9.2398e-06	547.26	184.86	1.0091e-05	9.2874e-06	242.31	93.585	77.117	27.307	8.7949e-06	37.056	315.943	324.817	27.019	-4.994	211.503	101.613	-6.148	1.240	124.970	27.981	-1.299	3.487	5.861	11.009	1.608	7.520	-8191	255	
8766.118	1	1	0	0	0.15697	0.21683	0.22862	0.42407	0.31919	0.12277	0.13509	0.17489	0.33665	0.17951	0.1575	0.071746	0.12474	0.034268	0.21189	0.26236	-2.7438	-3.5125	-2.6104	-3.4333	-3.2854	-2.7896	-3.625	-3.0292	-3.0167	-3.3604	-2.7292	-3.4396	-3.2646	-2.8271	-3.4917	-3.0917	296.125	287.328	38.954	206.289	329.057	224.965	32.502	25.418	214.452	106.551	322.907	177.795	154.210	71.650	112.068	232.050	0.00019494	0.0007031	0.00018306	340.22	9.5184e-06	6.4589e-06	410.8	136.48	6.4236e-06	6.8372e-06	180.79	71.735	55.679	20.085	9.2077e-07	27.732	0.00096166	0.00087243	0.0002298	479.37	1.0626e-05	9.5809e-06	552.65	191.43	1.0488e-05	9.3821e-06	243.76	96.108	77.251	27.272	8.7631e-06	37.862	334.402	324.523	104.921	-5.316	37.058	94.372	-5.951	1.503	338.980	113.606	-1.641	3.658	5.588	11.033	49.705	7.522	-8191	255	
8766.214	1	1	0	0	0.28387	0.33608	0.085615	0.20263	0.039712	0.13687	0.039406	0.083003	0.19129	0.18655	0.20257	0.03451	0.07211	0.28664	0.15978	0.11404	-2.6312	-3.525	-2.7771	-3.4167	-3.3583	-2.7771	-3.5042	-2.9625	-3.1292	-3.3875	-2.8646	-3.1854	-3.4396	-2.7812	-3.5875	-3.1583	236.747	335.348	290.342	213.116	109.046	136.368	121.401	7.452	232.240	186.018	214.595	-16.400	211.327	53.086	238.903	196.323	0.0002359	0.00013272	0.00010301	340.71	8.2602e-06	4.8411e-06	411.66	137.69	6.7427e-06	3.828e-06	180.13	72.025	55.92	20.28	7.2969e-06	27.904	0.00093768	0.00085375	0.00022886	489.8	1.0303e-05	9.4103e-06	554.94	195.32	1.0373e-05	9.5009e-06	247.21	99.3	77.75	27.727	9.7704e-06	39.54	260.211	14.231	6.259	-5.471	20.505	190.471	-5.903	0.970	338.293	173.228	-1.167	3.576	5.670	11.162	197.389	7.352	-8191	255	
8766.311	1	1	0	0	0.10927	0.16912	0.12374	0.12783	0.12457	0.13902	0.048875	0.1409	0.037927	0.35646	0.19516	0.0726	0.13096	0.23876	0.097797	0.20979	-2.4938	-3.6521	-2.7604	-3.1417	-3.3646	-2.725	-3.4688	-3.1021	-2.875	-3.4917	-2.9333	-3.1125	-3.5708	-3.025	-3.3958	-3.1333	172.278	31.093	108.194	6.039	257.142	176.975	280.825	28.983	22.666	331.431	305.970	248.838	3.967	237.851	109.338	244.788	8.8393e-05	0.00036724	0.0001464	340.69	5.5098e-06	3.8966e-06	411.44	136.95	5.1257e-06	3.1095e-06	180.64	72.409	55.656	20.129	1.3533e-05	27.985	0.00096618	0.00089244	0.00025348	503.06	1.0248e-05	9.496e-06	566.75	197.44	9.9968e-06	9.2241e-06	250.84	99.547	76.466	27.507	1.035e-05	39.347	243.139	323.837	104.176	-5.568	7.221	54.388	-5.953	0.910	29.352	77.964	-1.028	3.284	5.675	11.002	186.754	7.484	-8191	255	
8766.407	1	1	0	0	0.31269	0.08333	0.094559	0.15163	0.14827	0.17087	0.24826	0.13509	0.13424	0.31716	0.14117	0.13642	0.16136	0.2415	0.094581	0.082656	-2.5	-3.5396	-2.8917	-2.9854	-3.5563	-3.0187	-3.4854	-3.3417	-2.8771	-3.5479	-3.1229	-3.2938	-3.5729	-2.9625	-3.2792	-3.3146	-7.443	171.568	201.927	38.050	198.730	42.359	181.133	158.366	158.986	137.225	327.332	310.300	217.918	286.478	218.826	283.460	0.0002738	0.00056504	0.0002757	341.06	8.8272e-06	3.9034e-06	408.78	136.19	2.1302e-06	2.3027e-06	178.6	72.787	55.657	20.328	8.8435e-06	27.704	0.0009397	0.00089096	0.00028048	508.72	1.0656e-05	1.0255e-05	592.04	201.77	1.096e-05	1.0378e-05	264.14	101.84	78.286	28.179	1.1996e-05	39.495	316.971	140.691	133.720	-5.377	68.092	153.173	-6.116	0.625	335.101	116.936	-1.289	3.113	6.075	10.915	187.421	7.035	-8191	255	
8766.526	1	1	0	0	0.028122	0.18797	0.28711	0.23798	0.046605	0.23611	0.18345	0.28294	0.21371	0.089426	0.27678	0.30452	0.1655	0.23105	0.17504	0.1433	-2.3396	-3.3333	-2.875	-3.1333	-3.6375	-2.6604	-3.4729	-3.3875	-2.8042	-3.5667	-3.1813	-2.9313	-3.4771	-2.9354	-3.0812	-3.3563	-15.234	177.649	209.110	275.843	179.065	17.747	297.557	24.038	145.979	63.260	90.618	234.529	157.525	334.098	-6.080	218.265	0.00011181	0.00037863	0.00037729	341.52	1.0275e-05	7.3436e-06	412.64	135.73	2.7194e-06	1.9392e-06	179.58	72.456	55.492	20.109	4.7016e-06	27.813	0.00097499	0.00094465	0.0003082	505.22	1.0571e-05	1.0514e-05	603.04	198.62	1.0747e-05	1.0838e-05	269.6	101.01	78.526	28.895	1.3145e-05	39.791	325.065	118.505	115.320	-5.779	46.473	196.866	-5.915	0.789	34.440	188.864	-1.327	3.228	5.644	10.978	17.122	6.904	-8191	255	
8766.622	1	1	0	0	0.14692	0.19793	0.16313	0.29322	0.22654	0.20958	0.080206	0.18848	0.13682	0.1202	0.30296	0.15646	0.12283	0.26885	0.083324	0.23399	-2.3187	-3.5333	-2.9688	-2.8833	-3.6396	-3.0187	-3.0604	-3.4313	-2.875	-3.5438	-3.3292	-2.8625	-3.6625	-3.1937	-3.2354	-3.5646	167.725	2.499	312.276	61.470	304.112	167.177	299.156	4.269	254.473	27.898	252.980	158.807	0.541	5.188	236.960	276.506	0.0002894	0.00092558	5.4826e-05	340.94	5.1449e-06	9.7162e-06	408.89	134.72	2.5117e-06	9.2716e-06	178.84	72.394	55.666	20.253	7.7439e-06	27.996	0.0010202	0.0010647	0.00033535	507.99	1.0916e-05	1.1703e-05	610.09	196.86	1.0671e-05	1.1583e-05	267.64	99.675	77.34	29.268	1.2406e-05	38.951	298.615	110.115	245.585	-6.017	286.371	174.508	-6.177	0.923	195.132	180.985	-1.363	2.927	5.782	11.389	32.598	7.101	-8191	255	
#DATA ENDS
