BOXY.EXE: ISS Imagent and Oximeter Data Acquisition Program Version 0.80
Ascii Record File

#ACQ INFORMATION
2  Detector Channels 
16  External MUX Channels 
1  Auxiliary Channels 
5000  Waveform (CCF) Frequency (Hz)
1  Waveforms Skipped 
30  Waveforms Averaged 
1  Cycles Averaged 
16  Acquisitions per Waveform 
10.0806  Updata Rate (Hz) 

#FILE INFORMATION
TRUE -- External MUX Channel results are PARSED.
FALSE -- AC DC and Phase are NOT grouped.
TRUE -- Companion Program Settings File CREATED.
FALSE -- AC data not excluded
FALSE -- DC data not excluded
FALSE -- Phase data not excluded
FALSE -- Auxillary Chn. data not excluded
Tab delimiters

#CALIBRATION STATE
TRUE -- Waveform Calibration Values APPLIED.


#AUX CALIBRATION VALUES
Val Type	aux-1	

Term	1.0000e+00	
Factor	0.0000e+00	


#WF CALIBRATION VALUES
A = Detector Channel
Val Type	A-AC1	A-AC2	A-AC3	A-AC4	A-AC5	A-AC6	A-AC7	A-AC8	A-AC9	A-AC10	A-AC11	A-AC12	A-AC13	A-AC14	A-AC15	A-AC16	A-DC1	A-DC2	A-DC3	A-DC4	A-DC5	A-DC6	A-DC7	A-DC8	A-DC9	A-DC10	A-DC11	A-DC12	A-DC13	A-DC14	A-DC15	A-DC16	A-Ph1	A-Ph2	A-Ph3	A-Ph4	A-Ph5	A-Ph6	A-Ph7	A-Ph8	A-Ph9	A-Ph10	A-Ph11	A-Ph12	A-Ph13	A-Ph14	A-Ph15	A-Ph16	

Term	0.00000e+00	0.00000e+00	0.00000e+00	0.00000e+00	0.00000e+00	0.00000e+00	0.00000e+00	0.00000e+00	0.00000e+00	0.00000e+00	0.00000e+00	0.00000e+00	0.00000e+00	0.00000e+00	0.00000e+00	0.00000e+00	0.00000e+00	0.00000e+00	0.00000e+00	0.00000e+00	0.00000e+00	0.00000e+00	0.00000e+00	0.00000e+00	0.00000e+00	0.00000e+00	0.00000e+00	0.00000e+00	0.00000e+00	0.00000e+00	0.00000e+00	0.00000e+00	0.00000e+00	0.00000e+00	0.00000e+00	0.00000e+00	0.00000e+00	0.00000e+00	0.00000e+00	0.00000e+00	0.00000e+00	0.00000e+00	0.00000e+00	0.00000e+00	0.00000e+00	0.00000e+00	0.00000e+00	0.00000e+00	
Factor	1.00000e+00	1.00000e+00	1.00000e+00	1.00000e+00	1.00000e+00	1.00000e+00	1.00000e+00	1.00000e+00	1.00000e+00	1.00000e+00	1.00000e+00	1.00000e+00	1.00000e+00	1.00000e+00	1.00000e+00	1.00000e+00	1.00000e+00	1.00000e+00	1.00000e+00	1.00000e+00	1.00000e+00	1.00000e+00	1.00000e+00	1.00000e+00	1.00000e+00	1.00000e+00	1.00000e+00	1.00000e+00	1.00000e+00	1.00000e+00	1.00000e+00	1.00000e+00	X	X	X	X	X	X	X	X	X	X	X	X	X	X	X	X	

B = Detector Channel
Val Type	B-AC1	B-AC2	B-AC3	B-AC4	B-AC5	B-AC6	B-AC7	B-AC8	B-AC9	B-AC10	B-AC11	B-AC12	B-AC13	B-AC14	B-AC15	B-AC16	B-DC1	B-DC2	B-DC3	B-DC4	B-DC5	B-DC6	B-DC7	B-DC8	B-DC9	B-DC10	B-DC11	B-DC12	B-DC13	B-DC14	B-DC15	B-DC16	B-Ph1	B-Ph2	B-Ph3	B-Ph4	B-Ph5	B-Ph6	B-Ph7	B-Ph8	B-Ph9	B-Ph10	B-Ph11	B-Ph12	B-Ph13	B-Ph14	B-Ph15	B-Ph16	

Term	0.00000e+00	0.00000e+00	0.00000e+00	0.00000e+00	0.00000e+00	0.00000e+00	0.00000e+00	0.00000e+00	0.00000e+00	0.00000e+00	0.00000e+00	0.00000e+00	0.00000e+00	0.00000e+00	0.00000e+00	0.00000e+00	0.00000e+00	0.00000e+00	0.00000e+00	0.00000e+00	0.00000e+00	0.00000e+00	0.00000e+00	0.00000e+00	0.00000e+00	0.00000e+00	0.00000e+00	0.00000e+00	0.00000e+00	0.00000e+00	0.00000e+00	0.00000e+00	-2.04314e+02	-1.42203e+02	-1.28168e+02	-1.83188e+02	-8.07192e+01	-9.55538e+01	-1.57235e+02	-1.62015e+02	-9.38696e+01	-7.87754e+01	-1.72586e+02	-1.73078e+02	-1.80462e+02	-1.78286e+02	-1.03677e+02	-1.51187e+02	
Factor	5.12228e-05	5.56067e-05	1.88345e-05	1.95333e-01	6.11813e-07	6.20629e-07	2.43410e-01	8.63391e-02	5.78950e-07	5.10576e-07	1.23214e-01	4.08652e-02	3.29490e-02	1.20693e-02	4.99769e-07	1.77148e-02	2.19044e-07	2.19549e-07	6.10483e-08	8.04949e-02	2.40446e-09	2.40050e-09	9.18355e-02	3.25942e-02	2.40413e-09	2.39780e-09	4.31712e-02	1.43532e-02	1.21673e-02	4.38651e-03	2.40139e-09	6.00466e-03	X	X	X	X	X	X	X	X	X	X	X	X	X	X	X	X	



#DISTANCE SETTINGS
A = Detector Channel
A-1	A-2	A-3	A-4	A-5	A-6	A-7	A-8	A-9	A-10	A-11	A-12	A-13	A-14	A-15	A-16	

2.5000e+00	3.0000e+00	2.5000e+00	3.0000e+00	2.0000e+00	3.0000e+00	1.5000e+00	3.0000e+00	3.0000e+00	3.0000e+00	3.0000e+00	3.0000e+00	3.0000e+00	3.0000e+00	1.5000e+00	3.0000e+00	

B = Detector Channel
B-1	B-2	B-3	B-4	B-5	B-6	B-7	B-8	B-9	B-10	B-11	B-12	B-13	B-14	B-15	B-16	

1.0000e+01	1.0000e+01	1.0000e+01	1.4400e+00	1.0000e+01	1.0000e+01	1.5100e+00	1.9400e+00	1.0000e+01	1.0000e+01	1.9900e+00	2.4900e+00	2.4100e+00	2.9000e+00	1.0000e+01	2.9800e+00	




#DATA BEGINS
time	group	step	mark	flag	A-AC1	A-AC2	A-AC3	A-AC4	A-AC5	A-AC6	A-AC7	A-AC8	A-AC9	A-AC10	A-AC11	A-AC12	A-AC13	A-AC14	A-AC15	A-AC16	A-DC1	A-DC2	A-DC3	A-DC4	A-DC5	A-DC6	A-DC7	A-DC8	A-DC9	A-DC10	A-DC11	A-DC12	A-DC13	A-DC14	A-DC15	A-DC16	A-Ph1	A-Ph2	A-Ph3	A-Ph4	A-Ph5	A-Ph6	A-Ph7	A-Ph8	A-Ph9	A-Ph10	A-Ph11	A-Ph12	A-Ph13	A-Ph14	A-Ph15	A-Ph16	B-AC1	B-AC2	B-AC3	B-AC4	B-AC5	B-AC6	B-AC7	B-AC8	B-AC9	B-AC10	B-AC11	B-AC12	B-AC13	B-AC14	B-AC15	B-AC16	B-DC1	B-DC2	B-DC3	B-DC4	B-DC5	B-DC6	B-DC7	B-DC8	B-DC9	B-DC10	B-DC11	B-DC12	B-DC13	B-DC14	B-DC15	B-DC16	B-Ph1	B-Ph2	B-Ph3	B-Ph4	B-Ph5	B-Ph6	B-Ph7	B-Ph8	B-Ph9	B-Ph10	B-Ph11	B-Ph12	B-Ph13	B-Ph14	B-Ph15	B-Ph16	aux-1	digaux	

751.893	1	1	0	256	0.20083	0.2399	0.13026	0.1941	0.22578	0.023077	0.20629	0.079866	0.21314	0.15607	0.2348	0.085309	0.11286	0.19138	0.078714	0.2252	-4.2	-4.5542	-4.225	-4.9229	-4.5417	-4.3438	-4.8083	-4.4083	-4.4792	-4.7292	-4.1042	-4.725	-4.4396	-4.3021	-4.8479	-4.3042	321.023	304.626	246.850	454.341	305.612	514.258	508.016	433.619	393.833	448.613	429.030	390.519	470.793	528.060	344.978	452.319	0.0011963	0.00019607	2.8856e-05	1414.4	3.9364e-06	2.379e-06	1409.2	400.67	6.9802e-07	2.4223e-06	449.4	148.13	129.87	44.032	2.2612e-06	53.989	9.4254e-05	8.2055e-05	2.1467e-05	1258.4	9.9532e-07	8.8988e-07	1220.4	330.54	9.808e-07	8.8089e-07	357.13	118.48	104.37	35.081	8.444e-07	42.024	485.966	230.571	207.813	186.220	337.171	352.877	185.848	190.523	367.796	316.772	189.869	194.206	194.614	199.600	229.734	198.894	-8191	255	
751.987	1	1	0	0	0.27414	0.11472	0.16138	0.25806	0.10392	0.24926	0.20834	0.35261	0.24627	0.062741	0.043141	0.14671	0.12202	0.15146	0.050281	0.22021	-4.0813	-4.6208	-4.2812	-4.8021	-4.4583	-4.0917	-4.875	-4.425	-4.3562	-4.6667	-4.275	-4.7854	-4.7083	-4.1729	-4.7417	-4.575	524.530	230.176	280.577	197.815	459.911	486.175	469.578	471.175	199.681	375.882	203.622	469.505	189.434	505.783	333.634	429.915	0.001183	0.00015683	9.4285e-05	1419.8	4.0992e-07	2.4469e-06	1410.8	400.63	1.7705e-06	1.7131e-06	450.17	148.33	129.86	43.86	2.9531e-06	53.821	9.0413e-05	8.0187e-05	2.1776e-05	1259.6	9.4557e-07	8.6631e-07	1221.1	330.46	9.2704e-07	8.5671e-07	357.5	118.79	104.08	34.956	8.8306e-07	42.118	487.388	224.906	186.327	186.251	339.326	358.608	185.703	190.487	288.706	350.106	189.890	193.928	194.538	199.591	224.717	198.916	-8191	255	
752.084	1	1	0	0	0.01441	0.42454	0.052477	0.29219	0.062387	0.17073	0.10848	0.057959	0.20278	0.075351	0.036785	0.066133	0.10676	0.10592	0.14623	0.11188	-4.0458	-4.7104	-4.1875	-4.725	-4.5188	-4.0417	-4.8521	-4.5583	-4.4375	-4.7312	-4.3521	-4.6625	-4.6229	-4.0938	-4.65	-4.4729	257.377	357.054	257.885	523.689	410.719	502.061	504.991	233.710	519.777	506.153	210.834	292.744	216.699	469.851	288.216	441.902	0.0011995	0.00021589	3.4787e-05	1415.8	2.6742e-06	3.793e-06	1405.7	400.96	7.0093e-07	1.5419e-06	451.62	148.37	129.91	44.043	2.8144e-06	53.819	8.6814e-05	7.7715e-05	2.2748e-05	1258	9.0489e-07	8.4126e-07	1221.9	331.04	8.9955e-07	8.4091e-07	358.45	118.59	103.85	35.035	9.403e-07	42.097	476.293	257.381	185.748	186.257	296.662	343.979	185.761	190.530	302.448	318.122	190.112	193.899	194.616	199.865	222.419	198.671	-8191	255	
752.204	1	1	0	0	0.14077	0.12081	0.048887	0.15904	0.10124	0.031258	0.093707	0.17207	0.23144	0.015998	0.15544	0.031425	0.055871	0.37971	0.17739	0.088147	-3.8167	-4.5542	-4.2146	-4.5604	-4.5854	-4.0521	-4.7271	-4.4625	-4.1667	-4.8167	-4.3271	-4.4875	-4.8125	-4.1792	-4.6042	-4.6312	321.569	492.844	465.861	519.663	490.032	492.552	318.365	474.262	407.988	347.939	220.937	524.089	185.142	192.953	233.322	310.317	0.0011053	0.00015729	4.6293e-05	1416.6	2.1435e-06	1.4948e-06	1407.5	401.85	1.2547e-06	1.1856e-06	451.4	148.41	129.4	43.791	1.2955e-06	53.426	8.4253e-05	7.6903e-05	2.4426e-05	1258.9	8.869e-07	8.4241e-07	1224.2	330.5	8.7547e-07	8.4127e-07	359.01	118.27	103.72	34.992	9.9184e-07	41.88	478.105	247.342	191.956	186.191	262.685	301.686	185.730	190.445	300.562	284.969	190.071	194.094	194.887	199.870	302.856	198.643	-8191	255	
752.300	1	1	0	0	0.1036	0.0093028	0.15462	0.1651	0.16914	0.088597	0.03444	0.065674	0.10551	0.22207	0.1439	0.059011	0.083761	0.11424	0.27348	0.21171	-3.7562	-4.6438	-4.2625	-4.5417	-4.4333	-4.3896	-4.7667	-4.5375	-4.3146	-4.5687	-4.4896	-4.4208	-4.8875	-4.2438	-4.6917	-4.6333	435.981	477.182	394.125	524.168	335.928	493.799	498.095	503.743	511.960	350.296	528.815	230.304	193.691	450.900	312.983	504.470	0.0011118	0.00028455	3.2658e-05	1412.6	1.0326e-06	1.683e-06	1402	400.43	2.9356e-06	1.1055e-06	448.93	148.43	129.46	43.794	1.1602e-06	53.758	8.3564e-05	7.8453e-05	2.5779e-05	1255.6	8.7782e-07	8.6679e-07	1224	329.77	8.618e-07	8.7184e-07	359.44	118.05	103.54	35.025	9.9431e-07	41.724	481.838	222.577	301.915	186.359	378.122	311.333	185.755	190.566	309.056	313.793	190.000	193.853	194.634	199.665	301.437	198.885	-8191	255	
752.397	1	1	0	0	0.2021	0.053178	0.15315	0.02837	0.075939	0.17522	0.13624	0.13839	0.32059	0.24963	0.094758	0.036503	0.15094	0.14186	0.087297	0.21113	-3.8854	-4.7625	-4.4479	-4.4833	-4.7292	-4.2333	-4.6958	-4.6458	-4.0542	-4.5771	-4.5729	-4.4563	-4.8167	-4.3562	-4.3771	-4.6792	210.353	406.988	310.224	192.456	383.869	241.064	516.499	518.819	353.792	399.713	458.795	205.601	385.214	380.999	400.878	183.057	0.0012598	0.00013871	5.6735e-05	1415.1	1.2164e-06	9.4361e-07	1399.7	400	2.6678e-06	1.3956e-06	451.34	147.51	129.91	43.792	2.2537e-06	53.625	8.0368e-05	8.2681e-05	2.5284e-05	1252.9	8.4253e-07	9.132e-07	1222.2	328.81	8.3869e-07	9.2099e-07	359.45	117.82	103.5	35.152	9.7387e-07	41.647	489.372	220.903	307.295	186.226	325.627	191.120	185.844	190.511	235.478	323.468	189.884	194.066	194.709	199.786	306.868	198.602	-8191	255	
752.493	1	1	0	0	0.090227	0.20567	0.18616	0.16996	0.075399	0.043104	0.037138	0.22877	0.11224	0.27181	0.20637	0.30629	0.25347	0.16555	0.085488	0.1943	-3.7438	-4.6396	-4.6188	-4.1958	-4.6125	-4.1771	-4.6292	-4.7208	-4.0896	-4.8104	-4.5979	-4.1146	-4.8187	-4.3104	-4.3208	-4.7479	191.269	341.819	474.428	484.334	173.964	502.742	430.831	510.960	405.934	203.016	531.135	407.448	436.469	517.525	223.670	527.768	0.0012502	0.00023237	3.4319e-05	1414.8	1.5324e-06	8.9314e-07	1404.3	400.1	2.4151e-06	5.9523e-07	450.1	148.29	129.54	43.79	4.078e-06	53.78	7.9941e-05	8.739e-05	2.4568e-05	1253	8.4409e-07	9.6973e-07	1221	328.51	8.54e-07	9.7402e-07	357.93	117.59	103.44	35.226	9.3381e-07	41.683	475.645	508.090	280.730	186.313	313.534	262.072	185.656	190.677	262.580	182.175	190.027	194.215	194.772	199.815	281.625	198.780	-8191	255	
752.613	1	1	0	0	0.25237	0.077963	0.099229	0.34841	0.030502	0.21663	0.068313	0.13619	0.048226	0.16381	0.089984	0.15352	0.035409	0.15853	0.25021	0.2667	-3.7208	-4.5854	-4.4	-4.35	-4.7312	-4.3083	-4.3313	-4.8417	-4.0563	-4.5417	-4.6354	-4.2021	-4.6875	-4.4896	-4.2125	-4.7333	232.871	393.644	365.147	508.776	512.492	385.684	395.845	254.064	319.514	250.283	480.417	179.753	459.908	213.589	335.501	226.277	0.0012251	0.00010314	9.9193e-05	1411.3	3.0669e-06	8.2752e-07	1400.9	398.93	2.2656e-06	1.5596e-06	447.74	148.29	129.29	43.974	1.368e-06	53.536	8.2751e-05	9.1417e-05	2.3756e-05	1251.4	8.806e-07	1.0042e-06	1219.7	328.05	8.9098e-07	9.988e-07	357.04	117.55	103.65	35.234	9.0704e-07	41.583	475.802	219.705	248.507	186.244	259.639	238.708	185.849	190.386	241.527	298.364	189.998	193.892	194.551	199.914	233.258	198.500	-8191	255	
752.685	1	1	0	0	0.10452	0.20438	0.073987	0.13134	0.090697	0.14218	0.18427	0.26802	0.18517	0.13481	0.25887	0.1828	0.03493	0.1548	0.13535	0.17783	-4.0042	-4.4104	-4.6062	-4.2812	-4.6813	-4.3292	-4.3521	-4.9167	-4.1542	-4.4	-4.6792	-4.275	-4.7104	-4.5354	-4.2729	-4.7833	334.486	274.797	192.821	490.643	237.067	505.103	494.152	507.659	419.980	295.638	525.969	479.467	210.644	451.097	406.572	396.425	0.0014082	9.8488e-05	3.6897e-05	1410.7	2.2878e-06	2.9652e-06	1402.2	399.38	1.471e-06	1.4967e-06	447.7	147.82	129.75	43.748	7.6011e-07	53.749	8.8073e-05	9.1953e-05	2.3133e-05	1250.8	9.5097e-07	1.0042e-06	1217.3	327.97	9.6448e-07	9.9359e-07	357.2	117.55	104.06	35.162	8.9376e-07	41.579	472.647	525.655	262.196	186.194	223.459	308.314	185.788	190.508	194.962	365.355	189.954	194.021	194.613	199.837	341.208	198.750	-8191	255	
752.781	1	1	0	0	0.18712	0.056614	0.0086618	0.079052	0.093466	0.144	0.11054	0.29205	0.087409	0.12085	0.15477	0.18531	0.20122	0.12891	0.28167	0.092978	-3.8542	-4.4917	-4.5667	-4.3	-4.6188	-4.5125	-4.1917	-4.7521	-4.3313	-4.5083	-4.6937	-4.1625	-4.6521	-4.4812	-4.0979	-4.9604	458.863	499.462	472.196	510.474	350.697	505.349	515.510	485.783	238.500	347.733	465.665	390.822	502.559	202.814	382.496	373.793	0.0012231	0.00016824	3.9954e-05	1414	5.0388e-06	2.8925e-06	1401.6	398.67	4.2247e-06	2.6143e-07	448.56	147.65	129.71	43.807	1.3807e-06	53.798	9.4227e-05	8.999e-05	2.2992e-05	1251.8	1.0243e-06	9.9033e-07	1220.1	328.16	1.0372e-06	9.7194e-07	357.09	117.6	104.27	35.131	8.967e-07	41.716	483.505	263.935	277.303	186.034	272.065	327.782	185.665	190.465	233.982	360.341	189.976	193.970	194.645	199.940	275.963	198.936	-8191	255	
752.876	1	1	0	0	0.12473	0.21436	0.1387	0.14326	0.11938	0.096059	0.19157	0.156	0.26692	0.10643	0.069272	0.14395	0.17981	0.25255	0.17915	0.20657	-3.8125	-4.2896	-4.5896	-4.2333	-4.6146	-4.5354	-4.3375	-4.7271	-4.1458	-4.3708	-4.7146	-4.3354	-4.5708	-4.5917	-4.1937	-4.8187	216.699	465.414	505.365	530.795	264.183	342.382	423.798	433.348	420.380	506.496	453.654	504.178	519.666	503.665	404.521	474.213	0.0012757	0.00014289	1.674e-05	1417.6	1.7279e-06	2.7741e-06	1409	399.69	1.1862e-06	1.1638e-06	449.64	147.95	128.99	43.864	1.4013e-06	53.677	9.9165e-05	8.7552e-05	2.2773e-05	1255.9	1.0465e-06	9.5588e-07	1221.5	329.55	1.0569e-06	9.4365e-07	357.13	118.27	104.34	35.108	8.8008e-07	41.857	480.449	353.964	256.311	186.265	306.736	309.381	185.833	190.331	281.340	320.516	190.100	194.232	194.564	199.776	318.779	198.753	-8191	255	
752.996	1	1	0	0	0.17851	0.1948	0.24819	0.27593	0.15728	0.19192	0.27736	0.11498	0.092758	0.027022	0.1915	0.23829	0.28264	0.22669	0.10483	0.1446	-4.0583	-4.2688	-4.6375	-4.3063	-4.4521	-4.6917	-4.325	-4.8021	-4.4625	-4.2167	-4.9458	-4.2021	-4.5333	-4.7167	-4.1438	-4.6854	519.388	262.162	321.775	487.675	457.211	425.351	479.928	506.003	449.384	443.170	182.335	450.904	449.015	482.625	239.242	486.271	0.0012861	2.0785e-05	5.4761e-05	1414.3	2.2425e-06	1.7487e-06	1410.7	399.84	8.2763e-07	4.933e-07	449.42	147.86	129.85	43.853	1.6837e-06	53.669	9.7194e-05	8.4541e-05	2.2114e-05	1257.3	1.0153e-06	9.1157e-07	1220.8	330.14	9.9398e-07	8.8882e-07	356.58	118.38	104.04	35.024	8.5027e-07	42.012	479.901	186.881	259.433	186.189	353.249	206.202	185.761	190.514	204.895	267.066	190.094	194.067	194.884	199.986	238.956	198.760	-8191	255	
753.092	1	1	0	0	0.061014	0.25509	0.13034	0.16923	0.061839	0.074534	0.11322	0.4151	0.19389	0.12255	0.045258	0.090337	0.15386	0.066267	0.098429	0.21106	-4.0354	-4.0875	-4.675	-4.4167	-4.2083	-4.6583	-4.2542	-4.6583	-4.3854	-4.0896	-4.7604	-4.2042	-4.3208	-4.5792	-3.9042	-4.6167	333.673	510.592	430.901	515.193	251.350	285.582	482.961	420.041	284.512	223.206	230.368	495.550	243.203	484.612	421.327	470.266	0.001131	1.7907e-05	0.00010374	1416.3	1.0088e-06	7.5284e-07	1406.8	398.95	1.5849e-06	2.4439e-06	449.16	147.81	129.78	43.841	1.3341e-07	53.896	9.2198e-05	8.0795e-05	2.2011e-05	1258.9	9.6585e-07	8.804e-07	1221.2	330.66	9.6344e-07	8.7744e-07	357.46	118.81	104.01	35.039	9.0431e-07	42.152	484.329	222.812	238.423	186.112	302.712	263.234	185.819	190.516	308.186	240.625	189.915	194.126	194.775	199.734	411.774	198.628	-8191	255	
753.188	1	1	0	0	0.26096	0.13006	0.23844	0.29513	0.1307	0.11938	0.16899	0.098912	0.24637	0.33369	0.11996	0.15341	0.20544	0.03817	0.052601	0.17401	-4.1479	-4.1333	-4.6833	-4.4313	-4.2688	-4.7396	-4.3479	-4.6479	-4.3625	-4.1188	-4.7	-4.4229	-4.475	-4.8792	-4.0979	-4.4583	464.464	355.147	529.044	475.741	198.943	473.674	413.887	186.062	261.962	267.721	516.334	497.438	462.661	384.040	461.208	402.561	0.0010919	0.00014346	4.8945e-05	1418.1	1.8546e-06	2.6357e-06	1412.9	400.25	1.618e-06	1.2216e-06	452.25	148.56	129.48	43.931	6.6003e-07	53.91	8.9521e-05	8.002e-05	2.3113e-05	1262.3	9.3236e-07	8.7202e-07	1225.4	331.59	9.317e-07	8.6781e-07	359.47	118.89	104.09	35.06	9.8596e-07	42.28	477.911	295.017	223.494	186.219	329.415	329.352	185.707	190.769	300.431	338.621	189.852	193.980	194.739	199.652	237.047	198.627	-8191	255	
753.285	1	1	0	0	0.090125	0.14675	0.093108	0.26699	0.25528	0.060576	0.11555	0.25062	0.094079	0.14737	0.062841	0.050902	0.023179	0.13838	0.11808	0.12742	-4.2604	-4.2083	-4.6083	-4.5521	-4.1687	-4.7667	-4.4812	-4.6021	-4.6354	-4.1917	-4.6896	-4.5208	-4.3583	-4.7854	-4.2708	-4.6375	375.020	263.619	238.974	463.307	300.837	251.674	495.801	499.193	387.052	359.353	478.314	193.145	328.648	517.534	340.446	513.114	0.0011036	0.00016439	6.1323e-05	1420.3	2.1264e-06	9.5295e-07	1412.3	400.84	1.5785e-06	4.3194e-07	452.25	148.16	129.86	43.84	2.0077e-06	53.927	8.939e-05	8.1177e-05	2.556e-05	1263.8	9.3572e-07	8.8203e-07	1228.9	331.61	9.3255e-07	8.7998e-07	360.97	118.72	103.88	35.071	1.0233e-06	42.121	485.909	204.179	199.221	186.072	291.351	378.736	185.831	190.625	524.555	340.381	190.138	193.918	194.651	199.915	224.399	198.747	-8191	255	
753.381	1	1	0	0	0.088788	0.19037	0.13986	0.1778	0.16237	0.022061	0.23526	0.066899	0.09131	0.097249	0.17456	0.14225	0.078506	0.16371	0.071381	0.17527	-4.3729	-4.0938	-4.4437	-4.6417	-4.1396	-4.8375	-4.4542	-4.3833	-4.5458	-4.1208	-4.7063	-4.5854	-4.1292	-4.7375	-4.3625	-4.5625	211.225	516.593	291.629	500.152	404.738	374.273	333.419	357.362	218.498	203.322	208.260	466.447	431.931	491.850	521.470	506.654	0.0011122	1.587e-05	4.9027e-05	1420.2	1.2758e-06	1.6168e-06	1414.4	401.42	2.52e-06	6.7751e-07	453.09	148.29	130.27	44.04	2.0785e-06	53.865	8.5498e-05	8.0482e-05	2.5906e-05	1260.7	8.9004e-07	8.8663e-07	1231	331	8.9095e-07	8.9743e-07	361.87	118.53	103.92	35.174	1.0331e-06	41.991	483.454	461.573	192.405	186.263	313.327	242.011	185.699	190.612	314.923	275.793	190.123	193.936	194.673	199.678	289.571	198.668	-8191	255	
753.477	1	1	0	0	0.042546	0.12531	0.024081	0.2927	0.18366	0.075095	0.16585	0.11001	0.20117	0.28949	0.11142	0.23975	0.16763	0.090085	0.157	0.45089	-4.4146	-4.1729	-4.6042	-4.6813	-4.1729	-4.625	-4.525	-4.425	-4.7688	-4.2812	-4.5458	-4.7292	-4.2521	-4.8208	-4.275	-4.2958	515.712	394.152	518.986	473.768	324.650	441.048	173.162	446.466	420.027	487.526	294.966	270.053	353.129	379.485	337.621	472.802	0.0011822	0.00016442	4.5645e-06	1424.1	4.7231e-08	2.4569e-06	1415.2	401.93	2.7862e-06	1.6277e-06	452.91	147.96	130.33	44.067	1.2808e-06	53.806	8.3118e-05	8.4155e-05	2.6121e-05	1261.5	8.6791e-07	9.4201e-07	1233	330.62	8.7322e-07	9.5704e-07	361.58	118.2	103.99	35.344	1.007e-06	41.883	479.689	220.288	510.801	186.125	295.954	280.328	185.623	190.502	262.647	257.751	190.262	194.023	194.567	199.731	315.293	198.731	-8191	255	
753.573	1	1	0	0	0.23788	0.080664	0.097782	0.21536	0.21187	0.24219	0.2379	0.1033	0.14598	0.097141	0.063304	0.1356	0.17504	0.02423	0.22573	0.31721	-4.3479	-4.2292	-4.4979	-4.8875	-4.2042	-4.55	-4.6229	-4.3562	-4.6917	-3.8937	-4.4417	-4.6562	-4.2479	-4.6562	-4.5312	-4.2458	308.298	461.304	294.505	530.026	437.442	476.727	448.741	214.145	175.824	512.543	522.352	510.095	201.539	498.163	225.087	463.384	0.0013262	0.00034292	0.00012701	1424.7	1.5561e-06	8.0853e-07	1412.8	402.54	2.8247e-06	2.5354e-07	451.18	148.42	129.94	44.047	1.5806e-06	53.971	8.0812e-05	8.8983e-05	2.4937e-05	1261.2	8.5927e-07	9.7942e-07	1230.1	330.6	8.5889e-07	9.9877e-07	360.22	118	104.01	35.42	9.6019e-07	42.001	476.656	196.127	315.747	186.247	269.295	267.754	185.793	190.322	303.561	513.540	190.057	194.028	194.651	199.869	297.024	198.933	-8191	255	
753.694	1	1	0	0	0.14161	0.093777	0.060519	0.30656	0.19769	0.061849	0.07521	0.23435	0.14488	0.2755	0.22198	0.1855	0.029438	0.1037	0.1451	0.36149	-4.4292	-4.1375	-4.2083	-4.7021	-4.1375	-4.4333	-4.7021	-4.1687	-4.675	-4.2646	-4.3854	-4.8125	-4.2312	-4.6792	-4.4187	-4.1562	297.800	470.040	245.837	522.612	478.626	490.516	282.675	522.318	192.738	493.370	504.894	517.878	302.007	258.804	322.657	228.869	0.0011912	8.5417e-06	5.695e-05	1427	2.2573e-06	1.6582e-06	1415.9	401.9	3.2897e-06	1.8705e-06	452.11	148.75	130.15	43.978	5.3788e-07	54.06	8.3866e-05	9.3489e-05	2.4237e-05	1261.6	9.0051e-07	1.0278e-06	1230.6	330.48	9.0979e-07	1.0273e-06	360.18	118.08	104.45	35.467	9.2431e-07	42.016	479.173	375.683	262.285	186.320	291.733	264.398	185.842	190.475	254.484	353.656	189.937	194.107	194.714	199.901	315.008	198.807	-8191	255	
753.788	1	1	0	0	0.13621	0.14032	0.097832	0.06967	0.15657	0.06717	0.20347	0.13561	0.11222	0.14189	0.2719	0.077575	0.094062	0.25239	0.18906	0.15999	-4.4187	-4.325	-4.2417	-4.9167	-4.1104	-4.5521	-4.7229	-4.1687	-4.6979	-4.2729	-4.4062	-4.8479	-4.2833	-4.6312	-4.4896	-4.0875	277.105	337.177	198.513	265.568	211.369	176.760	421.747	435.606	495.472	194.802	459.620	232.042	193.490	498.711	195.002	479.928	0.001273	0.00017503	6.1926e-05	1425.5	3.6752e-06	2.0004e-06	1419.1	402.7	3.5109e-06	1.5166e-06	453.02	148.51	130.68	44.248	1.5763e-06	54.502	8.8543e-05	9.3678e-05	2.3194e-05	1263.2	9.6091e-07	1.0113e-06	1232.7	330.53	9.6722e-07	1.0094e-06	359.74	118.03	104.93	35.444	9.0271e-07	42.059	478.028	258.899	217.179	186.172	261.565	309.792	185.774	190.466	232.881	301.794	190.108	193.819	194.624	199.744	322.435	198.618	-8191	255	
753.886	1	1	0	0	0.21036	0.12116	0.22666	0.15598	0.0039361	0.08609	0.28826	0.28686	0.21657	0.057723	0.071787	0.048473	0.15924	0.21114	0.17675	0.22223	-4.3313	-4.3729	-4.1813	-4.7521	-4.2333	-4.4875	-4.7396	-4.3646	-4.5333	-4.5542	-4.2125	-4.8271	-4.3125	-4.4958	-4.7021	-4.3479	515.675	407.334	240.290	473.585	387.210	237.227	490.699	442.576	515.183	236.010	184.863	232.893	227.392	443.198	401.442	320.586	0.0011694	0.00019536	8.2532e-05	1427.9	3.7139e-06	3.3546e-06	1419.5	402.89	2.4573e-06	1.2694e-06	452.19	148.93	130.28	44.256	1.6284e-06	54.246	9.3007e-05	9.0143e-05	2.264e-05	1263.3	9.9199e-07	9.6726e-07	1231.8	331.13	1.0128e-06	9.5221e-07	359.53	118.35	105.15	35.419	8.8107e-07	42.148	481.886	310.988	293.974	186.053	217.995	326.405	185.724	190.486	259.898	425.715	190.303	194.179	194.401	199.853	315.440	198.833	-8191	255	
753.980	1	1	0	0	0.2431	0.15339	0.06818	0.17185	0.14426	0.18473	0.030124	0.024306	0.13867	0.13519	0.41396	0.20025	0.086429	0.066004	0.21813	0.10898	-4.3458	-4.5021	-4.0604	-5.0292	-4.3042	-4.1833	-4.8938	-4.1687	-4.4938	-4.4667	-4.2	-4.7937	-4.3438	-4.3833	-4.725	-4.3104	267.560	332.802	292.189	307.888	410.058	331.352	246.511	245.381	404.810	269.504	521.306	405.340	327.858	302.590	280.052	506.169	0.001187	0.0001338	2.8903e-05	1430.1	9.8068e-07	2.7541e-06	1418.6	402.55	1.2295e-06	1.263e-06	452.89	148.79	130.76	44.29	2.2239e-06	54.232	9.6259e-05	8.5559e-05	2.2247e-05	1267	1.0235e-06	9.2779e-07	1231.4	331.57	1.0094e-06	9.0839e-07	359.22	118.54	105.27	35.362	8.4717e-07	42.202	485.047	246.566	367.297	186.155	468.074	309.620	185.894	190.519	284.362	307.330	190.154	193.862	194.728	199.768	257.530	198.927	-8191	255	
754.077	1	1	0	0	0.090767	0.13629	0.22888	0.16199	0.12424	0.023222	0.10461	0.2424	0.20816	0.092969	0.22042	0.18115	0.18449	0.10135	0.21344	0.11713	-4.1562	-4.5792	-4.1708	-4.8271	-4.2667	-4.1583	-4.8438	-4.2083	-4.5	-4.725	-4.3229	-4.9771	-4.5708	-4.3375	-4.7604	-4.4396	223.814	369.313	402.993	451.807	336.467	331.703	499.922	474.484	420.024	188.432	210.104	516.591	430.979	226.654	456.099	273.330	0.0012371	9.7111e-05	0.00012772	1431.1	1.7792e-06	1.4229e-06	1418.9	403.01	1.6672e-06	1.1678e-06	453.1	149.03	130.39	44.282	2.3951e-06	54.223	9.3874e-05	8.1768e-05	2.1423e-05	1269.9	1.0013e-06	8.9368e-07	1231.6	332.69	9.8978e-07	8.9603e-07	359.6	119.04	105.14	35.358	8.5961e-07	42.452	480.907	297.286	255.728	186.086	387.242	197.845	185.706	190.201	332.091	326.641	190.100	194.209	194.692	199.809	264.373	198.828	-8191	255	
754.173	1	1	0	0	0.15427	0.1776	0.12223	0.2052	0.16081	0.21173	0.15968	0.097537	0.19208	0.073566	0.23934	0.089397	0.15723	0.15422	0.2447	0.079554	-4.1854	-4.7312	-4.0312	-4.7979	-4.5104	-4.1583	-4.7854	-4.2583	-4.4	-4.575	-4.3896	-4.8729	-4.6937	-4.3771	-4.7354	-4.4354	462.655	435.330	206.372	468.229	450.638	240.312	297.973	515.676	240.708	216.981	412.658	282.976	467.741	183.810	431.788	424.532	0.0011361	0.00012886	6.9438e-05	1431.2	2.9951e-06	2.5853e-06	1422.4	403.15	3.0591e-06	2.6361e-06	453.65	149.64	130.06	44.383	3.0642e-06	54.347	9.2317e-05	8.1164e-05	2.1812e-05	1271.4	9.6258e-07	8.6453e-07	1231.6	332.77	9.378e-07	8.5285e-07	359.39	119.26	104.6	35.275	8.659e-07	42.49	485.948	365.109	232.166	186.185	378.505	318.752	185.526	190.452	294.640	363.327	189.855	194.164	194.863	200.028	244.098	198.869	-8191	255	
754.293	1	1	0	0	0.073899	0.13867	0.14903	0.1118	0.10012	0.13452	0.22689	0.10149	0.22962	0.048557	0.12611	0.32676	0.19273	0.16703	0.16011	0.11866	-4.1104	-4.6792	-4.1562	-4.7271	-4.4729	-4.1896	-4.925	-4.3333	-4.5083	-4.8125	-4.2458	-4.5625	-4.5979	-4.2979	-4.7667	-4.5771	405.225	197.764	457.888	177.529	225.247	400.096	438.486	309.021	266.821	513.631	481.865	236.496	277.393	215.088	275.683	326.098	0.0011119	0.00018599	9.3269e-05	1430.6	2.1363e-06	2.311e-06	1418.6	403.76	4.1931e-06	8.506e-07	453.96	148.99	130.75	44.269	2.7289e-06	54.345	8.7195e-05	7.8395e-05	2.269e-05	1270.6	9.2361e-07	8.6761e-07	1232.6	333.69	9.238e-07	8.6045e-07	361.02	119.31	104.79	35.253	9.2875e-07	42.514	484.292	251.810	241.251	186.283	289.109	279.685	185.776	190.412	280.125	316.671	189.971	193.881	194.705	199.755	203.792	198.501	-8191	255	
754.389	1	1	0	0	0.12274	0.076494	0.1285	0.13201	0.15211	0.076811	0.10054	0.06815	0.18797	0.054664	0.33023	0.093582	0.12144	0.15252	0.14014	0.036198	-3.9313	-4.7396	-4.0417	-4.6312	-4.5646	-4.0312	-4.8458	-4.5583	-4.2354	-4.7167	-4.2937	-4.3708	-4.7708	-4.1917	-4.5708	-4.45	528.092	376.255	350.070	530.837	422.837	302.061	407.489	526.803	375.437	487.367	457.845	325.926	468.555	279.509	500.398	217.060	0.0012733	0.00011642	5.6546e-05	1431	2.2506e-06	2.4173e-06	1423.8	402.33	1.1798e-06	2.4615e-06	453.02	149.22	130.78	44.188	1.4686e-06	54.536	8.4581e-05	7.6062e-05	2.3597e-05	1270.8	8.7764e-07	8.2518e-07	1234.2	332.24	8.5197e-07	8.0935e-07	361.13	118.85	104.36	35.184	9.3634e-07	42.334	480.247	275.477	183.341	186.199	289.280	300.348	185.601	190.512	345.476	306.275	189.980	194.006	194.601	199.768	239.415	198.567	-8191	255	
754.486	1	1	0	0	0.19954	0.13498	0.44952	0.087537	0.21812	0.010128	0.17683	0.1272	0.18711	0.16492	0.082797	0.090472	0.074698	0.19889	0.14119	0.10891	-3.9125	-4.8083	-4.2042	-4.4958	-4.7583	-4.2333	-4.6292	-4.6	-4.0792	-4.7812	-4.3771	-4.4083	-4.7396	-4.2063	-4.7333	-4.5583	524.514	484.503	220.106	530.404	228.692	391.174	421.068	514.393	359.539	290.366	458.899	396.143	213.376	472.426	455.955	510.653	0.0011418	0.00011777	2.1125e-05	1428.2	3.2093e-06	8.094e-07	1415.9	403.49	2.5001e-06	6.0015e-07	453.19	148.87	131.12	44.43	2.174e-06	54.213	7.9405e-05	7.4121e-05	2.4081e-05	1265.8	8.2768e-07	8.1502e-07	1233.1	331.33	8.2159e-07	8.2488e-07	361.58	118.55	104.49	35.289	9.6319e-07	42.185	483.239	240.203	371.924	186.040	287.856	262.961	185.716	190.406	277.793	234.222	190.098	193.997	194.561	199.824	270.923	198.869	-8191	255	
754.557	1	1	0	0	0.12752	0.10347	0.17227	0.038655	0.030679	0.25288	0.12643	0.13892	0.13607	0.20894	0.040782	0.10928	0.16802	0.17104	0.25898	0.26676	-3.9354	-4.6417	-4.4104	-4.4771	-4.8833	-4.2292	-4.5875	-4.8562	-4.0646	-4.675	-4.5021	-4.3896	-4.7333	-4.3396	-4.4292	-4.8438	330.450	482.033	400.086	236.806	505.736	493.063	402.935	236.842	359.676	222.921	511.284	252.024	501.806	186.312	503.797	359.337	0.0011147	0.00024707	4.4277e-05	1429	3.7054e-06	1.0471e-06	1420.6	401.59	1.9432e-06	1.0117e-06	453.95	149.17	130.66	44.17	2.0052e-06	54.392	7.7871e-05	7.807e-05	2.4338e-05	1263.5	8.1427e-07	8.6861e-07	1233.8	330.36	8.0577e-07	8.7392e-07	361.05	118.28	104.24	35.337	9.3332e-07	42.073	485.559	215.428	301.205	186.184	301.341	269.804	185.681	190.512	287.816	334.731	190.130	194.071	194.547	199.857	337.147	198.694	-8191	255	
754.678	1	1	0	0	0.32812	0.069804	0.044596	0.17943	0.098561	0.2102	0.12127	0.27052	0.15734	0.18973	0.16465	0.18095	0.014994	0.18362	0.17623	0.1862	-3.8688	-4.5979	-4.3667	-4.4771	-4.7396	-4.2562	-4.6271	-4.7375	-4.1333	-4.6979	-4.3875	-4.2146	-4.8167	-4.3833	-4.3271	-4.7083	267.423	395.514	403.243	467.401	403.942	177.483	475.426	411.499	366.495	438.404	531.276	486.007	448.599	504.906	368.919	364.977	0.0012724	0.00023063	0.00014538	1430.1	1.5846e-06	2.8375e-06	1414.4	402.84	7.8305e-07	2.3046e-06	453.18	149.15	130.98	44.384	5.2893e-07	54.504	7.7101e-05	8.2085e-05	2.3626e-05	1263.4	7.963e-07	9.148e-07	1230.8	330.49	7.9767e-07	9.2244e-07	360.48	118.03	104.35	35.458	9.0238e-07	42.106	477.116	202.088	277.515	186.353	301.371	203.303	185.806	190.456	233.036	273.784	190.164	194.151	194.576	199.798	327.780	198.925	-8191	255	
754.774	1	1	0	0	0.22489	0.21519	0.14432	0.23975	0.10205	0.16045	0.098367	0.12828	0.20982	0.090566	0.028638	0.24584	0.27384	0.065225	0.13877	0.08052	-3.8292	-4.6771	-4.4521	-4.3375	-4.6625	-4.2708	-4.4521	-4.9896	-4.2167	-4.7271	-4.5813	-4.3375	-4.8333	-4.45	-4.4375	-4.8792	438.689	394.373	450.900	507.054	365.789	301.390	397.091	409.141	275.761	249.928	389.717	523.312	197.087	502.095	531.435	279.366	0.0012068	0.00011841	6.0442e-05	1427.3	3.8627e-06	3.0885e-06	1414.4	402.76	2.0849e-06	9.5509e-07	451.46	148.65	130.86	44.188	1.7006e-06	54.514	7.8578e-05	8.7316e-05	2.2762e-05	1263.3	8.3687e-07	9.5654e-07	1231.4	330.35	8.489e-07	9.486e-07	359.81	117.97	104.36	35.427	8.6685e-07	42.014	481.251	230.975	257.737	186.088	264.724	304.985	185.826	190.415	225.421	317.528	190.153	194.264	194.536	199.663	284.945	198.808	-8191	255	
754.868	1	1	0	0	0.10166	0.0963	0.15143	0.20023	0.11482	0.15137	0.3615	0.19016	0.18781	0.1493	0.15334	0.034597	0.11489	0.24411	0.17331	0.14181	-3.9646	-4.575	-4.5271	-4.2708	-4.6937	-4.3625	-4.3854	-4.725	-3.9229	-4.3688	-4.6188	-4.1813	-4.6958	-4.5104	-4.3125	-4.8646	293.227	220.274	440.568	477.354	340.234	442.628	432.941	209.261	430.106	504.806	360.908	400.432	468.047	177.878	479.747	208.244	0.0011407	4.47e-05	6.6133e-05	1428.3	2.4372e-06	1.5746e-06	1421.5	403.42	2.5498e-06	1.5212e-06	453.97	148.94	130.52	44.22	8.5082e-07	54.371	8.2885e-05	8.7202e-05	2.1875e-05	1262.5	8.8289e-07	9.4657e-07	1229.3	330.43	8.9885e-07	9.4023e-07	359.18	118.04	104.77	35.447	8.6736e-07	42.072	477.240	265.382	330.998	186.028	252.888	289.359	185.847	190.522	244.569	363.179	190.039	194.120	194.656	199.888	195.035	198.948	-8191	255	
754.966	1	1	0	0	0.16015	0.11369	0.10997	0.13784	0.1861	0.17423	0.23434	0.15699	0.31385	0.15541	0.012256	0.17872	0.44685	0.2081	0.22331	0.148	-3.9	-4.4833	-4.7979	-4.2917	-4.5625	-4.3479	-4.1458	-4.8604	-4.2917	-4.2771	-4.8812	-4.1354	-4.5854	-4.525	-4.1292	-4.7417	427.894	382.011	407.638	438.010	390.887	365.649	519.510	461.548	436.381	292.535	403.752	283.636	203.932	453.857	274.864	482.044	0.001217	6.4076e-05	5.7055e-05	1428.1	2.3306e-06	1.8003e-06	1418.4	404.36	5.9854e-07	1.7282e-06	453.43	148.32	130.83	44.252	2.0059e-06	54.464	8.9451e-05	8.5637e-05	2.171e-05	1263.9	9.4012e-07	9.2104e-07	1229.9	330.68	9.5457e-07	9.1463e-07	359.18	118.04	105.14	35.356	8.3837e-07	42.122	479.423	284.074	245.083	186.216	275.736	344.392	185.814	190.598	260.435	366.228	189.991	194.135	194.759	199.635	310.254	198.669	-8191	255	
755.085	1	1	0	0	0.10438	0.061414	0.11361	0.13813	0.21938	0.11457	0.44465	0.23319	0.15083	0.14598	0.081799	0.16745	0.1508	0.23414	0.22164	0.058208	-3.9938	-4.4208	-4.7438	-4.1958	-4.55	-4.5375	-4.3208	-4.7771	-4.3917	-4.2833	-4.7229	-4.2708	-4.5229	-4.7292	-4.1021	-4.8063	470.073	410.627	296.967	232.994	347.512	274.074	413.807	185.770	230.044	475.243	389.728	282.927	445.270	268.735	205.490	502.218	0.0012128	0.00028046	5.9922e-05	1425.2	1.6419e-06	2.0001e-06	1422.9	403.58	1.0475e-06	2.2218e-06	454.02	148.62	130.74	44.188	8.911e-07	54.457	9.2669e-05	8.2573e-05	2.1123e-05	1264.2	9.6267e-07	8.7879e-07	1231	331.01	9.721e-07	8.7128e-07	359.13	118.33	105.11	35.26	8.1725e-07	42.183	480.321	245.101	276.696	186.214	273.445	276.921	185.794	190.488	332.712	321.116	189.946	193.869	194.730	199.874	314.038	198.670	-8191	255	
755.157	1	1	0	0	0.20404	0.17653	0.096773	0.069604	0.10609	0.23601	0.080906	0.29939	0.19466	0.16668	0.11191	0.1054	0.26426	0.31049	0.20238	0.14171	-4.0667	-4.4583	-4.7896	-4.2479	-4.5479	-4.6271	-4.2333	-4.7937	-4.3917	-4.1562	-4.8271	-4.4437	-4.5458	-4.7771	-4.1438	-4.6896	250.589	298.690	283.976	426.394	311.187	520.921	450.014	396.719	472.457	303.749	469.166	523.364	502.772	499.213	382.631	197.264	0.00123	7.9832e-05	5.9321e-05	1433.8	1.8891e-06	2.8613e-06	1418.7	403.02	2.7976e-06	3.5678e-07	452.92	148.91	130.64	44.223	2.1954e-06	54.317	9.1313e-05	7.8814e-05	2.0705e-05	1267.8	9.5382e-07	8.5176e-07	1228	331.51	9.5001e-07	8.4469e-07	358.83	118.73	105.05	35.249	8.0991e-07	42.402	482.244	277.062	278.341	186.154	335.169	326.492	185.835	190.426	309.542	300.629	189.761	193.984	194.766	199.568	244.884	198.741	-8191	255	
755.253	1	1	0	0	0.32396	0.07649	0.062207	0.14485	0.045578	0.12159	0.0039487	0.20166	0.11867	0.14202	0.058568	0.1984	0.1047	0.13559	0.083817	0.21757	-4.1979	-4.1417	-4.7063	-4.35	-4.4688	-4.5792	-4.2708	-4.6896	-4.4271	-4.3042	-4.8396	-4.2771	-4.3708	-4.7271	-4.1771	-4.6667	199.851	362.191	474.614	516.470	430.175	335.446	212.482	182.100	206.630	378.862	427.072	321.786	419.678	399.172	380.208	433.121	0.0011954	0.00016613	8.0448e-05	1429.7	3.0559e-06	9.0104e-07	1415	403.38	9.4797e-07	1.6437e-06	453.21	148.87	130.6	44.363	2.5801e-07	54.427	8.8267e-05	7.7606e-05	2.0652e-05	1268.5	9.2499e-07	8.4402e-07	1229.1	332.2	9.1924e-07	8.4391e-07	359.16	119.03	104.93	35.286	8.5966e-07	42.514	476.262	248.032	279.064	186.121	293.601	269.035	185.632	190.436	297.451	341.521	190.169	194.329	194.740	199.775	461.113	198.667	-8191	255	
755.374	1	1	0	0	0.11256	0.15786	0.17611	0.25334	0.11851	0.31098	0.1259	0.30037	0.079587	0.11701	0.10595	0.15626	0.042902	0.16355	0.16458	0.10491	-4.2458	-4.1542	-4.6292	-4.425	-4.2667	-4.7479	-4.2021	-4.6062	-4.5479	-4.0813	-4.7583	-4.4375	-4.2646	-4.8688	-4.2667	-4.5271	291.666	219.275	344.109	472.888	219.458	522.170	407.412	514.506	516.458	423.478	419.137	406.467	488.638	467.944	502.396	393.164	0.0010462	0.00014544	4.559e-05	1427.1	1.2084e-06	2.9841e-07	1417.8	402.79	1.2743e-06	1.3839e-06	454.41	149.24	130.54	44.235	2.9793e-06	54.276	8.6478e-05	7.8137e-05	2.2195e-05	1270.9	9.0451e-07	8.3392e-07	1232.3	332.73	8.8678e-07	8.3278e-07	360.33	119.16	104.65	35.222	9.1626e-07	42.456	483.226	288.060	253.506	186.249	349.138	210.349	185.645	190.535	278.039	360.567	190.110	194.204	194.616	199.832	215.163	198.545	-8191	255	
755.470	1	1	0	0	0.23049	0.29172	0.28901	0.24764	0.17221	0.05087	0.053986	0.11907	0.072088	0.14461	0.23731	0.2481	0.10404	0.38753	0.22188	0.071561	-4.3833	-4.2146	-4.7667	-4.5417	-4.1896	-4.5542	-4.3375	-4.4792	-4.5271	-4.3271	-4.825	-4.5146	-4.3583	-4.8104	-4.4	-4.6438	347.809	450.078	266.813	177.159	522.527	191.282	462.132	207.078	438.448	271.754	382.773	372.254	201.716	518.366	518.373	489.388	0.0011707	0.00017349	4.9918e-05	1431.5	1.5597e-06	3.3772e-06	1424.9	404.68	5.8656e-07	9.6483e-07	453.89	149.15	130.77	44.099	2.3918e-06	54.362	8.4208e-05	7.6307e-05	2.3484e-05	1270.7	8.8365e-07	8.2433e-07	1236	332.92	8.7397e-07	8.3146e-07	361.65	118.94	104.73	35.238	9.7951e-07	42.497	475.599	233.517	283.503	186.109	199.133	288.774	185.770	190.538	468.929	453.940	190.258	194.597	194.454	199.875	220.819	199.094	-8191	255	
755.566	1	1	0	0	0.09655	0.087456	0.096065	0.11785	0.083985	0.069395	0.32694	0.24753	0.30813	0.21628	0.09092	0.12988	0.29413	0.19981	0.013753	0.056239	-4.3208	-4.1521	-4.475	-4.5813	-3.975	-4.6125	-4.35	-4.4979	-4.6542	-4.0708	-4.6396	-4.55	-4.2438	-4.7937	-4.3396	-4.4271	432.846	255.482	325.308	444.261	311.735	448.092	434.177	487.117	370.376	179.394	521.356	484.705	188.189	484.542	251.233	346.982	0.0013121	0.00020985	0.00012006	1433.5	9.9486e-07	1.8925e-06	1419.3	403.51	2.173e-06	1.1091e-06	454.05	148.75	130.88	44.091	1.799e-06	54.399	8.2382e-05	7.7269e-05	2.4654e-05	1269.6	8.645e-07	8.3596e-07	1237.6	332.62	8.4939e-07	8.5651e-07	362.49	118.74	104.54	35.261	9.9337e-07	42.34	487.172	256.103	246.144	186.215	333.023	213.925	185.779	190.565	301.500	173.066	190.119	193.989	194.476	199.807	292.763	198.749	-8191	255	
755.687	1	1	0	0	0.03081	0.090625	0.17561	0.10013	0.032449	0.063683	0.072451	0.046416	0.1551	0.16627	0.072533	0.051387	0.04406	0.12794	0.067552	0.10597	-4.5125	-4.2146	-4.6375	-4.7104	-4.2188	-4.7292	-4.5583	-4.4875	-4.6937	-4.2	-4.6687	-4.7729	-4.2083	-4.7771	-4.3167	-4.2812	306.777	271.108	231.187	327.160	523.270	258.926	453.188	432.126	338.972	501.058	220.716	531.768	401.851	487.863	279.490	196.693	0.0010867	6.6474e-05	8.0897e-05	1433.2	9.7558e-07	6.2468e-07	1424	403.95	1.6294e-06	1.2662e-06	454.74	149.67	131	44.302	2.3752e-06	54.587	8.1301e-05	8.1113e-05	2.5264e-05	1269.1	8.5023e-07	8.8987e-07	1239.2	331.88	8.3322e-07	8.996e-07	362.64	118.56	104.53	35.402	9.6262e-07	42.278	481.071	198.179	379.396	186.175	237.584	271.489	185.737	190.560	297.543	253.144	189.989	194.140	194.458	199.836	320.905	198.722	-8191	255	
755.783	1	1	0	0	0.19862	0.17045	0.16213	0.036738	0.18958	0.098003	0.19499	0.1599	0.064966	0.15465	0.27907	0.185	0.2703	0.20761	0.029185	0.28919	-4.3792	-4.2771	-4.4583	-4.8271	-4.0625	-4.6083	-4.5771	-4.2646	-4.65	-4.225	-4.475	-4.6104	-4.1979	-4.6958	-4.3646	-4.2104	272.279	342.876	421.878	494.796	314.816	186.520	526.598	474.985	200.506	479.081	363.628	481.457	499.483	482.856	240.496	526.709	0.0011345	0.0002141	5.5439e-05	1431.8	2.1136e-06	2.3256e-06	1425.3	404.04	2.2831e-06	2.2843e-06	455.02	149.45	131.39	44.309	1.325e-06	54.378	7.7997e-05	8.5154e-05	2.4115e-05	1268.6	8.3165e-07	9.3519e-07	1237.8	331.74	8.2422e-07	9.537e-07	361.21	118.45	104.68	35.491	9.279e-07	42.196	485.023	209.978	267.460	186.197	305.076	243.617	185.766	190.650	224.216	264.063	189.926	194.104	194.752	199.874	292.934	198.568	-8191	255	
755.854	1	1	0	0	0.050365	0.041709	0.091275	0.22807	0.07369	0.098796	0.20455	0.125	0.18629	0.18111	0.32058	0.10229	0.060134	0.21233	0.047982	0.077006	-4.4354	-4.2333	-4.3021	-4.8167	-4.1729	-4.6625	-4.7292	-4.1188	-4.6375	-4.4062	-4.3938	-4.7479	-4.1896	-4.6354	-4.7125	-4.3396	238.249	199.091	435.378	525.895	388.590	327.628	450.662	415.245	482.625	408.948	501.126	446.027	246.097	473.399	420.787	484.270	0.0011962	6.9207e-05	9.1505e-05	1430.8	1.8129e-06	1.9242e-06	1427.2	404.52	3.7768e-06	1.4534e-07	454.43	148.93	131.31	44.245	2.5643e-06	54.482	7.9667e-05	8.9009e-05	2.3613e-05	1267.4	8.6596e-07	9.9205e-07	1239.7	332.03	8.7394e-07	1.0107e-06	361.75	118.46	105.13	35.599	9.1438e-07	42.29	480.860	200.374	306.066	186.059	273.862	213.523	185.815	190.590	235.018	360.076	190.152	194.224	194.639	199.773	300.930	198.862	-8191	255	
755.973	1	1	0	0	0.19969	0.22381	0.059636	0.12074	0.14818	0.28459	0.21398	0.24591	0.12455	0.05249	0.25247	0.16659	0.19922	0.079093	0.14949	0.15879	-4.3021	-4.3292	-4.2167	-4.9313	-4.075	-4.5667	-4.7042	-4.2396	-4.7167	-4.3063	-4.3125	-4.875	-4.5229	-4.4958	-4.6062	-4.0604	343.450	361.922	304.538	347.232	300.467	482.295	476.282	515.730	465.997	189.950	438.315	462.907	393.982	471.833	437.525	320.909	0.0013226	0.0002901	6.4572e-05	1437	3.7816e-06	2.2482e-06	1425.9	403.49	3.1644e-06	7.9236e-07	455.27	149.14	131.44	44.54	1.3825e-06	54.83	8.5987e-05	9.1746e-05	2.3012e-05	1272.3	9.2389e-07	9.9783e-07	1238.5	331.77	9.1896e-07	9.7803e-07	361.47	118.53	105.24	35.551	8.6706e-07	42.349	477.022	214.366	265.953	186.063	229.475	318.499	185.807	190.601	248.609	346.249	190.095	194.136	194.346	199.720	262.751	198.894	-8191	255	
756.070	1	1	0	0	0.17695	0.08127	0.19514	0.15304	0.074769	0.20996	0.16833	0.020644	0.13438	0.16821	0.020203	0.1624	0.19123	0.2295	0.10432	0.11214	-4.3333	-4.3458	-4.2542	-4.8938	-4.2958	-4.4563	-4.6625	-4.2917	-4.5687	-4.4792	-4.2979	-4.7583	-4.3187	-4.3479	-4.6771	-4.25	337.929	457.425	486.345	206.128	502.813	269.451	423.602	531.519	282.375	291.871	193.161	413.392	470.000	411.630	491.499	388.463	0.001202	0.00021428	5.1806e-05	1437.8	2.6951e-06	1.9375e-06	1425.9	404.85	2.2555e-06	2.5688e-06	456	149.16	131.34	44.326	1.1542e-06	54.775	8.9395e-05	8.8067e-05	2.2326e-05	1270	9.6238e-07	9.4643e-07	1237.1	331.92	9.7222e-07	9.4235e-07	361.14	118.42	105.64	35.536	8.6094e-07	42.402	480.208	295.762	321.523	186.102	215.829	286.662	185.724	190.585	260.855	316.824	190.163	194.064	194.803	199.741	341.112	198.804	-8191	255	
756.166	1	1	0	0	0.16386	0.046146	0.062703	0.2861	0.041851	0.28748	0.18964	0.33312	0.09544	0.19993	0.066576	0.041319	0.15546	0.092698	0.11291	0.16554	-4.2646	-4.5417	-4.3187	-4.9521	-4.1312	-4.3021	-4.8354	-4.2417	-4.4979	-4.5229	-4.2937	-4.8354	-4.5458	-4.4125	-4.7521	-4.2583	243.898	396.655	492.721	470.079	489.001	486.582	186.519	460.414	530.146	343.475	382.409	347.829	489.825	389.710	179.001	511.427	0.0013579	0.00029375	6.8937e-05	1442.1	4.5103e-06	1.1928e-06	1429.3	404.24	7.731e-07	2.4775e-06	457.59	149.85	131.66	44.24	1.5019e-06	54.829	9.3725e-05	8.5244e-05	2.2175e-05	1274.5	1.0115e-06	9.2796e-07	1239.1	332.69	1.016e-06	9.2944e-07	361.91	119.23	106.11	35.507	8.8033e-07	42.621	481.291	278.432	254.015	186.233	284.927	271.743	185.773	190.455	270.523	337.589	189.937	194.179	194.647	199.921	212.385	198.847	-8191	255	
756.262	1	1	0	0	0.08815	0.29349	0.16099	0.41158	0.30151	0.039166	0.19993	0.15029	0.14611	0.10355	0.12272	0.21281	0.077888	0.19519	0.056869	0.22072	-4.0687	-4.6	-3.9083	-4.7625	-4.4104	-4.2937	-4.8167	-4.2646	-4.4771	-4.7333	-4.3063	-4.725	-4.4625	-4.3021	-4.7021	-4.2917	279.447	199.254	457.896	519.449	490.373	278.996	511.308	530.057	210.019	479.789	219.068	273.971	513.355	448.733	456.337	420.690	0.0010514	0.00023408	7.91e-05	1441.8	2.206e-06	2.0688e-06	1432.8	406.38	2.0025e-06	1.8803e-06	456.83	150.08	131.84	44.388	1.9268e-06	54.688	9.793e-05	8.5512e-05	2.2434e-05	1279.6	1.0305e-06	9.2424e-07	1242.9	334.68	1.0219e-06	9.0909e-07	361.89	119.84	106.02	35.532	8.6794e-07	42.749	484.472	283.992	270.050	186.048	342.597	314.241	185.659	190.370	278.803	350.819	190.045	194.086	194.693	199.622	258.795	198.512	-8191	255	
756.382	1	1	0	0	0.041332	0.15794	0.22115	0.20054	0.2026	0.057479	0.13798	0.37241	0.080058	0.29464	0.26057	0.078111	0.13562	0.27537	0.11219	0.13445	-4.175	-4.6167	-3.9938	-4.6	-4.3958	-4.1125	-4.7917	-4.3396	-4.2979	-4.675	-4.1479	-4.6625	-4.5021	-4.2438	-4.7146	-4.3146	232.357	335.076	421.955	431.816	418.808	415.793	464.958	477.514	217.148	482.478	469.502	498.156	481.177	453.680	531.662	469.870	0.0010316	0.00019189	8.8657e-05	1442.7	1.7792e-06	2.1575e-06	1435.5	406.41	2.2837e-06	5.4786e-07	457.25	149.79	131.81	44.512	4.5352e-07	54.862	9.4007e-05	8.181e-05	2.2105e-05	1281.2	9.803e-07	8.9166e-07	1243.2	334.92	9.6998e-07	8.7798e-07	362.25	119.91	105.77	35.438	8.7304e-07	42.856	479.318	272.461	266.266	186.280	286.046	311.395	185.927	190.268	271.641	324.606	190.062	194.182	194.625	199.834	403.805	198.965	-8191	255	
756.454	1	1	0	0	0.021175	0.11511	0.25754	0.24757	0.11906	0.090678	0.28966	0.19458	0.29285	0.2573	0.29401	0.10007	0.034627	0.19554	0.10846	0.19397	-3.8896	-4.675	-4.1771	-4.4563	-4.4625	-4.0771	-4.8938	-4.4271	-4.2521	-4.5604	-4.275	-4.6792	-4.6625	-4.2396	-4.6958	-4.4292	480.288	506.424	308.682	480.002	467.602	475.091	504.547	176.558	177.198	456.195	516.389	309.593	446.983	515.682	234.719	504.621	0.0011347	0.00012983	9.0974e-05	1441.4	1.8747e-06	1.262e-06	1437.5	407.6	1.3881e-06	1.4147e-06	457.14	149.68	131.81	44.321	1.841e-06	54.846	8.8934e-05	7.8944e-05	2.2722e-05	1282.6	9.2897e-07	8.6153e-07	1244.7	335.42	9.2411e-07	8.503e-07	363.17	119.85	105.6	35.402	9.2476e-07	42.837	478.357	255.938	192.813	186.204	289.529	361.048	185.742	190.562	255.721	330.584	190.128	194.400	194.749	199.826	229.071	198.780	-8191	255	
756.550	1	1	0	0	0.10225	0.055576	0.1462	0.1664	0.045826	0.10838	0.14911	0.06018	0.2162	0.12781	0.095536	0.057486	0.22973	0.13443	0.14873	0.088563	-3.8229	-4.6021	-4.1646	-4.6833	-4.6188	-4.2208	-4.8667	-4.6854	-4.2458	-4.8021	-4.2812	-4.4375	-4.9313	-4.1375	-4.5917	-4.4729	261.223	497.667	300.480	418.908	325.183	256.411	174.794	433.083	436.505	505.601	495.419	287.702	505.444	480.790	371.310	468.191	0.0012451	0.00012367	5.4035e-05	1444.5	1.6289e-06	1.0011e-06	1434.6	405.61	1.8223e-06	6.0509e-07	457.02	150	131.8	44.621	1.4216e-06	54.748	8.7038e-05	7.7749e-05	2.4264e-05	1284	9.0316e-07	8.5612e-07	1248	334.86	9.0283e-07	8.3828e-07	364.32	119.72	105.43	35.447	9.7078e-07	42.702	482.611	316.632	177.515	186.183	298.820	293.147	185.610	190.414	234.199	360.971	190.136	194.226	194.760	199.805	224.846	198.874	-8191	255	
756.646	1	1	0	0	0.18359	0.1093	0.069512	0.20835	0.17175	0.18825	0.10916	0.15986	0.23377	0.043026	0.16188	0.11666	0.16911	0.03743	0.081413	0.19807	-3.8792	-4.8021	-4.2396	-4.5146	-4.7167	-4.275	-4.6354	-4.5604	-4.3667	-4.6708	-4.5167	-4.5479	-4.8167	-4.1937	-4.4875	-4.6	273.720	219.749	417.170	187.398	486.303	318.674	182.658	466.623	245.720	270.852	207.567	435.399	175.595	497.160	413.268	492.354	0.0010389	0.00011165	7.2861e-05	1441.7	1.1783e-06	7.4935e-07	1435.8	406.06	2.1985e-06	1.628e-06	455.83	150.19	131.95	44.438	1.0006e-06	54.865	8.3325e-05	7.6792e-05	2.4722e-05	1279.4	8.52e-07	8.3888e-07	1247.7	334.03	8.6013e-07	8.4529e-07	364.7	119.48	105.34	35.413	9.9236e-07	42.618	472.679	306.530	215.263	186.033	307.831	286.988	185.693	190.354	315.546	314.941	190.059	194.201	194.569	199.545	257.156	198.675	-8191	255	
756.765	1	1	0	0	0.23966	0.19199	0.077081	0.26781	0.19887	0.070412	0.12777	0.15693	0.13028	0.035458	0.1124	0.095894	0.1248	0.20862	0.10235	0.0476	-3.7271	-4.8333	-4.3417	-4.3938	-4.6167	-4.2188	-4.7042	-4.65	-4.0229	-4.7042	-4.4854	-4.2042	-4.9062	-4.1542	-4.4521	-4.575	520.966	513.922	438.089	504.905	252.778	499.191	389.251	349.117	453.809	525.614	397.847	214.260	385.975	220.316	502.787	229.605	0.0012937	0.00013225	7.7453e-05	1441.9	1.0735e-06	1.5088e-06	1431.3	404.4	1.887e-06	2.4163e-07	458.39	149.64	131.73	44.516	1.1073e-06	54.88	8.1267e-05	7.926e-05	2.5182e-05	1279	8.3273e-07	8.741e-07	1247.9	333.14	8.3306e-07	8.7474e-07	364.24	119.16	105.13	35.535	9.5725e-07	42.445	478.193	520.365	232.799	186.312	367.159	309.590	185.722	190.356	278.046	283.093	189.989	194.022	194.510	199.849	271.461	198.940	-8191	255	
756.861	1	1	0	0	0.085465	0.17831	0.1141	0.30397	0.11564	0.14323	0.21603	0.33772	0.13578	0.16096	0.040738	0.18028	0.14239	0.20303	0.027514	0.24208	-3.6646	-4.5854	-4.35	-4.4083	-4.6646	-4.3292	-4.6896	-4.5792	-4.2104	-4.6979	-4.5042	-4.1896	-4.8958	-4.45	-4.3	-4.725	441.662	175.424	470.927	188.480	351.589	284.478	516.479	507.104	320.335	269.855	423.914	467.964	213.377	180.390	245.593	347.234	0.0011567	0.00019677	7.5113e-05	1440.9	3.0772e-06	1.9716e-06	1432	405.96	1.2089e-06	1.5733e-06	454.57	149.51	131.84	44.243	1.5995e-06	54.82	7.7778e-05	8.2153e-05	2.3684e-05	1275.5	7.924e-07	8.9787e-07	1242.5	332.89	8.0138e-07	9.0686e-07	362.25	118.69	104.93	35.514	9.1381e-07	42.38	479.899	196.644	271.318	186.156	248.699	238.783	185.804	190.461	322.886	254.133	190.142	194.259	194.652	199.727	356.805	198.503	-8191	255	
756.958	1	1	0	0	0.35021	0.22382	0.14525	0.13945	0.031047	0.1223	0.11762	0.28221	0.14343	0.18846	0.00911	0.16049	0.065574	0.046716	0.24712	0.13309	-3.7708	-4.4896	-4.3938	-4.35	-4.8063	-4.2688	-4.5271	-4.7396	-4.2417	-4.5604	-4.525	-4.2021	-4.7146	-4.3229	-4.2562	-4.675	233.893	475.505	514.497	467.168	230.293	327.324	263.892	469.856	371.863	364.305	237.958	397.533	412.734	329.959	520.571	291.379	0.0011125	0.00013858	0.00012465	1438.9	2.3495e-06	1.8216e-06	1434	406.24	2.3203e-06	1.0343e-06	456.39	149.6	131.73	44.46	1.1516e-06	54.851	7.8806e-05	8.6953e-05	2.301e-05	1274.6	8.3199e-07	9.6762e-07	1244.1	332.96	8.597e-07	9.7112e-07	362.54	118.86	105.3	35.686	9.0167e-07	42.386	481.553	198.573	280.420	186.158	255.131	253.936	185.909	190.389	202.160	322.170	190.089	194.166	194.697	199.870	337.128	198.641	-8191	255	
757.054	1	1	0	0	0.088259	0.092167	0.10771	0.14187	0.1526	0.12334	0.17263	0.085921	0.11214	0.21726	0.14682	0.2049	0.12224	0.1312	0.23048	0.075275	-3.8312	-4.65	-4.4521	-4.3521	-4.7979	-4.2958	-4.3854	-4.8187	-4.1937	-4.4875	-4.6583	-4.2125	-4.7229	-4.3187	-4.2937	-4.7708	269.137	502.039	478.311	450.941	179.988	410.566	433.289	455.820	208.391	218.944	400.984	251.947	513.937	396.195	396.902	203.227	0.0013003	7.1941e-05	9.5494e-05	1441.5	3.0032e-06	2.3583e-06	1432.1	407.42	3.2436e-06	1.2163e-06	456.67	149.27	131.66	44.61	2.9654e-06	54.923	8.4721e-05	9.0174e-05	2.279e-05	1275.6	9.0061e-07	9.846e-07	1242.3	333.02	9.1646e-07	9.7396e-07	361.9	118.62	105.49	35.621	8.6819e-07	42.417	476.223	497.390	273.654	186.295	272.785	327.375	185.932	190.431	238.576	310.574	190.039	194.247	194.707	199.827	262.793	198.567	-8191	255	
757.150	1	1	0	0	0.21809	0.089807	0.17073	0.16261	0.14681	0.053037	0.086248	0.048368	0.16574	0.03456	0.18631	0.27781	0.27339	0.20918	0.19511	0.050065	-3.9021	-4.6062	-4.4708	-4.2646	-4.6604	-4.4208	-4.2958	-4.8958	-4.0042	-4.4958	-4.9167	-4.3896	-4.8167	-4.675	-4.0854	-4.8646	328.039	203.537	293.393	479.704	238.403	335.080	431.304	177.081	492.463	318.483	513.990	497.899	430.461	513.199	446.571	393.763	0.0011306	0.00028269	8.3019e-05	1442.9	2.0922e-06	6.0445e-07	1432.2	405.08	2.4099e-06	4.2876e-07	455.96	149.27	131.55	44.466	2.0062e-06	54.651	8.8762e-05	8.6226e-05	2.1456e-05	1273.2	9.2812e-07	9.1727e-07	1238.9	331.89	9.3055e-07	8.9813e-07	360.97	118.5	105.46	35.472	8.1788e-07	42.237	478.743	263.795	287.495	186.159	233.834	335.906	185.788	190.498	241.769	317.103	190.120	194.202	194.652	199.873	280.647	198.681	-8191	255	
757.246	1	1	0	0	0.090346	0.28729	0.087417	0.15412	0.13141	0.17954	0.34942	0.2006	0.12592	0.11135	0.29936	0.065051	0.24578	0.11972	0.060392	0.064405	-3.8042	-4.3125	-4.7188	-4.2458	-4.5333	-4.4812	-4.2188	-4.8313	-4.3521	-4.5146	-4.7583	-4.3417	-4.5667	-4.8063	-4.1167	-4.7562	272.295	209.636	327.879	444.395	409.315	175.136	495.193	411.609	511.337	486.020	474.466	449.008	525.909	362.443	300.953	286.284	0.0012286	0.0001641	1.5481e-05	1436.9	1.8142e-06	4.9073e-07	1428.7	405.66	2.0923e-06	2.4035e-06	454.26	149.61	131.57	44.195	4.8155e-07	54.692	8.9316e-05	8.1212e-05	2.0651e-05	1271.7	9.5158e-07	8.836e-07	1238	332.35	9.6301e-07	8.7845e-07	360.64	118.83	105.64	35.387	8.2431e-07	42.463	477.247	280.358	292.128	186.160	258.397	188.183	185.771	190.536	281.833	332.970	190.124	194.027	194.686	199.762	528.639	198.660	-8191	255	
757.367	1	1	0	0	0.16777	0.040811	0.17384	0.21964	0.034724	0.10239	0.046675	0.11897	0.22908	0.10133	0.18036	0.07016	0.10608	0.1568	0.16642	0.10173	-3.95	-4.4146	-4.8583	-4.4062	-4.5333	-4.5917	-4.2958	-4.6771	-4.4104	-4.3625	-4.7896	-4.2021	-4.5167	-4.8042	-4.2042	-4.7729	447.785	489.950	187.494	509.880	266.228	179.837	221.271	384.284	278.256	395.269	463.390	236.903	225.856	424.571	350.804	185.491	0.0011766	0.00026432	6.5149e-05	1438.6	3.0441e-06	6.5366e-07	1433.5	405.62	1.5719e-06	2.4795e-06	455.67	149.69	131.8	44.389	2.3671e-06	54.841	9.1357e-05	7.9285e-05	2.0561e-05	1276.3	9.5837e-07	8.5149e-07	1238.8	333.23	9.4772e-07	8.5972e-07	360.72	119.33	105.62	35.38	8.2261e-07	42.587	474.799	287.123	324.056	186.349	305.453	345.617	185.721	190.572	337.558	314.128	190.076	193.901	194.673	199.805	259.018	198.795	-8191	255	
757.463	1	1	0	0	0.08723	0.29988	0.087329	0.23542	0.087936	0.017146	0.1972	0.10491	0.04076	0.14269	0.11155	0.049587	0.064399	0.35305	0.14266	0.10036	-4.1896	-4.1958	-4.7438	-4.3979	-4.5229	-4.6312	-4.4042	-4.6396	-4.525	-4.1417	-4.8125	-4.2562	-4.4104	-4.7562	-4.0229	-4.5875	420.348	418.933	192.191	522.005	510.733	339.869	337.617	213.679	427.033	387.425	471.039	406.123	235.356	464.322	443.382	503.665	0.0012082	2.5514e-05	2.2013e-05	1440.1	1.4103e-06	2.5839e-06	1425.4	406.15	2.6592e-06	1.7324e-06	456.03	149.82	131.49	44.461	6.9681e-07	54.828	8.9808e-05	7.8857e-05	2.0705e-05	1277.9	9.4275e-07	8.4806e-07	1238.2	334.92	9.3347e-07	8.5572e-07	361.28	119.6	105.56	35.38	8.5757e-07	42.774	487.356	224.932	179.503	186.370	278.703	290.491	185.684	190.475	325.897	345.309	190.082	194.010	194.621	199.932	192.887	198.778	-8191	255	
757.559	1	1	0	0	0.10241	0.097109	0.088114	0.23935	0.10894	0.077076	0.28971	0.099483	0.12383	0.12133	0.47997	0.089778	0.02971	0.20379	0.16312	0.1808	-4.025	-4.0833	-4.6937	-4.5271	-4.4167	-4.7812	-4.4167	-4.5125	-4.4396	-4.2479	-4.8187	-4.4896	-4.6	-4.8438	-4.1813	-4.6271	376.063	432.995	337.801	473.945	398.486	443.533	421.340	461.373	385.500	192.985	500.952	489.382	377.445	478.764	500.705	492.851	0.0010963	0.00020849	5.9216e-05	1441.6	3.1177e-06	1.458e-06	1433.8	406.29	7.0966e-07	2.2314e-06	458	149.56	131.22	44.474	2.0638e-06	54.668	8.6872e-05	7.9041e-05	2.1874e-05	1281.7	9.2354e-07	8.475e-07	1241.9	335.28	9.1057e-07	8.5858e-07	362.75	119.82	105.48	35.353	9.2895e-07	42.904	485.698	266.753	231.953	186.099	275.152	333.205	185.888	190.679	173.708	294.256	190.121	194.068	194.710	199.833	251.466	198.767	-8191	255	
757.655	1	1	0	0	0.17596	0.078131	0.22365	0.15081	0.27848	0.15132	0.16471	0.073682	0.15689	0.084495	0.064797	0.14108	0.215	0.13142	0.061907	0.11859	-4.275	-4.0833	-4.7104	-4.4229	-4.1937	-4.6417	-4.2875	-4.5375	-4.5563	-4.1771	-4.875	-4.4146	-4.2333	-4.8792	-4.2229	-4.4938	429.163	228.069	397.335	455.518	284.186	237.432	525.393	406.018	246.309	473.466	444.033	388.518	495.934	465.006	270.605	500.889	0.0012678	3.9328e-05	3.6756e-05	1442.5	1.9299e-06	1.6868e-06	1437.8	405.94	2.028e-06	1.8656e-06	454.76	149.21	131.05	44.377	8.2249e-07	54.955	8.6879e-05	7.9248e-05	2.3981e-05	1283.2	9.2692e-07	8.5338e-07	1249.2	335.2	9.1561e-07	8.7684e-07	364.03	119.7	105.56	35.42	1.0157e-06	42.872	486.851	268.766	191.088	186.049	273.352	286.641	185.807	190.302	243.426	348.704	190.139	193.934	194.605	199.798	254.796	198.632	-8191	255	
757.751	1	1	0	0	0.036962	0.19299	0.12298	0.16783	0.16224	0.25691	0.33994	0.17703	0.2055	0.042835	0.013712	0.060288	0.29827	0.22649	0.15171	0.138	-4.3896	-3.9667	-4.5687	-4.425	-4.0458	-4.7125	-4.3208	-4.6062	-4.6625	-4.1562	-4.8063	-4.7063	-4.1667	-4.8063	-4.2812	-4.5104	254.970	234.840	442.890	496.795	273.700	347.840	496.012	528.306	365.109	175.051	450.875	294.916	487.274	477.478	227.514	212.056	0.0012574	0.00014341	9.3874e-05	1441.2	6.6427e-07	2.6622e-06	1431.1	406.18	1.8002e-06	1.1045e-06	456.66	149.39	131.68	44.246	2.6348e-06	55.02	8.7176e-05	8.1495e-05	2.6031e-05	1282	9.2851e-07	8.8947e-07	1249.6	335.02	9.0844e-07	9.0696e-07	365.32	119.61	105.64	35.47	1.0547e-06	42.802	482.458	228.947	198.481	186.169	299.538	256.425	185.761	190.640	302.803	311.368	190.014	194.146	194.724	199.764	239.815	198.720	-8191	255	
757.847	1	1	0	0	0.1835	0.10093	0.10372	0.093216	0.071366	0.128	0.33636	0.18513	0.093795	0.087091	0.26177	0.24401	0.12506	0.066772	0.15356	0.13092	-4.4583	-4.0583	-4.5104	-4.6229	-4.0604	-4.6167	-4.5563	-4.3854	-4.8646	-4.125	-4.6208	-4.8187	-4.2708	-4.6917	-4.3396	-4.4146	177.821	335.229	302.150	182.343	478.548	384.025	416.199	466.398	516.482	252.038	468.320	177.826	450.126	445.668	485.031	484.955	0.0011772	4.2519e-05	2.0011e-05	1443.5	3.462e-06	5.9608e-07	1434.2	406.19	2.5762e-06	1.6817e-06	456.63	149.7	131.83	44.405	1.96e-06	54.928	8.5294e-05	8.5024e-05	2.666e-05	1281.8	9.0563e-07	9.2494e-07	1251.6	334.62	8.7963e-07	9.4555e-07	365.67	119.35	105.37	35.575	1.0312e-06	42.7	488.265	476.460	500.764	186.316	301.595	513.128	185.849	190.571	300.576	292.467	190.062	194.130	194.755	199.944	280.136	198.740	-8191	255	
757.942	1	1	0	0	0.31527	0.057828	0.1989	0.26324	0.12054	0.21551	0.25642	0.1522	0.10017	0.027171	0.065765	0.074044	0.053216	0.062752	0.088202	0.11353	-4.6167	-4.0958	-4.4083	-4.7875	-4.1687	-4.7146	-4.5563	-4.3938	-4.7917	-4.1583	-4.4583	-4.8167	-4.2417	-4.7104	-4.5708	-4.2771	491.987	178.114	344.647	508.591	464.493	410.284	452.872	476.818	418.766	530.865	482.353	200.778	288.161	188.320	403.798	227.560	0.0013504	0.00023285	6.1338e-05	1449.4	2.1678e-06	2.8371e-06	1435.9	407.27	4.9626e-07	1.492e-06	457.27	149.9	131.84	44.564	2.0918e-06	54.815	8.356e-05	8.9382e-05	2.6119e-05	1282.6	8.8985e-07	9.857e-07	1250.5	334.95	8.5789e-07	9.9079e-07	365.03	119.09	105.39	35.711	9.6482e-07	42.57	485.660	526.678	301.467	186.158	317.852	217.043	185.733	190.450	530.660	486.909	190.198	194.087	194.583	199.939	339.289	198.472	-8191	255	
758.062	1	1	0	0	0.28852	0.084409	0.19241	0.24054	0.13299	0.28843	0.21757	0.083972	0.097182	0.20954	0.16538	0.10357	0.22537	0.14463	0.12367	0.10338	-4.4417	-4.2917	-4.4875	-4.7958	-4.2542	-4.65	-4.5854	-4.1771	-4.6292	-4.3938	-4.5813	-4.9229	-4.2812	-4.5771	-4.5646	-4.1646	186.134	225.020	405.888	489.607	410.343	526.904	375.743	190.196	436.395	451.005	264.740	188.066	483.088	208.994	340.815	345.276	0.0012886	0.00014202	3.7173e-05	1444.9	3.8207e-06	5.5683e-07	1435.2	406.13	2.2547e-06	2.1787e-06	456.19	149.37	131.91	44.349	1.9126e-06	54.941	8.1292e-05	9.1539e-05	2.4321e-05	1279.6	8.7761e-07	1.0045e-06	1247.6	333.41	8.7203e-07	1.0116e-06	363.62	118.81	105.66	35.737	9.2946e-07	42.587	477.775	531.576	208.101	186.065	248.445	496.066	185.825	190.525	227.561	333.173	190.138	194.104	194.908	199.719	268.960	198.760	-8191	255	
758.159	1	1	0	0	0.099714	0.13131	0.23802	0.09133	0.23156	0.063537	0.14751	0.10698	0.12837	0.18153	0.050746	0.10799	0.086238	0.18421	0.16387	0.27885	-4.4812	-4.3063	-4.4542	-4.85	-4.0354	-4.5917	-4.7792	-4.2812	-4.75	-4.3333	-4.3208	-4.7292	-4.35	-4.7146	-4.6646	-4.3833	324.416	522.010	367.919	480.702	385.453	180.255	470.189	470.658	353.202	266.421	423.603	493.799	506.143	510.865	343.815	505.098	0.0012678	0.00020125	0.00010466	1443.2	3.1102e-06	1.7132e-06	1428.4	407.05	2.0489e-06	6.4631e-07	458.09	149.9	131.68	44.458	2.8627e-07	54.789	8.6938e-05	9.4417e-05	2.3875e-05	1279.6	9.4153e-07	1.0262e-06	1245.8	333.86	9.4648e-07	1.0265e-06	363.82	119.04	105.82	35.701	9.0709e-07	42.551	477.774	299.555	304.256	186.129	268.057	264.462	185.686	190.575	227.527	401.007	190.148	194.038	194.583	199.873	313.798	198.575	-8191	255	
758.255	1	1	0	0	0.17498	0.24044	0.1636	0.28902	0.04166	0.0704	0.20784	0.12159	0.068419	0.2474	0.065426	0.16886	0.15609	0.29234	0.21674	0.05191	-4.3875	-4.3646	-4.2771	-4.7854	-4.1229	-4.5625	-4.8229	-4.2167	-4.6396	-4.5354	-4.3667	-4.8042	-4.4667	-4.4875	-4.7438	-4.3958	190.415	335.595	318.742	175.805	432.417	407.972	518.255	420.516	341.973	494.151	529.561	484.508	482.955	482.067	226.341	511.082	0.0012223	0.00024406	3.2199e-05	1446.4	1.8025e-06	1.0241e-06	1433.9	406.56	1.3482e-06	8.2492e-07	456.84	149.67	131.79	44.457	1.1219e-06	55.014	9.1847e-05	9.1633e-05	2.3267e-05	1279	9.9356e-07	9.9028e-07	1244.8	333.82	9.9387e-07	9.6797e-07	363.06	119.04	106.21	35.665	8.9003e-07	42.549	481.004	296.609	239.552	186.199	274.566	335.239	185.828	190.539	280.447	373.795	190.063	193.946	194.620	200.086	242.624	198.820	-8191	255	
758.326	1	1	0	0	0.22306	0.12101	0.217	0.20427	0.12421	0.068483	0.27748	0.27297	0.24086	0.1993	0.19485	0.1995	0.040286	0.1026	0.10592	0.04345	-4.325	-4.525	-4.1813	-4.8958	-4.3313	-4.25	-4.9563	-4.3979	-4.4542	-4.5813	-4.2812	-4.7354	-4.4271	-4.3292	-4.5917	-4.3042	226.492	174.338	383.835	530.273	422.488	480.368	498.260	472.984	392.428	531.677	508.174	481.988	364.761	349.957	402.267	478.803	0.0013851	0.00019318	5.3118e-05	1442.7	1.3562e-06	1.8915e-06	1439.4	406.2	2.9598e-06	2.1742e-06	456.07	149.59	132.02	44.528	9.9754e-07	55.073	9.6315e-05	8.7536e-05	2.2749e-05	1279.3	1.024e-06	9.4365e-07	1245.6	333.93	1.0253e-06	9.3379e-07	362.76	119.25	106.31	35.594	8.6763e-07	42.673	473.219	202.413	284.588	186.193	230.171	325.278	185.787	190.482	271.170	330.910	190.314	194.085	194.433	200.163	290.346	198.590	-8191	255	
758.447	1	1	0	0	0.092104	0.023294	0.027862	0.11689	0.080634	0.07892	0.058853	0.22725	0.21784	0.29106	0.2139	0.25533	0.21621	0.11156	0.065716	0.15215	-4.2583	-4.4292	-4.0708	-4.9542	-4.3583	-4.2396	-4.9542	-4.4375	-4.6583	-4.6521	-4.3792	-4.775	-4.4792	-4.2812	-4.8125	-4.3292	290.439	335.842	450.947	210.590	466.708	366.883	172.768	372.917	232.479	374.367	181.993	188.077	431.274	467.741	477.386	402.821	0.0012492	0.00019231	5.1566e-05	1446.9	3.0239e-06	4.0044e-06	1435.6	406.79	3.1243e-06	1.0724e-06	456.3	149.49	131.65	44.537	1.9206e-06	54.823	9.7201e-05	8.4514e-05	2.2153e-05	1282.2	1.021e-06	9.2482e-07	1244	335.13	1.0206e-06	8.9822e-07	362.36	119.68	106.12	35.577	8.5897e-07	42.826	483.035	279.683	198.099	185.940	350.169	345.920	185.699	190.621	286.575	330.654	190.101	193.862	194.557	199.930	262.184	198.765	-8191	255	
758.543	1	1	0	0	0.17621	0.12569	0.13437	0.21495	0.17251	0.15618	0.16168	0.047133	0.023597	0.14811	0.1672	0.16327	0.2289	0.21242	0.096103	0.21285	-4.2875	-4.4729	-4.1792	-4.9125	-4.4125	-4.2208	-4.8688	-4.4271	-4.4396	-4.6042	-4.2854	-4.8375	-4.5354	-4.25	-4.6312	-4.2042	350.376	442.627	400.692	503.413	369.065	316.364	203.689	176.924	228.138	262.046	172.629	176.641	428.855	182.543	222.218	173.561	0.0011532	4.1274e-05	4.1021e-05	1447	2.5645e-06	2.9062e-06	1434.3	407.54	2.1434e-06	1.9697e-06	456.65	150.05	131.6	44.44	1.0333e-06	54.806	9.4686e-05	8.2583e-05	2.2161e-05	1284.8	9.9702e-07	9.0857e-07	1244	336	9.9115e-07	8.9032e-07	362.85	119.95	105.91	35.523	8.8598e-07	42.931	490.750	318.934	246.782	186.154	307.628	303.403	185.786	190.229	319.827	352.257	190.219	194.139	194.774	199.730	262.402	198.645	-8191	255	
758.639	1	1	0	0	0.07089	0.18841	0.10465	0.28147	0.080836	0.069276	0.30131	0.091455	0.098054	0.17698	0.18489	0.039942	0.0214	0.096726	0.23065	0.11288	-3.9938	-4.5062	-4.0667	-4.7146	-4.2937	-4.2479	-4.6208	-4.4542	-4.2583	-4.6104	-4.3375	-4.6854	-4.6458	-4.1396	-4.7312	-4.3063	359.931	211.889	222.548	174.271	261.098	391.058	461.228	349.331	349.695	203.790	526.178	484.327	231.631	214.772	310.408	309.671	0.0010824	5.9573e-05	3.4828e-05	1443.3	3.6703e-06	1.1338e-06	1433.2	407.04	4.1758e-07	2.134e-06	458.56	149.74	131.45	44.376	2.0808e-06	54.831	9.2268e-05	8.2177e-05	2.3415e-05	1287	9.6677e-07	9.011e-07	1246.5	336.4	9.5644e-07	8.8142e-07	364.36	120.19	105.7	35.479	9.4056e-07	42.995	473.706	350.968	323.703	186.204	285.249	298.527	185.924	190.475	400.534	379.202	189.913	194.079	194.616	199.880	207.969	198.729	-8191	255	
758.735	1	1	0	0	0.15146	0.025591	0.29609	0.13994	0.20114	0.21074	0.055866	0.12494	0.12989	0.025246	0.15748	0.20535	0.059935	0.1209	0.15812	0.05898	-3.9208	-4.7208	-4.225	-4.7125	-4.5417	-4.1021	-4.7625	-4.4854	-4.2688	-4.9688	-4.3229	-4.3958	-4.6583	-4.2167	-4.5146	-4.6021	341.354	464.616	498.753	509.788	362.092	456.468	235.643	354.459	368.729	221.649	499.436	186.803	208.232	419.156	316.019	178.189	0.001311	0.00011411	5.8685e-05	1447.8	9.1445e-07	2.3227e-06	1438.7	406.92	2.7714e-06	2.1272e-06	458.15	149.5	131.82	44.449	2.0333e-06	54.777	8.9233e-05	7.9651e-05	2.4483e-05	1286.7	9.2682e-07	8.8033e-07	1250.1	336.11	9.3074e-07	8.6165e-07	364.69	120.02	105.7	35.496	9.9907e-07	42.861	483.196	229.971	187.382	186.113	286.822	313.806	185.686	190.540	260.867	295.572	189.982	194.048	194.578	199.774	278.529	198.848	-8191	255	
758.854	1	1	0	0	0.076186	0.12624	0.12086	0.13777	0.26525	0.11568	0.24717	0.29284	0.31326	0.0079918	0.1757	0.10472	0.086602	0.015823	0.15292	0.20984	-3.8104	-4.7833	-4.15	-4.6813	-4.7792	-4.1625	-4.7229	-4.4521	-4.1813	-4.6646	-4.4062	-4.4917	-4.6438	-4.2229	-4.6021	-4.5917	410.981	184.537	423.119	470.645	510.997	355.691	447.375	453.735	421.482	203.336	237.442	173.560	390.893	408.627	273.030	223.405	0.001018	0.00024217	3.8027e-05	1448.1	1.5695e-06	1.1907e-06	1438.4	406	2.2448e-06	1.1441e-06	457.79	150.04	132.09	44.406	1.6763e-06	54.728	8.7486e-05	8.0003e-05	2.5735e-05	1285.5	9.0751e-07	8.8481e-07	1251.5	335.45	9.1204e-07	8.8478e-07	365.96	119.81	105.6	35.519	1.0379e-06	42.797	476.750	255.172	214.230	186.217	291.014	254.151	185.796	190.458	290.584	228.417	190.090	194.196	194.702	199.876	251.580	198.851	-8191	255	
758.951	1	1	0	0	0.24463	0.13613	0.10464	0.20473	0.16381	0.18801	0.14593	0.18838	0.042812	0.07064	0.21407	0.080854	0.23691	0.11476	0.01587	0.23499	-3.7604	-4.7438	-4.3875	-4.4792	-4.7604	-4.2833	-4.8396	-4.5583	-4.0958	-4.8333	-4.4479	-4.3292	-4.8771	-4.2208	-4.4854	-4.6979	313.142	189.687	491.174	459.929	429.755	226.719	528.215	483.569	187.659	473.221	472.576	241.685	199.340	491.671	222.041	513.993	0.001172	3.0485e-05	5.1851e-05	1448.8	1.401e-06	1.4508e-06	1438	406.69	2.4341e-06	1.7503e-06	457.42	150.22	132.29	44.387	8.4361e-07	54.775	8.5643e-05	8.3357e-05	2.6665e-05	1285	8.8128e-07	9.2977e-07	1253.3	334.62	8.9368e-07	9.2858e-07	365.7	119.54	105.51	35.59	1.0291e-06	42.652	487.823	194.456	253.585	186.277	327.318	514.317	185.720	190.521	286.863	276.206	189.900	194.055	194.507	199.788	241.175	198.890	-8191	255	
759.047	1	1	0	0	0.06809	0.026279	0.24889	0.2992	0.12248	0.2009	0.14144	0.096891	0.11758	0.22476	0.15634	0.14857	0.29294	0.10531	0.17032	0.16483	-3.7646	-4.6479	-4.5083	-4.2917	-4.7917	-4.2375	-4.7125	-4.7812	-4.1083	-4.6333	-4.4479	-4.4375	-4.8229	-4.3354	-4.2438	-4.7688	419.919	244.091	422.311	461.486	262.086	484.256	471.068	220.707	399.171	379.475	493.834	406.273	185.572	416.123	485.795	428.195	0.00098726	0.00014924	7.8545e-05	1445.6	1.9652e-06	2.768e-06	1437.6	406.66	2.6214e-06	1.4966e-06	457.09	149.85	132.63	44.37	1.8399e-06	54.772	8.3518e-05	8.8631e-05	2.5887e-05	1283.4	8.7357e-07	9.9034e-07	1253.1	334.57	8.9165e-07	9.9425e-07	365.14	119.38	105.67	35.713	1.0022e-06	42.637	481.305	234.005	268.423	185.977	240.813	216.087	185.758	190.384	220.373	311.617	190.215	194.200	194.577	199.878	282.365	198.794	-8191	255	
759.143	1	1	0	0	0.16929	0.13404	0.1222	0.14803	0.057959	0.11505	0.22852	0.12793	0.073368	0.11836	0.021831	0.18116	0.20487	0.18446	0.078518	0.10371	-3.8875	-4.6062	-4.5	-4.3604	-4.7292	-4.3625	-4.5292	-4.8187	-4.1521	-4.5646	-4.65	-4.2271	-4.8917	-4.3688	-4.3542	-4.8292	209.049	419.202	524.950	446.979	367.152	307.542	416.817	378.029	223.930	194.369	418.486	317.598	462.325	385.652	262.267	478.610	0.001283	0.00025808	8.8181e-05	1447.5	2.7813e-06	2.0706e-06	1440.7	405.85	2.0316e-06	1.0347e-06	458.56	149.45	132.06	44.499	1.6538e-06	55.219	8.5655e-05	9.4076e-05	2.5127e-05	1284.2	8.9231e-07	1.0421e-06	1252.3	334.22	9.2282e-07	1.0606e-06	364.86	119.41	105.85	35.875	9.8788e-07	42.671	475.263	185.309	315.212	186.140	257.744	240.176	185.699	190.535	334.379	521.063	190.162	194.167	194.585	199.819	264.196	198.742	-8191	255	
759.239	1	1	0	0	0.19391	0.3062	0.085991	0.18117	0.22403	0.16295	0.043775	0.14286	0.13144	0.19065	0.15815	0.19344	0.061904	0.15487	0.13045	0.17232	-3.9125	-4.3938	-4.575	-4.3792	-4.6	-4.4292	-4.4646	-4.8667	-4.1771	-4.5667	-4.6208	-4.2646	-4.6542	-4.4917	-4.3667	-4.7896	269.403	331.773	500.409	506.325	359.181	310.098	504.802	439.848	510.054	377.446	364.791	483.724	506.903	467.898	394.512	473.184	0.0012843	6.3112e-05	4.0403e-05	1449.4	2.0869e-06	1.5392e-06	1437.6	405.8	2.1831e-06	2.4392e-06	459.67	149.9	131.6	44.638	3.2998e-06	55.057	9.1041e-05	9.7924e-05	2.4533e-05	1284.9	9.5735e-07	1.0734e-06	1251.6	334.11	9.976e-07	1.0738e-06	365.11	119.35	106.1	35.894	9.7653e-07	42.664	481.382	200.750	360.741	186.016	264.680	346.750	185.767	190.439	233.364	331.933	190.042	193.977	194.494	199.892	291.086	198.531	-8191	255	
759.335	1	1	0	0	0.15101	0.17266	0.10552	0.091424	0.068784	0.054445	0.27242	0.016979	0.10562	0.18129	0.069215	0.37126	0.25222	0.15076	0.12046	0.40202	-3.8854	-4.4542	-4.5396	-4.2854	-4.6438	-4.3771	-4.3542	-4.7667	-4.4062	-4.4729	-4.7688	-4.1813	-4.8	-4.4812	-4.1312	-5.0583	482.517	511.344	406.977	497.984	477.201	493.492	454.764	429.811	281.325	243.544	437.031	501.286	485.128	498.030	429.998	529.633	0.0012872	0.00015252	7.5098e-05	1452.6	1.1522e-06	3.9799e-06	1442.4	407.25	3.4949e-06	1.2074e-06	457.72	149.86	131.98	44.542	3.0484e-06	55.017	9.8024e-05	9.8078e-05	2.4522e-05	1285.6	1.0496e-06	1.0702e-06	1253.7	334.82	1.0793e-06	1.0646e-06	364.47	119.67	106.7	35.845	9.7957e-07	42.767	477.924	239.059	257.599	186.342	278.354	339.536	185.865	190.528	245.062	346.943	190.175	194.126	194.670	199.944	326.409	198.769	-8191	255	
759.456	1	1	0	0	0.061861	0.06992	0.19788	0.2779	0.17113	0.17205	0.23424	0.20087	0.18693	0.15388	0.060103	0.078494	0.15798	0.18941	0.20616	0.093847	-4.0292	-4.2979	-4.6	-4.275	-4.525	-4.4917	-4.3229	-4.8313	-4.2292	-4.3187	-4.9125	-4.3917	-4.5917	-4.6542	-4.0333	-4.7604	214.631	488.105	380.813	461.918	416.945	482.705	474.680	395.323	276.364	248.173	239.573	454.941	480.132	359.457	237.486	390.043	0.0013623	0.00032047	3.0239e-05	1450.7	1.9103e-06	1.5566e-06	1442.9	408.12	3.049e-06	7.8607e-07	459.67	149.96	132.43	44.619	1.8177e-06	54.823	0.00010387	9.5521e-05	2.4286e-05	1289.1	1.1049e-06	1.0233e-06	1254.1	335.96	1.1045e-06	1.0219e-06	364.55	120.03	107	35.771	9.4752e-07	42.849	478.759	269.838	290.622	186.210	328.155	341.731	185.908	190.637	271.413	258.595	189.851	193.930	194.740	199.864	245.879	198.869	-8191	255	
759.552	1	1	0	0	0.09048	0.1203	0.1284	0.23703	0.034178	0.1771	0.30866	0.15212	0.10027	0.12253	0.18528	0.18736	0.38746	0.19382	0.12762	0.33189	-3.9458	-4.3063	-4.8479	-4.3167	-4.4542	-4.5479	-4.2188	-4.85	-4.3354	-4.3229	-4.75	-4.3375	-4.4667	-4.5312	-4.0708	-4.8083	333.549	199.257	351.751	438.155	455.057	507.870	501.549	509.130	417.162	440.701	505.799	508.789	479.115	335.340	202.147	184.643	0.0012105	0.00026073	8.8283e-05	1451.2	1.2705e-06	1.7547e-06	1445.6	406.97	2.5392e-06	5.0332e-07	457.54	150.09	132.45	44.486	7.3585e-07	55.122	0.00010492	9.2114e-05	2.3867e-05	1290	1.1219e-06	9.975e-07	1255.3	336.2	1.1147e-06	9.9567e-07	364.65	120.46	106.82	35.684	9.4474e-07	43.031	478.962	327.769	250.356	186.105	268.618	331.823	185.754	190.587	298.467	283.994	190.147	194.133	194.576	199.658	241.957	198.813	-8191	255	
759.624	1	1	0	0	0.08418	0.15059	0.081496	0.20338	0.11852	0.057693	0.31021	0.12433	0.038893	0.26182	0.3685	0.19767	0.27578	0.23365	0.17464	0.20995	-4.0729	-4.1667	-4.7042	-4.4	-4.4187	-4.6083	-4.2208	-4.625	-4.1667	-4.2833	-4.9479	-4.2896	-4.4938	-4.7188	-4.0521	-4.8479	186.564	258.920	357.544	522.129	232.055	363.829	186.488	177.650	425.799	324.797	501.847	447.605	236.626	172.613	235.640	452.900	0.0011337	0.00022525	0.00010399	1455.5	4.0009e-06	3.2996e-06	1445.8	406.55	1.2119e-06	1.2812e-06	458.6	150.02	132.44	44.57	1.6871e-06	54.875	0.00010226	9.0348e-05	2.3536e-05	1296.5	1.0762e-06	9.6307e-07	1254.4	337.48	1.062e-06	9.7292e-07	364.91	120.78	106.71	35.692	9.6228e-07	43.155	492.086	305.964	197.393	186.090	296.073	301.994	185.696	190.322	259.576	326.546	190.086	194.075	194.491	199.900	271.503	198.633	-8191	255	
759.720	1	1	0	0	0.038534	0.12746	0.082147	0.24575	0.061806	0.22708	0.066829	0.17573	0.12852	0.049874	0.078496	0.25184	0.1264	0.22417	0.14459	0.017914	-4.1625	-4.0875	-4.625	-4.4521	-4.3208	-4.6458	-4.3063	-4.5396	-4.4688	-4.1937	-4.7167	-4.4437	-4.2167	-4.7854	-4.2104	-4.7146	389.639	232.197	512.557	184.232	245.067	269.204	478.234	525.485	185.173	360.175	270.165	351.985	235.068	490.932	251.801	207.071	0.0011752	0.00014273	9.8089e-05	1453.5	1.0881e-06	3.0564e-06	1444.7	408.58	2.8698e-06	3.0245e-07	459.36	150.38	132.39	44.561	6.2027e-07	54.747	9.8244e-05	8.8096e-05	2.4417e-05	1296.6	1.0393e-06	9.46e-07	1256.8	338.23	1.0145e-06	9.5404e-07	365.66	120.93	106.43	35.637	1.0145e-06	43.159	480.281	228.363	231.425	186.145	379.120	345.854	185.818	190.408	280.993	246.483	190.048	194.001	194.742	199.744	212.072	198.749	-8191	255	
759.839	1	1	0	0	0.24919	0.056281	0.13947	0.018539	0.12478	0.1615	0.21851	0.092123	0.15605	0.054075	0.1112	0.17228	0.14243	0.077249	0.17341	0.06929	-4.2854	-4.1458	-4.425	-4.3979	-4.2271	-4.7812	-4.4125	-4.5292	-4.675	-4.0458	-4.7271	-4.4521	-4.3917	-4.6687	-4.1583	-4.5667	473.106	206.845	297.001	461.401	262.600	471.752	459.933	468.539	251.864	278.673	416.806	494.157	423.897	426.103	389.745	390.717	0.0012882	0.00023806	0.00010162	1456	2.1343e-06	1.7501e-06	1439.6	406.49	2.2819e-06	2.8805e-06	457.22	150.26	132.26	44.439	2.516e-06	54.869	9.4836e-05	8.6758e-05	2.5988e-05	1296.7	1.0065e-06	9.3059e-07	1258.1	337.91	9.8952e-07	9.5092e-07	367.05	120.79	106.46	35.626	1.0889e-06	43.141	483.285	270.562	247.229	186.217	351.678	313.612	185.846	190.422	265.631	316.237	190.080	194.135	194.882	199.631	289.553	198.962	-8191	255	
759.935	1	1	0	0	0.095702	0.21974	0.184	0.28306	0.075179	0.089471	0.12828	0.040949	0.13619	0.042382	0.13496	0.15267	0.11596	0.22278	0.037201	0.10378	-4.2271	-4.2604	-4.6521	-4.5563	-4.2542	-4.7458	-4.3583	-4.5292	-4.6062	-4.0625	-4.7208	-4.6	-4.2229	-4.8625	-4.2958	-4.6208	402.598	211.788	292.826	504.686	195.600	266.712	460.803	335.976	456.170	483.328	210.721	514.925	413.959	498.284	493.206	451.870	0.0012872	0.00016221	5.9035e-05	1457.7	2.0507e-06	1.457e-06	1443	407.17	2.3014e-06	1.5602e-06	458.53	150.34	132.32	44.636	9.3918e-07	54.848	9.3648e-05	8.6932e-05	2.7573e-05	1296.2	9.8884e-07	9.3845e-07	1260.6	337	9.6568e-07	9.5923e-07	368.29	120.46	106.28	35.669	1.1144e-06	43.006	483.516	184.041	218.707	186.228	308.868	295.475	185.641	190.489	219.853	228.932	190.175	194.153	194.779	199.887	323.845	198.771	-8191	255	
760.031	1	1	0	0	0.24704	0.096362	0.27732	0.29907	0.13893	0.074714	0.22649	0.23395	0.21155	0.25468	0.11383	0.10709	0.1475	0.1981	0.14094	0.15933	-4.3604	-4.075	-4.5833	-4.6937	-4.1958	-4.8229	-4.5042	-4.4042	-4.6542	-4.3375	-4.6875	-4.5083	-4.25	-4.7958	-4.2042	-4.2937	400.514	515.808	388.634	451.124	465.453	342.845	498.470	476.471	360.444	382.346	307.649	488.847	300.928	196.105	222.824	285.335	0.0012173	7.2731e-05	9.9988e-05	1456	9.1626e-07	6.5133e-07	1443.9	407.76	3.3293e-06	7.1288e-07	459.6	150.57	132.28	44.618	1.783e-06	54.763	9.0483e-05	8.9744e-05	2.841e-05	1293.9	9.5953e-07	9.841e-07	1263	336.7	9.4227e-07	1.008e-06	368.52	120.19	106.22	35.812	1.112e-06	42.936	480.242	329.274	238.211	186.230	241.220	358.066	185.776	190.271	299.570	305.574	190.080	194.032	194.681	199.741	284.374	198.680	-8191	255	
760.127	1	1	0	0	0.20451	0.21913	0.2154	0.20207	0.046227	0.053033	0.049596	0.097521	0.061521	0.095812	0.05958	0.10702	0.24671	0.023344	0.12082	0.19005	-4.3583	-4.1792	-4.3833	-4.6438	-4.1771	-4.6604	-4.5687	-4.3646	-4.6479	-4.2792	-4.3833	-4.7312	-4.2083	-4.75	-4.475	-4.2792	525.091	518.985	262.731	417.890	399.930	348.097	180.694	523.664	420.520	310.276	188.535	419.494	518.245	234.972	290.791	470.251	0.0013614	0.00027072	9.6416e-05	1455.7	1.1845e-06	2.9463e-06	1447.8	409.26	1.4933e-06	1.2437e-06	458.05	149.86	131.96	44.54	1.2657e-06	54.765	8.9115e-05	9.601e-05	2.8314e-05	1292.5	9.5878e-07	1.0618e-06	1262.6	336.91	9.4015e-07	1.0834e-06	367.4	119.91	106.02	35.924	1.076e-06	42.927	481.166	476.519	305.895	186.307	262.637	203.193	185.879	190.687	336.865	363.045	189.985	194.091	194.529	199.748	302.823	198.615	-8191	255	
760.223	1	1	0	0	0.27153	0.084549	0.22207	0.070969	0.093954	0.041517	0.093405	0.24972	0.21753	0.1016	0.29626	0.16205	0.29486	0.20742	0.16066	0.089117	-4.3438	-4.2104	-4.4333	-4.7917	-4.1917	-4.6813	-4.4729	-4.1271	-4.475	-4.3854	-4.4437	-4.7875	-4.1083	-4.6979	-4.4437	-4.1167	200.834	460.877	519.830	227.922	526.648	510.784	524.491	456.187	318.063	214.457	499.172	425.806	208.105	473.130	312.023	514.074	0.0011821	0.00023846	8.061e-05	1456.6	2.372e-06	1.777e-06	1445	406.52	2.7808e-06	1.8821e-06	459.45	149.91	131.84	44.487	1.2333e-06	55.093	8.9209e-05	0.00010029	2.7023e-05	1292.5	9.6424e-07	1.1106e-06	1260.2	335.96	9.6406e-07	1.1195e-06	367.17	119.85	106.24	35.997	1.0342e-06	42.901	474.655	504.798	322.437	186.256	232.639	362.834	185.952	190.632	261.446	282.142	190.151	193.913	194.588	199.807	293.892	198.749	-8191	255	
760.319	1	1	0	0	0.1209	0.1578	0.086699	0.15298	0.22812	0.11521	0.25288	0.050356	0.13576	0.076447	0.13474	0.26804	0.061097	0.080634	0.16615	0.20684	-4.4271	-4.2333	-4.2417	-4.7896	-4.1854	-4.7292	-4.675	-4.2667	-4.6646	-4.1896	-4.4229	-4.875	-4.1917	-4.6729	-4.6167	-4.3646	347.006	279.368	260.078	520.349	378.706	294.194	471.371	401.040	417.701	376.890	207.716	180.432	180.401	423.772	190.952	489.982	0.0013367	3.9944e-05	0.00013307	1458.7	2.1353e-06	8.6014e-07	1449.4	408.41	1.8593e-06	3.2811e-07	459.81	150.44	132.56	44.553	1.4802e-06	54.814	9.3837e-05	0.00010345	2.6444e-05	1293.8	1.0304e-06	1.1375e-06	1259.7	336.54	1.0348e-06	1.1381e-06	367.39	119.85	106.79	36.011	1.0151e-06	42.882	479.687	286.426	298.765	186.054	231.241	284.885	185.924	190.529	226.372	316.804	190.071	194.192	194.642	199.847	293.489	198.758	-8191	255	
760.415	1	1	0	0	0.071445	0.17545	0.043711	0.10515	0.095929	0.163	0.2558	0.13461	0.14428	0.078665	0.053882	0.12477	0.14504	0.24244	0.1703	0.22223	-4.425	-4.2667	-4.1396	-4.8083	-4.2667	-4.4292	-4.6458	-3.9938	-4.4708	-4.3667	-4.3167	-4.6271	-4.4042	-4.3521	-4.7917	-4.1458	332.361	369.487	522.688	219.573	431.090	354.569	490.622	198.285	255.490	367.586	203.808	289.097	507.979	448.257	183.502	430.537	0.0015476	0.00021226	0.00010394	1457	2.852e-06	1.3605e-06	1450.6	407.39	2.1383e-06	1.1264e-07	458.73	150.79	132.58	44.658	1.5406e-06	54.877	0.00010152	0.00010289	2.6135e-05	1292.9	1.1044e-06	1.1168e-06	1260	336.41	1.0995e-06	1.1017e-06	366.47	119.98	107.06	35.934	9.9197e-07	42.835	476.740	320.858	329.010	186.171	269.099	356.491	185.841	190.527	264.240	259.467	190.192	193.981	194.655	199.811	270.946	198.785	-8191	255	
760.536	1	1	0	0	0.27772	0.081383	0.24629	0.069656	0.10642	0.22163	0.11007	0.14855	0.13259	0.13588	0.069584	0.19892	0.03167	0.0054673	0.10462	0.21435	-4.2	-4.4437	-4.1562	-4.8896	-4.1813	-4.3854	-4.9437	-4.1375	-4.575	-4.3771	-4.1979	-4.5854	-4.3708	-4.3292	-4.6771	-4.2708	252.956	445.446	318.343	392.821	468.054	458.785	305.016	429.485	515.857	338.909	449.601	508.776	175.873	265.065	178.184	422.212	0.0012795	0.00031755	5.8136e-05	1456.6	1.0535e-06	1.1094e-06	1447.6	408.16	3.1162e-06	1.9764e-06	458.35	150.76	132.09	44.423	1.8951e-06	55.347	0.00010695	9.8808e-05	2.5494e-05	1293.8	1.1452e-06	1.0708e-06	1258.2	336.83	1.1504e-06	1.0543e-06	366.03	120.2	107.17	35.894	9.7008e-07	43.091	476.692	251.456	244.552	186.117	249.525	237.419	185.795	190.582	270.277	356.404	190.011	193.996	194.426	200.002	259.235	198.695	-8191	255	
760.632	1	1	0	0	0.15125	0.04779	0.035579	0.12047	0.21032	0.21544	0.31775	0.13442	0.21851	0.05105	0.17105	0.2102	0.099071	0.09165	0.094469	0.11324	-4.1854	-4.675	-4.1458	-4.7354	-4.4708	-4.1	-4.8458	-4.2729	-4.45	-4.4583	-4.2208	-4.8458	-4.6771	-4.2417	-4.7354	-4.3417	413.779	299.325	386.893	439.317	451.328	242.469	427.891	210.837	211.549	492.387	360.321	519.385	486.183	436.225	501.473	477.713	0.00098367	6.286e-05	7.4514e-05	1460.4	2.1002e-06	4.5418e-06	1445	408.78	1.6108e-06	1.8014e-06	458.71	150.44	132.06	44.391	6.1328e-07	55.013	0.00010937	9.4603e-05	2.5168e-05	1297.1	1.1476e-06	1.0424e-06	1257.6	337.95	1.1463e-06	1.0238e-06	365.93	120.67	106.98	35.784	9.644e-07	43.182	479.290	496.229	282.464	186.053	379.865	293.496	185.772	190.448	218.607	359.490	189.945	194.200	194.592	199.803	296.612	198.664	-8191	255	
760.728	1	1	0	0	0.23203	0.10049	0.075128	0.17173	0.073451	0.045366	0.16551	0.025137	0.12763	0.18025	0.33931	0.060139	0.027378	0.33648	0.15724	0.068616	-4.0583	-4.5979	-3.9854	-4.8229	-4.35	-4.2729	-4.8771	-4.4104	-4.3979	-4.5792	-4.3	-4.5792	-4.525	-4.3458	-4.75	-4.4667	221.892	503.550	276.446	486.049	262.171	441.552	516.989	424.461	434.014	509.410	485.014	455.688	177.244	506.507	303.306	532.065	0.0011221	0.0002113	4.7734e-05	1461.6	7.5032e-07	1.4747e-06	1445.9	408.3	2.5119e-06	1.0279e-06	459.57	150.48	132.3	44.357	2.2477e-06	54.87	0.0001067	9.291e-05	2.494e-05	1301.3	1.1128e-06	1.0175e-06	1258.7	338.45	1.1081e-06	9.9087e-07	365.99	121.17	106.89	35.757	9.6773e-07	43.252	482.559	295.892	303.922	186.111	178.705	346.705	185.882	190.535	299.392	336.506	190.090	194.242	194.641	199.883	283.568	198.908	-8191	255	
760.847	1	1	0	0	0.066919	0.43746	0.14684	0.10261	0.036461	0.19103	0.29206	0.031875	0.097654	0.068835	0.014208	0.13394	0.12615	0.18216	0.14572	0.092876	-4.0333	-4.8313	-4.1292	-4.7667	-4.5542	-4.1271	-4.9958	-4.2271	-4.4333	-4.7458	-4.2438	-4.6854	-4.8458	-4.2708	-4.6146	-4.3562	505.159	327.257	423.549	518.479	345.471	242.706	438.287	302.692	179.739	514.413	283.563	447.175	358.732	523.139	389.843	393.479	0.0011169	0.00015359	1.1478e-05	1458.9	2.0036e-06	1.2845e-06	1446.8	408.1	3.2075e-06	2.4913e-06	458.11	150.19	132.56	44.483	2.757e-06	54.811	0.00010128	8.8748e-05	2.5081e-05	1300.9	1.0488e-06	9.81e-07	1260.5	339.3	1.0549e-06	9.5884e-07	366.48	121.16	106.64	35.784	1.0232e-06	43.315	485.073	272.114	200.681	186.099	306.800	246.760	185.865	190.438	279.674	313.064	189.969	194.087	194.564	199.801	191.962	198.583	-8191	255	
760.919	1	1	0	0	0.11031	0.13211	0.020837	0.063134	0.16107	0.24382	0.24013	0.084554	0.11175	0.073818	0.35668	0.067436	0.1468	0.20153	0.19235	0.088583	-3.8958	-4.9688	-4.175	-4.6417	-4.7646	-4.2583	-4.8854	-4.4896	-4.3812	-4.8333	-4.3167	-4.5208	-4.8833	-4.1917	-4.6438	-4.4417	301.040	250.409	279.944	456.939	386.091	325.226	437.695	492.569	362.962	174.995	214.669	421.732	203.161	299.964	213.807	464.284	0.0011957	0.00022268	2.9809e-05	1459.6	1.5775e-06	2.4659e-06	1450.6	408.45	1.5027e-06	1.0841e-06	458.72	150.67	132.39	44.61	1.1957e-06	55.039	9.8379e-05	8.8081e-05	2.6803e-05	1301.5	1.0217e-06	9.6689e-07	1263.2	338.77	1.0253e-06	9.468e-07	367.47	121	106.43	35.761	1.0796e-06	43.226	480.447	235.741	201.721	186.103	349.476	295.091	185.734	190.551	271.403	233.598	189.888	194.276	194.673	199.745	529.063	198.925	-8191	255	
761.015	1	1	0	0	0.11461	0.073249	0.073188	0.11993	0.18588	0.067276	0.036867	0.21425	0.065676	0.065072	0.31976	0.2925	0.25389	0.034481	0.25544	0.12926	-3.8771	-4.6542	-4.3042	-4.5958	-4.7042	-4.1312	-4.8729	-4.5958	-4.1729	-4.7917	-4.1354	-4.4792	-4.7688	-4.2729	-4.6958	-4.4229	387.202	307.580	224.683	527.497	307.544	447.850	241.162	195.678	254.686	361.994	529.864	523.573	286.453	421.785	338.882	460.070	0.001404	0.00022291	4.5395e-05	1459.7	1.7092e-06	2.2321e-06	1445.6	407.51	1.6182e-06	1.1903e-06	460.43	150.47	132.3	44.53	2.3744e-06	54.816	9.5964e-05	8.6521e-05	2.8258e-05	1302.2	9.9825e-07	9.7699e-07	1263.3	338	1.0104e-06	9.6401e-07	369.31	120.91	106.37	35.78	1.1461e-06	43.1	479.183	201.629	191.306	186.205	330.756	279.733	185.743	190.330	288.859	267.451	190.071	194.239	194.648	199.901	266.082	198.645	-8191	255	
761.136	1	1	0	0	0.058574	0.083144	0.28973	0.13868	0.16683	0.14285	0.12265	0.18275	0.17359	0.27461	0.20542	0.095294	0.13928	0.13496	0.22419	0.18469	-3.7812	-4.7625	-4.4271	-4.5104	-4.9646	-4.1188	-4.7542	-4.6229	-4.0354	-4.6792	-4.5354	-4.5167	-4.8125	-4.3271	-4.625	-4.7167	450.148	247.759	326.682	440.338	182.970	495.731	465.629	444.775	348.856	316.794	231.593	467.423	499.667	227.028	329.554	178.700	0.0013513	0.00011754	9.2443e-05	1455.8	5.9761e-07	3.1407e-06	1448.3	407.89	2.0937e-06	2.0952e-06	458.2	149.89	132.32	44.772	1.116e-06	54.883	9.4365e-05	9.1162e-05	2.9366e-05	1298	9.8052e-07	1.0105e-06	1268	337.69	9.9624e-07	1.0198e-06	369.29	120.62	106.37	35.917	1.1424e-06	43.028	475.329	218.473	190.004	186.191	331.866	200.371	185.780	190.517	280.244	254.820	189.958	194.214	194.581	199.684	317.337	198.798	-8191	255	
761.232	1	1	0	0	0.30618	0.027458	0.026434	0.196	0.13185	0.093767	0.054384	0.12833	0.086493	0.12263	0.24781	0.071523	0.11836	0.17217	0.082321	0.25117	-3.7458	-4.7292	-4.4104	-4.4458	-4.8792	-4.275	-4.6229	-4.7479	-4.1854	-4.7521	-4.6354	-4.4708	-4.6396	-4.2271	-4.4292	-4.6042	499.689	215.890	258.289	467.778	219.626	343.216	477.780	516.649	496.959	361.392	219.407	350.406	482.888	223.277	308.558	315.046	0.001362	0.00013578	5.3557e-05	1460.2	2.6106e-06	2.1213e-06	1450.9	408.28	1.4111e-06	2.1796e-06	458.54	150.11	132.37	44.771	1.3347e-06	54.904	9.3295e-05	9.6056e-05	2.9103e-05	1299.1	9.6354e-07	1.0744e-06	1266.4	336.83	9.6948e-07	1.0797e-06	368.32	120.47	106.28	36.008	1.1088e-06	42.944	484.044	228.144	267.582	186.238	326.852	313.240	185.784	190.433	266.343	280.944	190.012	194.120	194.630	199.837	291.520	198.762	-8191	255	
761.328	1	1	0	0	0.024787	0.087678	0.15542	0.29314	0.085419	0.17938	0.26453	0.16983	0.17548	0.18048	0.048518	0.043558	0.03226	0.087152	0.091348	0.10345	-3.8167	-4.6354	-4.3542	-4.2562	-4.8333	-4.4271	-4.6813	-4.8792	-4.1917	-4.7417	-4.7958	-4.2542	-4.75	-4.4313	-4.3229	-4.775	503.090	504.095	414.458	520.361	454.949	450.071	380.153	520.999	475.494	230.994	212.557	360.018	316.703	225.146	404.770	305.871	0.0011306	0.00018923	8.5977e-05	1461	3.1404e-06	1.9377e-06	1448.3	408.05	1.1215e-06	4.8625e-07	458.54	150.83	132.08	44.677	8.2638e-07	54.955	9.2757e-05	0.00010181	2.7809e-05	1298.5	9.768e-07	1.1474e-06	1264.9	336.69	9.9678e-07	1.1408e-06	367.86	120.35	106.23	36.13	1.0755e-06	42.916	479.599	530.525	307.542	186.038	244.232	253.353	185.804	190.325	262.694	504.208	190.176	194.060	194.717	199.875	313.389	198.795	-8191	255	
761.424	1	1	0	0	0.099528	0.074618	0.18856	0.13821	0.097288	0.12932	0.16785	0.090897	0.27785	0.15794	0.14365	0.2246	0.37941	0.068668	0.15564	0.15456	-3.9646	-4.7333	-4.4938	-4.1979	-4.7896	-4.4208	-4.4563	-4.8708	-4.2854	-4.5521	-4.5792	-4.3083	-4.6958	-4.5312	-4.3833	-4.8646	280.294	292.541	514.679	202.539	192.679	229.617	397.694	464.522	354.200	270.437	507.580	181.490	474.427	338.736	186.673	211.743	0.0014407	2.6942e-05	5.326e-05	1463.9	3.2813e-06	1.0128e-06	1451	408.78	2.1267e-06	3.0589e-06	458.57	150.42	132.72	44.686	3.0495e-06	54.924	9.8034e-05	0.0001077	2.7228e-05	1300.1	1.0496e-06	1.1772e-06	1265.8	337.27	1.0713e-06	1.1602e-06	367.99	120.35	106.98	36.121	1.0655e-06	42.9	472.796	453.651	336.445	186.121	228.920	274.388	185.807	190.306	254.691	344.558	190.193	194.250	194.584	199.481	284.483	198.769	-8191	255	
761.520	1	1	0	0	0.064934	0.2945	0.16071	0.17118	0.15175	0.070101	0.255	0.3693	0.086875	0.044401	0.22676	0.14599	0.13792	0.042282	0.22967	0.14686	-3.8125	-4.5458	-4.6312	-4.3688	-4.8167	-4.4208	-4.4938	-4.7812	-4.2354	-4.4458	-4.7896	-4.4	-4.85	-4.3667	-4.1833	-4.925	486.280	325.202	321.703	488.934	470.185	294.049	474.349	478.944	502.407	328.452	180.310	190.743	399.769	487.565	182.315	214.122	0.0012527	0.00029392	5.8321e-05	1463.7	1.9853e-06	1.1954e-06	1454.4	409.69	1.4329e-06	2.7873e-06	459.83	151.14	132.61	44.767	1.1095e-06	54.986	0.00010548	0.00010773	2.6785e-05	1302.1	1.1367e-06	1.1692e-06	1269.4	337.88	1.1674e-06	1.1697e-06	368.1	120.72	107.66	36.149	1.0686e-06	42.979	479.801	268.945	297.135	186.208	219.298	372.484	185.682	190.571	271.116	333.772	190.169	193.954	194.535	199.907	285.310	198.583	-8191	255	
761.616	1	1	0	0	0.17947	0.25629	0.087596	0.31532	0.21209	0.21026	0.22503	0.21751	0.16591	0.14489	0.18612	0.23045	0.096262	0.15013	0.093218	0.17767	-3.9104	-4.4896	-4.8021	-4.4542	-4.7792	-4.5021	-4.4229	-4.7979	-4.2937	-4.4792	-4.8833	-4.2625	-4.7625	-4.6875	-4.3229	-4.95	412.279	195.685	419.298	472.671	238.039	471.925	522.964	496.078	267.695	351.796	357.243	499.192	297.769	211.876	210.438	526.931	0.0014773	0.00033493	8.9868e-05	1466.4	6.0292e-07	4.8048e-06	1458.6	408.51	3.334e-06	3.1309e-06	461.1	150.63	132.92	44.511	1.9642e-06	55.228	0.00011214	0.00010596	2.6731e-05	1305	1.2092e-06	1.1322e-06	1270.7	338.21	1.2107e-06	1.1234e-06	368.28	120.85	107.96	36.002	1.0462e-06	43.235	480.452	292.749	271.736	186.187	266.947	335.084	185.820	190.246	238.057	333.604	190.013	194.212	194.701	199.825	278.501	198.580	-8191	255	
761.713	1	1	0	0	0.24109	0.24461	0.097635	0.074455	0.10625	0.21174	0.3008	0.32973	0.12951	0.21342	0.10685	0.09996	0.33852	0.15199	0.20534	0.15927	-4.1875	-4.4792	-4.7562	-4.425	-4.6438	-4.5625	-4.4417	-4.8646	-4.4771	-4.3542	-4.8688	-4.4333	-4.5604	-4.7292	-4.2417	-4.8417	442.385	307.668	453.712	450.072	488.272	386.766	454.866	472.583	528.234	457.030	435.164	445.221	219.654	526.812	329.105	513.256	0.0013069	0.00024321	5.1124e-05	1466.6	3.1606e-06	1.3061e-06	1460	408.62	4.1678e-06	1.4604e-06	459.97	151.02	133.26	44.585	9.3485e-07	55.059	0.00011442	0.00010128	2.595e-05	1308.5	1.2012e-06	1.0676e-06	1269.3	339.37	1.1842e-06	1.0635e-06	367.3	121.44	107.77	35.917	1.0007e-06	43.382	484.542	217.603	303.886	186.036	279.367	318.715	185.916	190.232	304.887	315.221	189.984	193.891	194.661	199.747	255.603	198.550	-8191	255	
#DATA ENDS
