BOXY.EXE: ISS Imagent and Oximeter Data Acquisition Program Version 0.80
Ascii Record File

#ACQ INFORMATION
2  Detector Channels 
16  External MUX Channels 
1  Auxiliary Channels 
5000  Waveform (CCF) Frequency (Hz)
1  Waveforms Skipped 
30  Waveforms Averaged 
1  Cycles Averaged 
16  Acquisitions per Waveform 
10.0806  Updata Rate (Hz) 

#FILE INFORMATION
TRUE -- External MUX Channel results are PARSED.
FALSE -- AC DC and Phase are NOT grouped.
TRUE -- Companion Program Settings File CREATED.
FALSE -- AC data not excluded
FALSE -- DC data not excluded
FALSE -- Phase data not excluded
FALSE -- Auxillary Chn. data not excluded
Tab delimiters

#CALIBRATION STATE
TRUE -- Waveform Calibration Values APPLIED.


#AUX CALIBRATION VALUES
Val Type	aux-1	

Term	1.0000e+00	
Factor	0.0000e+00	


#WF CALIBRATION VALUES
A = Detector Channel
Val Type	A-AC1	A-AC2	A-AC3	A-AC4	A-AC5	A-AC6	A-AC7	A-AC8	A-AC9	A-AC10	A-AC11	A-AC12	A-AC13	A-AC14	A-AC15	A-AC16	A-DC1	A-DC2	A-DC3	A-DC4	A-DC5	A-DC6	A-DC7	A-DC8	A-DC9	A-DC10	A-DC11	A-DC12	A-DC13	A-DC14	A-DC15	A-DC16	A-Ph1	A-Ph2	A-Ph3	A-Ph4	A-Ph5	A-Ph6	A-Ph7	A-Ph8	A-Ph9	A-Ph10	A-Ph11	A-Ph12	A-Ph13	A-Ph14	A-Ph15	A-Ph16	

Term	0.00000e+00	0.00000e+00	0.00000e+00	0.00000e+00	0.00000e+00	0.00000e+00	0.00000e+00	0.00000e+00	0.00000e+00	0.00000e+00	0.00000e+00	0.00000e+00	0.00000e+00	0.00000e+00	0.00000e+00	0.00000e+00	0.00000e+00	0.00000e+00	0.00000e+00	0.00000e+00	0.00000e+00	0.00000e+00	0.00000e+00	0.00000e+00	0.00000e+00	0.00000e+00	0.00000e+00	0.00000e+00	0.00000e+00	0.00000e+00	0.00000e+00	0.00000e+00	0.00000e+00	0.00000e+00	0.00000e+00	0.00000e+00	0.00000e+00	0.00000e+00	0.00000e+00	0.00000e+00	0.00000e+00	0.00000e+00	0.00000e+00	0.00000e+00	0.00000e+00	0.00000e+00	0.00000e+00	0.00000e+00	
Factor	1.00000e+00	1.00000e+00	1.00000e+00	1.00000e+00	1.00000e+00	1.00000e+00	1.00000e+00	1.00000e+00	1.00000e+00	1.00000e+00	1.00000e+00	1.00000e+00	1.00000e+00	1.00000e+00	1.00000e+00	1.00000e+00	1.00000e+00	1.00000e+00	1.00000e+00	1.00000e+00	1.00000e+00	1.00000e+00	1.00000e+00	1.00000e+00	1.00000e+00	1.00000e+00	1.00000e+00	1.00000e+00	1.00000e+00	1.00000e+00	1.00000e+00	1.00000e+00	X	X	X	X	X	X	X	X	X	X	X	X	X	X	X	X	

B = Detector Channel
Val Type	B-AC1	B-AC2	B-AC3	B-AC4	B-AC5	B-AC6	B-AC7	B-AC8	B-AC9	B-AC10	B-AC11	B-AC12	B-AC13	B-AC14	B-AC15	B-AC16	B-DC1	B-DC2	B-DC3	B-DC4	B-DC5	B-DC6	B-DC7	B-DC8	B-DC9	B-DC10	B-DC11	B-DC12	B-DC13	B-DC14	B-DC15	B-DC16	B-Ph1	B-Ph2	B-Ph3	B-Ph4	B-Ph5	B-Ph6	B-Ph7	B-Ph8	B-Ph9	B-Ph10	B-Ph11	B-Ph12	B-Ph13	B-Ph14	B-Ph15	B-Ph16	

Term	0.00000e+00	0.00000e+00	0.00000e+00	0.00000e+00	0.00000e+00	0.00000e+00	0.00000e+00	0.00000e+00	0.00000e+00	0.00000e+00	0.00000e+00	0.00000e+00	0.00000e+00	0.00000e+00	0.00000e+00	0.00000e+00	0.00000e+00	0.00000e+00	0.00000e+00	0.00000e+00	0.00000e+00	0.00000e+00	0.00000e+00	0.00000e+00	0.00000e+00	0.00000e+00	0.00000e+00	0.00000e+00	0.00000e+00	0.00000e+00	0.00000e+00	0.00000e+00	-2.19236e+02	-1.31854e+02	-1.24135e+02	-1.81681e+02	-8.58735e+01	-6.72878e+01	-1.57568e+02	-1.62015e+02	-8.41279e+01	-6.72097e+01	-1.71278e+02	-1.72824e+02	-1.84035e+02	-1.76898e+02	-7.35276e+01	-1.49611e+02	
Factor	5.03203e-05	1.86684e-04	5.35002e-05	1.55221e-01	2.21823e-06	1.93863e-06	1.70040e-01	5.39350e-02	2.78813e-06	2.02691e-06	8.86941e-02	3.59107e-02	3.83696e-02	9.50516e-03	2.03926e-06	1.37819e-02	1.31170e-05	1.87377e-05	5.23375e-06	7.87103e-02	1.87137e-07	2.07811e-07	8.13289e-02	2.73734e-02	1.87871e-07	2.06201e-07	4.39296e-02	1.77345e-02	1.96596e-02	4.87883e-03	1.96838e-07	6.87861e-03	X	X	X	X	X	X	X	X	X	X	X	X	X	X	X	X	



#DISTANCE SETTINGS
A = Detector Channel
A-1	A-2	A-3	A-4	A-5	A-6	A-7	A-8	A-9	A-10	A-11	A-12	A-13	A-14	A-15	A-16	

2.5000e+00	3.0000e+00	2.5000e+00	3.0000e+00	2.0000e+00	3.0000e+00	1.5000e+00	3.0000e+00	3.0000e+00	3.0000e+00	3.0000e+00	3.0000e+00	3.0000e+00	3.0000e+00	1.5000e+00	3.0000e+00	

B = Detector Channel
B-1	B-2	B-3	B-4	B-5	B-6	B-7	B-8	B-9	B-10	B-11	B-12	B-13	B-14	B-15	B-16	

1.0000e+01	1.0000e+01	1.0000e+01	1.4400e+00	1.0000e+01	1.0000e+01	1.5100e+00	1.9400e+00	1.0000e+01	1.0000e+01	1.9900e+00	2.4900e+00	2.4100e+00	2.9000e+00	1.0000e+01	2.9800e+00	




#DATA BEGINS
time	group	step	mark	flag	A-AC1	A-AC2	A-AC3	A-AC4	A-AC5	A-AC6	A-AC7	A-AC8	A-AC9	A-AC10	A-AC11	A-AC12	A-AC13	A-AC14	A-AC15	A-AC16	A-DC1	A-DC2	A-DC3	A-DC4	A-DC5	A-DC6	A-DC7	A-DC8	A-DC9	A-DC10	A-DC11	A-DC12	A-DC13	A-DC14	A-DC15	A-DC16	A-Ph1	A-Ph2	A-Ph3	A-Ph4	A-Ph5	A-Ph6	A-Ph7	A-Ph8	A-Ph9	A-Ph10	A-Ph11	A-Ph12	A-Ph13	A-Ph14	A-Ph15	A-Ph16	B-AC1	B-AC2	B-AC3	B-AC4	B-AC5	B-AC6	B-AC7	B-AC8	B-AC9	B-AC10	B-AC11	B-AC12	B-AC13	B-AC14	B-AC15	B-AC16	B-DC1	B-DC2	B-DC3	B-DC4	B-DC5	B-DC6	B-DC7	B-DC8	B-DC9	B-DC10	B-DC11	B-DC12	B-DC13	B-DC14	B-DC15	B-DC16	B-Ph1	B-Ph2	B-Ph3	B-Ph4	B-Ph5	B-Ph6	B-Ph7	B-Ph8	B-Ph9	B-Ph10	B-Ph11	B-Ph12	B-Ph13	B-Ph14	B-Ph15	B-Ph16	aux-1	digaux	

6885.628	1	1	0	256	0.044811	0.067644	0.036219	0.11342	0.038257	0.097998	0.2648	0.044966	0.083825	0.15044	0.13304	0.14769	0.13409	0.088117	0.1939	0.1805	-4.775	-4.3833	-4.6729	-5.0917	-4.2188	-4.9333	-4.9688	-4.7562	-4.9083	-4.5083	-4.7271	-4.9938	-4.5938	-5.1438	-4.9604	-4.7292	-82.500	-104.115	79.803	169.052	52.438	188.989	209.525	68.048	182.372	179.104	76.572	173.575	122.840	17.808	87.852	-103.866	0.00095331	0.00049459	0.00017111	1294.2	4.5973e-06	2.7356e-06	1296.9	350.33	6.5063e-06	5.634e-06	401.57	133.31	114.7	39.017	5.8643e-06	48.526	0.00093546	0.0010418	0.00028361	1316.5	1.0856e-05	1.125e-05	1322.6	357.88	1.0493e-05	1.1275e-05	410.7	136.41	117.99	40.163	1.0869e-05	50.303	117.747	-50.517	-39.553	-129.619	-17.736	-24.790	-129.944	-125.157	-56.663	18.618	-125.584	-121.899	-121.205	-116.083	-13.122	-116.576	-8191	255	
6885.724	1	1	0	0	0.23408	0.15676	0.065028	0.14861	0.13444	0.16567	0.34432	0.20234	0.1756	0.094336	0.18222	0.17814	0.2381	0.20503	0.17381	0.13901	-4.8125	-4.5583	-4.7833	-5.225	-4.6083	-5.0188	-5.0729	-4.6125	-5.0687	-4.6188	-4.8063	-5.1208	-4.4125	-5.1333	-4.7229	-4.6208	-9.009	90.738	-123.202	96.070	-39.134	90.180	190.203	193.942	68.647	-116.965	156.604	-89.400	155.071	192.009	-75.641	210.183	0.0009447	0.0005188	0.00018176	1291.2	2.2966e-06	5.9055e-06	1296.7	350.31	8.6314e-06	7.1711e-06	402.36	133.16	115.03	38.935	2.6442e-06	48.626	0.00090832	0.0010451	0.00028682	1311.2	1.0882e-05	1.123e-05	1319.7	358.09	1.0658e-05	1.1094e-05	411.48	136.31	118.23	40.096	1.0699e-05	50.307	109.635	-63.894	-37.210	-129.600	-10.032	-9.651	-129.927	-125.068	-50.684	17.977	-125.709	-121.972	-120.743	-115.937	-38.904	-116.884	-8191	255	
6885.797	1	1	0	0	0.14204	0.058035	0.17214	0.10397	0.1058	0.048935	0.16208	0.19979	0.098947	0.12456	0.14562	0.18172	0.10194	0.17386	0.099292	0.20682	-4.7854	-4.6771	-4.7229	-5.3417	-4.4896	-4.975	-5.1687	-4.5521	-5.0729	-4.8917	-4.7354	-5.3438	-4.6312	-4.9	-5.1167	-4.6854	188.419	125.695	57.058	105.554	-140.343	-118.995	139.470	192.994	43.602	4.357	-90.674	-119.737	208.367	97.340	-43.640	157.191	0.00091558	0.00050018	0.00013622	1289.3	3.8502e-06	6.1081e-06	1296.9	350.66	8.1819e-06	2.7571e-06	403.13	132.79	115.22	39.116	4.9392e-06	48.673	0.00091215	0.00099513	0.00028269	1311.7	1.0661e-05	1.1045e-05	1320.8	358.3	1.0566e-05	1.1301e-05	412.24	136.41	118.25	40.246	1.1196e-05	50.311	115.744	-64.640	-29.001	-129.692	-37.977	-20.538	-130.006	-125.003	-52.067	0.592	-125.768	-121.683	-121.108	-116.101	-8.322	-116.781	-8191	255	
6885.918	1	1	0	0	0.21348	0.26252	0.047557	0.26529	0.097689	0.07134	0.070339	0.22006	0.044888	0.12826	0.0909	0.096472	0.13001	0.19823	0.087622	0.074284	-4.8542	-4.825	-4.5979	-5.2958	-4.7479	-4.9083	-5.1708	-4.525	-5.0583	-4.8938	-4.7583	-5.1229	-4.6271	-4.6021	-4.8208	-4.3333	165.365	86.509	77.046	192.212	78.418	65.608	179.823	135.190	2.931	-68.494	94.327	-129.130	71.249	-137.729	7.322	202.651	0.00091279	0.00050748	0.00017473	1294.2	5.3758e-06	4.2381e-06	1301.7	351.71	5.9335e-06	3.5899e-06	404.27	133.36	115.61	38.928	4.0667e-06	48.787	0.00092983	0.0010627	0.00029287	1316.8	1.092e-05	1.1448e-05	1325.8	358.95	1.1189e-05	1.1531e-05	412.44	136.76	118.56	40.22	1.144e-05	50.502	112.215	-62.896	-52.454	-129.543	-48.324	-8.643	-129.922	-125.069	-44.692	1.409	-125.590	-121.868	-121.045	-116.193	33.296	-117.033	-8191	255	
6886.012	1	1	0	0	0.15781	0.17368	0.099899	0.1861	0.1438	0.19511	0.17446	0.074774	0.038699	0.091318	0.043622	0.19984	0.20363	0.1313	0.021985	0.25626	-4.5208	-4.7896	-4.5375	-5.4771	-4.6104	-4.6708	-5.3146	-4.6292	-4.9083	-4.7063	-4.6	-5.0354	-4.7562	-4.7604	-5.1312	-4.7604	-80.925	149.067	170.876	186.123	153.476	120.796	124.337	128.899	-120.417	-118.854	88.883	115.312	170.406	5.522	25.167	165.059	0.00091022	0.00043353	0.00013058	1296.8	4.6753e-06	4.6925e-06	1305.7	351.59	1.0191e-05	7.1236e-06	405.01	133.29	115.16	39.192	5.9033e-06	48.59	0.00093959	0.001057	0.0002969	1318.8	1.107e-05	1.1436e-05	1327.3	359.28	1.0766e-05	1.1178e-05	412.62	136.79	118.26	40.26	1.063e-05	50.394	112.497	-51.665	-49.045	-129.861	-12.650	-8.677	-130.170	-125.050	-73.877	2.038	-125.835	-121.783	-121.303	-115.868	-17.196	-116.825	-8191	255	
6886.108	1	1	0	0	0.29506	0.022875	0.14213	0.16022	0.13369	0.25126	0.30983	0.14747	0.02573	0.066266	0.16514	0.21675	0.074471	0.14229	0.20914	0.25819	-4.5917	-4.7771	-4.5521	-5.3021	-4.6583	-4.5729	-5.3229	-4.6917	-4.875	-5.0271	-4.5938	-4.925	-4.775	-4.4917	-5.0604	-4.6062	-78.063	6.962	130.084	142.379	66.944	74.463	211.787	149.291	46.803	-0.527	88.937	140.756	190.847	167.352	108.121	156.649	0.00096065	0.00058449	0.00014922	1297.6	4.9582e-06	6.7826e-06	1301.2	352.67	7.7065e-06	3.1753e-06	403.02	134.14	115.32	39.088	5.259e-06	48.83	0.0009027	0.00098466	0.00027911	1318.3	1.037e-05	1.1041e-05	1327.1	359.5	1.0412e-05	1.0887e-05	412.25	136.92	118.35	40.246	1.066e-05	50.395	113.006	-42.921	-75.740	-129.754	-20.531	-7.677	-129.971	-125.223	-61.324	4.258	-126.006	-121.925	-121.090	-115.907	-17.955	-117.032	-8191	255	
6886.229	1	1	0	0	0.1571	0.24075	0.04808	0.18245	0.12233	0.17544	0.13191	0.10647	0.042927	0.21772	0.16133	0.090437	0.1504	0.17073	0.12497	0.10496	-4.3833	-4.8938	-4.4917	-5.1438	-4.8812	-4.6375	-5.1229	-4.6937	-4.6917	-5.0563	-4.5167	-5.0021	-5.1625	-4.7292	-5.0271	-4.7958	-75.419	-62.678	-24.288	-7.043	186.428	83.455	-120.479	102.864	-49.071	162.403	-54.121	118.763	-95.938	194.953	-103.152	159.272	0.00090123	0.00069397	0.00012551	1298.1	5.3098e-06	4.6078e-06	1302.2	352.39	1.04e-05	4.1869e-06	401.78	133.27	115.66	38.955	3.4187e-06	48.513	0.00089496	0.00099079	0.00027821	1317.7	1.0414e-05	1.1046e-05	1325	358.94	1.0567e-05	1.1124e-05	412.03	136.49	118.65	40.25	1.0771e-05	50.382	115.288	-80.365	-61.302	-129.623	-48.149	-25.360	-129.744	-125.339	-57.643	5.072	-125.839	-121.775	-121.072	-116.078	-12.385	-116.932	-8191	255	
6886.325	1	1	0	0	0.036018	0.11424	0.15672	0.2907	0.14337	0.15592	0.18663	0.1167	0.11209	0.12853	0.36628	0.20927	0.14505	0.12334	0.19236	0.2146	-4.2833	-5.1333	-4.7042	-5.1104	-5.0125	-4.6042	-5.2396	-4.9	-4.5104	-5.0271	-4.6729	-4.9417	-5.0917	-4.5625	-5.0813	-4.8604	-34.929	86.698	50.071	188.538	-91.493	-23.040	205.921	86.418	112.788	-7.068	150.695	141.151	-111.278	173.917	155.262	190.224	0.00092581	0.00044723	0.00022183	1296.9	5.0959e-06	5.0494e-06	1304.3	350.93	6.0763e-06	3.5849e-06	405.51	133.43	115.54	39.167	5.1652e-06	49.135	0.00090805	0.001007	0.00028176	1319.2	1.0713e-05	1.1442e-05	1326.2	359.11	1.0805e-05	1.1185e-05	413.47	136.65	118.58	40.349	1.0345e-05	50.527	110.875	-46.224	-42.797	-129.608	11.931	19.727	-130.012	-125.241	-57.336	15.806	-125.627	-121.877	-121.182	-116.095	-27.325	-117.056	-8191	255	
6886.397	1	1	0	0	0.20837	0.18143	0.19786	0.19743	0.04665	0.073469	0.20627	0.2423	0.12879	0.063807	0.22706	0.29577	0.18749	0.16517	0.18568	0.061648	-4.1354	-5.2146	-4.6479	-5.0979	-5.0479	-4.4917	-5.3979	-4.925	-4.4875	-5.1292	-4.8604	-4.9062	-5.2875	-4.4208	-4.7208	-4.8417	65.930	-119.058	66.030	211.112	-117.301	-119.516	105.365	157.713	54.585	-72.555	150.007	211.205	172.482	-30.992	189.530	-111.527	0.00087154	0.00071959	0.00014783	1296.3	6.3773e-06	6.2502e-06	1303	351.54	1.075e-05	4.5526e-06	403.72	132.89	115.8	39.153	4.1884e-06	48.738	0.00089144	0.0009409	0.00026788	1317.9	9.9608e-06	1.0444e-05	1326	358.93	9.9975e-06	1.0267e-05	413.2	136.54	118.68	40.37	9.8116e-06	50.439	113.261	-43.262	-60.209	-129.510	-39.474	11.466	-130.083	-125.070	-61.932	-4.677	-125.759	-121.827	-121.114	-115.966	13.145	-116.466	-8191	255	
6886.518	1	1	0	0	0.26099	0.20308	0.1437	0.33898	0.10431	0.15488	0.18968	0.225	0.15992	0.11358	0.1014	0.091087	0.18841	0.26523	0.28757	0.054118	-4.2396	-5.2646	-4.6854	-4.8708	-5.1604	-4.4854	-5.0021	-4.925	-4.4854	-5.1479	-4.8521	-4.6479	-5.0729	-4.5458	-4.8854	-5.2312	125.460	79.965	25.235	173.741	-15.872	146.364	148.940	111.661	164.824	-66.217	212.537	24.646	-138.399	-121.259	-89.927	-19.156	0.00091948	0.0006321	0.00015401	1296.8	3.4236e-06	5.528e-06	1298.9	352.56	1.0418e-05	6.6208e-06	402.45	133.78	115.61	39.181	5.5992e-06	48.692	0.00084159	0.00093107	0.00025916	1316.8	9.8855e-06	1.0188e-05	1322.2	359.28	9.8816e-06	9.8053e-06	412.37	136.63	118.73	40.367	9.5048e-06	50.314	108.184	-68.985	-61.338	-129.678	-22.829	-3.563	-129.980	-125.214	-49.069	0.383	-125.606	-121.652	-121.094	-116.355	8.514	-116.725	-8191	255	
6886.614	1	1	0	0	0.082978	0.058206	0.35137	0.24615	0.15501	0.18167	0.20631	0.10411	0.083848	0.1322	0.15243	0.22453	0.17044	0.090792	0.18104	0.076419	-4.1146	-4.9563	-4.6396	-4.9125	-5.0146	-4.8313	-5.0083	-4.9208	-4.4083	-5.0208	-4.875	-4.6875	-5.0771	-4.6958	-4.8396	-5.1625	-116.600	-136.286	175.357	150.073	-110.822	-22.133	176.706	170.873	75.531	-31.623	-28.768	92.666	89.154	176.159	16.073	115.903	0.00087994	0.00032749	0.00017166	1295	6.8198e-06	5.9975e-06	1301.7	352.01	7.246e-06	5.3486e-06	403.22	133.31	115.38	38.959	4.5313e-06	48.567	0.00082263	0.00088446	0.00024419	1314.5	9.3378e-06	9.8468e-06	1322.8	359.1	9.5255e-06	9.6416e-06	412.34	136.78	118.5	40.242	9.8444e-06	50.262	112.737	-53.728	-55.731	-129.631	-57.703	11.778	-129.991	-125.132	-5.906	-16.411	-125.328	-121.530	-121.151	-116.188	-14.583	-116.850	-8191	255	
6886.710	1	1	0	0	0.16474	0.088026	0.06292	0.16467	0.078452	0.064017	0.31022	0.15012	0.075405	0.23403	0.30481	0.3381	0.011287	0.32589	0.24653	0.23802	-4.1167	-5.0375	-4.7896	-4.6292	-4.925	-4.6167	-5.0375	-5.1771	-4.5729	-5.0771	-4.9292	-4.4854	-5.1229	-4.8812	-4.7083	-5.1271	39.818	113.079	33.082	185.755	176.096	142.810	123.942	169.398	65.285	-48.742	190.680	179.117	147.710	146.662	63.108	152.967	0.00088092	0.00055204	0.00023403	1296.3	5.9139e-06	4.0755e-06	1298.2	351.93	7.2835e-06	5.7775e-06	404.47	133.6	115.52	39.019	5.4579e-06	48.713	0.00085681	0.00092029	0.00026085	1315	9.8302e-06	1.0492e-05	1323.4	359.64	1.0293e-05	1.0524e-05	413.03	136.86	118.79	40.289	1.0649e-05	50.404	112.887	-60.021	-58.657	-129.599	-29.137	23.966	-129.996	-125.348	-69.286	-6.029	-125.620	-121.851	-121.178	-116.030	-9.857	-116.904	-8191	255	
6886.804	1	1	0	0	0.18548	0.061234	0.086962	0.15442	0.16899	0.18731	0.38788	0.15289	0.10054	0.12443	0.16136	0.14774	0.094412	0.31215	0.10595	0.19972	-4.1208	-5.0229	-4.9208	-4.7917	-5.1604	-4.7833	-4.6042	-5.1229	-4.4646	-4.9729	-5.0958	-4.6854	-5.1729	-4.9208	-4.4979	-5.0521	-108.202	195.536	86.625	147.596	210.063	59.790	155.457	120.381	-19.592	-21.657	131.693	-121.294	81.391	39.590	-132.302	150.803	0.00088246	0.00033084	0.00013613	1294	5.7431e-06	4.4188e-06	1300.7	353.06	9.5804e-06	5.2552e-06	404.76	132.9	115.56	39.16	5.8064e-06	48.683	0.00089502	0.00096226	0.00026915	1317	1.014e-05	1.0517e-05	1325.9	360.29	1.0364e-05	1.0405e-05	413.78	136.78	118.87	40.381	1.0552e-05	50.404	113.502	-59.412	-57.059	-129.633	-27.758	21.584	-129.918	-125.160	-59.972	14.987	-125.759	-121.897	-121.107	-116.192	-7.685	-117.000	-8191	255	
6886.925	1	1	0	0	0.22259	0.046882	0.28029	0.2411	0.28428	0.15804	0.1996	0.28794	0.096584	0.18297	0.075793	0.17466	0.17934	0.076339	0.15008	0.11041	-4.325	-4.8208	-4.9146	-4.5854	-5.075	-4.9625	-4.8833	-5.3729	-4.6312	-4.8479	-5.0625	-4.4833	-5.0396	-5.0125	-4.6271	-5.2917	-33.880	6.233	61.743	133.424	57.218	124.685	182.218	113.874	-65.297	177.350	57.844	-142.135	-94.922	-51.375	134.224	-88.092	0.00086837	0.00057949	0.00017517	1297.3	3.5353e-06	3.0045e-06	1298.8	352.59	5.6738e-06	3.1778e-06	404.97	133.7	116.12	39.114	4.8006e-06	48.604	0.00087436	0.00098107	0.00027159	1317.5	9.9662e-06	1.0609e-05	1323.9	359.89	1.0199e-05	1.055e-05	413.48	137.02	118.85	40.338	1.0464e-05	50.384	111.510	-40.558	-51.582	-129.564	-22.095	56.196	-129.873	-125.184	-79.595	-1.156	-125.588	-121.672	-121.463	-116.147	5.131	-116.867	-8191	255	
6887.021	1	1	0	0	0.24609	0.089998	0.16586	0.13984	0.17981	0.3186	0.1421	0.22008	0.16566	0.14691	0.081869	0.15524	0.27469	0.13594	0.11502	0.12955	-4.4604	-4.7937	-5.1021	-4.6521	-4.8958	-4.7875	-4.7292	-5.1188	-4.6396	-4.7917	-5.3729	-4.6333	-4.9354	-5.2063	-4.3917	-5.1125	37.195	74.748	75.926	-132.792	18.606	131.089	50.593	173.340	78.311	4.209	85.140	214.173	188.541	130.738	-78.548	-12.635	0.00089619	0.00036271	0.00016942	1297.7	6.4222e-06	1.9236e-06	1300.9	353.44	1.1474e-05	6.3507e-06	404.31	133.4	115.86	39.133	4.746e-06	48.815	0.00086293	0.00096027	0.0002627	1317.1	9.8282e-06	1.0259e-05	1325	360.02	9.7239e-06	1.0265e-05	413.02	136.87	118.64	40.227	1.0048e-05	50.35	111.644	-80.431	-30.663	-129.753	-32.251	-7.900	-129.972	-125.330	-41.149	5.681	-125.896	-121.711	-121.108	-116.081	-17.687	-116.852	-8191	255	
6887.093	1	1	0	0	0.2287	0.26531	0.14579	0.29887	0.2005	0.12907	0.36042	0.069396	0.19207	0.22303	0.034615	0.14699	0.17922	0.16128	0.17225	0.16839	-4.175	-4.5188	-5.0167	-4.7125	-4.7312	-4.9729	-4.6021	-5.1521	-4.5729	-4.5792	-5.2167	-4.5396	-4.8646	-4.9896	-4.5354	-5.0292	213.135	-54.567	-0.252	181.753	-13.374	196.874	153.477	172.146	-30.254	37.048	-98.065	165.406	176.446	124.477	16.932	-127.730	0.0009468	0.00058227	0.00016731	1295.7	5.7697e-06	7.2199e-06	1296.5	352.67	7.8741e-06	4.2992e-06	405.04	133.57	115.61	39.216	4.5087e-06	48.393	0.0008575	0.00092037	0.00025517	1314.8	9.7039e-06	1.0165e-05	1323.4	359.4	9.8147e-06	1.0146e-05	413.36	136.78	118.57	40.306	9.8702e-06	50.244	114.693	-54.415	-37.619	-129.564	-52.331	3.886	-129.954	-125.056	-67.988	-3.627	-125.855	-121.649	-121.155	-115.920	21.466	-116.630	-8191	255	
6887.189	1	1	0	0	0.17655	0.15039	0.21289	0.28925	0.060796	0.23972	0.23606	0.13504	0.074587	0.11451	0.20417	0.11244	0.25866	0.24367	0.15405	0.08955	-4.4667	-4.6188	-5.3604	-4.8958	-4.8875	-5.2396	-4.8562	-5.1375	-5.0542	-4.6583	-5.3875	-5.0479	-4.8875	-5.1188	-4.4458	-5.0062	152.725	1.249	-25.861	178.526	96.858	-114.972	146.290	136.997	96.613	26.270	163.200	178.918	192.621	210.771	81.535	186.311	0.00093514	0.00042174	0.00012904	1296.8	4.4924e-06	4.0811e-06	1295.4	352.15	9.5287e-06	6.1878e-06	404.18	133.12	115.69	39.129	6.7819e-06	48.724	0.00084266	0.00092084	0.00024964	1314.6	9.5354e-06	9.7191e-06	1321.5	359.12	9.6581e-06	1.0086e-05	413	136.44	118.51	40.246	9.814e-06	50.359	106.466	-65.644	-39.300	-129.710	-25.586	31.949	-130.000	-124.881	-44.803	7.838	-125.712	-121.598	-121.297	-116.313	-28.821	-116.887	-8191	255	
6887.309	1	1	0	0	0.046548	0.12313	0.074363	0.12455	0.20532	0.085384	0.25301	0.11638	0.037784	0.28294	0.17357	0.18818	0.19181	0.048763	0.25374	0.14914	-4.6583	-4.4875	-5.0896	-4.9396	-4.4208	-4.8812	-4.6542	-4.8896	-4.6875	-4.4583	-5.0396	-4.75	-4.6854	-5.2438	-4.3771	-4.7	155.667	159.549	45.258	120.309	142.965	37.823	155.366	195.452	153.260	83.904	161.443	25.223	-123.605	-99.792	55.907	192.803	0.00089599	0.00047492	0.00013492	1293.1	3.8676e-06	2.7972e-06	1294.1	350.84	7.3895e-06	5.2556e-06	402.52	133.13	115.7	39.069	4.3023e-06	48.554	0.00082943	0.00089504	0.00024403	1313.5	9.4068e-06	9.5571e-06	1318.4	359.15	9.327e-06	9.4083e-06	411.62	136.42	118.29	40.173	9.2916e-06	50.297	117.599	-46.901	-54.362	-129.602	-32.246	-11.585	-129.912	-125.187	-56.179	2.421	-125.784	-121.691	-121.471	-116.085	-14.275	-116.816	-8191	255	
6887.406	1	1	0	0	0.11554	0.074424	0.12132	0.11873	0.10366	0.019227	0.31238	0.17052	0.21201	0.14129	0.28232	0.085364	0.20981	0.045662	0.2061	0.16498	-4.4771	-4.3063	-4.85	-4.8812	-4.3354	-5.05	-4.6937	-4.9854	-5.1604	-4.5125	-5.0479	-4.8771	-4.6375	-5.1792	-4.6937	-4.9792	133.927	-75.527	-12.006	128.926	-83.366	-115.673	145.756	198.952	156.698	-89.250	197.490	59.686	212.646	94.119	9.143	159.824	0.00092875	0.00062152	0.00015403	1292.6	5.3266e-06	3.3614e-06	1286.7	352.28	6.4495e-06	5.1924e-06	402.42	133.02	115.46	39.098	6.4955e-06	48.586	0.0008009	0.00085256	0.00023665	1311.3	9.2286e-06	9.4532e-06	1315.7	358.57	9.1258e-06	9.6897e-06	411.2	136.43	118.25	40.203	9.2165e-06	50.18	113.534	-57.244	-64.944	-129.692	-64.600	12.704	-129.921	-125.207	-62.135	16.241	-125.907	-121.755	-120.821	-116.108	-18.217	-116.617	-8191	255	
6887.502	1	1	0	0	0.060002	0.10954	0.30746	0.15906	0.054352	0.1431	0.17335	0.18798	0.16637	0.074331	0.20938	0.12839	0.15691	0.29751	0.073187	0.04736	-4.8063	-4.7875	-5.0229	-5.1729	-4.4854	-5.2271	-4.7917	-4.7979	-4.8958	-4.5375	-5.0062	-4.9146	-4.5875	-5.3063	-4.8917	-4.7875	211.405	68.414	52.311	209.393	25.601	-96.244	73.259	76.838	-24.914	-14.358	120.449	-134.685	56.114	135.991	124.713	94.348	0.00090794	0.00047057	0.00018454	1291.2	7.6144e-06	6.3178e-06	1293.8	351	8.1822e-06	5.4876e-06	403.82	133.43	115.39	39.051	3.4234e-06	48.324	0.00079136	0.00086545	0.0002389	1310.4	9.0524e-06	9.3173e-06	1317.8	358.33	8.9125e-06	9.3452e-06	411.95	136.46	118.12	40.147	9.3149e-06	50.038	109.295	-94.034	-43.835	-129.598	-42.202	13.672	-130.123	-125.227	-73.414	5.022	-125.606	-121.844	-121.184	-115.911	-15.023	-116.595	-8191	255	
6887.598	1	1	0	0	0.083937	0.092685	0.14919	0.18466	0.1391	0.11365	0.24391	0.24138	0.21932	0.030793	0.25293	0.10811	0.29219	0.11712	0.2153	0.094592	-4.8875	-4.6062	-4.8688	-5.3	-4.4979	-5.2521	-5.0104	-4.8167	-5.2562	-4.7521	-4.9542	-5.3458	-4.6687	-5.1792	-4.9417	-4.6083	-124.293	-59.858	92.079	188.697	-20.169	-83.537	95.608	137.647	-51.619	96.615	138.885	57.624	210.996	145.854	-20.409	197.971	0.00085875	0.00060633	0.00018657	1289.3	4.2175e-06	7.389e-06	1288.9	352	6.2836e-06	5.9495e-06	402.36	133.51	114.88	38.983	3.4696e-06	48.543	0.00076404	0.00084386	0.00023	1309.6	8.9806e-06	9.0207e-06	1314	358.98	8.8366e-06	9.2e-06	411.4	136.34	118.13	40.125	9.0168e-06	50.118	116.932	-58.128	-45.769	-129.841	-71.093	9.011	-130.012	-125.165	-33.430	25.238	-125.637	-121.729	-121.115	-116.111	-44.203	-117.086	-8191	255	
6887.694	1	1	0	0	0.32943	0.18086	0.068116	0.13964	0.061926	0.14595	0.10202	0.27958	0.18908	0.2105	0.21927	0.21258	0.070774	0.23288	0.022622	0.086069	-4.8375	-4.7646	-4.9187	-5.2229	-4.4542	-4.9375	-4.8729	-4.6104	-5.0646	-4.7458	-4.9208	-5.1167	-4.4854	-4.9479	-4.6917	-4.4	-45.143	84.978	-42.058	-110.203	-21.658	196.599	87.907	182.552	191.133	109.507	195.382	161.707	37.118	-63.317	-132.709	59.421	0.00088719	0.00038748	0.00015474	1289.5	6.7001e-06	3.7465e-06	1292.7	352.11	9.7184e-06	3.6266e-06	403.29	133.58	115	39.087	4.6982e-06	48.563	0.00075393	0.00079873	0.00023224	1307.8	8.6797e-06	9.0038e-06	1315	358.07	8.5951e-06	8.6969e-06	411.32	136.39	118	40.186	8.7183e-06	50.065	109.553	-64.579	-18.434	-129.738	-34.070	-40.955	-129.950	-124.994	-58.534	-7.953	-125.538	-121.584	-121.024	-116.174	-18.164	-116.841	-8191	255	
6887.790	1	1	0	0	0.19268	0.088189	0.16254	0.10832	0.28712	0.049274	0.28885	0.1334	0.16931	0.091393	0.029756	0.1104	0.083166	0.12771	0.25025	0.1395	-4.7792	-4.8083	-4.6667	-5.2937	-4.6646	-5.0792	-5.1667	-4.6271	-5.2083	-4.775	-4.7979	-5.3125	-4.6854	-4.85	-5.0333	-4.5792	109.814	148.253	100.870	-3.029	-119.668	-95.908	128.408	178.207	-78.998	166.029	-52.302	128.742	-113.366	-100.785	185.241	106.067	0.00093304	0.00029154	0.00011269	1286.6	3.7785e-06	4.4154e-06	1288.1	351.2	8.4651e-06	6.7673e-06	403.87	133.1	114.83	38.994	5.2673e-06	48.281	0.00076942	0.0008334	0.00022587	1305.8	8.6598e-06	8.7973e-06	1313.3	358.26	8.3857e-06	8.6342e-06	411.36	136.27	118.1	40.108	8.7523e-06	50.021	111.660	-44.126	-21.022	-129.540	-32.078	-10.165	-129.926	-125.081	-60.847	-1.194	-125.912	-121.673	-120.944	-116.212	10.873	-116.738	-8191	255	
6887.909	1	1	0	0	0.20485	0.094115	0.053548	0.10593	0.20752	0.054156	0.13318	0.077172	0.13422	0.13466	0.036629	0.28304	0.010421	0.24837	0.34107	0.21455	-4.6896	-4.6542	-4.4812	-5.2229	-4.4271	-4.7479	-5.25	-4.4271	-5.0792	-4.9729	-4.6979	-5.1375	-4.4979	-4.8063	-4.9958	-4.6104	125.504	41.977	86.674	108.951	189.820	81.747	127.446	27.577	-120.675	145.319	73.242	160.838	-16.319	-96.859	24.412	89.357	0.00083915	0.00049942	0.00012377	1286.8	5.9514e-06	4.3478e-06	1291.2	350.75	8.0922e-06	3.5738e-06	403.01	132.83	114.54	38.837	6.8946e-06	48.419	0.00076049	0.00081743	0.00022453	1305.1	8.4613e-06	8.7458e-06	1314	357.59	8.4029e-06	8.5053e-06	410.68	136.05	117.78	40.04	8.4521e-06	50.062	113.511	-57.050	-56.572	-129.766	-29.735	-23.578	-129.944	-125.156	-58.818	32.718	-125.525	-121.679	-120.835	-116.130	-23.718	-116.745	-8191	255	
6888.005	1	1	0	0	0.21687	0.10575	0.099447	0.023814	0.17524	0.11779	0.15847	0.2776	0.14037	0.097825	0.085229	0.3055	0.051393	0.040782	0.095008	0.1602	-4.6292	-4.8187	-4.575	-5.3208	-4.7083	-4.7937	-5.2792	-4.6458	-4.8708	-4.825	-4.6104	-5.0896	-4.5583	-4.6417	-4.9542	-4.6167	48.973	204.084	-4.212	-127.094	188.904	47.272	93.851	-136.316	-70.233	167.699	183.144	147.075	127.837	119.368	46.985	112.703	0.00082064	0.00037566	0.00016075	1285.5	6.6431e-06	7.599e-06	1290	350.74	6.6242e-06	5.8089e-06	401.97	133.03	115.74	39.076	4.7813e-06	48.353	0.00075032	0.00077332	0.00022495	1305.5	8.1506e-06	8.5488e-06	1312.8	357.47	8.2107e-06	8.6265e-06	410.79	136.13	118.13	40.094	8.3291e-06	50.098	107.708	-61.227	-60.289	-129.644	-60.042	17.805	-129.941	-125.138	-52.879	-6.547	-125.610	-121.773	-121.443	-116.030	-10.360	-117.068	-8191	255	
6888.101	1	1	0	0	0.084515	0.16106	0.08288	0.28152	0.14232	0.077568	0.3413	0.22733	0.22551	0.088357	0.13159	0.17112	0.17342	0.14095	0.097845	0.094007	-4.4083	-4.8083	-4.2271	-5.1958	-4.6583	-4.5604	-5.1417	-4.5708	-4.7875	-4.9625	-4.5646	-4.9833	-4.775	-4.8292	-5.2979	-4.7583	18.127	92.360	-25.222	185.964	-99.493	-123.572	167.995	142.646	-103.396	103.019	-139.692	123.711	199.886	215.790	-116.517	150.880	0.00095277	0.00039812	9.1889e-05	1288.8	6.3197e-06	4.1678e-06	1291.2	349.63	9.9082e-06	4.6546e-06	402.34	132.71	115.23	38.892	3.6348e-06	48.499	0.00073944	0.00078241	0.00022224	1306.5	8.2746e-06	8.725e-06	1314.3	357.34	8.3137e-06	8.5956e-06	410.61	136.06	118.02	40.056	8.3148e-06	49.954	112.315	-61.542	-24.859	-129.627	-42.419	-2.987	-130.006	-125.242	-27.092	3.998	-125.477	-121.627	-121.150	-116.186	-20.175	-116.848	-8191	255	
6888.198	1	1	0	0	0.14112	0.12594	0.12769	0.25448	0.20182	0.097689	0.20119	0.23755	0.093156	0.090469	0.13061	0.085295	0.1223	0.16117	0.17228	0.25999	-4.625	-4.9896	-4.5708	-5.2146	-4.8854	-4.5458	-5.1979	-4.7021	-4.6646	-4.9875	-4.6583	-4.9604	-5.0458	-4.7063	-5.1708	-4.9167	-50.128	-35.459	-73.151	126.493	-81.628	99.162	109.336	190.685	68.624	-107.256	-19.246	34.456	-140.118	-86.769	-87.808	143.563	0.0008739	0.00059356	9.845e-05	1288.2	4.1262e-06	4.3796e-06	1289.1	350.65	8.0464e-06	4.9196e-06	403.88	132.67	115.25	39.11	4.2111e-06	48.38	0.00072818	0.00077672	0.00021242	1306	8.2122e-06	8.5484e-06	1312.9	357.63	8.2378e-06	8.2768e-06	410.5	135.9	117.82	40.111	8.1696e-06	50.064	109.502	-53.394	-40.926	-129.676	-83.111	18.991	-129.922	-125.117	-45.546	27.015	-125.541	-121.723	-121.169	-115.949	-34.425	-116.952	-8191	255	
6888.318	1	1	0	0	0.34322	0.089545	0.19804	0.14984	0.083315	0.0040785	0.26197	0.22425	0.21159	0.12095	0.16014	0.049967	0.039845	0.11547	0.033262	0.31614	-4.4313	-5.0396	-4.3833	-4.8333	-4.9417	-4.5333	-5.0771	-4.6875	-4.5312	-4.9854	-4.7458	-4.9396	-4.925	-4.6396	-5.0542	-4.9437	6.191	-111.395	124.224	169.511	209.926	-69.774	141.079	195.884	-116.734	36.880	151.862	133.648	-12.246	146.020	36.663	155.454	0.00089128	0.00058934	0.00018198	1290.4	4.4223e-06	4.5225e-06	1288.6	349.42	1.0791e-05	5.8146e-06	402.09	132.88	115.61	38.911	4.6187e-06	48.629	0.00072879	0.0007488	0.0002112	1305.5	8.0493e-06	8.4003e-06	1311.9	356.82	8.2213e-06	8.0874e-06	410.24	135.9	118.2	40.074	8.0285e-06	50.13	111.134	-81.428	-50.258	-129.781	-41.778	-6.076	-130.040	-125.158	-51.354	7.393	-125.291	-121.520	-121.361	-116.115	-4.473	-116.967	-8191	255	
6888.390	1	1	0	0	0.09863	0.14775	0.14728	0.37751	0.072245	0.17906	0.18521	0.32487	0.11316	0.13572	0.085371	0.25765	0.12936	0.25907	0.0098571	0.24922	-4.3479	-5.1854	-4.5563	-5.0458	-4.8438	-4.3979	-5.0542	-4.9812	-4.4688	-5.1833	-4.8792	-4.9458	-5.15	-4.6062	-4.9187	-4.8333	-34.271	18.340	48.239	150.976	193.172	-63.691	84.728	165.267	169.578	-42.649	124.965	187.133	-64.498	-131.798	74.219	207.348	0.00089992	0.00039319	0.00015948	1284.1	5.9906e-06	2.2784e-06	1289.1	350.37	1.0207e-05	3.9969e-06	401.71	133.58	115.34	38.89	5.2652e-06	48.366	0.00073698	0.00072495	0.00020669	1304.8	7.9389e-06	8.1449e-06	1313.3	356.81	8.0949e-06	8.0105e-06	410.24	136.21	118.13	40.011	7.8169e-06	50.051	111.399	-72.041	-37.609	-129.655	-22.387	4.212	-129.996	-125.081	-47.481	-4.414	-125.546	-121.821	-121.233	-116.244	9.832	-116.891	-8191	255	
6888.486	1	1	0	0	0.17423	0.052082	0.13622	0.17807	0.069287	0.2619	0.20405	0.27176	0.079907	0.11947	0.1343	0.22199	0.29233	0.15214	0.080515	0.032127	-4.1375	-4.9146	-4.5125	-4.7375	-5.0146	-4.4875	-4.8896	-4.9167	-4.4167	-5.025	-4.7354	-4.6417	-5.0521	-4.5938	-4.7	-4.8562	-81.461	200.740	-88.872	165.308	212.695	164.003	166.267	172.890	-113.221	-81.320	204.303	101.820	113.466	170.443	173.629	13.827	0.00096488	0.00023162	0.00014641	1282	7.6905e-06	4.347e-06	1286.3	349.25	3.7694e-06	6.1661e-06	399.59	132.62	115.42	38.828	4.9533e-06	48.309	0.00072171	0.00071297	0.00020315	1302	7.5701e-06	8.0375e-06	1309.1	356.31	7.7955e-06	7.7759e-06	409.14	135.94	117.75	39.968	7.9158e-06	49.922	111.911	-24.363	-74.412	-129.699	-64.163	2.802	-129.768	-125.283	-50.596	4.473	-125.489	-121.606	-121.126	-116.128	-10.870	-116.710	-8191	255	
6888.607	1	1	0	0	0.042918	0.16109	0.19026	0.14925	0.15114	0.093593	0.065423	0.23774	0.15791	0.056198	0.24584	0.1261	0.076403	0.21473	0.080868	0.0473	-4.1896	-5.1771	-4.7896	-4.6896	-5.0708	-4.5563	-5.1937	-5.2417	-4.3708	-4.9688	-4.8104	-4.6438	-5.2542	-4.6708	-4.8854	-5.1146	-12.255	66.899	180.800	176.189	-113.580	199.986	34.696	192.099	23.378	13.183	147.767	-94.117	-125.154	101.971	3.219	93.502	0.00088929	0.00042081	6.5012e-05	1279.7	3.5892e-06	7.6083e-06	1287.6	349.05	9.0371e-06	4.4881e-06	399.77	132.36	114.84	38.791	4.0903e-06	48.376	0.00072302	0.00073003	0.00020411	1300.6	7.8995e-06	8.3185e-06	1309.5	356.45	8.1372e-06	8.2669e-06	408.86	135.8	117.72	39.968	8.122e-06	49.954	111.839	-46.549	-41.404	-129.459	-17.263	30.024	-129.968	-125.315	-61.869	-27.410	-125.683	-121.696	-121.135	-116.066	-21.962	-116.948	-8191	255	
6888.701	1	1	0	0	0.21808	0.13858	0.11099	0.30161	0.22438	0.18842	0.12105	0.076002	0.097435	0.15405	0.095981	0.22627	0.22686	0.096386	0.15315	0.20203	-3.9917	-4.8688	-4.7229	-4.8542	-5.2792	-4.6896	-4.9542	-5.2083	-4.3458	-4.9271	-4.9042	-4.4917	-5.1937	-4.8729	-4.8667	-5.2583	154.971	-106.410	201.446	168.340	166.372	-46.675	106.866	156.010	-100.280	-41.525	180.000	113.397	206.511	-62.366	-127.722	-54.075	0.00090944	0.00040924	0.00012777	1280.1	6.2957e-06	6.083e-06	1289.5	350.48	7.4688e-06	5.4292e-06	402.26	133	114.88	38.925	4.0886e-06	48.367	0.00073034	0.00076091	0.00020186	1301.5	7.7288e-06	7.9613e-06	1310.9	356.93	8.0816e-06	7.9563e-06	409.5	136.02	117.78	39.988	7.9929e-06	49.992	114.987	-59.342	-42.727	-129.600	-32.182	8.122	-129.887	-125.395	-37.162	20.163	-125.451	-121.595	-121.104	-115.966	-28.213	-116.807	-8191	255	
6888.797	1	1	0	0	0.23884	0.17047	0.20734	0.2064	0.13343	0.083414	0.32838	0.355	0.14027	0.20061	0.098635	0.21628	0.12443	0.20767	0.17402	0.11366	-4.2542	-5.0021	-4.9125	-4.5625	-5.1708	-4.7104	-4.9	-5.1646	-4.525	-5.0104	-5.0167	-4.6417	-5.2417	-5.0292	-4.7542	-5.3	28.848	171.305	131.314	184.174	164.427	-18.848	105.647	171.069	180.413	128.925	206.562	120.655	-112.235	-126.473	-136.234	163.676	0.00088481	0.00036186	0.00014505	1280.3	7.0151e-06	4.7555e-06	1287.5	350.5	1.0569e-05	5.4397e-06	400.03	132.74	114.7	38.804	3.867e-06	48.457	0.00072258	0.00074435	0.0002069	1300.8	7.7752e-06	8.0709e-06	1308.7	356.72	8.0197e-06	7.9662e-06	409	135.91	117.9	39.993	8.1704e-06	49.914	111.442	-49.656	-55.348	-129.504	-57.970	7.820	-129.895	-125.219	-68.272	24.693	-125.476	-121.715	-121.154	-116.168	3.289	-116.818	-8191	255	
6888.893	1	1	0	0	0.29827	0.10276	0.070798	0.1074	0.10761	0.087961	0.26221	0.41809	0.20151	0.15252	0.15224	0.080407	0.18976	0.22375	0.065539	0.21145	-4.2833	-4.9333	-5.2188	-4.8104	-5.0354	-4.8708	-4.7896	-5.3667	-4.7271	-4.7312	-5.0708	-4.4875	-5.1083	-4.9625	-4.6813	-5.2146	148.904	-129.514	-41.502	-85.494	139.457	-114.551	144.533	141.010	197.559	7.789	87.420	-94.434	208.581	185.868	62.473	81.711	0.00084633	0.0005177	0.00018628	1281.7	1.7698e-06	5.3112e-06	1286.8	348.94	6.901e-06	4.9525e-06	400.68	132.71	115.11	38.873	4.5122e-06	48.464	0.00072969	0.00076422	0.00021263	1302	7.8348e-06	8.154e-06	1310.4	356.41	8.0589e-06	8.1621e-06	409.3	135.95	117.77	39.968	8.1393e-06	50.02	112.280	-56.793	-57.827	-129.685	-59.635	-5.584	-129.907	-125.037	-54.219	4.086	-125.683	-121.506	-121.208	-116.004	-13.773	-116.810	-8191	255	
6888.989	1	1	0	0	0.066661	0.062194	0.16531	0.15465	0.028546	0.21806	0.32389	0.13879	0.12965	0.22516	0.093491	0.057964	0.25679	0.02831	0.13306	0.11499	-4.4146	-4.7771	-4.9583	-4.5604	-4.8313	-4.8146	-4.7333	-5.2542	-4.6229	-4.5854	-4.9292	-4.4896	-5.0167	-5.1875	-4.5854	-5.1479	25.400	205.020	-71.192	207.446	11.564	10.806	-116.983	111.527	8.244	-49.458	170.897	-105.861	188.017	-35.268	205.725	137.067	0.00095184	0.00063895	0.0001853	1282.2	6.1347e-06	5.9745e-06	1285.6	348.82	6.6366e-06	4.2325e-06	402.17	132.68	114.72	38.76	5.248e-06	48.327	0.00072813	0.0007538	0.00020231	1302.5	7.8512e-06	8.3198e-06	1310.7	356.09	7.9912e-06	8.1015e-06	409.09	135.9	117.63	39.948	7.9974e-06	49.894	115.679	-36.410	-64.491	-129.613	-60.001	-2.509	-129.987	-125.139	-53.922	-12.946	-125.745	-121.683	-121.165	-116.148	-4.415	-116.695	-8191	255	
6889.086	1	1	0	0	0.22979	0.087709	0.039537	0.20072	0.10181	0.22575	0.20172	0.12129	0.053798	0.043097	0.12822	0.10435	0.12405	0.18237	0.14413	0.090509	-4.3146	-4.4313	-5.1583	-4.7188	-5.0292	-5.0333	-4.5792	-5.0354	-4.8333	-4.5271	-5.1167	-4.6104	-4.8125	-5.1021	-4.3917	-5.0646	14.806	123.192	11.248	43.825	48.667	80.221	207.499	164.713	34.532	197.476	86.419	144.301	133.431	124.755	50.523	-142.771	0.00094905	0.0005975	0.00016876	1283.2	6.1209e-06	4.2119e-06	1285.4	348.61	7.7569e-06	6.2125e-06	400.44	132.23	114.76	38.827	3.8521e-06	48.326	0.00071766	0.00073561	0.00020078	1302	7.9459e-06	8.0851e-06	1309.4	355.91	7.9775e-06	7.9606e-06	408.74	135.93	117.55	39.913	8.2455e-06	49.983	112.805	-78.928	-45.364	-129.672	-40.368	12.390	-129.770	-125.161	-52.791	-13.911	-125.615	-121.685	-121.205	-116.121	-35.828	-116.876	-8191	255	
6889.182	1	1	0	0	0.1397	0.051536	0.10525	0.33219	0.10214	0.1689	0.13286	0.18235	0.13025	0.058788	0.29276	0.12407	0.14909	0.098783	0.10473	0.27285	-4.475	-4.4417	-5.075	-4.8042	-4.775	-5.0354	-4.7708	-5.1562	-4.7375	-4.5708	-5.1042	-4.7042	-4.7583	-5.1271	-4.3833	-5.0146	135.891	63.226	35.179	192.611	-98.112	-112.845	150.122	-107.252	-22.181	42.572	207.207	139.768	182.254	68.124	-4.400	120.723	0.00086704	0.00070188	0.00018637	1287.8	4.0738e-06	4.8593e-06	1284.7	349.48	1.0636e-05	6.2162e-06	401.2	131.97	115.13	38.894	3.0315e-06	48.378	0.00072939	0.00075056	0.00020451	1303.3	7.9097e-06	8.1497e-06	1310.6	356.15	8.1939e-06	8.4968e-06	409.74	135.63	117.89	39.919	8.5169e-06	50.002	114.581	-48.073	-32.509	-129.655	-48.359	25.395	-129.909	-125.282	-72.580	15.742	-125.649	-121.637	-120.997	-116.291	-22.995	-116.656	-8191	255	
6889.278	1	1	0	0	0.087651	0.21221	0.050145	0.21052	0.31867	0.11802	0.20027	0.14313	0.2272	0.11681	0.11728	0.41222	0.14044	0.14347	0.10235	0.15949	-4.55	-4.4271	-4.9125	-4.8396	-4.575	-5.0208	-4.6625	-5.1021	-4.7146	-4.4688	-5.325	-4.8167	-4.6479	-5.2583	-4.6792	-5.1208	208.375	175.509	-121.917	105.889	179.799	127.415	28.859	196.662	103.030	-133.214	189.194	139.966	31.103	207.549	-92.444	-93.037	0.00092328	0.00039385	4.8023e-05	1286.1	4.7652e-06	4.7395e-06	1290.1	349.94	4.7002e-06	3.9625e-06	400.48	132.7	114.78	38.884	3.1927e-06	48.323	0.00073808	0.00079678	0.00021601	1305.6	8.5409e-06	8.5298e-06	1315	356.75	8.5873e-06	9.075e-06	409.38	135.94	117.97	40.031	8.6695e-06	50.014	112.569	-82.015	-64.387	-129.851	-41.836	4.845	-130.040	-125.144	-24.238	-10.007	-125.483	-121.975	-121.141	-115.970	-58.942	-116.816	-8191	255	
6889.399	1	1	0	0	0.25713	0.17483	0.022587	0.30026	0.28829	0.19736	0.22566	0.026139	0.12748	0.13205	0.35659	0.05894	0.15932	0.062057	0.23785	0.05683	-4.7312	-4.6542	-5.0604	-5.1458	-4.5896	-5.2375	-4.9729	-4.9583	-5.0146	-4.5813	-5.1208	-4.9313	-4.6292	-5.3583	-4.5958	-4.8562	196.643	51.793	66.905	187.234	20.550	27.642	207.031	-1.374	-73.955	99.577	174.691	-132.547	-13.769	198.168	-49.487	43.076	0.00091834	0.00052845	0.00012098	1287.4	4.4532e-06	4.4155e-06	1290	350.78	7.5265e-06	6.1202e-06	402.06	132.95	115.12	38.969	4.2526e-06	48.364	0.00077524	0.00082493	0.00022905	1307.5	8.827e-06	9.0991e-06	1314.9	357.48	8.7223e-06	8.9293e-06	410.09	136.05	117.98	40.04	9.1817e-06	49.902	116.688	-85.604	-44.948	-129.766	-31.551	18.878	-129.943	-125.159	-55.991	-5.003	-125.632	-121.723	-121.116	-116.020	-19.987	-116.902	-8191	255	
6889.495	1	1	0	0	0.081032	0.22985	0.19956	0.29462	0.075979	0.060508	0.35623	0.19453	0.13971	0.15634	0.040633	0.19668	0.13326	0.053102	0.15957	0.11432	-4.7292	-4.3271	-4.9021	-4.9479	-4.4979	-5.0687	-4.6729	-4.7792	-4.8729	-4.5917	-5.1312	-5.0792	-4.7771	-5.3229	-4.8562	-4.5958	176.604	97.512	-25.105	177.512	205.473	-109.374	157.539	102.819	-114.392	-19.954	48.440	191.573	192.044	155.196	208.879	-21.461	0.00090563	0.00055359	0.00015677	1283.8	6.1859e-06	4.0151e-06	1289	350.11	7.8448e-06	7.2273e-06	401.17	132.94	114.65	38.933	4.5117e-06	48.631	0.0007718	0.00083211	0.00023128	1305.7	8.7518e-06	9.0376e-06	1313.9	357.4	8.9912e-06	9.5681e-06	410.77	136.08	117.79	39.983	9.6541e-06	49.98	110.163	-50.196	-36.766	-129.707	-37.053	30.894	-129.985	-125.268	-51.548	22.971	-125.729	-121.872	-121.159	-116.157	-18.800	-116.905	-8191	255	
6889.591	1	1	0	0	0.16657	0.26817	0.053103	0.17856	0.10466	0.069718	0.26073	0.19299	0.11448	0.12823	0.19939	0.10212	0.079576	0.062559	0.15387	0.10004	-4.7542	-4.5333	-4.9604	-5.0542	-4.5938	-5.2104	-5.0979	-5	-5.1562	-4.7	-5.0188	-5.175	-4.6396	-5.0854	-4.8667	-4.7604	69.131	-62.555	-29.627	132.228	-100.041	94.086	134.720	145.567	9.173	118.203	190.070	-92.304	121.874	211.788	107.323	49.476	0.00088745	0.00073613	8.7776e-05	1295.8	2.0609e-06	5.9226e-06	1299.9	352.34	8.8144e-06	6.5098e-06	404.13	133.03	115.7	38.847	3.4397e-06	48.359	0.0008232	0.00092185	0.00025829	1314.1	9.8193e-06	1.0448e-05	1323.5	359.29	1.0181e-05	1.072e-05	412.44	136.7	118.58	40.155	1.0554e-05	50.146	107.926	-44.747	-96.664	-129.569	7.549	-2.694	-130.027	-125.175	-39.514	1.943	-125.626	-121.801	-121.170	-115.965	-41.003	-116.905	-8191	255	
6889.687	1	1	0	0	0.11376	0.1475	0.092762	0.1725	0.23754	0.12692	0.29097	0.44125	0.13102	0.18004	0.24124	0.15896	0.12797	0.091521	0.1937	0.089754	-4.9083	-4.6229	-4.8875	-5.1937	-4.4167	-5.1188	-4.9771	-4.6396	-5.1542	-4.6042	-4.6521	-5.0896	-4.4896	-5.0167	-4.7438	-4.625	-105.580	23.808	120.869	179.966	62.361	-86.026	121.667	171.067	13.307	28.402	151.235	-120.114	116.547	-111.127	75.125	204.097	0.00091327	0.00054617	0.00014566	1296.5	2.4525e-06	3.2797e-06	1305.5	352.85	5.0676e-06	5.2512e-06	404.68	132.89	116.07	39.033	5.4968e-06	48.714	0.0008919	0.00097209	0.00027865	1320.4	1.0542e-05	1.1307e-05	1329.1	360.19	1.0862e-05	1.1377e-05	413.53	136.86	118.99	40.188	1.0977e-05	50.335	115.641	-63.306	-67.484	-129.746	-58.281	5.332	-129.962	-125.185	-62.903	17.888	-125.627	-121.797	-121.357	-116.151	6.091	-117.002	-8191	255	
6889.783	1	1	0	0	0.070878	0.1515	0.057988	0.14544	0.11157	0.13504	0.10408	0.055724	0.1039	0.2812	0.023136	0.17065	0.047644	0.0904	0.10284	0.22454	-4.8438	-4.6687	-4.6708	-5.2	-4.5146	-4.8521	-5.125	-4.5146	-4.9771	-4.6958	-4.6292	-4.9812	-4.5208	-4.7792	-4.9167	-4.4854	36.831	22.900	148.551	29.125	3.870	-107.513	190.503	165.049	-13.765	19.069	-115.222	200.198	30.696	15.006	86.838	-57.003	0.00090742	0.00056914	0.00010654	1303.2	3.0026e-06	3.6447e-06	1305.1	353.25	7.6523e-06	4.163e-06	403.9	132.81	116.07	39.047	1.107e-06	48.555	0.00093295	0.0010405	0.00029287	1323	1.0983e-05	1.1458e-05	1330.6	360.83	1.1175e-05	1.1509e-05	413.74	136.74	118.91	40.189	1.1388e-05	50.2	106.297	-43.580	-50.907	-129.778	-46.355	43.538	-130.058	-125.349	-35.759	-24.982	-125.706	-121.727	-121.000	-116.196	13.791	-116.797	-8191	255	
6889.879	1	1	0	0	0.2111	0.1373	0.15538	0.25103	0.17273	0.18563	0.18266	0.15266	0.25173	0.18856	0.16162	0.089001	0.11164	0.060902	0.34113	0.12527	-4.75	-4.5646	-4.5646	-5.3208	-4.6167	-4.9729	-5.1375	-4.6417	-4.9667	-4.7125	-4.5542	-5.1271	-4.6729	-4.8792	-5.0437	-4.5521	84.062	98.319	197.073	175.129	-20.866	101.843	-86.126	29.433	160.339	-125.344	172.652	-140.756	78.870	135.531	-85.870	78.130	0.00085407	0.00046187	0.00017907	1301.4	5.4311e-06	2.8207e-06	1303.6	353.15	9.2723e-06	2.9964e-06	407.29	133.39	115.5	38.935	4.7865e-06	48.363	0.00093472	0.0010531	0.00029837	1322.4	1.1199e-05	1.1622e-05	1327.5	360.78	1.1306e-05	1.1604e-05	414.6	136.63	118.56	40.086	1.1621e-05	50.194	108.959	-64.848	-30.822	-129.815	-48.013	-14.353	-130.138	-125.158	-54.997	-12.790	-125.880	-121.980	-121.140	-116.366	-25.411	-116.940	-8191	255	
6889.998	1	1	0	0	0.17746	0.18434	0.035383	0.099726	0.25233	0.04469	0.14031	0.35948	0.20699	0.10901	0.1022	0.39417	0.15287	0.14113	0.15267	0.22313	-4.7812	-4.6479	-4.4125	-5.1021	-4.5396	-4.7208	-5.1542	-4.6062	-4.7625	-4.9625	-4.5979	-5.1896	-4.6583	-4.6458	-5.0062	-4.6417	89.787	73.097	-54.334	104.188	199.899	99.385	130.234	197.938	49.744	204.024	-105.320	186.730	-85.468	193.903	-140.437	203.873	0.00092111	0.00059914	0.00012949	1300.1	2.4887e-06	6.3195e-06	1309.3	353.32	6.7726e-06	4.4416e-06	403.76	132.99	115.92	38.857	7.1439e-06	48.357	0.00093937	0.0010764	0.00029572	1322.9	1.1323e-05	1.1832e-05	1331	360.49	1.1171e-05	1.1479e-05	414.03	136.82	118.79	40.055	1.1342e-05	50.021	111.964	-50.596	-51.426	-129.650	-10.204	-16.594	-130.090	-125.157	-54.693	-8.629	-125.732	-121.766	-121.437	-116.060	14.441	-116.908	-8191	255	
6890.094	1	1	0	0	0.2703	0.069083	0.089493	0.19199	0.13471	0.1211	0.3567	0.14139	0.12126	0.11253	0.10202	0.12128	0.1652	0.035312	0.15161	0.062959	-4.4958	-4.8979	-4.3979	-5.3229	-4.5646	-4.9229	-5.2958	-4.8063	-4.9437	-5.0687	-4.6625	-4.9625	-4.8167	-4.5938	-5.0521	-4.7125	88.788	42.042	-54.296	139.852	16.467	-139.871	-134.836	178.769	62.005	48.066	-109.653	139.496	198.217	144.752	-4.076	-122.868	0.0008569	0.00039052	0.00014153	1307.9	4.7647e-06	5.5842e-06	1305.9	352.92	8.8226e-06	6.6654e-06	403.88	133.74	115.78	39.061	3.7432e-06	48.694	0.00094298	0.00108	0.00029776	1325.7	1.1361e-05	1.1776e-05	1333.5	360.53	1.1269e-05	1.1801e-05	414.48	137.18	118.99	40.219	1.1424e-05	50.265	110.142	-43.047	-67.952	-129.826	-55.095	49.632	-130.078	-125.302	-51.789	-4.405	-125.720	-121.545	-121.057	-116.007	4.995	-116.791	-8191	255	
6890.191	1	1	0	0	0.13788	0.15492	0.099937	0.2995	0.12431	0.14933	0.21653	0.32564	0.046996	0.18832	0.17685	0.22285	0.14455	0.012096	0.12814	0.17711	-4.3542	-4.9167	-4.2896	-5.2417	-4.8396	-4.6375	-5.3417	-4.9083	-4.7125	-4.9917	-4.5667	-4.9854	-4.7438	-4.3042	-4.9313	-4.675	53.621	118.130	51.577	190.719	149.411	131.081	98.147	186.206	-78.884	-107.585	206.481	-112.780	87.623	161.137	60.421	114.233	0.00094411	0.00076475	0.00018735	1308.4	5.2241e-06	4.5748e-06	1306.6	354.45	7.6893e-06	4.194e-06	404.42	133.04	115.38	39.007	5.206e-06	48.596	0.00095604	0.0010706	0.00030162	1327.8	1.1127e-05	1.1538e-05	1333.8	361.46	1.1097e-05	1.1544e-05	414.35	136.82	118.85	40.25	1.1114e-05	50.322	108.423	-70.397	-73.433	-129.743	-19.986	27.450	-130.019	-125.146	-51.548	47.419	-125.716	-121.820	-121.110	-116.035	-8.891	-116.697	-8191	255	
6890.287	1	1	0	0	0.1324	0.24196	0.1046	0.15363	0.094668	0.11458	0.30454	0.15271	0.20947	0.097799	0.1289	0.22687	0.25947	0.095893	0.12691	0.15506	-4.3292	-5.0042	-4.5417	-5.1083	-4.9208	-4.5854	-5.3375	-4.8063	-4.8229	-5.0167	-4.6417	-5.0958	-5.1292	-4.6	-5.0813	-4.9583	-47.608	-34.790	-129.491	148.714	123.802	167.904	-142.523	158.735	185.057	110.265	-125.013	172.930	171.617	-23.334	50.954	180.309	0.00092273	0.0004171	0.00012367	1306.9	6.1009e-06	4.9879e-06	1311.3	353.87	8.0506e-06	3.3284e-06	406.89	133.54	116.23	39.052	7.1679e-06	48.701	0.00094574	0.0010516	0.00028797	1327.4	1.1005e-05	1.1645e-05	1334	361.04	1.1195e-05	1.0887e-05	414.99	137.21	119.24	40.426	1.1147e-05	50.45	112.878	-65.040	-63.426	-129.729	-35.561	-10.744	-130.015	-125.156	-58.558	21.683	-125.569	-121.899	-121.004	-116.192	-4.259	-116.749	-8191	255	
6890.383	1	1	0	0	0.10808	0.12576	0.11254	0.14861	0.099538	0.14957	0.26904	0.13249	0.083277	0.20155	0.19807	0.074733	0.038816	0.15998	0.15041	0.089345	-4.2667	-5.1167	-4.55	-4.9146	-4.9208	-4.5083	-5.2688	-4.9187	-4.4	-4.9375	-4.7479	-4.9	-5.0771	-4.6354	-5.0083	-5.0396	-90.314	148.315	157.276	199.570	-61.247	-95.923	167.706	203.515	-53.574	88.190	-139.173	188.046	-5.371	136.058	117.159	170.948	0.00093428	0.00031322	6.5324e-05	1311.6	5.7209e-06	4.4603e-06	1316.5	354.99	7.3694e-06	8.1574e-06	406.99	133.99	116.86	39.413	5.9872e-06	48.944	0.00093541	0.0010339	0.00029772	1330.8	1.0996e-05	1.1789e-05	1340.1	362.57	1.1608e-05	1.1683e-05	416.16	138.15	120.09	40.657	1.2236e-05	50.778	111.086	-33.089	-62.681	-129.512	-38.229	-13.237	-129.905	-125.272	-78.151	15.008	-125.859	-121.878	-121.356	-116.012	-39.564	-117.014	-8191	255	
6890.479	1	1	0	0	0.15071	0.11714	0.17017	0.22178	0.10355	0.022679	0.11716	0.42198	0.062714	0.09004	0.20065	0.18305	0.128	0.10098	0.24975	0.073381	-4.3583	-5.2375	-4.7021	-4.8708	-5.175	-4.4625	-5.1229	-5.1625	-4.325	-5.2146	-4.7604	-4.625	-5.0521	-4.6375	-4.8625	-4.925	177.640	16.707	155.939	198.664	69.562	12.326	-118.910	151.377	-99.150	-103.518	-61.543	153.465	211.300	-129.696	-133.704	-99.435	0.00094164	0.00062408	0.00019203	1320.6	6.103e-06	7.381e-06	1323.4	358.65	1.106e-05	3.6246e-06	411.16	136.2	118.24	40.282	7.0496e-06	49.746	0.0010356	0.0011887	0.00033799	1341	1.2898e-05	1.4071e-05	1348.9	366.26	1.3962e-05	1.4776e-05	420.95	140.01	121.91	41.452	1.541e-05	51.644	112.922	-87.842	-43.583	-129.774	-57.347	0.931	-129.983	-125.260	-46.996	28.220	-125.608	-121.740	-121.259	-116.355	28.766	-117.169	-8191	255	
6890.575	1	1	0	0	0.32192	0.2039	0.090729	0.09841	0.091375	0.20187	0.28156	0.23225	0.059035	0.030591	0.15185	0.1949	0.12364	0.071649	0.13194	0.088772	-4.025	-4.9229	-4.5271	-4.7229	-5.1	-4.5875	-5.1104	-5.1146	-4.4208	-5.1271	-4.9792	-4.8083	-5.225	-4.9771	-4.8187	-5.0417	52.882	100.848	-9.314	114.411	200.936	22.476	156.793	181.379	-102.004	5.298	197.307	165.971	-13.408	-117.967	100.024	143.448	0.00094777	0.00058527	0.00017566	1324.6	5.1607e-06	4.353e-06	1333.6	361.53	4.7995e-06	9.5437e-06	410.79	136.63	118.36	40.331	4.5468e-06	49.928	0.0012212	0.0014976	0.00041157	1348.9	1.5142e-05	1.6232e-05	1359.2	369.18	1.512e-05	1.5959e-05	422.38	140.85	122.31	41.654	1.5177e-05	51.829	112.061	-48.952	-66.829	-129.634	-4.922	63.951	-129.919	-125.379	-56.645	77.148	-125.843	-121.689	-121.045	-116.083	11.750	-117.042	-8191	255	
6890.694	1	1	0	0	0.20256	0.12984	0.040398	0.20848	0.14007	0.15427	0.37938	0.14388	0.10767	0.094357	0.18093	0.21622	0.29162	0.2535	0.029791	0.089078	-4.1646	-5.0771	-4.6542	-4.6583	-5.0896	-4.6083	-5.0083	-5.1854	-4.4021	-5.0188	-5.0167	-4.5896	-5.1104	-4.7771	-4.7312	-5.1	-39.589	-138.470	-93.522	108.457	-42.373	132.762	168.430	164.608	126.047	62.619	-55.952	166.654	157.234	206.357	-56.893	69.233	0.00089997	0.00058213	0.00010464	1329.9	6.2379e-06	4.4655e-06	1334.6	359.8	6.9356e-06	7.0905e-06	412.1	137.65	118.96	40.394	5.0619e-06	50.311	0.001206	0.0014301	0.00039377	1352.7	1.4858e-05	1.5497e-05	1360.5	368.46	1.4636e-05	1.5232e-05	422.61	141.38	122.58	41.764	1.4951e-05	52.064	110.839	-62.967	-71.776	-129.748	-53.374	28.679	-130.058	-125.341	-21.894	24.701	-125.676	-121.858	-121.406	-116.223	18.502	-116.848	-8191	255	
6890.790	1	1	0	0	0.048708	0.25034	0.29727	0.40302	0.13195	0.21274	0.22633	0.13342	0.20365	0.16415	0.1667	0.16742	0.084059	0.17417	0.045973	0.15442	-3.9771	-4.8938	-4.8646	-4.6062	-4.9458	-4.5729	-4.6521	-5.1771	-4.4542	-4.8021	-4.9208	-4.525	-5.0271	-4.7667	-4.5813	-5.2875	46.349	196.984	-37.282	139.348	-32.325	126.968	203.944	148.146	187.619	-34.335	192.395	174.284	181.728	122.301	-92.171	177.909	0.00087159	0.00050997	0.0002092	1332.2	6.1593e-06	7.0759e-06	1334.5	360.85	1.1915e-05	2.1544e-06	413.9	137.52	119.03	40.364	1.8437e-06	50.03	0.0011688	0.0013608	0.00038447	1353.1	1.3967e-05	1.5117e-05	1361.5	368.57	1.4614e-05	1.5057e-05	423.07	141.03	122.59	41.827	1.4436e-05	51.925	113.105	-38.762	-47.605	-129.749	-34.147	-7.088	-130.197	-125.343	-64.904	31.797	-125.709	-122.041	-120.980	-116.213	-13.144	-117.075	-8191	255	
6890.864	1	1	0	0	0.12192	0.15244	0.11823	0.17455	0.1086	0.083247	0.34235	0.11089	0.26321	0.2528	0.10648	0.1581	0.22349	0.094195	0.041027	0.12465	-4.3292	-4.9104	-5.1771	-4.6188	-5.0896	-4.7833	-4.7312	-5.1396	-4.525	-4.8583	-4.9604	-4.4854	-5.1417	-4.875	-4.6229	-5.2667	39.045	-43.993	-4.245	128.955	214.733	116.584	-137.102	132.008	108.214	160.501	151.098	209.119	155.002	17.415	-142.351	49.046	0.00097009	0.00047503	0.00018574	1329.5	4.5085e-06	5.5214e-06	1334.9	360.89	7.5487e-06	6.4993e-06	411.68	136.87	118.62	40.582	7.7585e-06	50.076	0.001187	0.0013871	0.00038085	1350.7	1.4414e-05	1.557e-05	1360.3	368.23	1.4399e-05	1.5353e-05	422.21	140.96	122.25	41.869	1.5006e-05	51.969	109.155	-42.749	-39.241	-129.644	6.190	10.716	-130.124	-125.247	-46.111	-2.431	-125.631	-121.901	-121.151	-116.304	3.719	-116.811	-8191	255	
6890.960	1	1	0	0	0.18586	0.10591	0.20808	0.22622	0.1893	0.065386	0.084842	0.15941	0.2237	0.12501	0.16277	0.14326	0.17583	0.028962	0.40354	0.07935	-4.3479	-4.6958	-4.9917	-4.5833	-4.9354	-4.8458	-4.4771	-5.2833	-4.6687	-4.7625	-5.2708	-4.5021	-4.875	-5.0146	-4.4021	-5.1271	-137.330	-49.126	-111.975	116.072	-120.288	1.202	-11.250	184.197	-10.785	-138.930	-104.838	-91.608	67.799	197.956	108.944	126.230	0.0008733	0.00056681	0.00016436	1331.4	9.1123e-06	5.7993e-06	1336.2	359.54	9.8799e-06	5.7906e-06	411.63	137.28	118.8	40.482	6.8111e-06	50.22	0.0011921	0.0014088	0.00038526	1351.6	1.4591e-05	1.5282e-05	1360.6	367.76	1.4617e-05	1.5274e-05	421.81	141	122.34	41.879	1.5019e-05	52.035	109.361	-46.993	-33.251	-129.762	-29.013	2.334	-130.014	-125.386	-66.286	-7.623	-125.903	-122.121	-121.426	-116.154	3.728	-116.883	-8191	255	
6891.079	1	1	0	0	0.2415	0.036531	0.075273	0.084185	0.095673	0.24032	0.3848	0.25779	0.060455	0.085336	0.10278	0.10284	0.091708	0.2641	0.08956	0.066667	-4.2646	-4.5938	-4.9979	-4.7771	-4.8313	-5.1146	-4.7167	-5.2583	-4.8	-4.3979	-5.0792	-4.6542	-4.8688	-5.0479	-4.6021	-5.0854	83.377	195.606	196.555	182.485	130.864	4.343	157.932	199.899	31.464	-55.833	65.092	-134.206	-42.062	178.482	169.722	100.683	0.0009	0.00054094	0.00018917	1326.9	6.6031e-06	4.5604e-06	1332	360.78	7.1137e-06	4.9647e-06	411.05	137.24	118.64	40.566	4.0526e-06	50.229	0.0011867	0.0013975	0.0003929	1351.4	1.4452e-05	1.5373e-05	1360.3	367.72	1.4759e-05	1.5525e-05	421.49	140.92	122.21	41.823	1.5215e-05	51.966	107.981	-69.775	-24.183	-129.530	-32.191	2.155	-129.989	-125.307	-51.215	17.824	-125.483	-121.870	-121.493	-116.162	-29.352	-116.966	-8191	255	
6891.175	1	1	0	0	0.21784	0.10631	0.13098	0.022534	0.15086	0.13805	0.36502	0.034387	0.13551	0.18063	0.054699	0.25313	0.071317	0.22107	0.13238	0.13089	-4.425	-4.4167	-4.9771	-4.7646	-4.9187	-5.0479	-4.55	-4.9792	-4.7917	-4.3938	-5.1833	-4.6479	-4.8542	-5.0333	-4.2312	-5.0125	123.281	-114.225	-57.632	-106.045	40.676	47.245	196.442	59.192	58.188	188.753	203.597	143.359	148.931	170.155	176.940	-81.636	0.00086825	0.000372	0.00013029	1330.4	6.2671e-06	8.0357e-06	1333.7	359.04	9.1304e-06	7.7562e-06	412.07	137.28	118.63	40.411	3.3564e-06	50.006	0.0012125	0.0014326	0.00039275	1353.1	1.467e-05	1.5758e-05	1359.8	367.45	1.4807e-05	1.5624e-05	422.26	140.96	122.35	41.803	1.5177e-05	51.915	113.270	-31.360	-97.093	-129.691	-1.209	6.421	-130.011	-125.267	-64.916	24.829	-125.888	-122.022	-121.267	-116.256	6.181	-117.239	-8191	255	
6891.271	1	1	0	0	0.26561	0.12928	0.19567	0.36737	0.24784	0.09413	0.18755	0.17319	0.17896	0.090933	0.25267	0.063194	0.32233	0.1853	0.013085	0.040286	-4.3812	-4.3979	-4.9146	-4.7271	-4.6979	-5.0896	-4.6937	-5.0104	-4.9583	-4.5229	-5.2708	-4.7208	-4.7167	-5.1937	-4.5833	-4.8833	197.895	-125.785	121.223	209.024	79.088	40.728	77.021	132.503	-20.175	212.307	156.643	-120.618	148.824	199.436	-73.551	198.187	0.00095327	0.00058645	0.00010171	1329.2	5.7349e-06	4.938e-06	1332	360.31	9.2756e-06	8.4311e-06	410.92	137.05	117.68	40.271	2.8531e-06	49.91	0.0012154	0.0014174	0.00040136	1353.1	1.4628e-05	1.5481e-05	1359.7	368.27	1.4699e-05	1.5234e-05	421.37	140.84	121.8	41.67	1.4926e-05	51.878	112.547	-50.438	-66.964	-129.723	-45.837	-2.968	-130.012	-125.288	-67.439	-3.680	-125.895	-121.909	-121.267	-116.297	-29.543	-117.061	-8191	255	
6891.392	1	1	0	0	0.030506	0.028402	0.095438	0.16112	0.18413	0.018105	0.094506	0.093686	0.14432	0.08296	0.36361	0.32579	0.05317	0.082263	0.25743	0.068851	-4.475	-4.3583	-4.9896	-4.8688	-4.6208	-5.175	-4.725	-4.9771	-4.875	-4.4938	-5.0396	-4.8917	-4.6	-5.1771	-4.5542	-4.9167	-25.435	-50.304	144.562	189.274	157.309	42.348	142.405	94.968	147.474	179.691	157.240	173.279	204.636	-124.974	-48.015	-113.891	0.00098128	0.00049034	0.00018089	1330.7	7.5465e-06	5.2273e-06	1334.3	358.66	7.1116e-06	4.6017e-06	410.91	136.69	118.14	40.458	6.086e-06	50.046	0.0011528	0.0013898	0.00038707	1352.7	1.433e-05	1.5124e-05	1361.4	367.56	1.4142e-05	1.4931e-05	421.55	140.69	121.98	41.724	1.435e-05	51.923	109.425	-57.884	-51.006	-129.771	-50.733	19.319	-130.039	-125.353	-38.148	20.236	-125.627	-121.934	-121.057	-116.273	-23.149	-117.003	-8191	255	
6891.488	1	1	0	0	0.16031	0.072434	0.232	0.32507	0.14222	0.1031	0.43552	0.22281	0.053188	0.16871	0.25784	0.14008	0.16561	0.20403	0.15415	0.14032	-4.6917	-4.4979	-4.9167	-4.8833	-4.3979	-5.0687	-4.7646	-4.875	-5.1583	-4.5521	-5.225	-5.075	-4.4938	-4.9708	-4.6188	-4.5979	129.121	9.082	45.290	-122.291	149.904	136.444	150.331	-108.568	20.444	-137.791	70.333	183.169	-80.584	-138.785	-26.203	-63.139	0.0010046	0.0004163	0.00014772	1329.7	2.2499e-06	5.0095e-06	1338.7	360.16	3.8714e-06	3.8395e-06	411.83	137.09	118.32	40.386	4.5442e-06	49.934	0.001145	0.0013597	0.00037246	1353	1.407e-05	1.4673e-05	1362.6	367.61	1.3986e-05	1.4798e-05	421.62	140.67	121.95	41.666	1.4515e-05	51.872	114.954	-61.710	-84.291	-129.686	16.421	-6.158	-130.201	-125.242	-75.563	33.724	-125.777	-121.985	-121.211	-116.192	-50.671	-117.057	-8191	255	
6891.559	1	1	0	0	0.11717	0.20089	0.096646	0.12611	0.16915	0.17827	0.16976	0.29164	0.01567	0.14683	0.046148	0.21513	0.10556	0.088765	0.029861	0.15742	-4.6312	-4.5104	-4.8313	-5.0979	-4.2854	-4.9375	-4.7417	-4.5896	-5.0521	-4.5875	-4.9708	-4.9563	-4.3938	-5.1521	-4.8625	-4.7021	93.143	182.142	173.810	144.734	210.180	166.763	93.101	162.082	2.934	-23.790	-107.826	-78.655	-2.354	128.374	-63.295	145.610	0.00084718	0.00084437	3.5826e-05	1332.7	5.9024e-06	2.1164e-06	1337.4	359.33	8.5662e-06	3.5121e-06	411.47	136.13	118.11	40.204	4.7837e-06	50.04	0.0011473	0.0013346	0.00036851	1354	1.3744e-05	1.4704e-05	1362.9	367.54	1.3649e-05	1.4407e-05	421.3	140.19	121.65	41.56	1.4116e-05	51.727	110.571	-78.117	-56.151	-129.861	-50.447	-5.511	-130.009	-125.389	-81.913	11.777	-125.602	-121.914	-121.149	-116.539	-22.288	-116.787	-8191	255	
6891.680	1	1	0	0	0.15598	0.23125	0.088177	0.26675	0.081745	0.24425	0.28417	0.33901	0.17397	0.14783	0.12703	0.21101	0.041212	0.114	0.15613	0.11061	-4.9187	-4.5625	-4.8875	-5.2042	-4.4729	-5.0792	-5.0125	-4.5771	-4.9833	-4.4208	-4.8396	-5.1521	-4.5396	-4.9667	-4.8292	-4.5667	-49.834	-40.901	103.628	168.315	7.391	117.501	175.734	210.108	-73.984	159.292	178.008	136.040	23.074	-137.207	140.950	-20.610	0.0010108	0.00032948	0.00014123	1328.6	5.5067e-06	4.9901e-06	1333.7	359.03	5.7593e-06	2.1399e-06	412.86	135.88	117.87	40.122	9.766e-06	49.732	0.001101	0.0012733	0.00035099	1352.2	1.3221e-05	1.3747e-05	1359.4	366.33	1.3026e-05	1.3815e-05	420.62	139.64	121.31	41.362	1.3173e-05	51.611	110.485	-112.178	-54.718	-129.754	-31.993	-18.423	-129.994	-125.400	-69.665	136.263	-125.772	-121.783	-121.271	-116.365	-20.747	-116.862	-8191	255	
6891.774	1	1	0	0	0.0911	0.21005	0.11184	0.12499	0.086005	0.16826	0.29099	0.13332	0.23827	0.16446	0.20769	0.092959	0.12442	0.19464	0.10366	0.063435	-4.7917	-4.7063	-4.75	-5.2146	-4.3333	-4.9604	-5.1167	-4.6396	-5.125	-4.6104	-4.6521	-5.1333	-4.5354	-4.8979	-4.975	-4.6625	146.801	102.281	-36.771	130.563	-141.859	-131.239	109.197	164.634	-119.197	-19.799	-88.689	-41.234	82.742	125.711	-76.065	36.727	0.00091928	0.00030179	7.4404e-05	1329	3.2327e-06	4.8848e-06	1330.3	358.76	8.5846e-06	6.473e-06	411.88	135.8	117.93	40.282	5.0262e-06	49.767	0.0010785	0.0012417	0.00035113	1351.3	1.3005e-05	1.382e-05	1358.9	366.26	1.3309e-05	1.4062e-05	420.92	139.97	121.51	41.521	1.3687e-05	51.687	113.051	-82.316	-47.829	-129.783	-33.513	54.533	-130.119	-125.293	-40.287	-1.347	-125.380	-121.884	-121.265	-116.134	-30.280	-117.124	-8191	255	
6891.871	1	1	0	0	0.098545	0.23673	0.074396	0.3184	0.0534	0.23825	0.31838	0.31646	0.11094	0.065705	0.068296	0.1188	0.1211	0.16562	0.17419	0.18541	-4.8917	-4.7417	-4.4208	-5.2688	-4.3479	-4.6188	-5.0938	-4.4958	-4.9646	-4.6771	-4.7021	-5.3792	-4.6312	-4.8792	-4.9292	-4.3521	-41.792	-17.580	-58.321	-138.665	-123.393	-37.563	153.009	120.575	110.603	-51.383	113.921	116.915	195.858	96.280	69.900	122.144	0.00092863	0.00060347	0.00020874	1329.3	3.2972e-06	4.8966e-06	1339.1	358.75	6.0794e-06	7.4342e-06	412.67	136	118.2	40.207	4.3626e-06	49.864	0.0011073	0.0013035	0.00036611	1353.2	1.3718e-05	1.4291e-05	1363.2	366.69	1.3833e-05	1.4432e-05	421.62	139.91	121.7	41.503	1.4181e-05	51.705	110.578	-71.647	-54.517	-129.693	-12.754	4.300	-129.974	-125.309	-48.094	7.467	-125.754	-122.012	-121.151	-116.215	-23.026	-116.992	-8191	255	
6891.991	1	1	0	0	0.23639	0.13812	0.22653	0.29337	0.19349	0.17923	0.22914	0.33215	0.12395	0.10828	0.14032	0.16311	0.13517	0.19397	0.079418	0.060188	-4.4729	-4.6438	-4.3667	-5.3438	-4.55	-4.8104	-5.3333	-4.6271	-4.7875	-4.9292	-4.5729	-5.1917	-4.7542	-4.6958	-5.0813	-4.6625	94.203	-123.063	-111.052	-102.920	156.281	106.256	175.379	-140.258	74.083	-22.892	208.953	163.965	138.189	129.509	150.418	77.564	0.00093051	0.00043616	0.00015181	1327.2	6.5152e-06	7.1195e-06	1336.8	360.06	9.5155e-06	4.3604e-06	411.66	136.46	117.84	40.159	7.596e-06	49.802	0.0011499	0.0013233	0.00037289	1351.9	1.4109e-05	1.4884e-05	1361.3	367.41	1.4215e-05	1.479e-05	421.33	140.02	121.55	41.459	1.4447e-05	51.637	113.024	-70.660	-11.240	-129.789	-57.740	-11.326	-130.033	-125.067	-54.227	-17.198	-125.481	-121.821	-121.274	-116.347	0.553	-116.942	-8191	255	
6892.087	1	1	0	0	0.13044	0.15354	0.12112	0.18546	0.25502	0.12203	0.25693	0.022424	0.23901	0.099372	0.27159	0.14279	0.16102	0.24937	0.16893	0.17605	-4.6542	-4.9521	-4.5292	-5.3354	-4.7125	-4.8125	-5.4146	-4.6354	-4.9688	-4.9563	-4.7542	-5.0479	-4.8021	-4.6021	-5.0333	-4.3771	-60.565	129.444	49.792	-141.710	-98.429	202.766	136.153	98.374	-77.460	-39.170	-135.387	145.900	-53.903	175.158	74.210	-92.444	0.00090522	0.00057208	0.00019103	1327.2	3.129e-06	3.0156e-06	1333.3	359.91	1.069e-05	2.1712e-06	411.66	136.8	118.17	40.356	5.5142e-06	49.374	0.0011561	0.0013508	0.00037953	1352.3	1.4374e-05	1.5049e-05	1359.8	367.14	1.4048e-05	1.4556e-05	421.57	140.29	121.73	41.564	1.4526e-05	51.549	111.955	-71.991	-47.456	-129.896	-38.741	40.300	-129.952	-125.350	-37.769	41.104	-125.690	-121.912	-121.398	-116.142	3.973	-116.988	-8191	255	
6892.159	1	1	0	0	0.11959	0.17538	0.078878	0.050081	0.13551	0.18716	0.35485	0.14536	0.062718	0.069069	0.22682	0.03321	0.14802	0.10221	0.15403	0.14186	-4.3854	-4.8646	-4.2208	-5.1062	-4.875	-4.7771	-5.3229	-4.7458	-4.7688	-4.95	-4.4979	-5.0771	-4.7229	-4.4875	-4.9646	-4.5146	213.723	-71.265	-110.467	166.491	68.211	11.259	148.002	132.295	48.319	183.764	-113.119	-31.281	188.766	-50.585	129.175	93.460	0.00099975	0.00061859	0.00020736	1334.4	5.4515e-06	3.5066e-06	1332.9	360.7	1.3622e-05	4.9982e-06	411.58	137.17	118.13	40.273	5.2172e-06	49.901	0.0011888	0.0013945	0.00038478	1356.4	1.4491e-05	1.562e-05	1363.7	368.1	1.4881e-05	1.5336e-05	421.57	140.58	121.76	41.564	1.5103e-05	51.742	115.067	-64.931	-47.267	-129.739	-25.660	25.115	-129.961	-125.140	-29.144	-7.631	-125.848	-121.734	-121.434	-116.182	14.627	-117.137	-8191	255	
6892.255	1	1	0	0	0.1001	0.028632	0.17157	0.31532	0.18729	0.17131	0.2355	0.12055	0.14831	0.10512	0.10422	0.08245	0.044076	0.14486	0.32874	0.23541	-4.4042	-5.0708	-4.4	-5.2458	-4.8042	-4.5687	-5.3812	-4.8875	-4.8146	-4.9812	-4.6208	-4.9354	-4.6813	-4.5687	-5.1354	-4.7229	59.332	28.250	8.543	154.766	-96.228	-74.873	112.733	172.942	211.665	112.897	203.443	215.509	154.251	184.939	129.663	153.051	0.00093812	0.00039809	0.00011954	1339.2	5.4603e-06	3.5907e-06	1338.8	359.01	5.9843e-06	4.9155e-06	410.63	136.35	118.99	40.199	4.34e-06	49.742	0.0012011	0.0014145	0.00040373	1357.6	1.4911e-05	1.5761e-05	1365.3	367.61	1.521e-05	1.5971e-05	422.56	140.31	122.17	41.624	1.5663e-05	51.696	108.962	-86.641	-41.561	-129.784	-18.017	-4.494	-130.091	-125.380	-64.437	39.466	-125.703	-121.870	-121.104	-116.080	-51.207	-116.844	-8191	255	
6892.376	1	1	0	0	0.15578	0.052542	0.012155	0.10015	0.13483	0.031849	0.24982	0.2208	0.11143	0.067957	0.18359	0.1317	0.21432	0.31209	0.12233	0.27022	-4.3042	-5.0854	-4.3979	-4.9125	-4.8417	-4.4479	-5.175	-4.6146	-4.3438	-5.0854	-4.7208	-4.9458	-5.1979	-4.7688	-5.1021	-5.0979	140.632	141.994	132.649	169.146	-92.419	-95.738	197.390	-88.940	213.385	29.190	178.848	160.241	-22.910	191.972	-82.682	-114.646	0.00089372	0.00049574	0.00012777	1330	5.119e-06	8.6892e-06	1335.9	359.69	1.0341e-05	5.5479e-06	410.94	136.04	117.99	40.176	1.2507e-06	49.85	0.001235	0.0014743	0.00041492	1354.9	1.5053e-05	1.6512e-05	1363.3	367.69	1.559e-05	1.6025e-05	421.33	140.17	121.75	41.524	1.5592e-05	51.693	111.197	-60.176	-96.553	-129.659	-16.014	35.266	-130.179	-125.313	-49.295	-30.328	-125.593	-121.704	-121.352	-116.321	-41.603	-117.007	-8191	255	
6892.472	1	1	0	0	0.19288	0.028551	0.05777	0.069592	0.097466	0.20844	0.16392	0.057312	0.12512	0.29785	0.19053	0.018637	0.15195	0.085139	0.26384	0.03454	-4.2708	-5.125	-4.6667	-4.9021	-4.9542	-4.6229	-5.3063	-5	-4.4	-5.2063	-4.7542	-4.6188	-5.0417	-4.4771	-5.0917	-5.0021	-77.014	161.224	-106.687	-119.558	-28.859	190.860	142.401	110.247	-14.564	7.781	181.391	16.121	-112.260	-82.578	-87.900	-96.914	0.00093427	0.00069591	0.00013704	1330.7	2.2899e-06	3.2108e-06	1337.3	359.93	9.1807e-06	3.0949e-06	411.47	135.73	118.31	40.175	7.3029e-06	49.852	0.0012183	0.0014589	0.00040985	1355.4	1.4863e-05	1.6169e-05	1366.3	368.06	1.5125e-05	1.5826e-05	421.84	140.12	121.85	41.534	1.5306e-05	51.748	109.602	-56.632	-82.075	-129.733	-64.897	-25.207	-129.975	-125.240	-76.907	-10.633	-125.700	-121.912	-121.307	-116.196	-14.134	-116.998	-8191	255	
6892.568	1	1	0	0	0.053537	0.15244	0.19095	0.2397	0.036579	0.049152	0.084383	0.21134	0.13565	0.18332	0.18116	0.15527	0.21876	0.19028	0.22278	0.10108	-4.0354	-4.9583	-4.6521	-4.6917	-5.0896	-4.4083	-5.1687	-5.025	-4.3625	-4.8917	-4.6562	-4.7	-5.0854	-4.5687	-4.9563	-5.0021	-138.453	167.373	142.444	204.456	-65.644	120.994	151.523	123.609	38.309	136.095	150.077	153.099	-135.374	-27.111	-117.223	74.695	0.00096863	0.00052168	0.00014723	1340.6	5.6784e-06	3.9006e-06	1338.9	360.21	6.955e-06	4.1324e-06	412.11	135.47	117.7	40.374	5.4123e-06	49.864	0.0012022	0.0014226	0.00039514	1360.5	1.4401e-05	1.5538e-05	1366.6	367.87	1.45e-05	1.5397e-05	422.13	139.98	121.55	41.577	1.5114e-05	51.664	108.015	-30.855	-65.103	-129.755	-39.921	-27.891	-130.069	-125.376	-4.504	-6.889	-125.581	-121.959	-121.324	-116.299	-16.126	-116.938	-8191	255	
6892.664	1	1	0	0	0.13547	0.12797	0.037607	0.3418	0.056734	0.17528	0.13558	0.12788	0.21965	0.1912	0.24271	0.16442	0.14765	0.11689	0.15959	0.12029	-4.1583	-5.0417	-4.6708	-4.6958	-5.3187	-4.7021	-5.0729	-5.1833	-4.4271	-5.1167	-5.0563	-4.8771	-5.1958	-4.6792	-4.7604	-5.2042	201.009	-130.072	125.197	195.023	89.493	-73.167	143.586	33.170	123.558	82.107	138.231	-96.954	12.750	-70.686	193.396	-127.418	0.00089842	0.00088126	0.00016041	1333.8	4.6935e-06	3.0488e-06	1340.8	360.59	8.3261e-06	6.8486e-06	412.61	136.35	118.17	40.175	4.5829e-06	49.823	0.0012084	0.001404	0.00039455	1357.8	1.4817e-05	1.5776e-05	1367.3	368.27	1.5155e-05	1.5651e-05	422.58	140.15	121.69	41.501	1.5312e-05	51.68	114.437	-62.814	-43.814	-129.765	4.483	-43.080	-129.930	-125.343	-98.488	27.419	-125.848	-121.875	-121.339	-116.298	2.377	-117.303	-8191	255	
6892.760	1	1	0	0	0.16962	0.059297	0.18646	0.19201	0.2401	0.14966	0.23883	0.080675	0.071159	0.26357	0.07927	0.11339	0.30855	0.11044	0.22018	0.081523	-4.2521	-4.8646	-4.7937	-4.6375	-5.1542	-4.7063	-4.9313	-5.3854	-4.575	-4.9021	-5.0062	-4.6667	-5.1771	-4.8104	-4.7521	-5.2375	112.091	-104.869	64.493	165.355	149.190	172.197	206.058	-90.041	92.835	-35.470	195.042	141.393	215.735	-129.022	127.487	-130.306	0.00096419	0.00064399	0.00023517	1339.3	4.215e-06	7.397e-06	1342.1	358.56	9.3759e-06	6.5032e-06	412.4	136.13	118.08	40.094	6.8582e-06	49.606	0.0012359	0.0014414	0.0004019	1359.1	1.4835e-05	1.5889e-05	1366.3	367.33	1.5359e-05	1.6071e-05	421.82	139.87	121.83	41.452	1.5707e-05	51.644	112.770	-59.782	-23.908	-129.607	-53.382	4.201	-130.026	-125.312	-62.317	7.915	-125.756	-121.968	-121.227	-116.136	-14.661	-116.884	-8191	255	
6892.855	1	1	0	0	0.26808	0.11824	0.17271	0.068713	0.12724	0.15574	0.11398	0.046987	0.15776	0.1278	0.15358	0.19674	0.066921	0.12685	0.19489	0.096296	-4.1125	-4.6583	-4.7875	-4.5687	-5.0813	-4.6583	-4.95	-5.3396	-4.4542	-4.95	-5.15	-4.7292	-5.1188	-4.8979	-4.6292	-5.2979	-0.696	64.814	-112.075	88.928	164.209	-18.494	162.434	99.185	-130.955	78.077	94.762	118.491	166.742	135.521	59.881	205.685	0.0010352	0.00037459	0.00021124	1332.1	4.8894e-06	3.7527e-06	1339.3	359.35	2.837e-06	9.3796e-06	411.22	135.92	118.4	39.947	6.9371e-06	49.82	0.0012429	0.0014697	0.00040079	1357.2	1.4937e-05	1.6049e-05	1365.4	366.97	1.5204e-05	1.6035e-05	421.43	139.92	121.54	41.398	1.5234e-05	51.661	110.673	-72.240	-34.093	-129.734	26.027	32.605	-130.150	-125.297	-57.823	23.731	-125.774	-122.037	-121.415	-116.124	-35.853	-116.945	-8191	255	
6892.953	1	1	0	0	0.14065	0.17153	0.037754	0.28092	0.086914	0.085431	0.31156	0.28086	0.16808	0.16965	0.11893	0.053509	0.16561	0.11706	0.039306	0.12537	-4.2104	-4.7729	-4.8667	-4.5083	-4.9021	-4.6188	-4.7208	-5.3667	-4.6833	-4.6396	-5.2646	-4.4542	-4.9708	-4.9542	-4.475	-5.0021	-34.133	-43.698	34.832	94.817	210.113	170.826	192.917	188.926	-45.775	10.782	166.786	113.041	-82.923	170.246	16.741	149.794	0.00092635	0.0002421	9.6298e-05	1336.2	3.5339e-06	5.3997e-06	1335.8	357.72	1.359e-05	4.1741e-06	411.89	136.24	117.38	40.032	5.3374e-06	49.623	0.0011776	0.0014101	0.00038512	1357.4	1.44e-05	1.5404e-05	1364.8	366.82	1.4601e-05	1.507e-05	421.02	139.73	121.18	41.321	1.4602e-05	51.465	117.470	-19.820	-34.085	-129.805	-61.182	6.387	-130.004	-125.367	-61.840	6.991	-125.742	-121.808	-121.394	-116.139	-9.247	-116.940	-8191	255	
6893.072	1	1	0	0	0.24497	0.12628	0.1881	0.26859	0.12647	0.059249	0.2538	0.056553	0.25087	0.10191	0.16233	0.092083	0.17377	0.11388	0.18284	0.062303	-4.2562	-4.4979	-4.8625	-4.5333	-4.7521	-4.8313	-4.6042	-5.3104	-4.7979	-4.6854	-5.2542	-4.6604	-5.0333	-4.9354	-4.225	-4.8854	163.285	21.034	-111.875	164.474	29.030	-30.766	-134.344	11.903	12.812	131.271	-133.683	138.741	17.552	-94.560	-90.049	202.936	0.00097616	0.00045244	0.00018842	1332.5	6.5167e-06	3.8751e-06	1337.4	358.36	9.719e-06	6.4339e-06	410.81	135.87	117.8	39.937	2.7264e-06	49.708	0.0011637	0.0013898	0.00038541	1355.1	1.4616e-05	1.512e-05	1363.4	366.82	1.4781e-05	1.5685e-05	420.62	139.68	121.24	41.363	1.5535e-05	51.613	111.031	-48.219	-24.321	-129.677	-9.261	-25.243	-130.029	-125.134	-66.007	16.694	-125.488	-121.874	-120.945	-116.214	-12.387	-116.971	-8191	255	
6893.166	1	1	0	0	0.086356	0.10019	0.1868	0.16106	0.091201	0.21337	0.10193	0.18663	0.15769	0.1836	0.070101	0.23948	0.092251	0.17781	0.21788	0.17467	-4.3083	-4.5521	-4.9938	-4.5292	-4.5375	-4.8229	-4.3208	-4.8146	-4.5542	-4.4042	-5.1208	-4.45	-4.8187	-5.0875	-4.3917	-5.0958	1.882	131.962	4.427	199.371	-140.599	49.974	178.680	151.599	50.910	34.588	7.005	155.398	180.939	-120.998	-102.356	92.399	0.00094841	0.00046074	0.00012444	1335.7	5.9005e-06	2.9391e-06	1336.2	359.24	6.8015e-06	6.7114e-06	409.83	136.27	118.4	40.107	8.5462e-06	49.73	0.0012227	0.0014693	0.00040804	1357	1.5374e-05	1.59e-05	1363.8	366.85	1.551e-05	1.6085e-05	420.54	139.74	121.43	41.417	1.6024e-05	51.583	113.858	-45.338	-53.845	-129.730	-56.654	-27.056	-129.937	-125.362	-41.905	51.350	-125.569	-121.849	-121.094	-116.338	-17.302	-116.999	-8191	255	
6893.262	1	1	0	0	0.17754	0.058633	0.062914	0.16056	0.098581	0.060381	0.28932	0.10238	0.14192	0.091628	0.16598	0.030729	0.1689	0.15185	0.021949	0.14891	-4.5375	-4.3688	-5.2875	-4.7271	-4.675	-5.0979	-4.5917	-4.8688	-4.6125	-4.4208	-5.1479	-4.7583	-4.9771	-5.3104	-4.5521	-5.0021	-97.065	-29.055	-122.358	152.487	69.054	69.083	108.197	145.530	-49.734	-19.181	-107.368	-49.804	-130.942	182.744	31.174	-80.804	0.00098797	0.00053305	0.00011404	1335.1	2.4175e-06	6.7132e-06	1342.1	358.56	9.6173e-06	3.3034e-06	409.16	135.78	118.07	39.922	5.2917e-06	49.435	0.0012625	0.0015056	0.00041473	1357.6	1.5407e-05	1.6292e-05	1365	366.71	1.4894e-05	1.5954e-05	420.55	139.48	121.33	41.295	1.4961e-05	51.407	114.712	-47.025	-49.198	-129.814	-44.915	14.109	-130.004	-125.210	-93.058	13.022	-125.730	-121.894	-121.034	-116.167	-18.577	-116.903	-8191	255	
6893.360	1	1	0	0	0.096606	0.038921	0.023544	0.20665	0.058161	0.19884	0.094462	0.22549	0.093866	0.19569	0.13106	0.061297	0.11364	0.1094	0.1983	0.087578	-4.4938	-4.2167	-4.8833	-4.8771	-4.5792	-5.1125	-4.7042	-4.9042	-5.1188	-4.5729	-5.1687	-5.0188	-4.5958	-5.1292	-4.5437	-4.8562	19.777	21.626	-143.061	-136.609	93.590	130.025	188.543	162.601	-141.842	-129.814	190.295	194.074	-101.944	170.319	121.119	211.821	0.00096547	0.00044713	0.0001803	1333.1	2.2587e-06	3.9726e-06	1334.3	357.85	4.2239e-06	6.0522e-06	410.42	136.01	117.76	39.928	6.9005e-06	49.61	0.0011705	0.0013833	0.00038077	1355	1.4352e-05	1.5017e-05	1362.1	366.38	1.3877e-05	1.4924e-05	420.12	139.37	120.96	41.242	1.4526e-05	51.45	109.237	-78.325	-21.615	-129.726	-1.325	20.061	-130.095	-125.330	-63.172	8.915	-125.789	-121.824	-121.387	-116.192	-9.928	-117.063	-8191	255	
6893.454	1	1	0	0	0.030016	0.038171	0.022964	0.23931	0.19103	0.15209	0.11993	0.18791	0.062062	0.060858	0.1285	0.13976	0.086326	0.26531	0.024425	0.18219	-4.7771	-4.4688	-4.9833	-4.8458	-4.5083	-5.0708	-4.7354	-4.8167	-5.0396	-4.4875	-5.1354	-5.0292	-4.5813	-5.2688	-4.7229	-4.9208	188.089	212.918	-90.718	205.601	42.001	-55.630	70.974	-130.677	-70.441	-49.262	163.606	143.069	183.444	129.020	152.954	152.979	0.00090783	0.00063526	0.00012719	1329.1	6.7415e-06	6.2176e-06	1337.4	358.4	1.2428e-05	5.0245e-06	410.21	135	117.96	40.012	5.5257e-06	49.659	0.0011234	0.0013633	0.00037522	1353.4	1.4164e-05	1.5001e-05	1362.9	366.38	1.427e-05	1.5175e-05	420.5	139.08	120.95	41.28	1.4764e-05	51.49	111.105	-47.905	-69.252	-129.784	-35.397	-7.084	-130.058	-125.167	-67.303	20.711	-125.737	-121.551	-121.287	-116.153	-15.544	-116.884	-8191	255	
6893.551	1	1	0	0	0.16156	0.090934	0.11269	0.18589	0.34288	0.17616	0.16294	0.18155	0.26744	0.035945	0.2009	0.14772	0.16024	0.13672	0.102	0.084346	-4.7229	-4.5083	-4.9229	-5.0875	-4.3958	-5.0563	-4.7937	-4.8104	-5.0979	-4.5125	-5.0042	-5.0792	-4.6771	-5.2229	-4.6958	-4.7417	118.999	-12.228	-67.937	183.201	-125.863	-67.055	167.691	162.811	213.589	178.285	-114.213	111.845	131.307	161.342	-98.781	143.489	0.00096125	0.00039243	0.00015898	1332	5.4419e-06	5.5598e-06	1332	358.87	5.4112e-06	6.32e-06	410.7	135.23	118.08	39.881	5.7285e-06	49.626	0.001179	0.0014088	0.00038887	1353.4	1.4721e-05	1.5808e-05	1362.3	366.48	1.4634e-05	1.5755e-05	420.51	139.31	121.15	41.336	1.4938e-05	51.508	112.637	-19.053	-19.966	-129.727	-10.620	5.280	-130.008	-125.266	-65.296	24.996	-125.617	-121.811	-121.098	-116.161	-11.789	-116.994	-8191	255	
6893.671	1	1	0	0	0.10997	0.23764	0.013147	0.16737	0.13442	0.027336	0.09244	0.050318	0.10997	0.051041	0.34016	0.26211	0.1163	0.15502	0.036537	0.1429	-4.9708	-4.65	-4.8313	-5.1583	-4.4021	-5.0104	-4.9417	-4.775	-4.9958	-4.4479	-4.775	-4.9208	-4.6292	-5.1979	-4.8458	-4.6667	-115.801	-55.323	36.341	195.611	9.570	209.621	94.060	154.137	-90.463	1.580	180.391	129.639	194.013	100.378	-113.276	-74.882	0.00093987	0.0006201	0.00024645	1328.7	5.0478e-06	4.163e-06	1333.8	358.87	7.5583e-06	3.9708e-06	410.6	135.13	118.29	40.116	7.1776e-06	49.515	0.0011962	0.0013917	0.00038895	1354.7	1.4591e-05	1.5291e-05	1362.9	366.77	1.4379e-05	1.534e-05	420.66	139.35	121.44	41.304	1.5177e-05	51.474	108.175	-89.602	-47.056	-129.726	-76.852	1.046	-130.041	-125.516	-68.602	-5.046	-125.850	-121.837	-121.118	-116.234	10.782	-116.972	-8191	255	
6893.767	1	1	0	0	0.079116	0.13691	0.12941	0.053893	0.1019	0.11899	0.25872	0.14309	0.15764	0.1237	0.18028	0.16034	0.063274	0.24875	0.14784	0.05659	-4.5687	-4.5479	-4.7271	-5.4479	-4.7042	-5.0333	-5.1146	-4.7729	-5.1917	-4.5687	-4.8229	-5.1042	-4.525	-4.9396	-4.7667	-4.6146	-104.814	77.212	-113.496	75.554	188.858	-23.860	170.982	161.580	-36.956	-128.961	-141.898	66.939	-1.079	-106.255	31.495	-45.301	0.00089628	0.00051899	0.00013391	1333	5.4086e-06	6.6763e-06	1338.8	360.28	5.8702e-06	6.1334e-06	412.35	135.52	118.38	40.061	2.9213e-06	49.732	0.001199	0.0014314	0.00040486	1358.8	1.4938e-05	1.5867e-05	1365.3	367.4	1.4982e-05	1.5815e-05	421.41	139.62	121.64	41.434	1.5113e-05	51.699	111.948	-41.742	-57.400	-129.775	-12.869	19.103	-129.987	-125.218	-64.979	6.663	-125.791	-121.743	-121.295	-116.199	7.616	-116.824	-8191	255	
6893.863	1	1	0	0	0.049317	0.031675	0.17959	0.17016	0.19507	0.29203	0.25531	0.16943	0.11962	0.074957	0.21017	0.087811	0.27854	0.042386	0.15868	0.13697	-4.6896	-4.6062	-4.525	-5.2792	-4.4917	-4.9125	-5.075	-4.7083	-4.9646	-4.7188	-4.8083	-5.15	-4.4542	-4.7792	-4.8354	-4.4604	-36.266	78.570	175.752	171.349	-1.188	-0.576	134.198	179.828	-24.962	190.591	93.560	-53.368	-57.194	214.218	25.485	216.030	0.00095637	0.00035383	9.1304e-05	1342	4.9336e-06	4.3327e-06	1340.4	360.17	5.3329e-06	4.5002e-06	411.4	136.02	118.7	40.157	3.7259e-06	49.729	0.0011924	0.0014013	0.00039538	1362.1	1.4561e-05	1.5542e-05	1369.8	368.62	1.4993e-05	1.542e-05	422.25	139.91	121.6	41.459	1.5194e-05	51.625	117.056	-74.756	-47.160	-129.615	-11.281	18.358	-129.971	-125.346	-49.523	15.610	-125.791	-121.768	-121.288	-116.179	-36.023	-116.907	-8191	255	
6893.960	1	1	0	0	0.11868	0.13793	0.22544	0.046333	0.069795	0.16444	0.075342	0.087806	0.028486	0.095988	0.04294	0.19463	0.15251	0.085188	0.073014	0.029117	-4.5375	-4.6813	-4.6062	-5.2312	-4.4625	-4.9042	-5.1521	-4.5875	-4.9458	-4.7646	-4.6146	-5.1042	-4.5083	-4.8063	-5.1896	-4.7208	181.582	-78.123	29.229	103.145	-126.549	-108.344	215.699	-135.959	-112.363	216.584	50.843	146.823	-135.220	79.793	-13.519	19.445	0.00097937	0.00049241	0.00015149	1338.5	6.831e-06	4.7674e-06	1338.6	359.82	5.6028e-06	6.4446e-06	410.19	136.38	118.66	40.182	4.9875e-06	49.631	0.0012071	0.0014402	0.00040676	1361.2	1.5184e-05	1.5904e-05	1367.8	367.98	1.5371e-05	1.5952e-05	421.41	139.96	121.47	41.425	1.58e-05	51.603	114.189	-74.618	-17.971	-129.692	-47.468	23.859	-129.943	-125.240	0.007	0.621	-125.668	-121.599	-121.044	-116.163	-17.929	-116.869	-8191	255	
6894.031	1	1	0	0	0.18988	0.13697	0.11891	0.11293	0.24377	0.096911	0.18227	0.19256	0.12552	0.24358	0.15666	0.052847	0.12549	0.10795	0.019154	0.073633	-4.5875	-4.8646	-4.4375	-5.2521	-4.4646	-4.6667	-5.2438	-4.5792	-4.8729	-4.85	-4.2812	-5.1062	-4.5396	-4.7375	-5.0917	-4.45	36.783	16.000	-41.351	156.750	73.143	-29.794	141.865	23.584	19.446	-26.762	120.630	211.546	-131.477	197.079	82.174	21.552	0.00091892	0.00029546	0.00011947	1336.3	4.6538e-06	7.4337e-06	1335.3	359.67	7.1922e-06	3.9418e-06	409.84	136.4	118.19	39.88	6.4312e-06	49.582	0.0012402	0.0014771	0.00041286	1358.8	1.5334e-05	1.663e-05	1364.6	367.68	1.547e-05	1.6342e-05	421.07	140	121.51	41.404	1.5762e-05	51.562	113.299	-15.147	-25.151	-129.852	-17.360	-13.369	-130.097	-125.316	-63.548	-39.840	-125.634	-121.938	-121.245	-116.140	-42.337	-116.960	-8191	255	
6894.152	1	1	0	0	0.11213	0.079424	0.18772	0.17987	0.076441	0.25789	0.15618	0.17991	0.1142	0.20306	0.069233	0.15677	0.16042	0.10198	0.1715	0.19414	-4.4938	-4.8333	-4.3333	-5.1937	-4.5396	-4.3521	-5.1521	-4.5042	-4.6083	-4.9333	-4.4833	-4.9563	-4.6979	-4.6042	-5.1229	-4.7146	208.822	-110.121	47.741	171.905	183.126	-106.378	189.111	148.322	203.076	-22.416	72.189	-63.514	-132.321	185.108	176.488	163.542	0.00095344	0.00070061	0.00017975	1338.6	5.1848e-06	8.7739e-06	1339.1	360.1	1.1541e-05	5.1361e-06	410.49	135.99	117.26	40.214	2.5474e-06	49.718	0.0012475	0.0015074	0.00041691	1359.3	1.5494e-05	1.6746e-05	1367.1	367.62	1.5602e-05	1.6424e-05	421.42	139.93	121.35	41.512	1.6042e-05	51.616	106.350	-79.744	-57.149	-129.739	-44.563	20.077	-129.895	-125.266	-52.227	-6.075	-125.651	-121.834	-121.344	-116.394	94.348	-116.801	-8191	255	
6894.248	1	1	0	0	0.25346	0.11199	0.15034	0.37178	0.03203	0.12433	0.22793	0.21434	0.10273	0.21585	0.24786	0.19735	0.049961	0.18685	0.047622	0.17642	-4.4667	-4.9958	-4.5354	-5.3854	-5.0604	-4.6125	-5.3646	-4.8917	-4.85	-4.9792	-4.7104	-5.1333	-5.0146	-4.8083	-4.9854	-4.7083	-0.156	183.458	-4.653	77.178	-20.694	101.604	197.604	203.544	-89.681	208.100	145.110	211.570	182.457	193.592	-41.297	-122.574	0.00087905	0.00053913	0.00021206	1336.4	9.2682e-06	1.8056e-06	1341.4	359.48	8.0976e-06	7.1097e-06	411.61	136.26	118.22	40.215	5.3417e-06	49.86	0.0012617	0.001512	0.00042427	1359.3	1.5437e-05	1.6776e-05	1368.3	367.91	1.5593e-05	1.6512e-05	422.18	139.97	121.74	41.542	1.6375e-05	51.771	108.435	-51.516	-36.972	-129.795	-49.464	35.967	-130.135	-125.392	-86.814	-9.306	-125.629	-121.860	-121.304	-116.233	-58.450	-116.766	-8191	255	
6894.342	1	1	0	0	0.14083	0.075617	0.19257	0.24262	0.11482	0.056858	0.4132	0.38747	0.036506	0.12951	0.014758	0.22232	0.065742	0.15634	0.16692	0.1305	-4.3979	-5.05	-4.4208	-4.9563	-5.0271	-4.5958	-5.3375	-4.9396	-4.5958	-5.1208	-4.4062	-4.8354	-4.9854	-4.4812	-4.9854	-4.9313	133.413	101.740	163.609	181.709	121.929	169.469	153.776	184.477	-120.831	-139.611	-93.441	148.521	-114.277	208.893	-56.374	175.188	0.00081859	0.00036988	0.00011345	1338.1	7.8085e-06	4.4377e-06	1338.3	359.38	6.8632e-06	5.1469e-06	411.87	135.95	118.18	39.985	3.7861e-06	49.722	0.0012551	0.0015042	0.00043074	1361.9	1.5478e-05	1.6697e-05	1367.1	367.63	1.565e-05	1.6657e-05	421.88	140.12	121.59	41.455	1.6205e-05	51.608	113.441	-25.289	-63.033	-129.731	-69.028	-13.256	-130.078	-125.257	-63.376	-50.194	-125.854	-121.882	-121.144	-116.215	-14.873	-117.148	-8191	255	
6894.440	1	1	0	0	0.025541	0.063885	0.10681	0.12075	0.1315	0.25836	0.21409	0.19913	0.19601	0.26168	0.16149	0.16118	0.21686	0.16845	0.24019	0.20724	-4.3833	-5.0604	-4.6375	-4.8792	-5.0083	-4.2979	-5.1958	-5.0437	-4.4104	-4.9917	-4.6208	-4.7667	-5.0708	-4.4833	-4.9104	-4.8104	176.265	179.157	64.718	137.355	-36.992	25.825	118.506	-128.404	-78.567	27.687	124.408	157.662	130.699	-139.979	144.697	107.252	0.00089023	0.00040288	0.00013227	1335.5	4.5888e-06	2.0467e-06	1337	359.25	8.2547e-06	5.4719e-06	410.56	135.61	118.07	40.001	3.4336e-06	49.653	0.0012686	0.0015175	0.00042605	1358.7	1.563e-05	1.661e-05	1367	367.92	1.5831e-05	1.6654e-05	421.87	139.97	121.66	41.444	1.6294e-05	51.653	108.826	-89.566	-36.692	-129.698	-42.412	-21.193	-130.018	-125.325	-25.403	2.243	-125.721	-121.732	-121.351	-116.270	-21.915	-117.047	-8191	255	
6894.559	1	1	0	0	0.037648	0.25022	0.033568	0.07036	0.32104	0.12625	0.15387	0.34933	0.15435	0.171	0.016313	0.048514	0.16958	0.17136	0.20542	0.16621	-4.1979	-5.0188	-4.575	-4.9396	-5.2063	-4.5813	-5.075	-5.0479	-4.5	-5.1646	-4.7542	-4.6875	-5.0979	-4.5833	-4.8521	-4.9833	44.089	107.265	-131.228	133.378	-114.784	51.569	177.290	164.218	-88.239	-36.634	-24.955	-136.465	-105.594	164.261	-96.550	148.282	0.00088499	0.00026466	0.00012035	1335.4	4.2456e-06	4.0017e-06	1336.5	359.69	1.0484e-05	6.6207e-06	412.01	136.14	118.15	40.114	1.9616e-06	49.779	0.0012622	0.0015073	0.00041724	1359.8	1.5953e-05	1.688e-05	1365.9	367.58	1.5721e-05	1.6414e-05	421.52	140.05	121.54	41.471	1.5914e-05	51.703	107.920	-28.763	-91.434	-129.785	-39.698	-20.910	-129.892	-125.212	-54.451	25.129	-125.842	-122.105	-121.335	-116.342	-5.936	-116.827	-8191	255	
6894.655	1	1	0	0	0.13233	0.21918	0.12333	0.11931	0.083565	0.13214	0.36566	0.080177	0.15157	0.081019	0.07961	0.20694	0.18304	0.12616	0.01957	0.18554	-4.0542	-5.0813	-4.6875	-4.8021	-5.1354	-4.5604	-4.9875	-4.9542	-4.4563	-5.1917	-4.8646	-4.7604	-5.2375	-4.8146	-4.75	-5.1625	203.641	29.849	27.817	147.868	-61.202	67.811	133.676	-118.346	148.080	-11.594	173.970	-128.858	-109.130	187.977	-12.852	202.423	0.00093531	0.00064	9.495e-05	1338.2	5.0731e-06	5.9869e-06	1340.9	359.5	8.8359e-06	5.073e-06	411.85	136.19	118.29	40.186	6.1189e-06	49.729	0.0012646	0.0015408	0.0004265	1359.7	1.5758e-05	1.6694e-05	1366.8	367.42	1.579e-05	1.6742e-05	421.82	140.05	121.67	41.566	1.5979e-05	51.623	114.296	-25.466	-79.777	-129.725	-74.652	4.544	-130.082	-125.261	-52.445	-14.236	-125.636	-121.919	-121.383	-116.239	-29.109	-116.839	-8191	255	
6894.752	1	1	0	0	0.14318	0.27766	0.14144	0.20293	0.090691	0.046862	0.13397	0.24945	0.14584	0.03077	0.30796	0.22347	0.14622	0.30237	0.025825	0.31349	-4.0625	-4.9792	-4.8458	-4.8167	-5.1604	-4.6896	-4.8812	-5.2979	-4.4313	-4.9354	-4.7896	-4.4479	-4.8875	-4.8333	-4.6625	-5.25	24.564	-53.422	-94.698	184.698	-106.760	27.794	177.998	160.214	135.560	74.128	98.497	-125.575	-22.321	211.511	125.000	204.988	0.00088225	0.00052886	8.0987e-05	1335.5	2.1602e-06	3.341e-06	1343.7	359.35	9.0884e-06	3.012e-06	410.06	135.85	117.92	40.223	3.0163e-06	49.681	0.0012755	0.0014953	0.00042536	1358.7	1.569e-05	1.6973e-05	1368.9	368.07	1.5543e-05	1.6471e-05	422.21	140.09	121.73	41.541	1.6297e-05	51.668	111.216	-58.926	-42.519	-129.718	-85.436	-35.043	-130.024	-125.327	-44.678	3.273	-125.770	-121.729	-121.543	-116.431	-103.829	-116.916	-8191	255	
6894.848	1	1	0	0	0.29072	0.21487	0.18042	0.24706	0.12306	0.16336	0.15787	0.22162	0.1748	0.067895	0.28737	0.1372	0.23368	0.083342	0.16617	0.083	-4.3688	-5.0604	-4.8146	-4.7146	-5.0646	-4.6042	-4.9917	-5.2937	-4.5375	-4.9542	-5.0271	-4.4083	-5.0479	-4.6479	-4.4333	-4.9333	-87.214	142.895	-80.118	127.782	-10.485	-30.346	106.364	128.561	-21.059	172.647	184.876	67.295	110.631	109.862	152.430	57.666	0.00090099	0.00047805	0.00010809	1337.1	6.2495e-06	5.714e-06	1340.8	360.25	6.6693e-06	2.4889e-06	413.95	136.12	118.7	40.264	5.787e-06	49.914	0.0012822	0.0015288	0.00042454	1360.3	1.5654e-05	1.7211e-05	1370.8	368.59	1.6313e-05	1.6783e-05	423.33	140.21	122.32	41.665	1.6671e-05	51.785	113.740	-21.164	-22.052	-129.742	-4.961	-34.698	-129.959	-125.336	-9.877	38.377	-125.844	-122.022	-121.451	-116.205	-29.280	-116.952	-8191	255	
6894.944	1	1	0	0	0.038133	0.11026	0.2103	0.32613	0.09255	0.23995	0.28505	0.13544	0.192	0.11138	0.25822	0.14445	0.1111	0.25339	0.36946	0.0093629	-4.1562	-4.7292	-4.8417	-4.5542	-5.0396	-4.9792	-4.7042	-5.4812	-4.6229	-4.8083	-5.1188	-4.6021	-5.1958	-4.8104	-4.4125	-5.1542	168.105	-92.274	146.748	201.256	203.970	-41.577	121.892	172.989	-141.013	-32.421	161.945	189.084	-126.084	158.857	186.309	107.145	0.00096336	0.00060199	0.00012974	1345.2	7.9025e-06	3.7832e-06	1348.6	361.28	6.8333e-06	3.2981e-06	411.63	137	118.75	40.428	4.9542e-06	49.912	0.0012952	0.0015564	0.00043325	1366.4	1.6254e-05	1.7228e-05	1371.8	369.45	1.6828e-05	1.7453e-05	423.61	140.85	122.47	41.811	1.7512e-05	51.918	114.116	-45.352	-56.324	-129.736	-10.382	47.045	-129.832	-125.598	-73.221	28.641	-125.650	-121.966	-121.449	-116.141	-17.011	-117.131	-8191	255	
6895.040	1	1	0	0	0.13948	0.18756	0.14489	0.15574	0.10216	0.19039	0.22186	0.14876	0.10955	0.096218	0.16025	0.1221	0.23337	0.10664	0.08347	0.088487	-4.2812	-4.55	-4.9812	-4.6479	-5.1542	-4.9062	-4.8458	-5.2896	-4.7583	-4.7188	-5.2729	-4.4083	-4.85	-4.9458	-4.3354	-5.1188	-56.798	-46.024	-111.729	213.037	-5.392	188.234	200.033	139.982	-49.250	-59.152	183.235	173.645	-66.778	146.413	-85.456	74.392	0.00098996	0.00062751	0.00016481	1343.6	6.3717e-06	5.5764e-06	1345.4	360.43	6.0706e-06	4.1321e-06	413.03	136.61	118.9	40.503	5.6528e-06	50.074	0.0013281	0.0016194	0.00045005	1367.2	1.6566e-05	1.7609e-05	1375.1	369.81	1.6483e-05	1.7314e-05	424.33	140.8	122.51	41.763	1.7318e-05	51.926	110.784	-25.398	-56.211	-129.822	-32.621	26.967	-130.077	-125.353	-81.439	8.149	-125.810	-121.864	-121.052	-116.335	-30.701	-116.725	-8191	255	
6895.161	1	1	0	0	0.10767	0.067077	0.052218	0.31608	0.11582	0.17614	0.25288	0.19255	0.022221	0.19549	0.29186	0.025711	0.15251	0.22812	0.084139	0.21949	-4.5104	-4.5146	-5.2458	-4.9125	-4.7667	-5.1	-4.7812	-5.1562	-4.5875	-4.4604	-5.0917	-4.4417	-4.7729	-5.0604	-4.3771	-5.1104	-13.603	-99.685	-44.819	165.670	115.051	-10.022	198.838	186.486	-50.426	-68.809	191.353	-115.131	22.543	-114.325	-14.196	92.387	0.0010305	0.0004544	0.00012072	1341.6	4.0868e-06	5.3286e-06	1347.5	361.73	1.1979e-05	5.8245e-06	414.89	136.51	119.16	40.455	7.623e-06	50.014	0.0013483	0.0015971	0.00045246	1366.3	1.7033e-05	1.836e-05	1375.8	370.68	1.7342e-05	1.861e-05	424.9	141.04	122.98	41.905	1.8129e-05	52.001	112.873	-61.616	-55.182	-129.774	-43.706	-5.112	-129.966	-125.158	-51.166	-3.129	-125.729	-121.927	-121.071	-116.192	-29.192	-116.884	-8191	255	
6895.255	1	1	0	0	0.10729	0.12344	0.036688	0.14884	0.18241	0.15237	0.14475	0.17205	0.10692	0.049982	0.099236	0.017183	0.07633	0.29381	0.11142	0.04598	-4.2917	-4.5292	-5.1792	-4.5771	-4.7708	-5.0312	-4.6687	-5.1625	-4.8021	-4.4313	-5.275	-4.6062	-4.6687	-4.9958	-4.4646	-4.9646	215.423	77.505	-131.317	146.184	42.877	-143.297	85.461	123.100	160.399	20.377	-91.322	57.347	127.438	-36.069	198.593	107.902	0.00091121	0.00038569	0.00019127	1346.1	5.4396e-06	4.5073e-06	1349.7	363.47	9.5138e-06	6.6895e-06	414.61	137.26	118.83	40.59	2.5834e-06	50.097	0.0013769	0.0017009	0.00046523	1369.5	1.7223e-05	1.8657e-05	1379.4	371.51	1.746e-05	1.8366e-05	425.7	141.29	122.86	41.932	1.7809e-05	52.054	111.248	-80.295	-78.767	-129.797	-67.518	18.685	-130.093	-125.327	-52.471	18.361	-125.732	-121.959	-121.173	-116.312	-40.234	-117.065	-8191	255	
6895.328	1	1	0	0	0.013537	0.039713	0.10524	0.32089	0.062859	0.13098	0.28368	0.099092	0.17862	0.22288	0.19039	0.16334	0.09869	0.28177	0.035563	0.098995	-4.6188	-4.3833	-5.1417	-4.8875	-4.6646	-5.1292	-4.7792	-4.9771	-4.9729	-4.3979	-5.1604	-4.6813	-4.6562	-5.1125	-4.4083	-4.7583	101.498	45.914	43.686	156.200	172.641	-43.572	199.389	14.515	-80.961	-133.262	201.264	124.792	61.677	-126.335	208.749	100.144	0.00089146	0.00058257	0.00015063	1347	5.2643e-06	3.3697e-06	1348.8	362.46	6.8413e-06	4.1389e-06	414.49	137.25	119.39	40.541	8.3128e-06	49.882	0.0013363	0.0016493	0.00046472	1370.7	1.6828e-05	1.7898e-05	1376.9	370.95	1.6917e-05	1.7801e-05	425.37	141.09	122.95	41.826	1.7014e-05	51.985	111.354	-66.742	-68.264	-129.885	-23.185	-7.634	-130.107	-125.398	-92.095	-24.532	-125.678	-122.075	-121.385	-116.433	-23.282	-117.052	-8191	255	
6895.447	1	1	0	0	0.11858	0.077184	0.21281	0.16056	0.11703	0.037074	0.031899	0.25417	0.20711	0.11888	0.050909	0.16872	0.16721	0.19424	0.18431	0.15519	-4.6062	-4.3854	-4.9938	-4.8313	-4.5417	-4.925	-4.7562	-4.9542	-5.0437	-4.425	-5.0312	-4.85	-4.5	-5.1708	-4.5646	-4.7125	41.633	-9.771	129.991	187.482	98.347	135.209	72.462	148.300	-139.310	182.828	-30.496	180.704	-81.836	194.301	48.961	181.236	0.00089473	0.00056764	0.00012004	1347.1	4.3026e-06	7.0767e-06	1349.6	361.2	7.6231e-06	6.9824e-06	416.13	137.7	119.17	40.581	3.7042e-06	50.26	0.0013187	0.001595	0.00044479	1371.1	1.6512e-05	1.7495e-05	1377.7	370.47	1.6471e-05	1.7286e-05	425.39	141.4	122.95	41.873	1.6366e-05	52.123	111.512	-34.600	-45.156	-129.692	-71.370	-12.603	-130.220	-125.480	-67.941	5.464	-125.889	-121.882	-121.122	-116.109	2.900	-116.968	-8191	255	
#DATA ENDS
