BOXY.EXE: ISS Imagent and Oximeter Data Acquisition Program Version 0.80
Ascii Record File

#ACQ INFORMATION
2  Detector Channels 
16  External MUX Channels 
1  Auxiliary Channels 
5000  Waveform (CCF) Frequency (Hz)
1  Waveforms Skipped 
30  Waveforms Averaged 
1  Cycles Averaged 
16  Acquisitions per Waveform 
10.0806  Updata Rate (Hz) 

#FILE INFORMATION
TRUE -- External MUX Channel results are PARSED.
FALSE -- AC DC and Phase are NOT grouped.
TRUE -- Companion Program Settings File CREATED.
FALSE -- AC data not excluded
FALSE -- DC data not excluded
FALSE -- Phase data not excluded
FALSE -- Auxillary Chn. data not excluded
Tab delimiters

#CALIBRATION STATE
TRUE -- Waveform Calibration Values APPLIED.


#AUX CALIBRATION VALUES
Val Type	aux-1	

Term	1.0000e+00	
Factor	0.0000e+00	


#WF CALIBRATION VALUES
A = Detector Channel
Val Type	A-AC1	A-AC2	A-AC3	A-AC4	A-AC5	A-AC6	A-AC7	A-AC8	A-AC9	A-AC10	A-AC11	A-AC12	A-AC13	A-AC14	A-AC15	A-AC16	A-DC1	A-DC2	A-DC3	A-DC4	A-DC5	A-DC6	A-DC7	A-DC8	A-DC9	A-DC10	A-DC11	A-DC12	A-DC13	A-DC14	A-DC15	A-DC16	A-Ph1	A-Ph2	A-Ph3	A-Ph4	A-Ph5	A-Ph6	A-Ph7	A-Ph8	A-Ph9	A-Ph10	A-Ph11	A-Ph12	A-Ph13	A-Ph14	A-Ph15	A-Ph16	

Term	0.00000e+00	0.00000e+00	0.00000e+00	0.00000e+00	0.00000e+00	0.00000e+00	0.00000e+00	0.00000e+00	0.00000e+00	0.00000e+00	0.00000e+00	0.00000e+00	0.00000e+00	0.00000e+00	0.00000e+00	0.00000e+00	0.00000e+00	0.00000e+00	0.00000e+00	0.00000e+00	0.00000e+00	0.00000e+00	0.00000e+00	0.00000e+00	0.00000e+00	0.00000e+00	0.00000e+00	0.00000e+00	0.00000e+00	0.00000e+00	0.00000e+00	0.00000e+00	0.00000e+00	0.00000e+00	0.00000e+00	0.00000e+00	0.00000e+00	0.00000e+00	0.00000e+00	0.00000e+00	0.00000e+00	0.00000e+00	0.00000e+00	0.00000e+00	0.00000e+00	0.00000e+00	0.00000e+00	0.00000e+00	
Factor	1.00000e+00	1.00000e+00	1.00000e+00	1.00000e+00	1.00000e+00	1.00000e+00	1.00000e+00	1.00000e+00	1.00000e+00	1.00000e+00	1.00000e+00	1.00000e+00	1.00000e+00	1.00000e+00	1.00000e+00	1.00000e+00	1.00000e+00	1.00000e+00	1.00000e+00	1.00000e+00	1.00000e+00	1.00000e+00	1.00000e+00	1.00000e+00	1.00000e+00	1.00000e+00	1.00000e+00	1.00000e+00	1.00000e+00	1.00000e+00	1.00000e+00	1.00000e+00	X	X	X	X	X	X	X	X	X	X	X	X	X	X	X	X	

B = Detector Channel
Val Type	B-AC1	B-AC2	B-AC3	B-AC4	B-AC5	B-AC6	B-AC7	B-AC8	B-AC9	B-AC10	B-AC11	B-AC12	B-AC13	B-AC14	B-AC15	B-AC16	B-DC1	B-DC2	B-DC3	B-DC4	B-DC5	B-DC6	B-DC7	B-DC8	B-DC9	B-DC10	B-DC11	B-DC12	B-DC13	B-DC14	B-DC15	B-DC16	B-Ph1	B-Ph2	B-Ph3	B-Ph4	B-Ph5	B-Ph6	B-Ph7	B-Ph8	B-Ph9	B-Ph10	B-Ph11	B-Ph12	B-Ph13	B-Ph14	B-Ph15	B-Ph16	

Term	0.00000e+00	0.00000e+00	0.00000e+00	0.00000e+00	0.00000e+00	0.00000e+00	0.00000e+00	0.00000e+00	0.00000e+00	0.00000e+00	0.00000e+00	0.00000e+00	0.00000e+00	0.00000e+00	0.00000e+00	0.00000e+00	0.00000e+00	0.00000e+00	0.00000e+00	0.00000e+00	0.00000e+00	0.00000e+00	0.00000e+00	0.00000e+00	0.00000e+00	0.00000e+00	0.00000e+00	0.00000e+00	0.00000e+00	0.00000e+00	0.00000e+00	0.00000e+00	-2.15620e+02	-1.31657e+02	-1.25146e+02	-1.81704e+02	-8.15054e+01	-6.68657e+01	-1.57588e+02	-1.62015e+02	-8.60096e+01	-6.69782e+01	-1.71217e+02	-1.72824e+02	-1.83390e+02	-1.77011e+02	-7.37979e+01	-1.49785e+02	
Factor	4.58921e-05	1.65953e-04	4.60063e-05	1.49255e-01	1.93368e-06	1.78685e-06	1.64339e-01	5.03331e-02	2.24651e-06	1.77573e-06	8.09569e-02	3.27481e-02	3.51869e-02	8.81024e-03	1.97165e-06	1.24698e-02	2.73434e-05	7.93411e-05	2.24816e-05	7.78062e-02	6.25384e-07	9.38907e-07	8.07401e-02	2.62746e-02	6.23511e-07	9.41288e-07	4.12738e-02	1.66736e-02	1.85840e-02	4.65689e-03	7.32170e-07	6.40504e-03	X	X	X	X	X	X	X	X	X	X	X	X	X	X	X	X	



#DISTANCE SETTINGS
A = Detector Channel
A-1	A-2	A-3	A-4	A-5	A-6	A-7	A-8	A-9	A-10	A-11	A-12	A-13	A-14	A-15	A-16	

2.5000e+00	3.0000e+00	2.5000e+00	3.0000e+00	2.0000e+00	3.0000e+00	1.5000e+00	3.0000e+00	3.0000e+00	3.0000e+00	3.0000e+00	3.0000e+00	3.0000e+00	3.0000e+00	1.5000e+00	3.0000e+00	

B = Detector Channel
B-1	B-2	B-3	B-4	B-5	B-6	B-7	B-8	B-9	B-10	B-11	B-12	B-13	B-14	B-15	B-16	

1.0000e+01	1.0000e+01	1.0000e+01	1.4400e+00	1.0000e+01	1.0000e+01	1.5100e+00	1.9400e+00	1.0000e+01	1.0000e+01	1.9900e+00	2.4900e+00	2.4100e+00	2.9000e+00	1.0000e+01	2.9800e+00	




#DATA BEGINS
time	group	step	mark	flag	A-AC1	A-AC2	A-AC3	A-AC4	A-AC5	A-AC6	A-AC7	A-AC8	A-AC9	A-AC10	A-AC11	A-AC12	A-AC13	A-AC14	A-AC15	A-AC16	A-DC1	A-DC2	A-DC3	A-DC4	A-DC5	A-DC6	A-DC7	A-DC8	A-DC9	A-DC10	A-DC11	A-DC12	A-DC13	A-DC14	A-DC15	A-DC16	A-Ph1	A-Ph2	A-Ph3	A-Ph4	A-Ph5	A-Ph6	A-Ph7	A-Ph8	A-Ph9	A-Ph10	A-Ph11	A-Ph12	A-Ph13	A-Ph14	A-Ph15	A-Ph16	B-AC1	B-AC2	B-AC3	B-AC4	B-AC5	B-AC6	B-AC7	B-AC8	B-AC9	B-AC10	B-AC11	B-AC12	B-AC13	B-AC14	B-AC15	B-AC16	B-DC1	B-DC2	B-DC3	B-DC4	B-DC5	B-DC6	B-DC7	B-DC8	B-DC9	B-DC10	B-DC11	B-DC12	B-DC13	B-DC14	B-DC15	B-DC16	B-Ph1	B-Ph2	B-Ph3	B-Ph4	B-Ph5	B-Ph6	B-Ph7	B-Ph8	B-Ph9	B-Ph10	B-Ph11	B-Ph12	B-Ph13	B-Ph14	B-Ph15	B-Ph16	aux-1	digaux	

18464.621	1	1	0	256	0.011363	0.2129	0.12544	0.19092	0.26334	0.20955	0.32517	0.25073	0.095505	0.18444	0.025946	0.09326	0.10453	0.089699	0.060405	0.1878	-4.0875	-4.2458	-4.7396	-4.4958	-4.4437	-4.7667	-4.3792	-4.7604	-4.4563	-4.1771	-5.0604	-4.5875	-4.3917	-4.6792	-4.2188	-4.5542	-3.861	37.593	82.146	-81.511	162.092	136.141	171.818	177.350	86.064	-22.606	8.434	170.635	-83.032	54.879	264.651	167.572	0.00040612	0.0006031	0.000116	1393.8	4.6422e-06	5.1092e-06	1409	364.19	3.3514e-06	5.8447e-06	416.52	138.61	117.99	40.765	4.0529e-06	50.498	0.00083221	0.001439	0.00039254	1410.9	1.2242e-05	1.5318e-05	1430.4	370.36	1.2795e-05	1.6471e-05	424.3	142.16	121.18	41.872	1.3666e-05	52.022	100.990	1.640	3.468	-78.543	53.264	52.001	-78.885	-74.052	-4.319	61.118	-74.363	-70.440	-69.913	-64.967	47.091	-65.818	-8191	255	
18464.717	1	1	0	0	0.092331	0.049957	0.18922	0.3247	0.108	0.082871	0.31655	0.13159	0.27505	0.17222	0.045373	0.14298	0.083089	0.014333	0.044896	0.23002	-4.1333	-4.2979	-4.5167	-4.5188	-4.3313	-4.7063	-4.3979	-4.6646	-4.6479	-4.0312	-4.8583	-4.5083	-4.2854	-4.7021	-4.1375	-4.7458	7.228	200.805	-29.746	251.657	161.441	44.556	238.861	171.300	25.074	18.205	198.486	-59.012	244.140	74.002	170.106	-88.459	0.00045074	0.00039728	0.00010234	1390.9	4.3883e-06	4.2045e-06	1408.7	362.88	2.147e-06	6.7206e-06	416.07	138.32	117.92	40.81	3.7848e-06	50.327	0.00080361	0.0013466	0.00037577	1409.6	1.2324e-05	1.4768e-05	1426.9	369.7	1.2339e-05	1.5359e-05	423.28	141.84	120.89	41.755	1.4056e-05	51.966	103.179	-1.111	-18.240	-78.576	50.784	75.751	-78.733	-74.116	-4.402	51.636	-74.162	-70.266	-69.702	-64.803	59.440	-65.577	-8191	255	
18464.836	1	1	0	0	0.40784	0.070629	0.061727	0.25192	0.092263	0.12025	0.060831	0.068308	0.081048	0.073644	0.063631	0.14909	0.045989	0.22212	0.30458	0.2251	-4.4479	-3.8896	-4.7333	-4.6667	-4.2292	-4.7792	-4.4521	-4.5083	-4.7771	-4.1021	-4.7417	-4.5271	-4.1917	-4.8708	-4.3208	-4.4583	65.372	-53.753	115.421	249.090	-26.289	125.282	112.972	-43.866	-90.120	168.189	-14.401	147.268	-85.407	192.599	-80.779	-66.598	0.00041786	0.00060904	0.00013774	1390.6	3.4503e-06	5.0752e-06	1402	361.42	4.9406e-06	4.5771e-06	415.57	137.67	117.27	40.589	3.9286e-06	50.232	0.00080868	0.0013351	0.00036341	1407.4	1.2375e-05	1.4195e-05	1422.6	368.07	1.1154e-05	1.5e-05	422.44	141.37	120.42	41.601	1.3782e-05	51.739	94.609	2.987	7.381	-78.636	14.142	73.121	-78.803	-74.014	-4.177	66.648	-74.311	-70.492	-69.580	-64.895	49.644	-65.648	-8191	255	
18464.932	1	1	0	0	0.087968	0.15271	0.0825	0.38391	0.23385	0.12888	0.24174	0.25868	0.077939	0.05445	0.19191	0.21286	0.13482	0.22063	0.20516	0.030724	-4.3833	-4.0354	-4.8396	-4.6687	-4.0917	-4.8708	-4.4	-4.7146	-4.6646	-4.1979	-4.8187	-4.525	-4.2042	-4.7792	-4.3979	-4.2812	-36.378	111.735	66.900	214.919	-70.714	235.742	192.480	193.867	-58.847	212.961	243.861	196.302	69.456	-22.407	213.313	249.962	0.00040719	0.00041289	0.00016114	1383.5	3.0787e-06	6.1426e-06	1394.1	359.7	4.0353e-06	4.8156e-06	413.16	137.21	116.94	40.214	4.6293e-06	49.959	0.00078094	0.001303	0.00036673	1400.3	1.1644e-05	1.4921e-05	1415.6	366.69	1.1135e-05	1.5394e-05	420.74	140.93	119.99	41.468	1.2923e-05	51.553	102.309	-11.284	-0.911	-78.668	37.440	74.559	-78.820	-73.944	18.080	48.744	-74.350	-70.263	-69.639	-64.912	60.779	-65.641	-8191	255	
18465.004	1	1	0	0	0.064861	0.039842	0.061603	0.22535	0.18733	0.079753	0.20691	0.12003	0.10905	0.12255	0.32774	0.068216	0.13175	0.093225	0.16309	0.15267	-4.3583	-4.1417	-4.5708	-4.7167	-4.3125	-4.6438	-4.6813	-4.4229	-4.8313	-4.0979	-4.6667	-4.6229	-4.1208	-4.7396	-4.3646	-4.4583	0.203	226.566	235.229	266.335	-34.916	157.249	216.845	-61.565	63.195	254.458	197.337	79.191	195.077	-51.542	234.643	100.869	0.00038259	0.00054146	0.00015954	1376.1	5.3032e-06	3.4539e-06	1387.9	359.43	1.5472e-06	5.0692e-06	410.67	137.25	117.2	40.313	5.0351e-06	49.858	0.00079569	0.0013124	0.00037324	1393.4	1.2234e-05	1.4334e-05	1408.6	365.46	1.1289e-05	1.3886e-05	418.1	140.23	119.61	41.404	1.2091e-05	51.41	99.501	-4.086	15.561	-78.601	44.882	77.973	-78.704	-73.898	7.837	53.698	-74.437	-70.311	-70.042	-64.721	39.438	-65.724	-8191	255	
18465.125	1	1	0	0	0.14904	0.11551	0.1792	0.049176	0.17857	0.0086372	0.019351	0.20571	0.10228	0.18545	0.063007	0.16194	0.14926	0.19908	0.23309	0.067662	-4.5813	-4.1646	-4.5021	-4.9437	-4.1021	-4.6562	-4.6687	-4.3667	-4.8208	-4.3542	-4.5333	-4.7188	-4.1896	-4.7688	-4.5542	-4.3271	80.225	119.197	48.415	185.332	-91.229	-30.956	231.287	243.750	202.279	61.867	128.264	170.088	-76.381	256.335	69.065	-62.533	0.00044289	0.00051493	0.00014394	1370.8	4.358e-06	5.2825e-06	1385.3	357.3	3.2824e-06	5.6768e-06	408.75	136.67	116.29	40.166	5.361e-06	49.905	0.00076544	0.0012769	0.00034256	1387.5	1.1662e-05	1.3849e-05	1404.2	363.92	1.1066e-05	1.468e-05	417.09	139.74	119.21	41.259	1.159e-05	51.333	101.850	-16.949	0.274	-78.441	34.824	59.658	-78.907	-73.795	14.912	56.705	-74.072	-70.423	-69.634	-64.649	57.730	-65.844	-8191	255	
18465.221	1	1	0	0	0.15652	0.10093	0.27609	0.10296	0.14852	0.12577	0.385	0.25218	0.18655	0.073863	0.11304	0.14003	0.1689	0.1171	0.29114	0.15824	-4.4542	-4.2146	-4.4333	-4.9479	-4.1271	-4.55	-4.725	-4.3812	-4.75	-4.2917	-4.3438	-4.9125	-4.3125	-4.7208	-4.6729	-4.1521	143.481	83.015	217.909	220.269	89.367	39.454	200.321	266.698	29.561	105.052	244.572	-77.389	41.756	144.672	8.334	151.769	0.00045364	0.00046871	0.00011394	1367.6	4.274e-06	3.5947e-06	1379.5	356.06	2.512e-06	5.3394e-06	408.94	137	115.81	40.076	4.4036e-06	49.623	0.00073218	0.001187	0.00033371	1383.5	1.1523e-05	1.3894e-05	1399.1	363.04	1.1117e-05	1.4647e-05	416.21	139.7	118.74	41.093	1.1768e-05	51.169	99.010	-3.633	-3.756	-78.449	41.852	74.207	-78.782	-73.798	18.103	52.059	-74.241	-70.092	-69.634	-64.903	30.854	-65.757	-8191	255	
18465.316	1	1	0	0	0.15737	0.26781	0.14536	0.091723	0.17837	0.014655	0.093207	0.022998	0.16755	0.125	0.2563	0.18287	0.12843	0.057276	0.10504	0.063385	-4.4521	-4.3354	-4.5083	-5.0687	-4.2083	-4.6375	-4.8438	-4.3021	-4.8021	-4.4146	-4.3688	-4.8417	-4.2292	-4.5333	-4.775	-4.3812	66.108	213.809	57.204	245.982	71.242	47.141	154.044	45.257	154.460	167.898	224.459	146.791	-44.333	6.717	-15.454	139.944	0.00044558	0.00051071	0.00012398	1363.9	5.0831e-06	3.7044e-06	1374.3	356.25	3.775e-06	2.9864e-06	406.85	135.44	115.62	39.902	3.8304e-06	49.781	0.00074123	0.0011738	0.00033465	1380.1	1.166e-05	1.2662e-05	1395	362.12	1.0926e-05	1.3708e-05	414.84	139.11	118.44	40.953	1.1553e-05	51.087	94.752	8.184	9.015	-78.528	35.606	64.508	-78.682	-74.001	3.976	70.398	-74.331	-70.271	-69.354	-64.596	41.980	-65.639	-8191	255	
18465.438	1	1	0	0	0.084621	0.13393	0.15173	0.28951	0.090628	0.24171	0.27642	0.1791	0.028896	0.08707	0.16487	0.31221	0.227	0.054618	0.17519	0.084532	-4.375	-4.4979	-4.1042	-5.0542	-4.1979	-4.5646	-4.8979	-4.3375	-4.6854	-4.5375	-4.3708	-4.7646	-4.3688	-4.4187	-4.7125	-4.3479	44.270	67.847	148.643	259.031	98.870	89.405	170.699	168.351	187.257	242.040	231.195	214.075	208.468	-89.520	125.271	-18.477	0.00045946	0.00042769	0.00012826	1359.7	4.6129e-06	5.5205e-06	1371.9	354.67	4.3607e-06	5.8643e-06	406.83	135.62	115.39	39.86	4.4609e-06	49.736	0.00076083	0.0012048	0.00032865	1375.3	1.1308e-05	1.3591e-05	1392	361.42	1.1192e-05	1.3431e-05	414.66	139.06	118.28	41.004	1.1648e-05	51.169	102.682	9.721	7.775	-78.569	59.033	63.105	-78.672	-73.881	28.074	67.362	-74.212	-70.294	-69.528	-65.039	51.872	-65.648	-8191	255	
18465.531	1	1	0	0	0.097428	0.10857	0.22911	0.29747	0.1133	0.10158	0.13661	0.24867	0.26959	0.17699	0.089558	0.0889	0.17482	0.1374	0.15114	0.13629	-4.1813	-4.6188	-4.0896	-4.9979	-4.4917	-4.4146	-5.0687	-4.2625	-4.6438	-4.8146	-4.2812	-4.7125	-4.5542	-4.3521	-4.7917	-4.3083	176.557	243.413	-39.309	-34.362	-49.511	240.237	164.108	208.499	162.283	168.243	-49.894	208.289	15.862	239.426	177.808	-5.805	0.00037236	0.00053122	0.0001161	1358.9	3.968e-06	5.014e-06	1370.4	355.63	2.9545e-06	5.7209e-06	407.34	135.66	114.96	39.755	4.8186e-06	49.781	0.00076106	0.0011475	0.00032224	1375.4	1.0848e-05	1.3282e-05	1390.9	361.62	1.1482e-05	1.3056e-05	414.75	138.94	118.33	40.937	1.1532e-05	51.114	95.213	-8.774	9.256	-78.533	46.572	55.811	-78.791	-74.028	5.771	62.896	-74.331	-70.342	-69.715	-64.734	50.606	-65.716	-8191	255	
18465.605	1	1	0	0	0.20217	0.13255	0.047076	0.041758	0.097945	0.2355	0.058309	0.18022	0.10847	0.22051	0.23795	0.1351	0.086051	0.18325	0.21115	0.18597	-4.3708	-4.5729	-4.1417	-4.9604	-4.4187	-4.1125	-4.9604	-4.4104	-4.4187	-4.6	-4.3104	-4.7479	-4.65	-4.2208	-4.7896	-4.4437	118.048	90.685	-33.116	221.078	-87.309	188.898	162.128	191.727	-16.626	144.836	220.827	-42.628	-67.701	-80.220	196.693	193.629	0.00046316	0.00039936	0.0001479	1358.4	3.2021e-06	3.9135e-06	1364.6	353.1	3.8835e-06	4.9871e-06	404.35	135.02	114.69	39.547	4.7491e-06	49.1	0.00074955	0.0011329	0.00033409	1372.9	1.0718e-05	1.2834e-05	1385.2	360.16	1.0448e-05	1.2911e-05	412.46	137.96	117.29	40.596	1.1387e-05	50.593	97.682	-3.147	5.979	-78.547	29.416	76.745	-78.676	-73.880	15.426	63.344	-74.230	-70.281	-69.336	-65.007	54.010	-65.335	-8191	255	
18465.701	1	1	0	0	0.1136	0.11794	0.17015	0.18391	0.1828	0.18025	0.14723	0.18038	0.064566	0.1389	0.18956	0.075354	0.15297	0.10836	0.067679	0.13061	-4.0875	-4.7021	-4.0292	-4.7875	-4.4958	-4.275	-5.0083	-4.4646	-4.25	-4.6542	-4.3812	-4.7521	-4.5104	-4.2396	-4.8292	-4.5687	109.914	179.559	98.343	240.184	87.226	177.650	123.346	232.306	254.747	262.311	254.097	208.665	-72.458	176.079	-10.603	112.515	0.00046225	0.00048316	0.00015618	1338.1	5.2285e-06	4.7113e-06	1355	350.5	3.797e-06	4.4268e-06	403.75	134.46	114.84	39.658	3.2021e-06	49.21	0.00072956	0.0010861	0.00032477	1357.3	1.0634e-05	1.3241e-05	1376.7	357.04	1.0831e-05	1.2972e-05	410.84	137.7	117.23	40.594	1.1539e-05	50.528	102.065	-2.187	-18.647	-78.424	48.534	71.330	-78.661	-74.079	-8.110	64.061	-74.267	-70.143	-69.596	-64.982	60.273	-65.896	-8191	255	
18465.820	1	1	0	0	0.18147	0.079816	0.10605	0.17906	0.081693	0.1413	0.079417	0.21357	0.064272	0.16133	0.21966	0.18583	0.097584	0.25857	0.1679	0.063299	-4.0979	-4.9625	-4.0417	-4.7125	-4.6583	-4.2333	-5.1188	-4.6375	-4.225	-4.8375	-4.4	-4.5437	-4.8417	-4.1667	-4.6604	-4.6292	-81.976	212.850	93.532	258.297	75.067	255.420	247.937	170.639	65.400	250.325	251.578	263.807	165.628	3.249	-46.560	-13.767	0.00041593	0.0004376	0.00015894	1344.1	5.7006e-06	4.1355e-06	1359.4	351.19	3.7551e-06	5.1438e-06	404.94	134.36	114.67	39.41	4.3588e-06	49.212	0.00075821	0.0011453	0.00033254	1359.9	1.1089e-05	1.3878e-05	1378.8	357.55	1.0795e-05	1.3304e-05	410.76	137.88	117.43	40.626	1.1025e-05	50.602	104.496	6.654	-1.506	-78.436	45.686	68.431	-78.757	-73.710	5.615	52.749	-74.307	-70.357	-69.718	-64.641	55.960	-65.587	-8191	255	
18465.918	1	1	0	0	0.13649	0.18358	0.32917	0.33613	0.087514	0.03914	0.14899	0.26198	0.089655	0.19334	0.13015	0.025499	0.072535	0.074217	0.18817	0.091821	-3.9833	-4.6708	-4.2688	-4.6667	-4.7667	-4.15	-4.9917	-4.6875	-4.1021	-4.85	-4.3146	-4.5875	-4.8875	-4.3979	-4.5687	-4.6312	83.595	254.895	53.533	249.222	94.203	-51.068	166.062	244.052	174.545	-65.764	202.001	-55.386	266.483	229.793	97.574	110.244	0.00041524	0.00041518	0.0001465	1344.9	3.0579e-06	2.5523e-06	1364	350.78	3.3e-06	3.7121e-06	402.11	134.33	114.49	39.442	5.1607e-06	49.253	0.0007598	0.0011399	0.00035109	1361.5	1.0776e-05	1.344e-05	1379.4	357.49	1.0598e-05	1.3598e-05	410.26	137.78	117.39	40.574	1.1884e-05	50.547	105.206	-2.038	-1.188	-78.624	43.380	82.535	-78.446	-73.864	3.167	62.837	-74.263	-70.191	-69.615	-64.730	49.218	-65.739	-8191	255	
18466.014	1	1	0	0	0.098509	0.086399	0.25833	0.19419	0.0050188	0.11402	0.35379	0.30358	0.067967	0.015723	0.36009	0.3171	0.11691	0.025618	0.10417	0.18639	-3.9875	-4.8542	-4.25	-4.5208	-4.7208	-4.1979	-4.9125	-4.7417	-4.225	-4.6125	-4.5938	-4.4104	-4.7167	-4.2833	-4.6792	-4.5	155.289	241.284	18.015	-67.459	-38.865	36.251	201.206	169.741	128.358	6.575	226.936	262.409	192.159	-71.955	-28.527	132.655	0.00040791	0.00056184	0.00015677	1344.6	2.173e-06	4.7351e-06	1364.5	352.81	1.6614e-06	4.1155e-06	403.78	134.79	114.4	39.581	5.5178e-06	49.398	0.00077125	0.0011785	0.0003287	1362.9	1.094e-05	1.4467e-05	1382.6	358.81	1.121e-05	1.3388e-05	410.91	138.06	117.47	40.581	1.2227e-05	50.556	104.165	-5.113	-9.682	-78.422	47.344	52.863	-78.751	-73.722	28.610	44.450	-74.461	-70.379	-69.693	-64.597	57.335	-65.596	-8191	255	
18466.133	1	1	0	0	0.14981	0.13843	0.11235	0.3196	0.11166	0.20382	0.39499	0.10535	0.22352	0.28246	0.14019	0.14112	0.13523	0.16999	0.074393	0.15659	-3.7729	-4.7979	-4.4333	-4.4458	-4.7604	-4.1	-4.7042	-4.8042	-4.2292	-4.6896	-4.7812	-4.2021	-4.7896	-4.4875	-4.5813	-4.7083	101.242	118.729	209.971	228.192	247.917	267.701	131.135	139.344	58.757	166.330	-50.692	-55.651	202.064	191.252	-49.360	256.546	0.00037089	0.00040292	0.00014798	1350.9	3.5567e-06	5.1642e-06	1364.5	352.24	4.1106e-06	4.7896e-06	405.14	134.89	114.5	39.533	4.5909e-06	49.046	0.00079256	0.0012217	0.00032584	1365.6	1.126e-05	1.4123e-05	1384	358.39	1.1332e-05	1.386e-05	411.82	138.2	117.38	40.579	1.2146e-05	50.535	104.571	-18.057	7.594	-78.489	57.835	62.774	-78.746	-74.056	15.313	50.098	-74.463	-70.349	-69.687	-65.092	67.103	-65.502	-8191	255	
18466.229	1	1	0	0	0.2064	0.11324	0.016476	0.19618	0.20474	0.15571	0.16274	0.10375	0.089995	0.12352	0.13192	0.19877	0.21865	0.14142	0.1666	0.099025	-3.7854	-4.7375	-4.5271	-4.2021	-4.8167	-4.3583	-4.7083	-4.975	-4.3021	-4.5729	-4.6583	-4.4167	-4.8646	-4.4396	-4.4313	-4.9271	222.464	-57.928	250.486	161.677	23.656	202.557	189.534	209.395	-85.078	145.240	230.650	-40.562	156.444	156.613	27.829	209.319	0.00044593	0.00049206	0.00012045	1354.7	4.3717e-06	5.5621e-06	1364.1	352.93	3.1759e-06	5.1554e-06	404.8	134.45	114.35	39.474	4.5892e-06	49.098	0.00076362	0.0011731	0.00033249	1369.1	1.1077e-05	1.3982e-05	1385.4	358.67	1.1512e-05	1.4e-05	411.92	137.96	117.49	40.51	1.2175e-05	50.44	98.396	-13.363	-3.551	-78.514	28.206	57.984	-78.832	-74.042	62.957	43.844	-74.344	-70.389	-69.654	-64.770	46.227	-65.762	-8191	255	
18466.301	1	1	0	0	0.24481	0.032024	0.12845	0.06937	0.26203	0.22027	0.14628	0.085014	0.18596	0.12586	0.084774	0.27543	0.16517	0.18455	0.14898	0.076017	-3.9604	-4.6521	-4.5896	-4.4021	-4.8896	-4.3979	-4.3688	-4.8313	-4.2688	-4.4125	-4.7979	-4.1521	-4.8021	-4.5583	-4.1646	-4.8917	152.223	118.716	126.760	27.577	129.189	117.050	260.494	137.332	5.344	197.682	-16.878	265.117	160.844	179.001	188.634	31.278	0.00041779	0.00050672	0.00013891	1349.8	3.3557e-06	4.0068e-06	1367.3	351.23	2.6144e-06	4.3376e-06	405.11	134.46	114.16	39.634	4.5849e-06	49.1	0.0007716	0.0011979	0.00031615	1366.9	1.1421e-05	1.2904e-05	1386.4	358.07	1.1595e-05	1.378e-05	411.52	137.96	117.16	40.599	1.1719e-05	50.443	97.885	-9.962	-1.872	-78.667	76.387	55.300	-78.585	-73.919	35.503	81.961	-74.339	-70.025	-69.780	-64.859	48.266	-65.559	-8191	255	
18466.396	1	1	0	0	0.18664	0.068922	0.093013	0.21765	0.063432	0.098708	0.14095	0.054164	0.23025	0.12358	0.19011	0.04939	0.18152	0.11131	0.18038	0.2184	-4.0042	-4.4625	-4.5833	-4.4667	-4.6271	-4.4167	-4.4062	-4.8417	-4.1979	-4.5354	-4.9167	-4.2917	-4.6229	-4.5167	-4.1875	-4.7958	60.915	171.179	220.688	254.405	42.155	141.757	243.876	192.262	143.496	142.148	31.074	128.762	-41.501	52.319	-18.716	192.522	0.00038013	0.00051136	0.00013013	1349.7	3.9665e-06	4.2804e-06	1366.5	352.61	2.3271e-06	4.0425e-06	403.75	134.1	114.46	39.33	5.3718e-06	49.235	0.00075764	0.0011676	0.00033184	1365.8	1.1161e-05	1.328e-05	1386.8	359.04	1.1365e-05	1.3733e-05	411.29	137.89	117.09	40.515	1.2865e-05	50.516	101.291	3.168	-13.381	-78.514	42.489	54.244	-78.599	-74.018	0.533	79.056	-74.461	-70.305	-69.591	-64.947	42.934	-65.689	-8191	255	
18466.518	1	1	0	0	0.11819	0.086515	0.1449	0.50004	0.18695	0.073117	0.23582	0.29765	0.065566	0.13455	0.25503	0.18382	0.15986	0.050189	0.27269	0.19495	-3.8583	-4.5354	-4.6042	-4.3979	-4.5708	-4.575	-4.5396	-4.9187	-4.2917	-4.3812	-4.9333	-4.4125	-4.6312	-4.7333	-4.0792	-4.9229	262.765	225.200	91.012	241.830	160.691	259.456	254.773	184.316	-60.116	80.071	209.249	-89.642	-45.503	64.736	-75.899	263.314	0.0004461	0.00050531	0.00015458	1350.7	1.9199e-06	5.9821e-06	1369.7	352.54	5.0661e-06	5.691e-06	404.94	134.35	114.17	39.529	4.8617e-06	49.149	0.00077074	0.001182	0.0003449	1369.5	1.0831e-05	1.3831e-05	1390.4	358.79	1.1376e-05	1.4098e-05	412.06	137.97	117.22	40.503	1.2148e-05	50.438	100.150	10.807	6.135	-78.700	64.859	71.765	-78.673	-74.098	25.824	55.353	-74.427	-70.457	-69.679	-64.866	67.209	-65.813	-8191	255	
18466.611	1	1	0	0	0.16582	0.057752	0.092742	0.30666	0.097422	0.18375	0.099615	0.10367	0.046409	0.22201	0.085107	0.11022	0.27114	0.10497	0.228	0.021957	-4.0146	-4.2833	-4.5625	-4.3938	-4.5687	-4.6604	-4.3667	-4.9729	-4.3979	-4.35	-5.1021	-4.3354	-4.4104	-4.8917	-4.0958	-4.7417	17.307	196.547	113.075	236.014	18.943	-57.715	25.313	252.030	172.602	-31.602	218.496	118.038	209.713	178.184	-4.717	175.273	0.00045444	0.00061252	0.00017183	1351.5	5.0313e-06	4.8319e-06	1368.2	351.22	4.1891e-06	3.1747e-06	403.8	134.61	114.08	39.548	5.0917e-06	49.214	0.00075331	0.0012242	0.00032425	1369.8	1.1e-05	1.3235e-05	1387.2	358.16	1.1382e-05	1.4502e-05	411.31	137.98	117.09	40.525	1.2352e-05	50.464	102.023	-4.254	1.609	-78.622	43.983	42.506	-78.582	-74.103	14.535	54.779	-74.322	-70.266	-69.678	-64.963	54.031	-65.561	-8191	255	
18466.707	1	1	0	0	0.080727	0.11931	0.094577	0.21595	0.26604	0.23757	0.25975	0.38097	0.16599	0.24899	0.11546	0.15327	0.2408	0.062992	0.23419	0.16467	-4.1708	-4.4333	-4.8125	-4.425	-4.4313	-4.6687	-4.3229	-4.7792	-4.4979	-4.1438	-4.8333	-4.4271	-4.4812	-4.7833	-4.1542	-4.7937	35.368	86.560	69.411	257.419	-7.399	260.768	185.322	216.521	164.523	-52.993	144.384	126.654	242.137	52.884	191.697	267.190	0.00044167	0.00042036	0.00013505	1356.4	2.1899e-06	5.0053e-06	1372.2	353.59	2.7068e-06	5.2797e-06	404.16	134.57	114.27	39.374	4.0659e-06	49.091	0.00074881	0.0012382	0.00033334	1372	1.1005e-05	1.3565e-05	1389.1	359.28	1.0989e-05	1.3811e-05	412.33	137.96	117.31	40.567	1.2008e-05	50.46	100.197	14.202	-5.077	-78.643	81.922	58.017	-78.881	-73.744	-7.144	57.351	-74.320	-70.538	-69.807	-64.712	64.001	-65.590	-8191	255	
18466.807	1	1	0	0	0.33379	0.058953	0.11358	0.24643	0.16804	0.34311	0.11059	0.065245	0.11361	0.060305	0.27381	0.22086	0.16199	0.15772	0.11531	0.021399	-4.1542	-4.15	-4.7958	-4.5208	-4.4146	-4.7688	-4.3208	-4.5729	-4.5729	-4.0417	-4.6979	-4.4792	-4.2312	-4.9771	-4.1375	-4.5583	233.410	173.330	-38.331	194.804	-75.194	248.062	203.489	-72.428	-77.500	142.696	-79.451	-33.319	265.395	-19.356	125.956	157.571	0.00036697	0.00047848	0.00010577	1352.3	2.8377e-06	7.435e-06	1367.7	352.19	3.5533e-06	3.9658e-06	403.24	134.67	114.66	39.454	4.1188e-06	48.99	0.00075895	0.00125	0.00033446	1368.8	1.1146e-05	1.3473e-05	1387.9	358.7	1.1128e-05	1.4315e-05	411.66	138.02	117.27	40.58	1.2171e-05	50.548	104.159	7.864	-13.072	-78.511	36.801	62.507	-78.873	-73.851	27.226	71.868	-74.298	-70.296	-69.573	-64.776	49.692	-65.826	-8191	255	
18466.900	1	1	0	0	0.2062	0.17485	0.1317	0.28564	0.22272	0.18189	0.021568	0.07221	0.087805	0.033767	0.089555	0.047528	0.10488	0.162	0.077543	0.016566	-4.4479	-4.1396	-4.7792	-4.7562	-4.3854	-4.8271	-4.4875	-4.6479	-4.8104	-4.3375	-4.7417	-4.5938	-4.2812	-4.9646	-4.3667	-4.6208	-52.496	-27.514	-59.381	-91.365	187.100	261.578	-89.672	81.344	250.389	144.663	-17.913	-69.008	30.034	258.231	212.930	158.628	0.00040288	0.00059059	0.00018054	1355.4	1.8971e-06	6.1639e-06	1371.2	353.68	2.231e-06	4.1047e-06	405.82	134.93	114.63	39.617	4.4901e-06	49.142	0.0007782	0.0013075	0.00034247	1373.1	1.2073e-05	1.3894e-05	1392.5	359.72	1.1304e-05	1.517e-05	413.32	138.44	117.74	40.688	1.2753e-05	50.599	103.424	18.135	5.795	-78.579	49.332	62.774	-78.743	-74.031	-11.330	67.595	-74.425	-70.540	-69.526	-65.080	27.200	-65.696	-8191	255	
18466.996	1	1	0	0	0.16273	0.1241	0.069267	0.2476	0.010263	0.18554	0.30006	0.15118	0.14872	0.18652	0.091153	0.14635	0.15894	0.05114	0.038259	0.18605	-4.4375	-4.1062	-4.6646	-4.6937	-4.3458	-4.7771	-4.5458	-4.5479	-4.7229	-4.2188	-4.8625	-4.7521	-4.3167	-5.0104	-4.4354	-4.2458	134.730	61.591	61.663	223.677	64.411	-21.264	233.548	-83.083	-11.111	220.812	32.536	22.139	209.679	186.389	6.222	-83.222	0.00039596	0.00042011	0.00014877	1366.8	3.4097e-06	5.2838e-06	1380.8	354.19	3.4173e-06	3.325e-06	404.84	135.08	115.07	39.46	3.1697e-06	49.247	0.00077792	0.0012842	0.00034275	1380.4	1.1997e-05	1.4373e-05	1397.9	360.7	1.1436e-05	1.4723e-05	413.3	138.4	117.89	40.59	1.2374e-05	50.588	105.602	-3.389	8.279	-78.605	51.248	48.141	-78.691	-74.163	-6.196	68.974	-74.379	-70.401	-69.570	-65.006	49.803	-65.620	-8191	255	
18467.117	1	1	0	0	0.26879	0.12767	0.20273	0.17422	0.16239	0.24092	0.21768	0.14882	0.29917	0.11504	0.26695	0.20305	0.15137	0.29012	0.22008	0.18196	-4.4271	-4.2312	-4.5875	-4.7854	-4.1771	-4.6875	-4.5437	-4.5396	-4.6979	-4.1146	-4.7104	-4.7125	-4.2667	-4.5938	-4.4458	-4.3875	251.955	225.772	101.066	194.636	179.588	43.103	214.523	241.002	-54.548	83.700	242.909	-90.865	-12.666	244.082	-19.908	114.659	0.00043802	0.00050514	0.00012849	1362	3.6771e-06	5.9388e-06	1378.8	355	5.8663e-06	4.2864e-06	407.07	134.98	115.13	39.586	3.0442e-06	49.149	0.00075969	0.0012706	0.00033783	1380.6	1.1699e-05	1.3982e-05	1395.6	360.49	1.1764e-05	1.4727e-05	414.05	138.35	117.71	40.673	1.2174e-05	50.656	101.738	-3.916	3.233	-78.689	45.954	73.785	-78.641	-73.959	28.924	42.586	-74.299	-70.195	-69.762	-64.898	56.803	-65.919	-8191	255	
18467.215	1	1	0	0	0.10871	0.095181	0.15436	0.13727	0.2098	0.26267	0.25304	0.087435	0.14832	0.083639	0.15832	0.097822	0.11077	0.14004	0.15324	0.10068	-4.4771	-4.3146	-4.4646	-4.8479	-4.0042	-4.5542	-4.6375	-4.2438	-4.6562	-4.3917	-4.4458	-4.6604	-4.1875	-4.7417	-4.475	-4.3125	262.034	227.329	178.183	204.503	-20.489	260.527	229.004	-1.043	260.386	133.690	236.425	174.680	240.756	193.804	235.779	21.481	0.0004289	0.00051299	0.00014135	1366.9	3.5526e-06	6.0963e-06	1378.5	354.94	1.9803e-06	3.7542e-06	405.79	134.85	114.2	39.549	2.3089e-06	49.208	0.00075525	0.0013095	0.00035956	1381.6	1.1899e-05	1.4672e-05	1398.3	361.17	1.1178e-05	1.4247e-05	413.57	138.39	117.63	40.615	1.1716e-05	50.643	103.324	-10.022	23.457	-78.775	7.975	57.800	-78.737	-73.809	5.258	53.382	-74.215	-70.271	-69.787	-64.563	18.344	-65.960	-8191	255	
18467.311	1	1	0	0	0.22138	0.12679	0.1332	0.29758	0.10906	0.060991	0.16365	0.14625	0.15265	0.1964	0.19387	0.14173	0.1994	0.094988	0.13286	0.0254	-4.575	-4.2417	-4.2542	-4.8875	-4.1375	-4.6062	-4.6813	-4.2562	-4.7729	-4.4437	-4.3125	-4.8396	-4.2167	-4.6125	-4.6271	-4.2542	47.572	146.125	-11.642	232.277	35.982	203.855	198.766	-64.624	-23.423	264.205	223.149	169.529	74.598	157.786	101.543	230.184	0.00044439	0.00046335	0.0001278	1363.1	4.023e-06	6.041e-06	1377.5	354.51	2.4649e-06	5.8553e-06	405.97	135.34	114.28	39.725	5.7198e-06	49.56	0.00075365	0.0012612	0.00034612	1379.4	1.1506e-05	1.3538e-05	1395.1	360.71	1.0637e-05	1.3757e-05	413.79	138.38	117.55	40.725	1.1641e-05	50.705	101.212	-7.794	6.543	-78.642	43.565	62.437	-78.767	-73.924	22.992	73.987	-74.392	-70.044	-69.656	-64.914	64.528	-65.716	-8191	255	
18467.406	1	1	0	0	0.1568	0.11339	0.20653	0.39095	0.1097	0.030199	0.16887	0.24407	0.20425	0.085547	0.13299	0.069071	0.2392	0.1464	0.20473	0.12803	-4.2979	-4.3875	-4.2521	-4.9313	-4.1979	-4.4479	-4.8521	-4.1583	-4.7021	-4.4479	-4.4167	-4.8292	-4.275	-4.5667	-4.6958	-4.2854	-69.492	43.041	-18.477	222.315	162.526	218.271	195.669	212.856	175.284	227.291	146.427	143.457	-34.133	-44.079	-41.406	-63.406	0.00043051	0.00040473	0.00012025	1362.7	4.6423e-06	4.1153e-06	1374.4	354.67	3.1596e-06	4.0552e-06	405.98	135.71	114.78	39.628	5.5594e-06	49.192	0.00074078	0.0011951	0.00034341	1379.5	1.1417e-05	1.3608e-05	1396.1	360.3	1.0969e-05	1.3092e-05	412.87	138.47	117.63	40.618	1.2168e-05	50.547	105.959	-22.941	23.984	-78.474	56.898	73.943	-78.648	-73.943	3.630	63.941	-74.200	-70.235	-69.710	-64.924	58.046	-65.969	-8191	255	
18467.502	1	1	0	0	0.054411	0.19287	0.16165	0.24382	0.18774	0.2369	0.010495	0.16805	0.15108	0.054393	0.18456	0.15388	0.095641	0.19668	0.13948	0.21524	-4.4375	-4.5417	-4.0542	-4.9958	-4.2542	-4.4042	-4.9458	-4.1354	-4.7375	-4.4792	-4.3042	-4.7167	-4.5104	-4.4187	-4.7104	-4.4563	51.782	6.963	-80.564	239.049	21.249	-53.820	234.375	191.173	-20.363	173.207	253.626	172.151	150.858	-77.788	257.912	65.905	0.00039447	0.00054079	0.0001082	1367.7	2.6457e-06	4.1444e-06	1376.8	353.86	3.9405e-06	3.9067e-06	405.36	135.08	114.85	39.538	4.997e-06	49.104	0.00078048	0.0011921	0.00033226	1380.3	1.1161e-05	1.3829e-05	1396.3	360.59	1.1124e-05	1.3178e-05	413.44	138.45	117.48	40.59	1.1562e-05	50.605	99.264	2.788	22.073	-78.445	9.639	60.146	-78.759	-73.804	37.010	67.127	-74.375	-70.057	-69.532	-64.908	36.440	-65.804	-8191	255	
18467.598	1	1	0	0	0.1474	0.12618	0.093614	0.18637	0.02086	0.047862	0.038379	0.26762	0.15237	0.15957	0.27777	0.092906	0.075191	0.2645	0.080794	0.1673	-4.2625	-4.6188	-4.2292	-4.9167	-4.2354	-4.35	-4.9833	-4.3792	-4.6729	-4.5437	-4.3292	-5.0104	-4.5813	-4.3271	-4.7542	-4.2812	39.584	172.661	-41.596	264.431	206.560	178.654	177.272	179.975	124.511	9.321	187.000	212.609	128.656	253.429	238.887	215.670	0.00041451	0.00057428	0.00013072	1364.1	3.2499e-06	3.7406e-06	1376.8	353.99	4.2801e-06	4.4041e-06	406.18	134.83	114.92	39.437	5.2172e-06	49.226	0.00076527	0.0011457	0.00035718	1378.1	1.1566e-05	1.4011e-05	1395.5	360.32	1.1143e-05	1.3484e-05	413.36	138.2	117.39	40.604	1.2099e-05	50.556	99.735	3.339	-7.089	-78.694	68.827	62.475	-78.754	-73.934	6.887	67.867	-74.234	-70.257	-69.557	-65.220	39.408	-65.582	-8191	255	
18467.693	1	1	0	0	0.059974	0.29362	0.139	0.22519	0.22016	0.071454	0.22846	0.27522	0.29612	0.060696	0.21712	0.13095	0.028667	0.12001	0.12541	0.15497	-4.2625	-4.6146	-4.0208	-4.9917	-4.4563	-4.4062	-4.9875	-4.3104	-4.325	-4.7688	-4.2083	-4.7792	-4.5771	-4.2979	-4.8542	-4.4167	46.169	-0.229	50.369	233.688	207.473	-64.214	239.393	186.331	-23.428	-33.661	-73.146	220.508	44.280	-90.627	-13.987	245.293	0.00048526	0.00051658	0.00015629	1361.7	2.757e-06	5.8052e-06	1376.3	354.15	3.8485e-06	4.9996e-06	405.26	134.88	114.73	39.54	3.0091e-06	49.292	0.00076015	0.0011812	0.00035263	1378.1	1.0754e-05	1.3706e-05	1395.1	360	1.1241e-05	1.3492e-05	413.02	138.26	117.64	40.569	1.1733e-05	50.634	97.217	-9.613	-3.458	-78.567	71.511	54.608	-78.881	-73.986	3.685	55.781	-74.285	-70.453	-69.754	-64.875	42.361	-65.611	-8191	255	
18467.789	1	1	0	0	0.23592	0.17707	0.1516	0.16706	0.098581	0.082278	0.13431	0.23884	0.37653	0.18964	0.056275	0.22716	0.12741	0.22236	0.083219	0.060753	-4.3021	-4.7292	-4.0646	-4.7521	-4.4062	-4.0958	-5.025	-4.5167	-4.4938	-4.8812	-4.4229	-4.6208	-4.6458	-4.275	-4.5896	-4.5292	-42.055	-27.703	16.387	266.903	116.096	-35.151	207.041	237.308	-39.515	265.389	164.045	88.868	236.002	-69.695	204.551	50.304	0.00045609	0.00056562	0.00012571	1363.1	1.881e-06	4.22e-06	1375.5	353.65	2.9983e-06	3.7463e-06	404.08	135.03	114.52	39.476	2.8323e-06	49.274	0.00077718	0.0011918	0.0003486	1378	1.1172e-05	1.4015e-05	1394.4	360.2	1.1044e-05	1.3145e-05	412.91	138.4	117.56	40.611	1.2339e-05	50.638	100.050	1.444	2.657	-78.363	26.663	67.367	-78.801	-73.896	54.454	46.768	-74.500	-70.384	-69.742	-64.748	62.255	-65.563	-8191	255	
18467.908	1	1	0	0	0.02275	0.063662	0.083559	0.16439	0.21358	0.18451	0.29576	0.40851	0.2209	0.065321	0.18358	0.074967	0.081609	0.13751	0.19708	0.096432	-3.9458	-4.5625	-4.1062	-4.6917	-4.6208	-4.075	-4.7271	-4.4646	-4.1562	-4.7312	-4.4187	-4.7708	-4.7	-4.1708	-4.7104	-4.4729	234.945	36.178	216.385	195.280	231.667	232.588	188.011	165.472	154.248	196.036	24.264	-58.504	122.638	62.435	-19.475	113.825	0.00043105	0.00043414	0.00015453	1361.4	3.356e-06	4.7741e-06	1370.5	353.16	3.0549e-06	4.4378e-06	406.61	134.79	114.72	39.547	2.7859e-06	49.394	0.0007667	0.0011819	0.00033755	1378.4	1.1103e-05	1.3894e-05	1393.8	359.81	1.1686e-05	1.3543e-05	413.42	138.15	117.47	40.59	1.1561e-05	50.671	101.715	-7.065	11.244	-78.519	13.587	63.786	-78.681	-73.765	28.799	64.362	-74.081	-70.067	-69.814	-65.011	53.998	-65.688	-8191	255	
18468.006	1	1	0	0	0.11891	0.15214	0.05304	0.13539	0.02633	0.061481	0.11999	0.32992	0.10619	0.1981	0.12022	0.066596	0.17781	0.23502	0.06692	0.24354	-3.8271	-4.7021	-4.2833	-4.6896	-4.7625	-4.1125	-4.7833	-4.6625	-4.2292	-4.6729	-4.3812	-4.6458	-4.8479	-4.2333	-4.7458	-4.6042	73.743	248.844	95.273	234.283	266.873	-24.595	58.702	227.974	-79.465	49.245	169.134	174.745	210.801	185.741	148.100	-88.462	0.00036839	0.00051193	0.00014015	1362.4	3.2887e-06	5.482e-06	1377.7	354.31	4.545e-06	4.1754e-06	404.39	135.12	114.35	39.404	4.6325e-06	49.097	0.0007802	0.0011691	0.0003412	1378	1.1593e-05	1.3745e-05	1395.2	360.04	1.169e-05	1.3557e-05	412.79	138.31	117.29	40.525	1.1367e-05	50.545	97.639	-15.286	-5.734	-78.503	56.224	54.366	-78.624	-73.911	24.389	82.018	-74.182	-70.501	-69.680	-64.855	40.427	-65.803	-8191	255	
18468.102	1	1	0	0	0.077056	0.018929	0.18428	0.37815	0.19573	0.30538	0.322	0.22004	0.13406	0.20518	0.14455	0.099746	0.093069	0.11606	0.13921	0.25024	-4.0458	-4.5958	-4.2083	-4.4979	-4.7875	-4.0729	-4.6333	-4.8083	-4.05	-4.6917	-4.5917	-4.4667	-4.7396	-4.4187	-4.6458	-4.6458	112.711	-71.283	127.686	215.834	-55.478	63.549	246.240	252.169	259.848	79.130	7.368	243.765	172.252	-89.913	232.513	-82.410	0.00037999	0.00059832	0.00010382	1360.4	3.1422e-06	3.8038e-06	1374.6	354.22	4.6851e-06	6.3042e-06	405.77	134.66	113.88	39.615	4.21e-06	49.146	0.00075058	0.0011942	0.00036504	1377.8	1.1167e-05	1.3833e-05	1394.3	359.95	1.1593e-05	1.3766e-05	412.97	138.18	117.36	40.651	1.1986e-05	50.578	103.660	-0.783	5.898	-78.555	28.300	56.588	-78.721	-74.044	1.265	53.755	-74.337	-70.288	-69.925	-64.998	32.150	-65.451	-8191	255	
18468.197	1	1	0	0	0.14652	0.15439	0.15967	0.32101	0.12396	0.27725	0.27697	0.41788	0.25086	0.13671	0.17351	0.26161	0.046917	0.19503	0.0533	0.1425	-3.65	-4.6562	-4.3917	-4.4271	-4.775	-4.1917	-4.7125	-4.6104	-4.3125	-4.6958	-4.5354	-4.1229	-4.8063	-4.2042	-4.4437	-4.9437	159.347	113.336	45.142	227.119	246.326	217.177	195.966	-69.328	222.049	-45.669	-13.023	-13.425	177.027	244.411	-43.621	214.810	0.00043862	0.0005601	0.0001464	1359.2	5.0126e-06	5.4601e-06	1374.1	354.25	4.0336e-06	5.2986e-06	406.48	135.25	114.72	39.553	4.2473e-06	49.434	0.00077724	0.0011815	0.00034139	1376.6	1.0908e-05	1.4095e-05	1394.8	360.27	1.1591e-05	1.349e-05	413.28	138.3	117.39	40.603	1.2137e-05	50.736	101.781	1.260	-6.150	-78.495	31.487	60.837	-78.782	-73.893	-10.684	70.817	-74.350	-70.494	-69.708	-64.771	61.585	-65.738	-8191	255	
18468.295	1	1	0	0	0.21061	0.048442	0.07285	0.12109	0.10848	0.31924	0.13542	0.30267	0.16947	0.12924	0.15126	0.14045	0.14288	0.081098	0.1823	0.19625	-3.7604	-4.6667	-4.7688	-4.3125	-4.8313	-4.3604	-4.6438	-4.8	-4.1417	-4.6521	-4.5375	-4.2583	-4.6813	-4.5437	-4.3667	-4.8125	63.475	88.691	40.053	154.103	22.873	182.558	192.016	210.551	81.351	74.052	-47.853	-78.210	136.118	189.111	220.682	193.539	0.00042478	0.00050853	0.00012048	1360.1	4.3015e-06	4.81e-06	1380.1	352.32	4.3886e-06	5.5261e-06	404.8	134.97	114.59	39.622	4.4031e-06	49.353	0.00077917	0.0011657	0.00034017	1376.8	1.1101e-05	1.3485e-05	1395.6	359.55	1.1622e-05	1.3598e-05	413.19	138.33	117.48	40.673	1.2667e-05	50.65	99.361	-5.407	-0.119	-78.708	33.599	45.931	-78.660	-73.902	-0.215	56.449	-74.326	-70.166	-69.818	-64.835	58.965	-65.617	-8191	255	
18468.391	1	1	0	0	0.21332	0.07564	0.051489	0.15325	0.29917	0.070527	0.13919	0.057863	0.16374	0.04939	0.22219	0.1418	0.092947	0.063353	0.16788	0.16694	-3.7271	-4.5	-4.5375	-4.5417	-4.7958	-4.4417	-4.7104	-4.9062	-4.1062	-4.7208	-4.6833	-4.3229	-4.7021	-4.4187	-4.1438	-4.9667	81.659	-78.417	81.740	205.699	-87.232	221.863	187.364	18.042	212.705	134.217	263.322	-64.383	-40.419	123.324	-76.855	166.220	0.00042789	0.00038629	0.00013214	1361.1	4.8241e-06	4.1232e-06	1373.6	353.85	2.6578e-06	5.4933e-06	405.94	135.4	114	39.654	5.6388e-06	48.986	0.00075667	0.0011362	0.00035713	1377.4	1.1295e-05	1.3485e-05	1395.8	360.26	1.1595e-05	1.327e-05	413.32	138.38	117.25	40.64	1.2127e-05	50.532	99.158	6.294	-0.190	-78.639	42.195	59.109	-78.807	-74.005	-13.688	60.776	-74.496	-70.024	-69.794	-65.133	53.086	-65.734	-8191	255	
18468.486	1	1	0	0	0.1717	0.087674	0.087524	0.19594	0.18734	0.11873	0.39784	0.36036	0.18295	0.079994	0.096506	0.12188	0.051052	0.15447	0.044814	0.05787	-3.9375	-4.5417	-4.7521	-4.4792	-4.6625	-4.6062	-4.5917	-4.8021	-4.3	-4.5917	-4.7833	-4.1146	-4.7688	-4.7208	-4.1875	-4.8771	-87.979	-0.303	217.069	117.201	100.311	177.280	160.601	240.288	135.014	-12.511	265.685	239.683	179.531	174.349	-71.015	260.016	0.00042066	0.00045813	0.00010405	1360.3	2.5287e-06	3.8358e-06	1369.8	353.63	5.2188e-06	5.6601e-06	405.34	134.61	114.28	39.42	4.4885e-06	49.139	0.00075616	0.0012605	0.00033647	1377.7	1.1028e-05	1.3822e-05	1392.5	359.57	1.1569e-05	1.3974e-05	413.52	137.84	117.09	40.577	1.2758e-05	50.565	99.905	-11.092	8.690	-78.543	25.953	52.048	-78.724	-73.910	21.325	64.344	-74.492	-70.398	-69.862	-65.154	51.729	-65.922	-8191	255	
18468.607	1	1	0	0	0.12272	0.052308	0.1136	0.082156	0.10716	0.17853	0.19984	0.16479	0.094445	0.19449	0.23236	0.096739	0.043656	0.31463	0.18925	0.086281	-4.0188	-4.4208	-4.7167	-4.2042	-4.5146	-4.6333	-4.3208	-4.8958	-4.4146	-4.4271	-4.8646	-4.3875	-4.5083	-4.6021	-4.3354	-4.8958	173.570	134.921	190.168	157.259	19.791	212.427	209.021	208.524	60.070	65.337	-77.621	254.129	239.762	209.282	-69.324	208.251	0.00044408	0.00045352	0.00014351	1360.7	3.2572e-06	4.616e-06	1375.7	353.75	3.6717e-06	5.767e-06	406.12	134.13	114.05	39.422	3.2275e-06	49.182	0.0007565	0.0012002	0.00033151	1377.5	1.0598e-05	1.3571e-05	1394.5	360.06	1.1183e-05	1.4086e-05	413.44	137.99	117.28	40.573	1.2406e-05	50.565	96.185	-12.410	-8.193	-78.516	39.123	63.894	-78.745	-73.946	-11.844	48.968	-74.346	-70.204	-69.711	-65.142	40.689	-65.885	-8191	255	
18468.701	1	1	0	0	0.14685	0.16023	0.14603	0.18709	0.12158	0.18882	0.15358	0.29425	0.20864	0.087263	0.086104	0.040115	0.11301	0.36837	0.11659	0.31115	-3.9833	-4.2667	-4.7958	-4.2646	-4.4125	-4.6271	-4.4646	-4.7729	-4.3583	-4.3646	-4.9313	-4.4437	-4.5312	-4.7937	-4.1729	-4.7625	38.097	228.806	196.475	159.795	-60.608	110.225	136.164	247.745	8.397	71.794	233.224	262.546	61.994	245.391	98.733	45.026	0.00043868	0.00063831	0.00013952	1356.8	5.4366e-06	4.6353e-06	1374.7	352.58	4.088e-06	3.9101e-06	406.15	134.59	115.27	39.444	3.1187e-06	48.982	0.00077741	0.001222	0.00031601	1375.1	1.1098e-05	1.3178e-05	1394.3	359.85	1.143e-05	1.3837e-05	412.9	138.18	117.47	40.589	1.2191e-05	50.496	103.350	-7.077	17.402	-78.626	42.904	84.403	-78.612	-73.803	6.132	63.597	-74.395	-70.237	-69.652	-64.768	45.685	-65.399	-8191	255	
18468.799	1	1	0	0	0.16492	0.32787	0.16777	0.081311	0.088213	0.061748	0.20998	0.48328	0.090975	0.11269	0.16392	0.09847	0.16097	0.17056	0.30579	0.12916	-4.1396	-4.3292	-4.8521	-4.4708	-4.3708	-4.775	-4.2562	-4.7854	-4.5333	-4.3792	-4.9521	-4.3771	-4.5708	-4.7646	-4.2042	-4.7333	59.924	252.395	261.168	260.358	257.170	-24.733	239.185	-66.428	146.717	243.791	-12.811	242.111	130.977	-80.890	-48.556	-51.089	0.00043691	0.0006144	0.00012496	1360.1	3.2528e-06	3.3164e-06	1377.2	352.87	5.309e-06	3.8666e-06	405.5	134.68	114.98	39.547	3.7659e-06	49.059	0.00076436	0.0012718	0.00032523	1376.8	1.1172e-05	1.4078e-05	1395.1	359.52	1.1502e-05	1.4225e-05	413.45	138.04	117.48	40.579	1.2502e-05	50.567	95.958	8.576	13.280	-78.633	29.167	65.850	-78.716	-74.017	14.563	31.206	-74.315	-70.300	-69.571	-65.023	89.358	-66.068	-8191	255	
18468.895	1	1	0	0	0.059597	0.076361	0.05025	0.19312	0.21774	0.19912	0.1494	0.12594	0.18534	0.081122	0.16362	0.15534	0.07895	0.26738	0.073046	0.05519	-4.3417	-4.1188	-4.7146	-4.5229	-4.1854	-4.7646	-4.4792	-4.6458	-4.6417	-4.2438	-4.7542	-4.5583	-4.2896	-4.8792	-4.4604	-4.5896	6.263	-43.845	-45.761	185.017	33.696	-78.409	-10.656	-47.755	135.134	95.508	199.195	140.366	-47.981	211.219	155.879	85.785	0.00040958	0.00047403	8.6097e-05	1360.4	4.692e-06	5.836e-06	1376.3	353.24	3.8799e-06	4.568e-06	406.71	134.69	115.25	39.448	3.5343e-06	49.212	0.00077097	0.0012574	0.00032331	1376.9	1.1245e-05	1.3653e-05	1395.9	359.81	1.1202e-05	1.4478e-05	413.62	137.96	117.65	40.546	1.2101e-05	50.656	104.387	-7.828	6.803	-78.595	25.418	51.836	-78.904	-73.922	-8.758	55.053	-74.210	-70.079	-69.819	-65.249	57.125	-65.611	-8191	255	
18468.990	1	1	0	0	0.1204	0.30096	0.18305	0.093289	0.23892	0.14971	0.15418	0.1581	0.11439	0.13456	0.091774	0.21555	0.036046	0.057428	0.080212	0.10447	-4.3271	-4.1813	-4.7396	-4.6062	-4.2812	-4.8375	-4.4875	-4.6	-4.6917	-4.2188	-4.7312	-4.6083	-4.3562	-4.8833	-4.275	-4.5583	215.421	205.906	-73.409	-0.195	5.833	202.682	-77.601	231.354	110.716	186.654	157.959	-53.185	206.030	254.027	12.603	175.785	0.00037401	0.00044073	0.00015003	1362.5	3.2286e-06	5.2784e-06	1376.5	353.57	3.7381e-06	3.2053e-06	405.84	134.54	114.93	39.568	5.0439e-06	49.267	0.00076168	0.0012733	0.00033863	1377.8	1.1676e-05	1.4095e-05	1396	360.17	1.1354e-05	1.3851e-05	413.47	137.99	117.44	40.569	1.1802e-05	50.59	98.049	-11.947	16.439	-78.715	37.998	51.883	-78.872	-73.966	10.719	65.747	-74.124	-70.347	-69.871	-64.945	43.636	-65.668	-8191	255	
18469.086	1	1	0	0	0.22973	0.10513	0.17867	0.16847	0.22992	0.10708	0.29261	0.2087	0.14602	0.16993	0.14159	0.11828	0.2576	0.18399	0.11954	0.17438	-4.3	-4.1104	-4.7562	-4.6479	-4.2125	-4.8146	-4.5271	-4.65	-4.6667	-4.325	-4.7375	-4.4917	-4.2646	-4.9688	-4.1354	-4.4812	-24.079	40.109	76.184	224.537	-45.124	157.511	243.841	-77.703	267.113	-4.330	-74.897	256.242	-80.694	-73.890	-27.804	243.420	0.0003815	0.00044484	0.00016004	1363.2	4.2556e-06	5.9671e-06	1376.2	353.94	4.9027e-06	3.2929e-06	405.23	134.31	114.02	39.684	3.4608e-06	49.212	0.00075035	0.0012376	0.00032477	1376.8	1.1987e-05	1.3649e-05	1394.7	360.25	1.0722e-05	1.3717e-05	413.44	137.97	117.24	40.645	1.1783e-05	50.553	95.308	-11.183	-3.484	-78.630	38.296	45.907	-78.763	-73.796	-7.863	66.801	-74.333	-70.377	-69.726	-65.236	58.838	-65.553	-8191	255	
18469.207	1	1	0	0	0.086972	0.15485	0.084508	0.3432	0.17202	0.076016	0.31717	0.029286	0.22418	0.11383	0.14128	0.098539	0.18259	0.1676	0.097976	0.096677	-4.5437	-4.1375	-4.6208	-4.7083	-4.1875	-4.6771	-4.6021	-4.5604	-4.8187	-4.275	-4.6438	-4.7188	-4.1813	-4.7438	-4.5271	-4.2292	138.398	138.393	-7.051	253.859	238.594	252.089	173.703	168.439	194.902	-47.973	55.717	76.655	241.544	256.153	155.497	60.281	0.00042645	0.00050849	0.00018035	1360.8	2.4204e-06	5.541e-06	1372.6	352.83	2.2222e-06	4.1145e-06	405.05	134.73	114.24	39.483	3.8498e-06	49.105	0.00076823	0.0012604	0.00034111	1377	1.1395e-05	1.2988e-05	1393.6	359.63	1.0696e-05	1.3819e-05	412.67	137.91	117.39	40.618	1.1692e-05	50.555	103.924	-17.661	-0.019	-78.506	60.875	57.855	-78.764	-74.040	29.346	63.698	-74.181	-70.240	-69.805	-65.163	62.942	-65.945	-8191	255	
18469.303	1	1	0	0	0.1083	0.04929	0.093744	0.29129	0.1294	0.13487	0.10816	0.35723	0.23445	0.26264	0.023321	0.18017	0.061644	0.11731	0.058382	0.11113	-4.3688	-4.1708	-4.625	-4.9146	-4.1792	-4.7229	-4.8583	-4.425	-4.7146	-4.3313	-4.7562	-4.6896	-4.2125	-4.7625	-4.6354	-4.4292	-21.949	211.366	-87.035	-82.566	-9.748	-73.345	263.689	201.600	207.653	112.622	0.869	-85.114	23.401	178.367	54.702	201.400	0.00039983	0.0005189	0.00013054	1360.8	2.1262e-06	3.6147e-06	1369.9	354.48	2.5481e-06	5.4281e-06	403.65	134.27	114.81	39.48	3.7943e-06	49.104	0.00074653	0.0011863	0.00033512	1375.6	1.1576e-05	1.3323e-05	1392.8	360.01	1.0722e-05	1.317e-05	412.2	138.01	117.39	40.562	1.177e-05	50.559	102.541	-9.172	-22.938	-78.577	39.607	44.850	-78.816	-73.838	-11.459	44.295	-74.468	-70.198	-69.657	-64.877	50.341	-65.760	-8191	255	
18469.398	1	1	0	0	0.14898	0.086137	0.19246	0.36366	0.12638	0.1271	0.38916	0.2215	0.18918	0.011368	0.1256	0.10202	0.10423	0.19973	0.14486	0.083899	-4.5021	-4.1813	-4.2688	-4.85	-4.0312	-4.5854	-4.7854	-4.3917	-4.8167	-4.3625	-4.2625	-4.8542	-4.3104	-4.8271	-4.6708	-4.2562	257.461	191.304	42.022	258.352	92.145	42.864	161.625	198.301	169.281	227.479	191.218	32.494	11.821	185.151	115.968	250.519	0.00042329	0.00042422	0.00013152	1360	2.9452e-06	4.0911e-06	1376.4	352.65	3.5065e-06	4.4015e-06	407.21	134.19	114.41	39.631	3.0066e-06	49.143	0.00074904	0.0012146	0.00033235	1375.3	1.0906e-05	1.3614e-05	1393.3	359.82	1.0884e-05	1.4082e-05	413.36	137.99	117.48	40.624	1.2009e-05	50.556	91.716	-16.941	15.068	-78.680	34.719	48.556	-78.675	-73.866	9.084	58.079	-74.357	-70.233	-69.874	-64.759	50.127	-65.538	-8191	255	
18469.471	1	1	0	0	0.21791	0.089368	0.041126	0.15368	0.1675	0.1297	0.060357	0.1667	0.1716	0.073903	0.20369	0.079561	0.24738	0.17832	0.0046617	0.054993	-4.2917	-4.3688	-4.3625	-4.8979	-4.2271	-4.5563	-4.7646	-4.2417	-4.7042	-4.5375	-4.45	-4.7271	-4.4125	-4.6271	-4.6854	-4.2021	-23.349	91.749	50.323	-23.809	-23.773	6.768	229.196	201.301	-12.650	131.632	258.260	92.655	-86.604	-76.575	54.486	-36.438	0.00038877	0.00051212	0.00013081	1356.6	4.181e-06	5.4246e-06	1373.8	354.29	3.3168e-06	6.0206e-06	405.35	134.57	114.41	39.536	3.7892e-06	49.149	0.00075821	0.0011752	0.00033282	1375.6	1.1136e-05	1.3896e-05	1391.9	359.9	1.1137e-05	1.3982e-05	412.62	137.67	117.22	40.55	1.1361e-05	50.568	100.729	-14.279	-0.029	-78.525	14.621	63.897	-78.866	-73.839	6.724	52.848	-74.474	-70.386	-69.659	-64.977	35.061	-65.625	-8191	255	
18469.590	1	1	0	0	0.084623	0.22299	0.038835	0.3487	0.15053	0.077553	0.2279	0.19319	0.25133	0.14856	0.19655	0.17779	0.12133	0.057849	0.14671	0.14696	-4.1687	-4.4417	-4.2833	-4.9187	-4.1708	-4.4042	-4.8938	-4.225	-4.5188	-4.6292	-4.3042	-4.7854	-4.4333	-4.275	-4.7542	-4.2375	156.217	-39.562	122.435	212.776	-8.404	143.168	197.031	119.519	86.028	44.441	256.993	219.743	203.946	256.718	-22.861	30.000	0.00043073	0.00044035	0.00012766	1357	4.076e-06	4.8323e-06	1373.7	351.28	3.9615e-06	4.459e-06	404.11	134.64	114.1	39.488	2.7313e-06	49.255	0.0007295	0.0011187	0.00033146	1374.8	1.0741e-05	1.3471e-05	1392.3	358.81	1.1235e-05	1.3978e-05	411.65	137.68	117.16	40.505	1.0949e-05	50.463	98.794	6.260	-2.027	-78.429	50.226	54.774	-78.752	-73.961	14.650	71.003	-74.347	-70.200	-69.475	-65.213	68.393	-65.468	-8191	255	
18469.686	1	1	0	0	0.097002	0.045189	0.09068	0.26284	0.14838	0.13028	0.086013	0.055394	0.10181	0.23759	0.11163	0.32091	0.31788	0.22471	0.13676	0.18255	-4.2833	-4.4833	-4.1562	-4.9396	-4.325	-4.3917	-4.9854	-4.325	-4.6062	-4.6562	-4.2979	-4.7625	-4.2854	-4.3875	-4.8375	-4.3938	258.443	-30.782	33.047	-90.097	-42.399	-26.948	263.727	219.785	-22.340	240.439	-63.255	168.206	266.934	153.246	45.596	253.125	0.00039739	0.00057688	0.00014481	1352.3	4.3924e-06	4.725e-06	1372.7	352.49	2.5433e-06	4.9651e-06	403.58	134.07	114.58	39.363	4.6084e-06	49.061	0.0007426	0.0011741	0.00033755	1371	1.0905e-05	1.3782e-05	1391.7	358.94	1.0601e-05	1.3141e-05	411.84	137.77	117.12	40.483	1.1545e-05	50.48	101.206	-2.959	3.494	-78.635	42.933	93.296	-78.726	-73.773	20.005	52.191	-74.337	-70.551	-69.862	-64.933	43.807	-65.602	-8191	255	
18469.781	1	1	0	0	0.085049	0.24832	0.041743	0.28013	0.14874	0.15294	0.23308	0.32161	0.17523	0.23551	0.31011	0.1091	0.23378	0.080876	0.14753	0.017338	-4.1875	-4.6188	-4.0792	-4.8146	-4.3396	-4.3896	-5.0312	-4.3458	-4.5208	-4.7729	-4.1208	-4.6229	-4.6312	-4.2	-4.7271	-4.3104	145.966	53.496	-56.579	258.855	6.386	70.350	195.273	236.306	45.966	-31.919	264.050	67.983	239.398	37.858	-35.704	206.541	0.00037579	0.00049508	0.00015819	1360	4.3734e-06	5.0462e-06	1374	353.89	2.8424e-06	4.6124e-06	403.79	133.8	114.22	39.413	4.4463e-06	49.197	0.00074049	0.0011166	0.00033348	1375.6	1.1128e-05	1.3479e-05	1390.7	359.38	1.1289e-05	1.3037e-05	411.98	137.74	117.21	40.546	1.1219e-05	50.573	100.205	1.405	3.748	-78.579	44.903	71.251	-78.881	-73.924	-20.122	82.085	-74.071	-70.289	-69.716	-65.061	42.941	-65.585	-8191	255	
18469.879	1	1	0	0	0.077444	0.23637	0.2268	0.24455	0.14701	0.14204	0.28864	0.39084	0.10353	0.11965	0.080243	0.10713	0.096616	0.13041	0.10371	0.21773	-4.0125	-4.7604	-4.05	-4.7542	-4.4875	-4.2562	-4.9458	-4.6188	-4.3896	-4.6604	-4.1604	-4.7688	-4.6562	-4.2604	-4.8292	-4.375	-75.386	-76.295	14.145	224.430	72.226	59.277	189.166	173.313	64.038	227.108	222.010	208.404	240.082	179.775	55.676	244.035	0.00043596	0.00063387	0.00010448	1354.6	1.4525e-06	5.6316e-06	1371.7	353.4	5.2302e-06	4.5181e-06	404.9	134.41	114.63	39.452	3.5748e-06	49.181	0.00074271	0.0011852	0.00033779	1373.5	1.085e-05	1.3348e-05	1392.5	359.43	1.1305e-05	1.2898e-05	412.56	137.77	117.26	40.533	1.1785e-05	50.496	103.700	6.987	-7.145	-78.639	66.351	58.221	-78.569	-74.025	6.231	68.573	-74.446	-70.117	-69.767	-64.699	24.417	-65.692	-8191	255	
18469.998	1	1	0	0	0.16734	0.19334	0.12546	0.19177	0.33645	0.09726	0.34437	0.17915	0.19444	0.071683	0.21336	0.12072	0.091016	0.0070315	0.1205	0.27759	-3.9292	-4.8562	-4.1583	-4.5813	-4.6312	-4.0437	-4.7146	-4.4521	-4.2125	-4.875	-4.3125	-4.5583	-4.675	-4.175	-4.6458	-4.4625	21.636	17.651	192.204	-64.314	42.928	47.684	239.632	191.218	75.138	190.617	227.057	-34.161	-69.799	97.840	181.188	176.770	0.00042927	0.00044569	0.00013797	1357.1	4.2436e-06	4.8979e-06	1370.2	352.95	3.5174e-06	4.4202e-06	404.22	134.49	113.79	39.544	5.2655e-06	48.953	0.00076795	0.001104	0.00032505	1373.5	1.1021e-05	1.3884e-05	1391.1	359.39	1.131e-05	1.3125e-05	412.24	137.94	117.18	40.505	1.1779e-05	50.522	98.414	1.143	11.760	-78.456	34.051	58.695	-78.689	-73.898	7.936	68.622	-74.080	-70.381	-69.722	-64.753	48.116	-65.776	-8191	255	
18470.070	1	1	0	0	0.18181	0.15606	0.12073	0.094996	0.10481	0.074274	0.11432	0.1024	0.11569	0.10872	0.10164	0.1915	0.1778	0.22491	0.17384	0.06284	-3.8187	-4.5625	-4.1979	-4.7417	-4.7271	-3.925	-4.7812	-4.5437	-4.2521	-4.7562	-4.2792	-4.4625	-4.6604	-4.0792	-4.5479	-4.5792	265.380	243.955	150.061	216.997	217.603	104.786	233.727	227.504	236.603	246.611	-84.584	-49.455	229.993	247.240	222.384	-89.853	0.0003986	0.00058203	0.00013132	1355.4	3.4663e-06	4.3357e-06	1373.6	352.84	1.9868e-06	3.4039e-06	404.24	133.97	114.48	39.388	4.5377e-06	49.143	0.00076311	0.0011045	0.00035343	1374.1	1.0974e-05	1.3886e-05	1391.8	359.41	1.0924e-05	1.2439e-05	412.23	137.84	117.21	40.499	1.2127e-05	50.535	98.328	0.577	6.246	-78.542	10.318	55.250	-78.749	-73.882	17.602	52.017	-74.317	-70.325	-69.917	-64.692	43.282	-65.467	-8191	255	
18470.166	1	1	0	0	0.090726	0.14484	0.074848	0.32759	0.16054	0.13124	0.26183	0.086155	0.27532	0.33614	0.19176	0.087074	0.13264	0.056127	0.039532	0.13028	-3.7875	-4.7958	-4.25	-4.475	-4.6	-4.0813	-4.7583	-4.6646	-4.1833	-4.7896	-4.3187	-4.4417	-4.85	-4.2542	-4.45	-4.7333	257.317	93.185	-34.900	221.269	250.820	-13.878	221.936	112.754	175.456	62.424	181.207	233.721	203.297	95.230	125.967	-22.056	0.00039127	0.00034765	0.00012685	1358.3	1.8175e-06	4.7745e-06	1368.9	352.65	3.383e-06	3.6567e-06	406.26	134.61	114.56	39.534	4.4561e-06	49.205	0.0007475	0.0011364	0.0003228	1373.7	1.0677e-05	1.3647e-05	1392.3	359.54	1.0969e-05	1.3168e-05	412.26	137.9	117.2	40.555	1.2235e-05	50.555	104.433	-4.264	-8.666	-78.676	50.168	60.576	-78.870	-73.926	3.156	40.559	-74.217	-70.218	-69.546	-65.008	43.617	-65.747	-8191	255	
18470.287	1	1	0	0	0.21337	0.042429	0.17981	0.21305	0.068641	0.16658	0.30866	0.26399	0.087791	0.030544	0.15804	0.10736	0.14227	0.008293	0.14769	0.26321	-3.7979	-4.7208	-4.2833	-4.2854	-4.8688	-4.2729	-4.6083	-4.7167	-4.0917	-4.7	-4.6208	-4.3313	-4.8292	-4.3417	-4.3521	-4.9125	264.200	-80.942	-73.329	-91.643	-22.518	-44.512	230.405	196.199	59.256	-69.970	222.190	206.288	238.668	8.299	13.322	253.866	0.00038808	0.00033117	0.00014532	1357.3	2.7679e-06	4.4935e-06	1376.3	353.92	4.8953e-06	6.7778e-06	405.52	133.91	114.73	39.601	3.0974e-06	49.166	0.00074938	0.0011719	0.00032659	1375.1	1.0763e-05	1.3624e-05	1393	359.56	1.1326e-05	1.4051e-05	412.61	137.73	117.37	40.563	1.1951e-05	50.417	100.570	18.994	-8.242	-78.429	62.101	77.161	-78.897	-73.969	23.195	63.165	-74.089	-70.342	-69.463	-64.905	44.512	-65.602	-8191	255	
18470.383	1	1	0	0	0.12232	0.072213	0.069937	0.42333	0.26606	0.060084	0.19951	0.1145	0.1638	0.093133	0.24189	0.40249	0.23552	0.19588	0.090206	0.061477	-3.7938	-4.675	-4.4	-4.3917	-4.8771	-4.3562	-4.6667	-4.8792	-4.2937	-4.525	-4.6042	-4.3458	-4.9125	-4.5708	-4.3333	-4.7708	-2.026	224.251	64.035	246.961	-62.296	-0.047	202.315	247.186	199.110	-50.390	231.430	238.536	232.000	107.514	-67.511	252.462	0.00041685	0.00049349	0.00012359	1362.9	3.5266e-06	4.8534e-06	1377.6	353.54	2.4705e-06	4.3112e-06	406.19	134.42	114.87	39.401	4.7376e-06	49.302	0.00077182	0.0011534	0.0003353	1377.9	1.1236e-05	1.3943e-05	1394.1	360.22	1.1201e-05	1.3102e-05	413.06	137.92	117.22	40.486	1.2526e-05	50.605	101.411	-20.841	0.944	-78.468	17.728	57.611	-78.726	-73.781	17.086	63.725	-74.335	-70.193	-69.858	-64.886	62.919	-65.890	-8191	255	
18470.479	1	1	0	0	0.30449	0.073049	0.059857	0.47223	0.17601	0.17978	0.093806	0.18272	0.096485	0.098604	0.23443	0.11578	0.24046	0.12019	0.13934	0.13139	-3.7938	-4.6062	-4.6979	-4.3729	-4.7479	-4.4104	-4.4125	-4.85	-4.3104	-4.6104	-4.7042	-4.2292	-4.7229	-4.4792	-4.2271	-5.0875	71.131	188.486	-3.865	253.578	-69.446	203.087	238.307	212.988	63.368	54.593	264.860	227.330	23.011	22.072	251.452	157.301	0.0003657	0.00048634	0.00012355	1359.4	3.578e-06	5.166e-06	1374.8	351.99	1.6072e-06	3.6541e-06	405.66	135.25	114.37	39.41	3.702e-06	49.187	0.00075052	0.0011957	0.00033928	1375.9	1.1233e-05	1.3143e-05	1394.8	358.88	1.1261e-05	1.4123e-05	412.39	138.02	117.24	40.488	1.216e-05	50.461	100.689	11.062	7.279	-78.664	32.861	51.542	-78.721	-73.980	6.817	61.758	-74.362	-70.250	-69.662	-64.775	45.860	-65.724	-8191	255	
18470.598	1	1	0	0	0.04991	0.21312	0.10908	0.31587	0.076924	0.20468	0.36216	0.18579	0.093598	0.21047	0.23435	0.1869	0.11535	0.16202	0.24528	0.31243	-3.8688	-4.3917	-4.6542	-4.1125	-4.6708	-4.5729	-4.5062	-4.8917	-4.1813	-4.5521	-4.875	-4.2083	-4.7229	-4.45	-4.075	-4.9958	147.400	1.287	14.874	230.363	66.715	137.495	192.528	181.566	145.393	81.822	259.322	-66.301	216.623	182.412	4.556	231.986	0.00043578	0.0003787	0.00014296	1354.7	2.5281e-06	6.0958e-06	1373.4	352.05	2.7909e-06	4.2591e-06	405.54	134.51	113.36	39.469	3.5404e-06	49.184	0.00075058	0.001165	0.00031858	1374.7	1.0583e-05	1.4287e-05	1392.2	359.09	1.1331e-05	1.3476e-05	412.14	137.64	116.92	40.486	1.2389e-05	50.419	105.004	8.230	-14.235	-78.409	20.100	51.711	-78.672	-73.927	-19.215	42.334	-74.348	-70.397	-69.925	-64.869	52.623	-65.783	-8191	255	
18470.672	1	1	0	0	0.31663	0.1563	0.1165	0.11013	0.28695	0.25417	0.35718	0.25986	0.25012	0.043015	0.29835	0.12977	0.081776	0.11761	0.27414	0.20382	-3.8979	-4.3208	-4.7167	-4.3542	-4.5813	-4.5625	-4.4583	-4.9	-4.3979	-4.3271	-4.8729	-4.1188	-4.55	-4.6167	-4.1792	-4.8854	95.673	47.164	-26.691	240.983	167.440	125.612	146.602	213.145	80.895	178.895	205.057	156.092	86.874	-7.410	-14.146	185.845	0.00041661	0.0004365	0.00012323	1361.5	2.8342e-06	4.49e-06	1372	352.58	4.3054e-06	5.2788e-06	405.25	134.92	114.41	39.416	4.214e-06	48.954	0.00074038	0.0011731	0.00032088	1373.3	1.0897e-05	1.3323e-05	1391.1	359.32	1.1609e-05	1.3309e-05	412.36	137.97	117.16	40.468	1.2014e-05	50.446	100.917	-6.544	-2.482	-78.530	45.100	44.393	-79.020	-74.026	19.895	53.495	-74.192	-70.187	-69.649	-64.877	44.810	-65.595	-8191	255	
18470.766	1	1	0	0	0.076473	0.14249	0.051231	0.20553	0.043103	0.11689	0.11573	0.26785	0.095776	0.23102	0.080972	0.09411	0.2274	0.14927	0.14608	0.083199	-4.0917	-4.2417	-4.8896	-4.4771	-4.5938	-4.7125	-4.4104	-4.9583	-4.3417	-4.3333	-4.8938	-4.3958	-4.5938	-4.4812	-4.1771	-4.6458	179.189	46.652	-91.585	232.954	171.703	-41.881	222.612	224.503	58.891	265.029	152.237	-88.507	-75.456	201.090	46.472	181.577	0.00041702	0.00049096	0.000108	1353.8	3.6325e-06	4.7874e-06	1368.3	352.88	3.0155e-06	4.9783e-06	405.63	134.83	114.67	39.465	3.5287e-06	49.126	0.00076157	0.0011638	0.00031315	1373.5	1.1098e-05	1.3203e-05	1392.4	359.71	1.1166e-05	1.3841e-05	413.12	137.84	117.27	40.544	1.1751e-05	50.516	95.709	13.695	9.290	-78.468	38.353	54.925	-78.740	-73.921	22.525	64.366	-74.248	-70.398	-69.712	-64.981	45.505	-65.561	-8191	255	
18470.887	1	1	0	0	0.1312	0.22603	0.095706	0.074924	0.13371	0.21699	0.26254	0.25176	0.31991	0.039251	0.034926	0.045027	0.13497	0.14128	0.16087	0.15883	-3.9792	-4.2042	-4.8708	-4.3854	-4.4271	-4.6562	-4.3187	-4.8562	-4.3938	-4.0896	-4.7667	-4.2646	-4.4375	-4.9	-4.2	-4.6333	230.599	260.114	226.036	97.912	19.037	-84.907	254.537	203.997	-71.393	46.575	114.996	119.698	23.042	131.555	-5.431	211.479	0.00043778	0.00042148	0.00015094	1357.1	2.4551e-06	5.0169e-06	1373.6	352.61	2.5803e-06	6.2167e-06	404.2	134.24	114.31	39.383	3.3215e-06	49.062	0.00075684	0.0012319	0.00031971	1375.1	1.142e-05	1.246e-05	1393.2	359.31	1.1141e-05	1.399e-05	412.77	137.74	117.08	40.456	1.1988e-05	50.399	105.677	-2.368	-8.712	-78.427	36.091	57.467	-79.040	-73.937	38.155	55.947	-74.255	-70.193	-69.589	-64.921	54.357	-65.624	-8191	255	
18470.982	1	1	0	0	0.17359	0.074793	0.17007	0.21562	0.078569	0.21941	0.21574	0.37459	0.18202	0.14379	0.12197	0.15051	0.11344	0.17864	0.42452	0.018986	-4.2937	-4.1354	-4.7063	-4.55	-4.3604	-4.8292	-4.3104	-4.6687	-4.5042	-4.0854	-4.8458	-4.5229	-4.3854	-4.6562	-4.1125	-4.5104	59.897	97.853	216.489	246.205	14.671	146.151	229.402	233.921	212.634	31.649	180.545	177.524	17.753	254.795	-60.802	184.319	0.00042646	0.00045807	0.00013883	1354.8	4.0928e-06	5.1002e-06	1373.6	352.59	5.7083e-06	5.5473e-06	405.43	134.19	114.53	39.469	2.7952e-06	49.22	0.00074978	0.0011551	0.00029718	1373.4	1.0719e-05	1.3338e-05	1390.8	359.51	1.0819e-05	1.2968e-05	411.91	137.53	117.06	40.534	1.2032e-05	50.51	102.984	0.409	15.670	-78.462	17.673	60.538	-78.634	-73.758	7.022	64.950	-74.192	-70.437	-69.810	-65.145	33.161	-65.935	-8191	255	
18471.078	1	1	0	0	0.032513	0.19752	0.078005	0.087895	0.065683	0.055881	0.36011	0.21106	0.095144	0.091771	0.1767	0.040989	0.14474	0.16743	0.19811	0.31368	-4.4667	-3.9562	-4.6083	-4.5875	-4.175	-4.7521	-4.3104	-4.4229	-4.525	-4.1062	-4.5854	-4.55	-4.1792	-4.9583	-4.2604	-4.5604	33.465	202.257	185.687	223.437	76.989	204.257	229.665	158.029	-86.772	-16.672	67.873	217.958	236.499	215.019	-36.434	222.525	0.00039784	0.00054633	0.00012025	1356	3.298e-06	4.4361e-06	1374.5	354.18	5.3917e-06	4.2077e-06	405.02	134.62	114.14	39.55	5.533e-06	49.127	0.00073423	0.0011655	0.00032467	1373.9	1.0845e-05	1.3239e-05	1392	359.41	1.0932e-05	1.3766e-05	413.08	137.6	117.06	40.557	1.2043e-05	50.539	99.912	-4.276	-2.216	-78.506	29.907	67.762	-78.697	-73.873	43.484	54.772	-74.499	-70.181	-69.904	-64.798	43.778	-65.633	-8191	255	
18471.176	1	1	0	0	0.29891	0.056393	0.063057	0.20283	0.30974	0.15619	0.2441	0.22037	0.054359	0.24542	0.099201	0.12605	0.12292	0.22565	0.089413	0.22382	-4.375	-3.8958	-4.5396	-4.6687	-4.0917	-4.7708	-4.5375	-4.3812	-4.6562	-4.2208	-4.7479	-4.7229	-4.325	-4.8125	-4.3438	-4.4521	196.658	21.398	101.243	254.874	267.020	115.169	223.133	186.887	79.309	69.623	240.758	211.733	198.748	-65.593	159.267	225.004	0.00042911	0.00055129	0.00013832	1356.1	3.0124e-06	5.1766e-06	1372.3	353.62	3.808e-06	6.4837e-06	406.2	135.16	114.19	39.318	4.1306e-06	49.127	0.00074112	0.0011957	0.00033329	1375.2	1.0747e-05	1.3023e-05	1392.9	359.6	1.052e-05	1.3931e-05	412.16	137.95	117.35	40.45	1.2268e-05	50.437	102.222	12.186	-1.264	-78.474	29.844	48.274	-78.769	-73.916	33.122	46.734	-74.340	-70.598	-69.687	-64.929	57.137	-65.598	-8191	255	
18471.297	1	1	0	0	0.077968	0.15485	0.29605	0.13516	0.24161	0.13129	0.30633	0.38316	0.18838	0.089056	0.078032	0.28452	0.082499	0.23807	0.16921	0.14819	-4.4646	-3.9958	-4.5542	-4.7312	-4.1229	-4.8125	-4.6167	-4.4146	-4.8917	-4.2917	-4.6438	-4.7646	-4.4417	-4.8708	-4.4292	-4.4083	2.392	40.344	140.472	-65.378	-65.095	30.130	185.974	260.958	48.886	-18.571	-71.562	250.708	191.672	268.174	-73.470	231.109	0.00038099	0.00047242	0.00014367	1359.6	3.2672e-06	4.424e-06	1374.1	353.01	2.3698e-06	4.6783e-06	404.79	133.7	114.15	39.623	4.7374e-06	49.279	0.00073041	0.0012174	0.00033488	1376.4	1.0987e-05	1.2875e-05	1392.7	359.62	1.0354e-05	1.3735e-05	411.85	137.62	117.05	40.508	1.2189e-05	50.5	102.564	-4.114	-6.533	-78.619	20.692	54.430	-78.653	-73.771	65.668	58.561	-74.289	-70.425	-69.587	-64.751	46.255	-65.811	-8191	255	
18471.367	1	1	0	0	0.0085567	0.11714	0.28293	0.20702	0.14809	0.082932	0.07179	0.41624	0.095423	0.17932	0.31267	0.19925	0.13489	0.28454	0.072115	0.0071518	-4.6417	-4.1125	-4.3083	-4.8667	-4.1125	-4.7104	-4.7042	-4.2625	-4.6729	-4.3063	-4.525	-4.6917	-4.1687	-4.8625	-4.4792	-4.3604	-70.025	65.105	-62.622	-74.444	34.470	203.250	146.126	238.813	145.429	8.813	254.165	220.602	240.220	267.578	64.500	180.935	0.00041248	0.00052107	0.0001495	1356.7	2.3705e-06	5.0724e-06	1369.8	352.6	2.7786e-06	5.0059e-06	404.77	134.47	113.98	39.476	3.7407e-06	49	0.00073223	0.0012004	0.0003338	1375.5	1.1284e-05	1.3939e-05	1392.2	359.72	1.1227e-05	1.4088e-05	412.17	137.7	116.96	40.532	1.1861e-05	50.575	96.823	-18.187	0.845	-78.712	21.961	57.789	-78.642	-74.060	-4.853	61.506	-74.441	-70.165	-69.835	-64.908	31.719	-65.616	-8191	255	
18471.465	1	1	0	0	0.21819	0.11721	0.20743	0.18443	0.35723	0.17692	0.2799	0.18308	0.0020613	0.08535	0.2123	0.12158	0.077364	0.24318	0.085979	0.097424	-4.4042	-4.3896	-4.3042	-4.9208	-4.1729	-4.8771	-4.8042	-4.2333	-4.5729	-4.3375	-4.3896	-4.7875	-4.2271	-4.6	-4.5437	-4.3	250.015	193.200	-67.318	231.246	120.282	226.023	192.472	195.361	180.000	133.622	252.468	210.169	240.664	243.029	131.574	190.206	0.00045728	0.00049305	0.00011308	1360.2	3.392e-06	4.9935e-06	1372.8	353.36	3.1641e-06	5.7378e-06	404.73	134.06	114.01	39.532	4.2844e-06	48.862	0.00074078	0.001219	0.00033423	1376.7	1.1239e-05	1.3323e-05	1394.5	359.72	1.1098e-05	1.3631e-05	412.18	137.85	117.06	40.519	1.1198e-05	50.446	103.526	5.487	9.175	-78.694	48.692	41.995	-78.934	-73.953	-0.127	55.519	-74.365	-70.360	-69.777	-64.810	48.507	-65.673	-8191	255	
18471.561	1	1	0	0	0.030607	0.20865	0.084028	0.23483	0.12938	0.089131	0.18949	0.12835	0.3379	0.11552	0.24252	0.19302	0.16631	0.13	0.068905	0.15787	-4.2771	-4.3938	-4.2646	-4.9688	-4.2667	-4.5333	-4.9	-4.2063	-4.6667	-4.5104	-4.4	-4.8375	-4.2896	-4.5958	-4.6604	-4.2104	61.128	178.515	-81.701	229.451	-46.899	153.053	123.360	221.321	119.068	-66.776	251.496	255.195	104.653	69.660	206.524	-84.927	0.00044513	0.00056859	0.00010982	1357.7	3.2147e-06	4.3175e-06	1366	353.2	4.8337e-06	3.9943e-06	402.27	134.39	114.73	39.415	4.8742e-06	49.097	0.00075154	0.0011751	0.00033619	1374.9	1.1217e-05	1.371e-05	1389	359.69	1.0467e-05	1.3258e-05	411.74	137.76	117.23	40.465	1.1278e-05	50.514	95.068	2.353	4.611	-78.716	37.540	50.993	-78.806	-73.854	14.229	43.977	-74.352	-70.236	-69.680	-64.852	74.550	-65.632	-8191	255	
18471.680	1	1	0	0	0.097322	0.18381	0.066689	0.19689	0.10381	0.13329	0.18584	0.040718	0.1185	0.14085	0.12733	0.21721	0.097997	0.14569	0.048188	0.40868	-4.3583	-4.5958	-4.0854	-4.8771	-4.0958	-4.3583	-4.9958	-4.2396	-4.575	-4.4417	-4.4	-4.8042	-4.45	-4.3583	-4.7896	-4.3104	160.554	234.615	-54.489	247.186	-49.258	16.971	170.276	188.248	-26.169	166.151	-83.512	173.025	19.552	-21.480	-69.097	200.776	0.00042415	0.00045413	0.00013535	1353.6	5.3565e-06	4.827e-06	1374	352.49	3.934e-06	4.2127e-06	403.7	133.86	114.21	39.425	2.6329e-06	49.231	0.00073981	0.0011192	0.00033212	1370.8	1.1364e-05	1.3274e-05	1390	358.73	1.1049e-05	1.37e-05	411.69	137.58	117.05	40.446	1.072e-05	50.567	98.994	-1.158	-7.332	-78.616	37.745	57.908	-78.869	-73.966	23.153	45.721	-74.367	-70.358	-69.636	-65.005	66.297	-65.807	-8191	255	
18471.775	1	1	0	0	0.24282	0.17922	0.21304	0.46563	0.05554	0.075706	0.21404	0.20009	0.1319	0.091724	0.059589	0.14569	0.020067	0.13175	0.11762	0.17201	-4.1646	-4.6167	-4.0042	-4.9062	-4.525	-4.3063	-5.0854	-4.2729	-4.6229	-4.5625	-4.3208	-4.8125	-4.4354	-4.2417	-4.7604	-4.3417	26.138	81.799	-49.322	204.220	262.626	262.090	184.753	-5.606	26.849	222.345	112.652	234.514	234.980	-49.921	4.983	232.333	0.00044276	0.00060191	0.00011392	1359.3	3.4094e-06	5.2874e-06	1369.9	352.08	3.4764e-06	4.3363e-06	404.22	134.57	114.2	39.365	4.5488e-06	49.004	0.00074175	0.0011612	0.00031685	1372.4	1.0848e-05	1.3587e-05	1388.2	359.13	1.1191e-05	1.3178e-05	411.85	137.83	117.06	40.469	1.1315e-05	50.355	101.896	-8.720	-4.605	-78.609	23.581	43.058	-78.800	-73.774	-3.075	65.535	-74.179	-70.282	-69.612	-64.938	43.341	-65.570	-8191	255	
18471.871	1	1	0	0	0.049735	0.076618	0.083451	0.048864	0.3525	0.016158	0.33974	0.3159	0.081587	0.21258	0.27131	0.1441	0.12878	0.21733	0.051555	0.10768	-4.0583	-4.5021	-4.1229	-4.8396	-4.3771	-4.3562	-4.8771	-4.3542	-4.3208	-4.75	-4.1521	-4.6458	-4.6792	-4.2063	-4.6687	-4.3562	94.651	-43.514	72.692	262.531	239.554	78.375	247.737	216.677	51.970	-30.135	179.147	245.218	-36.318	-90.916	267.998	164.738	0.00036332	0.00046965	0.00014116	1355.4	4.1224e-06	5.5119e-06	1374.7	352.74	1.7768e-06	6.2701e-06	404.08	133.83	114.1	39.531	4.7687e-06	48.937	0.00076812	0.0012012	0.00034149	1373.4	1.1342e-05	1.3385e-05	1390.4	359.25	1.1195e-05	1.3439e-05	411.82	137.57	116.91	40.525	1.2003e-05	50.33	106.506	0.104	14.988	-78.526	40.503	35.407	-78.976	-73.990	-5.182	50.113	-74.516	-70.163	-69.468	-64.550	47.020	-65.789	-8191	255	
18471.967	1	1	0	0	0.059609	0.16308	0.13149	0.26034	0.082071	0.096987	0.23129	0.16535	0.015874	0.12114	0.27638	0.26923	0.17167	0.11035	0.25577	0.10726	-4.1458	-4.825	-4.0625	-4.8125	-4.4479	-4.1271	-4.8938	-4.4958	-4.2312	-4.6417	-4.1729	-4.5604	-4.7208	-4.1813	-4.7146	-4.3542	131.301	21.490	194.637	185.965	42.781	111.518	165.668	205.732	-52.136	-86.157	-68.274	246.779	182.525	217.550	-0.583	72.919	0.00041953	0.00035841	0.00011518	1360.6	1.7751e-06	5.6415e-06	1378.4	353.5	3.2276e-06	3.8153e-06	405.64	133.82	114.16	39.249	3.7676e-06	49.022	0.00073371	0.001144	0.00033638	1375.5	1.1029e-05	1.4105e-05	1393.3	359.39	1.0952e-05	1.3235e-05	413.27	137.8	117.06	40.472	1.2442e-05	50.437	101.795	-7.239	12.258	-78.701	52.377	57.090	-79.007	-73.897	-2.414	56.623	-74.198	-70.422	-69.614	-64.795	37.826	-65.711	-8191	255	
18472.062	1	1	0	0	0.22596	0.018787	0.16469	0.43099	0.045314	0.27994	0.15163	0.18869	0.041852	0.18047	0.047537	0.32286	0.056009	0.28429	0.13052	0.20801	-3.8812	-4.7438	-4.1667	-4.7125	-4.6521	-4.1	-4.8792	-4.6833	-4.1937	-4.8521	-4.2812	-4.6062	-4.7188	-4.3021	-4.6792	-4.5021	249.328	-84.349	59.576	208.684	-5.797	-13.550	199.423	264.187	82.736	-10.972	215.969	156.918	-60.057	-82.349	32.975	179.209	0.00038059	0.0005176	9.5381e-05	1358.2	4.9865e-06	5.2865e-06	1367	354.09	4.3956e-06	3.2851e-06	405.56	134.25	114.03	39.474	6.3583e-06	49.052	0.00075513	0.001227	0.00036092	1376.6	1.0936e-05	1.4696e-05	1391.8	359.81	1.1441e-05	1.3709e-05	413.4	137.66	117.1	40.532	1.2032e-05	50.478	102.283	13.324	-16.739	-78.445	27.056	61.705	-78.760	-74.029	24.501	60.173	-74.316	-70.452	-69.498	-64.856	56.495	-65.746	-8191	255	
18472.158	1	1	0	0	0.26158	0.20391	0.2546	0.15634	0.076012	0.17996	0.105	0.079753	0.23084	0.09729	0.20288	0.20172	0.31067	0.11476	0.10103	0.056742	-3.9562	-4.8979	-4.1833	-4.6042	-4.75	-4.1604	-4.7104	-4.5813	-4.2562	-4.8042	-4.4	-4.5354	-4.7	-4.1354	-4.5479	-4.6208	-10.064	86.323	93.289	260.985	127.958	47.149	188.260	253.877	200.389	149.400	-74.474	251.014	259.115	55.013	49.608	55.597	0.00038426	0.00037938	0.00015731	1358.6	3.7102e-06	3.5572e-06	1372.9	353.51	2.7655e-06	5.4882e-06	405.42	134.62	113.76	39.343	5.1478e-06	49.221	0.00076117	0.0011367	0.00035259	1375.9	1.0805e-05	1.4285e-05	1390.7	359.66	1.1363e-05	1.3933e-05	412.84	137.71	116.89	40.482	1.1782e-05	50.534	96.223	10.672	-7.824	-78.517	40.855	50.460	-78.869	-73.768	55.484	73.243	-74.454	-70.379	-69.668	-64.936	71.150	-65.809	-8191	255	
18472.279	1	1	0	0	0.20313	0.18219	0.10891	0.23738	0.027656	0.16731	0.22383	0.21805	0.10262	0.22909	0.16602	0.16475	0.15531	0.12132	0.052602	0.18283	-3.8438	-4.7229	-4.2937	-4.5104	-4.6271	-4.0625	-4.7771	-4.7667	-3.9042	-4.7375	-4.5542	-4.4437	-4.8396	-4.3562	-4.5021	-4.8167	-88.773	160.581	239.335	-87.804	250.534	240.405	246.327	218.829	67.677	118.132	169.747	240.225	240.086	120.896	153.646	140.142	0.00042446	0.00045245	9.054e-05	1355.3	3.6381e-06	5.404e-06	1370.5	352.57	4.1839e-06	5.0063e-06	403.67	134.45	113.77	39.315	3.8988e-06	49.386	0.00075536	0.0012073	0.00033732	1374.1	1.0866e-05	1.389e-05	1391.9	358.89	1.125e-05	1.2862e-05	412.09	137.71	116.81	40.414	1.166e-05	50.507	99.500	1.511	5.050	-78.445	53.079	59.444	-78.850	-73.902	21.686	52.104	-74.260	-70.205	-69.782	-64.876	51.168	-65.705	-8191	255	
18472.377	1	1	0	0	0.20418	0.19183	0.19283	0.25587	0.15652	0.035991	0.3924	0.17421	0.093112	0.28188	0.02844	0.2591	0.18822	0.12825	0.19577	0.16632	-3.7667	-4.6458	-4.35	-4.3396	-4.7479	-4.2208	-4.6771	-4.875	-3.9583	-4.6271	-4.5104	-4.2417	-4.7396	-4.3063	-4.625	-4.6708	110.780	-38.123	-39.973	-68.599	181.318	225.323	230.521	-72.393	-36.315	101.593	-67.127	164.813	177.735	211.093	224.027	195.794	0.00046826	0.00058886	0.00014518	1354.3	3.4455e-06	3.9842e-06	1366.2	352.99	2.4411e-06	4.6273e-06	404.25	134.16	113.57	39.304	3.8455e-06	48.983	0.00075331	0.0011777	0.00034439	1370.2	1.0595e-05	1.3424e-05	1387.9	359.02	1.1445e-05	1.3713e-05	411.48	137.38	116.89	40.406	1.1594e-05	50.358	109.533	-22.204	-10.046	-78.492	30.504	61.770	-78.764	-73.968	4.624	45.792	-74.320	-70.316	-69.733	-65.010	51.862	-65.446	-8191	255	
18472.473	1	1	0	0	0.24068	0.13595	0.16427	0.097523	0.18938	0.059527	0.25921	0.39316	0.15962	0.17191	0.38838	0.048505	0.044705	0.15393	0.11182	0.018513	-3.6813	-4.7042	-4.5125	-4.3958	-4.7354	-4.3	-4.4833	-4.8271	-4.0687	-4.6729	-4.5979	-4.1854	-4.85	-4.3875	-4.35	-4.9604	249.167	25.013	106.847	-89.782	112.380	52.602	222.687	-69.679	163.429	126.718	250.207	-56.254	-62.748	5.633	91.933	-47.568	0.00041996	0.00036673	0.0001664	1355.3	4.5725e-06	4.5562e-06	1367	352.65	2.6439e-06	5.884e-06	402.45	134.75	113.84	39.466	5.3567e-06	48.92	0.0007749	0.0011308	0.00031872	1371.1	1.0845e-05	1.3949e-05	1387.4	358.8	1.1236e-05	1.3655e-05	411.23	137.78	116.66	40.455	1.211e-05	50.361	101.480	-18.183	-9.442	-78.607	44.779	59.158	-78.723	-73.978	21.980	66.236	-74.463	-70.212	-69.701	-65.055	37.169	-65.695	-8191	255	
18472.568	1	1	0	0	0.068327	0.19381	0.27923	0.28373	0.054299	0.09995	0.39663	0.27319	0.23265	0.075296	0.14436	0.19376	0.21271	0.17394	0.27242	0.17498	-3.8958	-4.5437	-4.5625	-4.2667	-4.8562	-4.3792	-4.5021	-5.05	-4.1542	-4.4729	-4.6521	-4.2604	-4.8083	-4.5292	-4.0938	-4.8938	260.611	-70.003	96.409	229.140	123.505	-25.255	191.076	180.883	-10.810	115.998	214.898	-65.394	112.142	154.274	-48.208	205.890	0.00039341	0.00050228	0.00014529	1357.6	4.2403e-06	5.0615e-06	1373.3	351.36	5.0744e-06	4.103e-06	405.05	134.05	114.29	39.296	5.7799e-06	49.07	0.00075462	0.0011509	0.00032781	1372.5	1.091e-05	1.2914e-05	1388.8	358.39	1.177e-05	1.2886e-05	412.01	137.46	116.92	40.333	1.1854e-05	50.425	102.172	-18.110	-2.559	-78.545	45.088	49.238	-78.624	-73.812	16.148	50.242	-74.345	-70.220	-69.831	-65.131	57.054	-65.652	-8191	255	
18472.662	1	1	0	0	0.074503	0.077072	0.10674	0.37993	0.08964	0.028542	0.096172	0.20394	0.12021	0.10353	0.092493	0.082808	0.1396	0.36403	0.11528	0.05757	-3.9458	-4.3729	-4.65	-4.25	-4.5833	-4.4437	-4.4542	-4.9083	-4.2542	-4.3917	-4.7167	-4.0792	-4.7146	-4.5208	-3.9938	-4.9062	150.823	136.762	193.686	214.901	243.254	99.847	139.691	195.568	263.480	170.659	239.589	-88.757	227.787	237.603	215.180	82.112	0.00040331	0.00044434	0.00010262	1355.4	3.1175e-06	4.5938e-06	1372.4	352.33	3.5138e-06	3.7849e-06	403.31	134.56	113.73	39.435	3.2129e-06	48.978	0.00075388	0.0011825	0.00031676	1371.6	1.0835e-05	1.3143e-05	1390.6	359.18	1.1058e-05	1.2845e-05	411.1	137.66	116.89	40.381	1.1593e-05	50.327	99.317	-11.380	10.073	-78.617	27.451	69.782	-78.804	-73.826	18.179	64.766	-74.396	-70.345	-69.859	-64.879	38.076	-65.866	-8191	255	
18472.760	1	1	0	0	0.26423	0.19186	0.13168	0.20168	0.19776	0.24031	0.21881	0.085183	0.25802	0.16595	0.12106	0.089422	0.12886	0.2699	0.063488	0.14341	-3.9333	-4.3396	-4.7063	-4.3146	-4.5938	-4.5625	-4.5813	-4.7375	-4.2937	-4.4417	-5.0667	-4.35	-4.6354	-4.6979	-4.0813	-4.7042	85.181	-77.134	-2.736	187.507	-35.070	133.249	201.672	224.615	87.173	249.016	209.370	214.570	177.687	249.063	176.895	-16.465	0.00044832	0.00050302	0.00014107	1353.9	3.9325e-06	5.587e-06	1366.4	351.56	2.8484e-06	7.2939e-06	406.9	133.89	113.95	39.43	4.0688e-06	49.224	0.00075696	0.0011847	0.00032317	1371.6	1.0832e-05	1.3761e-05	1387.4	358.63	1.1306e-05	1.3609e-05	412.76	137.47	116.81	40.38	1.1869e-05	50.429	101.014	-5.299	6.376	-78.455	68.598	68.176	-78.714	-74.081	8.096	53.805	-74.345	-70.618	-69.784	-65.031	43.303	-65.438	-8191	255	
18472.855	1	1	0	0	0.095913	0.12679	0.24518	0.10553	0.092168	0.057099	0.28007	0.25839	0.023361	0.22844	0.06894	0.30032	0.23553	0.059201	0.11525	0.08313	-3.9229	-4.3021	-4.7042	-4.3333	-4.4688	-4.6125	-4.2208	-4.725	-4.4417	-4.2979	-4.7792	-4.2354	-4.4313	-4.7417	-3.8875	-4.7167	160.332	187.387	-76.501	216.334	-21.385	-89.560	225.551	185.432	252.676	72.742	251.261	98.390	-89.485	181.520	111.490	57.807	0.00042197	0.00061425	0.00010472	1354.8	4.2931e-06	3.9236e-06	1369.1	351.77	5.6268e-06	4.0342e-06	404.9	134.3	114.18	39.241	2.9729e-06	49.163	0.00074613	0.0012063	0.00032256	1370.9	1.1005e-05	1.355e-05	1388.9	358.76	1.1121e-05	1.3909e-05	411.97	137.43	116.85	40.338	1.2076e-05	50.417	101.040	2.877	0.806	-78.508	40.897	77.881	-78.669	-73.844	-9.458	60.526	-74.400	-70.491	-69.802	-64.804	72.735	-65.519	-8191	255	
18472.951	1	1	0	0	0.20553	0.13902	0.093287	0.13199	0.28858	0.035229	0.15604	0.36978	0.17884	0.087974	0.080345	0.20986	0.23254	0.18312	0.036872	0.082461	-3.9708	-4.1979	-4.6312	-4.5625	-4.3292	-4.6458	-4.2562	-4.7396	-4.6188	-4.1458	-4.6979	-4.3646	-4.3125	-4.7146	-4.1375	-4.7312	173.603	-78.325	43.435	140.582	97.495	3.786	218.903	249.872	202.929	240.988	246.711	259.065	254.486	175.061	219.317	150.413	0.00042393	0.00052167	0.00011042	1353.1	2.7379e-06	5.9173e-06	1373.2	353	3.2008e-06	5.3668e-06	404.17	134.3	114.42	39.444	4.8788e-06	48.968	0.00076322	0.00121	0.00032673	1371.8	1.1349e-05	1.3571e-05	1390.1	359.15	1.0822e-05	1.4078e-05	411.73	137.46	117.07	40.478	1.2699e-05	50.391	104.132	-8.198	-12.498	-78.549	22.619	44.917	-78.595	-74.029	-8.508	59.622	-74.290	-70.294	-69.721	-65.006	40.294	-65.717	-8191	255	
18473.072	1	1	0	0	0.14038	0.11558	0.21219	0.31997	0.13017	0.016825	0.27946	0.17977	0.10537	0.19854	0.17347	0.10547	0.097016	0.021526	0.17627	0.043939	-4.2312	-4.0917	-4.8208	-4.5813	-4.35	-4.7229	-4.3313	-4.5958	-4.5854	-4.2438	-4.7229	-4.4479	-4.2896	-4.8375	-4.1625	-4.5958	45.931	66.177	182.730	182.252	-71.630	91.314	206.537	145.348	-22.683	-2.807	117.093	194.244	-82.268	207.326	184.372	170.248	0.00046511	0.00046484	0.00012038	1351.8	4.4457e-06	5.4048e-06	1369.9	352.22	3.5061e-06	3.9661e-06	404.91	134.43	114.02	39.402	4.6895e-06	49.024	0.00074761	0.0012309	0.0003258	1371.9	1.1046e-05	1.3998e-05	1390.4	359.27	1.0791e-05	1.3823e-05	411.92	137.65	117.04	40.471	1.2413e-05	50.508	102.435	1.344	12.287	-78.580	32.504	58.523	-78.826	-73.993	-5.593	46.450	-74.228	-70.302	-69.582	-64.949	37.085	-65.455	-8191	255	
18473.168	1	1	0	0	0.18985	0.16702	0.34075	0.23834	0.15578	0.13054	0.28078	0.21821	0.065894	0.22577	0.024809	0.068944	0.1278	0.22082	0.13311	0.31424	-4.325	-4.0208	-4.5979	-4.3708	-4.2333	-4.7833	-4.3875	-4.5583	-4.5979	-4.0563	-4.6729	-4.6312	-4.2729	-4.7937	-4.2937	-4.4688	230.946	97.499	77.870	211.854	-10.114	143.700	220.222	257.264	205.468	-85.772	99.035	152.942	255.328	-77.884	192.006	219.754	0.00042823	0.00059964	9.9922e-05	1356.6	5.3015e-06	4.4477e-06	1376.2	353.79	4.4599e-06	4.5126e-06	405.34	134.44	114.08	39.476	3.8439e-06	48.869	0.00077416	0.0012308	0.00033544	1374.9	1.1562e-05	1.3344e-05	1394.6	359.46	1.1188e-05	1.3919e-05	412.63	137.62	117.08	40.519	1.2323e-05	50.414	97.647	-28.495	4.464	-78.621	33.621	75.813	-78.783	-73.891	40.475	36.889	-74.379	-70.297	-69.995	-64.919	53.560	-65.625	-8191	255	
18473.240	1	1	0	0	0.094736	0.072913	0.19278	0.21148	0.20248	0.1291	0.141	0.19403	0.036453	0.16151	0.35572	0.21316	0.33058	0.036288	0.16708	0.04207	-4.35	-4.2083	-4.7083	-4.8063	-4.1604	-4.6	-4.4167	-4.5458	-4.725	-4.1042	-4.7792	-4.7646	-4.0938	-4.8771	-4.3167	-4.375	150.567	191.121	63.826	210.296	-50.157	232.110	175.517	233.302	20.666	204.597	242.967	252.418	243.906	1.335	-28.394	251.921	0.00040676	0.00046648	0.00013556	1362.2	3.3954e-06	4.9509e-06	1373.9	353.37	3.3375e-06	4.2614e-06	406.58	134.63	114.38	39.373	4.2915e-06	49.279	0.00075325	0.0012815	0.00033081	1377.8	1.1313e-05	1.4015e-05	1393	359.76	1.0836e-05	1.3886e-05	413.14	137.75	117.17	40.491	1.2332e-05	50.428	101.982	-12.261	-1.586	-78.665	42.815	70.763	-78.749	-73.836	-0.952	78.330	-74.309	-70.082	-69.570	-64.972	53.949	-65.713	-8191	255	
18473.359	1	1	0	0	0.055242	0.38171	0.15637	0.28826	0.15051	0.1685	0.11398	0.19104	0.07255	0.1287	0.047181	0.16791	0.11103	0.093482	0.22297	0.21307	-4.3521	-4.3042	-4.4333	-4.7021	-4.0875	-4.7063	-4.5042	-4.3604	-4.7562	-4.2458	-4.5542	-4.7958	-4.1229	-4.7917	-4.5125	-4.3667	-1.716	193.519	168.203	240.483	137.742	233.058	147.283	128.057	1.311	-41.162	-28.621	-78.283	43.292	265.122	90.577	188.283	0.00039	0.00052979	0.00010238	1361	3.6058e-06	4.8302e-06	1374.5	353.63	3.7542e-06	5.4015e-06	403.5	133.99	114.85	39.349	5.3225e-06	48.938	0.00074078	0.0012524	0.00034912	1374.8	1.1463e-05	1.3426e-05	1393.4	359.57	1.0989e-05	1.4241e-05	411.76	137.7	117.41	40.438	1.1356e-05	50.425	100.783	-6.012	4.996	-78.626	48.627	59.856	-78.915	-73.927	19.116	53.604	-74.584	-70.455	-69.637	-65.031	59.053	-65.797	-8191	255	
18473.455	1	1	0	0	0.021695	0.015182	0.15329	0.054677	0.14773	0.12147	0.12215	0.30534	0.15473	0.18175	0.078373	0.15735	0.058336	0.20041	0.10689	0.13511	-4.5146	-4.1521	-4.4271	-4.825	-3.9313	-4.6375	-4.6708	-4.4417	-4.8667	-4.1229	-4.6021	-4.7042	-4.1542	-4.6771	-4.5708	-4.2292	89.434	215.685	69.978	221.834	227.828	41.857	130.482	251.648	202.313	194.784	-59.868	235.036	83.572	136.141	164.248	98.958	0.00044709	0.00049165	0.00015399	1362.2	3.7844e-06	4.2274e-06	1373.6	353.61	2.3687e-06	4.8779e-06	404.89	134.71	114.52	39.426	3.0149e-06	49.03	0.00076026	0.0012141	0.00032795	1375.1	1.1811e-05	1.3307e-05	1392.7	359.58	1.0783e-05	1.3211e-05	412.47	137.69	117.17	40.439	1.1826e-05	50.384	99.886	-13.407	-0.564	-78.615	45.779	72.412	-78.698	-73.969	55.779	56.552	-74.175	-70.440	-69.952	-64.997	33.274	-65.669	-8191	255	
18473.553	1	1	0	0	0.13392	0.16534	0.078068	0.2068	0.064423	0.11296	0.067518	0.18646	0.20262	0.16169	0.17838	0.030851	0.15304	0.24015	0.066744	0.048813	-4.4083	-4.2021	-4.1396	-5.0417	-4.1438	-4.7	-4.6896	-4.1875	-4.8	-4.3562	-4.4187	-4.8604	-4.1188	-4.5875	-4.6896	-4.1729	212.336	89.800	75.901	-67.435	-35.226	194.921	187.748	181.226	189.803	93.014	232.785	-5.248	-21.357	-75.020	97.813	118.695	0.00044616	0.00040931	0.00014884	1356.1	5.0722e-06	4.7222e-06	1369.4	352.3	5.867e-06	5.3901e-06	405.31	134.19	114.2	39.209	4.126e-06	49.092	0.00072887	0.0012025	0.00032444	1372.4	1.1343e-05	1.3904e-05	1389	359.3	1.1157e-05	1.418e-05	411.95	137.68	117.18	40.418	1.1715e-05	50.488	102.847	0.880	-10.500	-78.468	41.874	47.311	-78.703	-74.009	5.942	44.881	-74.255	-70.380	-69.763	-64.947	39.530	-65.713	-8191	255	
18473.648	1	1	0	0	0.19513	0.11956	0.075651	0.41125	0.15492	0.15456	0.17757	0.042503	0.23537	0.11324	0.16271	0.18635	0.20623	0.19603	0.042551	0.066566	-4.2688	-4.2208	-4.3333	-4.9021	-4.1146	-4.5792	-4.9896	-4.1875	-4.7438	-4.5375	-4.3313	-4.9167	-4.2333	-4.5563	-4.6792	-4.1813	109.577	71.805	-48.130	248.996	220.617	112.083	192.462	-78.255	44.118	-28.844	-25.813	-66.650	-68.611	252.604	38.234	246.482	0.00045103	0.00046822	0.00010983	1354.9	3.9351e-06	6.8021e-06	1372.7	353.57	1.7011e-06	5.4081e-06	405.08	134.24	114.23	39.47	3.1814e-06	49.175	0.00076163	0.0011848	0.00033277	1373.2	1.1243e-05	1.3604e-05	1391.2	359.54	1.1106e-05	1.3835e-05	412.36	137.62	117.01	40.428	1.1637e-05	50.446	94.737	-5.790	-0.129	-78.626	34.547	62.482	-78.740	-73.868	28.550	57.033	-74.523	-70.537	-69.564	-65.075	29.875	-65.712	-8191	255	
18473.768	1	1	0	0	0.23469	0.23545	0.042759	0.10849	0.14233	0.088137	0.095397	0.17943	0.087956	0.22272	0.13879	0.10896	0.19566	0.058589	0.23964	0.05271	-4.3562	-4.4833	-4.1687	-4.9812	-4.2562	-4.4208	-4.8063	-4.2708	-4.7542	-4.475	-4.3667	-4.7937	-4.1792	-4.4896	-4.7875	-4.3458	41.335	91.089	23.854	196.636	-7.195	146.125	124.654	248.288	65.312	233.153	115.460	79.819	225.809	244.326	-83.229	224.695	0.00039315	0.00043611	0.00016353	1358.1	4.0422e-06	4.9284e-06	1370.9	353	1.6161e-06	4.1179e-06	406.07	134.25	114.11	39.437	5.6313e-06	49.179	0.00074306	0.0011584	0.00034832	1374.8	1.1455e-05	1.3467e-05	1388.9	358.96	1.0913e-05	1.3017e-05	412.26	137.67	116.95	40.451	1.1353e-05	50.416	103.205	11.308	1.705	-78.448	9.543	51.849	-78.690	-74.069	-11.409	51.483	-74.299	-70.621	-69.583	-64.986	61.464	-65.617	-8191	255	
18473.840	1	1	0	0	0.06416	0.12908	0.19885	0.23568	0.1814	0.12219	0.11066	0.15861	0.29308	0.035502	0.1081	0.069057	0.26275	0.13963	0.012991	0.075207	-4.2	-4.5167	-4.3083	-4.9437	-4.3021	-4.2688	-5.0771	-4.2333	-4.5146	-4.6708	-4.2667	-4.9292	-4.5563	-4.4167	-4.8458	-4.3917	231.185	-70.516	222.772	248.750	101.875	121.355	232.882	184.491	-46.660	-54.544	-31.480	198.324	178.794	265.761	242.587	186.530	0.00037947	0.00044104	0.00011873	1358.3	3.8602e-06	3.9905e-06	1376.5	352.38	2.6363e-06	4.597e-06	405.19	134.75	114.46	39.337	3.1452e-06	48.771	0.00074214	0.0012025	0.00034266	1374.8	1.0681e-05	1.3321e-05	1391.7	359.12	1.0875e-05	1.3221e-05	411.92	137.46	117.12	40.422	1.185e-05	50.343	98.525	-19.440	-6.741	-78.512	38.550	51.431	-78.878	-74.052	-9.933	49.176	-74.469	-70.404	-69.705	-64.932	62.774	-65.889	-8191	255	
18473.961	1	1	0	0	0.23734	0.1428	0.088333	0.27316	0.052911	0.079477	0.20682	0.13845	0.024341	0.077096	0.067335	0.09759	0.26121	0.26227	0.12956	0.046689	-4.2604	-4.7063	-4.1229	-4.9167	-4.2771	-4.2792	-4.8625	-4.3396	-4.3625	-4.6292	-4.3063	-4.7083	-4.3146	-4.3646	-4.9625	-4.3917	256.375	1.457	6.767	195.546	183.877	6.656	186.224	182.470	74.609	238.284	-12.031	-38.542	139.795	-75.211	175.179	-64.175	0.00042268	0.00037473	0.00012815	1356.9	3.5056e-06	4.5619e-06	1374.3	353.78	3.4818e-06	2.9559e-06	405.37	134.72	114.37	39.335	3.0889e-06	48.883	0.00075132	0.001178	0.00035961	1374.3	1.1357e-05	1.3749e-05	1392.7	359.88	1.1302e-05	1.3727e-05	412.38	137.78	117.08	40.482	1.1555e-05	50.454	104.250	4.540	-2.901	-78.591	61.304	76.973	-78.764	-74.066	-1.434	59.741	-74.372	-70.024	-69.796	-65.224	55.848	-65.610	-8191	255	
18474.057	1	1	0	0	0.060899	0.042906	0.49651	0.34252	0.081287	0.25549	0.18001	0.32531	0.14589	0.24209	0.21821	0.24384	0.32801	0.099942	0.17926	0.043073	-4.1708	-4.6208	-4.1729	-4.7146	-4.4062	-4.1687	-5.1708	-4.4167	-4.2625	-4.85	-4.1979	-4.7438	-4.5667	-4.3229	-4.6438	-4.4208	104.953	-82.899	227.278	-78.797	74.025	81.243	192.837	226.263	-8.994	189.774	-24.584	-81.392	196.367	125.496	160.939	-80.711	0.00046162	0.00058721	0.00015003	1358.9	4.5454e-06	4.4752e-06	1372.6	352.71	3.7881e-06	4.542e-06	404.55	134.07	114.53	39.259	3.4699e-06	49.036	0.00075012	0.0011253	0.0003406	1374.7	1.0796e-05	1.4185e-05	1392.3	359.49	1.0809e-05	1.3168e-05	411.78	137.5	117.23	40.434	1.1507e-05	50.458	99.653	5.196	22.297	-78.746	52.607	58.856	-78.562	-73.788	-5.187	54.750	-74.461	-70.264	-69.692	-64.867	75.057	-65.787	-8191	255	
18474.152	1	1	0	0	0.23432	0.0095301	0.11786	0.3944	0.23113	0.066213	0.37098	0.1763	0.27114	0.013529	0.035233	0.078567	0.12648	0.1683	0.090904	0.14706	-3.8563	-4.7812	-4.2188	-4.7104	-4.5437	-4.325	-4.9021	-4.5979	-4.3146	-4.8438	-4.3396	-4.6062	-4.6917	-4.0875	-4.6667	-4.6479	-55.822	47.209	221.330	230.029	69.363	77.647	263.459	242.461	-42.036	17.503	155.131	-35.206	2.744	158.734	-69.506	168.453	0.00041562	0.00045992	0.00016653	1362.6	2.7926e-06	4.8607e-06	1371	353.01	4.7922e-06	4.1979e-06	403.66	134.52	114.31	39.351	3.1108e-06	49.109	0.00075308	0.0011756	0.00034739	1376.7	1.0757e-05	1.4436e-05	1390	359.46	1.1031e-05	1.3202e-05	411.86	137.51	117.02	40.399	1.0967e-05	50.486	98.118	7.481	10.618	-78.626	35.036	74.684	-78.752	-74.004	-6.881	68.997	-74.393	-70.491	-69.226	-65.009	73.220	-65.574	-8191	255	
18474.248	1	1	0	0	0.057624	0.15985	0.094545	0.35302	0.082329	0.06292	0.25	0.40805	0.053172	0.23799	0.11262	0.17699	0.24633	0.15457	0.2533	0.18105	-3.8875	-4.7729	-4.3896	-4.6479	-4.7708	-4.0667	-4.9729	-4.5625	-4.2542	-4.9271	-4.5062	-4.6	-4.7333	-4.225	-4.6271	-4.6771	-7.275	112.399	-49.902	200.826	188.442	183.859	213.894	193.493	166.157	67.708	195.744	215.277	262.606	-75.557	113.454	232.619	0.00045552	0.00051299	0.00015536	1352.7	3.7568e-06	4.4587e-06	1368.1	353.08	2.8341e-06	4.3898e-06	403.28	134.12	114.13	39.44	4.0615e-06	49.053	0.00076909	0.0011095	0.00033006	1371	1.0583e-05	1.3332e-05	1388.1	358.95	1.1014e-05	1.2427e-05	410.91	137.27	116.79	40.432	1.1483e-05	50.387	100.486	10.098	-2.165	-78.468	17.566	67.963	-78.744	-74.102	5.012	40.246	-74.386	-70.375	-69.571	-64.754	71.818	-65.852	-8191	255	
18474.369	1	1	0	0	0.19007	0.18497	0.20626	0.083802	0.11728	0.10734	0.19008	0.22629	0.062212	0.080185	0.15216	0.064223	0.074969	0.064638	0.15007	0.15495	-3.8917	-4.6104	-4.4646	-4.5813	-4.7917	-4.1729	-4.8021	-4.7667	-4.2125	-4.8938	-4.6021	-4.4021	-4.8271	-4.3458	-4.5188	-4.8167	178.997	23.812	91.485	189.481	221.662	17.895	173.884	207.877	261.330	224.453	123.695	-19.913	-56.825	198.854	241.902	174.441	0.00042262	0.00049771	0.00012919	1355.1	3.2947e-06	4.6755e-06	1368.4	353.14	2.6962e-06	4.9345e-06	403.42	134.24	114.32	39.462	3.7576e-06	49.128	0.00075058	0.0011779	0.00032645	1372.5	1.0641e-05	1.3289e-05	1389.9	359.32	1.1418e-05	1.2949e-05	411.06	137.46	116.95	40.451	1.1667e-05	50.449	102.168	-13.369	1.318	-78.718	49.635	67.700	-78.708	-73.920	11.371	49.653	-74.442	-70.451	-69.561	-65.147	52.017	-65.770	-8191	255	
18474.465	1	1	0	0	0.24349	0.16885	0.16775	0.18535	0.31253	0.18795	0.24168	0.20711	0.27331	0.18869	0.13709	0.074588	0.10449	0.13413	0.23054	0.032551	-3.7042	-4.9229	-4.6833	-4.6125	-4.7917	-4.2875	-4.7667	-4.9104	-4.0417	-4.8458	-4.7229	-4.2417	-4.9313	-4.2083	-4.4771	-4.9333	133.892	199.191	215.072	242.476	108.230	175.918	224.219	162.745	246.183	-18.617	152.283	203.798	-56.046	187.064	12.428	62.516	0.00040926	0.00046617	0.00014693	1358.9	4.8019e-06	5.4168e-06	1373.4	354.19	2.9441e-06	3.3204e-06	406.05	134.73	114	39.529	2.9006e-06	49.138	0.00076869	0.0011691	0.00034135	1375.9	1.1125e-05	1.4181e-05	1393.1	359.81	1.1604e-05	1.3592e-05	413.03	137.67	116.94	40.544	1.2146e-05	50.537	95.613	-12.602	-3.930	-78.594	53.693	43.774	-78.631	-73.905	33.825	58.529	-74.439	-70.513	-69.642	-64.542	52.753	-65.576	-8191	255	
#DATA ENDS
