BOXY.EXE: ISS Imagent and Oximeter Data Acquisition Program Version 0.80
Ascii Record File

#ACQ INFORMATION
2  Detector Channels 
16  External MUX Channels 
1  Auxiliary Channels 
5000  Waveform (CCF) Frequency (Hz)
1  Waveforms Skipped 
30  Waveforms Averaged 
1  Cycles Averaged 
16  Acquisitions per Waveform 
10.0806  Updata Rate (Hz) 

#FILE INFORMATION
TRUE -- External MUX Channel results are PARSED.
FALSE -- AC DC and Phase are NOT grouped.
TRUE -- Companion Program Settings File CREATED.
FALSE -- AC data not excluded
FALSE -- DC data not excluded
FALSE -- Phase data not excluded
FALSE -- Auxillary Chn. data not excluded
Tab delimiters

#CALIBRATION STATE
TRUE -- Waveform Calibration Values APPLIED.


#AUX CALIBRATION VALUES
Val Type	aux-1	

Term	1.0000e+00	
Factor	0.0000e+00	


#WF CALIBRATION VALUES
A = Detector Channel
Val Type	A-AC1	A-AC2	A-AC3	A-AC4	A-AC5	A-AC6	A-AC7	A-AC8	A-AC9	A-AC10	A-AC11	A-AC12	A-AC13	A-AC14	A-AC15	A-AC16	A-DC1	A-DC2	A-DC3	A-DC4	A-DC5	A-DC6	A-DC7	A-DC8	A-DC9	A-DC10	A-DC11	A-DC12	A-DC13	A-DC14	A-DC15	A-DC16	A-Ph1	A-Ph2	A-Ph3	A-Ph4	A-Ph5	A-Ph6	A-Ph7	A-Ph8	A-Ph9	A-Ph10	A-Ph11	A-Ph12	A-Ph13	A-Ph14	A-Ph15	A-Ph16	

Term	0.00000e+00	0.00000e+00	0.00000e+00	0.00000e+00	0.00000e+00	0.00000e+00	0.00000e+00	0.00000e+00	0.00000e+00	0.00000e+00	0.00000e+00	0.00000e+00	0.00000e+00	0.00000e+00	0.00000e+00	0.00000e+00	0.00000e+00	0.00000e+00	0.00000e+00	0.00000e+00	0.00000e+00	0.00000e+00	0.00000e+00	0.00000e+00	0.00000e+00	0.00000e+00	0.00000e+00	0.00000e+00	0.00000e+00	0.00000e+00	0.00000e+00	0.00000e+00	0.00000e+00	0.00000e+00	0.00000e+00	0.00000e+00	0.00000e+00	0.00000e+00	0.00000e+00	0.00000e+00	0.00000e+00	0.00000e+00	0.00000e+00	0.00000e+00	0.00000e+00	0.00000e+00	0.00000e+00	0.00000e+00	
Factor	1.00000e+00	1.00000e+00	1.00000e+00	1.00000e+00	1.00000e+00	1.00000e+00	1.00000e+00	1.00000e+00	1.00000e+00	1.00000e+00	1.00000e+00	1.00000e+00	1.00000e+00	1.00000e+00	1.00000e+00	1.00000e+00	1.00000e+00	1.00000e+00	1.00000e+00	1.00000e+00	1.00000e+00	1.00000e+00	1.00000e+00	1.00000e+00	1.00000e+00	1.00000e+00	1.00000e+00	1.00000e+00	1.00000e+00	1.00000e+00	1.00000e+00	1.00000e+00	X	X	X	X	X	X	X	X	X	X	X	X	X	X	X	X	

B = Detector Channel
Val Type	B-AC1	B-AC2	B-AC3	B-AC4	B-AC5	B-AC6	B-AC7	B-AC8	B-AC9	B-AC10	B-AC11	B-AC12	B-AC13	B-AC14	B-AC15	B-AC16	B-DC1	B-DC2	B-DC3	B-DC4	B-DC5	B-DC6	B-DC7	B-DC8	B-DC9	B-DC10	B-DC11	B-DC12	B-DC13	B-DC14	B-DC15	B-DC16	B-Ph1	B-Ph2	B-Ph3	B-Ph4	B-Ph5	B-Ph6	B-Ph7	B-Ph8	B-Ph9	B-Ph10	B-Ph11	B-Ph12	B-Ph13	B-Ph14	B-Ph15	B-Ph16	

Term	0.00000e+00	0.00000e+00	0.00000e+00	0.00000e+00	0.00000e+00	0.00000e+00	0.00000e+00	0.00000e+00	0.00000e+00	0.00000e+00	0.00000e+00	0.00000e+00	0.00000e+00	0.00000e+00	0.00000e+00	0.00000e+00	0.00000e+00	0.00000e+00	0.00000e+00	0.00000e+00	0.00000e+00	0.00000e+00	0.00000e+00	0.00000e+00	0.00000e+00	0.00000e+00	0.00000e+00	0.00000e+00	0.00000e+00	0.00000e+00	0.00000e+00	0.00000e+00	2.93131e+01	-1.38054e+02	-1.55137e+02	-1.83507e+02	-8.93409e+01	-7.38741e+01	-1.57185e+02	-1.62015e+02	-1.04756e+02	-8.47356e+01	-1.72626e+02	-1.72814e+02	-1.80483e+02	-1.78435e+02	-9.61728e+01	-1.51297e+02	
Factor	4.06815e-05	8.32167e-05	3.41537e-05	1.61071e-01	1.09079e-06	8.84274e-07	1.94396e-01	6.71829e-02	1.01989e-06	8.41751e-07	9.46126e-02	3.23926e-02	2.57595e-02	9.54239e-03	8.66236e-07	1.36832e-02	5.31991e-07	5.38450e-07	1.50082e-07	7.64884e-02	5.87831e-09	5.89810e-09	8.61984e-02	3.09803e-02	5.88643e-09	5.89619e-09	4.18274e-02	1.42647e-02	1.18748e-02	4.35937e-03	5.89889e-09	5.99575e-03	X	X	X	X	X	X	X	X	X	X	X	X	X	X	X	X	



#DISTANCE SETTINGS
A = Detector Channel
A-1	A-2	A-3	A-4	A-5	A-6	A-7	A-8	A-9	A-10	A-11	A-12	A-13	A-14	A-15	A-16	

2.5000e+00	3.0000e+00	2.5000e+00	3.0000e+00	2.0000e+00	3.0000e+00	1.5000e+00	3.0000e+00	3.0000e+00	3.0000e+00	3.0000e+00	3.0000e+00	3.0000e+00	3.0000e+00	1.5000e+00	3.0000e+00	

B = Detector Channel
B-1	B-2	B-3	B-4	B-5	B-6	B-7	B-8	B-9	B-10	B-11	B-12	B-13	B-14	B-15	B-16	

1.0000e+01	1.0000e+01	1.0000e+01	1.4400e+00	1.0000e+01	1.0000e+01	1.5100e+00	1.9400e+00	1.0000e+01	1.0000e+01	1.9900e+00	2.4900e+00	2.4100e+00	2.9000e+00	1.0000e+01	2.9800e+00	




#DATA BEGINS
time	group	step	mark	flag	A-AC1	A-AC2	A-AC3	A-AC4	A-AC5	A-AC6	A-AC7	A-AC8	A-AC9	A-AC10	A-AC11	A-AC12	A-AC13	A-AC14	A-AC15	A-AC16	A-DC1	A-DC2	A-DC3	A-DC4	A-DC5	A-DC6	A-DC7	A-DC8	A-DC9	A-DC10	A-DC11	A-DC12	A-DC13	A-DC14	A-DC15	A-DC16	A-Ph1	A-Ph2	A-Ph3	A-Ph4	A-Ph5	A-Ph6	A-Ph7	A-Ph8	A-Ph9	A-Ph10	A-Ph11	A-Ph12	A-Ph13	A-Ph14	A-Ph15	A-Ph16	B-AC1	B-AC2	B-AC3	B-AC4	B-AC5	B-AC6	B-AC7	B-AC8	B-AC9	B-AC10	B-AC11	B-AC12	B-AC13	B-AC14	B-AC15	B-AC16	B-DC1	B-DC2	B-DC3	B-DC4	B-DC5	B-DC6	B-DC7	B-DC8	B-DC9	B-DC10	B-DC11	B-DC12	B-DC13	B-DC14	B-DC15	B-DC16	B-Ph1	B-Ph2	B-Ph3	B-Ph4	B-Ph5	B-Ph6	B-Ph7	B-Ph8	B-Ph9	B-Ph10	B-Ph11	B-Ph12	B-Ph13	B-Ph14	B-Ph15	B-Ph16	aux-1	digaux	

8020.328	1	1	0	256	0.013326	0.25082	0.059833	0.41385	0.26277	0.13019	0.25058	0.1136	0.11295	0.30741	0.18967	0.14248	0.1125	0.20213	0.097538	0.072575	-2.3979	-3.2146	-3.1937	-3.1333	-3.4521	-3.1458	-3.3083	-3.4917	-3.1396	-3.2854	-3.425	-3.3417	-3.2771	-3.2021	-3.0187	-3.3292	55.056	4.513	-73.813	185.020	59.738	134.163	-146.250	26.203	59.277	1.680	15.683	-119.404	166.358	-152.816	-127.922	189.784	0.00060824	0.00042488	9.3265e-05	1388.2	2.8668e-06	2.1808e-06	1446.3	277.71	3.4074e-06	1.9514e-06	337.67	96.24	76.386	22.1	1.2575e-06	30.626	9.7709e-05	9.8752e-05	2.4235e-05	1308.2	1.0215e-06	1.0597e-06	1352.9	255.39	1.0385e-06	1.0452e-06	308.7	88.555	70.998	20.717	9.7909e-07	28.295	1.099	-82.031	-50.031	-149.949	-46.469	30.504	-150.086	-143.009	187.048	5.632	-143.306	-136.850	-136.345	-129.439	-38.442	-129.921	-8191	255	
8020.424	1	1	0	0	0.17678	0.096077	0.077291	0.24964	0.02943	0.19072	0.21145	0.084476	0.093191	0.17116	0.16307	0.30778	0.13073	0.041667	0.12438	0.12873	-2.7292	-3.2021	-3.2958	-2.95	-3.1604	-3.2042	-3.0417	-3.4521	-2.9875	-2.9062	-3.4125	-2.95	-3.2417	-3.2562	-2.9854	-3.3896	57.007	-60.950	124.611	-74.187	170.033	63.552	149.888	-129.281	57.170	80.105	-154.271	38.942	113.031	-142.633	123.243	-145.798	0.00058432	0.00022892	0.00012722	1392.6	2.3325e-06	2.5085e-06	1449.5	275.39	9.801e-07	2.2469e-06	337.22	96.341	76.725	22.061	1.617e-06	30.395	0.00010474	9.7917e-05	2.4656e-05	1309.1	1.1505e-06	1.0681e-06	1356.6	255.78	1.1695e-06	1.1008e-06	309.44	89.022	71.184	20.731	1.0566e-06	28.425	-7.421	-47.561	-128.082	-149.950	-20.555	24.031	-149.947	-143.103	-46.462	-2.911	-143.216	-136.480	-136.178	-129.462	-10.904	-130.280	-8191	255	
8020.545	1	1	0	0	0.17892	0.083896	0.11678	0.18336	0.030207	0.36587	0.41942	0.089909	0.11293	0.080448	0.23771	0.18782	0.022907	0.037396	0.051356	0.23859	-2.6437	-2.95	-3.3354	-2.9875	-3.0958	-3.3792	-3.1604	-3.3958	-2.9542	-3.0667	-3.4521	-2.9917	-3.3417	-3.3208	-2.9562	-3.3729	111.374	-89.830	26.701	-130.627	5.832	-150.424	109.854	182.872	197.338	13.162	168.859	77.230	99.127	-2.021	-105.563	138.129	0.00045687	0.00028335	0.00011917	1393.4	1.3544e-06	5.1197e-06	1444.5	276.06	1.7965e-06	2.1946e-06	337.41	95.763	75.879	21.939	1.7268e-06	30.356	0.00011645	0.00010156	2.6007e-05	1312.4	1.2439e-06	1.0715e-06	1355	256.44	1.2053e-06	1.1035e-06	309.09	88.973	70.885	20.591	1.0254e-06	28.355	5.929	-58.447	-101.082	-150.073	186.707	-14.689	-150.025	-142.997	194.116	-103.595	-142.960	-136.561	-136.369	-129.043	-38.480	-130.064	-8191	255	
8020.641	1	1	0	0	0.15836	0.10727	0.064753	0.19968	0.22841	0.1947	0.15819	0.084802	0.10855	0.081997	0.04243	0.13173	0.11636	0.15052	0.24018	0.23271	-2.7562	-3.0354	-3.2604	-3.2229	-3.175	-3.4292	-3.0479	-3.4208	-3.2896	-3.2354	-3.5229	-3.1167	-3.0479	-3.3708	-2.8604	-3.1979	-73.381	-159.365	141.557	-145.270	25.922	-134.303	112.416	-61.219	-138.938	128.157	40.055	189.768	-18.082	-156.701	107.340	104.020	0.00059764	0.00018924	9.5219e-05	1396.8	5.2982e-06	2.2775e-06	1446.9	275.98	4.3364e-06	4.1546e-06	336.62	96.469	75.85	21.997	1.6559e-06	30.382	0.00010796	9.5144e-05	2.4125e-05	1312.9	1.1088e-06	9.469e-07	1352.8	256.32	1.0162e-06	9.3832e-07	308.73	88.953	70.677	20.582	9.1565e-07	28.376	-0.723	-76.659	196.516	-149.956	-26.961	-3.474	-149.998	-143.027	-25.556	-61.330	-142.734	-136.669	-136.238	-128.902	-75.292	-129.868	-8191	255	
8020.735	1	1	0	0	0.22664	0.17645	0.053699	0.27701	0.036691	0.15741	0.044286	0.30248	0.13086	0.24117	0.025795	0.22382	0.14936	0.064495	0.21471	0.18284	-2.7354	-2.9021	-3.3125	-3.0687	-3.25	-3.5125	-3.1021	-3.2625	-3.3583	-3.0167	-3.4062	-2.9729	-3.125	-3.2292	-2.9646	-3.2687	13.816	-36.452	-124.997	152.593	37.099	19.480	-62.152	59.302	-59.849	-112.222	122.334	91.339	-56.295	190.639	64.011	74.999	0.000534	3.2486e-05	1.52e-05	1385.3	1.2191e-06	3.9532e-07	1440.9	275.44	2.2088e-06	2.0212e-06	336.96	96.457	76.772	22.107	1.5334e-06	30.678	9.0773e-05	8.1496e-05	2.2318e-05	1307.5	9.3488e-07	8.2838e-07	1349.6	255.41	8.9932e-07	8.5618e-07	308.13	88.888	70.678	20.582	9.29e-07	28.393	-3.292	-109.036	-83.238	-149.929	77.456	-29.065	-149.816	-143.123	-145.504	-25.053	-143.029	-136.746	-136.100	-129.411	-112.085	-129.736	-8191	255	
8020.833	1	1	0	0	0.066951	0.21939	0.2004	0.24888	0.12451	0.24294	0.26957	0.25321	0.19027	0.15622	0.050659	0.06913	0.036881	0.15385	0.19833	0.22102	-2.7896	-2.8792	-3.3458	-3.3438	-2.925	-3.225	-3.3979	-3.2271	-3.1917	-2.9167	-3.225	-3.1375	-2.9437	-3.4333	-3.125	-3.2333	69.585	31.715	-65.446	107.561	79.506	-127.980	-104.181	86.364	92.672	114.017	109.025	-102.896	-45.831	-150.644	113.217	136.844	0.00062528	0.00011924	2.6768e-05	1393.2	2.7201e-06	3.0873e-06	1446.1	277.77	1.4679e-06	5.9566e-07	336.28	96.409	76.5	22.124	2.288e-06	30.623	8.7261e-05	8.0368e-05	2.4142e-05	1308.8	9.4211e-07	8.4351e-07	1351.8	255.99	8.9097e-07	8.6447e-07	308.76	88.753	70.697	20.587	9.7907e-07	28.404	14.276	-67.432	-40.600	-149.960	-78.705	-14.732	-150.020	-143.123	-118.817	81.022	-143.134	-136.815	-136.272	-129.313	-74.082	-129.948	-8191	255	
8020.928	1	1	0	0	0.050705	0.24635	0.079599	0.10567	0.16433	0.048054	0.36052	0.32272	0.091321	0.19169	0.085986	0.086251	0.25383	0.11875	0.15586	0.15387	-2.9104	-2.8396	-3.1771	-3.5146	-3.1146	-3.4125	-3.3	-3.0563	-3.5396	-3	-3.2542	-3.2229	-3.075	-3.3583	-3.0333	-3.1229	22.042	186.405	-8.072	140.307	-75.120	141.094	132.790	171.143	95.503	141.706	111.383	-74.435	88.723	68.636	-96.086	-42.383	0.00054325	0.0002944	7.4472e-05	1392.8	1.2708e-06	1.9077e-06	1443.2	275.84	3.4827e-06	2.539e-06	335.5	96.738	76.492	22.278	3.0916e-06	30.655	8.0965e-05	7.5878e-05	2.3716e-05	1306.5	8.3826e-07	7.6935e-07	1349.3	254.91	7.7182e-07	7.7852e-07	307.88	88.602	70.561	20.644	8.9909e-07	28.28	8.009	-106.424	-116.960	-150.009	152.687	-52.075	-149.944	-142.997	-24.629	50.649	-142.962	-136.454	-136.156	-129.147	-49.175	-130.150	-8191	255	
8021.024	1	1	0	0	0.057183	0.071656	0.10238	0.31142	0.10767	0.22858	0.25409	0.088718	0.15519	0.10737	0.16013	0.091954	0.19008	0.13364	0.20884	0.12669	-2.9708	-2.8333	-3.1854	-3.5625	-3.0271	-3.2875	-3.1979	-2.9667	-3.4042	-3.1167	-3.3438	-3.2104	-2.9333	-3.4104	-2.9833	-3.1521	-86.870	123.969	145.536	167.860	110.420	164.565	133.044	26.521	183.694	-26.901	152.443	139.302	-156.833	55.103	32.270	14.855	0.00051535	7.829e-05	0.00015546	1386.9	2.1634e-06	3.3371e-06	1445.7	275.52	3.1763e-06	4.9046e-07	336.15	97.147	76.627	22.174	2.9238e-06	30.819	7.2946e-05	7.2396e-05	2.2255e-05	1300.8	7.7264e-07	7.6212e-07	1346.3	254.48	7.3095e-07	8.111e-07	308.13	88.827	70.677	20.743	8.8756e-07	28.452	-7.656	-70.192	-52.523	-149.861	-52.365	-70.934	-149.884	-143.022	-103.984	118.208	-143.163	-136.880	-136.061	-129.537	-50.097	-130.047	-8191	255	
8021.120	1	1	0	0	0.20223	0.10005	0.1893	0.098394	0.27795	0.24632	0.24476	0.38853	0.18161	0.30652	0.17827	0.18068	0.18434	0.10201	0.30185	0.14615	-3.0354	-3.1521	-3.2313	-3.3917	-2.95	-3.2708	-3.3146	-2.9458	-3.1458	-2.9917	-3.3688	-3.2687	-2.9125	-3.3417	-3.1354	-2.9979	-132.407	132.648	-0.012	149.221	-155.076	116.424	172.117	168.485	-1.159	184.815	100.284	141.907	-130.366	-128.152	119.957	36.455	0.00058593	0.00010847	0.00015481	1386.6	2.5448e-07	2.3616e-06	1444.6	274.31	2.3151e-06	3.0628e-06	336.27	96.155	76.509	22.123	1.8767e-06	30.739	7.2863e-05	7.9511e-05	2.2701e-05	1301.3	7.9774e-07	8.6019e-07	1347.1	253.99	7.5308e-07	8.8369e-07	308.12	88.44	70.614	20.685	8.3955e-07	28.38	-8.026	169.906	-88.949	-149.821	42.615	36.601	-150.024	-142.955	-116.706	-40.639	-143.388	-136.621	-136.367	-129.187	75.499	-130.083	-8191	255	
8021.241	1	1	0	0	0.14003	0.13353	0.087522	0.13669	0.11447	0.018149	0.23836	0.11122	0.15571	0.20109	0.26164	0.21043	0.22128	0.24563	0.26827	0.12227	-3.0687	-2.8854	-2.9896	-3.5708	-2.9271	-3.2271	-3.5833	-2.9437	-3.3875	-3.1729	-2.8854	-3.4479	-2.8979	-3.3833	-3.3958	-3.0312	-77.842	89.570	-141.665	158.515	162.165	134.401	102.722	-147.381	20.324	-4.902	-124.391	135.929	-102.883	19.550	-131.795	-109.951	0.0005135	0.00017797	0.00010102	1386.7	3.8884e-06	2.3387e-06	1441.9	275.01	1.5276e-06	2.8047e-06	336.23	96.446	75.894	22.224	1.224e-06	30.627	7.2617e-05	8.0206e-05	2.1145e-05	1297.5	7.7314e-07	8.8233e-07	1343.6	253.64	7.6581e-07	8.5623e-07	306.92	88.531	70.273	20.694	7.6027e-07	28.191	15.832	-31.744	-66.657	-149.976	-89.722	-59.776	-150.002	-142.664	-84.086	-31.505	-142.832	-136.655	-136.276	-129.513	-91.685	-129.480	-8191	255	
8021.337	1	1	0	0	0.16241	0.26978	0.049648	0.19884	0.16398	0.21889	0.32758	0.10226	0.22465	0.038	0.18384	0.23145	0.36546	0.19594	0.42051	0.054517	-2.8958	-3.2521	-2.9688	-3.6125	-3.1646	-3.3271	-3.5083	-3.1021	-3.1708	-3.1	-3.1354	-3.4271	-3.1167	-3.2833	-3.1583	-3.0375	-70.655	-90.247	0.667	-130.345	-19.457	53.027	112.669	-128.694	148.095	121.125	-150.858	110.743	165.134	-20.951	-59.334	52.238	0.00057482	0.00016509	0.00014649	1375.5	3.0391e-06	1.166e-06	1436.2	273.64	2.4965e-06	3.2948e-06	336.95	96.597	76.284	22.165	2.9643e-06	30.624	7.4562e-05	7.6822e-05	1.9634e-05	1292.7	7.884e-07	8.3592e-07	1338.8	252.99	7.6085e-07	7.9436e-07	306.89	88.357	70.288	20.648	7.0608e-07	28.227	2.959	-114.499	-29.539	-149.759	-101.549	93.600	-149.755	-143.169	-80.218	-13.089	-142.938	-136.474	-136.560	-129.118	-45.974	-130.124	-8191	255	
8021.433	1	1	0	0	0.12053	0.13981	0.23801	0.18293	0.18992	0.05053	0.3133	0.25938	0.046425	0.14271	0.13568	0.20897	0.21554	0.28398	0.15036	0.1881	-2.9562	-3.1208	-2.9979	-3.6021	-3.1	-3.1417	-3.5646	-3	-3.2896	-3.0667	-2.8625	-3.5292	-3.1896	-3.0083	-3.2083	-2.9917	70.696	148.790	12.192	175.277	26.106	194.587	88.550	147.806	-90.288	-54.702	-105.613	60.880	-139.205	-140.395	-132.263	-52.380	0.00069119	0.00047677	0.00014779	1374.6	2.0824e-06	1.6677e-06	1435.8	273.99	2.5273e-06	1.8534e-06	336.89	96.05	76.567	22.235	2.7247e-06	30.654	7.6725e-05	7.0003e-05	1.8448e-05	1290.8	8.1515e-07	7.9547e-07	1337.1	252.58	8.1528e-07	7.5121e-07	306.44	88.138	70.496	20.64	6.8975e-07	28.257	2.228	-68.584	-64.775	-149.878	-137.593	-55.286	-149.776	-142.873	-124.121	-77.119	-142.968	-136.803	-136.406	-129.062	-44.281	-129.815	-8191	255	
8021.505	1	1	0	0	0.10469	0.14148	0.092868	0.25285	0.32225	0.10492	0.15644	0.054713	0.066031	0.37544	0.22659	0.11741	0.088232	0.19924	0.25686	0.02068	-2.8229	-3.2062	-2.8187	-3.4833	-3.1854	-2.9771	-3.4542	-3.1104	-3.1604	-3.225	-2.8875	-3.3583	-3.3125	-3.175	-3.5625	-2.9979	97.257	-101.671	-62.979	148.648	19.610	-142.017	112.443	67.011	40.513	142.853	62.128	44.323	114.142	163.480	58.511	43.611	0.00053513	0.00012318	7.0987e-05	1379.3	2.5428e-06	1.7267e-06	1429.8	272.62	2.5766e-06	1.4476e-06	336.52	96.172	76.04	22.13	2.1996e-06	30.564	7.9714e-05	6.7675e-05	1.8085e-05	1290.9	8.3992e-07	7.5424e-07	1334.6	252.39	8.3676e-07	7.2139e-07	307.02	88.326	70.357	20.606	6.8759e-07	28.265	0.173	-29.363	-36.398	-149.764	-147.097	31.018	-149.924	-142.813	-95.085	-13.740	-143.133	-136.664	-136.543	-129.044	-59.368	-129.821	-8191	255	
8021.625	1	1	0	0	0.072042	0.21883	0.26406	0.25486	0.097295	0.024889	0.44262	0.22054	0.066988	0.014684	0.10663	0.053831	0.098382	0.23716	0.20419	0.046189	-2.9354	-3.2875	-2.9813	-3.5375	-3.1583	-3.0479	-3.6417	-3.1542	-3.1063	-3.275	-2.9813	-3.2771	-3.1271	-2.9083	-3.4042	-3.0979	1.663	160.635	113.874	102.525	-112.088	4.656	129.276	-146.957	24.089	-29.579	147.303	40.118	121.365	-97.761	-2.442	-104.549	0.00059878	0.0001744	9.2501e-05	1372.1	3.1533e-06	2.9947e-06	1425.2	274.92	2.7279e-06	2.426e-06	337.83	96.352	76.411	22.136	2.9864e-06	30.614	7.9594e-05	6.5275e-05	1.8085e-05	1291.1	8.1118e-07	7.3628e-07	1333.7	252.97	8.177e-07	7.1571e-07	306.95	88.521	70.268	20.604	6.9689e-07	28.316	1.863	-96.822	-119.532	-149.879	-79.180	16.670	-149.759	-142.771	-77.817	-99.633	-143.142	-136.762	-136.518	-128.993	-53.022	-130.082	-8191	255	
8021.721	1	1	0	0	0.063115	0.17386	0.13555	0.12315	0.1015	0.14128	0.17231	0.35087	0.1127	0.10346	0.26808	0.16662	0.24442	0.34887	0.18908	0.30679	-2.45	-3.2979	-2.9042	-3.2875	-3.2229	-3.0312	-3.45	-2.9646	-3.0854	-3.3625	-3.0875	-3.3104	-3.3438	-3.0125	-3.3396	-3.05	-110.419	-118.960	148.093	141.953	23.217	0.718	176.148	129.784	49.529	43.479	-144.611	-142.837	191.087	124.374	-28.177	84.372	0.00043119	0.0002421	7.666e-05	1374.9	1.4128e-06	9.2142e-07	1427.3	273.68	3.7886e-06	7.978e-07	336.87	96.175	76.46	22.169	1.9514e-07	30.635	7.6519e-05	6.5576e-05	1.8467e-05	1291.6	7.7885e-07	7.2726e-07	1335.2	253.07	7.8749e-07	7.0016e-07	306.73	88.55	70.202	20.561	7.6268e-07	28.35	1.034	-51.806	-91.819	-149.890	-114.384	166.026	-149.845	-142.912	-66.288	-39.523	-142.737	-136.565	-136.318	-129.546	-102.994	-129.940	-8191	255	
8021.816	1	1	0	0	0.27301	0.10654	0.13371	0.12164	0.17641	0.18208	0.20249	0.12427	0.14561	0.29854	0.25832	0.17271	0.033533	0.16901	0.11085	0.13971	-2.5021	-3.4542	-2.9188	-3.5104	-3.3146	-2.9083	-3.5292	-3.2313	-2.9583	-3.3375	-3.1063	-3.1208	-3.2521	-2.8937	-3.2042	-3.1792	18.662	122.148	-128.856	-158.239	107.778	90.619	169.628	0.246	113.442	121.648	37.561	-62.688	-35.605	39.306	70.178	63.391	0.00044965	0.00031524	2.536e-05	1378.1	3.5522e-06	5.322e-07	1429.8	273.08	2.0783e-06	2.2559e-06	336.35	96.313	76.051	21.79	1.1504e-06	30.488	7.5808e-05	6.459e-05	2.0001e-05	1292.3	7.7775e-07	7.2375e-07	1336.1	252.7	7.956e-07	7.1763e-07	306.74	88.378	70.159	20.439	8.3295e-07	28.179	5.532	-50.395	-127.056	-149.840	-30.739	-40.053	-149.713	-142.999	-30.902	-17.859	-143.253	-136.583	-136.111	-129.559	-89.138	-129.834	-8191	255	
8021.914	1	1	0	0	0.32435	0.071904	0.10718	0.42299	0.13738	0.1635	0.46421	0.076205	0.063628	0.094976	0.10551	0.34701	0.18184	0.099072	0.085955	0.19155	-2.4083	-3.1479	-2.9479	-3.2542	-3.1917	-2.9313	-3.3125	-3.3042	-2.9688	-3.2708	-3.1437	-3.1437	-3.475	-2.9354	-3.3667	-3.1396	-133.834	55.861	198.450	-149.535	-121.832	-102.876	138.306	8.694	1.717	162.102	-124.634	177.154	179.928	113.491	-104.828	168.745	0.00054784	0.00020421	0.00012764	1371.8	2.0031e-06	2.7175e-06	1423.9	273.1	8.4389e-08	4.4274e-07	334.31	95.562	75.487	21.983	1.6804e-06	30.235	7.4771e-05	6.5303e-05	2.1264e-05	1286.7	7.4629e-07	7.4021e-07	1331.2	251.93	7.7678e-07	7.4524e-07	305.96	87.915	69.741	20.386	9.1137e-07	28.06	0.543	-12.278	-61.086	-149.937	-24.227	33.501	-149.936	-143.003	62.565	85.831	-142.777	-136.747	-136.455	-128.836	-146.819	-129.953	-8191	255	
8022.033	1	1	0	0	0.18237	0.021903	0.10694	0.19988	0.18404	0.17393	0.21224	0.18582	0.14391	0.19264	0.030363	0.19681	0.079467	0.11013	0.22257	0.17002	-2.3833	-3.2438	-3.1917	-3.1896	-3.3229	-2.9854	-3.2354	-3.3375	-2.9083	-3.3458	-3.2562	-3.1729	-3.4396	-3.1	-3.1333	-3.2208	122.610	-120.751	-2.935	95.395	-42.384	-159.378	151.518	101.703	175.159	141.673	179.084	147.402	142.727	167.466	152.536	70.245	0.000414	0.00014164	0.00014868	1372.6	6.4246e-06	1.5438e-06	1426.3	270.89	4.1341e-06	1.6231e-06	333.08	95.568	75.914	21.974	1.6229e-06	30.379	7.8627e-05	7.1999e-05	2.3525e-05	1288.4	7.8244e-07	8.2423e-07	1335.6	251.06	8.0616e-07	8.3345e-07	306.02	88.026	69.87	20.471	9.2921e-07	28.091	8.423	25.986	-80.804	-150.060	-64.051	19.992	-149.952	-143.082	-70.057	3.656	-143.195	-136.496	-136.307	-129.217	-66.352	-129.949	-8191	255	
8022.129	1	1	0	0	0.22961	0.071162	0.28978	0.14339	0.041182	0.15315	0.033356	0.10904	0.13615	0.19325	0.22526	0.21911	0.21943	0.12658	0.035287	0.25268	-2.4875	-3.2729	-3.1063	-3.1583	-3.3625	-3.0021	-3.1688	-3.4313	-2.9417	-3.3667	-3.175	-3.1063	-3.5083	-3	-2.9896	-3.2854	-16.091	-74.177	151.421	85.490	-64.065	114.776	99.333	-160.957	15.954	-81.213	164.670	157.121	116.332	156.166	41.076	117.664	0.00056298	0.00013252	0.0001589	1377.2	2.2297e-06	1.0274e-06	1429.1	273.51	3.4173e-06	1.6686e-06	333.94	95.734	76.036	21.939	2.0159e-06	30.462	7.7609e-05	7.8571e-05	2.3479e-05	1289.9	7.8572e-07	8.901e-07	1332.8	252.32	8.0252e-07	8.7991e-07	306.53	87.938	70.015	20.544	8.7154e-07	28.123	14.311	-135.921	-86.383	-149.877	-119.600	188.871	-149.726	-143.092	-97.646	-123.245	-143.114	-136.416	-136.299	-128.993	-36.079	-130.084	-8191	255	
8022.225	1	1	0	0	0.24293	0.20815	0.034456	0.43391	0.1262	0.13806	0.09655	0.06894	0.13677	0.077555	0.083047	0.35667	0.16794	0.33508	0.18174	0.10226	-2.5812	-3.1875	-3.1188	-3.0104	-3.2687	-3.0833	-3.2313	-3.3479	-3.1063	-3.1833	-3.2875	-3.0896	-3.4688	-3.1833	-3.0292	-3.5042	-21.610	194.536	137.118	149.381	-159.133	77.578	-37.749	117.146	110.885	115.899	143.128	165.913	67.369	180.928	-38.890	78.449	0.00052331	6.056e-05	0.0001014	1375.7	1.6282e-06	1.3254e-06	1425.1	271.57	4.2305e-06	5.6795e-07	334.34	96.088	76.096	21.939	2.1586e-06	30.457	7.4782e-05	8.1077e-05	2.1473e-05	1288.7	7.7447e-07	8.8949e-07	1333.5	251.35	8.0248e-07	8.9661e-07	305.64	88.039	69.972	20.515	8.2731e-07	28.034	-6.977	-56.226	-124.858	-149.766	-18.149	-40.647	-149.995	-142.954	-145.321	82.713	-142.977	-136.702	-136.230	-129.320	-63.502	-129.963	-8191	255	
8022.321	1	1	0	0	0.24848	0.081636	0.23275	0.34037	0.13188	0.17034	0.17627	0.1217	0.0078507	0.17363	0.16408	0.24261	0.43658	0.29118	0.23291	0.11043	-2.5458	-3.25	-3.0729	-3.0812	-3.175	-2.9875	-3.0979	-3.3812	-2.8854	-3.1771	-3.2396	-2.9667	-3.3604	-3.0896	-3.1	-3.4146	-61.252	-3.015	-27.351	125.991	-158.990	-90.195	-80.362	-118.013	-27.404	-54.893	-91.585	8.166	-158.082	120.670	32.403	172.341	0.00053367	4.8989e-05	0.00010376	1374	1.8226e-06	4.2375e-06	1419.9	272.32	1.6617e-06	2.3887e-06	335.7	95.289	75.802	21.844	1.53e-06	30.148	8.0014e-05	8.4295e-05	2.0805e-05	1287.9	8.2937e-07	9.2036e-07	1330.5	251.51	8.8533e-07	9.1249e-07	305.47	87.802	70.137	20.476	8.4997e-07	28.017	-1.734	164.214	-75.917	-149.818	-99.918	1.613	-149.797	-142.764	-112.287	-8.939	-143.107	-136.468	-136.513	-129.223	65.961	-129.665	-8191	255	
8022.417	1	1	0	0	0.088411	0.075894	0.13039	0.20286	0.33233	0.1365	0.42275	0.060777	0.083565	0.10927	0.20041	0.033151	0.10364	0.077076	0.061046	0.077852	-2.5479	-3.0771	-3.1875	-2.9979	-3.2333	-3.0458	-3.1854	-3.3854	-2.9313	-3.1146	-3.2896	-3.1896	-3.1021	-3.1396	-2.9688	-3.2854	37.572	103.136	159.260	168.665	49.751	157.961	140.369	-130.453	173.819	-13.422	148.602	-62.453	88.524	196.233	48.200	37.735	0.0004983	0.00040151	1.1316e-05	1371.9	5.553e-06	1.9065e-06	1426.2	272.92	2.207e-06	2.7057e-06	334.09	95.696	76.099	21.891	2.4364e-06	30.448	8.5655e-05	8.3832e-05	2.0148e-05	1288.7	8.9352e-07	8.5923e-07	1333.5	251.57	8.865e-07	8.6447e-07	305.18	87.858	70.196	20.446	8.0365e-07	27.97	9.308	-94.717	-90.334	-149.896	-69.096	-1.676	-149.987	-142.962	-97.893	-78.126	-143.019	-136.842	-136.357	-129.244	-115.061	-129.955	-8191	255	
8022.513	1	1	0	0	0.2969	0.088149	0.094638	0.19137	0.12362	0.060893	0.29788	0.25617	0.14514	0.1218	0.13436	0.080943	0.16314	0.24928	0.18448	0.44307	-2.4729	-2.9792	-3.1646	-3.075	-3.2333	-3.0958	-2.9896	-3.1792	-2.9917	-3.0854	-3.4896	-3.0271	-3.2292	-3.175	-2.9333	-3.4958	22.501	86.817	-35.039	95.663	-24.100	86.699	172.017	190.882	175.356	-50.192	144.376	167.174	194.679	189.858	180.767	196.318	0.00050737	0.00025408	0.00012724	1371.9	2.9872e-06	1.9635e-06	1424.3	271.49	2.9171e-06	2.5928e-06	335.08	95.529	75.612	21.822	1.6085e-06	30.245	8.8549e-05	7.9177e-05	1.9824e-05	1286.8	9.3698e-07	8.4339e-07	1329.5	251.77	9.6033e-07	8.6841e-07	305.57	87.876	70.136	20.394	8.1842e-07	28.055	-2.528	-54.105	-103.413	-149.977	-98.371	27.746	-149.906	-143.033	-42.838	9.138	-143.276	-136.682	-136.173	-129.157	26.949	-129.717	-8191	255	
8022.634	1	1	0	0	0.28403	0.064232	0.10623	0.19316	0.091684	0.12357	0.21198	0.053463	0.28039	0.19796	0.18599	0.050551	0.18795	0.16003	0.096506	0.10294	-2.6312	-3.0625	-3.175	-3.0687	-3.0958	-3.3875	-3.1521	-3.3833	-3.1646	-2.7917	-3.4208	-3.0812	-3.05	-3.4042	-2.8896	-3.2188	-65.479	-57.495	-31.386	124.541	149.403	192.354	152.311	182.500	137.260	97.765	-18.472	137.329	8.821	13.777	-150.804	-101.594	0.00040578	8.5288e-05	0.00010784	1374.8	3.0225e-06	3.0562e-06	1420.6	272.23	3.0634e-06	8.0886e-07	333	95.7	75.597	21.871	1.0314e-06	30.575	9.1372e-05	7.9628e-05	2.0481e-05	1289.5	9.6518e-07	8.4038e-07	1328.8	251.95	9.3566e-07	8.5629e-07	304.23	87.928	70.052	20.411	8.2189e-07	28.15	-7.339	-69.760	-78.897	-150.066	-54.610	-27.829	-149.815	-142.896	-66.407	-7.087	-143.045	-136.997	-136.202	-128.903	74.252	-129.631	-8191	255	
8022.728	1	1	0	0	0.067753	0.21734	0.12966	0.31752	0.39052	0.22339	0.26765	0.17865	0.16297	0.18964	0.18628	0.065673	0.15554	0.062436	0.22118	0.18946	-2.7438	-2.95	-3.2562	-3.1375	-3.0292	-3.4437	-3.0396	-3.3104	-3.3438	-2.8229	-3.4417	-3.1	-3.0625	-3.2687	-2.9042	-3.3312	-153.156	132.539	-53.644	193.792	-15.404	124.043	48.182	108.771	-37.572	-128.475	20.514	79.825	-122.617	109.637	-129.332	52.818	0.00049248	0.00028867	3.6644e-05	1372.1	1.4906e-06	2.7951e-06	1427.1	272.24	2.2608e-06	2.1264e-06	333.11	95.194	74.86	21.806	2.3904e-06	30.491	8.7625e-05	7.7144e-05	2.0392e-05	1288.1	9.3739e-07	8.1318e-07	1331.2	252.47	9.0642e-07	8.542e-07	304.97	87.979	69.666	20.318	8.3887e-07	28.192	-10.870	-77.470	-94.690	-150.061	-56.095	-22.244	-149.874	-143.280	-10.723	-72.841	-143.210	-136.754	-136.386	-129.080	-47.786	-129.866	-8191	255	
8022.802	1	1	0	0	0.16563	0.31972	0.11298	0.2811	0.051267	0.21396	0.28316	0.14185	0.094374	0.055299	0.087043	0.17126	0.17634	0.24009	0.13011	0.24702	-2.7646	-2.6667	-3.2167	-3.1958	-2.9938	-3.325	-3.175	-3.2313	-3.2646	-2.9688	-3.5187	-3.1896	-3.175	-3.5292	-3.0438	-3.2229	191.379	-31.820	174.191	157.983	-143.134	-135.026	109.307	143.153	26.309	-67.832	20.851	-154.625	43.034	83.627	-22.205	192.830	0.00056176	0.00034139	3.0273e-05	1367.1	2.661e-06	2.7487e-06	1424.3	272.54	4.6454e-06	1.3779e-06	334.61	95.629	75.561	21.845	3.7199e-06	30.374	8.1431e-05	7.4624e-05	2.0393e-05	1284.5	8.5572e-07	7.54e-07	1329.6	252.27	8.2887e-07	7.9088e-07	305.52	88.122	69.887	20.364	8.9367e-07	28.182	0.445	-98.832	69.644	-149.752	-5.792	5.226	-149.628	-142.911	-46.523	-65.226	-142.931	-136.957	-136.202	-129.345	-98.621	-130.052	-8191	255	
8022.921	1	1	0	0	0.17113	0.12033	0.2162	0.2734	0.11288	0.066021	0.38882	0.14665	0.15665	0.19885	0.14187	0.24639	0.13591	0.040803	0.21066	0.13638	-2.9208	-2.9083	-3.3042	-3.2708	-2.825	-3.2979	-3.3	-3.2583	-3.3375	-2.7562	-3.2708	-3.3979	-2.9583	-3.2667	-3.1813	-2.9542	159.499	-61.754	-116.940	174.442	-77.691	97.281	136.201	166.161	-121.912	86.368	145.705	72.854	-47.189	-12.772	-8.261	-31.913	0.00048402	0.00014562	2.2311e-05	1368.7	2.3369e-06	9.8613e-07	1425.1	273.07	2.6985e-06	2.2917e-06	335.52	95.169	75.644	22.029	3.6804e-07	30.407	7.9256e-05	7.4658e-05	2.2864e-05	1288	8.7482e-07	7.8902e-07	1331.1	252.97	8.4908e-07	8.2222e-07	306.61	87.975	70.098	20.461	9.5187e-07	28.205	-0.927	-41.818	-61.996	-149.984	-99.941	-98.420	-149.958	-143.024	-75.031	-67.468	-142.668	-136.811	-136.206	-129.597	49.834	-129.989	-8191	255	
8023.017	1	1	0	0	0.062585	0.16784	0.15294	0.30141	0.16187	0.028236	0.098986	0.049869	0.10742	0.071689	0.1793	0.11511	0.086929	0.17565	0.22587	0.16677	-2.9583	-2.9625	-3.1625	-3.4271	-2.8792	-3.4583	-3.1458	-3.2271	-3.3688	-2.9104	-3.4437	-3.3063	-2.8625	-3.3271	-3.1917	-3.0229	97.443	116.210	-150.662	175.137	120.150	-104.674	59.114	-128.427	75.171	-48.865	-144.854	-128.991	34.208	101.863	36.576	-130.032	0.00047352	0.00026106	9.1923e-05	1372.5	1.4684e-06	2.2097e-06	1427.4	272.32	1.9943e-06	7.3799e-07	334.97	95.862	75.934	22.021	3.1018e-07	30.34	7.9724e-05	7.5996e-05	2.4067e-05	1288.7	8.5473e-07	8.1703e-07	1335.3	252.11	8.0008e-07	8.3894e-07	306.76	88.057	70.028	20.506	9.1164e-07	28.152	2.923	-78.453	-101.490	-149.845	-30.792	-9.249	-149.764	-143.071	-63.117	-109.342	-142.994	-136.745	-136.426	-129.152	-41.743	-130.248	-8191	255	
8023.113	1	1	0	0	0.10336	0.053568	0.097214	0.21139	0.12561	0.28329	0.332	0.14344	0.10527	0.1658	0.24072	0.1659	0.080514	0.072602	0.20473	0.1082	-2.7854	-2.9854	-3.1458	-3.3646	-3.0771	-3.4688	-3.1792	-3.2292	-3.3583	-2.9292	-3.2021	-3.2292	-2.8042	-3.2083	-3.1729	-2.9458	73.310	117.511	125.719	121.059	73.503	49.691	146.523	157.730	-18.423	-70.857	174.564	-104.948	78.681	-151.430	96.840	32.211	0.00051511	0.0001987	4.152e-05	1373.3	3.2832e-06	1.1326e-06	1426.8	274.33	8.8424e-07	1.0357e-06	335.27	95.09	75.836	21.888	3.8398e-06	30.516	7.3615e-05	7.6995e-05	2.3217e-05	1289.1	8.097e-07	8.638e-07	1334.2	252.79	7.9977e-07	8.8982e-07	307.19	87.994	70.025	20.562	9.3805e-07	28.239	3.370	-83.321	-20.848	-149.841	-29.526	-7.108	-150.019	-142.780	159.249	-22.521	-143.001	-136.452	-136.403	-129.624	-51.402	-130.316	-8191	255	
8023.209	1	1	0	0	0.18662	0.089881	0.17327	0.1073	0.14683	0.04959	0.15202	0.2977	0.28429	0.15932	0.052483	0.077802	0.076808	0.17362	0.19005	0.14212	-2.7104	-3.0729	-2.9917	-3.4708	-2.8854	-3.2438	-3.4375	-2.9208	-3.3375	-2.9938	-3.0875	-3.3542	-3.0271	-3.2271	-3.1	-2.9229	141.895	-31.798	-62.430	138.071	9.288	178.482	144.469	157.064	181.063	73.576	130.817	158.644	-86.372	-91.658	-114.643	62.641	0.00062283	0.0001274	0.00011311	1380.2	2.78e-06	2.0244e-06	1431.8	274.13	2.3394e-06	2.3059e-06	334.95	96.29	76.674	22.073	3.7014e-06	30.57	7.7738e-05	8.7691e-05	2.4396e-05	1293.8	8.5657e-07	9.7944e-07	1339	253.05	8.507e-07	9.9754e-07	307.73	88.329	70.521	20.749	9.4151e-07	28.334	10.886	-134.989	-90.569	-149.843	-117.406	0.731	-149.894	-142.971	-107.849	-21.395	-142.827	-136.795	-136.300	-129.034	-42.635	-129.864	-8191	255	
8023.330	1	1	0	0	0.27763	0.086953	0.23789	0.10103	0.17778	0.31285	0.24839	0.34882	0.088245	0.15023	0.43781	0.14879	0.1735	0.15165	0.21398	0.23297	-2.9521	-3.0938	-3.0333	-3.625	-3.0542	-3.3417	-3.3563	-3.0292	-3.3854	-3.1562	-3.1312	-3.4854	-3.0354	-3.1417	-3.3167	-3.0375	-138.399	-34.337	-44.809	95.139	-67.873	-129.728	133.976	152.682	88.028	-105.245	-56.230	150.615	182.842	94.586	-136.045	87.331	0.00053582	0.00017103	0.00015047	1378.6	8.2007e-07	3.5778e-06	1436.1	274.65	3.9055e-06	4.7838e-06	336.91	96.409	76.27	22.092	1.3183e-06	30.446	8.6709e-05	9.5196e-05	2.4574e-05	1295.3	9.5331e-07	1.0683e-06	1342.9	253.76	9.6048e-07	1.0585e-06	308.71	88.471	70.728	20.802	9.7037e-07	28.368	1.680	-67.266	-60.092	-149.951	-94.715	30.078	-150.000	-143.106	-93.887	-9.701	-143.001	-136.866	-136.397	-129.027	-78.316	-129.865	-8191	255	
8023.426	1	1	0	0	0.096781	0.34471	0.42989	0.19748	0.13071	0.40598	0.18312	0.16645	0.2024	0.22082	0.12343	0.049406	0.085419	0.12417	0.12992	0.10147	-2.85	-3.1479	-2.9396	-3.3479	-3.0938	-3.0938	-3.6271	-2.9625	-3.1479	-3.2375	-3.1813	-3.5542	-3.2083	-2.9375	-3.0333	-3.0146	128.162	7.093	128.314	152.186	181.825	-47.966	155.620	-145.732	122.799	-18.324	177.191	13.847	179.879	-139.168	-13.272	115.398	0.000561	0.00050875	9.0126e-05	1383.3	3.2813e-06	1.6199e-06	1442.6	274.7	1.2585e-06	2.9777e-06	338.61	96.043	76.398	22.025	7.3354e-07	30.435	9.8579e-05	0.00010117	2.6023e-05	1300.2	1.0928e-06	1.1284e-06	1348.8	254.48	1.1175e-06	1.1043e-06	309.66	88.63	71.124	20.785	1.0117e-06	28.407	-5.024	-47.344	-18.569	-150.015	-33.740	-27.626	-149.827	-143.169	-114.527	-21.387	-142.777	-136.700	-136.435	-129.269	-42.499	-129.976	-8191	255	
8023.498	1	1	0	0	0.15102	0.15041	0.030827	0.15333	0.17649	0.12064	0.063228	0.063123	0.017223	0.18364	0.11593	0.094367	0.11595	0.074261	0.16221	0.15458	-2.8417	-3.2875	-3.0167	-3.4354	-3.0792	-3.0542	-3.4854	-2.9667	-3.2667	-3.2208	-3.1083	-3.5563	-3.0604	-2.9896	-3.2708	-3.1437	72.100	-88.698	-149.555	99.190	4.744	165.676	-21.784	170.433	0.748	-21.821	-69.449	-140.899	-87.961	-12.186	-61.805	177.065	0.00063646	0.00030686	7.9235e-05	1393.7	6.15e-06	2.7745e-06	1441.3	274.97	6.164e-06	4.457e-06	338.34	95.82	76.279	22.036	2.3805e-06	30.707	0.00011007	9.9686e-05	2.5999e-05	1306.3	1.1607e-06	1.0636e-06	1348.6	255.27	1.1225e-06	1.0186e-06	309.65	88.662	71.098	20.72	9.3856e-07	28.481	-10.207	-63.943	-97.061	-149.888	-63.896	-14.051	-149.962	-143.090	-55.888	43.535	-143.168	-136.680	-136.253	-129.676	-2.772	-129.945	-8191	255	
8023.594	1	1	0	0	0.087773	0.28045	0.36692	0.28711	0.10752	0.31833	0.21631	0.25196	0.0953	0.1885	0.14736	0.29394	0.20487	0.24029	0.06504	0.11251	-2.7583	-3.0917	-2.8667	-3.3646	-3.1667	-2.9833	-3.5042	-2.9604	-3.1896	-3.3292	-3.0583	-3.3146	-3.0354	-2.9396	-3.5	-3.1021	63.522	1.944	-133.005	83.088	-136.355	-107.820	88.163	148.826	85.845	111.182	168.415	103.016	29.249	-83.812	-1.816	-146.194	0.00051822	0.00033926	0.00011835	1390.6	1.3602e-06	1.7067e-06	1441.9	275.46	2.8701e-06	2.3195e-06	336.54	96.254	76.532	22.147	8.1991e-07	30.533	0.00010813	9.172e-05	2.4656e-05	1307.2	1.1288e-06	1.0069e-06	1349.4	255.05	1.0988e-06	9.6473e-07	309.33	88.96	71.034	20.769	9.1105e-07	28.535	-5.602	-59.458	-50.381	-149.989	-75.687	25.283	-149.886	-143.047	-7.612	-92.837	-143.159	-136.902	-136.314	-129.439	-88.242	-129.739	-8191	255	
8023.713	1	1	0	0	0.11094	0.16459	0.067271	0.11784	0.076779	0.085971	0.093292	0.070129	0.076793	0.049263	0.12089	0.050034	0.19859	0.15036	0.016544	0.086885	-2.6146	-3.1625	-2.8958	-3.4729	-3.0125	-2.95	-3.3542	-3.1646	-2.9542	-3.1417	-3.0875	-3.1437	-3.1854	-2.9875	-3.2979	-3.175	-23.746	199.073	-25.197	-90.791	-100.823	-14.152	191.638	-76.809	38.925	120.188	139.285	-79.301	-140.388	198.228	-130.195	-159.819	0.00052442	0.000154	4.406e-05	1391.7	2.0832e-06	2.8033e-06	1446.2	275.21	2.8746e-06	2.0733e-07	338.51	96.725	76.609	22.032	2.8911e-06	30.78	0.00010306	8.6402e-05	2.4257e-05	1309.8	1.0687e-06	9.9933e-07	1352.1	256.08	1.0725e-06	9.5203e-07	310.48	89.215	71.14	20.794	9.3798e-07	28.634	1.961	-63.835	-76.341	-149.994	-82.040	-0.243	-149.953	-142.893	-56.721	-56.586	-143.217	-136.728	-136.642	-129.249	-41.263	-129.767	-8191	255	
8023.809	1	1	0	0	0.18807	0.087248	0.17046	0.19884	0.071914	0.30062	0.10006	0.30631	0.23529	0.21417	0.10969	0.22066	0.074644	0.27106	0.20052	0.33625	-2.5958	-3.3563	-2.8937	-3.4708	-3.1979	-2.9021	-3.5375	-3.3125	-2.9396	-3.3563	-3.1562	-3.2521	-3.2375	-3.0687	-3.4792	-3.2104	141.849	101.002	85.002	155.955	-150.996	128.299	148.862	132.344	63.708	-15.330	146.080	94.138	-124.734	-63.098	-153.897	133.143	0.00047296	0.0002432	2.7842e-05	1390.6	6.2063e-06	2.4033e-06	1447.9	275.96	5.4682e-06	2.3806e-06	338.64	96.57	76.792	22.332	2.864e-06	30.533	9.6061e-05	8.2111e-05	2.396e-05	1309.5	9.6641e-07	9.1242e-07	1352.4	256.31	9.5367e-07	8.5178e-07	310.03	89.358	71.093	20.808	9.5556e-07	28.603	3.275	-45.932	-13.188	-149.787	-94.350	38.975	-149.924	-143.159	-50.713	15.728	-143.399	-136.862	-136.173	-129.182	13.003	-130.116	-8191	255	
8023.907	1	1	0	0	0.16897	0.11608	0.18833	0.2408	0.22889	0.29573	0.2167	0.11393	0.19858	0.19443	0.077805	0.25174	0.049536	0.077159	0.10485	0.13255	-2.4979	-3.1771	-3.0646	-3.3458	-3.2479	-2.8688	-3.3979	-3.2896	-2.9875	-3.225	-3.1125	-2.9729	-3.3438	-2.9771	-3.3438	-3.3292	85.384	2.784	134.468	141.869	199.002	49.868	154.691	84.433	50.037	-109.560	-70.003	50.122	-80.964	-8.470	29.498	183.121	0.00046943	0.00036279	7.5506e-05	1388.1	2.9413e-07	2.1591e-06	1444.9	275	1.887e-06	3.5529e-06	337.72	96.432	77.178	22.253	2.3663e-06	30.777	9.036e-05	7.8459e-05	2.4618e-05	1307.6	8.9975e-07	8.543e-07	1351	255.19	9.0271e-07	8.3061e-07	310.13	89.23	71.025	20.759	9.6364e-07	28.578	7.213	-63.676	-136.792	-150.002	119.979	-51.630	-149.899	-142.933	-101.332	-41.354	-142.987	-136.715	-136.407	-129.686	5.798	-129.779	-8191	255	
8024.026	1	1	0	0	0.21115	0.098741	0.12153	0.29594	0.16551	0.064816	0.2911	0.26893	0.061396	0.15286	0.15157	0.13371	0.1778	0.12944	0.11107	0.12675	-2.4729	-3.2708	-3.1042	-3.2042	-3.3333	-3.2104	-3.3063	-3.2604	-2.875	-3.3563	-3.1937	-3.0458	-3.4021	-3.0521	-3.2188	-3.4479	-47.478	-67.349	-97.629	156.034	97.432	8.978	193.450	-152.812	112.137	139.937	-5.523	-132.942	26.505	60.261	-138.570	103.440	0.00050208	0.00010807	0.00010084	1387	2.246e-06	1.6809e-06	1446	275.98	4.4795e-07	8.8133e-07	338.62	96.997	77.022	22.278	1.9336e-06	30.796	8.4635e-05	7.6073e-05	2.5175e-05	1306.3	8.5395e-07	8.5982e-07	1351.9	255.12	8.7518e-07	8.4602e-07	310.52	89.19	70.914	20.795	9.7851e-07	28.608	-4.827	-100.114	-133.485	-149.716	-29.286	-51.368	-150.032	-142.868	148.584	-19.078	-143.083	-136.702	-136.400	-129.270	0.932	-129.997	-8191	255	
8024.097	1	1	0	0	0.12746	0.12868	0.079736	0.10295	0.14304	0.17585	0.23384	0.042043	0.19517	0.12622	0.093929	0.14605	0.17608	0.10969	0.097364	0.055172	-2.5292	-3.2292	-3.2396	-3.025	-3.4708	-3.1229	-3.1458	-3.5292	-2.8833	-3.4604	-3.2438	-3.4354	-3.4437	-3.1271	-3.1708	-3.4	71.060	110.626	21.309	156.343	34.267	139.096	197.219	124.480	-96.737	-132.736	-27.850	-19.662	-58.798	185.118	125.251	-153.060	0.0006397	6.177e-05	8.7006e-05	1390	2.3882e-06	4.9971e-06	1443.9	276.82	1.4576e-06	1.4268e-06	339.71	96.804	76.97	22.328	2.6704e-06	30.814	8.2127e-05	8.0083e-05	2.5339e-05	1306.5	8.3161e-07	9.1085e-07	1351.5	255.36	8.5136e-07	9.04e-07	310.89	89.127	70.947	20.9	9.8439e-07	28.552	-7.859	-70.935	-98.155	-149.873	-123.066	-57.248	-150.113	-143.067	-80.007	-83.197	-143.278	-136.891	-136.514	-129.381	28.366	-130.091	-8191	255	
8024.193	1	1	0	0	0.095643	0.11897	0.074881	0.38999	0.066884	0.30322	0.12756	0.39654	0.16617	0.13905	0.093738	0.17903	0.19761	0.071068	0.16614	0.25794	-2.5458	-3.35	-3.2125	-3.0312	-3.2583	-3.1396	-3.2854	-3.2875	-2.9854	-3.3979	-3.3312	-3.1333	-3.4521	-3.1333	-3.1958	-3.4167	25.144	193.243	-62.559	134.045	10.377	156.970	-24.847	127.804	176.394	155.830	56.356	63.826	147.068	108.931	-35.809	59.395	0.00051025	0.00013483	7.3734e-05	1392	3.7418e-06	3.0414e-06	1446.6	277.44	2.7906e-06	1.3341e-06	338.56	97.275	76.852	22.305	2.918e-06	30.809	8.2019e-05	8.6886e-05	2.4403e-05	1305	8.2868e-07	9.6092e-07	1352	255.66	8.3736e-07	9.4767e-07	309.72	89.04	70.902	20.884	8.971e-07	28.476	0.898	-158.232	-48.810	-149.896	-14.498	25.581	-149.934	-143.104	-56.203	-68.741	-143.157	-136.605	-136.384	-129.324	-54.039	-130.107	-8191	255	
8024.314	1	1	0	0	0.23851	0.14426	0.075374	0.4394	0.12701	0.12737	0.16635	0.16819	0.097962	0.15484	0.041022	0.25572	0.28909	0.13363	0.14236	0.19784	-2.6104	-3.3625	-3.1729	-3.1604	-3.3417	-3.1875	-3.4771	-3.375	-3.1833	-3.1458	-3.3208	-3.0771	-3.3063	-3.0917	-2.8958	-3.5979	171.602	-137.271	7.778	195.764	-21.354	-28.181	116.570	196.332	3.967	150.553	-101.940	106.690	182.753	-114.806	-93.441	150.153	0.000606	8.64e-05	0.00010459	1392.8	1.3811e-06	4.1962e-06	1437.5	277.19	2.2851e-06	2.7871e-06	340.12	96.114	76.995	22.335	3.4084e-06	30.607	8.1152e-05	8.825e-05	2.2418e-05	1304.9	8.6118e-07	9.7293e-07	1348.4	255.03	8.9298e-07	9.9608e-07	310.2	88.876	71.004	20.926	9.251e-07	28.43	-2.497	-30.888	-75.045	-149.912	-81.733	30.037	-150.009	-142.976	-107.578	33.975	-142.999	-136.865	-136.352	-129.422	10.663	-129.987	-8191	255	
8024.410	1	1	0	0	0.027548	0.12746	0.10998	0.15733	0.049813	0.1063	0.10272	0.29821	0.13103	0.23199	0.32191	0.069854	0.11788	0.11781	0.20195	0.12477	-2.7333	-3.275	-3.15	-3.2646	-3.4458	-3.0958	-3.2062	-3.4917	-3.1771	-3.3083	-3.4313	-3.0542	-3.3729	-3.2104	-3.1167	-3.5396	160.654	-72.054	64.361	-140.126	98.824	152.271	194.508	108.841	-132.697	-75.901	189.823	43.539	-82.651	166.308	149.310	-89.639	0.00062382	0.00015507	0.00012016	1388.3	4.9588e-06	5.4408e-06	1442.1	276.19	2.3559e-06	3.4283e-06	338.96	97.087	76.382	22.22	2.822e-06	30.678	8.8824e-05	9.0294e-05	2.2471e-05	1302.8	9.2679e-07	9.719e-07	1348.1	254.67	9.4855e-07	9.776e-07	309.61	88.868	70.913	20.768	9.04e-07	28.334	2.795	-54.033	-114.186	-149.732	-83.532	-1.506	-149.567	-142.983	-120.837	29.758	-143.162	-136.756	-136.379	-129.380	-32.137	-130.124	-8191	255	
8024.506	1	1	0	0	0.11119	0.11641	0.12879	0.18757	0.28714	0.11265	0.26139	0.099717	0.34349	0.13448	0.072712	0.29992	0.080922	0.15522	0.008864	0.12076	-2.6437	-3.3667	-3.2104	-3.1521	-3.4083	-3.4146	-3.1771	-3.4875	-3.0271	-3.0896	-3.5563	-2.9625	-3.3208	-3.2771	-2.8979	-3.4708	57.445	145.387	185.833	174.881	55.383	-147.497	95.329	106.744	177.737	56.067	140.528	129.993	-142.704	-63.481	-68.796	92.496	0.00052085	0.00022933	0.00010686	1381.8	7.2417e-07	4.5989e-06	1441.1	275.52	2.7088e-06	4.0898e-06	337.08	95.92	76.211	21.933	9.9961e-07	30.451	9.4721e-05	8.9319e-05	2.2364e-05	1299.6	1.0301e-06	9.7671e-07	1345.8	254.62	1.0492e-06	9.7469e-07	308.89	88.376	70.747	20.589	9.3636e-07	28.177	1.379	-73.493	-97.545	-149.908	18.809	2.388	-150.073	-142.841	-62.388	-55.836	-143.126	-136.453	-136.299	-129.328	-146.430	-129.933	-8191	255	
8024.627	1	1	0	0	0.1266	0.074664	0.2905	0.34319	0.038592	0.3127	0.099232	0.095338	0.054539	0.16872	0.13855	0.1349	0.054441	0.21781	0.31653	0.024343	-2.6437	-3.0438	-3.4042	-3.0125	-3.1146	-3.5312	-2.9125	-3.4313	-3.3375	-3.1479	-3.4833	-2.9771	-3.2771	-3.2479	-2.9521	-3.2583	-76.528	10.493	43.062	139.818	192.668	-8.801	155.008	147.483	60.413	183.192	71.723	-98.541	-93.331	179.118	62.652	139.538	0.00055007	0.00024405	0.00011712	1375.8	2.992e-06	3.4622e-06	1425.7	272.88	1.8636e-06	1.3733e-06	332.69	94.15	75.036	21.529	2.8176e-06	29.939	0.00010369	9.1285e-05	2.3758e-05	1294.7	1.132e-06	9.9265e-07	1333.3	253.15	1.1518e-06	1.0288e-06	305.14	87.351	70.067	20.264	9.9685e-07	27.961	8.154	-96.532	-43.413	-149.898	-87.162	-1.904	-149.893	-143.111	-84.148	-11.764	-142.745	-136.587	-136.410	-129.091	-131.235	-129.727	-8191	255	
8024.699	1	1	0	0	0.13093	0.14982	0.12593	0.22677	0.16839	0.066857	0.23232	0.28397	0.1403	0.091793	0.10308	0.035678	0.18413	0.11772	0.15186	0.19333	-2.5833	-2.9583	-3.3208	-2.9833	-3.3	-3.1979	-3.1271	-3.4208	-3.1646	-3.0208	-3.3729	-3.0104	-3.0958	-3.2958	-2.9042	-3.3396	-7.566	87.116	185.028	79.799	-123.200	25.165	77.550	40.703	43.445	81.780	190.578	-86.951	174.079	169.081	-140.922	155.341	0.00046787	0.00017129	0.00011358	1370.9	2.1225e-06	2.2189e-06	1419.6	270.81	3.0249e-06	2.237e-06	332.28	93.461	74.178	21.675	2.3998e-06	29.757	0.00010828	9.6507e-05	2.4867e-05	1290.2	1.178e-06	1.0245e-06	1328.6	252.65	1.1742e-06	1.0963e-06	304.52	87.282	69.407	20.277	1.1189e-06	27.921	10.203	-47.183	191.644	-149.894	-33.637	-9.144	-149.916	-142.776	-89.713	130.572	-143.306	-136.386	-136.449	-129.174	-76.561	-129.425	-8191	255	
8024.795	1	1	0	0	0.22917	0.21702	0.12216	0.11286	0.2082	0.16952	0.0854	0.17091	0.062184	0.17978	0.30524	0.18761	0.12732	0.017192	0.20092	0.29647	-2.8417	-2.9333	-3.1333	-3.1354	-3.0792	-3.2458	-3.1479	-3.1146	-3.2458	-3.0208	-3.3917	-3.2	-2.9333	-3.4729	-2.8792	-3.1917	-130.449	-45.845	-120.332	-131.157	192.281	112.450	158.518	-64.698	-56.235	11.925	123.182	184.770	51.500	109.465	175.302	189.443	0.00056121	0.00027444	0.00015713	1366.5	4.6047e-06	2.3408e-06	1422.2	271.71	1.2928e-06	2.3842e-06	331.77	93.642	73.971	21.344	1.9066e-06	29.573	0.00011318	0.00010296	2.8002e-05	1289.9	1.2285e-06	1.0967e-06	1331.1	252.8	1.2133e-06	1.1459e-06	305.53	87.282	69.525	20.17	1.2528e-06	27.996	10.547	-128.032	-149.505	-149.978	-57.108	-46.637	-149.800	-143.044	29.948	-23.546	-143.227	-136.723	-136.148	-129.270	17.250	-129.723	-8191	255	
8024.889	1	1	0	0	0.16863	0.13356	0.13955	0.030986	0.24151	0.099497	0.082581	0.10215	0.1795	0.17996	0.32107	0.25609	0.30228	0.19327	0.094437	0.18923	-2.9188	-2.9479	-3.2667	-3.2667	-3.025	-3.3771	-3.2167	-3.2	-3.325	-2.9396	-3.1771	-3.2729	-3.0083	-3.1583	-3.0146	-3.2417	113.626	10.268	-149.213	120.610	-16.567	-105.287	40.275	78.174	120.504	-43.462	165.496	174.778	128.967	195.933	-48.747	20.863	0.00058973	7.6824e-05	8.885e-05	1367.1	3.7707e-06	1.9111e-06	1417.8	271.54	1.9751e-06	3.0481e-06	333.02	93.432	74.606	21.254	7.8872e-07	29.515	0.0001184	0.00011161	3.2944e-05	1294.3	1.3123e-06	1.2112e-06	1335	253.93	1.2912e-06	1.2589e-06	307.91	87.367	69.666	20.197	1.466e-06	28.069	3.909	162.692	-117.058	-149.979	-54.333	-0.047	-150.299	-143.171	-97.293	-41.676	-142.967	-136.564	-136.322	-129.214	-76.095	-129.761	-8191	255	
8025.010	1	1	0	0	0.014524	0.1889	0.1839	0.26458	0.07651	0.25032	0.10094	0.15263	0.11376	0.14306	0.11953	0.12861	0.25272	0.2498	0.19047	0.18487	-2.7979	-2.8333	-3.1437	-3.3417	-2.8021	-3.4271	-3.1958	-3.1958	-3.1979	-3.0875	-3.3187	-3.3896	-2.9708	-3.4271	-3.0208	-3.1562	-1.834	86.792	40.101	164.242	73.479	197.889	100.536	119.219	58.477	30.724	128.570	95.790	124.677	106.985	21.350	105.452	0.00047813	0.00033767	6.3833e-05	1380.6	3.0339e-06	1.3645e-06	1427	270.42	1.6534e-06	3.3809e-06	333.34	94.029	73.708	21.175	3.2393e-06	29.321	0.00012488	0.00012367	3.9112e-05	1304.1	1.4497e-06	1.3785e-06	1346.6	254.4	1.4859e-06	1.5072e-06	312.02	87.923	69.776	20.285	1.8422e-06	28.02	6.148	17.406	-80.811	-149.871	-85.693	-74.968	-149.858	-142.890	58.235	189.227	-143.228	-136.905	-136.164	-129.445	60.097	-129.986	-8191	255	
8025.106	1	1	0	0	0.27218	0.17772	0.13908	0.23413	0.04854	0.060711	0.13418	0.044373	0.11918	0.17052	0.23589	0.16957	0.33642	0.11361	0.18212	0.29746	-2.9625	-3.1354	-3.2396	-3.4896	-2.7979	-3.3521	-3.2625	-3.1542	-3.3875	-3.2333	-3.2208	-3.4521	-2.9833	-3.25	-3.2271	-3.1458	117.295	-46.277	-99.013	133.656	36.337	50.478	-156.353	-149.443	1.385	-38.016	154.316	176.166	192.730	-150.941	-137.525	142.427	0.00035806	0.0014132	0.00018384	1387.6	7.2744e-06	2.0826e-06	1438.2	271.41	6.459e-06	1.3963e-06	333.27	93.155	74.478	21.127	4.4062e-06	29.307	0.00014442	0.00015319	4.6393e-05	1314.6	1.5799e-06	1.6279e-06	1355.4	255.39	1.5751e-06	1.7346e-06	313.33	87.836	70.162	20.358	1.9191e-06	28.067	-1.372	-73.869	-137.216	-149.979	10.452	73.632	-149.836	-143.162	-41.385	170.393	-142.929	-136.445	-136.336	-129.087	-30.965	-129.784	-8191	255	
8025.202	1	1	0	0	0.063754	0.21614	0.32654	0.22561	0.25947	0.064902	0.1676	0.054093	0.19373	0.058511	0.17499	0.21011	0.079745	0.042044	0.025516	0.14893	-3.0104	-2.8708	-3.0875	-3.6208	-2.85	-3.3125	-3.3708	-2.9521	-3.2917	-3.2313	-3.1854	-3.3667	-2.9437	-3.2812	-3.1708	-2.9188	194.993	195.972	1.095	176.399	-64.451	129.052	152.484	-27.438	168.662	-12.469	181.739	190.034	130.448	-41.709	72.851	91.850	0.00039372	0.00034336	7.2615e-05	1388.6	5.3826e-06	2.4484e-06	1437.4	271.21	4.2345e-06	1.6431e-06	335.37	92.827	73.926	21.142	1.916e-06	29.217	0.00014945	0.00017038	4.9584e-05	1318.1	1.678e-06	1.8876e-06	1361.1	255.94	1.6806e-06	1.969e-06	313.9	87.918	70.193	20.582	1.9291e-06	28.095	-14.093	-125.526	12.555	-149.996	-62.517	-17.402	-150.022	-142.857	-120.672	-122.126	-143.099	-136.631	-136.425	-129.119	-48.203	-129.863	-8191	255	
8025.298	1	1	0	0	0.096358	0.010031	0.19521	0.25225	0.15058	0.082306	0.39563	0.24133	0.23961	0.098256	0.14127	0.25431	0.16875	0.1496	0.15972	0.012599	-3.0563	-3.0979	-3.0479	-3.5458	-2.8396	-3.325	-3.4208	-3.0042	-3.2625	-3.0625	-3.2125	-3.4375	-2.85	-3.3271	-3.2771	-3.0812	-100.333	-131.348	0.623	162.876	-131.027	18.520	138.513	69.787	104.034	-49.668	158.609	127.611	120.529	95.441	197.540	-45.751	0.00039404	0.00026691	0.00018375	1400.2	2.6041e-06	1.4069e-06	1443.7	272.95	3.5147e-06	3.6326e-06	334.99	93.228	74.021	21.112	5.34e-06	29.047	0.00016108	0.00018652	4.9666e-05	1324.9	1.8126e-06	2.102e-06	1364.6	256.73	1.8316e-06	2.1265e-06	314.37	88.101	70.603	20.704	1.9312e-06	28.164	-0.490	-37.134	-104.668	-149.883	-113.654	-125.981	-150.065	-142.987	193.226	-11.367	-143.095	-136.756	-136.474	-129.086	-27.650	-129.925	-8191	255	
8025.394	1	1	0	0	0.20065	0.27359	0.092116	0.39041	0.069705	0.21554	0.10612	0.13768	0.20172	0.039183	0.24413	0.14592	0.21885	0.099314	0.05183	0.15963	-2.9188	-3.0646	-2.9583	-3.4625	-2.9583	-3.2354	-3.6708	-3.0312	-3.4688	-3.2625	-2.9437	-3.5271	-3.1375	-3.2125	-3.1792	-3.0125	-13.328	31.830	-53.292	112.261	31.658	52.201	124.415	97.428	-55.548	-62.493	108.937	160.395	187.722	150.151	-62.848	-50.116	0.00058464	0.00033571	8.0543e-05	1402.8	3.5751e-06	1.9457e-06	1444	272.5	9.73e-07	4.7723e-06	335.06	93.897	73.906	21.161	4.0717e-06	29.661	0.00017687	0.00019871	5.0468e-05	1330.9	2.03e-06	2.1824e-06	1368.8	257.85	2.0376e-06	2.1595e-06	315.04	88.733	71.148	20.742	1.9132e-06	28.282	-7.168	184.809	-77.321	-149.917	-129.585	103.490	-150.002	-143.223	-82.244	-28.139	-143.200	-136.705	-136.095	-129.027	-108.883	-129.863	-8191	255	
8025.491	1	1	0	0	0.26799	0.015016	0.089053	0.29338	0.17393	0.18332	0.1861	0.18453	0.15647	0.24899	0.10611	0.15286	0.073796	0.14108	0.14672	0.33899	-2.925	-3.05	-3.0438	-3.5021	-3.0458	-3.15	-3.525	-3.025	-3.3604	-3.3083	-2.9958	-3.4458	-3.0125	-3.0229	-3.2896	-2.9458	30.509	14.232	78.533	108.497	151.092	34.399	102.454	61.850	-27.543	22.350	-74.295	184.205	-103.373	199.200	-86.241	126.623	0.00053767	0.00028685	0.0001664	1402	4.7484e-06	3.3229e-06	1446.1	273.36	1.9277e-06	2.4696e-06	336.47	93.165	73.627	21.044	2.8995e-06	29.348	0.0001955	0.00019293	4.9272e-05	1331.4	2.1684e-06	2.1078e-06	1368.3	257.91	2.171e-06	2.059e-06	314.34	88.395	71.243	20.626	1.9016e-06	28.388	11.064	-40.371	-64.326	-150.178	-111.149	86.478	-150.033	-142.746	172.407	-10.064	-142.994	-136.519	-136.622	-129.389	-47.096	-129.949	-8191	255	
8025.587	1	1	0	0	0.30497	0.16219	0.088667	0.08313	0.0963	0.18185	0.18023	0.035706	0.094466	0.22798	0.13887	0.24984	0.10067	0.17204	0.15521	0.26043	-2.8187	-3.3187	-2.9688	-3.4958	-3.125	-2.9813	-3.5458	-3.2104	-3.3417	-3.4604	-3.125	-3.3271	-3.2583	-3.0604	-3.2396	-2.8688	8.669	196.077	99.782	-158.029	-158.317	-52.273	169.896	-102.353	-74.001	-150.171	-103.283	-107.227	121.663	169.871	146.121	149.919	0.00044414	0.00059239	2.2685e-05	1403	3.0678e-06	1.7687e-06	1447	273.56	4.6978e-06	5.4198e-06	335.41	92.993	73.739	21.158	3.8353e-06	29.276	0.00021007	0.0001915	5.041e-05	1334	2.3377e-06	2.1462e-06	1370.5	259.11	2.3876e-06	2.1307e-06	314.61	89.126	71.395	20.705	2.0048e-06	28.707	-0.248	-48.572	157.865	-149.931	51.459	-25.151	-149.839	-143.166	-10.026	-90.760	-143.549	-136.846	-136.478	-129.192	-10.768	-129.759	-8191	255	
8025.707	1	1	0	0	0.11273	0.11299	0.12584	0.24693	0.2095	0.10365	0.42369	0.30528	0.1096	0.040566	0.046282	0.28305	0.45198	0.22593	0.10268	0.017011	-2.7188	-3.3396	-2.9062	-3.3042	-3.1917	-3.1271	-3.6437	-3.1375	-3.1125	-3.4	-2.9646	-3.4479	-3.2625	-3.0417	-3.2417	-3.2083	-41.528	60.312	-111.746	187.023	144.899	-22.356	96.428	178.355	-75.418	-95.623	125.900	-113.174	164.035	60.617	126.116	178.237	0.0005597	0.00026269	8.0269e-05	1407.7	2.7657e-06	5.6753e-06	1453.4	274.43	5.7035e-07	3.9381e-06	336.91	93.873	74.07	20.951	1.5463e-06	29.181	0.0002222	0.00019538	5.3439e-05	1340.8	2.4082e-06	2.223e-06	1374.5	260.9	2.4051e-06	2.1343e-06	315.69	89.893	71.405	20.595	2.0144e-06	28.73	21.514	-26.967	-109.237	-150.215	-38.507	-38.356	-149.880	-143.055	157.614	-23.547	-143.023	-137.085	-136.376	-129.509	-57.316	-129.570	-8191	255	
8025.803	1	1	0	0	0.30986	0.082604	0.16163	0.39483	0.05461	0.20999	0.36781	0.37323	0.13529	0.3317	0.10167	0.12787	0.10666	0.045584	0.040157	0.088219	-2.6979	-3.2854	-2.8646	-3.6646	-3.0521	-3.0542	-3.5646	-3.1562	-3.1688	-3.4542	-2.8979	-3.3604	-3.3021	-2.9479	-3.3083	-3.0167	-37.133	-137.480	-56.078	124.794	90.823	-108.358	150.163	104.648	158.035	107.755	71.925	-156.869	60.107	44.262	-130.287	87.526	0.00048684	9.4919e-05	0.00012375	1408.5	2.8046e-06	2.2591e-06	1446	273.12	1.7151e-06	4.6586e-06	334.39	93.445	74.133	21.086	1.9553e-06	29.477	0.00020994	0.00018579	5.215e-05	1343.1	2.1992e-06	2.0391e-06	1372	260.34	2.1934e-06	1.9893e-06	315.6	89.698	70.992	20.631	2.1051e-06	28.834	-24.810	-63.611	151.417	-150.034	-48.414	4.651	-150.165	-143.258	-37.309	-1.788	-142.915	-136.828	-136.526	-129.303	183.334	-130.044	-8191	255	
8025.898	1	1	0	0	0.035296	0.070156	0.22328	0.055268	0.26209	0.26594	0.17517	0.35179	0.23098	0.22929	0.11657	0.16516	0.13435	0.076536	0.12149	0.10303	-2.5458	-3.3417	-2.7958	-3.2958	-3.2729	-2.9417	-3.3708	-3.1437	-2.9729	-3.2375	-2.9104	-3.1458	-3.3417	-3.0979	-3.3458	-3.125	38.694	197.790	-6.232	64.510	90.955	-105.183	130.040	134.931	181.118	41.199	136.711	-31.101	72.457	165.135	-4.483	12.423	0.00055013	0.00026758	2.5786e-05	1410.2	8.4677e-07	2.543e-06	1458.4	274.07	6.2975e-06	2.4264e-06	337.32	93.432	74.267	20.996	2.4181e-06	29.635	0.00020181	0.00018302	5.517e-05	1343.6	2.1329e-06	2.051e-06	1378.6	261.01	2.1535e-06	1.9499e-06	317.28	89.651	70.91	20.58	2.2311e-06	28.755	8.508	-62.828	173.238	-149.977	20.481	40.800	-150.005	-143.150	-11.132	6.259	-142.964	-136.657	-136.577	-129.170	181.598	-129.820	-8191	255	
8025.996	1	1	0	0	0.26106	0.13207	0.19396	0.14802	0.35238	0.16394	0.29393	0.28512	0.1804	0.17417	0.097744	0.017998	0.11311	0.24453	0.010944	0.27672	-2.6437	-3.4375	-3.1125	-3.3979	-3.2396	-2.9792	-3.3688	-3.2188	-2.9146	-3.3854	-3.0271	-3.0833	-3.3229	-2.7562	-3.0292	-3.2229	138.085	-22.631	-136.259	88.868	-77.637	191.938	74.238	69.423	-38.893	-104.869	136.649	-26.324	-79.321	-149.054	179.140	124.758	0.00039511	0.00016094	0.00011393	1406.1	3.996e-06	1.9895e-06	1452.6	274.42	3.7952e-06	3.408e-06	334.65	93.577	74.055	20.977	3.1695e-06	29.468	0.00019525	0.00018075	5.9011e-05	1342.7	2.0856e-06	2.0717e-06	1380.5	261.16	2.1591e-06	2.0592e-06	317.91	89.628	71.05	20.67	2.415e-06	28.727	-8.763	-91.840	-143.740	-149.820	41.628	-87.221	-149.962	-143.174	-38.336	4.100	-143.388	-136.528	-136.309	-129.634	-75.739	-129.820	-8191	255	
8026.090	1	1	0	0	0.17238	0.31373	0.15682	0.16262	0.15553	0.12827	0.094308	0.24973	0.083956	0.14271	0.16754	0.12362	0.049371	0.17797	0.12017	0.23899	-2.4021	-3.1917	-3.1125	-3.2792	-3.2167	-2.8896	-3.3187	-3.2521	-2.7646	-3.3604	-3.2375	-2.9813	-3.3271	-2.9583	-2.9354	-3.3271	-4.934	-144.668	43.071	161.374	-43.617	50.638	138.569	149.779	-1.694	44.888	163.179	120.772	-52.825	145.421	15.185	81.512	0.00047835	0.00036663	0.00015026	1410.8	3.207e-06	3.7402e-06	1456.5	273.98	5.0473e-06	2.5842e-06	335.34	93.581	74.067	21.098	2.0696e-06	29.398	0.00019765	0.00018935	6.1673e-05	1344.7	2.0223e-06	2.1215e-06	1383	259.55	2.0323e-06	2.0901e-06	317.79	89.251	70.677	20.703	2.3284e-06	28.509	11.925	145.370	-149.192	-149.950	-60.601	-57.338	-149.998	-143.118	-120.812	-122.954	-143.036	-136.698	-136.260	-129.226	-3.594	-129.362	-8191	255	
8026.186	1	1	0	0	0.15974	0.06118	0.077091	0.15119	0.10896	0.094107	0.14223	0.26214	0.26225	0.0069434	0.07789	0.067702	0.13598	0.22404	0.15722	0.42286	-2.35	-3.3333	-2.9	-3.1562	-3.3375	-2.8125	-3.2979	-3.2417	-3.0229	-3.2938	-3.1521	-3.0833	-3.3292	-3.0438	-2.9708	-3.2854	120.720	5.752	-9.614	103.330	126.307	86.219	-126.829	171.751	155.058	-57.481	49.073	38.209	51.125	-100.977	-55.998	-111.071	0.00045961	0.0001844	0.00014404	1413.6	3.1125e-06	3.1448e-06	1460.1	273.05	5.2217e-06	1.6866e-06	337.36	93.437	73.801	21.093	1.5552e-06	29.416	0.00018569	0.00019545	5.8749e-05	1342.6	1.9149e-06	2.1857e-06	1382.8	259.26	1.9856e-06	2.2306e-06	317.62	89.128	70.601	20.818	2.2643e-06	28.482	5.147	190.041	-155.288	-150.047	51.169	-92.150	-149.913	-142.990	-56.114	189.740	-143.096	-136.526	-136.430	-129.470	64.876	-129.699	-8191	255	
8026.307	1	1	0	0	0.071362	0.13789	0.037912	0.14864	0.071296	0.087877	0.12216	0.19126	0.15179	0.18749	0.13901	0.2453	0.19584	0.29298	0.097557	0.039436	-2.6292	-3.1521	-3.1312	-3.2833	-3.3229	-3.0417	-3.1813	-3.5979	-2.9062	-3.0563	-3.3	-2.9375	-3.2917	-3.2833	-3.0708	-3.4875	136.924	86.129	-76.130	151.292	-4.234	42.332	-138.380	-26.006	2.316	56.080	9.309	146.150	-79.511	153.433	26.059	26.680	0.00039085	0.00045638	0.00017298	1407.8	5.4967e-06	4.9299e-07	1459.4	273.57	3.0113e-06	1.2114e-06	337.51	93.484	74.315	21.176	4.503e-06	29.356	0.00018605	0.00020888	5.6465e-05	1341	1.9565e-06	2.319e-06	1382.2	259.01	2.0192e-06	2.3213e-06	317.17	88.9	71.05	20.851	2.0875e-06	28.341	6.259	198.859	-111.475	-150.057	-115.003	160.397	-149.979	-143.066	-143.088	-159.279	-143.145	-136.831	-136.212	-129.318	-8.766	-129.660	-8191	255	
8026.403	1	1	0	0	0.10129	0.20513	0.11083	0.29951	0.22605	0.35794	0.16651	0.21105	0.21787	0.14774	0.044179	0.14152	0.068564	0.26824	0.047305	0.1586	-2.5938	-3.2083	-2.9229	-3.0458	-3.2646	-3.1063	-3.1813	-3.2708	-2.9083	-3.1917	-3.4562	-3.0125	-3.2625	-3.0458	-2.9813	-3.275	-68.170	116.670	-148.028	198.404	-95.456	-10.622	-111.380	-33.509	76.257	150.546	86.221	82.699	166.297	-131.738	79.133	-113.920	0.00053283	0.00015671	9.1907e-05	1406.6	1.5481e-06	1.8617e-06	1447.5	273.81	4.5405e-06	1.0664e-06	335.5	93.279	73.818	20.954	2.4649e-06	29.25	0.00018424	0.00020085	5.0107e-05	1336	1.9159e-06	2.1325e-06	1370.1	256.64	1.9023e-06	2.0237e-06	312.15	87.654	70.139	20.385	1.7166e-06	27.772	1.646	16.304	-90.794	-149.862	95.239	-6.205	-150.145	-143.032	-120.780	-9.338	-143.237	-136.861	-136.354	-128.954	-10.942	-129.843	-8191	255	
8026.499	1	1	0	0	0.058919	0.037963	0.21273	0.23938	0.24554	0.13305	0.23745	0.076879	0.075597	0.13193	0.11865	0.21153	0.22972	0.011897	0.2188	0.12869	-2.6354	-2.9917	-3.2979	-3.0604	-3.5062	-3.2417	-3.0854	-3.325	-3.0667	-3.1583	-3.4646	-2.9083	-3.0875	-3.1562	-2.9771	-3.3604	150.561	41.652	62.768	186.507	80.298	72.099	181.618	137.598	197.887	115.142	33.074	133.325	-119.916	19.385	-27.497	-12.840	0.0006126	0.00043288	8.9332e-05	1397.1	4.369e-06	1.4019e-06	1437.2	270.19	3.4266e-06	2.2082e-06	331.91	92.138	73.316	20.912	4.0549e-06	28.906	0.00016727	0.00016598	4.0834e-05	1317.8	1.7476e-06	1.7309e-06	1353.5	252.95	1.7232e-06	1.6467e-06	307.2	86.42	69.492	20.059	1.4099e-06	27.392	-9.775	-73.046	-133.483	-149.980	-111.273	48.047	-149.959	-142.866	-134.198	-30.409	-142.921	-136.784	-136.347	-129.455	-59.368	-129.885	-8191	255	
8026.595	1	1	0	0	0.0624	0.097908	0.22438	0.2727	0.30296	0.26602	0.28053	0.1051	0.2323	0.18798	0.14366	0.1072	0.10238	0.17319	0.10105	0.081712	-2.5167	-3.1437	-3.3063	-3.0042	-3.1708	-3.0729	-3.0833	-3.3479	-3.1417	-3.0354	-3.5021	-3.1271	-3.2604	-3.3771	-2.9708	-3.4021	-88.114	-64.634	-101.143	-140.281	67.236	-58.534	134.203	149.600	-135.706	195.016	-122.505	161.592	-126.416	138.333	80.480	-151.632	0.00045706	0.0001822	9.7358e-05	1377.8	8.4641e-07	3.2419e-06	1424.5	268.08	3.8285e-06	3.5397e-06	329.54	92.082	72.99	20.775	2.6032e-06	29.043	0.00014727	0.00013344	3.3496e-05	1298.8	1.544e-06	1.3738e-06	1335.6	249.55	1.5086e-06	1.3606e-06	303.91	85.938	68.996	19.843	1.297e-06	27.386	2.574	-96.074	-53.133	-150.141	48.026	-22.183	-149.888	-143.045	-66.525	-26.642	-143.080	-136.573	-136.146	-128.922	-57.901	-129.898	-8191	255	
8026.667	1	1	0	0	0.096211	0.16647	0.27061	0.28007	0.11575	0.19309	0.16628	0.20151	0.069742	0.10321	0.19373	0.23157	0.14254	0.12094	0.10757	0.21319	-2.7792	-3.05	-3.4813	-3.0583	-3.2479	-3.3875	-3.1437	-3.2917	-3.0917	-3.0333	-3.5458	-3.2354	-3.2333	-3.3604	-3.1104	-3.4083	13.406	-139.081	179.745	-160.971	137.651	71.210	185.774	148.748	172.429	60.556	62.457	-158.564	198.180	-75.390	100.315	-47.301	0.00049915	0.00035507	9.3339e-05	1371.3	2.6305e-06	2.761e-06	1421.3	266.9	3.7156e-06	1.9101e-06	328.39	91.767	72.961	20.838	3.6032e-06	28.966	0.00014148	0.00012616	3.232e-05	1295.7	1.5266e-06	1.3512e-06	1332.3	250.31	1.5362e-06	1.4148e-06	304.13	86.424	69.007	19.935	1.3843e-06	27.588	-5.263	-76.260	-118.932	-150.119	-44.388	-0.887	-149.952	-143.187	6.850	78.208	-142.700	-136.623	-136.537	-128.967	33.557	-129.978	-8191	255	
8026.786	1	1	0	0	0.26006	0.44521	0.21811	0.25955	0.11121	0.15569	0.24056	0.21493	0.13413	0.17146	0.04725	0.095702	0.17333	0.28178	0.25109	0.040796	-2.8688	-2.9188	-3.2646	-3.1979	-3.0792	-3.2438	-3.0687	-3.2458	-3.2583	-3.0375	-3.2604	-3.0417	-3.2042	-3.4042	-2.9604	-3.2583	0.847	-13.761	7.353	145.485	-52.729	-92.546	-8.638	146.476	103.266	195.697	130.369	79.542	-143.281	43.911	-82.728	-30.657	0.00043108	2.342e-05	7.3026e-05	1370.7	3.4275e-06	1.7029e-06	1418.4	268.8	4.6551e-06	1.4164e-06	329.79	91.949	72.923	20.889	2.4198e-06	29.178	0.00014782	0.0001339	3.5219e-05	1298	1.6187e-06	1.4388e-06	1335.3	251.94	1.5808e-06	1.4704e-06	305.81	86.948	69.202	20.009	1.5133e-06	27.878	7.063	-24.041	-132.423	-149.994	-25.975	18.111	-150.185	-143.018	-72.049	-22.234	-143.085	-136.429	-136.247	-129.454	-75.874	-129.793	-8191	255	
8026.882	1	1	0	0	0.23406	0.12965	0.2161	0.22658	0.30491	0.03585	0.27062	0.1482	0.094295	0.10712	0.094878	0.15846	0.19947	0.22701	0.36922	0.19106	-2.8063	-2.8792	-3.3896	-3.3125	-2.8708	-3.5125	-3.25	-3.2125	-3.2062	-2.9792	-3.4729	-3.05	-3.1083	-3.4292	-2.9958	-3.325	1.541	-111.530	63.760	117.073	10.084	-79.740	192.179	-143.364	-121.725	-93.312	-145.507	-106.509	166.303	-111.888	-87.361	-123.492	0.00041078	0.00057355	0.0001055	1378.8	4.9918e-06	2.9161e-06	1429	267.56	3.4276e-06	2.1237e-06	332.26	92.437	73.164	20.955	1.8456e-06	29.233	0.00014909	0.00013634	3.8444e-05	1306.2	1.5684e-06	1.438e-06	1343	252.45	1.5075e-06	1.4523e-06	307.91	87.032	69.263	20.079	1.6287e-06	27.855	-10.589	-63.182	-119.742	-150.015	-30.178	-18.585	-149.819	-142.725	-23.690	-67.356	-142.835	-136.638	-136.418	-129.262	-61.757	-129.753	-8191	255	
8026.978	1	1	0	0	0.070714	0.23767	0.10263	0.29592	0.049867	0.084654	0.17492	0.27372	0.18122	0.16329	0.27563	0.0081134	0.15755	0.10007	0.14111	0.27823	-2.7792	-2.9708	-3.3187	-3.3583	-2.8729	-3.4083	-3.2521	-3.0833	-3.1833	-2.8979	-3.3375	-3.3479	-2.9542	-3.4792	-2.9354	-3.1	23.829	1.984	36.056	122.789	181.396	101.949	146.836	150.160	65.832	179.180	194.194	98.310	6.028	100.377	-143.073	124.082	0.00045071	0.00029267	6.9633e-05	1377.2	2.1593e-06	1.0544e-06	1430.3	268.47	5.4398e-06	2.081e-06	333.67	92.413	73.741	21.083	2.6644e-06	29.267	0.00014405	0.00013652	4.2196e-05	1308	1.5742e-06	1.4351e-06	1348.6	252.99	1.5254e-06	1.4965e-06	309.81	87.135	69.655	20.138	1.8333e-06	27.987	5.442	-67.119	-133.033	-150.009	-17.984	-66.446	-150.021	-143.024	-10.876	-51.230	-143.056	-137.020	-136.241	-129.108	-92.332	-129.923	-8191	255	
8027.074	1	1	0	0	0.21745	0.35838	0.2416	0.3011	0.066032	0.29561	0.085575	0.051238	0.20871	0.10786	0.066494	0.18087	0.057542	0.21666	0.031136	0.069086	-2.9229	-2.8167	-3.2729	-3.2271	-2.7375	-3.4062	-3.3708	-3.1021	-3.4208	-2.7354	-3.3292	-3.2083	-3.0583	-3.2229	-3.1708	-2.9708	-100.660	-71.940	28.177	167.666	18.612	1.073	123.877	82.035	-73.632	157.412	-133.969	-117.861	18.247	165.674	9.389	97.171	0.00045125	0.00032329	0.00010754	1392	3.307e-08	1.4887e-07	1452	272.04	1.5201e-06	4.1257e-06	335.83	93.897	74.347	21.374	2.4804e-06	29.79	0.00015108	0.00015366	4.9426e-05	1319.9	1.7556e-06	1.7167e-06	1370.4	257.03	1.7632e-06	1.8499e-06	316.67	88.831	71.117	20.776	2.1702e-06	28.627	8.999	166.550	-150.250	-149.799	-12.392	168.814	-149.917	-143.097	107.860	-58.553	-143.363	-136.908	-136.549	-129.564	-23.637	-129.747	-8191	255	
8027.195	1	1	0	0	0.019689	0.1909	0.12212	0.27404	0.044871	0.12161	0.11894	0.23847	0.20057	0.097032	0.13245	0.067712	0.11333	0.27828	0.13895	0.27911	-3.0208	-2.9104	-3.25	-3.4125	-2.8604	-3.3583	-3.3438	-3.05	-3.3042	-2.8021	-3.0729	-3.3604	-2.9375	-3.3083	-3.0604	-3.0167	-160.258	192.805	-146.537	177.434	18.682	-94.383	136.844	126.409	165.151	-84.948	-139.432	-52.536	140.250	92.396	140.086	106.628	0.00034459	0.00059815	0.00012498	1418.9	2.4359e-06	1.5562e-06	1471.1	275.4	5.7218e-06	2.1633e-06	340	94.314	75.556	21.672	5.8492e-06	29.806	0.00016832	0.00018207	5.511e-05	1347.2	1.8554e-06	1.9755e-06	1395.6	260.78	1.7952e-06	2.0499e-06	320.18	89.611	71.915	21.089	2.1735e-06	28.796	4.066	178.669	-22.217	-150.119	18.687	-11.715	-149.977	-142.961	-127.447	18.449	-143.152	-136.901	-136.556	-129.381	-31.527	-130.317	-8191	255	
8027.267	1	1	0	0	0.26518	0.099006	0.23947	0.26022	0.26299	0.11201	0.097565	0.15692	0.32699	0.11492	0.23348	0.019745	0.044099	0.20467	0.15239	0.22196	-3.0375	-3.0375	-2.9708	-3.5042	-2.9437	-3.25	-3.4375	-3.0687	-3.1521	-3.0312	-3.2167	-3.3646	-2.8479	-3.2625	-3.2062	-3.0333	100.397	-145.653	-14.824	159.462	193.430	-135.678	-119.881	-52.328	150.336	160.650	-148.442	-69.084	51.323	-110.793	-142.296	107.207	0.00044609	0.00020694	7.3176e-05	1436.9	1.9945e-06	2.9643e-06	1488.3	280.18	3.5344e-06	5.5234e-06	342.77	95.559	75.989	21.9	3.7236e-06	30.285	0.00017316	0.00020204	5.5646e-05	1360.2	1.9379e-06	2.1911e-06	1407.2	263.84	1.8819e-06	2.2174e-06	322	90.209	72.625	21.419	2.1093e-06	28.942	6.593	-97.395	-66.007	-150.137	-20.368	-145.237	-150.030	-142.874	-52.021	-85.108	-143.136	-137.174	-136.414	-129.627	-22.247	-130.130	-8191	255	
8027.387	1	1	0	0	0.25159	0.2024	0.21571	0.13483	0.16099	0.14377	0.18199	0.034841	0.18709	0.0068517	0.2645	0.079867	0.10396	0.05079	0.13688	0.11414	-2.7979	-2.9813	-2.9313	-3.6854	-3.0167	-3.1771	-3.5771	-2.9396	-3.3104	-3.1708	-3.1542	-3.575	-3.15	-3.2812	-3.2417	-3.0271	32.583	-24.532	-20.819	181.150	140.520	-156.258	106.122	-72.649	-114.531	-66.131	117.070	43.345	71.330	-34.520	155.118	89.448	0.00042881	0.00013101	7.0705e-05	1443.9	1.395e-06	4.7637e-06	1489.6	281	1.29e-06	1.1304e-06	343	95.988	76.396	22.032	2.1936e-07	30.081	0.00018163	0.0002056	5.3063e-05	1368.3	2.0083e-06	2.2498e-06	1411.1	264.71	2.021e-06	2.283e-06	322.94	90.67	73.298	21.502	2.028e-06	29.008	1.137	-71.727	-124.144	-149.959	-17.518	-20.498	-150.114	-143.240	-110.643	91.376	-143.072	-137.000	-136.479	-129.507	-73.744	-130.109	-8191	255	
8027.483	1	1	0	0	0.15859	0.22769	0.27796	0.062734	0.14385	0.21297	0.16558	0.24505	0.26754	0.19436	0.25039	0.28715	0.26425	0.39602	0.088191	0.17597	-2.7979	-3.1917	-2.8833	-3.6354	-3.0229	-3.0604	-3.6188	-2.9813	-3.2833	-3.0875	-3.1375	-3.3917	-3.0771	-3.0458	-3.2083	-2.9938	163.060	83.960	131.715	141.361	8.035	83.472	154.906	177.740	39.437	14.479	138.839	113.488	145.658	-100.980	-45.144	66.354	0.00044559	0.00046574	5.2555e-05	1445.9	4.5575e-06	1.09e-06	1497.1	281.14	1.0733e-06	3.9296e-06	344.41	95.996	76.446	21.736	2.4094e-06	30.044	0.00019758	0.00020454	5.2023e-05	1371.1	2.1608e-06	2.2527e-06	1414.6	265.15	2.1823e-06	2.2185e-06	322.69	90.855	73.752	21.388	2.004e-06	29.032	-7.946	-97.287	-59.968	-149.928	-67.921	41.009	-150.026	-143.285	-74.509	37.866	-143.253	-137.151	-136.534	-129.331	18.752	-129.957	-8191	255	
8027.580	1	1	0	0	0.20887	0.31478	0.045609	0.13897	0.21665	0.088133	0.38655	0.068878	0.029686	0.3228	0.26395	0.11115	0.10022	0.19081	0.174	0.098262	-2.8063	-3.1688	-3.0958	-3.4167	-3.0625	-3.1021	-3.4771	-3.0958	-3.2062	-3.3021	-3.1917	-3.4229	-3.0312	-3.2167	-3.3583	-2.9667	122.088	-43.347	-11.953	177.398	166.758	-128.350	72.217	19.867	-9.849	-106.124	193.172	192.727	197.650	148.803	-146.408	-31.385	0.00045022	0.00030174	7.3156e-05	1447.4	4.767e-06	5.1882e-07	1501.4	281.77	2.4102e-06	4.4518e-06	344.9	96.339	76.598	21.997	1.7678e-06	30.274	0.0002087	0.00019811	5.1479e-05	1372.8	2.2947e-06	2.142e-06	1416.6	266.19	2.3279e-06	2.1436e-06	323.31	91.101	73.848	21.425	1.9719e-06	29.218	-7.387	-89.609	-60.590	-150.089	170.952	196.131	-150.105	-142.984	-129.577	-87.841	-143.476	-136.839	-136.513	-129.567	96.943	-130.259	-8191	255	
8027.676	1	1	0	0	0.14142	0.12194	0.05551	0.26219	0.11033	0.24732	0.097432	0.24418	0.26536	0.29786	0.25075	0.25677	0.065383	0.1967	0.13318	0.31964	-2.8021	-3.0708	-2.8021	-3.5687	-3.1729	-2.9583	-3.4125	-3.0542	-3.1521	-3.3438	-2.8729	-3.2292	-3.175	-2.9896	-3.5375	-2.9188	-92.722	-7.662	50.804	173.861	11.955	-4.613	77.018	106.447	-8.443	54.615	159.927	-52.491	21.229	-147.232	186.395	139.153	0.00035818	0.00029529	0.00019691	1449.8	4.0276e-07	3.4411e-06	1496.2	282.02	2.2546e-06	7.1368e-06	346.18	95.497	76.68	21.914	3.0837e-06	30.278	0.00021944	0.00019254	5.1204e-05	1377.6	2.3606e-06	2.1209e-06	1418.2	267.78	2.373e-06	2.0943e-06	323.96	91.891	73.936	21.453	1.9822e-06	29.413	12.418	-82.273	-116.794	-150.092	77.251	-32.419	-150.212	-143.248	23.062	-15.983	-143.193	-136.984	-136.574	-129.349	17.199	-130.328	-8191	255	
8027.796	1	1	0	0	0.20476	0.26801	0.097629	0.31019	0.031535	0.038193	0.10371	0.16884	0.4392	0.0304	0.12165	0.1336	0.17621	0.33521	0.28446	0.1248	-2.8312	-3.2521	-2.9167	-3.5208	-3.0312	-2.95	-3.5708	-3.1021	-3.2687	-3.3229	-3.0979	-3.2292	-3.3125	-2.9604	-3.1875	-3.0458	-30.759	-14.497	-126.905	176.682	-156.026	171.149	159.988	35.725	-142.775	-31.839	58.326	-5.674	-124.236	173.270	58.046	-44.590	0.00045674	0.00018669	0.00010588	1450.4	1.8159e-06	1.8994e-06	1500.2	282.35	4.6175e-06	1.8011e-06	345.84	95.868	76.219	21.863	2.5476e-06	30.244	0.00021573	0.00018812	5.1613e-05	1382.3	2.2956e-06	2.1162e-06	1418.6	269.17	2.3255e-06	2.0392e-06	324.45	92.002	73.677	21.366	2.0258e-06	29.553	2.827	-96.183	-123.943	-150.148	91.441	7.080	-150.127	-143.252	-74.816	74.035	-143.155	-136.807	-136.340	-129.675	-113.821	-130.096	-8191	255	
8027.868	1	1	0	0	0.20729	0.16231	0.131	0.35863	0.10526	0.19207	0.29905	0.12279	0.12795	0.10936	0.28307	0.15926	0.1976	0.11667	0.16145	0.15236	-2.6479	-3.1542	-2.9396	-3.4375	-3.2313	-3.0083	-3.4313	-3.225	-2.9896	-3.325	-3.1937	-3.1521	-3.2542	-2.8563	-3.3604	-3.2854	105.772	142.422	-90.215	135.471	-3.482	54.812	85.676	-30.959	-140.395	-146.401	-156.509	190.814	-106.689	105.602	122.675	156.994	0.00053	8.1761e-05	9.9102e-05	1458.2	1.3799e-06	5.5966e-06	1500	281.26	1.3447e-06	2.2897e-06	345	96.437	76.739	21.914	3.291e-06	30.22	0.00020516	0.0001828	5.24e-05	1384.7	2.1555e-06	2.0153e-06	1419.8	268.41	2.1596e-06	1.9572e-06	324.81	92.095	73.488	21.35	2.1508e-06	29.467	-2.193	-155.800	-84.218	-150.042	31.798	-15.834	-150.023	-143.211	-86.814	17.414	-143.084	-137.106	-136.473	-129.396	-108.363	-129.485	-8191	255	
8027.987	1	1	0	0	0.12353	0.27717	0.17237	0.13252	0.097255	0.2149	0.35857	0.18635	0.33104	0.10275	0.29005	0.20703	0.13453	0.094331	0.22897	0.21762	-2.5958	-3.3438	-2.9604	-3.3792	-3.3438	-2.9896	-3.3333	-3.2271	-2.9333	-3.3708	-3.1667	-3.1896	-3.4396	-2.9333	-3.4396	-3.1604	-148.871	-150.368	-15.526	171.101	-121.916	11.042	149.684	158.737	108.717	57.005	184.236	34.476	-139.588	-33.287	119.143	44.017	0.00058127	0.00022031	0.00010789	1453.8	3.0739e-06	2.527e-06	1502	281.47	5.692e-07	6.1891e-06	345.48	95.951	76.961	21.903	2.6535e-06	30.429	0.00019814	0.00017649	5.5746e-05	1383.8	2.0264e-06	1.9725e-06	1423.1	268.32	2.0949e-06	1.9312e-06	326.31	92.026	73.498	21.338	2.3199e-06	29.455	8.367	-134.093	-149.326	-150.059	-122.281	-43.774	-150.077	-142.902	-15.533	29.833	-143.616	-136.845	-136.793	-129.649	179.430	-129.948	-8191	255	
8028.083	1	1	0	0	0.15733	0.038849	0.12066	0.368	0.23313	0.23819	0.32908	0.084169	0.25109	0.11975	0.17967	0.37769	0.18069	0.24428	0.17841	0.013983	-2.5354	-3.3375	-2.8417	-3.2042	-3.3396	-2.9083	-3.2833	-3.2604	-2.9333	-3.4896	-3.3521	-3.2729	-3.325	-3.1708	-3.0938	-3.2292	-112.499	87.825	118.413	78.784	198.294	-18.109	174.340	92.500	87.924	19.591	-36.646	136.030	118.624	95.008	-89.239	27.288	0.00037498	0.00021465	0.00018898	1453.6	2.1082e-06	2.839e-06	1500.6	282.2	1.721e-06	5.8897e-07	345.51	96.227	77.032	21.796	1.4092e-06	30.149	0.0001961	0.00018293	6.0275e-05	1382.6	2.0414e-06	2.0582e-06	1424.3	268.12	2.089e-06	2.0391e-06	326.71	91.682	73.318	21.393	2.3986e-06	29.307	21.784	-101.628	-95.313	-149.841	-147.402	-24.051	-150.155	-142.841	-14.661	-65.621	-143.331	-136.609	-136.615	-129.640	39.816	-129.763	-8191	255	
8028.179	1	1	0	0	0.095243	0.16314	0.30759	0.30424	0.25321	0.061905	0.014477	0.18929	0.32099	0.1757	0.08827	0.20583	0.17457	0.20482	0.16253	0.12761	-2.4813	-3.4125	-3.0417	-3.1021	-3.4271	-3.0187	-3.3083	-3.4229	-2.7354	-3.3875	-3.0583	-3.0187	-3.2854	-2.9083	-3.075	-3.375	-155.188	123.049	66.127	-140.822	78.142	103.072	-62.554	165.108	93.291	184.120	-131.095	-1.800	169.698	170.924	-100.918	16.193	0.0005316	0.0002851	0.00013323	1453.7	5.8827e-06	3.7935e-06	1497.1	282.35	3.6279e-07	1.771e-06	344.74	96.184	76.66	22.032	1.3339e-06	30.12	0.00019323	0.00019268	6.1263e-05	1380.2	1.9911e-06	2.165e-06	1423	267.66	2.0243e-06	2.1819e-06	326.48	91.649	73.181	21.567	2.352e-06	29.215	-6.202	-95.689	-71.011	-150.159	-68.644	-100.654	-150.008	-143.074	170.243	36.829	-143.259	-136.893	-136.350	-129.340	59.331	-129.824	-8191	255	
8028.275	1	1	0	0	0.20261	0.096378	0.19465	0.31375	0.20042	0.14252	0.18017	0.053408	0.072167	0.11498	0.449	0.13259	0.094505	0.33307	0.21509	0.091477	-2.5292	-3.2833	-2.9729	-3.0312	-3.3312	-3.0833	-3.1833	-3.2313	-3.0312	-3.3229	-3.2521	-2.9083	-3.3917	-3.0083	-2.9875	-3.5375	99.124	-119.510	93.769	139.767	-77.884	139.055	161.024	117.922	-37.922	52.045	155.172	170.922	50.968	72.040	40.806	49.359	0.0005226	0.0003921	0.00010617	1452	2.2974e-06	6.2136e-06	1496.2	282.15	1.1401e-06	3.0888e-06	345.87	96.909	76.409	22.006	2.7248e-06	30.018	0.00018612	0.00020516	5.8858e-05	1380.2	1.9517e-06	2.3054e-06	1423.7	267.59	2.0337e-06	2.3184e-06	326.21	91.537	73.094	21.633	2.2484e-06	29.061	2.780	21.305	-129.045	-150.015	166.913	-62.999	-149.999	-142.956	3.480	-159.750	-143.193	-136.803	-136.697	-129.590	-35.721	-130.093	-8191	255	
8028.372	1	1	0	0	0.18621	0.089458	0.21903	0.31555	0.045713	0.13218	0.050875	0.20958	0.01344	0.21484	0.27454	0.21007	0.1678	0.022985	0.3131	0.17324	-2.3438	-2.925	-3.0938	-3.0979	-3.2458	-2.8854	-3.2167	-3.3021	-3.025	-3.1104	-3.2792	-2.8688	-3.4688	-2.9521	-3.0292	-3.4021	38.937	152.568	129.150	169.241	46.560	179.222	-137.331	151.820	34.732	-110.758	-142.149	-155.283	146.047	65.618	-20.232	187.259	0.00048614	0.00029722	0.0001546	1450.8	2.6157e-06	3.8672e-06	1500.1	283.63	3.6971e-06	1.82e-06	346.79	96.519	76.873	21.789	4.1327e-06	30.252	0.00018869	0.00021493	5.5214e-05	1378.3	2.0028e-06	2.3304e-06	1422.2	267.48	2.0654e-06	2.3494e-06	325.23	91.345	73.376	21.573	2.1419e-06	29.069	-3.618	-121.498	-77.792	-150.003	-82.583	-120.923	-150.031	-143.327	-145.553	-65.830	-143.156	-136.714	-136.636	-129.161	-68.957	-129.832	-8191	255	
8028.492	1	1	0	0	0.14965	0.147	0.097923	0.13995	0.033252	0.10415	0.16518	0.15589	0.095313	0.10176	0.2391	0.17393	0.042939	0.059512	0.077183	0.16738	-2.6063	-3.3063	-3.3708	-3.2958	-3.3458	-3.3271	-3.175	-3.4854	-2.9542	-3.1229	-3.3312	-2.9583	-3.2	-3.3104	-2.9958	-3.2021	-151.635	80.172	-141.904	171.321	119.845	-143.837	171.586	-100.939	-31.808	88.762	159.603	25.145	99.311	-99.721	111.683	22.738	0.00057828	0.00065826	0.00017488	1452.9	4.2557e-06	2.6619e-06	1500.1	282.8	4.5983e-07	2.0487e-06	346.09	96.209	76.902	22.111	2.6606e-06	30.258	0.00020038	0.00021632	5.3499e-05	1378.9	2.1912e-06	2.3131e-06	1421.3	266.52	2.2252e-06	2.2984e-06	324.5	91.031	73.772	21.534	2.0976e-06	29.067	-2.280	-85.949	-112.879	-150.079	-61.381	-133.119	-150.072	-143.209	-101.457	-34.560	-142.986	-136.837	-136.506	-129.269	62.653	-130.190	-8191	255	
8028.564	1	1	0	0	0.35107	0.22797	0.14218	0.16239	0.11698	0.27337	0.1874	0.092382	0.057089	0.16156	0.074587	0.056566	0.046364	0.14618	0.04536	0.14811	-2.4062	-3.0417	-3.2854	-3.2604	-3.4417	-3.1625	-3.1667	-3.525	-3.0625	-3.2167	-3.3646	-2.9854	-3.4146	-3.2021	-3.0146	-3.5187	33.026	-75.163	56.609	-149.049	78.041	-157.477	179.415	24.480	35.358	169.162	32.573	-16.323	148.816	-94.342	194.466	17.165	0.00056968	0.00019111	0.00017544	1455	4.9566e-06	3.065e-06	1498.1	282.76	2.1961e-06	4.1489e-06	345.43	96.408	76.846	21.915	4.8162e-06	30.161	0.00021333	0.00020695	5.1385e-05	1378.1	2.3089e-06	2.21e-06	1420	267.41	2.3195e-06	2.177e-06	323.96	91.167	73.94	21.346	1.9997e-06	29.015	-5.930	-14.959	-36.202	-150.116	-149.718	-8.103	-150.127	-143.068	-155.243	-64.921	-143.473	-137.029	-136.370	-129.322	21.223	-129.960	-8191	255	
8028.660	1	1	0	0	0.097599	0.12656	0.17966	0.1388	0.20223	0.090378	0.40078	0.20448	0.2523	0.0875	0.23493	0.099057	0.27587	0.10114	0.08816	0.16016	-2.7479	-3.0375	-3.3854	-3.1396	-3.2458	-3.325	-3.0708	-3.2917	-3.0417	-2.9854	-3.6167	-3.0438	-3.4271	-3.2646	-2.8708	-3.3125	-11.601	5.158	-56.996	134.374	153.088	37.297	86.300	104.833	-22.423	-88.413	180.996	-58.351	-55.677	-146.142	-51.622	-121.004	0.00062878	9.7221e-05	0.0001273	1447.4	6.0302e-06	2.9933e-06	1500.4	282.5	4.5241e-06	3.6879e-06	346.07	95.918	76.538	21.942	4.0805e-06	30.024	0.00021269	0.00019109	4.9465e-05	1376.5	2.2956e-06	2.0489e-06	1417.9	267.38	2.265e-06	2.0362e-06	323.06	91.305	73.599	21.233	1.865e-06	29.041	6.183	117.150	-39.259	-150.066	-66.575	60.017	-150.135	-143.284	-44.298	-52.109	-143.155	-136.587	-136.342	-129.582	-23.504	-129.620	-8191	255	
8028.756	1	1	0	0	0.28057	0.12294	0.27343	0.38007	0.13333	0.18011	0.067809	0.15112	0.032806	0.04526	0.13395	0.12436	0.32288	0.22134	0.18614	0.10664	-2.7167	-3.0333	-3.3083	-3.2938	-3.1375	-3.3812	-3.1792	-3.175	-2.9229	-2.9479	-3.3438	-3.2333	-3.1813	-3.2146	-2.9208	-3.1688	165.063	90.784	-113.688	167.522	65.875	-55.991	77.525	-146.670	-94.734	134.486	84.050	33.491	-158.943	58.077	-51.627	170.821	0.00042772	0.00065391	0.00014989	1447.4	5.1981e-06	3.2797e-06	1499.7	281.57	6.1645e-06	3.2502e-06	345.06	95.774	76.026	21.936	1.3106e-06	30.126	0.00020008	0.00017908	4.6652e-05	1374.5	2.182e-06	1.9246e-06	1414.3	267.36	2.1272e-06	1.9446e-06	322.62	91.315	73.32	21.215	1.9083e-06	29.304	4.721	-103.246	-135.788	-150.024	-12.547	11.741	-150.224	-143.321	-21.274	-69.633	-143.243	-137.073	-136.451	-129.554	-83.136	-129.692	-8191	255	
8028.875	1	1	0	0	0.093132	0.068441	0.2989	0.093335	0.10345	0.18534	0.087847	0.21236	0.15582	0.036896	0.069867	0.093212	0.13122	0.1567	0.1287	0.1035	-2.7875	-2.6833	-3.1437	-3.3458	-2.9604	-3.2438	-2.95	-3.1521	-3.2562	-3.0292	-3.3833	-3.0062	-3.0438	-3.1667	-3.0542	-3.2146	-24.126	-147.551	-20.194	-146.463	86.749	81.785	79.834	149.036	123.587	14.998	60.892	67.814	97.439	-112.491	93.402	-159.147	0.00049378	0.0003054	9.4294e-05	1445.4	1.0724e-06	5.6273e-06	1494.4	281.94	3.5164e-06	1.2555e-06	343.79	95.285	76.474	21.694	1.335e-06	30.257	0.0001937	0.00017639	4.7516e-05	1378.1	2.0962e-06	1.867e-06	1413.5	267.41	2.0152e-06	1.9188e-06	322.5	91.398	73.147	21.159	2.0009e-06	29.385	11.842	-142.406	117.541	-150.104	-131.249	24.670	-150.066	-143.304	179.323	-55.087	-143.431	-136.589	-136.513	-129.217	-12.312	-129.576	-8191	255	
8028.971	1	1	0	0	0.13486	0.32773	0.03072	0.26839	0.12822	0.20115	0.24471	0.049938	0.054991	0.17911	0.059069	0.11453	0.23175	0.11748	0.21155	0.12879	-2.8917	-2.8688	-3.1771	-3.2667	-2.8187	-3.3625	-3.1479	-3.2104	-3.3563	-3.0167	-3.3375	-3.1188	-3.0958	-3.4104	-3.0062	-3.0125	133.371	-82.444	28.480	108.144	-40.094	64.974	118.656	-124.742	8.502	197.861	172.779	173.337	-155.528	177.146	33.140	122.475	0.0004809	8.3584e-05	0.00012273	1447.5	3.2107e-06	2.1512e-06	1496.4	282.38	5.3341e-06	3.069e-06	344.12	95.975	76.093	21.898	2.3072e-06	29.933	0.00018421	0.00017375	5.0794e-05	1376	2.0305e-06	1.8441e-06	1415.7	267.91	1.9486e-06	1.8976e-06	323.68	91.408	72.982	21.158	2.1319e-06	29.232	4.803	-91.213	-144.427	-150.058	-50.355	-116.085	-150.103	-143.056	10.306	22.442	-143.069	-136.699	-136.396	-129.631	-1.184	-129.701	-8191	255	
8029.067	1	1	0	0	0.25104	0.13241	0.17305	0.34125	0.35149	0.1644	0.23615	0.20063	0.18893	0.17492	0.17173	0.26172	0.31578	0.13675	0.31678	0.22269	-2.8979	-2.8312	-3.1875	-3.2667	-3.0729	-3.1729	-3.3729	-3.1625	-3.0875	-2.8917	-3.2062	-3.2271	-2.8812	-3.4104	-3.0687	-3.1083	88.031	-129.889	-107.782	174.904	183.258	29.744	149.257	188.452	154.666	81.868	129.918	101.752	186.574	163.037	-11.738	27.134	0.00036592	0.00036383	0.0001552	1445.3	4.2843e-06	2.2346e-06	1501.9	282.83	3.6792e-06	3.8669e-06	343.95	95.712	76.468	21.961	5.4934e-06	30.128	0.00017751	0.00017107	5.392e-05	1375.7	1.9226e-06	1.8142e-06	1419.8	267.28	1.8387e-06	1.8504e-06	323.85	90.893	72.82	21.175	2.1394e-06	29.028	-2.975	38.100	-18.514	-149.947	187.832	-33.640	-150.006	-143.142	-83.724	2.121	-143.312	-136.866	-136.689	-129.176	-103.800	-129.716	-8191	255	
8029.163	1	1	0	0	0.072317	0.12681	0.081929	0.14189	0.20162	0.14131	0.16332	0.083089	0.041706	0.12482	0.25148	0.12554	0.15441	0.26576	0.27186	0.16939	-3.0542	-3.0104	-3.2188	-3.3792	-2.9583	-3.2521	-3.3604	-3.2104	-3.2896	-3.0438	-3.2771	-3.25	-2.9021	-3.3	-3.0396	-2.9042	147.390	126.488	57.248	178.691	-82.038	189.842	107.240	178.421	90.712	-10.995	135.949	154.218	-107.060	-148.745	138.000	-102.425	0.00059778	0.00021299	0.0001321	1446.7	3.1347e-06	3.1618e-06	1495.7	282.93	7.1834e-07	1.8222e-06	344.14	96.057	76.647	21.812	7.2248e-06	30.061	0.00017069	0.00017341	5.5642e-05	1371.6	1.8846e-06	1.913e-06	1417.5	266.48	1.8238e-06	1.992e-06	324.1	90.793	72.739	21.224	2.1788e-06	28.975	17.825	-27.908	-43.650	-150.203	-78.649	-98.568	-150.082	-143.229	-103.642	59.346	-143.465	-136.879	-136.587	-129.623	-64.061	-129.921	-8191	255	
8029.260	1	1	0	0	0.085865	0.21004	0.15363	0.40027	0.057825	0.18443	0.046225	0.17476	0.073573	0.14312	0.23392	0.24251	0.02967	0.28721	0.071224	0.038842	-2.9917	-2.8083	-2.9875	-3.5812	-2.9458	-3.2125	-3.2083	-3.0375	-3.3917	-3.1667	-3.3854	-3.3729	-2.9771	-3.2979	-3.2438	-2.9646	39.879	-66.603	104.857	129.523	91.269	134.674	-146.595	139.015	181.562	81.634	-116.500	167.883	171.225	-131.133	8.260	43.287	0.00067739	0.00040397	0.0001151	1442.1	3.5558e-06	1.3964e-06	1497.5	282.46	2.3648e-06	1.4658e-06	344.32	95.696	76.153	21.874	2.02e-06	30.081	0.00017022	0.000189	5.4844e-05	1370.9	1.8628e-06	2.0684e-06	1416.2	266.24	1.8013e-06	2.0996e-06	323.34	90.635	72.708	21.335	2.0467e-06	28.994	-0.205	-118.437	119.230	-150.197	-113.149	52.039	-149.961	-143.352	-49.800	-74.381	-143.407	-136.834	-136.425	-129.186	48.548	-129.983	-8191	255	
8029.356	1	1	0	0	0.096056	0.20064	0.23595	0.29827	0.3428	0.13909	0.23783	0.20569	0.18245	0.33612	0.14899	0.11634	0.061994	0.12694	0.19501	0.14537	-2.9771	-2.8937	-3.25	-3.5208	-2.8125	-3.3667	-3.3812	-2.9062	-3.3063	-3.0167	-2.9771	-3.2667	-2.9458	-3.1896	-3.1688	-2.925	-43.369	-127.228	-15.156	185.692	198.425	-12.269	102.480	99.242	108.183	184.075	190.911	-160.469	130.338	23.077	-5.211	-160.098	0.00054313	0.00024822	2.1302e-05	1445	4.6177e-06	1.7083e-06	1491.2	282.62	4.4024e-06	2.4217e-06	343.86	95.57	76.171	21.94	3.5693e-06	30.235	0.00017125	0.00019801	5.295e-05	1370	1.8942e-06	2.1593e-06	1415.4	265.97	1.8825e-06	2.2057e-06	322.85	90.423	72.802	21.432	1.9684e-06	28.947	-16.248	122.091	-31.731	-149.989	-93.726	-160.884	-150.102	-143.033	-110.184	155.501	-143.165	-136.638	-136.682	-129.500	-25.568	-130.064	-8191	255	
8029.476	1	1	0	0	0.10454	0.088501	0.20228	0.30081	0.13689	0.16866	0.29951	0.31767	0.080602	0.17448	0.16226	0.034097	0.2595	0.12197	0.1386	0.13736	-2.9917	-2.8958	-3.2062	-3.4104	-2.9375	-3.0125	-3.2958	-2.9646	-3.3833	-3.0667	-3.0375	-3.4271	-2.8604	-3.15	-3.1833	-2.8958	82.286	-151.326	54.766	169.785	129.518	115.888	129.606	141.865	183.361	-109.056	-35.866	-53.870	-124.738	166.473	7.718	-110.743	0.00044264	0.00052157	6.4005e-05	1443.5	2.0096e-06	3.6535e-06	1487.9	282.34	3.0831e-06	2.4595e-06	343.02	95.911	76.244	21.936	2.8614e-06	29.941	0.00017918	0.00019917	5.0133e-05	1369.1	1.994e-06	2.1507e-06	1410.8	265.55	1.9948e-06	2.1505e-06	322.35	90.539	73.076	21.377	1.9089e-06	28.892	-17.901	184.376	-133.960	-150.129	187.556	-87.096	-149.896	-142.870	-140.025	-6.458	-143.219	-136.503	-136.621	-129.336	-79.909	-130.107	-8191	255	
8029.573	1	1	0	0	0.15217	0.14544	0.13559	0.26109	0.055926	0.16826	0.23162	0.26719	0.18681	0.086724	0.20802	0.15706	0.11231	0.27408	0.15818	0.24351	-2.8125	-3.0917	-2.7583	-3.5979	-3.0625	-3.0438	-3.2396	-3.025	-3.2812	-3.375	-2.9729	-3.3104	-3.1667	-3.2042	-3.4375	-3.0687	23.343	179.079	68.640	170.150	76.969	-24.221	154.309	-116.013	156.737	166.337	144.635	-4.041	-88.534	117.011	6.768	57.544	0.00060712	0.0001908	0.0001725	1443	1.4488e-06	1.4891e-06	1495.2	281.91	3.1784e-06	6.401e-07	341.97	95.742	76.747	21.757	1.7886e-06	30.331	0.00019285	0.0001932	4.8702e-05	1367.5	2.1143e-06	2.088e-06	1411.1	265.18	2.1462e-06	2.0707e-06	321.44	90.458	73.445	21.312	1.8401e-06	29.002	-4.460	-84.414	-105.713	-150.088	-19.677	-55.994	-150.198	-143.192	-139.654	-89.201	-143.328	-136.760	-136.527	-129.255	54.594	-130.082	-8191	255	
8029.669	1	1	0	0	0.058553	0.12142	0.17113	0.24063	0.19905	0.10208	0.20417	0.11417	0.35497	0.19773	0.18327	0.15308	0.16849	0.15525	0.075601	0.065181	-2.8104	-3.0979	-2.8958	-3.4	-3.1688	-3.1312	-3.55	-2.9729	-3.1813	-3.4042	-2.9104	-3.1813	-3.0917	-3.1562	-3.225	-2.9396	113.454	143.264	177.757	104.633	18.640	-80.894	180.052	156.100	-115.704	-138.582	18.569	20.679	-115.658	-27.534	-103.052	-107.600	0.00040789	0.0006214	0.00016346	1442.7	2.6338e-06	2.943e-06	1487.5	282.75	3.6871e-06	2.8783e-06	344.39	96.051	76.934	21.847	1.1365e-06	30.214	0.00020187	0.00018502	4.8465e-05	1371	2.2061e-06	2.026e-06	1410.6	266.23	2.221e-06	1.977e-06	321.69	90.899	73.475	21.272	1.7943e-06	29.093	1.078	-6.012	-62.005	-150.017	-99.293	-7.077	-150.033	-143.007	-86.421	-21.708	-143.004	-136.942	-136.422	-129.139	-18.799	-129.930	-8191	255	
8029.788	1	1	0	0	0.16956	0.11397	0.26071	0.14672	0.062156	0.096216	0.2231	0.16496	0.10698	0.21278	0.10311	0.21873	0.033894	0.23499	0.072723	0.25403	-2.6917	-3.2812	-2.9437	-3.3125	-3.1708	-2.9292	-3.4854	-3.1229	-3	-3.2125	-2.9958	-3.3479	-3.1396	-2.8521	-3.2417	-3.1437	98.693	-26.457	-49.796	51.314	-80.769	92.542	85.229	-158.090	-88.955	-149.107	130.953	187.725	-112.194	-103.568	-109.493	146.035	0.00051054	0.00041012	0.00015693	1441.4	4.2832e-06	3.3327e-06	1494.4	281.61	2.4326e-06	4.7114e-06	344.45	95.408	76.882	21.878	1.7702e-06	30.162	0.00020444	0.0001792	4.8117e-05	1372.5	2.1749e-06	1.9693e-06	1409.8	266.5	2.1592e-06	1.9174e-06	322.25	91.231	73.373	21.216	1.8442e-06	29.177	-19.740	-49.436	-115.931	-150.117	-64.144	-108.564	-150.226	-142.912	-88.993	26.567	-143.029	-137.170	-136.820	-129.251	-133.966	-130.127	-8191	255	
8029.859	1	1	0	0	0.065364	0.19204	0.14671	0.30304	0.14963	0.20807	0.18687	0.26035	0.25262	0.066203	0.11405	0.23056	0.055023	0.12084	0.10901	0.11923	-2.6417	-3.2229	-2.85	-3.3646	-3.1042	-2.9958	-3.5229	-2.8583	-3.0354	-3.4667	-3	-3.1875	-3.3042	-2.8021	-3.2271	-3.0854	144.565	49.086	135.303	147.429	-149.178	39.901	113.738	-120.713	89.294	53.786	55.486	153.626	148.825	-132.316	36.044	41.560	0.00048307	0.00032892	0.00013732	1443	6.7635e-06	9.9032e-07	1497.2	281.68	6.2288e-06	1.889e-06	344.1	95.65	76.073	21.811	2.0707e-06	30.146	0.00019823	0.00017473	4.8572e-05	1375.1	2.0873e-06	1.9358e-06	1412.4	267.34	2.065e-06	1.8415e-06	322.02	91.468	73.012	21.238	1.9226e-06	29.298	2.334	-54.155	-100.680	-149.995	-38.146	18.220	-150.018	-143.123	-30.225	-20.653	-143.410	-137.038	-136.244	-129.281	177.714	-130.009	-8191	255	
8029.955	1	1	0	0	0.13452	0.32382	0.39903	0.44736	0.34369	0.12726	0.1281	0.13248	0.07359	0.11481	0.14753	0.19377	0.17459	0.29733	0.20373	0.24094	-2.5646	-3.2438	-2.975	-3.3479	-3.2229	-2.9813	-3.4292	-3.0563	-3.05	-3.3937	-3.1854	-3.1896	-3.2083	-2.8896	-3.2729	-3.175	-28.374	-90.755	128.515	149.843	-24.229	116.943	131.121	-120.395	171.153	-140.920	156.324	154.675	-155.169	-155.291	23.047	195.581	0.00068491	0.00018096	0.0001808	1444.5	3.0683e-06	2.5122e-06	1497.4	282.14	4.6455e-06	2.3286e-06	345.16	95.516	77.331	21.937	1.2756e-06	29.981	0.00018893	0.00016866	5.1185e-05	1376	1.9902e-06	1.9014e-06	1414.1	267.59	2.0122e-06	1.8215e-06	324.07	91.505	73.195	21.192	2.0472e-06	29.159	10.752	-148.257	-107.571	-150.017	-16.508	-66.606	-150.085	-142.960	-54.093	-60.443	-143.119	-136.642	-136.540	-129.745	175.196	-129.956	-8191	255	
8030.052	1	1	0	0	0.072912	0.020702	0.14597	0.23771	0.04391	0.10754	0.29734	0.30751	0.15428	0.1712	0.19808	0.14029	0.21226	0.20099	0.34868	0.26609	-2.5521	-3.3354	-2.8521	-3.2833	-3.1896	-2.8563	-3.4688	-3.0021	-3.0229	-3.3479	-3.1875	-3.0687	-3.3479	-3.0062	-3.1479	-3.1771	-7.254	-37.204	80.012	67.768	-131.424	-130.349	142.030	166.179	32.866	-137.774	-136.748	-139.908	43.152	81.852	58.938	82.358	0.00038421	7.3116e-05	0.00018241	1440.9	2.5982e-06	4.4135e-06	1496.8	281.78	8.4727e-07	4.7455e-06	342.9	95.896	76.465	21.807	2.2636e-06	30.04	0.00018129	0.00016622	5.3917e-05	1373.4	1.9161e-06	1.8644e-06	1416.2	267.16	1.9648e-06	1.8319e-06	324.29	91.295	72.919	21.175	2.2045e-06	29.069	7.334	185.535	-58.888	-150.102	15.439	-54.756	-150.067	-143.246	-158.729	-22.568	-143.018	-136.497	-136.498	-129.000	91.282	-130.040	-8191	255	
8030.170	1	1	0	0	0.036014	0.19337	0.15708	0.14478	0.11115	0.04502	0.07817	0.21837	0.11677	0.23061	0.065463	0.051002	0.16197	0.088186	0.12787	0.099607	-2.5042	-3.3312	-3.0396	-3.2146	-3.4562	-3.0563	-3.3396	-3.275	-3	-3.1521	-3.2583	-3.1	-3.2562	-3.0042	-3.1646	-3.2812	15.290	-156.144	42.546	-156.493	126.733	192.926	-137.333	-16.415	-13.447	-99.306	-15.274	88.374	-117.858	24.968	-13.566	121.907	0.0005326	7.9832e-05	9.7688e-05	1447.8	1.0888e-06	2.2469e-06	1500.5	281.55	4.554e-06	2.5551e-06	344.29	95.831	76.761	21.812	2.665e-06	30.046	0.00018157	0.00017294	5.6825e-05	1374.4	1.8762e-06	1.9586e-06	1418.5	265.95	1.9013e-06	1.9162e-06	324.65	90.904	72.921	21.275	2.198e-06	29.055	5.142	-114.661	-43.314	-150.047	168.462	186.980	-150.201	-143.225	-62.536	-141.742	-143.204	-136.753	-136.614	-129.464	-18.264	-129.643	-8191	255	
#DATA ENDS
