BOXY.EXE: ISS Imagent and Oximeter Data Acquisition Program Version 0.80
Ascii Record File

#ACQ INFORMATION
2  Detector Channels 
16  External MUX Channels 
1  Auxiliary Channels 
5000  Waveform (CCF) Frequency (Hz)
1  Waveforms Skipped 
30  Waveforms Averaged 
1  Cycles Averaged 
16  Acquisitions per Waveform 
10.0806  Updata Rate (Hz) 

#FILE INFORMATION
TRUE -- External MUX Channel results are PARSED.
FALSE -- AC DC and Phase are NOT grouped.
TRUE -- Companion Program Settings File CREATED.
FALSE -- AC data not excluded
FALSE -- DC data not excluded
FALSE -- Phase data not excluded
FALSE -- Auxillary Chn. data not excluded
Tab delimiters

#CALIBRATION STATE
TRUE -- Waveform Calibration Values APPLIED.


#AUX CALIBRATION VALUES
Val Type	aux-1	

Term	1.0000e+00	
Factor	0.0000e+00	


#WF CALIBRATION VALUES
A = Detector Channel
Val Type	A-AC1	A-AC2	A-AC3	A-AC4	A-AC5	A-AC6	A-AC7	A-AC8	A-AC9	A-AC10	A-AC11	A-AC12	A-AC13	A-AC14	A-AC15	A-AC16	A-DC1	A-DC2	A-DC3	A-DC4	A-DC5	A-DC6	A-DC7	A-DC8	A-DC9	A-DC10	A-DC11	A-DC12	A-DC13	A-DC14	A-DC15	A-DC16	A-Ph1	A-Ph2	A-Ph3	A-Ph4	A-Ph5	A-Ph6	A-Ph7	A-Ph8	A-Ph9	A-Ph10	A-Ph11	A-Ph12	A-Ph13	A-Ph14	A-Ph15	A-Ph16	

Term	0.00000e+00	0.00000e+00	0.00000e+00	0.00000e+00	0.00000e+00	0.00000e+00	0.00000e+00	0.00000e+00	0.00000e+00	0.00000e+00	0.00000e+00	0.00000e+00	0.00000e+00	0.00000e+00	0.00000e+00	0.00000e+00	0.00000e+00	0.00000e+00	0.00000e+00	0.00000e+00	0.00000e+00	0.00000e+00	0.00000e+00	0.00000e+00	0.00000e+00	0.00000e+00	0.00000e+00	0.00000e+00	0.00000e+00	0.00000e+00	0.00000e+00	0.00000e+00	0.00000e+00	0.00000e+00	0.00000e+00	0.00000e+00	0.00000e+00	0.00000e+00	0.00000e+00	0.00000e+00	0.00000e+00	0.00000e+00	0.00000e+00	0.00000e+00	0.00000e+00	0.00000e+00	0.00000e+00	0.00000e+00	
Factor	1.00000e+00	1.00000e+00	1.00000e+00	1.00000e+00	1.00000e+00	1.00000e+00	1.00000e+00	1.00000e+00	1.00000e+00	1.00000e+00	1.00000e+00	1.00000e+00	1.00000e+00	1.00000e+00	1.00000e+00	1.00000e+00	1.00000e+00	1.00000e+00	1.00000e+00	1.00000e+00	1.00000e+00	1.00000e+00	1.00000e+00	1.00000e+00	1.00000e+00	1.00000e+00	1.00000e+00	1.00000e+00	1.00000e+00	1.00000e+00	1.00000e+00	1.00000e+00	X	X	X	X	X	X	X	X	X	X	X	X	X	X	X	X	

B = Detector Channel
Val Type	B-AC1	B-AC2	B-AC3	B-AC4	B-AC5	B-AC6	B-AC7	B-AC8	B-AC9	B-AC10	B-AC11	B-AC12	B-AC13	B-AC14	B-AC15	B-AC16	B-DC1	B-DC2	B-DC3	B-DC4	B-DC5	B-DC6	B-DC7	B-DC8	B-DC9	B-DC10	B-DC11	B-DC12	B-DC13	B-DC14	B-DC15	B-DC16	B-Ph1	B-Ph2	B-Ph3	B-Ph4	B-Ph5	B-Ph6	B-Ph7	B-Ph8	B-Ph9	B-Ph10	B-Ph11	B-Ph12	B-Ph13	B-Ph14	B-Ph15	B-Ph16	

Term	0.00000e+00	0.00000e+00	0.00000e+00	0.00000e+00	0.00000e+00	0.00000e+00	0.00000e+00	0.00000e+00	0.00000e+00	0.00000e+00	0.00000e+00	0.00000e+00	0.00000e+00	0.00000e+00	0.00000e+00	0.00000e+00	0.00000e+00	0.00000e+00	0.00000e+00	0.00000e+00	0.00000e+00	0.00000e+00	0.00000e+00	0.00000e+00	0.00000e+00	0.00000e+00	0.00000e+00	0.00000e+00	0.00000e+00	0.00000e+00	0.00000e+00	0.00000e+00	8.08205e+01	-1.29234e+02	-1.26031e+02	-1.81587e+02	-8.04158e+01	-6.70324e+01	-1.57320e+02	-1.62015e+02	-6.06783e+01	-6.54006e+01	-1.71053e+02	-1.72518e+02	-1.82789e+02	-1.76934e+02	-6.95614e+01	-1.49544e+02	
Factor	6.67383e-05	1.91415e-04	4.93186e-05	1.58798e-01	2.57486e-06	2.00385e-06	1.78873e-01	5.50616e-02	3.22509e-06	1.97440e-06	8.99765e-02	3.70833e-02	3.90633e-02	9.87122e-03	2.25571e-06	1.39431e-02	2.65282e-05	5.58230e-05	1.57463e-05	8.19480e-02	4.79595e-07	6.43249e-07	8.68198e-02	2.84307e-02	4.90733e-07	6.41705e-07	4.53190e-02	1.86095e-02	2.03683e-02	5.15739e-03	5.46992e-07	7.08478e-03	X	X	X	X	X	X	X	X	X	X	X	X	X	X	X	X	



#DISTANCE SETTINGS
A = Detector Channel
A-1	A-2	A-3	A-4	A-5	A-6	A-7	A-8	A-9	A-10	A-11	A-12	A-13	A-14	A-15	A-16	

2.5000e+00	3.0000e+00	2.5000e+00	3.0000e+00	2.0000e+00	3.0000e+00	1.5000e+00	3.0000e+00	3.0000e+00	3.0000e+00	3.0000e+00	3.0000e+00	3.0000e+00	3.0000e+00	1.5000e+00	3.0000e+00	

B = Detector Channel
B-1	B-2	B-3	B-4	B-5	B-6	B-7	B-8	B-9	B-10	B-11	B-12	B-13	B-14	B-15	B-16	

1.0000e+01	1.0000e+01	1.0000e+01	1.4400e+00	1.0000e+01	1.0000e+01	1.5100e+00	1.9400e+00	1.0000e+01	1.0000e+01	1.9900e+00	2.4900e+00	2.4100e+00	2.9000e+00	1.0000e+01	2.9800e+00	




#DATA BEGINS
time	group	step	mark	flag	A-AC1	A-AC2	A-AC3	A-AC4	A-AC5	A-AC6	A-AC7	A-AC8	A-AC9	A-AC10	A-AC11	A-AC12	A-AC13	A-AC14	A-AC15	A-AC16	A-DC1	A-DC2	A-DC3	A-DC4	A-DC5	A-DC6	A-DC7	A-DC8	A-DC9	A-DC10	A-DC11	A-DC12	A-DC13	A-DC14	A-DC15	A-DC16	A-Ph1	A-Ph2	A-Ph3	A-Ph4	A-Ph5	A-Ph6	A-Ph7	A-Ph8	A-Ph9	A-Ph10	A-Ph11	A-Ph12	A-Ph13	A-Ph14	A-Ph15	A-Ph16	B-AC1	B-AC2	B-AC3	B-AC4	B-AC5	B-AC6	B-AC7	B-AC8	B-AC9	B-AC10	B-AC11	B-AC12	B-AC13	B-AC14	B-AC15	B-AC16	B-DC1	B-DC2	B-DC3	B-DC4	B-DC5	B-DC6	B-DC7	B-DC8	B-DC9	B-DC10	B-DC11	B-DC12	B-DC13	B-DC14	B-DC15	B-DC16	B-Ph1	B-Ph2	B-Ph3	B-Ph4	B-Ph5	B-Ph6	B-Ph7	B-Ph8	B-Ph9	B-Ph10	B-Ph11	B-Ph12	B-Ph13	B-Ph14	B-Ph15	B-Ph16	aux-1	digaux	

32284.764	1	1	0	768	0.13269	0.07278	0.041959	0.13262	0.087519	0.13048	0.16501	0.14779	0.10838	0.11954	0.090758	0.15861	0.088193	0.16014	0.11629	0.079719	-4.3396	-3.9917	-4.475	-4.6979	-4.25	-4.825	-4.5458	-4.5083	-4.775	-4.1042	-4.7333	-4.7583	-4.1708	-4.6729	-4.3917	-4.3458	1.146	250.209	168.694	322.151	307.451	89.200	237.210	269.301	116.824	5.000	304.728	21.839	72.177	12.735	45.884	18.967	0.00049442	0.00029478	9.4411e-05	1086.1	5.2823e-06	3.0062e-06	1156.8	222.71	3.8424e-06	2.5075e-06	276.75	81.834	63.731	18.581	1.3886e-06	25.928	0.0003363	0.0003882	8.6178e-05	1076.4	4.0836e-06	3.6451e-06	1144.8	221.96	3.4689e-06	3.7446e-06	277.91	81.794	64.245	18.817	3.7651e-06	26.525	354.680	102.297	104.034	10.301	167.547	139.897	10.237	17.566	177.303	163.387	17.252	24.326	24.725	30.892	163.100	30.186	-8191	255	
32284.859	1	1	0	0	0.11111	0.26978	0.14474	0.098516	0.077844	0.097552	0.25636	0.19908	0.071786	0.10433	0.13537	0.16605	0.33027	0.29444	0.22155	0.24594	-4.275	-4.0312	-4.5563	-4.6854	-3.9646	-4.6375	-4.5729	-4.2979	-4.8938	-4.15	-4.6438	-4.575	-4.0062	-4.7188	-4.3979	-4.3104	43.248	201.472	149.033	319.798	163.975	292.555	263.067	250.464	34.851	2.919	120.955	101.919	6.480	353.280	124.797	165.037	0.00054255	0.00024684	8.9925e-05	1087.8	4.9303e-06	2.5308e-06	1161.3	222.33	5.2535e-06	3.6317e-06	278.05	81.263	64.026	18.492	2.5408e-06	26.074	0.00032381	0.00034029	9.7955e-05	1076.5	4.1465e-06	3.5687e-06	1145.5	221.2	3.4106e-06	3.9612e-06	278.77	81.761	64.215	18.775	3.3002e-06	26.481	350.772	71.189	75.486	10.124	151.959	126.056	10.238	17.679	168.997	124.342	17.089	23.838	24.275	31.206	180.375	30.753	-8191	255	
32284.955	1	1	0	0	0.21519	0.14829	0.12385	0.19363	0.20138	0.16622	0.23451	0.095909	0.096614	0.049512	0.073081	0.30668	0.071877	0.4015	0.15863	0.08704	-4.3042	-4.3771	-4.4417	-4.9292	-4.0625	-4.5917	-4.7438	-4.2583	-4.7646	-4.2708	-4.4521	-4.8313	-4.2312	-4.7562	-4.5125	-4.0479	105.357	342.971	322.351	322.886	70.400	211.587	247.085	347.856	113.716	94.824	46.893	328.938	12.891	39.737	24.552	220.746	0.00050352	0.00038393	8.9973e-05	1086.9	5.7658e-06	3.1772e-06	1157.4	221.53	3.8416e-06	3.5881e-06	279.35	81.082	63.98	18.448	4.4119e-06	26.06	0.00032762	0.00034971	0.00010419	1074.9	4.4053e-06	3.3998e-06	1146.4	221.66	3.5353e-06	3.9732e-06	278.33	81.587	64.1	18.747	3.4039e-06	26.522	355.809	80.318	84.858	10.172	141.711	168.793	10.258	17.803	164.802	148.234	17.482	24.234	24.521	31.436	165.820	30.606	-8191	255	
32285.051	1	1	0	0	0.14804	0.10783	0.17084	0.047895	0.078439	0.10415	0.20911	0.27928	0.16409	0.32839	0.070469	0.12859	0.16418	0.12556	0.18701	0.21486	-4.5062	-4.3771	-4.4083	-4.9354	-4.1542	-4.6542	-4.7417	-4.1208	-4.8583	-4.2917	-4.35	-4.7417	-4.3438	-4.5188	-4.4792	-4.2375	242.108	35.946	234.900	122.585	40.011	120.327	246.264	29.732	279.680	277.386	50.766	353.386	323.503	305.233	12.185	312.298	0.00056388	0.00020504	9.8579e-05	1091	3.967e-06	3.0416e-06	1154.1	221.51	5.9572e-06	1.689e-06	278.99	82.011	63.92	18.606	5.2653e-06	26.016	0.00032071	0.00033063	9.6741e-05	1076	3.8428e-06	3.3677e-06	1144.1	221.64	3.5077e-06	3.627e-06	277.63	82.008	63.973	18.83	3.3811e-06	26.445	352.489	125.303	79.881	10.359	158.016	154.967	10.393	17.677	173.701	201.911	17.325	23.828	24.509	31.208	150.482	30.443	-8191	255	
32285.148	1	1	0	0	0.18895	0.19732	0.085905	0.21897	0.095205	0.067398	0.37367	0.050095	0.026812	0.23435	0.22956	0.16082	0.16116	0.07521	0.047708	0.067237	-4.5146	-4.4833	-4.1271	-4.9104	-4.2292	-4.4917	-4.7979	-3.9229	-4.7479	-4.4104	-4.2896	-4.8229	-4.3708	-4.4062	-4.6729	-4.2625	175.240	306.961	75.041	352.125	195.558	292.243	313.131	344.837	19.355	326.383	19.431	337.299	31.877	35.399	229.646	325.839	0.00048102	0.00021256	9.3345e-05	1086.9	4.4654e-06	2.8535e-06	1156.4	221.84	4.5634e-06	3.1759e-06	279.31	81.698	64.343	18.481	3.6807e-06	26.006	0.00032453	0.00033447	8.9984e-05	1073.7	4.1945e-06	3.4923e-06	1141.8	221.42	3.3554e-06	3.6002e-06	278.61	81.787	64.093	18.749	3.2056e-06	26.49	355.812	45.546	69.529	10.360	162.954	169.765	10.054	17.594	180.542	153.486	16.898	24.187	24.169	30.496	163.760	30.378	-8191	255	
32285.244	1	1	0	0	0.052826	0.048523	0.20243	0.084012	0.068852	0.11854	0.1272	0.14594	0.14347	0.080733	0.13632	0.080689	0.12958	0.067212	0.023043	0.18925	-4.1979	-4.4729	-4.0896	-4.8958	-4.0583	-4.3812	-4.85	-4.2458	-4.5125	-4.6104	-4.2167	-4.6104	-4.4062	-4.2812	-4.6583	-4.15	158.623	56.654	37.442	35.266	50.923	224.443	192.200	263.127	33.087	260.516	353.545	352.769	274.463	85.404	97.078	357.043	0.00047349	0.00016006	5.1051e-05	1083.8	3.716e-06	2.5277e-06	1154.4	222.76	5.6042e-06	3.3131e-06	277.39	81.134	63.763	18.53	3.9576e-06	25.846	0.0003332	0.00030656	0.00010166	1073.2	3.8837e-06	3.621e-06	1143	221.82	3.3994e-06	3.4198e-06	278.03	81.519	64.105	18.749	3.6147e-06	26.437	352.207	110.883	86.866	9.940	162.825	175.786	10.348	17.497	157.822	123.195	17.115	23.820	24.139	30.949	132.976	30.533	-8191	255	
32285.363	1	1	0	0	0.07819	0.25895	0.062895	0.16283	0.18769	0.20529	0.16753	0.21549	0.2052	0.10437	0.14273	0.15385	0.042751	0.15656	0.15008	0.043076	-4.2812	-4.4958	-4.1229	-4.7667	-4.2562	-4.1875	-4.9271	-4.2396	-4.5104	-4.5333	-4.1062	-4.7667	-4.5625	-4.2479	-4.7583	-4.3063	230.397	67.233	137.195	262.853	345.336	154.133	348.812	260.746	8.281	302.212	156.881	263.700	23.823	342.857	331.083	194.218	0.00043937	0.00032114	8.7673e-05	1084.9	4.9045e-06	3.8865e-06	1157.5	223.07	5.3575e-06	3.2904e-06	278.09	81.686	64.118	18.537	2.9879e-06	25.818	0.00033536	0.00034273	0.00010776	1074	3.9277e-06	3.9493e-06	1142.4	221.59	3.6999e-06	3.6056e-06	277.99	81.8	63.987	18.79	3.0848e-06	26.406	351.637	90.625	105.748	10.154	156.460	139.872	10.233	17.422	189.148	128.052	17.287	23.959	24.380	31.527	142.598	30.544	-8191	255	
32285.461	1	1	0	0	0.12811	0.18668	0.21378	0.11758	0.18761	0.18452	0.10113	0.024601	0.077838	0.19261	0.26477	0.16555	0.10585	0.21769	0.1203	0.041096	-4.1062	-4.6396	-3.9333	-4.7063	-4.475	-4.1208	-4.8479	-4.3688	-4.2042	-4.5938	-4.1875	-4.6062	-4.4083	-4.0875	-4.6229	-4.3063	295.184	112.703	272.725	63.905	342.143	204.612	290.653	42.482	243.534	190.932	314.175	23.293	262.207	10.363	311.113	54.666	0.00046324	0.0003769	3.9425e-05	1088.6	5.1413e-06	4.0769e-06	1156.2	222.8	7.8268e-06	3.4692e-06	279.15	81.073	64.037	18.513	2.971e-06	25.797	0.00034288	0.00033238	0.00010465	1073.7	4.0826e-06	4.0042e-06	1143.5	221.66	3.6621e-06	3.6845e-06	278.41	81.386	63.949	18.735	3.2763e-06	26.401	348.121	74.301	103.310	10.178	147.822	154.275	10.285	17.598	182.120	156.439	17.105	23.726	24.429	31.282	171.470	30.631	-8191	255	
32285.557	1	1	0	0	0.20573	0.054867	0.26261	0.28584	0.22134	0.1546	0.17819	0.23052	0.04343	0.10136	0.06707	0.182	0.034912	0.16484	0.035332	0.12308	-4.0646	-4.575	-4.05	-4.5437	-4.5146	-4.2292	-4.8625	-4.4104	-4.3021	-4.7438	-4.3187	-4.4688	-4.4583	-4.2354	-4.6562	-4.3667	345.305	102.014	21.632	13.109	188.708	179.500	281.337	349.296	231.045	78.625	8.595	339.424	70.446	23.952	297.497	91.520	0.00043837	0.00016479	7.7472e-05	1080.4	3.1827e-06	2.3532e-06	1157.5	222.25	5.8232e-06	2.235e-06	277.89	81.586	64.105	18.6	4.1408e-06	26.155	0.00033669	0.00032063	0.00010809	1073	4.1035e-06	4.3647e-06	1141.5	221.15	3.705e-06	3.4345e-06	278.09	81.568	64.215	18.78	3.4563e-06	26.535	348.830	123.155	71.613	10.408	161.755	135.715	10.305	17.515	170.102	169.753	16.914	24.214	24.232	31.188	148.088	30.290	-8191	255	
32285.652	1	1	0	0	0.13096	0.10697	0.16745	0.47951	0.13807	0.14979	0.17048	0.14699	0.02921	0.14325	0.081357	0.21063	0.15986	0.19516	0.12268	0.27488	-4.0208	-4.7021	-4.2312	-4.7229	-4.6729	-4.0167	-4.8625	-4.4854	-4.3688	-4.6792	-4.1542	-4.3833	-4.7896	-4.1292	-4.5042	-4.6062	15.913	348.661	15.764	309.987	213.205	29.167	259.326	176.879	161.548	49.583	0.051	323.135	342.840	341.183	268.821	249.277	0.00047766	0.00019804	9.5366e-05	1080.3	5.2945e-06	3.9985e-06	1155.4	221.03	6.0096e-06	2.2482e-06	279.41	81.462	63.679	18.684	3.6916e-06	26.168	0.00033801	0.00032028	8.5588e-05	1071.8	4.1425e-06	4.0203e-06	1143.4	221.11	3.7735e-06	3.4986e-06	278.39	81.758	64.118	18.832	3.258e-06	26.545	353.247	109.556	105.253	10.290	169.354	163.725	10.150	17.796	175.912	146.838	17.170	23.971	24.212	30.990	162.562	30.482	-8191	255	
32285.748	1	1	0	0	0.087721	0.18815	0.27208	0.093848	0.22012	0.28202	0.17897	0.13317	0.16612	0.098284	0.091884	0.098274	0.13182	0.092751	0.13218	0.10692	-3.6333	-4.9062	-4.2625	-4.5354	-4.6687	-4.1583	-4.6687	-4.4729	-4.1146	-4.7542	-4.3333	-4.3875	-4.7937	-4.1292	-4.5146	-4.6687	304.121	73.590	350.400	203.270	279.759	58.616	309.062	301.449	353.400	102.968	28.905	119.403	12.964	250.186	240.476	16.664	0.00045472	0.00019692	8.0702e-05	1085.6	4.6393e-06	2.3497e-06	1153.3	221.42	5.5507e-06	2.7442e-06	277.35	81.198	64.048	18.626	3.7477e-06	26.002	0.00035211	0.0003168	9.5692e-05	1072.5	4.0506e-06	4.1181e-06	1141.9	221.18	3.8942e-06	3.5909e-06	277.48	81.54	64.088	18.821	3.4301e-06	26.53	346.882	75.010	91.977	10.223	141.444	143.929	10.210	17.454	171.241	163.312	17.321	23.832	24.412	30.929	162.245	30.271	-8191	255	
32285.844	1	1	0	0	0.22561	0.19789	0.16302	0.33361	0.11501	0.16028	0.10524	0.098099	0.12837	0.23032	0.18786	0.13583	0.13029	0.22111	0.15132	0.080279	-3.5812	-4.75	-4.3333	-4.3979	-4.6854	-4.0813	-4.5021	-4.55	-4.0292	-4.6875	-4.375	-4.2021	-4.7958	-4.0479	-4.5021	-4.6167	339.538	69.107	218.542	343.237	32.406	20.120	283.146	50.240	32.680	251.142	70.470	307.375	74.007	12.595	235.508	283.904	0.0005304	0.00039495	7.3787e-05	1089	4.2321e-06	3.1998e-06	1158.3	222.47	2.448e-06	3.3506e-06	278.88	81.561	64.23	18.487	3.6514e-06	26.297	0.00035896	0.00031261	9.3854e-05	1074.2	3.8208e-06	3.8608e-06	1143.3	221.75	4.0813e-06	3.4291e-06	278.89	81.915	64.259	18.787	3.5942e-06	26.62	350.930	87.152	93.748	10.312	151.235	165.148	10.487	17.562	168.116	150.095	17.285	24.038	24.108	30.855	134.788	30.470	-8191	255	
32285.965	1	1	0	0	0.099257	0.19395	0.10469	0.28919	0.16856	0.15485	0.31533	0.034373	0.030909	0.087333	0.10238	0.269	0.10469	0.20772	0.11884	0.17735	-3.7188	-4.5813	-4.3875	-4.2604	-4.8	-4.2042	-4.5208	-4.7583	-4.075	-4.7333	-4.4792	-4.0896	-4.7729	-4.1604	-4.3812	-4.55	298.227	57.348	199.668	342.638	317.460	46.935	259.430	69.592	203.198	199.008	189.477	336.714	220.655	101.151	320.287	312.217	0.00049757	0.00033313	7.5428e-05	1083	3.0972e-06	3.6133e-06	1155.5	222.07	5.0699e-06	3.439e-06	278.84	81.937	64.533	18.504	4.4192e-06	25.989	0.00034675	0.00033796	9.1329e-05	1074.1	3.9347e-06	3.964e-06	1143.5	221.99	3.8042e-06	3.6818e-06	278.55	81.829	64.288	18.776	3.7799e-06	26.466	351.292	77.440	122.607	10.061	133.676	154.966	10.189	17.450	159.156	157.939	16.965	24.239	24.356	31.054	146.431	30.031	-8191	255	
32286.061	1	1	0	0	0.18697	0.049215	0.10042	0.2236	0.25407	0.17657	0.23623	0.16997	0.065828	0.24107	0.16517	0.15008	0.02855	0.13954	0.072579	0.11683	-3.5687	-4.6604	-4.4688	-4.1875	-4.6854	-4.3021	-4.4917	-4.7146	-4.1167	-4.5083	-4.5896	-4.0208	-4.6708	-4.3438	-4.2875	-4.8833	339.443	59.196	66.888	27.811	255.722	126.769	315.167	223.715	200.653	196.172	120.936	321.907	80.530	15.290	206.665	44.236	0.00052332	0.00033068	8.0978e-05	1086.2	5.566e-06	2.3753e-06	1156.7	221.15	3.9437e-06	2.5682e-06	278.54	81.06	63.894	18.548	2.2581e-06	25.98	0.0003494	0.00031866	9.146e-05	1076.4	3.6849e-06	3.6893e-06	1144.2	221.19	3.885e-06	3.6042e-06	277.9	81.514	64.14	18.793	3.3686e-06	26.528	349.246	82.361	95.347	10.120	145.953	132.691	10.478	17.628	183.340	179.773	17.467	23.577	24.311	30.814	188.520	30.173	-8191	255	
32286.156	1	1	0	0	0.088292	0.11081	0.024464	0.10123	0.021916	0.20156	0.17664	0.20727	0.29167	0.18772	0.10207	0.13111	0.060453	0.24705	0.12692	0.025241	-3.7333	-4.4083	-4.5687	-4.1917	-4.5583	-4.2021	-4.3667	-4.6875	-4.1792	-4.3146	-4.7208	-4.1417	-4.5667	-4.3063	-4.0208	-4.7312	16.506	306.608	333.953	302.378	91.353	252.612	336.348	357.084	115.797	254.376	187.948	333.861	173.260	93.660	30.283	139.547	0.00052793	0.00027833	0.00011157	1087.1	3.6167e-06	2.1113e-06	1156.1	222.54	5.3915e-06	3.3484e-06	278.13	81.629	64.425	18.544	4.2171e-06	25.973	0.00034465	0.00034645	9.2838e-05	1074.8	3.6509e-06	3.9989e-06	1143.4	221.49	3.8298e-06	4.004e-06	278.72	81.732	64.213	18.784	3.6637e-06	26.557	356.062	93.188	113.786	10.298	155.844	134.392	10.251	17.513	178.695	153.587	17.258	23.792	24.281	31.097	158.518	30.147	-8191	255	
32286.252	1	1	0	0	0.19025	0.24916	0.10159	0.051926	0.15216	0.25796	0.366	0.069792	0.093167	0.13224	0.04697	0.10392	0.2338	0.14261	0.13611	0.057074	-3.8521	-4.2542	-4.7	-4.3	-4.5229	-4.3333	-4.3604	-4.7917	-4.1833	-4.3333	-4.7042	-4.0687	-4.5979	-4.4896	-4.1458	-4.7958	93.681	257.893	316.275	311.868	200.671	157.711	331.904	68.290	144.037	305.317	334.420	278.837	340.710	93.078	328.488	268.914	0.00048545	0.00036572	7.2433e-05	1083.2	4.3928e-06	2.2321e-06	1155.9	222.36	5.1283e-06	2.7039e-06	278.28	81.221	64.08	18.403	3.5562e-06	25.97	0.00034393	0.00034029	0.00010078	1073.9	4.0096e-06	3.7483e-06	1143.1	221.88	4.0496e-06	3.9959e-06	278	81.656	64.167	18.763	3.7275e-06	26.515	355.372	98.735	112.189	10.355	163.800	154.812	10.328	17.611	168.591	187.529	17.040	24.096	24.231	30.775	158.676	30.100	-8191	255	
32286.324	1	1	0	0	0.17477	0.19506	0.065589	0.22345	0.10975	0.17877	0.3241	0.10686	0.24471	0.13314	0.080654	0.10821	0.035571	0.12331	0.20797	0.07973	-3.7917	-4.2958	-4.625	-4.1062	-4.6062	-4.3812	-4.1292	-4.6937	-4.3354	-4.2042	-4.6687	-4.1833	-4.5604	-4.6208	-3.9437	-4.7042	264.677	173.846	315.773	263.578	85.603	234.560	248.751	302.742	249.512	343.451	62.698	244.232	141.059	345.856	336.285	268.395	0.00051674	0.00042224	4.5392e-05	1086.6	4.776e-06	2.6592e-06	1158.3	222.06	5.7614e-06	3.355e-06	278.8	81.258	63.761	18.577	3.3771e-06	26.188	0.00033984	0.00035099	7.8699e-05	1074.9	3.7189e-06	3.9171e-06	1144.2	221.56	3.8809e-06	3.897e-06	278.24	81.687	64.029	18.789	4.0227e-06	26.535	348.444	91.859	71.722	10.237	163.135	177.434	10.272	17.492	145.583	152.920	17.366	24.107	23.930	30.757	175.530	30.587	-8191	255	
32286.445	1	1	0	0	0.15399	0.11165	0.048607	0.3046	0.070197	0.087279	0.25232	0.23637	0.043349	0.18359	0.30735	0.16629	0.15412	0.13019	0.063316	0.15889	-3.9917	-4.2354	-4.7792	-4.1937	-4.3958	-4.6833	-4.2729	-4.7229	-4.4313	-4.1479	-4.9292	-4.2229	-4.3854	-4.6396	-4.125	-4.6667	330.426	315.033	89.689	253.419	49.216	10.311	246.790	191.507	160.957	38.303	292.189	97.611	317.787	185.921	348.594	245.534	0.00048472	0.0002918	9.2588e-05	1087.5	2.271e-06	3.2086e-06	1158.7	222.7	6.1136e-06	1.5244e-06	278.63	81.101	63.921	18.613	2.5068e-06	26.053	0.00033293	0.00035773	8.7622e-05	1075.7	4.2054e-06	3.4682e-06	1144.4	221.65	4.0864e-06	3.901e-06	277.99	81.731	64.274	18.853	4.0056e-06	26.514	345.912	76.735	76.123	10.304	158.236	173.808	10.393	17.583	172.011	167.591	17.042	24.117	24.351	30.945	172.954	30.126	-8191	255	
32286.541	1	1	0	0	0.11367	0.18323	0.15332	0.23555	0.058538	0.036685	0.10026	0.19038	0.19824	0.16569	0.12412	0.15304	0.16417	0.30071	0.040807	0.18893	-4.0333	-4.2125	-4.75	-4.35	-4.2979	-4.6458	-4.2083	-4.6604	-4.3562	-3.9813	-4.7604	-4.2771	-4.3646	-4.7167	-3.9917	-4.45	326.367	85.864	111.861	2.528	69.132	284.082	195.337	341.136	164.059	101.860	310.186	303.487	321.760	345.241	245.629	312.813	0.00049251	0.00029159	0.00010305	1085	6.6955e-06	3.0663e-06	1159.8	222.58	6.4487e-06	3.5802e-06	277.36	81.533	64.741	18.517	4.9326e-06	26.126	0.000341	0.00041193	8.9229e-05	1076.2	4.73e-06	3.7335e-06	1146	222.02	3.6294e-06	4.2125e-06	278	81.668	64.507	18.826	4.0261e-06	26.538	351.026	69.895	76.340	10.322	168.451	155.363	10.068	17.656	158.959	144.950	17.075	23.749	24.568	30.895	179.723	30.259	-8191	255	
32286.637	1	1	0	0	0.12518	0.099731	0.026389	0.28668	0.16057	0.13819	0.17552	0.22198	0.20454	0.089661	0.16674	0.071004	0.25812	0.11567	0.1217	0.25081	-4.275	-4.2729	-4.5375	-4.4979	-4.1875	-4.7667	-4.3625	-4.4917	-4.5938	-4.0479	-4.6521	-4.2708	-4.2125	-4.7604	-4.0396	-4.3729	89.417	67.392	176.060	354.390	251.050	155.125	324.078	310.325	345.712	312.583	72.356	234.119	304.083	245.379	102.637	358.205	0.00050707	0.0002342	0.00010412	1088.3	5.0346e-06	3.2622e-06	1156.5	222.16	5.0848e-06	1.8857e-06	279.58	81.488	64.039	18.48	3.664e-06	26.192	0.00034934	0.00037634	9.0738e-05	1076.6	4.1895e-06	3.6839e-06	1144.9	221.86	4.0261e-06	4.0748e-06	278.45	81.926	64.171	18.803	3.9737e-06	26.628	351.278	60.646	104.009	10.076	172.592	159.887	10.339	17.280	156.874	161.472	17.052	24.081	24.161	30.510	156.934	30.285	-8191	255	
32286.732	1	1	0	0	0.15507	0.063679	0.22254	0.087587	0.051725	0.13213	0.1787	0.15377	0.12432	0.090461	0.30513	0.094612	0.16197	0.16984	0.15548	0.093635	-4.1917	-4.0667	-4.5708	-4.6792	-4.1292	-4.7937	-4.4062	-4.6917	-4.6146	-4.0125	-4.5417	-4.5896	-4.3583	-4.6896	-4.2646	-4.3562	248.468	142.830	155.808	331.002	60.523	135.905	310.602	267.148	343.135	248.995	-0.285	272.941	147.191	316.635	317.229	99.235	0.00047706	0.00027889	7.5248e-05	1086.6	3.271e-06	4.7241e-06	1160.2	223.45	4.5077e-06	2.6275e-06	278.08	81.561	63.772	18.54	3.5532e-06	26.114	0.00034465	0.00038937	9.5167e-05	1076.5	4.4403e-06	3.9948e-06	1147.3	222.16	3.7817e-06	4.0307e-06	278.32	81.84	64.195	18.85	3.7708e-06	26.587	353.776	62.407	93.353	10.360	162.111	151.483	10.337	17.541	160.626	139.243	17.142	23.727	24.342	30.674	144.242	29.990	-8191	255	
32286.852	1	1	0	0	0.11123	0.085528	0.10678	0.12573	0.20361	0.10069	0.0657	0.17524	0.11201	0.072172	0.14519	0.059048	0.19887	0.056311	0.072923	0.056983	-4.4792	-4.1208	-4.4646	-4.5021	-4.3458	-4.7812	-4.5896	-4.2396	-4.5896	-4.1792	-4.6042	-4.4646	-4.1292	-4.6333	-4.5104	-4.2438	202.934	216.077	230.513	283.997	33.229	9.666	296.667	260.300	234.356	127.216	256.081	85.191	281.614	100.001	182.203	245.389	0.00053176	0.00029529	9.7331e-05	1087.7	3.0768e-06	3.3969e-06	1161	222.43	5.1667e-06	4.8029e-06	278.66	81.221	63.984	18.546	3.6203e-06	26.133	0.00034735	0.00033308	9.3297e-05	1076.8	4.2774e-06	4.023e-06	1146.7	221.88	3.8563e-06	4.2673e-06	278.33	81.756	64.235	18.83	3.5737e-06	26.609	352.149	113.430	103.662	10.156	183.416	148.867	10.259	17.538	192.687	168.268	17.128	24.051	24.678	30.959	161.273	30.277	-8191	255	
32286.926	1	1	0	0	0.27137	0.022292	0.059116	0.3211	0.12856	0.13347	0.15118	0.15293	0.088523	0.21702	0.14112	0.1373	0.10371	0.16523	0.13165	0.083462	-4.3	-4.0417	-4.4	-4.8313	-3.9458	-4.6479	-4.5542	-4.1917	-4.6917	-4.2646	-4.3958	-4.7021	-4.2729	-4.5875	-4.3729	-4.2583	73.776	351.413	229.323	332.283	47.708	233.701	17.317	328.096	165.908	33.219	42.611	21.901	131.283	232.209	272.202	161.378	0.0005023	0.00034818	4.5898e-05	1088.5	4.0516e-06	2.2031e-06	1159.5	223.76	5.3369e-06	2.6281e-06	278.13	81.728	64.112	18.675	4.4357e-06	26.389	0.0003447	0.00037239	9.9234e-05	1078.4	3.9996e-06	3.6732e-06	1146.6	222.47	3.7694e-06	4.2112e-06	279.15	81.842	64.304	18.9	3.5737e-06	26.647	348.041	88.773	102.192	10.199	160.176	157.593	10.292	17.926	177.953	175.182	17.156	24.061	24.280	31.025	151.132	30.238	-8191	255	
32287.045	1	1	0	0	0.074603	0.13142	0.22888	0.15371	0.31597	0.045511	0.21268	0.063405	0.071884	0.032162	0.20393	0.12411	0.085641	0.03084	0.043959	0.07195	-4.3521	-4.1687	-4.3604	-4.9812	-4.1646	-4.5708	-4.6937	-3.9583	-4.8896	-4.2833	-4.3417	-4.7792	-4.2	-4.4708	-4.5583	-4.1271	170.574	204.326	111.868	319.420	203.437	259.014	329.968	220.910	250.487	180.958	310.722	236.219	103.528	161.534	48.793	298.587	0.00047679	0.00022643	0.00011485	1090.6	4.5199e-06	2.4246e-06	1161.1	223.75	4.2853e-06	2.893e-06	280.12	81.705	64.891	18.434	4.2702e-06	26.117	0.00033243	0.00035971	9.6577e-05	1076.3	4.1765e-06	3.9319e-06	1146.2	222.35	3.521e-06	4.1417e-06	278.97	82.049	64.531	18.821	3.9087e-06	26.578	347.564	82.410	109.059	10.129	147.695	139.622	10.198	17.701	177.129	187.161	17.286	24.070	23.574	31.234	143.639	30.076	-8191	255	
32287.141	1	1	0	0	0.10766	0.13288	0.10069	0.26367	0.12726	0.059198	0.14133	0.11767	0.069908	0.060355	0.16398	0.11201	0.14468	0.043244	0.20518	0.10666	-4.475	-4.3896	-4.3604	-4.8187	-4.2646	-4.4688	-4.6354	-4.1354	-4.6271	-4.3854	-4.2375	-4.7063	-4.2792	-4.5271	-4.6354	-4.2979	218.060	18.455	124.005	276.936	90.037	246.116	26.350	100.278	27.024	285.761	326.519	317.014	172.836	165.044	261.837	341.414	0.00050101	0.00017607	8.9104e-05	1089.3	4.606e-06	2.8852e-06	1156.6	222.48	5.1972e-06	2.0679e-06	279.11	81.44	63.644	18.637	2.23e-06	26.182	0.0003347	0.00035552	0.00010061	1078.5	4.5202e-06	3.9627e-06	1144.8	222.23	3.6815e-06	4.2032e-06	279.18	81.852	64.239	18.86	3.952e-06	26.556	354.574	95.776	90.815	10.003	144.775	172.525	10.473	17.686	181.170	171.123	17.144	23.924	23.976	31.278	146.730	30.684	-8191	255	
32287.236	1	1	0	0	0.17873	0.1804	0.14072	0.35536	0.095297	0.22783	0.069735	0.065913	0.20338	0.28934	0.10307	0.094282	0.13542	0.13567	0.13133	0.12944	-4.3354	-4.3562	-3.9792	-4.9792	-4.0417	-4.4771	-4.6833	-4.1771	-4.5792	-4.4104	-4.3042	-4.7104	-4.1042	-4.3917	-4.6417	-4.2375	345.264	300.296	160.695	356.107	232.261	62.165	310.526	265.180	193.999	121.612	33.487	31.021	51.796	282.949	169.701	323.086	0.00048574	0.00042119	8.3052e-05	1085.4	5.1567e-06	2.8688e-06	1155.9	224.11	8.4507e-06	3.3466e-06	277.45	81.497	64.245	18.622	2.497e-06	26.166	0.00034741	0.00037669	0.00010055	1076.5	4.1365e-06	4.2843e-06	1146.7	222.48	3.9116e-06	3.7139e-06	278.06	81.916	64.319	18.88	3.4529e-06	26.625	345.523	93.717	79.967	10.088	154.468	129.769	10.153	17.644	174.014	156.045	16.987	23.964	24.189	30.953	100.969	30.524	-8191	255	
32287.332	1	1	0	0	0.085212	0.062442	0.14959	0.2094	0.079624	0.081405	0.19181	0.1084	0.16303	0.094438	0.21301	0.071007	0.10983	0.11125	0.17524	0.2146	-4.1604	-4.4375	-4.0333	-4.8958	-4.2917	-4.4208	-4.8229	-4.2854	-4.625	-4.6646	-4.1	-4.7708	-4.4875	-4.2354	-4.7646	-4.175	115.095	289.960	103.479	340.705	184.675	136.280	3.555	231.064	52.235	79.329	272.116	48.543	334.425	334.387	324.427	335.161	0.0004804	0.00034737	0.00010166	1087.5	4.9077e-06	3.6239e-06	1157.4	222.81	3.4146e-06	1.5668e-06	277.47	81.435	64.303	18.619	4.0508e-06	25.973	0.00034531	0.00033738	0.00011465	1077.6	4.3923e-06	3.8515e-06	1146.5	222.09	3.933e-06	3.8208e-06	278.39	82.011	64.11	18.834	3.8278e-06	26.559	353.593	105.909	94.407	10.046	159.674	166.113	10.170	17.679	184.697	144.492	17.276	23.999	24.029	30.946	173.078	30.377	-8191	255	
32287.453	1	1	0	0	0.11463	0.10501	0.037581	0.31024	0.27395	0.072502	0.093409	0.053839	0.28199	0.091254	0.24701	0.056989	0.1507	0.080089	0.16053	0.19417	-4.025	-4.4146	-4.0687	-4.5646	-4.4417	-4.1833	-4.8458	-4.2542	-4.4875	-4.7104	-4.1708	-4.7	-4.4	-4.0792	-4.7312	-4.2042	220.533	71.683	334.802	296.635	342.968	174.923	176.349	312.786	31.421	173.423	319.426	244.213	319.551	22.232	254.321	166.465	0.00054673	0.00030233	9.0868e-05	1089.7	4.4089e-06	3.2647e-06	1155	223.21	5.5499e-06	2.5106e-06	280.25	81.867	64.27	18.622	4.7015e-06	26.344	0.00037211	0.00036273	0.00011167	1078.7	4.2584e-06	4.5094e-06	1146.9	222.3	4.2755e-06	3.6925e-06	278.99	82.151	64.359	18.864	3.9759e-06	26.68	349.970	98.608	82.685	10.229	156.370	114.669	10.272	17.821	200.584	168.300	17.270	23.755	24.006	31.055	146.525	29.984	-8191	255	
32287.551	1	1	0	0	0.15586	0.13087	0.26227	0.14215	0.17775	0.21814	0.20695	0.28717	0.34907	0.14289	0.11743	0.17144	0.23102	0.1184	0.23871	0.16484	-4.1729	-4.5104	-4.1333	-4.5792	-4.3479	-4.0125	-4.7583	-4.2833	-4.2937	-4.6521	-4.1625	-4.5042	-4.4208	-4.1188	-4.6646	-4.4583	70.946	98.829	80.385	163.089	345.458	274.762	270.485	341.404	244.510	259.986	315.306	27.516	353.320	86.121	164.645	154.691	0.00052554	0.00016262	6.2691e-05	1093.5	4.5717e-06	3.8212e-06	1164.6	224.42	5.8868e-06	3.4234e-06	280.5	81.726	64.596	18.61	2.7089e-06	26.169	0.00036885	0.0003632	0.00010947	1082	4.0955e-06	4.0793e-06	1150.2	222.93	4.0332e-06	3.4157e-06	278.83	81.967	64.538	18.887	3.5953e-06	26.672	350.374	106.579	109.224	10.205	163.555	170.169	10.453	17.547	166.837	153.837	17.145	23.789	24.433	31.229	157.021	30.094	-8191	255	
32287.621	1	1	0	0	0.23817	0.15441	0.28794	0.25399	0.18654	0.1516	0.01527	0.23738	0.16285	0.259	0.10791	0.17322	0.11794	0.29304	0.1899	0.11718	-3.9417	-4.5875	-4.1229	-4.6854	-4.6208	-4.0375	-4.6854	-4.4062	-4.15	-4.5167	-4.0917	-4.4583	-4.6062	-3.9875	-4.5458	-4.4396	250.602	281.748	191.474	314.586	143.389	140.478	205.282	318.147	270.897	344.503	296.652	124.010	341.825	331.396	354.917	28.115	0.00048311	0.00037827	0.00011823	1097	5.5192e-06	3.4222e-06	1163.4	223.69	7.1942e-06	2.0218e-06	279.39	82.273	64.358	18.726	4.8573e-06	26.194	0.00035448	0.00033738	0.0001097	1083.9	4.0066e-06	4.1222e-06	1152	222.78	4.5219e-06	4.1724e-06	278.92	82.131	64.578	18.981	4.0272e-06	26.68	355.808	74.261	105.541	10.307	167.612	145.784	10.452	17.454	174.431	159.459	17.160	24.030	23.596	31.245	132.389	29.994	-8191	255	
32287.742	1	1	0	0	0.18414	0.18546	0.14057	0.13263	0.10958	0.023018	0.1699	0.10384	0.17262	0.073155	0.040739	0.20247	0.19249	0.15614	0.27502	0.12159	-3.7896	-4.7625	-4.1083	-4.5854	-4.5958	-4.2146	-4.7688	-4.4396	-4.2063	-4.6354	-4.2646	-4.2771	-4.7979	-4.0354	-4.6687	-4.4167	259.643	52.940	37.496	347.941	174.816	192.868	277.259	295.153	40.188	346.177	190.638	342.325	296.627	295.547	111.042	62.017	0.00052062	0.00043528	7.6552e-05	1094.6	5.4057e-06	3.615e-06	1167.9	223.11	4.7893e-06	1.5458e-06	281.37	82.295	64.144	18.69	4.4508e-06	26.376	0.00036355	0.00036134	0.00011672	1085.8	4.2684e-06	4.3821e-06	1154.9	222.96	3.9218e-06	3.9853e-06	279.96	82.348	64.379	18.928	3.8062e-06	26.776	342.094	94.638	104.444	10.234	162.528	152.751	10.103	17.196	180.235	138.889	17.219	23.885	24.586	30.914	148.900	30.169	-8191	255	
32287.836	1	1	0	0	0.064096	0.090213	0.065584	0.24418	0.18934	0.14731	0.24656	0.33358	0.16717	0.18398	0.11874	0.21297	0.17072	0.10504	0.18226	0.052421	-3.9813	-4.7292	-4.3562	-4.4271	-4.6771	-4.0437	-4.6271	-4.5021	-4.0167	-4.7646	-4.2063	-4.2354	-4.6583	-4.1917	-4.4979	-4.6292	236.087	98.155	180.001	319.606	172.732	225.606	274.869	273.252	249.230	216.552	226.853	239.743	77.677	42.120	53.541	357.006	0.00054819	0.00051788	0.00010528	1098.8	3.5582e-06	3.0885e-06	1170.2	223.89	6.8358e-06	3.3215e-06	281.52	82.32	65.032	18.715	2.8627e-06	26.282	0.00036316	0.00038018	0.00010589	1084.8	3.9417e-06	4.5403e-06	1154.8	223.24	4.1896e-06	4.2219e-06	280.49	82.408	64.892	18.981	3.5167e-06	26.796	350.264	89.782	84.103	10.197	143.488	127.949	10.317	17.547	167.711	155.372	17.040	24.066	24.484	30.940	170.185	30.468	-8191	255	
32287.932	1	1	0	0	0.16841	0.055271	0.10808	0.28677	0.12199	0.14099	0.34497	0.23135	0.10027	0.087015	0.23018	0.24379	0.13889	0.25092	0.1903	0.14577	-3.8042	-4.6937	-4.3562	-4.4667	-4.7312	-4.1687	-4.5854	-4.5979	-4.2396	-4.6458	-4.5	-4.2583	-4.7625	-4.2979	-4.2875	-4.8958	126.179	273.282	111.576	338.770	233.349	318.376	237.886	303.203	174.342	58.349	349.368	305.181	278.194	311.876	345.020	292.301	0.00052549	0.00027797	8.1548e-05	1099	4.6491e-06	2.359e-06	1168.9	223.92	4.9494e-06	2.846e-06	280.78	82.171	64.601	18.866	3.6281e-06	26.182	0.00037344	0.00035122	0.00010612	1086	4.2844e-06	4.2856e-06	1156.3	223.33	4.25e-06	3.9812e-06	280.41	82.585	64.803	19.05	3.9668e-06	26.76	351.366	88.864	74.595	10.286	145.183	162.756	10.141	17.466	187.585	176.698	17.239	23.984	24.273	30.967	139.909	30.572	-8191	255	
32288.029	1	1	0	0	0.16459	0.035487	0.12803	0.083312	0.066209	0.087328	0.3021	0.087649	0.2061	0.01025	0.086554	0.13267	0.13676	0.30484	0.055504	0.15864	-3.7354	-4.7146	-4.4396	-4.2688	-4.7	-4.2042	-4.3854	-4.8333	-4.0917	-4.6188	-4.3583	-4.0979	-4.575	-4.2833	-4.175	-4.775	306.363	69.817	309.921	321.722	328.206	284.406	289.609	102.039	353.221	156.861	320.972	118.305	10.120	91.972	195.276	256.076	0.00051462	0.00042632	4.3121e-05	1097.2	5.9859e-06	3.4614e-06	1168	224.43	6.1131e-06	2.7116e-06	281.77	82.052	64.873	18.728	5.5101e-06	26.342	0.00038604	0.00036983	9.8414e-05	1088.4	4.1195e-06	4.3902e-06	1156.4	223.67	4.2275e-06	3.9679e-06	280.56	82.695	64.904	19.062	4.1173e-06	26.817	347.470	109.646	110.180	10.235	143.653	150.849	10.205	17.404	184.164	169.564	16.940	23.910	24.348	30.972	140.564	30.683	-8191	255	
32288.148	1	1	0	0	0.12409	0.17919	0.12012	0.15104	0.1419	0.23381	0.16386	0.33317	0.09124	0.063662	0.16265	0.056046	0.12971	0.13318	0.087729	0.1208	-3.7104	-4.5437	-4.5292	-4.2646	-4.6708	-4.2542	-4.3771	-4.7042	-4.075	-4.5271	-4.7146	-4.1937	-4.7063	-4.5229	-4.2875	-4.8729	227.616	331.410	153.997	336.759	220.237	97.266	331.447	266.295	318.294	271.605	331.034	309.671	276.383	146.597	101.951	237.060	0.00046343	0.00031215	6.1431e-05	1099.1	5.114e-06	3.6121e-06	1164.9	223.31	5.0918e-06	3.0557e-06	282	82.808	64.645	18.793	4.5258e-06	26.346	0.0003662	0.00035494	9.7791e-05	1087.1	4.3653e-06	4.5228e-06	1156.6	223.09	4.1661e-06	4.5093e-06	280.86	82.717	64.85	19.053	3.9862e-06	26.904	356.156	85.051	77.215	10.277	167.924	147.189	10.135	17.620	181.433	168.715	16.930	23.981	24.300	31.216	182.520	30.203	-8191	255	
32288.221	1	1	0	0	0.29813	0.029881	0.086077	0.26417	0.12028	0.19587	0.1401	0.22009	0.27848	0.070261	0.27396	0.022201	0.23572	0.20235	0.22772	0.25409	-3.9833	-4.5375	-4.6729	-4.1271	-4.6917	-4.4104	-4.3125	-5.0708	-4.2208	-4.4625	-4.6438	-4.025	-4.6271	-4.3208	-4.1729	-4.7771	279.939	325.370	99.070	316.724	197.128	130.967	253.179	269.817	273.883	130.130	267.386	183.078	132.017	225.156	339.643	11.629	0.00052626	0.00035382	7.9479e-05	1105.5	5.0892e-06	1.5141e-06	1168.7	224.56	2.8192e-06	2.3601e-06	281.32	82.139	64.857	18.894	3.9418e-06	26.242	0.00036736	0.00037867	0.00010786	1088.8	4.4772e-06	4.2227e-06	1155.8	223.55	4.0843e-06	4.2526e-06	281.23	82.783	64.862	19.089	4.0694e-06	26.807	350.385	117.535	96.486	10.351	155.892	154.424	10.158	17.720	149.044	176.242	17.135	23.789	24.411	30.752	183.864	30.028	-8191	255	
32288.316	1	1	0	0	0.10827	0.13481	0.052686	0.20138	0.11225	0.064414	0.12795	0.28418	0.17547	0.13209	0.2046	0.17418	0.068204	0.22236	0.043689	0.094196	-3.7396	-4.2854	-4.6771	-4.1625	-4.5563	-4.4583	-4.3042	-4.8396	-4.4187	-4.3333	-4.7354	-4.1896	-4.6062	-4.5813	-4.0854	-4.675	266.678	9.006	187.173	339.850	104.563	7.115	196.271	335.329	210.355	56.570	315.316	47.027	334.467	351.133	12.173	215.574	0.00056848	0.00023288	5.536e-05	1101	5.3866e-06	2.623e-06	1168.3	224.75	5.6501e-06	2.5283e-06	280.59	82.803	64.357	18.747	3.3988e-06	26.231	0.00036145	0.00039506	9.8939e-05	1088.8	4.4023e-06	4.2816e-06	1155.7	223.64	4.2377e-06	4.3863e-06	280.85	82.878	64.845	19.037	4.2711e-06	26.78	356.992	101.427	106.729	10.151	156.459	167.971	10.171	17.631	153.218	157.170	17.010	23.691	24.303	30.781	166.252	30.433	-8191	255	
32288.412	1	1	0	0	0.15318	0.40922	0.14113	0.20451	0.16188	0.097182	0.24046	0.13477	0.096829	0.065833	0.11318	0.15465	0.039925	0.19439	0.066037	0.18309	-4.0125	-4.2562	-4.7729	-4.3583	-4.5062	-4.5625	-4.2604	-4.7208	-4.4417	-4.2604	-4.8104	-4.3458	-4.6146	-4.7792	-4.225	-4.7583	57.259	16.694	273.043	327.317	340.447	336.366	249.153	2.273	21.112	117.474	296.326	23.544	308.440	346.610	178.250	193.089	0.0004821	0.00032592	6.0848e-05	1100.8	5.7319e-06	3.7419e-06	1167.6	224.74	6.3282e-06	3.3259e-06	280.25	82.218	64.309	18.828	4.4628e-06	26.345	0.00038289	0.00039285	9.8152e-05	1088	4.2654e-06	4.1704e-06	1156.5	223.61	4.3685e-06	4.8756e-06	280.58	82.726	64.919	19.037	4.0079e-06	26.815	354.682	79.125	103.596	10.274	168.689	128.707	10.357	17.692	149.533	165.670	17.079	23.690	24.405	31.179	145.690	30.410	-8191	255	
32288.533	1	1	0	0	0.12008	0.14057	0.32379	0.023712	0.10856	0.17631	0.037729	0.29584	0.26656	0.039735	0.082974	0.32875	0.2712	0.23269	0.20968	0.15139	-4.1188	-4.1813	-4.7917	-4.4021	-4.525	-4.6396	-4.1417	-4.7667	-4.3125	-3.9583	-4.9292	-4.1438	-4.3	-4.7438	-3.9729	-4.6146	109.404	104.906	259.663	280.839	295.029	118.380	14.336	328.503	81.367	293.145	191.712	356.619	353.480	342.533	298.008	241.269	0.00054618	0.00022233	7.2488e-05	1097.6	4.7212e-06	2.5992e-06	1170.1	223.57	2.8832e-06	3.5071e-06	279.97	82.229	64.575	18.672	3.1052e-06	26.233	0.00036029	0.00040588	9.7988e-05	1088.6	4.2654e-06	4.2267e-06	1156.1	223.5	3.8431e-06	4.758e-06	280.91	82.726	64.771	19.033	4.2084e-06	26.79	352.330	98.526	101.792	10.339	166.167	145.665	10.347	17.504	165.314	151.526	17.400	23.772	24.496	31.075	141.956	30.331	-8191	255	
32288.631	1	1	0	0	0.1293	0.10571	0.46613	0.28653	0.13524	0.1975	0.22414	0.25502	0.18743	0.07734	0.22619	0.026987	0.063197	0.23792	0.2587	0.065393	-4.2208	-4.0417	-4.6229	-4.6062	-4.3583	-4.6771	-4.1229	-4.5292	-4.4979	-4.0792	-4.5583	-4.3042	-4.3125	-4.7	-4.0271	-4.4625	315.900	282.773	65.104	283.605	46.237	352.707	338.961	296.734	339.902	217.785	316.360	314.890	59.010	98.615	308.166	344.936	0.00051194	0.00028086	8.823e-05	1103.8	5.302e-06	3.557e-06	1170.7	222.79	5.1179e-06	3.1039e-06	280.95	82.229	64.92	18.77	3.3627e-06	26.389	0.00036791	0.00038611	9.5724e-05	1091.2	4.5592e-06	3.8421e-06	1158.4	223.21	4.0281e-06	4.0066e-06	280.78	82.625	64.95	19.028	4.0762e-06	26.892	348.526	95.116	67.857	10.313	157.997	143.238	10.369	17.508	188.241	157.035	17.226	23.745	24.406	31.110	138.749	30.252	-8191	255	
32288.727	1	1	0	0	0.17608	0.21234	0.12172	0.28452	0.021446	0.21954	0.2776	0.2999	0.048479	0.12195	0.029806	0.21582	0.11434	0.011413	0.075222	0.14795	-4.2771	-4.0333	-4.6146	-4.4375	-4.2188	-4.7604	-4.2208	-4.6562	-4.5	-4.0875	-4.5979	-4.6021	-4.0104	-4.6708	-4.1854	-4.4563	156.966	15.570	186.482	317.869	95.058	198.249	279.815	340.067	41.368	230.926	228.820	318.875	87.813	91.636	179.884	47.800	0.00051713	0.00024584	6.4075e-05	1099.4	4.9889e-06	2.9399e-06	1171.6	224.61	4.8556e-06	1.9786e-06	280.44	82.618	64.551	18.727	2.9353e-06	26.471	0.00035946	0.00038937	9.7463e-05	1088.4	4.3214e-06	4.0243e-06	1158.4	223.79	4.0281e-06	4.0842e-06	280.48	82.715	64.839	19.075	3.9908e-06	26.824	352.446	102.085	100.844	10.072	145.112	135.652	10.077	17.431	168.247	150.969	16.974	23.795	24.367	31.132	162.746	29.991	-8191	255	
32288.822	1	1	0	0	0.2135	0.24302	0.28695	0.099243	0.11111	0.15828	0.080279	0.24642	0.075256	0.10109	0.10018	0.12377	0.087384	0.055262	0.20529	0.058651	-4.3667	-4.075	-4.5292	-4.5292	-4.125	-4.8146	-4.3417	-4.4437	-4.5542	-4.0458	-4.5604	-4.7333	-4.1396	-4.7188	-4.2667	-4.2792	116.622	114.367	326.033	349.155	253.504	118.507	8.901	314.618	205.319	213.586	250.434	349.575	253.060	239.768	41.121	318.099	0.00052166	0.00030363	7.3217e-05	1100.2	4.8029e-06	3.6806e-06	1168.7	223.86	6.1298e-06	1.8989e-06	280.42	82.666	64.667	18.869	5.3245e-06	26.35	0.00036404	0.00040227	0.00010261	1089.2	4.5921e-06	4.1637e-06	1157.5	223.84	3.9555e-06	4.6898e-06	280.52	82.813	64.831	19.117	4.4227e-06	26.871	350.477	83.190	71.035	10.445	158.639	156.958	10.082	17.594	187.670	151.115	17.340	23.894	24.203	30.830	167.085	30.187	-8191	255	
32288.918	1	1	0	0	0.12869	0.15229	0.15638	0.21318	0.15542	0.13212	0.19675	0.17794	0.075523	0.10525	0.14099	0.33973	0.04646	0.2309	0.1104	0.13703	-4.3354	-4.0062	-4.6021	-4.6646	-4.0979	-4.4958	-4.4625	-4.4396	-4.6021	-4.0792	-4.4979	-4.5854	-4.0062	-4.65	-4.2333	-4.2146	256.788	193.307	254.366	12.218	248.560	204.377	289.938	338.356	334.371	190.141	56.093	69.038	200.896	52.163	333.234	229.665	0.00053874	0.00022462	8.5169e-05	1099.3	5.1435e-06	3.0537e-06	1169	224.18	6.1185e-06	2.5411e-06	281.18	82.48	64.698	18.767	3.9294e-06	26.413	0.00035404	0.00038471	0.00011193	1088	4.4163e-06	4.1195e-06	1158	223.95	4.25e-06	4.3743e-06	280.71	82.677	64.794	19.039	3.9953e-06	26.847	354.313	100.114	92.932	10.233	164.488	147.472	10.229	17.622	151.331	141.040	17.158	24.041	24.216	31.136	173.972	30.684	-8191	255	
32289.014	1	1	0	0	0.13711	0.10024	0.12103	0.22301	0.31777	0.17909	0.20887	0.3334	0.087333	0.084656	0.12214	0.09222	0.064464	0.054426	0.13512	0.077355	-4.2937	-4.1813	-4.3167	-4.6021	-4.0813	-4.7271	-4.4437	-4.25	-4.7417	-4.1667	-4.4958	-4.6917	-3.975	-4.5437	-4.3417	-4.2125	68.166	235.880	345.366	300.930	92.883	122.152	335.254	7.508	67.944	85.441	291.874	183.714	256.200	265.863	313.186	285.456	0.0004734	0.00028157	0.00010679	1099.5	5.3019e-06	3.4708e-06	1170.9	225.53	6.7545e-06	2.5573e-06	282.42	82.644	64.565	18.843	3.1314e-06	26.275	0.00037062	0.00038843	0.00011072	1088.5	4.2744e-06	4.2119e-06	1158.8	223.93	3.886e-06	4.4545e-06	281.36	82.85	64.724	19.03	4.001e-06	26.795	348.000	95.682	114.833	10.328	167.936	147.475	9.987	17.730	158.871	166.915	17.101	23.992	24.303	30.818	167.782	29.965	-8191	255	
32289.133	1	1	0	0	0.11639	0.13225	0.10157	0.14896	0.15445	0.24398	0.17187	0.083437	0.10542	0.25103	0.20287	0.18985	0.093753	0.11465	0.076134	0.14282	-4.4021	-4.2167	-4.3208	-4.8333	-3.9854	-4.4833	-4.5917	-4.2021	-4.6687	-4.2521	-4.3208	-4.6229	-4.2188	-4.4917	-4.45	-4.1542	283.485	307.602	236.856	331.359	352.516	228.405	301.302	234.654	137.712	199.181	356.907	268.762	12.159	50.257	109.415	39.209	0.00051629	0.00031061	0.00012181	1101.6	5.1437e-06	2.3981e-06	1170.3	224.56	2.498e-06	2.1919e-06	281.68	82.797	64.333	18.72	1.7687e-06	26.372	0.00035415	0.00038902	0.00010225	1088.3	4.4522e-06	4.019e-06	1157.4	223.8	3.7817e-06	4.0668e-06	281.34	82.756	64.88	19.018	3.8905e-06	26.827	349.751	105.659	84.004	10.225	155.167	82.000	10.235	17.424	187.817	203.171	17.195	23.507	23.808	30.805	188.640	30.361	-8191	255	
32289.230	1	1	0	0	0.073287	0.22849	0.045451	0.1199	0.10274	0.076467	0.095587	0.021805	0.23738	0.16031	0.17506	0.055358	0.12667	0.28402	0.31284	0.098411	-4.4396	-4.4604	-4.1979	-4.7458	-4.0437	-4.4417	-4.7208	-4.0896	-4.5458	-4.4062	-4.2438	-4.8542	-4.2708	-4.5271	-4.6271	-4.1687	278.150	193.884	242.149	283.381	106.386	255.827	110.809	251.913	108.021	67.570	245.368	66.339	356.493	142.981	200.453	29.402	0.00046301	0.00035794	7.9326e-05	1097.1	5.0157e-06	2.7579e-06	1175.2	225.02	6.1755e-06	4.4274e-06	281.34	82.662	64.376	18.817	5.3112e-06	26.249	0.00036659	0.000411	0.00010789	1089.2	4.6031e-06	4.2669e-06	1158.6	224.07	4.4115e-06	4.2005e-06	280.76	82.689	64.914	19.056	3.4894e-06	26.861	351.863	85.439	84.775	10.233	170.149	155.415	10.152	17.684	175.720	128.882	17.084	23.820	24.206	31.117	156.060	30.169	-8191	255	
32289.326	1	1	0	0	0.048891	0.085163	0.1145	0.031201	0.10059	0.13391	0.098139	0.15162	0.25258	0.091784	0.13246	0.10335	0.1647	0.070208	0.11969	0.066916	-4.1937	-4.5604	-4.0229	-4.8271	-4.1792	-4.5333	-4.8	-3.9979	-4.5333	-4.4563	-4.1396	-4.7354	-4.4896	-4.3812	-4.6083	-4.0667	311.240	111.870	10.997	240.927	176.010	290.300	67.223	98.861	241.069	112.314	76.617	159.140	340.022	25.375	97.362	258.098	0.00047028	0.00037964	0.00010111	1100.5	3.648e-06	2.1626e-06	1170.8	224.91	2.8373e-06	3.3953e-06	281.32	82.632	64.514	18.769	4.5812e-06	26.409	0.00034177	0.00036948	0.00011642	1088.7	4.5731e-06	3.9225e-06	1158.2	223.97	3.6396e-06	4.3596e-06	281.18	82.778	64.936	19.045	3.7378e-06	26.873	0.516	72.256	100.568	10.146	157.986	132.892	10.074	17.453	177.485	154.074	17.153	23.852	24.158	31.033	136.642	30.041	-8191	255	
32289.445	1	1	0	0	0.31316	0.045152	0.0212	0.23772	0.13659	0.12935	0.28477	0.24529	0.088585	0.095626	0.10991	0.091874	0.29437	0.10211	0.086079	0.087063	-4.2063	-4.6146	-4.1583	-4.8604	-4.2521	-4.2333	-4.9563	-4.1833	-4.5729	-4.4896	-4.1604	-4.7188	-4.5917	-4.3458	-4.7604	-4.2708	95.329	292.158	207.875	338.646	167.571	142.205	254.806	344.104	281.227	322.645	136.547	304.751	347.993	282.750	110.118	240.067	0.00055098	0.00029595	0.00011312	1104.7	4.2047e-06	2.3756e-06	1172	225.03	5.7909e-06	3.4311e-06	281.25	83.129	64.743	18.804	3.6284e-06	26.418	0.00036913	0.00035983	0.0001119	1091.1	4.2934e-06	4.2012e-06	1157.1	223.99	4.2336e-06	4.1858e-06	281.8	82.937	64.923	19.08	3.9178e-06	26.881	353.380	80.941	65.266	10.197	174.008	154.482	10.090	17.477	165.333	143.240	17.076	24.038	24.318	30.679	164.545	30.351	-8191	255	
32289.518	1	1	0	0	0.10328	0.16504	0.021333	0.062649	0.17295	0.057712	0.2564	0.40574	0.14158	0.06813	0.25216	0.16918	0.14733	0.10683	0.19902	0.17063	-4.1646	-4.4313	-4.1167	-4.6646	-4.5354	-4.3354	-4.8042	-4.3354	-4.4771	-4.6687	-4.1479	-4.6396	-4.4854	-4.1917	-4.8375	-4.3417	1.557	348.739	332.126	61.844	352.239	70.062	277.471	358.720	143.529	234.423	341.761	233.680	58.595	329.390	42.826	284.494	0.0005017	0.00012891	6.9079e-05	1100.1	4.0905e-06	2.5794e-06	1171.8	224.95	5.5164e-06	4.5087e-06	283.78	82.509	64.819	18.866	3.6535e-06	26.537	0.00034763	0.00033703	0.00011045	1089.9	4.0965e-06	4.149e-06	1158.9	224	4.1845e-06	4.2112e-06	281.45	82.823	64.884	19.117	3.8369e-06	26.889	356.052	66.955	82.287	10.390	151.518	144.307	10.400	17.620	196.578	151.052	17.303	23.791	24.148	30.632	141.102	30.181	-8191	255	
32289.613	1	1	0	0	0.14634	0.12332	0.28204	0.29443	0.14625	0.153	0.09612	0.088943	0.062525	0.16072	0.21867	0.11167	0.14492	0.098151	0.090687	0.058551	-4.0792	-4.6729	-3.9667	-4.75	-4.3208	-4.0667	-4.7167	-4.2521	-4.275	-4.5625	-4.1583	-4.4708	-4.3917	-3.9313	-4.5813	-4.4021	129.729	192.147	57.347	283.792	108.994	66.796	325.053	352.760	207.699	14.237	314.900	308.423	3.904	311.605	46.550	47.796	0.00049954	0.00026195	9.7374e-05	1101.6	4.1214e-06	2.9658e-06	1173.5	225.22	6.1214e-06	2.7961e-06	282.48	82.84	64.605	18.892	5.0511e-06	26.573	0.00037178	0.00036401	0.00010737	1091.3	4.1795e-06	4.5577e-06	1159.6	224.29	4.0956e-06	4.0708e-06	281.99	83.034	65.001	19.1	3.8631e-06	26.825	353.063	93.195	87.678	10.220	137.913	138.618	10.167	17.773	162.322	161.036	16.976	24.171	23.856	31.223	158.382	30.169	-8191	255	
32289.711	1	1	0	0	0.03541	0.098323	0.082072	0.24516	0.20873	0.075308	0.33445	0.18403	0.097661	0.15202	0.15697	0.15742	0.1256	0.035561	0.27005	0.0086443	-4.0062	-4.5687	-4.0979	-4.5938	-4.5	-4.0729	-4.9	-4.4042	-4.2021	-4.8792	-4.2583	-4.575	-4.5479	-3.9958	-4.6917	-4.3667	131.247	131.788	48.151	6.660	117.677	228.277	290.306	343.361	173.996	254.285	141.100	320.830	351.998	190.822	14.363	103.333	0.000462	0.00021635	5.8597e-05	1103.1	4.6471e-06	2.3859e-06	1170.1	223.86	5.3022e-06	1.9997e-06	281.63	82.295	64.946	18.855	3.2763e-06	26.563	0.00036283	0.00033075	0.00011406	1089.8	4.2384e-06	3.9359e-06	1160.3	223.81	4.3951e-06	3.885e-06	281.14	82.659	65.136	19.076	3.846e-06	26.925	349.357	68.539	84.033	10.293	156.424	135.322	10.208	17.395	171.703	131.029	17.307	23.994	24.348	30.937	180.627	30.450	-8191	255	
32289.828	1	1	0	0	0.22228	0.18262	0.17979	0.18172	0.054854	0.019192	0.065908	0.20308	0.072716	0.2652	0.25493	0.088087	0.3847	0.11989	0.19678	0.11886	-3.8167	-4.6833	-4.0833	-4.6875	-4.6229	-4.2417	-4.9625	-4.4396	-4.0771	-4.8208	-4.3771	-4.3604	-4.575	-4.2229	-4.5083	-4.4771	123.782	344.428	317.572	0.401	210.680	235.052	315.023	218.938	58.901	218.387	341.269	229.348	340.918	328.179	33.577	345.177	0.0004608	0.00028104	7.8455e-05	1100.6	4.0031e-06	2.0352e-06	1173.6	224.53	5.5693e-06	2.7258e-06	282.41	82.89	64.621	18.865	4.0905e-06	26.51	0.00035399	0.00034622	0.00010806	1090.5	4.0816e-06	4.3486e-06	1158.1	223.77	4.1518e-06	3.8074e-06	281.89	82.975	64.802	19.162	3.6546e-06	26.932	0.809	92.935	94.879	10.105	146.186	128.313	10.013	17.493	165.260	163.891	16.939	23.801	24.305	30.747	150.990	30.219	-8191	255	
32289.926	1	1	0	0	0.17775	0.30052	0.19703	0.25901	0.20945	0.1686	0.1221	0.069845	0.11326	0.1576	0.13279	0.036278	0.14229	0.034299	0.22828	0.20226	-3.7938	-4.8333	-4.2896	-4.5146	-4.6354	-4.0625	-4.5625	-4.5604	-4.0729	-4.7021	-4.3187	-4.2708	-4.7792	-4.2125	-4.4604	-4.7625	17.941	350.951	51.708	11.626	276.235	71.539	340.491	265.404	350.056	54.602	342.915	75.222	305.088	47.795	107.162	266.108	0.00048498	0.00031919	3.8389e-05	1105.5	6.087e-06	1.9097e-06	1167.7	225.54	3.4649e-06	1.7537e-06	283.43	83.053	64.862	18.912	3.7521e-06	26.365	0.00037117	0.0003725	0.00011167	1091.5	3.8677e-06	4.1289e-06	1159.4	224.19	4.3174e-06	3.905e-06	281.79	83.25	65.207	19.139	3.9463e-06	26.916	348.166	93.068	104.070	10.221	177.516	106.264	10.421	17.344	158.977	164.858	16.913	23.942	24.200	30.906	170.829	30.119	-8191	255	
32290.021	1	1	0	0	0.10891	0.11213	0.21205	0.11272	0.084779	0.052837	0.18028	0.11969	0.06805	0.14617	0.11727	0.31867	0.077808	0.24611	0.074001	0.022688	-3.5917	-4.7479	-4.4437	-4.4062	-4.8063	-4.2042	-4.4917	-4.7833	-4.0292	-4.6521	-4.4667	-4.2438	-4.8	-4.2479	-4.2021	-4.6937	175.532	217.143	101.187	47.286	146.834	115.926	260.123	348.387	102.581	252.379	338.648	45.312	118.645	210.153	309.474	125.284	0.00045987	0.000187	0.00011789	1106.2	3.8507e-06	2.6366e-06	1174.6	225.66	2.6237e-06	4.245e-06	282.57	82.713	65.052	18.968	4.1146e-06	26.359	0.00036078	0.00036599	0.00010065	1091.4	4.1005e-06	4.2468e-06	1161.2	224.93	4.0506e-06	3.7607e-06	281.66	83.052	65.284	19.168	4.0945e-06	26.913	355.782	114.300	86.133	10.369	151.921	132.894	10.313	17.685	213.823	138.355	17.449	24.148	24.478	30.886	154.706	30.319	-8191	255	
32290.096	1	1	0	0	0.16477	0.13073	0.21433	0.21213	0.089854	0.19884	0.20056	0.1075	0.17769	0.11645	0.32638	0.19505	0.2759	0.076874	0.41607	0.15393	-3.85	-4.6125	-4.4354	-4.2771	-4.6813	-4.3646	-4.525	-4.7708	-4.0458	-4.7479	-4.6	-4.0792	-4.7396	-4.2667	-4.3083	-4.7042	191.504	337.496	249.102	295.903	178.538	256.981	284.974	306.745	215.276	237.035	29.776	237.852	7.614	316.305	116.582	278.485	0.00047813	0.0002967	9.8688e-05	1101.2	4.5066e-06	1.8793e-06	1172.4	224.77	4.8394e-06	4.2728e-06	282.09	83.457	64.551	18.957	3.9444e-06	26.476	0.00037206	0.00034389	9.9759e-05	1091.2	3.9367e-06	3.6102e-06	1160	224.11	4.4606e-06	3.7286e-06	281.74	83.238	64.976	19.19	3.9896e-06	26.945	350.148	93.972	77.494	10.443	152.566	117.476	10.117	17.468	177.865	155.678	17.228	23.901	24.097	30.982	151.337	30.245	-8191	255	
32290.215	1	1	0	0	0.13746	0.13243	0.052225	0.1998	0.0625	0.24086	0.21302	0.33229	0.10564	0.12567	0.11972	0.25256	0.06665	0.25816	0.40376	0.20199	-3.7917	-4.3896	-4.5083	-4.3354	-4.7	-4.3083	-4.4	-4.7958	-4.1979	-4.2125	-4.5354	-4.0625	-4.5854	-4.4146	-4.0958	-4.7375	159.219	12.562	128.308	301.959	178.801	247.793	260.230	305.822	134.458	152.745	119.612	29.961	238.177	265.386	241.893	246.786	0.00048852	0.00023991	0.00010412	1103	3.9575e-06	2.748e-06	1168.2	223.67	4.2683e-06	3.092e-06	284.75	82.511	64.903	18.768	3.216e-06	26.41	0.00037095	0.00036238	9.1033e-05	1090.8	4.3373e-06	3.5365e-06	1157.7	223.65	3.8819e-06	3.7179e-06	282.93	82.953	65.289	19.093	3.8574e-06	26.944	352.685	96.075	86.017	10.185	167.770	139.930	10.337	17.522	169.177	133.610	17.357	23.902	24.039	30.651	163.704	30.611	-8191	255	
32290.311	1	1	0	0	0.33384	0.15057	0.01489	0.45469	0.16273	0.071427	0.22743	0.27987	0.15741	0.17772	0.14148	0.37219	0.32947	0.061554	0.31973	0.25141	-3.7583	-4.2729	-4.6708	-4.2771	-4.6604	-4.5625	-4.275	-4.8583	-4.1417	-4.5146	-4.6125	-3.9896	-4.5958	-4.3958	-4.0312	-4.7688	305.483	290.305	182.141	322.707	67.848	172.491	238.601	252.884	242.311	122.396	264.623	356.681	6.061	19.260	154.554	29.852	0.00048118	0.00024177	6.8531e-05	1102	1.8557e-06	3.2279e-06	1171.6	225.2	6.6612e-06	2.4189e-06	282.04	82.564	64.356	18.899	2.4061e-06	26.736	0.00034951	0.00034959	9.0574e-05	1091.9	4.0306e-06	4.1798e-06	1160.8	224.63	4.2418e-06	3.8903e-06	282.06	83.111	65.128	19.118	4.2244e-06	27.013	352.231	131.488	43.051	10.253	191.810	151.722	10.429	17.302	154.276	145.767	17.126	24.032	24.033	30.958	157.043	30.218	-8191	255	
32290.406	1	1	0	0	0.061236	0.012081	0.11386	0.19271	0.14881	0.12045	0.20949	0.21782	0.085224	0.10409	0.13714	0.088627	0.35087	0.0822	0.058568	0.11582	-4.025	-4.2438	-4.5833	-4.1438	-4.6104	-4.575	-4.1958	-4.8292	-4.5479	-4.3083	-4.7458	-4.1687	-4.4354	-4.3938	-4.1208	-4.7021	97.850	204.346	203.250	278.867	265.222	45.571	251.813	76.544	313.859	236.158	280.811	163.744	211.125	24.541	115.321	122.168	0.00051234	0.0002692	8.3533e-05	1100.7	4.8666e-06	2.5492e-06	1170.8	224.86	2.145e-06	2.1956e-06	283.03	82.582	64.779	18.933	4.051e-06	26.446	0.00034514	0.00036994	9.1164e-05	1089	3.9607e-06	3.7885e-06	1158.3	224.03	4.0618e-06	4.4251e-06	282.35	83.064	65.062	19.143	3.9383e-06	26.91	353.137	86.192	98.826	10.232	148.617	147.133	10.299	17.315	168.017	169.109	16.882	23.550	24.515	31.301	132.265	30.574	-8191	255	
32290.527	1	1	0	0	0.19689	0.14668	0.082228	0.12526	0.36412	0.053568	0.031257	0.11516	0.013878	0.10448	0.33512	0.15774	0.19955	0.096554	0.15066	0.099848	-4.0813	-4.0521	-4.7896	-4.3583	-4.3333	-4.6979	-4.15	-4.6333	-4.3917	-4.1937	-4.7646	-4.1375	-4.5125	-4.8646	-4.1021	-4.7125	53.148	145.760	177.765	340.336	83.645	191.367	248.432	114.758	101.632	73.706	227.999	151.653	32.836	307.193	108.983	252.053	0.00051284	0.00037934	8.1169e-05	1101.7	4.93e-06	3.4789e-06	1175.7	224.26	3.9132e-06	2.6442e-06	279.95	82.502	64.88	18.792	3.7025e-06	26.439	0.00037377	0.00036587	9.3986e-05	1090.8	4.2564e-06	4.0364e-06	1159.1	223.85	3.977e-06	4.3783e-06	281.31	82.835	64.999	19.117	4.0534e-06	26.909	351.981	82.832	98.645	10.163	153.382	159.911	10.202	17.629	154.742	178.936	16.848	23.818	24.366	30.731	158.247	29.820	-8191	255	
32290.623	1	1	0	0	0.031598	0.22637	0.16224	0.25075	0.17239	0.079602	0.20608	0.045258	0.20418	0.10149	0.063077	0.12665	0.11791	0.079704	0.18225	0.094394	-4.0729	-4.1958	-4.7958	-4.4125	-4.3021	-4.6646	-4.1396	-4.6	-4.4083	-4.0458	-4.7312	-4.3438	-4.275	-4.6583	-3.9542	-4.675	3.149	69.574	111.216	350.153	287.795	207.822	309.369	148.734	299.057	336.845	88.166	323.321	220.672	25.266	146.389	118.995	0.00048293	0.00030839	7.554e-05	1103.7	3.3235e-06	3.2976e-06	1174.3	225.23	4.7202e-06	2.7573e-06	279.94	82.601	64.811	18.848	3.9295e-06	26.395	0.00034713	0.00040239	9.8218e-05	1089.7	4.2164e-06	3.7885e-06	1159.1	224.06	4.1068e-06	4.397e-06	281.27	83.041	65.067	19.112	3.8278e-06	26.979	353.558	105.684	89.891	10.319	183.341	115.496	10.112	17.541	166.935	168.609	16.891	23.898	24.547	30.685	163.664	30.358	-8191	255	
32290.719	1	1	0	0	0.10159	0.22438	0.23153	0.19753	0.27567	0.078538	0.10067	0.17357	0.058973	0.19591	0.1592	0.066388	0.2662	0.19639	0.21168	0.26915	-4.1146	-4.1333	-4.7458	-4.4646	-4.1729	-4.675	-4.2	-4.7646	-4.5	-4.0646	-4.7854	-4.4625	-4.2479	-4.7458	-4.0979	-4.5271	174.311	203.239	116.964	325.676	283.575	80.650	315.581	308.727	326.994	180.996	321.081	268.635	223.309	50.069	316.925	274.884	0.00046415	0.00030184	0.00010818	1098.3	3.286e-06	1.9235e-06	1171	225.07	5.187e-06	2.3576e-06	281.32	82.898	64.992	18.761	4.1207e-06	26.496	0.00035238	0.00035645	0.00010212	1089.8	4.3963e-06	3.6652e-06	1157.4	223.79	3.75e-06	4.0066e-06	281.71	82.917	65.02	19.113	4.0272e-06	26.952	350.569	65.916	92.968	10.262	133.416	148.110	10.408	17.635	186.588	158.461	17.071	23.803	24.322	30.759	165.957	30.151	-8191	255	
32290.814	1	1	0	0	0.13007	0.17531	0.19789	0.099223	0.27169	0.09268	0.14566	0.24423	0.16622	0.082261	0.022046	0.30374	0.053153	0.13629	0.18593	0.093245	-4.3229	-4.0167	-4.5188	-4.4625	-4.275	-4.8354	-4.5042	-4.4458	-4.6771	-4.1062	-4.4667	-4.3542	-4.1771	-4.7833	-4.1771	-4.3104	185.209	243.028	256.278	324.800	337.617	111.298	288.350	319.917	143.482	196.681	10.332	58.407	307.350	77.930	350.055	167.389	0.00047006	0.00025756	8.6227e-05	1097.7	5.3548e-06	3.4546e-06	1174.1	224.89	6.2848e-06	1.3376e-06	280.21	82.561	64.915	18.788	2.234e-06	26.352	0.00033823	0.00036424	9.2017e-05	1089.7	4.3134e-06	4.031e-06	1157.3	224.36	3.8799e-06	4.0454e-06	281.27	82.824	65	19.153	3.9839e-06	26.919	345.429	83.272	93.769	10.352	165.998	125.934	10.126	17.527	175.902	171.456	17.040	23.895	24.165	30.835	141.780	30.185	-8191	255	
32290.910	1	1	0	0	0.088496	0.19237	0.083559	0.25843	0.098727	0.26483	0.32422	0.25334	0.02636	0.029734	0.10306	0.14346	0.085463	0.082686	0.17975	0.29523	-4.2292	-4.0646	-4.5104	-4.6562	-4.1167	-4.7271	-4.4708	-4.5021	-4.6146	-4.2125	-4.5062	-4.4437	-3.9979	-4.7896	-4.2875	-4.3958	117.015	68.723	202.087	354.355	63.515	188.762	292.631	180.212	76.895	162.839	326.195	329.058	155.542	56.516	143.973	9.825	0.00052635	0.00032981	8.8049e-05	1102	4.4882e-06	2.4476e-06	1171.4	224.8	7.7273e-06	1.5471e-06	283.81	83.254	64.735	18.941	4.5651e-06	26.475	0.00034575	0.00038657	0.00010806	1090.3	4.1165e-06	3.9225e-06	1159.6	224.08	3.748e-06	4.016e-06	282.52	83.121	65.035	19.171	3.9554e-06	26.935	353.180	92.234	107.531	10.170	175.423	160.539	10.178	17.632	179.484	139.101	16.797	23.939	24.202	31.044	147.294	29.850	-8191	255	
32291.006	1	1	0	0	0.15782	0.07785	0.21763	0.14435	0.079932	0.17736	0.16489	0.099946	0.15334	0.09596	0.16453	0.25781	0.29967	0.16982	0.30042	0.067364	-4.3917	-4.0938	-4.6708	-4.7042	-4.0104	-4.675	-4.4917	-4.3688	-4.7937	-4.1646	-4.5875	-4.7312	-4.0792	-4.8313	-4.2292	-4.2979	17.920	216.641	214.295	274.694	9.639	321.420	323.809	0.648	106.296	51.589	319.282	253.648	350.833	300.588	153.847	344.443	0.00050551	0.00022996	0.00010811	1098.7	4.3363e-06	2.4604e-06	1173.2	224.47	5.171e-06	3.6653e-06	282.66	82.345	65.167	18.97	3.6141e-06	26.425	0.00034547	0.00038785	0.00010222	1088.1	4.3493e-06	3.9278e-06	1158.5	224.1	3.7101e-06	4.6831e-06	281.64	82.761	64.974	19.151	3.5817e-06	26.944	356.091	91.504	84.741	10.320	146.315	142.655	10.042	17.570	172.170	149.197	16.950	23.892	24.235	30.874	143.242	30.142	-8191	255	
32291.127	1	1	0	0	0.13529	0.14289	0.37449	0.044591	0.17189	0.22689	0.20769	0.11695	0.20334	0.10178	0.18741	0.15853	0.080631	0.11738	0.18714	0.047246	-4.4604	-4.1667	-4.5229	-4.6875	-4.2188	-4.6438	-4.5417	-4.2146	-4.6104	-4.1896	-4.4625	-4.6813	-3.9604	-4.7167	-4.4812	-4.075	357.270	272.820	310.897	34.483	5.027	68.963	19.657	239.284	126.269	73.911	1.795	199.016	290.889	64.510	220.806	335.019	0.00044773	0.00044465	7.4743e-05	1098	3.8033e-06	2.9334e-06	1170.4	225.35	5.533e-06	2.7191e-06	281.3	82.807	64.709	18.912	1.3484e-06	26.461	0.00033155	0.00039983	9.6151e-05	1088	4.1485e-06	3.5178e-06	1157.1	223.89	3.9422e-06	3.7486e-06	281.83	82.883	64.916	19.085	3.9167e-06	26.907	352.478	97.889	93.361	10.085	164.640	147.434	10.176	17.437	174.941	128.989	17.120	23.620	24.553	30.996	154.921	30.163	-8191	255	
32291.223	1	1	0	0	0.12864	0.094308	0.038475	0.14162	0.11553	0.036097	0.1365	0.091981	0.11636	0.06453	0.15545	0.037103	0.049785	0.27175	0.089477	0.051876	-4.4167	-4.1937	-4.1729	-4.8958	-4.1625	-4.5146	-4.6896	-4.2708	-4.8313	-4.3167	-4.3812	-4.7937	-4.05	-4.5917	-4.6	-4.1083	74.988	198.126	5.257	258.208	112.434	204.062	300.887	46.398	284.813	216.952	200.307	193.230	8.122	345.362	291.546	138.343	0.00046275	0.00024258	0.00010342	1100.1	5.8377e-06	3.3618e-06	1170.1	223.92	5.697e-06	3.4546e-06	281.2	82.489	64.877	18.929	2.7964e-06	26.542	0.00033337	0.00033691	0.00010222	1088.2	4.3823e-06	4.1851e-06	1156.4	223.74	4.0138e-06	4.4318e-06	281.48	82.687	65.188	19.09	3.6979e-06	26.943	349.055	98.232	86.306	10.292	162.411	125.853	10.282	17.318	183.401	141.168	17.085	23.931	24.457	31.032	173.965	30.514	-8191	255	
32291.318	1	1	0	0	0.10448	0.13768	0.049341	0.20007	0.12968	0.082096	0.085531	0.32537	0.20586	0.040905	0.2253	0.24053	0.20599	0.15659	0.12404	0.10736	-4.325	-4.3542	-4.1083	-4.7917	-4.1396	-4.4979	-4.5396	-4.3292	-4.6542	-4.4979	-4.3083	-4.8458	-4.2	-4.3812	-4.7542	-4.075	275.820	75.646	310.971	338.764	135.655	177.147	310.894	290.117	42.124	145.659	37.975	264.991	37.357	341.998	165.909	77.559	0.00052192	0.0001844	9.2371e-05	1098.1	4.9788e-06	1.993e-06	1171.1	224.86	5.3267e-06	1.5314e-06	282.75	82.437	64.876	18.75	3.1019e-06	26.522	0.00035012	0.00034622	0.00010071	1087.5	4.3144e-06	4.0431e-06	1157.2	223.9	3.6611e-06	4.3101e-06	281.83	82.851	65.033	19.026	3.5646e-06	26.882	346.200	65.753	115.036	10.300	148.946	146.495	10.346	17.681	154.769	130.164	17.056	23.887	24.269	30.875	128.973	30.113	-8191	255	
32291.391	1	1	0	0	0.13797	0.017171	0.13821	0.25783	0.14665	0.2369	0.17134	0.049827	0.12012	0.13776	0.23284	0.12487	0.11663	0.096018	0.12889	0.22102	-4.3042	-4.4812	-4.1813	-4.8646	-4.1958	-4.2792	-4.7667	-4.1375	-4.4812	-4.3938	-4.1312	-4.7917	-4.0979	-4.3313	-4.7292	-4.0833	289.076	281.673	276.152	303.584	29.041	271.737	7.776	339.760	22.533	333.053	345.735	312.552	118.217	170.366	143.508	348.518	0.00050094	0.00030918	6.1075e-05	1097.9	5.0325e-06	3.4209e-06	1168.2	224.51	6.0103e-06	2.6252e-06	281.21	82.158	64.679	18.803	2.5593e-06	26.294	0.00035907	0.00038576	9.7988e-05	1085.2	4.4303e-06	3.9051e-06	1155.1	223.59	4.0363e-06	4.0802e-06	281.28	82.722	65.063	19.023	4.0466e-06	26.798	351.313	91.641	51.917	10.177	165.623	178.166	10.251	17.388	176.779	177.772	17.322	24.215	24.639	30.877	117.289	30.061	-8191	255	
32291.486	1	1	0	0	0.097893	0.092191	0.057246	0.089737	0.068427	0.09502	0.14914	0.10077	0.072757	0.18259	0.043744	0.041565	0.35505	0.1775	0.1028	0.15372	-4.2917	-4.5146	-4.1813	-4.7729	-4.3375	-4.275	-4.7854	-4.2917	-4.4958	-4.6479	-4.0563	-4.7292	-4.3125	-4.2125	-4.5625	-4.2729	90.884	159.206	286.901	205.093	5.000	210.253	281.408	336.459	159.856	88.366	273.180	210.181	301.650	295.303	297.999	249.219	0.00051513	0.00027743	6.2789e-05	1101.5	5.9391e-06	3.866e-06	1169.5	224.56	3.851e-06	2.5412e-06	282.32	82.665	64.308	18.771	4.2415e-06	26.145	0.00036648	0.00035587	0.00011501	1086.8	4.713e-06	4.6515e-06	1156.2	223.57	4.4871e-06	4.2152e-06	281.89	82.602	64.505	18.983	4.344e-06	26.614	355.684	78.152	101.792	10.190	172.548	157.460	10.342	17.618	189.378	162.189	16.856	23.923	24.049	30.817	181.009	30.209	-8191	255	
32291.607	1	1	0	0	0.06534	0.096959	0.26512	0.15137	0.16328	0.31518	0.04933	0.12699	0.17428	0.12214	0.12664	0.26002	0.17067	0.10242	0.13492	0.092272	-4.0958	-4.525	-4.1438	-4.675	-4.3833	-4.3479	-4.8979	-4.1646	-4.3896	-4.6813	-4.1667	-4.5917	-4.3958	-4.0687	-4.7542	-4.3521	176.548	170.742	183.105	291.253	120.501	300.066	116.591	13.298	277.366	227.264	289.104	324.426	9.427	46.859	181.687	98.948	0.00054251	0.0002271	9.5151e-05	1101.8	4.0267e-06	2.1338e-06	1169.7	223.36	4.5253e-06	2.3596e-06	281.36	81.65	64.562	18.592	4.4602e-06	26.111	0.00040058	0.00039576	0.00012479	1089	4.735e-06	5.1581e-06	1157.5	223.31	4.707e-06	4.6029e-06	281	82.166	64.553	18.912	4.5081e-06	26.631	342.145	127.226	78.841	10.407	164.188	157.352	10.317	17.559	153.252	136.376	17.165	24.024	24.041	30.906	172.025	30.294	-8191	255	
32291.703	1	1	0	0	0.26826	0.20934	0.078834	0.15701	0.071597	0.079548	0.02062	0.064956	0.22345	0.1695	0.024018	0.12831	0.081369	0.14656	0.062496	0.052689	-3.9104	-4.6875	-3.9833	-4.55	-4.3542	-4.1771	-4.8875	-4.2833	-4.2229	-4.7125	-4.3229	-4.5667	-4.4854	-4.0104	-4.6729	-4.3396	60.539	257.582	218.799	24.114	248.134	21.125	62.185	29.255	39.843	129.759	128.602	67.593	85.576	42.613	232.250	109.626	0.00050238	0.00018448	6.5636e-05	1099.5	4.483e-06	2.7331e-06	1174.1	223.85	6.869e-06	1.5897e-06	281.36	82.433	64.609	18.638	3.8589e-06	26.266	0.00039737	0.00044007	0.00013361	1087	4.9218e-06	5.2358e-06	1157.7	222.94	4.6845e-06	4.6203e-06	280.64	82.451	64.612	18.934	4.344e-06	26.699	350.899	89.533	89.562	10.247	141.545	143.683	10.240	17.632	169.374	126.486	17.113	23.801	24.311	30.937	192.394	30.471	-8191	255	
32291.799	1	1	0	0	0.21373	0.28861	0.09286	0.19604	0.16491	0.045528	0.31786	0.33609	0.11677	0.098908	0.097724	0.061243	0.060767	0.27134	0.090736	0.29826	-3.8646	-4.7063	-4.1438	-4.6333	-4.6083	-4.0292	-4.8708	-4.4417	-4.1438	-4.6958	-4.2312	-4.4542	-4.5062	-3.9417	-4.4792	-4.4062	134.741	199.792	328.978	48.061	189.758	121.113	77.539	335.804	121.321	10.611	52.354	246.103	224.104	37.225	143.786	271.108	0.00055314	0.00027086	0.0001029	1101.1	4.6631e-06	3.5113e-06	1172.7	223.84	5.5885e-06	2.4699e-06	281.61	81.957	64.441	18.771	3.858e-06	26.221	0.0003982	0.00042414	0.00012896	1089.2	4.9588e-06	5.0307e-06	1158.5	223.22	4.8716e-06	4.5427e-06	281.14	82.394	64.555	18.984	4.6563e-06	26.693	351.637	68.500	94.205	10.076	163.748	147.662	10.068	17.569	163.667	163.941	17.135	23.704	24.246	30.860	148.616	30.299	-8191	255	
32291.896	1	1	0	0	0.2967	0.26565	0.14147	0.099293	0.098741	0.096708	0.17175	0.30118	0.099101	0.20477	0.12059	0.020849	0.12915	0.11209	0.060055	0.13821	-3.6833	-4.8562	-4.2667	-4.4167	-4.7	-4.1667	-4.6521	-4.4333	-4.1625	-4.6729	-4.2625	-4.2875	-4.5833	-4.1521	-4.6271	-4.5687	2.288	30.693	220.683	315.127	65.950	81.196	5.618	288.301	129.704	211.624	106.656	251.443	219.032	270.376	131.120	4.805	0.00044209	0.00035766	5.9144e-05	1099.9	6.4806e-06	2.528e-06	1174.4	223.45	1.7459e-06	2.3539e-06	280.62	82.365	64.756	18.675	3.0834e-06	26.228	0.0003888	0.0004531	0.00013525	1090.9	4.9568e-06	5.3845e-06	1160.4	223.37	4.6855e-06	4.4572e-06	280.35	82.625	64.82	18.968	4.4078e-06	26.652	355.668	99.538	104.534	10.090	163.004	168.271	10.137	17.519	236.499	173.835	16.814	24.053	24.211	30.810	129.149	30.182	-8191	255	
32291.990	1	1	0	0	0.27923	0.20257	0.082969	0.2607	0.13605	0.22163	0.065482	0.34746	0.24467	0.12041	0.067324	0.088596	0.074874	0.074646	0.052306	0.16639	-3.7375	-4.5646	-4.1792	-4.3792	-4.6417	-4.1625	-4.4604	-4.575	-4.075	-4.6375	-4.3812	-4.2063	-4.6021	-4.1312	-4.375	-4.6792	249.755	65.678	35.995	309.420	296.758	288.445	281.906	345.890	71.591	350.227	103.507	185.715	63.292	134.756	332.219	275.523	0.00048656	0.00029268	5.2023e-05	1101	3.6237e-06	1.8438e-06	1172.1	222.94	5.7789e-06	2.9568e-06	279.77	81.817	64.161	18.621	4.2999e-06	26.174	0.00040417	0.00042937	0.00012528	1089.8	5.0108e-06	5.536e-06	1159.2	222.76	4.8133e-06	4.5628e-06	280.19	82.323	64.523	18.902	4.5811e-06	26.693	351.814	62.932	99.153	10.314	158.861	136.193	10.168	17.597	180.751	138.562	17.029	23.974	24.041	30.872	168.372	30.240	-8191	255	
32292.088	1	1	0	0	0.11684	0.077087	0.13716	0.095112	0.12497	0.10185	0.25104	0.13536	0.18398	0.052958	0.095868	0.022517	0.16759	0.28698	0.14752	0.11426	-3.775	-4.6458	-4.3917	-4.2188	-4.8208	-4.2854	-4.5375	-4.6458	-4.1833	-4.5083	-4.5104	-4.1	-4.6729	-4.0021	-4.3979	-4.7729	340.833	289.868	227.525	133.064	153.863	144.588	279.467	331.520	157.932	314.611	336.648	120.988	212.361	318.362	268.954	329.639	0.0004985	0.00037608	0.00010259	1102	3.4988e-06	2.8825e-06	1171.8	223.25	4.79e-06	4.586e-06	282.16	81.709	64.357	18.682	3.6087e-06	26.13	0.00039759	0.00042774	0.0001321	1090.1	4.5462e-06	5.0482e-06	1160.5	222.86	4.6149e-06	4.7687e-06	280.84	82.398	64.545	18.941	4.9024e-06	26.66	350.334	99.277	95.998	10.284	184.714	98.227	10.186	17.671	165.186	154.792	17.193	23.828	23.999	30.788	137.090	30.233	-8191	255	
32292.207	1	1	0	0	0.17933	0.083191	0.21037	0.40724	0.053632	0.13175	0.16181	0.12331	0.0838	0.15183	0.18854	0.31551	0.12928	0.09821	0.12156	0.36809	-3.7979	-4.5292	-4.55	-4.2875	-4.65	-4.2688	-4.4604	-4.725	-4.1208	-4.4167	-4.6396	-3.9688	-4.6937	-4.2562	-4.1	-4.6604	149.639	335.274	102.508	331.874	27.667	38.359	100.657	47.308	40.491	97.700	74.065	136.081	346.784	2.263	162.360	336.232	0.00053021	0.00038429	0.00010881	1105.2	4.5757e-06	2.0956e-06	1174.1	224.95	5.7459e-06	3.5606e-06	282.23	81.609	64.437	18.659	3.9771e-06	26.199	0.00040041	0.00044437	0.00012702	1091	5.1746e-06	5.6056e-06	1160.3	223.58	4.983e-06	5.2005e-06	280.87	82.275	64.689	18.892	4.7987e-06	26.625	348.413	120.026	119.523	10.246	143.775	141.659	10.254	17.539	149.992	160.413	17.155	23.990	24.067	31.141	126.512	30.226	-8191	255	
32292.303	1	1	0	0	0.15538	0.12349	0.092409	0.26439	0.16972	0.10227	0.057632	0.35021	0.13976	0.10763	0.10848	0.028036	0.12973	0.013061	0.11591	0.02672	-3.8312	-4.525	-4.4896	-4.1438	-4.5792	-4.45	-4.2125	-4.875	-4.2771	-4.4583	-4.6479	-4.125	-4.6792	-4.2875	-4.1042	-4.8229	283.799	322.180	138.153	294.186	95.356	169.802	221.486	325.002	139.671	85.327	235.080	313.449	193.484	175.280	358.841	290.726	0.00050162	0.0004682	8.5145e-05	1102.8	3.9019e-06	2.0777e-06	1172.6	223.24	5.3267e-06	2.9553e-06	280.43	81.709	64.465	18.56	2.0921e-06	26.09	0.0004066	0.00049252	0.00012932	1090.9	4.9928e-06	5.2559e-06	1161.6	223.15	5.2478e-06	4.9438e-06	280.48	82.455	64.661	18.865	5.3001e-06	26.625	355.982	99.041	70.647	10.071	168.257	165.056	10.194	17.809	174.529	156.918	16.973	23.759	23.712	31.133	157.955	30.509	-8191	255	
32292.398	1	1	0	0	0.059379	0.15948	0.16485	0.29885	0.051798	0.20164	0.17251	0.059912	0.13299	0.23897	0.21063	0.055891	0.26716	0.22655	0.14797	0.058257	-4.0042	-4.2646	-4.6479	-4.2021	-4.5771	-4.5563	-4.3354	-4.7708	-4.2625	-4.2583	-4.625	-4.0667	-4.5979	-4.6271	-4.2104	-4.7271	256.680	321.673	288.566	340.073	202.826	93.548	313.253	317.909	69.218	58.607	289.671	226.554	285.478	148.048	304.374	228.634	0.00047123	0.00028596	3.9752e-05	1099.3	6.3715e-06	2.583e-06	1174.5	223.25	4.1032e-06	2.2894e-06	280.15	82.157	63.817	18.612	3.7915e-06	26.082	0.00039986	0.00048694	0.00013867	1089.5	5.0338e-06	5.1446e-06	1162	223.14	4.9707e-06	5.2326e-06	280.34	82.303	64.565	18.912	4.8056e-06	26.606	358.386	101.360	118.500	10.190	151.899	160.797	10.252	17.419	191.473	162.360	17.038	23.995	23.942	30.413	160.489	30.058	-8191	255	
32292.494	1	1	0	0	0.10124	0.16353	0.10272	0.079902	0.16228	0.081482	0.10535	0.072023	0.20315	0.067112	0.12926	0.15356	0.11355	0.025221	0.15768	0.33285	-3.9208	-4.3646	-4.5271	-4.1813	-4.4542	-4.5146	-4.4313	-4.725	-4.2833	-4.3833	-4.7375	-4.1042	-4.5229	-4.7063	-4.1312	-4.6	291.485	246.506	147.915	330.127	176.406	321.231	44.160	8.988	52.220	51.229	71.529	342.961	23.502	122.834	69.383	300.693	0.00042677	0.00021913	9.0122e-05	1101.5	4.8138e-06	1.8708e-06	1178.5	224.66	5.602e-06	3.5771e-06	283.11	81.787	64.534	18.581	4.6991e-06	26.133	0.00040063	0.00046287	0.00012919	1091.6	5.1267e-06	5.3604e-06	1162.3	223.64	5.1895e-06	5.8141e-06	280.88	82.243	64.625	18.91	5.2762e-06	26.594	345.953	115.012	133.424	10.314	167.140	152.183	10.270	17.643	150.014	150.055	17.072	24.053	24.089	30.489	173.592	30.498	-8191	255	
32292.615	1	1	0	0	0.23064	0.10563	0.15563	0.20491	0.16232	0.04971	0.23056	0.30361	0.13261	0.11816	0.1109	0.069308	0.056628	0.21516	0.19984	0.12305	-4.0521	-4.1875	-4.65	-4.2188	-4.3625	-4.6854	-4.2937	-4.7271	-4.4417	-4.2562	-4.7625	-4.3896	-4.5437	-4.5312	-4.1729	-4.65	138.802	232.698	263.248	324.069	68.924	158.272	323.383	150.775	7.582	113.548	141.269	37.433	254.083	79.522	102.602	209.595	0.00050775	0.00036359	8.7758e-05	1104.3	5.164e-06	3.3882e-06	1172.1	224.27	3.0956e-06	2.8435e-06	279.92	81.396	64.55	18.611	3.9535e-06	26.017	0.00041434	0.00048671	0.00012968	1093.4	5.5323e-06	5.0562e-06	1160.1	223.58	4.7795e-06	5.8756e-06	280.94	82.197	64.572	18.925	5.3115e-06	26.6	355.242	66.310	87.008	10.073	142.922	171.214	9.901	17.599	165.367	161.244	17.147	23.903	24.063	30.918	143.862	30.321	-8191	255	
32292.688	1	1	0	0	0.14342	0.009889	0.17749	0.072324	0.27514	0.10336	0.058652	0.11447	0.094944	0.24907	0.1004	0.08282	0.16187	0.10145	0.083806	0.066062	-4.1125	-4.0146	-4.6333	-4.3083	-4.3083	-4.7354	-4.3271	-4.5687	-4.5271	-4.1292	-4.8875	-4.3438	-4.3667	-4.7875	-4.1104	-4.5833	20.006	306.431	234.657	229.314	249.842	39.628	195.805	272.890	12.549	161.215	22.201	292.438	0.230	158.012	130.267	195.306	0.00048309	0.00011761	7.9895e-05	1101.7	5.6053e-06	2.9804e-06	1176.2	223.84	5.8055e-06	2.4303e-06	280.8	81.362	64.397	18.626	4.7553e-06	26.14	0.00040544	0.0004895	0.00013365	1092.7	5.0687e-06	5.15e-06	1161.7	223.45	4.9973e-06	5.6844e-06	280.68	82.301	64.576	18.941	5.0585e-06	26.616	352.827	88.936	69.966	9.965	164.864	139.414	10.230	17.681	185.934	135.226	17.587	23.871	24.255	30.984	165.641	30.290	-8191	255	
32292.783	1	1	0	0	0.23712	0.1569	0.12383	0.051804	0.22978	0.032897	0.08577	0.039518	0.11597	0.072955	0.19732	0.13387	0.11262	0.10778	0.0856	0.22009	-4.2583	-4.0917	-4.6521	-4.3792	-4.3417	-4.6271	-4.3708	-4.6083	-4.5437	-4.0875	-4.7167	-4.375	-4.1583	-4.7208	-4.2354	-4.4229	22.030	157.033	17.576	45.626	165.731	306.444	321.303	158.414	85.086	170.909	290.527	187.429	117.954	196.252	63.664	291.990	0.00050432	0.00027996	0.00010192	1109.4	5.5327e-06	2.4112e-06	1179.7	224.86	8.3557e-06	3.3963e-06	280.95	81.902	64.487	18.472	4.2385e-06	26.26	0.00039588	0.00050613	0.00013965	1095.2	5.4584e-06	5.4221e-06	1163.3	224.04	4.9666e-06	6.0093e-06	281.08	82.394	64.711	18.829	5.1144e-06	26.675	351.903	72.639	112.437	10.414	131.169	144.189	10.143	17.614	180.370	149.916	17.080	24.270	24.312	31.221	147.182	30.386	-8191	255	
32292.902	1	1	0	0	0.2206	0.24508	0.22577	0.15393	0.085045	0.097829	0.3533	0.17565	0.057969	0.20907	0.20632	0.11621	0.079957	0.17275	0.063799	0.1744	-4.4313	-4.0229	-4.5229	-4.4208	-4.1042	-4.8375	-4.4333	-4.4354	-4.675	-4.1958	-4.5563	-4.4083	-4.1104	-4.75	-4.3146	-4.3208	225.726	150.348	267.822	284.164	55.287	103.160	269.439	3.472	302.262	190.334	318.272	44.560	217.035	270.152	37.252	77.156	0.00042894	0.00036812	0.00011782	1105.6	4.3645e-06	2.2902e-06	1176.6	224.63	2.7666e-06	4.2747e-06	282.5	81.774	64.655	18.607	3.4629e-06	26.038	0.00040682	0.00052299	0.00012856	1094.7	5.3045e-06	5.0843e-06	1164.8	223.73	5.0464e-06	5.6991e-06	281.38	82.287	64.792	18.879	5.2762e-06	26.568	359.228	99.564	75.644	10.074	142.459	148.858	10.153	17.213	193.019	151.189	16.766	23.839	24.296	31.378	176.496	30.187	-8191	255	
32292.998	1	1	0	0	0.19856	0.05504	0.31324	0.12214	0.19192	0.098364	0.25635	0.078855	0.11451	0.10871	0.12066	0.1749	0.14841	0.12341	0.13106	0.2414	-4.1646	-4.0729	-4.4833	-4.4396	-4.1021	-4.7375	-4.5271	-4.2896	-4.4958	-3.9313	-4.5188	-4.5354	-4.0687	-4.6729	-4.2229	-4.4208	139.781	138.566	234.974	235.444	137.553	215.950	320.632	325.091	91.823	131.131	263.869	239.628	167.184	273.449	124.862	256.771	0.00052711	0.00037536	9.5933e-05	1104.4	4.5062e-06	3.1308e-06	1181.2	224.21	6.177e-06	3.8013e-06	279.51	81.634	64.058	18.503	5.4338e-06	26.031	0.00042091	0.00050508	0.00012607	1093.7	5.5633e-06	5.5145e-06	1164.3	224.01	4.8583e-06	5.7205e-06	280.76	82.06	64.507	18.851	4.8568e-06	26.647	347.450	110.926	99.388	9.990	154.502	151.167	9.994	17.584	148.859	129.200	17.141	24.099	24.011	31.092	169.730	30.265	-8191	255	
32293.096	1	1	0	0	0.17182	0.12797	0.19584	0.23047	0.039026	0.11938	0.26055	0.12891	0.071146	0.15679	0.25153	0.11501	0.13787	0.17819	0.21141	0.23915	-4.3896	-3.9646	-4.4167	-4.7104	-4.0354	-4.625	-4.4083	-4.0917	-4.6333	-4.0833	-4.5417	-4.5208	-4.2271	-4.5833	-4.575	-4.2125	181.226	148.497	55.709	314.488	173.141	38.962	322.188	13.542	23.548	173.330	333.435	66.070	182.343	176.837	259.014	356.473	0.00052418	0.00025895	0.00010415	1102.2	3.3115e-06	1.6579e-06	1173.7	224.61	5.85e-06	3.5742e-06	281.45	81.904	64.46	18.537	3.2517e-06	26.005	0.00042434	0.00051997	0.00012876	1093.7	5.5353e-06	5.1715e-06	1162.6	224.2	5.1537e-06	5.3756e-06	281.08	82.225	64.65	18.875	5.332e-06	26.533	347.615	99.777	76.325	10.357	142.012	170.940	10.150	17.542	194.783	160.198	17.169	24.394	24.255	30.790	181.051	30.359	-8191	255	
32293.191	1	1	0	0	0.08252	0.30421	0.15092	0.21066	0.1648	0.078969	0.20033	0.15331	0.041528	0.30718	0.022638	0.1701	0.080782	0.20903	0.10979	0.36576	-4.3313	-4.225	-4.4187	-4.7833	-4.1083	-4.6021	-4.575	-4.1813	-4.675	-4.0604	-4.2333	-4.6062	-4.1792	-4.6021	-4.2875	-4.0479	217.938	71.730	312.193	287.252	169.060	171.418	272.959	134.164	100.087	16.575	296.703	145.760	69.290	69.907	66.242	274.037	0.00045112	0.00015465	7.7417e-05	1106.7	5.7174e-06	3.5073e-06	1178	223.58	5.6246e-06	2.5725e-06	282.5	81.835	64.655	18.689	2.1115e-06	26.251	0.00040864	0.00052729	0.00013752	1097.7	5.6762e-06	5.6137e-06	1165.8	223.38	4.9319e-06	5.4612e-06	281.24	82.347	64.798	18.91	5.1953e-06	26.606	346.358	115.942	72.175	10.216	144.338	133.740	10.379	17.320	177.860	150.586	17.041	23.567	23.894	30.989	137.832	29.949	-8191	255	
32293.287	1	1	0	0	0.10578	0.044374	0.3374	0.18757	0.28253	0.25445	0.1136	0.13527	0.19976	0.26853	0.099512	0.17745	0.11217	0.14686	0.026272	0.16882	-4.2771	-4.3083	-4.2854	-4.8021	-4.1917	-4.3833	-4.7708	-4.2354	-4.6833	-4.3729	-4.2188	-4.6396	-3.9958	-4.4812	-4.4771	-4.0854	235.600	227.896	199.567	0.215	325.885	345.138	18.314	61.640	75.683	173.264	5.807	45.337	149.933	17.051	207.135	310.979	0.00050283	0.0004029	7.1583e-05	1105.9	3.425e-06	2.7686e-06	1174.1	224.18	5.5911e-06	3.446e-06	281.23	81.732	63.855	18.569	3.776e-06	26.11	0.00042185	0.00047298	0.00013673	1096.6	5.5493e-06	5.6887e-06	1163.8	223.83	4.892e-06	5.9211e-06	280.82	82.203	64.46	18.849	5.1588e-06	26.56	345.034	83.624	68.793	10.229	149.631	156.177	10.074	17.472	182.227	134.818	17.005	23.962	24.224	31.087	150.404	30.108	-8191	255	
32293.383	1	1	0	0	0.05649	0.075727	0.020049	0.128	0.24495	0.12142	0.14803	0.081979	0.08021	0.035922	0.17683	0.11956	0.11698	0.13014	0.15748	0.077932	-4.2646	-4.2542	-4.1479	-4.9437	-4.2021	-4.4146	-4.6667	-4.0062	-4.6208	-4.4146	-4.1583	-4.5458	-4.2937	-4.4417	-4.4708	-4.1312	100.433	270.858	223.772	296.333	272.941	59.937	263.463	178.775	284.148	306.506	156.892	295.077	55.016	327.817	350.846	133.334	0.00046756	0.00016146	7.0114e-05	1104.3	4.8451e-06	2.9936e-06	1183.4	224.41	3.0579e-06	2.9053e-06	280.16	82.402	64.217	18.418	4.4196e-06	26.095	0.00040256	0.0005466	0.00015064	1095.9	5.3974e-06	5.6137e-06	1165.8	224.23	5.1445e-06	5.5922e-06	280.99	82.511	64.438	18.835	5.4198e-06	26.547	351.035	123.576	107.489	10.182	165.402	175.717	10.171	17.588	174.291	149.315	17.038	23.779	24.323	30.901	145.142	30.259	-8191	255	
32293.479	1	1	0	0	0.068983	0.31979	0.20554	0.14249	0.097227	0.1154	0.39301	0.17052	0.064076	0.2249	0.024208	0.2111	0.19185	0.1013	0.26183	0.20724	-4.0854	-4.4167	-4.075	-4.8479	-4.1333	-4.3375	-4.7271	-4.2083	-4.4521	-4.5896	-4.25	-4.5542	-4.1729	-4.3604	-4.7333	-4.3083	109.284	98.138	107.753	286.065	178.959	209.701	300.662	293.702	294.551	277.729	181.794	270.735	52.096	352.154	175.658	97.198	0.00043779	0.00030946	9.5036e-05	1109.5	4.5884e-06	4.4287e-06	1177.7	223.98	3.8737e-06	3.4827e-06	280.32	82.472	64.17	18.544	3.0683e-06	26.149	0.00040605	0.00049671	0.00015113	1097.3	5.5203e-06	6.131e-06	1167.2	224.11	5.2059e-06	5.8101e-06	280.74	82.503	64.553	18.874	5.2249e-06	26.58	349.657	89.766	92.437	10.142	176.677	150.967	10.076	17.532	173.088	130.393	17.329	23.727	24.313	30.885	159.605	30.242	-8191	255	
32293.576	1	1	0	0	0.15251	0.15788	0.18356	0.064821	0.33822	0.27027	0.22826	0.05817	0.099764	0.15625	0.2657	0.20577	0.13409	0.12214	0.25956	0.16949	-4.1708	-4.4812	-4.1333	-4.8521	-4.375	-4.1083	-4.8438	-4.1604	-4.2917	-4.5771	-4.0792	-4.6312	-4.475	-4.1854	-4.6312	-4.3604	277.835	3.607	286.831	325.185	331.680	43.519	222.749	256.541	330.044	50.522	296.773	251.191	288.253	329.411	230.052	286.392	0.00053836	0.00038182	6.8228e-05	1109.7	5.9299e-06	3.5507e-06	1180.9	224.67	3.7371e-06	3.9784e-06	283.44	81.595	63.975	18.673	4.4028e-06	26.131	0.00041102	0.0005209	0.00016265	1097.6	5.6792e-06	5.7263e-06	1166.1	224.09	5.3449e-06	6.0347e-06	281.65	82.298	64.45	18.94	5.1098e-06	26.684	354.077	119.654	65.874	10.327	152.385	174.359	10.077	17.523	168.653	144.687	16.926	23.740	23.946	30.879	183.089	29.919	-8191	255	
32293.695	1	1	0	0	0.27627	0.13724	0.13685	0.27515	0.074054	0.29799	0.30705	0.048955	0.21612	0.11546	0.14006	0.1703	0.26051	0.084302	0.049264	0.12129	-4.1396	-4.6271	-4.0854	-4.6646	-4.5312	-4.1104	-4.8646	-4.2375	-4.2729	-4.6625	-4.1854	-4.5188	-4.4875	-4.2458	-4.7333	-4.3521	251.353	39.380	68.919	341.296	150.550	215.277	286.767	167.170	27.325	337.831	212.205	337.231	159.280	129.710	348.820	47.748	0.00048476	0.00045637	8.9877e-05	1112.3	5.0542e-06	1.7846e-06	1181.5	224.46	4.8613e-06	3.759e-06	281.48	82.164	64.6	18.582	2.9312e-06	26.031	0.00040969	0.00047403	0.00015428	1099.2	5.3964e-06	5.418e-06	1167	224.31	5.1967e-06	5.2192e-06	281.7	82.436	64.732	18.901	4.7258e-06	26.601	348.033	88.688	89.418	10.068	171.560	135.869	10.077	17.166	154.298	139.760	16.945	23.499	24.390	31.012	138.311	30.323	-8191	255	
32293.793	1	1	0	0	0.16664	0.083441	0.039771	0.020267	0.16883	0.082462	0.12469	0.11803	0.031805	0.14334	0.091749	0.15503	0.11401	0.16295	0.091634	0.12167	-3.95	-4.6417	-4.0771	-4.6687	-4.5333	-4.1479	-4.8938	-4.3542	-4.0417	-4.6271	-4.0896	-4.5542	-4.4688	-4.0667	-4.6354	-4.3375	177.784	85.597	179.445	148.688	237.580	292.487	272.385	77.117	246.355	87.214	-0.029	15.996	226.134	317.263	281.069	242.335	0.00052938	0.00029338	9.9444e-05	1109	4.5913e-06	3.2748e-06	1178.8	225.76	4.8879e-06	3.6492e-06	282.74	82.232	64.83	18.647	1.8774e-06	26.04	0.00044031	0.00049368	0.00015937	1099	5.6352e-06	6.3521e-06	1167.2	224.5	5.2948e-06	5.6457e-06	282.22	82.533	64.746	18.936	4.9924e-06	26.616	347.953	114.236	91.938	10.173	145.627	127.681	10.003	17.532	189.664	143.015	17.369	24.062	24.210	30.717	184.368	30.144	-8191	255	
32293.889	1	1	0	0	0.10805	0.092649	0.083599	0.30869	0.055475	0.1523	0.16339	0.21816	0.089132	0.18772	0.32591	0.16217	0.14731	0.13762	0.21181	0.24967	-3.7938	-4.6167	-4.0292	-4.5729	-4.5437	-4.2	-4.6604	-4.3292	-4.2417	-4.875	-4.2792	-4.4375	-4.65	-4.2646	-4.7021	-4.5396	97.846	47.644	61.699	342.493	17.209	260.179	303.296	266.959	48.468	32.192	37.004	9.507	297.492	232.823	243.690	313.702	0.00056422	0.0002263	7.3297e-05	1111.1	4.7905e-06	5.1024e-06	1178.3	226.24	6.4849e-06	2.9649e-06	281.29	81.874	64.884	18.709	4.1568e-06	26.27	0.00043445	0.00048054	0.00014254	1098.3	4.9388e-06	6.0345e-06	1167.7	224.56	5.2498e-06	5.4465e-06	281.01	82.204	64.84	18.969	5.2602e-06	26.663	348.763	113.810	108.567	10.137	172.439	135.553	10.272	17.393	168.453	149.405	16.900	23.793	24.355	30.973	151.927	30.144	-8191	255	
32293.982	1	1	0	0	0.19753	0.086603	0.14907	0.3494	0.031528	0.078354	0.07996	0.15193	0.098519	0.13043	0.27483	0.097327	0.033041	0.19824	0.043161	0.14514	-3.8354	-4.5687	-4.3042	-4.4563	-4.6208	-4.1917	-4.8938	-4.4333	-4.1042	-4.7562	-4.3063	-4.5292	-4.6667	-4.2625	-4.3833	-4.7083	190.805	165.257	302.032	293.304	272.813	208.742	239.486	344.837	197.604	172.071	15.090	217.227	168.966	33.063	235.726	321.548	0.00053206	0.00022773	8.474e-05	1113.9	4.916e-06	2.5961e-06	1178.2	224.56	4.9979e-06	3.4777e-06	280.98	82.16	63.959	18.717	3.857e-06	26.375	0.00042119	0.00050741	0.00015198	1101.7	5.3505e-06	5.9621e-06	1165.8	224.29	5.395e-06	5.4465e-06	281.23	82.603	64.691	18.956	5.2181e-06	26.717	348.222	68.137	91.917	10.107	174.797	183.829	10.111	17.361	173.888	141.316	16.801	23.985	24.330	31.039	171.738	30.482	-8191	255	
32294.078	1	1	0	0	0.16488	0.063348	0.12683	0.15436	0.082038	0.11639	0.031125	0.083159	0.14538	0.088219	0.045104	0.079811	0.22727	0.14222	0.037264	0.17675	-3.5667	-4.6458	-4.2604	-4.3063	-4.5958	-4.0708	-4.6833	-4.6125	-4.0729	-4.7354	-4.4812	-4.0375	-4.7083	-4.15	-4.4958	-4.5646	314.673	212.725	225.389	273.573	56.354	66.939	342.216	72.664	35.662	250.321	274.640	328.213	273.462	60.124	221.641	313.458	0.00051845	0.00041922	7.6348e-05	1110.2	4.4469e-06	3.1119e-06	1181.5	225.19	3.8656e-06	1.4403e-06	280.46	81.975	64.74	18.591	4.4948e-06	26.16	0.00043871	0.00049415	0.00014083	1098.5	5.1277e-06	5.4837e-06	1166.9	224.54	5.1721e-06	5.5748e-06	280.7	82.437	64.627	18.979	5.0494e-06	26.669	347.586	101.530	107.726	10.382	162.700	157.620	10.236	17.216	175.082	216.506	17.087	24.077	24.637	30.845	179.923	30.077	-8191	255	
32294.176	1	1	0	0	0.035919	0.14712	0.15101	0.20683	0.20675	0.13021	0.22715	0.077888	0.14913	0.11782	0.40836	0.32967	0.10302	0.10766	0.13509	0.020445	-3.8646	-4.5437	-4.3979	-4.3021	-4.8083	-4.0583	-4.5854	-4.7625	-4.1	-4.5917	-4.5125	-4.2562	-4.6292	-4.3333	-4.2208	-4.6667	47.901	222.411	279.560	347.092	210.179	211.490	314.253	343.287	124.128	269.306	318.832	267.254	134.637	151.218	288.473	171.059	0.00049156	0.0002503	7.1588e-05	1113.7	5.1813e-06	2.4557e-06	1180.7	225.51	6.2047e-06	2.7796e-06	280.95	82.008	64.684	18.669	2.3349e-06	26.166	0.00043556	0.00044833	0.00013027	1099.4	5.4814e-06	5.7705e-06	1167.2	224.68	5.5034e-06	5.3395e-06	281.21	82.482	64.783	18.958	5.3047e-06	26.645	347.422	65.799	91.165	10.196	164.984	153.165	10.313	17.612	173.151	175.290	17.213	23.805	24.645	30.742	132.947	30.011	-8191	255	
32294.297	1	1	0	0	0.18031	0.16387	0.2259	0.36775	0.375	0.17826	0.10062	0.11021	0.1339	0.29776	0.21551	0.11567	0.039186	0.20272	0.22302	0.062067	-3.6188	-4.6	-4.3812	-4.1562	-4.6667	-4.3313	-4.5229	-4.8667	-4.0354	-4.5396	-4.5875	-4.0896	-4.5729	-4.4583	-4.1729	-4.7021	304.060	37.502	353.492	28.556	83.115	304.753	256.338	346.745	37.726	171.267	286.180	94.917	82.175	266.529	193.057	271.830	0.00051557	0.00027418	7.2173e-05	1108.7	4.7357e-06	2.345e-06	1177.1	224.42	3.2033e-06	2.4366e-06	281.9	82.105	64.694	18.61	1.3605e-06	26.246	0.00043252	0.00048019	0.00015123	1097	5.3835e-06	5.6941e-06	1166.6	224.18	5.4461e-06	5.7379e-06	281.09	82.566	64.792	18.916	5.0335e-06	26.701	350.159	97.776	79.991	10.239	174.602	168.069	10.101	17.686	172.207	144.554	17.128	23.788	24.155	31.124	158.647	30.250	-8191	255	
32294.393	1	1	0	0	0.14382	0.24172	0.1661	0.1953	0.042183	0.16465	0.31655	0.26655	0.18081	0.1615	0.065398	0.22139	0.059919	0.055171	0.23439	0.18258	-3.8292	-4.3354	-4.5021	-4.275	-4.6583	-4.4521	-4.3333	-4.7021	-4.0188	-4.4	-4.5771	-4.1333	-4.6979	-4.2562	-4.1771	-4.7771	169.047	200.313	97.978	43.070	312.241	39.102	323.363	289.516	165.989	262.001	270.016	246.910	192.574	96.232	337.648	267.446	0.00050416	0.00027942	9.4438e-05	1113.5	3.122e-06	3.0326e-06	1176.5	223.65	5.2689e-06	3.5966e-06	282.52	82.085	64.202	18.534	3.8383e-06	26.047	0.00042368	0.00047159	0.00014936	1100	5.0757e-06	6.1095e-06	1166.5	224.19	5.2304e-06	5.7967e-06	281.81	82.462	64.695	18.899	5.4061e-06	26.587	354.063	97.384	98.703	10.072	146.919	168.216	10.332	17.619	164.393	135.866	16.924	23.677	24.311	30.863	154.935	29.794	-8191	255	
32294.488	1	1	0	0	0.24591	0.080333	0.073104	0.15358	0.15055	0.086798	0.20214	0.24672	0.20442	0.10827	0.18021	0.085889	0.1751	0.16673	0.25663	0.13617	-3.875	-4.2292	-4.5167	-4.2729	-4.3729	-4.5271	-4.2167	-4.8625	-4.1458	-4.1438	-4.5354	-4.2021	-4.4208	-4.5292	-4.1146	-4.7812	321.749	227.820	332.364	329.412	353.148	353.617	282.474	294.056	254.622	133.637	297.379	263.363	218.333	18.972	206.572	257.138	0.00048141	0.00034372	8.9155e-05	1109.3	5.6258e-06	4.0875e-06	1179.7	224.83	6.9e-06	2.6169e-06	281.96	82.113	64.468	18.633	3.7109e-06	26.484	0.00041771	0.00051276	0.00014332	1099.1	5.4534e-06	5.7745e-06	1167.7	224.63	5.4717e-06	5.639e-06	281.54	82.524	64.703	18.906	5.5839e-06	26.694	342.904	88.358	83.030	10.230	179.699	165.844	10.219	17.472	164.795	154.127	17.025	24.048	24.558	30.650	168.440	29.714	-8191	255	
32294.584	1	1	0	0	0.070148	0.10287	0.093953	0.25066	0.16871	0.088744	0.21579	0.055729	0.17052	0.25965	0.045365	0.24422	0.21485	0.14187	0.18493	0.34781	-3.8375	-4.3417	-4.7063	-4.2021	-4.5437	-4.4625	-4.2229	-4.5667	-4.3708	-4.1417	-4.6896	-4.1021	-4.3646	-4.6354	-3.9667	-4.4729	162.644	290.631	349.225	278.328	43.929	130.957	276.040	300.117	136.737	87.117	250.704	310.143	291.592	233.301	188.349	112.265	0.00048341	0.00037375	9.3066e-05	1110.7	4.207e-06	1.9244e-06	1185.9	224.43	5.7569e-06	3.1967e-06	281.17	81.951	64.391	18.628	3.6979e-06	26.211	0.00042075	0.00052602	0.00012709	1100.4	5.3775e-06	5.8576e-06	1168.5	224.38	5.3797e-06	5.6189e-06	281.19	82.343	64.783	18.925	5.2329e-06	26.634	350.741	104.277	84.967	10.171	149.819	127.029	10.034	17.469	174.683	146.094	17.240	23.682	24.423	30.917	165.632	30.306	-8191	255	
#DATA ENDS
