BOXY.EXE: ISS Imagent and Oximeter Data Acquisition Program Version 0.80
Ascii Record File

#ACQ INFORMATION
2  Detector Channels 
16  External MUX Channels 
1  Auxiliary Channels 
5000  Waveform (CCF) Frequency (Hz)
1  Waveforms Skipped 
30  Waveforms Averaged 
1  Cycles Averaged 
16  Acquisitions per Waveform 
10.0806  Updata Rate (Hz) 

#FILE INFORMATION
TRUE -- External MUX Channel results are PARSED.
FALSE -- AC DC and Phase are NOT grouped.
TRUE -- Companion Program Settings File CREATED.
FALSE -- AC data not excluded
FALSE -- DC data not excluded
FALSE -- Phase data not excluded
FALSE -- Auxillary Chn. data not excluded
Tab delimiters

#CALIBRATION STATE
TRUE -- Waveform Calibration Values APPLIED.


#AUX CALIBRATION VALUES
Val Type	aux-1	

Term	1.0000e+00	
Factor	0.0000e+00	


#WF CALIBRATION VALUES
A = Detector Channel
Val Type	A-AC1	A-AC2	A-AC3	A-AC4	A-AC5	A-AC6	A-AC7	A-AC8	A-AC9	A-AC10	A-AC11	A-AC12	A-AC13	A-AC14	A-AC15	A-AC16	A-DC1	A-DC2	A-DC3	A-DC4	A-DC5	A-DC6	A-DC7	A-DC8	A-DC9	A-DC10	A-DC11	A-DC12	A-DC13	A-DC14	A-DC15	A-DC16	A-Ph1	A-Ph2	A-Ph3	A-Ph4	A-Ph5	A-Ph6	A-Ph7	A-Ph8	A-Ph9	A-Ph10	A-Ph11	A-Ph12	A-Ph13	A-Ph14	A-Ph15	A-Ph16	

Term	0.00000e+00	0.00000e+00	0.00000e+00	0.00000e+00	0.00000e+00	0.00000e+00	0.00000e+00	0.00000e+00	0.00000e+00	0.00000e+00	0.00000e+00	0.00000e+00	0.00000e+00	0.00000e+00	0.00000e+00	0.00000e+00	0.00000e+00	0.00000e+00	0.00000e+00	0.00000e+00	0.00000e+00	0.00000e+00	0.00000e+00	0.00000e+00	0.00000e+00	0.00000e+00	0.00000e+00	0.00000e+00	0.00000e+00	0.00000e+00	0.00000e+00	0.00000e+00	0.00000e+00	0.00000e+00	0.00000e+00	0.00000e+00	0.00000e+00	0.00000e+00	0.00000e+00	0.00000e+00	0.00000e+00	0.00000e+00	0.00000e+00	0.00000e+00	0.00000e+00	0.00000e+00	0.00000e+00	0.00000e+00	
Factor	1.00000e+00	1.00000e+00	1.00000e+00	1.00000e+00	1.00000e+00	1.00000e+00	1.00000e+00	1.00000e+00	1.00000e+00	1.00000e+00	1.00000e+00	1.00000e+00	1.00000e+00	1.00000e+00	1.00000e+00	1.00000e+00	1.00000e+00	1.00000e+00	1.00000e+00	1.00000e+00	1.00000e+00	1.00000e+00	1.00000e+00	1.00000e+00	1.00000e+00	1.00000e+00	1.00000e+00	1.00000e+00	1.00000e+00	1.00000e+00	1.00000e+00	1.00000e+00	X	X	X	X	X	X	X	X	X	X	X	X	X	X	X	X	

B = Detector Channel
Val Type	B-AC1	B-AC2	B-AC3	B-AC4	B-AC5	B-AC6	B-AC7	B-AC8	B-AC9	B-AC10	B-AC11	B-AC12	B-AC13	B-AC14	B-AC15	B-AC16	B-DC1	B-DC2	B-DC3	B-DC4	B-DC5	B-DC6	B-DC7	B-DC8	B-DC9	B-DC10	B-DC11	B-DC12	B-DC13	B-DC14	B-DC15	B-DC16	B-Ph1	B-Ph2	B-Ph3	B-Ph4	B-Ph5	B-Ph6	B-Ph7	B-Ph8	B-Ph9	B-Ph10	B-Ph11	B-Ph12	B-Ph13	B-Ph14	B-Ph15	B-Ph16	

Term	0.00000e+00	0.00000e+00	0.00000e+00	0.00000e+00	0.00000e+00	0.00000e+00	0.00000e+00	0.00000e+00	0.00000e+00	0.00000e+00	0.00000e+00	0.00000e+00	0.00000e+00	0.00000e+00	0.00000e+00	0.00000e+00	0.00000e+00	0.00000e+00	0.00000e+00	0.00000e+00	0.00000e+00	0.00000e+00	0.00000e+00	0.00000e+00	0.00000e+00	0.00000e+00	0.00000e+00	0.00000e+00	0.00000e+00	0.00000e+00	0.00000e+00	0.00000e+00	-1.84242e+02	-1.31288e+02	-1.21626e+02	-1.81577e+02	-7.85704e+01	-6.40695e+01	-1.57418e+02	-1.62015e+02	-9.27530e+01	-5.43537e+01	-1.71140e+02	-1.72811e+02	-1.83937e+02	-1.76769e+02	-8.70099e+01	-1.49549e+02	
Factor	3.59974e-05	1.57676e-04	5.33321e-05	1.56162e-01	1.60835e-06	2.14125e-06	1.73087e-01	5.61743e-02	1.99634e-06	1.80400e-06	9.22686e-02	3.72187e-02	3.89265e-02	9.91070e-03	1.84539e-06	1.43689e-02	3.91198e-06	4.30745e-06	1.20086e-06	7.79773e-02	4.62936e-08	4.73652e-08	8.15129e-02	2.80165e-02	4.65171e-08	4.73618e-08	4.47915e-02	1.80050e-02	1.94850e-02	4.98058e-03	4.68586e-08	6.99640e-03	X	X	X	X	X	X	X	X	X	X	X	X	X	X	X	X	



#DISTANCE SETTINGS
A = Detector Channel
A-1	A-2	A-3	A-4	A-5	A-6	A-7	A-8	A-9	A-10	A-11	A-12	A-13	A-14	A-15	A-16	

2.5000e+00	3.0000e+00	2.5000e+00	3.0000e+00	2.0000e+00	3.0000e+00	1.5000e+00	3.0000e+00	3.0000e+00	3.0000e+00	3.0000e+00	3.0000e+00	3.0000e+00	3.0000e+00	1.5000e+00	3.0000e+00	

B = Detector Channel
B-1	B-2	B-3	B-4	B-5	B-6	B-7	B-8	B-9	B-10	B-11	B-12	B-13	B-14	B-15	B-16	

1.0000e+01	1.0000e+01	1.0000e+01	1.4400e+00	1.0000e+01	1.0000e+01	1.5100e+00	1.9400e+00	1.0000e+01	1.0000e+01	1.9900e+00	2.4900e+00	2.4100e+00	2.9000e+00	1.0000e+01	2.9800e+00	




#DATA BEGINS
time	group	step	mark	flag	A-AC1	A-AC2	A-AC3	A-AC4	A-AC5	A-AC6	A-AC7	A-AC8	A-AC9	A-AC10	A-AC11	A-AC12	A-AC13	A-AC14	A-AC15	A-AC16	A-DC1	A-DC2	A-DC3	A-DC4	A-DC5	A-DC6	A-DC7	A-DC8	A-DC9	A-DC10	A-DC11	A-DC12	A-DC13	A-DC14	A-DC15	A-DC16	A-Ph1	A-Ph2	A-Ph3	A-Ph4	A-Ph5	A-Ph6	A-Ph7	A-Ph8	A-Ph9	A-Ph10	A-Ph11	A-Ph12	A-Ph13	A-Ph14	A-Ph15	A-Ph16	B-AC1	B-AC2	B-AC3	B-AC4	B-AC5	B-AC6	B-AC7	B-AC8	B-AC9	B-AC10	B-AC11	B-AC12	B-AC13	B-AC14	B-AC15	B-AC16	B-DC1	B-DC2	B-DC3	B-DC4	B-DC5	B-DC6	B-DC7	B-DC8	B-DC9	B-DC10	B-DC11	B-DC12	B-DC13	B-DC14	B-DC15	B-DC16	B-Ph1	B-Ph2	B-Ph3	B-Ph4	B-Ph5	B-Ph6	B-Ph7	B-Ph8	B-Ph9	B-Ph10	B-Ph11	B-Ph12	B-Ph13	B-Ph14	B-Ph15	B-Ph16	aux-1	digaux	

11371.772	1	1	0	256	0.078656	0.054027	0.18619	0.19479	0.061159	0.083099	0.18309	0.1162	0.054581	0.030328	0.16053	0.10508	0.031329	0.13588	0.16929	0.12107	-3.9417	-4.7625	-4.7	-4.3562	-4.7688	-4.5958	-4.5146	-4.9563	-4.1771	-4.6958	-4.7979	-4.3333	-4.8708	-4.5896	-4.2979	-4.9521	273.811	365.618	291.941	395.389	221.979	176.764	348.758	373.954	208.969	412.736	376.458	360.928	397.585	109.691	222.329	395.406	0.00093383	0.00065041	9.8566e-05	1282.7	2.8543e-06	4.0593e-06	1296.6	352.44	5.0447e-06	3.4064e-06	405.38	134	117.47	39.421	1.2885e-05	50.014	0.00086865	0.00089778	0.00024645	1312	9.7131e-06	9.7454e-06	1324.4	362.56	9.6562e-06	9.776e-06	418.3	139.03	121.3	41.161	9.8476e-06	52.213	107.039	198.105	193.965	91.797	358.627	225.403	91.726	96.410	225.954	228.838	96.152	100.192	100.705	105.431	215.090	104.512	-8191	255	
11371.868	1	1	0	0	0.086648	0.10962	0.10652	0.17254	0.18768	0.14797	0.26231	0.021947	0.15929	0.050807	0.053598	0.051157	0.30191	0.14849	0.21487	0.09946	-3.9833	-4.5833	-4.6229	-4.3354	-4.7438	-4.6167	-4.3063	-4.9938	-4.3792	-4.4521	-4.7854	-4.3646	-4.7667	-4.7542	-4.225	-4.8479	386.144	90.409	112.020	118.103	154.334	347.168	376.478	250.236	293.223	152.541	260.087	372.169	398.593	397.930	95.942	410.089	0.00079043	0.0007264	0.00015448	1277.9	8.6763e-06	6.4296e-06	1292.2	353.74	9.5191e-06	4.0786e-06	405.43	135.18	117.3	39.717	6.7294e-06	50.108	0.00087927	0.00089432	0.00025237	1307.3	9.9198e-06	9.8826e-06	1319	362.97	9.8969e-06	1.0051e-05	418.45	139.22	121.36	41.299	1.0016e-05	52.35	115.309	130.319	216.189	91.707	204.012	225.881	91.407	96.262	262.228	243.070	95.793	100.241	100.774	105.459	211.578	104.274	-8191	255	
11371.964	1	1	0	0	0.076403	0.07943	0.23171	0.040363	0.20655	0.16318	0.092287	0.14924	0.11331	0.094517	0.1534	0.26902	0.34136	0.11385	0.13894	0.17787	-3.8979	-4.3208	-4.6833	-4.3688	-4.5833	-4.5813	-4.4563	-4.9563	-4.4458	-4.2333	-4.9167	-4.4542	-4.6604	-4.8187	-4.2125	-4.8792	404.733	328.123	274.985	96.991	310.217	426.435	295.200	108.444	428.488	303.221	344.182	93.762	357.001	435.223	324.481	372.239	0.00094508	0.00042787	0.00035034	1278.8	7.6764e-06	1.0277e-05	1298.8	353.67	5.4792e-06	7.0199e-06	406.24	135.14	117.65	39.61	5.9172e-06	50.148	0.00091439	0.00092823	0.00025683	1311.6	1.0035e-05	1.003e-05	1325.5	363.8	9.9965e-06	1.0036e-05	419.47	139.45	121.57	41.383	9.9796e-06	52.353	114.884	161.616	216.743	91.855	218.637	212.944	91.525	96.504	204.824	236.482	95.743	100.208	100.676	105.534	192.410	104.542	-8191	255	
11372.061	1	1	0	0	0.20038	0.1867	0.20426	0.31844	0.16425	0.21399	0.17884	0.12755	0.078479	0.037219	0.12842	0.19764	0.21408	0.10977	0.094561	0.10339	-4.2125	-4.3625	-4.7646	-4.4958	-4.6562	-4.6479	-4.4125	-4.9187	-4.5979	-4.3313	-5.0229	-4.5396	-4.6521	-4.8542	-4.25	-4.7167	217.814	411.099	382.700	401.561	310.913	139.111	351.936	409.297	392.886	83.047	346.269	398.638	413.793	80.214	78.530	360.832	0.00087043	0.00049523	0.00019355	1278.2	7.8379e-06	7.7521e-06	1303	356.26	9.9257e-06	5.9252e-06	406.6	135.35	117.49	39.881	6.6902e-06	50.011	0.00090368	0.00093107	0.00026221	1315.3	1.0182e-05	1.0283e-05	1331	365.5	1.0236e-05	1.022e-05	421.71	140.31	122.22	41.589	1.0228e-05	52.402	113.493	180.778	172.528	91.651	192.423	243.254	91.452	96.380	198.372	219.341	95.821	100.251	101.057	105.343	194.515	104.394	-8191	255	
11372.157	1	1	0	0	0.21467	0.14746	0.052066	0.29382	0.18732	0.11774	0.17437	0.27043	0.12129	0.091622	0.1111	0.1715	0.17304	0.11127	0.13029	0.1038	-4.35	-4.2937	-4.9563	-4.2875	-4.6125	-4.7333	-4.5125	-4.8729	-4.6438	-4.3729	-4.9854	-4.4375	-4.3917	-4.8417	-4.2833	-4.7417	210.218	424.205	217.349	409.264	294.621	126.121	85.935	429.060	231.420	409.558	100.492	387.030	151.874	342.909	169.526	202.829	0.00091928	0.00013471	0.00028571	1289.4	6.5572e-06	1.9244e-06	1302.7	355.35	8.7173e-06	6.0035e-06	407.94	136.16	118.77	39.794	6.086e-06	50.287	0.00092055	0.00093671	0.00026145	1320	1.0246e-05	1.041e-05	1334.1	366.17	1.026e-05	1.0345e-05	422.14	140.66	122.51	41.605	1.0224e-05	52.527	112.029	402.093	172.733	91.848	252.507	239.804	91.460	96.290	168.978	238.299	95.673	100.224	100.673	105.288	206.662	104.329	-8191	255	
11372.253	1	1	0	0	0.16798	0.059708	0.18075	0.31184	0.22879	0.24631	0.21612	0.099435	0.18511	0.057064	0.27202	0.04783	0.1138	0.030196	0.23424	0.15502	-4.2167	-4.1729	-4.8729	-4.6	-4.4646	-4.8271	-4.5208	-4.725	-4.6083	-4.2375	-4.9208	-4.5292	-4.5875	-5	-4.2854	-4.7438	79.928	229.963	173.275	377.434	285.154	358.422	346.082	245.932	172.230	152.063	405.725	368.293	124.847	118.262	133.444	416.926	0.00088337	0.00069528	0.00020766	1285.9	4.8102e-06	4.1214e-06	1303.8	354.1	1.1503e-05	5.9801e-06	407.51	135.53	117.95	39.976	7.5211e-06	50.138	0.00091391	0.00093091	0.00026234	1319.1	1.0145e-05	1.0172e-05	1332.7	365.21	1.0033e-05	1.0136e-05	421.05	140.12	122.23	41.613	1.0096e-05	52.429	115.478	183.127	175.764	91.781	254.892	251.555	91.582	96.492	227.621	268.081	95.891	99.762	100.948	105.530	213.290	104.043	-8191	255	
11372.349	1	1	0	0	0.2279	0.059678	0.15082	0.14374	0.024033	0.19226	0.12833	0.12018	0.17495	0.092053	0.23911	0.025274	0.21742	0.12871	0.28715	0.29967	-4.2833	-4.225	-4.7167	-4.7042	-4.2292	-4.7896	-4.5417	-4.6354	-4.7042	-4.1917	-4.9	-4.6958	-4.3375	-4.9583	-4.2729	-4.4958	159.484	304.132	258.689	413.852	376.741	91.370	364.861	400.694	388.292	412.696	374.145	203.576	280.323	122.137	189.098	301.558	0.00084378	0.0008408	0.00030318	1291.9	7.6223e-06	3.3672e-06	1301.2	355.56	4.6708e-06	5.6784e-06	408.44	135.91	118.3	39.774	5.4687e-06	50.181	0.00090709	0.00092143	0.00025748	1322.7	1.0009e-05	1.0075e-05	1334.5	365.22	9.873e-06	9.9549e-06	422.71	140.1	122.13	41.63	9.8471e-06	52.413	113.292	179.521	134.085	91.645	259.819	277.567	91.509	96.633	175.248	220.122	95.707	100.181	100.596	105.174	244.979	104.728	-8191	255	
11372.470	1	1	0	0	0.076517	0.11269	0.289	0.33265	0.03267	0.12737	0.29326	0.2321	0.085991	0.15897	0.10008	0.069312	0.11813	0.10588	0.09189	0.078772	-4.4812	-4.2208	-4.7979	-4.7729	-4.1687	-4.7854	-4.6104	-4.3833	-4.7792	-4.3625	-4.8354	-4.5938	-4.3438	-4.8	-4.4333	-4.4333	306.479	198.346	381.507	431.353	83.773	222.991	369.371	80.762	404.995	368.772	394.063	389.678	110.343	280.231	422.677	335.869	0.0009024	0.00026725	0.00024774	1293.6	7.1722e-06	7.3858e-06	1305.3	354.47	5.522e-06	5.0046e-06	408.21	135.6	118.13	39.717	6.7836e-06	49.988	0.00088418	0.00090613	0.00025122	1322.8	9.6412e-06	9.8125e-06	1333.4	364.83	9.641e-06	9.7376e-06	421.31	139.91	122.02	41.502	9.6321e-06	52.198	105.151	193.934	152.976	91.712	229.562	235.431	91.483	96.592	198.966	247.275	95.938	100.087	100.855	105.246	200.455	104.405	-8191	255	
11372.566	1	1	0	0	0.046076	0.15965	0.17566	0.14722	0.059039	0.19248	0.24563	0.11143	0.20318	0.10924	0.10303	0.164	0.11077	0.27967	0.092882	0.18757	-4.3562	-4.3292	-4.5042	-4.8521	-4.1188	-4.8146	-4.5938	-4.4583	-4.8688	-4.1896	-4.7792	-4.7604	-4.2604	-4.7958	-4.5729	-4.2708	124.952	204.866	196.963	374.220	408.759	295.996	372.010	302.988	236.856	325.653	370.964	112.352	133.242	284.114	149.012	178.627	0.00090205	0.00069461	0.0001981	1285.5	4.7149e-06	3.2379e-06	1304.4	356.44	4.2477e-06	4.2424e-06	407.25	135.17	118.01	40.001	6.8258e-06	50.243	0.00087641	0.00087422	0.0002473	1319.2	9.4213e-06	9.6488e-06	1331.7	364.65	9.4814e-06	9.7023e-06	421.01	139.97	122.07	41.594	9.561e-06	52.306	110.340	154.288	157.428	91.915	169.431	271.179	91.658	96.406	200.318	247.263	95.777	100.330	100.449	105.246	243.379	104.318	-8191	255	
11372.660	1	1	0	0	0.094536	0.13969	0.07894	0.1615	0.22025	0.1488	0.16513	0.42164	0.17208	0.12612	0.2101	0.23731	0.24124	0.24601	0.085314	0.11435	-4.3854	-4.3333	-4.6292	-4.8938	-4.2063	-4.7667	-4.6667	-4.325	-4.7771	-4.2333	-4.4792	-4.9333	-4.2042	-4.8375	-4.5854	-4.3479	437.863	419.445	400.568	409.886	427.516	348.935	435.425	354.167	311.108	148.399	110.212	119.818	156.624	341.176	333.145	134.788	0.0009105	0.00057892	0.00014981	1287.4	3.6583e-06	5.3101e-06	1304.1	356.11	7.6708e-06	4.2444e-06	406.31	135.72	117.5	40.025	7.3048e-06	50.07	0.00087783	0.0008835	0.000248	1320.9	9.652e-06	9.8548e-06	1334.9	365.09	9.9481e-06	9.8053e-06	421.71	140.22	121.74	41.649	9.8045e-06	52.207	105.000	160.028	159.801	91.710	226.632	222.892	91.550	96.372	203.811	224.032	95.777	100.124	100.850	105.276	223.440	104.307	-8191	255	
11372.758	1	1	0	0	0.11923	0.092896	0.038532	0.14139	0.2533	0.11188	0.1646	0.23586	0.30263	0.12883	0.29292	0.03278	0.11963	0.22402	0.16707	0.070732	-4.4688	-4.3458	-4.3875	-4.825	-4.2083	-4.575	-4.7729	-4.2729	-4.9938	-4.5188	-4.4917	-5.0437	-4.3667	-4.6333	-4.7417	-4.1958	436.670	194.991	205.978	338.260	340.970	259.554	357.161	365.633	416.026	180.111	381.090	184.764	214.286	397.851	247.910	360.990	0.00093813	0.00058447	0.00016858	1292.6	6.632e-06	3.4867e-06	1307.9	357.89	9.5039e-06	3.8401e-06	409.01	135.81	118.2	40.062	2.8469e-06	50.168	0.00089315	0.00089686	0.00025331	1324	9.7927e-06	1.0023e-05	1338.2	366.53	9.9096e-06	9.912e-06	423.16	140.52	122.46	41.805	1.0002e-05	52.317	107.877	213.018	173.217	91.650	191.924	291.115	91.549	96.234	166.933	217.439	95.979	100.199	100.750	105.462	239.628	104.263	-8191	255	
11372.853	1	1	0	0	0.16033	0.2532	0.13592	0.05338	0.21468	0.08023	0.12584	0.099987	0.14499	0.16642	0.12808	0.1445	0.21386	0.10355	0.10346	0.16965	-4.4625	-4.5229	-4.1687	-5.0792	-4.2792	-4.7167	-4.9187	-4.4104	-4.6896	-4.7042	-4.4292	-4.8562	-4.2708	-4.6708	-4.8083	-4.3313	244.153	335.866	242.150	146.478	388.338	278.375	361.950	336.114	143.996	272.940	129.374	370.687	305.541	322.649	425.128	337.704	0.00098296	0.00073892	3.9555e-05	1299.7	5.6113e-06	8.9146e-06	1311.3	356.91	7.0355e-06	3.5246e-06	411.21	136.59	118.73	40.209	7.9568e-06	50.309	0.00091659	0.00092192	0.00025597	1329.1	1.0015e-05	1.0185e-05	1342.3	367.6	1.0269e-05	1.0214e-05	425.4	141.38	123.28	42.009	1.0413e-05	52.601	118.360	174.605	183.184	91.619	259.176	236.570	91.380	96.374	202.778	265.068	95.850	100.031	100.860	105.316	206.924	104.337	-8191	255	
11372.949	1	1	0	0	0.10001	0.061387	0.32098	0.17	0.23947	0.08195	0.48142	0.1161	0.11996	0.071392	0.18722	0.033819	0.14956	0.021794	0.15225	0.25095	-4.3854	-4.5813	-4.3021	-5.0437	-4.45	-4.6792	-5.0563	-4.3333	-4.7708	-4.6104	-4.3479	-4.9958	-4.5333	-4.3583	-4.8375	-4.2479	398.700	328.190	228.238	369.955	223.753	260.997	410.301	323.170	369.698	329.908	247.722	243.935	158.371	208.180	183.522	427.112	0.000851	0.00077423	0.00018073	1295.9	4.7335e-06	4.8793e-06	1314.9	358.49	6.7215e-06	5.2267e-06	410.36	137.51	119.05	40.313	4.1011e-06	50.233	0.00093696	0.00095081	0.0002639	1332.1	1.0336e-05	1.0406e-05	1345.2	368.54	1.0344e-05	1.0277e-05	425.29	141.59	123.2	42.038	1.0126e-05	52.53	116.785	176.607	175.862	91.745	218.319	239.817	91.681	96.271	189.323	176.581	95.422	100.163	100.576	105.519	231.583	104.265	-8191	255	
11373.045	1	1	0	0	0.041237	0.10244	0.18358	0.070068	0.11346	0.17977	0.17737	0.052114	0.14327	0.13244	0.10306	0.012278	0.029589	0.25091	0.20676	0.095186	-4.2167	-4.6813	-4.325	-4.8854	-4.5021	-4.4104	-5.0104	-4.3396	-4.5312	-4.7917	-4.3833	-4.8229	-4.5167	-4.45	-4.8208	-4.4229	426.253	276.217	414.499	173.501	196.592	245.843	356.737	125.478	390.520	215.722	352.730	160.044	398.081	387.162	286.331	406.355	0.00089363	0.00036778	0.00018776	1298	5.1812e-06	1.0461e-05	1311.3	359.17	5.619e-06	7.1026e-06	410.92	136.5	118.2	40.37	4.0597e-06	50.534	0.00092554	0.00093281	0.0002573	1331.4	9.9751e-06	9.9905e-06	1342.9	368.86	9.8621e-06	1.005e-05	424.98	141.13	122.66	41.939	9.7634e-06	52.538	109.211	188.483	165.755	91.682	233.045	234.236	91.626	96.380	248.272	245.774	95.724	100.214	100.612	105.550	238.209	104.535	-8191	255	
11373.165	1	1	0	0	0.12428	0.028529	0.17234	0.31463	0.12592	0.08162	0.1802	0.10953	0.19232	0.042985	0.20228	0.061227	0.18038	0.05208	0.01319	0.081891	-4.2229	-4.6125	-4.3354	-4.7208	-4.6333	-4.0833	-5.1042	-4.5	-4.4417	-4.8667	-4.3958	-4.7583	-4.5813	-4.3979	-4.9479	-4.4646	425.569	258.681	179.790	383.592	165.214	253.930	97.795	419.422	144.428	310.412	96.619	88.400	274.111	346.049	183.226	322.288	0.00095411	0.00049697	0.00012109	1301.7	5.0101e-06	6.4665e-06	1316.7	358.19	6.5568e-06	7.4937e-06	411.09	137.36	119.17	40.313	5.017e-06	50.424	0.00088964	0.00089451	0.00025218	1330.9	9.6664e-06	9.8108e-06	1342.9	368.37	9.7833e-06	9.7417e-06	424.81	141.41	122.99	41.913	9.7989e-06	52.525	110.257	133.341	191.144	91.797	180.497	213.110	91.412	96.459	187.756	230.520	95.934	100.316	100.823	105.312	237.678	104.345	-8191	255	
11373.262	1	1	0	0	0.18308	0.081668	0.14978	0.2974	0.10907	0.28847	0.08479	0.15463	0.16451	0.097254	0.32286	0.16816	0.23661	0.11363	0.033211	0.26063	-4.0396	-4.8708	-4.1271	-4.8375	-4.5646	-4.3438	-4.9792	-4.6813	-4.3729	-4.8562	-4.3042	-4.7667	-4.7771	-4.3646	-4.8187	-4.65	341.537	332.246	127.379	426.905	371.805	304.521	355.840	425.902	312.044	110.030	424.288	369.121	392.880	351.922	396.668	401.628	0.00093294	0.0009893	0.00016933	1300	5.2722e-06	5.2998e-06	1316.7	359.09	7.5836e-06	5.3352e-06	412.31	136.82	118.79	40.344	8.2328e-06	50.631	0.00088529	0.00090261	0.00025027	1331.3	9.8033e-06	9.807e-06	1343.1	368.33	9.8627e-06	9.9669e-06	425	141.37	123.06	42.062	9.9102e-06	52.605	114.824	166.384	147.048	91.661	215.753	299.178	91.578	96.366	210.836	254.701	96.031	99.930	100.336	105.510	241.385	104.453	-8191	255	
11373.358	1	1	0	0	0.19531	0.14417	0.19759	0.15297	0.040255	0.27949	0.2695	0.019602	0.19812	0.10478	0.12582	0.12678	0.10248	0.039856	0.22676	0.2675	-4.0062	-4.9708	-4.3438	-4.7583	-4.8479	-4.3229	-4.9542	-4.6	-4.3771	-5.0208	-4.425	-4.5542	-4.7729	-4.3833	-4.6479	-4.4938	156.720	374.552	198.789	423.421	228.040	397.747	238.473	213.968	381.511	296.381	384.620	302.363	417.703	107.991	85.946	419.840	0.00085398	0.00066216	0.00026229	1300.4	4.8046e-06	8.9799e-06	1313.9	358.48	6.552e-06	8.075e-06	412.25	137.11	118.55	40.285	4.4296e-06	50.367	0.00089077	0.00091359	0.00024936	1332.5	9.7746e-06	9.9197e-06	1344.9	368.23	1.0035e-05	1.0011e-05	424.82	141.63	123.03	42.037	1.009e-05	52.627	108.518	183.272	200.735	91.669	248.087	217.042	91.448	96.467	201.572	223.778	95.878	100.217	100.612	105.312	199.148	104.552	-8191	255	
11373.429	1	1	0	0	0.058066	0.023285	0.13423	0.38186	0.18908	0.17087	0.16811	0.13066	0.17148	0.18523	0.021758	0.10125	0.20293	0.13014	0.026552	0.21842	-3.8854	-4.8625	-4.3042	-4.6208	-4.7458	-4.2229	-4.7646	-4.7917	-4.2875	-4.8125	-4.4896	-4.5563	-4.925	-4.4604	-4.6021	-4.85	433.922	259.860	213.420	404.306	414.845	301.335	335.124	85.661	223.556	267.412	248.194	411.143	92.520	414.412	341.582	358.358	0.00091484	0.00065811	0.00017923	1299.5	8.0449e-06	2.5369e-06	1317.2	359.02	5.2929e-06	4.5506e-06	412.92	136.66	118.58	40.253	5.1994e-06	50.365	0.00091273	0.00093016	0.00025948	1331.5	1.0124e-05	1.0128e-05	1347.5	369.19	1.0055e-05	1.0299e-05	425.95	141.3	123.2	42.001	1.0117e-05	52.547	114.700	186.317	206.070	91.611	234.993	219.621	91.484	96.341	216.168	217.845	95.535	100.150	100.940	105.247	236.158	104.445	-8191	255	
11373.550	1	1	0	0	0.06918	0.21499	0.08695	0.24589	0.1526	0.05008	0.15788	0.031615	0.025164	0.10829	0.12934	0.15082	0.13892	0.09495	0.25521	0.3502	-4.0083	-4.7354	-4.4354	-4.5521	-4.8333	-4.4292	-4.85	-4.6917	-3.9542	-4.6958	-4.5625	-4.3854	-4.875	-4.5042	-4.3854	-4.7646	209.807	215.325	204.339	381.144	434.291	184.623	391.230	92.161	402.096	344.732	348.442	329.775	84.819	341.584	245.429	353.313	0.00089856	0.00048483	0.00029673	1301.4	8.5509e-06	1.041e-05	1314.9	360	4.781e-06	3.8332e-06	412.3	137.2	118.24	40.317	6.101e-06	50.37	0.00090504	0.00091847	0.00025473	1333	9.9188e-06	9.8904e-06	1345.2	368.31	9.8035e-06	9.908e-06	424.8	141.35	122.78	41.976	9.6107e-06	52.42	111.212	199.488	133.522	91.835	223.490	278.106	91.381	96.545	206.295	267.957	95.764	100.158	100.630	105.226	214.419	104.192	-8191	255	
11373.646	1	1	0	0	0.17354	0.23647	0.053514	0.2151	0.16578	0.23937	0.45613	0.39681	0.09552	0.055894	0.1456	0.074586	0.31324	0.16796	0.11596	0.25407	-3.8438	-4.7562	-4.4854	-4.4521	-4.8396	-4.3333	-4.6583	-4.9854	-4.2438	-4.7646	-4.7625	-4.2958	-4.8542	-4.3771	-4.4958	-4.9	112.860	372.210	150.192	386.980	437.994	226.051	351.981	368.198	206.410	182.779	211.831	340.531	293.483	388.405	381.571	381.631	0.00093036	0.00048466	0.00012644	1300.7	7.5403e-06	4.8758e-06	1314.8	357.77	5.8584e-06	2.6642e-06	410.17	136.53	118.4	40.165	1.353e-06	50.146	0.00087034	0.0008835	0.00024084	1330	9.4628e-06	9.6013e-06	1342.1	367.55	9.5325e-06	9.7083e-06	423.65	140.91	122.62	41.84	9.5632e-06	52.344	116.155	154.197	205.878	91.643	191.047	232.933	91.446	96.406	207.568	246.834	95.778	100.090	100.408	105.326	234.587	104.556	-8191	255	
11373.741	1	1	0	0	0.1295	0.10893	0.0566	0.24982	0.2393	0.16454	0.063065	0.077241	0.13472	0.11477	0.14001	0.15855	0.29419	0.52528	0.069075	0.10708	-3.9	-4.6208	-4.5521	-4.4062	-4.8896	-4.5146	-4.7542	-5.025	-4.2438	-4.6375	-4.8167	-4.3167	-4.7708	-4.5563	-4.2438	-4.9104	228.412	252.992	147.739	384.423	298.088	370.303	333.367	317.475	117.658	323.042	282.073	426.768	420.537	436.129	173.070	368.871	0.00092189	0.00067451	0.00011913	1297.8	8.529e-06	9.9579e-06	1308.1	358.23	9.2465e-06	2.448e-06	408.9	136.47	118.62	40.122	6.5681e-06	50.167	0.00086224	0.00088165	0.00024303	1327.5	9.5725e-06	9.5977e-06	1339	367.12	9.5489e-06	9.8831e-06	423.09	140.93	122.86	41.775	9.8968e-06	52.445	111.288	149.341	130.573	91.842	239.230	258.967	91.658	96.426	254.119	263.166	95.692	100.005	100.643	105.425	228.770	104.346	-8191	255	
11373.839	1	1	0	0	0.017441	0.13663	0.16266	0.06117	0.083049	0.14912	0.2596	0.10979	0.1533	0.060253	0.25404	0.029898	0.20218	0.20304	0.07544	0.09617	-4.0083	-4.6896	-4.4667	-4.4812	-4.7708	-4.3521	-4.6042	-4.8292	-4.2188	-4.5521	-4.7833	-4.1	-4.8938	-4.5729	-4.1583	-4.9375	189.045	200.833	92.670	378.586	114.063	101.378	411.019	305.807	396.438	163.767	429.603	287.894	79.405	330.200	365.892	410.761	0.00091913	0.00031446	0.00014786	1299.8	8.8551e-06	4.2592e-06	1317.7	357.86	1.1129e-05	6.2939e-06	411.33	136.96	118.66	40.27	3.6889e-06	50.15	0.00090497	0.00091346	0.00025378	1333.2	9.9944e-06	9.9691e-06	1347.4	368.3	9.994e-06	1.0037e-05	425.25	141.11	123.14	41.887	9.8456e-06	52.374	105.516	180.600	182.637	91.791	219.951	294.885	91.598	96.446	187.294	231.562	95.976	100.214	100.907	105.309	208.127	104.317	-8191	255	
11373.957	1	1	0	0	0.17377	0.1129	0.135	0.17002	0.15496	0.02653	0.18436	0.19854	0.14634	0.11842	0.13427	0.19638	0.093389	0.15107	0.14101	0.05269	-4.0667	-4.3917	-4.8187	-4.2438	-4.6646	-4.7562	-4.2312	-4.6979	-4.2292	-4.3417	-4.6667	-4.3688	-4.7021	-4.5938	-4.1583	-4.9938	350.144	237.111	136.686	382.211	262.708	307.970	285.464	431.715	323.799	126.592	394.920	309.241	141.566	426.634	169.180	103.689	0.00091695	0.00042831	0.00012144	1302.2	5.075e-06	4.7182e-06	1313	357.52	8.7296e-06	2.738e-06	408.25	135.86	118.25	39.828	3.9418e-06	50.011	0.00088564	0.00088535	0.00024396	1331	9.5653e-06	9.4178e-06	1340.3	367.09	9.3327e-06	9.3776e-06	421.64	140.31	121.95	41.571	8.9242e-06	52.057	110.924	149.088	162.809	91.563	264.236	261.055	91.411	96.350	200.636	253.564	95.597	100.098	100.634	105.228	213.173	104.385	-8191	255	
11374.029	1	1	0	0	0.12656	0.23824	0.29743	0.25085	0.060014	0.23766	0.29907	0.14206	0.17488	0.18381	0.13154	0.2662	0.10112	0.087255	0.13259	0.15192	-4.0792	-4.4146	-4.8187	-4.4688	-4.5792	-4.6208	-4.3875	-4.9542	-4.4354	-4.425	-4.8771	-4.1896	-4.5271	-4.7542	-4.25	-4.8833	401.574	332.858	412.747	408.319	381.104	345.763	365.273	411.446	367.823	283.439	131.323	395.675	247.162	367.984	174.697	82.336	0.00092632	0.00025206	0.00019955	1289.9	7.538e-06	1.0415e-06	1300.6	354.51	5.5316e-06	7.5848e-06	408.67	135.58	117.63	39.884	3.0926e-06	49.92	0.00079988	0.00080992	0.00022442	1318.6	8.8475e-06	8.7378e-06	1329.1	364.14	8.7402e-06	8.8522e-06	420.35	139.83	121.44	41.425	8.6817e-06	51.916	113.607	204.300	186.520	91.697	203.377	265.056	91.462	96.552	167.659	258.919	95.564	100.073	100.996	105.372	194.912	104.394	-8191	255	
11374.150	1	1	0	0	0.088998	0.087756	0.1426	0.18663	0.080989	0.11505	0.28787	0.15797	0.21061	0.023817	0.2194	0.2623	0.19998	0.10842	0.087072	0.047371	-4.1208	-4.2896	-4.9375	-4.4437	-4.5375	-4.5479	-4.3625	-4.8104	-4.5396	-4.2167	-5.1062	-4.4437	-4.4417	-4.7271	-4.1625	-4.7937	269.093	175.267	410.906	417.052	120.324	188.527	411.922	332.951	315.271	160.688	307.315	362.511	150.844	347.827	370.865	117.944	0.00092822	0.00071842	0.00023886	1288.4	5.138e-06	3.1107e-06	1302.4	354.99	1.1501e-05	6.4946e-06	407.5	135.72	117.22	39.885	1.7163e-06	49.882	0.00079826	0.00080146	0.0002247	1317	8.7239e-06	8.6581e-06	1329.3	364.14	8.6802e-06	8.7787e-06	419.77	139.53	121.24	41.367	8.532e-06	51.854	114.153	155.284	172.414	91.671	207.705	233.335	91.673	96.542	236.756	273.983	95.917	100.187	100.842	105.526	329.220	104.381	-8191	255	
11374.246	1	1	0	0	0.18024	0.10016	0.18393	0.1633	0.19317	0.13453	0.2108	0.12176	0.22483	0.2545	0.10181	0.25557	0.13433	0.27571	0.02352	0.14524	-4.225	-4.1729	-4.8125	-4.5417	-4.3292	-4.7875	-4.3625	-4.6417	-4.6417	-4.3313	-4.9146	-4.45	-4.325	-4.9792	-4.1833	-4.6438	392.820	216.479	242.489	432.723	427.294	167.492	395.482	421.094	88.762	262.878	328.334	423.462	423.831	383.444	233.361	107.358	0.00081851	0.00038478	0.00020113	1285.6	7.0291e-06	5.1116e-06	1297.5	354.62	6.6051e-06	5.0654e-06	407.27	135.83	117.11	39.878	4.0205e-06	50.007	0.00077007	0.00078013	0.0002188	1313.9	8.4516e-06	8.4657e-06	1325.7	363.59	8.3655e-06	8.4558e-06	418.77	139.29	121.07	41.353	8.3946e-06	51.843	112.447	206.279	194.037	91.903	223.776	250.293	91.614	96.568	186.106	201.229	95.793	100.420	100.779	105.301	248.300	104.508	-8191	255	
11374.342	1	1	0	0	0.070939	0.27852	0.088182	0.1627	0.050017	0.15976	0.1574	0.23639	0.10928	0.17268	0.098413	0.093998	0.22264	0.23713	0.075102	0.44438	-4.3021	-4.0375	-4.7312	-4.5896	-4.2729	-4.7958	-4.4313	-4.7229	-4.6292	-4.1021	-4.8979	-4.5188	-4.1937	-4.8042	-4.2771	-4.5563	284.588	307.922	176.538	428.497	241.739	374.787	366.148	377.488	181.563	419.331	407.437	91.751	374.292	357.778	393.268	344.248	0.0010413	0.00017031	0.00021509	1283.9	6.2542e-06	6.7599e-06	1300.4	353.74	1.1811e-05	6.4686e-06	404.2	135.51	117.28	39.66	1.0581e-05	49.714	0.00076617	0.00076316	0.00021033	1313.8	8.315e-06	8.4028e-06	1324.9	362.53	8.4347e-06	8.3661e-06	417.77	139.26	120.93	41.281	8.3647e-06	51.717	114.498	347.113	201.586	91.833	225.947	280.921	91.678	96.585	180.111	205.414	95.981	100.337	100.759	105.251	185.538	104.690	-8191	255	
11374.438	1	1	0	0	0.12446	0.21158	0.23171	0.33652	0.048818	0.080884	0.17309	0.28151	0.035505	0.19716	0.078598	0.043267	0.1164	0.13214	0.26894	0.041092	-4.3146	-4.125	-4.5604	-4.6833	-4.2146	-4.8646	-4.5125	-4.6062	-4.8292	-4.125	-4.7125	-4.6792	-4.3417	-4.8354	-4.1958	-4.4604	296.176	254.128	167.774	427.465	434.234	158.246	335.923	347.875	89.976	116.308	358.553	385.771	101.303	397.638	348.226	272.229	0.00079624	0.00064687	0.0001355	1278.9	4.1854e-06	4.576e-06	1296.2	354.19	8.5034e-06	7.3196e-06	406.53	135.65	116.67	39.608	2.1899e-06	49.533	0.00077336	0.00076395	0.00021555	1309.1	8.4265e-06	8.575e-06	1323.4	362.49	8.5347e-06	8.556e-06	418.2	139.19	120.65	41.258	8.6577e-06	51.693	114.064	138.285	164.806	91.792	166.843	242.981	91.526	96.513	166.123	206.957	95.867	100.169	100.852	105.556	277.823	104.504	-8191	255	
11374.559	1	1	0	0	0.093417	0.097752	0.13695	0.16494	0.21076	0.18573	0.24769	0.10292	0.05969	0.090122	0.050971	0.11132	0.1108	0.13588	0.2649	0.074357	-4.3229	-4.1083	-4.5083	-4.8646	-4.3208	-4.7708	-4.5125	-4.5	-4.9146	-4.3792	-4.7063	-4.8104	-4.2125	-5.025	-4.5167	-4.3958	287.700	133.151	221.317	438.110	266.574	178.616	360.207	278.694	427.517	153.740	80.711	179.266	342.898	294.170	411.994	306.255	0.00086548	0.00018085	0.00017658	1283.2	7.5131e-06	5.8046e-06	1295.2	354.08	4.9838e-06	6.6387e-06	405.66	135.67	117.42	39.727	7.8885e-06	49.828	0.00077992	0.00078951	0.00022236	1312.1	8.6418e-06	8.7884e-06	1324	363.17	8.7724e-06	8.7558e-06	418.96	139.23	121.11	41.285	8.762e-06	51.869	118.061	158.127	175.043	91.745	199.072	200.801	91.493	96.516	205.104	261.769	95.999	100.023	100.776	105.564	243.595	104.390	-8191	255	
11374.630	1	1	0	0	0.23091	0.17373	0.15546	0.18106	0.18417	0.14593	0.31652	0.31043	0.13174	0.024183	0.0589	0.19902	0.059978	0.19964	0.20536	0.15674	-4.5229	-4.2979	-4.5646	-4.8583	-4.1604	-4.8125	-4.8708	-4.3271	-4.8958	-4.4708	-4.5667	-4.7937	-4.2104	-4.65	-4.7271	-4.2458	268.893	377.489	370.443	365.420	360.895	213.514	349.066	102.575	147.765	233.204	389.939	148.814	338.218	322.379	83.354	107.227	0.00089527	0.00054854	0.00013455	1284	7.5856e-06	5.6646e-06	1294.1	353.88	7.0621e-06	4.1236e-06	406.99	135.21	116.86	39.615	2.2384e-06	49.85	0.00080491	0.00080724	0.00022523	1311.3	8.7868e-06	8.8848e-06	1323.7	363.16	8.8449e-06	8.8531e-06	419.12	139.23	120.76	41.229	8.714e-06	51.843	109.287	206.523	185.526	91.829	224.107	233.844	91.561	96.355	170.636	242.633	95.899	100.147	100.865	105.440	216.235	104.585	-8191	255	
11374.727	1	1	0	0	0.08672	0.097502	0.028072	0.33541	0.047368	0.21282	0.25079	0.20562	0.18378	0.10295	0.28644	0.21903	0.20247	0.21056	0.09746	0.095257	-4.5188	-4.475	-4.3917	-4.9125	-4.2104	-4.7083	-4.8771	-4.4354	-4.7562	-4.5312	-4.4646	-4.8729	-4.3896	-4.8271	-4.7229	-4.1542	259.912	187.229	101.682	387.251	101.490	225.923	369.613	107.435	299.895	170.871	411.173	391.410	410.142	140.138	405.639	260.909	0.00086312	0.00026162	0.00010815	1280	3.8248e-06	7.1071e-06	1296.1	354.54	9.4949e-06	3.3877e-06	406.91	135.08	117.1	39.585	5.7362e-06	49.742	0.00080629	0.00080853	0.00022677	1311.1	8.787e-06	8.953e-06	1324.8	363.45	8.9559e-06	8.8607e-06	418.88	139.21	121.19	41.326	8.8944e-06	51.848	114.927	123.646	336.212	91.902	205.230	178.934	91.642	96.527	187.828	239.116	96.020	100.192	100.864	105.459	272.099	104.364	-8191	255	
11374.845	1	1	0	0	0.090363	0.085631	0.22587	0.16618	0.17485	0.23022	0.24093	0.33758	0.28552	0.13837	0.40826	0.089246	0.11158	0.12138	0.14441	0.15095	-4.55	-4.4979	-4.3313	-4.8708	-4.3354	-4.6937	-4.8792	-4.3	-4.7167	-4.5771	-4.5437	-5.1271	-4.4563	-4.6729	-4.6687	-4.2833	86.393	197.478	310.746	90.613	197.306	268.734	137.294	350.433	215.508	120.890	341.973	336.774	422.761	340.773	371.309	323.123	0.00084494	0.00077637	0.00019398	1284.4	5.9207e-06	4.149e-06	1296.8	354.76	7.923e-06	5.6584e-06	406.44	135.52	117.22	39.686	8.1281e-06	49.664	0.00082067	0.00082044	0.00023068	1313	9.0379e-06	9.0927e-06	1325	363.09	9.1144e-06	9.0132e-06	418.94	139.47	121.19	41.334	9.0288e-06	51.949	113.653	159.418	182.011	91.706	187.841	187.471	91.557	96.368	219.141	286.285	95.839	100.284	100.614	105.344	184.971	104.445	-8191	255	
11374.942	1	1	0	0	0.064624	0.098541	0.046	0.18998	0.15215	0.031015	0.0734	0.10854	0.20705	0.037606	0.28865	0.10844	0.14584	0.11208	0.07162	0.13759	-4.4563	-4.4771	-4.3083	-5.0479	-4.2812	-4.5062	-4.9979	-4.2729	-4.6167	-4.5938	-4.45	-4.9354	-4.4771	-4.6958	-4.825	-4.2854	254.991	165.495	95.428	418.218	274.494	390.526	365.108	389.951	333.789	399.490	337.643	428.821	104.261	371.424	343.781	245.184	0.00085635	0.00055002	0.00012144	1284.1	9.0484e-06	3.6312e-06	1292.8	353.39	5.9931e-06	9.8093e-06	406.24	135.12	117.27	39.719	8.3896e-06	49.824	0.00083358	0.0008216	0.00023135	1313.5	9.0313e-06	9.0346e-06	1324.7	362.65	9.032e-06	9.071e-06	418.81	139.33	121.06	41.323	8.9198e-06	51.826	113.341	135.222	141.601	91.867	205.670	251.243	91.475	96.495	220.982	252.192	96.000	100.215	100.962	105.337	196.431	104.237	-8191	255	
11375.038	1	1	0	0	0.13038	0.10242	0.11818	0.30022	0.20555	0.14559	0.2079	0.24957	0.11238	0.060938	0.13438	0.27282	0.20705	0.22824	0.06702	0.087972	-4.3708	-4.7312	-4.0917	-4.9083	-4.5229	-4.3854	-5.0104	-4.2812	-4.6625	-4.7479	-4.3396	-4.9208	-4.5833	-4.2958	-4.9875	-4.2792	436.643	337.768	248.696	86.496	357.925	271.912	107.002	384.495	157.775	225.787	360.566	300.070	413.297	391.763	265.444	100.795	0.00086023	0.0002604	9.133e-05	1280.1	4.2273e-06	4.6734e-06	1293.9	352.38	7.6719e-06	2.2908e-06	406.91	135.11	117.24	39.705	1.7287e-06	49.876	0.00082465	0.00083065	0.00023124	1311.7	8.9478e-06	9.0458e-06	1323.6	362.67	9.1087e-06	9.0363e-06	419	139.32	121.09	41.304	9.1372e-06	51.954	109.560	110.486	171.765	91.764	275.494	249.451	91.662	96.513	239.119	161.211	95.988	100.262	100.930	105.354	217.782	104.368	-8191	255	
11375.134	1	1	0	0	0.34327	0.16009	0.15723	0.21856	0.068922	0.13584	0.072506	0.090072	0.18101	0.12891	0.11776	0.23904	0.21268	0.018141	0.16685	0.059167	-4.2354	-4.6708	-4.0375	-4.8812	-4.7125	-4.375	-4.9646	-4.4938	-4.4104	-4.7667	-4.4354	-4.7667	-4.65	-4.2063	-4.9521	-4.4812	428.856	214.664	297.792	91.726	138.962	395.159	271.896	417.188	380.206	135.123	426.468	406.134	113.383	125.476	243.244	326.372	0.00078261	0.00064888	0.00019943	1284.7	5.4851e-06	8.2897e-06	1296.6	354.24	5.9407e-06	4.5613e-06	405.58	135.27	117.41	39.547	5.9024e-06	49.817	0.00084061	0.00083802	0.00023174	1313.6	9.0323e-06	9.1951e-06	1325.4	363.12	9.2015e-06	9.2099e-06	418.23	139.31	121.15	41.273	9.234e-06	51.985	109.249	174.189	172.816	91.843	258.176	237.991	91.493	96.548	274.485	274.747	95.946	100.455	100.647	105.449	194.607	104.403	-8191	255	
11375.255	1	1	0	0	0.10636	0.12591	0.12734	0.35862	0.053702	0.17662	0.27905	0.19195	0.27898	0.09576	0.38949	0.18911	0.20662	0.14514	0.1518	0.26954	-4.2354	-4.9104	-4.2104	-4.8354	-4.775	-4.2063	-5.0292	-4.5208	-4.4104	-5.0167	-4.3625	-4.6333	-4.7	-4.2917	-4.7812	-4.5813	372.790	177.169	394.355	399.166	320.668	385.618	406.929	347.605	394.811	254.501	327.352	129.552	88.241	78.798	281.964	403.991	0.00091315	0.00051068	0.00022618	1283.4	5.425e-06	7.9341e-06	1298.8	352.59	5.7958e-06	4.2631e-06	407.78	135.39	117.38	39.611	5.0555e-06	49.909	0.00084562	0.0008457	0.00023744	1315	9.1447e-06	9.3e-06	1326.9	362.54	9.2706e-06	9.4074e-06	419.64	139.46	121.34	41.305	9.5182e-06	51.98	110.487	201.111	181.910	91.756	191.917	246.895	91.692	96.403	208.848	239.126	95.879	100.226	100.702	105.330	254.180	104.545	-8191	255	
11375.326	1	1	0	0	0.08245	0.15268	0.14264	0.18388	0.15359	0.023934	0.065837	0.33959	0.35951	0.14222	0.089252	0.064981	0.079041	0.15403	0.067951	0.16418	-3.9875	-4.9479	-4.1438	-4.6833	-4.6771	-4.1562	-4.9521	-4.6333	-4.2562	-4.8313	-4.4104	-4.6646	-4.7	-4.3187	-4.7854	-4.6771	248.398	103.004	325.662	437.895	273.682	255.627	242.569	392.665	266.501	217.776	115.143	430.548	397.707	394.150	229.514	381.649	0.00085584	0.00035375	8.8361e-05	1284.2	3.0271e-06	4.7711e-06	1295.5	354.37	5.6421e-06	2.669e-06	405.89	135.5	116.96	39.459	8.7556e-06	49.706	0.00085504	0.0008624	0.00023961	1315.9	9.316e-06	9.4498e-06	1326.1	363.63	9.516e-06	9.5009e-06	419.52	139.65	121.2	41.334	9.53e-06	51.92	114.145	165.670	175.857	91.769	228.680	225.911	91.790	96.371	200.425	262.592	95.912	100.194	100.727	105.201	216.199	104.596	-8191	255	
11375.422	1	1	0	0	0.16166	0.22236	0.21688	0.14731	0.20596	0.25218	0.29187	0.28819	0.24538	0.24111	0.27906	0.15921	0.25809	0.24213	0.071161	0.038204	-3.9333	-4.9479	-4.4458	-4.7354	-4.625	-4.2812	-4.9062	-4.6687	-4.2271	-4.8542	-4.6292	-4.6	-4.8458	-4.4	-4.7146	-4.7562	170.747	115.628	84.557	333.398	379.738	285.063	409.717	412.164	213.084	207.107	357.210	362.933	419.071	122.636	396.938	285.580	0.00086693	0.00056234	0.00027554	1280.3	7.9373e-06	5.4914e-06	1292.7	352.72	1.3958e-05	6.9771e-06	404.18	135.64	117.7	39.68	6.3552e-06	49.515	0.00084703	0.00087132	0.00023757	1313.4	9.2895e-06	9.4067e-06	1325.7	362.97	9.3593e-06	9.5194e-06	418.47	139.38	121.35	41.373	9.515e-06	51.851	112.898	179.472	199.445	91.644	221.922	224.532	91.617	96.482	194.305	194.676	95.927	100.208	100.766	105.112	181.696	104.528	-8191	255	
11375.519	1	1	0	0	0.13428	0.16483	0.11747	0.03921	0.047511	0.25074	0.10687	0.2278	0.25306	0.13771	0.21945	0.17743	0.15892	0.19802	0.094774	0.23338	-3.7854	-4.7396	-4.3896	-4.7188	-4.9104	-4.2812	-4.8021	-4.9354	-4.0708	-4.7854	-4.5938	-4.4146	-4.9062	-4.4271	-4.5146	-4.6687	427.779	91.355	299.077	416.518	346.629	295.936	425.687	357.408	289.735	384.601	350.880	404.970	376.256	419.971	418.033	339.943	0.00093182	0.00060549	0.00020779	1289.6	4.7618e-06	6.0246e-06	1298	353.74	7.9165e-06	6.7809e-06	406.73	134.86	117.48	40.003	5.0595e-06	49.968	0.00084509	0.00087242	0.00023997	1317.2	9.4558e-06	9.6123e-06	1328.9	363.94	9.5448e-06	9.7677e-06	420.03	139.81	121.68	41.573	9.698e-06	52.101	114.371	162.403	223.314	91.683	234.524	219.340	91.495	96.535	227.199	250.898	95.825	100.450	100.887	105.529	203.789	104.330	-8191	255	
11375.637	1	1	0	0	0.096486	0.13803	0.0074175	0.36193	0.091003	0.22845	0.29843	0.24482	0.13401	0.041771	0.30823	0.35579	0.29102	0.23021	0.10394	0.22377	-3.8625	-4.7708	-4.4979	-4.4437	-4.9437	-4.3875	-4.5083	-4.8417	-4.2354	-4.7458	-4.7667	-4.4083	-4.8583	-4.425	-4.6042	-4.6896	282.182	371.664	368.296	397.819	406.129	108.111	372.043	398.395	410.529	393.954	405.782	127.993	341.458	388.828	389.328	136.903	0.0009045	0.00068738	7.7775e-05	1289.1	5.277e-06	2.4753e-06	1305	352.73	1.038e-05	1.2818e-06	407.28	135.43	117.82	39.739	8.4816e-06	49.807	0.00087031	0.00088645	0.00024303	1320.8	9.483e-06	9.4919e-06	1333.8	363.82	9.4446e-06	9.4966e-06	420.75	139.8	121.6	41.379	9.3632e-06	51.983	113.879	191.026	167.525	91.797	224.828	186.525	91.632	96.384	194.634	433.675	95.941	100.374	100.819	105.464	221.254	104.259	-8191	255	
11375.734	1	1	0	0	0.11273	0.16515	0.16303	0.26893	0.14916	0.046164	0.34262	0.28838	0.051081	0.127	0.082128	0.11352	0.1647	0.25165	0.15459	0.13132	-3.875	-4.7854	-4.6062	-4.4792	-4.7917	-4.55	-4.7812	-4.8208	-4.1646	-4.6396	-4.8708	-4.1417	-4.9	-4.5875	-4.2833	-4.9146	315.795	121.478	372.318	394.836	170.336	248.255	372.078	366.659	418.838	271.178	205.221	295.790	431.681	414.408	190.493	345.394	0.00094688	0.00059355	0.00012717	1281.9	5.1196e-06	5.4336e-06	1299	354.67	8.3288e-06	6.3403e-06	405.6	135.67	117.24	39.576	8.0802e-06	49.891	0.00084193	0.00085828	0.00023787	1314.2	9.2275e-06	9.2899e-06	1329	363.93	9.1536e-06	9.2042e-06	419.3	139.62	121.09	41.288	9.0687e-06	51.911	114.181	149.882	140.816	91.648	227.941	236.129	91.385	96.481	241.859	216.195	95.824	100.211	100.740	105.398	256.236	104.594	-8191	255	
11375.831	1	1	0	0	0.035112	0.11272	0.19955	0.26916	0.09046	0.13978	0.2583	0.18568	0.063185	0.027009	0.057088	0.31789	0.13132	0.24662	0.24651	0.08661	-3.9854	-4.8875	-4.6042	-4.2896	-4.7396	-4.4917	-4.6062	-5.0042	-4.2167	-4.6104	-4.8313	-4.375	-4.8042	-4.5792	-4.2375	-4.8938	197.843	372.302	190.215	383.652	316.808	292.013	403.184	423.143	175.001	165.546	201.517	396.101	90.849	124.302	117.424	329.917	0.00086259	0.00047822	0.00015766	1287.8	7.8716e-06	6.1252e-06	1297.7	353.47	8.0376e-06	8.8799e-06	404.56	135.2	117.65	39.559	7.5057e-06	49.886	0.0008238	0.0008275	0.00023239	1316	9.1753e-06	9.0584e-06	1327.3	363.12	9.0501e-06	9.1053e-06	418.41	139.29	121.48	41.294	9.1187e-06	51.914	109.662	129.207	214.536	91.744	213.724	279.424	91.710	96.460	245.892	245.403	95.923	100.119	100.702	105.413	186.314	104.503	-8191	255	
11375.926	1	1	0	0	0.11587	0.1784	0.23691	0.22726	0.15474	0.044099	0.23158	0.27924	0.098288	0.07681	0.27397	0.21685	0.20981	0.12701	0.16242	0.05297	-3.9958	-4.5271	-4.7875	-4.375	-4.7396	-4.6188	-4.3438	-4.8542	-4.2208	-4.5979	-4.8875	-4.3229	-4.6687	-4.6687	-4.3854	-5.0062	361.967	164.687	427.017	379.581	161.265	152.165	344.836	329.619	358.509	398.858	434.852	333.091	104.275	407.604	345.079	326.681	0.00083729	0.00071781	0.00014068	1280.4	6.0252e-06	2.2682e-06	1298.4	353.43	6.7917e-06	9.9622e-07	406.39	135.41	117.68	39.681	7.2129e-06	49.631	0.00081799	0.00083571	0.0002324	1313	9.1655e-06	9.0372e-06	1327.6	363.2	8.9783e-06	9.1135e-06	419.22	139.51	121.37	41.325	9.085e-06	51.792	117.516	175.293	184.429	91.801	184.996	338.391	91.432	96.279	224.385	104.981	95.641	100.287	100.668	105.340	211.448	104.773	-8191	255	
11376.022	1	1	0	0	0.27993	0.0669	0.14547	0.3273	0.049163	0.18277	0.21983	0.22196	0.10966	0.13829	0.22339	0.074918	0.11544	0.087218	0.11064	0.16165	-4.1625	-4.4396	-4.9167	-4.4271	-4.7	-4.675	-4.4458	-5.025	-4.4021	-4.3771	-4.8333	-4.4042	-4.6333	-4.8792	-4.2104	-4.7021	151.927	369.600	179.092	406.045	206.307	138.310	405.230	79.565	106.143	114.603	287.034	386.985	104.831	124.540	411.727	148.929	0.00081055	0.00038521	0.00017761	1284.4	4.8388e-06	1.1465e-05	1298.4	355.44	6.5734e-06	5.4551e-06	406.97	135.32	117.89	39.577	6.2887e-06	49.794	0.0008202	0.00082923	0.00023271	1316.1	9.0931e-06	9.1086e-06	1327.6	364.28	9.1092e-06	9.1945e-06	419.82	139.47	121.81	41.419	9.2864e-06	51.867	119.083	129.395	176.018	91.781	254.450	280.013	91.529	96.465	161.335	278.701	95.689	100.306	100.975	105.608	228.296	104.571	-8191	255	
11376.118	1	1	0	0	0.071917	0.22954	0.066546	0.30481	0.17383	0.20484	0.22964	0.24749	0.10875	0.12412	0.24747	0.16497	0.047309	0.1202	0.046754	0.31594	-4.2375	-4.375	-4.8812	-4.4396	-4.4458	-4.8938	-4.4229	-4.8125	-4.3958	-4.3729	-4.8313	-4.3583	-4.5521	-4.9458	-4.3208	-4.8979	96.679	302.582	269.482	78.902	182.364	383.321	351.239	360.576	107.532	322.576	359.031	339.152	88.780	287.484	183.713	196.835	0.0008619	0.00025422	0.00010949	1284.7	7.5345e-06	7.614e-06	1303.7	354.04	6.2897e-06	6.3899e-06	407.8	135.28	117.56	39.895	5.6934e-06	49.794	0.00083566	0.00084978	0.00023624	1317.5	9.2419e-06	9.332e-06	1330.9	364.17	9.2536e-06	9.2055e-06	420.5	139.75	121.65	41.474	9.2773e-06	52.022	107.110	132.374	216.765	91.779	235.719	221.107	91.727	96.311	226.608	221.559	96.052	100.241	100.574	105.379	242.500	104.225	-8191	255	
11376.239	1	1	0	0	0.28163	0.01161	0.031428	0.11601	0.082994	0.20463	0.2471	0.089575	0.10039	0.16515	0.33442	0.28862	0.11722	0.079541	0.033533	0.045126	-4.3792	-4.1188	-4.9083	-4.6312	-4.4688	-4.9	-4.3167	-4.9646	-4.6958	-4.2583	-4.9229	-4.3896	-4.4688	-4.9938	-4.1792	-4.7167	410.229	239.644	131.986	86.401	164.204	437.285	145.775	358.552	237.460	356.315	353.629	100.896	327.932	337.764	329.404	413.712	0.00093131	0.00051081	0.00026425	1287.2	9.3085e-06	7.153e-06	1301.9	355.67	1.0441e-05	5.298e-06	405.33	135.85	117.63	39.881	2.2566e-06	49.848	0.00083849	0.0008427	0.00023586	1318.2	9.2895e-06	9.2901e-06	1330.3	364.41	9.0942e-06	9.2357e-06	420.09	139.88	121.75	41.532	9.1649e-06	52.004	110.078	198.845	146.950	91.748	232.498	239.823	91.465	96.411	193.893	221.456	95.793	100.143	100.686	105.293	265.122	104.352	-8191	255	
11376.335	1	1	0	0	0.12728	0.19056	0.19374	0.25415	0.10439	0.094421	0.08834	0.2181	0.07941	0.052167	0.098955	0.14904	0.13468	0.29878	0.21241	0.2313	-4.3375	-4.3042	-4.7521	-4.7375	-4.4271	-4.9542	-4.4187	-4.6125	-4.6375	-4.2688	-4.8313	-4.5792	-4.3938	-5.0375	-4.1813	-4.5542	269.888	329.275	296.325	400.437	209.987	349.189	93.068	354.366	340.722	392.348	339.006	377.844	329.993	119.937	184.941	413.475	0.0009265	0.00034024	0.0003055	1282.3	7.6563e-06	3.9736e-06	1298	354.74	6.5694e-06	4.6587e-06	405.72	135.62	117.53	39.903	8.1608e-06	49.803	0.00084174	0.00083993	0.0002369	1315.6	9.2656e-06	9.3269e-06	1329.4	364.67	9.1226e-06	9.2188e-06	419.69	139.66	121.53	41.481	9.1664e-06	51.875	112.461	161.299	190.897	91.768	181.562	206.903	91.475	96.303	236.652	266.662	95.957	100.272	100.819	105.260	201.032	104.477	-8191	255	
11376.431	1	1	0	0	0.0091414	0.22729	0.12994	0.22212	0.1009	0.26531	0.22477	0.28388	0.10906	0.029011	0.10106	0.2507	0.31394	0.081127	0.10167	0.055822	-4.4854	-4.2083	-4.7583	-4.8417	-4.2854	-5.0312	-4.4208	-4.7208	-4.8875	-4.1729	-4.7063	-4.7854	-4.3354	-5.0333	-4.4167	-4.5833	93.935	310.823	382.358	379.461	397.610	79.887	400.129	425.593	437.321	265.016	150.315	424.526	125.964	380.505	312.364	184.167	0.00088866	0.00019748	0.00020186	1285.4	6.4112e-06	3.7036e-06	1299.7	354.82	2.8313e-06	5.5907e-06	406.3	135.12	117.96	39.712	7.4197e-06	49.758	0.0008209	0.00083211	0.00023142	1315.3	9.0306e-06	9.1048e-06	1327	364.1	8.9742e-06	9.0195e-06	419.08	139.5	121.5	41.403	8.917e-06	51.875	115.026	191.041	190.317	91.765	220.311	227.625	91.573	96.489	204.902	222.628	95.826	100.216	100.797	105.503	221.726	104.576	-8191	255	
11376.552	1	1	0	0	0.18765	0.054867	0.24266	0.22682	0.10329	0.29095	0.26445	0.31838	0.022726	0.22984	0.1325	0.03218	0.20298	0.14248	0.11388	0.21964	-4.4833	-4.2604	-4.7479	-4.9083	-4.3021	-4.975	-4.9292	-4.7333	-4.9104	-4.3833	-4.7208	-4.8292	-4.3146	-4.9271	-4.4625	-4.4604	345.203	359.797	296.847	389.739	399.065	138.639	420.647	337.417	405.790	151.594	344.502	82.715	92.485	381.385	436.479	349.608	0.00083865	0.00054148	0.00021131	1283.1	7.4644e-06	7.9559e-06	1296.6	354.46	8.7288e-06	5.4452e-06	407.12	135.26	117.19	39.709	6.969e-06	49.827	0.00081678	0.00081451	0.00022868	1313.7	8.8912e-06	8.9353e-06	1325.4	363.53	8.8031e-06	8.807e-06	419.54	139.33	121.24	41.333	8.6279e-06	51.917	120.172	210.945	115.512	91.732	214.251	225.031	91.677	96.425	232.647	254.611	95.704	100.163	100.696	105.481	237.534	104.418	-8191	255	
11376.623	1	1	0	0	0.092295	0.075769	0.046831	0.2198	0.17657	0.089285	0.14401	0.098333	0.28252	0.062144	0.4216	0.15011	0.023314	0.07726	0.18305	0.16353	-4.5708	-4.4917	-4.6604	-4.9437	-4.2042	-4.7417	-4.8667	-4.4875	-4.8146	-4.3042	-4.6042	-4.8042	-4.3458	-4.7021	-4.55	-4.3354	267.811	219.942	103.424	419.460	228.615	286.976	411.838	421.501	348.479	205.244	437.074	249.359	363.795	376.959	97.067	85.643	0.00088902	0.00041959	0.00014965	1283.9	6.6995e-06	9.8864e-06	1298.4	354.14	6.8306e-06	4.1601e-06	407.81	135.26	117.27	39.697	8.9187e-06	50.024	0.00079717	0.00079867	0.0002244	1312.8	8.6626e-06	8.7817e-06	1325.2	363.37	8.595e-06	8.681e-06	419.12	139.05	121.05	41.303	8.517e-06	51.879	110.647	176.732	227.195	91.807	212.875	226.626	91.629	96.093	223.016	288.794	95.810	100.102	100.870	105.460	190.133	104.405	-8191	255	
11376.718	1	1	0	0	0.09437	0.18589	0.084892	0.045667	0.048159	0.14497	0.20796	0.26425	0.082617	0.32813	0.063419	0.244	0.060009	0.11971	0.049585	0.13737	-4.3542	-4.375	-4.4646	-5.0062	-4.1917	-4.7479	-4.9	-4.3792	-4.9167	-4.4042	-4.3979	-4.9688	-4.2729	-4.675	-4.6792	-4.3292	156.618	375.977	157.246	226.100	274.763	118.679	337.178	415.941	239.597	333.730	159.199	362.531	412.409	405.057	287.294	398.871	0.00094152	0.00011843	0.00012756	1285.7	2.206e-06	2.9648e-06	1297	355.03	9.2582e-06	7.593e-06	407.56	135.43	117.31	39.818	6.0194e-06	49.825	0.00079773	0.00078333	0.00021989	1313.3	8.5469e-06	8.6379e-06	1325.4	363.39	8.5463e-06	8.5145e-06	419.26	139.29	121.12	41.42	8.6357e-06	51.751	108.583	95.932	144.710	91.840	258.783	239.910	91.659	96.345	198.256	203.866	95.759	99.877	100.690	105.242	203.573	104.475	-8191	255	
11376.814	1	1	0	0	0.081186	0.05931	0.16155	0.27843	0.20542	0.3036	0.064914	0.23293	0.11801	0.092997	0.17327	0.070802	0.14955	0.1689	0.093605	0.29172	-4.5521	-4.2958	-4.2396	-5.1479	-4.2063	-4.6708	-4.8417	-4.2667	-4.85	-4.5479	-4.3708	-4.8458	-4.3125	-4.6083	-4.6833	-4.2208	283.704	312.482	266.243	416.895	237.954	197.918	385.896	332.696	176.869	358.249	338.351	358.829	286.956	91.546	333.922	366.655	0.00090543	0.00054693	0.00018583	1283.9	6.4391e-06	3.366e-06	1298.3	354.13	7.6574e-06	3.0907e-06	407.47	135.37	117.42	39.798	9.2671e-06	49.891	0.00077743	0.00077975	0.00021895	1314	8.4597e-06	8.5494e-06	1326.1	363.59	8.5959e-06	8.464e-06	419.62	139.49	121.14	41.406	8.4108e-06	51.853	108.346	187.315	191.565	91.763	207.788	289.170	91.383	96.369	227.331	230.274	95.840	100.390	100.698	105.280	205.983	104.583	-8191	255	
11376.935	1	1	0	0	0.068994	0.19033	0.13812	0.33263	0.10573	0.1035	0.16728	0.037305	0.15117	0.088594	0.1958	0.016762	0.055393	0.16934	0.13796	0.14298	-4.4396	-4.6354	-4.3271	-5.0875	-4.3458	-4.4688	-5.1375	-4.3292	-4.7312	-4.7104	-4.2521	-4.9437	-4.4021	-4.5563	-4.7479	-4.2271	333.250	337.682	323.153	405.915	329.969	213.296	429.847	435.356	283.050	138.005	97.541	113.074	360.426	327.877	334.917	110.083	0.00091204	0.00044829	0.00022083	1283.2	2.1498e-06	8.4876e-07	1299.2	354.85	5.1927e-06	8.4011e-06	407.41	135.73	117.73	39.867	5.2968e-06	49.947	0.00077769	0.00077434	0.00021508	1313.9	8.4633e-06	8.5738e-06	1326.5	363.89	8.5125e-06	8.4167e-06	419.63	139.5	121.28	41.432	8.5232e-06	51.862	113.840	132.204	128.784	91.598	190.235	120.420	91.432	96.482	193.587	261.752	95.654	100.475	100.683	105.527	241.143	104.589	-8191	255	
11377.031	1	1	0	0	0.15377	0.12928	0.26401	0.062654	0.36952	0.058815	0.1579	0.012706	0.11987	0.16136	0.19938	0.16502	0.11923	0.23892	0.12302	0.27154	-4.4	-4.6354	-4.0729	-4.9896	-4.3104	-4.3729	-4.8417	-4.2729	-4.6583	-4.6458	-4.2854	-4.8938	-4.4896	-4.3917	-4.8146	-4.3333	232.168	323.782	103.024	154.707	437.695	242.799	356.995	295.585	192.527	137.927	108.743	367.190	98.265	296.083	111.545	397.601	0.00085397	0.00034954	0.00013448	1282.3	6.722e-06	2.5315e-06	1295.6	354.66	8.2468e-06	3.3949e-06	408.79	135.74	117.6	39.853	9.8443e-06	49.928	0.00078492	0.00077301	0.00021809	1312.9	8.4331e-06	8.4606e-06	1325.3	363.62	8.5337e-06	8.4879e-06	420.2	139.76	121.35	41.456	8.5808e-06	51.825	107.492	179.321	212.885	91.628	187.299	264.955	91.405	96.459	205.932	231.431	95.870	100.058	100.525	105.482	208.149	104.235	-8191	255	
11377.125	1	1	0	0	0.22193	0.21748	0.24265	0.20962	0.085124	0.052457	0.11606	0.19953	0.13714	0.14817	0.14331	0.27699	0.1995	0.10533	0.11934	0.098704	-4.2917	-4.6146	-4.1937	-4.8333	-4.4583	-4.3375	-4.8625	-4.5437	-4.6271	-4.7875	-4.2292	-4.7396	-4.4583	-4.3417	-4.6729	-4.3417	389.309	319.538	115.312	385.297	243.843	84.391	385.825	334.984	397.187	413.745	104.720	83.464	411.978	356.445	400.582	252.325	0.00094419	0.00034252	0.00011398	1284.1	2.6762e-06	7.6539e-06	1296.6	354.89	7.5364e-06	5.9239e-06	408.06	135.38	117.73	39.705	4.5436e-06	49.846	0.00078334	0.00077736	0.00021661	1314.5	8.4096e-06	8.5338e-06	1327.1	363.77	8.5479e-06	8.441e-06	419.32	139.52	121.34	41.445	8.5107e-06	51.91	110.318	160.031	153.468	91.730	204.056	272.352	91.484	96.358	238.025	312.526	95.727	100.173	100.942	105.419	218.396	104.334	-8191	255	
11377.199	1	1	0	0	0.030302	0.0058922	0.038328	0.37574	0.068585	0.2925	0.23299	0.13831	0.14647	0.020332	0.20033	0.15415	0.19984	0.033714	0.11952	0.13029	-4.2688	-4.9187	-4.2458	-4.9792	-4.6229	-4.2812	-4.9229	-4.4938	-4.5396	-5.0042	-4.4146	-4.6917	-4.7479	-4.2875	-4.9146	-4.5625	412.289	180.041	249.780	380.660	310.044	230.993	122.732	320.151	339.828	237.140	389.901	207.567	135.481	324.103	228.020	290.379	0.0009185	0.00032815	0.00010877	1285.9	4.1895e-06	3.3441e-06	1297.6	354.12	6.3539e-06	6.041e-06	405.65	135.89	117.37	39.67	6.0847e-06	49.752	0.00077885	0.00077704	0.00021513	1314.6	8.4819e-06	8.5479e-06	1326.4	363.23	8.475e-06	8.5142e-06	418.54	139.64	121.12	41.328	8.4536e-06	51.788	115.523	180.552	148.573	91.864	227.198	244.259	91.650	96.422	192.234	221.527	95.913	100.348	100.734	105.326	217.415	104.461	-8191	255	
11377.317	1	1	0	0	0.21688	0.1537	0.037522	0.31287	0.17954	0.028627	0.020107	0.2386	0.20677	0.1234	0.32929	0.25173	0.080162	0.071408	0.035642	0.42166	-4.1146	-4.7479	-4.2063	-4.9313	-4.6125	-4.2083	-4.9396	-4.5417	-4.4021	-4.9458	-4.3875	-4.5563	-4.7125	-4.4083	-4.7792	-4.6583	96.186	182.336	233.944	413.159	375.144	132.706	240.031	414.396	278.253	291.064	78.803	377.699	168.620	121.736	79.776	351.651	0.00091976	0.0002417	0.00011937	1281.1	2.6659e-06	6.2004e-06	1297.4	353.87	9.427e-06	5.7434e-06	406.31	135.49	117.94	39.86	1.3053e-06	49.736	0.00077123	0.00077547	0.00021362	1312.4	8.4114e-06	8.4546e-06	1326.8	363.17	8.4467e-06	8.5964e-06	418.62	139.38	121.36	41.431	8.4073e-06	51.801	115.482	143.070	189.600	91.790	248.248	230.468	91.601	96.263	208.089	174.770	95.863	100.072	100.804	105.348	80.366	104.412	-8191	255	
11377.414	1	1	0	0	0.19482	0.068763	0.19408	0.10917	0.14395	0.095146	0.29334	0.07122	0.13882	0.055103	0.032325	0.27942	0.079846	0.24275	0.10864	0.15293	-4.1	-4.8438	-4.2083	-4.8083	-4.7438	-4.2312	-4.925	-4.7354	-4.3042	-4.8646	-4.4583	-4.5667	-4.8562	-4.3292	-4.7042	-4.5979	302.331	423.823	164.815	436.272	318.731	425.734	385.740	297.383	293.769	81.371	319.708	329.257	366.501	327.390	84.129	161.690	0.00085489	0.00071718	0.00015202	1283.2	7.4921e-06	4.424e-06	1293.2	353.91	1.1508e-05	8.2424e-06	405.55	136.1	117.7	39.798	5.8973e-06	49.819	0.00078179	0.00077494	0.00021362	1312.7	8.4602e-06	8.4243e-06	1324.2	363.12	8.5078e-06	8.5086e-06	418.92	139.58	121.24	41.352	8.5475e-06	51.789	111.691	146.627	149.527	91.731	235.732	240.272	91.499	96.253	189.201	215.003	95.763	99.997	100.930	105.475	230.780	104.472	-8191	255	
11377.510	1	1	0	0	0.11577	0.035072	0.342	0.21355	0.11331	0.25133	0.1725	0.091343	0.10801	0.067137	0.1292	0.18251	0.14907	0.39346	0.21857	0.011323	-3.9375	-4.9229	-4.3021	-4.5792	-4.8417	-4.2625	-4.7833	-4.6062	-4.2396	-4.7875	-4.6104	-4.4187	-4.8583	-4.3146	-4.575	-4.775	321.803	224.239	85.861	406.348	289.889	120.493	365.238	431.685	254.238	226.282	315.247	417.843	261.565	436.027	364.948	83.076	0.00083518	0.00021041	0.00010074	1280.2	7.7147e-06	7.0383e-06	1296.1	354.07	4.0653e-06	3.9447e-06	406.46	135.2	117.31	39.834	8.2032e-06	49.836	0.00076965	0.00076442	0.00021127	1311.6	8.3883e-06	8.4355e-06	1324.3	363.33	8.3978e-06	8.5059e-06	418.81	139.12	121.1	41.389	8.3534e-06	51.784	114.261	112.860	231.615	91.710	187.651	239.787	91.527	96.398	195.438	278.287	95.643	100.226	100.694	105.221	208.829	104.418	-8191	255	
11377.630	1	1	0	0	0.10923	0.12828	0.17075	0.054115	0.018318	0.076806	0.10197	0.34413	0.34437	0.10022	0.16682	0.04246	0.061955	0.2224	0.079083	0.13319	-3.9104	-4.8792	-4.3604	-4.6458	-4.8729	-4.3021	-4.8021	-4.975	-4.2208	-4.7125	-4.7625	-4.4646	-4.75	-4.5583	-4.5687	-4.9396	279.651	208.890	142.264	157.949	168.711	294.792	347.998	385.166	256.941	401.291	106.001	347.938	283.522	340.190	362.846	112.779	0.00081725	0.0006436	0.00015594	1284.2	5.8656e-06	4.1431e-06	1297.3	354	4.2291e-06	8.1431e-06	406.2	135.06	117.23	39.712	5.5923e-06	49.737	0.00076738	0.0007711	0.00021389	1313.6	8.3279e-06	8.3445e-06	1324.4	363.47	8.332e-06	8.4568e-06	418.68	139.3	121.03	41.342	8.431e-06	51.764	115.246	144.755	157.672	91.703	219.970	250.846	91.471	96.221	237.936	228.936	95.913	100.477	100.853	105.602	245.480	104.540	-8191	255	
11377.726	1	1	0	0	0.072097	0.1153	0.054989	0.33906	0.065667	0.090265	0.010472	0.10328	0.05653	0.042522	0.23967	0.1078	0.090388	0.13614	0.1578	0.33431	-3.8958	-4.6312	-4.5125	-4.2708	-4.7562	-4.6062	-4.7667	-4.8292	-4.2417	-4.8292	-4.7063	-4.3167	-4.8333	-4.425	-4.3917	-5.1042	136.598	373.735	182.568	380.011	215.926	189.190	186.525	353.454	122.663	317.101	323.917	272.164	216.188	401.588	280.535	91.073	0.0008825	0.00032811	4.3638e-05	1286.7	5.6502e-06	7.3064e-06	1294.8	353.51	1.2022e-05	4.5798e-06	405.24	135.9	116.98	39.801	6.0554e-06	49.584	0.00076739	0.00077011	0.00021231	1314.1	8.2776e-06	8.342e-06	1324.2	362.98	8.2051e-06	8.392e-06	418.8	139.52	121.05	41.418	8.1987e-06	51.717	114.328	219.849	172.124	91.708	232.400	268.498	91.404	96.296	220.667	216.347	95.717	100.306	100.743	105.536	189.616	104.427	-8191	255	
11377.798	1	1	0	0	0.12517	0.16186	0.15735	0.28492	0.20679	0.35103	0.18985	0.089073	0.093925	0.27757	0.094604	0.32264	0.13948	0.18681	0.13082	0.12924	-3.8958	-4.5708	-4.7792	-4.4354	-4.8083	-4.45	-4.5146	-5	-4.2812	-4.725	-4.8313	-4.4333	-4.925	-4.6417	-4.3438	-4.9625	413.171	82.151	123.132	387.101	261.507	306.283	408.836	86.496	404.304	416.604	295.403	380.697	364.445	392.685	308.263	423.670	0.00091536	0.00054383	0.00014841	1283.1	5.045e-06	6.5089e-06	1291.1	353.82	1.0159e-05	3.0951e-06	405.94	135.44	117.45	39.668	5.3054e-06	49.628	0.00074693	0.00075554	0.00020709	1311.4	8.2237e-06	8.1846e-06	1323.6	363.01	8.1506e-06	8.1875e-06	418.24	139.39	121.25	41.333	8.2359e-06	51.744	112.607	197.988	163.547	91.765	228.019	257.999	91.671	96.343	201.621	201.174	95.938	100.369	100.715	105.612	201.232	104.396	-8191	255	
11377.919	1	1	0	0	0.26689	0.038816	0.075761	0.082227	0.14385	0.12543	0.26249	0.33612	0.071432	0.066778	0.052715	0.18661	0.20001	0.076595	0.041584	0.018603	-3.7854	-4.575	-4.6417	-4.4187	-4.6792	-4.5396	-4.4417	-4.9854	-4.3208	-4.4875	-4.7875	-4.3896	-4.9187	-4.7771	-4.3417	-4.9292	153.827	290.977	383.182	304.675	165.256	222.716	381.841	351.131	294.332	312.643	381.950	118.244	373.628	366.788	265.863	244.204	0.0008923	0.00058733	3.3771e-05	1277.8	5.0032e-06	3.3563e-06	1292.4	354.06	6.5779e-06	2.0421e-06	405.93	135.06	116.97	39.778	5.0122e-06	49.566	0.00075386	0.00075412	0.00021094	1311.8	8.311e-06	8.2724e-06	1323	362.9	8.2274e-06	8.2712e-06	418.85	139.3	121.18	41.364	8.2485e-06	51.704	110.344	189.273	110.327	91.636	207.203	131.402	91.558	96.298	180.704	211.431	95.719	100.179	100.746	105.282	190.206	104.409	-8191	255	
11378.015	1	1	0	0	0.22391	0.12948	0.075376	0.1267	0.29365	0.1417	0.10559	0.17298	0.18358	0.071635	0.08473	0.025939	0.094131	0.24897	0.027103	0.14157	-4.1333	-4.4375	-4.7125	-4.3	-4.5563	-4.6771	-4.4812	-4.9667	-4.4125	-4.475	-5.0625	-4.3229	-4.7708	-4.8042	-4.2542	-4.9187	355.948	163.786	123.046	325.811	214.693	385.289	314.641	341.878	119.501	292.974	225.749	133.239	101.058	336.733	96.873	279.570	0.00084401	0.0002993	6.7706e-05	1285.2	4.5141e-06	1.9653e-06	1296.7	353.47	6.8094e-06	7.8773e-06	406.2	135.93	117.51	39.767	5.8756e-06	50.038	0.00075975	0.00075359	0.00021133	1312.6	8.2906e-06	8.3563e-06	1325.9	363.23	8.2171e-06	8.2898e-06	418.91	139.39	121.13	41.355	8.1945e-06	51.881	109.189	119.106	334.687	91.638	234.507	231.133	91.616	96.474	194.234	265.936	95.828	100.282	100.774	105.262	198.241	104.368	-8191	255	
11378.111	1	1	0	0	0.17666	0.096395	0.21876	0.26586	0.19658	0.12076	0.022505	0.21975	0.17224	0.11536	0.08345	0.16503	0.14142	0.25435	0.2097	0.10539	-4.1375	-4.3667	-4.8542	-4.4375	-4.5229	-4.7458	-4.4146	-5.0542	-4.6229	-4.4479	-5.0104	-4.1854	-4.6625	-4.8688	-4.15	-4.7875	416.734	304.296	100.494	399.956	88.243	304.912	266.508	379.452	309.629	369.993	178.143	429.271	343.586	333.126	327.174	245.235	0.0009132	0.00046504	0.00011011	1281.7	5.1629e-06	6.0764e-06	1293.2	353.72	7.8988e-06	5.1437e-06	405.04	135.57	117.57	39.763	4.6175e-06	49.635	0.00074338	0.00075791	0.0002075	1312.5	8.1662e-06	8.1545e-06	1323.9	362.86	8.1083e-06	8.1925e-06	417.37	139.28	121.17	41.307	8.1252e-06	51.683	111.153	171.456	199.123	91.668	212.923	187.438	91.710	96.346	194.148	254.808	95.716	100.013	100.677	105.511	208.405	104.477	-8191	255	
11378.230	1	1	0	0	0.15106	0.028805	0.13632	0.07361	0.14284	0.10609	0.34417	0.23658	0.1404	0.22944	0.13421	0.14293	0.11125	0.05928	0.16174	0.15732	-4.2542	-4.3812	-4.6937	-4.3458	-4.5729	-4.8167	-4.3792	-4.9333	-4.5792	-4.3292	-4.8333	-4.3875	-4.5333	-4.9271	-4.2042	-4.7979	417.512	429.791	116.351	410.171	251.085	354.737	437.909	343.419	197.506	130.232	399.390	331.546	306.680	359.034	323.740	382.173	0.00087773	0.00064584	0.00014135	1280.3	5.0551e-06	4.119e-06	1297.8	354.2	1.4285e-05	5.5515e-06	407.34	134.97	117.44	39.609	5.2991e-06	49.878	0.00075353	0.00074565	0.00020956	1312.1	8.2286e-06	8.1948e-06	1324.2	362.79	8.2317e-06	8.2411e-06	418.81	139.2	121.16	41.348	8.1397e-06	51.839	113.730	191.054	179.955	91.772	222.810	232.222	91.578	96.283	242.173	200.295	95.520	100.136	100.896	105.526	212.055	104.390	-8191	255	
11378.326	1	1	0	0	0.17933	0.26274	0.022474	0.20859	0.30866	0.24964	0.30668	0.18182	0.18859	0.21099	0.14192	0.23764	0.088678	0.20827	0.15582	0.17623	-4.3	-4.2646	-4.7104	-4.7833	-4.4604	-4.8604	-4.6188	-4.8146	-4.675	-4.2479	-5.0542	-4.8375	-4.4479	-4.9542	-4.2937	-4.5021	249.960	112.960	180.680	341.507	272.922	380.525	359.000	404.735	280.983	281.402	81.669	429.613	112.271	416.493	153.060	314.909	0.00089781	0.00041429	0.00024498	1279.9	7.0735e-06	7.536e-06	1294.5	353	6.8739e-06	4.2944e-06	407.31	135.3	117.25	39.736	1.4628e-06	49.748	0.00074738	0.00074571	0.00020864	1310.6	8.1891e-06	8.2288e-06	1323	362.68	8.0854e-06	8.023e-06	418.49	139.32	120.92	41.368	8.1114e-06	51.759	116.163	200.844	185.906	91.612	253.905	208.618	91.708	96.308	208.546	227.927	95.734	100.345	100.809	105.430	238.327	104.142	-8191	255	
11378.422	1	1	0	0	0.21043	0.24649	0.080633	0.2532	0.15976	0.20465	0.45795	0.18591	0.20217	0.19944	0.12691	0.12791	0.10719	0.061828	0.11272	0.089877	-4.6396	-4.2292	-4.6562	-4.4958	-4.3833	-4.9479	-4.5687	-4.7354	-4.7958	-4.3125	-4.9708	-4.5896	-4.2479	-4.9812	-4.225	-4.4812	201.621	168.645	190.529	378.134	428.571	330.254	380.397	96.969	256.786	92.163	342.584	154.792	218.021	318.372	131.200	356.582	0.0008348	0.00039483	0.00011497	1282	6.9421e-06	7.9314e-06	1290.4	353.35	1.3109e-05	5.1932e-06	406.06	135.2	117.26	39.884	1.5602e-06	49.877	0.00073718	0.00073592	0.00020725	1312.6	8.0679e-06	8.1522e-06	1322.8	363.07	8.1579e-06	8.2105e-06	418.69	139.23	121.04	41.425	8.2209e-06	51.807	116.066	159.883	201.503	91.710	264.845	259.213	91.390	96.379	213.135	218.619	95.801	100.354	100.661	105.332	252.083	104.571	-8191	255	
11378.494	1	1	0	0	0.17404	0.1476	0.14359	0.29066	0.19076	0.075236	0.27228	0.20044	0.13818	0.045224	0.095598	0.16258	0.11382	0.21554	0.11106	0.18434	-4.3688	-4.2688	-4.5625	-4.8146	-4.1667	-4.9646	-4.5813	-4.6292	-4.8063	-4.2292	-4.7458	-4.6729	-4.3167	-4.8313	-4.4708	-4.4792	111.710	367.497	270.487	406.016	380.918	389.794	349.623	83.365	285.994	101.739	396.059	126.827	370.317	128.777	359.078	87.767	0.00081866	0.00075709	0.00018633	1280.5	6.5031e-06	8.0609e-06	1291.4	352.87	6.6078e-06	8.2838e-06	406.51	135.73	117.25	39.67	5.3772e-06	49.805	0.00075877	0.00075887	0.00021265	1311.1	8.2188e-06	8.3177e-06	1325	363.03	8.337e-06	8.2357e-06	418.76	139.62	121.32	41.386	8.2835e-06	51.843	112.091	188.062	145.270	91.618	190.232	236.466	91.342	96.379	231.362	277.223	95.872	100.157	100.515	105.548	240.021	104.429	-8191	255	
11378.615	1	1	0	0	0.12516	0.14667	0.14466	0.194	0.21543	0.083041	0.11183	0.073149	0.24898	0.14476	0.21406	0.096196	0.085078	0.14679	0.106	0.26163	-4.6312	-4.3313	-4.6958	-4.8292	-4.3583	-4.8396	-4.7167	-4.5042	-4.9812	-4.4771	-4.7063	-4.9125	-4.1875	-4.9375	-4.5146	-4.3146	127.443	349.508	307.658	400.526	92.741	122.626	383.715	326.226	262.928	249.879	385.899	409.614	382.268	124.758	262.007	390.164	0.00090463	0.00058662	0.00014064	1275.3	6.5464e-06	3.304e-06	1295.7	352.31	7.1315e-06	7.5037e-06	404.37	135.47	117.32	39.604	4.1412e-06	49.856	0.00075653	0.00076517	0.00021276	1311.2	8.2029e-06	8.3047e-06	1325.4	362.6	8.2967e-06	8.2447e-06	418.65	139.31	121.24	41.36	8.329e-06	51.819	112.483	179.910	146.135	91.763	191.668	190.999	91.498	96.532	192.386	239.322	95.874	100.270	100.939	105.396	257.518	104.445	-8191	255	
11378.711	1	1	0	0	0.19729	0.030822	0.036123	0.34687	0.24041	0.16895	0.51435	0.18721	0.15124	0.1673	0.1161	0.19176	0.12982	0.11474	0.12707	0.2166	-4.6542	-4.4062	-4.5646	-4.9083	-4.2937	-4.6813	-4.6958	-4.4938	-4.8729	-4.4729	-4.5604	-4.9125	-4.2917	-4.8562	-4.675	-4.3688	116.558	306.164	367.229	389.816	317.670	407.265	381.987	429.465	349.432	385.540	125.304	136.924	322.810	431.132	127.624	326.309	0.00075721	0.00056614	0.00011811	1277.1	5.2374e-06	3.6523e-06	1297.8	354.11	7.896e-06	3.5549e-06	404.39	135.24	117.9	39.612	5.4971e-06	49.539	0.00076449	0.00075448	0.00021346	1313.4	8.2861e-06	8.3892e-06	1326.2	363.62	8.3944e-06	8.3587e-06	418.87	139.56	121.32	41.378	8.3752e-06	51.807	110.637	166.524	218.195	91.690	209.063	202.501	91.562	96.334	215.660	250.161	95.790	100.016	100.789	105.397	248.240	104.429	-8191	255	
11378.807	1	1	0	0	0.14529	0.09061	0.023726	0.12122	0.13889	0.29168	0.19435	0.083094	0.059571	0.2211	0.16252	0.1322	0.20669	0.10526	0.066725	0.21831	-4.6104	-4.3229	-4.5646	-4.8958	-4.2917	-4.7937	-4.9646	-4.3667	-4.8042	-4.6021	-4.5771	-5.0854	-4.4271	-4.7104	-4.6667	-4.2667	377.692	268.675	340.897	381.013	174.685	230.132	411.362	360.613	308.783	381.109	423.898	127.819	88.650	92.730	389.039	435.931	0.00084435	0.00028604	0.00016009	1280.9	6.6481e-06	4.0694e-06	1293.4	353.38	7.3858e-06	6.7459e-06	406.15	135.5	117.29	39.712	7.8918e-06	49.697	0.00077802	0.00076755	0.00021506	1314.1	8.392e-06	8.5136e-06	1327.2	363.34	8.5255e-06	8.4425e-06	419.22	139.44	121.22	41.423	8.3617e-06	51.829	111.387	100.811	182.986	91.724	226.682	200.031	91.449	96.281	212.093	180.568	96.097	99.874	101.072	105.418	209.876	104.514	-8191	255	
11378.903	1	1	0	0	0.16579	0.13226	0.033456	0.21579	0.31925	0.067377	0.056532	0.13255	0.099534	0.15611	0.26363	0.13988	0.10255	0.12772	0.20556	0.077895	-4.3417	-4.4667	-4.2833	-5.1083	-4.4062	-4.6229	-4.8604	-4.4187	-4.7042	-4.6604	-4.5437	-4.9625	-4.3417	-4.6604	-4.8146	-4.2625	173.181	137.881	288.893	378.592	410.603	95.933	366.199	358.830	285.201	204.494	363.025	415.439	178.618	437.427	109.064	399.587	0.00085233	0.00032175	0.00010452	1280.4	8.3902e-06	5.1274e-06	1290.7	353.43	9.8523e-06	2.6676e-06	404.88	135.03	117.04	39.703	1.0974e-05	49.567	0.00077397	0.0007614	0.00021236	1313.5	8.304e-06	8.4056e-06	1324.9	363.31	8.3455e-06	8.3423e-06	418.89	139.28	121.18	41.432	8.3034e-06	51.78	111.781	182.945	132.262	91.556	212.043	271.159	91.416	96.298	197.801	279.366	95.851	100.252	100.946	105.540	204.368	104.420	-8191	255	
11379.022	1	1	0	0	0.17774	0.13089	0.24161	0.26236	0.089194	0.32296	0.17299	0.23077	0.10947	0.23549	0.036224	0.056762	0.19693	0.16953	0.065873	0.1363	-4.3354	-4.5625	-4.1917	-5.1125	-4.4979	-4.4833	-4.8729	-4.6438	-4.8688	-4.6625	-4.4396	-4.8417	-4.6417	-4.4875	-4.8688	-4.3333	279.350	310.695	275.104	382.820	140.420	331.885	292.149	303.849	342.956	197.926	93.897	372.282	103.404	388.415	176.147	420.176	0.00084256	0.00049638	0.00013847	1278	7.8181e-06	5.1877e-06	1289.1	351.61	7.9894e-06	5.6214e-06	404.19	134.04	116.69	39.451	7.6416e-06	49.585	0.00077341	0.00075879	0.00021218	1312.5	8.3457e-06	8.3589e-06	1325.4	362.79	8.3389e-06	8.2947e-06	418.65	139.23	121.03	41.351	8.3498e-06	51.816	116.983	154.574	223.997	91.558	216.055	182.490	91.334	96.322	216.284	274.837	95.840	100.107	100.437	105.133	236.919	104.137	-8191	255	
11379.095	1	1	0	0	0.13992	0.087839	0.11945	0.3191	0.16401	0.12925	0.21867	0.20504	0.16684	0.086048	0.23434	0.23966	0.049209	0.23928	0.18922	0.18077	-4.3292	-4.7271	-4.3271	-4.9625	-4.5813	-4.4271	-5.2042	-4.5229	-4.5896	-4.8229	-4.2979	-5.0271	-4.4708	-4.5062	-4.8792	-4.4833	89.306	358.356	276.001	390.714	422.718	339.351	333.214	346.880	310.466	372.670	337.753	365.288	295.604	365.856	251.756	413.137	0.00082786	0.00065738	0.00011783	1271.3	2.6467e-06	5.6781e-06	1286.6	352.73	1.0153e-05	5.5614e-06	404.82	134.88	116.96	39.706	8.1448e-06	49.783	0.00076642	0.00076212	0.00021133	1310.2	8.2702e-06	8.4665e-06	1323.9	363.63	8.4597e-06	8.3797e-06	419.68	139.8	121.24	41.53	8.4123e-06	51.943	113.954	161.889	217.033	91.502	242.412	221.366	91.360	96.149	177.899	234.165	95.625	100.026	100.591	105.217	216.359	104.233	-8191	255	
11379.191	1	1	0	0	0.039074	0.044326	0.21857	0.16546	0.38113	0.060615	0.070724	0.092577	0.11893	0.13413	0.27975	0.22518	0.027367	0.064848	0.20624	0.21093	-4.3125	-4.75	-4.2312	-5.0062	-4.5437	-4.4375	-4.9938	-4.5146	-4.4771	-4.7688	-4.4729	-4.9729	-4.6667	-4.3792	-4.9479	-4.4479	392.264	116.145	89.159	402.317	428.273	89.658	286.017	336.699	217.393	396.090	396.548	80.808	358.070	362.748	99.760	97.032	0.00089391	0.00032447	8.4453e-05	1279.8	5.7784e-06	3.5019e-06	1291.7	353.45	9.5815e-06	3.7813e-06	405.64	135.44	117.14	39.479	4.0785e-06	49.684	0.0007676	0.00075912	0.00021432	1317.3	8.2894e-06	8.3466e-06	1330.7	364.24	8.3687e-06	8.4568e-06	420.49	140.09	121.77	41.474	8.4474e-06	51.941	112.907	191.435	120.819	91.648	226.999	169.747	91.292	96.213	184.502	240.898	95.792	100.070	100.605	105.216	255.445	104.415	-8191	255	
11379.310	1	1	0	0	0.1623	0.10835	0.19857	0.27111	0.10028	0.075242	0.1298	0.16526	0.13294	0.17515	0.25356	0.10928	0.11682	0.245	0.18225	0.19414	-4.2063	-4.9333	-4.2292	-4.7333	-4.6854	-4.275	-5.0687	-4.6229	-4.4229	-4.8583	-4.3313	-4.6167	-4.8229	-4.1458	-4.7958	-4.7312	245.729	330.489	269.427	82.798	350.813	408.141	99.376	95.439	176.666	227.800	413.962	148.139	379.743	431.943	200.351	242.934	0.00079615	0.00041167	9.981e-05	1279.3	3.9963e-06	4.4545e-06	1295.6	353.07	9.5668e-06	4.1187e-06	405.46	134.92	117.13	39.882	6.1334e-06	49.82	0.00077498	0.00076784	0.00021572	1317.5	8.3352e-06	8.4611e-06	1331.9	364.49	8.3847e-06	8.4498e-06	420.42	139.88	121.66	41.608	8.5942e-06	51.984	114.861	144.615	158.788	91.651	270.057	235.853	91.415	96.292	240.045	199.860	95.757	99.920	100.621	105.320	181.518	104.240	-8191	255	
11379.407	1	1	0	0	0.092683	0.13741	0.29185	0.12501	0.14759	0.18063	0.14269	0.26199	0.20712	0.059829	0.15013	0.19679	0.072852	0.2459	0.058508	0.078042	-4.1583	-5.0167	-4.4146	-4.7604	-4.7271	-4.3792	-4.9	-4.8167	-4.3896	-4.775	-4.3896	-4.6625	-4.8812	-4.2937	-4.7271	-4.7417	303.041	272.250	83.852	214.692	430.180	124.545	373.153	351.877	124.430	259.733	351.829	374.100	132.343	390.393	385.197	404.535	0.00084984	0.00067778	0.0002538	1280.2	2.8231e-06	8.0099e-06	1289.9	353.19	7.0045e-06	9.196e-06	404.97	134.87	116.73	39.683	5.4537e-06	49.644	0.00078114	0.00077575	0.00021601	1319	8.4136e-06	8.535e-06	1331.1	364.89	8.4175e-06	8.4227e-06	420.29	139.75	121.56	41.534	8.4656e-06	52.036	114.452	180.033	144.354	91.636	263.062	267.438	91.458	96.356	209.709	242.289	95.510	100.005	100.815	105.217	227.900	104.265	-8191	255	
11379.503	1	1	0	0	0.094268	0.056131	0.047191	0.18714	0.13998	0.19996	0.20761	0.16613	0.23398	0.32002	0.17558	0.11948	0.097693	0.080615	0.036392	0.24761	-3.8875	-4.825	-4.3167	-4.8688	-4.7146	-4.3771	-4.9062	-4.7875	-4.2542	-4.975	-4.3833	-4.55	-4.8854	-4.4313	-4.5396	-4.8187	226.164	95.983	375.795	403.256	180.676	342.048	374.379	410.356	393.463	128.447	291.070	423.059	297.958	340.124	382.198	379.397	0.00085002	0.00074527	0.00014249	1282.3	4.717e-06	3.1973e-06	1295.6	354.56	6.031e-06	3.6801e-06	409.45	135.98	117.49	39.675	4.0651e-06	49.881	0.00077035	0.00078021	0.00021397	1319	8.4055e-06	8.4681e-06	1331.3	364.93	8.4155e-06	8.6026e-06	421.31	140.24	121.73	41.585	8.5576e-06	51.981	113.461	155.300	143.485	91.706	206.111	275.514	91.457	96.162	208.400	143.696	95.834	99.878	100.399	105.085	173.345	104.473	-8191	255	
11379.599	1	1	0	0	0.043074	0.17046	0.12764	0.34944	0.2252	0.1318	0.066877	0.22169	0.033588	0.15335	0.20586	0.2676	0.020134	0.052082	0.069839	0.19288	-4.0958	-4.9083	-4.4062	-4.5021	-4.8438	-4.4313	-4.6625	-4.8896	-4.3458	-4.7417	-4.8042	-4.3229	-4.8688	-4.4563	-4.5375	-4.7438	247.844	196.129	264.657	96.861	327.290	191.478	101.480	327.284	387.765	340.981	373.601	399.967	346.448	90.049	176.465	381.742	0.00082289	0.00052893	6.9012e-05	1285	6.9896e-06	3.4744e-06	1299.3	352.98	9.6025e-06	3.26e-06	406.14	135.64	117.41	39.769	4.4058e-06	49.833	0.00076756	0.0007791	0.00021618	1319.5	8.4124e-06	8.394e-06	1331.9	364.69	8.3566e-06	8.4313e-06	420.49	140.12	121.64	41.618	8.4553e-06	52.054	112.460	200.797	121.118	91.605	221.012	174.347	91.469	96.161	205.239	240.125	95.639	100.087	100.425	105.495	197.196	104.198	-8191	255	
11379.719	1	1	0	0	0.07687	0.12272	0.18935	0.16112	0.11024	0.27406	0.20971	0.10004	0.12949	0.13816	0.040168	0.0092368	0.11365	0.12957	0.093918	0.088352	-3.8771	-4.7937	-4.6333	-4.4125	-4.875	-4.4604	-4.7104	-4.9625	-4.1333	-4.85	-4.6729	-4.4062	-4.8479	-4.4146	-4.4646	-4.8729	242.333	374.403	171.615	424.475	194.379	386.937	401.496	345.055	108.082	120.177	410.971	409.823	330.994	80.742	211.022	349.501	0.00092237	0.00065427	3.1317e-05	1285.9	6.4047e-06	4.1448e-06	1298.1	354.09	6.6519e-06	2.9204e-06	407.02	135.61	118.06	39.863	6.2902e-06	49.652	0.00076507	0.00077137	0.0002126	1318.4	8.3429e-06	8.4099e-06	1331.7	364.38	8.3152e-06	8.4243e-06	420.43	140	122.01	41.594	8.4617e-06	51.963	113.989	168.300	103.604	91.699	226.074	248.570	91.452	96.189	188.804	235.789	95.799	100.127	100.634	105.383	259.579	104.328	-8191	255	
11379.791	1	1	0	0	0.090806	0.10594	0.094539	0.17577	0.11158	0.09217	0.046583	0.21408	0.29731	0.11149	0.15877	0.19845	0.16107	0.18966	0.13588	0.031708	-3.9354	-4.7042	-4.5729	-4.4625	-4.7958	-4.5521	-4.6354	-4.9187	-4.2438	-4.5792	-4.7667	-4.3688	-4.8812	-4.4062	-4.3125	-4.9208	162.538	429.520	243.473	378.823	395.907	378.630	380.042	365.438	157.607	190.756	347.021	381.818	361.666	425.396	165.477	284.477	0.00080166	0.00029812	6.8497e-05	1280.4	4.582e-06	8.9778e-06	1294.7	353.95	8.7035e-06	6.6392e-06	406.66	135.21	117.7	39.708	6.6751e-06	49.83	0.00075554	0.00076979	0.00021295	1316.6	8.3491e-06	8.3979e-06	1329.3	364.23	8.3018e-06	8.3655e-06	420.6	139.9	121.58	41.57	8.3702e-06	51.969	112.325	125.598	131.455	91.714	242.100	228.559	91.400	96.545	207.452	241.115	95.774	99.897	100.525	105.279	216.302	104.321	-8191	255	
11379.887	1	1	0	0	0.12167	0.12656	0.083564	0.21534	0.22613	0.10655	0.34209	0.16445	0.14743	0.13793	0.17519	0.20141	0.02271	0.14015	0.23389	0.30288	-3.925	-4.8	-4.5396	-4.3	-4.8208	-4.6646	-4.4375	-4.9542	-4.4875	-4.3313	-4.9062	-4.3625	-4.8146	-4.6396	-4.2146	-4.8854	297.286	177.548	165.877	330.385	195.828	312.756	362.541	436.598	349.093	197.785	398.730	420.941	108.234	359.263	165.852	107.127	0.00083898	0.00019949	3.7827e-05	1280	5.3757e-06	8.7746e-06	1290.2	353.31	9.7212e-06	5.2606e-06	406.46	135.04	117.46	39.657	3.7173e-06	49.629	0.00076802	0.00076635	0.00021231	1317.5	8.4253e-06	8.3663e-06	1329.2	364.99	8.3441e-06	8.5747e-06	420.26	140.06	121.78	41.562	8.3194e-06	51.977	115.420	428.075	109.188	91.509	257.937	227.067	91.400	96.295	218.578	207.921	95.703	100.185	100.638	105.076	247.366	104.142	-8191	255	
11380.008	1	1	0	0	0.16994	0.15698	0.023506	0.12025	0.12285	0.29871	0.40909	0.23917	0.14431	0.29174	0.24269	0.28998	0.068176	0.28199	0.18374	0.055707	-3.9146	-4.4354	-4.8187	-4.5458	-4.7083	-4.8042	-4.4896	-5.0396	-4.3938	-4.4958	-4.9146	-4.2479	-4.6417	-4.6229	-4.2833	-4.8958	333.587	144.782	218.886	381.113	358.147	408.175	370.674	383.774	358.429	103.720	334.128	136.476	416.054	379.707	82.211	161.465	0.00083786	0.00054094	0.00013117	1275.8	5.3798e-06	5.4585e-06	1290.5	353.31	6.6281e-06	6.4753e-06	403.72	134.55	117.27	39.56	4.8232e-06	49.541	0.00076193	0.00076511	0.00021037	1315.5	8.347e-06	8.3063e-06	1328.8	364.43	8.3432e-06	8.3508e-06	420.58	139.88	121.63	41.549	8.3415e-06	51.974	113.505	139.418	149.325	91.656	236.738	282.429	91.376	96.134	221.803	216.066	95.767	99.844	100.639	105.115	258.832	104.424	-8191	255	
11380.102	1	1	0	0	0.22051	0.19877	0.13562	0.13538	0.1575	0.10596	0.25935	0.19225	0.14979	0.18217	0.15636	0.13227	0.20295	0.12862	0.089093	0.023931	-4.3167	-4.2125	-4.7792	-4.2583	-4.4792	-4.6188	-4.3854	-4.9604	-4.5979	-4.4958	-5.0833	-4.4292	-4.5729	-4.7312	-4.3	-4.7875	393.629	426.831	147.427	395.754	110.035	432.760	354.865	410.460	160.922	142.193	355.726	385.300	364.924	193.124	188.731	241.722	0.0008131	0.00031723	0.00010553	1274.2	5.5216e-06	9.0143e-06	1286	351.9	4.3297e-06	6.2241e-06	404.42	134.76	116.96	39.642	4.5976e-06	49.518	0.00076857	0.00076606	0.00021056	1315.9	8.3234e-06	8.3953e-06	1327.7	364.55	8.3642e-06	8.4239e-06	420.72	139.84	121.7	41.563	8.3451e-06	51.984	114.539	131.645	244.548	91.743	251.134	277.753	91.439	96.253	252.354	242.183	95.710	99.941	100.789	104.955	189.716	104.241	-8191	255	
11380.198	1	1	0	0	0.048049	0.12726	0.10244	0.042119	0.036357	0.10041	0.26641	0.11334	0.10009	0.13103	0.37902	0.25835	0.092291	0.033242	0.23412	0.3401	-4.2646	-4.3625	-4.9292	-4.6146	-4.5292	-4.6833	-4.4396	-5.0083	-4.7958	-4.4042	-4.8771	-4.5208	-4.575	-4.7458	-4.2917	-4.9583	352.388	235.995	156.698	374.436	101.350	406.719	328.024	360.314	346.189	380.481	370.153	112.753	376.546	78.402	338.159	361.621	0.00093578	0.00042679	0.00022588	1273.7	4.7582e-06	4.1795e-06	1293.7	351.24	1.1127e-05	6.2102e-06	402.13	134.63	116.53	39.319	6.4509e-06	49.585	0.00075746	0.00076651	0.00021257	1316.2	8.2939e-06	8.2711e-06	1329	364.35	8.24e-06	8.3077e-06	420.07	139.78	121.69	41.505	8.2614e-06	51.934	109.135	163.502	179.247	91.460	236.993	196.691	91.266	96.350	181.049	209.980	95.667	99.876	100.761	105.212	213.645	104.354	-8191	255	
11380.319	1	1	0	0	0.15419	0.23065	0.20923	0.11891	0.091032	0.065822	0.23702	0.42113	0.18168	0.29416	0.19379	0.13686	0.062063	0.33889	0.1315	0.060344	-4.1083	-4.2958	-4.8979	-4.5729	-4.4875	-4.8562	-4.4208	-4.7521	-4.7396	-4.3729	-4.9563	-4.6146	-4.55	-5.0437	-4.1792	-4.7583	169.257	98.482	238.083	91.406	372.916	85.043	386.645	346.792	219.309	376.335	384.273	131.925	184.246	418.425	165.742	438.195	0.0008872	0.0005602	0.00016821	1285.6	5.4764e-06	6.9244e-06	1298.7	354.76	8.7237e-06	6.5271e-06	408.55	136.09	117.4	39.987	8.8008e-06	49.945	0.00076086	0.00076058	0.00021198	1320.4	8.2073e-06	8.28e-06	1330.3	364.94	8.3643e-06	8.3426e-06	421.23	140.05	121.7	41.645	8.311e-06	52.122	116.883	177.990	173.275	91.733	208.253	258.442	91.428	96.229	195.081	211.992	95.607	100.102	100.751	105.217	225.186	104.394	-8191	255	
11380.391	1	1	0	0	0.20092	0.19503	0.19021	0.079967	0.18795	0.23153	0.20667	0.11572	0.2124	0.23782	0.10844	0.23205	0.18832	0.028622	0.023845	0.16718	-4.4896	-4.2312	-4.7438	-4.7479	-4.3479	-4.7854	-4.3521	-4.9021	-4.6521	-4.1292	-4.7833	-4.6917	-4.2708	-5.05	-4.4292	-4.7438	129.049	373.423	310.397	426.174	118.896	84.900	335.734	434.035	419.243	261.164	311.955	371.361	214.029	276.287	387.099	228.123	0.00083839	0.00024529	0.00019995	1287.2	4.694e-06	6.7862e-06	1299.3	355.64	6.5542e-06	6.6567e-06	407.57	135.84	117.6	40.042	8.5847e-06	50.01	0.00075248	0.00075085	0.00021297	1318.8	8.1719e-06	8.2709e-06	1331.7	365.4	8.2954e-06	8.2986e-06	421.3	140.22	121.77	41.659	8.458e-06	52.154	111.551	154.976	157.181	91.685	211.340	207.666	91.477	96.472	207.583	252.669	95.900	100.135	100.863	105.452	179.976	104.158	-8191	255	
11380.487	1	1	0	0	0.081063	0.24557	0.20631	0.32029	0.2546	0.077089	0.039217	0.24015	0.15586	0.21839	0.24829	0.20383	0.20236	0.23946	0.15703	0.12607	-4.525	-4.2188	-4.6438	-4.7167	-4.3333	-4.925	-4.725	-4.5833	-4.7833	-4.2854	-4.7521	-4.8354	-4.4229	-4.8583	-4.5938	-4.5687	239.185	121.209	268.070	418.529	433.485	229.013	424.112	353.879	208.171	198.244	271.916	86.003	328.938	388.195	424.524	422.382	0.0008486	0.00033982	0.0001923	1287.2	7.9463e-06	5.1948e-06	1303.2	355.08	6.1025e-06	4.4592e-06	408.31	136.26	118.03	39.9	5.4658e-06	49.946	0.00077765	0.00077153	0.00021928	1321.1	8.5216e-06	8.6059e-06	1336.1	365.79	8.5051e-06	8.5692e-06	422.65	140.65	122.06	41.722	8.5508e-06	52.162	110.570	216.847	180.719	91.711	175.242	232.611	91.420	96.669	190.698	216.148	95.779	100.131	100.577	105.453	218.415	104.279	-8191	255	
11380.583	1	1	0	0	0.3088	0.1781	0.16138	0.20254	0.083133	0.21955	0.27782	0.2993	0.14638	0.086148	0.2132	0.17032	0.14402	0.14215	0.14746	0.11421	-4.6333	-4.3771	-4.5938	-4.9292	-4.2729	-4.8896	-4.6562	-4.4104	-4.825	-4.4458	-4.6833	-4.7729	-4.2125	-4.7208	-4.4292	-4.3208	173.116	104.633	251.895	385.439	202.470	426.789	82.842	398.149	349.258	381.616	400.732	98.383	104.791	379.983	258.539	83.256	0.00089724	0.00084221	0.00026423	1288.4	7.7904e-06	5.3377e-06	1303.5	355.71	9.2521e-06	9.2578e-06	408.44	135.52	117.61	39.998	4.1602e-06	49.821	0.00079234	0.00078475	0.00022063	1325.5	8.3978e-06	8.5933e-06	1337.9	366.18	8.4637e-06	8.4944e-06	421.69	140.35	121.9	41.65	8.3543e-06	52.17	112.834	162.650	172.180	91.485	216.133	261.890	91.446	96.182	236.412	254.787	95.905	99.986	100.433	105.169	216.760	104.487	-8191	255	
11380.679	1	1	0	0	0.10172	0.078949	0.089531	0.28404	0.12935	0.11403	0.25391	0.015752	0.014996	0.2873	0.2927	0.053837	0.25915	0.078722	0.11261	0.14576	-4.5208	-4.4479	-4.5938	-4.8958	-4.3375	-4.8562	-4.6958	-4.3354	-5.0958	-4.2979	-4.4458	-4.8438	-4.2812	-4.8521	-4.5542	-4.2521	124.568	242.381	309.118	419.041	340.606	316.771	342.562	282.905	198.445	112.310	372.112	250.168	385.562	93.856	246.577	81.700	0.00086051	0.00037586	0.00012725	1286.8	6.7012e-06	3.2663e-06	1299.6	354.73	7.392e-06	3.8159e-06	405.82	135.82	118.19	39.838	7.5637e-06	50.191	0.00076793	0.00076637	0.00021443	1322.1	8.1843e-06	8.3411e-06	1334.4	365.66	8.3994e-06	8.3906e-06	421.2	140.3	121.94	41.587	8.3974e-06	52.173	111.433	140.822	178.315	91.669	226.011	189.343	91.508	96.196	176.969	257.315	95.762	99.974	100.693	104.942	236.355	104.257	-8191	255	
11380.800	1	1	0	0	0.16545	0.057852	0.14805	0.17355	0.06454	0.043834	0.22323	0.054837	0.18175	0.1014	0.086308	0.15253	0.086755	0.27346	0.2441	0.14304	-4.425	-4.225	-4.3896	-4.95	-4.2812	-4.675	-4.7312	-4.4271	-4.8521	-4.4521	-4.5917	-4.95	-4.3125	-4.8146	-4.6875	-4.3438	370.002	267.885	104.896	119.461	413.760	243.925	397.067	245.354	102.506	399.598	399.969	349.653	191.531	432.770	435.362	370.878	0.00082613	0.00029712	0.00019245	1285.8	6.0419e-06	6.7233e-06	1293.5	354.68	6.9063e-06	6.2423e-06	405.86	135.34	117.73	39.846	7.3325e-06	49.863	0.00078487	0.00078559	0.00021731	1322.7	8.5732e-06	8.5034e-06	1333.4	365.47	8.6844e-06	8.807e-06	421.71	140.36	122.17	41.698	8.8629e-06	52.174	111.626	367.630	229.656	91.590	242.785	230.977	91.382	96.356	195.983	240.928	95.949	100.092	100.598	105.117	209.952	104.291	-8191	255	
11380.896	1	1	0	0	0.1789	0.13716	0.29177	0.30128	0.087245	0.27197	0.11117	0.093147	0.2023	0.069144	0.11337	0.11118	0.19202	0.17947	0.12112	0.25322	-4.4521	-4.5667	-4.4417	-5.0896	-4.2583	-4.6896	-4.8521	-4.425	-4.7354	-4.6458	-4.3833	-4.8271	-4.525	-4.6667	-4.7208	-4.3354	340.683	208.987	167.100	420.111	247.660	207.600	375.481	123.953	317.641	391.673	371.897	159.155	79.939	157.915	387.688	360.575	0.00089294	0.00054402	0.00014148	1287.2	7.5273e-06	6.9393e-06	1295.9	353.9	1.1631e-05	2.6994e-06	404.42	135.13	116.86	39.391	9.1059e-06	49.677	0.00082282	0.00082025	0.00023206	1324.4	8.9557e-06	9.2259e-06	1334.7	365.98	9.1824e-06	9.2657e-06	421.83	140.68	122.29	41.702	9.3372e-06	52.262	114.868	184.859	196.832	91.524	226.350	242.173	91.358	96.208	243.799	396.952	95.711	100.019	100.856	105.215	216.626	104.047	-8191	255	
11380.992	1	1	0	0	0.16062	0.14871	0.24567	0.053964	0.17437	0.16408	0.25927	0.18694	0.2003	0.11758	0.1831	0.093098	0.14465	0.13342	0.0095779	0.020201	-4.2583	-4.5396	-4.2896	-5.1062	-4.4417	-4.5437	-4.9083	-4.2375	-4.7417	-4.5687	-4.3708	-4.8479	-4.5042	-4.6271	-4.8812	-4.2438	178.785	385.557	425.402	293.417	425.855	374.525	375.701	406.598	178.150	165.660	242.435	323.669	435.688	376.528	203.143	338.635	0.00080882	0.00011878	0.00014921	1289.3	1.0587e-05	1.7117e-06	1305.3	354.63	6.6821e-06	8.963e-06	408.91	135.94	117.71	39.852	8.5753e-06	49.816	0.00085261	0.00085765	0.00023849	1326	9.2231e-06	9.3094e-06	1339	366.21	9.322e-06	9.2305e-06	422.75	140.61	122.29	41.722	9.1326e-06	52.22	112.421	256.377	180.907	91.577	215.690	346.466	91.566	96.315	226.637	233.072	95.486	100.185	100.726	105.221	219.925	104.317	-8191	255	
11381.088	1	1	0	0	0.17306	0.11993	0.073206	0.26145	0.12215	0.13151	0.13276	0.24851	0.2028	0.12647	0.28325	0.21631	0.10655	0.046566	0.35357	0.13656	-4.1417	-4.5625	-4.075	-5.1188	-4.4458	-4.3458	-5.0771	-4.0833	-4.5417	-4.6208	-4.3896	-4.8625	-4.4146	-4.4521	-4.8458	-4.3771	83.402	178.236	252.475	422.340	181.933	92.235	427.928	340.527	83.674	151.205	370.580	376.540	405.331	206.405	167.965	423.487	0.00087807	0.00066124	0.00024729	1285.4	8.4103e-06	5.6773e-06	1281.7	350.83	5.0494e-06	3.2074e-06	402.16	135.22	117.6	39.869	7.2612e-06	49.851	0.00083665	0.00082671	0.00022652	1321.6	8.858e-06	8.8828e-06	1331.2	365.02	8.8586e-06	8.8571e-06	420.64	140.21	121.9	41.618	8.8287e-06	52.04	113.533	177.170	211.297	91.570	198.937	243.221	91.297	96.309	230.404	256.359	95.579	100.183	100.918	105.159	208.363	104.354	-8191	255	
11381.183	1	1	0	0	0.13228	0.11079	0.29931	0.13202	0.23632	0.16614	0.31739	0.16846	0.22484	0.2363	0.26295	0.14902	0.19146	0.11843	0.10867	0.21441	-4.3604	-4.7688	-4.1375	-4.7688	-4.5312	-4.3688	-4.9563	-4.4708	-4.3208	-4.75	-4.2438	-4.6521	-4.7167	-4.2271	-4.6875	-4.4958	282.655	399.211	432.698	86.475	364.587	409.476	385.689	330.109	213.128	276.110	405.609	140.464	153.700	352.345	178.408	354.701	0.00083365	0.00058236	0.00016777	1289.9	7.8688e-06	9.9827e-06	1296.4	355.54	9.1437e-06	4.5058e-06	406.9	135.6	117.06	39.791	8.0487e-06	49.954	0.00079786	0.00080407	0.00022391	1323	8.6826e-06	8.7226e-06	1332.9	365.01	8.8112e-06	8.7524e-06	421.27	140.27	121.73	41.604	8.725e-06	52.095	117.186	203.933	210.465	91.530	207.834	230.085	91.371	96.377	220.896	277.831	95.834	100.207	100.481	105.084	245.252	104.245	-8191	255	
11381.281	1	1	0	0	0.11622	0.040954	0.30416	0.1325	0.028918	0.10482	0.38256	0.22715	0.093768	0.069114	0.26835	0.011767	0.11531	0.19695	0.14073	0.044451	-4.1708	-4.7542	-4.2042	-4.7063	-4.5646	-4.2292	-4.9979	-4.475	-4.4313	-4.8854	-4.375	-4.6479	-4.6521	-4.1042	-4.825	-4.5833	188.109	220.102	273.964	409.644	435.840	425.100	360.513	104.455	165.830	288.383	347.912	307.398	86.663	346.427	219.973	333.743	0.00090217	0.00044291	0.00017827	1284.6	5.031e-06	6.3342e-06	1287.2	349.94	1.026e-05	2.5913e-06	405.41	136	117.73	39.904	4.6763e-06	49.96	0.00079608	0.00080644	0.00022184	1322.3	8.7213e-06	8.844e-06	1333	364.58	8.8296e-06	8.8715e-06	421.67	140.26	122.02	41.623	8.8664e-06	52.128	117.540	164.481	186.356	91.528	197.757	246.444	91.331	95.931	215.013	250.986	95.824	100.305	100.512	105.417	248.409	104.614	-8191	255	
11381.399	1	1	0	0	0.055988	0.15639	0.064752	0.18834	0.051391	0.11947	0.29589	0.19119	0.14027	0.083441	0.10233	0.041181	0.19954	0.12606	0.018283	0.027623	-4.0333	-4.7208	-4.2583	-4.7771	-4.725	-4.2521	-4.8438	-4.625	-4.3021	-4.9083	-4.3812	-4.5667	-4.6479	-4.2604	-4.6396	-4.7104	322.742	193.291	105.076	363.720	197.319	229.712	325.123	109.612	94.571	301.930	127.840	411.101	272.477	135.452	160.609	246.993	0.00083199	0.00037619	0.00021854	1289.5	5.7431e-06	1.2536e-06	1296.7	355.69	7.5702e-06	8.7295e-06	409.42	135.99	118.16	39.965	5.4887e-06	49.942	0.000807	0.00080839	0.00022486	1321.6	8.6643e-06	8.9335e-06	1333.4	365.4	8.9067e-06	8.9425e-06	421.28	140.33	121.89	41.621	9.1005e-06	52.192	115.993	141.799	165.830	91.714	252.031	78.839	91.585	96.476	221.433	246.789	95.718	100.196	100.747	105.343	223.732	104.385	-8191	255	
11381.496	1	1	0	0	0.052676	0.057916	0.1695	0.29981	0.1754	0.068937	0.03025	0.031537	0.25467	0.090679	0.14713	0.24302	0.15294	0.16876	0.12091	0.067045	-4.0479	-4.8104	-4.2542	-4.6979	-4.8354	-3.9917	-4.8604	-4.6625	-4.2	-4.8792	-4.4604	-4.3979	-4.8125	-4.3187	-4.5604	-4.7438	400.252	116.436	175.000	336.095	414.453	410.455	406.281	165.050	376.340	338.316	127.715	89.183	284.931	356.309	343.132	284.605	0.00088469	0.00025264	8.4608e-05	1290.4	5.4438e-06	1.6376e-06	1304.3	356.3	6.1492e-06	4.9455e-06	407.67	136.36	117.3	39.833	4.5699e-06	49.912	0.00082801	0.00083585	0.0002341	1322.3	9.0903e-06	9.2095e-06	1334.6	365.52	9.1468e-06	9.2091e-06	421.18	140.49	121.77	41.673	9.2932e-06	52.106	108.721	142.280	151.502	91.746	233.880	226.952	91.705	96.529	231.220	280.295	95.782	100.102	100.557	105.356	229.415	104.216	-8191	255	
11381.592	1	1	0	0	0.10907	0.093982	0.15066	0.081822	0.13448	0.12675	0.022404	0.29274	0.14987	0.12511	0.10915	0.16922	0.065798	0.22836	0.036013	0.081148	-3.8521	-4.6979	-4.3229	-4.5167	-4.8625	-4.1792	-4.7896	-4.6771	-4.1813	-4.75	-4.5792	-4.5062	-4.9042	-4.2896	-4.5708	-4.7812	145.923	328.448	286.754	379.032	221.158	124.077	343.002	389.768	191.511	217.859	414.629	353.259	342.847	378.017	248.991	305.725	0.00078749	0.0004588	0.00018085	1288.7	8.7772e-06	8.1028e-06	1301.9	356.84	8.3343e-06	5.6768e-06	409.43	135.75	117.6	39.862	2.4977e-06	50.186	0.00083984	0.0008421	0.00023493	1322.3	9.1263e-06	9.181e-06	1335.4	366.08	9.1717e-06	9.4279e-06	421.8	140.44	122.07	41.663	9.3712e-06	52.216	109.691	172.623	171.140	91.796	215.331	248.758	91.552	96.380	179.777	240.178	95.833	100.021	100.577	105.343	244.255	104.320	-8191	255	
#DATA ENDS
