BOXY.EXE: ISS Imagent and Oximeter Data Acquisition Program Version 0.80
Ascii Record File

#ACQ INFORMATION
2  Detector Channels 
16  External MUX Channels 
1  Auxiliary Channels 
5000  Waveform (CCF) Frequency (Hz)
1  Waveforms Skipped 
30  Waveforms Averaged 
1  Cycles Averaged 
16  Acquisitions per Waveform 
10.0806  Updata Rate (Hz) 

#FILE INFORMATION
TRUE -- External MUX Channel results are PARSED.
FALSE -- AC DC and Phase are NOT grouped.
TRUE -- Companion Program Settings File CREATED.
FALSE -- AC data not excluded
FALSE -- DC data not excluded
FALSE -- Phase data not excluded
FALSE -- Auxillary Chn. data not excluded
Tab delimiters

#CALIBRATION STATE
TRUE -- Waveform Calibration Values APPLIED.


#AUX CALIBRATION VALUES
Val Type	aux-1	

Term	1.0000e+00	
Factor	0.0000e+00	


#WF CALIBRATION VALUES
A = Detector Channel
Val Type	A-AC1	A-AC2	A-AC3	A-AC4	A-AC5	A-AC6	A-AC7	A-AC8	A-AC9	A-AC10	A-AC11	A-AC12	A-AC13	A-AC14	A-AC15	A-AC16	A-DC1	A-DC2	A-DC3	A-DC4	A-DC5	A-DC6	A-DC7	A-DC8	A-DC9	A-DC10	A-DC11	A-DC12	A-DC13	A-DC14	A-DC15	A-DC16	A-Ph1	A-Ph2	A-Ph3	A-Ph4	A-Ph5	A-Ph6	A-Ph7	A-Ph8	A-Ph9	A-Ph10	A-Ph11	A-Ph12	A-Ph13	A-Ph14	A-Ph15	A-Ph16	

Term	0.00000e+00	0.00000e+00	0.00000e+00	0.00000e+00	0.00000e+00	0.00000e+00	0.00000e+00	0.00000e+00	0.00000e+00	0.00000e+00	0.00000e+00	0.00000e+00	0.00000e+00	0.00000e+00	0.00000e+00	0.00000e+00	0.00000e+00	0.00000e+00	0.00000e+00	0.00000e+00	0.00000e+00	0.00000e+00	0.00000e+00	0.00000e+00	0.00000e+00	0.00000e+00	0.00000e+00	0.00000e+00	0.00000e+00	0.00000e+00	0.00000e+00	0.00000e+00	0.00000e+00	0.00000e+00	0.00000e+00	0.00000e+00	0.00000e+00	0.00000e+00	0.00000e+00	0.00000e+00	0.00000e+00	0.00000e+00	0.00000e+00	0.00000e+00	0.00000e+00	0.00000e+00	0.00000e+00	0.00000e+00	
Factor	1.00000e+00	1.00000e+00	1.00000e+00	1.00000e+00	1.00000e+00	1.00000e+00	1.00000e+00	1.00000e+00	1.00000e+00	1.00000e+00	1.00000e+00	1.00000e+00	1.00000e+00	1.00000e+00	1.00000e+00	1.00000e+00	1.00000e+00	1.00000e+00	1.00000e+00	1.00000e+00	1.00000e+00	1.00000e+00	1.00000e+00	1.00000e+00	1.00000e+00	1.00000e+00	1.00000e+00	1.00000e+00	1.00000e+00	1.00000e+00	1.00000e+00	1.00000e+00	X	X	X	X	X	X	X	X	X	X	X	X	X	X	X	X	

B = Detector Channel
Val Type	B-AC1	B-AC2	B-AC3	B-AC4	B-AC5	B-AC6	B-AC7	B-AC8	B-AC9	B-AC10	B-AC11	B-AC12	B-AC13	B-AC14	B-AC15	B-AC16	B-DC1	B-DC2	B-DC3	B-DC4	B-DC5	B-DC6	B-DC7	B-DC8	B-DC9	B-DC10	B-DC11	B-DC12	B-DC13	B-DC14	B-DC15	B-DC16	B-Ph1	B-Ph2	B-Ph3	B-Ph4	B-Ph5	B-Ph6	B-Ph7	B-Ph8	B-Ph9	B-Ph10	B-Ph11	B-Ph12	B-Ph13	B-Ph14	B-Ph15	B-Ph16	

Term	0.00000e+00	0.00000e+00	0.00000e+00	0.00000e+00	0.00000e+00	0.00000e+00	0.00000e+00	0.00000e+00	0.00000e+00	0.00000e+00	0.00000e+00	0.00000e+00	0.00000e+00	0.00000e+00	0.00000e+00	0.00000e+00	0.00000e+00	0.00000e+00	0.00000e+00	0.00000e+00	0.00000e+00	0.00000e+00	0.00000e+00	0.00000e+00	0.00000e+00	0.00000e+00	0.00000e+00	0.00000e+00	0.00000e+00	0.00000e+00	0.00000e+00	0.00000e+00	-2.19236e+02	-1.31854e+02	-1.24135e+02	-1.81681e+02	-8.58735e+01	-6.72878e+01	-1.57568e+02	-1.62015e+02	-8.41279e+01	-6.72097e+01	-1.71278e+02	-1.72824e+02	-1.84035e+02	-1.76898e+02	-7.35276e+01	-1.49611e+02	
Factor	5.03203e-05	1.86684e-04	5.35002e-05	1.55221e-01	2.21823e-06	1.93863e-06	1.70040e-01	5.39350e-02	2.78813e-06	2.02691e-06	8.86941e-02	3.59107e-02	3.83696e-02	9.50516e-03	2.03926e-06	1.37819e-02	1.31170e-05	1.87377e-05	5.23375e-06	7.87103e-02	1.87137e-07	2.07811e-07	8.13289e-02	2.73734e-02	1.87871e-07	2.06201e-07	4.39296e-02	1.77345e-02	1.96596e-02	4.87883e-03	1.96838e-07	6.87861e-03	X	X	X	X	X	X	X	X	X	X	X	X	X	X	X	X	



#DISTANCE SETTINGS
A = Detector Channel
A-1	A-2	A-3	A-4	A-5	A-6	A-7	A-8	A-9	A-10	A-11	A-12	A-13	A-14	A-15	A-16	

2.5000e+00	3.0000e+00	2.5000e+00	3.0000e+00	2.0000e+00	3.0000e+00	1.5000e+00	3.0000e+00	3.0000e+00	3.0000e+00	3.0000e+00	3.0000e+00	3.0000e+00	3.0000e+00	1.5000e+00	3.0000e+00	

B = Detector Channel
B-1	B-2	B-3	B-4	B-5	B-6	B-7	B-8	B-9	B-10	B-11	B-12	B-13	B-14	B-15	B-16	

1.0000e+01	1.0000e+01	1.0000e+01	1.4400e+00	1.0000e+01	1.0000e+01	1.5100e+00	1.9400e+00	1.0000e+01	1.0000e+01	1.9900e+00	2.4900e+00	2.4100e+00	2.9000e+00	1.0000e+01	2.9800e+00	




#DATA BEGINS
time	group	step	mark	flag	A-AC1	A-AC2	A-AC3	A-AC4	A-AC5	A-AC6	A-AC7	A-AC8	A-AC9	A-AC10	A-AC11	A-AC12	A-AC13	A-AC14	A-AC15	A-AC16	A-DC1	A-DC2	A-DC3	A-DC4	A-DC5	A-DC6	A-DC7	A-DC8	A-DC9	A-DC10	A-DC11	A-DC12	A-DC13	A-DC14	A-DC15	A-DC16	A-Ph1	A-Ph2	A-Ph3	A-Ph4	A-Ph5	A-Ph6	A-Ph7	A-Ph8	A-Ph9	A-Ph10	A-Ph11	A-Ph12	A-Ph13	A-Ph14	A-Ph15	A-Ph16	B-AC1	B-AC2	B-AC3	B-AC4	B-AC5	B-AC6	B-AC7	B-AC8	B-AC9	B-AC10	B-AC11	B-AC12	B-AC13	B-AC14	B-AC15	B-AC16	B-DC1	B-DC2	B-DC3	B-DC4	B-DC5	B-DC6	B-DC7	B-DC8	B-DC9	B-DC10	B-DC11	B-DC12	B-DC13	B-DC14	B-DC15	B-DC16	B-Ph1	B-Ph2	B-Ph3	B-Ph4	B-Ph5	B-Ph6	B-Ph7	B-Ph8	B-Ph9	B-Ph10	B-Ph11	B-Ph12	B-Ph13	B-Ph14	B-Ph15	B-Ph16	aux-1	digaux	

6841.068	1	1	0	768	0.2466	0.16949	0.20307	0.053986	0.18549	0.12934	0.11889	0.32452	0.047844	0.14293	0.10329	0.10857	0.087891	0.10745	0.16899	0.17575	-4.3646	-4.8417	-5.1979	-4.7208	-5.0375	-5.0521	-4.8792	-5.1958	-4.6875	-4.7979	-5.2542	-4.6729	-5.1333	-5.1146	-4.6438	-5.1229	33.155	54.053	110.860	33.339	206.442	62.651	-130.560	189.255	85.832	-11.540	84.439	167.018	-19.418	5.825	-112.872	127.046	0.00098355	0.00041041	0.00016312	1295.9	4.9298e-06	4.0567e-06	1301.8	355.01	9.138e-06	3.8659e-06	405.41	133.94	115.63	39.125	3.412e-06	48.928	0.00080112	0.00083066	0.00022725	1318.6	8.6918e-06	8.9614e-06	1327.5	361.27	8.7317e-06	8.9233e-06	414.28	136.78	118.59	40.29	9.0431e-06	50.6	110.555	-58.031	-34.329	-129.660	7.336	-21.772	-130.119	-125.073	-61.826	-5.322	-125.541	-121.978	-121.024	-116.147	-17.269	-116.797	-8191	255	
6841.164	1	1	0	0	0.15396	0.16084	0.033043	0.47109	0.17852	0.037764	0.21948	0.23931	0.069584	0.23831	0.17828	0.19333	0.22026	0.10104	0.12604	0.11449	-4.2896	-4.5917	-5.0396	-4.5458	-4.75	-4.9667	-4.5146	-5.1792	-4.8063	-4.725	-5.4563	-4.7562	-4.9208	-5.0729	-4.3979	-5.2562	-11.934	10.744	-92.026	198.637	183.683	-85.087	85.981	147.966	65.206	57.274	166.884	107.543	136.778	151.917	-41.926	6.484	0.00092561	0.00058978	0.00016558	1304.2	6.8549e-06	6.1584e-06	1306.3	353.76	1.1075e-05	2.6929e-06	405.67	133.31	115.76	39.209	5.974e-06	49.013	0.00077188	0.00082828	0.00023453	1322	8.8095e-06	8.848e-06	1332.3	360.87	8.8307e-06	9.1781e-06	415.24	136.93	118.66	40.378	8.9746e-06	50.687	109.043	-49.114	-33.693	-129.846	-10.847	9.991	-130.022	-125.209	-48.914	-0.412	-125.578	-121.825	-121.088	-116.120	-16.432	-116.775	-8191	255	
6841.261	1	1	0	0	0.092374	0.097613	0.058271	0.14202	0.13857	0.14563	0.22353	0.088742	0.097413	0.11927	0.18874	0.026399	0.2354	0.10449	0.17212	0.075464	-4.6979	-4.7125	-5.2396	-4.7917	-4.775	-5.3333	-4.7604	-5.1521	-5.0312	-4.6458	-5.0708	-4.6458	-4.8042	-5.1396	-4.4625	-4.9187	175.907	29.663	62.396	213.169	-8.539	62.460	-127.677	180.220	80.127	-82.794	142.895	89.121	179.936	202.097	154.315	-17.840	0.00090178	0.00034771	7.7807e-05	1305.4	6.2878e-06	4.9745e-06	1311.6	355.6	7.5483e-06	4.6266e-06	407.98	134.08	115.8	39.198	3.6906e-06	49.155	0.00078155	0.00086006	0.0002312	1324.8	8.8294e-06	9.2922e-06	1335.2	361.96	8.9724e-06	9.2344e-06	416.02	137.35	118.91	40.418	9.2169e-06	50.731	114.540	-56.537	-41.093	-129.712	-5.727	11.048	-129.925	-125.235	-79.262	3.518	-125.423	-121.574	-121.185	-115.916	-2.528	-116.782	-8191	255	
6841.357	1	1	0	0	0.044878	0.14935	0.14136	0.18681	0.11655	0.18754	0.088378	0.15939	0.2015	0.13438	0.047504	0.12585	0.14539	0.043569	0.24088	0.11599	-4.6146	-4.5437	-4.9437	-4.8583	-4.6854	-5.1375	-4.7604	-5.0854	-5.1312	-4.5521	-5.3708	-5.0729	-4.9167	-5.4167	-4.7146	-5.0458	100.137	208.519	-50.373	202.531	158.308	-25.965	160.900	196.124	143.816	109.609	-79.041	149.289	-86.389	74.440	-96.194	195.807	0.00089343	0.00037076	0.00024843	1313.1	2.856e-06	6.5995e-06	1315.5	355.39	8.5372e-06	3.9121e-06	406.51	134.53	116.46	39.237	1.7657e-06	49.063	0.00079732	0.00087263	0.00023469	1332.9	9.0208e-06	9.2294e-06	1339.4	362.54	9.0417e-06	9.0367e-06	415.71	137.49	119.3	40.45	8.9073e-06	50.753	108.804	-56.045	-55.069	-129.643	-78.888	17.572	-130.086	-125.156	-42.166	8.010	-125.558	-121.869	-121.109	-115.998	-29.997	-116.569	-8191	255	
6841.453	1	1	0	0	0.21964	0.14157	0.16051	0.28416	0.093487	0.12636	0.42092	0.25101	0.077342	0.072349	0.30142	0.18158	0.21547	0.17571	0.0087197	0.064056	-4.8021	-4.3479	-4.9542	-4.9021	-4.4812	-5.1771	-4.5938	-4.7937	-5.0875	-4.5062	-5.15	-5.1521	-4.7312	-5.3208	-4.45	-4.8438	64.640	160.141	100.994	-120.503	-85.603	46.191	123.019	-126.132	15.005	-22.355	186.656	-99.375	198.132	216.553	100.584	25.044	0.00093439	0.00044057	0.00016755	1311.2	8.0103e-06	5.802e-06	1316.8	355.79	7.6148e-06	1.3477e-06	408.52	134.12	116.75	39.386	6.8777e-06	49.037	0.00077967	0.00084897	0.00022958	1332.3	8.79e-06	9.0406e-06	1342.4	362.99	8.6616e-06	9.0685e-06	416.73	137.49	119.67	40.516	8.8868e-06	50.769	107.493	-57.912	-41.547	-129.706	-28.773	13.574	-129.917	-125.111	-50.288	-51.395	-125.679	-121.906	-121.222	-116.125	-14.879	-116.675	-8191	255	
6841.549	1	1	0	0	0.16301	0.095807	0.1423	0.18183	0.13829	0.08744	0.15422	0.34591	0.12851	0.053781	0.096703	0.15278	0.23708	0.17062	0.14929	0.19924	-4.5958	-4.4104	-4.7833	-5.1417	-4.7042	-5.2667	-5.0312	-4.7479	-5.0792	-4.675	-4.8542	-5.0062	-4.3958	-5.0792	-4.7167	-4.7833	205.587	110.072	-62.453	207.032	-17.418	-141.490	135.297	179.696	123.934	135.511	43.427	174.711	166.266	121.768	97.172	194.807	0.0010083	0.00041161	8.365e-05	1319.6	8.641e-06	8.0321e-06	1323.9	356.15	8.328e-06	3.9714e-06	407.64	133.72	116.71	39.343	6.1646e-06	49.22	0.00077524	0.00082114	0.00022792	1337.6	8.7619e-06	8.7926e-06	1346.5	363.05	8.5728e-06	8.9603e-06	417.16	137.49	119.31	40.502	8.7302e-06	50.835	110.833	-38.444	-69.371	-129.675	-38.227	1.748	-129.973	-125.134	-53.021	2.577	-125.454	-121.952	-121.134	-116.151	-36.007	-116.636	-8191	255	
6841.670	1	1	0	0	0.12739	0.046232	0.13755	0.15827	0.22399	0.02179	0.19678	0.20038	0.054798	0.43452	0.28081	0.21646	0.044804	0.081017	0.2234	0.083197	-4.9958	-4.6042	-4.8417	-5.2042	-4.3854	-5.1833	-5.0833	-4.8688	-5.1042	-4.725	-5.1312	-5.2083	-4.5229	-5.2958	-4.8875	-4.6125	67.885	148.163	119.574	151.094	63.680	27.226	201.641	140.949	180.810	-53.000	-75.445	-48.721	178.182	113.642	111.367	134.247	0.0008946	0.00065022	0.00020002	1312.8	7.2516e-06	4.363e-06	1317.5	354.97	8.7945e-06	5.5519e-06	408.26	134.5	116.11	39.353	3.9947e-06	49.019	0.00075775	0.00080291	0.00021977	1333.2	8.5253e-06	8.7281e-06	1341.1	362.25	8.2612e-06	8.6768e-06	416.49	137.56	119.02	40.467	8.6855e-06	50.708	112.065	-41.985	-39.245	-129.815	-26.387	10.477	-129.827	-125.268	-30.824	18.541	-125.577	-121.666	-120.866	-115.994	-8.169	-116.757	-8191	255	
6841.764	1	1	0	0	0.20498	0.14455	0.11631	0.14466	0.0077011	0.097404	0.053723	0.099532	0.18142	0.23732	0.15519	0.1172	0.13044	0.32391	0.088225	0.078743	-4.8729	-4.6896	-4.8333	-5.2708	-4.5146	-5.1896	-5.15	-4.7083	-5.1833	-4.6958	-5.1104	-5.1687	-4.5771	-5.0583	-5.0938	-4.6229	-129.047	216.513	-45.232	167.023	-5.281	41.158	-79.088	133.477	-7.099	59.901	165.828	163.078	195.779	-17.211	49.099	38.377	0.00093771	0.00071064	0.00016199	1312.4	2.0407e-06	5.3631e-06	1319.7	354.55	6.108e-06	6.9508e-06	407.31	134.05	115.67	39.34	5.6755e-06	48.948	0.00075029	0.00079518	0.00022072	1332.3	8.2387e-06	8.554e-06	1341.5	362.49	8.3027e-06	8.6359e-06	415.53	137.28	119.07	40.393	8.4878e-06	50.604	108.047	-50.359	-63.066	-129.618	-30.281	-18.220	-129.867	-125.249	-94.955	14.592	-125.653	-121.539	-121.056	-116.251	-31.700	-116.856	-8191	255	
6841.860	1	1	0	0	0.081177	0.16866	0.2748	0.04207	0.29712	0.073272	0.15174	0.14043	0.10518	0.15248	0.20402	0.13558	0.20259	0.067267	0.048083	0.085125	-4.7229	-4.8208	-4.8333	-5.1708	-4.4437	-4.9187	-5.3854	-4.5167	-5.0563	-4.7562	-4.8438	-5.2063	-4.7229	-5.1021	-4.8688	-4.4646	-48.419	210.503	-21.615	77.281	80.764	-36.114	131.842	30.267	171.152	147.445	207.035	-126.779	164.332	114.459	152.057	-65.289	0.0009862	0.00041526	0.00016169	1312.2	6.0699e-06	6.2022e-06	1318.4	355.94	6.1029e-06	5.3903e-06	409.39	134.21	116.02	39.265	2.232e-06	48.986	0.00075816	0.00080029	0.00022354	1331.3	8.758e-06	9.003e-06	1341.1	362.77	8.5579e-06	8.9753e-06	416.37	137.46	119.27	40.406	8.8844e-06	50.72	113.977	-51.123	-45.264	-129.744	-52.799	4.940	-130.091	-125.186	-49.638	21.978	-125.753	-121.769	-121.291	-115.782	-41.267	-116.595	-8191	255	
6841.956	1	1	0	0	0.21332	0.2088	0.10997	0.15426	0.15756	0.066254	0.1926	0.2966	0.1579	0.082705	0.14781	0.16262	0.18911	0.076966	0.11018	0.27419	-4.7375	-4.8042	-4.6771	-5.1875	-4.6021	-5.0354	-5.3042	-4.6687	-5.0354	-4.7958	-4.7312	-5.3063	-4.5292	-4.8792	-5.0104	-4.4854	-18.625	-112.761	-38.700	156.913	23.402	-77.295	200.439	196.563	44.487	-129.253	167.076	168.305	80.196	61.630	135.041	171.058	0.0008159	0.00025028	0.00017998	1311.6	5.3152e-06	4.9978e-06	1320.1	356.42	1.2385e-05	5.4013e-06	408.16	135.02	116.77	39.47	6.2761e-06	49.036	0.00078084	0.00084093	0.00023446	1335	8.9998e-06	9.2311e-06	1344.8	363.72	9.1063e-06	9.7095e-06	417.63	138.05	119.56	40.588	9.3301e-06	50.826	110.531	-24.184	-33.287	-129.632	-23.755	14.263	-130.123	-125.187	-64.955	4.263	-125.582	-121.514	-121.040	-115.833	5.798	-116.786	-8191	255	
6842.052	1	1	0	0	0.14607	0.037719	0.24321	0.22451	0.25421	0.068965	0.29128	0.052288	0.057797	0.10619	0.053326	0.20532	0.12667	0.20214	0.075916	0.11434	-4.7083	-5.0771	-4.5542	-5.3125	-4.6062	-4.8396	-5.2	-4.5687	-4.6729	-4.8979	-4.7104	-5.3313	-4.8063	-4.8479	-5.1625	-4.9104	-124.877	-122.246	-57.966	191.375	-2.881	-66.621	143.179	123.463	-107.063	78.186	-27.397	167.827	-115.431	138.363	98.852	165.082	0.00098172	0.00040517	0.00013891	1319.9	6.7588e-06	5.0763e-06	1326.8	356.95	3.8889e-06	3.1114e-06	409.7	135.25	116.62	39.599	6.5679e-06	49.525	0.00082058	0.00084858	0.00023672	1338.8	8.9393e-06	9.3515e-06	1349	364.5	8.7231e-06	9.0977e-06	417.88	138.09	119.68	40.709	9.1817e-06	51.033	115.405	-67.086	-36.885	-129.754	-52.066	-21.245	-130.049	-125.084	-45.432	18.278	-125.701	-121.833	-120.991	-116.025	-19.669	-116.897	-8191	255	
6842.149	1	1	0	0	0.22771	0.20448	0.04073	0.19445	0.14486	0.0084723	0.042688	0.1422	0.13314	0.14176	0.13787	0.059419	0.053196	0.14495	0.053822	0.10351	-4.6083	-4.9062	-4.4292	-5.2917	-4.8104	-4.8083	-5.25	-4.6562	-4.9292	-5.0479	-4.5813	-5.1958	-4.9542	-4.6813	-5.2	-4.8042	205.757	210.810	76.121	48.714	213.054	-124.466	191.446	65.007	-49.159	83.468	198.769	-142.477	-51.573	-81.933	29.252	195.928	0.00086979	0.00035123	0.00011715	1321	6.2977e-06	6.7121e-06	1328.9	356.22	8.3015e-06	6.4022e-06	407.85	134.44	117.02	39.626	5.7796e-06	49.227	0.00078697	0.0008391	0.00023321	1341.6	8.7038e-06	9.1766e-06	1351.7	364.27	8.9869e-06	9.1721e-06	418.39	137.9	119.93	40.687	8.9725e-06	50.935	108.481	-80.979	-82.266	-129.744	-23.629	-1.072	-129.899	-125.255	-69.735	13.611	-125.848	-121.794	-121.117	-115.959	-5.820	-116.927	-8191	255	
6842.245	1	1	0	0	0.22337	0.12376	0.02793	0.31802	0.14617	0.12759	0.14398	0.18575	0.1218	0.12636	0.14225	0.29159	0.12983	0.17736	0.14546	0.19898	-4.7979	-4.9854	-4.5229	-5.1896	-4.7708	-4.5687	-5.225	-4.7958	-4.9354	-5.1042	-4.5958	-5.0208	-5.1292	-4.7292	-5.0646	-4.6292	141.240	202.392	127.313	180.495	-135.660	151.403	144.142	109.356	37.710	-56.636	159.592	-108.684	107.824	189.689	27.728	89.030	0.0010202	0.00066323	0.00016781	1323.2	6.1093e-06	3.5114e-06	1335	357.49	1.2226e-05	4.1147e-06	412.48	135.43	116.95	39.703	7.0898e-06	49.661	0.00079839	0.00086275	0.00023904	1343.9	8.9826e-06	9.3151e-06	1355.2	364.71	9.3975e-06	9.4092e-06	419.98	138.59	120.4	40.844	9.4741e-06	51.22	112.193	-76.922	-59.298	-129.678	-41.117	36.036	-129.906	-125.074	-35.710	-22.806	-125.717	-121.774	-121.293	-116.116	-32.004	-117.072	-8191	255	
6842.365	1	1	0	0	0.08527	0.1414	0.11123	0.31318	0.082596	0.25334	0.19829	0.14776	0.053824	0.18808	0.20216	0.18722	0.18995	0.23614	0.069901	0.18992	-4.475	-5.1354	-4.6292	-5.0396	-5.2021	-4.5417	-5.2146	-4.6833	-4.7583	-5.2042	-4.5604	-5.0854	-5.1562	-4.7458	-5.2208	-4.9313	79.136	-116.860	31.213	212.964	-24.451	184.578	205.801	197.153	181.235	-35.147	157.461	-120.881	94.322	-81.200	97.563	49.503	0.0008704	0.00047593	9.3142e-05	1330.3	5.32e-06	5.5231e-06	1337.9	359.61	6.6822e-06	3.5686e-06	413.39	135.79	117.9	39.826	2.9214e-06	49.783	0.0008232	0.00088414	0.00025412	1350.6	9.4894e-06	9.9689e-06	1361	367.22	9.8057e-06	9.743e-06	422.37	139.31	121.08	41.009	9.6266e-06	51.352	110.714	-50.595	-24.624	-129.612	-47.661	-4.546	-130.104	-125.290	-84.469	15.681	-125.778	-121.624	-121.262	-116.082	-41.869	-116.858	-8191	255	
6842.462	1	1	0	0	0.098698	0.042156	0.13722	0.29548	0.13258	0.15798	0.20008	0.19105	0.037927	0.17298	0.12794	0.25343	0.30587	0.072928	0.28685	0.097664	-4.3917	-5.2438	-4.4896	-5.0813	-4.8917	-4.4187	-5.2375	-4.9187	-4.7083	-5.25	-4.825	-4.9979	-5.4	-4.7542	-5.0604	-5.0687	67.205	104.373	109.136	172.071	6.790	-52.356	112.865	136.320	-61.982	38.334	170.947	200.516	195.449	127.291	68.686	152.654	0.00091694	0.00044011	0.00018164	1333.1	4.4917e-06	4.6192e-06	1334.6	360.03	4.0349e-06	6.9963e-06	413.13	135.72	117.66	39.673	3.7383e-06	49.72	0.00085826	0.00090304	0.00024794	1351.8	9.4352e-06	1.0084e-05	1359.6	367.51	9.6084e-06	9.508e-06	421.43	139.07	120.83	40.94	9.5532e-06	51.341	111.946	-41.661	-43.865	-129.764	-33.202	40.033	-130.023	-125.310	-33.907	23.137	-125.546	-121.536	-121.007	-116.131	21.363	-116.844	-8191	255	
6842.558	1	1	0	0	0.079158	0.17555	0.036231	0.27655	0.056004	0.17618	0.29293	0.18311	0.14487	0.31208	0.14967	0.15539	0.041057	0.10723	0.076661	0.11588	-4.3896	-5.0479	-4.7708	-4.7688	-4.9292	-4.4062	-5.2833	-5.0146	-4.4229	-5.0833	-4.8708	-4.6958	-5.1854	-4.7	-5.1438	-4.9792	173.217	-38.432	-18.746	166.264	70.142	211.495	142.188	153.187	-93.474	64.753	100.589	61.576	-102.424	-116.537	76.639	23.412	0.00094668	0.00041227	9.6794e-05	1333.1	2.9576e-06	3.1127e-06	1333.3	359.95	8.2483e-06	2.883e-06	412.74	135.77	117.89	39.892	4.7424e-06	49.498	0.0008115	0.00087481	0.00024438	1352.9	9.2777e-06	9.8797e-06	1358.8	367.65	9.5043e-06	9.3796e-06	421.69	139.03	120.88	40.986	9.3724e-06	51.246	114.643	-40.661	-61.292	-129.654	-20.756	11.526	-129.920	-125.296	-47.185	46.926	-125.679	-121.587	-120.895	-116.358	-13.203	-116.736	-8191	255	
6842.629	1	1	0	0	0.039075	0.21909	0.090905	0.20981	0.27414	0.088704	0.18933	0.23202	0.12103	0.14503	0.22756	0.13578	0.055543	0.22458	0.090848	0.034662	-4.2792	-5.2104	-4.7271	-4.8438	-5.1479	-4.4875	-4.9854	-5.0229	-4.4354	-5.0979	-4.9042	-4.7646	-5.3104	-4.8167	-4.8333	-5.2562	27.959	99.506	124.377	202.384	-45.111	-10.949	192.564	66.550	-78.436	126.405	-62.579	40.771	110.388	-113.113	-84.306	144.063	0.00092045	0.00036681	0.00013428	1330.1	4.191e-06	6.115e-06	1334.4	360.18	6.5784e-06	3.0202e-06	411.49	135.92	117.57	39.767	2.9035e-06	49.508	0.0008144	0.0008772	0.00024264	1351.6	9.0485e-06	9.603e-06	1362	367.25	9.0785e-06	9.2438e-06	421.2	138.89	120.67	40.913	9.0459e-06	51.239	112.361	-68.677	-51.848	-129.629	-25.529	-17.129	-129.978	-125.306	-40.237	18.760	-125.677	-121.725	-121.173	-116.063	-20.392	-116.760	-8191	255	
6842.748	1	1	0	0	0.022708	0.13135	0.10184	0.25072	0.029397	0.1015	0.29928	0.15993	0.19876	0.030266	0.35438	0.15415	0.017506	0.33514	0.18213	0.083332	-4.2333	-5.0646	-4.85	-4.7063	-5.0958	-4.5188	-4.9083	-5.2208	-4.5729	-5.1021	-5	-4.6542	-5.2333	-4.8792	-4.7625	-5.45	-72.529	-42.907	118.460	194.268	56.961	73.618	163.249	187.017	-82.287	-102.500	149.076	38.534	-34.092	169.773	90.953	-100.983	0.00096385	0.0006938	0.00010031	1332.2	2.429e-06	6.2664e-06	1335.8	360.41	9.6059e-06	5.3866e-06	410.95	135.66	117.75	39.706	6.2185e-06	49.664	0.00081008	0.00086189	0.00023758	1351.3	9.0251e-06	9.3861e-06	1357.9	367.33	9.1681e-06	8.9826e-06	420.02	138.92	120.68	40.854	8.9688e-06	51.303	112.898	-75.075	-47.244	-129.835	-28.700	-4.366	-129.952	-125.292	-45.721	18.122	-125.851	-121.832	-121.097	-116.148	-14.362	-116.701	-8191	255	
6842.844	1	1	0	0	0.038761	0.094897	0.15176	0.18199	0.071612	0.12015	0.14882	0.15964	0.20326	0.19652	0.15575	0.17949	0.087775	0.16353	0.060204	0.18099	-4.3688	-4.9333	-4.9292	-4.725	-4.8583	-4.6	-4.6917	-5.0563	-4.3938	-5.0167	-5.1042	-4.7333	-5.1417	-4.7312	-4.6333	-5.3562	37.236	-15.020	96.420	156.215	-11.763	25.855	78.936	148.976	-76.587	187.762	107.905	147.715	185.747	-140.168	20.489	215.991	0.00093837	0.00043479	0.00016092	1327	6.2595e-06	2.3769e-06	1332.3	358.49	1.3158e-05	5.8175e-06	411.79	135.4	117.38	39.539	4.8887e-06	49.658	0.0007921	0.00082766	0.00023355	1346.8	8.6407e-06	9.0047e-06	1354.2	365.85	8.5728e-06	8.7223e-06	419.59	138.54	120.16	40.685	8.5178e-06	51.157	110.947	-44.434	-45.093	-129.724	-18.450	-17.812	-129.796	-125.061	-70.928	-7.646	-125.798	-121.815	-121.095	-116.135	-23.105	-116.919	-8191	255	
6842.941	1	1	0	0	0.096187	0.10568	0.12571	0.39546	0.19448	0.18248	0.071458	0.11141	0.19169	0.21202	0.15826	0.1239	0.20153	0.06284	0.18546	0.0094124	-4.4271	-5.0646	-5.1208	-4.7188	-5.0563	-4.7188	-4.6438	-5.0708	-4.5521	-4.8229	-5.1937	-4.475	-5.1479	-4.8979	-4.6667	-5.3063	147.067	-69.408	190.475	187.108	124.006	32.276	-104.252	156.072	-34.177	-123.791	161.608	143.219	190.202	129.432	-65.520	-16.802	0.00089941	0.00070505	0.00020907	1323.7	3.7753e-06	4.6594e-06	1325.8	359.15	8.6438e-06	4.5124e-06	411.32	135.66	116.27	39.568	2.8592e-06	49.228	0.00074688	0.00078804	0.00021912	1344.8	8.3292e-06	8.3605e-06	1351.5	365.1	8.4147e-06	8.5221e-06	418.53	138.18	119.69	40.682	8.3189e-06	51.038	109.520	-65.693	-33.855	-129.788	-32.882	17.362	-129.846	-125.006	-47.657	3.820	-125.614	-121.726	-121.147	-116.008	-10.374	-116.583	-8191	255	
6843.061	1	1	0	0	0.14143	0.10206	0.083487	0.34215	0.078627	0.2608	0.25427	0.22023	0.080096	0.13877	0.15134	0.098459	0.10441	0.3013	0.14931	0.13517	-4.4208	-4.8271	-5.1021	-4.8125	-4.9583	-5.0479	-4.7562	-4.9833	-4.625	-4.9208	-5.2063	-4.8729	-4.9729	-5.1813	-4.4792	-5.1104	111.378	-105.363	-8.704	183.777	172.183	88.088	154.185	68.986	-63.580	28.681	130.381	164.079	13.425	129.566	-53.619	68.058	0.00093202	0.00065607	0.00011668	1319	8.3247e-06	4.3334e-06	1324.1	355.8	1.0687e-05	6.031e-06	409	134.83	116.69	39.348	3.9822e-06	49.399	0.000751	0.00076707	0.00021344	1339	8.1362e-06	8.2566e-06	1346.8	364.1	8.0323e-06	8.2854e-06	416.68	137.84	119.38	40.506	7.9104e-06	50.948	110.860	-60.744	-42.231	-129.753	-32.591	-15.242	-129.998	-125.052	-44.111	16.509	-125.874	-121.774	-121.435	-116.278	-21.438	-116.716	-8191	255	
6843.157	1	1	0	0	0.035487	0.16293	0.11697	0.11908	0.16712	0.047377	0.21361	0.31369	0.11493	0.14474	0.17294	0.21072	0.29471	0.26647	0.077844	0.039269	-4.4313	-4.5188	-4.9729	-4.5687	-4.7417	-4.8354	-4.6562	-5.1854	-4.7208	-4.5958	-5.2167	-4.5417	-4.8958	-5.0458	-4.3729	-5.2708	-1.711	204.883	0.021	203.082	10.785	-80.331	202.771	150.119	41.234	108.873	135.879	72.034	3.549	124.411	-142.835	22.142	0.00094998	0.00057805	0.00017367	1309.6	3.626e-06	4.9483e-06	1314.3	355.31	8.1176e-06	3.0038e-06	407.43	133.68	116.03	39.285	6.5791e-06	49.231	0.0007022	0.00074603	0.00020039	1331.6	7.6126e-06	7.8072e-06	1338.2	362.61	7.826e-06	7.6831e-06	415.88	137.1	118.71	40.379	7.5701e-06	50.762	112.771	-65.209	-78.141	-129.579	-57.801	17.024	-130.014	-125.102	-41.762	13.183	-125.697	-121.639	-120.953	-116.097	-4.078	-116.892	-8191	255	
6843.229	1	1	0	0	0.053571	0.24473	0.14996	0.25207	0.14162	0.098223	0.15308	0.19246	0.1518	0.20854	0.14996	0.089591	0.029915	0.082466	0.094696	0.20929	-4.6896	-4.7292	-5.1958	-4.8229	-4.8729	-4.9854	-4.5083	-5.1479	-5.0042	-4.5188	-5.2667	-4.7083	-4.7542	-5.0021	-4.5521	-5.0458	87.361	15.700	201.021	138.837	168.618	-6.862	118.487	-85.085	3.055	88.083	209.834	-123.932	77.433	-92.794	13.703	116.415	0.00096682	0.00051936	0.00013561	1305.9	4.4515e-06	3.7306e-06	1308.5	354.59	9.8912e-06	5.1291e-06	404.64	133.75	116.11	39.168	4.3444e-06	49.182	0.00068654	0.00068857	0.00019112	1325.4	7.2851e-06	7.2366e-06	1333.6	361.17	7.352e-06	7.3352e-06	414.26	136.77	118.6	40.238	7.2391e-06	50.702	112.825	-43.303	-56.859	-129.660	-28.027	-13.951	-130.076	-124.995	-36.431	6.311	-125.646	-121.621	-121.184	-115.965	-28.014	-116.606	-8191	255	
6843.350	1	1	0	0	0.14868	0.083663	0.2378	0.29886	0.077693	0.12504	0.2776	0.10267	0.015372	0.22656	0.26673	0.13921	0.044845	0.21863	0.068631	0.16194	-4.7375	-4.4354	-5.1813	-4.9021	-4.6417	-4.9854	-4.7208	-4.8458	-4.8583	-4.5	-5.1667	-4.7896	-4.6833	-5.1625	-4.4417	-4.9479	98.960	-112.950	186.256	162.985	-111.622	162.827	80.768	210.628	-3.382	-56.413	189.329	176.854	-127.230	99.057	-91.506	-71.107	0.0009433	0.00078942	0.00015705	1302.8	6.228e-06	5.9709e-06	1310.7	354.91	6.2106e-06	4.4892e-06	407.05	133.36	115.64	39.196	3.7033e-06	49.158	0.00067197	0.00066741	0.00018248	1323.4	7.1358e-06	7.35e-06	1332.2	361.08	7.0248e-06	7.092e-06	414.05	136.59	118.38	40.224	7.1387e-06	50.581	107.814	-68.994	-46.625	-129.631	-15.051	-2.376	-130.051	-125.180	-43.586	-13.663	-125.633	-121.596	-121.052	-116.060	-30.647	-116.925	-8191	255	
6843.446	1	1	0	0	0.04	0.039782	0.25415	0.14492	0.19054	0.047494	0.1408	0.092879	0.065122	0.024175	0.20667	0.22206	0.12081	0.16169	0.11045	0.31606	-4.6625	-4.5521	-5.0875	-4.9771	-4.6229	-5.1021	-4.5792	-5.0208	-4.8771	-4.525	-5.1333	-4.8479	-4.5771	-5.175	-4.5104	-4.7188	86.513	-43.700	214.302	148.596	18.588	127.760	83.541	-59.615	49.563	-131.487	135.800	138.842	-65.868	102.467	-104.134	106.074	0.00093851	0.00057431	0.00014861	1301	2.8219e-06	5.1871e-06	1307.4	355.13	7.1188e-06	6.028e-06	405.44	133.47	115.45	39.069	5.6786e-06	48.964	0.00064967	0.00066925	0.00018139	1321.4	6.9334e-06	6.8205e-06	1329.2	361.26	7.1258e-06	6.9949e-06	414.18	136.75	118.3	40.209	6.9209e-06	50.559	110.906	-74.488	-38.454	-129.612	-52.408	0.992	-130.076	-125.116	-44.818	16.778	-125.678	-121.687	-121.124	-116.373	2.647	-116.800	-8191	255	
6843.542	1	1	0	0	0.035356	0.17146	0.12062	0.2031	0.18496	0.21204	0.22294	0.19961	0.050609	0.13625	0.10642	0.1381	0.21799	0.11523	0.12158	0.12502	-4.8708	-4.4458	-5.1104	-5.0542	-4.4125	-4.9958	-4.775	-4.8896	-4.9729	-4.4563	-5.2104	-5.1146	-4.5708	-5.0687	-4.5437	-4.7667	29.327	146.300	213.316	169.986	77.649	165.575	155.496	167.438	162.445	-139.353	84.762	167.397	-85.784	175.243	-68.455	90.947	0.00092011	0.00067207	0.00013712	1300.6	5.7289e-06	3.2269e-06	1307.7	353.78	9.1471e-06	4.1342e-06	405.79	133.62	116.03	39.152	5.9437e-06	48.821	0.00064869	0.00065843	0.00018575	1318.9	7.1007e-06	6.9565e-06	1328.7	360.41	6.9383e-06	7.0448e-06	413.93	136.53	118.36	40.143	7.1477e-06	50.511	110.839	-55.225	-41.818	-129.691	-49.038	0.016	-129.868	-125.205	-53.684	2.357	-125.340	-121.675	-121.162	-116.148	-16.375	-116.484	-8191	255	
6843.661	1	1	0	0	0.077058	0.11471	0.0073849	0.15386	0.16805	0.080048	0.21858	0.11051	0.22948	0.088708	0.14833	0.11689	0.11585	0.23254	0.10577	0.10506	-4.8	-4.4812	-4.9625	-5.2021	-4.4333	-5.1167	-4.8688	-4.8354	-5.0188	-4.4542	-4.7771	-4.9812	-4.4146	-4.9896	-4.7979	-4.8375	-107.309	126.053	108.021	161.950	-79.320	175.691	152.706	197.612	-90.792	161.655	-90.473	196.331	179.642	192.775	-46.323	59.023	0.00096087	0.00051701	0.00012869	1296.4	4.6479e-06	4.2663e-06	1299.9	353.94	7.4874e-06	6.05e-06	404.48	132.65	114.74	39.054	4.3997e-06	48.751	0.00062519	0.00063552	0.00017567	1316.2	6.6301e-06	6.7071e-06	1324.4	360.15	6.6037e-06	6.717e-06	412.48	135.92	117.9	40.087	6.5933e-06	50.282	113.985	-62.384	-46.253	-129.716	-21.913	35.929	-129.929	-125.039	-41.618	15.532	-125.615	-121.590	-121.008	-116.100	-20.662	-116.675	-8191	255	
6843.757	1	1	0	0	0.069254	0.075693	0.28827	0.2486	0.20908	0.26166	0.25183	0.14829	0.084867	0.23873	0.032794	0.15108	0.16493	0.14722	0.26351	0.23807	-4.9125	-4.7271	-4.9729	-5.2	-4.3604	-5.1771	-5.0479	-4.6687	-5.1604	-4.5042	-4.7729	-5.2875	-4.6021	-5.2042	-4.8583	-4.4479	59.810	-36.391	185.843	174.094	24.118	-23.764	147.826	154.435	-6.860	195.077	25.608	167.073	-57.807	147.141	-99.712	164.702	0.0009051	0.00037637	0.00013936	1288.1	6.2509e-06	5.912e-06	1297.2	352.52	6.6252e-06	4.4341e-06	403.82	132.88	114.91	38.812	4.8298e-06	48.916	0.0006074	0.00060737	0.00016599	1310.1	6.5498e-06	6.6673e-06	1320.2	358.92	6.5857e-06	6.4352e-06	411.79	135.94	117.78	39.977	6.4444e-06	50.326	110.541	-68.294	-45.159	-129.627	-54.472	27.301	-129.932	-124.983	-57.072	-13.987	-125.772	-121.621	-121.069	-116.188	-42.598	-116.628	-8191	255	
6843.853	1	1	0	0	0.10843	0.1477	0.13265	0.23146	0.12572	0.11671	0.15172	0.11994	0.10069	0.19485	0.083938	0.15079	0.080034	0.17744	0.2144	0.34671	-4.6771	-4.5437	-4.6813	-5.3125	-4.5583	-4.9833	-5.0875	-4.6792	-5.0875	-4.5958	-4.7042	-5.1875	-4.7875	-5.1	-5.0625	-4.45	-81.292	-15.541	12.019	-104.916	57.695	88.932	-142.439	146.837	191.556	180.208	198.652	150.357	-118.084	214.904	146.270	-124.972	0.00093679	0.00041709	0.00012533	1288.7	8.0028e-06	5.2895e-06	1292	350.74	9.7877e-06	6.2266e-06	404.38	132.82	115.45	38.906	4.3178e-06	48.885	0.00061644	0.00060413	0.00016914	1308.1	6.5381e-06	6.4651e-06	1320	358.32	6.3176e-06	6.4098e-06	411.44	135.84	117.88	39.998	6.2422e-06	50.236	113.410	-74.371	-35.263	-129.562	-40.598	26.608	-129.984	-125.199	-62.093	23.537	-125.541	-121.757	-120.872	-115.954	-26.341	-116.919	-8191	255	
6843.925	1	1	0	0	0.21681	0.074258	0.19893	0.33429	0.11019	0.073071	0.16939	0.13952	0.11259	0.07699	0.14181	0.26565	0.20026	0.21833	0.32315	0.18229	-4.6354	-4.7229	-4.7604	-5.3479	-4.6	-5.0062	-5.2417	-4.5958	-4.8521	-4.9229	-4.6958	-5.1458	-4.5146	-4.8521	-5.075	-4.6708	-0.742	-119.470	46.129	185.304	-42.903	118.961	137.480	171.652	120.854	-66.648	205.310	143.077	109.126	-95.931	-12.172	178.835	0.00093028	0.00043591	0.00013151	1291.1	3.7474e-06	5.6029e-06	1297.9	351.82	6.4811e-06	5.261e-06	403.82	132.76	115.35	38.785	5.0731e-06	48.568	0.0006148	0.00059028	0.00016454	1310	6.4332e-06	6.3391e-06	1318.4	358.1	6.4091e-06	6.3059e-06	410.79	135.66	117.64	39.886	6.1434e-06	50.088	108.803	-44.386	-67.027	-129.594	-13.778	5.621	-129.867	-125.224	-74.751	5.462	-125.721	-121.540	-121.024	-116.208	-22.355	-116.655	-8191	255	
6844.045	1	1	0	0	0.26272	0.12112	0.04032	0.14275	0.07739	0.043609	0.092854	0.14472	0.29692	0.24462	0.14942	0.29986	0.091484	0.15032	0.18735	0.098436	-4.6312	-4.9417	-4.4896	-5.2708	-4.6771	-4.6083	-5.2792	-4.7292	-5.0437	-4.8708	-4.5021	-5.2812	-4.7521	-4.7771	-4.7667	-4.4521	-108.805	-40.959	200.275	165.322	194.251	48.590	131.195	194.387	111.464	149.801	-66.138	164.888	-97.580	157.467	99.583	47.732	0.00089707	0.00048753	0.00011174	1287.9	4.4675e-06	4.9183e-06	1293	350.12	7.1174e-06	4.5455e-06	401.79	132.58	114.45	38.794	4.4499e-06	48.357	0.00059177	0.0005642	0.00015864	1304.9	6.2488e-06	6.3833e-06	1314.6	357.29	6.2283e-06	6.11e-06	410.38	135.45	117.37	39.904	6.0667e-06	49.954	110.822	-62.392	-56.004	-129.641	-55.331	12.399	-129.899	-125.265	-33.225	29.904	-125.573	-121.806	-120.997	-115.872	-23.447	-116.837	-8191	255	
6844.142	1	1	0	0	0.23776	0.15739	0.042512	0.16452	0.18006	0.11618	0.1945	0.2065	0.16931	0.13584	0.17572	0.095841	0.11901	0.1285	0.095448	0.22032	-4.5958	-4.8646	-4.6375	-5.2	-4.4812	-4.5563	-5.2063	-4.6	-4.9229	-4.9792	-4.4958	-5.1479	-4.9583	-4.7333	-5.0687	-4.7562	-35.723	-91.687	30.405	200.432	35.774	-74.772	134.853	174.227	90.855	-91.659	127.644	192.762	-50.667	-120.175	-62.420	162.120	0.00086198	0.00044928	5.7779e-05	1286.5	3.7287e-06	4.8557e-06	1292	349.29	7.7447e-06	6.4089e-06	401.89	132.71	114.89	38.75	4.9868e-06	48.305	0.00058474	0.00056603	0.00015869	1303.8	6.1525e-06	6.2439e-06	1312.6	356.41	6.1477e-06	5.9412e-06	410.21	135.66	117.26	39.857	5.9183e-06	49.964	114.061	-68.589	-23.680	-129.677	-23.160	-19.515	-129.878	-125.041	-51.511	-11.535	-125.469	-121.906	-120.962	-115.936	-14.893	-116.909	-8191	255	
6844.238	1	1	0	0	0.03996	0.12194	0.3328	0.14519	0.075196	0.27939	0.10267	0.15753	0.089784	0.095247	0.062482	0.16724	0.10088	0.075825	0.30379	0.16029	-4.5833	-5.0146	-4.5896	-5.3417	-4.6792	-4.5896	-5.4125	-4.85	-4.7833	-5.1562	-4.7771	-5.0854	-4.8313	-4.5875	-5.1771	-4.8646	135.601	-135.862	-78.827	201.175	133.467	85.971	173.932	166.595	-95.408	47.079	60.971	11.649	-118.701	102.445	1.489	121.310	0.00089132	0.00036396	0.00016641	1281.2	5.1021e-06	6.1163e-06	1287.7	348.64	6.5166e-06	3.757e-06	402.49	132.19	114.79	38.715	2.9634e-06	48.291	0.00057961	0.00054156	0.00015747	1300	5.9833e-06	6.062e-06	1310.1	355.85	6.06e-06	5.8428e-06	409.83	135.19	117.27	39.845	6.1459e-06	49.928	112.787	-27.860	-70.345	-129.496	-44.431	22.249	-130.051	-125.060	-47.262	-5.343	-125.495	-121.733	-120.990	-115.730	-20.230	-116.761	-8191	255	
6844.334	1	1	0	0	0.22179	0.15958	0.19078	0.23207	0.24758	0.082164	0.3111	0.13664	0.19742	0.2259	0.26655	0.13713	0.052359	0.098818	0.026437	0.16802	-4.3875	-5.0375	-4.6188	-5.2312	-5.0604	-4.7583	-5.3729	-4.9396	-4.7667	-5.0667	-4.5708	-4.9146	-5.0521	-4.6167	-5.1188	-4.6854	123.396	21.785	-20.842	208.353	21.203	-122.039	107.093	138.071	44.301	123.703	200.893	-78.475	201.335	190.101	14.189	80.082	0.00091108	0.00041782	0.00018709	1284.2	4.6007e-06	5.9671e-06	1288.4	349.73	8.7174e-06	4.9091e-06	402.26	132.53	114.44	38.676	5.2512e-06	48.198	0.00058051	0.00053937	0.00014994	1300.2	5.8917e-06	6.027e-06	1309.2	355.93	5.9583e-06	5.7805e-06	409.48	135.41	117	39.848	5.7854e-06	49.861	113.946	-47.304	-48.170	-129.510	-29.969	-7.413	-129.844	-125.079	-63.081	2.190	-125.707	-121.506	-120.997	-115.956	-14.245	-116.645	-8191	255	
6844.453	1	1	0	0	0.19196	0.16987	0.096552	0.25025	0.23003	0.1485	0.058299	0.040853	0.11196	0.28034	0.10703	0.035166	0.066453	0.2933	0.10589	0.20706	-4.2896	-5.0312	-4.6062	-5.1188	-4.9833	-4.5396	-5.1646	-4.9042	-4.7458	-5.2875	-4.7188	-4.7521	-4.9021	-4.5479	-5.1167	-5.0687	-4.416	149.420	34.812	206.244	-12.373	-60.262	213.595	135.819	105.012	103.704	129.950	4.401	125.320	212.463	-85.042	67.940	0.0009039	0.00047764	0.00011372	1279.7	4.9606e-06	3.8829e-06	1283.2	349.22	7.0677e-06	5.3411e-06	401.92	132.25	114.11	38.773	6.5352e-06	48.419	0.00056777	0.00054117	0.00015278	1297.5	5.7159e-06	6.0096e-06	1307.5	356.31	5.9426e-06	5.7814e-06	409.09	135.23	116.88	39.808	5.6894e-06	49.927	111.916	-60.306	-56.565	-129.578	-27.391	16.351	-130.015	-125.029	-29.001	8.065	-125.692	-121.567	-120.906	-116.067	-25.607	-116.851	-8191	255	
6844.526	1	1	0	0	0.052852	0.19531	0.20676	0.03602	0.080764	0.27616	0.23704	0.045234	0.081077	0.05067	0.23015	0.16424	0.2531	0.16244	0.10831	0.045441	-4.2583	-5.225	-4.6625	-4.8646	-5.1042	-4.4083	-5.0833	-4.9688	-4.4167	-5.0667	-4.9062	-4.9187	-5.3042	-4.6	-4.9833	-4.8583	2.298	153.714	-61.521	35.892	-138.713	-26.490	168.295	155.741	-6.604	-62.327	-86.063	-10.629	171.532	155.188	134.831	89.266	0.00094946	0.0005848	0.00015733	1279.6	3.9846e-06	5.7572e-06	1285	350.53	8.4698e-06	6.0391e-06	399.38	132.15	114.15	38.757	4.5758e-06	48.46	0.00057622	0.00053601	0.00015626	1296.4	5.7287e-06	5.8386e-06	1306.1	356.02	6.0244e-06	5.7156e-06	408.31	135.15	116.93	39.856	6.004e-06	49.902	109.017	-54.842	-73.757	-129.519	-7.677	7.369	-129.970	-125.064	-66.470	13.753	-125.527	-121.564	-120.878	-116.011	-18.374	-116.684	-8191	255	
6844.622	1	1	0	0	0.1301	0.15106	0.096597	0.24262	0.158	0.12869	0.1491	0.20178	0.18646	0.30758	0.076872	0.25206	0.26094	0.24474	0.11651	0.093479	-4.2188	-4.9417	-4.6854	-4.6958	-5.0042	-4.4625	-5.1125	-5.1229	-4.6562	-5.2417	-4.6875	-4.5813	-5.0146	-4.6875	-4.8208	-5.2208	40.089	38.167	-11.370	180.465	97.834	-71.253	52.754	147.983	-61.311	115.647	125.169	154.126	172.173	189.973	-108.511	-18.555	0.00099018	0.00036286	0.00015324	1282	5.8013e-06	6.1138e-06	1284.5	350.02	9.7521e-06	4.8578e-06	402.17	132.17	114.39	38.737	3.7511e-06	48.346	0.0005845	0.00052383	0.0001494	1298.7	5.7003e-06	5.9845e-06	1307.6	355.83	5.9453e-06	5.756e-06	409.15	135.18	117.14	39.799	5.8371e-06	49.869	113.808	-60.332	-53.768	-129.430	-26.402	-14.485	-129.769	-125.224	-68.760	8.403	-125.647	-121.481	-120.927	-115.988	-7.451	-116.710	-8191	255	
6844.743	1	1	0	0	0.11245	0.053565	0.012358	0.17615	0.17978	0.16432	0.14165	0.30591	0.11078	0.059107	0.061399	0.21969	0.21307	0.36956	0.12669	0.17079	-4.4437	-5.0375	-4.7396	-4.6771	-5.2854	-4.6937	-5.0146	-5.1562	-4.5125	-5.1979	-4.7875	-4.7396	-5.4417	-4.8771	-4.6646	-4.9167	63.126	36.345	101.871	176.867	-76.174	-113.887	-113.126	190.090	-42.577	-16.830	170.496	80.402	165.362	-114.053	-55.618	187.985	0.00089428	0.0005855	0.00016527	1278.7	5.1474e-06	4.2352e-06	1286.2	350.24	6.8436e-06	4.2423e-06	400.92	132.59	114.19	38.664	4.5219e-06	48.381	0.00058182	0.00053886	0.0001505	1298	5.694e-06	5.8105e-06	1307.9	356.14	5.9348e-06	5.8243e-06	408.68	135.31	116.86	39.785	5.792e-06	49.952	110.303	-61.733	-56.836	-129.608	-7.698	46.968	-129.823	-125.096	-37.520	19.836	-125.598	-121.505	-121.040	-115.992	-22.680	-116.751	-8191	255	
6844.837	1	1	0	0	0.22782	0.14425	0.21699	0.34481	0.042748	0.1968	0.28107	0.084177	0.090714	0.1459	0.14763	0.12918	0.08222	0.10214	0.22148	0.25917	-4.1271	-4.8771	-4.8771	-4.7479	-5.0292	-4.6625	-4.7792	-5.1833	-4.5958	-4.9125	-4.9187	-4.4396	-5.1229	-4.7104	-4.7208	-5.3	183.206	127.726	-83.130	167.460	-48.720	-141.067	169.732	-68.390	-9.973	109.000	175.584	189.791	-134.825	208.818	155.741	159.867	0.00091467	0.00031469	9.2775e-05	1278.3	3.612e-06	4.7489e-06	1280.4	349.62	1.1306e-05	5.6127e-06	400.09	133.12	114.77	38.757	4.1115e-06	48.421	0.00057387	0.00053672	0.00014789	1295.8	5.5896e-06	5.8126e-06	1305	355.96	5.9058e-06	5.5434e-06	408.61	135.24	117	39.794	5.7985e-06	49.801	113.264	-41.661	-38.819	-129.527	-33.965	20.739	-129.738	-124.990	-64.143	-9.428	-125.615	-121.572	-120.901	-116.125	-37.564	-116.777	-8191	255	
6844.933	1	1	0	0	0.12531	0.24504	0.19741	0.27795	0.082909	0.23019	0.29751	0.3428	0.094089	0.13575	0.12821	0.27192	0.23601	0.12947	0.0038364	0.053421	-4.5417	-4.9479	-4.9437	-4.8771	-5.1292	-4.7208	-4.7229	-5.1625	-4.5	-4.975	-4.8938	-4.4667	-5.1562	-4.8292	-4.8229	-5.1146	-40.361	1.765	106.136	167.367	-102.926	-8.762	154.446	164.305	111.005	37.143	-128.498	-103.705	126.281	179.878	163.920	115.880	0.00088993	0.00055647	0.00013292	1276.2	6.9652e-06	4.7146e-06	1280.9	349.07	9.257e-06	4.3944e-06	400.29	131.88	113.45	38.597	3.3567e-06	48.327	0.00057466	0.00052415	0.00014002	1295.6	5.6531e-06	5.6247e-06	1304.2	355.31	5.8123e-06	5.6404e-06	408.58	134.96	116.7	39.752	5.5377e-06	49.864	113.254	-37.985	-41.279	-129.448	-23.778	11.887	-129.747	-125.090	-51.230	30.832	-125.766	-121.538	-120.851	-116.126	1.621	-116.697	-8191	255	
6845.030	1	1	0	0	0.10909	0.038711	0.030977	0.31096	0.24771	0.070928	0.16456	0.2806	0.13823	0.16002	0.2076	0.11933	0.11225	0.24841	0.1812	0.082694	-4.375	-4.8646	-5.1333	-4.6562	-5.0646	-4.8208	-4.5896	-5.2146	-4.4583	-4.7	-5.0375	-4.5312	-4.9187	-5.1708	-4.5396	-5.1396	-113.929	-9.958	-62.305	182.216	3.628	146.916	149.786	160.931	120.019	-84.560	-86.421	204.276	-130.899	-135.695	-135.502	-99.222	0.00096052	0.00048798	0.00011243	1274.7	4.4766e-06	5.8518e-06	1284.9	349.79	9.7796e-06	4.4624e-06	400.89	131.71	114.43	38.588	3.9392e-06	48.236	0.00056756	0.00052645	0.00014068	1292.1	5.6469e-06	5.6403e-06	1303.8	355.91	5.826e-06	5.6074e-06	408.26	134.92	116.96	39.733	5.6841e-06	49.809	112.971	-57.829	-26.095	-129.527	-47.147	9.900	-129.981	-124.991	-48.108	-4.339	-125.748	-121.509	-120.967	-115.842	-26.428	-116.455	-8191	255	
6845.126	1	1	0	0	0.15125	0.22506	0.2596	0.25049	0.22021	0.16925	0.18944	0.10557	0.14057	0.079019	0.17752	0.025436	0.153	0.032344	0.15124	0.03166	-4.475	-4.525	-5.1521	-4.7188	-4.8042	-5.1625	-4.8167	-5.3354	-5.0021	-4.9396	-5.4354	-4.8125	-4.9771	-5.0458	-4.4521	-5.2604	-11.842	-79.656	99.200	214.634	162.194	163.283	182.735	-107.229	169.638	-95.977	164.841	-96.067	171.054	-64.716	142.043	115.029	0.00092162	0.00059505	0.00017393	1273	5.9909e-06	4.7852e-06	1277.3	347.99	8.1144e-06	4.8766e-06	397.75	132.53	114.3	38.656	5.2564e-06	48.079	0.00056256	0.00052329	0.00014105	1293.2	5.7381e-06	5.4827e-06	1302.6	354.81	5.5676e-06	5.5653e-06	407.77	135.17	116.96	39.727	5.5869e-06	49.699	110.546	-42.195	-53.340	-129.511	-16.759	0.773	-130.001	-125.077	-64.024	9.076	-125.675	-121.656	-121.044	-115.739	-5.593	-116.707	-8191	255	
6845.222	1	1	0	0	0.10458	0.14971	0.088673	0.28492	0.10366	0.10983	0.15262	0.11569	0.11064	0.18751	0.26069	0.28988	0.21476	0.12827	0.11803	0.22587	-4.4479	-4.6792	-5.1042	-4.5583	-4.8521	-5.1896	-4.7125	-5.3292	-4.8708	-4.6	-5.35	-4.8104	-5.0146	-5.225	-4.4979	-5.0292	-95.389	22.166	213.341	192.101	129.817	58.757	126.901	140.113	141.601	-79.681	169.267	-120.899	45.390	172.890	-62.339	210.195	0.00093315	0.00041189	0.00015707	1273.6	4.9359e-06	4.5098e-06	1277	347.76	6.3727e-06	2.5278e-06	400.4	132.26	114.73	38.677	5.2913e-06	48.316	0.00056001	0.0005099	0.00014131	1291.3	5.5794e-06	5.5343e-06	1301.9	354.72	5.8013e-06	5.6134e-06	408.17	135.13	116.95	39.784	5.8145e-06	49.824	113.248	-55.696	-51.066	-129.605	-37.106	7.034	-129.776	-125.181	-33.793	18.916	-125.510	-121.476	-120.977	-116.067	-25.694	-116.675	-8191	255	
6845.343	1	1	0	0	0.058864	0.16234	0.27712	0.37854	0.22703	0.11282	0.27475	0.19527	0.17425	0.12197	0.13791	0.11862	0.012426	0.20146	0.2005	0.21873	-4.8187	-4.5188	-5.2188	-4.925	-4.9042	-5.0896	-4.8021	-5.1292	-4.8667	-4.5146	-5.1104	-4.6979	-4.5521	-5.0542	-4.5292	-5.1	213.363	-72.973	174.967	186.547	-84.412	22.964	148.877	189.761	104.266	86.272	155.802	126.238	149.280	142.059	-110.966	182.746	0.00088336	0.00053604	0.00018407	1274.5	5.2885e-06	3.6092e-06	1285.9	349.75	8.5645e-06	4.9988e-06	400.74	132.35	114.61	38.752	6.695e-06	48.371	0.00056072	0.00051685	0.00014488	1295.2	5.6348e-06	5.6975e-06	1306.8	355.93	5.8146e-06	5.8449e-06	409.07	135.13	117.06	39.817	6.0446e-06	49.839	114.248	-72.262	-47.551	-129.638	-33.322	19.265	-129.813	-125.061	-61.303	41.577	-125.463	-121.410	-120.949	-115.917	-12.313	-116.651	-8191	255	
6845.439	1	1	0	0	0.14895	0.04009	0.040919	0.15228	0.15341	0.06806	0.37284	0.16363	0.038553	0.036814	0.16757	0.17805	0.14175	0.25715	0.18139	0.22597	-4.8667	-4.6375	-4.9979	-4.9958	-4.6729	-5.1458	-4.8833	-5.2292	-5.0958	-4.6708	-5.2979	-5.0729	-4.9875	-5.3292	-4.6729	-4.9792	30.862	-35.789	91.421	213.022	-28.670	-112.016	105.894	-54.671	45.976	9.081	-114.521	161.692	6.057	146.637	85.348	162.261	0.00089639	0.00044929	0.00010909	1282.8	3.7712e-06	6.8592e-06	1289.1	349.27	8.8427e-06	4.8099e-06	401.45	132.34	114.19	38.704	3.4806e-06	48.483	0.00058316	0.00055311	0.00015017	1300.3	6.2114e-06	6.1014e-06	1312.1	356.45	6.0009e-06	6.2195e-06	409.03	135.24	117.03	39.874	6.494e-06	50.015	109.504	-41.417	-44.337	-129.678	-46.669	9.757	-129.989	-125.141	-58.076	8.967	-125.749	-121.704	-120.948	-115.858	-6.709	-116.771	-8191	255	
6845.535	1	1	0	0	0.13552	0.088446	0.076208	0.25303	0.20258	0.075385	0.35606	0.33719	0.090513	0.20524	0.042509	0.22566	0.24818	0.13489	0.13731	0.23628	-4.8	-4.5396	-4.9938	-5.1333	-4.4958	-5.0875	-4.8771	-4.9854	-5.0271	-4.5687	-5.1521	-4.9187	-4.5938	-5.0875	-4.6354	-4.8917	97.684	114.369	39.612	129.439	-13.956	134.124	147.363	197.342	-104.796	165.678	-35.359	178.341	-30.601	-28.598	102.200	184.676	0.00089234	0.00053193	7.7355e-05	1281.9	5.2081e-06	4.6424e-06	1287.3	351.44	6.9445e-06	8.3754e-06	403.34	132.99	115.13	38.843	6.1599e-06	48.489	0.00061404	0.00059859	0.00016591	1303.2	6.5412e-06	6.6383e-06	1312.7	357.53	6.505e-06	6.7591e-06	411.09	136	117.59	39.924	6.8746e-06	50.117	111.709	-40.461	-64.939	-129.708	-11.263	23.770	-130.011	-125.070	-42.978	8.054	-125.617	-121.618	-121.118	-116.042	-11.355	-116.797	-8191	255	
6845.629	1	1	0	0	0.21984	0.095216	0.18702	0.29638	0.44238	0.22224	0.26196	0.23833	0.16971	0.2191	0.13959	0.057049	0.17405	0.044659	0.23666	0.11884	-4.8292	-4.6312	-5.0854	-5.0667	-4.525	-5.0854	-4.975	-4.7729	-5.1896	-4.5792	-4.9208	-5.0417	-4.5021	-5.2625	-4.7042	-4.7458	125.140	205.627	203.467	175.733	145.915	168.550	143.000	82.160	46.702	205.417	139.788	164.014	-131.721	59.783	-68.789	-33.663	0.00087572	0.00046746	0.00016855	1285.2	3.1261e-06	6.2502e-06	1294.6	351.45	9.2171e-06	3.423e-06	402.36	132.56	114.98	38.888	4.7852e-06	48.648	0.00063358	0.00061139	0.00016993	1305.4	6.6052e-06	6.7365e-06	1316.1	357.39	6.5731e-06	6.6289e-06	410.75	135.73	117.51	39.972	6.6015e-06	50.093	113.086	-48.843	-53.579	-129.655	-11.541	17.953	-129.911	-125.324	-58.495	-18.994	-125.533	-121.770	-121.187	-115.888	-26.297	-116.557	-8191	255	
6845.750	1	1	0	0	0.047207	0.19541	0.10481	0.2764	0.0175	0.17447	0.19396	0.05271	0.13073	0.10406	0.17735	0.44408	0.11706	0.0744	0.15754	0.19815	-4.9896	-4.5771	-4.8875	-5.2292	-4.5188	-5.2333	-5.0521	-4.7792	-5.2104	-4.7771	-5	-5.1208	-4.625	-4.9667	-4.7937	-4.4771	179.905	-24.736	-11.678	204.147	-24.842	53.373	152.145	-135.590	-111.033	193.762	201.215	-140.947	143.649	167.763	-36.984	84.213	0.0008973	0.00067291	0.00014059	1289.5	2.9306e-06	4.0148e-06	1292.8	351.24	8.319e-06	4.5969e-06	401.97	132.94	114.89	39.044	5.594e-06	48.349	0.00062109	0.0006199	0.00016997	1307.2	6.666e-06	6.9041e-06	1318.4	357.89	6.6326e-06	6.6813e-06	411.27	136.18	117.59	40.036	6.7573e-06	50.058	112.178	-61.097	-43.399	-129.647	-55.669	-11.536	-129.887	-125.081	-48.495	12.806	-125.506	-121.713	-120.949	-115.986	-3.079	-116.854	-8191	255	
6845.822	1	1	0	0	0.10098	0.18064	0.084063	0.20795	0.10587	0.20601	0.27677	0.1721	0.24238	0.13238	0.24149	0.19656	0.18994	0.16647	0.095521	0.18069	-4.7896	-4.6229	-4.7708	-5.2063	-4.4958	-5.1396	-5.075	-4.8229	-5.1229	-4.7396	-4.8771	-5.3146	-4.7021	-4.8417	-5.0833	-4.5979	-17.511	-57.347	177.292	201.273	72.737	-20.586	136.663	67.068	23.810	113.831	157.932	190.498	212.988	144.818	156.679	164.249	0.00091109	0.00052604	0.000163	1294.7	4.5059e-06	4.9811e-06	1296.5	351.7	1.0445e-05	4.4365e-06	402.2	132.91	115.39	39.033	7.1696e-06	48.754	0.00061573	0.00063942	0.00017879	1309.3	6.7206e-06	6.8898e-06	1319.2	358.74	6.8906e-06	7.1779e-06	411.61	136.05	117.97	40.09	7.0858e-06	50.204	113.018	-77.446	-46.227	-129.733	-35.533	-21.153	-129.918	-125.121	-66.464	-33.200	-125.683	-121.399	-121.124	-115.951	-4.355	-116.784	-8191	255	
6845.918	1	1	0	0	0.16378	0.081993	0.13539	0.16235	0.20546	0.15764	0.096597	0.22631	0.14513	0.1099	0.070777	0.3153	0.28908	0.14286	0.1011	0.099119	-4.8	-4.7646	-4.6958	-5.375	-4.5604	-4.9042	-5.2208	-4.6729	-5.0604	-4.8458	-4.8125	-5.3646	-4.6917	-5.1042	-5.1771	-4.7479	-38.329	68.680	-2.495	163.546	113.222	131.630	57.562	135.919	214.138	-54.178	-128.264	157.262	173.529	-126.488	-0.968	182.422	0.00091232	0.00051702	0.00017229	1293.9	4.0442e-06	6.2272e-06	1299.7	352.52	9.0917e-06	5.2529e-06	402.91	133.34	114.64	39.018	6.0266e-06	48.668	0.00066019	0.00066417	0.00018507	1313.1	7.2964e-06	7.2106e-06	1323.7	359.07	7.1133e-06	7.2394e-06	412.07	136.27	117.88	40.14	7.1042e-06	50.228	110.912	-48.088	-64.116	-129.559	-30.364	-6.405	-129.907	-125.161	-23.483	22.011	-125.483	-121.673	-121.130	-115.958	-9.066	-116.902	-8191	255	
6846.014	1	1	0	0	0.20813	0.15299	0.095695	0.28667	0.095102	0.15871	0.19969	0.12985	0.088369	0.19855	0.35725	0.048948	0.083277	0.19187	0.16178	0.28617	-4.9042	-4.9646	-4.5375	-5.2896	-4.5208	-4.8729	-5.1271	-4.5271	-5.0042	-4.8854	-4.7146	-5.2271	-4.8292	-4.9625	-5.2917	-4.7729	54.738	-71.068	111.553	148.937	-87.202	65.387	158.000	190.974	-101.625	18.089	174.698	43.646	63.547	189.095	174.598	108.066	0.00087913	0.00056034	0.00015533	1291.9	4.9811e-06	5.3662e-06	1299.9	351.24	7.6744e-06	6.0782e-06	404.5	133.32	115.4	39.044	6.3218e-06	48.669	0.00064995	0.00066788	0.00018398	1312.5	6.9752e-06	6.8738e-06	1323.4	358.56	7.0244e-06	7.1036e-06	412.71	136.19	117.96	40.098	6.9111e-06	50.245	111.957	-66.433	-29.657	-129.798	-23.524	-10.813	-129.768	-125.058	-52.694	7.539	-125.469	-121.591	-121.197	-116.059	-19.420	-116.826	-8191	255	
6846.134	1	1	0	0	0.1442	0.084819	0.089914	0.23189	0.26473	0.13796	0.067452	0.10251	0.24247	0.18652	0.11052	0.078569	0.13228	0.06602	0.072529	0.046539	-4.8688	-4.8792	-4.525	-5.5146	-4.6625	-4.8625	-5.3833	-4.6542	-4.8979	-5.0312	-4.6646	-5.1229	-4.6687	-4.7396	-5.1937	-4.7542	2.351	-83.416	-42.916	155.423	102.090	109.765	-122.017	-124.835	-71.222	56.959	136.345	-54.052	35.665	101.416	160.331	121.084	0.00086992	0.00045828	0.00017404	1291.4	4.4703e-06	2.811e-06	1299.8	352.47	8.6661e-06	6.1174e-06	406.27	132.8	115.75	38.939	5.5856e-06	48.47	0.00065366	0.00065672	0.00018822	1312.8	7.1062e-06	7.2626e-06	1323.6	359.55	7.2264e-06	7.1496e-06	413.32	136.25	118.08	40.121	7.2416e-06	50.195	113.174	-57.766	-51.706	-129.632	-51.492	34.087	-129.998	-125.102	-64.732	-5.400	-125.763	-121.627	-121.080	-115.905	-12.840	-116.729	-8191	255	
6846.231	1	1	0	0	0.25572	0.0401	0.16235	0.15753	0.12115	0.16624	0.14135	0.22302	0.19504	0.12855	0.24162	0.17321	0.37458	0.066848	0.21405	0.21821	-4.7417	-5.1042	-4.5979	-5.3292	-4.7979	-4.5896	-5.5312	-4.7729	-5.0125	-5.0563	-4.7146	-5.0938	-5.0563	-4.6687	-5.2167	-4.6229	142.657	116.955	131.726	184.497	-13.598	60.246	146.261	147.056	-131.412	190.473	129.314	167.593	188.479	72.321	60.208	-85.940	0.00090017	0.00053729	0.00012658	1295.6	6.4562e-06	6.634e-06	1301.4	351.1	9.9496e-06	4.5202e-06	404.78	132.82	115.62	38.799	5.7101e-06	48.722	0.0006699	0.00065309	0.00019051	1313.7	7.1241e-06	7.4301e-06	1323.1	358.5	7.1829e-06	7.1857e-06	412.24	136.08	118.05	40.082	7.5639e-06	50.267	115.552	-79.920	-12.797	-129.732	-37.203	26.647	-129.948	-125.132	-36.637	-3.531	-125.594	-121.809	-121.126	-115.724	-3.617	-116.753	-8191	255	
6846.327	1	1	0	0	0.1024	0.082651	0.10373	0.22392	0.10528	0.1529	0.2718	0.3363	0.18135	0.14555	0.095296	0.13718	0.24969	0.024325	0.13546	0.22544	-4.4417	-5.0375	-4.5875	-5.1417	-4.8604	-4.6542	-5.3833	-4.9229	-4.6917	-5.1917	-4.5542	-5.0104	-5.1	-4.5875	-5.0563	-4.7229	88.709	-29.468	-121.483	165.333	214.431	166.304	175.386	158.764	23.857	12.204	138.614	6.616	105.141	10.184	10.171	-18.017	0.00089956	0.00050279	0.00016071	1294.5	3.4772e-06	3.4509e-06	1296.5	352.04	9.4176e-06	6.0337e-06	404.2	133.07	115.58	38.867	6.3079e-06	48.598	0.00067684	0.00070055	0.00019065	1312.8	7.2687e-06	7.4873e-06	1321.9	358.6	7.3583e-06	7.2346e-06	411.95	136.07	118.27	40.092	7.4483e-06	50.262	113.425	-69.708	-55.263	-129.689	-3.741	32.849	-129.968	-125.103	-51.916	4.178	-125.628	-121.757	-121.049	-116.066	-8.966	-116.654	-8191	255	
6846.423	1	1	0	0	0.10273	0.098663	0.12492	0.35128	0.095162	0.076866	0.048482	0.18384	0.19406	0.10705	0.089527	0.043037	0.076588	0.16953	0.15696	0.26757	-4.4271	-5.2458	-4.5813	-5.0042	-4.9917	-4.4542	-5.4208	-4.9563	-4.7312	-5.2479	-4.7292	-4.9854	-5.1292	-4.5646	-5.2458	-4.8729	25.887	175.275	150.719	175.348	156.780	-11.048	-94.803	126.471	191.074	36.727	133.366	-128.961	115.733	51.841	-37.439	129.218	0.00088827	0.00048209	0.00011263	1293.5	7.0359e-06	4.5436e-06	1307.7	353.17	6.0729e-06	5.9447e-06	405.86	134.01	115.81	39.165	4.6168e-06	48.582	0.00070097	0.00071215	0.0002029	1316.2	7.5331e-06	8.1176e-06	1329.8	360.3	7.7904e-06	7.9959e-06	414.59	137.05	118.65	40.239	7.9223e-06	50.37	110.952	-45.865	-60.393	-129.678	-23.914	14.639	-129.800	-125.087	-53.321	-22.172	-125.631	-121.614	-121.011	-116.039	-42.781	-116.812	-8191	255	
6846.519	1	1	0	0	0.1436	0.19665	0.063218	0.13068	0.043488	0.24247	0.38765	0.10325	0.15355	0.13405	0.12577	0.11084	0.10249	0.13348	0.21434	0.094022	-4.3167	-5.1104	-4.6958	-5.0729	-5.1604	-4.5646	-5.4396	-5.0646	-4.6271	-5.3333	-4.9708	-4.8375	-5.0687	-4.6042	-5.0563	-5.125	-127.432	-67.709	126.212	37.518	87.458	203.489	180.959	141.342	107.904	-49.970	176.101	118.316	-71.983	-126.171	128.412	81.237	0.00090664	0.00033586	0.00011617	1305	4.1695e-06	3.8089e-06	1307.4	354.72	8.4245e-06	2.5577e-06	405.21	134.16	116.2	39.27	5.4777e-06	48.738	0.00071857	0.00071187	0.00020049	1322.1	7.6972e-06	8.1934e-06	1332.9	361.11	7.8886e-06	7.9349e-06	414.24	137.13	118.86	40.372	8.0445e-06	50.359	110.118	-68.941	-51.692	-129.592	-59.685	14.473	-130.058	-125.193	-31.677	11.056	-125.581	-121.634	-120.973	-116.074	15.341	-116.737	-8191	255	
6846.615	1	1	0	0	0.11739	0.1415	0.059518	0.041174	0.056633	0.048535	0.34644	0.29429	0.083585	0.043482	0.2737	0.20625	0.21911	0.044571	0.14567	0.10559	-4.4667	-5.225	-4.6958	-4.7771	-4.9833	-4.4542	-5.0792	-4.9146	-4.4146	-5.1125	-4.7979	-4.7125	-5.1979	-4.6188	-4.9437	-5.1354	210.179	30.328	117.288	51.983	-1.175	166.373	153.811	192.256	-100.765	-121.540	127.796	193.334	145.532	96.475	-59.732	147.669	0.0008976	0.00059908	0.00016749	1302.6	5.0219e-06	5.145e-06	1313.2	353.62	9.9418e-06	4.2624e-06	406.48	134.04	116.03	39.374	3.8044e-06	49.109	0.0007246	0.0007271	0.0002061	1322.5	7.6687e-06	8.1765e-06	1335.5	361.35	8.0601e-06	7.8971e-06	414.77	137.18	118.86	40.389	8.163e-06	50.583	111.452	-65.341	-60.791	-129.711	0.843	9.827	-129.683	-125.373	-65.297	13.137	-125.618	-121.583	-121.217	-115.975	10.418	-116.975	-8191	255	
6846.711	1	1	0	0	0.24179	0.22876	0.13121	0.37856	0.1637	0.16037	0.10709	0.2416	0.18793	0.072295	0.14647	0.068425	0.17748	0.24472	0.067189	0.22031	-4.2792	-5.1	-4.9167	-4.7854	-5.1896	-4.7042	-5.1083	-5.2562	-4.4833	-4.9938	-4.9833	-4.6167	-5.3208	-4.7854	-4.8562	-5.3187	-110.805	-5.877	149.142	172.114	1.372	65.417	64.223	167.925	169.464	-41.855	205.066	151.499	210.390	57.735	89.852	-130.696	0.00098705	0.00048657	0.00013559	1304.1	1.3589e-06	4.4475e-06	1311	354.33	6.7996e-06	5.8498e-06	408.23	134.83	116.6	39.368	7.6706e-06	48.962	0.00072258	0.00073994	0.0002057	1324.1	7.6956e-06	8.1527e-06	1334.8	361.59	8.2777e-06	8.3047e-06	416.34	137.69	119.47	40.55	8.5912e-06	50.7	109.244	-68.280	-65.614	-129.650	177.742	19.601	-129.933	-125.174	-85.054	-5.228	-125.750	-121.988	-121.122	-116.201	-11.731	-116.602	-8191	255	
6846.830	1	1	0	0	0.18293	0.16197	0.076492	0.25375	0.17394	0.21562	0.091364	0.28967	0.11887	0.12696	0.23757	0.20251	0.21913	0.041481	0.14031	0.11259	-4.3438	-5.0813	-4.9563	-4.6542	-5.0542	-4.7271	-4.7917	-5.1438	-4.4062	-4.9667	-5.1125	-4.7021	-5.2646	-4.6271	-4.6271	-5.1479	36.053	62.576	-97.976	118.682	-3.629	11.464	132.434	100.967	83.685	-84.904	115.732	197.610	176.452	-113.398	135.650	119.980	0.0009013	0.00070449	0.00013948	1314.5	2.1066e-06	7.896e-06	1325.9	359.64	1.1391e-05	4.24e-06	410.95	135.91	117.95	39.99	5.3001e-06	49.778	0.00077229	0.00082075	0.00022866	1336.4	8.7526e-06	9.4381e-06	1349.8	365.85	9.5403e-06	9.7915e-06	420.45	139.2	120.92	41.128	1.0162e-05	51.362	109.862	-54.153	-32.027	-129.624	1.256	-8.742	-130.014	-125.269	-54.845	17.573	-125.458	-121.587	-121.115	-116.087	-35.420	-116.901	-8191	255	
6846.926	1	1	0	0	0.19903	0.039211	0.26831	0.09501	0.089528	0.068419	0.018632	0.16381	0.090151	0.17348	0.1281	0.22317	0.17637	0.15954	0.1042	0.11802	-4.3021	-4.8646	-4.8104	-4.7646	-5.1521	-4.8854	-4.9875	-5.2354	-4.4812	-4.8208	-5.0646	-4.4875	-5.075	-4.9333	-4.5229	-5.2875	72.295	113.555	-128.609	190.469	-61.802	-33.684	-27.090	139.837	213.349	107.679	155.519	133.530	-142.099	211.465	1.750	-73.389	0.00092301	0.00074302	0.00013107	1328.1	7.6497e-06	5.1276e-06	1339.8	363.85	8.3696e-06	5.1647e-06	417.67	137.41	119.15	40.261	3.4932e-06	49.991	0.00086977	0.00095234	0.00026808	1350.5	9.9733e-06	1.0554e-05	1362.3	370.1	1.0379e-05	1.0485e-05	425.29	140.58	122.1	41.527	1.0235e-05	51.833	111.430	-52.640	-21.727	-129.509	-48.282	0.359	-130.021	-125.215	-53.106	24.433	-125.726	-121.849	-121.174	-116.345	14.650	-116.960	-8191	255	
6847.023	1	1	0	0	0.30924	0.089271	0.12868	0.25041	0.11046	0.043215	0.12615	0.1075	0.17045	0.066833	0.066759	0.058201	0.20059	0.13394	0.21479	0.050338	-4.2792	-4.9104	-5.1062	-4.8313	-5.0687	-4.7021	-4.6167	-5.1562	-4.4958	-4.8625	-5.2625	-4.6813	-5.0854	-5.1625	-4.5312	-5.1917	-107.623	76.476	-57.969	159.800	-0.977	108.937	173.258	-139.546	138.873	150.544	207.978	79.969	168.769	156.640	-97.031	180.486	0.0010121	0.00052803	0.00016774	1332.9	3.6798e-06	5.0841e-06	1342.3	361.75	6.547e-06	4.2358e-06	415.09	137.57	119.51	40.312	4.4831e-06	50.533	0.00087209	0.00095258	0.00025325	1352.4	9.8602e-06	1.0336e-05	1365.9	370.06	1.0025e-05	1.0358e-05	424.06	140.8	122.2	41.569	1.0146e-05	51.967	112.135	-46.007	-47.956	-129.786	-47.633	25.015	-130.105	-125.251	-51.640	-20.397	-125.668	-121.821	-121.106	-116.125	-26.247	-116.831	-8191	255	
6847.119	1	1	0	0	0.14654	0.25192	0.11566	0.11971	0.037853	0.10429	0.25031	0.29911	0.1634	0.11739	0.26965	0.10998	0.12258	0.11696	0.10971	0.10835	-4.1375	-4.7333	-4.9771	-4.8042	-5.025	-4.9938	-4.7458	-5.1708	-4.6771	-4.5188	-5.1438	-4.4229	-4.9667	-5.0333	-4.3229	-5.0188	-115.990	-27.360	196.863	122.389	158.270	75.820	160.083	139.314	44.647	216.361	160.794	-96.490	65.932	116.483	177.820	118.727	0.00092406	0.00045031	0.00014826	1334.6	4.9429e-06	4.8417e-06	1339	362.87	9.6945e-06	5.1994e-06	417.44	137.89	119.02	40.588	5.2441e-06	50.242	0.00087766	0.00095379	0.00025903	1354.2	9.721e-06	1.0616e-05	1363.9	370.03	1.0433e-05	1.0549e-05	425.45	141.05	122.56	41.763	1.0359e-05	51.993	112.585	-81.631	-44.706	-129.792	-23.457	1.283	-130.013	-125.195	-40.871	-11.436	-125.581	-121.838	-121.033	-116.153	-30.071	-116.797	-8191	255	
6847.215	1	1	0	0	0.12665	0.12218	0.10805	0.23087	0.09019	0.079925	0.37554	0.078087	0.14635	0.17832	0.070598	0.033386	0.069155	0.035639	0.1297	0.16612	-4.35	-4.5229	-5.05	-4.7167	-4.8354	-4.9437	-4.7583	-5.2271	-4.8063	-4.6333	-5.2229	-4.6646	-4.8042	-5.075	-4.5813	-5.1062	29.988	101.109	-47.261	158.542	-112.571	-87.572	173.022	120.153	-113.195	-31.277	71.536	-104.686	125.523	-50.376	17.501	-76.570	0.00093915	0.00058586	8.9162e-05	1333.1	4.9874e-06	4.1737e-06	1341.5	365.63	9.2239e-06	5.8817e-06	416.86	138.46	119.31	40.659	4.3449e-06	50.46	0.00089163	0.0009646	0.00026779	1354.6	1.0261e-05	1.066e-05	1366.3	371.75	1.0427e-05	1.0881e-05	426.43	141.51	122.82	41.862	1.1097e-05	52.077	111.804	-45.643	-61.414	-129.602	-32.936	8.399	-129.936	-125.257	-62.709	6.213	-125.477	-122.159	-121.222	-116.481	-5.151	-116.823	-8191	255	
6847.311	1	1	0	0	0.01134	0.18636	0.094527	0.15312	0.32162	0.13573	0.16957	0.13307	0.15873	0.19577	0.41454	0.10872	0.22404	0.12295	0.097865	0.068174	-4.7854	-4.6792	-5.2104	-4.8083	-4.9812	-5.0083	-4.8229	-4.9625	-4.9187	-4.6312	-5.3604	-4.7812	-4.9208	-5.3729	-4.5042	-5.2396	167.622	81.210	67.259	110.512	-129.842	-9.488	144.025	208.910	97.638	18.392	199.892	171.211	200.942	-71.431	88.810	-127.321	0.00097453	0.00066251	0.00018429	1340.2	2.2849e-06	4.5646e-06	1340.6	365.32	5.5888e-06	5.5806e-06	419.03	138.32	119.64	40.81	6.6752e-06	50.207	0.00092609	0.0010098	0.00028097	1358.9	1.0707e-05	1.1235e-05	1368.6	372.31	1.0665e-05	1.0891e-05	427.24	141.58	122.81	41.873	1.1009e-05	51.988	111.906	-34.816	-49.020	-129.736	-25.115	2.943	-129.935	-125.194	-63.007	-7.398	-125.577	-121.816	-121.124	-116.176	-21.410	-116.733	-8191	255	
6847.432	1	1	0	0	0.20482	0.35899	0.055202	0.31594	0.25274	0.24648	0.36995	0.080672	0.19625	0.18358	0.16276	0.074276	0.075276	0.11748	0.053537	0.16876	-4.4	-4.5125	-5.1687	-4.8958	-4.7792	-5.3104	-4.675	-5.0146	-4.9896	-4.6813	-5.4	-5.0312	-4.7833	-5.1083	-4.5479	-5.1292	90.901	-72.977	170.926	187.241	-120.397	27.458	160.426	87.907	90.569	-21.816	165.766	135.629	118.379	187.340	-142.386	-11.661	0.00092698	0.0005185	0.00018649	1339.1	5.2582e-06	5.465e-06	1343	365.11	5.597e-06	4.0437e-06	418.43	137.72	120.06	40.622	4.084e-06	50.436	0.00090628	0.0010053	0.00028153	1360	1.0188e-05	1.0745e-05	1369.6	371.98	1.0472e-05	1.0874e-05	427.02	141.36	122.69	41.803	1.0831e-05	52.094	109.638	-55.229	-51.472	-129.536	-23.945	-7.378	-129.955	-125.162	-55.545	-6.903	-125.494	-121.996	-121.153	-116.199	-14.828	-116.875	-8191	255	
6847.526	1	1	0	0	0.16016	0.031833	0.097721	0.23834	0.044283	0.067502	0.30486	0.032742	0.079959	0.079486	0.071157	0.053067	0.11629	0.094668	0.088634	0.077376	-4.75	-4.3854	-4.8604	-4.9021	-4.7896	-5.3146	-5.0646	-5.1896	-4.9917	-4.5896	-5.2375	-5.0208	-4.6667	-5.4187	-4.775	-4.825	142.150	67.370	-77.595	163.733	42.513	39.115	135.396	-101.791	148.826	116.440	-131.649	-14.480	-117.225	183.357	-129.072	-66.086	0.00092096	0.00034034	0.00012293	1335.5	7.8924e-06	5.7487e-06	1345.1	363.96	7.4766e-06	6.0566e-06	416.32	137.44	118.85	40.439	6.3911e-06	50.391	0.00088635	0.00099969	0.00027896	1358.1	1.0181e-05	1.0716e-05	1369.6	371.33	1.0203e-05	1.0835e-05	425.98	140.97	122.48	41.675	1.0518e-05	52.046	113.225	-58.830	-65.086	-129.569	-40.269	37.703	-130.087	-125.305	-46.625	-10.017	-125.709	-121.787	-121.276	-116.237	-38.056	-117.091	-8191	255	
6847.622	1	1	0	0	0.14255	0.2115	0.22534	0.27866	0.09746	0.11861	0.39914	0.12095	0.20105	0.10334	0.16649	0.18308	0.27986	0.098094	0.20759	0.27012	-4.7542	-4.5687	-5.0667	-4.9938	-4.6687	-5.4771	-4.8896	-4.9479	-5.0229	-4.5312	-5.1208	-5.1292	-4.4875	-5.2063	-4.7937	-4.7625	76.690	54.269	-102.799	208.363	90.200	-100.225	156.957	121.147	60.851	93.620	-119.335	214.415	-140.127	103.344	118.005	-127.623	0.00090059	0.00059645	0.00010095	1336.4	4.4442e-06	4.3748e-06	1340.4	364.15	1.0186e-05	5.0303e-06	415.92	137.87	118.95	40.482	5.5504e-06	49.975	0.00089698	0.0010031	0.00026794	1357.2	1.0466e-05	1.0726e-05	1366.4	371.18	1.0317e-05	1.0788e-05	425.18	141.23	122.28	41.618	1.0466e-05	51.818	111.257	-60.980	-73.466	-129.643	-3.825	40.221	-129.836	-125.226	-79.158	27.329	-125.554	-121.622	-120.974	-116.031	-6.446	-116.950	-8191	255	
6847.696	1	1	0	0	0.19067	0.14066	0.19095	0.33598	0.060748	0.19588	0.29763	0.031361	0.30599	0.14557	0.20911	0.14408	0.051554	0.049178	0.30355	0.051097	-4.7625	-4.6042	-4.7958	-5.1833	-4.6771	-5.2229	-4.9583	-4.7604	-5.0146	-4.5083	-4.9479	-4.9521	-4.5479	-5.1854	-4.8708	-4.7312	-46.995	-32.863	192.743	-137.071	214.756	2.452	106.209	199.424	60.422	49.092	128.257	-134.113	58.285	172.051	-58.505	170.748	0.00090562	0.0008299	0.00015971	1336.7	4.1455e-06	5.3483e-06	1340.8	363.72	8.7348e-06	4.7901e-06	415.75	138.08	119.19	40.434	3.7995e-06	50.312	0.0008954	0.0009776	0.0002712	1356.2	1.0325e-05	1.0685e-05	1369.2	371.14	1.02e-05	1.0669e-05	425.18	141.08	122.6	41.639	1.0597e-05	51.927	111.736	-41.564	-30.471	-129.737	-57.151	3.174	-130.043	-125.193	-59.080	-8.659	-125.592	-121.874	-121.318	-116.254	-68.092	-116.716	-8191	255	
6847.792	1	1	0	0	0.17495	0.16728	0.18113	0.29582	0.16001	0.12804	0.47971	0.27153	0.1224	0.063637	0.092121	0.12568	0.22181	0.073099	0.099544	0.22991	-4.9563	-4.8229	-4.9271	-5.2937	-4.5458	-4.9187	-5.2125	-4.7646	-5.0604	-4.7917	-4.8229	-5.1542	-4.6792	-5.1854	-5.0708	-4.775	144.089	198.785	-91.879	-140.549	74.590	175.134	124.968	185.337	195.525	166.755	-118.157	160.938	188.638	174.784	151.238	-134.320	0.00089302	0.0004808	0.00016518	1337.5	4.524e-06	4.6595e-06	1344.7	363.31	4.4875e-06	3.9194e-06	414.9	137.52	119.63	40.484	5.9353e-06	50.126	0.00090428	0.001018	0.00027611	1357.2	1.0399e-05	1.0982e-05	1368.1	371.15	1.0593e-05	1.1024e-05	425.38	141.13	122.54	41.657	1.0584e-05	51.92	108.750	-77.544	-69.874	-129.643	-26.418	17.005	-130.005	-125.123	-88.210	17.017	-125.850	-121.971	-121.261	-116.052	-7.715	-116.986	-8191	255	
6847.911	1	1	0	0	0.19918	0.10588	0.094383	0.17615	0.070725	0.11514	0.24663	0.13855	0.042203	0.15991	0.037455	0.18524	0.17897	0.18142	0.10669	0.27635	-4.9187	-4.95	-4.6271	-5.3812	-4.4417	-4.9979	-5.2396	-4.6708	-5.1312	-4.8917	-4.7917	-5.0417	-4.4	-4.8792	-5.1146	-4.7208	25.373	128.193	169.827	151.404	135.453	173.549	98.141	141.345	101.774	-19.242	195.112	-131.395	135.708	-105.508	-22.576	-139.286	0.00091217	0.00018603	0.0001564	1338.5	6.8549e-06	5.7908e-06	1347.3	363.38	1.3231e-05	4.3466e-06	415.97	138	119.43	40.576	4.0756e-06	50.208	0.00087654	0.000979	0.00027693	1357.8	1.0352e-05	1.0688e-05	1370.3	371.08	1.0255e-05	1.0735e-05	425.77	141.02	122.5	41.704	1.0731e-05	51.985	110.682	-45.284	-32.979	-129.696	-52.131	31.441	-130.040	-125.177	-59.463	12.843	-125.653	-121.924	-120.948	-116.246	-61.100	-116.924	-8191	255	
6848.007	1	1	0	0	0.12934	0.077851	0.1631	0.061475	0.096977	0.072349	0.21517	0.0347	0.10921	0.13008	0.07475	0.2218	0.050353	0.003549	0.30034	0.058925	-4.8229	-4.9	-4.675	-5.4187	-4.6896	-4.9	-5.2646	-4.65	-5.1417	-4.7479	-4.6083	-5.1354	-4.6833	-4.9167	-5.1917	-4.6417	43.036	-137.170	29.737	148.004	-14.393	36.766	-131.233	-3.632	64.227	-127.719	17.847	156.765	49.982	157.653	-31.996	-99.181	0.00095256	0.00064036	0.00013477	1341.2	3.4496e-06	6.4706e-06	1350	364.86	4.6831e-06	5.9615e-06	418.31	138.17	119.56	40.725	5.0328e-06	50.428	0.00090196	0.0010116	0.00028104	1358.7	1.0667e-05	1.1043e-05	1371.5	371.96	1.0635e-05	1.1084e-05	426.2	141.41	122.78	41.8	1.0938e-05	52.152	111.884	-38.550	-37.650	-129.688	-13.298	43.824	-129.998	-125.234	-47.375	2.976	-125.660	-121.773	-121.140	-116.331	-37.908	-116.878	-8191	255	
6848.103	1	1	0	0	0.13037	0.10238	0.12417	0.37399	0.070654	0.17513	0.11435	0.29561	0.14803	0.21547	0.18303	0.13119	0.18759	0.084668	0.19597	0.2189	-4.7562	-4.9688	-4.5938	-5.1708	-4.6458	-4.7188	-5.1708	-4.5396	-4.9896	-4.9417	-4.7583	-5.2333	-4.7958	-4.7229	-5.1	-4.7125	143.657	19.639	168.308	153.690	-90.670	-10.550	172.123	57.359	11.191	132.965	169.304	-107.070	127.906	147.954	201.102	-56.366	0.00091598	0.00080554	0.00013265	1338.8	7.7198e-06	5.2755e-06	1344.4	363.91	7.7751e-06	7.1749e-06	417.61	137.63	119.94	40.448	5.6905e-06	50.229	0.00092087	0.0010273	0.00029143	1359.4	1.0962e-05	1.1375e-05	1370.6	371.38	1.0763e-05	1.1159e-05	426.44	141.2	122.79	41.722	1.0954e-05	52.013	111.056	-65.492	-51.308	-129.908	-28.695	6.499	-130.135	-125.278	-50.717	5.513	-125.884	-121.861	-121.212	-116.271	12.280	-116.733	-8191	255	
6848.224	1	1	0	0	0.15186	0.13768	0.21912	0.14677	0.060622	0.066963	0.27373	0.10834	0.23246	0.21224	0.18628	0.077626	0.18288	0.095024	0.11761	0.090057	-4.5396	-4.8958	-4.4104	-5.1625	-4.8417	-4.9688	-5.5333	-4.6438	-4.75	-5.0167	-4.5729	-5.1375	-4.9313	-4.6438	-5.1167	-4.6729	61.250	67.318	151.985	186.355	86.337	204.156	182.340	176.026	-11.606	147.448	187.787	-123.044	201.148	-102.723	215.634	101.404	0.00096119	0.00033917	0.00019512	1336.2	6.2333e-06	3.7536e-06	1348.8	363.69	1.004e-05	5.9398e-06	415.3	137.92	119.59	40.565	6.0564e-06	50.238	0.00092745	0.001001	0.00028726	1358.1	1.0262e-05	1.1144e-05	1371.1	371.26	1.0547e-05	1.0815e-05	425.42	141.17	122.65	41.735	1.059e-05	51.919	112.003	-42.422	-40.517	-129.652	-35.032	11.819	-130.009	-125.314	-39.348	8.422	-125.676	-121.737	-121.285	-115.820	-1.472	-116.699	-8191	255	
6848.295	1	1	0	0	0.043432	0.24647	0.18076	0.094056	0.23269	0.25229	0.28664	0.2171	0.2012	0.082832	0.18995	0.13278	0.11037	0.22091	0.12429	0.22851	-4.4521	-4.8833	-4.2917	-5.2229	-4.8229	-4.5958	-5.2771	-4.7812	-4.7896	-5.0958	-4.6146	-4.9833	-5.1146	-4.5875	-5.1625	-4.95	-134.317	-6.853	45.756	68.456	148.350	79.551	140.348	187.788	190.768	175.666	153.138	95.586	210.149	193.560	96.310	209.706	0.00089578	0.00053794	0.00012676	1336.3	4.4328e-06	6.6145e-06	1346.7	363.18	1.0363e-05	3.1571e-06	416.99	138.1	119.68	40.53	5.1728e-06	50.117	0.00089141	0.00098322	0.00027189	1359.5	1.0332e-05	1.0777e-05	1372.9	371.27	1.0291e-05	1.0637e-05	425.68	141.41	122.53	41.693	1.0416e-05	51.971	117.306	-52.162	-53.116	-129.754	-34.605	38.967	-130.112	-125.284	-55.542	-51.763	-125.890	-121.784	-121.471	-116.055	-65.567	-116.936	-8191	255	
6848.391	1	1	0	0	0.19418	0.066683	0.12403	0.43952	0.22177	0.19542	0.20987	0.1633	0.23497	0.19807	0.1489	0.10645	0.23439	0.30289	0.25881	0.029702	-4.4083	-5.1146	-4.4083	-5.0312	-4.875	-4.4729	-5.1542	-5.0583	-4.6521	-5.2979	-4.7417	-5.0687	-5.075	-4.5917	-4.9458	-4.8583	0.009	44.236	149.731	212.184	62.966	-6.247	140.289	168.258	-127.805	107.365	-54.939	-124.863	-98.521	161.072	160.961	85.560	0.00090682	0.00064857	0.00018479	1340.9	4.7219e-06	4.0733e-06	1345.4	364.09	9.9749e-06	6.5183e-06	418.5	137.64	119.34	40.379	3.1082e-06	50.225	0.00088143	0.00097428	0.00026972	1361.3	1.0064e-05	1.0936e-05	1371.3	371.92	1.0142e-05	1.0579e-05	426.86	141.35	122.65	41.677	1.0508e-05	51.932	114.434	-50.685	-54.688	-129.627	-33.286	-7.944	-130.069	-125.225	-63.107	21.086	-125.690	-121.720	-121.352	-116.280	-17.399	-116.990	-8191	255	
6848.512	1	1	0	0	0.20917	0.095654	0.11888	0.12391	0.22617	0.15841	0.22484	0.25616	0.13395	0.17393	0.10599	0.036601	0.02098	0.12215	0.10553	0.093165	-4.4271	-5.2083	-4.6979	-4.9333	-5.0146	-4.4125	-5.225	-4.8625	-4.6188	-5.0563	-4.6792	-4.8917	-5.1	-4.5938	-4.9021	-4.9292	0.675	-5.320	-61.181	176.161	118.461	199.084	171.601	99.924	-81.084	207.301	178.352	-115.849	216.206	-93.588	-87.196	-42.957	0.00098228	0.0005777	0.00018942	1340.7	6.2449e-06	4.7165e-06	1349.4	364.51	8.8192e-06	6.8785e-06	417.8	138.3	119.96	40.592	3.7843e-06	50.254	0.00090168	0.00096288	0.00028023	1362.5	1.0209e-05	1.1007e-05	1374.2	371.25	1.0622e-05	1.0899e-05	426.85	141.35	122.82	41.776	1.0831e-05	52.02	111.896	-42.367	-36.407	-129.570	-39.685	9.268	-129.937	-125.380	-33.976	4.445	-125.712	-122.125	-121.117	-116.047	-9.422	-116.949	-8191	255	
6848.608	1	1	0	0	0.10065	0.13451	0.29071	0.1021	0.16846	0.15975	0.2513	0.098689	0.037428	0.14019	0.12212	0.041949	0.11076	0.083767	0.030514	0.19388	-4.3396	-4.9979	-4.7875	-4.9292	-4.8958	-4.4896	-5.2	-5.1146	-4.6104	-5.2417	-4.7958	-4.8604	-5.1708	-4.7396	-4.9979	-4.9812	150.980	187.714	23.578	148.463	162.309	-70.663	173.911	162.581	-112.122	-4.351	-94.778	-121.743	-120.954	206.762	-26.338	86.099	0.00090305	0.00034074	0.00013515	1342.6	2.4914e-06	4.6205e-06	1347.6	363.36	6.9688e-06	4.1861e-06	417.57	138.2	119.62	40.415	6.6e-06	50.019	0.00093199	0.00099856	0.00027905	1364	1.0354e-05	1.1134e-05	1373.6	371.6	1.0682e-05	1.1176e-05	426.17	141.41	122.61	41.698	1.0589e-05	51.889	114.072	-58.080	-24.290	-129.862	-29.749	10.291	-130.035	-125.424	-60.902	19.898	-125.927	-121.706	-121.007	-116.248	-25.920	-116.827	-8191	255	
6848.703	1	1	0	0	0.25207	0.23853	0.20753	0.33845	0.066935	0.092641	0.025379	0.087174	0.063714	0.020085	0.084224	0.082547	0.30324	0.14778	0.011935	0.3104	-4.0604	-5.0917	-4.8271	-4.8479	-5.1021	-4.6208	-5.1125	-5.0521	-4.5167	-4.9812	-5	-4.8562	-5.275	-4.7104	-4.8729	-5.2958	50.182	89.534	130.817	208.888	-13.492	-31.177	-40.482	154.380	215.687	-127.052	160.305	125.881	138.874	-10.856	-102.217	108.285	0.00095357	0.00055211	0.00010835	1340.4	1.9807e-06	3.7109e-06	1349.9	363.94	1.0971e-05	6.9901e-06	416.18	138.08	118.66	40.506	5.2421e-06	50.425	0.00092251	0.001005	0.00027453	1362.5	1.055e-05	1.1102e-05	1373.9	371.3	1.0778e-05	1.0763e-05	425.99	141.28	122.41	41.704	1.0587e-05	51.981	110.524	-58.192	-62.165	-129.800	-22.562	-25.533	-129.858	-125.323	-73.328	13.880	-125.656	-121.779	-121.257	-116.212	1.536	-116.918	-8191	255	
6848.823	1	1	0	0	0.1214	0.078444	0.22322	0.096574	0.099934	0.20829	0.28204	0.022422	0.13478	0.36364	0.31997	0.25749	0.14958	0.21397	0.25361	0.061742	-4.3875	-4.9542	-4.8313	-4.9417	-5.3438	-4.7438	-5.1375	-5.2812	-4.5229	-5.1271	-5.0583	-4.8	-5.1062	-4.8229	-4.8562	-5.2458	168.905	-108.861	91.585	-65.114	206.449	82.316	150.614	1.170	-82.202	-106.604	176.377	159.338	172.908	-52.311	26.518	32.477	0.00098533	0.0004367	0.00010015	1336.4	4.5504e-06	6.972e-06	1345.2	364.7	8.7362e-06	5.3653e-06	416.13	137.39	119.79	40.431	3.4393e-06	50.075	0.00090893	0.00099485	0.00027845	1360.1	1.0387e-05	1.0745e-05	1371.7	371.52	1.0622e-05	1.1021e-05	425.7	141.03	122.45	41.665	1.0643e-05	51.861	110.442	-67.499	-35.508	-129.909	-12.082	7.695	-130.000	-125.271	-55.119	6.627	-125.678	-121.806	-121.214	-116.297	-16.461	-116.720	-8191	255	
6848.919	1	1	0	0	0.038	0.14937	0.20913	0.2697	0.21158	0.16782	0.32706	0.11808	0.18925	0.12148	0.31583	0.17309	0.26775	0.26411	0.030464	0.21299	-4.1417	-4.8917	-4.9375	-4.7562	-5.0958	-4.7458	-4.9521	-5.2792	-4.6292	-4.9104	-5.0542	-4.6562	-5.1604	-4.8313	-4.7792	-5.2979	158.630	208.366	121.566	212.096	63.476	103.074	145.011	156.115	152.493	120.459	124.880	90.283	-75.818	-104.441	32.362	117.141	0.00096589	0.00063041	0.00010816	1339	4.8696e-06	4.5681e-06	1347.5	364.01	1.1801e-05	2.9143e-06	414.8	137.33	119.76	40.459	6.2548e-06	50.097	0.00091199	0.0009929	0.00027685	1361.4	1.0401e-05	1.0798e-05	1371.8	371.41	1.0524e-05	1.0902e-05	425.66	141.15	122.89	41.656	1.074e-05	51.94	111.785	-69.539	-68.607	-129.740	-48.171	-2.136	-129.987	-125.271	-19.610	8.899	-125.647	-121.985	-121.063	-116.080	-24.776	-116.776	-8191	255	
6848.991	1	1	0	0	0.17701	0.30845	0.12998	0.20713	0.089948	0.15693	0.10422	0.17343	0.16607	0.050048	0.19386	0.21223	0.18368	0.16096	0.053173	0.24754	-4.4646	-5.1438	-5.1875	-4.8583	-5.1208	-5.0646	-4.8042	-5.3083	-4.7729	-4.9104	-5.2521	-4.5896	-5.15	-5.1208	-4.6042	-5.4667	-137.537	193.028	11.793	170.636	70.469	194.272	189.174	101.625	-98.031	33.068	-107.190	185.129	-102.401	173.625	161.084	171.300	0.00092633	0.00046889	0.00015925	1342.3	4.832e-06	4.4695e-06	1347.6	363.77	3.373e-06	3.838e-06	416.72	137.81	119.49	40.519	3.282e-06	50.307	0.0009207	0.00099001	0.00028283	1363.4	1.0608e-05	1.0974e-05	1372.1	371.28	1.0914e-05	1.1325e-05	426.46	141.16	122.64	41.745	1.1149e-05	51.958	114.097	-59.821	-38.390	-129.839	-38.635	12.885	-129.905	-125.318	-45.383	22.575	-125.636	-121.796	-121.237	-116.209	-15.026	-116.926	-8191	255	
6849.087	1	1	0	0	0.14942	0.13051	0.065691	0.1317	0.14666	0.061321	0.34622	0.034293	0.084026	0.12921	0.21166	0.10962	0.018629	0.23295	0.079112	0.13644	-4.4854	-4.8146	-5.3979	-4.925	-4.9833	-5.0917	-4.8771	-5.2729	-4.6958	-4.8208	-5.3542	-4.5729	-5.1438	-5.075	-4.4729	-5.3313	100.829	77.344	52.161	172.283	-43.059	172.853	151.049	8.047	-47.143	-116.547	100.382	-85.857	36.657	202.299	156.596	183.934	0.00098669	0.00036888	0.00010904	1343.2	3.9576e-06	4.693e-06	1350.4	363.76	5.5331e-06	6.7744e-06	417.2	137.68	119.32	40.501	4.147e-06	50.026	0.00093308	0.0010648	0.00029262	1362.7	1.1102e-05	1.1587e-05	1374.6	371.45	1.1101e-05	1.1543e-05	426.31	141.29	122.65	41.693	1.1428e-05	51.989	110.979	-52.428	-36.186	-129.703	-37.678	-12.269	-130.002	-125.361	-28.392	13.496	-125.598	-121.742	-121.120	-116.215	-9.398	-116.881	-8191	255	
6849.208	1	1	0	0	0.22801	0.064026	0.13892	0.37457	0.23153	0.18833	0.14408	0.15813	0.21544	0.078719	0.20847	0.24532	0.090012	0.13467	0.11785	0.21633	-4.3146	-4.7875	-5.3979	-4.9125	-4.775	-5.1271	-4.7667	-5.4333	-5.0375	-4.7708	-5.4396	-4.8896	-4.9583	-5.1021	-4.4646	-5.2063	33.046	17.144	-44.897	173.142	186.365	-46.215	141.481	-136.670	92.664	7.353	167.145	210.887	-68.667	144.719	156.393	131.193	0.00089671	0.00053045	0.0001775	1342	5.3308e-06	3.6289e-06	1352.6	363.2	1.0973e-05	4.0719e-06	417.75	137.39	118.84	40.513	3.8868e-06	50.37	0.00094852	0.0010529	0.00028799	1363	1.0902e-05	1.1421e-05	1375.9	371.9	1.0936e-05	1.1568e-05	426.94	141.41	122.6	41.693	1.1169e-05	51.992	109.008	-70.283	-48.646	-129.740	-41.686	4.466	-130.072	-125.267	-51.788	42.178	-125.909	-121.763	-121.235	-116.282	-27.137	-116.737	-8191	255	
6849.304	1	1	0	0	0.14435	0.17012	0.049584	0.26626	0.20533	0.030783	0.17466	0.24628	0.19178	0.12095	0.094677	0.13774	0.080186	0.24414	0.13038	0.11798	-4.3417	-4.475	-5.0771	-4.8104	-4.9604	-5.2688	-4.9021	-5.3438	-5.0729	-4.6813	-5.3313	-4.9583	-4.85	-5.0229	-4.4854	-5.1021	207.828	145.191	-96.852	-121.136	-108.402	-98.579	106.075	-136.212	-48.187	-67.129	26.781	-138.045	-0.165	163.745	173.989	151.862	0.00091141	0.00055641	0.00013992	1341.1	3.0614e-06	7.5561e-06	1346	364.92	6.7057e-06	5.2895e-06	416.15	137.66	119.19	40.336	3.4268e-06	50.28	0.00092286	0.0010222	0.00029044	1363.6	1.0658e-05	1.1247e-05	1373.8	371.99	1.0754e-05	1.1116e-05	426.52	140.99	122.39	41.594	1.1235e-05	51.913	111.735	-39.312	-42.559	-129.845	-30.850	-18.267	-129.801	-125.318	-60.204	-17.995	-125.614	-122.044	-121.374	-116.394	-38.663	-116.987	-8191	255	
6849.400	1	1	0	0	0.14102	0.26738	0.1129	0.20336	0.2376	0.23608	0.21986	0.29639	0.057184	0.19444	0.1028	0.11448	0.17212	0.15821	0.21871	0.1388	-4.6687	-4.6271	-5.1438	-4.8417	-4.5229	-5.0354	-4.7229	-5.0958	-4.9229	-4.5563	-5.1687	-4.7	-4.6937	-5.2937	-4.5854	-5.0146	-56.504	-59.727	-82.857	157.663	-72.958	184.654	143.599	159.970	123.850	132.365	209.687	198.664	-124.786	177.728	-126.377	-30.842	0.00093068	0.00023502	0.00015177	1336.9	5.3642e-06	8.1225e-06	1346.4	364.55	7.5937e-06	4.4499e-06	418.25	137.55	119.17	40.514	4.5605e-06	50.023	0.0009439	0.0010436	0.00029298	1360.9	1.0707e-05	1.1453e-05	1371.9	371.67	1.1225e-05	1.1569e-05	426.3	141.28	122.51	41.649	1.1379e-05	51.96	110.548	-48.742	-52.243	-129.674	-57.702	-0.477	-129.990	-125.327	-30.405	-0.601	-125.669	-121.885	-121.234	-115.990	-19.025	-116.958	-8191	255	
6849.496	1	1	0	0	0.11197	0.05438	0.1645	0.35672	0.06273	0.13973	0.25149	0.13253	0.28536	0.038489	0.15811	0.03326	0.17836	0.093054	0.14278	0.30134	-4.7188	-4.5354	-5.175	-5.0729	-4.8583	-5.45	-5.075	-5.1417	-5.1687	-4.6521	-5.25	-5.1229	-4.7625	-5.3542	-4.7083	-4.8104	91.740	-67.899	184.009	209.795	50.934	177.188	179.851	153.020	-78.705	-81.942	153.051	60.866	-99.901	167.370	-96.866	82.293	0.0008831	0.00066665	0.00013999	1341.6	3.2734e-06	5.2107e-06	1347	364.69	9.4645e-06	6.272e-06	415.25	137.39	119.22	40.438	5.1757e-06	50.229	0.00094298	0.0010432	0.00029517	1360.9	1.1094e-05	1.1667e-05	1372.2	371.51	1.1097e-05	1.1591e-05	425.86	141.08	122.64	41.641	1.1257e-05	51.959	112.908	-48.865	-51.220	-129.681	-18.312	-3.012	-130.041	-125.147	-58.713	21.190	-125.650	-121.842	-121.178	-116.075	-17.083	-116.799	-8191	255	
6849.592	1	1	0	0	0.11624	0.15128	0.20943	0.17818	0.12456	0.25367	0.10621	0.15797	0.19223	0.23555	0.090964	0.096761	0.24069	0.13856	0.17145	0.17601	-4.7958	-4.4833	-4.925	-5.0646	-4.5375	-5.2521	-4.9604	-5.0354	-5.2771	-4.7375	-5.1021	-5.0458	-4.4271	-5.3604	-4.4625	-4.8438	33.095	40.529	78.946	182.416	20.370	19.024	145.956	128.407	-48.640	59.528	114.565	116.654	213.179	177.107	14.485	15.376	0.00090728	0.00058148	0.00016909	1339.9	5.7541e-06	2.647e-06	1344.5	363.13	1.0393e-05	3.49e-06	416.39	137.63	119.3	40.485	4.6854e-06	50.026	0.00092789	0.0010691	0.00029471	1360.8	1.0709e-05	1.1281e-05	1371.6	371.09	1.0818e-05	1.1286e-05	425.95	141.14	122.41	41.715	1.0927e-05	51.882	110.516	-36.106	-26.157	-129.688	-12.174	-6.199	-129.914	-125.223	-49.603	-6.114	-125.567	-121.876	-121.023	-116.274	-14.498	-116.979	-8191	255	
6849.689	1	1	0	0	0.064172	0.097948	0.084766	0.24391	0.13428	0.20633	0.22564	0.18376	0.30489	0.13272	0.15773	0.11654	0.21326	0.17879	0.11732	0.053051	-4.85	-4.575	-4.9125	-5.2042	-4.6438	-5.1896	-5.2271	-4.8125	-5.1479	-4.6	-5.0521	-5.1521	-4.5771	-5.0896	-4.8792	-4.6354	116.310	114.997	122.526	-106.165	146.512	141.237	146.775	186.291	-44.957	153.073	171.971	-142.935	-69.579	-138.643	-101.206	165.894	0.00092654	0.00053201	0.00013876	1339.4	3.7269e-06	4.8149e-06	1350.1	364.48	5.0911e-06	4.591e-06	414.93	137.56	118.97	40.4	4.9478e-06	49.977	0.00092297	0.00098681	0.0002793	1359.9	1.0656e-05	1.09e-05	1373.2	371.73	1.0832e-05	1.1146e-05	425.59	140.92	122.3	41.621	1.0982e-05	51.887	111.248	-66.076	-49.456	-129.661	-15.933	3.534	-129.916	-125.312	-47.901	15.486	-125.743	-121.840	-121.381	-116.228	24.340	-116.988	-8191	255	
6849.785	1	1	0	0	0.25662	0.12889	0.25754	0.3719	0.11307	0.11092	0.066255	0.16824	0.19369	0.26079	0.26727	0.20141	0.23443	0.24862	0.18566	0.097519	-5.0437	-4.7708	-4.8958	-5.2917	-4.3542	-5.1229	-5.0167	-4.7625	-5.1312	-4.8167	-5.1292	-5.2833	-4.5167	-4.9479	-4.9292	-4.8187	6.074	-118.489	145.328	166.495	-105.863	167.050	-58.571	-90.095	-118.260	-29.651	159.292	-119.343	-135.583	202.015	-134.193	64.670	0.00088864	0.00060512	9.2234e-05	1336.9	7.7573e-06	6.571e-06	1343.6	363.13	9.0077e-06	4.3403e-06	416.58	138.1	119.54	40.364	7.286e-06	50.316	0.00091357	0.0010338	0.00028237	1360.8	1.0828e-05	1.1359e-05	1371.7	370.97	1.0932e-05	1.1536e-05	426.11	141.27	122.59	41.674	1.1323e-05	51.961	110.263	-49.009	-46.449	-129.699	-53.893	11.214	-129.943	-125.241	-57.694	1.962	-125.675	-121.796	-121.209	-116.288	-16.614	-116.944	-8191	255	
6849.904	1	1	0	0	0.1592	0.14515	0.30382	0.16986	0.10574	0.059853	0.22892	0.14201	0.042209	0.26689	0.27688	0.10019	0.16204	0.11131	0.0547	0.22088	-4.9667	-4.8208	-4.8396	-5.3146	-4.4458	-5.0521	-4.9667	-4.4833	-5.1813	-4.8292	-4.9979	-5.3708	-4.6917	-5.0542	-4.9771	-4.5312	165.550	57.528	-102.811	-142.088	202.153	205.882	189.671	-82.652	96.192	83.437	-105.152	-84.143	146.825	19.145	88.936	129.411	0.0010038	0.00046766	0.00021414	1340.8	4.6663e-06	3.9929e-06	1347	364.96	7.1599e-06	3.6869e-06	418.63	137.78	119.96	40.527	3.5493e-06	50.117	0.00093131	0.0010592	0.00029766	1363.6	1.132e-05	1.1627e-05	1374.6	372.14	1.1268e-05	1.137e-05	427.08	141.19	122.82	41.722	1.1365e-05	51.99	110.728	-51.918	-69.994	-129.832	0.343	7.747	-129.816	-125.271	-50.647	-15.257	-125.697	-121.578	-121.137	-116.155	1.763	-116.639	-8191	255	
6850.000	1	1	0	0	0.3527	0.16472	0.041084	0.34779	0.22487	0.15027	0.22167	0.16529	0.26117	0.084736	0.044779	0.04798	0.050505	0.038859	0.20895	0.25873	-4.6542	-4.7208	-4.625	-5.2792	-4.6125	-4.8208	-5.3604	-4.7229	-5.1813	-4.9	-4.7583	-5.3375	-4.6458	-4.8229	-4.9938	-4.5	-13.110	47.206	188.166	177.483	-114.964	-10.772	197.620	108.741	104.781	0.993	92.576	6.968	-12.209	6.773	78.912	171.048	0.00092485	0.00039496	0.0001554	1344.9	5.9776e-06	6.5818e-06	1349.1	363.93	5.7171e-06	3.1071e-06	417.01	137.07	119.43	40.325	5.3865e-06	50.166	0.00093311	0.0010518	0.00029329	1363.6	1.0766e-05	1.1123e-05	1372.4	371.64	1.0489e-05	1.088e-05	426.49	140.87	122.54	41.647	1.0859e-05	51.928	109.665	-38.308	-80.989	-129.743	-44.615	-6.290	-129.916	-125.234	-49.527	-28.360	-125.655	-121.899	-121.277	-116.199	-19.265	-116.981	-8191	255	
6850.096	1	1	0	0	0.061816	0.21915	0.28937	0.10938	0.17162	0.10625	0.30061	0.081372	0.14165	0.35534	0.1213	0.099665	0.10699	0.33123	0.082329	0.070782	-4.8812	-4.9062	-4.6875	-5.3542	-4.7854	-4.6292	-5.1792	-4.6146	-5.0396	-4.9625	-4.7125	-5.2937	-4.8688	-4.8688	-5.1104	-4.5833	-74.773	100.376	-5.023	96.920	-16.137	-68.516	96.338	-90.744	151.648	-94.719	198.099	119.150	-136.734	146.544	189.776	146.637	0.00098031	0.00071991	0.00016101	1344.8	5.3508e-06	6.4209e-06	1345.1	364.98	1.0289e-05	7.088e-06	415.36	137.55	118.99	40.322	4.4172e-06	50.269	0.00091486	0.0010272	0.0002887	1363.3	1.0839e-05	1.1513e-05	1370.9	371.97	1.0965e-05	1.1305e-05	425.83	141.27	122.57	41.635	1.0869e-05	52.023	110.054	-48.472	-43.529	-129.686	-36.354	15.200	-129.926	-125.364	-49.769	26.150	-125.763	-121.859	-121.448	-116.189	-18.808	-116.746	-8191	255	
6850.192	1	1	0	0	0.11968	0.050793	0.25177	0.24215	0.23486	0.16057	0.036561	0.032413	0.21597	0.16207	0.11077	0.022628	0.070302	0.10077	0.24252	0.14569	-4.6167	-5.1188	-4.6917	-5.3313	-4.7958	-4.9083	-5.4396	-4.6792	-5.0792	-5.2583	-4.8854	-5.0021	-4.8854	-4.7021	-5.2792	-4.7104	135.725	95.001	49.561	207.197	207.998	60.147	154.233	113.904	-120.004	-55.084	-77.042	123.995	203.572	-63.134	207.726	53.494	0.00099034	0.00047743	0.00010838	1343.5	4.6537e-06	8.7839e-06	1351.1	363.98	1.1295e-05	4.6143e-06	415.37	137.82	119.43	40.468	5.9687e-06	50.087	0.00091595	0.0010157	0.00028743	1363.6	1.0582e-05	1.1342e-05	1374.2	371.7	1.0535e-05	1.0831e-05	425.74	141.31	122.76	41.68	1.0706e-05	51.891	109.824	-43.863	-22.588	-129.607	-19.184	-3.134	-130.018	-125.401	-55.773	16.405	-125.719	-121.761	-121.044	-116.194	-23.386	-117.155	-8191	255	
6850.288	1	1	0	0	0.098233	0.091736	0.27982	0.16611	0.092528	0.090521	0.20039	0.26711	0.083374	0.13991	0.17175	0.14534	0.13155	0.20265	0.11359	0.12626	-4.6167	-5.2021	-4.5708	-5.4062	-5.0396	-4.7562	-5.6188	-4.6125	-4.6625	-5.1625	-4.6583	-5.1687	-5.1125	-4.7021	-5.2417	-4.7667	117.640	3.923	22.161	167.383	176.934	166.455	173.211	151.347	-9.244	155.856	199.094	61.459	122.107	122.865	3.391	153.305	0.00089689	0.00061782	0.00017061	1342.6	6.4185e-06	4.1337e-06	1348.1	363.9	6.0937e-06	5.7423e-06	416.32	138.25	119.14	40.451	3.8686e-06	49.997	0.00091231	0.0010141	0.00027923	1362	1.0489e-05	1.1175e-05	1372.5	371.43	1.0689e-05	1.0957e-05	426.24	141.32	122.58	41.708	1.1204e-05	51.845	115.232	-40.619	-33.497	-129.662	-28.747	58.909	-129.897	-125.329	-20.912	27.068	-125.492	-121.988	-121.319	-116.234	9.877	-116.890	-8191	255	
6850.384	1	1	0	0	0.2121	0.10105	0.070569	0.21539	0.066018	0.076573	0.20102	0.25484	0.12617	0.18032	0.25337	0.056431	0.18208	0.044485	0.18498	0.037894	-4.4708	-5.0521	-4.4729	-5.1396	-4.9688	-4.5708	-5.1604	-5.0229	-4.6417	-5.2854	-4.8438	-5.0125	-5.2542	-4.7604	-5.2458	-4.8958	141.142	74.193	67.650	155.813	185.001	-44.554	120.035	146.937	132.042	-26.136	96.650	39.723	193.287	-58.148	9.630	-102.443	0.00092837	0.00037614	0.00014935	1337.2	4.9904e-06	4.3184e-06	1345.9	362.7	6.1669e-06	5.362e-06	416.1	137.32	119.08	40.202	6.62e-06	49.976	0.00092229	0.001029	0.00028594	1359.2	1.0534e-05	1.0957e-05	1369.9	370.7	1.0158e-05	1.0639e-05	424.81	140.77	122.07	41.456	9.7488e-06	51.739	109.824	-51.375	-57.595	-129.664	-7.319	3.184	-129.902	-125.254	-58.931	7.709	-125.730	-121.863	-121.496	-116.121	-18.233	-116.726	-8191	255	
6850.505	1	1	0	0	0.20894	0.11033	0.090042	0.18509	0.077212	0.21851	0.17384	0.22547	0.14913	0.23192	0.13919	0.1745	0.085937	0.20381	0.17867	0.16824	-4.3104	-5.0229	-4.5104	-5.1813	-5.2396	-4.7167	-5.3708	-5.1646	-4.5708	-5.2083	-4.7688	-4.9125	-5.2937	-4.7083	-5.1146	-5.1292	-55.109	-141.906	77.958	160.365	-63.767	25.346	180.519	124.683	22.811	-87.823	-66.537	43.504	-132.552	-75.852	-116.980	159.740	0.00090736	0.00045976	0.00016116	1340.1	1.5425e-06	4.204e-06	1342.2	360.89	5.0221e-06	7.2234e-06	415.05	136.91	118.39	40.159	3.2714e-06	49.949	0.00084938	0.00090964	0.00024656	1358.5	9.3592e-06	9.6628e-06	1366	369.15	9.3626e-06	9.7335e-06	423.74	140.16	121.65	41.335	9.5942e-06	51.583	109.192	-31.024	-38.659	-129.676	-5.704	28.573	-130.189	-125.040	-60.819	23.180	-125.702	-121.666	-121.038	-116.186	-30.348	-116.814	-8191	255	
6850.601	1	1	0	0	0.22854	0.080576	0.1119	0.15106	0.10292	0.082807	0.29497	0.22777	0.054909	0.1869	0.11486	0.2083	0.26159	0.13827	0.093754	0.23631	-4.2	-5.1042	-4.7312	-5.1687	-5.225	-4.6	-5.3667	-5.1729	-4.5708	-5.2146	-4.8688	-4.8083	-5.2042	-4.7104	-4.9667	-5.0396	199.719	195.398	-124.983	179.584	-65.806	-107.363	120.048	133.682	-74.500	76.574	-102.680	-109.923	169.190	169.739	-56.171	-138.541	0.00090467	0.00056803	0.00014007	1334.1	5.4656e-06	8.274e-06	1345.2	361.28	1.1912e-05	5.6744e-06	413.87	136.8	118.6	40.277	7.3431e-06	49.914	0.00085075	0.00089601	0.00025524	1355.6	9.4988e-06	9.929e-06	1368.1	369.13	9.6675e-06	9.4749e-06	423.4	140.3	121.56	41.367	9.5179e-06	51.528	113.223	-55.689	-55.484	-129.651	-22.199	-5.637	-130.081	-125.235	-41.845	20.353	-125.707	-121.780	-121.025	-116.093	-19.071	-116.872	-8191	255	
6850.695	1	1	0	0	0.18965	0.27255	0.030931	0.13546	0.10614	0.19395	0.26787	0.23008	0.18098	0.11703	0.024979	0.26123	0.11524	0.19929	0.19367	0.15243	-4.0542	-5.1	-4.8313	-4.7979	-5.1875	-4.6333	-5.3063	-5.2292	-4.4354	-5.0979	-4.8938	-4.8979	-5.275	-4.6771	-4.8604	-5.1292	-19.161	214.117	-22.518	-92.671	138.957	140.346	-142.731	130.981	-25.905	84.941	-48.092	138.064	75.425	-135.953	-95.450	121.609	0.00091682	0.0004943	0.00019179	1339.9	3.6731e-06	3.2665e-06	1344.9	361.44	9.3326e-06	6.3502e-06	414.34	136.95	118.3	40.119	4.964e-06	50.022	0.00080918	0.00084046	0.00023566	1358.6	8.9962e-06	9.1181e-06	1368.6	368.88	8.9337e-06	9.2228e-06	423.1	140.11	121.31	41.312	9.1054e-06	51.637	111.779	-59.795	-34.962	-129.738	-41.764	22.078	-130.111	-125.300	-27.364	21.787	-125.803	-122.024	-121.447	-115.894	-14.630	-117.169	-8191	255	
6850.792	1	1	0	0	0.098228	0.052077	0.23398	0.33769	0.35416	0.027505	0.30165	0.030935	0.19053	0.033787	0.1685	0.062292	0.25921	0.13209	0.15785	0.050212	-4.0896	-5.125	-4.8667	-4.9021	-5.2292	-4.6708	-5.1667	-5.3667	-4.6854	-5.0479	-5.0729	-4.7667	-5.4104	-5.1208	-4.8896	-5.3063	138.541	109.581	176.692	189.198	-16.238	-104.037	206.708	129.502	139.674	64.515	201.366	-82.432	205.525	202.149	6.250	192.714	0.00094347	0.00055673	0.00015236	1335.8	2.8073e-06	5.7558e-06	1338.5	361.42	6.5679e-06	4.0839e-06	413.1	136.66	118.84	40.178	5.1971e-06	49.768	0.00081186	0.00084507	0.00023806	1357.2	9.1771e-06	9.49e-06	1368	368.55	9.4127e-06	9.4702e-06	422.94	140.08	121.66	41.386	9.5019e-06	51.633	111.254	-54.119	-32.306	-129.676	-31.083	33.523	-129.741	-125.403	-46.686	-0.534	-125.485	-121.698	-121.182	-116.116	-13.203	-116.820	-8191	255	
6850.888	1	1	0	0	0.22542	0.1851	0.18925	0.17455	0.12499	0.024864	0.13995	0.2192	0.14978	0.036343	0.19028	0.25951	0.17908	0.17476	0.11551	0.075768	-4.2208	-5.1604	-5.0979	-4.9313	-5.2312	-4.7417	-5.0083	-5.4354	-4.6271	-4.9917	-5.0479	-4.7937	-5.3313	-4.9646	-4.7208	-5.3375	110.950	56.168	-114.615	215.019	1.426	-31.446	192.939	200.823	-40.539	-132.191	-29.660	192.854	-106.438	139.487	54.158	176.828	0.00091325	0.00040901	0.00013034	1341.1	5.553e-06	3.5257e-06	1346.4	362.11	8.6542e-06	6.2269e-06	416.57	136.92	119.1	40.251	5.3389e-06	50.198	0.0008379	0.00089125	0.00024878	1361.4	9.4992e-06	9.7294e-06	1370.9	369.45	9.7439e-06	9.8641e-06	424.44	140.43	121.75	41.502	1.0022e-05	51.791	108.582	-44.016	-54.877	-129.727	-66.038	-7.074	-129.911	-125.204	-36.968	10.185	-125.864	-121.620	-121.003	-116.151	-4.049	-116.920	-8191	255	
#DATA ENDS
