BOXY.EXE: ISS Imagent and Oximeter Data Acquisition Program Version 0.80
Ascii Record File

#ACQ INFORMATION
2  Detector Channels 
16  External MUX Channels 
1  Auxiliary Channels 
5000  Waveform (CCF) Frequency (Hz)
1  Waveforms Skipped 
30  Waveforms Averaged 
1  Cycles Averaged 
16  Acquisitions per Waveform 
10.0806  Updata Rate (Hz) 

#FILE INFORMATION
TRUE -- External MUX Channel results are PARSED.
FALSE -- AC DC and Phase are NOT grouped.
TRUE -- Companion Program Settings File CREATED.
FALSE -- AC data not excluded
FALSE -- DC data not excluded
FALSE -- Phase data not excluded
FALSE -- Auxillary Chn. data not excluded
Tab delimiters

#CALIBRATION STATE
TRUE -- Waveform Calibration Values APPLIED.


#AUX CALIBRATION VALUES
Val Type	aux-1	

Term	1.0000e+00	
Factor	0.0000e+00	


#WF CALIBRATION VALUES
A = Detector Channel
Val Type	A-AC1	A-AC2	A-AC3	A-AC4	A-AC5	A-AC6	A-AC7	A-AC8	A-AC9	A-AC10	A-AC11	A-AC12	A-AC13	A-AC14	A-AC15	A-AC16	A-DC1	A-DC2	A-DC3	A-DC4	A-DC5	A-DC6	A-DC7	A-DC8	A-DC9	A-DC10	A-DC11	A-DC12	A-DC13	A-DC14	A-DC15	A-DC16	A-Ph1	A-Ph2	A-Ph3	A-Ph4	A-Ph5	A-Ph6	A-Ph7	A-Ph8	A-Ph9	A-Ph10	A-Ph11	A-Ph12	A-Ph13	A-Ph14	A-Ph15	A-Ph16	

Term	0.00000e+00	0.00000e+00	0.00000e+00	0.00000e+00	0.00000e+00	0.00000e+00	0.00000e+00	0.00000e+00	0.00000e+00	0.00000e+00	0.00000e+00	0.00000e+00	0.00000e+00	0.00000e+00	0.00000e+00	0.00000e+00	0.00000e+00	0.00000e+00	0.00000e+00	0.00000e+00	0.00000e+00	0.00000e+00	0.00000e+00	0.00000e+00	0.00000e+00	0.00000e+00	0.00000e+00	0.00000e+00	0.00000e+00	0.00000e+00	0.00000e+00	0.00000e+00	0.00000e+00	0.00000e+00	0.00000e+00	0.00000e+00	0.00000e+00	0.00000e+00	0.00000e+00	0.00000e+00	0.00000e+00	0.00000e+00	0.00000e+00	0.00000e+00	0.00000e+00	0.00000e+00	0.00000e+00	0.00000e+00	
Factor	1.00000e+00	1.00000e+00	1.00000e+00	1.00000e+00	1.00000e+00	1.00000e+00	1.00000e+00	1.00000e+00	1.00000e+00	1.00000e+00	1.00000e+00	1.00000e+00	1.00000e+00	1.00000e+00	1.00000e+00	1.00000e+00	1.00000e+00	1.00000e+00	1.00000e+00	1.00000e+00	1.00000e+00	1.00000e+00	1.00000e+00	1.00000e+00	1.00000e+00	1.00000e+00	1.00000e+00	1.00000e+00	1.00000e+00	1.00000e+00	1.00000e+00	1.00000e+00	X	X	X	X	X	X	X	X	X	X	X	X	X	X	X	X	

B = Detector Channel
Val Type	B-AC1	B-AC2	B-AC3	B-AC4	B-AC5	B-AC6	B-AC7	B-AC8	B-AC9	B-AC10	B-AC11	B-AC12	B-AC13	B-AC14	B-AC15	B-AC16	B-DC1	B-DC2	B-DC3	B-DC4	B-DC5	B-DC6	B-DC7	B-DC8	B-DC9	B-DC10	B-DC11	B-DC12	B-DC13	B-DC14	B-DC15	B-DC16	B-Ph1	B-Ph2	B-Ph3	B-Ph4	B-Ph5	B-Ph6	B-Ph7	B-Ph8	B-Ph9	B-Ph10	B-Ph11	B-Ph12	B-Ph13	B-Ph14	B-Ph15	B-Ph16	

Term	0.00000e+00	0.00000e+00	0.00000e+00	0.00000e+00	0.00000e+00	0.00000e+00	0.00000e+00	0.00000e+00	0.00000e+00	0.00000e+00	0.00000e+00	0.00000e+00	0.00000e+00	0.00000e+00	0.00000e+00	0.00000e+00	0.00000e+00	0.00000e+00	0.00000e+00	0.00000e+00	0.00000e+00	0.00000e+00	0.00000e+00	0.00000e+00	0.00000e+00	0.00000e+00	0.00000e+00	0.00000e+00	0.00000e+00	0.00000e+00	0.00000e+00	0.00000e+00	8.08205e+01	-1.29234e+02	-1.26031e+02	-1.81587e+02	-8.04158e+01	-6.70324e+01	-1.57320e+02	-1.62015e+02	-6.06783e+01	-6.54006e+01	-1.71053e+02	-1.72518e+02	-1.82789e+02	-1.76934e+02	-6.95614e+01	-1.49544e+02	
Factor	6.67383e-05	1.91415e-04	4.93186e-05	1.58798e-01	2.57486e-06	2.00385e-06	1.78873e-01	5.50616e-02	3.22509e-06	1.97440e-06	8.99765e-02	3.70833e-02	3.90633e-02	9.87122e-03	2.25571e-06	1.39431e-02	2.65282e-05	5.58230e-05	1.57463e-05	8.19480e-02	4.79595e-07	6.43249e-07	8.68198e-02	2.84307e-02	4.90733e-07	6.41705e-07	4.53190e-02	1.86095e-02	2.03683e-02	5.15739e-03	5.46992e-07	7.08478e-03	X	X	X	X	X	X	X	X	X	X	X	X	X	X	X	X	



#DISTANCE SETTINGS
A = Detector Channel
A-1	A-2	A-3	A-4	A-5	A-6	A-7	A-8	A-9	A-10	A-11	A-12	A-13	A-14	A-15	A-16	

2.5000e+00	3.0000e+00	2.5000e+00	3.0000e+00	2.0000e+00	3.0000e+00	1.5000e+00	3.0000e+00	3.0000e+00	3.0000e+00	3.0000e+00	3.0000e+00	3.0000e+00	3.0000e+00	1.5000e+00	3.0000e+00	

B = Detector Channel
B-1	B-2	B-3	B-4	B-5	B-6	B-7	B-8	B-9	B-10	B-11	B-12	B-13	B-14	B-15	B-16	

1.0000e+01	1.0000e+01	1.0000e+01	1.4400e+00	1.0000e+01	1.0000e+01	1.5100e+00	1.9400e+00	1.0000e+01	1.0000e+01	1.9900e+00	2.4900e+00	2.4100e+00	2.9000e+00	1.0000e+01	2.9800e+00	




#DATA BEGINS
time	group	step	mark	flag	A-AC1	A-AC2	A-AC3	A-AC4	A-AC5	A-AC6	A-AC7	A-AC8	A-AC9	A-AC10	A-AC11	A-AC12	A-AC13	A-AC14	A-AC15	A-AC16	A-DC1	A-DC2	A-DC3	A-DC4	A-DC5	A-DC6	A-DC7	A-DC8	A-DC9	A-DC10	A-DC11	A-DC12	A-DC13	A-DC14	A-DC15	A-DC16	A-Ph1	A-Ph2	A-Ph3	A-Ph4	A-Ph5	A-Ph6	A-Ph7	A-Ph8	A-Ph9	A-Ph10	A-Ph11	A-Ph12	A-Ph13	A-Ph14	A-Ph15	A-Ph16	B-AC1	B-AC2	B-AC3	B-AC4	B-AC5	B-AC6	B-AC7	B-AC8	B-AC9	B-AC10	B-AC11	B-AC12	B-AC13	B-AC14	B-AC15	B-AC16	B-DC1	B-DC2	B-DC3	B-DC4	B-DC5	B-DC6	B-DC7	B-DC8	B-DC9	B-DC10	B-DC11	B-DC12	B-DC13	B-DC14	B-DC15	B-DC16	B-Ph1	B-Ph2	B-Ph3	B-Ph4	B-Ph5	B-Ph6	B-Ph7	B-Ph8	B-Ph9	B-Ph10	B-Ph11	B-Ph12	B-Ph13	B-Ph14	B-Ph15	B-Ph16	aux-1	digaux	

32757.859	1	1	0	512	0.10639	0.082885	0.024767	0.077308	0.25873	0.10447	0.34278	0.22653	0.11428	0.10917	0.11103	0.11853	0.080018	0.34534	0.13998	0.21309	-4.2958	-4.3063	-4.8938	-4.6083	-4.5188	-5.0042	-4.5062	-4.7979	-4.8083	-4.2188	-4.8729	-4.7833	-4.5146	-5.0813	-4.4	-4.8521	207.857	259.942	168.821	300.460	185.460	56.957	288.071	50.357	290.583	318.445	145.797	32.837	194.205	-7.010	38.070	313.203	0.0021277	0.00078522	0.00029086	821.89	7.571e-06	4.4269e-06	933.71	349.35	1.3756e-05	1.117e-05	472.22	226.63	163.07	89.737	8.2525e-06	131.36	0.0034977	0.0030493	0.00085657	813.01	2.6276e-05	6.39e-05	924.49	347.04	2.739e-05	3.5284e-05	470.44	225.45	163.51	90.276	3.1626e-05	131.89	-12.466	70.759	65.212	0.643	109.815	236.177	-0.371	5.434	168.114	139.951	3.311	6.424	8.323	10.913	148.333	8.786	-8191	255	
32757.979	1	1	0	0	0.083538	0.14986	0.21321	0.15158	0.10332	0.15514	0.23157	0.24792	0.14659	0.13917	0.26035	0.10062	0.27432	0.30289	0.15536	0.2636	-4.5771	-4.3333	-4.8667	-4.6792	-4.4042	-4.8292	-4.5938	-4.6146	-4.775	-4.3625	-4.8292	-4.7167	-4.3375	-5.0813	-4.2604	-4.9187	210.192	92.793	199.216	229.045	267.541	338.215	53.051	275.871	30.871	-5.901	300.601	5.901	325.822	301.053	116.593	339.399	0.0022394	0.0009836	0.00011519	820.87	9.5054e-06	6.3643e-06	937.92	348.39	7.6009e-06	6.1615e-06	472.05	226.61	163.24	89.561	1.0889e-05	131.86	0.003422	0.0031477	0.00085758	812.33	2.6829e-05	6.5984e-05	926.2	346.3	2.6947e-05	3.5206e-05	469.58	226.02	163.37	89.975	3.1158e-05	132.18	-6.559	88.176	76.708	0.317	119.597	161.277	-0.297	5.300	155.089	139.405	3.203	6.245	8.435	11.056	129.807	8.632	-8191	255	
32758.074	1	1	0	0	0.26488	0.074534	0.093893	0.23984	0.10322	0.076649	0.057832	0.19049	0.0060395	0.065359	0.075244	0.33957	0.082615	0.13097	0.12575	0.47895	-4.5958	-4.2625	-4.7292	-4.6771	-4.4146	-4.8063	-4.5667	-4.5563	-5.0125	-4.3479	-4.8354	-4.8604	-4.4062	-4.9229	-4.6042	-4.7229	157.696	278.854	180.873	134.185	53.257	169.370	317.909	326.615	336.019	172.296	78.289	241.446	291.990	226.594	98.552	292.774	0.0021872	0.00078748	0.00023533	819.41	5.7969e-06	1.4426e-06	933.24	347.4	1.4731e-05	7.9281e-06	470.24	227.54	162.75	89.383	1.1717e-05	130.98	0.0035861	0.0030682	0.00084892	811.02	2.7155e-05	6.2276e-05	922.26	345.71	2.8558e-05	3.5002e-05	467.01	226.03	162.8	89.676	3.0831e-05	131.36	-9.372	87.182	79.521	0.395	161.930	198.792	-0.371	5.591	140.812	142.736	3.241	6.347	8.229	10.982	146.993	8.609	-8191	255	
32758.170	1	1	0	0	0.0568	0.15402	0.037948	0.15275	0.13465	0.42995	0.15341	0.13024	0.19007	0.1213	0.13636	0.20148	0.13446	0.063963	0.13267	0.13403	-4.5437	-4.5021	-4.6229	-4.85	-4.1958	-4.9542	-4.6875	-4.525	-4.8458	-4.4	-4.8729	-4.9667	-4.3271	-4.9521	-4.4437	-4.7188	275.945	320.070	82.235	244.252	145.313	218.409	337.356	320.480	293.897	105.909	12.053	227.057	327.346	346.809	247.710	206.400	0.0020753	0.00088229	0.00026365	817.2	9.2301e-06	1.1849e-06	929.61	345.68	1.5511e-05	7.7257e-06	466.6	225.63	162.39	89.312	9.2328e-06	130.67	0.0033978	0.0030353	0.00084016	808.09	2.6553e-05	5.1263e-05	919.04	344.32	2.7497e-05	3.38e-05	464.95	224.22	162.43	89.491	2.9938e-05	130.74	-7.463	76.706	82.492	0.571	131.335	155.303	-0.405	5.092	154.217	130.698	3.157	6.124	8.095	11.042	153.517	8.685	-8191	255	
32758.266	1	1	0	0	0.11443	0.14852	0.026357	0.26247	0.20713	0.20625	0.17966	0.21096	0.093253	0.023298	0.16999	0.28145	0.068112	0.13083	0.089887	0.30665	-4.5271	-4.4	-4.5333	-4.9854	-4.4042	-4.7042	-4.6979	-4.4104	-5	-4.525	-4.7167	-5.0833	-4.2937	-4.9083	-4.7083	-4.5563	310.711	270.918	309.074	262.818	46.468	234.925	316.961	333.908	-3.251	275.988	252.048	261.916	299.204	273.470	87.690	281.039	0.0021097	0.00099705	0.00020126	814.95	9.9189e-06	7.5272e-06	927.79	344.43	1.3415e-05	7.5262e-06	467.3	225.61	162.61	89.573	8.4518e-06	131	0.0036094	0.0030219	0.00082852	807.44	2.6289e-05	3.3898e-05	919.48	343.15	2.6868e-05	3.3835e-05	465.39	225.08	162.43	89.709	3.0119e-05	131.34	-4.183	77.070	79.160	0.122	126.970	141.672	-0.310	5.414	164.319	150.288	3.494	6.187	8.449	10.816	156.190	8.751	-8191	255	
32758.361	1	1	0	0	0.1523	0.13403	0.14493	0.045054	0.10812	0.11406	0.024592	0.11035	0.18156	0.11447	0.2506	0.13731	0.15167	0.23132	0.19723	0.28359	-4.5938	-4.45	-4.4812	-5.0271	-4.3417	-4.7146	-4.7896	-4.2875	-4.9062	-4.3771	-4.5917	-4.9396	-4.4062	-4.9792	-4.5479	-4.4854	34.938	211.048	213.456	297.717	38.475	65.487	94.033	253.781	38.067	277.578	198.102	331.316	118.325	292.955	80.243	275.561	0.0020881	0.00088742	0.00025109	812.8	1.0462e-05	5.0504e-06	933.12	348.25	1.7648e-05	7.3773e-06	470.16	226.33	163.36	89.742	1.0264e-05	131.5	0.0033807	0.0029697	0.00084374	805.51	2.608e-05	3.3533e-05	924.29	344.66	2.6886e-05	3.3584e-05	466.97	225.63	162.92	89.874	3.0388e-05	131.91	-5.210	78.023	74.602	0.691	119.243	119.264	-0.370	5.301	158.951	126.155	3.245	6.156	8.212	11.068	161.526	8.683	-8191	255	
32758.457	1	1	0	0	0.083065	0.14194	0.12236	0.1463	0.090718	0.083922	0.13888	0.44457	0.31916	0.078903	0.12381	0.26228	0.077049	0.25838	0.18899	0.38147	-4.5	-4.3438	-4.3521	-5.1583	-4.3292	-4.6438	-4.8833	-4.3521	-4.8396	-4.5437	-4.5021	-4.8583	-4.5062	-4.6375	-4.7854	-4.425	213.008	306.225	238.926	276.666	153.632	338.869	286.355	332.280	217.560	191.644	260.701	-11.225	280.184	316.363	184.429	204.789	0.0018764	0.00088548	0.00013532	813.44	8.1704e-06	9.3014e-06	931.03	347.25	1.1176e-05	7.3328e-06	470.9	226.04	162.7	89.363	1.1268e-05	131.13	0.0028067	0.0039292	0.00083386	804.05	2.6077e-05	3.2567e-05	925.4	344.15	2.7011e-05	3.3256e-05	467.06	225.7	162.65	89.683	3.0619e-05	131.31	-6.594	127.996	97.656	0.335	132.930	111.238	-0.346	5.249	153.996	141.488	3.280	6.336	8.163	10.816	130.331	8.654	-8191	255	
32758.555	1	1	0	0	0.045546	0.090019	0.31922	0.21848	0.14303	0.091484	0.11038	0.096815	0.25322	0.10301	0.13036	0.2903	0.1655	0.3381	0.10541	0.16427	-4.4437	-4.475	-4.2833	-5.0437	-4.4771	-4.4854	-4.9979	-4.3958	-4.8708	-4.6062	-4.2917	-4.9792	-4.4792	-4.7354	-4.9688	-4.5083	264.764	313.110	73.288	38.231	81.975	144.378	88.730	275.234	82.772	253.171	22.486	277.261	322.569	295.795	239.741	308.475	0.0019193	0.0012482	0.00027788	813.15	1.1071e-05	7.8269e-06	929.68	345.13	9.6024e-06	9.3853e-06	469.75	225.94	163.1	89.203	8.0206e-06	130.8	0.002205	0.0053819	0.00085568	805.35	2.6375e-05	3.3512e-05	922.4	343.49	2.6204e-05	3.3575e-05	466.46	224.87	162.4	89.651	3.0326e-05	131.15	-7.521	122.028	105.105	0.231	120.244	150.397	-0.212	5.330	136.846	137.848	3.429	6.221	8.066	10.887	166.005	8.710	-8191	255	
32758.650	1	1	0	0	0.080614	0.16672	0.057125	0.080611	0.12843	0.11172	0.15815	0.091394	0.16873	0.06487	0.33132	0.021204	0.13813	0.080063	0.19742	0.18093	-4.3521	-4.6896	-4.1479	-5.1146	-4.4479	-4.5292	-5.0521	-4.4854	-4.6937	-4.7292	-4.3125	-4.9271	-4.5646	-4.5938	-4.9354	-4.6562	4.873	327.172	243.255	308.999	264.145	198.927	-3.758	202.954	253.738	81.275	255.698	-0.364	157.900	192.383	241.049	278.152	0.0017718	0.0010149	0.00013665	814.1	8.693e-06	8.7505e-06	927.72	345.55	1.0256e-05	1.0136e-05	471.33	225.75	162.49	89.362	8.2868e-06	131.36	0.0021485	0.0057129	0.00083767	805.18	2.5686e-05	3.4224e-05	922.71	343.04	2.6496e-05	3.447e-05	466.88	224.89	163.04	89.812	3.1212e-05	131.71	-6.868	94.085	60.327	0.292	141.611	133.260	-0.252	5.429	149.172	138.283	3.257	6.244	8.331	10.929	157.823	8.504	-8191	255	
32758.770	1	1	0	0	0.15949	0.16554	0.10404	0.23657	0.24096	0.26006	0.1537	0.09588	0.096076	0.26273	0.27037	0.25783	0.15358	0.20368	0.24786	0.25663	-4.4187	-4.8458	-4.2375	-4.9229	-4.5458	-4.4021	-4.9896	-4.6438	-4.4917	-4.8521	-4.2521	-4.9021	-4.6604	-4.3313	-4.8375	-4.6833	-1.773	-7.217	76.960	284.919	215.872	304.265	231.920	216.493	242.474	321.467	317.493	-8.621	28.787	333.997	209.906	265.656	0.0018963	0.00093051	0.00022849	816.41	6.2852e-06	7.4269e-06	930.52	348.02	1.806e-05	7.8159e-06	473.03	227.81	163.51	89.966	5.5113e-06	132.96	0.0022004	0.0054917	0.00087346	805.4	2.6333e-05	3.437e-05	926.46	344.7	2.807e-05	3.387e-05	469.16	226.1	164.2	90.255	3.1254e-05	132.83	-4.112	105.916	80.332	0.263	86.411	141.439	-0.193	5.219	147.828	126.551	3.218	6.221	8.409	10.955	142.069	8.635	-8191	255	
32758.865	1	1	0	0	0.059223	0.097351	0.13718	0.15158	0.06857	0.07995	0.19064	0.21358	0.10171	0.12781	0.11811	0.13002	0.10479	0.29633	0.12725	0.2128	-4.1875	-4.7917	-4.4396	-4.8417	-4.6979	-4.3354	-5.0167	-4.5833	-4.4062	-4.9417	-4.5146	-4.7979	-4.7604	-4.4229	-4.8833	-4.7792	344.038	314.388	121.822	306.205	295.159	300.207	221.200	311.705	219.886	255.724	331.147	298.190	244.584	-6.121	80.926	297.438	0.0018683	0.0011905	0.00016047	810.95	1.3637e-05	9.1269e-06	933.45	346.16	1.3121e-05	9.7864e-06	471.42	227.36	164.15	90.083	7.6675e-06	132.28	0.0021928	0.0058806	0.00086614	804	2.7015e-05	3.5695e-05	926.78	344.37	2.7221e-05	3.5349e-05	468.47	225.91	164.33	90.257	3.0654e-05	132.28	-4.015	106.998	62.940	0.134	116.510	140.519	-0.312	5.399	146.616	126.909	3.394	6.422	8.331	10.881	127.773	8.667	-8191	255	
32758.939	1	1	0	0	0.1575	0.17632	0.023631	0.084889	0.016269	0.28059	0.23337	0.17513	0.26449	0.043397	0.11502	0.14524	0.07643	0.28682	0.10181	0.19475	-4.2375	-4.8688	-4.3958	-4.7854	-4.6833	-4.3333	-4.9458	-4.7375	-4.5708	-4.8854	-4.3833	-4.7875	-4.9354	-4.4625	-4.8333	-4.8917	202.159	203.606	302.555	287.133	91.932	299.704	291.654	300.876	128.406	190.002	234.723	326.845	16.661	316.960	234.848	265.099	0.0018316	0.00086084	0.00016765	810.62	1.3251e-05	8.3137e-06	931.59	347.88	1.3997e-05	1.0595e-05	471.5	227.25	164.7	90.386	1.0052e-05	132.49	0.0022398	0.0054295	0.00086221	802.02	2.6881e-05	3.5116e-05	921.28	345.66	2.773e-05	3.424e-05	468.61	225.99	164.8	90.551	3.0642e-05	132.6	-2.679	135.984	92.943	0.262	99.605	160.331	-0.244	5.379	149.034	168.869	3.306	6.391	8.486	10.833	155.854	8.672	-8191	255	
32759.059	1	1	0	0	0.15098	0.14618	0.083714	0.14168	0.16324	0.083031	0.079487	0.16769	0.091273	0.13114	0.17787	0.17128	0.085876	0.30697	0.15953	0.052653	-4.2354	-4.8333	-4.3833	-4.5521	-4.8042	-4.3479	-5.0813	-4.8208	-4.3042	-5.0708	-4.6167	-4.6229	-4.9854	-4.5333	-4.7979	-4.8688	-2.580	233.200	328.311	262.474	12.659	5.067	285.711	288.654	302.097	38.601	337.624	293.233	95.781	273.457	322.898	219.794	0.0019553	0.0014327	0.0002476	811.58	1.1642e-05	6.6774e-06	934.49	347.63	1.8303e-05	1.0647e-05	474.77	229.06	164.8	90.195	9.134e-06	133.11	0.0022049	0.0058054	0.00085689	803.39	2.5841e-05	3.349e-05	921.4	346.47	2.8085e-05	3.425e-05	471.3	227.27	165.07	90.614	2.9721e-05	133.38	-7.918	133.956	87.218	0.312	112.363	142.085	-0.118	5.283	156.484	114.541	3.341	6.093	8.140	10.921	143.646	8.599	-8191	255	
32759.154	1	1	0	0	0.18077	0.0139	0.038358	0.16858	0.13659	0.27826	0.2475	0.033247	0.055739	0.3723	0.064321	0.057048	0.16836	0.046065	0.24767	0.4154	-3.9167	-4.8542	-4.5604	-4.5771	-4.8583	-4.4479	-4.8292	-4.9062	-4.2937	-4.8583	-4.6146	-4.5188	-5.0354	-4.4688	-4.7104	-4.9542	194.677	111.760	127.517	128.300	152.710	78.549	152.185	93.492	239.826	254.600	277.840	23.622	309.335	309.358	315.907	319.597	0.0018648	0.00066993	0.00022154	808.92	1.0055e-05	3.5204e-06	933.52	349.24	1.0881e-05	9.2819e-06	476.51	230.63	165.11	90.45	9.8941e-06	134.12	0.0022058	0.0052906	0.00083705	802.72	2.6133e-05	3.3797e-05	924.84	348.22	2.771e-05	3.4358e-05	474.14	228.67	165.55	91.025	3.0817e-05	134.26	-2.853	60.803	83.384	0.182	121.837	145.990	-0.150	5.272	151.261	128.620	3.389	6.298	8.335	10.916	135.074	8.500	-8191	255	
32759.250	1	1	0	0	0.073329	0.11757	0.089013	0.090773	0.10008	0.21036	0.27624	0.27597	0.10508	0.33366	0.18525	0.174	0.1653	0.11001	0.082124	0.28459	-3.9938	-4.8083	-4.6042	-4.4917	-4.9542	-4.3875	-4.9125	-4.8604	-4.2521	-4.8604	-4.7125	-4.5854	-4.9833	-4.5917	-4.5521	-4.9187	92.686	167.830	307.415	320.168	210.032	310.153	240.992	296.671	314.054	328.929	233.207	279.856	-4.829	295.326	276.966	266.573	0.0019823	0.00039595	0.0003149	811.7	1.0609e-05	9.041e-06	936.4	347.31	1.0868e-05	5.8855e-06	474.88	230.53	164.68	90.447	7.6467e-06	133	0.0022137	0.0038293	0.0012699	803.56	2.7259e-05	3.396e-05	925.48	347.46	2.7898e-05	3.4279e-05	472.18	228.38	165.27	90.673	3.2149e-05	132.97	-6.516	45.095	111.283	0.484	123.908	138.798	-0.176	5.092	162.883	155.586	3.149	6.119	8.106	10.915	135.647	8.629	-8191	255	
32759.371	1	1	0	0	0.1782	0.090429	0.28482	0.23219	0.12403	0.081562	0.16353	0.32817	0.17202	0.15274	0.18155	0.21694	0.17047	0.095693	0.086401	0.25636	-3.9771	-4.6479	-4.4896	-4.4646	-4.8375	-4.5792	-4.675	-4.9688	-4.2167	-4.8229	-4.7625	-4.5021	-4.975	-4.6167	-4.4417	-5.2792	105.955	277.912	89.510	224.882	170.648	48.294	332.008	2.425	302.190	74.599	220.911	294.334	12.730	292.906	166.338	296.003	0.0018703	0.00080092	0.00010731	808.44	7.7255e-06	7.3907e-06	930.91	346.99	1.0715e-05	7.2104e-06	474.56	229.17	163.74	90.146	7.8456e-06	132.01	0.0022596	0.0030721	0.001605	801.07	2.7519e-05	3.5569e-05	920.59	346.91	2.798e-05	3.5811e-05	471.15	227.56	164.75	90.519	3.2717e-05	132.43	-6.758	70.646	108.699	0.458	125.841	139.924	-0.279	5.194	156.394	167.477	3.107	6.388	8.102	10.933	148.760	8.765	-8191	255	
32759.467	1	1	0	0	0.084832	0.085566	0.12547	0.29239	0.19202	0.019226	0.12081	0.1612	0.21967	0.053878	0.1148	0.19204	0.24695	0.10252	0.01097	0.23754	-3.925	-4.7292	-4.6979	-4.3854	-4.8104	-4.4812	-4.4104	-5.0604	-4.4146	-4.6062	-5.0062	-4.3479	-4.8604	-4.7021	-4.4396	-5.1375	314.927	189.067	23.162	323.278	284.045	85.408	98.136	295.550	329.517	316.244	328.454	288.928	300.245	336.842	78.808	260.770	0.001727	0.0008421	0.00015976	804.64	1.0446e-05	8.1547e-06	931.42	347.29	1.271e-05	8.1543e-06	471.51	228.86	163.67	89.787	1.3598e-05	131.95	0.0022847	0.00309	0.0017443	797.95	2.775e-05	3.6098e-05	921	346.2	2.8625e-05	3.5871e-05	470.18	226.57	163.84	90.254	3.3329e-05	132.17	-4.756	68.712	123.210	0.482	144.830	127.690	-0.044	5.269	155.882	148.405	3.179	6.251	7.968	10.802	147.349	8.501	-8191	255	
32759.539	1	1	0	0	0.17399	0.019585	0.091836	0.55136	0.16349	0.035891	0.091159	0.031463	0.19016	0.17607	0.21355	0.20151	0.19486	0.16735	0.069719	0.30611	-3.9292	-4.7458	-4.675	-4.2875	-4.9521	-4.5208	-4.4667	-4.9625	-4.425	-4.6396	-4.975	-4.4167	-4.7625	-4.725	-4.3208	-5.0458	252.530	82.307	2.664	314.224	209.849	54.493	194.882	282.322	314.695	258.195	241.302	172.477	309.905	315.543	111.958	292.340	0.001926	0.00080377	0.00017938	809.87	1.4741e-05	7.615e-06	933.01	344.99	1.1356e-05	8.1613e-06	469.9	226.58	162.64	89.109	7.2243e-06	130.86	0.0022369	0.0030913	0.0016349	800.44	2.6793e-05	3.6208e-05	922.46	344.07	2.831e-05	3.5342e-05	467.68	225.08	162.34	89.506	3.1523e-05	131.07	-7.034	76.857	121.973	0.187	125.687	138.120	-0.174	5.115	176.228	160.336	2.949	6.203	8.089	10.904	134.825	8.822	-8191	255	
32759.658	1	1	0	0	0.091638	0.1164	0.093045	0.14497	0.13849	0.15138	0.095332	0.058379	0.28963	0.13819	0.21062	0.12014	0.30259	0.26535	0.24136	0.3901	-4.0771	-4.5021	-4.8271	-4.4187	-4.8771	-4.5625	-4.4	-4.8625	-4.5542	-4.4604	-5.0708	-4.2729	-4.6729	-4.7312	-4.3083	-4.9437	103.579	37.866	186.313	11.882	242.364	71.692	306.967	164.446	131.209	12.419	294.447	186.065	68.291	308.767	205.957	273.625	0.0017803	0.0010132	0.00014367	810.77	9.3829e-06	9.9063e-06	934.88	342.99	1.4373e-05	7.7899e-06	464.05	222.83	160.2	88.007	1e-05	128.22	0.0022542	0.0031235	0.0016895	803.83	2.7341e-05	3.5921e-05	921.64	342.13	2.8059e-05	3.5835e-05	461.91	222	160.37	88.549	3.18e-05	128.92	-6.013	71.132	191.340	0.389	135.852	151.610	-0.283	5.277	170.767	136.128	3.406	6.445	8.310	10.934	136.690	8.385	-8191	255	
32759.756	1	1	0	0	0.22228	0.11728	0.074982	0.019899	0.077884	0.15202	0.15787	0.19816	0.15007	0.077273	0.33128	0.21585	0.19589	0.25774	0.16064	0.062506	-4.1521	-4.4062	-4.8562	-4.5104	-4.6521	-4.8104	-4.4042	-4.9333	-4.4854	-4.3146	-4.9563	-4.5375	-4.6896	-4.8021	-4.2896	-4.9875	58.939	79.732	116.284	346.571	55.300	248.250	281.064	327.285	226.991	107.896	339.332	287.637	288.713	329.203	-8.508	319.164	0.0017673	0.00082071	5.4492e-05	808.4	1.0099e-05	9.3339e-06	921.45	340.32	1.1594e-05	1.2144e-05	459.55	221	159.27	87.11	1.1638e-05	127.74	0.0021959	0.0031727	0.0015976	801.22	2.7018e-05	3.678e-05	911.82	338.46	4.3805e-05	3.5866e-05	456.49	219.94	158.81	87.653	3.241e-05	127.96	-7.291	54.274	110.197	0.515	121.859	138.111	-0.231	5.144	164.058	137.449	3.307	6.565	8.238	11.076	131.298	8.440	-8191	255	
32759.850	1	1	0	0	0.14598	0.18857	0.24459	0.22981	0.040276	0.14801	0.17035	0.27859	0.14675	0.065447	0.23225	0.035257	0.23533	0.28086	0.27067	0.26101	-4.2708	-4.3187	-4.9563	-4.45	-4.5729	-4.7979	-4.3375	-4.9354	-4.6375	-4.2792	-4.9792	-4.6917	-4.5646	-5.0042	-4.1146	-5.0188	324.445	203.555	307.094	231.294	255.729	-2.110	294.437	272.191	124.338	213.111	256.663	28.806	298.148	318.769	160.913	279.336	0.0018881	0.00089195	8.459e-05	811.8	1.3346e-05	8.7055e-06	919.05	337.71	2.3142e-05	7.0975e-06	457.35	220.09	158.23	86.64	7.2791e-06	127.76	0.0022656	0.0032134	0.0017001	803.44	2.7452e-05	3.7188e-05	910.91	335.24	5.1666e-05	3.6632e-05	454.54	218.68	157.79	87.142	3.2939e-05	127.61	-6.257	93.577	13.380	0.413	141.615	145.843	-0.045	5.330	95.186	128.832	3.094	6.311	8.413	10.900	145.095	8.766	-8191	255	
32759.945	1	1	0	0	0.16929	0.015923	0.11805	0.20506	0.065017	0.20008	0.25647	0.33149	0.043861	0.1563	0.14725	0.041539	0.19678	0.22129	0.27697	0.17393	-4.3229	-4.3229	-4.8896	-4.5062	-4.4437	-4.9062	-4.4667	-4.7958	-4.75	-4.1937	-4.9917	-4.7042	-4.5521	-5.0583	-4.3729	-4.9854	102.691	68.833	113.605	-10.944	41.757	338.506	286.306	325.671	21.513	167.996	221.565	8.557	-10.579	299.079	108.185	264.239	0.0018562	0.00078402	0.00015612	816.32	7.3205e-06	7.2698e-06	921.59	334.78	3.387e-05	7.9592e-06	453.04	219.34	156.93	86.19	1.0441e-05	126.88	0.0022991	0.0032744	0.0014656	806.56	2.872e-05	3.666e-05	912.05	333.18	5.5954e-05	3.6831e-05	451.8	218.01	156.94	86.743	3.2718e-05	127.33	-4.707	89.370	85.778	0.220	105.680	155.411	-0.398	5.370	109.983	166.298	3.301	6.042	8.160	10.973	158.141	8.651	-8191	255	
32760.043	1	1	0	0	0.057672	0.11215	0.098932	0.12698	0.095701	0.10716	0.20902	0.24633	0.14697	0.015711	0.22542	0.16376	0.19359	0.24884	0.075013	0.27728	-4.5917	-4.2417	-4.8354	-4.6354	-4.4354	-4.9083	-4.4771	-4.7208	-4.9354	-4.3104	-5.075	-4.5854	-4.3833	-4.9625	-4.2833	-4.8938	189.129	139.903	69.345	277.107	331.944	231.738	318.113	242.639	31.254	282.589	255.041	286.985	271.212	1.420	196.882	299.288	0.0017346	0.00094623	0.00011779	810.08	8.8754e-06	7.6499e-06	922.21	333.99	2.0626e-05	8.0102e-06	448.15	218.48	155.84	85.57	1.1688e-05	126.36	0.0022811	0.0032233	0.0010412	807.68	2.8597e-05	3.7274e-05	909.67	331.85	5.1896e-05	3.6956e-05	447.77	216.64	155.97	86.285	3.3084e-05	126.37	-3.486	97.395	6.383	0.348	128.295	131.039	-0.236	5.132	122.589	128.174	3.260	6.417	8.306	10.861	152.628	8.664	-8191	255	
32760.162	1	1	0	0	0.22899	0.11332	0.21041	0.24588	0.2618	0.11121	0.1179	0.17581	0.12836	0.14665	0.26412	0.035328	0.20251	0.18609	0.11394	0.16862	-4.3125	-4.1833	-4.7979	-4.8229	-4.5271	-4.8646	-4.625	-4.8125	-4.9667	-4.3104	-4.9354	-4.9104	-4.3667	-5.1583	-4.4	-4.5813	87.437	192.605	17.686	334.724	163.016	293.805	51.505	244.361	190.377	268.689	323.050	117.293	-3.746	327.628	14.663	311.405	0.0017941	0.00016049	0.00023646	809.91	1.2279e-05	6.0639e-06	912.07	331.58	2.9416e-05	5.0132e-06	448.15	216.83	154.4	85.658	1.7921e-05	125.78	0.0023052	0.0031499	0.00089875	805.94	2.8382e-05	3.7307e-05	903	329.51	5.6758e-05	3.6584e-05	446.08	215.44	155.17	86.147	3.5735e-05	126	-8.208	38.189	67.678	0.482	132.297	135.460	-0.426	5.371	122.116	125.221	3.320	6.307	8.481	10.997	190.335	8.469	-8191	255	
32760.234	1	1	0	0	0.18101	0.074151	0.30069	0.18418	0.073513	0.098379	0.085409	0.027776	0.024479	0.19391	0.22234	0.14838	0.11739	0.23972	0.16279	0.23903	-4.4646	-4.3729	-4.5813	-4.8333	-4.2354	-4.8542	-4.8313	-4.6896	-4.9125	-4.4125	-4.8333	-4.9688	-4.3729	-4.8667	-4.5729	-4.5813	336.913	199.010	320.892	271.714	292.702	137.307	230.654	250.907	244.639	92.682	264.034	309.539	291.206	8.706	307.797	278.943	0.0017979	0.000813	0.00022829	808.47	7.3498e-06	8.151e-06	913	330.7	1.7059e-05	1.3094e-05	448.31	216.99	155.17	85.773	1.9825e-05	126.05	0.0023191	0.0033072	0.00091302	804.56	2.8917e-05	3.7299e-05	902.48	328.73	5.3603e-05	3.7865e-05	444.81	215.81	154.99	86.022	5.5377e-05	126.29	-7.643	59.521	74.358	0.126	128.774	160.444	-0.451	5.383	112.262	143.748	3.410	6.563	8.456	10.906	176.920	8.652	-8191	255	
32760.330	1	1	0	0	0.070824	0.18933	0.19868	0.27211	0.15002	0.065563	0.25155	0.1801	0.19002	0.064279	0.22399	0.34947	0.17926	0.25499	0.13646	0.56873	-4.6312	-4.2229	-4.6125	-4.9354	-4.2312	-4.7479	-4.6167	-4.425	-5.0979	-4.5292	-4.775	-4.9375	-4.3688	-4.925	-4.7083	-4.6354	267.775	147.810	256.551	323.425	326.031	232.633	275.478	259.993	20.293	-6.907	277.151	270.177	61.817	321.562	-5.947	296.578	0.0018742	0.00092689	0.00022579	809.05	7.6895e-06	1.3142e-05	912.61	330.53	2.1909e-05	6.0283e-06	448.12	216.25	154.81	85.127	1.9488e-05	125.99	0.0023776	0.0033502	0.00094468	804.63	2.9123e-05	3.8535e-05	901.96	328.34	5.6233e-05	3.8338e-05	445.43	215.41	155.02	85.709	6.0419e-05	126.3	-7.274	78.014	72.657	0.167	96.887	133.880	-0.013	5.441	112.139	139.951	3.422	6.609	8.536	10.997	180.919	8.693	-8191	255	
32760.451	1	1	0	0	0.17782	0.17447	0.14622	0.16185	0.25434	0.21008	0.078544	0.14165	0.16922	0.1579	0.20738	0.25895	0.032722	0.16181	0.14734	0.039427	-4.5896	-4.4563	-4.5083	-5.0729	-4.25	-4.6208	-4.9354	-4.3	-4.9938	-4.6292	-4.4646	-4.8979	-4.45	-4.8917	-4.7583	-4.4042	248.895	320.035	296.612	271.932	107.424	69.599	295.488	274.211	256.054	128.647	291.834	299.924	36.497	255.427	337.706	-12.000	0.0018645	0.00093276	0.00023414	808.15	1.1847e-05	6.2744e-06	906.32	329.06	2.24e-05	1.2884e-05	442.87	214.67	154.28	85.281	1.5316e-05	125.11	0.0023553	0.0033146	0.00096873	804.54	3.0093e-05	3.8577e-05	896.57	326.43	4.8215e-05	4.2889e-05	440.63	213.83	154.2	85.531	6.5787e-05	125.35	-9.142	59.494	85.320	0.332	151.409	145.510	-0.256	5.268	100.524	160.666	3.446	6.308	8.491	11.076	182.818	8.646	-8191	255	
32760.547	1	1	0	0	0.12553	0.047203	0.16485	0.342	0.095143	0.054672	0.13749	0.43719	0.028588	0.075093	0.056169	0.26314	0.22166	0.22485	0.13468	0.24689	-4.5188	-4.5375	-4.3083	-4.9729	-4.4313	-4.5917	-5.0396	-4.2688	-4.8958	-4.4771	-4.5792	-4.8708	-4.5833	-4.7937	-4.8583	-4.625	101.877	143.162	240.393	286.931	326.614	330.265	325.055	278.804	160.292	243.222	343.620	323.332	317.740	298.664	125.805	297.440	0.0017976	0.00083973	0.0002286	804.87	5.2196e-06	8.7444e-06	904.17	328.46	1.9545e-05	1.5005e-05	441.95	215.95	154.16	85.434	1.8485e-05	125.51	0.0023467	0.0035872	0.00098158	799.32	2.9723e-05	3.924e-05	894.42	326.16	3.455e-05	6.5268e-05	439.12	214.26	154.47	85.644	6.1563e-05	125.93	-7.776	96.168	69.845	0.236	143.681	136.219	-0.246	5.195	104.653	167.962	3.412	6.423	8.210	10.866	159.922	8.612	-8191	255	
32760.645	1	1	0	0	0.29721	0.060376	0.11221	0.14228	0.20093	0.091339	0.16696	0.36551	0.21752	0.17015	0.092862	0.082515	0.24135	0.27403	0.074443	0.20066	-4.5813	-4.6167	-4.2646	-5.0292	-4.4708	-4.5875	-4.9354	-4.3063	-4.7812	-4.6479	-4.3896	-4.9396	-4.6542	-4.6	-4.8708	-4.5896	335.415	144.834	136.324	307.381	208.731	57.232	281.573	334.976	228.697	100.896	343.300	300.652	284.750	302.679	216.041	326.999	0.0018275	0.00062782	0.00018362	798.51	8.5039e-06	9.1506e-06	907.16	326.53	1.1386e-05	1.7719e-05	442.76	216.12	154.46	85.454	1.4197e-05	126.36	0.002389	0.0034601	0.00097598	797.98	3.101e-05	4.1051e-05	893.57	324.77	3.0927e-05	7.1158e-05	439.41	214.71	154.43	85.733	6.4834e-05	126.46	-8.297	61.996	84.177	0.334	107.323	123.161	-0.413	5.236	150.763	122.897	3.598	6.321	8.429	10.813	180.732	8.654	-8191	255	
32760.740	1	1	0	0	0.24371	0.011051	0.11236	0.086981	0.22157	0.19894	0.17652	0.045741	0.0579	0.21189	0.11197	0.27052	0.16054	0.29497	0.022637	0.18472	-4.375	-4.7	-4.575	-4.9917	-4.525	-4.3292	-5.0188	-4.3979	-4.7833	-4.7937	-4.4604	-5.0167	-4.525	-4.5292	-4.9146	-4.4271	145.681	215.872	245.786	238.265	74.305	242.568	299.925	23.755	161.981	22.515	-1.981	21.575	10.578	287.479	140.791	274.338	0.0018109	0.001116	0.00022954	802.59	3.882e-06	6.2645e-06	908.41	327.31	1.3753e-05	1.7175e-05	443.29	216.55	154.39	85.865	8.288e-06	126.81	0.0024295	0.0035472	0.00097463	797.08	3.3994e-05	3.9339e-05	896.12	325.27	3.104e-05	7.3922e-05	441.85	215.89	154.76	86.151	6.3393e-05	126.96	-9.500	61.767	64.471	0.391	124.549	124.214	-0.192	5.259	154.205	130.927	3.369	6.424	8.572	10.981	151.671	8.727	-8191	255	
32760.836	1	1	0	0	0.026344	0.015811	0.11027	0.21929	0.22669	0.02385	0.1156	0.11514	0.1187	0.16413	0.20444	0.080666	0.17097	0.07013	0.14217	0.61397	-4.4875	-4.7458	-4.25	-4.9229	-4.4417	-4.3542	-5.0188	-4.4833	-4.5229	-4.8646	-4.3562	-4.7438	-4.7396	-4.6104	-4.8042	-4.6417	310.429	255.483	49.904	317.003	337.125	190.698	273.044	4.539	181.209	77.025	223.518	308.482	309.754	339.140	195.513	283.638	0.0017744	0.00094551	0.00014511	802.8	1.3261e-05	9.5175e-06	907.61	326.78	1.7685e-05	1.8838e-05	443.44	216.78	154.75	85.969	1.4196e-05	126.3	0.0024099	0.003722	0.00099517	795.28	5.1737e-05	4.0438e-05	895	325.58	3.19e-05	7.2165e-05	441.33	215.84	154.98	86.21	6.54e-05	126.9	-7.602	73.499	77.702	0.126	131.861	150.408	-0.285	5.636	146.612	140.904	3.601	6.393	8.480	10.810	210.225	8.598	-8191	255	
32760.932	1	1	0	0	0.19266	0.16052	0.13783	0.3203	0.29997	0.17426	0.080567	0.19014	0.087171	0.11032	0.21521	0.15127	0.085013	0.21241	0.054698	0.23821	-4.2729	-4.7083	-4.2063	-4.8313	-4.6125	-4.3542	-5	-4.4313	-4.4437	-4.7833	-4.4271	-4.9292	-4.7896	-4.3271	-4.9083	-4.5583	325.386	129.527	272.949	321.239	104.545	329.453	235.686	325.920	118.111	-0.512	215.320	249.852	17.139	292.532	38.757	2.123	0.0017277	0.00059482	0.0002937	805.84	1.1393e-05	1.0482e-05	900.59	328.77	1.1371e-05	2.0111e-05	445.02	218.02	155.39	86.329	8.4848e-06	127.66	0.0024547	0.0035505	0.0009933	796.39	5.4572e-05	4.0497e-05	891.84	327.19	3.234e-05	7.4768e-05	442.62	216.56	155.78	86.894	5.3098e-05	127.86	-7.960	56.911	100.106	0.484	56.986	133.293	-0.273	5.521	138.019	140.980	3.374	6.447	8.682	11.006	148.770	8.621	-8191	255	
32761.051	1	1	0	0	0.16945	0.10072	0.11861	0.069341	0.24304	0.062791	0.083096	0.13288	0.17521	0.069702	0.2874	0.17878	0.28701	0.097978	0.12396	0.25274	-4.0667	-4.975	-4.3167	-4.7396	-4.8063	-4.225	-5.025	-4.725	-4.3	-4.7833	-4.4563	-4.6042	-4.8708	-4.4667	-4.7021	-4.6687	219.823	231.445	75.602	13.647	-7.360	92.089	324.270	198.253	213.278	340.633	306.564	13.455	312.451	299.018	312.962	303.422	0.0018289	0.0010141	0.00012369	803.73	1.5433e-05	5.8664e-06	906.34	328.91	1.4602e-05	1.8683e-05	446.42	218.51	155.7	86.347	6.4767e-06	128.1	0.002446	0.0034581	0.0010113	796.26	5.7235e-05	4.0665e-05	895.45	327.07	3.1543e-05	7.1684e-05	444.32	217.7	155.84	86.936	3.591e-05	128.51	-7.975	76.647	59.098	0.314	68.343	104.756	-0.189	5.324	154.191	140.365	3.426	6.390	8.179	11.013	167.584	8.555	-8191	255	
32761.146	1	1	0	0	0.18211	0.096754	0.25732	0.32551	0.20843	0.057429	0.091925	0.051479	0.089913	0.10197	0.026603	0.05666	0.23401	0.23308	0.077871	0.24714	-4.0521	-4.9667	-4.5604	-4.7771	-4.6646	-4.1917	-4.8104	-4.825	-4.2875	-5.0229	-4.6062	-4.6646	-4.8083	-4.3375	-4.7438	-4.9167	181.766	-9.668	-11.647	246.729	240.319	328.683	308.578	288.283	238.887	319.206	274.050	293.837	321.431	262.184	197.757	271.984	0.0017878	0.00088167	0.00022727	804.7	1.0049e-05	5.5218e-06	904.29	327.64	5.2011e-06	1.8734e-05	446.49	218.64	155.89	86.293	9.5961e-06	126.99	0.0023875	0.0034721	0.00097555	796.08	5.3611e-05	4.0112e-05	894.84	326.24	3.1933e-05	7.5416e-05	443.11	217.27	155.67	86.679	3.5798e-05	127.82	-2.862	81.074	87.577	0.301	83.852	156.031	-0.253	5.556	120.445	140.175	3.720	6.620	8.312	10.919	165.236	8.825	-8191	255	
32761.242	1	1	0	0	0.042145	0.062919	0.17151	0.14776	0.14641	0.11934	0.11475	0.091912	0.051736	0.13488	0.14208	0.29167	0.083384	0.16576	0.02928	0.36344	-4.0521	-4.9938	-4.4729	-4.6333	-4.8	-4.3854	-4.7312	-4.8604	-4.4104	-4.9146	-4.775	-4.4542	-5.1771	-4.6188	-4.7604	-4.8688	86.329	157.564	31.798	316.425	175.095	132.271	-11.787	318.196	140.211	211.122	233.442	-1.134	283.532	269.212	-2.645	299.633	0.0018016	0.00087701	0.00019143	796.19	1.1329e-05	1.1047e-05	898.02	325.28	1.3616e-05	1.3708e-05	439.17	216.74	153.26	85.811	8.3122e-06	126.29	0.0023762	0.0034226	0.0010034	792.11	5.6993e-05	3.9517e-05	887.6	324.6	3.0941e-05	5.7882e-05	438.03	215.14	153.95	86.111	3.5157e-05	127.02	-2.437	72.406	103.796	0.418	60.775	135.843	-0.099	5.430	149.302	126.041	3.448	6.438	8.543	11.089	148.656	8.509	-8191	255	
32761.340	1	1	0	0	0.089293	0.039849	0.16124	0.19356	0.23427	0.1072	0.16221	0.16993	0.17635	0.031016	0.20266	0.19643	0.17229	0.16026	0.057358	0.23222	-4.0813	-4.7896	-4.6396	-4.5271	-4.875	-4.3458	-4.6917	-4.7729	-4.3146	-4.9771	-4.7333	-4.4583	-4.8292	-4.7937	-4.5917	-5.0333	241.187	24.739	310.918	337.748	53.176	262.338	228.770	239.483	115.728	45.803	14.269	274.792	327.474	325.614	30.427	231.350	0.0018227	0.0011413	0.00020614	798.16	1.306e-05	7.9285e-06	894.65	324.45	1.1094e-05	3.7138e-06	440.28	215.13	153.88	85.332	1.01e-05	125.98	0.0023535	0.0034764	0.00098198	788.66	5.3688e-05	3.9947e-05	884.17	323.25	3.1032e-05	3.9458e-05	439.31	214.29	153.72	85.76	3.5803e-05	126.44	-4.907	88.846	69.544	0.158	59.766	109.697	-0.348	5.529	146.913	123.630	3.465	6.004	8.499	11.200	150.009	8.464	-8191	255	
32761.461	1	1	0	0	0.20409	0.23812	0.022837	0.036503	0.05676	0.12826	0.092396	0.2328	0.16433	0.0067851	0.093859	0.21131	0.21453	0.31067	0.082393	0.17654	-4.0729	-4.8938	-4.5104	-4.3375	-4.7375	-4.4021	-4.5083	-4.9812	-4.2104	-4.6667	-4.6583	-4.5354	-4.9417	-4.6875	-4.5667	-5.0813	9.022	319.945	293.436	141.126	258.233	34.047	27.924	321.682	199.238	125.639	190.120	346.207	271.711	297.826	159.310	292.568	0.0017385	0.00085605	0.00025811	793.16	1.5162e-05	7.8375e-06	888.02	323.01	1.015e-05	8.0986e-06	434.39	215.33	154.98	84.949	9.074e-06	125.81	0.0023574	0.0034763	0.00099431	783.47	5.5788e-05	4.045e-05	880.17	321.56	3.126e-05	3.9786e-05	437.26	214.39	153.88	85.435	3.5867e-05	126.7	-5.636	65.812	66.894	0.511	76.764	151.940	-0.290	5.476	149.012	140.793	3.637	6.436	8.518	10.866	133.815	8.696	-8191	255	
32761.531	1	1	0	0	0.090815	0.11619	0.087806	0.27501	0.081855	0.085847	0.13967	0.11852	0.12674	0.18923	0.3002	0.17211	0.16794	0.20534	0.29943	0.30549	-3.9167	-4.6021	-4.6646	-4.4958	-4.9	-4.5458	-4.6	-5.0062	-4.3854	-4.5354	-4.8146	-4.4938	-4.9313	-4.6604	-4.3354	-5.2312	133.502	67.441	295.965	257.507	39.074	315.587	239.842	240.965	66.639	286.046	213.032	330.918	278.401	304.274	254.724	345.083	0.0017943	0.0009014	0.00015962	786.83	7.6995e-06	1.0573e-05	888.75	323.4	1.3811e-05	9.3924e-06	440.56	216.61	153.39	85.149	8.2686e-06	126.36	0.0024252	0.003535	0.00097289	782.21	4.3049e-05	4.9527e-05	881.92	321.42	3.1652e-05	4.0766e-05	440.07	215.08	153.34	85.539	3.5692e-05	127.11	-8.568	71.434	67.478	0.499	59.995	151.391	-0.249	5.471	153.280	129.050	3.540	6.506	8.481	10.633	130.443	8.381	-8191	255	
32761.629	1	1	0	0	0.25063	0.23079	0.12232	0.092824	0.11732	0.14453	0.17808	0.2667	0.15465	0.17778	0.12652	0.14607	0.18779	0.13375	0.057527	0.060346	-4.1188	-4.6958	-4.7417	-4.35	-4.7167	-4.6833	-4.5542	-5.0021	-4.5	-4.6062	-5.0938	-4.5583	-4.8354	-4.8521	-4.3854	-5.075	284.134	298.773	238.153	338.631	281.092	257.390	267.835	302.019	40.063	280.381	36.712	301.965	193.237	326.479	111.547	217.831	0.001787	0.001258	0.00015375	792.13	1.0026e-05	1.3495e-05	887.58	324.27	1.2497e-05	1.0752e-05	438.58	215.87	153.65	85.733	6.8587e-06	126.63	0.0023855	0.0035137	0.0010032	783.88	3.08e-05	7.4256e-05	880.04	321.72	3.2485e-05	3.9149e-05	439.12	214.59	153.42	85.755	3.542e-05	127.11	-4.706	67.145	93.755	0.290	136.607	164.006	-0.417	5.149	139.583	123.297	3.572	6.680	8.446	10.891	157.692	8.621	-8191	255	
32761.725	1	1	0	0	0.096178	0.13599	0.10905	0.24098	0.18537	0.12297	0.32574	0.21531	0.057757	0.14852	0.13081	0.050335	0.32763	0.30807	0.32511	0.19784	-4.3083	-4.5146	-4.8208	-4.3542	-4.8625	-4.4833	-4.5417	-5.1146	-4.5646	-4.575	-4.9375	-4.5146	-4.6604	-4.8854	-4.3187	-5.0396	277.646	343.905	72.858	2.273	140.819	116.635	265.648	187.315	113.808	184.708	248.185	17.942	258.930	329.932	272.509	337.789	0.0017106	0.00068282	0.00024231	794.71	1.1147e-05	1.0457e-05	894.8	326.54	1.0889e-05	8.1079e-06	439.72	217.46	154.45	86.239	1.145e-05	126.8	0.0024399	0.003506	0.00095065	785.17	3.0467e-05	7.1502e-05	883.39	324.11	3.1122e-05	3.8763e-05	441.23	216.02	154.37	86.259	3.4645e-05	127.52	-9.287	72.766	91.829	0.382	130.868	97.977	-0.379	5.706	175.234	151.541	3.571	6.289	8.289	10.787	154.927	8.629	-8191	255	
32761.844	1	1	0	0	0.069223	0.23242	0.21718	0.094056	0.038407	0.050621	0.2083	0.139	0.11138	0.10028	0.13128	0.30231	0.1402	0.32121	0.027072	0.080471	-4.4021	-4.4271	-5.0104	-4.3271	-4.9521	-4.7979	-4.2229	-4.8917	-4.5458	-4.3854	-5.0417	-4.5125	-4.6937	-5.0583	-4.4375	-5.0146	338.033	21.990	305.101	296.327	28.818	49.465	227.772	320.395	129.053	321.812	-10.304	295.565	0.383	311.298	-10.126	279.684	0.0019743	0.00081536	0.00020093	794.52	8.965e-06	2.0547e-05	893.92	325.6	1.6632e-05	8.329e-06	441.12	216.38	154	86.23	8.4514e-06	127.13	0.0029054	0.0034736	0.00096997	784.42	3.0506e-05	7.5022e-05	882.29	323.86	3.1611e-05	4.08e-05	441.56	215.65	154.25	86.305	3.4884e-05	127.65	-2.729	60.479	76.690	0.359	123.027	105.092	-0.093	5.283	141.566	146.857	3.432	6.183	8.149	10.835	161.613	8.591	-8191	255	
32761.939	1	1	0	0	0.073729	0.13784	0.10869	0.24499	0.16605	0.21011	0.10551	0.18544	0.1483	0.13199	0.26547	0.28991	0.093827	0.082926	0.14017	0.22501	-4.2833	-4.3646	-4.9542	-4.6042	-4.5312	-4.9688	-4.3604	-4.7875	-4.7542	-4.275	-5.1125	-4.6646	-4.4958	-5.0292	-4.2688	-4.8625	89.119	156.404	6.503	317.703	258.181	141.445	31.662	269.407	185.687	277.175	343.266	340.310	-4.851	51.364	2.591	268.675	0.0019407	0.00067604	0.00025973	791.73	1.3557e-05	1.3585e-05	889.33	324.1	1.0633e-05	7.8623e-06	441.32	216.86	153.96	85.518	9.7808e-06	126.24	0.0038248	0.0034117	0.00097496	785.21	2.9832e-05	6.9738e-05	881.48	322.57	3.161e-05	3.8763e-05	440.59	215.22	153.86	85.898	3.4911e-05	126.77	0.517	64.354	96.543	0.413	122.740	110.027	-0.329	5.292	174.506	142.169	3.550	6.589	8.622	10.861	146.499	8.594	-8191	255	
32762.035	1	1	0	0	0.12078	0.1799	0.091053	0.23387	0.12179	0.052655	0.051603	0.14859	0.22457	0.098436	0.02648	0.1501	0.15971	0.35573	0.19816	0.34366	-4.3375	-4.1854	-4.8271	-4.5208	-4.6583	-5	-4.625	-5.0271	-4.8021	-4.4396	-5.1562	-4.6229	-4.5312	-4.8875	-4.3979	-4.8667	176.486	130.701	272.987	14.511	141.316	333.438	212.030	65.166	82.687	136.506	31.991	282.223	252.948	327.676	145.253	274.749	0.0017046	0.00081478	0.00022186	789.27	7.1847e-06	2.0909e-05	884.81	321.8	1.0089e-05	6.0806e-06	436.38	214.92	152.91	84.92	7.2839e-06	125.54	0.003646	0.0034164	0.00097817	781.2	2.9784e-05	7.266e-05	874.87	320.7	3.1285e-05	3.7734e-05	435.25	214.03	153.16	85.485	3.5822e-05	125.83	5.812	66.412	59.838	0.485	128.182	100.445	-0.430	5.443	128.785	139.096	3.262	6.292	8.212	10.999	158.483	8.666	-8191	255	
32762.131	1	1	0	0	0.052946	0.047674	0.1648	0.13792	0.0089958	0.083842	0.13956	0.29417	0.14714	0.096692	0.10641	0.062972	0.17428	0.20582	0.090512	0.198	-4.4708	-4.1229	-4.8896	-4.7021	-4.5104	-4.9271	-4.6708	-4.8792	-4.9083	-4.45	-5.0312	-4.7833	-4.5271	-5.0604	-4.5	-4.7438	220.137	299.528	2.932	307.298	346.744	243.780	12.279	276.366	156.831	273.694	35.120	153.329	299.311	281.424	206.253	343.208	0.0016804	0.00075799	0.00022386	783.04	7.9276e-06	1.5711e-05	876.47	320.13	1.4886e-05	8.0434e-06	436.5	213.44	151.71	84.203	1.0531e-05	124.37	0.0038406	0.0033762	0.00098838	775.4	2.9933e-05	7.1075e-05	867.89	318.11	3.06e-05	4.009e-05	430.32	212.91	151.68	84.73	3.6015e-05	124.75	2.985	69.730	73.777	0.330	127.879	124.462	-0.371	5.083	148.262	147.124	3.289	6.413	8.444	10.740	130.404	8.611	-8191	255	
32762.227	1	1	0	0	0.097296	0.078403	0.16179	0.047771	0.073097	0.095572	0.24537	0.17848	0.26603	0.10895	0.1613	0.24427	0.17668	0.36597	0.14396	0.2616	-4.5542	-4.2688	-4.8458	-4.8688	-4.45	-4.7917	-4.5542	-4.6208	-4.9458	-4.2875	-4.7375	-4.7583	-4.3313	-5.0437	-4.4292	-4.6833	290.060	282.652	329.888	244.801	149.597	342.885	294.915	163.466	335.523	300.650	171.668	289.738	242.998	281.407	272.424	309.741	0.0016217	0.00057144	0.00018954	780.09	8.8165e-06	1.5495e-05	872.05	319.03	1.2353e-05	8.694e-06	430.81	212.46	151.29	84.308	9.9135e-06	124.61	0.0036759	0.0035234	0.00099959	772.27	3.0423e-05	7.6598e-05	863.53	316.49	3.129e-05	3.9623e-05	427.98	212.63	151.56	84.632	3.5451e-05	124.84	0.927	57.241	63.474	0.112	120.291	106.382	-0.132	5.418	126.147	120.671	3.440	6.575	8.348	10.742	153.033	8.480	-8191	255	
32762.324	1	1	0	0	0.071848	0.12608	0.047501	0.073836	0.19757	0.18595	0.2479	0.17494	0.12293	0.20151	0.10769	0.18138	0.10777	0.18423	0.21042	0.38218	-4.6	-4.2667	-4.7146	-4.8021	-4.3396	-4.8	-4.7333	-4.5	-5.0188	-4.4062	-4.7458	-4.7896	-4.4354	-5.0708	-4.6104	-4.5354	74.893	285.146	251.660	333.123	46.453	332.257	310.771	299.027	210.012	142.541	273.640	25.683	2.207	29.941	59.877	252.696	0.0018071	0.001033	0.00017223	773.4	6.3074e-06	1.0626e-05	877.85	318.08	1.0328e-05	1.0213e-05	428.46	212.53	151.04	84.175	1.0755e-05	124.16	0.0038234	0.0035286	0.00098073	769.96	3.0534e-05	5.3418e-05	866.26	315.77	3.1472e-05	4.0621e-05	427.08	212.46	151.08	84.506	3.5744e-05	124.45	3.276	51.721	74.995	0.189	125.955	75.336	-0.199	5.262	138.429	122.398	3.326	6.333	8.456	10.792	135.329	8.600	-8191	255	
32762.420	1	1	0	0	0.22771	0.19296	0.047966	0.20038	0.2593	0.2079	0.043986	0.41837	0.16519	0.15055	0.24719	0.11886	0.33429	0.32172	0.10951	0.16113	-4.6146	-4.2562	-4.6354	-4.7833	-4.2208	-4.9	-4.7417	-4.4125	-5.0125	-4.3875	-4.6271	-5.0813	-4.5354	-4.8375	-4.7354	-4.5104	239.570	200.592	0.268	287.332	219.993	132.537	119.922	322.626	260.410	240.889	-0.441	162.712	-12.278	331.438	163.818	251.955	0.0015616	0.00066263	0.00028534	773.25	9.416e-06	8.2679e-06	872.04	316.71	1.1504e-05	9.8292e-06	428.39	212.45	151.4	84.219	6.8626e-06	123.99	0.0036418	0.0035242	0.00098542	767.22	3.0414e-05	3.9947e-05	863.27	314.63	3.0977e-05	3.9421e-05	426.35	211.76	151.2	84.423	3.4737e-05	124.38	5.448	82.537	71.443	0.175	132.219	135.297	-0.324	5.299	138.927	156.114	3.346	6.530	8.472	10.880	153.719	8.554	-8191	255	
32762.539	1	1	0	0	0.24985	0.13098	0.29067	0.11912	0.15761	0.041543	0.28619	0.33852	0.077587	0.25321	0.041509	0.13765	0.041968	0.27286	0.071815	0.2259	-4.4812	-4.4979	-4.4417	-4.9688	-4.4021	-4.8646	-4.6937	-4.5042	-4.9708	-4.5625	-4.4292	-5.025	-4.3708	-4.8979	-4.675	-4.5479	312.646	77.441	330.203	285.444	312.945	59.719	311.589	270.553	96.423	295.905	81.626	0.690	183.094	344.244	58.923	280.745	0.0015686	0.00086881	0.00015549	775.85	8.5608e-06	5.1364e-06	870.27	317.41	1.0394e-05	8.4135e-06	431.58	213.37	151.75	84.688	9.6006e-06	125.08	0.0038099	0.0034827	0.00093425	767.04	3.0433e-05	3.9329e-05	863.42	315.95	3.019e-05	3.9367e-05	428.55	213.44	151.74	84.941	3.4481e-05	125.34	-3.609	72.613	83.029	0.186	128.796	115.355	-0.248	5.428	150.126	133.393	3.437	6.615	8.397	10.827	129.763	8.530	-8191	255	
32762.637	1	1	0	0	0.088048	0.29165	0.099407	0.21741	0.1842	0.083453	0.21298	0.27712	0.17032	0.10125	0.13462	0.25837	0.17639	0.23375	0.059662	0.15033	-4.4792	-4.5125	-4.3938	-5.0146	-4.2667	-4.6729	-4.7542	-4.2979	-5.0813	-4.6104	-4.5312	-5.0542	-4.6312	-4.7771	-4.8979	-4.6937	275.771	314.997	257.073	290.844	208.455	10.680	314.379	233.594	91.694	15.396	322.188	315.567	339.914	279.667	122.762	285.491	0.0014782	0.00051381	0.00015264	774.56	7.8301e-06	6.4337e-06	878.87	320.11	9.2771e-06	9.3082e-06	434.75	214.85	152.9	85.103	7.3526e-06	126.42	0.0028616	0.0046441	0.00095081	769.81	3.1139e-05	4.0376e-05	871.42	317.85	3.1596e-05	4.0478e-05	431.9	214.8	152.64	85.307	3.4384e-05	126.62	-2.894	98.453	87.484	0.059	136.619	122.501	-0.239	5.410	168.954	134.111	3.435	6.344	8.467	10.764	159.994	8.602	-8191	255	
32762.732	1	1	0	0	0.12449	0.31616	0.10784	0.15155	0.086622	0.21263	0.058434	0.15321	0.1169	0.20617	0.085092	0.13541	0.13378	0.15584	0.046924	0.20915	-4.5542	-4.5542	-4.3021	-5.075	-4.3167	-4.6333	-4.9354	-4.3958	-4.6646	-4.7188	-4.425	-4.9646	-4.6583	-4.6646	-4.8125	-4.7312	134.595	318.951	105.623	276.659	205.023	204.903	54.029	273.892	326.458	197.013	274.442	216.116	326.266	307.983	118.550	245.747	0.0017865	0.00056132	0.00022709	781.3	8.4433e-06	7.5763e-06	883.34	320.82	9.5369e-06	6.4221e-06	436.25	215.99	153.63	85.391	6.372e-06	126.49	0.0024162	0.0064731	0.00096974	775.36	2.9935e-05	3.8896e-05	876.99	319.25	3.2113e-05	3.9267e-05	434	215.71	153.31	85.647	3.5393e-05	126.39	-5.855	20.718	83.501	0.412	144.965	137.627	-0.238	5.427	132.403	123.225	3.404	6.286	8.691	11.118	134.315	8.515	-8191	255	
32762.828	1	1	0	0	0.020418	0.28295	0.16989	0.15955	0.083846	0.084848	0.19505	0.14413	0.026857	0.14549	0.13484	0.30648	0.19743	0.2023	0.10718	0.34342	-4.5312	-4.7854	-4.4333	-5.0396	-4.4542	-4.6917	-5.0312	-4.4271	-4.6333	-4.8438	-4.3104	-5.0083	-4.6146	-4.5458	-4.7458	-4.6208	20.114	26.890	268.726	29.164	240.650	264.012	167.344	312.055	51.959	244.901	291.139	306.683	257.072	295.646	195.224	278.921	0.001706	0.00058971	0.00025671	780.57	9.4811e-06	3.8488e-06	881.15	321.39	1.586e-05	8.5871e-06	436.25	214.33	153.19	85.35	9.7553e-06	125.67	0.0023863	0.0060735	0.0010067	773.74	3.0785e-05	3.8803e-05	872.42	319.25	3.1234e-05	3.9755e-05	433.07	214.14	153.52	85.618	3.613e-05	126.13	-5.908	13.160	81.072	0.215	113.413	133.247	0.130	5.406	128.117	152.287	3.477	6.515	8.772	11.058	143.570	8.577	-8191	255	
32762.924	1	1	0	0	0.23649	0.16377	0.066399	0.18715	0.13979	0.17008	0.10747	0.2492	0.14476	0.14324	0.058601	0.056532	0.26615	0.40838	0.051491	0.22759	-4.3812	-4.725	-4.3583	-4.8458	-4.4729	-4.4208	-5.1125	-4.4875	-4.6312	-4.9375	-4.4458	-4.9458	-4.6458	-4.4208	-4.9354	-4.5729	218.252	94.716	287.644	267.733	70.553	277.502	8.633	265.107	108.486	254.888	203.055	266.494	240.848	298.550	42.358	276.740	0.0018123	0.0015149	0.00019727	782.23	8.0576e-06	9.4788e-06	876.18	321.8	1.2869e-05	8.6817e-06	435.41	215.22	152.81	85.48	1.137e-05	126.57	0.0024084	0.0066485	0.00099927	773.99	2.9781e-05	3.8943e-05	870.73	319.78	3.147e-05	3.9045e-05	433.15	214.33	154.31	85.861	3.6214e-05	126.59	-4.597	1.855	76.084	0.451	148.522	136.584	-0.110	5.492	163.680	136.479	3.379	6.141	8.671	10.845	128.250	8.691	-8191	255	
32763.020	1	1	0	0	0.26494	0.07873	0.13259	0.09727	0.21111	0.19892	0.30157	0.21678	0.24591	0.075457	0.4012	0.25045	0.19985	0.30051	0.045712	0.20944	-4.15	-4.8063	-4.325	-4.8604	-4.6125	-4.1104	-4.8458	-4.5979	-4.6	-4.85	-4.5125	-4.9042	-4.75	-4.5875	-4.925	-4.7125	328.549	89.869	175.001	310.410	177.671	272.531	270.538	299.481	288.374	-5.237	324.525	323.132	300.602	332.934	154.466	298.501	0.0017643	0.0013216	0.00022792	780.55	7.4227e-06	5.6137e-06	880.96	319.68	1.3354e-05	8.1128e-06	436.03	215.65	151.91	85.221	9.7517e-06	125.83	0.0023835	0.0062137	0.00099923	772.28	3.0278e-05	3.8655e-05	871.54	318.73	3.0704e-05	3.9159e-05	433.34	214.16	153.44	85.512	3.514e-05	126.12	-3.522	3.589	64.159	0.415	122.584	144.146	-0.279	5.213	162.009	120.800	3.292	6.554	8.438	10.895	166.990	8.697	-8191	255	
32763.141	1	1	0	0	0.25162	0.19714	0.12844	0.28116	0.33189	0.085062	0.20542	0.20489	0.17704	0.053074	0.15913	0.35539	0.13376	0.2201	0.078789	0.234	-4.1583	-4.8333	-4.3688	-4.7542	-4.6937	-4.45	-5.0333	-4.6542	-4.5833	-4.9833	-4.5	-4.8438	-4.875	-4.4271	-4.8417	-4.8979	312.774	347.294	108.530	332.885	212.539	194.654	242.561	312.293	195.804	50.527	323.216	252.780	215.385	319.715	12.909	277.009	0.0019352	0.0011401	0.00022541	776.23	1.1573e-05	6.3929e-06	875.84	319.43	1.2727e-05	7.2679e-06	430.5	212.68	151.33	84.474	8.9244e-06	124.78	0.002379	0.0065276	0.001001	769.74	2.9975e-05	4.0385e-05	866.31	317.82	3.1225e-05	3.9941e-05	428.39	211.73	152.57	84.719	3.6186e-05	124.94	-5.871	24.523	74.473	0.369	121.497	113.152	-0.345	5.516	149.449	131.361	3.636	6.636	8.469	10.770	117.458	8.622	-8191	255	
32763.236	1	1	0	0	0.18629	0.069273	0.097273	0.20633	0.11821	0.11289	0.24218	0.17337	0.24463	0.1233	0.36249	0.10825	0.084557	0.048499	0.2193	0.17082	-4.0583	-4.8812	-4.3562	-4.8604	-4.8958	-4.3729	-4.8375	-4.6604	-4.3771	-4.9792	-4.7646	-4.6979	-5.1854	-4.4313	-4.7583	-4.9104	188.924	63.384	0.765	258.946	89.050	299.219	310.186	286.230	1.785	11.081	317.818	294.135	104.102	11.359	257.676	261.097	0.0018493	0.0010188	0.00020083	774.25	1.4482e-05	4.0398e-06	868.38	317.08	1.4279e-05	8.3053e-06	429.92	212.23	150.8	84.361	6.6742e-06	124.22	0.0023409	0.0061877	0.00096485	766.52	2.9834e-05	3.9639e-05	858.33	317.12	3.1175e-05	3.9599e-05	426.92	211.46	152.08	84.557	3.6222e-05	124.22	-8.374	43.468	73.321	0.195	138.603	86.173	-0.326	5.486	145.865	143.332	3.204	6.470	8.670	10.985	165.861	8.699	-8191	255	
32763.332	1	1	0	0	0.13955	0.12078	0.14192	0.11177	0.11766	0.058769	0.18582	0.068074	0.28467	0.20375	0.060315	0.29988	0.043858	0.25014	0.037436	0.18113	-4.0896	-4.8375	-4.3917	-4.7979	-4.8854	-4.3333	-4.7625	-4.9375	-4.2188	-5.0104	-4.6583	-4.5854	-5	-4.5229	-4.7708	-4.9646	29.011	281.065	92.525	336.553	240.380	248.099	251.909	4.516	30.499	313.740	99.771	302.141	291.848	321.988	208.439	286.806	0.0017688	0.00077764	0.00027282	767.38	8.1502e-06	6.702e-06	863.73	317.42	1.2279e-05	9.7052e-06	427.72	211.69	150.05	83.813	1.1961e-05	123.56	0.0023538	0.0060831	0.00098427	763.53	2.9649e-05	3.9321e-05	853.82	315.55	3.1187e-05	4.0189e-05	425.42	210.62	151.31	84.14	3.5815e-05	123.97	-3.172	5.230	81.758	0.231	130.677	133.779	-0.324	5.587	144.534	136.005	3.572	6.354	8.347	10.782	139.573	8.683	-8191	255	
32763.404	1	1	0	0	0.27825	0.27686	0.19057	0.070216	0.21914	0.25558	0.15709	0.1363	0.090732	0.046206	0.22491	0.23337	0.099741	0.30166	0.24288	0.18329	-3.925	-4.7583	-4.4354	-4.5021	-5.0146	-4.3146	-4.7917	-4.8708	-4.2771	-4.7021	-4.65	-4.4354	-4.9333	-4.5146	-4.5771	-4.9646	95.288	336.516	220.786	151.430	65.244	208.381	297.965	321.299	182.344	197.118	280.093	268.775	305.874	342.427	59.970	280.431	0.0018917	0.00093482	0.00027859	767.43	7.4876e-06	8.3708e-06	861.42	316.14	1.2244e-05	2.5042e-06	429.88	213.34	150.95	84.118	8.5294e-06	125.56	0.0024562	0.0041596	0.0014285	760.52	3.023e-05	3.9723e-05	853.48	315.08	3.1863e-05	3.8601e-05	427.26	211.96	151.95	84.42	3.412e-05	125.6	-5.642	10.905	67.484	0.293	128.190	128.892	-0.007	5.367	143.153	174.077	3.262	6.401	8.658	10.918	147.133	8.519	-8191	255	
32763.525	1	1	0	0	0.12413	0.083576	0.22082	0.20181	0.11982	0.095099	0.16227	0.30244	0.035726	0.18549	0.16364	0.25114	0.10271	0.25938	0.26065	0.036923	-3.8521	-4.8729	-4.525	-4.7	-4.8375	-4.4875	-4.6687	-4.8854	-4.3063	-4.8458	-4.7729	-4.3979	-4.8042	-4.4708	-4.5354	-4.9771	171.032	176.728	174.944	238.842	258.078	100.102	233.443	307.088	57.165	83.780	313.273	321.100	250.326	11.753	112.745	300.307	0.0017433	0.00068975	0.0004295	771.98	1.0327e-05	7.6175e-06	868.48	317.5	1.0581e-05	8.1693e-06	432.03	214.35	150.74	84.688	5.1584e-06	125.58	0.0023607	0.0034649	0.0017887	764.41	2.9287e-05	3.8848e-05	859.61	316.94	3.096e-05	3.8615e-05	430.38	213.29	152.24	84.941	3.3184e-05	125.62	-6.214	55.919	27.104	0.128	134.909	140.436	-0.486	5.542	183.606	120.184	3.477	6.293	8.327	10.781	154.030	8.637	-8191	255	
32763.621	1	1	0	0	0.17031	0.20919	0.13452	0.18587	0.15505	0.17128	0.0848	0.13344	0.12608	0.054835	0.17516	0.24523	0.20725	0.37484	0.22151	0.29866	-4.1125	-4.8646	-4.6687	-4.3438	-4.7646	-4.4771	-4.6979	-5.0667	-4.1854	-4.6792	-4.9792	-4.3667	-4.8458	-4.7417	-4.6833	-5.1687	53.934	82.146	318.854	299.650	156.701	324.176	96.540	249.148	44.167	243.576	23.725	346.733	224.207	317.937	95.114	300.775	0.0017362	0.00089389	0.00036728	772.69	1.02e-05	4.9119e-06	872.14	317.8	1.0723e-05	9.6132e-06	434.18	214.74	151.35	84.941	8.3019e-06	125.82	0.0024068	0.0034263	0.0017003	766.59	2.9721e-05	3.8457e-05	859.66	317.23	3.0637e-05	3.8085e-05	430.75	213.28	151.97	85.318	3.3861e-05	125.98	-6.706	76.728	22.871	0.553	140.597	125.420	-0.263	5.396	163.262	139.635	3.524	6.338	8.339	10.810	139.586	8.548	-8191	255	
32763.717	1	1	0	0	0.060194	0.21779	0.15555	0.35125	0.044673	0.12559	0.194	0.37967	0.16685	0.041991	0.089846	0.15507	0.060598	0.32815	0.10721	0.22065	-4.0375	-4.7854	-4.8875	-4.3583	-5.0188	-4.5417	-4.4521	-5.0563	-4.4625	-4.5583	-4.9104	-4.3438	-4.8375	-4.8146	-4.3542	-5.0104	341.577	269.096	303.433	277.191	-7.639	45.715	-11.625	270.635	278.211	212.886	263.007	318.817	268.928	273.291	299.651	207.727	0.0017782	0.0011852	0.00029955	770.41	1.2198e-05	8.0673e-06	872.03	319.85	1.1651e-05	5.3831e-06	431.95	214.45	152.03	84.688	1.2934e-05	125.66	0.002346	0.0032905	0.001758	766.28	2.9365e-05	3.7982e-05	862.38	318.25	3.036e-05	3.6866e-05	430.25	213.16	152.2	85.469	3.4457e-05	125.91	-0.173	89.926	48.266	0.183	121.548	139.657	-0.493	5.516	151.252	125.015	3.580	6.402	8.605	11.225	145.663	8.631	-8191	255	
32763.812	1	1	0	0	0.068642	0.066142	0.17564	0.18917	0.15901	0.055454	0.12338	0.28935	0.046751	0.063761	0.27195	0.025825	0.14194	0.06567	0.23393	0.21232	-4.0917	-4.6188	-4.7833	-4.3562	-4.6937	-4.6583	-4.4958	-4.9583	-4.6354	-4.7312	-5.0917	-4.4938	-4.725	-4.9604	-4.3667	-5.0521	8.552	186.689	58.149	302.344	73.497	174.149	218.216	244.988	54.521	36.896	338.684	51.629	283.936	270.175	254.534	303.599	0.0017807	0.00091356	0.0004066	772.9	1.3159e-05	8.8629e-06	872.39	318.42	1.9503e-05	6.4443e-06	433.42	214.44	152.5	84.819	9.6098e-06	125.07	0.002332	0.0032283	0.0016989	765.06	2.8798e-05	3.8104e-05	862.19	317.57	3.2273e-05	3.721e-05	431.02	213.33	152.24	85.478	3.3574e-05	125.6	-2.572	105.894	52.151	0.579	131.261	111.579	-0.040	5.348	188.841	143.571	3.294	6.365	8.364	10.703	141.480	8.607	-8191	255	
32763.932	1	1	0	0	0.1212	0.15978	0.061158	0.24053	0.1292	0.05141	0.080956	0.22244	0.14761	0.22239	0.083117	0.20972	0.30271	0.16482	0.12628	0.27374	-4.2854	-4.5333	-4.9271	-4.3875	-4.7688	-4.7708	-4.4729	-4.9333	-4.5396	-4.5312	-5.0646	-4.4187	-4.6771	-4.9187	-4.2438	-4.8833	10.127	183.912	169.550	331.089	50.166	287.077	220.012	239.300	47.037	180.362	-3.962	27.327	-5.878	-4.251	312.879	295.007	0.0018046	0.0011452	0.0004849	771.75	1.0764e-05	4.586e-06	867.94	315.78	1.9067e-05	7.4363e-06	429.25	212	151.14	84.041	1.0153e-05	123.87	0.0023128	0.0032133	0.0017707	763.19	2.8268e-05	3.6874e-05	857.45	314.66	4.5895e-05	3.7415e-05	426.31	210.95	150.65	84.672	3.4305e-05	124.04	-6.078	86.512	44.072	0.218	133.064	122.891	-0.031	5.286	199.948	134.301	3.299	6.536	8.496	10.720	164.793	8.559	-8191	255	
32764.004	1	1	0	0	0.055199	0.14738	0.042466	0.099287	0.24353	0.038918	0.16758	0.15892	0.13718	0.10864	0.13512	0.24904	0.24667	0.11026	0.088624	0.17314	-4.2125	-4.4042	-4.9271	-4.4667	-4.5375	-4.7604	-4.375	-5.0104	-4.7292	-4.4229	-5.0083	-4.7229	-4.8083	-5.1042	-4.3	-4.9979	70.860	-6.036	296.518	296.930	330.317	127.855	169.947	115.800	150.965	275.647	292.087	237.343	332.792	302.973	124.079	292.564	0.0018518	0.0005879	0.0003189	765.64	7.3957e-06	5.2397e-06	861.26	313.92	1.8948e-05	4.946e-06	425.03	211.75	149.47	83.474	9.8675e-06	123.52	0.002302	0.0032951	0.0016802	758.09	2.8678e-05	3.7418e-05	851.15	312.41	5.5047e-05	3.7546e-05	423.1	209.83	149.57	84.093	3.4361e-05	123.49	-3.558	61.348	33.776	0.209	133.677	127.345	-0.016	5.354	191.487	137.345	3.301	6.226	8.436	10.833	148.751	8.518	-8191	255	
32764.102	1	1	0	0	0.22	0.23582	0.19653	0.17392	0.14312	0.048493	0.20805	0.094411	0.24096	0.099666	0.30017	0.20685	0.055508	0.18727	0.046814	0.11658	-4.5167	-4.2417	-4.8938	-4.4896	-4.3458	-4.8625	-4.4625	-4.8396	-4.7646	-4.2396	-4.9271	-4.6333	-4.5021	-5.0625	-4.2458	-5.0563	71.456	152.669	303.905	206.462	126.193	29.928	205.072	285.177	193.993	92.631	242.288	308.566	313.664	215.286	319.574	324.514	0.0017507	0.00093992	0.00030787	760.97	8.2867e-06	6.0967e-06	858.01	312.33	2.6443e-05	8.6748e-06	422.61	209.16	148.41	83.135	7.8927e-06	122.4	0.0022908	0.0032781	0.0015487	755.46	2.8052e-05	3.7461e-05	845.58	310.43	5.1999e-05	3.7061e-05	420.07	208.23	148.96	83.683	3.34e-05	122.74	-5.141	74.240	29.589	0.232	114.086	143.437	-0.199	5.410	186.737	139.110	3.156	6.243	8.310	10.594	153.750	8.439	-8191	255	
32764.221	1	1	0	0	0.1396	0.056128	0.063046	0.13418	0.2076	0.11378	0.075805	0.41882	0.11914	0.074288	0.20274	0.26477	0.13853	0.24916	0.16819	0.12733	-4.525	-4.2646	-4.7333	-4.5813	-4.5188	-4.9375	-4.2958	-4.7583	-4.8521	-4.5042	-4.95	-4.8063	-4.4292	-5.0771	-4.4	-4.8	118.288	132.502	295.389	75.200	325.638	176.611	255.364	240.583	277.564	87.383	204.546	325.615	147.821	-4.487	181.389	310.902	0.0019064	0.00081839	0.0003306	755.87	1.3492e-05	1.0608e-05	853.47	309.77	1.6606e-05	7.0954e-06	420.72	208.1	147.72	82.165	8.3708e-06	121.52	0.0023025	0.0033541	0.001009	755.61	2.8375e-05	3.7885e-05	843.93	307.92	5.615e-05	3.8387e-05	417.96	206.99	147.71	82.856	3.3772e-05	121.74	-7.086	77.539	43.197	0.226	124.215	143.217	-0.045	5.254	191.340	154.049	3.450	6.357	8.453	10.640	127.000	8.502	-8191	255	
32764.316	1	1	0	0	0.13292	0.13684	0.10641	0.39854	0.045796	0.12548	0.30586	0.24215	0.19199	0.30139	0.10462	0.19511	0.33122	0.26768	0.1236	0.3713	-4.5521	-4.3104	-4.8187	-4.8187	-4.4313	-4.9458	-4.4896	-4.5896	-4.8708	-4.2646	-4.9042	-4.7958	-4.3417	-4.9479	-4.5312	-4.7438	207.331	48.083	156.223	325.179	19.817	191.507	288.666	327.667	-2.787	244.064	340.908	239.482	302.608	340.103	72.272	298.147	0.001675	0.0011457	0.00019391	764.84	9.4112e-06	9.8162e-06	845.63	307.79	2.5227e-05	9.2261e-06	412.71	203.85	146.39	81.427	5.9947e-06	119.92	0.0022663	0.0033515	0.0008935	757.24	2.8574e-05	3.8108e-05	837.15	305.62	5.3929e-05	3.9255e-05	410.78	203.33	145.67	81.891	3.9084e-05	119.75	-6.322	84.285	60.529	0.108	126.509	129.444	-0.457	5.489	191.708	146.068	3.230	6.461	8.305	10.907	141.575	8.704	-8191	255	
32764.412	1	1	0	0	0.30049	0.17282	0.073836	0.12572	0.17431	0.19659	0.16035	0.16285	0.034736	0.13558	0.24237	0.21191	0.045897	0.17032	0.23514	0.12932	-4.3771	-4.3667	-4.7146	-4.7958	-4.2583	-4.7167	-4.475	-4.5542	-4.8167	-4.4458	-4.8812	-4.9062	-4.5833	-5.0375	-4.5437	-4.5667	17.884	272.253	290.219	315.121	48.727	228.689	83.147	268.665	170.664	255.186	293.590	329.253	200.790	282.497	308.149	316.919	0.0017317	0.0010331	0.00016771	749.6	1.2347e-05	1.2745e-05	838.54	302.43	1.1306e-05	4.5147e-06	410.86	203.04	144.31	80.979	1.0001e-05	119.04	0.0022682	0.0034053	0.00091112	748.46	2.9936e-05	3.8497e-05	826.84	301.9	5.732e-05	3.8034e-05	407.06	202.26	144.88	81.254	5.4202e-05	119.31	-5.254	88.378	73.771	0.185	131.042	150.855	-0.462	5.451	204.150	99.665	3.337	6.510	8.330	10.801	159.747	8.370	-8191	255	
32764.533	1	1	0	0	0.14762	0.096749	0.063185	0.15212	0.13295	0.14334	0.20377	0.18809	0.069381	0.075201	0.13274	0.20919	0.11361	0.15768	0.10724	0.25314	-4.6396	-4.3271	-4.5396	-4.975	-4.4083	-4.8375	-4.6167	-4.5167	-5.0229	-4.3812	-4.7562	-4.8854	-4.2688	-4.8729	-4.6625	-4.4938	208.908	26.517	250.278	257.451	237.513	58.796	197.256	93.422	346.395	17.883	259.598	237.477	307.186	261.638	7.772	337.448	0.0016242	0.00092435	0.00019991	750.04	1.0868e-05	4.1527e-06	832.54	300.88	1.6948e-05	8.0198e-06	406.31	202.14	143.11	80.417	7.2766e-06	118.62	0.0022923	0.0032672	0.00093471	746.96	2.9801e-05	3.8045e-05	821.86	299.92	5.3969e-05	3.8144e-05	404.53	201	143.35	80.65	6.4348e-05	119.1	-4.900	73.910	95.648	0.090	123.405	113.492	-0.436	5.180	196.438	137.573	3.182	6.361	8.392	10.803	53.360	8.420	-8191	255	
32764.629	1	1	0	0	0.25883	0.13808	0.14242	0.12861	0.25404	0.11437	0.16566	0.33312	0.10544	0.012349	0.1375	0.17119	0.056114	0.3006	0.16717	0.1441	-4.4854	-4.45	-4.4354	-4.9229	-4.2542	-4.7875	-4.8167	-4.5	-4.8708	-4.4958	-4.6333	-5.0687	-4.2458	-4.85	-4.7667	-4.5667	299.596	162.640	99.788	320.683	180.701	181.170	345.531	249.556	244.073	7.635	243.780	317.711	113.114	2.149	97.907	226.659	0.0016741	0.00066599	0.00025083	747.48	1.0883e-05	7.1222e-06	837.2	300.68	7.1485e-06	1.1769e-05	407.1	202.85	143.35	80.36	8.7217e-06	118.5	0.002328	0.0033833	0.00094445	744.14	2.9857e-05	3.81e-05	825.52	299.14	4.8614e-05	4.6816e-05	404.08	201.29	143.47	80.52	6.1069e-05	118.89	-8.230	66.288	60.279	0.367	151.763	150.453	-0.183	5.320	156.135	184.129	3.333	6.358	8.438	10.752	87.537	8.548	-8191	255	
32764.701	1	1	0	0	0.16046	0.017961	0.069564	0.24991	0.16349	0.08527	0.10648	0.041894	0.14339	0.12038	0.37882	0.20748	0.28167	0.15786	0.071399	0.30405	-4.6521	-4.5021	-4.2542	-4.9333	-4.275	-4.7542	-4.7354	-4.4146	-4.7937	-4.65	-4.4375	-4.9083	-4.5479	-4.7688	-4.775	-4.5333	45.121	49.431	68.346	9.683	320.850	243.343	238.917	149.138	197.719	261.503	239.614	285.561	279.560	290.016	62.419	294.365	0.0016651	0.00087965	0.00017201	748.39	1.0647e-05	1.0165e-05	828.67	300.78	9.5725e-06	8.8054e-06	406.32	200.24	143.36	80.096	8.7669e-06	118.76	0.002332	0.003327	0.00095222	745.77	3.0428e-05	3.9114e-05	821.54	298.96	3.1004e-05	6.5025e-05	403.38	200.14	143.32	80.453	6.6193e-05	118.69	-6.973	66.684	87.030	0.046	123.187	140.148	-0.264	5.323	153.828	172.803	3.424	6.569	8.660	10.647	95.891	8.483	-8191	255	
32764.822	1	1	0	0	0.066242	0.065543	0.063	0.11494	0.06687	0.11408	0.12468	0.21602	0.012925	0.24473	0.16084	0.28499	0.23949	0.13981	0.11648	0.17845	-4.4708	-4.6	-4.1937	-4.9938	-4.3896	-4.6583	-4.9938	-4.4021	-4.7604	-4.6604	-4.4625	-4.9854	-4.5312	-4.6708	-4.9104	-4.4688	78.875	255.674	68.530	345.759	196.571	181.915	294.113	316.265	235.109	238.091	160.657	325.976	47.650	289.797	208.141	38.479	0.0016673	0.00059364	0.00018546	744.04	7.1906e-06	5.7774e-06	831.41	300.84	1.3943e-05	5.0849e-06	407.93	203.09	143.97	80.911	4.7422e-06	119.71	0.0023256	0.0034972	0.00099779	741.52	3.0718e-05	3.9269e-05	821.51	298.62	3.1409e-05	7.4043e-05	405.03	201.87	144.11	80.995	6.0796e-05	119.82	-8.816	67.989	80.353	0.225	110.280	145.792	-0.393	5.261	175.230	237.707	3.416	6.321	8.393	10.684	116.133	8.390	-8191	255	
32764.916	1	1	0	0	0.033278	0.032475	0.19025	0.38539	0.13434	0.11973	0.12641	0.16352	0.27226	0.15484	0.20289	0.2902	0.12535	0.41261	0.25377	0.24351	-4.3354	-4.6813	-4.4313	-4.9417	-4.3812	-4.4708	-4.8854	-4.5125	-4.7479	-4.5646	-4.3688	-4.8646	-4.5021	-4.6208	-4.8375	-4.5563	251.203	54.137	153.479	310.785	128.520	308.203	231.635	-2.557	168.755	291.824	304.908	267.269	248.667	-6.607	317.534	272.050	0.001736	0.00071979	0.00017131	749.54	1.9236e-05	6.9371e-06	838.14	303.32	1.7994e-05	9.6574e-06	407.89	203.93	144.44	81.136	7.3669e-06	120.25	0.0023479	0.0034727	0.0010055	744.68	3.7797e-05	3.9965e-05	826.77	301.37	3.1117e-05	7.1315e-05	407.51	203.2	144.6	81.399	6.5963e-05	120.67	-7.444	65.204	79.733	0.191	148.263	155.899	-0.170	5.504	138.018	209.970	3.434	6.364	8.314	10.838	85.017	8.513	-8191	255	
32765.012	1	1	0	0	0.23766	0.10085	0.075963	0.16023	0.1835	0.18392	0.24898	0.24764	0.12736	0.10755	0.22052	0.085352	0.093196	0.076617	0.082206	0.059515	-4.3729	-4.6958	-4.3375	-4.9375	-4.6604	-4.45	-5.0188	-4.4021	-4.6146	-4.7229	-4.5	-4.9229	-4.6479	-4.4896	-4.95	-4.5521	18.267	89.667	161.731	318.045	95.939	177.458	286.051	302.589	319.131	209.028	245.549	282.213	198.214	290.118	234.287	309.198	0.0017491	0.0011194	0.00026678	753.53	1.6861e-05	8.9948e-06	843.73	305.35	1.2196e-05	6.8534e-06	416.99	205.46	146.38	81.45	1.2777e-05	121.16	0.0023653	0.0036638	0.0010147	746.17	5.1997e-05	4.1136e-05	834.77	304.14	3.1334e-05	7.6247e-05	413.54	205.25	146.27	82.063	6.3368e-05	121.51	-7.892	67.867	81.868	0.135	153.543	127.475	-0.147	5.301	144.981	263.791	3.433	6.263	8.403	10.920	65.559	8.445	-8191	255	
32765.107	1	1	0	0	0.11918	0.093046	0.14615	0.23125	0.087243	0.2557	0.22025	0.14227	0.099884	0.11538	0.17928	0.11258	0.15603	0.10934	0.17628	0.1185	-4.0458	-4.6667	-4.2146	-4.7417	-4.65	-4.275	-5.0042	-4.6292	-4.5292	-4.9333	-4.4958	-4.75	-4.6292	-4.5708	-4.8438	-4.6312	61.478	38.224	279.305	45.284	290.103	184.178	245.360	261.507	5.675	232.718	303.064	314.396	342.386	266.964	224.751	282.841	0.0016985	0.00061595	0.00023345	755.74	2.368e-05	1.237e-05	840.34	305.67	8.8851e-06	5.7206e-06	415.34	205.77	146.4	82.281	1.2582e-05	121.39	0.0023807	0.0035809	0.0010013	747.57	5.8587e-05	4.1242e-05	833.56	304.19	3.2416e-05	7.3763e-05	412.38	204.84	146.72	82.394	5.3806e-05	121.77	-6.823	56.720	67.017	0.284	139.787	146.640	-0.469	5.459	98.517	242.460	3.531	6.252	8.507	10.995	70.566	8.431	-8191	255	
32765.229	1	1	0	0	0.29307	0.11002	0.14361	0.14535	0.15448	0.12635	0.18793	0.21131	0.092564	0.15171	0.18626	0.29742	0.07712	0.17165	0.14288	0.48125	-4.2167	-4.8229	-4.3125	-4.8042	-4.6562	-4.3167	-5.1062	-4.5312	-4.4833	-5.0583	-4.4417	-4.8625	-4.9187	-4.4417	-4.8125	-4.6292	4.784	255.309	202.060	261.970	58.420	90.836	194.295	267.254	130.845	263.623	225.268	261.383	89.438	243.278	10.544	269.511	0.0017855	0.00093338	0.00016612	752.4	2.1276e-05	9.2344e-06	844.81	306.27	1.0593e-05	6.6769e-06	413.24	206.79	146.44	82.439	1.0694e-05	121.8	0.0023936	0.0036195	0.0010215	744.22	5.5813e-05	4.0962e-05	834.13	304.66	3.2364e-05	7.7714e-05	412.63	205.6	147.06	82.652	3.5629e-05	122.28	-5.953	86.524	79.112	0.087	136.029	148.618	-0.110	5.171	178.371	221.030	3.475	6.448	8.399	10.767	154.155	8.506	-8191	255	
32765.301	1	1	0	0	0.21789	0.12231	0.17146	0.23286	0.25261	0.097138	0.16179	0.10199	0.28836	0.2705	0.044145	0.2876	0.18398	0.26061	0.21195	0.13798	-3.9938	-4.9125	-4.4187	-4.675	-4.7812	-4.2292	-4.7583	-4.6958	-4.3771	-4.8479	-4.4833	-4.7979	-4.8313	-4.4313	-4.7604	-4.6625	232.887	340.767	126.133	321.900	325.975	82.930	155.500	337.902	262.902	234.635	136.472	322.474	276.799	316.824	-4.116	284.359	0.0017521	0.00085394	0.00023991	754.49	2.3449e-05	8.3878e-06	845.35	304.07	1.3278e-05	7.6591e-06	413.75	206.64	146.55	82.024	9.146e-06	121.27	0.0024018	0.0035218	0.00098765	745.89	5.8494e-05	4.057e-05	834.01	304.16	3.2662e-05	7.3494e-05	412.43	205.82	146.5	82.393	3.6039e-05	122.15	-4.108	77.584	101.280	0.209	162.361	123.694	-0.449	5.230	144.845	270.014	3.414	6.517	8.393	10.772	145.773	8.604	-8191	255	
32765.396	1	1	0	0	0.14005	0.029681	0.26424	0.016514	0.25563	0.087391	0.19983	0.20331	0.077357	0.099269	0.075207	0.19307	0.21761	0.2171	0.23483	0.091354	-4.0479	-4.9313	-4.4042	-4.8458	-4.7917	-4.3	-4.8354	-4.8125	-4.3333	-4.9667	-4.5833	-4.4688	-4.9458	-4.4896	-4.6708	-4.8792	290.772	170.920	175.003	26.941	70.019	206.395	-11.385	334.456	150.930	143.320	264.482	213.400	306.892	292.332	192.486	261.063	0.0016957	0.00078959	0.00024596	751.34	2.5055e-05	8.7758e-06	847.45	304.73	1.4554e-05	3.1938e-06	412.63	206.84	146.61	81.668	6.9286e-06	120.78	0.0024379	0.0036228	0.0010018	744.32	5.519e-05	4.2145e-05	834.48	303.22	3.2772e-05	5.9275e-05	412.13	205.05	146.2	82.023	3.6658e-05	121.32	-1.288	84.336	82.985	0.245	129.273	136.388	-0.238	5.380	149.488	328.165	3.339	6.348	8.322	10.706	171.655	8.614	-8191	255	
32765.492	1	1	0	0	0.35976	0.079189	0.19948	0.27368	0.12455	0.33442	0.17976	0.3109	0.23113	0.1005	0.17736	0.20752	0.17445	0.22753	0.058802	0.28052	-3.975	-4.825	-4.5646	-4.6146	-5.0104	-4.3042	-4.7229	-4.9396	-4.2458	-4.8792	-4.7292	-4.7042	-4.9667	-4.3896	-4.6396	-5.0896	175.996	62.051	120.962	339.766	298.970	-0.754	58.105	269.765	257.453	185.384	242.132	339.150	288.555	329.431	291.107	302.900	0.0018647	0.00078479	0.00029362	744.22	1.0548e-05	5.0997e-06	835.03	303.92	1.5743e-05	8.7785e-06	410.17	203.95	145.56	81.288	8.3006e-06	119.69	0.0024499	0.0034827	0.0010153	740.68	5.8721e-05	4.0974e-05	826.23	302.52	3.2831e-05	4.0816e-05	410.76	203.24	145.53	81.626	3.7576e-05	120.54	-9.925	42.466	92.059	0.422	163.666	117.230	-0.262	5.500	150.979	158.525	3.439	6.464	8.153	10.616	138.670	8.508	-8191	255	
32765.613	1	1	0	0	0.22243	0.32327	0.21483	0.23221	0.10312	0.18509	0.090737	0.054935	0.14388	0.15572	0.14183	0.068217	0.067035	0.42507	0.034039	0.11778	-3.95	-4.7854	-4.6271	-4.3729	-5.0146	-4.5896	-4.7979	-4.9958	-4.35	-4.7542	-4.7042	-4.5708	-4.8875	-4.5417	-4.5687	-5.2292	98.721	254.501	321.587	47.428	227.311	291.298	304.983	-9.981	197.576	6.920	312.991	13.816	211.815	305.460	317.768	329.236	0.0015737	0.00079954	0.00023426	747.74	2.3456e-05	7.1444e-06	831.79	303.48	1.5274e-05	6.9585e-06	409.76	204.55	145.35	80.989	6.7847e-06	119.54	0.0024123	0.0035856	0.0010236	738.52	5.6478e-05	4.113e-05	822.89	301.73	3.2688e-05	4.1211e-05	411.02	203.77	145.37	81.469	3.7655e-05	120.54	-6.041	54.780	80.372	0.257	159.186	154.757	-0.081	5.409	147.990	135.589	3.322	6.520	8.221	10.743	160.138	8.493	-8191	255	
32765.711	1	1	0	0	0.24711	0.054127	0.054103	0.18942	0.24232	0.029871	0.12679	0.17564	0.07835	0.18943	0.031134	0.19594	0.086576	0.28011	0.12944	0.24489	-4.0896	-4.65	-4.8917	-4.3979	-4.925	-4.5062	-4.6917	-4.9896	-4.3458	-4.7479	-4.9563	-4.4125	-4.85	-4.6562	-4.3604	-5.0708	338.714	79.827	132.010	321.038	206.635	282.330	264.480	322.547	165.713	38.149	156.081	336.793	254.550	-7.976	61.299	5.025	0.0017464	0.0011644	0.00018954	741.14	1.5028e-05	9.4455e-06	831.07	303.65	1.5653e-05	8.7786e-06	410.38	205.41	145.21	81.108	8.467e-06	120.84	0.0025108	0.0036576	0.0010755	734.79	4.4554e-05	5.7071e-05	822.5	301.52	3.3649e-05	4.1596e-05	411.28	204.47	145.64	81.521	3.9117e-05	121.24	-8.324	77.716	87.536	0.124	115.638	191.211	-0.240	5.362	151.851	168.674	3.604	6.314	8.179	10.865	162.450	8.482	-8191	255	
32765.807	1	1	0	0	0.14307	0.16125	0.1464	0.33565	0.11616	0.091187	0.074984	0.15563	0.065788	0.10885	0.15456	0.1697	0.21461	0.34759	0.099839	0.27259	-3.9688	-4.6292	-4.7583	-4.375	-4.8125	-4.725	-4.4313	-5.1375	-4.45	-4.5917	-4.9563	-4.4396	-4.9208	-4.7646	-4.4625	-5.2125	276.764	205.747	185.223	328.034	-6.189	114.734	188.235	296.145	-2.258	74.420	-6.483	322.388	252.018	318.056	143.763	232.186	0.0016725	0.000501	0.00012659	744.21	4.7285e-06	1.0623e-05	832.83	303.2	1.0632e-05	7.2906e-06	411.97	205.86	145.08	81.436	7.1369e-06	119.95	0.0025175	0.0037175	0.0010813	737.1	3.2289e-05	7.6513e-05	824.49	301.84	3.4112e-05	4.3197e-05	412.6	204.67	145.62	81.69	3.8544e-05	120.84	-6.946	74.103	109.663	0.194	149.998	192.148	-0.450	5.416	180.659	146.530	3.631	6.353	8.277	10.733	137.261	8.571	-8191	255	
32765.902	1	1	0	0	0.19424	0.061426	0.21151	0.1401	0.073984	0.14263	0.20816	0.1076	0.12976	0.10615	0.16838	0.25218	0.27343	0.14686	0.14166	0.16154	-4.1146	-4.4979	-4.9	-4.3729	-4.9125	-4.5458	-4.5604	-5.05	-4.5104	-4.5875	-5.0104	-4.4458	-4.8063	-4.7438	-4.1042	-5.0375	33.723	240.353	44.984	294.610	213.636	28.069	18.885	314.267	72.959	204.749	314.834	337.900	36.810	2.694	244.257	315.321	0.0016689	0.00031004	0.00021688	743.59	1.0816e-05	2.0086e-05	831.37	304.1	8.6282e-06	9.784e-06	410.99	205.47	145.87	81.652	1.3131e-05	120.27	0.0024831	0.0037831	0.0010755	737.3	3.2193e-05	8.1672e-05	823.71	302.89	3.2903e-05	4.2965e-05	412.52	204.68	146.36	81.938	3.8145e-05	120.79	-6.711	68.461	66.111	0.415	124.140	174.750	0.113	5.316	169.135	143.571	3.337	6.407	8.377	11.037	130.005	8.535	-8191	255	
32765.996	1	1	0	0	0.25953	0.034777	0.06816	0.35808	0.1615	0.081766	0.15368	0.18054	0.19444	0.093839	0.15399	0.19742	0.22164	0.28344	0.18731	0.12639	-4.0729	-4.3333	-4.7542	-4.55	-4.7292	-4.9042	-4.4396	-5.0021	-4.5708	-4.5542	-4.9333	-4.4354	-4.9854	-4.9208	-4.2646	-4.9667	134.374	266.932	224.260	306.407	340.113	163.223	281.382	272.460	112.633	291.306	234.230	249.877	274.137	52.149	203.762	342.872	0.0019212	0.0011338	0.0001793	744.28	6.1373e-06	1.6178e-05	831.94	305.11	1.9362e-05	1.0083e-05	410.01	206.61	146.3	81.674	6.9294e-06	120.1	0.0031398	0.0037963	0.0010642	738.16	3.206e-05	7.6943e-05	822.96	303.26	3.3878e-05	4.2815e-05	413.01	205.06	146.24	82.032	3.8122e-05	120.7	-9.026	95.442	71.561	0.425	111.936	191.017	-0.352	5.287	165.601	125.354	3.575	6.441	8.617	10.753	145.995	8.733	-8191	255	
32766.094	1	1	0	0	0.25247	0.11346	0.17061	0.078438	0.054149	0.23659	0.032411	0.18633	0.034798	0.16259	0.0581	0.32537	0.13766	0.14974	0.10748	0.019486	-4.2729	-4.525	-4.9021	-4.5625	-4.7167	-4.6937	-4.4771	-4.7708	-4.6271	-4.3479	-5.1208	-4.4938	-4.7042	-5.1312	-4.4	-5.0833	331.944	4.779	183.864	14.276	43.955	-6.482	33.682	326.714	49.533	312.732	340.785	258.850	77.077	313.876	73.824	336.747	0.0016034	0.0007179	0.00011201	741.91	1.2503e-05	1.6577e-05	834.4	305.44	1.1496e-05	4.883e-06	411.22	205.83	146.47	81.457	6.6534e-06	120.32	0.0039178	0.0038962	0.0010667	736.11	3.2299e-05	8.1036e-05	825.1	304.08	3.4397e-05	4.3296e-05	412.63	204.95	146.36	81.881	3.805e-05	120.44	341.242	72.632	110.718	0.018	124.471	196.200	-0.184	5.491	123.698	158.772	3.250	6.462	8.349	10.842	152.025	8.575	-8191	255	
32766.213	1	1	0	0	0.057865	0.059015	0.076569	0.14072	0.24404	0.2428	0.13643	0.11643	0.095591	0.24425	0.018188	0.064505	0.10651	0.39607	0.12055	0.19987	-4.4271	-4.375	-4.9854	-4.5729	-4.6167	-4.9521	-4.3521	-4.7896	-4.6646	-4.3104	-4.9062	-4.5042	-4.5417	-5.0396	-4.5125	-4.7917	155.497	63.429	319.292	31.463	256.502	211.324	36.269	337.033	272.542	290.032	216.012	280.145	40.399	305.913	194.078	317.159	0.0018647	0.00086214	0.00027659	741.49	7.2688e-06	8.5462e-06	827.9	303.19	9.0151e-06	8.8569e-06	406.29	203.08	145.3	80.955	1.0467e-05	117.99	0.0041376	0.0039248	0.0010743	734.91	3.3595e-05	7.84e-05	818.1	301.22	3.5351e-05	4.4648e-05	405.86	202.79	144.63	80.997	3.8692e-05	118.7	345.128	75.559	78.075	0.229	114.162	182.269	-0.542	5.426	156.293	160.900	3.441	6.332	8.474	10.683	149.705	8.481	-8191	255	
32766.309	1	1	0	0	0.097002	0.11726	0.10764	0.045361	0.10747	0.065772	0.13447	0.086878	0.12041	0.26171	0.33145	0.092532	0.076612	0.098901	0.19277	0.14077	-4.3063	-4.35	-4.9979	-4.6042	-4.4667	-4.8104	-4.5458	-4.9042	-4.7146	-4.1521	-4.9604	-4.6979	-4.55	-5.1896	-4.2833	-4.7396	209.252	326.435	3.901	213.112	169.644	119.238	21.998	17.130	287.427	185.457	310.342	281.497	177.107	345.833	206.292	6.299	0.0017425	0.00061162	0.00013485	734.79	9.0958e-06	1.2836e-05	812.28	299.94	1.0328e-05	4.8208e-06	402.68	200.52	143.18	79.717	4.9533e-06	116.91	0.0039697	0.0038304	0.0010673	727.13	3.3955e-05	8.5121e-05	806.22	297.57	3.507e-05	4.3921e-05	400.38	200.91	143.35	80.159	3.9142e-05	117.32	341.384	88.196	92.025	0.228	143.021	187.270	-0.350	5.157	160.237	132.517	3.668	6.350	8.527	10.878	147.951	8.653	-8191	255	
32766.404	1	1	0	0	0.15673	0.069722	0.1161	0.14561	0.14969	0.051329	0.33634	0.16942	0.055323	0.13324	0.085034	0.092158	0.19048	0.014554	0.14227	0.2598	-4.4875	-4.2333	-4.7646	-4.8896	-4.3562	-5.1917	-4.55	-4.7	-4.8708	-4.375	-4.7833	-4.8833	-4.4646	-5.0583	-4.4729	-4.5458	272.448	177.115	120.981	295.232	12.104	261.931	283.345	100.720	194.139	146.321	8.618	284.001	67.906	162.879	55.675	55.897	0.0016594	0.00086105	0.00016931	728.65	9.3188e-06	6.1719e-06	805.51	297.78	1.6059e-05	5.6346e-06	400.18	199.94	142.92	79.566	9.2961e-06	116.92	0.0041777	0.0038817	0.0010994	722.99	3.4812e-05	7.7599e-05	799.63	296.16	3.5679e-05	4.4267e-05	397.44	200.68	143.18	79.946	3.984e-05	117.28	339.753	72.029	77.102	0.177	109.519	90.944	-0.087	5.443	163.116	155.223	3.254	6.537	8.404	10.912	160.020	8.309	-8191	255	
32766.525	1	1	0	0	0.1381	0.15235	0.048648	0.46631	0.057874	0.21193	0.12693	0.0725	0.15953	0.23666	0.13434	0.15061	0.047525	0.13023	0.26483	0.23465	-4.5792	-4.3	-4.6708	-4.775	-4.4125	-4.9042	-4.5354	-4.4667	-4.8208	-4.2521	-4.8667	-4.9729	-4.4333	-4.9708	-4.5792	-4.6542	28.021	310.655	328.302	339.789	270.625	346.230	221.676	315.263	242.337	323.013	-1.754	241.725	333.974	13.716	114.324	242.593	0.001896	0.00056477	0.00021323	726.11	7.0319e-06	4.2849e-06	804.15	297.66	9.4324e-06	4.9026e-06	401.67	201.21	142.84	79.812	1.0789e-05	117.01	0.0040379	0.0038917	0.0011039	721.3	3.4228e-05	5.6981e-05	803.68	295.92	3.5138e-05	4.4425e-05	399.7	201.27	142.95	80.09	4.0333e-05	117.6	343.076	70.068	82.485	0.345	143.367	184.865	-0.521	5.488	158.849	136.097	3.296	6.262	8.469	10.877	161.660	8.700	-8191	255	
32766.596	1	1	0	0	0.18032	0.22591	0.17246	0.010231	0.1248	0.14565	0.13657	0.069999	0.22996	0.048791	0.25231	0.21362	0.21864	0.29034	0.029737	0.15796	-4.7917	-4.1896	-4.6542	-4.8354	-4.2167	-4.7979	-4.6854	-4.4729	-4.8333	-4.5354	-4.6438	-5.0104	-4.375	-4.9021	-4.7354	-4.5354	182.935	191.549	307.447	229.083	59.645	330.204	271.564	211.825	114.108	255.817	293.646	278.704	37.066	301.049	19.909	259.322	0.0017995	0.00066656	0.00024426	726.73	8.3521e-06	6.4948e-06	810.21	295.93	1.1238e-05	7.5362e-06	398.93	198.9	142.12	79.323	1.0579e-05	116.35	0.004201	0.0039095	0.0011431	720.65	3.5574e-05	4.4101e-05	806.64	294.83	3.5993e-05	4.6195e-05	397.26	199.76	142.45	79.58	4.1136e-05	116.67	344.512	68.030	106.432	0.057	116.365	129.920	0.063	5.564	158.732	134.876	3.578	6.475	8.597	10.713	177.955	8.520	-8191	255	
32766.691	1	1	0	0	0.12055	0.086636	0.23601	0.18268	0.17023	0.16305	0.027373	0.15522	0.23775	0.17807	0.034225	0.33624	0.058347	0.20788	0.089237	0.25246	-4.6	-4.5167	-4.7562	-4.9667	-4.1917	-4.8688	-4.8083	-4.5354	-4.9458	-4.3417	-4.6625	-4.9604	-4.2812	-4.9646	-4.8021	-4.4729	124.408	-12.146	4.564	17.526	331.545	111.566	112.555	263.859	-0.378	201.472	69.849	336.714	74.914	322.142	136.330	274.830	0.0014857	0.00092981	0.00021797	729.64	1.4062e-05	6.9559e-06	799.3	295.99	1.7658e-05	3.7005e-06	395.93	200.16	141.92	79.526	6.9238e-06	116.19	0.0039015	0.004026	0.0011302	720.2	3.5012e-05	4.5333e-05	800.42	294.71	3.5931e-05	4.6159e-05	395.56	199.79	142.46	79.862	4.0587e-05	116.83	342.341	67.082	74.881	0.249	132.913	135.896	-0.202	5.306	152.227	173.121	3.465	6.342	8.378	10.956	181.596	8.534	-8191	255	
32766.789	1	1	0	0	0.19617	0.20499	0.23315	0.24628	0.30323	0.078284	0.11847	0.13367	0.11398	0.10397	0.10822	0.088507	0.05622	0.068661	0.17891	0.40331	-4.5792	-4.4917	-4.6167	-5.1021	-4.2479	-4.7646	-4.7937	-4.5312	-4.9083	-4.5604	-4.5938	-5.1062	-4.4187	-4.6396	-4.6354	-4.4896	32.388	92.783	82.847	275.374	56.210	324.112	244.724	241.641	6.261	318.154	105.464	43.888	190.650	7.488	201.132	265.779	0.0015266	0.0014706	0.00024343	721.82	8.4482e-06	8.7757e-06	803.34	297.58	9.8424e-06	7.6679e-06	398.27	199.34	142.54	79.751	9.1564e-06	116.33	0.003022	0.0060362	0.0011318	718.22	3.4071e-05	4.562e-05	802.49	295.87	3.5236e-05	4.4906e-05	396.99	200.15	142.83	79.936	4.0321e-05	116.85	345.762	104.228	89.520	0.312	128.962	167.522	-0.211	5.436	166.142	126.445	3.653	6.601	8.808	10.820	137.543	8.621	-8191	255	
32766.908	1	1	0	0	0.21959	0.16619	0.093204	0.08477	0.053093	0.12322	0.13363	0.26212	0.10666	0.089376	0.10889	0.39201	0.10103	0.31104	0.25836	0.17933	-4.5625	-4.4521	-4.3542	-4.9542	-4.2958	-4.6521	-4.8417	-4.3958	-4.8271	-4.6875	-4.5125	-5.1458	-4.575	-4.6875	-4.8	-4.4083	252.573	70.599	303.322	136.267	166.972	304.247	316.167	329.978	241.136	82.036	90.781	329.129	11.711	342.735	249.641	284.981	0.0017599	0.0017452	0.00022116	729.6	1.0619e-05	9.7394e-06	808.89	295.94	1.3184e-05	4.9802e-06	398.11	200.79	142.56	79.612	9.8445e-06	116.71	0.0025958	0.0071686	0.0011157	720.28	3.5475e-05	4.5888e-05	803.65	294.88	3.5756e-05	4.6338e-05	396.62	200.4	142.66	79.961	4.0458e-05	117.06	-3.434	83.002	94.707	0.074	133.430	128.286	-0.474	5.537	134.976	139.201	3.414	6.444	8.231	10.866	123.880	8.511	-8191	255	
32767.006	1	1	0	0	0.072606	0.072519	0.073567	0.12543	0.20958	0.090541	0.078077	0.17567	0.19186	0.24647	0.13832	0.039326	0.035643	0.087187	0.15836	0.31157	-4.4938	-4.7583	-4.35	-5.0396	-4.5	-4.6562	-4.9625	-4.3458	-4.7625	-4.6458	-4.4313	-4.9062	-4.6542	-4.6687	-4.8729	-4.5229	166.408	195.974	232.096	264.164	257.053	7.961	145.261	35.688	82.493	260.315	319.188	7.540	257.067	323.547	51.646	258.427	0.0016438	0.0016612	0.00026228	725.8	5.3405e-06	8.9868e-06	803.49	296.31	1.3057e-05	4.1307e-06	397.43	199.01	142.52	79.277	9.6398e-06	115.87	0.0025667	0.007599	0.0011252	719.11	3.451e-05	4.4337e-05	800.3	294.74	3.557e-05	4.5724e-05	395.48	198.55	143.29	79.64	3.8514e-05	116.28	-3.503	75.679	51.640	0.284	142.300	120.391	-0.414	5.483	155.458	152.178	3.597	6.281	8.364	10.746	143.248	8.582	-8191	255	
32767.102	1	1	0	0	0.24544	0.07347	0.23588	0.052933	0.28475	0.11762	0.17722	0.1753	0.11721	0.23107	0.32562	0.063859	0.14663	0.1963	0.21769	0.11595	-4.35	-4.7812	-4.3958	-5.0292	-4.6271	-4.4313	-5.1687	-4.3625	-4.6396	-4.8292	-4.5083	-5.0375	-4.6354	-4.5979	-4.7396	-4.5188	-10.282	-6.451	224.684	135.314	128.193	55.360	197.339	267.626	25.405	286.307	258.625	129.247	262.146	317.470	172.225	320.841	0.0016709	0.0018637	0.00017739	720.85	8.7216e-06	4.9138e-06	801.06	295.59	1.5144e-05	9.2452e-06	396.3	198.56	142.26	79.412	6.2619e-06	115.28	0.0025485	0.0070225	0.0010669	715.7	3.4354e-05	4.4514e-05	795.54	293.74	3.4867e-05	4.4486e-05	394.11	197.4	143.32	79.548	3.8456e-05	116.05	-7.219	90.714	69.011	0.372	139.789	140.223	-0.358	5.300	166.568	119.910	3.406	6.219	8.183	10.796	132.357	8.601	-8191	255	
32767.174	1	1	0	0	0.23672	0.1176	0.18572	0.12671	0.22305	0.069302	0.086348	0.45256	0.20223	0.20638	0.30391	0.098633	0.37612	0.1669	0.13747	0.28966	-4.2979	-4.8229	-4.1729	-4.9187	-4.5396	-4.3396	-5.0312	-4.3375	-4.5167	-4.9062	-4.4125	-5.0292	-4.6521	-4.4417	-4.6833	-4.5583	212.841	162.561	248.487	44.588	25.494	254.761	259.939	318.734	43.519	338.444	280.321	14.327	1.257	344.917	14.449	266.379	0.0016093	0.0014897	0.00018196	721.51	4.7861e-06	6.9835e-06	800.1	295.27	6.3861e-06	7.4328e-06	395.67	198.96	141.15	78.668	1.0154e-05	115.88	0.0025174	0.0074267	0.0010874	715.19	3.4078e-05	4.4347e-05	794.69	294.21	3.6135e-05	4.437e-05	394.35	198.26	143.3	79.27	3.9246e-05	116.23	-2.733	96.845	94.015	0.203	119.591	106.955	-0.238	5.323	128.563	115.351	3.529	6.427	8.316	10.955	147.516	8.660	-8191	255	
32767.295	1	1	0	0	0.18084	0.094327	0.071011	0.073883	0.33266	0.029404	0.12852	0.14312	0.09928	0.1146	0.084299	0.067707	0.19414	0.08417	0.030423	0.31487	-4.1438	-4.925	-4.1875	-4.8271	-4.6937	-4.3667	-4.9792	-4.4771	-4.5875	-4.8167	-4.3938	-4.8938	-4.8375	-4.3104	-4.8729	-4.6354	26.766	259.831	332.848	233.846	109.378	91.907	50.821	320.433	308.769	293.495	12.020	247.600	281.704	332.053	37.964	293.899	0.0013612	0.0013226	0.00020435	723.2	1.0458e-05	7.5413e-06	799.77	293.82	1.2394e-05	1.0462e-05	396.57	198.7	141.6	78.914	8.9216e-06	115.39	0.002556	0.0071393	0.001111	716.36	3.4745e-05	4.4686e-05	792.82	294.67	3.6335e-05	4.6065e-05	394.51	198.21	143	79.138	4.0383e-05	115.82	-4.267	79.672	63.652	0.173	110.915	119.745	-0.351	5.425	142.732	144.357	3.535	6.489	8.289	11.046	164.705	8.397	-8191	255	
32767.389	1	1	0	0	0.051172	0.16708	0.18581	0.34297	0.15253	0.067797	0.0068697	0.18884	0.063851	0.11515	0.097767	0.10496	0.10711	0.19156	0.13187	0.19557	-4.0646	-4.8042	-4.2625	-4.6687	-4.7188	-4.3688	-4.8521	-4.7208	-4.35	-5.0271	-4.4396	-4.5646	-4.8	-4.2604	-4.7646	-4.7125	219.054	338.481	74.283	341.477	113.325	76.928	320.274	314.340	142.703	17.262	254.527	65.161	20.259	0.423	200.944	234.008	0.0016694	0.0017109	0.00025473	723.49	6.3124e-06	1.0504e-05	802.63	292.76	1.6124e-05	6.3271e-06	392.96	197.26	140.48	78.428	7.9001e-06	114.42	0.0026375	0.0075684	0.0011551	716.76	3.5502e-05	4.6449e-05	790.81	294.17	3.6302e-05	4.5866e-05	391.58	196.41	142.55	78.747	4.2189e-05	115	-7.419	108.405	91.290	0.095	171.064	99.060	-0.353	5.496	177.678	146.030	3.542	6.336	8.663	10.889	143.828	8.532	-8191	255	
32767.486	1	1	0	0	0.011761	0.1688	0.12431	0.034975	0.078113	0.081821	0.06054	0.02493	0.1681	0.040072	0.12683	0.10698	0.11649	0.083616	0.04717	0.1969	-3.9583	-4.925	-4.375	-4.6333	-4.8354	-4.4146	-4.8708	-4.7479	-4.3438	-4.8625	-4.6	-4.6958	-4.8146	-4.3562	-4.6937	-4.7083	134.642	100.502	190.558	232.376	148.390	283.338	125.140	337.780	316.452	163.407	35.959	-1.699	209.394	298.242	169.480	346.341	0.0015925	0.0014051	0.00036858	717.78	8.8729e-06	6.6925e-06	795.16	293.58	1.0532e-05	5.5093e-06	390.27	197.28	140.8	78.002	5.586e-06	114.49	0.0026207	0.0064312	0.0012469	713.66	3.5695e-05	4.7166e-05	786.37	294.48	3.6195e-05	4.6213e-05	390.13	196.72	142.23	78.676	4.171e-05	115.06	-8.435	70.801	132.233	0.167	136.711	137.204	-0.322	5.616	134.897	131.574	3.485	6.252	8.418	10.731	176.173	8.511	-8191	255	
32767.605	1	1	0	0	0.083539	0.14786	0.095622	0.17235	0.092945	0.059773	0.3179	0.16104	0.077239	0.17614	0.08384	0.14394	0.16892	0.36022	0.20878	0.31752	-3.9875	-4.7562	-4.5417	-4.3458	-4.8333	-4.3313	-4.7521	-4.8521	-4.2208	-4.7542	-4.4812	-4.6417	-4.9583	-4.4104	-4.6396	-4.9729	262.198	135.173	12.324	301.473	254.343	331.214	322.976	49.225	29.115	84.523	5.808	289.461	256.672	295.348	290.864	260.061	0.0015601	0.0014443	0.00030215	714.97	7.6204e-06	7.9522e-06	794.25	292.41	1.4149e-05	4.7532e-06	392.79	196.74	141.3	78.428	9.1919e-06	115.65	0.0026286	0.0046432	0.0018998	711.86	3.5776e-05	4.8941e-05	787.29	293.23	3.6913e-05	4.7704e-05	391.13	196.23	142.79	78.832	4.177e-05	115.79	-6.579	54.604	119.982	0.040	136.286	116.051	-0.096	5.571	177.210	150.220	3.846	6.343	8.497	11.142	130.557	8.542	-8191	255	
32767.701	1	1	0	0	0.19495	0.082348	0.078977	0.17355	0.24385	0.14167	0.34426	0.11015	0.13482	0.28901	0.078428	0.19197	0.11993	0.28342	0.1588	0.26032	-3.8187	-4.6583	-4.4708	-4.3396	-4.8542	-4.45	-4.6958	-4.7958	-4.1146	-4.6542	-4.6292	-4.5542	-4.7562	-4.525	-4.4917	-4.9208	307.039	302.636	299.379	308.465	102.789	171.275	302.002	264.646	295.483	237.572	12.816	325.976	103.434	325.158	309.161	315.240	0.0016238	0.000794	0.00037308	718.36	1.0484e-05	4.5292e-06	795.81	294.05	1.2823e-05	1.0995e-05	395.52	198.62	141.61	78.615	5.5297e-06	115.33	0.0025896	0.0041483	0.0020533	713.15	3.4916e-05	4.6838e-05	788.9	294.52	3.6299e-05	4.7311e-05	394.48	198.02	142.81	79.198	4.213e-05	115.96	-7.574	75.610	111.581	0.197	127.577	135.903	-0.195	5.138	158.568	162.370	3.680	6.471	8.200	10.854	149.089	8.668	-8191	255	
#DATA ENDS
