BOXY.EXE: ISS Imagent and Oximeter Data Acquisition Program Version 0.80
Ascii Record File

#ACQ INFORMATION
2  Detector Channels 
16  External MUX Channels 
1  Auxiliary Channels 
5000  Waveform (CCF) Frequency (Hz)
1  Waveforms Skipped 
30  Waveforms Averaged 
1  Cycles Averaged 
16  Acquisitions per Waveform 
10.0806  Updata Rate (Hz) 

#FILE INFORMATION
TRUE -- External MUX Channel results are PARSED.
FALSE -- AC DC and Phase are NOT grouped.
TRUE -- Companion Program Settings File CREATED.
FALSE -- AC data not excluded
FALSE -- DC data not excluded
FALSE -- Phase data not excluded
FALSE -- Auxillary Chn. data not excluded
Tab delimiters

#CALIBRATION STATE
TRUE -- Waveform Calibration Values APPLIED.


#AUX CALIBRATION VALUES
Val Type	aux-1	

Term	1.0000e+00	
Factor	0.0000e+00	


#WF CALIBRATION VALUES
A = Detector Channel
Val Type	A-AC1	A-AC2	A-AC3	A-AC4	A-AC5	A-AC6	A-AC7	A-AC8	A-AC9	A-AC10	A-AC11	A-AC12	A-AC13	A-AC14	A-AC15	A-AC16	A-DC1	A-DC2	A-DC3	A-DC4	A-DC5	A-DC6	A-DC7	A-DC8	A-DC9	A-DC10	A-DC11	A-DC12	A-DC13	A-DC14	A-DC15	A-DC16	A-Ph1	A-Ph2	A-Ph3	A-Ph4	A-Ph5	A-Ph6	A-Ph7	A-Ph8	A-Ph9	A-Ph10	A-Ph11	A-Ph12	A-Ph13	A-Ph14	A-Ph15	A-Ph16	

Term	0.00000e+00	0.00000e+00	0.00000e+00	0.00000e+00	0.00000e+00	0.00000e+00	0.00000e+00	0.00000e+00	0.00000e+00	0.00000e+00	0.00000e+00	0.00000e+00	0.00000e+00	0.00000e+00	0.00000e+00	0.00000e+00	0.00000e+00	0.00000e+00	0.00000e+00	0.00000e+00	0.00000e+00	0.00000e+00	0.00000e+00	0.00000e+00	0.00000e+00	0.00000e+00	0.00000e+00	0.00000e+00	0.00000e+00	0.00000e+00	0.00000e+00	0.00000e+00	0.00000e+00	0.00000e+00	0.00000e+00	0.00000e+00	0.00000e+00	0.00000e+00	0.00000e+00	0.00000e+00	0.00000e+00	0.00000e+00	0.00000e+00	0.00000e+00	0.00000e+00	0.00000e+00	0.00000e+00	0.00000e+00	
Factor	1.00000e+00	1.00000e+00	1.00000e+00	1.00000e+00	1.00000e+00	1.00000e+00	1.00000e+00	1.00000e+00	1.00000e+00	1.00000e+00	1.00000e+00	1.00000e+00	1.00000e+00	1.00000e+00	1.00000e+00	1.00000e+00	1.00000e+00	1.00000e+00	1.00000e+00	1.00000e+00	1.00000e+00	1.00000e+00	1.00000e+00	1.00000e+00	1.00000e+00	1.00000e+00	1.00000e+00	1.00000e+00	1.00000e+00	1.00000e+00	1.00000e+00	1.00000e+00	X	X	X	X	X	X	X	X	X	X	X	X	X	X	X	X	

B = Detector Channel
Val Type	B-AC1	B-AC2	B-AC3	B-AC4	B-AC5	B-AC6	B-AC7	B-AC8	B-AC9	B-AC10	B-AC11	B-AC12	B-AC13	B-AC14	B-AC15	B-AC16	B-DC1	B-DC2	B-DC3	B-DC4	B-DC5	B-DC6	B-DC7	B-DC8	B-DC9	B-DC10	B-DC11	B-DC12	B-DC13	B-DC14	B-DC15	B-DC16	B-Ph1	B-Ph2	B-Ph3	B-Ph4	B-Ph5	B-Ph6	B-Ph7	B-Ph8	B-Ph9	B-Ph10	B-Ph11	B-Ph12	B-Ph13	B-Ph14	B-Ph15	B-Ph16	

Term	0.00000e+00	0.00000e+00	0.00000e+00	0.00000e+00	0.00000e+00	0.00000e+00	0.00000e+00	0.00000e+00	0.00000e+00	0.00000e+00	0.00000e+00	0.00000e+00	0.00000e+00	0.00000e+00	0.00000e+00	0.00000e+00	0.00000e+00	0.00000e+00	0.00000e+00	0.00000e+00	0.00000e+00	0.00000e+00	0.00000e+00	0.00000e+00	0.00000e+00	0.00000e+00	0.00000e+00	0.00000e+00	0.00000e+00	0.00000e+00	0.00000e+00	0.00000e+00	2.93131e+01	-1.38054e+02	-1.55137e+02	-1.83507e+02	-8.93409e+01	-7.38741e+01	-1.57185e+02	-1.62015e+02	-1.04756e+02	-8.47356e+01	-1.72626e+02	-1.72814e+02	-1.80483e+02	-1.78435e+02	-9.61728e+01	-1.51297e+02	
Factor	4.06815e-05	8.32167e-05	3.41537e-05	1.61071e-01	1.09079e-06	8.84274e-07	1.94396e-01	6.71829e-02	1.01989e-06	8.41751e-07	9.46126e-02	3.23926e-02	2.57595e-02	9.54239e-03	8.66236e-07	1.36832e-02	5.31991e-07	5.38450e-07	1.50082e-07	7.64884e-02	5.87831e-09	5.89810e-09	8.61984e-02	3.09803e-02	5.88643e-09	5.89619e-09	4.18274e-02	1.42647e-02	1.18748e-02	4.35937e-03	5.89889e-09	5.99575e-03	X	X	X	X	X	X	X	X	X	X	X	X	X	X	X	X	



#DISTANCE SETTINGS
A = Detector Channel
A-1	A-2	A-3	A-4	A-5	A-6	A-7	A-8	A-9	A-10	A-11	A-12	A-13	A-14	A-15	A-16	

2.5000e+00	3.0000e+00	2.5000e+00	3.0000e+00	2.0000e+00	3.0000e+00	1.5000e+00	3.0000e+00	3.0000e+00	3.0000e+00	3.0000e+00	3.0000e+00	3.0000e+00	3.0000e+00	1.5000e+00	3.0000e+00	

B = Detector Channel
B-1	B-2	B-3	B-4	B-5	B-6	B-7	B-8	B-9	B-10	B-11	B-12	B-13	B-14	B-15	B-16	

1.0000e+01	1.0000e+01	1.0000e+01	1.4400e+00	1.0000e+01	1.0000e+01	1.5100e+00	1.9400e+00	1.0000e+01	1.0000e+01	1.9900e+00	2.4900e+00	2.4100e+00	2.9000e+00	1.0000e+01	2.9800e+00	




#DATA BEGINS
time	group	step	mark	flag	A-AC1	A-AC2	A-AC3	A-AC4	A-AC5	A-AC6	A-AC7	A-AC8	A-AC9	A-AC10	A-AC11	A-AC12	A-AC13	A-AC14	A-AC15	A-AC16	A-DC1	A-DC2	A-DC3	A-DC4	A-DC5	A-DC6	A-DC7	A-DC8	A-DC9	A-DC10	A-DC11	A-DC12	A-DC13	A-DC14	A-DC15	A-DC16	A-Ph1	A-Ph2	A-Ph3	A-Ph4	A-Ph5	A-Ph6	A-Ph7	A-Ph8	A-Ph9	A-Ph10	A-Ph11	A-Ph12	A-Ph13	A-Ph14	A-Ph15	A-Ph16	B-AC1	B-AC2	B-AC3	B-AC4	B-AC5	B-AC6	B-AC7	B-AC8	B-AC9	B-AC10	B-AC11	B-AC12	B-AC13	B-AC14	B-AC15	B-AC16	B-DC1	B-DC2	B-DC3	B-DC4	B-DC5	B-DC6	B-DC7	B-DC8	B-DC9	B-DC10	B-DC11	B-DC12	B-DC13	B-DC14	B-DC15	B-DC16	B-Ph1	B-Ph2	B-Ph3	B-Ph4	B-Ph5	B-Ph6	B-Ph7	B-Ph8	B-Ph9	B-Ph10	B-Ph11	B-Ph12	B-Ph13	B-Ph14	B-Ph15	B-Ph16	aux-1	digaux	

8623.202	1	1	0	256	0.12771	0.18704	0.13776	0.11252	0.20235	0.10509	0.14424	0.11292	0.24692	0.14455	0.37123	0.2311	0.11593	0.15321	0.034316	0.18523	-2.7167	-3.4938	-2.7354	-3.5083	-3.2417	-2.9521	-3.7104	-3.0646	-2.9562	-3.7167	-2.9396	-3.4625	-3.5333	-3.0292	-3.6354	-3.3854	237.381	169.013	230.625	138.258	285.092	257.286	448.243	312.790	240.712	427.353	412.898	93.283	234.707	380.370	295.537	326.446	0.0023523	0.0004038	0.00019611	992.75	5.3638e-06	3.6824e-06	1205.7	343.94	4.9695e-06	4.2085e-06	465.43	213.98	159.42	76.581	5.2546e-06	115.59	7.8358e-05	5.0624e-05	1.3347e-05	885.27	6.2505e-07	5.5715e-07	1062.6	300.34	6.0874e-07	5.4152e-07	397.84	182.4	137.15	66.527	5.3346e-07	98.339	327.752	169.100	131.137	101.389	251.739	247.780	100.489	107.579	192.797	233.447	105.267	109.874	112.465	116.296	228.926	112.957	-8191	255	
8623.323	1	1	0	0	0.10292	0.1745	0.27739	0.17882	0.010028	0.05207	0.21342	0.238	0.10085	0.12334	0.19092	0.21341	0.073472	0.18722	0.068562	0.13998	-2.5271	-3.4542	-2.7917	-3.3688	-3.3542	-2.6625	-3.5875	-3.1917	-2.9333	-3.7229	-3.0229	-3.3063	-3.4854	-2.9896	-3.6229	-3.5021	395.086	308.487	338.475	427.616	191.347	150.529	392.058	447.203	436.479	277.292	217.292	437.335	292.620	106.510	239.435	323.945	0.0023682	0.00030877	0.00029984	994.63	5.7933e-06	4.1281e-06	1201.2	341.78	3.8997e-06	9.2854e-07	458.06	210.63	158.57	76.055	4.3716e-06	114.45	7.4979e-05	4.8772e-05	1.3667e-05	884.53	5.65e-07	5.2783e-07	1059.6	298.35	5.7052e-07	4.9894e-07	392.57	179.62	136.11	65.751	5.332e-07	97.218	327.553	198.897	143.371	101.147	205.389	230.153	100.484	107.706	211.956	208.241	105.230	109.891	111.896	115.991	230.156	112.925	-8191	255	
8623.417	1	1	0	0	0.1714	0.068049	0.18539	0.13822	0.038196	0.11388	0.15166	0.42934	0.24358	0.050608	0.12622	0.36696	0.18633	0.059476	0.32604	0.34725	-2.5333	-3.4188	-2.9521	-3.2542	-3.6188	-2.8771	-3.5438	-3.6104	-2.8187	-3.4813	-3.3292	-3.3375	-3.5375	-2.9042	-3.4813	-3.5479	234.568	119.545	355.736	433.684	405.641	364.727	348.623	92.349	103.990	129.988	334.657	413.302	432.953	114.117	221.902	422.544	0.0023487	0.00036602	8.6872e-05	984.44	5.5359e-06	3.3212e-06	1190.8	340.12	6.5268e-06	3.3975e-06	453.87	208.17	157.53	75.553	6.6659e-06	113.55	6.9916e-05	4.2333e-05	1.3173e-05	879.1	5.0658e-07	4.6434e-07	1051.9	297.08	4.9751e-07	4.5044e-07	390.2	177.68	135.09	65.194	5.5198e-07	96.528	332.217	150.731	130.043	101.310	199.369	212.952	100.600	107.649	188.464	193.224	105.273	109.988	112.276	116.426	204.797	112.672	-8191	255	
8623.514	1	1	0	0	0.065911	0.11046	0.10551	0.37491	0.062526	0.11564	0.15273	0.01924	0.13837	0.034319	0.22081	0.10937	0.28369	0.1797	0.080147	0.25141	-2.6562	-3.5771	-3.1958	-3.4125	-3.5229	-2.9188	-3.4729	-3.7646	-2.9583	-3.5833	-3.2375	-3.3333	-3.8042	-3.1042	-3.4104	-3.6312	271.616	133.374	416.441	413.569	363.358	359.454	322.710	421.814	241.743	212.103	339.513	264.676	109.175	399.435	216.454	93.209	0.0023948	0.00051178	0.00010009	987	5.0909e-06	1.9097e-06	1198.5	340.78	4.6592e-06	1.7146e-06	457.25	210.29	157.43	75.679	5.1254e-06	115.07	6.72e-05	4.141e-05	1.3807e-05	880.82	4.841e-07	4.7244e-07	1055.7	297.69	5.035e-07	4.6811e-07	392.43	179.03	135.56	65.384	5.9358e-07	97.337	330.251	154.670	119.121	101.201	202.497	202.761	100.203	107.567	230.746	188.639	105.148	110.081	112.306	116.126	207.808	112.610	-8191	255	
8623.585	1	1	0	0	0.29022	0.099663	0.22929	0.17359	0.12461	0.26879	0.28565	0.052091	0.16273	0.16846	0.18509	0.21581	0.2102	0.17005	0.19216	0.071046	-2.4771	-3.4792	-3.3125	-3.1792	-3.5417	-3.1625	-3.4542	-3.4833	-2.8042	-3.4958	-3.4417	-3.0333	-3.6833	-3.2729	-3.1729	-3.8542	279.604	97.757	349.583	92.084	311.308	270.722	359.504	133.870	189.623	328.192	347.521	389.391	119.047	281.450	345.265	323.863	0.0023418	0.00043325	0.00021961	989.56	5.4468e-06	3.8479e-06	1199.9	342.52	8.0713e-06	2.919e-06	461.11	211.6	157.93	75.616	3.0036e-06	114.66	6.8084e-05	4.6103e-05	1.4858e-05	884.62	4.8359e-07	5.145e-07	1059.7	298.92	5.0166e-07	5.2313e-07	394.07	179.63	135.16	65.285	5.7282e-07	97.273	326.843	159.330	127.495	101.642	197.856	228.372	100.238	107.631	181.949	216.537	105.180	110.049	112.125	116.100	175.577	112.630	-8191	255	
8623.683	1	1	0	0	0.20196	0.02348	0.11358	0.14859	0.079178	0.2252	0.068949	0.050062	0.18845	0.10948	0.123	0.23374	0.23238	0.12967	0.063003	0.27198	-2.3667	-3.2104	-3.3083	-2.775	-3.5083	-3.0583	-3.2646	-3.6146	-2.9167	-3.4813	-3.5187	-2.9646	-3.5542	-3.3	-3.1417	-3.7104	124.037	391.619	179.825	448.741	172.660	447.394	384.866	269.554	290.871	402.310	425.527	400.979	417.799	89.682	279.552	438.665	0.0024446	0.0003263	0.00016868	989.48	4.7325e-06	3.6173e-06	1196.2	341.66	4.0373e-06	2.8811e-06	458.26	208.98	156.13	74.786	2.55e-06	113.16	6.6226e-05	4.7156e-05	1.3827e-05	876.98	4.5192e-07	5.2261e-07	1054.5	297.38	4.6489e-07	5.1643e-07	390.68	177.58	134.21	64.89	5.2134e-07	96.104	330.943	172.887	163.002	101.242	208.557	244.340	100.340	107.598	195.707	210.818	105.220	109.997	111.981	116.070	218.029	112.960	-8191	255	
8623.802	1	1	0	0	0.19308	0.059468	0.21617	0.083941	0.1199	0.23605	0.080485	0.20296	0.16457	0.084685	0.18194	0.49644	0.20844	0.20046	0.38805	0.075058	-2.4646	-3.4083	-3.4271	-3.0292	-3.5271	-3.2188	-3.1542	-3.5187	-3.0333	-3.1771	-3.4521	-2.8917	-3.4896	-3.425	-2.9729	-3.8854	224.602	102.324	295.070	90.618	401.160	175.738	390.312	441.382	250.029	107.459	128.663	397.742	428.532	99.938	380.271	412.366	0.0023346	0.00042309	0.00019824	979.3	7.6927e-06	3.2069e-06	1201.4	343.13	6.3339e-06	2.8193e-06	458.11	208.61	157.16	74.963	4.7817e-06	113.76	6.4536e-05	4.9282e-05	1.2383e-05	874.35	4.5553e-07	5.2242e-07	1051.3	298.57	4.7376e-07	5.2724e-07	391.06	178.46	135.49	65.022	5.0314e-07	96.786	329.461	190.843	155.654	101.412	191.428	207.725	100.312	107.604	207.123	265.381	105.177	109.888	112.016	116.059	196.036	112.863	-8191	255	
8623.898	1	1	0	0	0.20409	0.22092	0.0041707	0.23313	0.063608	0.14127	0.27023	0.2236	0.23142	0.19711	0.077648	0.22104	0.32337	0.25407	0.028865	0.36389	-2.725	-3.0979	-3.3729	-3.1458	-3.5333	-3.2021	-3.0062	-3.7104	-3.125	-3.1312	-3.7125	-3.1646	-3.4458	-3.7083	-2.9188	-3.7708	119.267	198.391	406.109	360.459	294.882	199.890	381.357	448.779	297.577	202.223	270.653	216.642	343.120	439.748	442.888	421.469	0.0024831	0.00044317	0.00023862	984.67	6.4878e-06	3.3565e-06	1191.7	343.36	5.3064e-06	2.0207e-06	459.59	210.32	156.18	74.898	4.8466e-06	114.21	6.6646e-05	4.8706e-05	1.1838e-05	878.08	5.0206e-07	5.229e-07	1052.7	298.49	5.08e-07	5.3284e-07	392.08	178.5	134.79	64.908	4.9798e-07	96.966	329.841	167.785	154.674	101.533	213.033	224.628	100.381	107.478	219.366	196.084	105.180	109.857	112.288	116.418	236.410	112.743	-8191	255	
8623.994	1	1	0	0	0.064795	0.16945	0.16872	0.16622	0.038294	0.23649	0.37887	0.20065	0.22124	0.15211	0.12071	0.12732	0.072236	0.1635	0.16757	0.19603	-2.7687	-3.1104	-3.7083	-3.0125	-3.3875	-3.4958	-3.1813	-3.6458	-3.1937	-3.225	-3.6479	-3.0583	-3.5	-3.6896	-2.8958	-3.7979	229.786	251.794	145.997	325.254	311.203	259.002	388.774	444.755	204.790	268.334	412.449	192.747	105.467	394.842	408.131	374.181	0.0024317	0.00044906	7.929e-05	977.12	4.7664e-06	4.1828e-06	1191.8	344.17	6.51e-06	4.5751e-06	459.89	212.68	156.95	75.675	4.7265e-06	115.16	7.0599e-05	4.7256e-05	1.177e-05	875.58	5.4227e-07	5.0321e-07	1052.4	298.81	5.5825e-07	5.1507e-07	392.93	179.99	135.07	65.398	4.9486e-07	97.7	330.350	154.315	185.876	101.483	212.378	239.453	100.505	107.276	207.603	201.110	105.282	109.879	112.101	116.351	199.387	112.494	-8191	255	
8624.115	1	1	0	0	0.20425	0.23867	0.067745	0.24439	0.10521	0.14954	0.16217	0.055794	0.18869	0.35358	0.20115	0.10498	0.22973	0.12256	0.060845	0.10991	-2.9062	-3.0021	-3.5104	-3.1604	-3.0958	-3.6	-2.8083	-3.5875	-3.2854	-3.0125	-3.6396	-3.1917	-3.1542	-3.8521	-2.9458	-3.525	387.221	250.957	380.860	305.729	162.557	133.596	147.260	307.928	295.490	184.799	396.176	384.526	94.140	189.769	260.957	91.816	0.002369	0.00037497	0.0001468	983.58	3.1318e-06	2.3257e-06	1200.2	344.99	3.3537e-06	2.0282e-06	457.18	210.81	157.14	75.747	6.2319e-06	114.7	7.355e-05	4.6375e-05	1.1658e-05	876.85	5.6129e-07	4.9253e-07	1054.5	299.08	5.5816e-07	4.9357e-07	391.43	179.48	134.99	65.321	4.8808e-07	97.236	328.638	148.615	163.444	101.327	234.866	215.034	100.680	107.347	229.687	208.943	105.095	109.701	111.929	116.103	222.155	112.601	-8191	255	
8624.187	1	1	0	0	0.16614	0.12293	0.22238	0.27937	0.13828	0.10719	0.3526	0.29919	0.089358	0.2462	0.17141	0.30507	0.10876	0.21691	0.15146	0.1955	-2.9083	-2.7812	-3.5583	-3.3271	-3.1583	-3.6604	-3.0958	-3.525	-3.1958	-2.875	-3.5604	-3.2458	-3.3438	-3.7271	-3.0125	-3.4813	109.529	243.730	122.517	429.208	384.802	286.443	357.013	407.106	293.907	321.394	435.242	417.983	102.366	403.836	105.081	376.413	0.0022356	0.00056809	0.00011553	983.1	4.8206e-06	4.4277e-06	1201.3	341.98	4.3536e-06	2.9786e-06	458.77	209.31	156.96	75.445	5.1618e-06	114.21	7.2288e-05	4.5766e-05	1.1935e-05	877.48	5.4001e-07	4.6991e-07	1054.3	299.57	5.3286e-07	4.8248e-07	391.39	178.81	134.91	65.215	5.0642e-07	96.957	328.883	155.739	117.336	101.312	208.557	221.159	100.470	107.376	180.407	200.985	105.270	109.870	112.155	115.874	218.916	112.807	-8191	255	
8624.283	1	1	0	0	0.20544	0.086508	0.20927	0.31055	0.30324	0.0067773	0.2127	0.31246	0.025791	0.096701	0.18978	0.36235	0.17905	0.39125	0.19707	0.26543	-3.0354	-2.8021	-3.5583	-3.2	-3	-3.6104	-3.1292	-3.3104	-3.5583	-2.9542	-3.7021	-3.3937	-2.9833	-3.7687	-2.975	-3.5229	179.344	336.301	167.894	434.141	197.667	114.134	349.836	411.060	183.636	161.376	346.413	428.902	121.303	421.211	209.396	375.982	0.0023602	0.00046819	0.00018771	981.02	7.3082e-06	3.7508e-06	1202.5	345.61	6.0382e-06	2.8162e-06	463.1	212.29	158.04	75.114	6.5509e-06	114.44	7.0153e-05	4.5762e-05	1.224e-05	879.29	5.4158e-07	4.8022e-07	1058.2	301.61	5.2317e-07	4.8854e-07	395.59	181.3	136.04	65.049	5.2949e-07	97.534	330.093	187.495	145.715	101.472	209.277	239.960	100.619	107.569	217.030	224.039	105.063	109.651	111.935	116.072	228.766	112.534	-8191	255	
8624.403	1	1	0	0	0.2489	0.078527	0.20073	0.2989	0.078337	0.23706	0.12999	0.34191	0.12418	0.068162	0.13188	0.21974	0.18854	0.49555	0.24013	0.20015	-3.1417	-2.7521	-3.4708	-3.4708	-2.8979	-3.7313	-3.2333	-3.3187	-3.575	-3.0333	-3.5333	-3.575	-3.0563	-3.7125	-3.2417	-3.1188	171.132	422.612	368.595	413.398	382.504	308.617	374.744	313.697	130.279	364.455	155.255	376.476	404.215	106.815	416.282	419.610	0.0023707	0.00042805	0.00016398	983.77	4.5246e-06	3.0792e-06	1199	345.89	5.1588e-06	2.8308e-06	461.12	212.29	158.24	75.175	5.956e-06	115.52	6.9026e-05	4.4655e-05	1.342e-05	879.62	5.2872e-07	4.7885e-07	1058.8	301.11	5.2374e-07	4.8169e-07	395.75	181.41	135.78	65.014	5.6723e-07	98.049	331.159	214.938	145.231	101.249	195.879	249.496	100.488	107.598	216.389	201.880	105.210	109.521	112.201	116.005	204.671	112.681	-8191	255	
8624.498	1	1	0	0	0.084021	0.082753	0.042489	0.19586	0.26568	0.19559	0.09321	0.05938	0.034421	0.12326	0.20812	0.31377	0.35571	0.34526	0.21506	0.10119	-3.1667	-2.8417	-3.2167	-3.5563	-2.9437	-3.6042	-3.1958	-3.3521	-3.6521	-2.9667	-3.4271	-3.6021	-3.0271	-3.4979	-3.0729	-3.0333	208.781	212.933	101.039	345.648	224.874	191.479	250.510	176.531	152.898	246.162	170.827	170.877	353.392	409.896	115.812	373.527	0.0023424	0.00063671	9.7799e-05	981.5	3.5853e-06	7.5799e-06	1196.8	342.9	6.3341e-06	2.5143e-06	460.56	211.43	156.71	74.974	4.4338e-06	114.44	6.7944e-05	4.381e-05	1.408e-05	876.66	4.9226e-07	4.7429e-07	1055.6	298.92	4.8654e-07	4.8472e-07	393.25	179.73	134.65	64.818	5.7433e-07	97.225	327.486	154.126	140.742	101.371	211.597	229.910	100.412	107.571	221.772	226.438	105.396	109.805	112.012	116.200	222.912	112.904	-8191	255	
8624.594	1	1	0	0	0.12026	0.10703	0.074433	0.31534	0.22856	0.22045	0.11771	0.11676	0.10939	0.02759	0.24308	0.13357	0.10339	0.18697	0.11059	0.21512	-3.3729	-2.8771	-3.2229	-3.4813	-2.8854	-3.4896	-3.3917	-3.2333	-3.5271	-2.9167	-3.2083	-3.8917	-3.1292	-3.4875	-3.2146	-3.1042	431.289	221.031	345.369	394.130	157.183	373.631	360.650	331.559	300.843	295.392	181.294	395.997	443.461	140.783	447.145	350.769	0.002368	0.00057067	0.00019525	978.27	5.8605e-06	4.8579e-06	1192.5	343.28	3.9479e-06	4.3386e-06	457.95	210.37	156.63	75.071	2.2812e-06	114.03	6.5885e-05	4.5767e-05	1.4641e-05	874.7	4.9426e-07	4.8884e-07	1053.8	299.15	4.6742e-07	5.1151e-07	392.04	179.11	134.59	64.801	5.5116e-07	96.884	330.598	168.982	163.149	101.514	229.216	204.768	100.492	107.490	219.200	227.413	105.048	109.540	111.920	116.075	225.659	112.833	-8191	255	
8624.715	1	1	0	0	0.015342	0.087755	0.12153	0.090115	0.021632	0.14258	0.14015	0.22261	0.097499	0.22483	0.25967	0.029259	0.24811	0.33325	0.19617	0.15772	-3.3021	-3.0521	-3.1521	-3.7188	-2.9833	-3.4708	-3.575	-2.9625	-3.5792	-3.0667	-3.1063	-3.6979	-2.8937	-3.5792	-3.3833	-3.0083	236.519	219.229	287.161	380.077	431.814	165.201	442.000	425.513	426.157	279.635	133.179	174.215	281.056	107.823	311.106	174.831	0.0023611	0.00051547	0.00012017	982.46	4.1482e-06	3.9665e-06	1196.3	343.95	4.351e-06	1.9527e-06	459.81	211.9	156.05	74.937	5.5383e-06	114.83	6.5306e-05	4.9752e-05	1.39e-05	874.86	4.8366e-07	5.5171e-07	1053.9	299.35	4.751e-07	5.5336e-07	393.26	179.89	134.61	64.826	5.351e-07	97.38	329.500	183.108	108.963	101.496	236.048	224.277	100.173	107.458	214.087	256.259	105.466	109.867	112.067	116.080	209.181	112.860	-8191	255	
8624.786	1	1	0	0	0.11989	0.20801	0.20475	0.17065	0.088875	0.15315	0.12342	0.38449	0.10775	0.27693	0.17976	0.13499	0.21591	0.51825	0.15352	0.24642	-3.1083	-3.1125	-2.8375	-3.7646	-2.9792	-3.45	-3.5083	-2.9833	-3.5042	-3.2188	-3.0792	-3.7646	-3.1437	-3.3042	-3.6562	-2.9708	204.595	217.859	347.668	420.949	123.344	169.450	367.347	413.112	315.592	361.093	383.384	381.869	436.447	418.522	318.483	434.504	0.0023629	0.00068979	0.00021798	981.95	6.4442e-06	2.4182e-06	1191.8	343.95	8.0959e-06	3.7637e-06	462.52	212.79	157.09	75.136	5.1352e-06	115.61	6.5962e-05	5.1413e-05	1.3222e-05	875.01	4.9077e-07	5.6068e-07	1052.8	299.95	5.1783e-07	5.9041e-07	395.07	180.91	134.71	65.064	5.4115e-07	98.08	326.187	177.476	167.986	101.537	184.353	222.787	100.556	107.603	195.297	237.931	105.089	109.756	112.007	116.206	225.075	112.573	-8191	255	
8624.882	1	1	0	0	0.19854	0.3255	0.18958	0.25336	0.22215	0.057904	0.14067	0.17016	0.27493	0.21582	0.095435	0.069313	0.20847	0.084596	0.47844	0.26021	-3.0479	-3.3208	-2.6896	-3.8271	-2.8854	-3.1792	-3.6875	-2.9875	-3.4021	-3.5542	-3.0104	-3.7708	-3.3667	-3.2167	-3.5542	-3.1437	250.725	350.976	407.727	412.198	112.362	150.962	339.192	95.084	398.476	423.594	378.518	399.112	418.795	414.227	380.229	363.287	0.0023832	0.00032211	0.00018727	990.85	2.9051e-06	4.3704e-06	1197.7	343.7	6.0755e-06	1.8651e-06	462.41	213.36	157.64	75.622	3.9566e-06	116.33	7.3791e-05	5.4489e-05	1.3875e-05	880.86	5.8953e-07	6.0599e-07	1056.8	300.52	6.0745e-07	6.1672e-07	395.74	182.08	135.63	65.665	5.9549e-07	98.575	328.107	187.714	170.792	101.310	166.957	256.848	100.333	107.536	179.141	226.310	105.470	109.882	111.935	116.244	274.267	113.002	-8191	255	
8624.978	1	1	0	0	0.013217	0.20075	0.13343	0.0438	0.038879	0.078366	0.21822	0.072881	0.061727	0.19919	0.13885	0.15131	0.21795	0.23331	0.20874	0.16022	-3.0333	-3.3563	-2.8667	-3.7188	-3.2	-3.1833	-3.9979	-3.0146	-3.3729	-3.5479	-2.9625	-3.6854	-3.3854	-3.2083	-3.6458	-3.3646	311.365	105.756	244.415	439.290	177.530	339.038	366.198	91.771	418.847	422.600	221.416	428.388	443.626	419.705	149.806	368.904	0.0024198	0.0002748	0.00015064	988.92	3.6663e-06	1.712e-06	1195.9	344.86	5.6331e-06	2.1205e-06	459.8	214.33	157.77	75.991	4.6639e-06	115.54	8.2108e-05	5.9072e-05	1.5255e-05	883.45	6.9175e-07	6.5061e-07	1056.1	300.97	7.0164e-07	6.2815e-07	394.85	182.84	136.45	65.789	6.0058e-07	98.145	329.987	184.978	151.295	101.366	216.938	315.210	100.226	107.518	197.615	237.543	105.357	109.846	111.693	115.918	219.481	112.720	-8191	255	
8625.097	1	1	0	0	0.23795	0.13025	0.099571	0.15879	0.11512	0.13391	0.14178	0.24549	0.12306	0.15239	0.12329	0.099182	0.12053	0.2203	0.23933	0.29206	-2.9083	-3.5812	-3.0333	-3.7104	-3.1646	-3.0875	-3.7562	-3.0875	-3.3729	-3.8333	-3.2521	-3.6312	-3.5938	-3.2354	-3.5729	-3.4417	170.810	378.946	236.171	141.663	364.851	390.760	408.760	387.768	319.827	93.639	320.931	136.373	401.945	391.455	128.146	355.634	0.0025568	0.00039562	0.00021161	990.55	7.7961e-06	2.8004e-06	1198.1	343.51	3.7387e-06	5.8471e-06	460.9	215.47	158.07	76.24	4.7531e-06	115.81	8.6534e-05	5.7616e-05	1.4684e-05	885.63	7.0553e-07	6.3392e-07	1057.5	300.7	6.9087e-07	6.0257e-07	395.05	183.31	135.93	65.929	5.7417e-07	98.631	328.487	176.684	131.285	101.521	207.457	262.331	100.537	107.639	217.127	212.618	105.098	109.605	111.935	115.981	199.819	112.631	-8191	255	
8625.194	1	1	0	0	0.065613	0.15904	0.082306	0.05028	0.090027	0.040602	0.2256	0.081086	0.1167	0.12897	0.096718	0.25809	0.32633	0.23459	0.14947	0.20126	-2.7396	-3.7292	-2.9646	-3.5708	-3.3187	-3.0354	-3.6979	-3.2333	-3.1771	-3.6604	-3.0271	-3.4958	-3.4167	-2.9333	-3.65	-3.4875	223.956	133.422	384.472	342.468	171.257	284.210	340.007	145.737	155.689	307.808	394.569	431.390	392.502	378.877	241.275	397.562	0.0025244	0.00038316	0.00013941	989.91	6.3719e-06	3.8365e-06	1196.9	345.04	4.1737e-06	3.5272e-06	460.01	215.16	157.32	76.066	6.7646e-06	116.52	8.3319e-05	5.3819e-05	1.462e-05	883.68	6.4488e-07	6.0412e-07	1056.1	300.74	6.4488e-07	5.6573e-07	394.86	183.09	135.17	65.818	5.5837e-07	99.105	328.912	173.914	143.882	101.162	229.600	230.413	100.460	107.492	230.415	229.536	105.400	110.036	112.278	115.994	212.425	112.841	-8191	255	
8625.290	1	1	0	0	0.20739	0.44939	0.030796	0.2544	0.12781	0.090384	0.25906	0.055914	0.21992	0.17743	0.26955	0.13619	0.16274	0.15124	0.21224	0.14261	-2.6979	-3.6229	-2.9938	-3.4188	-3.4375	-2.8479	-3.6333	-3.2521	-3.1104	-3.6188	-3.1333	-3.35	-3.7188	-3.0146	-3.4792	-3.4188	388.730	435.351	442.266	400.854	359.134	303.876	401.970	397.123	197.820	123.297	410.786	434.230	99.924	189.371	154.864	361.639	0.0023786	0.00034639	8.6791e-05	984.72	5.2625e-06	3.1996e-06	1199.2	343.35	6.8244e-06	4.0627e-06	459.48	214.59	156.65	75.505	5.2422e-06	116	7.772e-05	4.9876e-05	1.4379e-05	880.58	5.8729e-07	5.5026e-07	1055.8	299.88	5.9135e-07	5.3595e-07	394.79	182.75	134.92	65.422	6.0255e-07	98.668	329.266	161.861	147.716	101.119	223.473	237.633	100.303	107.299	213.998	202.524	105.330	109.833	111.887	116.239	212.786	112.586	-8191	255	
8625.386	1	1	0	0	0.055935	0.090246	0.12896	0.19025	0.11738	0.2813	0.22573	0.088735	0.11713	0.10963	0.11057	0.2282	0.20491	0.3174	0.25692	0.333	-2.5125	-3.5917	-2.9792	-3.2667	-3.6125	-2.9333	-3.7292	-3.5479	-2.9437	-3.7604	-3.2458	-3.4292	-3.6625	-3.2812	-3.5292	-3.5146	115.912	358.600	212.010	377.189	433.226	154.969	337.037	209.351	170.656	406.645	90.005	121.638	395.673	367.762	295.904	419.538	0.0022704	0.00063371	0.00016433	989.96	5.1195e-06	2.6551e-06	1201.1	342.07	5.9954e-06	3.431e-06	458.25	211.91	155.97	75.116	5.307e-06	115.2	7.7985e-05	5.1282e-05	1.6042e-05	884.75	5.9547e-07	5.7043e-07	1057.8	299.6	5.9295e-07	5.4702e-07	393.78	181.31	134.44	64.961	6.5834e-07	98.157	329.601	148.049	140.256	101.135	201.905	242.456	100.524	107.507	209.787	199.261	105.351	109.834	111.800	115.841	219.386	112.796	-8191	255	
8625.482	1	1	0	0	0.045855	0.10447	0.061626	0.16131	0.16593	0.065262	0.18436	0.15937	0.087334	0.18186	0.098052	0.073961	0.081196	0.18116	0.054031	0.16506	-2.5542	-3.5792	-3.2	-3.0833	-3.7625	-2.8625	-3.2979	-3.5979	-3.0146	-3.5542	-3.3604	-3.2708	-3.7812	-3.1208	-3.15	-3.5354	376.733	145.156	378.822	279.511	270.633	147.875	367.676	129.306	444.144	133.978	397.498	213.206	409.306	414.306	254.825	284.352	0.002369	0.00038062	0.00028015	987.96	5.3197e-06	4.2627e-06	1197.8	344.54	4.5997e-06	4.5571e-06	459.76	214.61	157.96	75.449	4.6999e-06	115.97	7.5685e-05	5.003e-05	1.6946e-05	882.75	5.9146e-07	5.927e-07	1057.8	299.74	5.8802e-07	5.6992e-07	395.75	182.52	135.57	65.201	6.8474e-07	98.516	328.969	175.215	173.384	101.345	209.742	238.896	100.560	107.635	210.259	244.268	104.944	109.779	111.485	115.997	232.786	112.548	-8191	255	
8625.578	1	1	0	0	0.072091	0.062752	0.0077364	0.098006	0.25342	0.13538	0.35316	0.14381	0.18494	0.21878	0.14375	0.12816	0.24227	0.26401	0.17418	0.1933	-2.4854	-3.5	-3.325	-3.2083	-3.8417	-3.0417	-3.3333	-3.8125	-2.9062	-3.5229	-3.3125	-3.1292	-3.6604	-3.2042	-3.0104	-3.6167	406.110	243.095	337.357	312.684	383.982	438.391	379.249	260.813	173.841	254.986	357.452	149.678	400.784	128.504	329.542	383.570	0.002363	0.00028936	0.0001708	991.38	6.6621e-06	4.314e-06	1195.9	343.63	6.1803e-06	3.6283e-06	461.9	216.18	157.49	75.369	2.5242e-06	116.88	7.4278e-05	5.4158e-05	1.7202e-05	885.71	5.7677e-07	6.4679e-07	1057.5	299.38	6.1218e-07	6.5406e-07	396.37	183.54	135.3	65.479	7.2154e-07	99.278	329.864	138.516	192.692	101.258	217.510	265.344	100.270	107.113	219.216	214.179	105.233	109.726	112.248	116.002	220.058	112.713	-8191	255	
8625.674	1	1	0	0	0.15956	0.1348	0.27966	0.18738	0.27592	0.2229	0.13591	0.24427	0.23196	0.067889	0.06184	0.31879	0.28912	0.10193	0.058963	0.32902	-2.5	-3.3917	-3.3417	-3.1979	-3.8208	-3.2458	-3.2438	-3.6729	-3.0667	-3.4313	-3.625	-3.0771	-3.5542	-3.2271	-2.9229	-3.9313	447.670	161.492	291.728	117.448	312.948	131.314	431.026	357.553	304.327	311.036	265.456	376.839	307.933	183.625	188.289	391.666	0.0023911	0.00064641	0.0001254	992.83	7.5272e-06	3.0326e-06	1206.8	344.89	4.9745e-06	2.557e-06	460.88	215.32	157.23	75.421	3.7561e-06	116.32	7.9153e-05	6.1677e-05	1.7466e-05	888.49	5.9949e-07	7.1355e-07	1063.5	300.57	6.2451e-07	7.0466e-07	396.79	183.68	135.17	65.374	7.0645e-07	98.728	330.767	169.596	180.822	101.330	214.980	255.073	100.180	107.614	214.387	243.478	105.068	109.943	112.005	116.185	230.102	112.975	-8191	255	
8625.795	1	1	0	0	0.15682	0.062625	0.21621	0.10063	0.075609	0.12797	0.062508	0.10456	0.16107	0.10409	0.13268	0.068431	0.19851	0.15981	0.083652	0.17583	-2.6229	-3.2562	-3.4062	-3.0875	-3.5104	-3.2	-3.0396	-3.7729	-3.0771	-3.3417	-3.725	-2.9167	-3.6208	-3.4646	-2.9583	-3.7833	373.017	184.644	111.837	234.209	156.309	302.558	127.122	343.985	143.004	367.335	357.380	263.085	370.268	328.369	262.478	391.718	0.0025323	0.00043469	0.00010922	985.98	7.1824e-06	4.3031e-06	1194.6	341.35	4.8154e-06	2.0244e-06	455.81	213.8	155.09	74.558	5.1141e-06	115.23	8.2323e-05	6.7931e-05	1.7004e-05	882.85	6.4893e-07	7.3116e-07	1054.8	298.79	6.7061e-07	7.2303e-07	392.94	181.96	134.21	64.927	7.1015e-07	97.983	326.820	171.219	158.406	101.429	217.875	255.319	100.237	107.304	221.784	231.175	105.192	109.582	111.796	115.949	187.816	112.849	-8191	255	
8625.889	1	1	0	0	0.09592	0.1769	0.18224	0.09372	0.18135	0.23281	0.24893	0.22371	0.15796	0.17339	0.055847	0.30922	0.09455	0.33906	0.13077	0.10218	-2.6771	-3.1917	-3.5375	-3.0792	-3.4688	-3.3354	-3.1354	-3.7854	-3.1542	-3.2708	-3.6479	-3.1229	-3.5521	-3.4875	-3.0312	-3.7583	395.223	335.327	346.173	168.754	176.184	352.029	261.951	110.033	245.570	270.518	434.516	434.227	418.020	354.998	292.301	420.309	0.0025008	0.0003634	0.00014456	986.72	8.5913e-06	4.7912e-06	1193.4	341.24	3.952e-06	2.4527e-06	457.48	214.42	157.04	74.909	5.1583e-06	115.12	9.0798e-05	7.0972e-05	1.8035e-05	882.18	7.5114e-07	7.7738e-07	1054.7	298.29	7.9215e-07	7.7162e-07	393.7	182.98	135.18	65.005	7.258e-07	98.213	328.803	226.327	171.046	101.589	195.527	237.535	100.208	107.236	177.244	232.033	104.796	109.551	111.796	115.980	218.074	112.491	-8191	255	
8625.987	1	1	0	0	0.20573	0.11526	0.15243	0.35319	0.077134	0.25687	0.20474	0.16722	0.11159	0.12127	0.15264	0.21818	0.26562	0.2214	0.20882	0.4141	-2.7625	-3.0083	-3.675	-3.1771	-3.3458	-3.4062	-3.0354	-3.6396	-3.3792	-2.9813	-3.5563	-3.1229	-3.5792	-3.6146	-2.7583	-3.6333	233.206	426.437	280.922	421.734	246.926	165.471	320.149	332.253	414.569	151.863	281.109	350.954	445.721	125.456	268.614	358.328	0.0022097	0.00032235	0.00021466	986.74	4.3955e-06	2.9208e-06	1202.3	343.69	7.3364e-06	2.5102e-06	463.12	213.72	155.88	74.305	4.7701e-06	115.39	9.4223e-05	6.91e-05	1.7705e-05	885.21	8.0543e-07	7.406e-07	1060.1	300.62	8.2907e-07	7.4812e-07	396.31	182.76	134.61	64.365	7.3311e-07	98.112	330.319	201.488	138.336	101.203	197.076	278.136	100.532	107.391	208.391	197.883	105.239	110.060	112.033	115.916	233.112	112.482	-8191	255	
8626.082	1	1	0	0	0.10077	0.30017	0.20101	0.24381	0.055763	0.071888	0.096741	0.09821	0.10869	0.12174	0.086176	0.17644	0.28831	0.22753	0.24862	0.16272	-2.95	-2.9958	-3.6083	-3.2229	-3.2208	-3.5354	-3.15	-3.4979	-3.4229	-2.8438	-3.8646	-3.2583	-3.3063	-3.7896	-3.0438	-3.5375	115.868	300.729	362.452	389.602	220.184	409.180	155.572	100.280	227.595	363.349	421.193	390.271	371.256	418.071	396.486	386.699	0.0024689	0.00032427	0.00015897	988.7	3.7344e-06	3.1174e-06	1200.7	344.5	5.6721e-06	2.1674e-06	461.96	213.02	154.92	73.362	4.644e-06	114.51	0.00010121	7.2089e-05	1.7972e-05	889.51	8.5352e-07	7.3928e-07	1062	301.45	8.2152e-07	7.2679e-07	397.07	182.7	133.83	63.725	7.0353e-07	97.528	331.769	130.273	150.249	101.589	229.142	250.926	100.631	107.205	219.440	223.624	105.207	109.795	111.928	116.155	199.001	112.799	-8191	255	
8626.178	1	1	0	0	0.089224	0.20501	0.1522	0.14643	0.13205	0.2794	0.25963	0.25382	0.1469	0.10584	0.13119	0.12441	0.13159	0.047348	0.15773	0.32811	-2.9062	-2.9292	-3.5708	-3.2083	-3.1646	-3.5375	-2.9896	-3.4458	-3.4313	-3.0792	-3.6354	-3.2333	-3.1562	-3.6958	-2.8521	-3.3354	299.187	210.075	254.078	282.476	408.203	416.153	441.999	354.113	352.475	198.120	344.215	354.014	411.865	416.395	115.817	390.613	0.0023771	0.00037702	8.418e-05	987.83	2.261e-06	3.4293e-06	1199.5	345.25	8.1484e-06	6.0126e-06	460.03	214.19	155.83	73.807	7.3135e-06	113.92	9.6185e-05	6.8108e-05	1.7868e-05	885.86	8.2071e-07	7.2242e-07	1059.6	302.23	8.1908e-07	7.5609e-07	396.47	183.16	134.56	63.884	7.6615e-07	97.314	329.540	159.502	176.976	101.285	230.914	211.125	100.591	107.629	199.800	217.714	105.310	109.642	112.126	116.035	213.164	112.616	-8191	255	
8626.274	1	1	0	0	0.073708	0.1485	0.028795	0.17414	0.20074	0.1616	0.19052	0.10894	0.16891	0.33153	0.1825	0.10415	0.20549	0.45085	0.22587	0.24612	-3.2438	-2.7438	-3.3896	-3.5271	-3.0521	-3.6979	-3.175	-3.3438	-3.5646	-3.075	-3.4396	-3.4021	-3.0104	-3.8229	-3.1333	-3.3187	349.230	405.195	187.317	411.818	427.556	159.194	446.525	324.252	330.390	224.323	113.555	90.664	279.973	404.908	329.312	407.010	0.0023622	0.00012685	0.00017522	992.36	6.227e-06	3.577e-06	1195.1	344.87	4.5503e-06	3.8422e-06	461.72	215	156.53	73.712	2.9675e-06	114.84	9.2411e-05	6.7583e-05	1.9097e-05	888.13	8.0405e-07	7.2219e-07	1059.6	302	7.876e-07	7.5898e-07	396.94	183.83	134.97	64.134	8.7242e-07	98.222	330.815	203.173	150.918	101.296	197.144	240.673	100.344	107.436	216.618	249.842	105.196	109.799	111.886	116.110	222.050	112.696	-8191	255	
8626.395	1	1	0	0	0.25585	0.22469	0.18483	0.10734	0.10093	0.079165	0.27234	0.073638	0.088137	0.18648	0.19691	0.2104	0.087032	0.36508	0.076813	0.20741	-3.0938	-2.775	-3.4667	-3.3771	-3.1417	-3.7417	-3.1688	-3.1604	-3.6792	-2.9333	-3.4521	-3.5312	-3.0833	-3.6708	-3.0792	-3.1771	161.270	294.950	248.736	179.786	182.900	403.474	396.594	269.394	257.761	352.314	309.453	108.351	369.978	103.576	252.846	397.485	0.002339	0.00043744	0.00023414	987.65	6.7252e-06	3.2072e-06	1193.8	343.3	7.8397e-06	3.7471e-06	458.91	215.78	155.97	74.703	5.3861e-06	116.18	9.5615e-05	7.2096e-05	2.2968e-05	886.68	8.4022e-07	7.8684e-07	1061.1	300.99	8.7428e-07	8.5986e-07	396.82	184.47	134.84	64.771	1.0464e-06	99.367	330.106	130.183	157.619	101.221	211.714	265.568	100.702	107.704	219.554	214.155	105.628	109.606	112.138	116.148	244.150	112.430	-8191	255	
8626.491	1	1	0	0	0.14105	0.10441	0.18438	0.25059	0.20926	0.19061	0.10231	0.14441	0.13933	0.091967	0.25526	0.28517	0.10189	0.28837	0.2192	0.30064	-3.3333	-2.9271	-3.3063	-3.4542	-2.9479	-3.4604	-3.3354	-3.1854	-3.5187	-2.9979	-3.2292	-3.5646	-3.0354	-3.5604	-3.2021	-3.0563	357.708	406.580	125.376	135.334	195.648	201.214	98.106	324.432	200.126	195.958	415.962	436.875	424.397	425.286	188.078	407.038	0.0024525	0.0004461	0.00030911	987.96	3.9992e-06	4.8276e-06	1203.6	343.39	2.3257e-06	3.8683e-06	462.01	217.16	156.78	75.048	8.058e-06	117.01	0.00010531	8.5794e-05	2.744e-05	887.86	9.7251e-07	9.4634e-07	1067.1	301.67	9.3511e-07	9.9339e-07	400.58	186.1	135.42	65.524	1.118e-06	99.911	328.341	153.054	128.847	101.120	246.605	266.328	100.395	107.562	191.899	253.858	105.201	109.775	111.967	115.858	229.719	112.566	-8191	255	
8626.587	1	1	0	0	0.059018	0.2922	0.10623	0.34241	0.091892	0.012332	0.070365	0.088143	0.13396	0.090474	0.22692	0.064385	0.22494	0.20053	0.24324	0.23494	-3.3521	-3.0687	-3.1125	-3.5708	-2.7896	-3.5417	-3.2438	-2.95	-3.7438	-3.1146	-3.2188	-3.6667	-3.1042	-3.6646	-3.3542	-2.9792	353.190	242.515	214.728	366.684	362.160	280.739	411.646	94.275	320.364	325.132	263.539	102.998	375.115	95.338	370.864	385.899	0.0023464	0.00048186	0.00022427	987.28	6.3692e-06	5.3858e-06	1201.7	344.23	3.3559e-06	5.0788e-06	462.36	218.03	156.21	75.608	6.4177e-06	117.21	0.00010612	9.262e-05	2.7401e-05	886.49	9.3654e-07	1.0187e-06	1066.2	302.64	8.8689e-07	1.0519e-06	399.48	186.42	135.8	65.894	1.0276e-06	99.715	326.956	182.732	170.010	101.263	211.403	276.634	100.409	107.370	210.422	210.334	105.231	109.483	111.637	115.880	226.313	112.773	-8191	255	
8626.683	1	1	0	0	0.10855	0.083071	0.13832	0.35601	0.29779	0.15579	0.092464	0.20722	0.057838	0.16263	0.085137	0.14604	0.24431	0.20911	0.24335	0.31878	-3.1521	-3.1646	-3.1729	-3.7208	-2.85	-3.4396	-3.5646	-2.9313	-3.3083	-3.0771	-3.2104	-3.8625	-3.0958	-3.3396	-3.5208	-2.975	245.095	102.130	295.738	367.030	334.891	231.777	428.929	111.431	194.911	156.920	445.094	383.768	440.308	425.954	335.809	392.167	0.0024107	0.00041613	0.00011352	987.48	3.1735e-06	3.5471e-06	1205.1	344.74	4.831e-06	5.678e-06	464.24	219.45	157.53	75.932	2.3469e-06	116.98	0.00010146	9.311e-05	2.5781e-05	887.95	9.2021e-07	1.0524e-06	1068.7	302.75	9.205e-07	1.0719e-06	400.79	187.17	136.48	66.055	1.0225e-06	99.873	330.185	161.425	102.664	101.065	240.992	244.720	100.461	107.316	253.398	188.623	105.339	109.885	111.684	115.792	237.950	112.609	-8191	255	
8626.779	1	1	0	0	0.086883	0.15522	0.15829	0.11326	0.051503	0.23349	0.26576	0.26241	0.26083	0.19902	0.24036	0.34713	0.16462	0.3735	0.18313	0.24401	-3.1979	-3.2125	-3.0292	-3.6042	-2.9875	-3.2521	-3.775	-3	-3.6417	-3.2292	-3.1042	-3.8438	-3.0812	-3.2188	-3.5021	-3.0563	113.750	431.471	301.055	144.215	378.280	344.719	409.355	344.332	281.113	447.001	399.885	414.647	397.553	368.991	106.320	418.638	0.0024665	0.00032432	0.00023445	994.25	5.4927e-06	2.6319e-06	1200.5	345.87	8.5669e-06	1.4683e-06	465.56	220.2	157.88	75.416	6.5613e-06	117.03	0.00011236	0.00010303	2.5998e-05	892.81	1.0305e-06	1.1271e-06	1068.8	303.55	1.0371e-06	1.1187e-06	403.07	188.45	136.76	65.786	1.0118e-06	100.34	327.037	179.479	203.323	101.137	237.895	278.625	100.438	107.277	211.473	306.257	105.266	109.899	111.934	116.014	221.937	112.522	-8191	255	
8626.875	1	1	0	0	0.10952	0.10302	0.19756	0.17536	0.015808	0.16091	0.15939	0.20723	0.25157	0.080982	0.08373	0.11975	0.1505	0.47213	0.17706	0.17436	-3.0146	-3.1437	-2.8875	-3.5812	-3.0771	-3.1688	-3.6708	-3.1125	-3.65	-3.2938	-2.8875	-3.6083	-3.3125	-3.2708	-3.7479	-3.1708	206.875	251.568	178.047	139.007	288.972	246.330	341.332	404.283	338.044	436.120	381.682	394.410	385.930	92.631	377.585	405.246	0.0022828	0.00049274	0.00023921	992.14	4.1952e-06	1.9312e-06	1219.4	347.1	9.4686e-06	6.2797e-06	469.26	222.45	157.74	75.585	4.1187e-06	117.96	0.00011917	0.0001007	2.5865e-05	893.34	1.1158e-06	1.1045e-06	1074.6	304.61	1.0975e-06	1.0772e-06	405.06	189.63	137.09	65.907	9.7361e-07	100.53	327.953	177.178	126.060	101.188	162.075	246.679	100.558	107.378	213.727	256.381	105.399	109.824	111.741	116.042	211.406	112.618	-8191	255	
8626.970	1	1	0	0	0.096291	0.16736	0.1218	0.13715	0.05774	0.11239	0.31059	0.056006	0.092414	0.19207	0.1312	0.28303	0.29117	0.12322	0.10159	0.44699	-2.85	-3.4646	-2.9313	-3.6208	-2.9917	-3	-3.7958	-3.0062	-3.2021	-3.4542	-2.8896	-3.6562	-3.2729	-3.2167	-3.6292	-3.0917	211.685	123.260	218.003	145.180	202.796	192.878	355.155	411.997	393.176	237.189	410.751	418.399	426.847	419.993	403.634	423.243	0.0025137	0.00028027	0.00021191	992.62	6.1352e-06	4.8145e-06	1209.3	345.06	7.3818e-06	2.4448e-06	466.9	219.03	157.45	75.033	4.4827e-06	116.56	0.000125	9.7164e-05	2.546e-05	893.02	1.1633e-06	1.0636e-06	1070.8	303.86	1.1686e-06	1.0711e-06	402.85	188.05	136.94	65.345	1.0259e-06	99.701	330.011	136.974	179.363	101.276	213.366	222.955	100.186	107.480	208.117	200.857	105.208	109.657	111.882	115.941	198.810	112.620	-8191	255	
8627.068	1	1	0	0	0.056158	0.012907	0.096248	0.33008	0.085888	0.14461	0.14299	0.27461	0.22631	0.13022	0.15384	0.13801	0.1221	0.27912	0.13394	0.24586	-2.6833	-3.5229	-2.8021	-3.3979	-3.5583	-2.7208	-3.8125	-3.0938	-3.0875	-3.4437	-2.9562	-3.5271	-3.4583	-2.9875	-3.6167	-3.1521	121.762	169.648	161.618	98.502	334.831	240.172	362.871	383.862	315.707	434.446	306.458	124.198	94.064	91.262	136.396	448.686	0.002539	0.00037909	0.0002108	990.66	6.8014e-06	2.0643e-06	1204.2	346.67	5.6641e-06	3.7853e-06	467.08	219.75	157.73	74.955	3.9372e-06	116.76	0.00013095	9.7468e-05	2.5891e-05	893.9	1.1936e-06	1.0741e-06	1070.4	304.8	1.203e-06	1.0469e-06	402.49	188.69	136.64	65.328	1.0186e-06	99.951	327.334	146.072	134.779	101.206	250.526	289.739	100.379	107.420	246.163	249.025	105.142	109.875	111.769	115.661	211.178	112.701	-8191	255	
8627.186	1	1	0	0	0.21852	0.13216	0.038778	0.083342	0.054194	0.19981	0.099181	0.2372	0.048897	0.1702	0.21896	0.18194	0.15392	0.22347	0.12996	0.24599	-2.6208	-3.5187	-2.8854	-3.4938	-3.4021	-2.7333	-3.7542	-3.2	-3.1333	-3.6625	-3.05	-3.5229	-3.7146	-3.1375	-3.5583	-3.4625	194.375	437.930	394.477	95.469	387.307	196.434	404.761	448.473	235.117	291.820	108.652	405.061	348.017	435.808	443.199	385.333	0.0023296	0.00028926	0.00015453	995.12	6.2906e-06	4.019e-06	1210.3	344.3	6.6406e-06	4.0813e-06	463.44	220.62	156.91	74.997	2.0643e-06	117.44	0.00012836	9.7526e-05	2.6475e-05	894.92	1.16e-06	1.0776e-06	1070.9	304	1.1587e-06	1.0394e-06	402.08	189.1	136.12	65.292	1.0883e-06	100.35	327.488	148.178	144.829	101.152	196.067	259.552	100.457	107.691	208.193	168.693	105.422	109.670	111.717	115.795	215.837	112.556	-8191	255	
8627.283	1	1	0	0	0.093922	0.23273	0.19456	0.24158	0.12209	0.24243	0.088575	0.16814	0.079501	0.21238	0.085281	0.19793	0.094263	0.22595	0.19495	0.38761	-2.5042	-3.6417	-3.0563	-3.3417	-3.5021	-2.8479	-3.7188	-3.4167	-2.8521	-3.7375	-3.175	-3.3896	-3.5271	-2.8292	-3.4375	-3.6646	280.517	143.094	375.334	408.688	357.846	412.880	402.358	101.243	328.610	100.908	93.367	340.046	372.439	381.393	344.668	406.194	0.0024642	0.00031668	0.00023308	991.72	4.8987e-06	3.3105e-06	1206.3	343.44	6.9362e-06	1.4098e-06	464.66	220.37	156.53	75.119	4.9579e-06	117.29	0.0001258	9.5583e-05	2.8191e-05	894.81	1.0961e-06	1.0467e-06	1071.2	303.95	1.0994e-06	1.0012e-06	403.69	189.34	135.9	65.245	1.1391e-06	100.31	331.377	167.542	134.207	101.024	215.827	273.398	100.310	107.391	208.564	229.752	105.427	109.912	111.803	115.709	210.231	112.630	-8191	255	
8627.354	1	1	0	0	0.20003	0.11556	0.1556	0.098411	0.28399	0.13234	0.14745	0.36654	0.13931	0.19364	0.29825	0.26248	0.13787	0.1465	0.090753	0.071264	-2.35	-3.6208	-2.9479	-3.1646	-3.6208	-2.925	-3.6146	-3.3521	-2.9	-3.6188	-3.3354	-3.2708	-3.6458	-3.0938	-3.3625	-3.6521	187.987	110.806	258.865	342.544	212.104	408.977	423.890	407.717	403.076	370.199	384.446	370.433	414.017	112.101	331.386	322.364	0.0023115	0.00013846	0.00025458	988.57	6.7501e-06	2.8969e-06	1204.4	343.84	6.5825e-06	5.8027e-06	464.77	219.52	156.98	74.791	5.658e-06	117.15	0.0001214	9.2197e-05	2.9994e-05	891.66	1.0551e-06	1.037e-06	1072.3	303.66	1.0858e-06	1.0098e-06	402.51	188.53	135.87	65.021	1.2162e-06	99.854	325.643	217.727	156.318	101.321	276.731	232.227	100.420	107.218	176.656	199.111	105.198	109.608	111.783	115.917	203.190	112.778	-8191	255	
8627.475	1	1	0	0	0.12803	0.12739	0.10302	0.074347	0.14731	0.15241	0.24443	0.39764	0.29994	0.086274	0.25087	0.19881	0.069681	0.045393	0.20105	0.1008	-2.4667	-3.3458	-3.1021	-3.1604	-3.5292	-2.9271	-3.4188	-3.6167	-2.7854	-3.475	-3.3208	-3.0438	-3.7188	-3.0271	-3.1813	-3.9146	311.071	373.543	148.947	425.434	110.341	428.625	345.176	362.502	117.712	227.898	169.854	204.734	248.750	317.415	322.816	339.285	0.0022623	0.00058051	4.6505e-05	989.96	5.2337e-06	4.4262e-06	1200.5	344.95	5.6232e-06	4.0736e-06	463.43	218.99	156.6	74.748	7.929e-06	116.72	0.00011866	9.4683e-05	3.0947e-05	890.11	1.0543e-06	1.1065e-06	1070	303.28	1.1014e-06	1.1621e-06	402.26	188.27	136	65.05	1.3469e-06	99.801	330.387	172.341	91.141	100.992	202.156	228.996	100.070	107.381	210.576	226.479	105.315	109.455	111.889	115.848	217.856	112.712	-8191	255	
8627.571	1	1	0	0	0.10154	0.14063	0.2844	0.080682	0.073663	0.32481	0.42298	0.20727	0.043563	0.10289	0.17461	0.064065	0.21498	0.15063	0.047045	0.25803	-2.55	-3.3167	-3.3083	-3.1521	-3.4896	-3.0083	-3.3646	-3.5771	-2.9104	-3.3896	-3.3542	-2.9479	-3.7542	-3.1125	-3.0729	-3.6208	114.505	215.597	175.285	198.921	274.561	275.645	384.324	161.566	321.301	289.747	338.268	145.259	435.926	430.460	404.614	359.845	0.0023042	0.0005879	0.00020078	986.87	7.2376e-06	7.7468e-06	1200.6	345.84	8.85e-06	6.0119e-06	462.26	219.37	156.91	74.608	3.7682e-06	117.13	0.00012557	0.00011131	3.3389e-05	890.89	1.1095e-06	1.2452e-06	1072.8	303.5	1.158e-06	1.2906e-06	403.1	189.06	135.96	65.031	1.3173e-06	100.34	328.121	162.818	154.398	101.566	211.232	230.672	100.561	107.345	212.436	188.574	105.262	109.741	111.771	115.575	183.453	112.565	-8191	255	
8627.667	1	1	0	0	0.32093	0.094552	0.11418	0.13233	0.16626	0.029508	0.13329	0.068117	0.027812	0.34592	0.20025	0.2643	0.079715	0.16229	0.13566	0.13964	-2.7979	-3.4417	-3.2438	-3.0917	-3.5083	-3.2479	-3.1458	-3.7583	-2.9667	-3.1479	-3.5312	-2.9333	-3.6521	-3.5458	-3.025	-3.7896	215.837	360.305	341.685	428.116	175.052	337.105	398.273	98.453	242.772	107.040	340.873	436.945	166.506	400.188	290.355	415.122	0.0023417	0.00036614	0.00014599	986.1	4.0506e-06	4.1754e-06	1200.5	343.89	6.831e-06	4.3823e-06	466.88	220.93	157.05	74.789	3.2028e-06	117.17	0.0001265	0.00012077	3.2149e-05	890.37	1.1184e-06	1.3214e-06	1072.1	303.65	1.1541e-06	1.2985e-06	404.5	190.01	135.83	65.061	1.1674e-06	100.17	327.998	202.353	164.892	101.144	219.108	262.277	100.555	107.487	219.831	201.271	105.440	109.502	111.778	115.829	191.586	112.779	-8191	255	
8627.788	1	1	0	0	0.1289	0.25979	0.12998	0.22027	0.095193	0.21874	0.11723	0.19558	0.059688	0.24711	0.18873	0.23434	0.15899	0.084663	0.10472	0.27453	-2.6333	-3.2854	-3.3521	-2.9604	-3.6458	-3.2625	-3.0708	-3.8021	-3.0146	-3.2833	-3.7146	-3.0958	-3.5396	-3.5292	-2.8833	-3.8792	361.043	352.828	185.235	382.094	338.974	393.156	446.770	403.572	194.459	398.587	348.302	403.297	405.407	110.332	194.792	432.993	0.0025127	0.00058328	8.6842e-05	978.33	5.3261e-06	3.6084e-06	1202.8	342.07	5.2099e-06	4.9256e-06	462.41	219.88	156.49	74.173	3.6844e-06	116.57	0.00012312	0.00011039	2.8125e-05	885.28	1.1041e-06	1.2275e-06	1066.2	301.74	1.1478e-06	1.2116e-06	400.35	188.18	135.2	64.636	1.082e-06	99.096	328.127	143.584	149.878	101.429	210.415	225.687	100.343	107.034	198.836	243.762	105.141	109.784	111.854	115.663	211.453	112.613	-8191	255	
8627.884	1	1	0	0	0.23188	0.14993	0.14115	0.22798	0.32501	0.16711	0.15498	0.22463	0.25203	0.09837	0.13161	0.49131	0.164	0.26562	0.08174	0.10636	-2.6896	-3.0625	-3.5104	-2.9271	-3.3542	-3.2333	-3.0271	-3.7229	-3.2125	-3.1312	-3.5417	-2.9688	-3.3396	-3.575	-2.8417	-3.6104	155.916	213.070	263.949	394.836	443.582	223.424	380.324	309.471	140.545	324.542	170.314	421.904	231.620	405.971	300.038	356.035	0.0025103	0.00043649	0.00026117	984.87	8.4523e-06	3.8789e-06	1198.8	342.84	3.9965e-06	4.1973e-06	463.66	219.92	155.93	75.062	8.1761e-06	117.9	0.00012921	0.00010931	2.6848e-05	886.02	1.1807e-06	1.1788e-06	1063.8	301.81	1.236e-06	1.1916e-06	399.94	188.22	135.63	65.13	1.1008e-06	100.26	329.605	208.831	159.170	101.459	221.383	227.753	100.110	107.616	240.604	208.652	104.917	109.652	111.821	115.740	206.122	112.678	-8191	255	
8627.956	1	1	0	0	0.1183	0.15625	0.091821	0.10575	0.073764	0.24752	0.22671	0.20669	0.17258	0.23937	0.10573	0.14245	0.08518	0.23633	0.10055	0.23333	-2.6354	-2.9896	-3.6083	-3.1917	-3.2938	-3.3708	-3.0146	-3.7562	-3.0896	-2.9396	-3.7812	-3.2854	-3.4292	-3.6458	-2.6917	-3.5542	190.087	231.219	432.456	364.769	263.574	263.971	390.778	408.666	399.076	448.773	89.493	399.459	406.963	350.584	265.366	408.412	0.0023428	5.157e-05	5.8227e-05	986.57	4.84e-06	4.6189e-06	1200.5	343.04	5.8143e-06	4.1426e-06	463.71	219.14	155.68	74.34	4.9079e-06	116.83	0.00013818	0.00010633	2.7301e-05	886.01	1.249e-06	1.097e-06	1066.5	301.65	1.2234e-06	1.1123e-06	399.94	188.22	135.3	64.687	1.0817e-06	99.938	332.896	204.300	91.105	101.217	206.647	195.573	100.318	107.076	240.464	266.655	105.322	109.890	111.563	115.777	256.579	112.618	-8191	255	
8628.075	1	1	0	0	0.12543	0.38973	0.13555	0.10317	0.069236	0.10092	0.29586	0.12688	0.1654	0.20816	0.17341	0.24334	0.11218	0.27256	0.18534	0.24498	-2.9437	-2.9479	-3.3583	-3.1625	-2.8583	-3.4875	-2.9292	-3.4146	-3.4104	-2.8979	-3.6042	-3.2	-3.125	-3.8438	-3.0125	-3.5062	159.313	331.230	170.022	345.500	126.450	430.176	373.899	168.238	377.009	213.038	110.349	422.877	402.675	441.148	198.561	342.641	0.0024758	0.0002212	0.00019872	984.44	3.5834e-06	3.307e-06	1203.5	342.77	5.3785e-06	2.6336e-06	464.28	220.32	155.69	74.4	5.7396e-06	117.04	0.00013712	0.0001048	2.7217e-05	887.59	1.3112e-06	1.1402e-06	1066	302.45	1.2887e-06	1.1701e-06	401.11	189.49	135.44	64.941	1.1289e-06	100.49	329.293	98.894	148.256	101.368	244.876	229.994	100.516	107.451	162.733	153.955	104.982	109.895	111.858	115.758	231.574	112.849	-8191	255	
8628.171	1	1	0	0	0.16066	0.036794	0.23481	0.084695	0.3326	0.062207	0.058815	0.039126	0.15622	0.27125	0.20145	0.23128	0.099314	0.24625	0.071275	0.022515	-2.8229	-2.8021	-3.4896	-3.4188	-3.0875	-3.5812	-3.0042	-3.4	-3.3875	-2.8854	-3.6	-3.1958	-3.0187	-3.7458	-2.9146	-3.3583	221.744	385.098	161.784	137.657	387.905	318.994	445.367	437.145	170.843	157.728	93.566	427.646	401.563	416.443	442.492	149.698	0.0023745	0.00041163	0.00014825	981.29	4.1936e-06	2.9541e-06	1200.4	340.38	3.853e-06	1.7782e-06	460.54	219.08	154.56	73.474	3.849e-06	116.32	0.0001356	0.00010657	2.8061e-05	887.87	1.2345e-06	1.121e-06	1066	302	1.2288e-06	1.1486e-06	399.71	188.04	134.56	64.185	1.2265e-06	99.495	327.354	234.017	130.180	101.282	202.235	257.767	100.392	107.253	203.262	169.442	105.108	109.697	111.899	115.869	175.268	112.488	-8191	255	
8628.267	1	1	0	0	0.014294	0.092045	0.01267	0.28118	0.21927	0.23678	0.1267	0.27187	0.048173	0.34681	0.22563	0.22657	0.16874	0.2941	0.32808	0.083105	-3.0708	-2.7625	-3.2812	-3.2812	-3	-3.6979	-3.225	-3.2625	-3.4354	-2.8021	-3.5646	-3.5729	-3.0104	-3.8146	-3.2271	-3.3479	153.634	423.443	108.719	370.317	345.473	223.413	318.082	325.141	151.620	314.782	358.058	320.205	407.709	93.219	427.076	324.229	0.0022675	0.00039327	0.00021984	979.06	4.8524e-06	4.4055e-06	1192.7	338.19	9.3345e-06	4.7284e-06	461.6	217.22	154.57	73.813	4.5603e-06	116.33	0.00013257	0.00010603	3.1275e-05	885.16	1.2438e-06	1.1385e-06	1062.8	300.21	1.2237e-06	1.1747e-06	399.39	187.52	134.49	64.11	1.3673e-06	99.479	330.483	200.933	141.769	101.292	245.855	261.789	100.498	107.537	190.810	282.851	105.323	109.620	111.706	115.605	216.073	112.684	-8191	255	
8628.363	1	1	0	0	0.25818	0.2606	0.079388	0.2603	0.12113	0.20604	0.22421	0.21383	0.17429	0.24948	0.16112	0.067481	0.29349	0.24518	0.13139	0.28931	-3.0729	-2.8042	-3.4292	-3.4458	-2.8833	-3.5604	-3.4042	-3.0833	-3.6604	-2.9458	-3.4813	-3.5917	-3.0833	-3.6417	-3.2625	-3.1958	305.384	194.003	440.175	397.053	377.305	235.623	240.895	90.534	153.153	314.929	331.006	430.189	383.928	391.805	223.068	320.156	0.0024816	0.00031497	0.00015109	976.72	5.3107e-06	3.134e-06	1189.6	340.3	5.7211e-06	3.8005e-06	461.63	217.7	154.36	73.346	3.9738e-06	116.01	0.00013372	0.00010905	3.4266e-05	883.33	1.2505e-06	1.1589e-06	1064.5	300.86	1.2188e-06	1.1977e-06	401.11	187.9	134.47	64.02	1.4675e-06	99.515	327.401	158.505	149.836	101.410	175.244	240.249	100.388	107.549	200.308	249.691	105.231	109.849	111.775	115.696	187.793	112.468	-8191	255	
8628.484	1	1	0	0	0.079454	0.18075	0.17152	0.12784	0.084947	0.20932	0.30164	0.11108	0.11298	0.13721	0.16662	0.10848	0.15842	0.3212	0.082905	0.29537	-3.1125	-2.7458	-3.1875	-3.5625	-2.8312	-3.4208	-3.4688	-2.8604	-3.5479	-3.0979	-3.4604	-3.4708	-2.8833	-3.5292	-3.2646	-2.8708	262.573	221.818	416.465	420.446	443.831	426.753	375.036	429.182	416.675	93.566	315.229	421.001	392.953	444.543	126.280	356.012	0.0025765	0.00063274	0.00020429	977.82	4.4395e-06	4.3711e-06	1197.2	340.46	3.6165e-06	2.2694e-06	463.14	218.43	154.64	73.161	3.5667e-06	116.06	0.00013598	0.00011586	3.7429e-05	883.64	1.2667e-06	1.283e-06	1066.5	301.27	1.2302e-06	1.3494e-06	403.31	188.34	134.43	63.969	1.4563e-06	99.503	328.454	180.950	150.047	101.135	207.254	243.039	100.438	107.509	197.333	240.561	105.087	109.632	111.650	115.923	249.185	112.612	-8191	255	
8628.580	1	1	0	0	0.26179	0.17696	0.086463	0.23847	0.024729	0.14802	0.15673	0.090343	0.1174	0.16543	0.12188	0.29998	0.22005	0.05013	0.13741	0.19438	-3.0729	-2.9688	-3.0333	-3.7042	-2.7938	-3.3688	-3.3854	-3.0021	-3.5458	-3.1417	-3.2604	-3.8104	-2.9958	-3.4896	-3.4646	-2.8917	316.931	330.126	401.562	398.045	380.911	321.206	339.923	100.238	235.909	101.762	312.367	112.384	106.370	118.621	331.646	397.399	0.0023956	0.00041086	0.00015173	979.1	2.8745e-06	6.3674e-06	1192.5	337.75	6.6267e-06	3.9248e-06	455.8	216.96	153.51	72.583	5.7251e-06	115.3	0.00013299	0.00012511	3.6289e-05	883.76	1.2381e-06	1.3892e-06	1064.5	299.18	1.2357e-06	1.4602e-06	399.26	186.56	133.58	63.537	1.4133e-06	98.67	330.610	131.146	137.854	101.330	233.239	212.140	100.492	107.274	171.857	221.952	105.446	109.475	111.865	115.899	220.974	112.544	-8191	255	
8628.651	1	1	0	0	0.22689	0.1831	0.21573	0.014997	0.17916	0.23009	0.21407	0.17169	0.111	0.083104	0.22086	0.054558	0.057322	0.39034	0.035433	0.12063	-3.1896	-3.0979	-2.9708	-3.6396	-2.9625	-3.3312	-3.6083	-2.9083	-3.5167	-3.1771	-3.0062	-3.8792	-3.0563	-3.2333	-3.4229	-2.9833	437.560	269.285	227.689	107.343	445.711	434.659	421.047	444.801	109.796	175.957	350.769	334.333	133.492	375.709	196.340	401.549	0.0024191	0.00044153	8.7441e-05	972.87	4.1439e-06	3.7657e-06	1192.5	340	9.2502e-06	2.4519e-06	458.83	215.87	153.17	72.104	2.57e-06	114.32	0.00013601	0.00013691	3.5949e-05	879.56	1.2769e-06	1.4781e-06	1061.3	299.96	1.2752e-06	1.5019e-06	398.13	185.69	133.01	63.013	1.363e-06	97.851	331.733	158.320	144.926	101.438	235.363	254.205	100.211	107.488	195.162	247.761	105.344	109.668	111.867	115.770	171.250	112.749	-8191	255	
8628.748	1	1	0	0	0.10386	0.14002	0.18512	0.17505	0.049905	0.033897	0.3026	0.09671	0.21469	0.15301	0.062339	0.26109	0.20809	0.12046	0.094133	0.3166	-3.0708	-3.2104	-2.8438	-3.6896	-2.925	-3.1688	-3.6312	-2.9229	-3.3667	-3.3479	-3.0312	-3.7062	-3.1188	-3.2771	-3.4667	-3.0438	210.777	132.399	430.452	429.153	374.637	344.944	347.146	431.561	316.772	391.741	279.604	373.364	436.686	380.342	399.968	445.336	0.0023355	0.00040482	0.0001331	975.3	1.3512e-05	5.4797e-06	1190.5	339.34	4.7722e-06	3.5978e-06	456.33	216.67	152.68	71.702	7.7904e-06	114.62	0.00014409	0.00013945	3.5092e-05	880.23	1.4377e-06	1.519e-06	1062	299.34	1.4756e-06	1.5274e-06	398.51	186.26	133.35	62.94	1.4064e-06	98.294	327.011	127.812	110.694	101.350	202.656	212.201	100.555	107.514	209.780	296.728	105.069	109.637	111.684	115.957	239.958	112.762	-8191	255	
8628.868	1	1	0	0	0.25028	0.035159	0.037727	0.20149	0.10631	0.078408	0.25485	0.25767	0.030895	0.084691	0.1948	0.16049	0.14459	0.048931	0.090347	0.2032	-3.0125	-3.3208	-2.8688	-3.5646	-3.1813	-3.1458	-3.5812	-3.0438	-3.1813	-3.5146	-3.1333	-3.5458	-3.2917	-3.2167	-3.5521	-3.2104	255.712	400.152	123.633	198.340	350.200	287.693	395.467	105.621	441.007	111.350	399.468	390.667	121.420	327.425	247.659	384.009	0.0024357	0.0002744	9.8718e-05	975.51	6.7911e-06	3.9143e-06	1191.5	339.66	8.7913e-06	3.523e-06	461.46	219.74	153.9	71.774	3.584e-06	115.01	0.00016205	0.0001409	3.6249e-05	881.5	1.5695e-06	1.4986e-06	1064.6	300.21	1.5467e-06	1.452e-06	401.53	188.33	134.17	62.829	1.3568e-06	98.709	325.104	199.728	137.854	101.160	255.691	221.243	100.406	107.432	210.656	224.418	105.519	109.643	111.697	115.733	202.079	112.826	-8191	255	
8628.963	1	1	0	0	0.21056	0.050774	0.1547	0.16111	0.077777	0.031127	0.20259	0.07272	0.084173	0.25614	0.15988	0.24457	0.15972	0.099129	0.2457	0.21868	-2.8229	-3.4667	-2.7896	-3.7208	-3.1875	-2.8187	-3.4458	-2.9167	-3.4292	-3.5021	-2.9479	-3.5375	-3.4188	-3.0563	-3.4979	-3.1521	113.473	400.522	193.379	401.476	120.917	263.917	386.805	293.524	307.968	420.225	423.820	388.581	379.050	368.301	180.204	375.833	0.0023402	0.00033415	0.00023554	974.25	6.4808e-06	3.2687e-06	1192.5	339.01	2.791e-06	4.8271e-06	458.09	217.15	152.47	71.965	1.9792e-06	115.14	0.00016714	0.00013242	3.534e-05	880.83	1.5895e-06	1.4017e-06	1060.6	299.68	1.5378e-06	1.363e-06	397.16	186.74	133.47	62.946	1.2671e-06	98.552	326.945	369.416	174.091	101.355	235.320	246.482	100.557	107.530	213.354	230.976	105.265	109.568	111.604	115.740	192.994	112.740	-8191	255	
8629.059	1	1	0	0	0.13117	0.11349	0.11767	0.14547	0.15037	0.2819	0.33202	0.18901	0.18345	0.16682	0.23446	0.2244	0.1875	0.28345	0.15438	0.011652	-2.5812	-3.4667	-2.675	-3.5292	-3.2792	-3.0146	-3.5938	-3.1542	-3.0438	-3.6167	-2.8979	-3.5979	-3.3271	-2.8979	-3.4271	-3.1312	440.816	385.276	339.898	367.098	447.641	120.708	421.679	399.068	250.005	262.960	285.666	151.449	407.484	420.513	192.421	339.199	0.0022025	0.00026613	0.00024318	969.6	4.3445e-06	5.4915e-06	1184.5	337.75	8.8075e-06	2.0518e-06	456.4	216.23	152.74	72.517	7.5796e-06	115.7	0.00015875	0.00012176	3.2874e-05	879	1.4938e-06	1.366e-06	1055.9	298.95	1.509e-06	1.3433e-06	395.94	186.8	133.12	63.279	1.3221e-06	99.087	333.328	183.874	114.064	101.471	199.216	249.832	100.519	107.580	227.092	199.513	105.193	109.548	111.563	115.801	186.626	112.681	-8191	255	
8629.155	1	1	0	0	0.13059	0.10558	0.16754	0.053266	0.28937	0.11874	0.22568	0.085342	0.27438	0.11951	0.36184	0.065823	0.21394	0.11264	0.22351	0.2096	-2.5083	-3.6229	-2.7188	-3.3083	-3.2896	-2.675	-3.5271	-3.3104	-2.8521	-3.6063	-3.0458	-3.2708	-3.5771	-2.9188	-3.5083	-3.4646	104.730	100.272	100.938	422.040	244.563	309.928	394.575	334.059	425.133	428.514	402.715	210.160	434.062	410.566	413.750	421.732	0.0024518	0.00038766	0.00021146	971.87	6.2819e-06	5.7346e-06	1184.2	336.49	5.9513e-06	2.3878e-07	456.24	217.09	153.19	72.465	5.7745e-06	116	0.00015858	0.0001246	3.5702e-05	881.24	1.529e-06	1.4468e-06	1058	299.73	1.6257e-06	1.4668e-06	398.44	188.3	133.82	63.532	1.5995e-06	99.819	328.358	193.006	153.612	100.957	204.836	215.287	100.576	107.450	206.957	220.022	105.300	109.636	111.549	115.715	195.219	112.694	-8191	255	
8629.251	1	1	0	0	0.13468	0.32975	0.10421	0.25028	0.21936	0.21044	0.11472	0.068906	0.12069	0.31425	0.075222	0.18617	0.25346	0.091019	0.40943	0.19893	-2.3438	-3.5812	-3.1375	-3.3146	-3.5083	-2.7854	-3.6604	-3.5396	-2.8292	-3.6	-3.0479	-3.1917	-3.7438	-2.9292	-3.3375	-3.475	368.801	358.730	242.865	373.731	198.080	327.293	159.777	116.497	98.969	153.796	321.331	442.805	426.112	388.403	244.160	408.135	0.0023854	0.00054137	8.5014e-05	974.92	7.2651e-06	5.2778e-06	1185.1	336.09	8.0343e-06	8.1369e-06	458.24	217.44	152.44	72.04	5.5499e-06	115.31	0.00016774	0.00013424	4.1426e-05	886.21	1.5197e-06	1.4609e-06	1061.6	299.15	1.5149e-06	1.3814e-06	400.1	188.47	132.89	62.944	1.5654e-06	99	331.523	157.516	167.919	101.021	206.820	305.733	100.363	107.147	186.641	246.204	105.380	109.833	111.743	115.537	219.879	112.405	-8191	255	
8629.347	1	1	0	0	0.2333	0.12315	0.038387	0.16516	0.065962	0.056107	0.2943	0.12148	0.1884	0.18802	0.17551	0.17855	0.12867	0.16403	0.031047	0.18582	-2.5312	-3.7229	-3.0917	-3.0979	-3.6042	-2.8896	-3.5125	-3.4104	-2.9896	-3.6479	-3.2042	-3.225	-3.6125	-3.1917	-3.2583	-3.6854	246.154	103.043	248.589	419.675	127.032	324.410	372.738	384.698	236.546	432.795	405.764	372.676	412.886	116.637	279.060	382.669	0.0025757	0.00025338	0.00016575	971.36	3.1885e-06	4.5772e-06	1184.7	337.06	2.5627e-06	6.9844e-06	456.59	216.51	152.48	72.15	1.6337e-06	115.05	0.00014661	0.00012128	3.8777e-05	878.88	1.2894e-06	1.2972e-06	1058.2	297.99	1.318e-06	1.2993e-06	397.36	186.68	132.54	62.935	1.5142e-06	98.419	331.670	169.489	148.092	101.059	148.738	185.398	100.390	107.375	223.942	227.097	105.349	109.756	111.895	115.918	195.678	112.551	-8191	255	
8629.468	1	1	0	0	0.17859	0.2629	0.18268	0.2863	0.13534	0.13908	0.18951	0.12139	0.016816	0.052606	0.072156	0.025307	0.12587	0.28271	0.1907	0.22499	-2.4146	-3.4979	-3.1	-2.9208	-3.5792	-3.0083	-3.4792	-3.5563	-2.8708	-3.5396	-3.3354	-3.0833	-3.5521	-3.2083	-3.2792	-3.7042	270.359	232.525	376.517	395.606	184.521	256.213	440.155	230.867	202.480	128.112	140.499	380.187	364.953	423.023	315.221	374.866	0.0023002	0.00068342	0.00027832	967.86	4.9552e-06	4.6978e-06	1186.2	335.38	7.2265e-06	3.3827e-06	454.51	216.19	152.7	71.902	7.3951e-06	115.37	0.00013989	0.00012247	3.8579e-05	874.68	1.3008e-06	1.3974e-06	1058.5	296.62	1.3579e-06	1.4678e-06	397.17	186.99	132.89	63.061	1.6407e-06	98.73	328.188	147.176	199.969	101.131	251.562	224.836	100.653	107.299	157.632	209.716	105.270	109.667	111.516	115.782	215.544	112.783	-8191	255	
8629.564	1	1	0	0	0.21274	0.1775	0.21823	0.3242	0.1042	0.15181	0.1721	0.25329	0.15356	0.04425	0.24466	0.22844	0.24313	0.19346	0.26543	0.19427	-2.4771	-3.2396	-3.0792	-2.95	-3.4917	-3.1	-3.1354	-3.4562	-2.9167	-3.4813	-3.4708	-2.975	-3.6292	-3.1813	-3.0792	-3.6604	217.920	345.866	248.265	378.069	298.509	293.226	376.632	334.798	284.930	436.565	102.643	397.405	408.437	364.079	230.291	396.130	0.0025528	0.00046166	8.9351e-05	974.81	6.6479e-06	8.5638e-06	1182.9	333.49	5.6e-06	2.5514e-06	456.26	218.57	152.42	71.821	4.4809e-06	114.62	0.0001505	0.00014417	4.1285e-05	880.14	1.3608e-06	1.5986e-06	1057.6	297.25	1.4349e-06	1.6506e-06	398.67	187.67	132.96	63.072	1.5556e-06	98.664	328.729	138.896	137.449	101.304	215.428	226.782	100.466	107.375	218.417	209.302	105.303	109.740	111.642	115.670	180.394	112.754	-8191	255	
8629.660	1	1	0	0	0.10336	0.052465	0.19039	0.10775	0.25758	0.18898	0.11125	0.19213	0.12983	0.11676	0.35389	0.039852	0.053609	0.46491	0.1008	0.050865	-2.6229	-3.3833	-3.2875	-3.1312	-3.4667	-3.2812	-3.0104	-3.5979	-3.0125	-3.0125	-3.8021	-2.9562	-3.5521	-3.2958	-3.0563	-3.7875	361.025	282.469	290.397	416.931	439.587	159.243	101.001	97.489	180.155	327.692	424.507	426.609	93.846	401.231	293.910	321.751	0.0023145	0.00064195	0.00014878	975.72	6.474e-06	6.8298e-06	1185.2	337.77	1.0039e-05	2.9779e-06	458.37	217.28	153.2	71.994	5.2663e-06	116.63	0.00014953	0.00014711	3.7757e-05	878.17	1.3651e-06	1.6077e-06	1057.8	297.38	1.4606e-06	1.6055e-06	398.35	187.56	133.31	63.245	1.4651e-06	99.512	326.738	189.877	130.496	101.400	222.755	243.939	100.613	107.508	238.998	257.750	105.199	109.722	111.591	115.662	212.718	112.574	-8191	255	
8629.756	1	1	0	0	0.037878	0.19681	0.2249	0.20136	0.17502	0.081973	0.11128	0.23325	0.047898	0.22448	0.1591	0.35698	0.26629	0.26646	0.12284	0.093273	-2.5563	-3.0958	-3.4375	-3.0542	-3.5708	-3.3521	-3.0125	-3.7438	-2.8854	-2.9875	-3.5771	-2.9833	-3.4292	-3.5229	-2.8292	-3.9021	177.497	224.248	420.720	414.584	120.380	359.510	380.709	348.840	326.858	174.574	267.113	400.531	109.161	93.899	343.809	432.965	0.0026299	0.00019168	9.4113e-05	973.1	6.5018e-06	3.2051e-06	1182.8	335.33	6.3081e-06	6.7223e-06	457.67	217.37	153.68	72.415	4.7347e-06	116.17	0.00015938	0.00014734	3.6149e-05	879.44	1.5115e-06	1.5782e-06	1058.4	296.59	1.5671e-06	1.6051e-06	398.06	187.56	133.81	63.508	1.4765e-06	99.474	328.027	180.560	368.448	101.155	226.158	364.584	100.620	107.682	217.055	209.809	105.329	109.912	111.897	115.650	180.814	112.535	-8191	255	
8629.875	1	1	0	0	0.21571	0.19354	0.014569	0.10742	0.1878	0.13486	0.31191	0.082462	0.078971	0.13158	0.11677	0.31121	0.30459	0.22737	0.21342	0.22115	-2.7958	-3.0167	-3.5667	-2.9417	-3.3396	-3.3917	-3.0875	-3.5667	-3.1854	-2.9542	-3.5938	-2.9375	-3.2062	-3.7146	-2.6625	-3.6667	137.106	412.661	414.578	101.642	96.510	128.777	381.470	108.631	347.029	262.372	380.199	412.369	414.411	158.751	249.525	381.917	0.0023636	0.00011568	0.00010354	972.45	2.8961e-06	5.769e-06	1186.3	335.59	5.3582e-06	4.5311e-06	455.4	218.5	153.32	72.642	4.0859e-06	116.24	0.0001718	0.00014808	3.6799e-05	880.64	1.6432e-06	1.5572e-06	1058	297.35	1.6321e-06	1.5272e-06	397.21	188.62	134.55	63.616	1.4067e-06	99.644	328.121	389.511	184.469	101.445	209.664	242.131	100.342	107.095	235.520	204.244	105.285	109.903	111.676	115.613	204.620	112.643	-8191	255	
8629.947	1	1	0	0	0.42598	0.18327	0.051865	0.19489	0.19769	0.046579	0.2488	0.13925	0.16988	0.076812	0.19194	0.23663	0.10193	0.31893	0.11718	0.13831	-2.9083	-2.9062	-3.4833	-3.0104	-3.3521	-3.5646	-2.9667	-3.5521	-3.3854	-3.0292	-3.6771	-3.2542	-3.2917	-3.6729	-2.8229	-3.5021	180.148	283.513	366.785	133.328	343.386	387.820	399.336	136.951	330.021	162.479	137.528	389.573	362.823	95.490	124.763	106.405	0.0022639	0.00027859	0.00015653	972.18	4.7379e-06	3.1891e-06	1191.4	337.52	1.6587e-06	6.391e-06	458.29	219.22	154.5	72.999	2.3534e-06	117.44	0.0001697	0.00013481	3.4493e-05	883.27	1.6405e-06	1.4491e-06	1059.2	298.68	1.6294e-06	1.4934e-06	399.07	189.91	135.07	63.867	1.4525e-06	100.78	329.438	122.192	127.204	101.381	259.786	214.423	100.475	107.325	262.809	228.814	105.100	109.705	111.488	115.580	192.668	112.795	-8191	255	
8630.043	1	1	0	0	0.22143	0.16516	0.12126	0.054101	0.22	0.027381	0.20733	0.35813	0.105	0.19418	0.12167	0.36701	0.46251	0.19083	0.14714	0.13815	-2.8812	-2.6458	-3.5958	-3.2292	-2.9917	-3.4813	-2.9208	-3.4437	-3.5375	-2.8937	-3.6604	-3.3	-3.1979	-3.675	-2.9833	-3.4708	281.717	254.912	243.315	340.280	416.942	130.738	438.624	339.704	186.282	321.609	121.077	427.454	420.956	410.221	296.102	380.709	0.0023371	9.2894e-05	0.00015931	976.54	2.7844e-06	3.3024e-06	1196.1	338.14	2.9185e-06	4.5231e-06	462.54	221.42	154.2	73.281	9.8068e-06	117.51	0.00017419	0.00013668	3.582e-05	886.03	1.6377e-06	1.4319e-06	1064.5	300.4	1.5729e-06	1.4405e-06	401.89	190.97	134.83	64.03	1.3642e-06	100.89	331.011	220.615	156.665	101.323	266.069	172.899	100.445	107.189	193.184	194.203	105.330	109.587	111.650	115.484	211.108	112.786	-8191	255	
8630.139	1	1	0	0	0.15336	0.23044	0.14338	0.071704	0.3494	0.074071	0.28794	0.25743	0.23715	0.21225	0.23818	0.15116	0.23959	0.39491	0.068962	0.082244	-2.9625	-2.7687	-3.3146	-3.3187	-2.9583	-3.7146	-3.1333	-3.2604	-3.3979	-2.6271	-3.6562	-3.3833	-2.9458	-3.6292	-3.0021	-3.2354	248.693	265.760	237.819	163.226	395.856	405.902	419.096	361.869	425.803	150.745	410.679	148.988	360.201	434.935	129.359	315.220	0.0022736	0.00066667	0.00026571	975.41	6.4004e-06	4.4922e-06	1193.9	340.06	4.8383e-06	1.3925e-06	460.06	219.54	154.03	73.162	5.1129e-06	117.34	0.00015328	0.00012084	3.4107e-05	886.14	1.4571e-06	1.3153e-06	1062.7	300.57	1.4143e-06	1.3412e-06	400.76	190.01	134.25	63.903	1.4628e-06	100.65	327.365	175.652	127.554	101.287	300.466	258.105	100.293	107.332	193.163	188.513	105.348	109.648	111.796	115.438	225.894	112.525	-8191	255	
8630.260	1	1	0	0	0.026205	0.16604	0.24803	0.42738	0.23953	0.2591	0.055955	0.23699	0.21589	0.024192	0.28457	0.30473	0.11649	0.25013	0.098947	0.23005	-2.9167	-2.6937	-3.4667	-3.3333	-2.7229	-3.5021	-3.1042	-3.2854	-3.3708	-3.0104	-3.3292	-3.5875	-3.0854	-3.8271	-3.0854	-3.3146	348.472	194.396	280.515	423.607	116.836	128.596	441.795	415.576	345.674	230.009	93.670	396.530	381.618	97.322	107.698	338.359	0.0024925	0.00054442	0.00021227	978.37	8.1445e-06	3.4965e-06	1196.9	339.57	6.0898e-06	2.1191e-06	459.34	221.13	154.76	73.395	5.246e-06	116.92	0.00015231	0.00012358	3.7998e-05	889.01	1.4878e-06	1.3657e-06	1067.2	301.03	1.5103e-06	1.473e-06	402.26	191.25	135.06	64.207	1.7681e-06	100.88	329.446	189.675	129.148	101.317	231.747	233.736	100.347	107.358	209.294	285.607	105.062	109.340	111.626	115.685	227.257	112.423	-8191	255	
8630.356	1	1	0	0	0.21953	0.11426	0.16	0.17813	0.1084	0.15234	0.21733	0.10789	0.079721	0.25619	0.16618	0.11124	0.24993	0.12167	0.13748	0.24248	-3.1729	-2.9792	-3.2417	-3.4125	-2.8646	-3.4562	-3.4021	-3.0854	-3.5792	-2.8125	-3.4167	-3.4375	-3.0375	-3.525	-3.2062	-3.1542	128.837	111.297	103.141	447.140	168.370	121.189	374.258	349.156	118.409	413.357	384.749	239.794	355.989	117.329	385.602	367.147	0.0022699	0.00052438	0.00027909	987.37	8.9878e-06	5.984e-06	1197.9	340.18	5.6389e-06	6.4438e-06	463.41	222.96	155.07	73.602	1.3953e-06	118.12	0.00016686	0.00014472	4.6616e-05	897.36	1.6585e-06	1.6145e-06	1078.3	303.58	1.6799e-06	1.6982e-06	407.65	192.65	135.95	64.691	2.0447e-06	101.48	326.474	193.660	178.922	101.423	219.473	175.664	100.601	107.409	200.679	221.893	105.241	109.643	111.787	115.487	352.842	112.598	-8191	255	
8630.452	1	1	0	0	0.39445	0.13981	0.15525	0.067889	0.1852	0.040095	0.19356	0.39347	0.15863	0.078357	0.17889	0.19251	0.019563	0.25512	0.093136	0.1379	-3.1583	-3.0208	-3.1396	-3.5312	-2.8917	-3.5146	-3.3896	-2.9479	-3.5854	-3.0208	-3.4917	-3.4646	-2.9437	-3.6188	-3.2854	-3.075	247.160	147.692	243.406	176.981	197.987	193.174	401.697	419.470	165.378	311.224	398.977	393.467	357.554	432.684	389.268	101.288	0.0022832	0.00054574	0.0001028	990.83	7.364e-06	4.9421e-06	1199.1	340.32	5.2581e-06	1.6468e-06	462.72	222.93	154.39	73.667	5.1528e-06	117.97	0.00017559	0.00016373	5.1249e-05	900.07	1.689e-06	1.7711e-06	1080.9	302.92	1.6381e-06	1.8224e-06	408.02	192.85	135.69	64.605	1.9067e-06	101.48	330.571	122.258	177.366	101.075	218.402	206.932	100.500	107.399	205.394	170.985	105.331	109.886	111.642	115.488	255.381	112.408	-8191	255	
8630.548	1	1	0	0	0.10628	0.11137	0.31199	0.22386	0.15341	0.10321	0.38545	0.15828	0.18021	0.15671	0.24297	0.17527	0.35201	0.10424	0.26077	0.14467	-3.2271	-3.05	-2.9813	-3.6667	-2.9833	-3.2271	-3.4896	-2.8458	-3.4813	-3.1208	-3.2333	-3.7542	-3.0333	-3.55	-3.425	-2.9437	338.983	385.082	188.505	445.949	105.784	245.136	349.600	425.196	387.504	315.908	426.885	116.107	96.520	96.033	406.236	424.562	0.0022811	0.00073996	0.00015009	995.57	3.197e-06	4.1142e-06	1200.8	341.05	6.2594e-06	3.9513e-06	461.37	223.28	155.7	73.678	4.9875e-06	117.38	0.00016717	0.00016841	4.7577e-05	900.5	1.6449e-06	1.8494e-06	1077.9	302.43	1.6004e-06	1.8617e-06	405.55	192.47	135.86	64.707	1.8061e-06	101.02	329.293	197.921	125.414	101.077	216.957	231.747	100.344	107.260	224.754	114.687	105.488	109.591	111.659	115.645	214.862	112.445	-8191	255	
8630.644	1	1	0	0	0.083358	0.02963	0.24265	0.13603	0.28371	0.19677	0.099622	0.12786	0.018193	0.11073	0.0054144	0.11213	0.39129	0.09424	0.11696	0.33089	-2.9292	-3.0917	-3.0208	-3.6437	-2.8563	-3.2083	-3.5146	-2.9	-3.5104	-3.3479	-3.0667	-3.725	-3.0271	-3.2042	-3.3229	-3.0917	186.905	422.317	314.671	432.270	142.753	263.353	444.849	418.689	297.852	172.698	211.592	335.202	98.096	105.641	308.823	424.834	0.0023463	0.00038459	0.00015314	989.23	8.744e-06	4.583e-06	1205.1	338.52	6.996e-06	4.9221e-06	463.02	222.2	156.18	73.515	3.7834e-06	117.54	0.00017028	0.00017393	4.4749e-05	896.84	1.7045e-06	1.8745e-06	1075.6	301.37	1.6711e-06	1.8938e-06	404.24	191.77	136.17	64.542	1.6795e-06	100.59	327.977	189.560	182.461	101.057	246.834	239.589	100.450	107.421	179.438	188.395	105.320	109.666	111.492	115.457	107.599	112.584	-8191	255	
8630.741	1	1	0	0	0.18683	0.023867	0.22611	0.20204	0.093459	0.079066	0.16865	0.31973	0.16548	0.072409	0.16495	0.031175	0.11953	0.18226	0.11315	0.22098	-2.9167	-3.2458	-2.75	-3.6229	-2.975	-3.1833	-3.6083	-2.9771	-3.3125	-3.2583	-3.0833	-3.6542	-3.2083	-3.1625	-3.5042	-3.0604	302.212	227.415	101.658	429.269	165.366	398.495	303.501	417.667	138.010	347.203	329.856	378.156	359.846	128.684	372.338	366.427	0.002606	0.0002418	5.0454e-05	991.79	4.9324e-06	2.3039e-06	1200.7	341.85	6.1352e-06	4.2251e-06	462.45	223.43	154.45	73.522	3.7506e-06	117.84	0.0001781	0.00016614	4.2143e-05	899.52	1.7587e-06	1.8383e-06	1074.3	302.5	1.8427e-06	1.8816e-06	405.49	192.67	136.35	64.737	1.7122e-06	101.23	330.700	266.938	122.593	101.218	151.413	251.090	100.586	107.205	221.789	243.920	105.277	109.698	111.579	115.685	215.923	112.484	-8191	255	
8630.837	1	1	0	0	0.078225	0.12783	0.21876	0.37853	0.16315	0.078952	0.093813	0.41332	0.10722	0.19479	0.17166	0.10295	0.1926	0.29132	0.1002	0.23492	-3.025	-3.3375	-2.6875	-3.5479	-3.1625	-3.0271	-3.5396	-2.8375	-3.1854	-3.4667	-2.9229	-3.6604	-3.3937	-3.0708	-3.7083	-3.2479	434.049	414.645	92.089	385.476	433.355	140.790	409.996	427.046	399.547	378.006	321.947	327.110	402.377	426.930	184.492	100.124	0.0023895	0.00034732	0.00024596	989.51	5.695e-06	3.279e-06	1202.1	339.34	7.1242e-06	4.6535e-06	462.32	222.35	155.63	73.622	3.9263e-06	118.06	0.0001987	0.00016844	4.4477e-05	898.59	1.9572e-06	1.8527e-06	1076.6	301.66	1.9754e-06	1.8291e-06	404.75	191.94	136.19	64.593	1.661e-06	101.43	328.893	139.685	160.385	101.134	221.890	229.289	100.653	107.268	194.000	222.643	105.271	109.628	111.831	115.586	181.543	112.596	-8191	255	
8630.957	1	1	0	0	0.19891	0.07976	0.09759	0.10549	0.15734	0.13771	0.059202	0.061254	0.13359	0.15741	0.23243	0.28415	0.22163	0.17194	0.16177	0.28039	-2.7771	-3.3854	-2.8229	-3.5125	-3.15	-3.0354	-3.6646	-3.0062	-3.1375	-3.4896	-2.8667	-3.4375	-3.3917	-3.0062	-3.6375	-3.3292	344.972	205.679	246.281	381.899	172.244	326.077	347.823	327.536	161.167	313.198	445.286	420.990	379.771	324.923	112.858	349.045	0.0024437	0.00041509	0.00023584	992.76	3.5471e-06	2.1552e-06	1199.9	337.47	3.5143e-06	2.6854e-06	459.71	220.09	154.35	72.833	6.9759e-06	117.06	0.00020221	0.00016087	4.3051e-05	900.8	1.9475e-06	1.776e-06	1073.2	301.51	2.0147e-06	1.7616e-06	402.63	190.81	135.39	64.104	1.6521e-06	100.65	331.718	107.676	163.090	101.341	257.345	311.528	100.316	107.374	180.197	242.832	105.387	109.589	111.471	115.730	243.930	112.632	-8191	255	
8631.052	1	1	0	0	0.224	0.16696	0.11936	0.14536	0.10336	0.20221	0.026519	0.20823	0.16253	0.056149	0.076645	0.29183	0.10801	0.22813	0.013156	0.48909	-2.7417	-3.5687	-2.9313	-3.3021	-3.4667	-2.9313	-3.6625	-3.1021	-3.0792	-3.5104	-2.8917	-3.2375	-3.4875	-3.1333	-3.65	-3.1229	93.432	274.399	118.222	376.504	315.607	380.409	341.530	417.827	231.549	390.861	396.030	411.828	438.720	151.993	166.099	397.952	0.0022708	0.00041852	0.00013859	987.8	5.53e-06	5.6699e-06	1201.1	340.56	9.7844e-06	4.8504e-06	459.78	220.07	153.68	72.748	5.018e-06	116.01	0.00019406	0.00015378	4.1373e-05	900.75	1.8706e-06	1.6857e-06	1071.4	302.59	1.8446e-06	1.6635e-06	401	190.71	134.72	63.884	1.6227e-06	100.05	331.954	279.685	95.543	100.905	223.206	251.814	100.170	107.415	208.898	284.740	105.170	109.645	111.535	115.476	226.872	112.461	-8191	255	
8631.148	1	1	0	0	0.15931	0.26013	0.071214	0.36722	0.043024	0.16068	0.018905	0.16332	0.15592	0.18961	0.2027	0.33499	0.087566	0.12399	0.17824	0.086319	-2.4625	-3.4188	-2.7042	-3.3979	-3.4521	-2.725	-3.525	-3.3604	-2.9521	-3.4896	-3.0958	-3.3167	-3.4479	-3.0083	-3.4625	-3.5062	322.784	243.062	324.720	414.900	361.843	420.875	241.293	394.018	147.860	257.450	336.431	109.836	123.277	97.729	257.585	316.444	0.0022485	0.00039934	0.00018144	986.05	9.2185e-06	5.0112e-06	1197.5	338.03	4.0014e-06	2.1451e-06	460.2	220.1	153.18	72.899	7.838e-06	116.73	0.00018016	0.00014496	4.1787e-05	898.94	1.7038e-06	1.5889e-06	1071.3	301.32	1.7294e-06	1.589e-06	402.51	190.77	134.31	63.684	1.7125e-06	100.31	329.323	198.761	127.465	101.167	169.244	224.645	100.364	107.151	242.398	267.975	105.042	109.599	111.397	115.358	215.937	112.650	-8191	255	
8631.244	1	1	0	0	0.070829	0.36656	0.13302	0.27665	0.14574	0.17022	0.14042	0.36289	0.17826	0.2369	0.19786	0.30775	0.13935	0.18275	0.17893	0.16632	-2.3812	-3.3187	-2.7313	-3.2646	-3.4688	-2.6375	-3.3312	-3.2729	-2.8458	-3.5833	-3.1396	-3.3125	-3.7333	-3.0396	-3.3146	-3.5229	376.550	202.486	428.898	391.561	167.349	345.348	346.536	413.783	167.411	433.267	278.879	405.276	430.048	103.363	178.278	362.954	0.002326	0.00059731	0.00017466	988.46	5.6225e-06	8.8024e-06	1198.6	339.99	4.9855e-06	5.6714e-06	457.15	221.35	153.58	73.225	8.5292e-06	116.76	0.00017107	0.00013826	4.4061e-05	900.75	1.6281e-06	1.5475e-06	1074.7	301.97	1.6194e-06	1.5267e-06	402.65	191.36	134.14	63.848	1.7989e-06	100.36	328.579	197.326	167.383	100.965	184.595	233.715	100.537	107.376	223.375	211.350	105.244	109.846	111.412	115.549	211.963	112.636	-8191	255	
8631.340	1	1	0	0	0.23554	0.20065	0.14463	0.15933	0.21275	0.051356	0.18286	0.21288	0.16172	0.10771	0.29081	0.18175	0.26843	0.12471	0.076948	0.27358	-2.5312	-3.4437	-3.0875	-3.1729	-3.6208	-2.7938	-3.4021	-3.4792	-2.7938	-3.3167	-3.2208	-3.2333	-3.7396	-2.9042	-3.0521	-3.6417	365.300	128.475	160.499	350.861	191.053	316.705	397.468	115.014	203.871	308.511	446.512	408.900	417.412	448.620	147.022	389.061	0.0024367	0.00051712	0.00020713	992.35	7.6332e-06	4.398e-06	1196.2	337.44	5.6155e-06	3.6878e-06	459.89	220.15	153.1	72.465	3.6352e-06	115.9	0.00016833	0.00014161	4.651e-05	898.66	1.5911e-06	1.6254e-06	1073.5	300.77	1.64e-06	1.6606e-06	404.37	190.28	134.12	63.492	1.9108e-06	99.417	329.242	160.819	177.175	101.025	171.314	201.695	100.585	107.279	182.690	227.391	105.158	109.450	111.650	115.470	176.892	112.644	-8191	255	
8631.436	1	1	0	0	0.30245	0.11939	0.38391	0.2664	0.14586	0.089715	0.14712	0.041064	0.35171	0.049206	0.16276	0.15868	0.10441	0.18274	0.23849	0.29316	-2.475	-3.3979	-3.2	-3.0375	-3.5208	-3.0083	-3.3583	-3.5604	-2.725	-3.3125	-3.4437	-3.0979	-3.7729	-3.2833	-3.1125	-3.6854	446.084	126.516	354.713	405.734	304.432	401.744	339.878	290.976	228.760	372.019	422.526	429.634	211.644	437.841	277.038	385.488	0.0024459	0.00043291	6.6698e-05	988.9	3.0965e-06	4.6909e-06	1195.8	337.89	2.9205e-06	7.2694e-06	458.16	217.95	153.22	72.335	5.2293e-06	115.48	0.00016855	0.00015732	4.9254e-05	898.96	1.6529e-06	1.8558e-06	1074.7	301.53	1.7067e-06	1.8699e-06	402.71	189.32	133.9	63.558	1.9266e-06	99.428	327.999	150.544	92.421	101.294	279.844	220.283	100.524	107.134	164.052	191.209	105.257	109.738	111.482	115.665	219.734	112.436	-8191	255	
8631.557	1	1	0	0	0.068548	0.16178	0.049642	0.1529	0.12463	0.10566	0.13818	0.33618	0.10334	0.15536	0.10213	0.14462	0.12396	0.033043	0.20647	0.50076	-2.4208	-3.4792	-3.3667	-3.1104	-3.5875	-3.0563	-3.2062	-3.6333	-3.0333	-3.3937	-3.525	-3.0667	-3.6271	-3.3979	-2.9729	-3.7812	424.628	429.969	330.351	290.622	382.140	244.263	335.883	439.407	431.150	231.426	391.073	385.084	110.726	364.792	121.943	369.870	0.0022357	0.00058246	4.5168e-05	990.25	4.925e-06	4.7422e-06	1197.1	339.51	8.3744e-06	3.0587e-06	457.74	219.29	153.11	72.744	4.6332e-06	116.36	0.00017188	0.00017303	4.7688e-05	898.17	1.6307e-06	1.9152e-06	1074.3	300.67	1.6969e-06	1.9457e-06	402.62	190.07	134.27	63.9	1.8507e-06	99.934	325.302	166.013	164.425	101.253	220.632	182.853	100.284	107.267	205.880	173.446	104.878	109.795	111.344	115.350	231.220	112.697	-8191	255	
8631.653	1	1	0	0	0.37232	0.038806	0.070492	0.14268	0.12985	0.19816	0.08064	0.19202	0.11987	0.31352	0.18784	0.29772	0.13948	0.12386	0.10834	0.35701	-2.4146	-3.3021	-3.4917	-3	-3.4375	-3.3	-2.9896	-3.7083	-2.9458	-3.3521	-3.6958	-2.8563	-3.7021	-3.2938	-2.9188	-3.9375	445.108	325.187	315.486	145.607	351.883	310.661	94.967	446.812	369.720	255.874	390.234	419.266	443.611	422.879	125.649	310.334	0.0024037	0.00037997	0.00015982	988.09	7.7245e-06	6.352e-06	1195.5	339.32	4.5948e-06	3.5023e-06	459.87	221.29	153.89	72.399	2.7446e-06	116.77	0.00017545	0.00017526	4.425e-05	896.87	1.6376e-06	1.8722e-06	1070.1	300.36	1.6586e-06	1.7993e-06	402.43	190.4	134.46	63.576	1.5633e-06	99.794	323.140	189.774	169.330	101.215	193.784	268.237	100.463	107.135	158.020	195.348	105.092	109.623	111.702	115.610	284.618	112.493	-8191	255	
8631.749	1	1	0	0	0.1575	0.18631	0.13704	0.3113	0.24499	0.044927	0.13878	0.21174	0.27995	0.080231	0.28094	0.17125	0.40514	0.28029	0.085719	0.13645	-2.525	-3.1562	-3.4458	-3.0542	-3.4333	-3.5625	-2.9854	-3.7938	-3.0417	-3.125	-3.6542	-3.0312	-3.425	-3.5479	-3.0167	-3.7188	297.284	308.750	218.107	437.276	316.180	238.041	279.417	420.100	161.925	338.653	416.855	420.106	440.068	102.077	383.378	290.804	0.0025189	0.00045082	0.00033794	988.39	6.0461e-06	2.6733e-06	1187	338.68	8.932e-06	3.2186e-06	458.14	220.3	152.85	72.173	7.3943e-06	116.01	0.00016618	0.00014921	3.7182e-05	893.31	1.5401e-06	1.5782e-06	1062.9	299.51	1.5706e-06	1.5471e-06	398.59	189.1	133.92	63.362	1.4507e-06	99.232	329.640	214.638	124.959	101.108	192.963	222.419	100.633	107.474	196.913	199.108	105.427	109.783	111.256	115.594	189.050	112.477	-8191	255	
8631.821	1	1	0	0	0.13254	0.22632	0.19959	0.28104	0.14775	0.34501	0.16742	0.2457	0.1197	0.050221	0.18603	0.21558	0.089313	0.33059	0.028534	0.29413	-2.8521	-3.0167	-3.5583	-3.1188	-3.3167	-3.4396	-3.0292	-3.6437	-3.1813	-3.2542	-3.7917	-3.2812	-3.3021	-3.8146	-2.8708	-3.7687	176.043	421.253	103.542	433.951	343.165	365.406	370.932	428.251	214.749	314.422	416.774	405.407	106.375	89.909	206.835	399.675	0.0024799	0.0005086	0.00016683	992.56	5.8727e-06	4.066e-06	1199.6	338.98	8.1553e-06	2.6297e-06	458.8	219.83	153.95	72.483	5.6729e-06	115.33	0.00017676	0.00014565	3.7392e-05	896.28	1.7332e-06	1.5761e-06	1069.2	299.92	1.7241e-06	1.5535e-06	399.75	189.45	134.42	63.298	1.4485e-06	99.001	327.673	177.594	139.453	101.052	185.081	265.663	100.358	107.242	186.809	229.430	105.127	109.568	111.249	115.453	246.595	112.378	-8191	255	
8631.940	1	1	0	0	0.16861	0.1388	0.072646	0.3714	0.32583	0.056638	0.11917	0.039957	0.043128	0.12238	0.12253	0.29302	0.040278	0.33313	0.11821	0.26924	-2.9521	-2.8896	-3.6083	-3.0438	-3.2438	-3.5771	-3.0438	-3.6104	-3.3604	-2.7771	-3.5062	-3.1667	-3.3083	-3.6667	-2.8417	-3.6479	252.932	416.699	189.201	405.513	177.223	115.233	116.787	343.829	190.996	279.950	409.063	448.933	135.420	415.116	373.103	432.518	0.0021262	0.00034066	0.00018805	985.51	6.6692e-06	3.9467e-06	1196	338.81	3.538e-06	2.2766e-06	462.25	221.34	153.46	72.459	4.3072e-06	116.28	0.00017511	0.00014046	3.5949e-05	896.23	1.6965e-06	1.5332e-06	1068.6	301.44	1.7354e-06	1.5856e-06	401.71	190.6	134.61	63.538	1.5033e-06	99.999	330.248	152.784	165.916	101.164	193.988	234.973	100.500	107.232	183.270	205.534	105.225	109.729	111.666	115.478	203.804	112.582	-8191	255	
8632.036	1	1	0	0	0.14529	0.12929	0.20682	0.053722	0.23827	0.091297	0.21341	0.12943	0.17514	0.14652	0.26559	0.10253	0.33201	0.17786	0.09306	0.30829	-2.9604	-3.0917	-3.5229	-3.3646	-3.0208	-3.5042	-3.2542	-3.4437	-3.4813	-2.9979	-3.6458	-3.3417	-3.1417	-3.825	-3.2625	-3.4771	241.204	306.083	392.169	430.658	271.703	444.477	396.158	359.200	356.810	431.249	377.516	429.280	423.846	430.400	356.956	396.503	0.0023633	0.00041546	0.00017047	988.53	7.4134e-06	5.0798e-06	1197.9	338.62	4.8142e-06	1.1204e-06	462.7	222.69	155.01	72.668	5.3149e-06	116.89	0.00017616	0.0001431	3.7736e-05	899.31	1.6927e-06	1.5292e-06	1071.7	302.53	1.6857e-06	1.566e-06	403.93	191.99	135.12	63.724	1.5906e-06	100.61	329.377	141.926	155.728	101.269	200.637	225.396	100.473	107.199	266.329	160.178	105.290	109.615	111.544	115.607	205.385	112.791	-8191	255	
8632.132	1	1	0	0	0.11469	0.10153	0.15532	0.12249	0.19824	0.017957	0.29921	0.16484	0.043393	0.14095	0.23673	0.20941	0.27522	0.14727	0.15991	0.42267	-3.1646	-2.8	-3.5771	-3.4062	-2.9146	-3.5583	-3.2458	-3.2271	-3.5604	-2.7208	-3.5042	-3.5646	-3.1521	-3.8083	-3.0438	-3.4521	254.067	336.864	214.192	103.466	266.395	301.688	401.248	358.710	175.843	252.806	361.368	435.349	385.039	319.108	295.516	434.512	0.002236	0.000427	0.00016169	991.94	3.9428e-06	2.3716e-06	1193.3	337.09	4.433e-06	3.4897e-06	460.41	219.47	153.85	72.434	5.4832e-06	115.32	0.00016687	0.00013738	3.9697e-05	898.54	1.5737e-06	1.4564e-06	1067.3	301.21	1.5765e-06	1.5063e-06	400.68	189.94	134.19	63.209	1.7222e-06	99.501	329.099	174.407	160.393	101.045	227.824	190.528	100.714	107.130	182.047	211.587	105.207	109.810	111.496	115.409	197.958	112.535	-8191	255	
8632.228	1	1	0	0	0.10463	0.10838	0.11179	0.14438	0.19674	0.26914	0.13129	0.31459	0.17702	0.17028	0.030413	0.13278	0.090046	0.32437	0.24833	0.11956	-3.0854	-2.7708	-3.3271	-3.4083	-2.9479	-3.5146	-3.1208	-3.2313	-3.5104	-2.8375	-3.5125	-3.5333	-2.975	-3.5104	-3.2271	-3.1562	106.317	229.719	193.123	399.879	271.557	433.200	351.472	376.513	227.398	221.103	95.065	156.119	326.984	438.575	367.455	114.772	0.0023375	0.00041209	9.014e-05	991.17	8.6386e-06	3.6629e-06	1189.1	337.8	5.4193e-06	8.1099e-06	459.35	220.76	153.9	71.998	3.5628e-06	115.61	0.00016982	0.00014288	4.4696e-05	899.37	1.6331e-06	1.5275e-06	1070.3	301.26	1.5955e-06	1.5569e-06	403.13	190.61	134.43	63.138	1.8073e-06	99.435	323.767	191.586	274.448	101.123	229.313	240.939	100.606	107.302	219.064	229.624	105.241	109.596	111.415	115.489	211.201	112.520	-8191	255	
8632.349	1	1	0	0	0.22182	0.05924	0.22986	0.10197	0.14259	0.13775	0.39768	0.20457	0.14522	0.02998	0.099125	0.19867	0.14753	0.09851	0.22518	0.34854	-3.1625	-2.8708	-3.2479	-3.6375	-2.8667	-3.6167	-3.4021	-3.1146	-3.7354	-3.0375	-3.2687	-3.6562	-3.0687	-3.4729	-3.2896	-3.2167	425.485	206.426	277.331	408.422	423.329	310.603	399.109	339.897	410.150	102.529	428.302	427.931	426.633	414.717	309.454	310.329	0.0024205	0.00091938	8.9422e-05	988.09	2.5494e-06	4.3673e-06	1193.6	338.87	6.1579e-06	4.6019e-06	458.78	221.72	154.92	72.267	3.2428e-06	116.39	0.00016543	0.00014616	4.6838e-05	898.27	1.6039e-06	1.6087e-06	1073	300.81	1.5922e-06	1.6684e-06	404.36	190.69	134.81	63.595	1.8845e-06	100.18	327.301	167.916	154.188	101.091	270.326	237.700	100.264	107.178	252.697	214.849	105.226	109.787	111.647	115.557	134.552	112.783	-8191	255	
8632.421	1	1	0	0	0.09601	0.12216	0.25877	0.18397	0.3178	0.20745	0.18497	0.24119	0.086777	0.12804	0.20687	0.18488	0.26724	0.28462	0.068823	0.27324	-3.2667	-2.9104	-3.1375	-3.6937	-2.9396	-3.5521	-3.45	-2.9938	-3.5771	-3.0333	-3.1521	-3.6146	-2.9417	-3.6188	-3.2271	-2.9542	347.873	443.698	308.185	102.021	384.382	288.238	109.331	126.581	269.899	173.583	394.887	442.959	371.321	413.212	151.616	438.717	0.0023147	0.00046345	0.00017709	989.27	4.4909e-06	2.7927e-06	1200.7	337.18	4.3704e-06	6.844e-06	461.88	221.57	154.04	72.436	5.8177e-06	116.47	0.00016595	0.0001606	4.8631e-05	898.72	1.6313e-06	1.7766e-06	1076.1	300.95	1.6077e-06	1.8503e-06	405.42	191.68	134.61	63.695	1.9029e-06	100.17	324.604	165.457	158.985	101.148	199.133	444.602	100.569	107.549	156.416	223.472	105.332	109.746	111.332	115.285	212.593	112.509	-8191	255	
8632.517	1	1	0	0	0.16478	0.26808	0.027137	0.16441	0.31135	0.2599	0.19673	0.23495	0.064829	0.14722	0.068096	0.32063	0.21667	0.087539	0.1084	0.18694	-3.2646	-2.7938	-3.0375	-3.725	-2.9104	-3.3417	-3.6521	-2.8146	-3.5604	-3.3937	-3.3104	-3.6979	-3.2333	-3.5729	-3.475	-3.025	269.930	107.128	359.490	403.678	411.681	324.076	406.448	213.046	328.894	410.753	252.587	388.620	423.676	295.909	420.232	416.380	0.0024603	0.00044432	0.00026792	984.78	8.9495e-07	9.5392e-06	1196.5	338.87	4.7935e-06	2.6883e-06	461.61	222.35	154.47	72.772	2.8571e-06	116.79	0.00017043	0.00017913	4.9315e-05	899.58	1.7448e-06	2.047e-06	1076.8	301.87	1.828e-06	2.1249e-06	405.71	191.69	135.48	64.117	1.9893e-06	100.29	333.090	147.574	162.132	101.241	175.505	195.270	100.324	107.288	159.717	127.708	105.220	109.365	111.385	115.415	214.308	112.248	-8191	255	
8632.637	1	1	0	0	0.13564	0.070624	0.10598	0.30609	0.16007	0.26679	0.32371	0.15894	0.1249	0.057448	0.42503	0.21066	0.31596	0.27657	0.10143	0.29562	-3.0875	-3.1625	-3.0875	-3.7458	-2.9875	-3.2562	-3.6188	-2.975	-3.5729	-3.2438	-3.1667	-3.7521	-2.9979	-3.3625	-3.6542	-3.0646	342.079	384.066	228.596	431.746	159.241	386.789	182.333	394.619	407.459	409.684	393.403	108.038	95.994	99.917	309.112	364.332	0.0024602	0.00040524	9.9815e-05	991.48	9.0978e-06	4.2121e-06	1196.3	337.82	7.8965e-06	7.9187e-06	463.19	222.9	155.45	73.004	4.8759e-06	116.68	0.00019717	0.000202	5.142e-05	903.34	1.991e-06	2.2341e-06	1077.6	301.8	2.0695e-06	2.2314e-06	407.06	192.74	136.73	64.419	1.9838e-06	100.64	326.704	117.415	419.685	101.277	223.509	221.157	100.264	107.261	197.605	250.852	105.584	109.562	111.689	115.388	240.150	112.499	-8191	255	
8632.733	1	1	0	0	0.14171	0.21084	0.094849	0.25407	0.15982	0.16653	0.19553	0.22548	0.11513	0.17231	0.25031	0.11888	0.26194	0.10073	0.061286	0.23088	-2.9729	-3.2771	-2.8104	-3.5917	-3.0917	-3.2812	-3.6479	-2.8937	-3.2771	-3.55	-2.9021	-3.6646	-3.1729	-3.3417	-3.6708	-3.1417	128.194	360.517	97.221	90.256	277.139	297.842	391.634	90.038	400.828	279.898	91.213	442.458	434.756	98.057	242.653	397.647	0.0024892	0.0002189	0.00010234	996.3	3.3335e-06	4.3262e-06	1200.9	337.99	8.3102e-06	3.8872e-06	465.73	224.76	155.7	73.119	4.1348e-06	117.63	0.00021585	0.00020183	5.0949e-05	905.92	2.2116e-06	2.2174e-06	1081.5	303.02	2.2987e-06	2.2423e-06	410.18	194.34	137.55	64.66	2.0668e-06	101.53	329.608	156.701	146.710	101.123	268.884	220.650	100.429	107.507	188.321	405.823	105.182	109.455	111.299	115.407	178.686	112.398	-8191	255	
8632.830	1	1	0	0	0.053283	0.28094	0.11926	0.37067	0.063703	0.045267	0.15728	0.24648	0.11359	0.059387	0.56549	0.1915	0.1897	0.15544	0.15404	0.044388	-2.8521	-3.4437	-2.9271	-3.7583	-3.2958	-3.0563	-3.8583	-3.1667	-3.4667	-3.6396	-3.0083	-3.7479	-3.3792	-3.0292	-3.7042	-3.3271	167.153	425.783	252.717	429.670	290.565	310.492	423.244	384.285	381.698	166.308	410.623	193.029	323.387	400.316	151.311	259.736	0.0025504	0.00038956	0.00018632	998.82	3.675e-06	6.6079e-06	1198	341.31	1.7057e-06	3.7452e-06	463.48	224.4	156.08	73.048	7.8962e-07	118.1	0.00024251	0.0002057	5.3645e-05	911.61	2.3836e-06	2.2065e-06	1083.3	304.8	2.42e-06	2.2058e-06	409.32	195.15	137.82	64.6	2.0596e-06	101.82	324.410	182.116	151.893	101.242	232.946	272.678	100.581	107.441	208.006	272.892	105.298	109.543	111.461	115.604	285.263	112.321	-8191	255	
8632.948	1	1	0	0	0.13412	0.13994	0.15585	0.25821	0.29894	0.12053	0.14646	0.25879	0.097006	0.10862	0.16435	0.079507	0.22024	0.17503	0.068748	0.060863	-2.7062	-3.4062	-2.9625	-3.6188	-3.3875	-2.875	-3.7396	-3.1896	-3.2354	-3.7	-3.0625	-3.5833	-3.4938	-2.8937	-3.5646	-3.3563	411.709	171.333	317.297	89.883	206.332	129.428	394.389	384.848	168.201	351.689	348.532	356.471	441.770	391.573	289.482	223.650	0.0021656	0.0001787	0.00017642	999.01	5.2544e-06	2.7253e-06	1206	340.45	1.1697e-06	4.5132e-06	464.94	224.32	155.21	73.028	1.0695e-05	117.03	0.00024216	0.00020173	5.3625e-05	913.76	2.4499e-06	2.1807e-06	1083.8	305.17	2.4562e-06	2.1999e-06	409.89	195.17	137.38	64.595	2.1313e-06	101.29	333.217	301.916	176.136	101.107	182.513	248.730	100.464	107.409	172.352	148.120	104.687	109.527	111.282	115.353	209.145	112.425	-8191	255	
8633.045	1	1	0	0	0.34977	0.17407	0.27183	0.33164	0.12811	0.11577	0.20202	0.13415	0.069237	0.035355	0.086772	0.14663	0.15234	0.48069	0.090409	0.083998	-2.7167	-3.5229	-2.8729	-3.3958	-3.4125	-2.9708	-3.6521	-3.3729	-3.0583	-3.4625	-3.1125	-3.55	-3.5771	-3.0563	-3.5708	-3.4833	255.203	399.851	374.376	431.243	187.014	346.657	385.163	112.165	182.625	361.331	334.515	347.161	129.258	402.349	138.235	91.949	0.0024712	0.00062795	0.00014764	1001.3	6.6608e-06	4.9292e-06	1201.4	338.91	4.887e-06	2.1692e-06	464.12	223.36	155.83	72.923	9.6996e-06	116.84	0.00024358	0.00020065	5.5895e-05	918.58	2.4001e-06	2.2285e-06	1086.7	306.52	2.4096e-06	2.1525e-06	409.73	195.21	137.4	64.308	2.2007e-06	101.21	326.919	175.957	153.721	101.065	233.899	237.538	100.704	107.175	222.310	145.770	105.089	109.457	111.643	115.315	239.894	112.357	-8191	255	
#DATA ENDS
