BOXY.EXE: ISS Imagent and Oximeter Data Acquisition Program Version 0.80
Ascii Record File

#ACQ INFORMATION
2  Detector Channels 
16  External MUX Channels 
1  Auxiliary Channels 
5000  Waveform (CCF) Frequency (Hz)
1  Waveforms Skipped 
30  Waveforms Averaged 
1  Cycles Averaged 
16  Acquisitions per Waveform 
10.0806  Updata Rate (Hz) 

#FILE INFORMATION
TRUE -- External MUX Channel results are PARSED.
FALSE -- AC DC and Phase are NOT grouped.
TRUE -- Companion Program Settings File CREATED.
FALSE -- AC data not excluded
FALSE -- DC data not excluded
FALSE -- Phase data not excluded
FALSE -- Auxillary Chn. data not excluded
Tab delimiters

#CALIBRATION STATE
TRUE -- Waveform Calibration Values APPLIED.


#AUX CALIBRATION VALUES
Val Type	aux-1	

Term	1.0000e+00	
Factor	0.0000e+00	


#WF CALIBRATION VALUES
A = Detector Channel
Val Type	A-AC1	A-AC2	A-AC3	A-AC4	A-AC5	A-AC6	A-AC7	A-AC8	A-AC9	A-AC10	A-AC11	A-AC12	A-AC13	A-AC14	A-AC15	A-AC16	A-DC1	A-DC2	A-DC3	A-DC4	A-DC5	A-DC6	A-DC7	A-DC8	A-DC9	A-DC10	A-DC11	A-DC12	A-DC13	A-DC14	A-DC15	A-DC16	A-Ph1	A-Ph2	A-Ph3	A-Ph4	A-Ph5	A-Ph6	A-Ph7	A-Ph8	A-Ph9	A-Ph10	A-Ph11	A-Ph12	A-Ph13	A-Ph14	A-Ph15	A-Ph16	

Term	0.00000e+00	0.00000e+00	0.00000e+00	0.00000e+00	0.00000e+00	0.00000e+00	0.00000e+00	0.00000e+00	0.00000e+00	0.00000e+00	0.00000e+00	0.00000e+00	0.00000e+00	0.00000e+00	0.00000e+00	0.00000e+00	0.00000e+00	0.00000e+00	0.00000e+00	0.00000e+00	0.00000e+00	0.00000e+00	0.00000e+00	0.00000e+00	0.00000e+00	0.00000e+00	0.00000e+00	0.00000e+00	0.00000e+00	0.00000e+00	0.00000e+00	0.00000e+00	0.00000e+00	0.00000e+00	0.00000e+00	0.00000e+00	0.00000e+00	0.00000e+00	0.00000e+00	0.00000e+00	0.00000e+00	0.00000e+00	0.00000e+00	0.00000e+00	0.00000e+00	0.00000e+00	0.00000e+00	0.00000e+00	
Factor	1.00000e+00	1.00000e+00	1.00000e+00	1.00000e+00	1.00000e+00	1.00000e+00	1.00000e+00	1.00000e+00	1.00000e+00	1.00000e+00	1.00000e+00	1.00000e+00	1.00000e+00	1.00000e+00	1.00000e+00	1.00000e+00	1.00000e+00	1.00000e+00	1.00000e+00	1.00000e+00	1.00000e+00	1.00000e+00	1.00000e+00	1.00000e+00	1.00000e+00	1.00000e+00	1.00000e+00	1.00000e+00	1.00000e+00	1.00000e+00	1.00000e+00	1.00000e+00	X	X	X	X	X	X	X	X	X	X	X	X	X	X	X	X	

B = Detector Channel
Val Type	B-AC1	B-AC2	B-AC3	B-AC4	B-AC5	B-AC6	B-AC7	B-AC8	B-AC9	B-AC10	B-AC11	B-AC12	B-AC13	B-AC14	B-AC15	B-AC16	B-DC1	B-DC2	B-DC3	B-DC4	B-DC5	B-DC6	B-DC7	B-DC8	B-DC9	B-DC10	B-DC11	B-DC12	B-DC13	B-DC14	B-DC15	B-DC16	B-Ph1	B-Ph2	B-Ph3	B-Ph4	B-Ph5	B-Ph6	B-Ph7	B-Ph8	B-Ph9	B-Ph10	B-Ph11	B-Ph12	B-Ph13	B-Ph14	B-Ph15	B-Ph16	

Term	0.00000e+00	0.00000e+00	0.00000e+00	0.00000e+00	0.00000e+00	0.00000e+00	0.00000e+00	0.00000e+00	0.00000e+00	0.00000e+00	0.00000e+00	0.00000e+00	0.00000e+00	0.00000e+00	0.00000e+00	0.00000e+00	0.00000e+00	0.00000e+00	0.00000e+00	0.00000e+00	0.00000e+00	0.00000e+00	0.00000e+00	0.00000e+00	0.00000e+00	0.00000e+00	0.00000e+00	0.00000e+00	0.00000e+00	0.00000e+00	0.00000e+00	0.00000e+00	8.08205e+01	-1.29234e+02	-1.26031e+02	-1.81587e+02	-8.04158e+01	-6.70324e+01	-1.57320e+02	-1.62015e+02	-6.06783e+01	-6.54006e+01	-1.71053e+02	-1.72518e+02	-1.82789e+02	-1.76934e+02	-6.95614e+01	-1.49544e+02	
Factor	6.67383e-05	1.91415e-04	4.93186e-05	1.58798e-01	2.57486e-06	2.00385e-06	1.78873e-01	5.50616e-02	3.22509e-06	1.97440e-06	8.99765e-02	3.70833e-02	3.90633e-02	9.87122e-03	2.25571e-06	1.39431e-02	2.65282e-05	5.58230e-05	1.57463e-05	8.19480e-02	4.79595e-07	6.43249e-07	8.68198e-02	2.84307e-02	4.90733e-07	6.41705e-07	4.53190e-02	1.86095e-02	2.03683e-02	5.15739e-03	5.46992e-07	7.08478e-03	X	X	X	X	X	X	X	X	X	X	X	X	X	X	X	X	



#DISTANCE SETTINGS
A = Detector Channel
A-1	A-2	A-3	A-4	A-5	A-6	A-7	A-8	A-9	A-10	A-11	A-12	A-13	A-14	A-15	A-16	

2.5000e+00	3.0000e+00	2.5000e+00	3.0000e+00	2.0000e+00	3.0000e+00	1.5000e+00	3.0000e+00	3.0000e+00	3.0000e+00	3.0000e+00	3.0000e+00	3.0000e+00	3.0000e+00	1.5000e+00	3.0000e+00	

B = Detector Channel
B-1	B-2	B-3	B-4	B-5	B-6	B-7	B-8	B-9	B-10	B-11	B-12	B-13	B-14	B-15	B-16	

1.0000e+01	1.0000e+01	1.0000e+01	1.4400e+00	1.0000e+01	1.0000e+01	1.5100e+00	1.9400e+00	1.0000e+01	1.0000e+01	1.9900e+00	2.4900e+00	2.4100e+00	2.9000e+00	1.0000e+01	2.9800e+00	




#DATA BEGINS
time	group	step	mark	flag	A-AC1	A-AC2	A-AC3	A-AC4	A-AC5	A-AC6	A-AC7	A-AC8	A-AC9	A-AC10	A-AC11	A-AC12	A-AC13	A-AC14	A-AC15	A-AC16	A-DC1	A-DC2	A-DC3	A-DC4	A-DC5	A-DC6	A-DC7	A-DC8	A-DC9	A-DC10	A-DC11	A-DC12	A-DC13	A-DC14	A-DC15	A-DC16	A-Ph1	A-Ph2	A-Ph3	A-Ph4	A-Ph5	A-Ph6	A-Ph7	A-Ph8	A-Ph9	A-Ph10	A-Ph11	A-Ph12	A-Ph13	A-Ph14	A-Ph15	A-Ph16	B-AC1	B-AC2	B-AC3	B-AC4	B-AC5	B-AC6	B-AC7	B-AC8	B-AC9	B-AC10	B-AC11	B-AC12	B-AC13	B-AC14	B-AC15	B-AC16	B-DC1	B-DC2	B-DC3	B-DC4	B-DC5	B-DC6	B-DC7	B-DC8	B-DC9	B-DC10	B-DC11	B-DC12	B-DC13	B-DC14	B-DC15	B-DC16	B-Ph1	B-Ph2	B-Ph3	B-Ph4	B-Ph5	B-Ph6	B-Ph7	B-Ph8	B-Ph9	B-Ph10	B-Ph11	B-Ph12	B-Ph13	B-Ph14	B-Ph15	B-Ph16	aux-1	digaux	

32159.744	1	1	0	768	0.20442	0.12358	0.16712	0.24673	0.077176	0.06068	0.39584	0.32595	0.15643	0.20535	0.14171	0.11379	0.17985	0.15383	0.13559	0.025467	-4.4292	-4.4979	-4.2937	-4.9271	-4.2438	-4.4917	-4.9437	-4.3354	-4.6917	-4.4812	-4.3729	-5.0396	-4.425	-4.425	-4.9062	-4.2021	83.616	209.856	-137.008	197.806	-29.739	219.687	135.653	98.771	-43.604	55.265	169.583	-116.934	-8.956	203.280	141.460	-136.801	0.0012075	0.00054168	0.00013849	1352.8	6.9824e-06	4.9717e-06	1353.2	367.52	9.7317e-06	5.2551e-06	417.66	140.31	121.1	41.734	6.0556e-06	51.623	0.00065464	0.00055974	0.00016297	1375.7	6.2687e-06	6.3226e-06	1375.3	373.67	6.3969e-06	5.8676e-06	426.39	143.1	123.98	42.802	6.2482e-06	53.157	50.421	-57.213	-40.415	-126.405	-24.356	18.306	-126.950	-122.030	-26.465	9.983	-122.514	-118.450	-117.961	-113.037	-6.785	-113.899	-8191	255	
32159.842	1	1	0	0	0.10492	0.35574	0.13022	0.099825	0.15278	0.11181	0.32462	0.20168	0.18498	0.042966	0.23376	0.18851	0.17467	0.29538	0.14641	0.24662	-4.4208	-4.6125	-4.3375	-5.1542	-4.3167	-4.3271	-5.0312	-4.2792	-4.7583	-4.7438	-4.4	-4.8729	-4.4146	-4.475	-4.6896	-4.3771	-48.207	135.207	152.197	152.004	-95.749	13.054	125.244	-115.626	173.813	124.460	215.368	120.594	33.790	144.405	-126.563	40.059	0.0011412	0.00044643	0.00016309	1354.2	6.9029e-06	3.7884e-06	1355.9	365.99	9.8715e-06	4.4053e-06	417.59	139.6	121.77	41.82	4.6102e-06	51.574	0.00064447	0.00054172	0.00016835	1376.1	6.2437e-06	6.4218e-06	1375.5	373.43	6.3458e-06	5.8569e-06	427.06	142.73	124.27	42.865	5.9292e-06	53.136	51.495	-30.138	-48.761	-126.571	-15.452	7.171	-126.824	-122.112	-13.767	27.393	-122.442	-118.490	-118.016	-112.915	-8.877	-114.077	-8191	255	
32159.938	1	1	0	0	0.13275	0.098515	0.14872	0.22924	0.20747	0.11594	0.29478	0.16108	0.13128	0.10107	0.058279	0.06234	0.1749	0.08761	0.18595	0.10451	-4.2417	-4.6646	-4.1417	-4.9625	-4.3604	-4.4021	-5.0604	-4.3375	-4.4938	-4.775	-4.2979	-4.8125	-4.6708	-4.3063	-4.8042	-4.3396	166.807	-32.632	206.410	103.009	173.382	-122.553	204.588	165.655	175.917	-127.639	104.152	177.059	77.009	-16.349	184.943	-68.573	0.0011554	0.00053717	0.00013096	1355.4	6.0807e-06	5.0951e-06	1353.7	368.48	7.6803e-06	4.3662e-06	419.19	140.08	121.94	41.639	5.6098e-06	51.43	0.00065458	0.00057172	0.00015907	1377.5	6.2237e-06	6.2891e-06	1375.7	373.88	6.1015e-06	6.0093e-06	427.07	143.01	124.3	42.825	5.9645e-06	53.111	52.486	-50.117	-53.942	-126.429	-12.512	12.392	-126.854	-121.849	-10.204	12.715	-122.679	-118.582	-117.970	-113.167	6.798	-113.929	-8191	255	
32160.033	1	1	0	0	0.15663	0.092115	0.12599	0.35145	0.21982	0.1477	0.36617	0.21034	0.18848	0.17506	0.05627	0.13096	0.19779	0.063626	0.17319	0.26273	-4.1042	-4.6542	-4.0854	-4.8417	-4.5042	-4.1646	-4.9583	-4.4833	-4.4708	-4.8042	-4.2625	-4.7333	-4.7625	-4.3146	-4.9313	-4.4542	196.948	108.636	122.670	-117.979	-56.854	166.643	148.836	165.982	186.427	0.278	33.057	61.590	147.478	218.963	-126.226	159.234	0.0011778	0.00041981	0.00014549	1356.6	5.6701e-06	4.0119e-06	1350.4	367.31	9.1003e-06	5.6909e-06	418.35	140.33	121.82	41.663	4.1932e-06	51.528	0.00065033	0.00051415	0.00015707	1377	6.2447e-06	6.6174e-06	1373.9	374.18	6.3754e-06	5.8515e-06	426.55	142.97	124.53	42.88	6.1434e-06	53.168	52.939	-59.626	-60.667	-126.581	-35.220	15.060	-126.895	-122.140	-21.632	4.130	-122.642	-118.496	-118.093	-112.905	-17.264	-113.522	-8191	255	
32160.129	1	1	0	0	0.15064	0.13594	0.099479	0.15519	0.05591	0.053727	0.11698	0.23927	0.11713	0.14098	0.067842	0.16188	0.23172	0.24364	0.045672	0.22834	-4.0646	-4.6979	-4.2	-4.9271	-4.6375	-4.2521	-5.0375	-4.6333	-4.5271	-4.7396	-4.4917	-4.9167	-4.8042	-4.3167	-4.7979	-4.6479	-69.911	58.074	-20.381	207.762	-65.680	160.272	-90.353	117.140	143.105	-62.814	-134.980	-96.745	174.774	113.848	-134.586	134.594	0.0011788	0.0005117	0.00015485	1358.8	6.3097e-06	3.7394e-06	1354.7	366.13	9.2822e-06	4.1866e-06	416.83	140.23	121.09	41.775	5.2256e-06	51.486	0.00066177	0.00055474	0.00016596	1377.8	5.87e-06	6.6389e-06	1376.1	373.85	6.447e-06	6.4719e-06	426.56	143.18	124.23	42.854	5.9998e-06	53.134	55.509	-63.473	-50.198	-126.526	-31.359	9.181	-126.824	-121.969	-22.003	14.314	-122.692	-118.516	-118.207	-113.123	-18.018	-113.953	-8191	255	
32160.227	1	1	0	0	0.11212	0.13792	0.053313	0.39579	0.11166	0.12324	0.14614	0.28309	0.13746	0.12899	0.31015	0.23487	0.22346	0.34954	0.03596	0.03639	-3.9083	-4.7562	-4.2917	-4.7729	-4.8042	-4.0958	-4.9292	-4.6875	-4.2792	-4.7958	-4.4625	-4.7229	-4.8	-4.2979	-4.7542	-4.7667	137.686	215.587	16.883	213.566	-95.713	104.266	97.794	213.026	-7.626	178.376	173.812	183.286	76.177	193.164	25.765	70.360	0.0012349	0.0003475	0.00012639	1351.3	6.8169e-06	5.3126e-06	1356.5	365.93	9.6733e-06	3.8219e-06	418.03	140.09	121.44	41.73	4.2214e-06	51.298	0.00066464	0.00051718	0.00016471	1376.7	6.0499e-06	6.6951e-06	1375	373.37	6.5308e-06	5.9157e-06	426.93	143.13	124.26	42.851	6.0716e-06	53.092	51.771	-62.332	-55.420	-126.628	-34.810	10.796	-126.884	-122.216	-24.198	1.150	-122.531	-118.512	-117.767	-113.068	-10.701	-113.838	-8191	255	
32160.346	1	1	0	0	0.036339	0.15497	0.10077	0.22898	0.10255	0.25558	0.12856	0.19547	0.10193	0.25656	0.2221	0.085378	0.17644	0.12472	0.20789	0.10219	-3.8854	-4.725	-4.1896	-4.6417	-4.6083	-4.0292	-4.8688	-4.7438	-4.3688	-4.6646	-4.4313	-4.5875	-4.8583	-4.2417	-4.6562	-4.7375	113.072	74.247	-122.288	18.914	218.393	180.751	-131.108	171.986	96.096	173.385	121.616	198.779	206.261	-133.543	17.207	126.228	0.0012425	0.00039386	0.00013112	1359.8	5.993e-06	6.4409e-06	1352.4	366.27	8.9604e-06	5.0034e-06	418.09	139.54	121.6	41.689	5.6021e-06	51.45	0.00067873	0.0005302	0.00016527	1379	5.8311e-06	6.5317e-06	1376	374.15	6.3714e-06	6.1216e-06	427.05	143.02	124.2	42.86	5.9554e-06	53.147	54.437	-60.747	-49.427	-126.520	-29.462	14.670	-126.784	-122.016	-17.547	6.775	-122.327	-118.381	-117.856	-113.036	-9.634	-114.011	-8191	255	
32160.441	1	1	0	0	0.19431	0.21434	0.18026	0.25127	0.17323	0.12646	0.13007	0.13258	0.22415	0.15439	0.038387	0.14111	0.092721	0.21029	0.090697	0.1594	-3.7333	-4.8833	-4.3187	-4.5375	-5.0021	-4.3438	-4.9896	-4.8833	-4.2833	-4.7375	-4.6104	-4.4771	-5.1042	-4.3875	-4.6458	-4.7979	-12.700	181.564	116.031	106.317	195.918	129.678	165.933	155.194	46.464	-63.894	48.297	142.902	-113.799	146.354	55.665	182.037	0.001153	0.00036723	0.0001365	1357.8	6.8566e-06	4.8632e-06	1357.6	366.28	1.0696e-05	6.0723e-06	418.96	140.33	121.32	41.683	2.7201e-06	51.541	0.00065884	0.00054567	0.00017006	1378.1	5.872e-06	6.3414e-06	1378.4	374.02	6.4082e-06	6.1056e-06	427.46	143.34	124.3	42.865	5.9668e-06	53.144	53.964	-51.579	-47.953	-126.622	-28.488	4.593	-126.969	-122.162	-21.871	16.060	-122.946	-118.338	-118.140	-113.148	-12.292	-114.012	-8191	255	
32160.539	1	1	0	0	0.12682	0.14186	0.10887	0.19173	0.014521	0.2677	0.21421	0.039976	0.084351	0.19831	0.12103	0.15664	0.054628	0.37839	0.18062	0.13632	-3.8104	-4.7521	-4.475	-4.55	-4.9542	-4.2063	-4.7521	-4.9667	-4.2812	-4.7083	-4.6833	-4.3708	-4.8271	-4.3604	-4.325	-4.825	120.443	55.366	187.407	193.436	-87.676	214.525	114.062	139.564	204.809	179.139	171.825	187.908	154.237	-136.958	20.237	-20.686	0.0011838	0.00042364	0.00012919	1354.4	5.9086e-06	5.237e-06	1357.4	367.27	8.5103e-06	4.6899e-06	418.3	140.82	121.2	41.673	5.7441e-06	51.53	0.00066718	0.00053462	0.0001471	1379.2	5.7891e-06	6.1645e-06	1377.6	374.29	6.3468e-06	6.1015e-06	426.97	143.46	124.06	42.831	6.2186e-06	53.128	49.725	-60.185	-42.382	-126.378	-22.547	22.789	-126.735	-121.912	-22.481	20.581	-122.427	-118.608	-117.993	-113.134	-3.957	-113.867	-8191	255	
32160.635	1	1	0	0	0.14976	0.12	0.06843	0.25643	0.20218	0.16712	0.19082	0.12843	0.030307	0.037957	0.26335	0.042959	0.15373	0.042906	0.21758	0.19969	-4.025	-4.85	-4.5396	-4.6021	-4.8271	-4.3854	-4.6708	-5.0125	-4.2042	-4.6771	-4.7646	-4.1958	-4.7729	-4.5938	-4.4542	-4.9125	86.697	158.294	-51.797	148.558	170.274	161.136	142.619	198.411	-76.555	-48.471	140.180	169.991	191.433	140.151	25.292	188.463	0.0012231	0.00056764	0.00013198	1356.2	5.0781e-06	4.2165e-06	1354.4	366.31	8.3439e-06	5.8011e-06	419.48	140.27	121.38	41.671	4.7692e-06	51.278	0.00065066	0.00053136	0.00014342	1377.2	5.7242e-06	6.3802e-06	1377.2	374.13	6.2834e-06	5.8569e-06	427.26	143.24	124.13	42.834	6.0488e-06	53.109	55.858	-61.746	-48.385	-126.574	-50.433	4.452	-126.739	-122.004	-2.533	10.853	-122.464	-118.432	-117.717	-112.875	-16.571	-114.030	-8191	255	
32160.729	1	1	0	0	0.15769	0.13664	0.18109	0.2419	0.16143	0.20878	0.33365	0.10591	0.1968	0.10876	0.21195	0.16509	0.080813	0.16906	0.13751	0.13343	-4.0979	-4.5604	-4.5708	-4.4146	-4.9021	-4.4708	-4.5604	-5.0271	-4.3979	-4.4125	-5.0271	-4.3562	-4.7146	-4.5875	-4.3167	-4.8875	12.442	110.017	-61.417	113.543	46.547	39.466	193.296	164.612	168.888	-0.011	148.191	212.853	83.436	140.801	59.321	157.116	0.0011468	0.00036213	0.00016407	1355.8	5.717e-06	6.6196e-06	1354.9	366.21	5.1049e-06	6.1504e-06	418.73	139.99	121.25	41.695	6.3427e-06	51.693	0.00065652	0.00053346	0.00015034	1376.3	5.6942e-06	6.1953e-06	1376.3	373.46	6.353e-06	6.1069e-06	426.36	142.96	124.31	42.849	5.9041e-06	53.157	54.627	-64.417	-45.275	-126.574	-30.803	7.601	-126.778	-122.016	-23.491	12.059	-122.727	-118.422	-117.879	-113.037	-9.725	-114.027	-8191	255	
32160.824	1	1	0	0	0.11358	0.21045	0.11168	0.086549	0.030534	0.19198	0.25542	0.13618	0.2303	0.058374	0.030073	0.15813	0.12569	0.10066	0.23696	0.15325	-3.8958	-4.4688	-4.7417	-4.5396	-4.6604	-4.6979	-4.3812	-5.0146	-4.3562	-4.4375	-4.75	-4.3146	-4.7146	-4.8646	-4.3438	-5.0792	-23.855	-107.335	-69.877	156.279	-50.981	112.337	160.485	-123.249	106.446	208.282	133.777	53.668	204.198	195.846	20.467	86.206	0.0011676	0.00053841	0.00013063	1356.2	6.1693e-06	6.8827e-06	1357.2	367.04	8.6717e-06	4.57e-06	418.83	140.03	121.31	41.641	5.19e-06	51.574	0.00065939	0.00055183	0.00014936	1376.3	5.8531e-06	5.9192e-06	1375.9	373.56	6.2436e-06	5.7967e-06	427.02	143.05	124.25	42.847	6.2084e-06	53.183	51.723	-46.657	-53.138	-126.407	-36.741	8.381	-126.851	-122.050	-34.100	-8.185	-122.430	-118.524	-117.873	-113.111	-7.110	-113.917	-8191	255	
32160.945	1	1	0	0	0.12469	0.12806	0.085863	0.30489	0.028714	0.017745	0.28219	0.16373	0.084372	0.16302	0.080409	0.18724	0.080888	0.22893	0.080148	0.10353	-4.0417	-4.4396	-4.8771	-4.3313	-4.6875	-4.65	-4.4625	-4.8479	-4.4854	-4.4021	-4.7792	-4.2417	-4.5188	-4.6875	-4.0875	-4.8063	6.377	-89.052	178.759	155.708	-58.318	117.679	161.290	213.712	-91.505	69.227	-41.835	208.113	74.128	-111.319	-14.644	179.590	0.0012106	0.00053001	0.00010997	1358.9	4.5576e-06	4.4939e-06	1351.2	367.51	1.0056e-05	5.8763e-06	418.42	140.12	122.31	41.722	4.5507e-06	51.587	0.00067172	0.00053974	0.00015513	1378.8	5.938e-06	5.749e-06	1376.6	374.22	6.1403e-06	6.3034e-06	427.28	143.24	124.4	42.854	6.2311e-06	53.123	53.878	-36.560	-45.251	-126.570	-29.518	16.740	-126.904	-122.000	-17.700	10.548	-122.602	-118.545	-118.189	-112.974	-14.933	-114.022	-8191	255	
32161.043	1	1	0	0	0.10833	0.14539	0.0024664	0.35695	0.20175	0.10742	0.19983	0.16751	0.14173	0.15533	0.28084	0.080334	0.34976	0.26678	0.33582	0.23114	-4.1854	-4.3396	-4.7125	-4.3771	-4.4875	-4.6562	-4.2333	-4.8729	-4.3792	-4.2646	-4.8333	-4.3458	-4.525	-4.5729	-4.2083	-4.7375	46.166	164.632	180.000	-120.593	83.420	-29.366	140.455	-93.537	109.152	47.697	204.833	175.600	174.681	150.192	169.602	173.590	0.0011926	0.00051899	0.00012283	1361.8	7.2108e-06	4.9059e-06	1352.9	366.08	1.0129e-05	4.3208e-06	419.01	139.77	121.83	41.726	4.9114e-06	51.477	0.0006595	0.00057207	0.00014559	1380.3	6.3966e-06	6.336e-06	1376.5	373.49	6.1976e-06	6.1657e-06	427.05	143.06	124.53	42.796	6.2391e-06	53.127	51.706	-56.013	-67.398	-126.481	-25.931	27.048	-126.844	-122.152	-22.289	14.155	-122.340	-118.444	-117.912	-113.024	5.299	-113.762	-8191	255	
32161.139	1	1	0	0	0.13446	0.11039	0.12953	0.2293	0.1246	0.12794	0.36699	0.26858	0.23764	0.10314	0.17617	0.20559	0.26522	0.22873	0.1602	0.2213	-4.3208	-4.1562	-4.8187	-4.5479	-4.2542	-4.7479	-4.3292	-4.7792	-4.5479	-4.0062	-4.9437	-4.3646	-4.4104	-4.9021	-4.3271	-4.6042	141.953	22.213	-118.231	-98.094	-130.566	116.689	100.468	-120.569	191.701	176.041	130.729	126.927	148.742	94.661	105.707	-104.686	0.0011861	0.00065812	0.00013317	1359.8	5.3857e-06	4.7855e-06	1355.1	367.09	1.0207e-05	4.4403e-06	419.17	140.02	121.88	41.651	6.9869e-06	51.61	0.00063668	0.00059498	0.00015153	1380.5	6.0719e-06	6.2543e-06	1378.3	374.26	6.0759e-06	6.0614e-06	427.7	143.24	124.52	42.86	6.2722e-06	53.227	51.584	-52.341	-44.578	-126.576	-23.328	2.759	-126.874	-122.029	-24.300	-10.542	-122.577	-118.558	-117.758	-112.940	8.068	-113.975	-8191	255	
32161.234	1	1	0	0	0.11118	0.27207	0.085931	0.20828	0.10575	0.12937	0.4191	0.078617	0.11362	0.15593	0.13603	0.13985	0.13302	0.072475	0.22847	0.21577	-4.35	-4.125	-4.65	-4.5312	-4.2812	-4.8958	-4.5167	-4.7208	-4.5646	-4.2812	-4.9417	-4.525	-4.4313	-4.9167	-4.4396	-4.775	74.765	52.374	-62.967	-110.034	-105.561	-100.485	142.056	17.611	-93.683	-86.556	152.873	175.393	150.686	-136.681	-10.514	171.915	0.0011483	0.0005744	0.00015513	1363	5.8175e-06	4.8369e-06	1358.1	367.3	1.053e-05	3.8758e-06	419.87	140.34	121.27	41.664	5.6192e-06	51.579	0.0006537	0.00058254	0.00015654	1383	6.3297e-06	6.1444e-06	1382	374.56	6.2241e-06	6.266e-06	427.48	143.32	124.34	42.928	6.5969e-06	53.116	54.249	-50.867	-55.792	-126.684	-20.354	13.369	-126.854	-121.999	-20.811	15.963	-122.439	-118.522	-117.898	-113.066	-6.741	-114.001	-8191	255	
32161.307	1	1	0	0	0.097865	0.16588	0.13776	0.36457	0.11386	0.065968	0.17442	0.18861	0.028805	0.062174	0.032425	0.034453	0.052989	0.085279	0.29509	0.020686	-4.225	-4.1438	-4.5792	-4.7625	-4.3	-4.8479	-4.4833	-4.6229	-4.8271	-4.2125	-4.7917	-4.7229	-4.4688	-4.8125	-4.3812	-4.4979	213.236	52.351	107.904	157.795	152.771	187.454	181.300	98.424	-89.220	189.680	-46.396	44.996	-133.590	42.320	-21.964	-115.033	0.001201	0.00057405	0.00014469	1365.8	4.2154e-06	4.712e-06	1360.1	366.68	1.1303e-05	5.2874e-06	420.45	140.53	122.56	41.731	4.9575e-06	51.537	0.00064784	0.00059975	0.00015323	1384.6	6.2937e-06	5.8562e-06	1383.1	374.45	6.262e-06	6.5735e-06	428.56	143.43	124.95	42.973	6.4659e-06	53.173	53.141	-40.139	-50.382	-126.487	-26.601	20.095	-126.792	-122.118	-25.886	7.799	-122.682	-118.400	-117.773	-112.985	-18.092	-113.878	-8191	255	
32161.426	1	1	0	0	0.078368	0.16887	0.017956	0.17927	0.32246	0.12917	0.14195	0.18019	0.26445	0.082813	0.088563	0.11792	0.17747	0.1082	0.18107	0.20905	-4.3646	-4.2271	-4.6667	-4.8979	-4.1125	-4.8021	-4.4563	-4.5771	-4.9125	-4.2146	-4.75	-4.6833	-4.1937	-4.975	-4.4104	-4.4688	-114.308	-135.227	73.786	176.966	140.700	-3.922	144.475	162.053	170.047	14.558	25.801	-112.665	177.184	-81.240	151.634	-137.398	0.0012622	0.00046789	0.00011449	1358.7	5.4096e-06	5.4685e-06	1363	366.86	7.7743e-06	5.3683e-06	419.97	141.45	122.02	41.837	5.9523e-06	51.465	0.00067011	0.000568	0.00015244	1384.9	6.3916e-06	6.1779e-06	1384.2	374.93	5.9338e-06	6.0441e-06	428.91	143.62	124.88	43.016	6.189e-06	53.142	53.051	-55.424	-43.950	-126.637	-10.048	23.278	-127.097	-121.852	-18.171	-1.630	-122.546	-118.246	-117.696	-113.142	4.915	-113.964	-8191	255	
32161.521	1	1	0	0	0.31671	0.15219	0.24481	0.2941	0.26065	0.1669	0.24513	0.24805	0.053094	0.12262	0.093966	0.16124	0.18759	0.21487	0.16291	0.33786	-4.4354	-4.0917	-4.6542	-4.9854	-4.2292	-4.6917	-4.7958	-4.4979	-4.8896	-4.2417	-4.5979	-4.8438	-4.1813	-4.6625	-4.4854	-4.1208	204.944	-24.221	-27.111	-132.229	-127.526	-36.172	105.685	159.556	22.827	65.211	189.093	194.837	179.845	169.193	151.717	154.537	0.0012411	0.00047369	0.00012411	1363.5	5.6044e-06	4.3717e-06	1362.8	369.28	9.5899e-06	5.7825e-06	421.41	140.77	122.34	41.716	4.9834e-06	51.366	0.00065237	0.00055381	0.00014624	1387.4	6.1288e-06	6.0117e-06	1385.5	375.84	6.2834e-06	6.1323e-06	428.59	143.86	124.98	42.986	6.2745e-06	53.106	52.240	-53.355	-50.183	-126.602	-18.394	23.319	-126.887	-122.012	-36.457	12.898	-122.454	-118.460	-117.960	-112.952	17.096	-113.974	-8191	255	
32161.619	1	1	0	0	0.11741	0.14401	0.16607	0.086084	0.076981	0.034567	0.24476	0.13841	0.04759	0.082701	0.12179	0.080586	0.11694	0.28404	0.20789	0.17985	-4.475	-4.2833	-4.3625	-4.8917	-4.1667	-4.7604	-4.7729	-4.3917	-4.7667	-4.4	-4.4167	-4.9	-4.1771	-4.7312	-4.5896	-4.3229	111.694	211.843	-59.089	-71.120	109.857	-138.245	192.255	123.829	-110.115	33.538	-47.097	196.362	-84.117	-138.331	132.950	166.303	0.001172	0.00053614	0.00011824	1363.7	6.5183e-06	5.2945e-06	1358.3	368.93	6.4146e-06	5.3432e-06	420.74	140.17	122.38	41.992	4.4977e-06	51.534	0.00065414	0.0005523	0.000155	1385.5	6.2018e-06	6.0224e-06	1382.8	375.48	6.0319e-06	6.0868e-06	429.44	143.68	124.95	43.12	5.6568e-06	53.183	54.193	-52.484	-44.374	-126.663	-20.785	-7.473	-126.984	-121.988	-24.260	-3.939	-122.530	-118.541	-117.754	-113.020	-3.274	-114.210	-8191	255	
32161.738	1	1	0	0	0.13188	0.19348	0.10861	0.37874	0.07555	0.048176	0.057786	0.20512	0.035539	0.13466	0.15459	0.068132	0.1737	0.098358	0.18003	0.19136	-4.3479	-4.3562	-4.3521	-5.0042	-4.1354	-4.4979	-4.8313	-4.2583	-4.7792	-4.375	-4.4292	-4.8708	-4.1021	-4.525	-4.6292	-4.175	71.410	168.188	68.126	185.356	68.960	68.477	201.035	132.836	-56.901	-137.639	200.935	166.434	154.635	213.061	210.809	197.852	0.0011921	0.00044964	0.00010843	1366.6	7.309e-06	6.2521e-06	1359.1	367.54	8.1636e-06	4.137e-06	420.27	140.54	122.15	41.693	8.1047e-06	51.442	0.00064762	0.00054102	0.0001511	1384.4	6.2567e-06	5.8871e-06	1382.5	375.16	6.0156e-06	5.6844e-06	428.67	143.57	124.64	42.977	6.1092e-06	53.107	53.533	-58.786	-38.148	-126.592	-16.361	27.280	-127.025	-122.088	-11.940	27.181	-122.357	-118.732	-117.778	-112.938	-10.507	-113.788	-8191	255	
32161.834	1	1	0	0	0.20197	0.15102	0.15366	0.25197	0.10294	0.09474	0.18128	0.098445	0.23144	0.23456	0.022275	0.15788	0.089009	0.10978	0.030098	0.22542	-4.6208	-4.5021	-4.3146	-4.9583	-4.2125	-4.5917	-4.7708	-4.2146	-4.7104	-4.5521	-4.3271	-5.0146	-4.45	-4.4708	-4.6167	-4.2125	-137.893	-78.634	-17.818	141.279	-76.010	43.787	114.181	-35.676	155.989	-3.445	-139.045	-71.006	68.407	172.765	21.079	147.239	0.0011403	0.00051093	8.6971e-05	1359.9	3.853e-06	4.6183e-06	1360.1	368.21	1.0836e-05	3.6116e-06	420.8	140.96	122.6	41.777	5.3922e-06	51.427	0.00064165	0.00055521	0.00015736	1384.2	6.1098e-06	5.9621e-06	1383.6	375.14	6.0718e-06	5.8917e-06	428.7	143.8	125.22	43.033	5.944e-06	53.118	51.122	-50.790	-56.871	-126.538	-14.915	0.133	-127.109	-122.044	-11.141	15.067	-122.766	-118.405	-117.775	-112.929	10.220	-113.935	-8191	255	
32161.906	1	1	0	0	0.069128	0.24212	0.31643	0.20263	0.14959	0.12183	0.0051521	0.083675	0.12767	0.024673	0.117	0.086848	0.11425	0.1768	0.18676	0.12795	-4.4187	-4.4146	-4.1646	-4.9729	-4.2792	-4.3958	-4.9646	-4.4646	-4.4625	-4.7	-4.5208	-4.8354	-4.4479	-4.5208	-4.8	-4.3646	-55.429	-118.913	82.060	114.356	53.653	53.559	-19.775	-139.487	102.393	168.482	44.029	-57.054	-135.683	-30.071	149.240	193.607	0.0011648	0.0004742	0.0001364	1365.9	6.115e-06	5.2786e-06	1357.2	366.64	8.9274e-06	5.9392e-06	420.33	140.16	122.05	41.904	4.1285e-06	51.468	0.00064099	0.00055148	0.00015303	1384.2	6.1088e-06	5.9179e-06	1381	374.29	6.0381e-06	5.9612e-06	428.53	143.44	124.51	43.05	5.5827e-06	53.098	54.432	-51.636	-18.451	-126.611	-19.020	16.887	-126.923	-122.153	-19.956	5.816	-122.484	-118.555	-118.165	-112.838	-2.091	-114.022	-8191	255	
32162.025	1	1	0	0	0.16958	0.27171	0.043977	0.090987	0.11649	0.089291	0.20041	0.24052	0.29183	0.17038	0.20371	0.20453	0.21258	0.17375	0.12321	0.15462	-4.3812	-4.7063	-4.1979	-5.0229	-4.5	-4.3375	-4.8917	-4.3646	-4.5125	-4.6458	-4.1646	-4.8375	-4.5521	-4.4854	-4.7917	-4.3938	72.206	-86.461	54.753	-7.416	-72.923	-74.000	205.157	104.288	-25.925	129.270	163.178	189.620	110.240	217.865	-110.167	190.766	0.001253	0.00046234	0.00011326	1358.7	6.5472e-06	5.5957e-06	1362.7	368.65	8.0986e-06	4.4348e-06	420.93	140.34	122.54	41.624	5.1423e-06	51.58	0.00065558	0.00051032	0.00015422	1383.6	6.1708e-06	6.2047e-06	1384.9	375.32	6.1659e-06	5.9384e-06	428.58	143.51	124.96	42.955	6.0135e-06	53.171	54.236	-50.046	-49.126	-126.552	-34.723	18.602	-126.923	-122.147	-22.113	4.642	-122.520	-118.224	-118.094	-113.073	4.948	-113.944	-8191	255	
32162.121	1	1	0	0	0.16131	0.16568	0.20561	0.27201	0.12027	0.072381	0.3377	0.076556	0.15943	0.16085	0.19437	0.29796	0.056091	0.19337	0.064008	0.25464	-4.1479	-4.7042	-4.1792	-4.9062	-4.5333	-4.3688	-4.9125	-4.4	-4.6188	-4.9083	-4.2937	-4.825	-4.5917	-4.4021	-4.9	-4.4187	122.983	120.395	131.512	207.727	-65.253	124.561	128.490	170.583	-32.424	216.459	178.322	101.454	122.072	-128.815	-12.364	143.281	0.0011773	0.0005485	8.9877e-05	1361.5	5.9142e-06	5.3947e-06	1361.1	367.4	1.0739e-05	5.3542e-06	420.5	140.95	121.5	41.844	3.9821e-06	51.455	0.00065326	0.00054927	0.00015461	1384.1	5.964e-06	6.3534e-06	1383.3	374.77	6.5176e-06	6.02e-06	428.21	143.67	124.55	42.99	5.9292e-06	53.143	50.666	-49.144	-43.179	-126.611	-51.932	1.614	-126.934	-122.139	-17.075	10.594	-122.533	-118.601	-118.025	-112.962	-3.904	-113.931	-8191	255	
32162.219	1	1	0	0	0.10638	0.091714	0.27717	0.18496	0.112	0.11815	0.11268	0.27122	0.10827	0.14452	0.13048	0.20472	0.071925	0.21226	0.052632	0.23593	-4.0958	-4.7646	-4.2917	-4.8458	-4.7125	-4.1813	-5.0687	-4.6062	-4.5417	-4.6	-4.3896	-4.7812	-4.7604	-4.0563	-4.6854	-4.5375	-43.341	155.988	166.365	194.522	-132.709	27.166	144.334	172.148	134.683	129.812	185.663	8.057	176.615	190.279	213.036	-108.567	0.001165	0.00042109	0.00012773	1365.1	5.525e-06	5.5936e-06	1358.2	367.32	1.034e-05	6.1593e-06	418.09	140.44	121.57	41.877	4.8297e-06	51.49	0.00066453	0.00054044	0.00015992	1383.8	5.942e-06	6.5625e-06	1380.8	374.73	6.0115e-06	6.1777e-06	427.3	143.45	124.35	43.016	6.0021e-06	53.133	54.527	-49.274	-49.928	-126.543	-11.683	2.402	-126.916	-121.881	-29.204	7.843	-122.574	-118.387	-117.959	-112.908	-11.988	-113.886	-8191	255	
32162.340	1	1	0	0	0.03448	0.10505	0.16064	0.029588	0.10922	0.08092	0.12471	0.019231	0.31256	0.14008	0.17295	0.024216	0.061075	0.17283	0.1634	0.083515	-4.05	-4.9208	-4.2208	-4.6458	-4.7458	-4.2417	-4.7125	-4.6083	-4.1958	-4.6917	-4.3958	-4.75	-4.7646	-4.3771	-4.4458	-4.6875	-22.897	175.339	-8.793	-50.091	8.783	-108.632	143.353	203.685	-17.919	195.831	39.277	-100.797	161.253	82.007	100.686	178.413	0.0011994	0.00062053	0.00010702	1359.2	7.5403e-06	5.3659e-06	1358.2	366.64	6.9912e-06	4.0451e-06	419.44	140.17	121.35	41.863	5.7648e-06	51.377	0.00064651	0.00054276	0.00015887	1380.2	5.7501e-06	6.1899e-06	1381.5	374.23	6.4859e-06	5.77e-06	427.9	143.37	124.57	43.016	6.083e-06	53.078	55.251	-60.409	-40.042	-126.533	-18.247	18.014	-126.769	-121.945	-24.420	25.080	-122.549	-118.675	-118.201	-112.837	8.399	-114.010	-8191	255	
32162.436	1	1	0	0	0.12448	0.10821	0.068125	0.40075	0.13968	0.035737	0.26441	0.047237	0.19548	0.069935	0.002079	0.25402	0.23681	0.2516	0.2662	0.27534	-3.8937	-4.8375	-4.4771	-4.6708	-4.6729	-4.2875	-4.9208	-4.7812	-4.2146	-4.7479	-4.5167	-4.525	-4.7792	-4.3313	-4.4062	-4.7021	107.133	71.819	-88.418	173.845	-80.954	149.315	203.631	94.067	-35.585	128.954	180.000	156.686	175.195	219.168	75.241	155.466	0.0012308	0.0005979	0.00013673	1356.9	5.8099e-06	5.5273e-06	1354.8	366.78	1.0001e-05	5.1063e-06	419.04	140.44	121.94	41.659	4.4387e-06	51.365	0.00066204	0.00051741	0.00014995	1379.9	5.6133e-06	6.3481e-06	1378.5	374.21	6.1515e-06	5.528e-06	426.89	143.33	124.29	42.927	5.8995e-06	53.074	51.208	-54.212	-50.820	-126.458	-36.787	10.764	-126.859	-121.997	-23.789	16.563	-122.598	-118.557	-117.790	-113.254	-14.799	-114.065	-8191	255	
32162.529	1	1	0	0	0.061602	0.12	0.1474	0.35788	0.22588	0.098239	0.11543	0.19706	0.12928	0.18736	0.095315	0.18802	0.15102	0.2224	0.13375	0.25479	-3.8937	-4.7958	-4.3167	-4.5625	-4.6521	-4.0833	-4.9604	-4.8104	-4.025	-4.7792	-4.575	-4.4292	-4.8896	-4.3104	-4.5188	-4.6229	207.773	91.736	12.514	169.595	59.021	209.237	191.064	158.398	128.076	15.692	188.594	155.215	-89.850	187.533	137.095	-125.203	0.0012012	0.00045454	0.0001278	1360.1	5.4988e-06	4.0588e-06	1348.7	367.11	8.0887e-06	5.6322e-06	417.85	140.35	121.58	41.554	5.4697e-06	51.448	0.00064883	0.00053148	0.00015002	1379.1	5.5183e-06	5.7196e-06	1375.3	373.6	6.2262e-06	5.8743e-06	426.51	143.11	124.34	42.83	5.83e-06	53.096	52.619	-56.845	-47.780	-126.637	-16.763	19.879	-126.890	-122.129	-22.609	20.505	-122.588	-118.843	-117.434	-113.177	7.999	-114.114	-8191	255	
32162.604	1	1	0	0	0.19043	0.13227	0.1926	0.10894	0.27778	0.1758	0.054339	0.24559	0.073725	0.11919	0.091154	0.067864	0.14667	0.034105	0.11608	0.35254	-3.8229	-4.6271	-4.4771	-4.5646	-4.7833	-4.2375	-4.6438	-4.9167	-4.0958	-4.7833	-4.4313	-4.3875	-4.9083	-4.3667	-4.4688	-4.8271	155.291	99.859	190.198	52.850	24.870	104.977	125.884	117.179	208.068	92.475	-103.037	121.262	169.508	26.540	5.214	172.039	0.00116	0.00043128	0.00012728	1357.5	6.5223e-06	4.403e-06	1352.1	366.52	1.0193e-05	4.0857e-06	418.74	139.37	121.81	41.702	5.9725e-06	51.335	0.00064613	0.00049578	0.00014949	1377.5	5.7232e-06	5.9005e-06	1375.2	373.61	6.4521e-06	5.4692e-06	427.48	142.99	124.22	42.839	5.8232e-06	52.988	52.720	-48.308	-59.020	-126.524	-14.090	0.160	-126.681	-122.153	-16.246	22.702	-122.430	-118.546	-117.853	-113.157	-5.182	-113.866	-8191	255	
32162.723	1	1	0	0	0.19589	0.15739	0.16034	0.063863	0.15937	0.18328	0.14418	0.070707	0.063595	0.035155	0.29007	0.11952	0.10733	0.093218	0.13265	0.2476	-4.025	-4.6438	-4.6312	-4.4479	-4.7438	-4.4062	-4.4333	-4.9771	-4.2292	-4.5604	-4.6521	-4.2708	-4.9229	-4.5771	-4.3833	-4.8604	47.101	-24.372	192.904	-104.352	-92.648	-16.035	175.711	53.221	138.604	153.392	-125.331	-91.763	-60.609	-93.507	96.394	192.017	0.001173	0.00051008	0.00014027	1357.9	5.6317e-06	6.1934e-06	1351.6	365.69	9.57e-06	4.6462e-06	418.15	140.06	122.15	41.741	6.1334e-06	51.469	0.00067149	0.00054346	0.00014815	1378.8	5.6662e-06	6.0144e-06	1375.2	373.61	6.034e-06	5.8743e-06	426.89	143.21	124.57	42.851	6.1309e-06	53.078	56.131	-52.287	-53.427	-126.468	-8.706	15.880	-126.792	-122.053	-36.654	17.933	-122.507	-118.280	-118.029	-113.105	4.653	-113.786	-8191	255	
32162.818	1	1	0	0	0.30655	0.12709	0.13321	0.37994	0.14507	0.091317	0.026531	0.18557	0.10762	0.17524	0.068883	0.2054	0.11334	0.29209	0.15524	0.26926	-4.0312	-4.6271	-4.7458	-4.3042	-4.7979	-4.4688	-4.3708	-4.9667	-4.2021	-4.4875	-4.8542	-4.1979	-4.8562	-4.6292	-4.3021	-4.875	-22.895	166.928	64.881	178.700	79.524	-90.093	96.672	-2.930	129.633	106.876	21.312	198.863	183.211	-122.939	196.918	130.508	0.001212	0.00041428	0.00013228	1354.1	6.7939e-06	4.6954e-06	1356.7	365.17	9.2886e-06	5.8107e-06	417.49	139.79	122.32	41.716	4.3727e-06	51.577	0.0006422	0.00051613	0.00015015	1377.8	5.7771e-06	5.8348e-06	1376.7	373.23	6.4143e-06	5.7927e-06	427.02	142.96	124.4	42.917	5.895e-06	53.089	54.100	-59.789	-44.163	-126.563	-22.160	0.157	-126.955	-122.171	-21.130	1.999	-122.598	-118.523	-118.019	-112.909	8.161	-113.742	-8191	255	
32162.914	1	1	0	0	0.15247	0.12314	0.24209	0.18181	0.029261	0.27883	0.19215	0.053154	0.091707	0.039772	0.21437	0.25547	0.21075	0.33311	0.066569	0.17848	-3.9521	-4.3708	-4.6229	-4.4167	-4.6292	-4.6062	-4.4896	-4.8125	-4.3063	-4.4042	-4.7583	-4.2854	-4.5979	-4.5271	-4.125	-4.7042	142.351	-117.711	38.579	165.551	32.317	136.846	208.910	152.960	-16.575	216.317	205.435	208.009	186.637	119.730	158.684	145.879	0.0011533	0.00049359	0.00011259	1355.5	7.3391e-06	4.8922e-06	1354	365.56	8.0858e-06	5.7587e-06	418.46	139.16	121.65	41.534	3.3258e-06	51.663	0.00064922	0.00054672	0.00014533	1375.9	5.6852e-06	5.6217e-06	1375.6	373.16	5.7487e-06	6.3288e-06	427.07	143.08	124.26	42.867	5.9793e-06	53.168	54.412	-46.077	-43.472	-126.422	-23.876	20.187	-126.843	-122.137	-16.534	0.971	-122.441	-118.419	-118.013	-112.995	3.263	-113.910	-8191	255	
32163.010	1	1	0	0	0.17061	0.11234	0.070128	0.2873	0.31177	0.09306	0.28384	0.052382	0.22298	0.076231	0.20856	0.28036	0.11267	0.091656	0.084392	0.023317	-3.925	-4.4	-4.6562	-4.3354	-4.5437	-4.6937	-4.4292	-4.9042	-4.4521	-4.3479	-4.9875	-4.3354	-4.675	-4.6417	-4.1729	-4.7792	37.925	37.043	100.772	149.499	-117.274	15.524	152.019	43.370	26.241	66.317	213.966	195.639	-123.071	-137.785	-120.311	43.051	0.0011745	0.00038533	0.00015834	1355.5	7.0739e-06	6.2443e-06	1355.6	367.14	1.0126e-05	3.9051e-06	418.2	140.33	121.1	41.829	4.6368e-06	51.524	0.0006422	0.00056056	0.00014195	1378.2	5.866e-06	5.7946e-06	1375.9	373.53	6.1556e-06	5.9906e-06	426.73	143.14	124.19	42.893	6.1274e-06	53.016	53.954	-52.336	-43.578	-126.722	-28.521	16.706	-126.897	-121.884	-17.999	13.683	-122.404	-118.657	-117.847	-113.043	-10.980	-113.890	-8191	255	
32163.131	1	1	0	0	0.20021	0.13578	0.12424	0.18825	0.062413	0.30182	0.20052	0.083139	0.14169	0.058659	0.2712	0.14992	0.26532	0.14592	0.16394	0.12411	-4.0125	-4.3125	-4.7708	-4.4437	-4.4563	-4.6708	-4.3083	-4.7708	-4.575	-4.1979	-4.9042	-4.3625	-4.7	-4.8792	-4.1479	-4.7729	13.928	217.045	63.820	177.290	89.076	215.512	-87.764	99.389	-22.575	53.960	-130.971	-114.154	173.909	86.480	3.320	107.538	0.001132	0.00052935	0.00010086	1351.7	7.0129e-06	5.7054e-06	1353.7	367.53	1.0377e-05	4.4954e-06	419.28	139.89	121.14	41.489	6.8859e-06	51.433	0.0006343	0.00056242	0.00013922	1374.3	5.6592e-06	5.8857e-06	1375.1	373.53	5.9358e-06	6.1296e-06	427.09	142.93	124.12	42.81	6.3451e-06	53.055	53.090	-36.111	-53.382	-126.629	-12.659	15.485	-126.837	-122.047	-16.619	20.889	-122.495	-118.667	-117.927	-113.002	-10.167	-114.180	-8191	255	
32163.203	1	1	0	0	0.19257	0.060086	0.086882	0.089565	0.13356	0.21091	0.3755	0.078471	0.073771	0.1658	0.20144	0.013706	0.12351	0.26539	0.034985	0.1709	-3.9875	-4.1625	-4.7417	-4.4354	-4.4313	-4.9208	-4.2688	-4.8688	-4.5167	-4.4958	-4.875	-4.4479	-4.4437	-4.9521	-4.3646	-4.65	217.546	-130.431	105.602	178.923	-18.549	140.280	167.086	-30.780	-53.190	-121.256	126.333	182.343	196.097	217.474	-15.423	-50.820	0.0012007	0.00044009	0.00013546	1355.8	5.8686e-06	5.0046e-06	1351.7	367.16	9.1425e-06	5.0465e-06	417.31	140.12	121.06	41.716	4.8171e-06	51.286	0.00064474	0.00054869	0.00014208	1374.3	6.0099e-06	5.5681e-06	1374.7	373.6	5.8356e-06	6.0828e-06	426.3	142.86	123.96	42.875	5.5292e-06	52.994	52.940	-45.639	-60.720	-126.429	-36.017	9.919	-126.907	-121.994	-20.046	0.241	-122.407	-118.210	-117.951	-112.945	-11.793	-113.889	-8191	255	
32163.299	1	1	0	0	0.21031	0.068051	0.28215	0.30586	0.27604	0.12858	0.10593	0.27105	0.1902	0.12842	0.15411	0.051545	0.22581	0.17933	0.14566	0.11705	-4.3313	-4.2688	-4.7104	-4.3958	-4.3313	-4.8875	-4.4125	-4.7812	-4.6375	-4.1667	-4.9417	-4.4313	-4.3646	-4.75	-4.3313	-4.5854	-89.630	127.253	-21.751	177.074	179.374	-101.730	153.641	176.887	219.633	-0.157	110.005	-107.221	134.550	219.018	152.465	78.174	0.0011439	0.00054038	0.00013106	1353.2	6.704e-06	4.069e-06	1346.2	366.35	8.3492e-06	6.409e-06	417.83	139.44	120.87	41.67	5.8124e-06	51.245	0.00062535	0.00057823	0.00013256	1374.5	6.1548e-06	5.5051e-06	1372	373.65	6.1965e-06	5.8034e-06	425.67	142.61	123.9	42.819	5.9918e-06	52.99	53.073	-56.020	-36.737	-126.568	-14.779	12.184	-126.849	-121.923	-13.684	3.121	-122.462	-118.507	-118.022	-112.855	12.603	-113.937	-8191	255	
32163.420	1	1	0	0	0.19654	0.087145	0.068183	0.038271	0.18942	0.13908	0.015608	0.16649	0.090561	0.1429	0.11308	0.14308	0.18253	0.079752	0.16456	0.079042	-4.3	-4.1583	-4.7917	-4.5979	-4.1458	-4.9125	-4.6438	-4.8021	-4.7021	-4.1542	-4.7333	-4.6917	-4.2271	-4.8458	-4.4354	-4.4021	160.320	-94.817	147.849	136.159	38.004	-112.942	-97.307	-106.251	189.667	64.500	-18.252	125.558	64.434	187.806	-19.184	38.123	0.0011835	0.00069593	0.00016159	1353	4.9857e-06	4.9436e-06	1351.6	366.27	1.0439e-05	5.1517e-06	417.84	140.04	121.39	41.665	7.2399e-06	51.269	0.00063988	0.00052776	0.00014372	1374.6	6.2947e-06	5.6807e-06	1373.8	373.5	6.0411e-06	5.8556e-06	426.26	142.91	124.03	42.827	6.1582e-06	53.034	52.735	-63.150	-53.523	-126.442	-24.447	1.952	-126.763	-122.033	-12.023	3.294	-122.351	-118.549	-117.809	-113.357	-1.399	-113.455	-8191	255	
32163.514	1	1	0	0	0.096468	0.094616	0.11571	0.063564	0.13347	0.064124	0.31356	0.29933	0.17222	0.11164	0.25192	0.27997	0.13097	0.1042	0.068645	0.20561	-4.4271	-4.125	-4.7188	-4.6854	-4.3083	-4.6813	-4.5208	-4.6208	-4.7125	-4.2375	-4.7958	-4.7521	-4.4229	-4.8333	-4.3854	-4.5042	-15.174	-95.095	200.979	155.546	51.704	67.315	185.582	182.231	208.515	131.676	147.713	163.674	-137.213	185.379	113.060	165.011	0.001213	0.00059412	0.00012703	1350.8	4.1236e-06	4.7015e-06	1349.4	366.66	9.9623e-06	6.5051e-06	416.35	140.41	121.74	41.731	4.8684e-06	51.503	0.00062579	0.00054009	0.00013955	1372.5	5.7541e-06	5.3859e-06	1372.2	373.33	5.8315e-06	6.1176e-06	426.22	143.07	124.46	42.795	6.05e-06	53.086	52.798	-65.826	-38.926	-126.459	-19.724	-4.012	-126.820	-122.009	-21.390	10.033	-122.423	-118.483	-117.767	-112.764	-6.116	-113.718	-8191	255	
32163.609	1	1	0	0	0.21019	0.12814	0.25557	0.24882	0.12967	0.15017	0.09566	0.13865	0.23975	0.099975	0.18023	0.12161	0.038346	0.34602	0.18473	0.19217	-4.55	-4.1479	-4.4417	-4.8688	-4.2417	-4.6979	-4.6375	-4.3521	-4.8646	-4.1646	-4.7229	-4.6188	-4.2729	-4.7271	-4.5	-4.2854	-30.910	-77.498	-74.491	166.800	84.877	-127.802	2.522	205.488	118.540	-110.867	152.226	128.157	129.376	-85.253	-39.071	197.486	0.0011282	0.00050559	0.00018539	1352.5	5.6566e-06	4.0903e-06	1354.9	368.09	7.2844e-06	6.6235e-06	416.74	139.73	121.65	41.696	6.7879e-06	51.181	0.00061308	0.00050904	0.0001512	1373.5	5.978e-06	5.1232e-06	1374.6	373.95	5.6475e-06	5.9291e-06	425.71	143.03	124.11	42.834	5.8505e-06	53.018	52.346	-60.099	-41.179	-126.632	-43.349	23.024	-126.810	-122.054	-10.341	4.513	-122.435	-118.552	-117.930	-113.116	-3.821	-113.830	-8191	255	
32163.707	1	1	0	0	0.090789	0.1025	0.0688	0.11483	0.17458	0.089869	0.24082	0.39505	0.21524	0.14215	0.094146	0.14958	0.013258	0.277	0.15312	0.21742	-4.4625	-4.3583	-4.5938	-4.9688	-4.1438	-4.7125	-4.725	-4.2729	-4.8292	-4.6417	-4.5875	-4.8021	-4.2333	-4.6438	-4.6292	-4.2542	-3.735	213.621	-54.388	107.159	181.084	-134.484	78.150	202.507	147.157	-90.178	164.003	152.589	71.220	-90.871	-135.095	135.824	0.0012463	0.00045945	0.00012765	1351.9	6.5451e-06	5.9651e-06	1349.2	367.03	1.0307e-05	4.0081e-06	418.37	140.36	121.81	41.568	4.4394e-06	51.515	0.00064673	0.00053299	0.0001384	1374.2	5.914e-06	5.6874e-06	1372.4	373.56	5.6986e-06	5.6243e-06	426.36	143.04	124.2	42.791	5.9964e-06	53.174	53.313	-44.483	-50.170	-126.443	-41.922	-5.653	-126.805	-122.042	-17.728	4.520	-122.505	-118.593	-117.936	-113.136	1.302	-113.893	-8191	255	
32163.803	1	1	0	0	0.09735	0.081585	0.17631	0.24483	0.20535	0.15063	0.20207	0.39381	0.083985	0.21859	0.19476	0.017027	0.042569	0.14504	0.034762	0.053036	-4.6062	-4.2604	-4.4083	-4.9875	-4.2583	-4.7708	-4.8083	-4.5229	-4.8292	-4.3792	-4.6375	-4.7937	-4.2604	-4.7479	-4.7	-4.3167	-128.167	-127.900	9.348	177.132	79.303	-25.428	159.068	196.368	190.967	191.190	158.771	-125.403	-126.528	216.039	133.572	218.142	0.0011768	0.00056955	0.00014743	1355.3	7.618e-06	5.4488e-06	1350.2	367.5	8.6616e-06	3.6262e-06	418.37	139.62	120.96	41.571	4.5274e-06	51.653	0.00063132	0.0005623	0.00016324	1374.9	6.1148e-06	5.9165e-06	1373.1	373.32	5.991e-06	5.8221e-06	426.3	142.96	124.08	42.778	5.9098e-06	53.19	54.148	-59.866	-40.811	-126.502	-14.626	3.674	-126.910	-122.274	-15.461	15.315	-122.409	-118.417	-117.804	-113.039	-10.542	-113.841	-8191	255	
32163.898	1	1	0	0	0.18706	0.18282	0.092405	0.091445	0.21844	0.20857	0.20169	0.32901	0.17296	0.083151	0.13816	0.16142	0.37909	0.050475	0.23495	0.11896	-4.3875	-4.4875	-4.3375	-4.9771	-4.3667	-4.4646	-4.7333	-4.1833	-4.8688	-4.4062	-4.4833	-4.8271	-4.4625	-4.6979	-4.7125	-4.1521	-2.285	-126.503	68.781	182.713	116.195	-58.168	185.993	135.461	136.838	-66.965	203.821	219.845	179.478	191.736	-74.389	100.804	0.0011732	0.00053837	0.0001016	1350.2	6.2635e-06	4.844e-06	1349.1	366.62	6.9154e-06	5.1237e-06	417.87	140.23	121.36	41.727	5.8215e-06	51.755	0.00064762	0.00056707	0.00014946	1374.5	5.8351e-06	5.5989e-06	1373.1	373.57	5.8469e-06	6.024e-06	426.57	142.97	124.13	42.813	5.903e-06	53.179	53.754	-53.986	-46.114	-126.568	-12.453	11.419	-126.910	-122.034	-23.706	2.969	-122.515	-118.616	-118.046	-113.011	-2.220	-113.811	-8191	255	
32164.020	1	1	0	0	0.061525	0.10772	0.031981	0.30423	0.13382	0.077315	0.32935	0.28573	0.18644	0.064668	0.21161	0.15802	0.20866	0.010727	0.050655	0.13693	-4.4792	-4.5437	-4.2917	-5.0354	-4.1979	-4.5333	-4.8083	-4.2396	-4.7146	-4.5813	-4.3479	-4.8896	-4.5292	-4.4604	-4.6979	-4.2771	179.462	97.640	-22.944	170.692	165.539	212.741	140.039	194.470	181.128	183.222	-84.025	152.263	197.547	182.981	66.272	215.892	0.0012526	0.00051987	0.00015438	1352.1	7.2391e-06	4.8718e-06	1350.4	366.26	8.1237e-06	5.3561e-06	418.35	139.57	121.17	41.527	4.9117e-06	51.581	0.00065663	0.00052799	0.00016091	1374.4	5.8441e-06	6.1176e-06	1373.9	373.29	5.8663e-06	6.3435e-06	426.87	142.99	124.06	42.792	5.9007e-06	53.047	55.250	-60.192	-47.313	-126.623	-16.904	-3.777	-126.926	-121.855	-20.368	-4.306	-122.469	-118.736	-117.740	-112.730	-17.437	-113.864	-8191	255	
32164.115	1	1	0	0	0.080018	0.16019	0.15216	0.34952	0.21349	0.11227	0.28125	0.093667	0.1007	0.18779	0.2743	0.26833	0.11676	0.34805	0.050282	0.30844	-4.2562	-4.6062	-4.15	-4.8458	-4.5125	-4.4938	-4.9688	-4.2688	-4.5708	-4.6875	-4.3271	-4.7063	-4.4521	-4.3146	-4.8542	-4.3667	53.288	217.917	17.701	128.858	-133.667	-27.765	145.011	170.041	149.446	198.025	-134.529	188.171	218.112	218.841	-11.904	181.745	0.0011811	0.00049163	0.00013338	1353.1	6.0465e-06	4.0293e-06	1353.6	365.37	9.019e-06	5.4036e-06	418.32	139.94	121.65	41.532	6.1603e-06	51.487	0.00063253	0.00048554	0.00015061	1374	6.1928e-06	6.0774e-06	1374.2	372.99	6.2221e-06	5.9077e-06	426.83	142.97	124.1	42.763	5.7195e-06	53.073	53.648	-45.673	-44.725	-126.574	-36.351	-1.883	-126.805	-122.121	-17.943	32.492	-122.671	-118.561	-117.985	-113.027	-8.204	-113.939	-8191	255	
32164.211	1	1	0	0	0.2548	0.2404	0.17426	0.20904	0.1257	0.13893	0.27702	0.076522	0.11803	0.19474	0.074969	0.02417	0.063559	0.11066	0.27603	0.098058	-4.3021	-4.6458	-4.0542	-4.9625	-4.3688	-4.1875	-4.9812	-4.4125	-4.4708	-4.6438	-4.2854	-4.8542	-4.4271	-4.1875	-4.6667	-4.4604	-79.901	160.536	46.361	135.188	7.837	170.841	130.607	139.668	-23.822	60.205	-108.088	57.454	84.786	-110.902	-87.481	104.043	0.0011616	0.00056878	0.00013525	1353.9	7.2129e-06	5.3537e-06	1354.3	366.9	8.3681e-06	4.3111e-06	416.96	139.96	121.37	41.494	5.5331e-06	51.469	0.00063673	0.00053892	0.0001572	1375	5.959e-06	6.332e-06	1374.4	373.63	6.217e-06	5.9358e-06	425.99	143.13	124.12	42.73	5.7115e-06	52.993	54.810	-64.318	-46.475	-126.730	-22.761	7.688	-126.834	-122.125	-28.446	9.361	-122.345	-118.344	-118.014	-112.969	-14.896	-113.796	-8191	255	
32164.309	1	1	0	0	0.17383	0.13216	0.074515	0.16729	0.029603	0.054016	0.31754	0.10112	0.10204	0.32203	0.029163	0.18407	0.17945	0.12498	0.1333	0.097562	-4.0417	-4.7333	-4.2625	-4.9729	-4.7396	-4.325	-4.9896	-4.6208	-4.2458	-4.8146	-4.3	-4.5417	-4.775	-4.1687	-4.7792	-4.6188	138.163	-128.010	133.385	194.593	189.019	-99.598	143.623	187.862	50.992	-100.142	127.147	-111.002	-101.210	145.317	199.659	100.676	0.0011318	0.00047744	0.00012246	1355.5	5.8672e-06	5.7401e-06	1351.3	366.53	8.9036e-06	3.7417e-06	418.94	139.74	121.28	41.67	6.1838e-06	51.729	0.00062159	0.00052043	0.00014605	1376.6	5.8491e-06	6.3936e-06	1375.7	373.33	6.2916e-06	5.7286e-06	426.5	143.2	123.85	42.851	5.699e-06	53.109	53.435	-49.430	-58.528	-126.580	-12.574	18.325	-126.729	-122.210	-12.775	13.402	-122.445	-118.422	-118.085	-112.913	-7.238	-114.160	-8191	255	
32164.428	1	1	0	0	0.14251	0.22946	0.17828	0.26352	0.052222	0.021082	0.39219	0.14559	0.14	0.10036	0.24239	0.1854	0.05374	0.044362	0.10848	0.071686	-4.0208	-4.7937	-4.0333	-4.7667	-4.7604	-4.2146	-4.9187	-4.5458	-4.3542	-4.9	-4.4542	-4.5854	-4.8917	-4.2521	-4.675	-4.5979	215.619	-45.977	48.709	199.673	85.239	47.567	159.088	83.783	209.939	44.154	181.274	49.199	-5.078	-67.851	8.945	83.792	0.0012206	0.00048109	0.00013014	1355.9	6.3993e-06	4.4345e-06	1351.3	365.71	8.0166e-06	5.5467e-06	417.66	139.52	121.62	41.586	4.6496e-06	51.585	0.00066442	0.00050578	0.00015504	1375	5.8351e-06	6.2797e-06	1374.7	373.33	5.9011e-06	5.4465e-06	426.61	142.95	124.11	42.797	5.8175e-06	53.061	51.262	-45.189	-43.111	-126.756	-32.892	10.097	-126.887	-122.103	-33.574	13.951	-122.553	-118.478	-117.725	-112.840	-2.959	-113.744	-8191	255	
32164.500	1	1	0	0	0.21838	0.097035	0.14051	0.27802	0.15627	0.24505	0.36396	0.13785	0.11365	0.19931	0.29106	0.27504	0.073573	0.12961	0.12571	0.10062	-4.0312	-4.8333	-4.2625	-4.6729	-4.7937	-4.2021	-4.9208	-4.6958	-4.4187	-4.8167	-4.5542	-4.5479	-4.775	-4.2979	-4.6271	-4.6833	-73.224	188.481	173.136	146.664	134.511	155.414	172.114	148.169	203.723	123.327	-119.807	202.595	-14.674	-39.293	101.666	8.683	0.0011626	0.00051909	0.00013995	1354.3	7.742e-06	5.2581e-06	1352.1	365.36	6.7597e-06	4.2099e-06	417.17	139.91	121.51	41.461	5.0199e-06	51.451	0.00066519	0.00050683	0.00015487	1376.3	6.0659e-06	5.9098e-06	1373.7	373.39	6.216e-06	5.6189e-06	426.21	143.06	124.03	42.752	5.9782e-06	53.11	52.412	-68.291	-48.712	-126.499	-29.999	20.479	-126.831	-122.217	-18.599	22.313	-122.532	-118.381	-117.998	-112.921	-22.149	-113.744	-8191	255	
32164.594	1	1	0	0	0.13514	0.013085	0.14013	0.2217	0.18454	0.043292	0.15981	0.33521	0.1671	0.24323	0.12258	0.12816	0.086714	0.12675	0.19061	0.27542	-3.8187	-5.0125	-4.3604	-4.5354	-4.8208	-4.0188	-4.8229	-4.9521	-4.2146	-4.7417	-4.5958	-4.4521	-4.8958	-4.3562	-4.4396	-4.9146	150.662	24.719	132.306	160.771	140.911	121.377	-98.779	209.396	106.931	184.776	-106.758	16.507	159.110	200.707	185.294	174.015	0.0011547	0.00050703	0.00014139	1351.3	3.3463e-06	4.8726e-06	1349.9	365.56	1.048e-05	4.2308e-06	416.4	140.27	120.98	41.663	5.5476e-06	51.469	0.00064883	0.00051392	0.00014372	1376.2	5.5653e-06	5.8e-06	1374.1	372.89	6.0677e-06	5.5467e-06	425.63	142.84	123.81	42.885	5.6671e-06	52.999	53.087	-48.846	-60.053	-126.525	-5.357	11.216	-126.847	-122.119	-23.317	6.080	-122.617	-118.584	-117.719	-113.037	-20.785	-113.874	-8191	255	
32164.689	1	1	0	0	0.20974	0.095655	0.11534	0.14511	0.046015	0.053799	0.1419	0.089544	0.24744	0.23776	0.28097	0.13681	0.27481	0.18749	0.049114	0.076716	-3.875	-4.8104	-4.4042	-4.4146	-4.8833	-4.4021	-4.6333	-4.8604	-4.2292	-4.6896	-4.6312	-4.275	-4.8104	-4.3833	-4.5125	-4.7542	-90.925	-21.134	-129.820	178.701	180.592	-49.785	-139.223	210.518	72.660	-97.637	138.943	136.434	-77.376	217.456	162.951	193.781	0.0011941	0.00058312	0.00017646	1354.3	7.2404e-06	4.3812e-06	1349.6	366.5	8.2451e-06	5.0105e-06	418.44	140.53	121.05	41.524	6.0872e-06	51.245	0.00063546	0.00051497	0.00013853	1373.2	5.5183e-06	5.7919e-06	1371.1	373.39	6.0381e-06	5.3195e-06	426.42	142.76	123.97	42.778	5.8232e-06	53.019	54.467	-57.609	-50.559	-126.479	-42.034	31.761	-126.870	-122.097	-4.107	6.214	-122.492	-118.605	-117.872	-112.932	13.724	-113.750	-8191	255	
32164.811	1	1	0	0	0.14929	0.0058153	0.17853	0.24734	0.11537	0.070996	0.21328	0.18115	0.17095	0.028084	0.079602	0.060428	0.14461	0.09723	0.13341	0.14108	-3.8521	-4.8104	-4.5896	-4.3229	-4.8354	-4.3812	-4.6271	-4.9625	-4.2125	-4.6021	-4.7688	-4.2	-4.7833	-4.4479	-4.4125	-4.9938	-53.391	-140.119	-134.813	182.971	-89.526	141.905	138.423	189.746	21.790	117.292	-89.015	63.230	204.402	123.626	-34.001	-122.387	0.0012112	0.00062349	0.00011674	1355.2	7.3121e-06	5.3277e-06	1349.5	365.38	7.7844e-06	5.4586e-06	416.7	139.47	121.9	41.508	4.0355e-06	51.489	0.00065176	0.00051915	0.00014595	1374.5	5.6332e-06	5.867e-06	1372.8	373.04	6.081e-06	5.8489e-06	425.97	142.82	124.33	42.761	6.0124e-06	52.963	54.597	-63.155	-53.944	-126.484	-34.557	7.621	-126.865	-122.155	-10.641	-2.622	-122.692	-118.506	-117.791	-113.052	13.244	-113.786	-8191	255	
32164.906	1	1	0	0	0.2686	0.1314	0.062564	0.26476	0.12493	0.11364	0.17261	0.23358	0.082692	0.15531	0.074858	0.12689	0.14283	0.12069	0.085999	0.16051	-3.9333	-4.7083	-4.4917	-4.3583	-4.7188	-4.3562	-4.5604	-4.8604	-4.2	-4.5479	-4.8625	-4.3104	-4.5979	-4.4979	-4.3667	-4.7958	71.163	-126.569	93.704	198.301	21.568	88.578	93.391	-132.742	166.975	142.316	-124.905	-98.122	-106.549	-126.638	64.770	118.314	0.0011968	0.00050468	0.00015808	1357.2	5.8701e-06	4.218e-06	1352.4	365.57	1.2351e-05	5.4903e-06	418.41	139.64	120.96	41.548	4.9383e-06	51.377	0.0006411	0.00050904	0.00014444	1375.8	5.7751e-06	5.8777e-06	1374.7	373.68	6.5308e-06	5.9398e-06	426.77	142.82	124.27	42.787	5.985e-06	53.038	53.051	-36.611	-43.981	-126.576	-40.930	16.090	-126.898	-121.848	-19.429	16.804	-122.678	-118.525	-117.887	-112.994	0.092	-113.904	-8191	255	
32165.004	1	1	0	0	0.13305	0.13436	0.074101	0.25798	0.10004	0.11906	0.20778	0.099498	0.10472	0.24444	0.20819	0.30649	0.10317	0.31434	0.21338	0.095715	-3.9229	-4.4812	-4.6417	-4.3917	-4.6271	-4.3979	-4.3063	-4.9688	-4.2562	-4.3896	-4.9083	-4.3562	-4.8604	-4.65	-4.2583	-4.9917	-9.619	6.509	-58.098	190.120	117.600	177.983	147.551	-132.648	195.473	-14.236	190.961	158.224	-127.619	157.106	79.209	-131.464	0.0011375	0.00050638	0.00013859	1353	5.85e-06	6.5515e-06	1349.1	365.67	9.9247e-06	5.5541e-06	418.75	139.7	121.2	41.502	3.8933e-06	51.478	0.00062861	0.00053799	0.00014175	1372.2	5.7531e-06	6.0157e-06	1374.4	372.91	6.2047e-06	5.7433e-06	426.15	142.92	123.94	42.765	5.9326e-06	53.063	50.487	-52.742	-40.926	-126.444	-29.547	1.862	-126.726	-121.880	-31.365	16.673	-122.633	-118.348	-117.724	-113.037	-0.460	-114.028	-8191	255	
32165.100	1	1	0	0	0.11101	0.24504	0.092787	0.1224	0.16795	0.11759	0.093494	0.079779	0.1596	0.24225	0.061755	0.24068	0.14312	0.16313	0.19674	0.2764	-4.1833	-4.4583	-4.7937	-4.5042	-4.675	-4.5792	-4.4563	-5.0333	-4.5667	-4.3542	-4.9854	-4.3458	-4.7812	-4.8187	-4.1958	-4.9229	207.244	15.623	-112.410	179.957	110.957	-54.324	53.810	203.225	-12.334	13.521	171.646	-113.842	-106.075	192.402	97.862	169.337	0.0011768	0.00053615	0.00014658	1354.4	6.1769e-06	5.5241e-06	1349.6	366.07	6.4458e-06	3.9951e-06	417.56	139.87	121.04	41.668	6.061e-06	51.284	0.00064883	0.00052334	0.00014516	1373.9	5.873e-06	5.6686e-06	1374.7	373	5.9236e-06	5.9852e-06	426.58	142.75	124.03	42.795	6.3064e-06	53.029	54.386	-40.652	-47.950	-126.625	-13.672	18.239	-126.711	-121.987	-18.010	24.247	-122.418	-118.343	-117.726	-112.937	-8.812	-114.192	-8191	255	
32165.195	1	1	0	0	0.35662	0.19938	0.061443	0.18325	0.096968	0.16345	0.18579	0.16238	0.10417	0.039936	0.34252	0.14932	0.040797	0.13814	0.19911	0.027226	-4.15	-4.4563	-4.8208	-4.3667	-4.6917	-4.6979	-4.4521	-5.0208	-4.5792	-4.1729	-5.0083	-4.5271	-4.6979	-4.7812	-4.2604	-4.825	-40.441	185.664	-68.541	-115.488	-6.031	-22.442	167.163	201.178	36.465	68.358	212.647	167.520	115.410	-90.724	11.637	153.074	0.0011792	0.00040137	0.00015094	1355.8	4.9841e-06	6.7673e-06	1350.3	365.23	9.6483e-06	5.5361e-06	418.11	139.97	121.98	41.559	4.4798e-06	51.368	0.00065685	0.00052427	0.0001426	1375.1	5.7511e-06	5.9755e-06	1371.6	373.11	6.1219e-06	6.1684e-06	425.69	142.75	124.22	42.759	6.3064e-06	52.958	54.150	-50.346	-57.512	-126.483	-4.669	11.873	-126.726	-122.076	-22.621	14.024	-122.572	-118.334	-117.910	-113.349	-18.407	-113.867	-8191	255	
32165.293	1	1	0	0	0.15371	0.24958	0.16966	0.098947	0.041186	0.1878	0.15103	0.34338	0.18018	0.12135	0.17538	0.19976	0.19015	0.050043	0.13201	0.1547	-4.1813	-4.3021	-4.7667	-4.5375	-4.4542	-4.8167	-4.3208	-4.9062	-4.4979	-4.1937	-4.9812	-4.525	-4.4187	-4.7438	-4.1292	-4.7417	20.737	-87.034	184.809	164.583	-38.574	42.388	196.363	117.391	103.663	71.640	75.157	-136.753	141.915	-96.138	143.543	196.353	0.0011863	0.00050854	0.00015726	1349.6	6.0618e-06	5.2281e-06	1347.3	364.19	8.2295e-06	3.7663e-06	416.92	140.14	121.78	41.498	5.333e-06	51.387	0.00064955	0.00053858	0.00015766	1373	6.1208e-06	6.0211e-06	1373.1	372.4	5.7416e-06	6.139e-06	426.07	142.91	124.1	42.763	6.4215e-06	52.991	50.829	-54.286	-38.882	-126.538	-16.986	-11.401	-126.837	-121.917	-22.314	-0.110	-122.661	-118.450	-117.902	-113.154	-7.932	-113.781	-8191	255	
32165.389	1	1	0	0	0.17919	0.16175	0.22578	0.027295	0.16989	0.085533	0.17271	0.40367	0.11023	0.19026	0.23956	0.30991	0.18587	0.070493	0.18095	0.17511	-4.1875	-4.2083	-4.6229	-4.4896	-4.3583	-4.7958	-4.5188	-4.9104	-4.5917	-4.2042	-4.9062	-4.3958	-4.4	-5.1021	-4.3771	-4.6396	-4.350	-96.535	-46.505	-83.682	145.653	100.473	207.229	161.803	-14.196	109.218	171.019	172.345	-60.682	-100.276	176.463	137.388	0.0012091	0.00056496	0.00010585	1351.2	6.0724e-06	4.5902e-06	1350.3	364.88	8.6709e-06	3.958e-06	418.03	139.63	121.44	41.793	5.0652e-06	51.261	0.00064812	0.00053939	0.00014657	1372.7	6.0069e-06	5.3832e-06	1372.1	372.74	5.8377e-06	6.0962e-06	426.16	142.64	124.15	42.808	6.1856e-06	53.005	55.067	-56.425	-57.192	-126.420	-12.664	16.806	-126.884	-122.133	-26.238	-2.265	-122.512	-118.498	-117.827	-112.964	1.857	-113.651	-8191	255	
32165.510	1	1	0	0	0.20186	0.33043	0.10144	0.23025	0.22881	0.17506	0.14367	0.037602	0.01647	0.23173	0.21811	0.10351	0.17388	0.19183	0.095872	0.070003	-4.4479	-4.1896	-4.7833	-4.6896	-4.4187	-4.7208	-4.45	-4.6792	-4.8833	-4.2521	-4.7854	-4.6125	-4.2146	-4.8354	-4.3167	-4.4417	139.289	12.612	-34.123	165.475	-38.644	203.467	100.638	-130.850	213.061	36.303	-121.429	-54.612	98.651	213.259	32.027	196.291	0.0011556	0.00061189	0.00012907	1355.4	6.0354e-06	5.4585e-06	1353.4	365.53	7.3851e-06	5.581e-06	418.27	139.99	120.76	41.453	3.992e-06	51.248	0.00064563	0.00055148	0.00016278	1373.1	5.942e-06	5.8482e-06	1373.6	373.11	5.9951e-06	6.3916e-06	426.12	142.74	123.9	42.698	6.0032e-06	53.066	53.246	-41.580	-50.083	-126.596	-27.154	14.684	-126.760	-121.861	-15.153	10.448	-122.334	-118.593	-117.862	-113.209	4.207	-113.757	-8191	255	
32165.604	1	1	0	0	0.30542	0.15702	0.11126	0.19656	0.087427	0.25168	0.12038	0.077546	0.18538	0.10456	0.17646	0.31322	0.021823	0.10355	0.10514	0.21757	-4.2896	-3.9833	-4.7208	-4.7833	-4.2292	-4.6792	-4.5083	-4.5792	-4.6583	-4.2562	-4.6979	-4.5021	-4.1667	-4.9167	-4.3083	-4.4667	144.796	-4.774	-80.861	180.151	154.962	113.994	91.248	179.366	32.921	5.980	186.635	215.508	-86.556	115.661	3.533	192.977	0.0011077	0.0004446	0.00015477	1349.5	5.851e-06	3.5835e-06	1352	364.98	8.1912e-06	2.597e-06	418.18	139.45	121.25	41.598	5.7001e-06	51.111	0.00062711	0.00057381	0.00014241	1371.2	6.0379e-06	5.9058e-06	1370.9	372.48	5.7477e-06	5.6002e-06	426.32	142.71	123.84	42.732	6.2163e-06	52.956	52.194	-57.628	-34.657	-126.639	-22.831	13.569	-126.770	-122.212	-23.566	26.028	-122.334	-118.304	-117.761	-112.900	9.283	-113.741	-8191	255	
32165.699	1	1	0	0	0.075742	0.114	0.10754	0.17564	0.064939	0.15934	0.2368	0.012018	0.19616	0.12443	0.049125	0.19519	0.12495	0.12872	0.025278	0.13877	-4.4625	-4.15	-4.5604	-4.8521	-4.2854	-4.6521	-4.5542	-4.4375	-4.9688	-4.15	-4.6625	-4.7208	-4.3396	-4.9604	-4.4062	-4.3833	116.839	-97.338	25.300	159.714	35.484	57.860	95.150	167.084	195.346	86.029	213.640	184.135	126.803	-52.372	-135.164	-77.303	0.0011782	0.00052184	0.00015475	1354.3	5.5241e-06	5.2393e-06	1355.8	365.96	7.7782e-06	4.8338e-06	418.46	139.73	121.53	41.71	5.9435e-06	51.396	0.00063844	0.00056474	0.0001508	1372.9	6.0329e-06	5.5601e-06	1374.4	373.02	6.2292e-06	6.2272e-06	426.17	142.64	124.17	42.816	6.5046e-06	53.033	52.473	-45.417	-32.392	-126.552	-38.003	18.887	-126.636	-122.072	-15.892	-6.800	-122.450	-118.471	-117.790	-113.133	9.854	-113.818	-8191	255	
32165.795	1	1	0	0	0.23136	0.1146	0.10786	0.16762	0.062564	0.17913	0.2685	0.13231	0.26947	0.24199	0.3063	0.13787	0.31546	0.16345	0.13215	0.098832	-4.4646	-4.3396	-4.5917	-5.0167	-4.0854	-4.6937	-4.6979	-4.4896	-4.7417	-4.3187	-4.4771	-4.9021	-4.2458	-4.7792	-4.4187	-4.2688	-113.712	60.072	21.232	158.610	90.570	140.020	104.423	-124.212	-28.630	158.291	207.801	116.696	148.201	107.605	152.244	-53.594	0.0011984	0.00065175	0.00013891	1355.6	4.2099e-06	4.5688e-06	1350.2	365.32	8.3801e-06	5.6172e-06	417.71	140.14	121.32	41.482	4.6991e-06	51.524	0.00064591	0.000588	0.00015743	1374.8	6.3077e-06	6.3172e-06	1371.1	372.66	5.896e-06	6.1203e-06	426.28	142.92	124.11	42.742	6.3679e-06	53.141	51.637	-42.513	-45.644	-126.418	-22.087	5.036	-126.845	-121.941	-20.101	17.142	-122.520	-118.305	-118.006	-113.075	4.985	-113.658	-8191	255	
32165.891	1	1	0	0	0.070942	0.14962	0.24148	0.10636	0.19437	0.103	0.32983	0.20222	0.054467	0.094072	0.045281	0.24686	0.156	0.20671	0.029746	0.19408	-4.5396	-4.425	-4.4479	-4.8271	-4.2521	-4.7833	-4.7083	-4.2958	-4.8583	-4.5792	-4.4	-4.9083	-4.425	-4.5979	-4.6229	-4.3458	-98.297	40.262	190.035	-101.957	-28.180	0.359	120.016	163.528	197.551	32.687	-95.690	-16.660	199.546	199.840	26.480	94.879	0.001171	0.00049728	0.00015614	1351.2	4.9727e-06	6.7246e-06	1343.7	365.54	8.763e-06	4.8301e-06	419	139.81	121.58	41.61	5.4627e-06	51.214	0.00065082	0.00055963	0.00015182	1373.1	5.8571e-06	5.9943e-06	1370.6	373.01	6.035e-06	6.2553e-06	426.52	142.69	123.97	42.762	5.9497e-06	53.061	55.031	-48.380	-45.417	-126.518	-22.365	1.912	-126.791	-122.117	-22.188	13.955	-122.418	-118.630	-117.732	-112.781	-7.019	-113.917	-8191	255	
32165.988	1	1	0	0	0.057947	0.16939	0.090185	0.26458	0.29242	0.12714	0.22148	0.29403	0.18062	0.10761	0.18864	0.25057	0.086898	0.0277	0.15457	0.20737	-4.5417	-4.4875	-4.3271	-4.9521	-4.3375	-4.5729	-4.825	-4.2854	-4.8	-4.5521	-4.3938	-5.0125	-4.3333	-4.6854	-4.7896	-4.3104	29.251	-31.184	-29.739	-125.769	84.893	157.952	118.297	189.161	173.921	43.763	102.586	180.844	-88.595	166.724	49.956	194.436	0.0012005	0.00048745	0.00013148	1354.2	3.7394e-06	3.6057e-06	1347.3	365.45	7.5113e-06	5.3546e-06	418.17	139.8	121.15	41.574	3.5119e-06	51.133	0.00065221	0.00055683	0.00015412	1374.2	6.2227e-06	6.0439e-06	1371.2	373.16	6.353e-06	6.1564e-06	426.31	142.81	123.78	42.78	5.7548e-06	53.011	56.838	-72.501	-49.241	-126.556	-18.912	28.712	-126.820	-122.069	-20.931	13.464	-122.349	-118.421	-118.026	-112.950	-10.390	-113.968	-8191	255	
32166.107	1	1	0	0	0.083511	0.1099	0.17203	0.078756	0.20939	0.15372	0.33375	0.13305	0.34352	0.12373	0.063324	0.15803	0.1847	0.010602	0.11214	0.11228	-4.3708	-4.4917	-4.2875	-4.9271	-4.3771	-4.5813	-4.9021	-4.3729	-4.6312	-4.5708	-4.4125	-4.8812	-4.3562	-4.4812	-4.7	-4.2021	-52.258	-27.614	218.736	126.429	184.877	153.465	161.937	148.461	-63.667	219.683	52.456	107.538	-137.782	153.205	-65.950	-103.591	0.0011789	0.00064396	0.0001792	1350.2	6.5273e-06	5.2656e-06	1347.5	365.56	1.0245e-05	5.4023e-06	417.2	139.95	120.89	41.699	5.0722e-06	51.435	0.00066658	0.00056963	0.00015766	1372.8	6.2028e-06	6.3213e-06	1372.4	372.95	6.2517e-06	6.0735e-06	425.77	142.79	123.97	42.804	5.7537e-06	53.07	53.629	-56.469	-64.634	-126.491	-18.639	10.551	-126.590	-122.179	-9.349	7.486	-122.532	-118.442	-118.181	-113.031	-5.034	-114.045	-8191	255	
32166.203	1	1	0	0	0.092801	0.12802	0.21583	0.066637	0.028469	0.065566	0.2233	0.19227	0.026602	0.2001	0.1727	0.18717	0.10626	0.082704	0.097629	0.26018	-4.3438	-4.4646	-4.2083	-4.9708	-4.4583	-4.3771	-4.9646	-4.4187	-4.5979	-4.7438	-4.2312	-4.6146	-4.5938	-4.4604	-4.6354	-4.4125	161.589	28.788	49.127	123.894	85.432	205.261	143.164	-116.194	27.476	137.575	147.817	195.130	209.538	181.037	101.467	95.363	0.0011627	0.00044013	0.00011875	1350.6	6.2878e-06	5.0986e-06	1349.7	366.59	5.6406e-06	4.8439e-06	417.93	139.71	121.13	41.625	4.3541e-06	51.274	0.00064723	0.00056149	0.0001611	1371.9	6.0049e-06	6.1363e-06	1371.9	372.78	6.0728e-06	6.2459e-06	426.28	142.79	123.87	42.754	5.8312e-06	53.01	54.210	-53.649	-50.026	-126.503	-24.498	12.448	-126.566	-122.153	-15.506	12.258	-122.613	-118.335	-118.003	-113.049	-8.390	-114.071	-8191	255	
32166.301	1	1	0	0	0.051005	0.20873	0.044186	0.29434	0.10451	0.33098	0.11121	0.075636	0.046969	0.029578	0.18369	0.079238	0.23238	0.067404	0.20556	0.26827	-4.25	-4.6729	-4.1708	-4.875	-4.6021	-4.2375	-5.0563	-4.5312	-4.5188	-4.7958	-4.2792	-4.7125	-4.6521	-4.3708	-4.775	-4.2708	-121.711	-138.233	-132.263	150.007	101.031	-39.174	171.256	180.827	18.914	107.532	164.209	163.943	198.553	13.137	10.850	185.690	0.0011413	0.00045143	0.00012828	1354.2	7.022e-06	5.5907e-06	1350.3	365.48	7.8774e-06	3.3626e-06	417.36	140.14	120.48	41.48	4.9177e-06	51.296	0.00065497	0.00053369	0.00015986	1373.3	6.2457e-06	6.6013e-06	1371.9	373.18	6.2078e-06	5.9077e-06	426.37	142.94	123.51	42.719	6.1525e-06	53.023	54.128	-64.276	-39.018	-126.457	-19.494	22.451	-126.923	-122.015	-17.089	12.572	-122.537	-118.479	-118.110	-113.013	-7.820	-113.960	-8191	255	
32166.371	1	1	0	0	0.095226	0.096661	0.19017	0.16312	0.10501	0.15136	0.23539	0.16338	0.17335	0.14139	0.10106	0.15752	0.044425	0.061765	0.073146	0.1219	-4.2188	-4.8042	-4.2292	-4.7688	-4.6021	-4.3208	-5.0042	-4.4646	-4.3604	-4.8917	-4.5563	-4.9042	-4.6292	-4.2833	-4.7771	-4.5083	-70.601	31.430	-130.982	188.903	68.226	-45.726	163.299	166.487	56.689	15.711	-135.239	140.080	-35.463	194.902	188.439	209.137	0.0012218	0.00053157	0.0001243	1354.3	4.1098e-06	4.7518e-06	1350.8	366.13	8.9622e-06	4.0593e-06	416	139.95	120.91	41.429	6.1911e-06	51.586	0.00068072	0.00055869	0.00016202	1374.2	6.1528e-06	6.6858e-06	1373.9	372.99	6.7241e-06	6.0908e-06	425.95	142.81	123.94	42.727	6.2198e-06	53.103	55.118	-52.043	-56.238	-126.548	-10.554	15.936	-126.810	-122.064	-18.307	10.981	-122.657	-118.587	-117.950	-113.113	-18.141	-113.566	-8191	255	
32166.469	1	1	0	0	0.20992	0.057171	0.025793	0.095136	0.11381	0.18442	0.24487	0.13307	0.080785	0.17038	0.13399	0.034867	0.1034	0.14562	0.19071	0.14997	-3.9771	-4.8333	-4.1813	-4.8	-4.6687	-4.0813	-4.8979	-4.4437	-4.4125	-4.7438	-4.2312	-4.5375	-4.7708	-4.2896	-4.6833	-4.5813	36.140	-80.344	133.342	178.258	-27.041	-117.948	178.371	121.083	166.518	185.164	132.298	-132.336	-122.356	173.737	164.570	152.329	0.0011737	0.00057539	0.00011298	1348.3	4.7953e-06	4.0143e-06	1352.4	365.36	7.6701e-06	3.7718e-06	418.56	139.57	121.61	41.568	5.2412e-06	51.632	0.00066072	0.00055323	0.00016038	1372.3	5.7182e-06	6.2529e-06	1372.3	373.43	6.1618e-06	5.9799e-06	426.3	142.83	124	42.756	6.0146e-06	53.078	54.799	-50.263	-57.693	-126.461	-14.663	13.959	-126.797	-122.141	-30.676	14.297	-122.635	-118.584	-118.205	-113.034	14.642	-114.008	-8191	255	
32166.588	1	1	0	0	0.075263	0.12696	0.18369	0.10846	0.10621	0.13186	0.29176	0.045572	0.16163	0.20276	0.14485	0.22651	0.11303	0.29487	0.092534	0.188	-4.0083	-4.8417	-4.1979	-4.6813	-4.7	-4.3167	-4.8521	-4.6583	-4.2188	-4.7479	-4.4917	-4.6312	-4.7333	-4.1604	-4.6583	-4.6438	215.124	69.735	199.117	166.010	-0.938	149.158	92.025	98.609	-45.702	106.740	205.942	205.334	91.793	171.578	118.013	-26.898	0.0012026	0.00052565	7.4716e-05	1350.3	5.9751e-06	5.8226e-06	1353.5	365.85	6.9679e-06	6.2643e-06	417.32	139.61	121.03	41.486	4.0904e-06	51.265	0.00065823	0.00058451	0.00016461	1374.6	5.966e-06	6.4754e-06	1374.6	373.64	6.3478e-06	6.3021e-06	426.69	142.61	123.85	42.754	5.9804e-06	53.069	53.622	-59.425	-24.440	-126.424	-23.914	13.804	-126.822	-122.020	-15.333	12.173	-122.582	-118.533	-117.840	-112.945	4.325	-114.193	-8191	255	
32166.684	1	1	0	0	0.18791	0.053025	0.34251	0.28687	0.087255	0.29471	0.25841	0.31418	0.081989	0.14211	0.040104	0.22968	0.22909	0.11456	0.096559	0.13213	-3.9333	-4.6125	-4.2417	-4.5208	-4.7958	-4.1729	-4.8438	-4.7208	-4.1729	-4.8333	-4.5437	-4.4812	-4.8063	-4.25	-4.6542	-4.6583	215.965	-105.196	-110.505	193.320	83.946	123.344	143.220	197.402	98.497	1.490	216.765	-111.183	64.986	145.213	-54.743	4.898	0.0011526	0.00069869	0.0001446	1352.3	5.2486e-06	4.9261e-06	1350.2	366.63	9.0005e-06	3.855e-06	418.15	140.44	121.15	41.583	4.8262e-06	51.218	0.00067636	0.00057405	0.00017213	1374.8	5.6732e-06	6.6469e-06	1375.2	373.23	6.5196e-06	6.1256e-06	426.81	143.01	123.97	42.791	6.0078e-06	52.982	51.747	-51.446	-47.916	-126.482	-12.668	25.563	-126.805	-122.110	-29.030	30.099	-122.470	-118.380	-118.164	-113.042	-19.159	-113.803	-8191	255	
32166.779	1	1	0	0	0.1123	0.082441	0.10167	0.29453	0.076071	0.066103	0.27241	0.088226	0.26434	0.12175	0.20675	0.064202	0.11185	0.17623	0.13461	0.069508	-3.6875	-4.7	-4.3083	-4.5979	-4.7667	-4.1771	-4.6729	-4.7375	-4.2812	-4.6958	-4.5583	-4.2688	-4.7917	-4.3875	-4.625	-4.7958	-82.603	-136.643	147.850	180.347	217.998	-4.378	93.333	199.888	-82.833	177.092	186.477	-50.312	61.547	178.093	-83.899	-115.653	0.0012402	0.00056263	0.00014718	1351.7	7.3845e-06	4.6141e-06	1353.8	363.9	8.4206e-06	5.2069e-06	417.47	139.94	121.11	41.674	6.7625e-06	51.39	0.00066691	0.00055311	0.00016081	1372.5	6.3456e-06	6.5491e-06	1373.1	373.23	6.6638e-06	6.3021e-06	426.05	142.74	123.94	42.794	6.5092e-06	53.026	54.587	-53.593	-58.583	-126.448	-14.552	-7.145	-126.889	-122.147	-13.593	15.118	-122.517	-118.298	-117.885	-112.974	3.258	-114.041	-8191	255	
32166.900	1	1	0	0	0.17724	0.10543	0.16783	0.1148	0.098528	0.24084	0.12099	0.2555	0.076715	0.139	0.020087	0.22858	0.13699	0.203	0.14885	0.076279	-3.725	-4.65	-4.5542	-4.4583	-4.6708	-4.375	-4.575	-4.7979	-4.0896	-4.7063	-4.7229	-4.3625	-4.8958	-4.2396	-4.525	-4.8375	-13.697	41.003	88.086	94.527	-133.352	80.594	207.857	151.200	133.958	77.424	109.825	180.271	85.351	-133.325	-109.582	85.994	0.0012404	0.0005918	0.00016262	1358.2	4.7795e-06	4.0872e-06	1345.8	364.12	8.5302e-06	5.0674e-06	417.93	139.83	121.6	41.587	4.1181e-06	51.375	0.00067951	0.0005559	0.00017062	1374.2	5.962e-06	6.4338e-06	1371.8	372.45	6.6085e-06	6.1884e-06	426.56	142.85	123.95	42.724	6.2631e-06	53.127	51.533	-55.567	-48.353	-126.617	-17.466	42.900	-126.779	-122.053	-28.135	23.939	-122.688	-118.415	-118.099	-112.913	-17.122	-113.983	-8191	255	
32166.973	1	1	0	0	0.092563	0.19157	0.20966	0.32187	0.1206	0.2672	0.24009	0.26813	0.11671	0.099351	0.20371	0.2377	0.13316	0.11247	0.087285	0.1014	-3.8146	-4.4958	-4.6208	-4.4313	-4.7542	-4.2771	-4.5042	-4.8521	-4.2792	-4.5542	-4.6917	-4.0354	-4.9208	-4.5062	-4.2583	-4.9104	-96.699	62.448	22.250	198.097	-69.809	-123.034	211.518	146.328	-89.914	135.127	199.484	153.266	112.360	-121.297	-64.011	206.252	0.001163	0.00051026	0.00013327	1354	6.7995e-06	4.565e-06	1349.2	365.78	9.6099e-06	4.3158e-06	416.98	140.04	120.82	41.506	4.5473e-06	51.573	0.00067807	0.00058358	0.00015146	1374.5	6.3916e-06	6.3454e-06	1372.3	373.38	6.4491e-06	6.0721e-06	425.98	142.91	123.55	42.648	6.3451e-06	53.154	54.313	-54.978	-51.385	-126.731	-23.471	11.794	-126.707	-121.928	-24.415	-1.712	-122.411	-118.117	-117.848	-113.005	-22.943	-113.933	-8191	255	
32167.068	1	1	0	0	0.2644	0.18986	0.2562	0.23121	0.15522	0.17378	0.059627	0.24819	0.028981	0.12142	0.089349	0.1705	0.15236	0.22016	0.147	0.10025	-3.8354	-4.55	-4.7188	-4.2542	-4.625	-4.4458	-4.4958	-4.9625	-4.3521	-4.5646	-4.9187	-4.1687	-4.8229	-4.7625	-4.2625	-4.9208	136.952	9.802	1.158	186.825	213.267	-111.370	90.363	155.106	76.545	188.441	119.393	133.884	146.459	16.227	145.981	149.735	0.0011736	0.00062377	0.00014634	1355.2	5.2057e-06	5.5163e-06	1352.3	366.47	6.9337e-06	5.182e-06	418	139.88	121.77	41.447	4.4236e-06	51.385	0.00065801	0.00056463	0.00015625	1375	6.1918e-06	6.5518e-06	1374.3	373.4	6.5595e-06	6.4277e-06	425.85	142.55	123.99	42.726	6.3725e-06	53.077	55.079	-45.654	-35.709	-126.480	-8.475	-1.902	-126.726	-122.208	-10.211	9.060	-122.401	-118.783	-117.914	-112.931	-8.398	-113.949	-8191	255	
32167.189	1	1	0	0	0.1025	0.18106	0.16949	0.10239	0.14623	0.083505	0.059908	0.43398	0.16251	0.069084	0.11628	0.051912	0.11397	0.087593	0.18834	0.062597	-4.0917	-4.5167	-4.7375	-4.3688	-4.6396	-4.4625	-4.4125	-4.8417	-4.1667	-4.3625	-4.8875	-4.2625	-4.7479	-4.6958	-4.0521	-4.8708	59.876	-79.426	177.013	204.841	92.557	169.462	95.917	202.844	-16.082	-15.579	121.903	0.681	34.564	79.912	-129.261	34.184	0.0012239	0.00053126	0.00013578	1350.5	5.7645e-06	5.0474e-06	1346	366.83	8.551e-06	4.3631e-06	416.76	139.6	121.8	41.594	4.3338e-06	51.444	0.0006873	0.00056463	0.00015592	1373.6	6.0189e-06	6.2275e-06	1372.1	373.58	6.5799e-06	6.2179e-06	425.77	142.54	124.01	42.788	6.6459e-06	53.063	52.795	-60.308	-43.843	-126.703	-23.736	9.561	-126.843	-122.145	-11.999	4.382	-122.624	-118.671	-117.979	-113.132	4.316	-114.113	-8191	255	
32167.285	1	1	0	0	0.053581	0.08455	0.071171	0.18585	0.31073	0.2056	0.1159	0.26467	0.075225	0.1401	0.012222	0.078411	0.068134	0.09128	0.047817	0.095468	-4.0625	-4.3167	-4.7708	-4.2958	-4.4708	-4.7292	-4.3604	-4.8854	-4.4563	-4.3	-5.1104	-4.2354	-4.4583	-4.8167	-4.3396	-4.7146	-90.820	-27.430	-73.795	-133.762	137.763	132.917	212.609	174.089	181.595	-104.869	188.513	-131.677	-80.750	-111.192	91.910	82.123	0.0011881	0.00038016	0.00013482	1351.6	4.9417e-06	4.0975e-06	1352.2	365.83	9.1901e-06	6.1548e-06	416.68	139.78	121.55	41.493	6.5716e-06	51.842	0.00067487	0.00057416	0.00015015	1374.3	6.1228e-06	6.0747e-06	1373.1	373.68	6.4092e-06	6.3769e-06	426.04	142.78	123.99	42.742	6.573e-06	53.21	52.663	-56.792	-53.360	-126.449	-21.961	8.825	-126.901	-122.338	-19.242	21.932	-122.509	-118.680	-117.974	-112.783	-6.585	-113.943	-8191	255	
32167.381	1	1	0	0	0.022513	0.22073	0.063159	0.2217	0.17126	0.11117	0.16066	0.44488	0.13237	0.18644	0.28685	0.15219	0.26172	0.020934	0.27328	0.14081	-4.1521	-4.3208	-4.8562	-4.4104	-4.5667	-4.775	-4.4313	-4.8187	-4.6667	-4.3896	-4.8812	-4.4771	-4.4979	-4.8792	-4.2312	-4.7125	207.695	-60.968	133.861	166.150	190.497	33.289	163.689	182.880	44.571	130.683	162.097	206.945	-96.288	157.389	181.442	137.569	0.0011366	0.00054702	0.00012298	1353.6	5.6948e-06	5.1944e-06	1352.1	366.56	8.1643e-06	5.5015e-06	418.48	139.87	120.86	41.459	4.2051e-06	51.522	0.00066149	0.00058905	0.00015904	1373.1	6.1138e-06	6.0666e-06	1374.2	373.6	6.4695e-06	6.4077e-06	426.76	142.75	123.77	42.661	6.1411e-06	53.057	52.574	-54.112	-42.393	-126.561	-30.966	21.019	-126.942	-121.912	-13.717	10.999	-122.543	-118.318	-117.873	-112.914	-11.170	-113.908	-8191	255	
32167.500	1	1	0	0	0.096126	0.088088	0.17064	0.21286	0.17784	0.11516	0.12618	0.17309	0.067228	0.089536	0.24619	0.19731	0.11253	0.11278	0.22632	0.010027	-4.3438	-4.3042	-4.8083	-4.5875	-4.425	-4.7937	-4.5042	-4.6792	-4.4458	-4.2167	-4.9042	-4.5292	-4.3187	-4.9167	-4.375	-4.5333	189.871	-25.026	101.552	122.675	138.100	57.478	197.127	137.309	177.031	209.102	126.121	-119.042	-88.500	-124.574	42.393	194.780	0.0011757	0.00049201	0.00013579	1347.9	7.0287e-06	6.04e-06	1344.1	366.3	9.1857e-06	5.1116e-06	418.04	140.01	120.85	41.59	4.6103e-06	51.178	0.00064552	0.00057823	0.0001571	1373	6.1948e-06	6.2878e-06	1370.9	373.16	6.0769e-06	6.5668e-06	426.27	142.65	123.9	42.76	6.3747e-06	53.019	52.524	-39.337	-43.726	-126.567	-8.327	16.557	-127.026	-121.936	-28.869	-4.179	-122.559	-118.638	-117.897	-112.998	1.447	-113.754	-8191	255	
32167.596	1	1	0	0	0.17463	0.12325	0.095762	0.18072	0.11657	0.29029	0.15216	0.12914	0.18225	0.16088	0.37839	0.14926	0.098964	0.058167	0.052718	0.38526	-4.3562	-4.0125	-4.7792	-4.5021	-4.2688	-4.7396	-4.3458	-4.6208	-4.6208	-4.0396	-4.7417	-4.7063	-4.3521	-5.0062	-4.4062	-4.6354	-90.969	-105.348	207.602	171.137	69.323	-57.826	177.023	-111.872	-71.782	218.205	180.484	153.721	56.539	173.316	20.499	128.760	0.0011459	0.00056446	9.9884e-05	1352.3	4.5369e-06	4.7454e-06	1350.3	366.53	8.1939e-06	5.3398e-06	417.8	140.06	120.64	41.53	6.2383e-06	51.533	0.00064287	0.00059754	0.00016356	1372.7	6.5265e-06	6.3481e-06	1372.4	373.32	6.2272e-06	6.5935e-06	426.7	142.63	123.7	42.722	6.3155e-06	53.095	54.457	-48.890	-53.271	-126.580	-17.981	6.840	-126.801	-122.015	-33.296	13.493	-122.521	-118.604	-117.763	-112.890	2.127	-113.797	-8191	255	
32167.668	1	1	0	0	0.18185	0.072186	0.057798	0.20563	0.067877	0.072933	0.072806	0.198	0.068382	0.044321	0.28482	0.10244	0.1758	0.13172	0.055261	0.18568	-4.4771	-4.1083	-4.7583	-4.6312	-4.2188	-4.8479	-4.5188	-4.5375	-4.8021	-4.1438	-4.8521	-4.7146	-4.3271	-5.0729	-4.4167	-4.3833	190.485	63.890	88.658	158.223	103.218	121.737	161.257	172.217	31.285	-23.002	177.769	173.200	88.142	171.128	-27.080	-72.738	0.0011801	0.00041288	0.00012472	1356.9	5.6255e-06	4.2823e-06	1349.7	365.91	7.5713e-06	4.8214e-06	417.65	139.56	120.5	41.416	4.7429e-06	51.266	0.00064845	0.0005744	0.00015513	1375.9	6.3476e-06	5.6271e-06	1371.8	373.61	6.1976e-06	6.397e-06	425.73	142.74	123.58	42.651	6.3918e-06	53.054	53.779	-53.166	-59.356	-126.535	-15.754	0.851	-126.885	-122.115	-26.197	6.244	-122.483	-118.539	-117.879	-113.051	3.583	-113.698	-8191	255	
32167.764	1	1	0	0	0.084575	0.075726	0.085813	0.065783	0.26118	0.25954	0.1846	0.29063	0.28797	0.24218	0.1756	0.18533	0.07584	0.074162	0.030506	0.16553	-4.5042	-4.0687	-4.4729	-4.6375	-4.2229	-4.8229	-4.4812	-4.4896	-4.875	-4.1813	-4.7667	-4.6312	-4.0667	-4.8521	-4.4854	-4.3167	-37.930	-132.713	28.076	125.975	173.670	-29.488	166.058	169.574	-137.993	38.378	202.907	-103.599	136.268	192.763	50.362	175.185	0.0012031	0.00068478	9.9834e-05	1350.7	5.6763e-06	5.3022e-06	1348.9	365.64	7.0513e-06	3.5138e-06	417.85	139.8	120.9	41.558	6.8105e-06	51.374	0.00066083	0.00061405	0.00015595	1372.5	6.5335e-06	5.8294e-06	1372.6	372.71	6.1229e-06	6.0975e-06	426.33	142.72	123.77	42.704	6.3337e-06	53.114	52.900	-54.295	-37.182	-126.566	0.276	1.678	-126.797	-122.140	-17.928	5.673	-122.405	-118.744	-117.736	-112.993	-14.855	-113.888	-8191	255	
32167.885	1	1	0	0	0.13974	0.05059	0.10215	0.17774	0.11166	0.30473	0.18423	0.21503	0.1401	0.14984	0.051129	0.23607	0.085197	0.031479	0.078467	0.026669	-4.4917	-4.1667	-4.6687	-5.0021	-4.1667	-4.7042	-4.6146	-4.4896	-4.95	-4.0979	-4.5667	-4.8729	-4.1312	-4.6458	-4.5292	-4.3917	136.335	22.566	215.398	124.654	130.792	25.260	168.344	162.292	-131.999	94.474	36.812	-95.576	153.075	-99.769	-90.314	-71.343	0.0011505	0.0005115	9.1611e-05	1355.8	5.5486e-06	5.9421e-06	1350.2	365.08	7.9247e-06	5.8901e-06	415.29	139.06	120.56	41.656	4.8928e-06	51.383	0.00066365	0.00058475	0.00015582	1374.3	6.6264e-06	6.2636e-06	1373.1	372.93	6.0146e-06	6.1791e-06	425.72	142.57	123.55	42.747	6.1206e-06	53.107	55.030	-50.824	-48.791	-126.563	0.399	17.395	-126.777	-122.082	-30.663	9.977	-122.556	-118.475	-117.753	-113.218	7.605	-114.172	-8191	255	
32167.980	1	1	0	0	0.37511	0.17918	0.17416	0.14273	0.1133	0.13397	0.35475	0.1773	0.10592	0.27072	0.32795	0.18793	0.1741	0.19624	0.082971	0.21885	-4.3938	-4.1792	-4.3979	-4.9833	-4.2271	-4.8146	-4.6167	-4.3979	-4.8854	-4.4875	-4.4271	-4.8896	-4.2958	-4.8208	-4.6583	-4.2958	73.673	169.567	-78.885	205.387	156.325	-55.902	150.071	191.821	5.902	54.533	-99.446	188.940	173.965	184.085	-134.777	169.265	0.0011512	0.00052103	0.00014246	1351.9	4.6401e-06	3.687e-06	1351.7	366.9	8.4866e-06	4.7961e-06	415.95	139.85	121.11	41.291	4.0421e-06	51.259	0.00065011	0.00057835	0.00016183	1372.9	6.4755e-06	5.8723e-06	1372.6	373.14	5.9706e-06	6.4665e-06	425.71	142.66	123.66	42.652	5.9394e-06	53.064	55.478	-61.196	-46.150	-126.498	-4.729	20.409	-126.861	-121.997	-17.082	5.466	-122.392	-118.235	-117.989	-113.081	-8.130	-113.822	-8191	255	
32168.076	1	1	0	0	0.15633	0.30846	0.064427	0.26901	0.10368	0.13819	0.34251	0.16438	0.21502	0.12115	0.13247	0.24478	0.14602	0.158	0.033216	0.060763	-4.5792	-4.4313	-4.2812	-4.8917	-4.0896	-4.5958	-4.8354	-4.3562	-4.7542	-4.6375	-4.425	-4.9229	-4.4958	-4.6167	-4.7625	-4.2583	-41.257	-35.168	3.791	25.345	93.965	206.039	88.729	149.961	136.095	-48.985	124.628	167.201	184.136	72.661	15.456	64.633	0.0011265	0.00049676	0.00014731	1348.4	5.8139e-06	3.6509e-06	1352.5	365.91	8.0548e-06	6.3491e-06	416.75	139.67	120.76	41.474	5.608e-06	51.574	0.00065558	0.00056846	0.00016179	1371.8	6.2517e-06	6.592e-06	1372.6	372.69	6.4583e-06	6.1363e-06	426.17	142.71	123.51	42.669	6.0807e-06	53.097	52.326	-45.289	-36.664	-126.598	-9.238	16.104	-127.048	-121.948	-24.514	14.056	-122.598	-118.845	-117.943	-113.020	3.236	-113.848	-8191	255	
32168.174	1	1	0	0	0.30415	0.16612	0.061404	0.12336	0.029363	0.13472	0.29016	0.051501	0.15903	0.056532	0.16303	0.1343	0.14856	0.20967	0.26506	0.075008	-4.3833	-4.5229	-4.1646	-5.0729	-4.3479	-4.4938	-4.9187	-4.3479	-4.6312	-4.4833	-4.4958	-4.8396	-4.6083	-4.3792	-4.8208	-4.3562	77.980	-33.031	-74.503	193.433	-105.473	-61.391	180.146	-138.472	49.444	182.105	-128.929	-108.650	40.005	163.780	-80.915	139.902	0.0011448	0.00056336	0.00016473	1354.8	6.159e-06	5.1764e-06	1349.9	368.13	7.7975e-06	5.0054e-06	417.92	139.32	121	41.603	4.1777e-06	51.284	0.00065265	0.00055963	0.00016271	1374.8	6.2867e-06	6.0666e-06	1372.8	373.79	6.3509e-06	5.8435e-06	426.24	142.72	123.92	42.769	6.2254e-06	53.012	52.565	-46.567	-58.846	-126.504	-12.807	6.685	-126.974	-122.080	-22.494	3.396	-122.490	-118.466	-118.116	-113.073	-23.313	-113.877	-8191	255	
32168.270	1	1	0	0	0.13542	0.067326	0.080182	0.13276	0.16089	0.097176	0.056704	0.21647	0.019719	0.078274	0.21882	0.14619	0.14098	0.21363	0.11085	0.17967	-4.3542	-4.5542	-4.3042	-5.0833	-4.2937	-4.4563	-5.0854	-4.2063	-4.6687	-4.7979	-4.3875	-4.8083	-4.4708	-4.3688	-4.8688	-4.4542	185.676	-92.571	219.014	206.652	59.298	-47.855	78.741	166.401	-47.448	94.545	204.801	-135.891	-124.179	179.403	95.785	139.017	0.0011643	0.00057629	0.00012265	1349.6	6.4386e-06	4.1468e-06	1349.7	365.49	1.2196e-05	4.1369e-06	416.48	139.63	120.95	41.848	5.0473e-06	51.38	0.0006448	0.0005402	0.00016891	1372.6	6.1678e-06	6.4459e-06	1373.6	373.12	6.1199e-06	5.9558e-06	426.36	142.44	123.71	42.786	6.2004e-06	53.053	51.163	-49.989	-49.113	-126.472	-5.503	10.394	-126.788	-122.092	-35.652	11.897	-122.577	-118.495	-117.697	-113.282	-18.493	-113.900	-8191	255	
32168.365	1	1	0	0	0.080024	0.29438	0.12767	0.23164	0.14068	0.22496	0.401	0.40127	0.15697	0.27272	0.1688	0.11786	0.06981	0.072527	0.11012	0.25599	-4.2375	-4.5	-4.1937	-4.8542	-4.3417	-4.3292	-5.15	-4.5062	-4.4792	-4.6833	-4.3083	-4.9563	-4.7188	-4.3417	-4.8354	-4.4479	-37.631	-97.609	179.015	-91.409	-33.690	158.942	200.298	141.595	180.964	212.662	71.196	159.043	-112.337	154.241	153.800	159.605	0.0011815	0.0005598	0.00012679	1355.1	7.3445e-06	4.5844e-06	1354	366.48	6.5024e-06	4.3995e-06	418.54	139.58	121.45	41.454	4.7226e-06	51.595	0.00067779	0.00054869	0.0001612	1373.6	6.3017e-06	6.3079e-06	1375.6	373.43	5.9563e-06	6.3088e-06	427.02	142.51	123.85	42.732	6.1662e-06	53.16	50.883	-52.937	-56.453	-126.450	-23.763	-3.604	-126.757	-122.009	-24.296	5.897	-122.507	-118.512	-117.812	-112.962	-8.686	-113.893	-8191	255	
32168.461	1	1	0	0	0.05749	0.22977	0.031298	0.15102	0.10083	0.23359	0.15061	0.13178	0.04371	0.15197	0.10949	0.13088	0.12348	0.14016	0.21898	0.18664	-4.1208	-4.7792	-4.2458	-4.8229	-4.6	-4.2312	-5.0417	-4.4833	-4.3812	-4.6875	-4.2208	-4.6958	-4.6937	-4.2125	-4.6042	-4.5146	-3.982	93.287	-25.442	184.828	81.991	-74.260	132.879	147.269	130.048	212.756	123.905	12.676	-43.750	217.802	211.047	-83.727	0.001147	0.00043501	0.00010313	1352.8	6.0517e-06	5.5624e-06	1348.9	365.63	9.2448e-06	5.2506e-06	416.79	139.82	121.17	41.444	4.3561e-06	51.438	0.00067277	0.00058277	0.00017268	1374	6.0909e-06	6.4405e-06	1373.8	373.3	6.3652e-06	6.2967e-06	426.78	142.63	123.97	42.657	5.9052e-06	53.14	51.393	-41.399	-37.591	-126.562	-34.476	18.335	-126.736	-122.025	-36.375	18.176	-122.596	-118.461	-117.820	-112.882	-11.973	-113.687	-8191	255	
32168.582	1	1	0	0	0.082946	0.075009	0.084594	0.14871	0.088446	0.040354	0.21667	0.35378	0.11633	0.049193	0.19255	0.27541	0.1084	0.22225	0.16364	0.18308	-4.1333	-4.8542	-4.2771	-4.7208	-4.6375	-4.2396	-4.9604	-4.425	-4.2812	-4.9333	-4.4437	-4.7	-4.75	-4.3333	-4.7604	-4.5833	200.322	-46.025	104.510	83.543	-94.204	127.436	-117.121	199.840	90.047	154.492	148.268	122.216	82.604	-37.807	112.241	153.183	0.0011908	0.00045929	0.00013617	1349.5	5.7106e-06	3.9907e-06	1349.2	366.79	8.5544e-06	4.498e-06	418.63	139.69	121.15	41.569	4.7273e-06	51.468	0.00064165	0.00055742	0.00016081	1372.9	6.0459e-06	6.537e-06	1373.3	373.23	6.5145e-06	6.0146e-06	426.87	142.66	123.85	42.683	6.279e-06	53.132	52.269	-39.203	-41.858	-126.686	-0.061	0.901	-126.749	-122.210	-23.950	19.924	-122.512	-118.648	-117.662	-113.156	1.730	-113.974	-8191	255	
32168.676	1	1	0	0	0.06183	0.06932	0.11845	0.12053	0.10836	0.14664	0.2734	0.15314	0.1558	0.1588	0.27138	0.18145	0.11264	0.1404	0.092984	0.23137	-3.7833	-4.7104	-4.0479	-4.7125	-4.5354	-4.3125	-4.75	-4.7229	-4.2896	-4.8	-4.4271	-4.5708	-4.7812	-4.2417	-4.8375	-4.6354	156.933	108.400	-41.343	-133.488	-60.554	-134.911	92.700	-121.058	-14.115	193.195	185.442	-137.870	125.756	173.540	-48.725	131.225	0.0011983	0.00057633	0.00015238	1350.8	5.1351e-06	4.2183e-06	1349.3	366.76	9.3784e-06	6.0112e-06	419.2	140.32	121.4	41.409	4.8862e-06	51.367	0.0006742	0.00053637	0.00017282	1372.3	6.2138e-06	6.6214e-06	1373	373.66	6.5431e-06	6.1283e-06	426.92	142.83	123.93	42.687	5.9337e-06	53.089	54.053	-54.209	-43.532	-126.603	-21.354	7.569	-126.770	-122.131	-18.421	-1.428	-122.527	-118.552	-118.118	-113.027	1.959	-114.090	-8191	255	
32168.773	1	1	0	0	0.10448	0.2945	0.14491	0.40187	0.090872	0.10192	0.092905	0.16974	0.090946	0.1998	0.22945	0.28581	0.17929	0.32686	0.1255	0.078108	-4.0229	-4.7396	-4.5167	-4.5229	-4.6875	-4.1417	-4.7833	-4.7542	-4.1729	-4.7354	-4.4688	-4.4729	-4.6521	-4.1292	-4.525	-4.8521	91.919	36.257	34.910	186.905	63.710	88.756	5.610	85.078	213.905	-70.057	168.779	154.803	-30.793	164.553	48.104	-91.492	0.0010998	0.00051174	0.00014464	1353.1	5.7883e-06	5.5379e-06	1350	365.17	8.9974e-06	4.755e-06	418.17	139.97	120.97	41.661	4.9782e-06	51.264	0.00066923	0.00052927	0.00015251	1374.9	6.1738e-06	6.789e-06	1373.2	372.99	6.7394e-06	6.0922e-06	426.87	142.84	123.65	42.731	6.1696e-06	53.1	55.329	-58.901	-52.363	-126.350	-24.151	9.795	-126.871	-121.970	-9.341	17.928	-122.543	-118.219	-117.779	-112.904	-20.422	-113.860	-8191	255	
32168.869	1	1	0	0	0.12482	0.11764	0.20392	0.056383	0.2128	0.12725	0.24515	0.43866	0.035554	0.19721	0.23786	0.070484	0.1156	0.22576	0.036054	0.15387	-3.925	-4.7417	-4.3042	-4.6125	-4.8875	-4.3333	-4.7312	-4.8521	-4.2354	-4.8146	-4.6354	-4.4708	-4.8542	-4.4062	-4.3625	-4.8333	110.317	181.325	134.533	28.247	179.349	162.296	112.620	129.192	155.613	113.128	200.959	-7.746	143.256	80.106	170.281	131.651	0.0011962	0.00050957	0.00014399	1353.5	6.2061e-06	3.8925e-06	1354.1	365.94	8.299e-06	5.2889e-06	417.57	139.51	121.08	41.491	4.7431e-06	51.172	0.0006763	0.00054183	0.00015303	1374.2	5.964e-06	6.3521e-06	1374.3	373.43	6.9101e-06	6.1243e-06	426.76	142.82	123.74	42.691	6.1012e-06	52.996	51.280	-37.473	-51.177	-126.562	-16.345	23.158	-126.737	-122.078	-18.102	21.758	-122.827	-118.295	-117.987	-112.913	-11.925	-113.715	-8191	255	
32168.965	1	1	0	0	0.21481	0.19177	0.25658	0.11391	0.17937	0.13721	0.16327	0.23137	0.17396	0.094504	0.074721	0.085222	0.032614	0.26042	0.061099	0.16771	-3.9562	-4.6375	-4.3	-4.4042	-4.7792	-4.3688	-4.6646	-4.8125	-4.2042	-4.7562	-4.7958	-4.3292	-4.8875	-4.4458	-4.2875	-4.7833	187.267	25.888	95.409	195.556	84.600	-5.071	122.015	154.044	53.474	134.957	-138.715	91.804	38.946	-86.774	-135.356	165.467	0.0011924	0.00055423	0.00012392	1348.8	4.7717e-06	3.962e-06	1357.8	366.01	7.6158e-06	4.1185e-06	417.21	139.61	121.37	41.585	5.0159e-06	51.361	0.00070836	0.00055241	0.00015878	1373.1	6.1498e-06	6.1524e-06	1375.4	372.93	6.673e-06	6.0708e-06	426.2	142.58	123.9	42.693	6.6836e-06	53.054	54.097	-59.435	-52.804	-126.358	-31.842	7.842	-127.048	-122.043	-16.073	13.563	-122.217	-118.508	-117.755	-113.144	-0.760	-113.914	-8191	255	
32169.061	1	1	0	0	0.13176	0.12023	0.072154	0.25016	0.11329	0.047128	0.19664	0.20658	0.1525	0.20024	0.31316	0.11902	0.34231	0.070597	0.089551	0.10349	-3.8396	-4.6271	-4.5604	-4.4792	-4.7854	-4.3063	-4.6188	-4.8104	-4.2	-4.4792	-4.8688	-4.1729	-4.7792	-4.6667	-4.3917	-4.8417	-94.724	-72.153	163.728	172.664	-65.822	73.778	189.247	155.312	80.608	179.759	162.120	196.020	209.143	44.475	33.103	137.437	0.0011553	0.00047963	0.00012257	1354	5.3483e-06	4.8647e-06	1352.3	365.33	9.7733e-06	4.3939e-06	415.69	139.46	120.7	41.576	4.3906e-06	51.324	0.00068139	0.00061149	0.00016806	1372.9	6.0099e-06	6.4177e-06	1374.9	373.04	6.8232e-06	6.1042e-06	426.14	142.66	123.56	42.759	6.4044e-06	53.078	53.034	-49.083	-46.389	-126.562	-23.079	18.905	-126.801	-122.063	-18.896	28.402	-122.593	-118.507	-117.978	-112.859	-1.019	-113.890	-8191	255	
32169.182	1	1	0	0	0.23633	0.13351	0.17201	0.31023	0.10994	0.059701	0.25595	0.016283	0.025662	0.050712	0.19703	0.059185	0.068141	0.069505	0.18467	0.057003	-3.8542	-4.4958	-4.7021	-4.2625	-4.6792	-4.4604	-4.5292	-4.9104	-4.275	-4.6438	-4.7146	-4.1604	-4.9313	-4.6062	-4.3375	-4.9354	1.537	47.997	-103.688	203.267	198.816	28.431	198.782	-11.779	-28.165	3.184	199.602	158.843	-131.755	-6.752	-19.755	171.754	0.0012114	0.00048859	0.000156	1350.9	5.6418e-06	4.9768e-06	1351.1	365.22	7.5532e-06	4.912e-06	416.93	139.45	120.94	41.347	6.6132e-06	51.542	0.00067393	0.00054613	0.00015907	1373.9	6.2227e-06	6.2904e-06	1373.2	373.3	6.4879e-06	6.4759e-06	426.27	142.61	123.73	42.658	6.344e-06	53.083	53.743	-62.293	-64.040	-126.444	-22.366	20.228	-126.839	-122.127	-16.420	22.075	-122.606	-118.665	-117.860	-113.163	-26.677	-113.836	-8191	255	
32169.277	1	1	0	0	0.22136	0.093237	0.22663	0.15038	0.17377	0.084795	0.11708	0.059018	0.11208	0.014217	0.11272	0.20294	0.013194	0.083131	0.16757	0.25469	-3.8979	-4.4417	-4.8812	-4.3958	-4.7167	-4.6021	-4.1896	-5.025	-4.2646	-4.3479	-4.9646	-4.3333	-4.6542	-4.5417	-4.2729	-4.9292	-95.886	171.123	-37.836	201.192	-128.706	-104.768	55.760	161.865	-139.270	-38.534	139.163	112.767	95.559	205.809	106.730	88.588	0.0010814	0.00044754	0.00014589	1355	4.439e-06	4.2047e-06	1353.4	366.3	7.208e-06	5.6301e-06	420.07	139.67	120.84	41.497	6.3644e-06	51.488	0.00066149	0.00058742	0.0001615	1373.7	6.1408e-06	6.5129e-06	1374.8	373.15	6.2967e-06	6.7981e-06	426.93	142.54	123.84	42.766	6.3155e-06	53.041	53.272	-47.038	-24.136	-126.725	-14.937	6.753	-126.852	-122.030	2.013	18.654	-122.659	-118.419	-117.689	-112.996	-0.615	-113.734	-8191	255	
32169.373	1	1	0	0	0.26975	0.082671	0.29384	0.049398	0.051187	0.1155	0.30838	0.053959	0.10761	0.14464	0.10338	0.24895	0.13265	0.22524	0.1813	0.18775	-3.9437	-4.3396	-4.8667	-4.4396	-4.5521	-4.7229	-4.2771	-4.9708	-4.375	-4.4271	-4.8958	-4.1979	-4.6188	-4.6438	-4.0521	-4.7812	43.707	-69.344	162.815	61.399	3.683	26.058	162.883	160.925	-104.382	47.168	141.411	-139.045	-41.300	176.575	126.513	-92.734	0.0011187	0.00051946	0.00016601	1350.6	6.5465e-06	4.3669e-06	1347.8	366.96	8.1664e-06	5.3202e-06	417.76	139.15	121.52	41.499	5.8987e-06	51.816	0.00066713	0.00058428	0.00015349	1373.7	6.2457e-06	6.5705e-06	1373.3	373.44	6.3908e-06	6.5842e-06	426.65	142.74	123.89	42.74	6.3565e-06	53.158	54.297	-56.210	-54.059	-126.483	-15.331	24.810	-126.790	-121.888	-15.634	26.416	-122.315	-118.311	-117.997	-113.091	8.829	-113.829	-8191	255	
32169.469	1	1	0	0	0.20262	0.087651	0.030857	0.25135	0.066806	0.22806	0.22278	0.14852	0.19312	0.046182	0.052987	0.26237	0.1465	0.25848	0.12688	0.32849	-4.0417	-4.4062	-4.8125	-4.4062	-4.5271	-4.7271	-4.3458	-4.775	-4.5542	-4.1562	-5.1062	-4.5729	-4.5354	-4.8292	-4.1937	-4.7812	168.045	3.582	-104.227	135.372	-106.309	216.095	-132.930	197.263	-3.248	-5.691	197.381	176.942	81.207	186.513	-52.799	177.270	0.0011688	0.00061591	0.00016225	1354.3	6.4326e-06	5.2068e-06	1353.4	365.47	7.8611e-06	5.3151e-06	415.25	139.61	121.37	41.42	3.4839e-06	51.259	0.00066503	0.00063906	0.00015812	1375.4	6.4016e-06	6.2757e-06	1373.1	372.91	6.2885e-06	6.5347e-06	425.85	142.62	123.96	42.689	6.6026e-06	53.05	53.329	-39.699	-51.320	-126.669	-11.607	14.717	-126.811	-121.935	-25.833	4.660	-122.488	-118.558	-118.031	-112.994	2.743	-113.872	-8191	255	
32169.564	1	1	0	0	0.076861	0.14666	0.01233	0.17904	0.063755	0.026547	0.15183	0.19547	0.13547	0.075928	0.25899	0.11519	0.21505	0.26893	0.18479	0.19596	-4.2958	-4.15	-4.7	-4.5167	-4.3063	-4.7896	-4.4417	-4.7292	-4.7063	-4.2	-4.8646	-4.4125	-4.4667	-5.0208	-4.2562	-4.6333	218.978	107.250	81.520	208.429	-4.217	-16.689	141.115	115.911	-83.491	176.825	188.894	157.165	-92.395	210.593	156.378	99.014	0.001131	0.00047134	9.6455e-05	1354.9	6.5514e-06	5.0149e-06	1351.3	365.97	8.5067e-06	3.8637e-06	418.43	139.72	121.25	41.507	4.5901e-06	51.462	0.0006532	0.00059742	0.00015294	1373.4	6.2857e-06	6.1511e-06	1373.2	373.12	6.6607e-06	6.4064e-06	426.41	142.69	123.89	42.753	6.1195e-06	53.073	56.169	-56.897	-64.696	-126.384	-17.520	10.871	-126.825	-122.027	-26.267	5.662	-122.611	-118.653	-117.848	-113.029	-1.390	-114.077	-8191	255	
#DATA ENDS
