BOXY.EXE: ISS Imagent and Oximeter Data Acquisition Program Version 0.80
Ascii Record File

#ACQ INFORMATION
2  Detector Channels 
16  External MUX Channels 
1  Auxiliary Channels 
5000  Waveform (CCF) Frequency (Hz)
1  Waveforms Skipped 
30  Waveforms Averaged 
1  Cycles Averaged 
16  Acquisitions per Waveform 
10.0806  Updata Rate (Hz) 

#FILE INFORMATION
TRUE -- External MUX Channel results are PARSED.
FALSE -- AC DC and Phase are NOT grouped.
TRUE -- Companion Program Settings File CREATED.
FALSE -- AC data not excluded
FALSE -- DC data not excluded
FALSE -- Phase data not excluded
FALSE -- Auxillary Chn. data not excluded
Tab delimiters

#CALIBRATION STATE
TRUE -- Waveform Calibration Values APPLIED.


#AUX CALIBRATION VALUES
Val Type	aux-1	

Term	1.0000e+00	
Factor	0.0000e+00	


#WF CALIBRATION VALUES
A = Detector Channel
Val Type	A-AC1	A-AC2	A-AC3	A-AC4	A-AC5	A-AC6	A-AC7	A-AC8	A-AC9	A-AC10	A-AC11	A-AC12	A-AC13	A-AC14	A-AC15	A-AC16	A-DC1	A-DC2	A-DC3	A-DC4	A-DC5	A-DC6	A-DC7	A-DC8	A-DC9	A-DC10	A-DC11	A-DC12	A-DC13	A-DC14	A-DC15	A-DC16	A-Ph1	A-Ph2	A-Ph3	A-Ph4	A-Ph5	A-Ph6	A-Ph7	A-Ph8	A-Ph9	A-Ph10	A-Ph11	A-Ph12	A-Ph13	A-Ph14	A-Ph15	A-Ph16	

Term	0.00000e+00	0.00000e+00	0.00000e+00	0.00000e+00	0.00000e+00	0.00000e+00	0.00000e+00	0.00000e+00	0.00000e+00	0.00000e+00	0.00000e+00	0.00000e+00	0.00000e+00	0.00000e+00	0.00000e+00	0.00000e+00	0.00000e+00	0.00000e+00	0.00000e+00	0.00000e+00	0.00000e+00	0.00000e+00	0.00000e+00	0.00000e+00	0.00000e+00	0.00000e+00	0.00000e+00	0.00000e+00	0.00000e+00	0.00000e+00	0.00000e+00	0.00000e+00	0.00000e+00	0.00000e+00	0.00000e+00	0.00000e+00	0.00000e+00	0.00000e+00	0.00000e+00	0.00000e+00	0.00000e+00	0.00000e+00	0.00000e+00	0.00000e+00	0.00000e+00	0.00000e+00	0.00000e+00	0.00000e+00	
Factor	1.00000e+00	1.00000e+00	1.00000e+00	1.00000e+00	1.00000e+00	1.00000e+00	1.00000e+00	1.00000e+00	1.00000e+00	1.00000e+00	1.00000e+00	1.00000e+00	1.00000e+00	1.00000e+00	1.00000e+00	1.00000e+00	1.00000e+00	1.00000e+00	1.00000e+00	1.00000e+00	1.00000e+00	1.00000e+00	1.00000e+00	1.00000e+00	1.00000e+00	1.00000e+00	1.00000e+00	1.00000e+00	1.00000e+00	1.00000e+00	1.00000e+00	1.00000e+00	X	X	X	X	X	X	X	X	X	X	X	X	X	X	X	X	

B = Detector Channel
Val Type	B-AC1	B-AC2	B-AC3	B-AC4	B-AC5	B-AC6	B-AC7	B-AC8	B-AC9	B-AC10	B-AC11	B-AC12	B-AC13	B-AC14	B-AC15	B-AC16	B-DC1	B-DC2	B-DC3	B-DC4	B-DC5	B-DC6	B-DC7	B-DC8	B-DC9	B-DC10	B-DC11	B-DC12	B-DC13	B-DC14	B-DC15	B-DC16	B-Ph1	B-Ph2	B-Ph3	B-Ph4	B-Ph5	B-Ph6	B-Ph7	B-Ph8	B-Ph9	B-Ph10	B-Ph11	B-Ph12	B-Ph13	B-Ph14	B-Ph15	B-Ph16	

Term	0.00000e+00	0.00000e+00	0.00000e+00	0.00000e+00	0.00000e+00	0.00000e+00	0.00000e+00	0.00000e+00	0.00000e+00	0.00000e+00	0.00000e+00	0.00000e+00	0.00000e+00	0.00000e+00	0.00000e+00	0.00000e+00	0.00000e+00	0.00000e+00	0.00000e+00	0.00000e+00	0.00000e+00	0.00000e+00	0.00000e+00	0.00000e+00	0.00000e+00	0.00000e+00	0.00000e+00	0.00000e+00	0.00000e+00	0.00000e+00	0.00000e+00	0.00000e+00	2.93131e+01	-1.38054e+02	-1.55137e+02	-1.83507e+02	-8.93409e+01	-7.38741e+01	-1.57185e+02	-1.62015e+02	-1.04756e+02	-8.47356e+01	-1.72626e+02	-1.72814e+02	-1.80483e+02	-1.78435e+02	-9.61728e+01	-1.51297e+02	
Factor	4.06815e-05	8.32167e-05	3.41537e-05	1.61071e-01	1.09079e-06	8.84274e-07	1.94396e-01	6.71829e-02	1.01989e-06	8.41751e-07	9.46126e-02	3.23926e-02	2.57595e-02	9.54239e-03	8.66236e-07	1.36832e-02	5.31991e-07	5.38450e-07	1.50082e-07	7.64884e-02	5.87831e-09	5.89810e-09	8.61984e-02	3.09803e-02	5.88643e-09	5.89619e-09	4.18274e-02	1.42647e-02	1.18748e-02	4.35937e-03	5.89889e-09	5.99575e-03	X	X	X	X	X	X	X	X	X	X	X	X	X	X	X	X	



#DISTANCE SETTINGS
A = Detector Channel
A-1	A-2	A-3	A-4	A-5	A-6	A-7	A-8	A-9	A-10	A-11	A-12	A-13	A-14	A-15	A-16	

2.5000e+00	3.0000e+00	2.5000e+00	3.0000e+00	2.0000e+00	3.0000e+00	1.5000e+00	3.0000e+00	3.0000e+00	3.0000e+00	3.0000e+00	3.0000e+00	3.0000e+00	3.0000e+00	1.5000e+00	3.0000e+00	

B = Detector Channel
B-1	B-2	B-3	B-4	B-5	B-6	B-7	B-8	B-9	B-10	B-11	B-12	B-13	B-14	B-15	B-16	

1.0000e+01	1.0000e+01	1.0000e+01	1.4400e+00	1.0000e+01	1.0000e+01	1.5100e+00	1.9400e+00	1.0000e+01	1.0000e+01	1.9900e+00	2.4900e+00	2.4100e+00	2.9000e+00	1.0000e+01	2.9800e+00	




#DATA BEGINS
time	group	step	mark	flag	A-AC1	A-AC2	A-AC3	A-AC4	A-AC5	A-AC6	A-AC7	A-AC8	A-AC9	A-AC10	A-AC11	A-AC12	A-AC13	A-AC14	A-AC15	A-AC16	A-DC1	A-DC2	A-DC3	A-DC4	A-DC5	A-DC6	A-DC7	A-DC8	A-DC9	A-DC10	A-DC11	A-DC12	A-DC13	A-DC14	A-DC15	A-DC16	A-Ph1	A-Ph2	A-Ph3	A-Ph4	A-Ph5	A-Ph6	A-Ph7	A-Ph8	A-Ph9	A-Ph10	A-Ph11	A-Ph12	A-Ph13	A-Ph14	A-Ph15	A-Ph16	B-AC1	B-AC2	B-AC3	B-AC4	B-AC5	B-AC6	B-AC7	B-AC8	B-AC9	B-AC10	B-AC11	B-AC12	B-AC13	B-AC14	B-AC15	B-AC16	B-DC1	B-DC2	B-DC3	B-DC4	B-DC5	B-DC6	B-DC7	B-DC8	B-DC9	B-DC10	B-DC11	B-DC12	B-DC13	B-DC14	B-DC15	B-DC16	B-Ph1	B-Ph2	B-Ph3	B-Ph4	B-Ph5	B-Ph6	B-Ph7	B-Ph8	B-Ph9	B-Ph10	B-Ph11	B-Ph12	B-Ph13	B-Ph14	B-Ph15	B-Ph16	aux-1	digaux	

7945.829	1	1	0	256	0.22937	0.25535	0.09182	0.26783	0.17383	0.12529	0.17025	0.14708	0.11473	0.1506	0.21433	0.09527	0.066729	0.15685	0.10437	0.23347	-2.9292	-3.0458	-3.3604	-3.25	-3.3063	-3.3958	-3.2104	-3.4833	-3.2604	-3.1542	-3.4771	-2.9917	-3.2167	-3.3542	-2.8104	-3.1979	29.358	-110.254	71.220	151.620	92.146	-80.034	112.168	91.559	-50.690	82.837	-143.218	122.210	31.508	-155.354	-66.845	-144.347	0.00010224	0.0003326	7.1078e-05	1327.6	5.0581e-06	5.4344e-06	1365.9	255.03	4.218e-06	2.6915e-06	314.19	88.848	70.307	20.028	5.4856e-06	28.299	0.00047195	0.00042613	0.00010886	1299.4	5.1453e-06	4.4955e-06	1328.2	257.18	4.9699e-06	4.5474e-06	312.57	91.769	73.449	21.319	4.2707e-06	30.256	9.603	-57.263	30.824	-149.697	-49.018	-12.575	-149.811	-142.816	-12.485	-48.133	-142.992	-136.699	-136.070	-128.595	-104.776	-129.765	-8191	255	
7945.925	1	1	0	0	0.15489	0.10488	0.12268	0.20625	0.23633	0.24794	0.023663	0.141	0.216	0.14501	0.030307	0.12311	0.11211	0.08143	0.1743	0.11427	-2.7	-2.9188	-3.3708	-3.2	-3.2188	-3.4083	-3.2375	-3.2062	-3.1188	-3.0458	-3.3917	-3.2125	-3.1729	-3.4813	-2.95	-3.4042	-89.720	-123.787	67.041	-149.038	-57.957	-96.141	88.352	-127.997	-138.168	43.957	197.793	-95.296	-117.563	189.650	-59.334	-48.164	0.00064188	0.00033018	0.00012145	1326	8.4546e-06	5.9718e-06	1361.6	253.83	8.4114e-06	1.9196e-06	315.65	89.281	70.17	20.002	7.245e-06	28.123	0.00043509	0.00040174	0.00010576	1296.8	4.7195e-06	4.2536e-06	1324.2	257.55	4.6531e-06	4.4081e-06	313.97	92.353	73.165	21.324	4.5606e-06	30.621	26.957	-80.230	62.185	-149.655	-23.129	-22.670	-149.621	-142.392	-46.986	-62.575	-143.073	-136.220	-136.209	-128.967	-108.227	-129.806	-8191	255	
7945.997	1	1	0	0	0.25113	0.15727	0.067861	0.07794	0.21153	0.16418	0.23127	0.1365	0.091876	0.063976	0.19594	0.091146	0.12081	0.10115	0.39776	0.2397	-2.8667	-3.1375	-3.2896	-3.3271	-3.0187	-3.6083	-3.2354	-3.2917	-3.1604	-3.0312	-3.5167	-3.2687	-2.9917	-3.5625	-3.1083	-3.0687	87.471	177.994	3.920	-133.885	-81.728	-149.070	174.298	66.356	121.206	168.990	150.603	192.218	188.179	18.315	3.933	111.975	0.00033494	0.00015463	0.00037441	1324.5	9.9077e-06	4.2009e-06	1362.3	254.54	8.6651e-06	5.3084e-06	316.39	88.538	70.038	19.934	2.8505e-06	27.942	0.00042803	0.00040818	0.00011547	1298.9	4.6503e-06	4.2395e-06	1327.9	258.12	4.5208e-06	4.3773e-06	315.86	91.986	72.568	21.133	4.7731e-06	30.343	4.466	85.428	125.992	-149.751	-77.542	2.761	-149.824	-142.706	-6.834	-49.545	-142.809	-136.429	-135.863	-128.785	154.226	-129.371	-8191	255	
7946.093	1	1	0	0	0.23956	0.23847	0.14146	0.29923	0.21629	0.11106	0.38011	0.18445	0.12905	0.074419	0.23511	0.11257	0.16633	0.20086	0.24167	0.16709	-3.0875	-2.9229	-3.2375	-3.4188	-3.0792	-3.3167	-3.1646	-3.1792	-3.2562	-2.8646	-3.4146	-3.3438	-2.9688	-3.5229	-3.125	-3.2646	-123.252	-97.108	-102.992	-152.708	93.174	-27.649	174.548	129.812	90.123	-122.820	-45.729	-76.311	-126.231	-121.406	98.988	-128.762	0.00072504	0.00016477	0.00019048	1319.9	4.1871e-06	1.4383e-06	1359	254	4.2912e-06	6.0562e-07	314.78	88.822	70.406	20.017	3.7536e-06	28.156	0.00040296	0.00039158	0.00012119	1290.8	4.5122e-06	4.1817e-06	1329.6	256.7	4.3785e-06	4.3466e-06	317.91	91.322	72.158	21.155	4.9957e-06	30.084	-4.727	-66.149	-146.595	-149.623	4.431	-79.855	-149.830	-142.653	-111.162	188.022	-142.824	-136.277	-135.948	-128.978	148.469	-129.137	-8191	255	
7946.214	1	1	0	0	0.061048	0.099096	0.1331	0.37139	0.081021	0.038414	0.25832	0.16461	0.27775	0.10316	0.17407	0.37662	0.18254	0.28321	0.050067	0.054504	-3.0375	-2.925	-3.2	-3.4167	-2.8958	-3.3854	-3.425	-3.1688	-3.3125	-3.0521	-3.3792	-3.3917	-2.9167	-3.4104	-3.2021	-3.2146	92.670	-28.970	75.333	169.389	78.174	90.483	113.381	151.283	28.599	68.731	117.234	-104.535	140.835	-70.023	-10.348	24.454	0.00036585	0.00015898	0.00013532	1312.2	1.4604e-06	6.8434e-06	1350.6	253.51	3.0333e-06	6.2673e-06	311.21	88.563	69.661	19.832	2.2977e-06	27.851	0.00038822	0.00039457	0.00012634	1283.9	4.3438e-06	4.2191e-06	1322.4	253.44	4.05e-06	4.3135e-06	315.25	89.701	71.128	21.043	4.8086e-06	29.521	1.729	42.146	-68.237	-149.619	175.085	156.456	-149.792	-142.547	40.416	-156.631	-142.511	-136.290	-135.673	-128.695	50.367	-129.457	-8191	255	
7946.310	1	1	0	0	0.29784	0.13387	0.13712	0.18319	0.29633	0.16639	0.25196	0.32097	0.12668	0.099537	0.10038	0.047224	0.19062	0.19501	0.17313	0.19787	-3.0854	-2.9458	-3.1542	-3.4062	-2.9833	-3.2458	-3.2271	-2.9708	-3.3396	-3.0771	-3.2125	-3.3021	-2.9688	-3.3521	-3.0854	-3.0271	-1.025	-156.311	-128.930	-132.038	-52.404	91.577	128.232	127.911	-123.449	6.433	166.889	69.465	107.760	-151.373	105.337	130.477	0.00063438	0.00024462	0.00019399	1302.3	5.3659e-06	3.3395e-06	1343.6	252.44	8.1527e-06	2.6825e-06	311.52	87.963	69.626	19.82	5.572e-06	28.047	0.00036234	0.00039727	0.0001219	1269.9	4.1056e-06	4.3996e-06	1315.8	251.5	3.9431e-06	4.5269e-06	313.95	89.118	71.041	21.341	4.6235e-06	29.381	5.827	158.106	-85.283	-149.582	-44.125	148.983	-149.501	-142.547	29.540	-136.746	-142.498	-136.429	-135.818	-129.290	94.604	-129.389	-8191	255	
7946.406	1	1	0	0	0.10001	0.029547	0.088429	0.23659	0.1702	0.065302	0.30682	0.40204	0.22765	0.26978	0.12232	0.10011	0.14135	0.11964	0.22456	0.15033	-2.9313	-3.1021	-3.1146	-3.5479	-3.1146	-3.1417	-3.275	-3.0917	-3.3187	-3.1146	-3.3396	-3.3292	-2.8688	-3.2958	-3.3917	-2.975	-140.800	-56.888	-72.480	134.932	-94.176	58.614	133.078	180.009	85.883	43.853	-121.647	-160.389	102.877	54.985	-124.774	154.007	0.00068382	0.00037211	0.00020609	1306.9	4.3014e-06	3.3202e-06	1340.8	252.99	6.6166e-06	1.3205e-06	313.6	88.091	69.576	19.789	4.1477e-06	27.822	0.00035942	0.00042237	0.00011709	1268.5	3.9616e-06	4.5559e-06	1309.1	250.07	3.8262e-06	4.5774e-06	311.19	88.461	70.786	21.276	4.1704e-06	29.042	5.748	117.942	-53.187	-149.631	-58.347	198.362	-149.667	-142.539	-123.112	126.616	-142.494	-136.255	-135.676	-128.889	-28.308	-129.328	-8191	255	
7946.502	1	1	0	0	0.24417	0.20014	0.12942	0.17759	0.16741	0.15939	0.15861	0.15032	0.10067	0.26863	0.20598	0.15982	0.16699	0.24382	0.096747	0.21405	-2.9354	-3.1021	-3.0021	-3.5583	-3.1312	-3.1292	-3.4313	-2.9083	-3.4	-3.1792	-3.0438	-3.4104	-3.0208	-3.2812	-3.25	-2.9146	121.035	-142.383	30.979	198.033	158.355	159.876	-101.564	-140.657	-61.263	90.141	-42.503	112.845	193.247	129.885	-108.583	57.148	0.00060982	0.00036343	0.00012932	1299.3	7.4969e-06	9.3961e-06	1335.6	250.53	3.7918e-06	9.662e-06	313.12	88.274	69.715	19.803	1.3284e-06	27.787	0.00035342	0.00041188	0.00010617	1260.1	3.9591e-06	4.458e-06	1298.8	247.88	3.9446e-06	4.4652e-06	308.27	88.02	70.858	21.267	3.8915e-06	28.821	-9.696	-25.901	-83.260	-149.686	-152.238	35.127	-149.608	-142.243	-114.036	134.279	-142.310	-136.205	-135.685	-128.705	184.710	-129.242	-8191	255	
7946.598	1	1	0	0	0.21838	0.14142	0.024705	0.020105	0.1198	0.20214	0.1655	0.13147	0.12618	0.079868	0.15512	0.14976	0.15647	0.2558	0.14941	0.061769	-2.85	-3.3396	-2.9042	-3.5187	-3.1208	-3.2167	-3.7042	-2.9979	-3.3729	-3.0833	-2.9146	-3.5125	-3.2021	-3.1417	-3.4083	-3.0854	118.093	34.251	-91.143	107.711	-90.330	-102.562	7.587	97.132	80.225	-148.686	-145.737	2.331	-158.487	135.217	131.699	14.504	0.00061026	5.6891e-05	0.00011082	1295.2	3.0236e-06	8.17e-06	1331.3	250.07	8.8411e-06	1.9594e-06	309.9	87.589	69.218	19.777	4.0072e-06	27.883	0.00037193	0.00039728	0.00010074	1253.1	4.1616e-06	4.3502e-06	1291.4	246.65	4.1387e-06	4.2409e-06	305.82	87.466	71.058	21.021	3.756e-06	28.871	-16.169	95.006	4.680	-149.630	118.504	56.878	-149.605	-142.596	-124.073	105.211	-142.599	-136.277	-135.758	-128.781	-117.236	-129.445	-8191	255	
7946.695	1	1	0	0	0.026634	0.23899	0.24536	0.070942	0.05069	0.072162	0.25478	0.22452	0.14129	0.10395	0.28177	0.26842	0.27104	0.013789	0.301	0.19382	-2.7479	-3.125	-2.8104	-3.6375	-3.1958	-3.0875	-3.5125	-2.9188	-3.2792	-3.3167	-2.9479	-3.4938	-3.2625	-3.0896	-3.3896	-3.0771	26.780	-121.081	-41.600	31.457	108.721	-86.319	153.054	113.782	-109.241	158.774	146.956	-97.419	127.268	61.975	95.173	-157.553	0.00054984	0.00064596	6.3065e-05	1291.3	8.2963e-06	4.2179e-06	1335.3	249.55	2.1663e-06	2.6531e-06	310.14	87.532	69.723	19.765	4.2764e-06	27.767	0.00039195	0.00037745	9.853e-05	1249.5	4.3413e-06	4.212e-06	1289.2	246.79	4.4467e-06	4.0881e-06	305.59	88.059	71.892	20.996	3.7502e-06	29.072	-8.391	5.602	192.751	-149.416	140.282	34.666	-149.756	-142.389	-154.283	-48.117	-142.376	-136.382	-135.943	-128.455	-14.533	-129.221	-8191	255	
7946.813	1	1	0	0	0.15189	0.087709	0.17125	0.13228	0.014873	0.086707	0.15982	0.32125	0.31247	0.11605	0.1543	0.15181	0.12262	0.29942	0.31828	0.12288	-2.8104	-3.4	-2.8229	-3.3708	-3.0563	-3.0625	-3.5125	-3.0708	-3.1375	-3.3604	-2.9417	-3.4542	-3.125	-3.0396	-3.35	-3.0333	54.631	102.170	191.913	86.145	169.054	95.676	154.784	151.827	94.264	-75.381	63.230	67.435	135.204	167.443	44.214	174.846	0.00054496	0.00038786	0.00022568	1295	1.963e-06	2.5119e-06	1335.5	249.99	5.2013e-06	1.8281e-06	312.21	87.481	69.703	20.018	4.814e-06	28.209	0.00041431	0.00036849	9.8261e-05	1256.9	4.469e-06	4.0876e-06	1293	248.82	4.5238e-06	3.9775e-06	306.62	88.901	71.877	21.033	3.7484e-06	29.586	-0.012	-79.277	-149.299	-149.693	-10.805	1.184	-149.601	-142.557	53.377	43.469	-142.877	-136.518	-135.771	-128.593	25.242	-129.214	-8191	255	
7946.910	1	1	0	0	0.15242	0.061239	0.2612	0.15165	0.13916	0.19274	0.25411	0.19674	0.20215	0.071562	0.063712	0.096134	0.3191	0.19289	0.17321	0.095548	-2.6125	-3.3542	-2.9792	-3.4625	-3.1729	-2.9562	-3.5	-3.0292	-3.0625	-3.2354	-3.05	-3.2917	-3.4229	-2.9917	-3.3563	-3.2062	137.744	67.698	64.166	-123.634	122.886	105.516	137.688	83.305	-126.607	65.386	-157.747	20.341	-139.883	122.055	104.638	9.081	0.00046023	0.00037445	0.00011711	1298.4	4.374e-06	8.2913e-06	1339.6	251.27	5.5202e-06	2.2294e-06	311.14	87.982	69.435	19.895	5.938e-06	28.116	0.00041016	0.00035861	9.7845e-05	1266.2	4.2493e-06	3.908e-06	1292.1	249.74	4.1243e-06	3.6387e-06	304.26	89.221	70.756	20.775	3.5001e-06	29.514	21.051	-130.627	144.669	-149.497	-20.591	36.959	-149.714	-142.652	-18.024	-95.187	-142.870	-136.389	-135.787	-128.658	-115.692	-129.380	-8191	255	
7947.006	1	1	0	0	0.090761	0.12363	0.3011	0.17009	0.06224	0.16818	0.23244	0.26815	0.1257	0.19216	0.1368	0.059075	0.14883	0.20776	0.11839	0.044277	-2.8146	-3.2979	-2.9271	-3.4562	-3.0938	-3.0333	-3.5542	-3.2417	-3.0729	-3.4167	-3.1417	-3.2292	-3.4583	-2.9896	-3.475	-3.3917	90.397	-98.601	31.055	136.318	-63.262	-130.439	-149.936	152.541	-96.074	-22.687	-27.148	158.027	-12.146	91.416	21.455	45.704	0.00030065	0.00068554	0.00016899	1297.6	9.0153e-06	2.7903e-06	1338.4	251.17	1.0701e-06	5.0387e-06	309.88	88.406	69.606	20.106	5.4901e-06	28.181	0.00036129	0.00032246	9.337e-05	1262	3.7959e-06	3.5891e-06	1292	249.63	3.8051e-06	3.4404e-06	304.29	89.353	70.36	20.76	3.6612e-06	29.464	41.580	-70.179	-61.044	-149.666	-31.955	-27.630	-149.644	-142.250	-153.743	-4.256	-142.577	-136.496	-135.823	-128.879	-156.672	-129.700	-8191	255	
7947.102	1	1	0	0	0.10778	0.021186	0.15545	0.30168	0.11444	0.17514	0.15419	0.1978	0.3634	0.1274	0.04488	0.14433	0.2047	0.18769	0.14151	0.18551	-2.675	-3.2313	-3.0271	-3.4458	-3.3896	-2.9792	-3.5917	-3.1417	-2.9562	-3.4333	-3.1792	-3.3333	-3.2542	-3	-3.45	-3.375	-115.304	-36.803	158.784	162.656	-0.482	-124.609	184.122	185.599	-43.253	6.624	103.256	-137.630	84.035	24.465	15.107	60.657	0.00060478	0.00024256	0.00023833	1296.1	4.0418e-06	3.5974e-06	1338.7	250.18	2.6045e-06	6.5629e-06	309.42	88.507	70.221	20.211	1.0015e-06	28.537	0.00033697	0.00030734	9.5489e-05	1260.2	3.5293e-06	3.4532e-06	1296.3	248.17	3.6218e-06	3.3545e-06	306.31	89.247	70.28	20.775	3.8888e-06	29.419	34.038	-48.565	106.945	-149.606	-38.811	20.156	-149.719	-142.502	115.358	21.213	-142.794	-136.149	-136.077	-128.847	23.122	-129.679	-8191	255	
7947.222	1	1	0	0	0.31527	0.035849	0.35842	0.28177	0.090659	0.34586	0.12415	0.37313	0.1102	0.072296	0.06062	0.20507	0.076401	0.11575	0.18172	0.24844	-2.4479	-3.6271	-2.9313	-3.35	-3.425	-3.1188	-3.3333	-3.3229	-2.9833	-3.3083	-3.2479	-3.1354	-3.4792	-2.9375	-3.3146	-3.2917	-56.458	-120.914	-15.785	199.388	-117.834	74.750	-126.858	-140.041	110.518	111.950	83.524	14.624	8.532	116.382	-110.249	83.370	0.00056986	0.00036558	0.00022272	1297.1	3.0062e-06	3.9729e-06	1343.3	252.32	3.8339e-06	1.8275e-06	310.97	88.521	70.44	20.054	6.2966e-06	28.512	0.0003247	0.00030281	0.00010009	1260.7	3.4216e-06	3.4601e-06	1302.3	247.95	3.4929e-06	3.3784e-06	307.59	88.822	70.246	20.81	4.013e-06	29.235	8.315	-90.480	142.284	-149.356	65.134	-104.424	-149.754	-142.240	-80.062	-146.456	-142.782	-136.391	-135.880	-129.191	153.462	-129.699	-8191	255	
7947.294	1	1	0	0	0.18551	0.061057	0.19321	0.14783	0.13502	0.092948	0.31258	0.32643	0.10626	0.11903	0.11321	0.14602	0.16656	0.11013	0.14796	0.047285	-2.5812	-3.3208	-3.0208	-3.0417	-3.3896	-2.9708	-3.4729	-3.2188	-2.7521	-3.0875	-3.2083	-3.1375	-3.3521	-3.0083	-3.1896	-3.3521	-154.065	-86.926	98.322	-124.644	184.612	-106.560	155.557	178.838	103.949	199.068	-0.887	108.467	-135.912	-18.432	37.142	147.172	0.00060245	0.00023187	7.9586e-05	1303.4	5.6314e-06	7.7863e-06	1345.4	252.39	4.259e-06	2.8909e-06	312.05	89.23	70.604	20.265	3.0875e-06	28.385	0.00031811	0.00031286	0.00010169	1259.9	3.3453e-06	3.619e-06	1306.5	247.73	3.4556e-06	3.6412e-06	308.19	88.905	70.507	21.181	4.0738e-06	29.286	18.146	166.287	8.392	-149.440	16.228	-114.703	-149.734	-142.524	-52.800	-93.879	-142.614	-136.080	-136.079	-129.193	-13.853	-129.366	-8191	255	
7947.390	1	1	0	0	0.13154	0.16529	0.1338	0.29259	0.12507	0.2698	0.21486	0.27034	0.12738	0.031305	0.35473	0.37272	0.2545	0.055127	0.024567	0.080793	-2.5708	-3.3146	-3.1229	-3.0396	-3.4	-2.9292	-3.2979	-3.4667	-2.975	-3.4	-3.3146	-2.9792	-3.35	-3.0062	-3.0542	-3.3417	6.267	-43.099	-82.873	151.143	94.163	86.532	106.175	183.814	-118.520	111.117	-52.531	161.181	-108.992	151.401	47.189	88.294	0.00044364	0.00046171	0.00021291	1312	8.1648e-06	1.4902e-06	1359.8	252.1	3.8205e-06	1.1115e-06	312.84	89.665	71.16	20.344	8.3617e-06	28.879	0.00032251	0.00035067	0.00010177	1266.9	3.3366e-06	3.9262e-06	1313.3	248.21	3.4642e-06	3.8941e-06	307.79	89.245	70.821	21.43	3.846e-06	29.229	4.278	151.246	-116.654	-149.526	-137.633	-122.000	-149.744	-142.526	-66.375	177.114	-142.750	-135.851	-136.010	-128.593	1.767	-129.380	-8191	255	
7947.486	1	1	0	0	0.25253	0.18483	0.097199	0.19267	0.29473	0.31076	0.38922	0.21111	0.15889	0.31372	0.17368	0.087726	0.10774	0.11778	0.13136	0.15043	-2.5812	-3.325	-3.2938	-3.2188	-3.5271	-3.1229	-3.2708	-3.3333	-2.9833	-3.2854	-3.3958	-3.0083	-3.3458	-3.1479	-3.2917	-3.6167	-49.937	-82.284	174.267	170.048	35.415	70.668	144.245	180.718	8.664	-66.971	-46.455	44.021	190.008	-132.650	-143.138	86.947	0.00054723	0.00040301	0.00028109	1311.1	2.8962e-06	1.9423e-06	1352.6	253.71	3.457e-06	6.4429e-07	312.02	89.902	71.503	20.372	4.3585e-06	28.919	0.00031353	0.00035685	9.4018e-05	1265.7	3.3382e-06	3.9421e-06	1309.8	247.52	3.4648e-06	3.9687e-06	306.31	89.284	71.209	21.499	3.7753e-06	29.337	-4.300	-101.937	-58.502	-149.372	-146.219	198.113	-149.778	-142.631	-136.147	-10.396	-142.615	-136.744	-136.126	-129.222	62.314	-129.487	-8191	255	
7947.605	1	1	0	0	0.24529	0.18952	0.0055469	0.32425	0.14417	0.18032	0.21247	0.21771	0.12105	0.19608	0.14201	0.051979	0.28433	0.36973	0.15731	0.097766	-2.6188	-3.2479	-3.1667	-3.0792	-3.1875	-3.2083	-3.1146	-3.5396	-3.1042	-3.3833	-3.4521	-2.9313	-3.3021	-3.1104	-3.1083	-3.5042	53.797	156.570	52.732	160.111	80.476	117.535	193.973	177.635	118.374	51.666	-92.068	148.096	135.723	85.374	162.255	-157.848	0.00051324	0.00042232	0.00011221	1318.2	6.5243e-06	1.9577e-06	1369.9	256.22	7.3982e-06	9.7797e-06	313.05	89.719	71.287	20.63	2.0839e-06	28.899	0.00033752	0.00037872	9.2602e-05	1273.6	3.761e-06	4.1694e-06	1321.5	250.02	3.969e-06	4.2628e-06	308.43	90.191	72.597	21.785	3.9183e-06	29.616	9.321	-82.534	187.787	-149.820	-114.047	180.452	-149.740	-142.360	-123.834	-7.443	-142.599	-136.599	-135.803	-128.786	-29.865	-129.407	-8191	255	
7947.701	1	1	0	0	0.10638	0.069246	0.072197	0.2943	0.069039	0.073072	0.5339	0.083219	0.17142	0.17701	0.19964	0.052119	0.20312	0.23693	0.17454	0.12132	-2.6479	-3.1667	-3.3208	-3.3021	-3.4625	-3.1229	-3.2625	-3.5	-3.1813	-3.1958	-3.4229	-3.0854	-3.2875	-3.3292	-2.7875	-3.4417	5.489	13.995	22.673	149.580	159.273	111.013	189.371	-157.094	-61.679	132.466	152.717	6.702	180.412	-126.897	22.348	-104.685	0.0007501	0.00070335	2.3408e-05	1326.1	3.9678e-06	7.9534e-06	1366.6	256.66	6.1228e-06	3.0568e-06	316.97	90.455	71.452	20.6	3.1907e-06	28.988	0.00038363	0.00038718	9.4162e-05	1283.7	4.1016e-06	4.03e-06	1325.5	251.03	4.0605e-06	3.9167e-06	306.77	89.815	72.628	21.404	3.4656e-06	29.373	-24.097	-83.866	25.390	-149.615	-56.830	12.929	-149.842	-142.638	-63.338	2.142	-142.743	-136.650	-135.964	-128.929	-73.293	-129.831	-8191	255	
7947.798	1	1	0	0	0.17795	0.093931	0.19915	0.3541	0.11499	0.19798	0.32045	0.19796	0.1016	0.094144	0.14355	0.23454	0.13398	0.14073	0.06903	0.08571	-2.5771	-3.0563	-3.3438	-3.1458	-3.2438	-3.2313	-3.0938	-3.4313	-3.2812	-3.075	-3.6417	-3.1167	-3.2375	-3.4813	-2.8208	-3.5021	95.497	-85.919	61.169	130.191	145.852	176.189	168.088	-56.285	-72.838	149.945	139.613	195.847	144.897	93.695	168.135	21.334	0.00074707	0.00044538	0.00032531	1320.1	3.3834e-06	4.2678e-06	1362.7	255.5	2.3705e-06	5.3486e-06	313.46	90.865	71.502	20.592	4.7086e-06	28.89	0.00035835	0.00033362	8.2361e-05	1272.8	3.872e-06	3.4689e-06	1311.5	249.47	3.818e-06	3.4989e-06	303.86	89.739	72.179	21.174	3.3059e-06	29.554	8.850	-60.130	-88.390	-149.802	-105.436	-2.615	-149.883	-142.650	-157.404	63.205	-142.492	-136.455	-136.076	-128.921	-66.124	-129.955	-8191	255	
7947.894	1	1	0	0	0.046148	0.15995	0.061384	0.10085	0.079414	0.189	0.10709	0.10299	0.11645	0.064046	0.32912	0.11992	0.22495	0.045754	0.26596	0.22052	-2.7188	-3.075	-3.3438	-3.2146	-3.0875	-3.2979	-3.1708	-3.2854	-3.3396	-3.0875	-3.4854	-3.3438	-3.1125	-3.4958	-3.0563	-3.4771	114.424	-88.888	-150.754	53.441	82.732	20.968	186.894	41.337	-58.274	123.459	59.096	-98.556	164.795	132.443	52.836	-130.795	0.00058178	0.00036689	0.00024385	1317.1	5.5671e-06	4.4063e-06	1366.4	255.54	4.7278e-06	4.0621e-06	314.09	91.053	71.862	20.837	3.189e-06	29.097	0.00034699	0.00031383	8.0036e-05	1275.4	3.7779e-06	3.3306e-06	1311.8	250.9	3.7011e-06	3.3934e-06	303.52	90.429	72.026	21.14	3.1776e-06	29.72	0.844	-44.848	-67.929	-149.964	-48.584	42.068	-149.738	-142.526	4.531	-11.267	-143.015	-136.421	-136.451	-129.273	-66.923	-129.621	-8191	255	
7947.990	1	1	0	0	0.26713	0.15757	0.13745	0.24983	0.18015	0.16128	0.083587	0.13297	0.070327	0.010365	0.25118	0.29541	0.053002	0.17666	0.097385	0.2048	-2.6063	-2.8646	-3.45	-3.1458	-3.1271	-3.4167	-3.1708	-3.4604	-3.3	-3.0667	-3.4667	-3.3104	-3.2771	-3.3583	-2.8667	-3.3542	79.954	191.825	-94.510	143.038	-107.570	6.462	170.894	115.993	-19.416	-127.705	-49.849	102.824	188.749	-131.286	22.700	4.105	0.00043618	0.00031048	0.00012457	1316.3	1.5722e-07	1.6607e-06	1357	254.87	7.2283e-06	8.8795e-07	310.75	90.749	71.36	20.7	2.2534e-06	29.006	0.00031783	0.00029158	7.5544e-05	1270.4	3.349e-06	2.9979e-06	1302.4	249.58	3.2194e-06	3.0279e-06	300.42	89.703	71.004	20.876	3.0731e-06	29.655	12.014	-130.483	-152.390	-149.548	3.429	-100.638	-149.605	-142.568	-7.308	99.663	-142.559	-136.475	-135.941	-128.915	94.689	-129.787	-8191	255	
7948.086	1	1	0	0	0.020616	0.12888	0.2623	0.13647	0.11919	0.10326	0.41526	0.37257	0.063804	0.19923	0.22764	0.1665	0.30523	0.18662	0.089263	0.14243	-3.175	-2.9021	-3.3771	-3.2354	-3.1688	-3.4396	-3.225	-3.3438	-3.4104	-2.9313	-3.5521	-3.2562	-3.1979	-3.5125	-3.1354	-3.2	15.923	-157.609	24.420	126.735	35.263	-10.339	125.405	138.164	-90.152	9.341	174.750	-123.394	-87.154	97.748	175.107	-55.923	0.00054425	0.00049101	8.4548e-05	1309.7	3.3699e-06	5.0261e-06	1350.6	253.11	9.7619e-06	3.8267e-06	310.32	89.993	71.827	20.699	4.6449e-06	29.065	0.00028238	0.00027158	7.5595e-05	1262	3.0764e-06	2.7856e-06	1295.8	247.63	2.9344e-06	2.841e-06	300.46	89.061	70.445	20.755	3.1035e-06	29.463	28.162	-52.584	101.429	-149.651	-19.254	-51.833	-149.882	-142.491	-88.633	-8.808	-142.592	-136.263	-136.040	-129.026	-133.111	-129.246	-8191	255	
7948.182	1	1	0	0	0.15214	0.10242	0.17652	0.025514	0.17632	0.25065	0.0284	0.18044	0.097343	0.16967	0.35384	0.082844	0.28905	0.097778	0.063256	0.026129	-3.15	-2.9688	-3.2896	-3.2646	-3.1	-3.6	-3.2062	-3.2875	-3.3438	-2.8542	-3.1729	-3.2375	-2.9875	-3.4208	-3.0125	-3.1813	65.312	26.519	112.047	142.868	89.934	-24.952	-38.000	89.951	-142.685	-2.686	122.351	-144.417	182.168	-1.282	-9.279	174.319	0.0004057	0.00023123	0.00012518	1301.9	4.1617e-06	6.203e-07	1348.7	252.46	2.3071e-06	3.0787e-06	311.15	90.503	71.49	20.69	2.593e-06	29.252	0.00026437	0.00025946	7.9548e-05	1255.9	2.9444e-06	2.7166e-06	1296.2	246.83	2.8364e-06	2.8094e-06	302.58	88.886	70.262	20.817	3.2499e-06	29.398	14.462	182.104	-104.141	-149.534	-102.586	-40.085	-149.438	-142.390	15.329	-14.108	-142.881	-135.948	-136.223	-129.219	195.988	-129.490	-8191	255	
7948.303	1	1	0	0	0.10621	0.16397	0.19559	0.075999	0.12941	0.13385	0.30111	0.073787	0.15244	0.14575	0.067651	0.1082	0.13142	0.14017	0.056115	0.19709	-2.9854	-2.9104	-3.2354	-3.5187	-3.0312	-3.3688	-3.3375	-3.2604	-3.5	-3.1229	-3.4313	-3.4292	-2.9833	-3.3542	-3.2562	-3.1104	129.063	180.008	17.055	183.510	191.785	149.573	73.111	-143.730	41.068	-96.204	-121.617	-48.983	175.565	143.506	122.201	-93.260	0.00042516	0.00023914	9.4639e-05	1301.3	7.5522e-07	2.1406e-06	1346.6	253.52	2.6366e-06	3.5744e-06	312.26	90.874	71.629	20.708	1.3519e-06	29.199	0.00025808	0.0002629	8.414e-05	1253.4	2.9012e-06	2.8217e-06	1299.4	246.6	2.7722e-06	2.9381e-06	303.77	88.619	70.285	20.922	3.337e-06	29.283	35.947	-63.160	-136.422	-149.472	-54.389	51.116	-149.698	-142.329	-102.838	-44.305	-142.639	-136.213	-135.762	-129.032	128.342	-129.783	-8191	255	
7948.399	1	1	0	0	0.14992	0.067393	0.16377	0.19689	0.31877	0.14625	0.14322	0.18769	0.17312	0.15829	0.18183	0.17952	0.21109	0.13953	0.14215	0.14069	-3.0417	-3.1583	-3.1604	-3.4604	-2.9917	-3.4708	-3.3875	-3.0062	-3.3812	-2.9896	-3.25	-3.175	-3.1375	-3.2792	-3.2583	-2.9896	50.663	-14.133	-72.830	175.596	-39.473	-67.795	100.723	69.628	193.578	-28.957	151.114	176.130	59.345	-155.209	156.790	42.338	0.00049365	0.00040473	0.0001627	1300.3	1.6132e-06	1.7312e-06	1353	254.64	3.7301e-06	3.202e-06	311.61	90.698	71.88	20.81	2.7522e-06	29.232	0.00025304	0.00027908	8.5615e-05	1250.5	2.8512e-06	3.0565e-06	1298.3	246.26	2.7512e-06	3.142e-06	303.05	88.623	70.258	21.1	3.203e-06	29.151	9.253	125.919	-131.343	-149.716	173.061	-120.163	-149.712	-142.384	-139.891	184.359	-142.507	-136.293	-135.898	-129.178	-2.483	-129.284	-8191	255	
7948.495	1	1	0	0	0.11283	0.26421	0.22767	0.21416	0.15142	0.14813	0.5229	0.16605	0.10696	0.067762	0.18888	0.17078	0.16024	0.043536	0.11585	0.13523	-3.1333	-3.1542	-3.1667	-3.45	-2.8708	-3.3646	-3.2812	-2.9458	-3.2625	-3.0875	-3.2146	-3.3833	-2.8979	-3.4021	-3.2021	-3.1208	-38.083	152.184	-107.071	164.499	-29.739	-85.751	118.153	89.244	84.965	148.878	53.402	183.305	168.264	-123.675	13.369	-155.424	0.00061827	0.00032273	0.00014098	1301.6	1.8702e-06	7.671e-06	1347.5	252.74	6.0606e-06	8.9397e-07	310.47	90.12	71.399	20.76	5.2744e-06	28.862	0.00024849	0.00029145	8.0241e-05	1247.6	2.7821e-06	3.1342e-06	1291.6	244.94	2.7345e-06	3.2185e-06	301.17	87.923	69.962	21.156	3.0154e-06	28.94	11.189	92.933	-96.068	-149.518	67.348	-70.692	-149.451	-142.255	-115.195	-102.277	-142.597	-136.536	-136.063	-128.827	13.846	-129.445	-8191	255	
7948.591	1	1	0	0	0.1784	0.16121	0.1635	0.19348	0.14883	0.1196	0.11194	0.16019	0.13192	0.31251	0.089775	0.28459	0.073114	0.14731	0.15727	0.27056	-2.8583	-3.125	-2.9979	-3.3979	-2.9688	-3.3812	-3.3979	-2.9979	-3.3187	-3.2854	-3.0333	-3.4542	-3.05	-3.3333	-3.225	-2.975	66.320	1.325	-80.499	160.966	146.258	-131.949	119.364	78.500	-67.369	-53.658	-73.566	107.940	-52.972	185.322	-69.423	58.438	0.00060821	0.00013202	0.00013724	1298	1.7014e-06	2.7685e-06	1343	251.52	1.9305e-06	8.2603e-07	309	90.703	71.072	20.528	3.3637e-06	29.027	0.00025258	0.00029617	7.5318e-05	1239.9	2.8138e-06	3.178e-06	1283.5	242.81	2.7302e-06	3.0893e-06	297.57	87.337	69.852	20.957	2.7532e-06	28.789	-12.722	155.637	-63.949	-149.641	167.442	-66.457	-149.592	-142.597	-28.767	-52.643	-142.593	-136.193	-136.096	-128.257	-18.217	-129.766	-8191	255	
7948.686	1	1	0	0	0.10845	0.18282	0.17618	0.14256	0.029594	0.02546	0.097172	0.22488	0.18997	0.31086	0.037645	0.097978	0.10899	0.13255	0.15527	0.13352	-2.9062	-3.1625	-2.9708	-3.5271	-3.0312	-3.2125	-3.4729	-2.9813	-3.4146	-3.2604	-2.975	-3.35	-2.8063	-3.3563	-3.2667	-3.0417	18.527	94.092	-92.825	160.881	-23.371	-131.768	186.055	124.423	72.931	-14.427	-115.241	124.763	-86.159	-79.935	186.235	135.733	0.00039527	0.00052125	0.00017021	1285.5	4.9787e-06	2.9657e-06	1334.7	251.6	3.8296e-06	6.4135e-06	309.3	90.649	71.145	20.72	2.7081e-06	29.101	0.00026215	0.0002812	7.1647e-05	1233.1	2.9771e-06	3.107e-06	1277.1	242.77	2.9727e-06	3.0076e-06	297.36	87.205	70.122	20.876	2.6779e-06	28.814	-7.573	-40.671	-53.282	-149.566	-93.557	3.682	-149.607	-142.585	168.781	26.140	-142.931	-136.674	-136.088	-128.748	-24.524	-129.490	-8191	255	
7948.782	1	1	0	0	0.1497	0.19454	0.25107	0.44198	0.25348	0.0664	0.31674	0.28668	0.18748	0.27697	0.25265	0.056133	0.19754	0.054655	0.033414	0.12791	-2.8104	-3.1229	-2.8896	-3.6063	-3.1312	-3.0604	-3.4688	-3.1604	-3.3542	-3.3167	-2.9854	-3.3646	-3.2188	-3.0417	-3.5021	-3.1979	-1.985	-96.850	63.983	145.858	172.949	-102.709	168.423	-129.016	41.050	124.868	119.005	-10.785	-129.902	172.305	-63.445	104.855	0.00070123	0.00065042	0.00011452	1286.9	7.5656e-06	3.6211e-06	1337.9	251.17	4.2055e-06	2.3829e-06	310.53	90.241	70.85	20.611	3.5813e-06	28.748	0.00028249	0.00027012	7.01e-05	1231.6	3.1042e-06	2.9609e-06	1275.8	242.47	3.1309e-06	2.8627e-06	297.38	87.353	70.26	20.772	2.6027e-06	28.715	-21.223	-75.125	-146.603	-149.654	-137.439	5.472	-149.575	-142.480	-52.722	-47.835	-142.585	-136.066	-135.797	-128.774	-35.371	-129.527	-8191	255	
7948.902	1	1	0	0	0.059153	0.095604	0.05287	0.14533	0.12217	0.21723	0.12585	0.30343	0.14772	0.088617	0.082533	0.11987	0.11322	0.23278	0.28231	0.14453	-2.8125	-3.1312	-3.0792	-3.3937	-3.1604	-3.0271	-3.5771	-3.0625	-3.3083	-3.2562	-3.1188	-3.65	-3.1479	-3.0167	-3.3375	-3.1458	35.589	125.134	-22.829	151.165	-87.422	62.944	89.571	-151.425	37.286	-78.518	145.681	-92.984	-154.164	169.502	-109.328	191.875	0.00034686	0.00043085	0.00018702	1289	5.4292e-06	4.0979e-06	1327.4	251.64	2.6648e-06	5.7793e-06	307.86	89.828	70.693	20.408	1.0024e-06	28.938	0.00028555	0.00025217	6.7556e-05	1233.4	3.049e-06	2.7795e-06	1267.9	243.16	3.0454e-06	2.6617e-06	295.47	87.414	69.69	20.544	2.4409e-06	28.783	9.233	-56.965	-107.382	-149.592	-23.898	54.320	-149.735	-142.209	-115.695	-22.822	-142.635	-136.207	-135.916	-129.280	84.464	-129.484	-8191	255	
7948.999	1	1	0	0	0.080667	0.2776	0.34564	0.18775	0.014721	0.04683	0.24587	0.021658	0.13762	0.36534	0.15253	0.3316	0.18549	0.23118	0.12936	0.17432	-2.875	-3.3271	-2.8375	-3.4604	-3.2646	-3.1833	-3.5104	-3.2417	-3.1	-3.4646	-2.9979	-3.35	-3.3375	-3.2229	-3.3625	-3.2625	158.956	104.463	-52.607	106.215	44.901	-82.335	-157.712	88.302	128.757	94.060	117.049	-160.270	22.981	-71.558	144.415	117.000	0.00052257	0.00038144	0.00011465	1277.3	1.2941e-06	2.3413e-06	1323.7	249.65	4.6716e-06	5.4481e-06	306.04	89.55	70.248	20.435	3.6554e-06	28.607	0.00026916	0.00023555	6.4403e-05	1226.6	2.8533e-06	2.6497e-06	1263.5	242.32	2.8651e-06	2.5562e-06	293.88	87.483	69.166	20.449	2.4643e-06	28.722	-13.433	-28.344	-69.955	-149.685	-157.356	12.536	-149.559	-142.540	-5.102	48.054	-142.876	-136.285	-135.817	-128.824	-80.157	-129.388	-8191	255	
7949.095	1	1	0	0	0.12267	0.17495	0.16268	0.19543	0.094669	0.057441	0.20795	0.034551	0.16577	0.15629	0.17851	0.33192	0.18871	0.16408	0.17492	0.12636	-2.5646	-3.4333	-3.0812	-3.4833	-3.3125	-3.0062	-3.5833	-3.2333	-2.9896	-3.4708	-3.2875	-3.3187	-3.4646	-2.9792	-3.4146	-3.1417	43.383	164.996	180.365	142.373	-137.153	-150.053	142.517	-16.614	188.135	160.615	79.043	149.928	-155.855	119.717	63.622	119.470	0.00047471	6.2326e-05	0.00010137	1267.4	4.672e-06	4.3477e-06	1317	250.33	2.2506e-06	3.7374e-06	307.63	89.184	70.276	20.487	1.839e-06	28.655	0.00025673	0.00022558	6.469e-05	1221.3	2.6374e-06	2.4948e-06	1255.6	241.99	2.6925e-06	2.4307e-06	294.28	87.507	68.804	20.413	2.6774e-06	28.879	-13.211	198.533	-119.661	-149.505	-18.881	30.709	-149.536	-142.146	45.225	-2.545	-142.378	-136.470	-135.545	-128.455	52.954	-129.322	-8191	255	
7949.166	1	1	0	0	0.24703	0.058534	0.22779	0.1161	0.13887	0.24022	0.11421	0.18137	0.094379	0.10448	0.088276	0.11166	0.15538	0.17853	0.20704	0.31173	-2.8021	-3.6521	-2.9458	-3.3917	-3.2146	-3.0375	-3.4083	-3.2583	-2.8958	-3.4188	-3.0542	-3.1021	-3.3896	-3.0187	-3.2583	-3.2021	193.352	-53.650	143.041	-83.174	181.673	-55.352	17.492	-139.186	-0.865	-33.131	149.294	174.700	18.507	11.049	182.633	-125.314	0.00041656	0.00033869	5.7763e-05	1274.8	2.3067e-06	8.0161e-07	1324.8	250.38	2.7077e-06	4.5469e-06	306.95	89.927	70.46	20.344	3.2008e-06	28.632	0.00025584	0.00023243	7.2448e-05	1227.5	2.7382e-06	2.6719e-06	1267.4	242.58	2.8223e-06	2.5919e-06	296.39	87.943	68.977	20.447	3.0113e-06	28.846	10.774	-101.828	-94.781	-149.466	-134.170	32.554	-149.644	-142.360	77.381	-24.306	-143.050	-136.062	-135.832	-129.084	157.284	-129.749	-8191	255	
7949.287	1	1	0	0	0.063902	0.11515	0.017326	0.33459	0.22761	0.23246	0.13076	0.082048	0.069284	0.18649	0.25117	0.086725	0.13017	0.079855	0.13326	0.21912	-2.6333	-3.2729	-3.075	-3.2458	-3.2562	-2.7729	-3.4271	-3.1875	-2.8563	-3.4125	-3.2292	-3.2125	-3.3083	-3.0187	-3.2562	-3.25	33.626	-41.910	81.806	169.998	83.748	115.798	122.222	168.747	-22.907	144.590	-93.325	7.991	-67.652	12.108	97.750	96.073	0.00053178	0.00014213	0.00011031	1273.2	5.7706e-06	7.0474e-07	1321.8	249.59	6.7019e-06	8.3329e-07	307.49	90.375	70.263	20.241	3.1112e-06	28.807	0.00025677	0.00023513	7.7453e-05	1226.3	2.6807e-06	2.6588e-06	1269.9	241.8	2.7087e-06	2.5802e-06	297.9	87.57	68.772	20.458	3.0646e-06	28.658	1.264	-152.709	-147.926	-149.555	-129.994	-51.143	-149.535	-142.369	-30.081	119.829	-142.740	-136.287	-135.719	-128.689	157.056	-129.164	-8191	255	
7949.383	1	1	0	0	0.12709	0.12302	0.26425	0.12447	0.19292	0.27069	0.22633	0.080266	0.31385	0.048032	0.22062	0.12153	0.18112	0.32445	0.12503	0.12654	-2.6458	-3.2812	-2.9396	-3.2896	-3.2396	-3.1729	-3.2458	-3.4021	-2.95	-3.2604	-3.2979	-3.0938	-3.325	-3.1021	-3.2687	-3.325	33.418	158.816	152.475	174.552	121.956	-14.596	110.481	-41.260	-31.053	132.429	167.617	159.723	160.059	197.252	-34.476	-87.508	0.00045885	0.00029022	0.00025868	1273.1	5.5391e-06	1.5421e-06	1323.6	250.93	1.162e-06	2.5021e-06	307.33	89.541	70.85	20.372	3.2454e-06	28.778	0.00024715	0.00024149	7.9324e-05	1222.1	2.5827e-06	2.7858e-06	1269.4	241.46	2.6587e-06	2.771e-06	297.17	87.203	68.764	20.597	3.093e-06	28.518	8.240	12.162	-40.261	-149.617	-43.152	-153.899	-149.444	-142.399	-144.454	132.694	-142.466	-135.753	-136.178	-129.020	-69.861	-129.548	-8191	255	
7949.479	1	1	0	0	0.22494	0.12006	0.028088	0.19496	0.30185	0.069356	0.13258	0.12662	0.18493	0.073018	0.068411	0.16088	0.2093	0.17902	0.1713	0.29448	-2.7042	-3.2896	-3.2083	-3.3917	-3.5021	-3.0563	-3.4437	-3.2833	-2.9562	-3.2604	-3.3708	-3.1188	-3.3812	-3.1021	-3.2812	-3.4417	31.549	39.893	-129.379	140.978	64.758	165.233	0.024	148.454	98.755	-123.459	-16.408	-114.511	69.697	167.876	-22.930	74.359	0.00055842	0.00028406	4.5859e-05	1271.2	5.1769e-06	1.1108e-06	1324.4	248.42	3.6414e-06	3.4849e-06	306.93	89.401	70.372	20.232	5.3325e-06	28.811	0.00024673	0.00026492	7.8298e-05	1223.7	2.5769e-06	2.997e-06	1269.5	240.62	2.6959e-06	2.9871e-06	297.06	87.088	68.689	20.704	3.0324e-06	28.514	-1.936	-153.259	-58.630	-149.682	-100.831	-10.984	-149.539	-142.232	-19.097	-96.356	-142.270	-136.460	-135.771	-128.790	-7.192	-129.159	-8191	255	
7949.576	1	1	0	0	0.13741	0.16141	0.30092	0.20381	0.18736	0.092006	0.16725	0.07909	0.081703	0.2753	0.049558	0.11337	0.27762	0.1351	0.17286	0.090755	-2.7062	-3.2417	-3.1354	-3.1979	-3.4625	-3.0479	-3.2812	-3.5812	-3.0312	-3.3875	-3.4354	-3.1	-3.3125	-3.1937	-3.1479	-3.4875	142.862	-60.535	-159.228	184.132	196.015	-58.142	70.579	73.155	151.310	-34.643	180.223	-95.227	198.275	-131.106	13.360	114.169	0.00037959	0.00032028	0.00012906	1271.7	3.6103e-06	2.733e-06	1325.3	250.37	3.6446e-06	2.245e-06	308.61	89.533	70.554	20.52	3.2817e-06	28.675	0.00024947	0.00028253	7.5487e-05	1222.2	2.648e-06	3.1522e-06	1269	240.46	2.7324e-06	3.1322e-06	296.01	86.958	68.976	20.819	2.8742e-06	28.425	-19.891	-149.071	-66.384	-149.363	-135.741	174.365	-149.550	-141.965	132.602	-86.861	-142.715	-136.183	-135.754	-128.608	-38.548	-129.401	-8191	255	
7949.694	1	1	0	0	0.039771	0.12096	0.13764	0.25007	0.11294	0.25131	0.13227	0.052298	0.022487	0.1752	0.16223	0.25841	0.25012	0.092877	0.086318	0.20495	-2.8146	-3.1896	-3.1771	-3.1188	-3.4271	-3.1667	-3.3021	-3.4229	-3.0938	-3.1146	-3.4542	-3.0854	-3.4771	-3.1354	-2.9979	-3.4625	-80.142	41.112	145.137	149.574	-8.186	17.583	140.774	87.457	10.524	-35.654	-64.087	22.484	-101.363	43.190	-31.335	-0.425	0.00047841	0.0003432	0.00014784	1271.1	6.2542e-06	7.3501e-07	1322.4	249.43	4.2279e-06	2.9434e-06	306.2	89.414	70.673	20.372	2.1427e-06	28.829	0.00025774	0.00028856	7.0353e-05	1220.1	2.7834e-06	3.0841e-06	1266.1	239.92	2.8822e-06	3.1051e-06	294.55	86.896	69.425	20.717	2.831e-06	28.389	10.257	-24.924	-44.757	-149.625	170.871	8.578	-149.661	-142.336	-156.828	-50.047	-142.657	-136.079	-135.711	-128.869	-85.174	-129.245	-8191	255	
7949.768	1	1	0	0	0.13113	0.14763	0.14251	0.12053	0.20992	0.097142	0.23276	0.29704	0.064567	0.15945	0.071888	0.25254	0.19503	0.071318	0.27372	0.24357	-2.6875	-3.1833	-3.3104	-3.2125	-3.4917	-3.1708	-3.2125	-3.5438	-3.1771	-3.1333	-3.5187	-3.0771	-3.4646	-3.3	-2.8187	-3.3667	-154.457	-22.292	-157.149	96.732	151.656	-67.008	103.041	172.693	42.528	106.488	151.402	-102.492	143.787	110.836	159.329	98.690	0.00060423	0.00032632	7.9284e-05	1268.8	3.5214e-06	4.834e-06	1323.9	248.4	8.0454e-06	6.402e-06	307.76	89.85	70.426	20.414	2.2743e-06	28.634	0.00027633	0.00028171	6.8791e-05	1220.7	3.0108e-06	2.9916e-06	1265	239.81	3.0702e-06	2.9919e-06	294.6	86.854	69.707	20.606	2.7511e-06	28.377	-19.485	-20.983	-119.377	-149.564	-144.381	47.432	-149.568	-142.511	-106.959	-22.442	-142.531	-136.492	-135.563	-129.040	21.046	-129.653	-8191	255	
7949.864	1	1	0	0	0.18752	0.1595	0.25013	0.24808	0.10136	0.098742	0.16225	0.074385	0.10532	0.051657	0.12249	0.1737	0.34242	0.22743	0.10039	0.17096	-2.8667	-3.1562	-3.4333	-3.2104	-3.3583	-3.2854	-3.1375	-3.4271	-3.3042	-3.1875	-3.4667	-3.2792	-3.45	-3.3937	-3.0708	-3.3063	-91.497	163.580	102.850	139.713	-113.700	-80.224	-83.957	-127.697	105.084	-55.936	169.550	186.385	91.048	-69.253	-156.726	-111.851	0.00048502	0.0002406	9.6647e-05	1275.9	2.844e-06	4.4048e-06	1318.8	249.98	3.2954e-06	1.4152e-06	307.56	88.931	70.677	20.358	6.642e-06	28.743	0.00028432	0.00026825	6.7072e-05	1221.8	3.1195e-06	2.8459e-06	1262.8	240.81	3.143e-06	2.8881e-06	294.12	87.048	69.985	20.524	2.7057e-06	28.674	11.635	68.477	167.746	-149.313	-63.736	-46.190	-149.483	-142.451	-157.834	-6.966	-142.516	-136.262	-135.877	-129.002	-115.378	-129.563	-8191	255	
7949.983	1	1	0	0	0.15695	0.1845	0.10095	0.36886	0.088874	0.17979	0.021951	0.13559	0.099857	0.12989	0.35856	0.10605	0.01975	0.10976	0.12081	0.047245	-2.9229	-3.0708	-3.3521	-3.2729	-3.2542	-3.3125	-3.0208	-3.3812	-3.2333	-3.025	-3.6458	-3.1417	-3.2229	-3.3542	-3.0792	-3.3417	-6.935	-126.160	159.501	-144.000	172.832	76.518	120.892	-122.341	-129.352	98.390	175.078	-126.475	18.675	-60.763	160.718	25.223	0.00044647	0.00035765	0.00027018	1275.3	3.358e-06	6.0694e-06	1324.8	249.92	7.1532e-06	4.9881e-06	307.54	89.453	70.655	20.52	4.2245e-06	28.544	0.00028621	0.0002593	6.5339e-05	1223.9	3.1009e-06	2.7037e-06	1263.1	241.78	3.0036e-06	2.7458e-06	293.97	87.366	69.586	20.438	2.6338e-06	28.82	-4.989	-38.538	-59.843	-149.536	24.319	-50.340	-149.652	-142.475	-12.794	-44.763	-142.691	-136.471	-135.598	-128.642	-69.316	-129.464	-8191	255	
7950.079	1	1	0	0	0.11629	0.13231	0.098031	0.19343	0.15628	0.1659	0.25904	0.25074	0.039033	0.1446	0.17699	0.19086	0.061054	0.26719	0.19158	0.25386	-2.9208	-2.9167	-3.1479	-3.0979	-3.1729	-3.3583	-3.1771	-3.3375	-3.2687	-3.1542	-3.4792	-3.0167	-3.3396	-3.3646	-3.1437	-3.2646	-49.062	-35.108	-77.764	-140.169	-113.040	197.060	174.217	103.676	102.219	45.972	185.877	151.930	-117.297	-93.083	-23.533	24.085	0.00037012	0.00033037	5.8281e-05	1272.7	7.3701e-06	8.9583e-06	1326.4	249.34	4.0969e-06	2.8361e-06	308.76	89.155	70.657	20.459	4.3677e-06	28.848	0.0002706	0.00025021	6.5553e-05	1226.8	2.9847e-06	2.6506e-06	1264.6	242.83	2.9061e-06	2.7276e-06	294.76	87.983	69.448	20.411	2.7797e-06	29.021	6.124	-40.466	180.165	-149.689	-12.122	-5.687	-149.513	-142.633	168.601	-49.548	-142.417	-136.361	-135.892	-128.822	-158.858	-129.475	-8191	255	
7950.175	1	1	0	0	0.24295	0.056785	0.13464	0.23637	0.31044	0.15642	0.094956	0.29606	0.18917	0.20999	0.13245	0.27258	0.094959	0.18145	0.25843	0.027025	-2.9104	-3.0062	-3.2542	-3.2771	-3.1604	-3.3688	-3.2438	-3.2604	-3.3917	-3.0062	-3.4875	-3.1417	-2.9667	-3.3187	-2.9708	-3.2583	35.381	-108.018	-154.483	147.541	89.656	77.002	9.457	-120.208	99.612	100.851	-103.870	-134.930	-82.833	-108.269	128.969	1.576	0.00040131	0.00047419	0.00013062	1273.4	5.5247e-06	2.8196e-06	1319.8	251.61	2.3273e-06	5.0982e-06	306.65	89.489	70.26	20.549	2.4547e-06	28.568	0.00026171	0.00024948	6.9366e-05	1228.3	2.8636e-06	2.5985e-06	1265.9	243.59	2.736e-06	2.6542e-06	295.07	87.641	68.996	20.39	2.878e-06	28.828	7.757	-55.597	53.348	-149.524	-134.976	-26.714	-149.561	-142.385	-19.350	-53.062	-142.754	-136.070	-136.107	-128.631	-73.003	-129.315	-8191	255	
7950.296	1	1	0	0	0.063935	0.23521	0.18065	0.36983	0.065518	0.16784	0.25333	0.12111	0.089679	0.10553	0.18158	0.084751	0.10581	0.19657	0.24382	0.022697	-2.9542	-2.9271	-3.3458	-3.3667	-3.0479	-3.4292	-3.1292	-3.3812	-3.3604	-3.0042	-3.2438	-3.2896	-3.0021	-3.5687	-2.9854	-3.2562	-47.211	-22.992	132.295	176.785	-134.956	-119.654	50.971	50.678	-145.460	18.307	142.294	162.763	13.124	133.299	187.975	-28.410	0.00061859	0.00011066	0.00010038	1271.7	4.462e-06	1.1627e-06	1322.8	249.89	3.3072e-06	4.1729e-06	306.62	89.168	70.568	20.449	3.1833e-06	28.656	0.00024894	0.00024046	7.3843e-05	1224.9	2.7553e-06	2.529e-06	1267.8	242.33	2.7042e-06	2.6384e-06	296.77	87.429	69.254	20.418	3.1017e-06	28.793	23.519	-32.040	124.811	-149.334	-104.725	57.778	-149.830	-142.525	-74.995	-19.494	-142.714	-136.418	-135.596	-128.897	-137.036	-129.199	-8191	255	
7950.392	1	1	0	0	0.045939	0.17067	0.026122	0.10894	0.082222	0.12436	0.30428	0.014676	0.045226	0.020393	0.15187	0.24146	0.10939	0.16311	0.093934	0.079169	-2.9813	-3.1	-3.2375	-3.2583	-2.85	-3.425	-3.0646	-3.0854	-3.3604	-2.9729	-3.4542	-3.3521	-3.0458	-3.3771	-3.3125	-3.2062	58.473	-143.990	180.982	168.857	-125.607	139.932	132.926	-49.990	195.577	-66.247	-158.292	-129.765	-57.190	-150.657	-153.111	175.587	0.00054772	0.0001043	0.00021802	1276.4	2.282e-06	1.8577e-06	1325.1	248.94	2.613e-06	1.7971e-06	307.08	89.38	70.481	20.237	8.3289e-07	28.655	0.00024622	0.00025088	7.916e-05	1225.4	2.7658e-06	2.6472e-06	1270.3	242.09	2.6306e-06	2.7602e-06	298.1	87.158	69.101	20.458	3.1595e-06	28.755	-8.404	-110.410	-120.411	-149.484	3.860	70.040	-149.599	-142.519	1.407	-128.491	-142.903	-136.373	-135.685	-128.582	-2.705	-129.205	-8191	255	
7950.464	1	1	0	0	0.16548	0.16619	0.046942	0.13436	0.16271	0.18356	0.23082	0.17032	0.12582	0.20532	0.1828	0.15223	0.37201	0.073115	0.16322	0.13872	-2.9667	-2.9125	-3.0875	-3.4667	-2.9229	-3.6271	-3.2458	-3.0667	-3.5917	-3.0625	-3.3667	-3.3354	-2.9708	-3.5354	-3.3354	-3.1083	-129.925	177.367	157.729	124.661	120.000	119.942	14.405	-152.659	-58.439	127.489	168.511	-106.639	-101.761	79.028	79.501	102.404	0.00047415	0.00051591	5.6806e-05	1275.5	4.8886e-06	5.9078e-06	1325.2	249.92	2.2743e-06	2.1128e-06	308.35	89.115	70.579	20.242	3.5655e-06	28.587	0.00024053	0.00026255	8.0868e-05	1222.7	2.6877e-06	2.8238e-06	1269.6	241.48	2.5591e-06	2.8872e-06	298.18	86.569	68.867	20.609	3.0052e-06	28.558	-4.881	-48.355	196.420	-149.643	-14.047	177.571	-149.659	-142.452	162.468	-42.080	-142.558	-136.418	-135.513	-128.918	42.364	-129.425	-8191	255	
7950.584	1	1	0	0	0.11718	0.071563	0.054606	0.41446	0.12812	0.21199	0.28489	0.028911	0.2783	0.10158	0.22824	0.19208	0.18789	0.22249	0.13001	0.099154	-2.9646	-2.9542	-3.1146	-3.4583	-3.0667	-3.3438	-3.3271	-3.0958	-3.45	-2.9604	-3.0875	-3.2104	-2.9646	-3.25	-3.0375	-3.0354	28.022	151.836	151.751	186.175	-17.239	-57.976	122.145	194.064	-17.379	-126.602	155.830	190.423	188.547	-119.123	164.152	71.731	0.00045239	0.00019197	9.6039e-05	1273.5	6.6226e-06	2.5319e-06	1319.1	249.67	2.1693e-06	7.573e-07	306.72	89.139	70.377	20.261	8.8672e-07	28.866	0.00023248	0.0002703	7.707e-05	1218.7	2.6389e-06	2.9823e-06	1266.1	241.2	2.5649e-06	3.0411e-06	296.25	86.673	68.962	20.761	2.91e-06	28.6	21.391	69.881	62.799	-149.419	-69.810	-39.945	-149.527	-142.345	-84.661	-28.041	-142.397	-136.097	-136.155	-129.031	96.532	-129.152	-8191	255	
7950.679	1	1	0	0	0.043046	0.46162	0.16642	0.1598	0.10459	0.2284	0.11034	0.14632	0.090653	0.061826	0.16939	0.18474	0.13621	0.11625	0.19415	0.19768	-2.9646	-3.1917	-2.9958	-3.5708	-3.2438	-3.2896	-3.4875	-3.0062	-3.2604	-3.0979	-3.15	-3.4313	-2.9625	-3.1917	-3.4354	-2.9813	-17.547	69.916	-79.456	148.085	197.787	47.557	-104.057	-30.195	-29.232	-31.067	182.796	118.623	3.633	147.415	27.154	95.203	0.00056079	0.00031526	0.00018503	1272.4	9.3698e-06	1.856e-06	1321.7	248.04	1.5765e-06	3.7211e-06	306.84	89.099	70.624	20.437	6.7931e-06	28.713	0.00024531	0.00028829	7.4639e-05	1220	2.7847e-06	3.1713e-06	1264.5	240.56	2.7896e-06	3.1549e-06	295.95	86.378	69.163	20.776	2.7722e-06	28.464	-13.692	23.437	-68.065	-149.611	-118.960	1.652	-149.569	-142.392	67.269	70.961	-142.687	-136.228	-135.581	-128.562	-47.212	-129.423	-8191	255	
7950.775	1	1	0	0	0.24223	0.095923	0.14582	0.24229	0.066417	0.29037	0.41429	0.19946	0.37732	0.11728	0.2208	0.24722	0.18281	0.30555	0.22645	0.20512	-2.8312	-3.1167	-2.9313	-3.7708	-2.9229	-3.3604	-3.3812	-2.9542	-3.2	-3.3688	-3.0333	-3.3708	-3.0187	-3.2583	-3.2188	-3.0042	170.698	-151.426	-92.539	161.633	-114.857	152.836	175.466	155.875	-102.016	11.188	148.764	140.378	-129.919	94.391	-140.746	145.260	0.00045935	0.00060795	0.00026643	1269.3	5.0417e-06	4.2503e-06	1315	248.29	6.0546e-06	1.1024e-06	307.32	88.751	70.496	20.496	4.6136e-06	28.693	0.00026195	0.00028251	7.1916e-05	1217.5	2.9353e-06	3.0987e-06	1262.7	239.76	2.9579e-06	3.0587e-06	295.48	86.364	69.721	20.727	2.7176e-06	28.533	-15.873	-128.340	-123.745	-149.566	-88.591	1.873	-149.605	-142.353	183.355	-18.977	-142.463	-136.205	-136.200	-128.796	-3.000	-129.487	-8191	255	
7950.871	1	1	0	0	0.068441	0.18277	0.24415	0.3143	0.18169	0.052326	0.33298	0.14312	0.20367	0.08057	0.28374	0.25239	0.091377	0.030239	0.084454	0.15856	-2.8417	-3.1021	-3.0312	-3.55	-3.2188	-3.2146	-3.5271	-3.1708	-3.2562	-3.2458	-3.0062	-3.3312	-3.2542	-3.1021	-3.4521	-2.9375	69.191	63.523	13.538	129.220	191.386	-61.299	183.014	175.986	-123.369	-127.128	103.825	102.500	194.923	16.298	-115.429	-145.027	0.00052976	0.00035778	3.7302e-05	1272.1	2.5649e-06	2.6526e-06	1324.7	249.15	5.1119e-06	2.3483e-06	308.26	89.792	70.376	20.608	2.5155e-06	28.885	0.00028197	0.00027405	7.1482e-05	1220.3	3.1112e-06	3.0501e-06	1266.1	241.45	3.2095e-06	3.0064e-06	296.09	87.242	70.343	20.894	2.8461e-06	28.908	-8.352	-70.311	49.265	-149.487	141.320	85.477	-149.499	-142.412	-4.990	-28.023	-142.721	-136.187	-135.808	-128.229	35.355	-129.658	-8191	255	
7950.992	1	1	0	0	0.1664	0.098515	0.12085	0.20668	0.31498	0.18725	0.24643	0.12653	0.053319	0.17838	0.19276	0.031937	0.18043	0.14633	0.11357	0.24096	-2.8187	-3.2604	-2.9854	-3.5292	-3.0292	-3.0396	-3.7438	-2.9667	-3.2229	-3.4062	-3.0208	-3.4833	-3.1417	-2.9271	-3.2625	-3.0687	26.223	-47.769	118.378	190.820	69.475	58.838	50.109	156.587	-77.040	-14.013	87.806	68.747	76.893	17.497	23.238	6.406	0.00044332	0.0002041	0.00023702	1280.2	3.7127e-06	4.3977e-06	1335.3	251.44	3.6824e-06	3.0059e-06	309.25	90.027	71.244	20.497	1.2037e-06	28.846	0.00031181	0.00027935	7.5236e-05	1233.2	3.3888e-06	3.1167e-06	1274.7	244.09	3.397e-06	3.0011e-06	297.86	88.151	70.731	20.847	2.7915e-06	29.149	2.050	-86.032	-17.335	-149.601	-40.346	-19.477	-149.550	-142.496	-108.200	-32.675	-142.408	-136.178	-135.984	-128.674	-25.134	-129.656	-8191	255	
7951.063	1	1	0	0	0.048948	0.12323	0.047332	0.048768	0.14826	0.21383	0.33419	0.096838	0.29283	0.082281	0.13607	0.1265	0.16476	0.061619	0.010549	0.26228	-2.7417	-3.1333	-3.0208	-3.3333	-3.1792	-3.1771	-3.5958	-3.0729	-3.1042	-3.275	-2.9333	-3.4917	-3.1146	-3.0729	-3.2625	-3.0938	-148.447	-158.529	104.721	153.844	66.884	44.202	130.197	80.321	50.789	-43.605	132.787	4.921	-85.447	117.666	-97.168	86.463	0.00072138	0.00033372	7.3534e-05	1280.4	7.5335e-06	2.174e-06	1335.7	251.34	2.6817e-06	2.0046e-06	309.17	89.959	70.903	20.675	1.7849e-06	28.967	0.0003063	0.00026891	7.3698e-05	1238.4	3.2647e-06	2.9903e-06	1277.5	245.36	3.295e-06	2.9024e-06	297.73	88.883	70.334	20.905	2.8358e-06	29.414	-9.974	-15.185	-86.043	-149.511	-78.599	-70.223	-149.638	-142.433	193.020	-33.835	-142.754	-136.359	-136.244	-128.927	-150.538	-129.209	-8191	255	
7951.159	1	1	0	0	0.32558	0.10153	0.1737	0.19378	0.19924	0.14363	0.23824	0.10018	0.27181	0.19431	0.27208	0.2799	0.12074	0.045212	0.26568	0.17056	-2.5646	-3.3937	-2.9958	-3.4292	-3.1833	-3.0812	-3.5375	-3.1188	-3.0083	-3.2479	-2.9729	-3.2042	-3.1792	-2.9417	-3.2333	-3.0812	-58.114	55.391	45.384	156.022	50.816	142.935	131.229	172.670	74.194	-148.584	148.697	-131.302	135.022	88.321	-140.370	70.135	0.00034543	5.2335e-05	4.839e-05	1291.5	3.9886e-06	2.1594e-06	1334.7	251.79	3.6468e-06	4.9774e-06	311.04	90.227	71.605	20.543	2.9254e-06	28.914	0.00030128	0.00026686	7.6458e-05	1245.7	3.1657e-06	3.0206e-06	1280.6	246.97	3.2226e-06	2.8955e-06	300.12	89.472	70.495	20.841	3.1061e-06	29.593	-1.190	-78.789	-142.156	-149.496	-23.713	-63.446	-149.536	-142.423	12.438	-3.077	-142.585	-136.392	-135.763	-128.842	-151.386	-128.957	-8191	255	
7951.256	1	1	0	0	0.35296	0.19622	0.25715	0.43756	0.15325	0.14705	0.20886	0.15615	0.11378	0.22432	0.13702	0.18894	0.25481	0.16405	0.27403	0.2079	-2.5542	-3.3187	-3.0167	-3.3083	-3.4292	-2.9958	-3.5771	-3.2167	-2.9875	-3.5354	-3.0917	-3.2708	-3.475	-3.0292	-3.2354	-3.2167	68.347	-34.163	-93.528	198.813	-129.782	21.582	166.837	141.561	61.891	14.471	-96.282	-133.808	196.068	193.908	-6.867	145.908	0.00046942	0.00030969	0.00018185	1290.5	6.984e-06	2.7413e-06	1342.2	252.07	4.8032e-06	1.7212e-06	310.34	89.688	71.327	20.712	7.283e-06	29	0.00029795	0.00027131	8.3501e-05	1250.5	3.1627e-06	3.1064e-06	1292.8	248.08	3.2481e-06	3.0016e-06	303.25	89.809	70.739	21.016	3.5016e-06	29.672	4.317	-122.956	-70.350	-149.705	15.534	103.182	-149.642	-142.371	-38.747	-123.157	-142.939	-136.009	-135.890	-128.972	-107.219	-129.411	-8191	255	
7951.376	1	1	0	0	0.11561	0.064262	0.1816	0.28254	0.27978	0.065946	0.19249	0.20684	0.18636	0.35368	0.19481	0.048459	0.14727	0.20878	0.19572	0.082302	-2.4667	-3.2875	-2.875	-3.2417	-3.3438	-2.9188	-3.5146	-3.2104	-2.9938	-3.4333	-3.15	-3.0125	-3.4208	-3.0396	-3.1604	-3.2021	88.856	36.302	71.392	112.877	38.903	-101.853	1.595	154.122	62.948	91.537	176.437	18.982	157.851	122.729	183.669	77.129	0.00066265	0.00020884	0.00031952	1299.9	4.796e-06	5.0677e-06	1353.3	253.86	2.2583e-06	4.4812e-06	312.87	90.211	71.611	20.678	1.8184e-06	29.044	0.00030536	0.00027949	9.2762e-05	1257.5	3.2421e-06	3.2534e-06	1304.9	249.08	3.3561e-06	3.1842e-06	307.52	90.235	71.038	21.191	3.8108e-06	29.687	14.549	158.257	166.191	-149.547	-78.774	-43.786	-149.572	-142.429	29.739	29.794	-142.606	-136.119	-135.954	-129.091	36.109	-129.610	-8191	255	
7951.472	1	1	0	0	0.23538	0.18035	0.052691	0.21525	0.1847	0.15526	0.11244	0.15331	0.21751	0.23051	0.13737	0.30582	0.16345	0.10336	0.024836	0.11928	-2.575	-3.2125	-3.0958	-3.2667	-3.2542	-2.8625	-3.3729	-3.0792	-2.9583	-3.3354	-3.1021	-3.2354	-3.3375	-2.9896	-3.1521	-3.2854	-42.630	-109.114	-23.470	125.104	-37.411	-23.507	2.413	111.736	154.163	25.425	-149.413	163.265	113.614	-155.388	-64.722	-5.497	0.00048138	0.00041943	0.00010367	1305.1	1.1232e-06	5.7143e-06	1351.1	254.76	4.6492e-06	3.8288e-06	314.19	90.748	71.771	20.861	5.5676e-06	28.83	0.00030356	0.00029782	9.6397e-05	1260.9	3.1356e-06	3.3675e-06	1308.4	248.6	3.257e-06	3.3286e-06	306.84	89.639	70.7	21.316	3.7122e-06	29.351	11.070	-93.348	-144.687	-149.484	10.988	-102.973	-149.745	-142.582	-9.360	-141.032	-142.659	-136.324	-136.043	-129.298	9.839	-129.406	-8191	255	
7951.568	1	1	0	0	0.051527	0.2006	0.041619	0.24462	0.17704	0.16836	0.14985	0.10687	0.13312	0.14294	0.070124	0.19005	0.11941	0.2771	0.1278	0.15295	-2.5312	-3.1958	-3.2896	-3.0812	-3.3729	-3.0125	-3.3812	-3.4875	-2.9146	-3.2229	-3.2896	-2.9667	-3.2458	-3.0604	-3.2521	-3.4646	-51.821	-14.203	140.812	192.816	-7.459	22.351	0.572	-92.792	23.181	2.608	145.383	150.851	-127.976	-136.188	-88.483	59.800	0.00043431	0.00026442	0.00015635	1301	2.8927e-06	2.0486e-06	1346.1	252.54	4.5321e-06	2.5872e-06	312.48	91.081	71.912	20.572	5.9981e-06	29.068	0.00028865	0.00030987	9.2595e-05	1256.3	3.0431e-06	3.5002e-06	1302.4	247.12	3.1755e-06	3.5816e-06	305.57	89.679	70.887	21.469	3.6801e-06	29.377	7.368	175.617	-120.580	-149.449	153.685	-2.502	-149.688	-142.512	-48.525	-113.878	-142.386	-136.140	-135.881	-129.380	-67.361	-129.340	-8191	255	
7951.665	1	1	0	0	0.20364	0.27254	0.092254	0.19181	0.16528	0.08457	0.096817	0.15962	0.17875	0.12942	0.37289	0.19479	0.12181	0.10132	0.20425	0.062083	-2.425	-3.2938	-3.2417	-3.0875	-3.3146	-2.9333	-3.1042	-3.5333	-3.0083	-3.3667	-3.0646	-3.05	-3.3479	-2.9208	-2.9458	-3.4146	123.083	-49.929	108.807	142.454	134.956	38.334	22.301	-66.202	115.881	-72.252	143.325	-24.233	-140.644	128.075	-68.736	-11.994	0.00059824	0.00032464	0.0002038	1302.9	2.8002e-06	1.6563e-06	1347	253.59	3.7534e-06	4.8546e-06	310.98	90.399	71.419	20.778	5.1577e-06	29.115	0.00029797	0.00033699	9.0004e-05	1256.5	3.1443e-06	3.7333e-06	1301.5	246.59	3.2562e-06	3.6839e-06	304.1	89.128	70.671	21.519	3.4051e-06	29.208	-7.674	-125.443	-5.261	-149.634	-100.490	-136.564	-149.514	-142.310	-85.817	22.567	-142.723	-136.240	-136.204	-128.963	-13.829	-129.557	-8191	255	
7951.759	1	1	0	0	0.14013	0.075858	0.20117	0.25137	0.21308	0.067298	0.02665	0.067317	0.21202	0.10454	0.054629	0.32935	0.093184	0.15263	0.11354	0.23217	-2.5083	-3.2646	-3.0604	-2.9542	-3.2479	-3.0979	-3.1729	-3.4437	-3.0625	-3.3583	-3.3312	-3.0479	-3.4792	-3.2729	-3.0417	-3.4854	-78.606	-42.010	-23.846	182.673	-112.618	20.300	128.510	1.637	-28.466	41.375	-155.363	41.583	-143.410	98.254	-137.599	-95.736	0.00055726	0.00016153	0.0003579	1300.8	4.8922e-06	3.5324e-06	1348.8	252.49	1.0818e-06	4.4953e-06	311.69	89.983	71.426	20.632	6.4657e-06	28.989	0.00030126	0.00033525	8.4123e-05	1251.5	3.2743e-06	3.7135e-06	1298	246.05	3.427e-06	3.708e-06	302.9	88.891	71.478	21.432	3.3423e-06	29.197	0.414	186.955	-78.815	-149.545	-102.659	87.643	-149.697	-142.609	184.027	1.622	-142.599	-136.341	-136.081	-129.258	-18.206	-128.971	-8191	255	
7951.857	1	1	0	0	0.098039	0.21773	0.12725	0.16059	0.05777	0.13418	0.23836	0.13448	0.1303	0.27822	0.1247	0.14273	0.033676	0.02005	0.22583	0.1439	-2.5521	-3.1708	-3.425	-3.2604	-3.3271	-3.1437	-3.1542	-3.5792	-3.1813	-3.1833	-3.2104	-3.0167	-3.2604	-3.2667	-3.0292	-3.4458	154.925	143.202	76.975	-65.127	-110.754	173.520	74.078	53.337	165.467	143.905	164.250	193.333	111.724	127.253	184.763	74.274	0.00055375	0.00083928	0.00017403	1303.2	5.4843e-06	5.4378e-06	1349.5	253.13	4.1373e-06	1.0245e-05	314.43	90.432	71.71	20.658	1.2933e-07	29.024	0.00032622	0.00033565	8.228e-05	1253.9	3.5541e-06	3.5877e-06	1298.8	245.95	3.6248e-06	3.6013e-06	303.29	89.164	71.936	21.316	3.2861e-06	29.259	-16.659	-72.082	-114.493	-149.667	170.681	32.971	-149.545	-142.257	-125.585	-7.827	-142.789	-136.468	-135.995	-128.858	-126.158	-129.257	-8191	255	
7951.976	1	1	0	0	0.07968	0.21023	0.11402	0.14274	0.23985	0.15319	0.43205	0.13214	0.20756	0.093999	0.017829	0.10921	0.25313	0.12704	0.10588	0.33836	-2.5479	-3.0708	-3.2458	-3.0208	-3.1979	-3.2604	-2.9792	-3.3625	-2.9562	-3.075	-3.4688	-2.9479	-3.1021	-3.1771	-2.8646	-3.2562	164.714	149.924	-48.520	-131.256	73.885	-85.079	140.335	-82.473	-80.791	25.202	-19.344	-157.656	166.119	100.633	-24.678	-143.217	0.00061035	0.00021367	0.00010029	1297.6	3.6518e-06	3.4917e-06	1346.6	253.87	2.6742e-06	4.7913e-06	314.28	90.655	71.271	20.701	1.2936e-06	29.384	0.00033917	0.00032254	7.9093e-05	1254.4	3.7109e-06	3.3588e-06	1296.5	247.43	3.7234e-06	3.4239e-06	302.36	89.391	72.026	21.218	3.2111e-06	29.535	9.482	-84.842	-78.055	-149.720	-100.959	-51.583	-149.916	-142.656	173.041	-45.525	-142.731	-136.410	-135.747	-129.371	99.696	-129.643	-8191	255	
7952.072	1	1	0	0	0.054905	0.15051	0.21296	0.13407	0.05107	0.022036	0.12325	0.20788	0.056942	0.044747	0.083719	0.19048	0.13163	0.15587	0.24062	0.28401	-2.7062	-3.0333	-3.3146	-3.1479	-3.1646	-3.2	-3.1479	-3.425	-3.15	-2.9875	-3.3542	-2.8312	-3.0979	-3.3563	-2.9646	-3.3354	-14.034	106.385	-146.224	164.537	-87.884	189.064	120.120	81.791	13.850	13.883	-52.555	78.269	49.605	25.802	177.696	95.862	0.00039446	0.00026648	0.00013354	1302	9.9685e-06	6.5942e-06	1347.7	255.21	5.2748e-06	2.0248e-06	312.79	90.536	71.075	20.929	1.5605e-06	29.191	0.0003429	0.00031059	7.8139e-05	1256	3.7343e-06	3.3171e-06	1295.6	248.77	3.6978e-06	3.3682e-06	302.76	90.038	71.78	21.208	3.1605e-06	29.806	16.718	-130.725	-55.192	-149.671	27.568	22.170	-149.835	-142.656	-64.626	38.574	-142.666	-136.646	-136.048	-128.505	-77.619	-129.499	-8191	255	
7952.168	1	1	0	0	0.12484	0.099173	0.061397	0.10218	0.14804	0.0746	0.18991	0.18784	0.056062	0.080885	0.099177	0.15455	0.017596	0.18384	0.17065	0.22184	-2.7604	-2.9729	-3.2313	-3.1083	-3.2083	-3.4771	-3.0667	-3.1146	-3.1188	-3.0542	-3.45	-3.1	-3.0375	-3.3833	-3	-3.1083	152.160	-88.510	100.072	140.305	-32.726	120.498	105.345	109.635	-107.922	-119.822	188.288	-51.756	83.765	-79.618	122.373	188.885	0.00054948	0.00037402	0.00012183	1302.9	2.9079e-06	4.8468e-06	1351.5	252.94	6.2518e-06	1.7854e-06	313.15	90.757	71.811	20.782	1.8218e-06	29.07	0.0003259	0.00030066	7.725e-05	1259.9	3.5434e-06	3.1467e-06	1297.2	249.49	3.4676e-06	3.2568e-06	302.54	90.424	71.571	21.081	3.2777e-06	29.899	16.691	-68.394	-66.531	-149.686	-128.448	-58.692	-149.687	-142.584	4.008	67.039	-142.931	-136.530	-135.875	-128.759	173.215	-129.288	-8191	255	
7952.264	1	1	0	0	0.13983	0.2739	0.17765	0.19473	0.24918	0.23121	0.32434	0.25057	0.12304	0.24027	0.30595	0.29563	0.19502	0.14299	0.15386	0.0095144	-2.8833	-3.0354	-3.2896	-3.0979	-2.9583	-3.4292	-2.9979	-3.2771	-3.125	-2.8521	-3.2562	-3.2146	-2.9896	-3.2625	-2.875	-3.1125	117.862	-31.633	-127.715	159.751	-50.953	-111.892	119.490	-159.993	79.834	53.807	-62.879	147.672	-135.216	-153.225	-23.466	-98.193	0.00027411	0.00032704	0.00012931	1300.8	5.7717e-06	2.7797e-06	1356.4	253.28	5.9119e-06	3.4095e-06	312.2	90.853	71.643	20.785	4.6533e-06	28.89	0.00030836	0.00029505	8.0861e-05	1262.5	3.4042e-06	3.0666e-06	1301.3	249.82	3.2698e-06	3.1606e-06	303.53	90.367	71.248	20.997	3.3841e-06	29.828	-8.237	-116.178	110.418	-149.707	-52.138	-114.325	-149.534	-142.384	-57.602	-47.110	-142.719	-136.520	-135.984	-129.163	-93.889	-129.409	-8191	255	
7952.360	1	1	0	0	0.20959	0.08226	0.24396	0.30713	0.080681	0.20566	0.31379	0.1059	0.16087	0.022625	0.21942	0.22612	0.2441	0.18711	0.20455	0.37062	-3.0062	-2.9333	-3.3208	-3.3833	-2.8583	-3.4313	-3.1042	-3.3104	-3.2833	-3.0771	-3.3	-3.1958	-3.025	-3.525	-3.125	-2.9437	114.893	133.751	83.415	129.400	63.126	48.776	120.531	-29.770	-17.820	165.453	96.985	70.252	187.320	-60.670	35.441	160.146	0.0005071	0.00025622	0.0001794	1299.1	2.9533e-06	2.8357e-06	1348.2	253.47	3.9413e-06	4.606e-06	311.11	90.087	71.461	20.73	4.3082e-06	28.796	0.00029695	0.00028613	8.7456e-05	1258.6	3.3e-06	3.04e-06	1301	249.13	3.222e-06	3.1722e-06	305.15	90.013	71.122	20.984	3.6438e-06	29.645	19.649	-61.746	135.243	-149.250	-135.715	127.254	-150.057	-142.391	-106.675	-18.728	-142.617	-135.977	-135.905	-128.624	-73.201	-129.221	-8191	255	
7952.457	1	1	0	0	0.14446	0.056358	0.11077	0.34631	0.17424	0.11635	0.28776	0.24496	0.056809	0.20245	0.17096	0.19881	0.11806	0.12875	0.10832	0.14578	-2.8729	-3	-3.3792	-3.3354	-2.7625	-3.4896	-3.1667	-3.1042	-3.4417	-2.9521	-3.3646	-3.3021	-2.8438	-3.4771	-3.2292	-3.1292	87.981	-119.193	140.870	102.430	-147.806	18.572	159.431	106.509	-145.029	-60.947	-51.555	135.123	61.303	79.199	84.958	198.697	0.00054981	0.00030494	0.00011105	1299	1.8343e-06	5.6855e-06	1340.6	252.78	2.6063e-06	3.4923e-06	310.77	90.317	71.16	20.502	3.3203e-06	28.904	0.00028761	0.00028942	9.2781e-05	1255.8	3.2038e-06	3.097e-06	1301	247.63	3.0949e-06	3.2171e-06	305.46	89.256	70.651	20.989	3.6677e-06	29.359	7.890	-60.619	146.604	-149.582	34.870	-136.602	-149.556	-142.549	7.515	182.680	-142.744	-136.476	-135.737	-128.836	-41.067	-129.671	-8191	255	
7952.553	1	1	0	0	0.056717	0.16606	0.1793	0.11469	0.23036	0.18317	0.067118	0.20144	0.089645	0.18717	0.30384	0.13331	0.12484	0.16489	0.13154	0.061257	-2.9875	-2.8271	-3.1833	-3.4208	-2.8333	-3.2458	-3.15	-3.0917	-3.3417	-3.1188	-3.3604	-3.45	-3.0563	-3.3833	-3.0875	-2.9458	45.193	-62.086	-20.889	189.910	60.469	-117.080	158.021	-103.348	-154.241	-132.931	130.044	107.914	83.003	-136.233	84.005	22.857	0.0006323	0.00044048	0.00018542	1291.9	7.5148e-06	3.6861e-06	1348.5	252.8	1.3117e-06	1.2176e-06	311.49	90.186	70.986	20.588	2.8883e-06	28.888	0.00028001	0.00030328	9.4005e-05	1250.2	3.1612e-06	3.3013e-06	1299.9	247.01	3.0309e-06	3.4331e-06	305.42	88.78	70.5	21.205	3.6251e-06	29.291	5.872	-157.683	136.090	-149.477	-46.463	-67.776	-149.672	-142.497	-106.814	141.226	-142.706	-136.346	-135.721	-128.913	14.568	-129.640	-8191	255	
7952.673	1	1	0	0	0.10743	0.28208	0.32367	0.33906	0.25549	0.071656	0.14206	0.34381	0.093915	0.25592	0.046866	0.14709	0.16438	0.3627	0.079646	0.1531	-3.0146	-2.9875	-3.0708	-3.5	-2.8604	-3.3812	-3.3521	-2.9854	-3.4104	-2.8979	-3.3292	-3.3438	-2.9458	-3.375	-3.3604	-3.0438	198.588	176.524	55.065	196.156	165.189	-159.658	138.543	132.126	184.722	47.795	138.953	161.711	-125.818	-104.610	142.282	-104.118	0.00031841	0.00015202	0.00018154	1299.6	4.0028e-06	1.8675e-06	1342.4	253.83	3.0922e-06	1.6246e-06	310.25	90.455	71.161	20.666	3.8398e-06	28.819	0.00027813	0.0003243	9.2451e-05	1251	3.1267e-06	3.5676e-06	1296.4	247.06	3.0636e-06	3.6316e-06	304.36	88.483	70.718	21.36	3.4665e-06	29.252	-26.728	-154.668	-9.142	-149.472	-118.404	-62.408	-149.719	-142.323	-144.450	-22.331	-142.807	-136.167	-135.781	-129.057	-57.296	-129.500	-8191	255	
7952.768	1	1	0	0	0.16473	0.066459	0.19624	0.20281	0.17817	0.036162	0.08578	0.088369	0.10537	0.23321	0.044901	0.10619	0.070122	0.15032	0.15369	0.18001	-2.8896	-3.1542	-3.1604	-3.5312	-3.0312	-3.3063	-3.5667	-2.9958	-3.3667	-3.2771	-3.0667	-3.4583	-3.2417	-3.3604	-3.075	-3.0542	134.961	-68.999	178.848	127.575	133.769	-21.472	104.635	195.824	-16.132	-17.560	65.538	160.538	-114.284	132.944	107.649	-1.047	0.00042856	0.00018132	9.2742e-06	1296.3	4.4463e-06	4.461e-06	1344.5	252.73	2.6235e-06	1.4506e-06	311	90.008	70.811	20.523	5.2707e-06	28.836	0.00028607	0.00033537	8.8589e-05	1247.6	3.2537e-06	3.7289e-06	1293.6	246.7	3.2568e-06	3.7375e-06	304.04	88.432	70.75	21.411	3.2743e-06	29.111	-0.819	-114.651	42.439	-149.421	-109.894	-21.812	-149.327	-142.425	-137.252	-27.840	-142.593	-135.917	-136.152	-128.771	-17.347	-129.827	-8191	255	
7952.864	1	1	0	0	0.28543	0.052527	0.23949	0.15427	0.18829	0.04539	0.22029	0.17932	0.23009	0.083574	0.29004	0.11078	0.19265	0.27594	0.18053	0.14595	-2.8208	-3.1917	-2.9458	-3.475	-2.8896	-3.2458	-3.4396	-3.0187	-3.4125	-3.3667	-3.0625	-3.4021	-3.0167	-3.2521	-3.275	-2.8104	35.051	162.397	61.241	183.178	20.508	-54.025	-46.417	131.178	-149.542	-158.605	79.524	57.025	176.308	140.291	-1.294	-66.665	0.0004437	0.00055398	0.00025813	1292.7	1.9081e-06	4.982e-06	1339.4	253.38	1.0676e-05	9.0388e-07	310.44	90.418	71.53	20.594	1.0235e-06	28.866	0.00030556	0.00033906	8.544e-05	1245.3	3.4532e-06	3.6936e-06	1291.5	246.59	3.4954e-06	3.6397e-06	302.39	88.263	71.636	21.342	3.2224e-06	29.179	-11.747	-63.642	-104.066	-149.569	12.144	-6.211	-149.635	-142.547	190.081	-0.832	-142.677	-135.897	-136.121	-128.756	168.587	-129.228	-8191	255	
7952.937	1	1	0	0	0.038563	0.064742	0.14175	0.2766	0.11968	0.24414	0.13529	0.16254	0.10172	0.060174	0.017386	0.18396	0.25001	0.12034	0.18291	0.26279	-2.725	-3.0438	-2.8021	-3.45	-2.85	-3.1146	-3.425	-2.9979	-3.2979	-3.2396	-2.9146	-3.3937	-3.0958	-2.9104	-3.3438	-2.9604	-41.819	44.405	80.159	152.823	86.490	74.412	80.747	-123.421	-63.118	-106.718	-60.446	-13.185	167.225	17.528	107.763	182.252	0.00053378	0.0005401	0.00016398	1300.7	9.9572e-06	4.2575e-06	1341.2	251.46	4.1387e-06	5.7547e-06	311.74	89.806	70.811	20.632	4.7348e-06	28.828	0.00033131	0.000325	8.4687e-05	1246.8	3.69e-06	3.5678e-06	1289.8	246.14	3.7305e-06	3.4665e-06	302.7	88.46	71.605	21.178	3.153e-06	29.245	-18.303	-63.235	-114.428	-149.749	-135.151	61.715	-149.537	-142.579	-14.275	-19.482	-142.383	-136.194	-136.019	-128.881	-63.867	-129.759	-8191	255	
7953.056	1	1	0	0	0.026854	0.14795	0.31723	0.33623	0.088044	0.025741	0.11074	0.3021	0.049842	0.011686	0.11009	0.13843	0.14918	0.18309	0.34295	0.17896	-2.9208	-3.3208	-2.8688	-3.4188	-3.2562	-3.1458	-3.4813	-2.9833	-3.1708	-3.3187	-3.0479	-3.4479	-3.0292	-2.9542	-3.3	-3.025	-40.231	-6.966	9.885	121.474	111.851	-158.563	110.392	-69.650	14.079	38.159	-34.627	-134.745	119.215	-88.408	174.467	100.139	0.00069535	0.00053283	5.8451e-05	1293.6	1.4481e-06	5.0485e-06	1337.5	253.43	7.4484e-06	3.5853e-06	309.02	89.635	70.989	20.601	4.2512e-06	28.801	0.00034064	0.00030574	8.1125e-05	1248.6	3.6722e-06	3.3648e-06	1284.6	246.87	3.6802e-06	3.2195e-06	300.51	88.638	71.375	21.019	2.9842e-06	29.281	-19.056	-82.810	-109.999	-149.668	94.313	-44.321	-149.750	-142.465	-93.371	0.899	-142.614	-136.527	-135.883	-128.500	-71.619	-129.141	-8191	255	
7953.152	1	1	0	0	0.081608	0.13586	0.12531	0.23725	0.07789	0.082284	0.20219	0.066171	0.050256	0.19502	0.13991	0.13075	0.22329	0.19685	0.13114	0.17562	-2.7062	-3.3271	-2.9813	-3.4958	-3.2708	-3.0625	-3.4729	-3.2021	-3.1021	-3.3333	-3	-3.4354	-3.1479	-2.8354	-3.5042	-2.9688	186.012	-98.227	39.809	187.293	-6.538	67.704	147.231	102.383	-24.320	-62.305	138.403	23.675	-159.597	73.564	-0.022	-57.219	0.00035133	0.00038884	9.0735e-05	1291.6	8.6238e-06	7.2249e-06	1340.6	252.31	5.8119e-06	4.0945e-06	311.06	89.838	70.925	20.585	9.3485e-07	28.695	0.00032574	0.00028558	7.8847e-05	1245.9	3.5128e-06	3.259e-06	1280.8	246.88	3.5174e-06	3.0917e-06	299.48	89.077	70.724	20.901	3.0015e-06	29.498	18.364	-21.206	-21.801	-149.439	-26.903	9.684	-149.626	-142.278	-32.306	26.518	-142.532	-136.272	-135.786	-128.539	116.490	-129.153	-8191	255	
7953.248	1	1	0	0	0.11767	0.062272	0.22926	0.36821	0.11821	0.13843	0.18771	0.21215	0.27576	0.23524	0.13407	0.27661	0.13774	0.12271	0.069586	0.21811	-2.7542	-3.3875	-2.8146	-3.5687	-3.2417	-2.9583	-3.5396	-3.1521	-3.0417	-3.2875	-2.9042	-3.2646	-3.2562	-2.9479	-3.3625	-3.2646	132.066	25.750	158.029	181.581	9.684	1.399	91.061	93.878	23.125	126.530	166.363	-54.929	18.924	-59.752	27.270	197.625	0.00041705	0.00028659	0.00021306	1292.2	4.2559e-06	1.4321e-06	1338.6	252.01	3.1687e-06	5.2902e-06	311.39	89.63	70.711	20.436	3.0887e-06	28.755	0.00031553	0.00027796	7.9561e-05	1247.1	3.3504e-06	3.1865e-06	1281.5	247.64	3.3993e-06	3.058e-06	301.18	89.338	70.348	20.845	3.1442e-06	29.483	25.237	-115.870	-119.305	-149.478	-60.597	16.701	-149.597	-142.454	-36.678	4.288	-142.510	-136.436	-135.704	-128.896	-154.286	-129.414	-8191	255	
7953.345	1	1	0	0	0.24917	0.067741	0.20253	0.10671	0.035939	0.078532	0.26776	0.11025	0.025489	0.24935	0.23497	0.12445	0.14124	0.075948	0.11766	0.29536	-2.5917	-3.4146	-3.1562	-3.3229	-3.2021	-2.9313	-3.5333	-3.2146	-2.8563	-3.5292	-3.0604	-3.2083	-3.4229	-2.9875	-3.3	-3.175	93.799	168.546	36.951	161.425	155.047	166.380	100.486	13.499	-31.896	-67.784	129.457	25.125	171.340	139.185	-73.838	172.255	0.00063518	0.00023869	0.00019805	1283.9	5.7209e-06	6.7975e-06	1338.1	252.7	3.6938e-06	4.2279e-06	308.35	89.998	71.052	20.439	1.109e-06	28.728	0.00030194	0.00027256	8.2855e-05	1246	3.1504e-06	3.0723e-06	1284.1	248.04	3.2592e-06	2.9614e-06	301.5	89.342	70.289	20.828	3.4396e-06	29.436	-1.516	-76.684	-118.461	-149.569	-57.396	4.707	-149.663	-142.590	97.065	-46.135	-142.602	-136.070	-135.994	-128.995	-108.874	-129.264	-8191	255	
7953.465	1	1	0	0	0.30524	0.062254	0.072179	0.16976	0.080519	0.15975	0.057224	0.20287	0.073034	0.021681	0.021164	0.13404	0.068143	0.094745	0.30268	0.050569	-2.4688	-3.3354	-2.9875	-3.4	-3.1979	-3.0125	-3.2854	-3.3187	-2.8896	-3.1667	-3.0458	-3.0958	-3.5125	-2.9437	-3.0958	-3.1458	57.657	-35.589	122.285	119.174	-131.166	191.190	142.802	165.489	-46.283	122.790	173.946	131.374	73.866	-140.538	152.111	172.953	0.00033045	0.00031204	0.00031139	1290.4	1.9359e-06	2.8363e-06	1335.3	251.08	7.0937e-06	2.3836e-06	309.54	89.248	70.745	20.601	3.6572e-06	28.586	0.00029569	0.00027116	8.9199e-05	1247.9	3.109e-06	3.084e-06	1289.2	246.55	3.1837e-06	3.0001e-06	303.46	88.825	69.992	20.908	3.6024e-06	29.121	3.131	-117.203	153.591	-149.568	-87.794	-4.713	-149.613	-142.445	-87.386	181.570	-142.712	-136.345	-136.052	-129.329	-96.142	-129.453	-8191	255	
7953.561	1	1	0	0	0.066578	0.12986	0.144	0.18395	0.19227	0.054157	0.14023	0.18042	0.20312	0.037497	0.34977	0.22659	0.085607	0.21216	0.07972	0.11675	-2.5729	-3.1833	-3.0833	-3.25	-3.2458	-2.9417	-3.3792	-3.2875	-2.9	-3.4417	-3.1771	-3.0687	-3.2917	-2.9646	-3.0687	-3.2625	117.845	-25.661	57.172	177.320	-132.743	163.676	133.976	162.517	61.008	153.308	171.817	195.647	181.761	-16.933	-104.769	-105.711	0.00066717	0.00052161	5.3211e-05	1288.5	1.4088e-06	4.6682e-06	1335.8	251.12	1.0068e-05	4.2658e-06	307.45	90.352	71.466	20.546	3.6743e-06	28.718	0.0002896	0.00027991	9.1424e-05	1242.6	3.0234e-06	3.1682e-06	1289.4	245.43	3.0817e-06	3.1289e-06	302.62	88.685	70.015	20.948	3.5968e-06	29.027	-3.584	-93.626	114.597	-149.547	-15.059	-114.657	-149.629	-142.480	-45.764	198.163	-142.480	-136.301	-135.462	-129.069	-30.052	-129.333	-8191	255	
7953.658	1	1	0	0	0.1064	0.088568	0.098345	0.36359	0.048646	0.10738	0.081294	0.2245	0.17959	0.1128	0.21807	0.24982	0.28751	0.16053	0.14106	0.12314	-2.5333	-3.25	-3.0667	-3.0958	-3.2062	-2.9354	-3.125	-3.3958	-2.9062	-3.3063	-2.9479	-2.8646	-3.2042	-3.0354	-3.0354	-3.4708	-73.794	77.861	-44.114	104.909	189.898	143.896	41.173	193.237	-96.985	-144.060	173.742	114.879	153.079	153.709	-87.621	80.488	0.00047884	0.00035554	0.0001051	1291.6	1.1682e-06	1.2254e-06	1335.1	251.87	4.1547e-06	8.4183e-07	310	89.516	70.644	20.425	1.9527e-06	28.87	0.00028059	0.00029953	9.1269e-05	1242.1	2.9959e-06	3.4298e-06	1290.7	245.09	3.0713e-06	3.442e-06	302.3	88.26	69.92	21.139	3.5056e-06	28.99	-10.317	128.601	79.682	-149.613	-157.328	1.365	-149.841	-142.593	147.161	53.006	-142.688	-136.142	-135.682	-128.835	175.976	-129.415	-8191	255	
7953.754	1	1	0	0	0.015331	0.097346	0.1659	0.068522	0.14639	0.038096	0.15737	0.078632	0.0095493	0.22544	0.025386	0.22109	0.070943	0.1759	0.25186	0.17265	-2.5042	-3.0875	-3.1479	-3.0646	-3.3354	-3.1354	-3.1792	-3.5208	-2.9062	-3.5646	-3.2354	-2.85	-3.2438	-3.075	-3.1354	-3.3438	-5.604	197.059	63.636	134.044	-97.117	72.565	168.254	146.103	-10.242	-50.632	92.788	155.950	70.424	107.358	-121.872	103.076	0.00058468	0.00039756	0.00018451	1287.6	6.6978e-06	1.9673e-06	1343	252.11	2.2383e-06	1.0535e-06	308.25	89.428	70.512	20.422	3.8356e-06	28.676	0.00028558	0.00032381	8.7799e-05	1241.8	3.0336e-06	3.6182e-06	1290.1	244.83	3.1705e-06	3.6444e-06	301.57	88.248	70.1	21.229	3.4196e-06	28.901	12.882	180.811	-93.369	-149.541	-112.256	59.440	-149.499	-142.782	153.991	-57.590	-142.628	-136.080	-135.665	-128.715	-132.853	-128.990	-8191	255	
7953.848	1	1	0	0	0.1692	0.17699	0.16051	0.045072	0.072179	0.0622	0.23842	0.30973	0.20637	0.16039	0.15508	0.35098	0.27323	0.20628	0.24906	0.058774	-2.6063	-3.2083	-3.2542	-3.1146	-3.325	-3.0771	-3.1396	-3.3063	-2.8604	-3.3146	-3.3104	-2.8333	-3.2729	-3.3063	-2.8312	-3.3479	-96.499	-12.624	42.723	5.699	-54.077	150.382	120.749	110.659	71.870	82.982	69.517	122.433	193.031	101.106	170.746	31.271	0.00064444	0.00058268	0.00014967	1284.6	3.6428e-06	5.8348e-06	1345	252.01	3.1521e-06	1.7107e-06	309.3	90.055	70.748	20.398	6.3937e-08	28.844	0.00029793	0.00033634	8.3329e-05	1240.7	3.1953e-06	3.6298e-06	1288.5	244.67	3.3555e-06	3.6596e-06	299.91	88.367	70.644	21.17	3.3061e-06	28.939	1.047	14.328	-58.407	-149.634	-98.146	-44.134	-149.692	-142.324	-90.702	44.706	-142.629	-136.350	-136.010	-128.573	-40.601	-129.489	-8191	255	
7953.944	1	1	0	0	0.082988	0.293	0.23624	0.3583	0.12446	0.045959	0.12008	0.038015	0.20069	0.15801	0.11286	0.13685	0.089956	0.19955	0.15773	0.15333	-2.5333	-3.1312	-3.3042	-3.2146	-3.4229	-3.1708	-3.3104	-3.3	-3.125	-3.0938	-3.3604	-3.0542	-3.2333	-3.2479	-2.7896	-3.4333	153.876	99.920	-6.758	146.825	164.041	-49.491	69.484	16.372	7.067	-2.201	-8.224	-54.730	167.217	78.174	59.553	-38.196	0.00078784	0.00035792	0.00025533	1288.5	4.3971e-06	1.6914e-06	1333.2	252.97	8.2627e-06	7.0723e-06	309.91	90.192	71.172	20.511	2.2663e-06	28.717	0.00032065	0.000332	8.166e-05	1240.1	3.5058e-06	3.5583e-06	1286	244.73	3.5835e-06	3.6155e-06	300.79	88.36	71.532	21.141	3.2913e-06	28.982	-18.322	-109.235	-102.494	-149.635	-92.264	-12.152	-149.936	-142.436	2.477	40.438	-142.515	-136.448	-136.105	-128.820	-9.842	-129.781	-8191	255	
7954.065	1	1	0	0	0.20586	0.22285	0.25382	0.15713	0.12161	0.098405	0.27292	0.23245	0.047132	0.25509	0.066506	0.16709	0.12345	0.26614	0.063041	0.1695	-2.6063	-3.1667	-3.1979	-3.0625	-3.3604	-3.2396	-3.0917	-3.4958	-3.0958	-2.9917	-3.4458	-3.1417	-3.1833	-3.2854	-3.0146	-3.35	186.650	-138.839	72.795	126.182	-52.349	189.002	159.981	-90.093	26.777	178.627	95.040	91.943	-117.462	-149.137	-60.647	194.108	0.00050168	0.00054349	0.00015701	1289.5	4.6813e-06	2.273e-06	1337.3	252.51	2.0614e-06	5.2189e-06	311.9	89.458	70.742	20.502	4.4924e-06	28.605	0.00033963	0.00032532	8.038e-05	1246.6	3.6908e-06	3.4198e-06	1287.1	245.53	3.7508e-06	3.4762e-06	300.63	88.431	71.441	21.009	3.2121e-06	29.241	-3.115	-9.443	-70.151	-149.606	-157.503	62.307	-149.732	-142.502	-148.775	20.542	-142.564	-136.430	-135.598	-128.838	57.636	-129.426	-8191	255	
7954.161	1	1	0	0	0.19915	0.063972	0.34488	0.31177	0.038051	0.24528	0.16084	0.049722	0.042593	0.19614	0.33548	0.13361	0.09765	0.15114	0.17072	0.14557	-2.7	-3.0771	-3.2354	-3.2104	-3.125	-3.3417	-3.1104	-3.3208	-3.2896	-3.1104	-3.5083	-3.0083	-3.2604	-3.2875	-3.0125	-3.4	-3.889	18.389	-135.473	197.459	24.812	113.028	100.626	165.244	122.480	183.185	97.496	100.185	144.610	186.146	63.404	58.507	0.00032629	0.00046289	3.0427e-05	1293.3	6.0575e-06	6.4323e-06	1342.8	252.22	5.5053e-06	1.1104e-06	310.72	89.452	70.845	20.585	1.2184e-06	28.734	0.00034295	0.00030706	7.7877e-05	1247.4	3.7244e-06	3.2668e-06	1287.9	247.35	3.6823e-06	3.344e-06	299.89	89.423	71.404	20.971	3.182e-06	29.501	-5.059	-81.870	-58.374	-149.704	-50.656	-9.383	-149.747	-142.732	-29.104	181.939	-142.681	-136.809	-135.906	-128.737	131.981	-129.400	-8191	255	
7954.233	1	1	0	0	0.05806	0.23296	0.17566	0.38991	0.13952	0.17559	0.23272	0.24414	0.089428	0.20914	0.21071	0.088544	0.23044	0.048863	0.10319	0.32345	-2.8104	-3.0083	-3.4729	-3.1813	-2.9604	-3.4333	-3.1583	-3.35	-3.2729	-3.0062	-3.3563	-3.2604	-3.0875	-3.575	-3.1	-3.2979	-67.009	-84.827	63.371	123.791	-104.308	156.913	144.101	123.452	150.422	-15.364	157.039	-15.383	181.369	144.697	-99.256	162.565	0.00053185	0.00057281	6.4911e-05	1286.6	4.745e-06	5.0275e-06	1336.8	253.19	8.0375e-06	3.1359e-06	310.02	89.992	71.151	20.535	1.9933e-06	28.692	0.00032999	0.00030455	7.9029e-05	1250.3	3.6448e-06	3.1994e-06	1288.6	248.95	3.5225e-06	3.3232e-06	300.33	89.959	71.263	20.941	3.2974e-06	29.702	6.104	-47.010	-8.038	-149.716	90.462	-66.836	-149.646	-142.595	-109.132	39.071	-142.541	-136.108	-135.807	-129.014	81.379	-129.348	-8191	255	
7954.329	1	1	0	0	0.13104	0.14311	0.032678	0.24117	0.14569	0.044004	0.15554	0.19367	0.069656	0.20126	0.14774	0.05573	0.057735	0.30203	0.10877	0.12251	-2.8125	-2.9875	-3.3104	-3.3833	-3.0167	-3.3438	-3.0687	-3.3396	-3.1479	-3.0563	-3.3187	-3.1875	-2.9646	-3.4104	-2.9188	-3.2083	-88.072	187.955	191.895	-144.303	69.791	-91.571	105.989	67.388	21.208	-76.533	-101.659	-72.537	114.768	194.702	94.871	-123.587	0.00054914	0.00046913	4.187e-05	1293.9	4.0055e-06	5.2793e-06	1339.4	253.04	1.7699e-06	3.4105e-06	308.7	90.164	70.916	20.577	2.7075e-06	28.963	0.00031787	0.00030099	8.2632e-05	1255.4	3.4738e-06	3.1494e-06	1290	249.47	3.3741e-06	3.2325e-06	301.29	89.907	70.849	20.898	3.4545e-06	29.668	-3.382	-63.362	186.215	-149.481	184.429	27.886	-149.919	-142.469	-123.485	68.652	-142.667	-136.043	-135.839	-128.788	-98.503	-129.710	-8191	255	
7954.449	1	1	0	0	0.19612	0.13547	0.084358	0.23328	0.086209	0.057394	0.15966	0.32016	0.2379	0.20745	0.12696	0.18452	0.28236	0.20901	0.20604	0.24343	-2.8146	-2.9354	-3.2812	-3.4354	-2.925	-3.3979	-3.1292	-3.2021	-3.3229	-2.9271	-3.2479	-3.2458	-3.1083	-3.5	-2.9833	-3.1937	188.181	13.203	-73.050	150.141	-50.748	-21.855	85.015	154.592	-25.468	124.210	143.800	-116.478	188.226	156.343	-104.660	90.671	0.00044746	0.00046686	0.00013465	1299.6	7.7177e-06	2.2041e-06	1340.5	253.44	5.9338e-06	3.7682e-06	309.49	89.536	70.892	20.547	1.3307e-06	28.917	0.00030063	0.00029011	8.7961e-05	1254.7	3.338e-06	3.0626e-06	1294.6	248.9	3.2214e-06	3.17e-06	303.61	89.377	70.665	20.835	3.6637e-06	29.542	-7.779	-72.475	142.156	-149.661	20.143	24.512	-149.713	-142.417	-130.051	-35.838	-142.743	-136.374	-135.942	-128.960	-19.666	-129.151	-8191	255	
7954.546	1	1	0	0	0.12894	0.05276	0.23352	0.029882	0.23655	0.32863	0.28214	0.3081	0.087671	0.084705	0.17165	0.25751	0.11196	0.20567	0.29015	0.24643	-3.0563	-2.8958	-3.4188	-3.4458	-2.9396	-3.3396	-3.0542	-3.3	-3.45	-2.9188	-3.2229	-3.2729	-3.0958	-3.3208	-3.2146	-2.9667	-158.688	11.156	-64.996	-20.521	-83.185	-153.122	146.626	-32.446	89.865	-139.343	121.212	170.176	79.616	38.066	12.136	-112.664	0.00056685	2.9009e-06	7.4389e-05	1293.8	6.8394e-06	3.7377e-06	1338.4	251.63	3.7353e-06	3.0477e-06	308.98	89.894	71.158	20.622	1.7217e-06	28.627	0.0002941	0.00029397	9.3391e-05	1251.9	3.3061e-06	3.1403e-06	1296.9	247.93	3.1764e-06	3.2955e-06	305.16	89.057	70.565	20.969	3.7662e-06	29.432	-7.933	-81.814	-109.213	-149.630	-9.326	-61.455	-149.684	-142.575	126.105	-154.920	-142.830	-136.135	-135.956	-128.961	-9.385	-129.743	-8191	255	
7954.642	1	1	0	0	0.19412	0.081819	0.16192	0.23973	0.058295	0.25194	0.20088	0.24592	0.022289	0.090708	0.19636	0.12291	0.11581	0.15659	0.14412	0.22706	-2.9333	-3.0354	-3.1104	-3.4083	-2.9708	-3.2542	-3.1625	-3.1813	-3.4104	-3.0771	-3.4375	-3.2958	-2.9313	-3.3812	-3.0771	-3.0667	146.672	-122.427	100.831	158.705	6.083	-77.579	166.172	-58.520	57.186	136.369	194.857	194.449	-120.271	177.900	-123.660	99.894	0.00044322	0.00026075	0.000156	1296.4	6.9234e-06	3.5758e-06	1341.9	253.6	4.6504e-06	4.1581e-06	310.24	89.956	71.408	20.515	5.4299e-06	28.933	0.00028579	0.00030474	9.5435e-05	1250.8	3.224e-06	3.3361e-06	1297.6	247.5	3.0991e-06	3.4971e-06	305.03	88.677	70.646	21.187	3.6896e-06	29.347	16.304	111.552	190.673	-149.489	21.398	-84.663	-149.570	-142.448	105.849	156.376	-142.657	-136.138	-135.716	-128.843	-24.339	-129.771	-8191	255	
7954.738	1	1	0	0	0.15068	0.093191	0.21735	0.22763	0.15209	0.16137	0.093317	0.17423	0.099596	0.22746	0.21244	0.21708	0.063929	0.045807	0.054831	0.30687	-2.9167	-2.9167	-2.8167	-3.3458	-2.7646	-3.3792	-3.2833	-2.9688	-3.4583	-3.0708	-3.2542	-3.425	-2.9604	-3.2208	-3.1813	-3.0125	169.014	20.783	131.813	184.142	178.833	-112.543	-143.117	76.345	30.907	-18.892	91.680	142.947	60.550	-96.801	21.676	30.005	0.00037941	0.00037345	6.358e-05	1291.9	1.2656e-06	4.2947e-06	1343	252.59	3.9845e-06	1.9743e-06	310.81	89.55	71.412	20.55	6.356e-06	28.876	0.00028143	0.0003253	9.2987e-05	1248.8	3.1628e-06	3.5628e-06	1295.4	246.87	3.0821e-06	3.6652e-06	304.3	88.3	70.493	21.332	3.5208e-06	29.251	3.452	-139.818	-23.370	-149.578	-93.444	-39.085	-149.669	-142.339	-126.890	116.757	-142.769	-136.548	-136.059	-128.894	-32.968	-129.197	-8191	255	
7954.832	1	1	0	0	0.25786	0.14771	0.15745	0.3174	0.09295	0.090227	0.174	0.029421	0.34626	0.20833	0.21613	0.065998	0.17381	0.13073	0.059102	0.086139	-2.9042	-2.9833	-3	-3.4562	-2.9813	-3.3667	-3.3583	-2.9792	-3.5646	-3.3271	-3.1729	-3.5375	-3.1917	-3.1292	-3.3604	-3.1312	-87.278	3.384	-93.529	161.645	-81.857	-25.624	176.944	75.921	159.700	-16.343	-62.170	74.863	37.861	-141.268	119.060	-157.063	0.00044634	0.00037147	0.00035313	1291.9	6.313e-06	3.5676e-06	1344.3	251.46	4.7988e-06	4.8176e-06	310.91	90.492	71.381	20.448	4.414e-06	28.866	0.00028867	0.00034164	8.9198e-05	1246.1	3.2707e-06	3.7643e-06	1292.4	245.81	3.2381e-06	3.7172e-06	303.1	88.395	70.906	21.363	3.34e-06	29.157	-16.382	-17.390	-57.939	-149.653	-64.370	-140.813	-149.852	-142.349	-111.761	-30.908	-142.648	-136.260	-135.952	-128.688	-92.387	-129.514	-8191	255	
7954.928	1	1	0	0	0.059467	0.014441	0.13833	0.34592	0.33527	0.050526	0.082509	0.13554	0.10178	0.065607	0.25526	0.078875	0.20073	0.22932	0.10718	0.044107	-2.8792	-3.1063	-3.0292	-3.5125	-2.8979	-3.2354	-3.4354	-3.0854	-3.4646	-3.125	-3.2104	-3.2583	-3.0729	-3.0917	-3.3042	-2.8812	-94.454	188.013	-106.511	180.607	32.431	117.428	137.829	92.899	192.983	194.013	109.009	0.022	118.225	-128.387	93.931	185.551	0.00075713	0.00020612	8.3743e-05	1295.9	6.8903e-06	9.3147e-07	1338.6	252.16	3.6433e-06	4.057e-06	309.31	90.651	70.861	20.511	2.3127e-06	28.976	0.00030684	0.00034046	8.6118e-05	1245.6	3.464e-06	3.7485e-06	1288.9	246.01	3.4986e-06	3.6848e-06	302.13	88.51	71.294	21.322	3.2325e-06	29.164	-4.400	-65.775	26.311	-149.447	-115.738	-159.541	-149.767	-142.429	-95.206	13.112	-142.663	-136.556	-135.693	-128.614	166.847	-129.239	-8191	255	
7955.026	1	1	0	0	0.33278	0.26443	0.15366	0.30301	0.16409	0.37935	0.077108	0.20076	0.21571	0.14968	0.25588	0.36613	0.13115	0.0055064	0.11927	0.066265	-2.9167	-3.0438	-3.075	-3.4938	-3.1625	-3.1375	-3.4896	-2.9979	-3.2375	-3.225	-3.1896	-3.3375	-3.3021	-3.2521	-3.3104	-2.9833	14.735	-68.656	-40.448	182.269	165.018	100.251	151.384	-11.598	-16.427	85.700	-144.145	127.487	-78.473	151.566	-107.477	-136.246	0.00062568	0.00058384	0.00013218	1297.3	6.5328e-06	1.7326e-06	1346	253.6	2.6033e-06	7.8311e-06	312.49	90.478	70.699	20.627	2.9024e-06	29.105	0.00033037	0.00032635	8.4234e-05	1247.6	3.6674e-06	3.6055e-06	1289.9	246.34	3.6895e-06	3.4728e-06	302.29	88.526	71.633	21.21	3.1438e-06	29.304	-7.858	-61.995	103.442	-149.572	83.013	-10.735	-149.595	-142.595	155.756	10.661	-142.736	-136.280	-135.924	-128.724	18.835	-129.784	-8191	255	
7955.145	1	1	0	0	0.1978	0.21172	0.14594	0.20033	0.15541	0.1406	0.19386	0.17533	0.042173	0.062278	0.17585	0.21935	0.15471	0.035525	0.098747	0.25531	-2.9	-3.2042	-2.9917	-3.5271	-3.1917	-3.2521	-3.575	-2.9021	-3.1604	-3.3375	-3.0271	-3.4125	-3.1458	-2.9729	-3.4375	-3.2375	-89.837	-32.475	122.151	144.253	-121.069	108.138	137.904	-66.178	1.652	45.419	-35.130	-85.791	156.891	182.659	71.582	137.737	0.00045823	0.00058555	0.00021337	1292.4	5.0873e-06	2.4175e-06	1345	252.7	2.4627e-06	5.3389e-06	310.76	90.292	71.197	20.436	5.8919e-06	28.882	0.00034131	0.00030911	8.2132e-05	1247.5	3.7444e-06	3.4042e-06	1288.3	247.13	3.7275e-06	3.302e-06	301.67	88.913	71.748	21.015	3.0612e-06	29.413	4.993	-70.917	-57.490	-149.596	-11.296	-3.170	-149.732	-142.661	-19.169	-34.719	-142.878	-136.170	-135.774	-128.824	-33.131	-129.502	-8191	255	
7955.241	1	1	0	0	0.22221	0.070277	0.04425	0.095951	0.053655	0.12487	0.11531	0.13681	0.36857	0.25043	0.062409	0.18096	0.35789	0.080705	0.16724	0.1803	-2.9771	-3.3479	-2.9708	-3.4125	-3.2146	-3.05	-3.5896	-3.0208	-3.1021	-3.2604	-3.0812	-3.3917	-3.2812	-2.9938	-3.2854	-2.9104	25.239	139.313	125.435	168.681	-124.413	102.661	166.803	159.938	-148.200	132.981	163.822	-151.132	195.517	-155.575	0.864	73.996	0.0004016	0.00066192	0.00015652	1296.5	6.742e-06	5.4215e-06	1338.3	252.64	2.7431e-06	2.5702e-06	311.37	89.87	71.106	20.637	3.1108e-06	28.924	0.00034117	0.00029857	8.1408e-05	1252.9	3.6604e-06	3.3912e-06	1285.5	248.73	3.6893e-06	3.2609e-06	301.45	89.766	71.403	21.081	3.1677e-06	29.75	-19.675	-46.835	-52.938	-149.475	-29.365	40.287	-149.672	-142.315	-109.428	-147.752	-142.463	-136.412	-135.933	-128.822	191.708	-129.379	-8191	255	
7955.338	1	1	0	0	0.20586	0.25435	0.19224	0.18203	0.25839	0.20473	0.12173	0.049985	0.099304	0.10057	0.29156	0.19535	0.25722	0.23311	0.22489	0.083133	-2.75	-3.225	-2.9479	-3.3875	-3.1854	-3.1	-3.6542	-3.0479	-3.0187	-3.3479	-3.1292	-3.4021	-3.2625	-2.9208	-3.2708	-3.1625	-60.807	145.119	-88.607	121.472	92.582	179.977	82.774	50.654	114.181	7.884	193.824	114.103	191.163	159.219	-140.991	153.248	0.00015309	0.00038562	7.1288e-05	1296.7	4.2713e-06	2.6852e-06	1346.3	253.06	8.8365e-06	4.9722e-06	309.56	90.064	71.351	20.644	4.0867e-06	28.735	0.0003339	0.000296	8.3448e-05	1256	3.5339e-06	3.3565e-06	1293.3	249.82	3.5913e-06	3.2171e-06	303.25	90.286	71.248	21.085	3.3601e-06	29.79	-18.470	-115.600	-123.810	-149.511	53.151	-5.600	-149.691	-142.629	15.596	-50.818	-142.733	-136.359	-136.009	-128.828	181.438	-129.481	-8191	255	
7955.458	1	1	0	0	0.067076	0.12868	0.17482	0.12295	0.035812	0.086016	0.067726	0.093749	0.22995	0.29338	0.15711	0.033637	0.081973	0.098308	0.24829	0.15036	-2.5854	-3.2917	-3.1146	-3.3729	-3.3167	-3.0104	-3.4938	-3.2125	-2.8	-3.4062	-3.0104	-3.2604	-3.3417	-2.9813	-3.3688	-3.2896	-27.839	-54.112	-150.358	69.291	-33.541	-114.278	190.914	181.551	124.282	155.078	74.895	128.656	193.677	148.259	50.024	38.129	0.00039762	0.0001971	0.00024425	1297.2	6.8519e-06	6.0964e-06	1344.6	253.21	1.5655e-06	5.1008e-06	312.29	89.597	71.246	20.528	1.0011e-06	28.905	0.00032402	0.00029324	8.906e-05	1260.1	3.4272e-06	3.3305e-06	1296	249.97	3.4379e-06	3.1426e-06	304.18	90.052	70.785	21.014	3.565e-06	29.716	4.924	37.111	132.620	-149.488	-88.342	20.962	-149.757	-142.542	-62.788	-32.105	-142.488	-136.243	-136.177	-128.842	74.258	-129.433	-8191	255	
7955.530	1	1	0	0	0.17554	0.19327	0.18073	0.31818	0.11441	0.20637	0.19806	0.15887	0.15091	0.097258	0.059961	0.16581	0.061608	0.17679	0.21903	0.24407	-2.6125	-3.3854	-3.1458	-3.2125	-3.4021	-2.8333	-3.4625	-3.1167	-2.9146	-3.3958	-3.125	-3.2896	-3.25	-2.8688	-3.2812	-3.1958	23.867	183.426	107.294	158.831	-31.805	81.263	139.255	139.968	136.107	-69.905	-70.675	63.561	39.481	-55.677	-14.777	140.377	0.00052371	0.00030282	2.9286e-05	1296.8	6.0131e-06	2.3502e-06	1336.3	253.15	1.1975e-06	2.4009e-06	311.6	89.969	71.604	20.618	9.5288e-07	28.732	0.00031022	0.00028563	9.3063e-05	1255.9	3.283e-06	3.2451e-06	1297.7	249.09	3.4081e-06	3.2235e-06	306.21	89.947	70.963	21.052	3.8223e-06	29.513	-8.454	-39.305	8.349	-149.550	-73.572	-23.397	-149.681	-142.456	129.029	8.869	-142.652	-136.175	-136.065	-128.827	170.841	-129.655	-8191	255	
7955.626	1	1	0	0	0.050842	0.16595	0.18061	0.19818	0.14645	0.23381	0.13322	0.27514	0.19045	0.21513	0.15134	0.17118	0.15842	0.045977	0.075193	0.17167	-2.6	-3.3896	-3.0542	-3.2687	-3.5229	-3.0625	-3.2479	-3.2854	-2.8875	-3.175	-3.1771	-3.0917	-3.2958	-3.1292	-3.3146	-3.4396	-157.888	-33.683	158.258	-107.026	-23.774	-13.494	40.092	165.324	-125.475	-151.370	136.084	-138.301	194.346	-16.246	110.303	73.811	0.00044457	0.00020451	0.00018909	1300	4.3992e-06	2.957e-06	1344.4	253.87	3.4919e-06	6.674e-07	311.65	89.902	71.075	20.542	4.9882e-06	28.783	0.00030671	0.00029797	9.7942e-05	1256.8	3.2313e-06	3.3778e-06	1301.7	248.15	3.3346e-06	3.3786e-06	306.07	89.559	70.517	21.177	3.858e-06	29.322	7.732	-26.520	-57.072	-149.576	-49.698	-65.013	-149.678	-142.664	-129.088	-72.778	-142.651	-136.184	-135.764	-128.940	-27.665	-129.320	-8191	255	
#DATA ENDS
