BOXY.EXE: ISS Imagent and Oximeter Data Acquisition Program Version 0.80
Ascii Record File

#ACQ INFORMATION
2  Detector Channels 
16  External MUX Channels 
1  Auxiliary Channels 
5000  Waveform (CCF) Frequency (Hz)
1  Waveforms Skipped 
30  Waveforms Averaged 
1  Cycles Averaged 
16  Acquisitions per Waveform 
10.0806  Updata Rate (Hz) 

#FILE INFORMATION
TRUE -- External MUX Channel results are PARSED.
FALSE -- AC DC and Phase are NOT grouped.
TRUE -- Companion Program Settings File CREATED.
FALSE -- AC data not excluded
FALSE -- DC data not excluded
FALSE -- Phase data not excluded
FALSE -- Auxillary Chn. data not excluded
Tab delimiters

#CALIBRATION STATE
TRUE -- Waveform Calibration Values APPLIED.


#AUX CALIBRATION VALUES
Val Type	aux-1	

Term	1.0000e+00	
Factor	0.0000e+00	


#WF CALIBRATION VALUES
A = Detector Channel
Val Type	A-AC1	A-AC2	A-AC3	A-AC4	A-AC5	A-AC6	A-AC7	A-AC8	A-AC9	A-AC10	A-AC11	A-AC12	A-AC13	A-AC14	A-AC15	A-AC16	A-DC1	A-DC2	A-DC3	A-DC4	A-DC5	A-DC6	A-DC7	A-DC8	A-DC9	A-DC10	A-DC11	A-DC12	A-DC13	A-DC14	A-DC15	A-DC16	A-Ph1	A-Ph2	A-Ph3	A-Ph4	A-Ph5	A-Ph6	A-Ph7	A-Ph8	A-Ph9	A-Ph10	A-Ph11	A-Ph12	A-Ph13	A-Ph14	A-Ph15	A-Ph16	

Term	0.00000e+00	0.00000e+00	0.00000e+00	0.00000e+00	0.00000e+00	0.00000e+00	0.00000e+00	0.00000e+00	0.00000e+00	0.00000e+00	0.00000e+00	0.00000e+00	0.00000e+00	0.00000e+00	0.00000e+00	0.00000e+00	0.00000e+00	0.00000e+00	0.00000e+00	0.00000e+00	0.00000e+00	0.00000e+00	0.00000e+00	0.00000e+00	0.00000e+00	0.00000e+00	0.00000e+00	0.00000e+00	0.00000e+00	0.00000e+00	0.00000e+00	0.00000e+00	0.00000e+00	0.00000e+00	0.00000e+00	0.00000e+00	0.00000e+00	0.00000e+00	0.00000e+00	0.00000e+00	0.00000e+00	0.00000e+00	0.00000e+00	0.00000e+00	0.00000e+00	0.00000e+00	0.00000e+00	0.00000e+00	
Factor	1.00000e+00	1.00000e+00	1.00000e+00	1.00000e+00	1.00000e+00	1.00000e+00	1.00000e+00	1.00000e+00	1.00000e+00	1.00000e+00	1.00000e+00	1.00000e+00	1.00000e+00	1.00000e+00	1.00000e+00	1.00000e+00	1.00000e+00	1.00000e+00	1.00000e+00	1.00000e+00	1.00000e+00	1.00000e+00	1.00000e+00	1.00000e+00	1.00000e+00	1.00000e+00	1.00000e+00	1.00000e+00	1.00000e+00	1.00000e+00	1.00000e+00	1.00000e+00	X	X	X	X	X	X	X	X	X	X	X	X	X	X	X	X	

B = Detector Channel
Val Type	B-AC1	B-AC2	B-AC3	B-AC4	B-AC5	B-AC6	B-AC7	B-AC8	B-AC9	B-AC10	B-AC11	B-AC12	B-AC13	B-AC14	B-AC15	B-AC16	B-DC1	B-DC2	B-DC3	B-DC4	B-DC5	B-DC6	B-DC7	B-DC8	B-DC9	B-DC10	B-DC11	B-DC12	B-DC13	B-DC14	B-DC15	B-DC16	B-Ph1	B-Ph2	B-Ph3	B-Ph4	B-Ph5	B-Ph6	B-Ph7	B-Ph8	B-Ph9	B-Ph10	B-Ph11	B-Ph12	B-Ph13	B-Ph14	B-Ph15	B-Ph16	

Term	0.00000e+00	0.00000e+00	0.00000e+00	0.00000e+00	0.00000e+00	0.00000e+00	0.00000e+00	0.00000e+00	0.00000e+00	0.00000e+00	0.00000e+00	0.00000e+00	0.00000e+00	0.00000e+00	0.00000e+00	0.00000e+00	0.00000e+00	0.00000e+00	0.00000e+00	0.00000e+00	0.00000e+00	0.00000e+00	0.00000e+00	0.00000e+00	0.00000e+00	0.00000e+00	0.00000e+00	0.00000e+00	0.00000e+00	0.00000e+00	0.00000e+00	0.00000e+00	2.93131e+01	-1.38054e+02	-1.55137e+02	-1.83507e+02	-8.93409e+01	-7.38741e+01	-1.57185e+02	-1.62015e+02	-1.04756e+02	-8.47356e+01	-1.72626e+02	-1.72814e+02	-1.80483e+02	-1.78435e+02	-9.61728e+01	-1.51297e+02	
Factor	4.06815e-05	8.32167e-05	3.41537e-05	1.61071e-01	1.09079e-06	8.84274e-07	1.94396e-01	6.71829e-02	1.01989e-06	8.41751e-07	9.46126e-02	3.23926e-02	2.57595e-02	9.54239e-03	8.66236e-07	1.36832e-02	5.31991e-07	5.38450e-07	1.50082e-07	7.64884e-02	5.87831e-09	5.89810e-09	8.61984e-02	3.09803e-02	5.88643e-09	5.89619e-09	4.18274e-02	1.42647e-02	1.18748e-02	4.35937e-03	5.89889e-09	5.99575e-03	X	X	X	X	X	X	X	X	X	X	X	X	X	X	X	X	



#DISTANCE SETTINGS
A = Detector Channel
A-1	A-2	A-3	A-4	A-5	A-6	A-7	A-8	A-9	A-10	A-11	A-12	A-13	A-14	A-15	A-16	

2.5000e+00	3.0000e+00	2.5000e+00	3.0000e+00	2.0000e+00	3.0000e+00	1.5000e+00	3.0000e+00	3.0000e+00	3.0000e+00	3.0000e+00	3.0000e+00	3.0000e+00	3.0000e+00	1.5000e+00	3.0000e+00	

B = Detector Channel
B-1	B-2	B-3	B-4	B-5	B-6	B-7	B-8	B-9	B-10	B-11	B-12	B-13	B-14	B-15	B-16	

1.0000e+01	1.0000e+01	1.0000e+01	1.4400e+00	1.0000e+01	1.0000e+01	1.5100e+00	1.9400e+00	1.0000e+01	1.0000e+01	1.9900e+00	2.4900e+00	2.4100e+00	2.9000e+00	1.0000e+01	2.9800e+00	




#DATA BEGINS
time	group	step	mark	flag	A-AC1	A-AC2	A-AC3	A-AC4	A-AC5	A-AC6	A-AC7	A-AC8	A-AC9	A-AC10	A-AC11	A-AC12	A-AC13	A-AC14	A-AC15	A-AC16	A-DC1	A-DC2	A-DC3	A-DC4	A-DC5	A-DC6	A-DC7	A-DC8	A-DC9	A-DC10	A-DC11	A-DC12	A-DC13	A-DC14	A-DC15	A-DC16	A-Ph1	A-Ph2	A-Ph3	A-Ph4	A-Ph5	A-Ph6	A-Ph7	A-Ph8	A-Ph9	A-Ph10	A-Ph11	A-Ph12	A-Ph13	A-Ph14	A-Ph15	A-Ph16	B-AC1	B-AC2	B-AC3	B-AC4	B-AC5	B-AC6	B-AC7	B-AC8	B-AC9	B-AC10	B-AC11	B-AC12	B-AC13	B-AC14	B-AC15	B-AC16	B-DC1	B-DC2	B-DC3	B-DC4	B-DC5	B-DC6	B-DC7	B-DC8	B-DC9	B-DC10	B-DC11	B-DC12	B-DC13	B-DC14	B-DC15	B-DC16	B-Ph1	B-Ph2	B-Ph3	B-Ph4	B-Ph5	B-Ph6	B-Ph7	B-Ph8	B-Ph9	B-Ph10	B-Ph11	B-Ph12	B-Ph13	B-Ph14	B-Ph15	B-Ph16	aux-1	digaux	

8638.880	1	1	0	256	0.28733	0.040703	0.057671	0.34374	0.20518	0.29901	0.13617	0.31316	0.16498	0.087686	0.18562	0.47435	0.1412	0.14645	0.16947	0.11606	-2.675	-3.3917	-2.7438	-3.3771	-3.3812	-2.8396	-3.6292	-3.2875	-2.95	-3.5312	-3.0479	-3.3896	-3.5604	-2.7958	-3.5396	-3.3771	178.407	396.819	131.724	372.297	362.359	416.834	98.000	408.639	212.133	229.497	381.894	107.077	444.986	297.375	98.918	372.247	0.0021292	0.00058521	0.00023941	947.43	6.5457e-06	4.3682e-06	1103.4	301.57	3.8076e-06	2.2735e-06	419.69	187.93	132.35	64.365	6.291e-06	99.318	0.00042179	0.00037345	0.00010265	896.68	4.3265e-06	3.9935e-06	1023.2	283.71	4.1257e-06	3.7824e-06	383.22	170.17	121.3	58.027	4.003e-06	88.441	327.102	277.202	146.670	101.667	272.405	270.100	100.746	107.757	169.532	238.667	105.229	109.854	111.933	115.578	222.833	112.849	-8191	255	
8638.976	1	1	0	0	0.16068	0.26447	0.042044	0.15472	0.2638	0.13935	0.069481	0.24693	0.037116	0.19764	0.16017	0.15131	0.23444	0.17131	0.19796	0.1478	-2.4375	-3.5771	-2.9521	-3.3396	-3.5396	-2.8187	-3.3958	-3.4813	-3.0146	-3.3896	-3.3563	-3.2521	-3.675	-3.1542	-3.4167	-3.4979	102.385	270.419	256.890	347.028	325.965	251.556	346.911	382.129	286.494	152.043	126.132	430.999	434.659	148.159	406.665	409.718	0.001939	0.00034901	0.00037619	937.64	7.0095e-06	4.0836e-06	1106.6	301.01	1.1068e-05	3.9578e-06	420.34	188.83	133.35	64.58	6.9573e-06	99.904	0.00039515	0.00035288	0.00010648	890.76	4.122e-06	3.9063e-06	1030.6	283.96	4.1493e-06	3.8833e-06	388.07	170.94	122.22	58.373	4.3499e-06	88.875	330.513	258.420	143.616	101.538	153.085	103.167	100.762	107.378	205.844	426.650	105.453	109.994	112.160	115.606	178.375	112.670	-8191	255	
8639.072	1	1	0	0	0.15388	0.22693	0.21807	0.20615	0.10248	0.11157	0.2269	0.2195	0.069795	0.033323	0.11711	0.16889	0.11513	0.106	0.19422	0.24239	-2.2438	-3.6	-3.1604	-3.4521	-3.5729	-2.95	-3.5354	-3.3896	-2.875	-3.5312	-3.3479	-3.2271	-3.6333	-3.05	-3.2896	-3.5979	289.170	259.856	121.644	339.088	291.165	366.646	409.134	415.398	401.386	131.448	399.916	97.264	410.812	98.046	305.823	311.065	0.0018217	0.00048618	0.00039082	942.06	9.0153e-06	4.0704e-06	1110.3	303.19	8.6304e-06	6.0519e-06	421.7	189.26	133.94	64.344	9.3306e-06	100.64	0.0003834	0.00034348	0.00011013	891.35	3.8518e-06	3.7536e-06	1035.8	283.48	3.8132e-06	3.6732e-06	389.07	170.49	121.57	58.307	4.3437e-06	89.05	335.810	324.657	182.685	101.643	376.143	282.705	100.899	107.500	210.152	245.555	104.856	110.001	111.593	115.834	184.210	112.794	-8191	255	
8639.191	1	1	0	0	0.21104	0.21233	0.15687	0.11009	0.21553	0.059948	0.098086	0.087761	0.1193	0.15507	0.07506	0.34712	0.19163	0.39001	0.12821	0.091503	-2.4437	-3.45	-3.075	-3.0104	-3.6021	-3.0208	-3.4188	-3.5	-2.7896	-3.4333	-3.4396	-2.8229	-3.5542	-3.2542	-3.2021	-3.8625	305.067	226.097	123.635	236.975	103.703	439.904	226.613	413.661	290.728	203.050	101.398	410.175	125.999	444.353	414.038	167.318	0.0022599	0.0012011	0.00029168	952.12	1.2495e-05	5.765e-06	1112.4	305.34	5.6388e-06	8.0379e-06	426.32	190.32	134.58	64.746	1.4717e-06	100.18	0.00036232	0.00035228	0.00011409	892.26	3.7877e-06	3.959e-06	1042.2	285.09	3.8101e-06	4.0374e-06	393.57	171.19	122.15	58.645	4.5196e-06	88.797	334.837	173.894	163.505	101.603	239.553	182.997	100.817	107.787	194.845	228.626	105.601	110.207	111.891	115.758	329.117	112.742	-8191	255	
8639.287	1	1	0	0	0.28352	0.0854	0.27495	0.39931	0.041269	0.095376	0.28474	0.15105	0.17256	0.1744	0.14272	0.19522	0.13566	0.47446	0.14146	0.22692	-2.4792	-3.4	-3.3375	-3.1042	-3.5563	-3.1021	-3.2667	-3.5167	-3.0438	-3.3937	-3.4125	-2.9958	-3.5812	-3.2396	-3.0354	-3.6792	178.214	183.232	348.404	309.569	409.276	241.236	325.845	113.725	104.057	257.460	397.070	413.517	231.287	443.487	366.060	432.152	0.0017071	0.0010009	0.00010545	947.22	8.3555e-06	4.3365e-06	1115.5	307.34	9.3549e-07	4.3936e-06	423.93	191.08	134.34	64.868	7.3219e-06	100.16	0.0003699	0.00039589	0.00011566	891.78	3.8224e-06	4.4146e-06	1044.6	286.31	3.8761e-06	4.4599e-06	392.29	171.57	123.12	59.009	4.4242e-06	88.839	324.463	161.738	162.470	101.671	196.150	288.816	100.653	107.556	152.079	223.464	105.345	109.932	112.016	115.349	312.324	112.770	-8191	255	
8639.384	1	1	0	0	0.25858	0.15134	0.037451	0.23888	0.045546	0.074938	0.36654	0.14897	0.24524	0.15656	0.19309	0.17224	0.14923	0.50078	0.29616	0.29154	-2.4917	-3.3604	-3.3167	-2.9958	-3.4667	-3.1437	-3.2042	-3.6729	-3.0958	-3.2812	-3.5938	-3.0125	-3.5375	-3.3063	-2.8958	-3.7771	179.310	198.892	393.715	411.959	352.644	229.862	95.865	216.894	346.645	378.638	354.849	382.986	98.205	379.813	365.783	377.572	0.002209	0.00012983	0.0001343	947.19	1.2782e-05	5.6625e-06	1123.8	305.96	8.7695e-06	3.0439e-06	423.72	191.51	135.39	65.094	5.8776e-06	101.26	0.00037999	0.00042154	0.00011253	894.3	4.1062e-06	4.76e-06	1044.6	286.15	4.1713e-06	4.7546e-06	392.16	172.4	123.97	59.568	4.3372e-06	89.691	326.978	277.820	400.384	101.508	236.469	197.913	100.595	107.311	208.272	228.539	105.169	109.774	111.753	115.634	214.087	112.702	-8191	255	
8639.480	1	1	0	0	0.18632	0.33744	0.16942	0.32625	0.22096	0.028411	0.30384	0.08399	0.13216	0.096706	0.10093	0.21432	0.20106	0.30185	0.091443	0.26977	-2.5333	-3.2938	-3.5396	-2.8792	-3.4667	-3.3354	-3.0896	-3.6562	-3.2458	-3.1417	-3.6	-2.95	-3.5021	-3.5729	-2.8083	-3.6729	145.946	364.007	128.706	394.764	160.899	393.330	415.956	267.810	393.583	206.465	445.004	398.463	378.534	384.972	164.850	382.062	0.0022276	0.00014461	0.00013626	955.92	1.3649e-05	5.5181e-06	1128.8	308.94	1.7153e-05	4.7712e-06	430.09	194.52	135.85	65.244	3.9539e-06	101.48	0.0004117	0.00043664	0.00011071	898.4	4.5018e-06	4.8685e-06	1051.1	288.75	4.7321e-06	4.9379e-06	397.04	174.49	126.04	59.948	4.3945e-06	90.12	331.060	125.068	186.044	101.552	210.090	189.476	100.968	107.691	185.027	365.024	105.402	109.976	111.689	115.478	240.421	112.540	-8191	255	
8639.576	1	1	0	0	0.20888	0.11509	0.12393	0.20538	0.13844	0.15232	0.16334	0.29557	0.02795	0.059367	0.020336	0.13766	0.13074	0.088543	0.29575	0.1413	-2.7104	-3.1021	-3.5625	-2.9771	-3.3	-3.4833	-2.9146	-3.6792	-3.1854	-3.0042	-3.6042	-3.025	-3.4062	-3.6479	-2.8	-3.7646	103.697	171.823	181.741	393.335	287.494	292.388	426.932	432.023	94.589	189.371	132.342	344.837	398.390	416.121	157.848	370.436	0.0022313	0.00077083	0.00037797	965.2	1.5525e-05	1.2849e-06	1129.3	310.28	6.8113e-06	2.7072e-06	429.97	193.52	136.48	65.419	3.3823e-06	101.28	0.00044896	0.00043162	0.00010947	906.97	4.781e-06	4.7121e-06	1052	290.41	4.9755e-06	4.6981e-06	396.07	174.61	126.72	59.999	4.4001e-06	90.333	329.873	155.908	226.741	101.465	187.196	173.774	100.783	107.236	229.255	266.271	105.351	109.792	111.776	115.692	160.356	112.563	-8191	255	
8639.672	1	1	0	0	0.058478	0.10573	0.21375	0.29986	0.13004	0.22237	0.16735	0.026529	0.12503	0.32485	0.056232	0.26201	0.062753	0.36831	0.20839	0.33656	-2.9333	-2.9083	-3.5417	-3.0896	-3.2667	-3.6667	-3.0479	-3.5	-3.3	-2.7875	-3.6813	-2.9938	-3.425	-3.6562	-2.7875	-3.4896	345.014	102.235	301.297	111.635	261.279	180.547	339.812	235.378	354.029	293.445	376.465	394.191	396.570	433.658	378.971	432.850	0.0018294	0.00046865	4.7966e-05	956.64	4.5993e-06	6.4803e-06	1127.3	308.25	4.0471e-06	1.1999e-06	428.89	193.24	136.62	65.401	6.0327e-06	101.7	0.00047226	0.0004175	0.00010706	904.8	4.9023e-06	4.4264e-06	1048.5	290.56	4.8921e-06	4.5137e-06	393.05	174.68	126.69	59.896	4.3738e-06	91.061	328.546	310.116	375.850	101.500	147.493	421.562	100.651	107.305	332.367	172.017	105.383	109.794	111.866	115.335	243.882	112.518	-8191	255	
8639.793	1	1	0	0	0.13063	0.16586	0.21554	0.27655	0.04638	0.17223	0.037884	0.27439	0.10078	0.059078	0.048473	0.071646	0.16667	0.17369	0.038257	0.30051	-3.0083	-2.8812	-3.3771	-3.3146	-3.1521	-3.4958	-3.0854	-3.4667	-3.5333	-2.9062	-3.5854	-3.15	-3.2062	-3.6771	-3.0167	-3.3917	173.226	137.345	263.575	444.404	150.865	206.401	347.169	354.547	235.868	346.441	135.114	374.636	366.174	442.605	401.114	145.180	0.0022407	0.00055366	0.00014698	959.73	1.2806e-06	5.2848e-06	1121.4	309.17	1.2189e-05	2.0183e-06	430.25	193.53	137.27	65.836	7.7051e-06	102.21	0.00048081	0.00042395	0.00011087	913.77	5.0345e-06	4.5614e-06	1050.6	293.39	4.9531e-06	4.5328e-06	396.45	176.73	126.62	60.204	4.4173e-06	91.744	332.541	229.960	98.559	101.606	197.052	283.373	100.646	107.577	218.419	317.527	105.163	109.706	111.707	115.649	253.544	112.589	-8191	255	
8639.889	1	1	0	0	0.10577	0.16943	0.0047247	0.14451	0.34582	0.10669	0.28216	0.11265	0.074401	0.21166	0.071009	0.067031	0.11334	0.011545	0.030511	0.12075	-3.1271	-2.9167	-3.5875	-3.3896	-3.1104	-3.7417	-3.1729	-3.4146	-3.4938	-2.8312	-3.5875	-3.4729	-3.2125	-3.6854	-3.0292	-3.275	187.471	307.633	109.523	425.079	206.237	242.190	379.960	400.265	193.658	256.107	212.899	408.261	399.002	265.999	300.568	382.645	0.0022273	0.00032349	0.00029519	959.41	5.9693e-06	7.094e-06	1132.7	307.46	3.8102e-06	1.9797e-06	432.92	194.66	137.66	66.687	9.473e-06	103.38	0.00045725	0.00041398	0.00011544	919.22	4.8518e-06	4.5141e-06	1055.8	294.53	4.7979e-06	4.5218e-06	399.49	178.34	126.73	60.521	4.7271e-06	92.631	336.024	221.603	113.568	101.312	218.204	275.501	100.531	107.367	306.294	386.591	104.967	109.523	111.723	115.362	149.352	112.533	-8191	255	
8639.983	1	1	0	0	0.071376	0.066628	0.15556	0.080376	0.36492	0.16535	0.089804	0.28793	0.10714	0.20041	0.12073	0.3177	0.33426	0.15115	0.14278	0.27919	-3.1167	-2.8542	-3.4188	-3.6063	-3.1937	-3.6813	-3.3542	-3.3292	-3.4437	-3.0625	-3.4542	-3.6354	-2.9188	-3.7833	-3.1604	-3.2979	221.425	349.826	418.556	90.661	148.788	123.389	443.106	389.614	408.071	384.842	377.920	419.465	430.829	446.699	316.068	384.709	0.0021127	0.00067656	0.00050363	961.3	7.2449e-06	6.1891e-06	1129.2	306.56	4.8887e-06	4.365e-06	429.38	194	136.48	66.169	4.1708e-06	102.37	0.00043931	0.00040179	0.00012176	917.43	4.6415e-06	4.3114e-06	1062.9	293.74	4.6421e-06	4.4059e-06	399.84	176.46	125.95	60.143	4.9301e-06	91.355	332.177	391.395	167.074	101.316	192.007	312.766	100.952	107.574	234.381	193.049	105.160	109.803	111.665	115.371	221.517	112.434	-8191	255	
8640.081	1	1	0	0	0.12008	0.26132	0.10967	0.15918	0.17975	0.12026	0.24949	0.2576	0.14683	0.26689	0.19608	0.2335	0.082178	0.18663	0.2795	0.21074	-3.2771	-2.9437	-3.2625	-3.6542	-2.8604	-3.5521	-3.3021	-3.1208	-3.5792	-2.9229	-3.5062	-3.6417	-3.1396	-3.5771	-3.3479	-3.3146	100.297	280.115	285.127	431.921	114.871	168.598	336.845	411.832	341.176	369.089	413.080	393.090	376.631	442.899	109.631	397.518	0.0020999	0.00049561	0.00022174	958.74	1.8736e-06	6.1876e-06	1127.8	308.19	3.23e-06	7.186e-06	429.78	194.08	137.06	66.629	6.3426e-06	102.54	0.0004127	0.000386	0.00012342	907.12	4.2773e-06	4.1805e-06	1057.7	290.67	4.2613e-06	4.3033e-06	399.65	175.19	125.33	60.487	5.124e-06	91.492	330.064	193.950	215.579	101.587	238.448	245.019	100.325	107.372	243.573	235.060	105.400	109.676	111.581	115.444	179.239	112.545	-8191	255	
8640.175	1	1	0	0	0.064778	0.26132	0.22002	0.15872	0.1373	0.052272	0.25992	0.12957	0.19881	0.22405	0.26337	0.2252	0.17852	0.16519	0.22514	0.21036	-3.3479	-2.8854	-3.3083	-3.6229	-2.7917	-3.6	-3.4208	-3.0354	-3.4896	-2.9625	-3.2167	-3.6875	-2.9417	-3.4083	-3.5104	-3.0312	370.953	195.361	188.138	391.205	117.563	187.599	359.950	145.779	318.268	250.707	377.841	414.801	227.478	424.572	216.556	433.431	0.0020162	0.00029632	0.00021043	955.96	1.0391e-05	7.7656e-06	1126.2	309.81	3.103e-06	2.6383e-06	430.23	195.75	137.53	67.362	6.5238e-06	104.46	0.00040911	0.00041501	0.000129	908.23	4.253e-06	4.5515e-06	1061.7	290.9	4.2405e-06	4.6939e-06	402.68	177.08	125.82	61.354	5.0486e-06	92.821	326.262	206.246	168.674	101.394	282.768	233.618	100.622	107.450	228.555	138.968	105.336	109.608	111.615	115.284	298.852	112.575	-8191	255	
8640.272	1	1	0	0	0.27295	0.22218	0.26519	0.16781	0.18068	0.10011	0.17956	0.49628	0.18841	0.17794	0.31131	0.10064	0.38382	0.17905	0.14912	0.26973	-3.2396	-2.9896	-3.0146	-3.6813	-2.8208	-3.5292	-3.6646	-3.0542	-3.5792	-3.2583	-3.1375	-3.7083	-2.9979	-3.3792	-3.3771	-2.8604	428.861	147.816	154.306	226.560	301.102	199.980	437.944	390.574	139.652	194.015	396.066	427.199	414.936	365.021	305.452	398.893	0.0020843	0.0005104	0.00013928	966.85	6.6908e-06	7.759e-06	1136.7	311.38	1.3942e-05	5.6171e-06	433.2	198.13	139.1	68.313	4.7361e-06	105.97	0.00041465	0.00046014	0.00013077	915.12	4.4579e-06	5.1497e-06	1067.9	292.85	4.5298e-06	5.3158e-06	406.12	179.78	128.15	63.005	5.2532e-06	94.752	334.913	111.358	296.811	101.521	291.723	201.906	100.499	107.370	222.711	199.092	105.073	109.851	111.584	115.174	257.257	112.429	-8191	255	
8640.368	1	1	0	0	0.080463	0.14845	0.18903	0.23464	0.12484	0.19442	0.094842	0.28593	0.085591	0.16292	0.10847	0.15953	0.2712	0.26565	0.35704	0.11086	-2.9604	-3.125	-2.9958	-3.7104	-2.85	-3.2708	-3.5958	-2.8125	-3.4813	-3.2167	-3.0396	-3.6833	-3.0312	-3.3271	-3.5146	-3.2313	218.242	379.435	208.011	215.708	446.935	204.894	437.118	429.337	300.669	354.271	388.713	323.146	420.118	417.114	313.861	369.648	0.0026738	0.00047724	0.00012554	978.63	1.5291e-05	3.9069e-06	1146	313.87	1.4451e-05	8.6651e-06	438.93	200.28	140.49	69.095	6.4991e-06	107.2	0.00046563	0.00052644	0.00013646	931.38	5.122e-06	5.8708e-06	1082.1	297.12	5.1757e-06	5.8857e-06	410.76	181.73	130.5	64.07	5.2884e-06	95.544	333.696	248.797	320.889	101.746	237.859	205.996	100.799	107.474	199.344	227.710	105.025	109.695	111.655	115.235	176.480	112.347	-8191	255	
8640.488	1	1	0	0	0.16986	0.03989	0.20752	0.21689	0.10342	0.16441	0.12721	0.13726	0.20326	0.042586	0.057874	0.023284	0.22963	0.18702	0.23117	0.21942	-3.075	-3.3354	-2.8979	-3.8563	-3.0312	-3.1521	-3.6667	-3.0458	-3.4833	-3.3771	-2.8917	-3.7042	-3.0708	-3.1708	-3.6937	-3.2021	337.291	180.440	237.582	434.303	104.837	402.623	197.056	338.854	170.442	210.680	272.733	296.569	91.106	91.362	398.996	399.361	0.0025045	0.00026087	0.00021712	975	8.6325e-06	8.4108e-06	1148.4	313.46	1.3965e-05	5.6914e-06	441.04	199.74	140.34	69.84	4.4046e-06	107.58	0.0005099	0.00054399	0.00013587	930.66	5.6958e-06	5.9597e-06	1085.4	297.17	5.7732e-06	5.9096e-06	411.04	181.88	131.91	64.449	5.361e-06	96.387	325.298	205.920	408.949	101.569	180.233	295.796	100.612	107.018	224.381	327.409	105.106	109.366	111.074	114.999	206.705	112.164	-8191	255	
8640.585	1	1	0	0	0.047029	0.32518	0.060183	0.046212	0.12158	0.079988	0.048119	0.24433	0.14395	0.17453	0.057498	0.095135	0.091547	0.31863	0.052897	0.42349	-2.7021	-3.5167	-2.7167	-3.5979	-3.2521	-3.0771	-3.5375	-3.0271	-3.3729	-3.4708	-2.9583	-3.5854	-3.1896	-3.1688	-3.4813	-3.2396	171.402	384.861	100.154	208.721	318.658	405.082	104.434	361.210	258.893	350.635	324.882	356.355	401.710	93.343	122.557	370.837	0.0026817	0.00051619	9.8163e-05	982.09	6.0435e-06	5.2614e-06	1146.7	314.24	8.5621e-06	3.9986e-06	439	202.46	141.37	70.133	7.6115e-06	108.68	0.00056984	0.00053876	0.00013874	940.3	6.1599e-06	5.8508e-06	1083.1	299.39	6.1971e-06	5.6917e-06	411.15	183.92	133.01	64.623	5.1869e-06	97.461	329.349	124.646	318.746	101.478	271.555	215.307	100.803	107.220	207.691	432.885	104.973	109.498	111.712	115.015	205.740	112.500	-8191	255	
8640.656	1	1	0	0	0.36711	0.10329	0.21136	0.1684	0.18105	0.17979	0.11004	0.3185	0.22506	0.093234	0.38764	0.13576	0.14534	0.27266	0.095051	0.26268	-2.8792	-3.3708	-2.8229	-3.6792	-3.2917	-2.9833	-3.9021	-2.9042	-3.2729	-3.6188	-2.8917	-3.5083	-3.6083	-3.1583	-3.6208	-3.1958	313.716	176.727	248.171	347.132	383.824	416.953	395.226	404.764	169.184	325.515	409.861	390.703	382.838	425.648	120.211	433.374	0.0021033	0.00049009	0.00019911	984.82	7.649e-06	8.667e-06	1153.5	315.84	9.5494e-07	5.3518e-06	440.7	201.91	140.78	69.618	7.6481e-06	108.4	0.00057884	0.00050694	0.00013431	946.7	6.1842e-06	5.5889e-06	1084.4	301.83	6.1015e-06	5.4242e-06	411.28	184.59	132.46	64.217	5.0537e-06	97.522	329.235	362.851	92.130	101.432	315.264	319.123	100.557	107.073	404.017	315.090	105.044	109.491	111.545	115.162	200.065	112.115	-8191	255	
8640.752	1	1	0	0	0.10363	0.062098	0.16919	0.05207	0.11543	0.09601	0.096422	0.22109	0.15437	0.10887	0.28268	0.2162	0.058177	0.084289	0.25455	0.26976	-2.675	-3.4	-2.9854	-3.4313	-3.5333	-2.8896	-3.8438	-3.3208	-3.1625	-3.7729	-3.1688	-3.3667	-3.4875	-2.8771	-3.5271	-3.2708	296.904	372.705	297.600	320.133	223.080	208.452	294.994	338.708	359.537	303.970	377.418	394.294	286.747	412.379	189.993	335.760	0.0020108	0.00042892	0.00040615	982.8	4.0524e-06	6.3594e-06	1147.5	313.72	4.397e-06	4.1943e-06	435.72	199.58	139.3	68.82	1.7313e-06	106.29	0.00054684	0.00047771	0.00012929	944.35	5.6953e-06	5.2074e-06	1075	301.97	5.6218e-06	5.0953e-06	407.26	182.94	130.29	63.171	4.9493e-06	95.855	327.005	372.263	138.858	101.450	91.261	92.136	100.658	107.564	300.817	412.923	105.525	109.891	111.338	115.178	403.469	112.389	-8191	255	
8640.873	1	1	0	0	0.24527	0.04633	0.078412	0.12983	0.15642	0.15527	0.16447	0.1483	0.22762	0.16558	0.24195	0.30241	0.097524	0.20633	0.24913	0.26145	-2.5187	-3.6083	-2.8521	-3.4437	-3.6688	-2.9458	-3.6917	-3.4229	-2.9958	-3.6896	-3.0875	-3.2562	-3.5958	-3.0625	-3.4375	-3.5146	322.371	397.536	393.623	256.091	398.331	207.289	345.810	365.992	180.498	106.364	434.441	390.138	181.196	326.965	308.442	362.023	0.0019485	0.00071525	0.00041358	973.41	3.9704e-06	4.5655e-06	1145.5	315.73	6.5189e-06	1.9072e-06	439.16	199.64	140.01	68.712	5.0422e-06	105.71	0.00050302	0.00044415	0.00012721	939.69	5.1627e-06	4.9413e-06	1077.5	302.2	5.207e-06	4.8113e-06	409.07	183.07	129.84	62.694	5.2028e-06	95.372	331.384	236.838	136.913	101.562	195.652	229.159	100.565	107.316	388.617	328.486	105.001	109.717	111.519	115.071	183.303	112.244	-8191	255	
8640.967	1	1	0	0	0.14247	0.17846	0.090318	0.29521	0.058947	0.077162	0.17759	0.13801	0.21531	0.23295	0.27844	0.10819	0.21712	0.31848	0.076756	0.27833	-2.6063	-3.6708	-3.1542	-3.2	-3.7167	-2.9562	-3.6292	-3.3896	-2.8979	-3.7417	-3.2792	-3.2521	-3.7188	-3.0875	-3.2396	-3.5708	95.480	357.172	404.579	389.045	154.089	214.990	427.762	229.020	436.822	346.718	406.178	441.174	110.572	90.568	319.466	372.829	0.0023329	0.00046974	0.00037778	974.85	1.2871e-06	3.7597e-06	1146.3	314.76	6.5081e-06	1.0931e-05	439.74	200.15	141.13	69.112	1.0657e-05	107.08	0.00047415	0.00043126	0.00013735	938.3	5.0571e-06	4.8784e-06	1083.4	300.87	5.1452e-06	4.8318e-06	413.16	183.19	129.98	63.154	5.6173e-06	95.889	328.219	171.120	132.721	101.594	287.963	153.539	100.695	107.233	248.849	164.656	105.250	109.781	111.410	115.154	216.882	112.218	-8191	255	
8641.064	1	1	0	0	0.15452	0.19235	0.13639	0.067061	0.14437	0.11981	0.3542	0.21293	0.07303	0.26919	0.28786	0.18414	0.15175	0.37303	0.090718	0.24569	-2.425	-3.4583	-3.2313	-3.2542	-3.6396	-3.0333	-3.4833	-3.7646	-2.7417	-3.5646	-3.3354	-3.1688	-3.7438	-2.9271	-3.3208	-3.6521	263.382	118.471	175.744	194.784	143.092	251.756	378.761	326.232	415.452	198.502	398.423	378.905	167.715	390.790	402.374	380.085	0.0017328	0.0002184	0.00031498	978.48	1.4734e-05	8.1363e-06	1142.5	313.59	7.033e-06	7.4173e-06	439.36	199.87	141.03	69.049	9.4632e-06	106.25	0.00046928	0.00043469	0.00014246	933.84	4.8125e-06	4.9039e-06	1084.3	299.11	4.9905e-06	5.0246e-06	414.58	182.28	130.01	63.144	5.8384e-06	95.34	325.133	314.029	155.985	101.547	214.320	171.723	100.494	107.261	100.593	202.546	104.979	109.646	111.193	115.138	227.090	112.272	-8191	255	
8641.161	1	1	0	0	0.33624	0.10557	0.10529	0.084633	0.12928	0.19946	0.11656	0.13595	0.17762	0.27835	0.15848	0.23428	0.19386	0.10465	0.21092	0.28894	-2.4917	-3.5125	-3.2938	-3.1021	-3.6396	-2.9542	-3.225	-3.4896	-2.9417	-3.3083	-3.4604	-3.0062	-3.8083	-3.2521	-3.0417	-3.6583	354.450	157.208	278.889	323.602	276.440	93.522	202.035	408.631	421.298	205.145	321.251	449.066	121.178	95.585	297.467	404.639	0.0021897	0.00054887	0.00018199	982.46	5.9025e-06	8.3465e-06	1146.6	316.12	1.257e-05	8.3366e-06	437.85	198.97	140.98	68.233	9.6542e-06	105.6	0.00046164	0.00046989	0.00014447	935.15	4.7236e-06	5.2094e-06	1089.7	298.98	4.8228e-06	5.3451e-06	413.14	181.06	129.82	62.914	5.6952e-06	94.291	324.044	114.966	129.223	101.264	167.055	215.791	100.646	107.603	250.245	199.540	105.288	109.685	111.637	115.003	200.667	112.310	-8191	255	
8641.280	1	1	0	0	0.093531	0.27928	0.064434	0.21008	0.20921	0.1768	0.27581	0.063731	0.26698	0.12988	0.48611	0.077969	0.19532	0.137	0.011667	0.082268	-2.675	-3.4979	-3.4313	-2.9813	-3.5146	-3.3104	-3.1333	-3.6792	-2.9396	-3.475	-3.5563	-3.0333	-3.6042	-3.2812	-3.0812	-3.8208	157.343	288.318	424.500	409.354	362.193	354.709	398.818	99.581	252.070	187.700	381.777	151.720	205.035	145.422	301.529	404.406	0.0023481	0.0002976	0.00025743	983.82	9.1334e-06	1.0426e-05	1157.7	315.97	8.1217e-06	1.9648e-06	441.02	199.73	140.56	68.268	3.6976e-06	105.59	0.00046897	0.00051738	0.00014336	939.54	4.8331e-06	5.7137e-06	1092.9	300.43	4.9652e-06	5.7602e-06	413.38	181.44	130.3	63.155	5.5771e-06	94.281	330.858	105.855	219.326	101.605	218.220	216.578	100.804	107.166	181.326	263.885	104.875	109.576	111.505	115.008	267.009	112.215	-8191	255	
8641.352	1	1	0	0	0.13056	0.15599	0.047978	0.24212	0.15147	0.17245	0.29128	0.28403	0.066682	0.11774	0.21592	0.26237	0.18614	0.23658	0.25092	0.28952	-2.6708	-3.2708	-3.425	-2.9688	-3.5625	-3.1583	-2.8979	-3.5625	-2.9562	-3.225	-3.525	-2.7521	-3.6458	-3.3438	-2.7979	-3.7729	409.941	371.413	315.686	395.102	136.756	178.388	439.484	419.403	271.161	104.748	377.684	96.004	315.605	414.779	372.539	423.040	0.0022391	0.0003306	0.00036513	981.58	6.0001e-06	5.1065e-06	1151	316.37	1.1341e-05	5.7873e-06	441.78	199.88	141.05	68.598	5.5263e-06	105.86	0.00049336	0.00054862	0.0001389	938.09	5.2964e-06	6.0629e-06	1087.7	300.07	5.4856e-06	6.0819e-06	413.24	181.6	131.44	63.57	5.4417e-06	94.714	324.727	189.652	197.971	101.530	200.678	139.001	100.300	107.018	192.781	239.086	105.087	109.602	111.510	115.119	202.480	112.262	-8191	255	
8641.473	1	1	0	0	0.058374	0.0038201	0.23695	0.17631	0.0883	0.17927	0.22658	0.16143	0.028638	0.10009	0.26167	0.13271	0.40651	0.18185	0.23253	0.2641	-2.8063	-3.1458	-3.4417	-2.8542	-3.2458	-3.5396	-2.9375	-3.6833	-3.0125	-3.2875	-3.6896	-3.0271	-3.35	-3.5062	-2.8104	-3.6583	396.767	255.973	311.312	398.256	293.785	213.929	383.779	109.881	214.275	127.003	386.985	405.273	442.521	147.213	207.777	320.626	0.0023165	0.0004817	0.00019698	984.14	1.9547e-05	9.3144e-06	1148.9	316.8	7.1524e-06	5.3581e-06	441.83	200.05	141.31	68.878	2.1127e-06	106.24	0.00053895	0.00055121	0.00013793	939.08	5.894e-06	6.0506e-06	1087.9	300.48	6.0486e-06	5.999e-06	413.35	182.52	133.02	63.734	5.434e-06	95.27	324.215	322.677	250.356	101.596	192.716	385.994	100.795	107.100	262.222	221.098	105.655	109.657	111.485	114.863	143.409	111.970	-8191	255	
8641.569	1	1	0	0	0.1614	0.087411	0.095277	0.068954	0.071523	0.2632	0.095851	0.26236	0.055294	0.23957	0.1986	0.30176	0.22668	0.10429	0.27566	0.28248	-2.6917	-2.9562	-3.5083	-3.1917	-3.2958	-3.4562	-2.8625	-3.6667	-3.3708	-2.9	-3.6604	-3.0625	-3.4313	-3.5958	-2.8542	-3.725	399.058	104.374	101.538	345.718	269.425	110.004	427.030	342.027	133.583	206.350	372.807	395.875	106.720	350.837	310.616	398.129	0.0020923	0.00019497	0.00027006	990.95	6.5895e-06	6.8324e-06	1152.6	320.7	1.2014e-05	8.7862e-06	441.19	200.65	142.1	69.083	6.8516e-06	106.38	0.00057505	0.00053859	0.00013691	946.39	6.2273e-06	5.832e-06	1090.1	305.08	6.3719e-06	5.8501e-06	414.28	184.01	134.25	63.717	5.4608e-06	95.471	329.691	357.338	186.273	101.415	248.157	351.306	100.385	107.010	135.634	259.104	105.269	109.505	111.525	114.972	275.550	112.327	-8191	255	
8641.665	1	1	0	0	0.12987	0.059129	0.10765	0.15684	0.094518	0.14597	0.14524	0.071692	0.20011	0.19806	0.15974	0.2315	0.21523	0.1762	0.047882	0.19874	-2.7146	-2.95	-3.6792	-3.2271	-3.2313	-3.5625	-3.0833	-3.5187	-3.375	-3.0542	-3.6875	-3.225	-3.1479	-3.6688	-3.0917	-3.6604	163.446	155.389	388.206	419.153	201.133	395.459	446.731	159.232	199.466	268.885	128.003	188.106	190.970	420.424	428.646	404.299	0.0017851	0.0005518	1.0733e-05	988.82	3.9656e-06	2.1498e-07	1156.8	321.75	8.9838e-06	4.2269e-06	444.46	201.82	142.38	69.349	4.1373e-06	106.15	0.00059116	0.00052389	0.00013475	954.57	6.3303e-06	5.637e-06	1091	307.75	6.2866e-06	5.7678e-06	414.41	185.59	134.24	63.836	5.4596e-06	96.228	325.141	149.760	257.013	101.596	275.104	167.434	100.547	107.275	232.576	163.483	105.123	109.599	111.118	114.796	91.821	112.188	-8191	255	
8641.761	1	1	0	0	0.30954	0.14633	0.090645	0.089426	0.064763	0.074023	0.32116	0.22731	0.02738	0.22149	0.17432	0.017424	0.19403	0.32873	0.16411	0.35386	-2.9833	-2.9188	-3.4833	-3.2292	-3.2021	-3.4354	-2.9604	-3.35	-3.4104	-2.8104	-3.6979	-3.3833	-3.075	-3.8	-2.9125	-3.4188	91.791	291.886	287.079	101.830	273.880	411.314	422.602	389.191	370.233	177.243	104.136	177.217	417.670	375.459	119.445	399.628	0.00217	0.0008599	8.7436e-05	993.54	5.0066e-06	7.1811e-06	1155.2	319.72	3.6578e-06	6.4026e-06	441.72	200.4	141.65	69.199	8.1674e-06	106.87	0.00057992	0.00052334	0.00013726	961.53	6.1321e-06	5.6218e-06	1092.9	309.77	6.0371e-06	5.5785e-06	415.37	185.71	133.3	63.524	5.6518e-06	96.984	333.511	206.492	236.891	101.505	252.217	235.270	100.591	107.486	321.623	256.417	104.992	109.697	111.591	114.838	187.793	112.018	-8191	255	
8641.882	1	1	0	0	0.046125	0.15631	0.14846	0.26698	0.32898	0.030535	0.25415	0.054683	0.062641	0.17177	0.1392	0.21001	0.092717	0.33633	0.1643	0.19234	-3.1354	-2.8375	-3.6771	-3.3312	-2.9313	-3.7396	-3.0417	-3.2958	-3.6063	-2.9125	-3.5354	-3.3958	-3.0333	-3.7646	-3.2396	-3.2896	387.510	93.259	266.372	349.691	108.729	359.942	421.962	225.013	296.291	382.055	386.549	382.033	140.189	397.616	221.944	97.368	0.0020567	0.00047243	0.00026613	994.99	8.7114e-06	5.3696e-06	1151	318.34	8.7283e-06	1.1111e-05	446.85	202.1	142.11	69.974	1.251e-05	107.79	0.00055662	0.00051168	0.00014529	964.75	5.9071e-06	5.44e-06	1096.6	309.61	5.8687e-06	5.5855e-06	418.94	186.4	133.16	64.212	6.0682e-06	97.687	327.334	328.710	108.587	101.328	315.103	140.911	100.573	107.435	248.272	270.565	104.733	109.479	111.315	114.922	194.106	112.373	-8191	255	
8641.953	1	1	0	0	0.13007	0.32749	0.11392	0.15503	0.2074	0.15594	0.22028	0.068776	0.22716	0.1309	0.12475	0.1258	0.28938	0.27022	0.025376	0.21716	-3.1333	-2.8708	-3.3958	-3.5833	-2.9667	-3.6021	-3.2167	-3.1063	-3.6188	-3.075	-3.6188	-3.5792	-3.0375	-3.6208	-3.2333	-3.075	225.271	282.177	291.248	336.034	153.769	364.362	445.168	120.478	123.066	252.706	92.177	402.014	381.036	386.999	191.092	94.206	0.0022687	0.0014328	0.00024284	981.14	1.6846e-06	4.2941e-06	1151.4	318.78	1.7531e-06	6.6744e-06	440.87	202.67	142.86	69.714	1.0522e-05	107.3	0.00053385	0.00050332	0.00015585	955.44	5.7386e-06	5.3983e-06	1100.8	308.44	5.597e-06	5.455e-06	419.95	185.8	132.92	64.157	6.3748e-06	97.216	322.626	126.563	111.610	101.480	228.687	260.754	100.412	107.537	448.817	306.854	105.101	109.213	111.313	115.058	224.345	112.312	-8191	255	
8642.048	1	1	0	0	0.051697	0.14258	0.12074	0.26846	0.23548	0.19812	0.12243	0.20682	0.10194	0.086147	0.13281	0.18086	0.39743	0.096982	0.1229	0.31154	-3.1125	-2.8208	-3.3833	-3.6104	-2.8604	-3.5125	-3.3458	-2.8854	-3.5	-2.9625	-3.3583	-3.6479	-2.8792	-3.525	-3.2958	-3.0625	96.643	259.293	425.112	397.448	431.733	261.607	409.466	393.456	212.884	324.387	115.784	393.130	441.464	332.771	225.075	338.774	0.0022739	0.00051967	0.00018924	988.1	4.5918e-06	9.8088e-06	1150.7	319.69	6.2764e-06	1.2437e-05	444.65	203.28	143.31	70.007	4.7123e-06	107.02	0.00051398	0.00049851	0.00016183	952.88	5.4956e-06	5.5963e-06	1105.3	308.28	5.4169e-06	5.6899e-06	423.81	186.12	133.47	64.271	6.3676e-06	96.556	333.185	188.040	129.735	101.473	226.860	241.513	100.734	107.351	289.382	201.972	105.155	109.469	111.313	114.920	194.376	112.280	-8191	255	
8642.144	1	1	0	0	0.14669	0.20689	0.23832	0.19821	0.19794	0.086253	0.1744	0.37341	0.29487	0.27054	0.26508	0.32755	0.13931	0.012762	0.16838	0.13668	-3.2229	-3.1229	-3.0854	-3.5396	-2.7271	-3.55	-3.5125	-2.9875	-3.5417	-2.9792	-3.1625	-3.9292	-2.9729	-3.5812	-3.4437	-3.0833	322.147	414.678	187.831	436.357	386.603	203.137	383.322	442.813	368.911	177.217	343.335	386.658	378.541	108.415	90.888	286.723	0.002111	0.00075768	0.00029272	995.28	1.8028e-05	1.3409e-05	1166.4	322.65	8.621e-06	8.6298e-07	451.32	204.61	145.55	70.646	3.1322e-06	108.92	0.00050505	0.00053701	0.00016181	957.14	5.4737e-06	6.0346e-06	1115.1	309.62	5.4335e-06	6.274e-06	429.46	187.96	135.29	65.552	6.453e-06	98.192	325.366	142.401	123.495	101.037	240.811	192.388	100.521	107.336	271.441	211.446	105.145	109.173	111.316	114.822	170.171	112.211	-8191	255	
8642.265	1	1	0	0	0.067325	0.013125	0.055587	0.45876	0.11106	0.24697	0.38064	0.26239	0.16282	0.083531	0.40577	0.17059	0.1461	0.086219	0.21858	0.068763	-3.1896	-3	-2.9875	-3.6937	-3.0208	-3.3729	-3.5042	-3.0396	-3.3875	-2.9625	-3.2792	-3.8563	-3.0896	-3.4271	-3.3729	-2.9792	374.307	362.856	278.250	94.483	380.609	430.073	363.975	98.858	142.913	91.277	425.601	415.347	408.630	427.844	260.777	282.916	0.0022165	0.0006011	0.0001235	1005.2	1.3219e-05	1.3663e-05	1176.5	326.14	1.2509e-05	6.7905e-06	449.08	205.57	144.99	70.824	4.764e-06	108.72	0.00052867	0.00059979	0.00016396	965.53	5.765e-06	6.661e-06	1123.9	313.24	5.7625e-06	6.6973e-06	427.94	188.11	135.88	65.928	6.1628e-06	97.944	332.993	118.428	265.685	101.415	218.618	228.391	100.879	106.929	215.929	266.875	104.518	109.247	111.331	114.727	216.565	112.205	-8191	255	
8642.361	1	1	0	0	0.27608	0.13034	0.01914	0.21104	0.088845	0.10842	0.15185	0.29561	0.15702	0.32475	0.09291	0.32885	0.058523	0.3566	0.094049	0.063007	-3.1479	-3.2229	-2.9125	-3.8042	-3.0625	-3.1583	-3.6229	-2.8521	-3.6875	-3.1562	-2.9042	-3.8604	-3.1063	-3.3146	-3.6562	-3.0896	245.651	111.056	401.538	394.882	126.062	259.501	149.521	337.228	214.652	421.106	424.723	94.841	384.883	380.606	338.725	400.480	0.0025601	0.00073438	0.00024427	1008.3	1.35e-05	1.2617e-05	1171.5	326.77	8.7247e-06	4.2875e-06	449.38	206.83	145.95	71.802	8.875e-06	109.95	0.00055414	0.00062295	0.00015784	967.28	6.2091e-06	6.8725e-06	1120	313.4	6.3306e-06	6.9573e-06	429.3	189.68	138.1	67.01	6.3261e-06	99.147	320.928	417.684	236.143	101.265	173.876	214.561	100.719	107.230	197.499	284.310	105.086	109.223	111.098	114.574	145.298	112.122	-8191	255	
8642.457	1	1	0	0	0.14172	0.26037	0.37001	0.27822	0.084386	0.17892	0.093349	0.20589	0.13942	0.20692	0.20087	0.26962	0.18814	0.23994	0.11941	0.1402	-3.1271	-3.1813	-2.775	-3.6229	-2.9771	-2.9688	-3.7542	-2.9354	-3.3396	-3.3979	-3.0375	-3.7167	-3.1667	-3.2479	-3.6208	-3.0938	159.049	339.309	92.829	441.841	336.488	124.980	209.344	126.735	329.498	234.439	350.702	428.800	437.345	123.149	256.354	91.144	0.002325	0.00071796	0.0001013	1010	4.5921e-06	6.3306e-06	1179.9	330.57	1.6726e-05	1.7187e-06	457.1	209.78	148.37	73.155	5.8768e-06	112.01	0.0006333	0.00064056	0.00016492	976.1	7.0746e-06	7.1691e-06	1133.4	317.86	7.3351e-06	7.2396e-06	436.13	193.21	141.69	68.35	6.5423e-06	101.43	322.718	373.421	218.299	101.097	227.936	338.301	100.399	107.097	184.958	268.166	105.056	109.016	111.162	114.302	296.790	111.595	-8191	255	
8642.576	1	1	0	0	0.27432	0.23987	0.26614	0.083465	0.19385	0.16008	0.13059	0.2431	0.25995	0.23136	0.047892	0.28203	0.19043	0.11009	0.25159	0.12817	-2.8854	-3.4958	-2.7979	-3.6958	-3.2146	-3.0708	-3.7125	-3.1021	-3.2812	-3.6083	-2.8917	-3.7042	-3.5563	-3.0896	-3.5438	-3.2313	368.655	355.870	311.742	399.244	284.121	180.966	117.143	413.095	404.464	126.517	296.462	421.522	108.520	418.788	279.280	416.498	0.0025623	0.00036437	0.00030958	1024.8	6.225e-06	2.6877e-06	1185.1	330.06	1.6828e-05	8.5722e-06	456.47	209.75	148.15	72.845	8.6035e-06	112.44	0.0007055	0.00064395	0.00016773	989.47	7.6294e-06	7.0707e-06	1134.8	320.21	7.6263e-06	6.9027e-06	435.87	194.6	142.21	68.052	6.3964e-06	102.18	332.604	146.744	209.136	101.296	235.109	260.358	100.339	107.136	256.797	113.038	104.769	109.186	111.045	114.422	212.132	111.753	-8191	255	
8642.647	1	1	0	0	0.21069	0.11642	0.045767	0.22128	0.22248	0.087322	0.073696	0.1921	0.31571	0.04159	0.19395	0.14507	0.22759	0.13657	0.16358	0.33203	-2.7896	-3.5438	-2.85	-3.6813	-3.3	-2.8	-3.8583	-2.9917	-3.15	-3.4271	-2.8792	-3.4646	-3.3375	-2.825	-3.4792	-3.2687	423.479	325.331	324.499	432.649	362.905	226.612	361.495	130.605	257.422	259.038	434.871	413.768	404.368	434.460	202.026	342.710	0.0020019	2.8079e-05	0.00037708	1021.4	6.1682e-06	4.1918e-06	1191	329.4	7.7355e-06	2.2104e-06	457.54	209.99	147.55	73.043	7.4966e-06	111.5	0.00070205	0.00061632	0.00016315	993.59	7.3694e-06	6.698e-06	1133.2	321.88	7.3388e-06	6.6229e-06	434.09	195.13	141.28	67.953	6.4333e-06	102.31	321.845	238.835	432.052	101.172	297.254	204.410	100.900	107.112	387.160	261.964	105.071	109.155	110.646	114.225	182.173	111.731	-8191	255	
8642.744	1	1	0	0	0.14597	0.11273	0.055988	0.25961	0.063875	0.074687	0.17559	0.090026	0.15926	0.21814	0.08893	0.30691	0.079047	0.14863	0.21653	0.18258	-2.6583	-3.4188	-2.9562	-3.4271	-3.5271	-2.9292	-3.7521	-3.1729	-3.0458	-3.6646	-3.0042	-3.4667	-3.65	-2.9333	-3.5833	-3.5021	176.091	132.163	346.688	385.096	273.743	271.529	345.932	347.291	266.910	307.537	367.283	411.870	370.001	388.909	143.368	384.256	0.0023728	0.00061905	0.00015438	1016.3	9.1094e-06	2.3944e-06	1186.2	331.09	5.0875e-06	5.9342e-06	458.77	212.07	148.55	73.308	6.2515e-06	112.23	0.00068941	0.00061536	0.00016963	1002.9	7.2959e-06	6.7635e-06	1136.9	324.92	7.2075e-06	6.5671e-06	436.23	196.96	141.3	68.191	6.8951e-06	103.05	326.329	162.324	403.415	101.359	281.081	357.598	100.535	107.044	414.766	422.493	104.792	109.122	110.982	114.336	216.271	111.695	-8191	255	
8642.840	1	1	0	0	0.24424	0.045221	0.033835	0.1167	0.27452	0.11324	0.045013	0.16296	0.22152	0.07488	0.20507	0.091309	0.10653	0.40429	0.093139	0.27013	-2.6542	-3.5917	-3.0083	-3.3146	-3.5333	-2.8604	-3.5271	-3.5812	-3.1021	-3.5833	-3.2	-3.3125	-3.7021	-2.975	-3.2896	-3.4917	336.029	436.816	140.859	141.381	139.095	431.394	333.457	406.559	449.089	232.602	378.817	374.504	351.978	393.056	203.118	348.269	0.002107	0.00050626	0.00040536	1034.2	8.5778e-06	3.6164e-06	1192.7	331.57	2.7553e-06	7.1173e-06	463.27	212.22	149.97	74.572	3.5113e-06	113.93	0.00067857	0.00061961	0.00018581	1018.4	7.3034e-06	7.0682e-06	1161.7	330.31	7.4329e-06	6.9307e-06	446.94	199.99	142.96	69.478	7.8549e-06	104.53	337.866	447.692	116.224	101.028	435.188	202.085	100.345	107.267	375.952	343.359	104.937	108.899	111.012	114.043	228.507	111.564	-8191	255	
8642.960	1	1	0	0	0.1541	0.41543	0.057586	0.14625	0.29404	0.080206	0.45701	0.20653	0.19151	0.2359	0.2803	0.10748	0.031554	0.30635	0.12547	0.054518	-2.4979	-3.6583	-3.0208	-3.3625	-3.4813	-2.9979	-3.5083	-3.6354	-2.8396	-3.6167	-3.3812	-3.1604	-3.8333	-3.0667	-3.2875	-3.8125	311.918	292.241	313.065	365.582	399.825	228.472	383.474	381.382	368.104	258.496	103.277	403.956	100.649	113.792	117.041	325.690	0.0020759	0.00082298	0.0001808	1028.1	3.4372e-06	6.9363e-06	1199.5	331.11	1.121e-05	1.5577e-06	459.4	213	150.13	76.392	1.7279e-05	117.18	0.00069132	0.0006351	0.00020663	1018	7.3404e-06	7.203e-06	1170.7	327.82	7.5937e-06	7.2805e-06	452.01	201.05	143.99	71.464	9.003e-06	107.67	333.333	174.319	100.805	101.394	331.192	331.390	100.346	107.058	429.839	229.855	104.625	109.049	110.890	113.884	169.256	111.209	-8191	255	
8643.056	1	1	0	0	0.24939	0.057666	0.096122	0.33742	0.16042	0.2568	0.14195	0.15926	0.10456	0.054395	0.15714	0.10306	0.18459	0.24114	0.14183	0.023076	-2.8146	-3.5563	-3.1979	-3.1667	-3.625	-3.0083	-3.2146	-3.55	-2.8417	-3.4354	-3.4375	-3.0229	-3.6958	-3.0854	-3.1562	-3.7667	336.424	305.164	277.359	91.451	250.316	347.248	251.305	121.498	195.929	398.234	390.897	115.727	294.584	111.247	278.215	112.600	0.002373	0.00052589	0.00029291	1031.2	2.3874e-06	9.4026e-06	1194.4	330.34	7.3973e-06	6.1741e-06	458.64	213.61	150.65	76.195	6.1782e-06	116.18	0.00073682	0.00071825	0.00023398	1024.1	7.681e-06	8.0602e-06	1184	328.56	7.6964e-06	8.0513e-06	454.36	200.42	143.58	71.738	8.8273e-06	106.1	322.381	172.647	169.881	101.266	259.945	170.779	100.478	106.834	231.575	136.415	104.727	108.755	110.812	113.989	259.894	111.310	-8191	255	
8643.153	1	1	0	0	0.12835	0.13722	0.22516	0.07549	0.21842	0.13955	0.20464	0.036992	0.15049	0.42079	0.18711	0.12538	0.17629	0.20463	0.13808	0.23362	-2.4021	-3.2854	-3.2917	-2.9771	-3.5042	-3.1167	-3.2562	-3.6813	-2.8812	-3.4833	-3.3896	-3.075	-3.7146	-3.2687	-3.1354	-3.8937	428.375	372.275	389.554	385.221	230.706	297.494	343.559	247.493	350.545	351.138	353.187	439.405	348.172	135.259	375.724	385.112	0.0025007	0.00039542	9.31e-05	1020.8	6.3757e-06	5.9634e-06	1183	327.22	8.5657e-06	1.4007e-06	451.67	210.25	148.83	74.864	3.9236e-06	113.34	0.00069477	0.00073965	0.00021783	1006	7.1171e-06	8.0759e-06	1158.3	321.33	7.0361e-06	7.9744e-06	441.58	195.86	140.65	70.475	7.8234e-06	103.35	327.490	142.496	267.694	101.248	411.886	203.706	100.448	106.981	138.078	176.771	104.859	109.015	110.684	114.203	296.847	111.648	-8191	255	
8643.249	1	1	0	0	0.10694	0.14287	0.11988	0.25525	0.12846	0.15617	0.26446	0.13877	0.035534	0.088053	0.16992	0.13614	0.18173	0.19739	0.22133	0.17883	-2.4917	-3.2583	-3.3625	-2.8542	-3.6958	-3.1833	-3	-3.6958	-2.8271	-3.15	-3.4979	-3.1063	-3.6125	-3.3042	-2.9083	-3.9583	370.664	430.822	365.577	344.774	299.756	388.884	363.503	176.394	267.924	336.648	99.273	121.816	356.803	370.592	181.751	406.063	0.0022957	0.000571	2.8213e-05	1012.2	1.108e-05	4.0896e-06	1173.6	326.16	5.6882e-06	1.267e-05	449.34	208.12	147.78	73.814	5.2651e-06	112.28	0.00065099	0.00072865	0.0001934	987.81	6.7813e-06	7.9418e-06	1137.7	316.23	6.8529e-06	7.7893e-06	433.25	193.18	139.51	69.299	7.0135e-06	101.74	329.663	117.543	280.588	101.520	142.845	193.095	100.627	107.000	190.720	181.600	104.717	109.264	110.995	114.210	280.795	111.716	-8191	255	
8643.345	1	1	0	0	0.14333	0.15159	0.22113	0.12642	0.085154	0.12694	0.10151	0.023466	0.044167	0.14993	0.19621	0.32384	0.2112	0.20752	0.094341	0.050607	-2.6708	-3.2521	-3.4667	-2.9688	-3.4625	-3.3312	-3.1417	-3.8625	-3.0583	-3.2062	-3.7146	-2.9813	-3.6583	-3.4083	-2.8271	-3.7896	324.939	141.066	177.942	368.796	333.434	407.419	96.670	442.105	151.758	116.497	115.953	395.052	400.981	404.663	171.814	436.406	0.0025453	0.00078228	8.4083e-05	1003.7	4.4569e-06	4.8805e-06	1171	325.59	1.9961e-05	2.7873e-06	450.51	209.77	147.5	74.041	5.8249e-06	113.37	0.00064609	0.0007037	0.00017458	977.16	6.9641e-06	7.6451e-06	1127.5	315.1	7.142e-06	7.5371e-06	431.91	193.15	140.69	69.144	6.8344e-06	102.17	324.277	189.060	395.651	101.538	185.764	305.899	100.762	106.993	192.154	141.965	104.732	109.135	110.935	114.149	266.222	111.511	-8191	255	
8643.439	1	1	0	0	0.24333	0.17294	0.033135	0.29818	0.17387	0.13896	0.1897	0.11252	0.11198	0.27127	0.32547	0.26098	0.14894	0.11008	0.081888	0.15263	-2.6688	-3.1167	-3.5583	-3.0167	-3.3563	-3.3354	-2.9479	-3.6396	-3.3042	-2.9083	-3.6688	-3.1292	-3.4479	-3.6146	-2.8958	-3.6937	264.506	334.918	161.564	413.745	89.744	426.731	310.827	147.073	221.975	422.835	194.421	409.844	107.492	126.486	309.535	298.692	0.0025857	0.00028507	0.00021868	1009.3	1.9519e-05	6.4677e-06	1174.9	325.95	8.1387e-06	4.2913e-06	455.36	212.31	148.96	74.595	6.6814e-06	113.86	0.00069831	0.00069374	0.00017449	981.92	7.6033e-06	7.5258e-06	1132.5	316.74	7.806e-06	7.5446e-06	434.38	195.61	142.79	69.857	6.9709e-06	103.42	332.793	330.000	171.343	101.219	181.621	197.716	100.625	107.037	178.177	257.337	104.971	109.096	111.176	114.264	234.644	111.686	-8191	255	
8643.560	1	1	0	0	0.2266	0.19598	0.18525	0.095452	0.10359	0.11993	0.2116	0.14215	0.13357	0.040286	0.16134	0.12224	0.12245	0.20543	0.07085	0.04168	-2.9396	-2.9188	-3.5854	-3.1479	-3.1042	-3.5062	-3.0333	-3.6604	-3.1958	-3.0396	-3.775	-3.2375	-3.3125	-3.5875	-2.7896	-3.5646	201.201	302.331	398.010	97.584	239.718	426.268	401.219	409.772	340.108	333.898	400.241	322.728	443.200	106.771	299.557	413.224	0.0020246	0.00067586	6.0591e-05	1014.9	1.1224e-05	8.8087e-06	1173.1	327.36	1.6693e-05	3.4482e-06	452.92	210.57	148.61	74.101	4.6113e-06	112.94	0.00074677	0.00068308	0.00017406	992.07	8.0598e-06	7.2788e-06	1135.3	320.17	8.0799e-06	7.3642e-06	433.68	196.42	143.19	69.25	6.7852e-06	103.15	326.585	240.510	274.759	101.089	199.727	320.231	100.695	106.861	256.039	340.649	104.716	109.100	110.760	114.262	204.499	111.688	-8191	255	
8643.656	1	1	0	0	0.11615	0.35726	0.052765	0.38005	0.17883	0.10128	0.10727	0.12789	0.091799	0.16853	0.078517	0.11575	0.094459	0.26717	0.048266	0.24433	-2.9104	-3.0479	-3.5479	-2.9688	-3.2208	-3.65	-2.8229	-3.5167	-3.2542	-2.9375	-3.6625	-3.4313	-3.3583	-3.775	-2.9792	-3.5917	232.844	297.980	200.240	407.980	343.940	348.325	439.775	445.473	128.602	322.676	436.340	410.810	346.882	375.824	151.685	356.739	0.0025306	0.00034173	0.00037583	1008.1	2.4034e-06	1.0862e-05	1168	325.15	4.7285e-06	2.9023e-06	449.05	209.67	147.24	73.673	1.0002e-05	112.1	0.0007193	0.00064111	0.00016546	990.13	7.6317e-06	6.826e-06	1122	320.02	7.4729e-06	6.8022e-06	428.51	195.38	140.54	68.21	6.4567e-06	102.71	336.940	96.824	148.721	101.369	264.574	301.381	100.304	106.980	145.693	410.762	105.141	109.186	111.085	114.250	172.034	111.912	-8191	255	
8643.752	1	1	0	0	0.18114	0.13168	0.21394	0.19007	0.016592	0.15784	0.23534	0.19673	0.24834	0.23953	0.080015	0.07134	0.091993	0.0557	0.046561	0.16747	-3.1063	-2.8729	-3.5104	-3.5563	-2.8937	-3.7333	-3.2021	-3.4333	-3.6958	-2.7417	-3.5938	-3.3104	-3.1125	-3.8937	-2.9375	-3.3625	290.124	361.682	349.671	418.144	215.917	395.962	390.456	423.379	249.885	140.515	99.835	242.352	115.878	258.179	134.333	325.955	0.0020676	0.00065163	0.00039862	1006.6	5.6798e-06	3e-06	1174.2	324.38	8.1495e-06	6.65e-06	451.69	208.6	147.97	73.713	4.4108e-06	113.22	0.00066302	0.00060559	0.00016476	991.27	7.0622e-06	6.4412e-06	1123	320.63	6.8942e-06	6.5501e-06	430.95	195.6	140.17	68.188	6.8509e-06	103.46	329.424	159.961	131.599	101.227	215.232	416.568	100.441	107.174	280.812	253.262	104.747	109.049	110.961	114.259	239.727	111.850	-8191	255	
8643.824	1	1	0	0	0.19691	0.18403	0.1892	0.30917	0.10079	0.041793	0.35003	0.35624	0.25682	0.087148	0.16657	0.13513	0.1792	0.086221	0.27375	0.23863	-3.0854	-2.8896	-3.4667	-3.5917	-3.1562	-3.5792	-3.2438	-3.3271	-3.6521	-2.9208	-3.4958	-3.5104	-2.9396	-3.825	-3.1375	-3.4042	232.101	238.068	177.279	97.369	157.998	388.146	382.260	388.010	205.457	427.188	329.361	425.742	431.771	160.008	335.001	363.840	0.0023403	0.00019549	0.00024247	1010.6	6.2912e-06	3.4788e-06	1171.6	326.6	1.3641e-05	6.1828e-06	452.6	209.35	147.6	73.44	1.5268e-05	112.14	0.00063359	0.00059436	0.0001754	992.77	6.8526e-06	6.3722e-06	1133.3	321.97	6.7474e-06	6.5458e-06	436.03	195.89	140.06	68.111	7.3018e-06	102.58	328.108	446.935	147.767	101.229	280.441	394.920	100.569	107.335	209.835	259.987	104.927	108.966	110.964	114.323	220.543	111.680	-8191	255	
8643.945	1	1	0	0	0.12119	0.15264	0.15255	0.15681	0.083065	0.16173	0.076101	0.21444	0.2294	0.15037	0.26844	0.22253	0.057585	0.14839	0.20581	0.20215	-3.2229	-2.7521	-3.3937	-3.3688	-2.9792	-3.6667	-3.1437	-3.2604	-3.6125	-2.7396	-3.4646	-3.5208	-3.0708	-3.8812	-3.2	-3.1813	219.500	302.512	398.411	99.209	434.164	127.644	207.506	327.134	372.088	422.129	375.930	363.644	123.663	390.615	321.833	425.166	0.0018539	0.0008483	0.00018641	1009.9	5.6513e-06	7.2332e-06	1181	325.11	1.9491e-06	8.0309e-07	452	209.31	149.12	74.019	2.2218e-06	111.97	0.00061759	0.00059127	0.00018794	989.06	6.693e-06	6.3687e-06	1139.5	319.75	6.5211e-06	6.6025e-06	439.49	194.63	140.09	68.46	7.6147e-06	102.21	328.779	164.738	228.884	101.314	172.802	189.021	100.710	107.091	189.860	191.497	104.691	108.829	110.994	114.486	362.210	111.802	-8191	255	
8644.041	1	1	0	0	0.18955	0.2425	0.14821	0.12085	0.065399	0.13478	0.16736	0.11177	0.35995	0.23299	0.11106	0.083793	0.38974	0.17192	0.090977	0.068025	-3.1875	-2.9896	-3.0687	-3.6875	-3.0833	-3.6104	-3.3417	-2.95	-3.6437	-3.0604	-3.1833	-3.6604	-2.9542	-3.6771	-3.3312	-3.2854	259.279	421.949	135.136	379.673	264.824	153.158	185.991	398.061	216.214	189.957	379.035	101.568	385.272	427.845	205.542	346.498	0.0022629	0.00082274	0.00042862	1007.2	9.6409e-06	5.7525e-06	1172.9	328.38	8.4676e-06	1.3935e-05	452.95	209.3	148.5	74.4	5.2047e-06	113.07	0.00060181	0.00061916	0.00019471	984.11	6.5491e-06	6.8e-06	1142.3	319.69	6.4357e-06	7.0679e-06	441.04	194.1	139.94	69.193	7.6633e-06	102.85	324.517	170.857	160.609	101.463	144.268	139.294	100.607	106.869	220.370	231.729	104.694	109.109	110.952	114.104	326.259	111.812	-8191	255	
8644.137	1	1	0	0	0.24666	0.20999	0.15466	0.14819	0.17017	0.20072	0.27229	0.28731	0.066304	0.16757	0.09593	0.17071	0.074421	0.24392	0.21101	0.18967	-3.1917	-3.0479	-3	-3.775	-2.8146	-3.3146	-3.7021	-2.9854	-3.6354	-3.2938	-3.2021	-3.7396	-3.0083	-3.4833	-3.4125	-2.9854	95.032	106.646	314.870	376.195	284.805	283.018	372.897	102.681	309.224	446.193	368.745	384.325	409.625	366.949	257.300	399.014	0.0021526	0.00076208	0.00027716	1012.6	4.7345e-06	7.6068e-06	1184.6	329.89	4.2167e-06	9.4876e-06	457.18	212.71	150.32	75.107	1.4274e-06	114.59	0.00060258	0.00066908	0.00019414	986.38	6.5739e-06	7.4058e-06	1148.4	321.49	6.5434e-06	7.7166e-06	443.51	196.66	141.85	70.533	7.4958e-06	104.07	333.049	160.736	153.077	101.387	396.956	184.142	100.600	106.876	178.196	224.239	104.694	109.103	111.006	114.058	106.591	111.809	-8191	255	
8644.233	1	1	0	0	0.18519	0.27002	0.093787	0.048314	0.082613	0.1745	0.15062	0.30302	0.10328	0.081612	0.21325	0.045183	0.12567	0.13531	0.053659	0.42553	-3.0792	-3.1917	-3.0312	-3.7542	-3.0646	-3.3896	-3.7687	-2.9958	-3.4396	-3.3375	-3.175	-3.7583	-3.1229	-3.3563	-3.5521	-2.8875	263.992	373.990	152.534	88.934	225.808	243.260	273.983	439.183	441.798	398.004	375.987	319.868	96.364	399.797	231.981	373.446	0.0026652	0.00011388	0.0002425	1022.3	1.0782e-05	9.1955e-06	1187.8	328.06	2.1231e-05	3.9554e-06	451.78	211.93	149.77	74.676	1.3463e-06	113.49	0.00063582	0.00072786	0.00018958	992.29	6.8936e-06	7.9359e-06	1144.4	320.41	6.8721e-06	7.9654e-06	439.08	195.28	141.87	70.29	7.1466e-06	103.04	332.257	143.910	306.266	100.989	195.926	213.272	100.733	106.783	164.440	276.267	104.834	109.196	111.169	114.189	299.159	111.592	-8191	255	
8644.352	1	1	0	0	0.16577	0.18084	0.20432	0.1228	0.10914	0.25264	0.14769	0.46481	0.25389	0.23122	0.31903	0.18216	0.12698	0.25308	0.11914	0.20438	-3.1312	-3.2938	-2.9375	-3.8271	-3.1437	-3.375	-3.7125	-2.8729	-3.4146	-3.5687	-3.0312	-3.7896	-3.3354	-3.4167	-3.6021	-3.2625	292.408	397.622	382.113	428.018	443.180	399.827	344.411	369.725	215.691	340.788	106.883	422.145	341.320	372.835	157.022	406.652	0.002698	0.0004959	0.00032561	1012.1	1.5653e-05	3.8774e-06	1185.3	327.53	1.2907e-05	2.3904e-06	455.65	210.28	148.97	73.953	4.2541e-06	112.47	0.00067732	0.00073542	0.00018568	987.88	7.5189e-06	8.0229e-06	1136.5	319.03	7.5759e-06	7.8655e-06	436.84	193.74	142.6	69.629	7.073e-06	102.22	326.053	237.779	121.930	101.398	196.511	329.473	100.725	106.972	241.567	193.460	104.661	108.867	110.885	114.175	296.617	111.368	-8191	255	
8644.448	1	1	0	0	0.23789	0.090753	0.11982	0.25079	0.055887	0.1064	0.057529	0.25675	0.21289	0.16871	0.14117	0.16239	0.12663	0.25629	0.18798	0.49042	-3.1437	-3.5396	-3.0167	-3.5396	-3.1333	-3.2375	-3.7562	-2.8792	-3.3958	-3.3917	-3.0354	-3.7042	-3.4292	-3.1312	-3.8146	-3.2042	206.660	115.789	111.145	422.897	154.205	314.947	268.934	282.844	222.573	259.933	142.558	380.588	400.326	368.340	276.516	405.292	0.002545	0.00039313	0.00055589	1010.7	4.898e-06	1.8601e-06	1185.3	326.99	1.3218e-05	3.8924e-06	453.47	210.43	148.64	74.396	1.122e-05	112.79	0.00073131	0.00071495	0.00018566	990.31	8.2069e-06	7.9773e-06	1142.2	321.98	8.442e-06	7.9589e-06	438.09	195.18	143.97	69.897	7.218e-06	103.33	331.610	208.350	218.040	101.419	224.821	444.989	100.443	106.691	194.816	340.917	104.835	108.868	111.108	114.087	221.687	111.575	-8191	255	
8644.521	1	1	0	0	0.081485	0.20186	0.10818	0.26262	0.069476	0.18882	0.40033	0.16275	0.23805	0.20495	0.21517	0.026733	0.30505	0.2621	0.10424	0.13293	-2.7938	-3.4646	-2.8396	-3.7979	-3.3563	-3.2896	-3.8542	-3.1667	-3.3708	-3.5021	-3.1521	-3.8312	-3.5417	-3.1417	-3.5167	-3.2792	128.336	358.194	307.344	419.517	272.224	445.645	437.693	124.128	393.600	101.773	175.994	111.997	97.393	442.943	281.348	413.278	0.0024531	7.9321e-05	0.00019752	1022.2	1.186e-05	1.2903e-05	1183	332.31	1.681e-06	1.8766e-06	460.07	211.84	149.73	75.062	6.3686e-07	114.48	0.00079313	0.00071172	0.00018787	1003.5	8.7362e-06	7.9928e-06	1145.1	327.91	8.8783e-06	7.9873e-06	443.63	199.73	146.05	70.696	7.529e-06	105.45	325.151	124.215	117.556	101.171	145.627	408.962	100.651	107.082	109.078	349.116	104.785	109.042	110.832	114.130	135.219	111.716	-8191	255	
8644.640	1	1	0	0	0.088443	0.19063	0.13406	0.25331	0.096284	0.21207	0.10688	0.26976	0.10859	0.17893	0.3543	0.20313	0.21616	0.36304	0.13399	0.2933	-2.8021	-3.6958	-2.9188	-3.5458	-3.4333	-3.05	-3.7979	-3.3542	-3.2125	-3.5979	-2.9729	-3.5729	-3.5563	-3.1104	-3.6333	-3.4979	448.388	291.225	190.133	408.611	127.355	279.130	409.595	399.465	381.319	325.551	396.684	406.701	132.140	420.854	213.151	415.781	0.0025175	0.00040257	0.00027749	1019	7.6655e-06	8.8873e-06	1187.6	329.29	4.1294e-06	2.196e-06	456.69	211.59	149.41	74.936	7.755e-06	113.65	0.00081904	0.00072454	0.00019279	1017.3	8.6893e-06	7.9843e-06	1150.8	331.49	8.7276e-06	7.9446e-06	443.54	200.97	144.99	70.336	7.7644e-06	105.48	327.304	140.937	124.562	100.952	273.347	252.508	100.493	107.188	222.197	229.993	104.807	109.092	110.839	113.957	139.628	111.538	-8191	255	
8644.736	1	1	0	0	0.12682	0.064479	0.11357	0.14053	0.12384	0.1692	0.19778	0.19458	0.15667	0.061036	0.17456	0.24403	0.32872	0.24842	0.12131	0.0535	-2.7938	-3.7313	-3.1625	-3.4833	-3.6208	-2.8875	-3.6458	-3.3854	-3.1229	-3.6229	-3.2	-3.3771	-3.7313	-3.1896	-3.5021	-3.4792	168.485	362.448	126.531	444.061	351.151	423.481	387.258	428.931	162.434	421.797	164.153	151.104	428.599	396.500	383.165	266.611	0.001887	0.00042098	6.9681e-05	1020.6	3.3828e-06	6.004e-06	1180.6	328.31	7.4963e-06	3.2642e-06	452.4	210.09	149.35	74.591	1.29e-05	112.9	0.00079865	0.00072031	0.0002045	1025.8	8.496e-06	7.9836e-06	1153.1	332.04	8.4287e-06	7.8378e-06	443.61	200.77	144.03	70.162	8.2975e-06	105.2	322.374	136.598	289.115	101.513	230.067	300.657	100.643	106.859	259.905	406.350	104.710	108.811	110.666	114.136	182.916	111.387	-8191	255	
8644.833	1	1	0	0	0.05609	0.077636	0.26685	0.14158	0.19522	0.055738	0.25042	0.34773	0.12121	0.10993	0.039151	0.12831	0.11263	0.082575	0.24823	0.28958	-2.7021	-3.6625	-2.9417	-3.3458	-3.5042	-3.1312	-3.5729	-3.475	-3.0479	-3.6583	-3.2958	-3.5125	-3.8646	-2.9875	-3.3375	-3.6521	416.289	367.328	114.786	420.138	230.659	120.837	318.327	415.731	182.600	379.581	142.844	367.482	95.106	92.340	196.772	129.695	0.0019269	0.00080217	0.00033042	1016.1	1.2133e-05	5.6785e-06	1179.6	328.92	4.9796e-06	6.1961e-06	457.85	209.88	149.14	74.545	1.0971e-05	113.63	0.00076947	0.0007047	0.00021932	1024	8.236e-06	7.8715e-06	1165.8	332.5	8.2815e-06	7.7625e-06	451.08	200.31	143.85	70.053	9.0187e-06	105.03	322.615	268.045	159.575	101.359	226.617	300.763	100.399	106.932	151.259	179.598	104.954	108.512	110.852	113.975	200.467	111.585	-8191	255	
8644.953	1	1	0	0	0.096219	0.17503	0.099677	0.16849	0.19456	0.24752	0.35064	0.368	0.29426	0.23803	0.12937	0.17131	0.26045	0.32111	0.090716	0.17994	-2.6188	-3.6021	-3.1063	-3.0354	-3.3646	-3.0604	-3.4708	-3.5438	-3.0563	-3.5875	-3.2583	-3.125	-3.85	-3.1021	-3.3146	-3.8354	247.260	438.897	329.482	98.002	268.134	395.682	402.181	415.139	169.940	143.088	402.307	435.823	429.323	432.202	211.975	355.784	0.0025912	0.00029695	0.00035839	1019.4	9.4019e-06	1.0302e-05	1184.4	330.39	9.021e-06	2.8943e-06	461.95	212.42	150.12	74.825	5.5678e-06	114.02	0.0007508	0.00071478	0.00023352	1020.6	8.0522e-06	8.062e-06	1177	332.1	8.1869e-06	8.1298e-06	459.44	201.48	144.9	71.097	9.601e-06	105.51	332.955	214.574	131.796	101.065	212.829	167.272	100.558	106.589	314.690	177.602	104.443	109.167	110.576	114.015	118.398	111.504	-8191	255	
8645.049	1	1	0	0	0.12304	0.15461	0.32244	0.20547	0.25752	0.17782	0.098632	0.10084	0.20997	0.11098	0.070864	0.25287	0.03464	0.11118	0.13785	0.30161	-2.6104	-3.5438	-3.4083	-3.1688	-3.75	-3.0896	-3.4333	-3.8187	-2.8438	-3.3958	-3.4146	-3.1396	-3.7604	-3.2188	-3.2604	-3.9333	298.388	135.661	295.466	448.725	96.567	320.662	181.176	173.752	101.120	104.023	318.379	98.840	213.458	137.994	89.957	349.347	0.0021005	0.001335	9.1151e-05	1024.2	6.1495e-07	1.6232e-05	1193.6	331.2	1.2136e-05	1.4083e-05	459.83	210.54	149.77	75.06	4.0465e-06	113.03	0.00076218	0.00077525	0.00024447	1024.1	8.0159e-06	8.7343e-06	1186.9	331.94	8.0805e-06	8.9052e-06	458.67	199.84	144.81	71.349	9.5153e-06	104.46	328.107	161.467	135.570	101.336	371.913	220.547	100.422	106.788	117.200	189.420	104.576	108.963	110.696	113.861	272.276	111.337	-8191	255	
8645.121	1	1	0	0	0.23821	0.064866	0.26928	0.33532	0.054601	0.1179	0.18463	0.0094216	0.17058	0.19374	0.039329	0.24877	0.10955	0.39697	0.092445	0.22111	-2.7104	-3.3792	-3.4188	-3.0563	-3.7396	-3.3271	-3.2958	-3.7479	-3.025	-3.3104	-3.4333	-2.9583	-3.7042	-3.275	-3.0458	-3.85	299.860	189.899	273.235	107.240	228.719	156.363	279.588	241.575	187.377	209.350	164.975	391.454	376.757	431.885	417.102	134.185	0.0025565	0.00063292	0.00036497	1027.1	8.058e-06	7.1418e-06	1188.3	331.23	1.3157e-05	9.2109e-06	457.76	210.9	150.49	74.855	5.091e-06	111.97	0.00076352	0.00084373	0.00023903	1021.3	8.1116e-06	9.4409e-06	1179.5	331.55	8.2659e-06	9.5947e-06	455.03	199.1	145.07	71.58	9.162e-06	103.75	330.827	161.295	318.795	101.130	375.054	238.008	100.482	106.727	216.836	207.057	104.661	108.674	110.486	113.628	277.029	111.355	-8191	255	
8645.242	1	1	0	0	0.15169	0.18989	0.094592	0.064422	0.18594	0.078969	0.10537	0.24652	0.066213	0.20086	0.3024	0.045122	0.24936	0.22157	0.072795	0.15308	-2.7125	-3.4021	-3.5292	-3.0792	-3.7313	-3.3542	-3.2917	-3.6708	-2.9771	-3.0521	-3.6542	-3.1583	-3.6396	-3.5708	-2.9458	-3.8271	195.846	270.026	268.208	352.528	317.623	178.047	338.644	386.039	239.973	332.566	380.390	278.528	135.873	91.658	236.853	401.659	0.0027036	0.00099979	0.00027831	1024.3	9.7349e-06	1.1346e-05	1178	327.34	2.3992e-05	6.1746e-06	454.53	209.04	149.51	73.974	2.8434e-06	112.03	0.00078434	0.00088619	0.00022903	1017.2	8.422e-06	9.7045e-06	1164	326.38	8.4977e-06	9.5054e-06	446.53	196.99	144.61	70.924	8.5444e-06	102.91	327.907	158.828	292.916	101.405	151.583	295.777	100.287	106.924	193.919	154.800	104.845	108.963	110.762	114.169	394.479	111.309	-8191	255	
8645.338	1	1	0	0	0.40916	0.14794	0.12902	0.24185	0.202	0.24254	0.096463	0.14661	0.062065	0.22075	0.15524	0.23682	0.18925	0.4479	0.11721	0.22195	-2.4667	-3.1104	-3.5146	-3.0521	-3.6125	-3.3146	-3.2667	-3.8312	-3.1896	-3.2271	-3.9562	-3.0021	-3.3396	-3.7521	-2.7687	-3.8083	445.850	296.037	316.612	417.845	245.250	315.594	360.337	106.733	273.297	448.266	248.749	197.670	416.010	431.353	132.468	372.500	0.00285	0.00063617	0.00014402	1015.7	1.5242e-05	3.4147e-06	1169	326.75	1.1196e-05	6.0401e-06	454.57	208.17	148.44	73.914	1.7529e-06	112.23	0.00081445	0.00085265	0.00021242	1002.1	8.7104e-06	9.1205e-06	1148	322.87	8.7744e-06	8.9321e-06	441.45	195.39	144.41	70.221	8.0788e-06	102.8	326.349	209.083	162.819	101.258	214.018	174.668	100.650	106.983	190.743	265.822	104.695	108.954	110.612	114.154	111.386	111.666	-8191	255	
8645.432	1	1	0	0	0.13694	0.18452	0.15496	0.13738	0.058839	0.084685	0.21087	0.16852	0.16321	0.11983	0.23385	0.2126	0.030809	0.22907	0.11404	0.11265	-2.8833	-3.0854	-3.5771	-2.9208	-3.2646	-3.5542	-2.9396	-3.6583	-3.3479	-2.9146	-3.7333	-3.2833	-3.4	-3.7125	-2.9188	-3.6833	395.162	170.965	391.505	352.961	327.271	370.529	402.398	153.507	154.469	433.398	288.314	295.847	300.688	380.135	134.162	369.704	0.0021841	0.00050706	0.00029155	1013.9	1.5093e-05	2.4244e-06	1173	330	9.728e-06	6.8695e-06	454.76	209.31	148.69	74.015	4.6402e-07	112.45	0.00083628	0.00079763	0.00020079	1000.1	9.0954e-06	8.5614e-06	1145.8	325.22	9.2408e-06	8.6154e-06	441.69	196.78	145.94	70.311	8.0019e-06	103.46	326.892	226.450	253.395	101.366	176.844	311.691	100.387	107.275	206.523	272.117	104.646	108.758	110.659	113.908	426.907	111.376	-8191	255	
8645.528	1	1	0	0	0.25223	0.087769	0.049698	0.23265	0.0597	0.017441	0.25981	0.11408	0.098783	0.16256	0.22932	0.14674	0.11614	0.21708	0.072325	0.19391	-2.7729	-3.0125	-3.7396	-3.2167	-3.2958	-3.7479	-3.0896	-3.6937	-3.2375	-2.9396	-3.65	-3.2687	-3.3042	-3.8458	-3	-3.7875	252.375	312.393	197.761	434.889	281.421	306.096	372.939	413.323	221.902	414.323	407.122	384.812	241.131	367.473	178.419	310.474	0.0022915	0.0006759	5.3649e-05	1017.9	3.9241e-06	7.8171e-06	1178.7	328.44	1.068e-05	6.1544e-06	453.65	209.09	148.9	74.562	5.4344e-06	113.03	0.00085846	0.00077045	0.00019762	1012.7	9.2651e-06	8.2411e-06	1146.5	329.37	9.2678e-06	8.4338e-06	440.54	198.93	146.18	70.507	8.0473e-06	104.78	332.267	249.145	166.938	101.219	109.230	209.207	100.666	106.983	245.391	274.656	104.710	108.835	110.970	113.775	115.718	111.206	-8191	255	
8645.649	1	1	0	0	0.27916	0.04967	0.25042	0.14207	0.18015	0.22422	0.30589	0.052356	0.083699	0.28378	0.25372	0.086546	0.06458	0.24235	0.053078	0.088824	-3.0208	-2.8187	-3.6979	-3.1813	-3.2083	-3.8	-3.0542	-3.5271	-3.4271	-3.0938	-3.7125	-3.45	-3.2979	-3.9146	-3.0771	-3.4208	249.032	111.197	131.832	421.760	392.854	316.126	392.146	108.311	265.162	411.195	96.252	131.208	295.821	94.083	108.602	437.328	0.0021403	0.00084022	0.00020915	1015.8	1.7755e-06	1.4233e-05	1169.8	328.68	3.2904e-06	5.4644e-06	454.61	210.27	149.17	75.145	1.2206e-05	113.25	0.00084967	0.00076994	0.00020199	1024	9.0441e-06	8.2327e-06	1147.6	333.45	9.001e-06	8.3347e-06	443.58	201.23	145.92	70.797	8.332e-06	105.85	335.520	249.900	204.692	101.189	384.224	221.372	100.635	106.774	310.974	209.929	104.737	108.695	110.927	113.678	206.213	111.282	-8191	255	
8645.745	1	1	0	0	0.19402	0.13934	0.074627	0.017446	0.25252	0.13959	0.10786	0.13182	0.080472	0.30468	0.43137	0.2924	0.15675	0.30778	0.082043	0.30555	-3.0854	-2.9229	-3.5083	-3.4729	-3.0812	-3.6708	-3.1458	-3.3458	-3.4875	-2.8854	-3.6167	-3.475	-3.1729	-3.9208	-3.0417	-3.4854	308.365	183.433	169.551	415.989	289.827	337.608	436.665	402.606	323.879	281.228	363.259	373.708	396.662	445.656	393.597	419.532	0.0017949	0.00055018	0.00060166	1021.9	1.1001e-05	1.8922e-06	1184.1	331.29	2.1269e-06	7.8925e-06	457.69	211.97	149.66	75.528	1.7525e-05	114.4	0.00082104	0.00076392	0.00021482	1033	8.8574e-06	8.1685e-06	1163.6	336.84	8.7415e-06	8.3892e-06	451.48	203.36	146.16	71.251	9.2198e-06	107.2	331.906	175.872	152.423	101.246	341.443	304.035	100.629	106.875	188.130	326.998	104.548	108.759	110.598	113.724	177.214	111.345	-8191	255	
8645.817	1	1	0	0	0.049586	0.12394	0.069435	0.18892	0.17259	0.20477	0.0025775	0.40264	0.2815	0.052734	0.070365	0.13084	0.078992	0.10302	0.10158	0.29014	-3.0563	-2.8417	-3.525	-3.4688	-2.8542	-3.5979	-3.0375	-3.1396	-3.6875	-2.8646	-3.3354	-3.4167	-3.0125	-3.6854	-3.05	-3.2729	379.917	434.418	157.897	447.870	341.295	360.735	305.077	294.257	267.097	209.038	116.983	112.591	382.202	370.797	281.466	406.265	0.0022015	0.00037944	0.00053013	1021.4	8.8419e-06	4.1033e-06	1188.4	329.24	1.9839e-06	2.3429e-06	458.76	210.4	149.61	75.71	9.2472e-06	113.77	0.00082052	0.00077213	0.00023774	1037.5	8.9069e-06	8.3433e-06	1181.9	336.07	8.8046e-06	8.518e-06	457.29	202.64	146.27	71.508	9.9508e-06	106.4	329.756	431.518	130.125	101.253	296.221	311.436	100.491	107.066	288.004	148.326	104.753	108.844	110.811	113.501	242.744	111.239	-8191	255	
8645.913	1	1	0	0	0.058897	0.15836	0.067716	0.12725	0.10325	0.1486	0.039868	0.17907	0.082349	0.058836	0.14532	0.11343	0.34568	0.1227	0.15569	0.13856	-3.2875	-2.9958	-3.3375	-3.5687	-2.8688	-3.4958	-3.4396	-3.2479	-3.5583	-2.95	-3.3854	-3.5062	-2.9104	-3.6708	-3.1625	-2.9875	417.993	168.275	268.991	109.243	91.820	289.872	153.828	435.955	212.075	326.094	409.995	91.190	442.918	375.648	160.463	385.441	0.0022058	0.0013784	0.00024252	1021.8	3.9632e-06	1.226e-05	1188.9	328.79	6.8986e-06	9.3598e-06	452.4	209.69	149.21	74.914	5.7649e-06	113.33	0.0008021	0.00078868	0.00025523	1029	8.6469e-06	8.4786e-06	1180	332.33	8.39e-06	8.7531e-06	456.47	199.53	144.55	71.05	9.9012e-06	104.98	323.379	145.002	134.646	101.286	273.695	233.862	100.681	106.749	132.211	213.974	104.707	108.833	110.687	113.572	240.919	111.228	-8191	255	
8646.034	1	1	0	0	0.12884	0.15975	0.075902	0.27159	0.21446	0.084488	0.17008	0.13363	0.094406	0.098834	0.27368	0.31972	0.066501	0.075049	0.096954	0.1161	-3.1896	-2.8312	-3.1562	-3.4146	-2.8271	-3.4708	-3.5729	-2.9458	-3.5833	-3.1542	-3.5042	-3.8167	-3.05	-3.575	-3.6729	-3.0021	376.916	310.421	389.622	335.419	260.027	203.673	407.049	365.890	374.627	128.699	297.079	437.449	411.679	164.453	144.173	397.301	0.0023164	0.0010816	0.00026343	1021.5	1.0481e-05	1.3321e-05	1175.8	327.26	5.3969e-06	1.2509e-05	454.15	210.05	148.83	75.429	3.5399e-06	113.74	0.00077078	0.00082259	0.00025124	1022	8.345e-06	9.1404e-06	1176.8	329.64	8.2579e-06	9.3485e-06	455.82	199.04	144.3	71.843	9.6073e-06	105.28	329.408	161.271	156.833	101.234	260.323	215.516	100.637	106.985	264.281	182.981	104.742	108.940	110.807	113.790	321.882	111.129	-8191	255	
8646.130	1	1	0	0	0.2233	0.13568	0.070927	0.17986	0.071296	0.29362	0.26558	0.21493	0.053207	0.18644	0.14905	0.28538	0.12348	0.24403	0.12075	0.18427	-3.3646	-3.2	-3.3042	-3.8104	-3.1021	-3.3542	-3.5417	-3.0521	-3.5271	-3.1854	-3.1229	-3.7188	-3.1521	-3.2812	-3.4729	-3.1625	216.226	316.184	387.103	417.022	100.851	298.204	343.626	162.370	278.912	236.892	440.506	434.643	368.538	409.741	353.075	127.027	0.0028101	0.00079262	0.00046238	1025	5.0391e-06	2.6074e-06	1186.9	329.01	4.2676e-06	9.1346e-06	457.57	211.82	150.57	75.842	6.8088e-06	114.51	0.00077198	0.00088847	0.00024786	1020.9	8.6126e-06	9.9133e-06	1179.7	330.86	8.5655e-06	1.0072e-05	455.55	200.27	145.76	72.838	9.2769e-06	106.05	330.700	152.720	287.065	101.122	241.973	217.994	100.525	107.031	176.657	192.881	104.624	108.608	110.923	114.011	235.173	111.370	-8191	255	
8646.226	1	1	0	0	0.076594	0.099829	0.20844	0.059346	0.098355	0.32488	0.17661	0.21853	0.16323	0.16807	0.13669	0.1705	0.13582	0.28716	0.1551	0.31331	-3.1708	-3.2188	-3.0375	-3.7812	-3.0208	-3.1646	-3.5271	-3.0521	-3.4437	-3.2708	-2.9667	-3.7146	-3.3042	-3.2646	-3.6	-3.075	442.665	211.155	373.549	95.613	441.863	393.392	352.498	355.661	257.346	308.741	300.218	175.290	436.053	375.896	137.640	394.696	0.0031158	0.00089487	0.0003019	1026.5	3.5673e-06	7.3654e-06	1187.4	329.14	1.7613e-05	1.2859e-05	457.02	210.92	151.3	76.255	8.4069e-06	114.54	0.00081565	0.00092602	0.00023768	1020.6	9.1321e-06	1.0361e-05	1175.2	330.65	9.2927e-06	1.0342e-05	454.73	200.24	147.84	73.498	9.1714e-06	106.13	323.672	237.519	380.838	101.084	122.272	268.973	100.517	106.677	194.739	412.482	104.442	108.807	110.657	113.592	233.495	111.191	-8191	255	
8646.322	1	1	0	0	0.076004	0.23014	0.041694	0.25389	0.065695	0.29128	0.21442	0.10749	0.1405	0.11499	0.32735	0.12799	0.28208	0.222	0.14557	0.37301	-3.1	-3.2687	-2.9042	-3.6604	-3.05	-2.9292	-3.7667	-2.8729	-3.4062	-3.1729	-3.1125	-3.6729	-3.1708	-3.3021	-3.6979	-2.9188	249.008	157.038	175.481	371.302	406.491	193.242	445.192	118.388	154.537	219.133	323.772	417.444	435.584	417.290	114.241	389.635	0.0024155	0.00050161	0.00025986	1023.4	1.3311e-05	3.6169e-06	1180.6	328.28	1.3134e-05	6.2074e-06	455.3	210.42	149.9	76.233	3.0664e-06	114.67	0.00089835	0.00093492	0.00023552	1019.9	9.9746e-06	1.0183e-05	1169.7	330.11	1.0062e-05	1.0034e-05	452.57	199.67	148.95	73.177	8.9576e-06	106.03	323.239	183.401	113.823	101.064	184.551	282.971	100.665	106.803	183.947	273.413	104.701	108.497	110.483	113.617	154.986	110.875	-8191	255	
8646.418	1	1	0	0	0.067654	0.20677	0.20791	0.093293	0.17604	0.15192	0.15262	0.42709	0.048362	0.30252	0.23398	0.10596	0.04666	0.23758	0.039563	0.063179	-2.7083	-3.4938	-2.9333	-3.5917	-3.2271	-3.2167	-3.7812	-3.0354	-3.5042	-3.6042	-3.1354	-3.7146	-3.375	-3.0021	-3.5542	-3.3312	395.573	389.135	148.931	408.232	90.856	364.460	355.673	321.596	402.270	126.775	355.760	392.868	205.759	101.039	334.102	435.454	0.0024731	0.00048876	0.00037606	1025.1	1.1384e-05	1.2577e-05	1170	329.92	1.5209e-05	2.721e-06	454.12	211.62	150.09	75.926	9.5168e-06	114.71	0.00094921	0.00088195	0.00022904	1023.2	1.02e-05	9.5064e-06	1161.4	330.95	1.0212e-05	9.2996e-06	448.34	200.37	149.01	72.448	8.6068e-06	106.74	327.430	326.720	98.157	100.946	226.314	313.413	100.269	106.680	169.034	322.414	104.622	108.659	110.488	113.816	212.320	111.213	-8191	255	
8646.514	1	1	0	0	0.31903	0.26294	0.11563	0.17393	0.1409	0.097588	0.20235	0.25478	0.30397	0.11309	0.13722	0.057614	0.18941	0.14371	0.30105	0.065751	-2.9	-3.5625	-2.9521	-3.6167	-3.4271	-2.9188	-3.75	-3.1896	-3.1354	-3.5312	-3.025	-3.5271	-3.5438	-3.0417	-3.6917	-3.2938	390.391	260.408	346.928	392.470	231.653	308.435	404.978	430.933	373.398	135.383	379.917	395.193	447.795	193.674	219.500	135.001	0.0020236	0.00054381	0.00011108	1033.8	1.5305e-05	7.4182e-06	1184	328.95	1.2225e-05	8.6796e-06	453.91	211.12	149.21	75.667	1.5697e-06	114.55	0.00095254	0.00084183	0.00022243	1033.5	1.0081e-05	9.0841e-06	1156.8	333.74	9.9256e-06	8.8716e-06	446.57	201.96	147.43	71.841	8.4141e-06	106.98	324.480	252.364	252.586	101.232	347.035	293.623	100.510	106.837	309.844	347.292	104.353	109.004	110.524	114.011	299.671	111.176	-8191	255	
8646.633	1	1	0	0	0.17318	0.24643	0.057649	0.14943	0.18822	0.17856	0.33668	0.14171	0.11519	0.12155	0.26775	0.31907	0.1223	0.16803	0.10098	0.3088	-2.7042	-3.5479	-2.7604	-3.4208	-3.4417	-2.9479	-3.6708	-3.5021	-3.0771	-3.6333	-3.2458	-3.2604	-3.5479	-3.1833	-3.5563	-3.4688	238.841	370.379	368.699	280.748	372.999	185.935	411.719	315.759	407.473	370.501	111.900	422.784	329.942	93.732	261.945	411.245	0.0024372	0.00087335	0.00015125	1023.2	2.6937e-06	3.5034e-06	1183.7	329.22	4.7813e-06	1.0181e-05	455.37	210.82	149.01	75.491	1.4152e-05	113.75	0.00090178	0.0008046	0.00022056	1038.6	9.624e-06	8.923e-06	1161.5	336.95	9.474e-06	8.6638e-06	447.49	202.56	146.38	71.487	8.6833e-06	106.71	326.400	329.617	171.970	101.148	170.517	349.157	100.549	106.678	227.501	405.902	104.644	109.013	110.823	113.628	212.136	111.273	-8191	255	
8646.729	1	1	0	0	0.31257	0.20524	0.088979	0.044174	0.098112	0.10231	0.054982	0.12684	0.20056	0.20232	0.31263	0.21307	0.059716	0.39361	0.15982	0.32074	-2.5542	-3.6646	-2.9042	-3.5146	-3.5542	-2.7979	-3.5875	-3.4979	-3.2042	-3.5542	-3.1646	-3.3083	-3.625	-3.0875	-3.525	-3.5312	312.695	199.923	442.844	100.602	141.814	130.225	299.460	422.621	240.842	427.871	408.955	419.436	91.909	422.403	123.065	386.779	0.0023455	0.00065647	0.00017183	1020	7.4883e-06	9.0681e-06	1183.1	327.55	2.3678e-06	1.338e-05	455.08	210.54	150.24	75.618	2.0158e-05	113.96	0.00085169	0.00077471	0.00022822	1038.5	9.0186e-06	8.574e-06	1166.4	336.6	9.0609e-06	8.402e-06	451.61	202.69	146.08	71.394	9.2833e-06	106.39	328.011	368.111	179.645	101.446	213.704	257.934	100.418	106.931	367.405	211.781	104.482	108.783	110.813	113.726	176.021	111.226	-8191	255	
8646.826	1	1	0	0	0.3088	0.17902	0.089268	0.1769	0.12079	0.14439	0.15355	0.11364	0.13441	0.11277	0.098067	0.36007	0.29155	0.20566	0.169	0.080195	-2.7104	-3.5687	-3.0917	-3.0292	-3.5604	-3.0083	-3.4021	-3.5708	-2.7375	-3.5854	-3.1521	-3.1958	-3.6562	-3.0354	-3.3354	-3.5792	173.063	207.718	207.143	99.667	285.832	226.969	374.763	294.347	229.013	267.749	159.085	373.785	392.178	355.281	249.697	415.535	0.0021714	0.001079	0.00030764	1020.9	1.1238e-05	9.7681e-06	1183.8	327.63	1.6029e-05	6.0309e-06	455.41	210.89	149.63	75.55	1.6071e-05	113.66	0.00082595	0.00076444	0.00024605	1034.2	8.6902e-06	8.4354e-06	1176.8	334.7	8.7495e-06	8.346e-06	455.65	201.5	145.34	71.496	9.8644e-06	106.02	329.600	190.834	136.993	101.468	270.501	168.233	100.785	106.875	279.272	119.976	104.286	108.774	110.746	113.799	191.309	111.415	-8191	255	
8646.922	1	1	0	0	0.15299	0.23351	0.23022	0.30629	0.24792	0.11467	0.099266	0.029341	0.11213	0.1435	0.21484	0.18811	0.21896	0.39702	0.10649	0.41524	-2.5646	-3.3979	-3.3271	-2.9708	-3.5354	-3.0438	-3.35	-3.4646	-2.9854	-3.5479	-3.3125	-2.9813	-3.7979	-3.3229	-3.1667	-3.8333	396.501	364.985	354.151	386.888	354.197	338.429	409.131	311.842	269.559	363.534	302.588	421.525	387.787	407.268	353.119	417.448	0.0021064	0.0012334	0.00010563	1024.4	1.3858e-05	1.0474e-05	1180.7	330.19	6.2929e-06	9.5303e-06	454.65	211.51	150.24	76.52	5.8573e-06	114.9	0.00079979	0.00078026	0.00025548	1028.4	8.4671e-06	8.8355e-06	1183.1	332.97	8.6086e-06	8.8861e-06	460.6	201.49	145.67	72.577	1.0115e-05	106.73	335.667	148.627	361.504	101.357	289.347	211.185	100.383	106.649	323.413	224.283	104.229	108.907	110.762	113.695	202.529	111.124	-8191	255	
8647.018	1	1	0	0	0.096862	0.1053	0.10385	0.18455	0.090514	0.0753	0.20874	0.25973	0.26722	0.15626	0.35009	0.24949	0.34614	0.17113	0.11913	0.31596	-2.4813	-3.5458	-3.2896	-3.0583	-3.7812	-3.2396	-3.5167	-3.7646	-3.0104	-3.6333	-3.4375	-3.0062	-3.4917	-3.3083	-3.25	-3.6417	441.021	268.424	309.290	382.983	153.337	394.661	404.228	201.717	305.271	345.976	439.304	373.868	94.641	243.226	315.379	362.951	0.0023232	0.001242	0.00035841	1026	6.6578e-06	1.4655e-05	1187.4	329.93	1.1376e-05	1.0772e-05	456.61	211.85	151.52	76.415	5.1508e-06	114.75	0.00079818	0.00085105	0.00025644	1027.9	8.4115e-06	9.6176e-06	1187.6	332.96	8.6138e-06	9.7513e-06	459.38	201.83	146.16	73.219	9.8492e-06	106.35	335.203	170.330	359.876	101.373	228.072	216.018	100.474	106.805	159.856	213.429	104.719	108.834	110.472	113.912	400.704	111.222	-8191	255	
8647.114	1	1	0	0	0.060452	0.11222	0.1771	0.1512	0.048014	0.11867	0.22404	0.1649	0.18567	0.13848	0.3372	0.36365	0.20683	0.16973	0.15303	0.20417	-2.3396	-3.3937	-3.4313	-3.0833	-3.4688	-3.2146	-3.2875	-3.6813	-2.9646	-3.4167	-3.5583	-3.0625	-3.5375	-3.3792	-3.2146	-3.6979	370.406	120.193	422.221	427.961	211.627	315.355	355.006	321.141	188.080	287.316	277.554	343.134	117.314	420.783	162.054	372.134	0.0024726	0.0021502	0.00050681	1028.7	6.5414e-06	7.8974e-06	1183	331.32	1.4146e-05	8.4912e-06	454.71	211.87	152	76.422	9.0084e-06	114.55	0.00080447	0.00091571	0.00024625	1027.7	8.5843e-06	1.0234e-05	1181.5	332.7	8.8609e-06	1.0349e-05	455.43	200.89	147.48	73.63	9.4866e-06	106	334.510	153.994	243.293	101.128	198.455	282.654	100.543	107.110	205.525	231.521	104.499	108.589	110.724	113.762	232.238	111.171	-8191	255	
8647.210	1	1	0	0	0.085586	0.088255	0.1279	0.17229	0.0369	0.15824	0.20546	0.29239	0.063137	0.12425	0.13392	0.06751	0.16208	0.094633	0.090783	0.37686	-2.6396	-3.4458	-3.5271	-3.1333	-3.5333	-3.4437	-3.3187	-3.7812	-3.1917	-3.2583	-3.6083	-2.9229	-3.5375	-3.5854	-3.0521	-3.9146	432.173	429.098	386.839	97.260	262.109	285.508	374.134	369.168	236.080	398.483	408.416	372.458	422.588	383.915	163.233	377.332	0.0027361	0.00035543	0.00047038	1032.7	1.8379e-05	3.4746e-06	1188.4	332.16	1.4215e-05	5.6112e-06	457.47	212.46	151.57	76.55	4.461e-06	115.08	0.00085303	0.00094304	0.00023486	1027.6	9.1614e-06	1.0281e-05	1178.2	331.89	9.5359e-06	1.0297e-05	453.31	200.98	148.75	73.636	9.1767e-06	106.45	332.188	308.002	198.235	101.169	199.189	377.857	100.465	106.823	199.531	407.428	104.472	108.713	110.722	113.649	223.878	111.226	-8191	255	
8647.331	1	1	0	0	0.11906	0.27795	0.16578	0.28071	0.069034	0.19632	0.39694	0.4258	0.21858	0.1242	0.1528	0.25142	0.07136	0.33209	0.14684	0.11968	-2.7896	-3.1833	-3.5333	-3.0312	-3.5583	-3.4188	-2.9417	-3.6562	-3.3688	-3.1	-3.5229	-3.1875	-3.5271	-3.5187	-2.8312	-3.7438	290.265	326.951	376.119	422.287	279.102	204.166	379.695	396.860	222.913	128.093	110.891	411.590	224.190	358.216	391.377	301.685	0.0027266	0.00087641	6.1365e-05	1030.1	9.3025e-06	5.1612e-06	1180.7	331.56	1.8872e-05	6.5578e-06	458.39	213.3	152.05	76.956	1.1233e-05	116.21	0.00091333	0.00092361	0.00023031	1028.3	9.9498e-06	9.9572e-06	1174.8	331.94	1.0215e-05	9.9261e-06	453.6	202.02	150.71	73.627	9.1995e-06	107.41	322.915	175.551	362.317	101.301	172.518	216.203	100.262	106.924	183.188	358.023	104.426	108.683	110.824	113.456	259.739	111.140	-8191	255	
8647.425	1	1	0	0	0.035123	0.19352	0.17361	0.21592	0.12553	0.12278	0.11387	0.20663	0.28022	0.38999	0.10883	0.24477	0.15852	0.25183	0.22018	0.032777	-2.9729	-3.0667	-3.5667	-3.2521	-3.325	-3.6333	-2.9688	-3.6417	-3.3167	-3.15	-3.8708	-3.1875	-3.3708	-3.6875	-3.0729	-3.6562	425.881	193.257	301.992	159.171	275.976	367.266	372.027	343.787	100.822	292.267	123.360	446.776	124.416	402.416	356.818	111.913	0.0027527	0.00060083	0.00021629	1032.5	2.0191e-05	9.8668e-06	1195.9	333.09	3.7706e-06	6.0236e-06	457.45	212.7	152.03	76.67	2.7234e-06	115.19	0.00097845	0.00090644	0.0002304	1037.3	1.0599e-05	9.6925e-06	1179.9	336.64	1.0676e-05	9.6564e-06	452.96	203.59	151.24	73.042	8.8988e-06	107.32	325.931	329.242	232.808	101.544	152.717	277.089	100.611	106.996	219.628	306.821	104.652	108.629	110.740	113.702	130.094	111.088	-8191	255	
8647.521	1	1	0	0	0.057934	0.12845	0.080164	0.14964	0.15681	0.02439	0.076816	0.08205	0.04374	0.13558	0.32415	0.073018	0.25791	0.2902	0.25617	0.29844	-3.0146	-2.8021	-3.5312	-3.3042	-3.0812	-3.7417	-3.0229	-3.6083	-3.4875	-2.9958	-3.575	-3.3208	-3.2625	-3.6646	-3.0646	-3.6813	279.786	317.537	270.743	374.619	387.044	363.683	331.861	294.107	352.276	216.074	364.378	433.387	427.697	428.952	191.172	391.991	0.0025981	0.0012255	0.00014734	1031.5	1.0481e-05	5.3486e-06	1187.4	334.31	8.0888e-06	1.2927e-05	457.02	211.97	151.22	76.279	3.5613e-06	114.69	0.00096744	0.0008681	0.00022374	1044.7	1.0386e-05	9.2963e-06	1171.5	340.18	1.0226e-05	9.3644e-06	451	204.36	150.15	72.627	8.9812e-06	107.62	335.972	219.705	300.301	101.263	322.464	132.357	100.330	106.870	195.194	385.929	104.604	108.734	110.563	113.501	314.975	111.088	-8191	255	
8647.618	1	1	0	0	0.13294	0.049679	0.23593	0.17225	0.20892	0.037828	0.16361	0.098767	0.23099	0.14532	0.047796	0.22796	0.09913	0.30515	0.074306	0.20061	-2.9958	-2.9833	-3.6875	-3.2021	-3.1167	-3.6854	-3.25	-3.3979	-3.525	-2.9021	-3.5771	-3.3083	-3.0083	-3.9375	-2.9771	-3.4271	397.405	316.779	234.709	371.663	164.764	190.545	291.851	105.302	200.463	203.107	222.120	410.605	374.568	98.170	280.359	329.952	0.0018318	0.00024933	0.00062502	1031.5	9.2956e-06	5.9537e-06	1185.4	334.78	4.3685e-06	9.5375e-06	460.67	212.15	152.18	76.655	9.4632e-06	114.94	0.00093171	0.00084711	0.00022911	1055.6	1.0026e-05	9.1711e-06	1180.3	345.23	9.9794e-06	9.1995e-06	457.15	206.36	149.95	72.895	9.6906e-06	108.62	334.992	340.060	150.681	101.106	334.383	442.534	100.432	106.690	342.569	279.760	104.480	108.849	110.393	113.486	236.991	110.896	-8191	255	
8647.714	1	1	0	0	0.27004	0.24379	0.055587	0.20389	0.10568	0.2307	0.31303	0.27156	0.12195	0.17674	0.15024	0.31929	0.31328	0.24881	0.21074	0.11402	-2.9708	-2.8167	-3.5208	-3.4208	-2.9333	-3.7146	-3.175	-3.4292	-3.5417	-2.8729	-3.5333	-3.55	-3.0604	-3.6417	-3.1562	-3.3021	176.092	376.706	172.217	363.264	405.128	426.824	433.312	407.557	120.282	151.742	432.885	376.879	421.966	90.372	136.164	358.922	0.002571	0.00017683	0.00057658	1038.3	3.6938e-06	7.4103e-06	1202.7	335.43	8.6333e-06	9.7998e-06	462.2	212.83	152.71	77.29	7.9673e-06	114.72	0.00090564	0.00085324	0.00025168	1065.5	9.9087e-06	9.209e-06	1200.1	347.61	9.7199e-06	9.2914e-06	465.37	207.24	150.3	73.285	1.0514e-05	108.66	316.740	386.865	122.632	101.161	348.830	250.875	100.485	106.415	176.206	269.875	104.519	108.492	110.695	113.217	229.937	110.989	-8191	255	
8647.810	1	1	0	0	0.1183	0.083408	0.24978	0.15697	0.2377	0.12183	0.10184	0.10914	0.17595	0.1105	0.26158	0.12715	0.22227	0.31985	0.13943	0.13254	-3.2188	-2.9208	-3.3583	-3.5875	-2.9479	-3.6375	-3.3646	-3.2646	-3.5875	-2.9083	-3.4229	-3.5187	-2.9896	-3.6813	-3.2458	-3.2521	100.179	98.961	253.961	124.690	230.711	285.388	308.867	258.571	137.430	255.182	345.883	364.962	427.342	95.856	171.413	397.498	0.0021908	0.00074584	0.00069933	1034.5	7.4287e-06	1.102e-05	1200.3	334.72	5.3324e-06	6.1764e-06	462.46	212.17	152.44	77.144	8.1918e-06	114.38	0.00089096	0.00085077	0.00027099	1058.5	9.6466e-06	9.1551e-06	1208.8	344.22	9.4293e-06	9.3856e-06	468.26	205.26	149.56	73.201	1.0901e-05	107.64	328.887	231.057	137.078	101.287	238.247	248.445	100.502	106.543	228.336	321.793	104.249	108.461	110.544	113.350	180.939	111.054	-8191	255	
8647.906	1	1	0	0	0.041299	0.27655	0.068518	0.1587	0.16834	0.22195	0.086376	0.11287	0.22952	0.10249	0.34581	0.23419	0.18579	0.31139	0.021776	0.085134	-3.1458	-3.0958	-3.3958	-3.6167	-2.9771	-3.7	-3.25	-3.0771	-3.5812	-2.9313	-3.3417	-3.6646	-2.9333	-3.6771	-3.2917	-3.1479	96.361	293.025	165.841	366.910	120.536	239.417	274.671	103.065	436.483	264.491	415.871	89.798	389.679	435.922	179.499	355.436	0.0022261	0.001574	0.00033214	1027.8	1.7668e-05	1.1954e-05	1194.3	335.5	1.02e-05	4.3782e-06	458.38	211.56	152.71	76.734	2.3773e-06	114.05	0.00086029	0.00087496	0.00027997	1048.1	9.319e-06	9.6497e-06	1208.9	342.4	9.1311e-06	9.8994e-06	468.66	203.28	148.96	73.54	1.0794e-05	106.44	331.459	115.624	334.543	101.227	238.373	205.878	100.214	106.664	266.781	207.724	104.487	108.718	110.301	113.425	244.633	111.017	-8191	255	
8648.002	1	1	0	0	0.074487	0.089987	0.25163	0.12625	0.081221	0.22765	0.26917	0.12213	0.081323	0.050338	0.22466	0.13896	0.09766	0.34018	0.089418	0.21902	-3.2687	-3.0146	-3.1521	-3.4625	-2.9625	-3.5708	-3.5708	-3.0604	-3.5667	-3.2313	-3.3854	-3.6	-3.1792	-3.7625	-3.475	-3.2667	402.046	264.867	340.620	374.134	150.486	225.553	275.371	179.874	411.009	134.413	360.615	108.556	309.046	443.338	113.657	364.220	0.0018341	0.0013002	0.00066892	1029	1.5096e-05	1.3317e-05	1193.3	332.81	1.342e-05	1.178e-05	458.84	212.68	152.61	77.143	6.8294e-06	114.42	0.00083877	0.00093596	0.00027511	1041.6	9.226e-06	1.0418e-05	1202	339.16	9.0615e-06	1.0625e-05	465.15	202.96	148.85	74.063	1.0295e-05	106.5	331.264	170.424	218.737	101.328	153.478	239.251	100.700	106.932	235.846	189.792	104.216	108.686	110.492	113.389	319.953	110.820	-8191	255	
8648.123	1	1	0	0	0.017187	0.095111	0.15373	0.16078	0.0047348	0.18031	0.055461	0.21759	0.14285	0.28354	0.088042	0.31975	0.272	0.25097	0.13752	0.14991	-3.3271	-3.3104	-3.0229	-3.875	-2.9458	-3.35	-3.6813	-3.0854	-3.6063	-3.2812	-3.1458	-3.8063	-3.2146	-3.3833	-3.5417	-3.15	371.163	430.969	393.626	437.325	332.866	420.209	233.206	399.088	198.862	423.816	296.954	404.328	349.878	430.638	304.933	447.573	0.002259	0.0008493	0.00017411	1030	1.187e-05	1.7204e-05	1185.1	334.27	2.4903e-05	2.5885e-06	456.57	212	152.4	76.84	4.3518e-06	114.29	0.00085244	0.00098899	0.00026127	1036.6	9.3267e-06	1.0852e-05	1189.3	337.78	9.4068e-06	1.0988e-05	461.16	201.97	149.59	74.429	9.7712e-06	106.47	332.282	106.261	203.496	101.197	220.978	228.351	100.514	106.706	175.704	232.736	104.487	108.617	110.280	113.340	239.148	110.922	-8191	255	
8648.219	1	1	0	0	0.16569	0.084506	0.13098	0.095562	0.11543	0.12198	0.047084	0.19834	0.19393	0.28134	0.030571	0.11368	0.17906	0.21205	0.12442	0.21342	-3.0333	-3.4271	-2.8688	-3.7958	-3.0292	-3.3583	-3.525	-2.9437	-3.5396	-3.1625	-3.2021	-3.8917	-3.2938	-3.5979	-3.7188	-3.1208	279.517	105.566	259.927	354.747	262.907	365.873	298.166	416.953	430.656	429.586	363.111	418.706	408.685	414.735	404.732	423.986	0.0029928	0.00081039	0.00040687	1032.4	2.1395e-05	7.3218e-06	1186.8	334.06	1.4262e-05	8.5417e-06	456.04	212.56	152.6	76.589	3.5342e-06	114	0.00090056	0.0009927	0.00024869	1033.2	9.9748e-06	1.0775e-05	1179.9	336.01	9.9821e-06	1.058e-05	455.81	201.04	150.57	73.751	9.3291e-06	105.63	325.601	355.191	248.420	101.292	237.501	189.794	100.443	106.860	166.580	440.749	104.636	108.538	110.652	113.715	390.659	111.025	-8191	255	
8648.315	1	1	0	0	0.2139	0.17166	0.21648	0.25835	0.17379	0.073616	0.10989	0.33405	0.048535	0.15882	0.25301	0.15021	0.13475	0.15341	0.096328	0.080709	-3.1854	-3.3708	-2.8396	-3.5729	-3.1542	-3.2083	-3.5646	-3.2229	-3.4583	-3.4396	-2.9646	-3.7083	-3.1188	-3.1958	-3.6688	-3.1354	295.185	172.369	441.828	437.536	330.207	199.169	363.507	386.822	311.470	94.072	358.049	383.376	377.132	443.908	112.225	434.770	0.003182	0.00147	4.8889e-05	1029.6	1.2573e-05	5.7274e-06	1182.2	332.33	1.3816e-05	7.9448e-06	456.17	211.01	151.82	76.418	6.0104e-06	113.92	0.00095227	0.00093571	0.00023931	1028.2	1.047e-05	1.0207e-05	1171.9	335.57	1.0633e-05	1.0024e-05	454.32	201.09	151.53	73.3	9.1224e-06	105.93	325.762	294.892	120.379	101.179	200.971	237.930	100.301	106.743	196.191	256.605	104.575	108.516	110.627	113.299	306.480	110.871	-8191	255	
8648.411	1	1	0	0	0.12004	0.24364	0.081323	0.26918	0.13586	0.026581	0.10711	0.10208	0.14819	0.061601	0.12559	0.15645	0.53829	0.20085	0.24033	0.2011	-2.9771	-3.625	-2.8854	-3.5062	-3.3021	-2.9646	-3.825	-3.1937	-3.2062	-3.5687	-2.8479	-3.4625	-3.3667	-3.0833	-3.575	-3.2479	414.067	312.397	319.375	393.639	178.171	125.355	328.359	360.988	385.632	280.665	110.941	383.334	394.328	429.569	128.325	369.924	0.00258	0.00027362	0.00034633	1029.6	9.9438e-06	6.9e-06	1181.8	332.65	6.0042e-06	1.0554e-05	455.82	211.89	151.74	76.585	7.44e-06	114.85	0.00099535	0.00089633	0.00023523	1035.3	1.0725e-05	9.7583e-06	1169.5	337.76	1.0847e-05	9.6821e-06	453.28	203.39	151.62	73.442	9.0795e-06	107.48	339.195	278.004	174.506	101.274	127.538	301.561	100.501	106.575	266.414	328.943	104.205	108.476	110.436	113.313	284.991	110.868	-8191	255	
8648.506	1	1	0	0	0.032096	0.21858	0.1285	0.17814	0.2239	0.040351	0.15404	0.36573	0.12692	0.10891	0.34972	0.023468	0.19652	0.24135	0.16687	0.16545	-2.8375	-3.7938	-2.9146	-3.6937	-3.4167	-3.0542	-3.7792	-3.3271	-3.1917	-3.6833	-3.0167	-3.5292	-3.5146	-3.3	-3.5583	-3.4625	349.093	135.996	148.352	185.248	118.827	432.328	109.676	430.781	418.321	215.562	402.201	373.344	424.388	436.521	270.954	348.375	0.0025932	0.00063577	0.00050307	1035.5	6.0602e-06	1.5151e-06	1186.4	334.12	1.4374e-07	2.6379e-06	457.89	212.18	152.6	77.087	1.4133e-05	115.08	0.00099092	0.00087073	0.00023553	1049.3	1.0607e-05	9.6541e-06	1172	343.52	1.0517e-05	9.5094e-06	455.37	206.09	151.31	73.729	9.2409e-06	108.9	331.962	293.914	146.180	101.190	322.337	299.712	100.621	106.577	307.783	309.687	104.254	108.573	110.390	113.341	236.966	110.819	-8191	255	
8648.603	1	1	0	0	0.27964	0.064223	0.085471	0.08932	0.24128	0.097665	0.18549	0.10115	0.096592	0.087215	0.083633	0.13204	0.17669	0.093942	0.28521	0.19718	-2.5458	-3.6625	-3.1167	-3.4333	-3.5667	-2.9146	-3.7313	-3.4292	-2.9958	-3.6167	-3.1271	-3.4	-3.7083	-2.9521	-3.6937	-3.475	303.797	332.895	219.003	338.215	290.611	338.353	104.224	426.421	423.427	383.327	261.678	356.463	384.516	134.355	137.215	268.565	0.0018655	0.00061787	0.00038225	1035.1	9.2076e-06	2.8573e-06	1185.9	332.4	9.7264e-06	3.1817e-06	456.88	212.6	151.31	77.629	1.1065e-05	115.7	0.00095681	0.00085847	0.00024237	1058.4	1.0154e-05	9.5078e-06	1180.3	345.71	1.0067e-05	9.2718e-06	458.03	207.17	149.76	73.736	9.8376e-06	109.27	337.115	283.319	147.837	101.333	344.041	382.638	100.392	106.834	326.235	163.370	104.472	108.626	110.479	113.316	167.553	111.009	-8191	255	
8648.722	1	1	0	0	0.3158	0.063005	0.14582	0.1322	0.15372	0.2155	0.28377	0.072315	0.09071	0.30633	0.13804	0.27851	0.12035	0.47913	0.23689	0.33705	-2.5771	-3.6917	-2.9646	-3.3375	-3.6354	-3.0375	-3.6042	-3.4958	-2.9854	-3.6583	-3.1063	-3.2208	-3.7479	-3.0958	-3.4042	-3.4792	122.492	323.085	203.728	258.071	185.269	186.839	376.459	363.895	234.582	395.568	97.028	419.255	436.220	414.388	356.044	373.567	0.0020769	0.0004413	0.00017425	1030.5	1.4236e-05	1.1967e-05	1195	332.88	5.6247e-06	5.1205e-06	459.51	211.13	152.09	77.531	7.1511e-06	115.56	0.00091954	0.00084572	0.0002622	1059.1	9.7929e-06	9.3893e-06	1193.9	344.98	9.8824e-06	9.222e-06	465.06	205.69	149.3	73.765	1.0695e-05	108.68	334.601	143.789	118.153	101.307	219.799	268.687	100.049	106.768	174.273	246.035	104.464	108.362	110.285	113.379	246.104	110.947	-8191	255	
#DATA ENDS
