BOXY.EXE: ISS Imagent and Oximeter Data Acquisition Program Version 0.80
Ascii Record File

#ACQ INFORMATION
2  Detector Channels 
16  External MUX Channels 
1  Auxiliary Channels 
5000  Waveform (CCF) Frequency (Hz)
1  Waveforms Skipped 
30  Waveforms Averaged 
1  Cycles Averaged 
16  Acquisitions per Waveform 
10.0806  Updata Rate (Hz) 

#FILE INFORMATION
TRUE -- External MUX Channel results are PARSED.
FALSE -- AC DC and Phase are NOT grouped.
TRUE -- Companion Program Settings File CREATED.
FALSE -- AC data not excluded
FALSE -- DC data not excluded
FALSE -- Phase data not excluded
FALSE -- Auxillary Chn. data not excluded
Tab delimiters

#CALIBRATION STATE
TRUE -- Waveform Calibration Values APPLIED.


#AUX CALIBRATION VALUES
Val Type	aux-1	

Term	1.0000e+00	
Factor	0.0000e+00	


#WF CALIBRATION VALUES
A = Detector Channel
Val Type	A-AC1	A-AC2	A-AC3	A-AC4	A-AC5	A-AC6	A-AC7	A-AC8	A-AC9	A-AC10	A-AC11	A-AC12	A-AC13	A-AC14	A-AC15	A-AC16	A-DC1	A-DC2	A-DC3	A-DC4	A-DC5	A-DC6	A-DC7	A-DC8	A-DC9	A-DC10	A-DC11	A-DC12	A-DC13	A-DC14	A-DC15	A-DC16	A-Ph1	A-Ph2	A-Ph3	A-Ph4	A-Ph5	A-Ph6	A-Ph7	A-Ph8	A-Ph9	A-Ph10	A-Ph11	A-Ph12	A-Ph13	A-Ph14	A-Ph15	A-Ph16	

Term	0.00000e+00	0.00000e+00	0.00000e+00	0.00000e+00	0.00000e+00	0.00000e+00	0.00000e+00	0.00000e+00	0.00000e+00	0.00000e+00	0.00000e+00	0.00000e+00	0.00000e+00	0.00000e+00	0.00000e+00	0.00000e+00	0.00000e+00	0.00000e+00	0.00000e+00	0.00000e+00	0.00000e+00	0.00000e+00	0.00000e+00	0.00000e+00	0.00000e+00	0.00000e+00	0.00000e+00	0.00000e+00	0.00000e+00	0.00000e+00	0.00000e+00	0.00000e+00	0.00000e+00	0.00000e+00	0.00000e+00	0.00000e+00	0.00000e+00	0.00000e+00	0.00000e+00	0.00000e+00	0.00000e+00	0.00000e+00	0.00000e+00	0.00000e+00	0.00000e+00	0.00000e+00	0.00000e+00	0.00000e+00	
Factor	1.00000e+00	1.00000e+00	1.00000e+00	1.00000e+00	1.00000e+00	1.00000e+00	1.00000e+00	1.00000e+00	1.00000e+00	1.00000e+00	1.00000e+00	1.00000e+00	1.00000e+00	1.00000e+00	1.00000e+00	1.00000e+00	1.00000e+00	1.00000e+00	1.00000e+00	1.00000e+00	1.00000e+00	1.00000e+00	1.00000e+00	1.00000e+00	1.00000e+00	1.00000e+00	1.00000e+00	1.00000e+00	1.00000e+00	1.00000e+00	1.00000e+00	1.00000e+00	X	X	X	X	X	X	X	X	X	X	X	X	X	X	X	X	

B = Detector Channel
Val Type	B-AC1	B-AC2	B-AC3	B-AC4	B-AC5	B-AC6	B-AC7	B-AC8	B-AC9	B-AC10	B-AC11	B-AC12	B-AC13	B-AC14	B-AC15	B-AC16	B-DC1	B-DC2	B-DC3	B-DC4	B-DC5	B-DC6	B-DC7	B-DC8	B-DC9	B-DC10	B-DC11	B-DC12	B-DC13	B-DC14	B-DC15	B-DC16	B-Ph1	B-Ph2	B-Ph3	B-Ph4	B-Ph5	B-Ph6	B-Ph7	B-Ph8	B-Ph9	B-Ph10	B-Ph11	B-Ph12	B-Ph13	B-Ph14	B-Ph15	B-Ph16	

Term	0.00000e+00	0.00000e+00	0.00000e+00	0.00000e+00	0.00000e+00	0.00000e+00	0.00000e+00	0.00000e+00	0.00000e+00	0.00000e+00	0.00000e+00	0.00000e+00	0.00000e+00	0.00000e+00	0.00000e+00	0.00000e+00	0.00000e+00	0.00000e+00	0.00000e+00	0.00000e+00	0.00000e+00	0.00000e+00	0.00000e+00	0.00000e+00	0.00000e+00	0.00000e+00	0.00000e+00	0.00000e+00	0.00000e+00	0.00000e+00	0.00000e+00	0.00000e+00	-1.84242e+02	-1.31288e+02	-1.21626e+02	-1.81577e+02	-7.85704e+01	-6.40695e+01	-1.57418e+02	-1.62015e+02	-9.27530e+01	-5.43537e+01	-1.71140e+02	-1.72811e+02	-1.83937e+02	-1.76769e+02	-8.70099e+01	-1.49549e+02	
Factor	3.59974e-05	1.57676e-04	5.33321e-05	1.56162e-01	1.60835e-06	2.14125e-06	1.73087e-01	5.61743e-02	1.99634e-06	1.80400e-06	9.22686e-02	3.72187e-02	3.89265e-02	9.91070e-03	1.84539e-06	1.43689e-02	3.91198e-06	4.30745e-06	1.20086e-06	7.79773e-02	4.62936e-08	4.73652e-08	8.15129e-02	2.80165e-02	4.65171e-08	4.73618e-08	4.47915e-02	1.80050e-02	1.94850e-02	4.98058e-03	4.68586e-08	6.99640e-03	X	X	X	X	X	X	X	X	X	X	X	X	X	X	X	X	



#DISTANCE SETTINGS
A = Detector Channel
A-1	A-2	A-3	A-4	A-5	A-6	A-7	A-8	A-9	A-10	A-11	A-12	A-13	A-14	A-15	A-16	

2.5000e+00	3.0000e+00	2.5000e+00	3.0000e+00	2.0000e+00	3.0000e+00	1.5000e+00	3.0000e+00	3.0000e+00	3.0000e+00	3.0000e+00	3.0000e+00	3.0000e+00	3.0000e+00	1.5000e+00	3.0000e+00	

B = Detector Channel
B-1	B-2	B-3	B-4	B-5	B-6	B-7	B-8	B-9	B-10	B-11	B-12	B-13	B-14	B-15	B-16	

1.0000e+01	1.0000e+01	1.0000e+01	1.4400e+00	1.0000e+01	1.0000e+01	1.5100e+00	1.9400e+00	1.0000e+01	1.0000e+01	1.9900e+00	2.4900e+00	2.4100e+00	2.9000e+00	1.0000e+01	2.9800e+00	




#DATA BEGINS
time	group	step	mark	flag	A-AC1	A-AC2	A-AC3	A-AC4	A-AC5	A-AC6	A-AC7	A-AC8	A-AC9	A-AC10	A-AC11	A-AC12	A-AC13	A-AC14	A-AC15	A-AC16	A-DC1	A-DC2	A-DC3	A-DC4	A-DC5	A-DC6	A-DC7	A-DC8	A-DC9	A-DC10	A-DC11	A-DC12	A-DC13	A-DC14	A-DC15	A-DC16	A-Ph1	A-Ph2	A-Ph3	A-Ph4	A-Ph5	A-Ph6	A-Ph7	A-Ph8	A-Ph9	A-Ph10	A-Ph11	A-Ph12	A-Ph13	A-Ph14	A-Ph15	A-Ph16	B-AC1	B-AC2	B-AC3	B-AC4	B-AC5	B-AC6	B-AC7	B-AC8	B-AC9	B-AC10	B-AC11	B-AC12	B-AC13	B-AC14	B-AC15	B-AC16	B-DC1	B-DC2	B-DC3	B-DC4	B-DC5	B-DC6	B-DC7	B-DC8	B-DC9	B-DC10	B-DC11	B-DC12	B-DC13	B-DC14	B-DC15	B-DC16	B-Ph1	B-Ph2	B-Ph3	B-Ph4	B-Ph5	B-Ph6	B-Ph7	B-Ph8	B-Ph9	B-Ph10	B-Ph11	B-Ph12	B-Ph13	B-Ph14	B-Ph15	B-Ph16	aux-1	digaux	

12221.237	1	1	0	768	0.17007	0.14603	0.07906	0.35712	0.11245	0.23878	0.28638	0.056118	0.18386	0.15643	0.12924	0.097544	0.20361	0.0218	0.056338	0.36336	-4.0479	-4.5729	-4.0437	-4.6542	-4.2208	-4.3562	-4.8729	-4.3292	-4.3729	-4.6354	-4.2625	-4.7292	-4.3771	-4.1667	-4.7646	-4.4292	241.131	514.991	387.780	454.046	384.932	222.163	437.064	348.260	167.645	260.535	193.462	486.426	510.419	498.527	453.626	428.940	0.0021207	0.0010917	0.00027692	1039	9.7292e-06	6.8817e-06	1020.6	433.75	5.6718e-06	2.6036e-06	439.81	196.57	180.11	74.44	1.8584e-06	111.75	0.00082912	0.00072384	0.00020263	1010.2	7.95e-06	7.9729e-06	996.3	423.01	8.0251e-06	8.0003e-06	430.44	190.81	175.16	73.156	8.0768e-06	109.38	496.557	262.750	262.705	179.118	273.344	317.011	177.796	183.165	269.553	385.845	181.330	184.685	186.526	191.194	260.483	188.886	-8191	255	
12221.333	1	1	0	0	0.1214	0.088747	0.051844	0.19456	0.11944	0.2368	0.17533	0.15481	0.14619	0.093959	0.071604	0.16931	0.057228	0.15069	0.11842	0.2934	-3.9771	-4.5979	-4.1188	-4.7542	-4.4896	-4.1521	-4.8417	-4.2958	-4.3438	-4.6625	-4.3833	-4.5542	-4.6042	-4.2063	-4.6312	-4.4542	410.363	258.904	493.263	521.497	524.399	270.105	451.061	414.749	423.352	251.313	448.394	165.986	449.865	169.540	413.373	476.707	0.0021487	0.00074353	0.00038996	1039.1	6.157e-06	1.0608e-05	1015.2	435.41	4.8995e-06	6.3878e-06	438.08	195.09	180.53	74.974	8.1622e-06	111.78	0.00084007	0.00074336	0.00020612	1012.2	8.0523e-06	8.0885e-06	995.73	424.48	8.023e-06	8.0812e-06	429.52	190.38	175.46	73.503	8.0898e-06	109.39	499.702	240.489	254.506	178.932	281.768	332.490	177.690	183.243	310.949	312.457	181.643	184.890	186.552	191.068	285.536	188.710	-8191	255	
12221.429	1	1	0	0	0.1381	0.13896	0.26517	0.23737	0.10413	0.289	0.052941	0.18499	0.29675	0.22081	0.20633	0.13835	0.27534	0.18958	0.12906	0.13058	-3.8729	-4.7229	-4.2292	-4.5396	-4.4729	-4.2229	-4.8917	-4.5604	-4.1375	-4.8146	-4.1562	-4.5813	-4.6167	-4.2688	-4.6229	-4.4062	399.402	375.762	369.304	500.709	292.420	319.246	434.014	440.493	452.358	229.972	191.331	237.625	186.578	177.393	256.884	231.857	0.0021216	0.0006568	0.00024113	1039.3	8.1852e-06	6.4687e-06	1011.8	434.34	8.9794e-06	9.4696e-06	435.63	192.03	179.73	74.416	2.816e-06	110.43	0.00081215	0.00073143	0.00019786	1011.6	7.912e-06	7.8611e-06	987.75	423.66	8.0157e-06	7.9535e-06	425.99	188.03	174.78	73.119	8.0519e-06	108.27	499.484	259.431	282.988	178.990	270.513	284.550	177.733	183.214	296.405	337.172	181.549	184.993	186.337	191.270	219.739	188.805	-8191	255	
12221.525	1	1	0	0	0.13864	0.16538	0.072669	0.34288	0.20965	0.10437	0.022241	0.10705	0.18902	0.13082	0.20436	0.067252	0.25015	0.20126	0.10677	0.21495	-3.8146	-4.7146	-4.2917	-4.4313	-4.6542	-4.1021	-4.7896	-4.6583	-4.1312	-4.5583	-4.4271	-4.4646	-4.6625	-4.2271	-4.6083	-4.7021	421.833	461.050	357.411	188.488	197.632	324.116	361.897	493.826	385.548	356.476	434.990	287.385	484.624	505.376	347.013	499.813	0.0020635	0.00026899	0.0001446	1036	8.3549e-06	2.9496e-06	1012.2	436.92	4.7534e-06	4.3661e-06	437.37	193.93	180.27	74.57	1.0461e-05	110.45	0.00080773	0.0007246	0.0002009	1009.9	7.7343e-06	7.7469e-06	989.22	425.64	7.6993e-06	7.8421e-06	427.55	189.1	175.61	73.272	7.8773e-06	107.88	496.283	246.335	291.483	178.809	296.783	314.076	177.715	183.240	274.248	282.490	181.483	184.495	186.451	190.917	251.018	188.595	-8191	255	
12221.620	1	1	0	0	0.10909	0.12764	0.29367	0.060926	0.10482	0.14805	0.11948	0.47139	0.19944	0.11312	0.28371	0.12827	0.19224	0.13341	0.23511	0.23793	-3.7938	-4.7312	-4.1125	-4.5708	-4.7125	-4.1438	-4.7146	-4.6	-4.0292	-4.7833	-4.4417	-4.3917	-4.7896	-4.2979	-4.5583	-4.5167	214.900	312.396	505.093	272.847	463.313	495.575	427.640	493.107	299.757	174.277	482.466	233.191	322.657	470.306	187.388	484.122	0.0020091	0.00097236	0.00016733	1045	3.3521e-06	7.0928e-06	1021.1	439.17	1.6611e-05	4.1034e-06	436.75	194.24	182.04	74.708	1.1329e-05	110.43	0.00080796	0.00071589	0.00020183	1015.4	7.7938e-06	7.7378e-06	994.02	427.09	7.7707e-06	7.796e-06	428.86	189.29	176.06	73.448	7.9619e-06	108.17	496.092	226.468	198.622	178.882	319.153	326.332	177.542	183.385	283.439	371.369	181.447	184.661	186.206	191.165	286.627	188.661	-8191	255	
12221.718	1	1	0	0	0.1403	0.096524	0.050119	0.14301	0.18293	0.10509	0.18214	0.40085	0.22809	0.099503	0.13183	0.12456	0.045577	0.24216	0.083229	0.20946	-3.6583	-4.5875	-4.4354	-4.3354	-4.5667	-4.2021	-4.5563	-5.0437	-4.0875	-4.7542	-4.5167	-4.2896	-4.8021	-4.4313	-4.2542	-4.7667	466.421	251.618	331.684	429.415	275.220	494.924	453.829	475.426	401.639	329.401	394.509	509.310	229.217	467.547	507.354	464.196	0.002078	0.00098414	0.00018047	1045.4	9.4631e-06	8.4638e-06	1022.1	439.24	1.086e-05	8.4561e-06	436.77	193.02	179.52	74.475	9.0899e-06	111.13	0.00078646	0.00071702	0.00019549	1016.8	7.8307e-06	7.9802e-06	995.96	426.23	7.9373e-06	7.974e-06	427.86	188.55	175.08	73.093	8.0547e-06	108.37	496.560	264.179	267.283	178.658	318.869	304.757	177.378	183.190	284.453	351.362	181.157	184.920	186.668	191.206	296.832	188.755	-8191	255	
12221.836	1	1	0	0	0.18767	0.05275	0.18507	0.1827	0.02391	0.13372	0.12476	0.25605	0.076092	0.10877	0.031058	0.22472	0.046307	0.13302	0.14517	0.25409	-3.625	-4.6062	-4.5375	-4.2375	-4.6875	-4.3542	-4.5542	-4.5167	-4.2333	-4.6104	-4.6125	-4.1562	-4.7479	-4.3604	-4.4479	-4.8167	323.850	238.009	286.916	516.245	413.631	351.294	502.467	496.851	490.811	259.801	437.582	525.107	214.054	502.820	309.154	452.044	0.0019673	0.0010487	0.00018067	1047.4	2.443e-06	1.0435e-05	1024.4	443.13	7.6009e-06	5.1058e-06	440.91	195.74	181.02	74.842	6.5135e-06	110.65	0.00080155	0.00072161	0.00020056	1019.3	7.7293e-06	7.8223e-06	1000.8	430.64	7.7413e-06	7.974e-06	430.87	189.94	176.44	73.311	7.9368e-06	108.35	497.504	247.594	207.716	178.945	462.517	334.962	177.672	183.372	245.434	305.703	181.303	184.892	186.359	191.059	284.904	188.595	-8191	255	
12221.933	1	1	0	0	0.051392	0.091833	0.12922	0.15341	0.11953	0.073654	0.16143	0.12866	0.146	0.042658	0.16709	0.12429	0.015263	0.090507	0.11049	0.27136	-3.7979	-4.5875	-4.5333	-4.1979	-4.6521	-4.1792	-4.4625	-4.9333	-4.2083	-4.6292	-4.6979	-4.2042	-4.8208	-4.4062	-4.0396	-4.8333	381.216	377.739	403.532	462.597	263.300	184.396	324.117	445.351	212.829	486.268	435.339	431.133	346.525	439.180	484.631	473.807	0.0020257	0.00070389	0.00032709	1048.8	5.6139e-06	1.2667e-05	1020.7	438.11	9.5276e-06	3.9232e-06	434.59	193.86	180.48	74.247	6.043e-06	109.9	0.00080915	0.00074144	0.00020262	1019.2	7.9713e-06	7.9985e-06	992.08	427.25	7.9973e-06	8.1151e-06	425.63	188.5	175.26	73.061	8.0306e-06	107.42	502.278	231.480	251.599	178.988	288.692	346.283	177.622	183.144	240.088	288.848	181.174	184.970	186.421	190.819	265.203	188.553	-8191	255	
12222.029	1	1	0	0	0.1797	0.17747	0.035221	0.20388	0.21608	0.07528	0.12111	0.13325	0.16424	0.16066	0.062365	0.026071	0.18111	0.20577	0.097613	0.16437	-3.7604	-4.4958	-4.65	-4.1813	-4.7354	-4.3333	-4.4625	-4.8833	-4.1062	-4.5062	-4.9021	-4.2354	-4.7792	-4.7729	-4.3729	-4.8688	456.328	214.817	362.750	518.101	350.603	248.483	404.636	456.440	203.077	403.834	441.280	172.278	182.638	500.119	442.553	453.290	0.0021404	0.00075132	0.00016733	1041.2	9.4009e-06	1.05e-05	1010	436.68	3.5027e-06	5.5334e-06	431.14	190.18	178.15	73.678	5.4032e-06	108.48	0.00081178	0.00073327	0.0002048	1014.7	8.0524e-06	8.066e-06	984.95	425.01	8.2502e-06	8.2767e-06	420.72	185.64	173.22	72.358	8.3123e-06	106.49	498.963	254.407	296.262	179.013	291.043	330.909	177.388	183.172	257.601	307.160	181.281	184.501	186.671	191.073	260.154	188.917	-8191	255	
12222.125	1	1	0	0	0.084547	0.20524	0.14952	0.32124	0.18336	0.074987	0.15914	0.19136	0.047089	0.25137	0.25548	0.26114	0.14399	0.32645	0.064337	0.13028	-3.95	-4.4062	-4.7646	-4.0979	-4.6375	-4.4021	-4.2646	-4.9187	-4.1458	-4.2937	-4.8979	-4.1813	-4.8104	-4.6271	-4.1042	-4.9	282.677	208.569	464.937	490.200	296.624	465.524	414.878	472.841	207.774	191.195	438.749	489.636	467.708	511.264	504.298	446.123	0.0019951	0.00080118	0.00014121	1034.3	8.0849e-06	1.1745e-05	1008.7	435.26	1.1464e-05	7.944e-06	429.33	190.11	176.85	72.943	8.6664e-06	108.62	0.00084025	0.00075282	0.00020743	1010.1	8.2632e-06	8.2468e-06	985.68	422.87	8.3534e-06	8.4342e-06	420.86	185.21	172.71	71.777	8.2855e-06	106.17	497.287	247.017	243.891	179.001	260.976	344.364	177.617	183.334	268.398	321.274	181.591	184.533	186.435	191.151	282.349	188.764	-8191	255	
12222.221	1	1	0	0	0.21039	0.032058	0.29686	0.024019	0.047071	0.080027	0.19765	0.2527	0.27705	0.17705	0.20914	0.23365	0.19681	0.21456	0.35477	0.10578	-3.9125	-4.15	-4.5479	-4.3125	-4.4688	-4.5813	-4.1937	-4.8063	-4.4021	-4.2875	-4.8521	-4.4333	-4.6729	-4.5958	-4.0021	-4.8938	433.653	491.980	341.032	323.557	221.497	215.288	414.029	515.908	343.623	244.450	438.293	427.593	180.658	505.852	348.776	503.916	0.0020218	0.00061933	0.00023387	1033.4	6.2689e-06	5.7994e-06	1018.9	433.73	1.4861e-05	8.5045e-06	434.33	193.93	179.75	74.289	8.4673e-07	110.58	0.00084289	0.00076322	0.0002109	1008.8	8.1182e-06	8.1208e-06	989.72	423.33	8.1539e-06	8.0419e-06	426.3	188.69	174.66	73.037	7.898e-06	108.38	498.347	250.629	279.007	178.877	287.323	285.676	177.629	183.104	283.436	339.086	181.232	184.489	186.476	191.222	478.560	188.837	-8191	255	
12222.317	1	1	0	0	0.26881	0.30177	0.17255	0.18092	0.11068	0.054777	0.089607	0.32227	0.12235	0.21342	0.10198	0.13531	0.27155	0.13015	0.046515	0.04862	-3.9604	-4.1188	-4.7604	-4.2	-4.4458	-4.675	-4.2812	-4.7438	-4.3396	-4.0896	-5.0083	-4.3104	-4.2604	-4.9146	-4.1583	-4.6604	422.635	170.089	210.170	378.049	316.548	240.576	459.022	401.641	340.796	328.986	447.747	178.011	440.321	519.080	392.253	255.811	0.0020383	0.00071954	0.00025877	1040.5	1.1288e-05	1.0419e-05	1029.9	440.43	1.4896e-05	9.2407e-06	440.57	196.31	182.24	75.483	1.019e-05	111.76	0.00081335	0.00071709	0.00019907	1016.5	7.8004e-06	7.7749e-06	1000.6	428.57	7.8242e-06	7.8627e-06	431.64	191.14	177	74.027	7.7976e-06	109.75	495.035	227.207	253.149	179.029	290.923	307.256	177.804	183.169	282.385	340.562	181.263	184.722	186.312	191.035	308.103	188.594	-8191	255	
12222.436	1	1	0	0	0.096354	0.14432	0.23472	0.2587	0.1293	0.082841	0.019186	0.10952	0.17514	0.16589	0.22961	0.094153	0.15883	0.23519	0.082855	0.15301	-4.2167	-4.0958	-4.6917	-4.3396	-4.4083	-4.7458	-4.4313	-4.4646	-4.4583	-4.15	-4.7438	-4.35	-4.3146	-4.9083	-4.2188	-4.7688	310.199	204.022	171.955	438.062	182.226	375.443	452.592	433.902	484.675	507.374	178.215	523.856	503.535	196.797	476.807	471.565	0.0021693	0.00038084	0.00045499	1044.4	1.0079e-05	1.2194e-05	1021.9	439.62	7.9674e-06	6.8821e-06	439.96	195.18	180.86	75.048	7.1193e-06	111.3	0.00079907	0.00070225	0.00019896	1019.8	7.7086e-06	7.7351e-06	999.53	429.17	7.7392e-06	7.7009e-06	428.98	189.53	175.93	73.781	7.9657e-06	108.95	497.789	214.699	245.899	178.952	307.709	327.116	177.726	183.283	261.460	314.860	181.443	184.579	186.495	191.011	270.714	188.592	-8191	255	
12222.532	1	1	0	0	0.2211	0.22036	0.14416	0.079186	0.15116	0.098765	0.13731	0.11289	0.058261	0.063395	0.34913	0.10612	0.23059	0.28753	0.10361	0.044693	-4.1417	-3.8563	-4.6687	-4.5	-4.2417	-4.6125	-4.2833	-4.5458	-4.5479	-4.1229	-4.8271	-4.5104	-4.3083	-4.9208	-4.1417	-4.625	407.828	267.635	272.613	473.955	470.352	173.669	457.353	206.366	427.570	492.078	491.571	424.325	413.978	483.431	409.872	335.522	0.001881	0.00073776	0.00032119	1047.4	4.9431e-06	1.1988e-05	1020.3	439.63	1.2661e-05	7.499e-06	439.19	195.45	181.96	75.2	1.3338e-05	111.45	0.00080724	0.00071741	0.00020169	1020.9	7.7875e-06	7.8621e-06	996.16	428.61	7.8239e-06	7.6642e-06	429.19	190.1	176.52	74.055	7.6802e-06	109.33	500.789	213.200	246.953	178.977	262.056	314.414	177.645	183.334	255.048	351.134	181.289	184.568	186.529	191.121	297.831	188.942	-8191	255	
12222.628	1	1	0	0	0.035968	0.0954	0.19347	0.034346	0.19903	0.043076	0.037737	0.18102	0.083379	0.19689	0.087323	0.40117	0.33785	0.20811	0.057934	0.14024	-4.3958	-4.2583	-4.7	-4.6021	-4.1188	-4.7438	-4.3417	-4.4229	-4.6417	-3.9896	-4.65	-4.6542	-4.3625	-4.7167	-4.2604	-4.4313	358.011	207.679	370.071	190.127	509.818	433.939	366.245	475.451	396.612	403.661	519.985	454.126	173.306	168.909	190.390	519.436	0.0022082	0.00093127	0.00024205	1051.6	4.5434e-06	1.0489e-05	1024.6	440.68	7.2493e-06	9.5806e-06	439.72	196.16	182.79	75.566	9.4254e-06	112.28	0.00079095	0.00069186	0.00019788	1021.7	7.6316e-06	7.6968e-06	999.21	429.43	7.7797e-06	7.7523e-06	431.12	190.83	177.11	74.244	7.7939e-06	109.88	498.317	214.373	301.316	178.905	302.856	277.708	177.759	183.212	240.981	308.338	181.195	184.728	186.567	190.946	269.581	188.595	-8191	255	
12222.724	1	1	0	0	0.30983	0.1577	0.18261	0.15218	0.069858	0.16346	0.27287	0.075662	0.095644	0.37101	0.14738	0.14813	0.23733	0.22511	0.088235	0.070301	-4.3187	-4.1917	-4.625	-4.5125	-4.125	-4.6917	-4.3708	-4.425	-4.6875	-4.1	-4.5021	-4.6479	-4.2396	-4.8125	-4.2583	-4.3812	452.234	508.825	393.479	507.418	199.185	188.598	197.639	519.899	472.683	415.127	252.599	447.963	213.019	169.342	440.694	353.359	0.0020268	0.00079611	0.00018988	1049.8	7.9029e-06	7.3175e-06	1028.6	442.87	1.4609e-05	1.2402e-05	442.47	196.79	182.16	75.315	5.4447e-06	112.34	0.00078604	0.00069078	0.00019597	1022.6	7.485e-06	7.587e-06	1003.8	430.86	7.6723e-06	7.6965e-06	433.51	191.29	177.01	73.896	7.7484e-06	109.84	496.875	268.269	249.186	178.943	293.682	310.249	177.780	183.175	262.018	332.084	181.065	184.441	186.649	190.999	266.931	188.875	-8191	255	
12222.798	1	1	0	0	0.14921	0.087998	0.071075	0.11098	0.053892	0.18628	0.22521	0.20083	0.28881	0.14953	0.080966	0.26343	0.19155	0.20763	0.17672	0.30845	-4.4479	-4.1	-4.3979	-4.6104	-3.9792	-4.3979	-4.5146	-4.275	-4.6146	-4.1083	-4.3354	-4.6417	-3.9896	-4.7083	-4.3667	-4.3125	218.676	516.433	486.046	440.514	225.106	404.981	456.871	463.558	337.997	216.509	501.863	304.498	491.725	464.163	352.414	449.126	0.0020007	0.0006149	0.00025157	1049.3	8.2595e-06	7.2484e-06	1033	442.21	7.0643e-06	8.1632e-06	446.96	197.94	183.19	76.009	1.0479e-05	113.91	0.00080209	0.00071696	0.00019787	1020.7	7.6292e-06	7.7647e-06	1005.6	431.47	7.7152e-06	7.7174e-06	435.96	193.4	177.96	74.403	7.6994e-06	110.92	495.145	185.715	202.011	179.059	293.693	347.038	177.633	183.066	241.627	302.728	181.351	184.508	186.582	190.884	306.576	188.849	-8191	255	
12222.917	1	1	0	0	0.26432	0.08768	0.047261	0.2409	0.06259	0.032355	0.16566	0.32376	0.19302	0.1912	0.28811	0.14973	0.15682	0.16487	0.092412	0.094232	-4.3708	-4.225	-4.1833	-4.8083	-4.0333	-4.4854	-4.4604	-4.175	-4.5563	-4.1104	-4.3271	-4.7125	-4.2229	-4.7396	-4.4708	-4.1521	168.689	388.822	500.973	176.616	400.217	338.116	481.131	464.721	381.557	263.620	471.133	435.583	493.416	499.630	513.931	188.966	0.002109	0.00070938	0.00029287	1050.2	9.4751e-06	1.0154e-05	1033	442.35	5.5137e-06	4.0317e-06	443.72	198.09	184.22	75.965	1.4134e-05	112.69	0.00080164	0.00068785	0.00019545	1022.1	7.6315e-06	7.8017e-06	1005.2	430.94	7.6994e-06	7.7499e-06	434.48	192.51	178.57	74.452	7.5848e-06	110.39	499.435	222.674	237.823	179.108	259.589	294.637	177.801	183.335	278.424	280.050	181.514	184.530	186.512	190.952	287.933	188.648	-8191	255	
12223.013	1	1	0	0	0.072061	0.12294	0.039662	0.12855	0.056165	0.12093	0.21929	0.39777	0.063877	0.085607	0.039612	0.22149	0.12001	0.068085	0.072482	0.18047	-4.5792	-4.4271	-4.3438	-4.8125	-4.1458	-4.3604	-4.7708	-4.0979	-4.7708	-4.4333	-4.3604	-4.7417	-4.1687	-4.5771	-4.6208	-4.2875	460.363	212.015	468.434	379.278	344.182	454.325	480.758	421.794	239.683	453.996	473.794	511.160	444.866	210.001	184.249	396.155	0.0019442	0.00066965	0.00031919	1050.5	5.6827e-06	4.0354e-06	1026.3	445.99	1.0209e-05	4.846e-06	445.16	196.98	183.22	75.517	1.3567e-05	112.46	0.00078975	0.00068627	0.00019094	1024.1	7.3156e-06	7.5512e-06	1000.6	433.25	7.5488e-06	7.4503e-06	434.64	191.87	177.88	74.247	7.5825e-06	109.64	498.069	249.273	253.326	178.955	293.835	332.863	177.349	183.279	268.446	299.240	181.216	184.587	186.565	191.085	285.197	188.727	-8191	255	
12223.109	1	1	0	0	0.14789	0.24473	0.19039	0.22519	0.2232	0.072693	0.25994	0.11319	0.17566	0.17124	0.15347	0.42756	0.16959	0.13957	0.34297	0.22886	-4.3896	-4.2458	-4.0896	-4.8646	-4.2896	-4.4646	-4.6125	-4.125	-4.5229	-4.4083	-4.375	-4.7625	-4.3896	-4.6542	-4.6333	-4.325	291.746	218.541	297.474	211.617	500.454	256.034	420.987	511.693	305.111	461.057	185.974	485.906	471.452	468.999	472.257	207.250	0.0021232	0.0010404	0.0001933	1045	5.8412e-06	2.4971e-06	1025.7	440.54	1.2859e-05	5.5833e-06	440.92	195.92	183.04	75.322	1.3774e-05	112.17	0.00079224	0.0006922	0.00019071	1019.5	7.4964e-06	7.7125e-06	998.07	429.27	7.6696e-06	7.6017e-06	430.95	190.71	177.02	73.895	7.442e-06	109.5	496.444	226.348	267.279	178.992	291.276	307.647	177.829	183.209	239.597	327.688	181.346	184.637	186.297	190.924	254.705	188.558	-8191	255	
12223.230	1	1	0	0	0.32644	0.05567	0.028253	0.18021	0.091611	0.036456	0.1458	0.38098	0.29714	0.30969	0.11993	0.095847	0.21054	0.27275	0.28198	0.19365	-4.2458	-4.4896	-4.1458	-4.8938	-4.2396	-4.275	-4.7542	-4.3271	-4.5771	-4.4854	-4.1146	-4.7833	-4.3229	-4.2792	-4.8458	-4.3625	311.004	489.668	295.701	431.275	420.673	497.963	455.326	461.207	507.148	466.122	380.900	447.442	252.058	462.467	382.547	517.215	0.0019288	0.0007027	0.00029599	1048.5	9.0167e-06	1.2465e-05	1024.8	441.52	1.0892e-05	7.3094e-06	441.35	194.41	180.81	75.126	8.0996e-06	111.63	0.00076042	0.00068365	0.00019126	1019.4	7.3987e-06	7.3759e-06	999.03	429.81	7.4452e-06	7.3141e-06	430.96	189.45	175.49	73.688	7.2351e-06	108.96	499.145	230.089	274.185	178.813	319.585	325.497	177.558	183.196	274.415	291.192	181.169	184.740	186.506	190.885	208.304	188.623	-8191	255	
12223.326	1	1	0	0	0.29616	0.21907	0.13027	0.17911	0.26803	0.098001	0.29062	0.30452	0.31464	0.19521	0.1783	0.18496	0.21091	0.32561	0.12942	0.18441	-4.1562	-4.575	-3.9917	-4.8021	-4.2958	-4.1687	-4.9792	-4.225	-4.4062	-4.5687	-4.0875	-4.7771	-4.2792	-4.3292	-4.725	-4.1687	465.857	327.801	431.759	477.843	399.005	411.615	501.984	398.963	420.667	306.267	494.778	175.774	451.860	465.210	523.609	177.308	0.0020167	0.00069851	0.00021141	1053.1	5.9055e-06	1.112e-05	1041.6	443.06	1.096e-05	1.9008e-06	440.65	195.09	180.49	74.924	1.5255e-05	111.56	0.00076888	0.00065882	0.00018068	1023.7	7.2362e-06	7.2564e-06	1008.2	430.42	7.1938e-06	7.1889e-06	432.3	188.95	175.48	73.464	7.2455e-06	108.96	498.496	241.339	243.512	178.783	302.565	344.936	177.401	183.288	258.971	293.209	181.273	184.602	186.487	191.087	274.349	188.779	-8191	255	
12223.398	1	1	0	0	0.066241	0.021759	0.10045	0.27738	0.13255	0.05344	0.26952	0.15359	0.049185	0.020473	0.1397	0.12325	0.025058	0.037995	0.14893	0.12364	-4.0729	-4.5667	-4.0354	-4.6438	-4.325	-4.1333	-4.7812	-4.3562	-4.3688	-4.6687	-4.2542	-4.6979	-4.5167	-4.275	-4.6458	-4.4604	479.451	470.492	443.164	423.883	454.875	405.903	516.607	486.429	366.710	459.084	354.418	170.790	240.850	208.751	361.999	354.371	0.0019505	0.00052684	0.0001626	1055.3	4.9216e-06	7.6892e-06	1033.2	442.72	9.4143e-06	3.6485e-06	442.4	193.75	180.77	74.54	8.4079e-06	110.88	0.00076195	0.00066011	0.00018177	1023.8	7.2286e-06	7.2432e-06	1008.8	430.97	7.3553e-06	7.2177e-06	432.45	188.86	175.44	73.209	7.3718e-06	108.44	501.102	232.086	239.723	178.986	282.790	330.074	177.634	183.233	270.678	303.380	181.265	184.790	186.210	191.194	281.137	188.614	-8191	255	
12223.518	1	1	0	0	0.24342	0.1131	0.28966	0.15313	0.27958	0.21757	0.088279	0.11875	0.18992	0.22451	0.32393	0.12598	0.24802	0.10796	0.26419	0.30774	-3.8104	-4.6417	-3.9437	-4.5521	-4.5188	-4.2417	-4.7792	-4.3271	-4.2479	-4.7771	-4.0667	-4.6083	-4.6021	-4.3146	-4.4938	-4.6104	229.051	459.174	205.688	445.938	194.382	254.465	522.896	471.752	410.773	362.524	454.199	207.779	330.662	424.949	224.688	485.290	0.0021024	0.00082781	0.00014751	1050.5	8.3444e-06	3.2526e-06	1029.3	438.55	1.1093e-05	9.4677e-06	436.75	191.08	177.95	73.939	8.3749e-06	109.99	0.00077786	0.00066326	0.00018688	1019.9	7.2629e-06	7.4446e-06	1000.7	426.71	7.5319e-06	7.5037e-06	426.01	186.49	172.97	72.742	7.5933e-06	107.67	497.673	239.276	270.161	178.742	258.919	313.875	177.786	183.340	262.495	310.736	181.318	184.477	186.266	191.001	269.394	188.689	-8191	255	
12223.613	1	1	0	0	0.23097	0.12708	0.1703	0.17644	0.19787	0.039458	0.36065	0.36815	0.34088	0.16612	0.20152	0.083455	0.12162	0.1992	0.2236	0.20243	-3.7917	-4.7438	-3.9958	-4.6	-4.4896	-4.0208	-4.7542	-4.4958	-4.0458	-4.7583	-4.3208	-4.5813	-4.7375	-4.1167	-4.5521	-4.5229	511.237	342.140	209.587	513.237	174.536	363.495	448.727	427.009	495.038	306.573	494.641	520.241	516.732	208.979	276.132	212.242	0.0019873	0.00031652	5.1636e-05	1041.4	1.0157e-05	1.0796e-05	1023.3	439.21	1.3553e-05	9.7746e-06	433.39	191.04	177.62	73.488	7.7269e-06	109.35	0.00078378	0.00067761	0.00018796	1014.4	7.2566e-06	7.4082e-06	997.02	425.08	7.5136e-06	7.5287e-06	424.88	186.06	172.41	72.249	7.6092e-06	107.21	497.847	484.841	222.619	178.931	314.610	332.197	177.699	183.052	262.186	374.339	181.466	184.701	186.417	191.186	270.228	188.863	-8191	255	
12223.709	1	1	0	0	0.2099	0.12936	0.11375	0.39826	0.046702	0.16623	0.46063	0.26033	0.12296	0.049568	0.12426	0.10612	0.15521	0.1047	0.062994	0.14099	-3.7292	-4.7167	-4.1562	-4.5	-4.5542	-4.1813	-4.7104	-4.6542	-4.0437	-4.7438	-4.4646	-4.3938	-4.75	-4.2854	-4.4479	-4.4917	204.380	257.730	213.119	179.668	198.818	266.052	465.637	166.116	477.947	277.976	498.656	219.976	480.117	291.413	236.922	459.325	0.0020414	0.00087568	0.0002134	1040.6	6.8169e-06	1.1422e-05	1025.4	434.08	1.2665e-05	4.122e-06	435.67	192.21	177.64	73.57	5.9778e-06	109.89	0.00077993	0.00069477	0.00018993	1013.9	7.4245e-06	7.4395e-06	1000.5	422.93	7.5053e-06	7.4522e-06	426.4	186.81	172.62	72.23	7.5555e-06	107.56	495.465	252.043	244.031	179.066	263.947	329.332	177.485	183.211	309.182	342.621	181.563	184.714	186.575	190.954	307.398	188.704	-8191	255	
12223.829	1	1	0	0	0.14421	0.13712	0.22885	0.31032	0.10167	0.12298	0.14884	0.21157	0.28894	0.19626	0.31717	0.46702	0.034666	0.32653	0.14267	0.27377	-3.6063	-4.6396	-4.1896	-4.5208	-4.6792	-4.1438	-4.6729	-4.6667	-4.2583	-4.6604	-4.3812	-4.2458	-4.7896	-4.3396	-4.4187	-4.7896	431.014	244.353	297.921	197.561	354.256	172.237	507.331	478.516	190.757	237.943	505.537	203.611	242.743	506.076	369.456	495.850	0.0019466	0.00081295	0.00018443	1037.5	6.3191e-06	1.0765e-05	1026.9	432.19	1.1244e-05	7.4245e-06	434.55	190.58	175.97	73.393	1.0736e-05	109.91	0.00077924	0.00069591	0.00019417	1012.9	7.4341e-06	7.6056e-06	1000.1	422.1	7.7383e-06	7.7653e-06	424.18	185.38	171.31	72.045	7.8005e-06	107.59	494.752	253.545	264.411	178.952	289.718	337.285	177.503	183.362	259.039	328.493	181.346	184.691	186.624	191.007	274.517	188.862	-8191	255	
12223.925	1	1	0	0	0.05568	0.1189	0.13101	0.04541	0.080932	0.24584	0.26044	0.29528	0.16914	0.16072	0.074154	0.16439	0.216	0.19392	0.1819	0.25548	-3.5458	-4.5458	-4.325	-4.1562	-4.6375	-4.175	-4.6333	-4.55	-4.1062	-4.4229	-4.6104	-4.1083	-4.7729	-4.2688	-4.4146	-4.6708	346.726	310.735	352.159	233.819	194.274	371.626	502.794	505.968	354.761	460.066	331.974	193.299	180.086	445.505	353.737	436.318	0.0019858	0.00016372	0.00024133	1042.1	8.5488e-06	1.361e-05	1031.5	435.86	7.7161e-06	1.2556e-05	436.2	191.87	177.23	73.961	1.2122e-05	110.49	0.00078558	0.00069699	0.00019272	1014.4	7.5447e-06	7.7298e-06	1004	423.98	7.552e-06	7.6838e-06	427.01	186.77	172.55	72.62	7.7611e-06	107.98	496.788	207.713	246.667	178.905	263.352	304.801	177.759	183.264	269.002	363.729	181.154	184.617	186.572	191.215	253.912	188.592	-8191	255	
12224.022	1	1	0	0	0.15961	0.28939	0.10613	0.22557	0.04712	0.13462	0.21048	0.28838	0.078044	0.16107	0.083001	0.18577	0.11823	0.11742	0.014321	0.31896	-3.6479	-4.5604	-4.3313	-4.1687	-4.5563	-4.1917	-4.4271	-4.5729	-4.0146	-4.3562	-4.6687	-4.3104	-4.8021	-4.5208	-4.2771	-4.7708	350.131	269.953	493.646	502.933	426.890	187.515	483.436	472.481	453.599	231.650	425.483	225.091	197.363	271.620	475.944	481.841	0.0019284	0.00060799	0.00026036	1045.7	7.6282e-06	8.3848e-06	1027.3	434.35	7.1368e-06	7.8648e-06	434.15	191.32	177.62	74.076	7.5948e-06	110.21	0.00079232	0.00070526	0.00019744	1016.3	7.6833e-06	7.7598e-06	1003.3	423.4	7.5804e-06	7.6289e-06	424.85	186.14	172.49	72.791	7.6263e-06	107.97	498.383	237.271	246.874	178.954	288.689	337.005	177.673	183.270	297.151	295.700	181.486	184.634	186.257	191.159	259.142	188.753	-8191	255	
12224.093	1	1	0	0	0.22989	0.013111	0.14096	0.095001	0.14288	0.19352	0.15556	0.23489	0.10393	0.25161	0.30894	0.16533	0.11588	0.10488	0.059083	0.1615	-3.7021	-4.3146	-4.45	-4.1188	-4.5333	-4.2396	-4.2458	-4.8458	-4.2708	-4.4271	-4.5813	-4.0729	-4.6583	-4.3729	-4.2229	-4.7625	462.183	238.069	383.932	410.693	491.977	255.849	524.460	448.363	497.740	216.068	438.628	455.490	234.984	458.889	285.971	462.996	0.0020652	0.00072046	0.00018355	1043.5	7.2082e-06	7.0692e-06	1024.6	436.11	1.4244e-05	9.6543e-06	433.61	191.59	177.31	74.451	7.6722e-06	110.46	0.00077337	0.00069885	0.00019095	1014.3	7.4781e-06	7.6353e-06	998.38	423.51	7.4669e-06	7.7991e-06	423.05	185.83	172.04	72.932	7.7032e-06	108.06	498.357	257.240	238.405	178.769	285.480	313.307	177.781	183.269	254.737	321.536	181.325	184.741	186.568	191.080	285.885	188.858	-8191	255	
12224.214	1	1	0	0	0.039273	0.029744	0.2058	0.16875	0.13734	0.21083	0.0879	0.24202	0.034552	0.17701	0.12071	0.22595	0.081491	0.082424	0.15143	0.32571	-3.6667	-4.2521	-4.6729	-4.1542	-4.5667	-4.3479	-4.1813	-4.8438	-3.9771	-4.1979	-4.6208	-4.05	-4.7125	-4.4896	-4.1542	-4.7312	259.300	238.987	387.266	396.981	413.766	371.303	405.640	466.939	338.204	351.932	175.850	491.980	177.893	408.191	281.530	418.972	0.0020169	0.00057971	0.00030028	1042.1	4.7875e-06	5.3845e-06	1029.9	435.83	1.3423e-05	6.7949e-06	435.03	190.79	176.61	73.897	7.0641e-06	110.86	0.0007806	0.00070083	0.00018905	1013.5	7.4751e-06	7.4771e-06	1001.9	424.5	7.5298e-06	7.5194e-06	425.68	185.93	171.94	72.564	7.4837e-06	108.05	499.231	252.546	286.130	178.850	281.332	304.114	177.772	183.236	269.761	295.350	181.264	184.604	186.569	191.224	271.626	188.726	-8191	255	
12224.310	1	1	0	0	0.14167	0.17545	0.18778	0.28888	0.090354	0.063136	0.40149	0.14131	0.18229	0.24725	0.035695	0.10225	0.11562	0.17195	0.048084	0.2378	-3.8354	-4.2396	-4.5104	-4.1167	-4.4646	-4.5292	-4.2875	-4.675	-4.2667	-4.2396	-4.7646	-4.1333	-4.5833	-4.5458	-3.9875	-4.825	316.416	483.182	500.409	177.433	210.318	353.841	468.591	513.745	317.480	328.276	519.647	468.730	474.678	443.924	174.430	514.045	0.0020203	0.00037187	0.00025338	1036.9	6.999e-06	6.2885e-06	1029.8	434.99	1.353e-05	5.3991e-06	434.81	192.46	176.36	74.347	1.0512e-05	110.9	0.00077791	0.00069137	0.00019361	1012.6	7.6598e-06	7.6838e-06	1004.1	422.82	7.61e-06	7.5725e-06	426.09	187.21	171.84	72.939	7.4356e-06	108.83	498.576	250.468	244.282	179.047	283.966	354.499	177.651	183.177	269.218	327.315	181.183	184.715	186.471	191.248	271.920	188.744	-8191	255	
12224.406	1	1	0	0	0.063099	0.17543	0.16478	0.28526	0.11707	0.23021	0.054695	0.2278	0.11978	0.085963	0.24782	0.15905	0.2755	0.22867	0.082133	0.19546	-3.8271	-4.1979	-4.7833	-4.3313	-4.5083	-4.3729	-4.175	-4.75	-4.3396	-4.1542	-4.8708	-4.2729	-4.3667	-4.825	-4.2083	-4.9375	287.971	361.514	474.983	466.050	354.149	215.874	463.714	483.418	400.422	441.547	460.236	424.148	505.124	169.836	450.477	463.572	0.0021125	0.0008815	0.00029325	1041.8	4.693e-06	1.344e-05	1034.4	436.65	1.291e-05	8.2675e-06	439.43	193.38	179.21	75.232	6.9806e-06	111.91	0.00077481	0.00068559	0.00019025	1014.4	7.4331e-06	7.4726e-06	1008.7	424.85	7.5439e-06	7.5777e-06	429	188.57	173.91	73.869	7.3634e-06	109.52	496.504	252.649	242.469	179.159	275.522	314.802	177.683	183.360	258.136	309.513	181.409	184.508	186.544	190.978	258.557	188.671	-8191	255	
12224.502	1	1	0	0	0.14224	0.060984	0.17774	0.33383	0.056875	0.049203	0.26509	0.34199	0.18846	0.061471	0.19335	0.072343	0.088854	0.38662	0.21955	0.21211	-4.1458	-4.1771	-4.7562	-4.2771	-4.4104	-4.6229	-4.3938	-4.6438	-4.4208	-4.1	-4.8646	-4.3063	-4.4708	-4.6687	-3.9917	-4.7542	181.556	355.860	200.842	457.394	392.386	183.020	520.604	472.134	227.431	177.933	465.278	492.190	370.433	495.465	195.106	467.581	0.0020157	0.00093629	0.00025782	1057.4	6.2658e-06	4.1619e-06	1041.1	441.2	8.7836e-06	4.6267e-06	440.6	193.76	178.76	75.266	8.5165e-06	111.17	0.00077068	0.00066408	0.00018845	1026.7	7.2487e-06	7.1906e-06	1014.2	429.01	7.2093e-06	7.2391e-06	429.77	188.13	173.7	73.795	7.1938e-06	108.94	495.777	270.686	268.007	178.946	300.244	354.892	177.597	183.212	263.410	309.537	181.187	184.801	186.610	191.107	277.581	188.550	-8191	255	
12224.621	1	1	0	0	0.32724	0.22225	0.17401	0.1403	0.24324	0.044337	0.15761	0.17159	0.24184	0.061001	0.11664	0.22457	0.12378	0.16137	0.033468	0.18693	-4.2188	-4.0875	-4.6625	-4.3708	-4.1521	-4.7208	-4.1375	-4.3917	-4.4708	-4.0312	-4.6458	-4.4812	-4.25	-4.7312	-4.2937	-4.4875	460.679	344.906	404.741	446.377	266.307	515.931	201.432	488.594	511.240	498.565	478.480	440.019	336.655	404.152	254.571	472.488	0.0020574	0.00075664	0.00012727	1055	6.6338e-06	5.3018e-06	1037.6	441.94	1.3434e-05	9.3287e-06	433.44	191.53	179.57	75.544	6.7204e-06	110.42	0.00075756	0.00065414	0.00018462	1025.1	7.3406e-06	7.2412e-06	1009.7	428.84	7.212e-06	7.0027e-06	424.66	185.48	173.51	74.024	7.0253e-06	108.27	497.858	273.762	263.399	178.997	262.598	355.732	177.529	183.280	277.773	343.328	181.261	184.845	186.490	190.889	288.638	188.688	-8191	255	
12224.693	1	1	0	0	0.044425	0.031178	0.087049	0.27826	0.14703	0.028581	0.17156	0.28588	0.2078	0.11662	0.27947	0.24491	0.25726	0.24353	0.1066	0.089848	-4.2458	-3.9229	-4.5563	-4.4354	-3.9479	-4.7312	-4.1021	-4.4375	-4.6396	-4.1438	-4.6458	-4.6104	-4.0042	-4.7812	-4.2146	-4.6667	413.784	388.039	253.657	428.649	191.123	522.826	465.690	467.973	267.473	297.310	449.728	198.294	166.111	475.361	370.212	219.250	0.001927	0.00062273	0.00023243	1051.3	7.3135e-06	9.4949e-06	1038	439.96	8.5426e-06	9.2231e-06	432.79	189.42	176.59	74.567	5.0235e-06	109.86	0.00073411	0.00064045	0.00017886	1024.3	6.9684e-06	7.2186e-06	1010.1	427.79	7.2803e-06	7.2471e-06	422.88	184.66	171.8	73.254	7.3566e-06	107.62	494.400	242.667	232.864	179.060	267.242	290.883	177.674	183.417	298.124	305.512	181.445	184.446	186.710	191.090	319.332	188.813	-8191	255	
12224.789	1	1	0	0	0.051658	0.071017	0.116	0.18031	0.12005	0.12821	0.16066	0.35804	0.16378	0.048484	0.2145	0.22066	0.10578	0.3576	0.08961	0.14582	-4.3812	-3.9917	-4.4083	-4.5917	-3.9917	-4.6687	-4.4167	-4.4625	-4.6417	-4.1271	-4.6167	-4.5771	-4.2063	-4.8271	-4.2729	-4.45	264.661	428.887	203.877	431.223	495.063	379.032	448.598	444.834	411.145	355.802	511.173	370.243	489.101	494.789	305.134	426.907	0.0020075	0.000159	0.00017756	1054.1	8.0219e-06	8.7474e-06	1033.9	438.03	6.773e-06	6.2347e-06	432.96	190.54	176.77	73.734	4.808e-06	109.6	0.00076451	0.00067035	0.00019075	1023.2	7.1258e-06	7.2927e-06	1007.4	425.57	7.3292e-06	7.2682e-06	423.61	185.23	171.69	72.606	7.6399e-06	107.12	496.244	224.557	250.166	178.724	310.385	332.152	177.545	183.246	275.483	356.119	181.411	184.676	186.480	191.140	265.866	188.748	-8191	255	
12224.910	1	1	0	0	0.12886	0.1862	0.035999	0.11494	0.22077	0.030209	0.24485	0.10862	0.16942	0.22667	0.067957	0.10719	0.25242	0.26558	0.14467	0.19475	-4.3812	-4.1625	-4.1896	-4.5979	-3.8771	-4.5729	-4.4646	-4.2833	-4.6521	-4.0333	-4.5875	-4.6021	-4.1083	-4.7375	-4.5333	-4.3792	489.088	408.923	252.090	428.447	356.544	500.385	476.590	250.430	347.799	298.342	402.383	452.082	503.561	476.627	194.801	441.014	0.0020036	0.00080207	0.00012293	1050.8	5.853e-06	7.33e-06	1039.6	437.84	1.0104e-05	5.5166e-06	435.56	192.65	177.84	74.424	8.5921e-06	110.72	0.00079786	0.00070167	0.00019507	1024.8	7.5563e-06	7.7121e-06	1009.8	426.44	7.5503e-06	7.5481e-06	426.2	186.77	173.22	73.139	7.4214e-06	107.91	497.884	253.666	247.502	178.586	310.027	347.357	177.548	183.447	256.668	310.028	181.419	184.825	186.322	191.220	319.821	188.814	-8191	255	
12225.006	1	1	0	0	0.05348	0.19678	0.20477	0.22672	0.12465	0.20252	0.15746	0.18959	0.22121	0.21898	0.043559	0.016622	0.21679	0.15216	0.087813	0.061616	-4.45	-4.1542	-4.4042	-4.6917	-4.0938	-4.5542	-4.6271	-4.2125	-4.6	-4.2042	-4.3333	-4.7146	-3.95	-4.5875	-4.4417	-4.1479	283.144	186.429	487.722	398.770	184.229	219.838	294.177	452.471	394.834	345.042	480.023	381.137	498.939	490.118	268.876	408.055	0.002017	0.00079435	0.00026468	1048.7	8.3011e-06	9.4457e-06	1032.6	437.99	8.3834e-06	6.5952e-06	433.31	188.89	176.32	74.048	1.0887e-05	109.1	0.00076577	0.00067697	0.00019206	1021.8	7.4864e-06	7.7633e-06	1005.7	426.28	7.6809e-06	7.6423e-06	422.04	184.29	171.36	72.674	7.6832e-06	106.84	496.568	256.236	306.352	179.092	287.048	336.966	177.510	183.443	270.662	334.740	181.289	184.749	186.794	191.152	283.536	188.855	-8191	255	
12225.102	1	1	0	0	0.095144	0.14041	0.11355	0.095715	0.2504	0.037043	0.11366	0.35675	0.27326	0.076941	0.10983	0.1822	0.087946	0.21121	0.092329	0.40359	-4.3583	-3.9417	-4.2271	-4.7937	-4.2396	-4.4208	-4.525	-4.2833	-4.6729	-4.2625	-4.5167	-4.7854	-4.2792	-4.5979	-4.3792	-4.3042	270.283	392.993	308.216	252.098	457.840	356.994	442.483	494.667	492.743	336.699	505.605	432.644	186.822	168.101	277.962	462.264	0.0019334	0.00041832	0.00029892	1046.3	1.0181e-05	8.6015e-06	1024.2	438.13	1.411e-05	4.1607e-06	427.85	187.16	174.44	73.588	8.3429e-06	108.3	0.00079392	0.0006989	0.00019335	1018.6	7.4598e-06	7.7165e-06	997.5	424.48	7.6425e-06	7.6036e-06	418.73	182.42	170.14	72.415	7.5448e-06	106.14	497.448	251.049	237.992	178.941	299.628	319.506	177.798	183.253	283.319	345.360	181.510	184.808	186.628	191.241	296.101	188.692	-8191	255	
12225.198	1	1	0	0	0.17658	0.16384	0.074405	0.26292	0.15624	0.052819	0.088274	0.16178	0.10134	0.20663	0.17564	0.22682	0.24374	0.17892	0.1013	0.19289	-4.2875	-4.1792	-4.0813	-4.9062	-4.2375	-4.3604	-4.6708	-4.1396	-4.675	-4.3333	-4.1813	-4.7479	-4.0646	-4.425	-4.5146	-4.2208	301.863	444.878	313.981	464.237	206.032	180.330	493.451	486.514	282.621	172.222	481.404	475.200	518.602	488.047	195.084	482.504	0.0018838	0.00069918	0.00029348	1047	1.0171e-05	1.2451e-05	1026	435.57	8.7853e-06	6.4941e-06	429.37	190.18	176.81	73.917	7.6496e-06	109.02	0.00078602	0.00070877	0.00019936	1018.7	7.5239e-06	7.6826e-06	998	423.66	7.6723e-06	7.467e-06	420.8	184.33	171.43	72.543	7.5137e-06	106.77	496.789	257.287	250.086	178.926	289.545	315.273	177.377	183.146	272.335	368.388	181.302	184.641	186.509	191.157	283.617	188.741	-8191	255	
12225.294	1	1	0	0	0.065503	0.047306	0.11391	0.12778	0.091039	0.11072	0.0801	0.21148	0.087199	0.19554	0.14138	0.13262	0.13957	0.25938	0.30822	0.21494	-4.1417	-4.4104	-4.0167	-4.9333	-4.0646	-4.3167	-4.7771	-4.2708	-4.3979	-4.5208	-4.1333	-4.8313	-4.3208	-4.4792	-4.6937	-4.3646	380.909	237.634	487.502	504.650	209.451	481.553	175.180	475.022	227.138	485.929	488.587	197.620	449.691	485.287	396.856	451.721	0.0020207	0.00094242	0.00013828	1045.7	5.1461e-06	1.0297e-05	1027.8	435.83	1.4353e-05	5.8492e-06	428.9	190.02	175.61	73.683	1.1277e-05	109.37	0.00077852	0.00069032	0.00019145	1016.5	7.5354e-06	7.7554e-06	1001.8	424.04	7.8527e-06	7.6853e-06	420.44	184.62	171.02	72.417	7.6671e-06	107	496.244	248.006	242.592	178.563	297.773	319.550	177.581	183.279	249.040	329.052	181.486	184.825	186.682	191.145	288.410	188.718	-8191	255	
12225.390	1	1	0	0	0.1416	0.2448	0.20683	0.061342	0.14328	0.13074	0.096876	0.18059	0.13509	0.21716	0.19698	0.19539	0.33955	0.28303	0.1693	0.077229	-4.0979	-4.3583	-3.9354	-4.7125	-4.2104	-4.0271	-4.6792	-4.3375	-4.3792	-4.5375	-4.1	-4.7354	-4.4688	-4.3187	-4.6146	-4.2604	351.099	422.356	295.119	512.205	225.216	406.990	367.146	207.459	372.783	510.960	238.767	520.241	516.403	181.401	520.897	503.615	0.0020031	0.0008691	0.00021837	1045.4	2.8406e-06	8.1123e-06	1025.8	433.64	1.0191e-05	2.2847e-06	431.7	190.29	175.77	73.419	9.0852e-06	109.64	0.00079326	0.00069815	0.00019308	1017.4	7.4878e-06	7.635e-06	1001.4	422.69	7.7495e-06	7.7262e-06	422.23	184.7	171.11	72.383	7.8708e-06	107.26	496.078	238.580	212.031	178.846	250.199	351.811	177.648	183.218	240.543	391.032	181.419	184.884	186.665	191.080	296.116	188.686	-8191	255	
12225.511	1	1	0	0	0.22357	0.32124	0.1166	0.15696	0.076009	0.038512	0.11736	0.14707	0.046231	0.11907	0.052453	0.21681	0.14597	0.34473	0.12284	0.17633	-4.0896	-4.6021	-4.0417	-4.6687	-4.2375	-4.1667	-4.8292	-4.2271	-4.3313	-4.6083	-4.0146	-4.5896	-4.55	-4.1646	-4.6125	-4.4542	355.546	329.725	246.445	458.107	182.163	395.911	416.819	187.722	303.052	490.565	394.015	454.045	363.822	471.202	373.655	376.152	0.00193	0.00072985	0.00014167	1048.8	4.2272e-06	9.308e-06	1031.1	436.7	8.6623e-06	2.0867e-06	432.73	190.07	175.64	73.854	9.7687e-06	109.5	0.00081394	0.00072187	0.0001997	1020.9	7.8401e-06	7.7899e-06	1007.1	424.26	7.8029e-06	7.6572e-06	422.69	185.34	171.36	72.6	7.909e-06	107.16	498.320	252.284	242.850	178.812	300.467	297.696	177.747	183.234	264.639	290.633	181.193	184.821	186.829	191.269	281.889	188.702	-8191	255	
12225.605	1	1	0	0	0.082009	0.051439	0.26991	0.23014	0.16812	0.10432	0.15559	0.17526	0.18958	0.081277	0.14904	0.299	0.16797	0.31128	0.060671	0.46485	-3.9021	-4.6062	-3.9833	-4.6937	-4.2229	-4.0875	-4.775	-4.2854	-4.3479	-4.65	-4.3313	-4.4375	-4.6687	-4.125	-4.4875	-4.2375	313.757	291.913	452.264	414.240	243.530	363.574	409.188	457.068	244.744	214.396	458.338	421.886	435.223	458.232	174.075	506.482	0.0019288	0.00042438	0.00036747	1043.9	7.3865e-06	4.7879e-06	1021.4	432.4	1.2026e-05	9.3773e-06	423.7	186.52	174.29	73.52	9.6232e-06	108.22	0.00079995	0.00070796	0.00019798	1015.4	7.7302e-06	7.9044e-06	995.57	420.52	8.1705e-06	8.1586e-06	415.71	181.79	169.41	72.086	8.054e-06	106.21	498.597	242.823	250.093	178.929	231.844	306.796	177.711	183.360	261.670	283.826	181.659	184.614	186.651	191.076	284.130	188.609	-8191	255	
12225.702	1	1	0	0	0.19892	0.27055	0.15626	0.10609	0.2488	0.095139	0.26242	0.13324	0.016405	0.036649	0.07564	0.25774	0.26051	0.35915	0.081949	0.19785	-3.8521	-4.4979	-4.2083	-4.5792	-4.4292	-3.9833	-4.6896	-4.4417	-4.0875	-4.6104	-4.1167	-4.5396	-4.6146	-4.0521	-4.6646	-4.4021	263.041	329.188	495.590	210.690	175.767	373.158	450.194	477.796	299.723	489.210	382.077	480.154	462.314	485.091	199.720	511.039	0.0019852	0.0010897	0.00017129	1038.3	7.288e-06	8.4566e-06	1017.5	430.31	1.1817e-05	5.1506e-06	423.96	185.32	172.42	72.62	5.8988e-06	107.84	0.00081309	0.00072043	0.00019957	1009.1	7.7531e-06	7.8193e-06	988.99	418.26	7.8923e-06	7.925e-06	414.74	180.98	168.09	71.455	8.3528e-06	105.54	497.930	235.354	259.406	178.917	249.089	307.383	177.520	183.434	264.775	280.338	181.426	184.584	186.843	191.228	302.756	188.841	-8191	255	
12225.798	1	1	0	0	0.13763	0.081694	0.10602	0.13984	0.09991	0.089933	0.23142	0.085526	0.28242	0.043474	0.11498	0.040636	0.10773	0.13965	0.055597	0.075411	-3.6458	-4.525	-4.0375	-4.4583	-4.4333	-4.025	-4.65	-4.4729	-4.0729	-4.6792	-4.3042	-4.2542	-4.7208	-4.4333	-4.4812	-4.5625	263.900	291.231	525.277	476.593	311.601	497.851	385.087	365.665	208.366	310.424	178.428	311.784	218.689	492.158	343.234	474.518	0.0020669	0.00053624	0.00023319	1034.7	6.8685e-06	8.9477e-06	1019.8	429.65	1.1355e-05	9.6816e-06	424.19	187.55	174.11	72.935	1.1687e-05	108.46	0.00084843	0.0007635	0.00021259	1008.2	8.2112e-06	8.1222e-06	991.95	417.81	8.036e-06	7.9441e-06	416.54	182.78	169.62	71.726	7.8415e-06	106.24	499.743	232.026	272.117	178.953	269.694	331.689	177.669	183.470	269.345	311.971	181.566	184.495	186.738	191.496	265.889	188.655	-8191	255	
12225.918	1	1	0	0	0.15039	0.0086783	0.14402	0.20672	0.13815	0.29497	0.085179	0.37949	0.079338	0.069022	0.047233	0.13606	0.17069	0.097426	0.17142	0.18414	-3.6729	-4.6354	-4.2417	-4.3958	-4.7562	-4.2167	-4.5021	-4.7104	-3.9667	-4.7271	-4.3313	-4.2583	-4.8458	-4.2833	-4.5104	-4.7479	423.466	369.803	389.357	420.621	216.396	326.205	249.515	476.642	514.736	487.737	479.614	429.333	440.106	515.282	330.427	391.071	0.0018966	0.0010952	0.00017501	1036	2.1667e-06	3.3782e-06	1021.7	433.35	1.0297e-05	1.2772e-05	425.52	185.7	172.41	72.947	5.8114e-06	108.44	0.00078881	0.00071671	0.00019888	1011.9	7.7345e-06	7.9211e-06	996.97	420.61	8.0373e-06	8.0449e-06	415.75	180.32	167.82	71.658	8.0095e-06	105.9	497.919	256.004	237.550	178.960	343.186	397.537	177.644	183.304	283.853	311.316	181.347	184.586	186.594	191.072	250.392	188.753	-8191	255	
12225.990	1	1	0	0	0.20439	0.11187	0.046288	0.46679	0.18082	0.16572	0.33949	0.10246	0.090415	0.034193	0.13051	0.16109	0.13162	0.046794	0.23396	0.075927	-3.5229	-4.5667	-4.2271	-4.2375	-4.7229	-4.1854	-4.4854	-4.575	-4.0021	-4.6125	-4.2708	-4.2479	-4.7521	-4.2083	-4.1667	-4.925	457.518	329.248	299.578	470.741	196.191	321.370	421.492	490.367	388.582	390.310	198.027	512.465	479.934	524.217	481.085	232.298	0.001989	0.001123	8.4147e-05	1037	3.4063e-06	7.8852e-06	1026.5	430.94	1.026e-05	6.9081e-06	420.5	181.52	170.25	71.999	1.0615e-05	106.12	0.00078853	0.00072159	0.0002009	1010.7	8.1537e-06	8.3696e-06	997.26	420.51	8.6802e-06	8.928e-06	412.79	177	165.9	70.855	8.554e-06	103.9	500.059	241.528	242.152	178.761	254.211	303.680	177.930	183.405	255.214	378.365	181.204	184.935	186.571	191.397	285.457	188.813	-8191	255	
12226.086	1	1	0	0	0.2201	0.051789	0.15714	0.19192	0.15485	0.25688	0.098951	0.28014	0.18185	0.12579	0.23852	0.194	0.09827	0.17408	0.17845	0.22797	-3.7062	-4.5708	-4.4854	-4.25	-4.7625	-4.1958	-4.5042	-4.7417	-4.1083	-4.4667	-4.6542	-4.1708	-4.6687	-4.3438	-4.1813	-4.8354	354.684	379.993	353.566	477.092	234.704	396.973	381.502	442.339	264.283	408.450	193.546	511.493	439.539	464.755	198.610	494.663	0.0018921	0.0004948	0.00028779	1040.9	8.4646e-06	5.9991e-06	1022.6	432.54	1.4482e-05	6.8263e-06	423.26	182.67	171.82	72.679	1.2538e-05	106.4	0.00083571	0.00075711	0.00020328	1015.3	7.9139e-06	7.9128e-06	996.21	421.6	7.8081e-06	7.9237e-06	413.57	178.55	167.7	71.312	8.0913e-06	104.05	497.657	250.084	300.136	178.947	286.480	317.544	177.628	183.365	280.683	312.780	181.234	184.817	186.750	191.217	279.826	188.719	-8191	255	
12226.182	1	1	0	0	0.28139	0.022028	0.062254	0.24274	0.073187	0.2067	0.42178	0.2033	0.13793	0.044179	0.24239	0.23898	0.15567	0.1481	0.31101	0.15111	-3.8146	-4.5938	-4.6104	-4.2292	-4.7396	-4.2438	-4.3458	-4.9104	-4.0521	-4.4333	-4.7562	-4.0354	-4.6687	-4.4437	-4.0104	-4.8479	352.738	275.870	505.113	481.301	468.073	220.466	437.628	383.231	337.981	416.479	177.419	200.333	508.431	469.424	390.683	507.986	0.0018562	0.00094968	0.00017194	1042.2	8.1396e-06	1.0493e-05	1012.1	431.2	1.1101e-05	1.0733e-05	417.82	181.13	170.75	71.784	7.3337e-06	105.01	0.00081315	0.00076925	0.00020842	1012.5	8.2962e-06	8.3211e-06	989.04	419.33	8.3371e-06	8.2909e-06	409.83	176.85	166.04	70.457	8.2288e-06	102.91	497.978	263.789	301.712	178.964	295.966	367.663	177.707	183.438	260.581	325.032	181.606	184.609	186.674	191.357	278.421	188.703	-8191	255	
12226.303	1	1	0	0	0.14873	0.076446	0.12334	0.17461	0.080947	0.25874	0.28896	0.31392	0.20392	0.036482	0.29014	0.24227	0.096011	0.077093	0.10547	0.053349	-3.775	-4.4958	-4.4542	-4.15	-4.6667	-4.4792	-4.3833	-5.0437	-4.0854	-4.2958	-4.7208	-4.0646	-4.5583	-4.5833	-4.1813	-4.9854	368.794	383.077	318.877	490.739	406.699	368.063	478.629	468.191	367.275	187.901	229.750	472.255	432.057	428.731	399.402	200.790	0.001872	0.0002632	6.682e-05	1032.4	5.8059e-06	3.5895e-06	1011.4	430.17	1.1542e-05	7.7231e-06	417.49	179.42	167.87	70.917	1.1491e-05	104.89	0.00081968	0.00075618	0.00021046	1006.5	8.4564e-06	8.5255e-06	986.23	418.72	8.461e-06	8.4921e-06	408.94	174.6	164.22	69.87	7.6422e-06	102.64	496.305	264.563	387.867	178.980	307.982	314.394	177.649	183.378	275.293	318.787	181.395	184.939	187.024	191.301	284.852	188.841	-8191	255	
12226.399	1	1	0	0	0.089883	0.043325	0.1266	0.31303	0.086466	0.12883	0.14176	0.15483	0.28177	0.069135	0.18077	0.12001	0.11585	0.20875	0.20872	0.18763	-3.6896	-4.1646	-4.6229	-4.1479	-4.4	-4.5042	-4.0771	-4.8229	-4.2375	-4.3021	-4.6917	-3.9521	-4.6292	-4.4458	-4.0062	-4.7312	165.660	506.784	419.054	482.760	438.492	491.605	495.482	524.430	350.415	442.231	489.772	437.535	525.004	456.988	215.148	499.679	0.0019442	0.00051267	0.00020111	1036.8	7.9293e-06	6.5395e-06	1022.1	430.99	1.084e-05	9.2573e-06	421.99	182.07	169.1	70.499	8.3178e-06	103.98	0.00077901	0.00068781	0.00018927	1009.6	7.5998e-06	7.5067e-06	995.24	418.92	7.6413e-06	7.9109e-06	413.12	177.14	165.14	69.43	8.2783e-06	101.81	496.909	259.366	281.340	179.126	297.833	296.713	177.885	183.318	285.808	348.217	181.435	184.742	186.360	191.087	274.245	188.937	-8191	255	
12226.494	1	1	0	0	0.26277	0.050896	0.078907	0.21627	0.29	0.080667	0.16654	0.18808	0.055841	0.086304	0.22648	0.38376	0.26036	0.055592	0.088823	0.093105	-4.0021	-4.0167	-4.6625	-4.0854	-4.475	-4.6375	-4.0687	-4.7667	-4.3979	-4.2146	-4.8292	-4.2625	-4.5208	-4.6792	-4.125	-4.825	486.432	238.027	258.974	444.652	265.857	510.102	462.870	394.127	178.186	307.079	506.884	491.688	194.133	498.812	179.809	230.987	0.0020093	0.00028243	0.00020105	1032.1	5.7416e-06	8.0264e-06	1013.6	426.03	7.7524e-06	1.073e-05	420.02	181.49	167.76	70.358	9.4476e-06	104.04	0.00083687	0.0007647	0.00021142	1005.1	8.2586e-06	8.3017e-06	992.71	415.41	8.2479e-06	8.1088e-06	411.84	176.77	163.76	69.073	8.1513e-06	102.1	501.707	259.185	270.124	178.939	291.269	295.938	177.771	183.196	265.009	325.324	181.382	184.732	186.855	191.258	290.521	188.863	-8191	255	
12226.591	1	1	0	0	0.11991	0.21755	0.10382	0.18075	0.16023	0.10563	0.28836	0.16171	0.20692	0.094848	0.16911	0.12199	0.033621	0.27394	0.19408	0.09687	-4.0375	-3.9083	-4.6438	-4.2458	-4.3667	-4.6021	-4.2375	-4.5354	-4.5042	-4.0958	-4.8958	-4.4688	-4.4375	-4.7063	-4.0188	-4.7125	422.038	463.370	399.841	488.415	366.294	413.331	430.878	397.964	179.401	455.058	424.917	523.304	180.320	509.880	443.164	449.114	0.0018162	0.00073061	0.00025583	1028.8	6.6468e-06	7.0486e-06	1018.1	423.32	1.0472e-05	8.1279e-06	417.36	180.82	167.8	69.942	9.5142e-06	104.23	0.00083394	0.00075741	0.00021275	1003.3	8.4619e-06	8.2301e-06	991.76	411.96	8.5009e-06	8.3849e-06	410.69	176.66	163.44	68.859	8.5106e-06	102.04	498.033	237.802	273.425	178.828	289.493	289.822	177.572	183.340	287.258	346.420	181.281	184.584	186.610	191.423	278.338	188.927	-8191	255	
12226.686	1	1	0	0	0.21651	0.055326	0.078124	0.13587	0.215	0.068955	0.14151	0.18684	0.071609	0.19478	0.23147	0.10043	0.15161	0.24775	0.16424	0.21235	-4.2542	-4.1292	-4.5646	-4.2562	-4.1396	-4.7333	-4.2	-4.6833	-4.6104	-4.0625	-4.7896	-4.4313	-4.2875	-4.8	-4.025	-4.6667	402.147	169.080	338.791	467.090	491.683	372.092	213.922	460.814	395.972	362.431	517.742	191.555	486.527	446.826	241.860	411.211	0.001777	0.0011236	0.00022018	1015.6	3.3723e-06	3.5288e-06	997.3	414.59	1.1811e-05	6.6384e-06	408.17	177.07	163.75	68.676	1.1092e-05	102.33	0.00086722	0.00080296	0.00022573	992.52	9.009e-06	9.2282e-06	978.09	405.32	9.3286e-06	9.5035e-06	402.16	173.47	160.14	67.669	9.537e-06	100.75	494.261	255.116	264.302	178.895	311.859	264.382	177.576	183.549	258.141	349.636	181.424	184.838	186.957	191.558	249.367	189.001	-8191	255	
12226.782	1	1	0	0	0.10131	0.073369	0.18205	0.19149	0.099569	0.073942	0.17687	0.051476	0.11611	0.09088	0.0053308	0.13679	0.19757	0.31669	0.20907	0.12317	-4.1521	-4.0208	-4.6562	-4.5062	-4.15	-4.7688	-4.3917	-4.5687	-4.5312	-4.0813	-4.7354	-4.4875	-4.2083	-4.7271	-4.0813	-4.5563	190.697	233.569	352.369	512.842	239.582	437.239	448.451	192.042	517.598	337.897	339.075	439.784	233.702	496.762	481.084	181.236	0.0018992	0.00040069	0.00038941	1006.9	5.6105e-06	1.2319e-05	995.86	409.95	1.1034e-05	8.3134e-06	408.14	176.93	163.18	68.582	7.095e-06	102.74	0.00094035	0.00087074	0.00024543	984.96	9.4417e-06	9.4874e-06	974.28	400.59	9.4534e-06	9.5084e-06	401.74	173.54	159.8	67.544	9.6669e-06	101.13	500.277	290.222	260.357	178.883	266.883	360.612	177.649	183.410	280.619	293.435	181.402	184.680	186.898	191.558	328.592	189.036	-8191	255	
12226.878	1	1	0	0	0.10217	0.056153	0.16715	0.24349	0.29834	0.19247	0.0048291	0.29396	0.22663	0.12628	0.23707	0.19482	0.062296	0.24744	0.096736	0.15971	-4.2521	-3.9104	-4.5062	-4.4167	-4.1562	-4.6229	-4.275	-4.3896	-4.5687	-3.9854	-4.5917	-4.5813	-4.1479	-4.7333	-4.275	-4.2229	413.842	297.152	226.016	446.188	379.053	272.126	415.000	483.536	464.844	345.221	450.689	458.270	400.310	519.659	474.514	507.218	0.0017575	0.00051971	0.00010473	1009.4	7.0998e-06	1.2444e-05	999.24	410.54	1.1569e-05	4.7766e-06	409.07	179.09	164.78	68.864	7.2618e-06	103.26	0.00093585	0.00087214	0.00025009	984.47	9.3977e-06	9.7827e-06	976.51	400.66	9.5064e-06	9.5428e-06	403.32	175.28	160.61	67.883	9.6466e-06	101.69	493.430	271.067	195.029	179.065	302.440	317.981	177.746	183.544	262.704	336.056	181.387	184.970	186.620	191.613	289.029	189.160	-8191	255	
12226.999	1	1	0	0	0.099274	0.0755	0.10885	0.28543	0.38178	0.17741	0.1419	0.15779	0.31098	0.078509	0.15644	0.17146	0.13382	0.064056	0.18831	0.12807	-4.3208	-4.0625	-4.4021	-4.6562	-4.1521	-4.7396	-4.3729	-4.3271	-4.7958	-3.9625	-4.5625	-4.6229	-4.0417	-4.7042	-4.3167	-4.3583	228.516	346.168	283.524	505.746	338.625	407.781	472.487	423.886	462.090	206.130	240.092	425.493	373.524	486.626	285.135	504.419	0.0019241	0.00084184	0.00025076	1008.4	4.5835e-06	1.6134e-05	994.87	407.57	8.6668e-06	1.0666e-05	412.95	180.75	163.89	68.881	1.0714e-05	105.04	0.00094771	0.00088671	0.00024882	985.38	9.5079e-06	9.9045e-06	976.82	399.68	9.5867e-06	9.5686e-06	405.38	176.32	160.51	68.085	9.7191e-06	102.87	501.210	271.078	287.543	178.948	251.494	317.791	177.277	183.627	279.167	374.901	181.477	184.794	186.980	191.656	276.766	188.889	-8191	255	
12227.095	1	1	0	0	0.20998	0.059397	0.19102	0.19332	0.14081	0.15613	0.099781	0.17721	0.11712	0.09352	0.072644	0.014695	0.1163	0.16701	0.055879	0.2724	-4.4146	-4.0521	-4.3313	-4.6375	-4.0958	-4.4938	-4.4146	-4.2	-4.7	-4.2063	-4.4646	-4.5625	-4.025	-4.625	-4.4958	-4.35	436.794	382.552	405.871	436.951	418.025	497.155	359.024	452.905	473.625	238.595	176.593	246.921	202.978	438.438	351.722	489.958	0.0018468	0.00015691	0.00022565	1011.3	4.2319e-06	1.6142e-05	999.21	408.59	8.3839e-06	8.0119e-06	413.3	181.16	164.81	69.506	5.8399e-06	104.59	0.00095079	0.00089316	0.00025097	984.81	9.5011e-06	9.8167e-06	979.76	399.87	9.9534e-06	9.752e-06	405.09	176.54	161.28	68.337	9.6202e-06	102.99	501.857	304.315	226.632	178.855	313.353	321.208	177.637	183.424	256.069	304.906	181.161	184.765	187.041	191.393	268.390	189.219	-8191	255	
12227.191	1	1	0	0	0.11543	0.093357	0.13216	0.12617	0.094611	0.05644	0.32103	0.15527	0.11953	0.13105	0.42976	0.12198	0.22649	0.090827	0.15403	0.42759	-4.3125	-4.3104	-4.2771	-4.7729	-4.0875	-4.5	-4.6208	-4.15	-4.6937	-4.2854	-4.2646	-4.6208	-4.0667	-4.725	-4.5667	-4.1229	390.903	479.239	280.787	418.487	472.919	521.202	490.558	518.553	460.831	490.599	449.855	521.952	511.907	193.950	234.068	446.670	0.001934	0.00049343	0.00010919	1009.3	3.0523e-06	5.8131e-06	997.52	409.47	9.4808e-06	8.1089e-06	411.88	180.71	165.21	69.602	8.8752e-06	105.12	0.00094348	0.00085992	0.00024524	985.02	9.3457e-06	9.4878e-06	976.15	400.69	9.2597e-06	9.328e-06	404.48	176.27	161.53	68.686	9.3164e-06	102.91	496.747	218.793	205.033	179.005	283.101	340.429	177.989	183.754	256.654	314.599	181.411	184.931	186.843	191.607	247.797	188.785	-8191	255	
12227.287	1	1	0	0	0.14884	0.17139	0.27727	0.042458	0.27901	0.043512	0.1965	0.34386	0.082521	0.20818	0.17151	0.13677	0.20798	0.051981	0.17413	0.17214	-4.5375	-4.2521	-4.2	-4.6417	-3.9604	-4.4396	-4.65	-4.25	-4.5062	-4.3354	-4.3333	-4.8333	-4.2312	-4.3167	-4.6646	-4.1854	361.992	429.618	458.380	513.217	332.784	442.567	479.767	412.580	330.611	411.433	476.232	438.504	469.515	401.894	449.044	482.379	0.0018288	0.0003617	0.00020831	1007.6	7.6299e-06	1.4995e-05	996.31	409.04	1.0359e-05	6.6108e-06	411.06	179.78	165.29	69.702	6.9235e-06	104.79	0.00093688	0.00086852	0.00023868	983.27	9.3803e-06	9.7543e-06	976.16	400.49	9.4696e-06	9.5148e-06	403.69	175.85	161.21	68.518	9.5066e-06	102.99	499.044	301.033	253.284	178.972	323.576	265.162	177.631	183.400	264.410	344.457	181.634	184.783	186.915	191.784	264.945	188.933	-8191	255	
12227.383	1	1	0	0	0.13487	0.17026	0.15934	0.1502	0.080903	0.12879	0.26201	0.32258	0.2336	0.093914	0.11369	0.25221	0.24741	0.13699	0.1305	0.096236	-4.2688	-4.2562	-4.0437	-4.7729	-4.0708	-4.2458	-4.6625	-4.1562	-4.525	-4.4167	-3.9917	-4.7458	-4.1687	-4.4271	-4.4938	-4.2875	486.313	415.433	255.085	382.145	409.360	184.307	434.568	504.290	342.426	502.381	189.545	501.811	186.211	518.628	400.765	443.436	0.0020463	0.00070059	3.6587e-05	1008.6	5.4254e-06	7.0155e-06	997.08	410.6	6.1039e-06	1.1843e-05	411.14	180.01	164.84	69.62	5.5692e-06	104.23	0.00094703	0.00086808	0.00024127	982.01	9.6086e-06	9.5749e-06	976.33	400.15	9.6534e-06	9.7262e-06	404.41	176	160.98	68.343	9.6395e-06	102.87	497.104	197.943	221.101	178.900	300.195	337.599	177.612	183.460	269.611	293.561	181.480	184.927	186.840	191.536	268.036	189.013	-8191	255	
12227.480	1	1	0	0	0.27014	0.064808	0.11113	0.081136	0.098435	0.073589	0.21143	0.4132	0.061806	0.21657	0.022146	0.028714	0.083425	0.093817	0.136	0.15843	-4.2979	-4.4146	-4.0104	-4.8292	-4.2229	-4.1021	-4.8042	-4.2812	-4.4521	-4.525	-4.1333	-4.8021	-4.4542	-4.4229	-4.6083	-4.2604	428.750	186.266	372.909	402.535	469.451	326.262	166.660	505.471	192.618	261.456	215.641	170.389	483.215	466.016	482.085	512.939	0.0019173	0.00072017	0.00026946	1003.5	1.029e-05	1.3465e-05	1001.3	409.61	9.3766e-06	3.3456e-06	411.93	180.73	165.51	69.459	4.9418e-06	105.31	0.00096109	0.00087554	0.00024301	982.51	9.4886e-06	9.7881e-06	976.72	400.06	9.8863e-06	9.9297e-06	405.16	176.79	161.59	68.482	9.9152e-06	103.4	496.463	256.769	284.426	178.840	308.371	309.535	177.925	183.461	265.552	312.819	181.591	184.887	187.195	191.575	270.197	188.940	-8191	255	
12227.598	1	1	0	0	0.16118	0.35596	0.059168	0.23395	0.30541	0.13602	0.17315	0.089995	0.12479	0.099413	0.2715	0.33216	0.13358	0.34021	0.23291	0.042458	-4.1542	-4.6146	-4.125	-4.6854	-4.2917	-4.0667	-4.7854	-4.3688	-4.4333	-4.5792	-4.2021	-4.6542	-4.3583	-4.2917	-4.7167	-4.4938	301.472	464.646	410.279	450.634	220.820	440.945	518.039	507.375	426.836	429.453	174.534	455.641	166.590	515.652	186.804	236.861	0.0018839	0.00047046	0.00011364	1009.9	7.3513e-06	9.8363e-06	1003.3	413.76	1.5393e-05	5.8644e-06	415.35	182.26	167.51	70.211	2.9603e-06	105.73	0.00096873	0.00088817	0.00024946	987.2	9.7387e-06	9.7565e-06	982.57	403.85	9.6879e-06	9.5769e-06	408.52	178.09	163.66	69.162	9.6061e-06	103.78	495.239	238.131	282.203	178.897	289.645	344.218	177.455	183.567	266.183	294.785	181.622	184.835	186.684	191.512	396.457	188.838	-8191	255	
12227.695	1	1	0	0	0.12057	0.16787	0.037788	0.094385	0.032653	0.099342	0.19632	0.27536	0.058301	0.19752	0.11781	0.23617	0.30043	0.15134	0.30768	0.22	-4.075	-4.6333	-4.0542	-4.5938	-4.5271	-3.9917	-4.7521	-4.3604	-4.1875	-4.6188	-4.1021	-4.6292	-4.6813	-4.2125	-4.7	-4.4083	493.709	222.868	241.350	451.979	422.687	423.641	365.409	462.743	420.727	428.418	457.207	424.841	513.973	170.455	213.688	456.896	0.0019707	0.00054334	0.00015272	1010.9	7.7326e-06	6.4942e-06	999.74	414.34	7.1907e-06	5.9183e-06	409.84	181	165.67	69.829	1.0302e-05	104.56	0.00095075	0.00088315	0.00024578	986.87	9.65e-06	9.7225e-06	975.4	403.3	9.8556e-06	9.8619e-06	404.09	176.55	162.32	68.844	9.8138e-06	103	497.053	243.448	307.015	178.743	338.542	300.587	177.620	183.476	304.506	278.730	181.398	185.002	186.543	191.476	295.379	188.991	-8191	255	
12227.791	1	1	0	0	0.27992	0.23986	0.13738	0.17227	0.1542	0.15722	0.359	0.12293	0.058418	0.10495	0.24813	0.17075	0.25852	0.29827	0.14193	0.15108	-3.9667	-4.6083	-4.1687	-4.5896	-4.5125	-4.1396	-4.7958	-4.6333	-4.1292	-4.7625	-4.075	-4.6104	-4.65	-4.3438	-4.7125	-4.4396	264.976	359.108	191.399	472.506	393.980	249.588	453.026	494.566	217.600	247.914	448.250	250.811	475.708	480.378	233.291	489.356	0.0017257	0.0006138	0.00017191	1007.3	4.9731e-06	1.016e-05	993.34	411.74	8.7988e-06	1.3185e-05	410.67	181.42	166.16	69.869	4.9367e-06	104.84	0.00096033	0.00088908	0.00024675	985.06	9.4993e-06	9.6488e-06	972.15	402.6	9.595e-06	9.7836e-06	404.52	176.94	162.82	69.007	9.7679e-06	103.21	493.357	222.399	249.337	178.840	290.118	333.230	177.766	183.481	238.239	334.937	181.375	185.076	186.882	191.568	218.529	189.186	-8191	255	
12227.862	1	1	0	0	0.25378	0.10853	0.24577	0.45073	0.069282	0.19809	0.11325	0.2349	0.18586	0.14538	0.14294	0.098603	0.31583	0.19989	0.17774	0.19758	-3.6312	-4.5687	-4.1208	-4.5	-4.4896	-3.9813	-4.5229	-4.6438	-4.1188	-4.7812	-4.1146	-4.3812	-4.6625	-4.0333	-4.5062	-4.5958	382.143	487.089	366.194	437.116	250.280	258.668	435.025	406.937	491.633	462.684	446.261	247.660	518.122	190.536	232.738	494.218	0.0019481	0.00069541	0.00016602	1012.4	7.957e-06	9.7113e-06	998.58	414.53	1.0941e-05	9.2806e-06	413.67	180.95	165.36	69.541	1.2468e-05	104.39	0.00095438	0.00087391	0.00024557	988.13	9.4625e-06	9.517e-06	977.57	403.8	9.5207e-06	9.7491e-06	405.99	176.82	162.05	68.591	9.7836e-06	102.92	498.706	256.540	236.172	179.054	285.955	319.405	177.650	183.435	252.673	297.546	181.647	185.268	186.812	191.480	286.043	189.073	-8191	255	
12227.959	1	1	0	0	0.14054	0.17555	0.37587	0.14345	0.11496	0.094277	0.21285	0.46571	0.28096	0.099191	0.37975	0.1823	0.14448	0.11881	0.11354	0.22905	-3.6833	-4.7458	-4.3375	-4.3021	-4.7229	-4.1146	-4.7229	-4.5333	-3.9813	-4.7375	-4.3646	-4.4104	-4.6604	-4.175	-4.5229	-4.6125	188.310	335.226	380.450	512.555	344.747	515.044	460.293	463.297	473.293	307.728	469.044	485.298	497.455	330.268	329.490	487.353	0.0019725	0.0007744	0.00027895	1007.5	3.9014e-06	4.4242e-06	999.33	409.92	1.2027e-05	9.4771e-06	410.62	180.09	165.16	69.391	6.1804e-06	105.01	0.00096782	0.00090742	0.00025447	983.26	9.9424e-06	1.006e-05	976.13	401.04	1.0313e-05	1.0429e-05	404.27	176.31	162.2	68.606	1.027e-05	103.26	496.101	247.310	261.604	179.013	220.492	343.822	177.772	183.550	296.807	320.011	181.343	184.841	187.004	191.639	295.162	189.045	-8191	255	
12228.079	1	1	0	0	0.14751	0.14251	0.052134	0.034498	0.12467	0.12067	0.30919	0.27333	0.10458	0.13378	0.091484	0.2316	0.060333	0.1223	0.054143	0.071741	-3.5563	-4.6479	-4.3667	-4.3562	-4.6937	-4.3104	-4.5729	-4.7854	-4.1167	-4.4917	-4.4604	-4.2833	-4.7792	-4.1708	-4.4458	-4.7229	386.330	410.298	489.020	501.023	222.522	194.258	483.602	452.599	396.091	378.483	334.618	466.555	480.441	178.979	429.943	189.522	0.0017852	0.00026848	4.003e-05	1012	8.0021e-06	1.22e-05	1005	416.96	6.5641e-06	1.0431e-05	412.88	180.5	167.04	70.69	6.2917e-06	106.01	0.00099174	0.00092984	0.00025375	991.17	9.5338e-06	9.5378e-06	984.21	406.84	9.3987e-06	9.2816e-06	407	176.39	163.31	69.631	9.1669e-06	103.96	496.383	254.241	305.381	178.936	273.466	317.284	177.688	183.324	259.763	334.505	181.559	184.869	186.758	191.386	310.527	188.927	-8191	255	
12228.175	1	1	0	0	0.034263	0.04252	0.038133	0.27264	0.1525	0.16838	0.31079	0.31133	0.14118	0.099897	0.065415	0.042751	0.16856	0.20708	0.14232	0.34368	-3.6937	-4.6562	-4.2667	-4.2646	-4.5542	-4.2604	-4.55	-4.8667	-4.0687	-4.4271	-4.6021	-4.325	-4.8396	-4.3708	-4.2854	-4.8021	166.221	489.261	372.640	455.654	335.713	310.865	369.768	435.311	417.605	178.782	249.166	166.590	498.091	199.581	291.482	458.453	0.0018905	0.00098256	0.00031064	1026.9	7.2929e-06	7.7411e-06	1013.1	426.01	1.2033e-05	1.3294e-05	420.44	182.52	170.52	71.687	6.6562e-06	106.92	0.0008981	0.00083411	0.00023135	1002.2	8.8992e-06	8.9149e-06	991.54	413.89	8.5188e-06	8.7086e-06	412.11	178.53	166.12	70.576	8.3993e-06	104.38	496.873	249.869	261.510	178.896	298.249	259.701	177.427	183.461	293.515	307.840	181.126	184.872	186.716	191.338	287.390	188.953	-8191	255	
12228.271	1	1	0	0	0.27583	0.11869	0.18063	0.19885	0.13023	0.0418	0.08423	0.36131	0.066066	0.099629	0.22602	0.30946	0.20712	0.2779	0.087091	0.15422	-3.6396	-4.4604	-4.3688	-4.2854	-4.6708	-4.4354	-4.3708	-4.6875	-4.1917	-4.4187	-4.4229	-4.1	-4.825	-4.4875	-4.1312	-4.7979	260.076	366.449	246.206	188.464	200.476	314.893	466.933	504.174	213.092	473.022	440.461	182.315	233.181	517.406	488.963	457.499	0.0018781	0.00060337	0.00031438	1022.2	1.1576e-05	5.592e-06	1005.9	420.91	1.082e-05	8.7913e-06	414	179.91	167.66	70.825	6.9491e-06	105.63	0.00084637	0.00079486	0.0002202	998.29	8.7391e-06	8.8819e-06	983.81	410.83	9.0238e-06	9.2571e-06	406.09	175.72	163.86	69.761	9.2307e-06	103.44	501.132	190.498	232.167	179.097	303.603	400.063	177.717	183.341	238.097	372.172	181.523	184.871	186.927	191.419	280.316	188.785	-8191	255	
12228.392	1	1	0	0	0.10347	0.14993	0.17616	0.075045	0.15214	0.098915	0.10491	0.24594	0.20096	0.21057	0.097599	0.23322	0.1093	0.20578	0.15302	0.18596	-3.7583	-4.4229	-4.4563	-4.1146	-4.6188	-4.3104	-4.225	-4.7479	-4.125	-4.2812	-4.7917	-4.05	-4.6458	-4.4292	-4.025	-4.9167	477.132	462.409	343.630	202.950	512.152	309.011	215.297	506.838	321.220	215.157	274.161	168.178	192.462	241.290	211.690	445.986	0.0018289	0.00091199	0.00035032	1019.3	7.8692e-06	9.08e-06	1003.8	418.31	1.2885e-05	6.2521e-06	414.07	181.47	167.46	70.585	1.4134e-05	105.17	0.00090042	0.00084823	0.00023276	994.57	9.157e-06	9.0955e-06	980.75	408.85	8.9439e-06	9.061e-06	406.77	176.65	163.88	69.479	9.3563e-06	103.21	498.390	246.308	269.491	179.138	278.198	294.400	177.740	183.595	300.854	361.268	181.407	185.054	186.627	191.455	289.672	188.876	-8191	255	
12228.464	1	1	0	0	0.1723	0.20593	0.25844	0.19002	0.058068	0.30629	0.075353	0.16359	0.080254	0.089893	0.063243	0.0053292	0.22499	0.30121	0.17046	0.20494	-3.7792	-4.1188	-4.5938	-4.1146	-4.4396	-4.4313	-4.1875	-4.9833	-4.2312	-4.375	-4.8125	-4.1396	-4.5479	-4.6729	-4.0604	-4.8208	501.362	382.652	369.935	456.317	253.944	443.241	453.405	374.191	230.523	473.934	285.156	210.539	520.464	491.017	393.306	404.657	0.0018467	0.0006304	0.00018589	1016.7	3.7834e-06	1.2621e-05	1005.3	418.08	1.0272e-05	8.7968e-06	416.83	183.13	169.56	71.033	6.341e-06	106.08	0.00092257	0.00086189	0.00023748	995.04	9.2851e-06	9.3476e-06	983.11	408.44	9.1089e-06	9.1445e-06	409.46	178.54	165.19	69.77	8.8379e-06	104.22	498.647	243.858	293.453	179.125	318.233	301.742	177.588	183.461	261.553	339.887	181.597	184.967	186.921	191.473	301.428	188.780	-8191	255	
12228.560	1	1	0	0	0.18145	0.035961	0.12896	0.16817	0.11131	0.15824	0.36243	0.078715	0.11684	0.21374	0.22104	0.09714	0.2145	0.083953	0.17093	0.084925	-3.7958	-4.2083	-4.4708	-4.2667	-4.3479	-4.4771	-4.175	-4.6896	-4.3604	-4.2208	-4.8896	-4.0917	-4.4875	-4.5813	-4.025	-4.7	181.575	430.167	355.539	486.087	197.776	347.775	435.375	227.331	190.605	493.446	476.927	248.408	393.329	428.817	186.061	478.686	0.0019562	0.00077792	0.00027342	1015.2	7.8067e-06	5.8393e-06	1003.6	417.29	2.8332e-06	1.0697e-05	413.71	181.41	167.41	70.011	5.6674e-06	105.48	0.00088504	0.00080486	0.00022775	991.41	8.9674e-06	8.9787e-06	979.5	407.58	9.7186e-06	9.8062e-06	407.05	177.46	164.25	69.361	1.0112e-05	103.66	499.499	245.261	267.401	178.801	337.620	357.128	177.845	183.349	253.103	341.908	181.245	184.928	186.892	191.589	304.149	189.065	-8191	255	
12228.679	1	1	0	0	0.30578	0.14009	0.052747	0.27873	0.28138	0.046445	0.15617	0.23257	0.13322	0.14929	0.18835	0.19327	0.021905	0.25253	0.11152	0.14983	-4.1583	-4.1958	-4.7438	-4.0354	-4.3042	-4.625	-3.9458	-4.6396	-4.2833	-3.9938	-4.6188	-4.2063	-4.3125	-4.7604	-4.0938	-4.8229	336.051	430.751	515.074	409.226	341.276	394.407	429.682	427.173	420.376	389.735	468.830	438.436	326.190	175.009	299.976	496.019	0.001933	0.00088612	0.00022921	1014.8	6.3223e-06	6.8325e-06	998.01	415.8	1.5763e-05	5.0885e-06	412.41	181.01	167.28	70.179	9.8494e-06	104.74	0.00098803	0.0009241	0.00025634	991.26	9.9052e-06	9.8533e-06	976.82	407.37	9.4948e-06	9.5328e-06	406.63	176.92	163.94	69.222	9.7591e-06	102.82	498.663	214.597	252.920	179.101	319.387	309.992	177.611	183.481	281.212	371.837	181.427	184.939	186.905	191.643	280.965	188.993	-8191	255	
12228.775	1	1	0	0	0.032081	0.28783	0.13825	0.24633	0.22537	0.16446	0.049897	0.23189	0.068864	0.17315	0.24704	0.19516	0.083462	0.081164	0.20597	0.09323	-3.9896	-4.0062	-4.8333	-4.4917	-4.2354	-4.8	-4.2812	-4.675	-4.5	-4.0521	-4.7438	-4.2854	-4.0833	-4.7812	-3.9958	-4.5667	323.995	354.711	288.577	248.764	186.412	451.822	333.028	424.884	240.342	491.875	465.262	497.404	221.347	232.298	176.872	178.839	0.0019002	0.00089868	0.00025681	1010.3	8.595e-06	1.2412e-05	988.73	413.87	1.0482e-05	1.3197e-06	406.71	178.45	166.15	69.892	1.0498e-05	103.71	0.00097684	0.00091629	0.00026109	987.58	1.0306e-05	1.0576e-05	968.83	404.57	1.0585e-05	1.0564e-05	401.32	174.45	162.81	68.971	1.0706e-05	102.07	493.608	204.306	306.811	179.138	273.407	319.505	177.718	183.454	280.958	519.528	181.545	184.946	187.108	191.632	311.979	189.014	-8191	255	
12228.871	1	1	0	0	0.18833	0.069012	0.2974	0.192	0.22324	0.20256	0.20063	0.076732	0.27517	0.13222	0.26458	0.11732	0.085208	0.065057	0.064634	0.1917	-4.0583	-4.1708	-4.625	-4.4333	-4.05	-4.7188	-4.2	-4.6625	-4.6375	-3.9896	-4.6667	-4.4958	-4.2458	-4.7979	-4.0813	-4.4542	399.029	464.880	306.247	475.586	263.419	470.474	495.816	235.726	173.514	427.355	468.364	412.506	308.596	515.856	279.085	461.629	0.0018905	0.00017633	0.00028907	1006.4	7.2991e-06	4.2292e-06	983.07	414.02	1.1007e-05	5.8433e-06	408.96	177.3	165.29	69.204	1.4508e-05	103.01	0.0010062	0.0009408	0.00026448	983.42	9.9733e-06	1.0163e-05	962.79	404.16	1.016e-05	1.0204e-05	402.24	173.67	162.15	68.354	1.0763e-05	101.45	499.692	417.776	245.691	179.121	255.634	339.349	177.512	183.553	279.536	312.573	181.439	185.098	186.893	191.381	289.895	188.894	-8191	255	
12228.992	1	1	0	0	0.09712	0.11915	0.20632	0.35439	0.24092	0.18548	0.2128	0.13743	0.17501	0.2605	0.075477	0.20486	0.13038	0.19001	0.22334	0.16953	-4.2812	-3.9437	-4.4229	-4.45	-4.0208	-4.6583	-4.2438	-4.4146	-4.6021	-4.1188	-4.6583	-4.3938	-4.175	-4.7312	-4.0062	-4.2417	320.054	285.640	517.488	515.456	478.303	300.217	452.908	481.897	424.368	188.221	173.210	507.670	185.225	220.598	202.715	505.578	0.0020115	0.00041402	0.00036208	1008.9	8.5331e-06	8.6219e-06	982.45	410.82	9.5842e-06	6.0851e-06	407.42	178.51	165.78	69.183	6.5163e-06	103.5	0.0010488	0.0010062	0.00028374	984.06	1.0768e-05	1.1018e-05	966.76	402.64	1.0627e-05	1.0537e-05	402.26	174.77	162.57	68.286	1.0149e-05	101.65	497.859	243.233	291.667	179.227	293.137	371.866	177.623	183.710	264.503	279.112	181.554	184.885	186.949	191.365	240.082	188.951	-8191	255	
12229.088	1	1	0	0	0.035211	0.11557	0.062587	0.42759	0.061406	0.21205	0.17734	0.16262	0.11976	0.13233	0.2222	0.28535	0.22434	0.31874	0.20319	0.062724	-4.3438	-4.125	-4.4333	-4.5125	-4.1896	-4.5167	-4.4563	-4.4479	-4.6333	-4.0687	-4.7479	-4.6104	-4.0521	-4.7167	-4.4938	-4.4042	335.702	219.610	284.145	473.358	259.041	337.089	439.322	454.743	286.520	253.348	428.914	165.816	252.287	502.287	165.563	403.225	0.001898	0.00049401	0.00026843	1005.6	6.9802e-06	4.4902e-06	987.92	412.73	8.4172e-06	2.9527e-06	408.37	178.83	165.76	69.215	1.1123e-05	103.85	0.00098652	0.0009336	0.00026414	984.62	1.0196e-05	1.069e-05	968.29	404.3	1.0779e-05	1.105e-05	402.44	175.16	162.86	68.364	1.0913e-05	102.07	496.863	282.795	286.403	179.007	304.481	407.727	177.551	183.238	253.570	375.178	181.398	184.957	187.126	191.584	306.251	188.782	-8191	255	
12229.160	1	1	0	0	0.16149	0.06992	0.28324	0.29948	0.078577	0.18512	0.21867	0.11471	0.1067	0.24351	0.18394	0.15284	0.14952	0.30872	0.13138	0.14195	-4.3167	-4.0771	-4.3417	-4.7333	-3.8333	-4.5875	-4.5979	-4.2042	-4.7083	-4.1375	-4.4708	-4.7	-4.1604	-4.7438	-4.3833	-4.1333	299.657	209.829	261.286	425.244	448.793	525.150	170.441	486.531	377.270	311.601	355.125	171.003	466.133	500.498	492.421	165.849	0.0019235	0.00036133	0.0001261	1006.6	1.0264e-05	4.0924e-06	990.9	413.53	6.1984e-06	8.2049e-06	409.54	178.6	165.62	68.58	7.8873e-06	102.84	0.0010285	0.00095877	0.00027019	987.04	1.0206e-05	1.0261e-05	970.16	404.22	9.9808e-06	9.993e-06	403.25	174.79	162.07	67.871	1.053e-05	100.89	495.817	327.299	242.440	179.117	278.865	277.375	177.528	183.600	242.584	316.661	181.388	184.814	186.855	191.544	310.986	188.831	-8191	255	
12229.256	1	1	0	0	0.16495	0.13416	0.21989	0.18445	0.15994	0.10522	0.23566	0.33928	0.1818	0.079971	0.16167	0.19502	0.20668	0.10187	0.19501	0.077191	-4.2875	-4.1708	-4.3833	-4.7292	-4.1	-4.6354	-4.5208	-4.2708	-4.625	-4.2312	-4.1646	-4.7208	-4.0667	-4.6083	-4.4458	-4.2646	289.585	418.349	329.980	477.146	469.020	283.154	386.199	479.436	442.452	179.978	444.620	481.016	211.154	176.922	224.862	517.797	0.0019017	0.00077801	0.00020815	1001.2	9.7733e-06	9.5695e-06	974.46	408.22	1.2664e-05	3.8585e-06	401.27	175.37	163.15	68.387	3.9074e-06	102.27	0.001033	0.0010075	0.00028549	979.88	1.1218e-05	1.1506e-05	960.28	399.33	1.1369e-05	1.131e-05	396.52	172.1	159.99	67.484	1.0611e-05	100.49	495.919	277.131	276.852	179.149	267.043	339.621	177.747	183.576	266.205	361.868	181.442	184.928	187.058	191.446	268.587	189.130	-8191	255	
12229.376	1	1	0	0	0.14632	0.067297	0.071287	0.24456	0.14724	0.14502	0.064123	0.36866	0.11407	0.063056	0.16592	0.13428	0.24972	0.29508	0.19482	0.028228	-4.325	-4.2542	-4.3313	-4.7688	-4.1125	-4.4187	-4.7271	-4.2771	-4.7	-4.2667	-4.2875	-4.7146	-4.2917	-4.5875	-4.5604	-4.1479	250.068	523.270	514.360	472.931	181.221	520.890	506.334	505.640	391.053	316.442	465.942	341.391	505.537	502.910	493.187	443.772	0.0017874	0.0007589	0.00015487	991.98	1.2144e-05	1.3874e-05	973.15	405.58	1.5206e-05	5.7317e-06	400.12	175.66	161.74	67.649	9.2433e-06	101.73	0.0010099	0.00094138	0.00025848	975.18	1.0041e-05	1.0191e-05	956.18	396.97	1.0314e-05	1.0515e-05	395.37	171.51	159.05	66.991	1.0878e-05	99.85	498.034	248.606	199.170	179.176	268.194	319.898	177.576	183.432	266.484	282.401	181.562	184.879	187.055	191.358	249.217	188.943	-8191	255	
12229.471	1	1	0	0	0.17161	0.16741	0.103	0.076366	0.15793	0.070123	0.17643	0.18022	0.15999	0.17344	0.43695	0.15624	0.20794	0.020524	0.21702	0.28887	-4.1271	-4.2229	-4.05	-4.8583	-4.2458	-4.3917	-4.6771	-4.1562	-4.4083	-4.3812	-4.0875	-4.75	-4.25	-4.3583	-4.6354	-4.1354	384.209	383.971	471.856	208.394	236.075	401.072	433.957	480.404	213.466	390.608	391.038	224.249	479.748	455.814	406.526	468.437	0.0018267	0.0010098	0.00028805	993.99	8.8083e-06	6.654e-06	980.74	404.93	1.1864e-05	6.7928e-06	401.97	174.97	161.79	67.498	5.8127e-06	102.06	0.0010633	0.0010045	0.00027637	975.28	1.0729e-05	1.0738e-05	960.87	396.05	1.0465e-05	1.053e-05	396.82	171.38	158.78	66.689	1.0296e-05	100.43	500.068	235.317	260.470	179.060	321.257	321.894	177.589	183.618	263.304	373.739	181.350	185.029	187.107	191.498	276.168	189.174	-8191	255	
12229.567	1	1	0	0	0.15891	0.061102	0.15828	0.21753	0.31699	0.09225	0.19179	0.25386	0.018394	0.047007	0.14319	0.1932	0.1683	0.11099	0.17881	0.25817	-4.0792	-4.4521	-3.9542	-4.7646	-4.2708	-4.2146	-4.7875	-4.275	-4.4563	-4.5667	-4.1562	-4.7583	-4.2625	-4.3021	-4.6813	-4.2625	321.196	299.611	271.195	477.083	226.579	233.477	414.130	457.434	392.163	213.450	428.154	222.088	344.110	509.202	386.312	417.874	0.0018466	0.0011528	0.00025313	994.17	5.7521e-06	1.246e-05	982.16	399.29	9.4103e-06	5.1795e-06	395.48	174.69	159.28	67.45	5.5347e-06	102.96	0.0010153	0.00095767	0.00026916	971.54	1.0872e-05	1.1063e-05	964.65	391.98	1.1503e-05	1.1526e-05	393.73	171.28	156.98	66.843	1.1186e-05	101.2	496.713	205.628	271.145	178.571	331.507	306.650	177.711	183.785	240.405	358.972	181.675	185.089	187.130	191.756	290.157	189.189	-8191	255	
12229.663	1	1	0	0	0.11376	0.16084	0.11232	0.19564	0.055317	0.10706	0.06805	0.18748	0.15243	0.049554	0.152	0.1762	0.19668	0.10474	0.29839	0.15249	-4.0437	-4.5354	-4.025	-4.7104	-4.2375	-3.8187	-4.9396	-4.3	-4.3354	-4.6625	-4.1042	-4.6083	-4.4833	-4.1146	-4.5458	-4.3292	169.278	325.059	472.596	448.606	410.943	182.623	444.703	514.216	442.057	522.104	439.389	487.298	489.759	169.331	210.521	515.639	0.001945	0.00063629	0.00016608	996.82	8.9055e-06	1.2768e-05	992.34	400.5	1.7117e-05	6.9375e-06	401.75	174.22	159.25	67.776	7.8024e-06	101.97	0.0010658	0.0009915	0.00027584	975.98	1.0452e-05	1.0598e-05	972.13	392.39	1.077e-05	1.0723e-05	396.57	171.57	157.04	66.853	1.1742e-05	100.73	500.637	250.070	263.677	179.009	247.677	323.667	177.695	183.596	220.233	327.871	181.675	184.834	187.176	191.688	295.469	189.155	-8191	255	
12229.759	1	1	0	0	0.18495	0.19732	0.10718	0.10811	0.14055	0.26498	0.11333	0.25473	0.085696	0.10997	0.030744	0.1078	0.24413	0.14124	0.089501	0.1686	-4.1333	-4.425	-4.1542	-4.7875	-4.3812	-4.0792	-4.8083	-4.3396	-4.1646	-4.6375	-4.35	-4.6167	-4.5333	-4.0896	-4.7375	-4.4458	499.561	379.235	430.481	460.388	476.798	443.970	243.393	499.543	260.375	205.502	438.311	514.533	506.784	291.091	482.458	465.134	0.0017436	0.00037335	0.00038764	994.42	7.1838e-06	1.2183e-05	980.93	397.83	1.1876e-05	7.5094e-06	397.17	172.54	157.52	67.428	9.1222e-06	101.09	0.0011579	0.0011236	0.00031342	978.34	1.2074e-05	1.2245e-05	963.63	390.58	1.2127e-05	1.1899e-05	392.17	169.81	155.51	66.63	1.2184e-05	99.894	495.795	208.468	257.945	179.141	328.511	355.672	177.471	183.519	255.793	324.881	181.282	184.875	186.826	191.690	276.609	189.306	-8191	255	
12229.855	1	1	0	0	0.22373	0.029157	0.11393	0.058448	0.22996	0.22191	0.22356	0.30609	0.09432	0.11124	0.18409	0.13514	0.18377	0.34652	0.20231	0.033181	-3.8958	-4.55	-4.0417	-4.6396	-4.5229	-4.0125	-4.6542	-4.4812	-4.0083	-4.6667	-4.1438	-4.575	-4.6542	-4.0229	-4.7583	-4.3938	423.379	389.772	419.321	419.287	250.913	426.628	338.377	479.672	296.672	333.602	242.007	411.294	513.631	439.900	252.344	475.561	0.0018488	0.0010284	0.00022022	994.24	1.0114e-05	1.1347e-05	970.49	393.21	1.2073e-05	3.4904e-06	388.48	168.13	155.38	66.844	7.8699e-06	99.871	0.0011811	0.0011653	0.00033562	974.94	1.3661e-05	1.406e-05	960.33	389.11	1.5487e-05	1.5781e-05	387.95	167.41	154.83	66.525	1.5371e-05	99.173	499.524	255.704	267.646	179.158	291.827	313.102	177.424	183.566	266.427	272.240	181.541	184.918	187.191	191.705	272.149	188.932	-8191	255	
12229.951	1	1	0	0	0.032993	0.21716	0.079976	0.24107	0.11646	0.16856	0.28596	0.10436	0.16796	0.0048501	0.18082	0.13608	0.14142	0.11664	0.16831	0.25229	-3.6625	-4.8042	-4.0938	-4.4125	-4.5667	-4.0813	-4.8688	-4.5479	-4.2812	-4.7417	-4.2958	-4.2896	-4.7271	-4.15	-4.4833	-4.4375	457.625	188.838	445.916	509.366	426.822	167.696	185.018	449.579	488.821	219.322	173.628	203.807	525.215	224.183	326.710	464.868	0.0018963	0.00074577	0.00022762	988.35	5.1663e-07	4.3833e-06	967.35	393.2	4.7464e-06	1.184e-05	384.15	167.01	153.12	65.757	1.1849e-05	98.955	0.0013823	0.0013528	0.00036751	973.43	1.4597e-05	1.4919e-05	957.23	387.14	1.5694e-05	1.6445e-05	385.55	166.55	153.65	65.86	1.8621e-05	98.415	494.200	244.903	240.835	179.188	238.742	353.512	177.620	183.686	214.287	301.781	181.625	185.180	187.152	191.737	271.146	189.416	-8191	255	
12230.072	1	1	0	0	0.026961	0.073227	0.10023	0.20561	0.085996	0.13987	0.27765	0.16567	0.13833	0.27339	0.2212	0.10166	0.036555	0.22884	0.058978	0.54231	-3.9167	-4.6062	-4.2708	-4.4229	-4.7292	-4.1167	-4.6667	-4.6021	-4.0979	-4.7333	-4.3938	-4.2812	-4.8646	-4.0604	-4.4417	-4.5396	319.932	344.334	331.260	311.127	393.586	463.081	411.854	506.159	216.686	232.022	455.013	507.441	341.882	468.152	337.353	474.282	0.0017639	0.00056462	0.00021826	978.79	6.1616e-06	1.9266e-05	962.69	386.57	1.7452e-05	2.5384e-06	382.89	166.71	152.45	65.129	1.0217e-05	99.016	0.0017022	0.0017543	0.00048599	973.81	1.8132e-05	1.8219e-05	958.03	383.34	1.7416e-05	1.7469e-05	385.44	166.68	153.25	65.317	1.838e-05	98.609	499.079	212.049	229.680	179.011	286.888	327.527	177.518	183.554	261.370	433.949	181.574	185.235	187.032	191.842	315.507	189.257	-8191	255	
12230.168	1	1	0	0	0.30149	0.081484	0.072952	0.043575	0.13411	0.14262	0.067538	0.36839	0.11167	0.069201	0.11106	0.14582	0.31706	0.22129	0.11283	0.35555	-3.5271	-4.6604	-4.2937	-4.3271	-4.6667	-4.1875	-4.4458	-4.7562	-3.9562	-4.5417	-4.3833	-4.0854	-4.8562	-4.2438	-4.2604	-4.8396	262.154	352.978	508.679	441.827	223.275	415.850	405.683	451.427	266.817	402.755	492.185	233.088	203.657	445.305	457.985	485.404	0.0018972	0.00029628	0.00013258	976.68	3.6562e-06	5.8502e-06	964.59	385.37	6.293e-06	7.1522e-06	383.02	167.7	151.88	65.509	1.1446e-05	100.05	0.0017282	0.0017842	0.00050328	974.98	2.0391e-05	2.1217e-05	966.44	383.71	2.1386e-05	2.1647e-05	388.63	168.65	154.02	66.117	2.1399e-05	99.971	495.769	411.971	292.641	179.138	364.271	266.363	177.576	183.636	211.600	242.048	181.383	185.141	187.147	191.988	292.304	189.278	-8191	255	
12230.264	1	1	0	0	0.06425	0.10941	0.076814	0.22745	0.255	0.23532	0.33272	0.12838	0.18731	0.16216	0.11759	0.24899	0.019973	0.11334	0.032973	0.18038	-3.7208	-4.6312	-4.2896	-4.2708	-4.8562	-4.1354	-4.4146	-4.6146	-4.0833	-4.5083	-4.4833	-4.0687	-4.7583	-4.3333	-4.2979	-4.6979	266.722	271.899	168.200	434.695	484.710	481.274	449.503	460.198	296.280	466.935	249.680	427.451	524.064	238.611	268.101	443.015	0.0017902	0.0006133	0.00026895	973.66	5.0312e-06	5.1745e-06	959.68	380.66	8.7685e-06	9.1837e-06	375.7	164.35	150.06	65.171	1.0442e-05	97.962	0.001953	0.0020512	0.00057467	975.83	2.3359e-05	2.4489e-05	964.53	382.03	2.592e-05	2.7353e-05	386.49	167.77	154.67	66.328	2.8101e-05	99.147	499.813	291.228	254.211	179.167	378.773	318.195	177.625	183.733	270.558	283.722	181.607	185.060	187.500	192.238	352.828	189.245	-8191	255	
12230.361	1	1	0	0	0.067512	0.21846	0.037675	0.31248	0.052691	0.080166	0.083501	0.23177	0.18073	0.19203	0.24078	0.28169	0.0091421	0.057675	0.19428	0.22462	-3.6458	-4.4187	-4.3604	-4.0792	-4.6542	-4.1854	-4.275	-4.7125	-4.1125	-4.5271	-4.4979	-4.175	-4.6167	-4.2729	-4.2354	-4.6792	348.807	224.549	456.969	427.422	442.957	430.964	508.271	479.410	508.940	295.055	180.442	435.733	314.932	176.346	335.049	450.322	0.0017891	0.00097043	0.00027158	970.62	1.0411e-05	1.2096e-05	953.39	379.66	1.5759e-05	8.2375e-06	373.14	162.47	149.23	64.289	1.7661e-05	96.841	0.0024228	0.0025154	0.00069119	976.81	2.5526e-05	2.4817e-05	956.36	380.03	2.4598e-05	2.5517e-05	382.35	165.94	153.67	65.547	2.8363e-05	98.285	493.353	238.066	260.683	178.921	308.878	292.924	177.489	183.445	265.552	352.475	181.633	185.226	187.440	191.895	235.678	189.152	-8191	255	
12230.457	1	1	0	0	0.21087	0.040146	0.13029	0.11245	0.091624	0.10789	0.055118	0.092864	0.14151	0.12756	0.2471	0.24734	0.35039	0.13891	0.068418	0.30047	-3.8458	-4.5312	-4.4396	-4.0375	-4.4729	-4.1833	-4.3125	-4.7146	-4.1875	-4.5	-4.6	-4.0188	-4.5458	-4.4458	-3.9813	-4.9042	425.018	342.673	209.479	475.205	289.461	405.948	492.479	447.506	294.914	519.865	405.230	424.711	494.227	511.978	504.108	488.606	0.0016145	0.0005607	0.00046946	965.81	1.2902e-05	9.0114e-06	942.39	375.31	9.183e-06	1.0769e-05	369.02	160.83	147.2	63.544	9.8634e-06	96.87	0.0025667	0.0027625	0.00076883	978.86	2.9781e-05	3.0012e-05	959.97	378.7	2.9047e-05	2.9378e-05	382.36	165.12	152.06	64.656	2.6043e-05	97.471	489.396	310.617	260.967	179.176	311.234	265.685	177.611	183.948	288.652	318.340	181.598	185.215	187.470	192.109	241.421	189.405	-8191	255	
12230.553	1	1	0	0	0.37613	0.090419	0.26404	0.12195	0.1494	0.065981	0.12065	0.17062	0.25779	0.21348	0.24582	0.27871	0.10108	0.13786	0.23506	0.19754	-3.7875	-4.3396	-4.5958	-4.0167	-4.6375	-4.4396	-4.2292	-4.7146	-4.2146	-4.3729	-4.8229	-4.1438	-4.575	-4.5271	-4.0958	-4.8396	430.449	198.422	276.252	228.867	169.219	475.272	522.087	463.774	514.524	348.776	447.004	503.044	462.772	424.289	517.068	451.385	0.0017955	0.00060336	0.00016163	950.89	1.3584e-05	9.232e-06	942.17	369.56	2.5171e-06	6.2638e-06	365.48	158.3	144.08	62.55	1.0692e-05	95.747	0.0024262	0.0025811	0.00071415	964.8	2.937e-05	3.0626e-05	955.74	374.2	3.1928e-05	3.3094e-05	382.22	164.6	152.05	64.205	3.2218e-05	97.262	499.475	272.053	366.629	179.176	306.979	338.453	177.693	183.601	524.554	376.770	182.005	185.733	187.473	192.127	328.915	189.391	-8191	255	
12230.672	1	1	0	0	0.030506	0.13745	0.019226	0.1261	0.23765	0.14291	0.36942	0.098423	0.14433	0.16493	0.14954	0.23096	0.12719	0.10826	0.10655	0.41363	-3.8729	-4.2708	-4.6167	-4.2812	-4.4021	-4.4167	-4.2125	-4.6771	-4.3187	-4.1792	-4.8979	-4.2396	-4.2583	-4.6687	-4.0958	-4.75	470.079	414.728	187.304	496.777	363.763	492.422	199.940	444.334	442.507	329.753	444.903	479.908	188.933	491.587	307.968	447.353	0.0017536	0.00050108	7.081e-05	955.48	8.4837e-06	1.1514e-05	936.51	369.57	2.4577e-06	5.0176e-06	366.72	161.48	145.51	62.697	9.3589e-06	95.769	0.0027322	0.0028436	0.00076977	966.27	2.8509e-05	2.7909e-05	950.42	372.18	2.7136e-05	2.7971e-05	379.97	165.42	151.48	64.184	2.9902e-05	97.405	500.197	218.258	332.388	179.109	250.093	288.602	177.608	183.721	221.119	370.654	181.573	185.218	187.267	192.352	282.143	189.557	-8191	255	
12230.768	1	1	0	0	0.14399	0.22047	0.080093	0.16552	0.064805	0.16773	0.094438	0.18611	0.04422	0.22638	0.16184	0.08754	0.22458	0.15004	0.29149	0.14426	-4.1625	-4.2271	-4.7063	-4.2771	-4.3688	-4.7083	-4.2208	-4.7021	-4.3562	-4.0104	-4.8542	-4.2063	-4.4938	-4.8146	-3.9417	-4.6979	255.041	315.069	326.364	525.455	411.941	289.859	479.391	428.584	480.416	450.939	404.918	497.020	374.158	518.673	465.941	387.401	0.0016058	0.0015947	0.00029829	949.79	5.7742e-06	6.5042e-06	933.12	368.57	2.9182e-06	7.3912e-06	368.68	162.11	146.79	63.259	5.3597e-06	96.315	0.0026941	0.002849	0.00079523	966.72	2.9548e-05	2.9233e-05	947.73	371.62	2.6634e-05	2.6759e-05	380.87	165.82	150.96	64.235	2.508e-05	97.396	496.732	314.692	234.771	179.290	337.338	283.636	177.671	184.160	441.277	382.805	181.559	185.364	187.490	192.192	330.456	189.603	-8191	255	
12230.864	1	1	0	0	0.14095	0.16748	0.034844	0.087427	0.0011101	0.084263	0.15864	0.28951	0.163	0.042879	0.18582	0.31983	0.21702	0.11325	0.075488	0.22485	-4.0563	-3.9813	-4.8063	-4.2604	-4.3333	-4.4938	-4.2312	-4.525	-4.3938	-4.0271	-4.7375	-4.2438	-4.225	-4.8333	-4.0458	-4.5854	493.244	362.556	349.603	420.801	180.000	362.257	187.231	463.937	177.739	510.808	455.663	520.753	519.046	485.234	431.263	502.210	0.0018685	0.00088945	0.00036199	941.93	6.6619e-06	5.7705e-06	913.17	363.8	1.4584e-05	1.187e-06	360.68	157.59	144.1	62.369	1.8352e-05	94.796	0.0023735	0.0025581	0.00074071	956.69	3.1142e-05	3.2927e-05	940.08	371.8	3.5424e-05	3.7287e-05	383.25	166.07	153.97	64.809	3.8391e-05	97.472	496.513	475.656	323.687	179.144	243.651	324.213	177.478	183.771	297.321	398.492	181.662	185.292	187.308	192.290	276.598	189.410	-8191	255	
12230.960	1	1	0	0	0.102	0.26445	0.16519	0.35052	0.28972	0.20996	0.15003	0.16364	0.077049	0.1253	0.14966	0.035473	0.13579	0.21017	0.088661	0.11704	-4.0896	-4.0646	-4.6271	-4.325	-4.2688	-4.8667	-4.2833	-4.5896	-4.5729	-4.1792	-4.6125	-4.3729	-4.1208	-4.7708	-4.2354	-4.5833	176.547	515.347	329.119	183.401	350.440	251.309	452.629	498.791	311.000	414.164	362.548	207.813	392.054	499.869	334.132	466.937	0.0017806	0.00058383	0.00028446	950.41	5.6786e-06	9.9592e-06	925.43	366.97	1.5909e-05	1.0187e-05	362.58	159.55	145.26	63.062	4.154e-06	95.083	0.0032081	0.0033766	0.00093322	972.14	3.4776e-05	3.5082e-05	953.4	375.34	3.5296e-05	3.629e-05	384.66	167.4	154.67	65.467	3.7942e-05	98.05	498.858	454.713	200.908	178.922	282.253	282.283	177.722	183.761	282.620	276.812	181.658	185.377	187.116	192.191	359.811	189.441	-8191	255	
12231.056	1	1	0	0	0.10423	0.12492	0.1869	0.030755	0.13891	0.19678	0.11065	0.026236	0.071032	0.19315	0.1249	0.18675	0.13861	0.19901	0.1461	0.25766	-4.1917	-3.9854	-4.5354	-4.3812	-4.0833	-4.7792	-4.1833	-4.3812	-4.6375	-4.1667	-4.6333	-4.3896	-4.0646	-4.7438	-4.15	-4.4146	414.780	246.475	338.115	236.969	482.587	271.629	199.310	336.366	190.005	452.624	508.035	181.091	438.379	182.123	432.049	446.755	0.0019043	0.0013059	7.7504e-05	948.89	1.0483e-05	1.6674e-05	927.8	369.12	9.8838e-06	1.4426e-05	365.7	161.11	145.99	62.443	1.8503e-05	94.952	0.0033422	0.0035777	0.0010055	976.97	3.8311e-05	3.9008e-05	958.7	378.79	3.8588e-05	3.9089e-05	389.18	169.26	155.77	65.039	3.9305e-05	97.86	495.228	236.890	430.328	179.244	267.209	276.834	177.784	183.752	289.109	399.302	181.583	185.186	187.110	192.162	263.275	189.469	-8191	255	
#DATA ENDS
