BOXY.EXE: ISS Imagent and Oximeter Data Acquisition Program Version 0.80
Ascii Record File

#ACQ INFORMATION
2  Detector Channels 
16  External MUX Channels 
1  Auxiliary Channels 
5000  Waveform (CCF) Frequency (Hz)
1  Waveforms Skipped 
30  Waveforms Averaged 
1  Cycles Averaged 
16  Acquisitions per Waveform 
10.0806  Updata Rate (Hz) 

#FILE INFORMATION
TRUE -- External MUX Channel results are PARSED.
FALSE -- AC DC and Phase are NOT grouped.
TRUE -- Companion Program Settings File CREATED.
FALSE -- AC data not excluded
FALSE -- DC data not excluded
FALSE -- Phase data not excluded
FALSE -- Auxillary Chn. data not excluded
Tab delimiters

#CALIBRATION STATE
TRUE -- Waveform Calibration Values APPLIED.


#AUX CALIBRATION VALUES
Val Type	aux-1	

Term	1.0000e+00	
Factor	0.0000e+00	


#WF CALIBRATION VALUES
A = Detector Channel
Val Type	A-AC1	A-AC2	A-AC3	A-AC4	A-AC5	A-AC6	A-AC7	A-AC8	A-AC9	A-AC10	A-AC11	A-AC12	A-AC13	A-AC14	A-AC15	A-AC16	A-DC1	A-DC2	A-DC3	A-DC4	A-DC5	A-DC6	A-DC7	A-DC8	A-DC9	A-DC10	A-DC11	A-DC12	A-DC13	A-DC14	A-DC15	A-DC16	A-Ph1	A-Ph2	A-Ph3	A-Ph4	A-Ph5	A-Ph6	A-Ph7	A-Ph8	A-Ph9	A-Ph10	A-Ph11	A-Ph12	A-Ph13	A-Ph14	A-Ph15	A-Ph16	

Term	0.00000e+00	0.00000e+00	0.00000e+00	0.00000e+00	0.00000e+00	0.00000e+00	0.00000e+00	0.00000e+00	0.00000e+00	0.00000e+00	0.00000e+00	0.00000e+00	0.00000e+00	0.00000e+00	0.00000e+00	0.00000e+00	0.00000e+00	0.00000e+00	0.00000e+00	0.00000e+00	0.00000e+00	0.00000e+00	0.00000e+00	0.00000e+00	0.00000e+00	0.00000e+00	0.00000e+00	0.00000e+00	0.00000e+00	0.00000e+00	0.00000e+00	0.00000e+00	0.00000e+00	0.00000e+00	0.00000e+00	0.00000e+00	0.00000e+00	0.00000e+00	0.00000e+00	0.00000e+00	0.00000e+00	0.00000e+00	0.00000e+00	0.00000e+00	0.00000e+00	0.00000e+00	0.00000e+00	0.00000e+00	
Factor	1.00000e+00	1.00000e+00	1.00000e+00	1.00000e+00	1.00000e+00	1.00000e+00	1.00000e+00	1.00000e+00	1.00000e+00	1.00000e+00	1.00000e+00	1.00000e+00	1.00000e+00	1.00000e+00	1.00000e+00	1.00000e+00	1.00000e+00	1.00000e+00	1.00000e+00	1.00000e+00	1.00000e+00	1.00000e+00	1.00000e+00	1.00000e+00	1.00000e+00	1.00000e+00	1.00000e+00	1.00000e+00	1.00000e+00	1.00000e+00	1.00000e+00	1.00000e+00	X	X	X	X	X	X	X	X	X	X	X	X	X	X	X	X	

B = Detector Channel
Val Type	B-AC1	B-AC2	B-AC3	B-AC4	B-AC5	B-AC6	B-AC7	B-AC8	B-AC9	B-AC10	B-AC11	B-AC12	B-AC13	B-AC14	B-AC15	B-AC16	B-DC1	B-DC2	B-DC3	B-DC4	B-DC5	B-DC6	B-DC7	B-DC8	B-DC9	B-DC10	B-DC11	B-DC12	B-DC13	B-DC14	B-DC15	B-DC16	B-Ph1	B-Ph2	B-Ph3	B-Ph4	B-Ph5	B-Ph6	B-Ph7	B-Ph8	B-Ph9	B-Ph10	B-Ph11	B-Ph12	B-Ph13	B-Ph14	B-Ph15	B-Ph16	

Term	0.00000e+00	0.00000e+00	0.00000e+00	0.00000e+00	0.00000e+00	0.00000e+00	0.00000e+00	0.00000e+00	0.00000e+00	0.00000e+00	0.00000e+00	0.00000e+00	0.00000e+00	0.00000e+00	0.00000e+00	0.00000e+00	0.00000e+00	0.00000e+00	0.00000e+00	0.00000e+00	0.00000e+00	0.00000e+00	0.00000e+00	0.00000e+00	0.00000e+00	0.00000e+00	0.00000e+00	0.00000e+00	0.00000e+00	0.00000e+00	0.00000e+00	0.00000e+00	2.93131e+01	-1.38054e+02	-1.55137e+02	-1.83507e+02	-8.93409e+01	-7.38741e+01	-1.57185e+02	-1.62015e+02	-1.04756e+02	-8.47356e+01	-1.72626e+02	-1.72814e+02	-1.80483e+02	-1.78435e+02	-9.61728e+01	-1.51297e+02	
Factor	4.06815e-05	8.32167e-05	3.41537e-05	1.61071e-01	1.09079e-06	8.84274e-07	1.94396e-01	6.71829e-02	1.01989e-06	8.41751e-07	9.46126e-02	3.23926e-02	2.57595e-02	9.54239e-03	8.66236e-07	1.36832e-02	5.31991e-07	5.38450e-07	1.50082e-07	7.64884e-02	5.87831e-09	5.89810e-09	8.61984e-02	3.09803e-02	5.88643e-09	5.89619e-09	4.18274e-02	1.42647e-02	1.18748e-02	4.35937e-03	5.89889e-09	5.99575e-03	X	X	X	X	X	X	X	X	X	X	X	X	X	X	X	X	



#DISTANCE SETTINGS
A = Detector Channel
A-1	A-2	A-3	A-4	A-5	A-6	A-7	A-8	A-9	A-10	A-11	A-12	A-13	A-14	A-15	A-16	

2.5000e+00	3.0000e+00	2.5000e+00	3.0000e+00	2.0000e+00	3.0000e+00	1.5000e+00	3.0000e+00	3.0000e+00	3.0000e+00	3.0000e+00	3.0000e+00	3.0000e+00	3.0000e+00	1.5000e+00	3.0000e+00	

B = Detector Channel
B-1	B-2	B-3	B-4	B-5	B-6	B-7	B-8	B-9	B-10	B-11	B-12	B-13	B-14	B-15	B-16	

1.0000e+01	1.0000e+01	1.0000e+01	1.4400e+00	1.0000e+01	1.0000e+01	1.5100e+00	1.9400e+00	1.0000e+01	1.0000e+01	1.9900e+00	2.4900e+00	2.4100e+00	2.9000e+00	1.0000e+01	2.9800e+00	




#DATA BEGINS
time	group	step	mark	flag	A-AC1	A-AC2	A-AC3	A-AC4	A-AC5	A-AC6	A-AC7	A-AC8	A-AC9	A-AC10	A-AC11	A-AC12	A-AC13	A-AC14	A-AC15	A-AC16	A-DC1	A-DC2	A-DC3	A-DC4	A-DC5	A-DC6	A-DC7	A-DC8	A-DC9	A-DC10	A-DC11	A-DC12	A-DC13	A-DC14	A-DC15	A-DC16	A-Ph1	A-Ph2	A-Ph3	A-Ph4	A-Ph5	A-Ph6	A-Ph7	A-Ph8	A-Ph9	A-Ph10	A-Ph11	A-Ph12	A-Ph13	A-Ph14	A-Ph15	A-Ph16	B-AC1	B-AC2	B-AC3	B-AC4	B-AC5	B-AC6	B-AC7	B-AC8	B-AC9	B-AC10	B-AC11	B-AC12	B-AC13	B-AC14	B-AC15	B-AC16	B-DC1	B-DC2	B-DC3	B-DC4	B-DC5	B-DC6	B-DC7	B-DC8	B-DC9	B-DC10	B-DC11	B-DC12	B-DC13	B-DC14	B-DC15	B-DC16	B-Ph1	B-Ph2	B-Ph3	B-Ph4	B-Ph5	B-Ph6	B-Ph7	B-Ph8	B-Ph9	B-Ph10	B-Ph11	B-Ph12	B-Ph13	B-Ph14	B-Ph15	B-Ph16	aux-1	digaux	

8742.207	1	1	0	256	0.24499	0.28069	0.1836	0.10471	0.10028	0.27118	0.061577	0.12771	0.11971	0.045587	0.20417	0.11854	0.1566	0.13782	0.28333	0.32529	-2.6063	-2.7667	-3.4479	-2.8625	-3.1083	-3.3979	-2.7167	-3.4875	-3.025	-2.9292	-3.4271	-2.9521	-3.1417	-3.2812	-2.725	-3.3521	253.968	19.247	92.807	238.788	62.917	228.960	152.182	215.531	258.060	269.397	252.978	256.560	338.386	139.477	9.988	227.423	0.00038892	0.00016563	0.00012875	303.09	2.8983e-06	2.0726e-06	384.81	126.51	1.4447e-06	3.0042e-06	174.39	81.434	59.639	26.681	1.4477e-06	38.424	0.00036317	0.00033301	8.5054e-05	359.3	3.9056e-06	3.5432e-06	442.81	145.76	3.8842e-06	3.4862e-06	197.05	89.477	67.837	29.48	3.2575e-06	41.697	306.408	11.152	26.524	-4.668	108.070	117.190	-5.652	1.535	239.591	337.744	-0.494	4.459	6.811	12.076	116.164	8.397	-8191	255	
8742.303	1	1	0	0	0.076948	0.1322	0.15701	0.25066	0.23299	0.2314	0.1153	0.18141	0.25037	0.02235	0.2156	0.17	0.009105	0.077221	0.052361	0.26473	-2.5979	-2.6646	-3.4833	-2.775	-3.1729	-3.4188	-2.6188	-3.3958	-3.275	-2.6813	-3.3854	-2.95	-2.9333	-3.4229	-2.9021	-3.4813	290.291	170.332	92.479	312.588	132.017	95.118	98.508	81.402	146.828	163.127	325.021	304.396	246.991	69.472	160.518	261.312	0.00053339	0.00014372	1.3921e-05	303.83	5.4169e-06	3.2799e-06	385.97	126.12	4.0703e-06	3.6857e-06	176.03	81.372	59.692	26.757	4.027e-06	38.707	0.00035531	0.0003176	8.2993e-05	362.06	3.8726e-06	3.4683e-06	443.53	147.56	3.8816e-06	3.4903e-06	198.07	90.696	67.886	29.572	3.3463e-06	42.282	295.178	41.643	131.660	-4.393	101.533	79.166	-5.871	1.690	77.180	85.634	-0.574	4.674	6.791	11.901	181.890	8.143	-8191	255	
8742.397	1	1	0	0	0.26053	0.16209	0.10583	0.22885	0.18612	0.19307	0.21933	0.12868	0.19975	0.22551	0.10821	0.148	0.15026	0.15042	0.048083	0.17795	-2.6854	-2.55	-3.3771	-3.0625	-2.8563	-3.3583	-2.7729	-3.1	-3.0271	-2.8917	-3.3854	-3.1312	-2.7938	-3.5896	-2.7979	-3.1146	159.886	309.403	21.428	343.080	143.170	254.444	297.791	106.359	246.493	2.737	323.192	13.858	145.332	298.971	-0.471	263.070	0.00033654	0.00037229	1.9852e-05	302.64	3.5769e-06	1.2723e-06	384.3	125.64	2.7811e-06	1.5991e-06	176.36	81.587	59.612	26.755	2.0424e-06	38.448	0.00034973	0.00031659	8.5037e-05	365.87	3.776e-06	3.4456e-06	445.09	148.98	3.7554e-06	3.472e-06	199.33	91.185	67.48	29.518	3.6149e-06	42.332	310.420	87.771	4.054	-4.665	69.777	140.300	-5.633	1.466	-14.483	57.876	-0.592	4.384	6.739	11.920	176.783	8.313	-8191	255	
8742.518	1	1	0	0	0.18723	0.0069867	0.1168	0.14352	0.17702	0.064176	0.18575	0.21702	0.055961	0.089338	0.22788	0.19783	0.16473	0.066207	0.064879	0.098676	-2.8854	-2.6937	-3.2771	-2.9958	-2.9437	-3.3521	-2.7917	-2.9354	-3.2854	-2.8833	-3.4583	-3.1292	-2.6542	-3.4875	-3.0438	-3.0687	294.828	139.482	264.022	213.840	48.065	-5.987	225.528	267.698	223.271	34.987	229.839	33.012	233.288	303.963	133.663	49.780	0.00027772	0.00025085	0.0001244	303.04	3.9921e-06	2.6389e-06	384.42	125.33	3.7401e-06	2.077e-06	174.81	80.794	58.755	26.347	3.551e-06	38.094	0.00034624	0.00032362	9.3727e-05	368.13	3.7459e-06	3.4964e-06	448.64	148.98	3.7084e-06	3.4972e-06	200.39	90.52	66.899	29.215	3.9472e-06	41.898	282.837	164.525	85.135	-4.690	48.103	19.486	-5.770	1.253	32.575	228.017	-0.597	4.403	6.901	12.022	182.776	7.993	-8191	255	
8742.589	1	1	0	0	0.092562	0.05444	0.16466	0.1438	0.1881	0.05661	0.031264	0.26771	0.14347	0.20971	0.2737	0.31393	0.15857	0.11125	0.034063	0.24351	-3.1104	-2.775	-3.2292	-3.1979	-2.7146	-3.4979	-2.9875	-2.8937	-3.3771	-2.7438	-3.3417	-3.2687	-2.8208	-3.4313	-3.1458	-2.9146	274.038	79.242	235.552	296.044	275.361	232.505	309.077	31.428	234.107	43.047	262.169	248.853	320.179	271.348	9.346	309.637	0.00047663	0.00019066	0.00021088	300.06	4.3597e-07	2.5782e-06	380.07	124.66	3.32e-06	2.5472e-06	173.29	80.255	58.668	26.367	1.7826e-06	37.951	0.00034109	0.00032788	0.00010419	366.43	3.8098e-06	3.622e-06	452.44	148.27	3.8108e-06	3.6878e-06	202.78	90.337	66.849	29.264	4.328e-06	41.741	309.347	28.247	114.139	-4.768	91.277	194.724	-5.518	1.687	310.540	160.116	-0.773	4.325	7.006	12.193	147.992	8.277	-8191	255	
8742.686	1	1	0	0	0.22917	0.15481	0.16705	0.075191	0.0722	0.15951	0.12555	0.28127	0.021485	0.098339	0.1392	0.069433	0.1482	0.089916	0.35077	0.15559	-3.0542	-2.6208	-3.1604	-3.2833	-2.8021	-3.2542	-3.1458	-2.8083	-3.6083	-2.825	-3.1937	-3.375	-2.6521	-3.5021	-3.1396	-2.7917	50.197	298.551	299.035	73.572	259.090	183.853	193.517	55.011	280.808	239.549	198.905	-10.592	262.434	306.671	51.422	25.529	0.00033548	0.00025522	9.8459e-05	300.19	1.2312e-06	1.3095e-06	381.19	124.47	2.3147e-06	3.4255e-06	173.85	81.006	58.793	26.365	2.2931e-06	38.312	0.00034209	0.00033695	0.00010921	363.13	3.6504e-06	3.6413e-06	454	146.64	3.558e-06	3.6709e-06	203.31	90.029	66.658	29.369	4.1708e-06	41.669	304.277	97.365	92.913	-4.711	229.279	161.198	-5.751	1.486	32.478	166.949	-0.440	4.280	6.869	12.256	70.807	8.312	-8191	255	
8742.782	1	1	0	0	0.061347	0.27326	0.20647	0.23857	0.18666	0.041737	0.18778	0.16105	0.13436	0.064852	0.17285	0.15353	0.14695	0.10939	0.088501	0.21231	-3.0271	-3	-3.0563	-3.2896	-2.5583	-3.3021	-3.2479	-2.8917	-3.4646	-2.9042	-3.075	-3.3688	-2.7417	-3.2875	-3.2438	-2.9375	233.176	198.309	62.851	325.943	67.155	106.471	330.735	289.781	113.393	-3.214	327.616	276.782	62.003	80.777	327.473	252.552	0.00040508	0.00031261	5.6799e-05	301.2	2.2021e-06	3.4238e-06	382.82	124.95	2.592e-06	4.8509e-06	174.77	81.499	59.415	26.467	1.1198e-06	38.17	0.0003182	0.00034242	0.00010493	359.71	3.4255e-06	3.7642e-06	452.46	145.58	3.3224e-06	3.7604e-06	201.82	89.6	66.442	29.524	3.9026e-06	41.395	275.993	131.305	13.475	-4.685	143.077	151.243	-5.695	1.668	98.303	154.361	-0.894	4.644	6.907	12.209	320.506	8.132	-8191	255	
8742.901	1	1	0	0	0.075508	0.09351	0.02388	0.02236	0.14483	0.068967	0.049144	0.22123	0.061416	0.08462	0.22301	0.073811	0.10744	0.11855	0.18867	0.28301	-3.1146	-2.9521	-2.9313	-3.2	-2.6312	-3.4333	-3.3187	-2.7729	-3.3354	-3.0667	-2.8125	-3.4125	-2.9	-3.2521	-3.1542	-2.7104	298.895	299.728	207.434	242.663	94.377	53.563	66.500	176.419	135.019	280.917	32.291	17.872	21.174	339.378	73.964	268.440	0.00052725	0.00051676	0.00010391	300.1	5.0183e-06	1.3701e-06	383.89	124.15	4.6883e-06	3.7658e-06	173.42	80.21	58.844	26.325	3.7139e-06	37.931	0.00030536	0.00035481	9.8676e-05	357.19	3.3776e-06	3.9536e-06	448.6	144.81	3.4303e-06	4.068e-06	200.01	88.67	66.301	29.6	3.802e-06	41.061	296.455	111.662	1.791	-4.798	180.145	214.628	-5.788	1.664	133.055	202.841	-0.838	4.265	7.069	12.074	16.700	8.029	-8191	255	
8742.997	1	1	0	0	0.23359	0.11494	0.14262	0.11043	0.36662	0.15076	0.15495	0.11157	0.15943	0.2068	0.23393	0.088154	0.18068	0.22696	0.028973	0.042588	-2.8708	-3.0521	-2.8521	-3.5208	-2.825	-3.2021	-3.225	-2.8438	-3.3104	-3.0458	-2.825	-3.5625	-2.9125	-3.2042	-3.3833	-2.7562	297.507	286.297	296.693	323.447	249.319	53.928	246.674	200.434	157.034	97.166	336.704	15.925	280.987	226.935	-7.151	1.901	0.00062121	0.00030808	8.0557e-05	298.1	7.1177e-06	3.6382e-06	379.82	124.34	3.296e-06	6.9361e-07	173.44	80.668	58.944	26.309	2.7636e-06	37.785	0.00032642	0.00037586	9.5651e-05	354.83	3.6096e-06	4.1142e-06	443.63	143.87	3.6329e-06	4.0957e-06	198.39	88.482	66.76	29.571	3.5999e-06	40.915	310.941	24.564	306.571	-4.755	147.480	125.896	-5.792	1.709	202.540	149.364	-0.884	4.362	6.667	11.979	49.097	8.124	-8191	255	
8743.093	1	1	0	0	0.12728	0.34474	0.096798	0.082466	0.10872	0.14958	0.15599	0.20374	0.22911	0.23771	0.1347	0.35515	0.22894	0.26528	0.069833	0.17184	-2.875	-3.2271	-2.7042	-3.3646	-2.8271	-2.9854	-3.4688	-2.5312	-3.3479	-3.2917	-2.8667	-3.3229	-2.9833	-2.875	-3.3271	-2.8229	130.652	121.077	285.677	245.915	121.201	274.963	172.035	290.723	182.409	64.426	289.363	312.621	-6.290	293.579	116.746	230.529	0.00051176	0.00028678	6.016e-05	297.96	5.2716e-06	1.9725e-06	379.94	124.17	3.7813e-06	2.0401e-06	173.66	80.925	58.995	26.279	2.3027e-06	37.975	0.00034296	0.00036541	9.1032e-05	353.88	3.7938e-06	3.9241e-06	441.07	142.95	3.8005e-06	3.8711e-06	197.49	88.693	67.221	29.418	3.4475e-06	40.995	311.876	-15.461	24.193	-4.732	185.890	79.687	-5.665	1.532	107.040	91.732	-0.678	4.468	6.882	11.868	101.732	8.362	-8191	255	
8743.189	1	1	0	0	0.048333	0.023282	0.23866	0.1362	0.22496	0.21759	0.095936	0.30143	0.23495	0.22791	0.1361	0.28602	0.17741	0.28411	0.068997	0.14312	-2.6937	-3.1521	-2.9667	-3.4313	-3.0604	-3.0208	-3.5542	-2.8771	-3.1	-3.3208	-2.7062	-3.4042	-3.0687	-2.9625	-3.4917	-2.7917	225.581	280.255	319.634	244.580	152.529	69.677	289.001	12.727	124.145	282.718	342.225	286.384	283.828	31.787	334.755	220.432	0.00057466	0.00018339	7.2656e-05	299.68	1.7229e-06	1.4469e-06	382.32	123.27	3.1055e-06	4.2188e-06	173.63	79.98	58.631	26.119	2.5641e-06	37.719	0.0003595	0.0003458	8.8034e-05	354.65	3.9931e-06	3.7708e-06	440.97	143.83	4.0413e-06	3.739e-06	197.25	88.849	67.417	29.201	3.3967e-06	40.986	306.381	8.000	9.538	-4.681	131.859	68.106	-5.802	1.603	153.898	28.022	-0.525	4.391	6.723	11.893	62.607	8.255	-8191	255	
8743.285	1	1	0	0	0.30298	0.13285	0.20887	0.12815	0.02737	0.13785	0.18397	0.05512	0.20395	0.05474	0.036672	0.041956	0.16057	0.26336	0.11953	0.20711	-2.875	-3.3458	-2.6229	-3.3438	-3.2292	-2.9542	-3.4333	-2.9875	-3.2	-3.4542	-2.6729	-3.2313	-3.2313	-2.7896	-3.3396	-2.8479	53.174	60.283	36.517	108.060	231.205	70.672	-2.051	186.282	335.674	239.910	292.442	41.401	37.894	64.018	140.227	-10.981	0.00040797	0.00028877	0.00019232	298.51	2.6272e-06	2.3756e-06	376.77	122.95	4.071e-06	9.7521e-07	171.66	80.085	58.203	26.071	2.4845e-06	37.052	0.00037382	0.00033163	8.7326e-05	358.15	4.0375e-06	3.6038e-06	436.78	144.05	3.9491e-06	3.5118e-06	194.45	88.594	66.645	28.835	3.2507e-06	40.668	316.964	24.034	38.305	-4.583	172.208	127.971	-5.520	1.423	101.668	145.085	-0.745	4.518	6.685	12.141	305.838	8.224	-8191	255	
8743.381	1	1	0	0	0.10585	0.39448	0.026332	0.19682	0.19766	0.13223	0.064452	0.082834	0.21387	0.057981	0.25477	0.27257	0.049506	0.13047	0.28776	0.039606	-2.5708	-3.3729	-2.6896	-3.0875	-3.2021	-2.8542	-3.4917	-3.0792	-2.9729	-3.5146	-2.8896	-3.2958	-3.325	-3.0146	-3.4771	-2.8958	28.320	3.198	313.472	129.843	79.479	156.052	295.951	107.452	326.670	260.062	269.979	200.249	196.057	268.421	4.640	115.611	0.00022606	0.00013042	7.7749e-05	298.91	5.9383e-06	4.2515e-06	376.39	122.39	3.1387e-06	3.0415e-06	171.72	79.853	58.497	25.894	3.2152e-06	37.163	0.00035118	0.00030872	8.1865e-05	358.03	3.6551e-06	3.2981e-06	433.44	143.72	3.6175e-06	3.2674e-06	193.49	88.645	65.99	28.592	3.2012e-06	40.651	303.971	242.645	30.817	-4.529	18.993	105.439	-5.550	1.616	43.592	80.605	-0.315	4.454	6.745	12.127	168.866	8.020	-8191	255	
8743.478	1	1	0	0	0.25375	0.12733	0.13248	0.1468	0.14601	0.11241	0.33709	0.29492	0.19932	0.022256	0.16263	0.12975	0.030859	0.2422	0.16054	0.048748	-2.5563	-3.5479	-2.7229	-3.1354	-3.3271	-2.5625	-3.4417	-3.1437	-2.8187	-3.3833	-2.9854	-3.0896	-3.3083	-2.8646	-3.3833	-3.2021	61.712	228.702	19.507	34.046	10.500	27.271	283.768	244.782	156.282	134.602	76.759	327.548	212.944	19.782	100.148	279.789	0.00034895	0.00025164	4.3753e-05	300.02	5.8488e-07	1.1642e-07	378.08	123.36	1.4092e-06	1.8465e-06	172.01	79.969	58.517	25.858	3.3795e-06	37.156	0.00032459	0.00029171	8.2271e-05	359.19	3.4067e-06	3.1439e-06	434.6	143.92	3.2814e-06	3.0366e-06	193.89	88.638	65.433	28.416	3.2589e-06	40.57	319.387	61.703	129.896	-4.519	205.358	123.751	-5.470	1.453	12.733	141.277	-0.729	4.309	7.002	11.995	196.819	8.194	-8191	255	
8743.598	1	1	0	0	0.052269	0.0092036	0.13396	0.041081	0.16248	0.11009	0.28142	0.21804	0.33529	0.13851	0.17509	0.14882	0.094199	0.068733	0.089083	0.045728	-2.3854	-3.4062	-2.7229	-3.0333	-3.2542	-2.7521	-3.2521	-3.1583	-2.6854	-3.3688	-3.0021	-2.9271	-3.4646	-2.7208	-3.1979	-3.1854	282.349	126.887	179.290	141.670	136.306	22.326	4.014	5.642	323.215	231.927	26.814	315.592	164.289	5.869	22.817	54.325	0.00039828	1.5794e-05	7.3932e-05	301.38	1.6803e-06	2.6078e-06	378.1	123.06	2.1359e-06	1.1777e-06	172.05	79.793	58.5	25.923	4.3359e-06	37.142	0.00029778	0.00027546	8.4897e-05	358.33	3.1842e-06	3.017e-06	438.83	143.6	3.2252e-06	3.0348e-06	196.01	88.402	65.266	28.43	3.4978e-06	40.361	289.784	312.319	72.356	-4.719	24.039	192.615	-5.536	1.794	292.132	237.533	-0.942	4.517	6.917	12.059	156.714	8.206	-8191	255	
8743.694	1	1	0	0	0.35738	0.11054	0.21771	0.054983	0.12294	0.16935	0.0528	0.065174	0.039267	0.10532	0.216	0.028675	0.10691	0.19871	0.21392	0.20389	-2.1917	-3.3375	-3.1271	-2.9813	-3.4708	-2.7708	-3.2188	-3.1542	-2.8167	-3.4271	-3.25	-2.7479	-3.5187	-3.0104	-3.15	-3.4437	214.572	316.027	103.704	5.629	90.752	55.439	295.496	-1.044	232.892	77.105	272.214	313.231	313.016	129.229	336.187	315.382	0.00053914	0.00022733	7.9688e-05	299.11	5.1912e-06	3.9068e-06	379.51	122.94	3.6599e-07	1.2415e-06	171.21	79.433	58.45	25.859	2.6231e-06	36.966	0.00028913	0.00027323	8.9681e-05	354.55	3.0432e-06	2.9931e-06	439.77	142.43	3.0189e-06	2.9951e-06	195.76	87.277	64.796	28.365	3.5454e-06	39.915	299.370	89.279	124.158	-5.020	64.843	141.755	-5.569	1.533	213.387	157.601	-0.403	4.564	6.797	12.091	150.910	8.186	-8191	255	
8743.790	1	1	0	0	0.065331	0.13165	0.12056	0.17237	0.14756	0.17676	0.16551	0.056847	0.10272	0.39568	0.2067	0.17275	0.16392	0.26326	0.28562	0.26954	-2.3146	-3.3729	-2.9813	-2.8208	-3.5958	-3.0438	-3.275	-3.3354	-2.8021	-3.3146	-3.0833	-2.9188	-3.4979	-2.8375	-2.9458	-3.5021	312.742	342.439	182.569	233.705	60.165	122.832	333.566	220.941	-3.690	266.824	231.307	276.902	273.325	-8.680	99.958	7.256	0.00035231	0.00041454	8.6963e-05	299.83	3.646e-06	3.8941e-06	379.18	123.88	5.1312e-08	4.3068e-06	172.22	79.41	58.331	25.913	6.9473e-07	36.934	0.00027819	0.00028184	9.0423e-05	352.23	2.9262e-06	3.1323e-06	438.94	141.54	2.9071e-06	3.1343e-06	195.61	86.673	64.618	28.547	3.421e-06	39.64	304.111	127.225	40.750	-4.652	112.802	220.264	-5.359	1.584	188.645	177.822	-0.778	4.302	6.937	12.101	76.520	8.114	-8191	255	
8743.887	1	1	0	0	0.17591	0.091031	0.14528	0.12886	0.10305	0.082992	0.28763	0.33083	0.22291	0.21003	0.18407	0.18792	0.060182	0.1515	0.039237	0.14836	-2.4354	-3.4375	-3.2792	-2.8312	-3.4729	-3.0167	-3.1292	-3.3042	-2.7042	-3.3729	-3.375	-2.7104	-3.4792	-2.9271	-2.8812	-3.6312	185.491	342.969	24.698	229.601	276.412	156.728	144.396	83.777	217.693	329.232	-3.810	312.598	178.653	9.696	16.975	302.701	0.00044923	0.00041751	0.00011166	300.3	2.8025e-06	3.7024e-06	378.98	123.82	1.899e-06	4.7253e-06	171.6	79.414	58.432	25.993	4.2906e-06	36.98	0.00026749	0.00029652	8.6094e-05	350.28	2.8458e-06	3.3319e-06	437.27	141.29	2.8766e-06	3.3354e-06	194.19	86.578	64.718	28.794	3.3231e-06	39.721	295.878	107.204	-8.904	-4.871	67.860	132.528	-5.564	1.413	44.605	132.725	-0.637	4.257	6.846	12.069	35.535	8.193	-8191	255	
8743.981	1	1	0	0	0.25739	0.23621	0.26622	0.25018	0.20453	0.046719	0.20346	0.16745	0.12022	0.07947	0.18775	0.10593	0.1938	0.039724	0.14916	0.16154	-2.3708	-3.2521	-3.3312	-2.6229	-3.4562	-3	-2.9229	-3.4792	-2.8104	-3.1917	-3.2	-2.7958	-3.3792	-2.9479	-2.8438	-3.4729	91.050	83.339	337.221	265.748	155.766	26.755	203.825	70.156	258.143	-15.238	193.525	75.577	227.071	147.858	194.133	334.942	0.00052568	0.00023597	3.2808e-05	300.11	1.5348e-06	4.0758e-06	378.32	123.22	3.7862e-06	2.6902e-06	171.66	79.696	58.448	26.062	4.0794e-06	37.291	0.00027583	0.00031966	8.3897e-05	349.72	3.0094e-06	3.5392e-06	435.78	141.01	3.1033e-06	3.5578e-06	193.48	86.782	65.151	28.899	3.2055e-06	39.94	304.448	54.955	-15.803	-4.514	172.469	203.243	-5.509	1.370	116.550	144.003	-0.738	4.338	6.946	12.016	15.531	8.073	-8191	255	
8744.077	1	1	0	0	0.37702	0.024245	0.20923	0.10079	0.080952	0.080413	0.10767	0.19098	0.11661	0.069253	0.093949	0.1751	0.16076	0.16883	0.20218	0.10128	-2.4083	-3.0354	-3.4604	-2.6917	-3.3854	-3.275	-2.95	-3.5146	-2.9208	-3.0708	-3.4375	-2.8708	-3.0896	-3.2104	-2.8854	-3.5563	183.174	224.796	100.096	298.727	148.199	112.989	179.239	1.160	287.685	226.084	57.982	330.340	152.758	318.123	213.930	157.117	0.00060697	4.3041e-05	9.7767e-05	299.73	7.0405e-06	1.3903e-06	378.97	123.45	2.5449e-06	1.6912e-06	170.87	79.524	58.314	25.974	3.1295e-06	37.017	0.00029294	0.00032337	8.0455e-05	349.53	3.2169e-06	3.5458e-06	434.87	140.7	3.3393e-06	3.545e-06	193.15	86.571	65.632	28.851	3.1768e-06	39.804	298.214	220.549	30.581	-4.558	169.879	83.218	-5.628	1.622	129.579	143.661	-0.720	4.401	7.015	12.004	36.987	8.050	-8191	255	
8744.198	1	1	0	0	0.17748	0.11068	0.021919	0.2101	0.19621	0.26338	0.071309	0.1641	0.15465	0.1441	0.16842	0.20626	0.19407	0.19355	0.075265	0.22312	-2.5438	-2.9229	-3.6229	-2.6333	-3.275	-3.2687	-2.7562	-3.475	-3.0333	-2.9313	-3.4917	-2.6458	-2.9875	-3.2729	-2.6021	-3.5104	211.153	267.003	339.492	120.295	15.375	52.772	294.073	225.743	28.176	34.079	280.284	325.863	4.775	43.697	250.034	283.364	0.0005633	2.3273e-05	0.00015651	299.22	1.2366e-06	2.0282e-06	377.11	124.16	5.6723e-06	2.2917e-06	171.42	79.371	58.366	26.047	2.7154e-06	37.069	0.00032135	0.00032124	7.9796e-05	349.72	3.4945e-06	3.4511e-06	433.54	141.48	3.5535e-06	3.4219e-06	192.68	86.589	66.087	28.804	3.1554e-06	39.881	301.130	-6.800	-13.951	-4.499	229.681	72.425	-5.547	1.406	201.856	70.410	-0.934	4.389	6.810	12.014	128.958	8.048	-8191	255	
8744.294	1	1	0	0	0.15578	0.11259	0.24751	0.057424	0.17836	0.12313	0.11894	0.12697	0.064681	0.038754	0.18895	0.26584	0.060296	0.11493	0.12841	0.17703	-2.6375	-2.7375	-3.3958	-2.625	-3.0125	-3.3583	-2.6771	-3.4021	-3.1688	-2.8625	-3.4375	-2.9375	-2.9458	-3.4375	-2.7812	-3.3896	44.375	284.553	209.516	120.543	90.897	251.188	63.036	295.937	270.614	179.677	56.581	289.710	199.388	52.043	70.263	167.581	0.00047588	0.0001046	2.2801e-05	298.45	1.685e-06	1.1548e-06	378.11	123.07	1.4876e-06	1.73e-06	171.07	79.117	58.312	26.098	7.0673e-07	37.073	0.00033961	0.00031324	7.9954e-05	352.68	3.7516e-06	3.4281e-06	433.57	142.92	3.8146e-06	3.4264e-06	192.4	87.142	66.147	28.762	3.106e-06	40.236	303.175	95.078	321.191	-4.530	74.381	91.430	-5.615	1.297	20.233	93.468	-0.840	4.763	7.019	11.948	166.000	8.175	-8191	255	
8744.390	1	1	0	0	0.31069	0.080771	0.028494	0.065146	0.11116	0.20796	0.098768	0.02429	0.047004	0.16125	0.022499	0.13116	0.19014	0.24546	0.11843	0.17985	-2.875	-2.6083	-3.4188	-2.7896	-2.8625	-3.4208	-2.7979	-3.2188	-3.1958	-2.7938	-3.4313	-3.0604	-3.0625	-3.4521	-2.9271	-3.3854	67.936	297.929	12.147	323.124	186.347	334.738	192.687	309.345	304.700	55.927	91.389	43.234	229.965	137.856	26.601	160.645	0.00031193	0.00015945	7.9586e-05	297.58	3.231e-06	2.4868e-06	377.01	122.66	4.3131e-06	1.5268e-06	170.57	78.847	58.031	26.04	1.4354e-06	37.37	0.00033309	0.00029466	7.6443e-05	353.12	3.5651e-06	3.1727e-06	430.64	143.01	3.5029e-06	3.1769e-06	191.29	87.427	65.663	28.621	3.1032e-06	40.604	313.494	-10.988	46.745	-4.622	50.433	54.383	-5.710	1.465	9.802	60.623	-0.554	4.436	6.899	12.087	140.760	8.197	-8191	255	
8744.486	1	1	0	0	0.29552	0.092695	0.18792	0.11162	0.17388	0.065017	0.076984	0.19872	0.17091	0.2137	0.14328	0.066299	0.28972	0.1694	0.18305	0.041731	-2.8521	-2.65	-3.2562	-2.8396	-2.9938	-3.5458	-2.8021	-3.2521	-3.3375	-2.6292	-3.4	-2.8542	-2.7229	-3.5583	-2.9333	-3.2146	69.918	283.790	98.131	2.332	78.722	150.534	311.954	119.526	83.654	247.516	245.602	113.751	265.196	317.969	137.599	108.914	0.00033681	0.0001905	7.8216e-05	299.23	3.6672e-06	1.3478e-06	376.07	122.7	1.0776e-06	1.7122e-06	170.9	78.768	57.838	25.886	3.3319e-06	36.868	0.00032694	0.00029521	7.966e-05	357.03	3.5366e-06	3.2251e-06	434.33	145	3.5592e-06	3.3041e-06	193.42	87.882	65.56	28.583	3.424e-06	40.596	293.797	42.617	100.201	-4.542	76.536	150.236	-5.714	1.528	243.641	125.056	-0.784	4.314	6.772	12.072	169.321	8.344	-8191	255	
8744.558	1	1	0	0	0.080772	0.28175	0.1185	0.21157	0.24955	0.10759	0.17544	0.056328	0.14363	0.27883	0.17673	0.21758	0.17686	0.034266	0.1604	0.17494	-2.925	-2.6396	-3.2229	-3.05	-2.7521	-3.4167	-2.825	-3.1688	-3.3167	-3.0021	-3.2833	-3.1479	-2.8812	-3.4375	-3.0021	-3.1479	289.144	70.895	255.201	229.484	227.277	122.111	286.190	255.110	185.013	15.128	55.214	287.039	261.981	221.939	117.346	239.346	0.00040157	0.00020183	0.00014293	298.3	4.816e-06	2.0234e-06	372.57	122.48	4.6363e-06	7.1745e-07	169.72	78.161	57.582	25.612	3.6274e-06	36.687	0.00032274	0.00030181	8.8436e-05	359.92	3.5466e-06	3.2786e-06	436.93	145.22	3.4964e-06	3.3349e-06	194.87	87.557	65.224	28.47	3.8597e-06	40.436	304.484	257.313	108.179	-4.608	-12.417	147.471	-5.739	1.684	1.214	82.525	-0.560	4.129	6.880	12.165	142.501	8.055	-8191	255	
8744.679	1	1	0	0	0.25927	0.24187	0.12394	0.1899	0.13709	0.08649	0.22548	0.087744	0.15242	0.21528	0.082477	0.057268	0.15338	0.34454	0.13913	0.19093	-3.1458	-2.6125	-3.3125	-3.3125	-2.7542	-3.4333	-2.9979	-2.9854	-3.4542	-2.8646	-3.2438	-3.2292	-2.8271	-3.4938	-3.1937	-2.9688	48.902	334.480	216.330	235.220	43.026	6.278	326.703	341.743	115.944	25.667	254.414	120.878	249.089	326.407	3.082	284.824	0.00033902	9.1425e-05	0.0001733	296.47	3.8128e-06	2.5297e-06	371.79	122.24	2.7187e-06	3.6373e-06	167.75	77.634	57.001	25.67	1.1639e-06	36.627	0.00033429	0.00031925	0.00010201	360.4	3.7261e-06	3.5599e-06	443.2	145.21	3.7433e-06	3.6598e-06	197.53	87.416	65.216	28.593	4.3235e-06	40.372	289.136	-12.378	88.609	-4.543	54.089	166.032	-5.464	1.480	323.362	123.288	-0.362	4.253	7.190	12.305	170.563	8.084	-8191	255	
8744.775	1	1	0	0	0.084497	0.10051	0.23704	0.029369	0.16644	0.1217	0.22592	0.16388	0.087055	0.16408	0.14158	0.11278	0.071973	0.16048	0.15444	0.13381	-3.0854	-2.8354	-2.9458	-3.3042	-2.6208	-3.4375	-3.0354	-2.7833	-3.4729	-2.6417	-3.2604	-3.3458	-2.9208	-3.5229	-3.2687	-2.825	197.107	91.958	7.483	87.341	217.579	209.169	174.691	271.368	92.504	82.142	-7.680	300.503	252.571	274.483	154.188	307.556	0.00040326	0.00049286	0.00012245	295.24	3.5973e-06	2.2887e-06	374.61	122.25	2.1778e-06	2.7565e-06	168.23	77.621	57.381	25.668	9.8894e-07	36.783	0.00033849	0.00033857	0.00010898	358.26	3.6453e-06	3.6899e-06	447.13	144.76	3.6419e-06	3.8242e-06	198.93	87.236	65.285	28.866	4.4664e-06	40.427	297.233	100.804	83.308	-4.663	115.756	145.395	-5.579	1.551	65.080	189.149	-0.735	4.506	6.799	12.031	151.935	7.902	-8191	255	
8744.871	1	1	0	0	0.14216	0.35501	0.27218	0.11083	0.15502	0.16536	0.059252	0.09415	0.13905	0.15235	0.17117	0.066077	0.182	0.15948	0.046394	0.24967	-2.8896	-3.0687	-2.9792	-3.3042	-2.6562	-3.3771	-3.1333	-2.8458	-3.4229	-2.8167	-3.0542	-3.4562	-2.6063	-3.3292	-3.1917	-2.65	229.819	169.716	150.767	324.243	-6.127	170.027	186.997	-8.919	327.829	173.018	311.639	96.214	279.918	52.972	308.183	279.932	0.00035447	0.00022025	0.00017379	295.32	4.9758e-06	4.1355e-06	376.09	122.24	5.215e-06	5.2563e-06	169.25	77.468	57.196	25.75	4.8342e-06	36.648	0.00034194	0.00037398	0.00011402	358.87	3.763e-06	4.1787e-06	449.27	144.58	3.7407e-06	4.2705e-06	199.78	87.107	65.311	29.152	4.3898e-06	40.329	298.014	125.689	93.239	-4.544	78.017	186.973	-5.424	1.626	17.809	193.061	-0.731	4.293	7.070	12.073	23.097	7.955	-8191	255	
8744.990	1	1	0	0	0.20801	0.051513	0.041819	0.11571	0.018513	0.12077	0.21634	0.22166	0.1229	0.1342	0.16183	0.073157	0.25558	0.13599	0.25936	0.25706	-3.1271	-2.775	-2.9917	-3.4667	-2.7854	-3.1854	-3.2021	-2.5979	-3.4437	-3.1229	-3.1979	-3.3833	-2.9104	-3.2021	-3.4229	-2.875	-10.626	135.771	70.340	111.658	263.183	49.404	209.474	279.848	216.425	-11.104	127.075	196.118	268.648	181.722	52.197	310.369	0.00035985	0.00054303	0.00020981	296.64	4.2231e-06	1.7684e-06	372.29	120.77	6.6058e-07	2.8001e-06	167.57	77.035	56.689	25.533	3.0754e-06	36.221	0.00034565	0.00040445	0.00011152	358.1	3.8537e-06	4.5268e-06	446.18	143.98	3.9053e-06	4.6223e-06	197.98	86.542	65.407	29.285	4.2885e-06	39.992	310.387	104.918	306.026	-4.556	172.997	122.136	-5.590	1.331	342.455	243.886	-0.760	4.319	7.121	12.172	340.290	7.985	-8191	255	
8745.086	1	1	0	0	0.098383	0.02854	0.10044	0.20045	0.15658	0.26609	0.12064	0.27	0.15094	0.15706	0.16428	0.053146	0.21857	0.13166	0.22728	0.13495	-2.9542	-3.2313	-2.7167	-3.4833	-3.0667	-3.0708	-3.4229	-2.6917	-3.3833	-3.1917	-2.8458	-3.5604	-2.9938	-3.1188	-3.4	-2.7271	126.286	244.629	29.463	322.184	145.497	-1.297	107.241	195.596	72.991	61.747	129.296	90.110	336.980	293.713	279.250	25.671	0.00061516	9.9302e-05	0.00018233	293.91	4.3721e-06	2.3428e-06	370.71	120.99	5.746e-06	3.4632e-06	167.45	77.265	56.826	25.63	1.0154e-06	36.269	0.00037037	0.00043019	0.00010913	356.37	4.1575e-06	4.7145e-06	443.05	143.7	4.1869e-06	4.6877e-06	196.19	86.163	65.861	29.201	4.0307e-06	39.867	311.502	148.987	319.843	-4.596	145.011	180.245	-5.520	1.498	155.963	30.752	-0.766	4.171	7.073	12.038	115.024	8.148	-8191	255	
8745.159	1	1	0	0	0.31351	0.080793	0.1162	0.16442	0.088413	0.21731	0.049535	0.25043	0.20253	0.24002	0.1822	0.29345	0.17281	0.065402	0.22444	0.24751	-2.8542	-3.3896	-2.6646	-3.5062	-2.9	-3.0125	-3.4896	-2.7687	-3.2479	-3.4146	-2.8563	-3.5812	-2.9875	-2.8729	-3.4417	-2.8354	231.847	209.191	284.290	183.862	196.716	118.075	35.163	26.483	209.836	307.163	313.025	296.563	229.430	138.902	268.195	268.752	0.00071525	0.00054281	0.00013473	293.32	9.1092e-06	2.2387e-06	369.63	121.22	3.7677e-06	3.9881e-06	167.32	77.519	57.013	25.594	2.138e-06	36.386	0.00038613	0.0004082	0.00010243	354.31	4.3919e-06	4.556e-06	440.17	143.15	4.4747e-06	4.4786e-06	195.62	86.446	66.626	29.061	3.935e-06	39.941	304.244	283.517	18.817	-4.572	166.398	125.250	-5.531	1.591	163.938	39.213	-0.616	4.485	7.016	12.108	94.949	8.218	-8191	255	
8745.278	1	1	0	0	0.11128	0.17311	0.20015	0.14688	0.086174	0.20426	0.05531	0.20098	0.20635	0.20701	0.075535	0.20318	0.23384	0.14407	0.083716	0.14127	-2.7875	-3.2438	-2.6083	-3.3521	-3.0292	-3.0583	-3.4396	-2.6604	-3.0771	-3.1958	-2.7938	-3.5354	-3.0521	-2.875	-3.3854	-2.9604	56.634	2.617	241.540	226.939	297.292	-2.378	78.121	219.270	182.542	193.937	157.537	51.546	22.035	67.768	89.715	259.678	0.00055211	0.00024158	0.00011807	293.99	4.7875e-06	3.2533e-06	372.5	122.08	7.3594e-06	1.1636e-06	167.78	77.437	57.157	25.646	2.0101e-06	36.445	0.0004095	0.00039298	9.9938e-05	356.67	4.5478e-06	4.2833e-06	439.87	144.11	4.5972e-06	4.23e-06	195.58	87.123	67.157	29.025	3.9165e-06	40.268	309.297	48.498	45.803	-4.586	167.883	30.343	-5.496	1.763	179.747	3.515	-0.351	4.468	7.115	12.159	10.259	8.223	-8191	255	
8745.374	1	1	0	0	0.023221	0.032309	0.041363	0.13541	0.20514	0.19724	0.3151	0.14863	0.19992	0.17818	0.22539	0.12816	0.046822	0.030119	0.11564	0.09451	-2.7979	-3.2542	-2.7	-3.4396	-3.1417	-2.7854	-3.3104	-2.9417	-3.0167	-3.4833	-2.8479	-3.3312	-3.1583	-2.9333	-3.5396	-2.9562	125.835	104.403	5.442	235.759	157.263	234.255	101.196	308.627	203.795	275.576	11.846	201.216	262.446	218.799	293.829	180.858	0.00041886	0.00034578	8.9549e-05	295.29	1.5124e-06	4.0713e-06	371.3	120.93	5.6661e-06	4.3447e-06	167.57	77.06	56.768	25.494	2.4232e-06	35.976	0.00042837	0.0003808	0.00010024	361	4.6727e-06	4.2188e-06	438.52	145.64	4.7081e-06	4.1795e-06	194.59	87.602	66.83	28.793	3.8778e-06	40.307	292.355	23.197	25.784	-4.403	23.960	64.817	-5.622	2.095	52.199	40.318	-0.758	4.392	6.964	12.382	190.734	8.206	-8191	255	
8745.470	1	1	0	0	0.09193	0.14206	0.27278	0.078329	0.16133	0.11969	0.36743	0.22085	0.050697	0.20631	0.078796	0.21947	0.12008	0.06769	0.048823	0.13434	-2.5146	-3.4188	-2.8354	-3.2146	-3.3583	-2.7687	-3.3958	-3.0104	-2.9188	-3.3521	-2.8812	-3.2417	-3.1854	-2.7062	-3.3604	-3	324.454	286.905	306.694	14.643	30.178	16.154	100.398	174.180	28.962	174.472	278.350	305.816	245.474	50.441	46.156	4.801	0.00028788	0.00012749	3.0937e-05	294.94	3.9345e-06	7.0413e-07	371.87	120.45	6.529e-07	1.7478e-06	167.47	76.7	56.809	25.465	4.352e-06	36.137	0.00041388	0.00036836	9.852e-05	363.6	4.4023e-06	3.9827e-06	436.61	145.91	4.3199e-06	3.8892e-06	193.6	87.519	65.948	28.626	3.8779e-06	40.38	295.145	314.945	157.524	-4.544	13.722	145.768	-5.451	1.576	-12.389	66.087	-0.523	4.589	7.007	12.053	150.388	8.108	-8191	255	
8745.591	1	1	0	0	0.090403	0.13125	0.24024	0.21612	0.04216	0.10077	0.19406	0.11189	0.076957	0.17649	0.13956	0.13863	0.14539	0.25671	0.22874	0.13736	-2.3104	-3.4771	-2.7167	-3.0875	-3.3	-2.675	-3.4938	-3.1396	-2.8708	-3.3167	-2.9396	-3.3021	-3.4167	-2.6813	-3.3271	-3.3438	247.908	241.137	296.760	143.103	105.901	115.597	287.047	279.702	222.968	150.280	231.179	308.863	67.924	60.097	-13.548	292.806	0.00022942	0.00019138	9.0105e-05	294.8	1.5112e-06	1.186e-06	369.42	120.4	5.9393e-06	4.3023e-06	165.73	76.752	56.788	25.507	4.7223e-06	35.952	0.0003898	0.00035695	0.00010206	365.95	4.2482e-06	3.9775e-06	439.54	147.16	4.276e-06	3.9485e-06	195.56	88.077	65.738	28.606	4.2699e-06	40.569	285.787	25.086	133.399	-4.732	32.404	140.248	-5.727	1.740	52.299	113.459	-0.817	4.608	6.919	12.076	175.215	8.004	-8191	255	
8745.687	1	1	0	0	0.15368	0.15068	0.094238	0.2521	0.24954	0.1472	0.11852	0.20565	0.29892	0.20076	0.11268	0.050657	0.18151	0.19002	0.09835	0.34543	-2.5917	-3.5604	-2.9292	-2.9958	-3.6375	-2.7667	-3.3438	-3.1979	-2.6604	-3.4417	-2.9646	-2.9333	-3.4354	-2.7062	-3.2104	-3.2875	328.628	89.604	215.495	47.056	227.077	168.161	68.941	206.177	281.368	138.727	162.431	236.272	38.441	90.984	54.759	313.184	0.00046601	0.00048885	2.546e-05	293.2	4.499e-06	2.2197e-06	369.41	120.74	9.1354e-07	1.6612e-06	166.83	76.888	56.675	25.654	1.648e-06	36.406	0.00038651	0.00035965	0.00011268	366.09	4.2237e-06	4.0474e-06	446.13	147.27	4.3046e-06	4.0684e-06	199.97	88.285	65.795	28.85	4.7853e-06	40.775	289.898	20.934	138.162	-4.709	104.641	106.415	-5.486	1.499	18.735	129.905	-0.558	4.409	7.086	12.185	228.544	8.375	-8191	255	
8745.759	1	1	0	0	0.16672	0.023087	0.068739	0.093406	0.058948	0.11141	0.19315	0.092	0.089921	0.13782	0.13277	0.22183	0.034635	0.12893	0.19379	0.19323	-2.325	-3.4104	-2.9875	-3.0458	-3.6333	-2.8667	-3.3896	-3.3312	-3.0167	-3.6188	-3.1833	-3.0583	-3.6396	-2.7833	-3.15	-3.5271	57.904	25.401	162.583	-13.791	120.398	37.173	251.769	61.857	160.424	65.538	25.004	327.780	39.668	267.043	21.815	187.448	0.00049857	0.00019199	0.00020356	293.99	2.5862e-06	5.213e-06	368.29	120.22	3.042e-06	3.9659e-06	166.36	76.963	56.775	25.527	2.2569e-06	36.149	0.00039374	0.00037464	0.00012306	365.02	4.1989e-06	4.1643e-06	450.01	145.95	4.1915e-06	4.1323e-06	200.3	87.384	65.409	28.854	4.8244e-06	40.24	303.176	161.842	117.375	-4.783	8.024	192.904	-5.651	1.570	1.983	158.969	-0.746	4.430	7.144	12.180	108.589	7.891	-8191	255	
8745.880	1	1	0	0	0.26015	0.068803	0.090056	0.18784	0.22979	0.17307	0.084915	0.11873	0.16099	0.044689	0.15719	0.1165	0.18247	0.12736	0.23212	0.27733	-2.3729	-3.3896	-2.9875	-2.9688	-3.6	-3.0333	-3.1312	-3.5271	-2.5187	-3.4667	-3.1646	-2.8958	-3.6312	-3.0229	-3.0271	-3.4562	255.079	240.218	27.268	323.029	144.544	272.204	83.223	6.467	91.704	195.562	160.413	35.457	58.149	137.329	34.197	291.953	0.00041015	0.00024615	8.5842e-05	293.76	4.2462e-06	3.5992e-06	370.47	120.06	3.4301e-07	5.9192e-06	167	76.821	56.766	25.528	1.4817e-06	36.061	0.00037189	0.00038296	0.00012168	360.51	3.9543e-06	4.2335e-06	448.93	144.27	3.9367e-06	4.2468e-06	198.99	86.538	65.068	28.954	4.5527e-06	39.771	293.423	112.886	32.569	-4.707	63.511	206.295	-5.564	1.235	213.583	187.873	-0.737	4.209	7.051	12.252	84.423	8.057	-8191	255	
8745.974	1	1	0	0	0.051261	0.13308	0.23787	0.16297	0.087295	0.18735	0.13568	0.039561	0.11593	0.1724	0.27529	0.11271	0.066007	0.131	0.22235	0.20601	-2.3187	-3.2229	-3.2396	-2.575	-3.4875	-2.9917	-2.8833	-3.4188	-2.6333	-3.1604	-3.2687	-2.9021	-3.3375	-2.8312	-3	-3.6208	96.719	134.338	103.860	197.740	69.101	118.087	131.304	205.776	131.714	68.831	94.822	115.659	182.907	309.919	274.713	133.241	0.00045861	0.00049075	0.00014558	294.4	4.9775e-06	4.7124e-06	370.47	120.35	3.2475e-06	3.6724e-06	166.43	76.632	56.668	25.546	2.6964e-06	36.099	0.00035046	0.00039276	0.0001135	357.06	3.7631e-06	4.3581e-06	444.39	143.32	3.8531e-06	4.4881e-06	197.24	86.218	65.021	29.213	4.4368e-06	39.886	298.613	126.350	341.887	-4.837	94.437	188.104	-5.576	1.696	182.128	148.342	-0.773	4.430	7.011	12.270	25.952	8.055	-8191	255	
8746.070	1	1	0	0	0.30248	0.086337	0.23759	0.19404	0.073906	0.15499	0.18102	0.25593	0.1251	0.13762	0.29734	0.14017	0.31711	0.34527	0.18452	0.29709	-2.4854	-3.2917	-3.2438	-2.6167	-3.4604	-3.0271	-2.8563	-3.4708	-2.8583	-3.0708	-3.275	-2.6542	-3.4125	-3.0229	-2.7083	-3.3979	213.348	24.371	94.166	320.713	289.195	75.506	321.964	323.905	139.930	117.209	334.276	36.911	245.976	329.295	149.148	280.709	0.00049981	0.00028988	6.3303e-05	295.87	4.2462e-06	1.9009e-06	369.76	120.74	5.1269e-06	2.7189e-06	166.6	76.919	56.896	25.626	2.6007e-06	36.256	0.0003661	0.0004272	0.00011168	358.06	4.0077e-06	4.7333e-06	443.23	143.35	4.1199e-06	4.6978e-06	196.29	86.258	65.706	29.36	4.211e-06	39.902	298.745	85.111	309.199	-4.728	204.067	166.802	-5.582	1.477	184.832	162.656	-0.668	4.443	7.149	12.288	334.964	8.144	-8191	255	
8746.166	1	1	0	0	0.14562	0.10522	0.10226	0.1099	0.041668	0.038767	0.11285	0.082548	0.15731	0.10955	0.15388	0.18864	0.11217	0.28052	0.086417	0.065204	-2.4	-2.9833	-3.4729	-2.8396	-3.3958	-3.2167	-2.6896	-3.6833	-3.0979	-3.0208	-3.4854	-2.8312	-3.3833	-3.3708	-2.7333	-3.6167	214.002	246.116	127.819	41.256	5.864	323.805	316.474	207.042	300.592	59.383	333.841	-4.585	22.544	204.053	187.110	202.408	0.0005338	0.00016388	6.7028e-05	295.19	3.3004e-06	1.4924e-06	370.39	120.73	3.2891e-06	1.4524e-06	166.7	76.8	56.943	25.73	1.787e-06	36.16	0.00038595	0.00042603	0.00010556	356.16	4.2333e-06	4.6188e-06	440.53	142.68	4.3175e-06	4.5769e-06	194.99	85.925	66.26	29.259	4.0068e-06	39.645	303.803	10.428	27.397	-4.589	182.402	110.147	-5.504	1.799	107.018	23.400	-0.844	4.468	7.157	12.065	6.227	8.143	-8191	255	
8746.287	1	1	0	0	0.24985	0.18418	0.23034	0.047642	0.12793	0.22366	0.17973	0.21651	0.12118	0.093466	0.022979	0.061627	0.19413	0.17072	0.18917	0.090519	-2.5375	-2.9938	-3.4813	-2.7687	-3.3	-3.4229	-2.8438	-3.4146	-2.9062	-2.9208	-3.525	-2.8563	-3.2021	-3.3875	-2.7604	-3.6042	66.848	306.696	290.811	99.064	-9.540	114.602	38.297	135.220	42.216	286.435	179.471	97.479	328.274	-1.128	47.274	260.006	0.00057946	0.00047175	0.00015267	294.4	3.9149e-06	5.0647e-06	371.12	120.82	4.0615e-06	3.9768e-06	166.01	76.416	56.779	25.525	3.9852e-06	35.7	0.00040438	0.00040291	0.00010138	355.38	4.4631e-06	4.4071e-06	438.28	143.02	4.5762e-06	4.3738e-06	193.87	85.767	66.637	29.015	4.0349e-06	39.602	296.161	328.935	-10.201	-4.703	123.880	65.725	-5.959	1.855	176.021	54.760	-0.615	4.390	7.146	12.021	74.360	8.050	-8191	255	
8746.383	1	1	0	0	0.1264	0.074516	0.18733	0.11803	0.16262	0.13402	0.19904	0.18995	0.19548	0.15585	0.073573	0.14639	0.19965	0.25788	0.11617	0.15484	-2.5167	-2.8438	-3.4417	-2.9	-3.2292	-3.6333	-2.6625	-3.3083	-3.2521	-2.8229	-3.4646	-2.9875	-3.0292	-3.4938	-2.7104	-3.5042	92.421	194.647	282.359	305.226	230.014	335.310	225.585	242.238	313.732	12.690	315.026	308.421	331.688	-13.568	222.443	235.352	0.00045012	0.0002769	3.4532e-05	294.25	1.2127e-06	3.8555e-06	368.61	120.12	1.6707e-06	2.1332e-06	166.01	76.247	56.506	25.461	4.1692e-07	35.795	0.00043319	0.0003972	0.00010175	359.21	4.7635e-06	4.3323e-06	437.74	144.36	4.8359e-06	4.3367e-06	193.59	86.474	66.855	28.878	4.0716e-06	39.973	316.763	334.267	200.563	-4.564	130.226	39.883	-5.557	1.713	242.854	50.873	-0.845	4.405	7.012	12.300	178.896	8.164	-8191	255	
8746.455	1	1	0	0	0.22137	0.065851	0.12548	0.2188	0.31495	0.030346	0.028902	0.24772	0.14868	0.1985	0.19709	0.25506	0.062096	0.23975	0.19726	0.30438	-2.7583	-2.7771	-3.4688	-2.825	-3.0833	-3.3187	-2.875	-3.2188	-3.2875	-2.9562	-3.5979	-2.925	-3.0917	-3.3563	-2.7792	-3.2479	166.805	316.433	274.831	217.692	322.142	255.245	49.099	316.612	160.858	186.515	94.997	-10.100	2.713	74.917	203.621	15.047	0.00030874	0.00015183	4.962e-05	292.46	3.3843e-06	4.3089e-06	369.55	119.83	2.7268e-06	2.9616e-06	166.17	76.757	56.454	25.516	1.252e-06	36.224	0.00043873	0.00039076	0.00010167	363.74	4.7969e-06	4.2821e-06	438.02	146.84	4.8323e-06	4.3971e-06	194.66	88.095	66.785	28.971	4.1935e-06	40.715	294.118	94.515	325.655	-4.655	143.761	95.991	-5.730	1.900	323.723	42.954	-0.587	4.337	6.882	12.200	198.378	8.273	-8191	255	
8746.551	1	1	0	0	0.06381	0.26469	0.16932	0.10218	0.2632	0.11795	0.079056	0.22099	0.25521	0.17896	0.056455	0.15467	0.21668	0.19348	0.13771	0.043944	-2.8021	-2.7729	-3.4	-3.0896	-2.7979	-3.4125	-2.775	-3.0271	-3.2521	-2.7896	-3.4479	-2.9542	-2.8625	-3.5167	-2.7854	-3.2562	151.436	15.557	184.276	243.054	62.686	341.780	171.173	257.158	-11.592	44.466	4.296	174.277	5.671	341.767	205.896	192.253	0.00035552	0.00033119	0.0001732	292.05	5.6925e-06	2.8823e-06	367.58	120.83	2.1506e-06	2.1672e-06	165.3	76.452	56.46	25.429	2.0167e-06	35.919	0.00042937	0.00038882	0.00010467	366.33	4.554e-06	4.1395e-06	438.46	147.83	4.5422e-06	4.2617e-06	195.76	88.404	66.267	28.85	4.4317e-06	40.67	296.897	27.499	185.775	-4.563	11.785	31.062	-5.638	1.858	242.937	121.773	-0.611	4.678	7.000	11.912	167.759	8.042	-8191	255	
8746.671	1	1	0	0	0.22824	0.3603	0.05068	0.13997	0.15183	0.17349	0.17727	0.12905	0.10343	0.073623	0.095162	0.24202	0.31934	0.18339	0.089102	0.33179	-3.0604	-2.6521	-3.1688	-3.2417	-2.7375	-3.5687	-2.9021	-3.1063	-3.2667	-2.65	-3.5146	-3.2125	-2.7562	-3.3583	-2.8458	-3.0812	146.101	290.382	124.148	98.148	225.917	86.527	223.328	279.318	-14.287	-13.546	330.439	5.358	307.275	-11.332	121.577	312.997	0.00037001	0.00016889	0.00011535	290.29	2.8146e-06	2.3807e-06	365.87	120.18	3.5422e-06	1.7926e-06	165.31	75.754	56.119	25.456	4.669e-06	35.817	0.00041034	0.00038242	0.00011221	366.54	4.4109e-06	4.0879e-06	440.71	147.3	4.2991e-06	4.06e-06	195.9	87.248	65.418	28.664	4.5467e-06	40.204	296.581	268.899	120.482	-4.834	117.391	89.913	-5.559	1.656	13.845	141.684	-0.697	4.238	7.008	12.192	156.565	8.067	-8191	255	
8746.768	1	1	0	0	0.038881	0.088403	0.12027	0.11283	0.10613	0.15708	0.089257	0.27004	0.18291	0.17192	0.17798	0.045372	0.1667	0.098941	0.29292	0.30983	-3.0333	-2.7229	-3.1417	-3.1104	-2.8167	-3.4896	-3.1792	-3.025	-3.4375	-2.8312	-3.1937	-3.3458	-2.7708	-3.3521	-2.9938	-2.9437	170.204	159.511	39.966	128.171	123.188	257.900	186.740	301.910	-12.564	230.779	255.236	234.554	63.634	110.715	321.669	-8.032	0.00036327	1.5723e-05	0.00018445	292.96	6.4674e-06	1.5385e-06	365.2	120.31	9.5126e-07	2.9589e-06	164.87	76.183	56.542	25.47	1.7791e-06	36.001	0.00038591	0.00036591	0.0001172	365.01	4.2724e-06	4.0873e-06	446.42	146.92	4.2813e-06	4.1931e-06	199.36	87.296	65.675	28.845	4.8063e-06	40.195	305.810	138.304	98.952	-4.418	66.730	176.062	-5.736	1.260	128.589	123.074	-0.573	4.492	7.129	12.535	151.286	8.054	-8191	255	
8746.862	1	1	0	0	0.085333	0.093255	0.08425	0.22754	0.039092	0.15986	0.14946	0.1888	0.13607	0.20325	0.21474	0.089888	0.24063	0.25831	0.10025	0.24997	-3.0458	-2.5396	-3.1875	-3.3646	-2.5167	-3.4938	-3.1	-2.6771	-3.4729	-2.8125	-3.2188	-3.3833	-2.5083	-3.2687	-3.1188	-2.9688	159.252	57.703	270.090	284.912	-3.456	299.916	119.328	309.492	117.937	256.129	338.022	111.295	-1.617	55.075	114.462	64.764	0.00036762	0.00027443	0.00021436	292.25	4.1132e-06	1.312e-06	367.8	120.96	3.0321e-06	4.6447e-06	165.93	76.412	56.938	25.634	1.1963e-06	36.2	0.00037075	0.00037103	0.00012034	360.13	3.9769e-06	4.0291e-06	445.2	144.74	3.8357e-06	4.0332e-06	198.35	86.307	65.09	28.924	4.5783e-06	39.905	298.612	123.163	97.397	-4.641	100.744	147.564	-5.850	1.554	9.835	208.542	-0.833	4.406	7.314	12.271	167.946	8.195	-8191	255	
8746.960	1	1	0	0	0.11844	0.32514	0.12541	0.20303	0.11462	0.097301	0.014841	0.15841	0.042669	0.21057	0.091472	0.13268	0.12352	0.22545	0.042807	0.16684	-3.1937	-2.9208	-2.9229	-3.4042	-2.6646	-3.3917	-3.3688	-2.8646	-3.5042	-2.9604	-2.9604	-3.5187	-2.8771	-3.2333	-3.1646	-2.8083	293.299	278.664	52.147	42.191	44.107	21.333	104.391	122.154	58.094	339.314	-13.224	320.857	109.885	341.786	328.419	263.783	0.00041633	0.00057516	5.6731e-05	292.97	3.0309e-06	4.0355e-06	369.26	121.29	1.717e-06	2.8735e-06	167.86	77.204	57.513	25.681	2.4327e-06	36.312	0.00034491	0.00037946	0.00011461	356.54	3.7657e-06	4.1387e-06	443.95	143.9	3.6933e-06	4.224e-06	197.63	86.156	65.234	29.112	4.1919e-06	39.772	303.753	106.874	339.158	-4.751	-0.162	169.210	-5.324	1.613	142.809	165.136	-0.644	4.311	7.093	12.164	73.898	8.196	-8191	255	
8747.054	1	1	0	0	0.12312	0.22704	0.289	0.11249	0.074427	0.0822	0.22587	0.25054	0.29085	0.14122	0.10853	0.30667	0.15645	0.16289	0.14302	0.16215	-3.1104	-2.875	-2.8042	-3.4333	-3.0187	-3.2938	-3.3458	-2.6146	-3.3333	-2.9896	-2.9771	-3.4479	-2.9688	-3.1479	-3.4437	-2.8458	173.462	177.070	318.475	12.802	49.146	310.216	-14.775	42.674	67.025	143.776	4.294	254.356	239.685	341.774	148.130	288.697	0.00042667	0.00044587	0.00018068	295.22	3.7582e-06	5.3425e-06	371.37	121.74	1.663e-06	2.8351e-06	167.27	76.717	57.148	25.785	1.9759e-06	36.155	0.00032861	0.00038091	0.00010444	353.88	3.6155e-06	4.2232e-06	440.1	142.99	3.6411e-06	4.2838e-06	194.7	85.43	65.209	29.145	3.9306e-06	39.4	299.794	109.169	332.407	-4.775	195.354	141.551	-5.783	1.540	121.799	69.490	-0.728	4.508	7.038	12.285	47.129	7.871	-8191	255	
8747.150	1	1	0	0	0.10217	0.22531	0.16179	0.14715	0.26125	0.078669	0.27055	0.086161	0.1589	0.15628	0.095358	0.26568	0.21115	0.16511	0.094224	0.13196	-2.9813	-3.0646	-2.7062	-3.5187	-2.8937	-3.2104	-3.3542	-2.775	-3.35	-3.1562	-2.8	-3.4896	-3.0417	-3.0583	-3.5312	-2.6042	31.462	106.808	244.344	335.990	92.875	216.513	24.107	233.578	62.283	173.132	262.336	289.515	139.358	271.260	47.229	283.186	0.00043491	0.0003745	9.7144e-05	295.79	3.9429e-06	5.9366e-07	370.34	121.84	4.536e-06	2.0452e-06	166.61	76.693	57.224	25.831	1.2365e-07	36.096	0.00033849	0.00039029	9.8508e-05	352.6	3.7656e-06	4.2692e-06	435.7	142.2	3.7944e-06	4.2094e-06	192.8	84.992	65.574	29.174	3.6923e-06	39.427	304.353	44.538	337.366	-4.552	178.673	26.749	-5.611	1.874	149.653	49.355	-0.760	4.116	7.063	12.107	16.175	8.129	-8191	255	
8747.271	1	1	0	0	0.26815	0.17462	0.11566	0.26839	0.084345	0.24781	0.049534	0.094224	0.099919	0.17243	0.18683	0.10964	0.21733	0.05959	0.29062	0.30998	-2.7958	-3.1833	-2.9417	-3.3646	-2.8979	-3.0458	-3.6271	-2.9188	-3.4875	-3.3146	-2.8792	-3.5563	-2.9667	-2.9833	-3.5375	-2.8812	60.234	108.816	169.247	260.765	177.167	294.726	67.396	334.223	260.041	253.711	229.121	85.849	273.595	228.437	150.335	60.226	0.00062153	0.00028762	9.1787e-05	295.01	3.6935e-06	2.2308e-06	369.89	121.95	2.7751e-06	4.6716e-06	167.03	76.976	57.513	25.926	1.3736e-06	36.372	0.00035528	0.00037562	9.364e-05	351.44	3.9721e-06	4.0902e-06	434.22	142.27	4.0561e-06	4.064e-06	192.63	85.345	66.386	29.173	3.6442e-06	39.67	299.152	329.823	-6.995	-4.665	195.264	28.660	-5.821	1.677	169.257	47.171	-0.516	4.471	7.115	12.246	125.494	8.219	-8191	255	
8747.367	1	1	0	0	0.13346	0.13045	0.30823	0.13391	0.2537	0.08983	0.19379	0.10903	0.3249	0.20178	0.121	0.26401	0.071166	0.17211	0.28689	0.17751	-2.8333	-3.3521	-2.825	-3.4708	-3.2104	-2.9854	-3.3604	-2.8542	-3.3042	-3.3458	-2.9188	-3.6083	-3.1458	-3.0979	-3.6271	-2.9917	108.905	13.786	75.067	259.219	5.692	226.907	28.339	193.673	90.835	15.341	123.108	304.012	9.188	300.440	57.861	254.756	0.00053768	0.00032594	5.2773e-05	296.34	4.3685e-06	2.5227e-06	372.29	122.21	2.4341e-06	2.187e-06	168.63	77.039	57.505	25.998	1.5421e-06	36.502	0.00038101	0.00036174	9.2724e-05	353.71	4.2056e-06	3.9294e-06	434.37	143.25	4.1992e-06	3.8253e-06	192.82	86.022	66.624	29.105	3.5117e-06	40.097	297.713	66.545	-0.362	-4.685	200.945	80.090	-5.619	1.720	161.550	95.567	-0.735	4.508	7.132	12.008	51.177	8.170	-8191	255	
8747.463	1	1	0	0	0.15151	0.26851	0.18885	0.090816	0.21995	0.071853	0.077006	0.083209	0.10166	0.079261	0.16002	0.286	0.061978	0.23276	0.22194	0.17177	-2.6813	-3.2479	-2.8229	-3.3208	-3.2375	-2.9167	-3.5792	-2.9708	-2.9708	-3.5917	-2.7604	-3.3458	-3.3667	-2.9	-3.4583	-3.1604	10.821	236.382	84.766	96.263	191.779	56.273	248.494	144.501	41.357	92.849	3.649	309.152	83.028	-8.071	272.430	204.951	0.00040088	0.00019951	9.3589e-05	295.59	1.414e-06	4.2245e-06	370.7	122.36	4.399e-06	1.6246e-06	167.65	76.885	57.485	25.921	3.913e-06	36.431	0.00038447	0.00034273	8.9701e-05	356.36	4.1801e-06	3.7565e-06	432.05	144.7	4.1703e-06	3.7108e-06	191.87	86.41	66.356	28.936	3.4772e-06	40.132	282.184	28.872	27.037	-4.290	1.118	58.501	-5.428	1.506	65.228	23.387	-0.729	4.573	7.037	12.256	109.537	8.061	-8191	255	
8747.560	1	1	0	0	0.26446	0.056985	0.12874	0.17313	0.29425	0.24376	0.10359	0.11812	0.093497	0.098319	0.067827	0.19997	0.054282	0.21711	0.19025	0.081359	-2.6583	-3.3167	-2.75	-3.3146	-3.3104	-2.6708	-3.6813	-3.0333	-3.0021	-3.5563	-3.0187	-3.2771	-3.2979	-2.8396	-3.4646	-3.0667	74.699	36.804	305.839	263.721	155.200	113.107	329.945	319.304	162.545	217.108	222.413	314.739	-7.270	201.467	327.507	-15.521	0.00029921	0.00018093	0.00017008	295.05	3.3363e-06	1.6285e-06	371.1	122.14	1.3445e-06	2.0491e-06	166.61	76.404	57.343	25.864	1.1968e-06	36.341	0.00037082	0.00032996	8.883e-05	359.25	3.9804e-06	3.6357e-06	431.93	145.77	3.9915e-06	3.5912e-06	191.58	86.722	65.839	28.825	3.6322e-06	40.341	286.507	335.273	59.307	-4.324	294.071	68.108	-5.655	1.794	130.122	4.494	-0.496	4.448	6.953	12.298	88.659	8.206	-8191	255	
8747.680	1	1	0	0	0.1555	0.056297	0.14145	0.16004	0.12774	0.2809	0.18428	0.17016	0.15187	0.12483	0.35557	0.25625	0.11389	0.11957	0.11033	0.14482	-2.6792	-3.525	-2.8063	-3.3563	-3.4646	-2.9521	-3.5938	-3.2458	-2.9854	-3.475	-2.9208	-3.1	-3.4896	-2.8563	-3.4667	-3.2562	168.689	326.648	152.592	300.229	341.285	188.595	194.650	-0.214	218.417	20.792	31.661	317.783	149.195	117.820	177.537	234.608	0.00035679	0.00023152	0.00019132	296.62	3.4379e-06	2.0574e-06	367.71	121.9	3.6917e-06	1.7383e-06	166.98	76.378	57.229	25.761	1.6605e-06	36.066	0.00036467	0.00033352	9.5778e-05	363.89	3.9434e-06	3.6946e-06	435.04	146.58	3.9204e-06	3.6488e-06	193.71	86.872	65.532	28.662	3.9519e-06	40.068	321.575	10.881	135.846	-4.458	11.053	17.730	-5.529	1.844	43.213	111.301	-0.337	4.443	7.009	12.400	114.230	7.912	-8191	255	
8747.752	1	1	0	0	0.15408	0.092958	0.15866	0.12926	0.061778	0.22247	0.16213	0.11902	0.14077	0.13165	0.17463	0.11351	0.033586	0.11424	0.096539	0.1835	-2.5229	-3.5292	-3.0417	-3.1021	-3.5354	-2.7771	-3.3604	-3.1729	-2.8729	-3.4958	-3.0208	-3.1813	-3.4542	-2.7458	-3.5458	-3.5	300.341	297.319	156.946	117.953	198.028	228.152	41.720	186.773	203.697	93.623	278.483	12.594	9.016	198.617	230.520	117.410	0.0004896	0.00018971	0.00012551	295.28	3.3943e-06	1.7677e-06	370.22	120.46	5.8741e-06	1.5973e-06	165.81	76.385	56.756	25.434	1.8586e-06	35.63	0.00035684	0.00033229	0.00010384	362.86	3.8459e-06	3.6739e-06	439.41	145.24	3.8804e-06	3.6849e-06	195.82	86.929	65.506	28.491	4.4728e-06	39.78	289.699	266.026	101.290	-4.746	137.595	133.016	-5.444	1.609	0.056	90.746	-0.374	4.433	7.026	12.188	142.706	8.120	-8191	255	
8747.848	1	1	0	0	0.1223	0.20173	0.046607	0.21427	0.09347	0.099532	0.24074	0.32184	0.17475	0.30527	0.17605	0.27687	0.19156	0.13147	0.18867	0.087402	-2.4625	-3.3125	-3.1646	-3.0187	-3.4958	-2.8417	-3.275	-3.3125	-2.7417	-3.6417	-3.1896	-3.0542	-3.5854	-2.95	-3.3375	-3.4437	210.694	316.011	155.237	311.950	283.865	319.990	317.117	341.673	279.371	138.066	165.635	317.777	-9.691	38.350	279.964	291.814	0.00023679	0.00045777	0.0001922	295.12	3.8225e-06	3.1402e-06	366.27	119.4	3.7146e-06	7.9601e-07	164.22	75.713	56.871	24.967	1.6986e-06	34.998	0.00036848	0.00035466	0.00011594	362.76	3.9618e-06	3.9293e-06	444.07	143.76	3.9156e-06	3.8778e-06	196.05	85.882	64.836	28.164	4.5411e-06	38.736	310.042	126.258	92.461	-4.700	81.409	212.519	-5.339	1.904	209.822	190.370	-0.599	4.621	6.997	12.342	156.527	8.286	-8191	255	
8747.967	1	1	0	0	0.34126	0.15549	0.17001	0.020198	0.22273	0.30436	0.14891	0.24806	0.030763	0.20464	0.27704	0.079767	0.05516	0.054885	0.16081	0.129	-2.5396	-3.5062	-3.2812	-2.9479	-3.7083	-3.0625	-3.2167	-3.5396	-2.9042	-3.5396	-3.2667	-2.9208	-3.4062	-3.1104	-3.1521	-3.4833	82.171	67.694	165.539	326.353	117.077	100.962	291.014	-5.016	78.858	188.224	23.002	328.211	123.485	271.916	52.112	-0.320	0.00044093	0.00038111	0.00010438	294.44	3.1597e-06	2.695e-06	362.61	118.49	2.5527e-06	3.6301e-06	163.27	75.623	56.565	25.159	2.9885e-06	35.221	0.00035482	0.00036975	0.00011826	359.57	3.9417e-06	4.2629e-06	443.02	142.43	3.9912e-06	4.3233e-06	196.03	85.371	64.87	28.635	4.66e-06	38.984	314.867	128.646	1.588	-4.552	327.972	150.925	-5.470	1.495	-4.184	200.140	-0.673	4.304	7.162	12.226	339.330	8.141	-8191	255	
8748.063	1	1	0	0	0.15548	0.14348	0.10448	0.32693	0.12878	0.23436	0.054064	0.18257	0.17328	0.065703	0.25493	0.095685	0.21064	0.085476	0.13017	0.035601	-2.6437	-3.3521	-3.2479	-2.8438	-3.5542	-2.8792	-3.1083	-3.4708	-2.7396	-3.275	-3.3792	-2.8771	-3.4125	-3.0271	-3.1396	-3.5708	323.260	247.104	122.654	99.310	156.505	249.266	254.467	304.758	289.424	114.101	298.161	229.516	43.840	94.836	49.555	66.980	0.00032637	0.00059538	8.8586e-05	293.43	2.9339e-06	6.4207e-06	364.72	119.67	3.961e-06	2.5361e-06	163.93	75.619	56.611	25.373	1.5055e-06	35.581	0.00035996	0.00040777	0.00011597	357.94	3.8458e-06	4.4498e-06	440.2	142.11	3.8129e-06	4.4034e-06	193.89	84.943	64.787	28.955	4.3258e-06	39.244	283.523	77.712	-11.786	-4.786	68.586	163.756	-5.847	1.752	167.848	155.849	-0.689	4.497	7.085	12.329	9.437	7.876	-8191	255	
8748.159	1	1	0	0	0.13396	0.10439	0.31864	0.21583	0.034246	0.069846	0.10935	0.20668	0.11811	0.20002	0.045599	0.055428	0.22525	0.2476	0.29848	0.14267	-2.3896	-3.2271	-3.1833	-2.9208	-3.4479	-3.0167	-2.9062	-3.6021	-2.9813	-3.1875	-3.3479	-2.825	-3.3146	-3.3479	-2.9833	-3.5729	285.332	201.081	223.585	313.597	69.602	128.924	141.118	265.559	212.320	256.097	271.741	238.182	85.710	241.418	-9.487	311.334	0.00038713	0.00022705	5.6449e-05	296.11	2.6092e-06	3.735e-06	367.05	119.8	5.1859e-06	3.0563e-06	165.44	76.242	56.951	25.497	3.0077e-06	35.798	0.00036334	0.00042138	0.00010981	357.14	3.9685e-06	4.6179e-06	438.31	142.3	4.0089e-06	4.572e-06	193.67	85.263	65.516	29.1	4.0009e-06	39.239	311.139	99.526	333.406	-4.659	245.382	153.948	-5.604	1.961	173.464	146.747	-0.615	4.430	7.250	12.249	47.841	8.106	-8191	255	
8748.255	1	1	0	0	0.1985	0.31104	0.20197	0.03465	0.22946	0.14103	0.2854	0.16762	0.078631	0.025265	0.15072	0.18234	0.25867	0.25369	0.17578	0.30697	-2.65	-2.85	-3.4646	-2.7812	-3.4458	-3.3438	-2.8583	-3.4313	-2.9583	-3.1208	-3.3958	-2.8167	-3.3583	-3.4	-2.875	-3.4583	47.501	323.467	139.957	214.105	176.181	153.655	79.027	316.734	84.415	50.068	14.803	75.419	177.532	63.432	174.116	318.391	0.00049691	0.00040923	0.00016921	296.22	4.5969e-06	3.4932e-06	369.49	120.2	5.1259e-06	3.5103e-06	165.98	76.57	57.122	25.588	3.8464e-06	35.725	0.00036741	0.00040206	0.00010016	354.36	4.0426e-06	4.3971e-06	435.8	141.98	4.1818e-06	4.4158e-06	193.06	85.43	66.347	29.086	3.9538e-06	39.22	317.997	43.349	272.929	-4.490	175.393	2.926	-5.845	1.928	149.121	34.501	-0.744	4.417	7.243	12.314	13.698	8.070	-8191	255	
8748.351	1	1	0	0	0.16246	0.18005	0.11898	0.23845	0.26493	0.16026	0.21034	0.12164	0.042636	0.13123	0.136	0.20291	0.19214	0.21424	0.17866	0.10297	-2.7125	-2.8667	-3.4854	-2.7979	-3.2833	-3.3458	-2.6917	-3.575	-3.1146	-2.7687	-3.5396	-2.8542	-3.3063	-3.3271	-2.7146	-3.4521	44.967	4.776	178.338	173.788	160.229	5.506	205.050	-11.805	181.002	332.646	311.250	-1.105	195.044	-9.317	-2.016	91.651	0.000464	0.00056433	0.00010376	296.39	7.0509e-06	4.0301e-06	367.55	120.5	1.3219e-06	1.2669e-06	165.91	75.824	57.006	25.513	1.5468e-06	35.572	0.0003991	0.00039838	0.0001003	356.77	4.47e-06	4.3718e-06	435.99	142.57	4.6028e-06	4.3563e-06	192.65	85.328	66.847	28.957	3.9922e-06	39.359	292.994	4.993	302.256	-4.704	200.300	60.469	-5.718	1.743	158.273	46.366	-0.591	4.489	7.176	12.250	39.280	7.976	-8191	255	
8748.448	1	1	0	0	0.1031	0.12316	0.16782	0.19901	0.035934	0.071748	0.23677	0.13688	0.19778	0.23091	0.15193	0.098423	0.092508	0.10403	0.18532	0.26681	-2.5271	-3.0125	-3.3063	-3.0729	-3.0625	-3.4938	-2.7708	-3.5354	-3.0146	-2.9042	-3.5021	-2.9562	-3.0438	-3.4729	-2.8479	-3.4708	227.091	0.416	134.003	265.613	297.278	221.988	259.852	-4.638	289.062	170.177	206.917	0.127	194.709	278.744	220.861	303.752	0.0004688	0.00030734	4.0779e-05	296.42	3.9361e-06	2.0385e-06	367.38	120.46	1.6872e-06	3.3347e-06	164.54	75.689	56.816	25.441	3.5606e-06	35.601	0.00043021	0.0003935	0.00010155	360.05	4.7243e-06	4.2806e-06	435.15	144.47	4.7775e-06	4.2819e-06	192.32	86.163	67.092	28.893	3.9895e-06	39.759	303.094	7.756	31.841	-4.774	46.413	58.445	-5.506	1.862	35.886	36.425	-0.952	4.529	7.349	12.259	94.078	8.461	-8191	255	
8748.544	1	1	0	0	0.18964	0.1155	0.21891	0.07042	0.24813	0.18773	0.2597	0.23492	0.12035	0.2484	0.20927	0.095754	0.14352	0.10467	0.13427	0.20218	-2.8479	-2.7083	-3.4938	-3.1271	-3.0187	-3.4396	-2.8021	-3.4146	-3.3	-2.8187	-3.4771	-2.95	-3.0208	-3.4271	-2.7083	-3.0708	134.086	2.890	9.293	12.594	318.491	260.562	207.322	4.935	23.994	196.252	229.427	291.555	189.335	208.835	195.651	297.914	0.00044199	0.00035926	3.5816e-05	294.62	6.2467e-06	9.6616e-07	365.85	120.22	3.3703e-06	3.7879e-07	164.91	76.327	56.732	25.484	2.2248e-06	35.755	0.00042816	0.00038102	9.8699e-05	363.01	4.5606e-06	4.0739e-06	433.39	145.7	4.5105e-06	4.0809e-06	191.84	87.112	66.56	28.778	3.8695e-06	40.091	297.869	8.926	161.498	-4.699	42.896	161.769	-5.710	1.615	41.751	20.362	-0.402	4.716	6.867	12.271	96.878	8.124	-8191	255	
8748.640	1	1	0	0	0.072019	0.080374	0.14	0.28599	0.083872	0.2108	0.12736	0.099629	0.15679	0.15357	0.15832	0.27828	0.19419	0.19816	0.037679	0.048175	-2.8312	-2.6521	-3.3625	-3.075	-3.0646	-3.3083	-3.0375	-3.0875	-3.2896	-2.6354	-3.5812	-3.1437	-2.95	-3.5875	-2.6937	-3.0938	147.467	211.559	83.116	326.518	212.978	242.357	315.224	53.186	309.961	133.086	324.816	237.750	277.889	337.478	224.448	230.292	0.00018839	0.00018006	0.00016414	295.98	2.1242e-06	2.0236e-06	367.72	120.62	7.183e-06	2.6234e-06	165.65	76.758	57.015	25.618	4.8544e-06	35.691	0.00040187	0.00036659	9.971e-05	367.48	4.361e-06	3.987e-06	436.81	147.32	4.3245e-06	3.9848e-06	193.46	87.699	66.221	28.726	4.0549e-06	40.205	315.277	320.481	114.473	-4.635	4.133	214.295	-5.438	1.756	66.270	40.335	-0.331	4.465	7.044	12.205	153.123	8.249	-8191	255	
8748.761	1	1	0	0	0.17336	0.16187	0.23573	0.24224	0.22856	0.149	0.11998	0.31895	0.039949	0.14969	0.26355	0.2642	0.22425	0.29306	0.071745	0.24203	-3.0083	-2.6771	-3.4979	-3.1479	-2.8833	-3.5583	-2.9688	-3.0604	-3.3271	-2.8104	-3.3542	-3.2167	-2.8229	-3.3958	-3.0354	-3.0958	58.802	294.863	247.801	334.936	111.403	86.925	303.576	201.728	-7.634	155.015	85.745	23.293	21.534	21.851	205.084	-15.582	0.0003137	8.6549e-05	0.0001675	296.33	3.025e-06	2.082e-06	366.76	121.02	2.9399e-06	1.7951e-06	165.61	76.172	57.169	25.501	6.091e-06	35.615	0.00037778	0.00035367	0.00010438	366.91	4.1048e-06	3.8558e-06	440.11	146.99	4.1412e-06	3.9318e-06	195.81	87.22	66.091	28.678	4.5351e-06	40.022	281.712	9.345	95.967	-4.592	78.027	155.561	-5.491	1.451	41.436	180.152	-0.345	4.480	6.995	12.434	184.907	8.188	-8191	255	
8748.855	1	1	0	0	0.16501	0.089925	0.2098	0.074977	0.079682	0.073446	0.13179	0.18976	0.066816	0.13331	0.21216	0.12188	0.12168	0.14284	0.046358	0.23926	-2.9875	-2.6604	-3.2333	-3.2917	-2.8229	-3.5896	-3.0146	-2.8708	-3.5375	-2.8375	-3.3708	-3.1125	-2.8104	-3.4813	-3.1458	-3.3063	287.232	319.695	317.441	184.588	-7.157	175.286	205.083	207.855	38.904	15.773	295.888	46.594	234.733	193.563	171.387	161.703	0.0003009	0.00019319	0.00011548	295.58	2.5172e-06	8.8628e-07	365.35	120.67	6.1549e-07	5.0578e-06	164.75	75.76	56.856	25.54	6.6472e-06	35.605	0.00038385	0.00036626	0.00011782	367.34	4.1916e-06	4.0204e-06	445.01	146.42	4.1558e-06	4.0925e-06	197.65	86.677	65.835	28.805	4.8879e-06	39.878	314.738	158.130	104.044	-4.976	71.602	143.117	-5.310	1.671	55.474	161.834	-0.425	4.442	6.901	12.314	122.138	8.175	-8191	255	
8748.953	1	1	0	0	0.22439	0.098856	0.045941	0.18796	0.020543	0.17507	0.078769	0.23638	0.126	0.14929	0.043542	0.032505	0.12031	0.23211	0.034227	0.26284	-3.2167	-2.8583	-3.0187	-3.3646	-2.7479	-3.3417	-3.1333	-2.9146	-3.5146	-2.8417	-3.2562	-3.3792	-2.7687	-3.3479	-3.3187	-2.9146	55.840	161.341	336.727	85.051	157.429	328.143	188.933	249.306	25.378	55.213	178.705	295.909	237.434	-1.099	83.875	326.360	0.00038605	0.00028179	0.0001226	295.38	2.8501e-06	3.3025e-06	365.23	120.03	1.7167e-06	1.6684e-06	163.27	75.646	56.932	25.521	3.4773e-06	35.577	0.00038359	0.00038771	0.00012545	364.1	4.1494e-06	4.2389e-06	447.52	145.32	4.0861e-06	4.3546e-06	198.86	86.266	65.749	29.052	4.9397e-06	39.817	305.445	140.638	129.627	-4.640	36.992	112.780	-5.752	1.425	286.715	171.466	-0.585	4.300	7.202	12.534	75.639	8.231	-8191	255	
8749.049	1	1	0	0	0.17923	0.2034	0.082451	0.052977	0.18299	0.10334	0.24689	0.27101	0.0061572	0.21454	0.11307	0.19775	0.092913	0.076961	0.077111	0.059002	-3.175	-3.0083	-3.0771	-3.5958	-2.6708	-3.5479	-3.2479	-2.9396	-3.5208	-2.9625	-3.0708	-3.4646	-2.9354	-3.4042	-3.2604	-3	55.257	286.646	114.044	78.765	51.996	198.520	273.203	293.700	262.279	263.080	-11.306	244.129	50.016	38.119	331.569	108.348	0.00051622	0.00032554	0.00011491	293.87	2.3978e-06	5.6198e-06	368.06	120.62	6.9204e-07	5.5592e-06	165.23	76.029	56.965	25.545	2.3786e-06	35.938	0.0003747	0.00041481	0.00012512	362.24	4.0894e-06	4.5862e-06	447.06	144.63	4.0422e-06	4.6613e-06	198.41	86.254	65.772	29.301	4.6672e-06	39.876	306.591	134.513	31.099	-4.849	152.664	174.983	-5.841	1.613	31.287	185.429	-0.659	4.598	7.126	12.509	15.534	8.219	-8191	255	
8749.143	1	1	0	0	0.14675	0.089809	0.1114	0.24203	0.11677	0.23309	0.046051	0.22904	0.11538	0.11485	0.25896	0.10683	0.20215	0.23445	0.033949	0.12947	-3.0438	-2.9646	-3.0458	-3.4875	-2.9146	-3.2583	-3.3833	-2.7188	-3.5875	-3.05	-2.8812	-3.525	-2.9104	-3.3375	-3.2833	-2.7875	235.264	303.986	272.018	241.449	51.152	193.591	136.334	145.525	158.157	111.140	326.577	209.361	-6.215	250.975	241.858	225.915	0.00041714	7.6956e-05	0.0001143	295.65	5.4492e-06	2.4541e-06	366.33	120.5	2.6962e-06	4.3334e-06	165.25	76.047	56.75	25.557	4.221e-06	35.751	0.00037041	0.00043555	0.00011905	360.95	4.1389e-06	4.8468e-06	444.12	144.45	4.1634e-06	4.9258e-06	196.98	85.959	66.092	29.521	4.5291e-06	39.588	294.959	106.344	329.242	-4.762	181.626	89.004	-5.770	1.726	150.823	179.310	-0.830	4.438	7.371	12.035	46.732	8.199	-8191	255	
8749.240	1	1	0	0	0.085674	0.070263	0.10557	0.11431	0.044155	0.25649	0.14966	0.051594	0.14189	0.10508	0.27581	0.0985	0.15541	0.19202	0.0777	0.085145	-2.8438	-3.1312	-3.0187	-3.5646	-3.0229	-3.1688	-3.5333	-2.7583	-3.4854	-3.3917	-2.975	-3.6771	-2.9437	-3.2687	-3.4417	-2.9292	82.898	245.049	75.912	126.313	262.855	343.452	245.522	20.968	196.900	306.755	320.988	138.461	85.936	55.864	288.790	85.331	0.00066024	0.00040257	0.00012516	294.22	5.2958e-06	1.436e-06	366.67	119.68	6.1687e-06	1.0234e-06	165.2	75.452	56.89	25.568	1.688e-06	35.687	0.00039243	0.00045085	0.00011284	359.16	4.3072e-06	4.8705e-06	439.43	143.61	4.3633e-06	4.8343e-06	194.63	85.226	66.53	29.39	4.2292e-06	39.375	317.419	50.597	4.066	-4.609	163.656	223.785	-5.899	1.637	163.668	28.287	-0.553	4.592	7.303	12.184	110.203	8.217	-8191	255	
8749.360	1	1	0	0	0.094537	0.13393	0.15054	0.079404	0.16783	0.15424	0.12641	0.31728	0.26587	0.11915	0.25763	0.067782	0.15541	0.046353	0.098923	0.13613	-2.9229	-3.1688	-2.7708	-3.4688	-2.9875	-3.1292	-3.5646	-2.825	-3.2708	-3.1958	-2.7083	-3.6104	-3.0646	-3.0146	-3.5208	-3.0479	88.819	209.981	325.449	184.471	8.016	182.831	302.431	45.607	83.220	92.178	48.676	33.590	262.030	144.193	137.492	2.876	0.00056303	0.00059539	9.5114e-05	294.46	5.5905e-06	2.5126e-06	365.3	120.1	9.4464e-06	1.8586e-06	164.82	76.106	57.131	25.537	1.1627e-06	35.68	0.00041063	0.00043339	0.00010815	358.05	4.6549e-06	4.7834e-06	437.63	143.53	4.7583e-06	4.7342e-06	194.1	85.591	67.256	29.279	4.2305e-06	39.703	303.681	-6.930	33.757	-4.919	169.980	33.389	-5.754	1.667	161.525	145.648	-0.763	4.419	7.123	12.337	14.598	8.392	-8191	255	
8749.456	1	1	0	0	0.084128	0.18482	0.20169	0.17077	0.061027	0.19832	0.16584	0.11479	0.10044	0.10369	0.15072	0.1109	0.16018	0.098008	0.18515	0.22572	-2.8917	-3.3812	-2.8021	-3.4271	-2.9688	-2.9813	-3.4792	-3.0104	-3.2521	-3.45	-2.8688	-3.5458	-3.2021	-2.875	-3.4958	-2.9458	188.643	88.134	265.345	275.956	-14.295	286.030	259.686	139.143	326.053	263.583	62.150	292.336	60.908	336.476	324.466	261.951	0.00050905	0.00058105	0.000119	293.37	3.3363e-06	3.0146e-06	365.16	119.55	1.566e-06	3.6056e-06	164.32	75.917	56.861	25.62	1.4276e-06	35.943	0.00044615	0.00042384	0.0001089	360.23	5.0072e-06	4.6795e-06	438.5	145	5.1345e-06	4.7058e-06	195.05	86.716	67.867	29.354	4.3461e-06	40.328	303.379	324.580	-5.362	-4.524	98.436	46.043	-5.630	1.842	94.199	342.524	-0.407	4.699	7.194	12.205	339.414	8.176	-8191	255	
8749.552	1	1	0	0	0.11446	0.12288	0.12243	0.28936	0.245	0.17073	0.079628	0.20701	0.16839	0.085021	0.092611	0.039573	0.1293	0.20369	0.21479	0.17331	-2.6042	-3.3417	-2.6729	-3.3896	-3.0938	-2.8958	-3.6521	-3.0312	-3.1063	-3.5792	-2.725	-3.4646	-3.4229	-2.8458	-3.5625	-3.1292	335.398	119.456	284.426	104.897	283.495	293.964	217.957	37.616	161.957	10.580	11.859	10.063	30.060	302.717	37.793	311.963	0.00027759	0.00035841	0.00017168	293.25	2.5111e-06	9.1577e-07	366.22	119.64	8.2508e-07	2.7174e-06	163.94	75.693	57.056	25.561	2.3823e-06	35.659	0.00047436	0.00042257	0.00011043	365.64	5.0928e-06	4.5227e-06	437.18	146.72	5.0293e-06	4.4753e-06	194.01	87.363	67.494	29.132	4.2271e-06	40.348	326.446	-14.809	1.524	-4.507	46.271	236.346	-5.695	1.523	33.689	38.696	-0.634	4.607	6.931	12.295	175.087	8.166	-8191	255	
8749.624	1	1	0	0	0.26065	0.11348	0.16518	0.019385	0.2438	0.22122	0.16315	0.19548	0.26496	0.30433	0.073487	0.13256	0.083866	0.38176	0.25466	0.096209	-2.5208	-3.3771	-2.8854	-3.3771	-3.2875	-2.775	-3.5833	-3.1542	-2.8167	-3.5	-2.9042	-3.1875	-3.4958	-2.6271	-3.4417	-3.2313	59.653	242.714	230.534	56.856	21.531	207.701	276.509	168.080	107.892	73.829	148.668	342.552	101.964	53.735	82.982	195.124	0.00019219	0.00033472	3.7292e-05	295.56	3.5497e-06	1.5331e-06	366.34	119.52	7.3879e-06	1.5374e-06	163.76	76.01	57	25.406	5.0004e-06	35.52	0.0004526	0.00040265	0.00010854	369.82	4.827e-06	4.365e-06	437.35	147.88	4.7423e-06	4.2886e-06	193.75	87.728	66.767	28.826	4.1819e-06	40.123	281.900	291.013	104.926	-4.269	26.058	81.970	-5.654	2.009	18.883	14.077	-0.503	4.592	7.056	12.182	159.771	8.074	-8191	255	
8749.745	1	1	0	0	0.1502	0.091985	0.13742	0.15518	0.16852	0.34019	0.15481	0.02555	0.060158	0.22385	0.16741	0.071948	0.18075	0.066186	0.049882	0.15563	-2.5729	-3.35	-2.8104	-3.1396	-3.4333	-2.8083	-3.3208	-3.075	-2.8937	-3.4313	-2.9958	-3.0833	-3.5271	-2.8688	-3.5854	-3.4125	201.786	109.784	26.630	208.228	74.452	65.122	235.995	267.637	-4.611	174.958	10.878	181.116	314.709	81.321	279.498	170.164	0.00028537	0.0001609	0.00017109	295.59	5.3913e-06	3.0864e-07	365.96	119.91	2.724e-06	2.5383e-06	164.75	76.141	57.235	25.546	6.0738e-06	35.733	0.00040896	0.00037406	0.00010684	369.37	4.3999e-06	4.0886e-06	438.27	147.53	4.344e-06	4.0451e-06	195	87.753	66.265	28.756	4.3933e-06	40.258	281.528	-7.525	92.966	-4.477	33.380	-15.521	-5.563	1.718	44.854	47.539	-0.478	4.506	7.077	12.223	157.475	8.156	-8191	255	
8749.841	1	1	0	0	0.12708	0.064484	0.14098	0.14827	0.021675	0.097164	0.067016	0.11293	0.1367	0.27668	0.14446	0.16153	0.1906	0.32835	0.19616	0.20523	-2.4792	-3.5958	-3.1229	-3.2896	-3.5292	-2.8771	-3.3708	-3.2396	-2.8771	-3.6396	-3.15	-3.0875	-3.5104	-2.8708	-3.1958	-3.4938	23.004	139.675	169.463	318.735	193.410	0.657	114.740	16.478	144.038	248.956	-12.748	-1.420	4.465	-9.489	26.232	-4.015	0.00043941	0.00020916	0.00018741	294.75	2.8217e-06	9.304e-07	364.79	120.62	5.6892e-06	5.3274e-06	165.17	76.459	57.105	25.633	5.867e-06	36.023	0.00039078	0.00036516	0.00011438	367.84	4.2675e-06	4.0769e-06	444.07	147.77	4.3568e-06	4.1362e-06	198.48	87.933	66.47	29.015	4.9207e-06	40.563	294.740	36.362	122.249	-4.724	29.264	247.730	-5.525	1.443	21.190	108.942	-0.306	4.601	6.921	12.399	163.332	8.073	-8191	255	
8749.935	1	1	0	0	0.22672	0.036772	0.22107	0.20279	0.075389	0.21613	0.1524	0.14973	0.067914	0.13764	0.17321	0.20011	0.055455	0.21273	0.2016	0.16025	-2.5208	-3.5021	-2.9667	-3.25	-3.5563	-2.9938	-3.3646	-3.2729	-2.7042	-3.5583	-3.2021	-3.0375	-3.4813	-2.9562	-3.2771	-3.4938	11.563	79.167	159.662	249.403	278.601	88.248	330.194	47.883	22.354	143.174	155.993	219.122	114.330	28.858	99.510	276.439	0.00030182	0.00040008	5.8291e-05	293.76	3.3241e-06	3.8648e-06	366.57	120.24	2.941e-06	1.7898e-06	164.63	76.448	56.814	25.58	1.6446e-06	35.964	0.00040384	0.00039045	0.00012843	368.91	4.4132e-06	4.3916e-06	451.76	147.4	4.4676e-06	4.473e-06	201.69	87.843	66.403	29.273	5.316e-06	40.439	306.848	102.849	182.777	-4.759	68.557	173.752	-5.610	1.565	326.392	178.964	-0.676	4.254	7.107	12.549	188.156	8.041	-8191	255	
8750.033	1	1	0	0	0.23675	0.064681	0.16831	0.10437	0.11903	0.076257	0.17003	0.25184	0.25408	0.14722	0.2587	0.099572	0.27916	0.041203	0.22685	0.1806	-2.1542	-3.2979	-3.0563	-2.8438	-3.5979	-2.9437	-3.1542	-3.3729	-2.6708	-3.3875	-3.125	-2.95	-3.5792	-3.1208	-3.0979	-3.5292	227.874	39.394	78.142	145.575	278.816	260.073	154.030	250.652	292.433	178.675	201.756	99.529	322.535	177.657	-13.469	-15.893	0.00033231	0.00063169	9.7664e-05	295.24	2.8711e-06	4.748e-06	366.99	119.75	4.8559e-06	2.6325e-06	164.44	76.408	56.989	25.33	2.9768e-06	35.7	0.0004089	0.00042265	0.00013379	366.9	4.3351e-06	4.6821e-06	452.19	145.7	4.303e-06	4.6959e-06	199.95	87.033	65.998	29.264	4.971e-06	39.723	302.418	137.982	297.922	-4.884	63.499	218.442	-5.565	2.020	311.338	156.350	-0.353	4.567	7.080	12.515	31.236	8.241	-8191	255	
8750.152	1	1	0	0	0.046197	0.30006	0.031875	0.088635	0.12209	0.21272	0.30329	0.12571	0.27775	0.14894	0.098509	0.036219	0.14752	0.14956	0.15686	0.3093	-2.3771	-3.1625	-3.4479	-2.75	-3.6	-2.9708	-3.1417	-3.5792	-2.8792	-3.3729	-3.3937	-3.0146	-3.5292	-3.075	-3.1063	-3.5708	117.734	316.097	269.030	165.268	302.165	149.074	315.382	121.093	240.071	99.539	191.837	303.952	302.798	296.648	155.844	-10.606	0.0003661	0.000627	0.00011934	295.17	2.7888e-06	2.759e-06	367.36	119.69	5.9327e-07	5.1141e-06	164.44	75.956	56.942	25.46	2.1248e-06	35.475	0.00038387	0.00043352	0.00012501	364.08	4.1815e-06	4.8908e-06	447.79	144.83	4.3156e-06	5.0442e-06	199.11	86.886	66.243	29.541	4.9286e-06	39.689	308.728	141.963	333.059	-4.759	121.043	163.968	-5.758	1.736	228.630	185.360	-0.708	4.454	7.055	12.439	29.662	8.174	-8191	255	
8750.224	1	1	0	0	0.12593	0.10206	0.18255	0.25775	0.18025	0.16101	0.10585	0.15134	0.12266	0.1643	0.15469	0.14406	0.089987	0.13774	0.29718	0.21868	-2.5125	-3.1063	-3.4375	-2.7729	-3.3917	-3.0979	-2.9833	-3.5333	-2.8271	-3.1479	-3.4083	-3.0333	-3.4688	-3.3	-2.8229	-3.6063	245.662	53.003	7.250	24.475	180.340	128.752	312.713	162.206	240.424	102.232	298.875	74.134	40.525	283.074	250.362	190.267	0.00056517	0.00023364	5.0713e-05	294.78	3.7774e-06	1.2207e-06	364.71	119.23	6.5101e-06	2.9858e-06	164.05	76.108	56.883	25.494	1.1885e-06	35.52	0.00040654	0.00047266	0.00012282	363.6	4.4391e-06	5.204e-06	445.16	144.08	4.5467e-06	5.2028e-06	197.39	86.702	66.678	29.52	4.689e-06	39.605	302.232	67.117	39.434	-4.560	167.870	203.135	-5.597	1.556	169.685	116.562	-0.720	4.403	7.208	12.469	274.050	8.153	-8191	255	
8750.320	1	1	0	0	0.12014	0.30835	0.18506	0.31096	0.11809	0.10707	0.24029	0.31611	0.17882	0.21982	0.1741	0.10338	0.054821	0.34174	0.063659	0.10082	-2.5521	-2.9375	-3.3333	-2.875	-3.4771	-3.3521	-2.9271	-3.5812	-2.975	-3.1125	-3.3146	-2.9313	-3.3854	-2.9646	-2.7771	-3.4938	27.695	193.536	5.964	262.619	327.280	80.987	0.806	146.128	45.365	75.619	114.201	204.828	192.420	14.064	3.589	85.962	0.0005202	8.2741e-05	0.00017129	295.46	6.3453e-06	2.6132e-06	366.35	119.14	4.2643e-06	2.357e-06	165.38	76.638	56.823	25.461	2.1413e-06	35.781	0.00042938	0.00047046	0.00011619	362.26	4.7219e-06	5.0925e-06	442.36	143.43	4.8284e-06	5.0677e-06	196.12	86.862	67.364	29.406	4.537e-06	39.769	303.367	136.078	312.606	-4.655	198.520	87.618	-5.709	1.901	182.095	3.214	-0.618	4.532	7.178	12.122	88.593	8.062	-8191	255	
8750.441	1	1	0	0	0.18217	0.19496	0.19773	0.23078	0.17883	0.032511	0.10107	0.12339	0.26602	0.17606	0.12567	0.27663	0.1273	0.041472	0.04635	0.31554	-2.6104	-3.1417	-3.475	-2.8688	-3.2479	-3.35	-2.8229	-3.5875	-3.2438	-3	-3.525	-2.8958	-3.2375	-3.6167	-2.7667	-3.3958	21.001	195.266	120.823	-9.287	151.999	102.658	184.169	270.647	80.016	126.740	286.155	-5.935	59.355	89.712	279.662	305.314	0.00058145	0.00021432	5.3701e-05	295.8	2.8581e-06	1.3127e-06	367.98	119.47	8.9049e-07	3.0868e-06	164.41	75.847	56.495	25.311	1.9818e-06	35.503	0.00045747	0.00045406	0.00011461	362.95	5.0684e-06	4.9218e-06	440.9	143.83	5.1276e-06	4.8887e-06	195.1	86.588	67.727	29.181	4.4679e-06	39.687	308.133	321.095	317.488	-4.640	113.695	310.344	-5.516	1.743	101.725	36.408	-0.862	4.682	7.020	11.942	328.299	8.141	-8191	255	
8750.537	1	1	0	0	0.01834	0.13009	0.21023	0.11958	0.36286	0.046984	0.29604	0.11063	0.046655	0.1434	0.12754	0.13413	0.1795	0.047025	0.14422	0.29464	-2.6312	-3.0438	-3.4854	-3.1042	-3.1083	-3.3417	-2.8896	-3.4771	-3.2625	-2.9229	-3.5771	-3.0021	-3.2208	-3.6521	-2.9437	-3.4542	26.090	-7.227	243.279	161.652	31.747	226.086	233.651	257.710	289.068	286.338	251.631	253.235	304.359	167.991	73.760	329.005	0.00040953	0.00042704	4.0994e-05	294.65	5.9132e-06	2.8402e-06	365.27	118.47	4.2995e-06	4.2216e-06	163.46	75.509	56.638	25.312	1.4322e-06	35.525	0.00047676	0.00043668	0.00011134	364.47	5.2063e-06	4.7001e-06	437.67	144.94	5.1512e-06	4.5972e-06	193.46	86.885	67.344	28.892	4.2132e-06	39.874	306.518	21.580	325.026	-4.733	88.624	34.288	-5.572	2.175	123.421	69.585	-0.728	4.618	7.145	12.402	106.862	8.308	-8191	255	
8750.633	1	1	0	0	0.22603	0.13299	0.06746	0.1599	0.072894	0.16612	0.10152	0.077197	0.066477	0.087539	0.22052	0.24905	0.18971	0.22636	0.25021	0.15699	-2.9313	-2.7687	-3.6208	-3.0958	-2.9396	-3.4979	-2.5979	-3.2292	-3.3187	-2.9354	-3.6417	-2.95	-2.9729	-3.6562	-2.8229	-3.3604	31.426	141.441	247.203	124.536	221.865	249.387	144.348	3.312	183.442	58.413	64.868	290.303	308.804	296.867	48.888	259.208	0.00030647	0.00042477	0.00010496	294.27	9.4365e-07	3.4433e-06	365.35	118.7	3.5646e-06	2.4561e-06	163.68	76.278	56.817	25.379	3.896e-06	35.634	0.00045001	0.00040479	0.00010564	366.72	4.8923e-06	4.3969e-06	435.01	146.01	4.8555e-06	4.3575e-06	192.92	87.579	66.689	28.79	4.1315e-06	40.183	288.874	15.274	41.942	-4.680	59.677	131.798	-5.489	1.973	63.383	206.832	-0.332	4.496	7.163	12.524	149.838	8.174	-8191	255	
8750.753	1	1	0	0	0.12659	0.03105	0.15413	0.28076	0.16028	0.2174	0.13225	0.13538	0.1248	0.14735	0.24846	0.047172	0.35625	0.26174	0.15227	0.36096	-2.6771	-2.8625	-3.275	-3.0583	-3.0104	-3.4062	-2.975	-3.4875	-3.5167	-2.7854	-3.3979	-3.0208	-3.0208	-3.5667	-2.9	-3.1354	300.480	83.405	321.394	239.088	143.651	213.245	13.201	-8.949	137.231	234.941	315.034	189.137	10.695	-7.643	113.895	19.624	0.00038997	1.3212e-05	0.00015973	293.07	1.7273e-06	1.4961e-06	365.33	119.34	8.0842e-07	1.8928e-06	164.45	76.298	56.707	25.533	3.6474e-06	35.864	0.00041951	0.00038328	0.00010365	367.5	4.4828e-06	4.0892e-06	435.31	146.27	4.3887e-06	4.0815e-06	193.47	87.792	66.106	28.74	4.2389e-06	40.46	324.775	108.562	96.909	-4.531	334.661	280.734	-5.650	2.019	18.460	339.904	-0.673	4.554	7.054	12.442	193.110	8.251	-8191	255	
8750.850	1	1	0	0	0.1049	0.053416	0.11073	0.089289	0.093995	0.070034	0.13749	0.092993	0.15941	0.21489	0.41009	0.19325	0.065459	0.1215	0.2313	0.21003	-3.0312	-2.7667	-3.275	-3.2354	-2.8354	-3.6708	-2.9479	-3.0104	-3.5687	-2.7958	-3.4021	-3.2396	-2.7208	-3.4938	-2.9479	-3.0646	143.804	10.070	166.720	98.203	125.012	31.237	247.815	76.207	73.457	89.695	19.378	124.269	299.517	316.325	65.399	200.969	0.00041181	0.00016784	0.00030561	296.62	2.3945e-06	1.9915e-06	365.44	119.73	8.9793e-07	2.1489e-06	164.27	76.004	56.755	25.536	6.3515e-06	35.955	0.00039097	0.00036762	0.00010876	368.5	4.3037e-06	4.026e-06	440.41	146.54	4.2686e-06	4.0574e-06	195.65	87.632	65.862	28.682	4.5843e-06	40.27	279.609	303.789	131.055	-4.900	12.802	18.202	-5.739	1.749	331.664	70.097	-0.146	4.484	7.251	12.279	180.415	8.474	-8191	255	
8750.921	1	1	0	0	0.40533	0.023314	0.20951	0.044221	0.36661	0.11611	0.15183	0.23274	0.17694	0.039705	0.10383	0.054024	0.19467	0.068863	0.29156	0.056148	-3.0875	-2.8271	-3.2604	-3.3	-2.8063	-3.6042	-2.9896	-2.925	-3.4667	-2.9417	-3.4167	-3.4125	-2.7083	-3.375	-3.0542	-3.0458	228.438	166.725	52.574	308.076	84.615	74.672	10.760	343.221	272.317	139.195	32.327	135.405	30.918	25.419	105.655	60.992	0.00029377	0.00020162	0.00015957	294.65	4.943e-06	1.9189e-06	364.79	119.35	3.9391e-06	1.4144e-06	164.58	76.387	56.689	25.39	2.7064e-06	35.825	0.00038529	0.00036791	0.00011702	366.15	4.1717e-06	3.9675e-06	443.07	145.08	4.0421e-06	3.949e-06	196.32	86.691	65.344	28.611	4.5859e-06	39.768	297.184	217.534	119.337	-4.544	134.824	232.037	-5.588	1.568	42.474	158.226	-0.703	4.558	7.096	12.294	97.991	8.181	-8191	255	
8751.040	1	1	0	0	0.33356	0.26421	0.12696	0.29807	0.077285	0.046093	0.040883	0.19005	0.03724	0.034213	0.14371	0.12936	0.13388	0.084535	0.11058	0.087945	-3.1542	-2.6792	-3.2083	-3.4104	-2.6792	-3.2917	-3.3771	-2.7458	-3.6396	-2.9125	-3.175	-3.325	-2.9354	-3.3979	-3.3063	-2.8958	335.201	178.750	242.473	319.602	229.472	322.424	63.242	299.455	288.604	153.138	252.799	-13.269	170.622	105.623	100.745	198.199	0.00035462	0.00045422	0.00013605	294.5	2.293e-06	3.7413e-06	364.96	119.36	3.0049e-06	4.5885e-06	164.5	76.247	56.837	25.378	2.8247e-06	35.654	0.00035948	0.00036298	0.00011701	360.83	3.9327e-06	4.0314e-06	443.16	143.49	3.9384e-06	4.1641e-06	197.08	86.162	65.165	28.817	4.7047e-06	39.646	327.870	106.444	109.802	-5.038	0.158	234.682	-5.520	1.321	57.880	219.406	-0.728	4.321	7.097	12.364	39.582	8.291	-8191	255	
8751.136	1	1	0	0	0.053243	0.079043	0.079193	0.1994	0.23718	0.13763	0.08597	0.18109	0.020315	0.15104	0.16715	0.19222	0.18172	0.17483	0.1986	0.19644	-3.0542	-2.825	-3.1125	-3.6188	-2.9583	-3.3063	-3.2188	-2.7771	-3.45	-2.8646	-3.1792	-3.3812	-2.9417	-3.4354	-3.2708	-2.9771	88.771	60.435	288.815	190.063	176.542	103.668	266.895	306.534	100.440	303.809	161.784	285.964	87.605	-7.366	65.527	83.435	0.00021114	0.00036353	0.00010664	293.22	2.8835e-07	7.6683e-06	364.81	118.96	1.436e-06	7.2518e-06	164.69	75.996	56.792	25.454	1.054e-06	35.795	0.0003592	0.00039746	0.00011985	359.28	3.9602e-06	4.458e-06	443.4	143.05	3.9832e-06	4.5645e-06	196.92	86.058	65.176	29.103	4.5833e-06	39.772	302.569	123.348	3.339	-4.776	230.417	191.724	-5.567	1.451	188.961	161.988	-0.472	4.436	7.174	12.639	30.361	8.287	-8191	255	
8751.232	1	1	0	0	0.14786	0.16906	0.023604	0.23202	0.31078	0.072492	0.13355	0.10989	0.068853	0.079405	0.29568	0.033553	0.13219	0.075772	0.17488	0.033169	-3.0208	-3.0187	-2.9938	-3.5833	-2.7583	-3.1104	-3.4792	-2.7854	-3.4062	-3.1562	-3.0125	-3.5604	-2.8333	-3.2229	-3.3438	-2.8229	282.335	305.669	251.047	153.866	189.152	20.037	317.296	299.496	78.908	59.332	263.735	341.557	320.647	342.085	84.690	105.357	0.00049159	0.00026095	0.00020103	292.3	4.8772e-06	3.1134e-06	365.82	118.75	2.077e-06	1.1286e-06	164.29	75.681	56.254	25.331	2.9428e-06	35.8	0.00036496	0.00042866	0.00011715	358.93	4.1426e-06	4.8951e-06	443.63	143.4	4.3169e-06	5.1024e-06	197.44	86.369	65.828	29.463	4.7409e-06	39.97	300.574	113.980	342.640	-4.747	180.693	178.055	-5.444	1.661	173.267	252.790	-0.484	4.353	7.335	12.238	13.589	8.226	-8191	255	
8751.329	1	1	0	0	0.035796	0.32028	0.21463	0.14078	0.1676	0.1834	0.088837	0.053348	0.12613	0.33241	0.13907	0.1383	0.22137	0.040556	0.13284	0.071553	-3.1875	-3.0354	-2.825	-3.575	-3.0812	-3.1167	-3.4625	-2.8375	-3.4646	-3.1625	-2.9083	-3.5354	-2.8208	-3.0271	-3.475	-2.9958	328.023	79.232	56.424	257.235	336.641	223.026	277.826	169.239	278.952	4.963	332.656	215.165	176.514	123.432	85.059	49.816	0.00056433	0.00017131	0.00011302	291.26	5.0903e-06	4.4243e-06	363.76	118.1	7.0371e-06	2.708e-06	163.2	75.402	56.098	25.235	7.7295e-07	35.373	0.00041432	0.00047608	0.00012054	361.07	4.6606e-06	5.2521e-06	442	143.58	4.7682e-06	5.2872e-06	196.08	85.964	66.525	29.38	4.6724e-06	39.606	292.417	59.291	330.231	-4.809	159.240	59.017	-5.579	1.598	174.515	90.737	-0.748	4.630	7.319	12.237	25.339	8.384	-8191	255	
8751.449	1	1	0	0	0.10877	0.049351	0.15184	0.12281	0.08128	0.039662	0.15277	0.16453	0.2154	0.13795	0.38191	0.22378	0.15706	0.22385	0.067917	0.07009	-2.8875	-3.2229	-2.8563	-3.6542	-3.0375	-3.2333	-3.5062	-2.7875	-3.2562	-3.2521	-2.8187	-3.4542	-3.1792	-3.0021	-3.3896	-2.9771	307.503	178.995	2.215	-6.506	180.514	322.985	318.104	47.963	124.853	175.348	308.604	343.000	292.879	142.158	8.481	320.182	0.00060426	0.00063358	8.3634e-05	292.09	6.4724e-06	5.9306e-06	363.77	117.04	3.085e-06	3.3834e-06	162.6	75.162	56.033	24.992	3.8063e-06	35.342	0.00044755	0.00046545	0.00011598	359.06	4.8681e-06	4.9647e-06	437.63	141.69	4.9642e-06	5.0039e-06	194.44	85.824	66.873	29.044	4.5985e-06	39.63	319.938	0.939	-2.695	-4.690	182.489	32.317	-5.389	1.729	140.662	60.603	-0.755	4.462	7.168	12.196	67.746	8.275	-8191	255	
8751.521	1	1	0	0	0.25335	0.096804	0.095109	0.27971	0.29052	0.20878	0.22063	0.32134	0.25806	0.087341	0.11643	0.062506	0.13757	0.15248	0.18071	0.080568	-2.8312	-3.4042	-2.6375	-3.55	-3.0729	-2.9729	-3.6104	-2.9208	-3.1854	-3.3521	-2.7938	-3.3479	-3.2229	-2.8708	-3.4229	-2.9375	309.785	-9.732	297.008	50.032	23.384	80.810	280.420	316.258	101.124	282.665	274.644	272.436	234.118	217.522	284.741	61.987	0.00049298	0.00047776	0.00013652	291.79	4.1716e-06	3.964e-06	359.38	116.8	2.9934e-06	3.6601e-06	162.11	74.904	55.581	24.856	1.0694e-06	35.129	0.00048351	0.00046094	0.0001184	363.01	5.3544e-06	5.0033e-06	439.21	143.55	5.4897e-06	5.0634e-06	195.06	86.672	67.525	28.988	4.8367e-06	40.088	289.188	333.368	3.610	-4.627	131.478	47.058	-5.508	1.810	113.482	-1.258	-0.429	4.616	7.000	12.343	162.997	8.397	-8191	255	
8751.617	1	1	0	0	0.13191	0.16518	0.27562	0.064461	0.1981	0.084413	0.052	0.10355	0.13667	0.072602	0.29394	0.13249	0.19693	0.23286	0.28408	0.17943	-2.5708	-3.4813	-2.7917	-3.4146	-3.3771	-2.8667	-3.4833	-3.0417	-2.9938	-3.4604	-2.8354	-3.3542	-3.3771	-2.8479	-3.4104	-3.0938	204.137	139.422	101.572	203.994	168.620	63.149	184.637	183.918	170.566	153.364	38.140	250.836	124.726	248.134	60.030	188.386	0.00028937	0.00039135	5.2517e-05	291.02	2.7827e-06	1.6217e-06	358.86	115.8	6.6163e-06	3.8735e-06	161.43	74.669	55.146	24.873	1.3841e-06	34.906	0.00052167	0.00047224	0.00012312	370.35	5.7021e-06	5.1359e-06	441.25	145.7	5.6874e-06	5.1148e-06	194.97	87.839	67.032	28.805	4.7796e-06	40.337	301.744	289.744	274.809	-4.545	45.262	6.943	-5.539	2.245	17.924	139.842	-0.479	4.784	7.125	12.429	167.018	8.589	-8191	255	
8751.713	1	1	0	0	0.1515	0.17173	0.24423	0.18806	0.17031	0.12017	0.24283	0.24383	0.082339	0.21897	0.032497	0.24197	0.053039	0.20441	0.18342	0.066933	-2.6562	-3.5354	-2.6771	-3.2188	-3.3417	-2.7083	-3.425	-3.025	-2.8083	-3.5417	-2.9417	-3.2562	-3.3854	-2.6125	-3.275	-3.0229	343.056	99.851	206.565	210.789	149.956	73.898	248.443	-7.643	45.260	210.173	287.142	124.427	181.325	23.684	296.308	239.458	0.00015025	0.00042072	9.8318e-05	292.51	6.7267e-06	1.9001e-06	358.84	115.47	1.1345e-06	1.1927e-06	159.76	74.536	55.305	24.799	4.7264e-06	34.84	0.0005052	0.00046134	0.00012309	375.29	5.5629e-06	5.071e-06	442.02	147.97	5.5857e-06	5.1326e-06	195.76	88.497	66.835	28.765	5.0521e-06	40.492	311.073	30.051	86.938	-4.362	47.407	130.310	-5.475	1.760	5.178	155.497	-0.562	4.746	6.888	12.437	156.560	8.343	-8191	255	
8751.832	1	1	0	0	0.16642	0.036791	0.10226	0.099365	0.12229	0.16764	0.14094	0.19261	0.32867	0.10038	0.21358	0.2061	0.10883	0.1639	0.08451	0.26786	-2.4583	-3.5021	-2.8417	-3.1813	-3.4104	-2.6646	-3.4229	-3.025	-2.9688	-3.5062	-2.9562	-3.0938	-3.3146	-2.7625	-3.3312	-3.1271	172.581	318.465	218.838	48.177	-7.392	95.007	248.138	304.411	225.546	186.641	11.451	138.548	274.294	228.311	143.833	173.130	0.00035506	0.00010654	0.0001175	290.67	4.2464e-06	2.5747e-06	359.38	116.1	1.1698e-06	2.086e-06	160.25	74.586	55.266	24.793	5.8051e-06	34.922	0.00049106	0.00045281	0.00012843	376.53	5.2068e-06	4.849e-06	442.54	147.46	5.0575e-06	4.7225e-06	195.95	87.811	65.766	28.507	5.0153e-06	40.238	288.450	-6.844	87.610	-4.881	-4.861	66.890	-5.684	1.571	159.554	63.879	-0.535	4.583	6.958	12.344	149.917	8.383	-8191	255	
8751.928	1	1	0	0	0.32303	0.22419	0.18265	0.10745	0.097814	0.20665	0.1933	0.01683	0.23651	0.18019	0.025878	0.082614	0.23168	0.14172	0.19303	0.18712	-2.3229	-3.5521	-3.0792	-3.075	-3.2917	-2.725	-3.3396	-3.35	-2.8167	-3.4729	-2.9562	-3.0979	-3.5958	-2.8354	-3.2021	-3.2646	258.054	203.836	82.569	65.938	131.339	-0.019	237.362	329.921	149.374	7.468	-12.997	49.053	66.311	313.028	224.014	9.667	0.00023366	0.00010462	0.00020055	290.4	2.9056e-06	1.9313e-06	360.3	116.16	1.7422e-06	1.4086e-06	161.06	75.145	55.389	24.914	4.8787e-06	35.166	0.00044547	0.00041784	0.00013013	372.14	4.7998e-06	4.5481e-06	444.12	145.61	4.7051e-06	4.4527e-06	197.33	87.029	65.109	28.374	4.9281e-06	39.706	303.802	131.567	96.018	-4.864	-11.502	91.773	-5.522	1.761	151.258	64.239	-0.364	4.360	7.198	12.364	192.146	8.309	-8191	255	
8752.024	1	1	0	0	0.13869	0.071967	0.10819	0.15188	0.21934	0.20196	0.24676	0.22183	0.055062	0.073555	0.083404	0.17762	0.12031	0.10833	0.13507	0.062505	-2.3417	-3.3937	-3.0687	-3.075	-3.6312	-2.8604	-3.3063	-3.1688	-2.7646	-3.35	-3.0625	-2.9104	-3.5583	-2.8708	-3.0396	-3.5042	246.788	3.021	150.355	290.526	48.321	-16.069	251.475	15.672	201.502	284.822	63.160	229.289	297.821	337.566	288.266	261.694	0.00030352	0.00035009	5.4713e-05	293.15	3.2061e-06	4.2892e-06	362.62	116.61	1.4912e-06	2.4256e-06	162.39	76.066	56.068	24.933	2.6115e-06	35.352	0.00039455	0.00037926	0.00012294	363.34	4.1605e-06	4.1482e-06	442.3	142.25	4.1208e-06	4.1431e-06	196.62	86.278	64.585	28.369	4.7124e-06	39.419	314.949	132.037	130.050	-4.702	80.514	218.958	-5.493	1.836	84.750	140.843	-0.515	4.525	7.251	12.497	152.815	8.234	-8191	255	
#DATA ENDS
