BOXY.EXE: ISS Imagent and Oximeter Data Acquisition Program Version 0.80
Ascii Record File

#ACQ INFORMATION
2  Detector Channels 
16  External MUX Channels 
1  Auxiliary Channels 
5000  Waveform (CCF) Frequency (Hz)
1  Waveforms Skipped 
30  Waveforms Averaged 
1  Cycles Averaged 
16  Acquisitions per Waveform 
10.0806  Updata Rate (Hz) 

#FILE INFORMATION
TRUE -- External MUX Channel results are PARSED.
FALSE -- AC DC and Phase are NOT grouped.
TRUE -- Companion Program Settings File CREATED.
FALSE -- AC data not excluded
FALSE -- DC data not excluded
FALSE -- Phase data not excluded
FALSE -- Auxillary Chn. data not excluded
Tab delimiters

#CALIBRATION STATE
TRUE -- Waveform Calibration Values APPLIED.


#AUX CALIBRATION VALUES
Val Type	aux-1	

Term	1.0000e+00	
Factor	0.0000e+00	


#WF CALIBRATION VALUES
A = Detector Channel
Val Type	A-AC1	A-AC2	A-AC3	A-AC4	A-AC5	A-AC6	A-AC7	A-AC8	A-AC9	A-AC10	A-AC11	A-AC12	A-AC13	A-AC14	A-AC15	A-AC16	A-DC1	A-DC2	A-DC3	A-DC4	A-DC5	A-DC6	A-DC7	A-DC8	A-DC9	A-DC10	A-DC11	A-DC12	A-DC13	A-DC14	A-DC15	A-DC16	A-Ph1	A-Ph2	A-Ph3	A-Ph4	A-Ph5	A-Ph6	A-Ph7	A-Ph8	A-Ph9	A-Ph10	A-Ph11	A-Ph12	A-Ph13	A-Ph14	A-Ph15	A-Ph16	

Term	0.00000e+00	0.00000e+00	0.00000e+00	0.00000e+00	0.00000e+00	0.00000e+00	0.00000e+00	0.00000e+00	0.00000e+00	0.00000e+00	0.00000e+00	0.00000e+00	0.00000e+00	0.00000e+00	0.00000e+00	0.00000e+00	0.00000e+00	0.00000e+00	0.00000e+00	0.00000e+00	0.00000e+00	0.00000e+00	0.00000e+00	0.00000e+00	0.00000e+00	0.00000e+00	0.00000e+00	0.00000e+00	0.00000e+00	0.00000e+00	0.00000e+00	0.00000e+00	0.00000e+00	0.00000e+00	0.00000e+00	0.00000e+00	0.00000e+00	0.00000e+00	0.00000e+00	0.00000e+00	0.00000e+00	0.00000e+00	0.00000e+00	0.00000e+00	0.00000e+00	0.00000e+00	0.00000e+00	0.00000e+00	
Factor	1.00000e+00	1.00000e+00	1.00000e+00	1.00000e+00	1.00000e+00	1.00000e+00	1.00000e+00	1.00000e+00	1.00000e+00	1.00000e+00	1.00000e+00	1.00000e+00	1.00000e+00	1.00000e+00	1.00000e+00	1.00000e+00	1.00000e+00	1.00000e+00	1.00000e+00	1.00000e+00	1.00000e+00	1.00000e+00	1.00000e+00	1.00000e+00	1.00000e+00	1.00000e+00	1.00000e+00	1.00000e+00	1.00000e+00	1.00000e+00	1.00000e+00	1.00000e+00	X	X	X	X	X	X	X	X	X	X	X	X	X	X	X	X	

B = Detector Channel
Val Type	B-AC1	B-AC2	B-AC3	B-AC4	B-AC5	B-AC6	B-AC7	B-AC8	B-AC9	B-AC10	B-AC11	B-AC12	B-AC13	B-AC14	B-AC15	B-AC16	B-DC1	B-DC2	B-DC3	B-DC4	B-DC5	B-DC6	B-DC7	B-DC8	B-DC9	B-DC10	B-DC11	B-DC12	B-DC13	B-DC14	B-DC15	B-DC16	B-Ph1	B-Ph2	B-Ph3	B-Ph4	B-Ph5	B-Ph6	B-Ph7	B-Ph8	B-Ph9	B-Ph10	B-Ph11	B-Ph12	B-Ph13	B-Ph14	B-Ph15	B-Ph16	

Term	0.00000e+00	0.00000e+00	0.00000e+00	0.00000e+00	0.00000e+00	0.00000e+00	0.00000e+00	0.00000e+00	0.00000e+00	0.00000e+00	0.00000e+00	0.00000e+00	0.00000e+00	0.00000e+00	0.00000e+00	0.00000e+00	0.00000e+00	0.00000e+00	0.00000e+00	0.00000e+00	0.00000e+00	0.00000e+00	0.00000e+00	0.00000e+00	0.00000e+00	0.00000e+00	0.00000e+00	0.00000e+00	0.00000e+00	0.00000e+00	0.00000e+00	0.00000e+00	-2.19236e+02	-1.31854e+02	-1.24135e+02	-1.81681e+02	-8.58735e+01	-6.72878e+01	-1.57568e+02	-1.62015e+02	-8.41279e+01	-6.72097e+01	-1.71278e+02	-1.72824e+02	-1.84035e+02	-1.76898e+02	-7.35276e+01	-1.49611e+02	
Factor	5.03203e-05	1.86684e-04	5.35002e-05	1.55221e-01	2.21823e-06	1.93863e-06	1.70040e-01	5.39350e-02	2.78813e-06	2.02691e-06	8.86941e-02	3.59107e-02	3.83696e-02	9.50516e-03	2.03926e-06	1.37819e-02	1.31170e-05	1.87377e-05	5.23375e-06	7.87103e-02	1.87137e-07	2.07811e-07	8.13289e-02	2.73734e-02	1.87871e-07	2.06201e-07	4.39296e-02	1.77345e-02	1.96596e-02	4.87883e-03	1.96838e-07	6.87861e-03	X	X	X	X	X	X	X	X	X	X	X	X	X	X	X	X	



#DISTANCE SETTINGS
A = Detector Channel
A-1	A-2	A-3	A-4	A-5	A-6	A-7	A-8	A-9	A-10	A-11	A-12	A-13	A-14	A-15	A-16	

2.5000e+00	3.0000e+00	2.5000e+00	3.0000e+00	2.0000e+00	3.0000e+00	1.5000e+00	3.0000e+00	3.0000e+00	3.0000e+00	3.0000e+00	3.0000e+00	3.0000e+00	3.0000e+00	1.5000e+00	3.0000e+00	

B = Detector Channel
B-1	B-2	B-3	B-4	B-5	B-6	B-7	B-8	B-9	B-10	B-11	B-12	B-13	B-14	B-15	B-16	

1.0000e+01	1.0000e+01	1.0000e+01	1.4400e+00	1.0000e+01	1.0000e+01	1.5100e+00	1.9400e+00	1.0000e+01	1.0000e+01	1.9900e+00	2.4900e+00	2.4100e+00	2.9000e+00	1.0000e+01	2.9800e+00	




#DATA BEGINS
time	group	step	mark	flag	A-AC1	A-AC2	A-AC3	A-AC4	A-AC5	A-AC6	A-AC7	A-AC8	A-AC9	A-AC10	A-AC11	A-AC12	A-AC13	A-AC14	A-AC15	A-AC16	A-DC1	A-DC2	A-DC3	A-DC4	A-DC5	A-DC6	A-DC7	A-DC8	A-DC9	A-DC10	A-DC11	A-DC12	A-DC13	A-DC14	A-DC15	A-DC16	A-Ph1	A-Ph2	A-Ph3	A-Ph4	A-Ph5	A-Ph6	A-Ph7	A-Ph8	A-Ph9	A-Ph10	A-Ph11	A-Ph12	A-Ph13	A-Ph14	A-Ph15	A-Ph16	B-AC1	B-AC2	B-AC3	B-AC4	B-AC5	B-AC6	B-AC7	B-AC8	B-AC9	B-AC10	B-AC11	B-AC12	B-AC13	B-AC14	B-AC15	B-AC16	B-DC1	B-DC2	B-DC3	B-DC4	B-DC5	B-DC6	B-DC7	B-DC8	B-DC9	B-DC10	B-DC11	B-DC12	B-DC13	B-DC14	B-DC15	B-DC16	B-Ph1	B-Ph2	B-Ph3	B-Ph4	B-Ph5	B-Ph6	B-Ph7	B-Ph8	B-Ph9	B-Ph10	B-Ph11	B-Ph12	B-Ph13	B-Ph14	B-Ph15	B-Ph16	aux-1	digaux	

6928.235	1	1	0	768	0.01457	0.071378	0.21803	0.11935	0.047092	0.33466	0.18967	0.20081	0.25806	0.062758	0.03595	0.15744	0.2057	0.11831	0.15428	0.14781	-4.375	-4.8063	-4.8833	-4.5271	-5.1729	-4.8292	-4.8583	-5.3729	-4.7042	-4.8125	-5.0979	-4.5167	-4.9208	-4.7708	-4.5021	-5.2146	326.659	233.173	44.381	111.209	75.316	31.010	71.051	124.891	364.770	76.033	349.145	274.889	38.112	38.987	132.903	284.055	0.0004209	0.00034118	8.6847e-05	1121.3	1.7776e-06	3.1864e-06	1194.4	233.49	5.8512e-06	4.5765e-06	290.5	82.062	64.246	18.46	3.9904e-06	26.142	0.00026141	0.00023032	6.0962e-05	1106.3	2.618e-06	2.2959e-06	1183.3	232.16	2.6517e-06	2.3666e-06	291.13	82.046	64.314	18.591	2.5495e-06	26.576	51.258	117.150	118.337	21.334	155.721	163.044	21.529	28.654	140.516	169.859	28.381	34.830	35.467	41.774	180.629	41.613	-8191	255	
6928.331	1	1	0	0	0.048459	0.16035	0.1811	0.32872	0.14121	0.31398	0.13396	0.17276	0.078353	0.11849	0.1615	0.18443	0.034387	0.13857	0.06744	0.063621	-4.25	-4.6562	-5.0375	-4.5958	-5.0813	-4.8917	-4.6667	-5.1562	-4.6854	-4.8354	-5.1271	-4.5083	-4.9208	-5.0333	-4.4104	-5.1542	136.038	361.859	103.326	352.058	339.854	351.798	241.072	217.658	77.738	102.105	10.849	327.973	302.364	26.001	71.311	250.988	0.00041662	0.0003026	8.3271e-05	1127.6	3.8333e-06	2.732e-06	1208	234.27	1.4728e-06	2.6546e-06	293.96	81.715	64.323	18.484	3.7213e-06	26.374	0.00025999	0.00022766	6.0319e-05	1116.8	2.6059e-06	2.4149e-06	1191.6	233.03	2.5879e-06	2.6299e-06	292.12	82.189	64.418	18.667	2.4474e-06	26.714	57.081	112.404	102.935	21.228	191.920	131.478	21.541	28.512	213.521	173.968	28.093	35.105	35.634	42.105	172.036	41.611	-8191	255	
6928.427	1	1	0	0	0.20439	0.17437	0.23652	0.14832	0.16626	0.20216	0.2505	0.142	0.14548	0.18817	0.28908	0.28083	0.30525	0.19462	0.21682	0.24915	-4.3292	-4.6125	-5.0854	-4.8104	-4.8354	-4.8917	-4.4437	-5.175	-4.7958	-4.5938	-5.1479	-4.525	-4.8854	-5.2063	-4.4625	-5.0146	275.382	67.370	68.192	245.921	147.096	259.156	296.770	18.004	136.636	159.144	339.491	283.245	54.660	318.245	173.623	306.085	0.00044369	0.00027453	6.2437e-05	1143.4	4.66e-06	4.2282e-06	1220	235.44	4.9407e-06	2.0607e-06	295.72	82.757	65.003	18.568	4.2199e-06	26.728	0.00026518	0.00023879	6.1431e-05	1126.9	2.7685e-06	2.3777e-06	1201.9	234.32	2.6901e-06	2.6145e-06	294.12	82.894	64.949	18.812	2.677e-06	26.927	53.850	105.830	97.513	21.358	172.615	179.461	21.042	28.702	148.557	170.650	28.359	35.062	35.163	42.089	155.047	41.463	-8191	255	
6928.523	1	1	0	0	0.061523	0.19717	0.19752	0.11464	0.099537	0.1244	0.050676	0.20341	0.083519	0.091979	0.26669	0.20978	0.16937	0.19093	0.21804	0.084547	-4.4125	-4.4667	-5.125	-4.7896	-4.8708	-5.2458	-4.6125	-5.0917	-4.8708	-4.4104	-4.9708	-4.6438	-4.8208	-5.1396	-4.4021	-5.2604	82.271	295.245	182.384	179.348	267.641	273.950	67.033	320.090	183.555	296.461	268.118	367.432	100.173	345.981	284.584	138.366	0.00045934	0.00028821	0.00013413	1149.4	3.953e-06	3.5621e-06	1225	238.11	3.342e-06	3.8521e-06	295.28	82.626	65.995	18.78	3.0782e-06	26.509	0.0002736	0.00025581	7.2062e-05	1135.8	3.1279e-06	2.6388e-06	1212	237.01	2.9551e-06	3.0299e-06	296.7	83.326	65.653	19.002	2.9112e-06	27.057	47.114	98.502	124.604	21.277	172.792	188.091	21.062	28.503	159.969	172.621	28.054	34.787	35.306	41.766	157.508	41.349	-8191	255	
6928.619	1	1	0	0	0.22389	0.13224	0.17801	0.11736	0.0056067	0.18533	0.098545	0.14539	0.065485	0.053551	0.058249	0.16793	0.043582	0.047807	0.072374	0.040643	-4.5792	-4.6354	-5.3	-4.7937	-4.7583	-5.2917	-4.6562	-4.8729	-4.8208	-4.4375	-4.9333	-4.6958	-4.4667	-4.9458	-4.4396	-5.0458	109.637	98.927	123.506	69.721	363.126	76.632	333.463	191.259	338.827	274.292	212.087	319.924	148.245	351.348	185.224	318.608	0.00043752	0.00021111	5.5919e-05	1159.2	4.8572e-06	3.2091e-06	1233.8	238.82	4.3526e-06	2.3194e-06	299.71	83.977	65.916	18.777	1.4178e-06	26.72	0.00028565	0.00026838	7.2019e-05	1145.4	3.0769e-06	2.7938e-06	1218.5	238.24	3.1316e-06	2.8782e-06	298.08	83.963	65.844	19.081	3.0772e-06	27.104	52.713	86.571	101.827	21.307	171.947	140.267	21.338	28.306	140.437	192.698	28.107	34.685	35.239	41.755	164.352	41.489	-8191	255	
6928.715	1	1	0	0	0.18423	0.09041	0.11126	0.28405	0.29724	0.082323	0.23244	0.14696	0.11683	0.12004	0.053946	0.18651	0.16216	0.18231	0.12513	0.081378	-4.5958	-4.3	-4.9917	-4.8354	-4.5687	-5.1479	-4.7417	-4.9208	-4.9437	-4.4854	-5.1312	-4.9125	-4.5292	-5.1896	-4.7208	-4.7479	368.219	330.932	332.219	341.583	282.644	303.901	318.072	229.174	216.753	19.017	98.795	319.336	171.753	255.494	270.454	36.556	0.0004519	0.00029655	0.0001069	1166.9	4.6662e-06	3.2868e-06	1244.1	240.34	7.5151e-06	3.2859e-06	301.54	84.488	66.082	18.842	4.2286e-06	26.822	0.0002945	0.00029024	7.686e-05	1150.1	3.271e-06	3.0518e-06	1226.7	239.97	3.0877e-06	3.0655e-06	299.09	84.339	66.129	19.141	2.9825e-06	27.233	59.816	98.719	90.595	21.113	148.811	172.340	21.304	28.506	172.795	142.740	28.184	34.776	34.719	41.822	149.975	41.415	-8191	255	
6928.836	1	1	0	0	0.10908	0.29873	0.30133	0.30084	0.11691	0.15811	0.092864	0.1592	0.059648	0.17965	0.03231	0.13209	0.057866	0.15544	0.030677	0.095564	-4.8562	-4.5375	-5.1479	-5.0917	-4.5125	-5.1729	-4.7292	-4.7896	-4.8708	-4.6458	-4.9333	-4.8771	-4.5271	-5.0646	-4.6292	-4.7479	24.975	357.690	45.054	328.632	345.698	93.510	298.686	212.228	198.193	69.700	130.473	63.225	64.440	217.420	301.713	238.797	0.00049093	0.00044136	9.3374e-05	1167.8	3.6891e-06	2.3717e-06	1248.8	243.09	7.3381e-06	1.5657e-06	302.44	84.311	66.746	18.891	3.1624e-06	27.055	0.00029155	0.00026978	7.071e-05	1156.5	3.2254e-06	2.8617e-06	1229.7	240.48	3.047e-06	2.9543e-06	300.86	84.356	66.356	19.237	2.9087e-06	27.333	54.933	85.193	59.819	21.061	162.718	151.716	21.277	28.566	166.678	264.588	27.893	34.903	34.989	41.667	174.439	41.096	-8191	255	
6928.932	1	1	0	0	0.14435	0.12883	0.1187	0.40236	0.037604	0.14528	0.096163	0.090257	0.24781	0.22843	0.20739	0.12468	0.2609	0.19864	0.070533	0.22828	-4.7625	-4.5646	-4.9375	-5.1083	-4.5167	-5.0396	-4.9938	-4.7292	-5.0312	-4.5437	-4.8875	-4.85	-4.5437	-5.0354	-4.8458	-4.6479	321.460	50.859	126.260	26.465	32.796	34.476	37.957	298.837	228.070	242.737	365.684	310.429	159.645	329.874	353.563	286.687	0.00047365	0.00041871	0.00010748	1180	4.7326e-06	1.8596e-06	1252	242.82	8.6937e-06	3.5263e-06	303.21	84.763	66.613	19.107	4.0244e-06	27.057	0.0002948	0.00028391	7.3131e-05	1163.8	3.2164e-06	2.8422e-06	1238.1	241.89	3.0032e-06	2.956e-06	302.11	84.983	66.454	19.286	2.7283e-06	27.469	46.326	100.092	92.770	21.119	151.157	162.570	21.242	28.379	163.152	156.320	28.324	34.039	35.429	41.537	190.430	41.544	-8191	255	
6929.028	1	1	0	0	0.092296	0.060998	0.10573	0.27729	0.080784	0.10734	0.17986	0.24204	0.25224	0.066373	0.22099	0.039608	0.09219	0.21638	0.049672	0.046119	-5.05	-4.5188	-4.8938	-5.2937	-4.5521	-5.1583	-5.075	-4.6667	-5.0062	-4.4854	-4.8292	-5.1208	-4.6729	-4.9625	-4.7729	-4.4292	357.465	238.386	229.819	10.967	317.667	37.496	337.378	101.759	279.461	214.094	312.747	229.268	350.334	19.276	179.626	288.955	0.00049394	0.00031171	0.00013022	1175.9	5.4519e-06	3.7935e-06	1252	242.78	5.283e-06	3.1018e-06	303.22	84.522	66.295	19.24	3.448e-06	26.929	0.00027226	0.00025674	7.0721e-05	1162.9	2.993e-06	2.6686e-06	1239	242.03	2.6584e-06	2.7605e-06	301.99	84.813	66.393	19.411	2.7172e-06	27.437	56.634	101.893	108.226	21.120	155.548	155.793	21.187	28.492	183.445	153.408	28.187	35.004	35.135	41.724	153.517	40.775	-8191	255	
6929.124	1	1	0	0	0.12775	0.038973	0.02404	0.30923	0.30802	0.20962	0.19347	0.32125	0.10321	0.070464	0.10226	0.18697	0.13627	0.098345	0.11204	0.087883	-4.6125	-4.475	-4.6396	-5.2083	-4.4688	-4.9542	-5.1062	-4.5479	-5.0813	-4.7771	-4.8792	-5.225	-4.7188	-4.9437	-5.1417	-4.5437	96.803	250.310	275.101	358.043	14.331	15.514	319.816	336.573	18.204	109.165	335.248	354.661	328.546	346.674	294.597	92.674	0.00040233	0.00040355	0.00010383	1178.6	4.1303e-06	2.9363e-06	1256.5	243.52	4.0238e-06	2.5813e-06	303.66	84.651	66.606	19.184	2.1766e-06	27.216	0.00028417	0.00024761	6.9642e-05	1163.4	2.9143e-06	2.7202e-06	1239.6	241.69	2.8948e-06	2.7996e-06	302	84.717	66.508	19.365	2.734e-06	27.459	42.653	92.917	94.825	21.166	181.491	170.116	21.442	28.493	174.127	121.148	28.079	34.394	35.234	41.437	172.627	41.337	-8191	255	
6929.219	1	1	0	0	0.079919	0.089884	0.28492	0.1179	0.10925	0.20111	0.34465	0.26265	0.049732	0.1513	0.092177	0.18962	0.36578	0.33002	0.3674	0.15159	-4.7854	-4.9104	-4.5542	-5.2833	-4.5042	-4.9333	-4.9979	-4.6813	-5.0333	-4.7958	-4.6417	-5.05	-4.7438	-4.875	-5.125	-4.6146	83.723	265.320	340.974	332.930	57.438	56.777	363.943	338.844	365.844	241.368	35.176	327.863	81.965	92.963	156.315	302.370	0.00046278	0.00039657	8.0337e-05	1174	5.0826e-06	2.6834e-06	1250.6	242.4	5.0048e-06	3.404e-06	303.22	84.21	66.439	19.101	1.8646e-06	26.886	0.00027895	0.00025803	7.1005e-05	1162.2	3.0359e-06	2.6253e-06	1235.4	241.28	2.8615e-06	2.7687e-06	301.86	84.542	66.549	19.273	2.6823e-06	27.301	57.278	105.728	144.647	21.329	146.032	157.390	21.359	28.504	152.844	156.102	28.268	34.742	35.095	41.531	185.706	41.325	-8191	255	
6929.315	1	1	0	0	0.20883	0.11198	0.090477	0.27103	0.1335	0.11533	0.17215	0.1757	0.080031	0.075611	0.20011	0.20033	0.17146	0.11798	0.079341	0.26817	-4.8458	-4.8896	-4.6167	-5.2375	-4.7146	-4.75	-5.2917	-4.6687	-4.8604	-4.7375	-4.5417	-5.1604	-4.8	-4.7479	-5.1062	-4.5062	77.266	199.716	91.323	293.709	233.680	240.730	45.824	296.250	46.086	169.207	362.933	365.455	88.804	347.507	142.282	357.442	0.00039536	0.00030415	7.9379e-05	1171.6	3.7157e-06	2.9627e-06	1246.3	242.64	5.0941e-06	3.8346e-06	301.67	83.853	66.133	18.909	3.1881e-06	27.01	0.00027639	0.0002464	7.2324e-05	1156.1	3.0429e-06	2.6708e-06	1232.1	240.93	2.7347e-06	2.6325e-06	300.8	84.306	66.209	19.238	2.7151e-06	27.356	47.269	116.412	82.888	21.194	170.929	160.378	21.147	28.490	173.505	166.245	28.153	34.838	35.172	41.932	159.630	41.613	-8191	255	
6929.436	1	1	0	0	0.14912	0.09622	0.1187	0.36256	0.24572	0.12647	0.30909	0.17295	0.070804	0.097915	0.11688	0.18022	0.098431	0.22674	0.10291	0.27311	-4.4958	-4.8021	-4.5271	-5.1917	-4.7438	-4.6833	-5.4125	-4.5625	-4.8542	-4.9812	-4.5229	-5.0667	-4.7	-4.6312	-5.1458	-4.4313	232.997	61.111	275.287	322.366	27.228	277.097	339.593	330.352	156.528	62.827	293.408	356.547	332.127	18.300	77.294	356.976	0.00045464	0.000286	0.00011079	1169.4	4.9888e-06	3.3929e-06	1240.2	241.56	4.7069e-06	2.0677e-06	301.47	85.267	65.848	19.002	3.3658e-06	26.743	0.00027016	0.00024851	7.2749e-05	1153.9	2.7993e-06	2.7548e-06	1227.6	240.14	2.8212e-06	2.5174e-06	300.43	84.597	66.102	19.232	2.6184e-06	27.338	58.251	71.869	77.200	21.109	170.724	161.024	21.278	28.583	175.470	173.077	28.124	34.718	35.304	41.676	162.223	41.238	-8191	255	
6929.532	1	1	0	0	0.12585	0.16712	0.11262	0.17843	0.14213	0.21383	0.1587	0.13399	0.017875	0.11833	0.20367	0.044743	0.04233	0.12922	0.0992	0.15479	-4.4187	-4.7646	-4.4979	-4.9542	-4.6146	-4.5208	-5.2542	-4.6521	-4.7167	-5.1	-4.6083	-5.05	-4.8708	-4.4875	-4.9917	-4.8063	251.227	20.366	167.163	338.129	33.248	31.279	335.243	340.260	86.277	87.926	295.360	309.756	370.216	305.626	325.758	45.412	0.00047399	0.000272	0.00010765	1167.8	3.55e-06	3.3879e-06	1243.3	241.76	5.3885e-06	3.3462e-06	301.05	83.656	66.327	18.859	4.7692e-06	26.792	0.00027294	0.00024117	6.9467e-05	1151.8	2.8702e-06	2.6531e-06	1225.5	240.79	2.7824e-06	2.6578e-06	299.72	84.023	66.161	19.125	2.636e-06	27.235	56.866	116.391	99.062	21.568	149.414	171.038	21.437	28.627	156.967	164.450	28.142	35.097	35.143	41.676	203.184	41.491	-8191	255	
6929.628	1	1	0	0	0.2324	0.094699	0.083953	0.071994	0.11232	0.23129	0.14272	0.1549	0.2567	0.11212	0.11728	0.11297	0.15889	0.10444	0.097735	0.20714	-4.575	-5.1042	-4.5188	-5.0563	-4.6562	-4.225	-5.2396	-4.8042	-4.6833	-5.2042	-4.6646	-5.1958	-4.9646	-4.2375	-5.1271	-4.7958	344.220	76.173	111.454	182.173	161.436	222.244	312.759	332.535	268.770	90.208	154.992	365.960	159.366	336.284	221.631	297.822	0.00041907	0.00031053	8.8944e-05	1161.4	4.5221e-06	3.2747e-06	1233	241.46	5.394e-06	3.593e-06	302.66	84.434	65.879	18.819	2.4232e-06	26.771	0.00027084	0.00022934	7.0416e-05	1147.1	2.7973e-06	2.7825e-06	1222.7	240.05	2.7065e-06	2.6252e-06	300.3	84.169	65.827	19.078	2.5322e-06	27.162	52.362	107.666	107.530	21.075	162.840	162.453	21.125	28.526	148.627	144.496	27.927	34.853	34.923	41.814	187.573	41.380	-8191	255	
6929.724	1	1	0	0	0.14935	0.25288	0.053352	0.1344	0.19386	0.23031	0.21332	0.19543	0.18842	0.17881	0.24627	0.21154	0.18263	0.25126	0.060993	0.20126	-4.3271	-5.0875	-4.6562	-5.0938	-5	-4.4021	-5.1771	-4.8542	-4.7	-5.1813	-4.55	-4.9187	-5.1042	-4.5271	-5.1083	-4.9667	57.811	151.695	253.358	325.582	314.452	339.383	27.816	265.099	307.964	87.519	302.629	324.316	191.002	34.582	35.189	33.555	0.00051164	0.00028315	0.00010664	1162.1	2.0499e-06	4.1731e-06	1239.9	241.53	4.3564e-06	3.7632e-06	300.92	83.852	65.98	18.656	4.2347e-06	26.719	0.00028472	0.00023883	6.95e-05	1145.3	2.855e-06	2.7327e-06	1222.2	239.61	2.804e-06	2.5023e-06	299.36	83.866	65.747	19.024	2.7455e-06	27.059	51.961	102.961	93.595	21.282	179.943	160.447	21.317	28.462	176.631	147.106	28.058	34.833	34.970	41.813	159.285	41.351	-8191	255	
6929.796	1	1	0	0	0.041214	0.15217	0.036609	0.21326	0.20231	0.15341	0.37036	0.07564	0.19165	0.16087	0.23262	0.12838	0.10455	0.093686	0.12911	0.085994	-4.1312	-4.9958	-4.5208	-4.7396	-5.0354	-4.5104	-4.9417	-4.8688	-4.6271	-5.1083	-4.7792	-4.6562	-5.1333	-4.7042	-4.9583	-5.0292	115.411	82.480	334.634	329.056	172.212	353.107	310.981	194.786	126.386	145.153	90.150	351.600	236.176	129.671	76.166	127.607	0.00043836	0.0003137	0.00010553	1162	3.7798e-06	2.303e-06	1235.1	241.09	6.6308e-06	4.8099e-06	298.43	83.694	65.787	18.687	1.3314e-06	26.814	0.00027584	0.00025101	7.3207e-05	1145.2	2.8983e-06	2.6492e-06	1219.8	239.25	3.0556e-06	2.6067e-06	298.72	83.9	65.584	18.995	2.6676e-06	27.057	54.320	122.968	99.749	21.397	159.006	138.427	21.511	28.219	175.646	148.909	27.970	34.678	35.211	41.997	112.999	41.342	-8191	255	
6929.916	1	1	0	0	0.053751	0.12611	0.04962	0.16362	0.09171	0.08836	0.15074	0.10427	0.31369	0.14837	0.32697	0.12105	0.11168	0.12253	0.20497	0.12985	-4.2521	-5.2083	-4.575	-4.9313	-5.1958	-4.5437	-5.1	-5.1292	-4.5312	-5.1917	-4.9	-4.5125	-5.0917	-4.5437	-4.8021	-5.0083	209.718	339.729	103.877	286.196	201.842	357.416	307.890	39.607	114.097	93.533	316.033	69.706	106.582	79.259	122.748	111.839	0.00041267	0.00033086	8.6803e-05	1160.2	5.5706e-06	2.5103e-06	1236	240.41	7.7527e-06	4.1558e-06	301.2	83.512	65.982	18.729	3.7173e-06	26.485	0.00029125	0.00023926	7.0045e-05	1144.6	2.834e-06	2.8171e-06	1221.7	239.65	2.9061e-06	2.5483e-06	299.68	83.812	65.819	19	2.7365e-06	27.11	46.995	107.197	69.672	21.284	181.467	164.216	21.163	28.703	174.547	185.939	28.112	34.982	35.062	41.999	173.660	41.687	-8191	255	
6930.012	1	1	0	0	0.11603	0.05322	0.036472	0.3225	0.13686	0.025832	0.23422	0.088847	0.10966	0.27383	0.16962	0.18206	0.048228	0.31083	0.14897	0.15041	-4.1458	-4.9	-4.95	-4.7771	-5.2146	-4.8479	-4.8938	-5.0104	-4.3792	-4.9792	-4.9354	-4.6833	-5.2688	-4.7438	-4.6208	-5.0792	330.946	117.519	244.070	336.189	317.269	259.839	273.048	284.955	78.126	320.535	294.465	357.027	95.027	38.262	369.062	320.028	0.00047646	0.00027147	6.9853e-05	1159.8	5.9248e-06	3.7461e-06	1236.6	241.13	4.8049e-06	2.3262e-06	299.65	84.067	65.682	18.793	2.2323e-06	26.555	0.00028286	0.00023894	6.6676e-05	1147.5	2.9217e-06	2.7327e-06	1224.9	239.75	2.8932e-06	2.5917e-06	299.29	83.987	65.91	18.975	2.8546e-06	27.03	51.793	98.470	129.244	21.232	165.871	164.012	21.216	28.349	151.597	146.906	28.096	35.188	34.898	41.671	183.837	41.542	-8191	255	
6930.109	1	1	0	0	0.060065	0.22616	0.13192	0.29129	0.036691	0.10426	0.1697	0.14891	0.11254	0.27679	0.159	0.1539	0.15275	0.15943	0.18738	0.043301	-3.8937	-4.8479	-4.7854	-4.6417	-5.1729	-4.8625	-4.8958	-5.3583	-4.6208	-5.1271	-5.2271	-4.5083	-5.1917	-4.9521	-4.7146	-5.0146	265.450	217.302	28.885	309.102	69.965	24.295	319.125	286.305	292.073	84.258	367.693	300.440	264.683	86.011	340.364	43.241	0.00042114	0.00034449	7.3047e-05	1159.1	5.5178e-06	2.8028e-06	1235.4	240.24	3.5082e-06	3.3997e-06	299.57	83.605	65.415	18.746	2.8174e-06	26.664	0.00028677	0.00024991	7.0896e-05	1145.2	2.8835e-06	2.7635e-06	1223	239.26	2.903e-06	2.6424e-06	299.4	83.884	65.8	19.026	2.7139e-06	27.049	50.749	91.541	110.068	21.211	170.410	152.426	21.413	28.434	157.330	140.212	28.198	34.595	35.293	41.440	158.529	41.444	-8191	255	
6930.227	1	1	0	0	0.21493	0.15419	0.2367	0.31215	0.13973	0.069379	0.29851	0.13867	0.13961	0.11617	0.25037	0.25954	0.078246	0.1442	0.14813	0.11767	-4.4563	-5.1104	-4.9625	-4.6438	-4.9917	-4.7667	-4.8896	-5.3187	-4.6708	-4.8979	-5.1083	-4.6562	-5.2125	-4.8438	-4.525	-5.3667	164.236	325.805	139.541	319.925	311.211	259.873	314.529	73.501	217.836	287.415	354.963	348.845	41.550	339.264	303.900	263.777	0.00046403	0.00021668	6.4283e-05	1159	4.2059e-06	2.6595e-06	1238	240.75	3.5861e-06	3.1652e-06	300.58	83.571	65.327	18.782	2.9353e-06	26.626	0.00028355	0.00024847	6.8246e-05	1145.9	2.8589e-06	2.7686e-06	1223.6	239.59	2.9488e-06	2.7704e-06	299.67	83.649	65.633	18.994	2.9435e-06	27.038	52.044	102.111	112.084	21.210	165.960	176.015	21.224	28.489	170.213	169.174	27.802	34.943	35.237	41.922	156.399	41.791	-8191	255	
6930.324	1	1	0	0	0.28088	0.18164	0.05506	0.25929	0.13232	0.033136	0.1926	0.078445	0.18478	0.10462	0.12558	0.086874	0.18333	0.035592	0.097231	0.13716	-4.3979	-4.85	-5.0208	-4.7042	-4.9771	-5.0771	-4.9083	-5.2937	-4.8958	-4.8271	-5.1813	-4.6833	-4.9792	-4.9458	-4.6625	-5.3438	196.017	61.380	279.882	368.276	114.948	215.535	43.058	205.060	37.209	117.154	232.836	45.335	283.448	101.176	203.274	305.659	0.000478	0.00033944	9.0116e-05	1164	4.2419e-06	2.4908e-06	1234.5	241.43	1.5418e-06	3.2453e-06	301.29	83.779	65.956	18.65	4.0217e-06	26.402	0.00028595	0.00026857	7.4526e-05	1147.7	2.9653e-06	2.808e-06	1221.9	239.84	3.0854e-06	2.9414e-06	299.78	83.83	65.667	18.921	2.7299e-06	26.961	48.854	93.636	111.535	21.255	138.769	146.877	21.315	28.460	136.255	187.431	28.117	35.084	35.229	41.825	151.772	41.387	-8191	255	
6930.397	1	1	0	0	0.23866	0.045246	0.31787	0.053767	0.094824	0.087014	0.20496	0.30324	0.095822	0.055748	0.30537	0.043778	0.02245	0.005173	0.1004	0.048478	-4.4187	-4.8146	-5.1271	-4.8771	-4.9875	-4.9354	-4.5875	-5.1146	-4.6583	-4.4125	-5.1104	-4.5125	-4.725	-4.9958	-4.35	-4.975	73.021	25.840	112.500	283.040	263.802	339.327	275.053	314.457	302.844	172.691	356.061	115.523	259.007	320.728	244.338	251.456	0.00049004	0.00023437	0.00012995	1158.9	3.9948e-06	3.8923e-06	1237.4	240.16	2.7602e-06	3.2729e-06	300.47	83.662	65.762	18.816	4.3352e-06	26.594	0.00029825	0.00024788	6.5433e-05	1144.7	3.0375e-06	2.8552e-06	1222.7	239.06	3.0322e-06	2.8963e-06	299.56	83.853	65.935	18.991	3.0424e-06	27.001	56.850	76.575	112.754	21.295	151.252	158.675	21.251	28.269	146.704	160.191	27.749	34.861	34.876	41.574	193.592	41.203	-8191	255	
6930.516	1	1	0	0	0.024657	0.20463	0.18147	0.29821	0.06999	0.28541	0.22579	0.14106	0.14142	0.18405	0.20209	0.15451	0.19556	0.076174	0.27585	0.16697	-4.45	-4.4167	-5.1188	-4.8021	-5.0687	-4.9875	-4.6729	-5.3792	-4.95	-4.7604	-5.0875	-4.6312	-4.8521	-4.9313	-4.3313	-4.9646	132.367	314.251	187.898	302.872	341.783	310.714	262.756	104.367	158.298	179.484	322.374	366.223	252.742	345.774	156.055	172.948	0.00048709	0.00012711	0.0001061	1163.2	4.7971e-06	1.9833e-06	1235.8	240.62	2.8748e-06	2.8418e-06	300.68	83.664	66.278	18.545	3.598e-06	26.487	0.00028953	0.00025557	6.6818e-05	1147.6	3.1919e-06	2.7673e-06	1220.9	239.83	2.9472e-06	2.9143e-06	299.48	83.7	65.909	18.906	2.9259e-06	26.932	54.206	64.430	104.477	21.350	163.941	180.153	21.304	28.359	155.584	144.385	28.375	35.377	35.023	42.004	167.241	41.408	-8191	255	
6930.612	1	1	0	0	0.13903	0.18755	0.072093	0.14139	0.17452	0.1229	0.24222	0.071865	0.11922	0.24197	0.3389	0.19709	0.20062	0.20591	0.092707	0.057829	-4.5083	-4.5521	-5.1292	-4.8396	-4.6396	-5.1458	-4.4875	-4.8646	-4.9354	-4.4667	-5.1125	-4.5979	-4.5979	-5.1333	-4.5667	-4.7583	233.502	212.649	249.970	238.084	12.185	52.849	329.607	192.528	344.842	182.462	299.939	293.419	29.436	352.231	197.624	185.592	0.00042021	0.00038461	8.1457e-05	1160.2	6.6912e-06	3.0028e-06	1239	239.8	6.8388e-06	2.8924e-06	299.37	83.512	65.894	18.747	2.162e-06	26.516	0.00027816	0.00026596	6.9816e-05	1145.3	3.2309e-06	2.9713e-06	1223	239.18	2.9367e-06	3.1342e-06	298.71	83.664	65.775	18.993	2.969e-06	27.038	50.470	79.809	82.239	21.326	159.612	178.731	21.524	28.358	155.407	178.798	27.975	34.822	34.739	41.649	189.225	41.441	-8191	255	
6930.708	1	1	0	0	0.057316	0.16915	0.27977	0.20737	0.13822	0.33941	0.25749	0.10136	0.20493	0.038866	0.24335	0.035165	0.061524	0.094828	0.19178	0.062054	-4.7375	-4.4146	-5.1083	-5.0875	-4.7063	-5.1208	-4.7708	-4.9708	-4.9563	-4.5271	-5.1687	-4.8479	-4.6458	-5.0813	-4.6687	-4.9979	79.139	215.905	67.450	321.258	326.934	164.805	321.404	367.298	153.527	267.995	354.327	332.750	335.943	160.176	65.113	251.821	0.00044786	0.00035812	8.5402e-05	1162.7	5.5104e-06	3.5296e-06	1235.5	239.7	6.6638e-06	2.7451e-06	301.17	83.72	65.728	18.649	3.023e-06	26.506	0.00029054	0.00026736	7.2204e-05	1149.5	3.1073e-06	2.8011e-06	1221.4	239.26	2.8967e-06	2.9139e-06	299.08	83.713	65.666	18.964	2.8808e-06	26.991	48.697	113.150	83.556	21.225	181.131	157.497	21.269	28.663	163.513	184.891	28.093	34.730	35.062	41.776	123.848	41.532	-8191	255	
6930.829	1	1	0	0	0.17696	0.073974	0.04388	0.17168	0.062083	0.13151	0.1802	0.28981	0.081032	0.10579	0.062606	0.1775	0.085859	0.16072	0.13597	0.1065	-4.8417	-4.5708	-5.0917	-4.9458	-4.4875	-5.2104	-4.9729	-4.9521	-5.1521	-4.4354	-5.0375	-4.9417	-4.6625	-5.2583	-4.7125	-4.8979	173.884	60.493	271.188	316.206	316.565	139.520	292.564	282.500	228.934	215.147	310.577	334.445	93.692	117.167	47.508	354.092	0.00042343	0.00041906	0.00012635	1160.2	5.0982e-06	2.9654e-06	1234	240.5	3.6378e-06	1.7285e-06	301.12	83.747	65.77	18.549	2.2105e-06	26.54	0.00027598	0.00025042	6.8224e-05	1148.1	2.9193e-06	2.6141e-06	1221.3	239.21	2.759e-06	2.9233e-06	299.2	83.657	65.83	18.947	2.8628e-06	27.046	55.160	93.439	119.721	21.211	152.836	161.070	21.311	28.623	144.426	190.591	28.174	34.682	34.953	42.023	160.413	41.371	-8191	255	
6930.925	1	1	0	0	0.1816	0.045419	0.12263	0.11594	0.24362	0.1015	0.098236	0.072705	0.15117	0.16157	0.23934	0.16215	0.21041	0.13677	0.22418	0.099867	-4.8479	-4.5708	-4.9833	-5.0771	-4.5021	-5.1292	-5.0042	-4.8333	-5.1375	-4.5687	-4.8479	-5.0104	-4.4854	-5.0062	-4.5667	-4.5771	230.784	94.287	56.536	267.538	63.443	355.928	349.353	301.953	238.501	174.461	335.938	45.638	182.149	149.533	121.300	116.909	0.00046892	0.0003739	0.00012281	1164.2	3.9128e-06	3.1169e-06	1235.7	240.79	5.0091e-06	4.0292e-06	299.48	83.373	65.982	18.632	3.8991e-06	26.707	0.00027898	0.0002772	7.3491e-05	1148	3.1318e-06	2.9838e-06	1223.2	239.72	2.8599e-06	2.9139e-06	299.15	83.697	65.871	18.937	2.9677e-06	27.038	49.121	113.770	120.721	21.286	173.354	168.970	21.256	28.533	163.498	166.582	28.014	35.074	35.257	41.671	170.519	41.552	-8191	255	
6931.021	1	1	0	0	0.14843	0.30109	0.14831	0.27027	0.21359	0.089487	0.13975	0.19346	0.24299	0.14451	0.19424	0.11071	0.088241	0.033253	0.13318	0.13334	-4.6958	-4.7583	-4.8854	-5.1729	-4.6708	-5.1792	-5.1062	-4.7104	-5.1083	-4.6417	-4.8104	-5.0583	-4.5042	-4.8542	-4.8021	-4.4729	302.950	122.226	345.620	316.895	282.711	277.150	348.965	322.244	95.124	260.020	329.900	69.810	238.620	338.625	145.016	36.574	0.00044123	0.0003443	0.00013013	1159	4.3307e-06	2.7804e-06	1233.7	241.27	5.0595e-06	3.0578e-06	300.67	83.895	66.113	18.759	3.3832e-06	26.729	0.00029374	0.00026607	7.6751e-05	1146.5	3.2909e-06	2.8362e-06	1223.1	239.79	3.0106e-06	2.956e-06	299.55	83.94	65.964	19.056	2.9189e-06	27.192	56.978	124.449	71.230	21.134	152.785	177.428	21.414	28.680	159.384	155.155	28.069	34.805	34.937	41.739	167.501	41.445	-8191	255	
6931.093	1	1	0	0	0.32439	0.13938	0.10893	0.18639	0.065411	0.24104	0.17508	0.11885	0.14867	0.013667	0.10014	0.15586	0.093106	0.12298	0.21748	0.17543	-4.6375	-4.5062	-4.6562	-5.0938	-4.5229	-5.1062	-5.1333	-4.6229	-5.4271	-4.8063	-4.8938	-5.3187	-4.7417	-5.1021	-4.8396	-4.3979	28.053	178.262	322.903	356.404	317.610	363.919	284.111	267.492	26.469	165.028	260.664	363.694	192.077	369.223	272.234	156.443	0.00041186	0.00043299	7.938e-05	1170.8	3.1959e-06	2.1016e-06	1245.7	240.9	5.9218e-06	3.0458e-06	301.32	84.525	66.48	18.835	4.9024e-06	26.739	0.00029341	0.00028333	7.6729e-05	1153.7	3.1911e-06	2.892e-06	1230.4	240.82	2.9425e-06	2.9126e-06	301.01	84.255	66.324	19.13	3.053e-06	27.184	48.613	95.099	90.107	21.231	174.150	140.873	21.356	28.543	165.016	178.549	27.947	34.631	34.837	41.692	163.573	41.601	-8191	255	
6931.212	1	1	0	0	0.12592	0.020982	0.1147	0.13619	0.23347	0.20218	0.17885	0.32389	0.13133	0.093106	0.064507	0.12685	0.13496	0.15574	0.15594	0.14832	-4.7438	-4.7562	-4.7417	-5.2771	-4.7562	-4.9896	-5.1021	-4.4896	-5.0813	-4.8063	-4.6771	-5.1708	-4.6438	-4.9458	-5.0333	-4.4146	41.701	153.551	320.671	260.871	350.838	37.301	288.408	59.703	251.271	289.768	13.742	28.476	100.124	158.020	25.050	285.235	0.00049728	0.00041563	6.8983e-05	1172.2	4.633e-06	2.3981e-06	1249.6	242.7	4.8225e-06	2.1801e-06	302.09	83.884	66.058	18.856	3.1302e-06	26.645	0.00029909	0.00025999	7.7874e-05	1157	3.2523e-06	2.9622e-06	1233.9	240.96	2.9378e-06	2.9315e-06	300.97	84.103	66.062	19.128	2.9255e-06	27.147	52.830	93.846	90.104	21.235	183.384	154.833	21.251	28.569	182.136	188.478	27.956	34.614	35.309	41.719	146.376	41.483	-8191	255	
6931.308	1	1	0	0	0.046116	0.18514	0.0050264	0.062263	0.16942	0.21454	0.3765	0.18439	0.22776	0.1602	0.20766	0.096129	0.41102	0.3118	0.17466	0.15748	-4.8313	-4.8354	-4.6146	-5.2812	-4.625	-4.8229	-5.3521	-4.7729	-5.0771	-5.1375	-4.8562	-5.325	-4.8125	-4.9125	-5.0042	-4.5625	263.728	214.195	128.030	169.633	118.450	249.660	329.997	250.784	182.324	281.592	294.948	129.094	269.288	251.031	209.529	289.188	0.00044713	0.00043319	0.00011516	1171.1	5.6253e-06	2.1579e-06	1252.5	242.3	3.5268e-06	3.4557e-06	303.15	84.539	66.012	18.859	1.7709e-06	26.787	0.00029653	0.00028372	7.9498e-05	1157.7	3.2624e-06	3.0743e-06	1235.1	241.36	2.9582e-06	2.9349e-06	301.85	84.613	66.331	19.154	3.0165e-06	27.207	50.366	88.263	111.224	21.254	147.605	148.925	21.312	28.502	184.262	135.795	28.084	34.567	34.945	41.236	136.218	41.461	-8191	255	
6931.404	1	1	0	0	0.19955	0.17628	0.17159	0.17757	0.10859	0.096062	0.41877	0.25544	0.20401	0.11835	0.14858	0.1316	0.065075	0.11246	0.17427	0.11287	-4.6	-4.8604	-4.5437	-5.2521	-4.6	-4.7292	-5.3667	-4.6312	-4.8479	-4.9729	-4.5667	-5.0771	-4.6604	-4.5396	-5.2146	-4.5687	291.152	368.680	283.941	363.433	88.249	246.074	283.361	304.793	359.302	212.276	260.925	241.525	82.925	347.463	252.483	40.856	0.00043762	0.00033434	7.2219e-05	1175	4.5568e-06	3.1691e-06	1253.5	244.53	4.3038e-06	3.0144e-06	303.01	84.164	66.331	18.915	3.0961e-06	26.896	0.00030057	0.00027357	8e-05	1160.8	3.3482e-06	3.2172e-06	1235.1	241.66	3.2157e-06	3.0737e-06	301.87	84.227	66.234	19.147	2.8886e-06	27.25	47.803	100.148	102.395	21.081	170.260	180.555	21.365	28.682	152.519	157.276	28.144	34.764	35.008	42.008	170.347	41.096	-8191	255	
6931.500	1	1	0	0	0.12511	0.19873	0.12917	0.17475	0.14119	0.27291	0.1309	0.23112	0.18528	0.17992	0.050383	0.21575	0.25594	0.19387	0.045037	0.12043	-4.4208	-5.0542	-4.4708	-5.3021	-4.85	-4.7	-5.3438	-4.6625	-4.7396	-5.1958	-4.6396	-5.0292	-4.9604	-4.8479	-5.3146	-4.7562	208.976	345.511	342.835	353.881	368.055	32.123	281.881	342.977	132.169	249.695	245.063	86.313	48.895	321.740	242.184	44.708	0.00049003	0.00025075	7.6983e-05	1177	4.5783e-06	3.168e-06	1246.5	241.82	5.6767e-06	2.4885e-06	303.02	84.009	65.953	18.802	2.7083e-06	26.802	0.00031421	0.00026939	7.9913e-05	1159.1	3.1825e-06	3.1739e-06	1231.8	241.06	3.1801e-06	2.9169e-06	301.15	84.308	66.259	19.056	3.0309e-06	27.161	50.445	61.214	134.002	21.124	138.729	142.846	21.356	28.535	165.202	187.680	28.117	34.777	35.302	41.529	165.695	41.350	-8191	255	
6931.621	1	1	0	0	0.061435	0.12964	0.086025	0.14204	0.26163	0.229	0.076998	0.016668	0.033497	0.096061	0.1008	0.24	0.11089	0.18835	0.1462	0.10398	-4.5875	-5.2458	-4.6188	-5.1312	-4.9771	-4.7083	-5.3708	-4.8479	-4.7792	-5.3083	-4.7146	-5.1333	-5.0437	-4.6396	-5.2833	-4.8458	368.081	247.537	38.559	283.841	312.703	357.181	268.158	94.029	147.537	20.798	314.608	83.599	38.354	311.714	268.775	93.920	0.00047615	0.00036876	7.5824e-05	1168.4	5.6495e-06	1.7084e-06	1239.7	241.67	5.2854e-06	3.7239e-06	301.01	84.083	65.808	18.862	3.8758e-06	26.806	0.00030218	0.00026889	7.5246e-05	1152.1	3.1848e-06	3.0332e-06	1225.1	240.4	3.249e-06	2.8911e-06	300.58	83.944	65.886	19.073	2.857e-06	27.139	52.487	70.121	96.780	21.168	172.251	166.008	21.511	28.595	189.877	165.910	28.120	35.053	35.213	41.665	179.814	40.934	-8191	255	
6931.692	1	1	0	0	0.12816	0.33287	0.16932	0.1149	0.11559	0.082741	0.19905	0.21259	0.29052	0.17797	0.30288	0.1645	0.25263	0.026726	0.13904	0.12665	-4.3729	-5.2021	-4.7021	-5.0437	-5.1854	-4.7063	-5.4229	-4.9875	-4.7333	-5.1396	-4.675	-5.0667	-5.0729	-4.5792	-5.1208	-4.9	107.975	140.178	86.095	129.270	14.010	40.830	261.852	244.827	78.786	181.609	58.863	308.775	121.376	318.445	257.955	189.641	0.00046051	0.00019428	8.8527e-05	1167.6	5.8672e-06	1.9409e-06	1240.7	242.65	4.9436e-06	1.3163e-06	302.84	83.72	66.817	18.863	4.0378e-06	26.762	0.00029888	0.00026342	7.5584e-05	1151.4	3.0172e-06	3.0834e-06	1227.6	240.92	2.9828e-06	2.9139e-06	300.75	83.88	66.321	19.093	2.8759e-06	27.162	56.333	70.298	98.611	21.181	168.907	208.673	21.305	28.401	155.168	141.568	28.132	34.753	35.024	41.767	142.819	41.141	-8191	255	
6931.789	1	1	0	0	0.14643	0.10729	0.10141	0.34978	0.035085	0.13286	0.067642	0.032026	0.21387	0.10013	0.18826	0.05336	0.135	0.23736	0.20138	0.24321	-4.3271	-5.2833	-4.7604	-5.0437	-5.0646	-4.5042	-5.0646	-4.7542	-4.425	-5.05	-4.8417	-4.8479	-5.2479	-4.5604	-5.0771	-5.0958	280.917	23.931	284.970	293.358	322.099	114.762	279.407	348.101	326.313	323.104	30.977	369.795	124.144	280.017	24.172	60.369	0.00049968	0.00028216	5.2695e-05	1167.7	3.7255e-06	4.0006e-06	1242.2	241.77	3.8101e-06	3.7505e-07	302.43	83.577	66.363	18.841	2.1853e-06	26.695	0.00029603	0.00025624	7.2869e-05	1152.8	3.1607e-06	3.0245e-06	1228.5	240.38	3.0251e-06	2.7558e-06	301.18	83.861	66.1	19.066	2.8533e-06	27.15	51.812	112.495	123.399	21.421	156.512	143.190	21.412	28.382	176.720	267.797	27.986	34.925	35.125	42.033	225.235	41.405	-8191	255	
6931.909	1	1	0	0	0.10383	0.082604	0.081505	0.25418	0.10661	0.17746	0.21829	0.43283	0.12729	0.053955	0.12969	0.1536	0.12925	0.16299	0.037462	0.15086	-4.1896	-5.1021	-4.9125	-4.7458	-5.0437	-4.5417	-5.0167	-4.8812	-4.4292	-5.1021	-4.9125	-4.6604	-5.1458	-4.5583	-4.9625	-4.9187	64.311	249.402	45.843	19.558	147.421	271.051	307.693	351.496	46.705	217.682	46.198	219.638	347.747	307.613	84.057	63.148	0.00047778	0.0003329	4.0021e-05	1171.1	4.5438e-06	2.6342e-06	1245.2	241.58	4.7214e-06	3.3732e-06	302.46	83.988	66.264	18.968	4.0292e-06	26.669	0.00030601	0.00026498	7.4068e-05	1153.8	3.0843e-06	2.989e-06	1229.9	240.73	3.1672e-06	2.8928e-06	300.96	84.169	66.013	19.14	2.9538e-06	27.137	52.865	99.196	73.176	21.299	163.062	149.524	21.244	28.459	152.936	147.720	27.899	35.098	35.219	41.900	144.643	41.767	-8191	255	
6932.005	1	1	0	0	0.25897	0.14672	0.061628	0.26081	0.2624	0.25514	0.24315	0.3284	0.12194	0.2421	0.0073462	0.030067	0.050877	0.072839	0.24843	0.086929	-4.1479	-5.125	-4.8396	-4.8417	-5.2625	-4.9167	-5.3208	-5.1708	-4.5729	-5.1417	-4.9458	-4.5062	-5.1604	-4.55	-4.7812	-5.1687	112.613	128.844	288.275	327.530	263.290	35.705	284.199	368.270	131.018	137.570	242.910	343.693	251.385	79.794	140.491	135.110	0.00048725	0.00027127	7.5415e-05	1168.1	4.797e-06	2.5619e-06	1242.8	241.53	5.4847e-06	4.0637e-06	301.55	84.584	65.384	18.89	3.1747e-06	26.88	0.00032077	0.00027353	7.6478e-05	1154.1	3.0952e-06	2.9293e-06	1227.8	240.68	3.1288e-06	2.8327e-06	300.62	84.155	65.896	19.113	3.0571e-06	27.223	51.220	74.563	133.230	21.311	162.605	153.630	21.451	28.561	163.258	173.760	28.161	34.599	34.833	41.977	165.896	41.562	-8191	255	
6932.102	1	1	0	0	0.16932	0.10433	0.15726	0.19685	0.016544	0.037079	0.063458	0.27785	0.12785	0.0091244	0.16123	0.057234	0.25985	0.10825	0.18038	0.16195	-4.1375	-5.1146	-5.0104	-4.6625	-5.2125	-4.5938	-4.975	-5.3583	-4.6562	-5.0208	-5.1167	-4.5917	-5.0687	-4.75	-4.7146	-5.2104	27.586	109.308	116.665	353.486	152.853	134.327	194.199	243.828	47.013	266.027	289.619	215.160	265.921	183.729	197.028	248.192	0.00045732	0.00022675	8.2872e-05	1171.7	3.8157e-06	2.5061e-06	1244.7	242.63	5.4743e-06	3.5415e-06	303.61	83.663	66.576	18.896	4.2056e-06	26.627	0.00029532	0.00025874	7.662e-05	1153.8	3.0835e-06	3.012e-06	1231	241.11	2.9883e-06	2.9263e-06	301.32	84.077	66.259	19.148	2.857e-06	27.149	55.245	97.313	95.506	21.187	173.969	155.086	21.352	28.419	165.320	147.546	27.912	34.741	35.217	41.650	177.184	41.322	-8191	255	
6932.198	1	1	0	0	0.064316	0.13146	0.064997	0.12401	0.17545	0.012707	0.22517	0.25236	0.26973	0.21526	0.13086	0.061879	0.1352	0.1565	0.066149	0.15202	-4.1562	-4.8771	-5.0167	-4.8167	-5.0646	-4.9521	-4.8583	-5.2917	-4.7229	-5.0396	-5.0521	-4.5771	-4.9792	-4.6687	-4.4042	-5.1854	18.292	210.281	236.323	96.785	328.145	305.864	289.482	29.854	292.746	295.742	340.637	350.489	350.795	293.371	14.835	131.110	0.00047266	0.0003336	0.00014892	1168.8	3.6152e-06	2.5418e-06	1242	241.88	5.1128e-06	3.7969e-06	303.44	83.798	66.151	18.837	5.2099e-06	26.818	0.00029251	0.00027552	7.155e-05	1154.1	3.1954e-06	2.7994e-06	1227.8	240.98	3.0549e-06	3.0122e-06	301.08	84.153	66.038	19.118	2.8558e-06	27.221	55.075	98.432	103.859	21.305	151.870	147.029	21.117	28.366	139.402	155.169	28.076	34.966	35.092	41.656	162.995	41.320	-8191	255	
6932.292	1	1	0	0	0.1542	0.22652	0.015865	0.1369	0.24015	0.097285	0.32243	0.16374	0.01617	0.047422	0.071698	0.022796	0.14951	0.10655	0.086312	0.15297	-4.4688	-4.8896	-5.125	-4.6625	-5	-4.6562	-4.6958	-5.1937	-4.6021	-4.9187	-5.275	-4.4625	-4.8583	-4.8521	-4.6875	-5.2271	235.134	262.685	224.199	50.886	365.431	226.227	317.514	246.626	129.308	66.536	281.589	134.736	92.575	30.144	348.884	26.795	0.00048229	0.00020508	0.00011331	1169.9	3.8266e-06	2.6729e-06	1240.1	241.46	2.8786e-06	4.0268e-06	301.78	84.105	66.112	18.857	2.5291e-06	26.891	0.00029019	0.0002576	7.1746e-05	1154.8	3.0449e-06	3.0107e-06	1228.2	240.73	3.0564e-06	2.9379e-06	300.74	84.269	66.18	19.157	2.9497e-06	27.3	50.390	65.728	106.187	21.287	172.062	125.153	21.255	28.371	181.456	156.705	28.284	34.851	35.282	41.729	168.164	41.142	-8191	255	
6932.388	1	1	0	0	0.16879	0.1578	0.089873	0.2653	0.071409	0.11205	0.22514	0.129	0.065655	0.33596	0.21794	0.026094	0.19027	0.086738	0.1639	0.082698	-4.5938	-4.7042	-5.0208	-4.6854	-4.8479	-4.95	-4.7729	-5.15	-4.8583	-4.7792	-5.0979	-4.5854	-4.75	-4.9021	-4.3125	-5.0437	220.856	337.769	72.504	337.218	150.847	59.350	344.785	313.348	236.413	23.939	360.980	163.295	249.761	90.022	156.272	201.031	0.00043714	0.00029026	8.7817e-05	1171.1	2.7235e-06	2.5797e-06	1243.3	242.05	3.7399e-06	2.575e-06	302.01	84.076	66.008	18.881	2.3943e-06	26.945	0.00028193	0.00026412	7.3938e-05	1155.3	3.0691e-06	2.8362e-06	1229	241.17	3.1014e-06	3.0616e-06	301.08	84.234	66.117	19.124	2.9066e-06	27.25	50.687	116.687	106.458	21.436	153.512	186.534	21.347	28.417	164.371	193.296	27.841	34.903	34.903	41.614	199.722	41.086	-8191	255	
6932.509	1	1	0	0	0.17201	0.12648	0.10718	0.11568	0.16822	0.095442	0.1678	0.16846	0.032234	0.041075	0.081409	0.14595	0.046676	0.087906	0.08045	0.2036	-4.35	-4.3958	-5.0167	-4.7438	-4.8562	-5.0604	-4.6813	-5.25	-4.8354	-4.5521	-5.2667	-4.7417	-4.9125	-5.2396	-4.5813	-5.1208	182.766	62.809	27.618	52.073	322.008	257.505	349.120	124.884	142.232	240.318	128.707	11.787	337.413	233.927	134.528	16.341	0.0004433	0.00024584	7.3093e-05	1174.5	6.2009e-06	1.3714e-06	1247.3	241.81	5.2388e-06	4.1982e-06	301.32	84.261	66.467	19	4.8919e-06	26.884	0.00028245	0.00026486	7.0448e-05	1156.7	3.1049e-06	2.6236e-06	1231.9	240.79	2.9793e-06	2.8945e-06	301.04	84.525	66.325	19.181	2.8886e-06	27.235	54.652	126.416	137.929	21.143	169.263	136.959	21.336	28.435	168.356	156.720	27.890	34.710	34.924	41.827	164.250	41.280	-8191	255	
6932.605	1	1	0	0	0.08276	0.27553	0.22583	0.13828	0.12978	0.01197	0.083345	0.061104	0.050169	0.20679	0.060905	0.0104	0.16215	0.19523	0.13277	0.15484	-4.5917	-4.4688	-5.0563	-4.6896	-4.7125	-5.1333	-4.7896	-5.1271	-4.8812	-4.6292	-5.25	-4.7208	-4.7896	-5.1646	-4.3646	-4.9292	320.272	270.236	264.025	347.982	309.569	323.168	283.523	108.750	233.760	12.831	247.342	301.731	13.607	270.367	138.646	295.899	0.00046555	0.00044041	0.00011254	1173.8	4.9805e-06	3.0638e-06	1248.8	242.98	4.9346e-06	3.7329e-06	304.23	84.301	66.223	18.859	2.065e-06	26.911	0.00029396	0.00027052	7.4428e-05	1157.8	3.209e-06	2.8816e-06	1232.4	241.29	2.9421e-06	2.8894e-06	301.73	84.317	66.226	19.175	2.8857e-06	27.342	51.320	94.877	124.571	21.213	154.178	170.199	21.051	28.481	148.325	165.273	28.160	34.936	35.235	42.003	175.100	41.546	-8191	255	
6932.701	1	1	0	0	0.27009	0.15331	0.17765	0.13041	0.20396	0.061754	0.11425	0.27272	0.27312	0.066442	0.15685	0.074663	0.11992	0.041741	0.10551	0.29145	-4.6	-4.3875	-5.1542	-4.9938	-4.7021	-5.1438	-4.5521	-5.0354	-4.9917	-4.3313	-5.0604	-4.9062	-4.6438	-5.1458	-4.7625	-5.0479	90.430	291.671	21.542	303.122	116.896	111.223	256.555	286.929	246.249	71.614	327.235	328.814	58.184	348.588	47.911	22.456	0.00048594	0.0003523	6.6228e-05	1174	5.32e-06	3.641e-06	1247.7	242.65	3.9721e-06	4.4339e-06	303.06	84.726	67.239	18.956	2.5975e-06	26.951	0.00029221	0.0002617	6.9925e-05	1159.2	3.1041e-06	2.8474e-06	1235.8	241.9	2.7437e-06	3.0054e-06	302.2	84.627	66.653	19.231	2.864e-06	27.324	58.201	99.026	119.475	21.047	154.508	122.602	21.188	28.419	143.335	162.719	28.135	34.966	35.508	41.767	157.078	41.147	-8191	255	
6932.797	1	1	0	0	0.15199	0.12248	0.1321	0.21506	0.22464	0.068399	0.16821	0.18413	0.27737	0.10104	0.043002	0.0721	0.010668	0.12694	0.026821	0.16648	-4.7625	-4.5333	-4.7812	-5.1167	-4.8083	-5.4021	-4.8812	-5.1	-5.2646	-4.5	-5.1354	-4.7896	-4.5583	-5.0667	-4.6583	-4.7979	256.552	102.612	34.233	305.973	280.102	280.800	339.729	64.199	256.070	138.560	182.662	218.305	248.615	234.090	219.707	243.508	0.00048875	0.00034249	7.6399e-05	1176.6	4.2418e-06	3.5061e-06	1251.7	242.09	4.9887e-06	4.7545e-06	304.44	84.536	66.553	18.992	2.3707e-06	26.904	0.00028789	0.0002722	7.1103e-05	1160.4	3.1026e-06	2.7712e-06	1238	241.93	3.0263e-06	3.0084e-06	302.5	84.892	66.432	19.263	3.0305e-06	27.362	54.168	117.898	76.112	21.144	171.831	135.352	21.134	28.440	171.571	150.685	28.000	34.845	35.216	41.256	120.788	40.991	-8191	255	
6932.918	1	1	0	0	0.054284	0.074615	0.087874	0.13674	0.11524	0.093381	0.1449	0.36114	0.13187	0.22679	0.10739	0.12772	0.19557	0.16107	0.23974	0.19889	-4.8104	-4.6125	-4.9604	-4.9542	-4.3083	-5.0563	-4.9771	-4.825	-5.0708	-4.4667	-5.05	-5.1104	-4.6458	-5.1792	-4.6208	-4.7937	323.115	69.511	30.144	339.504	28.702	245.149	295.055	287.071	68.250	76.497	59.567	44.106	64.182	336.617	216.500	270.840	0.00047551	0.00034359	0.00014685	1176.9	5.1463e-06	3.0772e-06	1250.2	243.74	6.7333e-06	2.3405e-06	303.59	84.675	67.032	18.97	4.0896e-06	27.157	0.00029508	0.00026494	7.2891e-05	1160.3	3.1743e-06	2.8327e-06	1235	242.25	2.9981e-06	2.9285e-06	302.6	84.696	66.678	19.252	2.7873e-06	27.422	48.412	95.616	129.431	21.241	175.365	149.725	21.295	28.263	182.828	171.625	27.981	34.811	35.097	41.797	157.135	41.633	-8191	255	
6932.990	1	1	0	0	0.03212	0.151	0.030924	0.096906	0.18682	0.32908	0.15164	0.19094	0.13991	0.054302	0.21616	0.17923	0.27913	0.11863	0.13652	0.16399	-4.8625	-4.6813	-5.0042	-5.1625	-4.4479	-5.0521	-5.0188	-4.8271	-5.1854	-4.7188	-4.8187	-5.0854	-4.5125	-5.1062	-5	-4.7333	301.980	163.711	290.408	12.529	138.586	257.540	265.662	237.737	340.929	328.512	208.219	353.638	208.867	292.642	204.925	90.439	0.00043424	0.0002658	0.00011178	1172.1	5.654e-06	3.1357e-06	1246.3	242.92	5.7603e-06	3.4695e-06	303.42	84.829	67.174	18.892	4.3284e-06	26.764	0.00027677	0.00025745	6.9347e-05	1156.5	3.0628e-06	2.7327e-06	1233.5	241.69	2.7574e-06	2.84e-06	301.93	84.718	66.715	19.196	2.6163e-06	27.306	44.702	104.879	149.992	21.124	173.572	170.612	21.050	28.337	186.059	147.930	28.018	34.752	35.284	41.945	170.007	41.359	-8191	255	
6933.086	1	1	0	0	0.22881	0.1565	0.11071	0.16261	0.24214	0.097575	0.23288	0.15382	0.092797	0.099301	0.1324	0.17147	0.22414	0.12865	0.21361	0.11053	-4.8396	-4.6667	-4.7	-5.175	-4.5021	-4.8833	-5.1042	-4.5563	-5.0813	-4.7646	-5.0542	-5.1083	-4.4896	-5.125	-5.0792	-4.3125	345.211	310.063	331.699	369.283	210.420	117.255	271.399	335.250	104.926	339.659	19.169	353.722	69.115	273.199	112.735	94.597	0.00044688	0.00020019	7.1164e-05	1166.7	3.9597e-06	3.3645e-06	1242.6	242.54	3.6006e-06	3.3933e-06	301.93	84.345	65.955	18.915	2.9971e-06	26.87	0.00027387	0.00023855	6.9151e-05	1153.8	2.7926e-06	2.7392e-06	1227.2	241.01	2.5684e-06	2.5719e-06	300.73	84.391	65.992	19.154	2.5392e-06	27.164	50.964	106.293	105.785	21.275	166.817	162.901	21.304	28.520	186.389	175.383	28.196	35.184	35.269	41.970	157.895	41.723	-8191	255	
6933.182	1	1	0	0	0.17047	0.027341	0.090769	0.16344	0.068487	0.16655	0.13837	0.061923	0.2092	0.12189	0.32278	0.085005	0.24603	0.12608	0.12747	0.14484	-4.7396	-4.6958	-4.6021	-5.1021	-4.5604	-5.0458	-5.0521	-4.4437	-5.0896	-4.7708	-4.7688	-5.2833	-4.7417	-4.8917	-5.0646	-4.5312	318.891	120.039	324.844	344.991	57.105	76.861	314.693	172.806	58.113	347.801	21.719	362.019	54.182	304.763	317.364	358.845	0.00045905	0.00031372	9.1649e-05	1156.5	7.2847e-06	2.6928e-06	1237.1	241.88	4.8588e-06	3.511e-06	301.41	84.207	65.876	18.806	3.9106e-06	26.655	0.00025808	0.00023598	6.431e-05	1143.4	2.8679e-06	2.366e-06	1219.9	239.76	2.4772e-06	2.5642e-06	299.85	84.036	65.822	19.055	2.3981e-06	27.107	53.637	101.787	115.247	21.329	176.796	131.567	21.484	28.581	150.327	142.115	28.013	34.771	35.218	41.862	171.412	41.754	-8191	255	
6933.278	1	1	0	0	0.083749	0.21071	0.16467	0.12883	0.13269	0.14904	0.29977	0.15217	0.0864	0.13061	0.065752	0.14242	0.12667	0.1669	0.02586	0.14392	-4.7812	-4.8063	-4.6667	-5.1542	-4.55	-4.7438	-5.3313	-4.6188	-5.2208	-4.8688	-4.6146	-5.3979	-4.6667	-4.6854	-5.0125	-4.4604	285.402	335.897	24.844	348.556	95.492	134.865	344.560	16.554	75.245	369.943	46.805	271.599	65.215	316.500	318.658	211.569	0.00046095	0.00032658	3.1208e-05	1156.2	3.637e-06	3.6284e-06	1231.9	240.65	4.5081e-06	3.4577e-06	300.84	83.682	65.505	18.816	2.0547e-06	26.685	0.00025914	0.00022997	6.7984e-05	1139.9	2.611e-06	2.5617e-06	1217.6	239.42	2.6455e-06	2.3004e-06	299.51	83.973	65.693	19.069	2.3698e-06	27.045	44.663	83.952	171.923	21.333	175.145	181.579	21.608	28.701	176.358	162.859	28.208	34.628	34.770	42.074	199.512	41.566	-8191	255	
6933.397	1	1	0	0	0.08812	0.15147	0.070076	0.077695	0.13852	0.053294	0.11983	0.1852	0.18791	0.1417	0.11852	0.20098	0.1158	0.17082	0.20147	0.2184	-4.6104	-5.1375	-4.6062	-5.3167	-4.8	-4.625	-5.0854	-4.45	-4.9437	-5.0521	-4.6979	-5.3375	-4.8375	-4.7104	-5.1729	-4.7521	43.850	51.931	344.865	342.218	254.775	40.961	302.078	334.866	248.236	18.678	301.056	81.011	187.594	294.970	43.384	229.902	0.00047306	0.00036928	0.00015619	1153.2	3.46e-06	2.4443e-06	1231.1	241.44	5.1009e-06	3.3255e-06	299.54	83.93	65.552	18.971	2.1384e-06	26.73	0.00027245	0.00022294	6.5596e-05	1139.6	2.7451e-06	2.5219e-06	1217.5	239.52	2.6451e-06	2.4486e-06	299.06	84.032	65.602	19.084	2.3834e-06	27.155	48.726	88.199	95.385	21.317	177.506	138.347	21.297	28.504	121.806	180.268	28.170	34.689	35.031	41.926	139.522	41.177	-8191	255	
6933.493	1	1	0	0	0.13105	0.069954	0.24292	0.3122	0.29764	0.17155	0.21364	0.32	0.14238	0.16771	0.20108	0.064673	0.13596	0.16935	0.093101	0.14248	-4.7479	-4.9104	-4.4417	-5.2083	-4.575	-4.4833	-5.225	-4.6396	-4.7021	-4.9146	-4.4354	-5.1375	-4.9833	-4.5458	-5.2667	-4.8396	27.736	351.082	153.257	329.324	144.370	45.122	325.869	294.416	251.905	27.718	38.418	321.318	297.458	283.176	327.201	91.863	0.00049915	0.00038834	9.4311e-05	1155	3.8637e-06	4.487e-06	1231.5	240.39	6.4181e-06	2.476e-06	299.85	83.877	65.68	18.785	4.0975e-06	26.618	0.0002689	0.00022294	6.2282e-05	1141.2	2.6285e-06	2.3868e-06	1217.4	239.42	2.6772e-06	2.4113e-06	299.09	83.936	65.697	19.044	2.2805e-06	27.074	51.186	120.202	91.617	21.177	166.468	186.118	21.477	28.548	173.542	162.968	28.222	35.199	34.841	41.796	185.837	41.411	-8191	255	
6933.589	1	1	0	0	0.23709	0.063583	0.054964	0.11981	0.12998	0.12771	0.31255	0.32007	0.062942	0.15641	0.19268	0.1503	0.045527	0.019532	0.1381	0.19346	-4.3771	-5.0479	-4.4	-5.1583	-5.05	-4.525	-5.1771	-4.6667	-4.8208	-5.1125	-4.6312	-5.1896	-4.9458	-4.4688	-5.0938	-4.7229	271.282	81.141	262.043	272.879	221.127	54.978	288.155	326.915	322.930	116.680	312.844	14.679	94.582	327.013	187.802	349.740	0.00047814	0.00044523	7.2063e-05	1151.8	3.9993e-06	3.5967e-06	1228.2	239.87	4.6839e-06	2.9366e-06	298.57	83.612	65.146	18.851	4.3456e-06	26.528	0.00026095	0.00021213	6.1813e-05	1138.4	2.5345e-06	2.4323e-06	1212.9	238.71	2.611e-06	2.3352e-06	298.78	84.057	65.453	19.031	2.3674e-06	27.073	53.867	97.808	109.997	21.000	121.292	142.072	21.335	28.614	176.268	160.286	28.194	35.006	34.828	41.877	168.878	41.466	-8191	255	
6933.685	1	1	0	0	0.083644	0.097318	0.22407	0.061104	0.15955	0.053889	0.18255	0.20306	0.086816	0.09699	0.12798	0.1894	0.27636	0.25286	0.17704	0.079143	-4.3	-5.1312	-4.5417	-5.1062	-5.0292	-4.5375	-5.2854	-4.8542	-4.3875	-5.1208	-4.6917	-5.0208	-5.0646	-4.4792	-4.9563	-4.85	206.038	341.536	163.658	31.112	66.526	339.773	305.452	48.683	286.334	273.919	270.258	335.970	345.713	343.156	191.050	187.111	0.00049901	0.0003094	7.8742e-05	1151.3	3.4407e-06	2.4743e-06	1226	239.53	5.6253e-06	2.9251e-06	299.26	83.649	65.334	18.759	3.903e-06	26.626	0.0002569	0.00021025	5.8618e-05	1135.3	2.6784e-06	2.489e-06	1210.3	238.4	2.5547e-06	2.3094e-06	297.92	83.714	65.43	19.032	2.3584e-06	27.005	53.852	112.438	111.885	21.275	160.449	114.242	21.549	28.543	171.345	175.621	28.038	34.912	34.995	41.786	160.458	41.263	-8191	255	
6933.782	1	1	0	0	0.21115	0.077968	0.12418	0.38046	0.14033	0.20807	0.20842	0.093123	0.20276	0.04664	0.20996	0.093188	0.043445	0.0084012	0.059685	0.24168	-4.2396	-5.1479	-4.6813	-4.9563	-4.9104	-4.5646	-5.1833	-4.8104	-4.6271	-4.9563	-4.7125	-4.7896	-5.0687	-4.6375	-4.9083	-4.7438	208.215	350.816	173.955	343.333	99.380	22.711	272.927	79.415	193.766	340.417	308.711	16.800	361.382	226.104	96.598	35.139	0.00043479	0.00027836	4.1432e-05	1150.7	4.137e-06	1.9529e-06	1226.3	238.51	2.4478e-06	4.9049e-06	297.86	83.942	65.622	18.827	3.1202e-06	26.674	0.00026319	0.000214	6.4146e-05	1136.2	2.5782e-06	2.5318e-06	1212.2	238.12	2.7304e-06	2.2012e-06	297.87	83.791	65.37	18.97	2.4207e-06	27.026	55.374	114.602	110.762	21.195	178.759	77.961	21.291	28.537	165.101	164.631	28.114	34.876	35.028	41.885	165.462	41.356	-8191	255	
6933.878	1	1	0	0	0.15497	0.24589	0.3584	0.15242	0.17905	0.050961	0.17918	0.24493	0.17141	0.10665	0.30258	0.18378	0.1251	0.22869	0.20138	0.17202	-3.9771	-5.1521	-4.6687	-4.7625	-5.2083	-4.5479	-4.9979	-5.0229	-4.5458	-5.1854	-4.6729	-4.7417	-5.0875	-4.6104	-4.7521	-4.8479	71.506	106.429	143.580	344.133	350.847	126.745	334.826	46.639	318.421	263.744	343.409	27.794	176.276	276.381	345.180	131.411	0.00040964	0.00033999	4.135e-05	1149.3	4.6145e-06	1.4195e-06	1229.7	239.37	6.4823e-06	4.1354e-06	299.4	83.856	65.56	18.82	2.4608e-06	26.66	0.00025491	0.0002163	6.2282e-05	1135.8	2.5809e-06	2.4768e-06	1212.4	238.2	2.6087e-06	2.2772e-06	298.43	83.906	65.597	19.074	2.4252e-06	27.05	58.991	82.985	110.125	21.350	142.372	172.300	21.013	28.213	171.050	167.217	28.323	34.749	35.406	41.348	179.273	41.397	-8191	255	
6933.998	1	1	0	0	0.14457	0.11549	0.20071	0.23363	0.12008	0.042767	0.12808	0.21434	0.11255	0.10889	0.10473	0.055179	0.19353	0.13939	0.098698	0.1347	-4.0188	-4.9125	-4.6167	-4.7312	-4.9729	-4.5292	-5.0667	-5.0833	-4.4625	-4.8417	-4.7188	-4.7167	-5.3167	-4.5521	-4.8958	-5.2271	161.292	286.918	55.894	329.355	108.152	122.821	365.681	13.924	296.672	192.869	330.061	365.258	117.606	286.883	27.762	149.521	0.0004424	0.00031924	9.9013e-05	1155.9	2.7994e-06	3.4266e-06	1231.2	239.13	6.5473e-06	3.49e-06	298.63	83.885	65.035	18.746	5.0828e-06	26.577	0.00026567	0.00023266	6.2925e-05	1139.8	2.6519e-06	2.5756e-06	1214	238.22	2.8329e-06	2.4955e-06	297.89	83.859	65.335	18.966	2.3502e-06	27.025	47.701	106.653	108.569	21.378	142.538	181.818	21.281	28.684	155.930	144.990	28.147	34.729	35.015	41.569	158.193	41.567	-8191	255	
6934.094	1	1	0	0	0.11077	0.14002	0.13888	0.18119	0.074637	0.11185	0.38798	0.065793	0.080819	0.12771	0.1432	0.041388	0.21048	0.058855	0.20091	0.12829	-4.1604	-4.7771	-4.7438	-4.4979	-4.975	-4.4583	-4.9	-5.2125	-4.5375	-5.1042	-4.9271	-4.5625	-4.9792	-4.7708	-4.725	-5.1833	135.630	343.237	101.939	276.915	133.246	178.031	297.241	44.340	212.780	349.318	328.946	215.068	346.104	57.542	162.358	333.227	0.00048743	0.00025604	5.4036e-05	1154.6	4.3264e-06	2.7894e-06	1227.6	239.43	4.3746e-06	3.5876e-06	299.65	83.392	65.23	18.733	2.2351e-06	26.655	0.00026412	0.00022267	6.3612e-05	1137.4	2.7076e-06	2.6132e-06	1212.9	238.09	2.6525e-06	2.3945e-06	298.2	83.528	65.298	18.95	2.5646e-06	26.997	50.729	89.237	110.114	21.310	144.168	165.669	21.453	28.347	157.133	154.206	28.096	34.493	34.545	42.125	135.481	41.613	-8191	255	
6934.191	1	1	0	0	0.1612	0.16521	0.15251	0.10735	0.19171	0.04091	0.22187	0.26596	0.018	0.13411	0.031951	0.11607	0.34682	0.2053	0.22534	0.27325	-4.4563	-4.9792	-4.9521	-4.5229	-4.8812	-4.7167	-4.8833	-5.2438	-4.6937	-4.8583	-4.8833	-4.4583	-5.1104	-4.9292	-4.5854	-5.1083	53.513	186.606	293.144	358.677	258.858	206.978	261.077	302.883	200.560	230.647	20.675	362.080	362.678	364.972	26.424	309.004	0.0004982	0.00019556	9.4425e-05	1152.9	4.3645e-06	1.8509e-06	1227.5	239.86	4.7749e-06	3.1232e-06	300.37	83.596	65.4	18.725	2.3343e-06	26.538	0.00027521	0.00021993	6.0515e-05	1137.3	2.7166e-06	2.6301e-06	1213	238.41	2.7547e-06	2.5234e-06	298.93	83.61	65.572	18.939	2.6848e-06	27.034	52.075	119.500	129.812	21.236	171.630	155.545	21.346	28.329	162.020	160.426	28.523	35.038	35.446	41.513	168.179	41.432	-8191	255	
6934.287	1	1	0	0	0.10635	0.085129	0.091297	0.17142	0.03128	0.013564	0.094001	0.089274	0.29751	0.082424	0.16994	0.058115	0.10059	0.077467	0.052292	0.10803	-4.1479	-4.7	-4.9812	-4.6937	-4.9062	-4.8187	-4.8063	-5.1417	-4.6833	-4.9854	-5.2979	-4.5646	-5.025	-4.8042	-4.3875	-4.8917	221.167	297.032	124.139	349.026	161.651	113.416	308.725	366.599	363.650	196.923	194.988	266.150	162.297	116.134	264.527	27.641	0.00040171	0.00039446	9.7295e-05	1153.7	2.1036e-06	3.8019e-06	1226.8	240.13	5.8767e-06	2.5914e-06	300.17	83.252	65.826	18.763	2.1587e-06	26.596	0.00025873	0.00023203	6.3797e-05	1139.6	2.726e-06	2.5344e-06	1213.4	238.53	2.6823e-06	2.4276e-06	298.34	83.66	65.637	18.989	2.6721e-06	26.996	44.888	102.749	122.328	21.183	141.740	179.528	21.303	28.421	171.079	198.805	28.228	34.952	35.462	42.036	188.296	41.617	-8191	255	
6934.381	1	1	0	0	0.10157	0.19055	0.1561	0.39048	0.071732	0.013229	0.26692	0.15305	0.1313	0.026162	0.10538	0.18538	0.19795	0.042648	0.17976	0.28684	-4.2583	-4.7042	-4.85	-4.5875	-4.9979	-4.9437	-4.5917	-5.1521	-4.625	-4.5458	-5.1042	-4.6708	-5.1292	-4.9708	-4.35	-5.0021	239.755	370.665	183.107	328.384	36.078	12.926	367.999	317.045	281.309	320.322	219.145	296.734	326.769	96.847	304.870	309.805	0.00044875	0.00033342	8.6515e-05	1148.3	3.0727e-06	3.2653e-06	1226.3	238.82	4.3689e-06	3.6321e-06	300.63	82.878	65.609	18.767	1.8713e-06	26.652	0.00026772	0.00024133	6.238e-05	1136.5	2.6207e-06	2.5015e-06	1211.7	237.92	2.6772e-06	2.407e-06	298.22	83.512	65.528	18.982	2.6528e-06	27.006	51.554	101.141	82.002	21.257	186.373	165.221	21.351	28.670	166.995	169.091	28.091	34.865	35.271	42.017	173.487	41.512	-8191	255	
6934.477	1	1	0	0	0.095848	0.10204	0.14509	0.10648	0.1831	0.05575	0.23786	0.03882	0.053569	0.029579	0.077782	0.19309	0.19993	0.042561	0.23975	0.067438	-4.4625	-4.6438	-5.1167	-4.8083	-4.9229	-5.125	-4.7583	-5.0563	-4.7208	-4.4625	-4.9229	-4.5417	-4.7688	-5.0771	-4.5917	-5.1729	208.262	293.888	197.014	329.290	194.234	110.092	276.284	300.135	209.054	344.787	291.478	334.873	211.479	311.263	326.317	342.750	0.00042876	0.00032744	0.0001105	1150.5	4.3507e-06	3.5242e-06	1227.4	239.41	4.233e-06	1.9974e-06	298.68	83.782	65.645	18.794	3.5129e-06	26.726	0.00026327	0.00022669	6.0373e-05	1135.6	2.8098e-06	2.3539e-06	1212.4	238.38	2.6008e-06	2.5101e-06	298.33	83.705	65.493	18.987	2.5035e-06	27.084	54.437	103.742	121.039	21.379	172.870	162.660	21.293	28.344	136.054	146.713	28.212	35.026	35.111	41.570	154.381	41.412	-8191	255	
6934.598	1	1	0	0	0.12848	0.18125	0.10383	0.39512	0.24937	0.25232	0.091396	0.10599	0.16317	0.095466	0.043638	0.14437	0.17299	0.23047	0.16789	0.10097	-4.7021	-4.7396	-5.2229	-4.825	-4.6854	-4.9521	-4.6646	-5.1438	-4.8812	-4.4563	-5.2042	-4.825	-4.6917	-5.1125	-4.5042	-5.0271	241.074	369.742	339.564	359.514	73.523	335.132	283.358	347.344	83.612	83.852	155.206	334.917	369.470	355.785	134.809	232.558	0.00043186	0.00029552	7.1389e-05	1152.9	5.2885e-06	3.6478e-06	1225.2	240.4	6.6149e-06	2.2478e-06	301.21	83.217	65.806	18.814	4.2184e-06	26.541	0.00025794	0.00023621	6.0319e-05	1135.7	2.7026e-06	2.3626e-06	1212.2	238.65	2.5237e-06	2.5311e-06	298.4	83.542	65.573	18.977	2.6233e-06	27.017	57.404	124.347	107.022	21.234	166.989	171.894	21.409	28.586	167.214	177.798	28.355	35.220	35.305	41.789	182.187	41.207	-8191	255	
6934.694	1	1	0	0	0.14113	0.11457	0.058224	0.35064	0.13436	0.1507	0.11287	0.39017	0.081133	0.02642	0.05954	0.18331	0.11641	0.10586	0.0035804	0.099891	-4.525	-4.3792	-5.0896	-4.7792	-4.6958	-5.2229	-4.7917	-5.0292	-4.9896	-4.4083	-5.1937	-4.8792	-4.6833	-5.3104	-4.5958	-4.9958	311.171	263.058	149.554	360.807	293.599	132.157	177.878	324.349	158.544	273.762	93.055	67.860	73.555	264.521	323.955	64.576	0.00050461	0.00035902	9.9955e-05	1153.3	4.1008e-06	2.2696e-06	1224.3	239.49	3.8926e-06	3.1722e-06	299.75	82.87	65.753	18.697	4.0257e-06	26.534	0.00025857	0.00022774	5.804e-05	1137	2.8176e-06	2.382e-06	1211	238.12	2.4701e-06	2.4843e-06	298.36	83.32	65.524	18.911	2.5261e-06	26.981	51.088	85.023	84.847	21.159	161.273	172.340	21.304	28.307	154.157	183.941	28.196	34.542	35.259	41.817	175.395	41.477	-8191	255	
6934.790	1	1	0	0	0.14633	0.097994	0.067965	0.051191	0.13146	0.20783	0.10146	0.14103	0.27919	0.19062	0.29285	0.27314	0.21969	0.060235	0.012723	0.18848	-4.6896	-4.6521	-5.0771	-4.9875	-4.5687	-5.0167	-4.5792	-4.9458	-5.0312	-4.5083	-5.2375	-5.0271	-4.6146	-5.0375	-4.4771	-4.7229	341.222	98.827	115.823	45.546	45.367	268.903	266.250	315.841	301.222	14.009	327.612	329.275	327.527	55.195	81.366	227.176	0.00046507	0.00032287	0.00012578	1147.1	3.6005e-06	3.0289e-06	1227.2	240.09	5.1e-06	3.2747e-06	299.11	83.298	65.869	18.706	2.2848e-06	26.508	0.00025458	0.0002293	6.1704e-05	1133.9	2.7622e-06	2.3803e-06	1210.5	238.53	2.4987e-06	2.5199e-06	297.97	83.578	65.459	18.939	2.5003e-06	26.937	46.658	79.246	103.083	21.250	145.844	140.803	21.529	28.410	149.227	143.291	28.048	34.879	35.161	42.096	166.115	41.472	-8191	255	
6934.862	1	1	0	0	0.2101	0.29183	0.31412	0.27845	0.20553	0.17626	0.12234	0.13512	0.20144	0.088954	0.16812	0.19488	0.04909	0.080088	0.18783	0.2094	-4.875	-4.5062	-4.9458	-4.9667	-4.3438	-5	-4.6771	-4.7	-5.0021	-4.5729	-5.0687	-5.0646	-4.5854	-5.1521	-4.5708	-4.6833	329.246	229.332	149.892	337.992	146.225	178.994	205.630	69.804	96.649	59.853	220.423	101.267	152.443	227.895	50.736	370.169	0.00045551	0.00028064	9.8069e-05	1151.1	3.9478e-06	3.4932e-06	1222.3	239.27	3.4739e-06	2.7636e-06	298.91	83.471	65.476	18.643	2.8351e-06	26.576	0.00026185	0.00023594	5.9621e-05	1134.9	2.742e-06	2.3708e-06	1209.2	238.04	2.5355e-06	2.4585e-06	297.9	83.755	65.433	18.933	2.6426e-06	26.97	52.246	105.954	90.942	21.225	157.369	174.712	21.392	28.633	137.782	132.166	28.010	34.963	35.066	41.346	172.278	41.544	-8191	255	
6934.958	1	1	0	0	0.038133	0.15089	0.11165	0.4492	0.032843	0.062127	0.19954	0.11969	0.18809	0.2002	0.23625	0.18163	0.15701	0.063062	0.03686	0.19069	-4.8646	-4.6417	-4.875	-5.1188	-4.3354	-4.9958	-4.9167	-4.6271	-5.0312	-4.4854	-4.9167	-5.0708	-4.5458	-4.9958	-4.8	-4.4625	306.355	119.616	177.093	332.830	126.288	180.364	337.000	344.694	67.864	66.471	298.072	16.415	195.400	26.631	350.038	322.827	0.00045539	0.0003299	5.2045e-05	1148.4	4.1789e-06	2.2645e-06	1222.8	238.92	4.6858e-06	1.4942e-06	298.33	83.325	65.819	18.745	4.1783e-06	26.785	0.00025179	0.00024051	6.2293e-05	1133.9	2.7166e-06	2.5712e-06	1210.1	238.04	2.3938e-06	2.5049e-06	297.8	83.531	65.636	18.94	2.4691e-06	27.022	54.658	87.616	113.410	21.292	143.813	147.604	21.473	28.427	155.168	179.113	28.263	35.038	35.424	41.861	176.018	41.686	-8191	255	
6935.079	1	1	0	0	0.035299	0.19775	0.069294	0.0045231	0.081436	0.27958	0.2171	0.27056	0.13535	0.11438	0.1278	0.012665	0.27986	0.081925	0.22767	0.018462	-4.7083	-4.7458	-4.7625	-5.1479	-4.4	-5.0021	-5.0583	-4.6583	-5.1083	-4.55	-4.725	-5.0333	-4.5354	-5.1333	-4.9354	-4.5125	209.475	12.187	166.071	28.960	320.092	203.026	320.712	354.623	343.967	139.093	22.909	86.170	33.221	13.989	233.265	283.046	0.00045253	0.00035117	9.0365e-05	1151.5	5.3049e-06	2.2594e-06	1227.6	239.31	6.5242e-06	3.1783e-06	300.48	83.023	65.997	18.698	4.1039e-06	26.62	0.00026313	0.00022809	6.7417e-05	1135.7	2.8059e-06	2.3219e-06	1209.3	238.11	2.6298e-06	2.4929e-06	298.48	83.555	65.515	18.979	2.4859e-06	27.04	53.687	76.561	101.254	21.285	168.488	178.479	21.330	28.480	157.425	186.432	28.066	34.839	34.948	41.909	174.916	41.405	-8191	255	
6935.175	1	1	0	0	0.14699	0.1454	0.22976	0.36333	0.22164	0.053175	0.19839	0.09054	0.1667	0.14094	0.21597	0.2181	0.045543	0.15033	0.15175	0.1707	-4.6896	-4.575	-4.5042	-5.175	-4.4187	-4.8229	-5.1396	-4.5125	-5.0917	-4.8542	-4.8417	-5.3292	-4.8313	-5.0229	-5.1292	-4.6667	102.155	64.238	318.477	347.719	339.871	256.611	344.359	285.858	307.943	80.970	290.230	368.280	300.214	341.896	243.617	103.097	0.0004258	0.0003016	9.8591e-05	1153.3	4.7861e-06	2.7955e-06	1222.8	238.76	1.8005e-06	2.3137e-06	297.79	82.893	65.29	18.702	4.7355e-06	26.468	0.00026865	0.00023855	6.2369e-05	1135.5	2.8375e-06	2.3907e-06	1210.9	238.09	2.5308e-06	2.4723e-06	298.11	83.489	65.431	18.987	2.4941e-06	26.972	49.042	104.397	116.083	21.323	193.237	159.271	21.194	28.515	156.597	106.264	27.966	34.500	35.369	41.807	157.379	41.619	-8191	255	
6935.271	1	1	0	0	0.09958	0.13236	0.23701	0.11153	0.0614	0.09495	0.24986	0.27705	0.1582	0.17003	0.16592	0.11166	0.22269	0.2271	0.11014	0.17989	-4.7396	-4.6792	-4.5542	-5.3271	-4.4792	-4.8021	-4.9896	-4.4979	-4.8521	-4.5771	-4.6896	-5.1917	-4.6833	-4.9333	-5.0083	-4.5	318.451	58.280	68.392	356.854	275.215	340.450	314.011	348.308	211.555	343.865	47.184	199.660	353.441	25.333	151.456	73.699	0.00044402	0.00035553	7.2579e-05	1150	4.2639e-06	3.5321e-06	1225.2	239.7	6.2571e-06	2.9225e-06	299.94	83.902	65.78	18.722	4.1557e-06	26.633	0.00026636	0.00022493	6.8737e-05	1136.9	2.8792e-06	2.6111e-06	1211.1	238.42	2.4404e-06	2.4697e-06	298.48	83.862	65.563	18.982	2.5093e-06	27.018	49.436	75.996	120.561	21.267	181.641	169.118	21.369	28.721	169.708	159.213	27.955	35.205	35.383	41.837	162.765	41.060	-8191	255	
6935.390	1	1	0	0	0.14134	0.29883	0.12506	0.16152	0.074727	0.02011	0.20051	0.35974	0.14112	0.25528	0.21312	0.15641	0.18117	0.091467	0.08913	0.27709	-4.5208	-4.6979	-4.2812	-5.0938	-4.4917	-4.525	-4.9792	-4.5625	-4.7167	-4.9042	-4.5896	-5.1604	-4.7312	-4.6167	-5.0479	-4.4542	46.400	148.884	176.769	316.356	93.216	153.129	319.350	335.908	308.495	319.206	264.354	281.011	316.463	60.952	121.690	177.600	0.00046745	0.00032024	0.00011628	1148.5	4.6538e-06	3.0368e-06	1227.5	239.79	7.3469e-06	2.3733e-06	299.08	83.884	65.676	18.811	2.1562e-06	26.563	0.00026671	0.00023469	6.5389e-05	1136.1	2.7911e-06	2.4552e-06	1212.3	238.37	2.6055e-06	2.3855e-06	298.41	83.609	65.67	18.998	2.353e-06	27.016	49.264	85.368	87.872	21.262	169.406	145.956	21.295	28.454	173.302	148.721	28.064	35.001	35.470	41.926	182.511	41.026	-8191	255	
6935.462	1	1	0	0	0.16269	0.045768	0.20054	0.076041	0.109	0.12702	0.14342	0.060588	0.17524	0.12841	0.23708	0.23705	0.12819	0.086392	0.19875	0.069422	-4.5354	-4.9667	-4.3729	-5.0813	-4.6083	-4.6062	-5.2229	-4.575	-4.8083	-4.8021	-4.7667	-5.0208	-4.9729	-4.6917	-5.0687	-4.7667	202.451	74.783	304.244	302.073	166.869	279.969	331.608	327.274	362.420	60.753	339.287	357.626	350.575	238.875	129.619	323.817	0.000448	0.00052296	0.00010243	1152.1	3.0958e-06	3.027e-06	1226.3	238.74	4.7515e-06	3.4033e-06	297.88	83.135	65.193	18.758	3.3699e-06	26.481	0.00026901	0.00023196	6.6349e-05	1135.6	2.8765e-06	2.6171e-06	1211.4	238.46	2.7061e-06	2.5376e-06	297.6	83.628	65.302	19.011	2.4535e-06	27.016	46.862	96.633	102.292	21.347	177.974	156.256	21.308	28.342	169.031	162.255	28.444	34.857	35.356	41.869	166.541	41.395	-8191	255	
6935.558	1	1	0	0	0.16675	0.067052	0.14087	0.16794	0.091683	0.24564	0.14287	0.18263	0.18351	0.2292	0.13215	0.097641	0.15851	0.31894	0.14907	0.2078	-4.4979	-5.0021	-4.4812	-4.9437	-4.8146	-4.5896	-5.3979	-4.8875	-4.8479	-5.225	-4.6167	-4.8646	-4.8146	-4.5125	-5.1229	-4.8646	223.673	118.633	289.253	300.036	29.508	184.702	231.544	89.759	21.917	46.869	71.217	274.273	75.947	362.703	140.762	331.292	0.00041961	0.00033707	6.1034e-05	1152.4	3.402e-06	1.7363e-06	1229.5	238.93	4.814e-06	2.4957e-06	300.3	83.92	65.528	18.546	3.1297e-06	26.552	0.00025835	0.00022704	6.588e-05	1135.7	2.724e-06	2.4474e-06	1211.4	238.34	2.5922e-06	2.2948e-06	298.7	83.649	65.503	18.93	2.4322e-06	26.99	56.822	91.356	102.664	21.424	152.768	151.554	21.368	28.263	173.830	165.709	27.831	34.660	34.618	41.770	156.632	41.666	-8191	255	
6935.678	1	1	0	0	0.14184	0.13331	0.29693	0.14132	0.14888	0.22825	0.15253	0.11003	0.17309	0.11516	0.26716	0.21947	0.14433	0.1228	0.083557	0.032845	-4.5542	-5.2063	-4.4375	-4.9563	-4.9	-4.5333	-5.2812	-4.8583	-4.8354	-5.0167	-4.5854	-4.8792	-5.0146	-4.2937	-4.9083	-4.7417	57.397	140.411	14.557	254.206	269.959	284.793	256.075	155.528	182.024	291.545	11.211	17.980	178.795	27.229	324.262	193.788	0.00045836	0.00036435	5.9116e-05	1149.6	4.1513e-06	4.6485e-06	1226.3	239.93	3.0812e-06	2.306e-06	299.58	83.622	65.508	18.718	5.0547e-06	26.641	0.00027057	0.00021997	6.4059e-05	1134.4	2.6854e-06	2.5344e-06	1210.8	238.74	2.521e-06	2.3627e-06	298.1	83.785	65.31	18.944	2.4318e-06	27.02	53.850	132.142	88.686	21.067	182.597	182.832	21.287	28.599	179.908	184.323	28.032	34.931	34.950	42.086	161.854	41.061	-8191	255	
6935.774	1	1	0	0	0.13764	0.22945	0.038297	0.19625	0.1875	0.25295	0.12112	0.046867	0.064582	0.17306	0.066102	0.10268	0.16311	0.098649	0.064937	0.10235	-4.2583	-5.2792	-4.6771	-4.9062	-5.0604	-4.5687	-5.1667	-4.8479	-4.4833	-5.1167	-4.8146	-4.8667	-5.1833	-4.6458	-4.9729	-4.875	32.522	320.619	78.006	346.769	77.743	120.792	261.340	312.116	107.178	77.332	261.931	322.109	112.816	80.037	253.104	311.412	0.00045397	0.00037962	0.00010313	1149.4	4.7413e-06	3.7464e-06	1225.3	239	7.8257e-06	4.3855e-06	300.54	83.811	65.237	18.658	2.3728e-06	26.691	0.00027507	0.00021619	6.4691e-05	1134.4	2.7989e-06	2.5851e-06	1209.7	237.76	2.7269e-06	2.4254e-06	298.94	83.675	65.36	18.945	2.3694e-06	27.076	48.223	86.231	145.579	21.430	184.645	159.012	21.310	28.613	168.017	153.355	28.088	35.101	35.018	41.999	170.129	41.097	-8191	255	
6935.871	1	1	0	0	0.032622	0.14157	0.20679	0.16316	0.017659	0.49042	0.091509	0.13844	0.25846	0.085963	0.22747	0.32157	0.058408	0.2579	0.12436	0.19689	-4.175	-5.0333	-4.3438	-4.775	-5.0771	-4.6771	-5.0229	-4.9729	-4.2521	-4.9854	-4.6854	-4.4542	-5	-4.4688	-5.1229	-4.9688	238.017	26.921	177.316	366.930	332.111	80.304	288.580	53.247	267.519	115.826	31.293	360.671	54.630	116.564	308.648	75.985	0.00045863	0.00034576	7.964e-05	1149.4	5.1459e-06	4.1573e-06	1224.8	240.04	5.121e-06	4.5524e-06	299.09	83.149	65.06	18.749	2.9864e-06	26.612	0.00027286	0.00022868	6.6959e-05	1132.8	2.742e-06	2.5955e-06	1208.8	238.56	2.7539e-06	2.3666e-06	298.25	83.657	65.431	18.984	2.4834e-06	26.96	51.797	104.165	132.850	21.286	177.682	167.352	21.542	28.608	166.668	173.497	27.965	34.646	35.332	41.833	164.020	41.350	-8191	255	
6935.991	1	1	0	0	0.087683	0.087692	0.11318	0.07996	0.19567	0.11172	0.13315	0.36064	0.17347	0.14168	0.13945	0.10458	0.072316	0.17776	0.1296	0.14932	-4.1729	-4.9896	-4.6854	-4.7542	-5.1312	-4.7583	-4.9042	-4.9542	-4.4458	-5.0042	-4.9375	-4.7063	-5.1188	-4.5979	-4.8833	-5.0604	22.181	243.158	183.457	213.069	22.926	63.316	322.963	289.953	269.009	177.535	344.718	248.000	37.996	39.444	114.357	338.786	0.00045428	0.00034636	6.6778e-05	1147.3	3.9987e-06	1.6108e-06	1227.8	239.76	5.2751e-06	1.9419e-06	300.78	83.799	65.731	18.668	2.8528e-06	26.605	0.00027073	0.00022571	6.2314e-05	1134.6	2.6874e-06	2.4569e-06	1209.6	238.53	2.6826e-06	2.4418e-06	298.68	83.668	65.547	18.967	2.4244e-06	27.029	51.998	118.056	99.887	21.180	129.046	152.219	21.324	28.401	160.695	171.465	28.330	34.795	35.031	41.422	173.589	41.321	-8191	255	
6936.087	1	1	0	0	0.025098	0.054176	0.31561	0.34051	0.036256	0.1287	0.094506	0.10217	0.029679	0.046724	0.2611	0.12459	0.084059	0.057781	0.14601	0.071423	-4.125	-4.9104	-4.9375	-4.7812	-5.2667	-4.6479	-4.8021	-5.0813	-4.4604	-4.975	-5.0021	-4.4938	-5.2562	-4.7896	-4.7562	-5.2562	41.813	340.409	343.953	317.323	263.106	235.207	312.463	39.093	129.575	328.987	194.844	238.854	183.251	304.875	137.649	321.659	0.00045856	0.00024714	0.00010939	1154.2	4.7506e-06	3.9938e-06	1225.5	240	4.7355e-06	2.3171e-06	298.42	83.751	65.631	18.778	4.0869e-06	26.688	0.00026423	0.00022997	6.48e-05	1136.1	2.5685e-06	2.4318e-06	1208.3	238.55	2.696e-06	2.4216e-06	298.43	83.85	65.519	19.031	2.5437e-06	27	52.298	81.355	97.025	21.325	156.593	135.543	21.171	28.395	187.465	191.081	27.963	35.014	35.362	41.776	174.786	41.421	-8191	255	
6936.159	1	1	0	0	0.15996	0.27834	0.081812	0.11836	0.16436	0.17265	0.13175	0.18354	0.1097	0.16086	0.12437	0.12743	0.12668	0.26066	0.10275	0.032145	-4.2562	-5.075	-5.1958	-4.7854	-5.125	-4.5354	-4.6729	-5.0625	-4.6083	-4.8917	-5	-4.6292	-5.1708	-4.6458	-4.5667	-5.0229	98.157	178.471	218.161	225.368	354.958	28.476	337.279	37.595	283.495	109.445	163.567	342.913	295.454	245.580	124.633	260.649	0.00042778	0.00031447	4.9474e-05	1144.7	3.8754e-06	2.6153e-06	1224.8	239.71	3.7681e-06	2.2663e-06	300.94	83.833	65.539	18.725	4.399e-06	26.675	0.00027021	0.00023613	6.1922e-05	1135.2	2.7115e-06	2.408e-06	1209.9	238.45	2.5797e-06	2.4731e-06	299	83.862	65.526	19.032	2.4896e-06	27.045	53.127	127.686	93.918	21.367	173.351	182.503	21.229	28.538	159.701	168.440	27.977	35.029	34.736	41.796	146.584	41.482	-8191	255	
6936.280	1	1	0	0	0.10628	0.28173	0.087681	0.39386	0.17273	0.17295	0.19081	0.27738	0.11982	0.34357	0.15982	0.18012	0.040427	0.17219	0.14206	0.18402	-4.2021	-5.0229	-4.8625	-4.5563	-5.0792	-4.8271	-4.7854	-5.2917	-4.5229	-4.7646	-5.0813	-4.5896	-4.8979	-4.7708	-4.3812	-5.2438	306.986	135.522	180.357	335.830	306.145	131.003	260.143	292.868	42.545	26.296	277.021	22.676	285.576	119.689	245.136	250.837	0.00049021	0.00053985	6.8646e-05	1152.2	5.1961e-06	2.6071e-06	1223.8	239.49	6.8666e-06	1.8913e-06	299.61	83.666	65.864	18.792	4.1527e-06	26.614	0.00026994	0.00021767	6.6022e-05	1135.4	2.8523e-06	2.4747e-06	1210.6	238.58	2.6564e-06	2.4787e-06	298.39	83.751	65.739	19.006	2.7463e-06	27.053	50.992	107.590	67.570	21.213	154.303	157.784	21.277	28.529	162.886	197.144	28.089	35.221	35.310	41.748	163.784	41.587	-8191	255	
6936.374	1	1	0	0	0.22133	0.06004	0.033697	0.17631	0.079028	0.13978	0.10389	0.14295	0.19238	0.1337	0.12582	0.10204	0.12166	0.20427	0.064425	0.056675	-4.5	-4.8458	-4.9437	-4.5729	-5.0542	-5.0146	-4.6271	-5.0771	-4.4229	-4.8833	-5.3104	-4.6208	-5.0292	-4.8729	-4.3833	-5.1104	69.408	224.486	350.519	355.961	187.331	118.710	34.032	276.936	212.151	45.722	34.889	316.375	331.534	310.535	326.984	148.293	0.00045523	0.00023126	0.00014167	1151	4.7237e-06	2.4932e-06	1222	238.88	5.2048e-06	5.0682e-06	300.28	83.736	65.804	18.603	2.4855e-06	26.583	0.00026603	0.00023996	6.3143e-05	1135.7	2.8897e-06	2.5175e-06	1209.5	238.4	2.8243e-06	2.5651e-06	299.16	83.944	65.81	19	2.7873e-06	27.048	57.624	102.525	89.287	21.051	188.333	134.844	21.220	28.682	191.218	170.262	27.970	34.978	35.056	41.572	160.643	41.049	-8191	255	
6936.470	1	1	0	0	0.056083	0.22259	0.081705	0.22572	0.10049	0.050023	0.17656	0.11483	0.066468	0.2297	0.090532	0.12416	0.19218	0.12743	0.2937	0.09836	-4.2104	-4.6813	-5.1125	-4.7917	-4.9458	-5.1312	-4.7854	-5.0938	-4.7625	-4.7917	-5.3542	-4.5333	-4.7104	-5.0062	-4.4458	-5.1708	269.086	332.908	28.730	360.423	36.651	78.804	356.718	229.166	318.975	36.252	366.183	345.716	322.783	327.363	332.836	10.616	0.00045663	0.00031089	2.6461e-05	1153.3	5.0241e-06	2.7283e-06	1230.7	241.05	5.355e-06	2.8141e-06	300.08	84.249	65.932	18.871	2.9483e-06	26.829	0.0002851	0.00025499	6.4408e-05	1140	2.7365e-06	2.5565e-06	1215.6	239.77	2.802e-06	2.5341e-06	299.52	83.956	65.903	19.128	2.7889e-06	27.17	48.100	87.015	125.887	21.210	160.783	167.102	21.378	28.320	162.694	155.643	28.102	34.810	35.118	41.254	171.452	41.614	-8191	255	
6936.566	1	1	0	0	0.29588	0.21774	0.11674	0.2064	0.033142	0.15462	0.17877	0.16398	0.20343	0.1578	0.11143	0.090803	0.18505	0.17086	0.11517	0.31185	-4.5229	-4.4833	-5.1562	-4.725	-4.8	-5.1146	-4.5583	-4.8229	-4.8333	-4.3875	-5.1333	-4.7479	-4.9208	-5.1396	-4.4875	-4.9917	133.641	176.719	207.447	267.182	269.482	277.836	302.708	347.485	192.005	329.866	117.836	176.876	268.977	342.367	291.165	324.611	0.00046963	0.00019154	9.4173e-05	1160.5	5.2095e-06	3.6858e-06	1231.6	241.07	4.5744e-06	4.0837e-06	301.49	83.977	66.524	18.729	5.1835e-06	26.905	0.00026436	0.00025542	6.3688e-05	1142.6	2.9006e-06	2.5526e-06	1217.2	239.86	2.7758e-06	2.7004e-06	299.65	84.169	66.158	19.029	2.7553e-06	27.168	49.394	91.999	112.670	21.080	180.440	167.530	21.255	28.687	157.203	153.990	28.038	34.703	34.866	41.811	161.812	41.184	-8191	255	
6936.687	1	1	0	0	0.09542	0.054793	0.068257	0.066896	0.079508	0.19416	0.21876	0.068148	0.14583	0.096504	0.064937	0.2223	0.047023	0.18512	0.11775	0.1548	-4.4125	-4.3208	-4.9104	-4.9125	-4.8229	-5.1958	-4.6917	-4.7958	-4.85	-4.4625	-5.2104	-4.8521	-4.6271	-4.9792	-4.6646	-5.0687	208.190	14.691	106.645	319.983	166.866	137.217	248.998	185.627	142.802	92.124	170.140	37.334	200.521	37.032	141.934	47.899	0.00046214	0.00030217	5.1627e-05	1157.6	6.5923e-06	2.1865e-06	1232.8	241.25	4.5498e-06	2.0758e-06	300.29	83.747	65.784	18.934	4.3488e-06	26.702	0.00027606	0.00024179	6.6043e-05	1140.9	2.9127e-06	2.5587e-06	1217.3	239.86	2.6607e-06	2.678e-06	300.15	84.011	65.912	19.104	2.6991e-06	27.189	50.275	91.959	75.500	21.198	158.092	167.947	21.584	28.293	174.872	197.156	28.106	34.920	34.946	41.816	157.764	41.040	-8191	255	
6936.759	1	1	0	0	0.19207	0.30433	0.052361	0.21634	0.20434	0.15466	0.14559	0.11326	0.20918	0.060033	0.088174	0.017269	0.13142	0.22548	0.25902	0.076676	-4.7042	-4.3479	-4.9354	-4.9125	-4.7688	-5.2104	-4.7604	-4.8938	-4.9375	-4.3562	-4.9833	-4.9042	-4.7333	-5.1458	-4.6458	-4.7667	14.230	124.379	206.668	247.495	243.347	212.989	289.917	334.428	41.509	312.986	161.296	141.773	113.761	40.955	119.566	194.974	0.00048238	0.00033565	9.6249e-05	1154.2	6.0739e-06	4.0824e-06	1229.9	241.31	7.7744e-06	3.3969e-06	300.96	84.06	65.858	18.85	3.1415e-06	26.632	0.00027412	0.0002594	6.5051e-05	1140	3.0737e-06	2.5885e-06	1215.8	239.58	2.7977e-06	2.6372e-06	299.74	84.142	65.893	19.131	2.5905e-06	27.12	58.185	105.861	110.108	21.079	171.039	190.642	21.362	28.635	149.984	168.429	28.275	34.907	35.265	41.712	124.993	41.223	-8191	255	
6936.855	1	1	0	0	0.068243	0.18066	0.047231	0.2722	0.021127	0.20183	0.15333	0.18493	0.11064	0.19518	0.10062	0.15493	0.17791	0.13052	0.07837	0.057031	-4.9	-4.575	-4.9437	-4.9771	-4.5333	-5.1375	-4.8167	-4.8979	-5.1083	-4.6562	-4.95	-4.8333	-4.4958	-5.1479	-4.8562	-4.5583	10.448	368.680	312.653	57.508	214.122	302.294	303.333	343.066	348.541	83.417	121.674	259.784	330.811	319.194	212.016	338.297	0.00045017	0.00032267	8.8703e-05	1158.3	4.8626e-06	5.8404e-06	1233.5	240.97	4.6222e-06	3.6039e-06	300.39	83.986	65.353	18.69	3.5998e-06	26.803	0.00027499	0.00024863	6.6022e-05	1141.2	2.9104e-06	2.6176e-06	1215.3	239.98	2.6036e-06	2.6909e-06	299.92	83.944	65.758	19.029	2.6114e-06	27.208	53.313	115.930	101.793	21.345	140.448	130.648	21.200	28.410	200.090	175.639	27.667	34.604	35.236	41.889	181.820	41.974	-8191	255	
6936.951	1	1	0	0	0.071625	0.11091	0.21427	0.22381	0.11087	0.19715	0.065812	0.15723	0.11604	0.16869	0.17152	0.054814	0.27404	0.22978	0.031776	0.17519	-4.8292	-4.7063	-4.8958	-5.125	-4.5333	-5.0792	-4.8208	-4.5896	-5.1771	-4.625	-4.7208	-5.0771	-4.4896	-5.0875	-4.6979	-4.5938	150.634	67.111	15.430	340.890	69.096	91.711	349.481	295.334	116.874	233.904	329.337	192.236	36.552	283.301	75.328	300.709	0.00045395	0.00041316	8.6585e-05	1153.4	3.8421e-06	4.0789e-06	1234	240.29	3.276e-06	4.7459e-06	300.33	84.218	65.754	18.872	3.2981e-06	26.813	0.00026955	0.00025835	6.5727e-05	1139.9	2.9938e-06	2.5301e-06	1217.9	239.53	2.8517e-06	2.7433e-06	299.42	84.063	65.782	19.039	2.5983e-06	27.126	52.244	90.581	78.887	21.308	173.857	182.919	21.347	28.537	164.930	152.558	27.944	34.785	35.213	41.446	143.697	41.854	-8191	255	
6937.072	1	1	0	0	0.023847	0.046452	0.18287	0.29536	0.044878	0.11126	0.16405	0.33621	0.15535	0.15151	0.099025	0.16533	0.13048	0.19762	0.15129	0.054466	-4.8125	-4.5417	-4.6229	-5.0979	-4.4854	-5.0667	-5.0354	-4.4833	-5.2	-4.4729	-4.7708	-4.9167	-4.4146	-4.8979	-4.6937	-4.55	169.273	146.748	209.070	14.019	271.312	167.854	240.071	338.741	58.261	140.816	350.888	87.995	198.091	322.339	165.534	290.272	0.00049434	0.00043245	8.8738e-05	1154.3	4.3919e-06	3.7919e-06	1228.5	241.32	7.3632e-06	2.2325e-06	300.07	83.581	65.825	18.847	3.0143e-06	26.77	0.0002751	0.00025148	7.0786e-05	1141.4	3.0542e-06	2.5756e-06	1216.4	239.86	2.6439e-06	2.489e-06	299.94	83.931	65.808	19.057	2.6626e-06	27.168	45.981	106.142	104.563	21.244	142.917	176.469	21.364	28.484	164.360	157.165	27.971	34.904	35.050	41.656	170.131	41.191	-8191	255	
6937.166	1	1	0	0	0.10622	0.16454	0.051643	0.18455	0.22357	0.068827	0.064056	0.17141	0.2134	0.13467	0.12083	0.21448	0.10257	0.065673	0.15731	0.13897	-4.7812	-4.7125	-4.7188	-5.2021	-4.3771	-4.9333	-5.1208	-4.5771	-5.1667	-4.725	-4.6625	-4.9875	-4.3667	-4.6521	-4.9271	-4.3938	355.479	232.444	226.919	320.003	102.301	20.764	240.276	324.086	221.311	15.742	13.175	212.540	166.422	218.062	207.159	234.876	0.00045455	0.00032468	0.00010774	1158.4	4.8047e-06	4.7957e-06	1228.5	241.51	4.8263e-06	3.2823e-06	300.58	83.423	66.068	18.818	4.392e-06	26.543	0.00027346	0.00024035	6.6599e-05	1142.9	2.8266e-06	2.5604e-06	1214.6	239.87	2.6306e-06	2.5479e-06	299.88	83.979	65.923	19.01	2.6544e-06	27.002	56.039	85.507	120.381	21.193	160.473	173.752	21.316	28.702	181.664	150.775	28.089	34.824	35.538	41.809	144.593	41.422	-8191	255	
6937.262	1	1	0	0	0.029707	0.14897	0.10687	0.058667	0.11863	0.13901	0.15607	0.25323	0.064056	0.098437	0.15307	0.052961	0.28314	0.16247	0.17301	0.20867	-4.7812	-4.5604	-4.6625	-5.2479	-4.6312	-4.6854	-5.0396	-4.5687	-5.0437	-4.8833	-4.4979	-5.1542	-4.6896	-5.0271	-5.0646	-4.4854	86.578	369.938	219.657	345.129	342.295	97.290	287.664	295.019	279.583	173.610	151.349	271.099	337.037	140.126	13.444	339.801	0.00046526	0.00016097	0.00010413	1154	4.3068e-06	2.7236e-06	1230.5	241.25	4.452e-06	3.0442e-06	301.74	83.566	65.745	18.745	3.4558e-06	26.932	0.00027532	0.00023055	6.8115e-05	1140.5	2.9548e-06	2.6548e-06	1213.5	239.69	2.7637e-06	2.6226e-06	300.26	83.837	65.907	19.015	2.5064e-06	27.14	46.746	98.318	111.596	21.215	181.374	176.646	21.529	28.474	176.652	165.881	28.074	34.736	35.088	41.676	143.399	41.205	-8191	255	
6937.360	1	1	0	0	0.16271	0.19562	0.1418	0.16536	0.1646	0.048374	0.049373	0.16211	0.05236	0.084619	0.17699	0.17922	0.098961	0.092315	0.081129	0.091406	-4.6208	-4.6	-4.3021	-5.1125	-4.5146	-4.7438	-5.1813	-4.7125	-4.875	-4.8354	-4.4604	-5.1042	-4.8021	-4.7542	-5.0146	-4.5396	25.933	14.915	344.187	314.059	233.882	157.649	56.684	363.743	70.410	23.852	351.712	235.848	177.940	124.327	128.587	293.834	0.00040813	0.00033653	8.0134e-05	1154.8	5.5336e-06	3.9043e-06	1234.4	239.61	8.0271e-06	2.271e-06	301.47	84.162	65.658	18.874	2.8121e-06	26.585	0.00026928	0.00023527	6.9565e-05	1139.9	2.9353e-06	2.7137e-06	1216.1	239.74	2.6208e-06	2.4293e-06	300.31	84.181	65.758	19.069	2.4535e-06	27.063	50.148	104.989	92.279	21.425	147.219	184.064	21.266	28.540	162.833	165.254	27.911	35.062	35.218	41.686	182.539	41.667	-8191	255	
6937.454	1	1	0	0	0.076657	0.20827	0.011581	0.073831	0.074667	0.16684	0.10946	0.2254	0.13899	0.27315	0.20433	0.044605	0.043717	0.056378	0.22516	0.076952	-4.6167	-5.0542	-4.5813	-5.2104	-4.675	-4.6833	-5.1479	-4.7354	-4.9583	-4.8604	-4.425	-5.0833	-4.9375	-4.5792	-5.1021	-4.5687	202.404	184.616	165.117	120.366	145.102	76.525	22.688	318.235	14.592	28.976	287.708	53.114	51.773	285.109	161.405	97.732	0.00049283	0.00032839	7.0034e-05	1152.3	5.2662e-06	1.4769e-06	1232.7	241.34	4.6448e-06	4.4065e-06	301.79	84.155	65.681	18.753	4.7339e-06	26.545	0.00027073	0.00023785	7.0132e-05	1140.4	2.8496e-06	2.5734e-06	1217.2	239.88	2.6576e-06	2.6256e-06	300.05	83.839	65.868	19.021	2.6421e-06	27.053	51.716	116.880	91.330	21.329	171.386	143.346	21.417	28.775	158.846	156.136	28.072	34.765	35.008	41.656	166.819	41.519	-8191	255	
6937.551	1	1	0	0	0.12362	0.04496	0.19506	0.2076	0.12152	0.18409	0.1917	0.17503	0.20774	0.076519	0.20275	0.12428	0.11982	0.10892	0.1265	0.17758	-4.2667	-5.0208	-4.3562	-5.0292	-4.7125	-4.35	-5.1896	-4.7854	-4.8917	-5.1021	-4.4604	-5.0771	-4.8854	-4.5375	-4.925	-4.5833	153.339	95.913	101.617	267.953	146.302	277.980	308.716	256.125	30.981	173.484	291.610	358.145	140.855	51.437	213.697	246.061	0.00046428	0.00032598	0.0001294	1153	5.9801e-06	4.1995e-06	1232	240.49	6.5684e-06	2.144e-06	300.12	83.969	65.639	18.724	4.6066e-06	26.545	0.00027587	0.00023207	6.962e-05	1140.1	2.7096e-06	2.6037e-06	1216.2	239.47	2.7695e-06	2.5878e-06	299.95	84.011	65.769	18.993	2.5954e-06	27.092	53.626	108.281	98.638	21.327	155.885	177.048	21.352	28.861	181.141	174.624	27.882	35.114	35.101	41.737	172.723	41.172	-8191	255	
6937.671	1	1	0	0	0.097239	0.064692	0.10939	0.018672	0.080238	0.030268	0.25791	0.096126	0.21615	0.15881	0.17498	0.15832	0.089776	0.26123	0.16769	0.27193	-4.3375	-5.0062	-4.3896	-5.0312	-5.0708	-4.4042	-5.0958	-4.825	-4.8271	-5.1083	-4.5271	-5.0312	-5.0542	-4.4771	-4.8354	-4.7729	220.565	72.092	167.209	214.379	298.578	355.548	16.260	46.065	342.722	219.427	278.996	23.478	62.611	287.478	216.445	295.358	0.00046191	0.00033087	0.00011128	1156.5	5.8187e-06	3.1295e-06	1230.8	240.4	4.8285e-06	2.0738e-06	299.51	83.816	65.777	18.803	3.9439e-06	26.651	0.00027363	0.00023898	6.5596e-05	1140.5	2.9287e-06	2.6232e-06	1215.1	239.69	2.8216e-06	2.4529e-06	299.25	83.996	65.681	19.064	2.5134e-06	27.065	51.782	103.501	94.383	21.356	168.452	168.709	21.241	28.572	168.663	154.675	28.078	34.864	35.322	41.985	135.561	41.840	-8191	255	
6937.767	1	1	0	0	0.037225	0.13032	0.25519	0.24227	0.067397	0.24022	0.21547	0.16699	0.098239	0.26614	0.18235	0.12123	0.28677	0.093443	0.2115	0.20875	-4.3542	-5.1708	-4.425	-4.8438	-4.9854	-4.3958	-5.1104	-4.7937	-4.6562	-5.0896	-4.7208	-4.85	-4.8562	-4.3708	-4.9563	-4.9292	342.702	292.825	166.824	323.040	230.885	54.744	306.985	220.853	319.100	176.258	346.802	311.503	327.181	238.303	127.127	335.287	0.0004234	0.00037054	6.9245e-05	1152.7	4.7793e-06	2.5309e-06	1232.2	240.69	4.6368e-06	2.8197e-06	300.7	83.436	66.215	18.668	3.4206e-06	26.912	0.00027945	0.00022138	6.504e-05	1139.4	2.8375e-06	2.673e-06	1217.1	239.74	2.9449e-06	2.5513e-06	299.86	83.878	66.031	19.014	2.6405e-06	27.15	55.198	87.394	119.744	21.360	172.041	120.861	21.449	28.431	171.257	170.664	27.979	35.121	35.094	41.629	161.562	41.371	-8191	255	
6937.864	1	1	0	0	0.11921	0.16211	0.010405	0.15988	0.17609	0.1596	0.36438	0.17763	0.21441	0.25994	0.16405	0.031909	0.072694	0.16249	0.081115	0.1291	-3.9542	-4.8708	-4.6417	-4.8917	-4.9854	-4.3	-4.9542	-5.0854	-4.5646	-5.1208	-4.7417	-4.5375	-5.2104	-4.6375	-4.7125	-4.9167	234.017	324.384	292.018	273.986	358.638	300.732	295.489	345.649	322.938	299.650	277.057	123.656	286.981	101.431	214.398	311.542	0.00044181	0.00051449	8.4552e-05	1152	3.4894e-06	3.6161e-06	1234.6	241.53	3.1857e-06	5.3891e-06	299.5	83.885	65.819	18.859	3.3578e-06	26.678	0.00026442	0.00023243	6.4048e-05	1140.6	2.7322e-06	2.5119e-06	1216.7	239.46	2.8102e-06	2.3571e-06	298.89	83.912	65.685	19.048	2.5113e-06	27.078	52.839	83.348	84.951	21.462	178.072	155.997	21.342	28.472	160.064	145.815	28.131	34.547	35.455	41.927	140.843	41.360	-8191	255	
6937.960	1	1	0	0	0.092311	0.091625	0.11692	0.087999	0.15841	0.26314	0.22479	0.31477	0.074215	0.14124	0.035357	0.12847	0.31521	0.075143	0.060428	0.092654	-4.0188	-5.1438	-4.8083	-4.725	-5.1521	-4.5729	-4.8229	-5.075	-4.3688	-5.0854	-5.0208	-4.4667	-5.0208	-4.4333	-4.8292	-5.0354	194.018	220.205	325.290	47.857	129.793	78.300	298.069	297.382	290.126	48.804	238.794	46.679	97.228	369.425	230.496	17.478	0.00041791	0.00028444	0.00011796	1152.6	3.5793e-06	2.8415e-06	1228.6	241.03	3.1171e-06	1.8034e-06	299.65	83.603	65.331	18.772	3.7164e-06	26.791	0.0002792	0.00021935	6.4899e-05	1139.6	2.8094e-06	2.5704e-06	1215.1	239.55	2.8658e-06	2.4967e-06	299.3	83.98	65.769	19.045	2.6803e-06	27.111	51.976	67.058	119.828	21.166	149.499	181.444	21.314	28.330	179.880	158.697	28.063	34.694	34.844	41.718	112.273	40.986	-8191	255	
6938.056	1	1	0	0	0.14819	0.068302	0.037074	0.24301	0.3279	0.23622	0.2628	0.11163	0.11112	0.13413	0.049916	0.14617	0.035502	0.10186	0.21194	0.033641	-4.1146	-5.0167	-4.8229	-4.6562	-5.0021	-4.4583	-4.9042	-5.0479	-4.3708	-4.9104	-5.0312	-4.8	-5.2229	-4.775	-4.7646	-5.175	346.507	350.388	173.343	347.178	294.260	249.905	335.109	291.159	120.736	343.480	196.526	35.457	294.410	94.806	207.710	328.475	0.00045237	0.00031465	3.9317e-05	1153.2	4.6941e-06	1.2876e-06	1230.7	239.36	5.4617e-06	2.6179e-06	298.6	83.577	65.493	18.821	3.3512e-06	26.57	0.00027496	0.00022489	6.5029e-05	1138.9	2.6784e-06	2.6946e-06	1214.4	238.89	2.8345e-06	2.5844e-06	298.93	83.721	65.498	18.999	2.5897e-06	26.954	52.911	137.719	110.737	21.299	175.077	202.546	21.175	28.298	160.997	158.452	28.032	35.102	34.986	41.712	162.857	41.256	-8191	255	
#DATA ENDS
