BOXY.EXE: ISS Imagent and Oximeter Data Acquisition Program Version 0.80
Ascii Record File

#ACQ INFORMATION
2  Detector Channels 
16  External MUX Channels 
1  Auxiliary Channels 
5000  Waveform (CCF) Frequency (Hz)
1  Waveforms Skipped 
30  Waveforms Averaged 
1  Cycles Averaged 
16  Acquisitions per Waveform 
10.0806  Updata Rate (Hz) 

#FILE INFORMATION
TRUE -- External MUX Channel results are PARSED.
FALSE -- AC DC and Phase are NOT grouped.
TRUE -- Companion Program Settings File CREATED.
FALSE -- AC data not excluded
FALSE -- DC data not excluded
FALSE -- Phase data not excluded
FALSE -- Auxillary Chn. data not excluded
Tab delimiters

#CALIBRATION STATE
TRUE -- Waveform Calibration Values APPLIED.


#AUX CALIBRATION VALUES
Val Type	aux-1	

Term	1.0000e+00	
Factor	0.0000e+00	


#WF CALIBRATION VALUES
A = Detector Channel
Val Type	A-AC1	A-AC2	A-AC3	A-AC4	A-AC5	A-AC6	A-AC7	A-AC8	A-AC9	A-AC10	A-AC11	A-AC12	A-AC13	A-AC14	A-AC15	A-AC16	A-DC1	A-DC2	A-DC3	A-DC4	A-DC5	A-DC6	A-DC7	A-DC8	A-DC9	A-DC10	A-DC11	A-DC12	A-DC13	A-DC14	A-DC15	A-DC16	A-Ph1	A-Ph2	A-Ph3	A-Ph4	A-Ph5	A-Ph6	A-Ph7	A-Ph8	A-Ph9	A-Ph10	A-Ph11	A-Ph12	A-Ph13	A-Ph14	A-Ph15	A-Ph16	

Term	0.00000e+00	0.00000e+00	0.00000e+00	0.00000e+00	0.00000e+00	0.00000e+00	0.00000e+00	0.00000e+00	0.00000e+00	0.00000e+00	0.00000e+00	0.00000e+00	0.00000e+00	0.00000e+00	0.00000e+00	0.00000e+00	0.00000e+00	0.00000e+00	0.00000e+00	0.00000e+00	0.00000e+00	0.00000e+00	0.00000e+00	0.00000e+00	0.00000e+00	0.00000e+00	0.00000e+00	0.00000e+00	0.00000e+00	0.00000e+00	0.00000e+00	0.00000e+00	0.00000e+00	0.00000e+00	0.00000e+00	0.00000e+00	0.00000e+00	0.00000e+00	0.00000e+00	0.00000e+00	0.00000e+00	0.00000e+00	0.00000e+00	0.00000e+00	0.00000e+00	0.00000e+00	0.00000e+00	0.00000e+00	
Factor	1.00000e+00	1.00000e+00	1.00000e+00	1.00000e+00	1.00000e+00	1.00000e+00	1.00000e+00	1.00000e+00	1.00000e+00	1.00000e+00	1.00000e+00	1.00000e+00	1.00000e+00	1.00000e+00	1.00000e+00	1.00000e+00	1.00000e+00	1.00000e+00	1.00000e+00	1.00000e+00	1.00000e+00	1.00000e+00	1.00000e+00	1.00000e+00	1.00000e+00	1.00000e+00	1.00000e+00	1.00000e+00	1.00000e+00	1.00000e+00	1.00000e+00	1.00000e+00	X	X	X	X	X	X	X	X	X	X	X	X	X	X	X	X	

B = Detector Channel
Val Type	B-AC1	B-AC2	B-AC3	B-AC4	B-AC5	B-AC6	B-AC7	B-AC8	B-AC9	B-AC10	B-AC11	B-AC12	B-AC13	B-AC14	B-AC15	B-AC16	B-DC1	B-DC2	B-DC3	B-DC4	B-DC5	B-DC6	B-DC7	B-DC8	B-DC9	B-DC10	B-DC11	B-DC12	B-DC13	B-DC14	B-DC15	B-DC16	B-Ph1	B-Ph2	B-Ph3	B-Ph4	B-Ph5	B-Ph6	B-Ph7	B-Ph8	B-Ph9	B-Ph10	B-Ph11	B-Ph12	B-Ph13	B-Ph14	B-Ph15	B-Ph16	

Term	0.00000e+00	0.00000e+00	0.00000e+00	0.00000e+00	0.00000e+00	0.00000e+00	0.00000e+00	0.00000e+00	0.00000e+00	0.00000e+00	0.00000e+00	0.00000e+00	0.00000e+00	0.00000e+00	0.00000e+00	0.00000e+00	0.00000e+00	0.00000e+00	0.00000e+00	0.00000e+00	0.00000e+00	0.00000e+00	0.00000e+00	0.00000e+00	0.00000e+00	0.00000e+00	0.00000e+00	0.00000e+00	0.00000e+00	0.00000e+00	0.00000e+00	0.00000e+00	-7.26684e+01	-1.29267e+02	-1.24907e+02	-1.81870e+02	-5.07789e+01	-7.05107e+01	-1.57448e+02	-1.62015e+02	-4.62257e+01	-6.38428e+01	-1.71264e+02	-1.72441e+02	-1.82777e+02	-1.77174e+02	-5.93073e+01	-1.49710e+02	
Factor	1.61401e-05	1.59208e-04	4.37177e-05	1.47657e-01	1.35887e-06	1.73276e-06	1.65095e-01	4.93827e-02	1.11487e-06	1.79644e-06	7.99830e-02	3.23445e-02	3.45062e-02	8.62477e-03	1.51567e-06	1.23023e-02	1.56454e-05	4.14206e-05	1.16575e-05	7.63936e-02	3.74041e-07	4.77579e-07	8.05275e-02	2.56400e-02	3.72120e-07	4.73555e-07	4.04468e-02	1.64577e-02	1.81944e-02	4.52542e-03	4.11768e-07	6.25502e-03	X	X	X	X	X	X	X	X	X	X	X	X	X	X	X	X	



#DISTANCE SETTINGS
A = Detector Channel
A-1	A-2	A-3	A-4	A-5	A-6	A-7	A-8	A-9	A-10	A-11	A-12	A-13	A-14	A-15	A-16	

2.5000e+00	3.0000e+00	2.5000e+00	3.0000e+00	2.0000e+00	3.0000e+00	1.5000e+00	3.0000e+00	3.0000e+00	3.0000e+00	3.0000e+00	3.0000e+00	3.0000e+00	3.0000e+00	1.5000e+00	3.0000e+00	

B = Detector Channel
B-1	B-2	B-3	B-4	B-5	B-6	B-7	B-8	B-9	B-10	B-11	B-12	B-13	B-14	B-15	B-16	

1.0000e+01	1.0000e+01	1.0000e+01	1.4400e+00	1.0000e+01	1.0000e+01	1.5100e+00	1.9400e+00	1.0000e+01	1.0000e+01	1.9900e+00	2.4900e+00	2.4100e+00	2.9000e+00	1.0000e+01	2.9800e+00	




#DATA BEGINS
time	group	step	mark	flag	A-AC1	A-AC2	A-AC3	A-AC4	A-AC5	A-AC6	A-AC7	A-AC8	A-AC9	A-AC10	A-AC11	A-AC12	A-AC13	A-AC14	A-AC15	A-AC16	A-DC1	A-DC2	A-DC3	A-DC4	A-DC5	A-DC6	A-DC7	A-DC8	A-DC9	A-DC10	A-DC11	A-DC12	A-DC13	A-DC14	A-DC15	A-DC16	A-Ph1	A-Ph2	A-Ph3	A-Ph4	A-Ph5	A-Ph6	A-Ph7	A-Ph8	A-Ph9	A-Ph10	A-Ph11	A-Ph12	A-Ph13	A-Ph14	A-Ph15	A-Ph16	B-AC1	B-AC2	B-AC3	B-AC4	B-AC5	B-AC6	B-AC7	B-AC8	B-AC9	B-AC10	B-AC11	B-AC12	B-AC13	B-AC14	B-AC15	B-AC16	B-DC1	B-DC2	B-DC3	B-DC4	B-DC5	B-DC6	B-DC7	B-DC8	B-DC9	B-DC10	B-DC11	B-DC12	B-DC13	B-DC14	B-DC15	B-DC16	B-Ph1	B-Ph2	B-Ph3	B-Ph4	B-Ph5	B-Ph6	B-Ph7	B-Ph8	B-Ph9	B-Ph10	B-Ph11	B-Ph12	B-Ph13	B-Ph14	B-Ph15	B-Ph16	aux-1	digaux	

26063.545	1	1	0	768	0.094241	0.061591	0.1409	0.25642	0.07095	0.23662	0.33381	0.332	0.11932	0.19651	0.11027	0.17067	0.080679	0.12369	0.098131	0.25087	-4.2229	-4.4521	-4.7458	-4.5958	-4.5104	-4.8042	-4.3083	-4.85	-4.5958	-4.1854	-4.8938	-4.4958	-4.6125	-4.8938	-4.2104	-4.875	-124.811	167.892	-101.225	116.041	-169.362	185.066	101.298	139.370	-99.834	-9.158	142.202	144.169	124.463	97.373	41.318	137.166	0.00072171	0.00059565	0.0024354	718.45	2.6065e-06	7.7019e-06	716.74	293.15	9.6922e-05	7.0536e-06	338.29	151.11	124.18	57.953	5.5929e-06	78.078	0.0011918	0.0016312	0.0081644	760.47	1.5388e-05	2.3335e-05	755.53	316.25	0.00025287	1.8949e-05	359.22	162.02	133.46	64.729	1.6982e-05	83.839	-108.003	-95.413	12.578	-159.586	-19.767	-40.915	-160.782	-154.960	-120.391	-9.625	-157.068	-152.876	-151.193	-146.746	-31.653	-149.356	-8191	255	
26063.639	1	1	0	0	0.090127	0.2575	0.13702	0.16549	0.10038	0.25932	0.23563	0.14857	0.18488	0.014449	0.14052	0.19147	0.063098	0.20261	0.17753	0.16249	-4.1958	-4.2021	-4.7063	-4.65	-4.4167	-4.85	-4.3917	-4.6917	-4.7333	-4.2333	-4.9062	-4.5771	-4.4854	-5.1021	-4.3146	-4.6937	114.953	-66.711	-58.635	172.691	-99.862	105.497	114.319	154.679	-109.887	29.421	142.088	-104.892	10.879	142.108	-105.644	66.235	0.0007117	0.000735	0.0032632	721.96	4.1721e-06	6.6268e-06	719.49	295.74	6.4009e-05	4.2421e-06	339.75	151.92	124.87	58.58	6.1107e-06	78.624	0.0012982	0.0016953	0.010964	763.11	1.546e-05	2.2306e-05	757.96	314.75	0.00026321	1.8506e-05	361.63	162.97	134.08	66.177	1.6931e-05	84.207	-106.811	-75.249	19.038	-159.618	-26.744	-34.085	-160.897	-154.945	-127.304	-25.827	-157.163	-152.945	-151.258	-146.576	-42.487	-149.296	-8191	255	
26063.734	1	1	0	0	0.10919	0.14162	0.093016	0.031683	0.1444	0.15772	0.18608	0.099162	0.26178	0.084788	0.19105	0.1216	0.055055	0.28312	0.14341	0.10971	-4.3625	-4.1771	-4.5708	-4.6375	-4.2917	-4.8146	-4.4417	-4.7021	-4.7333	-4.15	-4.8708	-4.65	-4.1896	-4.9313	-4.2812	-4.5792	175.925	131.767	-162.063	69.965	-79.589	-145.825	-154.652	112.131	-147.518	-170.799	118.512	-157.993	172.246	-150.259	-143.639	103.271	0.00069234	0.00065344	0.0028069	718.28	3.339e-06	4.0086e-06	717.89	295.03	8.2931e-05	6.4718e-06	340.51	151.71	125.22	57.942	5.9656e-06	78.349	0.00124	0.0016674	0.0060643	771.21	1.577e-05	2.1988e-05	759.65	314.69	0.00035372	1.8588e-05	361.77	163.09	134.01	64.858	1.7827e-05	84.239	-108.409	-88.454	-6.436	-159.948	-25.257	-10.547	-161.020	-155.065	-122.599	-24.815	-157.159	-153.040	-151.146	-146.431	-44.109	-149.231	-8191	255	
26063.830	1	1	0	0	0.25517	0.16842	0.12555	0.13849	0.287	0.15782	0.25402	0.035406	0.24217	0.25379	0.26881	0.1697	0.22756	0.16614	0.20742	0.3566	-4.4792	-4.1771	-4.6813	-4.6792	-4.3229	-4.8375	-4.5396	-4.6208	-4.7708	-4.1854	-4.6687	-4.7562	-4.3313	-4.9688	-4.3479	-4.4542	-170.826	185.404	-129.430	120.336	66.613	95.930	94.159	12.996	0.787	-149.862	162.084	123.167	114.668	106.625	171.687	123.380	0.00070724	0.00053176	0.0035004	716.75	3.7975e-06	3.9918e-06	716.23	295.95	6.5377e-05	4.3604e-06	339.48	151.04	124.43	58.137	4.9833e-06	77.839	0.0012879	0.0016403	0.0015042	816.33	1.5516e-05	2.0541e-05	757.83	314.87	0.00026149	1.859e-05	360.81	162.63	133.96	65.964	1.7757e-05	83.555	-106.474	-87.503	-3.619	-160.053	-7.681	-30.368	-160.899	-155.107	-115.355	-12.178	-157.275	-152.768	-151.126	-146.460	-20.043	-149.498	-8191	255	
26063.928	1	1	0	0	0.07369	0.086708	0.24776	0.092409	0.23032	0.17346	0.24848	0.046233	0.34723	0.21747	0.30718	0.19609	0.14651	0.35426	0.10114	0.12797	-4.3979	-4.2542	-4.5104	-4.7042	-4.2625	-4.8021	-4.5167	-4.5021	-4.8542	-4.2	-4.5771	-4.7354	-4.2021	-4.9292	-4.4104	-4.3458	42.600	-100.555	43.195	76.646	128.347	-89.075	117.490	52.962	121.049	-150.093	137.783	51.633	46.563	-167.868	-1.733	-159.007	0.00074125	0.00058799	0.00015985	713.34	4.0042e-06	5.6862e-06	713.56	294.09	8.8098e-05	4.8923e-06	338.38	150.46	124.77	57.741	2.9228e-05	78.074	0.0012308	0.0015946	0.00046135	813.83	1.5055e-05	2.144e-05	753.52	313.32	0.00035225	1.8162e-05	358.68	161.62	133.57	63.63	6.3716e-05	83.515	-107.471	-86.745	-78.392	-159.407	1.576	-10.605	-160.781	-155.151	-109.477	-29.083	-157.469	-152.876	-151.021	-146.337	-68.567	-149.111	-8191	255	
26064.023	1	1	0	0	0.16975	0.17718	0.10465	0.33934	0.20432	0.21247	0.1565	0.23923	0.072856	0.077335	0.10068	0.21816	0.15131	0.049399	0.16772	0.23925	-4.6	-4.3375	-4.3354	-4.9375	-4.0896	-4.6167	-4.7375	-4.3292	-4.8438	-4.3875	-4.5104	-4.6667	-4.3146	-4.7604	-4.6042	-4.4229	124.577	145.639	132.263	153.034	-45.269	161.200	-171.101	15.132	170.887	73.990	-113.590	57.647	-147.666	147.570	53.005	117.489	0.00068877	0.0002577	0.00013691	707.02	3.913e-06	6.8511e-06	712.91	293.73	5.8693e-05	5.0727e-06	337.09	150.91	123.65	57.686	2.3631e-05	77.956	0.0012199	0.0016865	0.00045802	831.5	1.4634e-05	1.9557e-05	754.78	313.12	0.00025979	1.8716e-05	358.26	161.78	133.3	61.626	0.00031209	83.724	-108.122	-101.513	-94.037	-159.405	9.971	-24.507	-160.715	-155.112	-99.807	-32.210	-157.262	-152.812	-151.232	-146.159	-72.807	-149.348	-8191	255	
26064.143	1	1	0	0	0.11169	0.11852	0.12712	0.21697	0.20215	0.15993	0.061099	0.17234	0.029139	0.21116	0.18453	0.15935	0.18482	0.2504	0.13824	0.087646	-4.4479	-4.3812	-4.3104	-4.6479	-4.2833	-4.5875	-4.6833	-4.2312	-4.7417	-4.4375	-4.425	-4.8542	-4.5104	-4.7438	-4.7667	-4.1479	1.488	-48.931	58.392	176.446	136.908	-102.396	143.324	-113.422	-102.393	-104.752	52.822	84.387	-122.899	154.865	-47.188	-67.007	0.00071215	0.00046016	0.0001892	708.17	4.8582e-06	4.0622e-06	716	293.68	9.5403e-05	4.428e-06	337.46	151.28	124.47	56.97	8.7487e-05	78.513	0.0011914	0.00166	0.00047878	811.96	1.5156e-05	1.867e-05	755.39	312.84	0.00035121	1.9598e-05	359.26	162.09	133.53	61.327	0.00028936	83.924	-104.974	-92.933	-84.341	-159.596	-16.584	-48.361	-160.837	-154.892	-94.354	-35.768	-157.280	-152.944	-151.017	-146.724	4.756	-149.212	-8191	255	
26064.240	1	1	0	0	0.14441	0.10622	0.10075	0.33576	0.2592	0.087623	0.29956	0.010938	0.037731	0.17915	0.099639	0.12989	0.27231	0.19912	0.10226	0.10001	-4.5437	-4.3875	-4.3812	-5	-4.3229	-4.5875	-4.7979	-4.3729	-4.6667	-4.6375	-4.4625	-4.9938	-4.3812	-4.7688	-4.8063	-4.3792	56.634	107.318	-90.316	62.877	80.731	104.068	55.625	-89.642	-132.851	89.896	-109.786	160.788	136.216	154.695	-45.812	180.614	0.00071981	0.00047431	0.00012307	706.92	1.8949e-06	5.8099e-06	712.31	294.46	1.4089e-05	0.0001009	338.7	150.41	123.89	57.02	0.00011635	78.197	0.0012363	0.0017458	0.00046523	832.41	1.4977e-05	1.8893e-05	756.65	312.84	0.00017187	8.5486e-05	359.78	162.1	133.05	61.283	0.00039148	83.85	-107.182	-99.890	-73.359	-159.559	-12.535	-7.839	-160.934	-155.162	-17.569	-115.323	-157.190	-152.789	-150.987	-146.587	12.416	-149.278	-8191	255	
26064.336	1	1	0	0	0.089313	0.12848	0.29776	0.12158	0.061064	0.08007	0.18707	0.26744	0.18717	0.17907	0.12458	0.10402	0.18994	0.12699	0.17506	0.084457	-4.4667	-4.6333	-4.1583	-4.9938	-4.1188	-4.4563	-4.7542	-4.3458	-4.7542	-4.575	-4.2354	-4.9292	-4.5188	-4.5167	-4.8729	-4.2562	175.290	31.475	-135.914	143.723	72.965	-33.087	100.668	106.699	53.542	-25.644	132.277	159.224	42.775	91.673	46.957	86.476	0.0006814	0.00068423	0.00012836	714.09	3.2597e-06	3.963e-06	710.54	292.27	2.7028e-05	0.00013394	335.37	150.61	123.15	56.845	8.4674e-05	77.571	0.0011596	0.0018581	0.00047708	813.02	1.5853e-05	1.9063e-05	754.35	311.35	1.9519e-05	0.00037769	357.14	161.34	132.64	61.073	0.0002882	83.226	-107.642	-106.987	-81.342	-159.711	-6.554	-22.603	-160.899	-154.932	-16.291	-116.468	-157.259	-152.792	-151.040	-146.606	17.902	-149.107	-8191	255	
26064.432	1	1	0	0	0.072906	0.057385	0.097872	0.179	0.030905	0.17242	0.2214	0.15123	0.057311	0.10136	0.19395	0.17104	0.25771	0.22812	0.036958	0.16801	-4.2896	-4.5979	-4.0938	-4.8271	-4.4104	-4.4104	-4.9583	-4.3542	-4.5167	-4.5542	-4.1625	-4.9313	-4.5833	-4.4292	-4.9437	-4.4042	-165.047	18.564	59.799	-158.902	-9.100	184.138	-80.077	116.379	-43.082	48.486	-136.446	116.349	24.055	160.396	-46.011	102.334	0.0006896	0.00044799	0.00015307	708.43	2.6464e-06	3.8657e-06	708.95	291.45	4.3114e-06	0.00010599	333.74	149.84	122.59	56.71	0.00011987	77.44	0.0011058	0.0020636	0.00045855	830.01	1.6095e-05	1.9305e-05	750.44	310.09	1.5586e-05	0.00033283	354.87	160.61	132.15	60.919	0.00038746	83.042	-108.802	-113.625	-64.050	-159.769	-21.578	-32.485	-160.742	-154.952	-26.014	-94.210	-157.420	-152.973	-150.886	-146.524	24.385	-149.292	-8191	255	
26064.527	1	1	0	0	0.092606	0.31651	0.20382	0.10019	0.16522	0.087605	0.067466	0.17342	0.26523	0.12367	0.30273	0.28822	0.15616	0.047026	0.061037	0.21264	-4.2167	-4.7583	-4.1896	-4.7771	-4.4708	-4.2688	-5.0042	-4.3896	-4.3708	-4.6833	-4.3438	-4.8542	-4.5917	-4.2625	-4.7542	-4.4563	-47.705	118.895	172.759	36.468	11.725	-112.889	133.284	179.740	37.119	95.758	139.262	-111.325	81.978	153.763	173.540	-151.309	0.00070947	0.00056599	0.0001575	711.11	7.6251e-05	5.0539e-06	711.55	291.64	4.8508e-06	0.00013954	333.73	150.24	123.27	56.809	9.004e-05	77.331	0.0011471	0.0019596	0.0004681	787.71	8.037e-05	1.8835e-05	751.59	310.53	1.6293e-05	0.00044887	355.36	160.76	132.54	60.988	0.00028851	83.23	-107.033	-112.039	-57.859	-159.340	-150.956	-25.560	-160.829	-155.198	-16.990	-85.911	-157.331	-152.838	-151.065	-146.555	34.711	-149.258	-8191	255	
26064.621	1	1	0	0	0.12906	0.14951	0.21453	0.073157	0.088525	0.094353	0.040815	0.24451	0.25239	0.090549	0.1289	0.18389	0.17727	0.091452	0.27667	0.065376	-4.0312	-4.7854	-4.2604	-4.7583	-4.4604	-4.2667	-4.9042	-4.5687	-4.4479	-4.8146	-4.3583	-4.5646	-4.6562	-4.2625	-4.625	-4.6104	-45.309	-166.009	119.821	36.310	110.610	-32.925	181.484	145.342	37.242	18.838	43.845	-170.308	-7.555	-155.790	-133.370	142.799	0.00069611	0.00060179	0.00010039	715.82	0.00010167	4.1729e-06	712.62	291.29	4.1757e-06	0.00010521	335.36	150.06	123.43	56.92	0.0001158	77.732	0.0011519	0.0020757	0.00046531	756.87	0.00031528	1.9238e-05	751.88	310.55	1.6117e-05	0.00033379	355.9	160.96	132.56	61.033	0.00039071	83.494	-106.850	-111.291	-81.269	-159.424	-147.831	-39.374	-161.164	-155.156	-23.982	-82.122	-157.148	-152.762	-151.185	-146.567	42.366	-149.430	-8191	255	
26064.719	1	1	0	0	0.037413	0.20647	0.15939	0.1229	0.14231	0.25899	0.15054	0.059387	0.13077	0.13047	0.091732	0.055161	0.12236	0.2398	0.073763	0.16746	-4.2146	-4.6312	-4.3313	-4.8292	-4.6521	-4.3354	-4.6833	-4.8146	-4.4083	-4.7771	-4.3583	-4.7792	-4.9437	-4.325	-4.6917	-4.6438	-143.120	155.318	166.869	-118.381	-22.625	-102.090	80.071	-169.463	-157.432	167.809	69.206	70.632	183.449	165.816	125.255	70.035	0.00070838	0.00061618	0.00012386	717.07	7.3604e-05	4.7318e-06	710.26	291.97	5.1009e-06	0.00014042	335.93	151.16	123.49	56.984	0.00010022	77.892	0.0011608	0.0019745	0.00046895	759.15	0.00026487	1.9254e-05	753.64	311.17	1.6131e-05	0.00045062	357.82	161.83	133.01	61.245	0.00016662	84.987	-106.816	-94.458	-88.889	-159.611	173.297	-31.824	-160.819	-155.012	-29.680	-76.510	-157.218	-152.927	-151.086	-146.456	32.017	-149.244	-8191	255	
26064.840	1	1	0	0	0.072023	0.15427	0.089438	0.077337	0.072496	0.1557	0.1044	0.070324	0.060062	0.095269	0.20864	0.06381	0.24094	0.26202	0.0629	0.16549	-3.8646	-4.8479	-4.2604	-4.5229	-4.6438	-4.1083	-4.7396	-4.5646	-4.3	-4.8458	-4.3938	-4.4729	-4.9292	-4.3063	-4.5667	-4.825	-111.526	-111.075	-40.237	164.366	120.421	-32.771	170.109	96.911	142.637	-69.671	101.328	110.260	97.979	172.506	100.300	82.882	0.00069869	0.0004705	0.0001345	717.35	0.00010468	4.2937e-06	713.1	293.76	5.367e-06	0.00010774	336.55	150.71	124.3	56.763	5.5712e-06	77.393	0.0011391	0.0019744	0.00049564	759.42	0.00035323	1.9173e-05	754.09	312.22	1.6344e-05	0.00032837	357.87	161.39	133.24	61.047	1.7667e-05	88.722	-108.265	-102.535	-111.139	-159.792	180.198	-15.720	-161.100	-155.225	-15.898	-69.381	-157.069	-152.871	-151.199	-146.626	-28.465	-149.373	-8191	255	
26064.936	1	1	0	0	0.21764	0.086615	0.085227	0.090609	0.16608	0.035442	0.20973	0.13216	0.23033	0.21295	0.16857	0.1509	0.27347	0.41796	0.17702	0.099181	-3.8604	-4.8042	-4.4313	-4.3833	-4.7292	-4.1229	-4.5354	-4.8417	-4.3063	-4.7292	-4.3896	-4.3938	-4.8187	-4.2146	-4.5396	-4.8438	165.429	150.101	-84.282	-79.752	166.542	170.603	87.823	-165.347	-126.487	82.234	180.657	93.694	144.943	132.821	-81.121	-119.364	0.00070346	0.00073438	0.00010439	717.64	8.0862e-05	5.2092e-06	711	292.42	5.1184e-06	0.00013701	334.08	149.85	123.34	56.75	4.5912e-06	77.235	0.0011288	0.0018808	0.00048835	757.99	0.00026224	1.868e-05	750.55	311.79	1.5651e-05	0.0004451	355.73	160.66	132.68	60.988	1.7542e-05	87.446	-106.391	-93.494	-99.710	-159.522	186.284	-35.624	-161.040	-154.974	-34.285	-63.233	-157.207	-152.892	-151.080	-146.624	-55.639	-148.664	-8191	255	
26065.031	1	1	0	0	0.13651	0.18398	0.086554	0.33373	0.17759	0.12482	0.12156	0.14989	0.13612	0.10881	0.17816	0.13648	0.11487	0.22608	0.060149	0.17457	-3.7979	-4.7063	-4.4083	-4.2438	-4.8396	-4.3083	-4.6438	-4.9146	-4.0479	-4.7625	-4.4833	-4.3354	-4.8812	-4.4708	-4.3729	-4.7792	-6.030	122.583	181.199	138.407	173.696	124.491	62.487	169.424	-148.123	-86.203	-142.996	168.730	165.603	-153.511	12.220	124.066	0.00067547	0.00070358	0.00010847	715.02	9.8506e-05	3.076e-06	708.39	291.79	5.4544e-06	6.2919e-05	336.17	149.71	123.31	56.92	5.103e-06	77.076	0.0011204	0.0019245	0.00049848	757.33	0.00035402	1.9436e-05	749.3	310.91	1.565e-05	0.00017528	365.23	160.72	132.61	61.121	1.7844e-05	89.284	-107.505	-106.000	-100.151	-159.761	-171.111	-40.576	-161.095	-155.120	-25.076	-17.447	-157.791	-152.735	-151.049	-146.441	-22.628	-148.673	-8191	255	
26065.104	1	1	0	0	0.30371	0.12633	0.13504	0.0099388	0.256	0.18945	0.08326	0.23171	0.20145	0.14168	0.015495	0.12048	0.21208	0.32272	0.11994	0.11597	-3.8354	-4.6896	-4.4333	-4.375	-4.7708	-4.2583	-4.4646	-4.875	-4.1125	-4.5333	-4.8438	-4.1625	-4.9042	-4.4979	-4.3708	-5.0021	28.202	-57.486	-169.317	113.368	40.394	159.778	182.445	118.528	-120.375	-168.264	-161.455	-148.483	126.830	-126.205	-47.103	12.493	0.00071026	0.00044285	0.00017532	715.22	6.8702e-05	3.5092e-06	708.94	291.61	3.8941e-06	5.9384e-06	338.66	150.83	123.78	57.039	4.4512e-06	77.436	0.001122	0.0017582	0.00053127	758.06	0.00026293	2.0099e-05	751.06	311.72	1.6186e-05	1.9275e-05	393.44	161.22	132.96	61.338	1.7739e-05	87.898	-106.137	-84.258	-92.656	-159.570	-162.178	-29.396	-160.832	-155.145	-38.003	-8.877	-157.619	-152.723	-151.349	-146.788	-40.497	-149.138	-8191	255	
26065.225	1	1	0	0	0.16635	0.087404	0.16134	0.17528	0.31169	0.19105	0.23472	0.10308	0.11696	0.066067	0.1885	0.32108	0.12256	0.31383	0.095838	0.23479	-3.8333	-4.6083	-4.725	-4.2583	-4.8333	-4.5354	-4.3583	-5.0417	-4.1188	-4.5729	-4.6771	-4.3063	-4.7063	-4.6771	-4.325	-4.8583	90.398	8.262	-112.553	134.055	-121.063	123.559	141.803	-138.481	37.250	70.807	174.889	180.451	141.243	183.726	134.325	119.446	0.00072025	0.00042872	0.0002016	712.77	0.00010511	6.1064e-06	712.14	292.69	5.0869e-06	4.4275e-06	341.59	150.12	123.57	56.942	5.4561e-06	77.401	0.0011546	0.0017288	0.00058822	758.17	0.0003542	2.0689e-05	754.07	311.96	1.6402e-05	1.9595e-05	385.32	161.27	133.05	61.203	1.749e-05	89.679	-107.914	-94.873	-83.304	-159.782	-151.673	-56.247	-161.011	-154.901	-31.290	5.677	-157.359	-152.937	-151.191	-146.507	-41.652	-148.883	-8191	255	
26065.320	1	1	0	0	0.053525	0.11003	0.17246	0.076972	0.1442	0.087493	0.22246	0.12162	0.14113	0.18645	0.070868	0.17306	0.1392	0.29029	0.14239	0.096775	-3.9146	-4.575	-4.725	-4.2479	-4.7292	-4.4938	-4.2125	-4.8583	-4.2688	-4.3458	-4.7771	-4.2125	-4.7729	-4.6167	-4.2	-4.9479	-64.194	-15.462	177.050	164.641	-110.380	74.653	-105.401	146.702	42.741	25.568	-49.321	-172.090	-92.629	173.345	-124.538	-33.481	0.0006873	0.0005767	0.00022525	717.22	2.3079e-05	0.00010453	707.06	291.89	3.3688e-06	5.0712e-06	342.03	149.36	122.61	56.772	6.1756e-06	76.898	0.0011623	0.0017602	0.00056459	757.96	0.00012977	0.00014333	751.5	310.87	1.7458e-05	1.9355e-05	393.08	160.22	132.04	60.986	1.7774e-05	87.357	-106.660	-92.632	-78.925	-159.538	110.310	-145.382	-160.972	-155.061	-20.333	-31.784	-156.956	-153.022	-151.089	-146.486	-43.369	-148.938	-8191	255	
26065.416	1	1	0	0	0.1251	0.17524	0.14421	0.28253	0.051136	0.067671	0.15124	0.18242	0.087244	0.19469	0.10696	0.16607	0.24029	0.22911	0.053013	0.22461	-3.8917	-4.3521	-4.6	-4.3917	-4.5625	-4.6417	-4.1687	-4.8875	-4.4688	-4.2937	-5.0229	-4.3333	-4.5	-4.7229	-4.1687	-4.7042	-9.749	-38.032	105.496	-148.999	11.860	-60.731	-152.868	53.703	65.676	162.564	121.424	141.499	141.594	133.473	-86.540	109.925	0.00064686	0.00066731	0.00019462	716.53	4.7203e-06	0.00013697	705.01	290.4	3.6784e-06	5.3116e-06	335.92	148.49	122.33	56.363	5.3415e-06	76.196	0.0011723	0.0017176	0.00057758	756.74	1.6198e-05	0.00045213	747.26	309.14	1.7268e-05	1.9748e-05	380.4	159.59	131.67	60.755	1.7601e-05	88.65	-106.882	-87.676	-89.866	-159.623	-8.615	-159.398	-160.961	-155.086	-0.856	-16.672	-157.033	-152.732	-151.015	-146.661	-39.870	-149.056	-8191	255	
26065.537	1	1	0	0	0.11469	0.13808	0.14556	0.13889	0.19244	0.16349	0.078039	0.042426	0.15229	0.14768	0.31185	0.065585	0.08802	0.19919	0.098443	0.18076	-4.1354	-4.2583	-4.7271	-4.2479	-4.6542	-4.7188	-4.2812	-4.8375	-4.525	-4.1646	-4.8812	-4.5042	-4.6125	-4.9833	-3.9562	-4.8146	-128.813	-21.558	80.543	152.257	-5.030	-146.402	-14.842	73.440	2.554	-2.446	153.373	148.588	174.156	-151.363	22.449	-94.024	0.00069909	0.00053634	0.00023946	713.23	3.9175e-06	9.2561e-05	706.49	289.8	3.7412e-06	5.5315e-06	337.64	148.24	122.51	56.417	3.1955e-06	76.62	0.0011863	0.0017103	0.00054045	753.87	1.6174e-05	0.00033566	747.89	309.1	1.7242e-05	1.9175e-05	390.72	159.38	131.72	60.778	1.8146e-05	84.515	-107.229	-103.915	-80.591	-159.905	-29.405	-154.786	-160.829	-155.021	-26.952	-20.973	-156.969	-152.983	-150.978	-146.624	-37.481	-148.874	-8191	255	
26065.631	1	1	0	0	0.078306	0.1572	0.25448	0.26367	0.15428	0.062756	0.12565	0.074583	0.18078	0.020172	0.20595	0.1589	0.1665	0.42016	0.17508	0.04225	-4.1958	-4.1625	-4.6333	-4.4	-4.4646	-4.7125	-4.3417	-4.6917	-4.5875	-4.1833	-4.8	-4.4958	-4.4417	-4.8667	-4.0021	-4.7104	-68.365	-158.843	-147.610	147.204	75.935	145.739	-93.313	112.122	-132.666	94.706	-120.163	-104.760	-106.695	148.537	-100.567	84.554	0.00095778	0.00046716	0.00020835	714.41	4.1686e-06	0.00012506	701.82	288.21	3.1582e-06	9.8349e-06	335.25	148.16	121.96	56.36	5.0104e-06	77.498	0.005701	0.0016928	0.00056223	754.61	1.5889e-05	0.00045353	746.62	307.95	1.8852e-05	1.9661e-05	380.54	159.41	131.47	60.733	1.858e-05	83.092	-149.393	-92.570	-84.389	-159.739	-13.189	-147.360	-160.970	-155.023	-25.390	-5.905	-156.733	-152.778	-151.068	-146.583	-32.021	-149.102	-8191	255	
26065.705	1	1	0	0	0.08521	0.098808	0.080219	0.16205	0.1679	0.087421	0.20744	0.099543	0.13419	0.099734	0.042687	0.11908	0.12973	0.21383	0.2278	0.16195	-4.1833	-4.1875	-4.7479	-4.4854	-4.1687	-4.6229	-4.3375	-4.5417	-4.6375	-4.2729	-4.8521	-4.4625	-4.1958	-4.7792	-4.1771	-4.6229	159.211	-7.649	182.167	83.582	-1.386	-153.825	129.568	-57.654	8.188	-149.744	-142.431	-172.862	-118.497	108.331	-43.545	-5.095	0.000734	0.0005241	0.000203	713.68	3.6466e-06	9.9938e-05	707.35	289.98	2.9325e-06	4.9203e-06	336.84	149.19	122.79	56.597	3.793e-06	77.201	0.015467	0.0017026	0.00055509	756.4	1.6311e-05	0.000338	750.52	309.57	2.0234e-05	1.9301e-05	392.37	160.22	131.86	60.875	1.8379e-05	83.248	111.132	-90.369	-80.340	-159.642	-9.462	-139.862	-161.010	-154.897	-20.703	-20.085	-156.337	-152.982	-151.299	-146.496	-16.472	-149.296	-8191	255	
26065.822	1	1	0	0	0.049705	0.16359	0.233	0.025657	0.058464	0.31254	0.21226	0.21331	0.068202	0.0056197	0.28985	0.19315	0.17249	0.17719	0.19472	0.081254	-4.3333	-4.2312	-4.6125	-4.6083	-4.1146	-4.7562	-4.375	-4.3125	-4.8417	-4.1833	-4.7083	-4.6188	-4.3854	-4.8958	-4.3354	-4.7458	-118.233	78.654	16.542	93.647	75.376	-145.188	-97.864	140.970	142.115	43.236	125.884	61.009	129.049	58.476	180.350	117.652	0.00043435	0.00038059	0.00016641	715.63	2.7785e-06	0.00013153	708.11	289.85	3.6919e-06	5.7566e-06	336.04	149.54	122.75	56.497	5.5105e-06	76.936	0.011467	0.0017887	0.00055939	756.33	1.5549e-05	0.00045197	749.61	309.55	1.8646e-05	1.9682e-05	364.3	165.5	132.13	60.856	1.911e-05	82.759	150.770	-88.660	-82.258	-159.618	-7.829	-129.916	-160.712	-154.955	-20.535	-16.913	-156.571	-152.904	-151.133	-146.683	-37.438	-149.266	-8191	255	
26065.920	1	1	0	0	0.15328	0.070229	0.078769	0.15457	0.076327	0.058631	0.19621	0.27427	0.067856	0.090766	0.13266	0.36057	0.28579	0.14913	0.052015	0.049056	-4.4271	-4.1958	-4.7417	-4.4958	-4.1438	-4.8146	-4.4375	-4.3354	-4.8333	-4.1708	-4.6396	-4.6458	-4.3708	-4.7833	-4.4667	-4.475	-31.369	98.648	22.442	112.385	112.744	-85.660	87.068	115.096	163.841	171.016	54.353	144.531	158.187	-160.846	-82.731	140.359	0.00077167	0.00050485	0.00014461	712.53	4.1418e-06	9.9611e-05	705.46	291.22	3.6335e-06	3.7564e-06	331.03	151.02	122.81	56.559	6.7222e-06	76.812	0.015246	0.0017347	0.00049479	756.16	1.5612e-05	0.00033417	747.82	310.26	1.9297e-05	1.936e-05	353.19	175.41	132.22	60.907	1.8747e-05	82.584	137.582	-87.164	-85.926	-159.651	-15.586	-125.509	-160.957	-155.188	-23.164	-69.792	-157.220	-152.407	-151.071	-146.590	-17.149	-149.294	-8191	255	
26066.016	1	1	0	0	0.10724	0.02937	0.047568	0.30463	0.1605	0.1177	0.1164	0.096976	0.036891	0.17705	0.20222	0.14544	0.042714	0.24003	0.15894	0.3473	-4.4333	-4.0563	-4.3854	-4.6708	-4.1062	-4.7	-4.3958	-4.4917	-4.7042	-4.3125	-4.5083	-4.6708	-4.0938	-4.8271	-4.5854	-4.3438	-24.685	84.367	85.920	-169.622	40.832	135.782	34.879	-126.854	-169.841	88.464	160.712	-156.811	-155.271	180.087	-8.375	90.516	0.00065483	0.00050988	0.00019554	717.01	4.9944e-06	2.1203e-05	708.66	292.22	4.0385e-06	5.3472e-06	333.24	150.54	123.92	56.834	4.5008e-06	77.167	0.011371	0.0017188	0.00049357	759	1.545e-05	0.00042401	750.86	311.3	1.8218e-05	1.9482e-05	354.88	171.54	132.82	61.153	1.9578e-05	82.951	169.618	-84.193	-88.478	-159.658	-5.956	-55.595	-160.899	-155.059	-37.924	-14.879	-157.401	-152.348	-150.945	-146.596	-55.361	-149.265	-8191	255	
26066.137	1	1	0	0	0.17388	0.17006	0.17236	0.1723	0.053413	0.039974	0.16751	0.2131	0.099642	0.12007	0.16594	0.21879	0.075584	0.19187	0.21409	0.053831	-4.45	-4.2146	-4.4396	-4.9271	-4.0958	-4.5479	-4.5167	-4.2125	-4.7479	-4.2854	-4.4875	-4.7396	-4.1771	-4.7688	-4.3375	-4.2375	-38.070	166.610	-122.522	135.117	-15.288	-148.599	130.257	19.248	133.324	179.505	112.485	38.817	100.873	61.699	67.439	47.779	0.0009295	0.00051543	0.00019225	719.13	4.6332e-06	2.1211e-05	716.08	292.82	3.5636e-06	6.7545e-06	333.83	150.79	123.87	56.939	7.6332e-06	77.053	0.015242	0.0018307	0.00047701	762.61	1.6139e-05	0.00012182	782.89	311.5	1.9066e-05	2.0352e-05	355.74	175.93	132.79	61.244	2.0064e-05	83.111	152.174	-96.990	-111.186	-159.897	-29.813	-27.165	-161.676	-154.912	-18.313	-17.716	-157.108	-151.865	-151.257	-146.729	-39.843	-149.207	-8191	255	
26066.232	1	1	0	0	0.11923	0.10009	0.28019	0.12169	0.25747	0.19306	0.1573	0.17283	0.12633	0.1029	0.27772	0.35482	0.045644	0.10825	0.092396	0.13892	-4.3083	-4.4146	-4.1708	-4.9229	-4.1562	-4.4812	-4.6729	-4.1958	-4.7208	-4.3792	-4.3938	-4.9187	-4.2125	-4.5646	-4.5479	-4.3396	121.018	52.569	-16.565	103.946	132.751	150.616	134.770	172.558	100.653	-22.552	160.462	145.001	-1.728	-162.051	57.881	80.304	0.00078343	0.00043342	0.00017357	723.54	4.1549e-06	4.7245e-06	727.08	293.21	3.9977e-06	6.0906e-06	336.01	150.34	123.8	57.031	7.4126e-06	77.586	0.011496	0.0017485	0.00046752	765.81	1.5796e-05	1.9204e-05	832.93	312.31	1.8049e-05	2.0002e-05	357.04	172.27	133.01	61.371	2.1558e-05	83.309	173.945	-88.189	-78.515	-159.637	-15.890	-10.728	-161.568	-155.046	-17.014	-17.343	-157.192	-152.173	-151.003	-146.693	-37.667	-149.380	-8191	255	
26066.328	1	1	0	0	0.17411	0.093666	0.12795	0.15443	0.10335	0.21156	0.055194	0.11705	0.20157	0.21249	0.02762	0.094366	0.18238	0.21828	0.087279	0.12319	-4.2479	-4.4417	-4.2167	-4.8125	-4.1229	-4.4187	-4.7104	-3.9917	-4.5896	-4.4208	-4.3375	-4.7521	-4.4667	-4.5062	-4.775	-4.2688	173.707	165.281	-22.739	87.910	3.266	-20.875	71.159	179.135	7.890	178.306	-59.988	22.550	186.256	127.889	-83.255	90.991	0.00021267	0.00061916	0.00012605	721.42	4.5828e-06	6.6992e-06	722.94	291.52	4.5677e-06	1.9094e-06	332.45	150.52	123.14	56.893	6.0499e-06	76.677	0.013819	0.0018328	0.00046404	766.52	1.6e-05	1.9269e-05	809.94	311.52	1.7881e-05	2.0377e-05	354.51	175.35	132.42	61.027	1.9866e-05	82.46	71.935	-79.650	-85.688	-159.944	-7.349	-21.819	-161.444	-154.951	-27.859	-78.649	-157.038	-152.165	-150.982	-146.717	-58.122	-149.337	-8191	255	
26066.400	1	1	0	0	0.063924	0.29981	0.23554	0.13362	0.084363	0.18984	0.11761	0.19754	0.094407	0.015287	0.16933	0.25092	0.071981	0.20371	0.11266	0.39136	-4.4187	-4.4187	-4.1937	-4.9021	-4.2708	-4.1604	-4.7896	-4.3667	-4.5875	-4.6104	-4.1146	-4.8	-4.4875	-4.4187	-4.8438	-4.2021	-122.164	110.559	-43.658	153.526	19.112	-121.891	-55.230	-134.912	158.597	24.233	112.159	57.389	-58.840	164.586	-162.430	134.754	5.1263e-06	0.0081955	0.00015427	722.52	4.8301e-06	4.7865e-06	721.19	290.96	5.2873e-06	3.8438e-06	330.99	148.99	122.95	56.548	7.0161e-06	76.685	0.0039877	0.017128	0.00045557	763.71	1.6544e-05	1.8922e-05	826.84	310.77	1.5928e-05	2.1387e-05	352.82	170.8	132.52	60.887	2.0543e-05	82.297	103.320	134.818	-83.687	-159.781	13.458	-24.358	-161.359	-154.970	-5.868	-50.481	-157.271	-152.371	-151.187	-146.720	-28.916	-149.370	-8191	255	
26066.520	1	1	0	0	0.094448	0.032152	0.16488	0.07725	0.20563	0.10797	0.17469	0.30735	0.058653	0.13233	0.039746	0.28971	0.10887	0.2956	0.16791	0.31603	-4.1396	-4.6625	-4.2771	-4.7771	-4.2479	-4.3104	-4.8521	-4.2542	-4.425	-4.5563	-4.25	-4.7292	-4.6396	-4.4104	-4.6771	-4.2708	104.310	-52.523	130.539	121.285	149.440	-168.785	-120.838	174.425	65.070	97.080	82.432	171.983	111.739	117.128	-168.855	112.967	0.00070407	0.011884	0.00016628	723.56	4.2286e-06	6.4898e-06	722.45	291.78	4.9234e-06	3.4889e-06	333.82	150.92	123.99	57.166	8.626e-06	77.279	0.0011057	0.03886	0.00043096	765.11	1.5264e-05	1.6853e-05	810.16	311.47	1.4473e-05	2.1027e-05	353.88	174.16	133.42	61.47	1.7969e-05	83.03	-106.802	88.661	-82.635	-159.907	4.155	-16.282	-161.318	-155.054	-16.276	-34.646	-157.291	-151.862	-151.087	-146.746	-31.546	-149.454	-8191	255	
26066.615	1	1	0	0	0.054346	0.17791	0.16959	0.25422	0.092637	0.072736	0.22527	0.29869	0.19257	0.098518	0.091483	0.48401	0.17172	0.073932	0.19751	0.18549	-4.0375	-4.5771	-4.0917	-4.6312	-4.4771	-4.2292	-4.8063	-4.3146	-4.2771	-4.7979	-4.1729	-4.6833	-4.6271	-4.3187	-4.8833	-4.375	84.587	56.902	-150.392	75.128	114.022	-145.667	-168.729	180.594	-94.952	-42.873	14.342	-164.265	-170.482	150.184	-155.325	179.199	0.00069517	0.0084999	0.0001157	724.77	5.1448e-06	5.4756e-06	730.26	293.2	4.4992e-06	3.6045e-06	334.48	150.67	124.06	57.288	4.6783e-06	77.613	0.0010487	0.029048	0.00041702	766.92	1.536e-05	1.6667e-05	833.41	312.21	1.4107e-05	1.9143e-05	355.78	164.02	141.48	61.587	1.8678e-05	83.424	-108.251	98.893	-93.984	-159.798	-22.862	-29.527	-161.321	-154.925	-24.297	-35.233	-157.440	-152.094	-151.331	-146.648	-46.683	-149.372	-8191	255	
26066.711	1	1	0	0	0.11631	0.11091	0.19425	0.11046	0.12291	0.17381	0.058371	0.13955	0.22171	0.10231	0.15452	0.09858	0.032845	0.023474	0.2059	0.082828	-4.0875	-4.8333	-4.3812	-4.6937	-4.3458	-4.1687	-4.8208	-4.3875	-4.3479	-4.7125	-4.2625	-4.7083	-4.6021	-4.35	-4.6708	-4.5271	38.032	101.444	101.732	155.598	-27.787	-10.906	-105.557	109.332	-112.114	106.019	-144.815	-138.708	147.530	127.975	-133.119	125.559	0.00068926	0.011917	0.00012074	726.56	2.7774e-06	5.4276e-06	729.14	293.28	4.1231e-06	2.5241e-06	334.7	151.45	125.32	57.15	3.6021e-06	77.753	0.0010604	0.039492	0.00041617	767.58	1.578e-05	1.6592e-05	816.21	312.69	1.4068e-05	2.0888e-05	356.71	162.2	151.31	61.581	1.822e-05	83.408	-107.317	106.353	-84.877	-159.759	-11.915	-21.119	-161.319	-154.969	-19.529	-59.971	-157.358	-152.808	-149.956	-146.749	-32.341	-149.293	-8191	255	
26066.809	1	1	0	0	0.10272	0.24038	0.14495	0.079304	0.10639	0.075136	0.20352	0.12388	0.047144	0.10405	0.14897	0.020359	0.10671	0.21917	0.016966	0.17118	-3.9562	-4.8812	-4.2646	-4.4667	-4.7438	-4.3146	-4.8	-4.5854	-4.2646	-4.7375	-4.2688	-4.5396	-4.7583	-4.2146	-4.6104	-4.6521	13.619	126.775	3.894	64.633	62.228	76.148	110.893	93.255	-25.185	-108.382	123.019	115.401	51.904	125.619	96.103	104.781	0.00068364	0.0091121	0.00012033	724.28	2.7212e-06	6.5305e-06	720.17	294.99	3.681e-06	5.9335e-06	333.22	149.3	124.18	56.821	6.6873e-06	76.986	0.0010392	0.029234	0.00042766	766.97	1.7571e-05	1.7126e-05	818.78	312.67	1.3787e-05	1.9297e-05	354.3	160.69	145.96	61.211	1.7676e-05	82.747	-106.725	110.990	-88.144	-159.781	15.147	-28.322	-160.710	-155.587	-12.598	-29.115	-157.173	-152.995	-150.380	-146.626	-45.439	-149.454	-8191	255	
26066.928	1	1	0	0	0.095505	0.10676	0.063635	0.11039	0.10499	0.24078	0.035506	0.27243	0.065407	0.026988	0.16927	0.068066	0.0965	0.22251	0.11893	0.17093	-3.7375	-4.8208	-4.3729	-4.4854	-4.7937	-4.1354	-4.6021	-4.7146	-3.9792	-4.8063	-4.4417	-4.4187	-4.875	-4.2396	-4.6583	-4.7167	90.966	177.933	44.559	-60.982	166.179	-2.530	-73.480	76.680	-66.757	-142.186	173.480	-161.686	-96.860	150.729	128.743	137.795	0.00071688	0.01182	0.00011964	721.38	3.5297e-06	4.34e-06	711.36	293.39	5.0091e-06	5.1044e-06	330.85	150.16	124.72	56.915	4.9553e-06	77.063	0.0010677	0.03949	0.00046244	762.02	1.6514e-05	1.7503e-05	761.27	322.38	1.4244e-05	2.096e-05	352.46	160.49	150.26	61.188	1.5671e-05	82.739	-108.361	119.769	-71.142	-159.801	-3.980	-30.024	-160.553	-155.549	-32.461	-13.246	-157.147	-153.030	-150.044	-146.796	-40.873	-149.278	-8191	255	
26067.000	1	1	0	0	0.18584	0.081329	0.095467	0.12234	0.12674	0.061027	0.033237	0.28831	0.11667	0.11084	0.15482	0.094917	0.29319	0.042362	0.11932	0.20769	-3.9875	-4.8354	-4.4167	-4.5437	-4.8313	-4.1667	-4.7208	-4.7771	-4.0771	-4.7521	-4.55	-4.425	-4.8313	-4.3708	-4.5625	-4.5979	-130.156	39.896	114.806	-146.464	70.967	16.334	59.654	90.378	-83.621	113.026	118.152	-170.275	68.290	-40.237	-16.908	156.430	0.00067933	0.0078523	0.00011621	718.2	3.9669e-06	5.5234e-06	707.9	294.32	5.1944e-06	5.6647e-06	330.56	149.51	123.58	57.081	5.561e-06	77.105	0.0010724	0.029085	0.00044886	760.48	1.7564e-05	1.7678e-05	749.09	333.85	1.4582e-05	1.9749e-05	352.52	160.21	145.33	61.318	1.6139e-05	82.882	-107.472	127.332	-91.635	-159.657	-1.999	-8.833	-160.975	-154.911	-43.894	-29.846	-157.146	-153.037	-150.162	-146.744	-33.513	-149.327	-8191	255	
26067.096	1	1	0	0	0.17065	0.083073	0.30802	0.075424	0.044022	0.086059	0.16923	0.16222	0.12088	0.12248	0.1562	0.17124	0.11321	0.061401	0.083037	0.089179	-3.7021	-4.7146	-4.4542	-4.3187	-4.8896	-4.2792	-4.5167	-4.6937	-4.3083	-4.5708	-4.4854	-4.3	-4.9375	-4.3271	-4.3292	-4.8271	-155.449	111.632	81.893	174.289	-131.902	-36.380	108.066	65.688	36.184	-78.015	168.553	-121.277	135.000	57.847	50.778	57.707	0.00068317	0.0049296	0.0036237	716.86	3.9455e-06	4.0509e-06	708.34	294.11	3.053e-06	3.194e-06	333.22	149.25	123.48	56.797	4.7584e-06	77.584	0.0010878	0.030582	0.0013069	759.73	1.6468e-05	1.8422e-05	750.19	328.11	1.4734e-05	1.9063e-05	353.52	160.7	150.27	61.265	1.6001e-05	83.298	-106.011	29.916	155.624	-159.583	-7.689	-61.588	-160.939	-154.848	-50.068	-28.247	-157.186	-152.979	-149.659	-146.659	-36.116	-149.313	-8191	255	
26067.217	1	1	0	0	0.11588	0.134	0.064517	0.13873	0.034235	0.28976	0.27896	0.052957	0.019702	0.11577	0.096171	0.083507	0.10578	0.093105	0.03014	0.047642	-3.825	-4.7312	-4.4812	-4.3562	-4.8021	-4.4396	-4.35	-4.8146	-4.1125	-4.6625	-4.525	-4.2188	-4.7792	-4.3979	-4.2354	-4.7854	-69.059	13.769	28.993	-140.582	-74.794	98.164	119.698	168.689	10.210	-44.700	102.840	-130.201	10.440	28.052	140.807	97.208	0.00071282	0.0027631	0.002583	720.47	3.866e-06	5.0361e-06	709.96	295.33	3.7983e-06	6.8659e-06	334.29	150.48	123.59	57.042	4.1127e-06	78.021	0.001089	0.0055643	0.0059055	761.48	1.7744e-05	1.8579e-05	752.92	335.48	1.4958e-05	1.7591e-05	355.29	161.49	146.1	61.368	1.6013e-05	83.625	-106.237	23.631	159.534	-159.846	-7.495	-40.929	-161.073	-154.769	-24.128	-36.232	-157.208	-152.788	-150.119	-146.577	-28.860	-149.348	-8191	255	
26067.312	1	1	0	0	0.076445	0.1258	0.21296	0.081336	0.069199	0.077358	0.19258	0.17901	0.11152	0.20229	0.18933	0.33401	0.025889	0.11019	0.065525	0.16293	-4.025	-4.4083	-4.5479	-4.1542	-4.6917	-4.4437	-4.5083	-4.875	-4.1354	-4.4479	-4.6354	-4.25	-4.6396	-4.5958	-4.1833	-4.9437	-110.166	-4.240	45.896	63.250	28.071	0.867	114.195	160.274	-144.134	-165.119	16.546	135.736	-141.459	182.078	140.663	66.573	0.00069368	0.00063238	0.0034132	716.71	4.9752e-06	3.9102e-06	707.74	294.34	4.9673e-06	4.9833e-06	332.42	149.24	124.28	56.502	5.0176e-06	77.454	0.0010907	0.0015411	0.011175	759.68	1.6792e-05	1.8318e-05	750.85	328.44	1.5141e-05	1.7128e-05	354.16	160.78	145.29	61.817	1.5943e-05	83.182	-107.627	-91.542	146.943	-159.853	-1.899	-20.923	-161.139	-154.780	-32.062	-33.824	-157.296	-152.928	-149.727	-146.735	-22.224	-149.414	-8191	255	
26067.408	1	1	0	0	0.20086	0.056488	0.10375	0.14806	0.11266	0.04081	0.16286	0.076901	0.071806	0.24344	0.12978	0.086291	0.37119	0.14243	0.1165	0.24284	-3.9042	-4.3646	-4.7292	-4.1	-4.6479	-4.5312	-4.35	-4.8396	-4.2562	-4.3854	-4.9271	-4.2708	-4.7125	-4.6583	-4.0729	-5.0125	-83.816	89.130	-167.243	145.813	-155.922	-124.521	129.893	-151.433	162.362	-66.037	153.957	89.697	148.909	151.969	115.265	108.430	0.00071666	0.00046927	0.0024745	715.88	4.3113e-06	4.0631e-06	706.01	293.45	4.692e-06	6.1634e-06	332.32	149.36	123.7	56.706	4.8192e-06	77.418	0.0011075	0.0015159	0.0082302	757.18	1.5517e-05	1.9279e-05	746.71	334.01	1.5406e-05	1.6803e-05	353.45	160.17	133.83	63.617	1.615e-05	83.157	-106.928	-65.628	159.083	-159.810	-8.757	-53.700	-160.753	-154.724	-20.080	-48.709	-157.216	-153.044	-149.647	-146.865	-38.508	-149.237	-8191	255	
26067.506	1	1	0	0	0.18401	0.26938	0.2291	0.16918	0.042365	0.024464	0.25775	0.08039	0.23412	0.19593	0.1202	0.082698	0.2609	0.17972	0.20078	0.21161	-3.8875	-4.25	-4.7375	-4.2667	-4.5396	-4.5646	-4.2917	-4.7271	-4.2917	-4.3187	-4.8396	-4.2708	-4.5208	-4.7667	-3.8812	-4.8729	59.067	-54.207	24.629	-145.211	-71.300	51.557	-130.678	158.326	55.486	-109.872	100.000	-153.406	105.156	137.221	-7.388	63.153	0.00066651	0.00055149	0.0033945	716.13	4.6248e-06	4.6457e-06	705.89	293.3	5.4291e-06	5.8019e-06	333.43	149.41	123.98	56.758	5.9061e-06	78.056	0.0011102	0.00148	0.011178	755.81	1.3832e-05	2.0077e-05	747.24	327.5	1.4934e-05	1.6104e-05	354	160.84	133.05	65.935	1.5908e-05	83.676	-105.843	-97.770	162.177	-159.820	-1.078	3.264	-160.914	-154.604	-26.140	-21.269	-157.221	-152.893	-150.982	-145.995	-40.005	-149.254	-8191	255	
26067.600	1	1	0	0	0.22047	0.2132	0.21991	0.28647	0.1703	0.10786	0.071057	0.13078	0.12633	0.26801	0.1055	0.23868	0.22641	0.14148	0.23136	0.48236	-4.1417	-4.1062	-4.7083	-4.2396	-4.5563	-4.6292	-4.3187	-4.85	-4.5354	-4.1854	-4.9208	-4.3562	-4.3583	-4.7958	-4.0938	-4.9062	23.756	10.485	147.084	154.262	186.818	79.452	120.588	-164.832	-124.489	-5.208	187.149	146.314	-12.162	150.941	-104.161	120.443	0.0007085	0.00065907	0.0024595	712.84	5.4794e-06	4.6636e-06	706.77	291.77	3.3195e-05	5.5281e-06	333.17	150.87	123.75	56.952	2.6569e-06	78.111	0.0010861	0.0014864	0.0082514	754.93	1.3634e-05	2.1299e-05	747.47	325.65	7.2196e-05	1.6756e-05	354.49	161.53	133.22	64.813	1.6101e-05	83.895	-107.185	-84.448	166.869	-159.836	-12.760	8.526	-160.869	-154.309	-61.389	-9.894	-157.283	-152.866	-151.232	-146.191	-59.930	-149.162	-8191	255	
26067.695	1	1	0	0	0.099987	0.076982	0.18593	0.10966	0.17487	0.094091	0.18799	0.11026	0.17921	0.06074	0.11989	0.17806	0.24387	0.117	0.10957	0.20702	-4.3583	-4.2104	-4.625	-4.3625	-4.1833	-4.6	-4.2688	-4.525	-4.5604	-4.2146	-4.8958	-4.4625	-4.2542	-4.8417	-4.2667	-4.7896	148.291	77.200	-157.321	149.046	-137.652	5.909	-161.100	114.955	58.153	150.365	30.356	180.087	134.787	175.663	25.251	71.116	0.00070336	0.00052717	0.0033526	712.58	5.3303e-06	4.6752e-06	709.83	292.11	1.6573e-05	3.8139e-06	333.86	151.09	124.04	56.96	4.4106e-06	78.301	0.0011583	0.0014791	0.011147	755.86	1.3563e-05	2.0272e-05	749.81	310.94	0.00021211	1.6834e-05	356.16	161.92	133.5	66.12	1.6107e-05	84.181	-107.183	-88.187	173.386	-159.908	-19.819	-7.006	-160.969	-154.574	-54.049	-43.209	-157.301	-153.075	-151.135	-146.415	-27.537	-149.297	-8191	255	
26067.816	1	1	0	0	0.018766	0.34575	0.089993	0.12361	0.098575	0.26737	0.23511	0.15515	0.35345	0.2325	0.17747	0.175	0.16758	0.023066	0.12403	0.16362	-4.2208	-4.2333	-4.6562	-4.5667	-4.3604	-4.8104	-4.3667	-4.6292	-4.7583	-3.9729	-4.8083	-4.7417	-4.2479	-4.9542	-4.2708	-4.6542	22.752	-130.808	40.074	-94.755	-163.672	66.653	95.746	124.105	3.162	36.746	-170.424	141.854	165.833	-166.061	105.655	99.295	0.00071947	0.00054632	0.0025954	714.32	3.829e-06	3.4855e-06	710.14	291.11	9.0826e-05	6.4232e-06	331.34	149.91	124.23	56.792	3.8488e-06	77.66	0.0011985	0.0015547	0.0082806	756.8	1.3727e-05	2.1774e-05	750.09	310.38	0.00035539	1.763e-05	354.74	161.19	133.27	64.791	1.6287e-05	83.516	-104.424	-94.327	184.708	-159.888	-9.931	-8.077	-160.915	-155.012	22.062	-27.665	-157.104	-152.968	-151.223	-146.505	-31.241	-149.441	-8191	255	
26067.912	1	1	0	0	0.075282	0.13389	0.18448	0.22719	0.057631	0.17397	0.29962	0.41026	0.12313	0.27641	0.048302	0.1444	0.11714	0.05671	0.14935	0.22092	-4.4333	-4.1562	-4.6792	-4.5437	-4.1271	-4.7667	-4.1979	-4.4958	-4.7271	-4.2188	-4.8667	-4.7438	-4.3521	-4.8417	-4.0542	-4.5792	-108.812	-113.269	-109.189	-126.780	-146.421	88.657	85.433	177.233	-50.644	-131.688	14.573	-134.679	182.309	-115.358	-128.155	95.256	0.00071154	0.00050104	0.00078529	717.47	6.7452e-06	3.4884e-06	703.95	290.81	6.8625e-05	6.0117e-06	332.02	149.21	123.69	56.422	4.1941e-06	77.508	0.0012191	0.0015559	0.0072069	771.21	1.3954e-05	1.9753e-05	745.87	309.4	0.0002612	1.7249e-05	353.05	160.31	132.67	65.666	1.6864e-05	83.145	-104.875	-85.336	-80.631	-160.580	-32.815	-28.157	-160.946	-154.936	24.791	-20.704	-157.120	-152.950	-151.000	-146.453	-22.094	-149.442	-8191	255	
26068.010	1	1	0	0	0.16313	0.043406	0.21429	0.13614	0.23003	0.10449	0.090213	0.28178	0.15951	0.041751	0.11822	0.16168	0.19023	0.27303	0.13524	0.15814	-4.3938	-4.0021	-4.3896	-4.825	-4.1188	-4.8562	-4.5146	-4.3917	-4.8208	-4.1083	-4.5917	-4.6771	-4.2562	-4.8521	-4.4563	-4.4187	-115.928	-36.027	-138.643	-18.752	169.907	90.461	128.264	52.716	62.613	78.663	68.050	45.270	139.702	64.327	80.482	140.039	0.00069515	0.00046829	0.00069155	716.26	5.1586e-06	4.2442e-06	704	290.82	8.8201e-05	6.7476e-06	331.72	149.63	123.98	56.899	6.4492e-06	77.91	0.0011904	0.0015532	0.00050071	798.01	1.429e-05	2.0935e-05	744.33	309.3	0.00035401	1.7296e-05	353.64	160.68	133.11	64.72	1.657e-05	83.523	-106.818	-76.344	-93.186	-160.352	-21.231	-48.545	-161.208	-155.197	32.618	-18.974	-157.411	-152.786	-151.004	-146.453	-38.218	-149.146	-8191	255	
26068.105	1	1	0	0	0.15936	0.063207	0.16755	0.18671	0.028838	0.045946	0.2723	0.2592	0.048524	0.21717	0.088571	0.22036	0.12499	0.12936	0.23267	0.40025	-4.4458	-4.2729	-4.4354	-4.7417	-4.1229	-4.5542	-4.6021	-4.3604	-4.825	-4.1438	-4.3771	-4.7438	-4.2521	-4.6479	-4.4833	-4.2229	59.102	36.362	1.515	126.985	-170.543	113.790	92.415	169.366	171.531	9.864	-122.469	40.744	-106.268	131.728	-153.664	137.938	0.00070876	0.00039435	0.00018096	722.84	5.0737e-06	5.7429e-06	704.89	290.99	6.8247e-05	7.5488e-06	331.67	150.5	123.79	57.113	0.00011293	78.098	0.0012299	0.0015094	0.00041948	827.96	1.4404e-05	1.9878e-05	746.67	309.47	0.00026167	1.7327e-05	353.53	161.29	133.24	64.151	0.00011307	83.816	-106.853	-88.213	-78.155	-160.513	-18.875	-21.130	-160.818	-155.059	37.890	-20.929	-157.237	-152.845	-150.925	-146.101	-161.114	-149.282	-8191	255	
26068.225	1	1	0	0	0.11915	0.11791	0.31902	0.24747	0.15924	0.057398	0.13952	0.22918	0.25997	0.1587	0.19178	0.062113	0.32811	0.19744	0.21109	0.19446	-4.4917	-4.2354	-4.2917	-4.8042	-4.0687	-4.5979	-4.8146	-4.1625	-4.8063	-4.3979	-4.2688	-4.7292	-4.2854	-4.7979	-4.6354	-4.2021	-80.614	-12.762	31.267	96.022	56.257	-39.916	124.157	55.265	100.125	31.834	68.307	110.430	149.227	107.230	-116.903	112.514	0.00070163	0.00070734	8.7666e-05	722.71	4.7399e-06	4.8492e-06	708.15	291.71	9.5151e-05	5.4998e-06	335.37	150.57	124.72	57.48	8.9106e-05	78.322	0.0011657	0.0016101	0.00040267	810.2	1.4847e-05	1.7985e-05	750.02	310.12	0.00035335	1.7959e-05	356.03	161.81	133.58	61.717	0.0002587	84.094	-106.938	-101.338	-74.466	-160.560	-26.870	-27.553	-161.136	-154.959	47.376	-10.833	-157.211	-153.023	-151.053	-146.689	-157.086	-149.262	-8191	255	
26068.297	1	1	0	0	0.087554	0.29371	0.15822	0.080785	0.085765	0.16814	0.094949	0.14148	0.16142	0.14692	0.13317	0.1882	0.22127	0.20674	0.022058	0.18161	-4.4271	-4.325	-4.2417	-4.7979	-4.1229	-4.4062	-4.5854	-4.2438	-4.8	-4.5625	-4.2979	-4.875	-4.3125	-4.5375	-4.6562	-4.0167	97.237	-118.374	-125.735	67.303	107.226	99.266	93.446	-135.178	185.395	-51.906	186.433	171.144	62.441	-79.351	-30.996	50.689	0.00070176	0.00066239	0.00011084	728.39	4.8235e-06	4.3092e-06	710.17	292.54	6.5243e-05	6.0039e-06	335.01	150.54	125.06	57.352	0.00011726	78.084	0.0012234	0.0015995	0.0004288	831.28	1.4317e-05	1.6777e-05	751.16	310.81	0.00026192	1.7875e-05	355.73	161.54	133.76	61.607	0.00039041	83.684	-106.628	-82.544	-74.987	-160.377	-32.731	-20.456	-161.004	-154.947	50.806	-18.405	-157.264	-152.739	-151.051	-146.436	161.711	-149.344	-8191	255	
26068.393	1	1	0	0	0.23811	0.13838	0.10637	0.19383	0.28852	0.15449	0.053321	0.20485	0.055438	0.089287	0.1882	0.071196	0.051806	0.49115	0.035243	0.085266	-4.3562	-4.4458	-4.2271	-4.675	-4.1937	-4.6333	-4.6167	-4.2354	-4.6208	-4.6229	-4.2583	-4.8833	-4.4583	-4.5396	-4.8562	-4.2479	-65.139	-118.562	-38.063	144.340	62.279	-140.946	142.119	112.477	170.574	4.034	131.657	-27.548	-98.814	-160.815	-88.476	31.194	0.00069335	0.00042172	0.00016155	721.93	4.4674e-06	6.1705e-06	706.21	290.38	0.00010059	2.5312e-05	332.8	149.83	124.36	57.303	7.6841e-05	77.803	0.001167	0.0015685	0.00043252	809.03	1.4461e-05	1.6823e-05	747.1	309.2	0.00020032	0.00014653	353.48	160.96	133.4	61.539	0.00028932	83.365	-108.446	-69.678	-93.514	-160.201	3.386	-30.357	-161.018	-154.854	45.598	152.105	-157.240	-152.872	-151.181	-146.550	170.502	-149.331	-8191	255	
26068.488	1	1	0	0	0.17982	0.032221	0.10885	0.1302	0.18152	0.14934	0.077697	0.21967	0.13293	0.07258	0.054298	0.21493	0.13044	0.12755	0.17683	0.22315	-4.2417	-4.5	-3.9958	-4.8771	-4.2292	-4.2417	-4.9812	-4.2125	-4.6792	-4.6146	-4.2875	-4.7146	-4.3583	-4.4146	-4.7396	-4.3375	79.636	136.469	97.972	115.874	55.616	-91.621	181.069	138.713	70.845	-63.701	101.825	163.296	131.567	113.191	21.118	155.251	0.00071693	0.00046477	0.00012521	725.16	6.9222e-06	5.0292e-06	701.73	290.28	4.1454e-06	2.0148e-05	332.48	149.63	124.27	57.32	0.0001092	77.658	0.0010962	0.00179	0.00042977	827.47	1.5191e-05	1.7258e-05	745.52	309.21	1.4268e-05	0.00030885	353.63	160.69	133.26	61.531	0.00039029	83.379	-106.402	-73.727	-80.724	-160.297	-14.730	-31.853	-160.996	-154.992	-28.383	145.684	-156.950	-152.861	-150.993	-146.594	178.598	-149.344	-8191	255	
26068.607	1	1	0	0	0.12445	0.18148	0.18637	0.07145	0.053292	0.098668	0.20274	0.21939	0.40163	0.093504	0.21601	0.0837	0.076837	0.14893	0.1359	0.13461	-4.2438	-4.6062	-4.1708	-4.8021	-4.5062	-4.2	-4.9667	-4.4854	-4.4854	-4.7083	-4.2458	-4.9104	-4.5854	-4.5125	-4.7708	-4.4479	73.963	18.171	177.644	-99.729	-142.422	13.789	177.516	143.568	-20.163	-75.461	65.175	-96.019	-38.262	67.161	168.412	124.744	0.00068952	0.00060022	0.00018326	721.1	5.53e-06	6.319e-06	703.19	290.94	4.4916e-06	0.0001528	332.36	150.28	124.51	57.56	8.757e-05	77.962	0.001084	0.0018134	0.00043762	806.53	1.4426e-05	1.7418e-05	746.66	309.95	1.4356e-05	0.00045194	354.12	161.29	133.62	61.774	0.00029144	83.792	-106.599	-63.151	-74.073	-159.948	-22.204	-29.241	-161.055	-154.987	-32.299	52.221	-157.148	-152.915	-151.246	-146.477	184.788	-149.274	-8191	255	
26068.703	1	1	0	0	0.20144	0.12893	0.083273	0.20957	0.036435	0.19754	0.22752	0.2192	0.13294	0.092027	0.1037	0.19093	0.10227	0.18677	0.075893	0.27864	-3.9375	-4.7854	-4.4167	-4.6583	-4.5708	-4.2229	-4.9354	-4.3229	-4.3604	-4.7458	-4.2396	-4.7167	-4.5604	-4.2208	-4.7167	-4.4646	173.798	33.240	-13.959	-132.879	-39.203	-60.380	137.435	151.123	-92.979	-129.043	-94.727	179.310	-23.628	79.496	-98.794	150.837	0.00069442	0.00043202	0.00012318	720.96	7.6244e-05	3.5773e-06	709.25	292.03	4.2048e-06	0.00010282	332.63	150.82	124.14	57.601	0.00011786	78.314	0.0010659	0.0019024	0.0004323	792.55	0.00013292	1.7901e-05	749.94	310.69	1.42e-05	0.00033617	354.45	161.64	133.78	61.92	0.00039451	84.171	-108.633	-78.202	-80.918	-159.466	-79.390	-56.521	-160.997	-155.033	-18.138	58.879	-157.195	-153.052	-150.952	-146.660	-171.902	-149.032	-8191	255	
26068.801	1	1	0	0	0.17686	0.21051	0.088447	0.21235	0.089307	0.12486	0.066154	0.22232	0.13962	0.15981	0.30981	0.28382	0.11566	0.18205	0.14179	0.21868	-4.1208	-4.8208	-4.0979	-4.6208	-4.6896	-4.1875	-4.8771	-4.5354	-4.2937	-4.8104	-4.2271	-4.7208	-4.7542	-4.2688	-4.5396	-4.5708	-42.856	41.085	133.039	68.524	-172.130	-117.027	-43.824	98.755	-143.094	-19.118	-143.959	177.211	-149.505	175.114	23.604	154.444	0.00069982	0.00056501	0.00014689	718.95	5.0326e-05	6.3032e-06	711.96	291.69	3.4645e-06	0.00014128	332.35	150.06	124.58	57.565	8.2483e-05	78.072	0.0010807	0.0018468	0.00044367	756.41	0.00025793	1.7724e-05	751.18	309.8	1.4313e-05	0.00045458	354.15	161.26	133.64	61.779	0.00029214	83.941	-106.297	-92.585	-46.381	-159.913	-74.933	-15.029	-160.964	-154.849	-32.976	66.353	-157.224	-152.890	-151.208	-146.580	-162.106	-149.442	-8191	255	
26068.896	1	1	0	0	0.1283	0.094382	0.17908	0.36819	0.14912	0.11538	0.10817	0.18707	0.16186	0.26716	0.074341	0.19938	0.10232	0.2005	0.12311	0.18334	-3.975	-4.9104	-4.2937	-4.4917	-4.6937	-4.1479	-4.8229	-4.5958	-4.2646	-4.8187	-4.4792	-4.5833	-4.8396	-4.3125	-4.6813	-4.6292	-155.386	138.212	-126.791	165.456	63.002	167.913	-171.466	-135.164	-74.362	-2.215	153.888	152.981	103.877	136.913	-3.610	57.764	0.0006907	0.00060472	0.00017879	715.11	0.00011319	3.6978e-06	704.62	290.37	4.3195e-06	9.9789e-05	332.2	150.19	124.28	57.422	3.6778e-05	77.843	0.0010582	0.0019375	0.0004331	756	0.00035787	1.7789e-05	746.64	309.2	1.4759e-05	0.00033555	352.48	160.82	133.46	61.676	0.00018641	85.799	-106.188	-71.791	-89.856	-159.782	-34.813	-22.268	-160.843	-154.991	-33.356	73.821	-157.490	-153.129	-151.027	-146.597	102.339	-150.146	-8191	255	
26068.992	1	1	0	0	0.26409	0.19792	0.13725	0.012473	0.18964	0.28925	0.091623	0.1827	0.24151	0.057093	0.2693	0.27288	0.10742	0.13094	0.061792	0.092084	-3.9042	-4.7542	-4.3354	-4.4479	-4.7542	-4.3	-4.7	-4.7521	-4.0146	-4.7375	-4.4313	-4.5667	-4.85	-4.2583	-4.5333	-4.8479	-89.912	105.454	79.564	-21.147	-166.001	159.766	27.968	133.600	56.179	89.555	183.502	173.706	-140.650	80.741	39.300	164.602	0.0007065	0.0005777	0.00016144	711.56	7.5293e-05	5.3825e-06	700.33	290.32	4.6587e-06	0.00013678	331.72	150.33	124.42	57.676	5.6923e-06	77.57	0.0010735	0.0017725	0.00043252	753.37	0.00026381	1.7377e-05	742.95	308.99	1.4743e-05	0.00045014	352.42	160.9	133.58	61.831	1.5538e-05	87.86	-107.748	-89.914	-77.822	-159.628	-29.903	-32.269	-160.931	-155.090	-50.308	80.877	-157.216	-152.839	-150.895	-146.629	-23.252	-149.731	-8191	255	
26069.090	1	1	0	0	0.14572	0.1024	0.097874	0.45903	0.19843	0.091063	0.24	0.14673	0.18314	0.16687	0.12312	0.17658	0.097542	0.32517	0.13037	0.16284	-3.8042	-4.6333	-4.3083	-4.3292	-4.8417	-4.2604	-4.6875	-4.7562	-4.1062	-4.7583	-4.7021	-4.425	-4.7646	-4.3812	-4.6021	-4.8063	-138.350	96.871	-88.121	142.393	-23.967	119.990	38.825	186.004	171.716	87.104	118.481	127.786	178.222	165.246	12.759	125.741	0.00072645	0.00036034	0.00013316	713.75	0.00011906	6.4008e-06	703.25	290.93	4.3965e-06	9.7434e-05	333.51	150.6	125.07	57.673	5.4686e-06	78.085	0.0011047	0.0018668	0.00043232	755.22	0.00035659	1.7167e-05	745.19	310.15	1.4911e-05	0.00033445	353.93	161.42	133.95	61.887	1.553e-05	89.852	-107.919	-68.974	-60.924	-159.533	-23.630	-15.290	-161.031	-155.239	-30.112	80.577	-157.223	-152.830	-150.981	-146.572	-33.140	-150.133	-8191	255	
26069.186	1	1	0	0	0.21246	0.23972	0.1421	0.071219	0.21097	0.19758	0.16671	0.1028	0.14046	0.1863	0.2793	0.1722	0.29633	0.21303	0.11136	0.14729	-3.7313	-4.6188	-4.4354	-4.3667	-4.7104	-4.2479	-4.475	-4.9104	-4.2458	-4.4583	-4.5437	-4.2583	-4.7792	-4.4229	-4.3792	-4.8833	183.518	-76.295	-87.616	128.302	152.179	68.904	118.472	170.526	-159.349	186.267	182.028	172.029	125.514	113.647	170.957	160.179	0.00071863	0.00079103	8.9049e-05	714.39	7.9318e-05	5.7473e-06	707.34	292.33	5.5964e-06	0.00015201	330.15	150.98	124.65	57.591	4.5152e-06	78.536	0.0010952	0.0016684	0.00044046	755.92	0.00026457	1.7119e-05	748.04	311.49	1.4893e-05	0.00019558	372.01	161.72	134.08	61.839	1.5785e-05	88.449	-108.409	-72.300	-60.167	-159.703	-15.819	-36.730	-160.917	-155.009	-30.590	52.651	-157.614	-153.119	-151.213	-146.761	-48.116	-149.789	-8191	255	
26069.307	1	1	0	0	0.083982	0.14984	0.090544	0.054635	0.30395	0.26449	0.099408	0.18461	0.099773	0.21994	0.17658	0.34012	0.19266	0.18353	0.047143	0.085912	-3.6937	-4.5229	-4.4958	-4.2771	-4.8125	-4.4958	-4.35	-4.9	-4.1271	-4.5417	-4.8354	-4.0979	-4.8208	-4.5437	-4.25	-4.8146	73.326	172.264	-80.853	140.056	-170.468	75.431	-61.352	174.985	-128.350	20.704	-166.906	156.993	-7.795	137.260	79.998	-91.235	0.00072177	0.00048214	0.00010442	718.13	0.00011255	8.0649e-06	708.73	292.69	5.6213e-06	5.6443e-06	333.21	151.23	124.97	57.565	4.7994e-06	78.702	0.0011127	0.0015227	0.00050754	758.17	0.00035832	1.8156e-05	752.02	312.33	1.4341e-05	1.6626e-05	386.03	162.14	134.1	61.913	1.597e-05	90.117	-106.926	-70.211	-75.921	-159.764	-10.801	-18.892	-160.710	-155.071	-22.928	-49.071	-156.966	-153.008	-151.151	-146.594	-32.383	-149.859	-8191	255	
26069.402	1	1	0	0	0.15391	0.13567	0.15223	0.24308	0.23443	0.19542	0.022094	0.13193	0.11976	0.089031	0.081251	0.071469	0.030177	0.090709	0.056405	0.18315	-4.0271	-4.375	-4.5312	-4.3042	-4.7292	-4.2958	-4.2729	-4.8625	-4.1687	-4.4167	-4.7542	-4.2333	-4.7125	-4.625	-4.0333	-4.9104	-123.291	101.855	-80.335	-153.008	-40.307	-165.426	120.823	165.202	-61.294	-51.444	-15.499	-70.644	23.978	155.138	-45.597	139.098	0.00069294	0.00040985	0.00012924	721.01	7.6437e-05	4.8739e-06	709.19	293.49	4.5661e-06	5.2064e-06	330.16	149.84	124.21	57.257	4.7267e-06	77.785	0.0010597	0.0014653	0.00051143	760.01	0.00026102	1.7277e-05	748.82	312.57	1.441e-05	1.6588e-05	394.85	160.9	133.57	61.593	1.6032e-05	87.711	-107.805	-65.058	-77.095	-159.811	17.054	-27.319	-160.892	-155.098	-31.841	-20.965	-157.125	-152.968	-151.438	-146.653	-51.244	-149.917	-8191	255	
26069.498	1	1	0	0	0.27437	0.15842	0.20121	0.13133	0.064284	0.17118	0.14139	0.16088	0.0827	0.26664	0.29282	0.13548	0.31703	0.24221	0.14678	0.25968	-3.9562	-4.3417	-4.7125	-4.3333	-4.625	-4.4792	-4.1771	-4.7917	-4.5292	-4.2833	-4.7188	-4.2604	-4.6833	-4.7083	-4.0958	-4.9208	-65.770	-41.349	55.890	127.090	-60.694	2.516	129.328	129.663	-77.055	11.562	171.462	-131.926	127.450	163.316	-149.828	-170.760	0.00068566	0.00057253	8.6294e-05	711.21	0.00010415	4.3732e-05	703.36	291.69	4.5341e-06	6.331e-06	328.76	149.84	124.45	57.177	4.6463e-06	77.967	0.0010613	0.0014835	0.00053411	753.8	0.00013967	0.0002255	745.07	310.89	1.4233e-05	1.6727e-05	383.19	160.77	133.36	61.604	1.5874e-05	89.292	-107.653	-96.194	-52.822	-159.600	19.504	-91.449	-161.142	-155.118	-37.101	-1.167	-157.055	-153.144	-151.227	-146.533	-36.647	-149.875	-8191	255	
26069.594	1	1	0	0	0.11758	0.13402	0.0096985	0.20388	0.037255	0.20035	0.27226	0.1567	0.092072	0.28256	0.14603	0.14915	0.098396	0.090583	0.26319	0.17619	-4.2396	-4.1958	-4.9229	-4.275	-4.5604	-4.625	-4.2104	-4.7104	-4.2917	-4.1562	-4.9104	-4.3	-4.5396	-4.8729	-3.9813	-4.8438	61.657	90.648	-129.080	154.243	119.095	-124.314	62.797	145.493	-162.542	4.257	-163.543	112.261	82.208	156.390	-3.031	62.542	0.0007102	0.000643	0.00013831	714.51	4.0582e-06	0.00011788	705.15	292.41	6.916e-06	5.9776e-06	329.88	149.86	123.92	57.376	5.3343e-06	77.539	0.0010818	0.001451	0.00050805	756.76	1.332e-05	0.00033896	745.69	311.7	1.4869e-05	1.6629e-05	394.51	160.87	133.55	61.697	1.5513e-05	87.549	-106.588	-72.810	-72.278	-159.622	-25.492	-9.647	-160.925	-155.083	-34.629	-19.144	-157.178	-152.743	-150.992	-146.555	-50.573	-149.254	-8191	255	
26069.689	1	1	0	0	0.12154	0.18684	0.11259	0.16336	0.19721	0.17868	0.16047	0.26616	0.042931	0.077838	0.16144	0.20909	0.21331	0.24818	0.24933	0.090435	-4.1646	-4.1646	-4.7354	-4.4167	-4.2979	-4.6562	-4.3625	-4.7333	-4.425	-4.1562	-5.0125	-4.3729	-4.5771	-4.8208	-4.025	-4.6646	43.882	-35.691	-163.297	123.189	-137.505	-25.837	95.878	139.738	-39.587	-64.501	-122.989	3.754	163.426	95.227	101.356	63.456	0.00070316	0.00041697	0.00015261	715.76	5.3476e-06	0.00014522	707.64	293.02	4.2434e-06	3.1321e-06	329.95	149.51	125.07	57.54	4.3454e-06	78.315	0.001079	0.0015412	0.00052816	757.62	1.3561e-05	0.0004551	747.11	312.49	1.4896e-05	1.6827e-05	385.12	161.15	133.98	61.907	1.5368e-05	85.751	-107.314	-90.486	-80.046	-159.542	-9.751	-3.922	-161.067	-155.255	-38.610	-53.006	-157.384	-152.659	-151.221	-146.660	-32.270	-149.315	-8191	255	
26069.785	1	1	0	0	0.11223	0.15632	0.19698	0.099605	0.061153	0.22033	0.063035	0.13324	0.19492	0.12013	0.048703	0.24804	0.3189	0.22292	0.12813	0.068833	-4.025	-4.05	-4.7875	-4.3375	-4.3063	-4.65	-4.3104	-4.5938	-4.425	-4.2083	-4.8396	-4.6104	-4.3396	-4.8187	-4.2292	-4.6438	-27.704	-148.643	111.772	39.827	51.084	-141.844	134.229	163.394	155.306	70.161	130.339	137.206	173.755	156.644	-48.741	62.304	0.0020164	0.00039627	0.0001039	717.87	2.4943e-06	0.00010449	710.38	294.29	5.4882e-06	5.8855e-06	331.77	151.18	124.44	57.719	6.0627e-06	78.395	0.0086284	0.0015407	0.000475	759.16	1.4085e-05	0.00034019	751.62	313.74	1.7608e-05	1.6964e-05	398.33	162.29	134.28	62.041	1.5083e-05	84.173	-121.347	-62.084	-70.888	-159.944	-19.950	2.280	-160.744	-155.037	-40.650	-39.004	-157.351	-152.943	-151.008	-146.670	-17.444	-149.108	-8191	255	
26069.904	1	1	0	0	0.24098	0.19541	0.11553	0.24327	0.19815	0.066507	0.080413	0.19391	0.064378	0.12067	0.12177	0.096222	0.094876	0.26469	0.13375	0.22525	-4.3	-4.1542	-4.5208	-4.4812	-4.1375	-4.7521	-4.4042	-4.5667	-4.5354	-4.1312	-4.7646	-4.5583	-4.2937	-4.7354	-4.3167	-4.5104	121.783	-132.092	51.487	37.506	12.624	74.187	-42.246	-64.187	159.113	84.012	150.746	94.600	70.270	166.896	-49.224	176.585	0.0015542	0.00049507	0.00010328	718.57	5.1326e-06	0.00014148	709.15	294.89	5.2963e-06	5.1514e-06	335.62	150.37	124.55	57.513	4.4854e-06	77.943	0.011589	0.0015426	0.00050271	760.57	1.3931e-05	0.0004576	751.95	313.4	1.6794e-05	1.6517e-05	383.57	161.65	133.99	61.922	1.4971e-05	83.766	-110.024	-83.108	-53.873	-159.811	-19.038	11.839	-160.976	-154.972	-29.058	-31.985	-156.775	-153.028	-151.154	-146.536	-26.823	-149.543	-8191	255	
26070.002	1	1	0	0	0.26467	0.26332	0.056371	0.071281	0.182	0.16311	0.16881	0.12011	0.1357	0.23561	0.14217	0.097364	0.13056	0.078558	0.086241	0.23558	-4.3833	-4.1312	-4.6625	-4.6958	-4.1562	-4.7708	-4.3958	-4.45	-4.6646	-4.1813	-4.7021	-4.7312	-4.2042	-4.9604	-4.3854	-4.5021	-122.551	151.780	-34.264	173.577	-12.752	4.242	96.474	103.938	36.059	-63.236	-158.513	114.006	175.446	-112.478	90.619	106.464	0.0019756	0.00058136	0.00011507	715.55	4.5168e-06	0.0001026	705.66	293.04	5.2722e-06	6.392e-06	332.39	149.04	124.8	57.274	4.1282e-06	77.724	0.015294	0.0014571	0.00043089	757.65	1.407e-05	0.00033666	746.95	312.1	1.7438e-05	1.6064e-05	367.25	169.92	133.88	61.606	1.5203e-05	83.403	-109.236	-83.722	-70.768	-159.900	-13.323	9.413	-160.923	-155.025	-38.681	-17.029	-156.423	-153.486	-150.964	-146.574	-31.987	-149.170	-8191	255	
26070.098	1	1	0	0	0.10876	0.050317	0.093984	0.16138	0.090541	0.16164	0.10047	0.080079	0.18517	0.14541	0.25479	0.20929	0.087985	0.1118	0.16711	0.17797	-4.4667	-4.2354	-4.5729	-4.6917	-4.0417	-4.6792	-4.5375	-4.5417	-4.7438	-4.1729	-4.5771	-4.6104	-4.2333	-4.7875	-4.3958	-4.3625	-92.888	-80.170	179.605	-150.619	65.162	56.023	60.197	113.235	-164.003	-52.869	92.095	158.822	23.628	72.708	-36.810	-104.337	0.0016322	0.00051212	0.0001692	713.46	4.4773e-06	0.00013958	705.19	292.31	5.3118e-06	7.6881e-06	334.57	148.73	125.05	57.361	5.0712e-06	78.086	0.011442	0.0013848	0.00039789	755.48	1.3681e-05	0.00045331	746.99	311.54	1.6442e-05	1.5548e-05	356.26	172.5	134.03	61.733	1.5569e-05	83.757	-103.839	-78.501	-83.771	-159.693	-12.071	24.821	-160.969	-155.062	-48.097	-12.111	-157.309	-153.379	-151.040	-146.536	-20.284	-149.398	-8191	255	
26070.170	1	1	0	0	0.29559	0.077568	0.16155	0.099854	0.020351	0.17081	0.04734	0.34024	0.22617	0.10778	0.020292	0.093471	0.24825	0.26273	0.12115	0.030054	-4.2479	-4.2208	-4.425	-4.8208	-4.1375	-4.7625	-4.5833	-4.4604	-4.9021	-4.25	-4.4021	-4.7833	-4.1854	-4.7417	-4.4542	-4.2854	78.326	-153.650	179.947	-164.540	-42.415	24.998	141.248	97.490	121.773	-7.685	-157.800	150.785	101.489	108.578	107.803	-5.690	0.0020664	0.00058954	0.00012373	713.64	4.2994e-06	0.0001172	706.83	292.49	5.8838e-06	4.6195e-06	336.45	148.91	124.6	57.476	5.6208e-06	78.312	0.01537	0.0014174	0.0004015	755.32	1.4003e-05	0.0002875	747.89	311.85	1.6752e-05	1.607e-05	357.66	177.4	133.89	61.862	1.6418e-05	84.049	-99.655	-90.458	-54.385	-159.516	-19.896	20.075	-160.841	-154.905	-26.972	-51.082	-157.046	-153.316	-151.084	-146.613	-31.955	-149.242	-8191	255	
26070.289	1	1	0	0	0.1322	0.13241	0.1616	0.2794	0.14871	0.21231	0.068569	0.23306	0.13038	0.23422	0.094733	0.094545	0.28111	0.058257	0.19596	0.096906	-4.3812	-4.375	-4.225	-4.8104	-3.9958	-4.7521	-4.625	-4.2792	-4.6937	-4.3562	-4.5292	-4.8083	-4.1979	-4.6	-4.5437	-4.2312	-0.279	-74.253	105.191	180.664	92.409	-152.486	-148.088	171.392	64.134	-122.395	57.683	-40.635	61.690	153.430	122.847	-163.670	0.0016248	0.00051488	0.00011577	716.15	4.4489e-06	0.00014868	708.53	294.07	4.9992e-06	5.8487e-06	336.83	149.75	124.58	57.682	4.8847e-06	78.654	0.011513	0.0014481	0.00040602	758.35	1.3472e-05	0.00011714	797.56	312.82	1.5573e-05	1.6735e-05	358.48	173.68	133.62	62.008	1.9701e-05	84.516	-95.495	-96.635	-66.083	-159.852	-7.349	24.241	-161.309	-155.182	-25.688	-16.727	-157.272	-153.273	-151.159	-146.527	-26.889	-149.263	-8191	255	
26070.387	1	1	0	0	0.27967	0.19816	0.084343	0.26222	0.44351	0.14121	0.20406	0.069962	0.084507	0.1444	0.20768	0.26556	0.088755	0.14019	0.17158	0.28044	-4.4021	-4.3583	-4.2333	-4.7937	-4.1771	-4.5813	-4.7104	-4.15	-4.6	-4.4854	-4.25	-4.8187	-4.125	-4.4042	-4.7583	-4.275	-5.161	-112.578	22.805	153.646	-152.244	149.732	146.548	54.679	-54.980	33.571	68.766	170.195	75.501	-168.655	-18.191	-172.914	0.0018558	0.00057123	9.3719e-05	714.75	3.2024e-06	4.6462e-06	704.87	293.01	5.8835e-06	7.4205e-06	336.43	149.31	124.54	57.643	3.4757e-06	78.506	0.015347	0.0014993	0.00041387	756.66	1.307e-05	1.5736e-05	808.47	312.08	1.6297e-05	1.7295e-05	358.15	177.97	133.64	61.959	1.8361e-05	84.41	-88.621	-81.000	-88.445	-159.742	-16.833	-18.633	-160.315	-154.976	-34.472	-15.408	-156.916	-153.600	-151.249	-146.595	-51.355	-149.277	-8191	255	
26070.482	1	1	0	0	0.06884	0.035993	0.12744	0.26788	0.14556	0.14701	0.085352	0.28521	0.18236	0.20392	0.27617	0.054302	0.15722	0.11518	0.21564	0.18673	-4.2958	-4.4792	-4.1146	-4.9396	-4.2125	-4.4437	-4.7771	-4.2875	-4.65	-4.5542	-4.3	-4.9146	-4.35	-4.5208	-4.6625	-4.3604	154.886	-66.301	-66.926	163.506	109.152	-112.502	-88.861	-98.611	8.353	62.075	128.425	94.954	163.892	125.647	68.371	162.271	0.00095016	0.0068161	0.00014055	712.46	3.0744e-06	5.2661e-06	703.02	292.18	5.341e-06	5.9969e-06	333.96	148.72	123.44	57.265	3.2592e-06	77.857	0.0095472	0.0025552	0.00041637	755.08	1.3185e-05	1.6239e-05	824.63	310.54	1.4689e-05	1.77e-05	355.04	172.57	133.04	61.648	1.9497e-05	83.767	-73.890	-159.230	-80.635	-159.599	-17.047	-55.943	-159.970	-155.013	-27.119	-24.279	-157.142	-153.345	-151.308	-146.424	-14.109	-149.302	-8191	255	
26070.578	1	1	0	0	0.079302	0.24515	0.2017	0.019933	0.1016	0.17788	0.10101	0.20286	0.14611	0.13027	0.31866	0.074382	0.066657	0.049315	0.096378	0.16263	-4.2146	-4.4896	-4.0833	-4.8833	-4.2854	-4.2146	-4.8125	-4.2771	-4.4396	-4.6042	-4.1646	-4.6083	-4.6687	-4.4229	-4.6958	-4.3604	2.091	-140.052	137.217	36.509	51.572	72.564	-103.222	178.876	-25.912	-30.488	-127.162	163.358	179.519	105.520	-165.926	153.017	0.0011497	0.0088835	0.00016542	710.29	4.2448e-06	5.19e-06	697.17	289.94	4.8345e-06	6.2689e-06	332.33	148.68	123.99	57.514	4.9643e-06	77.972	0.0037424	0.026379	0.00040291	751.17	1.3811e-05	1.6446e-05	799.88	309.03	1.3753e-05	2.0755e-05	353.54	176.52	133.02	61.725	1.8131e-05	83.762	-60.068	-155.433	-81.550	-159.595	-29.883	-33.748	-160.223	-154.966	-15.364	-22.256	-157.326	-153.649	-151.130	-146.657	-32.539	-149.308	-8191	255	
26070.697	1	1	0	0	0.10931	0.1686	0.088181	0.08801	0.25907	0.11797	0.26063	0.074965	0.18096	0.10167	0.15957	0.12831	0.22825	0.26971	0.10748	0.14028	-4.0646	-4.7688	-4.1188	-4.6854	-4.3083	-4.125	-4.9	-4.2708	-4.2375	-4.7	-4.2708	-4.7562	-4.4667	-4.0917	-4.6604	-4.3187	96.422	111.824	-159.002	181.133	-101.101	112.182	79.775	133.249	35.343	23.313	163.199	124.619	-172.676	164.539	156.726	174.584	0.00069951	0.0094859	0.00015029	710.12	3.5866e-06	4.016e-06	695.49	290.38	3.7566e-06	6.2033e-06	333.48	149.79	122.89	57.542	3.9662e-06	78.35	0.0010486	0.029191	0.00040551	751.19	1.3811e-05	1.6063e-05	821.57	309.24	1.3399e-05	1.9403e-05	354.6	169.9	134.13	61.953	1.7507e-05	84.111	-108.614	-119.464	-84.533	-159.916	-25.878	-26.423	-160.252	-155.095	-28.674	-36.654	-157.185	-152.485	-151.756	-146.464	-35.581	-149.442	-8191	255	
26070.770	1	1	0	0	0.1445	0.18052	0.11505	0.075986	0.062135	0.14981	0.066493	0.3018	0.13257	0.24522	0.084766	0.21703	0.058425	0.24169	0.13641	0.19614	-3.9896	-4.6	-4.1125	-4.6937	-4.5958	-4.2708	-4.8396	-4.5583	-4.3396	-4.7229	-4.1833	-4.8125	-4.6021	-4.2771	-4.7021	-4.4708	143.635	57.568	100.676	129.637	91.541	111.345	-166.336	82.469	102.651	-171.510	136.726	129.126	-104.767	-93.963	181.515	182.260	0.00069979	0.013177	0.00013214	712.59	3.4228e-06	4.818e-06	700.14	291.26	4.925e-06	7.2401e-06	334.16	149.96	124.2	57.779	4.2357e-06	78.455	0.001038	0.039499	0.00038744	752.89	1.4659e-05	1.6436e-05	803.58	310.57	1.3602e-05	1.9843e-05	356.21	164.09	146	62.103	1.691e-05	84.351	-106.114	-108.709	-79.369	-159.536	-30.580	-47.351	-160.446	-154.780	-27.844	-30.956	-157.100	-152.566	-152.432	-146.571	-23.085	-149.315	-8191	255	
26070.867	1	1	0	0	0.052709	0.0061785	0.24056	0.1697	0.15198	0.087672	0.18381	0.26391	0.053068	0.10622	0.20662	0.049559	0.13032	0.17546	0.26441	0.27093	-3.8312	-4.7333	-4.2292	-4.8083	-4.5542	-4.1813	-4.6271	-4.4625	-4.2021	-4.7125	-4.125	-4.6687	-4.625	-4.1583	-4.5938	-4.5938	-6.383	-7.056	-128.572	153.349	-52.465	158.177	23.989	182.063	-75.323	123.912	90.635	47.843	-55.591	133.334	-6.829	77.410	0.00070089	0.0090245	0.0001317	713.91	3.572e-06	5.2899e-06	700.78	292.16	4.1458e-06	5.1099e-06	336.9	151.75	123.96	57.785	5.5062e-06	78.544	0.0010387	0.02918	0.00038174	755.1	1.6809e-05	1.5977e-05	828.21	312.05	1.3497e-05	1.916e-05	358.33	162.75	146.95	62.211	1.7866e-05	84.594	-108.078	-102.108	-84.732	-159.643	-28.756	-21.008	-160.248	-155.011	-40.877	-26.621	-157.205	-152.792	-152.292	-146.724	-29.557	-149.604	-8191	255	
26070.986	1	1	0	0	0.28682	0.13831	0.26571	0.21331	0.14081	0.17458	0.029215	0.24795	0.064408	0.078782	0.15607	0.27287	0.2087	0.33746	0.14104	0.3357	-3.8771	-4.7354	-4.3187	-4.4688	-4.7188	-4.2833	-4.7	-4.6083	-4.1354	-4.7854	-4.4313	-4.4208	-4.6396	-4.3042	-4.5083	-4.6646	-137.734	44.674	-81.427	-131.085	-101.935	-124.330	64.470	59.490	-148.695	-150.741	168.279	-126.603	11.614	127.594	107.833	94.565	0.00071767	0.013242	0.00016282	714.51	3.7781e-06	6.9691e-06	700.5	291.04	3.6855e-06	5.5783e-06	333.31	150.69	123.61	57.493	4.2149e-06	78.299	0.0010574	0.039096	0.00037931	754.84	1.5948e-05	1.5761e-05	788.22	313.43	1.3309e-05	1.9366e-05	355.82	161.83	150.85	61.922	1.5171e-05	84.049	-106.271	-95.309	-94.058	-159.797	-30.406	-26.699	-160.379	-155.276	-32.631	-14.487	-157.108	-152.945	-152.188	-146.524	-39.162	-149.378	-8191	255	
26071.082	1	1	0	0	0.10437	0.17039	0.055617	0.19881	0.012985	0.08066	0.10523	0.20123	0.053884	0.13862	0.11453	0.017102	0.11306	0.20053	0.099917	0.054908	-3.8292	-4.8187	-4.0312	-4.4833	-4.625	-4.1292	-4.7	-4.6229	-4.1083	-4.6333	-4.4271	-4.3313	-4.65	-4.3104	-4.4833	-4.8063	158.160	-130.444	-148.972	133.444	125.016	13.057	78.127	163.833	79.455	130.958	-151.629	103.463	52.821	-135.512	-128.288	109.825	0.00070829	0.0097086	0.00016794	711.49	6.33e-06	5.3384e-06	694.15	289.02	3.3103e-06	5.8727e-06	331.56	150.28	124.56	57.503	5.2698e-06	78.308	0.0010426	0.028834	0.00040699	751.8	1.6424e-05	1.4786e-05	752.61	328.37	1.3338e-05	1.7968e-05	354	161.12	146.03	61.898	1.437e-05	84.183	-107.573	-94.442	-81.356	-159.845	-48.384	-23.655	-160.072	-155.335	-7.764	-0.575	-157.419	-152.872	-152.108	-146.717	-28.356	-149.325	-8191	255	
26071.178	1	1	0	0	0.17275	0.15597	0.19723	0.19623	0.036718	0.3874	0.11502	0.25525	0.072445	0.013855	0.047413	0.033413	0.27643	0.083839	0.084935	0.32138	-3.8	-4.5417	-4.5854	-4.4833	-4.6625	-4.1583	-4.575	-4.6646	-4.2229	-4.6771	-4.65	-4.3333	-4.9417	-4.3729	-4.4458	-4.8208	-5.052	-10.430	-131.324	162.740	-109.661	26.737	62.370	136.823	-102.630	54.131	24.717	153.118	-152.689	-64.046	-88.554	62.184	0.00070121	0.013029	0.0001339	712.23	3.0467e-06	5.7412e-06	703.65	287.55	4.9379e-06	4.9543e-06	335.83	150.93	124.29	57.728	3.7418e-06	78.296	0.0010191	0.038924	0.00040894	753.23	1.5064e-05	1.5637e-05	746.76	328.58	1.2994e-05	1.8569e-05	355.88	161.79	150.96	62.041	1.4272e-05	84.39	-106.798	-81.534	-83.844	-159.791	-15.893	-32.046	-160.975	-154.903	-31.062	-11.093	-157.125	-152.876	-152.134	-146.591	-52.169	-149.105	-8191	255	
26071.299	1	1	0	0	0.13425	0.1813	0.083718	0.17747	0.15868	0.32936	0.10198	0.13506	0.054523	0.094649	0.22037	0.060078	0.12464	0.25408	0.11489	0.20066	-3.5271	-4.6188	-4.5292	-4.1896	-4.6354	-4.2771	-4.4875	-4.7833	-4.1604	-4.4979	-4.7208	-4.2937	-4.8083	-4.3562	-4.3229	-5.0042	73.081	-107.129	54.547	-80.215	65.970	75.523	-149.133	-167.801	65.473	67.602	133.266	-144.241	144.443	175.846	121.834	140.542	0.00071817	0.00955	0.00094449	711.5	3.1018e-06	5.6792e-06	707.26	289.35	5.3522e-06	7.0695e-06	335.68	150.09	125.14	57.646	7.2804e-06	78.572	0.0010038	0.019971	0.0017096	754.23	1.4794e-05	1.5548e-05	749.02	335.95	1.2658e-05	1.575e-05	356.81	161.91	146.61	62.222	1.4176e-05	84.819	-107.127	-62.989	-131.949	-159.502	-13.597	-54.978	-161.007	-154.932	-29.747	-16.038	-157.167	-152.958	-151.935	-146.579	-22.765	-149.262	-8191	255	
26071.395	1	1	0	0	0.029697	0.21753	0.29531	0.17594	0.083873	0.16906	0.1462	0.11469	0.25375	0.053973	0.064831	0.21142	0.089072	0.11962	0.063116	0.042972	-3.8042	-4.4958	-4.5479	-4.0833	-4.6083	-4.4521	-4.3417	-4.8396	-4.1771	-4.5792	-4.6458	-4.3271	-4.8187	-4.4354	-4.3396	-4.9083	-3.173	-19.590	-78.915	106.618	-140.853	-98.604	-165.463	89.391	157.419	-127.069	86.691	117.133	-169.680	127.420	26.715	153.246	0.00072645	0.012503	0.00084291	715	4.6807e-06	4.7128e-06	708.1	290.18	4.2471e-06	6.2519e-06	336.3	151.74	125.81	57.828	5.7898e-06	79.214	0.00099951	0.0032839	0.0087665	756.31	1.3769e-05	1.5137e-05	751.38	329.98	1.2319e-05	1.4521e-05	357.96	162.79	151.55	62.224	1.4151e-05	85.131	-106.602	-57.375	-142.137	-159.713	-31.138	-52.892	-161.088	-154.898	-28.482	-22.666	-157.297	-152.796	-152.426	-146.603	-39.821	-149.501	-8191	255	
26071.467	1	1	0	0	0.22641	0.096277	0.25173	0.14155	0.08098	0.15988	0.14001	0.096905	0.12075	0.035718	0.15389	0.081253	0.024525	0.075354	0.14789	0.13298	-3.9437	-4.4167	-4.4354	-4.1271	-4.5521	-4.4958	-4.125	-4.7188	-4.2646	-4.2354	-4.8396	-4.1312	-4.7417	-4.6021	-4.0833	-4.7542	-13.038	43.364	-156.766	145.928	62.279	-85.816	-3.008	141.515	-143.667	18.992	91.295	-116.215	20.131	125.927	-149.339	147.578	0.00069548	0.0005274	0.0028445	712.86	5.1621e-06	6.9256e-06	711.15	289.31	4.4028e-06	4.3961e-06	336.93	151.36	126.19	57.91	4.5971e-06	78.567	0.00097679	0.0013029	0.008196	755.52	1.4498e-05	1.5687e-05	752.36	337.18	1.2398e-05	1.4541e-05	358.87	162.87	142.73	63.004	1.3594e-05	84.646	-106.819	-83.664	-60.662	-159.613	-27.108	-28.992	-160.882	-155.005	-30.045	-24.932	-157.271	-153.014	-151.028	-147.168	-38.017	-149.402	-8191	255	
26071.588	1	1	0	0	0.039891	0.17425	0.25281	0.20131	0.10261	0.032834	0.020005	0.11467	0.20141	0.31426	0.052385	0.26261	0.13049	0.20249	0.28095	0.17048	-3.8542	-4.2833	-4.7292	-4.2125	-4.3875	-4.375	-4.2375	-4.8229	-4.1458	-4.3271	-4.8375	-4.3479	-4.4333	-4.6667	-4.1979	-4.8562	-25.450	156.644	120.722	-98.525	62.734	-112.798	-124.587	-159.514	56.737	-85.085	153.876	141.224	-109.235	-140.613	145.013	-172.455	0.00070375	0.0004678	0.0035715	710.23	5.7453e-06	5.4527e-06	706.86	290.81	4.2837e-06	4.2362e-06	335.81	150.77	125.88	58.031	5.2076e-06	78.375	0.0010189	0.0012716	0.010939	754.4	1.2508e-05	1.6587e-05	748.67	330.53	1.2858e-05	1.4184e-05	357.96	162.16	134.87	65.907	1.3224e-05	84.352	-108.059	-110.214	-53.373	-159.592	-19.797	-38.828	-160.750	-154.975	-33.847	-19.166	-157.240	-153.107	-151.143	-147.388	-26.395	-149.341	-8191	255	
26071.682	1	1	0	0	0.13724	0.094327	0.099984	0.20438	0.20392	0.1753	0.066228	0.10629	0.050665	0.089338	0.20331	0.28781	0.19476	0.094896	0.021621	0.13952	-4.0375	-4.2354	-4.6438	-4.2042	-4.5021	-4.7688	-4.2583	-4.8625	-4.5521	-4.1188	-4.8417	-4.3313	-4.3833	-4.7438	-3.9958	-4.6292	43.295	-141.747	68.592	118.190	-74.358	-64.191	-104.508	78.078	177.759	-118.082	160.096	-171.023	114.876	-156.424	-59.566	154.229	0.00070755	0.0003505	0.0025861	711.06	4.9036e-06	5.4289e-06	706.38	290.08	4.1304e-06	6.5119e-06	335.55	151.79	125.7	58.177	6.7344e-06	78.3	0.0010007	0.0012397	0.0080631	754.7	1.1741e-05	1.8544e-05	749.24	337.39	1.2933e-05	1.4005e-05	358.05	162.69	135.26	65.634	1.2997e-05	84.4	-108.844	-71.467	-49.349	-159.737	-15.907	-21.471	-160.932	-155.223	-43.149	-4.055	-157.448	-153.002	-151.113	-147.096	-32.446	-149.541	-8191	255	
26071.777	1	1	0	0	0.19416	0.16579	0.046824	0.14646	0.1206	0.017156	0.14197	0.0098618	0.097521	0.14972	0.19022	0.24175	0.2664	0.12066	0.10663	0.12333	-4.1438	-4.1875	-4.7042	-4.3833	-4.4229	-4.5938	-4.2438	-4.7167	-4.5521	-4.1104	-4.8396	-4.5417	-4.5479	-5.1021	-4.2458	-4.6646	26.891	-172.774	-171.569	-131.801	181.709	45.503	-31.312	74.150	123.264	-171.408	119.867	180.784	-73.434	181.105	4.769	19.065	0.00069743	0.00052828	0.0035879	711.63	3.8353e-06	5.5776e-06	710.84	293.27	5.6214e-05	5.6026e-06	338.61	152.5	126.99	58.706	4.4759e-06	78.807	0.001005	0.0012597	0.010823	755.92	1.167e-05	1.7016e-05	750.64	325.17	7.652e-05	1.3759e-05	360.23	163.81	136.32	67.141	1.3012e-05	84.823	-107.698	-94.760	-39.442	-159.698	-16.617	-29.914	-161.094	-154.902	-148.906	-14.269	-157.386	-153.096	-151.475	-147.224	-44.613	-149.403	-8191	255	
26071.873	1	1	0	0	0.13037	0.19458	0.25821	0.27864	0.063706	0.10524	0.27971	0.056133	0.18941	0.13739	0.11777	0.19602	0.064032	0.035398	0.35079	0.14248	-4.2542	-4.0896	-4.5188	-4.4125	-4.4	-4.6604	-4.3979	-4.7458	-4.6604	-4.1729	-4.7667	-4.7312	-4.2354	-4.8708	-4.0938	-4.5958	-88.963	-128.748	79.233	-150.660	-113.512	-112.383	95.731	79.683	-153.819	-89.059	129.303	56.740	-45.394	124.281	121.976	138.123	0.00071394	0.00042064	0.0026349	718.93	4.166e-06	6.1156e-06	712.81	297.26	8.2433e-05	7.9623e-06	340.9	153.44	127.35	58.948	5.3973e-06	78.99	0.0010664	0.0012333	0.008034	759.78	1.1859e-05	1.8074e-05	755.13	316.5	0.00030777	1.3718e-05	362.55	164.6	136.8	66.254	1.3003e-05	85.065	-108.729	-69.062	-37.472	-159.892	-13.137	-34.580	-161.078	-155.012	-145.050	-12.024	-157.269	-153.003	-151.220	-147.103	-43.593	-149.339	-8191	255	
26071.971	1	1	0	0	0.22832	0.14769	0.15102	0.11391	0.158	0.0052939	0.2036	0.18728	0.070199	0.3696	0.12088	0.048076	0.19908	0.15399	0.18723	0.38277	-4.5708	-3.9667	-4.3354	-4.7083	-4.2083	-4.7438	-4.4125	-4.6583	-4.6042	-4.0958	-4.7688	-4.6271	-4.0854	-4.8125	-4.3021	-4.5083	85.295	34.256	-39.310	-71.183	69.932	63.617	165.323	161.408	-4.673	127.968	35.106	148.965	-42.426	105.444	-47.437	-110.370	0.00073288	0.00048323	0.0035578	719.63	3.6531e-06	6.7203e-06	713.44	297.27	5.6556e-05	5.9149e-06	340.71	153.22	127.53	59.274	5.8641e-06	78.495	0.0011436	0.0012285	0.01086	761.52	1.1905e-05	1.7018e-05	755.95	316.86	0.00025586	1.3867e-05	363.44	164.81	136.96	67.397	1.3639e-05	84.696	-108.112	-83.699	-31.876	-159.760	2.267	-23.938	-160.976	-155.104	169.309	-14.377	-157.411	-153.089	-150.978	-147.350	-45.571	-149.457	-8191	255	
26072.066	1	1	0	0	0.071079	0.18574	0.075267	0.10163	0.17613	0.10558	0.21031	0.30557	0.21012	0.11292	0.20121	0.072228	0.18779	0.012072	0.10338	0.089777	-4.3292	-4.1542	-4.5396	-4.5625	-4.1937	-4.8104	-4.3979	-4.4521	-4.7438	-4.0917	-4.5958	-4.6771	-4.1813	-4.8208	-4.4625	-4.4167	70.413	33.942	45.557	-123.360	-35.907	0.323	-115.251	150.758	-142.920	60.261	115.309	116.524	80.068	49.921	72.661	-170.516	0.00070091	0.00063491	0.0027022	713.87	4.1687e-06	6.6774e-06	708.03	295.71	8.0221e-05	6.4734e-06	338.32	152.48	126.76	58.686	7.2407e-06	78.203	0.0010703	0.0011921	0.0044972	774.36	1.1805e-05	1.6981e-05	751.41	315.77	0.00034506	1.3703e-05	360.95	163.71	136.23	65.853	1.4061e-05	84.249	-108.015	-87.369	-34.641	-159.767	-29.518	-53.480	-160.916	-155.043	183.284	-28.682	-157.419	-152.928	-151.022	-147.014	-34.749	-149.290	-8191	255	
26072.162	1	1	0	0	0.19822	0.17946	0.11128	0.23193	0.10995	0.10326	0.16823	0.24347	0.14092	0.065201	0.084329	0.11237	0.098335	0.042221	0.057203	0.22776	-4.4479	-4.3542	-4.475	-4.7167	-4.1625	-4.6958	-4.5021	-4.3562	-4.7625	-4.2438	-4.6229	-4.7396	-4.0813	-4.7646	-4.5687	-4.2646	-61.511	24.760	-94.057	140.928	145.488	78.699	39.576	143.559	181.027	29.699	-141.310	28.800	8.348	-93.982	25.754	147.428	0.00071796	0.00060309	0.00015298	710.64	4.2925e-06	8.0674e-06	705.24	295.1	5.641e-05	5.9127e-06	338.44	152.07	126.87	58.957	4.3865e-06	78.16	0.0011166	0.0012575	0.00035028	822.08	1.1207e-05	1.6352e-05	748.67	315.08	0.00025493	1.3555e-05	359.37	163.48	136.41	67.088	1.4485e-05	84.109	-109.207	-79.220	-91.206	-159.883	-23.161	-24.914	-160.945	-154.986	185.270	-8.245	-157.222	-152.980	-151.465	-147.221	-45.737	-149.386	-8191	255	
26072.258	1	1	0	0	0.058219	0.091207	0.085033	0.19352	0.10114	0.11525	0.22043	0.11963	0.1892	0.059622	0.16199	0.20803	0.087364	0.19147	0.18804	0.1733	-4.4583	-4.2521	-4.4021	-4.8167	-4.05	-4.7312	-4.6062	-4.175	-4.9229	-4.2188	-4.4896	-4.7917	-4.3958	-4.7604	-4.5062	-4.3271	-163.060	57.775	121.827	153.365	21.801	92.415	109.761	97.837	158.156	-20.468	-135.340	-163.514	40.632	133.061	-116.169	160.046	0.00069085	0.00051028	0.00012227	716.95	5.8669e-06	7.0013e-06	710.39	295.49	7.8545e-05	6.3804e-06	337.49	152.22	126.94	58.74	6.906e-05	78.48	0.0010592	0.0012338	0.00034858	811.06	1.1714e-05	1.6794e-05	751.3	315.83	0.00034282	1.4519e-05	360.41	163.86	136.7	64.425	0.00010966	84.349	-108.927	-69.756	-64.589	-158.939	-13.743	-18.767	-160.976	-154.897	-168.745	-34.159	-157.417	-153.062	-150.904	-146.608	-90.654	-149.265	-8191	255	
26072.379	1	1	0	0	0.15938	0.056838	0.094524	0.2068	0.15485	0.20611	0.18622	0.30904	0.097163	0.23233	0.28013	0.28699	0.42367	0.066434	0.068122	0.27175	-4.4271	-4.25	-4.3083	-4.9542	-4.0792	-4.5583	-4.7625	-4.1813	-4.7625	-4.325	-4.3708	-4.9021	-4.2417	-4.6583	-4.5625	-4.2937	-29.672	144.826	124.694	122.834	-61.087	64.794	131.651	-119.335	-39.520	-107.136	146.295	144.544	116.266	-105.058	70.000	177.981	0.00069409	0.00044042	0.00018541	715.16	3.4024e-06	5.5612e-06	706.61	295.26	6.0756e-05	5.7702e-06	337.55	152.65	126.97	58.271	8.2277e-05	78.319	0.0010907	0.0013591	0.00035264	830.55	1.175e-05	1.4515e-05	751.88	315.96	0.00025503	1.4845e-05	360.72	164.28	136.64	62.795	0.00037227	84.4	-108.084	-102.519	-73.342	-158.835	-37.442	-39.157	-161.126	-155.194	-163.357	-38.589	-157.285	-153.002	-151.455	-146.819	-88.848	-149.497	-8191	255	
26072.475	1	1	0	0	0.30037	0.19241	0.050493	0.079438	0.15368	0.2832	0.14487	0.2052	0.12285	0.03037	0.23991	0.15011	0.30056	0.11858	0.088075	0.19283	-4.3125	-4.3208	-4.2396	-4.7604	-4.2396	-4.4792	-4.6958	-4.1229	-4.7146	-4.4563	-4.4187	-4.8667	-4.3354	-4.5104	-4.6083	-4.4062	-18.931	47.567	-5.203	184.127	62.095	1.089	116.651	139.356	23.879	139.097	128.508	-55.330	154.167	-170.070	89.566	69.529	0.00072909	0.00052831	0.00020011	714.64	3.5862e-06	4.8371e-06	708.09	296.03	8.9083e-05	5.0097e-06	339.58	152.71	126.89	58.24	9.212e-05	78.595	0.0010764	0.0013256	0.00036065	810.72	1.1952e-05	1.3858e-05	753.8	316.11	0.00034342	1.5219e-05	362.28	164.57	136.6	62.714	0.000283	84.481	-108.535	-90.124	-94.067	-159.170	-5.480	-12.890	-160.948	-155.283	-151.734	-15.236	-157.402	-153.013	-151.383	-146.766	-45.755	-149.576	-8191	255	
26072.570	1	1	0	0	0.018827	0.082365	0.10235	0.165	0.078424	0.14112	0.17665	0.1634	0.09209	0.22377	0.09227	0.070917	0.093205	0.023107	0.093087	0.16614	-4.25	-4.5417	-4.2667	-4.8708	-4.2562	-4.2833	-4.85	-4.0229	-4.7167	-4.4854	-4.2396	-4.9187	-4.5146	-4.4812	-4.75	-4.3771	23.455	124.439	31.995	153.458	91.101	-108.406	92.932	179.578	149.990	-81.786	181.066	93.455	154.401	56.375	100.753	106.434	0.00070325	0.00047318	0.00013238	715.81	4.554e-06	5.1317e-06	709.95	296.23	2.1651e-05	0.00010895	339.17	152.81	126.77	58.106	0.00012159	77.911	0.0010693	0.001403	0.00034582	831.36	1.2307e-05	1.3566e-05	752.83	316.18	0.00012283	0.00013591	361.03	163.83	136.28	62.576	0.0003788	83.818	-107.519	-106.251	-86.710	-158.835	-23.366	-37.671	-160.903	-155.066	108.699	-143.337	-157.114	-152.871	-151.143	-146.793	-37.028	-149.554	-8191	255	
26072.668	1	1	0	0	0.11457	0.24592	0.090407	0.3004	0.2203	0.18345	0.18799	0.13618	0.04879	0.24179	0.12911	0.11418	0.22844	0.21211	0.14103	0.24749	-4.2542	-4.5625	-4.1458	-4.8292	-4.4583	-4.1729	-4.7958	-4.3562	-4.5271	-4.7896	-4.2188	-4.9417	-4.4479	-4.4313	-4.7688	-4.4292	122.530	-86.802	82.802	145.518	111.432	-157.441	133.517	154.045	-28.030	-9.182	134.511	64.495	183.815	107.047	76.263	153.084	0.00068853	0.00049186	0.0001233	708.18	3.6869e-06	5.9791e-06	705.17	296.52	4.5194e-06	0.00013535	335.76	151.68	126.38	57.793	8.984e-05	77.909	0.00098537	0.0014842	0.00033343	806.9	1.2548e-05	1.4519e-05	749.21	315.99	1.2131e-05	0.00043629	359.52	163.25	135.87	62.307	0.0002815	83.744	-106.516	-94.045	-75.428	-159.005	-6.736	-44.054	-161.022	-155.051	-11.572	-157.136	-157.451	-153.069	-151.333	-146.614	-35.665	-149.544	-8191	255	
26072.762	1	1	0	0	0.22182	0.079036	0.029878	0.15988	0.12752	0.14321	0.19326	0.070192	0.030252	0.21231	0.25025	0.060089	0.21432	0.16012	0.06915	0.07093	-4.1479	-4.7458	-3.9875	-4.7125	-4.4333	-4.125	-4.8146	-4.3396	-4.4771	-4.675	-4.2937	-4.6833	-4.7271	-4.3208	-4.8042	-4.4729	-159.502	138.238	64.454	-54.888	-159.194	-165.545	121.596	-45.929	-133.173	82.558	105.448	-144.061	164.333	184.143	159.039	-21.857	0.00068404	0.00052941	0.00011862	703.84	3.0125e-06	6.1146e-06	703.08	294.63	4.4824e-06	9.9114e-05	337.2	152.11	125.99	57.9	0.00012377	77.729	0.00096604	0.0016134	0.0003293	824.92	1.2658e-05	1.4073e-05	748.33	314.9	1.2138e-05	0.00032235	359.96	163.25	135.87	62.357	0.00038027	83.898	-106.896	-77.786	-88.970	-158.794	-38.291	-47.640	-161.021	-155.313	-17.311	-148.205	-157.116	-152.965	-151.169	-146.709	-24.627	-149.550	-8191	255	
26072.857	1	1	0	0	0.020571	0.074528	0.18169	0.070413	0.32037	0.13697	0.045122	0.095995	0.32811	0.11904	0.31075	0.29459	0.14774	0.11507	0.096953	0.10098	-4.0354	-4.6417	-4.125	-4.7063	-4.5188	-4.125	-4.9271	-4.6021	-4.2896	-4.6708	-4.3583	-4.7312	-4.5563	-4.1083	-4.7979	-4.55	58.165	-82.699	-39.420	116.011	-155.985	104.857	-111.275	99.301	-60.360	-42.381	141.084	-155.575	-41.783	178.642	-69.874	125.521	0.00069855	0.00051864	0.00019243	710.8	4.7003e-05	4.5621e-06	706.17	294.5	5.035e-06	0.00013995	337.97	152.28	126.7	57.998	9.2778e-05	78.201	0.00097115	0.001433	0.00034312	775.6	0.00011888	1.3165e-05	749.57	315.08	1.2093e-05	0.00043765	360.84	163.48	136.18	62.456	0.00028321	84.22	-105.217	-85.648	-80.935	-158.786	-172.328	-26.673	-160.919	-155.068	-51.824	-142.458	-157.307	-152.954	-151.176	-146.733	-21.401	-149.666	-8191	255	
26072.979	1	1	0	0	0.15983	0.16462	0.27262	0.11845	0.13749	0.16704	0.062606	0.11627	0.07272	0.13273	0.13926	0.1919	0.0089258	0.053295	0.27324	0.22822	-3.9542	-4.6188	-4.0646	-4.6375	-4.8292	-4.1229	-4.7229	-4.7604	-4.1396	-4.7354	-4.2833	-4.4646	-4.775	-4.1771	-4.6271	-4.6875	85.624	2.293	-143.452	15.162	-3.236	72.584	81.775	121.827	-2.174	-15.284	83.962	42.350	94.829	-18.866	-156.409	-125.767	0.00071973	0.00069182	0.00015289	712.42	0.00010618	6.677e-06	708.92	296.73	5.2139e-06	9.7881e-05	339.98	152.38	126.23	57.876	0.00010597	78.636	0.00097138	0.0015898	0.00034827	754.89	0.00034786	1.3129e-05	751.4	315.5	1.1997e-05	0.0003251	361.9	163.8	135.73	62.343	0.00037695	84.547	-107.221	-100.035	-91.871	-159.772	112.787	-27.827	-161.181	-155.052	-25.234	-135.479	-157.463	-153.216	-151.245	-146.555	6.055	-149.274	-8191	255	
26073.074	1	1	0	0	0.064091	0.10315	0.26189	0.26114	0.24698	0.11565	0.069631	0.13495	0.12076	0.3016	0.21535	0.11515	0.12089	0.23203	0.13863	0.039584	-3.7521	-4.7417	-4.2458	-4.5479	-4.675	-4.2104	-4.6542	-4.4771	-4.0604	-4.8875	-4.3125	-4.3771	-4.8	-4.3042	-4.6125	-4.8792	101.911	-23.667	-140.692	134.167	160.877	74.745	117.739	-46.299	49.459	-118.897	158.464	95.860	-55.691	162.842	134.889	74.305	0.00070886	0.00053526	0.00014894	711.68	7.7098e-05	5.6378e-06	709.3	293.93	5.3144e-06	0.00014141	337.93	151.6	125.94	57.712	8.0756e-05	78.422	0.00097083	0.0014644	0.00034402	754.78	0.00025754	1.3257e-05	751.65	314.55	1.1391e-05	0.00043933	360.35	163.29	135.57	62.259	0.00011197	86.122	-108.248	-77.958	-79.528	-159.489	116.061	-29.213	-161.038	-155.210	-38.845	-130.586	-157.292	-152.886	-151.142	-146.900	9.571	-149.540	-8191	255	
26073.172	1	1	0	0	0.074566	0.15789	0.076828	0.19491	0.13649	0.15064	0.042332	0.26087	0.075574	0.30075	0.10377	0.13633	0.21444	0.21606	0.30088	0.19187	-3.8125	-4.65	-4.4021	-4.3875	-4.7104	-4.2125	-4.5208	-4.75	-4.2125	-4.7833	-4.4917	-4.3542	-4.8688	-4.4437	-4.4688	-4.8688	168.010	13.068	-154.636	142.139	165.476	52.430	-157.981	138.745	-150.450	118.661	80.084	135.621	134.551	54.088	-21.112	-145.305	0.00070994	0.00056186	0.0001852	712.5	9.9108e-05	4.1669e-06	703.18	294.14	4.9833e-06	0.00010359	336.24	151.11	126.05	57.998	7.4265e-06	78.809	0.00096014	0.0014845	0.00037654	753.15	0.00034464	1.3712e-05	746.28	314.12	1.1427e-05	0.00032497	358.4	162.31	135.17	62.249	1.2938e-05	89.94	-107.091	-113.133	-75.198	-159.600	128.847	-46.272	-161.028	-155.165	-22.017	-126.340	-157.287	-153.050	-151.468	-146.768	-33.436	-148.931	-8191	255	
26073.268	1	1	0	0	0.23324	0.1894	0.1158	0.13335	0.21682	0.032166	0.10366	0.17912	0.2453	0.18487	0.17406	0.24531	0.16772	0.17222	0.35248	0.19393	-3.7229	-4.6542	-4.425	-4.2479	-4.7542	-4.1354	-4.6354	-4.7104	-4.0729	-4.4917	-4.525	-4.2312	-4.7583	-4.2729	-4.2125	-4.8292	-28.595	-101.668	-160.540	-152.556	-106.401	135.015	140.143	70.056	-76.788	-113.959	37.322	175.585	-7.085	185.716	-89.426	-153.101	0.00072004	0.00062367	0.00012956	712.09	7.4752e-05	4.6207e-06	704.15	294.77	3.6293e-06	1.6169e-05	338.32	151.28	126.28	57.999	3.9101e-06	78.487	0.00094759	0.0014145	0.00035269	754.9	0.00025671	1.3946e-05	747.57	314.83	1.1612e-05	0.00041297	359.22	163	135.8	62.422	1.3088e-05	88.402	-107.898	-101.495	-90.454	-159.618	125.822	-30.667	-160.737	-154.975	-22.675	30.908	-156.985	-153.119	-151.053	-146.704	-49.059	-149.046	-8191	255	
26073.363	1	1	0	0	0.061937	0.10949	0.24531	0.079925	0.060942	0.26272	0.10376	0.013156	0.172	0.19021	0.21536	0.14087	0.12691	0.098629	0.45315	0.21491	-3.7042	-4.3542	-4.45	-4.3271	-4.8375	-4.1937	-4.4104	-4.8125	-4.3812	-4.7208	-4.5458	-4.0875	-4.8438	-4.4479	-4.2146	-4.8375	-50.963	-111.259	-152.667	185.473	-56.480	74.998	102.265	-55.271	152.272	143.737	-149.865	-154.721	127.829	171.325	-84.911	174.247	0.00070259	0.00059432	0.00021672	712.16	9.908e-05	3.4715e-06	705.2	295.66	4.2301e-06	1.9841e-05	339.11	152.22	126.67	58.026	4.597e-06	78.703	0.00095681	0.0014106	0.00038137	754.58	0.00034737	1.4685e-05	747.93	315.07	1.1584e-05	0.00011263	373.89	163.28	136.02	62.533	1.2464e-05	90.259	-106.768	-74.961	-101.237	-159.534	138.761	-11.337	-160.936	-154.937	-31.756	-23.195	-158.094	-153.171	-151.137	-146.535	-47.499	-148.736	-8191	255	
#DATA ENDS
