BOXY.EXE: ISS Imagent and Oximeter Data Acquisition Program Version 0.80
Ascii Record File

#ACQ INFORMATION
2  Detector Channels 
16  External MUX Channels 
1  Auxiliary Channels 
5000  Waveform (CCF) Frequency (Hz)
1  Waveforms Skipped 
30  Waveforms Averaged 
1  Cycles Averaged 
16  Acquisitions per Waveform 
10.0806  Updata Rate (Hz) 

#FILE INFORMATION
TRUE -- External MUX Channel results are PARSED.
FALSE -- AC DC and Phase are NOT grouped.
TRUE -- Companion Program Settings File CREATED.
FALSE -- AC data not excluded
FALSE -- DC data not excluded
FALSE -- Phase data not excluded
FALSE -- Auxillary Chn. data not excluded
Tab delimiters

#CALIBRATION STATE
TRUE -- Waveform Calibration Values APPLIED.


#AUX CALIBRATION VALUES
Val Type	aux-1	

Term	1.0000e+00	
Factor	0.0000e+00	


#WF CALIBRATION VALUES
A = Detector Channel
Val Type	A-AC1	A-AC2	A-AC3	A-AC4	A-AC5	A-AC6	A-AC7	A-AC8	A-AC9	A-AC10	A-AC11	A-AC12	A-AC13	A-AC14	A-AC15	A-AC16	A-DC1	A-DC2	A-DC3	A-DC4	A-DC5	A-DC6	A-DC7	A-DC8	A-DC9	A-DC10	A-DC11	A-DC12	A-DC13	A-DC14	A-DC15	A-DC16	A-Ph1	A-Ph2	A-Ph3	A-Ph4	A-Ph5	A-Ph6	A-Ph7	A-Ph8	A-Ph9	A-Ph10	A-Ph11	A-Ph12	A-Ph13	A-Ph14	A-Ph15	A-Ph16	

Term	0.00000e+00	0.00000e+00	0.00000e+00	0.00000e+00	0.00000e+00	0.00000e+00	0.00000e+00	0.00000e+00	0.00000e+00	0.00000e+00	0.00000e+00	0.00000e+00	0.00000e+00	0.00000e+00	0.00000e+00	0.00000e+00	0.00000e+00	0.00000e+00	0.00000e+00	0.00000e+00	0.00000e+00	0.00000e+00	0.00000e+00	0.00000e+00	0.00000e+00	0.00000e+00	0.00000e+00	0.00000e+00	0.00000e+00	0.00000e+00	0.00000e+00	0.00000e+00	0.00000e+00	0.00000e+00	0.00000e+00	0.00000e+00	0.00000e+00	0.00000e+00	0.00000e+00	0.00000e+00	0.00000e+00	0.00000e+00	0.00000e+00	0.00000e+00	0.00000e+00	0.00000e+00	0.00000e+00	0.00000e+00	
Factor	1.00000e+00	1.00000e+00	1.00000e+00	1.00000e+00	1.00000e+00	1.00000e+00	1.00000e+00	1.00000e+00	1.00000e+00	1.00000e+00	1.00000e+00	1.00000e+00	1.00000e+00	1.00000e+00	1.00000e+00	1.00000e+00	1.00000e+00	1.00000e+00	1.00000e+00	1.00000e+00	1.00000e+00	1.00000e+00	1.00000e+00	1.00000e+00	1.00000e+00	1.00000e+00	1.00000e+00	1.00000e+00	1.00000e+00	1.00000e+00	1.00000e+00	1.00000e+00	X	X	X	X	X	X	X	X	X	X	X	X	X	X	X	X	

B = Detector Channel
Val Type	B-AC1	B-AC2	B-AC3	B-AC4	B-AC5	B-AC6	B-AC7	B-AC8	B-AC9	B-AC10	B-AC11	B-AC12	B-AC13	B-AC14	B-AC15	B-AC16	B-DC1	B-DC2	B-DC3	B-DC4	B-DC5	B-DC6	B-DC7	B-DC8	B-DC9	B-DC10	B-DC11	B-DC12	B-DC13	B-DC14	B-DC15	B-DC16	B-Ph1	B-Ph2	B-Ph3	B-Ph4	B-Ph5	B-Ph6	B-Ph7	B-Ph8	B-Ph9	B-Ph10	B-Ph11	B-Ph12	B-Ph13	B-Ph14	B-Ph15	B-Ph16	

Term	0.00000e+00	0.00000e+00	0.00000e+00	0.00000e+00	0.00000e+00	0.00000e+00	0.00000e+00	0.00000e+00	0.00000e+00	0.00000e+00	0.00000e+00	0.00000e+00	0.00000e+00	0.00000e+00	0.00000e+00	0.00000e+00	0.00000e+00	0.00000e+00	0.00000e+00	0.00000e+00	0.00000e+00	0.00000e+00	0.00000e+00	0.00000e+00	0.00000e+00	0.00000e+00	0.00000e+00	0.00000e+00	0.00000e+00	0.00000e+00	0.00000e+00	0.00000e+00	8.08205e+01	-1.29234e+02	-1.26031e+02	-1.81587e+02	-8.04158e+01	-6.70324e+01	-1.57320e+02	-1.62015e+02	-6.06783e+01	-6.54006e+01	-1.71053e+02	-1.72518e+02	-1.82789e+02	-1.76934e+02	-6.95614e+01	-1.49544e+02	
Factor	6.67383e-05	1.91415e-04	4.93186e-05	1.58798e-01	2.57486e-06	2.00385e-06	1.78873e-01	5.50616e-02	3.22509e-06	1.97440e-06	8.99765e-02	3.70833e-02	3.90633e-02	9.87122e-03	2.25571e-06	1.39431e-02	2.65282e-05	5.58230e-05	1.57463e-05	8.19480e-02	4.79595e-07	6.43249e-07	8.68198e-02	2.84307e-02	4.90733e-07	6.41705e-07	4.53190e-02	1.86095e-02	2.03683e-02	5.15739e-03	5.46992e-07	7.08478e-03	X	X	X	X	X	X	X	X	X	X	X	X	X	X	X	X	



#DISTANCE SETTINGS
A = Detector Channel
A-1	A-2	A-3	A-4	A-5	A-6	A-7	A-8	A-9	A-10	A-11	A-12	A-13	A-14	A-15	A-16	

2.5000e+00	3.0000e+00	2.5000e+00	3.0000e+00	2.0000e+00	3.0000e+00	1.5000e+00	3.0000e+00	3.0000e+00	3.0000e+00	3.0000e+00	3.0000e+00	3.0000e+00	3.0000e+00	1.5000e+00	3.0000e+00	

B = Detector Channel
B-1	B-2	B-3	B-4	B-5	B-6	B-7	B-8	B-9	B-10	B-11	B-12	B-13	B-14	B-15	B-16	

1.0000e+01	1.0000e+01	1.0000e+01	1.4400e+00	1.0000e+01	1.0000e+01	1.5100e+00	1.9400e+00	1.0000e+01	1.0000e+01	1.9900e+00	2.4900e+00	2.4100e+00	2.9000e+00	1.0000e+01	2.9800e+00	




#DATA BEGINS
time	group	step	mark	flag	A-AC1	A-AC2	A-AC3	A-AC4	A-AC5	A-AC6	A-AC7	A-AC8	A-AC9	A-AC10	A-AC11	A-AC12	A-AC13	A-AC14	A-AC15	A-AC16	A-DC1	A-DC2	A-DC3	A-DC4	A-DC5	A-DC6	A-DC7	A-DC8	A-DC9	A-DC10	A-DC11	A-DC12	A-DC13	A-DC14	A-DC15	A-DC16	A-Ph1	A-Ph2	A-Ph3	A-Ph4	A-Ph5	A-Ph6	A-Ph7	A-Ph8	A-Ph9	A-Ph10	A-Ph11	A-Ph12	A-Ph13	A-Ph14	A-Ph15	A-Ph16	B-AC1	B-AC2	B-AC3	B-AC4	B-AC5	B-AC6	B-AC7	B-AC8	B-AC9	B-AC10	B-AC11	B-AC12	B-AC13	B-AC14	B-AC15	B-AC16	B-DC1	B-DC2	B-DC3	B-DC4	B-DC5	B-DC6	B-DC7	B-DC8	B-DC9	B-DC10	B-DC11	B-DC12	B-DC13	B-DC14	B-DC15	B-DC16	B-Ph1	B-Ph2	B-Ph3	B-Ph4	B-Ph5	B-Ph6	B-Ph7	B-Ph8	B-Ph9	B-Ph10	B-Ph11	B-Ph12	B-Ph13	B-Ph14	B-Ph15	B-Ph16	aux-1	digaux	

33067.664	1	1	0	512	0.21213	0.22436	0.22466	0.042157	0.26334	0.20227	0.12325	0.36276	0.060326	0.1313	0.24504	0.20923	0.12553	0.065416	0.16084	0.060027	-4.3187	-4.35	-4.3458	-4.8938	-4.3458	-4.4708	-4.7375	-4.4167	-4.6854	-4.4542	-4.3	-4.8396	-4.5083	-4.5687	-4.7479	-4.3542	-59.281	198.969	-50.760	225.887	272.174	107.966	178.125	226.263	29.809	263.726	181.911	-54.865	255.795	16.483	220.791	214.807	0.0007345	0.00091547	0.00024876	1151	1.1644e-05	8.5637e-06	1107.6	382.15	8.1919e-06	3.9564e-05	475.23	174.24	135.86	54.364	3.5636e-05	74.621	0.0041077	0.0083516	0.0022766	1053.1	7.1888e-05	9.4714e-05	1006.2	347.52	7.2273e-05	0.00021514	434.35	159.85	125.75	50.178	0.00018317	69.014	61.556	5.774	47.189	-72.834	-79.124	79.339	-73.748	-66.581	-67.398	88.965	-68.547	-63.781	-61.791	-56.863	217.302	-60.219	-8191	255	
33067.785	1	1	0	0	0.24288	0.084094	0.10327	0.17909	0.14582	0.1218	0.33519	0.3216	0.17301	0.093464	0.3737	0.10098	0.11091	0.22578	0.21025	0.084035	-4.1083	-4.5604	-4.3208	-4.85	-4.4313	-4.2896	-4.9625	-4.3396	-4.5167	-4.5375	-4.3958	-4.8688	-4.5542	-4.3063	-4.7708	-4.3417	223.853	150.195	109.403	133.436	-29.504	-65.681	210.640	210.644	-41.880	81.081	224.279	-73.021	97.122	228.637	262.059	3.768	0.0006779	0.00070094	0.00034216	1148.7	1.5843e-05	5.4621e-06	1115.8	380.93	2.9668e-06	3.4542e-05	475.89	175.1	135.83	54.625	3.6403e-05	74.949	0.0042781	0.0085608	0.0023341	1043.9	0.0001306	9.7575e-05	1012.1	348.15	7.4462e-05	0.00021729	434.17	160.13	125.96	50.449	0.00018815	69.019	55.142	-26.770	34.356	-73.175	260.092	62.705	-74.085	-66.640	15.522	95.385	-68.711	-64.367	-62.154	-57.030	214.111	-59.834	-8191	255	
33067.879	1	1	0	0	0.16788	0.13455	0.14872	0.31248	0.13932	0.13557	0.12947	0.14715	0.090761	0.1188	0.12508	0.24044	0.14036	0.31517	0.18586	0.26079	-4.1521	-4.5896	-4.2521	-4.9458	-4.4958	-4.3375	-5.0021	-4.4646	-4.4167	-4.7354	-4.3417	-4.7708	-4.4688	-4.3625	-4.95	-4.325	-40.252	217.168	68.028	240.234	21.471	31.519	245.204	179.981	-60.746	86.081	-83.170	-68.983	-82.105	268.714	169.529	162.870	0.00085404	0.0011082	0.00014765	1154.1	4.6211e-05	6.7196e-06	1111.9	380.64	1.1779e-05	4.2659e-05	473.25	172.58	136.57	54.397	1.328e-05	73.881	0.0045104	0.0087658	0.0023866	1043.6	0.00016716	9.7876e-05	1009	347.74	7.8487e-05	0.00022084	432.16	158.97	126.58	50.383	0.00016339	68.679	41.897	-0.659	84.638	-73.081	-11.977	53.611	-73.958	-66.858	29.908	105.377	-68.930	-64.306	-62.094	-57.023	15.158	-60.250	-8191	255	
33067.977	1	1	0	0	0.079177	0.23691	0.050985	0.28116	0.13918	0.083971	0.19068	0.045854	0.13345	0.13918	0.18329	0.010213	0.12289	0.32824	0.12134	0.1756	-4.1333	-4.6875	-4.1167	-4.8625	-4.5833	-4.2875	-4.8792	-4.4625	-4.5375	-4.9417	-4.3938	-4.7354	-4.7292	-4.2583	-4.7354	-4.6833	-76.652	265.239	26.797	250.879	171.302	23.963	-49.509	92.476	82.523	-23.106	241.073	177.213	-30.166	-81.518	-74.422	176.529	0.0008406	0.00068773	8.9826e-05	1156.1	4.2503e-05	1.1863e-05	1105.9	380.29	6.7593e-06	3.803e-05	473.07	174.34	135.47	54.191	1.2893e-05	74.114	0.0044686	0.0087329	0.0023922	1045	0.00016606	9.8771e-05	1004.6	347.22	7.792e-05	0.00021884	431.76	159.32	126.07	50.211	9.9906e-05	69.725	21.832	15.766	-38.968	-72.986	-11.255	64.329	-73.797	-66.507	40.717	105.016	-68.532	-64.028	-62.169	-57.143	34.457	-60.395	-8191	255	
33068.074	1	1	0	0	0.11246	0.13386	0.10174	0.23092	0.054131	0.15309	0.031444	0.17041	0.16252	0.063216	0.25488	0.073502	0.18299	0.091453	0.18177	0.12173	-4.1625	-4.6458	-4.125	-4.7521	-4.6625	-4.2188	-4.9125	-4.4604	-4.2333	-4.8896	-4.3688	-4.6604	-4.8146	-4.3042	-4.6417	-4.675	79.504	150.709	8.309	215.739	186.809	124.768	29.862	250.571	-20.248	-23.005	240.326	226.893	-45.300	3.493	81.884	187.702	0.00074169	0.0012786	0.00014892	1158.2	4.6139e-05	4.2509e-06	1120.3	384.63	6.5735e-06	3.2799e-05	477.91	174.87	136.9	54.672	1.4983e-05	74.868	0.0044068	0.0087977	0.0023977	1047.2	0.0001689	9.6392e-05	1011.9	349.76	7.6644e-05	0.00021938	436.54	160.28	127.13	50.654	8.5626e-05	70.736	47.645	39.076	58.214	-72.927	1.231	18.905	-73.997	-66.530	9.957	105.497	-68.780	-64.105	-61.966	-56.931	24.809	-60.488	-8191	255	
33068.168	1	1	0	0	0.092898	0.11105	0.060739	0.156	0.061399	0.14316	0.29826	0.16168	0.273	0.063105	0.084524	0.13016	0.14716	0.17579	0.1468	0.071649	-3.9437	-4.7792	-4.5021	-4.6521	-4.8292	-4.3812	-4.7771	-4.55	-4.3187	-4.9083	-4.3021	-4.55	-4.9729	-4.1937	-4.6583	-4.6854	250.845	-79.674	207.459	203.657	204.543	119.151	254.914	220.475	273.661	65.889	188.453	250.468	-82.802	215.917	252.751	118.504	0.00050983	0.00041179	0.00016848	1160	3.7513e-05	7.4222e-06	1110.9	382.54	7.485e-06	3.3134e-05	480.07	174.52	137.49	54.464	1.2032e-05	74.857	0.0044606	0.0085309	0.0024397	1046.3	0.00016599	0.00010005	1010.6	349.27	7.837e-05	0.00018938	437.59	160.8	127.09	50.561	8.7001e-05	70.731	40.689	-29.781	10.441	-73.194	-3.524	10.071	-73.889	-66.473	-11.287	76.975	-68.739	-63.884	-62.197	-57.151	71.985	-60.548	-8191	255	
33068.262	1	1	0	0	0.11944	0.11111	0.13857	0.24632	0.034415	0.062982	0.26798	0.2542	0.1566	0.12465	0.14857	0.1215	0.2787	0.35583	0.12099	0.147	-4.0208	-4.8833	-4.3979	-4.5083	-4.7438	-4.2458	-4.7521	-4.8021	-4.2604	-4.7438	-4.725	-4.4229	-4.8688	-4.3396	-4.5917	-4.6833	46.958	-5.308	229.493	260.527	115.807	122.016	203.105	248.561	-38.262	-59.368	236.620	-57.170	223.810	252.683	-66.646	210.272	0.00079604	0.00030824	9.0901e-05	1152.3	4.3677e-05	3.485e-06	1114.9	385.56	7.1082e-06	2.9641e-05	474.99	176	137.52	55.14	1.0242e-05	75.481	0.0044686	0.0087087	0.0025003	1046.7	0.00016591	9.944e-05	1010.2	351.17	7.512e-05	0.00010966	442.12	161.53	127.65	51.048	8.5172e-05	71.191	36.887	14.531	22.342	-73.127	8.683	78.308	-73.719	-66.700	64.678	71.727	-68.908	-63.996	-62.340	-57.086	13.907	-60.518	-8191	255	
33068.383	1	1	0	0	0.1414	0.061399	0.26989	0.075413	0.21312	0.2769	0.032196	0.3382	0.16452	0.18109	0.11176	0.055561	0.18124	0.10308	0.10411	0.062891	-3.825	-4.8229	-4.5062	-4.4437	-4.7292	-4.2312	-4.6396	-4.8688	-4.1813	-4.7937	-4.4771	-4.4688	-4.9292	-4.2771	-4.5375	-4.8583	59.695	118.599	-0.368	-33.979	41.697	-30.070	-64.310	218.212	111.418	12.876	246.434	-59.347	-75.677	209.163	234.914	90.629	0.00048772	0.00024067	0.00023171	1159.1	5.9965e-05	1.5866e-06	1128.8	393.95	1.3867e-05	2.7633e-06	492.28	182.43	143.06	57.38	8.8063e-06	78.45	0.0043807	0.0087883	0.002461	1050.9	0.00016782	9.9398e-05	1022.9	358.89	7.5772e-05	9.932e-05	457.81	167.37	132.16	53.137	8.5701e-05	74.133	7.202	222.995	1.645	-72.975	3.996	136.441	-74.032	-66.765	64.558	51.766	-68.769	-64.480	-62.127	-56.910	-30.889	-60.243	-8191	255	
33068.480	1	1	0	0	0.11192	0.028103	0.14698	0.29123	0.12341	0.16791	0.18584	0.34648	0.073481	0.24118	0.032826	0.17829	0.21798	0.10127	0.15119	0.20817	-3.675	-4.6958	-4.4896	-4.3875	-4.7104	-4.4292	-4.4083	-4.8	-4.2854	-4.6917	-4.7375	-4.4938	-4.9417	-4.45	-4.3917	-5.0646	-22.852	2.606	-9.657	226.325	15.897	216.957	198.002	206.960	240.545	167.503	168.340	225.433	191.380	207.843	245.036	189.156	0.00083155	0.00038337	0.00029697	1186.2	5.4546e-05	8.0303e-06	1141.1	399.31	1.3665e-05	7.5073e-06	494.98	183.15	142.23	57.213	5.7672e-06	78.876	0.0044817	0.0086981	0.0024804	1073.8	0.00013784	0.00012028	1040.4	363.13	7.5984e-05	9.7802e-05	459.27	167.7	131.91	53.017	8.4277e-05	74.346	25.127	251.754	-23.042	-72.883	14.845	119.200	-74.069	-66.524	7.434	57.382	-68.660	-64.038	-62.017	-56.988	102.251	-60.363	-8191	255	
33068.574	1	1	0	0	0.14595	0.12044	0.14974	0.2972	0.17011	0.1457	0.26651	0.24377	0.26444	0.035256	0.18731	0.15911	0.25224	0.11636	0.35456	0.25564	-3.9729	-4.5354	-4.6542	-4.375	-4.8896	-4.6062	-4.575	-4.8125	-4.3042	-4.5208	-4.9458	-4.3042	-4.7521	-4.5771	-4.2833	-5.0667	54.152	125.912	52.367	268.719	257.577	-57.587	202.750	252.280	69.762	16.963	-23.859	219.275	-48.829	-26.637	-29.327	-82.459	0.00065528	0.001094	0.0001866	1195	6.6128e-05	1.8187e-05	1159.8	402.87	8.535e-06	6.6654e-06	498.14	185.51	144.74	58.048	2.717e-06	79.794	0.0045306	0.0087878	0.002499	1078.7	8.0878e-05	0.00019632	1051.3	367.14	7.6613e-05	0.00010075	465.75	169.6	133.77	53.74	8.5151e-05	75.163	47.460	-50.668	264.840	-73.036	20.605	53.824	-73.923	-66.654	31.843	57.133	-68.601	-64.228	-61.910	-57.048	202.945	-60.437	-8191	255	
33068.648	1	1	0	0	0.044234	0.23889	0.053175	0.31241	0.18976	0.18664	0.12238	0.078736	0.25222	0.24365	0.22576	0.25193	0.042788	0.10685	0.18364	0.22474	-3.9854	-4.5958	-4.8208	-4.3646	-4.6875	-4.6375	-4.3562	-5.1438	-4.2833	-4.6625	-4.9	-4.3625	-4.7042	-4.675	-4.2542	-4.8688	-68.626	-0.459	107.264	220.162	24.853	-67.044	186.558	169.434	152.822	265.375	260.802	208.505	-38.339	-75.059	238.752	248.351	0.00085818	0.00022758	0.0001659	1195	6.1723e-06	3.431e-05	1153.9	400.49	1.0396e-06	8.7698e-06	495.19	182.94	143.37	57.281	7.3455e-06	78.098	0.0044671	0.0086051	0.0024358	1079.9	7.5265e-05	0.00021854	1044.5	364.51	7.6237e-05	9.8685e-05	462.38	167.71	132.13	52.812	8.4981e-05	73.227	40.417	28.667	-1.066	-72.695	175.241	35.041	-73.806	-66.695	258.183	95.387	-68.452	-64.335	-62.298	-57.036	70.821	-60.278	-8191	255	
33068.770	1	1	0	0	0.1191	0.10393	0.045836	0.23191	0.23345	0.27639	0.080383	0.25557	0.40183	0.21349	0.077902	0.2874	0.089279	0.18581	0.10048	0.3831	-4.0458	-4.4646	-4.7312	-4.3792	-4.6937	-4.6479	-4.3146	-4.9396	-4.55	-4.6042	-4.9812	-4.1667	-4.6083	-4.7771	-4.3375	-4.8896	142.800	206.283	-9.687	251.029	103.524	-43.903	53.883	242.032	-27.613	78.678	-81.555	196.106	48.603	239.760	120.288	191.944	0.0016889	0.0014088	0.00034852	1174.4	1.0001e-06	4.0887e-05	1141.2	395.57	9.8656e-06	3.4336e-06	489.71	181.89	141.39	57.259	3.9271e-06	78.526	0.0055166	0.008324	0.0023007	1064.5	7.3065e-05	0.00021971	1033.9	360.74	7.5642e-05	9.6409e-05	457.65	166.5	131.24	52.942	8.1799e-05	72.522	37.533	39.109	-8.891	-72.964	213.663	43.143	-73.814	-66.441	70.970	43.526	-68.732	-64.187	-62.151	-57.114	114.621	-60.451	-8191	255	
33068.863	1	1	0	0	0.21978	0.18494	0.1075	0.093748	0.12366	0.24381	0.1635	0.1227	0.13	0.27715	0.097507	0.04916	0.20165	0.12413	0.034362	0.039153	-4.1687	-4.3271	-4.8542	-4.6438	-4.65	-4.7688	-4.4208	-4.9313	-4.5	-4.3208	-4.9958	-4.4542	-4.5771	-4.8958	-4.2208	-4.8646	141.976	44.527	103.819	244.146	28.991	7.813	212.971	217.399	99.014	51.231	175.532	-66.400	250.961	187.523	88.382	246.483	0.0013131	0.00077273	0.00020523	1176.4	1.4006e-05	4.2172e-05	1136.2	394.11	1.4787e-05	1.6309e-05	487.37	181.02	141.7	57.242	1.0889e-05	79.006	0.0084593	0.0082256	0.0023562	1060.1	7.3581e-05	0.0002175	1031.2	358.26	7.7986e-05	9.5097e-05	456.72	166.82	131.35	52.791	8.2418e-05	72.745	50.367	-8.975	-3.471	-72.985	7.772	56.701	-74.022	-66.716	113.655	27.200	-68.522	-64.140	-62.210	-56.924	81.220	-60.067	-8191	255	
33068.961	1	1	0	0	0.094927	0.079807	0.18621	0.28503	0.22713	0.19137	0.25116	0.17139	0.12434	0.1484	0.16236	0.21555	0.098582	0.05521	0.042899	0.12642	-4.2896	-4.2688	-4.95	-4.4229	-4.6146	-4.6792	-4.4208	-4.7292	-4.7146	-4.4083	-4.9292	-4.3625	-4.4771	-4.9771	-4.1937	-4.7729	87.951	97.804	67.235	267.369	254.657	274.147	178.365	-82.322	14.415	112.551	207.213	244.071	-69.066	-1.609	-62.943	256.137	0.0014058	0.00091621	0.00013501	1165.6	1.6827e-05	3.7619e-05	1140.1	392.4	1.1496e-05	3.3499e-06	488.55	181.55	140.42	56.943	9.5033e-06	77.821	0.0093166	0.0082289	0.0023102	1058.5	7.2966e-05	0.00021595	1033	357.78	7.3659e-05	9.2737e-05	451.88	166.75	130.26	52.565	8.2378e-05	71.898	67.311	-56.600	-10.308	-72.921	65.056	51.005	-73.883	-66.613	37.704	-16.729	-68.598	-63.697	-62.153	-56.812	147.241	-60.164	-8191	255	
33069.059	1	1	0	0	0.14255	0.15318	0.07099	0.3016	0.3072	0.18443	0.14441	0.25735	0.1034	0.10791	0.23428	0.061362	0.049506	0.27177	0.16641	0.014322	-4.3042	-4.1771	-4.7458	-4.4604	-4.1917	-4.6937	-4.4833	-4.6146	-4.5104	-4.2229	-4.9146	-4.5667	-4.3708	-4.9271	-4.25	-4.5375	111.280	80.145	171.164	206.792	214.891	194.444	242.101	216.055	-82.545	23.891	196.935	192.597	102.667	273.906	151.944	214.013	0.0014818	0.00092512	0.0001203	1164	6.1893e-06	3.7726e-05	1133.4	389.7	1.4467e-05	9.7677e-06	487.48	179.47	139.93	56.66	9.1676e-06	78.108	0.0094035	0.0082376	0.0023671	1054.7	7.1929e-05	0.00021628	1027	355.86	7.5954e-05	9.3859e-05	444.17	168.64	130.05	52.553	8.2742e-05	72.129	74.654	81.697	-13.061	-72.868	96.180	58.306	-73.838	-66.706	-8.908	-4.243	-68.598	-64.234	-61.635	-56.812	36.270	-60.423	-8191	255	
33069.152	1	1	0	0	0.17333	0.19114	0.23032	0.095444	0.033979	0.10592	0.14067	0.24458	0.067405	0.062166	0.050694	0.045603	0.10955	0.12306	0.33234	0.166	-4.4208	-4.2271	-4.6792	-4.7063	-4.3354	-4.8917	-4.4771	-4.7292	-4.7729	-4.3396	-4.7146	-4.6208	-4.275	-4.8	-4.3146	-4.6062	23.511	120.747	-62.963	236.598	60.784	-31.063	210.754	221.059	225.730	158.473	-66.493	251.489	136.808	-7.000	-13.344	230.742	0.0018561	0.0012027	9.1517e-05	1172.7	7.3996e-06	4.0611e-05	1140.8	395.86	1.7746e-05	1.6519e-05	493.08	183.52	143.54	57.425	1.3313e-05	79.309	0.0091406	0.0082434	0.0023382	1061.8	7.1976e-05	0.00021443	1036	360.55	7.5292e-05	9.4276e-05	450.78	171.87	132.04	53.158	8.3878e-05	73.24	64.153	19.447	67.514	-72.880	56.094	76.218	-73.797	-66.416	25.028	91.512	-68.776	-63.962	-62.092	-56.890	31.355	-60.159	-8191	255	
33069.250	1	1	0	0	0.093854	0.10486	0.076764	0.23083	0.1021	0.19071	0.24389	0.29339	0.01322	0.054667	0.087827	0.10693	0.017192	0.073517	0.032785	0.16306	-4.3833	-4.2083	-4.7	-4.8021	-4.1687	-4.7063	-4.4667	-4.4458	-4.8313	-4.2854	-4.9146	-4.7229	-4.2146	-5.0042	-4.4646	-4.5563	2.425	197.481	219.475	257.841	147.716	-49.407	174.246	185.844	146.723	173.387	-55.918	116.873	39.342	198.217	149.771	166.871	0.0018181	0.00078164	0.00014541	1185.3	1.0979e-05	3.9443e-05	1160	399.27	9.1689e-06	9.3242e-06	500.57	185.31	145.1	57.761	8.3662e-06	80.037	0.009271	0.008319	0.0023288	1071.6	7.0545e-05	0.00016285	1054.7	363.37	7.3416e-05	9.6181e-05	456.92	173.83	134.1	53.727	8.2391e-05	74.111	66.432	12.418	-14.827	-73.049	1.252	52.476	-74.030	-66.802	43.964	48.299	-68.677	-63.871	-61.862	-57.003	63.671	-60.240	-8191	255	
33069.344	1	1	0	0	0.084348	0.24396	0.3827	0.12996	0.27432	0.24294	0.060866	0.11681	0.12281	0.066812	0.20552	0.086969	0.12907	0.052279	0.067865	0.091881	-4.6083	-4.4688	-4.4646	-4.7458	-4.2771	-4.8021	-4.525	-4.3458	-4.95	-4.4688	-4.7396	-4.7562	-4.0896	-4.8833	-4.5771	-4.5062	-83.079	-58.191	162.898	230.959	167.724	193.503	3.583	213.032	-41.140	99.432	262.308	154.052	-15.627	213.851	-2.620	-33.156	0.0013939	0.00066102	8.156e-05	1189.9	4.3558e-06	8.7292e-06	1162.9	399.79	1.8083e-05	7.9145e-06	501.12	183.6	142.84	57.427	3.463e-06	79.091	0.0092314	0.0086114	0.0023934	1079.1	7.3536e-05	9.7195e-05	1071.8	364.86	7.5019e-05	9.6289e-05	457.1	173.25	132.25	53.169	8.2905e-05	73.071	71.976	8.885	-36.498	-72.872	27.590	58.436	-73.565	-66.507	69.613	22.648	-68.782	-64.124	-62.422	-57.124	-8.759	-60.059	-8191	255	
33069.465	1	1	0	0	0.11092	0.1345	0.079488	0.042101	0.11253	0.11982	0.16309	0.10456	0.14406	0.13638	0.24923	0.1743	0.34092	0.12195	0.020735	0.18535	-4.4708	-4.3604	-4.3979	-4.9437	-4.2771	-4.55	-4.6667	-4.1438	-4.9583	-4.3771	-4.6292	-4.8708	-4.3333	-4.6667	-4.5542	-4.3667	59.947	51.059	192.793	185.581	-41.291	211.170	181.327	251.948	-21.192	184.300	195.812	-78.732	-84.102	244.122	-60.427	217.267	0.0013115	0.00084263	0.00016039	1176.4	6.921e-06	1.2365e-05	1153.7	395.35	1.6746e-05	8.5515e-06	493.14	183.33	141.67	56.873	4.3486e-06	78.671	0.0091667	0.0083748	0.0023121	1062.1	7.1306e-05	9.5173e-05	1059.1	359.21	7.3559e-05	9.3571e-05	450.36	171.05	131.13	52.779	8.1223e-05	72.622	74.472	34.265	-38.423	-72.777	70.527	76.073	-73.537	-66.502	58.847	106.014	-68.406	-64.278	-61.808	-57.035	15.313	-60.247	-8191	255	
33069.559	1	1	0	0	0.16695	0.070527	0.13777	0.29286	0.22605	0.25157	0.23544	0.18362	0.12879	0.090065	0.13691	0.12436	0.29466	0.07217	0.1387	0.12248	-4.3542	-4.2729	-4.4417	-4.8938	-4.3667	-4.65	-4.7729	-4.4167	-4.8354	-4.6167	-4.4479	-4.925	-4.1708	-4.8083	-4.7833	-4.1625	261.360	137.902	-16.093	-47.023	11.294	256.751	105.181	-81.779	-46.396	99.313	256.630	-33.979	215.558	263.404	34.402	215.549	0.0011007	0.00141	0.0001935	1161.1	1.3431e-05	1.3423e-05	1142.9	391.02	1.0691e-05	7.5119e-06	492.7	180.92	141.06	56.984	1.0278e-05	78.788	0.0067014	0.011326	0.0023035	1055	7.0344e-05	9.2421e-05	1052.8	356.78	7.3248e-05	9.4797e-05	448.53	170.16	130.73	52.592	7.981e-05	72.559	87.612	205.977	-5.757	-72.984	40.222	48.478	-73.936	-66.645	102.487	105.079	-68.847	-64.089	-62.180	-57.090	37.390	-60.083	-8191	255	
33069.656	1	1	0	0	0.30402	0.10867	0.10211	0.27428	0.30165	0.12944	0.18364	0.24602	0.19281	0.11995	0.067202	0.37651	0.17475	0.36861	0.29484	0.20711	-4.4625	-4.5062	-4.1937	-5.1375	-4.3042	-4.5146	-4.8187	-4.4688	-4.6521	-4.6188	-4.3208	-4.9896	-4.5104	-4.525	-4.7042	-4.4187	37.135	192.091	138.819	186.435	196.456	-77.134	-55.128	245.950	212.980	122.261	163.336	220.228	252.046	232.795	-8.646	237.391	0.00062104	0.00088725	0.00034826	1170.9	1.294e-05	1.0959e-05	1143.3	393.08	5.669e-06	6.6436e-06	493.67	182.59	142.48	56.852	5.5933e-06	78.807	0.004182	0.018148	0.0022405	1057.5	7.2153e-05	9.4434e-05	1054.4	357.32	7.1901e-05	9.3238e-05	450.25	171.15	130.95	52.808	7.6703e-05	72.955	38.022	223.070	12.726	-72.875	46.373	94.617	-73.860	-66.439	139.140	6.244	-68.684	-64.287	-62.101	-57.208	36.919	-59.925	-8191	255	
33069.754	1	1	0	0	0.19633	0.17086	0.11479	0.16198	0.10205	0.39431	0.21708	0.33174	0.13766	0.078508	0.25963	0.019481	0.26325	0.18761	0.16806	0.1032	-4.3187	-4.5312	-4.1979	-4.9125	-4.3354	-4.3562	-4.7646	-4.3729	-4.7333	-4.6021	-4.3042	-4.9958	-4.4729	-4.3667	-4.8458	-4.4021	110.678	15.751	201.488	252.499	0.776	209.872	241.247	229.196	206.651	41.482	154.094	-63.222	259.327	255.293	145.203	90.363	0.00087012	0.0030985	0.00025374	1162.5	8.8212e-06	9.1549e-06	1145.9	394.02	1.0602e-05	7.5325e-06	494.69	183.52	142.35	57.494	8.027e-06	79.646	0.0041648	0.01788	0.0021961	1055.2	6.8571e-05	8.8515e-05	1051.7	358.35	7.063e-05	8.8772e-05	451.98	170.31	133.89	53.22	7.7704e-05	73.452	46.174	-58.380	12.032	-72.952	128.924	89.653	-73.613	-66.815	241.493	79.375	-68.715	-63.943	-61.902	-57.111	48.307	-60.217	-8191	255	
33069.871	1	1	0	0	0.013776	0.13962	0.032088	0.12212	0.18229	0.075782	0.1498	0.29047	0.24789	0.21511	0.22846	0.071871	0.29296	0.091949	0.11585	0.19001	-4.0813	-4.5292	-4.2125	-4.8479	-4.525	-4.3104	-5.075	-4.4563	-4.5479	-4.675	-4.2104	-4.8875	-4.6125	-4.3146	-4.8417	-4.5146	222.620	30.540	-49.508	237.248	273.355	141.943	179.600	-78.545	65.394	152.398	180.114	58.399	-0.382	162.604	-74.389	-68.934	0.00057283	0.003213	0.0003649	1178.9	9.0191e-06	5.8919e-06	1148.7	396.53	2.6441e-06	3.9713e-06	495.65	183.82	142.43	57.676	9.2945e-06	79.159	0.0041437	0.018338	0.0022469	1062	7.0533e-05	8.9938e-05	1057.1	360.77	7.0407e-05	8.9597e-05	453.01	168.99	135.81	53.331	8.0631e-05	73.475	22.259	-47.288	48.359	-73.033	85.013	116.174	-73.545	-66.718	44.481	7.748	-68.631	-64.052	-61.762	-56.694	36.279	-59.974	-8191	255	
33069.945	1	1	0	0	0.14991	0.17863	0.043709	0.22421	0.048187	0.17013	0.17192	0.22682	0.038876	0.11719	0.23127	0.25952	0.077796	0.22273	0.12678	0.069133	-4.1042	-4.8042	-4.0542	-4.9542	-4.4292	-4.3396	-5.1188	-4.5229	-4.5813	-4.9146	-4.2708	-4.9146	-4.5563	-4.2937	-4.9479	-4.4958	83.242	226.949	-57.483	243.130	127.272	-32.040	171.019	221.749	112.671	109.533	242.733	-39.834	-39.035	250.215	-44.544	-82.030	0.00094475	0.0026144	0.00028233	1184.1	4.1743e-06	8.034e-06	1156.3	399.33	1.3683e-05	1.6101e-05	503.46	186.62	144.65	58.356	6.6215e-06	80.596	0.0041598	0.018266	0.0022688	1067.1	7.0611e-05	9.3004e-05	1063.9	362.6	6.9932e-05	9.3514e-05	457.86	170.91	137.4	53.761	7.8388e-05	74.221	41.446	-64.097	-0.570	-72.483	-69.176	87.700	-73.704	-66.526	50.154	81.712	-68.432	-64.401	-61.877	-57.175	-60.741	-60.073	-8191	255	
33070.066	1	1	0	0	0.13951	0.1246	0.17645	0.17927	0.041412	0.091865	0.041424	0.050494	0.096529	0.2097	0.1845	0.056144	0.14546	0.092286	0.18163	0.19562	-4.0042	-4.9833	-4.3	-4.8313	-4.6646	-4.375	-4.8313	-4.7583	-4.4979	-4.9458	-4.5667	-4.7896	-4.6479	-4.4938	-4.8271	-4.5188	212.407	53.230	146.469	-81.817	163.126	130.738	235.167	269.064	-36.912	-5.609	265.056	194.806	265.485	187.492	130.912	137.169	0.00058752	0.003032	0.00021967	1174.3	5.3779e-06	5.0102e-06	1156.1	396	1.2368e-05	7.8812e-06	501.58	184.56	141.98	57.717	7.7272e-06	79.731	0.0041061	0.018022	0.0022485	1065.8	6.7108e-05	8.8728e-05	1056.1	363.08	7.045e-05	8.928e-05	456.06	169.4	135.89	53.271	7.6826e-05	73.498	29.449	-55.995	47.035	-72.958	67.589	40.608	-73.712	-66.594	64.092	38.918	-69.099	-64.085	-61.906	-56.874	62.015	-60.104	-8191	255	
33070.160	1	1	0	0	0.057775	0.19373	0.12278	0.1683	0.11641	0.01954	0.080117	0.19524	0.1648	0.14907	0.19404	0.15469	0.16689	0.11794	0.1004	0.23259	-3.7917	-4.8313	-4.2208	-4.6917	-4.725	-4.3396	-4.7979	-4.6021	-4.4271	-4.9458	-4.4375	-4.6646	-4.7708	-4.4646	-4.7729	-4.6083	87.874	135.893	150.791	250.942	-37.953	187.500	235.316	177.132	267.477	225.593	164.485	225.484	254.761	244.698	76.708	201.845	0.00076358	0.0027126	9.7396e-06	1175.8	5.0336e-06	4.7859e-06	1147	394.77	2.9577e-06	2.2152e-06	496.5	183.89	141.05	57.097	5.76e-06	78.469	0.0040512	0.017524	0.0022054	1058.5	6.6517e-05	9.0133e-05	1040	363.75	6.8249e-05	9.1341e-05	451.13	168.51	134.75	52.786	7.6899e-05	72.65	49.587	-44.124	43.522	-72.968	61.934	143.488	-74.053	-66.470	43.555	69.748	-68.649	-64.123	-62.391	-57.183	37.206	-60.020	-8191	255	
33070.258	1	1	0	0	0.2418	0.078789	0.24622	0.17465	0.41779	0.36855	0.14549	0.13777	0.092972	0.060443	0.15895	0.18235	0.27231	0.078984	0.25545	0.24195	-3.8646	-4.9563	-4.4104	-4.7521	-4.8063	-4.0229	-4.7063	-4.8562	-4.0542	-4.9354	-4.475	-4.4833	-4.9042	-4.5375	-4.5521	-4.7937	137.692	44.806	177.613	256.066	200.937	107.824	144.438	217.426	-61.840	135.923	157.063	250.303	254.428	229.607	155.231	250.641	0.00080092	0.0022999	0.00025666	1161.4	9.7383e-06	8.5852e-06	1143.2	391.27	8.3048e-06	1.341e-05	490.75	181.94	140.23	56.737	1.3543e-05	77.955	0.0040172	0.017867	0.0022374	1051.3	6.6054e-05	8.642e-05	1035.5	360.54	6.6721e-05	8.7672e-05	448.73	166.99	134.24	52.594	7.7024e-05	72.429	18.785	-21.116	-25.190	-72.978	30.557	80.405	-73.825	-66.552	5.403	65.966	-68.662	-64.055	-62.074	-57.110	-4.754	-60.039	-8191	255	
33070.352	1	1	0	0	0.11368	0.07486	0.25143	0.084999	0.012031	0.098471	0.17764	0.14403	0.14732	0.13834	0.13368	0.10928	0.097946	0.10413	0.12905	0.051503	-3.8417	-4.7688	-4.4458	-4.5625	-4.8187	-4.3583	-4.975	-4.8938	-4.2146	-4.8417	-4.6646	-4.2937	-4.8771	-4.4396	-4.5479	-4.8375	84.528	152.970	223.741	265.303	112.777	-14.781	-84.628	212.651	36.938	21.187	152.752	208.645	274.894	44.845	112.295	7.513	0.00064676	0.0033456	0.00037823	1158.9	9.0329e-06	5.6503e-06	1142.8	389.96	1.0705e-05	1.4304e-05	494.63	182.36	139.6	57.064	7.3757e-06	78.635	0.0039443	0.011498	0.0035335	1045.6	6.7906e-05	8.8335e-05	1033.2	359.57	6.7928e-05	8.8315e-05	449.56	167.15	134.05	52.705	7.433e-05	72.633	54.137	-40.048	0.646	-73.034	90.223	-18.647	-73.595	-66.732	-3.948	69.462	-68.788	-63.932	-61.937	-56.846	46.728	-60.232	-8191	255	
33070.473	1	1	0	0	0.27932	0.062537	0.17445	0.12956	0.12575	0.024459	0.33935	0.11508	0.24869	0.069283	0.11008	0.22517	0.29571	0.12831	0.15951	0.087188	-3.8979	-4.6771	-4.4708	-4.3625	-4.7979	-4.3438	-4.6146	-4.8604	-4.325	-4.7625	-4.6917	-4.4208	-4.7812	-4.4104	-4.3479	-4.8625	92.295	265.412	-75.213	240.554	6.024	204.668	183.898	254.087	59.164	196.506	-80.423	201.901	256.249	238.404	221.634	224.508	0.0007196	0.00034262	0.0009173	1159.9	2.1646e-06	5.2729e-06	1140.2	387.45	8.2143e-06	7.3652e-06	491.99	183.12	142.1	56.938	5.7999e-06	78.589	0.0039157	0.0076765	0.0049587	1046.7	6.6548e-05	8.8608e-05	1033	358.08	6.8943e-05	8.7924e-05	449.43	167.8	133.92	52.415	7.2446e-05	72.651	22.069	34.108	-9.762	-72.839	-8.241	60.332	-74.004	-66.181	66.781	39.086	-68.702	-63.825	-61.739	-57.190	93.057	-60.119	-8191	255	
33070.547	1	1	0	0	0.2666	0.063175	0.11483	0.30934	0.14942	0.027753	0.15409	0.051358	0.1089	0.13279	0.25069	0.023622	0.12593	0.19782	0.18478	0.24343	-3.9104	-4.5979	-4.6708	-4.4146	-4.6396	-4.3292	-4.5062	-5.0479	-4.2708	-4.6104	-4.8146	-4.2479	-4.9333	-4.5979	-4.4729	-4.9812	-16.209	65.244	191.135	217.382	255.735	-7.789	202.135	-43.757	-0.538	138.475	251.954	64.900	230.787	-29.243	-70.862	173.542	0.00063062	0.00064671	0.0010619	1143.1	1.0317e-05	1.5532e-05	1142.4	384.75	1.0754e-05	6.2318e-06	488.11	181.01	139.46	56.615	9.5784e-06	77.253	0.0039689	0.0076694	0.0048644	1040	6.7604e-05	8.7052e-05	1030.5	356.8	6.819e-05	8.793e-05	446.36	166.03	130.44	52.678	7.4554e-05	71.701	44.270	38.060	-21.900	-72.798	31.627	49.055	-73.664	-66.337	199.276	88.574	-68.800	-63.891	-61.478	-56.784	75.390	-60.128	-8191	255	
33070.641	1	1	0	0	0.20517	0.0079417	0.25148	0.12187	0.17979	0.13445	0.063758	0.38106	0.18378	0.34645	0.12701	0.1509	0.128	0.11017	0.21674	0.05702	-4.225	-4.6125	-4.8042	-4.3458	-4.9167	-4.5375	-4.4271	-5.0062	-4.4563	-4.5458	-4.8812	-4.2396	-4.7875	-4.7229	-4.2708	-4.8083	-5.161	166.501	114.383	186.168	-46.795	3.321	183.952	205.317	-37.801	-81.896	-34.709	231.124	88.723	-59.613	39.158	60.748	0.0007829	0.00035551	0.00071732	1152.6	1.1155e-05	2.1648e-06	1131.8	384.94	1.0213e-05	6.7086e-06	489.99	179.93	138.35	56.268	1.1844e-05	78.081	0.0039984	0.0076988	0.004956	1040.6	6.5389e-05	8.7356e-05	1024.9	355.05	6.7802e-05	8.6678e-05	444.4	165.26	128.75	52.908	7.3241e-05	72.083	39.712	53.339	4.937	-72.988	54.019	234.425	-73.899	-66.455	91.367	-38.300	-68.627	-63.643	-61.696	-56.940	100.757	-60.018	-8191	255	
33070.738	1	1	0	0	0.040007	0.18403	0.10095	0.24096	0.04492	0.22567	0.30928	0.28209	0.12106	0.062103	0.031469	0.06531	0.19035	0.20301	0.17561	0.31473	-3.9938	-4.4625	-4.8292	-4.4	-4.75	-4.6104	-4.3792	-4.9646	-4.2792	-4.5292	-4.8688	-4.3208	-4.7583	-4.8479	-4.2562	-4.9229	116.975	-43.691	-57.953	251.275	51.455	237.965	261.802	211.222	69.253	254.439	41.740	61.200	124.052	225.975	-72.725	191.164	0.00060748	0.00095346	0.00089752	1150.8	1.6008e-05	7.259e-06	1139.1	385.26	1.4947e-05	6.3314e-06	486.15	182.22	139.68	56.214	3.487e-06	78.207	0.0040628	0.0073626	0.0048823	1041.2	6.6021e-05	8.6743e-05	1029.5	355.19	6.7797e-05	8.4176e-05	445.59	167.06	129.11	53	7.1602e-05	72.253	41.447	9.248	-4.935	-72.739	48.238	107.944	-73.710	-66.884	167.075	100.540	-68.604	-63.854	-61.834	-56.776	245.935	-60.076	-8191	255	
33070.832	1	1	0	0	0.18101	0.058207	0.23493	0.29587	0.041217	0.1824	0.18128	0.14681	0.12425	0.25789	0.24388	0.1597	0.25737	0.0077465	0.14763	0.030597	-4.1167	-4.4938	-4.7354	-4.3458	-4.7979	-4.6771	-4.3042	-4.9167	-4.4812	-4.2604	-4.9104	-4.3708	-4.6438	-4.825	-4.2354	-4.875	210.462	-10.280	9.718	219.988	270.015	-80.294	179.620	207.497	131.183	-52.347	221.648	217.790	232.154	144.910	114.422	-41.617	0.00078814	0.00064445	0.00087414	1149.5	1.0118e-05	1.1265e-05	1144.5	388.43	5.7559e-05	1.1353e-05	490.27	183.49	140.06	56.283	4.0841e-06	78.253	0.004077	0.0074307	0.0049785	1044.4	6.4614e-05	8.5125e-05	1037.7	353.4	0.00011474	8.3447e-05	447.96	167.13	129.63	52.853	7.4744e-05	72.353	34.455	-21.917	4.633	-72.766	54.446	82.527	-74.025	-66.100	206.201	13.729	-68.713	-63.909	-61.773	-56.872	35.239	-60.048	-8191	255	
33070.953	1	1	0	0	0.23895	0.11301	0.033381	0.13764	0.20039	0.16995	0.2993	0.43005	0.039888	0.1826	0.30607	0.13626	0.22596	0.13732	0.11792	0.32098	-4.1479	-4.3229	-4.6583	-4.4479	-4.5729	-4.5979	-4.2604	-4.8667	-4.6708	-4.3083	-4.9896	-4.3854	-4.4229	-4.9646	-4.35	-4.6896	219.226	190.088	55.829	222.942	261.952	102.491	82.921	-39.219	37.711	190.991	222.012	256.652	180.702	251.816	113.767	186.690	0.00065021	0.0010776	0.0012772	1155.8	1.6269e-05	1.0841e-05	1144.4	385.12	4.9651e-05	1.1778e-05	491.51	182.19	140.06	56.313	1.6073e-06	77.979	0.0038624	0.0073312	0.004843	1043.2	6.2857e-05	8.351e-05	1034.7	350.88	0.00014925	8.2321e-05	447.36	166.68	129.41	52.947	7.2056e-05	72.036	23.455	3.227	1.899	-72.933	51.298	64.717	-73.968	-66.630	184.436	66.800	-68.631	-63.816	-62.020	-56.785	260.434	-59.954	-8191	255	
33071.051	1	1	0	0	0.091736	0.11002	0.20661	0.24252	0.072037	0.11287	0.15759	0.092066	0.21465	0.16158	0.31914	0.24646	0.11412	0.20528	0.20859	0.22592	-4.3604	-4.1625	-4.7688	-4.7104	-4.5667	-4.8833	-4.4688	-4.8583	-4.6438	-4.4458	-4.8917	-4.6687	-4.3729	-4.8292	-4.35	-4.875	129.646	-83.503	253.059	179.772	-39.966	22.323	180.815	205.465	149.166	40.845	-54.462	-43.136	16.011	228.646	-55.878	243.639	0.00060155	0.00038009	0.001018	1151.4	1.2875e-05	1.0598e-05	1141.9	382.75	3.402e-05	2.1332e-06	489.07	181.35	139.94	55.944	7.2058e-06	78.066	0.003797	0.0072309	0.0043691	1042.2	6.08e-05	8.19e-05	1032.6	349.75	0.00014989	8.1882e-05	445.07	166.04	129.16	52.764	7.4442e-05	71.943	51.269	-19.557	-14.224	-72.921	57.972	75.587	-73.801	-66.532	168.802	100.165	-68.750	-63.943	-61.841	-57.284	80.285	-60.052	-8191	255	
33071.145	1	1	0	0	0.12178	0.16354	0.17595	0.18022	0.093163	0.16038	0.12833	0.20072	0.30344	0.15235	0.0087818	0.093084	0.087717	0.14193	0.14561	0.10422	-4.4771	-4.1083	-4.7646	-4.6062	-4.2104	-4.8562	-4.3625	-4.6167	-4.6521	-4.1562	-4.9688	-4.6687	-4.4354	-4.9833	-4.2792	-4.6062	112.629	63.289	-62.739	-44.791	242.521	18.886	243.352	267.686	79.441	185.342	-59.405	204.898	98.639	169.111	-35.694	231.225	0.00097685	0.00096251	0.00099281	1150.7	7.4013e-06	7.6309e-06	1140.9	384.11	5.144e-05	3.2065e-06	489.91	182.21	140.95	56.097	1.2147e-05	77.678	0.003871	0.0074161	0.0027299	1048.8	6.1818e-05	8.4006e-05	1032.9	349.5	0.00014968	8.3995e-05	446.12	166.41	129.39	52.656	7.1637e-05	71.795	25.780	20.148	-5.158	-72.657	69.446	89.700	-73.774	-66.698	210.646	93.719	-68.323	-63.679	-61.819	-57.113	79.620	-59.968	-8191	255	
33071.242	1	1	0	0	0.091394	0.10946	0.21243	0.14461	0.16042	0.25037	0.12942	0.17987	0.068448	0.084207	0.22757	0.20287	0.23577	0.060176	0.043134	0.2416	-4.3771	-4.1562	-4.7875	-4.7125	-4.375	-4.9896	-4.4083	-4.6417	-4.7562	-4.1937	-4.7083	-4.6896	-4.3812	-4.8438	-4.6312	-4.5125	-69.841	-67.779	-24.265	172.274	-34.014	227.554	-73.885	120.001	169.669	103.909	-70.165	-36.544	159.527	95.779	150.877	238.950	0.00086045	0.00094712	0.00011914	1157.4	2.7138e-06	9.228e-06	1136.2	384.45	4.8247e-05	1.5002e-06	489.98	182.25	140.48	56.016	9.8275e-06	77.886	0.0038211	0.0072258	0.0020392	1055.1	6.0693e-05	8.3772e-05	1032.5	349.2	0.00014591	8.2982e-05	446.91	166.9	128.98	52.472	7.2777e-05	71.759	13.431	4.211	48.762	-72.616	130.179	67.667	-73.940	-66.558	207.950	66.835	-68.563	-64.032	-61.853	-57.212	-63.131	-59.909	-8191	255	
33071.336	1	1	0	0	0.15973	0.053431	0.11539	0.2943	0.01044	0.16728	0.16549	0.16185	0.22739	0.1514	0.42197	0.28102	0.15359	0.088093	0.12789	0.13228	-4.4458	-4.35	-4.7229	-4.625	-4.375	-4.8146	-4.6229	-4.5396	-4.8521	-4.3125	-4.6937	-4.6188	-4.2063	-4.8562	-4.5375	-4.6167	101.592	237.013	60.423	241.628	-67.719	152.140	226.833	149.084	182.623	35.821	228.486	220.474	248.405	136.904	-81.849	249.791	0.00060857	0.00077717	0.00025372	1153.1	8.8073e-06	2.8538e-06	1144	385.14	3.3555e-05	4.2076e-06	491.23	181.84	140.98	56.212	1.6297e-05	78.048	0.0036835	0.0071783	0.0019934	1054.8	6.1777e-05	8.309e-05	1031.5	350.27	0.00014525	8.0395e-05	445.81	166.58	129.69	52.153	0.00012999	71.791	42.382	36.655	-56.679	-72.844	14.013	-51.612	-73.662	-66.485	205.070	74.731	-68.635	-63.990	-62.127	-57.052	-26.130	-60.233	-8191	255	
33071.434	1	1	0	0	0.18279	0.20229	0.071835	0.16527	0.079205	0.035443	0.29137	0.16804	0.1991	0.1667	0.11994	0.25447	0.047265	0.14843	0.12722	0.11003	-4.475	-4.3583	-4.7167	-4.8583	-4.1625	-5.0208	-4.7375	-4.4875	-4.9313	-4.3479	-4.6583	-4.8292	-4.3292	-4.775	-4.6312	-4.3562	-3.879	37.849	24.207	275.081	227.303	-34.141	268.508	-43.969	86.657	262.222	-80.873	177.913	-16.322	-76.694	63.472	15.862	0.00071758	0.00030947	0.0003083	1143.5	7.7189e-06	1.1913e-05	1138	382.25	5.5918e-05	1.041e-05	488.71	181.38	140.02	56.052	4.9724e-05	77.752	0.0038082	0.0070938	0.0019615	1052.2	6.1725e-05	7.9925e-05	1029.1	349.08	0.00014436	8.1603e-05	445.8	166.29	129.41	51.719	0.00016194	71.667	19.149	-18.201	20.582	-72.483	72.129	18.822	-74.061	-65.975	216.713	49.047	-68.640	-64.117	-61.451	-57.087	-17.246	-59.815	-8191	255	
33071.555	1	1	0	0	0.01889	0.0031454	0.06175	0.22491	0.29607	0.12187	0.018657	0.25106	0.051172	0.07846	0.1735	0.058228	0.20401	0.13252	0.11637	0.31779	-4.4083	-4.5417	-4.4354	-4.9896	-4.2	-4.6458	-4.8625	-4.3667	-4.7438	-4.5792	-4.475	-4.9083	-4.2854	-4.6729	-4.825	-4.3083	267.204	-63.023	60.147	-77.144	-15.269	214.245	-35.755	236.632	129.658	188.035	119.589	-51.655	42.699	186.068	262.507	166.029	0.0006957	0.0011272	0.00036923	1150	7.4424e-06	7.8608e-06	1137.2	384.71	1.2458e-05	2.309e-05	489.4	182.43	139.97	55.776	3.873e-05	77.461	0.0038471	0.0069985	0.0019268	1052.6	6.2112e-05	8.1177e-05	1030.8	349.87	0.00012987	8.8186e-05	446.1	166.71	129.25	51.669	0.00016465	71.646	55.132	21.136	-13.274	-72.875	91.245	36.313	-73.830	-66.589	132.279	202.708	-68.631	-63.900	-61.503	-56.551	-9.099	-59.743	-8191	255	
33071.648	1	1	0	0	0.22383	0.19466	0.092915	0.29049	0.20284	0.053598	0.23927	0.22059	0.085018	0.28109	0.11358	0.27653	0.25638	0.21654	0.16779	0.10328	-4.4458	-4.3688	-4.3938	-4.9062	-4.3458	-4.6188	-4.8167	-4.4333	-4.7208	-4.4958	-4.4125	-4.9792	-4.3375	-4.4833	-4.7438	-4.35	261.058	-78.658	122.234	243.670	14.156	6.654	183.423	-31.433	246.256	177.039	99.103	190.696	-69.478	275.661	-70.264	170.212	0.00064684	0.00060129	0.00020617	1151.6	1.2579e-05	4.3969e-06	1155.8	386.67	1.2073e-05	1.6913e-05	490.8	183.09	140.07	55.979	4.5456e-05	78.167	0.0038302	0.0070436	0.002001	1055.5	6.3862e-05	8.0862e-05	1041.8	351	7.5727e-05	0.00015638	449.15	167.57	129.64	51.789	0.00016583	72.012	24.914	-27.951	70.084	-72.745	45.585	34.586	-73.712	-66.192	75.909	223.937	-68.475	-63.719	-61.953	-56.683	1.318	-59.925	-8191	255	
33071.746	1	1	0	0	0.1655	0.11444	0.17814	0.18559	0.054325	0.19966	0.1746	0.26419	0.096471	0.24963	0.071383	0.24634	0.098511	0.17593	0.16241	0.16689	-4.4729	-4.4958	-4.1813	-4.9062	-4.2312	-4.3979	-4.825	-4.3979	-4.6875	-4.6167	-4.4979	-4.8646	-4.2083	-4.5583	-4.7146	-4.4125	-22.429	194.905	-28.601	264.961	-82.737	8.222	-52.954	256.992	-23.680	122.230	194.257	236.687	263.586	229.163	-58.650	183.964	0.00051224	0.00074289	8.5967e-05	1158.3	8.5067e-06	5.0967e-06	1151	386.92	1.4427e-05	2.9279e-05	492.36	182.69	140.54	55.967	4.5854e-05	77.291	0.0037019	0.0069052	0.0020265	1057.4	6.2478e-05	8.1518e-05	1040.7	350.45	6.5097e-05	0.00019008	448.94	166.91	129.05	51.719	0.00016265	71.695	37.198	-36.714	43.105	-72.558	27.298	113.540	-73.907	-66.406	95.627	263.391	-68.543	-64.121	-61.452	-56.906	-2.066	-59.841	-8191	255	
33071.844	1	1	0	0	0.10369	0.25563	0.30455	0.242	0.1332	0.17765	0.27936	0.13072	0.10008	0.027732	0.21067	0.10719	0.21716	0.1359	0.073413	0.16122	-4.3458	-4.7063	-4.3063	-4.8583	-4.4646	-4.5042	-4.9563	-4.5167	-4.5271	-4.6875	-4.3625	-4.95	-4.4479	-4.5563	-4.7208	-4.5042	-60.572	266.007	274.892	250.113	-1.055	223.067	210.285	246.764	178.120	204.095	225.823	238.042	-32.787	-12.244	218.817	209.759	0.00057182	0.00082054	0.00012153	1148	3.7705e-05	1.0699e-05	1145.8	383.76	6.8432e-06	2.2463e-05	492.69	183.33	140.77	56.127	1.9377e-05	77.796	0.0036475	0.0068856	0.001977	1049	6.8918e-05	7.7771e-05	1038.2	350.47	6.2423e-05	0.00018417	447.71	167.31	129.7	51.935	0.00016259	72.105	36.373	-22.777	-26.670	-72.551	165.431	75.741	-73.777	-66.186	148.601	234.539	-68.766	-63.697	-61.349	-56.772	11.680	-59.725	-8191	255	
33071.938	1	1	0	0	0.068332	0.22433	0.1029	0.15581	0.1979	0.38976	0.069913	0.31923	0.13228	0.059919	0.27138	0.08993	0.27641	0.43928	0.10881	0.047094	-4.1646	-4.625	-4.1292	-4.9021	-4.45	-4.3	-4.9688	-4.6188	-4.5583	-4.7604	-4.4187	-4.8063	-4.7208	-4.3292	-4.7792	-4.425	254.617	64.573	86.984	206.791	98.691	-24.076	22.601	179.717	185.632	228.996	237.475	127.750	242.909	261.098	192.613	-67.345	0.00071978	0.0012456	0.00013999	1153.8	4.0912e-05	5.4961e-06	1152.1	384.89	9.0285e-06	3.42e-05	492.22	184.34	141.23	56.565	3.0151e-05	78.706	0.0036102	0.0068874	0.0020448	1044.1	0.00011654	7.948e-05	1041.4	350.4	6.0577e-05	0.000192	449.92	168.15	129.97	52.206	0.00016201	72.485	53.872	7.510	2.605	-72.779	121.941	4.444	-73.925	-66.186	-47.961	-80.069	-68.367	-64.013	-61.937	-57.090	14.406	-59.816	-8191	255	
33072.035	1	1	0	0	0.1454	0.2999	0.17871	0.32005	0.32922	0.055266	0.36065	0.10223	0.19465	0.097955	0.18581	0.16988	0.1449	0.21847	0.11503	0.1514	-4.2271	-4.9187	-4.2458	-4.7292	-4.6062	-4.2667	-4.9062	-4.4729	-4.3812	-4.7833	-4.3021	-4.8229	-4.6312	-4.3042	-4.7146	-4.6	-84.437	-30.295	210.463	207.517	-56.255	234.161	213.729	-26.396	214.978	30.558	206.092	274.539	195.357	-70.178	185.044	235.570	0.00080171	0.0010704	0.00018243	1152.8	4.5884e-05	2.3107e-06	1151	388.03	1.1356e-05	2.7764e-05	499.11	184.09	141	56.621	4.886e-05	78.785	0.0036377	0.0070766	0.0019948	1042.6	0.00014113	8.1049e-05	1044.3	352.71	6.0778e-05	0.00018756	452.38	168.9	130.2	52.239	0.00013217	72.675	37.745	12.674	-17.085	-72.773	100.953	-19.872	-73.733	-66.462	108.492	258.038	-68.452	-63.645	-62.057	-56.487	33.027	-59.898	-8191	255	
33072.129	1	1	0	0	0.30794	0.042719	0.17839	0.45316	0.14104	0.066406	0.29799	0.095183	0.23708	0.1433	0.29964	0.21272	0.16943	0.22291	0.35306	0.16763	-3.9771	-4.6875	-4.2625	-4.7833	-4.6542	-4.1833	-4.9208	-4.6917	-4.2875	-4.9042	-4.4	-4.7021	-4.9042	-4.325	-4.8229	-4.6917	46.123	126.187	12.728	265.442	-83.742	174.369	259.613	248.521	150.128	159.926	263.083	237.029	246.957	197.656	245.224	104.209	0.00081696	0.00060256	0.0002116	1149.6	4.1644e-05	1.0842e-05	1151.2	382.93	2.4132e-05	2.289e-05	493.63	182.52	141.63	56.461	4.4266e-05	78.229	0.0036005	0.0069748	0.0019407	1039.3	0.00013645	7.8577e-05	1038.2	350.17	6.0004e-05	0.00018385	449.27	167.17	130.06	52.043	7.3149e-05	73.168	36.925	120.191	-31.950	-72.975	117.913	55.330	-73.862	-66.634	68.360	267.456	-68.639	-64.186	-61.998	-56.835	28.418	-60.007	-8191	255	
33072.250	1	1	0	0	0.12219	0.16804	0.3328	0.16418	0.23392	0.061236	0.11152	0.087255	0.054308	0.098654	0.35709	0.12076	0.2682	0.014109	0.068808	0.088672	-4.0854	-4.8354	-4.4208	-4.6417	-4.7667	-4.2958	-4.9146	-4.6917	-4.2646	-4.8583	-4.4021	-4.5875	-4.9083	-4.3625	-4.4083	-4.8333	56.564	214.917	-62.631	224.658	31.824	209.712	117.728	233.895	7.449	35.856	-35.947	94.926	259.453	-25.207	194.665	-9.230	0.00082902	0.00049419	0.00019212	1149.9	2.7649e-05	8.9924e-06	1144.8	386.71	6.3305e-06	2.036e-05	496.85	185.1	142.43	57.363	5.6844e-06	79.643	0.0034989	0.0069361	0.0018782	1039	0.00013906	7.8823e-05	1036	352.18	5.8602e-05	0.00018534	451.98	168.69	131	52.858	6.6795e-05	74.484	29.377	63.862	-29.153	-72.795	109.476	66.413	-73.650	-66.591	201.749	-83.693	-68.317	-63.972	-61.584	-56.679	42.156	-59.525	-8191	255	
33072.344	1	1	0	0	0.042803	0.16802	0.052443	0.15342	0.2177	0.13302	0.14515	0.25983	0.1473	0.025883	0.32205	0.033624	0.18629	0.2846	0.096927	0.044925	-3.7771	-4.7646	-4.2271	-4.4917	-4.8396	-4.2479	-4.7646	-4.7333	-4.2063	-4.8333	-4.45	-4.4583	-4.8	-4.3979	-4.6062	-4.7646	157.994	263.824	107.260	52.265	132.073	109.569	269.325	-50.030	13.368	55.597	223.568	231.486	176.849	209.510	5.592	-21.674	0.00074942	0.00059985	0.00025659	1159.9	3.4445e-05	1.2642e-05	1166.1	390.25	6.7035e-06	1.1721e-05	503.7	188.22	143.72	57.268	1.6552e-05	80.262	0.0036452	0.0069635	0.0018847	1049.1	0.00013868	8.0736e-05	1053.4	356.53	6.1123e-05	0.00014826	460.09	172	132.51	53.15	6.7502e-05	75.24	37.276	75.877	30.161	-72.447	143.163	44.084	-73.516	-66.153	16.855	9.187	-68.689	-63.947	-61.748	-56.663	23.630	-59.797	-8191	255	
33072.418	1	1	0	0	0.067177	0.09713	0.1245	0.17332	0.047047	0.083191	0.085427	0.23749	0.091502	0.048477	0.30349	0.14571	0.060368	0.31331	0.12273	0.14151	-4.0271	-4.7167	-4.5687	-4.4208	-4.8042	-4.4146	-4.7354	-4.7333	-4.2896	-4.7688	-4.5396	-4.4313	-4.8667	-4.6146	-4.4771	-4.8875	-36.724	237.730	36.187	210.642	131.337	-60.415	70.807	239.888	81.696	-0.082	240.014	238.383	-47.484	189.777	166.911	136.144	0.0007025	0.0012181	0.00010262	1169.6	2.9299e-05	5.1953e-06	1171.2	390.6	7.9994e-06	1.7195e-05	501.68	186.77	142.86	57.176	1.0671e-05	79.506	0.0036971	0.0070206	0.0019655	1055.3	0.00013849	7.9246e-05	1058.5	356.46	6.1383e-05	7.8734e-05	463.82	170.81	131.76	52.702	6.5954e-05	74.543	37.075	-28.294	8.738	-72.846	159.675	65.821	-73.720	-66.384	-25.037	29.421	-68.624	-64.114	-61.797	-56.634	55.058	-60.025	-8191	255	
33072.516	1	1	0	0	0.14887	0.2028	0.10484	0.26765	0.17412	0.14292	0.25621	0.15318	0.3458	0.029847	0.1434	0.37533	0.30943	0.11932	0.075889	0.19845	-3.9333	-4.5437	-4.7146	-4.3833	-4.7833	-4.3854	-4.4938	-4.8854	-4.2188	-4.6208	-4.7688	-4.4396	-4.775	-4.3958	-4.3021	-5.0083	187.261	-1.082	-73.947	240.509	274.944	151.437	157.793	-73.934	53.822	190.453	27.510	223.526	-23.420	235.229	159.450	192.822	0.00074424	0.00087107	0.00011655	1160.4	2.6361e-05	4.9629e-06	1164	389.27	5.4603e-06	2.0373e-06	498.06	186.11	141.42	56.848	8.2058e-07	79.389	0.0036329	0.0067982	0.0018854	1048.8	0.00013718	7.6434e-05	1048.6	353.96	5.8247e-05	7.355e-05	462.16	169.93	130.68	52.477	6.3105e-05	74.086	44.587	15.113	55.596	-72.482	156.026	106.855	-73.877	-66.314	30.714	160.886	-68.798	-64.002	-61.853	-56.866	-54.820	-59.763	-8191	255	
33072.633	1	1	0	0	0.051974	0.25467	0.16572	0.044487	0.10127	0.25678	0.072581	0.047174	0.11801	0.11597	0.19494	0.15045	0.19997	0.07873	0.066467	0.083411	-3.8937	-4.5625	-4.675	-4.3792	-4.7958	-4.4479	-4.4375	-5.0729	-4.2771	-4.6729	-4.9417	-4.4396	-4.7812	-4.6167	-4.1917	-4.9792	236.546	22.941	-17.975	258.454	-51.494	-43.813	214.870	158.249	83.881	183.803	181.637	243.993	175.102	217.829	260.564	-7.759	0.00082366	0.0015624	0.00023094	1149.2	2.2861e-05	2.8764e-05	1156.5	389.95	1.9558e-05	2.6019e-06	496.99	185.54	142.04	57.406	9.6898e-06	79.681	0.0035543	0.0066015	0.0019039	1038	0.00010451	9.9582e-05	1046.1	353.57	5.893e-05	7.4531e-05	460.7	169.3	131.01	52.829	6.4171e-05	74.625	14.887	25.985	-26.061	-72.904	87.580	196.717	-73.407	-66.399	97.371	44.804	-68.785	-63.753	-61.659	-56.605	-20.346	-59.955	-8191	255	
33072.730	1	1	0	0	0.27371	0.0821	0.098509	0.27061	0.25105	0.093827	0.32998	0.12954	0.20301	0.33481	0.14887	0.38199	0.27014	0.3354	0.16117	0.27496	-4.0208	-4.5167	-4.6708	-4.3313	-4.6917	-4.7937	-4.5333	-5.0021	-4.425	-4.4688	-4.8354	-4.5667	-4.6625	-4.725	-4.3375	-4.7958	5.687	-24.342	-77.688	236.807	94.117	5.276	226.087	261.199	6.733	-83.613	170.942	256.268	218.785	228.770	29.690	223.441	0.00066326	0.0011489	0.00028722	1155.4	9.2751e-06	3.3372e-05	1172	393.48	1.7332e-05	1.4313e-05	505.8	187.95	144.01	58.141	3.8579e-06	80.64	0.003559	0.0063529	0.0018499	1047.2	5.6673e-05	0.0001668	1058.4	357.8	5.8417e-05	7.3797e-05	468.92	172.53	132.96	53.638	6.7714e-05	75.737	44.573	20.402	-4.767	-72.608	-78.023	202.259	-73.746	-66.654	123.039	67.977	-68.422	-63.830	-61.545	-57.002	78.525	-59.851	-8191	255	
33072.824	1	1	0	0	0.19444	0.13833	0.17035	0.11409	0.14602	0.086645	0.085114	0.4302	0.18488	0.22603	0.17404	0.19678	0.16209	0.22914	0.19744	0.098054	-4.0333	-4.5	-4.8229	-4.3167	-4.55	-4.7521	-4.3646	-4.9375	-4.5146	-4.2792	-4.9229	-4.4042	-4.7854	-4.9437	-4.1479	-4.9437	222.329	206.860	224.073	219.775	-64.847	97.405	213.983	253.285	-55.660	20.953	153.870	-83.022	167.575	145.873	-72.807	138.034	0.00065073	0.00031478	0.00028116	1173.1	9.8573e-06	2.0485e-05	1171.3	394.98	1.0391e-05	4.9953e-06	507.43	187.71	144.9	58.524	1.3826e-05	80.553	0.0035615	0.0066383	0.001962	1058.7	5.8567e-05	0.00018501	1063.2	360.2	5.98e-05	7.8117e-05	469.41	172.55	133	53.613	6.7518e-05	74.837	47.488	14.860	1.291	-72.644	-20.174	180.471	-73.670	-66.443	152.175	71.241	-68.742	-64.038	-61.632	-56.766	43.807	-60.226	-8191	255	
33072.945	1	1	0	0	0.053301	0.077796	0.10199	0.39893	0.15273	0.17228	0.24101	0.25001	0.092029	0.036363	0.035905	0.23562	0.14005	0.3023	0.16726	0.11886	-4.1958	-4.3167	-4.9354	-4.4437	-4.5792	-4.6333	-4.5375	-4.7292	-4.6167	-4.3458	-4.95	-4.4125	-4.5646	-4.8292	-4.2083	-4.8542	-35.455	120.955	-58.888	206.044	226.548	33.259	266.681	178.193	103.548	-6.836	4.314	201.500	-45.121	208.046	-60.751	-39.477	0.00092367	0.0015969	0.00027481	1161.5	1.039e-05	2.6071e-05	1172.5	394.51	4.9833e-06	4.1461e-06	505.6	186.54	142.83	57.292	8.8281e-06	80.497	0.0048415	0.0067162	0.0018951	1051.7	5.6316e-05	0.00017887	1058.9	357.71	5.8974e-05	7.5275e-05	467.28	170.98	132.13	53.118	6.4341e-05	73.992	17.039	-19.871	34.551	-72.895	50.356	182.473	-73.826	-66.302	31.514	67.312	-68.745	-63.749	-61.881	-56.600	43.215	-59.831	-8191	255	
33073.043	1	1	0	0	0.041267	0.19362	0.22385	0.17228	0.046017	0.22254	0.21359	0.32322	0.22496	0.11321	0.10687	0.052862	0.11895	0.25938	0.079021	0.2434	-4.2812	-4.2083	-4.8375	-4.5583	-4.5188	-4.8854	-4.4437	-4.7896	-4.6396	-4.4729	-4.8938	-4.4417	-4.4062	-4.8333	-4.3146	-4.7625	123.632	-79.649	54.440	-66.009	2.472	-31.232	233.333	252.036	64.064	16.993	163.267	-75.992	175.756	243.204	116.303	201.570	0.0010762	0.00091091	0.00018719	1158.2	7.6614e-06	2.8805e-05	1172	396.21	4.4369e-06	8.9675e-06	506.85	188.04	143.73	57.866	1.1144e-05	81.07	0.0074259	0.0066346	0.0018497	1047.6	5.5903e-05	0.00018036	1061.1	358.8	5.8388e-05	7.4021e-05	467.49	172.18	132.61	53.373	6.4307e-05	74.53	9.541	11.136	0.654	-72.584	23.191	165.888	-73.539	-66.264	66.210	80.690	-68.430	-63.825	-62.010	-56.646	46.218	-59.807	-8191	255	
33073.113	1	1	0	0	0.10457	0.0833	0.010406	0.086509	0.20789	0.35071	0.16007	0.28898	0.1427	0.24601	0.19287	0.23116	0.27088	0.17482	0.13138	0.20805	-4.3729	-4.3479	-4.8375	-4.6958	-4.3646	-4.9292	-4.6021	-4.7896	-4.7375	-4.2583	-4.8792	-4.6562	-4.4146	-5.0375	-4.3812	-4.75	147.806	99.875	31.750	229.901	-41.919	-56.141	217.950	216.525	198.962	249.258	215.723	214.575	190.406	-78.746	-29.654	131.922	0.00030178	0.000867	0.00028412	1156.5	1.5458e-05	3.2683e-05	1185.2	395.24	2.2365e-05	1.2964e-05	505.34	190.23	144.24	57.921	5.3952e-06	81.26	0.0078649	0.0065861	0.0018499	1045.5	5.7083e-05	0.00017633	1064.5	358.49	5.8393e-05	7.3205e-05	467.24	174.42	132.99	53.562	6.3929e-05	74.996	-31.125	26.397	-6.361	-72.835	42.536	208.207	-73.773	-66.135	51.922	50.991	-68.429	-64.047	-61.573	-56.587	60.238	-59.790	-8191	255	
33073.234	1	1	0	0	0.22987	0.074672	0.2145	0.072236	0.12065	0.16405	0.19232	0.17299	0.22941	0.26953	0.082872	0.066618	0.10721	0.19291	0.075661	0.1884	-4.5354	-4.3	-4.7396	-4.6396	-4.3313	-4.9229	-4.3583	-4.5687	-4.8625	-4.2042	-4.7979	-4.8438	-4.2542	-4.9667	-4.4667	-4.5021	258.683	234.124	199.299	95.563	253.340	-32.580	253.452	208.111	196.884	152.023	218.252	270.752	71.245	-55.748	-9.378	138.267	0.00014645	0.00067633	0.00017492	1163	7.4826e-06	3.2258e-05	1172.1	390.51	5.5768e-06	7.6136e-06	508.73	188.36	143.03	57.898	1.0193e-05	80.603	0.0077296	0.0065741	0.0018074	1050.3	5.6487e-05	0.00018051	1061.8	356.08	5.7404e-05	7.3471e-05	462.08	175.88	132.22	53.387	6.2634e-05	74.365	-81.095	-43.110	31.307	-72.554	91.033	207.399	-73.466	-66.458	23.684	112.606	-68.710	-63.959	-61.958	-56.871	30.544	-59.879	-8191	255	
33073.328	1	1	0	0	0.17029	0.061923	0.08856	0.12406	0.18754	0.21919	0.21126	0.14136	0.32151	0.10012	0.1179	0.16231	0.16516	0.26785	0.25289	0.14978	-4.4125	-4.0938	-4.7208	-4.8	-4.3187	-4.8375	-4.5938	-4.7708	-4.775	-4.3833	-4.775	-4.7646	-4.5229	-4.8958	-4.5312	-4.3604	17.026	64.734	110.589	144.414	3.182	28.496	228.216	227.717	-47.950	91.842	119.593	-51.137	257.020	-60.066	-70.307	184.718	0.00079844	0.00046771	0.00031652	1156.6	1.5537e-05	2.503e-05	1168.4	395.16	8.3665e-06	6.5135e-06	511.3	188.9	144.57	58.299	1.5857e-06	81.408	0.0077784	0.0066498	0.0018107	1049	5.7451e-05	0.00017639	1062.4	359.02	5.9986e-05	7.58e-05	464.19	175.92	133.25	53.614	6.3155e-05	74.92	-74.742	18.327	-0.070	-72.683	107.760	197.969	-73.380	-66.302	23.523	105.185	-68.718	-63.717	-61.359	-56.806	-74.360	-59.677	-8191	255	
33073.426	1	1	0	0	0.15947	0.073629	0.092409	0.16325	0.066544	0.19058	0.262	0.059193	0.17617	0.2271	0.11998	0.18086	0.086938	0.30304	0.11823	0.13975	-4.6708	-4.2479	-4.5333	-5	-4.1833	-4.7917	-4.7458	-4.4833	-4.7375	-4.3688	-4.5792	-4.8896	-4.3438	-4.8604	-4.6625	-4.3812	225.348	117.790	202.652	140.671	208.503	258.820	206.591	203.831	145.021	69.121	232.791	253.612	-68.421	191.258	-25.213	-58.519	0.00035455	0.0012346	0.00023312	1158.4	1.2876e-05	6.0731e-06	1176.7	399.71	1.2037e-05	2.8058e-06	517.67	193.06	146.79	59.367	3.7438e-06	82.707	0.0078712	0.0065706	0.0018123	1049.9	5.7067e-05	0.00012355	1075.5	362.42	5.975e-05	7.5293e-05	470.69	179.22	135.29	54.621	6.487e-05	76.403	-61.988	51.851	20.982	-72.689	43.639	57.293	-73.969	-66.382	26.576	89.987	-68.379	-64.124	-61.518	-56.637	-14.461	-60.246	-8191	255	
33073.547	1	1	0	0	0.14451	0.19247	0.12509	0.10621	0.35976	0.091509	0.24586	0.099272	0.14429	0.16425	0.2243	0.13706	0.15458	0.09301	0.18686	0.32594	-4.5917	-4.3854	-4.6271	-4.85	-4.3125	-4.7792	-4.7042	-4.4604	-4.8187	-4.5229	-4.5833	-5.0104	-4.1958	-4.7521	-4.7604	-4.3646	-47.579	-27.476	26.236	4.364	199.637	268.909	220.384	270.628	7.066	174.812	216.177	188.909	202.939	-74.159	149.505	223.866	0.00046878	0.0010391	0.0002748	1175.2	5.6706e-06	6.6485e-06	1193.6	400.02	7.7914e-06	6.8759e-06	519.41	195.42	147.84	59.267	4.886e-06	83.301	0.0079246	0.0065284	0.0018607	1061.8	5.803e-05	7.3614e-05	1094.7	364.72	5.8568e-05	7.6708e-05	473.86	181.61	136.1	54.641	6.6619e-05	76.874	-47.329	14.713	7.791	-72.664	-53.744	52.095	-73.893	-66.519	61.729	24.362	-68.031	-63.749	-61.911	-56.756	69.931	-60.028	-8191	255	
33073.641	1	1	0	0	0.097061	0.21697	0.17109	0.059564	0.062036	0.11296	0.16206	0.26346	0.11679	0.062703	0.21976	0.10956	0.21436	0.1165	0.24226	0.059682	-4.5437	-4.4083	-4.4563	-4.9625	-4.3063	-4.5896	-4.7979	-4.3375	-4.825	-4.5521	-4.4812	-5.0271	-4.3771	-4.7	-4.7896	-4.3458	211.646	237.124	202.175	-13.606	129.465	194.993	232.815	200.932	7.278	62.239	271.620	59.035	163.303	268.373	174.300	47.682	0.00082464	0.0011122	8.711e-05	1177.3	8.898e-06	7.0891e-06	1196.5	401.51	1.3037e-05	5.7703e-06	519.38	194.1	146.27	58.694	7.9869e-06	82.495	0.0078532	0.006525	0.0018725	1064.1	5.7239e-05	7.4224e-05	1100.2	363.64	5.947e-05	7.4836e-05	471.66	179.45	134.62	54.103	6.7179e-05	76.044	-67.380	-5.310	263.979	-72.616	16.212	89.145	-73.824	-66.488	85.697	27.925	-68.624	-64.110	-61.808	-56.913	156.419	-60.038	-8191	255	
33073.715	1	1	0	0	0.11111	0.09638	0.20603	0.24316	0.079701	0.20861	0.1343	0.24934	0.25817	0.13113	0.021611	0.17628	0.17486	0.18164	0.068266	0.27721	-4.5687	-4.6125	-4.25	-4.975	-4.2688	-4.5458	-4.8354	-4.4417	-4.7646	-4.7417	-4.4146	-4.8562	-4.3458	-4.5813	-4.8562	-4.375	23.576	128.381	156.161	181.160	190.805	143.239	220.853	196.604	153.936	211.206	241.109	247.257	270.939	210.414	67.548	186.604	0.00024626	0.0025573	0.00022359	1173.3	1.4374e-05	7.9409e-06	1189.3	399.21	9.0666e-06	1.246e-05	519.61	195.34	148.61	59.544	4.7536e-06	83.323	0.0052961	0.010388	0.0017966	1060.1	5.5496e-05	7.6737e-05	1090.5	363.84	5.8012e-05	7.5447e-05	472.42	180.71	136.44	54.822	6.5361e-05	76.659	101.522	100.387	20.696	-72.908	-18.110	42.639	-73.642	-66.369	29.857	64.682	-68.313	-64.082	-61.636	-56.820	43.013	-59.956	-8191	255	
33073.809	1	1	0	0	0.12484	0.15294	0.045918	0.16753	0.11342	0.15163	0.32106	0.18847	0.159	0.029896	0.050444	0.27202	0.053763	0.21611	0.057251	0.041216	-4.375	-4.6896	-4.4313	-5.0417	-4.4542	-4.4958	-4.9354	-4.3354	-4.6854	-4.8521	-4.5396	-4.8792	-4.5833	-4.4437	-4.8375	-4.3625	-74.878	-44.592	265.267	189.878	121.892	237.112	205.296	249.292	-56.204	103.947	109.327	250.042	-40.172	214.930	209.838	127.483	0.00066078	0.0030057	0.00040795	1177	9.3538e-06	6.7268e-06	1199.1	400.38	1.1011e-05	1.4178e-05	522.84	197.56	148.47	59.653	9.631e-06	83.704	0.0033875	0.015345	0.0018253	1061	5.6245e-05	7.4704e-05	1097.6	364.75	5.6763e-05	7.363e-05	474.98	181.95	136.36	55.105	6.4528e-05	77.221	42.031	49.330	-22.624	-72.795	54.460	26.805	-73.708	-66.198	74.281	97.972	-68.478	-64.520	-61.842	-56.893	118.797	-59.638	-8191	255	
33073.930	1	1	0	0	0.15606	0.065215	0.015352	0.29421	0.21445	0.15523	0.29216	0.13251	0.088978	0.20848	0.062854	0.1322	0.18778	0.20381	0.047653	0.21772	-4.3854	-4.825	-4.3042	-5.0521	-4.5125	-4.3021	-4.9729	-4.5604	-4.6104	-4.8187	-4.35	-5.0479	-4.7292	-4.3562	-4.8708	-4.3917	-22.696	197.258	122.948	250.043	274.732	-57.912	192.383	202.891	119.251	-41.659	16.359	9.772	216.443	251.114	266.811	262.106	0.0005286	0.0031025	0.00019843	1174.3	1.2255e-05	9.2605e-06	1193.7	401.32	1.2307e-05	6.8324e-06	520.99	196.38	148.31	59.616	1.4014e-06	83.77	0.0033227	0.015539	0.0018145	1059.5	5.4649e-05	7.3765e-05	1097.7	365.4	5.6635e-05	7.2604e-05	473.96	179.9	137.49	54.881	6.1897e-05	77.02	28.898	80.963	3.318	-72.497	76.631	118.024	-73.740	-66.527	58.011	58.012	-68.772	-64.001	-61.780	-57.110	-34.498	-60.002	-8191	255	
33074.027	1	1	0	0	0.090857	0.12238	0.039538	0.11564	0.021537	0.16316	0.23544	0.21207	0.094609	0.17368	0.093799	0.28123	0.15266	0.16603	0.10385	0.18231	-4	-4.6646	-4.2375	-4.8667	-4.6062	-4.3417	-5	-4.5125	-4.3667	-4.9771	-4.5167	-4.8354	-4.6479	-4.3521	-4.7937	-4.4896	-56.643	-35.597	203.946	219.267	227.024	-11.714	204.251	246.271	94.537	-79.545	-83.735	244.847	36.177	210.364	226.701	195.500	0.00082357	0.0029788	0.00027661	1172.8	1.4306e-05	8.7663e-06	1192.6	400.43	1.4998e-05	8.2521e-06	517.61	192.35	147.03	58.995	9.0437e-06	82.82	0.0032693	0.015225	0.001768	1058.9	5.5686e-05	7.397e-05	1092.4	362.41	5.6963e-05	7.5098e-05	471.35	176.31	137.87	54.305	6.32e-05	76.494	36.201	68.598	39.334	-72.595	37.896	51.125	-73.298	-66.441	111.704	81.003	-68.462	-63.828	-62.181	-56.890	14.337	-59.833	-8191	255	
33074.121	1	1	0	0	0.14729	0.15383	0.16139	0.21787	0.12377	0.10825	0.2786	0.063487	0.080864	0.18238	0.2674	0.08567	0.2676	0.10944	0.11972	0.38928	-4.0813	-4.7812	-4.3438	-4.6438	-4.6354	-4.2438	-4.9146	-4.5437	-4.2875	-4.8167	-4.3125	-4.6625	-4.7	-4.3313	-4.7917	-4.5083	-83.131	-19.479	233.183	262.133	159.201	22.495	153.819	183.123	144.887	197.492	238.673	-34.718	218.634	244.705	252.837	153.309	0.000669	0.0028479	0.00016676	1164.7	9.5701e-06	7.3972e-06	1197	397.47	1.1496e-05	9.5966e-06	522	194.72	147.47	59.416	6.7701e-06	83.635	0.0034151	0.015283	0.0017306	1053.3	5.5287e-05	7.1843e-05	1090.7	361.94	5.6904e-05	7.162e-05	473.1	177.38	138.78	54.715	5.939e-05	77.089	39.830	71.853	18.714	-72.776	31.741	106.962	-73.774	-66.502	117.454	41.202	-68.463	-63.661	-61.763	-56.458	72.743	-59.836	-8191	255	
33074.219	1	1	0	0	0.10716	0.13621	0.26097	0.33319	0.2047	0.019786	0.12095	0.054962	0.12337	0.32221	0.1414	0.1193	0.10479	0.2306	0.24332	0.14202	-3.9938	-4.9083	-4.4604	-4.7042	-4.6896	-4.3333	-4.9354	-4.6646	-4.1479	-4.7875	-4.5333	-4.5354	-4.8958	-4.3354	-4.6708	-4.7833	266.167	157.470	73.482	180.577	43.543	-79.557	212.350	235.711	-52.128	236.993	-69.333	179.811	273.143	274.499	4.631	274.039	0.00066364	0.0028548	0.00023575	1171.1	2.01e-05	5.8323e-06	1202.8	403.56	6.6273e-06	2.559e-06	529.19	198.57	150.75	60.715	8.2414e-06	85.423	0.0034019	0.014793	0.0017335	1062.6	5.4079e-05	7.0664e-05	1093.9	369.53	5.4969e-05	6.8922e-05	480.43	181.24	141.26	55.885	5.8282e-05	78.603	33.961	68.938	7.345	-72.661	35.590	79.639	-73.478	-66.672	266.631	-12.635	-68.453	-64.113	-61.644	-56.936	53.485	-59.715	-8191	255	
33074.340	1	1	0	0	0.075999	0.076401	0.18131	0.25039	0.20881	0.22379	0.20918	0.10802	0.074343	0.22734	0.16963	0.18412	0.19307	0.23956	0.18091	0.22625	-3.8917	-4.6979	-4.4479	-4.5708	-4.7958	-4.4292	-4.7063	-4.8021	-4.2271	-4.8375	-4.5792	-4.5062	-4.875	-4.4313	-4.575	-4.7667	5.497	15.445	102.076	234.732	130.632	244.822	217.482	67.413	53.588	30.547	193.883	-31.418	173.520	273.666	-17.683	218.972	0.00087627	0.0026336	0.00015937	1185.3	6.6924e-06	8.5061e-06	1221	407.37	8.805e-06	1.0129e-05	536.57	201.49	152.16	60.958	7.7839e-06	86.348	0.0033097	0.01459	0.0016988	1075.3	5.3436e-05	6.8921e-05	1101.2	375.4	5.562e-05	6.7792e-05	486.9	183.45	142.04	55.895	5.931e-05	79.243	34.878	109.877	19.339	-72.486	74.941	68.740	-74.005	-66.687	28.100	53.150	-68.190	-63.924	-61.728	-56.604	82.224	-60.083	-8191	255	
33074.410	1	1	0	0	0.12546	0.13795	0.10384	0.24271	0.11188	0.2385	0.10161	0.071943	0.14191	0.045204	0.14376	0.18329	0.039752	0.15988	0.27138	0.073178	-3.9833	-4.6958	-4.5208	-4.475	-4.8688	-4.35	-4.6771	-4.9563	-4.2312	-4.6896	-4.575	-4.4146	-5.0021	-4.3875	-4.5125	-4.825	184.968	4.575	-69.192	218.582	228.576	131.932	51.052	187.209	-78.284	59.916	263.145	259.716	102.609	2.573	262.368	39.837	0.00061086	0.0026937	0.00033885	1187.1	1.0717e-05	7.5375e-06	1215.7	404.45	1.4786e-05	7.8067e-06	524.05	196.93	148.86	59.076	5.4485e-06	83.843	0.0033002	0.013908	0.0016301	1073.3	5.2784e-05	6.7943e-05	1099.5	371.47	5.5144e-05	6.8212e-05	476.71	179.24	139.39	54.62	6.011e-05	77.392	23.365	1.881	13.159	-72.428	88.760	105.882	-73.337	-66.302	39.776	47.396	-68.830	-63.463	-61.850	-56.816	25.898	-60.082	-8191	255	
33074.508	1	1	0	0	0.26124	0.019854	0.18782	0.15401	0.16508	0.15989	0.11943	0.10076	0.2064	0.055877	0.10441	0.28289	0.10565	0.25187	0.1692	0.15433	-3.8542	-4.6396	-4.7438	-4.3458	-4.7229	-4.3042	-4.6	-4.8146	-4.3021	-4.7333	-4.7021	-4.4292	-4.9417	-4.3354	-4.4875	-5.0625	274.680	-7.958	119.005	257.826	108.124	114.014	72.119	63.324	77.378	59.803	224.814	221.422	188.634	234.317	-45.535	226.503	0.00075331	0.0025156	0.00049465	1180.6	1.1161e-05	1.2675e-05	1208.4	402.12	8.6512e-06	4.5548e-06	525.6	197.03	148.66	59.308	9.1531e-06	84.546	0.0032009	0.0083437	0.0030777	1063.2	5.3618e-05	6.5425e-05	1089.8	369.13	5.378e-05	6.7221e-05	475.92	179.04	139.07	54.832	5.8777e-05	77.653	35.375	26.106	126.104	-72.584	109.817	34.901	-73.578	-66.369	63.275	55.520	-68.555	-64.083	-61.900	-56.754	22.161	-60.128	-8191	255	
33074.629	1	1	0	0	0.036728	0.11524	0.11139	0.23198	0.20102	0.25618	0.15707	0.14448	0.099387	0.15376	0.19117	0.22894	0.12183	0.25931	0.1199	0.14103	-3.9667	-4.6396	-4.7	-4.0479	-4.9437	-4.4417	-4.5771	-5.0646	-4.3812	-4.7521	-4.8083	-4.35	-4.7667	-4.6146	-4.3646	-4.8833	61.237	-2.401	187.164	195.541	-51.224	28.846	247.204	229.450	-57.508	93.247	196.406	269.393	21.406	234.923	236.815	256.398	0.00086014	0.0012251	0.00074452	1179.9	5.0673e-06	1.1245e-05	1219.3	404.37	5.0675e-06	9.0051e-06	532.51	199.05	150.5	60.418	4.7991e-06	85.933	0.0031783	0.0060075	0.0040722	1068.5	5.0199e-05	6.6485e-05	1099	371.91	5.079e-05	6.4701e-05	483.63	181.78	140.31	55.666	5.8954e-05	78.952	46.388	30.199	117.025	-72.501	95.970	43.328	-73.424	-66.335	89.287	63.917	-68.366	-63.959	-61.773	-56.615	66.953	-59.976	-8191	255	
33074.723	1	1	0	0	0.083753	0.19336	0.023211	0.25805	0.1309	0.13341	0.23924	0.25415	0.065933	0.2457	0.34185	0.018356	0.13054	0.097821	0.11521	0.26561	-3.9188	-4.6333	-4.6	-4.4583	-4.7542	-4.4938	-4.3604	-4.9333	-4.4083	-4.5583	-4.9229	-4.3938	-4.7958	-4.6896	-4.3229	-4.9708	49.044	136.317	175.567	244.535	168.386	-2.441	230.276	262.822	-0.424	71.855	233.883	181.637	254.387	-20.458	61.450	-80.014	0.00078369	0.00044738	0.00061561	1192.3	4.4179e-06	1.3141e-05	1224.6	409.25	2.6643e-06	1.2286e-05	537.49	200.73	150.72	60.775	5.3751e-06	85.781	0.0032058	0.0059511	0.004155	1076.3	4.9548e-05	6.9764e-05	1109.5	376.46	5.2404e-05	6.6808e-05	487.66	183.57	139.34	56.487	5.7669e-05	79.28	50.060	96.910	74.962	-72.718	78.013	61.390	-73.572	-66.385	158.849	54.727	-68.545	-63.960	-61.501	-56.437	89.026	-59.679	-8191	255	
33074.820	1	1	0	0	0.14471	0.10815	0.19005	0.21547	0.1213	0.12645	0.2702	0.35819	0.19605	0.16212	0.11591	0.33523	0.16336	0.15532	0.37152	0.21538	-4.1312	-4.4521	-4.75	-4.3833	-4.7458	-4.5229	-4.3125	-4.9729	-4.5292	-4.4396	-4.9542	-4.2354	-4.6271	-4.8896	-4.2667	-4.7104	28.385	271.817	1.329	254.489	117.791	41.308	233.993	241.979	207.063	5.727	213.435	255.666	167.401	-12.462	171.168	220.916	0.00065882	0.0012236	0.00067277	1189	8.8799e-06	6.7931e-06	1223.5	408.41	7.8537e-06	3.4753e-06	529.66	198.71	148.42	60.739	1.0202e-05	85.187	0.0031715	0.0056722	0.0040385	1074.8	4.9729e-05	6.7116e-05	1104.7	373.24	5.1007e-05	6.659e-05	481.91	180.98	137.17	56.399	5.6983e-05	78.444	31.226	-20.727	113.368	-72.708	49.599	110.095	-73.492	-66.469	78.124	125.899	-68.532	-63.926	-61.925	-56.568	116.071	-59.617	-8191	255	
33074.914	1	1	0	0	0.20903	0.077614	0.063471	0.30878	0.15796	0.031017	0.069445	0.012713	0.19702	0.21569	0.13351	0.15646	0.20324	0.2094	0.13005	0.11561	-4.1438	-4.4479	-4.7333	-4.5333	-4.6708	-4.7104	-4.3375	-4.9375	-4.6458	-4.4917	-4.9604	-4.4563	-4.6229	-4.8354	-4.1792	-4.9271	122.097	-55.059	-1.275	210.604	183.261	214.597	-1.441	-0.631	242.044	-29.182	211.501	-60.509	-44.443	227.003	94.335	195.716	0.00073288	0.0013124	0.00052601	1187.7	1.1156e-05	6.1395e-06	1215	401.94	2.3973e-05	5.572e-06	526.91	198.1	149.16	59.926	7.7093e-06	84.855	0.0030536	0.0056772	0.0039975	1068.9	4.9313e-05	6.514e-05	1092.7	368.56	5.3395e-05	6.3814e-05	478.2	179.44	136.1	55.919	5.548e-05	78.039	28.505	-5.944	128.480	-72.918	50.001	47.955	-73.714	-66.519	-84.028	35.152	-68.114	-63.890	-61.597	-56.851	93.118	-60.035	-8191	255	
33075.012	1	1	0	0	0.1011	0.13961	0.23574	0.12256	0.1763	0.15052	0.14216	0.14573	0.097727	0.082521	0.24284	0.26135	0.13929	0.13611	0.093059	0.12445	-4.3104	-4.2646	-4.8187	-4.6333	-4.5292	-4.6083	-4.25	-4.9333	-4.675	-4.2458	-4.875	-4.4542	-4.4125	-4.7438	-4.1937	-4.6896	235.269	-25.419	150.136	210.860	69.442	35.016	260.010	233.516	34.679	45.357	222.447	243.664	105.537	-84.385	-26.508	177.296	0.00077482	4.5463e-05	0.0004952	1175.5	7.0662e-06	6.6884e-06	1215.3	404.4	3.0654e-05	4.4987e-06	530.99	200.45	151.57	61.295	1.1198e-05	86.61	0.0031143	0.0056277	0.0039183	1063.3	4.9373e-05	6.5042e-05	1094.7	368.09	9.9014e-05	6.3617e-05	482.76	182.32	138.72	57.026	5.3957e-05	79.718	31.914	87.319	159.721	-72.688	19.728	79.089	-73.448	-66.753	-52.231	70.840	-68.342	-63.785	-62.079	-56.848	89.099	-59.710	-8191	255	
33075.105	1	1	0	0	0.10119	0.18211	0.18928	0.22645	0.27339	0.19549	0.18706	0.16324	0.026292	0.11945	0.11218	0.07368	0.097705	0.059991	0.22775	0.23173	-4.2771	-4.2229	-4.7396	-4.5917	-4.2312	-4.8729	-4.3313	-4.775	-4.6979	-4.1896	-5.0188	-4.5021	-4.4208	-4.8958	-4.4833	-4.7479	171.429	35.031	16.283	262.111	25.196	27.198	-83.750	228.828	251.502	195.494	191.984	-5.986	114.241	18.413	101.071	17.113	0.00094206	0.00065921	0.00050769	1200.1	5.4429e-06	6.0103e-06	1234.8	411.91	5.0828e-05	1.0072e-05	545.98	203.1	153.56	62.307	8.3293e-06	87.928	0.0031691	0.0054847	0.0039211	1081.3	4.9455e-05	6.4132e-05	1115	375.42	0.00012252	6.2642e-05	494.15	186.14	141.33	57.941	5.6414e-05	81.08	33.979	-1.343	143.660	-72.694	65.915	34.995	-73.352	-66.521	-21.466	59.519	-68.304	-64.035	-61.828	-56.840	80.324	-59.728	-8191	255	
33075.227	1	1	0	0	0.043277	0.047854	0.071482	0.43693	0.22028	0.13068	0.26943	0.29981	0.13503	0.041958	0.11635	0.23194	0.12644	0.21851	0.20999	0.32786	-4.35	-4.2208	-4.7021	-4.6792	-4.3313	-4.8562	-4.4875	-4.6542	-4.6396	-4.2708	-4.9417	-4.6354	-4.4125	-5.0771	-4.4458	-4.6625	-83.692	64.909	34.478	215.335	229.410	-46.650	235.401	227.886	192.111	30.100	223.577	-29.901	68.037	219.098	90.280	256.116	0.00069137	0.00099404	0.00038304	1200.6	1.1701e-05	1.2035e-05	1241.2	415.01	5.7116e-05	9.426e-06	542.69	203.18	152.13	61.251	7.9318e-06	86.11	0.0032315	0.0055843	0.0034167	1090.7	5.0757e-05	6.4299e-05	1121	375.9	0.00012347	6.3084e-05	491.64	184.73	139.68	57.121	5.5093e-05	79.519	38.987	26.024	32.399	-72.745	24.158	77.984	-73.563	-66.450	-25.884	85.801	-68.771	-63.977	-61.866	-56.465	102.415	-60.018	-8191	255	
33075.320	1	1	0	0	0.11347	0.19306	0.13262	0.19376	0.049197	0.088668	0.076181	0.318	0.16702	0.16733	0.069717	0.26201	0.11605	0.057977	0.16244	0.23928	-4.3688	-4.3104	-4.9042	-4.6729	-4.3021	-4.7708	-4.6062	-4.6604	-4.9896	-4.3125	-4.9563	-4.875	-4.2979	-4.8917	-4.4958	-4.6375	52.083	242.177	30.478	225.621	125.191	211.082	156.990	205.030	-21.724	-56.992	160.833	259.827	270.003	209.581	90.162	247.222	0.00064874	0.00075935	0.00036252	1183.4	1.6315e-05	1.0239e-05	1220.8	406.45	6.2574e-05	4.6675e-06	533.53	199.45	151.27	60.823	1.3061e-05	85.516	0.0031158	0.0054653	0.002019	1082.6	4.9427e-05	6.3332e-05	1102.2	369.71	0.00012244	6.2703e-05	485.85	181.76	138.07	56.511	5.6548e-05	78.74	39.257	-45.788	-0.317	-72.788	132.911	76.877	-73.556	-66.495	-3.138	34.088	-68.128	-63.651	-62.080	-56.507	76.064	-59.891	-8191	255	
33075.418	1	1	0	0	0.092072	0.20366	0.08499	0.37116	0.13366	0.10926	0.093133	0.025867	0.040718	0.18096	0.18068	0.10318	0.07996	0.13233	0.18251	0.11936	-4.5833	-4.4542	-4.4958	-4.8917	-4.2896	-4.8333	-4.7	-4.5312	-4.7562	-4.3646	-4.6896	-4.8083	-4.4104	-4.9083	-4.4229	-4.3688	131.231	120.823	113.212	261.607	50.317	79.278	0.634	80.802	25.706	29.159	-55.112	269.874	50.363	53.781	201.055	90.539	0.00089351	0.00075706	0.00039546	1182.9	8.4994e-06	1.189e-05	1216.3	403.47	4.3138e-05	1.5769e-05	529.77	198.04	147.23	60.322	3.0295e-05	86.146	0.0031367	0.005637	0.0015821	1079.4	4.9444e-05	6.2303e-05	1095.7	366.21	0.0001238	6.2749e-05	480.99	180.65	136.27	55.846	6.6269e-05	78.867	28.405	43.374	-21.075	-72.360	36.201	71.472	-73.598	-66.421	-7.641	106.426	-68.144	-63.544	-61.917	-56.780	158.511	-60.085	-8191	255	
33075.516	1	1	0	0	0.11152	0.20207	0.22261	0.12703	0.1883	0.079004	0.2386	0.21117	0.16047	0.19635	0.13485	0.10149	0.086983	0.14094	0.18082	0.28864	-4.7167	-4.2979	-4.575	-4.6667	-4.2083	-4.8646	-4.6146	-4.525	-4.8875	-4.3771	-4.6458	-4.85	-4.3167	-4.7792	-4.525	-4.5458	145.497	64.476	-54.366	-53.534	198.530	-76.186	-54.511	204.176	186.022	149.532	-42.709	-82.820	-35.440	-74.953	143.007	227.311	0.00079564	0.00046798	0.00013758	1182.2	9.9877e-06	9.198e-06	1215.8	400.74	5.7894e-05	1.3065e-05	527.24	197.67	148	60.008	2.0949e-05	84.93	0.0030356	0.0055461	0.0016009	1077.7	4.7482e-05	6.3711e-05	1095.8	364.98	0.00012029	6.4963e-05	480.91	180.13	136.17	55.075	0.00011627	78.03	44.122	-33.033	-36.429	-72.595	-3.801	89.908	-73.398	-66.060	11.588	87.024	-68.171	-64.139	-61.492	-56.857	155.122	-60.131	-8191	255	
33075.609	1	1	0	0	0.15841	0.12168	0.32396	0.28174	0.087837	0.07051	0.18678	0.26126	0.23922	0.044531	0.038608	0.226	0.097764	0.36055	0.049916	0.14175	-4.6521	-4.3917	-4.3542	-4.9583	-4.3063	-4.5854	-4.7104	-4.3042	-4.775	-4.4354	-4.4896	-5.0479	-4.4667	-4.6625	-4.725	-4.3479	107.896	-24.625	214.714	187.824	227.466	88.492	128.533	209.927	214.933	50.875	204.133	185.526	160.819	269.016	161.337	161.683	0.00071463	0.0012299	9.111e-05	1180.2	4.6972e-06	2.7651e-06	1217.6	401.26	5.5275e-05	8.9904e-06	529.67	198.16	149.98	60.28	2.4833e-05	85.485	0.0029989	0.005789	0.0016369	1074.9	4.9598e-05	6.5317e-05	1096.2	364.76	0.00012633	6.5137e-05	481.45	180.92	137.04	55.478	0.00013984	78.71	50.706	19.387	-3.833	-72.614	31.113	168.156	-73.620	-66.230	14.507	70.035	-68.465	-64.064	-61.662	-57.114	126.325	-59.649	-8191	255	
33075.707	1	1	0	0	0.090294	0.1266	0.23972	0.28862	0.14332	0.057222	0.11575	0.14359	0.083732	0.21609	0.029208	0.13187	0.27814	0.26889	0.054682	0.20918	-4.3958	-4.4771	-4.2937	-4.9646	-4.0542	-4.5917	-4.825	-4.4187	-4.8292	-4.6062	-4.4542	-4.8583	-4.3271	-4.8083	-4.8646	-4.325	12.538	194.593	11.648	249.252	154.595	-24.594	149.653	267.354	49.157	-51.651	214.685	-58.773	271.882	260.352	33.921	187.279	0.0008712	0.0010776	0.00018173	1184.3	8.3786e-06	1.1889e-05	1219.5	405.46	5.1937e-05	5.2734e-06	534.09	201.35	150.34	60.94	3.0509e-05	86.835	0.0031644	0.0058918	0.0017106	1081.9	5.0056e-05	6.7654e-05	1103.5	368.31	0.00010364	8.3958e-05	486.55	183.1	138.48	56.145	0.00014344	79.954	34.619	54.520	31.767	-72.600	95.209	36.086	-73.795	-66.026	26.919	63.400	-68.603	-64.215	-61.988	-57.001	112.111	-59.920	-8191	255	
33075.805	1	1	0	0	0.23537	0.091863	0.070829	0.10915	0.17441	0.036078	0.27272	0.066365	0.22304	0.17583	0.39111	0.065455	0.1366	0.24291	0.28172	0.038713	-4.3604	-4.525	-4.4042	-5.0375	-4.3125	-4.3479	-5.1146	-4.4104	-4.65	-4.825	-4.45	-4.9146	-4.4021	-4.4833	-4.9375	-4.4479	-1.490	274.582	9.542	181.254	267.518	0.613	164.559	-42.561	59.734	272.623	217.314	-23.961	196.246	-63.573	-48.588	173.423	0.00058286	0.0013707	0.00029662	1187.8	1.1994e-05	3.8867e-06	1233.6	410	5.6022e-05	1.1192e-05	538.23	201.44	151.14	61.122	3.7849e-05	87.503	0.003177	0.0060611	0.0016651	1089.5	5.13e-05	6.7731e-05	1112.7	370.9	5.766e-05	0.00014686	490.02	184	138.6	56.087	0.00014079	80.206	15.462	8.519	69.219	-72.757	79.559	198.454	-73.523	-66.412	39.488	165.046	-68.671	-63.779	-62.075	-56.725	122.390	-59.591	-8191	255	
33075.898	1	1	0	0	0.28551	0.12751	0.13571	0.042133	0.23136	0.20145	0.22447	0.2032	0.084005	0.15133	0.2776	0.04675	0.2633	0.24237	0.11352	0.30389	-4.2688	-4.6062	-4.2833	-4.8125	-4.4896	-4.5958	-5.0021	-4.3375	-4.6271	-4.7729	-4.4688	-4.8646	-4.4896	-4.5708	-4.8354	-4.5521	34.926	75.376	216.611	269.051	92.558	17.195	177.162	176.896	-23.708	-41.349	219.008	269.512	140.128	227.769	123.239	191.415	0.00091857	0.00083572	4.0737e-05	1179.9	3.7809e-06	8.8178e-06	1229.1	404.71	2.9603e-06	3.2192e-05	535.69	202.27	151.42	60.419	3.5502e-05	86.526	0.0032338	0.0058348	0.00164	1080.8	5.0727e-05	6.7307e-05	1110.4	367.34	5.1339e-05	0.00016249	487.3	184.4	138.39	55.866	0.00014214	79.593	25.201	14.155	62.825	-73.106	92.932	69.364	-73.407	-66.334	155.050	33.358	-68.771	-63.852	-62.199	-56.779	146.865	-60.235	-8191	255	
33076.020	1	1	0	0	0.032626	0.18608	0.096013	0.24858	0.068237	0.08683	0.27504	0.11077	0.12815	0.19615	0.072133	0.011242	0.16311	0.15144	0.2623	0.24781	-4.2042	-4.7688	-4.3104	-4.8583	-4.6271	-4.4062	-4.8979	-4.6521	-4.4042	-4.8104	-4.5	-4.7562	-4.7333	-4.3542	-4.8646	-4.5646	-39.396	262.062	-40.964	236.263	73.200	36.375	156.707	86.069	190.657	102.305	157.826	245.273	209.205	210.569	-9.438	244.844	0.00068957	0.00061708	0.00021279	1179.1	2.1219e-05	1.1072e-05	1220.4	400.97	1.9814e-06	2.7807e-05	529.31	199.33	148.14	60.106	2.7718e-05	85.41	0.0032353	0.0058263	0.0015836	1072.2	6.5716e-05	6.5179e-05	1101	364.47	5.2207e-05	0.00016441	481.05	181.58	136.55	55.268	0.00013655	78.685	50.594	2.832	18.819	-72.854	238.804	39.392	-73.365	-66.285	55.075	42.364	-68.691	-63.934	-62.150	-56.787	128.788	-60.051	-8191	255	
33076.117	1	1	0	0	0.19209	0.14917	0.17153	0.2568	0.16421	0.19212	0.12698	0.051209	0.14355	0.023429	0.11259	0.14978	0.076435	0.28673	0.084221	0.18216	-4.1208	-4.6833	-4.3667	-4.6833	-4.7083	-4.2583	-4.8812	-4.5125	-4.3375	-5.0104	-4.4979	-4.7625	-4.7792	-4.3812	-4.8125	-4.5604	-62.990	24.762	249.671	226.101	-43.158	213.079	219.467	156.096	122.802	232.775	212.109	214.905	60.350	-81.037	137.128	188.468	0.00057844	0.0011916	0.00021313	1174.4	2.9586e-05	1.1504e-05	1212	399.6	1.2431e-05	3.85e-05	528.28	198.58	149.05	59.305	2.8866e-05	84.567	0.003145	0.005588	0.0015929	1059	0.00011131	6.3888e-05	1091.3	362.54	5.1901e-05	0.00016154	478.96	180.57	136.22	54.853	0.00014015	77.906	48.614	36.127	38.777	-72.790	242.983	92.323	-73.666	-66.317	124.698	35.308	-68.340	-63.902	-61.869	-56.572	156.955	-59.899	-8191	255	
33076.211	1	1	0	0	0.10392	0.13863	0.20527	0.42014	0.27804	0.11698	0.3878	0.062555	0.092323	0.048745	0.2588	0.27289	0.023775	0.11463	0.051272	0.35289	-4.0917	-4.8146	-4.275	-4.5687	-4.6833	-4.1958	-4.825	-4.4125	-4.5437	-4.9313	-4.4667	-4.5583	-4.7271	-4.3812	-4.7333	-4.6813	-48.264	-50.667	34.430	212.893	205.982	121.776	234.081	-26.956	101.400	192.392	189.947	171.718	54.431	-70.289	129.691	196.440	0.0008032	0.00063749	0.00025468	1156.9	2.7938e-05	6.1066e-06	1201.2	396.96	8.345e-06	3.1163e-05	524.22	194.41	146.36	58.893	2.7151e-05	84.682	0.0031352	0.0057777	0.0015865	1047.6	0.00012145	6.582e-05	1087.7	359.87	5.2463e-05	0.0001649	476.1	178.25	134.36	54.331	0.00010737	78.366	25.958	-4.913	2.989	-72.453	259.449	23.815	-73.925	-66.332	60.647	64.750	-68.522	-63.622	-61.545	-56.728	105.327	-59.729	-8191	255	
33076.309	1	1	0	0	0.12716	0.19384	0.11378	0.22784	0.23161	0.2334	0.13158	0.16391	0.11965	0.13199	0.14009	0.1278	0.077319	0.032706	0.14919	0.049578	-3.9625	-5.0146	-4.4812	-4.5687	-4.8042	-4.1771	-4.85	-4.6646	-4.1625	-4.7812	-4.4229	-4.4313	-4.8625	-4.4333	-4.7812	-4.8187	64.722	226.541	72.470	235.610	3.364	-73.359	-64.032	209.978	163.393	58.533	176.174	185.915	179.077	165.750	39.849	188.414	0.00077849	0.00067109	0.00029614	1155.1	3.9756e-05	1.1066e-05	1195.7	396.23	1.0577e-05	2.9245e-05	524.58	196.76	145.79	59.01	8.2661e-06	83.954	0.0031476	0.0058413	0.0016092	1043.8	0.00012368	6.5861e-05	1086.7	358.35	5.2816e-05	0.00016273	476.97	179.46	133.97	54.313	5.6757e-05	78.738	33.815	31.984	33.861	-72.571	-74.881	60.275	-73.707	-66.382	19.642	61.263	-68.415	-63.759	-62.054	-56.616	34.872	-59.678	-8191	255	
33076.402	1	1	0	0	0.13143	0.20908	0.1836	0.30143	0.12247	0.19794	0.32149	0.17889	0.12496	0.15106	0.081189	0.11181	0.060465	0.17253	0.062592	0.25627	-4.025	-4.8021	-4.4625	-4.6188	-4.8812	-4.2354	-4.6167	-4.875	-4.4062	-4.85	-4.7146	-4.4917	-4.9563	-4.4187	-4.6104	-4.9583	108.558	205.642	181.561	190.999	228.942	206.759	242.176	217.276	242.331	13.994	129.611	-59.818	-15.922	202.263	15.763	232.317	0.00075048	0.0017962	0.00019081	1157.6	2.2203e-05	1.0058e-05	1194.2	391.17	9.3408e-06	3.5637e-05	521.11	194.3	145.24	58.44	1.1825e-05	83.959	0.003087	0.0058056	0.0016468	1043.1	0.00011966	6.4088e-05	1082.1	356.69	5.1817e-05	0.00016622	472.61	177.59	133.69	53.86	5.6789e-05	78.293	30.732	-19.922	7.825	-72.788	-65.787	46.884	-73.527	-66.076	78.477	61.359	-68.521	-63.506	-62.087	-56.610	108.342	-60.067	-8191	255	
33076.500	1	1	0	0	0.22417	0.16808	0.14426	0.28666	0.090047	0.0097726	0.30957	0.24857	0.17849	0.1551	0.24255	0.042726	0.12804	0.27701	0.097246	0.19486	-3.9167	-4.7896	-4.5417	-4.3104	-4.8021	-4.2417	-4.6438	-4.9	-4.2146	-4.6125	-4.8354	-4.2292	-4.7438	-4.4167	-4.5854	-4.9542	136.906	265.705	50.574	239.607	119.519	131.971	231.842	227.526	60.836	105.307	231.031	133.626	253.363	228.321	-63.758	110.486	0.000749	0.0010777	0.0001769	1147.7	2.6937e-05	5.752e-06	1195.6	389.73	1.9865e-06	4.15e-05	515.27	193.28	144.88	57.881	9.1234e-06	83.544	0.0030517	0.0057252	0.0016563	1034.1	0.00012284	6.2745e-05	1076.3	354.85	5.0748e-05	0.00011912	471.89	176.65	133.16	53.411	5.6851e-05	77.783	34.398	12.257	-38.864	-72.745	-69.472	68.763	-73.665	-66.619	-36.614	54.067	-68.356	-63.868	-61.817	-56.473	94.991	-59.713	-8191	255	
33076.594	1	1	0	0	0.1325	0.1479	0.15083	0.19846	0.031247	0.076769	0.069739	0.25161	0.1783	0.065827	0.040408	0.3067	0.23148	0.13996	0.17828	0.20974	-3.7458	-4.5604	-4.6083	-4.3979	-4.7479	-4.3042	-4.4688	-4.8271	-4.3083	-4.7896	-4.7208	-4.3333	-4.7292	-4.5729	-4.2604	-5.0167	118.626	207.695	163.160	260.743	264.805	17.770	-47.730	232.496	112.803	136.715	95.892	262.741	-60.456	264.036	-77.150	221.182	0.00078557	0.00045406	0.00029162	1145.7	3.812e-05	1.018e-05	1192.9	389.11	1.0571e-05	5.1122e-06	518.7	193.92	145.59	58.153	1.1959e-05	83.531	0.0030585	0.0058429	0.0016301	1033.7	0.00012336	6.7797e-05	1077.4	353.88	5.188e-05	6.5487e-05	477.93	177.61	133.03	53.682	5.6478e-05	78.352	38.558	7.507	27.710	-72.598	-51.205	64.526	-73.812	-66.403	17.289	46.200	-68.588	-64.088	-61.835	-57.118	14.905	-59.796	-8191	255	
33076.715	1	1	0	0	0.048732	0.14114	0.055339	0.084381	0.20555	0.25392	0.12391	0.33903	0.081352	0.1074	0.093707	0.066229	0.18601	0.37333	0.17649	0.15865	-3.9146	-4.7854	-4.6542	-4.3292	-4.6562	-4.4	-4.3875	-4.8667	-4.2083	-4.4667	-4.9646	-4.4083	-4.8708	-4.5167	-4.2479	-4.9938	120.234	162.992	160.289	223.165	235.019	-49.956	201.938	227.527	156.499	254.736	132.673	98.839	260.597	-51.791	-17.075	266.095	0.00092565	0.00065663	0.00019179	1146.6	3.5431e-05	7.076e-06	1207.2	393.23	1.5303e-05	9.9165e-06	527.62	199.25	147.48	59.273	1.007e-05	85.423	0.003121	0.0058556	0.0015985	1037	0.00012466	6.6819e-05	1088.8	357.61	5.075e-05	6.5545e-05	486.13	180.97	135.2	54.443	5.7415e-05	79.932	55.610	20.873	19.203	-72.621	-41.623	73.399	-73.499	-66.695	66.375	80.055	-68.251	-63.547	-61.864	-57.063	68.164	-59.753	-8191	255	
33076.812	1	1	0	0	0.18518	0.17803	0.11432	0.086715	0.14271	0.31526	0.041147	0.095523	0.25881	0.11214	0.41484	0.16586	0.12866	0.12405	0.3201	0.13823	-4.0333	-4.3125	-4.7875	-4.1729	-4.6813	-4.4771	-4.4042	-5.0542	-4.3125	-4.5625	-4.9083	-4.3729	-4.7125	-4.6687	-4.1854	-4.925	-50.735	-19.260	202.841	49.359	167.225	49.918	179.443	266.298	137.420	115.534	228.712	260.541	-64.953	-75.921	58.458	202.686	0.00058036	0.00035866	0.00026756	1165.9	4.2472e-05	1.0462e-05	1217.4	398.05	7.2348e-06	1.3755e-05	532.37	198.87	147.51	59.002	1.0017e-05	85.006	0.0031769	0.0059549	0.0016804	1051.5	9.0002e-05	0.00010264	1098.3	361.09	5.4421e-05	6.7129e-05	489.55	181.21	135.72	54.451	5.9803e-05	79.652	23.210	100.068	-14.830	-72.776	-18.466	-35.012	-73.523	-66.576	96.831	51.941	-68.329	-63.972	-61.948	-56.584	56.695	-60.016	-8191	255	
33076.906	1	1	0	0	0.21962	0.066773	0.024748	0.11535	0.21165	0.044657	0.14666	0.12179	0.11058	0.18601	0.22435	0.014989	0.15685	0.097147	0.24474	0.35089	-4.2354	-4.4688	-4.9479	-4.5	-4.575	-4.6	-4.3604	-5.0271	-4.4458	-4.3562	-5.0083	-4.4146	-4.7708	-4.7146	-4.2833	-4.8375	19.189	107.220	-3.981	212.982	-66.140	18.812	170.306	157.800	136.967	-39.797	206.609	-62.026	261.789	210.743	42.206	229.548	0.00075127	0.00029817	0.00035758	1162.6	6.7576e-06	2.8018e-06	1204.6	395.68	1.6194e-05	8.6463e-06	527.47	196.79	147.07	58.635	6.3317e-06	84.398	0.0032181	0.0060177	0.0016971	1049.4	5.2319e-05	0.00016247	1092.2	360.2	5.1302e-05	6.7596e-05	487.64	180.31	134.68	54.048	5.8367e-05	79.069	26.828	56.928	48.362	-72.623	-12.901	245.320	-73.702	-66.254	81.809	13.347	-68.135	-63.779	-61.682	-56.533	23.205	-59.785	-8191	255	
33077.004	1	1	0	0	0.10015	0.17101	0.065933	0.16515	0.090937	0.036049	0.24455	0.065137	0.07446	0.239	0.27161	0.12523	0.21838	0.18893	0.12898	0.04124	-4.1042	-4.3708	-4.8063	-4.4208	-4.5021	-4.7354	-4.4375	-4.9542	-4.6021	-4.2583	-5.0125	-4.4604	-4.5208	-4.9375	-4.1729	-4.9479	31.537	200.068	40.783	159.625	235.637	269.013	104.702	131.382	-52.464	161.569	207.004	261.015	-9.767	-61.547	249.246	21.831	0.00072985	0.0013425	9.1389e-05	1150.3	8.6183e-06	2.1214e-05	1203.3	391.63	5.5811e-06	4.6351e-06	526.15	198.49	144.51	58.349	3.9148e-06	84.772	0.0032622	0.0057	0.001622	1036.9	5.1918e-05	0.00016469	1084.3	356.11	5.3526e-05	6.6311e-05	484.11	179.87	133.52	53.922	5.6574e-05	78.363	44.088	35.178	55.389	-72.676	88.502	-10.731	-73.456	-66.555	2.951	77.981	-68.686	-63.881	-61.835	-56.903	60.653	-59.836	-8191	255	
33077.102	1	1	0	0	0.07896	0.25261	0.17761	0.31957	0.1142	0.19537	0.24339	0.13151	0.11075	0.11368	0.24742	0.10527	0.20075	0.32688	0.19514	0.090767	-4.3167	-4.3375	-4.8458	-4.3812	-4.6167	-4.8229	-4.5062	-4.8104	-4.6708	-4.225	-4.9792	-4.4979	-4.4146	-4.9271	-4.2708	-4.8313	90.884	215.293	77.933	207.209	258.595	189.321	190.552	155.994	210.287	145.610	207.411	-33.750	241.987	269.315	74.745	27.257	0.0016612	0.00090003	0.00030523	1145.6	1.3355e-05	1.9617e-05	1215.3	394.5	1.0402e-05	6.9154e-06	528.86	197.96	147.84	59.073	8.403e-06	85.688	0.0047582	0.0058087	0.0016615	1037.4	5.092e-05	0.00016476	1091.4	358.14	5.1899e-05	6.6715e-05	486.99	180.98	135.39	54.336	5.9288e-05	78.597	18.186	-3.944	8.619	-72.797	28.267	-19.805	-73.513	-66.144	-28.891	57.287	-68.625	-63.707	-61.889	-56.990	82.763	-60.093	-8191	255	
33077.195	1	1	0	0	0.16041	0.13311	0.16534	0.25429	0.19618	0.12956	0.1871	0.11019	0.16603	0.18164	0.32201	0.10856	0.14095	0.05176	0.064244	0.26072	-4.3396	-4.2104	-4.8208	-4.5583	-4.3896	-4.7917	-4.4167	-4.7583	-4.7271	-4.4042	-4.9333	-4.6646	-4.3208	-4.9958	-4.4062	-4.6479	108.317	-23.132	-40.909	200.197	-0.421	-28.047	-50.946	184.695	117.401	153.292	203.582	36.729	19.793	154.761	181.934	205.488	0.0017151	0.00063869	0.00012822	1150.9	1.6352e-05	2.5204e-05	1197.9	392.96	2.5963e-06	5.9772e-06	524.78	196.76	145.17	58.408	4.7948e-06	83.385	0.0072752	0.0058429	0.0016687	1037.9	4.94e-05	0.00016461	1082.4	356.51	5.2933e-05	6.5783e-05	483.2	178.98	133.62	53.683	5.911e-05	77.011	20.874	-15.115	-6.851	-72.833	67.536	-18.891	-73.527	-66.501	-58.413	129.893	-68.388	-64.001	-61.971	-56.716	51.849	-60.189	-8191	255	
33077.316	1	1	0	0	0.20059	0.2963	0.13941	0.14596	0.15784	0.073957	0.18029	0.22063	0.36071	0.15739	0.15749	0.031129	0.24151	0.045706	0.10581	0.24969	-4.4958	-4.1042	-4.8167	-4.6667	-4.2646	-4.7917	-4.6208	-4.6646	-4.6062	-4.4229	-4.7125	-4.5375	-4.4187	-4.9167	-4.4521	-4.4875	128.088	-61.662	29.854	235.519	-64.912	-38.222	229.792	200.414	234.556	254.522	207.778	24.834	201.938	186.677	-79.643	227.435	0.0016224	0.0010537	0.00016443	1138.7	7.9502e-06	2.4644e-05	1190.8	390.59	6.6285e-06	1.1512e-05	520.41	195.57	144.2	57.902	2.619e-06	83.611	0.0071133	0.0057899	0.0016856	1031.2	5.042e-05	0.00016725	1078.2	355.19	5.2274e-05	6.5247e-05	475.96	179.07	132.68	53.353	5.8786e-05	77.218	11.138	12.047	3.685	-72.858	18.879	-1.611	-73.516	-66.371	42.334	87.766	-68.242	-63.957	-62.232	-56.706	62.601	-59.479	-8191	255	
33077.410	1	1	0	0	0.10992	0.10224	0.14649	0.33153	0.061405	0.22455	0.21187	0.25114	0.14109	0.23382	0.29762	0.17176	0.078641	0.31722	0.15151	0.14751	-4.5729	-4.2542	-4.7042	-4.8292	-4.3208	-4.8417	-4.6625	-4.6937	-4.9729	-4.4313	-4.8021	-5.0083	-4.4125	-4.8292	-4.5667	-4.4667	261.203	268.521	35.739	256.373	108.528	221.270	207.225	243.632	-28.798	90.313	264.484	223.451	-18.096	-42.674	262.442	-38.723	0.0016948	0.0012708	0.0003505	1132.7	6.0972e-06	2.3685e-05	1200.9	393.15	7.5238e-06	8.7526e-06	529.17	198.94	149.01	59.499	4.2664e-06	87.256	0.0073868	0.0059318	0.0016706	1025.3	4.983e-05	0.00016544	1082.6	356.57	5.3721e-05	6.6729e-05	480.12	184.88	136.06	54.867	5.7022e-05	80.247	30.575	-3.655	4.013	-72.829	193.680	-8.553	-73.368	-66.670	41.278	49.710	-68.120	-64.004	-62.042	-57.097	-1.996	-60.009	-8191	255	
33077.508	1	1	0	0	0.11991	0.18451	0.10151	0.17763	0.20567	0.19961	0.13716	0.089497	0.2874	0.13673	0.29933	0.29393	0.10176	0.10747	0.10893	0.10747	-4.6438	-4.1375	-4.4979	-4.8333	-4.2688	-4.7167	-4.5958	-4.3667	-4.8229	-4.3708	-4.6958	-5.0354	-4.3292	-4.9083	-4.7146	-4.3208	-21.877	-49.607	132.537	254.445	189.748	-37.117	246.170	132.531	-49.291	132.854	270.316	229.459	181.115	-2.621	52.271	155.368	0.0015177	0.00069351	4.357e-05	1171.9	1.4597e-05	3.6144e-05	1246.9	408.67	4.799e-06	8.8928e-06	556.38	212.76	154.61	62.503	4.4263e-06	91.481	0.0071096	0.0057913	0.0016629	1057	4.9231e-05	0.00016311	1125.1	371.95	5.0157e-05	6.565e-05	503.91	196.2	142.54	57.496	5.6897e-05	84.116	30.513	-48.759	-61.242	-72.431	34.986	18.840	-73.479	-66.503	267.448	55.368	-68.675	-63.751	-61.535	-57.102	91.330	-59.756	-8191	255	
#DATA ENDS
