BOXY.EXE: ISS Imagent and Oximeter Data Acquisition Program Version 0.80
Ascii Record File

#ACQ INFORMATION
2  Detector Channels 
16  External MUX Channels 
1  Auxiliary Channels 
5000  Waveform (CCF) Frequency (Hz)
1  Waveforms Skipped 
30  Waveforms Averaged 
1  Cycles Averaged 
16  Acquisitions per Waveform 
10.0806  Updata Rate (Hz) 

#FILE INFORMATION
TRUE -- External MUX Channel results are PARSED.
FALSE -- AC DC and Phase are NOT grouped.
TRUE -- Companion Program Settings File CREATED.
FALSE -- AC data not excluded
FALSE -- DC data not excluded
FALSE -- Phase data not excluded
FALSE -- Auxillary Chn. data not excluded
Tab delimiters

#CALIBRATION STATE
TRUE -- Waveform Calibration Values APPLIED.


#AUX CALIBRATION VALUES
Val Type	aux-1	

Term	1.0000e+00	
Factor	0.0000e+00	


#WF CALIBRATION VALUES
A = Detector Channel
Val Type	A-AC1	A-AC2	A-AC3	A-AC4	A-AC5	A-AC6	A-AC7	A-AC8	A-AC9	A-AC10	A-AC11	A-AC12	A-AC13	A-AC14	A-AC15	A-AC16	A-DC1	A-DC2	A-DC3	A-DC4	A-DC5	A-DC6	A-DC7	A-DC8	A-DC9	A-DC10	A-DC11	A-DC12	A-DC13	A-DC14	A-DC15	A-DC16	A-Ph1	A-Ph2	A-Ph3	A-Ph4	A-Ph5	A-Ph6	A-Ph7	A-Ph8	A-Ph9	A-Ph10	A-Ph11	A-Ph12	A-Ph13	A-Ph14	A-Ph15	A-Ph16	

Term	0.00000e+00	0.00000e+00	0.00000e+00	0.00000e+00	0.00000e+00	0.00000e+00	0.00000e+00	0.00000e+00	0.00000e+00	0.00000e+00	0.00000e+00	0.00000e+00	0.00000e+00	0.00000e+00	0.00000e+00	0.00000e+00	0.00000e+00	0.00000e+00	0.00000e+00	0.00000e+00	0.00000e+00	0.00000e+00	0.00000e+00	0.00000e+00	0.00000e+00	0.00000e+00	0.00000e+00	0.00000e+00	0.00000e+00	0.00000e+00	0.00000e+00	0.00000e+00	0.00000e+00	0.00000e+00	0.00000e+00	0.00000e+00	0.00000e+00	0.00000e+00	0.00000e+00	0.00000e+00	0.00000e+00	0.00000e+00	0.00000e+00	0.00000e+00	0.00000e+00	0.00000e+00	0.00000e+00	0.00000e+00	
Factor	1.00000e+00	1.00000e+00	1.00000e+00	1.00000e+00	1.00000e+00	1.00000e+00	1.00000e+00	1.00000e+00	1.00000e+00	1.00000e+00	1.00000e+00	1.00000e+00	1.00000e+00	1.00000e+00	1.00000e+00	1.00000e+00	1.00000e+00	1.00000e+00	1.00000e+00	1.00000e+00	1.00000e+00	1.00000e+00	1.00000e+00	1.00000e+00	1.00000e+00	1.00000e+00	1.00000e+00	1.00000e+00	1.00000e+00	1.00000e+00	1.00000e+00	1.00000e+00	X	X	X	X	X	X	X	X	X	X	X	X	X	X	X	X	

B = Detector Channel
Val Type	B-AC1	B-AC2	B-AC3	B-AC4	B-AC5	B-AC6	B-AC7	B-AC8	B-AC9	B-AC10	B-AC11	B-AC12	B-AC13	B-AC14	B-AC15	B-AC16	B-DC1	B-DC2	B-DC3	B-DC4	B-DC5	B-DC6	B-DC7	B-DC8	B-DC9	B-DC10	B-DC11	B-DC12	B-DC13	B-DC14	B-DC15	B-DC16	B-Ph1	B-Ph2	B-Ph3	B-Ph4	B-Ph5	B-Ph6	B-Ph7	B-Ph8	B-Ph9	B-Ph10	B-Ph11	B-Ph12	B-Ph13	B-Ph14	B-Ph15	B-Ph16	

Term	0.00000e+00	0.00000e+00	0.00000e+00	0.00000e+00	0.00000e+00	0.00000e+00	0.00000e+00	0.00000e+00	0.00000e+00	0.00000e+00	0.00000e+00	0.00000e+00	0.00000e+00	0.00000e+00	0.00000e+00	0.00000e+00	0.00000e+00	0.00000e+00	0.00000e+00	0.00000e+00	0.00000e+00	0.00000e+00	0.00000e+00	0.00000e+00	0.00000e+00	0.00000e+00	0.00000e+00	0.00000e+00	0.00000e+00	0.00000e+00	0.00000e+00	0.00000e+00	-2.19236e+02	-1.31854e+02	-1.24135e+02	-1.81681e+02	-8.58735e+01	-6.72878e+01	-1.57568e+02	-1.62015e+02	-8.41279e+01	-6.72097e+01	-1.71278e+02	-1.72824e+02	-1.84035e+02	-1.76898e+02	-7.35276e+01	-1.49611e+02	
Factor	5.03203e-05	1.86684e-04	5.35002e-05	1.55221e-01	2.21823e-06	1.93863e-06	1.70040e-01	5.39350e-02	2.78813e-06	2.02691e-06	8.86941e-02	3.59107e-02	3.83696e-02	9.50516e-03	2.03926e-06	1.37819e-02	1.31170e-05	1.87377e-05	5.23375e-06	7.87103e-02	1.87137e-07	2.07811e-07	8.13289e-02	2.73734e-02	1.87871e-07	2.06201e-07	4.39296e-02	1.77345e-02	1.96596e-02	4.87883e-03	1.96838e-07	6.87861e-03	X	X	X	X	X	X	X	X	X	X	X	X	X	X	X	X	



#DISTANCE SETTINGS
A = Detector Channel
A-1	A-2	A-3	A-4	A-5	A-6	A-7	A-8	A-9	A-10	A-11	A-12	A-13	A-14	A-15	A-16	

2.5000e+00	3.0000e+00	2.5000e+00	3.0000e+00	2.0000e+00	3.0000e+00	1.5000e+00	3.0000e+00	3.0000e+00	3.0000e+00	3.0000e+00	3.0000e+00	3.0000e+00	3.0000e+00	1.5000e+00	3.0000e+00	

B = Detector Channel
B-1	B-2	B-3	B-4	B-5	B-6	B-7	B-8	B-9	B-10	B-11	B-12	B-13	B-14	B-15	B-16	

1.0000e+01	1.0000e+01	1.0000e+01	1.4400e+00	1.0000e+01	1.0000e+01	1.5100e+00	1.9400e+00	1.0000e+01	1.0000e+01	1.9900e+00	2.4900e+00	2.4100e+00	2.9000e+00	1.0000e+01	2.9800e+00	




#DATA BEGINS
time	group	step	mark	flag	A-AC1	A-AC2	A-AC3	A-AC4	A-AC5	A-AC6	A-AC7	A-AC8	A-AC9	A-AC10	A-AC11	A-AC12	A-AC13	A-AC14	A-AC15	A-AC16	A-DC1	A-DC2	A-DC3	A-DC4	A-DC5	A-DC6	A-DC7	A-DC8	A-DC9	A-DC10	A-DC11	A-DC12	A-DC13	A-DC14	A-DC15	A-DC16	A-Ph1	A-Ph2	A-Ph3	A-Ph4	A-Ph5	A-Ph6	A-Ph7	A-Ph8	A-Ph9	A-Ph10	A-Ph11	A-Ph12	A-Ph13	A-Ph14	A-Ph15	A-Ph16	B-AC1	B-AC2	B-AC3	B-AC4	B-AC5	B-AC6	B-AC7	B-AC8	B-AC9	B-AC10	B-AC11	B-AC12	B-AC13	B-AC14	B-AC15	B-AC16	B-DC1	B-DC2	B-DC3	B-DC4	B-DC5	B-DC6	B-DC7	B-DC8	B-DC9	B-DC10	B-DC11	B-DC12	B-DC13	B-DC14	B-DC15	B-DC16	B-Ph1	B-Ph2	B-Ph3	B-Ph4	B-Ph5	B-Ph6	B-Ph7	B-Ph8	B-Ph9	B-Ph10	B-Ph11	B-Ph12	B-Ph13	B-Ph14	B-Ph15	B-Ph16	aux-1	digaux	

6814.760	1	1	0	256	0.072481	0.19417	0.20795	0.29261	0.12436	0.1063	0.23925	0.1294	0.08065	0.20051	0.18233	0.084464	0.11818	0.10535	0.13966	0.084174	-4.5625	-5.075	-4.6854	-5.2083	-4.5729	-4.7729	-5.2438	-4.3958	-4.8688	-4.8375	-4.7188	-5.0958	-4.7521	-4.7479	-5.0771	-4.6438	167.317	-127.793	-87.000	130.662	115.067	-67.445	94.547	-162.228	46.368	-168.206	154.636	84.337	178.224	102.297	10.333	-9.232	0.00066363	0.00032813	6.2588e-05	1248.7	4.6167e-06	3.1177e-06	1313.7	264.35	6.2815e-06	3.8347e-06	326.52	90.178	71.796	20.655	2.4782e-06	29.027	0.00033719	0.00029098	8.35e-05	1236	3.3813e-06	3.0916e-06	1303.2	263.01	3.2517e-06	3.1849e-06	325.29	90.456	71.728	20.93	2.8201e-06	29.372	111.500	-87.381	-64.785	-161.151	-105.643	-26.958	-161.230	-154.601	-63.668	-44.875	-154.501	-148.564	-147.878	-140.803	-19.463	-141.186	-8191	255	
6814.856	1	1	0	0	0.18687	0.22971	0.1183	0.035563	0.12179	0.17358	0.2423	0.29722	0.068003	0.095342	0.25251	0.038287	0.2597	0.18499	0.10165	0.13499	-4.5604	-4.6813	-4.3875	-5.3708	-4.6646	-4.4521	-5.3354	-4.5708	-4.8938	-4.8583	-4.5375	-5.2521	-4.8417	-4.6458	-5.0208	-4.6104	29.684	114.303	-99.127	112.140	60.738	-92.623	116.009	-11.281	-106.436	-23.890	-104.142	6.824	-132.297	-120.334	11.586	140.801	0.00070843	0.00038527	9.496e-05	1241.6	2.3174e-06	2.2493e-06	1308	264.54	6.9501e-06	9.1679e-07	325.63	90.257	71.176	20.665	3.8283e-06	28.98	0.00032199	0.00025717	8.0262e-05	1229.3	3.2008e-06	2.8782e-06	1295.7	262.42	2.8971e-06	2.8198e-06	324.35	90.215	71.385	20.917	2.7496e-06	29.347	110.721	-84.353	-95.921	-161.025	-92.762	-10.804	-161.231	-154.433	-60.223	35.889	-154.654	-148.566	-148.451	-140.957	-42.657	-141.368	-8191	255	
6814.952	1	1	0	0	0.28334	0.1455	0.096197	0.045222	0.10783	0.19683	0.24509	0.075658	0.24778	0.063725	0.075951	0.045632	0.12618	0.3164	0.033015	0.12712	-4.6083	-5.1542	-4.3229	-5.1125	-4.8562	-4.7083	-5.3292	-4.75	-4.8604	-5.1417	-4.6687	-4.8875	-4.8229	-4.6583	-5.1333	-4.9313	4.178	-42.612	77.385	142.972	-70.230	-85.602	98.687	186.502	102.560	145.413	-8.367	-131.979	-82.598	144.957	27.326	-69.038	0.00068924	0.00033704	8.8897e-05	1242.4	3.8693e-06	5.2516e-06	1315.2	264.98	9.5016e-06	3.7789e-06	328.02	90.9	71.893	20.746	4.7051e-06	29.076	0.00030942	0.00026369	7.4047e-05	1233.1	2.9665e-06	2.7466e-06	1303	263.27	2.9958e-06	2.7253e-06	326.08	90.629	71.667	21.046	2.8525e-06	29.577	109.045	-65.589	-69.055	-160.940	-74.472	0.428	-161.260	-154.336	-73.680	-0.975	-154.430	-148.727	-147.873	-140.687	-57.053	-141.350	-8191	255	
6815.048	1	1	0	0	0.20513	0.038443	0.068852	0.2041	0.13508	0.23564	0.11519	0.29691	0.044776	0.21403	0.019175	0.085196	0.17163	0.23878	0.11009	0.28808	-4.3625	-5.0229	-4.5396	-5.0917	-4.95	-4.5167	-5.4896	-4.8229	-4.85	-5.0625	-4.6583	-5.1	-4.9688	-4.5417	-5.2708	-4.8646	-132.278	-108.302	-45.607	173.046	-132.846	-60.571	178.743	180.421	26.218	21.001	-166.456	101.349	142.181	142.205	43.428	123.014	0.00074947	0.00028139	8.432e-05	1256.4	3.273e-06	3.4291e-06	1323.1	266.02	8.0553e-06	3.8241e-06	326.56	90.49	71.806	20.714	2.9989e-06	28.962	0.00031596	0.00024765	7.6031e-05	1241.9	2.9739e-06	2.8773e-06	1310.7	264.08	3.0463e-06	2.8864e-06	325.44	90.646	71.797	20.983	3.224e-06	29.436	112.020	-92.409	-54.439	-161.107	-66.754	-17.219	-161.191	-154.556	-59.632	-12.831	-154.716	-148.548	-148.137	-141.011	-34.374	-141.149	-8191	255	
6815.144	1	1	0	0	0.14021	0.13363	0.093205	0.24624	0.12366	0.17815	0.1752	0.14119	0.19703	0.13344	0.2938	0.15026	0.10406	0.082592	0.20327	0.22308	-4.2396	-5.0104	-4.5833	-4.9396	-4.9396	-4.4812	-5.2917	-4.8104	-4.5938	-5.0604	-4.6833	-4.9417	-5.0792	-4.4708	-5.025	-5.0833	-148.869	12.955	-58.307	90.363	-156.976	166.434	-138.018	-134.928	-103.682	-41.412	77.811	180.145	85.012	-78.558	-168.137	148.037	0.00065737	0.00033738	0.00010504	1249.3	5.2265e-06	3.4439e-06	1319.8	265.01	7.986e-06	4.0073e-06	325.29	90.292	71.981	20.772	2.6324e-06	28.885	0.00034408	0.00030246	8.0393e-05	1234.6	3.4687e-06	3.3167e-06	1303.8	263.34	3.3308e-06	3.0947e-06	325.04	90.445	71.792	21.001	3.1654e-06	29.419	118.529	-123.422	-80.872	-161.137	-65.486	-23.740	-161.242	-154.332	-76.456	-10.346	-154.597	-148.802	-148.220	-140.670	-7.561	-141.398	-8191	255	
6815.263	1	1	0	0	0.1706	0.014154	0.1145	0.23122	0.21752	0.076562	0.16302	0.069592	0.03701	0.083289	0.083426	0.23389	0.23622	0.22554	0.16512	0.091705	-4.425	-5.0667	-4.5479	-4.9354	-5.2188	-4.65	-5.2417	-4.9354	-4.5437	-5.0667	-4.8458	-4.9667	-5.0687	-4.5563	-4.8125	-4.9062	-55.651	-116.676	-155.830	-145.297	-17.071	-144.047	182.732	21.456	-39.913	-111.891	-15.447	82.607	-96.665	-37.437	-133.927	-1.789	0.00069759	0.00030862	0.00010824	1247	3.6393e-06	2.8634e-06	1309.3	264.77	6.1771e-06	5.5486e-06	324.54	90.406	71.175	20.598	3.4581e-06	28.705	0.00033047	0.0002943	8.3729e-05	1232.3	3.3732e-06	3.3951e-06	1299.3	263.16	3.2384e-06	3.038e-06	324.65	90.444	71.427	20.903	3.0005e-06	29.259	110.656	-84.971	-87.897	-161.217	-54.204	-18.486	-161.432	-154.425	-100.253	-15.570	-154.481	-148.280	-148.061	-141.092	-38.110	-141.502	-8191	255	
6815.359	1	1	0	0	0.10955	0.11766	0.03119	0.12537	0.13489	0.034788	0.1739	0.14805	0.20936	0.19007	0.10312	0.2401	0.13791	0.16316	0.096356	0.069724	-4.0667	-4.9688	-4.6958	-4.9688	-5.1813	-4.6333	-5.0583	-5.2604	-4.4979	-4.9979	-4.7521	-4.6854	-5.2583	-4.7625	-5.0062	-5.0625	-101.969	78.878	167.962	42.872	86.630	-154.449	103.430	166.568	109.198	-105.933	-63.225	117.229	121.845	-97.479	-147.940	35.376	0.00067343	0.00047076	0.00011147	1241.3	4.7569e-06	3.5493e-06	1310	265.07	5.8798e-06	5.0644e-06	325.41	89.874	71.469	20.64	5.1095e-06	28.779	0.00032675	0.0002642	7.9902e-05	1228.2	3.1279e-06	3.1055e-06	1295.7	262.43	3.4373e-06	3.1007e-06	324.26	90.024	71.362	20.838	3.0949e-06	29.234	112.650	-103.423	-62.727	-161.053	-71.860	-16.518	-161.203	-154.650	-77.562	-20.025	-154.628	-148.420	-147.862	-141.222	-48.060	-141.191	-8191	255	
6815.456	1	1	0	0	0.03591	0.1807	0.19383	0.23544	0.08871	0.06952	0.045781	0.1686	0.090381	0.29611	0.036028	0.076362	0.11507	0.17251	0.081479	0.085408	-4.0687	-5.0417	-4.8688	-4.7708	-5.2458	-4.8021	-4.8271	-5.0104	-4.6708	-4.9563	-4.7958	-4.4938	-5.2042	-4.8208	-4.7729	-5.0167	161.964	-171.715	71.244	146.470	-4.442	-20.229	-24.013	110.224	144.091	-18.306	103.372	-94.544	-86.125	133.170	135.386	-88.624	0.00069965	0.0005354	0.00011192	1240.5	5.0946e-06	4.8219e-06	1307	264.52	8.3827e-06	3.1015e-06	326.34	89.801	71.33	20.714	2.5177e-06	28.895	0.00033823	0.0002617	7.4079e-05	1226.8	2.9981e-06	2.8873e-06	1296	262.79	3.1288e-06	2.6157e-06	324.58	90.051	71.316	20.921	2.7475e-06	29.335	111.135	-92.854	-75.799	-160.944	-86.030	-35.242	-161.240	-154.462	-70.449	-21.421	-154.628	-148.551	-148.105	-140.897	-54.311	-140.919	-8191	255	
6815.552	1	1	0	0	0.15885	0.10659	0.14141	0.20643	0.15546	0.19298	0.174	0.064212	0.2152	0.13181	0.11609	0.15307	0.10833	0.26172	0.1048	0.097348	-4.1625	-5.0958	-4.8417	-4.5458	-5.0896	-4.8333	-4.9396	-5.0708	-4.3021	-4.8938	-5.1458	-4.4354	-4.9979	-4.725	-4.8562	-5.0938	36.417	159.489	-158.934	153.090	-26.341	115.553	123.083	110.647	97.304	5.932	-171.649	93.170	138.982	184.675	-42.669	156.852	0.00067523	0.0003421	7.6772e-05	1240.8	5.8737e-06	3.035e-06	1309.1	263.34	5.1025e-06	4.2038e-06	324.07	89.559	70.961	20.558	4.6295e-06	28.738	0.00031218	0.0002309	6.6643e-05	1227.4	2.7837e-06	2.553e-06	1294.8	261.6	2.91e-06	2.4272e-06	323.09	89.601	70.961	20.794	2.6991e-06	29.234	111.164	-74.829	-72.285	-161.123	-65.068	-16.756	-161.110	-154.236	-48.088	-52.156	-154.262	-148.440	-148.179	-140.677	-43.507	-141.213	-8191	255	
6815.648	1	1	0	0	0.20237	0.1977	0.15042	0.039221	0.091003	0.14088	0.1344	0.10362	0.19336	0.10594	0.029502	0.12824	0.076238	0.20712	0.096864	0.058629	-4.1958	-5.0542	-4.9417	-4.7521	-5.25	-4.8354	-4.8229	-5.0792	-4.625	-4.8229	-5.1646	-4.4458	-5.0792	-4.8271	-4.4042	-5.0292	-27.180	81.218	94.869	102.547	166.711	42.159	-160.953	1.318	-132.958	-146.270	-159.592	160.211	38.766	-137.334	90.114	110.872	0.00068762	0.0004449	0.00010891	1234	4.676e-06	4.4729e-06	1296.4	262.41	4.4761e-06	3.621e-06	322.22	89.748	71.331	20.522	3.7404e-06	28.501	0.00030434	0.00022392	6.2151e-05	1217.9	2.6944e-06	2.5574e-06	1287.4	260.54	2.6783e-06	2.2205e-06	322.08	89.621	70.988	20.785	2.4683e-06	29.152	113.275	-78.618	-75.845	-161.013	-75.216	-9.849	-161.401	-154.209	-76.202	-53.205	-154.762	-148.526	-148.417	-140.939	-29.919	-141.020	-8191	255	
6815.744	1	1	0	0	0.12573	0.28951	0.17962	0.18827	0.088038	0.042515	0.11605	0.22118	0.13724	0.2926	0.20668	0.20445	0.075684	0.27651	0.22315	0.15953	-4.2458	-4.85	-5.075	-4.7667	-5.0479	-5.0042	-4.7417	-5.1854	-4.7312	-4.8938	-4.9479	-4.6354	-5.0625	-4.9062	-4.4437	-5.1562	126.065	32.779	-70.887	105.780	-142.781	132.712	135.686	71.917	60.980	-80.283	145.946	163.642	-59.097	-78.890	-83.007	146.960	0.00065651	0.00046979	0.00011986	1227.7	4.8483e-06	3.9397e-06	1293.9	260.95	7.4354e-06	3.5839e-06	321.55	89.37	71.056	20.35	2.2959e-06	28.54	0.00028404	0.00021482	5.418e-05	1215.6	2.547e-06	2.3158e-06	1282.2	259.48	2.6725e-06	2.294e-06	320.76	89.208	70.469	20.629	2.6065e-06	29.048	114.232	-80.546	-79.741	-160.938	-69.381	-28.482	-161.287	-154.195	-61.646	-32.445	-154.387	-148.669	-148.254	-140.865	-48.189	-141.059	-8191	255	
6815.865	1	1	0	0	0.23398	0.095739	0.11334	0.25923	0.12217	0.12614	0.19351	0.10402	0.17413	0.11831	0.24343	0.31453	0.053121	0.18324	0.18465	0.28498	-4.2375	-4.5312	-4.925	-4.7729	-5.0375	-5.0437	-4.7562	-5.1417	-4.5229	-4.7208	-5.3979	-4.4854	-4.9083	-5.0625	-4.5396	-5.05	170.008	101.543	-39.368	157.914	48.467	-124.862	63.125	98.072	-95.427	94.972	-163.655	109.501	-145.314	176.499	41.882	66.484	0.00064808	0.000387	0.00014015	1222.6	3.1356e-06	3.4424e-06	1282.6	259.57	4.6336e-06	4.355e-06	321.37	88.524	70.278	20.167	2.1573e-06	28.31	0.00028221	0.00021583	6.2042e-05	1206.9	2.646e-06	2.4097e-06	1273.8	258.2	2.6239e-06	2.5195e-06	319.1	88.715	70.148	20.511	2.4051e-06	28.841	111.862	-75.419	-73.293	-161.066	-88.732	-31.443	-161.294	-154.259	-79.997	-24.853	-154.329	-148.605	-147.935	-140.906	-43.902	-140.973	-8191	255	
6815.959	1	1	0	0	0.1698	0.08821	0.23676	0.041796	0.06762	0.072395	0.16658	0.23324	0.055893	0.10182	0.11614	0.17935	0.041372	0.02344	0.017696	0.061525	-4.3396	-4.7104	-5.0583	-4.7604	-4.7812	-5.1625	-4.8125	-5.0729	-4.7729	-4.8083	-5.3042	-4.6562	-4.8375	-5.2271	-4.3896	-5.0875	78.853	166.933	18.434	39.897	153.252	-5.038	130.248	171.917	108.981	6.620	3.470	161.949	-17.396	49.342	-63.852	89.705	0.00066602	0.00031472	9.2665e-05	1216.5	4.5322e-06	2.6444e-06	1287.3	260.36	6.883e-06	2.6331e-06	319.27	88.224	70.189	20.266	4.6657e-06	28.35	0.00028125	0.00022224	5.3755e-05	1203.5	2.5622e-06	2.1786e-06	1273.4	257.76	2.539e-06	2.3649e-06	318.19	88.412	69.965	20.525	2.3235e-06	28.916	112.686	-83.355	-97.667	-161.027	-84.353	-21.326	-161.219	-153.938	-70.401	-23.526	-154.370	-148.513	-148.272	-140.908	-37.240	-141.753	-8191	255	
6816.055	1	1	0	0	0.10867	0.045187	0.25409	0.098363	0.0040746	0.0031144	0.17638	0.058945	0.088143	0.13207	0.17172	0.30895	0.099919	0.13778	0.097948	0.16691	-4.4458	-4.5312	-5.1542	-4.9292	-4.9104	-5.1083	-4.7125	-5.1396	-4.925	-4.5312	-5.2208	-4.8771	-4.65	-5.2354	-4.6375	-5.025	41.236	9.564	-19.166	-150.093	42.317	61.970	115.504	126.597	43.612	151.067	134.412	73.214	78.137	101.616	-64.153	-160.023	0.00067464	0.00027304	0.00011497	1220.4	2.5888e-06	2.8759e-06	1284.7	259.92	7.9109e-06	2.9104e-06	320.87	88.851	69.868	20.348	4.5705e-06	28.154	0.00027434	0.00020397	5.3788e-05	1203.7	2.5903e-06	2.0391e-06	1272.2	257.53	2.4963e-06	2.2652e-06	318.92	88.744	70.004	20.495	2.3744e-06	28.822	109.668	-75.327	-75.741	-161.063	-50.155	-25.696	-161.260	-154.283	-72.776	-20.225	-154.418	-148.539	-147.798	-140.729	-12.993	-141.101	-8191	255	
6816.129	1	1	0	0	0.13499	0.14308	0.16175	0.28442	0.1906	0.24447	0.083668	0.15484	0.17625	0.16044	0.073315	0.16938	0.16407	0.1308	0.077859	0.095913	-4.6729	-4.5062	-5.0833	-4.8958	-4.8333	-5.1771	-4.6292	-4.9583	-5.0687	-4.6604	-5.0813	-4.7354	-4.6229	-5.3792	-4.6458	-4.8479	-75.197	146.260	-110.717	158.379	-141.666	171.911	105.386	75.203	86.689	-65.155	-73.587	-139.242	75.020	-80.922	122.303	-25.169	0.00063982	0.00040867	0.00010667	1219	3.993e-06	2.0401e-06	1282.5	259.71	6.5048e-06	3.2596e-06	318.86	88.681	69.735	20.405	3.06e-06	28.621	0.00026985	0.00021283	5.6819e-05	1204	2.6347e-06	2.1409e-06	1272.7	257.64	2.5179e-06	2.3778e-06	318.49	88.703	69.927	20.532	2.3592e-06	28.972	110.772	-77.744	-72.510	-160.963	-75.803	-12.415	-161.192	-154.360	-42.741	-1.519	-154.541	-148.064	-148.175	-140.949	-40.723	-141.036	-8191	255	
6816.247	1	1	0	0	0.1275	0.053981	0.11077	0.2023	0.17233	0.09769	0.20239	0.2052	0.067074	0.091464	0.25948	0.089151	0.18831	0.25204	0.10947	0.18312	-4.5833	-4.4271	-5.2646	-5.0062	-4.5312	-5.1021	-4.6917	-4.9062	-5.2208	-4.5917	-5.2229	-4.8771	-4.5188	-5.0896	-4.8396	-4.8917	48.045	-15.665	-111.278	81.895	-85.892	-132.752	52.519	102.264	-32.866	103.305	84.231	15.145	95.531	164.369	-79.426	185.719	0.00064717	0.00043099	7.5071e-05	1216.6	5.2222e-06	2.1076e-06	1283	259.41	5.2272e-06	4.2479e-06	318.33	88.191	69.851	20.089	4.3642e-06	28.18	0.00027537	0.00022239	5.5761e-05	1203.2	2.634e-06	2.2076e-06	1270.9	257.63	2.4173e-06	2.3039e-06	318.07	88.645	69.776	20.403	2.2271e-06	28.766	108.356	-103.033	-70.871	-160.943	-61.153	-48.241	-160.954	-154.077	-58.206	-25.446	-154.260	-148.495	-147.734	-140.728	-46.560	-141.131	-8191	255	
6816.344	1	1	0	0	0.12017	0.14089	0.12064	0.11032	0.11275	0.061239	0.06419	0.22549	0.37314	0.093987	0.11815	0.046295	0.1142	0.17609	0.34072	0.14733	-4.8729	-4.425	-4.8146	-4.9583	-4.5667	-5.3021	-4.75	-4.8021	-5.1375	-4.7792	-5.0625	-5.0479	-4.725	-5.1542	-4.8417	-4.6208	56.328	-160.546	139.710	-122.179	-6.532	134.267	-129.633	122.277	0.734	9.667	-164.555	113.730	-105.756	-169.013	-44.159	54.076	0.00069918	0.00043155	0.00011817	1211.5	3.3984e-06	4.0095e-06	1279.8	257.67	4.4991e-06	1.9319e-06	319.16	88.481	69.312	20.165	4.5572e-06	28.417	0.00026688	0.00020444	5.5085e-05	1197.8	2.4207e-06	2.0322e-06	1266.2	256.2	2.1402e-06	1.9456e-06	317.86	88.403	69.698	20.439	2.2747e-06	28.782	107.717	-90.418	-83.246	-160.930	-65.646	-31.018	-161.162	-154.174	-59.254	-16.785	-154.330	-148.290	-147.866	-140.377	-17.651	-141.133	-8191	255	
6816.440	1	1	0	0	0.15201	0.13127	0.15808	0.22361	0.16392	0.089534	0.030475	0.070451	0.1971	0.11823	0.075938	0.28021	0.022948	0.21387	0.22782	0.13454	-4.9104	-4.8063	-5.1625	-5.1771	-4.4958	-5.0583	-5.2312	-4.8438	-5.125	-4.4875	-5.1292	-5.05	-4.4271	-5.1333	-5.0021	-4.7438	-105.451	-163.173	-83.950	133.736	67.004	-41.212	104.097	178.919	-56.596	-86.993	-126.795	-49.916	184.966	-67.524	116.337	87.723	0.00066621	0.00028208	0.00014191	1215.1	4.955e-06	2.584e-06	1276.3	258.15	8.1022e-06	3.1616e-06	317.51	87.781	69.642	20.162	3.3916e-06	28.232	0.00025813	0.00019796	5.4725e-05	1197.2	2.6016e-06	2.1894e-06	1262.9	256.4	2.4059e-06	2.1183e-06	317.1	88.041	69.675	20.406	2.1443e-06	28.658	110.165	-49.328	-93.060	-161.056	-88.088	-4.873	-161.152	-154.321	-85.570	-11.886	-154.240	-148.598	-147.619	-140.850	-42.195	-140.971	-8191	255	
6816.536	1	1	0	0	0.13265	0.11198	0.40774	0.10309	0.12331	0.057927	0.18312	0.12704	0.23913	0.047127	0.081952	0.13325	0.029849	0.068914	0.15402	0.29696	-4.9521	-4.6708	-4.6562	-5.1604	-4.7063	-5.1562	-5.1625	-4.5375	-5.1125	-4.6188	-4.6937	-5.3833	-4.5687	-5.0521	-4.7458	-4.4104	186.611	134.392	19.835	108.170	174.090	-30.032	33.428	-67.379	163.200	-151.331	150.321	-114.724	-105.393	114.881	139.901	-94.102	0.00065505	0.00034165	0.00011173	1207.6	4.5189e-06	4.9166e-06	1273.7	257.95	5.9837e-06	3.2465e-06	316.19	88.048	70.022	20.024	3.505e-06	28.115	0.00025799	0.00020233	5.7277e-05	1192.1	2.4959e-06	2.1257e-06	1262.6	255.9	2.2474e-06	2.1608e-06	316.03	88.013	69.855	20.332	2.1681e-06	28.672	112.398	-100.537	-86.145	-160.844	-36.835	-40.905	-161.241	-154.277	-63.451	7.133	-154.143	-148.416	-147.642	-140.653	2.789	-140.691	-8191	255	
6816.657	1	1	0	0	0.093817	0.078157	0.25351	0.14995	0.15433	0.15597	0.14434	0.18249	0.13697	0.12044	0.068224	0.13007	0.11929	0.27826	0.19154	0.23204	-4.9	-4.7792	-4.7875	-5.3604	-4.5917	-4.8833	-5.1896	-4.6167	-5.0625	-4.85	-4.7375	-5.2771	-4.8167	-4.8854	-4.8833	-4.5667	-148.193	-13.551	154.137	-147.194	53.314	-16.920	-132.315	155.855	19.896	41.395	-102.431	-147.607	-118.771	135.163	-14.650	132.858	0.00064347	0.00031	0.00010615	1200.9	3.2914e-06	3.2597e-06	1276.4	256.76	7.4498e-06	3.5535e-06	316.57	88.254	69.305	19.963	1.5746e-06	27.944	0.0002683	0.00019265	5.6764e-05	1189.2	2.503e-06	2.0759e-06	1259.6	255.31	2.346e-06	2.0758e-06	315.63	88.163	69.344	20.309	2.0114e-06	28.539	112.217	-96.201	-93.289	-161.157	-74.603	-10.847	-161.133	-154.445	-73.568	-20.291	-154.076	-148.557	-148.176	-140.403	-38.732	-141.053	-8191	255	
6816.728	1	1	0	0	0.045915	0.13039	0.25413	0.17554	0.12062	0.060319	0.20708	0.20351	0.24281	0.1037	0.028094	0.060081	0.15029	0.15685	0.14499	0.10188	-4.8313	-4.9479	-4.5729	-5.2792	-4.6625	-4.9729	-5.2375	-4.4896	-5.2125	-5.0521	-4.6438	-5.3104	-4.6542	-4.5833	-5.275	-4.6646	-129.040	-57.527	95.588	-140.616	39.834	-94.379	135.214	116.797	185.579	-155.344	93.050	33.904	-34.725	122.127	-139.328	-158.527	0.00073162	0.00045161	3.6944e-05	1204.9	5.201e-06	2.311e-06	1270.3	257.05	8.5581e-06	3.4285e-06	316.16	87.716	69.217	20.023	2.6593e-06	28.02	0.00026712	0.0001846	5.2283e-05	1188.7	2.326e-06	1.9145e-06	1256.3	255.17	2.193e-06	1.9258e-06	315.84	87.993	69.143	20.287	1.8404e-06	28.623	109.897	-86.759	-93.545	-160.933	-64.062	-23.100	-161.076	-154.252	-63.733	10.264	-154.147	-148.665	-148.128	-140.852	-20.550	-141.216	-8191	255	
6816.824	1	1	0	0	0.17551	0.13175	0.15938	0.013667	0.12957	0.19301	0.348	0.20458	0.20672	0.19827	0.27071	0.039463	0.20306	0.21117	0.10315	0.17591	-4.7458	-4.7958	-4.5646	-5.4583	-4.775	-4.7354	-5.2104	-4.7479	-5.0271	-5.1292	-4.6958	-5.2854	-4.8812	-4.6729	-5.2	-4.8542	13.900	7.882	84.602	-16.324	5.501	116.286	170.053	163.675	-97.747	129.361	31.226	138.523	-142.269	41.819	-99.732	69.750	0.0006466	0.00031347	0.00014714	1201.6	3.899e-06	3.9157e-06	1268.5	255.92	6.358e-06	2.2369e-06	316.7	87.8	69.522	20.111	3.9676e-06	28.248	0.00024928	0.00018679	5.6895e-05	1188.2	2.3342e-06	2.0837e-06	1257.9	254.72	2.22e-06	1.8919e-06	315.39	87.891	69.207	20.267	2.05e-06	28.614	110.478	-63.196	-89.789	-161.083	-61.082	-43.851	-161.268	-154.164	-67.388	-29.305	-154.373	-147.954	-148.130	-140.618	-51.809	-140.839	-8191	255	
6816.945	1	1	0	0	0.18846	0.17986	0.26091	0.31721	0.062922	0.18345	0.20666	0.32724	0.10487	0.15306	0.11018	0.17086	0.30758	0.064668	0.10544	0.16383	-4.6854	-4.8583	-4.5771	-5.3521	-4.7958	-4.6458	-5.3708	-4.8854	-4.9667	-4.9688	-4.5271	-5.0833	-4.9563	-4.6333	-5.2167	-4.7521	-148.548	77.709	-131.388	125.437	-96.661	3.207	132.794	33.528	-131.459	174.253	-164.586	7.745	66.462	138.549	-136.824	116.602	0.00072035	0.00031797	9.8971e-05	1204.7	3.6315e-06	3.7739e-06	1270.3	256.45	7.355e-06	3.3604e-06	315.99	87.701	69.373	20.182	4.9053e-06	28.198	0.00026155	0.00019144	5.3057e-05	1190.1	2.3653e-06	2.0924e-06	1258.3	254.98	2.222e-06	2.0306e-06	315.09	87.944	69.63	20.372	1.9721e-06	28.668	110.082	-98.135	-80.007	-160.977	-85.021	-11.332	-161.037	-154.253	-70.209	-30.129	-154.403	-148.363	-148.169	-140.501	-17.554	-141.156	-8191	255	
6817.041	1	1	0	0	0.2329	0.10592	0.18007	0.27602	0.1716	0.030398	0.27185	0.38005	0.15429	0.070999	0.10911	0.19715	0.2522	0.11606	0.21092	0.13107	-4.3729	-4.9625	-4.4812	-5.0896	-4.8958	-4.6813	-5.325	-4.8896	-4.8958	-5.3125	-4.8292	-5.1458	-4.9	-4.575	-5.1229	-4.875	-5.309	-25.314	165.744	-169.262	-52.394	-146.070	186.595	131.985	157.691	141.448	118.532	107.448	137.380	139.098	120.988	145.329	0.00073037	0.00030733	9.9136e-05	1204.2	4.6709e-06	4.2823e-06	1272.8	256.29	8.8383e-06	2.7481e-06	315.75	88.407	69.659	20.215	2.789e-06	28.185	0.00026912	0.00018562	5.0975e-05	1190.5	2.3833e-06	2.2063e-06	1259.8	254.54	2.2858e-06	2.0049e-06	315.55	88.127	69.383	20.367	2.0668e-06	28.667	112.359	-83.686	-73.339	-161.040	-90.176	-30.315	-161.269	-154.159	-71.164	-10.677	-154.402	-148.568	-147.883	-140.688	-53.520	-140.896	-8191	255	
6817.137	1	1	0	0	0.13083	0.056123	0.1962	0.37765	0.064684	0.26895	0.16808	0.18977	0.27269	0.090047	0.14734	0.16846	0.11612	0.27902	0.068989	0.12833	-4.6521	-5.2271	-4.4042	-4.8667	-5.0333	-4.4396	-5.2396	-5.0083	-4.8208	-5.2896	-4.5958	-5.05	-5.3104	-4.6917	-5.0292	-4.9958	-170.056	183.115	-54.242	-171.041	-25.807	-135.196	-81.695	166.747	143.861	161.466	163.264	68.418	-42.234	110.629	-46.610	127.843	0.00065737	0.00033003	0.00012547	1206.8	2.6124e-06	2.8247e-06	1269.2	257.49	6.8748e-06	3.2654e-06	314.52	87.799	69.528	20.137	2.6414e-06	28.147	0.00026032	0.00019249	5.5085e-05	1190.8	2.3926e-06	2.1946e-06	1258.2	255.49	2.4678e-06	2.0049e-06	315.47	88.049	69.271	20.353	2.196e-06	28.674	109.237	-82.134	-96.769	-160.942	-54.824	2.975	-161.368	-154.286	-71.486	-40.599	-154.589	-148.426	-147.848	-140.746	-27.155	-141.163	-8191	255	
6817.256	1	1	0	0	0.0552	0.052733	0.046159	0.06415	0.14861	0.067285	0.063886	0.14901	0.092099	0.057632	0.25036	0.2699	0.028061	0.21189	0.15891	0.15148	-4.4021	-5.1583	-4.5563	-5.125	-5.0542	-4.5625	-5.2583	-4.9458	-4.7667	-5.5021	-4.7458	-4.7979	-5.0542	-4.6104	-5.0375	-5.1125	-0.442	-107.651	88.061	125.988	8.992	-64.529	-2.298	114.635	-9.626	-104.962	158.237	180.277	-42.412	-77.537	-28.731	9.925	0.00065545	0.00025248	0.00013925	1201.5	3.6771e-06	2.3114e-06	1262.6	255.85	7.2224e-06	1.5282e-06	314.25	87.102	69.048	19.955	3.7049e-06	27.793	0.00027584	0.00018593	5.4976e-05	1187.2	2.3813e-06	2.1742e-06	1253.6	253.76	2.4001e-06	1.9769e-06	314.27	87.103	68.792	20.142	1.9987e-06	28.275	111.015	-106.699	-79.387	-160.897	-55.793	-25.632	-161.043	-154.105	-72.975	11.324	-154.212	-148.156	-147.954	-140.545	-57.774	-141.071	-8191	255	
6817.352	1	1	0	0	0.14096	0.13532	0.11634	0.22019	0.091192	0.15804	0.36364	0.12702	0.1214	0.15748	0.2287	0.18954	0.3061	0.12515	0.1112	0.32081	-4.2583	-5.1771	-4.8583	-4.9271	-5.2167	-4.7438	-5.075	-5.1229	-4.6438	-5.2917	-5.0417	-4.8354	-5.2604	-4.5792	-4.8375	-4.8479	26.703	112.761	-135.966	153.783	-150.991	-41.146	108.958	115.659	-46.052	-62.970	-77.267	47.742	178.825	18.328	-86.965	94.899	0.00061251	0.00030209	7.7914e-05	1195.6	4.2207e-06	2.8495e-06	1256	252.92	5.913e-06	2.4062e-06	311.5	86.374	67.828	19.621	3.8854e-06	27.638	0.00025704	0.00017434	5.2512e-05	1180.5	2.3076e-06	1.9768e-06	1246.3	251.1	2.3089e-06	2.0109e-06	311.13	86.405	67.996	19.832	2.0848e-06	28.011	111.010	-64.727	-91.488	-161.081	-46.165	-19.768	-161.319	-154.138	-73.761	-11.610	-154.248	-148.245	-147.819	-141.079	-48.045	-140.736	-8191	255	
6817.424	1	1	0	0	0.1703	0.072229	0.14487	0.24049	0.25396	0.13966	0.087675	0.22022	0.11985	0.28616	0.12141	0.1317	0.068264	0.21667	0.074261	0.34517	-4.2188	-5.0771	-4.9354	-4.9062	-5.2167	-4.5292	-5.1979	-5.2812	-4.6292	-5.1438	-4.7854	-4.6458	-5.2812	-4.75	-4.9417	-5.1687	-89.986	103.203	157.776	158.068	9.733	18.838	13.365	2.126	40.352	185.413	170.846	-72.291	-45.235	-158.934	20.602	150.815	0.00059988	0.00030356	9.4403e-05	1178	3.9511e-06	3.2763e-06	1244	248.64	6.5786e-06	2.8477e-06	306.6	85.254	66.84	19.193	3.4366e-06	27.026	0.00026024	0.00017824	4.9906e-05	1167	2.1993e-06	1.9422e-06	1233.5	247.06	1.9883e-06	1.6664e-06	305.98	85.145	66.763	19.462	1.808e-06	27.537	109.806	-97.866	-63.084	-160.944	-56.564	-5.510	-161.116	-154.308	-63.665	-28.961	-154.342	-148.374	-148.007	-140.355	-39.117	-140.700	-8191	255	
6817.545	1	1	0	0	0.16126	0.14511	0.13682	0.17804	0.073696	0.097617	0.087884	0.19078	0.39676	0.11002	0.17489	0.12573	0.14134	0.14337	0.067211	0.1333	-4.2021	-4.8833	-4.9542	-4.4958	-5.1375	-4.9042	-5.0021	-5.225	-4.5417	-4.7479	-4.8771	-4.4917	-5.2333	-4.8396	-4.9375	-5.2479	112.239	76.696	-165.482	132.038	-12.399	26.109	123.683	143.228	106.008	-100.942	113.633	120.904	144.975	-145.035	-139.675	81.032	0.00061825	0.00027115	0.00012092	1158.8	3.3583e-06	2.0237e-06	1219.2	243.23	6.6707e-06	2.5892e-06	302.89	83.958	65.994	19.127	2.9969e-06	26.919	0.00023999	0.00014975	4.3833e-05	1145	1.8055e-06	1.614e-06	1208.9	242.14	1.937e-06	1.4327e-06	301.27	83.974	65.957	19.279	1.6042e-06	27.349	109.211	-97.972	-58.384	-160.752	-63.224	5.709	-161.034	-153.997	-60.059	-30.542	-154.133	-147.712	-147.774	-140.128	-33.293	-140.055	-8191	255	
6817.641	1	1	0	0	0.18957	0.11554	0.0066458	0.34914	0.1138	0.17062	0.063753	0.16332	0.12192	0.34669	0.13043	0.095198	0.19506	0.20964	0.077242	0.17171	-4.4021	-5.1042	-5.0396	-4.8354	-5.1167	-4.6625	-4.8604	-5.35	-4.7417	-4.8833	-5.1167	-4.4104	-5.0229	-4.7979	-4.5792	-5.0583	133.172	-58.400	122.226	166.720	-83.571	127.107	-158.661	-159.406	-38.032	44.638	-161.922	97.643	178.556	90.639	144.729	-48.934	0.00062929	0.00028635	0.00010433	1146.8	5.3724e-06	4.7612e-06	1206.5	240.6	6.3268e-06	2.3736e-06	300.02	83.416	65.569	18.872	4.0783e-06	26.73	0.00022405	0.00013233	3.6026e-05	1132.3	1.7314e-06	1.4391e-06	1195.7	239.6	1.8815e-06	1.3777e-06	299.1	83.453	65.519	19.155	1.6813e-06	27.188	110.616	-72.075	-83.030	-160.667	-70.490	-38.888	-161.272	-154.248	-77.828	-20.325	-154.205	-148.010	-147.934	-140.275	-48.279	-141.000	-8191	255	
6817.737	1	1	0	0	0.084729	0.22352	0.046766	0.20936	0.14323	0.081524	0.12217	0.13008	0.27677	0.19336	0.21701	0.091676	0.035528	0.18686	0.075364	0.099023	-4.0896	-4.8271	-5.1542	-4.5729	-5.0771	-4.7688	-4.7708	-5.4125	-4.6417	-4.7688	-5.0729	-4.3521	-5.1708	-5.1354	-4.6521	-5.2521	-16.172	-116.703	65.351	131.165	59.607	-167.689	137.935	98.412	-146.016	-25.974	156.590	-170.134	161.098	181.184	-8.280	163.708	0.00061224	0.00044544	7.9757e-05	1137.5	3.0852e-06	2.9727e-06	1206.9	241.74	7.8259e-06	2.8033e-06	300.02	83.764	65.377	19.086	2.9946e-06	26.864	0.00022362	0.0001449	3.7367e-05	1126.7	1.8254e-06	1.5581e-06	1194.7	239.69	1.8623e-06	1.3704e-06	298.79	83.749	65.473	19.182	1.6374e-06	27.232	112.422	-95.670	-79.332	-160.919	-71.206	-23.468	-160.920	-153.874	-68.705	-21.280	-154.090	-148.071	-147.541	-139.852	-29.461	-140.594	-8191	255	
6817.833	1	1	0	0	0.25299	0.22481	0.11211	0.1431	0.15438	0.19118	0.23793	0.13451	0.14021	0.14871	0.13165	0.047727	0.056243	0.13643	0.0042924	0.068347	-4.35	-4.7771	-5.1104	-4.7479	-5.1167	-5.0208	-4.7458	-5.2208	-4.7646	-4.7021	-5.1667	-4.7229	-5	-5.0437	-4.5771	-5.2604	31.681	36.859	-155.522	91.260	-75.050	44.735	129.290	181.764	138.174	137.927	130.757	73.679	-56.047	116.645	-5.271	-87.971	0.000664	0.00021956	0.00011791	1142.9	4.0908e-06	3.3798e-06	1209.6	240.89	8.4117e-06	3.7671e-06	299.59	83.847	65.644	19.019	3.232e-06	26.817	0.00022263	0.00014088	3.4968e-05	1128.4	1.8702e-06	1.3789e-06	1196.1	239.03	1.7343e-06	1.4451e-06	298.86	83.876	65.639	19.166	1.6145e-06	27.343	109.456	-89.559	-66.767	-160.775	-76.101	-15.662	-160.883	-153.864	-83.136	-32.909	-154.383	-148.213	-147.860	-140.173	-26.313	-141.103	-8191	255	
6817.952	1	1	0	0	0.096257	0.16928	0.054008	0.38011	0.063376	0.059451	0.13523	0.13815	0.18098	0.12479	0.10668	0.26492	0.2885	0.085914	0.044522	0.13472	-4.5625	-4.7208	-4.9104	-4.8187	-4.8958	-5.0563	-4.6979	-5.0417	-4.7458	-4.65	-5.2167	-4.8896	-4.7875	-5.0188	-4.6771	-5.2188	-95.718	-24.663	87.126	115.899	116.000	-3.022	143.417	121.514	-19.915	68.725	-26.670	-87.920	-159.526	49.147	-68.207	-26.765	0.00062608	0.00029438	8.9983e-05	1143.3	2.9634e-06	4.0447e-06	1210.2	242.28	4.6639e-06	3.213e-06	299.34	84.478	66.742	19.12	2.2678e-06	26.912	0.00021845	0.00014553	3.7519e-05	1131.7	1.8207e-06	1.3945e-06	1198.9	240.2	1.8184e-06	1.6152e-06	299.21	84.123	66.088	19.269	1.7711e-06	27.403	106.769	-63.583	-63.064	-160.774	-67.102	-34.096	-160.856	-153.980	-64.120	-8.434	-154.288	-148.389	-147.651	-140.530	-27.875	-140.907	-8191	255	
6818.025	1	1	0	0	0.13567	0.16626	0.14928	0.19893	0.17895	0.05712	0.086295	0.13969	0.095135	0.16423	0.16692	0.02732	0.26855	0.21383	0.087213	0.29653	-4.5646	-4.575	-5.2229	-4.9396	-4.7937	-5.2063	-4.6687	-5.2375	-5.0208	-4.7	-5.3333	-4.7875	-4.8417	-5.3542	-4.55	-5.1458	134.016	121.157	-25.937	166.397	169.819	-11.708	160.530	-163.393	119.730	-147.749	129.473	-70.431	179.679	-150.513	72.502	162.827	0.0006446	0.00013235	9.8334e-05	1149.7	3.9007e-06	3.5131e-06	1207.8	242.64	6.6094e-06	2.2531e-06	300.18	83.816	66.524	19.179	1.6511e-06	27.015	0.00022291	0.00015053	3.427e-05	1134.2	1.8398e-06	1.4564e-06	1199.4	241.03	1.8509e-06	1.4919e-06	300.32	84.27	66.091	19.341	1.6075e-06	27.415	115.808	-71.395	-64.883	-160.633	-68.043	-9.841	-161.083	-154.265	-66.038	-26.081	-154.280	-148.110	-147.543	-140.317	-40.385	-140.697	-8191	255	
6818.122	1	1	0	0	0.13041	0.095039	0.098727	0.19556	0.087091	0.17499	0.43079	0.21376	0.10959	0.28875	0.07735	0.11693	0.13906	0.017594	0.12423	0.21752	-4.5792	-4.7167	-5.2083	-5.0542	-4.7875	-5.3187	-4.5667	-4.9187	-4.9354	-4.6062	-5.2708	-4.9083	-4.4771	-5.1125	-4.7083	-5.125	-160.000	-124.777	-59.846	100.740	-137.648	167.512	162.238	125.395	143.897	179.543	186.008	150.097	185.463	111.991	-74.442	-120.958	0.0006436	0.00019102	8.8138e-05	1143.4	4.6914e-06	2.5446e-06	1212.6	243.38	5.1772e-06	3.0534e-06	300.41	83.788	66.063	19.132	2.9469e-06	26.952	0.00021968	0.00013663	3.7367e-05	1132.8	1.9607e-06	1.388e-06	1200.8	241.62	1.7178e-06	1.5169e-06	300.54	84.208	65.962	19.33	1.7248e-06	27.448	110.372	-76.610	-88.398	-160.775	-80.148	-30.890	-161.007	-153.830	-65.296	-18.902	-154.025	-148.009	-147.319	-140.460	-66.539	-140.410	-8191	255	
6818.218	1	1	0	0	0.10824	0.26916	0.065307	0.23649	0.15131	0.14568	0.28711	0.14207	0.14306	0.19286	0.047711	0.14114	0.0739	0.062672	0.11043	0.21278	-4.9042	-4.4042	-5.1833	-4.9313	-4.6937	-4.9292	-4.6208	-4.9833	-5.1167	-4.6771	-5.3479	-4.85	-4.475	-5.1521	-4.7104	-4.8479	130.749	-51.874	-139.397	118.291	-45.604	167.148	113.343	152.078	-12.058	-18.782	-124.770	97.190	50.478	15.678	-76.570	137.265	0.00063685	0.00023116	0.00010094	1147.7	2.4971e-06	2.2336e-06	1218.3	242.65	8.1374e-06	2.7198e-06	301.33	84.131	66.294	18.978	4.5464e-06	27.086	0.00022056	0.00015505	3.4761e-05	1132.8	1.9045e-06	1.3503e-06	1202.4	241.24	1.7261e-06	1.5388e-06	300.38	84.178	66.103	19.312	1.6161e-06	27.495	106.223	-88.659	-82.095	-160.812	-65.229	-15.988	-161.078	-154.081	-77.520	2.853	-154.087	-148.179	-147.342	-139.950	-24.110	-140.704	-8191	255	
6818.337	1	1	0	0	0.092411	0.20266	0.047476	0.35089	0.10928	0.04534	0.22825	0.055495	0.12667	0.058455	0.043321	0.1105	0.18979	0.12164	0.16499	0.27851	-4.8562	-4.3063	-4.8646	-5.2167	-4.6208	-5.3063	-4.7729	-4.8958	-5.2042	-4.5521	-5.0979	-5.0375	-4.7417	-5.125	-4.7937	-4.7896	-70.344	-145.540	142.123	-156.662	-123.314	-91.661	112.559	33.542	77.863	-107.220	-84.001	33.913	-38.595	67.948	-163.348	-22.040	0.00063894	0.0003788	4.4408e-05	1143.3	4.0461e-06	2.8531e-06	1211.5	243.14	5.6907e-06	3.259e-06	300.76	83.72	66.57	19.064	3.9602e-06	26.853	0.00021711	0.00014811	3.8752e-05	1130.8	2e-06	1.4374e-06	1201.3	241.08	1.6971e-06	1.6548e-06	300.21	84.052	66.307	19.346	1.5718e-06	27.429	110.217	-86.123	-82.614	-160.766	-48.713	-19.498	-160.826	-154.046	-59.963	8.565	-154.325	-148.297	-147.482	-140.363	-38.222	-140.865	-8191	255	
6818.433	1	1	0	0	0.046509	0.28193	0.11397	0.14157	0.25212	0.12775	0.085268	0.14914	0.17334	0.22898	0.16424	0.1184	0.09072	0.065996	0.26821	0.14884	-5.1	-4.5813	-4.7917	-5.2104	-4.6646	-5.2125	-4.9542	-4.7438	-5.2271	-4.5646	-4.7458	-5.2583	-4.65	-4.9708	-4.6813	-4.8	-78.256	95.538	-87.078	-127.946	-131.083	5.846	86.822	85.218	53.277	149.842	67.924	159.675	-160.710	-118.529	-19.732	102.978	0.00062887	0.00020996	9.3014e-05	1146.9	2.687e-06	4.6399e-06	1213	242.78	5.7664e-06	2.9664e-06	301.08	83.978	66.17	19.197	2.5833e-06	26.867	0.00021706	0.00014217	3.8097e-05	1131.4	1.9092e-06	1.4729e-06	1199.7	241.42	1.7437e-06	1.5474e-06	300.31	84.166	65.983	19.345	1.5374e-06	27.458	105.938	-124.686	-58.169	-160.904	-66.585	-21.836	-161.056	-153.885	-80.436	17.609	-154.116	-148.297	-147.634	-140.173	-25.638	-140.582	-8191	255	
6818.529	1	1	0	0	0.21798	0.11449	0.1694	0.054193	0.1594	0.070625	0.12797	0.12844	0.21341	0.22949	0.099275	0.084229	0.14948	0.15961	0.15055	0.16247	-4.6479	-4.5437	-5.0083	-5.0021	-4.5	-5.1083	-4.9792	-4.6375	-5.1021	-4.7833	-4.9271	-4.9625	-4.6729	-5.1125	-4.8646	-4.4896	134.559	20.569	-127.369	181.267	-80.720	-149.966	69.168	153.254	119.040	160.779	145.496	180.702	151.761	159.960	-145.686	-29.360	0.00065994	0.00024397	0.00013924	1143.5	3.9744e-06	3.3434e-06	1206	243.65	7.2165e-06	3.4592e-06	300.38	84.33	66.007	19.253	5.07e-06	27.167	0.00022354	0.00014861	3.7083e-05	1129.5	1.9455e-06	1.4105e-06	1197.3	241.12	1.6419e-06	1.4584e-06	300	84.202	65.938	19.397	1.5157e-06	27.506	109.544	-99.241	-87.684	-160.804	-54.829	-12.165	-160.988	-154.043	-64.217	-30.251	-154.069	-148.233	-147.543	-140.163	-12.233	-140.699	-8191	255	
6818.625	1	1	0	0	0.28079	0.34567	0.05109	0.17794	0.077763	0.15415	0.18132	0.19303	0.065975	0.16876	0.093303	0.19755	0.17457	0.077494	0.08812	0.12718	-4.7125	-4.6167	-4.8625	-5.2646	-4.6083	-4.9958	-5.2083	-4.7167	-5.2771	-4.8	-4.8375	-5.3042	-4.6875	-4.875	-5.0667	-4.7917	-171.289	-58.671	-98.797	124.103	19.341	-46.358	98.853	141.618	-129.901	-121.527	-157.836	-161.510	147.775	-121.150	150.650	-99.923	0.00067401	0.00040956	9.3512e-05	1139.6	3.7473e-06	3.2602e-06	1209	244.45	8.5855e-06	2.6664e-06	302.74	84.412	66.576	19.246	3.6879e-06	27.016	0.00021788	0.00015181	3.7389e-05	1128.9	1.8507e-06	1.4062e-06	1197.6	241.44	1.7515e-06	1.4438e-06	301.01	84.384	66.224	19.366	1.4447e-06	27.521	114.294	-100.364	-67.496	-161.024	-74.882	-21.644	-161.078	-154.127	-76.593	-26.632	-154.162	-148.318	-147.789	-140.359	-33.513	-140.742	-8191	255	
6818.721	1	1	0	0	0.063902	0.13339	0.034662	0.24771	0.10529	0.092606	0.18203	0.085786	0.085278	0.026743	0.077578	0.079593	0.062907	0.13121	0.15683	0.24429	-4.7063	-4.7333	-4.6667	-5.5396	-4.5687	-4.9146	-5.2354	-4.4521	-5.1042	-5.0333	-4.6042	-5.1396	-4.7688	-4.8562	-5.0083	-4.6125	-113.418	165.367	118.380	125.279	172.268	-157.447	99.714	72.555	-22.872	-101.474	-42.206	-153.591	-101.405	9.034	-166.225	-33.473	0.00067702	0.00024801	0.00013321	1142.4	4.2132e-06	3.5743e-06	1210	244.48	7.4374e-06	3.0737e-06	301.66	84.453	65.994	19.106	3.4451e-06	27.047	0.00022558	0.00013249	3.7792e-05	1129.8	1.9119e-06	1.4737e-06	1197.9	241.77	1.7402e-06	1.44e-06	300.82	84.433	66.131	19.345	1.5517e-06	27.508	111.517	-96.812	-83.926	-160.760	-53.645	-27.158	-161.082	-153.983	-73.593	-19.943	-154.247	-147.795	-147.909	-140.196	-38.026	-140.910	-8191	255	
6818.817	1	1	0	0	0.12378	0.10108	0.25516	0.22549	0.19237	0.19625	0.20487	0.25172	0.092352	0.06022	0.20033	0.10255	0.18534	0.17036	0.17501	0.32074	-4.8187	-4.9271	-4.3812	-5.475	-4.7021	-4.6979	-5.3354	-4.5479	-4.8542	-4.9563	-4.6937	-5.325	-4.8104	-4.7521	-5.1146	-4.7042	9.212	-148.154	32.802	185.309	30.501	119.270	52.431	154.755	-50.055	-63.048	165.258	38.157	153.031	84.271	157.817	112.326	0.00063101	0.00026117	8.7916e-05	1145	6.1901e-06	2.9844e-06	1211.2	243.24	8.8072e-06	2.3699e-06	301.35	84.369	66.246	19.135	3.8706e-06	26.972	0.00021482	0.00014498	3.9755e-05	1130.9	1.9529e-06	1.5629e-06	1198.4	241.86	1.804e-06	1.4653e-06	301.1	84.405	66.162	19.325	1.4779e-06	27.472	107.467	-89.346	-86.093	-160.950	-61.160	-53.822	-160.991	-153.931	-76.360	-15.245	-154.269	-148.266	-147.775	-140.059	-33.171	-140.668	-8191	255	
6818.938	1	1	0	0	0.12176	0.21991	0.1109	0.34904	0.14412	0.10442	0.14782	0.04952	0.22158	0.02019	0.14387	0.16089	0.18847	0.052597	0.14368	0.04029	-4.6062	-4.9708	-4.6937	-5.3417	-4.8146	-4.6396	-5.3938	-4.6979	-4.8708	-5.1292	-4.5646	-5.2063	-4.85	-4.6083	-5.1875	-4.625	147.501	-26.670	-63.860	120.623	-170.439	48.448	172.217	102.170	130.718	75.210	185.555	-70.294	62.439	109.963	-149.007	-124.310	0.00068184	0.00028755	7.1659e-05	1141.3	5.685e-06	1.6781e-06	1212.3	243.54	8.6429e-06	3.4909e-06	303.21	84.909	66.6	19.116	3.9522e-06	27.119	0.00023146	0.00013721	3.6876e-05	1129.2	1.8862e-06	1.6322e-06	1198.7	241.76	1.8497e-06	1.4778e-06	301.7	84.458	66.384	19.368	1.5985e-06	27.574	111.796	-59.510	-75.988	-160.625	-47.454	-25.299	-160.877	-153.978	-82.705	-0.179	-154.204	-148.065	-147.624	-140.518	-33.184	-140.808	-8191	255	
6819.032	1	1	0	0	0.22066	0.14011	0.22574	0.25861	0.28727	0.16327	0.16602	0.20241	0.26779	0.30729	0.15947	0.081055	0.38558	0.18002	0.10895	0.13825	-4.6	-5.1146	-4.3854	-5.3292	-4.9313	-4.6771	-5.3646	-4.9792	-4.9062	-5.1687	-4.6958	-4.9979	-4.7521	-4.7333	-5.1896	-4.775	101.690	-161.945	104.235	124.003	-135.177	132.035	34.518	81.804	111.654	-70.761	174.738	153.413	112.939	25.616	-111.139	-55.877	0.00062552	0.00042355	0.00010041	1146.3	3.5206e-06	3.1462e-06	1216.7	243.36	6.4968e-06	1.7709e-06	303.29	84.666	66.08	19.085	3.0262e-06	26.948	0.00022384	0.00013023	4.2121e-05	1133.6	1.8831e-06	1.5789e-06	1202.7	242.2	1.7789e-06	1.3691e-06	302.28	84.518	66.264	19.38	1.4886e-06	27.455	112.289	-78.445	-57.202	-160.762	-54.277	-16.921	-160.948	-153.988	-77.515	-35.112	-154.345	-148.447	-147.761	-140.232	-52.384	-140.653	-8191	255	
6819.128	1	1	0	0	0.041161	0.085226	0.047371	0.21678	0.060831	0.26908	0.13963	0.14089	0.15423	0.073726	0.25969	0.083307	0.083747	0.039465	0.30579	0.22896	-4.4062	-5.1917	-4.5479	-5.1188	-4.7792	-4.5625	-5.5042	-4.8063	-4.6708	-5.3	-4.9083	-4.9896	-5.0979	-4.5479	-5.1312	-4.8729	109.895	-128.005	-84.179	127.808	182.674	-92.738	55.376	94.204	-114.229	-11.762	139.628	182.132	182.677	-139.564	71.293	183.002	0.00062494	0.00032958	7.8252e-05	1144	2.8466e-06	2.6742e-06	1209	243.52	6.4732e-06	4.4672e-06	302.81	84.435	66.225	19.084	4.0086e-06	27.058	0.00022671	0.00013261	4.2448e-05	1131.6	1.8375e-06	1.5876e-06	1197.8	242.53	1.9116e-06	1.4584e-06	301.79	84.37	66.155	19.373	1.5152e-06	27.433	114.764	-75.772	-92.685	-160.827	-57.843	-4.953	-160.916	-153.788	-71.328	-41.131	-154.124	-148.169	-148.097	-140.289	-25.910	-140.918	-8191	255	
6819.225	1	1	0	0	0.31435	0.079464	0.22656	0.28709	0.14446	0.040216	0.11135	0.12398	0.27615	0.098467	0.33668	0.029927	0.080576	0.10538	0.17799	0.1093	-4.4417	-5.0042	-4.6208	-5.1062	-5.1875	-4.6979	-5.2125	-4.9688	-4.6042	-5.3646	-4.7208	-4.9437	-5.2208	-4.6271	-5.2229	-5.1104	-75.600	151.683	-134.109	155.690	142.939	20.409	100.966	143.745	77.052	90.634	103.568	-104.900	172.113	56.745	-28.388	186.371	0.00061863	0.00035763	7.7342e-05	1141.8	4.089e-06	2.2333e-06	1208.3	243.03	5.4717e-06	1.9394e-06	302.7	84.511	66.257	19.176	2.4456e-06	26.937	0.00022665	0.00013378	4.0409e-05	1127.9	1.7638e-06	1.5971e-06	1197.9	241.87	1.7131e-06	1.4456e-06	301.45	84.395	66.16	19.387	1.605e-06	27.468	113.663	-91.998	-84.406	-160.854	-61.251	-8.813	-160.929	-153.882	-76.873	7.189	-154.082	-148.150	-148.113	-140.744	-31.397	-140.961	-8191	255	
6819.321	1	1	0	0	0.21527	0.15658	0.19948	0.12986	0.065468	0.067043	0.058353	0.20308	0.15668	0.36026	0.19264	0.22604	0.12661	0.071079	0.16001	0.21641	-4.4125	-5.2937	-4.7	-4.8292	-5.0771	-4.6708	-5.2333	-5.1354	-4.5167	-5.2979	-4.7958	-4.8	-5.1813	-4.7312	-5.0083	-4.9021	-10.241	-167.004	-87.310	-162.567	20.247	136.231	171.601	42.192	88.715	-74.013	160.405	-155.775	34.267	177.112	41.184	130.130	0.00068072	0.0003867	9.373e-05	1145.1	3.8877e-06	3.1864e-06	1211.5	243.75	6.4052e-06	2.1071e-06	300.92	84.793	66.388	19.247	2.6628e-06	27.017	0.00023791	0.00014061	4.1935e-05	1129.8	1.8827e-06	1.5746e-06	1197.5	242.43	1.8873e-06	1.3579e-06	301.72	84.621	66.188	19.416	1.5132e-06	27.535	109.124	-85.794	-78.172	-160.672	-56.903	-22.925	-160.876	-153.895	-66.714	-27.469	-154.256	-148.530	-147.548	-140.147	-10.777	-140.995	-8191	255	
6819.417	1	1	0	0	0.097538	0.32058	0.20192	0.1214	0.036901	0.11711	0.2405	0.038393	0.29886	0.22136	0.29167	0.13281	0.059234	0.053745	0.10547	0.11597	-4.2396	-5.15	-4.6833	-4.6417	-5.1875	-4.7292	-5.0104	-4.9875	-4.575	-5.2438	-4.8396	-4.7021	-5.1125	-4.7063	-4.9563	-5.0417	-128.124	-10.356	159.964	156.534	52.731	-120.145	58.284	138.117	-99.143	141.090	172.549	-111.605	-153.747	-88.555	52.724	42.270	0.00057507	0.00026193	8.5532e-05	1143.2	2.6992e-06	2.2024e-06	1206.3	243.47	5.4579e-06	4.3398e-06	302.94	84.353	66.462	19.204	2.7863e-06	26.999	0.00023124	0.0001337	3.8108e-05	1128.8	1.7033e-06	1.4157e-06	1196.5	242.32	1.8537e-06	1.4533e-06	301.78	84.386	66.343	19.395	1.5161e-06	27.543	109.840	-84.833	-66.378	-160.600	-45.403	-39.615	-161.197	-154.006	-64.558	-18.970	-154.220	-148.186	-147.992	-140.358	-26.972	-140.726	-8191	255	
6819.513	1	1	0	0	0.042454	0.129	0.32786	0.17429	0.043945	0.064947	0.26636	0.029679	0.26292	0.13611	0.074647	0.12139	0.049361	0.15761	0.13664	0.14603	-4.0229	-5.2688	-4.8792	-4.7667	-5.1771	-4.7083	-4.8979	-5.0125	-4.525	-4.9688	-5.1229	-4.6021	-5.1646	-4.6604	-4.9708	-5.2208	15.213	-67.741	152.641	107.621	135.752	171.240	68.161	20.940	-24.169	108.484	-165.161	60.679	-121.734	163.094	147.951	-60.012	0.00059524	0.00030416	0.00010925	1138.6	4.0452e-06	2.7877e-06	1203.7	243.68	5.7999e-06	3.2037e-06	302.44	84.588	66.413	19.121	2.7425e-06	27.189	0.00021867	0.00013897	3.6702e-05	1126.1	1.8031e-06	1.3594e-06	1194.7	242.05	1.7695e-06	1.3485e-06	301.51	84.359	66.404	19.39	1.6379e-06	27.538	112.337	-92.541	-75.321	-160.706	-99.202	-13.618	-161.113	-154.009	-71.161	-19.146	-154.227	-148.391	-147.782	-140.306	-24.712	-141.073	-8191	255	
6819.609	1	1	0	0	0.16598	0.11515	0.17022	0.0418	0.065115	0.15522	0.23895	0.17455	0.23117	0.23646	0.042322	0.2427	0.087509	0.097268	0.21802	0.17111	-4.0521	-4.9792	-4.9896	-4.8292	-5.1146	-4.7458	-4.75	-5.05	-4.7021	-4.9688	-5.1271	-4.6292	-5.1125	-4.7812	-4.7396	-5.2104	90.427	104.807	9.136	85.241	-27.093	-143.424	114.525	-169.924	112.753	-99.937	61.898	93.626	-85.933	-129.723	-39.165	-93.437	0.00058368	0.00039656	6.4121e-05	1141.4	3.2485e-06	3.7853e-06	1209.5	244.37	5.3443e-06	3.5659e-06	302.08	84.956	66.726	19.161	2.8804e-06	27.145	0.00022105	0.00012433	3.5262e-05	1126.2	1.7712e-06	1.5382e-06	1197.5	242.33	1.8905e-06	1.3631e-06	301.64	84.682	66.235	19.392	1.5468e-06	27.592	112.656	-118.829	-79.760	-160.795	-67.271	-44.382	-160.819	-154.094	-78.742	-17.411	-154.294	-148.596	-147.672	-140.286	-28.746	-141.151	-8191	255	
6819.730	1	1	0	0	0.071228	0.2219	0.0332	0.28813	0.046112	0.34241	0.1761	0.0070575	0.13353	0.042503	0.1251	0.20004	0.07173	0.13094	0.20997	0.1399	-4.3021	-4.6896	-4.9646	-4.6833	-5.2	-4.8542	-4.8646	-5.1896	-4.6479	-4.9625	-5.1062	-4.4604	-5.0375	-5.0146	-4.5687	-5.1583	-33.195	-71.882	161.832	123.140	106.132	113.558	137.690	-16.220	-135.860	-81.158	-161.904	-99.134	-106.379	61.437	-161.697	110.746	0.00062035	0.00028718	0.00010666	1140.6	4.1242e-06	2.6124e-06	1205.8	243.03	6.5044e-06	2.9968e-06	303.44	84.197	65.986	19.244	2.8754e-06	27.052	0.00022356	0.00013944	3.5251e-05	1126.9	1.71e-06	1.4153e-06	1193.4	241.84	1.8482e-06	1.2999e-06	301.6	84.446	65.992	19.402	1.571e-06	27.534	108.860	-93.604	-75.628	-160.740	-80.001	-10.321	-161.005	-154.143	-82.560	-9.356	-153.999	-148.116	-147.471	-140.338	-36.626	-140.865	-8191	255	
6819.826	1	1	0	0	0.09864	0.15383	0.01601	0.35658	0.30737	0.23257	0.31931	0.10581	0.070931	0.16102	0.16187	0.072949	0.13951	0.098228	0.04681	0.08612	-4.175	-4.8313	-4.9313	-4.6937	-5.2	-4.9313	-4.4896	-5.1813	-4.6625	-4.8271	-5.0396	-4.3833	-5.0333	-5.0312	-4.575	-4.9396	-4.142	58.270	-169.390	-170.434	128.062	68.835	84.905	25.470	-49.918	163.310	121.792	103.479	96.591	139.176	-132.680	-159.319	0.00065699	0.00022988	8.9317e-05	1139.3	3.9018e-06	2.0778e-06	1203.8	244.05	8.166e-06	3.0107e-06	303.33	84.294	66.267	19.287	5.1308e-06	27.228	0.00021714	0.00013897	3.3605e-05	1123.2	1.7579e-06	1.4473e-06	1191.8	242	1.7715e-06	1.3936e-06	301.58	84.423	66.217	19.43	1.5234e-06	27.58	110.696	-62.979	-75.864	-160.735	-58.332	-54.262	-161.032	-154.162	-80.991	-20.024	-154.178	-148.113	-147.496	-140.384	-42.555	-140.826	-8191	255	
6819.898	1	1	0	0	0.21899	0.078724	0.1225	0.18973	0.12901	0.11521	0.18323	0.20957	0.21554	0.24875	0.25266	0.32276	0.16087	0.10328	0.18116	0.089957	-4.1917	-4.7312	-5.075	-4.6604	-4.9875	-4.75	-4.5312	-5.2937	-4.7667	-4.7625	-5.1937	-4.5813	-4.9812	-5.0958	-4.4792	-5.1021	-124.032	133.582	70.931	83.848	130.449	-130.298	105.892	75.299	67.024	123.833	112.843	1.729	-6.981	102.148	158.181	180.064	0.00063756	0.00037571	0.00012739	1137.8	3.5494e-06	3.1899e-06	1206.2	243.55	6.9398e-06	4.3387e-06	302.37	84.714	65.898	19.273	4.0371e-06	26.993	0.00022875	0.00012671	3.1228e-05	1124.4	1.7244e-06	1.369e-06	1193.9	241.91	1.7081e-06	1.4133e-06	301.31	84.549	66.046	19.449	1.6391e-06	27.523	114.691	-95.101	-71.494	-160.658	-51.817	-29.669	-160.918	-154.087	-72.400	-36.956	-154.128	-148.468	-147.680	-140.189	-44.921	-140.876	-8191	255	
6820.018	1	1	0	0	0.12527	0.14438	0.083461	0.1624	0.15722	0.075678	0.21451	0.2676	0.11176	0.26818	0.45091	0.20516	0.12945	0.18088	0.13431	0.12595	-4.6917	-4.7083	-5.1729	-4.725	-4.7312	-5.3167	-4.7896	-5.1021	-4.8021	-4.5875	-5.3458	-4.8729	-4.8542	-5.0875	-4.7479	-5.1312	122.998	-27.498	130.343	170.777	-81.002	-37.862	98.542	165.337	-64.256	141.586	141.905	-140.944	29.715	-113.093	99.170	-124.908	0.00064435	0.0002631	4.5703e-05	1136.9	5.886e-06	4.564e-06	1204.2	244.31	7.2516e-06	2.6242e-06	303.9	84.371	66.725	19.212	3.6657e-06	27.079	0.00022157	0.00013632	3.6331e-05	1124.1	1.7583e-06	1.3373e-06	1193.6	242.52	1.5977e-06	1.5645e-06	301.41	84.596	66.405	19.439	1.5095e-06	27.577	108.972	-103.316	-76.500	-160.917	-71.212	-10.772	-160.751	-153.954	-63.327	-9.726	-154.253	-148.407	-147.831	-140.320	-34.766	-140.986	-8191	255	
6820.114	1	1	0	0	0.13271	0.15002	0.14595	0.17255	0.098959	0.10911	0.24328	0.14506	0.18877	0.061385	0.09718	0.24657	0.21418	0.12105	0.11937	0.1505	-4.5312	-4.3208	-5.1771	-4.9812	-4.6937	-4.9292	-4.6375	-5.1417	-4.9979	-4.4667	-5.3083	-4.8688	-4.7646	-5.0604	-4.475	-4.9542	41.856	-34.488	-19.676	77.625	-149.298	122.803	83.881	-159.690	-51.319	-145.190	60.886	-168.654	-93.247	-163.597	93.226	58.075	0.00060859	0.00034504	7.2973e-05	1141.4	3.8135e-06	3.8399e-06	1201.4	244.15	7.5562e-06	2.8757e-06	300.68	84.698	66.512	19.235	2.0363e-06	27.064	0.00021113	0.00014705	3.3649e-05	1126	1.7599e-06	1.249e-06	1192.4	242.06	1.7339e-06	1.4318e-06	300.86	84.626	66.189	19.425	1.4796e-06	27.515	111.638	-79.135	-82.869	-160.881	-70.614	-22.581	-161.024	-154.186	-74.509	-38.002	-154.098	-148.234	-147.779	-140.087	-39.812	-140.857	-8191	255	
6820.209	1	1	0	0	0.16448	0.10141	0.11032	0.3606	0.068806	0.2427	0.23091	0.26478	0.31339	0.13201	0.1156	0.19053	0.13619	0.03005	0.11089	0.14428	-4.7063	-4.4812	-5.0167	-5.0271	-4.5042	-5.1021	-4.7146	-5.0188	-5.0479	-4.3979	-5.1396	-4.9729	-4.8271	-5.0687	-4.5708	-4.8396	93.868	159.520	20.745	68.288	174.318	-76.560	137.959	41.021	119.854	21.698	-120.108	-157.821	-40.766	70.457	-3.087	97.627	0.00060743	0.00037594	0.00011138	1137	4.0097e-06	2.6085e-06	1202	243.52	5.1792e-06	2.5346e-06	301.98	84.217	66.225	19.066	3.6799e-06	27.103	0.00021094	0.00013089	3.475e-05	1122.1	1.7595e-06	1.2529e-06	1189.9	241.89	1.5311e-06	1.4077e-06	301.16	84.226	66.21	19.329	1.5099e-06	27.515	110.662	-85.029	-69.135	-160.795	-57.071	-12.366	-160.930	-153.963	-66.403	-26.615	-154.119	-148.168	-147.572	-140.239	-55.915	-140.716	-8191	255	
6820.307	1	1	0	0	0.082938	0.088926	0.23273	0.3216	0.23578	0.12731	0.45164	0.096866	0.25944	0.28869	0.14158	0.24463	0.17897	0.1698	0.14659	0.15088	-4.9167	-4.3896	-4.9812	-5.0292	-4.6229	-5.125	-4.9833	-4.8875	-5.0604	-4.7271	-5.1354	-4.9333	-4.7229	-5.2562	-4.625	-4.6229	125.095	175.075	185.348	176.700	177.703	14.457	119.898	116.550	-86.221	-25.970	110.022	-150.612	182.002	-33.844	86.410	107.146	0.00059276	0.00041817	8.2052e-05	1133.2	3.8463e-06	3.6344e-06	1195.8	243.01	5.5036e-06	3.4198e-06	300.79	84.686	66.207	19.136	4.5068e-06	27.141	0.00019309	0.00012503	3.4008e-05	1119.6	1.7716e-06	1.2819e-06	1187.2	241.68	1.6016e-06	1.3171e-06	300.39	84.417	66.075	19.37	1.4673e-06	27.544	111.162	-48.264	-63.683	-160.637	-58.319	-6.252	-161.067	-153.966	-72.528	-10.132	-154.299	-148.520	-147.700	-140.351	-68.122	-140.902	-8191	255	
6820.426	1	1	0	0	0.16251	0.22733	0.12627	0.041135	0.1697	0.042632	0.39241	0.22071	0.27937	0.29536	0.13651	0.17932	0.074501	0.11804	0.027287	0.17483	-4.8125	-4.5604	-5.1083	-5.0375	-4.4021	-5.0104	-4.8729	-4.8812	-5.2896	-4.5771	-4.9313	-5.1	-4.5479	-5.1146	-4.9375	-4.5188	-60.697	-97.647	138.837	116.950	12.514	-29.664	187.680	101.993	47.067	114.533	84.228	136.058	-117.147	-114.301	92.154	155.868	0.00059562	0.00018038	6.7404e-05	1135.3	2.5326e-06	4.0116e-06	1202.1	242.67	4.5047e-06	3.076e-06	301.67	84.621	66.322	19.189	4.5555e-06	27.105	0.00020233	0.00012597	3.4761e-05	1122.1	1.7938e-06	1.2941e-06	1189.9	241.59	1.5237e-06	1.3583e-06	300.8	84.495	66.185	19.38	1.448e-06	27.561	113.211	-86.541	-78.822	-160.990	-53.783	-1.162	-161.099	-153.894	-72.634	-16.933	-154.174	-147.947	-147.627	-140.223	-24.765	-140.491	-8191	255	
6820.522	1	1	0	0	0.259	0.051084	0.27682	0.13597	0.10614	0.1639	0.18612	0.23184	0.25801	0.15025	0.066389	0.060742	0.025179	0.091061	0.19128	0.07051	-4.7875	-4.7167	-4.8812	-5.1562	-4.4667	-5.0604	-5.1062	-4.8292	-5.225	-4.5292	-4.9313	-5.2833	-4.6625	-5.0854	-4.9146	-4.7167	17.656	129.765	-84.763	36.354	-19.037	-25.177	114.449	62.981	-12.764	-103.297	162.610	93.725	-105.666	-170.855	20.092	94.504	0.00058795	0.00023223	0.0001147	1129.7	5.3924e-06	2.6986e-06	1195.6	242.71	7.4647e-06	3.4515e-06	301.91	84.911	66.724	19.221	3.476e-06	26.991	0.00020025	0.00012691	3.5524e-05	1118.8	1.7571e-06	1.1131e-06	1186.7	241.46	1.5253e-06	1.33e-06	300.84	84.346	66.249	19.404	1.4e-06	27.516	108.780	-79.504	-67.118	-160.675	-67.670	-53.222	-160.792	-153.921	-73.158	-12.977	-153.984	-148.356	-147.717	-140.137	-52.022	-140.629	-8191	255	
6820.618	1	1	0	0	0.086025	0.15479	0.20597	0.13832	0.10523	0.088413	0.19996	0.21512	0.020742	0.13495	0.17032	0.090459	0.20825	0.15884	0.16498	0.1388	-4.8021	-4.7063	-4.8542	-5.3354	-4.4792	-4.9833	-5.2354	-4.6104	-5.2167	-4.9417	-4.8875	-5.3104	-4.6438	-4.9583	-5.1479	-4.6896	-12.687	-24.645	-143.708	157.616	-18.973	181.386	83.178	87.481	-108.869	149.696	80.364	113.205	183.786	183.948	-40.376	-89.840	0.00056919	0.00032547	0.00011356	1127.6	1.9581e-06	3.1103e-06	1193.8	242.57	5.9013e-06	2.7834e-06	300.96	84.488	65.966	19.206	3.8602e-06	26.935	0.00020441	0.00012183	3.2656e-05	1115.1	1.71e-06	1.2499e-06	1183.8	240.85	1.5041e-06	1.2243e-06	300.46	84.355	65.964	19.375	1.2106e-06	27.475	112.621	-86.461	-76.819	-160.706	-78.326	-32.951	-161.025	-153.717	-72.102	-30.643	-154.148	-147.936	-148.159	-139.994	-35.869	-140.520	-8191	255	
6820.714	1	1	0	0	0.13039	0.15086	0.11967	0.13528	0.068184	0.21362	0.063848	0.17849	0.17534	0.23583	0.16291	0.20213	0.14548	0.1002	0.086526	0.19561	-4.8396	-4.8042	-4.5375	-5.3896	-4.5208	-4.9229	-5.1021	-4.6583	-5.0104	-4.9688	-4.8063	-5.2604	-4.5521	-5.0167	-5.1146	-4.5	-101.774	55.715	-95.805	-168.650	162.271	-55.921	38.615	143.977	-12.532	34.920	34.559	183.752	-79.556	-65.949	-7.078	151.452	0.00059911	0.00032239	7.7628e-05	1129.4	4.4544e-06	2.6551e-06	1192.8	241.67	7.7164e-06	2.2796e-06	301.87	84.209	66.308	19.278	4.4588e-06	27.079	0.00021219	0.00011539	3.3758e-05	1114.6	1.6441e-06	1.2196e-06	1182.5	240.46	1.4944e-06	1.1204e-06	300.38	84.343	65.998	19.414	1.2434e-06	27.488	110.382	-80.836	-63.257	-160.862	-69.387	-15.923	-160.827	-153.828	-71.330	-34.877	-154.406	-148.187	-147.053	-140.279	-50.447	-141.104	-8191	255	
6820.810	1	1	0	0	0.086534	0.077111	0.086371	0.15426	0.093498	0.14672	0.40809	0.11979	0.15926	0.10545	0.09953	0.094165	0.18378	0.2515	0.17175	0.16013	-4.9375	-4.7792	-4.5458	-5.2708	-4.7604	-4.8125	-5.2146	-4.4792	-5.1167	-5.1271	-4.8521	-5.075	-4.6042	-4.8688	-5.1312	-4.6125	17.635	6.740	-87.575	134.388	-104.978	185.682	162.489	135.679	-5.364	-59.944	109.181	-124.572	170.997	-89.895	-107.853	8.262	0.00065757	0.00034828	7.9091e-05	1126.3	3.7627e-06	2.7139e-06	1190.5	242.37	7.8483e-06	2.4605e-06	301.48	84.004	66.497	19.157	2.6117e-06	27.12	0.00019533	0.00011379	3.1741e-05	1112.6	1.6601e-06	1.1191e-06	1180.6	240.46	1.6423e-06	1.0637e-06	300.04	84.183	65.936	19.376	1.1974e-06	27.533	111.307	-70.102	-91.874	-160.846	-68.569	-14.565	-160.926	-153.952	-69.827	-18.222	-154.171	-148.081	-147.684	-140.444	-33.744	-140.777	-8191	255	
6820.906	1	1	0	0	0.053988	0.037978	0.058556	0.19576	0.26911	0.19475	0.29966	0.09963	0.20887	0.23571	0.23829	0.20208	0.011413	0.12954	0.28208	0.18205	-4.4333	-4.9625	-4.5271	-5.3479	-4.6875	-4.6687	-5.2417	-4.6646	-4.8979	-4.9812	-4.5958	-5.2083	-5.0125	-4.6521	-5.2646	-4.825	150.315	47.619	-48.671	127.631	116.436	-6.645	159.992	5.511	4.096	-24.894	-148.534	121.423	-0.165	179.696	-167.090	184.037	0.00060245	0.00044145	0.00010688	1127.6	4.1321e-06	2.8757e-06	1191	241.89	6.341e-06	2.5102e-06	299.44	83.876	65.555	19.093	3.2177e-06	26.968	0.00020299	0.00012226	3.0683e-05	1114	1.5505e-06	1.2997e-06	1179.3	240.28	1.5225e-06	1.1479e-06	299.19	83.842	65.585	19.282	1.0847e-06	27.451	110.042	-88.545	-83.847	-160.721	-74.394	-40.955	-160.875	-153.939	-63.797	-46.514	-154.038	-148.109	-147.671	-139.807	-15.088	-141.053	-8191	255	
6821.027	1	1	0	0	0.1563	0.097087	0.23102	0.25586	0.26076	0.19714	0.18636	0.136	0.099614	0.070229	0.12127	0.12837	0.084882	0.087092	0.1169	0.13584	-4.7	-4.975	-4.5042	-5.3208	-4.825	-4.5813	-5.3354	-4.6813	-4.8646	-5.0979	-4.7	-5.0958	-4.9917	-4.5292	-5.225	-4.925	-42.855	-14.545	163.551	167.953	88.914	-41.095	129.483	131.399	-59.205	-93.449	42.726	104.339	19.816	-128.404	-0.413	-132.311	0.00063454	0.00034355	9.0541e-05	1116.8	4.223e-06	3.2269e-06	1184.6	240.25	6.8015e-06	1.8982e-06	299.99	83.972	65.83	19.036	4.6435e-06	26.742	0.00020924	0.00011489	3.4259e-05	1104.3	1.5002e-06	1.3369e-06	1172.3	239.12	1.5499e-06	1.1341e-06	298.79	83.43	65.511	19.218	1.2434e-06	27.3	113.339	-64.238	-91.522	-160.795	-44.706	-26.026	-160.876	-153.836	-62.708	-22.557	-154.136	-148.163	-147.903	-140.042	-35.449	-140.971	-8191	255	
6821.121	1	1	0	0	0.081394	0.15473	0.02919	0.10651	0.14741	0.047538	0.31814	0.31548	0.15242	0.25719	0.14061	0.082069	0.16947	0.16122	0.082086	0.21935	-4.5375	-5.1229	-4.675	-5.05	-4.9021	-4.7542	-5.3146	-5	-4.8021	-5.1	-4.6958	-5.0417	-4.8812	-4.7021	-5.0521	-4.7708	152.384	126.616	76.207	117.128	-79.316	166.668	125.942	181.186	185.187	123.918	-37.911	161.916	95.876	121.576	-95.171	-69.705	0.00063907	0.00036055	8.3261e-05	1117.6	4.1863e-06	2.6275e-06	1183.8	241.29	5.8439e-06	3.442e-06	300.38	84.211	66.018	19.169	2.1468e-06	27.202	0.00020233	0.00011184	3.3016e-05	1105.4	1.6082e-06	1.278e-06	1175	239.87	1.5108e-06	1.1122e-06	299.42	83.981	65.723	19.301	1.2265e-06	27.484	111.851	-90.826	-70.840	-160.768	-63.835	-1.004	-161.153	-153.618	-67.900	-5.785	-154.091	-148.156	-147.695	-140.238	-33.244	-140.765	-8191	255	
6821.195	1	1	0	0	0.2024	0.2918	0.090714	0.25556	0.11765	0.24312	0.16553	0.21653	0.024382	0.22585	0.21339	0.14892	0.16198	0.13481	0.028683	0.17789	-4.35	-5.1917	-4.6937	-4.95	-5.1479	-4.6062	-5.2542	-4.7646	-4.6521	-5.2708	-4.8958	-4.9146	-5.1042	-4.6937	-5.2104	-4.9708	29.571	-60.408	-100.215	-147.412	-8.026	181.601	136.211	176.923	128.306	141.337	120.619	-96.432	-140.464	178.169	-171.460	148.007	0.0006379	0.00039658	7.9518e-05	1124.7	4.156e-06	1.6088e-06	1189.7	241.64	4.5612e-06	2.6741e-06	298.42	83.595	66.1	19.021	5.0012e-06	26.904	0.00020692	0.00010751	3.4128e-05	1109.2	1.4293e-06	1.1655e-06	1176.4	239.87	1.5084e-06	9.3005e-07	298.54	83.811	65.609	19.259	1.2397e-06	27.384	111.169	-98.673	-78.585	-160.887	-63.986	-30.407	-160.981	-153.709	-64.444	-17.240	-153.864	-148.133	-147.894	-140.166	-25.198	-140.832	-8191	255	
6821.289	1	1	0	0	0.31304	0.18639	0.067762	0.12587	0.0070413	0.21796	0.27728	0.029293	0.37872	0.13136	0.20639	0.15765	0.29761	0.15401	0.070441	0.13788	-4.2042	-5.2312	-4.6396	-4.9167	-5.2937	-4.45	-5.0563	-5.0646	-4.775	-5.2167	-4.9062	-5.0312	-5.0667	-4.5042	-5.1271	-5.0521	169.656	-84.943	94.868	129.540	-130.289	107.035	95.965	170.132	-28.332	-54.978	185.262	45.025	-111.941	135.370	-46.168	75.614	0.00060622	0.0003514	8.5311e-05	1117.1	3.8739e-06	2.7257e-06	1185.9	241.42	5.8631e-06	2.5564e-06	300.06	83.838	66.16	19.088	4.2436e-06	26.978	0.00020383	0.00010399	3.1566e-05	1106.5	1.4694e-06	1.3006e-06	1173.3	239.58	1.4497e-06	1.132e-06	298.59	83.648	65.625	19.266	1.2913e-06	27.373	112.258	-94.124	-63.022	-160.845	-59.806	-28.603	-161.021	-154.043	-63.395	-24.125	-154.064	-148.162	-147.801	-140.667	-55.166	-140.509	-8191	255	
6821.410	1	1	0	0	0.19595	0.092004	0.11105	0.1804	0.24681	0.064801	0.17629	0.13216	0.14743	0.072117	0.036825	0.14597	0.066397	0.092887	0.17367	0.24675	-4.0521	-5.2417	-4.8521	-5.0437	-5.2271	-4.6354	-5.2292	-4.9563	-4.5479	-5.2167	-4.8938	-4.7542	-5.3625	-4.7438	-4.9417	-5.0354	39.611	124.805	112.030	167.028	54.649	18.340	133.138	103.139	-92.182	-74.169	176.784	-148.932	-46.172	-9.860	-164.857	123.141	0.00064713	0.00033611	6.6457e-05	1117	2.7973e-06	1.9285e-06	1185.2	241.6	4.791e-06	2.0689e-06	299.63	84.038	65.983	19.09	3.8265e-06	26.979	0.00021244	0.00010548	3.1206e-05	1104.7	1.54e-06	1.3473e-06	1175.1	239.75	1.6274e-06	1.0989e-06	298.66	83.717	65.675	19.294	1.2667e-06	27.474	110.886	-91.597	-52.701	-160.740	-64.407	-28.663	-160.942	-153.924	-61.632	-31.984	-154.077	-148.069	-148.089	-140.491	-49.470	-140.630	-8191	255	
6821.506	1	1	0	0	0.050881	0.2488	0.24093	0.085768	0.10365	0.1266	0.23999	0.13171	0.2686	0.17196	0.072745	0.12044	0.074223	0.047773	0.11019	0.11915	-4.175	-5.1271	-4.7708	-4.7104	-5.1625	-4.7896	-4.9854	-5.3104	-4.5125	-5.0271	-5.1062	-4.7063	-5.375	-4.7396	-4.8521	-5.1458	-122.523	186.424	25.265	91.575	138.139	-2.182	124.822	141.847	161.895	-129.178	129.131	10.652	-142.434	44.800	80.170	-36.415	0.00065583	0.00032319	6.2843e-05	1122.9	2.2204e-06	2.5339e-06	1188.8	242.43	6.0312e-06	2.4079e-06	300.3	83.681	65.777	19.046	3.4491e-06	27.077	0.00021244	0.00010091	2.6485e-05	1109	1.4577e-06	1.1321e-06	1177.8	240.26	1.5355e-06	1.1208e-06	299.74	83.979	65.604	19.276	1.3209e-06	27.405	110.360	-89.687	-83.395	-160.702	-65.828	-16.684	-160.879	-154.214	-83.778	6.706	-154.088	-148.256	-147.369	-140.529	-40.318	-141.218	-8191	255	
6821.602	1	1	0	0	0.33461	0.060321	0.2853	0.15211	0.093397	0.22706	0.16948	0.071585	0.12438	0.032362	0.16777	0.13333	0.23202	0.058481	0.097748	0.059874	-4.1667	-5.0875	-4.8229	-4.7104	-5.2708	-4.6229	-4.9354	-4.9396	-4.4917	-5.0396	-5.1792	-4.4812	-5.2688	-4.9708	-4.9417	-5.3063	24.631	98.346	6.960	163.816	-0.593	-38.633	-169.997	81.170	20.955	42.682	173.154	147.143	32.623	-112.842	30.618	-127.401	0.00064383	0.00040923	7.8951e-05	1121	4.3349e-06	1.9785e-06	1184.9	242.41	8.1025e-06	3.0813e-06	299.93	84.217	65.733	19.194	2.6689e-06	26.969	0.00021009	0.00010926	3.2122e-05	1107.5	1.4269e-06	1.2144e-06	1174.3	240.05	1.5613e-06	1.1311e-06	298.83	83.957	65.673	19.311	1.2347e-06	27.449	111.784	-71.144	-69.779	-160.751	-62.877	-30.836	-160.927	-153.945	-61.753	-28.333	-154.188	-148.141	-147.641	-139.876	-29.591	-140.883	-8191	255	
6821.698	1	1	0	0	0.18836	0.21086	0.28996	0.13989	0.094069	0.31238	0.1723	0.25598	0.18652	0.11082	0.221	0.29617	0.18313	0.11136	0.12546	0.1257	-4.5229	-5.0437	-5.0208	-4.6729	-5.0604	-4.8125	-4.7375	-5.2875	-4.7833	-5.0917	-5.1833	-4.6354	-5.2688	-4.85	-4.5813	-5.0479	91.394	70.085	67.812	104.504	109.268	-119.837	93.180	145.586	151.021	-148.352	179.548	182.981	-10.916	152.459	34.965	-78.429	0.00062778	0.00030563	8.1445e-05	1116.7	2.8278e-06	3.0727e-06	1179.9	241.07	7.6052e-06	3.321e-06	298.31	83.801	65.575	19.153	3.7406e-06	27.17	0.00020135	0.00011602	2.6856e-05	1102.8	1.494e-06	1.1637e-06	1171.5	239.6	1.4971e-06	1.1826e-06	298.19	83.689	65.628	19.282	1.3352e-06	27.408	111.265	-75.218	-88.065	-160.856	-48.103	-20.525	-160.743	-153.847	-56.449	-14.018	-153.997	-148.301	-147.683	-140.325	-11.989	-141.171	-8191	255	
6821.794	1	1	0	0	0.073548	0.21151	0.29984	0.36557	0.052896	0.099039	0.43764	0.049111	0.26651	0.284	0.073414	0.16699	0.11407	0.052442	0.11991	0.045775	-4.4875	-4.975	-5.2167	-4.8833	-4.9563	-5	-4.7688	-5.3083	-4.7604	-4.8896	-5.3042	-4.7708	-5.0854	-5.0854	-4.4187	-5.2667	82.380	-114.913	-57.269	59.835	-18.438	-31.468	121.779	-55.172	-29.520	-7.107	10.185	82.339	-141.285	111.880	-31.584	73.970	0.00061622	0.00023065	9.5668e-05	1115.6	3.6863e-06	2.2822e-06	1181.5	241.24	5.9317e-06	2.9445e-06	299.91	83.517	66.241	19.165	3.0715e-06	26.902	0.00020293	0.00011196	2.7183e-05	1102	1.4967e-06	1.0733e-06	1172.2	239.51	1.4587e-06	1.1122e-06	299.5	83.871	65.731	19.3	1.3664e-06	27.423	113.275	-90.293	-78.654	-160.740	-77.927	-19.970	-160.939	-153.840	-81.824	0.207	-154.349	-147.993	-147.658	-140.454	-55.045	-140.717	-8191	255	
6821.891	1	1	0	0	0.18679	0.20779	0.018943	0.41408	0.12013	0.037428	0.15387	0.095983	0.17785	0.042007	0.071495	0.14735	0.10288	0.11903	0.021553	0.21454	-4.5125	-4.9104	-5.125	-4.6833	-4.8229	-4.9604	-4.8333	-5.3708	-4.7896	-4.7875	-4.975	-4.6771	-4.85	-5.1292	-4.5229	-5.325	65.736	79.049	103.260	154.661	-118.629	90.853	127.098	-29.972	159.398	-115.088	38.404	81.644	-144.273	-125.116	-5.076	146.911	0.00058368	0.00024952	8.1633e-05	1116.2	3.4423e-06	3.4724e-06	1183.9	240.69	5.0871e-06	3.6231e-06	298.4	84.38	66.108	19.118	3.3649e-06	26.657	0.00019834	0.00010333	2.5078e-05	1103.7	1.5579e-06	1.0265e-06	1173.1	239.64	1.4572e-06	1.1393e-06	298.19	83.893	65.628	19.263	1.2647e-06	27.307	111.576	-56.269	-89.143	-160.734	-83.151	-11.527	-160.899	-153.714	-74.630	-7.122	-154.225	-148.353	-147.845	-140.453	-49.255	-140.576	-8191	255	
6821.987	1	1	0	0	0.19168	0.10388	0.11215	0.22935	0.1251	0.31072	0.21263	0.086958	0.28183	0.13785	0.1642	0.26811	0.13697	0.12775	0.13767	0.16222	-4.4771	-4.6562	-5.1562	-4.875	-4.9583	-5.1708	-4.8771	-5.2146	-4.7479	-4.5125	-5.3083	-4.6312	-5.0417	-5.2604	-4.6375	-5	74.344	53.015	12.041	139.078	144.536	71.840	149.791	-70.255	57.376	-13.720	-113.209	128.761	-55.999	157.622	-137.835	-82.539	0.00064307	0.00016235	8.8333e-05	1117.3	4.1091e-06	2.9192e-06	1184.5	240.67	7.5203e-06	2.1294e-06	300.07	83.679	65.638	19.019	3.2762e-06	26.959	0.00020085	0.0001175	2.6441e-05	1102.5	1.5809e-06	1.0624e-06	1171.8	239.33	1.4521e-06	1.1792e-06	298.86	83.698	65.501	19.191	1.3106e-06	27.352	110.721	-106.436	-87.752	-160.587	-57.622	-23.857	-161.077	-153.884	-52.285	-8.265	-154.043	-148.068	-147.475	-140.477	-33.664	-140.528	-8191	255	
6822.107	1	1	0	0	0.11049	0.13463	0.06285	0.20615	0.30624	0.20297	0.16241	0.11908	0.1534	0.10267	0.18584	0.16255	0.059963	0.20227	0.22665	0.26627	-4.5208	-4.6604	-5.2104	-4.8479	-4.7917	-5.1625	-4.5833	-5.2063	-4.9812	-4.6396	-5.3083	-4.9333	-4.7833	-5.1687	-4.5542	-4.925	-90.515	-17.770	-27.045	168.594	-75.634	-72.413	136.049	146.592	171.992	152.699	105.693	165.859	-22.162	-117.388	185.471	-12.977	0.00061446	0.00029815	9.9983e-05	1112.7	3.3281e-06	2.786e-06	1183.1	240.45	4.1729e-06	2.1409e-06	298.56	83.863	66.346	19.044	3.4136e-06	26.971	0.00019815	0.00010563	2.45e-05	1102.3	1.5965e-06	1.0616e-06	1171.5	239.44	1.3965e-06	1.1908e-06	298.38	83.759	65.762	19.269	1.4529e-06	27.381	114.843	-76.392	-102.028	-160.995	-75.108	-19.320	-160.827	-154.052	-59.187	-10.300	-154.195	-148.166	-147.950	-140.627	-22.799	-140.623	-8191	255	
6822.202	1	1	0	0	0.10433	0.15179	0.067437	0.13067	0.24506	0.20048	0.24682	0.17712	0.18411	0.096983	0.39186	0.14894	0.12992	0.084679	0.2771	0.050582	-4.6937	-4.5708	-5.2208	-5.0208	-4.7958	-5.1875	-4.7562	-4.9187	-5.0437	-4.6188	-5.2229	-5.0312	-4.8063	-5.3771	-4.7292	-5.0729	136.104	-89.368	-69.832	149.781	-153.418	130.667	142.290	116.686	-80.842	-105.165	132.088	183.188	-55.320	-71.223	152.109	-126.697	0.00063573	0.00025882	6.9887e-05	1117.8	3.5635e-06	3.4843e-06	1186.7	241.47	7.6271e-06	3.7612e-06	301.25	84.371	65.954	19.096	3.2826e-06	26.776	0.00021091	0.0001175	2.6409e-05	1105.1	1.5486e-06	1.1733e-06	1173.4	239.9	1.409e-06	1.2252e-06	299.24	83.959	65.804	19.315	1.3278e-06	27.342	111.975	-60.243	-42.532	-160.751	-85.317	-18.820	-160.864	-153.753	-78.160	-11.671	-154.086	-148.068	-147.647	-140.282	-45.740	-140.698	-8191	255	
6822.298	1	1	0	0	0.17607	0.30834	0.16425	0.24479	0.04173	0.25762	0.12646	0.10369	0.31425	0.28697	0.079252	0.20527	0.18749	0.19267	0.1436	0.37169	-4.8396	-4.5333	-4.9292	-5.0104	-4.4979	-5.3229	-4.85	-4.9563	-5.1896	-4.6062	-5.0896	-4.85	-4.6896	-5.3521	-4.7771	-4.9125	-165.944	107.983	49.381	152.273	-137.250	160.646	126.715	164.956	81.720	-69.890	-51.241	187.246	-118.755	84.731	178.650	151.668	0.00064564	0.00043513	0.00010019	1115.1	4.7018e-06	2.3698e-06	1183.5	241.89	5.4653e-06	3.1446e-06	298.55	83.843	65.517	18.992	2.5727e-06	26.78	0.00019779	0.00011528	2.8807e-05	1104.3	1.6152e-06	1.0473e-06	1169.7	239.75	1.4356e-06	1.2668e-06	298.3	83.681	65.318	19.179	1.3209e-06	27.264	110.966	-97.383	-85.511	-160.750	-58.882	-5.967	-160.877	-153.930	-64.756	-43.975	-154.213	-147.967	-147.396	-139.885	-14.618	-140.991	-8191	255	
6822.419	1	1	0	0	0.15153	0.22959	0.092984	0.044349	0.1327	0.12334	0.17729	0.26957	0.17215	0.19576	0.090926	0.17192	0.19218	0.10195	0.20563	0.36963	-4.8917	-4.5042	-4.9833	-5.1687	-4.6687	-5.1104	-4.9083	-4.7208	-5.1646	-4.5292	-4.9583	-5.1208	-4.7021	-5.1667	-4.6771	-4.5833	-72.673	97.436	149.463	182.923	110.696	-159.561	39.104	130.020	92.442	175.804	14.050	131.623	-10.824	-10.513	18.173	-158.709	0.00064675	0.00038638	9.2196e-05	1113.5	4.25e-06	3.0513e-06	1182.5	241.18	5.2143e-06	2.7015e-06	299.46	83.501	65.639	19.051	3.3097e-06	26.67	0.00020154	0.0001166	2.9996e-05	1101.2	1.6733e-06	1.1927e-06	1168.6	239.15	1.4521e-06	1.2406e-06	298.29	83.501	65.238	19.203	1.2881e-06	27.178	110.869	-91.957	-91.523	-160.589	-45.803	-1.367	-161.079	-153.866	-70.202	-23.627	-153.870	-148.165	-147.828	-140.468	-29.559	-140.676	-8191	255	
6822.490	1	1	0	0	0.15803	0.10637	0.13795	0.14278	0.14652	0.21694	0.36131	0.10483	0.2382	0.15278	0.2518	0.10454	0.18419	0.10257	0.21157	0.2386	-4.9771	-4.7333	-5.0896	-5.2812	-4.6667	-5.1396	-4.9771	-4.7354	-5.2063	-4.5833	-5.0458	-5.1604	-4.5292	-5.1896	-5	-4.7396	138.329	-91.309	81.873	122.496	32.633	-150.043	105.111	157.412	-46.461	-42.734	110.316	179.445	-153.466	-44.106	87.210	-118.852	0.00063337	0.00035718	6.9434e-05	1113.7	4.2125e-06	2.5496e-06	1180.6	240.23	6.3895e-06	4.2807e-06	297.13	83.085	65.539	18.925	3.7815e-06	26.814	0.0002005	0.00012172	3.2253e-05	1101.2	1.7973e-06	1.3499e-06	1169.5	238.47	1.6306e-06	1.5113e-06	297.23	83.211	65.151	19.111	1.5267e-06	27.229	109.629	-82.120	-78.526	-160.530	-50.822	-28.914	-160.939	-154.136	-64.305	-14.162	-154.212	-148.055	-147.742	-139.964	-43.155	-140.434	-8191	255	
6822.586	1	1	0	0	0.085619	0.28497	0.18146	0.14269	0.15623	0.12064	0.099113	0.15949	0.21426	0.18883	0.26994	0.22215	0.1479	0.27148	0.20404	0.095956	-4.7333	-4.6937	-4.5708	-5.1438	-4.7271	-5.025	-5.1021	-4.7542	-5.0375	-4.7417	-4.8854	-5.3688	-4.7229	-5.05	-4.9354	-4.6167	-163.010	-160.024	-135.037	94.215	-125.199	187.263	84.407	71.855	72.109	-170.278	81.754	86.913	66.272	-113.478	51.591	103.125	0.00063687	0.00030649	6.8397e-05	1126.3	4.3025e-06	2.2964e-06	1191.6	241.17	4.743e-06	2.6022e-06	300.81	83.91	65.779	19.074	3.7532e-06	26.923	0.00022266	0.00014147	3.9689e-05	1110.6	1.938e-06	1.4196e-06	1180.8	240.18	1.8411e-06	1.6122e-06	299.39	83.829	65.609	19.227	1.6621e-06	27.334	111.156	-84.050	-59.010	-160.903	-66.665	-29.604	-161.224	-153.937	-49.202	-33.714	-154.344	-148.295	-147.534	-140.276	-46.633	-140.853	-8191	255	
6822.707	1	1	0	0	0.31065	0.20373	0.23867	0.14608	0.063177	0.19027	0.21941	0.1241	0.078832	0.050032	0.037397	0.25016	0.111	0.14719	0.071478	0.12109	-4.8167	-4.6625	-4.7729	-5.3042	-4.3562	-4.9812	-5.3583	-4.6521	-5.1646	-4.9042	-4.6792	-5.1813	-4.6625	-4.9125	-5.1042	-4.5875	97.338	-101.061	-135.102	187.426	14.546	-101.890	101.722	33.402	7.885	-116.806	-99.676	150.596	35.859	-143.615	-163.943	-32.600	0.00057941	0.00035023	0.00010254	1133.5	6.2718e-06	4.1769e-06	1201.1	244.99	4.8075e-06	1.706e-06	302.06	84.314	66.368	19.133	2.1342e-06	27.128	0.00022649	0.00014935	4.2328e-05	1119.6	2.1895e-06	1.6369e-06	1189.6	241.82	1.9124e-06	1.6539e-06	301.14	84.243	66.171	19.365	1.7761e-06	27.498	109.365	-93.126	-69.956	-160.814	-57.024	-15.609	-160.840	-153.742	-63.713	7.118	-154.156	-147.973	-148.307	-140.230	-33.916	-140.184	-8191	255	
6822.803	1	1	0	0	0.092733	0.065097	0.23935	0.37397	0.22235	0.011892	0.1222	0.17395	0.12539	0.16513	0.17852	0.14803	0.14277	0.11822	0.17273	0.1274	-4.6729	-4.5875	-4.5687	-5.4417	-4.8021	-4.7542	-5.2271	-4.6562	-5.0542	-4.9688	-4.5771	-5.1083	-4.6292	-4.7354	-5.1333	-4.6604	93.009	-118.812	-109.938	147.428	142.287	-34.680	117.288	134.591	-37.188	13.792	183.849	50.870	92.591	-11.726	-98.405	128.778	0.00061944	0.00026381	6.8012e-05	1140.8	4.1525e-06	2.5042e-06	1204.3	244.84	6.6347e-06	3.0109e-06	304.42	84.706	66.218	19.385	4.7368e-06	27.178	0.00023324	0.0001636	4.7376e-05	1127.1	2.1396e-06	1.7738e-06	1195.1	243.23	2.0541e-06	1.583e-06	303.24	84.643	66.697	19.545	1.7453e-06	27.677	107.733	-72.666	-67.720	-160.965	-59.775	-36.829	-161.141	-153.866	-66.636	-9.289	-154.247	-148.329	-147.993	-140.505	-34.175	-140.966	-8191	255	
6822.899	1	1	0	0	0.09394	0.21681	0.20432	0.25149	0.059126	0.26517	0.12666	0.046661	0.1288	0.032601	0.1303	0.14818	0.20786	0.061246	0.098032	0.077773	-4.7625	-4.7042	-4.4375	-5.375	-4.725	-4.9062	-5.3187	-4.6562	-5.1312	-5.0437	-4.4563	-5.0417	-4.8271	-4.8438	-5.2042	-4.5792	14.373	63.479	-104.194	124.160	-28.307	24.505	87.845	-164.043	8.572	183.483	-157.674	-159.283	132.861	125.284	158.321	9.821	0.00064356	0.00019441	9.7527e-05	1144.7	5.7872e-06	2.8053e-06	1216.4	246.67	5.2302e-06	2.5358e-06	307.28	85.132	67.582	19.562	3.552e-06	27.398	0.00022799	0.00015911	4.7932e-05	1133.4	2.1147e-06	1.7811e-06	1204.6	245.01	2.0952e-06	1.7896e-06	305.51	85.297	67.17	19.717	1.8191e-06	27.896	111.303	-92.170	-75.323	-160.876	-64.734	-13.557	-160.975	-154.254	-60.109	-21.553	-154.258	-148.388	-148.014	-140.603	-41.624	-140.721	-8191	255	
6822.995	1	1	0	0	0.20801	0.15027	0.10058	0.27984	0.18245	0.15543	0.12634	0.15016	0.14358	0.30564	0.15808	0.088725	0.10637	0.33863	0.22712	0.051965	-4.6042	-5.0458	-4.5625	-5.2312	-4.7063	-4.6833	-5.4125	-4.7875	-4.9458	-5.0687	-4.55	-5.1021	-4.9667	-4.7271	-5.2292	-4.8438	-138.777	96.380	149.779	113.040	120.194	-2.471	130.615	159.586	-101.272	-18.084	8.231	10.913	-152.594	154.449	121.196	-128.369	0.00059034	0.00034935	9.2164e-05	1156.2	4.8039e-06	4.6588e-06	1220.8	248	8.8588e-06	4.7986e-06	306.98	85.987	67.521	19.57	4.4872e-06	27.537	0.00023436	0.0001647	4.6373e-05	1141.8	2.1548e-06	1.9742e-06	1210.6	246.47	2.0482e-06	1.8073e-06	306.59	85.89	67.268	19.782	1.724e-06	27.968	110.862	-81.123	-95.443	-160.789	-60.542	-18.668	-160.894	-154.136	-83.974	1.226	-154.614	-148.258	-147.609	-140.456	-41.840	-141.022	-8191	255	
6823.090	1	1	0	0	0.15156	0.044396	0.093399	0.071578	0.017922	0.11749	0.25177	0.18952	0.18393	0.29833	0.13337	0.29843	0.26818	0.1519	0.14556	0.11067	-4.5687	-4.9354	-4.4708	-5.2438	-4.85	-4.6896	-5.4542	-4.8875	-4.6271	-5.0271	-4.7021	-5.1229	-5.0354	-4.5417	-5.0396	-4.8229	129.730	-92.621	-16.177	-167.331	41.999	-14.163	179.790	120.102	124.772	-60.338	122.819	-168.560	116.323	100.181	146.647	-75.978	0.00063278	0.00034273	9.2566e-05	1153.5	3.7772e-06	2.9656e-06	1226.6	249.37	6.1206e-06	3.278e-06	308.39	85.778	68.124	19.741	3.7585e-06	27.72	0.00024769	0.00017364	5.0702e-05	1141.6	2.2363e-06	1.9244e-06	1213.8	247.5	2.2513e-06	1.9404e-06	307.49	86.093	67.785	19.961	2.1357e-06	28.096	110.461	-110.682	-68.958	-160.826	-53.599	-38.014	-160.945	-154.296	-69.051	-55.057	-154.287	-148.508	-148.179	-140.476	-40.146	-140.747	-8191	255	
6823.186	1	1	0	0	0.067607	0.12777	0.24619	0.086088	0.18954	0.14929	0.13339	0.074883	0.24197	0.059456	0.2443	0.16975	0.16721	0.2633	0.088764	0.022209	-4.275	-5.1687	-4.6979	-4.9521	-5.0229	-4.55	-5.1604	-4.9875	-4.8542	-5.3187	-4.9083	-4.9833	-4.9042	-4.4146	-5.0312	-4.975	-78.789	-45.142	-111.600	101.138	-63.369	-155.412	138.756	68.417	-10.198	161.339	34.893	-141.022	-79.069	-140.628	45.592	31.409	0.000679	0.00031987	5.3469e-05	1165.1	2.5192e-06	3.5898e-06	1234.3	250.61	6.2618e-06	2.4128e-06	310.99	86.594	68.07	19.986	4.0803e-06	27.727	0.00026384	0.00017746	5.5565e-05	1152.6	2.3513e-06	2.1989e-06	1223.6	249	2.2513e-06	2.0233e-06	309.83	86.903	68.196	20.226	2.0184e-06	28.348	113.343	-101.451	-90.879	-160.948	-50.192	-14.174	-161.181	-154.383	-66.855	-72.769	-154.331	-148.720	-147.967	-140.620	-37.684	-141.000	-8191	255	
6823.282	1	1	0	0	0.051154	0.049841	0.098924	0.23178	0.206	0.1679	0.055792	0.11859	0.082854	0.15114	0.11699	0.25248	0.11978	0.24269	0.19756	0.24593	-4.3562	-5.2271	-4.5917	-4.9979	-5.1583	-4.6479	-5.3604	-5.1	-4.5229	-5.0188	-4.6854	-4.9167	-5.2646	-4.6625	-5.0396	-4.8479	175.628	-154.357	-60.849	165.360	-106.283	-156.528	156.993	180.685	-163.511	15.473	134.515	57.635	1.038	87.016	30.316	-95.653	0.00067466	0.00033097	7.7344e-05	1171.7	4.9236e-06	3.5444e-06	1241.1	252.93	5.5537e-06	2.953e-06	312.1	87.62	68.14	19.998	4.223e-06	27.699	0.00026707	0.00018312	5.5576e-05	1160.8	2.3353e-06	2.185e-06	1230	251.18	2.4431e-06	2.1002e-06	311.2	87.208	68.303	20.171	2.1747e-06	28.347	112.430	-69.837	-86.993	-160.802	-53.964	-26.880	-160.995	-154.041	-64.405	-5.768	-154.315	-148.343	-148.155	-140.527	-48.241	-141.048	-8191	255	
6823.380	1	1	0	0	0.12295	0.070888	0.27634	0.10564	0.17272	0.28695	0.018502	0.16719	0.10786	0.095514	0.072788	0.32931	0.2622	0.067124	0.11783	0.23057	-4.1792	-5.05	-4.7	-4.9292	-5.1458	-4.4604	-5.1042	-5.1479	-4.6042	-5.2354	-4.7688	-4.5604	-5.3729	-4.7292	-4.9396	-4.9625	151.219	83.362	-56.235	60.253	52.492	-41.415	66.415	24.076	-151.834	-9.948	118.160	-118.094	-110.361	173.784	-110.994	102.620	0.0006909	0.00030745	0.00012749	1172.5	4.1374e-06	3.2191e-06	1237.9	252.46	5.6941e-06	2.5027e-06	312.38	87.493	68.491	19.975	3.3553e-06	27.922	0.00028316	0.00020662	5.7375e-05	1160.1	2.4328e-06	2.3972e-06	1230.6	251.07	2.5684e-06	2.0753e-06	311.69	87.158	68.444	20.237	2.1636e-06	28.446	109.730	-78.576	-78.195	-161.012	-39.519	-26.317	-161.195	-154.221	-71.481	-17.472	-154.362	-148.513	-147.944	-140.298	-46.344	-140.984	-8191	255	
6823.499	1	1	0	0	0.16706	0.27011	0.15431	0.15391	0.20069	0.2878	0.31713	0.14812	0.11481	0.12825	0.022432	0.22919	0.18249	0.22508	0.2057	0.31245	-4.3688	-5.1937	-4.6771	-4.825	-5.1292	-4.7125	-5.1854	-5.2875	-4.475	-5.1917	-5.1771	-4.7083	-5.3333	-4.7792	-4.8042	-5.2542	164.385	90.970	-170.117	63.001	-24.552	129.402	125.811	-80.136	150.177	-127.546	-87.550	164.667	151.384	-166.286	-116.030	83.276	0.00067784	0.00024544	9.8326e-05	1175.9	4.7931e-06	3.1978e-06	1242.8	252.43	8.4086e-06	4.1472e-06	310.38	87.407	68.927	19.998	5.1212e-06	27.835	0.00028365	0.00019643	5.7081e-05	1162.8	2.4913e-06	2.2569e-06	1232.3	250.92	2.6325e-06	2.1879e-06	311	86.956	68.454	20.176	2.3157e-06	28.361	113.332	-68.288	-84.686	-160.819	-80.400	-41.180	-161.212	-154.089	-60.681	-47.749	-154.396	-148.586	-147.673	-140.528	-45.929	-141.430	-8191	255	
6823.595	1	1	0	0	0.039519	0.16335	0.088841	0.13672	0.055323	0.062001	0.18358	0.19707	0.21937	0.20565	0.043546	0.10665	0.32208	0.069605	0.062972	0.25317	-4.3729	-5.0271	-4.8292	-4.8	-5.1917	-4.6333	-4.975	-5.3208	-4.3604	-5.075	-5.0167	-4.5458	-5.1625	-4.7562	-4.7729	-5.3313	69.571	71.819	96.643	22.212	60.669	-167.046	163.263	108.827	-121.123	116.310	-157.943	-154.117	172.155	157.916	41.611	19.208	0.0006435	0.0003481	6.6245e-05	1178.1	3.5934e-06	3.4001e-06	1237.5	251.36	7.2323e-06	1.6752e-06	311.71	86.473	67.867	19.801	4.1836e-06	27.739	0.00028229	0.00019874	5.8073e-05	1161.5	2.5073e-06	2.3305e-06	1227.9	250.02	2.5519e-06	2.0783e-06	310.65	86.618	68.083	20.039	2.1082e-06	28.241	111.967	-80.771	-69.352	-160.897	-58.463	-38.706	-161.180	-154.130	-66.001	-35.544	-154.145	-148.274	-147.661	-140.792	-44.086	-140.396	-8191	255	
6823.691	1	1	0	0	0.111	0.10775	0.21581	0.17227	0.26466	0.13272	0.1588	0.14757	0.2875	0.19674	0.12745	0.17528	0.27364	0.027146	0.21661	0.19388	-4.1312	-4.8833	-5.1333	-4.6292	-5.1188	-4.6771	-4.8396	-5.1813	-4.7292	-4.7521	-5.1396	-4.6271	-5.0896	-4.9667	-4.7312	-5.1854	183.738	-83.267	-76.951	136.352	-157.923	91.428	137.264	137.824	109.875	-76.173	135.125	154.164	105.797	104.082	-24.382	-77.968	0.00064242	0.00028153	9.199e-05	1172.1	2.9366e-06	2.4004e-06	1232	251.09	6.6393e-06	2.6906e-06	310.4	86.575	67.807	19.552	2.2181e-06	27.589	0.00027103	0.00019097	5.213e-05	1158.4	2.4437e-06	2.0898e-06	1223.5	249.23	2.4404e-06	2.0809e-06	309.88	86.347	67.846	19.819	2.1849e-06	28.089	112.973	-70.973	-90.817	-160.876	-62.152	-31.370	-160.943	-154.170	-54.326	-4.173	-154.452	-148.034	-147.767	-140.689	-72.012	-140.974	-8191	255	
6823.787	1	1	0	0	0.082334	0.021195	0.083006	0.25444	0.10921	0.21323	0.24069	0.17285	0.078951	0.068257	0.076079	0.09205	0.16018	0.11297	0.32969	0.10038	-4.2479	-4.9021	-5.1625	-4.9354	-4.85	-4.7854	-4.8875	-5.4062	-4.6896	-4.9187	-5.1146	-4.625	-5.125	-4.8917	-4.5458	-5.2417	149.281	-83.552	123.142	160.137	-9.910	30.016	-165.473	76.061	107.808	118.190	-17.479	-128.489	81.740	-154.415	-131.900	43.718	0.00063925	0.00034721	9.272e-05	1166.8	4.0388e-06	1.4196e-06	1226.6	248.47	7.3992e-06	3.7831e-06	308.36	85.689	67.055	19.404	4.551e-06	27.351	0.00026677	0.00019233	5.3853e-05	1152.5	2.416e-06	2.1331e-06	1219.8	247.45	2.4341e-06	2.0646e-06	308.05	85.769	67.333	19.754	2.2497e-06	27.994	109.247	-96.011	-69.931	-160.825	-62.197	-20.537	-161.061	-154.054	-83.102	-5.177	-154.393	-148.498	-147.742	-140.781	-39.307	-140.992	-8191	255	
6823.884	1	1	0	0	0.1837	0.21384	0.086615	0.265	0.066022	0.061376	0.15614	0.25375	0.12603	0.091947	0.098411	0.13969	0.059983	0.063448	0.032586	0.082753	-4.4917	-4.8333	-5.1125	-4.7833	-4.975	-4.9271	-4.65	-5.2833	-4.6167	-4.6708	-5.3	-4.6188	-5.1792	-4.9563	-4.5417	-5.2438	-22.857	85.243	54.149	180.015	118.945	-101.829	158.876	97.376	71.796	-145.908	-104.469	-154.653	86.989	82.301	102.929	-39.114	0.00061322	0.00025672	9.4967e-05	1159	4.3822e-06	2.6936e-06	1224.6	248.91	8.4295e-06	2.6925e-06	308.99	85.479	67.043	19.5	3.5091e-06	27.594	0.00025409	0.00019475	5.2654e-05	1147.8	2.3303e-06	2.0617e-06	1216.5	247.34	2.3128e-06	1.8631e-06	307.08	85.57	67.262	19.691	2.1152e-06	27.925	106.847	-105.630	-95.582	-160.899	-74.469	4.485	-161.044	-153.931	-76.365	-17.083	-154.164	-148.136	-147.608	-140.365	-21.802	-141.023	-8191	255	
6823.980	1	1	0	0	0.2123	0.023122	0.18251	0.22981	0.22463	0.12375	0.17566	0.27179	0.023549	0.13826	0.1343	0.17006	0.16022	0.022233	0.083813	0.11295	-4.4104	-4.7375	-5.3104	-4.7083	-4.9812	-5.1771	-4.775	-5.3771	-4.7458	-4.5375	-5.0687	-4.6417	-4.9187	-4.9229	-4.4979	-5.1354	-118.286	-42.961	167.646	146.289	-88.298	20.916	132.759	98.876	143.880	-45.391	167.031	-126.866	-124.768	-41.138	-147.038	142.380	0.000635	0.00021534	0.00010468	1162.8	2.56e-06	3.5996e-06	1225.9	249.35	7.1464e-06	1.8193e-06	307.92	85.959	67.199	19.515	2.7173e-06	27.526	0.00025554	0.00019144	5.1542e-05	1146.4	2.285e-06	2.05e-06	1213	247.19	2.2752e-06	2.0723e-06	307.02	85.668	67.306	19.675	2.3178e-06	27.968	111.805	-106.670	-81.888	-160.938	-90.729	-34.344	-161.029	-153.934	-86.436	-9.962	-154.205	-148.160	-147.633	-140.598	-35.924	-140.568	-8191	255	
6824.100	1	1	0	0	0.25059	0.17474	0.18404	0.3718	0.03565	0.14096	0.15762	0.15882	0.10373	0.19224	0.23604	0.11161	0.10671	0.11042	0.13959	0.13927	-4.4396	-4.5687	-5.25	-5.0104	-4.8021	-5.0792	-4.8229	-5.3042	-4.9083	-4.3854	-5.4125	-4.8708	-4.9062	-4.9938	-4.5292	-5.2188	117.540	29.277	175.135	128.300	25.996	93.028	116.358	65.994	-115.964	27.684	135.752	59.446	172.231	-171.440	-77.434	75.971	0.00066652	0.00045456	9.4508e-05	1161.6	5.3166e-06	3.5471e-06	1223	248.29	4.9047e-06	1.405e-06	309.53	85.336	67.325	19.535	3.2127e-06	27.181	0.00026756	0.00019714	5.1094e-05	1145.5	2.4971e-06	1.9971e-06	1212.7	246.62	2.2368e-06	2.2162e-06	307.38	85.644	67.173	19.708	2.2604e-06	27.872	108.697	-88.148	-90.098	-160.943	-50.123	-16.542	-160.996	-154.257	-58.215	-11.697	-154.240	-148.211	-147.878	-141.098	-9.207	-140.895	-8191	255	
6824.195	1	1	0	0	0.087536	0.054318	0.062381	0.078268	0.046312	0.11903	0.2343	0.30846	0.32131	0.16617	0.22243	0.12603	0.024978	0.10488	0.023928	0.29231	-4.7479	-4.4125	-5.1646	-4.9313	-4.5083	-5.2917	-4.7521	-4.9896	-4.8521	-4.5813	-5.1875	-4.8021	-4.65	-5.3333	-4.7729	-4.8313	111.863	-137.145	-166.782	186.152	146.313	-81.318	149.604	75.835	-69.319	-85.796	131.340	-105.360	95.871	-23.290	0.029	-140.051	0.00065937	0.0003864	8.4008e-05	1157.6	4.9761e-06	5.1588e-06	1219.8	249.02	5.7785e-06	4.0358e-06	307.52	85.209	67.387	19.534	3.1036e-06	27.558	0.00026138	0.00020744	5.2207e-05	1145.3	2.5197e-06	2.1448e-06	1212.6	247.25	2.294e-06	2.1746e-06	307.56	85.534	67.32	19.687	2.2423e-06	27.903	111.963	-93.877	-86.910	-160.874	-73.139	-23.922	-161.239	-154.006	-92.526	-12.585	-154.021	-148.180	-147.943	-140.364	-49.195	-140.783	-8191	255	
6824.291	1	1	0	0	0.091267	0.063628	0.23219	0.32871	0.062025	0.10186	0.39034	0.068277	0.054826	0.12593	0.13971	0.17818	0.18725	0.096636	0.026578	0.11685	-4.5104	-4.425	-5.0854	-5.1229	-4.6042	-5.1292	-5.0104	-4.9708	-5.1479	-4.5062	-5.1729	-4.9313	-4.5292	-5.2229	-4.7083	-4.8833	-20.104	45.880	113.330	155.270	180.223	-43.450	141.926	-164.385	-41.722	-47.468	-89.471	90.243	9.158	94.264	45.708	-168.911	0.00062407	0.0004513	8.6065e-05	1156.8	2.3223e-06	3.8318e-06	1226.5	248.94	5.4917e-06	4.5283e-06	308.83	85.229	67.106	19.431	3.8226e-06	27.458	0.00026166	0.00020662	5.2425e-05	1146.2	2.395e-06	2.0682e-06	1214	247.64	2.3089e-06	2.2317e-06	308.01	85.584	67.393	19.732	2.1984e-06	27.989	111.126	-83.376	-93.627	-160.744	-54.595	-16.534	-161.139	-154.159	-76.092	-41.673	-154.038	-148.359	-147.774	-140.830	-19.157	-140.899	-8191	255	
6824.387	1	1	0	0	0.17174	0.15471	0.12704	0.18266	0.26919	0.16808	0.30758	0.21854	0.096621	0.22923	0.13675	0.088814	0.071908	0.11516	0.083373	0.087829	-4.7229	-4.4896	-5.0062	-5.0604	-4.4271	-5.2271	-5.0583	-4.6188	-5.0542	-4.4771	-5.175	-5.0271	-4.6208	-5.3146	-5.0188	-4.9333	169.745	-147.459	59.169	146.983	-133.175	180.997	120.276	161.292	-150.058	-53.641	-112.514	-105.232	78.160	-102.168	183.689	170.630	0.00059764	0.00028959	8.8837e-05	1159.8	4.6132e-06	2.7491e-06	1227.4	248.87	9.6844e-06	5.29e-06	308.43	85.49	67.377	19.519	3.2335e-06	27.359	0.00025797	0.00019409	5.5238e-05	1148	2.4819e-06	1.9642e-06	1215.8	247.15	2.2607e-06	2.1771e-06	307.08	85.448	67.1	19.723	2.2148e-06	27.896	108.197	-78.559	-73.952	-160.911	-65.310	-24.502	-160.960	-154.011	-69.915	-16.968	-154.357	-148.184	-147.765	-140.626	-10.366	-140.759	-8191	255	
6824.483	1	1	0	0	0.19126	0.040158	0.039211	0.011417	0.1246	0.080667	0.15423	0.086101	0.045477	0.12553	0.016605	0.15645	0.12632	0.11841	0.11452	0.11784	-4.6521	-4.6438	-4.9062	-5.2479	-4.4938	-5.2896	-5.175	-4.7042	-5.05	-4.6396	-4.9625	-5.1021	-4.6958	-5.3	-4.8458	-4.575	70.513	-78.493	-74.354	106.058	-123.099	-55.732	-167.677	63.007	26.527	-91.648	150.649	151.944	180.263	-65.027	134.751	-123.064	0.00071753	0.00025283	9.8947e-05	1160.5	4.2165e-06	2.3994e-06	1227.1	249	8.3768e-06	2.732e-06	308.58	85.833	66.812	19.45	3.495e-06	27.47	0.00026458	0.00020291	5.1313e-05	1147.4	2.4573e-06	1.9846e-06	1213.5	247	2.22e-06	2.0753e-06	307.66	85.649	67.115	19.668	2.2034e-06	27.911	110.256	-61.812	-57.883	-160.791	-71.612	18.859	-161.130	-154.158	-60.116	-54.872	-154.389	-148.282	-147.882	-140.149	-75.215	-140.851	-8191	255	
6824.579	1	1	0	0	0.13579	0.082326	0.13012	0.44263	0.096115	0.22441	0.17376	0.10898	0.054847	0.16792	0.14422	0.12841	0.27866	0.12063	0.30031	0.15501	-4.7812	-4.4792	-4.8896	-5.3479	-4.5583	-5.0563	-5.1438	-4.6146	-5.025	-4.7354	-4.8375	-5.2771	-4.7167	-4.9417	-5.0104	-4.6833	115.665	-24.330	-148.852	159.750	-158.057	-77.861	186.974	153.136	-30.571	154.258	39.822	111.222	178.399	-130.355	58.872	22.329	0.00069376	0.0003514	0.00010408	1157.3	4.6423e-06	1.3339e-06	1220.4	248.46	4.7355e-06	1.8119e-06	308.5	85.331	66.809	19.518	3.2387e-06	27.175	0.00024993	0.00019109	5.5674e-05	1145	2.3618e-06	1.8971e-06	1210.9	246.54	2.1484e-06	1.9765e-06	306.5	85.362	66.951	19.664	1.9036e-06	27.747	110.159	-104.499	-66.243	-160.434	-90.268	5.798	-160.970	-153.971	-85.144	6.872	-154.340	-148.324	-147.661	-140.655	-37.652	-140.800	-8191	255	
#DATA ENDS
