BOXY.EXE: ISS Imagent and Oximeter Data Acquisition Program Version 0.80
Ascii Record File

#ACQ INFORMATION
2  Detector Channels 
16  External MUX Channels 
1  Auxiliary Channels 
5000  Waveform (CCF) Frequency (Hz)
1  Waveforms Skipped 
30  Waveforms Averaged 
1  Cycles Averaged 
16  Acquisitions per Waveform 
10.0806  Updata Rate (Hz) 

#FILE INFORMATION
TRUE -- External MUX Channel results are PARSED.
FALSE -- AC DC and Phase are NOT grouped.
TRUE -- Companion Program Settings File CREATED.
FALSE -- AC data not excluded
FALSE -- DC data not excluded
FALSE -- Phase data not excluded
FALSE -- Auxillary Chn. data not excluded
Tab delimiters

#CALIBRATION STATE
TRUE -- Waveform Calibration Values APPLIED.


#AUX CALIBRATION VALUES
Val Type	aux-1	

Term	1.0000e+00	
Factor	0.0000e+00	


#WF CALIBRATION VALUES
A = Detector Channel
Val Type	A-AC1	A-AC2	A-AC3	A-AC4	A-AC5	A-AC6	A-AC7	A-AC8	A-AC9	A-AC10	A-AC11	A-AC12	A-AC13	A-AC14	A-AC15	A-AC16	A-DC1	A-DC2	A-DC3	A-DC4	A-DC5	A-DC6	A-DC7	A-DC8	A-DC9	A-DC10	A-DC11	A-DC12	A-DC13	A-DC14	A-DC15	A-DC16	A-Ph1	A-Ph2	A-Ph3	A-Ph4	A-Ph5	A-Ph6	A-Ph7	A-Ph8	A-Ph9	A-Ph10	A-Ph11	A-Ph12	A-Ph13	A-Ph14	A-Ph15	A-Ph16	

Term	0.00000e+00	0.00000e+00	0.00000e+00	0.00000e+00	0.00000e+00	0.00000e+00	0.00000e+00	0.00000e+00	0.00000e+00	0.00000e+00	0.00000e+00	0.00000e+00	0.00000e+00	0.00000e+00	0.00000e+00	0.00000e+00	0.00000e+00	0.00000e+00	0.00000e+00	0.00000e+00	0.00000e+00	0.00000e+00	0.00000e+00	0.00000e+00	0.00000e+00	0.00000e+00	0.00000e+00	0.00000e+00	0.00000e+00	0.00000e+00	0.00000e+00	0.00000e+00	0.00000e+00	0.00000e+00	0.00000e+00	0.00000e+00	0.00000e+00	0.00000e+00	0.00000e+00	0.00000e+00	0.00000e+00	0.00000e+00	0.00000e+00	0.00000e+00	0.00000e+00	0.00000e+00	0.00000e+00	0.00000e+00	
Factor	1.00000e+00	1.00000e+00	1.00000e+00	1.00000e+00	1.00000e+00	1.00000e+00	1.00000e+00	1.00000e+00	1.00000e+00	1.00000e+00	1.00000e+00	1.00000e+00	1.00000e+00	1.00000e+00	1.00000e+00	1.00000e+00	1.00000e+00	1.00000e+00	1.00000e+00	1.00000e+00	1.00000e+00	1.00000e+00	1.00000e+00	1.00000e+00	1.00000e+00	1.00000e+00	1.00000e+00	1.00000e+00	1.00000e+00	1.00000e+00	1.00000e+00	1.00000e+00	X	X	X	X	X	X	X	X	X	X	X	X	X	X	X	X	

B = Detector Channel
Val Type	B-AC1	B-AC2	B-AC3	B-AC4	B-AC5	B-AC6	B-AC7	B-AC8	B-AC9	B-AC10	B-AC11	B-AC12	B-AC13	B-AC14	B-AC15	B-AC16	B-DC1	B-DC2	B-DC3	B-DC4	B-DC5	B-DC6	B-DC7	B-DC8	B-DC9	B-DC10	B-DC11	B-DC12	B-DC13	B-DC14	B-DC15	B-DC16	B-Ph1	B-Ph2	B-Ph3	B-Ph4	B-Ph5	B-Ph6	B-Ph7	B-Ph8	B-Ph9	B-Ph10	B-Ph11	B-Ph12	B-Ph13	B-Ph14	B-Ph15	B-Ph16	

Term	0.00000e+00	0.00000e+00	0.00000e+00	0.00000e+00	0.00000e+00	0.00000e+00	0.00000e+00	0.00000e+00	0.00000e+00	0.00000e+00	0.00000e+00	0.00000e+00	0.00000e+00	0.00000e+00	0.00000e+00	0.00000e+00	0.00000e+00	0.00000e+00	0.00000e+00	0.00000e+00	0.00000e+00	0.00000e+00	0.00000e+00	0.00000e+00	0.00000e+00	0.00000e+00	0.00000e+00	0.00000e+00	0.00000e+00	0.00000e+00	0.00000e+00	0.00000e+00	2.93131e+01	-1.38054e+02	-1.55137e+02	-1.83507e+02	-8.93409e+01	-7.38741e+01	-1.57185e+02	-1.62015e+02	-1.04756e+02	-8.47356e+01	-1.72626e+02	-1.72814e+02	-1.80483e+02	-1.78435e+02	-9.61728e+01	-1.51297e+02	
Factor	4.06815e-05	8.32167e-05	3.41537e-05	1.61071e-01	1.09079e-06	8.84274e-07	1.94396e-01	6.71829e-02	1.01989e-06	8.41751e-07	9.46126e-02	3.23926e-02	2.57595e-02	9.54239e-03	8.66236e-07	1.36832e-02	5.31991e-07	5.38450e-07	1.50082e-07	7.64884e-02	5.87831e-09	5.89810e-09	8.61984e-02	3.09803e-02	5.88643e-09	5.89619e-09	4.18274e-02	1.42647e-02	1.18748e-02	4.35937e-03	5.89889e-09	5.99575e-03	X	X	X	X	X	X	X	X	X	X	X	X	X	X	X	X	



#DISTANCE SETTINGS
A = Detector Channel
A-1	A-2	A-3	A-4	A-5	A-6	A-7	A-8	A-9	A-10	A-11	A-12	A-13	A-14	A-15	A-16	

2.5000e+00	3.0000e+00	2.5000e+00	3.0000e+00	2.0000e+00	3.0000e+00	1.5000e+00	3.0000e+00	3.0000e+00	3.0000e+00	3.0000e+00	3.0000e+00	3.0000e+00	3.0000e+00	1.5000e+00	3.0000e+00	

B = Detector Channel
B-1	B-2	B-3	B-4	B-5	B-6	B-7	B-8	B-9	B-10	B-11	B-12	B-13	B-14	B-15	B-16	

1.0000e+01	1.0000e+01	1.0000e+01	1.4400e+00	1.0000e+01	1.0000e+01	1.5100e+00	1.9400e+00	1.0000e+01	1.0000e+01	1.9900e+00	2.4900e+00	2.4100e+00	2.9000e+00	1.0000e+01	2.9800e+00	




#DATA BEGINS
time	group	step	mark	flag	A-AC1	A-AC2	A-AC3	A-AC4	A-AC5	A-AC6	A-AC7	A-AC8	A-AC9	A-AC10	A-AC11	A-AC12	A-AC13	A-AC14	A-AC15	A-AC16	A-DC1	A-DC2	A-DC3	A-DC4	A-DC5	A-DC6	A-DC7	A-DC8	A-DC9	A-DC10	A-DC11	A-DC12	A-DC13	A-DC14	A-DC15	A-DC16	A-Ph1	A-Ph2	A-Ph3	A-Ph4	A-Ph5	A-Ph6	A-Ph7	A-Ph8	A-Ph9	A-Ph10	A-Ph11	A-Ph12	A-Ph13	A-Ph14	A-Ph15	A-Ph16	B-AC1	B-AC2	B-AC3	B-AC4	B-AC5	B-AC6	B-AC7	B-AC8	B-AC9	B-AC10	B-AC11	B-AC12	B-AC13	B-AC14	B-AC15	B-AC16	B-DC1	B-DC2	B-DC3	B-DC4	B-DC5	B-DC6	B-DC7	B-DC8	B-DC9	B-DC10	B-DC11	B-DC12	B-DC13	B-DC14	B-DC15	B-DC16	B-Ph1	B-Ph2	B-Ph3	B-Ph4	B-Ph5	B-Ph6	B-Ph7	B-Ph8	B-Ph9	B-Ph10	B-Ph11	B-Ph12	B-Ph13	B-Ph14	B-Ph15	B-Ph16	aux-1	digaux	

8608.028	1	1	0	768	0.30946	0.13767	0.27928	0.19615	0.2519	0.14998	0.11519	0.1202	0.033715	0.17571	0.25467	0.22404	0.032063	0.22366	0.12154	0.15097	-2.4146	-3.3125	-3.4188	-3.0062	-3.5542	-3.2458	-3.2292	-3.8979	-2.9042	-3.2562	-3.6437	-2.8812	-3.6854	-3.3458	-2.95	-3.75	329.595	306.232	435.381	445.700	118.302	395.750	356.257	331.183	183.996	174.690	429.707	311.362	281.466	408.934	264.336	425.952	0.0023767	0.00034759	0.0001962	1201.8	2.8346e-06	6.3669e-06	1290.6	384.22	6.0022e-06	3.3352e-06	491.81	234.64	175.07	87.679	3.9997e-06	123.25	8.6924e-05	7.5066e-05	2.058e-05	1074.5	7.3002e-07	8.4065e-07	1140.8	336.31	7.7486e-07	8.9132e-07	421.83	199.95	151.25	76.24	8.6647e-07	104.94	331.275	178.566	151.833	101.776	227.170	222.095	100.566	107.603	185.542	272.876	105.387	109.747	111.798	115.807	188.423	112.528	-8191	255	
8608.124	1	1	0	0	0.1002	0.16814	0.15019	0.08232	0.04046	0.22278	0.068407	0.19779	0.21308	0.19342	0.15244	0.16665	0.10089	0.33683	0.19195	0.4486	-2.6375	-3.3021	-3.4479	-3.1604	-3.4333	-3.2396	-3.125	-3.6896	-3.0021	-3.0979	-3.6083	-3.0729	-3.7125	-3.4958	-2.9542	-3.7896	361.643	448.333	101.837	416.479	416.133	133.586	309.182	100.581	104.315	304.720	385.880	98.882	430.285	435.752	103.991	399.833	0.0024714	0.00033286	0.00028198	1205.8	5.321e-06	3.8887e-06	1288.1	383.45	5.9282e-06	2.6949e-06	491.16	233.82	175.38	88.007	5.7822e-06	123.9	9.7111e-05	8.416e-05	2.0759e-05	1074.6	8.2944e-07	9.1953e-07	1137.7	335.45	8.5792e-07	9.2027e-07	422.25	199.48	151.57	76.245	8.5279e-07	105.09	327.516	128.852	149.467	101.580	246.961	211.719	100.759	107.947	208.858	168.031	105.617	109.628	111.830	115.700	193.504	112.545	-8191	255	
8608.220	1	1	0	0	0.19947	0.20026	0.23806	0.080533	0.13919	0.22566	0.18929	0.30042	0.098514	0.17103	0.14586	0.16305	0.12937	0.30913	0.15643	0.25054	-2.7896	-3.0542	-3.4938	-3.0458	-3.4062	-3.3521	-3.0583	-3.6375	-3.2229	-3.2604	-3.8146	-3.1479	-3.5125	-3.7542	-2.8271	-3.9708	370.325	139.900	198.369	360.245	335.518	95.121	342.561	339.460	302.367	265.586	93.822	386.831	301.617	408.871	101.244	369.391	0.0026167	0.00066294	0.00013666	1199.2	4.2589e-06	3.5587e-06	1279.8	383.88	6.8475e-06	1.5411e-06	492.18	234.54	175.25	87.884	4.0893e-06	124.88	0.00010572	8.275e-05	2.0546e-05	1075.1	9.0755e-07	8.8584e-07	1136.4	335.36	9.1039e-07	8.7759e-07	422.34	200.08	151.64	76.378	8.4212e-07	105.9	326.789	180.680	148.444	101.888	229.018	235.952	100.507	107.851	197.269	169.330	105.284	109.569	111.803	115.674	226.999	112.731	-8191	255	
8608.317	1	1	0	0	0.15594	0.20368	0.17299	0.16151	0.15938	0.17905	0.073241	0.15739	0.11061	0.19718	0.12513	0.19911	0.17588	0.29857	0.086248	0.32546	-2.8146	-3.175	-3.375	-3.2	-3.1604	-3.5958	-3.0354	-3.7042	-3.3042	-2.8708	-3.7979	-3.2146	-3.4938	-3.725	-2.9458	-3.6688	172.442	173.101	232.748	338.099	94.194	439.554	365.146	351.032	423.817	115.095	386.244	141.580	435.996	448.134	249.962	386.484	0.0025472	0.00047019	0.00027736	1201.1	5.2055e-06	3.6902e-06	1289.8	384.07	6.178e-06	5.8226e-06	492.18	235.57	175.96	88.682	3.6931e-06	125.35	0.00011106	8.2636e-05	2.0758e-05	1078	9.7156e-07	8.7778e-07	1141.7	336.2	9.7831e-07	8.7212e-07	424.06	201.19	152.35	76.956	8.0555e-07	106.77	328.793	195.261	157.420	101.731	239.968	248.673	100.667	107.935	187.052	195.777	105.397	109.282	111.894	115.644	197.056	112.517	-8191	255	
8608.411	1	1	0	0	0.073264	0.2329	0.21502	0.32843	0.11892	0.19871	0.043857	0.17231	0.14111	0.13032	0.11075	0.13071	0.3344	0.31685	0.22794	0.44076	-3.0229	-2.8937	-3.6854	-3.3708	-3.2146	-3.4792	-3.0354	-3.6375	-3.5396	-2.9958	-3.7562	-3.3229	-3.2833	-3.7562	-3.1146	-3.6104	361.947	108.818	220.979	407.606	270.056	274.786	242.521	145.805	118.699	123.943	344.322	340.350	414.293	417.888	295.635	365.257	0.0025182	0.00029435	8.9966e-05	1205.6	6.5753e-06	1.9018e-06	1291	384.9	8.3694e-06	2.9329e-06	491.6	235.59	175.99	88.649	5.5538e-06	124.58	0.00011217	7.8062e-05	2.0222e-05	1079.6	9.4716e-07	8.3769e-07	1143.4	336.66	9.2535e-07	8.1736e-07	423.98	201.52	151.84	76.806	8.0519e-07	106.06	326.869	154.098	171.394	101.828	228.343	202.422	101.042	107.579	194.371	282.140	105.102	109.637	111.823	115.638	237.058	112.365	-8191	255	
8608.509	1	1	0	0	0.036503	0.050441	0.071046	0.11138	0.23046	0.19204	0.094659	0.37355	0.062136	0.082912	0.090459	0.25688	0.10866	0.42923	0.08513	0.12814	-3.0875	-2.8625	-3.6583	-3.2479	-3.2375	-3.6729	-3.3312	-3.4229	-3.4562	-3.1333	-3.7271	-3.4792	-3.1417	-3.7833	-2.9729	-3.5208	423.849	255.616	182.918	384.088	319.247	240.692	382.697	359.743	398.946	127.402	319.787	415.158	97.391	433.599	409.550	383.900	0.0025077	0.00049651	0.00015168	1206.4	5.273e-06	3.3847e-06	1293.3	384.07	5.0822e-06	5.9367e-06	493.5	235.17	176.24	88.336	4.0379e-06	124.12	0.0001046	7.4745e-05	1.9671e-05	1080.5	8.9386e-07	7.8862e-07	1142.7	336.9	8.5335e-07	7.7569e-07	424.56	200.99	151.91	76.565	8.1027e-07	105.82	328.711	182.544	133.180	101.622	225.047	224.757	100.621	107.871	209.953	195.189	105.785	109.535	111.858	115.748	234.874	112.617	-8191	255	
8608.628	1	1	0	0	0.10038	0.10606	0.11113	0.2906	0.13863	0.17028	0.15818	0.077424	0.13178	0.060709	0.19756	0.053546	0.16238	0.099571	0.21016	0.31993	-3.0896	-2.9917	-3.5396	-3.3729	-3.0312	-3.8292	-3.0812	-3.2313	-3.5229	-2.9083	-3.5542	-3.4979	-3.1125	-3.8708	-3.1667	-3.3812	352.947	410.268	435.257	392.115	299.561	445.052	394.202	252.187	283.102	343.157	330.827	128.399	139.115	232.373	299.655	422.004	0.0024201	0.000352	0.00024806	1207	3.6162e-06	3.8259e-06	1294.7	386.56	5.3603e-06	3.8764e-06	493.97	236.01	176.18	88.204	5.8137e-06	124.96	9.7967e-05	7.0166e-05	2.0676e-05	1081	8.2689e-07	7.6189e-07	1145.3	338.14	8.4594e-07	7.9376e-07	426.09	202.02	152.16	76.507	9.1463e-07	106.26	329.845	188.689	124.998	101.902	261.625	212.318	100.933	107.766	191.175	225.122	105.554	109.550	111.889	115.523	211.515	112.473	-8191	255	
8608.724	1	1	0	0	0.35445	0.012809	0.15347	0.19558	0.28447	0.1328	0.10817	0.2936	0.1188	0.23149	0.21193	0.37797	0.16857	0.17813	0.14454	0.13641	-3.2792	-2.8417	-3.3646	-3.5396	-2.9229	-3.8021	-3.4958	-3.1	-3.6667	-2.9708	-3.5312	-3.5708	-3.1333	-3.7188	-3.2687	-3.3438	175.425	430.217	245.547	375.848	217.789	115.898	193.303	310.698	144.349	447.568	372.295	390.562	105.007	420.957	162.991	404.131	0.0026625	0.0005043	0.00011688	1207.7	2.6967e-06	2.6717e-06	1286.6	383.99	4.4873e-06	3.6133e-06	495.82	237.19	176.95	88.947	4.5871e-06	125.45	0.00010063	7.2973e-05	2.3047e-05	1083.5	8.5714e-07	8.0591e-07	1147.3	337.66	8.8171e-07	8.5077e-07	428.04	202.84	152.61	77.058	1.0893e-06	106.86	331.147	182.737	145.425	101.871	189.882	247.777	100.722	107.861	195.835	240.483	105.757	109.616	111.679	115.886	213.480	112.637	-8191	255	
8608.820	1	1	0	0	0.25874	0.38299	0.28818	0.15271	0.15916	0.17493	0.27763	0.37165	0.16571	0.28793	0.32026	0.21007	0.20294	0.24487	0.20209	0.28751	-3.2771	-3.0146	-3.3979	-3.6917	-3.0083	-3.6083	-3.4083	-3.3729	-3.7229	-2.9917	-3.3917	-3.7458	-2.9437	-3.7604	-3.1896	-3.0312	195.627	416.954	177.008	100.026	230.834	375.409	386.650	407.273	145.512	347.180	346.232	416.460	384.748	421.387	355.499	390.829	0.002617	0.00053418	0.00010001	1209.7	6.7791e-06	4.3975e-06	1294.9	384.22	4.7773e-06	4.7329e-06	494.77	236.25	176.17	88.418	6.1135e-06	124.63	0.00010858	8.6399e-05	2.7998e-05	1085.5	9.5949e-07	9.519e-07	1152.7	337.12	9.5166e-07	1.0032e-06	427.36	202.06	152.25	76.913	1.1953e-06	106.22	330.180	153.107	147.457	101.669	241.314	263.868	100.598	107.621	219.272	194.612	105.667	109.582	111.792	115.848	212.472	112.428	-8191	255	
8608.916	1	1	0	0	0.091354	0.23067	0.030335	0.34012	0.09452	0.22071	0.14239	0.29269	0.14071	0.17238	0.23513	0.28568	0.37686	0.099124	0.13429	0.24107	-3.4458	-3.2938	-3.1042	-3.6458	-2.9229	-3.5646	-3.6917	-3.1375	-3.5312	-3.1521	-3.3604	-3.725	-3.1146	-3.5625	-3.5563	-3.0729	145.425	449.523	378.244	372.134	333.126	202.753	433.968	308.478	421.054	153.798	90.429	97.652	428.192	405.840	218.386	389.845	0.002609	0.00040731	0.00026513	1203.1	3.7542e-06	3.2458e-06	1287.2	382.51	4.2825e-06	5.0176e-06	492.05	234.51	175.13	88.489	7.8333e-06	124.17	0.00011418	0.00010109	3.0385e-05	1084.2	1.0116e-06	1.1102e-06	1145.4	335.6	9.9739e-07	1.1356e-06	424.7	200.82	151.64	76.799	1.1728e-06	106.07	329.796	143.243	132.779	101.637	235.966	234.120	100.647	107.800	213.331	211.709	105.595	109.486	112.037	115.748	202.362	112.768	-8191	255	
8609.012	1	1	0	0	0.12235	0.23691	0.16021	0.062142	0.21604	0.16709	0.26637	0.50123	0.096722	0.16676	0.081245	0.1031	0.4723	0.16118	0.13572	0.21065	-3.2521	-2.95	-3.2562	-3.825	-2.9313	-3.5167	-3.4938	-3.0938	-3.55	-3.3271	-3.2167	-3.7458	-3.2125	-3.5417	-3.6625	-3.0125	327.312	104.719	324.854	305.489	407.388	372.839	394.515	333.121	237.006	155.936	155.235	193.915	395.876	379.341	382.575	345.598	0.0025362	0.0004975	0.00015036	1205.6	9.3027e-06	4.0194e-06	1284.8	383.79	7.3866e-06	7.0533e-06	494.21	235.83	175.97	88.6	7.6207e-06	124.15	0.00011435	0.00010702	2.8862e-05	1083.6	9.9832e-07	1.1426e-06	1145.8	336.61	9.8531e-07	1.1569e-06	425.73	201.39	151.97	76.885	1.0571e-06	106.11	326.949	141.869	180.216	101.697	171.497	215.680	100.889	107.830	196.006	208.255	105.294	109.385	111.627	115.848	194.473	112.522	-8191	255	
8609.108	1	1	0	0	0.09013	0.10812	0.17681	0.23436	0.024734	0.1453	0.10828	0.22534	0.08827	0.067076	0.22239	0.057568	0.196	0.1925	0.040207	0.15803	-3.0396	-3.1125	-2.9958	-3.7812	-3.0917	-3.2833	-3.6688	-3.0646	-3.5333	-3.35	-3.1542	-3.975	-3.3542	-3.5167	-3.5729	-3.3312	381.681	138.602	273.145	429.415	242.000	102.627	379.106	380.070	249.016	356.364	329.853	434.883	100.711	436.989	174.143	407.528	0.002622	0.000422	0.00016542	1208.4	7.5392e-06	4.7423e-06	1301.8	386.82	5.5148e-06	5.3401e-06	496.38	238.48	177.37	88.89	5.8769e-06	125.47	0.00011747	0.00010323	2.7066e-05	1085	1.0527e-06	1.1758e-06	1151.5	338.38	1.0707e-06	1.145e-06	428.2	203.05	153.38	77.137	1.0374e-06	106.76	328.642	183.860	164.779	101.763	222.567	188.192	100.812	107.677	217.232	210.162	105.288	109.445	111.775	115.747	216.770	112.435	-8191	255	
8609.205	1	1	0	0	0.21448	0.13369	0.23224	0.27171	0.14725	0.012892	0.34269	0.23961	0.17852	0.22946	0.25791	0.21621	0.35331	0.32588	0.15536	0.39442	-2.9688	-3.3583	-2.9938	-3.65	-3.0958	-3.0792	-3.7438	-2.9521	-3.3729	-3.5146	-3.1458	-3.6833	-3.2854	-3.3937	-3.7458	-3.1396	356.155	132.767	242.808	108.414	192.846	399.551	390.469	428.066	161.370	147.781	97.457	429.410	96.923	108.263	274.958	405.471	0.002703	0.00031379	0.00013199	1205	8.3086e-06	5.4073e-06	1295.6	382.99	6.4809e-06	2.1039e-06	493.42	236.09	177.31	88.868	2.7855e-06	124.83	0.00012363	0.00010314	2.6267e-05	1084.6	1.1488e-06	1.1281e-06	1149.1	337.31	1.1415e-06	1.1012e-06	426.36	202.21	153.13	77.003	9.9613e-07	106.43	327.836	178.351	155.738	101.753	193.287	248.643	100.495	107.771	175.801	190.456	105.428	109.330	111.792	115.779	211.796	112.454	-8191	255	
8609.323	1	1	0	0	0.078736	0.21111	0.11906	0.21971	0.1983	0.090797	0.18757	0.12872	0.05541	0.081143	0.28061	0.29345	0.1772	0.41296	0.11105	0.31839	-2.8812	-3.5312	-2.6833	-3.675	-3.1729	-3.1937	-3.7354	-3.2	-3.5375	-3.6229	-2.9792	-3.5729	-3.3771	-3.0479	-3.6979	-3.3646	436.292	187.391	380.576	374.548	290.428	287.038	322.946	431.687	253.402	408.313	429.485	411.618	427.654	425.482	434.179	364.720	0.0024154	0.00035303	0.00015638	1206.1	5.6688e-06	4.341e-06	1293.2	384.26	7.6398e-06	4.7059e-06	492.61	236.62	177.12	88.215	5.5522e-06	124.14	0.00012971	9.9612e-05	2.6045e-05	1083	1.2279e-06	1.1063e-06	1147.8	336.95	1.2403e-06	1.1161e-06	425.81	202.11	153.11	76.752	1.0647e-06	105.97	327.057	150.593	143.489	101.734	220.098	221.690	100.857	107.691	194.691	233.864	105.358	109.479	111.660	115.751	222.399	112.361	-8191	255	
8609.420	1	1	0	0	0.31625	0.10976	0.082951	0.27887	0.15471	0.014089	0.31622	0.080374	0.28727	0.25572	0.17201	0.075503	0.2308	0.085193	0.066118	0.1643	-2.6625	-3.6042	-3.1562	-3.5979	-3.3063	-3.1333	-3.6604	-3.1729	-3.2562	-3.7208	-3.0917	-3.6813	-3.3354	-3.1479	-3.5604	-3.3458	104.295	153.143	197.169	388.924	169.040	108.269	377.999	228.580	287.759	434.521	418.951	193.964	385.641	92.046	320.741	429.176	0.002772	0.00020806	0.0001572	1207.3	1.6002e-06	4.6215e-06	1290	384.37	7.2215e-06	3.666e-06	494.03	234.83	175.04	88.107	7.9157e-06	124.28	0.0001413	0.00010194	2.6874e-05	1086.9	1.2695e-06	1.1167e-06	1146.7	338.18	1.259e-06	1.1e-06	426.63	202.27	152.44	76.712	1.0774e-06	106.14	328.767	171.529	98.000	101.795	264.512	236.281	100.867	107.587	222.465	169.898	105.526	109.650	111.853	115.844	208.615	112.425	-8191	255	
8609.516	1	1	0	0	0.27353	0.28856	0.059402	0.15114	0.10136	0.13897	0.17369	0.10511	0.26096	0.19201	0.18123	0.074489	0.097568	0.57014	0.089315	0.2131	-2.6229	-3.525	-2.7729	-3.4333	-3.2875	-2.8875	-3.8667	-3.2854	-3.1896	-3.7917	-2.925	-3.425	-3.6063	-2.8979	-3.5667	-3.5938	269.059	152.735	145.907	106.770	142.769	438.397	333.451	113.875	241.353	289.590	178.281	158.220	433.055	439.100	445.429	91.139	0.0024639	0.00056638	0.00025574	1203	5.1372e-06	3.6445e-06	1289.1	387.07	4.3544e-06	1.7353e-06	495.07	236.98	176.43	88.14	5.6278e-06	124.37	0.00013846	0.00010259	2.8308e-05	1086.9	1.2293e-06	1.0925e-06	1147	339.68	1.2025e-06	1.0735e-06	426.53	203.06	152.77	76.646	1.0933e-06	106.28	325.926	174.192	172.870	101.782	225.217	232.725	100.817	107.699	222.256	183.466	105.472	109.522	111.792	115.507	230.682	112.635	-8191	255	
8609.589	1	1	0	0	0.071552	0.15059	0.10884	0.20812	0.1889	0.26361	0.18804	0.3449	0.13387	0.12876	0.25016	0.10879	0.22133	0.076972	0.18789	0.31625	-2.6375	-3.6333	-2.875	-3.4917	-3.4375	-2.8542	-3.6917	-3.4604	-2.9188	-3.6333	-3.3896	-3.3688	-3.7771	-3.2479	-3.4979	-3.5187	162.649	110.809	342.189	425.147	292.806	358.119	415.831	395.913	327.357	299.703	96.869	269.625	419.508	113.537	371.252	344.650	0.0025733	0.00071118	0.00025102	1206.3	8.2256e-06	5.7397e-07	1298.7	385.29	5.2742e-06	1.1494e-06	495.84	236.32	175.66	88.336	7.6852e-06	124.21	0.00012784	9.5354e-05	2.9082e-05	1086.7	1.1326e-06	1.0656e-06	1150.6	339.37	1.1444e-06	1.0475e-06	428.08	202.76	152.46	76.53	1.2117e-06	105.99	327.433	184.108	149.019	101.780	220.202	180.484	100.742	107.632	208.283	260.852	105.360	109.298	111.820	115.584	205.103	112.328	-8191	255	
8609.708	1	1	0	0	0.16818	0.14638	0.021707	0.074356	0.18545	0.21592	0.086617	0.16157	0.14293	0.26955	0.1573	0.28011	0.11034	0.25867	0.13025	0.21159	-2.4833	-3.5896	-3.1375	-3.3875	-3.4958	-2.9479	-3.4833	-3.5292	-2.925	-3.6562	-3.35	-3.2208	-3.5917	-3.0896	-3.2958	-3.6729	113.279	381.324	376.282	96.896	112.434	298.289	90.881	403.525	231.341	401.277	151.192	437.400	374.657	398.600	287.887	366.604	0.0026233	0.00047985	0.00019266	1206.8	6.3648e-06	3.5474e-06	1288.1	383.63	5.1679e-06	3.207e-06	489.86	233.86	175.06	87.12	2.1861e-06	122.81	0.00012705	9.68e-05	3.1098e-05	1085.1	1.1228e-06	1.0667e-06	1146.1	338.08	1.1192e-06	1.0638e-06	424.87	200.68	151.59	75.899	1.2773e-06	104.72	325.192	196.177	169.201	101.699	221.024	228.287	100.794	107.780	209.439	200.799	105.319	109.760	111.963	115.576	210.005	112.397	-8191	255	
8609.804	1	1	0	0	0.13251	0.15007	0.20667	0.089063	0.014438	0.093783	0.016731	0.262	0.113	0.15861	0.085561	0.26703	0.17023	0.31257	0.041925	0.2946	-2.4854	-3.4583	-3.2042	-3.3854	-3.725	-3.2188	-3.4917	-3.6	-2.9042	-3.5312	-3.3146	-3.1125	-3.85	-3.2062	-3.3	-3.7958	347.894	284.828	438.291	315.335	160.286	411.948	135.538	268.930	101.373	153.496	258.322	430.118	111.801	384.799	415.633	434.753	0.0026225	0.00033052	0.00031363	1202.8	4.8913e-06	5.3318e-06	1294.5	382.71	4.4043e-06	2.5589e-06	486.01	234.03	175.08	87.151	4.5519e-06	122.3	0.0001242	0.00010079	3.2932e-05	1082.8	1.1193e-06	1.1299e-06	1148.1	337.3	1.1095e-06	1.145e-06	423.14	200.3	151.47	75.809	1.3108e-06	104.32	332.889	134.669	149.420	101.616	196.135	210.028	100.674	107.622	203.169	250.544	105.481	109.602	111.812	115.753	239.735	112.396	-8191	255	
8609.900	1	1	0	0	0.16652	0.12459	0.18369	0.29464	0.040606	0.094666	0.1397	0.077821	0.15357	0.17584	0.072929	0.28427	0.29805	0.039431	0.08922	0.17839	-2.4188	-3.5917	-3.2521	-3.2083	-3.6688	-3.1937	-3.2021	-3.5771	-2.9979	-3.6667	-3.5875	-3.1167	-3.8604	-3.2896	-3.1104	-3.7979	196.407	401.538	105.838	97.459	193.081	203.144	354.429	440.845	349.052	180.286	363.996	425.689	430.866	394.246	429.369	397.065	0.0025496	0.00027833	0.00011192	1205	7.455e-06	3.9801e-06	1279.6	382.39	8.7578e-06	4.5408e-06	485.33	232.46	174.46	86.862	4.4673e-06	122.45	0.00012437	0.00011212	3.2954e-05	1082.2	1.0938e-06	1.2305e-06	1143.4	336.87	1.1029e-06	1.2374e-06	422.76	199.39	150.87	75.722	1.2596e-06	104.34	330.324	155.464	125.382	101.723	220.128	239.137	100.409	107.723	228.842	207.318	105.567	109.623	111.936	115.575	199.495	112.484	-8191	255	
8609.997	1	1	0	0	0.048265	0.060464	0.073094	0.19555	0.043423	0.11918	0.17856	0.33455	0.154	0.16172	0.2395	0.17249	0.095429	0.23806	0.17303	0.41841	-2.6063	-3.5083	-3.4125	-3.2896	-3.5167	-3.2292	-3.2062	-3.6833	-3.2875	-3.3542	-3.6542	-3.0854	-3.6958	-3.4333	-3.1708	-3.7667	270.411	104.619	95.781	118.447	210.082	146.667	368.916	393.857	181.713	124.524	440.962	379.654	406.784	428.329	391.235	412.765	0.0026093	0.00032971	0.00021819	1207	5.3818e-06	5.6705e-06	1288.7	383.86	7.6638e-06	3.1528e-06	488.86	233.47	174.26	87.044	5.4768e-06	122.22	0.00012151	0.00011429	3.0918e-05	1080.8	1.0712e-06	1.2843e-06	1145.3	337	1.1424e-06	1.3028e-06	424.25	200.05	151.19	75.739	1.2345e-06	104.31	331.387	179.563	187.946	101.724	200.413	235.669	100.680	108.107	208.962	153.985	105.625	109.480	111.762	115.535	206.303	112.584	-8191	255	
8610.117	1	1	0	0	0.11071	0.1896	0.047324	0.2243	0.11505	0.29498	0.13623	0.28452	0.24736	0.11321	0.17036	0.27893	0.14059	0.15103	0.09649	0.30723	-2.6208	-3.3125	-3.4792	-2.975	-3.4479	-3.3417	-2.8292	-3.875	-3.0375	-3.4458	-3.5687	-3.0083	-3.6667	-3.55	-2.8167	-3.95	367.213	387.031	176.391	394.740	322.021	312.786	138.594	345.560	121.378	195.213	409.961	317.171	414.363	396.926	203.956	354.880	0.0026702	0.00076303	7.0616e-05	1199.8	6.7397e-06	7.3171e-06	1286	382.39	3.7136e-06	5.1307e-06	486	231.61	174.2	86.26	6.1924e-06	120.88	0.00013136	0.00012281	3.0712e-05	1079.8	1.2265e-06	1.3651e-06	1140.8	336.23	1.2583e-06	1.3526e-06	420.14	198.77	150.94	75.29	1.2447e-06	103.39	331.021	131.037	195.286	101.750	230.654	232.881	100.948	107.825	169.496	232.401	105.607	109.656	111.936	115.647	212.098	112.544	-8191	255	
8610.189	1	1	0	0	0.23238	0.046409	0.14365	0.08361	0.19525	0.19551	0.043516	0.24847	0.34374	0.12147	0.28339	0.19877	0.023343	0.25791	0.16804	0.292	-2.8729	-3.1083	-3.5854	-3.2042	-3.4708	-3.4458	-3.1208	-3.8521	-3.3146	-3.0833	-3.8229	-2.9708	-3.5583	-3.8292	-2.9896	-3.7792	132.254	178.354	356.211	392.353	423.012	344.290	132.616	402.158	126.609	220.757	359.641	437.836	93.553	444.812	339.814	445.134	0.0025396	0.00020175	0.00026807	1196.7	9.1674e-06	6.2493e-06	1283	380.39	7.0932e-06	6.7409e-06	483.51	232.02	173.6	86.297	6.9752e-06	121.44	0.00014267	0.000123	3.0574e-05	1075.8	1.3555e-06	1.349e-06	1137.7	335.03	1.3809e-06	1.3381e-06	418.69	198.67	150.53	75.206	1.2014e-06	103.41	332.127	261.994	159.550	101.893	217.649	224.387	100.742	107.896	173.778	183.565	105.207	109.617	111.714	115.558	192.591	112.374	-8191	255	
8610.309	1	1	0	0	0.061536	0.14916	0.038389	0.11663	0.21874	0.23297	0.31484	0.11489	0.15069	0.045686	0.14889	0.21047	0.32621	0.17605	0.084355	0.31377	-2.8083	-3.0146	-3.575	-3.225	-3.4396	-3.4729	-3.0229	-3.7417	-3.2938	-2.9479	-3.7042	-3.1042	-3.4146	-3.6125	-2.8958	-3.7542	265.948	360.423	133.606	109.789	407.516	211.187	361.962	341.632	259.505	266.320	347.040	445.748	374.778	439.935	199.103	410.309	0.0025912	0.00062594	6.1329e-05	1193.2	7.3749e-06	3.7631e-06	1274.5	384.12	8.3565e-06	8.2049e-07	484.11	231.09	174.46	86.341	6.2117e-06	121.59	0.00014552	0.00011355	2.8663e-05	1074.3	1.3555e-06	1.1965e-06	1135.4	335.85	1.3152e-06	1.167e-06	418.15	198.52	150.59	75.182	1.0642e-06	103.82	325.361	153.345	176.522	101.953	212.745	274.763	100.685	107.559	214.868	247.230	105.504	109.744	111.859	115.743	228.977	112.311	-8191	255	
8610.406	1	1	0	0	0.070411	0.19776	0.3051	0.065403	0.17535	0.054031	0.27408	0.18354	0.12945	0.22641	0.17278	0.34104	0.10402	0.1658	0.19554	0.31571	-2.8187	-2.9792	-3.6375	-3.1437	-3.1708	-3.5792	-3.125	-3.5271	-3.2729	-3.0229	-3.8271	-3.2313	-3.2167	-3.8438	-3.0083	-3.5771	137.791	263.760	151.944	444.103	253.158	413.958	429.155	119.690	415.067	282.933	430.267	358.974	320.347	393.681	218.495	369.249	0.0024828	0.0004186	0.0001184	1190.8	4.3357e-06	2.7032e-06	1283.4	381.04	4.9318e-06	5.1329e-06	487.5	232.88	173.84	86.595	4.9789e-06	122.36	0.00013416	9.9747e-05	2.5228e-05	1072.2	1.2038e-06	1.0371e-06	1136.7	335.31	1.1641e-06	1.0554e-06	419.66	199.23	150.51	75.332	1.0265e-06	104.23	327.041	207.275	186.367	101.773	227.396	238.293	100.740	107.789	227.426	221.274	105.432	109.299	112.092	115.751	229.777	112.474	-8191	255	
8610.500	1	1	0	0	0.14596	0.18412	0.05324	0.21679	0.27023	0.11957	0.20422	0.17739	0.24821	0.068264	0.088202	0.30745	0.14435	0.15829	0.080222	0.28954	-2.9375	-2.9938	-3.5292	-3.5083	-3.0708	-3.8167	-3.0458	-3.3812	-3.5792	-2.8229	-3.5958	-3.3854	-3.1458	-3.8354	-3.0875	-3.3542	416.795	124.620	369.527	110.963	132.328	374.971	426.337	344.491	151.018	278.904	345.852	428.496	390.414	119.938	248.932	413.427	0.0024834	0.00035728	0.00016337	1197.1	5.4538e-06	3.55e-06	1277.2	380.77	4.5094e-06	2.9579e-06	486.28	231.78	173.35	86.365	5.7368e-06	121.58	0.00012831	9.8021e-05	2.6241e-05	1076.3	1.1693e-06	1.0426e-06	1135.3	335.59	1.1724e-06	1.078e-06	419.52	198.8	150.3	74.977	1.0962e-06	103.57	328.600	175.764	182.513	101.715	236.008	243.188	100.937	107.780	205.252	223.969	105.606	109.598	111.902	115.695	187.971	112.563	-8191	255	
8610.596	1	1	0	0	0.051555	0.023429	0.35658	0.076171	0.11115	0.13332	0.057505	0.18038	0.21278	0.17621	0.0491	0.19714	0.14997	0.22066	0.18135	0.3343	-3.1021	-2.9521	-3.5875	-3.4271	-3.125	-3.5979	-3.2938	-3.3229	-3.7292	-3.1063	-3.7125	-3.4021	-3.2083	-3.7062	-3.0875	-3.4167	330.107	434.940	206.203	117.298	362.953	308.341	139.382	421.698	153.452	181.218	384.988	101.054	208.670	397.714	309.084	375.897	0.0024602	0.00032425	0.00014884	1193.2	9.3836e-06	3.0503e-06	1277.2	381.43	3.7564e-06	5.8052e-06	485.38	230.42	173.16	86.665	3.727e-06	121.82	0.00012166	9.2195e-05	2.6969e-05	1073.6	1.0724e-06	9.7288e-07	1134.2	334.06	1.0221e-06	9.5964e-07	417.45	197.7	149.94	75.047	1.1055e-06	103.74	328.775	208.298	142.174	101.949	201.216	262.792	100.659	107.613	156.868	217.459	105.723	109.441	111.616	115.883	226.412	112.472	-8191	255	
8610.717	1	1	0	0	0.031635	0.15037	0.14486	0.25461	0.2279	0.16837	0.29329	0.25394	0.16626	0.051423	0.20317	0.14875	0.10144	0.24292	0.045382	0.19782	-3.2875	-2.8583	-3.4021	-3.3708	-3.1125	-3.6833	-3.275	-3.2833	-3.5104	-3.1396	-3.5625	-3.5938	-3.1125	-3.8312	-3.1271	-3.3812	133.550	176.684	154.972	424.607	335.384	299.780	369.749	315.702	327.189	147.765	258.975	447.162	445.748	441.790	362.068	258.147	0.0025756	0.00038466	0.00017265	1192.8	5.4743e-06	2.7593e-06	1281.8	383.03	5.1525e-06	5.9451e-06	488.16	232.73	174.1	87.182	5.1e-06	123.44	0.00011416	8.569e-05	2.6797e-05	1072.9	9.6009e-07	8.7794e-07	1135.7	334.49	9.0322e-07	8.7011e-07	420.77	198.61	150.3	75.739	1.0545e-06	105.31	329.394	182.202	174.493	101.642	229.422	240.160	100.736	107.846	209.880	205.920	105.314	109.546	111.603	115.663	201.564	112.486	-8191	255	
8610.813	1	1	0	0	0.080788	0.013388	0.31325	0.48506	0.048801	0.032723	0.1858	0.14448	0.123	0.10745	0.036462	0.16905	0.19048	0.23406	0.07671	0.291	-3.2729	-3.0708	-3.3854	-3.6146	-2.8208	-3.5417	-3.3417	-3.3167	-3.5396	-3.0896	-3.4083	-3.6875	-2.9958	-3.6083	-3.3688	-3.2646	257.482	169.000	150.422	425.330	141.933	300.887	115.904	280.717	124.797	117.331	237.564	406.814	418.489	444.573	431.045	419.105	0.0025379	0.00046019	0.000167	1200.4	3.382e-06	6.4382e-06	1297.9	386.18	6.1373e-06	8.5531e-08	493.71	236.25	176.94	88.53	7.2032e-06	125.42	0.00010551	8.2617e-05	2.6564e-05	1078.4	9.0791e-07	9.0235e-07	1149.5	337.99	8.895e-07	9.3788e-07	426.87	201.99	152.59	76.808	1.0709e-06	106.79	329.119	143.572	152.596	101.915	221.262	241.738	100.795	107.652	190.300	396.412	105.661	109.579	111.693	115.716	219.772	112.699	-8191	255	
8610.909	1	1	0	0	0.048645	0.11116	0.24874	0.089561	0.2413	0.15561	0.038894	0.045281	0.072778	0.33398	0.27411	0.247	0.32069	0.16909	0.080122	0.37571	-3.1562	-3.1542	-3.2271	-3.7958	-2.8917	-3.5042	-3.6146	-3.0896	-3.6229	-3.0771	-3.3479	-3.6979	-3.1583	-3.6375	-3.5292	-3.1229	364.360	111.234	139.994	418.000	314.533	103.504	301.906	395.051	117.888	435.412	372.201	428.963	372.102	443.687	282.239	375.585	0.0026649	0.000526	0.0002373	1215	6.8946e-06	5.1065e-06	1299.1	385.15	8.5183e-06	4.5484e-06	496.09	236.77	175.54	88.441	6.7269e-06	124.23	0.00010516	9.2083e-05	2.7037e-05	1086.9	9.3082e-07	1.0134e-06	1153.7	338.03	8.9533e-07	1.0519e-06	428.13	201.74	151.94	76.719	1.037e-06	106.02	329.557	171.561	139.097	101.541	236.820	218.714	100.637	107.764	209.348	256.842	105.507	109.465	111.677	115.718	213.676	112.753	-8191	255	
8611.005	1	1	0	0	0.23826	0.08111	0.14892	0.39605	0.18138	0.3653	0.068633	0.17087	0.040323	0.24668	0.2491	0.33782	0.47605	0.14222	0.067832	0.13038	-3.2146	-3.1229	-3.0792	-3.6437	-3.0083	-3.3688	-3.6521	-2.975	-3.4833	-3.3063	-3.3	-3.7188	-3.0687	-3.4833	-3.425	-3.1604	292.002	344.605	170.198	91.379	382.423	359.650	338.866	377.888	212.969	347.842	391.937	399.546	380.103	361.886	303.405	420.609	0.0027217	0.0003839	0.00012241	1204.6	5.4933e-06	5.2238e-06	1296.3	382.31	7.4847e-06	3.2732e-06	490.77	234.71	176.42	88.494	5.0796e-06	124.55	0.00010448	9.4587e-05	2.6019e-05	1081.5	9.182e-07	1.0782e-06	1148.1	336.11	9.4303e-07	1.1166e-06	425.12	201.09	151.77	76.881	1.0443e-06	106.23	329.014	147.104	446.126	101.804	215.425	188.969	100.608	107.530	202.055	234.535	105.671	109.509	111.856	115.773	220.041	112.561	-8191	255	
8611.101	1	1	0	0	0.17298	0.06413	0.33713	0.053887	0.23926	0.15362	0.23968	0.32602	0.14833	0.14613	0.23985	0.18106	0.4119	0.35958	0.10595	0.35396	-3.0708	-3.3167	-3.0354	-3.9437	-3.0438	-3.2958	-3.6292	-2.9458	-3.4417	-3.3187	-3.0479	-3.8146	-3.1958	-3.3812	-3.5604	-3.0354	443.768	408.212	440.023	379.915	413.099	151.496	379.990	441.252	236.609	287.796	148.452	405.043	442.447	432.466	358.716	358.674	0.0027756	0.0001617	0.00018419	1216.6	5.6002e-06	3.0348e-06	1298.2	384.82	6.8743e-06	2.7727e-06	495.56	236.24	175.83	88.879	7.5893e-06	124.99	0.00011507	0.00010332	2.6467e-05	1088.2	1.029e-06	1.1433e-06	1152	337.2	1.0828e-06	1.1724e-06	428.06	202.21	152.53	77.124	1.0726e-06	106.54	327.520	133.816	148.610	101.628	213.920	247.164	100.735	107.799	197.974	195.032	105.557	109.471	111.863	115.833	207.271	112.671	-8191	255	
8611.198	1	1	0	0	0.14596	0.1529	0.05616	0.13067	0.17833	0.023325	0.19515	0.28643	0.14574	0.022618	0.069769	0.33568	0.26264	0.21697	0.31861	0.11115	-2.9667	-3.2792	-3.0104	-3.6458	-3.1396	-3.0979	-3.6583	-2.95	-3.4146	-3.4042	-3.0271	-3.7583	-3.2667	-3.1521	-3.625	-3.1854	323.499	435.279	299.112	220.784	111.632	334.309	395.427	349.872	369.038	176.175	93.242	422.487	441.501	391.040	155.182	436.171	0.0025758	0.00038805	0.00019615	1212	6.0656e-06	4.7294e-06	1296.7	383.49	8.2647e-06	4.9414e-06	497.82	236.57	175.73	88.464	9.1341e-06	125.86	0.00012728	0.00010708	2.7252e-05	1088.7	1.1843e-06	1.1738e-06	1152.8	336.7	1.208e-06	1.1661e-06	429.55	202.61	152.52	77.071	1.0557e-06	107.34	328.809	198.591	121.606	101.874	231.578	221.745	100.641	107.731	202.298	306.434	105.559	109.575	111.825	115.802	216.219	112.508	-8191	255	
8611.294	1	1	0	0	0.06897	0.34543	0.18837	0.076627	0.13428	0.15204	0.27932	0.082782	0.13678	0.025097	0.12926	0.17102	0.14521	0.050976	0.22619	0.40345	-2.7792	-3.4479	-2.7646	-3.6792	-3.3583	-3.0625	-3.9813	-3.1792	-3.2208	-3.5604	-3.0042	-3.7271	-3.4896	-3.1958	-3.7042	-3.4021	345.327	139.641	354.354	255.052	174.054	182.609	395.675	107.399	255.290	98.826	152.777	365.623	409.331	107.448	447.157	400.197	0.0024079	0.00040247	0.00012138	1212.8	8.1888e-06	2.3816e-06	1300.3	383.4	5.6173e-06	3.4225e-06	495.19	234.89	175.11	88.566	5.5308e-06	125.8	0.00013328	0.00010053	2.6127e-05	1088.5	1.1838e-06	1.0753e-06	1152.7	337.09	1.1863e-06	1.0413e-06	426.62	201.48	151.99	76.881	9.6486e-07	107.16	324.696	202.876	156.658	101.644	192.975	231.335	100.805	107.709	211.407	247.229	105.683	109.312	111.904	115.827	221.206	112.559	-8191	255	
8611.413	1	1	0	0	0.23183	0.11437	0.11748	0.37353	0.27301	0.2313	0.064345	0.059362	0.095922	0.19751	0.18996	0.31012	0.143	0.26065	0.14803	0.31586	-2.7729	-3.5812	-2.9938	-3.6167	-3.3271	-3.0146	-3.7625	-3.3083	-3.2042	-3.5167	-3.2396	-3.4208	-3.4125	-3.0312	-3.7167	-3.475	342.150	123.336	346.304	431.974	294.582	361.149	419.919	161.184	337.097	336.574	426.208	377.162	382.633	92.485	271.521	445.516	0.002617	0.00036805	0.00012764	1209.9	2.7925e-06	3.0789e-06	1293.8	382.7	4.221e-06	4.1229e-06	495.87	235.99	175.48	88.223	8.4867e-06	125.19	0.00013	9.3781e-05	2.4634e-05	1089.1	1.1187e-06	1.0114e-06	1150.5	336.88	1.137e-06	9.9896e-07	426.22	201.89	151.82	76.674	1.0166e-06	106.57	333.280	205.577	166.518	101.801	154.401	214.326	100.930	107.618	130.728	238.859	105.362	109.400	111.848	115.833	222.524	112.605	-8191	255	
8611.486	1	1	0	0	0.078038	0.071169	0.13295	0.24313	0.09992	0.092872	0.36693	0.23283	0.07016	0.1765	0.32504	0.23637	0.21173	0.26878	0.14463	0.25835	-2.825	-3.6417	-2.9125	-3.5396	-3.3958	-2.9917	-3.6604	-3.3563	-2.9062	-3.725	-3.1833	-3.4625	-3.6521	-2.9792	-3.5062	-3.6333	335.561	285.456	311.776	441.700	284.309	253.508	419.229	386.488	423.903	348.332	340.900	368.332	94.710	428.493	447.907	316.878	0.002496	0.00048715	0.00024647	1221.3	3.2955e-06	6.2731e-06	1305.4	386.66	6.8496e-06	1.4051e-06	494.92	236.33	176.13	88.666	6.8496e-06	125.12	0.00013208	9.7656e-05	2.7299e-05	1098.4	1.1611e-06	1.0727e-06	1158.5	339.55	1.15e-06	1.0364e-06	428.49	203.34	152.53	76.94	1.1032e-06	106.98	329.264	183.135	153.785	101.673	208.305	225.904	100.608	107.635	193.000	201.132	105.549	109.474	111.982	115.671	202.211	112.609	-8191	255	
8611.580	1	1	0	0	0.20305	0.17942	0.096642	0.14619	0.11511	0.19988	0.31281	0.13879	0.029208	0.15417	0.3136	0.14617	0.37312	0.12514	0.24319	0.21728	-2.6333	-3.5979	-3.0833	-3.3937	-3.5042	-3.0208	-3.55	-3.6479	-2.8708	-3.6604	-3.3	-3.5062	-3.6146	-3.1167	-3.5625	-3.4958	221.698	361.387	323.375	121.879	293.839	421.252	380.783	337.546	285.687	215.223	390.093	129.141	384.221	98.634	199.933	426.255	0.0025262	0.00052489	0.00013754	1221.3	4.5733e-06	5.8513e-06	1307.4	385.86	4.1321e-06	5.9939e-06	499.97	237.57	175.4	88.463	7.7086e-06	125.74	0.00012729	9.389e-05	2.8569e-05	1097.6	1.1017e-06	1.0311e-06	1160.1	339.07	1.1036e-06	9.934e-07	430.47	203.25	152.17	76.737	1.1399e-06	107.21	328.929	190.694	167.416	101.843	234.896	239.225	100.395	107.677	194.398	215.114	105.490	109.705	111.885	115.590	207.644	112.525	-8191	255	
8611.678	1	1	0	0	0.16983	0.20264	0.2719	0.089759	0.026693	0.1184	0.22399	0.032455	0.26507	0.20254	0.37544	0.18208	0.034716	0.16181	0.15133	0.1776	-2.5479	-3.4146	-3.2333	-3.325	-3.6333	-3.0708	-3.7833	-3.6146	-2.9125	-3.6333	-3.4771	-3.3854	-3.7438	-3.2292	-3.4042	-3.7583	398.194	281.189	265.061	368.573	428.404	98.266	339.322	329.970	184.515	418.036	114.534	417.452	382.868	97.401	361.705	359.155	0.0025594	0.00032014	0.00017243	1217.9	7.7186e-06	2.177e-06	1306.6	385.03	3.7874e-06	4.4571e-06	497.31	236.1	176.37	88.251	7.3875e-06	124.67	0.00011905	9.0119e-05	2.9185e-05	1094.8	1.0331e-06	9.9234e-07	1160.9	338.84	1.0534e-06	9.7596e-07	430.12	202.87	152.37	76.645	1.1799e-06	106.48	326.212	157.611	165.585	101.597	216.373	206.759	100.742	107.827	231.618	190.707	105.256	109.426	112.063	115.677	209.976	112.611	-8191	255	
8611.797	1	1	0	0	0.24535	0.19811	0.093643	0.074654	0.097358	0.17629	0.39292	0.14171	0.23054	0.056067	0.045693	0.29362	0.22173	0.1481	0.19529	0.17292	-2.4958	-3.525	-3.2938	-3.1937	-3.6271	-2.9896	-3.4875	-3.7083	-2.9875	-3.4792	-3.5583	-3.3625	-3.8354	-3.2792	-3.2146	-3.8604	162.745	298.751	413.279	96.783	225.898	449.755	369.612	91.378	191.497	261.012	313.754	104.319	420.720	371.871	414.291	355.685	0.0025511	0.0006921	0.00024965	1207.8	5.1964e-06	3.4766e-06	1300.7	385.12	4.0963e-06	5.8775e-06	496.68	236.97	176.1	88.55	3.65e-06	125.19	0.00011283	9.1636e-05	2.9511e-05	1090.3	9.81e-07	1.0162e-06	1156.9	337.79	9.6226e-07	9.9206e-07	428.98	202.3	151.88	76.618	1.1307e-06	106.28	327.619	177.163	119.061	101.922	200.080	196.272	100.638	107.761	186.562	213.158	105.428	109.544	111.683	115.716	224.714	112.507	-8191	255	
8611.893	1	1	0	0	0.28535	0.1988	0.049864	0.078937	0.21829	0.14338	0.3939	0.097	0.16108	0.063868	0.15113	0.29705	0.29588	0.2448	0.058373	0.18641	-2.6437	-3.3604	-3.4792	-3.1437	-3.5854	-3.2229	-3.2938	-3.6688	-3.0146	-3.4896	-3.575	-3.125	-3.8375	-3.5875	-3.1604	-3.7042	236.000	112.597	398.754	134.490	293.114	217.212	429.327	409.761	175.471	144.606	331.261	152.228	101.441	435.473	414.933	315.325	0.0025427	0.00050489	0.00018461	1217.6	4.8104e-06	4.0203e-06	1307.1	385.04	7.164e-06	5.0659e-06	498.33	237.26	176.57	88.28	7.7701e-06	124.93	0.00011124	9.4996e-05	2.8222e-05	1091.7	9.449e-07	1.0691e-06	1158.2	338.57	9.9126e-07	1.1156e-06	430.24	202.78	152.63	76.686	1.0991e-06	106.67	328.874	156.533	155.304	101.775	175.172	233.191	100.673	107.610	229.872	249.360	105.542	109.595	111.820	115.750	236.076	112.503	-8191	255	
8611.989	1	1	0	0	0.053069	0.22911	0.092143	0.31425	0.26938	0.081726	0.2648	0.26491	0.041598	0.10671	0.18612	0.15112	0.081373	0.13481	0.14343	0.1441	-2.525	-3.3375	-3.3583	-3.0667	-3.6083	-3.2812	-3.3375	-3.6958	-3.075	-3.4083	-3.7792	-3.0271	-3.8104	-3.4938	-2.8896	-3.9146	142.761	268.065	276.792	434.887	315.090	241.446	353.259	434.703	278.811	384.979	396.949	344.365	90.934	383.790	362.780	365.648	0.0026553	0.00053335	0.00017474	1216.8	5.7989e-06	4.2551e-06	1303.2	386.51	4.6872e-06	3.9562e-06	498.06	238.05	176.37	88.195	2.6944e-06	125.54	0.00011083	0.00010104	2.6876e-05	1092.1	9.4409e-07	1.1234e-06	1159.4	339.17	1.0019e-06	1.1735e-06	430.37	203.2	152.51	76.885	1.1399e-06	107.2	334.340	207.668	127.050	101.600	203.199	276.334	100.467	107.695	218.962	216.683	105.696	109.494	111.936	115.703	214.202	112.492	-8191	255	
8612.086	1	1	0	0	0.046082	0.23308	0.054783	0.62277	0.072031	0.26837	0.16587	0.019175	0.13289	0.047088	0.25062	0.054753	0.33136	0.16774	0.17641	0.25999	-2.7146	-3.2292	-3.4646	-3.1125	-3.6833	-3.35	-3.1021	-3.8542	-3.1375	-3.2229	-3.7	-3.2042	-3.6375	-3.5896	-2.9583	-3.6854	134.124	269.660	344.284	398.568	269.286	417.554	275.836	244.583	429.914	155.836	439.300	369.589	109.805	364.749	335.568	96.574	0.0026916	0.00041304	0.00031191	1220.1	8.4219e-06	5.2631e-06	1308.8	386.82	5.1094e-06	4.251e-06	499.24	238.02	176.19	88.12	5.5106e-06	125.53	0.00012522	0.00011432	2.777e-05	1095.4	1.0892e-06	1.2104e-06	1162.5	338.87	1.1188e-06	1.1627e-06	430.72	203.14	152.45	76.854	1.1143e-06	107.12	328.671	199.613	187.757	101.798	226.100	242.004	100.569	107.733	200.019	231.705	105.542	109.513	111.878	115.481	259.663	112.261	-8191	255	
8612.182	1	1	0	0	0.16741	0.29909	0.29573	0.26006	0.040468	0.21244	0.36321	0.073229	0.095138	0.047748	0.13783	0.14124	0.13367	0.23521	0.10173	0.19627	-2.7667	-3.0083	-3.4479	-2.9646	-3.5729	-3.3104	-3.0646	-3.6667	-3.3312	-3.2479	-3.8375	-2.9583	-3.425	-3.7292	-2.9458	-3.7	122.045	278.884	150.990	119.943	182.448	358.323	391.234	341.584	146.573	397.940	401.401	417.585	91.555	97.300	220.005	419.116	0.0026625	0.00028607	0.00010785	1218.2	7.3761e-06	2.7527e-06	1306.5	388.82	9.6781e-06	2.8909e-06	497.82	238.67	177.15	87.858	3.9598e-06	125.35	0.00013662	0.00011241	2.8238e-05	1095.1	1.2351e-06	1.2185e-06	1159.8	340.21	1.2729e-06	1.2279e-06	431.15	203.87	153.24	76.678	1.1338e-06	106.69	325.514	207.212	150.730	101.864	225.998	250.320	100.817	107.824	209.138	226.999	105.517	109.474	111.673	115.473	233.563	112.336	-8191	255	
8612.278	1	1	0	0	0.1974	0.24416	0.23824	0.22748	0.31644	0.20298	0.18463	0.19093	0.11667	0.087728	0.22791	0.12513	0.212	0.34678	0.11304	0.23443	-2.8771	-2.9396	-3.5312	-2.9958	-3.2917	-3.5687	-3.0896	-3.6	-3.1875	-2.9	-3.8688	-3.2	-3.4875	-3.9104	-2.8958	-3.6792	218.683	104.857	283.260	379.750	322.927	408.909	303.472	116.101	274.366	391.135	389.069	374.920	448.769	94.893	182.635	356.219	0.002485	0.00034441	0.00013333	1222.6	1.3036e-06	6.0374e-06	1300.7	388.13	2.2323e-06	4.4956e-06	499.45	237.76	176.79	88.386	6.6899e-06	124.93	0.00014381	0.00011132	2.8262e-05	1097.8	1.3333e-06	1.2202e-06	1159.8	340.65	1.3665e-06	1.1999e-06	430.64	203.59	153.33	76.813	1.1247e-06	106.9	331.372	155.670	179.993	101.692	252.354	211.489	100.667	107.589	225.552	256.903	105.741	109.498	111.835	115.679	226.527	112.391	-8191	255	
8612.399	1	1	0	0	0.20619	0.18414	0.20745	0.51185	0.22972	0.37221	0.069049	0.11057	0.19561	0.1598	0.15492	0.17279	0.46039	0.13367	0.046949	0.12595	-2.975	-2.8312	-3.8438	-3.1708	-3.1958	-3.6583	-3.0187	-3.5896	-3.5125	-3.0062	-3.5979	-3.2271	-3.2208	-3.7271	-2.8312	-3.6312	154.341	181.518	317.459	425.960	91.091	247.426	315.573	100.254	104.502	375.189	441.133	402.142	442.512	399.014	394.986	357.366	0.0026723	0.00022618	0.00011559	1219.5	5.344e-06	4.1366e-06	1309.1	385.41	6.8545e-06	3.4661e-06	499.6	239.08	176.19	88.669	3.9358e-06	125.7	0.00014451	0.00011117	2.8609e-05	1097.6	1.3312e-06	1.1914e-06	1162.2	341.23	1.3165e-06	1.1801e-06	432.19	205.33	153.43	77.012	1.1613e-06	107.52	325.707	127.531	139.614	101.691	202.440	245.117	100.858	107.755	172.024	242.430	105.587	109.492	111.851	115.826	233.418	112.378	-8191	255	
8612.493	1	1	0	0	0.025112	0.18702	0.098476	0.15955	0.31734	0.096122	0.19419	0.18598	0.15782	0.081318	0.069542	0.19331	0.29964	0.15647	0.15432	0.16806	-3.0687	-2.9333	-3.6396	-3.4125	-3.1688	-3.6417	-3.1875	-3.3979	-3.6333	-3	-3.7292	-3.5333	-3.1333	-3.7292	-2.9146	-3.3937	175.589	440.374	301.418	91.438	441.562	179.931	375.512	355.950	442.813	100.259	447.126	437.015	422.987	418.986	337.905	322.823	0.0025551	0.00028398	0.00010801	1218.3	8.3164e-06	3.9143e-06	1319.8	389.03	5.9496e-06	4.3384e-06	502.43	239.89	176.95	88.317	7.1365e-06	125.89	0.00013798	0.00010702	2.8624e-05	1099.3	1.2671e-06	1.1493e-06	1166.5	342.63	1.2329e-06	1.1273e-06	433.83	205.77	153.44	76.941	1.2301e-06	107.66	328.773	205.019	161.097	101.601	209.265	218.788	101.028	107.780	213.025	209.162	105.491	109.615	112.071	115.775	216.787	112.414	-8191	255	
8612.589	1	1	0	0	0.033753	0.16932	0.0061329	0.21012	0.1231	0.12211	0.077037	0.16257	0.042074	0.20641	0.14661	0.091333	0.079752	0.50263	0.33702	0.34075	-3.0792	-2.8	-3.6854	-3.4625	-2.9813	-3.6417	-3.4583	-3.3542	-3.5062	-2.9958	-3.7146	-3.5187	-3.2229	-3.8187	-3.0979	-3.3896	270.613	254.229	375.413	400.117	431.821	213.406	308.518	139.258	401.430	146.500	148.133	132.314	144.459	401.710	231.235	444.453	0.0024944	0.00032392	0.00027732	1221.2	4.4139e-06	4.7027e-06	1310.6	386.24	7.1661e-06	5.5983e-06	499.14	237.76	175.45	87.981	3.0912e-06	124.84	0.00013532	0.00010477	3.0802e-05	1099.3	1.242e-06	1.1445e-06	1163.8	340.44	1.2536e-06	1.1654e-06	433.02	204.29	152.84	76.661	1.3499e-06	106.74	332.191	193.024	155.043	101.685	233.413	276.608	100.536	107.463	190.997	217.010	105.540	109.314	111.827	115.677	191.553	112.384	-8191	255	
8612.710	1	1	0	0	0.077853	0.13647	0.039535	0.22831	0.24931	0.094835	0.19942	0.24528	0.32036	0.23488	0.18442	0.082544	0.14767	0.20458	0.21187	0.29832	-3.0292	-2.8646	-3.3563	-3.6479	-2.8354	-3.6437	-3.4708	-3.3375	-3.7708	-2.9313	-3.4396	-3.7167	-2.9458	-3.8417	-3.1708	-3.3187	221.540	149.280	233.883	389.386	265.428	329.091	388.703	380.280	310.134	214.303	419.508	377.853	113.362	374.694	196.425	374.149	0.002697	0.00085305	0.00020757	1216.8	5.7178e-06	4.6668e-06	1309	385.3	5.174e-06	2.0796e-06	495.99	237.02	176.48	87.681	2.4795e-06	124.88	0.00013799	0.00010952	3.5615e-05	1099.1	1.2884e-06	1.1995e-06	1164.8	339.93	1.2691e-06	1.2473e-06	431.88	203.83	152.72	76.558	1.4749e-06	106.81	327.153	151.166	138.085	101.851	252.358	250.340	100.690	107.755	178.151	255.109	105.378	109.518	111.909	115.560	190.893	112.477	-8191	255	
8612.781	1	1	0	0	0.14737	0.096557	0.23721	0.19787	0.12817	0.23038	0.13289	0.19005	0.24325	0.32028	0.15555	0.26454	0.067836	0.16391	0.1755	0.25762	-3.1437	-2.9208	-3.3167	-3.6667	-2.8979	-3.6542	-3.4188	-3.2333	-3.6604	-3	-3.3792	-3.6646	-3.0708	-3.6479	-3.4042	-3.0979	91.707	340.598	170.333	114.174	364.985	318.923	390.464	405.016	247.860	110.743	419.665	419.578	375.811	423.480	181.755	448.763	0.0026555	0.00068221	0.00027674	1219.2	1.0844e-05	2.5248e-06	1311.6	385.19	5.2529e-06	6.0854e-06	497.9	237.35	175.66	88.196	3.6554e-06	125.98	0.00013862	0.00011891	3.8253e-05	1099.5	1.3043e-06	1.323e-06	1169.1	339.86	1.2899e-06	1.3751e-06	433.51	204.5	152.65	76.998	1.5733e-06	107.47	327.833	184.969	177.149	101.524	213.047	286.332	100.676	107.645	206.485	231.732	105.529	109.673	111.900	115.489	234.573	112.343	-8191	255	
8612.878	1	1	0	0	0.12311	0.19667	0.077897	0.12996	0.027657	0.17315	0.23653	0.12927	0.17855	0.20249	0.17032	0.42858	0.25448	0.091246	0.15659	0.37796	-3.2833	-3.0208	-3.2083	-3.8979	-2.9875	-3.2979	-3.475	-3.1125	-3.6937	-3.2	-3.3	-3.7208	-3.0292	-3.6354	-3.5021	-3.0458	113.128	172.655	244.892	130.821	138.440	130.178	416.790	134.495	294.285	356.119	422.773	409.665	416.052	412.509	321.310	378.098	0.002576	0.00077739	0.00027103	1221.7	8.9776e-06	7.855e-06	1311.4	386.37	8.4284e-06	8.3868e-06	499.22	238.79	175.86	88.016	6.3102e-06	125.81	0.00014189	0.00013623	3.9738e-05	1100.9	1.3393e-06	1.5043e-06	1170.5	340.02	1.3426e-06	1.5537e-06	435.97	205.1	152.85	76.961	1.5444e-06	107.69	329.903	158.579	150.009	101.576	228.409	236.669	100.396	107.807	164.576	210.987	105.609	109.334	111.664	115.494	208.430	112.386	-8191	255	
8612.974	1	1	0	0	0.036394	0.33788	0.11913	0.18554	0.11379	0.1104	0.17366	0.083685	0.23714	0.09722	0.14277	0.22427	0.42632	0.16085	0.073641	0.26039	-3.1458	-3.1792	-2.8375	-3.8708	-3.0458	-3.4125	-3.5042	-3.1229	-3.6979	-3.2438	-3.1896	-3.8354	-3.2542	-3.4521	-3.5563	-3.0396	98.188	321.616	249.207	380.474	90.541	101.384	400.696	135.067	377.109	277.410	407.293	122.508	381.347	433.901	357.689	433.040	0.0025342	0.00029784	0.00011079	1214	7.2477e-06	5.482e-06	1309.6	383.64	8.7547e-06	1.7425e-06	497.08	238.44	175.89	88.151	4.8133e-06	124.27	0.00014801	0.00014381	3.8346e-05	1100.2	1.3662e-06	1.5797e-06	1169.2	339.23	1.3805e-06	1.6311e-06	431.93	204.19	152.35	76.9	1.4592e-06	106.63	326.442	151.613	165.714	101.763	233.387	276.270	100.456	107.349	185.320	236.779	105.281	109.407	111.665	115.724	240.075	112.395	-8191	255	
8613.094	1	1	0	0	0.079983	0.21775	0.1557	0.25956	0.24098	0.036313	0.35686	0.086196	0.18031	0.10452	0.12149	0.25951	0.41037	0.24345	0.15995	0.46026	-3.1167	-3.2542	-2.8417	-3.9688	-3.0646	-3.2625	-3.8917	-2.9813	-3.525	-3.275	-3.2521	-3.9146	-3.4062	-3.3854	-3.7667	-3.1417	416.806	408.232	212.509	428.862	261.619	407.307	389.482	336.040	155.161	297.754	149.830	379.299	388.132	410.042	310.637	373.049	0.0026156	9.7747e-05	0.00022871	1217.8	8.2122e-06	3.3554e-06	1305.4	380.82	8.9496e-06	4.5765e-06	496.46	237.4	175.11	88.284	3.4459e-06	124.51	0.00015338	0.00014673	3.6671e-05	1097.7	1.4764e-06	1.638e-06	1167.4	337.68	1.5223e-06	1.6345e-06	431.97	204.07	152.82	76.909	1.4748e-06	106.79	329.160	112.191	171.936	101.571	206.616	233.972	100.575	107.615	219.924	222.946	105.669	109.517	111.880	115.511	209.681	112.396	-8191	255	
8613.190	1	1	0	0	0.040562	0.15948	0.069017	0.21794	0.2483	0.20564	0.010555	0.086375	0.078568	0.094983	0.16121	0.12348	0.087362	0.12869	0.14817	0.43177	-3.0875	-3.3875	-2.7604	-3.7604	-3.2188	-3.0833	-3.6875	-3.1292	-3.3563	-3.5812	-3.1813	-3.6458	-3.4583	-3.2854	-3.5667	-3.0792	125.525	332.908	200.490	388.281	167.668	373.373	159.388	106.693	244.332	446.884	419.084	388.292	350.028	104.158	296.258	372.973	0.0023964	0.00054629	1.5814e-05	1222.1	4.6507e-06	2.0457e-06	1319	381.37	9.458e-06	2.9482e-06	499.56	237.93	175.71	88.43	7.2588e-06	125.21	0.00016683	0.00014722	3.7147e-05	1099.5	1.6588e-06	1.6611e-06	1172.2	339.52	1.7144e-06	1.6322e-06	434.14	204.57	153.21	77.154	1.4393e-06	107.4	330.746	168.468	148.294	101.677	245.406	306.024	100.542	107.521	161.446	213.148	105.543	109.122	111.822	115.596	235.593	112.480	-8191	255	
8613.287	1	1	0	0	0.15786	0.16516	0.2422	0.41969	0.12036	0.18734	0.32874	0.40623	0.05927	0.22661	0.062207	0.18688	0.14993	0.31941	0.031662	0.18977	-2.9229	-3.3792	-2.8167	-3.5479	-3.2875	-3.125	-3.9875	-3.1729	-3.2271	-3.5604	-3.0833	-3.7	-3.4396	-3.0854	-3.8375	-3.1646	448.847	415.988	213.419	388.267	411.846	434.577	381.343	427.340	395.087	413.054	389.276	369.394	340.667	429.013	267.904	375.968	0.0026139	0.00041268	7.2148e-05	1225.6	3.6299e-06	4.9462e-06	1310.3	384.23	9.9703e-06	7.4331e-06	498.17	239.05	175.63	88.429	3.4676e-06	126.32	0.00017627	0.0001385	3.5412e-05	1102	1.6553e-06	1.4808e-06	1168.4	339.31	1.6493e-06	1.4461e-06	433.5	205.68	153.16	77.159	1.3629e-06	107.86	329.205	180.198	165.644	101.627	216.659	189.131	100.622	107.622	206.259	258.727	105.613	109.656	111.905	115.638	277.464	112.250	-8191	255	
8613.358	1	1	0	0	0.20158	0.37855	0.24712	0.32769	0.23945	0.15867	0.21407	0.091587	0.16053	0.11943	0.33315	0.25531	0.20406	0.15102	0.10632	0.29243	-2.7229	-3.5792	-2.8625	-3.5396	-3.4854	-3.2729	-3.7188	-3.3333	-3.225	-3.6208	-3.0917	-3.5729	-3.4583	-3.0812	-3.5938	-3.4646	321.385	444.562	189.408	407.949	427.538	235.499	380.088	105.421	114.912	350.043	427.308	405.309	392.408	389.553	337.623	420.718	0.0026829	0.00022313	0.00018554	1223.2	5.3968e-06	2.9772e-06	1314.3	383.76	7.9019e-06	2.2843e-06	499.93	237.05	175.6	88.013	1.0343e-05	125.24	0.00017266	0.00013466	3.585e-05	1104	1.6369e-06	1.455e-06	1167	340.03	1.6094e-06	1.4239e-06	433.1	204.62	152.65	76.834	1.3823e-06	107.34	331.243	168.870	159.770	101.833	212.395	263.258	100.797	107.753	230.716	208.442	105.357	109.470	111.819	115.703	206.590	112.338	-8191	255	
8613.477	1	1	0	0	0.25337	0.1199	0.20689	0.32196	0.11473	0.23083	0.043138	0.022706	0.16228	0.13757	0.19679	0.19921	0.22844	0.25403	0.10726	0.2418	-2.7896	-3.4958	-2.9792	-3.4333	-3.5542	-3.0542	-3.7167	-3.4313	-3.1375	-3.7458	-3.0958	-3.5438	-3.6479	-3.1312	-3.6437	-3.5896	237.266	335.195	314.377	435.694	444.473	175.500	372.321	93.040	193.973	373.723	423.874	404.192	369.570	118.097	342.105	414.371	0.0026135	0.00025975	0.00020076	1221.3	8.5743e-06	8.8637e-06	1314.7	384.96	9.0501e-06	3.8324e-06	500.8	237.58	175.54	88.166	5.7753e-06	125.68	0.00016812	0.00013035	3.6022e-05	1105.3	1.5547e-06	1.4386e-06	1170.3	340.88	1.5316e-06	1.3985e-06	433.58	205.21	153.06	76.958	1.492e-06	107.78	328.983	143.547	149.731	101.735	239.006	212.299	100.682	107.779	186.913	193.813	105.664	109.449	111.874	115.679	193.191	112.430	-8191	255	
8613.573	1	1	0	0	0.090896	0.12727	0.066047	0.23321	0.13771	0.28585	0.11686	0.26718	0.17946	0.097154	0.24592	0.11526	0.29238	0.19703	0.25547	0.35058	-2.6271	-3.6188	-2.9958	-3.3292	-3.6292	-2.9417	-3.7	-3.3833	-2.8937	-3.8125	-3.2875	-3.2979	-3.8208	-3.0917	-3.4646	-3.675	171.441	244.864	380.704	116.390	307.160	94.317	174.316	411.231	413.401	236.685	315.592	91.480	102.929	396.900	314.819	316.820	0.0024187	0.00011954	0.00027833	1229.3	1.6314e-06	2.0716e-06	1312	384.1	7.6264e-06	2.1671e-06	501.05	238.37	176.71	88.582	8.2242e-06	126.44	0.0001611	0.00012962	3.9091e-05	1108.6	1.4945e-06	1.4057e-06	1173.5	340.71	1.4665e-06	1.345e-06	435.13	205.54	153.21	77.182	1.5229e-06	108.1	329.906	203.348	162.454	101.620	245.414	364.928	100.827	107.489	193.108	258.398	105.487	109.794	112.019	115.575	213.428	112.403	-8191	255	
8613.669	1	1	0	0	0.27552	0.23755	0.1556	0.2113	0.10764	0.096185	0.13683	0.19488	0.34819	0.30333	0.28443	0.295	0.078609	0.14942	0.15532	0.24912	-2.5208	-3.725	-3.0812	-3.3333	-3.8354	-2.9833	-3.6271	-3.4271	-2.9354	-3.6208	-3.4771	-3.0896	-3.9375	-3.1354	-3.3292	-3.6458	145.487	327.161	230.826	92.094	341.475	269.779	399.115	402.649	169.064	199.895	426.923	405.182	418.792	96.214	283.248	408.670	0.002599	0.00076142	8.4757e-05	1221	3.6745e-06	5.2759e-06	1312.5	383.66	4.8414e-06	5.1104e-06	505.37	240.33	176.79	88.993	5.9058e-06	126.9	0.0001497	0.00011842	3.8587e-05	1105.4	1.3445e-06	1.2979e-06	1173.7	339.5	1.3306e-06	1.2611e-06	437.4	206.69	153.18	77.527	1.5104e-06	108.7	329.961	193.444	196.071	101.654	175.646	241.248	100.889	107.721	224.633	232.973	105.402	109.593	111.970	115.912	223.056	112.352	-8191	255	
8613.790	1	1	0	0	0.22799	0.26708	0.14718	0.14318	0.21399	0.055583	0.1883	0.14666	0.20243	0.2587	0.15877	0.22817	0.10092	0.30885	0.11396	0.20281	-2.4417	-3.5208	-3.3292	-3.2333	-3.7062	-2.8771	-3.3917	-3.6021	-2.8375	-3.5271	-3.3542	-3.3479	-3.9104	-3.3229	-3.3042	-3.6458	257.488	270.905	185.057	178.865	91.265	243.029	358.153	265.463	186.165	210.413	202.079	162.427	393.570	419.925	226.589	108.942	0.0025273	0.00046895	0.00014054	1230.7	7.0841e-06	2.4138e-06	1322.3	385.97	5.4296e-06	6.4852e-06	500.97	239.53	176.22	88.925	3.5627e-06	126.43	0.00014052	0.00011724	3.821e-05	1108.1	1.2265e-06	1.316e-06	1178.2	339.47	1.2562e-06	1.3136e-06	436.36	205.92	153.15	77.543	1.4896e-06	108.22	332.238	136.867	125.789	101.615	198.351	240.128	100.541	107.822	218.784	244.204	105.509	109.357	111.681	115.522	239.062	112.331	-8191	255	
8613.886	1	1	0	0	0.17903	0.1227	0.077336	0.24059	0.16291	0.027104	0.16439	0.071398	0.080438	0.042283	0.097998	0.29152	0.38137	0.17	0.10304	0.20119	-2.3771	-3.5667	-3.3646	-3.2438	-3.8042	-3.3937	-3.4021	-3.6708	-3.0187	-3.3146	-3.525	-3.1208	-3.7292	-3.2875	-3.3	-3.8354	117.234	169.559	403.799	92.418	94.670	196.194	401.844	231.918	228.520	229.663	107.589	353.516	383.064	427.033	154.402	395.014	0.0024696	0.00057962	0.00014481	1232.4	8.7096e-06	2.4891e-06	1319.5	385.97	8.3621e-06	6.3775e-06	501.91	240.19	177.1	89.091	2.0657e-06	125.97	0.00013563	0.00012571	3.7008e-05	1107.3	1.2483e-06	1.4269e-06	1177.7	340.2	1.2652e-06	1.4508e-06	437.15	205.9	153.29	77.741	1.4558e-06	107.85	328.661	140.922	139.614	101.718	184.183	246.417	100.701	107.375	196.022	233.993	105.497	109.428	111.832	115.677	253.949	112.331	-8191	255	
8613.982	1	1	0	0	0.37615	0.10461	0.070111	0.35888	0.13063	0.11566	0.10082	0.26228	0.31767	0.16821	0.028669	0.21018	0.22744	0.25504	0.24044	0.25044	-2.6875	-3.3104	-3.4	-3.0708	-3.6458	-3.4271	-3.3	-3.6708	-2.9667	-3.3479	-3.6167	-3.1021	-3.625	-3.3625	-3.0667	-3.9042	183.567	436.554	267.202	419.503	129.064	422.522	399.007	394.933	180.432	268.934	215.451	377.085	449.715	412.104	281.883	400.990	0.002574	0.00048102	0.00018043	1229.1	1.0257e-05	8.3323e-06	1323.1	387.14	9.9006e-06	2.5993e-06	502.53	241.22	177.24	89.234	3.1358e-06	126.7	0.00014223	0.00013828	3.6909e-05	1108	1.3164e-06	1.5552e-06	1181.3	341.58	1.3776e-06	1.6189e-06	438.16	207.44	153.94	78.005	1.5231e-06	108.65	327.935	172.486	155.198	101.628	225.189	245.584	100.653	107.768	177.414	195.900	105.659	109.457	111.800	115.610	274.823	112.303	-8191	255	
8614.079	1	1	0	0	0.17227	0.089612	0.13604	0.22513	0.19929	0.038102	0.22305	0.077718	0.14337	0.28323	0.12612	0.026483	0.10538	0.041843	0.082202	0.58051	-2.6479	-3.4375	-3.5417	-3.1312	-3.6833	-3.5542	-3.1042	-3.7583	-3.1417	-3.1875	-3.8083	-3.0771	-3.6292	-3.5146	-2.9104	-3.8417	150.522	157.337	322.723	360.980	398.387	361.952	424.245	229.420	401.045	208.187	350.535	364.126	387.866	357.117	223.779	388.492	0.0026679	0.00080884	0.00016587	1231.1	1.0203e-05	4.8677e-06	1326.8	387.75	9.6e-06	1.1505e-06	504.57	242.17	176.96	89.115	6.9633e-06	127.78	0.00016333	0.00015573	3.8649e-05	1111.3	1.5555e-06	1.7087e-06	1184.6	342.05	1.6298e-06	1.6913e-06	438.46	207.87	154.32	78.041	1.5693e-06	109.19	324.940	219.530	131.278	101.842	213.689	250.274	100.585	107.569	199.523	304.061	105.404	109.549	111.813	115.463	199.144	112.534	-8191	255	
8614.175	1	1	0	0	0.13747	0.14936	0.043423	0.28802	0.1719	0.17999	0.07628	0.41942	0.16322	0.17489	0.25218	0.2431	0.17262	0.1192	0.0915	0.16238	-2.6021	-3.2125	-3.4875	-3.0312	-3.4188	-3.4208	-3.1896	-3.7313	-3.2417	-3.0542	-3.775	-3.3292	-3.4854	-3.7625	-2.8292	-3.6271	251.203	192.879	391.256	377.226	176.316	260.352	379.770	358.936	251.966	369.164	102.149	97.669	93.011	116.895	385.453	430.899	0.0026345	0.00012085	0.00017341	1234.1	8.2133e-06	6.4451e-06	1323.8	387.31	5.9236e-06	1.8284e-06	502.65	241.81	177.62	89.405	8.0534e-06	127.12	0.00017922	0.00015665	3.9678e-05	1114.5	1.7426e-06	1.7237e-06	1184.3	341.9	1.7887e-06	1.7011e-06	438.48	207.89	154.88	78.066	1.5997e-06	108.85	328.176	258.804	143.362	101.508	209.374	231.039	100.616	107.532	146.172	188.080	105.528	109.323	111.817	115.800	224.104	112.444	-8191	255	
8614.271	1	1	0	0	0.23263	0.070144	0.11175	0.23822	0.32052	0.16911	0.12001	0.05268	0.10465	0.24075	0.10727	0.12262	0.060992	0.20778	0.24799	0.41765	-2.8438	-3.1792	-3.5833	-3.1688	-3.2	-3.5417	-3.075	-3.6854	-3.3708	-3.0438	-3.7583	-3.2646	-3.5125	-3.7646	-2.7833	-3.7167	207.177	162.529	352.529	355.142	366.588	360.418	340.936	374.937	409.544	316.222	221.070	407.926	133.263	97.334	168.012	370.931	0.0027204	0.00018975	0.00026981	1235.5	4.1597e-06	4.1638e-06	1325.1	388.35	6.6866e-06	1.9338e-06	500.8	240.31	176.48	89.038	9.4092e-07	126.47	0.00019524	0.00015667	3.9735e-05	1115	1.8521e-06	1.6629e-06	1183.6	343.14	1.8259e-06	1.6283e-06	436.61	207.22	154.24	77.83	1.5445e-06	108.65	329.504	151.644	139.442	101.616	234.926	245.895	100.761	107.890	201.648	206.961	105.104	109.263	111.634	115.583	129.667	112.364	-8191	255	
8614.390	1	1	0	0	0.092489	0.12023	0.18558	0.1347	0.17364	0.11608	0.16184	0.14642	0.1283	0.13666	0.19483	0.16375	0.28479	0.43392	0.12867	0.2021	-2.9542	-2.825	-3.6604	-3.2917	-3.1521	-3.575	-3.0292	-3.5646	-3.3979	-3.0479	-3.6896	-3.4375	-3.3563	-3.8208	-2.975	-3.6813	210.070	433.942	317.034	188.242	241.074	325.166	367.202	289.058	433.020	283.420	145.653	382.941	418.487	446.759	439.234	403.201	0.0025049	0.00041655	0.00042362	1243.2	5.6049e-06	4.2264e-06	1329.3	386.43	6.7894e-06	3.09e-06	505.29	241.23	177.2	89.119	4.8484e-06	126.84	0.00018942	0.00014777	3.9519e-05	1119.7	1.8052e-06	1.6066e-06	1184.6	343.5	1.822e-06	1.6696e-06	439.65	208.67	155.01	78.229	1.667e-06	109.56	328.950	177.534	146.751	101.702	200.650	297.746	100.823	107.737	192.945	166.450	105.683	109.353	111.741	115.555	217.299	112.458	-8191	255	
8614.486	1	1	0	0	0.25421	0.11418	0.19402	0.21145	0.045434	0.049238	0.18185	0.13625	0.055573	0.21881	0.078166	0.20536	0.47117	0.081343	0.32098	0.19598	-3.1521	-3.0208	-3.5104	-3.4292	-3.1375	-3.7479	-3.1375	-3.5563	-3.6063	-2.9292	-3.6167	-3.4896	-3.0125	-3.875	-3.1604	-3.5396	356.697	323.481	271.821	381.736	440.610	349.580	405.829	321.350	341.200	259.323	176.073	388.335	389.054	428.862	324.917	405.665	0.0024606	0.00036896	0.00016596	1237.3	3.4269e-06	1.9401e-06	1327.8	387.57	5.8115e-06	4.8866e-06	508.02	243.43	177.5	89.585	7.3805e-06	128.05	0.00019049	0.00015529	4.2753e-05	1123.1	1.8897e-06	1.7098e-06	1191	345.63	1.873e-06	1.7267e-06	442.06	210.76	155.46	78.258	1.7845e-06	110.22	331.091	170.321	121.262	101.531	180.994	196.284	100.679	107.544	168.009	183.801	105.239	109.507	111.856	115.315	197.733	112.584	-8191	255	
8614.582	1	1	0	0	0.16515	0.14092	0.23176	0.28381	0.16273	0.12352	0.29586	0.23529	0.28831	0.063467	0.35597	0.15583	0.073041	0.40019	0.099926	0.3312	-3.1562	-2.9292	-3.4771	-3.5	-3.0354	-3.6562	-3.175	-3.2562	-3.4	-3.025	-3.6875	-3.5125	-3.2375	-3.8771	-3.1312	-3.3937	209.770	218.274	223.037	118.290	333.275	142.747	437.343	441.732	117.977	353.109	377.664	401.833	384.949	119.523	118.228	353.819	0.0025186	0.00036783	0.0002894	1236.7	5.8671e-06	3.7494e-06	1334.3	389.63	6.7745e-06	3.8749e-06	509.16	241.66	178.13	89.558	7.3285e-06	127.4	0.00018603	0.00015111	4.4805e-05	1123.9	1.7574e-06	1.6197e-06	1194.7	345.95	1.719e-06	1.6066e-06	442.7	210.01	155.24	78.125	1.7942e-06	109.42	329.390	112.145	183.863	101.488	195.299	259.622	100.682	107.616	247.459	236.647	105.041	109.446	111.782	115.385	214.073	112.414	-8191	255	
8614.654	1	1	0	0	0.21834	0.017337	0.17645	0.24895	0.060172	0.16639	0.1725	0.1016	0.17402	0.17818	0.32821	0.22143	0.20512	0.29981	0.063173	0.098072	-3.0812	-3.0042	-3.4417	-3.6625	-3.1562	-3.5938	-3.3646	-3.3479	-3.5854	-3.1417	-3.4646	-3.6437	-3.1771	-3.6667	-3.3896	-3.3208	434.494	204.194	263.454	329.084	214.861	212.639	367.160	327.628	166.924	409.582	401.846	347.586	359.741	401.594	431.710	95.697	0.0025371	0.00041829	0.00012823	1232.9	5.2058e-06	8.4282e-06	1328.2	389.85	6.102e-06	6.89e-06	504.69	242.09	177.37	89.443	5.0282e-06	126.64	0.00017039	0.00014169	4.5476e-05	1118.7	1.6196e-06	1.5167e-06	1188.4	344.58	1.569e-06	1.586e-06	442.05	209.12	154.77	78.039	1.8386e-06	108.92	329.839	168.391	103.223	101.572	216.717	237.176	100.592	107.747	201.438	194.059	105.551	109.219	111.690	115.320	201.400	112.528	-8191	255	
8614.774	1	1	0	0	0.02104	0.082671	0.035888	0.24521	0.18841	0.035857	0.21155	0.26438	0.14335	0.23722	0.2061	0.27831	0.12126	0.20631	0.042684	0.073567	-3.175	-3.1854	-3.4021	-3.5687	-2.8521	-3.6667	-3.4875	-3.0917	-3.5604	-3.1708	-3.4396	-3.7375	-2.9813	-3.7958	-3.3271	-3.1917	189.051	234.788	196.277	412.305	140.032	362.446	424.603	370.757	314.448	359.928	437.791	428.440	307.683	426.771	98.467	382.770	0.0026083	0.00055809	0.00033596	1235.6	5.0414e-06	2.7611e-06	1328.2	388.56	4.6516e-06	5.5396e-06	505.55	242.73	177.17	89.665	7.9545e-06	127.18	0.00016271	0.00014522	4.6215e-05	1117.1	1.5541e-06	1.5972e-06	1189.7	343.41	1.5481e-06	1.6981e-06	443.28	208.8	154.55	78.346	1.9599e-06	109.47	329.638	152.220	210.887	101.632	205.504	231.640	100.650	107.503	217.856	195.376	105.553	109.230	112.025	115.387	204.770	112.249	-8191	255	
8614.870	1	1	0	0	0.25492	0.11015	0.22979	0.07739	0.1301	0.12549	0.27474	0.075418	0.084372	0.11625	0.12831	0.17335	0.36832	0.33129	0.047124	0.19908	-3.2458	-3.0771	-3.0896	-3.5979	-2.7896	-3.2333	-3.6	-3.0396	-3.7	-3.1875	-3.2604	-3.8333	-3.0979	-3.7479	-3.4771	-3.2729	224.214	199.023	315.827	400.332	286.115	176.262	405.585	395.817	311.356	183.527	354.516	393.214	416.452	435.713	153.711	416.860	0.0028125	0.00060972	0.00028285	1236.1	3.8417e-06	4.0187e-06	1331	389.97	1.188e-05	5.9148e-06	506.12	244.67	178.58	89.796	4.3218e-06	128.21	0.00017358	0.00017331	5.0531e-05	1118.1	1.6773e-06	1.9116e-06	1194.1	345.42	1.6845e-06	1.9669e-06	444.37	210.54	155.95	78.595	1.9709e-06	109.82	328.331	172.165	178.494	101.523	266.620	223.397	100.302	107.664	169.386	231.573	105.325	109.335	112.067	115.454	234.046	112.388	-8191	255	
8614.967	1	1	0	0	0.14911	0.16768	0.11824	0.13946	0.12552	0.13402	0.1	0.23027	0.14213	0.26658	0.084429	0.27523	0.3529	0.18343	0.12117	0.11433	-3.2625	-3.2	-2.9979	-3.8125	-3.0563	-3.5646	-3.6792	-3.1333	-3.6188	-3.3083	-3.1042	-3.7542	-3.3417	-3.5083	-3.5687	-3.2062	118.647	402.103	126.905	150.550	404.937	367.368	348.178	433.301	258.573	265.909	357.324	380.848	392.546	360.747	255.495	349.697	0.0025832	0.00066502	5.7932e-05	1226.2	3.8791e-06	9.2506e-06	1329.3	388.62	9.2259e-06	7.6484e-06	508.27	245.02	178.05	89.239	6.4731e-06	127.11	0.0001837	0.00018722	4.9403e-05	1116.5	1.7795e-06	2.0554e-06	1191.2	345.21	1.7908e-06	2.0754e-06	443.72	210.12	155.41	78.392	1.8793e-06	109.23	328.154	162.923	236.148	101.840	229.140	208.308	100.470	107.453	211.842	222.794	105.669	109.278	111.648	115.458	268.662	112.403	-8191	255	
8615.063	1	1	0	0	0.11704	0.20841	0.094942	0.30737	0.25116	0.23428	0.1137	0.19245	0.1906	0.055549	0.23512	0.12251	0.26848	0.10944	0.25287	0.070002	-3.1917	-3.3896	-3.1125	-4.0062	-3.0458	-3.225	-3.6646	-3.1896	-3.5833	-3.3833	-2.9688	-3.7146	-3.3979	-3.3333	-3.4979	-3.3667	346.235	367.601	234.891	423.799	237.398	105.526	421.559	426.211	241.558	410.469	346.173	271.666	399.814	399.034	366.655	405.064	0.0025718	0.0001081	0.00018618	1238.9	1.0033e-05	6.3303e-06	1325.6	388.73	7.6454e-06	3.6591e-06	502.05	240.64	176.34	88.671	4.9545e-06	126.86	0.00019281	0.00018818	4.7597e-05	1118.2	1.8832e-06	2.0583e-06	1187.9	343.9	1.9021e-06	1.9957e-06	439.69	207.85	154.73	77.896	1.7633e-06	108.42	324.046	266.988	180.963	101.652	215.748	228.394	100.858	107.662	224.724	200.197	105.731	109.474	111.522	115.439	205.124	112.249	-8191	255	
8615.159	1	1	0	0	0.10913	0.18788	0.02905	0.1144	0.28138	0.017977	0.20021	0.34383	0.30921	0.14805	0.068166	0.20016	0.29104	0.19634	0.19585	0.34234	-3.0083	-3.2604	-2.8187	-3.8312	-3.3917	-3.2292	-3.8083	-3.0979	-3.4062	-3.4	-3.1271	-3.725	-3.3708	-3.2062	-3.6458	-3.1958	420.644	165.287	163.267	385.468	192.736	378.151	401.851	412.465	428.045	380.610	317.097	404.125	414.305	316.845	169.094	399.639	0.0026202	0.00025871	3.9158e-05	1232.6	4.4667e-06	6.9812e-07	1323.5	386.02	9.4858e-06	2.6004e-06	503.89	241.88	177.06	88.84	8.055e-06	126.17	0.00020074	0.00017888	4.5234e-05	1113.6	1.9942e-06	1.9555e-06	1185.7	343.71	2.0826e-06	1.9842e-06	440.96	208.71	155.59	77.996	1.8789e-06	108.53	326.772	222.019	282.858	101.484	212.572	240.945	100.808	107.796	198.524	190.844	105.359	109.323	111.570	115.168	172.914	112.148	-8191	255	
8615.255	1	1	0	0	0.18479	0.077345	0.10447	0.089378	0.20559	0.14039	0.29292	0.37558	0.037896	0.14194	0.15866	0.27482	0.30062	0.22374	0.044601	0.28837	-2.9979	-3.3625	-3.0042	-3.6396	-3.3271	-3.1188	-3.7875	-3.0958	-3.2458	-3.5042	-3	-3.6396	-3.4458	-3.0854	-3.6333	-3.3021	398.676	447.119	167.352	95.891	413.514	434.130	388.177	420.215	425.508	180.892	381.866	331.180	397.018	361.818	377.296	420.070	0.0025934	0.00064151	0.0002252	1234.7	1.2762e-05	2.1356e-06	1328.1	388.22	6.369e-06	3.804e-06	503.67	241.14	178.05	89.119	3.656e-06	126.65	0.00022658	0.00018379	4.8325e-05	1119	2.2218e-06	2.0099e-06	1189.7	345.79	2.2152e-06	1.9709e-06	442.06	209.41	156.08	77.996	1.8142e-06	109.01	324.280	182.423	157.358	101.685	221.380	185.642	100.621	107.789	195.257	294.587	105.483	109.294	111.553	115.586	196.135	112.339	-8191	255	
8615.351	1	1	0	0	0.13708	0.089346	0.36407	0.17772	0.14854	0.26831	0.15366	0.42675	0.2722	0.17779	0.28559	0.22195	0.032689	0.26631	0.21646	0.15359	-2.7792	-3.6937	-2.8729	-3.5917	-3.5479	-3.0417	-3.8187	-3.2396	-3.1729	-3.5979	-2.9	-3.5083	-3.6229	-3.0229	-3.5375	-3.3979	179.336	174.235	400.869	92.612	416.580	373.446	346.498	428.583	114.909	212.594	438.181	123.303	359.727	102.209	252.914	411.064	0.0024407	0.00050318	4.6842e-05	1234.2	4.2493e-06	7.7846e-06	1331.5	389.48	1.9033e-06	5.4647e-06	504.09	241.99	176.99	88.892	4.5198e-06	125.88	0.00022015	0.0001748	4.673e-05	1121.2	2.1447e-06	1.9339e-06	1189.4	346.39	2.0939e-06	1.8428e-06	441.23	209	155.21	77.772	1.7703e-06	108.75	323.398	180.234	179.989	101.496	444.333	246.350	100.759	107.691	131.107	241.241	105.245	109.473	111.650	115.321	269.725	112.305	-8191	255	
8615.472	1	1	0	0	0.14546	0.13282	0.07452	0.19752	0.074143	0.29285	0.21885	0.30095	0.13396	0.18972	0.17532	0.30865	0.20684	0.10697	0.39484	0.34948	-2.7292	-3.6458	-2.9625	-3.4313	-3.3458	-3.025	-3.6167	-3.3958	-3.0104	-3.7229	-3.1604	-3.5104	-3.6229	-3.1229	-3.4104	-3.6583	291.131	430.507	132.264	433.996	292.523	401.978	326.920	406.382	390.130	448.366	384.805	377.357	386.436	173.577	439.771	426.857	0.0026368	0.00037212	0.00023891	1229.3	5.4355e-06	3.4422e-06	1321.5	387.83	1.2494e-05	6.1354e-06	503.49	241.03	177.28	88.767	8.7637e-06	126.12	0.00020554	0.00016603	4.6651e-05	1121.5	1.9951e-06	1.8623e-06	1186.6	345.69	2.0835e-06	1.8839e-06	441.51	209.45	155.23	77.894	2.0451e-06	108.55	327.958	207.331	143.227	101.601	282.118	243.238	100.622	107.398	221.719	164.747	105.673	109.500	111.720	115.497	182.090	112.099	-8191	255	
8615.566	1	1	0	0	0.11804	0.10675	0.10935	0.063535	0.19978	0.24901	0.090328	0.10022	0.18616	0.22418	0.20545	0.21681	0.10451	0.17445	0.12129	0.043371	-2.5604	-3.6729	-3.0208	-3.4771	-3.4708	-3.0208	-3.6188	-3.4646	-2.9542	-3.6	-3.2771	-3.3438	-3.7792	-3.1292	-3.4792	-3.75	193.570	441.128	353.634	309.044	377.867	287.994	416.469	379.706	151.007	179.783	162.495	364.495	379.737	426.824	300.917	427.805	0.0026155	7.527e-05	0.00038001	1231.9	6.3688e-06	2.844e-06	1329	386.67	6.7135e-06	7.5134e-06	501.89	241.76	176.92	89.081	1.1518e-05	126.01	0.00021317	0.00017355	5.4467e-05	1120.8	2.0692e-06	1.9538e-06	1191.6	346.29	2.0926e-06	1.9206e-06	442.46	209.84	155	77.96	2.2809e-06	108.72	331.230	214.916	151.537	101.677	196.471	273.212	100.507	107.368	144.627	236.060	105.324	109.540	111.866	115.372	196.619	112.009	-8191	255	
8615.662	1	1	0	0	0.10355	0.21446	0.083677	0.2756	0.12121	0.041968	0.19834	0.15498	0.082833	0.12777	0.081664	0.24209	0.22948	0.31025	0.069476	0.093591	-2.4833	-3.6604	-3.0583	-3.4792	-3.5542	-3.0854	-3.5062	-3.5896	-2.9313	-3.725	-3.275	-3.2562	-3.7938	-3.2438	-3.3604	-3.6937	181.486	106.272	407.652	370.695	356.501	260.407	297.056	412.810	379.062	258.637	371.757	341.812	404.832	444.659	173.169	409.312	0.0026131	0.00015357	0.00017022	1229.3	3.4621e-06	3.4979e-06	1322	387.02	5.7758e-06	6.4462e-06	503.63	240.05	175.96	88.905	1.1013e-05	126.09	0.00021091	0.00017532	5.8094e-05	1119.5	1.9663e-06	1.8788e-06	1189.7	344.66	1.9317e-06	1.869e-06	442.13	207.77	153.9	77.753	2.203e-06	108.49	332.002	92.942	154.727	101.560	244.726	191.086	100.670	107.642	178.257	203.834	105.172	109.471	111.754	115.585	207.906	112.421	-8191	255	
8615.759	1	1	0	0	0.057961	0.32453	0.23469	0.03304	0.11918	0.28014	0.087019	0.11836	0.24445	0.058995	0.13433	0.10007	0.25748	0.3968	0.064892	0.10174	-2.3958	-3.5854	-3.3542	-3.1333	-3.5875	-3.1104	-3.3271	-3.6833	-2.8417	-3.6979	-3.3917	-3.2208	-3.9333	-3.3146	-3.2188	-3.6937	369.951	357.869	392.338	323.252	252.414	399.157	94.638	158.472	287.908	192.857	337.186	347.342	417.039	96.286	234.996	309.679	0.0023979	0.00051218	0.00013022	1233.8	5.4031e-06	4.7925e-06	1328.5	385.38	3.0755e-06	3.9214e-06	501.31	240.75	175.71	88.553	5.6993e-06	126.07	0.00019326	0.00017212	5.4707e-05	1116.6	1.7865e-06	1.8622e-06	1189.3	342.58	1.7816e-06	1.8603e-06	440.64	207.48	153.53	77.667	2.0806e-06	108.37	327.960	124.855	134.845	101.533	218.785	200.591	100.626	107.590	239.127	234.537	105.312	109.332	111.728	115.558	205.346	112.229	-8191	255	
8615.879	1	1	0	0	0.29469	0.16975	0.10476	0.19494	0.18002	0.17315	0.19532	0.19492	0.049161	0.22867	0.19654	0.1612	0.28034	0.32041	0.12577	0.25486	-2.6271	-3.4792	-3.4125	-2.9979	-3.7167	-3.1312	-3.2208	-3.6458	-2.8667	-3.4271	-3.6479	-3.1208	-3.8646	-3.4167	-3.225	-3.7771	136.198	165.803	348.571	394.989	317.123	228.379	421.470	375.522	91.677	364.132	98.843	441.448	391.558	432.899	227.878	349.631	0.0027429	0.0007076	0.0002496	1229.8	7.6883e-06	5.369e-06	1324	385.15	5.2729e-06	9.531e-06	503.4	240.12	176.43	88.725	2.9157e-06	125.77	0.00018655	0.00018191	5.3284e-05	1114.3	1.7972e-06	2.0991e-06	1190.4	343.11	1.8643e-06	2.1425e-06	440.95	207.04	154.25	78.077	2.1811e-06	108.36	330.396	167.683	167.195	101.685	191.352	163.193	100.640	107.477	200.901	208.550	105.331	109.396	111.665	115.439	234.933	112.372	-8191	255	
8615.951	1	1	0	0	0.15295	0.079263	0.19157	0.098358	0.26248	0.090318	0.11273	0.19897	0.081848	0.11887	0.29443	0.33812	0.25064	0.30443	0.10869	0.27829	-2.6583	-3.275	-3.4188	-3.1792	-3.6229	-3.2062	-3.1833	-3.7625	-3.0875	-3.3146	-3.6292	-3.0771	-3.6417	-3.55	-3.0563	-3.9542	250.214	225.807	214.075	303.804	266.706	302.920	415.790	361.638	399.513	334.386	430.572	133.770	99.976	398.863	314.744	360.058	0.0025708	0.00027542	0.00016961	1236.6	3.6217e-06	7.0888e-06	1329.1	385.75	6.2732e-06	8.9194e-06	503.85	241.34	177.17	89.304	2.2494e-06	126.9	0.00020512	0.0002138	5.6722e-05	1121.1	2.0572e-06	2.4376e-06	1194.5	344.59	2.1506e-06	2.4731e-06	443.12	208.8	155.49	78.749	2.2693e-06	108.9	327.532	144.142	102.461	101.599	211.441	210.796	100.960	107.361	167.453	256.448	105.277	109.493	111.494	115.218	160.917	112.223	-8191	255	
8616.071	1	1	0	0	0.14303	0.20611	0.16122	0.24427	0.081041	0.23399	0.13419	0.15037	0.065705	0.19327	0.10306	0.25709	0.13607	0.22301	0.15571	0.11838	-2.7938	-3.2375	-3.6542	-3.0354	-3.6208	-3.3125	-3	-3.7188	-3.175	-3.1417	-3.6312	-3.1375	-3.5271	-3.6375	-3.0062	-3.9104	398.298	245.573	212.167	400.027	245.913	333.194	403.396	394.728	439.645	220.082	406.390	419.504	273.783	97.644	169.319	324.101	0.0027705	0.00029753	0.00014038	1234.4	1.2007e-05	3.358e-06	1328.6	384.64	4.0507e-06	5.2434e-06	504.25	242.21	176.54	89.424	6.914e-06	127.63	0.00022907	0.0002291	5.5887e-05	1123.7	2.2917e-06	2.4614e-06	1194.5	343.49	2.388e-06	2.458e-06	442.33	209.31	155.85	78.84	2.2119e-06	109.63	328.362	228.021	148.122	101.478	194.372	293.444	100.703	107.533	225.368	267.132	105.257	109.257	111.763	115.347	225.236	112.185	-8191	255	
8616.168	1	1	0	0	0.085617	0.19044	0.20369	0.28799	0.33022	0.2079	0.15315	0.25569	0.23773	0.044759	0.18304	0.17928	0.14996	0.13844	0.20848	0.11553	-2.6375	-3.0625	-3.5375	-3.2021	-3.5708	-3.4	-3.0021	-3.7667	-3.0938	-3.2438	-3.6625	-3.15	-3.4042	-3.5646	-2.9292	-3.8104	163.719	297.478	142.379	394.981	287.819	334.947	297.809	378.974	309.128	353.403	349.473	448.941	118.249	100.114	116.124	340.452	0.0026873	0.00020521	0.00018262	1239.9	7.059e-06	1.5324e-06	1325.6	384.22	6.8138e-06	2.8701e-06	506.38	242.49	177.67	89.678	4.0154e-06	128.02	0.00023939	0.00021757	5.4228e-05	1124.3	2.3679e-06	2.2905e-06	1193.2	342.31	2.4192e-06	2.2921e-06	443.9	210.05	156.37	78.964	2.086e-06	110.22	326.644	104.492	160.053	101.576	256.249	284.152	100.682	107.552	177.572	326.442	105.118	109.301	111.624	115.453	206.839	112.294	-8191	255	
8616.264	1	1	0	0	0.13724	0.31554	0.13687	0.14995	0.14119	0.1488	0.10969	0.22483	0.064554	0.19995	0.24926	0.11631	0.3439	0.137	0.17356	0.17333	-2.7313	-2.95	-3.5458	-3.1688	-3.4813	-3.6271	-3.1146	-3.6104	-3.3312	-2.8563	-3.8063	-3.1875	-3.35	-3.6708	-2.9125	-3.7042	104.620	367.163	244.276	392.132	185.883	196.819	240.218	382.754	344.407	346.949	399.769	359.100	423.774	92.693	293.446	276.036	0.0024982	0.00016792	0.00015721	1241.5	1.037e-05	3.7441e-06	1329	387.52	6.1098e-06	3.5403e-06	504.21	241.46	177.35	89.365	4.663e-06	127.07	0.00024265	0.00020018	5.0524e-05	1124.9	2.3397e-06	2.0726e-06	1191.9	344.3	2.2839e-06	2.0448e-06	440.47	208.92	155.69	78.417	1.8549e-06	109.45	326.017	157.870	114.558	101.668	201.159	227.585	100.726	107.488	232.185	201.629	105.222	109.265	111.725	115.190	237.873	112.211	-8191	255	
8616.358	1	1	0	0	0.11627	0.15579	0.11698	0.33269	0.14663	0.1804	0.11978	0.20501	0.17834	0.079077	0.23211	0.25402	0.16412	0.28187	0.30985	0.49892	-2.9396	-2.8396	-3.6333	-3.1312	-3.1208	-3.4688	-3.0979	-3.4813	-3.3604	-2.9729	-3.5687	-3.3146	-3.1875	-3.8104	-2.8833	-3.6708	101.482	418.640	357.798	402.711	352.647	449.278	394.891	373.136	391.538	170.323	279.799	105.265	443.659	94.661	119.847	403.285	0.0025897	0.00074748	0.00027606	1240.4	6.752e-06	1.4447e-06	1331.8	386.47	5.5843e-06	3.0145e-06	504.86	241.97	177.42	89.645	6.2616e-06	127.73	0.0002188	0.00017275	4.4126e-05	1124.3	2.024e-06	1.7963e-06	1189.2	344.19	1.9466e-06	1.7748e-06	440.2	208.98	155.28	78.363	1.6513e-06	109.61	329.107	175.912	154.824	101.793	171.416	217.714	100.553	107.699	205.412	185.757	105.326	109.364	111.524	115.417	247.161	112.179	-8191	255	
8616.456	1	1	0	0	0.11229	0.24677	0.079964	0.10935	0.26777	0.1183	0.22571	0.3779	0.057275	0.06691	0.009292	0.19592	0.36746	0.063271	0.2299	0.20179	-3.0458	-2.9375	-3.5958	-3.4562	-3.025	-3.5979	-3.1042	-3.3229	-3.4458	-2.9667	-3.6458	-3.4396	-3.1021	-3.7208	-2.9729	-3.675	381.338	139.853	295.159	184.981	172.093	239.581	441.901	116.392	229.268	277.550	387.580	95.199	402.104	97.479	252.134	446.889	0.0026108	0.00035019	0.00010305	1239	3.98e-06	3.3614e-06	1331.2	388.79	4.7651e-06	4.8741e-06	505.76	243.42	178.65	90.015	7.7274e-06	128.95	0.00018662	0.0001516	4.1157e-05	1127.4	1.7948e-06	1.6197e-06	1193.8	345.87	1.7672e-06	1.6571e-06	443.17	210.5	155.75	78.781	1.7958e-06	110.63	328.809	141.074	129.313	101.428	211.284	247.191	100.653	107.543	160.929	213.561	105.122	109.242	111.451	115.513	220.568	112.115	-8191	255	
8616.550	1	1	0	0	0.013623	0.22103	0.16062	0.19865	0.13484	0.1132	0.41892	0.1469	0.16166	0.12989	0.067742	0.076651	0.17165	0.40396	0.19189	0.19901	-3.0938	-2.8417	-3.5062	-3.5458	-2.95	-3.6833	-3.0271	-3.2229	-3.6271	-2.8958	-3.3229	-3.5292	-3.0563	-3.8854	-3.2229	-3.2208	227.504	193.088	270.913	410.906	277.458	432.988	360.115	111.770	369.327	338.460	407.529	363.223	377.311	425.006	328.345	390.547	0.0027654	0.00075197	0.00037894	1242.5	1.9334e-06	6.0898e-06	1337.3	390.82	4.085e-06	5.3243e-06	510.95	244.54	178.98	90.536	7.993e-06	129.93	0.00018354	0.00015045	4.4819e-05	1130.4	1.7366e-06	1.5839e-06	1202.4	348.13	1.7101e-06	1.6061e-06	446.09	211.44	156.17	79.109	1.8925e-06	111.34	330.155	142.382	157.087	101.586	155.048	259.829	100.634	107.523	191.656	215.994	105.625	109.388	111.917	115.365	218.318	112.313	-8191	255	
8616.647	1	1	0	0	0.020727	0.14145	0.1981	0.28995	0.1115	0.14652	0.13228	0.25068	0.20678	0.19327	0.24123	0.40781	0.16875	0.18993	0.22196	0.18625	-3.3812	-2.9188	-3.4688	-3.5312	-2.9875	-3.5458	-3.4229	-3.3812	-3.4583	-2.9896	-3.4938	-3.5563	-2.8417	-3.8708	-3.375	-3.3125	215.463	101.419	325.653	397.780	222.792	223.998	413.992	362.522	146.689	367.295	385.886	377.239	443.988	437.464	432.131	414.917	0.0026031	0.00059281	0.00015189	1249.5	1.2138e-05	3.3798e-06	1341.1	390.38	1.3568e-06	4.3894e-06	512.16	243.15	178.82	90.468	3.8585e-06	128.63	0.00017417	0.00014648	4.747e-05	1131.5	1.6426e-06	1.5503e-06	1202.2	346.88	1.5468e-06	1.5621e-06	446.54	210.34	155.75	79.007	1.8762e-06	110.27	332.226	179.240	146.225	101.481	203.181	223.224	100.661	107.507	220.317	260.691	105.350	109.230	111.527	115.483	210.470	112.307	-8191	255	
8616.743	1	1	0	0	0.16928	0.2241	0.30555	0.14974	0.15291	0.11511	0.3269	0.14502	0.14512	0.09958	0.20083	0.14256	0.088409	0.07143	0.12464	0.39362	-3.1813	-2.8792	-3.3021	-3.5771	-2.9333	-3.6937	-3.3438	-3.1208	-3.6458	-3.0521	-3.3625	-3.6375	-3.0292	-3.5708	-3.3083	-3.0917	360.833	175.000	428.733	403.470	224.168	207.636	433.896	314.621	397.485	319.969	413.980	389.334	445.233	348.762	343.156	422.664	0.0026767	0.00060351	7.6483e-05	1247	6.5932e-06	5.5526e-06	1344.1	392	7.7898e-06	6.2878e-06	509.54	243.99	178.75	90.325	3.5905e-06	127.9	0.00016636	0.00015089	4.7565e-05	1128.5	1.5976e-06	1.6668e-06	1202.5	347.03	1.5445e-06	1.7132e-06	445.35	209.86	155.64	78.986	1.8114e-06	109.82	324.512	142.649	419.321	101.606	207.463	246.571	100.790	107.631	193.081	223.439	105.567	109.268	111.736	115.476	224.977	112.337	-8191	255	
8616.839	1	1	0	0	0.23556	0.059092	0.17377	0.078536	0.1241	0.10836	0.12707	0.11043	0.38893	0.07585	0.17598	0.27145	0.18024	0.28507	0.12743	0.20937	-3.1396	-3.0062	-3.1458	-3.7562	-3.05	-3.4083	-3.5563	-2.9688	-3.6521	-3.2167	-3.2979	-3.7021	-3.1646	-3.5104	-3.5812	-3.2167	92.116	151.866	102.377	181.178	173.864	128.482	416.536	122.677	192.849	367.579	128.685	392.240	326.991	429.913	127.390	399.908	0.0026291	0.00056458	0.00023625	1249	9.0339e-06	2.7725e-06	1338.1	391.3	6.3699e-06	7.9739e-06	508.54	244.39	178.63	90.082	5.9961e-06	128.78	0.00016031	0.00015798	4.4859e-05	1128.1	1.5315e-06	1.7115e-06	1199.5	346.75	1.4935e-06	1.7442e-06	445.26	210.07	155.57	78.966	1.6547e-06	110.18	328.565	190.716	168.748	101.297	254.036	193.998	100.306	107.630	169.195	209.707	105.412	109.377	111.750	115.562	198.335	112.257	-8191	255	
8616.960	1	1	0	0	0.10919	0.15446	0.1534	0.29017	0.089896	0.080248	0.20435	0.12016	0.09657	0.11785	0.31714	0.44797	0.074434	0.14528	0.067598	0.24497	-3.2896	-3.125	-2.9271	-3.7396	-3.1458	-3.4646	-3.6375	-3.1937	-3.6063	-3.3583	-3.2104	-3.9375	-3.2188	-3.5146	-3.525	-3.1604	376.493	404.603	265.101	366.868	132.037	447.869	345.621	443.835	432.779	119.673	405.572	387.912	405.561	209.855	422.221	413.285	0.0025782	0.0006622	0.00026969	1251.8	9.0906e-06	4.7925e-06	1342.5	388.73	4.1199e-06	6.5198e-06	510.32	243.89	179.36	90.374	1.0695e-05	129.35	0.00015908	0.00016171	4.1449e-05	1127.4	1.5438e-06	1.7685e-06	1198.4	345.42	1.5487e-06	1.7948e-06	444.4	209.92	155.8	79.175	1.6277e-06	110.7	326.504	159.926	157.903	101.609	194.514	254.037	100.646	107.446	207.401	178.490	105.330	109.279	111.686	115.484	235.281	112.266	-8191	255	
8617.056	1	1	0	0	0.1534	0.044425	0.16302	0.080966	0.2534	0.11863	0.17189	0.2561	0.38262	0.10118	0.18895	0.1677	0.037603	0.55278	0.19892	0.15699	-3.1063	-3.3812	-2.9104	-3.8021	-3.15	-3.1312	-3.6771	-2.9729	-3.4708	-3.4938	-2.9646	-3.6583	-3.2542	-3.3042	-3.7313	-3.0021	250.941	267.559	123.907	420.070	107.910	137.648	357.257	387.616	137.410	298.392	92.974	219.196	188.540	384.545	215.932	416.777	0.0028342	0.00044747	0.00017891	1246.7	5.1651e-06	3.5247e-06	1349.3	391.21	7.0984e-06	2.8284e-06	508.87	243.97	178.94	90.358	4.6358e-06	128.2	0.00017288	0.00016697	4.1335e-05	1126.1	1.7254e-06	1.8368e-06	1201.4	346.56	1.7616e-06	1.8079e-06	443.55	209.95	156.01	79.025	1.6274e-06	110.06	325.363	169.820	198.095	101.429	222.425	222.834	100.497	107.533	210.051	196.512	105.335	109.299	111.616	115.545	227.549	112.078	-8191	255	
8617.152	1	1	0	0	0.21934	0.24473	0.081704	0.37825	0.09613	0.15975	0.17677	0.10924	0.19144	0.052892	0.2547	0.18399	0.23483	0.033899	0.13787	0.44123	-2.9	-3.3479	-2.9604	-3.8625	-3.1042	-3.0312	-3.6771	-3.0792	-3.2271	-3.3583	-2.9938	-3.6708	-3.3271	-3.2396	-3.7979	-2.9646	229.213	334.040	176.817	438.622	425.074	354.597	370.925	425.590	204.574	310.554	353.734	363.813	108.878	335.656	222.847	399.816	0.0028115	0.00029424	0.0002147	1251.8	6.7912e-06	2.2821e-06	1344.6	391.98	8.8067e-06	5.0306e-06	510.89	242.54	178.9	90.533	8.384e-06	127.88	0.00019087	0.00016155	4.1391e-05	1130.4	1.8542e-06	1.7587e-06	1199.8	346.44	1.8727e-06	1.7276e-06	443.5	209.57	156.27	79.089	1.5569e-06	110.06	324.567	117.494	144.139	101.555	225.502	247.933	100.770	107.383	177.133	239.632	105.383	109.407	111.354	115.471	227.318	112.259	-8191	255	
8617.248	1	1	0	0	0.058952	0.15152	0.3804	0.19256	0.072394	0.20246	0.10052	0.17187	0.16551	0.098077	0.067204	0.44282	0.30776	0.15919	0.3059	0.3259	-2.9354	-3.5771	-2.8917	-3.6417	-3.3312	-3.3187	-3.5958	-3.2208	-3.4104	-3.5896	-3.0146	-3.4979	-3.5979	-3.0479	-3.5208	-3.2938	197.280	326.099	288.584	365.801	399.136	120.157	389.361	275.902	199.358	199.503	327.125	410.347	405.979	426.461	188.727	392.614	0.0027582	0.00045345	0.00019242	1250.4	9.2019e-06	3.4569e-06	1344.8	392.49	7.018e-06	1.7661e-06	512.81	244.39	179.21	90.561	7.1465e-06	129.43	0.00019723	0.00015646	4.1908e-05	1133	1.9161e-06	1.7191e-06	1200.4	348.84	1.8983e-06	1.6619e-06	444.59	210.8	156.85	79.098	1.5797e-06	111.02	333.362	230.703	174.063	101.531	193.215	199.044	100.604	107.582	212.647	141.981	105.550	109.010	111.561	115.642	216.743	112.206	-8191	255	
8617.344	1	1	0	0	0.14806	0.074358	0.16808	0.13827	0.14748	0.27816	0.23035	0.20641	0.18696	0.24656	0.12686	0.16858	0.11304	0.20559	0.15112	0.36526	-2.7	-3.5083	-2.9396	-3.6479	-3.4604	-2.9271	-3.7396	-3.2938	-3.1063	-3.6333	-3.0917	-3.5604	-3.5229	-3.1104	-3.6333	-3.5	140.277	413.294	362.675	128.360	239.376	401.172	367.448	161.836	359.327	282.285	417.474	182.290	108.855	449.297	178.301	429.030	0.0027394	0.00010824	0.00019267	1256.2	4.2415e-06	4.4824e-06	1346.5	391.85	6.6943e-06	5.3011e-06	511.53	244.69	179.32	90.88	7.3058e-06	129.5	0.00019388	0.00014882	4.0439e-05	1135.5	1.816e-06	1.6621e-06	1200.1	348.29	1.8379e-06	1.6697e-06	446.19	211.85	156.71	79.42	1.6949e-06	111.49	332.577	225.262	191.670	101.563	149.418	212.769	100.584	107.673	226.006	196.538	105.367	109.465	111.560	115.552	218.517	112.343	-8191	255	
8617.440	1	1	0	0	0.060524	0.14233	0.13642	0.31553	0.072789	0.021578	0.39623	0.291	0.065737	0.25994	0.23442	0.24646	0.18385	0.35984	0.093604	0.31438	-2.6125	-3.6646	-2.9521	-3.5208	-3.6104	-2.9625	-3.75	-3.4104	-2.9083	-3.625	-3.1562	-3.3604	-3.6021	-3.1646	-3.425	-3.3417	304.514	398.304	116.821	342.069	317.145	381.996	338.891	383.993	260.650	219.523	99.230	383.526	387.788	391.742	311.501	327.420	0.0025651	0.00043398	0.0001442	1253.6	3.0754e-06	2.1818e-06	1349	391.73	2.5791e-06	2.6379e-06	511.13	245.36	179.05	90.325	3.1799e-06	128.96	0.00020142	0.00016018	4.597e-05	1138.6	1.9405e-06	1.8191e-06	1209.3	349.92	2.0034e-06	1.8188e-06	447.71	213.01	156.96	79.235	2.0121e-06	110.97	329.007	133.822	204.725	101.585	207.262	205.467	100.575	107.280	176.815	188.499	105.378	109.212	111.644	115.313	179.960	112.233	-8191	255	
8617.559	1	1	0	0	0.20294	0.17973	0.18376	0.19094	0.23141	0.20537	0.15305	0.13324	0.16481	0.2327	0.14014	0.33781	0.26812	0.17091	0.16587	0.27144	-2.5271	-3.6292	-3.0542	-3.3333	-3.5625	-2.9417	-3.6208	-3.5104	-2.9604	-3.6833	-3.1312	-3.2104	-3.5333	-3.0146	-3.4771	-3.6208	161.583	387.959	295.316	342.640	131.008	236.527	284.277	395.122	399.371	100.862	339.682	373.786	365.346	424.070	273.830	415.667	0.0025448	0.00065267	0.00037595	1249.5	5.7748e-06	5.4107e-06	1345.2	392.23	8.5681e-06	1.9834e-06	509.65	243.98	178.3	89.897	7.1838e-06	128.04	0.00020537	0.0001688	5.2955e-05	1137.5	1.9928e-06	1.8685e-06	1206.2	349.62	2.0167e-06	1.8371e-06	446.57	211.45	156.34	78.85	2.1526e-06	110.17	331.810	139.807	136.897	101.517	199.224	232.346	100.234	107.421	203.525	391.377	105.340	109.214	111.638	115.611	260.981	112.062	-8191	255	
8617.655	1	1	0	0	0.18876	0.21989	0.19075	0.34429	0.095028	0.21014	0.16547	0.12733	0.24159	0.28999	0.18176	0.4279	0.38059	0.18835	0.025677	0.13446	-2.6125	-3.4688	-3.1688	-3.2833	-3.5125	-2.9417	-3.5271	-3.6417	-3.0354	-3.6729	-3.2708	-3.3	-3.7625	-3.225	-3.4042	-3.6125	394.046	130.951	378.981	445.013	119.247	419.004	368.249	425.178	144.853	271.861	130.566	371.572	430.787	344.187	282.871	387.873	0.0026709	0.0004832	0.00024323	1242	5.8532e-06	6.837e-06	1340.3	390.55	6.7714e-06	7.0068e-06	509.68	244.32	178.11	90.087	8.0847e-06	128.2	0.00019808	0.00016514	5.4589e-05	1131.2	1.8559e-06	1.8224e-06	1203.6	347.4	1.8428e-06	1.7942e-06	447.87	210.81	155.82	78.816	2.1235e-06	110.03	328.124	143.397	132.145	101.500	155.408	249.822	100.757	107.468	220.505	237.544	105.370	109.400	111.561	115.470	200.046	112.339	-8191	255	
8617.751	1	1	0	0	0.40273	0.076081	0.27872	0.22892	0.17206	0.1697	0.37315	0.22439	0.18149	0.033778	0.11584	0.2026	0.38894	0.20566	0.068554	0.33199	-2.4979	-3.4833	-3.3937	-3.1375	-3.5417	-3.1042	-3.3146	-3.7667	-2.9021	-3.5917	-3.5917	-3.1875	-3.8	-3.3688	-3.1063	-3.8979	142.633	280.774	185.498	377.633	186.432	318.122	396.428	422.242	341.867	115.581	418.309	433.027	359.304	435.560	234.396	364.259	0.0025623	0.00049899	0.00012638	1250.1	7.2685e-06	7.6214e-06	1343	393.57	4.0686e-06	6.7688e-06	510.4	244.35	178.6	90.127	7.0317e-06	128.62	0.00019109	0.0001681	5.4655e-05	1132.8	1.7954e-06	1.97e-06	1208.7	349.74	1.84e-06	1.9728e-06	448.77	211.73	156.26	79.087	2.168e-06	110.51	329.541	123.513	143.384	101.430	173.822	263.378	100.770	107.314	188.602	170.167	105.368	109.335	111.814	115.459	188.975	112.404	-8191	255	
8617.848	1	1	0	0	0.13637	0.079835	0.18187	0.47102	0.03901	0.083248	0.091895	0.1694	0.11195	0.11701	0.10383	0.043186	0.096052	0.18313	0.14838	0.36224	-2.5417	-3.4042	-3.3604	-2.9854	-3.6792	-3.2875	-3.3208	-3.7542	-3.0062	-3.2979	-3.5438	-3.0958	-3.6	-3.3688	-3.0479	-3.8292	289.412	263.774	207.129	369.770	346.096	200.100	439.475	303.196	284.298	129.650	417.374	377.813	121.333	382.578	446.751	369.126	0.0026341	0.00053834	0.00028524	1247.4	7.7901e-06	7.145e-06	1339.5	392.95	1.0636e-05	3.5181e-06	511.71	244.9	178.95	89.805	6.3802e-06	128.15	0.00019166	0.0001899	5.4158e-05	1132.5	1.7985e-06	2.1246e-06	1206.2	349.19	1.8238e-06	2.0917e-06	448.9	211.37	156.58	79.059	2e-06	110.16	328.670	159.709	176.586	101.623	213.031	230.602	100.700	107.189	224.804	229.617	105.199	109.496	111.497	115.294	229.162	112.292	-8191	255	
#DATA ENDS
