BOXY.EXE: ISS Imagent and Oximeter Data Acquisition Program Version 0.80
Ascii Record File

#ACQ INFORMATION
2  Detector Channels 
16  External MUX Channels 
1  Auxiliary Channels 
5000  Waveform (CCF) Frequency (Hz)
1  Waveforms Skipped 
30  Waveforms Averaged 
1  Cycles Averaged 
16  Acquisitions per Waveform 
10.0806  Updata Rate (Hz) 

#FILE INFORMATION
TRUE -- External MUX Channel results are PARSED.
FALSE -- AC DC and Phase are NOT grouped.
TRUE -- Companion Program Settings File CREATED.
FALSE -- AC data not excluded
FALSE -- DC data not excluded
FALSE -- Phase data not excluded
FALSE -- Auxillary Chn. data not excluded
Tab delimiters

#CALIBRATION STATE
TRUE -- Waveform Calibration Values APPLIED.


#AUX CALIBRATION VALUES
Val Type	aux-1	

Term	1.0000e+00	
Factor	0.0000e+00	


#WF CALIBRATION VALUES
A = Detector Channel
Val Type	A-AC1	A-AC2	A-AC3	A-AC4	A-AC5	A-AC6	A-AC7	A-AC8	A-AC9	A-AC10	A-AC11	A-AC12	A-AC13	A-AC14	A-AC15	A-AC16	A-DC1	A-DC2	A-DC3	A-DC4	A-DC5	A-DC6	A-DC7	A-DC8	A-DC9	A-DC10	A-DC11	A-DC12	A-DC13	A-DC14	A-DC15	A-DC16	A-Ph1	A-Ph2	A-Ph3	A-Ph4	A-Ph5	A-Ph6	A-Ph7	A-Ph8	A-Ph9	A-Ph10	A-Ph11	A-Ph12	A-Ph13	A-Ph14	A-Ph15	A-Ph16	

Term	0.00000e+00	0.00000e+00	0.00000e+00	0.00000e+00	0.00000e+00	0.00000e+00	0.00000e+00	0.00000e+00	0.00000e+00	0.00000e+00	0.00000e+00	0.00000e+00	0.00000e+00	0.00000e+00	0.00000e+00	0.00000e+00	0.00000e+00	0.00000e+00	0.00000e+00	0.00000e+00	0.00000e+00	0.00000e+00	0.00000e+00	0.00000e+00	0.00000e+00	0.00000e+00	0.00000e+00	0.00000e+00	0.00000e+00	0.00000e+00	0.00000e+00	0.00000e+00	0.00000e+00	0.00000e+00	0.00000e+00	0.00000e+00	0.00000e+00	0.00000e+00	0.00000e+00	0.00000e+00	0.00000e+00	0.00000e+00	0.00000e+00	0.00000e+00	0.00000e+00	0.00000e+00	0.00000e+00	0.00000e+00	
Factor	1.00000e+00	1.00000e+00	1.00000e+00	1.00000e+00	1.00000e+00	1.00000e+00	1.00000e+00	1.00000e+00	1.00000e+00	1.00000e+00	1.00000e+00	1.00000e+00	1.00000e+00	1.00000e+00	1.00000e+00	1.00000e+00	1.00000e+00	1.00000e+00	1.00000e+00	1.00000e+00	1.00000e+00	1.00000e+00	1.00000e+00	1.00000e+00	1.00000e+00	1.00000e+00	1.00000e+00	1.00000e+00	1.00000e+00	1.00000e+00	1.00000e+00	1.00000e+00	X	X	X	X	X	X	X	X	X	X	X	X	X	X	X	X	

B = Detector Channel
Val Type	B-AC1	B-AC2	B-AC3	B-AC4	B-AC5	B-AC6	B-AC7	B-AC8	B-AC9	B-AC10	B-AC11	B-AC12	B-AC13	B-AC14	B-AC15	B-AC16	B-DC1	B-DC2	B-DC3	B-DC4	B-DC5	B-DC6	B-DC7	B-DC8	B-DC9	B-DC10	B-DC11	B-DC12	B-DC13	B-DC14	B-DC15	B-DC16	B-Ph1	B-Ph2	B-Ph3	B-Ph4	B-Ph5	B-Ph6	B-Ph7	B-Ph8	B-Ph9	B-Ph10	B-Ph11	B-Ph12	B-Ph13	B-Ph14	B-Ph15	B-Ph16	

Term	0.00000e+00	0.00000e+00	0.00000e+00	0.00000e+00	0.00000e+00	0.00000e+00	0.00000e+00	0.00000e+00	0.00000e+00	0.00000e+00	0.00000e+00	0.00000e+00	0.00000e+00	0.00000e+00	0.00000e+00	0.00000e+00	0.00000e+00	0.00000e+00	0.00000e+00	0.00000e+00	0.00000e+00	0.00000e+00	0.00000e+00	0.00000e+00	0.00000e+00	0.00000e+00	0.00000e+00	0.00000e+00	0.00000e+00	0.00000e+00	0.00000e+00	0.00000e+00	-2.15620e+02	-1.31657e+02	-1.25146e+02	-1.81704e+02	-8.15054e+01	-6.68657e+01	-1.57588e+02	-1.62015e+02	-8.60096e+01	-6.69782e+01	-1.71217e+02	-1.72824e+02	-1.83390e+02	-1.77011e+02	-7.37979e+01	-1.49785e+02	
Factor	4.58921e-05	1.65953e-04	4.60063e-05	1.49255e-01	1.93368e-06	1.78685e-06	1.64339e-01	5.03331e-02	2.24651e-06	1.77573e-06	8.09569e-02	3.27481e-02	3.51869e-02	8.81024e-03	1.97165e-06	1.24698e-02	2.73434e-05	7.93411e-05	2.24816e-05	7.78062e-02	6.25384e-07	9.38907e-07	8.07401e-02	2.62746e-02	6.23511e-07	9.41288e-07	4.12738e-02	1.66736e-02	1.85840e-02	4.65689e-03	7.32170e-07	6.40504e-03	X	X	X	X	X	X	X	X	X	X	X	X	X	X	X	X	



#DISTANCE SETTINGS
A = Detector Channel
A-1	A-2	A-3	A-4	A-5	A-6	A-7	A-8	A-9	A-10	A-11	A-12	A-13	A-14	A-15	A-16	

2.5000e+00	3.0000e+00	2.5000e+00	3.0000e+00	2.0000e+00	3.0000e+00	1.5000e+00	3.0000e+00	3.0000e+00	3.0000e+00	3.0000e+00	3.0000e+00	3.0000e+00	3.0000e+00	1.5000e+00	3.0000e+00	

B = Detector Channel
B-1	B-2	B-3	B-4	B-5	B-6	B-7	B-8	B-9	B-10	B-11	B-12	B-13	B-14	B-15	B-16	

1.0000e+01	1.0000e+01	1.0000e+01	1.4400e+00	1.0000e+01	1.0000e+01	1.5100e+00	1.9400e+00	1.0000e+01	1.0000e+01	1.9900e+00	2.4900e+00	2.4100e+00	2.9000e+00	1.0000e+01	2.9800e+00	




#DATA BEGINS
time	group	step	mark	flag	A-AC1	A-AC2	A-AC3	A-AC4	A-AC5	A-AC6	A-AC7	A-AC8	A-AC9	A-AC10	A-AC11	A-AC12	A-AC13	A-AC14	A-AC15	A-AC16	A-DC1	A-DC2	A-DC3	A-DC4	A-DC5	A-DC6	A-DC7	A-DC8	A-DC9	A-DC10	A-DC11	A-DC12	A-DC13	A-DC14	A-DC15	A-DC16	A-Ph1	A-Ph2	A-Ph3	A-Ph4	A-Ph5	A-Ph6	A-Ph7	A-Ph8	A-Ph9	A-Ph10	A-Ph11	A-Ph12	A-Ph13	A-Ph14	A-Ph15	A-Ph16	B-AC1	B-AC2	B-AC3	B-AC4	B-AC5	B-AC6	B-AC7	B-AC8	B-AC9	B-AC10	B-AC11	B-AC12	B-AC13	B-AC14	B-AC15	B-AC16	B-DC1	B-DC2	B-DC3	B-DC4	B-DC5	B-DC6	B-DC7	B-DC8	B-DC9	B-DC10	B-DC11	B-DC12	B-DC13	B-DC14	B-DC15	B-DC16	B-Ph1	B-Ph2	B-Ph3	B-Ph4	B-Ph5	B-Ph6	B-Ph7	B-Ph8	B-Ph9	B-Ph10	B-Ph11	B-Ph12	B-Ph13	B-Ph14	B-Ph15	B-Ph16	aux-1	digaux	

18434.656	1	1	0	256	0.071942	0.11837	0.15576	0.30576	0.11741	0.20959	0.3942	0.074681	0.15724	0.28107	0.2324	0.19093	0.21211	0.20718	0.024452	0.33465	-4.2229	-4.8167	-4.2917	-4.9479	-4.4604	-4.5042	-4.9688	-4.4771	-4.5417	-4.8	-4.2646	-4.7229	-4.6188	-4.3375	-5.0625	-4.3292	185.571	97.916	-33.459	261.722	255.626	-12.582	184.636	230.570	203.321	59.008	164.286	55.626	235.018	232.368	261.707	-83.925	0.00015207	0.00033172	7.2568e-05	1227.1	3.4517e-06	2.7644e-06	1272.5	243.87	2.0128e-06	2.8443e-06	301.11	83.945	66.531	19.493	2.4857e-06	27.4	0.00032732	0.00036034	0.00011484	1205.9	4.5262e-06	3.738e-06	1254.7	242.22	3.8904e-06	3.7201e-06	300.45	84.55	66.871	19.659	3.1788e-06	27.723	81.912	-8.012	-6.855	-77.090	48.433	65.238	-76.876	-69.414	13.240	87.596	-69.865	-63.258	-63.356	-56.021	78.649	-56.637	-8191	255	
18434.754	1	1	0	0	0.1151	0.15093	0.13037	0.24844	0.081113	0.3224	0.2339	0.15307	0.12546	0.064923	0.016305	0.11273	0.19825	0.15345	0.11886	0.29904	-4.1562	-4.8354	-4.2292	-4.6354	-4.6271	-4.3854	-5.1417	-4.4792	-4.3979	-4.8354	-4.4021	-4.7188	-4.6125	-4.2125	-4.8	-4.3021	-39.140	26.670	75.883	231.502	60.917	53.871	187.879	200.175	-76.805	25.486	-20.941	159.623	-15.095	13.454	238.640	221.289	0.00023287	0.00037937	8.8326e-05	1224	1.7908e-06	3.5348e-06	1272.8	243.67	2.8868e-06	4.6363e-06	302.91	83.737	65.924	19.506	3.5171e-06	27.453	0.00033177	0.0003691	0.00011592	1205	4.3321e-06	4.5087e-06	1255.9	242.16	4.5399e-06	3.6063e-06	300.29	84.567	66.617	19.591	3.2017e-06	27.792	96.825	15.290	-2.163	-76.770	45.351	67.376	-76.751	-69.533	11.370	79.402	-69.930	-63.208	-63.490	-56.230	61.847	-56.531	-8191	255	
18434.850	1	1	0	0	0.22274	0.2285	0.088839	0.062951	0.13152	0.079136	0.17783	0.22262	0.15714	0.084414	0.064029	0.30458	0.074265	0.12627	0.01808	0.22437	-3.9833	-4.8271	-4.4083	-4.6708	-4.5083	-4.1542	-4.8938	-4.5208	-4.3167	-4.7937	-4.3021	-4.7	-4.7854	-4.225	-4.6396	-4.5875	185.638	66.874	28.945	10.146	96.094	238.088	228.374	-73.668	258.306	-47.191	141.708	238.303	99.348	-50.633	49.570	-56.017	0.0002368	0.00040218	7.5547e-05	1221.7	6.6271e-07	3.2501e-06	1272.4	244.18	1.6726e-06	4.2056e-06	301.07	84.477	66.735	19.619	3.9608e-06	27.398	0.00032812	0.00036943	0.0001155	1204.8	4.7477e-06	4.7121e-06	1255.9	242.01	4.5295e-06	4.326e-06	300.05	84.646	67.028	19.704	3.5953e-06	27.759	94.897	-10.563	17.457	-76.731	73.360	50.921	-77.169	-69.643	-2.791	51.432	-70.064	-63.230	-62.810	-55.911	59.911	-56.865	-8191	255	
18434.971	1	1	0	0	0.20448	0.25641	0.10948	0.15481	0.094833	0.081686	0.050913	0.21608	0.077964	0.17104	0.37074	0.068227	0.092755	0.10869	0.27846	0.039319	-3.9208	-4.7417	-4.2167	-4.6042	-4.8208	-4.1771	-4.8646	-4.5437	-4.25	-4.8812	-4.4104	-4.5958	-4.9021	-4.1271	-4.7708	-4.6167	-82.474	215.232	125.923	-33.558	-59.373	217.108	-75.125	226.823	42.661	-40.741	-32.264	115.048	46.503	-77.777	216.928	166.939	0.0001837	0.00044729	0.00012895	1224.3	3.1633e-06	3.5713e-06	1269.5	244.13	2.0189e-06	3.7075e-06	301.12	84.254	66.806	19.609	2.1894e-06	27.195	0.00032641	0.00032728	0.00013049	1205.3	4.4741e-06	4.0921e-06	1252.3	242.25	4.1541e-06	3.3533e-06	300.15	84.653	66.992	19.668	3.3436e-06	27.704	85.598	8.990	11.305	-76.691	55.142	68.643	-76.810	-69.668	-8.645	58.330	-69.966	-63.941	-63.297	-56.100	40.214	-56.233	-8191	255	
18435.066	1	1	0	0	0.15871	0.088046	0.073953	0.29493	0.11777	0.063613	0.21992	0.081663	0.19835	0.13029	0.18335	0.26649	0.28617	0.2365	0.27689	0.15167	-3.8583	-5.0083	-4.4354	-4.425	-4.725	-4.3187	-4.7583	-4.7458	-4.25	-4.8458	-4.4375	-4.3771	-4.9375	-4.1312	-4.4917	-4.65	-3.326	94.937	139.681	269.984	73.509	-35.392	166.244	264.431	56.174	-74.073	178.185	139.007	-55.948	153.657	-20.356	130.029	0.00018074	0.00037517	6.7845e-05	1219.7	2.434e-06	3.3397e-06	1261.7	242.98	2.1516e-06	3.3754e-06	300.44	83.964	66.317	19.346	3.144e-06	27.176	0.00034014	0.00033885	9.8263e-05	1199.5	4.3282e-06	4.2857e-06	1247.2	241.29	4.3139e-06	3.7632e-06	298.98	84.187	66.604	19.547	3.6776e-06	27.578	96.644	13.787	21.472	-76.692	73.795	57.990	-77.071	-69.680	4.167	62.161	-70.029	-63.380	-62.976	-56.185	68.795	-56.709	-8191	255	
18435.139	1	1	0	0	0.17128	0.23044	0.16236	0.30027	0.12424	0.13885	0.16965	0.10449	0.19106	0.15194	0.14521	0.015899	0.13927	0.17472	0.20297	0.13152	-3.6583	-4.8396	-4.3979	-4.5687	-4.7771	-4.2562	-4.6562	-4.725	-3.925	-4.7	-4.5979	-4.3708	-4.8833	-4.4417	-4.3979	-4.8292	232.323	-25.345	77.048	234.524	52.968	130.044	198.969	203.365	-31.139	179.480	264.719	110.069	210.318	-85.592	56.268	248.715	0.00018565	0.00036067	0.00010016	1205.9	1.0537e-06	2.2187e-06	1252.3	241.69	2.8393e-06	2.7169e-06	299.56	82.687	66.427	19.364	3.3514e-06	27.133	0.00031878	0.00035059	9.2924e-05	1187	3.8943e-06	3.4779e-06	1234.4	239.42	3.7735e-06	2.6435e-06	297.67	83.428	66.137	19.399	3.3207e-06	27.383	94.774	-7.345	-1.333	-76.790	69.015	59.397	-76.909	-69.860	41.461	51.466	-69.809	-63.853	-63.388	-56.101	68.619	-56.210	-8191	255	
18435.234	1	1	0	0	0.0148	0.089386	0.031305	0.32211	0.1562	0.13532	0.042378	0.1626	0.071604	0.17213	0.24261	0.075065	0.12936	0.31478	0.049175	0.12946	-3.8708	-4.6292	-4.5417	-4.3625	-4.8771	-4.4333	-4.4646	-4.8313	-4.2375	-4.7229	-4.6125	-4.3667	-4.7958	-4.4292	-4.4125	-4.8375	233.602	243.918	251.855	241.846	111.967	178.263	256.512	224.676	184.642	236.246	-61.145	195.040	68.722	229.606	-38.282	-25.107	0.00020212	0.00034714	5.3689e-05	1199.7	1.3848e-06	3.5861e-06	1244	240.15	2.3589e-06	3.1969e-06	298.28	82.643	65.783	19.109	2.8925e-06	26.818	0.00031394	0.00032331	8.6554e-05	1177.7	3.8435e-06	3.7928e-06	1225.2	238.08	3.6475e-06	3.2631e-06	296.24	83.256	65.739	19.346	3.7646e-06	27.251	93.140	2.380	20.437	-76.770	85.495	86.762	-76.987	-69.529	32.271	51.399	-69.716	-63.285	-62.908	-56.341	47.889	-56.634	-8191	255	
18435.355	1	1	0	0	0.29503	0.1742	0.11496	0.11758	0.18983	0.067943	0.1211	0.24083	0.018528	0.14078	0.10775	0.079417	0.17935	0.073913	0.1061	0.11423	-3.9521	-4.6083	-4.7479	-4.2625	-4.7458	-4.4	-4.5563	-4.9729	-4.2188	-4.5917	-4.8354	-4.3625	-4.9	-4.6104	-4.3479	-4.9187	-26.568	69.568	29.957	-76.650	228.994	-39.431	234.550	270.683	79.117	3.193	242.862	-17.347	17.407	-58.713	28.180	68.302	0.00016934	0.00029535	7.5586e-05	1185.5	9.9192e-07	2.8379e-06	1232.4	237.54	2.462e-06	3.2008e-06	295.94	81.68	65.484	18.931	2.8926e-06	26.943	0.0003083	0.00025323	6.9318e-05	1166.6	3.7328e-06	3.0143e-06	1216.8	236.43	3.6047e-06	3.1298e-06	294.21	82.602	65.472	19.193	3.1773e-06	27.33	93.944	33.931	10.414	-76.850	105.862	78.734	-76.772	-69.588	21.869	62.136	-70.070	-63.390	-62.697	-56.042	47.530	-56.352	-8191	255	
18435.451	1	1	0	0	0.094409	0.24184	0.19137	0.12244	0.16642	0.14595	0.17079	0.23857	0.0093099	0.059189	0.14339	0.17809	0.19235	0.12722	0.097228	0.16411	-3.9729	-4.55	-4.7667	-4.3458	-4.6875	-4.6167	-4.5104	-4.9354	-4.3688	-4.5396	-4.8854	-4.1312	-4.7312	-4.6604	-4.1917	-4.7604	125.631	212.560	269.390	-41.074	98.879	257.831	173.728	217.695	215.760	172.512	200.264	103.154	271.927	119.558	71.545	232.569	0.00019735	0.00032047	9.3353e-05	1183.4	1.9739e-06	2.7337e-06	1229.2	236.7	2.0722e-06	3.307e-06	296.3	82.051	64.67	18.988	2.8186e-06	26.778	0.00029935	0.00026629	6.7866e-05	1162.7	3.6728e-06	2.7991e-06	1213.7	235.69	3.8359e-06	3.1455e-06	294.79	82.449	65.158	19.215	3.0751e-06	27.206	91.364	10.158	4.195	-77.047	53.318	54.681	-76.749	-69.650	-16.215	84.919	-69.940	-63.115	-62.840	-56.266	68.877	-56.731	-8191	255	
18435.547	1	1	0	0	0.020332	0.22125	0.08442	0.17247	0.12722	0.066313	0.14697	0.23071	0.048505	0.20694	0.058341	0.21021	0.1514	0.16569	0.21694	0.15652	-4.1146	-4.275	-4.8542	-4.3375	-4.6229	-4.6458	-4.3021	-4.9104	-4.4083	-4.5146	-5.0083	-4.3229	-4.4792	-4.8083	-4.2333	-4.8688	233.242	245.112	-61.521	-13.894	-17.917	102.739	117.892	-81.213	170.543	-32.143	104.692	-81.976	169.417	180.360	128.777	197.647	0.00017848	0.00034126	8.6137e-05	1177.8	2.2047e-06	2.7432e-06	1225.3	236.4	1.1272e-06	3.8005e-06	295.15	81.976	64.859	18.968	2.4158e-06	26.913	0.00029098	0.00031307	7.9435e-05	1160.6	3.7093e-06	2.8911e-06	1209.3	234.64	3.2812e-06	2.9298e-06	293.82	82.437	65.213	19.162	3.0858e-06	27.192	87.476	-3.347	0.018	-76.647	36.448	48.848	-76.606	-69.374	64.022	49.584	-70.015	-63.085	-62.948	-55.569	22.413	-56.477	-8191	255	
18435.643	1	1	0	0	0.12192	0.033162	0.17161	0.32133	0.14086	0.26687	0.12311	0.20173	0.092621	0.17632	0.06728	0.08477	0.23746	0.12856	0.14347	0.2432	-4.2292	-4.2458	-4.7562	-4.3833	-4.4833	-4.6625	-4.5083	-4.8521	-4.4875	-4.3833	-5.0458	-4.4083	-4.475	-4.8542	-4.2354	-4.8542	101.422	170.838	128.352	241.702	255.548	-36.330	242.634	261.707	-65.215	143.917	266.718	181.817	138.500	174.560	103.438	183.690	0.00017193	0.00034833	8.8931e-05	1174.6	2.7608e-06	2.5301e-06	1222.9	235.22	2.5234e-06	2.8444e-06	295.04	82.499	64.593	18.952	1.9849e-06	26.801	0.0002944	0.00031241	6.4119e-05	1159.9	3.7497e-06	2.7913e-06	1209	234.65	3.6696e-06	3.1435e-06	293.13	82.572	65.034	19.132	3.011e-06	27.106	70.213	12.348	13.241	-76.610	40.610	74.658	-76.487	-69.545	-9.862	90.080	-69.975	-63.186	-62.748	-55.719	65.056	-56.610	-8191	255	
18435.738	1	1	0	0	0.052773	0.29608	0.20061	0.16035	0.11813	0.043482	0.28617	0.23573	0.18057	0.081906	0.07342	0.17202	0.30173	0.04788	0.33199	0.075471	-4.0667	-4.225	-4.8354	-4.475	-4.4792	-4.7667	-4.4812	-4.6917	-4.6625	-4.2021	-4.9292	-4.4062	-4.5146	-4.8875	-4.2021	-4.725	212.960	-74.625	116.260	198.797	90.145	-53.871	202.901	-85.463	180.951	263.514	-41.607	3.430	208.294	-22.582	-55.952	235.509	0.00016222	0.0005089	7.4419e-05	1178.3	2.0368e-06	3.9134e-06	1222.3	235.76	2.0263e-06	2.9332e-06	293.7	82.137	65.374	18.979	3.54e-06	26.548	0.0002899	0.00032844	6.6414e-05	1160.1	3.85e-06	3.3586e-06	1208.3	234.8	3.2332e-06	3.4161e-06	292.75	82.456	65.264	19.088	3.8637e-06	27.07	96.546	10.938	16.541	-76.567	56.660	69.642	-76.658	-69.746	11.410	60.913	-70.101	-63.094	-62.800	-56.012	67.178	-56.451	-8191	255	
18435.836	1	1	0	0	0.082555	0.28436	0.26399	0.23209	0.22821	0.19621	0.15252	0.085471	0.087841	0.097505	0.088571	0.16334	0.12324	0.11822	0.28195	0.11039	-4.35	-4.2	-4.8729	-4.6833	-4.5333	-4.8021	-4.4479	-4.8479	-4.7104	-4.1292	-4.7688	-4.5396	-4.4021	-5	-4.1521	-4.6729	1.120	-22.207	-84.652	-70.782	-45.561	15.559	169.960	191.393	262.521	34.847	153.316	-78.350	-55.507	92.260	162.611	177.907	0.00018906	0.00026126	0.00010222	1178.6	1.5565e-06	3.1799e-06	1224.7	236.41	2.0547e-06	2.3227e-06	296.23	82.157	64.954	18.895	2.74e-06	26.872	0.00028728	0.00027356	7.9997e-05	1159.7	3.5595e-06	2.9458e-06	1208.7	234.7	3.2552e-06	2.7121e-06	293.97	82.392	65.078	19.132	3.1758e-06	27.103	83.404	-15.372	-4.549	-76.640	5.865	74.006	-76.787	-69.484	40.826	62.416	-69.791	-63.226	-63.064	-55.617	76.233	-56.397	-8191	255	
18435.953	1	1	0	0	0.20695	0.15352	0.17681	0.12482	0.1808	0.15816	0.18323	0.17146	0.083751	0.073462	0.11851	0.14609	0.11303	0.23101	0.24466	0.32483	-4.4688	-4.125	-4.7146	-4.6396	-4.3854	-4.8708	-4.4563	-4.6417	-4.7812	-4.1771	-4.7646	-4.4854	-4.3979	-4.9625	-4.3646	-4.4646	69.588	-71.048	20.451	216.542	87.639	8.078	267.340	156.298	133.637	69.938	83.791	-51.474	56.495	262.887	73.486	217.903	0.00018567	0.00032541	0.00010816	1180.2	2.5232e-06	3.6192e-06	1227	236.15	3.4856e-06	2.8937e-06	294.07	82.093	65.005	18.931	3.3373e-06	26.781	0.00028824	0.00035984	6.5384e-05	1159.2	3.9113e-06	2.8774e-06	1209.7	234.76	3.8255e-06	3.3161e-06	292.68	82.521	65.256	19.112	3.2948e-06	27.134	86.434	-10.514	-2.982	-76.774	29.665	67.868	-76.623	-69.610	30.560	70.318	-69.572	-63.290	-63.158	-56.194	64.066	-56.508	-8191	255	
18436.051	1	1	0	0	0.092442	0.22058	0.20732	0.17635	0.18803	0.14266	0.16767	0.23037	0.21662	0.2461	0.20844	0.18223	0.004406	0.26661	0.20358	0.06558	-4.4229	-4.1625	-4.575	-4.6896	-4.2792	-4.8604	-4.45	-4.4688	-4.7708	-4.3063	-4.7708	-4.7729	-4.2521	-4.7875	-4.3896	-4.3625	71.101	-76.610	92.574	255.412	3.889	-86.753	213.153	240.130	3.213	44.184	147.784	-77.025	72.330	270.257	15.108	101.785	0.00014425	0.0004865	7.3542e-05	1173.8	1.9005e-06	3.3683e-06	1222.8	236.23	2.5928e-06	1.5898e-06	294.78	81.746	64.915	19.043	4.1256e-06	26.859	0.00027207	0.00033819	7.447e-05	1157.9	3.807e-06	2.5566e-06	1209.3	234.79	3.0643e-06	3.1631e-06	293.18	82.381	65.228	19.169	3.1651e-06	27.175	83.188	-0.266	14.591	-76.635	81.530	70.485	-76.732	-69.402	26.231	52.001	-69.567	-63.704	-63.422	-55.757	60.417	-56.483	-8191	255	
18436.146	1	1	0	0	0.16516	0.28973	0.17427	0.35779	0.23151	0.31676	0.05275	0.1636	0.13576	0.057335	0.073237	0.1706	0.051868	0.073069	0.27414	0.17567	-4.5125	-4.2708	-4.6896	-4.8625	-4.1271	-4.8125	-4.7208	-4.2833	-4.7792	-4.3875	-4.7188	-4.8125	-4.1562	-4.8458	-4.4729	-4.3438	180.748	175.249	254.347	263.656	-3.636	125.665	209.815	16.479	170.407	18.530	-78.911	201.734	170.770	133.644	211.300	18.186	0.00018531	0.00020135	8.1182e-05	1177.1	2.4699e-06	4.2781e-06	1215.8	235.99	1.8894e-06	2.7403e-06	293.07	81.966	64.504	18.911	2.4515e-06	26.762	0.00026643	0.00032414	7.2082e-05	1157	4.1445e-06	2.7365e-06	1205.2	234.32	3.1344e-06	3.0278e-06	292.72	82.36	64.99	19.125	2.6587e-06	27.099	98.104	11.736	7.667	-76.952	74.541	51.767	-76.933	-69.812	19.013	63.848	-69.844	-63.329	-63.121	-55.779	43.417	-56.137	-8191	255	
18436.242	1	1	0	0	0.068129	0.17287	0.12629	0.28142	0.073134	0.17276	0.026218	0.25019	0.16867	0.13185	0.19417	0.147	0.048743	0.17075	0.063705	0.16721	-4.4229	-4.25	-4.5188	-4.9896	-4.25	-4.7312	-4.8354	-4.3542	-4.7979	-4.4729	-4.625	-4.8667	-4.1896	-4.5896	-4.6521	-4.3167	190.553	220.179	56.642	215.975	-71.390	-60.144	127.374	195.638	248.868	100.442	160.823	146.399	-86.649	29.502	68.603	265.868	0.000168	0.00025565	6.4972e-05	1170.7	2.2611e-06	3.8773e-06	1220.9	236	2.4662e-06	3.6242e-06	294.76	81.098	65.231	18.902	2.9559e-06	26.841	0.00025748	0.00029141	7.5032e-05	1153.4	3.8018e-06	3.1336e-06	1204.3	234.06	3.276e-06	3.1259e-06	292.86	81.935	64.998	19.046	3.0339e-06	27.08	85.038	-11.219	4.199	-76.790	70.010	73.350	-76.602	-69.574	11.834	67.266	-69.829	-63.325	-63.222	-56.008	55.804	-56.358	-8191	255	
18436.363	1	1	0	0	0.05307	0.23125	0.18431	0.28545	0.089651	0.20212	0.16544	0.11143	0.1342	0.05545	0.12947	0.13209	0.19362	0.13123	0.01997	0.087261	-4.5083	-4.5146	-4.4229	-4.975	-4.1833	-4.8125	-4.8833	-4.3104	-4.8833	-4.45	-4.5604	-5.1583	-4.3604	-4.6188	-4.6417	-4.3083	-1.681	109.706	102.321	-26.641	-72.505	137.000	176.839	222.679	-30.079	174.052	-44.791	240.701	81.851	209.009	-10.488	119.638	0.00017527	0.00038633	9.1647e-05	1166.5	2.3745e-06	3.7124e-06	1219.3	235.3	3.3504e-06	2.3704e-06	293.35	81.398	64.78	18.834	1.2356e-06	26.555	0.00026392	0.00032365	7.0114e-05	1150.4	3.824e-06	2.7796e-06	1201.6	233.7	3.0084e-06	2.4199e-06	291.54	81.839	64.64	19.038	2.4192e-06	26.879	91.010	2.304	16.316	-76.690	11.639	58.614	-76.711	-69.734	31.456	51.166	-69.957	-63.153	-63.085	-56.030	77.349	-56.321	-8191	255	
18436.436	1	1	0	0	0.20019	0.03533	0.17544	0.38231	0.22155	0.069153	0.041956	0.0088738	0.053209	0.12869	0.14615	0.080673	0.0084581	0.11458	0.14255	0.13375	-4.4854	-4.3854	-4.2896	-4.8812	-4.175	-4.575	-4.9563	-4.3229	-4.8938	-4.5354	-4.4292	-5.0229	-4.4854	-4.4812	-4.8104	-4.275	166.606	147.340	-72.794	-68.934	134.096	-8.245	115.073	269.603	248.277	-16.088	43.476	215.342	240.980	-84.503	-50.021	217.924	0.00019903	0.00028092	7.2189e-05	1160.6	1.9851e-06	3.2864e-06	1205.9	234.1	2.3196e-06	2.3654e-06	291.12	81.291	63.914	18.698	2.916e-06	26.525	0.00026557	0.00030563	7.8685e-05	1145.4	3.4018e-06	2.717e-06	1192.7	232.3	2.9799e-06	2.5885e-06	290.19	81.548	64.349	18.926	2.5962e-06	26.753	98.132	-1.278	-0.040	-76.740	85.756	53.611	-76.770	-69.478	32.392	73.163	-69.687	-63.008	-63.109	-55.759	51.917	-56.289	-8191	255	
18436.531	1	1	0	0	0.075825	0.21894	0.13907	0.10928	0.4519	0.1192	0.19872	0.18831	0.145	0.10068	0.19811	0.17993	0.14643	0.037332	0.058547	0.14931	-4.3708	-4.575	-4.1521	-4.9792	-4.3063	-4.3833	-4.9083	-4.3667	-4.6583	-4.6104	-4.3521	-4.7083	-4.4354	-4.4083	-4.775	-4.3	-45.467	87.911	110.731	-66.249	111.289	-7.064	189.813	251.669	10.185	231.255	-76.669	217.748	174.678	44.285	259.422	-4.371	0.00020315	0.00035235	8.3335e-05	1149.7	1.3789e-06	3.3512e-06	1196.6	230.59	2.4868e-06	2.1545e-06	289.71	80.244	63.855	18.598	2.1682e-06	26.413	0.00026369	0.00020992	6.9225e-05	1131.1	3.596e-06	2.179e-06	1182.1	229.8	2.7447e-06	2.0453e-06	287.66	80.965	64.108	18.825	2.1568e-06	26.653	80.959	2.373	17.511	-76.810	28.389	71.194	-76.542	-69.162	23.586	51.683	-69.851	-63.195	-63.071	-56.209	64.335	-56.144	-8191	255	
18436.650	1	1	0	0	0.13628	0.10598	0.09769	0.19138	0.079255	0.19267	0.22013	0.12993	0.15053	0.089749	0.031717	0.20489	0.10489	0.12382	0.077389	0.063301	-4.3021	-4.6417	-4.1792	-5.025	-4.5146	-4.2688	-5.1687	-4.3021	-4.5708	-4.8417	-4.2438	-4.7917	-4.4896	-4.45	-4.875	-4.4	122.576	224.121	192.373	262.732	-44.517	42.779	232.428	-82.174	194.519	32.046	215.638	64.180	151.769	95.844	255.732	83.651	0.00017982	0.00034463	0.00010075	1144.2	1.8203e-06	2.319e-06	1190.7	231.4	1.0235e-06	2.3846e-06	289.68	80.627	63.117	18.684	2.4858e-06	26.441	0.00025196	0.00021075	7.344e-05	1125.7	3.3276e-06	2.1888e-06	1177.8	229.91	2.6837e-06	1.9649e-06	288.03	81.001	63.826	18.81	1.9113e-06	26.685	95.233	9.108	6.884	-76.688	14.115	56.803	-76.667	-69.528	8.748	58.253	-69.621	-63.161	-62.968	-56.067	23.507	-56.003	-8191	255	
18436.746	1	1	0	0	0.18839	0.13795	0.10961	0.25067	0.11086	0.12521	0.21636	0.03217	0.12879	0.11734	0.054344	0.24816	0.1424	0.1337	0.11507	0.12674	-4.2146	-4.8313	-4.2354	-4.9979	-4.5625	-4.3438	-5.1396	-4.15	-4.55	-4.9979	-4.2292	-4.7604	-4.6604	-4.2438	-4.8083	-4.475	12.484	27.296	171.273	196.746	15.781	43.170	157.365	12.420	71.455	212.094	35.769	-65.133	-7.981	-78.845	51.386	212.548	0.00018215	0.00031047	9.4968e-05	1140	2.8888e-06	2.3292e-06	1192.2	231.06	1.1536e-06	3.5203e-06	289.53	81.144	63.746	18.711	2.4317e-06	26.24	0.00026233	0.00020414	7.5782e-05	1124.7	3.3197e-06	2.4881e-06	1178.8	229.82	2.4785e-06	2.0728e-06	287.74	81.046	63.767	18.799	1.9784e-06	26.624	87.691	10.310	-6.201	-76.670	38.872	69.947	-76.572	-69.607	29.205	55.001	-69.892	-63.294	-62.587	-55.742	45.050	-56.464	-8191	255	
18436.842	1	1	0	0	0.066499	0.10353	0.44163	0.24401	0.13935	0.22269	0.19938	0.13493	0.16817	0.20138	0.10261	0.15216	0.10992	0.077831	0.16108	0.19646	-4.0083	-4.7917	-4.2229	-4.8688	-4.6604	-4.3208	-5.0583	-4.5979	-4.4729	-4.8938	-4.3625	-4.6708	-4.8333	-4.2208	-4.6125	-4.3083	210.851	9.582	-70.493	-70.329	256.163	34.675	203.487	230.848	260.815	21.511	179.235	5.117	-41.720	202.450	-25.995	-66.331	0.00020067	0.00029211	8.7738e-05	1144.8	2.4374e-06	2.3615e-06	1192.2	230.11	1.9554e-06	1.8764e-06	288.81	80.125	63.569	18.504	2.7154e-06	26.217	0.00025213	0.00023059	6.7117e-05	1126.6	3.2572e-06	2.3786e-06	1179.5	229.05	3.0539e-06	1.9473e-06	287.52	80.937	63.834	18.747	2.5184e-06	26.608	99.930	-2.668	-4.211	-76.682	29.803	66.226	-76.579	-69.380	7.503	43.001	-69.487	-63.351	-63.113	-55.796	81.498	-56.048	-8191	255	
18436.939	1	1	0	0	0.16066	0.20962	0.069606	0.20327	0.1779	0.14841	0.089487	0.26777	0.25551	0.054526	0.39765	0.12687	0.1385	0.095495	0.12161	0.21766	-4.0542	-4.8708	-4.3021	-4.7312	-4.6208	-4.2146	-4.9875	-4.5875	-4.3208	-4.8542	-4.1813	-4.5021	-4.65	-4.0792	-4.5771	-4.5	123.580	-77.941	54.916	228.120	-75.527	187.497	186.256	228.780	-32.924	-21.470	253.122	-83.432	-81.544	183.753	222.141	-73.779	0.00018706	0.00039506	8.9158e-05	1146.1	2.2954e-06	2.8619e-06	1195.3	231	2.4791e-06	3.012e-06	289.16	80.367	63.658	18.647	3.0486e-06	26.266	0.00027833	0.00019819	8.1589e-05	1126	3.2285e-06	2.4725e-06	1178.9	229.31	3.0734e-06	1.9238e-06	287.3	80.815	63.902	18.813	2.2926e-06	26.572	90.039	-0.769	0.659	-76.514	0.217	73.469	-76.687	-69.553	44.950	71.898	-70.083	-63.296	-63.018	-55.719	61.649	-56.163	-8191	255	
18437.035	1	1	0	0	0.30129	0.069136	0.15777	0.15525	0.026105	0.1808	0.1893	0.074944	0.18152	0.15071	0.22015	0.1322	0.11507	0.11875	0.17756	0.1024	-3.8417	-4.7771	-4.3354	-4.6042	-4.9083	-4.3417	-4.7771	-4.5417	-4.2312	-4.9229	-4.4042	-4.5167	-4.9708	-4.2708	-4.5104	-4.6292	250.556	59.707	140.485	231.271	205.360	8.442	233.638	160.902	233.394	63.659	181.634	-66.667	22.906	-49.978	-57.252	181.331	0.00022539	0.00027314	8.6164e-05	1144.7	2.6731e-06	4.3267e-06	1193.2	230.78	2.523e-06	2.2173e-06	287.98	80.152	64.006	18.808	3.6961e-06	26.252	0.00028243	0.00020827	6.3229e-05	1126.4	3.1399e-06	2.9145e-06	1177.9	229.37	3.25e-06	2.012e-06	287.2	80.869	64.092	18.848	2.7746e-06	26.632	91.123	17.009	-11.536	-76.558	29.401	70.345	-76.544	-69.503	5.281	72.843	-69.641	-63.365	-63.043	-55.806	45.721	-56.585	-8191	255	
18437.131	1	1	0	0	0.13091	0.088067	0.11857	0.28866	0.20522	0.1116	0.15562	0.14571	0.21535	0.12225	0.15816	0.092094	0.095763	0.16317	0.034585	0.14507	-3.9917	-4.95	-4.2854	-4.4521	-4.7	-4.2312	-4.5938	-4.9042	-4.2562	-4.6021	-4.3729	-4.3958	-4.8479	-4.2458	-4.6667	-4.7562	114.509	-73.007	270.428	201.291	64.008	-28.926	220.096	219.493	203.551	-54.618	133.994	189.903	-83.252	266.611	193.414	170.611	0.00014549	0.00031607	5.3606e-05	1145.4	2.5915e-06	2.4586e-06	1197.1	231.91	1.8283e-06	2.7396e-06	289.38	80.708	63.717	18.561	2.1632e-06	26.528	0.00025236	0.00024778	6.0981e-05	1127.2	3.1803e-06	2.67e-06	1179.1	229.87	3.3098e-06	2.1885e-06	287.65	80.889	63.878	18.731	2.4573e-06	26.726	89.885	-7.537	8.187	-76.536	37.273	69.938	-76.724	-69.542	14.201	81.481	-69.925	-63.402	-63.010	-55.962	17.021	-56.306	-8191	255	
18437.227	1	1	0	0	0.2302	0.24117	0.2963	0.23003	0.029792	0.23244	0.14899	0.28123	0.10476	0.14862	0.11639	0.15088	0.2005	0.024896	0.10946	0.22666	-3.9875	-4.7083	-4.3	-4.4625	-4.9563	-4.1562	-4.8521	-4.8625	-4.0646	-4.6396	-4.6604	-4.2583	-4.8458	-4.5771	-4.425	-4.7688	-80.786	203.897	87.613	241.164	200.425	141.905	164.113	230.895	11.531	222.071	269.058	-67.559	83.123	-24.727	90.050	124.717	0.00018108	0.00040272	7.2773e-05	1140.6	2.513e-06	3.8012e-06	1190.1	230.75	2.7944e-06	3.5677e-06	289.37	80.252	63.719	18.677	3.7319e-06	26.409	0.00025976	0.00020563	6.0419e-05	1125.7	2.9132e-06	3.0769e-06	1176.8	229.22	2.8993e-06	2.2316e-06	287.77	80.85	63.95	18.799	2.7472e-06	26.698	90.112	-3.963	29.931	-76.548	63.010	61.386	-76.388	-69.241	16.538	55.220	-69.913	-63.260	-62.602	-55.731	70.706	-55.850	-8191	255	
18437.322	1	1	0	0	0.059874	0.094745	0.16971	0.38368	0.12543	0.23506	0.10789	0.15276	0.21674	0.27467	0.11039	0.2325	0.29575	0.112	0.18731	0.05521	-3.9146	-4.75	-4.4792	-4.4146	-4.8292	-4.3521	-4.8229	-4.7708	-4.2042	-4.7521	-4.7708	-4.2188	-4.7667	-4.5708	-4.3313	-4.7375	247.647	261.080	204.308	221.720	52.841	-55.086	157.216	-84.723	254.691	14.302	257.164	-55.221	-68.965	167.642	256.511	235.682	0.00022035	0.00033839	6.7753e-05	1142.1	1.3113e-06	2.6942e-06	1192.8	230.8	2.5303e-06	1.6481e-06	290.25	80.784	63.391	18.73	4.3056e-06	26.409	0.00025612	0.00025587	5.4003e-05	1126.1	3.2846e-06	2.3062e-06	1177.3	229.46	3.1202e-06	2.0414e-06	287.44	81.068	63.87	18.819	2.7594e-06	26.638	86.414	10.412	4.677	-76.694	76.946	64.057	-76.803	-69.663	-12.967	47.195	-69.646	-63.450	-63.434	-55.770	45.091	-56.495	-8191	255	
18437.443	1	1	0	0	0.119	0.12166	0.27629	0.15256	0.15121	0.1332	0.018921	0.14252	0.14496	0.16176	0.044452	0.10451	0.13822	0.012316	0.064875	0.2491	-3.975	-4.725	-4.7438	-4.2667	-4.8292	-4.4604	-4.5771	-5.0625	-4.2354	-4.7042	-4.8313	-4.3208	-4.9625	-4.6729	-4.2208	-5.0333	-1.393	117.478	-40.292	194.472	130.859	-4.795	-86.718	-57.978	-23.426	139.833	91.232	138.716	250.849	207.143	165.323	267.628	0.00020592	0.00034955	7.8793e-05	1143.7	2.2098e-06	2.9083e-06	1197	230.45	1.5944e-06	2.7178e-06	289.17	80.254	63.9	18.566	1.8766e-06	26.214	0.00026443	0.00021968	5.4471e-05	1127.2	3.3158e-06	2.2847e-06	1180	229.51	3.0942e-06	2.1042e-06	287.53	80.762	63.913	18.818	2.9988e-06	26.664	96.041	16.961	-0.677	-76.688	64.091	82.321	-76.637	-69.671	34.714	67.701	-69.851	-62.992	-62.701	-55.924	42.069	-56.302	-8191	255	
18437.539	1	1	0	0	0.061198	0.089894	0.035435	0.089466	0.096929	0.087675	0.1224	0.18604	0.1715	0.18575	0.053215	0.10707	0.1417	0.096	0.18298	0.15795	-4.0646	-4.375	-4.6979	-4.4208	-4.8729	-4.4479	-4.4646	-4.9292	-4.325	-4.5188	-4.8	-4.3292	-4.7042	-4.6229	-4.2417	-5.0667	198.308	267.760	253.446	226.761	222.128	147.577	-66.203	250.945	249.988	34.229	92.610	267.980	247.686	85.400	254.985	234.569	0.00016593	0.00029113	8.3394e-05	1145	2.2551e-06	4.0062e-06	1197.8	231.37	2.2908e-06	3.5695e-06	288.83	80.726	63.991	18.656	1.951e-06	26.489	0.00026335	0.00022315	5.5455e-05	1128.6	2.9771e-06	2.3962e-06	1179.4	229.54	3.1202e-06	2.4336e-06	287.9	81.058	63.924	18.807	2.7151e-06	26.782	106.821	-0.389	-15.760	-76.560	44.952	68.829	-76.529	-69.649	23.562	69.560	-69.988	-63.669	-63.128	-55.820	82.968	-56.498	-8191	255	
18437.637	1	1	0	0	0.030086	0.22313	0.16044	0.046718	0.11077	0.1753	0.073386	0.22576	0.21489	0.16434	0.22021	0.091529	0.15297	0.1388	0.14316	0.28534	-4.0958	-4.275	-4.6417	-4.2479	-4.8375	-4.8875	-4.3938	-4.8646	-4.4542	-4.375	-4.9208	-4.3708	-4.8	-4.6833	-4.1771	-4.8896	85.541	225.472	153.898	74.364	198.064	-9.485	174.757	-81.824	-50.582	22.619	-62.988	140.732	209.365	-59.414	22.203	269.459	0.00018899	0.0003199	0.00010346	1145.9	1.8618e-06	3.9342e-06	1195.5	231.58	2.4626e-06	3.1477e-06	288.75	80.049	63.697	18.602	3.5792e-06	26.429	0.00027155	0.00020596	4.6743e-05	1127.5	3.2338e-06	2.3727e-06	1179.1	229.61	2.7759e-06	2.8239e-06	287.35	80.763	64.006	18.836	2.889e-06	26.715	86.379	11.167	-0.823	-76.642	67.810	71.449	-76.659	-69.697	5.665	55.840	-69.764	-63.350	-62.539	-55.869	52.893	-55.957	-8191	255	
18437.730	1	1	0	0	0.099741	0.024856	0.19892	0.12297	0.33589	0.2442	0.21422	0.14875	0.083632	0.045731	0.22198	0.15511	0.19397	0.13588	0.041034	0.27553	-4.2042	-4.5167	-4.9187	-4.4521	-4.6229	-4.825	-4.4146	-4.8438	-4.5437	-4.3854	-4.9229	-4.3729	-4.6271	-4.7542	-4.1625	-4.875	187.607	233.743	133.540	215.398	19.618	30.318	237.236	-63.325	-52.692	42.065	190.225	136.676	109.087	168.130	92.356	-73.966	0.00016641	0.00020672	0.00010713	1144.2	3.2826e-06	2.1917e-06	1192.5	229.37	1.4626e-06	3.3647e-06	289.73	81.067	63.72	18.683	3.9086e-06	26.492	0.00026563	0.00022546	4.782e-05	1127.2	3.2676e-06	2.1165e-06	1178.2	229.14	2.8318e-06	2.7356e-06	287.53	81.117	63.775	18.807	2.5656e-06	26.771	96.356	-29.479	-1.162	-76.643	61.365	51.226	-76.641	-69.453	91.608	76.178	-69.582	-63.109	-62.432	-55.980	47.460	-56.352	-8191	255	
18437.826	1	1	0	0	0.1403	0.065154	0.096891	0.14689	0.075152	0.14082	0.26313	0.21372	0.12939	0.31261	0.20413	0.21116	0.10399	0.19406	0.074259	0.14932	-4.3688	-4.3938	-4.9708	-4.5312	-4.6	-4.7979	-4.5604	-4.8396	-4.6521	-4.3	-4.875	-4.45	-4.5312	-4.8479	-4.2458	-4.7021	223.848	179.292	103.733	-86.215	-6.240	57.255	167.456	226.117	69.073	217.673	-74.064	-12.755	173.459	145.078	86.289	172.659	0.0002233	0.00029455	8.5961e-05	1143.6	2.1949e-06	3.1765e-06	1190	230.56	9.9122e-07	2.8236e-06	289.01	80.005	63.497	18.495	3.6182e-06	26.237	0.00024985	0.00025025	5.7703e-05	1125.9	3.0618e-06	2.0187e-06	1177.4	229.59	2.7759e-06	2.8376e-06	287.32	80.912	63.928	18.782	2.9348e-06	26.661	100.434	1.872	-3.493	-76.399	62.687	57.096	-76.828	-69.320	34.406	97.462	-69.691	-63.492	-63.104	-55.881	66.273	-56.134	-8191	255	
18437.924	1	1	0	0	0.27914	0.17112	0.007689	0.19098	0.17008	0.20319	0.26882	0.16548	0.08612	0.20534	0.077996	0.21112	0.14026	0.11307	0.1022	0.086969	-4.4437	-4.1458	-4.9583	-4.6292	-4.3896	-5.0125	-4.4875	-4.6354	-4.5396	-4.2708	-4.9167	-4.5437	-4.3396	-4.8521	-4.3229	-4.5854	36.593	209.515	161.700	-18.514	208.596	109.661	178.400	198.526	49.712	253.517	176.922	117.657	235.340	250.953	-76.450	-85.811	0.00021024	0.00037449	9.9006e-05	1144.8	3.1017e-06	2.4379e-06	1197.4	231.09	1.5092e-06	2.2366e-06	289.33	80.858	64.055	18.674	3.149e-06	26.42	0.0002507	0.00023802	6.6508e-05	1125.4	3.6077e-06	1.9521e-06	1179	229.56	2.6733e-06	2.3022e-06	287.39	81.081	64.145	18.787	2.6602e-06	26.715	94.960	8.767	16.184	-76.497	57.506	57.197	-76.370	-69.564	16.367	68.279	-69.846	-63.307	-63.220	-55.878	65.562	-56.677	-8191	255	
18438.043	1	1	0	0	0.14384	0.31485	0.40767	0.29218	0.050065	0.19691	0.078795	0.049852	0.026196	0.18014	0.012462	0.077982	0.29224	0.13371	0.0061612	0.15735	-4.35	-4.3562	-4.7667	-4.4938	-4.2021	-4.8875	-4.4896	-4.5396	-4.6583	-4.3187	-4.8083	-4.4896	-4.2208	-4.8271	-4.2854	-4.5521	-16.236	-74.560	184.626	-44.601	-84.204	-7.349	260.012	-7.036	94.945	-76.767	212.578	202.572	196.335	228.579	205.761	-76.146	0.00018244	0.00032518	0.00010928	1144.4	2.1684e-06	2.8393e-06	1195.4	231.71	2.2435e-06	3.2965e-06	287.72	80.378	63.532	18.669	3.4969e-06	26.484	0.00025914	0.00023868	5.7656e-05	1126.9	3.2989e-06	1.6509e-06	1178	229.8	2.6603e-06	3.4259e-06	287.43	80.988	63.895	18.792	2.4299e-06	26.737	96.439	-8.239	-4.719	-76.642	93.696	63.447	-76.605	-69.472	45.011	55.780	-69.687	-62.831	-63.320	-56.296	52.498	-56.524	-8191	255	
18438.141	1	1	0	0	0.095446	0.18105	0.11035	0.17767	0.054093	0.23672	0.24514	0.13382	0.13486	0.074205	0.15175	0.13387	0.085417	0.22497	0.21547	0.17477	-4.4729	-4.2083	-4.7479	-4.6375	-4.3292	-4.7417	-4.4313	-4.6229	-4.7292	-4.2	-4.7542	-4.7021	-4.0521	-4.7333	-4.5292	-4.4417	-29.700	-31.130	25.547	220.654	169.615	178.609	257.160	197.395	15.328	51.388	269.177	71.524	33.773	-46.353	-10.150	255.600	0.00019985	0.00028856	8.0756e-05	1142.1	3.2997e-06	2.8837e-06	1190.1	231.41	1.2235e-06	3.4845e-06	289.02	80.205	63.555	18.568	2.2679e-06	26.426	0.00026238	0.00028678	6.2621e-05	1122.7	3.6246e-06	1.7292e-06	1175.1	229.84	2.4447e-06	2.5042e-06	287.31	80.854	63.894	18.771	2.3155e-06	26.691	80.138	10.326	29.182	-76.577	53.498	59.042	-76.633	-69.266	69.810	60.912	-69.889	-63.125	-62.646	-55.850	41.246	-56.178	-8191	255	
18438.236	1	1	0	0	0.20141	0.29897	0.046507	0.256	0.094396	0.069803	0.17338	0.17772	0.062513	0.1478	0.12104	0.056651	0.27764	0.24014	0.21467	0.048611	-4.3125	-4.1687	-4.6417	-4.7271	-4.0979	-4.7354	-4.5604	-4.2375	-4.8417	-4.2	-4.8125	-4.7229	-4.1604	-4.8167	-4.5396	-4.3396	9.665	-35.783	250.743	247.379	194.459	-7.250	-81.137	-24.529	186.335	243.440	-61.837	165.305	-23.081	234.739	-82.658	253.113	0.00019135	0.00032531	8.4955e-05	1139.5	2.1508e-06	3.6216e-06	1188.1	229.27	2.004e-06	3.3886e-06	288.32	79.923	63.242	18.548	3.2056e-06	26.191	0.00025948	0.00026232	5.4611e-05	1120.5	3.7406e-06	2.0988e-06	1175.2	228.54	2.9552e-06	2.3375e-06	287.04	80.869	63.778	18.756	2.4497e-06	26.643	91.872	-0.931	4.301	-76.700	36.187	71.779	-76.497	-69.704	-20.654	85.258	-69.717	-63.144	-62.925	-55.563	62.673	-56.331	-8191	255	
18438.307	1	1	0	0	0.11989	0.089261	0.074325	0.094591	0.30831	0.05851	0.15487	0.13198	0.22338	0.2003	0.18163	0.13195	0.19861	0.17941	0.19006	0.18721	-4.5667	-4.2146	-4.4229	-4.9542	-4.3875	-4.5958	-4.7542	-4.2688	-4.8938	-4.3625	-4.6854	-4.8646	-4.2188	-4.7937	-4.4729	-4.3042	212.565	84.744	-60.188	265.532	96.707	-8.875	166.351	236.764	167.973	69.056	151.723	79.792	64.585	-70.228	271.357	74.717	0.00020069	0.0004201	6.7976e-05	1142.5	2.4444e-06	2.3055e-06	1188.9	230.63	2.9544e-06	3.2323e-06	288.23	80.53	63.841	18.65	4.1202e-06	26.378	0.00025634	0.00024017	5.3253e-05	1123.8	3.6963e-06	1.8289e-06	1175	229.36	2.8006e-06	2.1728e-06	287.15	80.956	64.035	18.786	2.3414e-06	26.629	90.776	-13.171	11.356	-76.721	38.954	64.900	-76.672	-69.499	54.137	62.933	-69.842	-63.440	-62.662	-55.940	46.583	-56.323	-8191	255	
18438.428	1	1	0	0	0.17411	0.18114	0.12326	0.06951	0.20335	0.099112	0.26488	0.14197	0.097037	0.17473	0.3504	0.073471	0.13587	0.04217	0.0074456	0.069542	-4.4354	-4.3625	-4.3896	-4.9583	-4.2146	-4.4708	-4.8729	-4.3542	-4.7542	-4.55	-4.3396	-4.9333	-4.2229	-4.5625	-4.4313	-4.3187	83.103	30.506	240.440	-50.439	210.884	6.564	185.185	57.483	-71.574	58.386	-74.214	-12.046	197.428	-22.470	186.105	151.238	0.00019144	0.00033614	6.5683e-05	1137.5	2.5729e-06	3.2193e-06	1189.2	230.67	7.3764e-07	2.7079e-06	288.8	80.259	63.939	18.427	2.9173e-06	26.45	0.00023134	0.00020744	5.8405e-05	1121.5	3.5451e-06	1.9991e-06	1173.5	228.87	2.4473e-06	2.3768e-06	287.54	80.777	63.95	18.719	1.8579e-06	26.696	89.799	14.213	10.903	-76.624	16.115	46.875	-76.556	-69.896	24.521	66.435	-69.503	-63.587	-63.198	-55.561	58.689	-56.648	-8191	255	
18438.523	1	1	0	0	0.21249	0.11204	0.117	0.41859	0.065753	0.04835	0.18878	0.21839	0.049862	0.054263	0.071683	0.13639	0.24498	0.14461	0.13869	0.084853	-4.6792	-4.4	-4.1771	-4.8812	-4.4646	-4.575	-4.9729	-4.2937	-4.825	-4.4979	-4.2833	-4.9792	-4.3875	-4.7021	-4.6792	-4.1896	249.691	202.811	119.463	269.351	244.485	124.105	188.243	239.617	-19.519	220.583	53.046	245.012	230.400	200.599	140.430	-36.338	0.00021025	0.00027254	8.2511e-05	1140.3	2.6705e-06	2.7207e-06	1189.6	230.41	3.1167e-06	2.3863e-06	287.45	79.811	63.623	18.552	2.798e-06	26.258	0.00024461	0.00021273	6.1777e-05	1123	3.5191e-06	2.762e-06	1174.2	229.31	2.6811e-06	2.4003e-06	286.77	80.5	63.97	18.721	2.1523e-06	26.639	86.816	-4.426	7.491	-76.628	51.175	55.383	-76.777	-69.531	38.902	61.962	-69.648	-63.450	-63.189	-55.402	49.438	-56.140	-8191	255	
18438.619	1	1	0	0	0.04249	0.10978	0.15189	0.36002	0.24144	0.09197	0.3191	0.272	0.11892	0.036978	0.1296	0.09932	0.1789	0.18959	0.01678	0.045282	-4.3667	-4.4583	-4.1188	-4.8729	-4.1792	-4.5625	-4.8396	-4.2812	-4.5792	-4.5563	-4.3771	-4.8271	-4.5083	-4.4271	-4.775	-4.1792	46.385	21.371	130.424	232.206	30.881	88.318	178.545	227.660	218.460	195.824	-37.554	31.621	261.804	265.767	-20.591	200.418	0.00013462	0.00029464	9.4415e-05	1138.6	2.1221e-06	3.3095e-06	1182.5	229.45	1.1349e-06	2.965e-06	289.04	80.198	63.682	18.581	3.6426e-06	26.318	0.00024472	0.00021406	7.5407e-05	1122.1	3.4057e-06	2.2162e-06	1171.9	228.48	2.9552e-06	2.2571e-06	287.21	80.936	63.712	18.768	2.5595e-06	26.579	92.166	15.206	-1.651	-76.567	67.445	63.809	-76.649	-69.649	3.979	52.585	-69.532	-63.227	-63.266	-55.725	61.454	-56.623	-8191	255	
18438.717	1	1	0	0	0.25768	0.14186	0.23313	0.083831	0.095188	0.14193	0.20905	0.1867	0.11539	0.23777	0.3015	0.20163	0.2923	0.10661	0.063537	0.034754	-4.2125	-4.6438	-4.1583	-4.8979	-4.3812	-4.2979	-4.9354	-4.3646	-4.7521	-4.6625	-4.2188	-4.9292	-4.4938	-4.3583	-4.9458	-4.4271	-46.618	183.223	253.659	-58.635	72.367	165.023	199.593	30.839	242.713	-83.143	231.575	26.305	239.587	6.274	24.688	118.553	0.00018454	0.00027903	7.1251e-05	1140.8	2.616e-06	3.1877e-06	1193.6	229.85	2.0756e-06	3.237e-06	287.35	80.076	63.815	18.537	3.1437e-06	26.517	0.00025686	0.00022034	7.8217e-05	1121.8	3.6259e-06	2.805e-06	1176.3	228.7	2.9747e-06	2.3062e-06	286.34	80.545	63.78	18.724	2.0623e-06	26.71	88.817	2.038	6.231	-76.488	39.107	49.895	-76.597	-69.315	29.418	63.708	-69.844	-63.577	-62.936	-55.742	81.297	-56.571	-8191	255	
18438.836	1	1	0	0	0.11457	0.12898	0.02413	0.16972	0.12676	0.2917	0.15595	0.10404	0.10636	0.12971	0.19477	0.088775	0.10424	0.14494	0.19928	0.056887	-4.1854	-4.7354	-4.2458	-4.9604	-4.55	-4.2417	-5.0146	-4.6	-4.3313	-4.8083	-4.3396	-4.7125	-4.6188	-4.3375	-4.7688	-4.4812	271.190	73.762	-66.732	-52.681	150.035	181.068	255.045	263.611	253.955	-33.033	249.237	253.245	-49.174	103.776	69.577	36.831	0.00016291	0.00027833	8.9802e-05	1138.2	1.922e-06	3.0498e-06	1185.6	229.79	3.4766e-06	3.2846e-06	288.77	80.121	64.121	18.685	2.4545e-06	26.478	0.00025606	0.00025455	7.7421e-05	1123	3.5269e-06	3.0534e-06	1173.8	229.04	3.0825e-06	2.1689e-06	287.17	80.817	63.947	18.762	2.5092e-06	26.661	83.493	-1.448	8.723	-76.648	59.448	51.456	-76.889	-69.764	13.122	48.071	-69.982	-63.159	-63.025	-55.861	62.746	-56.521	-8191	255	
18438.906	1	1	0	0	0.087971	0.056076	0.19736	0.12591	0.01131	0.19863	0.073102	0.026837	0.36026	0.14513	0.086149	0.16428	0.24945	0.048146	0.16165	0.065898	-3.9354	-4.8854	-4.1312	-4.8292	-4.4313	-4.0854	-4.9062	-4.5271	-4.3187	-4.7833	-4.4042	-4.55	-4.9479	-4.1375	-4.7771	-4.6146	4.196	184.053	-86.031	187.941	179.062	242.050	266.120	237.598	-1.521	200.781	-60.463	-39.285	10.489	195.287	2.004	246.429	0.00016324	0.0003565	0.00011014	1137.8	2.7005e-06	2.7257e-06	1191.1	230.96	2.7057e-06	3.3775e-06	287.38	80.834	63.821	18.626	1.9019e-06	26.218	0.00028016	0.00022695	7.1988e-05	1122.9	3.3536e-06	2.8676e-06	1174.6	229.19	3.024e-06	2.0806e-06	286.32	80.988	63.838	18.736	2.2789e-06	26.622	94.314	-1.120	17.839	-76.429	60.629	75.514	-76.774	-69.377	44.130	50.159	-69.668	-63.424	-62.899	-55.965	71.964	-56.709	-8191	255	
18439.004	1	1	0	0	0.02724	0.11946	0.070365	0.20835	0.09544	0.12646	0.34985	0.14184	0.062334	0.12468	0.16654	0.12417	0.16993	0.044066	0.10371	0.15058	-4.0188	-4.775	-4.3938	-4.8042	-4.75	-4.1396	-4.9792	-4.5542	-4.25	-4.9354	-4.5521	-4.5542	-4.6979	-4.3417	-4.5375	-4.6021	60.262	-79.599	-18.546	199.481	83.505	264.204	184.606	198.360	38.882	268.983	189.955	48.327	-53.646	-8.494	151.241	-20.126	0.00019619	0.00032265	7.1309e-05	1140.1	1.2886e-06	4.2487e-06	1185.7	230.9	2.6859e-06	2.6424e-06	290.01	80.251	63.597	18.663	3.0582e-06	26.321	0.00026597	0.00018678	6.2527e-05	1124.1	3.239e-06	3.3762e-06	1175	228.98	3.3306e-06	2.2316e-06	287.68	80.718	63.743	18.823	2.3475e-06	26.571	87.449	-20.305	14.589	-76.568	72.729	83.030	-76.358	-69.543	12.355	69.847	-69.909	-63.496	-62.909	-55.342	62.527	-56.414	-8191	255	
18439.123	1	1	0	0	0.17593	0.16473	0.19358	0.10611	0.021671	0.11732	0.075753	0.34597	0.015734	0.29873	0.038082	0.17074	0.10529	0.09294	0.053853	0.12307	-3.9271	-4.6604	-4.1729	-4.7104	-4.6854	-4.1708	-4.8708	-4.7542	-4.0833	-4.8604	-4.4854	-4.4458	-4.7208	-4.2771	-4.4563	-4.6792	256.270	-81.313	204.919	223.919	143.115	62.547	184.239	152.679	257.135	-78.928	47.782	255.662	162.169	36.104	102.315	50.653	0.00018219	0.00027578	8.3815e-05	1140.2	2.6999e-06	3.2945e-06	1188.3	230.78	2.7496e-06	2.8511e-06	287.42	80.565	63.512	18.644	1.8702e-06	26.572	0.00026711	0.00020579	7.4283e-05	1123.4	3.4305e-06	2.6172e-06	1175.8	229.46	3.3631e-06	1.8551e-06	286.59	81.056	63.796	18.818	2.2163e-06	26.66	81.260	6.735	5.752	-76.589	77.895	53.163	-76.623	-69.599	26.490	56.300	-69.422	-63.244	-63.046	-55.819	35.916	-56.265	-8191	255	
18439.221	1	1	0	0	0.13217	0.15568	0.15293	0.22482	0.11233	0.088322	0.10356	0.21158	0.21703	0.12881	0.20389	0.031968	0.12779	0.058326	0.20279	0.21279	-3.8229	-4.7312	-4.4187	-4.5854	-4.9333	-4.1271	-4.6083	-4.8146	-4.0917	-4.7771	-4.4875	-4.2333	-4.9125	-4.275	-4.5125	-4.8438	29.818	154.291	57.645	245.989	132.561	212.309	206.307	224.073	198.491	87.446	-16.641	90.326	257.504	77.843	122.423	172.680	0.00013666	0.00030951	0.00011001	1145.9	2.766e-06	1.9466e-06	1188.3	230.46	2.2096e-06	2.5029e-06	289.48	80.908	63.722	18.535	3.474e-06	26.4	0.00028819	0.00020629	6.8897e-05	1124.7	2.981e-06	2.715e-06	1176.2	229.24	3.3605e-06	1.6806e-06	287.86	80.761	63.746	18.795	2.6541e-06	26.689	95.455	-7.284	14.000	-76.552	77.802	38.446	-76.711	-69.664	46.524	60.064	-69.897	-63.506	-63.025	-55.811	46.370	-56.488	-8191	255	
18439.316	1	1	0	0	0.13161	0.21782	0.14581	0.23972	0.094102	0.16274	0.037696	0.18798	0.14526	0.086022	0.23269	0.089809	0.23177	0.07007	0.12299	0.14004	-3.7458	-4.6521	-4.3063	-4.3479	-4.9229	-4.4354	-4.7188	-4.7021	-4.075	-4.6042	-4.5167	-4.175	-4.7	-4.4292	-4.2854	-4.7125	39.054	-9.441	7.741	242.401	176.706	37.812	187.857	-74.231	89.576	163.361	211.793	-9.950	176.211	-76.912	250.271	141.185	0.00017702	0.00035819	9.9377e-05	1143.6	1.4203e-06	2.7862e-06	1193.4	229.36	2.4193e-06	1.7897e-06	288.33	80.483	64.273	18.675	1.7877e-06	26.27	0.00026546	0.00023587	6.81e-05	1124.4	2.8729e-06	2.4236e-06	1177.2	228.78	3.1695e-06	2.2061e-06	287.38	80.901	64.048	18.777	2.4894e-06	26.516	89.008	-5.642	8.587	-76.632	48.239	59.767	-76.514	-69.608	34.820	71.501	-69.928	-63.477	-62.809	-55.977	40.832	-56.601	-8191	255	
18439.438	1	1	0	0	0.31477	0.049153	0.11867	0.16057	0.15732	0.172	0.28419	0.080072	0.038021	0.015537	0.22322	0.30165	0.15093	0.1405	0.021365	0.24277	-3.6021	-4.5542	-4.4125	-4.325	-4.7188	-4.4875	-4.5938	-4.7458	-4.2438	-4.4938	-4.65	-4.2188	-4.6813	-4.6083	-4.2583	-4.9333	158.357	117.249	90.552	255.464	230.860	244.168	205.420	264.646	61.338	-75.644	-79.464	231.157	100.677	232.541	75.777	228.466	0.00017727	0.00032444	8.1534e-05	1143.6	1.9339e-06	3.3001e-06	1191.3	230.59	2.4199e-06	2.3433e-06	288.66	80.525	64.229	18.616	2.5322e-06	26.269	0.00028289	0.00021042	5.2785e-05	1124.6	3.0983e-06	2.1517e-06	1177.4	229.37	3.2721e-06	1.9747e-06	286.97	80.801	63.97	18.763	2.7761e-06	26.702	88.062	-5.755	-0.437	-76.457	48.661	57.028	-76.765	-69.604	35.276	81.732	-69.796	-63.479	-62.997	-55.405	68.164	-56.216	-8191	255	
18439.533	1	1	0	0	0.15079	0.061207	0.11826	0.13404	0.19541	0.027036	0.14704	0.028636	0.09719	0.19206	0.093521	0.15511	0.12091	0.22438	0.19062	0.061477	-4.0042	-4.6292	-4.4396	-4.5208	-4.7583	-4.4958	-4.4167	-4.8167	-4.3083	-4.5208	-4.6375	-3.95	-4.9833	-4.5437	-4.3	-4.7646	186.539	149.104	101.129	14.580	103.172	-12.279	174.573	-42.072	123.361	130.542	145.439	262.172	-2.120	248.067	42.355	62.569	0.00017524	0.00026505	8.209e-05	1145.4	1.9608e-06	2.8603e-06	1189.3	231.25	1.5694e-06	2.4179e-06	289.51	80.599	63.88	18.722	3.7986e-06	26.286	0.00025936	0.00019356	5.0162e-05	1126.3	3.1699e-06	2.3668e-06	1177.5	229.82	3.124e-06	1.7806e-06	287.76	81.029	63.97	18.804	3.008e-06	26.728	100.639	3.464	-0.055	-76.542	79.467	61.939	-76.778	-69.238	11.430	80.945	-69.608	-63.194	-62.827	-55.641	72.850	-55.991	-8191	255	
18439.605	1	1	0	0	0.14423	0.060796	0.18392	0.29176	0.19019	0.26753	0.11206	0.012349	0.19976	0.023651	0.10258	0.081093	0.035437	0.071182	0.24689	0.18114	-3.9437	-4.4688	-4.7354	-4.2896	-4.6083	-4.6479	-4.3583	-4.7042	-4.3104	-4.5354	-4.7896	-4.1833	-4.6333	-4.4708	-4.2188	-4.9125	194.874	57.864	-32.498	-75.198	262.002	111.623	139.698	-67.732	-8.133	67.611	148.834	20.541	5.961	32.745	231.918	68.044	0.00017295	0.00031546	7.9869e-05	1140.3	1.3878e-06	2.5005e-06	1190.4	230.22	1.2863e-06	3.0173e-06	289.34	80.228	63.987	18.616	2.3429e-06	26.301	0.00026341	0.00022182	5.1661e-05	1123.6	3.0344e-06	2.3688e-06	1175.9	229.21	3.0851e-06	2.4591e-06	287.46	80.74	64.03	18.757	2.4299e-06	26.592	95.588	3.638	22.316	-76.770	62.837	71.492	-76.588	-69.592	19.525	60.492	-69.737	-62.769	-62.884	-55.779	35.572	-56.299	-8191	255	
18439.725	1	1	0	0	0.26501	0.23366	0.23605	0.2018	0.072356	0.16364	0.38321	0.14321	0.23161	0.035234	0.22453	0.25806	0.15746	0.28506	0.14156	0.19231	-4.0458	-4.4062	-4.8021	-4.35	-4.5396	-4.7479	-4.4062	-4.8604	-4.5188	-4.4667	-4.8792	-4.2083	-4.5188	-4.5792	-4.1625	-4.6333	199.871	6.629	-13.269	237.746	165.844	46.819	180.676	256.836	9.492	165.176	258.154	81.510	178.223	46.057	260.237	101.563	0.0001369	0.00039681	8.5359e-05	1138	2.3154e-06	2.009e-06	1184.6	229.79	2.9818e-06	3.0754e-06	288.09	80.3	63.655	18.518	3.9846e-06	26.314	0.00025133	0.00025769	5.1708e-05	1122.7	3.2846e-06	2.2456e-06	1174.6	228.82	2.9344e-06	2.3042e-06	287.21	80.649	63.679	18.729	3.4061e-06	26.609	87.388	4.989	1.693	-76.668	71.901	65.450	-76.688	-69.589	-1.198	52.121	-69.827	-63.259	-62.669	-55.840	51.907	-56.669	-8191	255	
18439.820	1	1	0	0	0.068865	0.27074	0.10545	0.046839	0.16913	0.18004	0.22192	0.13813	0.24617	0.2023	0.10727	0.049685	0.19475	0.081262	0.14409	0.0967	-4.0062	-4.3812	-4.7458	-4.3271	-4.4604	-4.6167	-4.1438	-4.75	-4.5188	-4.2542	-4.9104	-4.2458	-4.5521	-4.7917	-4.1417	-4.6792	221.801	29.113	265.183	215.057	183.581	10.977	233.262	200.308	236.926	-37.592	-54.634	-52.204	225.910	23.817	37.504	70.797	0.00016604	0.0002773	8.907e-05	1142.6	1.9359e-06	3.1614e-06	1194.8	230.95	1.2756e-06	3.2752e-06	288.34	80.146	63.548	18.689	2.8588e-06	26.405	0.00027167	0.0002643	4.5666e-05	1124	3.2715e-06	2.0832e-06	1177.3	229.56	2.9604e-06	3.0062e-06	287	80.67	63.848	18.804	2.4467e-06	26.614	93.595	-21.268	18.304	-76.648	43.575	59.379	-76.583	-69.479	26.808	60.967	-69.746	-63.658	-62.952	-55.849	45.092	-56.608	-8191	255	
18439.916	1	1	0	0	0.14474	0.28116	0.16188	0.22314	0.16607	0.13447	0.07339	0.26821	0.15714	0.29801	0.12943	0.30658	0.10061	0.12167	0.20999	0.13665	-4.1458	-4.3708	-4.6792	-4.4042	-4.4792	-4.6312	-4.3646	-4.8438	-4.7167	-4.1562	-4.7729	-4.2896	-4.2146	-4.8229	-4.2417	-4.6125	126.831	206.108	37.687	233.241	257.300	-29.683	11.499	192.235	55.648	253.505	17.963	1.642	219.984	153.087	80.618	-83.977	0.0001768	0.00036781	9.4226e-05	1140.3	2.2221e-06	1.5029e-06	1188.1	231.5	2.462e-06	3.599e-06	289.92	80.625	64.002	18.611	3.0748e-06	26.228	0.00024677	0.00024249	4.4963e-05	1124.8	3.2768e-06	2.0226e-06	1173.5	229.69	2.9383e-06	2.8121e-06	287.88	80.701	63.976	18.731	2.86e-06	26.61	94.563	-6.283	15.083	-76.826	69.639	39.479	-76.817	-69.541	24.128	63.365	-69.900	-63.262	-63.153	-56.080	48.442	-56.360	-8191	255	
18440.012	1	1	0	0	0.032405	0.11404	0.0521	0.16032	0.077686	0.19972	0.13282	0.20499	0.15899	0.20311	0.22336	0.15003	0.14798	0.12795	0.24008	0.05429	-4.4208	-4.3104	-4.6562	-4.4333	-4.3375	-4.9417	-4.4375	-4.7375	-4.5917	-4.2937	-4.7188	-4.5938	-4.3854	-4.9688	-4.2292	-4.7604	30.438	-22.980	63.572	-44.903	54.227	215.812	232.758	10.925	253.985	114.726	204.481	256.842	233.669	-4.258	-52.833	-40.266	0.0001518	0.00031237	7.3881e-05	1145.1	2.0723e-06	2.1737e-06	1185.5	230.91	3.155e-06	3.2824e-06	288.03	79.978	63.827	18.586	3.2155e-06	26.483	0.00025122	0.0002805	5.3768e-05	1126.3	3.51e-06	2.3023e-06	1175.3	229.52	2.7344e-06	2.6336e-06	286.98	80.622	63.714	18.716	2.8372e-06	26.693	96.101	7.097	-13.218	-76.872	59.310	67.442	-76.780	-69.401	35.422	66.214	-70.062	-63.416	-62.755	-56.224	63.345	-56.634	-8191	255	
18440.133	1	1	0	0	0.1302	0.048077	0.12418	0.12401	0.087133	0.16881	0.19971	0.1943	0.039531	0.22786	0.11703	0.082178	0.25087	0.15033	0.14414	0.24518	-4.3688	-4.2021	-4.6562	-4.6958	-4.2771	-4.7229	-4.3792	-4.7604	-4.65	-4.0917	-4.8979	-4.6625	-4.2167	-4.7937	-4.3438	-4.45	120.602	141.069	221.840	195.612	-71.987	249.057	219.091	194.411	218.813	143.544	203.630	233.320	-80.100	231.187	77.354	-55.459	0.00017598	0.00045914	4.9364e-05	1145	1.8063e-06	4.1131e-06	1190.3	231.01	1.9936e-06	2.4787e-06	290.67	80.204	63.736	18.749	2.0459e-06	26.306	0.00025224	0.00031769	5.0771e-05	1126.9	3.8096e-06	2.1008e-06	1179	229.47	2.8591e-06	3.4259e-06	288.7	80.91	63.875	18.782	2.5046e-06	26.641	88.441	19.603	3.038	-76.592	75.728	53.675	-76.858	-69.290	35.664	56.299	-70.138	-63.355	-62.840	-56.429	52.109	-56.374	-8191	255	
18440.203	1	1	0	0	0.124	0.16125	0.040311	0.057246	0.11726	0.13329	0.4609	0.041427	0.11973	0.14099	0.10761	0.053453	0.25367	0.096301	0.2192	0.10474	-4.4146	-4.1312	-4.7292	-4.7417	-4.3125	-4.8021	-4.4042	-4.5125	-4.675	-4.3	-4.7542	-4.6958	-4.2917	-4.8667	-4.45	-4.2542	15.818	104.526	-44.140	52.990	-56.237	157.275	195.019	21.343	-82.678	87.264	78.209	237.834	-9.907	162.759	48.437	218.645	0.00014183	0.00021313	6.302e-05	1149.6	2.9178e-06	2.6688e-06	1201.8	231.43	3.1823e-06	1.9409e-06	291.51	80.575	64.125	18.65	2.1682e-06	26.463	0.0002785	0.00025158	5.2972e-05	1133.7	3.7367e-06	2.7404e-06	1184.2	230.48	3.0877e-06	2.7827e-06	288.9	81.085	64.142	18.808	2.5229e-06	26.759	90.384	18.899	17.090	-76.507	56.959	59.677	-76.727	-69.390	22.035	40.386	-69.825	-63.091	-62.833	-55.908	70.900	-56.700	-8191	255	
18440.301	1	1	0	0	0.080323	0.36702	0.29989	0.10741	0.19718	0.13778	0.25632	0.29657	0.16227	0.070289	0.11007	0.083274	0.048165	0.13433	0.11827	0.15148	-4.5458	-4.1708	-4.4875	-4.8	-4.1021	-4.725	-4.7042	-4.5167	-4.8	-4.2771	-4.6042	-4.725	-4.1896	-4.825	-4.5917	-4.2792	80.679	25.915	174.926	65.408	-49.927	4.451	158.382	-74.301	56.845	256.124	-80.477	213.295	148.588	212.776	36.934	234.070	0.00017024	0.0003033	5.9658e-05	1153.2	1.2946e-06	3.3231e-06	1201.7	233.17	1.7319e-06	3.4267e-06	290.8	80.222	64.255	18.583	3.0152e-06	26.176	0.00025304	0.00028414	5.9904e-05	1136.1	4.0767e-06	2.6035e-06	1187.4	230.9	2.7408e-06	3.169e-06	288.69	81.131	64.332	18.829	2.6343e-06	26.741	90.157	4.549	19.130	-76.783	45.741	67.168	-76.727	-69.611	4.267	64.386	-69.818	-62.743	-62.959	-55.835	67.665	-56.431	-8191	255	
18440.396	1	1	0	0	0.12225	0.17733	0.079905	0.26054	0.17282	0.071405	0.27048	0.13308	0.27292	0.017243	0.077499	0.20108	0.15585	0.09647	0.27382	0.051593	-4.5458	-4.325	-4.5667	-4.9708	-4.2188	-4.6438	-4.9021	-4.3396	-4.8521	-4.3229	-4.6687	-4.8958	-4.225	-4.6333	-4.6312	-4.3083	-33.875	-65.097	-36.010	198.120	-0.211	-53.297	-82.528	-11.457	11.360	-23.238	-39.125	216.118	256.411	194.436	158.814	203.410	0.00017266	0.00029369	6.9049e-05	1155.3	1.442e-06	3.3737e-06	1201.3	232.99	7.4315e-07	2.6913e-06	291.45	80.717	64.173	18.77	3.6425e-06	26.468	0.00024039	0.00027835	5.0958e-05	1137.9	3.7601e-06	2.537e-06	1187.4	230.98	2.6161e-06	2.1826e-06	289.32	81.277	64.257	18.901	2.3414e-06	26.737	84.567	-14.091	14.415	-76.732	48.349	76.662	-76.588	-69.505	7.578	58.300	-69.728	-62.945	-62.979	-55.969	51.219	-56.819	-8191	255	
18440.518	1	1	0	0	0.10539	0.13651	0.1491	0.24406	0.14637	0.16212	0.30341	0.13081	0.11374	0.075036	0.093177	0.068164	0.079248	0.19946	0.11427	0.061317	-4.4125	-4.625	-4.5083	-4.9271	-4.3792	-4.6958	-4.7729	-4.1042	-4.6062	-4.5104	-4.4771	-4.8396	-4.1271	-4.55	-4.6479	-4.0708	-24.556	9.663	45.376	213.612	265.833	264.137	177.982	179.912	11.357	222.253	261.141	166.235	101.900	-60.115	256.753	248.961	0.00020778	0.0003651	9.6387e-05	1156.1	2.3468e-06	2.9197e-06	1199.4	234.02	2.6412e-06	2.8732e-06	290.93	80.966	64.304	18.805	3.1079e-06	26.348	0.00026768	0.00024811	7.5173e-05	1138	3.5139e-06	2.5116e-06	1185.9	231.62	3.0227e-06	2.5729e-06	289.12	81.099	64.285	18.898	2.8692e-06	26.714	85.779	18.762	12.206	-76.755	27.129	52.555	-76.439	-69.604	13.948	68.917	-69.481	-63.259	-63.222	-55.886	59.434	-56.731	-8191	255	
18440.613	1	1	0	0	0.15235	0.050419	0.13218	0.18022	0.046377	0.12934	0.15358	0.30617	0.0688	0.30942	0.062254	0.15331	0.13177	0.14586	0.16513	0.25702	-4.3438	-4.5021	-4.2312	-4.8812	-4.3271	-4.5813	-4.8875	-4.2375	-4.6833	-4.3146	-4.3854	-4.8729	-4.2833	-4.375	-4.7083	-4.2521	217.091	-77.022	204.999	213.923	201.458	108.936	133.757	199.669	-70.723	-39.878	-9.508	197.517	193.886	165.916	145.171	-83.972	0.00019386	0.00031101	0.00011847	1155.6	2.9711e-06	2.6728e-06	1200.8	231.36	2.4238e-06	2.6865e-06	289.49	81.157	64.391	18.686	3.8011e-06	26.573	0.00024808	0.0002734	7.3533e-05	1138.4	3.8018e-06	2.4372e-06	1187	230.59	3.0786e-06	2.6395e-06	288.96	81.267	64.247	18.858	2.1584e-06	26.772	97.616	4.164	2.286	-76.772	54.257	56.391	-76.616	-69.609	15.822	70.715	-69.837	-63.373	-63.396	-55.533	53.406	-56.626	-8191	255	
18440.707	1	1	0	0	0.14558	0.13733	0.020224	0.254	0.15488	0.15897	0.17684	0.1476	0.16164	0.081261	0.10047	0.17108	0.078754	0.21756	0.13956	0.13138	-4.55	-4.625	-4.2083	-4.8917	-4.4417	-4.4896	-4.8396	-4.3604	-4.6292	-4.5958	-4.2312	-4.875	-4.4292	-4.5771	-4.7646	-4.2438	101.524	-85.887	135.236	238.589	148.920	13.692	244.902	-59.117	-35.084	179.395	200.861	174.300	22.815	193.635	61.998	-40.213	0.00016866	0.00037186	9.7967e-05	1153	1.6725e-06	4.1115e-06	1205.3	232.03	1.3721e-06	3.0042e-06	292.37	80.799	63.747	18.767	3.6839e-06	26.145	0.00024774	0.00026645	7.6109e-05	1138.3	3.4396e-06	2.9928e-06	1189.5	231.13	3.3358e-06	2.6984e-06	290.02	81.309	64.186	18.853	2.5733e-06	26.725	82.656	0.492	18.518	-76.562	42.466	64.352	-76.872	-69.585	46.731	66.345	-69.797	-63.052	-63.088	-55.822	58.598	-56.285	-8191	255	
18440.807	1	1	0	0	0.19299	0.16383	0.14717	0.1303	0.16885	0.069107	0.0097803	0.10582	0.071003	0.38113	0.10883	0.21716	0.067762	0.14869	0.20237	0.2275	-4.3021	-4.6854	-4.3375	-4.7042	-4.55	-4.3313	-4.8729	-4.3792	-4.7146	-4.5687	-4.4354	-5.0542	-4.4958	-4.2208	-4.7583	-4.3083	33.807	74.951	-23.029	-17.267	-86.307	134.905	-44.045	240.677	115.526	24.858	101.052	225.265	228.855	75.951	155.157	149.613	0.00018349	0.00030611	8.7795e-05	1156.4	2.9272e-06	3.2796e-06	1208.2	232.36	2.2478e-06	2.9366e-06	291.17	80.753	64.177	18.583	4.1754e-06	26.464	0.00027531	0.00021339	9.3252e-05	1140.2	3.721e-06	2.9556e-06	1191.4	231.4	3.5228e-06	2.1414e-06	289.87	81.369	64.479	18.875	2.8829e-06	26.746	90.817	0.266	-0.669	-76.548	51.579	52.385	-76.640	-69.671	54.407	50.258	-70.107	-63.318	-62.932	-55.939	51.869	-56.232	-8191	255	
18440.900	1	1	0	0	0.177	0.091637	0.10925	0.10961	0.026098	0.1636	0.25713	0.25084	0.2051	0.010078	0.36213	0.22702	0.08003	0.081053	0.15603	0.093238	-4.1896	-4.6188	-4.1083	-4.7208	-4.5521	-4.1146	-4.9187	-4.3688	-4.4688	-4.7688	-4.3187	-4.7208	-4.5437	-4.2896	-4.7958	-4.4146	167.964	-33.232	229.863	191.812	85.761	158.704	234.260	-59.481	165.497	157.759	157.015	250.772	-29.345	168.760	-51.151	131.140	0.00017201	0.00036795	8.016e-05	1161.8	2.91e-06	2.9839e-06	1203.9	233.04	1.7747e-06	3.362e-06	289.95	81.092	64.351	18.683	3.2011e-06	26.525	0.00026415	0.00023092	6.6321e-05	1143.2	3.6064e-06	2.7228e-06	1191.5	231.22	2.9877e-06	2.1355e-06	289.97	81.604	64.543	18.873	2.7777e-06	26.804	92.515	-6.801	10.862	-76.716	39.201	70.567	-76.594	-69.873	17.865	66.981	-69.947	-63.610	-62.930	-56.224	50.902	-56.510	-8191	255	
18440.996	1	1	0	0	0.27422	0.22002	0.27103	0.094995	0.034616	0.14983	0.22219	0.086096	0.19359	0.15207	0.16761	0.22944	0.21782	0.093541	0.053688	0.086066	-3.9833	-4.775	-4.3417	-4.7458	-4.5917	-4.3646	-5	-4.5458	-4.5167	-4.8729	-4.2792	-4.7521	-4.7292	-4.2396	-4.8729	-4.7667	-86.634	-83.511	222.342	201.845	188.226	196.695	261.141	208.377	193.460	206.623	187.285	-71.931	92.569	-7.593	261.710	249.624	0.0002052	0.00035896	6.4382e-05	1158.4	1.7119e-06	3.0133e-06	1207.3	234.14	3.0172e-06	2.187e-06	291.76	81.087	64.292	18.817	1.7991e-06	26.384	0.00027594	0.00022728	7.3908e-05	1141.5	3.4123e-06	2.9458e-06	1190.7	231.56	3.4839e-06	2.0944e-06	290.57	81.648	64.398	18.927	2.6251e-06	26.751	88.828	0.811	9.668	-76.740	46.052	87.309	-76.587	-69.838	37.040	42.854	-69.876	-63.178	-63.260	-56.031	40.972	-56.645	-8191	255	
18441.117	1	1	0	0	0.08347	0.23572	0.025124	0.19226	0.1074	0.2609	0.1289	0.31169	0.26071	0.14619	0.20723	0.12507	0.27401	0.069205	0.22003	0.12889	-4.0708	-4.7667	-4.3313	-4.775	-4.5792	-4.3729	-4.8938	-4.5687	-4.25	-4.9604	-4.3854	-4.4146	-4.6333	-4.3438	-4.6833	-4.5104	109.116	213.389	67.678	-86.924	1.307	15.021	230.819	247.271	244.847	-18.075	249.379	175.759	141.379	189.726	185.761	84.343	0.00015704	0.00036195	9.2283e-05	1161.5	2.2184e-06	3.4833e-06	1206.9	232.76	1.306e-06	3.2739e-06	291	81.013	64.498	18.684	1.8512e-06	26.307	0.00028061	0.00021753	7.9669e-05	1142.7	3.5347e-06	3.3488e-06	1191.9	231.7	3.5085e-06	1.5904e-06	290.2	81.479	64.516	18.904	2.3643e-06	26.783	90.624	3.965	3.113	-76.617	75.610	85.911	-76.481	-69.674	20.476	82.892	-69.900	-62.975	-62.747	-55.467	58.477	-56.324	-8191	255	
18441.213	1	1	0	0	0.059748	0.083719	0.024696	0.063566	0.16394	0.13857	0.21935	0.067046	0.29016	0.058086	0.23248	0.36476	0.023374	0.21449	0.078703	0.15895	-3.9667	-4.8208	-4.2271	-4.6167	-4.7125	-4.1667	-4.8396	-4.6146	-4.2104	-4.6604	-4.5646	-4.3646	-4.6958	-4.1979	-4.5604	-4.6958	181.261	73.388	143.952	186.860	59.894	-66.313	179.920	-79.662	215.140	236.744	127.108	-71.831	191.819	198.549	143.775	179.856	0.00017207	0.00028183	6.3915e-05	1160.5	1.8324e-06	3.2105e-06	1205.6	233.68	2.9585e-07	3.3891e-06	292.8	80.662	64.52	18.572	3.4229e-06	26.449	0.00026717	0.00019174	6.1122e-05	1142	3.1113e-06	2.803e-06	1190.1	231.95	3.0682e-06	2.1434e-06	289.91	81.259	64.461	18.84	2.314e-06	26.794	94.292	-5.450	23.243	-76.840	37.155	68.906	-76.678	-69.456	8.283	66.216	-69.912	-63.612	-62.726	-55.894	46.946	-56.383	-8191	255	
18441.309	1	1	0	0	0.15318	0.18001	0.21169	0.23049	0.098731	0.068324	0.1007	0.20134	0.16313	0.19097	0.20834	0.14719	0.054319	0.071664	0.26449	0.16406	-3.7625	-4.8667	-4.3167	-4.5792	-4.7688	-4.0542	-4.8896	-4.6562	-4.2375	-4.8271	-4.5625	-4.5396	-4.8021	-4.1979	-4.6271	-4.8042	178.228	1.169	-0.008	183.757	-53.482	261.438	232.287	131.393	111.988	219.522	-46.208	-62.436	-10.797	164.487	191.302	230.023	0.00020343	0.00032352	8.8721e-05	1158.9	1.1685e-06	3.3043e-06	1202.6	233.43	3.9982e-06	1.8778e-06	292.11	80.187	63.908	18.87	1.3681e-06	26.484	0.00026073	0.00021373	7.0817e-05	1139.5	2.8494e-06	3.0338e-06	1190.5	231.26	3.5215e-06	2.6199e-06	289.73	81.131	64.314	18.915	2.285e-06	26.758	94.822	11.759	10.485	-76.748	65.345	72.843	-76.624	-69.436	10.433	53.277	-69.769	-63.454	-63.250	-55.801	59.462	-56.582	-8191	255	
18441.404	1	1	0	0	0.10936	0.14834	0.20763	0.21198	0.21812	0.10675	0.23865	0.26119	0.12496	0.1168	0.093898	0.12924	0.21479	0.075397	0.092307	0.052736	-3.9604	-4.7	-4.375	-4.5667	-4.9792	-4.3104	-4.7354	-4.7812	-4.1583	-4.8063	-4.4812	-4.4771	-4.8583	-4.4104	-4.3875	-4.8354	230.244	111.905	92.459	208.060	36.564	183.195	245.323	-76.544	268.221	-33.538	270.371	237.613	142.643	185.080	23.700	265.594	0.00017818	0.00025768	9.7976e-05	1156.1	3.0388e-06	2.0029e-06	1204.5	232.24	2.9764e-07	2.3336e-06	291.19	80.257	63.831	18.621	3.0496e-06	26.429	0.00027828	0.00019224	6.6883e-05	1139.3	3.0044e-06	2.4725e-06	1188	230.98	2.7824e-06	2.3297e-06	289.33	81.191	64.311	18.822	2.9699e-06	26.724	100.213	-5.338	11.581	-76.816	45.235	70.227	-76.728	-69.685	-36.978	58.928	-69.828	-63.584	-63.198	-56.180	88.885	-56.011	-8191	255	
18441.502	1	1	0	0	0.17777	0.050881	0.064702	0.20585	0.020608	0.36294	0.43066	0.14328	0.21326	0.21505	0.13783	0.10175	0.068773	0.096149	0.34739	0.16105	-3.9292	-4.6958	-4.7083	-4.3604	-4.7667	-4.275	-4.5479	-4.7708	-4.225	-4.7729	-4.6521	-4.2708	-4.8979	-4.3792	-4.2875	-4.75	243.493	-20.296	218.887	212.637	-69.475	-75.682	209.869	-13.534	52.808	-14.427	172.214	216.333	269.133	209.957	-7.342	-24.182	0.00019225	0.0001164	0.00012686	1151.6	1.5468e-06	2.8746e-06	1200.8	232.25	1.273e-06	3.0711e-06	289.87	80.413	63.949	18.877	2.4438e-06	26.273	0.00027412	0.00019406	6.2855e-05	1134.7	3.179e-06	2.8245e-06	1187.6	231.4	3.6826e-06	2.8984e-06	288.73	81.181	64.358	18.912	2.3201e-06	26.69	87.295	-2.854	0.347	-76.739	51.199	74.666	-76.698	-69.664	15.755	53.146	-69.857	-63.056	-62.726	-55.959	54.286	-56.663	-8191	255	
18441.598	1	1	0	0	0.096794	0.11454	0.11576	0.0069164	0.091785	0.17026	0.07694	0.10579	0.030477	0.13384	0.17546	0.034787	0.12638	0.06402	0.033453	0.25424	-3.7271	-4.5938	-4.5479	-4.2729	-4.8	-4.6646	-4.4146	-4.9	-4.1917	-4.6521	-4.7458	-4.175	-4.7417	-4.6042	-4.1917	-5.0188	-74.950	102.401	139.447	202.106	-4.224	165.681	98.368	-70.325	-28.163	-14.564	229.818	-56.659	33.484	255.966	215.419	165.376	0.00017509	0.00032148	9.8501e-05	1153.8	1.5446e-06	1.9991e-06	1203.2	231.93	2.5522e-06	3.2893e-06	290.18	80.743	64.267	18.876	2.3183e-06	26.275	0.00026443	0.00024943	5.981e-05	1136.1	3.2676e-06	3.3038e-06	1188.2	231.16	3.3254e-06	2.1905e-06	289.04	81.404	64.257	18.943	2.9272e-06	26.759	87.726	4.941	-0.838	-76.674	33.771	63.533	-76.430	-69.390	-9.215	59.767	-70.141	-63.359	-62.667	-56.021	37.371	-56.475	-8191	255	
18441.693	1	1	0	0	0.05537	0.15746	0.11573	0.11631	0.14934	0.14844	0.063786	0.23692	0.2953	0.20586	0.096012	0.11681	0.36252	0.11026	0.1039	0.23316	-3.9542	-4.4729	-4.8167	-4.3854	-4.675	-4.5813	-4.2896	-4.9771	-4.2042	-4.4271	-4.9062	-4.1042	-4.675	-4.6292	-4.1583	-4.7312	-39.446	-41.963	-4.293	187.898	157.628	144.972	-67.792	156.641	13.133	15.175	58.554	64.828	213.999	-76.278	156.306	28.765	0.00020173	0.00032781	8.8952e-05	1155.6	1.0643e-06	3.3183e-06	1204.7	232.1	1.0865e-06	3.0559e-06	291.54	80.41	64.665	18.857	3.0043e-06	26.341	0.00027594	0.00027554	7.1473e-05	1137.5	3.2741e-06	2.8539e-06	1189.8	231.22	3.241e-06	2.8572e-06	289.23	81.309	64.355	18.929	3.1041e-06	26.786	91.400	-3.314	2.068	-76.510	19.016	53.430	-76.524	-69.718	-29.910	66.025	-69.773	-63.276	-63.109	-56.112	58.599	-56.612	-8191	255	
18441.812	1	1	0	0	0.18927	0.19161	0.16463	0.43295	0.031601	0.2782	0.27603	0.074071	0.22527	0.11623	0.11418	0.2332	0.13997	0.11267	0.26792	0.12897	-3.9646	-4.2521	-4.7688	-4.3333	-4.6875	-4.6188	-4.2875	-4.9167	-4.2937	-4.3333	-4.8521	-4.2688	-4.5854	-4.6021	-4.2271	-4.8604	180.480	213.622	82.850	241.570	193.403	106.256	147.452	174.706	-8.849	-74.956	160.560	235.069	236.676	245.063	44.474	210.745	0.00019164	0.00036229	9.8047e-05	1159.2	2.4261e-06	2.5494e-06	1205.2	233.15	1.379e-06	3.5761e-06	291.72	80.727	64.543	18.867	3.6919e-06	26.485	0.00027628	0.00029174	6.6414e-05	1140.5	3.6429e-06	2.7111e-06	1191.1	231.59	3.1682e-06	3.3651e-06	289.97	81.495	64.688	18.989	2.9744e-06	26.844	86.635	-7.461	1.205	-76.689	78.634	71.951	-76.555	-69.809	-45.134	35.421	-70.031	-63.176	-63.200	-55.883	58.024	-56.323	-8191	255	
18441.908	1	1	0	0	0.12863	0.21475	0.066898	0.15174	0.05792	0.11725	0.11491	0.17544	0.19235	0.14636	0.14838	0.14272	0.090609	0.093791	0.20444	0.054466	-4.1438	-4.2646	-4.7333	-4.3688	-4.3271	-4.6833	-4.3604	-4.8292	-4.4396	-4.3229	-4.825	-4.3063	-4.4688	-4.6542	-4.075	-4.6896	-33.054	-72.002	-38.809	239.674	96.482	-60.136	54.332	221.846	133.772	5.186	225.906	180.702	-17.246	18.859	33.811	132.713	0.00013069	0.00034021	4.8684e-05	1156.2	2.1524e-06	3.2697e-06	1204.7	232.12	3.5721e-06	2.3386e-06	291.26	80.994	64.207	18.767	1.912e-06	26.585	0.00028278	0.00031257	5.5267e-05	1141.1	3.5751e-06	2.3903e-06	1190	231.35	3.5137e-06	2.918e-06	289.58	81.536	64.431	18.982	3.2017e-06	26.838	90.455	-5.417	-11.537	-76.790	41.304	57.426	-76.646	-69.480	42.539	48.716	-70.288	-63.371	-63.161	-55.943	57.486	-56.317	-8191	255	
18442.006	1	1	0	0	0.10293	0.24892	0.15893	0.11684	0.086183	0.18499	0.36375	0.22657	0.11537	0.13346	0.17277	0.18245	0.12353	0.093015	0.19428	0.088213	-4.125	-4.2625	-4.8417	-4.6	-4.4229	-4.7292	-4.4646	-4.7271	-4.5479	-4.1646	-4.8542	-4.5333	-4.4542	-4.7354	-4.2833	-4.7354	41.531	116.827	110.912	182.616	218.229	221.282	223.467	171.177	259.182	92.802	153.367	164.370	39.574	-11.344	134.823	-50.618	0.00021519	0.00042129	7.0901e-05	1156.1	2.1475e-06	3.5438e-06	1203.8	232.72	2.6094e-06	3.0984e-06	290.63	81.165	64.334	18.731	2.3489e-06	26.664	0.00027594	0.00029918	5.2129e-05	1141.1	3.7406e-06	2.3375e-06	1191	231.94	2.9565e-06	3.0219e-06	289.59	81.625	64.538	18.919	3.0736e-06	26.912	89.430	-18.331	1.119	-76.692	55.555	65.615	-76.598	-69.599	0.691	72.745	-69.985	-63.608	-63.168	-55.911	52.251	-56.630	-8191	255	
18442.076	1	1	0	0	0.081928	0.046564	0.098317	0.11872	0.078523	0.09576	0.10924	0.12448	0.33627	0.12779	0.15119	0.11415	0.14664	0.2762	0.13275	0.15418	-4.1875	-4.225	-4.6708	-4.6229	-4.5229	-4.5625	-4.4792	-4.6708	-4.7479	-4.3292	-4.9458	-4.5854	-4.3313	-4.65	-4.4229	-4.5479	97.600	55.389	-83.108	-60.491	1.780	59.003	239.700	180.768	34.206	128.755	157.562	-24.541	-66.365	-62.876	78.427	238.345	0.00021216	0.00029468	7.9914e-05	1160.3	2.4856e-06	1.999e-06	1206.6	233.24	2.42e-06	2.5181e-06	291.34	81.032	64.512	18.693	3.4452e-06	26.467	0.00025236	0.0003053	6.3979e-05	1141.4	3.6885e-06	2.5351e-06	1192.1	231.81	3.3111e-06	2.9062e-06	289.61	81.559	64.556	18.901	2.9409e-06	26.76	93.991	24.568	-13.825	-76.828	59.623	60.032	-76.681	-69.775	-3.091	35.375	-69.812	-63.460	-63.391	-56.035	55.279	-56.552	-8191	255	
18442.197	1	1	0	0	0.13002	0.10331	0.13895	0.23378	0.16008	0.11927	0.2263	0.18406	0.050048	0.19459	0.09129	0.051003	0.15762	0.16847	0.23636	0.10903	-4.525	-4.2542	-4.8521	-4.5687	-4.2188	-4.8917	-4.4375	-4.6438	-4.7	-4.0125	-4.7458	-4.6562	-4.2729	-4.7271	-4.3313	-4.4125	3.545	138.098	237.682	-38.767	4.676	43.278	207.506	-76.756	-81.695	44.895	3.100	-7.809	85.755	265.802	-45.845	155.472	0.00016412	0.00031814	7.8773e-05	1160.9	2.6306e-06	3.6246e-06	1206.6	232.89	1.5982e-06	2.4155e-06	290.49	80.975	64.168	18.88	2.8781e-06	26.482	0.00025663	0.0003215	6.0653e-05	1143.8	3.6572e-06	2.4333e-06	1190.8	232.1	3.2825e-06	2.7454e-06	290.06	81.721	64.483	18.981	2.68e-06	26.831	93.348	7.563	-1.718	-76.553	34.616	79.991	-76.592	-69.573	6.697	67.335	-69.802	-63.544	-62.826	-55.793	58.062	-56.371	-8191	255	
18442.293	1	1	0	0	0.25054	0.1143	0.20391	0.15981	0.2555	0.087264	0.29115	0.13661	0.21943	0.095422	0.038179	0.059063	0.38026	0.066639	0.059925	0.092213	-4.45	-4.2208	-4.6687	-4.8396	-4.1729	-4.8063	-4.5896	-4.4417	-4.7917	-4.2771	-4.6958	-4.6625	-4.1687	-4.7917	-4.3354	-4.3896	-85.020	157.177	-47.378	192.129	39.130	82.852	208.005	-67.431	82.752	-49.604	241.699	257.795	-43.887	221.226	164.402	-85.017	0.00020768	0.00033967	9.4042e-05	1157.4	2.7174e-06	2.5528e-06	1204.3	233.1	2.3358e-06	1.9899e-06	292.45	81.221	64.476	18.968	3.8763e-06	26.448	0.00028078	0.00030133	6.5852e-05	1140.4	3.6233e-06	2.3434e-06	1191.5	231.5	3.0422e-06	3.0729e-06	290.56	81.637	64.506	18.967	3.0263e-06	26.818	87.421	-24.346	-14.472	-76.735	62.956	71.106	-76.637	-69.461	44.113	62.542	-69.770	-63.354	-63.249	-55.522	56.747	-56.216	-8191	255	
18442.389	1	1	0	0	0.13155	0.14213	0.176	0.3738	0.12759	0.16481	0.23337	0.11493	0.20041	0.1737	0.38912	0.12975	0.22241	0.046583	0.1435	0.027013	-4.5	-4.1208	-4.65	-4.6854	-3.9938	-4.8771	-4.5021	-4.3917	-4.7958	-4.2292	-4.5354	-4.6104	-4.1104	-4.975	-4.3688	-4.1771	118.590	68.560	-31.949	213.346	270.468	31.681	182.490	188.733	238.121	236.935	-17.086	60.027	-83.501	-17.461	192.326	177.367	0.00017232	0.00034518	0.00010409	1159.1	3.061e-06	2.3343e-06	1205.4	233.54	2.6334e-06	3.0801e-06	290.14	81.441	64.426	18.765	2.8355e-06	26.461	0.0002625	0.0002724	6.4353e-05	1140.8	3.7771e-06	2.2553e-06	1189.1	231.59	3.0487e-06	2.9043e-06	288.95	81.632	64.698	18.931	2.6633e-06	26.884	88.565	6.468	19.503	-76.725	65.747	40.003	-76.625	-69.583	-10.157	74.871	-70.020	-63.408	-63.165	-56.296	74.552	-56.519	-8191	255	
18442.486	1	1	0	0	0.063	0.09636	0.049077	0.26891	0.16237	0.0389	0.090855	0.1389	0.15704	0.13605	0.068033	0.063306	0.28663	0.074744	0.15691	0.047113	-4.3604	-4.2417	-4.3667	-4.9396	-4.1312	-4.6667	-4.6896	-4.3604	-4.8708	-4.4187	-4.5604	-4.7979	-4.2667	-4.6625	-4.5458	-4.2063	184.692	59.778	-80.482	198.800	143.145	142.925	-52.360	148.604	-11.884	92.619	94.736	89.623	257.255	17.077	27.651	127.047	0.00020167	0.00034844	7.0669e-05	1159.2	1.2071e-06	3.8048e-06	1204.6	234.32	2.5092e-06	3.524e-06	290.82	80.748	64.601	18.795	3.1432e-06	26.665	0.00025144	0.00027935	6.2574e-05	1140.5	3.6937e-06	2.6426e-06	1189.9	231.98	3.1461e-06	2.5729e-06	289.84	81.459	64.34	18.943	2.6922e-06	26.845	94.272	-0.389	6.362	-76.610	107.705	63.324	-76.810	-69.923	-35.336	89.478	-69.859	-63.490	-62.672	-55.914	50.157	-56.069	-8191	255	
18442.604	1	1	0	0	0.12558	0.06208	0.13208	0.1435	0.19197	0.05949	0.2087	0.1611	0.086598	0.10158	0.21323	0.28004	0.14004	0.00024005	0.17909	0.19124	-4.4396	-4.3979	-4.4271	-4.9792	-4.2021	-4.5875	-4.9875	-4.2562	-4.7438	-4.4667	-4.3146	-4.9625	-4.2125	-4.6771	-4.775	-4.3042	233.252	216.374	159.124	239.525	116.059	-64.512	209.607	220.955	29.912	86.386	205.208	220.317	190.211	180.000	24.535	38.169	0.00020278	0.00030855	9.3111e-05	1155.7	2.0236e-06	3.6011e-06	1205	232.17	2.767e-06	3.3483e-06	290.05	81.216	64.029	18.81	2.0171e-06	26.518	0.00025298	0.00026447	6.7445e-05	1137.8	3.5595e-06	2.6622e-06	1190.2	231.67	3.2111e-06	2.316e-06	289.48	81.577	64.381	18.964	2.3948e-06	26.803	90.062	2.554	-0.616	-76.723	48.857	46.050	-76.793	-69.481	36.372	80.417	-70.024	-63.314	-63.240	-55.911	56.723	-56.417	-8191	255	
18442.701	1	1	0	0	0.124	0.17916	0.16062	0.34391	0.39173	0.1199	0.14515	0.24164	0.11216	0.27991	0.22802	0.093812	0.060461	0.32189	0.1907	0.168	-4.5458	-4.3792	-4.1146	-5.0292	-4.15	-4.5042	-4.9458	-4.2542	-4.5458	-4.4771	-4.3854	-4.9771	-4.3229	-4.5021	-4.7604	-4.2729	-84.372	211.033	76.102	248.273	225.664	23.313	202.478	206.165	-45.497	108.731	-71.611	-84.815	-24.039	201.224	97.082	180.044	0.00016371	0.00034916	8.9006e-05	1158.1	8.873e-07	3.1324e-06	1207.6	232.98	3.4523e-06	4.3072e-06	291.96	81.133	64.42	18.894	3.1589e-06	26.539	0.00026591	0.0002929	6.337e-05	1139.1	3.6207e-06	2.4372e-06	1191	231.42	3.0019e-06	3.2729e-06	289.92	81.65	64.602	18.988	2.163e-06	26.877	96.403	13.777	-8.714	-76.554	79.484	58.297	-76.569	-69.568	10.247	63.447	-69.949	-63.407	-62.820	-56.169	64.549	-56.856	-8191	255	
18442.797	1	1	0	0	0.079934	0.11998	0.11213	0.18015	0.11884	0.054742	0.06831	0.2285	0.017987	0.2215	0.042854	0.3069	0.095451	0.22	0.23971	0.081532	-4.5312	-4.6687	-4.2521	-5.05	-4.3708	-4.3604	-4.8917	-4.2396	-4.7562	-4.5062	-4.2604	-4.8542	-4.4396	-4.4458	-4.8854	-4.2792	203.255	240.993	217.429	211.399	45.786	163.873	-32.217	193.341	245.731	-82.451	-76.149	181.333	222.680	-24.222	72.647	6.880	0.00018329	0.00026558	8.6303e-05	1159.8	2.0791e-06	3.3903e-06	1206.9	234.08	1.0081e-06	3.5021e-06	292.6	80.638	64.068	18.783	2.4057e-06	26.501	0.00025931	0.00025538	8.1636e-05	1139.7	3.5868e-06	2.8519e-06	1191	231.88	3.2358e-06	2.4885e-06	289.87	81.359	64.364	18.955	2.4207e-06	26.875	95.494	9.134	23.867	-76.655	52.292	72.161	-76.612	-69.292	44.694	72.511	-69.871	-62.880	-63.281	-56.092	69.117	-56.538	-8191	255	
18442.893	1	1	0	0	0.22142	0.071145	0.12439	0.15871	0.16924	0.025138	0.098492	0.15822	0.10733	0.084284	0.2042	0.12319	0.25899	0.23363	0.17689	0.076074	-4.2104	-4.5437	-4.2854	-4.9625	-4.4917	-4.4646	-5.0375	-4.1708	-4.5354	-4.7271	-4.0875	-4.8208	-4.5792	-4.2958	-4.8521	-4.2875	30.357	200.467	98.468	227.457	-56.946	-8.124	184.301	-68.565	4.140	86.049	-47.840	1.667	-80.062	153.561	-17.397	-54.764	0.00021802	0.00027901	0.00010008	1147.6	1.5065e-06	3.5366e-06	1202.2	232.98	3.2778e-06	3.0334e-06	291.79	81.08	64.049	18.639	2.9533e-06	26.461	0.0002662	0.00021108	8.3275e-05	1134.6	3.6767e-06	2.9889e-06	1188.7	231.51	3.0864e-06	1.8708e-06	289.09	81.198	64.411	18.88	2.0958e-06	26.763	84.883	-9.305	7.448	-76.533	18.019	59.227	-76.771	-69.600	28.795	46.582	-69.575	-62.949	-62.941	-56.338	52.607	-56.420	-8191	255	
18442.988	1	1	0	0	0.15717	0.18944	0.10652	0.15519	0.063911	0.16502	0.22506	0.17823	0.048875	0.19606	0.093994	0.10649	0.071275	0.11558	0.20777	0.055097	-4.3354	-4.6604	-4.1521	-4.9479	-4.6458	-4.2542	-5.0708	-4.4875	-4.4083	-4.8688	-4.2354	-4.6417	-4.6833	-4.3063	-4.9292	-4.4021	12.949	108.742	-46.975	98.457	-39.239	52.502	-82.603	227.836	207.492	-4.023	90.673	157.529	11.929	1.624	-85.461	154.668	0.00018148	0.00021339	9.8592e-05	1152.5	2.2443e-06	3.3751e-06	1196.5	232.94	1.0752e-06	2.9455e-06	291.1	80.502	64.042	18.727	3.3541e-06	26.198	0.00024683	0.00020215	8.1168e-05	1135.7	3.5842e-06	2.9145e-06	1184.3	231.42	3.0214e-06	2.1865e-06	289.47	81.054	64.236	18.928	2.2392e-06	26.727	91.853	-11.187	19.003	-76.689	69.810	61.202	-76.695	-69.553	-21.097	55.009	-69.842	-63.309	-63.188	-55.821	59.577	-56.402	-8191	255	
18443.086	1	1	0	0	0.08744	0.15092	0.12444	0.20541	0.17199	0.073927	0.1574	0.17142	0.13132	0.10541	0.18591	0.084335	0.1113	0.25585	0.020538	0.11274	-4.0458	-4.7833	-4.2521	-4.8667	-4.4833	-4.1438	-4.8917	-4.5792	-4.3792	-4.8125	-4.2417	-4.8646	-4.7042	-4.3021	-4.6792	-4.4708	235.573	82.305	175.612	186.263	127.322	238.053	209.553	229.206	-30.382	-58.184	205.233	263.076	44.278	-76.756	-83.176	-38.250	0.00012482	0.00030227	5.6149e-05	1155.2	3.3384e-06	3.107e-06	1197.5	232.66	7.8464e-07	2.3303e-06	291.5	80.356	64.496	18.761	3.3995e-06	26.549	0.00027491	0.00024463	7.447e-05	1134.4	3.0774e-06	2.8441e-06	1186.1	231.27	3.2124e-06	2.061e-06	289.36	81.23	64.331	18.839	2.4711e-06	26.722	89.632	5.354	-12.721	-76.694	61.357	75.091	-76.495	-69.343	101.060	67.763	-69.816	-63.644	-63.329	-55.912	42.745	-56.508	-8191	255	
18443.205	1	1	0	0	0.11586	0.20351	0.30244	0.28168	0.23466	0.049228	0.2824	0.19888	0.15408	0.13282	0.23083	0.11789	0.10343	0.083881	0.15089	0.18792	-4.1813	-4.7771	-4.1854	-4.7917	-4.6813	-4.2	-4.9896	-4.4437	-4.1417	-4.9938	-4.5208	-4.5583	-4.8104	-4.2792	-4.6354	-4.6375	204.566	-83.509	155.600	250.952	-76.367	41.060	-75.225	-80.455	-33.365	-86.172	268.150	208.577	-55.035	146.710	-43.690	69.526	0.00019623	0.00028265	7.7131e-05	1151.5	1.8052e-06	4.2284e-06	1199.8	231.83	3.4243e-06	5.0333e-06	290.19	81.492	63.785	18.738	2.5444e-06	26.202	0.00027782	0.00021786	6.6461e-05	1134.3	3.5074e-06	2.9615e-06	1185.7	230.59	3.4839e-06	2.5925e-06	289.12	81.253	64.188	18.92	2.6984e-06	26.707	98.625	-2.765	-7.053	-76.558	31.763	61.146	-76.755	-69.591	13.144	75.091	-70.267	-63.620	-62.759	-55.916	57.705	-56.825	-8191	255	
18443.303	1	1	0	0	0.28233	0.11764	0.04957	0.32308	0.14638	0.17133	0.1398	0.099655	0.045291	0.19806	0.21755	0.15679	0.053203	0.082848	0.097853	0.14222	-3.8854	-4.7937	-4.2708	-4.4792	-4.8833	-4.2875	-4.6417	-4.6896	-4.2479	-4.7792	-4.3979	-4.4958	-4.9292	-4.1417	-4.5896	-4.7812	35.682	179.324	35.116	265.533	212.554	141.469	198.439	-42.549	36.611	233.043	165.554	-19.438	173.880	202.014	253.874	181.621	0.00015761	0.00024124	0.00010725	1149.3	2.0921e-06	2.0773e-06	1200.1	231.31	2.6816e-06	2.8311e-06	290.96	80.931	64.251	18.623	3.9607e-06	26.678	0.00028369	0.00020794	7.3861e-05	1133	3.1321e-06	3.1766e-06	1185.8	230.81	3.7541e-06	2.4042e-06	289.32	81.317	64.223	18.898	2.7411e-06	26.807	89.245	-4.353	5.811	-76.726	42.051	87.445	-76.802	-69.549	19.080	69.205	-69.910	-63.347	-63.124	-56.334	77.065	-56.713	-8191	255	
18443.373	1	1	0	0	0.34596	0.034649	0.082359	0.15404	0.2063	0.093257	0.25297	0.10948	0.03227	0.082119	0.052908	0.22287	0.034222	0.10191	0.03183	0.096009	-3.9125	-4.8896	-4.3063	-4.4958	-4.8854	-4.3917	-4.7229	-4.6375	-4.3229	-4.6667	-4.4458	-4.4583	-4.9938	-4.275	-4.6583	-4.8521	51.268	16.328	158.012	153.341	-86.954	118.132	265.622	167.922	133.493	33.352	159.978	-54.497	30.747	258.930	245.642	158.497	0.00022154	0.00032304	7.6821e-05	1152.5	1.1456e-06	3.558e-06	1201.1	232.28	1.2731e-06	3.8006e-06	289.99	80.958	64.584	18.72	3.8346e-06	26.616	0.00025817	0.00024778	8.0044e-05	1135.9	3.0722e-06	2.6896e-06	1186.2	231.1	3.2202e-06	2.7219e-06	288.44	81.447	64.377	18.91	2.6404e-06	26.884	89.449	-16.056	-3.017	-76.532	11.791	56.057	-76.642	-69.746	16.057	66.292	-70.113	-63.375	-62.784	-55.784	47.493	-56.695	-8191	255	
18443.494	1	1	0	0	0.23567	0.206	0.045296	0.015906	0.25084	0.20959	0.095717	0.17682	0.21028	0.041786	0.28721	0.18147	0.33454	0.20062	0.099959	0.0065339	-3.8104	-4.6521	-4.5625	-4.3604	-4.8875	-4.275	-4.6729	-4.8229	-4.2229	-4.6771	-4.5646	-4.2292	-4.7292	-4.2667	-4.5583	-4.8583	65.034	-40.998	200.935	154.447	-8.301	85.753	132.997	210.400	-69.565	122.429	211.463	-13.244	263.737	34.983	-53.169	258.069	0.0001971	0.00039626	4.6568e-05	1152.2	2.8325e-06	2.1068e-06	1197.7	232.37	3.687e-06	3.2623e-06	290.96	80.74	63.664	18.801	3.7382e-06	26.564	0.00028488	0.00032464	6.4026e-05	1135.8	3.2728e-06	2.5683e-06	1186.1	230.98	3.6969e-06	2.4709e-06	289.08	81.335	64.156	18.96	3.0217e-06	26.898	100.572	6.912	11.808	-76.776	27.562	69.995	-76.558	-69.575	24.087	81.448	-69.568	-63.517	-63.043	-55.873	58.539	-56.027	-8191	255	
18443.590	1	1	0	0	0.168	0.085584	0.13157	0.15537	0.093655	0.2201	0.099305	0.19217	0.068108	0.15604	0.25059	0.32107	0.31558	0.13159	0.090404	0.17131	-3.9333	-4.6917	-4.5917	-4.3896	-4.7208	-4.4292	-4.5687	-4.8479	-4.2729	-4.5813	-4.5188	-4.2479	-4.725	-4.2458	-4.3583	-4.775	239.002	95.072	-54.870	35.672	-27.311	196.172	176.995	260.319	48.407	91.219	243.307	184.891	136.718	202.479	189.840	230.260	0.00019211	0.00037186	7.832e-05	1158.5	3.5393e-06	2.423e-06	1199.4	233.07	1.0331e-06	2.0843e-06	290.62	80.757	64.029	18.786	2.5536e-06	26.494	0.00029309	0.00027307	5.5267e-05	1137.3	3.4748e-06	2.7424e-06	1187.3	231.35	3.5592e-06	2.6631e-06	289.7	81.403	64.251	18.96	2.5977e-06	26.835	88.485	12.222	11.921	-76.909	40.254	49.901	-76.695	-69.518	-27.940	62.225	-69.517	-63.593	-63.304	-55.817	75.927	-55.989	-8191	255	
18443.686	1	1	0	0	0.12637	0.092909	0.056116	0.15534	0.1044	0.21777	0.25207	0.22366	0.18052	0.034294	0.17652	0.08293	0.23449	0.12263	0.040462	0.074042	-3.7104	-4.5083	-4.7312	-4.1188	-4.7375	-4.5083	-4.4812	-4.8688	-4.3313	-4.4021	-4.6875	-4.3333	-4.7562	-4.5458	-4.3125	-4.8083	270.748	106.770	180.798	267.520	0.607	-16.773	244.875	242.354	83.446	142.403	63.300	204.310	190.764	262.321	183.448	164.726	0.00018163	0.00028482	9.5449e-05	1160.6	1.478e-06	1.7208e-06	1202.7	232.77	2.4194e-06	2.8113e-06	290.66	81.32	64.144	18.816	3.4832e-06	26.336	0.00029274	0.00025687	5.9951e-05	1137.8	3.3758e-06	2.8304e-06	1185.2	230.94	3.3397e-06	2.5885e-06	289.74	81.505	64.247	18.967	2.7639e-06	26.835	100.907	19.469	19.464	-76.621	19.243	71.377	-76.638	-69.362	31.731	64.172	-69.592	-62.691	-62.941	-56.412	46.549	-56.616	-8191	255	
18443.781	1	1	0	0	0.047724	0.12841	0.19025	0.19809	0.12043	0.11154	0.2085	0.03102	0.20953	0.12558	0.29196	0.24854	0.069801	0.31587	0.070692	0.12606	-4.025	-4.4354	-4.7333	-4.3375	-4.7188	-4.5813	-4.4083	-4.9375	-4.2292	-4.4187	-4.8271	-4.2146	-4.6042	-4.5271	-4.1292	-4.9417	264.122	200.239	68.763	210.001	163.264	241.421	170.258	136.999	143.899	135.322	248.320	36.406	253.389	198.594	76.459	-28.700	0.00017979	0.00039272	8.0551e-05	1154.1	2.1873e-06	2.9671e-06	1195.9	232.97	8.8493e-07	2.5486e-06	291.33	81.344	64.876	18.766	2.395e-06	26.381	0.00027913	0.00030943	5.7328e-05	1136.5	3.2194e-06	2.3042e-06	1186.9	231.18	3.3007e-06	2.867e-06	289.39	81.407	64.363	18.94	3.0385e-06	26.767	94.987	16.194	16.149	-76.758	91.201	48.696	-76.431	-69.618	59.311	58.138	-69.969	-63.337	-63.354	-55.806	50.521	-56.480	-8191	255	
18443.902	1	1	0	0	0.14443	0.22765	0.17032	0.10595	0.22269	0.055779	0.27383	0.055881	0.16559	0.14359	0.1513	0.23936	0.1197	0.049506	0.23114	0.037277	-4.0687	-4.3354	-4.775	-4.4792	-4.4875	-4.6292	-4.375	-4.7688	-4.4437	-4.425	-4.7875	-4.1542	-4.6083	-4.775	-4.1125	-4.8688	-24.582	12.280	165.304	-83.459	-35.269	264.079	199.214	-27.828	238.521	111.451	-59.928	229.205	-75.162	183.847	234.440	-40.479	0.00017854	0.00036861	6.9246e-05	1156.2	3.2056e-06	2.6162e-06	1203.6	232.17	8.4255e-07	2.0592e-06	289.94	80.794	64.195	18.679	2.3755e-06	26.414	0.00030334	0.00026397	5.5689e-05	1137.6	3.678e-06	2.4255e-06	1188.7	231.53	3.5553e-06	2.9906e-06	289.22	81.402	64.58	18.922	3.2353e-06	26.794	95.709	-6.936	-17.647	-76.729	41.328	73.245	-76.613	-69.630	21.292	59.230	-69.886	-63.297	-62.854	-56.254	62.476	-56.529	-8191	255	
18443.998	1	1	0	0	0.16831	0.09027	0.078898	0.33822	0.13768	0.070565	0.12875	0.287	0.1275	0.042734	0.1421	0.079824	0.11164	0.093323	0.21056	0.11622	-4.2	-4.375	-5.0208	-4.4521	-4.5875	-4.7021	-4.3292	-4.8292	-4.5167	-4.1813	-5.1375	-4.3063	-4.5583	-4.8292	-4.0542	-4.6417	100.454	228.937	56.092	200.846	-42.144	-81.897	-69.925	249.030	180.564	101.010	260.099	254.028	-66.544	168.905	231.650	216.120	0.00016717	0.00034468	8.2332e-05	1151.7	3.1151e-06	3.6245e-06	1202.1	232.81	3.1695e-06	3.925e-06	290.14	81.058	64.891	18.701	2.9408e-06	26.368	0.00027873	0.00028728	4.6415e-05	1136.9	3.781e-06	2.4509e-06	1188	231.85	3.1955e-06	3.2612e-06	288.96	81.328	64.687	18.974	3.3482e-06	26.809	86.527	10.770	15.857	-76.849	45.254	83.923	-76.571	-69.502	-6.224	52.337	-69.869	-63.499	-62.888	-56.230	55.343	-56.617	-8191	255	
18444.068	1	1	0	0	0.20894	0.30056	0.14208	0.18636	0.17029	0.16229	0.26716	0.16436	0.1109	0.058668	0.31403	0.20026	0.12153	0.15524	0.15829	0.30878	-4.2229	-4.0896	-4.7458	-4.3625	-4.3292	-4.8708	-4.4833	-4.7417	-4.4792	-4.2417	-5.0625	-4.3438	-4.4583	-4.9062	-4.2521	-4.7896	39.092	-64.261	57.696	220.449	263.623	134.477	227.777	180.102	-78.946	56.770	208.367	-81.480	186.497	-37.744	38.737	-85.364	0.00015041	0.00024407	0.00010646	1155.7	2.8048e-06	3.1619e-06	1203.3	232.15	1.2828e-06	3.7827e-06	292.39	81.037	64.531	18.705	3.4765e-06	26.547	0.00025612	0.00030579	5.4892e-05	1138.1	3.6715e-06	2.4372e-06	1189.7	231.5	3.0487e-06	3.4298e-06	290.45	81.506	64.64	18.956	2.976e-06	26.919	95.732	12.096	-9.121	-76.506	67.710	80.867	-76.612	-69.380	27.681	59.445	-69.874	-63.516	-62.800	-55.833	33.456	-56.537	-8191	255	
18444.166	1	1	0	0	0.1251	0.14289	0.041741	0.22773	0.15151	0.23697	0.16236	0.12179	0.055497	0.06686	0.27319	0.068572	0.15391	0.076688	0.25482	0.20096	-4.3521	-4.175	-4.6667	-4.4521	-4.2104	-4.8979	-4.3458	-4.6125	-4.6979	-4.2438	-4.9187	-4.575	-4.2708	-4.8833	-4.1521	-4.6125	4.055	12.069	45.111	239.372	169.717	37.634	137.739	233.483	215.864	60.827	245.260	-82.812	79.082	-47.466	247.686	-13.421	0.00018634	0.00023491	9.9787e-05	1158.7	2.1835e-06	4.0901e-06	1202.4	233.41	3.2582e-06	2.7233e-06	291.37	80.504	64.576	18.807	3.233e-06	26.713	0.00025731	0.00029984	6.3229e-05	1139.8	3.3575e-06	2.3297e-06	1188.9	231.98	3.1448e-06	2.7925e-06	289.88	81.288	64.435	18.972	2.918e-06	26.936	87.226	-16.609	-10.249	-76.642	74.907	71.443	-76.636	-69.401	66.518	70.022	-69.884	-63.374	-62.888	-55.633	42.896	-56.471	-8191	255	
18444.285	1	1	0	0	0.20385	0.17911	0.10297	0.21705	0.15192	0.25467	0.42173	0.25832	0.12894	0.18635	0.088947	0.10904	0.0604	0.20838	0.15882	0.19363	-4.2375	-4.1604	-4.7188	-4.5854	-4.2729	-4.775	-4.4771	-4.6375	-4.8167	-4.3542	-4.7937	-4.6	-4.1229	-4.8104	-4.5292	-4.5021	259.466	170.411	214.997	194.601	43.446	58.814	225.375	243.611	-67.544	96.269	249.177	32.284	202.806	-34.027	248.379	209.557	0.00018446	0.00036107	0.00011067	1155.5	2.6782e-06	2.8289e-06	1207.4	233.02	2.1766e-06	2.7757e-06	291.77	81.052	64.412	18.78	3.4354e-06	26.311	0.00026449	0.00028166	7.1051e-05	1139.5	3.7223e-06	2.3081e-06	1190.9	231.95	3.0786e-06	3.5926e-06	290.44	81.53	64.497	18.978	2.7167e-06	26.892	87.342	3.586	8.820	-76.732	25.003	78.416	-76.654	-69.850	29.458	88.231	-69.951	-63.622	-63.303	-55.806	48.663	-56.580	-8191	255	
18444.383	1	1	0	0	0.12964	0.15083	0.11015	0.3534	0.12989	0.10736	0.31424	0.20049	0.12991	0.076354	0.071151	0.0080642	0.15583	0.14359	0.21353	0.21649	-4.5229	-4.3167	-4.6583	-4.7021	-4.125	-4.7479	-4.6333	-4.6438	-4.7792	-4.2438	-4.7042	-4.6625	-4.2229	-4.7771	-4.4375	-4.4	212.012	216.501	88.989	247.520	23.642	109.014	193.708	-46.720	207.510	253.189	238.313	-81.948	144.609	221.287	168.572	101.848	0.00017641	0.00029728	7.6102e-05	1156	1.6037e-06	2.8113e-06	1210	234.03	1.5724e-06	2.9809e-06	291.96	81.511	64.184	18.827	4.0022e-06	26.832	0.00026027	0.0002929	6.0091e-05	1138.4	3.5256e-06	2.0676e-06	1191.4	232.17	2.8253e-06	2.8729e-06	290.57	81.714	64.587	19.004	2.9409e-06	27.03	92.903	-24.063	6.161	-76.576	70.108	71.680	-76.450	-69.707	22.553	70.000	-69.707	-63.569	-63.199	-56.248	61.089	-56.489	-8191	255	
18444.479	1	1	0	0	0.33274	0.18073	0.085439	0.13263	0.20272	0.078948	0.13466	0.053871	0.06069	0.089941	0.18094	0.2414	0.16045	0.047998	0.16195	0.11782	-4.3833	-4.2208	-4.55	-4.7083	-4.25	-4.8042	-4.6667	-4.2646	-4.7396	-4.275	-4.6667	-4.8229	-4.1708	-4.7063	-4.4083	-4.3417	68.368	119.367	-40.925	-84.402	-85.313	267.180	-78.247	-25.099	66.174	209.683	224.231	231.526	36.372	-2.242	-81.932	-25.207	0.00020914	0.00020993	0.0001104	1155.1	2.5877e-06	2.6757e-06	1200	231.92	2.3854e-06	3.4008e-06	291.42	80.958	64.936	18.803	3.3305e-06	26.484	0.00024911	0.00025042	5.8077e-05	1137.1	3.8227e-06	1.7272e-06	1187.6	231.68	2.7266e-06	2.5121e-06	289.94	81.594	64.804	18.972	2.5733e-06	26.888	91.059	22.347	8.444	-76.820	64.705	60.843	-76.826	-69.611	4.125	59.549	-70.130	-63.661	-62.576	-55.429	51.106	-56.617	-8191	255	
#DATA ENDS
