BOXY.EXE: ISS Imagent and Oximeter Data Acquisition Program Version 0.80
Ascii Record File

#ACQ INFORMATION
2  Detector Channels 
16  External MUX Channels 
1  Auxiliary Channels 
5000  Waveform (CCF) Frequency (Hz)
1  Waveforms Skipped 
30  Waveforms Averaged 
1  Cycles Averaged 
16  Acquisitions per Waveform 
10.0806  Updata Rate (Hz) 

#FILE INFORMATION
TRUE -- External MUX Channel results are PARSED.
FALSE -- AC DC and Phase are NOT grouped.
TRUE -- Companion Program Settings File CREATED.
FALSE -- AC data not excluded
FALSE -- DC data not excluded
FALSE -- Phase data not excluded
FALSE -- Auxillary Chn. data not excluded
Tab delimiters

#CALIBRATION STATE
TRUE -- Waveform Calibration Values APPLIED.


#AUX CALIBRATION VALUES
Val Type	aux-1	

Term	1.0000e+00	
Factor	0.0000e+00	


#WF CALIBRATION VALUES
A = Detector Channel
Val Type	A-AC1	A-AC2	A-AC3	A-AC4	A-AC5	A-AC6	A-AC7	A-AC8	A-AC9	A-AC10	A-AC11	A-AC12	A-AC13	A-AC14	A-AC15	A-AC16	A-DC1	A-DC2	A-DC3	A-DC4	A-DC5	A-DC6	A-DC7	A-DC8	A-DC9	A-DC10	A-DC11	A-DC12	A-DC13	A-DC14	A-DC15	A-DC16	A-Ph1	A-Ph2	A-Ph3	A-Ph4	A-Ph5	A-Ph6	A-Ph7	A-Ph8	A-Ph9	A-Ph10	A-Ph11	A-Ph12	A-Ph13	A-Ph14	A-Ph15	A-Ph16	

Term	0.00000e+00	0.00000e+00	0.00000e+00	0.00000e+00	0.00000e+00	0.00000e+00	0.00000e+00	0.00000e+00	0.00000e+00	0.00000e+00	0.00000e+00	0.00000e+00	0.00000e+00	0.00000e+00	0.00000e+00	0.00000e+00	0.00000e+00	0.00000e+00	0.00000e+00	0.00000e+00	0.00000e+00	0.00000e+00	0.00000e+00	0.00000e+00	0.00000e+00	0.00000e+00	0.00000e+00	0.00000e+00	0.00000e+00	0.00000e+00	0.00000e+00	0.00000e+00	0.00000e+00	0.00000e+00	0.00000e+00	0.00000e+00	0.00000e+00	0.00000e+00	0.00000e+00	0.00000e+00	0.00000e+00	0.00000e+00	0.00000e+00	0.00000e+00	0.00000e+00	0.00000e+00	0.00000e+00	0.00000e+00	
Factor	1.00000e+00	1.00000e+00	1.00000e+00	1.00000e+00	1.00000e+00	1.00000e+00	1.00000e+00	1.00000e+00	1.00000e+00	1.00000e+00	1.00000e+00	1.00000e+00	1.00000e+00	1.00000e+00	1.00000e+00	1.00000e+00	1.00000e+00	1.00000e+00	1.00000e+00	1.00000e+00	1.00000e+00	1.00000e+00	1.00000e+00	1.00000e+00	1.00000e+00	1.00000e+00	1.00000e+00	1.00000e+00	1.00000e+00	1.00000e+00	1.00000e+00	1.00000e+00	X	X	X	X	X	X	X	X	X	X	X	X	X	X	X	X	

B = Detector Channel
Val Type	B-AC1	B-AC2	B-AC3	B-AC4	B-AC5	B-AC6	B-AC7	B-AC8	B-AC9	B-AC10	B-AC11	B-AC12	B-AC13	B-AC14	B-AC15	B-AC16	B-DC1	B-DC2	B-DC3	B-DC4	B-DC5	B-DC6	B-DC7	B-DC8	B-DC9	B-DC10	B-DC11	B-DC12	B-DC13	B-DC14	B-DC15	B-DC16	B-Ph1	B-Ph2	B-Ph3	B-Ph4	B-Ph5	B-Ph6	B-Ph7	B-Ph8	B-Ph9	B-Ph10	B-Ph11	B-Ph12	B-Ph13	B-Ph14	B-Ph15	B-Ph16	

Term	0.00000e+00	0.00000e+00	0.00000e+00	0.00000e+00	0.00000e+00	0.00000e+00	0.00000e+00	0.00000e+00	0.00000e+00	0.00000e+00	0.00000e+00	0.00000e+00	0.00000e+00	0.00000e+00	0.00000e+00	0.00000e+00	0.00000e+00	0.00000e+00	0.00000e+00	0.00000e+00	0.00000e+00	0.00000e+00	0.00000e+00	0.00000e+00	0.00000e+00	0.00000e+00	0.00000e+00	0.00000e+00	0.00000e+00	0.00000e+00	0.00000e+00	0.00000e+00	-2.04314e+02	-1.42203e+02	-1.28168e+02	-1.83188e+02	-8.07192e+01	-9.55538e+01	-1.57235e+02	-1.62015e+02	-9.38696e+01	-7.87754e+01	-1.72586e+02	-1.73078e+02	-1.80462e+02	-1.78286e+02	-1.03677e+02	-1.51187e+02	
Factor	5.12228e-05	5.56067e-05	1.88345e-05	1.95333e-01	6.11813e-07	6.20629e-07	2.43410e-01	8.63391e-02	5.78950e-07	5.10576e-07	1.23214e-01	4.08652e-02	3.29490e-02	1.20693e-02	4.99769e-07	1.77148e-02	2.19044e-07	2.19549e-07	6.10483e-08	8.04949e-02	2.40446e-09	2.40050e-09	9.18355e-02	3.25942e-02	2.40413e-09	2.39780e-09	4.31712e-02	1.43532e-02	1.21673e-02	4.38651e-03	2.40139e-09	6.00466e-03	X	X	X	X	X	X	X	X	X	X	X	X	X	X	X	X	



#DISTANCE SETTINGS
A = Detector Channel
A-1	A-2	A-3	A-4	A-5	A-6	A-7	A-8	A-9	A-10	A-11	A-12	A-13	A-14	A-15	A-16	

2.5000e+00	3.0000e+00	2.5000e+00	3.0000e+00	2.0000e+00	3.0000e+00	1.5000e+00	3.0000e+00	3.0000e+00	3.0000e+00	3.0000e+00	3.0000e+00	3.0000e+00	3.0000e+00	1.5000e+00	3.0000e+00	

B = Detector Channel
B-1	B-2	B-3	B-4	B-5	B-6	B-7	B-8	B-9	B-10	B-11	B-12	B-13	B-14	B-15	B-16	

1.0000e+01	1.0000e+01	1.0000e+01	1.4400e+00	1.0000e+01	1.0000e+01	1.5100e+00	1.9400e+00	1.0000e+01	1.0000e+01	1.9900e+00	2.4900e+00	2.4100e+00	2.9000e+00	1.0000e+01	2.9800e+00	




#DATA BEGINS
time	group	step	mark	flag	A-AC1	A-AC2	A-AC3	A-AC4	A-AC5	A-AC6	A-AC7	A-AC8	A-AC9	A-AC10	A-AC11	A-AC12	A-AC13	A-AC14	A-AC15	A-AC16	A-DC1	A-DC2	A-DC3	A-DC4	A-DC5	A-DC6	A-DC7	A-DC8	A-DC9	A-DC10	A-DC11	A-DC12	A-DC13	A-DC14	A-DC15	A-DC16	A-Ph1	A-Ph2	A-Ph3	A-Ph4	A-Ph5	A-Ph6	A-Ph7	A-Ph8	A-Ph9	A-Ph10	A-Ph11	A-Ph12	A-Ph13	A-Ph14	A-Ph15	A-Ph16	B-AC1	B-AC2	B-AC3	B-AC4	B-AC5	B-AC6	B-AC7	B-AC8	B-AC9	B-AC10	B-AC11	B-AC12	B-AC13	B-AC14	B-AC15	B-AC16	B-DC1	B-DC2	B-DC3	B-DC4	B-DC5	B-DC6	B-DC7	B-DC8	B-DC9	B-DC10	B-DC11	B-DC12	B-DC13	B-DC14	B-DC15	B-DC16	B-Ph1	B-Ph2	B-Ph3	B-Ph4	B-Ph5	B-Ph6	B-Ph7	B-Ph8	B-Ph9	B-Ph10	B-Ph11	B-Ph12	B-Ph13	B-Ph14	B-Ph15	B-Ph16	aux-1	digaux	

2801.159	1	1	0	256	0.088031	0.16544	0.17424	0.083346	0.10216	0.24017	0.23768	0.32793	0.20984	0.3456	0.28307	0.099999	0.10247	0.15238	0.10937	0.22084	-3.875	-3.6229	-3.5646	-4.2542	-3.7375	-3.8083	-4.1042	-3.6688	-4.125	-3.8625	-3.7229	-4.3313	-3.7417	-3.8729	-4.0646	-3.5917	158.804	229.842	342.522	401.255	126.495	336.390	276.327	323.774	370.040	295.842	252.453	385.230	352.591	357.400	376.194	70.711	0.001052	0.00011794	6.9459e-05	939.64	1.9422e-06	5.8915e-07	1051.1	300.55	1.9097e-06	5.448e-07	391.21	136.68	107.69	38.46	1.0858e-06	53.892	1.347e-05	1.1904e-05	2.9933e-06	798.04	1.2177e-07	1.256e-07	868.38	235.61	1.211e-07	1.2562e-07	291.28	102.46	81.467	29.091	1.1491e-07	38.98	83.987	99.018	150.463	66.766	185.758	161.696	65.938	71.328	143.420	207.513	70.048	74.665	76.317	81.691	194.960	78.679	-8191	255	
2801.253	1	1	0	0	0.080305	0.28615	0.25072	0.096824	0.23299	0.070958	0.13751	0.15893	0.068637	0.088733	0.17619	0.10491	0.10391	0.063257	0.23648	0.15495	-3.6937	-3.7833	-3.4542	-4.1646	-3.7812	-3.7208	-4.3125	-3.6458	-4.1292	-4.0083	-3.4688	-4.2438	-3.7313	-3.9333	-4.1604	-3.6729	183.647	62.749	145.766	60.725	56.063	153.514	308.087	257.571	111.450	107.374	364.630	141.803	246.538	215.461	302.954	300.277	0.00096362	0.00011708	4.6787e-05	941.05	9.0397e-07	1.5767e-06	1047.3	302.3	1.3321e-06	6.3131e-07	390.52	136.96	107.83	38.508	1.2654e-06	54.004	1.4177e-05	1.1001e-05	2.8217e-06	798.11	1.2253e-07	1.1848e-07	866.18	236.33	1.2334e-07	1.1695e-07	291.75	102.67	81.71	29.158	1.087e-07	39.025	82.197	126.600	142.133	66.738	204.667	187.863	65.984	71.438	188.834	244.274	69.785	74.532	76.437	81.825	182.687	78.680	-8191	255	
2801.349	1	1	0	0	0.26271	0.11723	0.056168	0.14219	0.14839	0.26065	0.081984	0.10615	0.14095	0.21337	0.13001	0.10884	0.12229	0.039805	0.05434	0.2355	-3.5104	-4.0021	-3.4417	-4.1229	-3.825	-3.7542	-4.2417	-3.6917	-3.9792	-3.9188	-3.65	-4.1521	-3.8708	-3.6771	-4.2167	-3.6625	357.857	206.114	74.479	195.518	400.407	402.390	79.012	209.939	144.382	55.212	151.750	253.178	381.546	302.141	60.305	333.562	0.0010193	7.9846e-05	3.9305e-05	939.67	1.8043e-06	1.1481e-06	1049.4	303.89	1.1779e-06	8.7456e-07	388.71	137.24	107.44	38.399	1.3871e-06	53.824	1.4467e-05	1.0321e-05	2.7021e-06	799.44	1.2539e-07	1.1307e-07	868.62	237.12	1.2528e-07	1.075e-07	290.65	102.86	81.613	29.138	1.0282e-07	39.037	84.616	133.476	134.786	66.917	200.240	193.991	65.951	71.489	167.266	189.533	69.830	74.354	76.387	82.016	161.132	78.799	-8191	255	
2801.445	1	1	0	0	0.23226	0.10572	0.091364	0.047596	0.034314	0.10359	0.25582	0.12531	0.11845	0.12899	0.025355	0.13897	0.12578	0.06044	0.062077	0.13013	-3.5	-4.0396	-3.5271	-3.9813	-3.8583	-3.6167	-4.2521	-3.7375	-3.8271	-3.9583	-3.6688	-4.2188	-3.8688	-3.5417	-4.0354	-3.8479	250.324	146.990	293.801	246.278	155.600	309.995	273.664	90.142	226.319	299.101	83.480	180.967	94.030	97.337	104.032	314.255	0.00091482	0.0001439	4.329e-05	939.59	1.9402e-06	1.4794e-06	1054.3	302.03	1.591e-06	1.6552e-06	389.95	137.39	107.82	38.496	1.4859e-06	53.902	1.4321e-05	9.6309e-06	2.601e-06	799.26	1.223e-07	1.0921e-07	868.26	236.58	1.1873e-07	1.0281e-07	291.15	103.04	81.771	29.128	1.0685e-07	39.158	84.921	133.566	162.465	66.919	195.013	219.114	66.142	71.512	190.056	196.443	69.779	74.482	76.202	81.855	157.484	78.746	-8191	255	
2801.542	1	1	0	0	0.10474	0.044775	0.15501	0.21504	0.023828	0.12536	0.1733	0.16474	0.21416	0.26241	0.10289	0.18779	0.17572	0.25961	0.1533	0.12175	-3.2833	-3.9083	-3.5208	-3.9562	-3.8521	-3.3937	-4.2312	-3.5979	-3.6208	-4.0458	-3.5104	-3.8937	-4.0875	-3.3042	-4.0792	-3.6854	302.420	253.540	375.661	59.784	385.261	172.324	64.652	409.782	287.040	174.824	159.552	59.596	76.873	250.112	74.696	296.682	0.00093865	9.018e-05	2.7391e-05	947.3	1.6731e-06	1.5998e-06	1061.9	305.62	2.269e-06	1.7679e-06	392.81	137.54	108.24	38.634	1.4774e-06	54.086	1.4252e-05	1.0092e-05	2.769e-06	807.1	1.2445e-07	1.1217e-07	876.91	239.46	1.2493e-07	1.0807e-07	293.77	103.37	82.124	29.288	1.1417e-07	39.244	87.961	116.074	156.147	66.928	205.772	180.985	66.047	71.521	171.352	196.412	69.940	74.515	76.480	81.889	171.898	78.752	-8191	255	
2801.638	1	1	0	0	0.15895	0.065121	0.071497	0.11801	0.25498	0.092883	0.21753	0.21906	0.20619	0.047217	0.092476	0.083262	0.13027	0.23644	0.25477	0.19038	-3.2833	-4.0917	-3.5792	-3.8792	-4.0062	-3.4437	-4.3083	-3.9167	-3.625	-4.2208	-3.7917	-3.9771	-4.1104	-3.6583	-4.1583	-3.9875	356.096	272.659	181.912	110.789	350.552	299.989	330.866	74.013	231.371	411.052	337.376	123.137	99.929	104.360	231.378	388.329	0.0010236	0.00012417	3.8476e-05	946.04	1.7588e-06	8.923e-07	1056.4	303.35	1.4704e-06	1.0271e-06	389.91	137.28	107.86	38.505	1.9815e-06	53.498	1.4212e-05	9.9767e-06	2.9558e-06	806.38	1.2048e-07	1.0691e-07	872.84	238.29	1.1735e-07	1.0109e-07	291.97	102.66	81.603	29.062	1.2009e-07	38.811	85.758	120.107	140.595	66.753	194.503	142.731	65.921	71.300	139.154	197.327	69.492	74.354	76.363	82.034	168.375	78.830	-8191	255	
2801.734	1	1	0	0	0.18055	0.15767	0.11172	0.20757	0.11542	0.34638	0.19086	0.073078	0.17765	0.14215	0.43713	0.13411	0.082799	0.086347	0.13671	0.21289	-2.95	-4.225	-3.7771	-3.9979	-4.1708	-3.4771	-4.0792	-4.1188	-3.4792	-4.3042	-3.7854	-3.6979	-4.2708	-3.4979	-3.9375	-3.9417	277.292	369.979	396.798	381.780	348.714	151.667	69.607	380.947	287.111	375.587	381.558	286.334	129.318	350.193	234.777	400.802	0.00093591	0.00012182	5.9319e-05	948.21	1.8288e-06	1.5206e-06	1058.7	305.22	1.3938e-06	1.0458e-06	391.06	136.55	107.95	38.139	1.3376e-06	53.294	1.3768e-05	9.5028e-06	3.1141e-06	808.06	1.17e-07	1.0673e-07	874.09	238.89	1.154e-07	1.0375e-07	292.03	102.4	81.608	28.903	1.2924e-07	38.597	83.770	114.920	158.143	66.948	202.993	174.348	66.077	71.401	178.422	200.730	69.907	74.561	76.243	81.847	160.492	78.728	-8191	255	
2801.855	1	1	0	0	0.1118	0.19443	0.11468	0.26542	0.1021	0.076114	0.23166	0.044497	0.14125	0.091367	0.2512	0.12569	0.13198	0.1168	0.29398	0.17764	-3.0917	-4.2937	-3.6729	-3.825	-4.1333	-3.6208	-4.0854	-4.0771	-3.5187	-4.1521	-3.8917	-3.7396	-4.3938	-3.6542	-3.8417	-4.1604	86.035	321.310	70.960	381.445	163.193	202.575	399.215	357.605	107.289	355.322	398.782	80.312	380.321	406.896	286.070	307.090	0.00093712	9.7965e-05	5.0903e-05	948.9	1.4692e-06	1.2825e-06	1060.4	303.81	1.052e-06	1.3519e-06	390.14	136.5	107.69	38.217	1.6759e-06	53.563	1.3576e-05	9.769e-06	3.244e-06	809.33	1.1323e-07	1.1225e-07	874.28	238.32	1.1527e-07	1.0868e-07	291.92	102.49	81.708	28.97	1.3021e-07	38.768	87.297	173.203	153.507	67.016	172.029	171.538	66.083	71.627	187.097	187.853	69.766	74.318	76.441	81.960	169.423	78.923	-8191	255	
2801.951	1	1	0	0	0.28671	0.096884	0.15948	0.13914	0.086435	0.11861	0.27649	0.038643	0.13357	0.11802	0.10667	0.18148	0.20097	0.098605	0.021422	0.21152	-3.0854	-4.0708	-3.9833	-3.75	-4.1062	-3.8396	-3.9917	-4.3021	-3.4437	-4.1896	-3.9417	-3.6771	-4.1958	-3.9042	-3.5521	-4.1958	55.926	67.585	217.360	207.796	222.059	195.458	323.925	101.099	368.989	282.678	367.745	303.072	410.288	214.806	72.567	368.128	0.00097352	0.00017144	3.351e-05	951.88	1.5415e-06	1.3625e-06	1056.8	304.48	5.6011e-07	1.5271e-06	388.94	137.26	107.99	38.348	1.1397e-06	53.757	1.3264e-05	1.0711e-05	3.2513e-06	808.91	1.0977e-07	1.1731e-07	874.41	238.71	1.0995e-07	1.1341e-07	292.53	102.84	81.761	29.028	1.2282e-07	38.856	84.340	121.473	171.258	66.796	191.669	188.614	66.245	71.511	184.766	199.687	69.678	74.494	76.469	81.941	163.286	78.853	-8191	255	
2802.022	1	1	0	0	0.076189	0.152	0.066187	0.20106	0.25283	0.22997	0.090194	0.13286	0.11849	0.048499	0.069982	0.17061	0.027256	0.16276	0.19025	0.27676	-3.0771	-4.0583	-3.8896	-3.7938	-4.1062	-3.7313	-3.5875	-4.2521	-3.4729	-4.0833	-4.0729	-3.5542	-4.1604	-3.6708	-3.6667	-4.5062	108.599	207.124	195.437	308.917	137.671	111.520	382.362	327.576	191.969	400.324	382.539	350.388	393.698	235.919	156.591	348.509	0.00090297	0.0002237	2.7096e-05	947.72	1.3646e-06	1.2306e-06	1058.7	306.01	1.6308e-06	1.1142e-06	390.93	137.71	108.93	38.678	1.3401e-06	53.853	1.2835e-05	1.1186e-05	3.0815e-06	806.78	1.0952e-07	1.2535e-07	873.7	239.29	1.1225e-07	1.2179e-07	292.94	103.15	82.379	29.336	1.2105e-07	38.996	84.489	134.241	135.252	66.788	193.347	174.566	66.059	71.527	194.850	219.006	69.683	74.475	76.292	81.800	180.211	78.635	-8191	255	
2802.119	1	1	0	0	0.27342	0.25904	0.22005	0.22692	0.0069084	0.0071068	0.10955	0.035551	0.15889	0.13183	0.22984	0.074729	0.10673	0.097644	0.19754	0.30761	-3.1688	-3.9208	-3.9396	-3.7104	-4.1125	-3.9146	-3.6479	-4.2375	-3.6875	-3.7562	-4.2188	-3.5563	-4.1125	-3.9688	-3.7229	-4.2271	251.733	394.397	222.981	311.627	123.983	391.571	313.605	268.789	198.244	307.381	370.545	143.228	312.818	61.230	100.540	360.842	0.00097748	0.00015606	4.7866e-05	952.61	1.4322e-06	1.7371e-06	1060	309.16	1.4521e-06	1.2708e-06	392.41	138.57	109.54	39.11	7.2939e-07	54.092	1.3596e-05	1.1604e-05	2.9341e-06	810.71	1.1579e-07	1.2984e-07	875.78	241.44	1.2447e-07	1.2998e-07	294.36	103.75	83.076	29.556	1.2338e-07	39.168	86.736	137.542	149.862	66.811	170.709	211.372	66.136	71.456	176.945	198.032	69.709	74.503	76.532	81.688	175.940	78.886	-8191	255	
2802.237	1	1	0	0	0.10528	0.082682	0.028002	0.25917	0.14552	0.15871	0.14677	0.23195	0.11874	0.14739	0.11677	0.11578	0.18499	0.12014	0.21383	0.25061	-3.1146	-3.7687	-3.8812	-3.6646	-4.0708	-4.0188	-3.7042	-4.4354	-3.65	-3.9062	-4.1125	-3.5687	-4.0271	-4.0396	-3.4979	-4.1771	349.942	394.286	237.913	102.236	398.863	88.115	367.418	54.927	57.394	281.710	305.986	84.805	108.405	365.748	155.053	339.784	0.0009829	0.00018688	3.9345e-05	950.58	1.3323e-06	1.5143e-06	1059.1	306.49	1.4506e-06	7.2525e-07	393.15	137.98	108.88	38.71	1.7876e-06	54.171	1.4674e-05	1.1834e-05	2.896e-06	809.99	1.2274e-07	1.2318e-07	873.75	240.63	1.2554e-07	1.2085e-07	293.32	103.55	82.736	29.343	1.1346e-07	39.065	86.553	116.231	139.714	66.927	174.414	193.320	65.988	71.408	185.444	212.519	69.988	74.372	76.246	81.846	181.750	78.758	-8191	255	
2802.334	1	1	0	0	0.11648	0.34411	0.099065	0.19837	0.13504	0.11616	0.142	0.16207	0.028961	0.1613	0.10865	0.053693	0.19608	0.22817	0.12861	0.088839	-3.3563	-3.5729	-4.2417	-3.4208	-4.0208	-3.8729	-3.5833	-4.1583	-3.9083	-3.7333	-4.2979	-3.6958	-3.9229	-3.9625	-3.5833	-4.1083	135.010	312.243	323.547	373.833	322.571	330.182	402.676	383.239	366.671	361.246	348.833	256.140	110.840	68.154	72.134	254.741	0.0010029	0.00016372	3.1094e-05	946.77	2.1052e-06	8.8894e-07	1050.5	305.82	1.8896e-06	1.4778e-06	391.25	138.23	108.78	38.611	9.141e-07	53.801	1.4371e-05	1.0471e-05	2.6185e-06	804.45	1.2237e-07	1.1208e-07	870.75	238.92	1.2493e-07	1.1177e-07	292.74	103.33	82.489	29.151	1.0927e-07	38.89	84.263	120.901	158.310	66.969	198.040	136.399	66.326	71.658	182.397	200.303	69.822	74.628	76.329	81.894	176.762	78.965	-8191	255	
2802.430	1	1	0	0	0.12815	0.26486	0.12172	0.18104	0.1768	0.11213	0.32742	0.056433	0.060677	0.24756	0.087279	0.11423	0.2277	0.21149	0.18703	0.086583	-3.5187	-3.5854	-4.2937	-3.6792	-3.8854	-3.9167	-3.5917	-4.2562	-3.8229	-3.5896	-4.2208	-3.3896	-3.8438	-4.0833	-3.5417	-4.0146	331.007	291.598	242.045	307.172	316.256	168.535	60.958	270.679	159.962	308.365	149.217	263.657	400.882	396.454	219.040	65.661	0.00099217	0.00012035	4.205e-05	949.56	1.7572e-06	1.1128e-06	1052.1	305.55	2.2866e-06	1.1763e-06	390.53	137.23	108.67	38.441	1.0834e-06	53.604	1.4435e-05	1.0464e-05	2.5491e-06	807.2	1.2671e-07	1.0711e-07	869.64	239.01	1.2507e-07	1.1108e-07	291.64	102.66	82.241	29.034	1.0681e-07	38.68	88.682	123.140	160.786	66.939	189.697	160.906	66.086	71.259	170.811	207.920	69.807	74.526	76.233	81.779	180.677	78.886	-8191	255	
2802.526	1	1	0	0	0.20366	0.083698	0.13195	0.17785	0.031846	0.11056	0.21726	0.080793	0.2184	0.12695	0.045766	0.054929	0.21172	0.063122	0.11199	0.13283	-3.5812	-3.4167	-4.2063	-3.8125	-3.8771	-4.1687	-3.75	-4.1438	-3.7396	-3.5667	-4.2042	-3.7	-3.7958	-4.2	-3.5292	-3.9646	381.409	207.121	119.483	385.434	191.469	186.146	256.292	131.224	62.915	134.929	150.511	299.575	335.339	84.415	103.835	352.247	0.00097994	0.00016586	5.4791e-05	956.12	1.0645e-06	9.7491e-07	1053.5	305.56	1.4875e-06	1.2352e-06	389.56	136.05	108.1	38.26	7.2172e-07	52.875	1.4395e-05	1.0448e-05	2.6018e-06	810.96	1.2439e-07	1.0717e-07	870.61	239.13	1.2015e-07	1.0846e-07	290.76	102.13	81.824	28.849	1.0868e-07	38.359	86.596	128.456	126.801	66.769	189.873	193.688	66.093	71.402	180.832	171.522	69.907	74.499	76.471	81.857	195.227	78.737	-8191	255	
2802.646	1	1	0	0	0.24981	0.10493	0.10252	0.21568	0.16222	0.18377	0.073644	0.074902	0.12246	0.27389	0.24646	0.063969	0.064913	0.25686	0.25273	0.23459	-3.7292	-3.3937	-3.9313	-3.8	-3.6208	-4.0604	-3.7458	-3.9833	-3.9354	-3.2812	-4.0229	-3.9208	-3.7875	-4.1312	-3.5938	-3.9	328.026	351.135	223.566	96.821	141.345	182.567	256.383	73.139	204.114	341.961	377.157	206.073	217.421	214.943	362.913	316.784	0.00097275	0.00016276	4.8586e-05	947.95	1.2006e-06	9.1263e-07	1051.3	304.68	1.3088e-06	9.5729e-07	389.79	136.63	107.67	37.879	1.2697e-06	52.894	1.3607e-05	9.6496e-06	2.5946e-06	806.83	1.1524e-07	1.008e-07	869.26	238.27	1.1172e-07	1.0192e-07	291.05	102.19	81.61	28.724	1.1188e-07	38.318	85.736	135.956	133.056	66.924	213.223	178.075	65.992	71.401	183.449	202.091	69.885	74.532	76.457	81.772	184.358	78.676	-8191	255	
2802.718	1	1	0	0	0.28966	0.11661	0.19162	0.19944	0.18731	0.22799	0.13788	0.033289	0.23433	0.052275	0.06373	0.17216	0.10433	0.11195	0.26008	0.08687	-3.5521	-3.5396	-3.8604	-3.8229	-3.4792	-4.2812	-3.6896	-3.7396	-3.9875	-3.4125	-4.1646	-3.8063	-3.6813	-4.1792	-3.7104	-3.8771	154.079	167.707	78.965	392.664	150.987	349.950	331.517	405.149	207.092	325.455	311.486	411.076	303.741	387.903	164.152	317.457	0.00092779	0.00017526	5.1993e-05	950.09	2.1199e-06	9.6158e-07	1056.3	305.35	1.3171e-06	1.1553e-06	389.62	137.31	107.67	37.956	1.7089e-06	53.392	1.2906e-05	9.1808e-06	2.7283e-06	806.49	1.1141e-07	9.618e-08	872.69	238.62	1.0741e-07	9.822e-08	291.78	102.78	81.81	28.744	1.1894e-07	38.555	86.265	143.430	140.194	66.777	202.126	178.126	66.179	71.413	164.298	196.158	69.669	74.352	76.217	81.814	158.440	78.763	-8191	255	
2802.839	1	1	0	0	0.084424	0.18587	0.22632	0.14321	0.13274	0.15828	0.28656	0.20354	0.036254	0.1987	0.18762	0.19544	0.19504	0.059719	0.040563	0.25551	-3.8396	-3.3688	-3.9479	-4.1333	-3.5563	-4.0979	-3.8229	-3.6271	-4.0083	-3.5354	-4.1229	-4.0292	-3.6521	-4.1229	-3.8396	-3.5271	373.458	281.957	265.003	189.511	63.633	259.767	361.308	288.789	139.643	139.691	344.103	83.948	375.531	200.475	401.729	323.793	0.00095087	0.00012813	2.8072e-05	945.68	1.3299e-06	1.1673e-06	1054.9	304.95	1.3314e-06	1.6593e-06	389.93	136.92	108.37	38.469	1.7631e-06	53.561	1.2661e-05	9.4401e-06	2.9687e-06	805.92	1.1161e-07	9.7845e-08	870.26	238.99	1.0585e-07	1.0367e-07	291.93	102.61	82.376	29.106	1.2177e-07	38.718	85.315	132.705	141.176	66.794	184.607	176.738	66.055	71.388	190.179	198.147	69.643	74.455	76.342	81.976	164.880	78.710	-8191	255	
2802.935	1	1	0	0	0.10802	0.087656	0.095033	0.078347	0.06403	0.25997	0.098174	0.36312	0.26637	0.26136	0.15213	0.21172	0.014341	0.056834	0.028455	0.078915	-3.8271	-3.3667	-3.7812	-4.1604	-3.4313	-4.1396	-3.8542	-3.5917	-4.2417	-3.7104	-3.9458	-4.0625	-3.3833	-4.1438	-3.7479	-3.6542	70.062	284.295	375.685	373.767	299.232	115.797	232.423	407.421	109.880	349.976	382.218	344.626	305.208	64.855	290.790	317.167	0.00093584	0.00019823	6.0582e-05	949.3	1.0392e-06	1.5157e-06	1051.5	306.01	1.7684e-06	8.4748e-07	391.9	136.98	108.95	38.536	8.8919e-07	53.151	1.2018e-05	9.8111e-06	2.9568e-06	806.77	1.0764e-07	1.0318e-07	869.61	239.59	1.0101e-07	1.0932e-07	292.06	102.66	82.488	29.117	1.209e-07	38.62	86.855	132.160	146.433	66.855	203.723	173.215	66.188	71.431	215.259	136.262	69.920	74.381	76.438	81.685	127.028	78.676	-8191	255	
2803.031	1	1	0	0	0.12931	0.24637	0.089193	0.15292	0.28757	0.15711	0.14113	0.18344	0.014062	0.21522	0.18564	0.095608	0.010102	0.16518	0.15436	0.061437	-3.7979	-3.4292	-3.7646	-4.2604	-3.6104	-3.9208	-3.9979	-3.5292	-4.2458	-3.7188	-3.9167	-4.2646	-3.6083	-4.1083	-4.0104	-3.5417	312.759	326.778	322.289	319.190	283.989	301.358	251.874	102.136	77.741	285.603	373.162	91.264	66.276	336.170	288.411	120.313	0.00090348	0.00017601	3.5307e-05	949.92	2.1212e-06	9.8025e-07	1051.7	306.46	1.5018e-06	1.2212e-06	392.96	137.59	109.02	38.519	1.2737e-06	53.442	1.2353e-05	1.0592e-05	3.0188e-06	808.02	1.0783e-07	1.1441e-07	870.46	239.74	1.0311e-07	1.1952e-07	293.08	102.82	82.553	29.157	1.2035e-07	38.702	83.213	146.636	108.196	66.992	190.589	166.490	66.036	71.478	186.194	212.246	69.973	74.584	76.342	82.023	189.034	78.783	-8191	255	
2803.127	1	1	0	0	0.13453	0.24895	0.080075	0.39778	0.12354	0.1021	0.19084	0.19658	0.095382	0.15637	0.20554	0.12861	0.062739	0.12674	0.10679	0.10974	-3.7917	-3.5708	-3.7188	-4.2	-3.6104	-3.9271	-4.2375	-3.7687	-4.0854	-3.8021	-3.6271	-4.2458	-3.6021	-3.9875	-4.0208	-3.6958	215.038	225.136	295.865	357.914	152.962	177.561	363.044	61.979	285.902	342.762	367.009	169.868	90.841	329.249	390.055	342.491	0.00099349	0.00018415	2.4964e-05	949.73	2.1864e-06	1.725e-06	1054.6	305.71	1.5837e-06	9.7765e-07	392.28	137.42	108.32	38.531	1.0594e-06	53.226	1.2585e-05	1.1629e-05	2.942e-06	807.59	1.1147e-07	1.2097e-07	870.34	239.05	1.11e-07	1.1932e-07	292.63	102.85	82.284	29.059	1.1472e-07	38.591	88.207	151.462	126.368	66.903	204.400	153.649	65.905	71.463	188.550	244.186	69.953	74.583	76.462	81.797	169.580	78.757	-8191	255	
2803.246	1	1	0	0	0.037368	0.077208	0.23115	0.10761	0.16684	0.12478	0.015688	0.22672	0.086681	0.077459	0.17666	0.17763	0.09332	0.16636	0.38103	0.24305	-3.6021	-3.8708	-3.65	-4.3187	-3.6875	-3.8208	-4.275	-3.6688	-4.0312	-3.8563	-3.5604	-4.2958	-3.675	-3.8812	-4.1292	-3.6271	237.811	225.451	317.699	183.139	213.674	117.238	123.431	361.413	311.689	282.552	404.672	325.879	335.147	351.750	225.892	251.959	0.00093736	0.00014079	3.9072e-05	947.57	1.972e-06	1.403e-06	1048.6	305.85	1.0897e-06	7.0903e-07	389.39	136.39	108.79	38.203	1.6687e-06	53.199	1.3176e-05	1.0787e-05	2.8076e-06	804.86	1.1535e-07	1.1644e-07	866.98	239.14	1.1336e-07	1.1549e-07	291	102.18	82.286	29.02	1.0703e-07	38.417	84.356	140.344	154.108	66.857	196.561	189.418	66.133	71.369	186.592	213.860	69.797	74.632	76.178	81.679	167.677	78.767	-8191	255	
2803.318	1	1	0	0	0.046832	0.060375	0.22127	0.26104	0.25775	0.099742	0.4492	0.051259	0.19855	0.27718	0.1062	0.277	0.23216	0.17453	0.060019	0.09495	-3.6146	-3.9938	-3.3958	-4.3313	-3.6229	-3.8667	-4.1104	-3.6854	-4.0417	-3.8958	-3.5563	-4.225	-3.775	-3.8646	-4.2417	-3.5083	355.865	129.098	186.641	365.654	131.519	75.754	412.318	218.024	302.609	328.256	53.759	358.545	55.788	373.120	325.819	341.307	0.0010068	0.00014241	4.0641e-05	948.26	1.9979e-06	1.4263e-06	1049.1	306.23	2.1493e-06	1.2968e-06	389.27	136.08	107.97	38.079	7.949e-07	52.748	1.363e-05	1.0407e-05	2.6191e-06	803.41	1.1896e-07	1.0966e-07	866.14	238.78	1.1567e-07	1.0753e-07	290.05	101.84	81.96	28.824	9.9918e-08	38.192	86.503	125.615	145.388	66.782	212.332	191.802	65.986	71.247	180.764	176.104	69.880	74.341	76.315	81.891	183.988	78.874	-8191	255	
2803.414	1	1	0	0	0.11898	0.26676	0.11486	0.11102	0.026096	0.11729	0.15476	0.13598	0.18149	0.23662	0.10602	0.096265	0.037663	0.16945	0.040025	0.095416	-3.6208	-3.8354	-3.5333	-4.0625	-3.8479	-3.5896	-4.1229	-3.6833	-3.9146	-4.1083	-3.5208	-4.0521	-3.8771	-3.7208	-4.0938	-3.6917	352.743	244.648	197.081	361.926	119.392	369.676	237.153	283.143	218.202	77.923	204.121	401.729	82.691	368.732	250.807	390.439	0.00094355	0.00011452	3.0309e-05	943.7	1.7843e-06	6.7799e-07	1047.9	304.86	1.6194e-06	1.3395e-06	387.37	137.02	108.37	38.025	1.2214e-06	52.931	1.3633e-05	9.688e-06	2.4952e-06	802.4	1.18e-07	1.012e-07	864.55	237.99	1.1525e-07	1.0209e-07	289.75	102.03	81.842	28.757	8.9437e-08	38.284	88.595	145.199	188.340	66.962	187.531	160.900	66.039	71.522	170.731	187.684	70.059	74.502	76.401	81.993	216.969	78.889	-8191	255	
2803.510	1	1	0	0	0.4061	0.31109	0.25449	0.089871	0.13344	0.056651	0.11541	0.27833	0.082629	0.15027	0.16361	0.15215	0.1008	0.048065	0.10928	0.055533	-3.4271	-4.1312	-3.3146	-4.1771	-3.9437	-3.4896	-4.2479	-3.6312	-3.7667	-3.975	-3.5812	-4.0979	-3.8708	-3.5083	-4.15	-3.6542	174.905	114.351	280.808	398.680	226.871	180.694	311.544	128.342	178.086	394.172	57.770	403.761	323.077	396.163	288.063	167.338	0.00095269	9.0221e-05	2.466e-05	938.93	1.7395e-06	1.3792e-06	1041.6	302.17	2.0027e-06	1.0442e-06	387.37	136.93	108.24	37.913	8.8378e-07	53.155	1.2495e-05	8.6228e-06	2.2515e-06	797.67	1.0598e-07	9.4209e-08	861.72	236.59	1.0389e-07	8.9088e-08	289.45	102.39	81.704	28.668	8.57e-08	38.413	86.789	141.160	119.754	66.836	217.569	179.973	66.247	71.506	201.709	183.931	69.791	74.459	76.406	81.866	177.785	78.779	-8191	255	
2803.631	1	1	0	0	0.2401	0.21678	0.13876	0.11268	0.15541	0.18248	0.16199	0.029364	0.15455	0.20308	0.21816	0.19317	0.10647	0.2865	0.072726	0.095389	-3.3125	-4.1083	-3.5563	-3.8958	-3.9458	-3.3021	-4.1771	-3.8438	-3.5896	-4.1646	-3.4104	-3.8563	-4.0437	-3.3792	-4.0542	-3.8167	281.325	179.441	234.509	76.685	130.235	392.696	243.264	304.970	146.729	392.882	368.035	380.275	283.421	365.914	178.009	286.053	0.00094133	0.00015351	3.9043e-05	937.3	7.9981e-07	1.0034e-06	1047.2	303.43	1.3987e-06	1.3772e-06	388.4	136.98	108.41	38.359	1.545e-06	53.409	1.2236e-05	8.0844e-06	2.2875e-06	796.19	1.0038e-07	8.7893e-08	862.59	237.11	1.0091e-07	8.6431e-08	290.04	102.5	82.219	28.995	9.5891e-08	38.564	84.731	129.392	130.327	66.931	188.867	183.608	65.988	71.482	199.011	190.466	69.879	74.550	76.181	81.569	172.418	79.017	-8191	255	
2803.727	1	1	0	0	0.16333	0.12956	0.041728	0.18379	0.12339	0.17469	0.12246	0.14764	0.1512	0.25143	0.055313	0.075129	0.24898	0.1475	0.063496	0.2356	-3.1792	-4.0292	-3.5167	-3.8187	-3.9771	-3.5271	-4.1979	-3.8312	-3.6917	-4.3438	-3.6375	-3.7625	-4.125	-3.6917	-3.8771	-3.8125	129.453	101.347	142.010	300.875	86.602	359.186	175.799	313.820	85.011	215.479	86.729	310.955	58.259	368.798	128.526	357.941	0.0010526	0.00010351	5.2556e-06	946.87	1.3689e-06	6.7982e-07	1046.8	306.34	1.3714e-06	8.1851e-07	388.99	136.25	109.02	38.442	1.6902e-06	53.402	1.2348e-05	8.2852e-06	2.4702e-06	804.33	9.986e-08	9.1049e-08	864.87	238.82	9.8895e-08	8.4952e-08	291.01	102.5	82.415	29.045	1.036e-07	38.531	84.544	112.320	220.791	67.049	214.172	220.464	65.755	71.436	176.926	200.074	69.935	74.465	76.417	82.113	175.855	78.739	-8191	255	
2803.823	1	1	0	0	0.092937	0.026718	0.10762	0.18193	0.11715	0.022228	0.47981	0.1209	0.10108	0.17538	0.1583	0.025247	0.066627	0.18132	0.1285	0.15191	-3.1896	-4.1687	-3.6021	-3.7521	-4.1229	-3.4729	-4.1896	-3.9437	-3.4167	-4.1229	-3.7729	-3.95	-4.2125	-3.5104	-3.9437	-3.9562	355.870	347.054	394.768	405.618	56.122	224.564	327.856	102.645	191.594	353.290	150.122	185.088	351.925	390.925	222.465	247.483	0.0009216	0.00011645	4.6533e-05	946.52	1.8698e-06	6.6901e-07	1051.2	306.07	1.662e-06	1.4416e-06	391.27	137.28	108.85	38.605	1.2771e-06	53.557	1.2177e-05	7.9371e-06	2.6626e-06	803.46	9.8633e-08	8.8893e-08	866.96	239.13	9.9396e-08	8.8459e-08	292.4	102.82	82.588	29.088	1.0908e-07	38.604	85.583	123.364	154.023	67.061	176.676	166.732	66.083	71.545	185.246	209.175	69.586	74.673	76.333	81.978	147.409	78.694	-8191	255	
2803.919	1	1	0	0	0.1968	0.10536	0.11839	0.12585	0.14382	0.082203	0.2922	0.12492	0.073232	0.060617	0.14882	0.27068	0.087766	0.21349	0.22422	0.053659	-3.3083	-4.2333	-3.7792	-3.6688	-4.0437	-3.4313	-3.8771	-4.0521	-3.4938	-4.0083	-3.8688	-3.5917	-4.2521	-3.6667	-3.8542	-4.1021	151.259	323.045	236.210	358.263	93.035	97.916	338.252	300.055	61.259	343.986	361.544	60.101	208.997	136.834	293.028	234.435	0.00096363	0.00013267	1.5965e-05	944.68	1.7582e-06	1.1059e-06	1045.5	304.29	1.8562e-06	9.2507e-07	391.7	137.7	109.05	38.717	1.354e-06	53.795	1.1921e-05	8.1992e-06	2.6804e-06	801.87	9.455e-08	9.1439e-08	864.91	238.18	9.5114e-08	9.269e-08	291.7	103.06	82.56	29.159	1.1096e-07	38.818	85.186	141.955	155.000	66.949	182.532	173.193	66.003	71.634	198.939	193.093	69.789	74.422	76.467	81.831	183.535	78.913	-8191	255	
2804.014	1	1	0	0	0.11095	0.13493	0.18328	0.11551	0.27535	0.1095	0.05079	0.21769	0.046928	0.20198	0.012672	0.11178	0.089206	0.024614	0.097153	0.23875	-3.1521	-4.0583	-3.9479	-3.6854	-4.2354	-3.5917	-3.9917	-4.1646	-3.45	-4.0542	-3.9688	-3.6437	-4.0917	-3.775	-3.8167	-4.2312	325.545	262.600	84.692	231.772	343.453	401.258	240.598	189.464	252.477	147.126	201.974	391.486	367.751	244.665	383.653	365.625	0.00088141	0.00015727	2.2281e-05	953.79	1.3628e-06	1.7094e-06	1054.4	310.25	1.1087e-06	1.5311e-06	395.69	138.66	111.2	39.532	4.7452e-07	54.325	1.1848e-05	9.6025e-06	2.9246e-06	810.28	1.0345e-07	1.1564e-07	870.96	243.04	1.1145e-07	1.1833e-07	295.33	103.99	84.35	30.01	1.3286e-07	39.324	85.826	124.816	141.038	66.819	212.500	169.822	66.223	71.768	197.462	225.442	69.879	74.538	76.604	81.842	176.149	78.948	-8191	255	
2804.110	1	1	0	0	0.12834	0.068345	0.21423	0.22336	0.33705	0.13174	0.11378	0.17442	0.13844	0.1519	0.12602	0.074489	0.12532	0.18023	0.23754	0.13689	-3.1292	-3.9042	-3.8958	-3.5958	-4.1687	-3.6875	-3.8354	-4.3042	-3.4104	-4.1021	-4.0896	-3.5896	-4.2438	-3.9333	-3.6646	-4.1188	145.022	354.724	347.366	286.238	168.231	273.939	284.860	323.904	124.939	317.899	113.490	383.059	366.927	205.750	91.151	250.218	0.00098942	0.00018413	2.5264e-05	966.03	9.3898e-07	9.6404e-07	1054.5	315.67	1.9796e-06	1.9764e-06	396.23	138.6	111.53	39.765	1.012e-06	53.897	1.3968e-05	1.2443e-05	3.3677e-06	821.83	1.2333e-07	1.4293e-07	874.54	246.72	1.2705e-07	1.3834e-07	296.06	104.18	84.588	30.056	1.2613e-07	39.062	83.917	147.755	145.628	66.781	236.554	206.928	66.132	71.554	166.740	181.109	69.680	74.335	76.611	81.660	204.710	78.856	-8191	255	
2804.206	1	1	0	0	0.078991	0.14885	0.17827	0.063767	0.18213	0.1063	0.14514	0.042584	0.2228	0.22147	0.053259	0.14362	0.15111	0.13937	0.25314	0.28548	-3.2146	-3.8229	-3.9437	-3.4688	-4.0958	-3.6729	-3.7	-4.2542	-3.6229	-3.9604	-3.9875	-3.5021	-4.225	-3.8937	-3.375	-4.1646	285.622	74.902	172.489	55.420	273.940	90.025	361.195	272.111	204.325	205.688	320.306	368.103	215.492	78.971	275.445	335.247	0.00096287	0.00012919	4.4118e-05	954.04	2.0087e-06	1.7028e-06	1048.6	309.55	2.0214e-06	1.0244e-06	391.43	138.17	110.53	39.063	1.1632e-06	53.414	1.3934e-05	1.1762e-05	2.9002e-06	810.1	1.1755e-07	1.2591e-07	866.42	242.05	1.2437e-07	1.2582e-07	292.83	103.19	83.585	29.557	1.1986e-07	38.728	84.818	137.617	145.224	66.868	192.509	168.118	65.939	71.402	173.678	225.044	69.754	74.600	76.355	81.600	178.536	78.993	-8191	255	
2804.326	1	1	0	0	0.17232	0.12728	0.1894	0.28511	0.2792	0.22479	0.062823	0.11629	0.060392	0.097259	0.31475	0.19552	0.28496	0.078658	0.047076	0.33163	-3.3625	-3.8667	-3.9437	-3.4833	-4.1229	-3.9854	-3.6	-4.2	-3.6354	-3.7771	-4.1604	-3.5687	-4.175	-4.0271	-3.5146	-4.2167	324.921	144.872	139.605	372.186	124.678	299.855	147.627	284.762	384.986	256.423	70.290	295.477	359.078	262.861	232.790	347.565	0.00097374	0.00011246	6.767e-05	953.49	2.1564e-06	1.2648e-06	1055.6	312.71	1.1911e-06	8.3542e-07	398.56	140.66	113.82	40.915	1.0079e-06	55.596	1.4417e-05	1.1467e-05	2.9475e-06	813.13	1.3267e-07	1.3033e-07	873.02	245.72	1.495e-07	1.4939e-07	298.4	105.55	86.604	31.019	1.6164e-07	40.34	89.045	142.147	137.437	66.834	203.620	211.839	66.024	71.491	169.696	179.092	69.823	74.690	76.508	82.039	172.268	78.866	-8191	255	
2804.423	1	1	0	0	0.17297	0.38032	0.14955	0.11936	0.21423	0.089838	0.18181	0.23271	0.13872	0.10212	0.14214	0.1095	0.17075	0.17576	0.23089	0.043284	-3.3417	-3.7646	-4.0333	-3.6208	-3.8771	-3.9729	-3.45	-4.2583	-3.7146	-3.6771	-4.2021	-3.4813	-3.9021	-3.9542	-3.5479	-4.1687	314.496	97.646	204.952	390.982	311.469	135.576	323.371	328.251	81.226	218.604	299.946	405.341	251.651	392.333	379.940	360.196	0.0010738	0.0001822	3.7905e-05	982.61	1.073e-06	2.0053e-06	1077.6	327.36	1.8647e-06	1.5911e-06	407.99	142.54	117.3	42.105	1.5401e-06	56.064	2.0492e-05	1.6685e-05	4.1378e-06	839.78	2.0392e-07	1.8576e-07	893.11	257.07	2.1634e-07	2.0229e-07	305.69	107.6	89.336	31.949	1.9313e-07	40.797	80.681	136.355	183.249	66.888	229.836	182.725	66.083	71.559	169.722	208.140	69.700	74.378	76.494	81.987	153.685	78.847	-8191	255	
2804.519	1	1	0	0	0.18169	0.070017	0.18353	0.1589	0.13936	0.19897	0.29341	0.31843	0.092586	0.11928	0.14476	0.19182	0.23851	0.060618	0.048095	0.049197	-3.525	-3.5687	-4.0042	-3.4396	-3.8208	-4.0542	-3.5604	-4.1521	-3.7313	-3.5917	-4.1521	-3.5938	-3.9604	-4.1292	-3.4875	-4.1667	93.152	126.956	197.342	71.279	74.479	173.325	309.739	346.359	301.444	137.753	130.813	325.115	59.296	249.303	74.921	229.193	0.00094789	0.00011707	4.1249e-05	982.75	6.2852e-07	9.0053e-07	1067.1	323.46	1.8185e-06	1.7617e-06	402.08	140.85	114.56	40.952	1.6829e-06	55.02	2.3141e-05	1.7928e-05	4.3709e-06	840.01	2.0261e-07	1.7564e-07	883.25	253.96	1.9205e-07	1.7154e-07	301.31	105.84	87.304	31.042	1.6173e-07	39.979	83.200	127.785	139.235	66.976	201.718	181.262	66.116	71.446	174.401	168.343	69.851	74.652	76.161	82.174	178.378	78.711	-8191	255	
2804.613	1	1	0	0	0.28032	0.060788	0.054628	0.080732	0.026553	0.13286	0.35439	0.17262	0.11604	0.19639	0.11672	0.085273	0.15852	0.16306	0.1891	0.23099	-3.4896	-3.3958	-4.1125	-3.6729	-3.7646	-4.1458	-3.6458	-4.05	-4.0333	-3.55	-4.1	-3.9083	-3.7396	-4.1667	-3.5917	-3.9458	392.269	245.238	338.143	339.561	352.623	408.748	359.699	94.848	373.793	133.081	321.771	300.309	97.903	65.138	281.004	343.536	0.00099326	5.6297e-05	4.7615e-05	972.72	1.5059e-06	1.1539e-06	1064.4	318.7	6.3621e-07	1.1002e-06	398.47	140.07	112.88	40.11	9.7878e-07	54.29	1.9134e-05	1.459e-05	3.6827e-06	828.08	1.6905e-07	1.4685e-07	880.1	249.8	1.6179e-07	1.5007e-07	298.32	105.13	85.89	30.413	1.4979e-07	39.583	82.541	138.702	172.502	66.854	195.418	210.872	65.953	71.457	165.481	211.740	69.892	74.350	76.217	81.833	201.690	78.705	-8191	255	
2804.709	1	1	0	0	0.060023	0.15908	0.17025	0.10622	0.14283	0.3014	0.14845	0.17381	0.054281	0.037933	0.12899	0.17509	0.23549	0.14118	0.11614	0.072018	-3.5646	-3.4333	-3.8875	-3.8625	-3.6167	-4.1562	-3.6625	-3.9	-3.9958	-3.4646	-4.1208	-3.7687	-3.5333	-4.3083	-3.3833	-3.8563	55.143	138.885	260.413	246.104	265.590	125.626	297.186	380.280	176.049	116.008	121.107	272.564	53.532	345.794	397.460	188.232	0.00098712	0.00012846	3.49e-05	969.55	1.3574e-06	1.2544e-06	1059.7	318.73	2.0726e-06	1.0686e-06	401.78	141.3	115.38	41.466	1.1697e-06	56.146	1.6969e-05	1.2987e-05	3.5821e-06	825.76	1.5477e-07	1.3692e-07	880.16	250.18	1.6211e-07	1.546e-07	301.72	106.65	87.854	31.419	2.0339e-07	40.777	85.152	148.186	165.959	67.094	207.483	199.751	66.050	71.423	197.031	176.315	69.965	74.626	76.484	82.060	129.249	78.944	-8191	255	
2804.805	1	1	0	0	0.15555	0.25599	0.13085	0.18586	0.088052	0.22014	0.28601	0.24354	0.047773	0.25824	0.14273	0.20395	0.24236	0.060304	0.078922	0.17082	-3.6271	-3.3958	-3.9104	-4.025	-3.4313	-4.1687	-3.6604	-3.7083	-4.1479	-3.5875	-4.05	-3.9542	-3.6125	-4.2438	-3.6729	-3.7125	386.233	260.596	259.573	78.811	335.636	316.371	378.013	73.650	245.137	269.542	58.640	385.707	387.104	412.986	194.882	412.647	0.0010447	1.2481e-05	3.5447e-05	996.86	5.8367e-07	1.5684e-06	1078.8	330.04	7.1357e-07	2.1139e-06	409.35	143.34	117.74	42.059	1.2036e-06	56.179	2.1821e-05	1.7679e-05	5.582e-06	849.48	2.2029e-07	2.0241e-07	897.82	260.57	2.2537e-07	2.1561e-07	308.6	108.19	89.982	32.022	2.6088e-07	40.981	88.395	108.952	180.090	66.788	224.383	162.152	66.011	71.570	205.508	169.821	69.978	74.487	76.242	82.497	180.065	79.024	-8191	255	
2804.926	1	1	0	0	0.20402	0.052717	0.047412	0.15086	0.24617	0.40558	0.14665	0.12225	0.1057	0.21957	0.17665	0.060477	0.21938	0.25443	0.13512	0.062665	-3.7188	-3.3792	-3.9604	-3.9271	-3.5458	-4.1333	-3.8979	-3.7979	-4.1854	-3.5167	-3.8875	-4.0146	-3.3104	-4.1604	-3.5542	-3.6167	140.160	336.333	273.581	61.664	221.299	409.555	352.134	369.703	77.014	321.761	353.029	63.867	86.977	269.123	186.152	170.155	0.00090983	0.00020574	5.2057e-05	1001.7	1.9338e-06	2.1703e-06	1079	334.54	9.9904e-07	1.428e-06	411.87	144.06	119.32	42.415	5.2999e-07	56.149	2.3998e-05	2.1454e-05	6.8706e-06	858.05	2.5007e-07	2.353e-07	900.03	264.21	2.4713e-07	2.5751e-07	310.64	108.79	91.089	32.355	2.897e-07	40.983	82.773	153.745	149.313	66.870	205.235	168.533	65.985	71.415	202.127	216.324	69.734	74.406	76.598	81.818	165.120	78.703	-8191	255	
2805.022	1	1	0	0	0.089693	0.14649	0.065338	0.13401	0.17537	0.13318	0.25771	0.16851	0.25098	0.021431	0.036453	0.11445	0.0799	0.14881	0.18613	0.20446	-3.7479	-3.3438	-3.8063	-4.0604	-3.6021	-3.875	-3.8021	-3.6104	-4.1479	-3.5646	-3.8563	-4.25	-3.4938	-4.1208	-3.8792	-3.6021	390.482	334.767	266.002	389.603	136.456	386.174	364.982	104.093	103.110	188.925	201.615	344.852	216.583	350.212	287.569	374.425	0.00094218	0.0002028	3.3731e-05	996.93	1.7777e-06	2.6794e-06	1076.4	332.24	7.7539e-07	1.2734e-06	408.43	142.63	117.7	41.633	1.2005e-06	55.392	2.4746e-05	2.3286e-05	6.9634e-06	855.2	2.3826e-07	2.4228e-07	897.72	261.69	2.2273e-07	2.4974e-07	307.99	107.77	89.699	31.683	2.3317e-07	40.292	82.930	139.175	117.030	66.856	246.818	166.470	66.149	71.672	174.614	192.606	69.632	74.275	76.406	82.088	105.037	78.866	-8191	255	
2805.118	1	1	0	0	0.23856	0.081059	0.03264	0.33466	0.12974	0.074346	0.13737	0.089664	0.16107	0.062418	0.24897	0.34343	0.25356	0.36307	0.17548	0.14143	-3.8271	-3.4938	-3.7958	-4.0083	-3.525	-4.0771	-4.2542	-3.5187	-4.1458	-3.7896	-3.9062	-4.2479	-3.5062	-3.9229	-4.0875	-3.7604	324.226	301.880	72.997	413.090	203.357	54.104	351.359	54.337	249.192	220.695	379.773	353.998	341.784	331.476	319.022	361.362	0.001038	0.00015031	6.3641e-05	979.34	1.9798e-06	1.0943e-06	1063.2	321.32	1.2991e-06	1.9705e-06	400.27	140.41	113.99	40.063	1.9521e-06	54.506	1.9914e-05	1.8899e-05	5.167e-06	835.21	1.7606e-07	1.911e-07	882.85	252.61	1.5847e-07	1.8765e-07	300.73	105.5	86.821	30.548	1.7164e-07	39.49	82.496	145.615	170.613	66.973	199.119	181.994	66.003	71.398	169.835	190.469	69.950	74.522	76.361	82.416	185.171	78.887	-8191	255	
2805.190	1	1	0	0	0.087456	0.1895	0.24381	0.036654	0.28897	0.11386	0.27263	0.11324	0.076535	0.076962	0.14681	0.055951	0.1188	0.057084	0.3123	0.16924	-3.8271	-3.8063	-3.6479	-4.2083	-3.7125	-3.7833	-4.1583	-3.5083	-4.225	-3.8542	-3.7042	-4.2688	-3.6271	-3.9354	-4.2958	-3.6021	142.948	364.276	289.766	377.743	251.363	160.248	217.595	135.602	100.240	298.422	378.965	324.570	296.807	390.229	233.257	295.552	0.0010335	0.00010642	2.4595e-05	969.36	1.3209e-06	1.9587e-06	1055.1	316.61	1.6821e-06	1.1385e-06	395.75	138.6	113.09	39.978	1.2946e-06	54.047	1.7178e-05	1.5916e-05	4.0358e-06	825.31	1.5093e-07	1.605e-07	874.64	247.77	1.497e-07	1.6276e-07	296.31	104.13	85.71	30.254	1.572e-07	39.256	85.806	133.387	140.803	66.928	209.413	189.367	65.991	71.456	187.941	204.071	69.816	74.411	76.210	81.965	187.655	78.779	-8191	255	
2805.311	1	1	0	0	0.15252	0.094916	0.16753	0.074016	0.073031	0.16505	0.17966	0.076294	0.36082	0.017096	0.091566	0.23369	0.10943	0.26794	0.069524	0.30763	-3.7042	-3.8917	-3.7104	-4.4375	-3.6417	-3.9208	-4.0729	-3.6396	-4.1771	-4.0646	-3.6292	-4.3042	-3.8667	-3.8104	-4.0417	-3.6167	98.449	241.715	267.368	389.487	122.745	192.586	267.986	71.970	271.079	389.205	389.452	285.163	255.822	178.639	265.809	376.149	0.00090814	0.00017059	4.0839e-05	981.01	2.1693e-06	9.2178e-07	1074.5	328.85	2.2491e-06	7.7329e-07	410.39	143.29	119.23	42.316	1.2097e-06	56.043	1.8289e-05	1.6778e-05	4.4293e-06	837.37	2.0153e-07	2.1271e-07	889.7	258.58	2.3217e-07	2.4765e-07	308.34	107.9	91.047	32.297	2.5976e-07	41.029	90.952	134.470	159.950	66.893	196.824	163.392	66.033	71.235	181.855	153.083	69.881	74.431	76.347	81.792	139.011	78.853	-8191	255	
2805.407	1	1	0	0	0.14466	0.036764	0.084975	0.088102	0.059326	0.23702	0.080159	0.032622	0.18961	0.10925	0.18624	0.19003	0.11398	0.31717	0.26595	0.20512	-3.6833	-3.9813	-3.5812	-4.1771	-3.7833	-3.7979	-4.3896	-3.7583	-3.8542	-4.2083	-3.5812	-4.2646	-3.8521	-3.6125	-4.2875	-3.7438	211.987	202.100	226.555	167.643	257.809	177.191	394.154	54.730	370.118	361.347	342.281	276.508	121.591	382.192	296.777	319.610	0.00096277	0.00018865	2.0124e-05	1008.1	2.9853e-06	2.3357e-06	1077.6	335.58	1.591e-06	7.4525e-07	410.23	143.78	119.01	42.359	2.7454e-06	56.374	3.0856e-05	2.6695e-05	7.0451e-06	863.17	3.1766e-07	2.949e-07	900.44	264.34	3.0633e-07	2.7848e-07	309.71	108.51	91.222	32.362	2.5298e-07	41.17	85.196	111.967	195.390	66.950	190.423	170.822	66.187	71.472	179.856	168.904	69.714	74.491	76.396	82.198	179.661	78.831	-8191	255	
2805.503	1	1	0	0	0.068538	0.26979	0.10776	0.10236	0.044442	0.20438	0.093042	0.2856	0.24706	0.19151	0.061405	0.032913	0.23538	0.23843	0.2184	0.24297	-3.7042	-4.05	-3.3875	-4.2812	-3.8688	-3.5854	-4.3187	-3.7979	-3.8354	-4.1104	-3.7	-4.1458	-4.1208	-3.6625	-4.2521	-3.8125	221.667	178.386	142.967	323.549	228.373	161.425	142.410	363.424	213.777	332.260	308.563	62.140	390.478	360.420	276.480	272.732	0.0010788	0.00012277	4.5557e-05	1000	1.0169e-06	1.3322e-06	1083.2	335.57	1.9918e-06	1.3856e-06	412.49	144.47	119.76	42.531	1.046e-06	56.189	3.0864e-05	2.4617e-05	6.5369e-06	858.99	3.0506e-07	2.7581e-07	900.58	265.03	3.1022e-07	2.7625e-07	311.56	109.39	91.671	32.499	2.5694e-07	41.227	88.356	149.409	113.652	66.870	187.415	157.248	66.179	71.376	203.199	209.231	69.696	74.502	76.275	82.038	173.598	78.670	-8191	255	
2805.599	1	1	0	0	0.11278	0.072486	0.066067	0.11968	0.090991	0.15551	0.22595	0.069459	0.19421	0.19804	0.19662	0.17364	0.053726	0.28012	0.075755	0.052441	-3.6	-3.9958	-3.5083	-4.1208	-3.9188	-3.6229	-4.2083	-3.6937	-3.9542	-4.1417	-3.6479	-3.9667	-4.1188	-3.6396	-4.0813	-3.8958	198.182	293.912	410.272	79.705	70.305	100.107	321.239	212.880	127.227	140.084	91.304	410.289	257.816	62.534	165.835	364.046	0.00096854	0.00013595	4.7502e-05	1003.9	1.1064e-06	8.4037e-07	1081.9	330.84	1.3524e-06	7.1659e-07	407.89	141.9	116.86	41.264	1.5035e-06	55.201	3.036e-05	2.3566e-05	6.316e-06	859.95	2.797e-07	2.4818e-07	899.02	261.8	2.6313e-07	2.2773e-07	306.55	107.25	89.337	31.435	2.1072e-07	40.234	87.025	109.305	195.385	67.102	115.184	180.010	65.959	71.353	187.261	199.702	69.694	74.250	76.070	81.973	213.246	78.956	-8191	255	
2805.718	1	1	0	0	0.12795	0.12175	0.24528	0.59365	0.2131	0.035142	0.14782	0.14071	0.38846	0.04561	0.04561	0.10354	0.1789	0.17642	0.084315	0.0097649	-3.4479	-4.3208	-3.4813	-4.1271	-4.1958	-3.55	-4.1458	-3.9104	-3.7646	-4.1312	-3.6479	-4.0771	-4.2688	-3.4625	-3.9896	-3.8854	352.612	208.498	383.983	384.858	146.640	337.031	192.760	65.074	225.459	220.373	279.519	337.742	254.577	318.594	356.546	266.498	0.0010472	0.00010579	4.0502e-05	991.99	1.2947e-06	9.0674e-07	1069.2	326.54	1.1186e-06	7.5801e-07	403.02	139.73	114.81	40.738	1.3778e-06	54.506	2.4089e-05	1.8048e-05	5.0389e-06	846.81	2.0392e-07	1.8872e-07	888.97	256.28	2.017e-07	1.7614e-07	302.57	105.62	87.398	30.83	1.8567e-07	39.595	86.102	148.000	120.023	66.891	195.135	169.661	65.894	71.206	195.869	198.538	69.755	74.311	76.512	81.943	183.203	79.132	-8191	255	
2805.814	1	1	0	0	0.15346	0.034263	0.088816	0.083331	0.22798	0.072133	0.037514	0.16041	0.10175	0.23417	0.24509	0.16676	0.28185	0.13322	0.098847	0.10227	-3.1604	-4.1333	-3.5146	-4.1125	-4.0375	-3.6063	-4.225	-4.1625	-3.5938	-4.2146	-3.7458	-3.8896	-4.1	-3.5458	-4.0521	-4.0521	356.633	372.365	373.855	276.389	295.020	151.832	88.423	55.151	54.826	344.726	58.438	376.091	345.757	97.922	213.820	324.628	0.0009903	5.0355e-05	5.8821e-05	988.21	2.2389e-06	1.6127e-06	1069.5	323.06	2.1351e-06	1.573e-06	401.08	139.71	114.1	40.273	2.0752e-06	54.354	2.0363e-05	1.5268e-05	4.8346e-06	841.61	1.805e-07	1.6429e-07	886.94	254.35	1.7991e-07	1.6127e-07	301.3	105.19	86.844	30.551	1.8653e-07	39.407	81.799	149.303	122.320	66.957	185.048	212.084	65.929	71.399	173.347	172.348	69.644	74.262	76.357	81.853	159.139	78.835	-8191	255	
2805.888	1	1	0	0	0.19157	0.029269	0.14011	0.43612	0.11423	0.08729	0.31848	0.076079	0.17053	0.11369	0.10286	0.18205	0.15762	0.15006	0.10523	0.15143	-3.2958	-4.2646	-3.6688	-3.9375	-4.1937	-3.5083	-4.2	-4.1562	-3.5187	-4.2854	-3.9833	-3.6583	-4.1937	-3.6813	-3.9229	-4.1062	243.051	295.020	239.574	307.208	332.034	132.583	308.975	376.531	240.525	294.455	331.357	409.152	391.674	208.372	391.407	308.079	0.00099208	0.00022802	1.7817e-05	979.83	1.0631e-06	1.0573e-06	1067.1	323.13	1.839e-06	1.4543e-06	403.01	140.58	115.56	40.739	1.854e-06	54.636	1.8694e-05	1.4364e-05	4.7559e-06	836.66	1.6675e-07	1.6429e-07	885.78	253	1.7225e-07	1.6177e-07	302.15	105.57	87.404	30.897	2.1366e-07	39.911	83.782	138.734	82.502	67.063	188.129	182.138	66.136	71.450	191.490	191.853	69.920	74.505	76.309	81.821	177.025	78.673	-8191	255	
2806.006	1	1	0	0	0.11048	0.15914	0.18091	0.19604	0.2505	0.058397	0.076734	0.016359	0.2048	0.15931	0.093737	0.1963	0.059209	0.062836	0.22367	0.22747	-3.0958	-4.05	-3.8896	-3.7812	-4.4271	-3.8771	-3.9771	-4.2604	-3.5375	-4.2646	-3.8604	-3.6125	-4.1833	-3.7792	-3.9146	-4.2312	131.060	274.074	209.830	351.492	411.766	357.454	230.607	232.552	346.634	387.932	69.172	193.861	176.719	212.864	394.746	81.675	0.0010468	0.00012075	4.2575e-05	996.39	1.539e-06	8.6322e-07	1078.6	330.2	1.4587e-06	1.2208e-06	406.17	141.27	117.04	41.533	1.9715e-06	55.307	2.068e-05	1.7893e-05	5.825e-06	849.17	1.9983e-07	2.1557e-07	895.96	259.52	2.1172e-07	2.1647e-07	305.38	106.7	89.109	31.552	2.4038e-07	40.32	84.268	109.543	148.580	67.043	221.562	180.413	65.888	71.266	211.731	198.294	69.787	74.421	76.294	81.847	202.557	78.741	-8191	255	
2806.103	1	1	0	0	0.052057	0.19808	0.17752	0.45092	0.1454	0.17053	0.054322	0.19545	0.13372	0.074638	0.17457	0.059244	0.052415	0.18696	0.19859	0.3345	-3.1979	-4.0979	-3.9938	-3.8833	-4.2521	-3.7667	-3.975	-4.1771	-3.6104	-4.1687	-3.8271	-3.6708	-4.2542	-3.7292	-3.7708	-4.3208	373.847	287.850	335.334	366.908	211.561	162.675	182.410	59.045	102.609	277.940	317.503	294.835	339.192	357.583	246.094	392.827	0.0010625	7.6153e-05	3.9305e-05	999.14	1.455e-06	8.1422e-07	1075.2	330.63	2.3455e-06	1.9989e-06	406.52	141.57	117.17	41.668	1.1628e-06	55.593	2.1881e-05	2.1047e-05	6.1164e-06	852.5	2.065e-07	2.3837e-07	895.04	259.94	2.0958e-07	2.3393e-07	305.63	106.68	89.391	31.739	2.4543e-07	40.485	86.106	135.264	135.880	66.967	181.531	216.184	65.999	71.194	171.948	178.154	69.591	74.752	76.095	81.823	159.326	78.951	-8191	255	
2806.199	1	1	0	0	0.23832	0.12366	0.17875	0.17031	0.1799	0.1571	0.29925	0.073652	0.089841	0.099051	0.27195	0.059961	0.11819	0.20922	0.21436	0.03345	-3.3104	-3.9292	-4.1396	-3.7	-4.2188	-3.9313	-3.9167	-4.2937	-3.5417	-3.9958	-4.2333	-3.4688	-4.1813	-4.0312	-3.625	-4.2417	87.493	311.366	102.136	412.867	211.923	55.464	322.454	201.425	303.660	270.793	349.520	361.215	65.790	87.346	142.530	327.711	0.0010439	0.00017925	5.2355e-05	1002.5	2.4491e-06	3.0508e-06	1085.3	335.4	1.8263e-06	8.7148e-07	414.09	143.5	120.34	42.739	1.4045e-06	56.627	2.3993e-05	2.4204e-05	6.4122e-06	858.5	2.4544e-07	2.8574e-07	905.04	264.98	2.7237e-07	3.0723e-07	311.85	108.86	91.932	32.691	3.0252e-07	41.411	83.600	120.800	115.887	66.965	200.571	196.911	66.195	71.316	173.607	182.687	69.751	74.300	76.100	82.061	139.578	78.949	-8191	255	
2806.319	1	1	0	0	0.25739	0.11893	0.033509	0.16116	0.18213	0.043762	0.053449	0.25073	0.15431	0.10665	0.16365	0.10879	0.035096	0.11963	0.084092	0.18284	-3.1958	-3.9167	-3.8875	-3.6083	-3.875	-3.7562	-3.6896	-4.4104	-3.6708	-3.8812	-4.1813	-3.6021	-4.2521	-3.9	-3.4896	-4.3438	148.433	312.144	200.198	387.912	94.833	402.917	243.828	406.365	345.395	212.785	366.180	68.838	339.387	83.842	386.440	362.055	0.0010116	8.8208e-05	3.1778e-05	1017.2	3.8382e-06	1.1358e-06	1096	342.66	2.6884e-06	1.6671e-06	418.06	145.65	121.62	43.167	1.9076e-06	57.012	3.0648e-05	3.0445e-05	7.6535e-06	870.95	3.1615e-07	3.4135e-07	914.22	270.15	3.3836e-07	3.5419e-07	316.34	110.44	93.536	33.151	3.2371e-07	41.845	81.746	123.508	86.637	66.906	203.719	232.787	66.163	71.354	199.560	200.210	69.754	74.389	75.968	81.976	173.937	78.689	-8191	255	
2806.416	1	1	0	0	0.23621	0.05299	0.095098	0.19768	0.15662	0.092906	0.39908	0.11003	0.047933	0.13776	0.13454	0.071135	0.13305	0.26309	0.20489	0.23618	-3.25	-3.8021	-4.0583	-3.5083	-4.0813	-3.9771	-3.5563	-4.3229	-3.6292	-3.7625	-4.1708	-3.7458	-4.2292	-4.1458	-3.4396	-4.2937	103.569	175.337	240.837	297.686	346.521	324.786	345.303	412.293	129.615	302.383	107.308	250.235	60.462	83.537	400.550	325.207	0.0009691	1.7235e-05	2.6448e-06	1014.2	2.6144e-06	1.3828e-06	1087	335.59	1.2563e-06	1.3998e-06	408.42	141.52	117.83	41.658	1.3488e-06	55.567	3.3992e-05	2.989e-05	7.1529e-06	865.88	2.9959e-07	2.7513e-07	904.66	263.85	2.7104e-07	2.5659e-07	307.22	107.08	90.004	31.655	2.2887e-07	40.362	84.657	189.545	79.291	66.881	215.870	168.309	66.074	71.393	190.231	177.809	69.815	74.327	76.198	81.801	177.704	78.955	-8191	255	
2806.487	1	1	0	0	0.12802	0.19581	0.18027	0.17984	0.20882	0.1653	0.25187	0.15603	0.18014	0.23901	0.073244	0.16644	0.21002	0.20618	0.12127	0.083367	-3.4917	-3.4875	-4.0146	-3.6146	-3.85	-4.1896	-3.6875	-4.1583	-4.0271	-3.5083	-4.1104	-3.7771	-3.9917	-4.1062	-3.5438	-4.3146	86.574	158.047	114.859	394.472	282.788	252.770	262.228	410.397	90.752	286.526	230.930	56.597	95.469	56.979	215.434	339.385	0.00099601	0.00017048	3.6521e-05	996.91	1.885e-06	1.6034e-06	1074	327.67	2.0595e-06	7.1302e-07	402.32	140.28	116.24	40.821	8.0804e-07	54.589	2.6631e-05	2.1021e-05	5.3182e-06	851.48	2.3914e-07	2.0878e-07	893.7	258.04	2.2823e-07	2.0324e-07	302.26	105.58	88.377	30.941	1.9012e-07	39.738	81.580	192.173	152.061	67.057	217.931	213.123	66.297	71.263	160.017	217.844	69.811	74.209	76.122	81.737	172.697	79.003	-8191	255	
2806.608	1	1	0	0	0.041591	0.13731	0.10209	0.29317	0.13562	0.27518	0.18157	0.23715	0.10774	0.20108	0.25396	0.042293	0.2191	0.3036	0.18217	0.2034	-3.6354	-3.5542	-4.1542	-3.8354	-3.6833	-4.1312	-3.7313	-4.1042	-4.0396	-3.6958	-4.4333	-3.9146	-3.7979	-4.2583	-3.6312	-4.0208	77.316	97.478	192.676	340.783	386.581	410.138	267.409	157.717	216.950	342.833	106.505	54.146	382.451	302.572	378.837	394.177	0.00093994	0.0001495	5.4279e-05	995.36	1.2031e-06	1.7913e-06	1077.5	329.08	1.9037e-06	1.4024e-06	406.01	140.54	116.58	40.661	1.784e-06	55.28	2.3192e-05	1.8397e-05	4.6724e-06	849.91	2.1776e-07	1.8714e-07	894.07	257.74	2.0897e-07	1.8973e-07	303.51	105.83	88.428	30.967	1.8939e-07	40.187	85.657	102.913	161.590	67.046	205.099	179.262	66.159	71.360	194.467	215.235	69.584	74.631	76.090	81.740	147.155	79.009	-8191	255	
2806.702	1	1	0	0	0.12275	0.10294	0.2554	0.10709	0.054575	0.1707	0.042404	0.1915	0.0856	0.10093	0.11431	0.16417	0.10581	0.060677	0.23972	0.28276	-3.8438	-3.4188	-4.2021	-3.8333	-3.8083	-4.2667	-3.6937	-3.9875	-3.9479	-3.4375	-4.3229	-4.0333	-3.6958	-4.2333	-3.6	-3.9854	257.656	111.250	328.499	303.405	66.161	365.488	411.880	327.390	104.448	243.181	130.389	332.315	130.763	259.059	113.812	340.155	0.00094701	0.00010689	4.4522e-05	1006.1	1.5626e-06	6.1328e-07	1093.8	340.31	1.6721e-06	9.9384e-07	417.61	145.61	122.53	43.182	2.6869e-06	57.17	2.3037e-05	1.9431e-05	5.2068e-06	860.79	2.6233e-07	2.4151e-07	909.98	268.49	2.9514e-07	2.8213e-07	314.99	110.36	93.506	32.923	3.0802e-07	41.938	91.556	106.222	169.223	66.891	139.656	220.667	65.901	71.228	169.415	183.246	69.972	74.316	76.002	81.773	183.415	78.834	-8191	255	
2806.798	1	1	0	0	0.16474	0.25289	0.087643	0.14916	0.3776	0.1819	0.17727	0.12491	0.15106	0.26922	0.29582	0.3758	0.18857	0.20474	0.20297	0.061527	-3.7062	-3.5396	-4.0792	-3.9479	-3.5563	-4.2625	-3.8083	-4.0042	-4.0938	-3.5958	-4.1104	-3.9521	-3.8208	-4.1792	-3.6958	-3.9062	113.340	216.440	364.783	400.159	403.605	253.721	214.666	355.840	104.062	252.028	299.992	407.446	407.114	388.058	157.995	108.699	0.00094641	0.00013254	7.9298e-05	1022.4	2.2757e-06	2.2436e-06	1098.4	342.95	1.9418e-06	1.9164e-06	416.5	145.35	122.69	43.111	2.0921e-06	57.266	3.1767e-05	2.7446e-05	7.9211e-06	878.67	3.2085e-07	2.8509e-07	916.02	271.79	3.0659e-07	2.9871e-07	315.86	110.51	94.035	33.062	3.4695e-07	42.034	84.024	81.716	152.321	66.954	209.221	202.187	65.948	71.236	175.981	201.651	69.769	74.387	76.307	82.019	156.490	78.729	-8191	255	
2806.895	1	1	0	0	0.16911	0.15546	0.10542	0.28779	0.065604	0.11957	0.056373	0.1229	0.11839	0.13171	0.20714	0.16277	0.30504	0.21766	0.16716	0.13451	-3.7458	-3.5563	-4.1417	-3.8979	-3.6354	-4.25	-3.7958	-3.825	-4.1292	-3.5	-4.125	-4.0917	-3.6625	-4.3	-3.7479	-3.7188	360.161	326.783	396.792	407.691	246.793	138.531	58.130	229.367	330.842	352.446	361.316	369.248	275.304	344.052	96.287	218.348	0.0010423	0.00018795	5.5217e-05	1024.9	1.035e-06	6.4742e-07	1097.8	346.77	2.0616e-06	7.2827e-07	419.24	145.52	121.48	42.805	1.7137e-06	56.612	3.2554e-05	2.8381e-05	8.9975e-06	882.82	3.3321e-07	3.0235e-07	919.75	274.69	3.198e-07	3.1685e-07	317.3	110.37	93.476	32.787	3.3498e-07	41.399	85.791	122.951	198.140	66.884	208.709	232.296	66.186	71.255	201.506	227.519	69.794	74.161	76.202	82.036	187.071	78.926	-8191	255	
2807.015	1	1	0	0	0.087907	0.079565	0.19165	0.078038	0.17879	0.25651	0.22161	0.12982	0.099922	0.25989	0.21076	0.17277	0.095735	0.25452	0.26695	0.23768	-3.8208	-3.3917	-3.9729	-4.1375	-3.4667	-4.2167	-3.9292	-3.8	-4.2312	-3.6354	-4.0479	-4.1542	-3.4771	-4.1562	-3.8958	-3.5667	311.343	185.464	310.593	138.517	286.192	371.664	391.645	368.786	311.682	364.734	330.988	226.868	177.780	342.109	201.536	68.668	0.001069	0.00010422	2.1309e-05	1013.5	2.1264e-06	1.8621e-06	1085.2	335.35	1.5745e-06	9.8282e-07	409.89	142.25	118.37	41.489	1.8868e-06	55.494	2.7522e-05	2.4491e-05	7.3968e-06	866.53	2.4071e-07	2.2674e-07	904.6	263.67	2.2067e-07	2.3452e-07	308.81	107.19	90.08	31.567	2.4298e-07	40.385	86.430	142.215	118.248	66.845	232.962	198.330	65.836	71.219	181.323	175.034	69.796	74.393	76.078	81.617	146.540	78.828	-8191	255	
2807.111	1	1	0	0	0.046798	0.26695	0.13689	0.12258	0.36129	0.17904	0.016636	0.12837	0.12279	0.23751	0.19371	0.11984	0.20257	0.069456	0.16733	0.12091	-3.8458	-3.5812	-3.8354	-4.2271	-3.3937	-4.2667	-3.9521	-3.7188	-4.2542	-3.6958	-3.8333	-4.1813	-3.6271	-4.2917	-3.9104	-3.6625	377.747	335.265	175.673	337.551	294.517	86.784	295.231	191.085	198.528	170.859	387.903	307.509	122.830	342.784	242.283	98.526	0.0010514	0.00012688	4.895e-05	999.22	1.3231e-06	2.2873e-06	1080.6	327.16	1.4124e-06	5.4018e-07	406.13	140.8	116.25	40.912	1.0724e-06	55.059	2.1097e-05	2.0065e-05	5.6977e-06	853.06	1.8938e-07	2.0164e-07	898.52	257.6	1.7429e-07	1.9968e-07	305.13	106.07	88.454	31.055	1.9745e-07	40.019	81.882	148.418	161.582	66.900	156.920	172.078	66.103	71.242	156.906	217.699	69.774	74.266	76.277	81.862	214.273	78.995	-8191	255	
2807.183	1	1	0	0	0.32361	0.10927	0.075178	0.18008	0.063342	0.12057	0.34731	0.24962	0.1237	0.11148	0.19476	0.32618	0.10049	0.38243	0.17413	0.12252	-3.5875	-3.6854	-3.7625	-4.2979	-3.65	-3.9479	-4.1813	-3.5104	-4.2208	-4.0312	-3.7125	-4.3521	-3.6125	-4.0687	-4.1438	-3.4417	288.235	227.323	270.665	246.598	381.779	155.205	90.575	359.605	387.816	79.090	335.806	55.719	187.781	328.706	138.878	289.907	0.0010021	0.000193	3.3216e-05	994.52	1.3568e-06	1.0466e-06	1080.5	326.87	2.566e-06	1.1575e-06	402.67	140.2	115.29	40.581	1.0031e-06	54.618	1.8553e-05	1.8029e-05	4.9241e-06	848.78	1.7551e-07	1.943e-07	895.12	256.25	1.6639e-07	1.9098e-07	302.45	105.33	87.683	30.825	1.7627e-07	39.703	84.941	87.382	127.970	66.929	193.696	165.251	65.910	71.238	183.359	191.451	69.493	74.298	76.193	81.644	169.338	78.941	-8191	255	
2807.279	1	1	0	0	0.30659	0.15707	0.021696	0.063576	0.15873	0.094579	0.21044	0.25682	0.3231	0.11612	0.038375	0.14383	0.14561	0.22614	0.24445	0.044341	-3.5979	-3.8979	-3.5833	-4.4187	-3.5563	-3.8104	-4.3458	-3.6292	-4.1542	-3.8438	-3.8229	-4.2438	-3.8312	-3.7229	-4.2125	-3.5208	202.620	396.425	295.722	105.600	343.026	408.205	360.653	224.096	402.316	274.347	127.074	402.224	393.535	233.418	102.468	317.700	0.0011142	0.00017217	3.1911e-05	992.61	2.6179e-06	1.2456e-06	1076.5	326.65	1.6747e-06	7.2181e-07	403.47	140.36	116.04	40.685	1.9224e-06	54.852	1.8845e-05	1.7443e-05	4.5215e-06	845.83	1.8023e-07	1.9247e-07	892.73	256.24	1.8492e-07	1.9532e-07	302.9	105.53	88.307	31.016	1.808e-07	39.918	85.882	130.857	125.250	66.959	206.852	222.422	66.230	71.116	187.903	211.595	69.967	74.486	76.017	82.018	190.616	78.866	-8191	255	
2807.400	1	1	0	0	0.068861	0.15007	0.22316	0.070748	0.22605	0.066632	0.18919	0.14241	0.3253	0.21507	0.10249	0.20724	0.22014	0.20793	0.27049	0.18378	-3.8	-3.8458	-3.5854	-4.2229	-3.7354	-3.8729	-4.2917	-3.6583	-3.9083	-4.0667	-3.4917	-4.3812	-3.8792	-3.9208	-4.1521	-3.8354	109.143	181.340	241.796	168.735	84.657	106.037	406.701	267.260	236.779	270.484	358.734	308.365	361.788	381.022	342.590	362.667	0.0010739	3.8089e-05	4.2196e-05	1002.9	3.1028e-06	6.614e-07	1081.4	331.78	2.852e-06	4.648e-07	410.14	144.06	120.15	42.594	9.1767e-07	56.819	2.124e-05	1.9177e-05	4.966e-06	853.37	2.191e-07	2.1989e-07	898.57	261.6	2.3968e-07	2.3496e-07	309.09	108.24	91.897	32.525	2.5269e-07	41.527	86.211	104.640	121.648	66.985	211.514	133.455	66.021	71.343	189.118	236.478	69.550	74.395	76.002	81.914	171.306	78.875	-8191	255	
2807.496	1	1	0	0	0.20392	0.12983	0.19376	0.29443	0.24315	0.22026	0.23893	0.08731	0.32132	0.03692	0.12329	0.36098	0.18726	0.15432	0.059569	0.097149	-3.4646	-4.1375	-3.525	-4.2625	-3.6937	-3.6917	-4.3375	-3.8125	-4.2396	-4.1083	-3.6375	-4.3167	-3.9729	-3.9333	-4.1208	-3.8354	78.587	132.300	217.695	90.342	151.741	75.719	343.721	263.780	231.482	126.433	60.010	295.813	95.001	58.333	207.670	74.588	0.0010237	0.00018698	3.1606e-05	1025.8	1.4227e-06	7.1708e-07	1097.7	348.22	7.6927e-07	8.6978e-07	422.38	147.29	124.73	44.077	1.8492e-06	58.428	3.0866e-05	2.6689e-05	7.3352e-06	879.96	3.5526e-07	3.3501e-07	919.68	275.09	3.743e-07	3.4292e-07	320.08	111.98	95.948	33.875	3.3085e-07	42.847	84.142	97.342	179.101	66.798	175.516	110.209	65.935	71.365	180.748	237.113	69.748	74.282	76.121	81.882	169.883	78.868	-8191	255	
2807.590	1	1	0	0	0.13138	0.11459	0.17669	0.077883	0.12383	0.28078	0.088726	0.19248	0.14231	0.15979	0.13899	0.13689	0.10406	0.1129	0.082716	0.086634	-3.6063	-4.1062	-3.5312	-4.0312	-3.8479	-3.5021	-4.2771	-3.575	-3.8812	-4.1292	-3.8104	-4.0229	-3.8625	-3.5583	-4.15	-3.8604	65.678	218.526	330.490	188.727	336.779	330.477	350.032	278.076	316.389	93.883	333.783	371.676	370.101	270.169	294.103	177.799	0.0010464	0.00013019	2.7209e-05	1033.8	6.4944e-07	1.2681e-06	1108.9	352.24	1.9453e-06	1.0739e-06	425.7	148.95	126.72	44.722	1.5159e-06	58.862	3.9682e-05	3.2647e-05	8.6636e-06	891.26	4.0281e-07	3.7208e-07	926.8	279.42	4.2498e-07	3.8274e-07	323.3	113.55	97.873	34.446	3.6919e-07	43.287	85.033	146.778	134.689	67.010	201.798	198.191	65.908	71.356	229.758	170.800	69.750	74.260	76.217	82.063	149.553	78.733	-8191	255	
2807.688	1	1	0	0	0.10037	0.11148	0.028587	0.29057	0.22823	0.059794	0.13187	0.17672	0.22607	0.19937	0.04269	0.042462	0.16231	0.20023	0.10908	0.19858	-3.3063	-4.2021	-3.5396	-4.1792	-3.8646	-3.6437	-4.2333	-3.8292	-3.8458	-4.2667	-3.7854	-4.0792	-4.075	-3.6292	-4.1208	-4.0458	156.088	151.462	379.571	406.721	196.704	254.406	353.620	102.849	204.469	230.829	92.011	325.880	324.709	390.522	182.769	373.995	0.0011161	0.00016628	5.4764e-05	1034.8	7.1329e-07	4.2937e-07	1105.7	344.95	1.7633e-06	2.2739e-06	415.6	144.78	121.7	42.752	1.254e-06	56.529	4.1834e-05	3.2789e-05	8.5822e-06	889.14	3.5209e-07	3.1386e-07	919.28	273.01	3.1091e-07	2.7276e-07	313.87	109.65	92.918	32.674	2.7107e-07	41.58	81.140	159.837	169.711	66.870	208.271	191.525	65.759	71.461	189.820	203.826	69.753	74.098	76.016	81.997	152.700	78.959	-8191	255	
2807.783	1	1	0	0	0.15765	0.095569	0.18338	0.28673	0.16814	0.12427	0.13423	0.12207	0.19996	0.11743	0.28828	0.066872	0.11014	0.077946	0.16574	0.013007	-3.2958	-4.3021	-3.6937	-3.9	-4.1354	-3.6792	-4.1562	-3.7271	-3.4833	-4.1042	-3.6833	-3.775	-4.1083	-3.5854	-4.0875	-4.0229	344.577	231.852	290.751	365.294	65.540	412.257	385.468	347.311	386.903	279.148	85.950	331.041	187.330	220.044	331.462	237.931	0.0010623	0.00011681	7.0275e-05	1017.1	1.7228e-06	1.729e-06	1096.6	338.52	2.3785e-06	2.2407e-06	413.25	142.95	119.45	42.079	2.3158e-06	56.265	2.9717e-05	2.3569e-05	6.8277e-06	872.13	2.6749e-07	2.4314e-07	911.83	266.88	2.545e-07	2.2494e-07	310.92	108.3	91.107	32.022	2.4916e-07	41.03	84.003	84.395	150.321	66.931	183.421	140.244	66.020	71.348	198.071	193.723	69.474	74.221	75.945	81.808	169.291	78.737	-8191	255	
2807.881	1	1	0	0	0.13146	0.084579	0.073376	0.26257	0.092913	0.23755	0.028391	0.17369	0.10207	0.094564	0.14665	0.28188	0.1626	0.14314	0.17915	0.15887	-3.2229	-4.2583	-3.6271	-3.9979	-4.0083	-3.6979	-4.0896	-4.1125	-3.6333	-4.1667	-3.8708	-3.6937	-4.3042	-3.5521	-3.9917	-4.1167	396.067	217.879	330.756	346.460	183.964	376.776	98.566	334.421	372.237	62.281	182.517	373.477	357.175	301.855	325.482	303.733	0.0008832	0.00021819	6.0893e-05	1010.5	1.1237e-06	6.2104e-07	1095	335.62	1.2166e-06	1.2045e-06	413.52	143.4	119.2	42.118	2.2143e-06	56.432	2.4956e-05	1.986e-05	6.3631e-06	865.65	2.3188e-07	2.1539e-07	910.45	264.46	2.2762e-07	2.0664e-07	311.01	108.27	90.739	31.934	2.6076e-07	41.058	89.389	141.076	107.029	66.989	227.317	165.762	66.483	71.271	184.218	147.260	69.661	74.254	76.050	81.826	161.182	78.723	-8191	255	
2807.999	1	1	0	0	0.22533	0.014028	0.19337	0.09814	0.18619	0.18487	0.19565	0.17163	0.061388	0.21144	0.040243	0.022982	0.22529	0.071141	0.21371	0.083198	-3.1333	-4.1583	-3.8333	-3.7417	-4.1958	-3.6063	-4.1125	-4.2188	-3.5771	-3.9667	-3.8479	-3.6833	-4.1125	-3.6813	-3.8937	-4.2375	143.068	279.276	179.358	98.018	91.108	315.033	306.412	298.840	173.218	206.946	62.459	375.021	396.326	108.964	322.420	338.365	0.0010754	0.00020842	6.2601e-05	1014.6	1.5907e-06	1.1801e-06	1098.7	336.31	1.4138e-06	1.9103e-06	411.44	142.74	118.26	41.807	1.6946e-06	55.643	2.4728e-05	2.0622e-05	6.8027e-06	867.42	2.2869e-07	2.2821e-07	914.01	265.33	2.2999e-07	2.2253e-07	310.75	107.59	90.395	31.771	2.5333e-07	40.546	88.643	131.868	145.312	67.131	184.349	196.382	66.130	71.179	219.558	208.376	69.685	74.474	75.962	81.710	190.289	78.668	-8191	255	
2808.096	1	1	0	0	0.14094	0.05957	0.11207	0.14154	0.057324	0.23418	0.20952	0.055075	0.26903	0.20931	0.15815	0.10555	0.19392	0.18302	0.061754	0.11154	-3.0646	-4.1687	-3.9646	-3.8167	-4.325	-3.4958	-3.925	-4.0979	-3.4688	-4.2729	-4.1375	-3.7021	-4.1062	-3.825	-3.8979	-4.1417	60.189	264.109	68.009	285.213	103.042	101.292	306.427	376.339	395.737	137.598	58.287	412.246	366.869	198.243	74.864	288.524	0.00098902	0.00018859	4.3495e-05	1009.8	1.1902e-06	1.3891e-06	1089.2	335.47	2.0155e-06	7.8457e-07	409.11	141.46	117.52	41.044	1.241e-06	55.136	2.2989e-05	2.0053e-05	6.2829e-06	862.18	2.066e-07	2.2533e-07	905.21	262.9	2.095e-07	2.1924e-07	308.03	106.57	89.311	31.309	2.2474e-07	39.988	85.408	128.088	163.275	67.017	166.362	175.524	66.037	71.215	189.909	208.882	69.551	74.253	76.181	81.682	175.314	78.750	-8191	255	
2808.192	1	1	0	0	0.1413	0.39162	0.13249	0.14454	0.050775	0.032601	0.24133	0.29439	0.21201	0.28423	0.10933	0.16015	0.21317	0.068755	0.16782	0.12593	-3.1708	-4.025	-3.9417	-3.725	-4.2458	-3.7542	-3.9542	-4.1208	-3.6375	-4.0042	-4.0146	-3.7042	-4.1792	-3.8042	-3.6979	-4.2104	246.112	274.003	88.766	388.767	299.265	172.711	404.155	361.946	120.752	258.911	251.783	182.846	308.282	396.517	235.303	316.487	0.0011014	6.9362e-05	6.5201e-05	1002.5	1.2684e-06	1.5832e-06	1082.7	331.68	2.3328e-06	1.385e-07	408.49	140.81	117.16	41.185	8.6315e-07	55.113	2.0767e-05	1.9951e-05	5.4783e-06	855.35	1.8726e-07	2.181e-07	902.14	260.05	1.983e-07	2.2541e-07	307.11	106.49	89.139	31.385	2.155e-07	40.122	85.594	128.963	141.042	67.068	216.001	191.930	66.107	71.227	187.630	322.668	69.534	74.288	76.149	81.810	109.856	78.908	-8191	255	
2808.288	1	1	0	0	0.047067	0.027893	0.12793	0.25248	0.10949	0.10295	0.28631	0.25868	0.059057	0.24042	0.23881	0.10864	0.19774	0.20437	0.24395	0.13356	-3.1813	-3.9688	-3.8542	-3.4729	-4.0667	-3.7604	-3.6708	-4.3458	-3.6667	-3.7833	-4.2646	-3.5042	-4.1312	-3.925	-3.6458	-4.3083	57.994	234.975	164.565	340.402	88.049	375.244	297.375	310.587	233.490	308.424	166.786	266.856	241.375	57.792	56.696	283.933	0.00096979	5.9737e-05	4.4752e-05	1000.8	1.4795e-06	9.0503e-07	1084.1	329.26	2.4638e-06	9.2354e-07	408.29	141.26	116.9	40.803	1.4409e-06	55.162	2.1177e-05	2.0091e-05	5.1125e-06	853.19	1.9386e-07	2.1928e-07	901.39	258.76	1.9802e-07	2.2129e-07	305.71	106.54	88.875	31.169	2.0741e-07	40.089	87.037	86.208	136.858	67.014	229.113	141.856	66.029	71.347	184.051	184.375	69.423	74.355	76.069	81.746	164.983	78.554	-8191	255	
2808.384	1	1	0	0	0.089987	0.14316	0.066807	0.19218	0.2042	0.07097	0.20533	0.19274	0.13261	0.23653	0.11513	0.06248	0.15907	0.26646	0.07335	0.19117	-3.2062	-3.7771	-3.9229	-3.6708	-4.3146	-3.9958	-3.7271	-4.4125	-3.8292	-4.0104	-4.3229	-3.6375	-4.4083	-3.9333	-3.6542	-4.3958	277.435	391.511	300.384	336.453	331.337	234.929	246.143	130.705	166.411	360.249	363.458	402.865	77.147	303.720	263.511	332.642	0.00099825	0.00015609	4.7051e-05	997.85	2.6618e-06	3.0278e-07	1088.4	329.11	1.0118e-06	1.077e-06	405.09	140.2	116.06	40.713	1.5237e-06	55.08	2.2361e-05	1.9901e-05	5.0379e-06	853.55	2.0675e-07	2.1211e-07	901.59	258.38	2.1453e-07	2.0993e-07	304.97	105.7	88.513	31.055	1.9599e-07	39.971	84.590	74.487	140.494	66.920	201.790	146.018	65.874	71.339	212.007	210.926	69.385	74.408	76.100	81.712	214.933	78.547	-8191	255	
2808.480	1	1	0	0	0.31235	0.072096	0.18476	0.074043	0.14165	0.16378	0.082321	0.093783	0.19	0.17008	0.22843	0.17667	0.21509	0.051294	0.20585	0.18459	-3.3125	-3.775	-4.2146	-3.6562	-3.8667	-3.9896	-3.6188	-4.2979	-3.8063	-3.7771	-4.2792	-3.6375	-3.8812	-4.175	-3.6333	-4.3417	338.983	291.294	412.639	283.199	199.849	314.574	65.474	175.193	373.190	260.051	395.232	85.495	387.478	134.763	236.536	268.077	0.0010262	0.00013009	5.598e-05	998.07	2.0238e-06	1.3622e-06	1083.2	329.02	1.8291e-06	1.4368e-06	407.09	140.47	116.7	40.868	1.1642e-06	55.083	2.2849e-05	1.8472e-05	4.7212e-06	853.05	2.1511e-07	1.9823e-07	898.97	258.46	2.2046e-07	2.01e-07	305.25	106.02	88.926	31.121	1.9904e-07	40.062	83.967	143.311	119.485	66.862	196.527	217.745	65.893	71.392	162.800	263.776	69.550	74.230	75.952	81.674	214.874	78.656	-8191	255	
2808.576	1	1	0	0	0.096787	0.27119	0.12401	0.14669	0.14993	0.26789	0.099968	0.11374	0.13931	0.27627	0.13248	0.26342	0.03629	0.20615	0.10222	0.079084	-3.6083	-3.5646	-4.275	-3.9333	-4.0021	-4.0458	-3.7	-4.1646	-3.9	-3.5854	-4.2583	-3.7146	-3.9854	-4.3271	-3.6792	-4.0208	143.088	412.720	293.054	382.952	66.785	131.369	85.971	323.053	250.294	335.765	396.845	402.951	112.513	54.419	55.009	358.946	0.00098123	3.2463e-05	2.7394e-05	1008.6	1.944e-06	6.5588e-07	1086.8	332.61	1.755e-06	7.0854e-07	409.64	141.96	117.54	41.191	1.5255e-06	55.47	2.4847e-05	1.9804e-05	4.9795e-06	860.97	2.3992e-07	2.117e-07	905.53	261.69	2.3996e-07	2.1836e-07	308.35	107.19	89.887	31.42	2.1934e-07	40.496	85.746	79.381	126.107	66.984	187.118	185.787	66.021	71.324	194.566	233.087	69.681	74.186	76.281	81.838	204.788	78.868	-8191	255	
2808.695	1	1	0	0	0.13413	0.11729	0.19957	0.099426	0.071812	0.15909	0.11884	0.14798	0.057695	0.017092	0.27049	0.39158	0.16654	0.14526	0.040401	0.064007	-3.5583	-3.575	-4.2271	-3.9125	-3.8563	-4.3083	-3.8604	-4.0312	-4.0125	-3.4271	-4.1937	-3.7562	-3.7896	-4.4229	-3.6667	-4.0563	379.027	381.096	116.004	208.721	166.177	405.428	273.128	289.559	158.845	256.933	64.780	412.151	383.089	65.700	237.904	288.181	0.00094691	0.00019607	6.4565e-05	1021.3	1.2173e-06	2.0721e-06	1106.6	341.52	2.2189e-06	6.4193e-07	416.35	144.2	119.76	41.945	1.3711e-06	56.088	2.6919e-05	2.2634e-05	5.6788e-06	873.59	2.8117e-07	2.5765e-07	921.51	269.42	2.8704e-07	2.6415e-07	314.2	109	91.787	31.97	2.605e-07	40.99	86.369	110.839	135.683	66.804	205.022	146.555	65.977	71.215	156.391	191.340	69.513	74.084	76.121	81.590	179.498	78.516	-8191	255	
2808.791	1	1	0	0	0.099518	0.33373	0.15916	0.098786	0.064116	0.091544	0.11769	0.088482	0.18267	0.04105	0.26032	0.21046	0.2078	0.092381	0.14421	0.067638	-3.6375	-3.5854	-4.1083	-3.7896	-3.6875	-4.3104	-3.7792	-4.0354	-4.1687	-3.5875	-4.3438	-3.8604	-3.8063	-4.2021	-3.5708	-3.8896	206.025	266.995	56.384	348.571	271.512	268.070	77.412	305.051	385.284	117.171	106.030	397.287	332.606	131.739	264.044	59.138	0.0010028	0.00012756	4.8341e-05	1025.1	1.9795e-06	1.8854e-06	1104.6	343.8	1.3975e-06	1.6983e-06	418.68	145.1	121.81	42.738	1.9987e-06	56.615	2.8312e-05	2.387e-05	6.4692e-06	877.41	2.8824e-07	2.6272e-07	920.65	271.62	3.0469e-07	2.8728e-07	316.23	109.86	93.479	32.635	3.3168e-07	41.624	91.647	123.974	132.967	66.951	207.057	205.650	65.868	71.163	205.369	191.966	69.753	73.986	76.036	81.648	170.742	78.520	-8191	255	
2808.888	1	1	0	0	0.27283	0.2168	0.091356	0.18495	0.13589	0.18584	0.17258	0.24534	0.18339	0.34332	0.10787	0.11535	0.25265	0.093523	0.057008	0.14648	-3.7167	-3.4104	-4.0729	-3.9	-3.6917	-4.3583	-3.6896	-4.0312	-4.1771	-3.6312	-4.0292	-3.9875	-3.8333	-4.3896	-3.6312	-3.6854	326.950	181.635	223.201	110.022	389.293	379.142	409.476	345.586	403.740	400.128	402.953	95.476	374.395	89.444	105.052	259.784	0.00096108	0.00011709	6.3074e-05	1035.1	2.036e-06	1.9956e-06	1113.5	350.56	1.6324e-06	5.7059e-07	426.48	148.2	126.01	43.946	2.0298e-06	57.716	3.3529e-05	2.9279e-05	8.8409e-06	888.96	3.5558e-07	3.2494e-07	931.73	278.73	3.7765e-07	3.6447e-07	324.61	113.03	97.346	33.765	4.5838e-07	42.682	85.365	155.704	136.601	66.938	211.418	178.875	65.806	70.982	200.203	189.088	69.542	74.050	75.752	81.730	185.571	78.576	-8191	255	
2808.984	1	1	0	0	0.055035	0.080031	0.15676	0.24778	0.080056	0.12486	0.076642	0.28763	0.13767	0.078998	0.14637	0.25775	0.039284	0.11884	0.089121	0.041761	-3.8625	-3.5438	-3.9375	-4.2458	-3.5792	-4.1271	-3.8625	-3.8417	-4.1875	-3.4854	-4.0021	-4.0417	-3.6646	-4.1833	-3.8729	-3.9	370.074	141.684	63.014	359.608	94.339	189.947	393.805	328.529	242.958	315.188	90.154	386.086	346.513	199.412	192.282	339.563	0.0011155	0.00018009	6.7169e-05	1051.7	1.5125e-06	2.3449e-06	1119	354.87	2.3902e-06	2.5973e-06	426.86	148.68	126.08	43.933	1.0934e-06	57.772	4.0424e-05	3.6248e-05	1.1454e-05	902.92	4.1247e-07	3.864e-07	939.92	282.4	3.9945e-07	3.9896e-07	325.98	113.43	97.42	33.816	4.5749e-07	42.627	87.944	138.182	117.947	67.004	167.047	155.782	65.865	71.013	215.858	155.333	69.563	73.981	75.820	81.558	131.699	78.815	-8191	255	
2809.080	1	1	0	0	0.14937	0.12298	0.049643	0.36593	0.079415	0.15924	0.036673	0.097414	0.064393	0.089217	0.18677	0.13601	0.19502	0.32248	0.041692	0.18039	-3.8542	-3.6312	-4.0958	-4.0437	-3.6458	-4.1042	-4.0792	-3.8104	-4.3417	-3.5812	-3.9729	-4.1042	-3.7188	-4.1062	-3.7604	-3.7812	177.023	206.162	191.706	392.236	116.501	385.081	77.223	405.922	336.950	398.329	53.691	252.767	389.562	404.350	359.733	375.702	0.0010492	0.00015246	5.9882e-05	1043.8	2.5047e-06	2.2126e-06	1119.4	353.09	2.4034e-06	1.0274e-06	426.35	147.47	124.92	43.623	1.4306e-06	57.428	3.83e-05	3.6606e-05	1.1238e-05	898.73	3.7987e-07	3.8579e-07	936.66	280.14	3.5245e-07	3.8361e-07	323.18	112.26	95.869	33.472	3.9181e-07	42.254	89.083	178.857	143.937	66.770	232.817	197.891	65.915	71.242	191.407	163.793	69.390	73.948	76.022	81.815	213.297	78.522	-8191	255	
2809.176	1	1	0	0	0.11251	0.11118	0.16188	0.16097	0.10655	0.10871	0.18016	0.19161	0.15385	0.070801	0.1486	0.30497	0.24313	0.15685	0.07455	0.0035479	-3.9375	-3.7229	-3.9167	-4.2792	-3.5521	-4.075	-4.2688	-3.6896	-4.2229	-3.9125	-3.8937	-4.2188	-3.5083	-4.0813	-4.0437	-3.6208	371.207	395.576	363.884	400.727	277.763	208.644	218.106	343.222	271.857	146.753	353.350	329.301	369.893	89.944	238.840	149.379	0.00091111	0.00025471	7.1411e-05	1033.7	9.0655e-07	1.6255e-06	1115.7	349.38	2.0639e-06	2.2068e-06	422.59	146.52	123.75	43.373	1.0945e-06	57.062	3.3578e-05	3.4905e-05	9.9735e-06	889.93	3.4204e-07	3.7426e-07	931.14	277.85	3.2616e-07	3.7789e-07	320.13	111.26	95.159	33.301	3.4984e-07	41.821	81.982	127.762	196.099	66.890	232.874	210.328	65.834	71.029	191.352	185.814	69.585	74.145	75.692	81.556	171.616	78.657	-8191	255	
2809.272	1	1	0	0	0.14373	0.030649	0.045126	0.12745	0.12926	0.15042	0.2435	0.14527	0.22051	0.046335	0.08082	0.072159	0.22774	0.06333	0.14208	0.15625	-3.9813	-3.6854	-3.7	-4.1562	-3.5625	-4.0542	-4.125	-3.6354	-4.2521	-3.7958	-3.8438	-4.3	-3.7188	-4.1687	-4.0437	-3.6125	410.396	62.501	180.980	358.309	187.850	348.843	351.005	290.265	109.232	123.096	349.478	255.233	411.333	99.190	412.349	329.488	0.001058	0.00013632	1.1053e-05	1032.7	1.9447e-06	1.3237e-06	1109	348.61	1.7118e-06	1.0546e-06	422.56	146.28	124.09	43.283	5.7566e-07	57.145	3.1439e-05	3.3e-05	8.7504e-06	885.72	3.1948e-07	3.5582e-07	925.39	275.82	3.2161e-07	3.6072e-07	319.01	110.99	95.018	33.177	3.3061e-07	41.83	89.470	143.276	86.157	67.096	197.279	144.281	65.759	71.228	169.379	199.433	69.618	73.907	75.912	81.734	228.856	78.732	-8191	255	
2809.368	1	1	0	0	0.18518	0.15342	0.14005	0.16307	0.07253	0.14171	0.072372	0.042627	0.057949	0.2219	0.24274	0.2074	0.13642	0.084052	0.11422	0.14308	-3.8208	-3.9292	-3.8187	-4.3146	-3.6188	-3.7729	-4.3854	-3.5896	-4.225	-4.0146	-3.8229	-4.3479	-3.8	-4.0813	-4.2896	-3.6896	331.943	346.005	409.431	309.350	184.905	103.934	310.115	232.898	284.221	217.021	62.760	277.804	343.885	168.308	179.010	328.972	0.0011435	0.00010908	4.7916e-05	1031.4	2.3058e-06	1.8615e-06	1105.9	347.42	2.3112e-06	9.6936e-07	421.14	145.95	123.14	43.052	1.1012e-06	56.897	3.2662e-05	3.209e-05	8.1913e-06	883.91	3.2908e-07	3.4092e-07	924.4	274.63	3.2719e-07	3.3367e-07	317.96	110.46	94.264	32.97	2.9388e-07	41.628	86.873	130.250	157.282	67.030	193.841	190.732	65.888	71.240	210.233	190.991	69.715	74.056	75.993	81.657	140.488	78.751	-8191	255	
2809.489	1	1	0	0	0.097352	0.0056224	0.21193	0.31007	0.032907	0.067681	0.0075106	0.19209	0.059739	0.1976	0.25312	0.13	0.11327	0.16973	0.13094	0.067804	-3.8333	-4.0813	-3.7917	-4.3354	-3.6521	-4.0604	-4.1708	-3.7979	-4.1667	-4.0188	-3.7208	-4.0792	-3.8896	-3.875	-4.2771	-3.7083	323.402	384.557	138.851	357.182	336.410	281.813	369.623	92.797	225.385	251.960	292.772	335.233	68.574	386.422	280.640	365.092	0.001092	0.0001221	5.0434e-05	1028	2.2161e-06	9.1547e-07	1105.9	345.65	2.5633e-06	1.6686e-06	416.85	145.69	122.73	42.806	2.0274e-06	56.942	3.2126e-05	2.8715e-05	7.3447e-06	878.16	3.251e-07	3.1071e-07	919.57	272.38	3.2402e-07	3.0426e-07	316.03	110.42	94.072	32.724	2.7904e-07	41.518	86.632	124.532	159.216	66.891	190.126	94.140	65.947	71.204	212.102	156.723	69.472	74.331	75.915	81.794	162.078	78.827	-8191	255	
2809.583	1	1	0	0	0.077857	0.17396	0.16687	0.273	0.21932	0.23379	0.22077	0.21054	0.083067	0.14457	0.17904	0.19169	0.3051	0.13726	0.083778	0.06574	-3.7354	-3.7771	-3.7521	-4.2521	-3.7417	-3.9771	-4.1771	-3.7667	-3.8563	-4.0875	-3.6479	-4.2312	-3.7938	-3.6896	-4.3208	-3.8667	271.146	309.342	320.503	365.396	238.694	53.339	390.850	326.809	230.137	181.829	387.567	127.800	392.172	397.861	197.726	87.773	0.0011508	0.00016414	4.679e-05	1028	1.8304e-06	8.877e-07	1101	345.07	2.2538e-06	1.0542e-06	416.95	144.42	122.71	42.627	1.8022e-06	56.306	3.4102e-05	2.806e-05	7.2749e-06	877.9	3.3508e-07	3.0453e-07	918.13	272.45	3.3289e-07	2.9156e-07	315.51	109.79	93.931	32.606	2.7814e-07	41.368	86.119	141.191	170.092	66.891	185.524	154.285	65.979	71.074	194.525	184.010	69.562	74.261	75.756	81.659	162.212	78.724	-8191	255	
2809.681	1	1	0	0	0.053017	0.078061	0.11102	0.084481	0.017215	0.11099	0.15565	0.055235	0.11902	0.12122	0.29746	0.18913	0.13004	0.017802	0.12785	0.093064	-3.3812	-4.1375	-3.4479	-4.1687	-3.8792	-3.6604	-4.2688	-3.9	-3.9917	-4.2292	-3.725	-3.9583	-4.0708	-3.6833	-4.1625	-3.7542	205.798	178.797	213.831	210.712	189.938	126.752	260.517	191.557	359.998	318.841	404.782	127.453	371.312	206.522	198.262	100.391	0.0009011	0.00022215	7.4193e-05	1029.9	9.6526e-07	1.0633e-06	1102.5	344.58	1.8997e-06	1.5656e-06	415.87	144.01	121.05	42.228	2.187e-06	55.926	3.4169e-05	2.7672e-05	7.4123e-06	880.75	3.3987e-07	3.05e-07	917.82	272.61	3.1844e-07	2.8051e-07	313.39	109.1	92.695	32.195	2.4895e-07	41.012	80.238	121.236	175.271	66.974	165.194	156.041	65.898	71.170	146.815	205.451	69.622	74.197	75.850	81.896	172.967	78.836	-8191	255	
2809.776	1	1	0	0	0.21782	0.12109	0.31766	0.19341	0.18947	0.029504	0.074438	0.17909	0.24608	0.068517	0.13446	0.10485	0.2838	0.12563	0.19802	0.14583	-3.6521	-4.2729	-3.6083	-4.2063	-3.9813	-3.6792	-4.3396	-3.8771	-3.9646	-4.2667	-3.8625	-3.9917	-4.1188	-3.7083	-4.1729	-4.1167	312.961	69.432	76.779	340.181	75.097	288.274	128.523	322.692	239.349	86.093	373.318	342.050	372.422	400.451	393.047	127.824	0.0009839	0.00016233	5.7389e-05	1018.6	1.7941e-06	1.2701e-06	1098.4	342.2	1.6274e-06	7.6906e-07	413.14	143.5	119.88	41.798	2.0035e-06	55.767	2.9789e-05	2.3704e-05	6.7222e-06	874.05	2.903e-07	2.6887e-07	912.79	270.02	2.8266e-07	2.5063e-07	312.05	108.47	91.492	31.868	2.4256e-07	40.736	88.747	99.996	152.991	66.926	191.822	184.835	65.968	71.220	167.466	167.703	69.633	74.031	75.802	81.793	181.088	78.701	-8191	255	
2809.872	1	1	0	0	0.21096	0.079095	0.21578	0.25635	0.13316	0.077678	0.050921	0.079384	0.064599	0.24472	0.31657	0.27298	0.29909	0.14523	0.048514	0.20851	-3.3271	-4.2625	-3.6312	-3.9333	-4.125	-3.5604	-4.2646	-3.9479	-3.7417	-4.4417	-3.8063	-3.9	-4.2229	-3.525	-4.2167	-4.1875	247.058	133.710	144.042	408.316	298.742	404.655	323.374	309.562	162.554	342.943	297.539	411.036	297.640	95.329	299.664	67.257	0.00093147	0.00015205	5.8469e-05	1016.6	1.0684e-06	8.4797e-07	1095	337.79	2.0185e-06	1.5331e-06	412.43	142.78	118.53	41.452	2.5048e-06	55.624	2.5945e-05	2.0419e-05	6.3692e-06	867.14	2.4806e-07	2.3198e-07	908.62	266.23	2.4367e-07	2.2015e-07	310.39	107.91	90.672	31.598	2.3908e-07	40.469	85.218	106.641	157.633	66.901	236.432	113.895	65.862	71.217	187.418	217.863	69.753	74.222	75.920	81.792	183.730	78.716	-8191	255	
2809.968	1	1	0	0	0.047261	0.076387	0.06988	0.08834	0.097812	0.074452	0.30991	0.16427	0.14727	0.13312	0.0035507	0.13912	0.28914	0.15092	0.15282	0.1523	-3.2292	-4.2167	-3.7458	-4.0167	-4.1042	-3.7375	-4.2708	-4.0854	-3.5563	-4.2104	-3.9042	-3.9833	-4.3896	-3.5812	-4.1167	-4.2	68.925	138.332	121.009	391.425	264.902	231.410	362.837	397.939	352.987	299.729	92.994	363.292	409.071	105.250	112.263	54.119	0.00096593	0.00013139	5.2633e-05	1005.2	1.636e-06	1.8197e-06	1085.2	332.59	8.0762e-07	1.2394e-06	411.03	141.98	117.98	41.589	1.5316e-06	55.354	2.352e-05	1.8493e-05	6.1033e-06	858.45	2.1713e-07	2.1018e-07	903.05	263.18	2.2146e-07	2.056e-07	308.94	107.27	90.067	31.539	2.3688e-07	40.252	82.743	149.150	115.098	66.863	194.593	209.663	65.943	71.565	183.674	176.008	69.746	74.355	76.056	81.514	191.685	78.601	-8191	255	
2810.089	1	1	0	0	0.089941	0.056242	0.15911	0.043542	0.11525	0.16564	0.072502	0.21164	0.17533	0.17392	0.18015	0.040752	0.064333	0.27738	0.22506	0.14358	-3.3479	-4.2792	-3.75	-3.7938	-4.3063	-3.6771	-4.1	-4.2208	-3.5208	-4.0583	-3.8854	-3.6375	-4.4042	-3.8375	-4.0333	-4.2646	250.927	299.974	263.299	376.111	257.420	338.876	325.483	333.766	97.592	349.274	323.604	62.410	349.064	378.453	337.272	217.237	0.0010568	0.00013238	5.9288e-05	1003.5	9.866e-07	1.8066e-06	1079.7	331.72	7.4626e-07	1.6323e-06	406.97	141.72	117.4	41.116	1.1674e-06	55.347	2.1565e-05	1.7675e-05	5.6889e-06	855.23	1.897e-07	1.9671e-07	898.04	260.48	1.9735e-07	1.9704e-07	305.99	106.48	89.485	31.377	2.2523e-07	40.179	84.139	101.292	170.260	66.977	178.603	209.981	66.102	71.342	172.400	219.253	69.789	74.304	76.135	81.813	132.611	78.626	-8191	255	
2810.185	1	1	0	0	0.023937	0.27254	0.16805	0.075196	0.075043	0.13106	0.29429	0.18225	0.1258	0.18251	0.069656	0.18621	0.10946	0.16793	0.097521	0.12586	-3.2479	-4.1333	-3.9083	-3.8292	-4.3646	-3.75	-3.9104	-4.2667	-3.45	-4.0125	-4.1146	-3.6917	-4.2792	-3.8187	-3.7812	-4.2208	86.801	319.390	199.804	348.367	201.188	80.448	404.021	311.582	400.005	306.609	358.286	396.506	281.286	389.657	264.445	348.042	0.0010159	0.00011058	4.0488e-05	999.04	1.9712e-06	1.9008e-06	1080.7	330.8	1.8714e-06	1.6026e-06	407.71	142.01	118.13	41.468	2.0141e-06	55.558	2.0522e-05	1.8651e-05	5.532e-06	853.2	1.8572e-07	2.125e-07	897.92	260.61	1.9144e-07	2.1368e-07	306.76	106.93	89.874	31.457	2.2175e-07	40.398	87.328	113.267	151.356	66.966	206.488	167.860	66.296	71.384	173.974	214.667	69.586	74.281	76.134	81.512	176.388	78.805	-8191	255	
2810.281	1	1	0	0	0.10437	0.19927	0.10622	0.099587	0.15782	0.2739	0.34487	0.16839	0.10601	0.080934	0.18273	0.14614	0.18212	0.16602	0.17307	0.040684	-3.2479	-3.9583	-4.0958	-3.7583	-4.2708	-3.7625	-4.0437	-4.2104	-3.7417	-3.9521	-4.0604	-3.6625	-4.2312	-3.925	-3.7167	-4.4313	306.148	253.270	176.664	278.760	335.580	74.109	308.736	97.259	108.663	277.256	412.496	127.262	411.519	155.723	365.592	73.112	0.0010186	0.00014812	3.5624e-05	1003	2.0814e-06	1.3266e-06	1084	332.77	1.3883e-06	7.7004e-07	407.95	142.14	118.17	41.279	1.6081e-06	55.302	2.1135e-05	2.0781e-05	5.6017e-06	855.75	1.9727e-07	2.2952e-07	901.98	261.85	2.038e-07	2.3035e-07	307.29	106.99	89.96	31.475	2.0626e-07	40.222	83.068	104.649	128.032	66.828	197.687	151.975	65.908	71.356	177.758	168.520	69.832	74.092	76.145	81.690	137.368	78.717	-8191	255	
2810.377	1	1	0	0	0.34201	0.15999	0.15157	0.1508	0.11858	0.25701	0.036965	0.17574	0.12727	0.024676	0.40093	0.1489	0.067747	0.15212	0.10016	0.22852	-3.2687	-4.075	-4.1875	-3.6208	-4.2688	-3.8937	-3.8104	-4.2667	-3.7521	-3.9958	-4.0708	-3.6562	-4.3354	-4.0229	-3.8083	-4.1813	114.190	316.124	399.370	281.178	196.065	61.099	158.908	238.640	340.909	205.382	306.167	352.233	231.245	323.490	68.844	53.561	0.00096447	8.9022e-05	4.5317e-05	995.08	2.4452e-06	1.6302e-06	1076.1	329.84	2.2373e-06	5.3216e-07	403.96	141.24	117.33	40.945	7.5406e-07	55.068	2.1352e-05	2.0562e-05	4.9964e-06	850.77	1.9531e-07	2.1266e-07	894.79	259.49	2.0195e-07	2.1286e-07	304.15	106.07	89.212	31.203	1.9072e-07	39.921	83.829	151.572	152.884	67.138	211.926	206.688	66.134	71.380	150.739	219.552	69.589	74.386	75.821	81.757	119.930	78.882	-8191	255	
2810.473	1	1	0	0	0.028187	0.10124	0.18677	0.18367	0.04058	0.10984	0.28643	0.09555	0.095482	0.15488	0.12549	0.095869	0.063247	0.29472	0.18655	0.25499	-3.575	-3.7938	-4.2292	-3.6479	-4.2208	-3.95	-3.6167	-4.375	-3.7396	-3.9396	-4.3708	-3.7271	-4.0813	-4.0979	-3.5875	-4.3042	294.963	127.054	334.820	317.746	325.290	407.324	373.723	392.606	181.017	387.417	109.302	400.429	389.879	384.774	207.750	309.307	0.0010229	0.00012323	4.7727e-05	992.04	2.12e-06	1.6348e-06	1073.6	328.81	1.4022e-06	1.4225e-06	403.74	140.76	116.98	40.862	8.5655e-07	54.818	2.1603e-05	1.8102e-05	4.504e-06	847.53	1.97e-07	1.9383e-07	892.18	258.15	2.0738e-07	1.9919e-07	303.6	105.77	89.187	31.155	1.9487e-07	39.962	88.398	78.041	133.844	66.916	185.261	205.126	66.228	71.075	169.165	162.156	69.580	74.253	75.937	81.509	162.887	78.653	-8191	255	
2810.569	1	1	0	0	0.087548	0.1395	0.15161	0.11621	0.24818	0.22154	0.25926	0.2447	0.14573	0.13864	0.13059	0.11329	0.18038	0.12044	0.25162	0.15158	-3.3875	-3.6896	-4.2083	-3.6833	-3.9375	-4.1104	-3.7021	-4.2208	-3.9104	-3.6417	-4.2083	-3.5083	-3.9708	-4.2063	-3.5958	-4.2458	225.691	320.551	367.203	67.097	243.120	292.898	385.534	292.401	344.548	402.300	297.961	378.456	362.528	219.216	287.395	71.728	0.0010143	7.7837e-05	4.2237e-05	1009.3	2.3321e-06	8.1738e-07	1090.5	336.53	1.374e-06	6.3097e-07	411.12	143.66	119.21	41.695	8.3936e-07	55.577	2.3357e-05	1.9203e-05	4.951e-06	859.26	2.3957e-07	2.2093e-07	904.37	264.04	2.5044e-07	2.2881e-07	309.28	107.97	91.026	31.742	2.1429e-07	40.609	84.884	154.649	112.214	66.980	212.842	154.362	65.964	71.198	163.964	203.979	69.490	74.199	75.879	81.600	179.147	78.572	-8191	255	
2810.664	1	1	0	0	0.13546	0.24792	0.12822	0.27428	0.21914	0.1194	0.13789	0.317	0.15345	0.18347	0.12104	0.040284	0.29884	0.16931	0.1844	0.22477	-3.5729	-3.625	-4.3979	-3.7667	-3.7875	-4.2729	-3.775	-4.2146	-3.8292	-3.5333	-4.3854	-3.95	-3.8187	-4.3021	-3.6333	-4.0687	55.098	253.162	261.711	368.476	151.047	323.429	334.895	388.932	200.667	91.432	328.728	114.482	336.331	335.624	275.977	362.995	0.0010705	0.0001587	5.8252e-05	999.77	1.8908e-06	7.9523e-07	1085	332.85	7.6451e-07	1.259e-06	405.96	141.72	117.06	40.896	8.1096e-07	54.896	2.5358e-05	1.9919e-05	5.0572e-06	856.01	2.3368e-07	2.0083e-07	900.09	261.11	2.2202e-07	1.9632e-07	304.88	106.63	89.086	31.068	1.8056e-07	39.968	86.719	139.168	125.267	66.778	191.319	221.932	65.872	71.284	207.455	201.960	69.625	74.392	76.255	81.699	166.603	78.711	-8191	255	
2810.762	1	1	0	0	0.32274	0.1696	0.16921	0.053233	0.17647	0.058194	0.094202	0.27759	0.21333	0.076369	0.2008	0.097565	0.18968	0.20168	0.08406	0.18473	-3.5187	-3.4896	-4.1312	-3.9625	-3.9542	-4.2312	-3.775	-4.1562	-3.9854	-3.5229	-4.3479	-3.9542	-3.7833	-4.3333	-3.5292	-4.1104	410.522	274.485	74.782	336.758	386.852	274.837	397.461	365.279	208.413	62.788	263.067	400.076	408.267	306.651	338.230	325.468	0.00095928	0.00023062	6.1573e-05	994.57	1.1657e-06	1.0126e-06	1075.5	329.69	1.4896e-06	1.0279e-06	407.21	141.35	117.74	41.505	1.3947e-06	55.152	2.1505e-05	1.6901e-05	4.3647e-06	849.03	2.0377e-07	1.8192e-07	894.2	259.9	2.0729e-07	1.8996e-07	305.7	106.76	89.921	31.488	2.0907e-07	40.329	77.591	143.565	129.053	66.936	173.258	171.466	65.995	71.298	224.416	212.409	69.919	74.227	75.864	81.309	176.268	78.762	-8191	255	
2810.880	1	1	0	0	0.13729	0.10022	0.14351	0.18768	0.15394	0.060084	0.043421	0.064957	0.074817	0.050393	0.24182	0.1024	0.14113	0.069765	0.073836	0.18852	-3.6979	-3.6833	-4.1958	-3.9917	-3.8187	-4.2771	-3.7458	-3.8208	-3.9938	-3.6375	-4.2521	-3.9979	-3.8083	-4.4125	-3.625	-4.0625	161.672	302.638	205.302	408.527	285.711	376.853	220.631	371.152	137.815	400.197	361.869	381.867	361.045	362.698	235.974	76.433	0.001029	8.6461e-05	4.8421e-05	1008.6	1.3363e-06	8.1933e-07	1090.1	335.45	1.5092e-06	1.0635e-06	411.05	142.49	118.87	41.472	1.4274e-06	55.309	2.3703e-05	1.9464e-05	5.5433e-06	862.42	2.4053e-07	2.19e-07	903.77	264.84	2.3653e-07	2.1738e-07	308.56	107.66	90.557	31.567	2.3861e-07	40.395	86.293	147.091	178.691	66.913	206.566	148.110	66.130	71.224	185.681	189.497	69.534	74.292	76.198	81.589	184.261	78.709	-8191	255	
2810.952	1	1	0	0	0.12349	0.23945	0.14581	0.123	0.21553	0.21115	0.23136	0.082781	0.079853	0.1472	0.20503	0.14523	0.237	0.20624	0.16151	0.3027	-3.7687	-3.6375	-4.2146	-4.1292	-3.525	-4.2812	-3.8604	-3.9083	-4.2271	-3.6937	-4.2562	-4.1021	-3.7	-4.2604	-3.9583	-3.7833	139.777	291.472	108.961	347.034	205.954	407.748	343.451	281.279	320.342	193.164	383.426	139.352	123.881	106.956	345.898	289.647	0.00096143	0.00011229	4.2968e-05	1005.3	1.701e-06	1.4728e-06	1087.6	336.59	7.9155e-07	1.0622e-06	411.63	142.67	119.28	41.613	1.1693e-06	55.429	2.4041e-05	1.9861e-05	6.1133e-06	860.2	2.3464e-07	2.155e-07	904.73	265.15	2.3109e-07	2.1971e-07	309.77	107.85	90.988	31.65	2.5188e-07	40.57	84.513	101.040	171.507	66.997	191.709	111.428	65.945	71.250	202.199	249.230	69.690	74.322	75.810	81.695	193.643	78.658	-8191	255	
#DATA ENDS
