BOXY.EXE: ISS Imagent and Oximeter Data Acquisition Program Version 0.80
Ascii Record File

#ACQ INFORMATION
2  Detector Channels 
16  External MUX Channels 
1  Auxiliary Channels 
5000  Waveform (CCF) Frequency (Hz)
1  Waveforms Skipped 
30  Waveforms Averaged 
1  Cycles Averaged 
16  Acquisitions per Waveform 
10.0806  Updata Rate (Hz) 

#FILE INFORMATION
TRUE -- External MUX Channel results are PARSED.
FALSE -- AC DC and Phase are NOT grouped.
TRUE -- Companion Program Settings File CREATED.
FALSE -- AC data not excluded
FALSE -- DC data not excluded
FALSE -- Phase data not excluded
FALSE -- Auxillary Chn. data not excluded
Tab delimiters

#CALIBRATION STATE
TRUE -- Waveform Calibration Values APPLIED.


#AUX CALIBRATION VALUES
Val Type	aux-1	

Term	1.0000e+00	
Factor	0.0000e+00	


#WF CALIBRATION VALUES
A = Detector Channel
Val Type	A-AC1	A-AC2	A-AC3	A-AC4	A-AC5	A-AC6	A-AC7	A-AC8	A-AC9	A-AC10	A-AC11	A-AC12	A-AC13	A-AC14	A-AC15	A-AC16	A-DC1	A-DC2	A-DC3	A-DC4	A-DC5	A-DC6	A-DC7	A-DC8	A-DC9	A-DC10	A-DC11	A-DC12	A-DC13	A-DC14	A-DC15	A-DC16	A-Ph1	A-Ph2	A-Ph3	A-Ph4	A-Ph5	A-Ph6	A-Ph7	A-Ph8	A-Ph9	A-Ph10	A-Ph11	A-Ph12	A-Ph13	A-Ph14	A-Ph15	A-Ph16	

Term	0.00000e+00	0.00000e+00	0.00000e+00	0.00000e+00	0.00000e+00	0.00000e+00	0.00000e+00	0.00000e+00	0.00000e+00	0.00000e+00	0.00000e+00	0.00000e+00	0.00000e+00	0.00000e+00	0.00000e+00	0.00000e+00	0.00000e+00	0.00000e+00	0.00000e+00	0.00000e+00	0.00000e+00	0.00000e+00	0.00000e+00	0.00000e+00	0.00000e+00	0.00000e+00	0.00000e+00	0.00000e+00	0.00000e+00	0.00000e+00	0.00000e+00	0.00000e+00	0.00000e+00	0.00000e+00	0.00000e+00	0.00000e+00	0.00000e+00	0.00000e+00	0.00000e+00	0.00000e+00	0.00000e+00	0.00000e+00	0.00000e+00	0.00000e+00	0.00000e+00	0.00000e+00	0.00000e+00	0.00000e+00	
Factor	1.00000e+00	1.00000e+00	1.00000e+00	1.00000e+00	1.00000e+00	1.00000e+00	1.00000e+00	1.00000e+00	1.00000e+00	1.00000e+00	1.00000e+00	1.00000e+00	1.00000e+00	1.00000e+00	1.00000e+00	1.00000e+00	1.00000e+00	1.00000e+00	1.00000e+00	1.00000e+00	1.00000e+00	1.00000e+00	1.00000e+00	1.00000e+00	1.00000e+00	1.00000e+00	1.00000e+00	1.00000e+00	1.00000e+00	1.00000e+00	1.00000e+00	1.00000e+00	X	X	X	X	X	X	X	X	X	X	X	X	X	X	X	X	

B = Detector Channel
Val Type	B-AC1	B-AC2	B-AC3	B-AC4	B-AC5	B-AC6	B-AC7	B-AC8	B-AC9	B-AC10	B-AC11	B-AC12	B-AC13	B-AC14	B-AC15	B-AC16	B-DC1	B-DC2	B-DC3	B-DC4	B-DC5	B-DC6	B-DC7	B-DC8	B-DC9	B-DC10	B-DC11	B-DC12	B-DC13	B-DC14	B-DC15	B-DC16	B-Ph1	B-Ph2	B-Ph3	B-Ph4	B-Ph5	B-Ph6	B-Ph7	B-Ph8	B-Ph9	B-Ph10	B-Ph11	B-Ph12	B-Ph13	B-Ph14	B-Ph15	B-Ph16	

Term	0.00000e+00	0.00000e+00	0.00000e+00	0.00000e+00	0.00000e+00	0.00000e+00	0.00000e+00	0.00000e+00	0.00000e+00	0.00000e+00	0.00000e+00	0.00000e+00	0.00000e+00	0.00000e+00	0.00000e+00	0.00000e+00	0.00000e+00	0.00000e+00	0.00000e+00	0.00000e+00	0.00000e+00	0.00000e+00	0.00000e+00	0.00000e+00	0.00000e+00	0.00000e+00	0.00000e+00	0.00000e+00	0.00000e+00	0.00000e+00	0.00000e+00	0.00000e+00	-2.04314e+02	-1.42203e+02	-1.28168e+02	-1.83188e+02	-8.07192e+01	-9.55538e+01	-1.57235e+02	-1.62015e+02	-9.38696e+01	-7.87754e+01	-1.72586e+02	-1.73078e+02	-1.80462e+02	-1.78286e+02	-1.03677e+02	-1.51187e+02	
Factor	5.12228e-05	5.56067e-05	1.88345e-05	1.95333e-01	6.11813e-07	6.20629e-07	2.43410e-01	8.63391e-02	5.78950e-07	5.10576e-07	1.23214e-01	4.08652e-02	3.29490e-02	1.20693e-02	4.99769e-07	1.77148e-02	2.19044e-07	2.19549e-07	6.10483e-08	8.04949e-02	2.40446e-09	2.40050e-09	9.18355e-02	3.25942e-02	2.40413e-09	2.39780e-09	4.31712e-02	1.43532e-02	1.21673e-02	4.38651e-03	2.40139e-09	6.00466e-03	X	X	X	X	X	X	X	X	X	X	X	X	X	X	X	X	



#DISTANCE SETTINGS
A = Detector Channel
A-1	A-2	A-3	A-4	A-5	A-6	A-7	A-8	A-9	A-10	A-11	A-12	A-13	A-14	A-15	A-16	

2.5000e+00	3.0000e+00	2.5000e+00	3.0000e+00	2.0000e+00	3.0000e+00	1.5000e+00	3.0000e+00	3.0000e+00	3.0000e+00	3.0000e+00	3.0000e+00	3.0000e+00	3.0000e+00	1.5000e+00	3.0000e+00	

B = Detector Channel
B-1	B-2	B-3	B-4	B-5	B-6	B-7	B-8	B-9	B-10	B-11	B-12	B-13	B-14	B-15	B-16	

1.0000e+01	1.0000e+01	1.0000e+01	1.4400e+00	1.0000e+01	1.0000e+01	1.5100e+00	1.9400e+00	1.0000e+01	1.0000e+01	1.9900e+00	2.4900e+00	2.4100e+00	2.9000e+00	1.0000e+01	2.9800e+00	




#DATA BEGINS
time	group	step	mark	flag	A-AC1	A-AC2	A-AC3	A-AC4	A-AC5	A-AC6	A-AC7	A-AC8	A-AC9	A-AC10	A-AC11	A-AC12	A-AC13	A-AC14	A-AC15	A-AC16	A-DC1	A-DC2	A-DC3	A-DC4	A-DC5	A-DC6	A-DC7	A-DC8	A-DC9	A-DC10	A-DC11	A-DC12	A-DC13	A-DC14	A-DC15	A-DC16	A-Ph1	A-Ph2	A-Ph3	A-Ph4	A-Ph5	A-Ph6	A-Ph7	A-Ph8	A-Ph9	A-Ph10	A-Ph11	A-Ph12	A-Ph13	A-Ph14	A-Ph15	A-Ph16	B-AC1	B-AC2	B-AC3	B-AC4	B-AC5	B-AC6	B-AC7	B-AC8	B-AC9	B-AC10	B-AC11	B-AC12	B-AC13	B-AC14	B-AC15	B-AC16	B-DC1	B-DC2	B-DC3	B-DC4	B-DC5	B-DC6	B-DC7	B-DC8	B-DC9	B-DC10	B-DC11	B-DC12	B-DC13	B-DC14	B-DC15	B-DC16	B-Ph1	B-Ph2	B-Ph3	B-Ph4	B-Ph5	B-Ph6	B-Ph7	B-Ph8	B-Ph9	B-Ph10	B-Ph11	B-Ph12	B-Ph13	B-Ph14	B-Ph15	B-Ph16	aux-1	digaux	

770.258	1	1	0	256	0.17591	0.2386	0.11469	0.53525	0.15429	0.11284	0.28427	0.26858	0.17764	0.040585	0.14161	0.22246	0.31357	0.24887	0.14797	0.10804	-3.7917	-4.5125	-4.5563	-4.2667	-4.7104	-4.4667	-4.5188	-4.8396	-4.2417	-4.6104	-4.6771	-4.1667	-4.7021	-4.425	-4.2875	-4.8854	298.919	230.240	262.168	506.577	347.817	407.775	473.079	365.872	211.874	455.457	387.868	500.620	489.377	184.475	256.952	264.415	0.00058946	0.00013225	4.1161e-05	1155.5	1.1459e-06	8.9627e-07	1214.7	254.12	2.8363e-06	5.1852e-07	315.66	87.63	70.251	19.962	9.9529e-07	28.302	2.3915e-05	2.4071e-05	5.9617e-06	975.7	2.4802e-07	2.6474e-07	1002.5	197.6	2.5434e-07	2.6501e-07	236.56	66.917	53.638	15.471	2.3713e-07	20.9	484.608	241.026	262.032	188.824	314.384	322.397	188.460	195.432	279.145	377.046	195.319	201.401	201.784	209.769	275.932	208.790	-8191	255	
770.354	1	1	0	0	0.10551	0.21927	0.17225	0.20152	0.21983	0.11836	0.25012	0.25671	0.079016	0.19477	0.11486	0.15923	0.28943	0.13598	0.061553	0.10103	-3.7604	-4.5542	-4.5833	-4.45	-4.7312	-4.3833	-4.3292	-4.7708	-4.1646	-4.4854	-4.7854	-4.1167	-4.6813	-4.5	-4.1896	-4.8333	482.449	409.740	402.610	534.361	299.152	224.777	505.834	448.319	285.601	205.367	306.068	210.876	215.258	518.765	453.054	456.447	0.00064766	5.7369e-05	1.3857e-05	1158.9	1.1971e-06	8.3095e-07	1215.2	251.35	1.2726e-06	8.8993e-07	314.5	88.446	69.867	20.225	4.8741e-07	28.08	2.5376e-05	2.3715e-05	5.8553e-06	977.94	2.5636e-07	2.4665e-07	1003.4	197.45	2.5669e-07	2.4041e-07	236.08	66.932	53.673	15.52	2.307e-07	20.915	477.094	256.286	188.820	188.688	255.798	319.758	188.745	195.580	253.056	200.428	195.263	201.086	202.155	209.908	261.219	208.764	-8191	255	
770.450	1	1	0	0	0.21387	0.13034	0.2498	0.34227	0.15237	0.097762	0.096883	0.073158	0.2585	0.14246	0.040856	0.21194	0.23902	0.056157	0.077055	0.048385	-3.7812	-4.2917	-4.7167	-4.1542	-4.4979	-4.5396	-4.1188	-4.8479	-4.3479	-4.2833	-4.7833	-4.2771	-4.475	-4.4417	-3.9083	-4.7167	497.705	300.595	439.914	479.048	370.362	327.020	400.761	469.040	424.075	190.949	392.098	259.102	488.270	463.298	287.291	177.751	0.00060419	0.00014062	4.2239e-05	1157.5	1.2879e-06	1.4302e-06	1220	254.68	1.7577e-06	6.7093e-07	314.49	87.702	70.716	20.157	1.6253e-06	28.21	2.5486e-05	2.1923e-05	5.5645e-06	977.85	2.6181e-07	2.3351e-07	1005.1	197.98	2.5971e-07	2.3481e-07	235.85	66.937	53.772	15.451	2.2264e-07	20.934	481.650	291.761	255.950	188.934	320.037	264.536	188.567	195.542	326.653	408.328	195.418	201.506	201.894	209.349	281.820	209.259	-8191	255	
770.546	1	1	0	0	0.10342	0.28061	0.2471	0.18901	0.11152	0.27068	0.15872	0.11997	0.20331	0.13683	0.20573	0.085708	0.20899	0.17975	0.2019	0.068723	-4.0687	-4.2667	-4.7833	-4.2021	-4.6188	-4.6375	-4.2625	-4.6937	-4.4479	-4.0375	-4.7458	-4.2667	-4.5583	-4.6813	-4.1208	-4.85	401.124	431.403	304.438	499.043	294.100	436.330	212.014	463.784	523.460	340.509	199.931	520.218	510.241	528.386	341.281	520.113	0.00058292	7.9098e-05	4.0375e-05	1157.7	2.1895e-06	8.4982e-07	1216.6	254.14	1.69e-06	8.0606e-07	313.52	88.669	70.246	20.095	6.6319e-07	28.179	2.5866e-05	2.1607e-05	5.4922e-06	978.63	2.6176e-07	2.294e-07	1004.6	198.7	2.5979e-07	2.3471e-07	235.93	67.188	53.671	15.456	2.2565e-07	20.98	488.869	252.698	258.566	188.824	295.319	354.009	188.458	195.669	270.139	291.633	195.185	201.324	202.028	209.550	353.675	208.722	-8191	255	
770.642	1	1	0	0	0.17708	0.20059	0.13476	0.21649	0.080475	0.16231	0.065149	0.23272	0.18538	0.29472	0.14994	0.39558	0.1154	0.13909	0.16152	0.17482	-4.1813	-4.2229	-4.675	-4.3542	-4.3146	-4.7188	-4.3667	-4.7354	-4.5042	-4.2458	-4.8292	-4.4437	-4.4396	-4.6271	-4.1583	-4.6979	341.893	441.234	279.818	524.617	267.160	416.416	478.016	504.075	487.612	347.587	384.596	393.958	234.864	490.196	322.773	253.212	0.00057757	0.00013809	9.666e-06	1159	1.283e-06	2.0681e-07	1218.8	253.41	1.4368e-06	2.2883e-07	314.49	88.337	70.162	20.148	9.9467e-07	28.247	2.4671e-05	2.1121e-05	5.5158e-06	979.72	2.4891e-07	2.2299e-07	1005.2	198.48	2.4341e-07	2.266e-07	236.42	67.266	53.616	15.459	2.2973e-07	21.022	486.214	249.477	199.054	188.626	329.496	457.654	188.559	195.494	289.747	232.101	195.101	201.418	202.115	209.585	271.762	208.892	-8191	255	
770.739	1	1	0	0	0.068422	0.090975	0.3695	0.12943	0.12557	0.13834	0.28412	0.10648	0.10908	0.19136	0.013568	0.12628	0.16954	0.12843	0.16348	0.24767	-4.0813	-4.3833	-4.6021	-4.3646	-4.3708	-4.5896	-4.275	-4.5646	-4.6687	-4.0813	-4.8479	-4.4458	-4.3	-4.7583	-4.2208	-4.5729	286.737	510.424	379.677	207.430	390.371	261.900	460.090	222.331	289.479	507.630	301.296	405.253	439.370	458.012	530.419	433.094	0.00054665	4.2586e-05	1.4763e-05	1160.1	7.5232e-07	8.1289e-07	1220.6	252.94	4.3728e-07	4.8873e-07	314.24	88.521	69.942	20.233	8.7257e-07	28.144	2.3303e-05	2.0788e-05	5.7898e-06	980.42	2.3976e-07	2.1397e-07	1005.8	198.36	2.3086e-07	2.1887e-07	236.95	67.176	53.664	15.458	2.3496e-07	21	486.157	366.923	293.284	188.909	321.916	264.078	188.650	195.471	236.152	335.783	195.275	201.637	201.890	209.398	227.394	209.071	-8191	255	
770.859	1	1	0	0	0.31445	0.10211	0.087938	0.21475	0.19023	0.036788	0.097113	0.16798	0.19912	0.018546	0.19124	0.10967	0.19918	0.24532	0.20048	0.22326	-4.3083	-4.0479	-4.7458	-4.45	-4.1146	-4.8583	-4.4271	-4.4729	-4.8333	-4.1792	-4.8521	-4.5896	-4.25	-4.7688	-4.1292	-4.4604	416.787	530.250	368.550	484.962	377.542	516.553	215.741	361.462	535.641	430.620	303.803	401.106	314.117	258.851	188.677	403.616	0.00051426	1.7047e-05	4.4068e-05	1159.8	2.0672e-06	1.6613e-07	1214.3	253.8	1.2829e-06	3.3156e-07	314.75	88.141	70.176	20.226	8.3175e-07	28.078	2.2155e-05	1.9608e-05	6.182e-06	980.02	2.3145e-07	2.0865e-07	1006.6	198.41	2.2185e-07	2.1538e-07	236.44	67.081	53.507	15.461	2.512e-07	20.96	477.253	223.735	261.557	188.911	340.406	187.577	188.653	195.472	285.789	283.083	195.501	201.767	201.964	209.281	311.599	208.244	-8191	255	
770.955	1	1	0	0	0.043898	0.21932	0.086135	0.057872	0.15404	0.15832	0.10486	0.04376	0.29893	0.076499	0.22161	0.084867	0.17143	0.059972	0.08661	0.18559	-4.4458	-4.1396	-4.5583	-4.675	-4.1583	-4.8458	-4.4437	-4.3562	-4.7333	-4.2458	-4.6604	-4.5042	-4.1521	-4.7688	-4.2833	-4.35	367.117	337.423	297.922	186.477	508.202	220.114	409.497	251.532	520.774	386.810	408.513	224.395	526.313	345.516	284.505	298.659	0.00061357	3.0022e-05	4.8652e-05	1157.1	9.712e-07	9.1744e-07	1219.8	253.36	1.2267e-06	4.7821e-07	315.55	88.553	69.845	20.36	1.4283e-06	28.257	2.191e-05	1.9882e-05	6.3341e-06	978.41	2.2895e-07	2.1439e-07	1007.5	198.41	2.1708e-07	2.1913e-07	237.23	67.053	53.598	15.504	2.5358e-07	20.972	483.950	484.006	233.787	188.695	272.513	375.672	188.521	195.456	286.416	273.635	195.124	201.871	201.879	209.544	284.439	208.708	-8191	255	
771.051	1	1	0	0	0.10743	0.090349	0.40026	0.060488	0.041454	0.131	0.052838	0.026597	0.045742	0.17516	0.092765	0.21821	0.42303	0.12677	0.12486	0.14996	-4.4062	-4.2229	-4.5833	-4.8104	-4.1	-4.6604	-4.4187	-4.4146	-4.775	-4.2583	-4.5875	-4.7063	-4.2354	-4.7167	-4.6042	-4.4292	525.714	463.593	320.740	474.575	291.787	479.150	409.689	329.369	310.217	348.231	343.465	462.586	448.749	296.282	438.166	217.589	0.00060327	0.00011831	7.4812e-06	1159.5	2.3753e-06	1.0787e-06	1219.2	252.67	2.0718e-07	6.3068e-07	315.39	88.219	70.473	20.357	2.1998e-07	28.355	2.1195e-05	2.074e-05	6.503e-06	979.52	2.2209e-07	2.2467e-07	1007	198.46	2.0909e-07	2.3075e-07	237.3	67.005	53.605	15.557	2.5052e-07	20.968	481.865	254.806	313.944	188.800	283.536	229.844	188.560	195.257	410.643	329.160	195.546	201.660	201.868	209.435	511.625	209.188	-8191	255	
771.148	1	1	0	0	0.045774	0.21394	0.19032	0.27871	0.1612	0.1346	0.20185	0.065253	0.22701	0.2443	0.19993	0.26721	0.17554	0.15121	0.12614	0.16201	-4.4375	-4.1792	-4.4042	-4.8146	-4.2271	-4.7854	-4.675	-4.3167	-4.8021	-4.1667	-4.6687	-4.8042	-4.2854	-4.6604	-4.4646	-4.3396	185.891	276.265	193.303	522.211	194.818	366.758	490.344	468.664	196.583	458.706	450.636	494.220	441.359	229.871	336.444	332.555	0.00055018	4.6883e-05	2.3106e-05	1162.2	1.6877e-06	4.336e-07	1220.5	254.83	6.8811e-07	8.0327e-07	313.95	88.924	70.55	20.197	9.7393e-07	28.238	2.0689e-05	2.1624e-05	6.1705e-06	980.9	2.1594e-07	2.368e-07	1006.9	198.27	2.058e-07	2.4011e-07	236.96	67.128	53.616	15.529	2.3419e-07	20.965	481.891	525.487	296.212	188.789	281.468	371.712	188.497	195.847	304.673	285.373	195.362	201.541	201.747	209.690	263.511	209.087	-8191	255	
771.244	1	1	0	0	0.065459	0.24602	0.15187	0.062584	0.18436	0.1249	0.070194	0.19453	0.096696	0.041918	0.14773	0.20775	0.098209	0.12222	0.07052	0.27082	-4.3708	-4.2521	-4.4354	-4.7958	-4.1083	-4.6604	-4.7042	-4.1792	-4.7354	-4.3021	-4.4771	-4.6521	-4.1667	-4.6208	-4.5437	-4.1604	367.387	184.472	476.243	414.898	221.281	316.462	314.576	435.130	483.542	420.924	264.836	223.714	465.929	455.949	295.462	430.548	0.00052529	0.00010934	4.6579e-05	1159.8	1.1635e-06	1.7158e-06	1219.9	253.54	1.5214e-06	8.9751e-07	314.25	88.502	70.593	20.093	4.561e-07	28.347	2.0984e-05	2.2112e-05	5.7379e-06	979.53	2.1578e-07	2.41e-07	1004.9	197.84	2.1058e-07	2.4235e-07	236.78	67.121	53.721	15.491	2.1528e-07	20.907	476.002	201.537	365.942	188.693	287.580	345.931	188.652	195.480	267.976	292.855	195.426	201.509	202.156	209.534	318.282	208.832	-8191	255	
771.340	1	1	0	0	0.10463	0.14259	0.1037	0.33961	0.19078	0.10826	0.20288	0.23657	0.14189	0.11589	0.056184	0.16743	0.073797	0.1913	0.13987	0.092108	-4.3812	-4.3021	-4.2312	-4.8875	-4.1937	-4.5813	-4.8187	-4.1375	-4.6792	-4.3812	-4.375	-4.7979	-4.3083	-4.5396	-4.6917	-4.2375	500.437	296.966	420.780	462.582	391.804	382.093	482.898	196.812	486.853	459.781	325.210	488.494	411.850	240.895	403.426	239.752	0.00066267	6.6963e-05	3.9806e-05	1162.8	2.6766e-06	1.392e-06	1218.7	253.97	1.6374e-06	1.1616e-06	314.93	88.353	70.805	20.142	9.6021e-07	28.384	2.1052e-05	2.1493e-05	5.4472e-06	979.71	2.2408e-07	2.3242e-07	1004.8	197.66	2.2113e-07	2.2674e-07	236.31	66.98	53.759	15.512	2.043e-07	20.958	480.850	284.959	233.684	188.752	272.715	323.094	188.531	195.554	267.330	312.277	195.397	201.352	201.904	209.924	299.838	209.189	-8191	255	
771.459	1	1	0	0	0.067479	0.083326	0.14583	0.15484	0.14997	0.12491	0.29559	0.11276	0.1267	0.093742	0.10333	0.11944	0.20751	0.11015	0.18923	0.10823	-4.2063	-4.3083	-4.2042	-4.8771	-4.1896	-4.4875	-4.8167	-4.3375	-4.6896	-4.6375	-4.2625	-4.8063	-4.4875	-4.3146	-4.6583	-4.4417	404.005	192.541	237.976	193.636	204.818	515.780	417.079	368.552	303.540	431.167	449.726	403.770	257.451	394.946	296.005	338.147	0.00049749	0.00020194	1.1211e-05	1160.9	4.8062e-08	8.6552e-07	1213.4	254.08	1.2233e-06	7.1994e-07	313.36	88.153	69.917	20.174	2.8781e-07	28.082	2.2296e-05	2.1127e-05	5.4978e-06	977.16	2.4721e-07	2.4411e-07	1003.4	198.08	2.5414e-07	2.4508e-07	236.04	66.851	53.566	15.494	2.3154e-07	20.878	482.563	288.157	263.540	189.042	206.652	237.880	188.469	195.308	325.180	374.558	195.270	201.620	202.062	209.622	225.758	208.638	-8191	255	
771.555	1	1	0	0	0.2104	0.29047	0.14363	0.15676	0.20799	0.10915	0.20947	0.12961	0.10308	0.16972	0.17653	0.2053	0.043302	0.13062	0.049437	0.065616	-4.2542	-4.5167	-4.2	-4.9208	-4.2625	-4.2083	-4.7875	-4.1833	-4.6104	-4.5396	-4.175	-4.7875	-4.5292	-4.4229	-4.8875	-4.2125	241.350	454.167	353.047	520.053	385.916	279.529	470.011	394.581	503.906	247.431	475.284	406.301	477.822	357.636	331.728	185.461	0.00060585	6.7256e-05	5.0318e-05	1161.6	1.5599e-06	8.078e-07	1218.9	253.56	7.7324e-07	5.8706e-07	313.74	88.12	70.173	20.006	1.9927e-06	27.987	2.6615e-05	2.3005e-05	6.092e-06	979.84	2.8312e-07	2.608e-07	1006.7	198.29	3.0186e-07	2.6936e-07	236.88	67.208	53.873	15.517	2.7939e-07	21.066	495.338	185.784	286.548	188.798	242.894	297.077	188.708	195.677	206.156	344.133	195.236	201.668	202.070	209.560	338.734	208.690	-8191	255	
771.651	1	1	0	0	0.069303	0.019791	0.25598	0.12523	0.13921	0.1334	0.2903	0.20787	0.097431	0.24442	0.13651	0.11337	0.036331	0.17289	0.20995	0.048975	-4.3479	-4.6042	-4.1396	-4.8875	-4.475	-4.35	-4.8583	-4.2208	-4.5104	-4.5729	-4.1875	-4.7104	-4.4667	-4.3333	-4.7562	-4.2562	195.307	418.047	403.136	365.812	367.148	188.417	423.221	241.838	272.930	326.354	409.563	196.211	386.823	492.424	420.796	325.366	0.00054604	3.9449e-05	6.2064e-07	1184.6	1.4276e-06	4.14e-07	1246.3	256.74	1.3862e-06	1.773e-06	320.15	89.812	70.829	20.393	1.2764e-06	28.433	3.3232e-05	2.8327e-05	7.6829e-06	1002.1	3.689e-07	3.3492e-07	1030.6	202.43	3.7032e-07	3.2918e-07	241.6	68.602	55.001	15.838	3.1778e-07	21.465	487.080	190.879	280.283	188.660	301.747	322.389	188.478	195.739	244.027	286.144	195.222	201.066	201.774	209.495	253.344	208.455	-8191	255	
771.747	1	1	0	0	0.14726	0.15798	0.14004	0.078069	0.35246	0.078954	0.14143	0.1563	0.052919	0.21379	0.12347	0.034857	0.052431	0.10551	0.056715	0.02354	-4.1188	-4.5958	-4.2	-4.9042	-4.375	-4.2312	-4.9292	-4.4708	-4.3417	-4.6562	-4.1458	-4.4812	-4.4792	-4.2417	-4.6125	-4.5042	229.554	493.727	516.792	531.910	480.991	381.049	216.335	179.633	215.412	282.132	251.053	331.599	181.934	342.955	368.019	227.417	0.00049949	0.00010117	5.3366e-05	1202.5	1.0382e-06	2.0437e-06	1267.2	259.42	7.004e-07	1.7939e-07	322.38	90.125	71.807	20.412	7.3767e-07	28.474	3.5361e-05	2.9955e-05	8.2268e-06	1024.9	3.6345e-07	3.3297e-07	1048.1	204.96	3.5478e-07	3.1434e-07	243.12	69.076	55.199	15.857	3.0591e-07	21.451	495.301	266.021	339.818	188.536	293.796	386.211	188.287	195.543	325.667	536.255	195.227	201.477	202.019	209.582	252.324	208.481	-8191	255	
771.843	1	1	0	0	0.11257	0.16549	0.11456	0.15312	0.10706	0.1169	0.096455	0.28174	0.30874	0.24977	0.24968	0.11286	0.20857	0.095442	0.28845	0.24023	-3.9708	-4.6813	-4.35	-4.65	-4.5333	-4.1667	-4.8646	-4.475	-4.4292	-4.7542	-4.2958	-4.5417	-4.6979	-4.2542	-4.6729	-4.4875	260.274	290.089	320.284	456.690	237.027	241.810	474.887	252.685	339.097	490.520	474.267	318.348	532.433	252.821	457.165	436.930	0.00075169	0.00010697	1.0622e-05	1215	1.241e-06	9.1728e-07	1263.3	260.66	2.1844e-06	8.5752e-07	319.89	89.826	71.466	20.435	1.3406e-06	28.447	3.2385e-05	2.737e-05	8.2769e-06	1029.1	3.3157e-07	3.1267e-07	1048.3	204.99	3.2572e-07	2.9164e-07	243.01	68.946	55.025	15.837	3.2593e-07	21.498	487.641	259.634	374.263	188.570	299.873	332.897	188.375	195.245	269.273	348.152	195.230	201.171	201.692	209.505	289.396	208.567	-8191	255	
771.940	1	1	0	0	0.17679	0.10221	0.19408	0.33155	0.13967	0.19958	0.044069	0.077924	0.076502	0.19842	0.051885	0.098176	0.15765	0.20456	0.20394	0.12151	-4.0021	-4.8208	-4.2833	-4.5604	-4.5958	-4.2375	-4.9646	-4.5958	-4.325	-4.8833	-4.2833	-4.4708	-4.7292	-4.1583	-4.725	-4.4792	418.944	413.788	294.884	464.704	326.151	511.367	412.177	520.304	359.324	417.269	363.407	347.340	489.955	407.372	340.195	470.157	0.00046923	8.4819e-05	3.8374e-05	1215.2	1.7526e-06	1.2743e-06	1266.7	258.9	1.1607e-06	1.139e-06	322.92	89.778	71.387	20.516	9.755e-07	28.494	3.1305e-05	2.7333e-05	8.7294e-06	1029.3	3.28e-07	3.1228e-07	1050.5	204.64	3.3255e-07	3.0286e-07	243.9	68.859	55.083	15.837	3.6389e-07	21.437	481.999	234.527	270.615	188.706	293.370	339.470	188.429	195.316	326.678	296.719	195.280	201.120	201.868	209.386	269.314	208.690	-8191	255	
772.036	1	1	0	0	0.07389	0.24694	0.18523	0.11374	0.1511	0.038037	0.095496	0.15761	0.15807	0.1813	0.036568	0.16349	0.1737	0.051163	0.21298	0.098301	-3.7979	-4.8458	-4.3938	-4.4917	-4.5833	-4.2104	-4.8021	-4.5229	-4.175	-4.6771	-4.4396	-4.4396	-4.7458	-4.2646	-4.6667	-4.4521	199.265	277.021	517.543	473.721	365.990	411.498	243.601	487.598	375.703	243.999	269.819	387.511	423.601	331.036	326.043	192.140	0.00050705	0.00018922	5.1341e-05	1218.9	1.2934e-06	8.3071e-07	1268.1	259.55	2.3632e-06	1.717e-07	320.41	90.081	71.163	20.374	5.6504e-07	28.467	3.1365e-05	2.7898e-05	9.152e-06	1031.7	3.1225e-07	3.2102e-07	1052	204.78	3.2677e-07	3.1433e-07	244.2	68.913	54.865	15.831	3.7078e-07	21.377	485.069	247.317	302.117	188.516	288.335	323.297	188.357	195.443	255.434	194.690	195.149	201.534	201.739	209.205	302.515	208.293	-8191	255	
772.155	1	1	0	0	0.0069315	0.33326	0.13923	0.0325	0.29946	0.27504	0.17597	0.29175	0.047195	0.22638	0.090947	0.079374	0.20245	0.047667	0.12746	0.083546	-3.8917	-4.6042	-4.2812	-4.5708	-4.7083	-4.1937	-4.7396	-4.675	-4.125	-4.7354	-4.4542	-4.2625	-4.7854	-4.1271	-4.5437	-4.5896	406.492	379.528	244.578	263.245	299.324	433.647	504.881	187.493	465.008	273.402	437.279	416.192	472.878	302.322	421.104	433.647	0.00061095	6.6425e-05	5.7887e-05	1211.1	1.8724e-06	2.122e-06	1270.5	260.72	1.511e-06	1.845e-06	322.35	89.951	71.742	20.246	7.6166e-07	28.552	3.0792e-05	2.9598e-05	9.3321e-06	1027.9	3.1042e-07	3.3745e-07	1052.9	204.3	3.2041e-07	3.3104e-07	244.32	68.819	55.023	15.831	3.6982e-07	21.361	484.674	219.861	393.968	188.572	313.967	195.723	188.480	195.175	271.113	289.439	195.400	201.489	202.001	209.316	296.125	208.372	-8191	255	
772.251	1	1	0	0	0.096776	0.15293	0.048554	0.26118	0.10001	0.23791	0.063968	0.12881	0.17616	0.13383	0.29088	0.1152	0.11081	0.11251	0.16092	0.090881	-3.8771	-4.7354	-4.3729	-4.1479	-4.8104	-4.3104	-4.5917	-4.6292	-4.2917	-4.6375	-4.5875	-4.175	-4.7708	-4.0479	-4.4125	-4.7354	222.101	186.550	510.748	496.935	313.629	260.218	315.194	373.190	218.428	416.553	435.804	223.888	182.333	244.296	286.284	316.763	0.00060053	7.9314e-05	2.5987e-05	1215.1	1.31e-06	1.0554e-06	1270.8	259.7	1.8095e-06	7.2195e-07	319.36	89.927	71.077	20.36	1.331e-06	28.53	3.0246e-05	3.1856e-05	9.1959e-06	1029.4	3.1673e-07	3.6394e-07	1051.9	204.32	3.2711e-07	3.7021e-07	243.72	68.629	54.89	15.896	3.7104e-07	21.369	483.323	221.128	358.951	188.733	256.030	196.689	188.573	195.459	329.930	522.708	195.393	201.422	201.997	209.257	333.550	208.902	-8191	255	
772.324	1	1	0	0	0.13215	0.11671	0.10053	0.18656	0.12377	0.1542	0.14505	0.044031	0.15721	0.071844	0.16633	0.32277	0.049283	0.19172	0.14257	0.11241	-3.6312	-4.5854	-4.4375	-4.2625	-4.7104	-4.3021	-4.3083	-4.9104	-4.2125	-4.6104	-4.5583	-4.1146	-4.7229	-4.4354	-4.2042	-4.8167	425.603	475.309	244.512	212.279	419.278	187.393	237.413	184.417	328.545	311.405	464.393	502.609	429.918	386.686	366.217	422.821	0.00063084	5.6826e-05	5.3522e-05	1214.5	1.6796e-06	5.4925e-07	1269.6	261.18	1.5617e-06	1.2525e-07	322.57	90.075	71.786	20.297	1.8793e-06	28.397	3.2915e-05	3.5259e-05	9.2723e-06	1030.1	3.3675e-07	3.9034e-07	1052.6	204.9	3.4196e-07	3.8038e-07	243.88	68.767	55.015	15.937	3.4595e-07	21.315	481.706	276.805	276.979	188.692	270.508	511.427	188.294	195.565	260.153	250.761	195.311	201.517	201.812	209.397	304.051	209.194	-8191	255	
772.420	1	1	0	0	0.1292	0.020749	0.1947	0.07917	0.079492	0.18708	0.23869	0.26445	0.039257	0.19704	0.30761	0.10865	0.11075	0.18417	0.084785	0.11262	-3.9646	-4.3708	-4.4917	-4.2646	-4.6604	-4.225	-4.3833	-4.7167	-4.3021	-4.6896	-4.5417	-4.1646	-4.7771	-4.6333	-4.2208	-4.8438	317.616	221.684	458.545	202.614	278.930	423.091	476.030	459.247	496.007	352.447	461.900	307.377	514.918	220.905	332.102	211.950	0.00056876	0.00012255	3.8991e-05	1218.5	4.8259e-07	6.5073e-07	1273.3	259.86	7.6081e-07	1.2632e-06	320.56	90.145	71.692	20.393	1.5221e-06	28.536	3.3817e-05	3.5325e-05	8.7738e-06	1031.1	3.5583e-07	3.8946e-07	1054.9	204.69	3.782e-07	4.0263e-07	243.72	69.054	55.485	15.999	3.6825e-07	21.419	484.451	268.231	260.477	188.750	525.553	183.404	188.219	195.361	288.590	250.749	195.145	201.485	201.930	209.556	301.209	208.473	-8191	255	
772.539	1	1	0	0	0.10696	0.097671	0.10742	0.14041	0.20805	0.14858	0.38694	0.10945	0.071744	0.013871	0.11793	0.10234	0.11799	0.13081	0.055406	0.24544	-3.9167	-4.4333	-4.5646	-4.2104	-4.7979	-4.5917	-4.3917	-4.8125	-4.2812	-4.3542	-4.8021	-4.0312	-4.7146	-4.4729	-4.0875	-4.7063	349.090	360.954	183.258	521.367	233.589	439.952	489.360	474.505	438.669	202.171	368.168	347.022	422.743	218.544	210.941	490.094	0.00061039	5.6572e-05	5.8596e-05	1222.2	1.3595e-06	1.0528e-06	1279.5	260.44	1.8322e-06	4.7806e-07	321.75	90.4	71.761	20.605	6.6787e-08	28.527	3.8103e-05	3.6649e-05	9.1275e-06	1035.1	3.9479e-07	3.8035e-07	1056.8	205.56	3.9616e-07	3.7847e-07	244.32	68.999	55.516	15.942	3.3266e-07	21.42	480.428	424.037	247.133	188.606	264.329	327.299	188.348	195.512	306.023	193.063	195.513	201.210	201.684	209.455	517.397	208.810	-8191	255	
772.635	1	1	0	0	0.191	0.098409	0.060028	0.32242	0.20824	0.31655	0.30904	0.018317	0.076687	0.069892	0.37141	0.03932	0.11587	0.041005	0.14637	0.034289	-4.0521	-4.0854	-4.6583	-4.3958	-4.5229	-4.5687	-4.1333	-4.7833	-4.3542	-4.4646	-4.6708	-4.3562	-4.5625	-4.5208	-4.0271	-4.9313	390.729	231.298	508.736	488.365	317.157	478.551	478.786	294.278	249.585	188.478	503.091	454.504	479.101	499.795	268.996	520.185	0.00051523	0.00019913	1.6907e-05	1222	5.1068e-07	2.1709e-06	1273.5	259.91	2.05e-06	1.1055e-06	323.13	90.071	71.986	20.421	8.4238e-07	28.662	3.6383e-05	3.1707e-05	7.9096e-06	1034.9	3.7568e-07	3.3194e-07	1056.3	205.08	3.7391e-07	3.3679e-07	244.02	68.944	55.452	15.892	3.2754e-07	21.487	485.516	255.928	402.755	188.631	386.506	346.460	188.275	195.581	270.561	254.640	195.318	201.370	202.051	209.383	371.269	208.577	-8191	255	
772.731	1	1	0	0	0.20459	0.17814	0.070258	0.076072	0.24642	0.18643	0.31135	0.27151	0.11308	0.12697	0.10648	0.089681	0.043815	0.15487	0.20932	0.39555	-4.1292	-4.1813	-4.7146	-4.2042	-4.5667	-4.6167	-4.3333	-4.7417	-4.4396	-4.1979	-4.7438	-4.2583	-4.5396	-4.7708	-4.1292	-4.6271	529.090	314.856	370.863	287.282	405.170	269.022	212.845	486.338	218.977	468.503	532.733	483.774	490.757	418.999	476.634	460.513	0.00063584	0.00014927	1.9938e-05	1220.1	7.0407e-07	1.9131e-06	1271.3	261.04	2.099e-06	1.6882e-06	321.84	90.437	71.782	20.467	5.6591e-07	28.442	3.6378e-05	3.1679e-05	7.9294e-06	1036	3.7487e-07	3.279e-07	1056	205.64	3.7188e-07	3.416e-07	243.97	69.161	55.347	15.909	3.2783e-07	21.488	480.874	306.384	305.900	188.400	281.236	303.277	188.207	195.609	325.256	346.247	195.175	201.367	201.916	209.180	269.163	208.580	-8191	255	
772.852	1	1	0	0	0.21548	0.12944	0.19138	0.33048	0.10099	0.091575	0.26546	0.10123	0.20369	0.11421	0.20911	0.12061	0.22532	0.096511	0.1226	0.041623	-4.1896	-4.1312	-4.6562	-4.325	-4.4354	-4.825	-4.1958	-4.6375	-4.4479	-4.2	-5.0188	-4.2812	-4.6521	-4.7604	-4.1417	-4.5521	383.540	367.824	512.839	529.172	306.545	459.771	455.916	522.818	202.736	358.296	184.354	320.958	512.986	504.338	525.683	346.733	0.00061012	0.00010991	5.2199e-05	1218.4	1.2636e-06	1.654e-07	1274.4	262.24	9.02e-07	1.6181e-07	321.14	89.649	71.806	20.683	1.9434e-06	28.351	3.5071e-05	3.0629e-05	8.0037e-06	1036.8	3.6971e-07	3.2414e-07	1056.6	206.3	3.5545e-07	3.3095e-07	243.84	69.168	55.471	15.92	3.3681e-07	21.503	481.482	213.503	258.178	188.635	370.228	354.130	188.319	195.539	462.204	255.209	195.282	201.225	201.671	209.248	258.515	208.370	-8191	255	
772.924	1	1	0	0	0.18623	0.1137	0.29688	0.14989	0.16979	0.21646	0.15394	0.052948	0.11191	0.16609	0.21584	0.27985	0.2967	0.038161	0.13528	0.25542	-4.2063	-4.1396	-4.6646	-4.5062	-4.3458	-4.7292	-4.1583	-4.5083	-4.5938	-4.1167	-4.8979	-4.3896	-4.3708	-4.7833	-4.3146	-4.3458	517.741	337.469	516.020	436.368	482.283	302.846	432.394	280.032	366.318	284.651	424.375	447.189	300.122	432.327	488.830	339.776	0.00050269	0.00021628	2.581e-06	1222.3	1.5394e-06	1.471e-06	1273.7	261.21	2.2103e-06	5.7063e-07	323.87	89.669	71.336	20.563	5.4666e-07	28.512	3.3302e-05	2.9677e-05	8.4529e-06	1036.4	3.5691e-07	3.2107e-07	1056.9	206.12	3.409e-07	3.2346e-07	244.55	69.199	55.122	15.856	3.3918e-07	21.5	480.732	228.396	289.295	188.463	328.334	307.971	188.460	195.060	274.286	213.446	195.192	201.445	202.138	209.240	249.087	209.017	-8191	255	
773.020	1	1	0	0	0.069762	0.029491	0.13834	0.091039	0.26929	0.14284	0.14298	0.14288	0.070499	0.16985	0.084494	0.18507	0.22335	0.16503	0.096513	0.10015	-4.3354	-3.9896	-4.7562	-4.4146	-4.4021	-4.6792	-4.1167	-4.4187	-4.6333	-4.2542	-4.5646	-4.3604	-4.2312	-4.7375	-4.1312	-4.4208	280.767	298.047	322.317	504.000	487.896	310.309	383.954	204.009	381.016	324.630	436.809	442.666	257.318	232.436	229.558	437.915	0.00062897	0.00010411	3.0939e-05	1217.5	1.4704e-06	1.5602e-06	1274.4	260.42	2.0881e-06	1.5441e-06	323.21	89.906	71.754	20.466	1.198e-06	28.736	3.0626e-05	2.8637e-05	8.5821e-06	1034.6	3.325e-07	3.0489e-07	1056.2	205.22	3.2241e-07	3.1364e-07	244.76	69.084	55.251	15.818	3.561e-07	21.504	479.654	240.473	222.521	188.771	277.255	339.060	188.428	195.617	292.941	298.170	195.297	201.446	201.542	209.205	255.104	208.522	-8191	255	
773.141	1	1	0	0	0.2116	0.28697	0.18989	0.03307	0.25433	0.19011	0.13428	0.071689	0.006194	0.15057	0.16096	0.11375	0.12977	0.17637	0.11107	0.23061	-4.1875	-4.1042	-4.6937	-4.6583	-4.1312	-4.6292	-4.3208	-4.4604	-4.6188	-4.1875	-4.5958	-4.5875	-4.3333	-4.7229	-4.3792	-4.2354	216.091	269.116	368.934	501.352	434.572	205.479	389.120	241.062	195.390	284.974	516.992	205.490	397.564	239.293	433.435	520.587	0.00060996	0.00017573	1.9644e-05	1221.4	2.1758e-06	2.2465e-06	1281.2	261.25	1.5526e-06	8.4402e-07	322.5	89.923	71.847	20.528	5.0712e-07	28.531	3.0037e-05	2.8223e-05	9.0239e-06	1035.1	3.1813e-07	3.0022e-07	1058.1	205.49	3.0504e-07	3.151e-07	244.85	68.916	55.133	15.864	3.5813e-07	21.426	489.898	250.617	367.709	188.729	290.473	292.028	188.288	195.272	275.317	292.183	195.304	201.564	201.912	209.986	242.700	208.670	-8191	255	
773.237	1	1	0	0	0.27002	0.20774	0.10672	0.31629	0.26537	0.074581	0.125	0.080305	0.26414	0.13366	0.13379	0.12152	0.040746	0.24075	0.31525	0.15968	-4.2917	-3.9833	-4.5687	-4.5542	-4.0188	-4.6167	-4.4833	-4.2375	-4.6896	-4.1604	-4.725	-4.5896	-4.1354	-4.5583	-4.2917	-4.3896	279.361	305.526	356.186	445.357	393.662	483.492	445.149	365.794	313.871	307.053	426.300	279.839	483.437	476.862	475.019	441.819	0.00055357	0.00019245	3.7478e-05	1223.4	1.1365e-06	4.9301e-07	1275.7	261.6	9.4967e-07	5.8e-07	323.05	90.039	71.716	20.431	7.2906e-07	28.402	2.973e-05	2.9197e-05	9.0751e-06	1034.7	3.1611e-07	3.1748e-07	1057.9	205.48	2.9774e-07	3.2952e-07	244.62	68.888	55.089	15.853	3.5578e-07	21.398	487.853	235.025	289.068	188.599	295.457	326.051	188.516	195.410	301.858	421.033	195.458	201.360	201.990	209.432	269.839	208.558	-8191	255	
773.331	1	1	0	0	0.077974	0.24494	0.1579	0.19778	0.10362	0.28467	0.32825	0.14703	0.043221	0.084873	0.024865	0.26674	0.15369	0.10664	0.13788	0.13625	-4.4333	-4.2229	-4.4896	-4.6188	-4.0813	-4.6708	-4.5	-4.1125	-4.9354	-4.2667	-4.3562	-4.5021	-4.2292	-4.6687	-4.4583	-4.2021	237.263	247.557	356.326	434.227	261.962	306.524	491.269	287.953	222.730	409.636	425.851	273.280	216.046	490.012	258.432	215.353	0.00062335	0.00019969	7.3084e-05	1216	7.575e-07	9.6865e-07	1274.8	260.8	5.5398e-07	1.0421e-06	322.07	89.903	72.014	20.559	1.3697e-06	28.622	2.9885e-05	3.1882e-05	9.2084e-06	1033	3.1292e-07	3.4831e-07	1056.7	205.13	3.0242e-07	3.537e-07	244.27	68.751	55.222	15.97	3.4533e-07	21.465	488.589	224.184	282.068	188.634	239.381	245.175	188.394	195.173	282.353	285.483	195.102	201.561	201.985	209.387	311.362	209.102	-8191	255	
773.452	1	1	0	0	0.24462	0.14973	0.21954	0.12714	0.18143	0.11266	0.32049	0.21804	0.1979	0.15672	0.17981	0.21261	0.044405	0.11493	0.1723	0.095213	-4.3	-4.1875	-4.4854	-4.7896	-3.9875	-4.5604	-4.5354	-4.3146	-4.6375	-4.2812	-4.4042	-4.6875	-4.25	-4.5	-4.525	-4.1333	290.943	406.038	229.624	475.709	403.738	242.717	480.849	266.446	367.923	309.676	535.200	530.967	212.036	419.721	483.885	186.972	0.00057951	2.6619e-05	3.6798e-05	1219.5	6.8838e-07	9.1158e-07	1278.3	260.9	6.5782e-07	5.3349e-07	322.87	89.571	71.619	20.428	1.4196e-06	28.44	3.0555e-05	3.3745e-05	8.8413e-06	1033.9	3.2989e-07	3.6679e-07	1056.9	204.8	3.2075e-07	3.7099e-07	244.51	68.658	55.25	16.002	3.348e-07	21.453	484.525	508.353	304.640	188.548	530.542	282.637	188.257	195.582	262.034	296.899	195.161	201.575	201.884	209.578	327.351	208.723	-8191	255	
773.548	1	1	0	0	0.15901	0.39134	0.1755	0.16358	0.10454	0.27534	0.30036	0.12334	0.15559	0.11575	0.19344	0.26575	0.098985	0.22709	0.13196	0.13611	-4.275	-4.2021	-4.2271	-4.7937	-4.1708	-4.5604	-4.7208	-4.0583	-4.5917	-4.4812	-4.3979	-4.7396	-4.2667	-4.4708	-4.7188	-4.2167	186.472	383.094	301.645	522.951	468.845	405.720	435.996	483.559	439.591	345.197	395.882	532.760	473.095	245.065	475.458	207.388	0.00054944	0.00011158	5.6312e-05	1223.3	2.2472e-06	1.3068e-06	1280	261.93	3.0171e-07	1.2566e-06	322.06	90.132	71.333	20.455	1.5526e-06	28.46	3.2753e-05	3.3739e-05	8.607e-06	1034.4	3.4755e-07	3.7241e-07	1057.8	205.44	3.466e-07	3.6412e-07	244.44	68.761	55.412	15.998	3.3028e-07	21.391	470.893	237.390	202.276	188.757	300.677	331.264	188.581	195.488	463.779	288.913	195.291	201.329	202.003	209.326	342.349	208.314	-8191	255	
773.620	1	1	0	0	0.014185	0.09549	0.12637	0.12723	0.066818	0.15	0.22064	0.14312	0.076763	0.13206	0.12621	0.21409	0.14034	0.072843	0.09429	0.1199	-4.2625	-4.4563	-4.0687	-4.8021	-4.2083	-4.3688	-4.7083	-4.1937	-4.675	-4.3958	-4.3812	-4.7438	-4.3229	-4.3542	-4.6687	-4.2375	205.583	408.923	502.663	231.535	393.495	274.305	471.762	234.263	339.475	282.254	188.829	452.007	524.606	188.650	468.584	399.121	0.00063602	9.7403e-05	1.5556e-05	1221.8	1.6613e-06	1.667e-06	1275.5	259.99	1.2858e-06	1.2633e-06	323.95	90.531	71.637	20.451	9.6222e-07	28.618	3.485e-05	3.336e-05	8.6729e-06	1035.7	3.7932e-07	3.7165e-07	1057	205.53	3.8141e-07	3.6323e-07	244.83	68.979	55.696	15.968	3.1687e-07	21.426	476.531	505.334	247.126	188.812	261.122	361.290	188.300	195.454	262.205	318.634	195.207	201.166	201.472	209.437	333.824	208.703	-8191	255	
773.716	1	1	0	0	0.20462	0.23126	0.005065	0.18215	0.13923	0.35787	0.15057	0.10833	0.054319	0.021109	0.19584	0.15695	0.079886	0.054255	0.17029	0.12535	-4.2042	-4.4187	-4.2229	-4.7646	-4.2479	-4.3021	-4.8521	-4.2167	-4.5042	-4.5458	-4.2646	-4.6125	-4.2271	-4.2937	-4.7958	-4.1146	446.764	375.954	294.086	473.416	305.760	377.378	503.222	510.728	217.896	281.154	514.520	286.548	376.457	402.801	419.243	526.973	0.00066541	0.00018319	5.5074e-05	1220.6	4.0189e-07	1.263e-06	1282.9	261.45	1.3039e-06	1.0916e-06	322.5	90.15	71.735	20.524	1.3411e-06	28.652	3.585e-05	3.1256e-05	8.2919e-06	1036.3	3.824e-07	3.5006e-07	1057.9	205.57	3.8725e-07	3.3825e-07	244.42	69.055	55.55	15.978	3.1785e-07	21.509	472.854	279.732	332.493	188.700	236.104	310.343	188.512	195.436	277.675	367.135	195.532	201.305	201.822	209.294	256.281	208.700	-8191	255	
773.812	1	1	0	0	0.18025	0.15057	0.19942	0.3904	0.031564	0.14961	0.18261	0.19249	0.081143	0.054616	0.095924	0.16987	0.11382	0.18808	0.099237	0.077881	-4.2479	-4.5	-4.2063	-4.6729	-4.3229	-4.3021	-4.8396	-4.3125	-4.5146	-4.5146	-4.2396	-4.6521	-4.3833	-4.2625	-4.7208	-4.4437	511.973	435.109	478.202	510.655	234.900	358.025	370.331	414.477	431.817	264.377	387.911	451.666	404.926	457.291	260.799	178.390	0.00059058	9.2074e-05	4.0689e-05	1222.8	2.3969e-06	1.7718e-06	1276.1	261.98	4.994e-07	1.79e-06	322.57	90.28	71.743	20.585	1.091e-06	28.562	3.625e-05	3.0412e-05	8.2152e-06	1037.3	3.7839e-07	3.4096e-07	1057.9	206.22	3.7931e-07	3.2661e-07	244.79	69.231	55.488	15.978	3.0577e-07	21.532	475.337	214.421	306.421	188.532	281.812	295.665	188.379	195.358	200.702	344.132	195.157	201.538	201.867	209.558	255.424	208.515	-8191	255	
773.932	1	1	0	0	0.15609	0.19232	0.11053	0.27241	0.14434	0.18054	0.16651	0.11517	0.17905	0.30224	0.10011	0.13834	0.10192	0.15255	0.16189	0.031875	-4.05	-4.6292	-4.0312	-4.7146	-4.3958	-4.0729	-4.9083	-4.2167	-4.4292	-4.7104	-4.1521	-4.7083	-4.4313	-4.0375	-4.675	-4.3542	237.627	524.268	333.917	183.146	311.358	326.605	246.056	184.717	382.990	264.073	431.404	535.764	227.580	513.830	481.804	479.167	0.00067874	0.00014371	4.6353e-05	1225.9	2.3097e-06	5.9109e-07	1276.7	260.6	5.7364e-07	6.2469e-07	324.72	90.636	72.212	20.494	1.151e-06	28.69	3.4693e-05	2.9359e-05	8.1281e-06	1039.7	3.5783e-07	3.3342e-07	1058.5	205.99	3.5303e-07	3.0745e-07	244.95	69.258	55.462	15.934	3.123e-07	21.584	478.974	253.434	243.630	188.698	289.739	359.035	188.258	195.439	303.750	408.209	195.219	201.368	201.976	209.133	272.812	208.381	-8191	255	
774.029	1	1	0	0	0.14629	0.19212	0.18412	0.23552	0.21708	0.2786	0.2021	0.11535	0.057695	0.19458	0.11974	0.15001	0.10596	0.094228	0.15851	0.16278	-3.9833	-4.7354	-4.3417	-4.7458	-4.6312	-4.0917	-4.7854	-4.5	-4.3333	-4.7979	-4.3042	-4.5771	-4.5625	-4.1271	-4.8438	-4.4125	523.336	389.438	486.256	461.234	218.092	514.161	509.487	447.281	369.279	529.710	437.210	319.486	341.777	445.565	501.768	517.287	0.00060357	0.00012458	4.1687e-05	1228.1	1.6517e-06	3.7694e-07	1278.1	262.21	1.6113e-06	1.1456e-06	323.27	90.173	71.627	20.546	1.4652e-06	28.677	3.2935e-05	2.7959e-05	8.2381e-06	1039.6	3.3619e-07	3.1342e-07	1059.3	206.48	3.3522e-07	2.9807e-07	245.27	69.321	55.388	15.939	3.2971e-07	21.587	482.840	341.891	290.000	188.625	335.279	324.971	188.263	195.707	320.511	275.456	195.200	201.445	201.841	209.300	270.648	208.613	-8191	255	
774.125	1	1	0	0	0.030214	0.17064	0.030167	0.083144	0.064723	0.097488	0.23497	0.26269	0.12764	0.18714	0.21215	0.081826	0.14116	0.12429	0.056174	0.16085	-4.05	-4.7208	-4.2188	-4.5958	-4.6042	-4.2542	-4.8708	-4.3896	-4.3479	-4.8812	-4.3583	-4.5979	-4.7333	-4.2354	-4.5625	-4.5646	338.338	391.057	462.282	248.397	309.192	535.014	432.474	532.093	195.024	299.483	496.347	318.492	379.419	194.277	487.518	402.832	0.00055156	4.2283e-05	5.4639e-05	1223.4	5.0439e-07	1.8032e-06	1277	262.08	5.3373e-07	1.1888e-06	323.83	90.381	72.03	20.706	2.7506e-07	28.659	3.1671e-05	2.7228e-05	8.7135e-06	1039.4	3.2111e-07	3.1116e-07	1060.8	206.25	3.2943e-07	2.965e-07	245.72	69.332	55.357	15.979	3.554e-07	21.57	488.726	238.852	239.194	188.765	452.280	313.346	188.577	195.367	304.261	315.182	195.142	201.615	201.849	209.729	313.729	208.659	-8191	255	
774.221	1	1	0	0	0.2639	0.15843	0.055481	0.15651	0.16462	0.076544	0.068277	0.23877	0.17842	0.11274	0.28974	0.21631	0.056176	0.24995	0.13055	0.15918	-3.9125	-4.7271	-4.3708	-4.6146	-4.6396	-4.0875	-4.5938	-4.5125	-4.0667	-4.6583	-4.3125	-4.3958	-4.7812	-4.1438	-4.5667	-4.5667	436.871	355.065	222.260	460.523	410.936	509.099	490.965	454.345	464.343	258.841	393.456	480.808	321.241	366.068	434.852	291.271	0.00060594	8.9862e-05	1.1481e-05	1226.7	1.0826e-06	1.1277e-06	1282	261.95	1.3795e-06	9.4905e-07	324.2	90.114	71.507	20.559	1.1219e-06	28.453	3.1736e-05	2.8218e-05	9.3562e-06	1040.8	3.22e-07	3.2076e-07	1063.5	206.27	3.2271e-07	3.0939e-07	246.3	69.036	55.255	15.971	3.7059e-07	21.468	475.520	219.215	498.327	188.689	293.835	327.512	188.411	195.641	260.384	300.994	195.508	201.457	202.175	209.136	303.629	208.494	-8191	255	
774.317	1	1	0	0	0.13305	0.0344	0.055658	0.13146	0.089698	0.42133	0.1376	0.20621	0.052982	0.059195	0.076162	0.26108	0.32769	0.14939	0.11066	0.088673	-3.8063	-4.6646	-4.3833	-4.45	-4.7792	-4.1417	-4.7104	-4.6104	-4.2458	-4.8063	-4.4354	-4.3292	-4.7708	-4.1125	-4.4271	-4.6833	441.544	396.881	364.947	190.961	404.073	182.449	461.143	222.811	280.478	503.411	432.706	482.827	204.334	515.090	228.322	455.667	0.00053831	6.4128e-05	6.6562e-05	1223.4	6.7593e-07	9.1243e-07	1277.2	262.49	1.9095e-06	9.7982e-07	323.6	90.33	71.965	20.637	4.638e-07	28.803	3.143e-05	2.9837e-05	9.4387e-06	1039.8	3.0953e-07	3.3592e-07	1061.8	206.15	3.1577e-07	3.3065e-07	245.56	69.136	55.213	16.025	3.6082e-07	21.554	486.021	269.190	295.956	188.697	251.746	310.541	188.425	195.428	293.576	335.503	195.150	201.276	201.830	209.239	263.517	208.648	-8191	255	
774.413	1	1	0	0	0.10799	0.037533	0.14041	0.1665	0.095937	0.11435	0.31237	0.28121	0.14073	0.061541	0.15843	0.089748	0.26586	0.09564	0.089895	0.14034	-3.825	-4.8042	-4.3521	-4.4437	-4.8208	-4.2729	-4.4708	-4.7083	-4.3229	-4.6146	-4.4104	-4.2937	-4.825	-4.0771	-4.3583	-4.7229	273.897	423.153	517.020	424.690	231.505	481.737	460.499	204.585	439.199	502.345	505.727	225.785	185.713	259.664	234.578	411.459	0.00064105	0.00013239	9.6213e-05	1226.9	1.4963e-06	1.1451e-06	1276.9	261.24	2.1548e-06	9.8797e-07	323.69	90.677	72.118	20.681	8.3509e-07	28.562	3.0101e-05	3.1209e-05	8.8866e-06	1039.1	3.0443e-07	3.4967e-07	1060.4	205.73	3.1542e-07	3.5414e-07	245.59	69.117	55.275	16.056	3.4565e-07	21.468	478.530	186.558	268.536	188.566	219.045	284.874	188.590	195.378	267.252	275.396	195.207	201.259	202.052	209.402	241.715	208.293	-8191	255	
774.532	1	1	0	0	0.12391	0.13807	0.082087	0.011887	0.11213	0.21118	0.17983	0.18287	0.18848	0.27739	0.13266	0.078352	0.32152	0.16178	0.12897	0.17718	-3.8375	-4.4771	-4.5146	-4.2583	-4.7125	-4.2521	-4.5458	-4.8458	-4.2083	-4.6167	-4.5396	-4.1417	-4.675	-4.5333	-4.4062	-4.7583	389.670	249.309	322.878	379.937	496.799	198.036	483.562	530.492	492.901	536.278	332.515	231.962	505.943	338.453	373.922	502.070	0.00060181	0.00011393	1.465e-05	1229.3	1.8417e-06	1.4889e-06	1283	261.92	1.0589e-06	7.5805e-07	322.84	90.454	71.906	20.557	5.4169e-07	28.632	3.0528e-05	3.2447e-05	8.3807e-06	1039.2	3.0453e-07	3.5461e-07	1060.1	205.72	3.2078e-07	3.5554e-07	244.67	69.037	55.288	16.03	3.2966e-07	21.389	483.241	280.639	295.660	188.721	201.347	254.585	188.305	195.407	261.415	262.605	195.388	201.514	202.036	209.206	318.768	208.801	-8191	255	
774.628	1	1	0	0	0.070258	0.16527	0.028916	0.16492	0.16034	0.2091	0.25686	0.050306	0.13754	0.21699	0.16746	0.076338	0.080925	0.23402	0.15458	0.17336	-3.8729	-4.6354	-4.6875	-4.325	-4.7417	-4.3708	-4.4688	-4.7812	-4.0875	-4.4667	-4.8	-4.0646	-4.8292	-4.3958	-4.1458	-4.925	510.345	373.201	518.918	501.750	177.554	215.924	466.019	216.269	397.589	187.647	468.076	364.159	514.598	399.800	191.351	501.139	0.0006083	0.0001417	3.9105e-05	1225.4	1.2811e-06	8.1422e-07	1282.8	261.04	5.55e-07	1.0056e-06	324.8	89.921	71.666	20.65	1.0511e-06	28.624	3.1579e-05	3.292e-05	8.1456e-06	1037.6	3.3285e-07	3.5742e-07	1060	205.35	3.4386e-07	3.5997e-07	244.86	68.945	55.34	16.041	3.152e-07	21.427	487.372	515.521	290.302	188.729	257.895	312.226	188.330	195.223	531.738	323.377	195.382	201.690	201.815	209.435	280.578	208.758	-8191	255	
774.724	1	1	0	0	0.033447	0.15812	0.26161	0.13537	0.13284	0.099073	0.28561	0.16573	0.21621	0.12473	0.03665	0.050641	0.097462	0.21331	0.15278	0.12438	-3.9417	-4.5396	-4.7417	-4.1062	-4.6208	-4.4667	-4.3	-4.8833	-4.2583	-4.4146	-4.6604	-4.225	-4.6979	-4.5771	-4.1875	-4.7104	464.462	328.359	202.503	519.833	267.447	468.202	212.473	504.824	417.758	329.382	464.024	251.334	393.597	513.684	318.491	225.982	0.00053283	0.00013529	2.4993e-05	1223.4	1.8387e-06	1.6765e-06	1274.4	261.63	1.0903e-06	1.5385e-06	323.22	90.015	72.237	20.665	1.1545e-06	28.498	3.2916e-05	3.1526e-05	7.7595e-06	1036.8	3.4507e-07	3.3455e-07	1055.6	205.51	3.4949e-07	3.3372e-07	244.44	68.86	55.504	15.956	3.0153e-07	21.398	483.984	501.497	225.126	188.658	272.081	298.035	188.268	195.271	293.057	337.138	195.370	201.536	201.898	209.514	230.628	208.745	-8191	255	
774.821	1	1	0	0	0.027045	0.13281	0.16146	0.16329	0.19282	0.12704	0.11818	0.076607	0.11763	0.16874	0.11354	0.22249	0.21551	0.11053	0.12345	0.089015	-4	-4.3271	-4.6854	-4.4313	-4.6021	-4.6042	-4.3562	-4.7688	-4.4396	-4.3938	-4.8542	-4.2688	-4.6958	-4.5271	-4.2417	-4.975	285.050	393.529	495.299	397.289	443.868	396.118	473.262	288.644	402.493	513.412	393.876	399.617	492.533	408.970	328.796	521.515	0.00048177	0.00012852	4.8955e-05	1220.3	1.7685e-06	9.3959e-07	1275.6	261.86	1.3545e-06	5.4524e-07	323.67	90.578	71.478	20.442	2.3102e-06	28.514	3.3258e-05	2.9457e-05	7.2981e-06	1033.2	3.4439e-07	3.0497e-07	1054.2	205.3	3.4513e-07	3.112e-07	243.94	68.914	55.309	15.877	2.9514e-07	21.404	491.431	348.101	259.657	188.606	303.678	323.570	188.536	195.432	353.049	241.186	195.218	201.390	201.615	209.155	312.944	208.943	-8191	255	
774.917	1	1	0	0	0.22805	0.2857	0.18726	0.063541	0.10911	0.24566	0.16868	0.12451	0.18852	0.07723	0.081585	0.32364	0.13152	0.17104	0.095508	0.13914	-4.0417	-4.3854	-4.7208	-4.3479	-4.4458	-4.6292	-4.4125	-4.5312	-4.2708	-4.35	-4.7021	-4.3042	-4.5646	-4.6083	-4.0813	-4.6917	181.006	224.402	503.949	312.949	257.406	401.753	453.143	207.744	207.248	469.883	290.681	180.993	358.849	463.455	251.864	480.601	0.00066865	0.00014143	1.1542e-05	1220.4	1.2925e-06	4.4599e-08	1280	262.5	1.0803e-06	1.1394e-06	323.58	90.346	71.942	20.429	2.2975e-06	28.691	3.2834e-05	2.8132e-05	7.1842e-06	1035	3.4184e-07	2.8903e-07	1057.5	205.91	3.2942e-07	2.9122e-07	243.34	68.938	55.273	15.776	2.5855e-07	21.344	472.928	276.611	513.639	188.681	270.096	524.083	188.547	195.305	312.723	353.001	195.637	201.180	201.950	209.358	287.613	208.901	-8191	255	
775.013	1	1	0	0	0.030949	0.17398	0.17406	0.15509	0.032258	0.089299	0.11459	0.053772	0.14305	0.11472	0.073769	0.22269	0.093195	0.11711	0.15379	0.15727	-3.9417	-4.225	-4.8063	-4.4583	-4.4917	-4.675	-4.3146	-4.5896	-4.5646	-4.2604	-4.6667	-4.1604	-4.5437	-4.6438	-4.1896	-4.65	230.507	444.752	408.675	205.088	376.321	394.398	295.026	196.450	460.369	454.891	534.093	348.674	349.754	455.547	300.021	442.701	0.00054496	8.7063e-05	1.4064e-05	1212	1.7026e-06	1.5705e-06	1267.6	260.11	3.0413e-07	1.3109e-06	322.1	90.171	71.242	20.505	1.4991e-06	28.518	2.7479e-05	2.3671e-05	6.059e-06	1027	2.7987e-07	2.4268e-07	1046.4	204.02	2.606e-07	2.4771e-07	241.56	68.44	54.812	15.737	2.456e-07	21.281	478.617	225.860	236.808	188.800	306.230	290.371	188.381	195.226	323.573	361.579	195.357	201.375	201.742	209.652	266.738	208.964	-8191	255	
775.109	1	1	0	0	0.13783	0.11654	0.035174	0.16854	0.14745	0.094016	0.24733	0.15058	0.2755	0.12684	0.12538	0.12964	0.11363	0.23602	0.27833	0.1042	-4.3396	-4.1687	-4.7042	-4.4958	-4.4833	-4.6854	-4.425	-4.5521	-4.5062	-4.1042	-4.6188	-4.2271	-4.425	-4.7688	-4.1229	-4.4667	312.289	400.778	285.153	533.607	386.599	505.922	486.733	444.619	446.081	342.561	481.999	324.288	179.254	241.757	350.159	462.036	0.00050814	4.2101e-05	3.23e-05	1206.5	1.3713e-06	4.8228e-07	1267.5	260.29	1.1732e-06	7.6945e-07	320.66	90.55	71.685	20.354	1.2248e-06	28.436	2.4824e-05	2.1776e-05	6.0293e-06	1020.4	2.5982e-07	2.29e-07	1044.8	203.44	2.5268e-07	2.426e-07	241.44	68.471	54.753	15.714	2.6687e-07	21.298	475.307	493.073	234.016	188.670	275.323	439.346	188.473	195.705	288.045	335.297	195.296	201.292	201.732	209.421	192.090	208.765	-8191	255	
775.228	1	1	0	0	0.080895	0.10222	0.2029	0.055131	0.098552	0.063171	0.21745	0.097718	0.11393	0.099723	0.13028	0.1252	0.32521	0.079951	0.014439	0.17498	-4.2312	-4.1312	-4.5583	-4.5062	-4.2271	-4.7396	-4.3979	-4.575	-4.7229	-4.2021	-4.8229	-4.4792	-4.3292	-4.7542	-4.2479	-4.3625	330.205	475.775	314.061	474.965	365.758	353.111	410.574	497.798	218.309	415.830	510.823	493.687	531.628	272.827	328.200	181.289	0.00054052	0.00014019	2.8221e-05	1209.2	7.9958e-07	1.2351e-06	1262.3	260.22	1.8361e-06	6.2904e-07	320.57	89.552	71.6	20.348	3.3413e-07	28.537	2.4565e-05	2.2186e-05	6.7287e-06	1021.1	2.5682e-07	2.31e-07	1044.3	203.07	2.4335e-07	2.3373e-07	241.79	68.297	54.724	15.719	2.7473e-07	21.315	475.950	245.080	282.436	188.708	275.629	276.885	188.348	195.626	295.234	333.109	195.402	201.280	201.705	209.506	202.562	208.490	-8191	255	
775.324	1	1	0	0	0.16124	0.1013	0.15876	0.14985	0.085251	0.14429	0.092758	0.15872	0.057507	0.27117	0.010752	0.16385	0.11874	0.24769	0.24673	0.11605	-4.3521	-4.125	-4.5062	-4.6333	-4.1188	-4.8063	-4.4646	-4.2792	-4.7333	-4.1167	-4.5042	-4.6583	-4.2771	-4.6396	-4.2708	-4.4812	261.031	524.571	384.117	485.928	200.809	422.827	520.056	389.573	359.099	256.677	431.723	506.729	393.845	342.009	207.927	226.680	0.00058331	0.00012891	4.6278e-05	1208.1	1.9206e-06	1.9011e-06	1263.2	260.3	1.5456e-06	3.3187e-07	321.43	90.198	71.608	20.558	7.9042e-07	28.618	2.3377e-05	2.2252e-05	6.9408e-06	1021	2.5235e-07	2.3527e-07	1045.4	202.93	2.3963e-07	2.4205e-07	242.17	68.423	54.681	15.788	2.7672e-07	21.296	478.433	189.744	200.824	188.894	261.829	268.236	188.541	195.505	301.162	461.332	194.941	201.559	201.861	209.552	330.827	208.198	-8191	255	
775.420	1	1	0	0	0.19149	0.17667	0.23804	0.24608	0.12033	0.25606	0.28462	0.16888	0.081571	0.081449	0.13769	0.036109	0.39631	0.15336	0.19227	0.072344	-4.2417	-4.2188	-4.5375	-4.6896	-4.1375	-4.6125	-4.6813	-4.3292	-4.8208	-4.3	-4.5979	-4.6729	-4.1104	-4.6937	-4.4375	-4.2688	266.634	464.170	380.237	516.477	534.956	192.251	495.635	536.979	360.242	530.004	510.500	298.480	212.671	221.489	488.779	261.036	0.00064258	9.0628e-05	3.7509e-05	1208.3	1.7489e-06	5.4539e-07	1261.5	260.56	2.2764e-06	1.2299e-06	320.69	89.581	71.435	20.477	1.0242e-06	28.464	2.2836e-05	2.2316e-05	6.9175e-06	1020.5	2.3849e-07	2.3624e-07	1045.4	203.47	2.266e-07	2.4808e-07	242.06	68.276	54.602	15.794	2.6822e-07	21.262	483.504	267.314	180.843	188.708	287.238	523.869	188.398	195.603	255.278	251.408	195.315	201.531	202.152	209.012	289.049	208.704	-8191	255	
775.494	1	1	0	0	0.082737	0.087994	0.16865	0.19188	0.17902	0.075943	0.042809	0.21817	0.18619	0.17455	0.21793	0.18513	0.36112	0.22194	0.12904	0.32253	-4.3896	-4.2396	-4.4583	-4.7438	-4.1542	-4.6646	-4.5979	-4.3021	-4.6354	-4.1896	-4.5521	-4.7646	-4.1937	-4.6479	-4.5021	-4.2104	537.280	220.419	201.406	467.793	489.743	201.518	428.583	484.689	206.475	465.487	288.477	392.854	483.870	223.373	353.929	410.093	0.00059037	0.00011296	3.6623e-05	1202.3	1.1215e-06	6.1005e-07	1262.9	259.94	1.2017e-06	2.0154e-06	322.06	89.355	71.743	20.495	1.6306e-06	28.433	2.2654e-05	2.4234e-05	6.881e-06	1019.6	2.3859e-07	2.6779e-07	1044	203.12	2.3725e-07	2.7306e-07	242.47	68.215	54.612	15.809	2.6329e-07	21.26	485.375	292.787	285.337	188.945	319.276	265.371	188.432	195.487	255.239	346.178	195.577	201.437	201.646	209.607	323.703	208.969	-8191	255	
775.612	1	1	0	0	0.25687	0.1627	0.024084	0.21652	0.12481	0.11108	0.2327	0.18267	0.11021	0.095035	0.20981	0.050442	0.11348	0.020113	0.087166	0.076387	-4.4146	-4.3667	-4.3562	-4.775	-4.3417	-4.5771	-4.5896	-4.3	-4.7479	-4.4646	-4.4583	-4.6167	-4.125	-4.6687	-4.6396	-4.1188	435.397	218.665	488.746	508.149	534.387	290.081	391.419	473.363	183.065	316.783	412.763	532.920	215.100	497.844	506.461	443.944	0.00055492	5.4617e-05	4.7631e-05	1203.1	1.7486e-06	3.8132e-07	1259.5	260.35	4.578e-07	7.3799e-07	322.32	89.834	71.104	20.568	7.3648e-07	28.45	2.3085e-05	2.5128e-05	6.6324e-06	1018	2.4605e-07	2.7468e-07	1041	202.74	2.3381e-07	2.7244e-07	241.6	68.052	54.489	15.822	2.4344e-07	21.197	480.661	214.082	240.143	188.588	245.842	235.098	188.574	195.601	274.322	231.607	195.303	201.327	201.758	209.439	376.535	208.828	-8191	255	
775.709	1	1	0	0	0.14942	0.12661	0.16668	0.32955	0.1075	0.22199	0.18473	0.084046	0.1121	0.0056272	0.0489	0.14853	0.090477	0.10062	0.085504	0.10484	-4.4708	-4.2958	-4.2708	-4.7917	-4.125	-4.6354	-4.9604	-4.1813	-4.7812	-4.35	-4.4625	-4.7208	-4.3125	-4.4229	-4.6542	-4.3458	430.059	375.868	269.299	502.351	515.160	262.965	474.105	338.370	274.633	208.243	525.619	493.597	453.765	509.078	413.226	450.939	0.00056216	0.00012479	2.4906e-05	1204.9	2.6974e-07	1.1992e-06	1258.5	259.48	2.0403e-06	8.5418e-07	321.37	89.022	71.293	20.386	7.0362e-07	28.473	2.3649e-05	2.4576e-05	6.3354e-06	1017.2	2.5596e-07	2.7361e-07	1038.2	202.45	2.5282e-07	2.6851e-07	241.01	67.937	54.568	15.756	2.3878e-07	21.196	482.565	297.573	323.352	188.771	218.158	276.108	188.370	195.376	258.120	301.037	195.446	201.412	201.507	209.178	296.439	208.857	-8191	255	
775.805	1	1	0	0	0.161	0.13839	0.10051	0.14131	0.17986	0.056695	0.24551	0.15408	0.26724	0.082681	0.10507	0.15697	0.18503	0.19645	0.16969	0.12966	-4.4292	-4.4333	-4.0792	-5.0292	-4.1771	-4.3646	-4.6604	-4.2979	-4.6917	-4.5167	-4.125	-4.6729	-4.2438	-4.5042	-4.6083	-4.2229	497.845	446.824	445.298	422.866	384.818	266.664	468.114	349.737	289.876	528.868	477.405	443.139	485.961	258.646	520.186	522.979	0.00062665	6.3537e-05	1.5934e-05	1202.9	1.6779e-06	8.8828e-07	1255.2	259.3	1.26e-06	9.1901e-07	321.06	89.601	71.021	20.494	8.1605e-07	28.429	2.6091e-05	2.4334e-05	6.3402e-06	1014.8	2.7313e-07	2.6594e-07	1037.9	202.31	2.7227e-07	2.5732e-07	240.94	67.935	54.602	15.737	2.2987e-07	21.161	477.566	237.534	247.087	188.621	229.020	358.023	188.521	195.596	248.321	355.838	195.616	201.415	201.710	209.827	355.211	208.458	-8191	255	
775.901	1	1	0	0	0.17277	0.10334	0.18204	0.038098	0.11431	0.16313	0.10937	0.030754	0.1686	0.16108	0.25182	0.21893	0.16488	0.085971	0.18823	0.1775	-4.1708	-4.4646	-4.1292	-4.7375	-4.4313	-4.6104	-4.95	-4.1583	-4.6771	-4.4458	-4.1979	-4.8083	-4.3021	-4.4021	-4.7042	-4.1833	278.381	253.056	424.426	243.286	269.882	242.389	439.976	466.336	450.203	186.411	483.235	505.163	445.490	295.980	404.979	502.534	0.00056836	0.00017881	2.254e-05	1199.7	7.3251e-07	1.1034e-06	1257.2	258.62	1.7289e-06	7.2718e-07	320.66	89.608	70.902	20.393	8.4797e-07	28.477	2.6724e-05	2.2871e-05	6.0209e-06	1013.2	2.7646e-07	2.5256e-07	1037.1	202.48	2.8159e-07	2.5032e-07	240.52	67.901	54.521	15.704	2.2707e-07	21.186	485.477	301.995	222.707	188.844	217.939	246.624	188.535	195.480	259.016	274.719	195.483	201.399	201.995	209.351	288.392	208.596	-8191	255	
776.022	1	1	0	0	0.19338	0.21704	0.26341	0.20982	0.30401	0.24957	0.20199	0.099557	0.20849	0.17399	0.11166	0.27006	0.11884	0.062384	0.023797	0.22895	-4.1417	-4.4917	-4.0542	-4.8771	-4.3812	-4.3667	-4.7688	-4.3187	-4.525	-4.6125	-4.3	-4.6979	-4.4938	-4.1458	-4.9333	-4.2979	380.153	536.487	180.142	504.207	306.312	341.421	452.935	472.069	486.702	505.864	534.118	177.356	189.573	509.645	492.613	463.978	0.00074443	4.2975e-05	2.6265e-05	1199	2.2402e-06	1.6328e-06	1252.7	257.87	1.2811e-06	5.0619e-07	320.28	89.143	70.947	20.416	2.5036e-07	28.423	2.6827e-05	2.2136e-05	6.0545e-06	1013.3	2.8223e-07	2.5097e-07	1036.4	202.28	2.7713e-07	2.392e-07	240.59	67.914	54.347	15.661	2.2949e-07	21.214	481.557	244.851	208.778	188.693	273.138	243.451	188.455	195.270	358.254	286.121	195.119	201.430	201.860	209.328	346.118	209.010	-8191	255	
776.093	1	1	0	0	0.20169	0.24294	0.24148	0.05051	0.17667	0.18234	0.067529	0.11046	0.048699	0.11102	0.18387	0.083767	0.030194	0.27934	0.24122	0.17003	-3.9062	-4.6146	-4.0583	-4.6667	-4.5	-4.1562	-4.9396	-4.3083	-4.3708	-4.7417	-4.075	-4.5896	-4.5833	-4.1271	-4.6937	-4.3375	356.945	357.832	393.345	368.882	520.054	242.502	471.161	330.907	229.086	387.834	416.813	442.880	453.233	262.635	522.088	445.406	0.00062448	4.5087e-05	1.0263e-05	1196.4	1.3166e-06	9.574e-07	1249.7	257.39	1.4232e-06	4.8603e-07	320.81	88.872	71.05	20.264	1.0234e-06	28.397	2.5948e-05	2.1267e-05	5.8276e-06	1011.8	2.5603e-07	2.3403e-07	1032.9	202.05	2.5475e-07	2.2164e-07	240.39	67.768	54.183	15.604	2.2584e-07	21.196	484.066	273.023	214.704	188.833	262.547	322.446	188.635	195.459	208.869	381.894	195.391	201.247	202.185	209.519	231.098	208.960	-8191	255	
776.214	1	1	0	0	0.12232	0.071625	0.13157	0.20501	0.14803	0.1796	0.18418	0.27615	0.095248	0.13904	0.036396	0.041026	0.17665	0.11713	0.12756	0.25046	-4.15	-4.6979	-4.1583	-4.6458	-4.6188	-4.2479	-4.8875	-4.3604	-4.2125	-4.8208	-4.3104	-4.5271	-4.6625	-4.1375	-4.8104	-4.4083	454.780	336.522	346.112	272.596	385.280	390.604	525.652	431.334	289.051	370.423	303.763	292.068	414.778	240.568	334.334	523.817	0.00059407	0.00011952	3.6926e-05	1188.8	1.8561e-06	9.2733e-07	1245.5	257.56	1.426e-06	1.1745e-06	318.95	89.228	70.197	20.436	1.8497e-06	28.26	2.4444e-05	1.9914e-05	5.9071e-06	1006.2	2.3741e-07	2.2576e-07	1027.6	201.71	2.4464e-07	2.1435e-07	239.68	67.763	53.985	15.615	2.494e-07	21.15	482.315	265.489	248.227	188.582	310.984	443.499	188.673	195.607	280.686	308.041	195.214	201.334	202.140	209.696	272.922	208.471	-8191	255	
776.310	1	1	0	0	0.22239	0.2558	0.17328	0.15921	0.11339	0.095699	0.18803	0.047769	0.14158	0.083476	0.066674	0.11222	0.058302	0.068216	0.094784	0.29625	-4.0479	-4.6687	-4.1646	-4.4479	-4.5083	-4.1646	-4.875	-4.55	-4.3625	-4.8	-4.2438	-4.4625	-4.7083	-4.3458	-4.7458	-4.5375	517.153	496.175	446.337	479.594	304.533	464.770	503.895	382.756	215.500	244.514	512.272	450.515	462.317	338.986	526.199	309.514	0.00058815	0.00010315	4.4371e-05	1191.4	2.157e-06	5.4952e-07	1251.3	257.17	2.0724e-07	6.7336e-07	318.85	88.89	70.996	20.422	1.6203e-06	28.418	2.4141e-05	2.015e-05	6.4868e-06	1007.4	2.3846e-07	2.2851e-07	1031	201.19	2.4069e-07	2.1524e-07	240.36	67.727	53.959	15.638	2.5231e-07	21.138	484.768	270.671	231.902	188.735	279.082	316.770	188.494	195.427	521.918	392.329	195.331	201.350	202.178	209.915	254.348	208.883	-8191	255	
776.404	1	1	0	0	0.14565	0.15757	0.16637	0.29737	0.21064	0.075723	0.2013	0.20119	0.25235	0.095266	0.19566	0.12063	0.084942	0.13886	0.19743	0.087832	-3.9542	-4.8479	-4.1438	-4.5521	-4.6125	-4.0229	-4.8	-4.5833	-4.3604	-4.875	-4.3896	-4.4646	-4.8396	-4.3146	-4.5792	-4.4542	489.100	254.746	216.531	200.586	489.711	222.945	454.943	434.029	514.687	200.279	269.308	271.701	408.455	464.374	216.747	480.167	0.00058241	0.00020794	9.127e-06	1189.2	7.2326e-07	8.417e-07	1247.3	256.66	1.0378e-06	3.9415e-07	318.31	89.067	71.104	20.508	9.1628e-07	28.378	2.2558e-05	1.9615e-05	6.3425e-06	1006.1	2.2018e-07	2.1955e-07	1030.7	201.21	2.2487e-07	2.146e-07	239.84	67.708	54.181	15.643	2.5735e-07	21.068	473.376	217.812	299.497	188.751	275.020	245.811	188.543	195.612	260.294	311.605	195.392	201.259	202.261	209.646	287.624	208.675	-8191	255	
776.502	1	1	0	0	0.17179	0.092794	0.078105	0.23752	0.086744	0.048078	0.12842	0.10265	0.14723	0.25858	0.15861	0.040107	0.074006	0.014451	0.050475	0.081787	-3.9667	-4.7625	-4.3375	-4.6146	-4.6312	-4.1708	-4.6667	-4.6729	-4.0646	-4.7125	-4.4604	-4.3792	-4.7937	-3.9979	-4.3938	-4.6896	442.492	522.835	318.208	409.589	202.734	185.254	450.952	379.775	487.716	515.259	451.875	427.309	493.721	179.782	287.621	517.592	0.0006237	8.3327e-05	2.9791e-05	1192.8	1.4222e-06	7.9816e-07	1245.6	256.44	1.2225e-06	7.0575e-07	319.11	89.53	70.682	20.396	1.1388e-06	28.535	2.214e-05	2.0169e-05	6.4421e-06	1006.6	2.1015e-07	2.2363e-07	1030.6	200.8	2.1182e-07	2.2023e-07	240.08	67.704	54.052	15.627	2.3905e-07	21.086	488.414	213.059	291.669	188.989	315.108	312.798	188.588	195.503	349.418	274.384	195.097	201.674	201.960	209.382	333.317	208.577	-8191	255	
776.621	1	1	0	0	0.19075	0.10932	0.24186	0.13761	0.19657	0.10407	0.20761	0.24114	0.089402	0.039252	0.10917	0.22931	0.0048095	0.15132	0.18068	0.15904	-3.7646	-4.7021	-4.2583	-4.425	-4.7458	-4.3354	-4.7542	-4.6438	-4.0958	-4.6667	-4.55	-4.1583	-4.75	-4.25	-4.5375	-4.8167	255.836	309.786	388.414	287.170	438.525	253.937	448.917	425.930	483.753	213.469	413.489	264.359	458.670	479.036	348.661	206.959	0.00055536	7.41e-05	5.0986e-05	1189.7	8.6092e-07	1.2405e-06	1241.9	256.1	8.8477e-07	7.7989e-07	318.79	89.386	70.624	20.461	6.0835e-07	28.419	2.0142e-05	2.0834e-05	6.0147e-06	1005.4	2.0498e-07	2.3603e-07	1029.4	200.76	2.1069e-07	2.3353e-07	239.4	67.731	54.007	15.649	2.387e-07	21.076	480.079	247.005	285.531	189.002	333.249	230.480	188.694	195.423	212.075	220.055	195.393	201.685	201.909	209.634	288.538	208.776	-8191	255	
776.717	1	1	0	0	0.13377	0.12639	0.1001	0.059336	0.022976	0.16021	0.10897	0.19045	0.12683	0.08372	0.25472	0.12297	0.10679	0.21262	0.13594	0.19309	-3.7104	-4.7312	-4.4437	-4.3333	-4.7917	-4.3271	-4.5333	-4.7688	-4.3625	-4.6979	-4.5958	-4.1667	-4.7292	-4.3729	-4.2271	-4.8229	355.621	534.119	225.452	345.574	188.755	516.216	482.344	277.598	462.685	179.637	180.230	326.560	216.604	409.012	284.686	525.685	0.00064377	7.0161e-05	9.6525e-06	1191.1	6.1166e-07	1.259e-06	1247.2	257.63	1.2397e-06	6.0856e-07	318.79	88.992	70.488	20.309	3.054e-07	28.34	2.1927e-05	2.3146e-05	5.9752e-06	1005.2	2.1877e-07	2.5717e-07	1028.6	200.81	2.291e-07	2.5518e-07	239.09	67.487	54.017	15.676	2.4033e-07	21.056	484.850	528.995	215.909	188.730	239.347	390.823	188.536	195.885	272.771	267.124	195.484	201.391	201.756	209.422	319.975	208.689	-8191	255	
776.789	1	1	0	0	0.21044	0.12012	0.052437	0.1806	0.029237	0.16088	0.40383	0.17385	0.094077	0.23333	0.11343	0.19356	0.23338	0.18953	0.10558	0.31642	-3.9271	-4.4167	-4.5521	-4.2104	-4.7042	-4.2875	-4.4563	-4.825	-4.1687	-4.575	-4.725	-4.0687	-4.6625	-4.5708	-4.1792	-4.85	281.939	486.232	215.291	491.586	224.464	453.863	508.069	530.722	382.915	195.720	343.690	526.454	207.313	242.474	286.905	266.860	0.00063871	2.7692e-05	4.2196e-05	1189.4	7.2423e-07	2.6157e-07	1242.9	256.91	1.2574e-06	7.1e-07	317.51	89.472	70.983	20.42	1.0514e-06	28.457	2.3525e-05	2.4076e-05	5.9214e-06	1005.3	2.4405e-07	2.5624e-07	1028.7	200.58	2.4776e-07	2.5659e-07	239	67.665	54.19	15.671	2.3959e-07	21.083	484.204	279.547	293.904	188.761	299.011	353.408	188.465	195.654	212.904	312.602	195.151	201.554	201.653	209.585	271.385	208.604	-8191	255	
776.910	1	1	0	0	0.30165	0.17794	0.1881	0.18883	0.035341	0.12922	0.10068	0.062803	0.14181	0.0537	0.13165	0.35407	0.20213	0.15317	0.1973	0.065286	-3.9792	-4.4563	-4.4354	-4.2937	-4.7667	-4.3313	-4.1813	-4.8625	-4.1875	-4.5167	-4.675	-4.1917	-4.4604	-4.5771	-4.0167	-4.6333	342.034	445.771	312.232	457.740	492.350	266.763	473.126	509.269	382.485	371.854	229.003	466.287	453.746	209.075	459.653	245.277	0.00052083	6.6225e-05	3.7676e-05	1190.2	1.209e-06	9.2661e-08	1244.5	256.99	1.4486e-06	1.9104e-07	319.59	89.034	71.155	20.469	4.8761e-07	28.287	2.5337e-05	2.3915e-05	5.8647e-06	1006	2.5703e-07	2.4849e-07	1030	201.1	2.6148e-07	2.5213e-07	239.51	67.69	54.432	15.673	2.3361e-07	21.044	478.698	368.835	354.141	188.773	266.116	366.415	188.568	195.452	283.863	209.758	195.003	201.156	201.686	209.484	252.702	208.501	-8191	255	
777.006	1	1	0	0	0.17354	0.13073	0.075981	0.29343	0.29123	0.29236	0.10659	0.2667	0.1028	0.21847	0.23033	0.11587	0.19363	0.14376	0.18944	0.21296	-3.9688	-4.3438	-4.6646	-4.2958	-4.4896	-4.4125	-4.1396	-4.6583	-4.325	-4.3021	-4.9313	-4.2521	-4.4313	-4.6104	-4.0667	-4.8146	274.992	413.963	321.401	522.547	354.766	504.396	207.230	498.936	217.555	395.260	517.775	180.759	520.297	303.677	378.655	409.044	0.00064668	6.1119e-05	1.7557e-05	1190.4	2.1657e-06	1.1042e-06	1248.5	257.66	1.2378e-06	6.4972e-07	318.21	89.565	70.516	20.433	5.8746e-07	28.27	2.6272e-05	2.3091e-05	5.6842e-06	1007.3	2.7665e-07	2.4293e-07	1029.9	201.19	2.7893e-07	2.5096e-07	239.39	67.865	54.344	15.667	2.4195e-07	21.138	472.699	276.413	350.834	188.711	252.023	375.765	188.558	195.825	265.908	382.657	195.219	201.340	202.179	209.247	340.199	208.805	-8191	255	
777.102	1	1	0	0	0.090127	0.040221	0.2818	0.089309	0.11632	0.019866	0.050373	0.174	0.11045	0.10096	0.23319	0.174	0.065002	0.13653	0.18401	0.10173	-3.9	-4.325	-4.8771	-4.35	-4.5333	-4.6667	-4.35	-4.8063	-4.5146	-4.4125	-4.875	-4.3604	-4.5312	-4.7083	-4.2083	-4.6208	338.711	403.498	505.599	348.445	478.749	473.161	448.936	463.988	343.846	213.758	343.170	468.473	407.099	437.205	458.237	505.082	0.00058318	0.00013171	2.7322e-05	1191.3	1.5818e-06	1.025e-06	1254.3	256.74	2.2168e-06	1.7583e-06	319.12	89.667	70.798	20.448	2.9158e-07	28.709	2.6702e-05	2.2363e-05	5.7064e-06	1007.5	2.7517e-07	2.3399e-07	1030.2	201.29	2.6021e-07	2.3679e-07	239.57	67.934	54.499	15.677	2.1697e-07	21.268	485.501	234.283	301.643	188.747	240.955	271.944	188.507	195.578	297.649	364.218	195.225	201.474	201.899	209.684	265.811	208.527	-8191	255	
777.198	1	1	0	0	0.29426	0.15508	0.19809	0.094558	0.12852	0.0057925	0.081056	0.24507	0.13444	0.15631	0.14955	0.21469	0.23855	0.16921	0.083357	0.28089	-4.1979	-4.2729	-4.7937	-4.3583	-4.3583	-4.6813	-4.3208	-4.8708	-4.4354	-4.3396	-4.8	-4.4563	-4.3792	-4.8542	-4.2479	-4.6083	308.883	516.640	298.906	517.096	311.426	494.000	448.187	469.949	461.788	207.243	445.420	520.706	353.283	505.789	253.983	522.276	0.00048108	6.6636e-05	2.6943e-05	1194.5	1.784e-07	1.094e-06	1254.5	257.07	2.7003e-06	1.1475e-06	319.36	89.147	70.525	20.445	1.1099e-06	28.415	2.3927e-05	2.0684e-05	5.4379e-06	1009.2	2.5096e-07	2.2189e-07	1031.9	201.44	2.4964e-07	2.3188e-07	240.08	68.045	54.284	15.67	2.3278e-07	21.214	489.029	286.013	218.971	188.763	332.561	316.256	188.508	195.521	283.853	315.363	195.062	201.566	201.975	209.604	247.148	208.852	-8191	255	
777.294	1	1	0	0	0.19923	0.31939	0.17154	0.11148	0.048469	0.12338	0.14173	0.16228	0.059913	0.053906	0.12211	0.20991	0.098545	0.16485	0.18976	0.19352	-4.2354	-4.2021	-4.7771	-4.5104	-4.475	-4.9125	-4.3458	-4.6188	-4.5938	-4.2125	-4.8313	-4.5	-4.5083	-4.8979	-4.3292	-4.5813	207.475	479.120	293.327	449.362	456.083	291.313	456.945	528.908	349.977	461.007	434.486	427.626	516.939	234.943	326.225	444.976	0.00049403	0.00012254	2.8493e-05	1190.5	1.0558e-06	1.4504e-06	1252.9	258.13	8.4502e-07	3.1638e-07	317.96	89.11	71.313	20.476	6.757e-07	28.538	2.3436e-05	2.0725e-05	5.6564e-06	1007.1	2.3549e-07	2.0994e-07	1030	202.08	2.2154e-07	2.1012e-07	239.54	67.912	54.301	15.629	2.3084e-07	21.234	488.108	248.350	301.520	188.817	294.739	321.197	188.379	195.744	246.510	317.978	195.515	201.950	202.031	209.525	306.350	209.082	-8191	255	
777.390	1	1	0	0	0.18584	0.18213	0.25095	0.029734	0.16137	0.1437	0.031323	0.060473	0.1722	0.062556	0.22963	0.26139	0.088432	0.30495	0.16203	0.32223	-4.3729	-4.1042	-4.9229	-4.3979	-4.3979	-4.8396	-4.2771	-4.4417	-4.5854	-4.125	-4.8417	-4.3542	-4.1917	-4.7042	-4.2	-4.4042	209.462	326.085	317.785	520.001	428.200	358.532	530.176	229.662	363.892	524.152	474.926	458.395	309.552	248.400	420.051	512.564	0.00058239	5.4013e-05	4.6564e-05	1193	1.2245e-06	1.3405e-06	1245.6	258.1	1.3692e-06	9.2434e-07	318.32	88.962	70.833	20.521	9.4241e-07	28.572	2.1568e-05	1.8811e-05	5.8085e-06	1006.3	2.2465e-07	2.0306e-07	1028.9	201.63	2.2016e-07	2.146e-07	240.11	67.772	54.264	15.686	2.5012e-07	21.22	482.644	198.841	206.695	188.589	271.684	305.317	188.407	195.588	274.528	395.457	195.426	201.421	201.644	209.451	211.159	208.610	-8191	255	
777.485	1	1	0	0	0.098523	0.1356	0.11038	0.07696	0.21342	0.31002	0.18608	0.38607	0.19653	0.25607	0.20858	0.11637	0.10702	0.23573	0.21048	0.19899	-4.4	-4.2458	-4.7083	-4.6458	-4.1104	-4.8229	-4.3458	-4.5229	-4.5729	-4.1354	-4.5813	-4.7042	-4.2104	-4.7458	-4.375	-4.4833	521.338	345.471	235.433	474.232	531.842	450.754	321.343	537.366	385.178	282.296	209.759	496.557	406.696	530.016	477.745	483.419	0.00060953	0.0002078	2.8438e-05	1191.3	2.7937e-07	1.5676e-06	1250.3	257.62	1.2328e-06	1.6567e-06	318.45	90.013	70.985	20.416	4.8395e-07	28.496	2.1926e-05	2.0052e-05	6.2569e-06	1005.9	2.283e-07	2.1151e-07	1030.3	201.27	2.1729e-07	2.2352e-07	239.91	68.013	54.248	15.689	2.5373e-07	21.202	477.325	240.458	535.826	188.714	178.146	276.416	188.642	195.477	293.901	310.447	195.332	201.483	201.912	209.707	300.171	209.045	-8191	255	
777.583	1	1	0	0	0.09927	0.19141	0.14419	0.08111	0.12768	0.16207	0.049879	0.08125	0.23393	0.087276	0.15691	0.18614	0.26394	0.066233	0.10284	0.075842	-4.4229	-4.0208	-4.5604	-4.7292	-4.1729	-4.7958	-4.5437	-4.4146	-4.5333	-4.0271	-4.5729	-4.7104	-4.1813	-4.6354	-4.275	-4.4146	423.167	277.584	204.406	461.257	458.071	258.516	207.036	451.217	496.566	269.212	290.712	392.036	527.186	232.910	466.527	288.425	0.00058554	8.842e-05	1.3412e-05	1187.6	2.0639e-06	8.6102e-07	1249.5	257.79	5.1013e-07	1.4245e-06	319.4	89.366	71.028	20.522	5.6469e-07	28.578	2.1393e-05	2.0919e-05	6.4662e-06	1004.8	2.2499e-07	2.285e-07	1032.4	201.55	2.1671e-07	2.3781e-07	240.4	67.737	54.28	15.729	2.5206e-07	21.181	469.221	208.889	316.679	188.731	263.050	248.324	188.643	195.669	361.230	349.277	195.335	201.519	201.819	209.360	325.690	208.981	-8191	255	
777.702	1	1	0	0	0.10936	0.16154	0.096953	0.10181	0.24536	0.067171	0.23534	0.074593	0.098136	0.027019	0.14243	0.16841	0.066641	0.1597	0.17218	0.29253	-4.575	-4.2562	-4.4979	-4.8479	-4.2083	-4.6208	-4.3708	-4.3667	-4.6562	-4.3396	-4.5979	-4.8	-4.3333	-4.6521	-4.5375	-4.15	398.883	451.994	404.425	511.778	484.177	216.379	412.456	527.885	519.514	332.098	341.139	264.831	261.502	406.743	391.865	426.942	0.00065688	6.2503e-05	3.1997e-05	1192.4	1.0583e-06	1.1748e-06	1243.8	258.18	4.8077e-07	9.989e-07	320.17	89.673	71.072	20.397	1.0535e-06	28.362	2.0989e-05	2.2259e-05	6.2901e-06	1007	2.1861e-07	2.4331e-07	1029.9	201.42	2.1443e-07	2.4857e-07	240.34	67.879	54.272	15.718	2.3459e-07	21.143	482.557	304.292	237.216	188.893	350.436	270.427	188.446	195.254	220.589	274.451	195.378	201.432	201.924	209.294	301.936	208.910	-8191	255	
777.798	1	1	0	0	0.11425	0.083014	0.063573	0.065686	0.086727	0.24724	0.15473	0.069072	0.21652	0.2087	0.11497	0.22688	0.17289	0.29138	0.14341	0.23924	-4.4938	-4.3625	-4.3938	-4.85	-4.1312	-4.725	-4.6792	-4.1354	-4.7104	-4.2833	-4.5083	-4.8083	-4.1875	-4.3938	-4.5375	-4.2312	273.377	514.932	490.677	208.768	327.064	411.922	504.518	269.422	211.279	488.064	520.896	510.055	264.331	528.699	419.163	291.700	0.00063479	0.00015292	2.8538e-05	1190.8	7.514e-07	1.8761e-06	1245	257.73	1.5732e-06	5.2002e-07	318.95	90.242	71.33	20.56	8.3574e-07	28.38	2.0797e-05	2.2554e-05	5.9067e-06	1006.6	2.1772e-07	2.4448e-07	1028.6	201.33	2.2058e-07	2.5111e-07	240.02	67.823	54.324	15.764	2.2409e-07	21.165	478.802	212.278	334.155	189.039	291.713	339.296	188.664	195.521	247.299	322.836	195.486	201.562	202.172	209.622	330.890	209.099	-8191	255	
777.894	1	1	0	0	0.16884	0.26527	0.073275	0.15921	0.14174	0.24139	0.1088	0.07874	0.20218	0.13711	0.074339	0.098621	0.08254	0.066404	0.042114	0.069128	-4.4271	-4.375	-4.3812	-4.7417	-4.3375	-4.5687	-4.5708	-4.0542	-4.7229	-4.4625	-4.4354	-4.8187	-4.3812	-4.6875	-4.6354	-4.275	201.186	184.042	202.563	415.447	335.781	438.341	522.790	412.534	281.539	353.743	203.268	400.463	223.383	512.438	382.970	474.396	0.00070879	0.00019121	4.1452e-05	1190.2	1.7083e-06	1.0371e-06	1243.4	257.89	9.8119e-07	8.4369e-07	318.67	89.203	71.073	20.657	1.6875e-06	28.694	2.2054e-05	2.2766e-05	5.6751e-06	1005	2.3858e-07	2.4659e-07	1027	201.02	2.3427e-07	2.4252e-07	239.86	67.627	54.382	15.766	2.1993e-07	21.16	484.316	238.429	286.367	188.868	279.731	239.961	188.432	195.819	245.673	272.967	195.266	201.230	202.036	209.189	258.595	208.929	-8191	255	
778.014	1	1	0	0	0.12994	0.27512	0.15649	0.25102	0.31491	0.1938	0.17493	0.044708	0.25077	0.18859	0.099685	0.16542	0.23512	0.15698	0.17758	0.18963	-4.3542	-4.3604	-4.2438	-4.7896	-4.2312	-4.4	-4.8667	-4.1937	-4.6667	-4.6083	-4.3979	-4.8646	-4.2896	-4.4625	-4.8917	-4.3354	415.908	435.532	420.837	514.206	183.683	348.431	223.587	334.043	229.556	312.915	207.606	517.528	391.848	482.137	371.229	503.394	0.00062691	0.00012624	9.2982e-06	1192.8	1.388e-06	1.5646e-06	1247	258.15	3.9874e-07	1.3169e-06	319.18	89.364	70.976	20.324	1.355e-06	28.503	2.4138e-05	2.1993e-05	5.642e-06	1005.5	2.4941e-07	2.4356e-07	1029	201.53	2.51e-07	2.3824e-07	239.84	67.771	54.351	15.672	2.1409e-07	21.157	489.688	268.692	273.919	188.726	293.680	309.854	188.601	195.831	305.344	295.859	195.524	201.573	201.863	209.590	289.773	208.824	-8191	255	
778.086	1	1	0	0	0.1478	0.058532	0.16334	0.2331	0.087655	0.19982	0.13962	0.16816	0.24306	0.13385	0.085189	0.057694	0.20461	0.1094	0.21657	0.17979	-4.3812	-4.5229	-4.2354	-4.8479	-4.3792	-4.3354	-4.7833	-4.1583	-4.7167	-4.6125	-4.1417	-4.7417	-4.5667	-4.1854	-4.6312	-4.3	217.174	529.944	220.045	189.191	408.252	463.373	423.462	517.104	488.722	208.731	460.909	265.892	471.557	290.762	429.996	455.007	0.00059937	0.00022545	1.8676e-05	1194	1.0374e-06	8.0501e-07	1251.7	257.9	4.6677e-07	6.6801e-07	319.07	89.139	70.803	20.527	8.8011e-07	28.476	2.5048e-05	2.1655e-05	5.6512e-06	1006.7	2.6595e-07	2.3789e-07	1029.4	201.38	2.6663e-07	2.3573e-07	239.95	67.738	54.322	15.694	2.1956e-07	21.176	492.926	280.151	290.654	188.716	350.899	282.447	188.415	195.502	338.475	339.593	195.128	201.589	202.221	209.449	285.332	208.903	-8191	255	
778.182	1	1	0	0	0.09934	0.11985	0.30508	0.063392	0.022642	0.09211	0.12158	0.040408	0.18445	0.087874	0.083067	0.34838	0.22398	0.050786	0.28023	0.2538	-4.1625	-4.5167	-4.0333	-5.0687	-4.3979	-4.1208	-4.8396	-4.2521	-4.4458	-4.6813	-4.1458	-4.8021	-4.4396	-4.2833	-4.6271	-4.3125	269.997	191.035	296.288	495.459	471.874	475.553	381.141	537.442	216.485	412.794	534.003	518.513	253.146	339.200	444.075	221.223	0.00064142	8.4362e-06	1.7869e-05	1191.9	1.0794e-06	9.1961e-07	1246.3	257.24	2.1415e-06	9.6957e-07	318.32	89.295	71.031	20.358	1.1439e-06	28.66	2.5756e-05	2.1384e-05	5.7104e-06	1006.7	2.6435e-07	2.3818e-07	1028.7	201.38	2.6172e-07	2.2717e-07	239.39	67.777	54.362	15.655	2.1599e-07	21.262	485.358	280.220	274.920	188.879	328.623	249.149	188.583	195.731	276.175	273.578	195.541	201.309	201.980	209.635	316.043	209.024	-8191	255	
778.303	1	1	0	0	0.24085	0.22082	0.15863	0.13051	0.10468	0.096091	0.2573	0.15081	0.15279	0.19495	0.10735	0.181	0.2227	0.13436	0.13143	0.023033	-4.0521	-4.6958	-4.075	-4.7	-4.5021	-4.2417	-4.9333	-4.5792	-4.4667	-4.5813	-4.2188	-4.7208	-4.5542	-4.3	-4.7354	-4.5542	361.515	446.606	239.305	329.423	286.997	454.242	501.289	477.955	217.319	484.677	197.822	457.379	263.646	339.512	441.200	279.790	0.00049973	5.3035e-05	5.5587e-05	1189.8	5.6142e-07	5.2402e-07	1247.8	256.8	1.7657e-06	1.826e-07	317.61	89.951	71.084	20.423	7.4689e-07	28.385	2.4972e-05	2.0195e-05	5.6833e-06	1006.1	2.477e-07	2.2504e-07	1027.4	201.45	2.4585e-07	2.1724e-07	239.57	68.161	54.245	15.667	2.2506e-07	21.269	483.516	260.572	307.764	188.876	353.512	301.656	188.666	195.612	272.794	302.798	195.513	201.540	202.039	209.354	287.337	208.878	-8191	255	
778.397	1	1	0	0	0.074974	0.1547	0.059885	0.12441	0.076643	0.37087	0.26736	0.095391	0.22028	0.2097	0.23257	0.1773	0.044998	0.14149	0.079061	0.10147	-4.1062	-4.7208	-4.2937	-4.8	-4.6542	-4.3063	-4.7958	-4.475	-4.3104	-4.7229	-4.1958	-4.5312	-4.6542	-4.2167	-4.6583	-4.4521	472.941	499.342	311.940	528.448	207.026	227.074	467.839	462.422	439.244	225.513	506.971	419.596	517.382	390.170	537.285	217.423	0.00055311	0.00018086	1.6944e-05	1186.9	1.0418e-06	1.1638e-06	1244.2	257.63	2.3668e-06	6.8052e-07	319.93	89.343	70.947	20.321	4.129e-07	28.668	2.3706e-05	1.9782e-05	5.9237e-06	1005.6	2.3454e-07	2.2707e-07	1027.6	201.76	2.4e-07	2.1067e-07	239.75	67.902	54.17	15.637	2.4251e-07	21.272	488.888	303.924	328.548	188.938	315.315	331.135	188.658	195.732	288.463	374.103	195.234	201.449	202.040	209.569	272.788	208.719	-8191	255	
778.493	1	1	0	0	0.14055	0.060441	0.12046	0.10276	0.19621	0.11024	0.23364	0.15028	0.092735	0.10057	0.10974	0.19719	0.1045	0.23284	0.048632	0.20208	-3.9146	-4.7167	-4.2604	-4.6417	-4.6396	-4.175	-4.8104	-4.3938	-4.2458	-4.7125	-4.2604	-4.4688	-4.5958	-3.9271	-4.7125	-4.5229	284.796	499.478	363.980	444.922	463.180	231.532	203.025	376.675	442.251	436.896	436.154	207.326	439.959	249.704	515.600	296.840	0.00059927	0.0001304	3.4451e-05	1187.1	9.7315e-07	1.2671e-06	1243.6	257.84	2.0078e-06	9.781e-07	319.16	89.642	71.285	20.349	5.936e-07	28.576	2.3627e-05	1.9704e-05	6.3822e-06	1005	2.3063e-07	2.1811e-07	1028.9	201.71	2.3422e-07	2.123e-07	240.73	68.019	54.278	15.67	2.4684e-07	21.19	482.965	254.263	287.818	188.744	284.123	215.850	188.802	195.902	295.454	313.067	195.270	201.320	201.738	209.590	257.999	208.937	-8191	255	
778.614	1	1	0	0	0.039176	0.22373	0.086852	0.1194	0.15412	0.079042	0.07339	0.14705	0.087876	0.044246	0.10229	0.15553	0.10517	0.14073	0.090798	0.18305	-3.9188	-4.7771	-4.1021	-4.6229	-4.6667	-4.0729	-4.6042	-4.5062	-4.1917	-4.7937	-4.4729	-4.3229	-4.8292	-4.2125	-4.5708	-4.7479	223.641	503.056	530.455	196.882	238.299	223.528	362.250	484.189	391.865	471.059	466.283	220.548	180.752	241.099	495.389	461.871	0.00060257	9.7402e-06	2.1719e-05	1187.6	8.721e-07	6.0025e-07	1245.1	257.26	1.6286e-06	1.8562e-06	318.8	89.654	71.116	20.395	6.074e-07	28.506	2.2342e-05	1.9524e-05	6.3584e-06	1005.9	2.1621e-07	2.2023e-07	1029.6	201.29	2.2543e-07	2.1953e-07	240.2	68.012	54.175	15.687	2.5838e-07	21.148	481.821	183.072	259.904	188.638	251.386	523.199	188.535	195.798	246.457	342.438	195.173	201.430	202.023	209.677	295.538	208.838	-8191	255	
778.686	1	1	0	0	0.08161	0.16908	0.11099	0.12481	0.064498	0.082792	0.27421	0.034975	0.10266	0.029726	0.080148	0.10547	0.23385	0.10207	0.1245	0.096845	-3.7583	-4.6625	-4.2937	-4.4208	-4.6896	-4.1875	-4.7604	-4.7021	-4.1708	-4.7771	-4.4333	-4.3521	-4.7	-4.2146	-4.5167	-4.6021	475.922	306.921	297.767	179.238	446.487	307.648	462.322	398.381	368.246	523.852	468.857	395.342	210.580	320.381	332.250	291.561	0.00069179	0.00010771	4.1001e-05	1194.4	1.3108e-06	1.4479e-06	1248.3	257.73	1.3345e-06	1.203e-06	320.47	90.023	71.037	20.595	1.3426e-06	28.541	2.2063e-05	2.1038e-05	6.5921e-06	1007.1	2.1892e-07	2.3786e-07	1030.6	201.35	2.2457e-07	2.3603e-07	240.55	67.953	54.112	15.732	2.5295e-07	21.204	472.163	199.145	286.189	188.778	260.509	266.751	188.544	195.542	278.400	281.794	195.511	201.323	201.840	209.736	295.096	208.522	-8191	255	
778.782	1	1	0	0	0.17622	0.092725	0.12151	0.21811	0.24423	0.080602	0.21048	0.24308	0.086244	0.029976	0.23868	0.14165	0.066631	0.25954	0.20742	0.052433	-3.6792	-4.6292	-4.4062	-4.2896	-4.7562	-4.2562	-4.6792	-4.6937	-4.3271	-4.6896	-4.325	-4.2771	-4.7729	-4.2979	-4.4333	-4.6917	520.846	357.178	234.360	441.615	297.687	461.547	467.489	504.565	267.210	248.923	345.592	199.929	298.064	254.236	414.777	488.084	0.00056994	0.00016022	5.8432e-05	1191.2	1.8238e-06	2.1856e-06	1245.4	258.15	6.5065e-07	6.7813e-07	320.19	89.493	70.914	20.461	1.4795e-06	28.506	2.1864e-05	2.2198e-05	6.3619e-06	1005.4	2.1801e-07	2.4619e-07	1029.7	201.16	2.2192e-07	2.5286e-07	240.15	67.963	54.217	15.701	2.4993e-07	21.147	485.394	276.971	292.066	188.882	293.531	284.614	188.443	195.858	232.246	327.971	195.450	201.874	202.089	209.566	329.575	209.053	-8191	255	
778.878	1	1	0	0	0.15347	0.14372	0.079522	0.14216	0.085166	0.020067	0.15568	0.11318	0.16963	0.15417	0.0084689	0.12841	0.080522	0.03953	0.093291	0.13684	-3.8312	-4.4292	-4.3187	-4.3042	-4.75	-4.4688	-4.3896	-4.8896	-4.2188	-4.6542	-4.6042	-4.2083	-4.8438	-4.4625	-4.2854	-4.8313	370.042	380.448	276.232	413.500	235.366	389.531	204.681	309.418	450.624	426.527	459.765	357.371	222.201	424.700	197.044	412.861	0.00058334	0.00012224	6.9028e-05	1189.5	8.9653e-07	1.4847e-06	1242	257.4	7.891e-07	1.0392e-06	319.32	89.361	71.196	20.514	1.2487e-06	28.354	2.2631e-05	2.3709e-05	6.1417e-06	1006.1	2.2507e-07	2.5805e-07	1028.6	201.16	2.2874e-07	2.5404e-07	239.66	67.825	54.223	15.755	2.327e-07	21.096	491.236	261.228	330.003	188.685	243.162	318.823	188.310	195.620	270.373	303.566	195.103	201.533	201.852	209.788	338.223	208.452	-8191	255	
778.974	1	1	0	0	0.023722	0.052969	0.07897	0.35996	0.19592	0.10507	0.043816	0.16917	0.1293	0.16401	0.11118	0.063771	0.18672	0.13468	0.034661	0.177	-3.7875	-4.3646	-4.7208	-4.2937	-4.7479	-4.5	-4.3792	-4.9458	-4.3021	-4.6458	-4.7604	-4.3521	-4.8021	-4.4	-4.1729	-5.05	309.071	303.580	468.216	526.229	529.282	242.230	181.559	225.790	331.427	369.744	519.451	423.779	360.563	185.383	305.329	344.924	0.00066357	8.4652e-05	3.8153e-05	1187.5	1.4379e-06	1.6453e-07	1245	258.11	2.2536e-06	1.1255e-06	320.32	89.506	71.322	20.365	1.2806e-06	28.33	2.3301e-05	2.3415e-05	5.7874e-06	1005.2	2.3802e-07	2.5795e-07	1028.9	201.11	2.4886e-07	2.5728e-07	239.93	67.796	54.416	15.681	2.36e-07	21.073	486.606	308.728	337.998	188.728	349.797	415.729	188.613	195.774	218.373	441.923	195.493	201.579	202.072	209.309	277.995	208.733	-8191	255	
779.095	1	1	0	0	0.27086	0.082919	0.136	0.07017	0.16851	0.23944	0.25522	0.18965	0.044053	0.095056	0.082849	0.16332	0.08988	0.092744	0.11386	0.28821	-3.8021	-4.4125	-4.7208	-4.1979	-4.6333	-4.55	-4.3438	-4.7646	-4.3396	-4.4625	-4.7354	-4.2729	-4.625	-4.6708	-4.1562	-4.6625	489.685	249.060	354.273	514.294	304.313	388.739	251.854	458.165	473.608	425.752	325.932	336.004	206.898	335.778	263.343	310.963	0.0005731	2.6206e-05	1.7144e-05	1191.1	2.0805e-06	3.6136e-07	1247.8	257.96	1.1487e-06	1.4791e-06	319.42	89.095	71.158	20.413	3.8546e-07	28.561	2.5365e-05	2.3202e-05	5.6911e-06	1006.7	2.6612e-07	2.4995e-07	1029.6	201.31	2.6739e-07	2.5176e-07	239.79	67.837	54.495	15.702	2.3269e-07	21.159	478.306	321.357	311.427	188.871	288.860	289.763	188.635	195.659	289.305	318.924	195.371	201.250	201.800	209.325	207.640	208.573	-8191	255	
779.191	1	1	0	0	0.12222	0.10435	0.21149	0.058411	0.14821	0.12219	0.036819	0.15652	0.086081	0.20132	0.016639	0.19028	0.11247	0.15934	0.10346	0.21596	-3.9875	-4.3708	-4.6792	-4.4021	-4.4646	-4.6042	-4.3375	-4.9688	-4.475	-4.2854	-4.8854	-4.1896	-4.6875	-4.6438	-4.3083	-4.7375	489.546	308.918	393.203	379.711	478.430	204.506	207.014	466.459	437.107	528.121	360.100	262.318	342.809	429.794	349.292	530.085	0.00057928	0.00014103	1.244e-05	1191.1	1.1588e-06	7.1124e-07	1249.9	257.01	7.7956e-07	4.0139e-07	318.34	89.175	70.933	20.436	1.2803e-06	28.601	2.6304e-05	2.2433e-05	5.6023e-06	1006	2.7067e-07	2.4121e-07	1030.6	201.21	2.7419e-07	2.4517e-07	239.55	67.89	54.411	15.686	2.3517e-07	21.204	471.571	233.184	338.668	188.867	345.570	342.990	188.440	195.341	211.501	275.936	195.361	201.408	201.697	209.366	336.427	208.844	-8191	255	
779.263	1	1	0	0	0.091905	0.18365	0.11212	0.033839	0.094357	0.12599	0.20031	0.10134	0.17608	0.1147	0.22043	0.11371	0.15088	0.13977	0.2661	0.19868	-4.1896	-4.4187	-4.8979	-4.3	-4.5875	-4.5958	-4.3542	-4.7979	-4.4417	-4.3146	-4.875	-4.3833	-4.55	-4.6771	-4.1312	-4.6312	338.652	295.746	342.414	379.266	187.132	481.336	473.024	510.883	236.692	390.860	446.856	257.241	475.603	286.881	364.674	209.159	0.00048189	3.1517e-05	2.1588e-05	1190	1.496e-07	1.3176e-06	1247.6	258.36	1.0167e-06	6.9771e-07	317.95	89.273	70.973	20.47	7.2958e-07	28.269	2.6305e-05	2.2355e-05	5.5775e-06	1007.3	2.6881e-07	2.3387e-07	1029.4	202.05	2.6381e-07	2.3706e-07	240.07	68.01	54.363	15.659	2.3364e-07	21.18	473.944	186.214	316.928	188.753	310.452	269.755	188.576	195.642	292.369	279.705	195.271	201.601	202.130	209.211	269.788	208.782	-8191	255	
779.383	1	1	0	0	0.13143	0.12234	0.1519	0.34761	0.17082	0.17973	0.029087	0.2018	0.10024	0.045967	0.095918	0.067687	0.050831	0.11079	0.20239	0.31735	-4.1729	-4.2937	-4.775	-4.3187	-4.4125	-4.7208	-4.2854	-4.6979	-4.5938	-4.3063	-4.7438	-4.3479	-4.3396	-4.7292	-4.0896	-4.5667	438.127	307.836	330.321	495.789	299.129	372.582	458.525	461.563	536.044	513.837	459.965	500.601	510.916	233.298	306.518	218.296	0.0006723	1.7184e-05	2.0159e-05	1188.7	7.46e-07	8.6966e-07	1249.1	257.04	8.3819e-07	1.2093e-06	318.4	89.249	71.029	20.467	8.3138e-07	28.496	2.5804e-05	2.2375e-05	5.9041e-06	1007	2.6657e-07	2.3209e-07	1029.9	201.6	2.6091e-07	2.3929e-07	239.53	68.005	54.308	15.676	2.4369e-07	21.254	486.542	295.529	275.922	188.552	436.537	296.997	188.571	195.681	293.760	304.891	195.521	201.518	201.994	209.606	321.792	208.465	-8191	255	
779.478	1	1	0	0	0.084769	0.22365	0.040581	0.086155	0.087258	0.19499	0.23857	0.16213	0.1044	0.24675	0.18697	0.1134	0.10423	0.20192	0.21766	0.13803	-4.2167	-4.0188	-4.7438	-4.3979	-4.3	-4.6729	-4.3396	-4.5729	-4.4771	-4.0792	-4.6083	-4.4042	-4.4042	-4.8167	-4.1438	-4.5979	215.274	524.412	187.267	451.592	317.322	245.455	481.280	415.034	279.470	189.910	287.552	442.172	392.884	363.496	178.502	486.158	0.00049415	0.00013429	3.003e-05	1194.9	1.6914e-06	1.1106e-06	1246.3	256.63	7.1694e-07	1.065e-06	317.77	89.655	71.167	20.431	9.7932e-07	28.615	2.4023e-05	2.1459e-05	6.081e-06	1007.5	2.541e-07	2.2663e-07	1030.9	201.8	2.4252e-07	2.3336e-07	239.63	67.945	54.376	15.626	2.6026e-07	21.266	477.556	273.701	495.557	188.957	311.853	351.562	188.345	195.603	324.034	366.973	195.464	201.484	202.158	208.973	324.862	208.862	-8191	255	
779.576	1	1	0	0	0.10938	0.088208	0.17983	0.23255	0.2187	0.14424	0.087311	0.17798	0.17865	0.044539	0.26421	0.164	0.29814	0.13922	0.169	0.073463	-4.2125	-4.2042	-4.5958	-4.4625	-4.2354	-4.7646	-4.2104	-4.6229	-4.6833	-4.0979	-4.6875	-4.6396	-4.4	-4.7792	-4.2333	-4.5625	474.771	337.791	283.496	497.161	461.685	375.545	204.184	497.128	346.451	259.499	201.238	366.506	499.845	451.168	364.197	364.801	0.00069539	0.00012683	2.7968e-05	1193.4	8.1104e-07	7.3056e-07	1247.1	258.84	8.7543e-07	1.3606e-06	319.09	88.967	70.982	20.462	9.7796e-07	28.331	2.3441e-05	2.0877e-05	6.5515e-06	1008.6	2.4669e-07	2.2757e-07	1030.7	202.19	2.3742e-07	2.3507e-07	240.41	67.851	54.332	15.649	2.7344e-07	21.192	487.095	232.789	288.802	188.849	307.810	404.367	188.488	195.759	281.771	287.115	195.576	201.764	201.980	209.681	302.886	208.955	-8191	255	
779.694	1	1	0	0	0.21012	0.23487	0.097597	0.15914	0.1089	0.24092	0.18911	0.17009	0.23578	0.14897	0.29022	0.074973	0.050492	0.31434	0.20625	0.063068	-4.4604	-4.1146	-4.7	-4.7188	-4.125	-4.8313	-4.2646	-4.4667	-4.6708	-4.2479	-4.6875	-4.5437	-4.2229	-4.6354	-4.2604	-4.3313	390.687	529.829	187.846	382.875	455.451	422.522	485.772	311.083	534.531	460.101	532.879	196.186	239.059	531.650	221.477	443.612	0.00067369	8.7521e-05	2.6058e-05	1190.1	1.6306e-06	1.3243e-06	1244.6	256.95	1.4217e-06	8.2633e-07	317.94	88.915	71.17	20.519	1.0607e-06	28.496	2.3544e-05	2.1689e-05	6.8851e-06	1007.6	2.3733e-07	2.2751e-07	1031	201.57	2.3165e-07	2.3803e-07	240.18	67.914	54.286	15.719	2.7599e-07	21.171	487.069	225.999	244.858	188.975	313.190	200.832	188.533	195.612	302.344	265.995	195.563	201.591	202.064	209.468	276.513	208.597	-8191	255	
779.791	1	1	0	0	0.13559	0.15528	0.027091	0.11241	0.15742	0.11914	0.233	0.2544	0.091216	0.044889	0.30013	0.23097	0.16301	0.23786	0.26419	0.29703	-4.4375	-4.175	-4.55	-4.7479	-4.1562	-4.7125	-4.3854	-4.3542	-4.6875	-4.3104	-4.6792	-4.7083	-4.1708	-4.7354	-4.3708	-4.2542	227.536	412.448	409.289	477.306	518.909	261.958	473.777	469.073	468.820	404.538	180.084	484.725	183.141	326.663	255.809	290.543	0.00062446	6.9166e-06	2.7252e-05	1190.7	1.1569e-06	4.398e-07	1246.5	256.97	6.6018e-07	6.0971e-07	318.22	89.318	71.12	20.44	9.6536e-07	28.537	2.2549e-05	2.2692e-05	6.8995e-06	1007.3	2.3736e-07	2.4859e-07	1032.1	201.44	2.3083e-07	2.5867e-07	240.26	67.864	54.23	15.752	2.6478e-07	21.175	481.585	244.304	278.314	188.797	344.632	532.676	188.433	195.604	208.300	243.831	195.387	201.289	202.314	209.722	260.222	208.875	-8191	255	
779.887	1	1	0	0	0.20909	0.17537	0.12838	0.1228	0.12015	0.18104	0.084532	0.089885	0.26653	0.18279	0.065325	0.29336	0.12675	0.062437	0.042399	0.12742	-4.2167	-4.1625	-4.4	-4.7208	-4.0854	-4.6188	-4.4812	-4.3167	-4.6708	-4.1917	-4.4625	-4.8292	-4.3063	-4.5583	-4.4792	-4.1625	467.492	201.440	482.828	194.946	536.509	403.532	505.038	428.560	478.666	526.133	392.986	483.957	457.786	492.705	465.995	364.006	0.0006103	3.8466e-05	5.5029e-05	1193.6	9.353e-07	2.0998e-06	1251	256.64	1.0051e-06	1.2104e-06	318.27	89.064	70.793	20.426	8.7666e-07	28.462	2.2447e-05	2.4424e-05	6.7675e-06	1006.4	2.3625e-07	2.6239e-07	1031.1	201.47	2.2662e-07	2.6904e-07	239.94	67.7	54.079	15.748	2.5259e-07	21.149	489.924	231.275	299.034	188.998	274.382	305.694	188.572	195.668	241.925	317.450	195.277	201.480	202.220	209.366	340.227	208.508	-8191	255	
779.983	1	1	0	0	0.21313	0.11093	0.06162	0.1192	0.018858	0.13579	0.11354	0.074235	0.03097	0.1235	0.25134	0.10193	0.17215	0.15166	0.23077	0.21429	-4.3042	-4.2854	-4.4083	-4.7875	-4.2229	-4.6521	-4.8187	-4.0896	-4.5792	-4.3125	-4.2458	-4.8729	-4.1979	-4.6125	-4.5646	-4.1708	341.729	435.448	491.059	479.370	257.595	456.851	214.002	332.277	345.455	285.643	478.405	474.236	417.732	277.217	270.356	239.229	0.0006481	0.0001271	6.0592e-05	1192.6	8.3423e-07	5.7526e-07	1248.9	257.79	2.1884e-06	1.5952e-06	319.34	89.663	71.118	20.48	1.0059e-06	28.504	2.3294e-05	2.4941e-05	6.4969e-06	1006.7	2.4663e-07	2.6903e-07	1030.7	201.5	2.4222e-07	2.7115e-07	240.01	67.933	54.267	15.759	2.4475e-07	21.165	483.253	257.178	294.282	188.764	240.206	303.158	188.594	195.582	287.282	353.328	195.268	201.711	201.807	209.427	321.065	208.390	-8191	255	
780.079	1	1	0	0	0.076997	0.042955	0.23319	0.22243	0.073847	0.078623	0.13394	0.062321	0.10535	0.24618	0.20265	0.08591	0.10557	0.22792	0.059817	0.11378	-4.3688	-4.3771	-4.2208	-4.9417	-4.0938	-4.4979	-4.7521	-4.2375	-4.6667	-4.4688	-4.375	-4.8438	-4.3229	-4.4271	-4.7771	-4.3042	526.777	332.969	495.291	513.873	211.279	410.964	329.289	299.898	245.083	297.403	372.426	371.271	397.677	184.539	441.977	496.340	0.00061869	8.758e-05	6.673e-06	1194.2	9.1525e-07	1.9483e-06	1241.5	258.67	1.7731e-06	1.1597e-06	319.62	88.952	71.116	20.444	2.4919e-07	28.572	2.4875e-05	2.4849e-05	6.3158e-06	1007.2	2.6481e-07	2.7213e-07	1028.2	202.02	2.5877e-07	2.6842e-07	239.92	67.654	54.461	15.73	2.3606e-07	21.166	484.245	312.502	233.766	188.768	270.400	378.330	188.683	195.482	271.665	306.728	195.754	201.447	201.989	209.331	245.116	208.840	-8191	255	
#DATA ENDS
