BOXY.EXE: ISS Imagent and Oximeter Data Acquisition Program Version 0.80
Ascii Record File

#ACQ INFORMATION
2  Detector Channels 
16  External MUX Channels 
1  Auxiliary Channels 
5000  Waveform (CCF) Frequency (Hz)
1  Waveforms Skipped 
30  Waveforms Averaged 
1  Cycles Averaged 
16  Acquisitions per Waveform 
10.0806  Updata Rate (Hz) 

#FILE INFORMATION
TRUE -- External MUX Channel results are PARSED.
FALSE -- AC DC and Phase are NOT grouped.
TRUE -- Companion Program Settings File CREATED.
FALSE -- AC data not excluded
FALSE -- DC data not excluded
FALSE -- Phase data not excluded
FALSE -- Auxillary Chn. data not excluded
Tab delimiters

#CALIBRATION STATE
TRUE -- Waveform Calibration Values APPLIED.


#AUX CALIBRATION VALUES
Val Type	aux-1	

Term	1.0000e+00	
Factor	0.0000e+00	


#WF CALIBRATION VALUES
A = Detector Channel
Val Type	A-AC1	A-AC2	A-AC3	A-AC4	A-AC5	A-AC6	A-AC7	A-AC8	A-AC9	A-AC10	A-AC11	A-AC12	A-AC13	A-AC14	A-AC15	A-AC16	A-DC1	A-DC2	A-DC3	A-DC4	A-DC5	A-DC6	A-DC7	A-DC8	A-DC9	A-DC10	A-DC11	A-DC12	A-DC13	A-DC14	A-DC15	A-DC16	A-Ph1	A-Ph2	A-Ph3	A-Ph4	A-Ph5	A-Ph6	A-Ph7	A-Ph8	A-Ph9	A-Ph10	A-Ph11	A-Ph12	A-Ph13	A-Ph14	A-Ph15	A-Ph16	

Term	0.00000e+00	0.00000e+00	0.00000e+00	0.00000e+00	0.00000e+00	0.00000e+00	0.00000e+00	0.00000e+00	0.00000e+00	0.00000e+00	0.00000e+00	0.00000e+00	0.00000e+00	0.00000e+00	0.00000e+00	0.00000e+00	0.00000e+00	0.00000e+00	0.00000e+00	0.00000e+00	0.00000e+00	0.00000e+00	0.00000e+00	0.00000e+00	0.00000e+00	0.00000e+00	0.00000e+00	0.00000e+00	0.00000e+00	0.00000e+00	0.00000e+00	0.00000e+00	0.00000e+00	0.00000e+00	0.00000e+00	0.00000e+00	0.00000e+00	0.00000e+00	0.00000e+00	0.00000e+00	0.00000e+00	0.00000e+00	0.00000e+00	0.00000e+00	0.00000e+00	0.00000e+00	0.00000e+00	0.00000e+00	
Factor	1.00000e+00	1.00000e+00	1.00000e+00	1.00000e+00	1.00000e+00	1.00000e+00	1.00000e+00	1.00000e+00	1.00000e+00	1.00000e+00	1.00000e+00	1.00000e+00	1.00000e+00	1.00000e+00	1.00000e+00	1.00000e+00	1.00000e+00	1.00000e+00	1.00000e+00	1.00000e+00	1.00000e+00	1.00000e+00	1.00000e+00	1.00000e+00	1.00000e+00	1.00000e+00	1.00000e+00	1.00000e+00	1.00000e+00	1.00000e+00	1.00000e+00	1.00000e+00	X	X	X	X	X	X	X	X	X	X	X	X	X	X	X	X	

B = Detector Channel
Val Type	B-AC1	B-AC2	B-AC3	B-AC4	B-AC5	B-AC6	B-AC7	B-AC8	B-AC9	B-AC10	B-AC11	B-AC12	B-AC13	B-AC14	B-AC15	B-AC16	B-DC1	B-DC2	B-DC3	B-DC4	B-DC5	B-DC6	B-DC7	B-DC8	B-DC9	B-DC10	B-DC11	B-DC12	B-DC13	B-DC14	B-DC15	B-DC16	B-Ph1	B-Ph2	B-Ph3	B-Ph4	B-Ph5	B-Ph6	B-Ph7	B-Ph8	B-Ph9	B-Ph10	B-Ph11	B-Ph12	B-Ph13	B-Ph14	B-Ph15	B-Ph16	

Term	0.00000e+00	0.00000e+00	0.00000e+00	0.00000e+00	0.00000e+00	0.00000e+00	0.00000e+00	0.00000e+00	0.00000e+00	0.00000e+00	0.00000e+00	0.00000e+00	0.00000e+00	0.00000e+00	0.00000e+00	0.00000e+00	0.00000e+00	0.00000e+00	0.00000e+00	0.00000e+00	0.00000e+00	0.00000e+00	0.00000e+00	0.00000e+00	0.00000e+00	0.00000e+00	0.00000e+00	0.00000e+00	0.00000e+00	0.00000e+00	0.00000e+00	0.00000e+00	-1.84242e+02	-1.31288e+02	-1.21626e+02	-1.81577e+02	-7.85704e+01	-6.40695e+01	-1.57418e+02	-1.62015e+02	-9.27530e+01	-5.43537e+01	-1.71140e+02	-1.72811e+02	-1.83937e+02	-1.76769e+02	-8.70099e+01	-1.49549e+02	
Factor	3.59974e-05	1.57676e-04	5.33321e-05	1.56162e-01	1.60835e-06	2.14125e-06	1.73087e-01	5.61743e-02	1.99634e-06	1.80400e-06	9.22686e-02	3.72187e-02	3.89265e-02	9.91070e-03	1.84539e-06	1.43689e-02	3.91198e-06	4.30745e-06	1.20086e-06	7.79773e-02	4.62936e-08	4.73652e-08	8.15129e-02	2.80165e-02	4.65171e-08	4.73618e-08	4.47915e-02	1.80050e-02	1.94850e-02	4.98058e-03	4.68586e-08	6.99640e-03	X	X	X	X	X	X	X	X	X	X	X	X	X	X	X	X	



#DISTANCE SETTINGS
A = Detector Channel
A-1	A-2	A-3	A-4	A-5	A-6	A-7	A-8	A-9	A-10	A-11	A-12	A-13	A-14	A-15	A-16	

2.5000e+00	3.0000e+00	2.5000e+00	3.0000e+00	2.0000e+00	3.0000e+00	1.5000e+00	3.0000e+00	3.0000e+00	3.0000e+00	3.0000e+00	3.0000e+00	3.0000e+00	3.0000e+00	1.5000e+00	3.0000e+00	

B = Detector Channel
B-1	B-2	B-3	B-4	B-5	B-6	B-7	B-8	B-9	B-10	B-11	B-12	B-13	B-14	B-15	B-16	

1.0000e+01	1.0000e+01	1.0000e+01	1.4400e+00	1.0000e+01	1.0000e+01	1.5100e+00	1.9400e+00	1.0000e+01	1.0000e+01	1.9900e+00	2.4900e+00	2.4100e+00	2.9000e+00	1.0000e+01	2.9800e+00	




#DATA BEGINS
time	group	step	mark	flag	A-AC1	A-AC2	A-AC3	A-AC4	A-AC5	A-AC6	A-AC7	A-AC8	A-AC9	A-AC10	A-AC11	A-AC12	A-AC13	A-AC14	A-AC15	A-AC16	A-DC1	A-DC2	A-DC3	A-DC4	A-DC5	A-DC6	A-DC7	A-DC8	A-DC9	A-DC10	A-DC11	A-DC12	A-DC13	A-DC14	A-DC15	A-DC16	A-Ph1	A-Ph2	A-Ph3	A-Ph4	A-Ph5	A-Ph6	A-Ph7	A-Ph8	A-Ph9	A-Ph10	A-Ph11	A-Ph12	A-Ph13	A-Ph14	A-Ph15	A-Ph16	B-AC1	B-AC2	B-AC3	B-AC4	B-AC5	B-AC6	B-AC7	B-AC8	B-AC9	B-AC10	B-AC11	B-AC12	B-AC13	B-AC14	B-AC15	B-AC16	B-DC1	B-DC2	B-DC3	B-DC4	B-DC5	B-DC6	B-DC7	B-DC8	B-DC9	B-DC10	B-DC11	B-DC12	B-DC13	B-DC14	B-DC15	B-DC16	B-Ph1	B-Ph2	B-Ph3	B-Ph4	B-Ph5	B-Ph6	B-Ph7	B-Ph8	B-Ph9	B-Ph10	B-Ph11	B-Ph12	B-Ph13	B-Ph14	B-Ph15	B-Ph16	aux-1	digaux	

12087.855	1	1	0	512	0.13791	0.065508	0.098688	0.22264	0.22259	0.072478	0.30882	0.21573	0.18411	0.11721	0.20226	0.27352	0.2082	0.11128	0.082311	0.3763	-3.55	-4.4833	-4.7146	-4.0646	-4.5437	-4.4187	-4.3146	-4.8583	-4.2917	-4.4771	-4.6833	-4.0583	-4.5563	-4.4375	-4.0625	-4.7208	332.932	492.506	173.801	507.335	436.831	529.576	456.730	429.366	322.876	225.135	399.866	505.655	470.380	232.758	271.397	511.192	0.0019358	0.00044532	0.00026733	1315.3	1.35e-05	1.4236e-05	1332.5	540.33	1.0832e-05	1.1692e-05	598.99	211.53	183.36	82.818	6.6259e-06	107.23	0.0018722	0.0019196	0.00052769	1256	2.0646e-05	2.0805e-05	1276.7	517.37	2.0393e-05	2.0927e-05	576.53	204.04	177.99	79.942	2.0749e-05	103.39	497.904	360.778	263.414	184.497	262.754	348.770	183.095	188.912	251.060	333.340	187.316	191.350	193.690	198.604	342.106	195.956	-8191	255	
12087.927	1	1	0	0	0.11744	0.12113	0.095787	0.17083	0.13898	0.10432	0.068742	0.2245	0.058091	0.19995	0.2107	0.24194	0.06995	0.23019	0.20484	0.1769	-3.8667	-4.3708	-4.5208	-4.2271	-4.3688	-4.6	-4.275	-4.9958	-4.0896	-4.3792	-4.7083	-4.2208	-4.6687	-4.475	-4.0646	-4.7312	273.920	426.081	348.638	490.751	202.622	356.809	527.841	460.403	352.379	193.174	452.611	429.821	530.984	223.695	175.677	470.595	0.0021181	0.00033743	0.00017871	1297	8.2069e-06	5.5221e-06	1324.8	545.11	1.9211e-06	1.4257e-05	601.75	215.94	184.43	83.663	1.6903e-05	108.19	0.0018795	0.00192	0.00053059	1242.6	2.0539e-05	2.0672e-05	1273.6	518.82	2.0199e-05	2.072e-05	580.28	207.43	179.26	80.667	1.9838e-05	104.68	498.654	272.068	203.545	184.774	278.067	267.629	183.456	189.213	516.353	356.469	187.452	191.600	193.276	198.985	309.491	195.965	-8191	255	
12088.023	1	1	0	0	0.21054	0.28041	0.013138	0.29394	0.10707	0.14992	0.24794	0.14144	0.21886	0.13	0.3417	0.1398	0.27656	0.26168	0.18204	0.2657	-3.7021	-4.2396	-4.6667	-4.1229	-4.4375	-4.4375	-4.3	-4.8771	-4.1104	-4.2229	-4.8146	-4.2917	-4.5625	-4.7896	-3.9688	-4.7646	503.498	216.225	222.444	513.955	529.893	306.440	477.026	464.183	255.362	398.890	506.118	430.511	471.864	455.448	269.394	476.982	0.0018772	0.0018003	0.0001876	1292.1	8.6945e-06	6.8088e-06	1331.3	540.38	2.3607e-05	3.5589e-06	603.84	215.31	183.4	83.339	4.1389e-06	108.28	0.0018259	0.0018738	0.00051919	1236.1	2.0299e-05	2.0839e-05	1275.9	517.32	2.066e-05	2.0839e-05	581.97	207.7	178.7	80.448	2.0509e-05	104.49	499.383	249.739	256.191	184.822	312.141	335.708	183.280	189.157	298.746	362.721	187.286	191.737	193.710	198.959	278.578	195.992	-8191	255	
12088.119	1	1	0	0	0.24742	0.096207	0.048815	0.37847	0.29243	0.15751	0.28653	0.1017	0.1046	0.1257	0.29944	0.16064	0.17812	0.31716	0.16334	0.14755	-4.0479	-4.2979	-4.7	-4.2604	-4.3979	-4.3313	-4.1792	-4.7208	-4.2167	-4.1875	-4.7271	-4.2333	-4.5292	-4.8208	-4.075	-4.6979	450.837	194.741	260.210	500.376	394.320	241.556	422.681	197.933	323.988	269.197	499.590	429.379	441.323	173.889	173.591	418.243	0.0018556	0.0012788	0.00017746	1300.5	6.8775e-06	1.2834e-05	1341.9	542.73	1.4737e-05	6.9844e-06	603.45	214.48	183.11	83.189	4.4225e-06	107.39	0.0018466	0.0018731	0.00052618	1244.9	2.0299e-05	2.0269e-05	1284	519.42	2.0365e-05	2.0365e-05	581.69	206.73	178.77	80.341	2.0044e-05	103.96	502.110	239.385	247.689	184.776	295.118	331.328	183.245	189.158	284.125	306.545	187.506	191.682	193.655	198.994	337.572	196.022	-8191	255	
12088.240	1	1	0	0	0.10976	0.065466	0.13383	0.13012	0.10615	0.096955	0.28479	0.17523	0.089506	0.26948	0.19381	0.42546	0.34488	0.21171	0.082474	0.25678	-4.0208	-4.05	-4.7688	-4.3167	-4.4396	-4.6	-4.2063	-4.5604	-4.3104	-4.0833	-4.8083	-4.35	-4.2875	-4.7937	-4.0354	-4.7479	388.169	445.393	421.887	477.525	398.003	285.355	470.382	435.784	251.239	247.263	189.267	467.639	436.044	494.453	433.256	464.101	0.0017995	0.0013868	0.00055656	1303.9	9.8924e-06	1.684e-05	1345.4	544.76	1.3789e-05	3.9343e-06	601.79	212.3	183.43	83.322	1.3015e-05	106.58	0.0018247	0.0018469	0.00052027	1252.6	1.9896e-05	2.0121e-05	1285	519.96	2.0024e-05	2.0084e-05	578.44	204.72	177.74	80.109	1.993e-05	103.29	503.200	277.178	258.256	184.670	294.033	331.353	183.615	189.225	265.317	388.565	187.231	191.245	193.613	198.697	245.389	195.880	-8191	255	
12088.336	1	1	0	0	0.1311	0.18667	0.15773	0.3172	0.17064	0.020759	0.18475	0.1109	0.060294	0.164	0.15416	0.14805	0.23711	0.38883	0.022047	0.046603	-4.2208	-4.1771	-4.6646	-4.3292	-4.1604	-4.7521	-4.2083	-4.7458	-4.5021	-4.0104	-4.775	-4.4688	-4.4021	-4.7521	-4.1104	-4.5437	372.967	488.345	306.274	494.213	370.429	359.418	180.713	484.175	298.696	456.072	437.249	500.619	238.217	197.112	204.897	184.492	0.0019721	0.00075571	0.00030875	1306.6	1.1049e-05	7.7638e-06	1330.9	542.5	1.6273e-05	1.3839e-05	595.76	210.98	182.87	82.487	1.8065e-05	105.68	0.0018169	0.001844	0.00051758	1252	1.9863e-05	2.0157e-05	1277.6	518.5	1.9956e-05	1.9808e-05	575.71	202.73	176.78	79.394	1.9984e-05	102.16	497.461	244.526	238.423	184.623	268.432	303.324	183.206	189.002	311.682	331.874	187.394	191.317	193.578	198.867	245.818	196.046	-8191	255	
12088.431	1	1	0	0	0.11695	0.17986	0.090539	0.22694	0.22275	0.13335	0.21346	0.21609	0.21874	0.16469	0.20163	0.095669	0.057385	0.31338	0.17704	0.30609	-4.1042	-3.9229	-4.6646	-4.5792	-4.075	-4.6813	-4.4396	-4.45	-4.6167	-4.0646	-4.7583	-4.4833	-4.2479	-4.8083	-4.125	-4.3417	220.776	309.928	522.141	514.370	306.087	431.476	491.642	175.091	504.041	504.296	488.131	531.090	462.141	463.156	202.580	451.472	0.0017266	0.0011515	0.00013616	1314	7.0314e-06	1.4128e-05	1332.8	540.51	1.3096e-05	4.8823e-06	597.99	210.74	182.24	82.05	3.3343e-06	106.49	0.0018259	0.0018533	0.00051919	1256.8	2.0039e-05	2.0494e-05	1277.4	517.1	2.0025e-05	2.0072e-05	574.18	202.79	176.87	79.378	1.9994e-05	102.76	506.287	263.482	256.792	184.632	316.878	307.244	183.302	189.103	285.121	304.321	187.441	191.589	193.714	198.654	239.869	195.947	-8191	255	
12088.504	1	1	0	0	0.17031	0.26292	0.14915	0.13453	0.26633	0.063007	0.11813	0.1351	0.12264	0.25065	0.20765	0.15639	0.19841	0.26953	0.24743	0.030563	-4.1708	-3.9646	-4.6271	-4.6021	-4.0292	-4.6167	-4.3938	-4.3729	-4.5521	-4.0833	-4.6625	-4.5563	-4.0042	-4.7292	-4.1312	-4.3333	267.189	194.382	465.910	174.411	431.220	420.978	515.899	476.308	440.251	407.264	472.927	390.121	450.470	500.532	350.474	233.305	0.0018434	0.0014162	0.00019889	1310.9	4.2807e-06	3.3924e-06	1333.9	544.54	1.5198e-05	1.7431e-05	598.61	214.62	183.52	82.967	1.6329e-05	107.28	0.0018109	0.0018267	0.00052602	1249.2	1.9948e-05	2.0666e-05	1278.2	519.6	2.0289e-05	2.0476e-05	580.09	207.15	178.67	80.187	2.0341e-05	103.86	501.382	238.897	236.209	184.549	302.923	411.895	183.009	189.128	240.615	310.577	187.483	191.430	193.483	198.748	260.746	195.735	-8191	255	
12088.625	1	1	0	0	0.1538	0.023832	0.067267	0.14377	0.064828	0.16207	0.30159	0.35741	0.09927	0.12637	0.097783	0.17436	0.15246	0.21966	0.13228	0.20753	-4.3167	-4.0583	-4.5271	-4.6875	-4.0813	-4.5708	-4.5938	-4.4583	-4.7875	-4.3	-4.5208	-4.6917	-4.0354	-4.8583	-4.3771	-4.3146	528.561	342.140	388.179	195.279	423.630	204.772	452.015	491.010	497.120	411.843	523.638	474.907	223.320	452.496	360.273	415.721	0.0017658	0.00080716	0.00071888	1306.2	1.6041e-05	5.9682e-06	1339.1	546.74	4.0458e-06	2.7367e-06	604.99	217.13	186.33	83.718	1.7825e-05	108.19	0.0018171	0.0018699	0.00052541	1251.3	1.9891e-05	2.0791e-05	1283.6	522.12	2.0642e-05	2.0724e-05	584.02	210.14	181.06	80.811	2.0987e-05	104.32	498.799	232.589	299.611	184.497	310.461	303.949	183.263	189.202	249.289	241.117	187.249	191.631	193.627	198.969	295.940	195.871	-8191	255	
12088.719	1	1	0	0	0.21094	0.086507	0.13543	0.30494	0.065944	0.3051	0.11258	0.2898	0.074293	0.012006	0.090583	0.34486	0.06865	0.13173	0.19082	0.18294	-4.3396	-4.2063	-4.4917	-4.8979	-4.0729	-4.6125	-4.5958	-4.3438	-4.7708	-4.1687	-4.4229	-4.6792	-4.2417	-4.6667	-4.4417	-4.4313	247.599	320.491	267.282	512.920	494.813	523.393	483.301	486.967	242.781	512.356	422.452	172.830	451.013	514.015	236.108	432.310	0.0019877	0.001154	0.00014572	1308.3	5.3411e-06	1.8912e-05	1335.4	545.68	9.8777e-06	1.3414e-05	603.2	217.57	185.83	83.505	1.5796e-05	107.14	0.0019063	0.0019152	0.00054025	1251.1	2.0613e-05	2.1258e-05	1279.3	522.88	2.0916e-05	2.12e-05	583.2	210.17	180.9	80.622	2.0988e-05	103.68	496.239	252.341	238.361	184.618	268.107	327.472	183.398	189.127	229.104	330.615	187.672	191.288	193.904	198.753	278.577	195.834	-8191	255	
12088.815	1	1	0	0	0.20397	0.22286	0.14533	0.087105	0.11344	0.067736	0.24509	0.14016	0.13629	0.15083	0.15473	0.098056	0.20045	0.078917	0.15855	0.24278	-4.3812	-4.3542	-4.3083	-4.825	-4.0854	-4.6167	-4.7667	-4.0875	-4.5917	-4.325	-4.4563	-4.6604	-4.1333	-4.6146	-4.4021	-4.1229	402.207	291.286	308.381	528.788	509.543	342.988	462.627	501.891	424.632	518.762	471.940	464.445	530.165	519.884	341.791	512.747	0.0016807	0.0008052	0.00032923	1306.8	1.2788e-05	6.6969e-06	1325.9	546.26	4.802e-06	6.441e-06	603.26	215.69	185.94	83.275	1.4858e-05	106.5	0.0019156	0.0019198	0.00053798	1253.7	2.0512e-05	2.1354e-05	1273.9	522.66	2.0851e-05	2.096e-05	581.53	208.44	180.63	80.443	2.087e-05	103.11	495.351	275.190	310.126	184.856	266.213	332.133	183.201	189.245	202.191	422.375	187.511	191.546	193.631	198.754	298.997	196.114	-8191	255	
12088.936	1	1	0	0	0.1261	0.18606	0.093976	0.15937	0.32975	0.058933	0.29111	0.23018	0.051291	0.091377	0.37112	0.073719	0.12191	0.15801	0.079642	0.2162	-4.3854	-4.2396	-4.1208	-4.8021	-4.0563	-4.2188	-4.8792	-4.1896	-4.5042	-4.3146	-4.325	-4.8271	-4.2604	-4.65	-4.6104	-4.2208	386.806	375.269	192.771	452.227	189.804	280.871	429.312	506.501	350.504	441.026	520.830	426.717	205.698	522.544	204.233	406.692	0.0019712	0.0004354	0.00025477	1304.8	1.5687e-05	8.2771e-06	1321.2	543.67	2.852e-06	1.2596e-05	597.45	214.93	185.01	82.819	1.7604e-05	106.52	0.0019047	0.0019182	0.00054189	1250.8	2.1114e-05	2.1676e-05	1272.5	519.95	2.1419e-05	2.16e-05	577.29	207.16	179.4	79.936	2.1006e-05	102.88	504.766	290.185	305.669	184.656	260.742	377.622	183.214	189.109	328.723	327.375	187.384	191.359	193.592	198.893	296.012	196.036	-8191	255	
12089.032	1	1	0	0	0.066004	0.045931	0.043438	0.18134	0.18071	0.20783	0.19563	0.2213	0.081868	0.2551	0.33274	0.1579	0.19388	0.17691	0.18037	0.12585	-4.2604	-4.3938	-4.2875	-4.7937	-4.0437	-4.4854	-4.725	-4.3854	-4.5417	-4.3833	-4.1521	-4.7271	-4.2396	-4.3958	-4.6125	-4.2146	382.676	196.831	324.918	485.602	372.625	258.706	421.721	485.603	195.054	453.822	471.514	510.035	519.741	478.855	446.228	471.640	0.0019598	0.0010883	0.00040684	1307.7	9.913e-06	1.5943e-05	1323.9	542.78	7.6972e-06	1.1487e-05	600.64	215.45	184.96	82.473	1.5241e-05	106.56	0.0019118	0.0019371	0.00053657	1251.3	2.0829e-05	2.1624e-05	1269.8	519.08	2.1634e-05	2.1627e-05	578.23	208.12	179.66	79.899	2.1401e-05	103.24	498.709	300.861	227.320	184.522	316.769	286.922	183.397	189.335	327.626	351.544	187.457	191.941	193.436	198.619	308.661	196.178	-8191	255	
12089.128	1	1	0	0	0.16485	0.16251	0.15687	0.12419	0.23175	0.19668	0.17634	0.15747	0.07757	0.052824	0.24353	0.14503	0.024511	0.070709	0.26555	0.37154	-4.2396	-4.5771	-4.0542	-4.8167	-4.3125	-4.1562	-4.8125	-4.2063	-4.5042	-4.5854	-4.0896	-4.8063	-4.5479	-4.4	-4.6146	-4.3292	193.424	310.030	304.049	386.220	273.404	512.203	172.354	447.174	322.386	446.674	482.806	495.414	223.124	401.606	249.362	430.839	0.0018724	0.0014687	0.00051007	1305.6	1.3865e-05	6.9113e-06	1321.3	543.08	1.1981e-05	1.092e-05	600.05	217.6	186.6	83.399	1.5053e-05	107.74	0.001943	0.0019874	0.00055271	1247.9	2.1247e-05	2.1698e-05	1271.3	520.22	2.1772e-05	2.181e-05	580.79	210.65	181.13	80.631	2.2029e-05	104.02	495.944	311.860	294.884	184.684	264.665	320.127	183.275	189.154	247.783	343.907	187.345	191.333	194.003	198.804	288.900	196.104	-8191	255	
12089.224	1	1	0	0	0.13792	0.19963	0.16576	0.1434	0.015562	0.064004	0.20934	0.27999	0.086692	0.14176	0.072074	0.15929	0.066874	0.26174	0.12433	0.034125	-4.1062	-4.5417	-3.975	-4.9104	-4.3146	-4.0813	-4.775	-4.3333	-4.4208	-4.5687	-4.2354	-4.7229	-4.5792	-4.3958	-4.5167	-4.4083	405.267	334.942	372.874	505.026	235.618	207.448	360.343	480.231	373.545	530.360	480.191	504.829	271.966	528.282	470.443	514.888	0.0020892	0.0017928	0.00048122	1296.7	1.1507e-05	1.0882e-05	1328.1	545.72	9.506e-06	3.1556e-06	599.78	219.57	185.73	83.184	7.7075e-06	106.93	0.0020044	0.0020279	0.00055933	1248.9	2.1731e-05	2.1952e-05	1274.5	521.72	2.1701e-05	2.192e-05	580.65	211.06	181.31	80.493	2.1884e-05	103.69	502.011	279.939	283.844	184.657	309.006	404.660	183.164	189.072	249.189	303.381	187.498	191.500	193.506	198.963	248.370	195.841	-8191	255	
12089.320	1	1	0	0	0.14072	0.046881	0.22231	0.21494	0.13787	0.18315	0.16628	0.46386	0.026165	0.054546	0.23492	0.22616	0.20273	0.25676	0.21345	0.36961	-3.975	-4.6062	-4.1104	-4.8271	-4.4146	-4.0708	-4.9229	-4.325	-4.1667	-4.6375	-4.2542	-4.7042	-4.6062	-4.2708	-4.5396	-4.3812	400.210	529.376	211.560	469.432	252.751	436.249	453.285	467.331	342.928	508.052	530.372	461.227	282.674	194.062	525.712	423.967	0.0021051	0.00044967	0.00040457	1302.6	6.3167e-06	2.6664e-06	1321.4	546.6	1.1606e-05	1.034e-05	604.04	218.22	185.77	83.541	1.1714e-05	107.06	0.0019889	0.0019949	0.00055762	1249.9	2.1671e-05	2.1874e-05	1269.2	522	2.1676e-05	2.1689e-05	581.65	210.23	181.1	80.713	2.1555e-05	103.53	502.857	243.217	253.659	184.485	286.410	291.178	183.150	189.118	259.461	393.628	187.402	191.659	193.816	198.919	277.783	195.926	-8191	255	
12089.417	1	1	0	0	0.14592	0.15038	0.20427	0.21736	0.20071	0.081232	0.19862	0.36045	0.14744	0.054204	0.0099343	0.19497	0.1899	0.17608	0.092782	0.18335	-3.8563	-4.7125	-4.0771	-4.3979	-4.4583	-4.0292	-4.7417	-4.4563	-4.2083	-4.7229	-4.4187	-4.3792	-4.5021	-4.2583	-4.5979	-4.4896	311.250	226.234	211.925	500.682	491.146	376.036	495.114	461.591	286.945	207.168	173.346	202.469	481.877	178.212	276.245	428.607	0.0017873	0.0010583	0.00040883	1304.9	1.0441e-05	1.3814e-05	1325.9	545.52	8.3936e-06	5.6625e-06	601.11	217.18	185.63	82.896	9.455e-06	105.95	0.0019365	0.0019704	0.00055167	1251	2.1378e-05	2.1588e-05	1271.8	521.92	2.1586e-05	2.1962e-05	579.23	209.49	180.34	80.269	2.2152e-05	102.9	503.296	256.174	189.650	184.653	323.825	374.739	183.170	189.021	243.232	303.065	187.563	191.121	193.636	198.926	323.738	195.939	-8191	255	
12089.535	1	1	0	0	0.33606	0.19068	0.10806	0.3451	0.16068	0.12642	0.30247	0.25808	0.21438	0.049585	0.11595	0.31929	0.29323	0.14995	0.10352	0.29306	-3.7687	-4.5521	-4.1104	-4.4583	-4.5167	-4.1854	-4.7792	-4.6875	-4.125	-4.725	-4.1333	-4.3354	-4.6813	-4.2063	-4.4625	-4.5188	458.425	177.749	471.301	432.267	329.552	524.119	507.869	204.230	510.533	517.527	505.516	175.527	447.836	187.969	385.162	502.719	0.0018014	0.0010899	0.00033164	1301.7	8.875e-06	1.0981e-05	1314.5	541.66	1.6421e-05	7.8015e-06	597.45	216.59	184.32	82.3	7.8269e-06	105.85	0.0019655	0.0020032	0.00056079	1248.2	2.1562e-05	2.2175e-05	1266.8	519.14	2.1733e-05	2.2335e-05	576.31	208.65	179.78	79.701	2.2415e-05	102.7	490.444	233.123	259.157	184.690	253.896	403.877	183.493	189.071	284.843	319.260	187.665	191.448	193.594	198.820	320.674	195.922	-8191	255	
12089.632	1	1	0	0	0.094093	0.097762	0.060019	0.16828	0.091125	0.16002	0.098453	0.193	0.07908	0.082181	0.23541	0.11738	0.15529	0.13543	0.052989	0.2693	-3.8458	-4.5896	-4.2958	-4.3542	-4.575	-4.1396	-4.6125	-4.5792	-3.9292	-4.7583	-4.4875	-4.3688	-4.8542	-4.1229	-4.5417	-4.6667	339.806	271.518	430.240	198.023	206.848	277.469	507.759	486.464	478.363	340.112	493.691	477.083	420.355	531.039	185.871	453.180	0.0018256	0.00116	0.00049624	1297.8	1.0907e-05	2.9256e-06	1318.7	541.8	1.434e-05	1.0788e-05	597.84	215.76	183.98	83.465	1.1868e-05	106.49	0.0019697	0.0020519	0.00056845	1246.2	2.1865e-05	2.2325e-05	1269.4	517.98	2.1973e-05	2.2279e-05	577.25	208.94	180.2	80.344	2.237e-05	103.41	498.958	224.440	275.861	184.658	306.497	390.494	183.146	189.117	230.461	308.654	187.661	191.510	193.687	198.763	248.412	196.059	-8191	255	
12089.728	1	1	0	0	0.25651	0.063483	0.07762	0.11397	0.081076	0.16515	0.31439	0.32635	0.1046	0.085131	0.20948	0.098207	0.30991	0.19446	0.17427	0.30873	-3.7	-4.5583	-4.0687	-4.2063	-4.7104	-4.1208	-4.5875	-4.8625	-3.9042	-4.5271	-4.4667	-4.1479	-4.6646	-4.3417	-4.3	-4.8354	330.068	234.156	528.301	182.963	275.055	224.868	450.746	481.250	244.472	477.714	409.699	513.898	439.964	511.221	531.155	475.657	0.0021754	0.00038075	0.00027473	1295.8	3.4896e-06	2.5697e-05	1322.3	547.41	4.928e-06	1.0385e-05	604.96	220.76	187.91	83.69	9.8295e-06	106.95	0.0019555	0.0020393	0.00056505	1245.9	2.1837e-05	2.2199e-05	1270.9	522.92	2.1829e-05	2.2459e-05	584.07	213.62	182.67	80.923	2.2051e-05	104.09	498.266	274.004	264.039	184.543	216.014	293.217	183.277	189.260	303.084	317.923	187.481	191.535	193.706	198.842	320.503	196.090	-8191	255	
12089.799	1	1	0	0	0.19148	0.15247	0.033059	0.21803	0.069961	0.28548	0.20187	0.20871	0.12462	0.18371	0.32852	0.16492	0.076744	0.22917	0.20756	0.13123	-3.6437	-4.3833	-4.3583	-4.4167	-4.6937	-4.1979	-4.5333	-4.7583	-4.0104	-4.4938	-4.5458	-4.1667	-4.7188	-4.3792	-4.1792	-4.7667	192.466	359.700	410.211	178.437	385.103	332.322	414.447	203.966	510.584	480.029	481.413	210.714	238.716	487.033	234.342	463.271	0.0019147	0.0012732	0.0003914	1300.8	6.7502e-06	7.5399e-06	1322.8	545.5	1.3783e-05	1.3049e-05	601.09	218.51	186.44	83.081	4.6397e-06	105.55	0.0019577	0.0020424	0.00056899	1249.3	2.21e-05	2.1939e-05	1270.1	522.37	2.2048e-05	2.2569e-05	579.59	211.46	182.16	80.445	2.2359e-05	102.71	504.361	298.748	305.553	184.706	318.355	248.264	183.162	189.244	283.479	282.014	187.410	191.679	193.720	198.966	327.105	196.143	-8191	255	
12089.920	1	1	0	0	0.075186	0.18561	0.10866	0.08324	0.095852	0.18123	0.11771	0.28932	0.077664	0.075048	0.27728	0.087814	0.2775	0.24708	0.071775	0.32055	-3.7458	-4.4333	-4.3708	-4.3292	-4.6062	-4.2896	-4.3896	-4.8396	-3.9167	-4.3542	-4.6521	-4.2042	-4.8354	-4.4854	-4.1354	-4.8542	465.219	353.269	346.623	510.604	395.793	460.540	257.466	499.232	448.918	514.730	492.235	463.166	462.610	448.367	305.555	485.567	0.0017671	0.00056978	0.00013422	1300.5	9.2484e-06	5.61e-06	1311.8	541.98	2.1583e-05	1.2344e-05	596.75	215.81	185.38	82.82	1.1522e-05	105.09	0.0019839	0.0020588	0.00056099	1246.9	2.2057e-05	2.2378e-05	1262	520.01	2.2254e-05	2.2748e-05	576.25	209.37	180.97	79.881	2.2082e-05	102.14	502.987	262.889	215.703	184.733	252.342	433.115	183.102	189.223	305.100	347.779	187.456	191.404	193.948	198.816	267.753	195.980	-8191	255	
12090.016	1	1	0	0	0.13221	0.30318	0.10732	0.10266	0.19503	0.22577	0.42071	0.11823	0.036255	0.17636	0.29197	0.16315	0.24358	0.1695	0.10855	0.20273	-3.8729	-4.35	-4.6	-4.1792	-4.6896	-4.425	-4.2688	-4.7917	-4.2021	-4.2667	-4.6125	-4.0437	-4.7792	-4.4583	-4.1375	-4.875	293.872	259.327	511.395	519.768	172.762	223.110	193.082	516.655	362.933	319.066	511.136	526.658	192.591	526.971	268.615	397.765	0.0018983	0.0010907	0.00022983	1296.3	4.9889e-06	5.4484e-06	1308.4	542.37	1.8362e-05	7.123e-06	596.98	215.52	185.29	82.927	1.8316e-06	105.79	0.0019633	0.0020696	0.00056214	1244.4	2.2098e-05	2.2395e-05	1260.8	519.18	2.179e-05	2.2306e-05	577.98	208.65	180.44	80.019	2.2026e-05	102.57	496.825	280.893	281.892	184.558	314.775	394.877	183.300	189.199	290.595	372.683	187.466	191.194	193.765	198.608	445.753	196.018	-8191	255	
12090.112	1	1	0	0	0.12069	0.167	0.040198	0.25064	0.064206	0.036439	0.17071	0.18346	0.084117	0.12003	0.28671	0.31998	0.088916	0.29241	0.13337	0.30884	-3.7104	-4.2479	-4.3729	-4.1667	-4.35	-4.3542	-4.25	-4.7958	-4.0437	-4.2292	-4.6687	-4.1271	-4.4729	-4.4833	-4.0667	-4.8979	344.055	284.071	352.401	479.524	291.972	512.246	441.836	450.610	397.949	349.099	498.413	484.860	271.856	254.153	233.429	483.792	0.0017473	0.00038836	0.00037513	1295.7	7.0711e-06	1.5204e-05	1317.1	541.62	1.2022e-05	4.2545e-06	599.22	214.36	184.25	83.244	1.2339e-05	106.4	0.0019867	0.0020612	0.00056456	1240.7	2.1915e-05	2.2231e-05	1263.9	518.1	2.1973e-05	2.2177e-05	578.88	208.69	180.14	80.273	2.2007e-05	103.22	508.981	220.943	242.641	184.672	379.034	318.051	183.284	189.228	209.591	307.238	187.419	191.457	193.774	198.843	328.539	196.021	-8191	255	
12090.208	1	1	0	0	0.30472	0.095775	0.083822	0.19488	0.1389	0.16034	0.037592	0.2141	0.15826	0.29557	0.055832	0.16759	0.26895	0.20915	0.050775	0.2342	-3.9208	-4.2	-4.6917	-4.3	-4.3333	-4.2917	-4.1375	-4.6188	-4.225	-4.1813	-4.8458	-4.2875	-4.5437	-4.6813	-3.9	-4.8625	318.168	383.104	464.967	468.579	209.285	452.588	408.535	179.614	269.675	416.154	402.805	193.550	187.850	213.957	350.464	480.330	0.0018906	0.00050446	0.00020997	1297.5	7.8778e-06	1.7179e-05	1316.4	543.58	1.3639e-05	7.3354e-06	600.08	218.59	186.28	83.7	1.1957e-05	107.77	0.0019843	0.0020365	0.00056356	1244.1	2.1937e-05	2.193e-05	1268.3	519.92	2.1831e-05	2.225e-05	581.98	211.74	181.61	80.995	2.1955e-05	104.46	500.094	458.993	187.070	184.513	274.982	354.364	183.185	189.173	269.347	347.869	187.434	191.450	193.703	198.779	238.764	196.124	-8191	255	
12090.305	1	1	0	0	0.21671	0.11523	0.17323	0.42897	0.072669	0.25862	0.086342	0.25495	0.2508	0.25421	0.082819	0.22163	0.10047	0.16649	0.11802	0.25878	-3.9708	-4.0958	-4.6083	-4.4375	-4.2312	-4.5979	-4.2438	-4.7396	-4.2708	-4.1333	-4.7875	-4.2458	-4.5271	-4.8021	-4.0229	-4.6146	217.971	179.600	382.440	498.621	333.115	195.546	529.152	502.998	264.270	285.856	172.457	188.830	378.645	523.808	518.082	415.075	0.0020226	0.0010168	0.00047215	1293.8	1.0302e-05	5.4737e-06	1322.7	546.68	1.1935e-05	5.701e-06	606.18	219.94	187.1	83.683	4.0705e-06	107.09	0.0019736	0.0020232	0.00056074	1243.3	2.1867e-05	2.2146e-05	1270.5	523.16	2.1842e-05	2.2322e-05	585.32	212.69	182.62	81.037	2.2141e-05	104.05	499.202	213.345	244.402	184.565	259.959	265.054	183.332	189.196	257.039	355.009	187.408	191.206	193.844	198.755	362.506	196.098	-8191	255	
12090.401	1	1	0	0	0.080958	0.13762	0.15018	0.30786	0.17682	0.057277	0.22007	0.35144	0.26478	0.12898	0.14891	0.082131	0.29853	0.45251	0.29086	0.26558	-4.0521	-4.0417	-4.5667	-4.2229	-4.2146	-4.5271	-4.2646	-4.7625	-4.4229	-4.0354	-4.8562	-4.45	-4.2688	-4.7646	-3.9979	-4.525	284.618	180.190	210.001	485.550	233.280	291.788	466.931	524.436	499.142	428.332	519.892	450.953	177.145	527.541	395.641	515.539	0.0018724	0.00062487	9.1373e-05	1302.4	9.8484e-06	9.5596e-06	1313.6	543.52	2.4579e-05	9.0429e-06	600.72	216.26	185.46	82.999	6.0096e-06	106.17	0.0019891	0.0020177	0.00057385	1248.3	2.2015e-05	2.2212e-05	1265.9	520.67	2.2059e-05	2.2383e-05	579.72	208.72	180.69	80.346	2.2327e-05	103.01	503.832	304.180	478.674	184.615	242.633	355.133	183.149	189.030	266.149	282.049	187.493	191.352	193.752	198.837	285.231	196.135	-8191	255	
12090.497	1	1	0	0	0.083303	0.10721	0.096932	0.25592	0.14897	0.25824	0.19555	0.030867	0.13305	0.0044688	0.24614	0.19169	0.26713	0.24693	0.11489	0.20029	-4.1792	-4.1833	-4.625	-4.3917	-4.0563	-4.6521	-4.3479	-4.5458	-4.5646	-3.925	-4.7104	-4.4208	-4.2146	-4.8313	-4.0563	-4.3604	313.064	339.153	350.720	482.539	220.249	303.817	483.014	409.262	408.270	454.296	499.629	504.513	520.272	526.100	413.784	449.119	0.0017992	0.00055303	0.0002737	1294.9	1.6073e-06	1.492e-05	1316.4	540.7	1.6035e-05	9.8394e-06	596.08	212.18	182.48	82.579	1.1528e-05	105.93	0.0020152	0.0020367	0.00057874	1246.5	2.2281e-05	2.2754e-05	1267.4	519.09	2.2058e-05	2.2506e-05	577.14	205.34	178.29	79.898	2.2172e-05	102.72	496.727	255.718	252.087	184.853	276.479	306.806	183.336	189.154	262.106	356.560	187.391	191.111	193.617	198.725	307.259	196.286	-8191	255	
12090.616	1	1	0	0	0.32783	0.17763	0.1514	0.24278	0.10931	0.20818	0.23129	0.35349	0.043347	0.032603	0.07789	0.20485	0.10952	0.2534	0.02521	0.22152	-4.1958	-3.9875	-4.4062	-4.4979	-4.2042	-4.6312	-4.275	-4.5375	-4.55	-3.9562	-4.5042	-4.4125	-4.1188	-4.7958	-4.2208	-4.3562	479.175	495.998	316.891	488.102	385.122	326.750	480.337	508.566	190.774	452.374	408.542	387.312	482.163	519.271	255.135	502.849	0.0019115	0.00065556	0.00025387	1301	1.452e-05	1.022e-05	1318.5	541.36	2.2569e-05	1.2714e-05	597.16	213.63	182.16	82.602	1.3227e-05	106.52	0.0020053	0.0020408	0.00057446	1245.4	2.2092e-05	2.2487e-05	1268.3	518.14	2.2096e-05	2.2256e-05	577.58	206.41	178.3	79.888	2.2268e-05	103.29	500.253	225.483	214.020	184.735	308.131	335.097	183.117	189.006	254.563	306.721	187.495	191.582	193.617	198.779	308.297	196.045	-8191	255	
12090.712	1	1	0	0	0.18309	0.16477	0.0076136	0.16283	0.16093	0.098383	0.10463	0.25687	0.010123	0.13839	0.20083	0.11394	0.19967	0.075413	0.14476	0.4496	-4.3104	-3.8708	-4.6062	-4.525	-4.0521	-4.5354	-4.2479	-4.3729	-4.6667	-3.8958	-4.6271	-4.5646	-3.9583	-4.7125	-4.0687	-4.4313	395.066	364.983	429.678	471.231	252.898	369.345	472.186	485.692	345.091	505.532	491.476	488.630	419.991	489.074	463.657	440.715	0.0018923	0.00079857	0.00036859	1294.7	1.1742e-05	9.3743e-06	1318.1	538.55	1.4508e-05	6.9259e-06	593.4	211.24	181.77	82.624	6.5824e-06	106.59	0.0020168	0.0020756	0.00058482	1240.8	2.2152e-05	2.2851e-05	1268.3	515.87	2.2533e-05	2.2574e-05	576.12	205.08	177.63	79.983	2.2637e-05	103.37	503.916	247.599	250.431	184.565	283.815	366.908	183.180	188.960	290.454	286.274	187.404	191.337	193.311	198.773	279.612	196.019	-8191	255	
12090.808	1	1	0	0	0.17847	0.048752	0.090628	0.33287	0.1433	0.17419	0.17825	0.11155	0.10781	0.12652	0.063505	0.25264	0.10471	0.17105	0.33552	0.27632	-4.3271	-4.1604	-4.225	-4.6417	-3.8708	-4.4646	-4.5354	-4.2688	-4.6042	-4.1646	-4.5208	-4.6708	-4.0958	-4.9708	-4.2854	-4.2792	199.876	279.081	213.251	476.685	430.484	391.981	472.920	468.189	467.352	432.558	488.205	472.389	298.910	179.715	332.942	471.272	0.0018282	0.0008058	0.00060347	1295.1	6.6435e-06	1.587e-05	1322.4	539.45	1.5881e-05	9.1528e-06	593.56	209.95	181.08	82.251	2.0245e-05	105.9	0.0020134	0.0020773	0.00058116	1245.4	2.1975e-05	2.28e-05	1271.6	516.26	2.2281e-05	2.2691e-05	575.87	203.47	176.84	79.56	2.251e-05	102.69	502.043	300.870	241.960	184.715	417.101	296.985	183.318	189.200	284.208	311.565	187.421	191.309	193.801	198.827	330.099	195.965	-8191	255	
12090.904	1	1	0	0	0.088452	0.17723	0.27481	0.27053	0.17625	0.13736	0.1574	0.23513	0.16887	0.36079	0.27159	0.10529	0.18606	0.25004	0.13621	0.17398	-4.4104	-4.2208	-4.4083	-4.7083	-4.1542	-4.55	-4.4521	-4.2167	-4.6562	-4.2438	-4.4354	-4.825	-4.1188	-4.7354	-4.4021	-4.0792	217.125	518.621	246.753	494.234	424.679	390.281	503.190	479.935	378.960	304.506	473.353	425.805	431.318	177.514	236.931	430.038	0.0020403	0.00073242	0.00032954	1290.4	4.7896e-06	1.7153e-05	1311.8	535.98	2.2206e-05	1.01e-05	590.19	208.61	180.86	81.836	8.0902e-06	104.81	0.0020107	0.0020671	0.00058111	1240.4	2.1949e-05	2.2873e-05	1262.7	514	2.2527e-05	2.2587e-05	571.99	202.47	176.33	79.234	2.2429e-05	101.81	504.825	247.305	292.335	184.518	415.714	341.401	183.286	189.095	280.321	366.400	187.292	191.073	193.474	198.925	252.195	195.608	-8191	255	
12091.025	1	1	0	0	0.092022	0.2019	0.16474	0.25297	0.15962	0.12053	0.27479	0.19437	0.064853	0.096512	0.21348	0.10553	0.14161	0.2266	0.12194	0.29781	-4.3354	-4.1854	-4.1167	-4.8187	-4.1562	-4.4833	-4.5563	-4.1188	-4.6021	-4.2063	-4.4479	-4.9042	-4.2208	-4.6083	-4.6396	-4.0979	308.438	393.129	198.924	467.716	388.825	505.359	457.076	461.180	189.474	288.452	521.203	493.745	516.270	460.092	425.263	452.521	0.0018706	0.00087404	0.00012842	1291.7	1.1187e-05	1.2621e-05	1305.7	533.52	8.7183e-06	1.4117e-05	587.68	205.77	178.88	80.88	1.5227e-05	104.21	0.0020332	0.0020591	0.00058011	1238.7	2.1963e-05	2.3062e-05	1259	511.51	2.2505e-05	2.2503e-05	567.42	200.06	174.46	78.474	2.2126e-05	101.12	503.506	313.118	297.536	184.682	241.960	346.214	183.381	189.297	307.622	365.306	187.421	191.145	193.531	198.965	259.580	195.971	-8191	255	
12091.097	1	1	0	0	0.18152	0.044804	0.15952	0.24283	0.31865	0.041261	0.29432	0.23457	0.1577	0.086491	0.18827	0.11157	0.17823	0.18181	0.086631	0.10465	-4.1875	-4.2271	-4.0938	-4.8958	-4.1896	-4.3187	-4.7854	-4.2979	-4.6188	-4.3021	-4.4146	-4.95	-4.2104	-4.5542	-4.525	-4.1562	274.146	329.910	395.069	510.753	498.669	468.868	472.685	493.603	390.140	207.189	248.554	345.362	520.908	193.044	437.669	487.300	0.0017957	0.0014569	0.00043778	1286.7	1.3125e-05	1.2072e-05	1310.2	528.29	9.338e-06	9.23e-06	581.94	205.15	177.34	80.325	1.1971e-05	103.73	0.0020068	0.0020548	0.00057033	1236.8	2.2171e-05	2.2714e-05	1258.2	507.85	2.2444e-05	2.277e-05	564.27	198.92	173.5	78.062	2.2551e-05	100.72	502.026	232.314	256.253	184.586	254.869	311.929	183.029	189.445	217.822	340.953	187.402	191.566	193.602	198.623	301.687	195.904	-8191	255	
12091.193	1	1	0	0	0.10423	0.049845	0.065689	0.2132	0.16224	0.40081	0.33673	0.11415	0.099958	0.073993	0.03728	0.041322	0.19	0.15497	0.30631	0.095505	-4.2396	-4.3396	-3.9688	-4.8208	-4.0833	-4.1167	-4.8104	-4.0583	-4.4667	-4.3333	-4.1333	-4.6687	-4.3833	-4.3083	-4.65	-4.1229	484.709	451.115	351.828	422.894	369.088	419.295	491.870	196.177	256.699	190.163	423.312	520.811	206.279	524.371	412.990	212.978	0.0016942	0.00042088	0.00011091	1285.8	6.8874e-06	6.0269e-06	1311.8	531.82	1.2636e-05	5.3908e-06	587.92	207.99	178.47	80.884	1.0615e-05	104.52	0.0019955	0.0020309	0.00056193	1233.7	2.1675e-05	2.2261e-05	1259.7	509.36	2.2215e-05	2.2141e-05	567.27	201.34	174.31	78.403	2.2002e-05	101.48	502.161	213.447	236.190	184.225	269.890	363.532	183.303	189.235	265.764	380.351	187.428	191.279	193.896	198.972	287.376	195.988	-8191	255	
12091.313	1	1	0	0	0.13027	0.11207	0.1953	0.26056	0.16679	0.11329	0.23529	0.27042	0.051776	0.19636	0.064192	0.1562	0.29701	0.42078	0.22382	0.1272	-4.125	-4.4021	-4.0396	-4.8625	-4.2208	-4.1438	-4.9458	-4.2	-4.3646	-4.5	-4.2521	-4.7375	-4.3104	-4.4271	-4.6875	-4.2833	211.294	510.011	238.228	422.261	299.717	483.738	418.144	458.730	316.820	375.735	219.586	477.144	524.456	494.364	506.141	464.885	0.0017718	0.00083468	0.0003526	1286.9	1.3288e-05	8.792e-06	1320.5	535.9	1.7398e-05	1.6445e-05	589.87	208.98	179.18	81.58	8.8333e-06	105.28	0.0020148	0.0020339	0.00056738	1236.6	2.2039e-05	2.2508e-05	1267.4	512	2.1723e-05	2.1888e-05	570.63	201.74	175.05	78.934	2.1981e-05	102.01	498.324	171.347	284.215	184.616	293.545	226.843	183.200	189.098	288.570	349.452	187.360	191.354	193.861	198.784	284.972	196.019	-8191	255	
12091.408	1	1	0	0	0.28669	0.02708	0.22366	0.2198	0.36042	0.050242	0.37571	0.40141	0.16456	0.096218	0.17679	0.23427	0.077029	0.23034	0.14348	0.12883	-3.9083	-4.4812	-4.0813	-4.7271	-4.4042	-4.1417	-4.9354	-4.3521	-4.3917	-4.65	-4.1458	-4.6104	-4.5312	-4.2375	-4.6542	-4.5479	375.465	418.162	287.533	492.609	382.168	271.045	444.290	463.862	249.500	504.838	519.492	467.740	454.182	529.199	253.649	463.032	0.0018149	0.00058876	0.0002544	1299.5	1.4205e-06	3.3148e-06	1323.4	536.61	5.7827e-06	1.2641e-05	591.06	207.06	179.28	81.468	8.4426e-06	105.03	0.0019775	0.0019874	0.00055934	1245.3	2.1628e-05	2.1854e-05	1272.5	514.48	2.1381e-05	2.14e-05	571.22	200.83	174.67	78.834	2.1021e-05	101.68	507.746	283.399	341.668	184.557	329.470	522.175	183.079	189.102	333.413	306.531	187.512	191.544	193.792	198.796	258.502	195.925	-8191	255	
12091.504	1	1	0	0	0.15917	0.15683	0.03872	0.016671	0.13213	0.0099638	0.20887	0.38797	0.20275	0.20713	0.20709	0.15465	0.3204	0.33466	0.034633	0.20837	-3.9208	-4.6083	-4.1375	-4.7896	-4.3521	-4.2063	-4.6562	-4.2792	-4.225	-4.6521	-4.2146	-4.5729	-4.5729	-4.2625	-4.5938	-4.5042	392.791	489.867	491.774	213.461	358.658	207.575	446.629	465.392	186.234	299.173	174.846	514.130	528.794	525.472	334.817	505.193	0.0019038	0.000683	0.00032751	1303.5	1.0197e-05	2.7869e-05	1323.9	539.57	1.2348e-05	1.0574e-05	592.88	211.75	181.86	81.992	1.2299e-05	105.15	0.0019082	0.0019238	0.00053995	1249	2.0699e-05	2.1232e-05	1270.4	516.27	2.1051e-05	2.1243e-05	573.07	204.74	176.98	79.12	2.1421e-05	101.94	496.228	288.293	259.608	184.724	307.868	306.836	183.353	188.961	325.204	311.539	187.227	191.494	193.848	198.552	308.768	196.013	-8191	255	
12091.600	1	1	0	0	0.1601	0.11002	0.092377	0.47123	0.083977	0.10169	0.20602	0.19157	0.022219	0.097324	0.20482	0.18655	0.077288	0.45411	0.1749	0.14443	-3.8542	-4.8208	-4.1875	-4.5792	-4.6917	-4.2812	-4.7604	-4.5271	-4.2083	-4.8146	-4.3271	-4.6167	-4.6937	-4.3604	-4.6604	-4.5667	176.013	408.880	246.574	470.025	370.945	172.239	496.378	209.395	335.052	441.066	504.613	450.307	487.868	479.754	171.567	303.149	0.001867	0.00089357	0.00035871	1300.7	9.915e-06	6.7799e-06	1316.2	539.68	9.9419e-06	1.285e-05	590.05	209.53	180.25	81.375	4.7302e-06	104.56	0.0019071	0.0019433	0.00053985	1244.6	2.0923e-05	2.1162e-05	1265.3	515.82	2.1161e-05	2.1397e-05	571.47	203.67	176.2	78.738	2.1753e-05	101.43	500.739	289.606	364.390	184.538	294.299	413.546	183.257	189.149	266.742	262.962	187.287	191.398	193.593	198.783	253.529	195.945	-8191	255	
12091.696	1	1	0	0	0.11323	0.27116	0.071999	0.083807	0.16659	0.12548	0.14648	0.30976	0.078269	0.038361	0.26646	0.022454	0.22424	0.064249	0.16509	0.27745	-3.7938	-4.6521	-4.2146	-4.6104	-4.5437	-4.1354	-4.8125	-4.6062	-4.1458	-4.6583	-4.4062	-4.4625	-4.6729	-4.1125	-4.4313	-4.725	507.527	398.350	369.639	355.601	462.775	212.965	408.498	451.227	417.066	200.128	484.749	286.177	522.490	432.085	312.176	467.119	0.0019691	0.0011977	0.00035401	1295.8	1.0624e-05	9.5156e-06	1318.7	537.37	1.7366e-05	3.6854e-06	592.51	210.99	181.27	81.456	6.8274e-06	104.88	0.0019419	0.001991	0.0005505	1247.2	2.1323e-05	2.1467e-05	1266.5	513.58	2.1463e-05	2.2029e-05	572.96	204.49	176.8	78.761	2.2115e-05	101.57	499.710	183.979	249.218	184.605	291.064	335.048	183.115	189.091	246.237	405.724	187.428	191.296	193.619	198.879	218.174	195.881	-8191	255	
12091.792	1	1	0	0	0.15111	0.1392	0.15004	0.004385	0.06896	0.055355	0.16711	0.15356	0.29714	0.15197	0.12521	0.078465	0.32884	0.16379	0.19525	0.20493	-3.7062	-4.7771	-4.1125	-4.4083	-4.7208	-4.0271	-4.5542	-4.6646	-4.1021	-4.6479	-4.5167	-4.3229	-4.8479	-4.2646	-4.4417	-4.7562	369.153	422.184	318.037	503.642	511.026	410.955	486.619	441.962	338.329	431.927	483.170	510.791	479.516	528.075	381.068	474.272	0.0017158	0.0010812	0.00052626	1301.1	4.0032e-06	7.3266e-06	1320.5	539.98	2.2949e-05	1.0691e-05	593.9	215.33	183.77	81.987	1.0996e-05	105.63	0.0019764	0.0020147	0.00056348	1245.8	2.1906e-05	2.2137e-05	1264.9	516.03	2.1729e-05	2.2257e-05	575.34	208.52	179.05	79.391	2.2153e-05	102.38	503.277	281.272	312.382	184.619	307.092	292.710	183.210	189.266	311.240	333.864	187.415	191.590	193.694	198.981	349.572	196.160	-8191	255	
12091.888	1	1	0	0	0.061805	0.078188	0.13229	0.2283	0.04579	0.021804	0.17057	0.14337	0.034468	0.31636	0.17061	0.18614	0.017425	0.074253	0.16482	0.319	-3.7042	-4.4104	-4.25	-4.2625	-4.6854	-4.0125	-4.5979	-4.875	-4.1083	-4.6479	-4.3417	-4.2937	-4.7188	-4.3521	-4.3271	-4.775	425.380	416.571	481.998	480.591	426.834	298.257	518.534	489.528	523.725	465.694	475.233	509.205	270.572	526.570	357.136	509.691	0.0018841	0.00083467	0.00038848	1294.8	1.2449e-05	1.1961e-05	1311.4	540.37	1.5136e-05	5.8537e-07	596.37	214.69	183.8	82.213	1.3623e-05	105.68	0.0019586	0.002035	0.00056381	1241.7	2.2032e-05	2.2354e-05	1263.9	516.96	2.2095e-05	2.2371e-05	576.54	208.23	179.52	79.565	2.1942e-05	102.36	500.940	243.873	233.151	184.585	302.327	323.494	183.307	189.234	224.054	508.391	187.467	191.553	193.605	198.938	320.261	195.991	-8191	255	
12091.985	1	1	0	0	0.11554	0.10684	0.053067	0.15009	0.20572	0.073266	0.16339	0.29669	0.12326	0.3059	0.17176	0.2789	0.29812	0.28155	0.059262	0.055972	-3.7396	-4.6021	-4.4729	-4.2792	-4.6562	-4.1896	-4.3688	-4.9167	-4.1375	-4.4646	-4.5042	-4.2583	-4.7417	-4.3958	-4.1708	-4.8083	319.752	390.036	247.832	390.180	312.082	340.259	472.557	458.065	446.039	402.603	517.158	448.723	470.459	489.255	462.769	521.042	0.002027	0.00068187	0.00022939	1298.3	1.8747e-05	8.509e-06	1321.2	540.88	1.311e-05	3.8927e-06	598.79	214.07	182.92	82.234	1.417e-05	105.76	0.0019335	0.0020208	0.0005513	1244.1	2.1467e-05	2.1743e-05	1267.6	519.26	2.134e-05	2.2149e-05	577.85	207.38	179	79.659	2.1684e-05	102.43	496.156	263.602	221.417	184.756	308.878	384.227	183.215	189.017	319.005	355.753	187.483	191.474	193.757	198.781	202.657	195.981	-8191	255	
12092.105	1	1	0	0	0.25393	0.22731	0.062112	0.19532	0.099773	0.1025	0.28651	0.15054	0.13604	0.10316	0.052068	0.26467	0.22899	0.12925	0.21607	0.21205	-3.8875	-4.3958	-4.3375	-4.05	-4.4708	-4.1833	-4.4396	-4.775	-4.1229	-4.4146	-4.6854	-4.2604	-4.675	-4.5667	-4.1146	-4.9104	383.798	498.659	328.790	458.039	450.985	266.610	452.383	448.292	464.548	447.297	224.237	501.011	501.354	490.874	530.794	480.646	0.001809	0.00052698	0.00023063	1297.9	1.2223e-05	1.7252e-05	1312.7	540.82	1.8984e-05	6.7431e-06	597.41	215.71	184.16	82.384	7.5898e-06	105.81	0.0019271	0.0020115	0.00055241	1241.5	2.1687e-05	2.1947e-05	1263.3	517.73	2.138e-05	2.2164e-05	577.53	208.73	179.3	79.551	2.1721e-05	102.48	503.299	263.766	263.497	184.754	309.341	332.728	183.009	189.152	240.310	391.045	187.586	191.480	193.474	198.782	240.556	196.167	-8191	255	
12092.201	1	1	0	0	0.14166	0.12754	0.064306	0.09451	0.064662	0.23988	0.22385	0.26553	0.076758	0.09274	0.12656	0.064157	0.060203	0.12466	0.13466	0.30017	-3.8458	-4.4313	-4.5854	-4.1208	-4.4917	-4.3292	-4.1396	-4.7792	-4.0104	-4.4375	-4.7792	-4.1937	-4.6458	-4.3542	-3.975	-4.9167	448.409	365.771	290.017	482.825	309.945	475.654	522.187	481.287	241.820	202.792	481.087	332.222	466.392	224.792	290.651	188.789	0.0019132	0.00082557	0.00016111	1288	7.0999e-06	1.0836e-05	1318.6	540.7	1.6078e-05	5.6132e-06	597.62	216.78	183.73	82.226	1.125e-05	105.37	0.0019447	0.0020105	0.00055302	1237.2	2.176e-05	2.1991e-05	1264.4	517.44	2.1971e-05	2.2273e-05	576.54	209.21	179.61	79.483	2.2021e-05	102.32	499.520	259.762	252.146	184.651	307.584	404.955	183.328	188.935	265.206	280.464	187.285	191.462	193.474	198.848	323.246	196.064	-8191	255	
12092.298	1	1	0	0	0.16715	0.1275	0.24287	0.32657	0.011962	0.080931	0.10604	0.26474	0.053043	0.15834	0.054006	0.15213	0.049743	0.31469	0.10848	0.3049	-3.8604	-4.2312	-4.6417	-4.1229	-4.5625	-4.4917	-4.2146	-4.9583	-4.2812	-4.1312	-4.7583	-4.1917	-4.3542	-4.7083	-4.0437	-4.7604	372.455	403.626	246.541	500.941	259.871	305.171	367.232	486.141	305.950	316.552	383.224	463.973	525.243	492.777	274.866	465.525	0.0018178	0.00053611	0.00020965	1285.7	1.1296e-05	1.9154e-06	1312.2	539.18	1.8353e-05	5.0825e-06	597.42	216.8	184.58	82.486	1.2119e-05	106.79	0.0019828	0.0020521	0.00056776	1236.7	2.232e-05	2.2548e-05	1262	516.49	2.2354e-05	2.2625e-05	577.66	210.07	180.07	79.788	2.2184e-05	103.42	503.947	316.235	251.323	184.548	365.192	263.942	183.219	188.908	213.480	307.161	187.516	191.404	193.869	198.756	290.191	195.888	-8191	255	
12092.394	1	1	0	0	0.12174	0.17097	0.057209	0.085876	0.17868	0.18146	0.15131	0.16011	0.064276	0.073652	0.2193	0.30929	0.25119	0.13062	0.07255	0.1025	-3.8875	-4.2688	-4.5625	-4.0958	-4.4667	-4.4583	-4.2104	-4.7708	-4.5479	-4.0854	-4.7875	-4.1562	-4.4812	-4.6687	-3.9458	-4.8729	461.016	340.248	529.609	472.947	413.319	406.773	467.533	490.920	331.944	274.717	497.945	479.316	191.195	182.620	310.311	376.424	0.0017912	0.0011063	0.00031284	1288.8	1.7744e-05	3.803e-06	1311.9	541.41	5.7634e-06	7.3818e-06	600.09	220.16	185.95	83.077	1.4149e-05	107.1	0.0020076	0.0020545	0.00057078	1240.3	2.2219e-05	2.2692e-05	1267.4	519.66	2.2302e-05	2.2429e-05	580.23	213.05	181.86	80.322	2.201e-05	103.76	496.825	508.400	268.147	184.463	285.793	251.950	183.151	188.961	230.984	267.749	187.439	191.486	193.988	198.876	287.860	196.095	-8191	255	
12092.490	1	1	0	0	0.13091	0.097232	0.064716	0.055321	0.17093	0.21704	0.1603	0.25575	0.064559	0.065932	0.25538	0.14359	0.11271	0.10203	0.22236	0.052353	-3.9437	-4.2625	-4.7854	-4.3438	-4.4708	-4.6604	-4.2729	-4.7896	-4.4583	-4.2729	-4.8667	-4.4146	-4.5125	-4.8646	-4.1542	-4.7458	337.626	331.523	245.544	528.655	262.225	297.223	211.893	466.470	485.198	310.130	475.556	476.199	510.678	171.271	378.689	386.702	0.0021014	0.0006296	0.00034163	1294	1.1982e-05	8.4509e-06	1319.9	544.58	1.7372e-05	1.2564e-05	603.93	219.85	186.64	82.753	3.6234e-06	105.91	0.0019856	0.0020127	0.00056245	1240.1	2.1707e-05	2.2106e-05	1268.5	522.66	2.1866e-05	2.2101e-05	582.68	212	181.77	80.098	2.1763e-05	102.97	504.124	327.986	443.125	184.436	282.158	279.588	183.198	189.108	262.892	301.989	187.348	191.693	193.856	198.903	309.753	196.220	-8191	255	
12092.586	1	1	0	0	0.20513	0.1336	0.15729	0.34467	0.06715	0.066859	0.208	0.15382	0.29227	0.15321	0.15246	0.24424	0.064553	0.26255	0.053919	0.31395	-4.1583	-3.9813	-4.7042	-4.4333	-4.2792	-4.7937	-4.3479	-4.775	-4.3771	-3.9646	-4.7417	-4.425	-4.2417	-4.9333	-4.0729	-4.8146	368.902	528.695	261.076	501.891	363.312	462.139	507.138	467.527	364.292	361.222	382.830	459.618	478.641	411.995	452.077	495.638	0.0018061	0.00079179	0.00035286	1295.3	1.2648e-05	1.9045e-05	1317.3	544.66	1.693e-06	1.5172e-05	602.37	218	185.8	82.67	2.6269e-06	106.24	0.0019747	0.0019761	0.00056338	1245.2	2.1785e-05	2.2274e-05	1267.7	521.65	2.172e-05	2.2041e-05	580.62	211.47	181.16	79.878	2.1887e-05	102.74	506.173	214.123	236.721	184.556	276.547	331.417	183.112	189.083	205.816	354.156	187.508	191.624	193.745	199.024	505.211	195.964	-8191	255	
12092.705	1	1	0	0	0.23175	0.10997	0.11	0.12386	0.16724	0.085553	0.062523	0.29989	0.23062	0.053357	0.13106	0.13664	0.030616	0.17102	0.24801	0.22032	-4.3562	-4.2125	-4.6188	-4.5667	-4.1354	-4.6375	-4.475	-4.4333	-4.5604	-4.0208	-4.8562	-4.4042	-4.3104	-4.8396	-4.2438	-4.4292	221.759	334.586	370.743	514.726	347.762	281.598	518.126	465.390	335.083	393.354	406.609	458.059	395.590	448.860	478.446	434.097	0.0017785	0.00020443	0.00012303	1301.7	6.4172e-06	1.4855e-05	1322.1	545.24	1.218e-05	8.2203e-06	603.63	218.72	186.02	82.843	1.4044e-05	107.12	0.0019532	0.0019965	0.00056355	1244.7	2.116e-05	2.1808e-05	1269.1	521.29	2.1019e-05	2.1301e-05	582.73	211.57	180.86	80.112	2.1037e-05	103.58	497.385	477.459	248.028	184.622	281.309	277.072	183.369	189.138	250.885	271.020	187.444	191.653	193.937	198.792	286.581	195.803	-8191	255	
12092.801	1	1	0	0	0.025731	0.17401	0.056956	0.11417	0.17192	0.12201	0.34043	0.22741	0.32434	0.25372	0.33035	0.15371	0.39301	0.31994	0.18232	0.14915	-4.1667	-4.0833	-4.4729	-4.6167	-3.9792	-4.6625	-4.3979	-4.4354	-4.6208	-4.1687	-4.5021	-4.6646	-4.2375	-4.7542	-4.1521	-4.3354	242.016	462.922	244.573	511.396	366.816	298.597	502.221	493.087	223.285	378.142	495.072	498.601	503.207	488.472	254.519	496.674	0.0020315	0.00058923	0.00037689	1300.6	1.2937e-05	4.4821e-06	1322.6	547.93	2.673e-05	8.6893e-06	609.48	223.03	188.44	83.436	1.3135e-05	107.76	0.0019047	0.00194	0.00055869	1243.2	2.1051e-05	2.1836e-05	1270.9	522.74	2.1395e-05	2.1545e-05	587.48	215.25	182.69	80.804	2.1334e-05	104.49	504.404	282.886	310.834	184.716	330.925	407.718	183.366	189.159	285.325	344.912	187.436	191.566	193.752	198.924	254.306	196.089	-8191	255	
12092.897	1	1	0	0	0.054693	0.16843	0.072532	0.19933	0.13723	0.24758	0.18409	0.22397	0.24864	0.096289	0.11435	0.12484	0.2287	0.31898	0.11211	0.23017	-4.3063	-4.1458	-4.3479	-4.8479	-4	-4.5396	-4.4208	-4.2417	-4.7	-4.1813	-4.7063	-4.6792	-4.0125	-4.7896	-4.425	-4.4187	385.755	288.193	508.931	503.461	278.130	488.484	529.804	495.201	189.235	435.357	319.947	474.487	508.370	501.402	348.011	465.671	0.0018143	0.00056866	0.00044018	1301.6	1.3437e-05	9.5922e-06	1328.1	546.19	1.1168e-05	9.4284e-06	605.41	223.1	187.79	83.328	1.4008e-05	107.21	0.0019164	0.0019818	0.00055832	1246.6	2.1266e-05	2.2279e-05	1274	523.16	2.2046e-05	2.2656e-05	586.26	215.91	183.21	80.642	2.2276e-05	104	503.473	342.317	285.467	184.574	277.405	260.986	183.167	189.323	259.573	286.041	187.579	191.407	193.667	198.764	282.542	195.998	-8191	255	
12092.993	1	1	0	0	0.13423	0.13164	0.040456	0.1694	0.13147	0.18058	0.218	0.28039	0.13577	0.19128	0.12093	0.18148	0.053107	0.090556	0.181	0.10931	-4.4229	-4.0396	-4.3896	-4.8063	-4.1042	-4.6479	-4.5083	-4.1958	-4.8479	-4.2771	-4.5021	-4.4771	-4.0021	-4.7979	-4.3938	-4.0375	507.207	195.486	396.491	472.291	282.283	340.139	418.291	495.720	425.241	259.010	526.920	503.239	195.073	414.945	283.804	505.880	0.0017142	0.0017968	0.0006507	1297.5	1.1781e-05	7.6904e-06	1318.8	545.86	1.6116e-05	1.3497e-05	605.92	223.34	187.84	83.368	1.5147e-05	107.15	0.0020087	0.0020458	0.00057176	1244.2	2.1899e-05	2.2582e-05	1269.1	522.64	2.1996e-05	2.2381e-05	584.72	214.5	182.97	80.585	2.2102e-05	103.36	507.344	198.932	237.269	184.586	296.908	322.219	182.977	189.258	290.607	326.539	187.409	191.320	193.849	198.874	256.102	196.077	-8191	255	
12093.089	1	1	0	0	0.11347	0.15709	0.1875	0.15358	0.072629	0.27956	0.15422	0.13336	0.067351	0.12403	0.28184	0.13554	0.23062	0.20144	0.096472	0.023652	-4.3271	-4.175	-4.2604	-4.7208	-4.0521	-4.4062	-4.6833	-4.2083	-4.4979	-4.2625	-4.2375	-4.7875	-4.1896	-4.7312	-4.4229	-4.3417	210.625	375.749	194.602	511.951	396.846	256.149	353.371	491.561	530.600	309.636	492.835	463.827	461.532	491.017	471.362	493.833	0.0017989	0.0013702	0.00023861	1296.8	1.5808e-05	1.5429e-05	1317.5	547.01	1.4996e-05	6.0907e-06	605.56	221.94	186.55	83.103	1.0135e-05	106.37	0.0019787	0.0020063	0.0005586	1241.3	2.1599e-05	2.2195e-05	1265.6	523.28	2.1903e-05	2.1759e-05	585.75	214.09	182.3	80.397	2.1923e-05	103.28	498.478	236.533	246.286	184.482	282.229	317.804	183.194	189.248	291.375	347.104	187.294	191.469	193.691	198.734	219.026	196.159	-8191	255	
12093.186	1	1	0	0	0.17698	0.1251	0.018772	0.16146	0.19959	0.050019	0.26634	0.25089	0.16671	0.12789	0.19677	0.073051	0.068843	0.22032	0.029508	0.22771	-4.4062	-4.2937	-4.1646	-4.7312	-4.25	-4.3979	-4.8125	-4.1542	-4.6062	-4.3104	-4.2083	-4.8	-4.2521	-4.5687	-4.5667	-4.2812	215.152	356.774	244.778	526.727	278.745	469.399	448.011	434.865	193.395	250.856	452.366	376.940	500.932	500.200	492.716	485.772	0.0018895	0.0014831	3.571e-05	1294.2	9.4162e-06	1.7019e-05	1318.7	547.65	1.6578e-05	1.0694e-06	606.53	221.89	186.51	83.153	1.8822e-05	106.68	0.0019756	0.0020216	0.00056496	1241.1	2.1757e-05	2.2039e-05	1267.8	522.56	2.1836e-05	2.1758e-05	584.57	214.24	181.68	80.222	2.1342e-05	103.41	501.283	224.231	383.738	184.748	353.084	317.666	183.315	189.171	255.715	404.377	187.390	191.365	193.848	198.789	279.551	196.006	-8191	255	
12093.282	1	1	0	0	0.069477	0.1274	0.061814	0.076939	0.23374	0.13975	0.18233	0.30576	0.091737	0.15193	0.33955	0.13075	0.079216	0.26183	0.064323	0.12144	-4.2812	-4.35	-4.1229	-4.9875	-4.1479	-4.3625	-4.7292	-4.3063	-4.6083	-4.6687	-4.0687	-4.8083	-4.4479	-4.4708	-4.7188	-4.225	224.116	429.047	481.306	497.070	192.884	284.341	464.432	518.576	291.646	456.513	478.666	441.842	173.883	182.841	389.166	264.042	0.0020039	0.0012906	0.0004157	1302.3	9.1041e-06	1.6157e-05	1326.6	546.5	1.0215e-05	1.7908e-05	608.76	222.16	187.17	83.219	7.5612e-06	107.98	0.0019441	0.0019598	0.00054737	1246.4	2.1155e-05	2.1562e-05	1273.5	523.89	2.1579e-05	2.1811e-05	587.63	214.98	182.64	80.486	2.1349e-05	104.26	503.331	235.629	259.532	184.568	286.803	324.166	183.205	189.082	316.743	347.371	187.574	191.199	193.607	198.893	343.187	196.111	-8191	255	
12093.401	1	1	0	0	0.16181	0.15018	0.012644	0.42193	0.24406	0.29029	0.18588	0.090363	0.078269	0.11255	0.12093	0.23112	0.097508	0.29941	0.26976	0.30796	-4.1625	-4.6125	-4.0875	-4.7292	-4.2479	-4.325	-4.7937	-4.2021	-4.575	-4.6167	-4.0792	-4.6667	-4.3938	-4.3438	-4.8146	-4.3542	355.052	415.331	252.703	462.215	483.686	455.357	497.217	394.475	316.161	250.009	172.103	483.999	429.265	492.597	452.119	436.226	0.0019806	0.0011486	0.00023252	1304.8	1.2812e-05	1.935e-05	1329.3	549.38	1.2636e-05	1.2841e-05	610.95	226.34	188.39	83.878	1.3228e-05	107.98	0.0019598	0.0019583	0.0005415	1250	2.1095e-05	2.164e-05	1278.8	525.8	2.197e-05	2.1848e-05	591.04	218.27	183.96	81.048	2.2097e-05	104.67	504.049	271.094	230.177	184.573	340.674	331.245	183.383	189.264	287.490	364.316	187.375	191.516	193.468	199.091	309.240	195.804	-8191	255	
12093.497	1	1	0	0	0.17118	0.13095	0.14657	0.27357	0.1593	0.15444	0.15905	0.22882	0.10987	0.081001	0.11191	0.2699	0.048185	0.17501	0.2886	0.14728	-4.1042	-4.5125	-4.1	-4.9146	-4.2979	-4.1729	-4.8979	-4.1479	-4.3063	-4.4667	-4.0979	-4.6271	-4.6625	-4.3021	-4.7604	-4.4083	479.966	263.471	218.558	459.519	198.489	261.076	465.004	521.925	493.525	199.957	295.211	193.868	288.826	526.838	298.951	459.070	0.0019272	0.0011656	0.00024414	1298	1.0754e-05	6.8383e-06	1332.2	550.87	1.8115e-05	1.4994e-05	610.3	225.39	189.17	83.335	1.095e-05	107.02	0.0020094	0.0020416	0.00056668	1249.5	2.2036e-05	2.2428e-05	1278.3	526.86	2.2378e-05	2.2188e-05	589.81	217.69	184.58	80.831	2.259e-05	103.92	500.305	269.161	283.989	184.507	315.125	235.831	183.199	189.277	323.425	323.625	187.685	191.427	193.632	199.086	308.059	196.033	-8191	255	
12093.570	1	1	0	0	0.1749	0.11507	0.13498	0.066544	0.083059	0.066087	0.25814	0.24326	0.094614	0.086744	0.27175	0.14601	0.1975	0.092468	0.17816	0.16754	-4.0437	-4.5354	-4.1396	-4.6854	-4.4458	-4.0604	-4.9146	-4.3104	-4.3562	-4.5896	-4.2896	-4.6375	-4.5729	-4.1958	-4.7917	-4.3625	489.707	526.025	441.156	254.143	518.908	299.558	455.568	462.589	448.248	333.479	476.884	433.639	177.886	509.425	249.752	487.315	0.001843	0.001328	0.0001801	1302.4	1.7758e-06	9.7336e-06	1322.3	548.47	1.67e-05	6.9244e-06	607.18	222.7	188.13	82.806	9.3322e-06	106.59	0.002034	0.0020532	0.00057701	1250.1	2.2263e-05	2.2615e-05	1272.1	524.95	2.2458e-05	2.2657e-05	585.61	215.76	183.34	80.381	2.2955e-05	103.37	502.746	261.501	296.091	184.557	391.538	260.076	183.432	189.180	253.834	364.803	187.710	191.407	193.805	198.831	227.887	196.015	-8191	255	
12093.666	1	1	0	0	0.26979	0.11323	0.14107	0.21086	0.16754	0.15869	0.14772	0.070105	0.40655	0.15376	0.13507	0.089882	0.2339	0.17329	0.15601	0.25019	-3.7625	-4.5896	-3.9188	-4.5667	-4.4375	-4.1229	-4.8958	-4.5271	-4.1542	-4.7104	-4.2917	-4.6312	-4.5188	-4.2937	-4.8042	-4.4437	312.056	450.908	529.258	483.982	494.436	392.374	438.975	437.654	250.434	523.281	500.540	241.293	480.754	456.135	292.047	507.082	0.0018776	0.00065002	0.00027201	1297	2.5864e-06	1.3564e-05	1321.1	544	1.2556e-05	1.1152e-05	600.99	221.07	186.67	82.474	6.816e-06	106.03	0.0020338	0.0020816	0.0005803	1245.2	2.2313e-05	2.2702e-05	1269	522.35	2.3045e-05	2.3198e-05	583.87	214.52	182.26	79.893	2.3989e-05	102.85	497.486	226.267	281.098	184.600	325.451	362.531	183.107	189.102	300.347	328.163	187.418	191.158	193.876	198.702	347.845	196.070	-8191	255	
12093.785	1	1	0	0	0.11792	0.107	0.15321	0.21924	0.1232	0.21149	0.39075	0.31096	0.12401	0.15204	0.016303	0.083947	0.14301	0.23718	0.063605	0.26854	-3.8125	-4.6083	-4.075	-4.5521	-4.6979	-3.95	-4.6604	-4.6229	-4.1104	-4.5958	-4.3333	-4.4875	-4.7479	-4.3104	-4.5167	-4.5792	320.087	249.908	374.537	444.296	188.835	230.882	470.868	458.947	366.594	423.188	460.497	515.782	234.728	180.330	423.203	529.435	0.001927	0.0010494	0.00021346	1287.1	1.1531e-05	6.8594e-06	1311.9	541.43	1.3202e-05	1.5418e-06	598.2	221.02	185.62	81.865	1.3805e-05	105.9	0.0020928	0.0021813	0.00060687	1238.2	2.3262e-05	2.3608e-05	1264.4	518.41	2.3338e-05	2.3926e-05	580.6	214.65	181.37	79.403	2.3918e-05	102.83	494.728	310.166	264.996	184.669	301.221	310.303	183.124	189.086	246.511	342.209	187.389	191.251	193.639	198.910	298.674	196.137	-8191	255	
12093.881	1	1	0	0	0.090771	0.26779	0.12491	0.14722	0.17389	0.18021	0.31932	0.070292	0.14142	0.085062	0.22855	0.17044	0.1871	0.067657	0.055259	0.081579	-3.6771	-4.575	-4.1375	-4.4979	-4.6583	-4.1604	-4.7292	-4.75	-4.0375	-4.6896	-4.5229	-4.4625	-4.9375	-4.2896	-4.5521	-4.65	521.473	415.947	335.633	212.936	414.266	495.077	459.514	444.784	421.218	374.664	374.083	471.096	462.570	366.435	303.759	496.505	0.0016768	0.0014916	0.00036241	1287.8	3.664e-06	2.0131e-05	1317.1	537.78	1.655e-05	5.0227e-06	600.86	220.86	184.21	82.086	3.0824e-06	106.46	0.0020969	0.0022104	0.00060746	1240.2	2.3571e-05	2.384e-05	1267.5	516.57	2.3715e-05	2.4134e-05	581.14	213.82	180.78	79.542	2.3891e-05	103.38	490.804	264.626	269.910	184.481	437.413	324.896	183.263	189.160	248.300	423.025	187.435	191.466	193.708	198.961	352.979	195.838	-8191	255	
12093.978	1	1	0	0	0.24038	0.11051	0.21377	0.16722	0.21398	0.12628	0.16901	0.13635	0.075264	0.023598	0.25684	0.12689	0.19604	0.3776	0.17243	0.22552	-3.7458	-4.6292	-4.3125	-4.4437	-4.7208	-4.0958	-4.5167	-4.5729	-4.1062	-4.5396	-4.4792	-4.2667	-4.8812	-4.2812	-4.3125	-4.6687	342.073	341.343	175.036	475.129	232.653	363.084	178.794	501.496	279.423	346.165	521.482	496.197	171.782	500.753	377.857	448.911	0.0018637	0.00014352	0.00012609	1288.4	9.4728e-06	1.2138e-05	1320	540.18	2.3177e-05	1.1274e-05	601.58	222.51	185.18	82.365	4.0037e-06	105.82	0.0020783	0.0021948	0.00060103	1237	2.3486e-05	2.403e-05	1268.4	518.42	2.3096e-05	2.4001e-05	582.61	214.71	181.53	79.763	2.354e-05	103.16	501.211	301.443	238.332	184.655	322.308	329.586	183.263	189.282	278.766	364.314	187.555	191.305	193.705	198.627	274.293	196.058	-8191	255	
12094.098	1	1	0	0	0.25981	0.085284	0.11336	0.18079	0.20903	0.071579	0.2442	0.2698	0.089994	0.072657	0.24088	0.28021	0.14524	0.19914	0.11399	0.24531	-3.7083	-4.4167	-4.3167	-4.2271	-4.6583	-4.0771	-4.3896	-4.875	-3.9688	-4.625	-4.5938	-4.075	-4.6083	-4.3396	-4.2875	-4.8104	476.101	385.149	387.417	480.714	232.501	205.447	470.147	485.042	412.234	310.795	385.387	465.453	432.069	449.141	331.256	201.329	0.0019728	0.0011399	0.000326	1282.3	8.891e-06	1.1431e-05	1314.2	538.35	1.687e-05	1.7207e-05	598.03	217.87	183.54	81.837	5.9825e-06	105.18	0.0020729	0.0021615	0.00059519	1234.2	2.3232e-05	2.3512e-05	1263	515.64	2.33e-05	2.4036e-05	578.58	211.78	179.72	79.164	2.3272e-05	101.95	505.109	285.343	242.671	184.534	327.970	384.914	183.118	189.245	298.100	246.368	187.288	191.226	193.662	198.941	278.729	195.725	-8191	255	
12094.194	1	1	0	0	0.041087	0.26547	0.055641	0.20275	0.17338	0.014954	0.23017	0.39995	0.050253	0.1299	0.23055	0.21983	0.14354	0.093837	0.026233	0.15014	-3.7333	-4.6229	-4.2833	-4.1958	-4.7458	-4.2333	-4.3167	-4.8438	-4.0458	-4.65	-4.5625	-4.0729	-4.6771	-4.4771	-4.3167	-4.7417	304.917	390.204	308.431	471.791	468.384	263.627	490.621	496.454	443.482	213.035	453.360	181.877	490.000	434.471	303.579	191.059	0.0018975	0.0012337	0.00029273	1285.3	1.2475e-05	1.2844e-05	1304.6	534.18	2.1197e-05	7.6062e-06	590.28	214.5	180.31	81.065	9.642e-06	104.6	0.0020917	0.0021865	0.00060022	1231.9	2.3453e-05	2.3885e-05	1258.3	512.03	2.3574e-05	2.4104e-05	572.67	207.49	177.5	78.485	2.3717e-05	101.51	505.929	200.504	274.413	184.480	311.887	343.123	183.274	189.274	289.530	368.870	187.436	191.617	193.781	198.632	279.994	196.065	-8191	255	
12094.266	1	1	0	0	0.041873	0.20252	0.32006	0.34685	0.080676	0.04775	0.19116	0.073289	0.18323	0.25099	0.1088	0.058196	0.058311	0.24406	0.11829	0.27634	-3.6979	-4.2875	-4.5271	-4.0938	-4.6083	-4.3125	-4.3375	-4.9333	-4.1396	-4.4333	-4.8125	-4.2292	-4.5813	-4.6854	-4.1958	-4.7646	278.055	323.615	392.463	505.079	270.285	400.416	465.006	490.788	440.272	295.278	430.091	318.155	492.780	522.709	282.752	458.925	0.0017383	0.00048888	0.00029345	1284.1	7.9981e-06	1.6147e-05	1299.4	531.56	2.1919e-06	2.2584e-05	586.35	212.18	179.16	80.532	1.0855e-05	103.86	0.0020956	0.0021997	0.00059982	1231	2.3487e-05	2.3828e-05	1254.9	510.05	2.3492e-05	2.4418e-05	569.08	205.7	175.77	78.101	2.4303e-05	101.12	501.926	331.940	321.221	184.797	313.977	320.050	183.155	189.087	507.333	323.989	187.430	191.337	193.855	199.084	308.692	196.287	-8191	255	
12094.387	1	1	0	0	0.15624	0.17652	0.096578	0.041719	0.1341	0.1516	0.15255	0.081654	0.13855	0.12724	0.12525	0.18818	0.11431	0.08896	0.15656	0.16662	-3.7208	-4.3354	-4.6458	-4.1875	-4.5542	-4.4958	-4.3167	-4.8292	-4.2375	-4.1687	-4.7417	-4.2521	-4.5521	-4.6104	-4.1062	-4.8146	294.292	524.784	436.835	466.545	189.978	201.243	488.298	217.498	197.620	185.397	444.543	465.194	432.103	490.589	438.768	451.811	0.0018348	0.00039166	0.00028041	1274.6	1.0134e-05	1.0593e-05	1301.5	528.78	6.539e-06	1.462e-06	586.92	212.36	180.62	81.034	1.4081e-05	104.59	0.0021654	0.0022427	0.00062551	1226.9	2.433e-05	2.4766e-05	1255.8	507.92	2.4412e-05	2.4715e-05	569.75	206.43	176.92	78.373	2.4251e-05	101.79	505.261	385.399	221.015	184.745	298.451	334.273	183.094	189.223	258.557	306.298	187.346	191.155	193.496	198.871	280.810	196.002	-8191	255	
12094.481	1	1	0	0	0.11674	0.036422	0.050962	0.24796	0.1488	0.15296	0.01458	0.2825	0.12254	0.095438	0.11715	0.20859	0.31109	0.16815	0.16695	0.28298	-3.85	-4.1687	-4.8208	-4.1771	-4.3854	-4.6292	-4.2604	-4.8479	-4.3792	-4.3708	-4.7438	-4.1521	-4.5312	-4.5792	-3.8937	-4.7375	366.924	454.003	414.758	508.974	411.554	228.747	235.253	495.679	439.337	407.993	469.032	456.978	411.027	204.974	392.993	509.234	0.0017294	0.0012635	0.00015925	1279.7	1.5968e-05	1.3755e-05	1305.1	531.41	1.7004e-05	4.3426e-06	592.4	213.6	182.1	81.627	1.283e-05	104.83	0.0021916	0.0022675	0.0006366	1234.8	2.4848e-05	2.4944e-05	1260.9	511.28	2.4307e-05	2.4729e-05	573.31	207.58	178.29	79.056	2.4029e-05	102.35	496.529	263.728	195.662	184.561	321.634	328.399	183.199	189.113	283.751	370.262	187.689	191.379	193.956	198.705	290.043	195.988	-8191	255	
12094.577	1	1	0	0	0.064059	0.24743	0.071546	0.26176	0.15114	0.19176	0.27402	0.34782	0.20644	0.29974	0.26406	0.12667	0.21157	0.18425	0.071924	0.2402	-3.9083	-4.0792	-4.5813	-4.25	-4.3812	-4.4625	-4.1917	-4.7354	-4.3583	-4.0958	-4.7854	-4.3333	-4.3917	-4.6167	-3.9188	-4.6271	523.513	405.074	339.917	492.597	527.491	313.529	434.724	467.574	380.706	204.636	463.244	411.954	472.501	198.361	522.857	460.971	0.0017654	0.0012371	2.4703e-05	1288.4	1.0516e-05	3.987e-06	1312	537.06	3.1834e-06	1.2445e-05	594.9	215.68	182.25	81.655	8.6226e-06	105.44	0.0021548	0.0022028	0.00061849	1238	2.3699e-05	2.4072e-05	1262.3	515.1	2.3777e-05	2.3941e-05	576.42	209.89	178.77	79.378	2.3866e-05	102.57	499.662	186.769	502.255	184.737	274.708	354.678	183.080	189.090	379.947	323.381	187.428	191.641	193.878	198.904	305.765	196.142	-8191	255	
12094.698	1	1	0	0	0.22291	0.16046	0.028913	0.14143	0.10271	0.12568	0.28307	0.16401	0.21156	0.14916	0.2573	0.178	0.24085	0.4249	0.083145	0.04202	-3.9938	-3.9854	-4.5458	-4.3187	-4.1937	-4.5146	-4.1354	-4.5833	-4.4479	-4.1083	-4.7042	-4.3604	-4.2417	-4.8896	-4.0062	-4.5687	369.044	476.174	422.278	346.238	220.148	386.932	181.185	238.034	321.598	318.818	478.276	389.169	520.252	182.133	525.651	528.557	0.0018364	0.0011264	0.00039742	1286.1	1.6752e-05	1.0959e-05	1308.6	537.07	1.474e-05	6.691e-06	591.14	215.72	183.52	81.536	1.4939e-05	105.34	0.0021218	0.0021625	0.00060957	1236	2.3496e-05	2.3934e-05	1261.5	515.97	2.3185e-05	2.3337e-05	575.66	209.54	179.06	79.133	2.3666e-05	102.41	501.436	295.049	290.754	184.681	305.680	325.374	183.320	189.252	267.076	332.306	187.335	191.310	193.676	198.819	290.242	195.888	-8191	255	
12094.794	1	1	0	0	0.13489	0.041974	0.17942	0.26691	0.10973	0.13155	0.3925	0.46269	0.32263	0.27527	0.23738	0.21667	0.072019	0.22498	0.049746	0.2381	-4.2833	-4.075	-4.6125	-4.325	-4.1604	-4.625	-4.1271	-4.5271	-4.5625	-4.1042	-4.7125	-4.5792	-4.3729	-4.9875	-4.1771	-4.5708	467.849	309.898	273.499	523.755	422.661	403.900	492.378	473.516	476.632	188.462	480.775	236.156	206.938	516.370	177.268	493.924	0.0019161	0.00061909	0.0001838	1280.5	1.0272e-05	1.6245e-05	1306.2	533.39	1.8776e-05	1.2737e-05	592.74	212.09	181.07	80.786	6.7677e-06	103.98	0.0021285	0.0022009	0.00062701	1234.1	2.43e-05	2.4759e-05	1258	511.59	2.4352e-05	2.4447e-05	572.84	206.77	177.69	78.351	2.4919e-05	101.44	500.989	312.639	258.171	184.651	312.232	327.477	183.384	189.299	266.879	424.752	187.602	191.554	193.582	198.871	524.369	196.056	-8191	255	
12094.866	1	1	0	0	0.06488	0.11426	0.024874	0.071982	0.036753	0.21703	0.30213	0.14451	0.073781	0.097319	0.21453	0.036065	0.17189	0.059609	0.077093	0.18695	-4.1104	-4.0958	-4.6	-4.5458	-4.0604	-4.5375	-4.3583	-4.3187	-4.5875	-4.0375	-4.6438	-4.5271	-4.0979	-4.7688	-4.1979	-4.3812	358.230	309.278	390.878	349.082	454.158	356.241	469.880	207.903	234.001	371.613	499.731	173.914	478.157	463.982	221.664	182.502	0.0014537	0.0022397	0.00047094	1275.7	1.0918e-05	9.2326e-06	1298.3	529.65	9.6405e-06	1.3619e-05	589.05	216.57	181.05	80.767	9.8157e-06	104.58	0.0022019	0.0022753	0.00064705	1228.9	2.4535e-05	2.5631e-05	1252.2	509.76	2.5057e-05	2.5389e-05	572.2	210.27	178.6	78.508	2.5271e-05	101.95	503.168	234.250	275.656	184.545	228.795	311.384	183.153	189.203	204.225	348.558	187.379	191.522	193.809	198.773	299.555	196.083	-8191	255	
12094.962	1	1	0	0	0.13648	0.10468	0.085405	0.10424	0.073431	0.26099	0.35781	0.30446	0.33114	0.2546	0.1035	0.20007	0.10344	0.33478	0.17801	0.28383	-4.1937	-3.9125	-4.4708	-4.6042	-4.0583	-4.6917	-4.4167	-4.4083	-4.7229	-4.15	-4.5188	-4.6646	-4.0208	-4.9896	-4.3875	-4.1771	423.842	376.383	218.301	434.247	300.142	501.021	458.787	462.380	201.705	456.848	482.279	489.507	437.139	528.348	217.503	513.960	0.0017553	0.00099961	0.0002436	1273.4	8.7492e-06	1.4359e-05	1292.8	533.31	5.1808e-06	1.4458e-05	590.22	219.12	183.83	81.266	1.1315e-05	104.72	0.0022217	0.0022928	0.00064705	1226.8	2.4804e-05	2.5629e-05	1254.1	512.73	2.5139e-05	2.547e-05	576.64	213.26	180.54	79.173	2.5253e-05	102.41	502.473	193.898	282.712	184.462	299.595	341.411	183.524	189.349	254.878	378.408	187.420	191.373	193.572	199.004	346.295	196.098	-8191	255	
12095.058	1	1	0	0	0.15702	0.059489	0.1345	0.10753	0.17128	0.01274	0.3292	0.39538	0.14293	0.22238	0.32707	0.1968	0.065893	0.19652	0.055414	0.11011	-4.4833	-4.1625	-4.4688	-4.7167	-3.9813	-4.7354	-4.5042	-4.225	-4.7562	-4.1146	-4.4667	-4.6229	-4.1312	-4.5938	-4.4958	-4.2646	219.856	198.135	353.574	218.395	527.005	497.701	486.282	456.849	199.879	476.974	520.636	458.804	264.794	454.711	339.853	438.229	0.0019259	0.00054393	0.00052813	1280.3	4.7922e-06	1.1936e-05	1304.3	537.57	2.104e-05	2.6647e-06	595.65	220.84	185.9	81.857	7.3936e-06	105.47	0.0022379	0.0022958	0.00064583	1232.3	2.4526e-05	2.5337e-05	1258.2	515.65	2.4785e-05	2.4632e-05	578.94	213.82	181.67	79.447	2.4641e-05	102.62	503.717	310.874	263.426	184.431	296.314	386.150	183.121	189.205	276.834	303.741	187.430	191.567	193.635	199.033	321.368	196.119	-8191	255	
12095.179	1	1	0	0	0.15628	0.1466	0.12025	0.13219	0.1699	0.035198	0.25424	0.20761	0.11113	0.13959	0.14147	0.043087	0.12184	0.41236	0.12781	0.25263	-4.1458	-4.0333	-4.2875	-4.7125	-4.1375	-4.6062	-4.4375	-4.2854	-4.7562	-4.2771	-4.4708	-4.8438	-4.1375	-4.6417	-4.625	-4.35	219.739	470.337	505.938	389.805	353.044	269.664	511.119	437.467	346.058	380.377	305.321	174.304	212.545	181.504	519.845	299.587	0.0018972	0.00080765	0.00035439	1276.3	8.5818e-06	7.998e-06	1304.8	540.42	2.2319e-05	9.7012e-06	600.35	222.07	185.7	82.515	8.8518e-06	105.57	0.0021786	0.0022302	0.00062887	1229	2.4026e-05	2.46e-05	1256.5	518.3	2.4186e-05	2.4136e-05	582.5	215.5	182.05	79.908	2.3947e-05	102.88	504.584	350.938	286.827	184.595	278.450	251.408	183.358	189.305	254.673	349.094	187.603	191.266	193.704	198.748	258.904	196.027	-8191	255	
12095.275	1	1	0	0	0.22128	0.15046	0.061966	0.33159	0.1342	0.21662	0.2221	0.35879	0.053626	0.059628	0.15163	0.27041	0.11353	0.24435	0.05869	0.05618	-4.3875	-4.2833	-4.2854	-4.8042	-4.0708	-4.4917	-4.7375	-4.2937	-4.4708	-4.2083	-4.2542	-4.6333	-4.0813	-4.6625	-4.4688	-4.075	346.378	275.935	199.475	496.545	289.891	458.124	482.813	457.811	521.166	227.888	491.145	176.462	213.349	497.563	245.023	446.054	0.001773	0.00082394	0.00031044	1278.3	1.1635e-06	1.7547e-05	1305.9	536.23	2.0118e-05	5.0437e-06	591.57	216.4	182.79	81.389	1.2061e-05	105.43	0.0021584	0.0022151	0.00062654	1230.5	2.4087e-05	2.5344e-05	1259.4	515.72	2.5204e-05	2.5168e-05	577.65	210.15	179.54	79.196	2.4752e-05	102.61	498.837	268.124	277.990	184.558	434.676	361.283	183.153	189.299	283.246	357.751	187.809	191.635	193.615	198.930	294.907	195.827	-8191	255	
12095.371	1	1	0	0	0.044794	0.21642	0.14491	0.14325	0.12395	0.22987	0.19278	0.22906	0.089641	0.084901	0.056252	0.081363	0.086297	0.20824	0.090374	0.15252	-4.1813	-4.4437	-4.1625	-4.9062	-3.9958	-4.4271	-4.6937	-4.1479	-4.5875	-4.4708	-4.2312	-4.7396	-4.25	-4.4104	-4.5896	-4.2771	372.273	221.191	229.228	477.230	452.525	250.674	439.173	487.378	227.585	189.615	526.692	398.301	485.235	174.341	229.804	514.295	0.0018347	0.00034472	0.00019791	1270.2	3.8947e-06	1.7679e-05	1298.4	533.68	1.053e-05	6.4164e-06	591.24	215.32	181.27	81.219	1.913e-05	104.77	0.00221	0.0022612	0.00064356	1226.5	2.4867e-05	2.575e-05	1256.1	512.41	2.5501e-05	2.5925e-05	575.43	209.85	178.72	79.069	2.5653e-05	102.3	504.605	389.716	194.523	184.461	513.085	369.606	182.993	189.267	281.658	354.966	187.493	191.454	193.754	198.807	264.474	196.118	-8191	255	
12095.491	1	1	0	0	0.21113	0.20863	0.14773	0.11475	0.254	0.15933	0.20353	0.367	0.022808	0.31034	0.28243	0.24355	0.14267	0.13407	0.05604	0.18391	-4.2271	-4.4167	-4.0729	-4.8792	-4.0563	-4.2771	-4.6188	-4.2021	-4.4812	-4.4021	-4.1979	-4.8896	-4.2646	-4.4833	-4.6458	-4.2333	253.601	215.599	276.202	463.246	401.629	271.366	181.088	488.613	198.606	426.734	193.689	498.074	520.303	464.175	311.949	465.242	0.0016188	0.0020081	0.00026506	1273.9	1.6142e-05	1.191e-05	1302.8	536.6	9.8943e-06	4.5676e-06	598.59	220.45	184.98	82.34	3.5912e-06	106.13	0.0022985	0.0023224	0.00064292	1228.8	2.4703e-05	2.5416e-05	1257.7	514.49	2.526e-05	2.5297e-05	579.61	213.87	181.21	79.927	2.5677e-05	103.45	502.755	279.608	268.601	184.455	267.709	366.433	182.977	189.147	279.190	246.578	187.555	191.425	193.980	198.989	464.741	196.307	-8191	255	
12095.563	1	1	0	0	0.19977	0.10235	0.17433	0.11476	0.12269	0.036323	0.15762	0.11348	0.14931	0.18562	0.2952	0.069851	0.20946	0.25973	0.056423	0.11049	-4.0375	-4.4708	-4.1062	-4.7375	-4.4021	-4.3125	-4.9354	-4.2354	-4.5292	-4.5458	-4.0958	-4.8646	-4.6354	-4.15	-4.7292	-4.3375	197.820	413.686	414.256	520.043	367.845	302.921	526.176	421.045	460.084	182.688	442.427	408.669	423.772	485.123	190.762	494.543	0.0018741	0.0010316	9.2798e-05	1268	1.8403e-06	1.5867e-05	1305.3	535.52	7.3068e-06	9.2028e-06	596.18	217.88	183.61	82.198	1.5805e-05	105.81	0.002328	0.0023976	0.00066701	1225	2.5931e-05	2.6351e-05	1259.7	514.25	2.6061e-05	2.6165e-05	579.34	212.01	180.31	79.947	2.5756e-05	103.04	504.894	226.370	378.746	184.679	289.160	364.346	183.219	189.442	207.607	349.055	187.673	191.501	193.750	198.820	307.611	196.309	-8191	255	
12095.659	1	1	0	0	0.15428	0.25142	0.15453	0.17379	0.11511	0.14993	0.36814	0.25429	0.2561	0.21546	0.24908	0.073695	0.066653	0.37996	0.072746	0.081989	-4.2833	-4.6167	-3.9792	-4.8917	-4.3688	-4.225	-5.0271	-4.4625	-4.3021	-4.6521	-4.1438	-4.7604	-4.55	-4.3042	-4.6979	-4.3812	451.549	193.367	468.222	506.231	501.310	323.717	449.198	479.430	475.907	494.396	176.489	394.691	518.612	172.360	433.246	515.448	0.0018491	0.00086124	0.0003031	1278.3	4.3256e-06	8.4964e-06	1298.3	535.53	1.6507e-05	3.4065e-06	592.46	216.44	182.44	82.109	1.4658e-05	105.25	0.0023039	0.0023597	0.00065584	1230.7	2.5781e-05	2.6111e-05	1256.1	515.69	2.6051e-05	2.6054e-05	577.1	210.82	179.73	79.636	2.5587e-05	102.64	504.103	328.097	193.942	184.656	318.064	334.505	183.181	189.321	320.263	287.566	187.232	191.600	193.844	198.968	279.414	195.897	-8191	255	
12095.778	1	1	0	0	0.054099	0.075459	0.19585	0.17261	0.19252	0.15679	0.1416	0.22788	0.17206	0.24538	0.10738	0.32321	0.14618	0.07198	0.12758	0.2328	-4.1188	-4.6708	-4.1354	-4.5167	-4.4292	-4.3063	-4.8688	-4.4521	-4.1146	-4.55	-4.2646	-4.5958	-4.7312	-4.2375	-4.675	-4.4417	417.294	507.887	359.733	524.383	262.654	239.460	458.827	523.285	520.971	390.027	446.965	480.944	463.541	477.868	259.258	492.466	0.0019023	0.0010561	0.00045584	1279.4	1.3544e-05	1.4408e-05	1298.3	535.69	1.1896e-05	1.1313e-05	597.83	219.11	183.84	81.535	2.1322e-05	105.36	0.002242	0.0023022	0.00064059	1230.1	2.4658e-05	2.5331e-05	1255.3	515.18	2.5331e-05	2.5713e-05	578.99	213.14	181.24	79.497	2.5867e-05	102.65	502.874	287.464	280.448	184.486	244.939	323.524	183.121	189.402	287.820	381.877	187.253	191.542	193.619	198.851	303.026	196.264	-8191	255	
12095.874	1	1	0	0	0.067562	0.23424	0.24948	0.21574	0.079823	0.15836	0.18413	0.29406	0.096991	0.1012	0.13432	0.070468	0.18482	0.24449	0.34216	0.19338	-3.7562	-4.6771	-4.1146	-4.5104	-4.525	-3.9292	-4.8708	-4.3167	-4.1604	-4.6667	-4.4	-4.5146	-4.7271	-4.2771	-4.575	-4.4771	493.681	284.822	172.599	528.003	480.727	229.156	395.515	415.283	502.839	447.785	464.420	413.482	207.568	185.432	509.963	516.683	0.0017681	0.00071384	0.00043229	1268.2	1.1012e-05	1.5298e-05	1293.7	532.72	2.2804e-05	1.0532e-05	591.49	215.3	181.51	81.23	1.3244e-05	104.23	0.0022687	0.0023356	0.00065524	1225.8	2.4964e-05	2.5773e-05	1254.8	513.09	2.5411e-05	2.6062e-05	576.16	210.21	178.81	78.994	2.6293e-05	102.08	501.172	289.726	227.112	184.611	260.049	345.722	183.474	189.236	289.721	367.771	187.418	191.542	193.825	198.782	263.682	196.005	-8191	255	
12095.970	1	1	0	0	0.056494	0.17222	0.078964	0.12537	0.017772	0.079865	0.28904	0.17084	0.13022	0.14904	0.18381	0.21878	0.12543	0.15083	0.1621	0.19717	-3.7271	-4.7083	-4.0312	-4.4625	-4.5396	-3.9437	-4.6083	-4.6479	-4.1167	-4.6625	-4.4292	-4.4354	-4.7458	-4.175	-4.5625	-4.5667	360.308	434.473	444.211	506.325	401.847	386.409	507.176	506.771	200.022	438.739	427.978	516.845	258.283	512.632	281.777	512.014	0.0018031	0.00065132	0.00018017	1268.8	1.5292e-05	6.3548e-06	1295.9	532.54	9.8676e-06	1.16e-05	592.54	216.13	181.74	81.292	1.6414e-05	105.13	0.0023133	0.0024128	0.00066643	1228	2.5657e-05	2.6137e-05	1253.9	511.18	2.5774e-05	2.6337e-05	575.63	210	179.31	79.169	2.6272e-05	102.69	497.465	215.888	275.575	184.556	243.048	340.144	183.317	189.268	284.948	392.179	187.651	191.342	193.707	198.915	294.078	196.135	-8191	255	
12096.067	1	1	0	0	0.066171	0.12065	0.29277	0.064654	0.30371	0.28193	0.18008	0.15555	0.22514	0.085541	0.047341	0.18586	0.37122	0.051775	0.11181	0.10818	-3.6271	-4.5813	-4.2771	-4.325	-4.5938	-4.1583	-4.6438	-4.5563	-4.1708	-4.6854	-4.4417	-4.2292	-4.9208	-4.2854	-4.3625	-4.7271	215.840	443.519	284.809	520.088	309.682	423.340	452.620	484.821	458.542	268.986	435.255	417.372	522.048	455.006	399.575	494.603	0.0018712	0.00033769	0.00016797	1267	1.0073e-05	1.52e-05	1303.6	536.57	1.8727e-05	9.3806e-06	599.23	219.18	184.38	82.32	1.9102e-05	105.76	0.0022958	0.0023998	0.00066696	1224.7	2.562e-05	2.5727e-05	1258.5	515.2	2.5023e-05	2.5675e-05	580.76	213.53	181.71	80.007	2.5455e-05	103.5	497.270	447.375	375.827	184.449	338.030	363.387	183.025	189.168	297.710	344.052	187.644	191.641	193.568	198.756	299.824	196.263	-8191	255	
12096.163	1	1	0	0	0.10081	0.16571	0.028717	0.16222	0.10333	0.18864	0.25973	0.15252	0.26921	0.1709	0.12149	0.18959	0.17362	0.051764	0.1553	0.078673	-3.7687	-4.6917	-4.3646	-4.275	-4.6958	-4.1604	-4.5167	-4.7167	-3.8167	-4.5875	-4.4833	-4.2917	-4.7354	-4.2917	-4.4229	-4.8229	244.517	358.369	224.714	505.882	191.998	436.137	464.457	522.167	334.037	237.243	494.602	509.272	427.299	268.401	438.445	442.904	0.0019337	0.0011793	0.00018441	1267.9	9.1522e-06	1.6607e-05	1296.7	535.15	1.3158e-05	6.1966e-06	592.35	217.92	184.04	82.49	8.7387e-06	105.59	0.0022477	0.002342	0.00065067	1226.9	2.5519e-05	2.5685e-05	1257.5	515.02	2.5546e-05	2.6192e-05	579.26	211.45	180.79	79.896	2.5082e-05	102.65	498.900	270.907	253.359	184.681	310.301	331.973	183.358	189.318	257.772	322.584	187.589	191.583	193.535	198.858	284.076	196.225	-8191	255	
12096.259	1	1	0	0	0.12912	0.15602	0.2019	0.15819	0.086525	0.087627	0.10032	0.28672	0.09785	0.090937	0.47232	0.13313	0.052016	0.24008	0.12694	0.24943	-3.6437	-4.5125	-4.3167	-4.3646	-4.6479	-4.2125	-4.4104	-4.8063	-3.9875	-4.3938	-4.5521	-4.175	-4.7021	-4.325	-4.1292	-4.8688	450.534	302.346	221.918	172.943	225.526	427.861	331.754	486.797	321.012	350.535	475.684	172.615	448.015	453.359	215.975	458.854	0.0017735	0.001056	0.00024284	1278.3	7.8932e-06	1.4121e-05	1308.9	535.75	4.9558e-06	1.0964e-05	594.31	215.48	183.21	82.019	1.2413e-05	105.57	0.0021877	0.0023051	0.00062868	1233.4	2.4347e-05	2.4633e-05	1261.5	515.59	2.4447e-05	2.5321e-05	578.66	210.11	180.19	79.537	2.5106e-05	102.59	507.019	325.204	269.038	184.701	298.827	321.025	183.236	189.023	296.501	352.770	187.103	191.604	193.635	198.964	347.579	195.651	-8191	255	
12096.380	1	1	0	0	0.16437	0.1226	0.14755	0.42764	0.17675	0.061205	0.085279	0.44926	0.018176	0.07995	0.089551	0.18843	0.18521	0.23968	0.12447	0.17501	-3.7625	-4.4396	-4.4	-4.2312	-4.4208	-4.2917	-4.2271	-4.9021	-3.9646	-4.3604	-4.7312	-4.0563	-4.5104	-4.1854	-3.9521	-4.8688	246.318	475.964	445.009	528.355	174.737	357.687	449.653	472.311	381.371	284.215	489.992	176.096	171.878	498.351	427.445	493.388	0.0016966	0.00086765	0.00057729	1271.8	1.0754e-05	1.1775e-05	1301.1	536.72	8.0621e-06	8.772e-06	599.3	220.09	185.07	82.177	5.7696e-06	105.75	0.0022309	0.0023101	0.00064317	1225.5	2.4531e-05	2.5097e-05	1256.4	515.4	2.439e-05	2.5018e-05	582.23	213.72	181.24	79.904	2.4838e-05	103.36	501.206	221.961	218.921	184.741	276.652	336.221	183.373	189.120	269.866	349.730	187.176	191.380	193.498	198.829	238.294	196.278	-8191	255	
12096.476	1	1	0	0	0.073228	0.043554	0.05776	0.10471	0.10128	0.13291	0.319	0.24867	0.13004	0.15553	0.055865	0.057718	0.26511	0.14387	0.19862	0.18993	-3.7542	-4.2854	-4.6479	-4.1417	-4.4688	-4.3771	-4.3083	-4.7875	-4.0479	-4.35	-4.5979	-4.0667	-4.5917	-4.55	-4.0563	-4.775	523.803	327.166	176.460	493.823	217.195	460.782	467.103	459.105	219.976	341.565	522.793	491.055	199.252	495.900	428.648	511.945	0.0016774	0.0011434	0.00023041	1271.6	4.3688e-06	1.6671e-05	1308.6	536.04	1.7498e-05	8.4243e-06	599.08	218.91	183.33	82.25	1.0573e-05	106.69	0.0022106	0.0023112	0.00064166	1224.6	2.5209e-05	2.5572e-05	1261.8	514.99	2.5033e-05	2.5854e-05	583.49	213.19	180.66	79.916	2.5121e-05	103.91	491.434	263.877	252.144	184.508	253.630	389.383	183.513	189.350	304.628	249.140	187.470	191.350	193.623	198.752	315.701	196.062	-8191	255	
12096.570	1	1	0	0	0.085005	0.16895	0.17486	0.24165	0.1901	0.26253	0.14927	0.27664	0.19489	0.23565	0.095746	0.16142	0.14761	0.16064	0.032565	0.22349	-3.7812	-4.3458	-4.6625	-4.2	-4.4521	-4.3479	-4.2354	-4.8083	-4.2937	-4.2604	-4.7167	-4.0687	-4.5042	-4.5729	-3.9375	-4.7208	240.879	394.045	257.913	502.318	392.449	448.311	385.925	485.431	335.168	455.305	486.167	197.941	460.250	212.385	391.285	466.991	0.0019055	0.0016378	0.00011185	1280.8	1.2568e-05	5.4636e-06	1317.1	537.25	2.1521e-05	8.0671e-06	598.99	220.05	184.55	82.9	2.1007e-05	107.46	0.0022469	0.0023149	0.00065042	1232.6	2.5024e-05	2.5672e-05	1268.5	517.29	2.5307e-05	2.5737e-05	584.23	214.02	181.88	80.33	2.5137e-05	104.56	503.838	246.745	304.325	184.612	284.745	274.314	183.331	188.968	308.868	354.923	187.392	191.428	193.800	198.796	314.497	195.930	-8191	255	
12096.666	1	1	0	0	0.067472	0.076203	0.013022	0.18173	0.17785	0.20197	0.17272	0.13139	0.083967	0.13589	0.12913	0.1343	0.10811	0.17886	0.102	0.24231	-3.7687	-4.1792	-4.6646	-4.1667	-4.4229	-4.6854	-4.1625	-4.5729	-4.3833	-4.1271	-4.6583	-4.2333	-4.5729	-4.7708	-4.0271	-4.6229	244.209	356.864	422.934	501.111	307.162	424.252	483.868	521.321	184.271	459.486	480.663	181.106	447.730	511.385	485.145	483.664	0.0021332	0.0015891	0.00038499	1275	5.5044e-06	1.3272e-05	1313.2	539.62	4.4187e-06	1.5319e-05	599.75	222.97	185.51	82.885	2.1354e-06	107.59	0.0022245	0.0022983	0.0006385	1232.9	2.521e-05	2.5335e-05	1267	518.32	2.5022e-05	2.5424e-05	585.31	216.43	182.68	80.413	2.5302e-05	104.27	500.581	265.435	294.597	184.569	292.123	279.488	183.173	189.218	265.879	319.453	187.541	191.640	193.507	198.780	218.736	196.071	-8191	255	
12096.740	1	1	0	0	0.19409	0.087667	0.20612	0.11138	0.26445	0.27738	0.20987	0.16255	0.18493	0.099787	0.17838	0.12854	0.30095	0.18089	0.16059	0.19778	-4.0375	-4.1917	-4.6792	-4.3396	-4.3667	-4.5708	-4.2583	-4.8	-4.4333	-4.0792	-4.8271	-4.2937	-4.4271	-4.7375	-4.0479	-4.6396	492.040	321.238	329.070	488.990	451.668	470.001	447.658	497.440	355.865	430.378	479.860	236.861	194.719	447.347	267.873	234.505	0.0018752	0.00072363	0.00023705	1269.7	9.008e-06	4.986e-06	1310.8	537.45	8.7378e-06	4.4436e-06	597.5	220.47	183.31	81.914	1.1655e-05	105.45	0.002255	0.0023171	0.0006437	1226.6	2.5283e-05	2.547e-05	1258.9	515.83	2.5373e-05	2.5579e-05	581.18	214.24	180.84	79.54	2.5498e-05	102.83	502.886	300.629	173.138	184.662	235.885	336.827	183.322	189.357	253.410	298.157	187.021	191.358	193.701	198.911	273.785	195.861	-8191	255	
12096.859	1	1	0	0	0.1223	0.1769	0.12999	0.24322	0.058307	0.088287	0.10484	0.1936	0.077981	0.02574	0.12026	0.06147	0.029277	0.13274	0.34882	0.4154	-4.05	-3.9875	-4.5896	-4.3438	-4.2333	-4.5458	-4.1271	-4.6708	-4.4417	-3.9792	-4.65	-4.3979	-4.2167	-4.9062	-3.975	-4.5375	483.365	212.195	501.634	491.365	528.107	409.323	438.192	436.878	430.327	466.847	523.406	493.957	227.492	469.170	358.378	457.667	0.001864	0.0016705	0.00051394	1273.8	4.2478e-06	9.584e-06	1308.8	536.43	8.8224e-06	1.1767e-05	598.65	219.6	183.66	81.558	6.3185e-06	106.11	0.0022489	0.0023157	0.00065598	1227.4	2.4805e-05	2.5129e-05	1260.6	514.54	2.4649e-05	2.4969e-05	580.85	213.18	180.41	79.377	2.4503e-05	103.28	507.070	228.936	324.945	184.429	523.318	309.866	183.068	189.229	282.235	335.355	187.665	191.186	193.528	198.902	281.665	196.032	-8191	255	
12096.955	1	1	0	0	0.094081	0.20717	0.18643	0.087719	0.15332	0.18596	0.072505	0.13329	0.065889	0.10447	0.27667	0.23971	0.21958	0.24929	0.12232	0.068208	-4.1521	-4.0042	-4.4729	-4.4354	-4.0583	-4.6833	-4.2396	-4.5062	-4.6958	-4.0833	-4.6229	-4.475	-4.1229	-4.9792	-4.1708	-4.5625	376.848	478.312	482.084	236.176	471.396	352.651	416.963	509.637	195.066	412.585	381.210	504.903	217.072	487.473	336.440	212.455	0.001834	0.00079947	0.00029359	1267.4	7.6986e-06	6.8084e-06	1300.1	532.06	1.5366e-05	1.115e-05	598.32	221.2	183.7	81.595	1.032e-05	106.91	0.0022275	0.0022775	0.0006578	1219.6	2.485e-05	2.5471e-05	1257	511.89	2.495e-05	2.5157e-05	581.54	214.32	180.14	79.483	2.4487e-05	103.9	506.470	216.308	529.955	184.446	332.744	273.452	183.173	189.216	250.992	372.356	187.538	191.139	193.593	198.753	319.503	196.010	-8191	255	
12097.051	1	1	0	0	0.18535	0.29373	0.093176	0.059884	0.19972	0.1058	0.14808	0.099975	0.1113	0.06565	0.23424	0.15211	0.12619	0.22713	0.14157	0.06036	-4.4313	-3.9958	-4.4708	-4.4875	-4.1042	-4.65	-4.3688	-4.4083	-4.6438	-4.025	-4.6354	-4.5042	-4	-4.75	-4.375	-4.5583	378.733	198.576	306.590	445.108	199.690	499.375	442.787	440.526	346.246	237.946	476.633	476.450	530.142	494.946	235.389	342.504	0.0019682	0.00030427	0.00045509	1265.5	1.1814e-05	1.5064e-05	1311.2	535.55	2.0603e-05	3.339e-06	602.46	218.89	183.06	81.787	6.6907e-06	107.09	0.0021632	0.0022172	0.00062904	1220.8	2.3842e-05	2.4685e-05	1264	513.43	2.4339e-05	2.4421e-05	583.38	211.91	179.31	79.626	2.436e-05	104.11	501.312	285.617	298.119	184.679	302.477	363.782	183.065	189.153	237.738	327.140	187.437	191.508	193.577	198.828	281.413	195.965	-8191	255	
12097.147	1	1	0	0	0.076367	0.099565	0.11002	0.25948	0.024445	0.041189	0.1167	0.15373	0.17938	0.064182	0.093693	0.27403	0.077546	0.13852	0.21136	0.34696	-4.3271	-4.0687	-4.2667	-4.6708	-3.9792	-4.5563	-4.3271	-4.275	-4.6375	-4.1729	-4.5229	-4.6146	-4.075	-4.8542	-4.2208	-4.3187	512.218	336.174	274.920	514.741	222.628	392.212	501.431	419.175	487.323	284.059	522.556	465.883	390.898	462.980	456.381	470.619	0.0018068	0.00086716	0.00015268	1280.9	8.6802e-06	1.9146e-05	1323.9	537.94	1.1666e-05	1.1599e-05	598.75	218.82	182.94	81.842	3.0804e-06	106.93	0.0021273	0.0021748	0.00061757	1227.8	2.31e-05	2.3913e-05	1273	515.28	2.358e-05	2.3643e-05	582.19	211.65	178.75	79.556	2.3723e-05	103.6	503.877	315.996	270.026	184.466	302.997	303.490	183.388	189.157	286.830	316.169	187.262	191.700	193.673	198.649	353.223	195.947	-8191	255	
12097.268	1	1	0	0	0.25351	0.026395	0.16208	0.12511	0.16651	0.25056	0.16348	0.56274	0.19045	0.16244	0.40502	0.08396	0.26865	0.27037	0.053986	0.2206	-4.2854	-3.9667	-4.2625	-4.6625	-4.025	-4.6479	-4.5146	-4.3604	-4.7958	-4.1542	-4.5	-4.775	-4.1646	-4.7063	-4.4854	-4.2729	277.857	262.110	310.923	429.980	518.242	286.732	498.924	457.931	509.699	483.159	450.167	217.185	465.546	453.613	279.814	519.967	0.0017817	0.0020727	0.00037643	1275.6	1.4172e-05	1.4504e-05	1310.1	536.45	1.3057e-05	7.4411e-06	600.28	216.1	182.03	81.508	1.6428e-05	105.55	0.0021287	0.0021755	0.0006102	1228.8	2.296e-05	2.3749e-05	1263.5	514.23	2.3041e-05	2.3338e-05	580.19	209.71	178.44	79.146	2.3436e-05	102.78	499.078	250.486	308.829	184.698	332.135	298.300	183.278	189.349	270.217	320.432	187.189	191.590	193.587	198.734	245.070	196.088	-8191	255	
12097.364	1	1	0	0	0.12219	0.14476	0.074725	0.096525	0.093145	0.090276	0.050925	0.13641	0.13833	0.043659	0.33748	0.29399	0.33334	0.14597	0.17358	0.024021	-4.1458	-4.2063	-4.2333	-4.8292	-3.8333	-4.4042	-4.675	-4.2083	-4.6625	-4.2438	-4.3167	-4.8771	-4.0396	-4.6021	-4.4062	-4.1583	393.780	297.417	376.133	183.262	422.821	237.646	494.128	469.571	428.219	419.425	440.148	463.892	515.729	528.829	511.991	263.007	0.0020564	0.0015708	0.00048528	1281.8	1.189e-05	1.924e-05	1313.3	538.18	2.225e-05	1.2765e-05	600.67	216.8	182.04	81.586	1.861e-05	105.93	0.0021018	0.0021711	0.00059646	1230.5	2.3035e-05	2.3957e-05	1267.5	514.09	2.3173e-05	2.3296e-05	580.54	209.84	178.04	79.096	2.2931e-05	102.73	497.558	256.657	265.191	184.635	267.192	361.358	183.358	189.197	298.586	354.369	187.462	191.514	193.521	199.034	311.172	196.092	-8191	255	
12097.460	1	1	0	0	0.13621	0.09017	0.25828	0.048106	0.19021	0.08994	0.11269	0.19473	0.038679	0.085219	0.090949	0.061584	0.14685	0.24933	0.13932	0.064309	-4.1542	-4.1104	-4.0458	-4.7229	-4.1125	-4.4812	-4.5188	-4.0583	-4.5437	-4.2021	-4.2896	-4.8604	-4.3083	-4.5417	-4.5708	-4.1813	488.303	260.300	423.852	175.259	264.382	386.388	436.844	478.955	325.655	230.423	506.258	441.034	217.163	506.330	454.712	493.998	0.0019068	0.00086605	0.00031994	1290.2	2.0323e-05	6.5365e-06	1322.2	537.52	9.0073e-06	1.385e-05	599.42	216.53	182.94	81.744	1.5209e-05	106.57	0.0020555	0.002121	0.0005882	1238.1	2.2623e-05	2.3457e-05	1273.1	513.76	2.3307e-05	2.335e-05	579.82	209.93	178.43	79.149	2.3208e-05	103.28	499.424	343.181	229.485	184.525	301.132	355.513	182.948	189.161	262.303	308.777	187.692	191.486	193.880	198.806	287.952	196.144	-8191	255	
12097.556	1	1	0	0	0.16366	0.31959	0.019786	0.10676	0.089316	0.42222	0.088618	0.028318	0.15402	0.067186	0.051281	0.32113	0.2025	0.37463	0.13906	0.18394	-4.3	-4.2312	-3.9688	-4.9354	-4.1479	-4.4458	-4.6875	-4.1458	-4.3979	-4.5667	-4.3063	-4.6271	-4.2458	-4.4979	-4.7417	-4.2792	308.970	327.849	406.279	214.820	235.296	359.949	217.066	178.593	264.814	527.960	244.663	481.542	479.863	477.723	497.370	481.483	0.0018781	0.00044969	0.00032137	1286.3	1.045e-05	1.4566e-05	1322.6	539.2	9.8912e-06	9.2917e-07	605.92	221.09	185.73	82.443	1.0081e-05	107.6	0.0021018	0.0021417	0.00059213	1239.3	2.3017e-05	2.3665e-05	1274.6	516.69	2.3208e-05	2.3591e-05	585.82	214.27	180.87	79.976	2.3138e-05	104.5	502.388	354.638	302.695	184.445	276.460	303.793	183.308	189.222	256.353	205.141	187.600	191.384	193.942	198.947	267.560	196.304	-8191	255	
12097.651	1	1	0	0	0.25913	0.023221	0.057539	0.13726	0.12037	0.22905	0.29597	0.22247	0.021192	0.1433	0.14553	0.21941	0.24691	0.080514	0.10335	0.22703	-4.1167	-4.3458	-4.0771	-4.8229	-4.2438	-4.2896	-4.8313	-4.2083	-4.5271	-4.5125	-4.2167	-4.7812	-4.2167	-4.2688	-4.6604	-4.4229	256.155	202.051	305.699	466.749	315.481	286.576	405.882	490.971	340.712	527.068	188.767	430.212	515.027	475.650	475.144	433.964	0.0018529	0.0008216	0.00030291	1290.4	4.6665e-06	1.0674e-05	1338.8	542.78	1.3667e-05	8.8164e-06	609.79	223.78	186.56	83.024	1.6786e-05	107.81	0.0021049	0.0021204	0.00058561	1241.6	2.2772e-05	2.3192e-05	1284.5	521.56	2.3091e-05	2.3028e-05	591.57	216.71	182.08	80.499	2.3269e-05	104.67	497.019	242.284	268.417	184.593	239.857	277.009	183.234	189.084	273.804	343.900	187.332	191.570	193.762	198.801	265.070	195.911	-8191	255	
#DATA ENDS
