BOXY.EXE: ISS Imagent and Oximeter Data Acquisition Program Version 0.80
Ascii Record File

#ACQ INFORMATION
2  Detector Channels 
16  External MUX Channels 
1  Auxiliary Channels 
5000  Waveform (CCF) Frequency (Hz)
1  Waveforms Skipped 
30  Waveforms Averaged 
1  Cycles Averaged 
16  Acquisitions per Waveform 
10.0806  Updata Rate (Hz) 

#FILE INFORMATION
TRUE -- External MUX Channel results are PARSED.
FALSE -- AC DC and Phase are NOT grouped.
TRUE -- Companion Program Settings File CREATED.
FALSE -- AC data not excluded
FALSE -- DC data not excluded
FALSE -- Phase data not excluded
FALSE -- Auxillary Chn. data not excluded
Tab delimiters

#CALIBRATION STATE
TRUE -- Waveform Calibration Values APPLIED.


#AUX CALIBRATION VALUES
Val Type	aux-1	

Term	1.0000e+00	
Factor	0.0000e+00	


#WF CALIBRATION VALUES
A = Detector Channel
Val Type	A-AC1	A-AC2	A-AC3	A-AC4	A-AC5	A-AC6	A-AC7	A-AC8	A-AC9	A-AC10	A-AC11	A-AC12	A-AC13	A-AC14	A-AC15	A-AC16	A-DC1	A-DC2	A-DC3	A-DC4	A-DC5	A-DC6	A-DC7	A-DC8	A-DC9	A-DC10	A-DC11	A-DC12	A-DC13	A-DC14	A-DC15	A-DC16	A-Ph1	A-Ph2	A-Ph3	A-Ph4	A-Ph5	A-Ph6	A-Ph7	A-Ph8	A-Ph9	A-Ph10	A-Ph11	A-Ph12	A-Ph13	A-Ph14	A-Ph15	A-Ph16	

Term	0.00000e+00	0.00000e+00	0.00000e+00	0.00000e+00	0.00000e+00	0.00000e+00	0.00000e+00	0.00000e+00	0.00000e+00	0.00000e+00	0.00000e+00	0.00000e+00	0.00000e+00	0.00000e+00	0.00000e+00	0.00000e+00	0.00000e+00	0.00000e+00	0.00000e+00	0.00000e+00	0.00000e+00	0.00000e+00	0.00000e+00	0.00000e+00	0.00000e+00	0.00000e+00	0.00000e+00	0.00000e+00	0.00000e+00	0.00000e+00	0.00000e+00	0.00000e+00	0.00000e+00	0.00000e+00	0.00000e+00	0.00000e+00	0.00000e+00	0.00000e+00	0.00000e+00	0.00000e+00	0.00000e+00	0.00000e+00	0.00000e+00	0.00000e+00	0.00000e+00	0.00000e+00	0.00000e+00	0.00000e+00	
Factor	1.00000e+00	1.00000e+00	1.00000e+00	1.00000e+00	1.00000e+00	1.00000e+00	1.00000e+00	1.00000e+00	1.00000e+00	1.00000e+00	1.00000e+00	1.00000e+00	1.00000e+00	1.00000e+00	1.00000e+00	1.00000e+00	1.00000e+00	1.00000e+00	1.00000e+00	1.00000e+00	1.00000e+00	1.00000e+00	1.00000e+00	1.00000e+00	1.00000e+00	1.00000e+00	1.00000e+00	1.00000e+00	1.00000e+00	1.00000e+00	1.00000e+00	1.00000e+00	X	X	X	X	X	X	X	X	X	X	X	X	X	X	X	X	

B = Detector Channel
Val Type	B-AC1	B-AC2	B-AC3	B-AC4	B-AC5	B-AC6	B-AC7	B-AC8	B-AC9	B-AC10	B-AC11	B-AC12	B-AC13	B-AC14	B-AC15	B-AC16	B-DC1	B-DC2	B-DC3	B-DC4	B-DC5	B-DC6	B-DC7	B-DC8	B-DC9	B-DC10	B-DC11	B-DC12	B-DC13	B-DC14	B-DC15	B-DC16	B-Ph1	B-Ph2	B-Ph3	B-Ph4	B-Ph5	B-Ph6	B-Ph7	B-Ph8	B-Ph9	B-Ph10	B-Ph11	B-Ph12	B-Ph13	B-Ph14	B-Ph15	B-Ph16	

Term	0.00000e+00	0.00000e+00	0.00000e+00	0.00000e+00	0.00000e+00	0.00000e+00	0.00000e+00	0.00000e+00	0.00000e+00	0.00000e+00	0.00000e+00	0.00000e+00	0.00000e+00	0.00000e+00	0.00000e+00	0.00000e+00	0.00000e+00	0.00000e+00	0.00000e+00	0.00000e+00	0.00000e+00	0.00000e+00	0.00000e+00	0.00000e+00	0.00000e+00	0.00000e+00	0.00000e+00	0.00000e+00	0.00000e+00	0.00000e+00	0.00000e+00	0.00000e+00	-1.84242e+02	-1.31288e+02	-1.21626e+02	-1.81577e+02	-7.85704e+01	-6.40695e+01	-1.57418e+02	-1.62015e+02	-9.27530e+01	-5.43537e+01	-1.71140e+02	-1.72811e+02	-1.83937e+02	-1.76769e+02	-8.70099e+01	-1.49549e+02	
Factor	3.59974e-05	1.57676e-04	5.33321e-05	1.56162e-01	1.60835e-06	2.14125e-06	1.73087e-01	5.61743e-02	1.99634e-06	1.80400e-06	9.22686e-02	3.72187e-02	3.89265e-02	9.91070e-03	1.84539e-06	1.43689e-02	3.91198e-06	4.30745e-06	1.20086e-06	7.79773e-02	4.62936e-08	4.73652e-08	8.15129e-02	2.80165e-02	4.65171e-08	4.73618e-08	4.47915e-02	1.80050e-02	1.94850e-02	4.98058e-03	4.68586e-08	6.99640e-03	X	X	X	X	X	X	X	X	X	X	X	X	X	X	X	X	



#DISTANCE SETTINGS
A = Detector Channel
A-1	A-2	A-3	A-4	A-5	A-6	A-7	A-8	A-9	A-10	A-11	A-12	A-13	A-14	A-15	A-16	

2.5000e+00	3.0000e+00	2.5000e+00	3.0000e+00	2.0000e+00	3.0000e+00	1.5000e+00	3.0000e+00	3.0000e+00	3.0000e+00	3.0000e+00	3.0000e+00	3.0000e+00	3.0000e+00	1.5000e+00	3.0000e+00	

B = Detector Channel
B-1	B-2	B-3	B-4	B-5	B-6	B-7	B-8	B-9	B-10	B-11	B-12	B-13	B-14	B-15	B-16	

1.0000e+01	1.0000e+01	1.0000e+01	1.4400e+00	1.0000e+01	1.0000e+01	1.5100e+00	1.9400e+00	1.0000e+01	1.0000e+01	1.9900e+00	2.4900e+00	2.4100e+00	2.9000e+00	1.0000e+01	2.9800e+00	




#DATA BEGINS
time	group	step	mark	flag	A-AC1	A-AC2	A-AC3	A-AC4	A-AC5	A-AC6	A-AC7	A-AC8	A-AC9	A-AC10	A-AC11	A-AC12	A-AC13	A-AC14	A-AC15	A-AC16	A-DC1	A-DC2	A-DC3	A-DC4	A-DC5	A-DC6	A-DC7	A-DC8	A-DC9	A-DC10	A-DC11	A-DC12	A-DC13	A-DC14	A-DC15	A-DC16	A-Ph1	A-Ph2	A-Ph3	A-Ph4	A-Ph5	A-Ph6	A-Ph7	A-Ph8	A-Ph9	A-Ph10	A-Ph11	A-Ph12	A-Ph13	A-Ph14	A-Ph15	A-Ph16	B-AC1	B-AC2	B-AC3	B-AC4	B-AC5	B-AC6	B-AC7	B-AC8	B-AC9	B-AC10	B-AC11	B-AC12	B-AC13	B-AC14	B-AC15	B-AC16	B-DC1	B-DC2	B-DC3	B-DC4	B-DC5	B-DC6	B-DC7	B-DC8	B-DC9	B-DC10	B-DC11	B-DC12	B-DC13	B-DC14	B-DC15	B-DC16	B-Ph1	B-Ph2	B-Ph3	B-Ph4	B-Ph5	B-Ph6	B-Ph7	B-Ph8	B-Ph9	B-Ph10	B-Ph11	B-Ph12	B-Ph13	B-Ph14	B-Ph15	B-Ph16	aux-1	digaux	

12373.292	1	1	0	256	0.1486	0.12702	0.02884	0.088113	0.12082	0.31201	0.088785	0.24439	0.03721	0.18655	0.08726	0.2197	0.11878	0.1303	0.13306	0.39611	-3.875	-4.8333	-4.4875	-4.4979	-4.5729	-4.0396	-4.5667	-4.7354	-3.9375	-4.7042	-4.5333	-4.4104	-4.6167	-4.3458	-4.5479	-4.6833	154.427	210.488	-0.626	-93.809	41.064	-124.752	23.974	193.717	25.693	144.124	195.601	-130.147	125.090	87.113	159.437	165.280	0.00090138	0.001275	0.00023476	817.47	8.4768e-06	2.7796e-06	826.7	286.41	7.728e-06	9.3541e-06	340.94	150.72	94.176	39.646	1.2202e-05	75.519	0.001147	0.0011758	0.00032984	776.04	1.2644e-05	1.2773e-05	792.29	273.44	1.2796e-05	1.3188e-05	326.18	144.05	92.202	38.332	1.3308e-05	72.424	151.606	-64.959	-40.242	-132.245	21.339	45.787	-133.512	-128.249	-123.174	18.502	-129.674	-126.088	-124.532	-119.895	-32.373	-122.484	-8191	255	
12373.388	1	1	0	0	0.095605	0.20978	0.044189	0.066141	0.11812	0.1177	0.16791	0.15404	0.015371	0.27112	0.10804	0.33848	0.098499	0.13016	0.071338	0.17189	-3.7458	-4.6771	-4.3479	-4.3208	-4.6167	-4.3812	-4.6229	-4.875	-4.1188	-4.7292	-4.4688	-4.3396	-4.9187	-4.4646	-4.2479	-4.8604	209.765	205.137	30.062	48.249	-117.869	79.261	-129.139	191.900	130.694	30.963	191.189	-129.483	149.092	186.503	-40.072	94.636	0.0008396	0.00097584	0.00015826	821.56	7.6445e-06	9.5345e-06	840.23	290.09	1.6533e-05	1.1246e-06	340.31	151.33	96.018	40.018	1.2144e-05	75.625	0.001184	0.001236	0.00034015	781.2	1.3242e-05	1.3595e-05	801.66	276.76	1.3505e-05	1.3881e-05	328.77	144.9	93.655	38.541	1.3753e-05	72.689	149.704	-31.608	27.539	-132.526	-12.856	-26.645	-133.514	-128.112	-40.576	-88.385	-129.560	-125.702	-124.592	-119.748	-13.980	-122.392	-8191	255	
12373.509	1	1	0	0	0.1898	0.12723	0.062177	0.17562	0.16484	0.16804	0.12042	0.027444	0.071621	0.12534	0.09517	0.21092	0.20649	0.12779	0.19758	0.11987	-3.8083	-4.5646	-4.5333	-4.3438	-4.8875	-4.3125	-4.4604	-4.9229	-4.0813	-4.6229	-4.5104	-4.2604	-4.6375	-4.4917	-4.2354	-5.0104	124.758	-29.232	-31.240	203.685	24.888	75.180	90.196	208.113	-95.239	-103.276	173.737	-130.123	-121.516	38.484	-84.590	124.632	0.0010116	0.00029748	0.00026784	824.2	1.1028e-06	4.7772e-06	835.51	291.31	6.5414e-06	1.3362e-05	340.62	152.51	95.932	40.422	2.4375e-06	76.12	0.0012115	0.0012607	0.00034664	784.15	1.3369e-05	1.3416e-05	800.12	277.16	1.325e-05	1.3532e-05	328.37	145.56	93.51	38.975	1.3427e-05	73.154	138.733	10.340	-64.289	-132.320	44.527	92.341	-133.848	-128.173	-93.737	42.714	-129.796	-125.993	-124.746	-120.046	-78.847	-122.336	-8191	255	
12373.603	1	1	0	0	0.24367	0.12646	0.24982	0.16097	0.18711	0.14184	0.04756	0.10831	0.049009	0.17032	0.1016	0.11386	0.16853	0.032569	0.21552	0.085364	-3.7812	-4.5021	-4.5417	-4.2188	-4.7375	-4.4375	-4.5062	-4.8604	-4.2729	-4.4917	-4.8187	-4.1188	-4.5687	-4.5208	-4.1583	-4.7792	45.631	193.109	-140.448	106.962	30.555	200.880	7.923	50.119	113.559	-46.486	-125.689	138.781	-124.861	0.783	-93.659	-25.155	0.00092588	0.0010406	0.00015799	816.42	2.7498e-06	7.2979e-06	834.91	288.43	1.0002e-05	3.5877e-06	338.2	150.26	94.602	39.513	1.3806e-05	74.296	0.0011983	0.0012408	0.00034083	778.24	1.3291e-05	1.3456e-05	794.09	274.43	1.3061e-05	1.3447e-05	325.28	143.9	92.519	38.318	1.3614e-05	71.445	135.659	-45.805	-52.706	-132.627	28.028	107.921	-133.573	-128.297	-81.299	67.874	-129.792	-126.433	-124.641	-119.677	-27.987	-122.246	-8191	255	
12373.700	1	1	0	0	0.060558	0.058772	0.10376	0.10621	0.15828	0.23576	0.12982	0.091308	0.1536	0.12845	0.049819	0.16428	0.091924	0.18387	0.128	0.040872	-3.925	-4.4563	-4.5813	-4.1854	-4.5771	-4.5146	-4.3708	-4.9062	-4.2271	-4.3562	-4.8104	-4.1896	-4.6271	-4.4187	-4.0979	-4.7	204.960	-58.184	66.183	177.186	164.869	-123.633	197.970	-82.938	173.116	-20.287	202.997	119.133	-34.562	-136.656	194.176	136.093	0.00098134	0.00026734	0.00020781	818.75	4.5353e-06	2.0979e-06	827.01	287.69	4.4815e-06	1.7097e-05	336.6	147.92	92.807	38.151	3.19e-06	72.084	0.0012235	0.0012853	0.00035746	778.92	1.4217e-05	1.4493e-05	793.96	274.17	1.4508e-05	1.4691e-05	323.57	141.84	91.424	37.145	1.4415e-05	69.49	146.609	51.052	-14.664	-132.332	-68.815	-69.960	-133.629	-128.498	13.254	28.180	-129.668	-126.193	-124.512	-119.686	142.396	-122.328	-8191	255	
12373.796	1	1	0	0	0.094695	0.08042	0.23442	0.21763	0.29348	0.080109	0.25866	0.073788	0.18842	0.38468	0.12017	0.21299	0.144	0.15681	0.21356	0.038251	-3.9875	-4.2625	-4.6562	-4.225	-4.5687	-4.6125	-4.3313	-4.7812	-4.2438	-4.3354	-4.85	-4.2312	-4.6667	-4.5417	-4.0729	-4.6958	151.488	-133.035	64.161	156.118	117.667	-84.856	127.305	193.802	74.508	193.496	132.591	166.017	76.944	153.669	-139.356	-68.230	0.00095087	0.00074457	0.00030953	814.68	6.6343e-06	9.5135e-06	822.29	286.01	9.3646e-06	5.8896e-06	334.59	146.21	91.218	37.836	6.7368e-06	72.294	0.0012976	0.0013644	0.0003776	778.56	1.4769e-05	1.4895e-05	792.78	273.14	1.464e-05	1.4916e-05	323.28	141.02	90.551	36.716	1.4582e-05	69.575	142.232	-61.198	-18.276	-132.573	-29.034	31.965	-133.671	-128.274	-5.651	-49.574	-130.008	-126.024	-124.707	-119.667	-70.656	-122.148	-8191	255	
12373.892	1	1	0	0	0.19962	0.13827	0.1213	0.09581	0.086691	0.23796	0.084699	0.12814	0.036859	0.12563	0.20939	0.06307	0.18349	0.13725	0.09279	0.0039152	-4.1333	-4.1333	-4.7188	-4.3	-4.4625	-4.5687	-4.3771	-4.6875	-4.4708	-4.2229	-4.8604	-4.2333	-4.4479	-4.7104	-4.1438	-4.7167	-101.183	81.357	104.155	115.890	-115.086	69.043	-117.445	-113.535	-25.083	76.204	167.699	130.339	115.842	189.764	76.452	-61.506	0.00088235	0.00040363	0.00010925	817.26	7.1542e-06	1.5397e-05	834.04	285.56	9.4151e-06	5.8746e-06	337.5	148.82	92.999	38.488	2.1388e-06	73.711	0.0013012	0.0013402	0.00037022	775.98	1.4318e-05	1.4771e-05	793.83	272.34	1.446e-05	1.4486e-05	325.3	142.85	91.607	37.446	1.4244e-05	70.977	158.447	-63.668	-18.576	-132.449	-43.060	73.309	-134.028	-128.441	-83.100	106.090	-129.767	-125.968	-124.586	-119.898	-113.151	-122.377	-8191	255	
12373.988	1	1	0	0	0.16888	0.10363	0.033664	0.13441	0.13804	0.17098	0.13003	0.10549	0.13672	0.13888	0.19278	0.076643	0.090777	0.03283	0.17161	0.097663	-4.1896	-4.0708	-4.6562	-4.2958	-4.4104	-4.8417	-4.1771	-4.6312	-4.3729	-4.1188	-4.6333	-4.3	-4.4229	-4.7375	-4.1979	-4.7104	20.394	-131.009	104.244	186.517	-12.618	185.518	181.989	-51.621	96.260	160.055	179.094	-119.524	106.618	85.787	30.205	-84.067	0.0011055	0.0011993	0.00030914	815.05	5.4432e-06	6.4347e-06	834.14	285.32	2.8478e-06	7.8589e-06	338.31	147.89	91.715	38.29	8.487e-06	73.58	0.0012666	0.0012893	0.00036535	776.3	1.4265e-05	1.4635e-05	796.18	273.31	1.4538e-05	1.4506e-05	326.35	142.61	91.084	37.149	1.4885e-05	70.658	140.041	-65.379	-62.840	-132.448	-31.960	-42.067	-133.706	-128.219	209.466	28.350	-129.814	-126.011	-124.516	-119.625	41.715	-122.268	-8191	255	
12374.084	1	1	0	0	0.14022	0.1578	0.12223	0.2049	0.031079	0.20842	0.052972	0.22311	0.19871	0.12821	0.17284	0.13564	0.21059	0.035664	0.10371	0.25432	-4.2792	-4.1062	-4.7	-4.4604	-4.4729	-4.7542	-4.0792	-4.5542	-4.6021	-4.0437	-4.7063	-4.4833	-4.1646	-4.8313	-4.4083	-4.5667	-133.729	35.583	-90.565	205.757	73.127	-95.782	-133.314	181.581	208.876	37.288	172.903	178.218	138.384	68.509	5.971	143.384	0.00087346	0.00022785	0.00011185	814.72	5.6974e-06	2.8276e-06	820.21	285.69	1.2546e-05	8.0536e-06	333.71	147.39	92.651	38.737	1.1085e-05	74.059	0.0013329	0.0013855	0.00038477	776.36	1.4931e-05	1.4895e-05	791.21	272.11	1.4616e-05	1.491e-05	323.45	142.49	91.618	37.71	1.4813e-05	71.304	151.688	134.614	-78.871	-132.486	111.164	-96.598	-133.344	-128.184	18.762	50.575	-129.940	-126.148	-124.750	-119.853	4.071	-122.800	-8191	255	
12374.180	1	1	0	0	0.32785	0.13745	0.26177	0.22133	0.051255	0.24606	0.29171	0.34167	0.20722	0.25729	0.28692	0.26506	0.1134	0.039803	0.050974	0.13761	-4.3	-4.0771	-4.6312	-4.5312	-4.1146	-4.7604	-4.4854	-4.4917	-4.6458	-3.9917	-4.8562	-4.5271	-3.9896	-4.7896	-4.5396	-4.4958	-15.231	-52.641	203.984	205.124	-127.291	-118.616	159.644	151.277	104.291	-54.613	157.110	173.774	122.677	83.370	135.788	21.539	0.0008716	0.00063846	0.00023603	813.25	6.1498e-06	9.209e-06	822.13	284.45	1.3735e-06	6.6306e-06	335.21	148.25	92.739	38.347	1.354e-06	73.024	0.0013206	0.0013482	0.00038852	774.39	1.4811e-05	1.5201e-05	789.98	272.17	1.4897e-05	1.5049e-05	323.33	142.44	91.316	37.375	1.4362e-05	70.487	141.460	-19.646	-120.551	-132.417	-72.289	22.425	-133.697	-128.310	166.871	-95.057	-129.884	-125.850	-124.738	-119.969	207.900	-122.233	-8191	255	
12374.301	1	1	0	0	0.19208	0.11415	0.16301	0.29018	0.13279	0.16673	0.13238	0.35549	0.19157	0.11345	0.10218	0.18982	0.11159	0.090922	0.27623	0.25673	-4.3958	-3.9542	-4.7396	-4.6833	-4.1	-4.7708	-4.2917	-4.3979	-4.7125	-4.1208	-4.6	-4.5604	-4.125	-4.8667	-4.3333	-4.4521	70.426	-6.204	183.571	196.726	-64.762	8.800	142.609	167.239	-49.065	-64.508	-34.470	137.165	104.938	208.453	142.771	86.944	0.00092943	0.00028591	0.00026401	812.32	9.556e-06	9.8658e-06	831.22	284.73	1.2346e-05	4.0073e-07	333.44	146.15	91.511	37.227	2.7426e-06	71.269	0.0012676	0.0013032	0.00037217	770.95	1.4381e-05	1.4922e-05	793.05	271.54	1.5185e-05	1.5597e-05	324.4	141.35	90.668	36.437	1.618e-05	68.946	142.950	155.969	-104.978	-132.081	17.013	2.433	-133.576	-128.138	-53.342	90.885	-129.825	-126.122	-124.333	-119.553	-126.881	-122.470	-8191	255	
12374.397	1	1	0	0	0.10303	0.070479	0.068384	0.24604	0.14304	0.13839	0.16408	0.06676	0.21647	0.16248	0.13847	0.084898	0.3023	0.14831	0.21271	0.34047	-4.6375	-4.2438	-4.4083	-4.8458	-4.0104	-4.6917	-4.4458	-4.2042	-4.7	-4.2208	-4.5687	-4.7667	-4.1896	-4.6771	-4.3542	-4.3083	120.203	202.424	95.376	194.919	-18.873	98.386	122.661	146.081	196.704	126.649	120.419	105.346	24.327	112.942	149.716	132.518	0.00082096	0.00028223	0.00017182	820.32	2.6459e-06	9.5216e-06	834.46	284.6	1.024e-05	1.3972e-05	339.07	148.73	93.006	38.288	9.8725e-06	74.149	0.001448	0.0014921	0.00041793	779.14	1.5666e-05	1.6136e-05	799.35	273.6	1.5503e-05	1.5599e-05	328.43	143.6	92.033	37.447	1.5658e-05	71.54	152.433	-94.011	11.957	-132.307	46.196	12.290	-133.759	-128.196	-26.994	46.148	-129.793	-125.922	-124.605	-119.795	-63.854	-122.227	-8191	255	
12374.493	1	1	0	0	0.16944	0.08213	0.11336	0.22022	0.0729	0.12561	0.11698	0.081813	0.15701	0.16398	0.098129	0.18358	0.10614	0.070865	0.35804	0.13235	-4.4	-4.3708	-4.4604	-4.8542	-4.05	-4.6792	-4.4854	-4.3146	-4.8646	-4.2104	-4.4729	-4.7458	-4.1875	-4.7604	-4.5417	-4.2771	64.743	148.080	51.627	-109.047	-8.782	-35.816	-130.348	-95.219	116.244	1.026	-123.106	180.286	-121.926	1.484	105.402	-132.030	0.00089396	0.00036948	0.00026086	815.94	7.9493e-06	4.4355e-06	838.93	288.84	9.9082e-06	7.7424e-06	342.26	151.45	93.944	39.047	5.7016e-06	74.082	0.0013851	0.0014323	0.00040611	781.19	1.5565e-05	1.6182e-05	805.26	276.85	1.5781e-05	1.575e-05	331.12	145.45	93.306	37.947	1.6004e-05	71.553	144.138	5.026	21.588	-132.402	-28.562	38.304	-133.334	-128.479	203.389	10.599	-129.981	-126.160	-124.352	-119.732	2.241	-122.146	-8191	255	
12374.589	1	1	0	0	0.058392	0.21373	0.033298	0.07675	0.14138	0.19713	0.14544	0.22905	0.073117	0.34791	0.066475	0.17063	0.10486	0.083708	0.18294	0.10254	-4.4208	-4.2937	-4.1604	-4.7771	-4.3313	-4.5021	-4.4896	-4.2646	-4.6375	-4.3812	-4.3625	-4.7833	-4.1708	-4.4812	-4.5229	-4.3271	132.622	76.822	-69.399	-88.450	-15.175	-71.715	137.646	172.231	-49.206	-7.203	21.201	99.677	162.226	-104.296	102.361	76.305	0.00096207	0.00098757	0.0002253	824.84	1.8074e-06	1.0004e-05	838.55	290.38	1.1611e-05	7.9051e-06	336.59	147.77	92.827	37.359	3.6268e-06	70.948	0.0014644	0.0015286	0.00042769	788.51	1.6673e-05	1.7403e-05	803.89	278.68	1.7211e-05	1.7338e-05	328.23	142.67	92.606	36.78	1.6941e-05	68.582	134.564	-33.398	-81.167	-132.526	-76.877	-3.975	-133.783	-128.414	-18.370	132.811	-129.900	-126.249	-124.634	-119.640	161.727	-122.375	-8191	255	
12374.684	1	1	0	0	0.1152	0.25013	0.21396	0.25727	0.16633	0.10347	0.12352	0.10882	0.13704	0.19179	0.21452	0.11314	0.19664	0.15294	0.18573	0.24365	-4.2271	-4.5312	-4.2479	-4.7354	-4.1042	-4.5333	-4.7417	-4.2396	-4.7417	-4.5271	-4.2167	-4.8208	-4.3104	-4.5667	-4.6188	-4.3208	-138.607	164.511	143.262	155.857	67.713	-27.720	75.599	176.412	-112.551	190.942	182.309	-124.340	-93.636	-131.345	-30.374	206.859	0.0011545	0.00058639	0.00011848	823.01	4.6017e-06	4.1847e-06	828.03	288.45	1.0532e-05	5.4779e-06	333.83	144.04	91.398	36.623	6.1063e-06	69.207	0.001483	0.0015492	0.00043172	786.5	1.6571e-05	1.7191e-05	797.02	277.33	1.7253e-05	1.7694e-05	325.49	140.12	91.256	35.97	1.7497e-05	67.221	149.191	201.879	-14.529	-132.220	-95.400	-29.009	-133.748	-128.356	-47.924	123.845	-129.345	-125.739	-124.376	-119.557	126.472	-122.171	-8191	255	
12374.782	1	1	0	0	0.062613	0.1471	0.030813	0.14671	0.12639	0.12225	0.12989	0.19653	0.09804	0.13491	0.10628	0.090504	0.12877	0.20585	0.11214	0.3568	-4.1083	-4.55	-4.2521	-5.0125	-4.3604	-4.3396	-4.8271	-4.2854	-4.4604	-4.5875	-4.325	-4.8521	-4.4958	-4.5417	-4.7458	-4.1583	213.533	-0.388	10.289	124.130	159.489	-125.108	75.374	-69.135	165.094	27.770	185.374	-88.449	162.129	167.236	100.474	147.046	0.00071189	0.00028064	0.0002868	815.15	7.9049e-06	8.9312e-06	825.33	286.39	2.4678e-06	1.6247e-05	332.24	144.59	90.083	36.689	1.3504e-05	69.52	0.0015384	0.0016042	0.00044126	783.16	1.7291e-05	1.7583e-05	795.2	274.4	1.725e-05	1.7254e-05	324.43	140.11	90.499	35.925	1.7127e-05	67.581	153.198	63.535	-62.854	-132.371	-107.889	46.872	-133.703	-128.146	125.575	29.191	-129.707	-126.139	-124.590	-119.624	-49.656	-122.081	-8191	255	
12374.901	1	1	0	0	0.087828	0.25942	0.087813	0.20921	0.11924	0.11345	0.13186	0.10333	0.1039	0.012734	0.099895	0.26806	0.15905	0.22911	0.10915	0.17248	-4.2354	-4.6021	-4.2083	-4.7958	-4.4104	-4.3458	-4.8854	-4.2354	-4.5917	-4.5958	-4.3458	-4.7771	-4.3313	-4.3187	-4.7188	-4.3917	-107.967	-35.192	-87.630	-114.706	131.388	37.907	90.761	93.639	-84.112	-71.378	-51.936	167.032	-136.915	132.403	210.981	95.618	0.00068936	0.0010699	0.00030549	817.7	3.1803e-06	8.497e-06	830.24	285.83	2.4479e-07	7.2029e-06	336.19	146.18	91.771	37.296	6.4232e-06	71.479	0.0015152	0.0015445	0.00043372	782.91	1.6616e-05	1.7131e-05	797.47	273.87	1.6783e-05	1.6693e-05	325.67	141.26	91.052	36.564	1.6467e-05	69.264	139.437	-136.215	-14.417	-132.641	176.436	147.597	-133.755	-128.123	-79.013	52.146	-129.800	-125.950	-124.556	-119.528	-13.792	-122.238	-8191	255	
12374.997	1	1	0	0	0.1708	0.16642	0.28062	0.070296	0.25186	0.13602	0.33099	0.10562	0.13597	0.10783	0.27897	0.25712	0.13536	0.18225	0.17727	0.10978	-4.3125	-4.5792	-4.1646	-4.7792	-4.3583	-4.2708	-4.9	-4.3208	-4.55	-4.7688	-4.2833	-4.6937	-4.525	-4.1521	-4.7958	-4.4833	204.018	-44.376	-77.763	160.241	-102.690	-42.600	116.148	157.253	0.822	-18.222	176.585	116.326	-113.742	183.524	98.476	200.335	0.00074611	0.00012832	0.00033342	820.06	2.181e-06	7.7825e-06	829.47	289.03	5.8417e-06	5.6811e-06	336.1	148.86	93.754	38.604	7.3828e-06	73.772	0.0014788	0.0015286	0.00042492	786.12	1.6598e-05	1.6766e-05	798.22	277.26	1.6371e-05	1.6259e-05	326.9	143.77	92.723	37.597	1.5236e-05	70.963	148.106	-28.224	-7.459	-132.553	175.316	137.694	-133.834	-128.172	-36.310	116.334	-129.804	-126.044	-124.705	-119.584	-25.101	-122.502	-8191	255	
12375.093	1	1	0	0	0.078075	0.082321	0.080335	0.054251	0.092842	0.24348	0.283	0.226	0.21464	0.16364	0.12522	0.010012	0.072693	0.10092	0.16018	0.13019	-4.0646	-4.6333	-4.2521	-4.5854	-4.5042	-4.2229	-4.8542	-4.3583	-4.2562	-4.6333	-4.1687	-4.6792	-4.5938	-4.1333	-4.6875	-4.6708	4.878	101.667	63.901	207.820	-125.461	202.778	196.687	149.083	-25.501	111.875	142.913	-119.060	170.413	137.241	-13.077	119.879	0.00084658	0.000216	0.00015601	823.42	2.807e-06	2.1315e-06	832.58	290.38	1.6074e-05	1.2327e-05	342.43	150.99	95.872	40.032	5.2535e-06	75.008	0.0013391	0.0013573	0.00037988	785.65	1.4704e-05	1.4888e-05	799.33	277.33	1.4623e-05	1.4653e-05	329.17	145.57	93.965	38.864	1.4483e-05	72.181	142.786	118.249	-57.778	-132.301	-73.215	1.082	-133.471	-128.154	-62.590	53.723	-130.016	-126.010	-124.265	-119.852	-66.823	-122.511	-8191	255	
12375.189	1	1	0	0	0.13523	0.21611	0.0052176	0.13524	0.2416	0.20797	0.14827	0.2205	0.1493	0.065027	0.16079	0.10304	0.11837	0.18183	0.16976	0.043601	-4.0583	-4.6875	-4.2146	-4.5875	-4.6	-4.1562	-4.7396	-4.4542	-4.2958	-4.825	-4.4396	-4.6604	-4.8583	-4.1521	-4.7042	-4.5333	35.018	-54.564	-87.067	101.172	155.642	-140.439	113.570	160.562	-142.820	213.533	101.907	3.950	-66.745	-135.466	132.773	89.882	0.00089537	0.00080906	0.00011195	821.84	2.5737e-06	6.7232e-06	829.62	288.4	1.1379e-05	5.6224e-06	334.84	148.48	93.176	38.666	3.6521e-06	71.798	0.0012804	0.0013046	0.00036837	781.81	1.4262e-05	1.4734e-05	793.69	276.6	1.5016e-05	1.5261e-05	325.41	143.06	92.596	37.465	1.5869e-05	69.226	139.942	-38.472	-78.680	-132.541	-55.018	60.141	-133.635	-128.409	-93.482	70.493	-130.197	-126.094	-124.445	-119.540	32.492	-122.285	-8191	255	
12375.285	1	1	0	0	0.30193	0.08686	0.14486	0.13508	0.082693	0.14828	0.12823	0.094162	0.16095	0.033589	0.08849	0.14693	0.15408	0.13714	0.082785	0.11459	-3.8438	-4.8146	-4.4083	-4.4854	-4.6167	-4.1312	-4.7646	-4.5062	-4.0583	-4.7104	-4.3792	-4.3938	-4.7125	-4.0938	-4.5979	-4.6708	-111.578	81.780	131.692	182.129	-38.210	166.687	179.763	141.254	29.435	-12.033	-23.453	170.228	165.957	152.053	17.944	76.276	0.0010046	0.00044976	3.6989e-05	818.78	1.069e-05	9.1101e-06	823.77	287.62	5.9597e-06	5.694e-06	331.92	145.27	92.255	37.638	7.5353e-06	71.33	0.0014019	0.0014609	0.00040859	783.05	1.5865e-05	1.6055e-05	790.88	275.17	1.6029e-05	1.6177e-05	322.27	140.88	91.456	36.745	1.6124e-05	68.948	141.421	-91.545	-115.765	-132.300	-2.199	-124.498	-133.721	-128.169	-17.996	41.159	-129.830	-125.741	-124.503	-119.834	-118.350	-122.298	-8191	255	
12375.381	1	1	0	0	0.13101	0.24956	0.15942	0.30503	0.17279	0.34779	0.023849	0.21553	0.088633	0.12327	0.020163	0.17193	0.19033	0.086796	0.23797	0.1396	-3.7417	-4.8562	-4.2229	-4.3875	-4.8479	-4.1729	-4.6479	-4.8354	-4.1417	-4.8208	-4.4646	-4.4854	-4.7917	-4.3646	-4.5708	-4.8792	-85.795	-49.203	183.766	211.958	163.243	87.252	104.605	161.952	-16.694	44.836	88.241	163.923	-113.394	-34.664	160.848	-11.761	0.00088353	0.00077467	0.00027745	818.02	3.2937e-06	1.3182e-05	819.77	284.77	8.3745e-06	8.7315e-06	335.02	148.03	92.675	38.768	4.2781e-06	74.322	0.001386	0.0014582	0.00040484	780.29	1.5111e-05	1.5158e-05	787.75	272.94	1.4436e-05	1.4689e-05	323.5	142.4	91.599	37.626	1.4349e-05	71.191	151.929	32.810	6.932	-132.327	-12.135	-26.146	-133.595	-128.195	-124.421	5.304	-129.468	-125.858	-124.135	-119.764	-60.156	-122.430	-8191	255	
12375.477	1	1	0	0	0.21745	0.041596	0.12397	0.17842	0.26415	0.31516	0.24351	0.28437	0.13302	0.10124	0.21706	0.056254	0.24856	0.026741	0.14293	0.12102	-3.7333	-4.7896	-4.3187	-4.3792	-4.6458	-4.2521	-4.5646	-4.6208	-4.0229	-4.6083	-4.475	-4.2104	-4.9021	-4.425	-4.4292	-4.8521	105.130	89.283	126.015	62.657	5.380	163.909	-128.275	138.379	31.205	112.109	-25.694	181.344	-68.899	-62.041	160.061	110.599	0.00091727	0.00041455	0.00014086	814.47	8.4616e-06	1.3822e-05	829.84	288.02	5.6708e-06	5.0916e-06	336.49	149.47	93.844	39.451	3.4069e-06	75.606	0.00128	0.0013364	0.00036864	776.04	1.4269e-05	1.4609e-05	793.4	274.76	1.4237e-05	1.4566e-05	325.68	144.32	92.707	38.243	1.4096e-05	72.338	144.794	-101.483	-35.386	-132.260	32.115	-2.560	-133.638	-128.269	-20.801	58.443	-129.767	-126.035	-124.534	-119.729	-52.804	-122.477	-8191	255	
12375.598	1	1	0	0	0.047354	0.14886	0.2493	0.21534	0.0077631	0.011837	0.11514	0.053625	0.11115	0.18866	0.086522	0.18486	0.079353	0.27097	0.11914	0.10763	-3.8563	-4.6542	-4.3896	-4.15	-4.7312	-4.2958	-4.5042	-4.8458	-4.0792	-4.7521	-4.6625	-4.4187	-4.7854	-4.4417	-4.3292	-4.9875	190.167	-108.881	-83.058	-130.885	-84.489	-49.373	-125.309	145.502	-56.566	18.351	-109.472	152.806	122.330	168.381	211.713	195.275	0.00086036	0.00072627	0.00041792	816.69	6.3379e-06	6.0093e-06	833.2	289.89	9.446e-06	6.3425e-06	338.69	148.51	94.027	38.484	1.3681e-05	72.148	0.0012441	0.0013098	0.00036279	778.53	1.4246e-05	1.4653e-05	799	276.94	1.467e-05	1.5095e-05	327.34	143.66	93.03	37.467	1.5233e-05	69.737	144.697	-87.979	-60.315	-132.371	-13.256	17.005	-133.707	-128.129	-50.933	25.215	-129.552	-125.988	-124.212	-119.872	-45.519	-122.296	-8191	255	
12375.693	1	1	0	0	0.15568	0.16421	0.075236	0.15544	0.1514	0.15492	0.35813	0.23147	0.021834	0.23802	0.15717	0.24702	0.033122	0.056745	0.16443	0.14096	-3.9437	-4.5833	-4.4542	-4.2229	-4.7667	-4.5208	-4.6813	-4.7625	-4.1417	-4.6229	-4.6771	-4.2021	-4.7396	-4.2896	-4.425	-4.9354	-86.782	213.066	22.968	89.524	131.691	13.935	143.149	142.816	67.298	77.819	-90.955	209.670	-5.157	158.112	47.996	-114.162	0.0010256	0.00095648	0.00010662	820.21	2.8449e-06	2.9217e-06	831.2	290.02	1.2376e-05	1.0437e-05	338.28	148.78	93.351	38.55	1.7513e-05	72.546	0.0013241	0.0013741	0.00037897	783.22	1.4489e-05	1.4564e-05	791.92	277.02	1.4265e-05	1.4492e-05	324.56	142.52	92.306	37.426	1.4248e-05	69.736	141.349	-17.219	24.924	-132.386	209.923	170.324	-133.695	-128.283	-110.501	-8.856	-129.796	-126.208	-124.397	-119.435	-15.153	-122.388	-8191	255	
12375.764	1	1	0	0	0.039175	0.032423	0.17202	0.06284	0.17517	0.10637	0.21415	0.1987	0.24788	0.10572	0.047461	0.046417	0.085887	0.086108	0.2636	0.12654	-3.9521	-4.5938	-4.8542	-4.2521	-4.65	-4.4812	-4.2167	-4.8646	-4.2542	-4.4021	-4.8104	-4.4563	-4.7417	-4.7312	-4.2354	-4.95	31.370	-20.001	40.758	57.242	-60.189	127.123	159.006	87.109	-1.234	25.979	196.997	180.299	188.384	-87.309	-1.092	147.481	0.00094194	0.00015732	0.00019234	817.08	1.4701e-05	9.6149e-06	821.92	287.65	5.363e-06	1.0202e-05	336.22	148.22	92.722	38.154	9.9772e-06	72.013	0.00126	0.0013196	0.0003603	777.49	1.3938e-05	1.3913e-05	786.62	274.48	1.3747e-05	1.4098e-05	322.9	141.6	91.604	37.11	1.4012e-05	69.182	138.753	-143.272	-28.631	-132.342	16.057	31.306	-133.662	-128.126	27.598	-1.072	-129.917	-126.027	-124.762	-119.713	-5.431	-122.225	-8191	255	
12375.862	1	1	0	0	0.22723	0.14196	0.18104	0.1087	0.1378	0.31698	0.036044	0.13994	0.14164	0.25992	0.12706	0.30615	0.12852	0.045504	0.090826	0.11476	-4.1417	-4.4437	-4.7979	-4.2917	-4.7104	-4.5042	-4.4	-4.8938	-4.3521	-4.3583	-4.7375	-4.0958	-4.5042	-4.6354	-4.1208	-4.8146	-1.055	196.769	-79.203	200.399	-83.101	101.337	-23.348	111.715	-60.260	-119.458	92.532	170.871	28.488	17.701	141.478	150.054	0.0010323	0.00033487	0.00024844	821.17	8.8402e-06	4.4539e-06	823.38	286.69	6.0419e-06	7.4266e-06	331.77	145.63	92.37	37.729	3.3482e-06	71.526	0.0012678	0.0013171	0.00036909	778.82	1.4473e-05	1.4538e-05	785.8	273.12	1.4329e-05	1.4387e-05	319.8	140.07	90.813	36.621	1.3831e-05	68.896	140.456	-19.645	-35.383	-132.573	-94.956	-107.207	-133.738	-128.294	-49.356	-41.635	-129.796	-125.970	-124.452	-119.569	-24.801	-122.239	-8191	255	
12375.981	1	1	0	0	0.038933	0.17465	0.19462	0.18042	0.23354	0.063619	0.011212	0.12201	0.090529	0.16485	0.2665	0.016735	0.076314	0.056067	0.21585	0.087122	-4.1125	-4.4625	-4.7146	-4.1729	-4.4062	-4.7562	-4.3	-4.8562	-4.35	-4.3375	-5.0729	-4.3667	-4.55	-4.7083	-4.0729	-4.9062	155.457	-104.841	60.179	-90.741	-4.837	-24.872	-50.967	170.355	-25.929	-85.072	202.043	89.056	162.905	5.599	77.848	-124.242	0.00091865	0.00041628	7.6237e-05	817.33	7.4018e-06	7.7904e-06	822.49	286.89	7.6476e-06	7.4307e-06	334.85	146.43	91.854	38.016	1.4915e-05	72.117	0.0012397	0.001263	0.00035211	776.53	1.3856e-05	1.3934e-05	787.38	273.34	1.3829e-05	1.4329e-05	322.23	141.09	91.127	36.969	1.413e-05	69.551	143.937	-39.777	127.717	-132.423	88.027	-6.325	-133.852	-127.826	-60.453	22.208	-129.740	-126.195	-124.306	-119.632	-69.696	-122.309	-8191	255	
12376.077	1	1	0	0	0.31637	0.17255	0.20623	0.13295	0.4064	0.14611	0.17432	0.28795	0.092268	0.19697	0.060974	0.25063	0.063507	0.051638	0.16016	0.20018	-4.2229	-4.2396	-4.6479	-4.4083	-4.425	-4.675	-4.3438	-4.7188	-4.5146	-4.2521	-4.8604	-4.325	-4.4125	-4.7	-4.1792	-4.8667	-93.931	-5.523	111.870	-125.222	-105.437	187.671	153.024	211.185	26.747	139.970	166.029	103.475	189.221	111.758	-128.833	137.605	0.00082416	0.00075544	0.00041423	819.83	1.2579e-05	1.5841e-05	827.11	287.41	5.4482e-06	8.5111e-06	336.75	148.8	94.066	38.769	7.8599e-06	72.877	0.0012706	0.0013222	0.00036492	778.92	1.434e-05	1.4624e-05	793.22	274.75	1.443e-05	1.4411e-05	324.75	143.13	92.43	37.688	1.4317e-05	70.521	141.434	-26.409	-17.230	-132.409	22.058	-11.479	-133.483	-128.359	-80.759	-10.801	-129.755	-125.916	-124.689	-119.757	-33.419	-122.324	-8191	255	
12376.173	1	1	0	0	0.12408	0.13541	0.1042	0.16459	0.05444	0.031883	0.19519	0.18136	0.20043	0.11919	0.19539	0.062153	0.13159	0.16404	0.18541	0.16814	-4.2417	-4.2979	-4.6438	-4.4417	-4.3667	-4.7375	-4.4313	-4.6104	-4.55	-4.2646	-4.7812	-4.575	-4.1667	-4.8438	-4.3562	-4.5375	113.864	147.042	-17.532	83.638	132.717	-9.445	4.617	109.072	-59.094	-128.557	149.983	204.769	187.962	190.720	24.338	136.253	0.0009614	0.00016317	0.00010163	817.36	1.9958e-06	2.2949e-06	831.38	289.78	5.3459e-06	7.4668e-06	335.91	148.62	93.851	38.903	3.114e-06	73.282	0.0012707	0.0013121	0.00036891	778.91	1.4137e-05	1.4272e-05	793.79	275.2	1.4251e-05	1.4262e-05	324.47	143.08	92.492	37.87	1.4217e-05	70.483	145.714	2.370	-43.952	-132.423	-27.568	-59.065	-133.517	-128.174	-73.796	33.262	-129.795	-125.784	-124.714	-119.422	56.051	-122.257	-8191	255	
12376.269	1	1	0	0	0.21862	0.29603	0.2639	0.23676	0.18592	0.15629	0.25581	0.091432	0.29058	0.073341	0.10463	0.11194	0.16388	0.1784	0.078861	0.21777	-4.3313	-4.1062	-4.775	-4.5687	-4.2667	-4.7833	-4.3625	-4.4938	-4.525	-4.0729	-4.6667	-4.3625	-4.2521	-4.8	-4.1771	-4.6979	-129.332	160.131	-8.747	127.254	150.497	156.674	117.929	40.686	-7.117	-67.758	178.272	179.605	-68.750	-139.587	5.510	202.463	0.00093972	0.00042943	0.00020454	811.17	6.4989e-06	8.6348e-06	824.82	285.69	7.8285e-06	1.269e-05	335.42	147.86	93.073	38.897	3.5155e-06	73.297	0.0012825	0.001294	0.00036286	773.24	1.3943e-05	1.4277e-05	787.6	272.79	1.3769e-05	1.384e-05	322.84	142.42	91.587	37.785	1.3585e-05	70.471	151.631	-59.975	-71.498	-132.290	-56.484	25.822	-133.313	-128.320	-44.327	40.015	-129.994	-126.052	-124.278	-119.629	99.041	-122.361	-8191	255	
12376.390	1	1	0	0	0.14978	0.10788	0.19038	0.0435	0.32358	0.22897	0.15739	0.27433	0.1618	0.050243	0.41026	0.060342	0.20555	0.334	0.14724	0.1457	-4.4833	-4.1167	-4.5896	-4.5437	-4.2083	-4.8292	-4.625	-4.5458	-4.6458	-4.1042	-4.6021	-4.7021	-4.1917	-4.7438	-4.3229	-4.5771	-3.669	55.693	-101.472	57.248	69.302	157.518	93.217	153.511	31.516	135.212	173.750	57.117	-68.260	166.896	121.233	208.477	0.00091442	0.00061021	0.00031993	809.66	6.821e-06	2.2667e-06	818.98	283.21	4.0558e-06	3.0737e-06	335.03	151.23	93.789	40.341	1.2142e-05	75.954	0.0011944	0.0012078	0.00034146	767.21	1.3199e-05	1.3462e-05	785.77	269.93	1.3002e-05	1.3072e-05	322.21	144.16	91.686	38.924	1.2935e-05	72.701	150.405	-44.510	-63.097	-132.356	10.686	140.260	-133.675	-127.885	-43.946	-40.295	-129.930	-125.647	-124.063	-119.826	-72.882	-122.264	-8191	255	
12376.462	1	1	0	0	0.26571	0.043077	0.10074	0.22835	0.047478	0.028328	0.16281	0.29485	0.020238	0.15142	0.057142	0.067569	0.23271	0.16676	0.26004	0.15434	-4.5958	-4.25	-4.5625	-4.5958	-4.2708	-4.7292	-4.5667	-4.4854	-4.6937	-4.3354	-4.5938	-4.7083	-4.225	-4.7521	-4.4104	-4.3083	157.600	68.795	-89.282	206.013	51.198	-22.131	121.802	131.234	50.128	-14.199	208.059	-81.864	99.685	51.979	150.468	-124.083	0.00098606	0.00029617	2.4945e-05	793.88	7.9866e-06	2.6615e-06	824.57	282.46	6.772e-06	3.3402e-06	334.48	150.7	93.035	40.096	4.885e-06	75.061	0.0011507	0.0011665	0.00032978	756.2	1.2714e-05	1.327e-05	786.84	268.14	1.3091e-05	1.3399e-05	322.91	144.48	91.65	38.833	1.3595e-05	72.438	148.396	-34.794	-16.548	-132.588	-8.715	152.066	-133.606	-128.310	-69.990	204.654	-129.658	-126.130	-124.277	-119.671	-47.110	-122.582	-8191	255	
12376.582	1	1	0	0	0.12448	0.057633	0.1277	0.1845	0.094596	0.025272	0.32608	0.26263	0.1651	0.16144	0.05343	0.23559	0.10457	0.076086	0.022535	0.16083	-4.4938	-4.1104	-4.4854	-4.8104	-4.1729	-4.7521	-4.5708	-4.3042	-4.8792	-4.3146	-4.6458	-4.6917	-4.1937	-4.7625	-4.4583	-4.3562	185.343	0.464	173.474	120.207	115.212	162.660	-122.689	-136.779	13.974	161.673	52.468	143.445	-52.818	-127.023	195.863	73.684	0.0010387	0.00091852	9.5085e-05	803.74	4.9134e-06	5.8121e-06	824.28	281.45	6.0697e-06	4.2787e-06	335.85	151.08	93.692	40.097	4.761e-06	75.719	0.0012227	0.0012553	0.00035446	763.28	1.3453e-05	1.4244e-05	789.82	269.6	1.3952e-05	1.4222e-05	324.63	145.2	92.325	38.891	1.4549e-05	72.824	149.364	34.506	-25.464	-132.271	-13.097	-34.926	-133.613	-128.256	-41.400	-79.581	-129.908	-125.989	-124.918	-119.675	-9.950	-122.505	-8191	255	
12376.678	1	1	0	0	0.1714	0.074147	0.081457	0.1134	0.13942	0.10486	0.30799	0.057213	0.099998	0.070573	0.22594	0.19678	0.12185	0.07933	0.30017	0.17514	-4.3646	-4.3688	-4.4208	-4.8583	-4.0854	-4.6667	-4.5979	-4.275	-4.7354	-4.5625	-4.3187	-4.8833	-4.2375	-4.5375	-4.6542	-4.3396	-65.770	-106.441	-133.582	77.087	42.959	163.498	180.772	-12.269	199.610	48.462	139.284	109.510	101.137	169.868	-91.323	102.896	0.00092567	0.00042011	0.00022909	804.65	4.1633e-06	1.1122e-05	819.56	284.22	4.4525e-06	3.3302e-06	337.29	149.77	93.674	39.801	1.9157e-06	74.953	0.001298	0.0013266	0.00037061	766.19	1.4224e-05	1.4608e-05	787.82	271.07	1.453e-05	1.4609e-05	324.68	144.11	92.033	38.682	1.4584e-05	72.035	139.457	-40.995	-66.234	-132.440	-59.136	-8.179	-133.815	-128.064	-79.013	-128.393	-129.620	-126.059	-124.650	-119.779	212.813	-122.457	-8191	255	
12376.773	1	1	0	0	0.20666	0.12798	0.15835	0.097217	0.15985	0.12838	0.27063	0.023727	0.091099	0.1107	0.22776	0.099843	0.22311	0.16687	0.28457	0.01716	-4.3479	-4.3438	-4.2958	-4.9083	-4.2479	-4.5521	-4.7104	-4.1729	-4.8583	-4.4125	-4.2833	-4.9042	-4.2875	-4.5854	-4.5625	-4.1854	-105.934	-67.959	-67.045	101.107	-101.039	-98.826	185.608	-44.851	-28.248	-95.941	187.021	-115.810	-76.312	-128.423	106.895	149.926	0.0010661	0.0010503	0.00027891	800.35	1.3664e-05	1.1795e-05	816.53	279.33	5.5236e-06	4.7068e-06	330.3	149.82	93.244	40.343	6.013e-06	75.585	0.0012948	0.001321	0.00036575	762.48	1.3927e-05	1.4353e-05	783.07	267.66	1.415e-05	1.4129e-05	320.68	143.78	91.655	38.909	1.3718e-05	72.847	142.587	-36.062	-59.703	-132.231	-34.110	-19.961	-133.706	-128.311	39.086	-33.349	-129.642	-126.216	-124.533	-119.643	-34.767	-122.606	-8191	255	
12376.869	1	1	0	0	0.26653	0.14614	0.17483	0.33954	0.15457	0.077779	0.10563	0.28264	0.28346	0.065113	0.16185	0.12484	0.13927	0.25868	0.033771	0.11748	-4.4042	-4.4625	-4.2042	-4.8208	-4.0813	-4.4729	-4.8729	-4.2625	-4.6875	-4.3958	-4.3458	-4.8104	-4.2438	-4.475	-4.7271	-4.3771	188.086	55.611	170.042	132.652	-145.852	-74.271	103.258	191.369	190.917	87.720	115.356	100.731	92.478	-105.840	-64.930	81.024	0.0010102	0.0002763	0.0002196	790.7	1.6841e-06	7.4146e-06	815.71	281.6	2.904e-06	2.7427e-06	330.88	150.1	93.092	39.813	1.028e-05	74.863	0.0012396	0.0012629	0.00035134	754.03	1.3775e-05	1.3938e-05	780.57	266.91	1.3866e-05	1.4196e-05	320.2	143.85	91.082	38.487	1.3836e-05	72.205	139.619	-143.010	-10.943	-132.402	-36.366	-14.744	-133.356	-128.309	-10.603	45.461	-129.844	-126.010	-123.972	-119.927	54.830	-122.649	-8191	255	
12376.990	1	1	0	0	0.2783	0.20531	0.18675	0.22661	0.13346	0.2702	0.090151	0.27678	0.15899	0.19996	0.058751	0.11145	0.12707	0.10867	0.11243	0.069554	-4.2104	-4.4667	-4.1583	-4.8333	-4.3375	-4.2812	-4.925	-4.2333	-4.5542	-4.6708	-4.1542	-4.9667	-4.6646	-4.4583	-4.7271	-4.1667	-137.322	-18.057	194.583	185.343	54.269	135.345	127.199	141.064	164.858	-120.882	171.633	-124.570	164.448	-119.693	177.345	-26.222	0.00098195	0.00019737	0.00016633	793.95	5.7731e-06	1.1421e-05	817.64	276.81	4.5159e-06	1.1893e-05	333.05	148.43	92.579	39.747	9.8754e-06	75.399	0.0012589	0.0012701	0.00036079	754.86	1.3907e-05	1.4259e-05	777.89	265.16	1.3993e-05	1.4053e-05	319.57	143	90.986	38.417	1.4032e-05	72.792	149.598	189.768	-136.580	-132.476	212.709	-34.732	-133.788	-128.030	-27.110	6.978	-129.808	-126.386	-124.396	-119.789	-108.364	-122.347	-8191	255	
12377.061	1	1	0	0	0.28544	0.12584	0.10156	0.043503	0.20757	0.31599	0.17634	0.26253	0.059106	0.11597	0.49511	0.37441	0.20361	0.15233	0.1806	0.12576	-4.2604	-4.6396	-4.1792	-4.8479	-4.4313	-4.2833	-4.8688	-4.4	-4.4875	-4.525	-4.3458	-4.8167	-4.5563	-4.3333	-4.8208	-4.4792	-0.804	-19.894	72.728	-100.415	-1.404	-59.507	202.434	166.046	189.007	-124.421	149.765	-123.327	-90.346	176.500	-63.479	126.645	0.001072	0.000178	0.0001025	793.51	1.2865e-05	8.2588e-06	815.44	280.75	1.0829e-05	4.6544e-06	331.5	150.59	92.902	39.83	3.8387e-06	75.959	0.0012784	0.0013069	0.00036562	755.67	1.4085e-05	1.4439e-05	782.06	267.06	1.4625e-05	1.4544e-05	320.92	144.27	91.687	38.483	1.4665e-05	73.103	151.509	140.513	-1.246	-132.282	-14.265	-4.091	-133.487	-128.387	-7.423	75.487	-129.661	-126.013	-124.307	-119.956	-29.234	-122.744	-8191	255	
12377.157	1	1	0	0	0.075137	0.16256	0.24241	0.28228	0.12124	0.14694	0.23014	0.090588	0.071091	0.18418	0.21777	0.20739	0.28102	0.15428	0.14328	0.14128	-4.25	-4.7333	-4.1125	-4.7792	-4.5188	-4.3187	-5.0813	-4.4271	-4.4187	-4.775	-4.2958	-4.7583	-4.5917	-4.2188	-4.7375	-4.5396	-79.770	42.430	-108.286	165.634	-74.222	83.587	141.018	-138.043	-86.641	-57.795	195.611	-128.892	170.274	-132.778	-133.684	161.333	0.0010441	0.00049503	0.00013142	804.02	9.9563e-06	9.5186e-06	818.51	283.02	8.7349e-06	7.7549e-06	336.17	152.13	94.698	40.447	4.8622e-06	77.136	0.0012967	0.001347	0.00037511	764.61	1.4505e-05	1.4667e-05	787.03	270.83	1.4544e-05	1.4756e-05	325.56	146.59	93.219	39.186	1.4181e-05	74.316	146.772	134.275	134.725	-132.581	-8.879	46.725	-133.541	-128.026	-25.109	20.283	-129.696	-125.955	-124.665	-120.116	-18.196	-122.844	-8191	255	
12377.278	1	1	0	0	0.17122	0.068453	0.11961	0.3856	0.21222	0.061623	0.30791	0.14985	0.17072	0.12958	0.3246	0.080554	0.15908	0.11688	0.098224	0.16137	-4.1167	-4.8604	-4.2646	-4.6854	-4.6687	-4.2104	-4.8812	-4.5062	-4.3063	-4.8792	-4.2271	-4.6146	-4.6667	-4.2625	-4.7792	-4.5167	172.510	-46.922	-76.953	-141.473	16.743	118.445	134.960	169.977	170.074	-114.179	159.350	128.863	-98.042	72.211	-50.949	139.990	0.00086019	0.00046955	0.00016302	801.53	7.1157e-06	8.5823e-06	825.05	283.36	3.8951e-06	1.1937e-05	335.85	152.07	94.502	40.319	2.5331e-06	76.406	0.0012646	0.0012634	0.0003547	762.07	1.3506e-05	1.3749e-05	786.33	270.75	1.3586e-05	1.3833e-05	324.04	145.58	92.616	38.996	1.3962e-05	73.311	148.037	-59.814	12.838	-132.339	-17.028	22.721	-133.501	-128.218	-65.523	3.745	-129.595	-125.867	-124.586	-119.937	-84.698	-122.767	-8191	255	
12377.374	1	1	0	0	0.25913	0.32035	0.16952	0.32024	0.10594	0.1042	0.096392	0.2132	0.13002	0.21388	0.14851	0.18177	0.13834	0.28211	0.092384	0.14052	-3.8917	-4.7667	-4.4062	-4.7042	-4.5917	-3.9437	-4.9563	-4.5542	-4.3021	-4.8271	-4.4563	-4.6604	-4.8042	-4.1687	-4.7083	-4.6125	64.317	-19.943	-83.405	-142.656	-55.042	-34.637	158.322	161.858	-141.099	127.026	164.839	-107.255	27.186	-117.946	-100.895	185.979	0.00097156	0.00048141	6.0441e-05	794.06	1.0248e-05	6.6735e-06	820.77	281.69	3.4581e-06	3.0664e-06	337.22	149.82	93.993	39.957	9.9491e-06	75.647	0.0012236	0.0012765	0.00035432	758.48	1.3429e-05	1.3693e-05	784.03	269.35	1.3568e-05	1.3948e-05	325.03	144.78	91.879	38.608	1.3673e-05	72.85	142.991	-11.968	-28.733	-132.793	-14.234	-84.047	-133.635	-128.374	83.955	-12.520	-129.708	-125.980	-124.591	-119.627	-137.210	-122.397	-8191	255	
12377.470	1	1	0	0	0.12296	0.034072	0.087855	0.22504	0.053297	0.23136	0.15855	0.19143	0.17246	0.064557	0.30178	0.11299	0.076759	0.28847	0.068953	0.3232	-3.9938	-4.7042	-4.2333	-4.5417	-4.6708	-4.2854	-4.5833	-4.6396	-4.2208	-4.6917	-4.4688	-4.4437	-4.7104	-4.2438	-4.5458	-4.7667	-12.126	-28.888	-82.444	178.629	40.515	161.143	177.775	122.013	-53.369	-69.785	169.178	-58.307	65.191	-51.274	-71.418	139.590	0.00097251	0.00035222	4.1416e-05	799.48	6.1862e-06	1.1766e-05	822.91	282.09	6.2126e-06	4.1661e-06	335.91	149.41	92.351	38.847	7.4813e-06	74.685	0.0012252	0.0012665	0.0003513	760.91	1.3704e-05	1.4143e-05	786.05	269.25	1.3916e-05	1.456e-05	323.43	143.53	91.216	37.752	1.472e-05	71.773	144.624	-113.390	-61.765	-132.380	-13.750	-37.955	-133.562	-128.341	4.663	137.071	-129.937	-125.844	-124.697	-120.010	-95.194	-122.439	-8191	255	
12377.565	1	1	0	0	0.072819	0.096969	0.19982	0.14777	0.18699	0.26171	0.25394	0.065997	0.093637	0.20851	0.25186	0.14543	0.21116	0.052748	0.1678	0.37999	-3.7083	-4.5854	-4.4583	-4.2417	-4.6854	-4.2917	-4.5417	-4.6708	-4.1792	-4.6438	-4.5917	-4.3208	-4.8917	-4.2229	-4.45	-4.7604	-88.846	24.641	-100.580	-109.165	6.155	153.203	135.931	-120.221	195.597	-123.620	146.935	90.508	96.653	72.334	133.142	205.513	0.0010666	0.00073675	5.3741e-05	805.97	4.579e-06	4.6954e-06	824.54	284.68	6.7085e-06	7.339e-06	338.04	151.16	93.811	39.748	9.7911e-06	76	0.0012802	0.0013567	0.00037633	767.65	1.4582e-05	1.477e-05	790.46	272.3	1.4476e-05	1.4735e-05	326.52	144.88	92.548	38.405	1.4501e-05	73.199	147.907	15.255	62.782	-132.395	115.595	-16.451	-133.216	-128.294	43.883	-21.135	-129.704	-125.983	-124.530	-119.637	-68.666	-122.559	-8191	255	
12377.663	1	1	0	0	0.14636	0.058205	0.28466	0.069497	0.21556	0.041716	0.19225	0.062811	0.043808	0.10285	0.17166	0.19785	0.33951	0.056535	0.13712	0.076205	-3.8917	-4.6771	-4.4437	-4.1396	-4.7229	-4.3167	-4.5583	-4.7188	-4.0437	-4.6604	-4.6396	-4.4083	-4.8021	-4.3958	-4.5042	-4.8167	-128.409	175.001	-87.701	-90.255	185.885	129.289	185.321	55.776	89.733	-121.571	107.688	159.054	204.555	166.482	-34.617	213.194	0.0010094	0.00089483	0.00018964	808.22	5.0422e-06	5.5106e-06	827.25	286.49	1.0755e-05	9.9064e-06	342.74	153	94.826	40.43	2.7822e-06	77.344	0.0012649	0.0013004	0.00036289	768.66	1.4171e-05	1.414e-05	792.75	273.75	1.4113e-05	1.4367e-05	329.44	147.1	93.787	39.233	1.4319e-05	74.094	148.490	-56.196	-91.728	-132.275	-27.973	-9.619	-133.551	-127.956	-120.806	-10.046	-129.732	-126.031	-124.682	-119.542	49.277	-122.533	-8191	255	
12377.757	1	1	0	0	0.16402	0.14008	0.083735	0.28065	0.2699	0.36724	0.29057	0.15782	0.1373	0.052913	0.0914	0.134	0.18353	0.12338	0.046949	0.17157	-3.7333	-4.5333	-4.5646	-4.3167	-4.8125	-4.2396	-4.3917	-4.6604	-4.2979	-4.5646	-4.7	-4.3833	-4.8604	-4.4542	-4.1625	-4.8979	-66.179	-45.340	91.241	180.693	19.185	125.510	-124.314	-31.646	89.482	120.772	96.877	80.003	171.533	3.762	158.247	201.679	0.0010478	0.0006855	0.00034811	807.19	1.0362e-05	1.0456e-05	827.29	287.66	3.2058e-06	6.7424e-06	339.1	151.77	95.862	40.215	5.52e-06	75.982	0.0012718	0.0013349	0.00036939	770.35	1.4397e-05	1.4513e-05	792.53	274.66	1.4198e-05	1.4725e-05	327.65	146.06	93.488	38.805	1.4062e-05	72.831	145.355	-93.248	2.299	-132.355	-21.506	83.688	-133.413	-128.244	207.071	-54.181	-129.692	-126.112	-124.635	-119.635	15.836	-122.397	-8191	255	
12377.853	1	1	0	0	0.19793	0.15257	0.27611	0.23897	0.24237	0.041267	0.12887	0.28948	0.15764	0.14494	0.0046213	0.15229	0.091722	0.3011	0.23031	0.14106	-3.825	-4.5604	-4.4938	-4.1458	-4.9542	-4.3771	-4.3083	-4.8479	-4.2667	-4.6188	-4.625	-4.2833	-4.5292	-4.5021	-4.2667	-4.8604	110.860	-85.565	160.119	158.500	109.814	114.647	-20.943	200.869	-30.675	28.310	85.268	182.968	167.729	188.240	-27.792	120.784	0.0011023	0.00078405	9.6919e-05	801.72	1.698e-06	4.7068e-06	821.5	284.42	8.9818e-06	9.0398e-06	339.04	150.07	93.488	39.538	8.3132e-06	74.563	0.0012644	0.0013044	0.00036595	766.55	1.4103e-05	1.4271e-05	786.96	272.36	1.4215e-05	1.4497e-05	325.56	144.47	92.372	38.221	1.4066e-05	71.757	148.331	-9.761	3.317	-132.184	-34.361	194.721	-133.382	-128.060	-48.953	28.489	-129.809	-125.996	-124.325	-119.723	-17.593	-122.150	-8191	255	
12377.949	1	1	0	0	0.17797	0.12067	0.39249	0.079144	0.21631	0.0999	0.06976	0.050255	0.16131	0.073766	0.1591	0.37755	0.16548	0.14829	0.16432	0.22397	-3.7562	-4.3938	-4.7583	-4.3333	-4.6229	-4.4458	-4.2937	-4.7625	-4.3729	-4.5375	-4.9667	-4.2333	-4.5687	-4.6292	-4.1354	-4.9958	-58.070	87.065	195.927	171.619	-54.373	179.595	-53.407	-143.508	-117.257	-131.368	167.989	145.264	146.303	-103.132	-138.532	211.681	0.00091693	0.00031444	0.00037512	800.89	8.2911e-06	7.2345e-06	827.5	283.1	8.1427e-06	1.0708e-05	334.56	149.62	92.95	39.091	2.535e-06	73.844	0.0012463	0.0012979	0.00035808	764.28	1.4313e-05	1.4548e-05	787.88	271.08	1.4532e-05	1.4794e-05	324.41	143.88	91.926	37.822	1.5208e-05	71.297	142.719	209.209	-49.688	-132.287	-7.336	-13.815	-133.573	-128.207	-114.751	36.950	-129.716	-125.728	-124.500	-119.963	-69.047	-122.373	-8191	255	
12378.070	1	1	0	0	0.24997	0.21726	0.21161	0.10332	0.051025	0.10205	0.063466	0.14603	0.15972	0.22763	0.060744	0.15892	0.18931	0.14405	0.25856	0.18995	-4.0479	-4.3479	-4.7	-4.2312	-4.5	-4.5188	-4.2521	-4.8479	-4.2562	-4.3583	-4.8521	-4.3479	-4.4729	-4.7458	-4.0333	-4.8333	50.338	-125.772	29.306	96.478	49.609	-37.561	188.301	155.110	-44.636	-126.423	198.010	129.235	181.273	-144.583	-31.604	194.064	0.0010721	0.00017563	0.00033541	804.18	7.8514e-06	2.0921e-06	820.55	284.06	8.0778e-06	9.824e-06	336.43	148.25	91.997	38.264	2.3501e-06	72.541	0.0013516	0.0014013	0.00038833	768.56	1.511e-05	1.5244e-05	788.16	272.08	1.5164e-05	1.5412e-05	325.38	143.28	91.819	37.203	1.6323e-05	70.129	144.639	-115.433	-96.670	-132.287	-39.955	39.093	-133.608	-128.349	-46.597	-34.084	-129.960	-125.885	-124.700	-119.901	-87.854	-122.318	-8191	255	
12378.164	1	1	0	0	0.022163	0.19722	0.093154	0.22321	0.073408	0.067504	0.12459	0.24012	0.094704	0.13353	0.093816	0.144	0.10462	0.11155	0.16155	0.0090208	-4.0667	-4.3271	-4.7063	-4.3458	-4.4104	-4.6562	-4.0396	-4.6542	-4.5125	-4.2438	-4.8646	-4.2937	-4.4792	-4.8	-4.0354	-4.875	211.313	-83.088	-11.248	-67.272	-70.760	-136.932	142.350	173.980	57.802	-125.223	155.279	-59.128	114.924	180.653	139.609	-83.814	0.0009797	0.00046459	0.00012041	813.74	5.0518e-06	4.0399e-06	821.55	288.18	1.429e-05	9.5613e-06	335.38	147.72	92.836	38.042	5.8406e-06	72.261	0.0014728	0.0015407	0.00043905	779.45	1.7257e-05	1.7534e-05	793.03	276.78	1.706e-05	1.7019e-05	326.83	143.38	92.627	37.131	1.6699e-05	70.357	129.300	-83.311	-123.971	-133.029	52.326	-17.489	-133.620	-127.846	-25.237	68.284	-129.901	-126.168	-124.398	-119.969	-25.778	-122.411	-8191	255	
12378.261	1	1	0	0	0.2501	0.14717	0.11953	0.1011	0.20607	0.22175	0.22521	0.022255	0.21644	0.09219	0.20414	0.17779	0.29447	0.08863	0.14088	0.02759	-4.15	-4.1104	-4.6354	-4.4521	-4.3542	-4.6542	-4.1312	-4.7708	-4.5938	-4.2083	-4.75	-4.55	-4.3667	-4.7479	-4.1687	-4.6625	-43.088	-102.614	-23.692	146.337	108.165	94.692	133.399	144.347	157.470	-64.158	-70.999	161.198	179.174	163.804	83.327	152.778	0.0010751	0.00094872	0.00014645	818.99	2.317e-06	2.0858e-06	828.16	289.32	2.1974e-06	7.9392e-06	336.29	149.72	93.919	38.943	6.1589e-06	73.477	0.0014524	0.0015243	0.00042863	780.98	1.6609e-05	1.6808e-05	795.28	277.62	1.6912e-05	1.6799e-05	327.75	144.93	93.704	38.066	1.5863e-05	71.159	137.291	-42.943	-98.553	-132.145	-24.629	-20.867	-133.666	-128.187	-86.055	25.157	-129.716	-125.948	-124.585	-119.748	-90.714	-122.323	-8191	255	
12378.357	1	1	0	0	0.063012	0.066796	0.014399	0.04787	0.072889	0.19238	0.15924	0.11163	0.089466	0.17343	0.27783	0.27588	0.040238	0.18401	0.19705	0.24516	-4.2042	-3.9833	-4.8375	-4.4	-4.2646	-4.7063	-4.2625	-4.65	-4.6229	-4.1458	-4.8625	-4.3938	-4.25	-4.9125	-4.1521	-4.5542	-102.916	-132.686	-20.317	84.622	145.863	123.411	-84.598	97.663	-24.020	208.381	153.880	180.387	-95.672	163.562	-94.889	160.005	0.00094489	0.00048374	0.00035194	811.81	1.0606e-05	1.0122e-05	830.84	287.59	2.9764e-06	8.665e-06	335.46	148.31	93.528	38.393	1.4315e-05	72.719	0.0013819	0.0014236	0.00040137	775.16	1.5456e-05	1.5621e-05	792.76	275.36	1.576e-05	1.5938e-05	326.28	143.9	92.7	37.549	1.6197e-05	70.34	142.349	-24.820	-35.480	-132.243	-16.418	10.996	-133.905	-128.127	151.163	25.328	-129.815	-126.273	-124.190	-119.595	21.334	-122.156	-8191	255	
12378.453	1	1	0	0	0.23085	0.12295	0.12107	0.16063	0.099007	0.27089	0.089283	0.029746	0.24431	0.13047	0.08123	0.21438	0.19351	0.23683	0.36901	0.18137	-4.4208	-4.0229	-4.5625	-4.4437	-4.2292	-4.7458	-4.3354	-4.4187	-4.625	-4.2125	-4.7771	-4.5729	-4.2937	-4.8521	-4.3438	-4.45	4.743	-105.763	149.131	207.292	172.588	-85.034	48.016	-34.261	-17.830	136.863	48.005	177.537	-0.115	-108.062	-26.493	-111.318	0.00092517	0.00010317	0.00027748	809.25	8.3258e-06	3.144e-06	818.74	285.89	8.3707e-06	1.2173e-05	333.93	147.32	91.645	37.794	2.2009e-06	71.851	0.0014273	0.0014773	0.00041665	773.22	1.5925e-05	1.6398e-05	788.33	273.4	1.5895e-05	1.61e-05	324.52	142.75	91.381	36.974	1.6192e-05	69.685	137.532	11.640	-97.416	-132.387	7.252	3.245	-133.477	-128.159	-55.879	33.743	-129.639	-125.861	-124.586	-119.997	-76.946	-122.365	-8191	255	
12378.549	1	1	0	0	0.22837	0.1673	0.17055	0.041804	0.12272	0.11537	0.085184	0.25723	0.063037	0.12438	0.24639	0.26986	0.12736	0.079816	0.1081	0.099625	-4.4208	-4.0188	-4.5667	-4.5938	-4.1771	-4.7562	-4.4396	-4.4271	-4.8625	-4.2042	-4.5729	-4.4979	-4.2312	-4.6958	-4.4313	-4.4187	65.570	121.989	66.219	-138.071	34.962	106.749	186.674	148.995	83.233	-129.682	-92.480	33.737	-13.158	202.534	19.626	-121.740	0.00089727	0.00041671	0.00017345	806.96	2.6551e-06	3.9122e-06	817.61	285.82	7.5226e-06	2.328e-07	336.66	146.81	92.343	38.058	6.1e-06	72.828	0.0014495	0.0014884	0.00042991	774	1.5982e-05	1.651e-05	789.55	273.31	1.5985e-05	1.6131e-05	325.65	142.45	91.585	37.025	1.5735e-05	70.403	148.262	-57.378	-87.856	-132.165	71.290	15.084	-133.612	-128.222	29.956	-136.472	-129.812	-126.107	-124.746	-119.598	-13.247	-122.303	-8191	255	
12378.670	1	1	0	0	0.1136	0.1618	0.11452	0.058269	0.1392	0.11495	0.12202	0.098092	0.15468	0.13785	0.13246	0.19647	0.048899	0.21868	0.11718	0.2441	-4.4542	-4.1521	-4.4792	-4.825	-4.2146	-4.7875	-4.3438	-4.4	-4.7688	-4.2063	-4.6104	-4.8083	-4.2417	-4.725	-4.3854	-4.3708	138.829	12.146	151.409	-127.662	78.924	25.736	84.886	-131.189	18.120	105.916	-89.340	-113.380	100.772	199.963	31.140	21.439	0.00083552	0.00028063	0.00013341	808.72	6.5459e-06	9.6828e-06	822.09	286.94	6.9811e-06	6.913e-06	339.35	150.48	94.136	38.968	1.3945e-05	74.105	0.001406	0.0014484	0.00040891	772.81	1.5548e-05	1.5903e-05	793.33	274.46	1.5624e-05	1.5782e-05	329.45	144.99	93.003	37.858	1.55e-05	71.741	154.722	-74.188	-145.041	-132.297	-48.317	-5.880	-133.483	-128.313	-30.403	-82.627	-129.562	-126.180	-124.355	-119.721	-66.009	-122.440	-8191	255	
12378.766	1	1	0	0	0.2086	0.067222	0.19953	0.075354	0.24716	0.21112	0.12766	0.072915	0.09799	0.064487	0.14524	0.15091	0.16926	0.084995	0.242	0.061517	-4.4375	-4.3375	-4.4979	-4.7958	-4.0042	-4.5542	-4.6021	-4.4208	-4.7729	-4.375	-4.7396	-4.6438	-4.1208	-4.6208	-4.6167	-4.3063	195.639	-33.758	-131.642	143.440	161.488	80.364	-22.926	-27.494	-104.421	45.917	-140.347	-77.544	-138.089	-101.390	-71.579	60.684	0.00089857	0.00084824	7.6452e-05	809.85	3.9689e-06	5.3651e-06	832.37	288.66	7.3984e-06	4.7121e-06	339.62	149.97	94.887	39.209	6.8982e-06	73.924	0.0013578	0.0014235	0.00040221	775.77	1.5396e-05	1.5738e-05	797.64	276.75	1.5599e-05	1.5651e-05	329.51	145.43	93.892	38.2	1.5209e-05	71.389	155.554	-40.498	-93.134	-132.335	-47.345	-51.244	-133.615	-127.975	-39.578	-76.445	-130.041	-126.278	-124.610	-119.753	-4.047	-122.179	-8191	255	
12378.862	1	1	0	0	0.12095	0.13847	0.1603	0.081114	0.085477	0.13434	0.11282	0.035017	0.15783	0.15418	0.22537	0.18553	0.13731	0.11173	0.10903	0.15136	-4.3896	-4.2271	-4.2458	-4.8542	-4.0563	-4.6771	-4.7854	-4.3417	-4.775	-4.6	-4.4229	-4.725	-4.2937	-4.5708	-4.6896	-4.3292	127.960	130.892	-12.611	-125.933	200.683	-145.721	126.048	-8.508	-72.105	199.175	96.839	93.034	211.856	55.136	-33.299	110.731	0.00089278	0.00045102	0.00031139	806.19	3.0896e-06	3.8238e-06	826.11	287.64	1.1162e-05	1.0383e-05	339.47	149.4	94.232	39.285	6.441e-06	73.538	0.0013228	0.0013832	0.00038314	770.25	1.4429e-05	1.5109e-05	790.99	275.21	1.4959e-05	1.5046e-05	327.4	144.5	93.025	37.976	1.5021e-05	70.776	150.512	-125.397	-59.292	-132.304	-70.442	-31.503	-133.497	-127.992	-76.797	-13.321	-129.882	-126.148	-124.247	-119.688	-49.574	-122.631	-8191	255	
12378.934	1	1	0	0	0.07181	0.3435	0.058866	0.10034	0.10568	0.18935	0.20153	0.30122	0.24201	0.075725	0.12022	0.11904	0.085354	0.22188	0.14912	0.080538	-4.2667	-4.4083	-4.35	-4.8021	-4.1896	-4.5271	-4.7104	-4.0708	-4.7896	-4.4375	-4.3	-4.7021	-4.3771	-4.5021	-4.6625	-4.3583	120.995	-77.547	-101.574	-141.626	-97.844	-27.089	139.594	113.961	129.438	178.138	-77.501	-23.560	84.554	-120.073	5.535	-97.017	0.0011257	0.00042906	0.00033609	808.59	4.5641e-06	1.0235e-05	823.56	284.73	1.6169e-05	7.7776e-06	333.96	147.11	91.827	37.847	1.625e-06	71.341	0.0013282	0.0013813	0.00038577	770.95	1.488e-05	1.5298e-05	787.68	273.59	1.555e-05	1.5664e-05	324.17	142.24	91.738	36.963	1.5734e-05	68.996	144.314	3.712	-79.696	-132.043	-27.778	35.787	-133.924	-128.099	-23.662	22.350	-129.787	-126.192	-124.608	-119.896	-123.322	-122.108	-8191	255	
12379.053	1	1	0	0	0.17468	0.047212	0.20794	0.13154	0.19377	0.1162	0.080694	0.19804	0.058539	0.057085	0.29912	0.11311	0.16504	0.30243	0.097026	0.19544	-4.3146	-4.5042	-4.1833	-4.8646	-4.2833	-4.4833	-4.7125	-4.2396	-4.5708	-4.4167	-4.2542	-4.675	-4.3771	-4.2792	-4.7083	-4.3833	-30.406	56.166	-7.077	-131.982	-38.183	181.825	-108.817	65.469	2.629	83.637	115.518	63.446	59.197	199.777	147.953	168.355	0.00091362	0.00051012	4.1247e-05	805.46	7.4328e-06	5.9022e-06	819.16	284.21	7.7898e-06	6.5414e-06	337.38	148.13	93.312	37.827	1.0428e-05	72.78	0.0014074	0.001428	0.00039123	769.55	1.4991e-05	1.5414e-05	783.36	271.99	1.5097e-05	1.5067e-05	324.73	142.32	91.473	36.968	1.4936e-05	70.174	139.459	-76.715	66.583	-132.313	5.631	54.961	-133.591	-128.153	-81.126	67.749	-129.780	-126.114	-124.375	-119.649	-69.118	-122.537	-8191	255	
12379.149	1	1	0	0	0.12824	0.11136	0.032594	0.14786	0.2119	0.28815	0.12094	0.20334	0.017821	0.17819	0.13812	0.20536	0.11903	0.3292	0.30385	0.095569	-4.1583	-4.5854	-4.35	-4.8667	-4.2875	-4.3333	-4.8583	-4.3354	-4.7021	-4.6229	-4.1438	-4.8562	-4.4146	-4.5396	-4.7583	-4.3125	71.557	145.559	-27.489	20.888	183.518	104.921	163.474	-121.938	-44.583	-59.424	-53.559	129.065	155.059	35.838	184.362	182.124	0.00091929	0.00024715	0.00012403	803.87	5.2086e-06	3.0836e-06	824.3	285.66	4.4259e-06	7.7081e-06	337.51	150.81	93.47	39.262	1.0872e-05	75.497	0.001331	0.0013788	0.0003802	768.49	1.4693e-05	1.5109e-05	789.15	272.5	1.4858e-05	1.4706e-05	326.04	144.82	92.482	38.197	1.4623e-05	72.666	138.445	209.687	-95.744	-132.478	6.643	-62.984	-133.421	-128.127	-14.347	-54.363	-129.920	-125.598	-124.035	-119.332	26.745	-122.306	-8191	255	
12379.245	1	1	0	0	0.10018	0.10973	0.10232	0.21807	0.14338	0.2169	0.010168	0.20972	0.24937	0.15166	0.14997	0.054983	0.13066	0.16292	0.048869	0.29617	-4.1104	-4.6188	-4.2021	-4.8042	-4.2688	-4.3042	-4.9042	-4.1792	-4.5667	-4.6708	-4.2	-4.7354	-4.5542	-4.3354	-4.775	-4.5854	-113.313	-8.041	189.053	184.683	-48.919	181.850	-102.355	152.934	15.352	-46.548	147.238	97.967	-14.755	116.093	122.608	111.818	0.0010194	0.00081807	4.578e-05	801.96	5.8048e-06	7.4399e-06	830.61	287.14	8.3902e-06	3.1913e-06	342.2	152.23	95.349	39.881	1.2975e-05	75.505	0.0012987	0.0013233	0.00036599	767.79	1.425e-05	1.4416e-05	796.67	274.52	1.4266e-05	1.44e-05	329.95	146.79	93.644	38.737	1.4614e-05	73.123	144.484	-3.910	-75.830	-132.244	-2.060	25.596	-133.576	-128.175	-1.498	-34.830	-129.786	-125.642	-124.178	-119.874	-84.086	-122.519	-8191	255	
12379.341	1	1	0	0	0.070074	0.069741	0.28262	0.10147	0.26701	0.087512	0.029715	0.14994	0.042288	0.15983	0.10515	0.1513	0.093588	0.26215	0.14939	0.25225	-4.1312	-4.6104	-4.0875	-4.6958	-4.5437	-4.1854	-4.9354	-4.4708	-4.375	-4.6792	-4.3417	-4.6229	-4.6125	-4.1979	-4.9167	-4.5229	-99.308	158.287	43.410	169.809	-27.183	-143.348	66.822	116.009	148.548	-37.193	203.666	208.596	71.263	180.707	-51.752	181.881	0.00092916	0.00087884	0.00026937	803.44	5.2126e-06	8.9146e-06	832.8	287.02	1.5679e-05	2.0682e-06	339.86	151.94	94.945	39.489	9.0018e-06	74.463	0.0013009	0.0013385	0.00037514	770.32	1.4491e-05	1.4871e-05	795.61	274.8	1.4773e-05	1.4789e-05	328.53	145.91	93.228	38.414	1.4771e-05	71.736	152.059	-116.945	-68.914	-131.987	45.427	-82.177	-133.575	-128.250	10.189	0.535	-129.675	-125.681	-124.178	-119.753	-34.438	-122.358	-8191	255	
12379.462	1	1	0	0	0.093156	0.064753	0.051893	0.32216	0.078694	0.10697	0.18433	0.24444	0.076317	0.14712	0.11784	0.10781	0.1565	0.16727	0.26418	0.073011	-3.9208	-4.8542	-4.0729	-4.8125	-4.7688	-4.1667	-4.8375	-4.325	-4.2583	-4.6208	-4.2771	-4.5604	-4.625	-4.2312	-4.6083	-4.4958	55.312	95.408	45.726	189.007	-9.562	46.656	146.014	140.433	25.508	164.249	112.265	147.290	-124.091	79.500	-31.978	132.990	0.0011181	0.00055048	0.00010248	807.19	2.4849e-06	1.6695e-06	821.9	284.62	1.1816e-05	1.4935e-06	338.2	151.53	93.883	39.764	7.1993e-06	74.996	0.0012801	0.0013151	0.00036412	765.43	1.3813e-05	1.4193e-05	787.19	271.9	1.4062e-05	1.4252e-05	325.93	145.24	92.551	38.41	1.4283e-05	72.089	147.558	-13.681	-111.155	-132.283	190.771	-34.106	-133.510	-128.195	-10.748	-118.952	-129.841	-125.949	-124.490	-119.795	61.856	-122.697	-8191	255	
12379.558	1	1	0	0	0.056692	0.063436	0.16267	0.086687	0.26721	0.20943	0.24415	0.13133	0.191	0.13367	0.041126	0.38933	0.084718	0.19463	0.059082	0.17181	-3.9417	-4.7646	-4.2708	-4.5292	-4.5792	-4.1417	-4.8208	-4.5333	-4.1292	-4.8375	-4.2625	-4.6792	-4.8896	-4.1146	-4.6021	-4.65	66.486	90.829	-15.377	-140.194	-106.666	1.238	155.414	-123.668	181.799	-64.628	171.535	119.322	71.730	140.670	-54.884	142.020	0.0009737	0.00040551	9.8276e-05	791.82	3.2232e-06	8.4999e-06	823.59	282.77	1.2889e-05	3.8185e-06	335.65	150.51	93.534	38.97	5.3177e-06	75.008	0.0012608	0.001297	0.00036578	758.75	1.3769e-05	1.4059e-05	787	269.76	1.3972e-05	1.4159e-05	324.68	144.52	91.459	37.92	1.437e-05	72.034	150.677	-10.078	-89.394	-132.387	44.524	-13.568	-133.609	-128.030	-51.779	-1.448	-130.081	-125.813	-124.453	-119.656	-26.602	-122.544	-8191	255	
12379.629	1	1	0	0	0.10954	0.1429	0.15681	0.05037	0.20571	0.13042	0.15221	0.16072	0.22337	0.098049	0.32319	0.058888	0.15653	0.17653	0.1123	0.095604	-3.7146	-4.7375	-4.1771	-4.4479	-4.6562	-4.2167	-4.8521	-4.725	-4.0667	-4.7937	-4.4563	-4.3896	-4.8167	-4.1917	-4.6417	-4.75	-67.321	-25.228	82.182	-113.500	119.160	156.326	173.724	-21.603	32.688	30.479	130.369	117.023	24.266	-24.662	99.056	177.796	0.00095632	0.00089944	0.00022508	795.27	1.0776e-05	5.4907e-06	822.45	280.3	1.1383e-05	1.998e-06	337.47	151.23	93.012	39.482	6.1569e-06	75.647	0.0012803	0.0013196	0.00036604	758.41	1.414e-05	1.4165e-05	787.15	268.16	1.3975e-05	1.3884e-05	325.49	144.8	91.594	38.205	1.3782e-05	72.688	137.624	-117.798	208.650	-132.442	-1.037	-31.462	-133.590	-128.222	-80.495	-106.464	-129.805	-126.109	-124.231	-119.798	55.295	-122.243	-8191	255	
12379.750	1	1	0	0	0.18574	0.27159	0.20323	0.2705	0.018727	0.22043	0.29681	0.18773	0.063109	0.098566	0.15823	0.18483	0.09	0.068088	0.26348	0.30218	-3.6063	-4.6771	-4.3271	-4.3875	-4.9083	-4.2646	-4.8021	-4.8187	-4.1354	-4.7833	-4.625	-4.2	-4.7958	-4.4563	-4.4437	-4.7458	112.230	137.343	78.461	148.714	-145.777	-131.106	-138.931	122.220	153.280	35.156	183.038	170.040	208.260	190.113	85.163	161.270	0.0010092	0.00068296	0.00015068	797.05	5.8367e-06	8.2608e-06	834.4	282.4	6.2353e-06	8.2794e-06	338.98	152.43	93.15	39.756	1.093e-05	76.534	0.0012188	0.0012755	0.00035861	759.29	1.3735e-05	1.4053e-05	794.69	269.53	1.3825e-05	1.4094e-05	327.45	146.02	91.904	38.379	1.3562e-05	73.261	153.125	-16.326	-59.060	-132.489	41.272	9.390	-133.442	-128.028	-52.934	46.012	-129.942	-125.912	-124.744	-119.779	-68.598	-122.849	-8191	255	
12379.846	1	1	0	0	0.19637	0.15213	0.084705	0.21508	0.051238	0.18693	0.28962	0.3444	0.094113	0.22091	0.053817	0.22782	0.39921	0.12006	0.20888	0.093452	-3.8229	-4.7375	-4.5042	-4.5146	-4.6875	-4.3708	-4.5062	-5.0208	-4.0479	-4.6417	-4.6083	-4.2292	-4.7771	-4.3104	-4.3208	-4.8458	188.743	198.818	199.457	197.439	117.490	-37.748	174.322	89.176	168.219	64.256	211.256	162.014	181.033	102.192	-115.278	126.391	0.0012108	0.00046836	3.0824e-05	795.21	3.6661e-06	9.0655e-06	829.28	282.55	4.2628e-06	4.1391e-06	340.39	150.76	93.36	39.464	6.0312e-06	74.551	0.0012048	0.0012476	0.00034219	757.84	1.3221e-05	1.3417e-05	788.98	269.17	1.3187e-05	1.3782e-05	326.12	145.04	91.589	38.156	1.3811e-05	71.951	145.117	23.786	107.277	-132.260	-65.704	49.646	-133.308	-128.020	40.840	24.386	-129.946	-126.363	-124.206	-119.727	141.786	-122.607	-8191	255	
12379.942	1	1	0	0	0.25283	0.17579	0.17409	0.30172	0.068897	0.11584	0.13232	0.074978	0.059667	0.086023	0.26586	0.065595	0.049992	0.10213	0.18091	0.14622	-3.7854	-4.4583	-4.5896	-4.2146	-4.7771	-4.3771	-4.4521	-4.8688	-4.3125	-4.5021	-4.6958	-4.2438	-4.7167	-4.4917	-4.3521	-5.0417	123.687	-44.923	194.461	123.489	182.318	45.015	78.559	208.448	100.300	-76.626	163.253	160.986	185.314	-119.232	114.211	124.899	0.00096246	0.0007793	0.00020512	792.26	1.9726e-06	5.6611e-06	814.89	278.77	9.5608e-06	9.6079e-06	334.32	148.5	92.209	38.591	8.7773e-06	74.191	0.0012211	0.001288	0.00035757	753.91	1.3621e-05	1.3869e-05	782.76	266.31	1.3613e-05	1.3941e-05	322.41	142.43	90.475	37.553	1.357e-05	71.029	141.635	-24.402	48.394	-132.329	11.716	102.699	-133.481	-128.235	-61.598	59.541	-129.789	-125.829	-124.511	-119.796	-9.230	-122.686	-8191	255	
12380.061	1	1	0	0	0.098086	0.045058	0.28125	0.25701	0.129	0.027384	0.24198	0.12544	0.15413	0.06304	0.31725	0.15248	0.07117	0.11331	0.039993	0.29717	-3.9208	-4.2812	-4.6729	-4.1729	-4.6312	-4.4792	-4.3458	-5.0229	-4.4542	-4.4979	-4.7042	-4.175	-4.6583	-4.5188	-4.2104	-4.8521	-64.173	-30.867	32.175	132.326	182.187	-139.395	152.645	131.089	-127.162	-96.984	104.962	141.417	180.628	192.491	108.862	67.998	0.0010111	0.00083446	5.0027e-05	788.6	3.5479e-06	3.9442e-06	820.35	278.04	1.4716e-05	4.3692e-06	334.03	149.93	92.24	38.834	1.3727e-06	74.127	0.0012001	0.0012226	0.00033918	749.56	1.2992e-05	1.3088e-05	781.42	264.88	1.2938e-05	1.3065e-05	321.58	143.34	90.218	37.57	1.2983e-05	71.384	156.089	-93.786	-56.419	-132.376	43.383	32.085	-133.479	-128.142	-59.395	87.051	-129.907	-125.672	-124.674	-120.223	-45.396	-122.472	-8191	255	
12380.157	1	1	0	0	0.19128	0.20251	0.18639	0.34723	0.20519	0.099301	0.13366	0.064539	0.024035	0.129	0.070948	0.06295	0.15145	0.18409	0.31459	0.10801	-3.9479	-4.3583	-4.6813	-4.2229	-4.6604	-4.5271	-4.2104	-4.75	-4.2208	-4.3438	-4.7562	-4.2792	-4.6375	-4.7229	-4.05	-4.7771	118.354	95.095	-33.948	158.256	26.872	-82.356	78.753	199.887	-112.626	77.162	126.835	170.228	171.515	204.694	-62.396	-54.654	0.00068757	0.00072265	0.00015137	785.76	1.9987e-06	1.0625e-05	817.49	277.55	1.0877e-05	2.6712e-06	336.87	147.33	91.558	38.532	8.2936e-06	73.831	0.001163	0.0012059	0.00033442	747.81	1.2964e-05	1.332e-05	781.62	264.7	1.3156e-05	1.3384e-05	324.28	142.53	90.04	37.227	1.3113e-05	71.051	144.129	-65.972	-61.675	-132.507	-14.601	-64.097	-133.627	-128.284	-83.046	69.141	-129.859	-125.877	-124.251	-119.814	-71.464	-122.408	-8191	255	
12380.229	1	1	0	0	0.12181	0.11861	0.17187	0.12114	0.12716	0.18381	0.26286	0.11409	0.068027	0.10383	0.1362	0.16185	0.25352	0.052499	0.15219	0.13905	-3.8542	-4.3063	-4.8104	-4.3229	-4.5729	-4.6125	-4.3313	-4.75	-4.4313	-4.1083	-4.7875	-4.1813	-4.5792	-4.8396	-4.125	-4.7583	-143.971	-24.021	211.559	145.692	6.703	-108.852	110.781	184.410	-109.676	211.303	-36.923	-127.620	171.329	60.186	-130.191	50.543	0.00074793	0.00075456	0.0002215	793.73	4.9882e-06	1.0017e-05	824.61	282.1	9.7098e-06	6.9334e-06	339.16	150.59	92.55	38.8	8.7931e-07	74.814	0.0011914	0.0012224	0.00034226	754.2	1.3531e-05	1.3743e-05	788.19	268.44	1.3811e-05	1.377e-05	326.32	144.42	91.363	37.571	1.3395e-05	71.679	150.023	-74.813	-8.134	-132.152	-62.480	48.592	-133.394	-127.985	-88.523	-9.445	-129.640	-126.007	-124.241	-119.718	210.773	-122.487	-8191	255	
12380.350	1	1	0	0	0.080446	0.17808	0.086222	0.21218	0.1151	0.09189	0.076956	0.23086	0.26753	0.10419	0.16212	0.17556	0.15806	0.056994	0.10549	0.18869	-4.1333	-4.1854	-4.9542	-4.2083	-4.3083	-4.8187	-4.2708	-4.7729	-4.6083	-4.3125	-4.8917	-4.45	-4.4688	-4.7063	-4.0625	-4.6979	201.624	178.513	74.817	212.867	24.714	182.608	147.711	144.171	109.651	-100.771	55.635	151.583	122.898	196.894	184.699	152.428	0.00093407	0.00064354	0.00023591	797.76	8.103e-06	6.0131e-06	825.25	282.15	1.2974e-05	6.3246e-06	341.18	150.73	93.028	39.285	4.9826e-07	74.581	0.0012085	0.0012544	0.00034987	760.14	1.368e-05	1.3869e-05	790.35	269.48	1.3748e-05	1.3948e-05	327.83	144.9	91.87	38.06	1.3816e-05	71.859	140.438	-28.341	-41.099	-132.276	0.891	72.033	-133.528	-127.767	-72.146	-35.820	-129.695	-125.763	-124.706	-119.873	190.820	-122.423	-8191	255	
12380.446	1	1	0	0	0.098252	0.17864	0.096785	0.15286	0.10693	0.16645	0.10085	0.17148	0.18145	0.034962	0.075452	0.061795	0.18397	0.11528	0.09467	0.20964	-4.2104	-4.0667	-4.9333	-4.4146	-4.3021	-4.6687	-4.2104	-4.675	-4.5479	-4.0042	-4.8333	-4.5979	-4.3542	-4.8583	-4.1708	-4.7	-113.208	212.468	35.564	-101.723	-30.363	-133.597	139.548	121.649	6.078	22.369	-55.399	-105.823	173.197	77.659	128.999	148.782	0.00086739	0.00019193	0.00052385	795.95	8.6687e-06	1.0182e-05	823.48	283.3	2.1077e-06	4.944e-06	335.26	149.83	92.652	38.989	1.1524e-05	73.331	0.0012358	0.0012766	0.00035717	759.79	1.3905e-05	1.4159e-05	786.93	270.1	1.4034e-05	1.4119e-05	324.64	144.13	91.388	37.636	1.407e-05	70.629	156.473	-52.339	-46.842	-132.430	-6.696	-29.706	-133.688	-128.098	206.712	3.660	-130.062	-126.104	-124.128	-119.817	3.287	-122.348	-8191	255	
12380.542	1	1	0	0	0.15799	0.19589	0.069743	0.34479	0.2809	0.14364	0.25372	0.23502	0.23602	0.12205	0.18076	0.155	0.063021	0.20244	0.107	0.20567	-4.2875	-4.2583	-4.5604	-4.5333	-4.2438	-4.6542	-4.3938	-4.5687	-4.5021	-4.125	-4.8583	-4.65	-4.4021	-4.9229	-4.1604	-4.5563	-34.086	105.730	-39.175	147.099	177.110	27.132	-89.657	189.043	-142.546	-49.399	127.329	203.478	193.968	42.452	162.031	151.748	0.00085432	0.00057552	9.0682e-05	799.29	4.0134e-06	5.8991e-06	820.87	282.18	9.4239e-06	2.9633e-06	336.82	149.45	92.387	38.655	8.0288e-06	73.495	0.0012742	0.0012968	0.0003683	760.52	1.4292e-05	1.4368e-05	785.79	269.21	1.4066e-05	1.4387e-05	324.11	143.06	91.084	37.378	1.3632e-05	70.778	140.167	76.412	-106.886	-132.574	38.790	82.565	-133.690	-128.132	-61.408	-74.015	-129.957	-126.163	-124.563	-119.751	-34.083	-122.120	-8191	255	
12380.638	1	1	0	0	0.16417	0.067569	0.20956	0.10761	0.26532	0.20202	0.26859	0.10934	0.0024188	0.056994	0.19549	0.20645	0.12301	0.14685	0.31488	0.32504	-4.3229	-3.9229	-4.5938	-4.4521	-4.1896	-4.9812	-4.325	-4.5833	-4.8688	-4.1729	-4.5833	-4.5875	-4.1937	-4.8042	-4.2833	-4.5604	-95.126	47.062	-88.499	-99.175	-59.513	11.175	132.615	29.841	180.000	-19.552	117.752	84.885	-128.336	54.896	149.810	97.771	0.00089636	0.00048121	0.00016274	792.58	2.2822e-06	1.8332e-06	819.49	280.39	9.8254e-06	8.6244e-06	335.22	150.76	92.474	39.196	1.2374e-05	75.708	0.0012167	0.0012507	0.00035127	754.38	1.3463e-05	1.3654e-05	782.96	267.06	1.3486e-05	1.3543e-05	323.84	144.91	90.978	37.981	1.3316e-05	72.466	148.301	-5.482	132.800	-132.121	67.575	196.755	-133.695	-128.376	-10.188	34.186	-129.761	-125.686	-124.710	-119.800	-79.621	-122.594	-8191	255	
12380.759	1	1	0	0	0.11825	0.22323	0.12027	0.14532	0.1185	0.021437	0.23845	0.20094	0.18952	0.16631	0.16468	0.26393	0.14004	0.1503	0.15297	0.094737	-4.4062	-4.1917	-4.5521	-4.5792	-4.0458	-4.6417	-4.4667	-4.5458	-4.7729	-4.0729	-4.75	-4.575	-3.9979	-4.8875	-4.4938	-4.3229	123.008	-132.929	-40.093	11.252	200.756	121.482	201.225	170.338	-83.516	-19.624	182.775	198.260	-124.299	-70.910	-14.201	120.468	0.0010413	0.00075057	0.00031678	793.23	8.1111e-06	1.5811e-05	824.51	281.04	1.4171e-05	7.4043e-06	339.61	150.58	93.006	38.89	6.7616e-06	74.604	0.001189	0.0012325	0.00034976	755.03	1.3547e-05	1.391e-05	788.71	269.14	1.405e-05	1.438e-05	326.46	144.8	91.842	37.879	1.4553e-05	72.004	150.213	-57.732	-24.931	-132.181	72.594	0.695	-133.682	-128.026	-66.608	-24.632	-129.917	-125.708	-124.411	-119.615	-56.314	-122.236	-8191	255	
12380.853	1	1	0	0	0.14252	0.24573	0.22103	0.22828	0.13079	0.16993	0.30554	0.055748	0.089209	0.42096	0.1524	0.28129	0.016083	0.16329	0.17925	0.25098	-4.3646	-4.0875	-4.5021	-4.8479	-4.2438	-4.6458	-4.4812	-4.2208	-4.8979	-4.2771	-4.5813	-4.7125	-4.2708	-4.7083	-4.5896	-4.45	192.255	56.827	-134.512	158.733	157.210	-2.437	141.323	139.167	-93.823	-24.867	105.617	-144.754	142.338	-115.901	155.707	62.538	0.0010864	0.00037713	0.00012274	799.06	4.4148e-06	5.1719e-06	827.33	285.08	3.2078e-06	1.4004e-05	341.14	149.74	94.216	38.677	1.2508e-05	73.751	0.0013063	0.001349	0.00037594	762.43	1.426e-05	1.4825e-05	792.67	272.19	1.4649e-05	1.4948e-05	328.89	144.55	92.651	37.752	1.5378e-05	71.056	146.362	39.579	-90.332	-132.134	-51.976	71.698	-133.575	-128.080	-69.173	54.337	-129.789	-126.050	-124.451	-119.657	13.996	-122.380	-8191	255	
12380.927	1	1	0	0	0.088716	0.23992	0.14387	0.21212	0.099521	0.074816	0.058833	0.12324	0.16092	0.30899	0.035237	0.050279	0.066861	0.34928	0.16312	0.2203	-4.375	-4.4625	-4.375	-4.775	-4.2021	-4.675	-4.5271	-4.2104	-4.7354	-4.4521	-4.4854	-4.7958	-4.1667	-4.5938	-4.5979	-4.2312	89.219	-15.792	173.272	-145.004	117.061	-80.434	64.777	-77.965	120.673	0.796	208.510	49.533	29.567	-30.055	175.825	201.338	0.0011014	0.00044025	0.0002747	804.18	6.3608e-06	7.2035e-06	824.41	284.47	1.416e-05	5.4617e-06	336.99	148.4	93.51	38.291	1.3872e-05	72.799	0.0013643	0.0014189	0.00040062	767.05	1.4982e-05	1.5608e-05	788.62	271.93	1.5035e-05	1.5219e-05	325.68	143.16	92.148	37.367	1.5117e-05	70.175	143.979	44.486	-95.777	-132.529	-57.005	-19.779	-133.654	-128.423	-43.687	108.900	-130.116	-125.883	-124.563	-119.647	-31.139	-122.382	-8191	255	
12381.023	1	1	0	0	0.1801	0.067285	0.059066	0.34448	0.16644	0.15878	0.038003	0.060095	0.2321	0.26073	0.16244	0.063438	0.063015	0.14031	0.15438	0.035145	-4.4458	-4.2479	-4.2729	-4.8167	-4.1979	-4.4604	-4.7271	-4.1729	-4.5583	-4.4	-4.4604	-4.7542	-4.1542	-4.475	-4.3938	-4.1875	168.844	-28.024	62.218	185.238	147.610	-35.271	2.405	135.884	-87.334	79.286	82.901	-121.661	135.610	0.978	1.731	89.060	0.0010035	0.00054882	0.00015882	798.74	9.3578e-06	6.1524e-06	817.94	284.1	4.0299e-06	4.8651e-06	335.47	147.39	92.431	37.671	2.9278e-06	71.691	0.001347	0.0014054	0.00039058	763.18	1.5101e-05	1.5293e-05	784.73	270.58	1.4942e-05	1.5135e-05	323.43	141.71	91.07	36.702	1.4911e-05	69.248	140.197	-59.895	-71.802	-132.537	-90.635	49.401	-133.680	-128.274	-78.852	-2.758	-129.926	-126.192	-124.666	-119.453	153.862	-122.354	-8191	255	
12381.142	1	1	0	0	0.19052	0.1435	0.048546	0.037923	0.10211	0.081484	0.1437	0.26411	0.23141	0.13922	0.20723	0.14411	0.090476	0.10454	0.053791	0.095555	-4.3771	-4.3604	-4.2396	-4.7812	-4.1729	-4.3896	-4.7833	-4.0958	-4.6062	-4.4667	-4.4708	-4.6646	-4.4187	-4.5396	-4.6417	-4.3542	167.355	90.154	128.282	54.437	-42.658	17.727	172.553	176.721	11.540	-67.881	-6.651	131.172	-133.138	192.774	78.782	52.462	0.0010526	0.00086347	1.937e-05	791.92	7.3124e-06	1.109e-05	818.26	280.95	7.1871e-06	1.0406e-05	333.37	146.49	91.571	37.651	1.4462e-05	72.352	0.0013497	0.0013907	0.00038973	760.73	1.5224e-05	1.5582e-05	784.12	268.3	1.5382e-05	1.5315e-05	322.37	141.44	90.406	36.603	1.4699e-05	69.764	142.894	45.764	-62.773	-132.150	21.842	-43.659	-133.765	-127.905	170.150	69.548	-129.699	-126.003	-124.534	-119.577	-30.472	-122.264	-8191	255	
12381.238	1	1	0	0	0.1645	0.070306	0.14375	0.15837	0.047727	0.29421	0.39224	0.25151	0.21125	0.13651	0.25881	0.12113	0.011808	0.1243	0.073085	0.22624	-4.1312	-4.6542	-4.1667	-4.7458	-4.2771	-4.5312	-4.7208	-4.15	-4.6021	-4.5729	-4.1813	-4.7958	-4.4917	-4.2542	-4.725	-4.2771	169.259	-80.888	-40.902	159.140	-136.425	150.320	161.543	122.970	119.507	-140.714	178.486	183.965	-121.409	-145.486	48.650	206.528	0.00092022	0.00050547	0.00016872	795.52	5.8937e-06	1.2471e-05	819.96	280.08	1.386e-05	1.1422e-05	337.25	148.79	91.611	38.607	4.8321e-06	73.997	0.0012886	0.0013404	0.00037017	758.18	1.4488e-05	1.4725e-05	785.68	268.4	1.4924e-05	1.4899e-05	325.41	143.65	91.014	37.482	1.4736e-05	71.111	142.988	51.171	-28.087	-132.513	-16.980	-56.692	-133.857	-128.306	-77.019	58.121	-129.720	-125.754	-124.628	-119.750	-42.081	-122.319	-8191	255	
12381.334	1	1	0	0	0.11592	0.20936	0.080929	0.21703	0.15153	0.076751	0.13293	0.18661	0.14607	0.077954	0.2211	0.31085	0.14616	0.14232	0.15583	0.095669	-4.2542	-4.5833	-4.1375	-4.6729	-4.3604	-4.1792	-4.8854	-4.1958	-4.4187	-4.7625	-4.1708	-4.7708	-4.3896	-4.1979	-4.75	-4.3	33.270	-141.303	-110.579	176.709	115.910	22.335	118.189	88.216	106.555	94.705	210.279	213.776	91.725	188.312	102.237	167.049	0.0010744	0.0010309	0.00021226	800.17	9.8024e-06	1.4051e-05	830.28	283.43	7.0081e-06	1.4474e-06	341.16	151.3	93.935	38.656	9.5413e-06	73.931	0.0013358	0.0013489	0.00037626	763.98	1.4585e-05	1.491e-05	793.85	271.11	1.5002e-05	1.5007e-05	329.28	145.28	92.664	37.678	1.5295e-05	71.681	148.083	-112.362	-40.551	-132.168	-41.422	-2.438	-133.515	-128.177	95.093	-102.925	-129.896	-125.901	-124.843	-119.451	-74.219	-122.575	-8191	255	
12381.430	1	1	0	0	0.13384	0.1309	0.19128	0.10758	0.19444	0.076621	0.16138	0.12549	0.1093	0.065274	0.083458	0.082398	0.29028	0.19866	0.042068	0.37579	-4.2	-4.4792	-4.2562	-4.7542	-4.2979	-4.1167	-4.9	-4.2521	-4.4187	-4.7646	-4.1958	-4.6937	-4.5375	-4.1354	-4.7396	-4.3604	-76.162	-31.971	99.533	106.052	-39.664	-127.515	-6.095	161.100	212.794	-37.644	156.028	144.118	202.992	200.920	55.552	137.978	0.00094414	0.00055327	0.00040929	797.99	8.4835e-06	1.1968e-05	831.6	284.26	3.7354e-06	1.6287e-05	341.46	150.22	93.789	38.708	1.4503e-05	73.684	0.0013465	0.0013816	0.00038143	763.48	1.4661e-05	1.4814e-05	791.84	272.02	1.4598e-05	1.4658e-05	329.14	144.5	92.23	37.715	1.4541e-05	70.964	154.965	-34.752	-54.128	-132.115	-30.689	59.095	-133.553	-127.937	-88.537	-9.285	-129.855	-125.780	-124.462	-119.711	-44.137	-122.396	-8191	255	
12381.526	1	1	0	0	0.092095	0.023705	0.081473	0.13515	0.14533	0.26814	0.13815	0.31805	0.22878	0.11022	0.17423	0.079029	0.19592	0.057527	0.31455	0.15865	-4.0125	-4.6979	-4.2125	-4.4563	-4.3583	-4.2188	-4.8063	-4.2771	-4.2188	-4.8146	-4.2104	-4.6937	-4.7583	-4.3458	-4.8708	-4.4313	185.078	-63.246	10.017	-95.983	-13.756	-115.519	158.986	108.460	-79.198	4.200	65.497	-37.003	116.780	156.044	-96.923	164.304	0.00091698	0.0005238	6.6026e-05	793.99	5.7905e-06	1.0126e-06	820.72	282.67	2.1484e-06	9.8286e-06	336.19	150.61	92.529	38.44	1.3181e-05	73.167	0.0013045	0.00134	0.00037496	761.04	1.4508e-05	1.4639e-05	786.88	270.48	1.425e-05	1.4348e-05	325.32	144.07	91.498	37.439	1.4214e-05	70.435	145.781	14.729	9.013	-132.266	-17.850	-28.203	-133.572	-128.245	148.176	-2.016	-129.553	-125.607	-124.244	-119.707	27.659	-122.522	-8191	255	
12381.622	1	1	0	0	0.317	0.0053085	0.022842	0.26482	0.23824	0.22877	0.11355	0.11194	0.1697	0.18352	0.23457	0.25381	0.069393	0.32799	0.208	0.067931	-3.8208	-4.7354	-4.1333	-4.5167	-4.6354	-4.1583	-4.7479	-4.5104	-4.1896	-4.8688	-4.3	-4.6562	-4.8083	-4.0625	-4.7104	-4.6125	152.225	-74.210	15.632	202.219	170.271	-82.047	133.777	205.384	-110.076	-2.908	155.107	-142.857	165.296	-133.404	204.932	202.585	0.0010691	0.00039342	0.00021282	800.5	6.5558e-06	1.2902e-05	820.79	282.24	7.8937e-06	2.6281e-06	336.15	146.61	91.191	37.475	4.5481e-06	71.21	0.0012731	0.0013192	0.00036836	759.12	1.4321e-05	1.4726e-05	785.25	269.56	1.5004e-05	1.5279e-05	324.7	141.97	90.738	36.512	1.5176e-05	68.831	148.796	3.101	-48.455	-132.220	-47.998	40.945	-133.423	-127.977	-125.641	60.192	-129.820	-126.292	-124.366	-119.680	-102.173	-122.314	-8191	255	
12381.743	1	1	0	0	0.13095	0.11363	0.022547	0.073403	0.081627	0.079407	0.18809	0.23844	0.30843	0.033466	0.19017	0.16927	0.27207	0.027195	0.066098	0.2466	-3.85	-4.75	-4.3187	-4.4146	-4.5917	-4.125	-4.6813	-4.5625	-4.2229	-4.8187	-4.3875	-4.4875	-4.7208	-4.3562	-4.5938	-4.55	-114.868	164.277	116.377	85.452	-118.299	70.778	119.364	118.240	-57.954	125.251	170.583	-90.255	205.517	-59.290	131.764	49.705	0.00084906	0.00056704	0.00027816	798.11	9.8385e-06	8.528e-06	819.57	280.45	6.9564e-06	6.8316e-06	335.25	147.15	92.06	37.902	3.6876e-06	72.85	0.0013312	0.0013798	0.00038009	759.84	1.4504e-05	1.4631e-05	785.03	268.9	1.4559e-05	1.4898e-05	324.35	142.05	90.601	36.857	1.481e-05	70.342	149.536	-40.330	-29.842	-132.197	3.094	4.165	-133.689	-128.211	185.301	210.507	-129.721	-125.835	-124.469	-119.706	-67.775	-122.161	-8191	255	
12381.839	1	1	0	0	0.26162	0.22415	0.04188	0.21963	0.29488	0.08938	0.10234	0.2756	0.10207	0.092317	0.24499	0.16671	0.23824	0.051403	0.1642	0.30394	-3.8604	-4.7354	-4.3438	-4.4417	-4.6104	-4.2771	-4.8458	-4.7833	-4.0938	-4.8792	-4.5	-4.3479	-4.8771	-4.2562	-4.6604	-4.7083	-26.117	-76.258	116.460	-128.715	157.800	188.337	154.499	169.932	155.787	24.386	172.324	209.445	119.504	-137.399	208.776	176.768	0.0008278	0.00057928	0.00040847	793.7	8.5351e-06	1.3277e-05	824.05	282.56	1.4193e-05	1.205e-06	339.23	150.76	93.179	38.422	7.035e-06	74.384	0.0012986	0.0013486	0.00037835	759.12	1.4455e-05	1.4544e-05	787.42	269.91	1.4265e-05	1.481e-05	327.42	144.52	91.852	37.506	1.4478e-05	71.544	154.321	-74.571	-85.631	-132.602	-60.041	18.471	-133.519	-128.145	-11.770	80.475	-129.794	-125.910	-124.191	-119.471	-93.662	-122.385	-8191	255	
12381.935	1	1	0	0	0.13947	0.15164	0.23322	0.070272	0.078425	0.11347	0.26466	0.25925	0.25571	0.15603	0.1925	0.12491	0.30781	0.029864	0.035023	0.11076	-3.725	-4.6729	-4.5854	-4.3333	-4.8396	-4.1708	-4.6646	-4.775	-4.0125	-4.7521	-4.5687	-4.2562	-4.8979	-4.325	-4.4417	-4.8083	106.781	59.302	173.271	-132.340	205.959	-75.503	126.054	165.565	107.351	148.016	161.326	-61.492	201.466	-88.529	-57.866	193.421	0.00087421	0.0011638	9.6205e-06	799.72	2.7632e-06	6.1726e-06	830.06	285.16	4.8614e-06	1.2457e-05	337.93	150.66	94.484	39.008	1.3261e-05	73.918	0.001261	0.0013306	0.00036909	762.59	1.4246e-05	1.4661e-05	792.43	272	1.4312e-05	1.4772e-05	328.07	144.74	92.518	37.822	1.4617e-05	71.001	146.383	-87.597	114.247	-132.464	-19.593	-109.976	-133.390	-128.321	-1.589	4.753	-129.892	-125.831	-124.084	-119.924	-25.346	-122.333	-8191	255	
12382.031	1	1	0	0	0.13149	0.22171	0.17619	0.21465	0.082412	0.29083	0.14945	0.29143	0.049976	0.19127	0.18954	0.17287	0.18904	0.17692	0.25427	0.06214	-3.8812	-4.6417	-4.4479	-4.2312	-4.8562	-4.3417	-4.55	-4.7979	-4.3125	-4.5667	-4.5458	-4.2667	-4.7583	-4.3521	-4.3333	-4.8042	192.817	64.704	194.597	-13.280	100.008	166.809	213.304	137.139	-103.990	-71.618	210.840	-128.510	137.700	103.570	-36.863	-48.729	0.001047	0.00072964	3.7258e-05	793.07	5.8359e-06	4.0565e-06	822.59	282.94	5.3034e-06	1.2298e-05	335.56	148.77	92.998	38.689	1.9171e-06	72.749	0.0012671	0.0013423	0.00037232	759.64	1.4229e-05	1.4531e-05	786.97	270.78	1.4353e-05	1.4632e-05	324.52	142.83	91.7	37.411	1.4487e-05	70.162	152.284	3.806	33.677	-132.369	-135.802	-141.243	-133.430	-127.994	15.964	180.100	-129.497	-125.694	-124.351	-119.727	133.988	-122.299	-8191	255	
12382.126	1	1	0	0	0.18953	0.23778	0.18647	0.12269	0.052082	0.26036	0.25758	0.21358	0.1577	0.061272	0.083007	0.11012	0.080025	0.076589	0.12678	0.15082	-3.8375	-4.5396	-4.4875	-4.2333	-4.7104	-4.35	-4.3458	-4.7708	-4.2562	-4.5437	-4.6396	-4.2229	-4.5938	-4.4542	-4.2208	-4.8521	-27.114	108.022	-72.921	178.514	-83.624	100.741	80.717	-137.362	198.672	-27.500	122.793	-75.348	34.270	-125.625	90.925	66.153	0.0011065	0.00098155	0.00023286	797.08	7.5695e-06	7.291e-06	820.19	282.07	1.1541e-05	5.5018e-06	333.03	146.69	91.897	37.993	8.9547e-06	71.952	0.0012721	0.0013259	0.00036675	756.74	1.4138e-05	1.4335e-05	783.19	269.11	1.4421e-05	1.4975e-05	322.18	141.56	90.727	36.884	1.5189e-05	69.387	145.161	-68.584	5.717	-132.461	-37.714	120.443	-133.661	-128.183	-55.690	-32.357	-129.894	-125.771	-124.523	-119.569	-45.399	-122.242	-8191	255	
12382.222	1	1	0	0	0.18024	0.14303	0.10534	0.04949	0.073735	0.31945	0.1515	0.2008	0.1344	0.31239	0.28011	0.15834	0.16643	0.40119	0.34673	0.18394	-3.8021	-4.4	-4.5563	-4.1479	-4.5083	-4.4771	-4.2875	-4.7188	-4.1896	-4.3729	-4.575	-4.2167	-4.6146	-4.6021	-4.1521	-4.8542	-134.312	52.426	105.239	190.875	86.009	145.908	182.190	67.251	100.553	-75.484	213.755	-114.386	169.144	167.059	-45.781	141.073	0.00099274	0.00055317	0.00010373	790.85	3.5834e-06	9.4814e-06	815.83	277.91	1.4457e-05	5.2435e-06	334.53	146.33	91.153	38.216	9.947e-06	72.792	0.0013575	0.0014385	0.00039758	756.99	1.5429e-05	1.5484e-05	783.95	266.97	1.5114e-05	1.5418e-05	323.33	141.82	90.325	37.091	1.5184e-05	70.378	143.845	-14.769	168.186	-132.548	22.948	-2.817	-133.706	-127.948	-105.180	156.550	-129.749	-126.033	-124.440	-119.743	-46.800	-122.572	-8191	255	
12382.318	1	1	0	0	0.16689	0.082118	0.1014	0.26672	0.069881	0.11268	0.13743	0.25863	0.064262	0.14051	0.08552	0.10264	0.16814	0.1569	0.15858	0.16042	-3.9896	-4.3479	-4.6917	-4.2188	-4.4958	-4.4792	-4.2438	-4.9146	-4.2937	-4.3562	-4.7875	-4.2917	-4.5375	-4.5146	-4.2125	-4.7229	-65.760	103.343	-39.827	191.616	-133.063	106.963	143.912	120.373	11.163	-75.025	-139.146	79.709	-145.990	164.968	202.159	-96.483	0.00094479	0.000962	0.00024142	787.48	9.7036e-06	1.1464e-05	832.59	279.45	1.6433e-05	1.1856e-05	339.38	153.55	93.187	40.338	7.1291e-06	78.093	0.0013498	0.001388	0.00038526	753.93	1.4895e-05	1.4798e-05	790.84	267.57	1.4283e-05	1.405e-05	327.37	146.92	92.4	39.08	1.3397e-05	75.057	146.100	-20.700	-89.598	-132.363	-33.573	9.800	-133.762	-128.267	-16.490	11.852	-129.925	-126.065	-124.260	-119.814	-94.113	-122.797	-8191	255	
12382.439	1	1	0	0	0.06477	0.20234	0.089746	0.50054	0.075953	0.10389	0.26371	0.26714	0.2307	0.22683	0.10023	0.088271	0.13301	0.071543	0.097238	0.14618	-4.0583	-4.2521	-4.6167	-4.1542	-4.4583	-4.4812	-4.3	-4.6708	-4.4021	-4.1729	-4.8021	-4.2604	-4.5208	-4.7792	-4.1021	-4.7063	146.599	-80.370	-30.599	157.115	124.817	-142.511	170.810	159.339	-71.741	-22.155	21.070	81.413	66.168	95.028	-103.014	-67.345	0.00084898	0.00024797	0.00022313	787.24	3.4356e-06	7.4954e-06	832.25	282.58	5.2378e-06	3.0512e-06	343.25	155.86	95.68	41.992	8.7234e-06	79.497	0.001202	0.0012353	0.00034	749.98	1.3382e-05	1.3712e-05	796.8	269.14	1.3433e-05	1.3589e-05	330.78	149.85	93.766	40.475	1.3207e-05	76.085	140.294	-28.706	-79.816	-132.463	-8.886	-84.093	-133.587	-127.772	-78.313	125.193	-129.537	-125.932	-124.001	-119.549	-15.478	-122.200	-8191	255	
12382.535	1	1	0	0	0.061203	0.16134	0.044241	0.064828	0.070803	0.23775	0.17198	0.097424	0.16058	0.20682	0.20067	0.2295	0.056991	0.022353	0.1171	0.34431	-4.1042	-4.2896	-4.725	-4.4208	-4.3854	-4.7688	-4.1771	-4.5167	-4.4917	-4.3021	-4.9354	-4.2854	-4.3812	-4.9104	-4.2063	-4.7208	44.133	30.573	126.506	-122.785	-127.904	45.538	206.936	202.605	50.793	168.622	159.938	-119.304	-39.788	168.905	66.030	146.025	0.00094228	0.0004809	0.00036887	784.97	3.1197e-06	9.916e-06	825	278.48	3.8507e-06	2.1578e-06	335.49	151.78	92.663	40.169	3.4779e-06	74.67	0.0011977	0.0012242	0.00034256	745.69	1.3377e-05	1.3632e-05	787.69	266.65	1.408e-05	1.4148e-05	324.61	146.11	92.475	38.98	1.488e-05	72.043	148.703	-131.029	-20.663	-132.455	-105.801	56.817	-133.413	-128.133	-102.157	89.369	-129.783	-125.999	-124.057	-119.749	-74.136	-122.449	-8191	255	
12382.631	1	1	0	0	0.10237	0.15597	0.069337	0.15312	0.27941	0.090611	0.12455	0.13017	0.087906	0.15185	0.28038	0.16776	0.11486	0.28622	0.089648	0.073116	-4.2229	-4.1979	-4.8583	-4.4333	-4.3562	-4.7438	-4.4104	-4.55	-4.4812	-4.1646	-4.8292	-4.2167	-4.1375	-4.6979	-4.0979	-4.5292	201.262	20.684	-96.165	118.458	28.788	26.914	29.419	178.369	124.107	92.627	147.528	205.037	-111.210	-89.905	158.634	97.973	0.0010394	0.0010235	0.00013128	785.77	6.7953e-06	8.1094e-06	818.99	277.64	3.6813e-06	5.5942e-06	330.57	146.79	91.477	38.391	1.1453e-05	72.493	0.0013209	0.0013763	0.00039237	752.45	1.5468e-05	1.5759e-05	784.7	266.48	1.5543e-05	1.5745e-05	320.71	141.91	90.85	37.479	1.5881e-05	70.037	134.712	-5.714	-92.625	-132.543	-11.108	16.696	-133.595	-128.248	17.008	-19.178	-130.078	-126.128	-124.367	-119.704	-65.959	-122.244	-8191	255	
12382.727	1	1	0	0	0.087249	0.23903	0.2329	0.011771	0.21215	0.13329	0.17055	0.25306	0.25035	0.1118	0.26425	0.12973	0.13095	0.10597	0.20554	0.17335	-4.2417	-4.1042	-4.6687	-4.5687	-4.1312	-4.7521	-4.375	-4.5021	-4.6417	-4.0125	-4.775	-4.4833	-4.1292	-4.7125	-4.2375	-4.4313	130.930	-120.901	134.820	156.496	58.081	20.236	138.878	116.191	93.279	-99.032	123.800	-27.059	187.095	167.964	52.880	-18.684	0.00087523	0.0003336	0.00030233	791.98	4.4383e-06	1.463e-05	813.27	277.04	3.6036e-06	2.1273e-06	330.5	145.79	90.554	38.014	5.7392e-06	71.87	0.0013899	0.0014476	0.00041194	754.7	1.575e-05	1.624e-05	782.04	265.73	1.5929e-05	1.6087e-05	320.31	140.85	90.048	37.05	1.5915e-05	69.659	145.214	-51.001	-105.199	-132.156	82.458	-21.880	-133.770	-128.033	102.071	122.877	-129.945	-125.973	-124.149	-119.745	47.966	-122.535	-8191	255	
12382.823	1	1	0	0	0.1648	0.093733	0.22396	0.08175	0.15262	0.074437	0.10097	0.10369	0.1325	0.076995	0.10351	0.16883	0.16295	0.20402	0.10374	0.23731	-4.3854	-3.9979	-4.7292	-4.5958	-4.1042	-4.7042	-4.3854	-4.3542	-4.7417	-4.2063	-4.6167	-4.6687	-4.1854	-4.6583	-4.4	-4.4479	134.013	52.230	-70.269	154.544	12.828	8.091	97.330	149.936	-103.361	19.477	118.527	166.600	-123.078	183.788	97.340	131.119	0.00096105	0.00017723	0.00020032	781.93	1.2487e-05	1.0595e-05	820.5	275.56	1.2191e-05	3.9115e-06	332.65	148.1	91.729	38.986	8.0699e-06	74.958	0.0013729	0.0014265	0.00040173	749.79	1.526e-05	1.528e-05	782.67	264.31	1.4482e-05	1.464e-05	321.19	142.79	90.028	37.863	1.4056e-05	72.149	139.925	-93.973	178.950	-132.417	47.773	-69.232	-133.752	-128.086	9.364	19.695	-130.068	-125.777	-124.529	-120.012	-20.034	-122.503	-8191	255	
12382.920	1	1	0	0	0.11917	0.15056	0.15291	0.16717	0.081995	0.19618	0.08478	0.20163	0.093848	0.19006	0.16057	0.10263	0.14243	0.019031	0.24121	0.1481	-4.4396	-4.2729	-4.4792	-4.5625	-4.0167	-4.8417	-4.3375	-4.3021	-4.7479	-4.225	-4.5458	-4.6813	-4.1979	-4.6417	-4.5479	-4.4042	26.358	177.012	-16.620	-135.777	104.673	87.981	5.653	-145.577	-48.980	11.703	201.631	137.825	-23.235	81.373	105.868	139.158	0.00109	0.0008975	8.4607e-05	779.27	1.2433e-05	6.5782e-07	818.36	275.13	3.7578e-06	5.2529e-06	336.08	152.53	92.38	40.836	2.5359e-06	77.978	0.0012563	0.0012917	0.00036091	740.67	1.3856e-05	1.4184e-05	784.62	261.88	1.375e-05	1.3894e-05	324.16	146.88	91.221	39.538	1.3448e-05	74.997	145.064	-126.189	-33.676	-132.437	-66.520	-18.764	-133.595	-128.079	-109.379	29.824	-129.488	-125.951	-124.325	-119.612	114.434	-122.402	-8191	255	
12383.016	1	1	0	0	0.14734	0.081517	0.035386	0.15756	0.10827	0.066559	0.091918	0.1615	0.13072	0.1083	0.13842	0.0929	0.17495	0.25887	0.072028	0.24063	-4.3625	-4.2396	-4.3979	-4.6146	-4.0958	-4.6729	-4.5083	-4.3146	-4.5854	-4.1646	-4.4812	-4.8104	-4.1396	-4.8	-4.475	-4.3271	-106.185	-118.672	-4.908	116.285	106.175	80.705	191.796	-6.388	116.361	210.267	-29.661	144.559	-143.223	165.954	87.960	113.340	0.00098975	0.00047812	0.00012502	770.5	2.4993e-06	5.5999e-06	823.06	274.41	5.6998e-06	9.2075e-06	333.66	151.85	92.72	40.925	7.0734e-06	76.674	0.0011937	0.001227	0.00034435	734.66	1.3376e-05	1.3664e-05	783.74	261.72	1.3426e-05	1.3673e-05	321.21	145.58	91.247	39.41	1.3399e-05	73.52	148.414	-90.185	177.837	-132.599	-1.631	44.244	-133.608	-128.062	-77.230	23.993	-130.226	-126.282	-124.600	-119.946	-38.569	-122.543	-8191	255	
12383.112	1	1	0	0	0.13732	0.04203	0.25534	0.31692	0.1024	0.2663	0.14959	0.031095	0.2426	0.047092	0.19597	0.047818	0.17926	0.11229	0.32326	0.13285	-4.5	-4.1854	-4.2521	-4.7188	-4.2312	-4.5354	-4.5833	-4.3625	-4.8375	-4.2792	-4.3292	-4.6729	-4.1562	-4.5813	-4.5833	-4.2104	-116.450	-110.293	-81.841	165.188	-82.378	119.329	179.042	54.112	-34.701	159.761	-129.869	168.286	176.999	147.883	90.102	76.052	0.0011002	0.00097837	0.00039276	769.14	4.8255e-06	1.8122e-06	816.92	272.88	2.3658e-06	1.049e-06	328.76	147.59	90.86	39.109	5.8302e-06	73.256	0.0012146	0.0012272	0.00035017	736.01	1.3445e-05	1.3859e-05	777.83	261.22	1.4015e-05	1.4415e-05	318.01	142.34	89.833	37.925	1.4484e-05	70.628	145.366	-45.986	-91.895	-132.624	52.309	120.171	-133.769	-127.974	213.891	188.477	-129.830	-126.325	-124.307	-119.748	183.588	-122.524	-8191	255	
#DATA ENDS
