BOXY.EXE: ISS Imagent and Oximeter Data Acquisition Program Version 0.80
Ascii Record File

#ACQ INFORMATION
2  Detector Channels 
16  External MUX Channels 
1  Auxiliary Channels 
5000  Waveform (CCF) Frequency (Hz)
1  Waveforms Skipped 
30  Waveforms Averaged 
1  Cycles Averaged 
16  Acquisitions per Waveform 
10.0806  Updata Rate (Hz) 

#FILE INFORMATION
TRUE -- External MUX Channel results are PARSED.
FALSE -- AC DC and Phase are NOT grouped.
TRUE -- Companion Program Settings File CREATED.
FALSE -- AC data not excluded
FALSE -- DC data not excluded
FALSE -- Phase data not excluded
FALSE -- Auxillary Chn. data not excluded
Tab delimiters

#CALIBRATION STATE
TRUE -- Waveform Calibration Values APPLIED.


#AUX CALIBRATION VALUES
Val Type	aux-1	

Term	1.0000e+00	
Factor	0.0000e+00	


#WF CALIBRATION VALUES
A = Detector Channel
Val Type	A-AC1	A-AC2	A-AC3	A-AC4	A-AC5	A-AC6	A-AC7	A-AC8	A-AC9	A-AC10	A-AC11	A-AC12	A-AC13	A-AC14	A-AC15	A-AC16	A-DC1	A-DC2	A-DC3	A-DC4	A-DC5	A-DC6	A-DC7	A-DC8	A-DC9	A-DC10	A-DC11	A-DC12	A-DC13	A-DC14	A-DC15	A-DC16	A-Ph1	A-Ph2	A-Ph3	A-Ph4	A-Ph5	A-Ph6	A-Ph7	A-Ph8	A-Ph9	A-Ph10	A-Ph11	A-Ph12	A-Ph13	A-Ph14	A-Ph15	A-Ph16	

Term	0.00000e+00	0.00000e+00	0.00000e+00	0.00000e+00	0.00000e+00	0.00000e+00	0.00000e+00	0.00000e+00	0.00000e+00	0.00000e+00	0.00000e+00	0.00000e+00	0.00000e+00	0.00000e+00	0.00000e+00	0.00000e+00	0.00000e+00	0.00000e+00	0.00000e+00	0.00000e+00	0.00000e+00	0.00000e+00	0.00000e+00	0.00000e+00	0.00000e+00	0.00000e+00	0.00000e+00	0.00000e+00	0.00000e+00	0.00000e+00	0.00000e+00	0.00000e+00	0.00000e+00	0.00000e+00	0.00000e+00	0.00000e+00	0.00000e+00	0.00000e+00	0.00000e+00	0.00000e+00	0.00000e+00	0.00000e+00	0.00000e+00	0.00000e+00	0.00000e+00	0.00000e+00	0.00000e+00	0.00000e+00	
Factor	1.00000e+00	1.00000e+00	1.00000e+00	1.00000e+00	1.00000e+00	1.00000e+00	1.00000e+00	1.00000e+00	1.00000e+00	1.00000e+00	1.00000e+00	1.00000e+00	1.00000e+00	1.00000e+00	1.00000e+00	1.00000e+00	1.00000e+00	1.00000e+00	1.00000e+00	1.00000e+00	1.00000e+00	1.00000e+00	1.00000e+00	1.00000e+00	1.00000e+00	1.00000e+00	1.00000e+00	1.00000e+00	1.00000e+00	1.00000e+00	1.00000e+00	1.00000e+00	X	X	X	X	X	X	X	X	X	X	X	X	X	X	X	X	

B = Detector Channel
Val Type	B-AC1	B-AC2	B-AC3	B-AC4	B-AC5	B-AC6	B-AC7	B-AC8	B-AC9	B-AC10	B-AC11	B-AC12	B-AC13	B-AC14	B-AC15	B-AC16	B-DC1	B-DC2	B-DC3	B-DC4	B-DC5	B-DC6	B-DC7	B-DC8	B-DC9	B-DC10	B-DC11	B-DC12	B-DC13	B-DC14	B-DC15	B-DC16	B-Ph1	B-Ph2	B-Ph3	B-Ph4	B-Ph5	B-Ph6	B-Ph7	B-Ph8	B-Ph9	B-Ph10	B-Ph11	B-Ph12	B-Ph13	B-Ph14	B-Ph15	B-Ph16	

Term	0.00000e+00	0.00000e+00	0.00000e+00	0.00000e+00	0.00000e+00	0.00000e+00	0.00000e+00	0.00000e+00	0.00000e+00	0.00000e+00	0.00000e+00	0.00000e+00	0.00000e+00	0.00000e+00	0.00000e+00	0.00000e+00	0.00000e+00	0.00000e+00	0.00000e+00	0.00000e+00	0.00000e+00	0.00000e+00	0.00000e+00	0.00000e+00	0.00000e+00	0.00000e+00	0.00000e+00	0.00000e+00	0.00000e+00	0.00000e+00	0.00000e+00	0.00000e+00	-1.84242e+02	-1.31288e+02	-1.21626e+02	-1.81577e+02	-7.85704e+01	-6.40695e+01	-1.57418e+02	-1.62015e+02	-9.27530e+01	-5.43537e+01	-1.71140e+02	-1.72811e+02	-1.83937e+02	-1.76769e+02	-8.70099e+01	-1.49549e+02	
Factor	3.59974e-05	1.57676e-04	5.33321e-05	1.56162e-01	1.60835e-06	2.14125e-06	1.73087e-01	5.61743e-02	1.99634e-06	1.80400e-06	9.22686e-02	3.72187e-02	3.89265e-02	9.91070e-03	1.84539e-06	1.43689e-02	3.91198e-06	4.30745e-06	1.20086e-06	7.79773e-02	4.62936e-08	4.73652e-08	8.15129e-02	2.80165e-02	4.65171e-08	4.73618e-08	4.47915e-02	1.80050e-02	1.94850e-02	4.98058e-03	4.68586e-08	6.99640e-03	X	X	X	X	X	X	X	X	X	X	X	X	X	X	X	X	



#DISTANCE SETTINGS
A = Detector Channel
A-1	A-2	A-3	A-4	A-5	A-6	A-7	A-8	A-9	A-10	A-11	A-12	A-13	A-14	A-15	A-16	

2.5000e+00	3.0000e+00	2.5000e+00	3.0000e+00	2.0000e+00	3.0000e+00	1.5000e+00	3.0000e+00	3.0000e+00	3.0000e+00	3.0000e+00	3.0000e+00	3.0000e+00	3.0000e+00	1.5000e+00	3.0000e+00	

B = Detector Channel
B-1	B-2	B-3	B-4	B-5	B-6	B-7	B-8	B-9	B-10	B-11	B-12	B-13	B-14	B-15	B-16	

1.0000e+01	1.0000e+01	1.0000e+01	1.4400e+00	1.0000e+01	1.0000e+01	1.5100e+00	1.9400e+00	1.0000e+01	1.0000e+01	1.9900e+00	2.4900e+00	2.4100e+00	2.9000e+00	1.0000e+01	2.9800e+00	




#DATA BEGINS
time	group	step	mark	flag	A-AC1	A-AC2	A-AC3	A-AC4	A-AC5	A-AC6	A-AC7	A-AC8	A-AC9	A-AC10	A-AC11	A-AC12	A-AC13	A-AC14	A-AC15	A-AC16	A-DC1	A-DC2	A-DC3	A-DC4	A-DC5	A-DC6	A-DC7	A-DC8	A-DC9	A-DC10	A-DC11	A-DC12	A-DC13	A-DC14	A-DC15	A-DC16	A-Ph1	A-Ph2	A-Ph3	A-Ph4	A-Ph5	A-Ph6	A-Ph7	A-Ph8	A-Ph9	A-Ph10	A-Ph11	A-Ph12	A-Ph13	A-Ph14	A-Ph15	A-Ph16	B-AC1	B-AC2	B-AC3	B-AC4	B-AC5	B-AC6	B-AC7	B-AC8	B-AC9	B-AC10	B-AC11	B-AC12	B-AC13	B-AC14	B-AC15	B-AC16	B-DC1	B-DC2	B-DC3	B-DC4	B-DC5	B-DC6	B-DC7	B-DC8	B-DC9	B-DC10	B-DC11	B-DC12	B-DC13	B-DC14	B-DC15	B-DC16	B-Ph1	B-Ph2	B-Ph3	B-Ph4	B-Ph5	B-Ph6	B-Ph7	B-Ph8	B-Ph9	B-Ph10	B-Ph11	B-Ph12	B-Ph13	B-Ph14	B-Ph15	B-Ph16	aux-1	digaux	

12401.812	1	1	0	512	0.13402	0.21773	0.16801	0.050172	0.060514	0.25552	0.059688	0.1506	0.19109	0.0098491	0.13722	0.1713	0.24329	0.28904	0.22131	0.19669	-4.3167	-4.45	-4.3958	-4.9792	-4.35	-4.3	-4.9292	-4.2937	-4.5083	-4.4563	-4.0625	-4.8313	-4.2375	-4.5375	-4.7417	-4.3021	156.183	-65.677	-34.854	23.977	2.502	45.954	-62.178	-102.228	141.942	187.908	150.757	202.521	211.840	185.912	11.095	149.721	0.0003331	0.00067647	0.00064683	652.36	2.4182e-05	2.7136e-05	771.19	234.15	4.7406e-05	6.9039e-06	338.31	126.93	70.618	32.66	1.1013e-05	65.77	0.023865	0.02566	0.0070554	1060.2	0.00026167	0.00026291	1163.7	367.76	0.00024501	0.00024583	543.61	209.74	164.98	55.907	0.00023663	97.372	146.236	216.888	-24.815	-99.107	57.269	190.658	-100.252	-95.039	203.066	229.286	-95.920	-91.767	-89.967	-84.739	61.033	-86.905	-8191	255	
12401.908	1	1	0	0	0.04908	0.22219	0.17905	0.18125	0.064687	0.041645	0.24551	0.11574	0.098969	0.11822	0.32952	0.19657	0.086987	0.14428	0.16591	0.017774	-4.3021	-4.6917	-3.9896	-4.8375	-4.3083	-4.3521	-4.9708	-4.2917	-4.5813	-4.7708	-4.0458	-4.7854	-4.3083	-4.2	-4.8125	-4.2792	98.219	92.574	-16.354	-32.208	7.675	-75.350	152.436	58.031	-6.391	45.666	177.526	188.425	177.640	222.775	93.858	-7.473	0.00099098	0.0013372	0.00034237	655.66	3.0787e-05	3.6186e-05	775.73	237.86	1.7906e-05	2.043e-05	339.19	127.44	72.671	33.169	1.1803e-05	65.689	0.019844	0.021654	0.0060261	1006.5	0.00023239	0.00023723	1132.1	361.72	0.00023426	0.00023911	542.88	210.82	166.51	56.646	0.00024048	98.129	203.049	-2.637	220.303	-98.988	-26.729	179.797	-100.055	-94.791	21.020	160.194	-95.888	-92.000	-90.586	-84.553	88.543	-86.686	-8191	255	
12402.004	1	1	0	0	0.13768	0.127	0.059952	0.37091	0.18443	0.11016	0.21245	0.25446	0.045489	0.31927	0.20945	0.15933	0.1147	0.27093	0.089442	0.2429	-4.1292	-4.7271	-4.2021	-4.7229	-4.3562	-4.1479	-4.7667	-4.3562	-4.5625	-4.7625	-4.2896	-4.7792	-4.6292	-4.2458	-4.9667	-4.5062	202.745	84.501	239.121	212.575	187.079	-7.368	204.810	176.448	-62.867	45.252	173.456	-78.520	81.474	184.291	-35.988	185.460	0.00056451	0.0026242	0.00086557	657.39	2.0537e-05	3.1975e-05	778.8	235.38	3.4745e-05	4.5435e-06	338.96	126.54	72.658	32.907	1.3332e-05	64.562	0.020341	0.022306	0.0062721	1027	0.00024333	0.00025065	1161.2	370.81	0.00024965	0.00025412	557.4	216.51	172.43	58.168	0.0002594	100.03	161.236	73.447	-19.480	-98.988	158.173	-44.193	-99.585	-95.281	-49.620	145.352	-95.895	-91.798	-90.578	-85.074	88.658	-87.028	-8191	255	
12402.125	1	1	0	0	0.25053	0.21112	0.17745	0.17746	0.059241	0.10737	0.15208	0.0343	0.10857	0.14166	0.22623	0.23939	0.047271	0.17411	0.16415	0.14689	-4.0521	-4.7646	-4.0687	-4.6312	-4.6708	-4.2333	-4.7479	-4.6	-4.4646	-4.8333	-4.3646	-4.6813	-4.7	-4.1937	-4.7583	-4.6417	162.889	-43.094	123.645	168.809	229.252	-112.493	-61.255	181.365	26.441	-44.048	135.797	29.010	25.587	-66.864	-75.099	121.451	0.00097101	0.0029681	0.00076829	657.91	1.292e-05	2.3285e-05	773.87	235.29	5.1893e-05	3.5288e-05	337.2	125.25	69.488	31.789	3.4331e-05	63.812	0.021941	0.0243	0.0068056	1061.9	0.00026578	0.00027328	1197.5	385.13	0.00027537	0.00028272	583.15	225.79	183.2	60.161	0.00028354	102.65	188.895	1.448	-45.427	-98.877	233.856	-76.510	-100.081	-94.695	102.983	143.100	-95.939	-92.119	-89.849	-84.665	82.961	-87.299	-8191	255	
12402.197	1	1	0	0	0.13184	0.082233	0.10314	0.14358	0.14088	0.062317	0.13276	0.10857	0.22131	0.078121	0.12365	0.10685	0.046217	0.23307	0.079466	0.15699	-3.9313	-4.6958	-4.15	-4.625	-4.7167	-4.2438	-4.8771	-4.5208	-4.2896	-4.7729	-4.3792	-4.5104	-4.8146	-4.1687	-4.7646	-4.6	220.965	145.353	179.102	219.555	229.773	187.087	224.173	146.542	189.412	190.026	-68.606	64.135	200.987	153.454	135.029	228.592	0.00044085	0.0030041	0.0010413	654.21	1.2811e-05	6.1189e-05	769.57	233.86	1.5576e-05	9.1737e-06	334.49	123.29	69.55	31.63	1.2935e-05	64.154	0.023613	0.025824	0.0071695	1074.7	0.00027388	0.00027998	1203.5	385.66	0.00027842	0.00028679	584.97	226.64	185.11	60.597	0.00029298	103.95	40.053	91.652	-72.638	-98.976	159.967	-51.189	-99.938	-94.860	177.824	67.201	-96.129	-91.636	-90.842	-84.934	122.167	-87.064	-8191	255	
12402.293	1	1	0	0	0.19868	0.025206	0.10225	0.098697	0.1025	0.23487	0.096677	0.0965	0.14645	0.098933	0.1211	0.10928	0.060018	0.078416	0.19232	0.055953	-3.8167	-4.9125	-4.4417	-4.5375	-4.6854	-4.2188	-4.8021	-4.5	-4.25	-4.8521	-4.5229	-4.4417	-4.8292	-4.175	-4.6229	-4.6583	123.142	77.256	127.625	205.519	159.951	-99.163	223.941	210.244	-20.788	157.697	32.090	212.026	-49.461	105.099	-78.015	227.763	0.00067272	0.0043626	0.0008089	659.73	1.447e-05	2.1132e-05	774.26	234.82	3.3168e-05	1.87e-05	335.31	125.42	70.639	32.287	8.3295e-06	65.404	0.024404	0.026925	0.0074483	1093.6	0.00028416	0.00028897	1218.5	389.89	0.00027916	0.00028459	581.68	224.31	180.58	59.554	0.00027237	101.65	102.662	217.475	106.780	-98.617	-46.518	185.198	-99.967	-94.679	44.314	132.317	-96.338	-92.201	-90.168	-84.732	-2.661	-86.995	-8191	255	
12402.389	1	1	0	0	0.20778	0.20398	0.20131	0.12975	0.1996	0.094008	0.16002	0.1089	0.056672	0.11033	0.18136	0.24907	0.11908	0.074055	0.035811	0.092345	-3.7313	-4.7167	-4.4167	-4.3167	-4.8	-4.1354	-4.6083	-4.7271	-4.0979	-4.875	-4.5729	-4.3521	-4.8562	-4.2167	-4.4125	-4.7771	-74.107	-90.294	-5.033	158.980	-33.603	176.013	163.812	197.639	-22.674	-46.587	201.322	-86.333	-100.413	236.537	38.967	171.624	0.00078304	0.0023764	0.0011984	659.02	2.5376e-05	8.3717e-06	774.32	236.5	2.4501e-05	3.6248e-05	340.79	127.13	70.632	33.125	1.6544e-05	66.016	0.02202	0.02415	0.0066056	1035.5	0.00024778	0.00025197	1155.3	367.19	0.00024179	0.0002473	548.18	212.29	168.08	56.857	0.00024504	98.697	149.795	-71.853	-111.229	-98.697	27.669	223.892	-100.133	-94.704	155.694	187.968	-95.700	-91.693	-90.600	-84.853	-45.436	-87.051	-8191	255	
12402.485	1	1	0	0	0.19652	0.084148	0.31758	0.15748	0.19865	0.11462	0.15685	0.2576	0.12503	0.18613	0.14534	0.057018	0.19364	0.12218	0.31425	0.36496	-3.7771	-4.6333	-4.4437	-4.2854	-4.9938	-4.2167	-4.5083	-4.7125	-4.2833	-4.7937	-4.725	-4.3063	-4.8792	-4.2125	-4.5667	-4.8208	145.751	-22.850	203.703	27.138	-77.435	222.098	101.047	223.275	12.618	235.381	-67.209	245.632	-108.684	-92.647	-9.914	-71.889	0.00097479	0.00018993	0.00032819	661.2	8.4717e-06	2.1175e-05	777.42	237.06	2.0529e-05	5.6656e-05	336.92	125.8	71.867	32.401	2.1229e-05	65.103	0.02035	0.022573	0.0062899	1021.8	0.00024394	0.00024951	1159.1	369.39	0.0002469	0.00025418	554.76	214.34	172.21	57.756	0.00025615	99.435	128.046	37.329	-62.490	-98.811	131.170	106.794	-100.174	-94.663	178.409	8.666	-95.531	-91.858	-90.596	-84.130	51.425	-86.960	-8191	255	
12402.606	1	1	0	0	0.21296	0.051909	0.030443	0.17085	0.16397	0.10654	0.29217	0.11836	0.10852	0.13786	0.17882	0.17525	0.19892	0.11268	0.17703	0.13391	-3.8187	-4.5625	-4.5437	-4.3146	-4.6896	-4.3583	-4.6208	-4.7104	-4.1333	-4.5938	-4.5896	-4.1896	-4.675	-4.3646	-4.2833	-4.85	199.271	66.565	-49.126	209.307	164.980	-90.546	216.306	-83.666	212.211	41.796	-107.192	174.364	97.663	-69.221	32.099	143.034	0.00085822	0.0012615	0.0010613	659.55	1.0964e-05	3.5213e-05	775.34	234.97	2.5153e-05	2.1501e-05	334.63	125.46	70.207	32.39	2.1757e-05	64.678	0.021488	0.023888	0.0066404	1043.2	0.00025693	0.00026251	1175.9	374.42	0.00025648	0.00026236	558.77	215.14	173.35	57.749	0.00025789	99.636	125.922	-10.007	8.917	-99.065	215.984	176.170	-99.826	-94.643	67.489	-14.183	-95.539	-91.895	-90.442	-84.794	53.906	-86.596	-8191	255	
12402.700	1	1	0	0	0.10921	0.15459	0.18397	0.0095004	0.27086	0.060116	0.2724	0.04878	0.08651	0.13446	0.070269	0.12317	0.20539	0.081657	0.22456	0.12798	-4.0167	-4.5479	-4.5604	-4.2479	-4.9313	-4.2812	-4.4125	-4.8958	-4.2063	-4.6354	-4.725	-4.3063	-4.6667	-4.4479	-4.1562	-4.9583	151.454	173.182	234.255	-59.376	-75.418	232.403	215.943	-99.230	18.800	119.818	193.419	133.434	214.331	120.127	-28.517	204.368	0.00024027	0.002999	0.00017449	654.83	3.3235e-07	1.7491e-05	771.77	235.94	3.0166e-05	6.7065e-06	335.44	124.29	70.092	31.784	2.5882e-05	64.352	0.021837	0.024343	0.0067867	1053.4	0.00026669	0.00027376	1192.5	382.17	0.0002704	0.0002783	573.89	221.21	179.36	59.029	0.00027036	101.09	126.927	37.394	105.174	-98.569	214.852	233.063	-99.804	-94.528	-37.609	56.785	-96.065	-92.008	-90.060	-84.666	-96.896	-86.800	-8191	255	
12402.798	1	1	0	0	0.14093	0.25152	0.061567	0.28064	0.11924	0.20572	0.17072	0.24971	0.1185	0.20913	0.21397	0.11169	0.063602	0.13987	0.17427	0.17685	-3.8917	-4.5	-4.5687	-4.1896	-4.7521	-4.5625	-4.3542	-5.0021	-4.3896	-4.4563	-4.8833	-4.3667	-4.7083	-4.7312	-4.1396	-4.8375	136.280	-110.967	17.833	151.689	165.260	4.956	32.535	164.380	207.398	-12.266	190.784	184.469	170.313	-70.975	174.502	163.116	0.0006795	0.0026473	0.00051237	657.4	1.2785e-05	3.7152e-05	774.38	234.98	1.2345e-05	2.6391e-05	333.68	125.56	71.139	32.572	2.8478e-05	65.684	0.02247	0.024705	0.0068293	1052	0.00026417	0.00026932	1185.7	380.05	0.0002667	0.00027394	573.52	222.64	181.38	59.976	0.00027887	104.17	126.529	206.517	224.422	-98.942	-78.473	-27.414	-99.626	-94.600	167.286	85.577	-96.027	-91.578	-90.272	-84.654	4.141	-86.738	-8191	255	
12402.893	1	1	0	0	0.067427	0.010342	0.10248	0.35302	0.085965	0.097055	0.11461	0.23197	0.066857	0.14778	0.077969	0.22513	0.15749	0.2451	0.080473	0.2002	-4.0292	-4.3708	-4.8271	-4.3625	-4.7583	-4.5479	-4.2396	-4.7	-4.3562	-4.175	-4.7479	-4.2771	-4.5312	-4.7438	-4.2104	-4.8271	80.478	24.996	116.556	144.016	7.955	-59.465	-35.723	212.403	79.880	-6.196	-58.980	-83.111	-67.053	193.650	-29.196	-100.212	0.00099925	0.0013873	0.00078954	656.92	3.8437e-05	3.4264e-05	778.33	237.74	6.1251e-05	4.4676e-05	340.54	126.3	71.54	32.923	7.4253e-06	66.19	0.023672	0.026049	0.0072605	1084	0.00028041	0.00028585	1213.6	390.48	0.00027755	0.00028267	583.62	225.5	182.93	60.333	0.0002757	103.78	126.588	44.066	-27.913	-98.708	246.590	72.728	-100.187	-94.716	21.019	50.510	-95.988	-91.458	-91.261	-84.634	-58.138	-86.718	-8191	255	
12402.989	1	1	0	0	0.18152	0.1498	0.15378	0.34272	0.15791	0.068523	0.35382	0.34776	0.068988	0.026137	0.070001	0.24624	0.1413	0.05435	0.24138	0.14291	-4.1062	-4.3417	-4.875	-4.1958	-4.2583	-4.7063	-4.2396	-4.675	-4.3958	-4.3958	-4.9042	-4.1875	-4.3313	-4.7729	-4.0687	-4.7083	-54.255	-27.506	209.580	189.345	123.452	151.367	181.264	173.215	49.296	-46.698	201.634	-108.663	141.575	176.066	45.093	175.335	0.001467	0.0032748	0.0013941	658.59	3.2181e-05	2.7517e-05	778.57	238.36	1.9055e-06	1.8396e-05	336.07	126.88	71.9	32.846	3.584e-05	65.56	0.023001	0.025188	0.0070246	1069.4	0.00026913	0.00027318	1195.9	383.07	0.00026491	0.00026844	567.43	220.44	178.11	59.272	0.00026765	102.46	107.280	-44.048	147.811	-99.057	198.541	-101.492	-100.079	-95.002	-1.975	43.706	-95.990	-91.694	-89.766	-85.052	153.893	-86.802	-8191	255	
12403.085	1	1	0	0	0.11737	0.13176	0.37745	0.076345	0.11119	0.14632	0.19498	0.24175	0.056599	0.15606	0.18785	0.23879	0.15027	0.099908	0.16893	0.19799	-4.2146	-4.25	-4.8208	-4.3917	-4.475	-4.7583	-4.2104	-4.7	-4.6167	-4.2292	-5.0188	-4.5	-4.5563	-4.8417	-4.4729	-4.6979	91.133	-83.119	193.064	212.164	-86.877	-83.771	214.635	233.455	118.594	188.984	-61.306	227.540	-78.936	155.862	-53.594	-76.788	0.0011042	0.0037684	0.00069879	660.21	4.2665e-05	3.5528e-05	776.58	234.94	4.1383e-05	3.0506e-05	333.87	123.95	70.042	31.883	4.8781e-05	64.329	0.022869	0.0254	0.0071524	1081.8	0.00028262	0.00029144	1230.7	398.4	0.00029746	0.00030495	605.18	234.95	194.46	62.986	0.00031076	107.23	167.379	14.284	59.518	-98.609	47.121	-16.458	-100.053	-94.696	18.402	98.863	-96.186	-91.568	-90.407	-84.640	-50.107	-86.733	-8191	255	
12403.205	1	1	0	0	0.18911	0.18786	0.17148	0.14737	0.064928	0.17836	0.15636	0.18623	0.093481	0.13578	0.079067	0.18773	0.17286	0.27438	0.22102	0.17703	-4.3646	-4.2188	-4.85	-4.4688	-4.2937	-4.7979	-4.2625	-4.6708	-4.3917	-4.1396	-4.8396	-4.4958	-4.3812	-4.8688	-4.1917	-4.6208	-44.051	160.486	191.687	-28.438	65.510	201.725	106.804	169.131	37.006	56.534	153.718	-74.550	230.685	174.068	33.245	-111.594	0.00063408	0.0047168	0.0017454	653.49	2.071e-05	2.2052e-05	765.85	235.48	2.0472e-05	2.7855e-05	329.91	123.15	69.205	31.437	1.189e-05	63.037	0.026027	0.0286	0.0080154	1132	0.00030981	0.00031774	1265.5	408.02	0.00031445	0.00032088	615.94	238.45	197.75	63.642	0.000317	107.39	86.888	-54.617	2.119	-99.029	202.280	-64.828	-100.048	-94.578	-15.985	116.957	-96.278	-91.851	-90.558	-84.822	48.837	-87.101	-8191	255	
12403.302	1	1	0	0	0.14548	0.11701	0.10267	0.13108	0.1732	0.15898	0.11026	0.18351	0.065818	0.085235	0.16216	0.14647	0.14639	0.047729	0.11751	0.17224	-4.4	-4.2208	-4.7167	-4.4396	-4.1562	-4.7646	-4.3083	-4.5292	-4.6167	-4.0292	-4.6875	-4.6854	-4.3313	-4.925	-4.1146	-4.65	127.101	53.771	117.277	154.244	39.137	101.429	15.447	114.457	-24.125	63.410	176.655	18.781	182.460	133.238	-19.826	165.721	0.00082325	0.0037999	0.00055166	649.6	1.5301e-05	3.0902e-05	771.3	232.6	3.406e-05	4.7768e-06	330.84	124.2	69.631	31.653	7.8187e-06	65.03	0.026252	0.028538	0.0079486	1114.7	0.00029648	0.00030237	1234.5	394.11	0.00029005	0.00029643	592.07	229.22	187.53	61.437	0.00029359	104.85	93.006	166.884	27.698	-98.944	228.260	-81.716	-99.850	-94.607	177.789	46.933	-95.853	-91.761	-90.438	-85.003	120.942	-86.896	-8191	255	
12403.398	1	1	0	0	0.20812	0.11057	0.08658	0.30036	0.14709	0.08088	0.12789	0.17916	0.15601	0.19615	0.10211	0.2998	0.060085	0.03144	0.090443	0.13459	-4.4146	-4.05	-4.5625	-4.6604	-4.2542	-4.825	-4.3479	-4.4729	-4.7292	-4.1792	-4.7312	-4.6625	-4.1312	-4.8354	-4.3562	-4.4563	-103.502	161.144	-10.499	239.738	-75.223	243.641	184.807	236.044	86.117	63.165	85.394	157.204	-83.828	20.269	177.945	242.226	0.00037259	0.0050461	0.0017437	653.76	4.495e-05	1.0251e-05	771.24	235.86	1.4084e-05	3.962e-05	333.07	124.93	71.238	32.608	2.3974e-05	66.46	0.024415	0.026781	0.007518	1090.6	0.00028499	0.00029238	1224.7	391.47	0.00028272	0.00028818	584.35	226.95	184.35	61.132	0.00028488	104.7	-37.681	-63.369	115.601	-98.679	-103.944	4.046	-100.438	-94.584	167.081	206.506	-95.819	-91.565	-89.985	-84.084	97.009	-87.010	-8191	255	
12403.494	1	1	0	0	0.14896	0.10803	0.17548	0.094457	0.10138	0.12406	0.1692	0.16414	0.14909	0.34894	0.10542	0.067372	0.17902	0.14631	0.14034	0.087218	-4.4021	-4.1917	-4.625	-4.7792	-4.1271	-4.7604	-4.4146	-4.3667	-4.8979	-4.1667	-4.5604	-4.7333	-4.1396	-4.7833	-4.45	-4.4563	54.563	174.427	120.681	89.456	217.144	36.619	-88.352	238.135	237.045	-3.548	-100.168	126.157	243.320	227.468	23.363	153.013	0.0001191	0.0024517	0.0016602	657.64	1.6747e-05	2.3788e-05	777.87	235.33	3.4377e-05	1.9232e-05	335.22	126.11	71.248	32.806	6.4558e-06	65.251	0.023779	0.026202	0.0073629	1088.3	0.00028263	0.00029367	1232.3	394.75	0.0002915	0.00029754	595.64	231.19	188.34	62.281	0.00029195	104.7	46.020	11.567	244.543	-99.206	-91.012	172.026	-100.103	-94.832	44.180	6.220	-96.220	-91.658	-90.257	-84.643	199.921	-87.124	-8191	255	
12403.590	1	1	0	0	0.092087	0.12118	0.033319	0.073096	0.15018	0.27365	0.20997	0.41476	0.11753	0.24229	0.060448	0.029416	0.27705	0.07922	0.13244	0.04826	-4.5042	-4.1542	-4.4896	-4.6854	-4.1417	-4.6854	-4.5958	-4.3438	-4.775	-4.4208	-4.6687	-4.8521	-4.1854	-4.8292	-4.4938	-4.2438	198.920	-70.664	-23.781	157.573	12.629	41.631	117.969	187.634	226.917	-49.254	159.521	-51.147	-23.780	-95.619	-83.220	30.768	0.00049731	0.0011679	0.00020623	650.99	1.9187e-05	3.0366e-05	777.19	234.27	1.6911e-05	2.8204e-05	332.35	125.15	70.837	32.425	2.6865e-05	64.613	0.024069	0.026214	0.0072819	1074.5	0.00027532	0.00028135	1201.9	382.5	0.00027447	0.00027862	572.64	222.2	179.68	60.124	0.0002767	102.76	167.583	160.826	138.027	-99.006	215.224	60.855	-99.881	-94.840	-73.808	90.963	-96.081	-91.883	-89.797	-85.477	-92.493	-86.781	-8191	255	
12403.686	1	1	0	0	0.11038	0.21079	0.20031	0.10031	0.067255	0.21511	0.21395	0.079468	0.30775	0.25618	0.058999	0.079211	0.11955	0.27579	0.091287	0.14047	-4.4104	-4.3854	-4.3021	-4.8292	-4.0271	-4.4187	-4.5958	-4.1542	-4.7458	-4.4083	-4.3792	-4.6479	-4.3104	-4.5271	-4.4688	-4.2667	154.854	31.252	-6.365	-100.648	34.941	181.442	214.614	139.870	92.492	-98.427	-50.077	-101.345	66.447	-73.718	-20.812	233.871	0.000313	0.00072054	0.00082192	656.93	5.4278e-06	3.4509e-05	764.42	231.53	5.9338e-05	3.0019e-05	329.38	123.76	70.169	32.135	4.4475e-05	64.829	0.023609	0.026154	0.0073362	1083.8	0.00028341	0.00029371	1220.1	388.3	0.00028802	0.00029283	583.16	226.08	183.59	60.746	0.00028191	102.65	204.814	-8.937	206.078	-98.863	10.657	208.429	-100.154	-94.897	145.266	19.896	-96.170	-91.813	-91.403	-84.991	27.980	-87.116	-8191	255	
12403.781	1	1	0	0	0.094279	0.12993	0.1145	0.10291	0.064668	0.15116	0.32558	0.12554	0.14549	0.105	0.33316	0.23192	0.29455	0.29903	0.039376	0.14365	-4.3625	-4.3875	-4.1854	-4.8667	-4.2583	-4.4771	-4.7646	-4.1292	-4.6833	-4.4042	-4.3542	-4.8271	-4.0938	-4.4812	-4.4896	-4.2229	-6.798	26.907	90.246	219.568	173.422	-83.044	169.900	83.363	9.309	126.123	-89.605	-53.850	-25.134	131.950	105.311	-26.010	0.00033385	0.0036499	0.0017047	649.05	2.5886e-05	4.3325e-05	763.88	230.07	2.1723e-05	3.5688e-05	328.16	125.06	69.566	31.891	2.2363e-05	64.839	0.023389	0.025456	0.0070967	1061.4	0.00027174	0.00027972	1194.2	378.19	0.00027438	0.00027809	567.96	221.62	178.46	59.435	0.00027153	101.58	98.799	177.737	44.097	-98.989	32.778	185.273	-100.161	-94.942	44.298	128.828	-95.972	-92.160	-90.855	-85.299	-52.223	-87.558	-8191	255	
12403.901	1	1	0	0	0.15404	0.14868	0.37112	0.17333	0.16616	0.18041	0.071161	0.26959	0.069394	0.14839	0.20447	0.057523	0.25036	0.13637	0.17	0.088569	-4.3021	-4.4125	-4.2812	-4.8	-4.2646	-4.4521	-4.8313	-4.1917	-4.6417	-4.6167	-4.3375	-4.8646	-4.3271	-4.6604	-4.8667	-4.0292	-82.148	14.480	-27.380	241.946	22.934	-24.916	-24.131	156.884	195.396	95.130	226.595	220.505	157.190	-80.662	-77.674	193.771	0.00021435	0.00076283	0.00093992	642.38	1.5824e-05	1.9867e-05	768.51	227.1	4.1335e-05	1.7187e-05	328.18	124.54	68.748	32.52	9.6518e-06	65.352	0.022662	0.024591	0.0068211	1040	0.00026064	0.00026711	1174.1	369.01	0.00025999	0.00026456	556.09	217.64	174.76	58.682	0.00026408	101.47	138.042	42.327	47.303	-99.344	176.218	62.594	-100.169	-95.078	-29.240	66.229	-96.217	-91.650	-90.230	-84.734	-36.954	-87.097	-8191	255	
12403.997	1	1	0	0	0.033809	0.23184	0.28431	0.12023	0.059499	0.024036	0.16842	0.16204	0.087194	0.078195	0.29686	0.17379	0.098474	0.31496	0.20258	0.047741	-4.1375	-4.6792	-4.1354	-4.8146	-4.4521	-4.4271	-4.8271	-4.2188	-4.4604	-4.4042	-4.1854	-4.6792	-4.4792	-4.3438	-4.7021	-4.3271	197.666	96.380	-35.763	239.741	224.117	58.954	94.970	213.780	18.870	173.142	183.555	156.631	-19.837	174.608	17.881	-103.775	0.00087524	0.0013655	0.00046409	646.99	4.1123e-05	2.4956e-05	773.23	227.45	3.8667e-05	2.105e-05	328.24	124.45	68.936	32.363	1.7003e-06	64.724	0.022364	0.02437	0.0067858	1042.9	0.00026156	0.00026764	1179.4	371.06	0.00026396	0.00026874	560.31	219.53	177.4	59.314	0.00027813	103.11	200.814	148.190	99.099	-99.296	197.456	-43.035	-100.381	-95.091	-44.050	223.447	-96.398	-91.509	-90.202	-84.346	-60.578	-87.256	-8191	255	
12404.069	1	1	0	0	0.20973	0.21996	0.023133	0.095746	0.086635	0.28049	0.26236	0.16414	0.084788	0.11681	0.36894	0.058486	0.29254	0.14988	0.11444	0.17529	-4.3104	-4.5938	-4.2812	-4.8479	-4.35	-4.2042	-4.8625	-4.3521	-4.6833	-4.6792	-4.1771	-4.6917	-4.3958	-4.2292	-4.9417	-4.4958	-69.061	16.715	-102.374	-102.081	27.450	-91.072	-102.791	172.367	80.234	146.538	190.555	-56.434	241.916	-106.427	-92.738	186.757	0.0005344	0.0024382	0.0011815	644.69	2.5814e-05	5.0624e-05	764.26	227.85	1.2693e-05	3.7099e-05	324.03	122.39	67.347	31.755	1.4591e-05	63.379	0.024035	0.026682	0.0075419	1101.3	0.00029947	0.00030842	1248.4	397.84	0.00030766	0.00031205	596.38	233.13	190.71	61.948	0.00030024	104.12	116.466	-15.433	-18.124	-99.301	245.574	-41.711	-99.808	-95.190	235.968	29.907	-96.162	-91.588	-90.389	-84.108	-110.536	-87.185	-8191	255	
12404.165	1	1	0	0	0.07292	0.12232	0.12706	0.019229	0.20582	0.26702	0.053579	0.20252	0.17912	0.022079	0.075177	0.1007	0.15593	0.34326	0.050017	0.12829	-4.0646	-4.7063	-4.0542	-4.7042	-4.4563	-4.0687	-5.0542	-4.375	-4.3042	-4.6646	-4.0563	-4.5833	-4.5938	-4.1833	-4.7125	-4.6104	127.576	131.207	1.265	119.596	43.361	119.314	179.711	185.814	89.937	-37.011	157.057	246.683	124.067	196.321	197.608	198.258	0.00072331	0.0011301	0.00078492	639.3	6.933e-06	5.7727e-05	759.96	226.53	2.0263e-05	3.6403e-05	322.88	121.64	68.62	31.703	2.09e-05	64.022	0.024675	0.026707	0.0073745	1074.3	0.00027759	0.00028033	1186	373.8	0.00026661	0.00026851	552.51	214.18	170.24	56.783	0.00025033	97.316	87.860	23.686	-75.404	-98.888	87.959	35.871	-100.233	-95.132	-26.200	156.515	-96.181	-91.402	-89.852	-84.457	51.303	-87.025	-8191	255	
12404.286	1	1	0	0	0.10556	0.055712	0.2006	0.22739	0.11968	0.12939	0.10523	0.073837	0.072746	0.11731	0.15654	0.1479	0.20794	0.22112	0.094373	0.12992	-3.8896	-4.6792	-4.1208	-4.5125	-4.525	-4.2729	-4.8063	-4.4688	-4.2188	-4.7229	-4.2562	-4.4417	-4.6479	-4.0958	-4.625	-4.4646	-103.084	-14.753	182.694	197.617	195.557	42.897	-105.742	46.792	178.228	44.168	-59.380	186.709	168.162	-30.805	-13.564	113.345	0.00024074	0.0023511	0.00040467	637.42	6.1961e-06	2.4354e-05	757.52	225.21	4.3889e-05	3.5756e-05	323.32	124.3	69.154	32.097	1.6587e-05	65.024	0.020354	0.022218	0.0061442	991.62	0.00023335	0.00023877	1122.8	350.82	0.00023464	0.00024015	528.71	207.33	163.35	55.685	0.00024139	97.116	231.005	-33.988	36.504	-98.841	74.711	3.750	-99.935	-94.589	25.053	12.434	-96.045	-91.834	-90.737	-84.585	143.758	-87.117	-8191	255	
12404.382	1	1	0	0	0.17623	0.030138	0.14838	0.14992	0.21295	0.078637	0.29216	0.28454	0.077934	0.11555	0.13625	0.072106	0.10741	0.12722	0.14811	0.19692	-3.9562	-4.6917	-4.1396	-4.4437	-4.7083	-4	-4.8083	-4.5563	-4.2792	-4.7521	-4.3542	-4.4542	-4.7167	-4.2021	-4.625	-4.6312	-20.872	-44.726	15.823	-106.614	67.100	-110.504	127.419	139.418	-107.293	-97.548	171.562	-71.944	-76.393	-63.408	-81.419	226.428	0.00092648	0.0015161	0.00073546	641.51	1.1055e-05	1.4449e-05	765.72	227.59	2.9621e-05	9.7791e-06	326.82	124.4	70.026	32.366	8.8422e-06	66.009	0.020126	0.022259	0.0062181	1002.5	0.00023888	0.00024538	1140.3	355.95	0.00023921	0.00024467	535.22	209.38	164.78	56.167	0.00024048	98.097	121.775	-52.659	57.188	-99.265	-90.427	33.987	-99.877	-94.679	30.415	53.213	-95.991	-91.831	-90.122	-84.769	137.953	-87.007	-8191	255	
12404.478	1	1	0	0	0.10073	0.097562	0.19033	0.072478	0.091744	0.15064	0.082253	0.099378	0.16305	0.055104	0.27904	0.10769	0.079925	0.14212	0.13807	0.30856	-3.9208	-4.7937	-4.2958	-4.3583	-4.6979	-4.2146	-4.7188	-4.4354	-4.1604	-4.7583	-4.3125	-4.2812	-4.6625	-4.1583	-4.5563	-4.8083	9.867	159.270	129.049	-30.230	-21.346	-68.799	199.339	170.279	146.254	125.213	218.055	-8.470	172.534	208.098	156.765	207.730	0.00045891	0.0030766	0.0002481	647.16	1.5963e-05	2.0006e-05	769.45	230.32	1.4064e-05	3.1208e-05	333.15	126.99	71.416	32.918	2.5254e-05	66.493	0.019941	0.022099	0.0061372	1001.2	0.00023671	0.00024352	1139.8	358.44	0.00023847	0.00024437	537.36	209.99	164.78	56.128	0.00023392	97.008	156.119	-35.157	18.415	-98.657	217.800	-1.989	-99.783	-94.795	5.176	41.988	-96.188	-91.972	-91.185	-84.210	171.311	-87.408	-8191	255	
12404.599	1	1	0	0	0.18027	0.071369	0.23722	0.40802	0.11682	0.098265	0.16245	0.20381	0.10866	0.02941	0.12678	0.2364	0.033185	0.14955	0.14867	0.13845	-3.7083	-4.5563	-4.3583	-4.2667	-4.6146	-4.1729	-4.6208	-4.6292	-4.2146	-4.7542	-4.4563	-4.3896	-4.7375	-4.3479	-4.4167	-4.4958	171.320	160.767	-61.388	188.543	70.177	-95.861	-89.033	174.020	228.522	207.415	185.775	154.602	55.059	240.294	-48.727	123.141	0.00049882	0.0017312	0.00027738	647.96	7.6431e-06	1.9315e-05	775.39	231.63	2.8765e-05	1.4874e-05	334.64	127.62	70.658	33.113	3.4843e-05	66.223	0.01908	0.021021	0.0057978	975.93	0.00022143	0.00022658	1115.5	350.27	0.00022352	0.00023123	526.93	206.03	161.32	55.599	0.00023131	96.563	213.673	142.998	101.668	-98.842	188.229	210.398	-100.153	-94.827	230.930	-83.877	-96.341	-92.095	-90.855	-84.740	-8.386	-87.692	-8191	255	
12404.670	1	1	0	0	0.10495	0.19033	0.075633	0.066803	0.097706	0.080077	0.13081	0.020039	0.10957	0.2317	0.16647	0.1594	0.14438	0.18784	0.13641	0.18646	-3.7417	-4.65	-4.5375	-4.1854	-4.6813	-4.1813	-4.3604	-4.5646	-4.0583	-4.5917	-4.6354	-4.1083	-4.7083	-4.2583	-4.4396	-4.7375	31.194	99.616	4.394	76.132	124.138	164.428	-85.002	118.425	-65.341	222.350	184.734	185.707	-87.140	115.407	-3.183	219.675	0.00046034	0.0019269	0.0012679	649.9	1.3295e-05	2.2129e-05	775.21	231.08	4.6469e-05	1.5154e-05	326.56	124.6	70.878	32.962	1.0119e-05	64.682	0.019275	0.021446	0.0059747	992.53	0.00023431	0.00024158	1139.7	359.9	0.00024222	0.00025113	543.06	212.11	169.72	57.111	0.00024807	97.735	176.173	-51.256	33.169	-99.294	-100.508	138.632	-100.257	-95.355	-37.737	155.225	-95.652	-91.636	-90.502	-84.537	39.871	-87.335	-8191	255	
12404.767	1	1	0	0	0.21656	0.12222	0.23493	0.24473	0.027189	0.2993	0.11025	0.2595	0.24628	0.31042	0.17934	0.18309	0.079076	0.056916	0.10879	0.15273	-3.6917	-4.6667	-4.4792	-4.1646	-4.7479	-4.2854	-4.3417	-4.6979	-4.225	-4.4875	-4.5542	-4.1208	-4.7438	-4.325	-4.2958	-4.8	101.457	208.367	-15.069	198.541	28.804	29.448	170.611	166.980	-33.212	133.540	150.716	219.579	7.175	-89.029	-25.159	103.594	0.00032323	0.0030828	0.00046749	642.61	9.2092e-06	9.8422e-06	764.77	228.97	2.7263e-05	2.0582e-05	326.5	125.21	69.125	32.105	2.4585e-05	64.396	0.020531	0.022489	0.0061773	996.61	0.00023549	0.00023859	1123.1	353.33	0.00023177	0.00023847	528.3	206.36	164.09	55.598	0.00023908	96.876	145.242	-37.841	139.152	-98.916	-37.469	97.571	-100.194	-94.735	61.641	-107.491	-95.772	-91.837	-90.818	-84.352	-51.341	-87.192	-8191	255	
12404.885	1	1	0	0	0.055176	0.24324	0.12776	0.21396	0.12419	0.091408	0.050409	0.1727	0.14488	0.15875	0.077786	0.1221	0.17042	0.18702	0.14145	0.15221	-3.8479	-4.4583	-4.4313	-4.1562	-4.7167	-4.4604	-4.2104	-4.8375	-4.1188	-4.3979	-4.7458	-4.1875	-4.7479	-4.4521	-4.2021	-4.9563	171.688	-9.056	88.902	236.740	53.154	-7.943	-84.498	198.916	-14.001	140.210	37.625	-77.091	222.950	143.706	-78.368	136.236	0.00055534	0.0021378	0.0002081	646.12	1.8286e-05	1.2859e-05	765.32	230.21	3.2392e-05	1.275e-05	329.66	124.57	69.986	32.457	3.6021e-05	65.627	0.020172	0.022354	0.006215	1001.7	0.0002409	0.00024546	1137.3	359.03	0.00024042	0.00024696	538.17	210.98	168.67	56.901	0.00025008	99.554	113.637	59.164	191.046	-98.918	146.783	191.029	-100.077	-94.499	-73.881	37.213	-95.935	-92.037	-90.569	-84.580	12.259	-87.070	-8191	255	
12404.982	1	1	0	0	0.14109	0.075678	0.15501	0.16635	0.21478	0.13913	0.047753	0.29053	0.21826	0.067189	0.061706	0.12866	0.19276	0.10927	0.014649	0.23767	-3.9083	-4.2875	-4.6687	-4.25	-4.7042	-4.5312	-4.2375	-4.7354	-4.2896	-4.3812	-4.9021	-4.1271	-4.6417	-4.6687	-4.2667	-4.9542	193.450	-9.439	162.057	-94.768	189.551	126.199	-28.082	168.287	154.038	241.040	-45.382	98.037	-112.325	51.517	107.755	141.876	0.00041408	0.0038999	0.00043563	650.42	4.6927e-05	2.8031e-05	769.32	233.53	2.1401e-05	2.1628e-05	327.17	125.89	71.394	32.397	2.8458e-05	65.73	0.021388	0.023675	0.0065968	1032.1	0.00025835	0.0002621	1167.1	372.37	0.0002565	0.00025995	549.73	214.6	170.05	57.039	0.0002428	98.243	185.805	21.166	-9.315	-99.106	71.676	-104.135	-100.519	-95.152	204.818	15.941	-96.154	-91.469	-90.146	-84.830	133.118	-86.748	-8191	255	
12405.078	1	1	0	0	0.20175	0.23631	0.19703	0.21199	0.12107	0.17774	0.17221	0.079693	0.10208	0.10628	0.25751	0.073935	0.28077	0.24367	0.063949	0.132	-3.9917	-4.2375	-4.65	-4.3167	-4.6438	-4.7042	-4.2417	-4.7271	-4.5	-4.3104	-4.8271	-4.2771	-4.6042	-4.4854	-4.2979	-4.7521	198.161	-76.240	135.698	-56.725	197.829	228.553	129.534	185.578	-72.795	54.321	194.841	-69.466	-83.582	-5.601	77.194	107.915	0.00045884	0.0012133	0.00021942	643.54	2.3979e-05	4.021e-05	768.06	231.98	1.5807e-05	1.8998e-05	330.2	124.83	71.9	32.652	1.8404e-05	65.391	0.01998	0.021788	0.0060674	993.29	0.00023607	0.00024097	1134	362.21	0.0002418	0.00024943	542.66	213.8	171.79	57.774	0.00025317	99.704	158.332	-38.996	-42.705	-99.211	18.890	121.047	-100.113	-94.653	-2.062	186.952	-96.178	-91.763	-90.553	-84.518	-45.684	-87.165	-8191	255	
12405.198	1	1	0	0	0.24463	0.026669	0.18431	0.17695	0.07358	0.096781	0.090909	0.036115	0.031856	0.04049	0.14873	0.147	0.066058	0.22022	0.16796	0.32451	-4.1604	-4.2417	-4.7458	-4.2667	-4.4708	-4.575	-4.1292	-4.875	-4.4375	-4.0646	-4.825	-4.2604	-4.3708	-4.7042	-4.075	-4.8104	212.046	78.151	114.234	218.946	96.022	28.485	212.968	101.243	153.373	-26.775	241.175	145.880	2.032	146.210	-98.869	185.347	0.00057854	0.0020304	0.00030477	642.27	4.0672e-05	1.7134e-05	761.76	231.5	2.035e-05	2.2062e-05	323.3	124.34	70.667	32.24	5.1953e-05	64.367	0.021184	0.023198	0.0064782	1017.5	0.00024873	0.0002533	1150.2	366.7	0.00025004	0.00025626	548.48	215.88	174.48	58.408	0.00026655	101.59	189.426	-29.474	106.169	-98.625	36.920	216.134	-99.732	-94.697	71.050	59.430	-95.832	-92.101	-89.869	-84.253	115.171	-86.966	-8191	255	
12405.295	1	1	0	0	0.046035	0.096001	0.12565	0.12844	0.20546	0.087164	0.17224	0.12565	0.15009	0.22136	0.10032	0.21724	0.050691	0.081407	0.17377	0.10109	-4.2583	-4.0896	-4.7125	-4.2937	-4.2604	-4.6896	-4.3812	-4.6708	-4.6854	-4.2125	-4.7875	-4.2125	-4.3375	-4.8521	-4.2	-4.6542	8.952	-102.942	171.010	118.308	40.056	245.784	204.213	-95.668	84.478	-5.452	126.271	184.450	-48.440	-49.086	8.627	54.951	0.00023069	0.001548	0.0010358	643.29	3.1591e-05	4.8675e-05	765.26	231.04	2.371e-05	8.0307e-06	324.99	124.19	69.155	31.973	1.8674e-05	64.196	0.022846	0.025293	0.0071656	1065.3	0.00027852	0.00028475	1203.8	385.02	0.00027881	0.00028219	570.51	221.93	179.13	58.993	0.00027065	100.9	157.684	-68.565	122.947	-99.126	246.235	16.686	-99.775	-94.364	190.431	-36.785	-96.003	-91.798	-90.114	-84.579	225.463	-86.983	-8191	255	
12405.366	1	1	0	0	0.22469	0.12238	0.14774	0.08574	0.034276	0.23635	0.20159	0.27384	0.092817	0.16955	0.19864	0.086984	0.086534	0.023732	0.21623	0.092113	-4.1958	-4.2333	-4.6167	-4.5125	-4.2063	-4.7417	-4.3604	-4.6062	-4.5917	-4.1271	-4.7521	-4.5375	-4.2396	-4.8417	-4.3833	-4.4938	51.127	-32.089	209.212	211.056	18.263	59.268	111.843	137.215	78.770	162.507	-93.800	179.497	215.051	205.694	190.137	153.451	0.00027005	0.002916	0.00094434	635.68	2.2276e-05	2.758e-05	761.39	230.06	5.1375e-06	1.5429e-05	324	125.02	69.586	32.292	2.1723e-06	65.791	0.022298	0.024349	0.0068081	1029.8	0.00025661	0.00026026	1155.1	366.2	0.00025017	0.00025323	542.99	212.65	168.6	57.209	0.00025001	99.255	100.366	67.188	149.475	-99.203	202.785	70.475	-99.853	-94.715	185.123	196.017	-95.901	-91.836	-90.186	-84.525	-9.355	-87.065	-8191	255	
12405.462	1	1	0	0	0.15293	0.10743	0.22839	0.064141	0.094617	0.27212	0.1201	0.25802	0.16058	0.10593	0.24385	0.1326	0.25544	0.15798	0.16289	0.28028	-4.2792	-4.1479	-4.6646	-4.4729	-4.2396	-4.6854	-4.325	-4.4208	-4.6604	-4.1292	-4.7083	-4.5188	-4.1146	-4.7812	-4.3042	-4.5479	131.884	214.701	147.731	65.937	136.434	162.857	175.700	105.686	112.891	174.400	211.545	218.118	-106.930	226.458	103.533	188.762	0.00047823	0.0013354	0.00072374	646.67	4.1378e-05	6.4019e-06	765.48	231.67	1.9338e-05	1.2557e-05	328.76	125.77	70.905	33.087	3.9761e-06	66.516	0.02102	0.023096	0.0064921	1018.4	0.00024864	0.00025711	1156.8	369.44	0.00025312	0.0002604	554.82	217.41	174.3	58.948	0.00026259	102.02	88.456	222.591	-19.446	-99.031	74.555	77.720	-99.694	-94.687	-77.319	161.308	-95.689	-91.718	-89.941	-84.342	173.648	-86.856	-8191	255	
12405.583	1	1	0	0	0.031508	0.19467	0.31602	0.16773	0.048261	0.10612	0.1853	0.15804	0.11969	0.06896	0.13779	0.17078	0.023897	0.12667	0.10924	0.25929	-4.3896	-4.1917	-4.5021	-4.4938	-4.1896	-4.6896	-4.3292	-4.4354	-4.7937	-4.1625	-4.6875	-4.6146	-4.0854	-4.6625	-4.3854	-4.5042	195.579	73.406	-84.624	203.618	-64.749	63.772	175.345	152.878	85.056	-73.480	90.519	180.157	204.549	-92.275	100.782	142.332	0.00030712	0.00033607	0.00059889	649.34	1.666e-05	7.6925e-06	768.29	234.1	2.5077e-05	1.5315e-05	327.46	126.09	71.637	32.911	9.7758e-06	66.066	0.022047	0.024349	0.006819	1044.7	0.00026205	0.00027085	1183.3	378.78	0.00026572	0.00027102	564.93	220.47	177.35	59.368	0.00026448	101.07	142.529	-28.694	-109.799	-98.720	119.457	-86.766	-99.856	-94.529	244.449	236.902	-96.169	-91.376	-89.899	-84.857	9.875	-86.813	-8191	255	
12405.679	1	1	0	0	0.14217	0.080453	0.21462	0.061278	0.21736	0.11503	0.11935	0.08771	0.11845	0.14815	0.35982	0.087709	0.15511	0.13212	0.11513	0.068252	-4.4771	-4.1354	-4.425	-4.5833	-4.0208	-4.8104	-4.3604	-4.2521	-4.7396	-4.2708	-4.5208	-4.8104	-4.0104	-4.725	-4.3729	-4.3417	225.528	13.937	242.470	63.875	204.657	138.339	162.798	-80.492	199.052	-27.163	196.481	-12.741	-11.641	-94.170	4.809	-53.914	0.00088899	0.00082858	0.00084126	641.27	7.7962e-06	3.6212e-05	764.7	231.23	2.1856e-05	3.488e-05	325.84	124.65	71.283	32.756	1.2208e-05	65.299	0.021869	0.023931	0.0066467	1025.1	0.00025108	0.00025792	1154.2	366.93	0.00024843	0.00025271	542.67	212.64	169.22	57.386	0.00024882	98.601	154.993	197.058	3.866	-98.715	156.622	16.416	-100.104	-94.608	-43.845	86.890	-96.391	-91.904	-90.877	-84.704	7.341	-86.888	-8191	255	
12405.774	1	1	0	0	0.11396	0.066975	0.18939	0.25284	0.039365	0.17492	0.16582	0.17815	0.089641	0.13247	0.13539	0.27002	0.12185	0.12226	0.10609	0.047713	-4.3833	-4.1271	-4.4333	-4.6979	-4.1	-4.55	-4.6062	-4.2646	-4.7083	-4.2771	-4.4417	-4.8063	-4.2146	-4.7042	-4.5188	-4.3083	153.150	93.322	242.542	235.688	98.724	209.613	-109.293	209.773	-98.086	-45.138	-89.196	-96.029	-109.245	33.873	-24.646	-85.199	0.00086619	0.0010716	0.00082475	643	4.1471e-06	4.4997e-05	763.27	231.47	1.6215e-05	1.2474e-05	323.7	125.13	69.855	32.156	4.725e-06	65.004	0.020946	0.022991	0.006438	1017	0.00024931	0.00025824	1156.3	368.57	0.00025579	0.00026108	549.86	216.05	173.48	58.177	0.00026009	100.1	169.816	50.150	10.176	-99.071	81.029	24.426	-99.889	-94.933	166.970	-2.321	-96.013	-92.077	-90.660	-84.676	64.225	-86.810	-8191	255	
12405.870	1	1	0	0	0.09967	0.040458	0.17388	0.014515	0.20728	0.20754	0.2109	0.075779	0.20485	0.20176	0.13661	0.15839	0.22957	0.28348	0.29951	0.16143	-4.4875	-4.2667	-4.4563	-4.8583	-4.175	-4.6792	-4.725	-4.4208	-4.7458	-4.4437	-4.2771	-4.7667	-4.2125	-4.4021	-4.5687	-4.1479	-7.731	202.794	9.329	211.091	6.717	-2.002	72.713	36.266	-20.021	80.191	-50.547	-76.092	-109.598	-56.801	26.085	188.460	0.00050079	0.0018623	0.00093688	646.01	1.2328e-05	4.4717e-05	763.59	230.37	4.4347e-05	3.4788e-05	326.72	123.9	69.894	32.404	2.3231e-05	65.083	0.022003	0.024146	0.0067369	1036.3	0.00026114	0.00026927	1172.8	372.95	0.00026528	0.00026814	556.26	217.58	174.19	58.055	0.00025696	99.707	155.431	-81.664	226.937	-98.862	71.682	205.149	-99.951	-95.314	44.774	49.442	-95.702	-91.725	-89.898	-84.768	-93.559	-87.004	-8191	255	
12405.966	1	1	0	0	0.095914	0.21561	0.2366	0.10234	0.19718	0.21151	0.24173	0.095906	0.1908	0.086405	0.15807	0.14636	0.21816	0.069019	0.26028	0.15608	-4.3083	-4.4333	-4.2771	-4.8417	-4.1146	-4.5292	-4.6896	-4.1833	-4.6333	-4.5854	-4.25	-4.8771	-4.2333	-4.3958	-4.5563	-4.2521	25.658	-61.245	70.100	-95.982	29.992	207.676	170.597	196.239	-7.497	31.904	237.454	208.565	240.740	-35.051	140.374	150.405	0.00031094	0.0038279	0.00047601	639.01	2.1211e-06	9.8248e-06	765.75	230.18	3.2837e-05	7.9045e-06	328.11	126.98	70.889	32.855	3.9632e-05	66.78	0.021385	0.023153	0.0064018	1011.6	0.00024464	0.00025048	1144.8	363.14	0.00024712	0.00025118	543.21	214.95	171.03	58.047	0.00025457	100.72	139.559	-104.470	-50.774	-98.851	-70.049	122.363	-100.317	-94.954	220.864	220.668	-95.962	-91.904	-90.819	-84.569	40.592	-86.815	-8191	255	
12406.062	1	1	0	0	0.17154	0.10988	0.05161	0.020197	0.16916	0.059979	0.18873	0.17091	0.1233	0.12407	0.19438	0.05669	0.13109	0.22168	0.062622	0.038497	-4.275	-4.4354	-4.2708	-4.7729	-4.2688	-4.2562	-4.7292	-4.2521	-4.5729	-4.4104	-4.3354	-4.5979	-4.2354	-4.3521	-4.6521	-4.1479	170.717	-20.127	-18.667	-101.670	165.821	-34.318	205.824	165.107	-7.691	-71.404	-62.231	70.826	-89.681	242.374	-89.814	-103.263	0.00064171	0.0038954	0.00089144	638.97	1.1098e-05	3.2721e-05	766.18	233.64	2.201e-05	3.0391e-05	326.74	126.82	71.609	33.202	1.7462e-05	65.719	0.02158	0.023702	0.0066072	1031.1	0.00025567	0.00026236	1169.2	372.91	0.00025819	0.00026136	553.39	218.21	174.37	58.819	0.00026056	101.29	147.858	-110.075	16.283	-99.043	-34.371	75.452	-99.954	-94.531	222.908	-45.478	-96.150	-91.417	-89.275	-84.778	-88.651	-86.898	-8191	255	
12406.158	1	1	0	0	0.19448	0.050729	0.26093	0.14922	0.068189	0.08735	0.23668	0.033493	0.24556	0.10511	0.15108	0.083185	0.10099	0.21706	0.092269	0.14264	-4.2458	-4.6271	-4.1333	-4.7937	-4.225	-4.2729	-4.8729	-4.1979	-4.5875	-4.5938	-4.0729	-4.7771	-4.3292	-4.1042	-4.7646	-4.3854	-97.903	211.470	70.766	175.195	167.600	212.203	180.305	-94.669	52.752	155.639	181.681	80.627	78.287	235.825	2.522	-90.873	0.0013409	0.0020546	0.00028395	645.94	1.5975e-05	1.3257e-05	772.41	232.64	4.0181e-05	1.4978e-05	327.85	124.78	71.477	32.581	2.7682e-05	64.971	0.022086	0.024341	0.0068205	1051.1	0.00026487	0.0002713	1186	377.91	0.00026629	0.00026882	557.37	218.75	174.73	58.276	0.00025816	99.678	134.947	167.612	-48.969	-99.002	-71.714	-59.983	-100.137	-94.692	52.276	131.338	-96.067	-91.967	-90.190	-84.670	185.419	-87.205	-8191	255	
12406.279	1	1	0	0	0.17357	0.12187	0.12516	0.039341	0.1076	0.19057	0.23953	0.13676	0.38685	0.061262	0.13229	0.074621	0.045008	0.21616	0.11643	0.058594	-3.9333	-4.5875	-4.0479	-4.7667	-4.4229	-4.125	-4.725	-4.3375	-4.5917	-4.675	-4.0896	-4.7208	-4.5854	-4.2146	-4.7104	-4.3521	77.848	121.561	63.757	-63.148	13.563	-110.992	-92.292	154.954	-68.187	121.957	168.031	-17.336	220.746	-89.570	68.889	46.673	0.00079795	0.0012885	0.00038121	642.36	1.5245e-05	5.6682e-05	758.93	232.42	3.3135e-05	2.5553e-05	322.05	125.73	69.899	32.546	5.8301e-05	64.903	0.021399	0.023326	0.0064882	1020.5	0.00024863	0.00025478	1154.1	366.4	0.00025186	0.00025686	545.78	215.02	171.03	57.502	0.00025266	98.837	171.636	-22.880	179.787	-98.942	124.348	-70.332	-99.704	-94.849	148.185	54.490	-95.717	-92.288	-89.839	-84.284	-107.915	-87.197	-8191	255	
12406.375	1	1	0	0	0.10494	0.14408	0.12579	0.25177	0.33709	0.062007	0.34572	0.25378	0.02621	0.030447	0.16108	0.030131	0.028533	0.23332	0.12687	0.19892	-4.0479	-4.6125	-4.1	-4.8458	-4.4854	-3.9688	-4.7771	-4.4021	-4.2646	-4.6125	-4.2125	-4.5667	-4.4146	-4.1813	-4.7083	-4.2896	232.284	203.405	-83.147	-92.024	-3.177	44.209	-92.267	196.939	240.409	185.148	76.106	5.918	25.379	219.829	152.397	-108.388	0.00027098	0.0021084	0.00012165	644.1	2.7559e-05	1.4472e-05	761.58	231.19	1.4813e-05	4.8974e-05	324.99	124.6	69.357	32.256	2.3726e-05	65.252	0.020926	0.022939	0.0063745	1012.1	0.00024571	0.00025226	1152.2	365.21	0.00025284	0.00026015	550.37	217.27	175.18	58.661	0.00026843	101.69	132.750	143.975	66.626	-98.709	-10.115	20.607	-100.461	-94.722	4.209	23.980	-96.350	-91.990	-89.934	-84.968	10.940	-87.357	-8191	255	
12406.471	1	1	0	0	0.13698	0.058569	0.15992	0.044891	0.052236	0.095363	0.15022	0.21019	0.084802	0.097016	0.10466	0.28721	0.2152	0.10667	0.098961	0.17168	-3.9708	-4.5521	-4.2292	-4.6833	-4.5333	-4.2958	-4.9146	-4.3313	-4.2833	-4.7958	-4.2312	-4.4542	-4.5813	-4.225	-4.7667	-4.6062	31.631	227.523	98.860	20.808	-4.151	-16.844	158.335	188.237	169.838	-7.570	222.967	-85.135	2.155	116.076	-18.567	162.515	0.0011025	0.00058223	0.0004866	647.21	5.0822e-05	5.2326e-05	765.27	229.18	4.8765e-05	1.646e-05	326.39	125.99	70.893	33.105	2.8243e-05	66.587	0.022341	0.024521	0.0068112	1039	0.00025743	0.00026171	1163.1	366.48	0.00024857	0.00025244	541.8	212.74	167.72	56.936	0.00024341	98.892	152.713	155.844	1.718	-98.773	60.649	-16.963	-99.614	-94.493	-5.767	-42.338	-96.211	-91.396	-89.959	-84.959	-30.997	-87.033	-8191	255	
12406.567	1	1	0	0	0.10133	0.111	0.17106	0.17186	0.22067	0.066154	0.078363	0.2427	0.08362	0.085262	0.22732	0.1105	0.12727	0.10393	0.10773	0.24712	-3.9542	-4.6542	-4.1104	-4.4688	-4.7188	-4.0583	-4.6792	-4.4479	-4.1771	-4.4187	-4.2833	-4.3771	-4.7521	-4.0833	-4.5417	-4.6917	92.450	60.986	227.892	242.645	1.037	-106.314	218.358	207.744	68.058	48.345	149.973	-82.103	200.502	171.918	158.651	203.066	0.00042956	0.0010368	0.00075131	642.72	1.0507e-05	3.9011e-05	772.36	232.69	4.7326e-07	4.2026e-05	330.87	127.72	72.583	33.279	2.9504e-05	67.077	0.020095	0.022152	0.0061697	1000.6	0.00023567	0.00024052	1133.8	356.75	0.00023179	0.00023658	528.87	208.3	162.47	55.714	0.0002278	97.106	236.779	114.256	-3.501	-98.897	26.579	244.959	-99.971	-95.066	-23.261	-53.758	-96.123	-92.184	-90.385	-84.683	29.030	-86.950	-8191	255	
12406.663	1	1	0	0	0.1529	0.12459	0.073531	0.086054	0.17531	0.19345	0.18865	0.17987	0.069205	0.184	0.25771	0.041677	0.089936	0.30371	0.10517	0.18915	-3.7687	-4.675	-4.2875	-4.4958	-4.8542	-4.2375	-4.75	-4.6312	-4.05	-4.6625	-4.5312	-4.4396	-4.8187	-4.2521	-4.6354	-4.75	217.463	194.011	-92.603	175.333	96.741	-17.707	-111.020	205.862	99.455	229.544	215.535	143.386	151.279	168.910	135.795	-69.891	0.00036918	0.00057341	0.00044073	644.93	1.0753e-05	1.3543e-05	774.68	231.65	2.3121e-05	1.2456e-05	327.02	126.24	71.391	33.163	9.1761e-06	65.639	0.018882	0.020933	0.0058189	979.32	0.00022565	0.00023207	1125.5	353.69	0.00022843	0.00023603	526.52	207.09	162.29	55.557	0.00023003	96.201	152.159	-85.960	236.642	-98.757	179.211	-12.821	-99.971	-94.797	4.960	-81.793	-96.053	-91.626	-90.269	-84.779	20.375	-87.089	-8191	255	
12406.760	1	1	0	0	0.12464	0.10782	0.021066	0.039499	0.10669	0.099229	0.14638	0.1228	0.096178	0.083763	0.076364	0.23203	0.19914	0.16283	0.038522	0.26183	-3.7062	-4.7458	-4.4542	-4.0167	-4.6604	-4.2729	-4.5479	-4.7042	-4.0792	-4.5375	-4.5208	-4.2438	-4.6479	-4.1854	-4.4896	-4.5458	-20.224	81.843	87.931	126.147	-76.704	117.661	178.958	156.336	12.761	101.220	7.442	114.557	40.719	-6.915	161.124	-89.548	0.00050999	0.00099885	0.00092033	643.72	2.5942e-05	2.799e-05	771.57	229.13	1.8533e-05	4.1874e-05	322.16	124.83	69.603	32.434	2.1378e-05	65.451	0.019053	0.02102	0.0058308	975.52	0.00022471	0.0002299	1116.3	350.64	0.00022776	0.00023416	522.74	205.64	162.14	55.391	0.0002321	96.324	150.170	225.752	126.143	-99.020	130.253	2.794	-100.167	-94.774	-40.781	-61.850	-95.866	-91.214	-90.363	-84.747	25.682	-87.094	-8191	255	
12406.878	1	1	0	0	0.1899	0.14925	0.021438	0.20671	0.18004	0.13324	0.18983	0.10778	0.11782	0.14725	0.23156	0.15421	0.047572	0.17477	0.12608	0.29416	-3.6458	-4.5792	-4.4792	-4.1146	-4.4979	-4.3125	-4.3958	-4.7875	-4.0583	-4.5792	-4.5479	-4.2354	-4.75	-4.425	-4.4062	-4.9208	191.202	-77.844	146.688	208.177	64.166	233.362	193.574	-82.360	192.071	-50.251	235.696	-40.275	93.255	-105.169	74.491	156.387	0.00080089	0.0018182	0.00061471	640.28	2.8227e-05	1.1943e-05	765.39	225.69	1.8602e-05	1.5208e-05	322.66	122.88	70.774	32.488	9.7865e-06	65.4	0.019307	0.021376	0.0059197	975.95	0.00022729	0.00023105	1109.8	346.55	0.00022309	0.00022687	513.58	201.23	157.53	54.084	0.00022298	94.821	209.008	150.542	-65.328	-99.158	-110.554	197.051	-100.096	-94.372	-26.706	81.617	-96.155	-91.960	-89.846	-84.638	-7.249	-86.765	-8191	255	
12406.975	1	1	0	0	0.16576	0.043666	0.15336	0.043245	0.21818	0.18612	0.14808	0.060809	0.13661	0.14019	0.21716	0.1049	0.20697	0.21745	0.095203	0.15279	-3.6083	-4.3688	-4.4062	-4.0458	-4.5042	-4.3812	-4.3042	-4.85	-4.1333	-4.4812	-4.675	-4.2521	-4.6417	-4.2667	-4.2729	-4.8167	232.500	227.505	183.444	197.273	-26.929	67.448	103.682	73.574	153.167	81.049	-108.546	144.887	151.431	169.180	28.963	170.923	0.00069469	0.0015712	0.00086176	632.4	1.9145e-05	2.3772e-05	767.33	226.69	1.764e-05	3.7783e-05	322.98	125.83	69.733	32.431	2.0097e-05	65.335	0.018701	0.02066	0.0057473	964.56	0.00022316	0.0002282	1107.9	345.63	0.00022361	0.0002306	520.03	205.5	162.56	55.757	0.00023804	97.734	127.910	180.790	-14.191	-99.073	111.334	19.222	-100.081	-94.957	101.818	97.087	-96.160	-91.506	-89.498	-84.530	159.403	-86.775	-8191	255	
12407.071	1	1	0	0	0.1694	0.072253	0.1726	0.15534	0.1581	0.11847	0.1088	0.18513	0.16422	0.18001	0.066329	0.14602	0.34218	0.091602	0.076274	0.15053	-3.8708	-4.5271	-4.6271	-4.0333	-4.6979	-4.2667	-4.3021	-4.8375	-4.1562	-4.4708	-4.7667	-4.0833	-4.5125	-4.3938	-3.9667	-4.9271	-2.969	-35.015	-43.137	-108.025	83.498	-93.285	29.946	-111.162	130.166	171.279	7.923	180.770	243.449	-21.551	-85.185	228.208	0.0006219	0.0013128	0.00091317	641.33	1.9723e-05	1.0035e-05	770.45	228.32	8.8109e-06	1.5511e-05	326.04	125.62	69.737	33.066	1.3512e-05	66.993	0.020323	0.022535	0.0062905	1004.3	0.00024387	0.00024798	1141.1	355.74	0.0002336	0.00023461	518.87	202.77	156.43	53.965	0.0002119	94.824	120.575	0.347	93.266	-98.926	107.117	29.140	-100.256	-95.030	93.250	153.777	-96.209	-91.994	-90.720	-84.684	122.643	-87.105	-8191	255	
12407.167	1	1	0	0	0.13574	0.13979	0.082052	0.04422	0.22634	0.17053	0.16123	0.11633	0.070927	0.076245	0.034252	0.10994	0.1062	0.2812	0.18951	0.10113	-3.8688	-4.3938	-4.6292	-4.175	-4.5458	-4.6229	-4.2917	-4.8229	-4.2917	-4.2979	-4.8875	-4.1562	-4.6292	-4.5396	-3.9979	-4.8104	-17.715	205.148	6.291	-106.125	-17.800	-51.847	-45.189	110.108	17.932	246.908	194.276	131.910	-101.319	206.280	3.904	233.978	0.00087367	0.0018311	0.00045152	641.53	1.6733e-05	3.299e-05	771.44	232.15	2.9027e-05	4.3488e-05	326.1	126.03	71.061	32.975	1.8232e-05	66.04	0.017637	0.019404	0.0054288	952.18	0.00021366	0.00022003	1103.5	346.5	0.0002195	0.00022456	515.96	202.85	157.97	54.282	0.00021647	94.724	74.337	182.169	12.261	-98.726	113.541	109.627	-100.065	-94.877	-40.804	176.081	-95.881	-91.384	-89.713	-85.096	-76.382	-87.177	-8191	255	
12407.263	1	1	0	0	0.0585	0.0075954	0.14516	0.22487	0.090352	0.13172	0.0704	0.12595	0.063046	0.10146	0.12242	0.055176	0.10344	0.076716	0.14728	0.24605	-4.1167	-4.3521	-4.725	-4.2625	-4.5604	-4.6146	-4.2875	-4.7604	-4.35	-4.1854	-4.7083	-4.2708	-4.4167	-4.6146	-4.0875	-4.7708	64.697	11.754	-30.385	183.706	12.940	-78.444	235.916	-103.000	-29.789	139.493	169.344	58.241	26.194	208.284	214.261	178.712	0.00047932	0.0011372	0.00024498	645.02	2.2745e-05	2.7493e-05	774.09	228.2	9.4187e-06	2.7057e-05	324.76	124.95	71.118	32.662	1.5158e-05	65.366	0.017869	0.019566	0.0054264	947.02	0.00020871	0.00021288	1087	340.06	0.00020934	0.00021393	504.46	198.49	153.31	53.087	0.00020822	92.988	162.117	45.709	138.411	-98.899	72.063	94.155	-100.164	-94.894	-7.937	155.905	-95.924	-91.687	-89.662	-84.152	-32.191	-86.932	-8191	255	
12407.359	1	1	0	0	0.24443	0.1011	0.10847	0.31824	0.25644	0.14738	0.083298	0.10661	0.16511	0.23571	0.051285	0.089228	0.014338	0.087317	0.045642	0.037808	-4.0188	-4.0958	-4.6458	-4.2104	-4.1687	-4.6479	-4.0646	-4.5375	-4.4396	-4.0708	-4.6813	-4.2646	-4.3521	-4.7875	-4.1792	-4.6604	-26.257	204.643	-9.096	-8.126	-72.848	228.610	43.350	78.849	198.448	-68.000	117.969	133.588	33.483	192.610	-76.641	185.476	0.00062698	0.0013475	0.0011242	639.91	1.2588e-05	2.4201e-05	768.33	227.04	2.0025e-05	2.4501e-05	324.17	124.61	68.989	32.148	2.831e-05	64.97	0.01743	0.019046	0.0053219	938.44	0.00020628	0.00021046	1082.9	338.66	0.00021031	0.00021487	505.67	198.24	153.48	52.907	0.00021188	93.022	189.401	-97.606	43.198	-98.956	184.665	145.483	-100.065	-94.675	15.321	-16.644	-95.784	-91.930	-90.182	-84.804	-60.687	-87.101	-8191	255	
12407.455	1	1	0	0	0.098411	0.109	0.085234	0.28618	0.12939	0.14365	0.20344	0.029334	0.12915	0.070535	0.21182	0.041309	0.069944	0.15662	0.28526	0.2434	-4.1833	-4.0687	-4.5771	-4.4979	-4.3229	-4.7812	-4.2937	-4.5458	-4.5813	-3.9021	-4.8187	-4.3938	-4.2583	-4.8083	-4.1021	-4.5938	-21.873	174.314	-38.803	-73.214	-100.871	-48.610	228.922	-97.823	-67.756	193.142	106.530	156.106	148.964	159.895	121.656	221.135	0.0010251	0.00032289	0.00081866	634.65	3.3338e-05	1.1594e-05	763.53	228.16	3.2722e-05	3.956e-05	326.39	125.14	70.089	32.334	2.7596e-05	65.904	0.017604	0.019292	0.0054114	941.5	0.0002074	0.00021223	1080	337.02	0.00020834	0.00021191	502.89	197.14	152.02	52.831	0.00020962	93.529	140.653	57.050	105.883	-98.892	61.621	180.576	-99.747	-95.129	87.750	102.257	-95.700	-91.704	-90.418	-84.504	123.607	-86.641	-8191	255	
12407.551	1	1	0	0	0.023671	0.10841	0.21674	0.2081	0.21271	0.2662	0.11542	0.085941	0.14746	0.16138	0.32205	0.064787	0.35349	0.10176	0.15223	0.27114	-4.1875	-4.1667	-4.6167	-4.5333	-4.075	-4.8354	-4.4167	-4.4917	-4.6937	-4.1562	-4.5583	-4.4583	-4.0583	-4.8875	-4.175	-4.5229	226.760	178.347	103.057	193.650	13.975	165.185	173.290	162.598	210.827	54.606	57.403	76.792	-112.631	116.916	155.530	202.581	0.00062069	0.0011103	0.00034088	635.55	7.5957e-06	1.1914e-05	776.09	229	2.0414e-05	3.9939e-05	325.43	126.71	70.166	32.607	3.774e-06	66.276	0.017626	0.019377	0.0054623	948.52	0.00021198	0.00021832	1101.3	345.57	0.00021862	0.00022354	516.58	203.76	158.13	54.571	0.00022245	95.391	145.842	-18.863	151.660	-98.904	237.950	-38.592	-100.453	-94.695	-17.711	6.408	-96.308	-91.681	-90.149	-84.735	-17.605	-86.862	-8191	255	
12407.670	1	1	0	0	0.12693	0.096467	0.21379	0.06783	0.057566	0.079159	0.20802	0.086193	0.1538	0.15817	0.24347	0.07439	0.11964	0.084954	0.075895	0.079512	-4.4396	-4.1354	-4.6854	-4.4708	-4.1104	-4.8292	-4.3104	-4.2708	-4.65	-4.1312	-4.5396	-4.6479	-4.2833	-4.7458	-4.4208	-4.3292	-62.817	1.173	166.940	199.971	172.668	88.766	0.248	135.847	99.794	-58.380	93.964	203.497	159.403	-60.355	-43.221	210.339	0.00086094	0.001356	0.00060753	641.09	1.0217e-06	1.9486e-05	773.31	230.41	6.1635e-05	1.6786e-05	327.3	127.07	70.348	33.257	1.1965e-05	66.415	0.018474	0.02019	0.0056482	958.88	0.00021218	0.00021716	1093	341.61	0.00020796	0.00020957	503.26	197.07	150.18	52.669	0.00019997	92.151	137.972	20.850	74.002	-98.611	-99.526	234.136	-100.368	-94.877	173.166	152.283	-95.994	-92.347	-90.382	-84.738	182.978	-87.215	-8191	255	
12407.766	1	1	0	0	0.2114	0.25786	0.14878	0.10612	0.10254	0.087305	0.16116	0.11226	0.1493	0.1253	0.10803	0.10925	0.17847	0.17928	0.076365	0.09893	-4.35	-4	-4.5229	-4.6292	-4.0771	-4.6188	-4.4875	-4.2125	-4.5958	-4.2625	-4.4896	-4.8313	-4.1646	-4.5104	-4.4271	-4.4542	142.022	127.086	-84.082	105.767	211.467	-19.854	36.464	-18.129	175.173	81.868	-3.721	187.488	-73.612	-95.956	97.218	203.534	0.00090389	0.00068612	9.3158e-05	642	1.6965e-05	3.7274e-05	772.89	229.39	2.1895e-05	1.472e-05	323.52	126.88	71.329	32.507	2.4937e-05	65.954	0.016494	0.018012	0.0050235	919.03	0.0001903	0.00019526	1055	327.85	0.0001897	0.0001927	485.71	190.85	145.16	51.207	0.00019167	90.315	168.480	-0.764	-30.684	-99.171	22.473	198.723	-100.087	-94.691	200.540	148.343	-95.845	-91.552	-90.131	-84.860	170.565	-86.857	-8191	255	
12407.840	1	1	0	0	0.060382	0.12731	0.16951	0.31256	0.3499	0.18826	0.26503	0.21626	0.15459	0.16946	0.12365	0.10276	0.11856	0.25535	0.24549	0.14307	-4.5896	-4.1271	-4.4	-4.6708	-3.9583	-4.6	-4.4021	-4.3125	-4.7667	-4.3104	-4.5083	-4.6562	-3.9938	-4.5875	-4.6188	-4.0979	-111.278	-4.704	204.145	203.288	136.509	239.998	171.686	211.649	188.610	172.382	199.437	228.819	4.982	26.930	187.266	-54.113	0.00059555	0.0023067	0.00036727	638.87	1.0275e-05	4.2036e-06	768.51	228.52	8.1661e-06	1.3406e-05	324.13	124.82	69.943	32.381	3.7e-05	65.286	0.016071	0.017642	0.0049453	912.97	0.00018977	0.00019647	1055.9	328.49	0.00019495	0.00019965	491.15	192.93	147.57	51.765	0.00019893	91.108	163.694	177.834	-82.079	-98.776	47.061	142.249	-100.003	-94.811	-49.777	52.185	-95.995	-91.455	-90.063	-84.758	48.826	-86.906	-8191	255	
12407.959	1	1	0	0	0.11643	0.049893	0.12973	0.053879	0.18847	0.17366	0.15757	0.10669	0.032302	0.08517	0.084749	0.18831	0.12616	0.19886	0.025323	0.023379	-4.5271	-4.4333	-4.3562	-4.7917	-4.2229	-4.5458	-4.6792	-4.2104	-4.6729	-4.2354	-4.4583	-4.6292	-4.0708	-4.6896	-4.3625	-4.1958	-77.782	-87.386	60.480	-54.716	246.287	217.724	233.978	130.747	132.756	-69.570	122.244	-52.201	226.922	-52.256	166.606	-18.364	0.0010137	0.0025201	0.00060653	638.73	1.2507e-05	2.059e-05	771.66	228.96	2.6414e-05	1.1491e-05	323.93	126.12	70.314	32.67	3.0786e-05	66.387	0.016613	0.018137	0.005045	919.09	0.00019254	0.00019972	1060.3	328.91	0.00019437	0.00019843	489.02	192.6	146.69	51.708	0.00019658	91.741	136.184	-75.774	38.348	-98.828	-28.309	-77.634	-100.313	-94.803	73.305	-50.961	-95.597	-91.926	-90.443	-84.591	128.722	-87.335	-8191	255	
12408.055	1	1	0	0	0.074796	0.14527	0.217	0.091126	0.19372	0.082869	0.054939	0.16242	0.24313	0.13369	0.36177	0.1708	0.11087	0.21015	0.029695	0.14716	-4.4	-4.2917	-4.2792	-4.8542	-4.0833	-4.4542	-4.6146	-4.0417	-4.6562	-4.4417	-4.1937	-4.7375	-4.1875	-4.5271	-4.8354	-4.2542	135.090	-11.886	224.905	-109.861	-61.881	145.825	16.887	164.472	-24.460	56.780	124.359	199.649	-63.724	114.525	-94.955	170.770	0.0010835	0.0016648	0.00044497	639.56	2.4856e-05	2.1464e-05	773.96	230.09	2.0622e-05	3.5994e-05	328.82	127.76	71.395	33.437	3.0234e-05	66.947	0.016669	0.018283	0.0050939	927.95	0.00019745	0.00020353	1072.3	334.74	0.00020003	0.00020323	497.85	196.48	149.94	52.899	0.00020357	93.488	161.888	66.242	54.239	-99.096	-50.392	133.977	-99.972	-94.670	233.852	74.515	-95.698	-91.573	-89.950	-84.320	8.472	-87.453	-8191	255	
12408.151	1	1	0	0	0.16915	0.14228	0.052244	0.33096	0.12852	0.061454	0.028572	0.13517	0.15655	0.16486	0.21367	0.29576	0.10206	0.076924	0.13183	0.060516	-4.375	-4.35	-4.3625	-4.9375	-4.2146	-4.2875	-4.7167	-4.1729	-4.5708	-4.5021	-4.1396	-4.8917	-4.3042	-4.3688	-4.7292	-4.2583	173.566	-72.655	67.770	-84.872	10.654	136.563	85.853	133.959	232.528	226.226	87.937	188.462	153.903	-107.109	-90.526	77.939	0.00047406	0.0027137	0.00081358	645.36	2.3777e-05	2.0457e-05	778.84	233.15	3.6529e-05	2.3865e-05	329.8	127.85	71.906	33.416	3.499e-05	66.318	0.017345	0.019176	0.0054003	954.72	0.00021291	0.00022106	1106.9	348.82	0.00022251	0.00022627	519.98	204.53	159.74	54.736	0.00021919	94.861	101.000	191.274	22.179	-98.996	30.021	-29.825	-99.988	-94.758	-90.678	185.702	-96.100	-91.807	-89.734	-84.436	-36.186	-86.941	-8191	255	
12408.247	1	1	0	0	0.19533	0.03945	0.1452	0.070495	0.25179	0.14662	0.25853	0.20815	0.26969	0.20794	0.17165	0.27537	0.11985	0.14419	0.22615	0.17616	-4.1979	-4.4167	-4.2688	-4.7438	-4.2833	-4.4792	-4.7875	-4.1958	-4.4292	-4.6021	-4.25	-4.6333	-4.4458	-4.3417	-4.6479	-4.2896	150.593	60.098	39.805	216.610	-36.077	221.427	181.195	212.029	-15.942	175.838	234.529	237.064	231.233	13.894	148.260	-15.921	0.00029333	0.0013813	0.001182	648.87	1.3316e-05	3.6856e-05	772.89	232.63	1.9679e-05	2.0152e-05	327.77	127.1	70.363	33.222	1.1429e-05	66.223	0.018208	0.019845	0.0054887	956.68	0.00020959	0.0002124	1083.5	339.84	0.00020389	0.00020539	496.57	195.53	148.95	52.057	0.00019349	91.108	218.607	17.810	-36.309	-98.917	-46.084	16.251	-100.054	-94.635	237.349	141.640	-95.784	-91.398	-90.111	-84.760	-0.527	-87.006	-8191	255	
12408.368	1	1	0	0	0.085106	0.074497	0.29693	0.21648	0.092828	0.14333	0.11669	0.16809	0.39677	0.11083	0.071608	0.1256	0.12688	0.1017	0.026396	0.037768	-4.2312	-4.5729	-4.0417	-4.825	-4.4313	-4.2958	-4.8583	-4.4208	-4.5667	-4.6958	-4.2021	-4.8604	-4.4271	-4.3625	-4.775	-4.2833	75.080	135.130	43.985	217.613	15.782	192.265	109.289	209.568	170.884	-12.523	-57.213	126.322	-73.760	-97.816	230.118	228.174	0.00066293	0.0012165	0.0014038	635.36	1.9305e-05	3.4908e-05	773.52	230.02	3.8277e-05	2.3544e-05	326.49	127	70.963	32.931	1.9365e-05	66.249	0.016025	0.017442	0.0048155	906.48	0.00018489	0.00018784	1045.1	324.38	0.00018417	0.00018687	480	189.25	142.91	50.661	0.00018654	90.219	137.364	-89.651	209.346	-98.912	-43.459	-112.158	-99.810	-94.783	181.184	-1.549	-96.074	-91.365	-90.631	-84.552	-79.875	-87.000	-8191	255	
12408.464	1	1	0	0	0.078148	0.073476	0.056629	0.21153	0.28437	0.10795	0.30871	0.19732	0.10918	0.12302	0.26421	0.21118	0.080247	0.0043426	0.10968	0.091554	-4.1042	-4.6646	-4.125	-4.6125	-4.5625	-4.3021	-4.8333	-4.3521	-4.4771	-4.95	-4.2	-4.6021	-4.3938	-4.2458	-4.8792	-4.2333	8.567	240.541	-84.318	166.570	8.261	-92.261	178.713	226.744	-10.969	152.273	172.077	-74.291	145.586	162.474	55.002	2.116	0.0005765	0.0022055	0.0005836	638.88	1.2772e-05	1.5655e-05	772.72	229.87	9.9986e-06	3.2143e-05	323.82	126.64	70.538	32.827	1.7616e-05	66.827	0.015685	0.0172	0.0047984	906.68	0.00018555	0.00018931	1047.1	324.95	0.00018498	0.00018855	480.17	189.65	142.85	50.69	0.00018701	90.389	161.137	7.293	238.533	-99.019	-79.675	28.692	-100.125	-94.580	-105.054	145.447	-96.203	-91.646	-89.912	-84.435	101.602	-87.219	-8191	255	
12408.560	1	1	0	0	0.17116	0.15235	0.24553	0.3176	0.16925	0.12783	0.068809	0.10391	0.06562	0.057838	0.30126	0.11755	0.11769	0.10133	0.27143	0.041633	-3.9833	-4.7542	-4.1188	-4.7125	-4.525	-4.0979	-4.7792	-4.45	-4.2667	-4.8146	-4.2333	-4.5771	-4.575	-4.2604	-4.6875	-4.4688	74.189	26.699	-44.293	204.605	170.433	132.421	153.737	-35.647	138.834	-82.599	-77.255	-108.486	-87.984	-88.737	-60.158	239.780	0.00036859	0.00085611	0.00041672	640.84	4.9157e-06	2.9219e-06	774.09	230.39	5.9407e-05	1.2483e-05	327.18	128.57	71.542	33.26	2.6615e-05	67.168	0.015653	0.017252	0.0047999	910.54	0.00018684	0.00019126	1056.8	328.79	0.00019028	0.00019512	490.44	193.99	147.45	52.164	0.00019752	92.732	119.417	48.836	193.045	-98.931	51.651	-81.213	-100.070	-94.523	50.809	201.728	-96.003	-91.766	-90.773	-84.814	-52.658	-87.073	-8191	255	
12408.656	1	1	0	0	0.19001	0.15962	0.068218	0.09809	0.21508	0.089624	0.20904	0.066291	0.12519	0.14461	0.13874	0.027672	0.050018	0.1189	0.074036	0.16242	-3.9021	-4.9396	-4.2521	-4.6104	-4.5625	-4.0354	-4.7438	-4.4333	-4.1188	-4.8271	-4.3438	-4.4833	-4.8313	-4.325	-4.75	-4.6	217.918	95.433	174.754	240.033	65.063	75.075	151.380	-96.943	149.730	-51.091	-110.374	89.168	-58.676	226.915	238.995	133.601	0.00059811	0.0011608	0.00069301	645.19	1.1814e-05	2.7975e-05	780.95	233.22	4.8069e-06	1.1725e-05	331.46	129.05	72.799	33.745	2.0895e-05	66.719	0.016544	0.018281	0.0051198	935.38	0.00019742	0.00020222	1077.4	336.04	0.00019711	0.00020135	497.59	196.92	150.41	53.008	0.00020505	93.898	41.451	-90.203	104.401	-98.882	-30.884	14.547	-99.979	-94.798	223.541	87.336	-95.895	-91.786	-90.065	-84.954	119.914	-86.751	-8191	255	
12408.751	1	1	0	0	0.087613	0.084052	0.23498	0.081172	0.13765	0.10496	0.12702	0.15591	0.22484	0.037453	0.083191	0.061199	0.093699	0.32962	0.14362	0.13711	-3.7979	-4.7979	-4.3625	-4.2688	-4.7146	-4.1104	-4.6854	-4.5458	-4.2333	-4.8625	-4.3375	-4.325	-4.7333	-4.1167	-4.575	-4.7208	49.047	117.930	84.787	-90.125	224.660	244.228	27.597	145.096	95.508	-61.063	-18.336	132.518	106.841	-59.517	124.605	40.053	0.0005257	0.0011064	0.00027963	649.82	2.5604e-05	7.8259e-06	782.72	232.83	1.0257e-05	2.5056e-05	328.52	126.65	71.78	33.142	1.8233e-05	65.832	0.017381	0.019453	0.0054777	960.78	0.00021406	0.00022082	1112.6	348.26	0.00021638	0.00022164	514.01	201.77	155.57	53.705	0.00021054	93.147	235.140	168.196	143.797	-98.982	5.652	80.579	-100.341	-94.857	-62.228	77.569	-95.859	-91.977	-90.637	-84.867	141.638	-87.047	-8191	255	
12408.847	1	1	0	0	0.433	0.069503	0.11896	0.059603	0.086273	0.13438	0.15891	0.1237	0.16541	0.16846	0.13195	0.17167	0.010028	0.22317	0.0067526	0.1581	-3.7417	-4.8125	-4.3146	-4.3604	-4.7375	-4.1375	-4.6271	-4.6083	-4.0708	-4.6958	-4.4979	-4.4	-4.7458	-4.1229	-4.5792	-4.6917	-33.928	11.294	35.827	-23.500	11.780	-96.219	218.472	20.171	207.203	-65.496	220.797	222.837	15.655	207.702	226.974	-14.761	0.00074959	0.001067	0.0011869	639.7	2.7487e-05	2.1288e-05	778.74	231.44	1.6258e-05	2.6913e-05	326.77	126.42	71.293	33.195	3.2257e-05	66.084	0.017279	0.018992	0.0052652	937.24	0.00020093	0.00020558	1076.6	336.17	0.00020128	0.00020669	497.6	195.92	150.79	52.715	0.00020314	92.318	155.136	-18.147	17.776	-98.615	-57.366	-92.965	-99.931	-94.794	39.278	58.362	-96.474	-91.465	-90.268	-84.675	-101.061	-87.094	-8191	255	
12408.967	1	1	0	0	0.040402	0.22949	0.07581	0.032475	0.26595	0.034598	0.17589	0.30868	0.021781	0.1241	0.11154	0.16093	0.2037	0.31785	0.21867	0.13242	-3.8125	-4.7562	-4.3146	-4.3	-4.6583	-4.3333	-4.5333	-4.7333	-4.1104	-4.6687	-4.5125	-4.25	-4.7688	-4.2	-4.4229	-4.8729	-19.799	49.402	35.852	133.475	174.225	162.029	-42.911	218.848	-58.304	-77.210	219.870	-100.439	-7.492	188.268	-36.977	-34.149	0.0004149	0.0012959	0.00055018	636.62	5.3896e-06	3.4472e-05	773.38	229.41	2.7825e-05	7.5834e-06	327.25	126.49	70.921	32.919	1.7554e-05	66.061	0.016819	0.018637	0.0051328	925.32	0.00019748	0.00020256	1071.5	333.26	0.00019979	0.00020589	497.98	196.27	151.47	52.952	0.00020716	93.359	161.099	148.647	-47.239	-99.222	192.786	-44.120	-100.031	-94.727	140.043	-95.175	-95.959	-91.390	-90.017	-84.751	98.417	-86.979	-8191	255	
12409.064	1	1	0	0	0.17965	0.12763	0.11529	0.25422	0.1207	0.097193	0.063803	0.036532	0.13726	0.14343	0.24526	0.097778	0.23733	0.12421	0.079031	0.15737	-3.8708	-4.5458	-4.6708	-4.2271	-4.7771	-4.3083	-4.2875	-4.7937	-4.1604	-4.5167	-4.7396	-4.1667	-4.6917	-4.4854	-4.3021	-4.8646	28.143	96.317	60.481	224.800	-24.891	163.631	109.220	20.668	-44.923	123.459	242.887	233.347	79.012	65.610	209.775	130.345	0.00078225	0.0029786	0.00011917	644.19	5.1927e-06	3.9753e-05	775.02	230.3	3.9142e-05	4.2493e-05	328.63	127.45	71.112	33.554	5.5445e-06	67.727	0.017325	0.019145	0.0053156	938.46	0.00020362	0.00020643	1077.9	335.68	0.00019904	0.00020281	495.62	195.09	149.37	52.377	0.00019716	93.103	94.710	222.764	85.552	-99.148	-38.871	55.871	-100.012	-94.631	37.364	23.769	-96.001	-92.101	-89.902	-84.102	151.882	-87.009	-8191	255	
12409.135	1	1	0	0	0.1679	0.1653	0.079872	0.069485	0.15837	0.12846	0.19883	0.14618	0.23005	0.14672	0.11415	0.072005	0.31434	0.16203	0.051888	0.1704	-3.8646	-4.5271	-4.8	-4.1042	-4.7979	-4.4542	-4.2854	-4.95	-4.1937	-4.5229	-4.8146	-4.2063	-4.6646	-4.625	-4.2896	-4.8313	126.201	34.973	82.722	101.878	22.697	226.594	-93.259	92.091	89.855	129.202	214.556	-41.926	-79.034	-92.666	223.704	145.969	0.00099222	0.0027987	0.00075632	645.53	2.7019e-05	1.5654e-05	782.46	234.3	1.5299e-05	2.0586e-05	328.46	127.95	73.114	33.893	4.0814e-05	67.901	0.016423	0.018173	0.0050365	924.39	0.00019405	0.00019734	1064.8	332.66	0.00019128	0.00019535	489.44	193.4	147.05	52.061	0.00018846	92.056	108.715	133.576	-45.429	-98.898	195.258	233.603	-99.864	-94.864	178.096	-81.823	-95.537	-92.074	-89.909	-84.887	157.257	-86.715	-8191	255	
12409.231	1	1	0	0	0.069857	0.22183	0.22456	0.11746	0.12086	0.08026	0.21128	0.096618	0.013929	0.21682	0.16477	0.22496	0.1108	0.13359	0.14462	0.17984	-3.8104	-4.5021	-4.5479	-4.2104	-4.5417	-4.6625	-4.2875	-4.9396	-4.3521	-4.3875	-4.7229	-4.0979	-4.6188	-4.5813	-4.0771	-4.8479	-70.682	90.449	160.506	163.810	118.208	158.676	179.592	35.762	68.947	78.485	128.433	83.868	174.221	214.473	49.266	145.192	0.00088957	0.0023509	0.00041235	644.35	1.0881e-05	9.8991e-06	787.82	235.04	2.0035e-05	2.1753e-05	332.51	127.24	71.689	33.6	2.5503e-05	66.336	0.015784	0.017424	0.0048468	915.92	0.00018973	0.00019391	1065.9	333.79	0.00019404	0.00019931	496.57	195.95	150.24	52.916	0.00020019	93.164	143.594	199.553	237.727	-99.189	42.041	-46.718	-99.833	-94.584	65.141	81.390	-95.567	-91.523	-89.498	-84.544	1.757	-86.967	-8191	255	
12409.328	1	1	0	0	0.29667	0.23508	0.29364	0.12242	0.23774	0.23202	0.21795	0.27147	0.3365	0.202	0.10854	0.18759	0.07812	0.16	0.15913	0.26683	-4.0646	-4.2583	-4.6167	-4.1167	-4.475	-4.4396	-4.2229	-4.6188	-4.225	-4.3896	-4.8	-4.3354	-4.5375	-4.6417	-4.1104	-4.9125	-106.489	204.146	139.661	173.908	243.233	-56.175	-71.919	20.325	61.907	101.644	-25.710	211.264	31.168	57.115	-103.415	228.612	0.0008206	0.0011835	0.00040857	641.98	3.2287e-05	3.3297e-05	781.56	230.15	3.2711e-06	3.811e-05	330.39	126.47	71.13	33.381	4.103e-06	66.633	0.016947	0.018628	0.0052029	933.66	0.00020084	0.00020469	1077.9	336.56	0.00019861	0.00020042	493.27	193.18	146.87	51.411	0.00018755	90.551	91.862	25.555	-72.971	-98.891	12.628	137.949	-100.023	-94.831	97.255	21.102	-95.906	-91.435	-90.355	-84.244	69.527	-86.990	-8191	255	
12409.448	1	1	0	0	0.20257	0.19724	0.11819	0.11439	0.25073	0.039608	0.22952	0.11452	0.14576	0.060394	0.14029	0.14649	0.056998	0.14007	0.094525	0.2006	-3.8917	-4.1958	-4.6562	-4.3125	-4.3625	-4.7604	-4.1958	-4.6958	-4.3979	-4.1083	-4.7792	-4.2917	-4.35	-4.8271	-4.1792	-4.7417	158.947	56.339	29.841	118.434	-53.515	-11.389	103.812	230.227	153.634	135.259	160.879	153.646	147.982	20.604	178.689	240.744	0.00052048	0.0011588	0.00056276	640.6	1.1216e-05	1.4317e-05	777.56	228.23	2.1556e-05	9.5996e-06	327.01	126.78	71.237	33.471	1.5269e-05	67.123	0.015603	0.016899	0.0046756	896.88	0.00017939	0.00018143	1036.2	319.96	0.00017666	0.00017908	473.49	186.7	139.8	50.141	0.00017663	89.839	129.840	49.935	-26.592	-98.887	-66.818	169.668	-99.905	-94.474	139.317	63.315	-95.759	-91.730	-90.521	-84.892	238.092	-87.232	-8191	255	
12409.544	1	1	0	0	0.08717	0.10566	0.17119	0.045764	0.055858	0.10703	0.21479	0.16389	0.084296	0.12146	0.056213	0.2226	0.08836	0.071371	0.065386	0.21067	-4.1625	-4.0771	-4.7271	-4.2542	-4.2896	-4.7792	-4.175	-4.7104	-4.5396	-4.2229	-4.8083	-4.3625	-4.3208	-4.8208	-4.0146	-4.8271	50.835	-4.780	244.177	172.236	140.965	233.799	189.996	178.386	94.898	180.064	104.921	-67.884	88.200	206.669	236.384	164.592	0.00091735	0.0024151	0.00062593	643.01	1.7769e-05	4.6897e-06	777.73	229.94	4.2326e-05	6.8992e-06	327.61	128.29	72.021	33.612	3.1633e-05	67.675	0.014842	0.01627	0.0045988	892.73	0.00017775	0.00018124	1041.1	322.9	0.00018073	0.00018459	481.39	190.08	143.23	51.186	0.00018508	91.677	123.122	213.235	95.671	-98.741	-39.213	154.642	-100.404	-94.734	-29.447	-13.692	-95.730	-91.526	-90.898	-84.699	170.866	-86.502	-8191	255	
12409.641	1	1	0	0	0.24454	0.094529	0.1721	0.36386	0.10279	0.068488	0.065808	0.22284	0.13207	0.064195	0.16713	0.2215	0.24471	0.021812	0.37162	0.12847	-4.0667	-4.2271	-4.6937	-4.3438	-4.3042	-4.7458	-4.4021	-4.5958	-4.8354	-4.0563	-4.8042	-4.4667	-4.225	-4.8187	-4.2063	-4.5271	21.412	226.042	221.336	194.018	230.454	183.415	-56.249	221.823	20.255	194.625	227.672	65.553	-15.815	-77.896	75.128	91.778	0.00038495	0.00063369	0.00053885	644.56	2.0335e-05	5.5934e-05	781.78	231.86	3.3015e-05	8.9722e-06	329.35	129.53	73.031	33.637	1.2956e-05	67.956	0.015493	0.017039	0.0047746	906.32	0.00018292	0.0001862	1050.1	325.92	0.0001819	0.00018489	482.81	190.7	143.29	51.137	0.00018284	91.048	100.738	-46.842	41.516	-98.848	199.394	19.290	-100.075	-94.627	48.808	199.084	-95.991	-91.680	-90.741	-84.451	180.931	-86.521	-8191	255	
12409.761	1	1	0	0	0.28874	0.14143	0.22069	0.20783	0.077546	0.11012	0.2945	0.061708	0.17794	0.06452	0.095274	0.17546	0.086203	0.096278	0.16699	0.10497	-4.1813	-4.0792	-4.6979	-4.3521	-4.1188	-4.7542	-4.425	-4.475	-4.6646	-4.0292	-4.7604	-4.6104	-4.1333	-4.75	-4.2688	-4.3292	-43.012	197.218	220.197	-87.147	-1.379	185.527	163.979	153.126	247.055	209.010	-87.108	221.694	-75.262	-47.941	145.544	-60.061	0.00017579	0.0025601	0.00033016	644.18	4.5635e-06	3.019e-05	786.5	230.34	2.087e-05	1.7664e-05	328.94	127.45	71.96	33.515	9.9186e-06	66.932	0.015225	0.016728	0.0047075	901.18	0.00017938	0.00018428	1047.9	323.24	0.00018007	0.00018329	479.77	188.01	140.97	50.524	0.00017806	89.359	151.138	-89.151	153.423	-98.447	-28.879	104.837	-100.404	-94.818	110.700	33.854	-96.120	-92.202	-89.876	-85.045	203.016	-87.068	-8191	255	
12409.833	1	1	0	0	0.30765	0.17994	0.15614	0.1949	0.1305	0.027547	0.099516	0.18069	0.17868	0.20098	0.16895	0.24252	0.23082	0.11543	0.20701	0.11981	-4.2542	-4.0604	-4.6396	-4.525	-4.1604	-4.6312	-4.5146	-4.4938	-4.6896	-4.1625	-4.6104	-4.6979	-4.1667	-4.8875	-4.3562	-4.3167	160.773	100.266	31.954	196.539	64.280	-88.725	207.875	181.182	23.610	220.253	133.475	139.841	239.965	209.676	209.732	201.151	0.00060905	0.00032119	0.00082239	639.37	1.2307e-05	1.9776e-05	779.24	228.22	4.7928e-06	1.4683e-05	325.07	126.61	70.643	33.011	2.077e-05	66.122	0.014684	0.016087	0.0044887	879.47	0.00016984	0.00017616	1027.1	316.92	0.00017424	0.00017957	474.49	187.07	141.26	50.756	0.00018648	90.112	101.376	149.213	123.758	-99.036	90.185	91.392	-99.893	-94.439	241.150	-101.754	-96.056	-92.008	-90.244	-84.632	20.906	-87.025	-8191	255	
12409.929	1	1	0	0	0.1064	0.10981	0.078384	0.11913	0.1442	0.24925	0.1441	0.068943	0.19976	0.11622	0.064024	0.15759	0.16172	0.21905	0.20589	0.17544	-4.4104	-4.1479	-4.5542	-4.7604	-4.1104	-4.6667	-4.4542	-4.3042	-4.7833	-4.2375	-4.5563	-4.8125	-4.1562	-4.7083	-4.3792	-4.2562	171.612	53.225	141.364	29.232	21.462	175.841	178.293	-97.786	55.221	230.592	217.797	208.056	-58.800	212.138	113.666	186.614	0.0017067	0.0024976	0.00055363	639.33	2.364e-05	2.5928e-05	770.4	225.98	2.6602e-05	1.8174e-05	322.27	124.75	69.266	32.038	2.4305e-05	64.549	0.015946	0.017686	0.0050139	917.08	0.00019552	0.0002033	1069.6	331.85	0.00020251	0.0002077	497.18	195.2	150.55	52.425	0.00020848	92.473	127.687	24.059	-67.593	-98.638	79.935	-21.281	-99.896	-94.721	-64.936	-12.850	-96.334	-92.188	-90.561	-84.615	93.983	-86.807	-8191	255	
12410.048	1	1	0	0	0.1373	0.13363	0.12392	0.11175	0.28636	0.25172	0.38579	0.14102	0.2655	0.10849	0.28179	0.22542	0.085138	0.17913	0.25076	0.29475	-4.4146	-4.2125	-4.5708	-4.5875	-4.0875	-4.5542	-4.675	-4.1646	-4.9167	-4.2896	-4.4812	-4.7	-4.1729	-4.6708	-4.5875	-4.3292	5.530	-109.211	54.188	176.860	151.157	22.385	135.167	163.564	-20.039	-7.039	239.761	226.905	-71.244	94.250	-85.120	187.744	0.00061528	0.0011626	0.00060366	634.34	1.2454e-05	1.1264e-05	763.37	225.04	1.1294e-05	3.2111e-05	323.1	124.95	69.846	32.391	3.5547e-05	65.732	0.017511	0.019327	0.0054102	939.07	0.00020799	0.00021436	1080	333.8	0.00020572	0.00020805	494.67	194.25	147.65	51.707	0.00019766	91.114	194.548	176.271	101.099	-99.276	39.425	73.438	-100.111	-94.616	-1.617	-54.097	-95.786	-92.096	-90.731	-84.704	172.569	-86.805	-8191	255	
12410.144	1	1	0	0	0.1011	0.15687	0.085614	0.032639	0.029687	0.18109	0.087773	0.12429	0.12706	0.055584	0.17368	0.17622	0.10908	0.14133	0.37507	0.26883	-4.4208	-4.4667	-4.3542	-4.7646	-4.2667	-4.4958	-4.7	-4.2125	-4.7479	-4.3562	-4.2229	-4.7375	-4.1229	-4.4812	-4.4187	-4.1833	55.971	243.003	196.171	-59.979	223.411	225.912	152.575	144.633	69.011	-51.527	56.353	108.669	-46.922	-96.374	-7.448	188.161	0.00051273	0.0023749	0.00084568	634.59	3.0915e-05	1.3775e-05	770.11	225.83	1.8412e-05	2.1106e-06	324.92	125.93	70.783	32.594	1.3439e-05	66.187	0.016473	0.018	0.0049957	912.49	0.00019097	0.00019665	1054.5	325.28	0.00019038	0.00019242	482.22	189.68	143.22	50.687	0.00018603	89.699	103.922	-72.805	-79.359	-99.190	-29.785	154.100	-100.085	-94.682	168.333	-86.559	-96.179	-91.494	-91.418	-84.981	-51.046	-87.175	-8191	255	
12410.240	1	1	0	0	0.13787	0.11564	0.05693	0.11647	0.15215	0.17903	0.18292	0.09858	0.14038	0.25474	0.14632	0.058485	0.17177	0.15233	0.083731	0.024313	-4.5208	-4.4146	-4.1562	-4.8625	-4.2625	-4.3	-4.55	-4.1604	-4.4958	-4.5271	-4.2271	-4.8458	-4.2417	-4.4875	-4.6042	-4.1917	46.891	185.391	14.429	226.774	118.296	165.085	46.053	149.112	6.145	40.266	230.182	-25.539	113.962	10.420	17.758	168.464	0.00042649	0.0012117	0.0005451	634.69	2.1477e-05	2.2026e-05	781.58	226.63	2.3347e-05	3.3907e-05	325.37	124.91	69.5	32.25	3.478e-06	65.835	0.015523	0.016962	0.0047234	895.12	0.00018161	0.00018701	1042.1	321.08	0.00018414	0.0001863	478	188.35	142.18	50.256	0.00018522	89.218	139.977	-69.280	-26.058	-98.964	182.047	-107.933	-100.284	-94.818	118.238	123.660	-95.946	-91.612	-90.105	-84.582	129.249	-87.055	-8191	255	
12410.361	1	1	0	0	0.14585	0.12027	0.031397	0.061637	0.2678	0.047054	0.20128	0.076375	0.175	0.20721	0.20704	0.12466	0.22408	0.11774	0.049292	0.30868	-4.2854	-4.5042	-4.2708	-4.9542	-4.2604	-4.4083	-4.8396	-4.2479	-4.5542	-4.625	-4.2208	-4.7729	-4.2708	-4.3979	-4.6375	-4.1604	166.052	93.463	-42.916	165.678	240.616	80.768	217.960	222.195	18.302	181.087	126.632	119.293	169.824	55.051	75.963	183.278	0.0006553	0.0013722	0.00024266	639.54	2.1806e-05	3.5481e-05	773.25	228.81	1.2761e-05	8.8588e-06	325.81	126.27	69.593	32.498	7.846e-06	65.382	0.015736	0.017215	0.0047921	904.79	0.00018534	0.00019044	1044.4	322.39	0.00018325	0.00018376	472.32	185.95	139.27	49.324	0.00017689	88.038	182.765	-57.267	236.782	-98.927	77.250	-23.791	-100.356	-94.771	150.199	-81.008	-96.042	-91.617	-90.179	-84.788	47.708	-87.416	-8191	255	
12410.432	1	1	0	0	0.13364	0.16435	0.098618	0.14598	0.12939	0.20877	0.35349	0.10573	0.1226	0.089371	0.030633	0.26731	0.21305	0.077817	0.19141	0.24017	-4.3	-4.5167	-4.1312	-4.7812	-4.3104	-4.3938	-4.7792	-4.2542	-4.5437	-4.6188	-4.2333	-4.7417	-4.3583	-4.325	-4.8083	-4.3479	8.541	36.719	-26.866	181.277	-28.768	114.539	130.622	230.749	241.026	144.254	50.227	97.113	81.400	-47.164	186.069	124.577	0.00076722	0.00065053	0.00078992	633.25	2.8359e-05	1.4549e-05	771.21	227.4	1.9299e-05	2.0871e-05	319.77	124.37	69.958	32.263	6.0624e-06	64.48	0.015085	0.01656	0.0046246	895.95	0.00018236	0.00018902	1045.1	324.07	0.00019104	0.00019394	482.38	190.97	145.43	50.949	0.00019623	90.292	180.805	49.481	87.668	-99.113	45.172	9.346	-99.799	-94.369	-47.406	208.252	-96.195	-91.622	-90.157	-84.557	219.736	-87.093	-8191	255	
12410.529	1	1	0	0	0.20659	0.19484	0.15396	0.10708	0.02835	0.093179	0.16941	0.037053	0.16028	0.13053	0.17086	0.13354	0.049733	0.12434	0.088073	0.27331	-4.1917	-4.5521	-4.1229	-4.7292	-4.3688	-4.2208	-4.8375	-4.3354	-4.4667	-4.7271	-4.1458	-4.6625	-4.35	-4.1042	-4.6562	-4.2063	-11.651	212.326	167.897	74.551	-35.352	136.116	116.952	194.335	-44.278	25.279	11.424	62.349	-24.408	203.265	-107.067	190.952	0.00031074	0.001458	0.00052378	637.86	2.399e-05	2.4619e-05	767.13	225.23	3.8591e-05	1.5877e-05	322.08	124.34	70.197	32.44	1.5205e-05	65.64	0.0167	0.018397	0.0051579	927.58	0.00020107	0.00020551	1071.1	333.07	0.00020162	0.00020236	491.07	193.18	146.43	50.986	0.0001923	90.269	204.037	49.497	-8.787	-98.796	-5.227	43.579	-100.359	-94.686	230.093	71.762	-95.830	-91.605	-89.930	-84.515	111.136	-86.892	-8191	255	
12410.625	1	1	0	0	0.10146	0.20761	0.2004	0.35514	0.12812	0.1382	0.17257	0.15248	0.27547	0.072294	0.072623	0.14951	0.12262	0.087274	0.076884	0.032735	-4.0625	-4.6813	-4.1917	-4.5583	-4.5146	-4.0958	-4.9292	-4.4521	-4.2979	-4.8167	-4.2958	-4.7604	-4.5312	-4.2604	-4.65	-4.3833	88.633	-71.399	-69.793	178.114	101.450	59.443	210.167	70.719	207.904	241.354	144.276	-103.720	48.714	227.612	12.737	71.550	0.00062723	0.0017676	0.00064804	634.73	2.4458e-05	2.7038e-05	770.25	230.3	2.3731e-05	1.1078e-05	326	126.77	71.053	32.801	8.3128e-06	66.744	0.015803	0.017204	0.0047655	897.86	0.00018137	0.000185	1038.3	322.42	0.00017945	0.00018366	476.54	188.5	141.49	50.197	0.00018231	89.526	89.772	112.719	2.195	-99.214	-61.466	68.541	-99.588	-94.240	20.282	171.216	-95.908	-91.994	-90.483	-84.730	-34.335	-87.052	-8191	255	
12410.744	1	1	0	0	0.13079	0.056925	0.14927	0.341	0.16553	0.11821	0.0056926	0.14708	0.18995	0.053156	0.1257	0.071263	0.15261	0.17818	0.065656	0.1515	-3.875	-4.7354	-4.2	-4.5146	-4.5875	-4.2167	-4.6375	-4.3521	-4.1958	-4.7562	-4.275	-4.3688	-4.7167	-3.9979	-4.6396	-4.5312	222.008	215.276	187.664	-50.024	-14.802	186.017	-79.326	166.265	176.630	8.673	128.608	242.755	119.132	-67.446	175.865	46.838	0.00027402	0.0020828	0.00090408	639.75	1.293e-05	1.7331e-05	773.17	233.55	2.8407e-05	8.856e-06	328.49	128.11	71.193	32.798	3.3798e-05	66.334	0.015193	0.016752	0.0046908	898.49	0.00018091	0.00018572	1042.4	325.75	0.00018332	0.0001879	482.15	190.21	143.72	50.781	0.00018787	90.042	-80.620	-3.859	-90.856	-99.112	135.786	67.361	-99.948	-94.719	157.791	29.384	-95.604	-91.975	-90.210	-84.572	102.666	-87.047	-8191	255	
12410.840	1	1	0	0	0.070995	0.0625	0.22017	0.19841	0.11635	0.038401	0.21099	0.28517	0.17033	0.2285	0.36967	0.058799	0.1114	0.14453	0.11823	0.2733	-3.8375	-4.7333	-4.2125	-4.5146	-4.6125	-4.1375	-4.6458	-4.6229	-4.1417	-4.8187	-4.3938	-4.4187	-4.7479	-4.2438	-4.6687	-4.6729	58.034	229.564	-111.851	-66.625	93.523	-35.245	160.011	227.883	74.805	-73.599	209.653	147.960	-71.936	-50.015	7.468	134.442	0.00025228	0.002676	0.00011385	641.77	1.2523e-05	2.508e-06	778.61	231.93	4.054e-06	2.4647e-06	324.37	126.33	71.106	32.425	1.8198e-05	64.801	0.015688	0.017322	0.0048542	908.02	0.00018669	0.00019191	1055.4	328.77	0.00018766	0.00019319	482.17	190.67	144.31	50.563	0.00018905	89.197	139.306	38.397	-37.714	-99.000	143.869	156.546	-99.888	-94.567	213.272	159.733	-95.564	-91.752	-90.585	-84.295	-53.963	-86.665	-8191	255	
12410.936	1	1	0	0	0.099358	0.21633	0.078765	0.19609	0.080184	0.31732	0.073407	0.11562	0.11091	0.14194	0.18523	0.21518	0.1329	0.088196	0.11965	0.21724	-3.8583	-4.7542	-4.4667	-4.5271	-4.7812	-4.1792	-4.7917	-4.7229	-4.0833	-4.8021	-4.575	-4.2625	-4.8167	-4.2021	-4.5208	-4.6396	-99.831	10.282	226.461	208.621	-59.323	-97.153	-95.664	242.052	-48.739	-27.709	193.699	-108.916	-79.266	223.256	180.088	-105.149	0.00095421	0.0011487	0.00011202	634.87	8.585e-06	5.1809e-06	765.67	229.55	4.6056e-05	1.6216e-05	322.72	125.03	70.204	32.541	3.5836e-05	65.49	0.015625	0.017254	0.0047726	899.38	0.00018184	0.00018565	1034.9	321.26	0.00017789	0.00018144	470.7	185.11	139.05	49.261	0.00017712	87.786	130.174	-92.140	62.264	-99.074	144.825	84.413	-100.020	-95.002	-58.101	124.893	-96.072	-91.274	-90.141	-84.043	213.197	-87.035	-8191	255	
12411.009	1	1	0	0	0.1269	0.14016	0.18684	0.23912	0.085567	0.17018	0.31575	0.22433	0.12897	0.092188	0.078599	0.2218	0.12257	0.075718	0.04302	0.16361	-3.7708	-4.7354	-4.3083	-4.2208	-4.7646	-4.3438	-4.6583	-4.6042	-4.3354	-4.7104	-4.4437	-4.2604	-4.9146	-4.4146	-4.4708	-4.9479	155.649	198.542	109.970	177.041	-63.005	11.689	215.485	152.584	-59.249	220.332	187.455	229.184	118.870	124.779	77.713	217.900	0.0005092	0.0019154	0.00056183	632.37	2.4072e-05	2.4605e-05	766.73	227.38	1.4045e-05	2.2732e-05	322.46	125.5	69.58	32.412	1.3362e-05	65.825	0.014757	0.016373	0.0045742	885.99	0.00017901	0.00018399	1036.7	321.63	0.00018279	0.00019003	479.18	189.69	144.62	50.832	0.00019204	90.291	107.786	215.220	28.426	-98.558	115.267	-92.372	-100.187	-94.967	197.047	-42.888	-95.734	-91.589	-90.242	-84.573	139.942	-86.972	-8191	255	
12411.128	1	1	0	0	0.0844	0.19535	0.20783	0.19386	0.1604	0.17025	0.15406	0.074903	0.16133	0.13034	0.18892	0.11818	0.22923	0.19921	0.16412	0.16465	-3.9042	-4.5208	-4.5146	-4.1854	-4.7104	-4.2271	-4.4667	-4.6646	-4.1479	-4.6021	-4.3958	-4.1875	-4.7542	-4.2708	-4.2875	-4.7667	156.940	-35.130	17.872	-79.777	95.099	104.444	31.221	-27.247	-97.190	54.347	-58.774	123.275	-91.207	144.552	-4.136	225.863	0.00056866	0.00099289	0.00095325	632.74	6.7831e-06	2.2733e-05	772.97	230.09	1.1344e-05	4.1004e-06	323.31	126.92	71.553	33.349	4.1053e-05	66.98	0.016008	0.017791	0.0049196	904.68	0.00018831	0.00019151	1046.4	325.74	0.00018427	0.0001883	477.46	188.7	142.65	50.611	0.000182	89.931	87.866	9.915	77.406	-98.724	90.909	-35.515	-100.049	-94.527	133.103	142.951	-95.981	-91.710	-90.085	-84.907	14.675	-87.157	-8191	255	
12411.224	1	1	0	0	0.21017	0.12185	0.1172	0.29963	0.31828	0.10222	0.2306	0.099985	0.16337	0.14142	0.044731	0.088461	0.074454	0.22492	0.011226	0.16168	-3.825	-4.5896	-4.5333	-4.0521	-4.6854	-4.4563	-4.3438	-4.8292	-4.1833	-4.5917	-4.7	-4.2396	-4.7229	-4.4083	-4.2021	-4.925	172.334	-60.785	33.398	243.304	174.818	35.334	225.310	-71.163	94.261	233.001	-39.185	77.323	34.130	232.418	-56.648	-102.257	0.0011627	0.0037815	0.00085187	635.46	2.5756e-06	1.001e-05	777.11	232.52	3.2186e-05	9.0482e-06	328.97	128.19	71.454	33.4	3.2222e-05	66.664	0.015155	0.01684	0.0046557	893.16	0.00018034	0.00018335	1036.5	324.06	0.00017979	0.00018391	476.64	188.89	142.76	50.672	0.00018219	90.123	154.142	-32.255	56.868	-99.204	-45.269	-32.210	-99.845	-94.485	40.177	17.604	-95.756	-91.546	-90.262	-85.099	-87.886	-86.812	-8191	255	
12411.321	1	1	0	0	0.16575	0.092046	0.077513	0.037468	0.085336	0.11761	0.26152	0.060256	0.14801	0.12011	0.081608	0.13412	0.07188	0.14636	0.24089	0.16004	-3.9688	-4.5062	-4.6146	-4.2396	-4.5583	-4.4563	-4.3396	-4.7146	-4.2042	-4.4229	-4.7167	-4.2125	-4.7063	-4.5354	-4.3	-4.8667	74.948	17.146	109.850	66.274	232.727	170.194	240.771	242.068	103.064	107.006	127.884	208.773	-109.729	179.347	-84.158	184.131	0.00017959	0.0024121	0.00044372	636.7	2.9037e-05	3.258e-05	779.16	230.99	1.1116e-05	2.1539e-05	325.18	126.98	71.673	33.135	2.5196e-05	66.287	0.015369	0.016944	0.0046988	895.75	0.0001816	0.00018463	1036.9	324.61	0.00017951	0.00018284	473.8	187.31	142.05	50.107	0.00017716	88.837	173.095	79.263	-12.039	-98.588	-55.046	177.154	-99.898	-94.901	62.003	-72.517	-96.005	-91.995	-89.669	-84.592	174.644	-87.211	-8191	255	
12411.441	1	1	0	0	0.31648	0.054975	0.025151	0.1811	0.16856	0.12434	0.11932	0.16171	0.035493	0.073552	0.0664	0.05982	0.12864	0.44429	0.14527	0.20889	-3.8438	-4.5708	-4.9083	-4.2625	-4.8125	-4.4979	-4.2438	-4.9104	-4.3167	-4.4021	-4.8313	-4.2333	-4.5354	-4.6771	-4.2104	-4.9604	-62.943	28.447	-14.413	151.242	11.473	-83.386	36.451	194.811	-89.310	122.770	143.228	213.861	-98.159	188.366	69.666	-52.281	0.00072925	0.00051093	0.00067676	636.63	1.3983e-05	2.1278e-05	767.1	230.25	1.689e-05	3.157e-05	322.43	125.82	70.308	32.741	2.5184e-05	65.381	0.014824	0.016176	0.0045081	880.66	0.00017388	0.00017749	1022.8	320.58	0.00017588	0.00018054	471.5	186.75	141.64	50.185	0.00018279	89.211	147.768	210.258	125.620	-98.577	60.489	86.119	-99.823	-94.927	-82.964	15.551	-95.847	-91.737	-90.695	-84.478	239.689	-87.021	-8191	255	
12411.537	1	1	0	0	0.12447	0.22069	0.20607	0.14138	0.24681	0.059083	0.12528	0.18486	0.11726	0.18076	0.13835	0.20382	0.068828	0.1982	0.075033	0.13766	-4.15	-4.1667	-4.7063	-4.2771	-4.5667	-4.5687	-4.2292	-4.8688	-4.4667	-4.2604	-4.9833	-4.1354	-4.5854	-4.6	-4.2667	-4.8292	120.338	91.099	6.232	232.489	-73.209	39.684	246.863	62.812	150.909	235.526	70.076	100.911	192.068	103.795	182.792	245.690	0.00044643	0.0022109	0.00030985	633.67	2.0065e-05	7.1091e-06	767.78	228.15	8.2983e-06	2.509e-05	322.71	125.49	70.69	32.738	1.4138e-05	65.844	0.015369	0.016874	0.0047006	890	0.00017995	0.00018351	1028.2	321.25	0.00018017	0.00018435	474.89	188.58	143.13	50.67	0.00019023	90.671	59.071	36.106	60.275	-98.863	-18.968	4.851	-100.122	-94.871	-35.653	232.585	-96.093	-91.944	-89.692	-84.872	156.839	-86.968	-8191	255	
12411.633	1	1	0	0	0.18975	0.095413	0.057006	0.24972	0.14942	0.16001	0.20605	0.18221	0.2762	0.22241	0.15367	0.098657	0.26436	0.15268	0.12246	0.2271	-4.2729	-4.1667	-4.8063	-4.3146	-4.4854	-4.7	-4.2333	-4.8167	-4.6583	-4.2042	-4.7729	-4.4396	-4.4125	-4.6708	-4.1729	-4.6042	173.680	84.822	244.011	246.714	39.095	7.631	135.886	186.903	-37.883	-31.060	152.182	199.783	225.808	-71.731	246.323	-42.784	0.00066143	0.0021181	3.3319e-05	635.05	2.3471e-06	3.2268e-05	765.35	227.87	3.072e-05	9.8793e-06	319.16	127.31	70.901	32.945	2.6916e-05	66.411	0.016168	0.017924	0.005066	914.87	0.00019647	0.0002011	1061.5	333.38	0.00019875	0.0002021	491.99	194.96	149.46	52.171	0.00019832	92.257	101.394	-8.240	79.470	-99.196	-71.319	-21.016	-99.936	-94.813	-39.005	40.807	-96.180	-92.134	-90.407	-84.949	-29.385	-86.740	-8191	255	
#DATA ENDS
