BOXY.EXE: ISS Imagent and Oximeter Data Acquisition Program Version 0.80
Ascii Record File

#ACQ INFORMATION
2  Detector Channels 
16  External MUX Channels 
1  Auxiliary Channels 
5000  Waveform (CCF) Frequency (Hz)
1  Waveforms Skipped 
30  Waveforms Averaged 
1  Cycles Averaged 
16  Acquisitions per Waveform 
10.0806  Updata Rate (Hz) 

#FILE INFORMATION
TRUE -- External MUX Channel results are PARSED.
FALSE -- AC DC and Phase are NOT grouped.
TRUE -- Companion Program Settings File CREATED.
FALSE -- AC data not excluded
FALSE -- DC data not excluded
FALSE -- Phase data not excluded
FALSE -- Auxillary Chn. data not excluded
Tab delimiters

#CALIBRATION STATE
TRUE -- Waveform Calibration Values APPLIED.


#AUX CALIBRATION VALUES
Val Type	aux-1	

Term	1.0000e+00	
Factor	0.0000e+00	


#WF CALIBRATION VALUES
A = Detector Channel
Val Type	A-AC1	A-AC2	A-AC3	A-AC4	A-AC5	A-AC6	A-AC7	A-AC8	A-AC9	A-AC10	A-AC11	A-AC12	A-AC13	A-AC14	A-AC15	A-AC16	A-DC1	A-DC2	A-DC3	A-DC4	A-DC5	A-DC6	A-DC7	A-DC8	A-DC9	A-DC10	A-DC11	A-DC12	A-DC13	A-DC14	A-DC15	A-DC16	A-Ph1	A-Ph2	A-Ph3	A-Ph4	A-Ph5	A-Ph6	A-Ph7	A-Ph8	A-Ph9	A-Ph10	A-Ph11	A-Ph12	A-Ph13	A-Ph14	A-Ph15	A-Ph16	

Term	0.00000e+00	0.00000e+00	0.00000e+00	0.00000e+00	0.00000e+00	0.00000e+00	0.00000e+00	0.00000e+00	0.00000e+00	0.00000e+00	0.00000e+00	0.00000e+00	0.00000e+00	0.00000e+00	0.00000e+00	0.00000e+00	0.00000e+00	0.00000e+00	0.00000e+00	0.00000e+00	0.00000e+00	0.00000e+00	0.00000e+00	0.00000e+00	0.00000e+00	0.00000e+00	0.00000e+00	0.00000e+00	0.00000e+00	0.00000e+00	0.00000e+00	0.00000e+00	0.00000e+00	0.00000e+00	0.00000e+00	0.00000e+00	0.00000e+00	0.00000e+00	0.00000e+00	0.00000e+00	0.00000e+00	0.00000e+00	0.00000e+00	0.00000e+00	0.00000e+00	0.00000e+00	0.00000e+00	0.00000e+00	
Factor	1.00000e+00	1.00000e+00	1.00000e+00	1.00000e+00	1.00000e+00	1.00000e+00	1.00000e+00	1.00000e+00	1.00000e+00	1.00000e+00	1.00000e+00	1.00000e+00	1.00000e+00	1.00000e+00	1.00000e+00	1.00000e+00	1.00000e+00	1.00000e+00	1.00000e+00	1.00000e+00	1.00000e+00	1.00000e+00	1.00000e+00	1.00000e+00	1.00000e+00	1.00000e+00	1.00000e+00	1.00000e+00	1.00000e+00	1.00000e+00	1.00000e+00	1.00000e+00	X	X	X	X	X	X	X	X	X	X	X	X	X	X	X	X	

B = Detector Channel
Val Type	B-AC1	B-AC2	B-AC3	B-AC4	B-AC5	B-AC6	B-AC7	B-AC8	B-AC9	B-AC10	B-AC11	B-AC12	B-AC13	B-AC14	B-AC15	B-AC16	B-DC1	B-DC2	B-DC3	B-DC4	B-DC5	B-DC6	B-DC7	B-DC8	B-DC9	B-DC10	B-DC11	B-DC12	B-DC13	B-DC14	B-DC15	B-DC16	B-Ph1	B-Ph2	B-Ph3	B-Ph4	B-Ph5	B-Ph6	B-Ph7	B-Ph8	B-Ph9	B-Ph10	B-Ph11	B-Ph12	B-Ph13	B-Ph14	B-Ph15	B-Ph16	

Term	0.00000e+00	0.00000e+00	0.00000e+00	0.00000e+00	0.00000e+00	0.00000e+00	0.00000e+00	0.00000e+00	0.00000e+00	0.00000e+00	0.00000e+00	0.00000e+00	0.00000e+00	0.00000e+00	0.00000e+00	0.00000e+00	0.00000e+00	0.00000e+00	0.00000e+00	0.00000e+00	0.00000e+00	0.00000e+00	0.00000e+00	0.00000e+00	0.00000e+00	0.00000e+00	0.00000e+00	0.00000e+00	0.00000e+00	0.00000e+00	0.00000e+00	0.00000e+00	-2.04314e+02	-1.42203e+02	-1.28168e+02	-1.83188e+02	-8.07192e+01	-9.55538e+01	-1.57235e+02	-1.62015e+02	-9.38696e+01	-7.87754e+01	-1.72586e+02	-1.73078e+02	-1.80462e+02	-1.78286e+02	-1.03677e+02	-1.51187e+02	
Factor	5.12228e-05	5.56067e-05	1.88345e-05	1.95333e-01	6.11813e-07	6.20629e-07	2.43410e-01	8.63391e-02	5.78950e-07	5.10576e-07	1.23214e-01	4.08652e-02	3.29490e-02	1.20693e-02	4.99769e-07	1.77148e-02	2.19044e-07	2.19549e-07	6.10483e-08	8.04949e-02	2.40446e-09	2.40050e-09	9.18355e-02	3.25942e-02	2.40413e-09	2.39780e-09	4.31712e-02	1.43532e-02	1.21673e-02	4.38651e-03	2.40139e-09	6.00466e-03	X	X	X	X	X	X	X	X	X	X	X	X	X	X	X	X	



#DISTANCE SETTINGS
A = Detector Channel
A-1	A-2	A-3	A-4	A-5	A-6	A-7	A-8	A-9	A-10	A-11	A-12	A-13	A-14	A-15	A-16	

2.5000e+00	3.0000e+00	2.5000e+00	3.0000e+00	2.0000e+00	3.0000e+00	1.5000e+00	3.0000e+00	3.0000e+00	3.0000e+00	3.0000e+00	3.0000e+00	3.0000e+00	3.0000e+00	1.5000e+00	3.0000e+00	

B = Detector Channel
B-1	B-2	B-3	B-4	B-5	B-6	B-7	B-8	B-9	B-10	B-11	B-12	B-13	B-14	B-15	B-16	

1.0000e+01	1.0000e+01	1.0000e+01	1.4400e+00	1.0000e+01	1.0000e+01	1.5100e+00	1.9400e+00	1.0000e+01	1.0000e+01	1.9900e+00	2.4900e+00	2.4100e+00	2.9000e+00	1.0000e+01	2.9800e+00	




#DATA BEGINS
time	group	step	mark	flag	A-AC1	A-AC2	A-AC3	A-AC4	A-AC5	A-AC6	A-AC7	A-AC8	A-AC9	A-AC10	A-AC11	A-AC12	A-AC13	A-AC14	A-AC15	A-AC16	A-DC1	A-DC2	A-DC3	A-DC4	A-DC5	A-DC6	A-DC7	A-DC8	A-DC9	A-DC10	A-DC11	A-DC12	A-DC13	A-DC14	A-DC15	A-DC16	A-Ph1	A-Ph2	A-Ph3	A-Ph4	A-Ph5	A-Ph6	A-Ph7	A-Ph8	A-Ph9	A-Ph10	A-Ph11	A-Ph12	A-Ph13	A-Ph14	A-Ph15	A-Ph16	B-AC1	B-AC2	B-AC3	B-AC4	B-AC5	B-AC6	B-AC7	B-AC8	B-AC9	B-AC10	B-AC11	B-AC12	B-AC13	B-AC14	B-AC15	B-AC16	B-DC1	B-DC2	B-DC3	B-DC4	B-DC5	B-DC6	B-DC7	B-DC8	B-DC9	B-DC10	B-DC11	B-DC12	B-DC13	B-DC14	B-DC15	B-DC16	B-Ph1	B-Ph2	B-Ph3	B-Ph4	B-Ph5	B-Ph6	B-Ph7	B-Ph8	B-Ph9	B-Ph10	B-Ph11	B-Ph12	B-Ph13	B-Ph14	B-Ph15	B-Ph16	aux-1	digaux	

4139.720	1	1	0	768	0.17274	0.17946	0.19224	0.15981	0.34221	0.28454	0.24333	0.13157	0.15969	0.025988	0.32824	0.12198	0.15619	0.11354	0.27728	0.055107	-3.0042	-3.5458	-3.6937	-3.3583	-3.9313	-3.7146	-3.35	-3.7104	-3.4083	-3.4708	-3.7667	-3.3563	-3.7417	-3.5854	-3.2375	-3.9792	511.620	347.649	391.282	499.601	311.989	353.215	513.965	201.026	288.512	408.289	524.613	191.732	198.764	207.646	357.790	343.868	0.00081917	8.5814e-05	8.0766e-05	619.26	2.4194e-06	1.1045e-06	582.64	249.66	2.5983e-06	7.2986e-07	213.57	88.276	106.51	50.75	1.3183e-06	42.016	5.2728e-05	5.3526e-05	1.3601e-05	544.85	5.5255e-07	5.9106e-07	499.2	202.38	5.7113e-07	5.8182e-07	168.2	68.58	83.895	39.56	5.2616e-07	31.514	475.213	291.490	282.958	186.464	295.552	249.287	183.393	192.498	248.885	336.143	188.220	191.946	197.780	202.293	259.075	195.552	-8191	255	
4139.817	1	1	0	0	0.22669	0.18218	0.29883	0.088538	0.16099	0.17758	0.10201	0.16413	0.26364	0.21554	0.041953	0.12919	0.090042	0.10257	0.11505	0.16043	-3.1104	-3.4708	-3.9521	-3.3	-3.7083	-3.6521	-3.2917	-3.9375	-3.5271	-3.2125	-4.0208	-3.2083	-3.6854	-3.8417	-3.3167	-3.8854	395.376	488.891	281.292	402.137	454.487	463.959	502.627	449.209	431.337	250.394	312.507	229.888	290.819	216.467	177.600	293.174	0.00093427	0.00012979	2.3133e-05	617.78	4.3685e-07	1.5163e-06	579.26	249.34	1.4393e-06	1.0435e-06	212.62	87.899	107.08	50.86	4.859e-07	41.817	5.4679e-05	5.2529e-05	1.3239e-05	543.17	5.7423e-07	5.6689e-07	497.01	201.79	5.9201e-07	5.567e-07	167.16	68.318	83.926	39.445	5.2055e-07	31.297	475.793	316.451	311.288	186.667	410.741	378.007	183.162	192.602	274.825	345.675	188.321	192.115	197.804	202.163	228.711	195.593	-8191	255	
4139.913	1	1	0	0	0.1942	0.26511	0.12074	0.15716	0.14317	0.16367	0.14564	0.20312	0.2624	0.12261	0.16033	0.1154	0.19563	0.10479	0.11137	0.15097	-3.0104	-3.3167	-3.9833	-3.2271	-3.4583	-3.9313	-3.2208	-3.9229	-3.4708	-3.5292	-4.0292	-3.4	-3.6542	-4.0875	-3.2292	-3.7542	201.337	309.119	199.711	357.425	397.278	399.958	521.270	189.417	384.702	433.185	255.530	487.345	429.966	468.672	220.604	508.948	0.00081864	4.2025e-05	3.33e-05	620.09	1.3099e-06	1.4655e-06	576.9	250.43	1.1407e-06	1.2185e-06	212.17	87.177	106.86	50.589	1.118e-06	41.633	5.7237e-05	4.9941e-05	1.2759e-05	545.23	5.8684e-07	5.3454e-07	495.08	202.53	5.8806e-07	5.3388e-07	166.22	68.262	83.865	39.314	4.9237e-07	31.333	480.824	524.338	339.504	186.506	338.809	347.755	183.408	192.595	283.647	409.986	187.859	192.114	197.538	202.235	297.676	195.439	-8191	255	
4140.009	1	1	0	0	0.10152	0.25336	0.15886	0.27108	0.15882	0.1152	0.062353	0.072078	0.11374	0.10205	0.24353	0.39997	0.21255	0.17941	0.17132	0.10709	-3.1271	-3.2958	-3.9354	-3.3937	-3.5396	-3.9667	-3.3333	-3.7562	-3.4833	-3.2042	-3.9167	-3.3729	-3.4042	-3.8729	-3.2979	-3.8229	332.647	505.596	269.956	428.126	492.912	318.279	319.535	472.086	174.843	494.170	501.972	320.323	408.668	184.688	516.536	217.301	0.00074215	3.5929e-05	5.0826e-05	618.83	1.3028e-06	1.6733e-06	576.37	250.57	6.8515e-07	1.8076e-06	213.07	87.292	106.93	50.556	1.4872e-06	42.021	5.5571e-05	4.8709e-05	1.2224e-05	545.21	5.7468e-07	5.2038e-07	495.52	203.18	5.6325e-07	5.1872e-07	166.56	68.536	83.839	39.272	4.9859e-07	31.582	481.781	283.075	213.510	186.639	291.672	230.501	183.251	192.674	324.133	358.923	188.199	192.199	197.832	202.558	252.244	195.904	-8191	255	
4140.103	1	1	0	0	0.17523	0.094711	0.053353	0.15835	0.18698	0.090753	0.18602	0.12746	0.29115	0.067517	0.14178	0.18718	0.21655	0.027463	0.051758	0.13675	-3.3604	-3.2583	-3.7313	-3.4479	-3.4833	-3.9813	-2.9688	-3.6521	-3.775	-3.1958	-3.9458	-3.4667	-3.3354	-3.8167	-3.3	-3.6604	202.972	523.329	295.169	197.324	284.535	314.370	406.616	206.276	445.497	509.264	438.992	508.164	243.732	212.191	201.852	520.562	0.00091803	0.00016577	4.4137e-05	620.95	3.1399e-06	1.4724e-06	580.1	249.73	4.1606e-07	8.4733e-07	213.47	87.682	106.38	50.618	1.5223e-06	42.009	5.3009e-05	4.7531e-05	1.2447e-05	547.35	5.5566e-07	5.0387e-07	497.38	203.77	5.4638e-07	5.0446e-07	168.05	69.065	83.69	39.341	5.2029e-07	31.728	485.790	272.764	216.106	186.512	330.869	385.966	183.153	192.765	440.372	302.561	188.092	191.889	197.539	202.456	199.594	195.683	-8191	255	
4140.201	1	1	0	0	0.1104	0.22152	0.045928	0.23239	0.1255	0.26588	0.25809	0.18415	0.14572	0.12611	0.2494	0.30056	0.24941	0.33708	0.14359	0.27447	-3.4271	-3.0479	-3.725	-3.5167	-3.2729	-3.9437	-3.4188	-3.4958	-3.7125	-3.2438	-3.7667	-3.6063	-3.3438	-4.0896	-3.4542	-3.7062	391.582	369.069	479.748	449.777	315.977	421.556	478.146	509.288	209.716	175.893	326.907	517.445	388.423	519.200	455.928	400.119	0.00090217	0.00012682	3.8804e-05	617.84	1.7238e-06	8.9308e-07	581.21	249.36	5.9805e-07	3.6699e-07	213.04	87.782	106.37	50.88	1.2951e-06	41.758	5.1343e-05	4.5253e-05	1.3083e-05	546.41	5.3943e-07	4.8537e-07	497.36	203.34	5.3251e-07	4.9145e-07	167.58	68.704	83.575	39.325	5.5533e-07	31.568	487.071	258.357	356.516	186.601	276.412	327.028	183.248	192.891	206.644	181.914	188.028	191.858	197.783	202.109	257.732	195.634	-8191	255	
4140.320	1	1	0	0	0.15288	0.11881	0.051394	0.25323	0.085437	0.17478	0.19007	0.10912	0.091098	0.10835	0.19735	0.36352	0.10389	0.22344	0.22738	0.11998	-3.5167	-3.1813	-3.6292	-3.7479	-3.325	-3.7604	-3.4521	-3.5375	-4.0312	-3.1542	-3.6708	-3.6792	-3.3083	-4.0667	-3.5458	-3.4479	372.652	315.989	440.345	511.668	181.777	233.791	500.665	216.466	387.593	296.492	505.542	448.564	216.678	224.547	307.527	453.922	0.00096084	0.00015595	1.9788e-05	621.76	1.7018e-06	1.1421e-06	579.46	249.08	1.7566e-06	8.8813e-07	212.89	87.684	106.08	50.587	1.6013e-06	41.753	4.9576e-05	4.4633e-05	1.3992e-05	546.56	5.2082e-07	4.7981e-07	497.97	203.31	5.1441e-07	4.864e-07	167.98	68.48	83.536	39.368	5.7848e-07	31.507	481.632	263.414	464.448	186.432	278.014	268.900	183.177	192.694	267.644	289.289	188.139	191.963	197.818	202.169	285.822	195.732	-8191	255	
4140.416	1	1	0	0	0.085674	0.090185	0.15658	0.097164	0.16347	0.078536	0.19521	0.13537	0.084581	0.077156	0.090401	0.26505	0.15009	0.2741	0.20266	0.25114	-3.5938	-3.2375	-3.5583	-3.6854	-3.35	-3.8063	-3.4271	-3.4958	-3.8958	-3.3229	-3.6667	-3.7375	-3.0375	-3.7708	-3.5646	-3.4188	365.595	383.462	442.073	473.672	433.078	270.021	472.585	418.152	306.588	194.123	530.991	505.992	529.114	363.277	209.501	369.977	0.00090448	0.00010391	2.105e-05	620.5	2.3338e-06	2.5552e-06	578.64	249.4	1.2984e-06	1.7645e-06	213.82	87.903	106.57	50.758	1.4049e-06	42.151	4.7978e-05	4.6291e-05	1.4733e-05	545.94	5.1063e-07	4.9799e-07	499.48	203.22	4.9816e-07	5.1639e-07	169.03	68.581	83.565	39.431	5.8412e-07	31.675	479.912	206.171	309.895	186.473	292.054	216.150	183.346	192.719	274.927	250.554	188.065	191.962	197.861	202.021	276.108	195.736	-8191	255	
4140.512	1	1	0	0	0.10209	0.17122	0.071656	0.16308	0.25419	0.14886	0.15937	0.1972	0.13052	0.044099	0.10757	0.062973	0.15227	0.11755	0.081203	0.1079	-3.525	-3.2042	-3.7604	-3.8896	-3.2479	-3.8771	-3.7542	-3.1771	-3.8812	-3.4229	-3.4958	-3.9083	-3.4188	-3.8271	-3.6312	-3.2625	510.761	364.659	357.176	284.328	347.373	408.819	447.341	435.976	421.632	310.235	292.109	419.911	410.433	179.027	528.373	273.707	0.00085509	0.00021451	1.8893e-05	618.41	1.5763e-06	1.0779e-06	583.27	250.55	1.8087e-06	5.9144e-07	213.06	88.183	106.77	50.951	3.2578e-06	42.147	4.7278e-05	4.8871e-05	1.4752e-05	544.49	4.9703e-07	5.3383e-07	500.59	203.13	4.8817e-07	5.5584e-07	169.36	68.841	83.634	39.533	5.707e-07	31.707	489.123	179.247	203.051	186.478	318.824	309.348	183.324	192.908	310.263	239.828	188.154	192.156	197.622	202.263	310.987	195.572	-8191	255	
4140.608	1	1	0	0	0.13061	0.19661	0.061262	0.23012	0.11674	0.20002	0.40798	0.1662	0.031787	0.047008	0.061212	0.19651	0.39162	0.16603	0.21592	0.1641	-3.5354	-3.3	-3.3021	-3.8229	-3.3187	-3.6833	-3.6271	-3.225	-3.8625	-3.4083	-3.3438	-3.925	-3.4458	-3.6792	-3.7333	-3.2646	386.134	434.580	177.748	483.880	490.668	442.130	226.888	489.351	241.219	279.194	366.322	420.295	217.200	511.104	413.449	428.924	0.00095191	0.00027136	2.1252e-05	618.48	1.0697e-06	1.2332e-06	577.65	249.74	8.4851e-07	1.9916e-07	213.33	87.685	106.41	50.381	5.1977e-07	41.629	4.6775e-05	5.1821e-05	1.4154e-05	542.89	4.9717e-07	5.6037e-07	497.61	202.9	4.895e-07	5.7797e-07	168.33	68.334	83.4	39.336	5.4547e-07	31.298	477.387	232.897	244.756	186.437	295.507	256.071	183.389	192.628	314.380	475.400	188.415	191.918	197.748	202.267	340.992	195.523	-8191	255	
4140.705	1	1	0	0	0.20874	0.17155	0.13768	0.13682	0.10815	0.23758	0.19045	0.12299	0.056921	0.20575	0.23499	0.12417	0.1386	0.14788	0.054913	0.11102	-3.5646	-3.3917	-3.4792	-3.9479	-3.2729	-3.5167	-3.7375	-3.2083	-3.7896	-3.6312	-3.3729	-4.0604	-3.3958	-3.6292	-3.7292	-3.1667	191.660	533.411	308.591	504.337	223.483	357.788	474.953	301.933	234.088	449.593	515.935	379.213	431.428	271.584	533.362	378.441	0.00087156	0.00010958	1.172e-05	621.76	1.4538e-06	1.635e-06	578.69	249.64	1.3751e-06	7.1293e-07	214.25	87.433	105.9	50.486	8.7449e-07	41.621	4.8281e-05	5.3326e-05	1.3494e-05	543.43	5.169e-07	5.701e-07	497.43	202.46	5.1599e-07	5.7594e-07	167.7	67.934	83.386	39.339	5.2675e-07	31.293	481.996	306.692	233.934	186.620	306.796	336.902	183.217	192.797	270.063	337.598	187.783	191.980	197.646	201.981	344.146	195.706	-8191	255	
4140.801	1	1	0	0	0.12765	0.17222	0.14686	0.14261	0.28912	0.15596	0.19292	0.13528	0.099481	0.18612	0.18632	0.093509	0.24225	0.10961	0.066653	0.1441	-3.2729	-3.5146	-3.1417	-3.8937	-3.2521	-3.4688	-3.8104	-3.2979	-3.6667	-3.5979	-3.3146	-3.9896	-3.5792	-3.6396	-3.8479	-3.3917	427.736	475.665	520.038	501.283	484.114	428.763	502.581	227.784	350.286	313.487	306.305	397.680	495.229	175.136	473.670	484.871	0.00084939	3.9111e-05	3.0281e-05	622.36	3.1208e-06	2.5204e-06	580.29	249.38	1.342e-06	1.3043e-06	213.93	87.439	106.54	50.463	1.3005e-06	41.978	5.1579e-05	5.2229e-05	1.3386e-05	543.38	5.516e-07	5.6585e-07	497.82	201.92	5.5346e-07	5.5865e-07	167.98	68.234	83.751	39.2	5.1148e-07	31.392	479.044	286.679	298.242	186.710	234.144	336.330	183.039	192.717	221.217	310.471	188.289	192.344	197.490	202.353	335.076	195.525	-8191	255	
4140.921	1	1	0	0	0.12823	0.12694	0.21471	0.3453	0.066781	0.14779	0.13155	0.24567	0.19302	0.14016	0.17754	0.16469	0.049459	0.2694	0.10196	0.12382	-3.2396	-3.7021	-3.1708	-3.9583	-3.2792	-3.5667	-3.9708	-3.3542	-3.7167	-3.6688	-3.075	-3.8854	-3.4146	-3.3604	-3.725	-3.3604	296.658	425.533	477.430	384.695	210.443	408.978	211.210	175.974	433.828	248.351	461.493	210.613	290.604	523.955	470.802	423.739	0.00086436	0.00018891	7.4032e-05	619.38	2.905e-06	3.1977e-06	582.07	248.81	2.2015e-06	6.789e-07	214.44	88.015	106.93	50.065	2.0099e-06	42.026	5.437e-05	5.0538e-05	1.2889e-05	543.98	5.8223e-07	5.5036e-07	498.34	202.25	5.8059e-07	5.4107e-07	168.43	68.638	83.976	39.004	4.9242e-07	31.413	483.511	271.331	283.232	186.522	231.686	303.531	183.287	192.667	317.894	369.467	188.247	191.670	197.805	202.288	297.510	195.722	-8191	255	
4141.016	1	1	0	0	0.23067	0.12111	0.11426	0.23244	0.16133	0.096449	0.075455	0.15728	0.12879	0.036279	0.058203	0.065653	0.18866	0.11127	0.24352	0.030011	-3.2729	-3.6896	-3.0042	-3.7167	-3.4333	-3.2854	-3.9271	-3.3042	-3.6063	-3.8583	-3.0646	-3.9271	-3.7667	-3.5312	-3.9437	-3.45	336.792	509.762	232.573	513.976	177.701	469.915	285.794	517.908	454.743	279.381	289.779	204.356	410.972	521.463	276.766	486.970	0.00088707	0.00027736	8.1183e-06	619.03	1.7491e-06	8.7794e-07	578.68	248.34	1.2419e-06	1.3349e-06	212.58	87.167	105.74	49.799	5.4043e-07	41.385	5.5693e-05	4.8733e-05	1.2706e-05	542.92	5.8611e-07	5.2879e-07	496	202.38	5.8033e-07	5.2387e-07	166.85	68.382	83.396	38.772	4.8558e-07	31.207	476.992	252.120	512.657	186.546	322.413	220.086	183.151	192.787	357.472	347.516	188.336	191.890	197.641	202.112	298.637	195.541	-8191	255	
4141.112	1	1	0	0	0.20077	0.12236	0.097246	0.049446	0.21574	0.10917	0.24449	0.15789	0.025817	0.25934	0.13251	0.30448	0.3601	0.074773	0.17495	0.10972	-3.2396	-3.9021	-3.1146	-3.7354	-3.7479	-3.275	-3.9208	-3.3604	-3.5417	-3.8271	-3.2	-3.7625	-3.7562	-3.1937	-3.6875	-3.4708	398.028	421.696	368.244	486.548	310.349	220.359	368.101	496.847	446.508	516.151	295.735	465.083	529.846	470.882	440.824	372.281	0.00083319	0.00010293	1.1659e-05	621.24	3.8901e-07	1.3106e-06	580.48	247.5	7.8257e-07	1.0307e-06	212.88	87.579	105.53	49.824	1.1569e-06	41.127	5.4514e-05	4.789e-05	1.2465e-05	545.65	5.7011e-07	5.1891e-07	496.35	202.18	5.6541e-07	5.0652e-07	166.05	68.45	83.037	38.623	4.8577e-07	31.1	483.572	301.723	250.189	186.580	426.537	286.202	183.828	192.671	252.590	325.193	187.887	192.036	197.911	202.149	256.285	195.885	-8191	255	
4141.208	1	1	0	0	0.1277	0.11575	0.15267	0.42734	0.36931	0.14161	0.11371	0.13225	0.06472	0.030038	0.19863	0.099134	0.041567	0.34461	0.067837	0.062113	-3.0083	-3.8729	-3.1688	-3.7833	-3.65	-3.1937	-3.9583	-3.3563	-3.4583	-3.8625	-3.325	-3.525	-3.9521	-3.2333	-3.7	-3.5271	292.649	377.778	243.612	210.317	263.405	350.681	337.100	377.625	182.259	278.817	511.890	220.291	463.194	502.968	328.992	250.369	0.00080356	0.00017557	1.8313e-05	619.72	1.3062e-06	1.5473e-06	580.19	248.33	2.3186e-06	1.1999e-06	211.79	87.437	106.01	49.763	8.3264e-07	41.358	5.2764e-05	4.5162e-05	1.2808e-05	545.26	5.4281e-07	5.0149e-07	496.51	202.89	5.3563e-07	4.8549e-07	166.23	68.632	83.259	38.561	5.1174e-07	31.145	480.926	287.073	269.308	186.492	332.771	339.033	183.288	192.712	275.852	390.655	187.795	192.092	197.754	202.267	182.323	195.736	-8191	255	
4141.282	1	1	0	0	0.088949	0.14204	0.2691	0.16829	0.13955	0.044078	0.20682	0.13802	0.12107	0.12418	0.21364	0.17782	0.13672	0.24501	0.090471	0.16215	-2.9792	-3.8979	-3.5	-3.6021	-3.7438	-3.0604	-3.6729	-3.7583	-3.2771	-3.975	-3.4083	-3.5146	-4.0167	-3.2687	-3.7771	-3.6125	213.806	422.902	476.177	506.782	476.506	481.852	338.463	487.803	366.516	379.512	478.097	521.803	366.634	458.413	271.997	298.520	0.00093009	0.00027247	1.3622e-05	616.53	1.2572e-06	1.1529e-06	581.94	248.58	1.115e-06	1.3564e-06	212.69	87.804	105.57	49.136	1.6776e-06	40.818	5.0184e-05	4.411e-05	1.3394e-05	545.02	5.2473e-07	4.8468e-07	498.97	202.55	5.2743e-07	4.7966e-07	167.62	68.86	82.72	38.147	5.5344e-07	30.897	475.800	240.707	494.393	186.636	295.891	505.233	183.281	192.587	277.389	323.694	187.745	192.247	197.898	202.239	241.029	195.588	-8191	255	
4141.400	1	1	0	0	0.074548	0.16946	0.11897	0.18805	0.12348	0.14874	0.20462	0.12785	0.18283	0.13559	0.20408	0.12476	0.35229	0.16619	0.088449	0.18699	-2.8583	-3.8937	-3.4354	-3.5167	-3.7854	-3.3292	-3.7625	-3.6958	-3.1833	-3.9583	-3.4083	-3.2729	-3.9521	-3.3979	-3.5687	-3.6229	306.898	270.966	385.653	449.978	375.853	273.396	198.661	242.327	361.331	457.955	462.735	391.721	458.275	509.184	297.858	313.588	0.00099308	0.00016264	7.3517e-05	616.82	8.3828e-07	1.8456e-06	577.1	247.97	2.2511e-06	9.3223e-07	212.18	87.182	105.27	49.11	1.3146e-06	40.867	5.0016e-05	4.362e-05	1.4307e-05	542.82	5.0664e-07	4.8704e-07	498.69	201.47	5.1622e-07	4.8713e-07	167.26	68.203	82.495	38.018	5.7967e-07	30.658	473.308	242.039	216.555	186.684	318.938	268.890	183.278	192.707	319.561	345.882	188.389	192.148	197.584	202.378	273.591	195.154	-8191	255	
4141.497	1	1	0	0	0.0797	0.059994	0.11604	0.24509	0.10197	0.29044	0.15291	0.25104	0.11879	0.14643	0.26729	0.25033	0.18635	0.34121	0.10328	0.092139	-2.7417	-3.8958	-3.3167	-3.3458	-4.0208	-3.4437	-3.6771	-3.7812	-3.1063	-3.7292	-3.5646	-3.3958	-3.9125	-3.3292	-3.5792	-3.8854	355.345	434.576	324.220	434.477	365.972	249.537	190.728	425.474	530.584	277.865	466.784	287.075	531.766	521.168	206.410	425.946	0.00094627	4.529e-05	3.316e-05	615.64	1.0557e-06	1.967e-06	576.22	245.06	1.0658e-06	3.6458e-07	210.72	86.521	104.32	48.939	2.321e-06	40.336	4.8973e-05	4.6041e-05	1.4853e-05	542.15	5.0059e-07	5.2072e-07	499.19	200.26	5.0709e-07	5.2282e-07	166.67	67.85	81.988	37.938	5.8557e-07	30.397	479.627	228.101	254.043	186.586	340.826	225.674	183.369	192.640	262.237	241.214	187.843	192.190	197.456	202.268	205.979	195.659	-8191	255	
4141.593	1	1	0	0	0.32873	0.14823	0.12411	0.21049	0.36827	0.060665	0.31481	0.093089	0.030177	0.1248	0.11013	0.29276	0.14861	0.11879	0.26276	0.15951	-2.5812	-3.7292	-3.4708	-3.4833	-3.825	-3.4313	-3.6521	-3.8271	-3.1375	-3.8229	-3.6042	-3.3	-3.9437	-3.3979	-3.4938	-3.8479	430.288	179.314	444.399	425.593	254.880	243.694	394.332	375.535	312.172	357.294	236.850	481.107	420.460	527.789	282.728	477.920	0.00091847	8.4854e-06	3.8132e-05	616.01	1.2417e-06	7.5342e-07	579.57	246.78	1.21e-06	1.1559e-06	211.55	87.202	105.13	48.729	4.3356e-07	40.572	4.7532e-05	4.8711e-05	1.4833e-05	541.13	4.8393e-07	5.475e-07	499.7	200.67	4.9293e-07	5.54e-07	166.64	68.048	82.181	37.959	5.6923e-07	30.51	485.008	416.964	226.141	186.527	340.937	529.950	183.346	192.732	279.029	249.433	187.961	192.048	197.750	202.098	327.035	195.649	-8191	255	
4141.689	1	1	0	0	0.066116	0.22896	0.12579	0.068912	0.19712	0.049012	0.23771	0.35487	0.061546	0.050986	0.058479	0.27638	0.21891	0.064041	0.21449	0.064273	-2.8375	-3.7396	-3.6229	-3.3417	-3.8771	-3.3583	-3.4542	-3.9729	-3.1562	-3.7104	-3.825	-3.3146	-3.75	-3.6188	-3.4708	-3.8771	236.746	190.722	301.042	480.539	472.471	287.108	448.841	203.440	357.362	296.083	428.432	531.240	378.359	220.048	302.263	236.108	0.00090001	0.00011064	6.128e-05	613.42	1.2486e-06	2.5789e-06	578.18	247.9	1.3336e-06	1.1758e-06	211.63	87.529	104.95	48.885	1.6157e-06	41.018	4.7382e-05	5.2045e-05	1.4226e-05	540.2	4.932e-07	5.8036e-07	498.2	200.62	5.0473e-07	5.7325e-07	166.73	68.344	82.507	38.19	5.4449e-07	30.672	481.823	251.095	313.381	186.720	247.548	260.406	183.392	192.652	251.694	334.600	188.426	191.939	197.546	202.070	261.490	195.490	-8191	255	
4141.809	1	1	0	0	0.25701	0.12915	0.22153	0.13581	0.22307	0.19128	0.029134	0.31526	0.12728	0.15686	0.077101	0.19633	0.13327	0.28963	0.078739	0.057998	-2.7812	-3.5208	-3.7146	-3.4271	-3.9208	-3.6562	-3.3979	-3.9188	-3.3563	-3.5396	-3.9354	-3.4229	-3.8937	-3.7	-3.1479	-3.8812	439.501	265.976	285.363	364.483	270.740	390.068	279.685	461.328	392.295	477.669	292.954	418.835	451.747	521.196	174.929	438.286	0.00099146	8.0613e-05	7.8374e-05	616.33	2.2131e-06	1.2026e-06	575.87	247.75	1.9111e-06	1.9328e-06	210.09	88.104	105	48.845	1.0857e-06	40.431	4.973e-05	5.3359e-05	1.3548e-05	539.6	5.2093e-07	5.8521e-07	496.14	200.25	5.3296e-07	5.7462e-07	165.72	68.273	82.414	38.011	5.2695e-07	30.36	482.285	442.054	266.891	186.663	229.515	285.195	183.114	192.748	225.097	303.634	187.948	192.311	197.627	202.183	397.535	195.421	-8191	255	
4141.881	1	1	0	0	0.16466	0.25378	0.14355	0.12279	0.1374	0.15836	0.1667	0.24638	0.13227	0.13066	0.15444	0.21776	0.15823	0.28081	0.14277	0.24789	-2.9083	-3.4625	-3.8833	-3.3042	-3.7333	-3.5208	-3.2625	-4.0312	-3.45	-3.4146	-3.7875	-3.2562	-3.7521	-3.6937	-3.25	-4.05	225.596	432.628	475.787	498.627	368.084	187.479	340.775	497.613	217.744	490.459	453.638	460.904	473.406	513.327	244.207	523.589	0.00094769	0.00016877	5.5959e-05	615.62	1.8846e-06	2.9143e-06	577.32	246.49	1.5922e-06	1.9498e-06	209.21	87.491	105.07	48.723	1.7228e-06	40.251	5.2534e-05	5.2368e-05	1.329e-05	539.59	5.5388e-07	5.6292e-07	495.37	200.13	5.6453e-07	5.5723e-07	164.85	67.919	82.711	37.871	5.2075e-07	30.27	480.525	195.472	259.184	186.639	252.250	317.333	183.222	192.726	230.722	361.650	187.936	191.959	197.601	202.132	310.195	195.261	-8191	255	
4142.002	1	1	0	0	0.18218	0.032663	0.1234	0.15375	0.14946	0.075025	0.19459	0.17435	0.058523	0.29671	0.15304	0.029512	0.20346	0.16663	0.2845	0.19499	-2.9437	-3.5312	-3.9417	-3.2	-3.7021	-3.8479	-3.2479	-3.7438	-3.4583	-3.2958	-3.9583	-3.3729	-3.7125	-3.775	-3.0792	-3.8146	288.222	435.468	216.874	498.193	289.993	312.213	437.679	276.528	534.244	281.669	513.729	278.067	228.316	491.733	410.271	523.222	0.00087112	0.00012159	4.1407e-05	618.52	1.0039e-06	8.5669e-07	579.4	247.97	7.3242e-07	2.9412e-06	210.38	86.923	105.56	48.492	1.2705e-06	40.482	5.5661e-05	5.0728e-05	1.2963e-05	540.93	5.8505e-07	5.4836e-07	496.76	200.8	5.9362e-07	5.4179e-07	165.3	68.22	82.835	37.728	5.0993e-07	30.387	484.557	210.914	261.259	186.695	286.904	341.425	183.429	192.747	274.145	269.924	187.945	191.957	197.595	202.294	250.271	195.418	-8191	255	
4142.096	1	1	0	0	0.12157	0.024372	0.11085	0.16147	0.28635	0.074753	0.22668	0.082476	0.19346	0.13314	0.11288	0.16576	0.078322	0.23101	0.12214	0.12415	-3.2313	-3.3229	-3.8458	-3.3083	-3.4354	-3.7375	-3.3354	-3.775	-3.5187	-3.3167	-3.8792	-3.3625	-3.5833	-3.8583	-3.2917	-3.7104	371.665	336.943	527.241	516.057	281.080	410.363	212.915	386.181	361.919	283.714	513.647	416.916	444.552	322.508	345.904	257.498	0.0007953	0.00014029	9.9215e-06	617.13	1.7548e-06	1.7043e-06	578.31	248.32	1.3594e-06	1.2214e-06	209.97	87.821	104.84	48.638	1.9954e-06	40.722	5.6151e-05	4.9271e-05	1.2578e-05	542.72	5.8252e-07	5.2986e-07	495.41	201.17	5.8489e-07	5.3143e-07	164.7	68.604	82.549	37.844	4.8846e-07	30.731	487.663	286.795	262.546	186.769	316.457	317.819	183.580	192.875	277.433	249.738	188.341	191.920	197.707	202.161	289.683	195.703	-8191	255	
4142.192	1	1	0	0	0.067507	0.077681	0.19939	0.2427	0.03127	0.16576	0.048673	0.16092	0.10823	0.1984	0.23308	0.15993	0.098965	0.29922	0.22869	0.13706	-3.0854	-3.3396	-3.9271	-3.5167	-3.5146	-3.8333	-3.2208	-3.7354	-3.8667	-3.2542	-3.8812	-3.4813	-3.3958	-4.0625	-3.2729	-3.7833	460.894	524.681	285.880	514.163	407.065	532.676	459.216	426.158	502.786	396.535	324.242	523.105	226.122	477.925	393.936	449.011	0.00065942	4.1078e-05	2.2089e-05	613.31	2.4112e-06	1.3359e-06	576.73	248.33	1.3387e-06	1.6157e-06	208.03	87.567	104.8	48.486	1.7806e-06	40.308	5.4741e-05	4.764e-05	1.2276e-05	541.6	5.5832e-07	5.0331e-07	494.06	201.34	5.5013e-07	5.0455e-07	164.09	68.442	82.19	37.676	4.9707e-07	30.503	482.604	531.956	241.971	186.538	316.220	303.447	183.186	192.451	305.073	242.129	188.040	191.856	197.761	202.234	231.470	195.585	-8191	255	
4142.288	1	1	0	0	0.11416	0.07413	0.1957	0.14782	0.1211	0.21919	0.062575	0.24095	0.28793	0.06825	0.095259	0.12579	0.28965	0.10358	0.22687	0.078248	-3.3125	-3.2542	-3.85	-3.5375	-3.5333	-3.9313	-3.2833	-3.7292	-3.6604	-3.1875	-3.7583	-3.6708	-3.3458	-3.9083	-3.3229	-3.7854	358.363	212.208	208.208	192.418	512.449	393.671	447.217	470.891	228.509	177.791	404.846	501.514	514.324	316.516	379.607	273.708	0.0008346	7.0789e-05	5.2952e-05	614.44	4.694e-07	4.1003e-07	577.26	245.26	2.0183e-06	7.8556e-07	206.64	86.28	103.78	48.266	2.1257e-07	40.124	5.1628e-05	4.5932e-05	1.2406e-05	541.69	5.3407e-07	4.8394e-07	493.25	200.26	5.2476e-07	4.8699e-07	162.91	67.903	81.723	37.429	5.1714e-07	30.363	480.284	262.355	272.124	186.505	365.564	281.764	183.272	192.765	339.731	336.086	188.101	192.013	197.723	201.990	278.415	195.264	-8191	255	
4142.409	1	1	0	0	0.12011	0.20575	0.13518	0.30112	0.16553	0.11829	0.1072	0.090906	0.17526	0.21531	0.17451	0.060986	0.25456	0.23713	0.085247	0.039007	-3.5146	-3.1646	-3.625	-3.5812	-3.2208	-3.9542	-3.4146	-3.5271	-3.6583	-3.3708	-3.8438	-3.8104	-3.3167	-3.8875	-3.3729	-3.6	223.341	295.457	310.784	402.380	284.037	201.618	405.153	336.126	418.516	363.444	525.730	419.352	473.828	485.741	494.421	367.179	0.0008548	0.0002326	7.1038e-05	614.38	1.1107e-06	1.8437e-07	578.16	245.96	1.76e-06	1.655e-06	207.36	86.731	103.91	47.774	1.7175e-06	39.869	4.9595e-05	4.3765e-05	1.3221e-05	541.51	5.2049e-07	4.7282e-07	495.26	200.49	5.111e-07	4.8292e-07	163.86	67.959	81.569	37.176	5.6118e-07	30.144	484.772	228.079	216.096	186.480	533.216	459.500	183.144	192.717	340.294	270.398	188.406	191.923	197.688	202.179	179.150	195.665	-8191	255	
4142.505	1	1	0	0	0.13418	0.21042	0.080768	0.12294	0.35918	0.14697	0.15392	0.42555	0.19828	0.26733	0.27282	0.22428	0.29902	0.23441	0.15225	0.17934	-3.4583	-3.1542	-3.7208	-3.8104	-3.0583	-3.7729	-3.525	-3.5312	-3.9021	-3.1333	-3.6021	-3.6104	-3.3021	-3.7771	-3.3812	-3.4542	225.216	381.186	532.780	466.646	329.430	446.526	190.585	372.764	497.854	378.701	502.467	262.171	423.164	447.862	309.296	456.853	0.00074273	0.00012098	4.9816e-05	612.52	1.6845e-06	2.5192e-06	579.17	244.35	1.1633e-06	7.3224e-07	207.79	86.692	103.85	47.177	1.8735e-06	39.498	4.83e-05	4.4401e-05	1.4236e-05	540.24	5.1197e-07	4.8353e-07	498.18	199.27	5.0329e-07	4.9894e-07	164.65	67.866	81.278	36.706	5.8691e-07	29.825	480.663	311.469	217.430	186.564	281.210	272.637	183.175	193.035	309.928	263.529	188.459	192.040	197.958	201.842	200.749	195.494	-8191	255	
4142.577	1	1	0	0	0.065997	0.069262	0.11208	0.14783	0.085357	0.083998	0.17157	0.15436	0.10983	0.28925	0.2425	0.14236	0.27627	0.22202	0.10172	0.11517	-3.3729	-3.1479	-3.6646	-3.7354	-3.1667	-4.0146	-3.525	-3.4562	-3.8208	-3.1229	-3.5604	-3.8375	-3.3542	-3.6458	-3.4813	-3.0854	446.958	303.144	315.424	424.386	396.898	404.726	522.246	482.729	211.905	494.659	224.421	460.070	454.959	231.415	214.308	447.545	0.00078047	7.7703e-05	3.4326e-05	610.98	2.2204e-06	1.2857e-06	575.96	244.35	5.1462e-07	1.1759e-06	206.75	85.885	102.85	47.02	2.0799e-06	38.986	4.7083e-05	4.6514e-05	1.4836e-05	538.12	5.0471e-07	5.1522e-07	496.29	198.33	4.8844e-07	5.2774e-07	163.88	67.071	80.512	36.473	5.7686e-07	29.378	477.819	479.149	293.916	186.560	291.976	215.352	183.102	192.776	342.622	248.563	188.256	191.846	197.419	202.188	311.541	195.482	-8191	255	
4142.698	1	1	0	0	0.26002	0.18023	0.13508	0.10487	0.082971	0.17969	0.34413	0.12373	0.11851	0.091576	0.06216	0.15708	0.29509	0.19549	0.14648	0.12101	-3.3875	-3.2604	-3.3208	-3.8396	-3.4188	-3.7042	-3.6896	-3.2583	-3.9458	-3.4042	-3.5646	-3.8625	-3.5979	-3.8083	-3.7854	-3.3812	341.904	334.754	246.113	267.093	215.946	314.930	206.172	332.191	484.392	322.121	243.596	353.989	451.973	217.722	254.017	201.198	0.0008787	0.00015196	3.8605e-05	609.35	1.0415e-06	1.6971e-06	574.5	240.86	8.054e-07	1.8408e-06	202.77	84.757	102.72	46.753	1.0499e-06	38.808	4.6511e-05	4.9807e-05	1.4636e-05	536.58	4.9507e-07	5.4549e-07	494.07	196.14	4.8519e-07	5.6329e-07	160.87	66.29	80.1	36.426	5.5942e-07	29.282	484.846	244.668	289.727	186.598	275.783	234.156	183.290	192.691	334.200	262.823	188.331	191.939	197.259	201.776	225.183	195.412	-8191	255	
4142.794	1	1	0	0	0.1178	0.069783	0.27452	0.20339	0.07336	0.04462	0.12549	0.14248	0.13788	0.19736	0.14449	0.15617	0.032721	0.30615	0.18186	0.11866	-3.4104	-3.5	-3.2896	-3.9104	-3.1479	-3.8083	-3.9104	-3.2562	-3.9583	-3.4813	-3.3667	-3.95	-3.3063	-3.6458	-3.8208	-3.3583	192.397	229.575	429.668	179.824	405.888	214.498	460.466	516.800	222.135	454.964	462.818	380.157	435.016	525.100	414.459	359.358	0.00096571	0.00016013	5.0952e-05	611.47	2.9357e-06	5.4318e-07	574.93	240.95	7.582e-07	1.6359e-06	203.35	85.686	102.19	46.634	1.3081e-06	38.965	4.7063e-05	5.3216e-05	1.4082e-05	536.88	5.0541e-07	5.7928e-07	492.97	195.97	5.0521e-07	5.8565e-07	161	66.444	80.2	36.436	5.4722e-07	29.238	475.156	229.700	180.683	186.533	264.339	276.027	183.314	192.696	256.554	259.962	188.193	191.786	197.433	202.068	266.329	195.352	-8191	255	
4142.890	1	1	0	0	0.11567	0.2325	0.1704	0.11991	0.15782	0.15289	0.058863	0.15548	0.34329	0.15262	0.25282	0.11611	0.17943	0.14168	0.16255	0.32631	-3.3958	-3.5854	-3.5729	-4.0188	-3.4625	-3.5667	-3.7646	-3.2458	-3.8688	-3.55	-3.5854	-3.8187	-3.3563	-3.5792	-3.8854	-3.2083	188.573	282.508	486.701	309.531	335.199	285.138	408.388	515.396	324.748	343.039	477.526	517.395	198.389	318.791	444.364	490.121	0.00087924	8.839e-05	5.5004e-05	610.29	1.2134e-06	1.5024e-06	572.51	240.23	1.668e-06	2.7352e-06	205.63	85.397	102.59	46.605	9.9433e-07	38.737	4.9814e-05	5.466e-05	1.3922e-05	536.39	5.3839e-07	5.9362e-07	493.83	196.09	5.449e-07	5.9411e-07	162.05	66.74	80.632	36.334	5.3769e-07	29.26	481.775	262.473	254.273	186.786	261.525	202.198	183.437	192.870	238.546	359.742	188.148	191.869	197.540	202.088	269.868	195.448	-8191	255	
4142.986	1	1	0	0	0.099793	0.06179	0.17414	0.18062	0.15538	0.16618	0.14257	0.14162	0.25708	0.35199	0.15726	0.19467	0.090906	0.17873	0.16804	0.1056	-3.35	-3.6896	-3.2333	-4.0604	-3.4062	-3.45	-3.8854	-3.0479	-3.6854	-3.6542	-3.1979	-4.1042	-3.4729	-3.5375	-3.8542	-3.45	426.765	518.228	476.422	192.769	504.542	235.100	449.148	456.364	504.240	454.850	207.502	398.053	478.811	501.158	476.929	249.109	0.00084766	0.00021198	2.3343e-05	611.2	1.3095e-06	2.0352e-06	574.49	241.83	1.3266e-06	1.5012e-06	203.85	85.468	102.08	46.19	5.1191e-07	38.333	5.4775e-05	5.4201e-05	1.3765e-05	535.97	5.9977e-07	5.9067e-07	494.6	195.87	5.9394e-07	5.8633e-07	161.58	66.838	80.671	36.046	5.3389e-07	29.018	489.918	253.469	414.889	186.692	246.498	282.500	183.514	192.761	231.025	331.568	188.187	191.879	197.686	202.015	469.857	195.326	-8191	255	
4143.105	1	1	0	0	0.08729	0.14546	0.1699	0.041992	0.023648	0.24096	0.069426	0.11358	0.10779	0.077809	0.12635	0.1586	0.20709	0.099252	0.25842	0.24061	-3.3187	-3.7042	-3.1271	-3.95	-3.5417	-3.3271	-3.7479	-3.2604	-3.6271	-3.7687	-3.2562	-3.8875	-3.6792	-3.4729	-3.9313	-3.5292	532.382	307.992	323.769	201.393	382.244	387.648	408.577	383.569	333.445	501.983	432.430	236.488	372.399	361.148	205.905	189.821	0.00071775	0.00017381	3.5735e-05	610.89	3.5302e-07	1.6076e-06	579.33	240.78	2.1306e-06	6.9668e-07	205.85	85.773	102.3	46.139	6.3514e-07	38.495	5.775e-05	5.3048e-05	1.3783e-05	537.92	6.2676e-07	5.7525e-07	495.54	195.82	6.2502e-07	5.7103e-07	161.62	66.978	80.823	36.012	5.2832e-07	29.101	475.881	282.818	362.530	186.638	240.739	266.001	183.624	192.812	234.501	342.530	188.222	191.683	197.676	202.377	258.633	195.442	-8191	255	
4143.177	1	1	0	0	0.17712	0.11367	0.083217	0.098683	0.1094	0.29729	0.17415	0.15165	0.19016	0.041903	0.18918	0.050673	0.14671	0.37458	0.034601	0.21676	-3.3688	-3.7812	-3.1417	-3.7917	-3.5396	-3.4562	-4.0604	-3.2917	-3.6542	-3.9083	-3.3063	-3.7438	-3.6917	-3.2729	-3.8125	-3.4813	287.515	422.813	271.346	322.124	208.916	206.238	525.261	362.313	275.617	381.436	201.073	350.927	460.782	488.171	239.053	428.918	0.00080068	0.00020499	4.9562e-05	611.83	1.9035e-06	1.5259e-06	581.5	241.08	2.0167e-06	1.739e-06	204.98	85.73	102.23	46.52	4.5451e-07	38.56	5.9208e-05	5.1965e-05	1.3462e-05	539.5	6.2657e-07	5.6369e-07	496.07	196.31	6.227e-07	5.5777e-07	161.63	67.455	80.881	36.171	5.225e-07	29.357	476.893	229.784	287.168	187.040	276.468	312.116	183.267	192.861	331.504	340.869	188.414	192.095	197.536	201.989	222.944	195.482	-8191	255	
4143.273	1	1	0	0	0.1835	0.21072	0.027347	0.19721	0.13792	0.07156	0.017692	0.32623	0.19465	0.28382	0.32619	0.08608	0.18501	0.049609	0.26907	0.25717	-3.1896	-3.8375	-3.3042	-3.7687	-3.7104	-3.2896	-3.9833	-3.6417	-3.5146	-3.8896	-3.4604	-3.75	-3.7979	-3.3167	-3.7271	-3.3521	446.434	348.528	298.091	466.226	441.755	204.773	507.059	445.119	234.227	206.929	264.030	511.264	484.977	498.653	454.614	229.274	0.00073873	0.00027854	6.1121e-05	611.31	1.5854e-06	1.9203e-06	576.73	238.41	2.2633e-06	1.4179e-06	205.33	86.211	102.6	46.133	1.0992e-06	38.796	5.8052e-05	5.0987e-05	1.3546e-05	541	6.128e-07	5.6318e-07	497.28	195.71	6.0213e-07	5.5209e-07	162.37	67.848	80.74	35.959	5.4572e-07	29.484	485.416	291.133	270.223	186.613	323.538	256.688	183.736	192.917	330.906	325.585	188.120	191.916	197.651	202.078	260.093	195.673	-8191	255	
4143.369	1	1	0	0	0.13435	0.11113	0.13813	0.2759	0.25157	0.17491	0.14967	0.10452	0.12102	0.10191	0.22084	0.17743	0.12517	0.29035	0.17431	0.0048222	-3.0875	-3.8	-3.0771	-3.6458	-3.8	-3.2875	-3.7542	-3.7208	-3.4062	-4	-3.3104	-3.6917	-3.7479	-3.3417	-3.7313	-3.6458	309.982	505.221	419.251	192.265	374.617	205.971	456.685	192.927	325.573	278.951	505.187	291.800	286.998	448.096	354.632	418.244	0.00084647	0.00020245	6.4848e-05	611.97	1.2898e-06	1.2263e-06	579.99	237.95	1.2948e-06	1.8898e-06	205.3	85.866	101.97	46.059	2.3398e-06	38.325	5.7116e-05	4.9242e-05	1.4243e-05	540.47	5.8426e-07	5.3955e-07	497.97	195	5.8286e-07	5.3291e-07	162.65	67.558	80.504	35.87	5.8179e-07	29.276	480.935	305.732	287.602	186.932	336.280	304.726	183.447	192.585	285.768	278.490	188.164	191.843	197.685	202.029	198.510	195.471	-8191	255	
4143.489	1	1	0	0	0.16538	0.22447	0.24135	0.1142	0.2517	0.34807	0.18402	0.10969	0.22168	0.11871	0.38632	0.16311	0.049591	0.052119	0.12579	0.10579	-2.9125	-3.9625	-3.2313	-3.4708	-3.8396	-3.3958	-3.9042	-3.6937	-3.4313	-4.0396	-3.4396	-3.4646	-3.9917	-3.3458	-3.6208	-3.85	513.061	492.244	387.277	257.862	504.554	483.889	344.069	443.400	262.337	292.480	529.856	193.334	417.615	411.463	517.267	488.548	0.00084222	0.00021188	4.7182e-05	610.28	4.6003e-07	7.7105e-07	577.07	236.76	1.4962e-06	9.9007e-07	204.71	85.371	101.92	46.163	2.2012e-06	38.383	5.503e-05	4.7935e-05	1.5282e-05	539.31	5.6788e-07	5.3512e-07	498.41	194.53	5.6921e-07	5.2268e-07	162.37	67.22	80.249	36.014	6.2161e-07	29.231	480.942	277.361	256.324	186.806	301.409	237.529	183.121	193.054	300.021	243.808	188.150	192.276	197.594	202.374	231.460	195.524	-8191	255	
4143.586	1	1	0	0	0.21865	0.15637	0.18212	0.16895	0.09327	0.20283	0.060777	0.085105	0.23739	0.14749	0.0753	0.12769	0.11795	0.059927	0.12424	0.13298	-2.8333	-3.8833	-3.4333	-3.5062	-3.8396	-3.1437	-3.7229	-3.7125	-3.1937	-3.9292	-3.4229	-3.3083	-3.9146	-3.2438	-3.5938	-3.7458	255.982	285.444	516.155	426.540	362.157	499.358	286.157	323.882	461.810	267.946	405.872	195.194	252.698	192.859	199.110	367.358	0.00075394	0.0001209	5.3128e-05	606.14	1.3949e-06	6.054e-07	576.07	237.5	2.1501e-06	1.5209e-06	204.1	85.288	102.94	46.478	4.9921e-07	38.841	5.3474e-05	4.8824e-05	1.6117e-05	537.84	5.5563e-07	5.4342e-07	499.78	194.3	5.5982e-07	5.385e-07	163.11	67.216	80.406	36.236	6.3191e-07	29.412	480.727	242.938	298.030	186.644	307.249	248.162	183.319	192.612	274.072	295.444	188.112	192.135	197.246	202.197	512.942	195.608	-8191	255	
4143.682	1	1	0	0	0.30527	0.074085	0.17	0.064438	0.17073	0.14184	0.19692	0.14964	0.036041	0.071491	0.24504	0.11696	0.27833	0.10385	0.10221	0.035187	-2.8542	-3.9271	-3.3417	-3.3833	-3.9521	-3.4	-3.6771	-3.7812	-3.1063	-3.8812	-3.6896	-3.2938	-4.0479	-3.2521	-3.5042	-3.8833	465.095	432.148	287.445	190.862	289.783	287.280	455.671	459.639	263.297	355.338	502.765	226.119	503.707	176.565	318.192	448.994	0.00076394	0.00019501	1.6283e-05	606.9	1.0735e-06	1.6492e-06	581.96	239.14	8.8115e-07	1.9574e-06	205.67	85.77	102.46	46.44	1.8693e-06	39.037	5.1776e-05	5.05e-05	1.6076e-05	536.74	5.3014e-07	5.7303e-07	501.19	194.96	5.3565e-07	5.6911e-07	164.3	67.464	80.497	36.398	6.2358e-07	29.437	482.189	245.581	483.311	186.503	289.781	289.182	183.391	192.742	272.632	298.889	188.566	192.097	197.790	202.072	308.926	195.782	-8191	255	
4143.778	1	1	0	0	0.055943	0.077676	0.094802	0.22864	0.2416	0.090421	0.1882	0.076204	0.2416	0.12376	0.022413	0.14888	0.22568	0.18602	0.30797	0.16114	-3.0271	-3.8146	-3.6396	-3.1083	-3.6937	-3.3854	-3.5542	-3.7354	-3.1333	-3.6625	-3.8	-3.4125	-3.9646	-3.3792	-3.4833	-3.7438	281.987	261.237	186.022	182.350	446.976	267.515	437.924	369.207	207.607	405.075	207.046	271.396	246.423	495.799	274.124	490.156	0.00077583	0.00014528	6.6784e-05	608.58	8.0625e-07	1.5474e-07	577.7	237.89	1.7627e-06	1.04e-06	205.49	85.605	102.52	46.519	9.5799e-07	38.893	5.0793e-05	5.4383e-05	1.5593e-05	536.79	5.1854e-07	6.0482e-07	499.43	194.17	5.3381e-07	6.0155e-07	163.39	67.169	80.361	36.401	5.977e-07	29.32	486.241	515.820	284.633	186.369	316.419	518.971	183.258	192.904	266.134	303.512	188.388	191.961	197.750	202.326	253.299	195.573	-8191	255	
4143.874	1	1	0	0	0.30477	0.036071	0.36341	0.11841	0.083935	0.16172	0.29494	0.15446	0.25507	0.055505	0.080294	0.10805	0.054251	0.21881	0.087661	0.30639	-2.9125	-3.7083	-3.6292	-3.2687	-3.7292	-3.5271	-3.4	-3.9417	-3.3729	-3.8042	-3.7604	-3.175	-3.9583	-3.6729	-3.3125	-3.8438	323.830	202.283	457.791	502.033	280.279	404.645	214.788	431.087	361.089	405.185	502.542	514.189	479.545	510.901	532.819	362.437	0.0010242	0.00011792	6.4513e-05	609.88	1.568e-06	9.4669e-07	572.67	237.57	2.3425e-06	1.0207e-06	205.23	85.302	102.03	46.437	6.1135e-07	38.52	5.1622e-05	5.6471e-05	1.5002e-05	536.28	5.328e-07	6.2509e-07	496.74	194.32	5.5407e-07	6.1719e-07	162.29	66.786	80.392	36.36	5.7587e-07	29.112	478.106	518.875	263.773	186.853	367.986	232.068	183.333	192.822	230.761	346.456	188.401	192.576	197.556	202.124	284.155	195.755	-8191	255	
4143.970	1	1	0	0	0.14675	0.23051	0.1352	0.21174	0.22575	0.2355	0.34987	0.078011	0.042597	0.081794	0.2811	0.093466	0.13158	0.10199	0.14006	0.20661	-3.0271	-3.5875	-3.7167	-3.3917	-3.7167	-3.5896	-3.2271	-3.9854	-3.35	-3.5208	-3.8125	-3.4542	-3.5833	-3.8292	-3.1188	-3.9625	345.680	270.670	436.248	464.149	305.283	411.647	406.109	233.339	534.050	228.160	361.324	331.804	204.512	410.016	298.560	319.495	0.00084449	0.00018651	6.1139e-05	613.25	1.6231e-06	4.0283e-07	578.75	237.14	1.1188e-06	2.0244e-06	205.62	85.654	102.42	46.584	1.5367e-06	38.781	5.3899e-05	5.6445e-05	1.4353e-05	537.34	5.7006e-07	6.2322e-07	498.62	193.5	5.929e-07	6.0838e-07	162.55	66.994	80.753	36.349	5.6111e-07	29.256	478.149	277.883	265.568	186.793	186.416	417.573	183.454	192.618	476.742	338.474	188.541	191.946	197.878	202.140	264.336	195.684	-8191	255	
4144.091	1	1	0	0	0.14707	0.15088	0.039113	0.2062	0.21578	0.12032	0.18742	0.053565	0.27008	0.17589	0.12174	0.33989	0.19002	0.19712	0.15346	0.23332	-3.0708	-3.3292	-3.7917	-3.3021	-3.8229	-3.7083	-3.2729	-3.8875	-3.5667	-3.4521	-3.8771	-3.4125	-3.6021	-3.8375	-3.275	-3.8958	497.071	247.358	194.173	178.517	337.225	375.031	516.876	395.942	365.237	264.454	439.848	530.228	519.062	393.320	279.651	191.725	0.00086665	0.00020885	3.7681e-05	611.28	2.7301e-06	1.553e-06	576.08	239.11	9.7882e-07	9.3378e-07	204.98	86.267	102.34	46.61	8.1557e-07	38.977	5.7234e-05	5.4474e-05	1.3867e-05	536.21	6.0641e-07	5.9609e-07	497.7	194.22	6.1791e-07	5.863e-07	162.63	67.274	80.933	36.356	5.4843e-07	29.342	463.829	292.459	325.625	186.748	281.014	350.896	183.517	192.990	429.350	326.876	188.376	192.140	197.584	202.145	369.637	195.736	-8191	255	
4144.185	1	1	0	0	0.10424	0.11663	0.050194	0.075065	0.18137	0.038637	0.046281	0.11834	0.15568	0.19608	0.078394	0.14123	0.11063	0.07151	0.26113	0.11677	-3.2625	-3.5062	-3.9104	-3.2938	-3.7042	-3.775	-3.2271	-3.8729	-3.5563	-3.4167	-4.0062	-3.5604	-3.725	-3.7708	-3.2896	-3.775	254.492	288.534	485.923	372.361	352.753	290.451	181.173	513.524	389.214	291.400	495.379	475.113	513.612	185.578	422.085	485.623	0.00080596	0.0001167	5.0642e-05	609.56	1.179e-06	1.9379e-06	576.19	238.61	1.4219e-06	9.061e-07	206.08	86.473	102.21	46.561	2.0753e-06	38.537	5.9887e-05	5.264e-05	1.347e-05	536.6	6.2149e-07	5.6557e-07	496.63	194.14	6.2188e-07	5.6332e-07	162.16	67.487	80.701	36.155	5.1814e-07	29.194	469.020	304.282	285.859	186.685	372.267	255.274	183.622	192.663	237.443	299.446	188.176	191.912	197.592	202.040	331.321	195.490	-8191	255	
4144.281	1	1	0	0	0.19042	0.15348	0.12194	0.062659	0.080538	0.082398	0.11231	0.13936	0.18448	0.15121	0.086546	0.16365	0.18576	0.13424	0.10206	0.10947	-3.3312	-3.3583	-3.9437	-3.4708	-3.6771	-3.9083	-3.3208	-3.6708	-3.6813	-3.3021	-3.8312	-3.2875	-3.4938	-3.9771	-3.2	-3.6729	269.934	524.922	427.987	470.586	407.675	533.792	433.782	521.038	476.272	363.537	434.826	413.946	479.026	394.763	451.935	515.376	0.000806	5.1041e-05	3.1582e-05	608.51	1.605e-06	1.4118e-06	576.52	237.38	1.7501e-06	1.0677e-06	204.33	85.962	102.79	46.267	1.4392e-06	38.559	5.8561e-05	5.0466e-05	1.2874e-05	536.56	6.0242e-07	5.4205e-07	495.68	194.51	5.9997e-07	5.3563e-07	161.24	67.206	80.513	36.033	5.0287e-07	29.225	480.294	470.615	245.339	186.492	368.189	373.370	183.423	192.510	301.311	292.426	188.055	191.838	197.726	202.150	267.448	195.273	-8191	255	
4144.402	1	1	0	0	0.0073214	0.053056	0.13501	0.23468	0.066068	0.09509	0.26056	0.16596	0.30809	0.11197	0.15224	0.2028	0.2075	0.08096	0.27399	0.26422	-3.2833	-3.15	-3.9167	-3.5875	-3.4417	-4	-3.3937	-3.8125	-3.6833	-3.2167	-3.8958	-3.5417	-3.4583	-4.0125	-3.3812	-3.6063	488.862	336.713	241.601	524.904	505.725	422.419	477.994	521.136	196.266	283.631	478.081	519.552	344.002	219.958	417.115	454.744	0.00075552	3.5672e-05	5.2754e-05	611.09	3.5986e-07	1.1197e-06	581.05	240.46	1.3969e-06	1.3489e-06	206.36	86.041	102.79	46.322	1.0395e-06	38.746	5.4777e-05	4.7903e-05	1.2651e-05	539.22	5.6469e-07	5.1036e-07	496.36	196.25	5.6033e-07	5.0984e-07	161.99	67.472	80.646	36.139	5.2246e-07	29.456	484.816	356.394	219.592	186.840	219.881	354.200	183.311	192.709	327.164	307.083	188.200	191.896	197.790	202.113	217.641	195.876	-8191	255	
4144.474	1	1	0	0	0.064608	0.17219	0.17082	0.017911	0.15271	0.21355	0.15526	0.18845	0.092301	0.062806	0.10834	0.15061	0.13723	0.26721	0.1057	0.23518	-3.3	-3.0708	-3.9396	-3.45	-3.4313	-3.8021	-3.4146	-3.5708	-3.7708	-3.2146	-3.775	-3.5125	-3.2521	-3.875	-3.3688	-3.2875	367.030	267.341	443.098	286.016	446.879	264.865	359.816	499.334	430.903	215.962	193.096	175.271	448.162	414.464	388.971	369.061	0.0008751	5.1966e-05	5.7578e-05	610.09	2.7448e-06	2.2234e-06	578.94	240.21	1.7182e-06	4.9716e-07	206.51	86.438	103.01	46.786	7.7563e-07	39.166	5.2514e-05	4.6128e-05	1.3444e-05	539.57	5.4538e-07	4.9916e-07	497.69	196.65	5.3969e-07	5.0555e-07	163.4	67.866	80.738	36.289	5.6518e-07	29.649	489.462	267.209	228.423	186.494	324.115	347.481	183.477	192.808	251.947	412.929	187.805	192.003	197.315	201.949	230.728	195.729	-8191	255	
4144.570	1	1	0	0	0.069386	0.26174	0.12892	0.059088	0.1818	0.13784	0.15789	0.12475	0.10914	0.07825	0.14948	0.032662	0.21872	0.10421	0.12294	0.10919	-3.3271	-3.0812	-3.6021	-3.6479	-3.2375	-3.85	-3.4896	-3.35	-3.9021	-3.2271	-3.5771	-3.7375	-3.3438	-3.8667	-3.1979	-3.5292	501.656	497.133	214.152	521.169	424.725	464.684	423.414	220.464	396.250	180.632	176.805	478.169	507.246	460.968	361.151	519.811	0.00088176	2.3179e-05	6.8749e-05	610.9	2.0681e-06	9.092e-07	578.62	241.22	1.9791e-06	6.2378e-07	207.94	86.376	102.49	46.851	1.4979e-06	39.02	5.159e-05	4.5559e-05	1.4357e-05	537.9	5.3984e-07	4.9292e-07	498.11	196.61	5.2654e-07	5.0062e-07	164.36	67.759	80.646	36.379	5.9073e-07	29.614	475.724	515.414	216.101	186.703	249.997	277.588	183.426	192.658	279.203	261.016	188.040	192.048	197.424	202.206	212.765	195.540	-8191	255	
4144.666	1	1	0	0	0.097013	0.070564	0.10035	0.14485	0.31267	0.053419	0.19818	0.087656	0.24816	0.34567	0.042029	0.13585	0.15728	0.27305	0.11237	0.07046	-3.6375	-3.2062	-3.7313	-3.5375	-3.2542	-3.7188	-3.4125	-3.4354	-3.8354	-3.2125	-3.6354	-3.6104	-3.2979	-3.8271	-3.5396	-3.2771	199.267	520.581	408.326	416.284	287.648	212.303	533.321	485.903	384.601	213.940	189.729	176.468	190.193	194.815	392.485	472.857	0.00067748	0.0002468	1.3592e-05	610.24	2.9729e-06	3.296e-07	572.29	241.07	9.9131e-07	1.082e-06	206.08	86.334	102.21	47.096	1.73e-06	39.147	4.9182e-05	4.646e-05	1.4963e-05	536.65	5.1933e-07	5.0605e-07	497.19	196.87	5.0683e-07	5.2046e-07	163.37	67.387	80.451	36.57	5.9492e-07	29.643	483.181	250.992	305.355	186.793	372.058	232.042	183.151	192.848	302.366	292.756	187.998	191.771	197.635	201.835	268.847	195.266	-8191	255	
4144.787	1	1	0	0	0.1327	0.24398	0.030401	0.26294	0.11336	0.31559	0.052812	0.11288	0.20601	0.11312	0.072605	0.20206	0.12434	0.24367	0.15939	0.31374	-3.6583	-3.2146	-3.5958	-3.6896	-3.325	-3.9271	-3.5187	-3.6375	-3.8292	-3.4396	-3.4896	-3.6833	-3.0417	-3.8	-3.6	-3.3312	292.635	419.334	325.329	420.414	431.852	258.980	306.279	434.067	227.243	382.782	344.797	366.052	311.518	464.541	178.604	347.256	0.00074962	0.00015839	4.6852e-05	611.06	1.5894e-06	2.6142e-06	574.93	242.51	5.2986e-07	2.6354e-06	206.97	86.475	103.26	47.1	9.2987e-07	39.402	4.7359e-05	4.9124e-05	1.4945e-05	536.46	4.9838e-07	5.3714e-07	495.79	197.29	4.9188e-07	5.5419e-07	163.66	67.364	80.771	36.706	5.7418e-07	29.693	483.209	210.693	338.901	186.634	295.015	176.344	183.151	192.633	281.251	270.286	188.216	192.242	197.649	202.084	254.953	195.469	-8191	255	
4144.883	1	1	0	0	0.16802	0.037551	0.099371	0.20497	0.10226	0.080924	0.16511	0.269	0.048985	0.1507	0.22275	0.077351	0.1872	0.18004	0.13759	0.018598	-3.4979	-3.3958	-3.6708	-3.8104	-3.125	-3.6583	-3.7125	-3.325	-3.8104	-3.5167	-3.5062	-3.7938	-3.2167	-3.7313	-3.725	-3.3083	364.764	403.134	219.764	298.939	191.692	355.477	428.153	450.043	384.074	388.627	203.719	403.612	461.782	463.545	292.150	261.110	0.00090921	0.00010911	1.1441e-05	611.75	1.0457e-06	9.9161e-07	577.68	243.84	6.7617e-07	6.8097e-07	207.25	86.769	103.89	47.611	2.3043e-06	39.895	4.6632e-05	5.2201e-05	1.4426e-05	536.29	4.9781e-07	5.7051e-07	496.57	198.18	4.8945e-07	5.8119e-07	163.76	67.682	81.118	37.001	5.5414e-07	29.969	490.690	521.167	282.820	186.570	288.754	296.286	183.084	192.633	250.553	304.980	188.206	192.273	197.351	201.807	253.269	195.423	-8191	255	
4144.979	1	1	0	0	0.13015	0.35865	0.15765	0.24095	0.1951	0.173	0.29505	0.033618	0.10054	0.11636	0.091997	0.22555	0.04141	0.092407	0.1593	0.27475	-3.5458	-3.4604	-3.3208	-3.9938	-3.3875	-3.7896	-3.7917	-3.2146	-3.8042	-3.7271	-3.2917	-3.8729	-3.2896	-3.6646	-3.7417	-3.1875	232.410	321.155	499.552	461.064	528.631	208.990	476.861	264.841	522.652	430.347	441.740	474.851	297.318	526.445	373.740	497.394	0.00079115	8.1977e-05	3.296e-05	609.46	9.2244e-07	1.9402e-06	577.44	245.22	1.7261e-06	9.508e-07	206.94	86.909	103.05	47.439	3.0678e-07	39.905	4.814e-05	5.3522e-05	1.3803e-05	534.17	5.17e-07	5.784e-07	493.89	198.07	5.1296e-07	5.7558e-07	163.42	67.492	81.052	37.021	5.2177e-07	29.883	484.998	267.539	370.298	186.877	251.197	195.900	183.244	192.801	243.829	316.730	188.146	192.026	197.265	202.078	387.737	195.356	-8191	255	
4145.051	1	1	0	0	0.18226	0.047592	0.21179	0.18812	0.11444	0.082995	0.12163	0.15717	0.14605	0.14202	0.20893	0.07804	0.1066	0.14252	0.08832	0.24268	-3.2708	-3.5125	-3.1375	-3.9375	-3.3312	-3.4646	-3.9354	-3.3583	-3.6708	-3.6937	-3.1708	-4.1104	-3.4375	-3.3708	-3.7083	-3.2771	505.578	366.467	364.107	181.318	226.115	326.239	445.638	456.587	219.445	259.668	437.936	498.894	341.303	454.345	430.538	461.042	0.0008882	0.00015361	9.0106e-05	606.19	1.2055e-07	2.2999e-06	569.52	244.08	1.3579e-06	1.5791e-06	206.32	85.98	103.24	47.606	7.0754e-07	39.804	5.0597e-05	5.2538e-05	1.3108e-05	532.83	5.4417e-07	5.6552e-07	489.91	197.1	5.3768e-07	5.5398e-07	161.54	66.71	81.008	37.057	4.9994e-07	29.808	472.229	195.012	278.316	186.542	450.337	314.794	183.309	192.545	333.033	275.412	188.326	191.849	197.492	201.902	209.330	195.546	-8191	255	
4145.169	1	1	0	0	0.23846	0.17648	0.12763	0.16455	0.084185	0.26204	0.037694	0.06018	0.15485	0.10142	0.067558	0.20527	0.2693	0.065254	0.12077	0.17447	-3.1937	-3.5417	-3.2917	-3.9313	-3.4875	-3.6083	-4.0333	-3.4708	-3.5125	-3.6146	-3.0438	-3.9854	-3.4625	-3.4292	-3.8479	-3.2854	278.105	340.509	528.748	512.810	292.579	328.941	469.635	296.593	252.628	408.553	259.922	490.457	175.742	404.858	270.576	176.159	0.00081198	3.7809e-05	7.8334e-05	609.4	5.3955e-07	3.3085e-07	570.5	243.81	7.8879e-07	1.5901e-06	205.31	85.884	103.9	47.84	1.4287e-06	39.965	5.2407e-05	4.9223e-05	1.2534e-05	533.01	5.6125e-07	5.3317e-07	488.62	197.1	5.5924e-07	5.2114e-07	161.05	66.833	81.233	37.121	4.7038e-07	29.972	483.433	192.320	302.979	186.609	332.974	277.753	183.345	192.843	224.138	289.073	188.195	191.941	197.576	201.948	206.943	195.433	-8191	255	
4145.266	1	1	0	0	0.16546	0.26007	0.13596	0.21553	0.1319	0.30596	0.079326	0.16036	0.064051	0.16758	0.094948	0.048764	0.20429	0.13739	0.12828	0.14178	-3.2708	-3.6604	-3.0917	-3.8833	-3.3583	-3.3396	-4.025	-3.2271	-3.5271	-3.7167	-3.2396	-3.8333	-3.7188	-3.3812	-3.8812	-3.4354	293.677	434.520	351.261	425.130	184.845	350.055	292.478	485.057	379.560	235.438	445.282	352.118	465.454	392.637	275.960	488.754	0.00083068	0.00024079	5.6404e-05	606.17	2.0874e-06	1.2677e-06	570.91	243.78	1.0582e-06	4.321e-07	205.72	86.827	103.04	47.572	5.5063e-07	39.886	5.2851e-05	4.6166e-05	1.2012e-05	533.01	5.5385e-07	4.9928e-07	487.26	197.68	5.4793e-07	4.9442e-07	160.82	67.256	81.082	37.039	4.5221e-07	30.128	468.624	330.532	249.737	186.288	315.870	308.272	183.256	192.761	249.835	278.791	188.191	191.733	197.438	201.915	193.414	195.398	-8191	255	
4145.362	1	1	0	0	0.22439	0.20091	0.13383	0.10015	0.042881	0.2115	0.18678	0.1715	0.10166	0.092996	0.059806	0.087681	0.28543	0.066331	0.10143	0.21711	-3.1979	-3.6375	-3.225	-3.8063	-3.6896	-3.3271	-3.9062	-3.3854	-3.4292	-3.8187	-3.25	-3.5271	-3.8208	-3.3646	-3.925	-3.4271	398.879	373.177	510.568	274.142	431.053	489.955	391.311	413.940	383.979	179.540	418.355	487.409	496.437	469.405	228.031	311.562	0.00081905	6.9038e-05	4.547e-05	608.68	1.631e-06	1.6246e-06	569.31	243.53	1.4238e-06	1.0726e-06	206.19	86.053	103.11	47.558	1.2905e-06	39.83	5.1759e-05	4.4358e-05	1.16e-05	533.83	5.301e-07	4.8546e-07	486.04	197.76	5.3033e-07	4.807e-07	160.56	67.182	80.891	36.899	4.5569e-07	29.964	489.740	239.569	248.947	186.576	331.998	303.824	183.451	192.467	355.802	333.013	187.789	191.578	197.381	201.929	241.039	195.505	-8191	255	
4145.482	1	1	0	0	0.071194	0.16886	0.13625	0.19287	0.22384	0.096883	0.085567	0.1841	0.080446	0.13621	0.15927	0.1508	0.10787	0.10928	0.065907	0.060844	-2.9792	-3.8458	-3.2667	-3.6104	-3.6875	-3.1271	-3.8042	-3.3896	-3.3667	-3.9167	-3.2562	-3.6708	-3.8438	-3.2875	-3.8521	-3.4792	498.778	252.403	426.564	185.255	467.217	422.977	272.904	204.066	468.639	411.718	496.639	516.037	530.484	224.031	403.313	496.536	0.00083772	8.9774e-05	7.6917e-05	609.33	1.5902e-06	1.7074e-06	569.91	242.22	2.0712e-06	7.9665e-07	205.1	86.011	102.36	47.525	1.1098e-06	39.639	4.9791e-05	4.304e-05	1.1813e-05	533.94	5.109e-07	4.7226e-07	485.61	197.47	5.0668e-07	4.563e-07	160.17	67.075	80.337	36.761	4.8414e-07	29.871	477.679	324.829	268.516	186.399	337.309	338.126	183.324	192.320	315.990	427.410	188.241	191.790	197.413	202.106	523.163	195.401	-8191	255	
4145.579	1	1	0	0	0.18269	0.24948	0.089715	0.21691	0.2316	0.018581	0.28026	0.21134	0.061086	0.060981	0.026	0.23658	0.084595	0.092222	0.14018	0.19029	-3.0458	-3.8958	-3.3	-3.5812	-3.7521	-3.1875	-3.9729	-3.5583	-3.3063	-3.9354	-3.4562	-3.6375	-3.8771	-3.1917	-3.6333	-3.5646	511.912	282.400	175.652	455.319	258.761	226.230	352.012	224.957	511.565	428.560	458.603	218.426	284.765	504.704	527.119	411.110	0.00082474	0.00015725	3.1836e-05	607.03	1.2849e-06	2.4764e-06	566.85	242.81	1.3371e-06	7.5871e-07	205.88	86.252	102.79	47.649	2.7236e-06	39.939	4.736e-05	4.1522e-05	1.2536e-05	534.07	4.9537e-07	4.5567e-07	486.86	197.65	4.9432e-07	4.4456e-07	161.4	67.221	80.569	36.913	5.1427e-07	30.019	481.566	271.883	524.622	186.563	303.029	308.343	183.539	192.325	242.597	533.386	188.344	191.950	197.408	201.939	221.092	195.225	-8191	255	
4145.675	1	1	0	0	0.20875	0.11138	0.059874	0.098465	0.22153	0.24576	0.15695	0.15952	0.074071	0.1809	0.18837	0.17041	0.14139	0.28062	0.13619	0.1139	-2.9104	-3.8854	-3.3292	-3.5792	-3.9437	-3.2146	-3.7458	-3.7875	-3.2979	-3.8354	-3.3542	-3.4146	-3.8646	-3.2583	-3.5438	-3.5042	534.660	473.680	234.143	364.591	264.954	388.477	463.344	307.612	451.308	471.244	521.443	467.551	209.507	472.085	515.674	477.207	0.00077607	5.5042e-05	3.3201e-05	609.55	2.3454e-06	1.8209e-06	569.77	243.49	1.44e-06	4.652e-07	205.12	86.28	103.18	47.697	5.0848e-07	39.913	4.6849e-05	4.0943e-05	1.3294e-05	535.36	4.7752e-07	4.589e-07	490.4	197.9	4.7966e-07	4.4865e-07	162.46	67.37	80.844	36.895	5.256e-07	30.017	484.525	329.087	217.208	186.687	310.752	326.603	183.089	192.686	359.965	266.164	188.121	191.721	197.197	202.140	316.266	195.526	-8191	255	
4145.771	1	1	0	0	0.055666	0.14322	0.044104	0.50021	0.090509	0.19895	0.1122	0.10859	0.099031	0.22418	0.0754	0.18423	0.10443	0.34835	0.1905	0.28049	-2.7729	-3.6792	-3.4	-3.4583	-3.9208	-3.2708	-3.4667	-3.75	-3.1312	-3.8125	-3.4396	-3.1979	-3.8854	-3.4375	-3.4979	-3.8021	271.891	509.346	534.488	494.702	204.303	233.622	516.047	450.239	418.372	416.919	297.199	467.944	469.258	464.233	472.389	469.678	0.00071607	5.5533e-05	7.7476e-05	609.72	2.1036e-06	1.1134e-06	569.46	245.13	5.1854e-07	7.881e-07	207.14	86.512	102.95	47.719	1.6282e-06	40.001	4.5025e-05	4.1606e-05	1.3625e-05	533.97	4.5202e-07	4.6659e-07	490.69	198.36	4.6213e-07	4.7172e-07	163.13	67.307	80.558	36.887	5.297e-07	29.948	479.432	360.803	227.136	186.575	300.409	255.857	183.376	192.606	336.600	259.179	187.905	191.606	197.343	201.827	307.365	195.403	-8191	255	
4145.867	1	1	0	0	0.12309	0.28602	0.16615	0.16883	0.069034	0.073314	0.26223	0.084593	0.083163	0.195	0.2385	0.069707	0.0699	0.11666	0.17843	0.14681	-2.6979	-3.6042	-3.5854	-3.575	-3.9458	-3.3937	-3.5104	-3.8667	-3.1958	-3.8333	-3.6542	-3.1479	-3.9458	-3.4771	-3.3937	-3.9542	365.827	334.875	436.580	531.213	383.740	424.400	508.151	374.105	333.232	479.428	516.260	255.618	323.605	198.452	407.962	447.359	0.00084623	6.9816e-05	5.6533e-05	608.5	1.105e-06	9.8699e-07	569.64	244.41	1.6519e-06	3.6409e-08	206.04	86.118	103.57	47.653	1.9876e-07	39.94	4.3302e-05	4.4556e-05	1.3551e-05	532.73	4.4331e-07	5.0101e-07	488.87	198.01	4.4929e-07	5.0179e-07	162.2	66.949	80.567	37.108	5.1447e-07	29.918	480.636	250.589	249.846	186.322	328.680	206.949	183.235	192.567	219.901	444.585	187.953	191.552	197.428	201.862	225.456	195.337	-8191	255	
4145.963	1	1	0	0	0.15868	0.034246	0.11298	0.13714	0.11042	0.35573	0.20247	0.28297	0.13358	0.17044	0.16283	0.13788	0.073218	0.16356	0.29751	0.16426	-2.7812	-3.5896	-3.65	-3.3688	-3.6125	-3.4188	-3.3625	-4.0271	-3.2354	-3.5833	-3.7229	-3.3937	-3.9	-3.45	-3.3125	-4.0208	323.242	387.837	295.802	255.073	507.210	487.060	426.652	514.555	261.537	401.991	496.671	498.106	189.917	494.718	441.583	380.228	0.00093257	0.00026695	6.0908e-05	608.23	1.1035e-06	1.3452e-06	568.16	244.84	6.2259e-07	8.804e-07	205.65	86.557	103.52	48.241	1.8657e-06	40.205	4.3338e-05	4.7286e-05	1.2842e-05	533.29	4.4484e-07	5.2355e-07	487.16	198.16	4.6539e-07	5.2471e-07	161.42	67.004	80.802	37.372	4.992e-07	30.131	484.049	520.768	308.696	186.689	278.977	295.505	183.230	192.674	239.467	337.437	188.377	191.997	197.111	201.666	347.129	195.155	-8191	255	
4146.084	1	1	0	0	0.10338	0.27646	0.12657	0.25517	0.17548	0.098683	0.26422	0.1218	0.16862	0.084413	0.031493	0.095675	0.084195	0.19644	0.21851	0.12483	-2.8104	-3.4625	-3.5979	-3.1542	-3.7479	-3.4271	-3.3854	-3.8958	-3.2271	-3.6167	-3.8292	-3.1521	-3.7646	-3.6271	-3.2042	-3.8771	178.940	386.590	371.766	257.110	374.847	187.914	287.298	201.502	353.588	327.411	491.828	471.116	221.816	207.372	485.118	289.349	0.00082734	2.4049e-05	6.327e-05	607.09	3.1124e-06	2.9927e-06	569.57	245.61	1.4993e-06	1.0875e-06	206.12	86.542	104.06	48.282	7.2439e-07	40.426	4.5199e-05	4.8765e-05	1.242e-05	532.4	4.6967e-07	5.3323e-07	487.39	198.38	4.8801e-07	5.2758e-07	161.87	67.344	81.352	37.45	4.8467e-07	30.22	477.764	277.720	282.221	186.531	272.179	306.971	183.072	192.796	212.258	289.502	188.094	191.838	197.255	201.907	304.609	195.381	-8191	255	
4146.178	1	1	0	0	0.06547	0.30549	0.18308	0.19742	0.10408	0.17482	0.24341	0.085657	0.14822	0.21241	0.077923	0.17798	0.12561	0.1654	0.27685	0.13069	-2.9979	-3.3708	-3.7958	-3.1458	-3.6792	-3.6333	-3.325	-3.8667	-3.2687	-3.4625	-3.8604	-3.2083	-3.6292	-3.6875	-3.2625	-3.9583	421.601	479.432	214.784	487.363	229.155	177.606	226.323	224.865	328.251	480.136	378.752	237.261	470.424	520.542	447.522	530.200	0.0008479	0.00011761	4.8942e-05	610.84	2.3805e-06	7.1667e-07	568.81	246.82	2.0227e-06	1.7952e-06	207.78	87.258	103.8	48.216	6.5456e-07	40.623	4.8534e-05	4.8097e-05	1.2097e-05	534.15	5.0773e-07	5.2165e-07	487.35	199.2	5.1798e-07	5.1427e-07	162.08	67.544	81.365	37.306	4.76e-07	30.231	481.931	226.347	258.253	186.142	216.212	331.763	183.053	192.444	209.257	296.058	187.994	191.852	197.330	201.811	259.741	195.261	-8191	255	
4146.274	1	1	0	0	0.10134	0.1283	0.046195	0.26585	0.12052	0.16288	0.14997	0.088536	0.2462	0.23057	0.15151	0.078419	0.19015	0.10541	0.1003	0.21951	-2.9896	-3.4354	-3.825	-3.2958	-3.7062	-3.6708	-3.3	-3.8417	-3.625	-3.4875	-4.0083	-3.1896	-3.6021	-3.9708	-3.1771	-3.7896	485.919	256.959	350.012	213.300	471.420	300.782	502.621	525.536	501.456	451.925	521.986	442.858	473.110	490.503	489.548	454.730	0.00096298	9.0964e-05	1.162e-05	611.87	5.3738e-07	6.8451e-07	565.29	246.5	4.8399e-07	1.2683e-06	206.13	86.711	103.5	47.84	4.0642e-07	39.99	5.1101e-05	4.5906e-05	1.1747e-05	533.64	5.4002e-07	5.0188e-07	485.48	198.99	5.4393e-07	4.9914e-07	161.26	67.279	81.273	37.173	4.5998e-07	30.028	479.415	275.648	180.164	186.640	303.291	305.800	183.277	192.600	189.751	276.672	187.920	191.761	197.357	201.878	221.021	195.460	-8191	255	
4146.346	1	1	0	0	0.18391	0.17707	0.048977	0.050881	0.20025	0.25999	0.11947	0.014448	0.091654	0.13609	0.064231	0.25191	0.10779	0.22397	0.27951	0.13453	-3.0625	-3.2271	-3.8042	-3.2625	-3.5083	-3.6833	-3.3146	-3.8771	-3.6854	-3.4396	-3.9146	-3.275	-3.5667	-3.8063	-3.2792	-3.8208	190.516	184.841	482.416	393.286	421.096	272.883	394.024	410.879	375.574	504.148	231.338	367.941	344.690	446.241	523.100	220.838	0.00084911	0.00017441	1.8352e-05	612.05	1.1193e-06	2.6085e-06	568.39	246.7	1.3409e-06	2.9132e-07	208.21	86.249	103.61	47.777	1.4027e-06	39.925	5.2126e-05	4.4798e-05	1.146e-05	535.79	5.3724e-07	4.8824e-07	486.87	199.31	5.4093e-07	4.862e-07	161.62	67.487	81.326	37.097	4.6017e-07	30.129	485.244	297.596	269.086	186.648	292.681	359.894	183.376	192.497	292.549	274.375	188.147	191.646	197.189	201.710	247.984	195.328	-8191	255	
4146.467	1	1	0	0	0.066647	0.038755	0.093688	0.072711	0.08035	0.1193	0.2165	0.17732	0.1854	0.12285	0.35737	0.27228	0.26781	0.02553	0.18822	0.061922	-3.2062	-3.2146	-3.8167	-3.35	-3.4167	-3.8937	-3.325	-3.7313	-3.7771	-3.3333	-3.7687	-3.3375	-3.4354	-3.8021	-3.0521	-3.7833	324.594	462.681	408.966	410.930	429.223	489.550	185.195	449.172	433.783	229.441	406.472	454.201	491.312	210.581	306.359	468.131	0.00084977	0.0002876	2.2399e-05	611.12	1.6143e-06	6.0671e-07	573.13	246.95	2.5777e-06	1.0045e-06	207.52	86.846	103.81	47.86	4.3552e-07	40.324	5.0575e-05	4.3952e-05	1.1414e-05	536.67	5.2202e-07	4.6817e-07	487.54	200.13	5.1883e-07	4.7499e-07	161.74	67.965	81.386	37.104	4.6089e-07	30.384	484.536	291.137	270.622	186.552	311.899	506.754	183.341	192.524	311.698	311.401	187.695	192.161	197.506	201.877	448.491	195.348	-8191	255	
4146.563	1	1	0	0	0.059613	0.14521	0.15602	0.16928	0.227	0.21053	0.22933	0.026619	0.036587	0.16788	0.024056	0.086408	0.15575	0.32379	0.085468	0.30097	-3.1917	-3.1021	-4.0125	-3.5417	-3.3396	-3.9583	-3.2208	-3.6	-3.6292	-3.0854	-3.925	-3.3875	-3.1437	-3.8563	-3.3625	-3.5229	486.329	315.865	337.295	426.789	346.230	238.938	416.838	360.039	444.855	257.630	223.495	447.701	225.267	491.130	532.107	392.821	0.00069363	0.00020131	7.7508e-05	611.04	8.6605e-07	6.1238e-07	573.88	246.61	2.3049e-06	1.5267e-06	207.69	87.109	103.83	47.803	1.152e-06	40.228	4.8685e-05	4.265e-05	1.166e-05	537.66	5.0151e-07	4.5905e-07	490.03	200.3	4.9733e-07	4.609e-07	162.78	67.988	81.294	37.042	4.9077e-07	30.298	488.837	283.735	242.360	186.437	341.815	310.272	183.492	192.656	279.696	286.829	188.332	191.720	197.547	202.142	215.825	195.261	-8191	255	
4146.659	1	1	0	0	0.093536	0.12113	0.16179	0.062799	0.065611	0.26805	0.10438	0.10217	0.099072	0.17548	0.078423	0.15599	0.31394	0.15236	0.11041	0.2642	-3.4146	-3.1271	-3.7958	-3.4646	-3.2313	-3.8563	-3.2687	-3.5771	-3.7542	-3.1875	-3.8438	-3.5417	-3.3271	-3.9708	-3.4583	-3.3417	464.279	304.024	215.115	368.788	339.779	493.420	266.645	237.714	188.963	216.791	507.572	425.938	264.661	242.921	397.988	344.762	0.00086504	0.00019857	6.1467e-05	608.59	2.7528e-06	1.0394e-06	569.97	246.96	1.319e-06	1.965e-07	206.33	86.312	103.6	47.58	1.7859e-06	39.996	4.6723e-05	4.1271e-05	1.251e-05	536.38	4.8916e-07	4.4752e-07	489.27	199.28	4.764e-07	4.4394e-07	162.39	67.297	80.802	36.812	5.1552e-07	29.991	481.572	309.400	205.830	186.601	272.826	267.414	183.394	192.547	253.079	238.476	188.060	192.030	197.207	201.799	255.263	195.275	-8191	255	
4146.755	1	1	0	0	0.24109	0.2495	0.21413	0.31717	0.027255	0.095584	0.22133	0.17345	0.025528	0.21298	0.025796	0.22067	0.063424	0.14417	0.23229	0.28658	-3.3187	-3.1896	-3.6854	-3.5375	-3.3208	-3.8875	-3.4188	-3.4625	-3.8563	-3.2854	-3.6354	-3.6688	-3.3375	-3.9083	-3.3708	-3.3625	485.698	261.817	529.372	496.687	382.710	344.576	378.560	394.875	456.202	424.308	311.511	211.198	436.934	245.805	190.400	459.601	0.00078139	0.00014488	5.5057e-05	608.29	7.5433e-07	2.0482e-06	569.32	243.13	1.3723e-06	6.8171e-07	205.45	86.172	103.14	47.504	1.573e-06	39.564	4.5035e-05	4.0756e-05	1.309e-05	535.05	4.6874e-07	4.3973e-07	489.47	198.13	4.6132e-07	4.5041e-07	162.3	67.05	80.49	36.679	5.3869e-07	29.767	482.878	270.734	236.836	186.579	274.514	228.619	183.215	192.749	278.122	280.167	188.069	191.980	197.530	201.744	247.238	195.273	-8191	255	
4146.851	1	1	0	0	0.18229	0.1026	0.15309	0.39992	0.23395	0.28851	0.11862	0.1123	0.093111	0.18025	0.14304	0.11274	0.35715	0.20452	0.057785	0.15421	-3.5333	-3.2208	-3.2833	-3.6646	-3.1833	-3.6312	-3.3792	-3.3875	-3.8417	-3.2708	-3.5479	-3.7021	-3.2396	-3.8417	-3.6	-3.3708	509.455	398.011	410.725	503.681	369.002	181.826	291.047	419.348	188.029	454.886	256.284	529.301	195.271	496.825	252.749	180.167	0.00070086	0.00014269	7.5163e-05	609.47	1.486e-06	1.45e-06	574.11	244.38	1.3152e-06	1.3649e-06	207.56	86.914	102.78	47.365	8.8904e-07	39.505	4.3582e-05	4.219e-05	1.3404e-05	533.76	4.5516e-07	4.7067e-07	491.35	197.9	4.4828e-07	4.8415e-07	162.87	67.381	80.347	36.629	5.3043e-07	29.709	493.137	187.156	258.616	186.568	282.761	252.489	183.468	192.495	455.030	294.976	188.045	192.161	197.501	201.905	242.457	195.375	-8191	255	
4146.947	1	1	0	0	0.15633	0.12287	0.042833	0.16384	0.20487	0.083287	0.106	0.24057	0.14406	0.12492	0.20737	0.089228	0.22608	0.12215	0.061895	0.12634	-3.4083	-3.3333	-3.3917	-3.7583	-3.2458	-3.6104	-3.8063	-3.3063	-3.7438	-3.2167	-3.4	-3.8479	-3.3063	-3.6792	-3.5625	-3.2396	187.035	442.033	430.456	362.633	269.422	505.541	382.694	185.348	428.157	305.914	464.244	249.602	500.527	463.041	374.254	433.229	0.00079423	0.00011501	4.244e-05	608.21	2.2229e-06	8.4796e-07	570.83	244.64	2.2164e-06	1.0981e-06	207.55	86.868	102	46.86	8.6283e-07	39.263	4.2808e-05	4.5565e-05	1.3231e-05	533.76	4.4153e-07	5.0166e-07	492.48	197.67	4.4138e-07	5.0531e-07	162.68	67.194	80.193	36.434	5.0578e-07	29.487	481.315	220.900	459.033	186.532	308.792	209.478	183.519	192.849	288.544	297.814	187.901	191.563	197.667	202.230	308.684	195.288	-8191	255	
4147.044	1	1	0	0	0.13992	0.24791	0.119	0.16627	0.26541	0.053572	0.20988	0.18912	0.061221	0.068229	0.017885	0.022978	0.17062	0.26211	0.2176	0.063779	-3.4833	-3.4104	-3.3125	-3.8979	-3.3438	-3.6604	-3.7583	-3.175	-3.7896	-3.4583	-3.2771	-3.8375	-3.3542	-3.4917	-3.7562	-3.3208	457.125	432.004	505.540	487.473	390.240	499.222	483.737	427.237	244.175	398.457	387.006	426.854	185.458	532.734	281.370	404.222	0.00084129	0.00011236	2.7172e-05	607.7	7.579e-07	6.6068e-07	572.19	241.45	1.9624e-06	5.7916e-07	205.21	85.789	101.94	46.38	8.8644e-07	38.606	4.3139e-05	4.8309e-05	1.2793e-05	532.19	4.5612e-07	5.2613e-07	491.03	195.83	4.5814e-07	5.3365e-07	162.19	66.582	79.835	36.091	4.9462e-07	29.029	480.088	337.982	311.617	186.601	523.145	292.008	183.341	192.762	310.037	291.814	188.259	191.900	197.426	201.835	262.491	195.399	-8191	255	
4147.162	1	1	0	0	0.17051	0.26902	0.13897	0.22727	0.13657	0.19911	0.10572	0.21055	0.1134	0.3341	0.18914	0.15527	0.03239	0.078112	0.22054	0.078401	-3.4437	-3.475	-3.2229	-3.8229	-3.3187	-3.6042	-3.9292	-3.2083	-3.8688	-3.5042	-3.3875	-4.0938	-3.4083	-3.6542	-3.7333	-3.4542	398.468	427.780	460.871	387.132	444.230	205.726	364.903	190.232	328.078	299.912	341.761	473.377	181.167	359.679	377.365	316.827	0.00079169	6.4694e-05	1.4846e-05	607.82	9.4811e-07	2.3994e-06	573.33	242.4	1.3871e-06	8.5142e-07	206.86	85.892	101.88	46.202	1.5634e-06	38.685	4.5218e-05	4.8514e-05	1.218e-05	532.68	4.8029e-07	5.2381e-07	490.14	196.23	4.8681e-07	5.2507e-07	161.95	66.468	79.978	36.01	4.7714e-07	29	481.612	534.542	349.716	186.621	325.375	315.022	183.169	192.736	259.591	291.194	188.205	191.590	197.467	201.800	308.348	195.390	-8191	255	
4147.259	1	1	0	0	0.21938	0.06901	0.07469	0.014843	0.1277	0.17117	0.15092	0.059709	0.15461	0.078585	0.18749	0.090464	0.11674	0.065345	0.13298	0.09456	-3.3646	-3.5563	-3.3167	-3.9604	-3.5229	-3.5938	-3.9562	-3.3229	-3.7938	-3.6604	-3.3271	-3.9979	-3.4292	-3.2812	-3.7687	-3.1917	280.760	193.613	420.780	210.559	380.128	276.409	406.704	425.574	174.763	197.524	378.148	300.908	479.416	358.978	447.595	504.196	0.00090838	0.00015562	1.3024e-05	611.12	1.4553e-06	2.6376e-07	574.4	243.51	1.759e-06	5.1949e-07	207.83	86.215	102.25	46.579	1.0504e-06	39.021	4.8666e-05	4.7221e-05	1.2039e-05	533.12	5.2131e-07	5.108e-07	490.9	196.4	5.1357e-07	5.0812e-07	162	66.794	80.344	36.071	4.6372e-07	29.201	481.574	197.995	256.146	186.856	326.268	315.754	183.173	192.578	284.172	313.904	187.957	191.878	197.552	201.893	253.486	195.267	-8191	255	
4147.355	1	1	0	0	0.19663	0.04393	0.26036	0.24211	0.39019	0.20758	0.17647	0.31818	0.015635	0.17355	0.19173	0.084481	0.18402	0.072141	0.054721	0.11756	-3.2458	-3.6729	-3.1875	-3.8458	-3.5917	-3.6688	-3.8417	-3.2146	-3.5354	-3.875	-3.3771	-3.8667	-3.325	-3.3875	-3.875	-3.3	434.288	491.962	444.160	493.960	218.425	402.253	467.740	452.709	380.341	425.432	223.657	179.846	527.148	495.103	334.393	389.391	0.00093749	8.8659e-05	4.9971e-05	609.94	2.5609e-06	1.5006e-06	571.66	242.17	1.4193e-06	2.6287e-07	207.09	85.821	102.22	46.449	1.4645e-06	38.668	5.0937e-05	4.5455e-05	1.1667e-05	533.67	5.341e-07	4.8816e-07	489.83	196.54	5.3134e-07	4.8256e-07	162	66.972	80.413	36	4.4551e-07	29.201	478.161	260.248	274.909	186.613	281.206	325.343	183.171	192.420	278.160	183.335	188.219	191.861	197.191	201.941	270.633	195.641	-8191	255	
4147.451	1	1	0	0	0.21718	0.098123	0.12281	0.18013	0.31571	0.20823	0.1944	0.087268	0.21327	0.19834	0.14129	0.070529	0.23568	0.068603	0.16827	0.30137	-3.1188	-3.6979	-3.1646	-3.7	-3.3875	-3.2604	-3.8708	-3.4083	-3.3708	-3.8417	-3.2625	-3.8083	-3.7042	-3.5146	-3.8458	-3.4229	204.518	381.721	357.378	344.431	228.596	499.742	375.468	442.392	339.901	434.808	269.118	444.009	197.125	185.810	297.796	431.341	0.00080132	0.00011345	4.5553e-05	608.39	2.263e-06	9.6835e-07	573.83	242.8	1.4382e-06	1.2728e-06	205.33	85.232	101.91	46.294	1.5163e-06	38.484	5.0306e-05	4.35e-05	1.1186e-05	532.46	5.2135e-07	4.6988e-07	487.94	197.15	5.1466e-07	4.636e-07	160.84	66.657	79.875	35.893	4.4171e-07	29.072	476.670	533.580	240.034	186.640	314.656	206.164	183.297	192.674	332.502	398.477	187.846	191.432	197.310	201.832	297.177	195.462	-8191	255	
4147.571	1	1	0	0	0.074071	0.15406	0.099712	0.16316	0.15538	0.24162	0.096264	0.28526	0.2526	0.10082	0.1832	0.023111	0.04852	0.41223	0.13429	0.10279	-3.2396	-3.925	-3.3729	-3.6708	-3.6417	-3.1229	-4	-3.3688	-3.3208	-3.9896	-3.2938	-3.9042	-3.8229	-3.3729	-3.7417	-3.4688	282.691	247.871	395.801	413.018	473.025	374.390	502.834	522.310	235.954	348.038	290.777	280.952	237.746	445.560	357.091	289.034	0.00073329	0.0001066	4.2366e-05	608.6	5.6257e-07	1.5006e-06	573.65	243.25	2.0233e-06	8.6843e-07	205.21	85.261	101.72	46.289	1.3568e-06	38.844	4.8367e-05	4.2588e-05	1.1181e-05	534.17	5.0236e-07	4.5981e-07	488.61	197.69	4.951e-07	4.482e-07	160.59	66.63	79.811	35.788	4.5345e-07	29.158	480.354	383.434	237.780	186.508	328.074	355.952	183.575	192.598	316.670	356.059	187.931	191.802	197.437	201.989	198.306	195.343	-8191	255	
4147.643	1	1	0	0	0.17669	0.055439	0.28316	0.12936	0.11261	0.25179	0.093025	0.05618	0.18438	0.19243	0.17682	0.20031	0.11888	0.094305	0.23152	0.35517	-2.9708	-3.9792	-3.2771	-3.7146	-3.8375	-3.2917	-3.9125	-3.6104	-3.4958	-3.7396	-3.3333	-3.6354	-3.8292	-3.2792	-3.7938	-3.6042	275.754	478.432	402.428	429.528	411.444	235.311	241.250	501.727	416.390	239.104	503.373	201.296	301.566	496.208	193.668	245.369	0.00087397	1.2258e-05	2.3535e-05	606.47	1.3629e-06	1.3609e-06	571.38	243.62	2.8361e-06	9.9231e-07	206.45	85.923	101.77	46.205	1.3778e-06	38.558	4.6697e-05	4.0502e-05	1.1663e-05	534.76	4.7824e-07	4.4175e-07	489.7	197.75	4.8004e-07	4.3824e-07	161.73	67.019	79.857	35.707	4.8792e-07	29.152	484.198	332.478	190.600	186.539	356.401	290.957	183.405	192.559	278.375	359.102	187.986	191.672	197.588	202.097	290.012	195.622	-8191	255	
4147.764	1	1	0	0	0.15189	0.066037	0.16573	0.14228	0.20848	0.063546	0.16966	0.33798	0.01534	0.18885	0.23345	0.17051	0.13639	0.29781	0.17124	0.13096	-2.8042	-4.0312	-3.4854	-3.6	-3.8875	-3.2729	-3.7854	-3.5729	-3.3021	-4.025	-3.5875	-3.6146	-3.7292	-3.2021	-3.7729	-3.7125	323.828	269.144	462.037	411.793	349.048	218.160	334.626	497.680	408.401	425.058	187.820	531.352	483.530	447.682	275.772	191.068	0.00073777	0.00015908	3.4436e-05	609.54	1.6176e-06	1.8567e-06	577.3	245.25	8.2152e-07	5.8248e-07	206.98	85.929	101.96	46.172	1.6165e-06	38.714	4.59e-05	3.9847e-05	1.2571e-05	535.69	4.699e-07	4.4081e-07	493.33	198.09	4.7039e-07	4.3227e-07	163.07	67.146	79.971	35.698	5.1417e-07	29.091	484.832	225.921	223.040	186.578	352.079	350.285	183.014	192.506	309.696	249.918	188.233	191.902	197.642	201.929	258.214	195.460	-8191	255	
4147.860	1	1	0	0	0.08814	0.16982	0.305	0.30802	0.047156	0.13685	0.05121	0.10539	0.12794	0.083746	0.058241	0.036173	0.15907	0.15464	0.15132	0.44389	-2.8396	-3.8854	-3.5687	-3.5021	-3.7292	-3.4396	-3.8021	-3.8229	-3.3271	-3.7208	-3.5292	-3.3458	-3.8937	-3.225	-3.6292	-3.8937	276.525	528.839	525.501	444.805	278.415	257.213	282.761	312.634	481.777	368.261	454.538	437.126	430.490	516.486	202.216	454.365	0.000799	9.6245e-05	5.349e-05	608.46	1.1278e-06	5.1423e-07	574.93	242.79	1.5379e-06	1.8001e-06	206.3	85.783	101.84	46.186	6.752e-07	38.369	4.4662e-05	4.0622e-05	1.3331e-05	533.89	4.5819e-07	4.5517e-07	491.68	196.79	4.5466e-07	4.5044e-07	162.2	66.465	79.537	35.721	5.199e-07	28.904	485.232	224.090	211.458	186.784	356.955	289.744	183.355	192.661	271.057	316.801	188.324	192.102	197.586	202.020	458.866	195.373	-8191	255	
4147.956	1	1	0	0	0.26883	0.17253	0.0493	0.24122	0.17582	0.09255	0.15584	0.24826	0.22704	0.06612	0.094892	0.061749	0.14043	0.28299	0.1428	0.039747	-2.8979	-3.7687	-3.4	-3.2562	-3.9313	-3.3438	-3.6396	-3.6979	-3.1375	-3.7458	-3.5458	-3.1396	-4.0375	-3.4479	-3.7625	-3.8604	352.311	501.914	395.246	342.287	384.572	187.826	400.429	490.890	484.443	196.102	466.243	182.683	243.444	327.042	528.713	423.309	0.00075733	7.0828e-05	4.3003e-05	606.88	1.9295e-06	1.0818e-06	570.4	243.21	1.5897e-06	8.0286e-07	205.61	84.899	101.58	46.25	1.0395e-06	38.585	4.2595e-05	4.2196e-05	1.3123e-05	532.21	4.3836e-07	4.7748e-07	489.22	196.53	4.407e-07	4.746e-07	161.37	66.245	79.324	35.865	5.0974e-07	28.919	482.202	258.072	218.407	186.627	305.557	241.502	183.350	192.471	291.475	230.315	188.167	191.977	197.584	201.850	338.281	195.487	-8191	255	
4148.052	1	1	0	0	0.13741	0.17323	0.28773	0.037695	0.12165	0.17119	0.15798	0.10082	0.10154	0.34513	0.027786	0.075686	0.15924	0.057376	0.050191	0.14026	-2.8229	-3.7104	-3.6729	-3.2979	-3.7812	-3.5354	-3.4938	-3.9146	-3.0375	-3.7667	-3.7729	-3.3688	-4.0354	-3.4813	-3.6	-3.9646	472.042	349.609	455.868	321.259	218.729	374.585	462.125	225.244	192.872	289.740	175.547	417.064	467.680	276.925	276.050	366.636	0.00087896	0.00012729	9.2603e-05	607.75	6.2558e-07	9.2926e-07	571.26	243.77	1.3654e-06	4.4832e-07	205.62	85.371	101.77	46.253	1.5452e-06	38.891	4.2521e-05	4.5069e-05	1.2872e-05	532.21	4.2911e-07	5.0069e-07	489.16	196.9	4.4123e-07	5.0169e-07	161.69	66.467	79.643	36.05	4.856e-07	29.156	481.165	529.512	305.910	186.723	411.856	424.216	183.424	192.357	316.482	302.273	188.235	191.895	197.282	201.917	322.972	195.418	-8191	255	
4148.171	1	1	0	0	0.24712	0.20415	0.14536	0.34622	0.090342	0.055972	0.15587	0.1312	0.094426	0.14714	0.17465	0.092117	0.29062	0.062354	0.061609	0.39292	-2.9271	-3.7167	-3.7146	-3.1479	-3.8354	-3.4396	-3.4729	-4.1646	-3.4437	-3.6167	-3.8896	-3.2562	-3.7271	-3.5708	-3.375	-3.8563	379.044	228.535	249.362	506.821	343.672	476.791	457.094	489.297	319.927	265.721	371.704	318.447	216.058	221.561	396.899	497.247	0.00088514	0.00021528	5.6218e-05	607.9	1.7639e-07	8.7826e-07	570.58	243.83	1.2056e-06	4.6363e-07	206	86.168	102.71	46.267	8.1072e-07	38.904	4.3424e-05	4.6594e-05	1.2209e-05	531.08	4.4623e-07	5.1777e-07	488.13	197.05	4.6559e-07	5.1861e-07	162.25	66.741	80.001	35.983	4.7841e-07	29.072	482.150	190.229	313.955	186.674	214.742	292.794	183.160	192.597	235.281	285.808	188.186	191.692	197.153	201.968	194.478	195.707	-8191	255	
4148.243	1	1	0	0	0.062065	0.16679	0.14904	0.15454	0.20926	0.15102	0.1912	0.055711	0.11269	0.34723	0.13332	0.06736	0.10581	0.32155	0.17003	0.089097	-2.8563	-3.5896	-3.6937	-3.0854	-3.7083	-3.3937	-3.4313	-4.1021	-3.2958	-3.4667	-3.7042	-3.3021	-3.6708	-3.5896	-3.3417	-3.9437	221.562	348.637	321.301	474.332	386.745	230.074	409.095	229.497	504.515	260.323	256.649	247.675	258.833	474.451	198.877	439.012	0.00073678	0.00010627	5.5984e-05	607.42	3.0262e-06	1.7445e-06	571.23	242.74	2.1184e-06	6.6974e-07	205.24	84.761	101.41	45.954	2.0613e-06	38.265	4.608e-05	4.7771e-05	1.188e-05	530.33	4.8172e-07	5.1505e-07	486.51	195.75	4.9984e-07	5.0613e-07	160.52	65.88	79.573	35.711	4.6961e-07	28.675	478.624	236.349	278.097	186.667	229.260	292.366	183.232	192.553	262.937	291.159	187.969	191.567	197.402	201.760	353.408	194.954	-8191	255	
4148.339	1	1	0	0	0.12655	0.15165	0.10734	0.069831	0.11168	0.10179	0.066181	0.19654	0.037413	0.17581	0.17662	0.19991	0.078807	0.28101	0.23872	0.25358	-2.9062	-3.4021	-3.8104	-3.3479	-3.6333	-3.7438	-3.3875	-4.1083	-3.3979	-3.3208	-4.0583	-3.5125	-3.7208	-3.7604	-3.3729	-3.9708	444.319	242.133	480.281	260.817	494.896	234.817	249.624	183.919	293.601	531.458	460.854	349.640	187.551	527.969	287.500	279.734	0.00087072	5.1311e-05	1.9648e-05	605.96	2.4725e-06	1.7739e-06	566.61	242.14	1.2132e-06	1.321e-06	204.24	85.248	101.56	45.981	1.0107e-06	38.432	4.903e-05	4.586e-05	1.1625e-05	530.22	5.1225e-07	4.9401e-07	485.91	195.79	5.2773e-07	4.9595e-07	160.31	65.988	79.801	35.616	4.6166e-07	28.771	481.723	205.574	373.121	186.731	278.587	281.350	183.306	192.663	259.400	344.011	188.227	191.774	197.636	201.912	265.655	195.178	-8191	255	
4148.435	1	1	0	0	0.30376	0.12202	0.034773	0.13025	0.32554	0.22632	0.21935	0.25492	0.11505	0.10227	0.066478	0.19683	0.20303	0.15667	0.31588	0.077332	-3.1229	-3.3833	-3.7729	-3.4229	-3.5771	-3.8333	-3.4625	-3.8563	-3.4813	-3.2375	-4.1958	-3.275	-3.7854	-3.7708	-3.3583	-3.875	177.015	237.927	301.988	429.384	300.881	326.864	453.791	491.740	210.356	387.710	257.474	439.715	262.603	197.114	448.532	443.844	0.00082629	2.75e-05	2.1723e-05	609.51	1.8722e-06	1.3119e-06	571.6	242.13	1.5288e-06	6.4549e-07	206.72	85.261	101.57	45.849	7.1892e-07	38.367	5.1084e-05	4.4936e-05	1.1472e-05	532.17	5.396e-07	4.8435e-07	488.19	196.21	5.3371e-07	4.8461e-07	160.79	66.616	79.769	35.581	4.5399e-07	28.883	489.001	489.805	228.648	186.643	339.284	398.343	183.433	192.622	288.273	267.856	188.169	191.900	197.487	201.786	283.493	195.478	-8191	255	
4148.531	1	1	0	0	0.1496	0.20194	0.20898	0.18248	0.16755	0.12089	0.30736	0.13811	0.26218	0.090677	0.20964	0.11188	0.15012	0.083976	0.25018	0.22515	-3.225	-3.2479	-3.9542	-3.3937	-3.5417	-3.7542	-3.1021	-3.7021	-3.6708	-3.4062	-3.8771	-3.45	-3.4917	-3.7542	-3.2062	-3.5521	469.981	237.456	528.596	501.816	401.588	402.229	431.486	229.314	479.742	455.170	258.260	498.521	443.710	477.482	206.309	175.751	0.00077411	0.00013287	4.1332e-05	608.37	1.1852e-06	1.3134e-06	572.91	239.47	1.042e-06	9.5462e-07	207.99	85.851	101.11	45.567	1.5076e-06	38.201	5.1309e-05	4.458e-05	1.1466e-05	532.54	5.3292e-07	4.8141e-07	489.36	195.16	5.3279e-07	4.8862e-07	161.35	66.938	79.494	35.282	4.7075e-07	28.737	483.399	271.061	271.195	186.741	321.536	218.835	183.406	192.768	374.748	281.193	188.181	191.958	197.554	202.011	232.426	195.621	-8191	255	
4148.652	1	1	0	0	0.16927	0.15724	0.16784	0.21818	0.21567	0.038955	0.086392	0.071265	0.096568	0.11477	0.11325	0.13827	0.16135	0.21028	0.2195	0.094715	-3.2938	-3.2479	-3.8667	-3.4688	-3.4896	-3.9854	-3.3542	-3.6583	-3.8083	-3.2792	-3.8375	-3.4396	-3.2917	-3.9917	-3.35	-3.7271	437.248	440.405	471.947	425.757	357.453	291.638	473.297	292.555	458.340	310.365	374.498	234.340	332.426	521.975	197.161	443.362	0.00074674	0.00023207	4.2737e-05	606.93	2.2286e-06	8.1852e-07	574.14	239.54	1.3438e-06	1.6962e-06	205.06	84.953	100.76	45.351	8.5155e-07	37.937	5.0759e-05	4.4308e-05	1.1725e-05	533.56	5.1688e-07	4.6832e-07	490.41	194.68	5.1098e-07	4.6527e-07	160.88	66.545	79.204	35.226	4.8425e-07	28.65	483.293	248.619	193.331	186.579	325.856	247.050	183.521	192.951	292.737	332.835	188.155	192.090	197.345	201.966	217.364	195.383	-8191	255	
4148.748	1	1	0	0	0.11693	0.14823	0.17962	0.27251	0.081617	0.2108	0.076497	0.21663	0.19216	0.38118	0.061628	0.046736	0.038638	0.14353	0.10864	0.046894	-3.2167	-3.2896	-3.7542	-3.6229	-3.3292	-4.0354	-3.3646	-3.4729	-3.8125	-3.3542	-3.6708	-3.65	-3.3812	-4.0625	-3.4771	-3.6104	463.430	476.261	490.644	517.421	340.802	422.997	370.622	379.632	191.024	328.658	280.605	202.278	455.466	234.565	315.576	415.012	0.00085153	0.0001409	3.8628e-05	607.34	1.9925e-06	3.1577e-07	568.63	240.15	6.5485e-07	7.2803e-07	204.97	84.874	101.43	45.511	9.7963e-07	37.946	4.6992e-05	4.2145e-05	1.2232e-05	533.63	4.8831e-07	4.4591e-07	488.56	195.51	4.9036e-07	4.5384e-07	161.41	66.284	79.353	35.241	5.1278e-07	28.621	483.853	306.156	268.120	186.651	329.568	484.268	183.171	192.631	176.789	284.688	187.806	191.927	197.249	201.852	268.808	195.614	-8191	255	
4148.844	1	1	0	0	0.26801	0.19519	0.056383	0.13465	0.063382	0.096091	0.077549	0.12322	0.18575	0.21331	0.036959	0.25659	0.048333	0.19315	0.36463	0.029773	-3.5896	-3.25	-3.7	-3.65	-3.075	-3.7375	-3.6042	-3.5625	-3.7354	-3.2083	-3.6229	-3.65	-3.1729	-3.8479	-3.3646	-3.2896	268.439	315.705	258.083	248.034	310.021	187.486	241.509	472.172	514.914	462.751	504.538	390.760	367.849	187.734	175.029	494.893	0.00075363	7.4153e-05	5.5045e-05	607.09	1.041e-06	1.2538e-06	571.24	240.03	3.8181e-07	1.0328e-06	206.91	85.421	101.36	45.429	1.3357e-06	37.951	4.6354e-05	4.1669e-05	1.311e-05	533.05	4.8153e-07	4.4871e-07	491.05	195.23	4.7708e-07	4.6025e-07	162.53	66.47	79.275	35.211	5.4197e-07	28.59	485.023	484.617	223.815	186.923	345.155	293.153	183.682	192.620	303.031	262.359	187.988	191.572	197.448	201.900	242.640	195.620	-8191	255	
4148.940	1	1	0	0	0.089822	0.068821	0.29463	0.096278	0.31263	0.09219	0.22363	0.2651	0.077339	0.061304	0.13563	0.13331	0.31302	0.071425	0.09521	0.23851	-3.4562	-3.2833	-3.4417	-3.8417	-3.2146	-3.8354	-3.5667	-3.4208	-3.9417	-3.2458	-3.8292	-3.7604	-3.275	-3.7375	-3.5417	-3.4146	387.938	188.157	298.560	426.591	441.971	494.294	404.549	468.069	236.628	336.863	309.591	271.219	454.134	261.793	231.911	408.120	0.00078356	5.9372e-05	2.8684e-05	604.8	2.3963e-06	7.3899e-07	573.56	239.59	2.953e-06	1.1919e-06	205.77	85.631	101.35	45.016	4.7684e-07	37.761	4.5172e-05	4.2811e-05	1.3788e-05	531.78	4.7404e-07	4.7156e-07	493.23	194.73	4.6657e-07	4.8359e-07	162.98	66.651	79.239	34.996	5.4492e-07	28.392	478.794	255.384	198.196	186.803	263.650	270.737	183.483	192.705	264.624	262.866	188.191	192.115	197.443	201.956	256.978	195.615	-8191	255	
4149.036	1	1	0	0	0.10732	0.25937	0.22535	0.020346	0.050941	0.077541	0.23112	0.16904	0.15347	0.27592	0.25458	0.14778	0.15922	0.05187	0.37268	0.35383	-3.425	-3.1937	-3.5208	-4.0021	-3.2458	-3.8312	-3.7938	-3.4208	-3.8896	-3.4479	-3.5292	-3.8563	-3.2667	-3.8875	-3.6479	-3.225	419.755	351.706	427.352	329.747	236.625	503.272	313.630	426.337	318.590	517.981	196.344	404.338	428.560	178.889	407.071	533.971	0.00065847	0.00022293	4.9944e-06	605.44	8.8765e-07	1.7426e-06	570.19	237.93	1.1438e-06	1.3507e-06	203.4	84.589	100.71	44.95	8.3884e-07	37.28	4.4211e-05	4.6171e-05	1.3786e-05	531.14	4.6382e-07	5.0883e-07	492.08	193.06	4.5975e-07	5.172e-07	161.12	65.801	78.574	34.915	5.3086e-07	28.046	482.419	182.444	198.962	186.343	342.530	305.426	183.453	192.818	296.553	195.429	188.138	191.731	197.523	201.761	290.076	195.600	-8191	255	
4149.133	1	1	0	0	0.078714	0.091264	0.20137	0.053436	0.14571	0.049595	0.16898	0.27203	0.035823	0.062273	0.14233	0.13774	0.18768	0.25169	0.13843	0.082597	-3.5271	-3.3729	-3.5187	-3.8104	-3.3917	-3.5792	-3.7729	-3.3563	-3.7792	-3.6604	-3.5979	-3.9667	-3.4167	-3.9917	-3.675	-3.2875	380.209	325.568	203.252	242.470	215.770	181.221	419.752	328.557	312.196	185.888	411.632	500.418	178.801	480.433	435.750	283.103	0.00075903	3.3395e-05	3.6662e-05	604.38	1.6423e-06	3.558e-07	571.53	236.61	5.8216e-07	7.09e-07	202.85	84.009	99.96	44.863	1.1151e-06	37.15	4.4099e-05	4.8956e-05	1.3384e-05	529.11	4.6998e-07	5.3934e-07	489.76	191.54	4.6464e-07	5.4705e-07	160	65.416	78.267	34.774	5.1907e-07	27.864	474.333	215.190	257.179	186.797	293.362	321.510	183.143	192.557	211.606	221.993	188.275	191.752	197.445	201.947	291.335	195.492	-8191	255	
4149.251	1	1	0	0	0.22879	0.093423	0.31699	0.04106	0.29104	0.21427	0.075032	0.19084	0.099039	0.23163	0.19011	0.19707	0.28081	0.316	0.053866	0.16167	-3.3875	-3.4396	-3.3229	-3.8979	-3.3854	-3.4958	-3.7583	-3.4292	-3.9667	-3.7875	-3.4625	-3.9354	-3.5375	-3.6229	-3.8375	-3.0667	474.675	382.204	260.571	440.172	377.211	314.865	500.251	467.266	182.525	482.477	407.131	388.574	199.167	192.961	303.344	454.065	0.00082502	0.00016491	7.8871e-05	602.19	3.8295e-07	8.3458e-07	570.55	235.4	1.191e-06	1.0318e-06	204.13	84.454	100.31	44.544	9.5859e-07	37.277	4.6172e-05	5.0976e-05	1.2882e-05	528.54	4.9263e-07	5.5138e-07	489.68	190.44	4.9434e-07	5.5386e-07	160.22	65.595	78.684	34.819	5.0421e-07	27.888	480.947	269.739	262.790	186.702	245.546	204.180	182.982	192.619	278.145	415.178	188.099	192.069	197.532	202.055	372.807	195.476	-8191	255	
4149.348	1	1	0	0	0.10435	0.17047	0.22245	0.20054	0.078487	0.033941	0.113	0.1697	0.035779	0.075271	0.089468	0.088339	0.084663	0.26386	0.21383	0.18082	-3.5438	-3.4437	-3.1312	-3.8354	-3.4562	-3.7229	-3.9188	-3.2812	-3.875	-3.6	-3.2625	-3.9938	-3.3646	-3.5229	-3.8792	-3.3646	517.985	268.479	191.873	497.838	430.988	444.195	430.455	523.260	449.286	415.187	337.251	237.758	454.218	532.617	488.430	251.798	0.00083847	0.00023564	7.076e-06	600.79	1.4945e-06	1.5999e-06	572.99	232.73	1.9453e-06	6.401e-07	204.25	84.904	100.51	44.388	1.123e-06	37.128	4.9802e-05	5.0591e-05	1.2749e-05	527.5	5.3875e-07	5.4405e-07	490.22	188.99	5.3997e-07	5.3936e-07	160.06	65.887	78.88	34.66	4.9193e-07	27.908	485.799	297.102	472.970	186.693	322.760	301.988	183.297	192.686	231.896	353.320	188.441	191.734	197.381	202.112	233.189	195.453	-8191	255	
4149.444	1	1	0	0	0.11975	0.095508	0.085485	0.2881	0.18714	0.12334	0.10246	0.28362	0.022142	0.1699	0.067909	0.23872	0.17777	0.19853	0.19427	0.23953	-3.3208	-3.7354	-3.1708	-3.9833	-3.5062	-3.4646	-3.9208	-3.4	-3.725	-3.6979	-3.2875	-3.9542	-3.5312	-3.4625	-3.8292	-3.3896	319.573	374.668	454.810	449.556	287.751	268.827	460.161	261.915	252.858	507.413	329.258	398.942	276.493	486.795	327.341	252.683	0.00080681	0.0001665	5.4774e-05	600.16	3.3256e-07	9.5156e-07	571.47	232.4	8.9222e-07	1.153e-06	201.12	84.111	100.06	44.239	4.6765e-07	36.741	5.2568e-05	4.8812e-05	1.2481e-05	526.38	5.6776e-07	5.232e-07	489.59	188.88	5.577e-07	5.1686e-07	158.43	65.598	78.586	34.41	4.7851e-07	27.724	475.232	238.762	222.643	186.703	318.005	225.760	183.206	192.860	512.457	342.275	187.790	191.842	197.412	202.227	226.297	195.247	-8191	255	
4149.540	1	1	0	0	0.16954	0.056221	0.14244	0.49897	0.24645	0.13396	0.065102	0.10344	0.11893	0.16525	0.097725	0.26106	0.10553	0.35402	0.14267	0.23507	-3.2729	-3.5563	-3.2458	-3.7583	-3.5854	-3.425	-4.0396	-3.2896	-3.6417	-3.8104	-3.3979	-3.8667	-3.4792	-3.3667	-3.8479	-3.4979	479.232	416.851	492.669	442.340	230.020	375.333	492.884	191.362	178.484	197.188	259.189	423.830	478.646	229.815	302.311	477.113	0.00078198	0.00024012	8.2144e-05	600.59	1.3664e-06	7.8794e-07	568.46	233.14	3.1852e-07	1.3445e-06	201.87	84.03	99.795	44.099	1.842e-06	36.698	5.3316e-05	4.6086e-05	1.2015e-05	527.7	5.5491e-07	4.986e-07	487.37	189.9	5.5461e-07	4.954e-07	158.23	65.472	78.346	34.34	4.6173e-07	27.771	479.395	283.702	276.395	186.671	287.159	311.248	183.462	192.749	418.344	388.374	188.224	191.818	197.791	202.094	258.128	195.325	-8191	255	
#DATA ENDS
