BOXY.EXE: ISS Imagent and Oximeter Data Acquisition Program Version 0.80
Ascii Record File

#ACQ INFORMATION
2  Detector Channels 
16  External MUX Channels 
1  Auxiliary Channels 
5000  Waveform (CCF) Frequency (Hz)
1  Waveforms Skipped 
30  Waveforms Averaged 
1  Cycles Averaged 
16  Acquisitions per Waveform 
10.0806  Updata Rate (Hz) 

#FILE INFORMATION
TRUE -- External MUX Channel results are PARSED.
FALSE -- AC DC and Phase are NOT grouped.
TRUE -- Companion Program Settings File CREATED.
FALSE -- AC data not excluded
FALSE -- DC data not excluded
FALSE -- Phase data not excluded
FALSE -- Auxillary Chn. data not excluded
Tab delimiters

#CALIBRATION STATE
TRUE -- Waveform Calibration Values APPLIED.


#AUX CALIBRATION VALUES
Val Type	aux-1	

Term	1.0000e+00	
Factor	0.0000e+00	


#WF CALIBRATION VALUES
A = Detector Channel
Val Type	A-AC1	A-AC2	A-AC3	A-AC4	A-AC5	A-AC6	A-AC7	A-AC8	A-AC9	A-AC10	A-AC11	A-AC12	A-AC13	A-AC14	A-AC15	A-AC16	A-DC1	A-DC2	A-DC3	A-DC4	A-DC5	A-DC6	A-DC7	A-DC8	A-DC9	A-DC10	A-DC11	A-DC12	A-DC13	A-DC14	A-DC15	A-DC16	A-Ph1	A-Ph2	A-Ph3	A-Ph4	A-Ph5	A-Ph6	A-Ph7	A-Ph8	A-Ph9	A-Ph10	A-Ph11	A-Ph12	A-Ph13	A-Ph14	A-Ph15	A-Ph16	

Term	0.00000e+00	0.00000e+00	0.00000e+00	0.00000e+00	0.00000e+00	0.00000e+00	0.00000e+00	0.00000e+00	0.00000e+00	0.00000e+00	0.00000e+00	0.00000e+00	0.00000e+00	0.00000e+00	0.00000e+00	0.00000e+00	0.00000e+00	0.00000e+00	0.00000e+00	0.00000e+00	0.00000e+00	0.00000e+00	0.00000e+00	0.00000e+00	0.00000e+00	0.00000e+00	0.00000e+00	0.00000e+00	0.00000e+00	0.00000e+00	0.00000e+00	0.00000e+00	0.00000e+00	0.00000e+00	0.00000e+00	0.00000e+00	0.00000e+00	0.00000e+00	0.00000e+00	0.00000e+00	0.00000e+00	0.00000e+00	0.00000e+00	0.00000e+00	0.00000e+00	0.00000e+00	0.00000e+00	0.00000e+00	
Factor	1.00000e+00	1.00000e+00	1.00000e+00	1.00000e+00	1.00000e+00	1.00000e+00	1.00000e+00	1.00000e+00	1.00000e+00	1.00000e+00	1.00000e+00	1.00000e+00	1.00000e+00	1.00000e+00	1.00000e+00	1.00000e+00	1.00000e+00	1.00000e+00	1.00000e+00	1.00000e+00	1.00000e+00	1.00000e+00	1.00000e+00	1.00000e+00	1.00000e+00	1.00000e+00	1.00000e+00	1.00000e+00	1.00000e+00	1.00000e+00	1.00000e+00	1.00000e+00	X	X	X	X	X	X	X	X	X	X	X	X	X	X	X	X	

B = Detector Channel
Val Type	B-AC1	B-AC2	B-AC3	B-AC4	B-AC5	B-AC6	B-AC7	B-AC8	B-AC9	B-AC10	B-AC11	B-AC12	B-AC13	B-AC14	B-AC15	B-AC16	B-DC1	B-DC2	B-DC3	B-DC4	B-DC5	B-DC6	B-DC7	B-DC8	B-DC9	B-DC10	B-DC11	B-DC12	B-DC13	B-DC14	B-DC15	B-DC16	B-Ph1	B-Ph2	B-Ph3	B-Ph4	B-Ph5	B-Ph6	B-Ph7	B-Ph8	B-Ph9	B-Ph10	B-Ph11	B-Ph12	B-Ph13	B-Ph14	B-Ph15	B-Ph16	

Term	0.00000e+00	0.00000e+00	0.00000e+00	0.00000e+00	0.00000e+00	0.00000e+00	0.00000e+00	0.00000e+00	0.00000e+00	0.00000e+00	0.00000e+00	0.00000e+00	0.00000e+00	0.00000e+00	0.00000e+00	0.00000e+00	0.00000e+00	0.00000e+00	0.00000e+00	0.00000e+00	0.00000e+00	0.00000e+00	0.00000e+00	0.00000e+00	0.00000e+00	0.00000e+00	0.00000e+00	0.00000e+00	0.00000e+00	0.00000e+00	0.00000e+00	0.00000e+00	-2.04314e+02	-1.42203e+02	-1.28168e+02	-1.83188e+02	-8.07192e+01	-9.55538e+01	-1.57235e+02	-1.62015e+02	-9.38696e+01	-7.87754e+01	-1.72586e+02	-1.73078e+02	-1.80462e+02	-1.78286e+02	-1.03677e+02	-1.51187e+02	
Factor	5.12228e-05	5.56067e-05	1.88345e-05	1.95333e-01	6.11813e-07	6.20629e-07	2.43410e-01	8.63391e-02	5.78950e-07	5.10576e-07	1.23214e-01	4.08652e-02	3.29490e-02	1.20693e-02	4.99769e-07	1.77148e-02	2.19044e-07	2.19549e-07	6.10483e-08	8.04949e-02	2.40446e-09	2.40050e-09	9.18355e-02	3.25942e-02	2.40413e-09	2.39780e-09	4.31712e-02	1.43532e-02	1.21673e-02	4.38651e-03	2.40139e-09	6.00466e-03	X	X	X	X	X	X	X	X	X	X	X	X	X	X	X	X	



#DISTANCE SETTINGS
A = Detector Channel
A-1	A-2	A-3	A-4	A-5	A-6	A-7	A-8	A-9	A-10	A-11	A-12	A-13	A-14	A-15	A-16	

2.5000e+00	3.0000e+00	2.5000e+00	3.0000e+00	2.0000e+00	3.0000e+00	1.5000e+00	3.0000e+00	3.0000e+00	3.0000e+00	3.0000e+00	3.0000e+00	3.0000e+00	3.0000e+00	1.5000e+00	3.0000e+00	

B = Detector Channel
B-1	B-2	B-3	B-4	B-5	B-6	B-7	B-8	B-9	B-10	B-11	B-12	B-13	B-14	B-15	B-16	

1.0000e+01	1.0000e+01	1.0000e+01	1.4400e+00	1.0000e+01	1.0000e+01	1.5100e+00	1.9400e+00	1.0000e+01	1.0000e+01	1.9900e+00	2.4900e+00	2.4100e+00	2.9000e+00	1.0000e+01	2.9800e+00	




#DATA BEGINS
time	group	step	mark	flag	A-AC1	A-AC2	A-AC3	A-AC4	A-AC5	A-AC6	A-AC7	A-AC8	A-AC9	A-AC10	A-AC11	A-AC12	A-AC13	A-AC14	A-AC15	A-AC16	A-DC1	A-DC2	A-DC3	A-DC4	A-DC5	A-DC6	A-DC7	A-DC8	A-DC9	A-DC10	A-DC11	A-DC12	A-DC13	A-DC14	A-DC15	A-DC16	A-Ph1	A-Ph2	A-Ph3	A-Ph4	A-Ph5	A-Ph6	A-Ph7	A-Ph8	A-Ph9	A-Ph10	A-Ph11	A-Ph12	A-Ph13	A-Ph14	A-Ph15	A-Ph16	B-AC1	B-AC2	B-AC3	B-AC4	B-AC5	B-AC6	B-AC7	B-AC8	B-AC9	B-AC10	B-AC11	B-AC12	B-AC13	B-AC14	B-AC15	B-AC16	B-DC1	B-DC2	B-DC3	B-DC4	B-DC5	B-DC6	B-DC7	B-DC8	B-DC9	B-DC10	B-DC11	B-DC12	B-DC13	B-DC14	B-DC15	B-DC16	B-Ph1	B-Ph2	B-Ph3	B-Ph4	B-Ph5	B-Ph6	B-Ph7	B-Ph8	B-Ph9	B-Ph10	B-Ph11	B-Ph12	B-Ph13	B-Ph14	B-Ph15	B-Ph16	aux-1	digaux	

2673.702	1	1	0	768	0.20626	0.17136	0.29243	0.19959	0.20781	0.40262	0.083997	0.332	0.027646	0.049545	0.17036	0.082872	0.15756	0.1613	0.052607	0.06488	-3.9875	-3.5583	-3.9375	-4.2854	-3.4625	-4.4979	-4.0729	-3.6542	-4.3542	-3.7104	-4.2521	-4.1896	-3.7812	-4.2125	-4.2063	-3.7875	33.734	139.427	138.222	-16.712	171.494	213.402	157.395	218.929	79.025	-20.222	287.088	269.433	-19.741	284.079	85.740	233.431	0.00080944	0.00010514	0.0001092	748.7	2.293e-06	2.1889e-06	830.33	364.86	1.381e-06	8.4824e-07	460.32	221.9	181.55	93.6	2.1499e-06	118.83	3.7313e-05	3.471e-05	1.0597e-05	647.2	3.5913e-07	3.7649e-07	700.95	291.23	3.5122e-07	3.8956e-07	349.57	168.92	139.97	71.439	4.1536e-07	86.649	80.605	88.946	46.303	-42.972	83.221	108.971	-45.063	-37.534	106.476	119.660	-40.675	-36.822	-33.261	-28.399	2.880	-32.379	-8191	255	
2673.798	1	1	0	0	0.21485	0.20319	0.11558	0.13193	0.15406	0.08255	0.14508	0.21644	0.37255	0.10751	0.37555	0.21368	0.39578	0.050455	0.15005	0.15591	-3.95	-3.6813	-3.8667	-4.3333	-3.8375	-4.2292	-4.3063	-3.6792	-4.4396	-3.8458	-3.8229	-4.3917	-3.7062	-4.1854	-4.0375	-3.9	39.946	14.575	252.704	17.981	197.492	-33.798	228.129	-1.576	-3.429	6.077	273.748	220.994	-54.015	47.609	222.138	216.862	0.00074654	0.00018239	7.9577e-05	758.03	3.0154e-06	2.5265e-06	844.67	368.26	1.9052e-06	2.0511e-06	464.51	225.04	183.94	95.273	1.7331e-06	120.87	3.6884e-05	3.6718e-05	1.0216e-05	653.16	3.5218e-07	3.9448e-07	710.32	292.9	3.3932e-07	3.8565e-07	352.47	171.38	141.91	72.816	3.8071e-07	88.187	88.276	69.406	4.659	-43.054	113.648	99.300	-45.320	-37.717	76.241	88.840	-40.886	-36.689	-33.443	-28.353	76.640	-32.617	-8191	255	
2673.894	1	1	0	0	0.2057	0.12156	0.17386	0.10193	0.19625	0.12563	0.14403	0.3074	0.10179	0.16113	0.34935	0.080295	0.15281	0.27698	0.16164	0.14046	-3.7687	-3.8187	-3.8792	-4.325	-3.8438	-4.1625	-4.2979	-3.7771	-4.3229	-3.8875	-3.8292	-4.4167	-3.6917	-4.2625	-3.9729	-3.7729	-42.129	-34.865	-52.950	-5.818	2.041	-10.829	298.070	-20.474	-39.036	91.664	204.499	223.345	247.688	-7.900	177.888	238.793	0.000883	0.00014893	6.985e-05	764.91	1.0346e-06	2.8083e-06	849.84	369.08	1.9263e-06	1.5301e-06	462.85	225.42	183.98	95.405	1.7649e-06	120.84	3.69e-05	3.7047e-05	9.5181e-06	660.75	3.6138e-07	3.9838e-07	715.12	293.62	3.6041e-07	3.9028e-07	352.01	171.26	141.94	73.019	3.6544e-07	88.062	91.798	12.931	14.509	-43.078	147.128	47.405	-45.062	-37.590	88.623	66.482	-40.849	-36.691	-33.199	-28.456	55.327	-32.480	-8191	255	
2673.990	1	1	0	0	0.19847	0.046578	0.060487	0.10464	0.043985	0.19238	0.2355	0.038301	0.10725	0.14756	0.35013	0.091875	0.122	0.31834	0.20437	0.14275	-3.8125	-3.9	-3.7354	-4.1583	-3.7896	-4.0979	-4.2417	-3.7042	-4.1875	-3.9583	-3.8458	-4.3521	-3.9542	-4.0479	-4.2708	-3.8792	13.871	234.074	106.406	262.101	202.613	100.488	223.151	161.645	281.803	94.985	233.956	-45.681	243.852	258.351	200.233	217.125	0.00091734	0.00018547	4.285e-05	771.8	2.2745e-06	1.4142e-06	856.6	371.68	1.4467e-06	1.3487e-06	462.25	224.7	183.55	95.959	8.9201e-07	121.22	3.8019e-05	3.5264e-05	9.1495e-06	667.05	3.6997e-07	3.8334e-07	721.31	294.57	3.7867e-07	3.7332e-07	350.79	170.92	141.71	73.199	3.4919e-07	88.284	78.022	-0.620	27.217	-43.304	97.178	73.741	-45.150	-37.764	57.777	63.667	-40.691	-36.679	-33.113	-28.252	87.422	-32.580	-8191	255	
2674.087	1	1	0	0	0.071317	0.19673	0.13301	0.17371	0.051934	0.042827	0.19082	0.14167	0.23098	0.077961	0.17699	0.034646	0.070474	0.28708	0.075368	0.20819	-3.9208	-3.9125	-3.5938	-4.3625	-3.9292	-4.0229	-4.3792	-3.5187	-4.1188	-4.0958	-3.7729	-4.4896	-4.0813	-4	-4.2063	-3.9292	-27.994	80.103	286.131	-32.670	147.160	100.951	229.889	258.252	235.723	93.928	276.526	-47.863	288.730	-52.245	31.869	-24.242	0.00084964	0.00033341	9.9753e-05	784.55	2.8432e-06	1.7782e-06	872.32	374.97	2.7582e-06	1.6375e-06	468.9	228.01	186.22	97.873	1.9674e-06	123.64	3.904e-05	3.3682e-05	8.6279e-06	677.1	3.7552e-07	3.5457e-07	731.53	297.59	3.7238e-07	3.4598e-07	354.86	173.22	143.59	74.614	3.2e-07	90.153	80.764	-1.428	24.863	-43.259	92.747	36.482	-45.109	-37.718	105.029	58.979	-40.857	-36.788	-33.207	-28.325	54.872	-32.646	-8191	255	
2674.183	1	1	0	0	0.31155	0.092071	0.050405	0.096761	0.14548	0.15889	0.13714	0.15956	0.075637	0.18583	0.30473	0.066122	0.18427	0.27275	0.11346	0.11281	-3.7687	-4.1375	-3.6896	-4.2562	-4.0729	-3.7438	-4.5646	-3.7438	-4.0417	-4.3229	-3.5979	-4.3354	-4.1896	-3.6958	-4.4	-3.7333	107.095	52.934	204.587	259.508	142.487	-14.474	232.409	103.588	90.795	32.398	264.625	222.150	217.299	301.249	8.758	228.006	0.00085726	0.00031419	0.00010824	803.01	1.7352e-06	2.6745e-06	894.68	380.55	1.0152e-06	2.5012e-06	474.24	231.03	188.52	99.901	1.9951e-06	126.11	3.83e-05	3.1029e-05	7.8137e-06	692.62	3.6119e-07	3.3092e-07	749.3	301.98	3.5576e-07	3.3041e-07	358.93	175.41	145.37	76.146	3.0202e-07	91.797	80.232	9.809	45.679	-43.165	82.450	65.088	-45.189	-37.657	52.945	49.699	-40.800	-36.644	-33.193	-28.345	76.557	-32.463	-8191	255	
2674.303	1	1	0	0	0.050672	0.11158	0.061767	0.13855	0.13332	0.122	0.20352	0.16395	0.15917	0.13682	0.086043	0.22075	0.10212	0.32927	0.14189	0.18283	-3.6875	-4.2208	-3.6229	-4.275	-4.1521	-3.6083	-4.4125	-3.8354	-3.9021	-4.2937	-3.6625	-4.35	-4.1583	-3.8042	-4.3083	-3.9708	46.995	159.063	57.174	63.307	122.046	76.306	-54.359	-44.634	17.185	75.254	143.978	178.081	-43.895	298.337	34.647	217.481	0.00090042	0.0001273	8.5568e-05	824.75	2.2504e-06	1.7459e-06	910.12	385.71	1.9345e-06	9.1394e-07	477.78	229.97	188.53	100.74	1.8423e-06	126.53	3.5701e-05	2.8711e-05	7.4821e-06	709.02	3.3544e-07	3.1292e-07	762.45	307.2	3.3938e-07	3.0954e-07	361.15	175.32	145.36	76.763	3.0057e-07	92.167	87.210	35.353	52.442	-43.422	89.931	25.341	-45.024	-37.855	118.341	66.848	-40.619	-36.662	-33.110	-28.440	70.962	-32.472	-8191	255	
2674.398	1	1	0	0	0.24626	0.12987	0.1156	0.1345	0.27029	0.19058	0.17729	0.24003	0.20071	0.21315	0.16809	0.23637	0.067938	0.12284	0.12809	0.1796	-3.4437	-4.2708	-3.7333	-4.1562	-4.1667	-3.6146	-4.5125	-3.9417	-3.7042	-4.3375	-3.9542	-4.0771	-4.2021	-3.8604	-4.2771	-4.2229	-50.168	-18.564	99.775	209.441	167.745	144.200	-19.083	270.415	-35.587	133.971	220.557	245.478	-35.063	10.357	-21.735	150.843	0.00086708	0.0001409	7.0673e-05	835.12	2.4511e-06	2.6141e-06	932.03	392.52	1.2502e-06	1.4057e-06	482.24	231.44	190.66	103.12	9.4134e-07	129.18	3.3942e-05	2.6735e-05	7.5307e-06	719.92	3.1448e-07	2.8414e-07	777.41	312	3.0083e-07	2.7507e-07	364.16	176.25	146.81	78.471	2.929e-07	94.083	80.749	14.966	43.675	-43.124	82.552	64.280	-45.479	-37.769	67.181	78.903	-40.981	-36.665	-32.982	-28.640	71.448	-32.650	-8191	255	
2674.494	1	1	0	0	0.0058195	0.074382	0.039385	0.2263	0.076925	0.14447	0.17411	0.093918	0.08441	0.054886	0.10379	0.45279	0.15896	0.12256	0.07842	0.26945	-3.3208	-4.3625	-3.6375	-3.9688	-4.0958	-3.6646	-4.3792	-3.9708	-3.7604	-4.2937	-3.7438	-4.0896	-4.4375	-3.925	-4.0646	-4.1208	164.246	110.984	115.112	174.956	298.396	-40.946	286.932	86.204	243.925	226.074	212.247	216.875	-22.492	282.965	-32.185	261.470	0.00088078	0.0001834	6.4185e-05	863.2	1.7649e-06	3.3842e-06	965.73	405.59	1.9094e-06	2.2784e-06	490.02	236.06	193.12	105.64	1.1188e-06	132.35	3.1069e-05	2.3818e-05	7.425e-06	742.21	2.8549e-07	2.6078e-07	806.03	320.84	2.8402e-07	2.5393e-07	371.36	178.55	148.53	80.346	2.9978e-07	96.347	92.016	-0.663	30.853	-43.368	81.364	72.855	-45.318	-37.929	54.700	92.615	-41.108	-36.684	-33.242	-28.455	75.060	-32.728	-8191	255	
2674.590	1	1	0	0	0.33406	0.12129	0.070104	0.086841	0.32538	0.11776	0.077553	0.1284	0.088137	0.1826	0.079001	0.15504	0.41461	0.090729	0.13927	0.1289	-3.3167	-4.1167	-3.8125	-3.9854	-4.3229	-3.6104	-4.1292	-4.0917	-3.6104	-4.1375	-4.0062	-3.7521	-4.5208	-3.9771	-4.1229	-4.2646	247.019	-36.880	298.432	214.455	77.700	98.622	-13.703	201.518	246.655	58.936	56.291	295.697	223.726	-45.989	-28.509	301.011	0.0009631	0.00040426	8.7113e-05	894.36	2.2925e-06	1.86e-06	1000.3	419.8	2.1965e-06	2.8036e-06	504.77	236.49	195.23	106.92	2.4184e-06	133.65	3.0243e-05	2.3249e-05	7.4776e-06	766.64	2.6243e-07	2.5531e-07	837.37	331.36	2.6141e-07	2.5384e-07	380.77	179.17	149.67	81.272	2.9607e-07	97.057	81.091	9.628	33.813	-43.312	87.358	60.239	-45.260	-38.250	77.813	77.981	-41.000	-36.875	-33.338	-28.745	69.972	-32.802	-8191	255	
2674.686	1	1	0	0	0.18181	0.27056	0.1857	0.098845	0.15411	0.057341	0.097284	0.25361	0.18815	0.020132	0.24734	0.15894	0.10672	0.11713	0.059901	0.13673	-3.1083	-4.3479	-3.9083	-3.9604	-4.3354	-3.7812	-3.9208	-4.3146	-3.6917	-4.1375	-4.0896	-3.7062	-4.4583	-3.9479	-3.7938	-4.3854	117.910	109.939	35.645	200.952	-32.500	173.659	143.654	290.361	11.210	105.527	-10.713	284.482	232.718	-18.062	178.739	302.766	0.00094856	0.00026139	7.9169e-05	904.82	1.4978e-06	1.6817e-06	1011.8	425.25	1.1526e-06	1.8603e-06	509.7	234.66	194.36	107.65	7.9211e-07	134.31	2.8096e-05	2.378e-05	7.3244e-06	779.13	2.5069e-07	2.5983e-07	846.84	336.54	2.4191e-07	2.5231e-07	383.69	177.58	149.45	81.813	2.6492e-07	97.427	81.143	20.511	34.429	-43.152	99.118	72.671	-45.577	-38.361	90.205	63.219	-41.115	-36.777	-33.242	-28.649	60.134	-32.993	-8191	255	
2674.782	1	1	0	0	0.083575	0.18497	0.20021	0.15437	0.1752	0.13329	0.26937	0.27916	0.042017	0.11154	0.15706	0.086071	0.26751	0.14892	0.21967	0.15814	-3.2833	-4.1917	-4.0687	-3.825	-4.3729	-3.8375	-4.0417	-4.2812	-3.6792	-4.0958	-4.0271	-3.825	-4.3313	-3.9604	-3.8417	-4.6188	287.360	121.555	152.535	277.205	-27.032	36.669	218.802	279.218	220.569	169.502	-4.823	267.403	-13.767	257.539	178.150	182.228	0.00094489	0.00026172	6.9223e-05	922.85	2.057e-06	2.309e-06	1027.5	433.79	1.8254e-06	2.233e-06	516.32	233.58	194.28	107.62	1.4338e-06	134.7	2.5707e-05	2.2909e-05	6.56e-06	790.73	2.2108e-07	2.4866e-07	857.96	342.29	2.195e-07	2.4005e-07	388.38	176.65	148.85	81.675	2.3533e-07	97.493	85.538	30.237	37.244	-43.389	76.362	79.376	-45.570	-38.399	59.255	61.589	-41.369	-36.916	-33.447	-28.605	61.538	-32.743	-8191	255	
2674.903	1	1	0	0	0.19299	0.16346	0.061781	0.048402	0.21066	0.22497	0.10706	0.086539	0.11306	0.099835	0.044779	0.20053	0.12807	0.247	0.11452	0.037692	-3.2875	-4.175	-4.0938	-3.7792	-4.2438	-3.8917	-3.8354	-4.4854	-3.6729	-4.0542	-4.4958	-3.6792	-4.3063	-4.0417	-3.7229	-4.4938	-17.909	215.263	240.180	289.044	66.564	16.494	245.459	213.522	82.660	77.767	250.639	-42.222	-20.333	269.308	86.895	223.677	0.00090723	0.00022809	5.1545e-05	934.7	1.7622e-06	1.7925e-06	1051	444.98	2.0773e-06	2.0864e-06	528.4	228.8	193.05	105.72	1.3803e-06	132.79	2.4174e-05	2.1118e-05	5.4585e-06	800.45	1.9763e-07	2.1912e-07	874.47	350.38	1.9814e-07	2.0976e-07	397.29	173.28	147.7	80.425	1.8944e-07	96.207	81.047	39.937	21.609	-43.507	74.511	63.732	-45.554	-38.409	61.495	85.042	-41.529	-37.055	-33.494	-28.826	73.451	-32.871	-8191	255	
2674.999	1	1	0	0	0.158	0.29009	0.15532	0.060899	0.17768	0.065852	0.098398	0.25356	0.012818	0.1281	0.18026	0.17646	0.12342	0.21966	0.22945	0.17659	-3.525	-3.7958	-4.2188	-3.6458	-4.2562	-3.725	-3.7438	-4.4167	-3.6667	-3.8563	-4.4229	-3.6979	-4.2896	-4.0021	-3.6917	-4.3417	280.011	-56.497	213.060	68.413	-3.160	-49.019	158.098	300.011	64.181	13.365	89.930	238.812	283.370	241.855	219.959	-54.115	0.00097854	0.00022532	8.8327e-05	945.31	1.8476e-06	2.7108e-06	1053.9	453	1.2538e-06	2.1099e-06	534.55	224.06	190.68	103.48	2.2728e-06	128.71	2.171e-05	1.7397e-05	4.4001e-06	805.91	1.7354e-07	1.7178e-07	878.04	356.35	1.6381e-07	1.6048e-07	400.46	168.87	145.86	78.427	1.4565e-07	93.194	84.110	22.484	41.508	-43.411	62.399	55.891	-45.801	-38.679	72.587	80.121	-41.699	-37.079	-33.844	-28.653	55.090	-32.850	-8191	255	
2675.095	1	1	0	0	0.028487	0.1189	0.055515	0.19654	0.1404	0.22341	0.11884	0.197	0.15226	0.10388	0.24292	0.11189	0.19105	0.13749	0.1027	0.2403	-3.4021	-3.8958	-4.0354	-3.7271	-4.0312	-4.1125	-3.6646	-4.4875	-3.8812	-3.8583	-4.4333	-3.8063	-4.2542	-4.2063	-3.7229	-4.4292	212.906	241.285	-46.157	-29.438	234.162	54.200	242.467	158.289	90.934	11.788	273.246	264.104	-46.135	-5.781	290.188	269.542	0.00098247	0.00024287	8.6738e-05	937.09	2.0633e-06	2.597e-06	1042.8	454.33	1.4712e-06	1.975e-06	525.38	217.53	189.24	98.332	1.1531e-06	122.29	1.7866e-05	1.2387e-05	3.0772e-06	799.5	1.291e-07	1.1901e-07	863.48	355.92	1.209e-07	1.0873e-07	393.88	163.8	144.45	74.558	9.9443e-08	88.346	82.522	13.879	26.199	-43.501	90.666	65.013	-45.745	-38.908	86.127	60.905	-41.740	-37.367	-33.953	-28.867	62.389	-33.071	-8191	255	
2675.190	1	1	0	0	0.14794	0.099836	0.082748	0.30084	0.13064	0.070417	0.086351	0.25096	0.19719	0.057651	0.19578	0.14252	0.12472	0.25358	0.12607	0.0611	-3.6021	-3.6167	-4.4625	-3.7646	-3.8771	-4.3125	-3.55	-4.2208	-3.9708	-3.6625	-4.4271	-3.7687	-3.9167	-4.3375	-3.6688	-4.2354	248.047	-14.817	168.960	218.924	38.816	108.308	184.596	215.612	142.881	79.790	225.321	280.423	288.693	283.987	31.610	189.418	0.00085723	0.00021099	6.9755e-05	918.63	2.0081e-06	1.6701e-06	1009.3	455.74	1.4346e-06	2.1547e-06	531.68	216.74	190.92	94.074	1.1117e-06	116.71	1.4112e-05	8.3534e-06	2.06e-06	780.57	9.1981e-08	8.1142e-08	838.28	356.23	8.6549e-08	7.4057e-08	395.97	163.11	145.85	71.06	6.9245e-08	84.448	82.091	22.550	30.369	-43.544	79.724	79.874	-45.902	-39.102	61.170	74.306	-41.963	-37.675	-34.387	-29.123	56.273	-33.231	-8191	255	
2675.263	1	1	0	0	0.043126	0.13894	0.14883	0.13656	0.036298	0.020691	0.15606	0.18935	0.14271	0.093088	0.18645	0.21547	0.08564	0.14886	0.024655	0.26247	-3.6771	-3.6312	-4.2792	-3.8833	-3.9813	-4.2833	-3.7479	-4.0854	-4.0625	-3.4979	-4.2792	-3.9271	-4.1667	-4.4167	-3.5563	-4.2042	212.633	297.355	96.204	125.753	-35.757	49.827	243.541	195.075	113.911	243.766	277.943	294.339	288.319	15.095	172.842	228.326	0.00075352	0.00020083	7.2658e-05	919.84	2.2075e-06	2.0209e-06	1012.2	464.62	1.6356e-06	1.9839e-06	540.93	221.73	195.24	93.299	1.5733e-06	116.58	1.0977e-05	5.969e-06	1.4119e-06	781.28	6.6543e-08	5.7177e-08	838.03	361.73	6.7852e-08	5.9431e-08	402.29	166.7	148.78	70.503	6.3172e-08	84.18	82.774	6.680	27.353	-43.836	81.030	74.621	-45.947	-39.062	62.968	69.121	-42.160	-37.881	-34.541	-29.307	67.567	-33.223	-8191	255	
2675.382	1	1	0	0	0.043052	0.15508	0.10313	0.14318	0.3108	0.14809	0.15627	0.22806	0.13016	0.086688	0.047991	0.13059	0.35615	0.11175	0.17458	0.13159	-3.8125	-3.4333	-4.1396	-4.0583	-3.8187	-4.2063	-3.7729	-4.0917	-4.1917	-3.6604	-4.2458	-3.9458	-3.7438	-4.3875	-3.5812	-4.0917	116.776	139.593	-43.412	228.066	216.818	24.048	184.928	267.734	255.449	-2.896	301.496	243.518	241.680	222.080	-10.635	-41.810	0.00077957	0.00020453	6.1008e-05	926.79	1.7825e-06	1.9324e-06	1026.3	467.69	1.6232e-06	1.4007e-06	543.42	224.46	197.88	91.628	1.3175e-06	112.54	1.0307e-05	5.4508e-06	1.4256e-06	788.25	6.4685e-08	5.4226e-08	846.07	366.57	6.3219e-08	5.3721e-08	405.02	168.59	150.75	69.114	6.5508e-08	81.128	81.655	19.465	32.667	-43.769	92.839	67.974	-45.981	-39.122	64.239	76.802	-41.868	-38.155	-35.042	-29.450	71.532	-33.383	-8191	255	
2675.478	1	1	0	0	0.034248	0.29482	0.17064	0.18043	0.2097	0.19951	0.2394	0.44344	0.17103	0.09727	0.20579	0.14082	0.35498	0.15429	0.16528	0.22416	-3.6583	-3.6958	-4.1375	-4.1208	-3.6854	-4.3125	-3.8354	-3.9375	-4.2417	-3.6604	-4.1875	-4.1021	-3.85	-4.3229	-3.7729	-3.9417	157.306	164.317	168.127	272.883	256.559	39.181	218.027	229.730	223.116	149.412	258.340	298.473	230.587	-27.642	232.271	277.558	0.00078435	0.00021539	8.5192e-05	906.15	1.916e-06	2.4261e-06	984.77	448.98	1.864e-06	1.7301e-06	518.88	217.23	192.78	87.973	1.144e-06	107.46	9.9428e-06	5.4206e-06	1.5664e-06	771.74	6.5121e-08	5.7307e-08	814.53	351.02	6.6925e-08	6.1239e-08	387.29	162.69	146.31	66.343	7.8285e-08	77.658	79.480	36.644	34.695	-44.097	101.890	71.878	-45.914	-39.189	75.101	90.963	-42.131	-38.169	-34.827	-29.362	85.055	-33.259	-8191	255	
2675.574	1	1	0	0	0.14435	0.21734	0.047186	0.19493	0.091513	0.071888	0.37017	0.23396	0.078477	0.38973	0.10593	0.17331	0.25516	0.21636	0.25402	0.17966	-3.9229	-3.6354	-3.8458	-4.2167	-3.5687	-4.2354	-3.9021	-3.9458	-4.3521	-3.6292	-3.9979	-4.2396	-3.6521	-4.3417	-3.9708	-3.9688	-5.120	164.194	256.548	-31.048	252.909	206.790	241.792	-44.151	198.331	-45.064	275.047	215.197	-47.526	295.534	49.795	243.681	0.00075313	0.0002193	6.2322e-05	914.12	2.3019e-06	2.102e-06	987.99	437.68	1.7417e-06	1.7481e-06	504.88	206.35	184.32	85.733	1.0445e-06	105.32	1.0644e-05	6.3331e-06	2.0391e-06	779.06	7.9928e-08	7.2525e-08	818.77	343.52	8.3599e-08	8.0177e-08	376.6	155.61	140.14	64.96	1.1446e-07	76.04	79.951	13.076	38.774	-44.020	78.592	53.269	-45.923	-39.070	79.218	91.852	-41.851	-37.697	-34.379	-29.097	70.365	-33.060	-8191	255	
2675.670	1	1	0	0	0.070922	0.045196	0.16801	0.06831	0.071877	0.084008	0.10596	0.15632	0.088599	0.025478	0.071557	0.16947	0.26368	0.302	0.094944	0.30985	-3.8812	-3.6979	-3.7771	-4.2667	-3.425	-4.25	-4.0229	-3.7042	-4.2354	-3.7042	-4.0625	-4.3938	-3.7021	-4.3521	-3.875	-3.9271	100.727	9.748	27.237	23.970	230.083	84.343	274.547	228.106	223.676	273.095	246.005	-55.634	78.146	227.113	241.246	245.700	0.00076333	0.00019399	8.5288e-05	929.03	1.8702e-06	2.0507e-06	986.38	427.1	1.6043e-06	1.501e-06	489.71	199.22	176.72	84.112	1.522e-06	102.09	1.3633e-05	1.0402e-05	3.3719e-06	790.16	1.2651e-07	1.2937e-07	815.69	335.31	1.4021e-07	1.5539e-07	367.32	150.14	134.97	63.669	2.0739e-07	74.168	83.552	37.116	24.670	-43.953	81.479	62.711	-46.059	-38.735	81.000	118.562	-41.846	-37.445	-33.913	-28.634	38.481	-32.628	-8191	255	
2675.791	1	1	0	0	0.075842	0.076269	0.11427	0.23341	0.17259	0.10988	0.12686	0.19957	0.32126	0.038318	0.27968	0.10332	0.14685	0.22302	0.10404	0.19559	-3.775	-3.6312	-3.6937	-4.2792	-3.575	-4.2229	-4.1771	-3.7125	-4.3521	-3.8833	-3.8229	-4.3771	-3.8187	-4.1312	-4.0167	-3.7167	33.108	28.322	28.057	227.946	246.880	9.460	245.771	290.387	151.666	137.137	175.688	244.526	215.374	-42.551	105.539	176.770	0.00074729	0.0001839	6.7891e-05	954.41	2.2359e-06	2.2488e-06	989.58	407.02	1.9808e-06	8.7618e-07	467.78	190.44	170.75	80.848	1.0952e-06	99.125	2.0715e-05	1.9989e-05	6.0354e-06	815.15	2.2393e-07	2.647e-07	824.92	321.63	2.6897e-07	3.2353e-07	352.89	144.75	131.34	61.878	3.5819e-07	72.033	81.697	22.148	35.227	-44.143	95.026	71.765	-45.772	-38.521	57.947	91.269	-41.446	-37.235	-34.023	-28.549	55.254	-32.679	-8191	255	
2675.863	1	1	0	0	0.20482	0.16224	0.18188	0.27766	0.28962	0.096412	0.20084	0.23405	0.12229	0.27161	0.16637	0.046083	0.1938	0.21068	0.088084	0.1824	-3.8271	-3.6333	-3.7896	-4.1875	-3.6958	-4.0333	-4.1271	-3.8417	-4.0229	-3.9417	-3.8458	-4.2521	-3.9833	-4.2188	-4.25	-4.0188	-47.089	163.549	196.579	-54.394	11.497	171.855	289.332	252.907	50.277	-37.313	286.355	21.297	262.599	271.822	296.363	237.845	0.00069774	0.00032769	7.1579e-05	949.18	1.7736e-06	1.3158e-06	979.94	395.59	2.6615e-06	2.8423e-06	453.64	184.35	165.05	78.97	2.5419e-06	97.058	3.5028e-05	3.8509e-05	1.0453e-05	816.89	4.3522e-07	5.3831e-07	827.75	316.29	6.0614e-07	7.4586e-07	349.53	142.9	129.84	61.57	1.0608e-06	72.724	83.505	27.304	25.057	-44.055	83.553	60.047	-45.913	-38.600	105.620	99.286	-41.451	-37.374	-33.792	-28.411	54.790	-32.902	-8191	255	
2675.983	1	1	0	0	0.049383	0.14631	0.1059	0.18896	0.29384	0.17377	0.28973	0.17302	0.077767	0.20983	0.17055	0.15632	0.19494	0.16296	0.11897	0.069022	-3.8021	-3.8688	-3.6437	-4.5958	-3.6688	-3.9854	-4.3104	-3.7687	-4.3875	-4.0917	-3.9354	-4.3583	-4.0125	-4.0042	-4.2188	-4.0708	238.876	253.273	146.098	183.431	233.998	141.286	247.599	228.779	124.248	-20.049	232.182	-51.027	178.707	-17.005	210.853	239.885	0.00076733	0.00039344	7.1499e-05	937.07	1.3647e-06	4.9425e-06	960.84	395.33	5.3664e-06	4.1717e-06	452.56	184.33	163.65	79.985	1.0668e-06	98.12	0.0001166	0.00013361	3.6622e-05	839.43	1.6612e-06	1.8733e-06	860.89	333.5	2.0372e-06	2.2016e-06	374.86	150.58	137.01	65.098	2.3422e-06	76.718	81.038	-41.920	-5.174	-43.838	81.196	39.693	-45.803	-38.353	154.842	50.476	-41.384	-37.026	-33.420	-28.257	18.908	-32.503	-8191	255	
2676.080	1	1	0	0	0.13254	0.18823	0.08182	0.14107	0.11377	0.10187	0.059421	0.11305	0.27044	0.15405	0.31945	0.1271	0.1965	0.097108	0.16899	0.0094303	-3.7271	-4.0958	-3.6375	-4.4021	-3.8667	-3.6625	-4.2646	-3.7042	-3.8958	-4.0146	-3.5438	-4.2979	-3.875	-4.0542	-4.1625	-3.675	224.772	229.693	12.351	243.413	273.109	270.849	-24.342	45.173	116.485	293.478	-36.661	-23.238	-38.338	291.350	65.294	143.414	0.0011345	0.00020798	0.00011949	943.6	4.9151e-06	5.1346e-07	972.66	392.65	4.0248e-06	2.5045e-06	452.16	184	164.51	79.998	2.7876e-06	98.286	0.00025015	0.00025585	6.7845e-05	886.02	2.9949e-06	2.9603e-06	906.29	342.79	2.996e-06	2.8505e-06	383.63	153.46	139.61	65.132	2.2131e-06	76.222	89.740	-4.292	28.667	-44.033	146.873	-27.881	-45.966	-38.215	138.042	40.872	-41.446	-37.049	-33.597	-28.167	51.860	-32.572	-8191	255	
2676.176	1	1	0	0	0.27558	0.10085	0.31723	0.2931	0.23004	0.13388	0.11815	0.091351	0.070492	0.20763	0.24011	0.14912	0.075037	0.11763	0.0087491	0.19013	-3.7604	-3.9792	-3.5812	-4.3292	-3.9062	-3.8312	-4.4417	-3.9167	-3.9042	-4.2083	-3.7188	-4.2812	-4.0146	-3.7125	-4.1396	-3.9437	251.378	302.430	225.267	298.397	300.583	95.907	52.289	269.005	3.907	284.244	222.143	264.740	298.595	286.948	176.792	251.074	0.00062039	0.00036674	0.0001589	921.38	1.3605e-06	3.934e-06	950.46	402.3	3.0595e-06	1.7733e-06	467.75	189.79	170.32	85.5	1.483e-06	105.45	0.00019493	0.00016107	3.7678e-05	831.17	1.6278e-06	1.5331e-06	841.55	335.88	1.6716e-06	1.4347e-06	371.53	150.67	135.93	66.712	1.038e-06	79.397	98.266	-31.343	32.156	-43.764	12.122	42.348	-45.619	-38.393	43.846	60.730	-41.384	-37.071	-33.534	-28.124	48.038	-32.613	-8191	255	
2676.272	1	1	0	0	0.048954	0.097261	0.24464	0.17099	0.080767	0.15146	0.27155	0.17261	0.13419	0.0094124	0.10334	0.14731	0.26244	0.057437	0.17476	0.22917	-3.4083	-4.1292	-3.6188	-4.2771	-3.8667	-3.7604	-4.3167	-3.8417	-3.7396	-4.4563	-3.6479	-4.3354	-4.0667	-3.9104	-4.1542	-3.9854	265.562	247.752	234.832	297.989	50.922	88.883	261.602	-3.523	113.818	108.944	108.546	278.496	282.400	243.016	287.635	-29.937	0.00062883	0.00013674	4.1974e-05	908.03	2.7354e-06	3.3242e-06	959.82	420.96	1.8305e-06	3.1205e-06	486.05	196.53	174.21	90.035	1.1158e-06	112.57	0.00011666	0.00010345	2.6881e-05	808.05	1.2327e-06	1.1213e-06	829.28	345.86	1.2222e-06	1.0933e-06	380.62	154.95	138.42	70.175	1.0322e-06	84.396	75.864	19.461	92.431	-43.531	80.917	94.587	-45.679	-38.131	37.142	53.371	-41.413	-37.032	-33.497	-28.267	31.788	-32.429	-8191	255	
2676.391	1	1	0	0	0.23189	0.027767	0.18112	0.22791	0.021818	0.16096	0.24767	0.078146	0.097997	0.22094	0.11651	0.17615	0.12935	0.30114	0.15009	0.16463	-3.575	-4.2583	-3.6896	-4.2312	-4.1729	-3.7188	-4.3583	-3.9792	-3.8104	-4.1646	-3.8979	-4.0271	-4.2	-3.625	-4.2333	-4.0729	259.912	95.769	114.440	189.162	108.852	207.604	296.174	42.032	73.096	79.722	231.676	101.763	-27.014	-50.469	-3.068	256.166	0.00094869	0.0003241	2.6906e-05	912.7	2.5543e-06	3.1742e-06	969.91	430.88	2.6232e-06	1.4537e-06	496.86	203.11	178.43	93.699	1.1899e-06	117.15	0.00011152	9.9451e-05	2.769e-05	816.03	1.2136e-06	1.1291e-06	843.26	353.67	1.1965e-06	1.0757e-06	388.9	159.69	140.97	72.531	9.603e-07	87.068	83.514	-21.960	145.016	-43.509	22.964	57.581	-45.448	-38.325	-21.217	115.807	-41.389	-37.026	-33.475	-28.106	189.732	-32.509	-8191	255	
2676.487	1	1	0	0	0.10581	0.12774	0.16996	0.40473	0.11344	0.14223	0.056019	0.2367	0.32453	0.08169	0.15476	0.2146	0.14108	0.19564	0.12194	0.12732	-3.4354	-4.5271	-3.7521	-4.0083	-4.1146	-3.5208	-4.2208	-3.9938	-3.6604	-4.3583	-3.8229	-3.9979	-4.3167	-3.8958	-4.1833	-4.2729	299.646	134.380	116.201	215.653	232.098	0.712	201.382	252.849	281.597	-24.551	226.421	198.756	210.732	282.778	-24.422	255.925	0.00083419	0.00025599	2.1056e-05	925.6	2.3395e-06	2.5621e-06	987.93	437.62	1.2881e-06	1.7469e-06	504.51	207.72	181.95	95.981	1.4988e-06	119.12	8.9093e-05	7.6038e-05	2.2894e-05	814.57	8.7765e-07	8.0865e-07	849.62	355.25	8.6373e-07	7.717e-07	392.29	160.9	142.2	73.839	7.7481e-07	87.998	83.874	-26.884	42.560	-43.457	19.921	17.618	-45.510	-38.456	32.107	100.387	-41.224	-36.948	-33.401	-28.451	138.209	-32.635	-8191	255	
2676.559	1	1	0	0	0.060175	0.033225	0.024917	0.055806	0.18596	0.14155	0.17539	0.23491	0.08418	0.11977	0.37334	0.18664	0.20322	0.42517	0.033965	0.10074	-3.25	-4.2771	-3.6604	-4.0479	-4.1562	-3.6792	-4.2167	-4.275	-3.5604	-4.2875	-3.9104	-4.0104	-4.3562	-3.9125	-3.9437	-4.2396	56.048	82.688	11.710	167.569	19.017	97.497	302.411	285.216	287.621	0.865	277.089	-19.976	-31.645	250.820	270.838	-54.085	0.00087801	0.00023025	0.00013062	927.6	2.6676e-06	2.473e-06	986.73	445.8	1.0721e-06	1.8006e-06	509.71	211.1	186.27	97.71	1.5264e-06	121.19	6.3859e-05	5.4015e-05	1.7216e-05	806.64	5.8074e-07	5.5066e-07	840	356.21	5.8418e-07	5.6711e-07	391.22	162.32	144.53	74.961	6.7114e-07	88.859	77.463	38.351	36.115	-43.524	65.912	92.459	-45.426	-38.255	30.446	79.363	-41.461	-37.020	-33.386	-28.552	87.746	-32.668	-8191	255	
2676.679	1	1	0	0	0.11704	0.20499	0.16416	0.2158	0.16512	0.043889	0.16977	0.057744	0.1356	0.16604	0.086568	0.26059	0.10007	0.059963	0.068757	0.20464	-3.1437	-4.1792	-3.7146	-3.7354	-4.1771	-3.7729	-4.1979	-4.3354	-3.6125	-4.1229	-4.125	-3.8021	-4.6312	-3.7938	-3.9458	-4.3458	138.087	264.153	-7.365	237.869	-23.660	239.719	233.330	144.248	-30.362	258.499	223.017	236.867	220.824	112.335	287.003	218.794	0.00083202	0.00013597	5.53e-05	922.23	2.183e-06	2.1656e-06	987.96	448.81	2.5607e-06	1.5647e-06	516.73	214.67	188.09	98.462	1.1517e-06	121.52	5.4658e-05	4.9999e-05	1.5837e-05	801.42	5.17e-07	5.3066e-07	839.27	358.72	5.0449e-07	5.3258e-07	393.63	164.44	145.79	75.59	5.6121e-07	88.915	81.898	8.589	34.705	-43.580	109.855	79.048	-45.716	-38.492	40.407	160.147	-41.784	-37.050	-33.702	-28.408	40.919	-32.763	-8191	255	
2676.775	1	1	0	0	0.20941	0.18312	0.22086	0.28804	0.036233	0.02261	0.07857	0.26194	0.22003	0.047358	0.23515	0.10019	0.21011	0.35892	0.12357	0.044833	-3.0833	-4.0938	-3.7917	-3.9167	-4.2208	-3.7042	-4.0687	-4.4437	-3.6208	-4.025	-4.1125	-3.7271	-4.3854	-3.7583	-3.8792	-4.4792	162.194	231.189	106.993	265.504	39.893	199.843	103.688	230.411	118.164	-0.103	284.704	-26.331	257.932	-37.124	-11.360	49.956	0.00080385	0.00019194	7.1148e-05	920.59	1.6403e-06	2.1321e-06	989.49	451.82	2.3431e-06	1.7591e-06	519.84	216.3	189.12	97.907	2.7706e-06	120.09	4.6268e-05	4.6634e-05	1.3199e-05	796.09	4.1628e-07	4.6614e-07	834.31	358.11	3.837e-07	4.2793e-07	393.44	164.4	145.69	74.715	4.2672e-07	87.859	83.617	45.693	14.354	-43.637	107.546	97.100	-45.480	-38.462	78.405	68.323	-41.599	-36.997	-33.556	-28.432	55.699	-32.714	-8191	255	
2676.871	1	1	0	0	0.28844	0.17433	0.24261	0.13006	0.061964	0.079091	0.25411	0.27571	0.23481	0.012324	0.18573	0.33947	0.16828	0.21153	0.064038	0.17176	-3.1375	-4.0375	-4.0938	-3.6708	-4.2333	-3.6	-3.9875	-4.4458	-3.7083	-3.9	-4.2688	-3.6437	-4.2438	-3.9938	-3.7021	-4.3833	235.797	-32.027	236.703	275.557	-24.870	141.066	215.124	287.219	39.816	212.380	-36.474	283.172	273.450	260.236	47.415	228.375	0.00093884	9.6522e-05	8.7783e-05	918.07	1.0257e-06	2.2803e-06	989.2	451.3	2.1692e-06	1.3367e-06	519.51	216.96	191.43	100.3	2.0674e-06	123.55	3.9776e-05	4.0477e-05	1.0837e-05	791.49	3.9019e-07	4.456e-07	830.79	358.32	3.9307e-07	4.5192e-07	394.5	165.62	147.54	76.704	4.4264e-07	90.173	81.134	-1.466	17.497	-43.685	117.155	126.706	-45.724	-38.547	110.345	99.110	-41.647	-37.254	-33.722	-28.310	28.254	-32.733	-8191	255	
2676.968	1	1	0	0	0.067254	0.036538	0.2066	0.35837	0.11571	0.13137	0.12814	0.13832	0.080044	0.11807	0.23865	0.13285	0.17989	0.1985	0.24419	0.22588	-3.3375	-3.8958	-4.0958	-3.4313	-4.2292	-3.7792	-3.6208	-4.3083	-3.6625	-4.0125	-4.2604	-3.8729	-4.1896	-4.2458	-3.4604	-4.575	77.449	263.286	-22.827	225.410	53.356	157.691	144.998	254.233	157.438	88.978	-19.488	276.008	133.145	238.111	277.726	265.422	0.00097935	0.00032148	7.6553e-05	928.03	2.1482e-06	2.3638e-06	1004.7	457.71	1.5547e-06	2.1995e-06	527.6	222.24	194.2	103.57	1.3278e-06	128.07	4.5749e-05	4.5787e-05	1.1559e-05	799.97	4.6333e-07	5.0104e-07	844.85	363.56	4.7703e-07	4.9159e-07	401.32	169.54	150.08	79.262	4.6306e-07	93.547	79.949	17.888	37.482	-43.758	128.530	52.867	-45.641	-38.436	131.129	71.490	-41.630	-36.975	-33.630	-28.436	27.526	-32.761	-8191	255	
2677.087	1	1	0	0	0.23263	0.18909	0.053586	0.1771	0.12439	0.081499	0.32294	0.18057	0.082341	0.038398	0.071902	0.1008	0.16093	0.31769	0.34503	0.10271	-3.3104	-3.95	-4.2333	-3.7625	-4.0667	-3.9979	-3.825	-4.2479	-3.8729	-3.7375	-4.3104	-3.7875	-4.2354	-4.3063	-3.4833	-4.425	198.786	-4.066	142.853	223.356	291.242	158.158	-52.570	289.695	-15.488	299.960	214.546	132.783	272.463	266.858	73.807	-50.381	0.0010027	0.00026037	7.2336e-05	956.78	2.0396e-06	1.1291e-06	1049.2	467.64	1.6281e-06	1.8285e-06	537.03	228.45	197.82	108	2.344e-06	132.93	5.1256e-05	4.6407e-05	1.1729e-05	825.55	5.2658e-07	5.1565e-07	880.41	371.92	5.5429e-07	5.2661e-07	408.95	174.87	153.64	82.672	5.3409e-07	97.285	81.126	3.633	29.943	-43.326	65.331	57.942	-45.471	-38.346	108.989	77.214	-41.532	-37.148	-33.218	-28.503	62.740	-32.635	-8191	255	
2677.160	1	1	0	0	0.13312	0.24723	0.1434	0.13177	0.19314	0.12872	0.21073	0.15509	0.19231	0.2901	0.074413	0.27741	0.18082	0.24874	0.19475	0.13059	-3.4042	-3.8104	-3.9729	-3.8063	-3.9375	-4.2417	-3.7354	-4.2333	-3.9	-3.7812	-4.3833	-3.7062	-4.2542	-4.2396	-3.5792	-4.3812	207.993	241.595	214.379	289.089	-0.942	209.178	243.641	175.709	93.803	250.976	238.738	298.529	229.605	237.994	-17.192	264.810	0.00096565	0.00023123	0.00010233	983.35	2.4583e-06	2.6996e-06	1069.6	471.67	3.2755e-06	2.8924e-06	545.62	233.15	199.86	110.09	3.2491e-06	135.7	6.2559e-05	5.3666e-05	1.3787e-05	851.44	6.4634e-07	5.9205e-07	904.89	376.41	6.5632e-07	5.8836e-07	415.22	178.37	155.36	84.509	5.4836e-07	99.514	80.250	-4.050	13.604	-43.384	87.199	21.217	-45.506	-38.438	57.774	80.160	-41.707	-36.946	-33.433	-28.422	65.789	-32.603	-8191	255	
2677.256	1	1	0	0	0.037304	0.15621	0.30642	0.26383	0.28276	0.20961	0.12941	0.026436	0.11314	0.056002	0.18146	0.3515	0.31268	0.50977	0.0056371	0.30737	-3.4354	-3.6188	-4.2396	-3.7646	-3.9896	-4.4292	-3.7958	-4.1646	-3.9354	-3.6458	-4.3833	-3.9125	-3.9813	-4.3958	-3.6146	-4.3187	160.351	22.484	59.134	12.097	8.640	72.844	202.304	231.466	-6.388	216.682	-54.566	300.594	-44.149	281.992	186.382	163.454	0.00094035	0.00018856	3.68e-05	984.72	2.7297e-06	2.2321e-06	1069	469.27	1.4771e-06	3.0484e-06	535.82	232.27	199.42	110.99	2.2507e-06	135.55	6.547e-05	5.4828e-05	1.3911e-05	856.64	6.5566e-07	5.8995e-07	902.72	375.69	6.535e-07	6.0343e-07	409.26	178.38	155.39	85.039	5.7421e-07	99.647	86.648	31.432	-17.952	-43.332	46.252	72.489	-45.463	-38.409	86.959	52.940	-41.567	-36.946	-33.223	-28.466	123.288	-32.693	-8191	255	
2677.352	1	1	0	0	0.25369	0.12436	0.29177	0.18916	0.17551	0.032979	0.14438	0.09352	0.054516	0.062872	0.090944	0.083503	0.090742	0.3076	0.10461	0.17705	-3.7938	-3.6375	-4.3146	-3.9229	-3.8312	-4.1687	-3.7604	-4.2125	-3.9646	-3.6667	-4.2375	-3.9354	-3.8542	-4.5292	-3.7438	-4.1542	255.642	66.016	65.462	290.723	209.495	162.924	-2.627	255.680	-23.986	32.590	262.015	222.463	180.553	294.429	81.914	201.811	0.0009976	0.00037049	0.00010007	977.59	2.8085e-06	2.8302e-06	1062.4	468.79	1.7317e-06	2.3449e-06	535.87	230.4	198.87	109.88	6.9638e-07	135.15	6.349e-05	5.3772e-05	1.4266e-05	854.37	6.23e-07	5.6848e-07	899.31	375.97	6.1041e-07	5.5585e-07	408.8	177.6	154.7	84.151	5.7434e-07	98.797	77.775	-8.272	35.795	-43.322	58.106	45.960	-45.366	-38.177	76.354	88.449	-41.382	-36.826	-33.487	-28.532	143.003	-32.803	-8191	255	
2677.471	1	1	0	0	0.045045	0.13832	0.056334	0.21341	0.18074	0.095517	0.15556	0.30489	0.17779	0.054193	0.13192	0.18121	0.23322	0.1857	0.21502	0.07743	-3.6437	-3.4875	-4.0938	-4.0354	-3.7313	-4.4396	-3.6063	-4.0333	-4.075	-3.5729	-4.2063	-3.9542	-3.9208	-4.4646	-3.725	-4.2688	286.164	237.310	140.042	242.288	195.269	-54.357	16.814	239.896	245.318	171.387	109.223	177.563	292.251	268.651	49.181	296.771	0.0010029	0.00023488	5.3843e-05	977.03	2.1412e-06	2.7736e-06	1060.8	468.12	1.619e-06	1.8949e-06	536.9	230.33	198.6	108.59	1.8721e-06	133.63	5.8086e-05	4.8509e-05	1.4318e-05	850.76	5.6767e-07	5.1961e-07	896.63	374.31	5.6715e-07	5.1408e-07	409.61	176.66	153.86	83.077	5.8971e-07	97.797	83.780	6.558	29.010	-43.650	58.439	63.631	-45.605	-38.437	37.028	70.063	-41.548	-36.861	-33.487	-28.497	93.946	-32.654	-8191	255	
2677.567	1	1	0	0	0.14039	0.2233	0.07445	0.26656	0.3004	0.12727	0.23071	0.07322	0.045837	0.14085	0.10056	0.12038	0.31268	0.10252	0.20595	0.14324	-3.8208	-3.6458	-3.8917	-4.1188	-3.6729	-4.2833	-3.8917	-3.8708	-4.1687	-3.85	-4.1958	-4.2021	-3.6604	-4.4042	-3.8375	-3.8563	19.917	97.491	-24.004	281.557	263.839	62.666	257.766	26.246	1.235	-3.614	170.411	20.989	267.296	-19.015	71.809	239.217	0.0010117	0.0003002	6.5617e-05	966.55	3.5158e-06	3.4541e-06	1045.3	465.98	1.192e-06	3.4135e-07	532.51	228.46	198.14	108.24	1.3009e-06	132.61	5.4573e-05	4.5777e-05	1.4751e-05	842.31	5.4294e-07	5.1288e-07	887.58	373.15	5.4573e-07	5.1761e-07	407.53	175.55	153.43	82.612	6.0577e-07	96.918	82.017	9.408	2.541	-43.260	95.602	71.736	-45.654	-38.445	55.316	58.697	-41.382	-36.950	-33.310	-28.421	64.589	-32.527	-8191	255	
2677.663	1	1	0	0	0.21548	0.11334	0.11509	0.14902	0.17975	0.15077	0.033303	0.2161	0.059482	0.2032	0.09852	0.17977	0.29261	0.20532	0.15512	0.28843	-3.9792	-3.55	-4.05	-4.0875	-3.6958	-4.0813	-3.9458	-3.7938	-4.2646	-3.6979	-3.9125	-4.3833	-3.8833	-4.2854	-3.9271	-3.8792	70.144	40.142	243.378	186.841	9.687	21.625	135.457	253.297	191.895	213.392	144.545	243.090	-56.187	269.780	200.510	-50.694	0.0010204	0.00019325	8.9401e-05	958.07	3.1264e-06	1.854e-06	1027.4	464.36	2.6771e-06	1.0409e-06	528.08	226.69	196.75	107.39	2.6682e-06	131.36	5.2186e-05	4.7627e-05	1.5276e-05	831.76	5.141e-07	5.2413e-07	873.34	370.84	5.1091e-07	5.4101e-07	403.84	173.77	152.55	82.162	6.0812e-07	96.189	82.698	40.265	15.460	-43.537	88.483	145.172	-45.425	-38.279	41.513	54.388	-41.553	-37.139	-33.435	-28.324	86.344	-32.755	-8191	255	
2677.760	1	1	0	0	0.13008	0.13428	0.18866	0.1355	0.048185	0.18387	0.093664	0.16267	0.059994	0.15686	0.085706	0.082969	0.32094	0.19347	0.10964	0.055938	-4.1125	-3.7438	-3.8812	-4.3896	-3.7042	-4.2146	-4.1813	-3.9542	-4.1562	-3.8292	-3.9167	-4.3125	-3.6562	-4.2271	-4.1562	-3.7104	275.885	51.280	-48.152	72.816	-24.064	57.223	127.046	297.501	54.061	132.391	164.413	81.482	278.065	285.417	116.617	-10.379	0.00093888	0.00026562	9.4402e-05	948.56	1.6248e-06	2.9568e-06	1022.1	461.6	2.0404e-06	1.5412e-06	525.38	226.1	197.02	106.99	1.6099e-06	131.56	5.1281e-05	5.18e-05	1.5094e-05	822.01	5.0387e-07	5.645e-07	865.18	368.44	5.0698e-07	5.8631e-07	402.16	173.55	152.34	82.142	5.9015e-07	96.283	82.344	5.200	10.391	-43.371	95.355	58.129	-45.514	-38.462	55.555	97.923	-41.344	-36.880	-33.509	-28.283	55.521	-32.744	-8191	255	
2677.856	1	1	0	0	0.16752	0.28831	0.22723	0.26719	0.089538	0.16441	0.18456	0.11952	0.29206	0.097115	0.29063	0.085058	0.18229	0.20256	0.13599	0.36297	-3.9604	-3.6937	-3.7917	-4.425	-3.6854	-4.0729	-4.1188	-3.9292	-4.2937	-3.9	-4.0146	-4.3292	-3.8271	-4.0792	-4.1104	-3.9333	1.649	-10.183	51.546	299.746	-52.652	228.971	228.230	-34.287	102.548	103.015	-24.338	2.505	296.205	265.357	169.503	215.458	0.00090516	0.00030798	8.0974e-05	941.81	1.859e-06	2.2163e-06	1016.3	464	1.3575e-06	1.2832e-06	526.92	227.25	196.54	106.71	1.5586e-06	131.67	5.1297e-05	5.3719e-05	1.4441e-05	817.33	5.0831e-07	5.9427e-07	861.95	369.52	5.2102e-07	5.9912e-07	402.25	173.98	152.34	81.956	5.6909e-07	96.451	93.007	20.912	29.315	-43.303	97.755	65.471	-45.581	-38.334	145.420	116.024	-41.389	-36.985	-33.376	-28.391	44.625	-32.535	-8191	255	
2677.952	1	1	0	0	0.10278	0.027523	0.11978	0.24257	0.14167	0.03903	0.2194	0.093121	0.07592	0.051475	0.057586	0.055069	0.19789	0.32835	0.12629	0.13406	-3.7229	-3.9437	-3.7583	-4.3688	-3.8375	-3.9229	-4.3021	-3.8833	-4.1521	-4.1813	-3.9021	-4.4313	-3.8104	-4.2479	-4.2396	-3.7229	231.668	48.728	275.483	-48.624	172.427	82.460	253.326	76.890	86.733	216.189	278.423	271.391	-49.599	-35.772	55.857	90.423	0.0010524	0.00011418	6.7783e-05	932.49	2.2677e-06	3.4085e-06	1010.4	461.28	2.0081e-06	2.2957e-06	522.99	226.12	195.27	106.86	2.3438e-06	130.8	5.6085e-05	5.667e-05	1.4215e-05	809.85	5.6097e-07	6.0627e-07	855.96	367.36	5.6943e-07	6.0034e-07	398.54	172.87	151.91	81.826	5.6766e-07	95.717	77.377	-51.195	37.973	-43.493	88.739	42.104	-45.245	-38.227	110.767	73.150	-41.479	-36.885	-33.187	-28.411	57.805	-32.735	-8191	255	
2678.072	1	1	0	0	0.084302	0.23105	0.10942	0.060555	0.22156	0.029492	0.16796	0.20071	0.18619	0.096178	0.37869	0.28086	0.24463	0.28897	0.085789	0.17798	-3.8771	-3.9292	-3.625	-4.3083	-3.6958	-3.7854	-4.3583	-3.7042	-4.1	-3.8646	-3.7854	-4.3083	-3.9979	-4.1583	-4.2083	-3.825	294.143	184.099	158.853	270.675	140.979	84.570	274.327	301.320	231.553	181.239	279.185	269.661	-37.186	269.277	284.892	226.957	0.0011138	0.00021272	8.3539e-05	928.21	3.1504e-07	3.1368e-06	998.64	454.52	1.302e-06	5.8899e-07	513.55	224.11	194.23	106.97	2.3749e-06	131.42	6.1103e-05	5.7101e-05	1.4707e-05	805.53	6.3569e-07	6.3493e-07	845.89	363.41	6.6029e-07	6.3746e-07	393.52	171.79	151.11	82.056	5.998e-07	96.404	78.737	64.442	78.677	-43.302	293.232	78.681	-45.458	-38.336	53.335	140.284	-41.362	-36.786	-33.361	-28.560	56.862	-32.764	-8191	255	
2678.169	1	1	0	0	0.28095	0.27899	0.12135	0.22756	0.14556	0.099912	0.14803	0.15521	0.16324	0.12259	0.15495	0.19454	0.061987	0.54233	0.11245	0.35858	-3.625	-3.9979	-3.4938	-4.2792	-3.9646	-3.7396	-4.3792	-3.6708	-3.9792	-4.1813	-3.6063	-4.225	-3.8521	-3.8396	-4.2667	-3.7042	-42.207	68.163	190.679	281.360	298.265	91.224	261.038	136.417	230.280	251.014	189.034	-36.527	290.919	237.542	248.061	-44.866	0.0009377	0.00041628	6.9766e-05	921.37	1.265e-06	1.8313e-06	998.4	453.01	1.2416e-06	1.8197e-06	512.45	224.95	193.68	107.29	1.2863e-06	132.08	6.7236e-05	5.798e-05	1.4928e-05	802.87	6.8985e-07	6.2859e-07	846.28	362.07	6.9033e-07	6.2834e-07	391.81	172.6	150.94	82.323	5.97e-07	97.094	76.071	18.196	-17.225	-43.322	100.533	76.868	-45.318	-38.316	89.067	66.532	-41.397	-36.878	-33.483	-28.469	107.758	-32.665	-8191	255	
2678.263	1	1	0	0	0.22374	0.068853	0.21371	0.042666	0.16468	0.14078	0.15521	0.16397	0.11478	0.11894	0.047559	0.11347	0.19431	0.19206	0.12961	0.050653	-3.4958	-4.0396	-3.4813	-4.3271	-3.9854	-3.5021	-4.3729	-3.7938	-3.8354	-4.125	-3.65	-3.9542	-4.1146	-3.9	-4.0979	-3.9333	-46.391	263.476	285.227	285.029	202.620	240.561	252.837	-20.733	-31.200	218.767	173.203	-47.429	256.257	234.130	174.346	246.777	0.0010195	0.00019476	7.4934e-05	923.45	2.2912e-06	3.1519e-06	1004.6	449.96	1.6782e-06	2.3038e-06	511.48	225.01	193.04	107.63	2.5693e-06	132.42	6.8818e-05	5.8e-05	1.4987e-05	806.23	6.9149e-07	6.2876e-07	848.23	361.45	6.8894e-07	6.2768e-07	391.88	173.48	150.56	82.525	5.9539e-07	97.519	83.129	-19.188	41.248	-43.187	128.713	53.491	-45.462	-38.294	62.445	53.027	-41.371	-36.624	-33.298	-28.334	98.294	-32.741	-8191	255	
2678.384	1	1	0	0	0.11287	0.16317	0.13144	0.37274	0.04975	0.12281	0.1673	0.11941	0.21679	0.21888	0.14482	0.026446	0.33917	0.19809	0.034134	0.18251	-3.3958	-4.1271	-3.4625	-4.1125	-4.0479	-3.5312	-4.4729	-3.8187	-3.8521	-4.4479	-3.7896	-4.175	-4.2042	-3.9167	-4.1813	-3.875	44.786	-17.079	93.093	262.224	138.568	185.556	232.120	239.107	158.411	124.725	240.934	228.995	9.303	282.503	158.056	206.466	0.0009108	0.0002362	6.285e-05	917.85	1.935e-06	2.2393e-06	997.3	446.72	1.7635e-06	2.9164e-06	501.65	221.88	190.32	106.91	1.4675e-06	132.79	6.6056e-05	5.6408e-05	1.5099e-05	802.86	6.789e-07	6.2442e-07	843.56	358.89	7.2171e-07	6.7591e-07	385.85	171.91	149.01	82.429	7.4459e-07	97.906	90.626	-17.159	53.546	-43.383	13.052	99.463	-45.481	-38.354	15.884	108.440	-41.290	-36.654	-33.136	-28.509	100.641	-32.873	-8191	255	
2678.455	1	1	0	0	0.10568	0.19819	0.070533	0.13808	0.14912	0.16057	0.19747	0.35431	0.054712	0.18844	0.024386	0.23207	0.25686	0.11259	0.14488	0.15473	-3.3479	-4.0854	-3.5729	-3.9271	-4.2792	-3.5708	-4.2479	-3.9542	-3.7687	-4.3854	-3.7438	-3.9729	-4.2875	-3.7521	-4.1813	-4.1417	9.347	278.733	22.593	219.218	65.387	295.100	204.093	266.731	119.025	294.161	-42.925	298.405	-45.623	193.579	217.302	195.544	0.00081919	0.0002502	1.7336e-05	908.3	3.0384e-06	3.4649e-06	983.28	434.4	3.395e-06	1.7297e-06	490.27	220.21	188.01	106.4	1.9344e-06	131.84	7.6644e-05	6.6754e-05	1.9788e-05	799.76	8.1751e-07	7.7058e-07	841.42	352.64	8.975e-07	8.3494e-07	382.51	171.3	147.85	82.042	1.0175e-06	97.791	84.837	12.306	142.550	-43.282	37.470	75.279	-45.174	-38.209	68.088	37.454	-41.045	-36.765	-33.241	-28.284	144.307	-32.860	-8191	255	
2678.551	1	1	0	0	0.11832	0.20384	0.12423	0.1961	0.1457	0.1465	0.2972	0.02054	0.15341	0.046448	0.19619	0.034391	0.16522	0.40092	0.13388	0.39678	-3.3583	-4.1125	-3.7354	-3.8208	-4.1208	-3.6646	-4.2958	-3.8812	-3.6	-4.1979	-3.9521	-3.9146	-4.2688	-3.5167	-3.9521	-4.1667	120.722	-30.919	186.784	227.028	225.017	-45.103	229.628	185.881	279.041	223.412	276.721	271.929	247.377	274.526	4.589	212.692	0.0009283	0.00027903	0.00011407	893.31	2.1893e-06	3.7249e-06	964.04	425.74	2.2954e-06	9.5952e-07	484.64	217.73	184.59	105.46	2.4839e-06	131.26	9.5319e-05	8.5567e-05	2.7732e-05	795.68	1.0502e-06	1.0065e-06	840.9	349.96	1.1255e-06	1.0946e-06	383.64	171.12	146.82	81.953	1.4176e-06	98.129	87.814	-7.601	95.458	-43.331	94.007	71.935	-45.150	-38.062	133.005	36.277	-41.157	-36.734	-33.200	-28.470	201.812	-32.852	-8191	255	
2678.648	1	1	0	0	0.060648	0.20316	0.24259	0.1038	0.33604	0.17685	0.19414	0.13312	0.2499	0.10242	0.21405	0.24282	0.061778	0.18575	0.23481	0.28114	-3.2062	-4.0396	-3.7625	-3.8333	-4.3479	-3.6333	-4.0146	-4.0771	-3.5458	-4.1708	-4.0687	-3.8708	-4.4646	-3.8271	-4.0479	-4.2375	260.996	-5.302	210.761	170.284	192.034	-3.978	216.997	281.580	234.650	-8.688	200.609	213.216	229.276	-15.984	-54.784	11.163	0.00098294	0.000271	4.3772e-05	882.06	3.2143e-06	3.7433e-06	961.45	423.78	6.3088e-07	2.812e-06	481.23	216.67	183.22	104.84	2.8777e-06	130.03	0.00011938	0.00011172	3.5763e-05	796.51	1.2043e-06	1.2167e-06	847.34	349.25	1.2132e-06	1.2599e-06	383.74	170.62	146.28	81.71	1.5016e-06	97.475	89.619	15.038	7.469	-43.386	88.738	162.732	-45.266	-38.262	55.073	105.110	-41.096	-36.697	-33.177	-28.418	24.011	-32.796	-8191	255	
2678.768	1	1	0	0	0.13071	0.13806	0.1138	0.43206	0.28383	0.26634	0.075427	0.23884	0.31975	0.15672	0.052945	0.074332	0.068185	0.48538	0.32144	0.18279	-3.2833	-3.9625	-3.8937	-3.6729	-4.225	-3.8167	-4.1333	-4.3271	-3.6458	-4.2937	-4.1396	-3.8146	-4.35	-4.0771	-3.6312	-4.3833	185.214	113.215	208.714	224.686	274.712	117.773	181.351	272.262	234.243	219.166	194.553	-13.496	-4.790	241.392	8.977	293.739	0.00082902	0.00012171	0.00010905	877.7	2.2471e-06	2.2443e-06	956.71	420.56	2.8971e-06	1.5905e-06	474.71	212.77	180.96	103.64	8.9664e-07	129.28	0.00012469	0.00013086	3.9235e-05	794.18	1.3118e-06	1.464e-06	845.73	347.34	1.3103e-06	1.4721e-06	379.41	168.69	144.82	81.307	1.5659e-06	96.826	87.718	54.568	30.583	-43.331	52.650	96.712	-45.274	-38.161	52.438	139.409	-41.245	-36.588	-33.179	-28.510	-42.495	-32.771	-8191	255	
2678.864	1	1	0	0	0.14373	0.1713	0.13074	0.102	0.24246	0.31648	0.32352	0.15774	0.16321	0.31231	0.24984	0.19228	0.086256	0.2606	0.30986	0.15525	-3.1	-4.0104	-4.0625	-3.6312	-4.4187	-3.8375	-3.9229	-4.3938	-3.6042	-4.0521	-4.1542	-3.6979	-4.3521	-4.1562	-3.7625	-4.6021	234.244	-43.455	-34.342	302.795	89.710	273.626	-50.834	244.330	231.325	146.143	283.987	-21.527	301.158	281.154	292.785	-29.002	0.0011531	0.00045481	8.8515e-05	882.95	2.5881e-06	8.7491e-07	954.65	419.1	1.8211e-06	1.3865e-06	475.51	214.09	182.17	104.26	2.433e-06	129.57	0.00013018	0.0001443	3.8747e-05	793.97	1.2955e-06	1.4566e-06	841.48	345.25	1.2118e-06	1.377e-06	378.19	168.4	145.11	81.424	1.3134e-06	96.544	90.020	57.741	41.537	-43.171	123.786	62.577	-45.183	-38.214	187.008	101.439	-41.304	-36.692	-33.272	-28.603	88.625	-32.767	-8191	255	
2678.961	1	1	0	0	0.056555	0.09698	0.2342	0.10447	0.017678	0.065218	0.069916	0.11891	0.025898	0.14217	0.13009	0.14443	0.16698	0.26576	0.19634	0.075706	-3.2771	-3.9833	-3.9854	-3.825	-4.1917	-3.9542	-3.7708	-4.5375	-3.4854	-3.8979	-4.1625	-3.7604	-4.2292	-4.2125	-3.55	-4.3708	247.850	269.670	228.399	-20.142	174.153	115.937	289.626	177.391	240.057	38.419	283.978	275.848	275.063	276.393	291.281	-45.783	0.001066	8.9392e-05	6.2389e-05	880.25	3.0125e-06	2.6432e-06	960.89	423.45	1.8244e-06	1.7625e-06	480.97	215.74	183.66	104.77	1.3709e-06	131.09	0.00011878	0.00012836	3.3039e-05	789.11	1.2561e-06	1.392e-06	839.19	346.33	1.2604e-06	1.3364e-06	380.8	168.82	146.28	81.658	1.157e-06	97.313	91.427	5.367	0.600	-43.345	147.983	115.645	-45.544	-38.397	163.735	71.469	-41.283	-36.889	-33.309	-28.548	132.866	-32.893	-8191	255	
2679.032	1	1	0	0	0.11043	0.2255	0.073953	0.18048	0.010382	0.1279	0.12677	0.044653	0.056511	0.063046	0.18898	0.26196	0.024002	0.23127	0.088609	0.06025	-3.3896	-3.8771	-4.2146	-3.5667	-4.1562	-3.8604	-3.7875	-4.3125	-3.8354	-3.6458	-4.5396	-3.5854	-4.275	-4.1396	-3.6646	-4.5167	170.543	189.236	255.654	3.754	266.263	102.634	237.046	243.567	299.766	100.865	-44.790	221.966	198.750	291.802	56.705	98.486	0.0010659	0.00043865	8.4681e-05	883.56	2.908e-06	3.2276e-06	959.74	428.48	2.1024e-06	3.1445e-06	485.52	216.78	185.46	105.22	1.6036e-06	130.06	0.00011358	0.00011212	2.8493e-05	786.9	1.1905e-06	1.1855e-06	833.06	348.92	1.1697e-06	1.1447e-06	381.27	168.84	146.96	81.435	9.9298e-07	96.439	89.302	-7.226	-3.687	-43.299	81.019	26.468	-45.616	-38.318	92.948	20.065	-41.429	-36.693	-33.367	-28.471	27.544	-32.685	-8191	255	
2679.153	1	1	0	0	0.26492	0.25552	0.26045	0.12024	0.19394	0.24821	0.15679	0.20731	0.12326	0.33259	0.094651	0.24516	0.080996	0.2166	0.065968	0.049489	-3.3792	-3.6437	-4.1625	-3.6042	-4.0833	-4.1562	-3.6125	-4.4104	-3.9042	-3.8521	-4.4938	-3.9167	-4.2104	-4.3	-3.6875	-4.3833	153.751	-23.685	82.402	140.765	284.611	141.197	158.964	217.104	70.218	-45.382	99.430	291.880	28.320	251.884	254.492	51.147	0.00099535	0.00026737	4.0435e-05	889.63	2.6979e-06	3.8294e-06	965.67	434.49	3.5151e-06	3.1744e-06	493.79	218.87	188.08	105.55	1.2205e-06	130.95	0.00010475	9.3923e-05	2.3777e-05	786.47	1.0389e-06	9.5588e-07	829.99	351.94	9.9662e-07	9.127e-07	383.01	169.71	148.02	81.528	8.2682e-07	96.692	79.354	-7.888	30.730	-43.325	95.361	22.623	-45.469	-38.366	60.689	47.130	-41.306	-36.844	-33.302	-28.566	108.657	-32.747	-8191	255	
2679.249	1	1	0	0	0.33315	0.12028	0.23761	0.074069	0.24533	0.13826	0.069089	0.23869	0.10314	0.21373	0.21687	0.17181	0.42739	0.2269	0.21331	0.14791	-3.6167	-3.9104	-4.2312	-3.8	-3.9979	-4.2667	-3.8104	-4.0271	-3.9292	-3.6188	-4.4583	-3.9229	-3.9	-4.6042	-3.5854	-4.3125	282.190	-32.797	110.832	117.472	154.107	167.928	222.327	216.327	35.931	120.174	180.634	146.797	281.971	194.901	111.232	238.359	0.00089124	0.0002218	9.3191e-05	904.12	1.3969e-06	3.6625e-06	982.55	440.36	2.1379e-06	3.2954e-06	504.11	220.96	189.58	106.18	8.6022e-07	132.17	9.1008e-05	7.8068e-05	1.9702e-05	796.35	8.9255e-07	8.1119e-07	839.35	355.49	8.7744e-07	8.0587e-07	387.85	171.35	148.81	81.753	7.908e-07	97.67	80.146	34.525	29.206	-43.173	55.124	46.279	-45.218	-38.171	112.773	106.256	-41.360	-36.835	-33.179	-28.436	-40.030	-32.469	-8191	255	
2679.345	1	1	0	0	0.22583	0.20673	0.072552	0.32027	0.13263	0.063813	0.12534	0.088475	0.20781	0.19018	0.090196	0.22509	0.23131	0.21737	0.18298	0.13469	-3.5438	-3.5563	-4.3021	-3.7167	-3.775	-4.275	-3.5854	-4.125	-4.0479	-3.7021	-4.0417	-4.0979	-3.6458	-4.4771	-3.6354	-4.0938	105.228	121.299	-28.569	271.881	126.176	242.027	179.336	289.871	84.708	-47.643	234.287	258.883	-47.000	263.556	241.721	275.665	0.00091615	0.00021849	4.0725e-05	916.28	2.1526e-06	3.2001e-06	1001.2	445.26	2.9942e-06	9.4062e-07	517.05	225.19	190.95	106.91	1.8756e-06	134.05	8.7119e-05	7.5504e-05	1.9483e-05	806.67	8.5885e-07	7.8069e-07	854.21	360.39	8.2888e-07	7.687e-07	398.48	174.5	149.79	82.55	8.1786e-07	99.266	96.303	-1.904	66.902	-43.159	87.359	22.167	-45.359	-38.174	60.114	58.319	-41.187	-36.565	-33.257	-28.555	128.526	-32.729	-8191	255	
2679.464	1	1	0	0	0.24456	0.22955	0.16616	0.15871	0.018769	0.079269	0.16354	0.19047	0.19279	0.24033	0.18769	0.22384	0.10196	0.52611	0.15076	0.054463	-3.6771	-3.5979	-4.2146	-3.9313	-3.8083	-4.2875	-4.0437	-4.1062	-4.1875	-3.5583	-4.2562	-4.0875	-3.7854	-4.3812	-3.7146	-3.9875	36.445	53.256	-5.701	-16.262	146.861	78.207	238.892	129.271	186.415	61.826	292.671	270.835	265.647	267.670	72.439	265.372	0.0010551	0.00014798	5.5745e-05	922.81	2.1647e-06	3.6177e-06	1002.5	443.95	9.1334e-07	1.7323e-06	514.63	226.86	191.98	110.01	3.4882e-06	137.49	8.604e-05	7.4039e-05	2.119e-05	814.72	8.5301e-07	7.8296e-07	861.58	359.59	8.2598e-07	7.5129e-07	397.78	175.74	150.23	84.447	8.1023e-07	101.39	88.004	-26.844	104.607	-43.361	117.889	32.161	-45.506	-38.406	129.045	101.760	-41.417	-36.738	-33.230	-28.581	109.846	-32.805	-8191	255	
2679.560	1	1	0	0	0.087013	0.13871	0.13754	0.13112	0.15921	0.20684	0.052222	0.25625	0.060599	0.11708	0.24713	0.028734	0.091458	0.11502	0.070667	0.33734	-3.8312	-3.7458	-4.1813	-4.1979	-3.5917	-4.35	-3.6979	-3.9354	-4.2646	-3.5187	-4.2833	-4.0708	-3.7083	-4.4896	-3.7417	-4.0958	99.374	208.549	104.472	221.996	160.969	198.785	-0.537	234.912	89.030	149.794	-50.639	111.462	203.569	202.897	83.371	213.882	0.00080383	0.0001878	9.7495e-05	940.57	2.7841e-06	3.731e-06	1019.7	445.26	1.1646e-06	2.4528e-06	519.53	233.89	194.42	113.06	2.0262e-06	141.24	7.729e-05	6.6953e-05	2.0895e-05	827.31	7.8406e-07	7.2036e-07	875.64	359.61	7.5184e-07	7.0548e-07	401.64	180.54	151.92	86.877	8.2906e-07	104.08	92.701	48.294	88.704	-43.178	64.554	79.721	-45.209	-38.105	0.440	74.480	-41.105	-36.750	-33.072	-28.610	78.118	-32.808	-8191	255	
2679.656	1	1	0	0	0.10411	0.29718	0.15692	0.25996	0.13517	0.25611	0.2242	0.29608	0.11541	0.2181	0.091922	0.13621	0.21439	0.14194	0.15331	0.23184	-3.9854	-3.8104	-3.8896	-4.2917	-3.5708	-4.2458	-4.0417	-3.8167	-4.4229	-3.7792	-4.2042	-4.4896	-3.5917	-4.4646	-3.8667	-3.9875	37.480	161.498	232.085	283.015	83.095	-16.803	-0.477	263.086	281.340	277.738	-38.673	196.385	288.485	242.654	110.062	247.778	0.00093552	0.0003039	0.00011278	922.03	3.2918e-06	1.6873e-06	1008.5	428.08	2.7123e-06	1.5996e-06	508.46	239.44	196.67	112.44	2.0115e-06	138.01	7.1931e-05	6.4982e-05	2.0916e-05	811.47	7.1711e-07	7.1619e-07	863.37	345.72	7.1873e-07	7.3192e-07	394.12	184.93	153.71	86.338	8.6247e-07	101.86	85.045	41.359	60.100	-43.225	60.429	61.957	-45.177	-37.806	27.412	109.923	-40.581	-36.722	-32.892	-28.453	85.892	-32.388	-8191	255	
2679.752	1	1	0	0	0.095777	0.099541	0.095841	0.18531	0.24069	0.087654	0.18081	0.15486	0.026479	0.13886	0.32304	0.090983	0.21831	0.13223	0.16329	0.10392	-3.9313	-3.7417	-3.9208	-4.2542	-3.575	-4.1542	-4.0146	-3.95	-4.2604	-3.7313	-3.9896	-4.3229	-3.7562	-4.425	-4.0333	-3.7562	-33.707	30.450	278.623	117.635	196.955	221.578	287.749	13.601	113.302	113.457	50.103	-5.242	272.969	273.881	4.584	218.229	0.00094257	8.1757e-05	0.00015045	842.16	3.1712e-06	7.2879e-07	894.55	389.82	3.1519e-06	1.5951e-06	478.68	228.16	193.63	100.53	1.2718e-06	125.97	7.2527e-05	7.3702e-05	2.2339e-05	738.43	7.5151e-07	8.3476e-07	774.4	316.13	7.7058e-07	8.7136e-07	373.13	177.06	151.13	77.861	9.3806e-07	92.999	83.123	-31.928	33.468	-42.966	72.032	80.294	-44.618	-37.394	67.767	97.634	-40.430	-36.720	-33.335	-28.447	22.679	-32.316	-8191	255	
2679.849	1	1	0	0	0.27643	0.29149	0.15352	0.2421	0.20263	0.065225	0.22302	0.057811	0.13468	0.19465	0.13182	0.3647	0.29839	0.29115	0.19902	0.093747	-3.85	-3.8604	-3.7313	-4.4062	-3.5771	-4.2438	-3.8875	-3.6646	-4.0875	-3.8146	-3.8083	-4.3396	-3.7667	-4.0875	-4.2625	-3.7917	242.809	-7.026	287.319	121.631	12.526	234.025	257.097	224.926	131.938	127.287	246.833	268.767	244.973	290.180	91.244	231.894	0.0010149	0.00019728	9.6368e-05	754.23	3.4117e-06	1.9785e-06	834.26	393.57	1.4286e-06	2.3563e-06	484.7	247.05	219.65	100.33	1.0648e-06	125.34	7.8688e-05	8.5619e-05	2.3542e-05	669.39	8.1454e-07	9.4759e-07	723.27	320.66	8.206e-07	9.5284e-07	377.52	190.29	171.05	77.538	8.798e-07	92.678	81.586	44.044	54.373	-43.066	58.392	132.196	-44.938	-37.725	100.454	131.194	-40.819	-36.924	-33.896	-28.811	1.856	-32.666	-8191	255	
2679.945	1	1	0	0	0.087783	0.15186	0.19911	0.21028	0.28111	0.21987	0.26231	0.2288	0.16297	0.22591	0.08158	0.24309	0.22353	0.068148	0.035416	0.19441	-3.8688	-3.8729	-3.6875	-4.3083	-3.8146	-4.0646	-4.3208	-3.6292	-4.3625	-4.0792	-3.7229	-4.3917	-3.9688	-4.2354	-4.1354	-3.7667	229.277	119.699	60.027	60.990	31.451	246.145	165.722	0.176	73.581	288.511	304.082	213.528	279.878	273.699	-33.748	263.315	0.0010876	0.00035686	0.00013945	748.23	2.4954e-06	3.0746e-06	826.95	396.67	1.6322e-06	1.354e-06	484.1	249.84	217.78	101	2.8836e-07	126.84	7.7902e-05	8.4636e-05	2.1787e-05	661.31	8.2494e-07	9.1722e-07	714.26	320.81	8.3371e-07	9.0739e-07	374.37	192.28	169.88	78.043	8.3692e-07	93.473	84.007	5.916	40.353	-43.233	72.489	51.890	-45.229	-37.873	80.249	54.648	-40.883	-37.217	-33.883	-28.759	50.290	-32.630	-8191	255	
2680.065	1	1	0	0	0.021753	0.17933	0.049058	0.17884	0.049771	0.21947	0.19146	0.23842	0.17664	0.057782	0.10396	0.048244	0.12082	0.23007	0.10341	0.1513	-3.9021	-4.0167	-3.4437	-4.4083	-3.7313	-3.9125	-4.5333	-3.8354	-4.2	-3.975	-3.8479	-4.4042	-3.9708	-4.0083	-4.2667	-3.9854	111.201	79.535	-45.030	267.750	260.290	280.490	220.273	230.195	-22.372	28.065	210.717	287.531	273.091	286.180	154.978	25.605	0.0011777	0.00016378	0.00011831	770.95	2.0001e-06	2.467e-06	864.18	379.34	1.4121e-06	2.244e-06	463.59	227.79	189.68	105.36	3.1649e-06	134.72	8.3273e-05	8.3205e-05	2.1702e-05	680.84	9.4169e-07	9.8694e-07	750.44	309.49	1.1002e-06	1.1599e-06	364.99	178.19	151.87	82.607	1.5915e-06	101.43	87.351	-33.747	29.698	-43.409	149.235	77.060	-45.254	-37.765	107.540	87.690	-40.682	-36.465	-33.138	-28.452	19.731	-32.570	-8191	255	
2680.162	1	1	0	0	0.28122	0.19188	0.073939	0.16649	0.099871	0.1239	0.086811	0.3251	0.067021	0.033282	0.29234	0.11972	0.058735	0.19103	0.16747	0.38797	-3.6604	-4.0729	-3.5187	-4.3208	-3.7896	-3.9521	-4.4229	-3.8	-4.0542	-4.0604	-3.7062	-4.3708	-4.2333	-3.8292	-4.3812	-3.9146	180.482	283.140	72.566	236.920	17.562	301.543	246.001	248.370	-48.297	-32.664	269.493	208.098	253.556	255.280	90.881	275.516	0.0011414	0.00035669	0.00011386	919.13	2.1868e-06	4.3693e-06	981.39	439.26	3.1961e-06	1.5127e-06	496.22	221.81	192.91	90.21	1.3003e-06	106.72	0.00017537	0.00016498	4.233e-05	833.28	1.7597e-06	1.6118e-06	864.63	361.42	1.4761e-06	1.2922e-06	388.77	172.86	151.89	69.77	7.9063e-07	78.775	79.119	-10.494	28.162	-43.748	161.800	32.328	-45.929	-38.790	51.758	31.370	-41.887	-38.042	-35.097	-30.098	83.595	-33.918	-8191	255	
2680.256	1	1	0	0	0.17144	0.17718	0.20486	0.1011	0.17795	0.14664	0.10534	0.072314	0.091616	0.25644	0.08385	0.16211	0.016668	0.2666	0.032583	0.09662	-3.6729	-3.9458	-3.6063	-4.4083	-3.8583	-3.825	-4.4021	-3.7812	-4.0479	-4.15	-3.7104	-4.3979	-4.0687	-3.6458	-4.2854	-3.8083	201.386	13.009	-9.462	273.318	11.276	-9.717	193.907	42.391	22.763	180.381	23.689	244.790	48.429	213.478	33.985	235.586	0.00073132	0.00027149	7.353e-05	1173.6	1.0905e-06	1.7055e-06	1230.2	378.25	1.7156e-06	2.2241e-06	422.29	175.93	149.53	74.825	1.0509e-06	92.034	6.7356e-05	4.8602e-05	1.0821e-05	1005	3.8568e-07	3.117e-07	1020.9	298.98	3.2606e-07	3.0606e-07	318.95	133.56	115.43	57.055	3.8699e-07	67.261	84.608	33.494	25.627	-44.962	101.557	85.322	-46.710	-41.253	52.485	82.514	-43.525	-38.389	-35.610	-30.591	84.118	-34.037	-8191	255	
2680.329	1	1	0	0	0.10102	0.11406	0.1452	0.22831	0.15695	0.089195	0.088498	0.05413	0.11848	0.10501	0.079588	0.33412	0.10196	0.25596	0.12532	0.17498	-3.4792	-4.1729	-3.5583	-4.2	-3.9771	-3.5917	-4.4938	-3.9354	-3.7646	-4.1396	-3.6396	-4.1021	-4.3125	-3.7833	-4.1937	-4.0417	52.267	149.848	76.860	251.652	108.695	-30.862	213.621	108.976	136.454	187.923	264.633	269.643	160.369	292.374	155.637	216.008	0.00047276	0.00011333	5.5415e-05	1086.6	2.4776e-06	1.6749e-06	1154.1	360.12	1.5905e-06	2.0842e-06	404.41	180.16	156.3	78.117	1.3837e-06	99.903	4.6325e-05	4.0488e-05	1.0475e-05	934.65	4.2034e-07	3.539e-07	962.99	285.91	3.2077e-07	2.8243e-07	305.28	137.13	120.09	59.497	4.2266e-07	73.022	74.729	9.252	25.463	-45.267	74.243	88.407	-46.836	-41.200	57.760	79.401	-42.691	-38.144	-35.136	-30.317	51.141	-33.815	-8191	255	
2680.426	1	1	0	0	0.25102	0.22056	0.028167	0.023667	0.16647	0.10796	0.13987	0.25991	0.13052	0.10333	0.14663	0.10098	0.2534	0.27817	0.068311	0.27042	-3.3396	-4.3021	-3.5604	-4.3187	-3.975	-3.6271	-4.4521	-4.1042	-3.6896	-4.3646	-3.8312	-4.2396	-4.3146	-3.8229	-4.0729	-4.1729	89.938	145.616	-54.055	160.807	51.894	31.684	141.361	204.811	-14.756	-12.761	97.253	252.294	278.955	-51.161	128.500	230.153	0.00064773	0.00016484	6.9455e-05	992.34	2.256e-06	1.2964e-06	1034.6	379.02	2.503e-06	1.4505e-06	460.39	209.85	181.54	88.215	1.8376e-06	110.59	6.07e-05	6.0862e-05	1.8763e-05	869.95	8.772e-07	8.2096e-07	882.94	306.78	7.9885e-07	7.224e-07	357.11	161.91	141.83	67.909	1.0356e-06	82.758	76.829	21.762	14.107	-44.556	99.999	-24.255	-46.268	-39.182	88.417	96.625	-41.872	-37.831	-34.934	-30.011	217.225	-33.554	-8191	255	
2680.544	1	1	0	0	0.22067	0.036266	0.26917	0.36119	0.27106	0.15886	0.14438	0.24037	0.2326	0.18206	0.041006	0.16416	0.050269	0.30375	0.12923	0.10377	-3.2792	-4.3729	-3.7708	-4.0271	-4.1438	-3.6833	-4.3562	-4.1687	-3.6104	-4.2292	-3.8521	-4.1208	-4.3479	-3.8396	-4.0625	-4.3104	21.318	298.068	289.614	-36.729	-7.104	119.657	-10.477	267.059	-37.560	234.948	74.686	242.485	181.133	301.593	50.510	145.476	0.00041276	0.00013459	2.9311e-05	918.98	2.424e-06	2.4385e-06	973.24	443.41	3.6309e-06	1.8909e-06	516.99	221.96	194.5	91.453	1.0773e-06	113.26	0.00013085	0.00013318	4.5619e-05	844.1	1.8711e-06	1.7013e-06	873	370.1	1.4362e-06	1.2498e-06	409.16	174.41	153.43	70.753	1.1892e-06	84.444	96.336	43.277	209.590	-44.123	68.166	-20.108	-45.592	-39.208	122.145	152.389	-41.830	-37.444	-34.459	-29.840	133.631	-33.368	-8191	255	
2680.641	1	1	0	0	0.088873	0.13241	0.13805	0.11977	0.14538	0.22164	0.12601	0.214	0.15228	0.067384	0.28193	0.19054	0.24857	0.3485	0.17157	0.18085	-3.2521	-4.2417	-3.7604	-3.875	-4.3125	-3.7604	-4.0458	-4.1687	-3.6458	-4.2833	-3.9333	-3.775	-4.4729	-3.8937	-4.1333	-4.3521	45.676	250.884	-46.545	204.449	117.303	86.844	286.389	267.750	277.991	126.056	270.065	240.811	258.456	267.792	25.490	190.928	0.00073103	0.00024341	0.00012087	960.27	1.3353e-06	2.359e-06	1030.6	463.3	7.7424e-07	2.5021e-06	527.88	221.05	192.56	90.004	1.2354e-06	114.63	0.00010022	9.4015e-05	3.0956e-05	853.85	1.0975e-06	1.0685e-06	899.4	377.19	9.784e-07	9.3266e-07	410.9	171	150.15	69.424	8.3184e-07	84.302	86.782	23.723	73.424	-43.610	88.775	86.585	-45.482	-38.834	71.019	30.081	-41.565	-37.184	-33.917	-29.339	100.764	-33.015	-8191	255	
2680.737	1	1	0	0	0.061026	0.11928	0.06575	0.2341	0.1881	0.11879	0.17735	0.14548	0.34035	0.22377	0.042252	0.23494	0.18916	0.082066	0.22056	0.16236	-3.075	-4.2396	-3.9042	-4	-4.2979	-3.875	-4.0563	-4.3667	-3.6417	-4.2937	-4.1062	-3.8229	-4.4938	-3.9271	-4.0229	-4.4271	226.574	178.530	27.298	-22.997	265.279	-0.836	284.279	-7.982	76.557	66.452	220.889	279.067	265.962	262.994	119.142	275.229	0.00061087	0.00025173	9.3776e-05	998.66	2.0132e-06	1.9314e-06	1090.9	475.02	3.0182e-06	2.1981e-06	544.32	221.9	189.43	87.789	2.2444e-06	111.76	6.1465e-05	5.9455e-05	1.7482e-05	866.41	5.2734e-07	5.5544e-07	923.4	377.55	4.6869e-07	5.152e-07	413.07	169.37	146.3	67.056	5.3091e-07	81.582	72.948	46.080	2.630	-43.617	66.876	72.733	-45.532	-38.954	62.332	103.957	-41.461	-37.205	-34.133	-29.478	54.636	-33.143	-8191	255	
2680.857	1	1	0	0	0.13422	0.2152	0.16287	0.14754	0.15535	0.20096	0.059664	0.19453	0.15077	0.17239	0.044114	0.17445	0.1117	0.26115	0.22225	0.19079	-3.3042	-4.1229	-3.9083	-3.7125	-4.3167	-3.7479	-4.0229	-4.3146	-3.775	-4.0646	-4.2688	-3.7354	-4.5229	-3.8896	-3.8187	-4.4604	158.317	-56.960	1.830	161.218	154.212	255.286	52.438	286.946	227.270	119.234	278.113	285.833	-2.028	259.209	156.297	228.798	0.00077024	0.00016827	9.9855e-05	1003	3.2638e-06	1.8524e-06	1086.2	450.78	2.2037e-06	3.2685e-06	516.52	208.64	176.89	81.271	1.0955e-06	104.54	4.5126e-05	4.7358e-05	1.3421e-05	863.22	4.6479e-07	5.4797e-07	919	359.65	4.945e-07	5.8976e-07	394.96	159.87	136.59	62.443	5.8561e-07	76.614	88.638	27.125	44.383	-43.965	108.277	95.591	-45.870	-39.121	101.004	114.472	-41.618	-36.878	-33.906	-29.414	88.057	-32.942	-8191	255	
2680.929	1	1	0	0	0.23509	0.20986	0.092463	0.12452	0.22571	0.21841	0.38104	0.17683	0.14068	0.26143	0.20957	0.1593	0.22014	0.54019	0.23696	0.36476	-3.4146	-3.9604	-4.0667	-3.7583	-4.1417	-3.925	-3.9479	-4.4708	-3.7229	-4.025	-4.4	-3.9229	-4.275	-4.2896	-3.7458	-4.5563	219.561	240.244	301.381	255.696	57.854	85.421	-35.530	295.185	251.591	210.496	3.981	-25.977	265.704	246.182	234.278	208.836	0.00078194	0.00029497	0.00011958	972.95	2.1528e-06	1.202e-06	1059.4	423.38	1.9188e-06	1.5854e-06	488.67	196.93	165.61	77.051	1.6757e-06	100.96	5.4584e-05	6.0411e-05	1.5912e-05	843.27	6.323e-07	7.5043e-07	901.44	339.88	7.0702e-07	7.9785e-07	376.92	151.6	129.48	59.409	6.7008e-07	74.097	87.492	25.555	14.337	-44.032	154.761	53.497	-45.915	-38.957	165.653	38.013	-41.411	-36.928	-33.968	-29.454	60.571	-32.702	-8191	255	
2681.025	1	1	0	0	0.23756	0.0071474	0.13156	0.15819	0.19368	0.25127	0.23421	0.13139	0.037491	0.034787	0.15477	0.11655	0.075445	0.042478	0.23146	0.19643	-3.4375	-4.0375	-4.125	-3.7146	-4.2542	-3.7854	-3.8417	-4.4583	-3.6708	-3.9958	-4.2146	-3.7979	-4.0917	-4.2771	-3.6521	-4.5208	151.703	262.615	95.128	109.757	286.731	28.191	-26.970	272.463	-22.250	292.100	279.333	102.186	249.804	244.265	206.940	298.728	0.00086433	0.00022266	4.7034e-05	979.17	2.8276e-06	3.9487e-06	1066	421.59	1.3102e-06	1.2554e-06	493.06	197.37	166.29	77.045	6.6557e-07	101.59	6.4397e-05	6.2566e-05	1.5329e-05	846.77	6.1407e-07	6.2715e-07	902.87	335.67	5.9655e-07	5.8709e-07	375.17	151.05	128.87	59.123	5.0167e-07	74.371	76.425	-20.624	80.584	-44.012	145.497	42.356	-45.812	-38.890	168.605	35.144	-41.532	-37.080	-33.973	-29.350	51.887	-32.813	-8191	255	
2681.146	1	1	0	0	0.15393	0.080112	0.13543	0.25539	0.08753	0.14232	0.28611	0.26726	0.088085	0.14007	0.20384	0.2685	0.11868	0.14847	0.23448	0.074875	-3.5708	-3.95	-4.275	-3.7396	-4.2	-3.9792	-3.7979	-4.3771	-3.8563	-3.7313	-4.3521	-3.6604	-4.1771	-4.2729	-3.7542	-4.0958	177.137	112.815	5.213	247.179	-45.326	228.787	289.597	267.832	-15.275	6.176	24.999	293.545	229.307	256.697	93.219	138.972	0.00083835	0.00019194	5.2892e-05	988.67	3.1655e-06	2.7195e-06	1086.5	421.63	2.1696e-06	2.1653e-06	495.16	198.96	166.27	76.782	1.1502e-06	102.59	5.5261e-05	4.8961e-05	1.2318e-05	852.57	5.6543e-07	5.2178e-07	912.98	335.22	5.4241e-07	4.9046e-07	376.51	152.29	128.7	58.695	4.5501e-07	74.788	70.088	-22.742	37.081	-44.042	117.722	-9.072	-45.780	-39.044	117.293	87.203	-41.632	-36.921	-34.153	-29.364	95.298	-32.839	-8191	255	
2681.242	1	1	0	0	0.22768	0.10885	0.16542	0.15227	0.087249	0.04302	0.10508	0.078763	0.34162	0.19166	0.12794	0.23345	0.33363	0.2676	0.062843	0.23511	-3.5604	-3.6562	-4.2792	-3.7562	-3.9125	-4.1958	-3.7458	-4.1021	-3.8146	-3.6354	-4.4104	-3.9292	-3.9792	-4.6271	-3.4354	-4.3875	192.797	86.932	-48.792	232.681	138.470	115.214	282.800	208.177	234.754	-24.020	252.682	249.534	258.346	221.187	119.144	248.573	0.0007489	0.00033937	7.8871e-05	998.8	3.3881e-06	9.0148e-07	1096.2	415.34	1.0328e-06	2.1763e-06	488.53	199.15	164.87	75.304	2.4736e-06	101.08	5.5326e-05	4.7694e-05	1.2332e-05	864.98	5.9658e-07	5.2549e-07	921.08	331.56	5.7116e-07	4.9228e-07	371.74	152.1	127.48	57.693	4.4134e-07	74.065	83.937	1.946	39.010	-44.232	102.950	125.911	-45.813	-38.891	51.312	20.278	-41.564	-37.079	-34.313	-29.169	50.954	-32.648	-8191	255	
2681.336	1	1	0	0	0.15152	0.083364	0.19972	0.23529	0.20541	0.1084	0.14339	0.20147	0.049385	0.031895	0.17697	0.23699	0.089922	0.17374	0.088197	0.16958	-3.7333	-3.6458	-4.3979	-4.0167	-3.9625	-4.1958	-3.6875	-4.2083	-3.9646	-3.7979	-4.2125	-3.9354	-3.8688	-4.2979	-3.7229	-4.2	255.786	135.433	53.826	226.312	49.490	13.905	240.628	186.790	225.202	3.149	-51.287	208.072	1.538	225.235	6.853	223.978	0.00065771	0.00022317	5.5312e-05	1004.8	5.4219e-07	1.0826e-06	1091.4	407.98	2.539e-06	1.7047e-06	481.21	194.93	161.84	73.32	1.0158e-06	99.137	5.2944e-05	4.4864e-05	1.2113e-05	870.25	5.8801e-07	5.4743e-07	921.19	326.89	6.1777e-07	5.4497e-07	366.86	150.15	125.73	56.059	5.185e-07	72.856	78.757	27.993	37.697	-44.441	21.919	88.012	-45.949	-39.155	20.376	91.041	-41.329	-37.149	-34.326	-29.201	74.283	-32.652	-8191	255	
2681.434	1	1	0	0	0.044647	0.11322	0.1047	0.17734	0.31535	0.068165	0.17532	0.1987	0.14219	0.17256	0.059682	0.13418	0.092066	0.07391	0.1048	0.086796	-3.6354	-3.5667	-4.1417	-4.1542	-3.6833	-4.4833	-3.8333	-4.1667	-4.0687	-3.8292	-4.2896	-4.0229	-3.9146	-4.4625	-3.7229	-4.2396	157.193	114.935	150.711	203.523	198.969	216.579	212.684	294.654	16.890	52.426	20.347	195.936	241.509	207.763	102.228	39.849	0.00066853	0.00023528	5.8647e-05	1005	3.3842e-06	2.1381e-06	1105.9	400.51	2.4243e-06	2.1194e-06	475.78	193.72	159.24	71.246	1.1847e-06	97.907	5.5705e-05	4.8869e-05	1.4116e-05	874.12	6.3119e-07	5.9895e-07	933.65	323.5	7.0915e-07	6.5822e-07	365.86	150.02	124.45	54.817	6.7831e-07	72.248	79.853	-6.523	55.478	-44.558	64.327	24.348	-45.965	-39.098	50.547	79.535	-41.660	-37.243	-34.272	-29.170	126.418	-32.819	-8191	255	
2681.553	1	1	0	0	0.16307	0.30527	0.16328	0.23478	0.14177	0.084233	0.22427	0.22779	0.074161	0.20345	0.27878	0.41395	0.040966	0.21413	0.17962	0.02921	-3.9125	-3.5417	-4.0687	-4.1458	-3.7042	-4.4563	-3.6542	-4.2104	-4.0854	-3.5333	-4.375	-4.0521	-3.8563	-4.3562	-3.8229	-3.9917	-25.857	189.580	2.569	210.142	-13.638	-27.175	209.988	270.426	2.019	241.256	219.713	241.842	237.413	257.522	-39.170	61.686	0.0006028	0.00032035	5.79e-05	1007.4	1.1744e-06	3.4827e-06	1105.9	398.38	3.1666e-06	1.0853e-06	473.93	194.35	159.51	70.921	1.7215e-06	97.828	6.2662e-05	5.4706e-05	1.7101e-05	877.3	6.4995e-07	6.0737e-07	938.16	320.26	6.7441e-07	6.2832e-07	365.3	150.15	124.14	54.387	7.0787e-07	72.176	81.841	-6.520	20.684	-44.262	69.704	78.500	-45.979	-39.088	75.986	63.030	-41.447	-37.311	-34.540	-29.730	71.540	-32.700	-8191	255	
2681.625	1	1	0	0	0.19392	0.17734	0.29494	0.058687	0.036686	0.049779	0.17461	0.064141	0.14531	0.29425	0.10609	0.29549	0.15303	0.29088	0.10898	0.1064	-3.7771	-3.75	-3.9083	-4.1813	-3.6125	-4.3167	-3.7792	-3.8146	-4.2583	-3.5896	-4.0292	-4.1833	-3.8312	-4.4271	-3.825	-3.9437	275.492	58.882	280.643	-28.445	-55.632	189.503	230.772	-30.937	227.778	249.712	285.113	299.982	-33.355	299.233	157.224	259.864	0.00058954	0.00023469	6.1928e-05	1008	2.6372e-06	1.9908e-06	1111.5	401.45	1.0843e-06	1.4758e-06	478.8	196.04	160.84	71.681	1.3224e-06	98.63	5.5826e-05	4.7176e-05	1.4732e-05	868.95	4.5541e-07	4.2111e-07	935.33	318.36	3.9305e-07	3.8202e-07	363.01	148.95	123.82	54.631	4.2058e-07	72.009	83.331	67.903	40.600	-44.510	92.028	95.614	-46.080	-39.371	58.886	93.697	-41.729	-37.400	-34.552	-29.551	84.990	-33.007	-8191	255	
2681.745	1	1	0	0	0.11578	0.13952	0.24556	0.17092	0.14606	0.18588	0.055798	0.032454	0.34949	0.090234	0.15992	0.12617	0.13093	0.23961	0.21855	0.067524	-3.8604	-3.8292	-3.9229	-4.2104	-3.55	-4.1208	-3.9875	-3.825	-4.3396	-3.6354	-4.0479	-4.2812	-3.5542	-4.3521	-4.0042	-3.85	255.593	217.566	10.584	258.353	186.936	127.917	122.844	-13.700	10.853	165.826	184.560	-53.041	284.018	238.782	153.884	10.768	0.00060078	0.0001058	4.9666e-05	1014	1.7648e-06	1.4443e-06	1120.8	404.76	2.1867e-06	1.3354e-06	481.45	197.25	161.92	72.559	1.4673e-06	100.19	3.4249e-05	3.121e-05	9.7269e-06	869.19	3.0897e-07	3.2791e-07	935.67	320.06	3.0358e-07	3.3115e-07	364.34	149.73	124.43	55.171	3.7647e-07	72.714	83.526	15.914	-0.503	-44.566	45.293	104.348	-46.138	-39.588	64.842	109.577	-41.636	-37.170	-34.610	-29.686	35.493	-32.825	-8191	255	
2681.842	1	1	0	0	0.16105	0.21826	0.14165	0.2058	0.1583	0.030049	0.087769	0.10425	0.15199	0.19784	0.16797	0.16227	0.19325	0.17182	0.088119	0.28188	-4.0167	-3.6333	-3.8083	-4.1417	-3.5271	-4.0083	-4.1292	-3.5563	-4.2979	-3.8854	-3.9083	-4.2854	-3.7729	-4.1271	-4.1042	-3.7458	50.667	166.571	259.214	251.175	153.387	109.149	-50.077	202.398	50.211	99.422	57.974	284.903	247.539	283.325	211.235	288.358	0.00079421	0.00015826	7.8561e-05	1016.2	1.6814e-06	1.9775e-06	1122.9	407.76	1.7833e-06	7.649e-07	488.79	200.57	164.55	74.037	1.7734e-06	102.11	3.2607e-05	3.4326e-05	9.572e-06	871.96	3.2156e-07	3.6868e-07	938.01	322.03	2.9669e-07	3.4053e-07	368.38	151.76	126.15	56.395	3.1527e-07	74.245	76.915	22.934	61.219	-44.518	112.831	64.969	-46.297	-39.116	83.293	124.018	-41.637	-37.368	-34.574	-29.571	90.159	-32.820	-8191	255	
2681.938	1	1	0	0	0.087034	0.17512	0.075326	0.080152	0.16275	0.16905	0.12829	0.1966	0.12369	0.13617	0.11083	0.28489	0.087873	0.30442	0.25066	0.12091	-3.9396	-3.825	-3.7771	-4.4292	-3.8563	-3.9583	-4.3396	-3.7021	-4.1396	-4.0188	-3.7417	-4.4854	-3.8792	-4.0708	-4.1979	-3.7271	44.118	8.480	143.069	289.041	-23.680	-1.853	26.523	233.017	-11.309	113.559	272.518	242.433	302.477	-6.080	126.628	225.883	0.00076132	0.00021651	8.6726e-05	1025.5	1.7758e-06	1.9638e-06	1139.6	414.46	1.5683e-06	1.6364e-06	496.28	204.62	166.94	75.697	1.63e-06	103.63	2.9494e-05	3.0189e-05	7.5869e-06	876.6	2.7731e-07	3.1108e-07	947.91	325.85	2.6553e-07	2.9614e-07	373.08	154.56	128.05	57.429	2.5873e-07	75.293	80.425	22.026	21.326	-44.576	112.249	56.753	-46.247	-39.361	74.835	106.374	-41.776	-37.403	-34.443	-29.463	86.058	-32.869	-8191	255	
2682.034	1	1	0	0	0.12658	0.093291	0.066017	0.086773	0.13394	0.15038	0.30371	0.11634	0.15713	0.18706	0.12151	0.19345	0.11891	0.1308	0.11829	0.32379	-3.8	-4.0646	-3.7167	-4.3938	-3.8542	-3.9417	-4.4	-3.3521	-4.2333	-3.9688	-3.6813	-4.4208	-3.7604	-3.85	-4.4375	-3.6708	109.186	0.612	95.493	100.179	121.821	240.324	155.762	29.851	250.114	209.036	-42.951	259.035	270.407	172.640	29.699	288.638	0.00079049	0.00030222	5.221e-05	1019.5	1.1201e-06	2.8476e-06	1125.4	412.19	9.8675e-07	1.9219e-06	493.48	206.23	169.38	77.413	9.8963e-07	105.76	2.8367e-05	2.6634e-05	6.6885e-06	871.06	2.8438e-07	2.9563e-07	935.97	325.01	2.8632e-07	2.8011e-07	370.77	155.67	129.79	58.838	2.4168e-07	76.671	79.441	21.798	6.435	-44.606	102.929	42.399	-46.258	-39.390	103.055	89.169	-41.729	-37.398	-34.227	-29.369	56.605	-32.877	-8191	255	
2682.155	1	1	0	0	0.11881	0.14427	0.10155	0.22209	0.11069	0.14659	0.06788	0.31119	0.041201	0.046638	0.20199	0.1052	0.22809	0.096298	0.073352	0.084994	-3.5979	-4.1396	-3.5917	-4.3167	-3.7833	-3.8125	-4.3417	-3.7	-4.3646	-4.3271	-3.6312	-4.3229	-4.0229	-3.8125	-4.2458	-4.0375	263.189	298.067	147.032	260.962	273.464	29.281	115.255	273.446	-7.849	220.972	115.271	168.880	227.846	281.216	157.875	34.918	0.0007341	0.00019825	6.655e-05	1016.2	2.07e-06	2.7101e-06	1125.7	412.2	1.3796e-06	2.4622e-06	495.62	207.19	170.01	78.4	9.1544e-07	106.73	2.9074e-05	2.421e-05	5.9799e-06	870.37	2.907e-07	2.6473e-07	933.93	324.91	3.0215e-07	2.7806e-07	371.56	157.16	130.38	59.594	2.7388e-07	77.765	81.059	8.451	18.640	-44.513	117.135	51.954	-46.349	-39.354	107.317	96.087	-41.625	-37.246	-34.514	-29.537	64.350	-32.715	-8191	255	
2682.226	1	1	0	0	0.038888	0.1385	0.20065	0.19932	0.14611	0.12238	0.098783	0.11295	0.059035	0.35456	0.29661	0.16236	0.20002	0.24303	0.21247	0.17532	-3.5979	-4	-3.5833	-4.225	-4.0062	-3.8917	-4.3583	-3.8125	-3.9458	-4.1188	-3.9125	-4.2417	-4.3	-3.6125	-4.2083	-3.8792	257.786	23.790	-14.235	-18.921	173.894	232.947	243.864	-53.667	78.770	-45.150	283.677	232.905	270.833	-37.687	245.364	94.258	0.00077554	0.00017548	8.4121e-05	1004.3	1.5224e-06	2.2151e-06	1107.5	409.44	1.823e-06	1.7488e-06	493.27	208.88	170.9	79.381	1.9242e-06	108.67	3.4653e-05	2.7333e-05	7.2338e-06	859.81	3.6812e-07	3.2958e-07	924.06	324.25	3.9403e-07	3.4909e-07	372.94	158.97	131.44	60.408	3.2461e-07	79.165	85.641	17.594	46.966	-44.543	98.497	80.589	-46.130	-39.131	82.836	65.712	-41.515	-36.986	-34.507	-29.389	59.196	-32.748	-8191	255	
2682.322	1	1	0	0	0.13089	0.20962	0.22874	0.19069	0.16653	0.08298	0.15253	0.072189	0.097684	0.038328	0.063977	0.32543	0.20218	0.13613	0.10806	0.11807	-3.5167	-4.1125	-3.6208	-4.1896	-3.9708	-3.7188	-4.3583	-3.9167	-3.8292	-4.1896	-3.8479	-4.1417	-4.1521	-3.7229	-4.2458	-4.025	251.461	100.053	103.045	-3.403	236.927	-3.218	289.141	131.320	243.833	51.730	18.476	293.284	-55.009	218.912	2.128	131.296	0.00071049	0.00020875	4.508e-05	999.34	1.8785e-06	3.0798e-06	1106.1	412.34	1.9214e-06	1.5364e-06	497.54	212.48	172.88	81.068	1.0759e-06	110.62	3.8292e-05	2.993e-05	7.7749e-06	856.78	3.5988e-07	3.1764e-07	922.45	325.91	3.4699e-07	3.0491e-07	375.64	161.46	132.7	61.75	2.9379e-07	80.425	76.043	40.287	22.532	-44.342	88.880	77.859	-46.125	-39.091	51.319	92.787	-41.713	-37.325	-34.195	-29.268	62.229	-32.581	-8191	255	
2682.418	1	1	0	0	0.21528	0.031466	0.16049	0.098643	0.091528	0.17179	0.15746	0.11352	0.03124	0.08827	0.1809	0.25016	0.084333	0.24687	0.11197	0.13026	-3.5938	-4.1229	-3.5687	-4.1833	-4.1104	-3.6958	-4.3104	-4.0375	-3.8979	-4.3833	-3.9646	-4.0396	-4.3021	-3.6771	-4.2354	-4	9.457	16.590	100.082	220.345	130.023	59.906	249.243	235.173	-47.303	33.377	-14.865	209.587	-40.283	-38.451	252.418	284.295	0.00075432	0.00018861	6.2631e-05	994.4	1.577e-06	2.7496e-06	1100.4	411.73	1.5019e-06	2.0022e-06	498.82	212.39	173.37	81.34	9.989e-07	110.32	3.2617e-05	2.5855e-05	7.015e-06	853.46	2.9674e-07	2.6238e-07	917.94	325.71	2.8622e-07	2.5863e-07	376.59	161.7	132.73	61.821	3.029e-07	80.362	82.389	15.133	53.292	-44.268	73.388	86.444	-46.204	-39.050	92.972	76.696	-41.699	-37.132	-34.241	-28.971	113.435	-32.868	-8191	255	
2682.515	1	1	0	0	0.30415	0.088547	0.1133	0.21008	0.32203	0.2304	0.14598	0.16558	0.27775	0.21882	0.14546	0.24643	0.18161	0.13934	0.094902	0.10546	-3.3375	-4.1542	-3.8583	-4.1271	-4.3375	-3.4792	-4.3896	-4.0583	-3.75	-4.2333	-3.9271	-3.9292	-4.4417	-3.7417	-4.1833	-4.1771	-7.083	175.477	224.013	-27.080	281.100	144.276	196.491	268.949	106.453	154.406	-34.855	244.730	231.692	250.647	144.439	-32.936	0.00077533	0.00029222	7.1545e-05	990.76	2.0888e-06	2.7244e-06	1096.2	409.74	2.8037e-06	1.4712e-06	498.12	213.61	172.52	81.118	1.1858e-06	110.4	3.1705e-05	2.547e-05	7.9817e-06	849.62	3.042e-07	2.7984e-07	917.48	324.52	3.0221e-07	2.8048e-07	377.05	162.18	132.53	61.627	3.4477e-07	80.541	87.665	6.621	67.161	-44.346	76.237	52.109	-46.044	-39.293	78.605	51.967	-41.474	-37.074	-34.290	-29.154	43.352	-32.582	-8191	255	
2682.634	1	1	0	0	0.097319	0.10391	0.04309	0.25691	0.13935	0.12369	0.039452	0.063316	0.10841	0.050752	0.18643	0.084256	0.16287	0.13041	0.075045	0.21413	-3.25	-4.1875	-3.7292	-4.1958	-4.275	-3.6625	-4.1687	-4.1813	-3.7604	-4.3042	-3.9354	-4.1167	-4.4187	-3.9458	-3.9562	-4.4688	244.424	77.514	113.432	-42.663	270.845	124.015	144.975	269.976	182.314	284.765	295.669	233.908	-13.712	-15.076	166.109	149.223	0.00068831	0.000201	5.9888e-05	995.27	1.7929e-06	3.866e-06	1103.9	413.61	9.5058e-07	1.6501e-06	504.08	214.59	172.94	80.598	1.2329e-06	110.89	3.3087e-05	2.7668e-05	9.1611e-06	850.95	3.1491e-07	3.016e-07	923.79	325.79	3.1491e-07	3.055e-07	380.47	162.62	132.49	61.326	3.7905e-07	80.725	72.971	2.750	57.477	-44.510	77.209	79.521	-46.106	-39.226	81.131	110.266	-41.497	-37.170	-34.417	-29.275	46.199	-32.853	-8191	255	
2682.730	1	1	0	0	0.13583	0.05767	0.093965	0.26981	0.26523	0.13559	0.22378	0.2889	0.05644	0.29088	0.028809	0.24061	0.30327	0.18782	0.23127	0.23088	-3.1792	-4.2354	-4.0375	-3.8479	-4.4938	-3.7	-4.1479	-4.2229	-3.6875	-4.1375	-4.1729	-3.8083	-4.5208	-3.8896	-3.9708	-4.4167	-41.814	257.918	-8.689	296.986	-40.712	278.802	265.361	285.186	211.428	250.549	295.933	207.361	220.314	230.576	258.689	36.236	0.0007008	0.00016529	6.5985e-05	997.27	2.5255e-06	1.774e-06	1114.8	414.01	1.2237e-06	2.0198e-06	509.63	216.04	175.45	81.27	1.4641e-06	111.59	3.358e-05	3.0448e-05	9.856e-06	856.1	3.2395e-07	3.4255e-07	931.35	327.51	3.0939e-07	3.3471e-07	383.9	164.14	134.3	61.985	3.4642e-07	81.148	77.899	49.429	40.833	-44.542	94.134	88.384	-46.088	-39.090	73.676	100.998	-41.378	-37.272	-34.420	-29.341	53.735	-32.669	-8191	255	
2682.826	1	1	0	0	0.22671	0.096187	0.18512	0.075054	0.022368	0.12758	0.16375	0.073376	0.12353	0.055064	0.22612	0.142	0.15646	0.19626	0.036402	0.23884	-3.2938	-4.25	-4.0646	-3.8063	-4.1667	-3.8271	-3.8542	-4.3896	-3.7854	-4.2083	-4.1729	-3.8729	-4.3438	-4.0354	-3.8146	-4.4521	-10.188	-14.822	266.771	111.091	106.115	-3.255	208.590	118.592	133.244	239.432	-17.264	171.075	269.948	283.310	131.972	264.337	0.00082602	0.00016204	9.5896e-05	1002	2.0454e-06	2.3428e-06	1118	418.12	8.5374e-07	1.9913e-06	509.84	217.72	176.73	81.965	1.4726e-06	111.67	3.0734e-05	3.0108e-05	8.5524e-06	859.39	2.7875e-07	3.2441e-07	931.72	329.51	2.6795e-07	3.0131e-07	382.57	164.73	135.19	62.202	2.5929e-07	81.166	77.321	26.977	18.471	-44.356	70.796	72.468	-46.069	-39.354	37.856	67.327	-41.609	-37.253	-34.621	-29.548	45.785	-32.862	-8191	255	
2682.922	1	1	0	0	0.15189	0.24791	0.023762	0.16718	0.087346	0.08153	0.12523	0.15311	0.17986	0.2136	0.057063	0.23921	0.20245	0.12408	0.24611	0.36944	-3.4417	-4.0271	-3.9562	-3.7062	-4.3396	-3.8792	-3.8917	-4.4938	-3.7604	-4.1104	-4.2458	-3.7104	-4.3875	-4.1396	-3.8708	-4.3125	-31.998	47.099	202.292	272.986	44.383	233.671	292.126	177.874	146.937	79.563	239.340	280.688	270.310	-52.583	57.679	267.235	0.00085857	9.8389e-05	7.5261e-05	1016.2	2.1388e-06	2.0239e-06	1142.1	424.87	2.179e-06	2.6487e-06	516.49	219.75	178.07	80.94	1.7154e-06	111.04	2.5151e-05	2.4109e-05	6.1671e-06	870.66	2.2689e-07	2.6153e-07	948.82	333.43	2.2593e-07	2.4175e-07	387.44	165.93	135.81	61.421	2.0103e-07	80.293	80.813	1.473	52.066	-44.584	84.541	83.776	-46.250	-39.735	88.847	113.422	-41.837	-37.384	-34.568	-29.752	68.747	-32.785	-8191	255	
2683.018	1	1	0	0	0.095726	0.12458	0.15031	0.14512	0.03029	0.14839	0.052404	0.091814	0.24057	0.15457	0.059667	0.25577	0.022125	0.12402	0.17092	0.25024	-3.4521	-4.0271	-4.2146	-3.7062	-4.175	-3.9917	-3.7646	-4.4062	-3.7917	-3.9062	-4.4646	-3.8479	-4.3375	-4.3917	-3.6083	-4.4875	-53.427	140.443	152.306	181.142	167.620	133.022	-16.044	-50.167	152.188	270.807	295.146	296.565	-46.122	242.305	164.387	101.804	0.00082001	0.00018442	8.3429e-05	1037.8	2.2039e-06	2.327e-06	1173.3	430.51	1.4273e-06	1.4142e-06	523.45	221.65	178.03	79.976	1.4166e-06	109.69	2.1853e-05	1.8829e-05	4.6107e-06	885.57	1.8856e-07	1.9964e-07	970.88	337.31	1.9866e-07	2.0456e-07	392.46	166.73	135.95	60.484	1.8797e-07	79.338	82.549	14.829	47.935	-44.458	103.629	64.471	-46.390	-39.420	70.750	72.748	-41.725	-37.428	-34.834	-29.606	73.182	-33.113	-8191	255	
2683.114	1	1	0	0	0.11752	0.079678	0.12047	0.074483	0.07211	0.16619	0.29639	0.19159	0.058471	0.24965	0.17278	0.15731	0.13051	0.040153	0.030087	0.05571	-3.4583	-3.7979	-4.3396	-3.8125	-4.0938	-4.2604	-3.8292	-4.4125	-3.8292	-3.9646	-4.1917	-3.8625	-4.1625	-4.375	-3.8792	-4.3688	238.362	143.453	104.644	226.964	98.937	227.962	-49.694	221.629	57.500	295.276	27.763	-31.466	218.260	-45.842	214.627	280.344	0.00075228	0.0002188	7.1235e-05	1040.7	2.1071e-06	1.8436e-06	1155.2	427.08	1.8602e-06	1.821e-06	516.24	215.69	175.42	78.617	1.3966e-06	106.4	2.2632e-05	1.8017e-05	4.4994e-06	884.64	2.0717e-07	1.9616e-07	957.61	335.83	2.1744e-07	2.0139e-07	386.43	162.9	134.12	59.553	1.9231e-07	77.08	80.311	6.465	34.539	-44.567	94.556	64.809	-46.184	-39.319	70.206	82.517	-42.022	-37.523	-34.845	-29.618	68.512	-32.690	-8191	255	
2683.235	1	1	0	0	0.32172	0.12537	0.19121	0.29966	0.20944	0.21338	0.032045	0.12142	0.13849	0.16943	0.097772	0.23306	0.054541	0.11005	0.15887	0.13781	-3.5312	-3.6208	-4.3313	-3.8667	-4.0271	-4.2167	-3.7229	-4.3333	-3.8312	-3.6667	-4.4208	-3.8396	-4.0667	-4.2458	-3.4375	-4.4146	82.742	-50.035	270.113	-16.751	-55.093	1.268	-7.609	64.558	143.280	153.375	300.604	88.666	243.504	237.177	104.336	222.664	0.00074577	0.00018618	7.8611e-05	1027.6	3.3688e-06	2.8e-06	1133.8	421.47	2.0374e-06	1.4772e-06	509.45	211.97	172.78	77.16	1.3818e-06	104.97	2.3862e-05	1.7933e-05	4.4062e-06	874.13	2.0627e-07	1.7692e-07	940.82	330.73	1.8972e-07	1.6571e-07	380.87	159.7	131.79	58.347	1.523e-07	75.865	79.629	17.312	26.279	-44.638	72.460	67.307	-46.272	-39.469	58.719	69.062	-41.936	-37.505	-34.790	-29.891	68.087	-33.131	-8191	255	
2683.329	1	1	0	0	0.23139	0.099486	0.052101	0.12653	0.091824	0.14355	0.10352	0.29246	0.20819	0.26169	0.19052	0.081856	0.26332	0.29212	0.035985	0.35668	-3.6479	-3.7687	-4.2625	-4.0229	-3.9771	-4.2896	-3.6167	-4.3896	-4.0417	-3.6458	-4.2729	-4.0542	-3.8792	-4.4479	-3.5604	-4.3479	261.062	297.072	-19.457	62.566	76.241	245.022	274.081	159.366	39.318	28.235	301.050	130.101	-43.763	256.775	8.414	224.931	0.00074377	0.0001759	4.0745e-05	1025.2	2.1104e-06	1.7053e-06	1144.1	420.32	5.6634e-07	1.6652e-06	511.21	212.75	173.04	76.774	1.1544e-06	104.95	1.9553e-05	1.3928e-05	3.5192e-06	873.6	1.6277e-07	1.4394e-07	946.92	330.17	1.5323e-07	1.3553e-07	382.3	160.22	131.51	57.955	1.3096e-07	75.908	86.732	21.880	11.890	-44.774	71.640	60.340	-46.030	-39.750	85.570	98.270	-41.723	-37.297	-34.740	-29.942	96.183	-33.320	-8191	255	
2683.427	1	1	0	0	0.01112	0.12159	0.2129	0.12743	0.25498	0.089452	0.089278	0.13524	0.13825	0.094712	0.37148	0.25807	0.050926	0.27794	0.029769	0.10272	-3.7604	-3.6188	-4.3021	-3.95	-3.8479	-4.3333	-3.7875	-4.1146	-4.1708	-3.7125	-4.5375	-4.1125	-3.7	-4.4271	-3.6771	-4.1417	198.294	184.777	176.719	293.851	95.910	143.474	181.354	-25.305	56.818	-50.060	233.670	251.302	248.570	206.484	61.794	273.489	0.00076788	0.00018596	6.6869e-05	1030.2	1.9674e-06	2.4066e-06	1153.3	422.89	1.9006e-06	1.5733e-06	516.73	213.31	172.16	76.198	1.504e-06	104.34	1.6848e-05	1.1849e-05	3.2178e-06	878.97	1.4332e-07	1.2662e-07	954.77	331.56	1.4108e-07	1.2499e-07	385.23	160.73	131.07	57.478	1.3126e-07	75.487	80.721	26.834	36.330	-44.721	80.657	63.161	-46.180	-39.668	77.936	95.033	-41.857	-37.700	-34.842	-29.978	99.778	-33.145	-8191	255	
2683.522	1	1	0	0	0.27621	0.10936	0.15097	0.13195	0.12831	0.1623	0.25705	0.19577	0.13874	0.32106	0.091844	0.093121	0.36768	0.12217	0.1073	0.013057	-3.7979	-3.5542	-4.0854	-4.1312	-3.6521	-4.2979	-3.7687	-4.1833	-4.1854	-3.5687	-4.2646	-4.1604	-3.7521	-4.4542	-3.8146	-3.9875	36.365	57.676	-11.139	290.859	99.136	-22.805	-43.235	222.485	-17.509	281.632	293.529	142.801	-37.001	-23.172	280.407	107.392	0.00072691	0.00022459	6.637e-05	1030.9	1.7387e-06	2.5213e-06	1141.7	421.33	9.049e-07	1.3895e-06	509.44	211.99	172.72	76.338	1.4621e-06	104.35	1.5528e-05	1.073e-05	3.2136e-06	873.4	1.2811e-07	1.1285e-07	945	330.39	1.3004e-07	1.152e-07	381.65	159.57	131.26	57.595	1.3506e-07	75.286	83.165	33.226	35.314	-44.710	87.676	75.136	-46.215	-39.492	115.018	75.175	-42.023	-37.508	-34.797	-29.820	79.092	-33.171	-8191	255	
#DATA ENDS
