BOXY.EXE: ISS Imagent and Oximeter Data Acquisition Program Version 0.80
Ascii Record File

#ACQ INFORMATION
2  Detector Channels 
16  External MUX Channels 
1  Auxiliary Channels 
5000  Waveform (CCF) Frequency (Hz)
1  Waveforms Skipped 
30  Waveforms Averaged 
1  Cycles Averaged 
16  Acquisitions per Waveform 
10.0806  Updata Rate (Hz) 

#FILE INFORMATION
TRUE -- External MUX Channel results are PARSED.
FALSE -- AC DC and Phase are NOT grouped.
TRUE -- Companion Program Settings File CREATED.
FALSE -- AC data not excluded
FALSE -- DC data not excluded
FALSE -- Phase data not excluded
FALSE -- Auxillary Chn. data not excluded
Tab delimiters

#CALIBRATION STATE
TRUE -- Waveform Calibration Values APPLIED.


#AUX CALIBRATION VALUES
Val Type	aux-1	

Term	1.0000e+00	
Factor	0.0000e+00	


#WF CALIBRATION VALUES
A = Detector Channel
Val Type	A-AC1	A-AC2	A-AC3	A-AC4	A-AC5	A-AC6	A-AC7	A-AC8	A-AC9	A-AC10	A-AC11	A-AC12	A-AC13	A-AC14	A-AC15	A-AC16	A-DC1	A-DC2	A-DC3	A-DC4	A-DC5	A-DC6	A-DC7	A-DC8	A-DC9	A-DC10	A-DC11	A-DC12	A-DC13	A-DC14	A-DC15	A-DC16	A-Ph1	A-Ph2	A-Ph3	A-Ph4	A-Ph5	A-Ph6	A-Ph7	A-Ph8	A-Ph9	A-Ph10	A-Ph11	A-Ph12	A-Ph13	A-Ph14	A-Ph15	A-Ph16	

Term	0.00000e+00	0.00000e+00	0.00000e+00	0.00000e+00	0.00000e+00	0.00000e+00	0.00000e+00	0.00000e+00	0.00000e+00	0.00000e+00	0.00000e+00	0.00000e+00	0.00000e+00	0.00000e+00	0.00000e+00	0.00000e+00	0.00000e+00	0.00000e+00	0.00000e+00	0.00000e+00	0.00000e+00	0.00000e+00	0.00000e+00	0.00000e+00	0.00000e+00	0.00000e+00	0.00000e+00	0.00000e+00	0.00000e+00	0.00000e+00	0.00000e+00	0.00000e+00	0.00000e+00	0.00000e+00	0.00000e+00	0.00000e+00	0.00000e+00	0.00000e+00	0.00000e+00	0.00000e+00	0.00000e+00	0.00000e+00	0.00000e+00	0.00000e+00	0.00000e+00	0.00000e+00	0.00000e+00	0.00000e+00	
Factor	1.00000e+00	1.00000e+00	1.00000e+00	1.00000e+00	1.00000e+00	1.00000e+00	1.00000e+00	1.00000e+00	1.00000e+00	1.00000e+00	1.00000e+00	1.00000e+00	1.00000e+00	1.00000e+00	1.00000e+00	1.00000e+00	1.00000e+00	1.00000e+00	1.00000e+00	1.00000e+00	1.00000e+00	1.00000e+00	1.00000e+00	1.00000e+00	1.00000e+00	1.00000e+00	1.00000e+00	1.00000e+00	1.00000e+00	1.00000e+00	1.00000e+00	1.00000e+00	X	X	X	X	X	X	X	X	X	X	X	X	X	X	X	X	

B = Detector Channel
Val Type	B-AC1	B-AC2	B-AC3	B-AC4	B-AC5	B-AC6	B-AC7	B-AC8	B-AC9	B-AC10	B-AC11	B-AC12	B-AC13	B-AC14	B-AC15	B-AC16	B-DC1	B-DC2	B-DC3	B-DC4	B-DC5	B-DC6	B-DC7	B-DC8	B-DC9	B-DC10	B-DC11	B-DC12	B-DC13	B-DC14	B-DC15	B-DC16	B-Ph1	B-Ph2	B-Ph3	B-Ph4	B-Ph5	B-Ph6	B-Ph7	B-Ph8	B-Ph9	B-Ph10	B-Ph11	B-Ph12	B-Ph13	B-Ph14	B-Ph15	B-Ph16	

Term	0.00000e+00	0.00000e+00	0.00000e+00	0.00000e+00	0.00000e+00	0.00000e+00	0.00000e+00	0.00000e+00	0.00000e+00	0.00000e+00	0.00000e+00	0.00000e+00	0.00000e+00	0.00000e+00	0.00000e+00	0.00000e+00	0.00000e+00	0.00000e+00	0.00000e+00	0.00000e+00	0.00000e+00	0.00000e+00	0.00000e+00	0.00000e+00	0.00000e+00	0.00000e+00	0.00000e+00	0.00000e+00	0.00000e+00	0.00000e+00	0.00000e+00	0.00000e+00	8.08205e+01	-1.29234e+02	-1.26031e+02	-1.81587e+02	-8.04158e+01	-6.70324e+01	-1.57320e+02	-1.62015e+02	-6.06783e+01	-6.54006e+01	-1.71053e+02	-1.72518e+02	-1.82789e+02	-1.76934e+02	-6.95614e+01	-1.49544e+02	
Factor	6.67383e-05	1.91415e-04	4.93186e-05	1.58798e-01	2.57486e-06	2.00385e-06	1.78873e-01	5.50616e-02	3.22509e-06	1.97440e-06	8.99765e-02	3.70833e-02	3.90633e-02	9.87122e-03	2.25571e-06	1.39431e-02	2.65282e-05	5.58230e-05	1.57463e-05	8.19480e-02	4.79595e-07	6.43249e-07	8.68198e-02	2.84307e-02	4.90733e-07	6.41705e-07	4.53190e-02	1.86095e-02	2.03683e-02	5.15739e-03	5.46992e-07	7.08478e-03	X	X	X	X	X	X	X	X	X	X	X	X	X	X	X	X	



#DISTANCE SETTINGS
A = Detector Channel
A-1	A-2	A-3	A-4	A-5	A-6	A-7	A-8	A-9	A-10	A-11	A-12	A-13	A-14	A-15	A-16	

2.5000e+00	3.0000e+00	2.5000e+00	3.0000e+00	2.0000e+00	3.0000e+00	1.5000e+00	3.0000e+00	3.0000e+00	3.0000e+00	3.0000e+00	3.0000e+00	3.0000e+00	3.0000e+00	1.5000e+00	3.0000e+00	

B = Detector Channel
B-1	B-2	B-3	B-4	B-5	B-6	B-7	B-8	B-9	B-10	B-11	B-12	B-13	B-14	B-15	B-16	

1.0000e+01	1.0000e+01	1.0000e+01	1.4400e+00	1.0000e+01	1.0000e+01	1.5100e+00	1.9400e+00	1.0000e+01	1.0000e+01	1.9900e+00	2.4900e+00	2.4100e+00	2.9000e+00	1.0000e+01	2.9800e+00	




#DATA BEGINS
time	group	step	mark	flag	A-AC1	A-AC2	A-AC3	A-AC4	A-AC5	A-AC6	A-AC7	A-AC8	A-AC9	A-AC10	A-AC11	A-AC12	A-AC13	A-AC14	A-AC15	A-AC16	A-DC1	A-DC2	A-DC3	A-DC4	A-DC5	A-DC6	A-DC7	A-DC8	A-DC9	A-DC10	A-DC11	A-DC12	A-DC13	A-DC14	A-DC15	A-DC16	A-Ph1	A-Ph2	A-Ph3	A-Ph4	A-Ph5	A-Ph6	A-Ph7	A-Ph8	A-Ph9	A-Ph10	A-Ph11	A-Ph12	A-Ph13	A-Ph14	A-Ph15	A-Ph16	B-AC1	B-AC2	B-AC3	B-AC4	B-AC5	B-AC6	B-AC7	B-AC8	B-AC9	B-AC10	B-AC11	B-AC12	B-AC13	B-AC14	B-AC15	B-AC16	B-DC1	B-DC2	B-DC3	B-DC4	B-DC5	B-DC6	B-DC7	B-DC8	B-DC9	B-DC10	B-DC11	B-DC12	B-DC13	B-DC14	B-DC15	B-DC16	B-Ph1	B-Ph2	B-Ph3	B-Ph4	B-Ph5	B-Ph6	B-Ph7	B-Ph8	B-Ph9	B-Ph10	B-Ph11	B-Ph12	B-Ph13	B-Ph14	B-Ph15	B-Ph16	aux-1	digaux	

32249.031	1	1	0	256	0.031488	0.14452	0.15756	0.23314	0.079528	0.074566	0.079824	0.29826	0.21682	0.16799	0.13585	0.19776	0.18153	0.11443	0.28779	0.089323	-4.0979	-4.4792	-4.0771	-4.5646	-4.3771	-4.15	-4.7667	-4.3417	-4.5542	-4.6833	-4.2125	-4.7146	-4.5188	-4.2042	-4.7458	-4.2979	-84.153	-72.266	153.890	234.189	184.676	-67.983	132.119	208.974	-79.231	84.565	90.980	222.441	182.789	240.885	34.217	126.810	0.00075641	0.00044707	0.00013402	1470.3	4.3797e-06	6.0087e-06	1461.3	377.36	5.4596e-06	5.3469e-06	440.87	148.01	128.68	44.119	6.3429e-06	54.33	0.00065972	0.00066127	0.00019457	1489.9	7.068e-06	7.7163e-06	1479.6	384.58	7.2475e-06	7.032e-06	447.86	151.21	131.93	45.119	7.0892e-06	55.729	48.649	-5.898	-14.995	-91.716	37.921	44.161	-91.827	-87.266	10.737	47.699	-87.472	-83.527	-82.916	-78.370	41.374	-79.003	-8191	255	
32249.104	1	1	0	0	0.045504	0.094601	0.15102	0.21935	0.20033	0.17375	0.22877	0.18001	0.03922	0.035925	0.21008	0.065725	0.07244	0.27733	0.24242	0.053328	-4.0646	-4.5917	-4.0917	-4.7688	-4.525	-4.1979	-4.8375	-4.375	-4.2896	-4.7937	-4.2271	-4.5792	-4.6813	-4.2667	-4.7271	-4.3708	194.463	82.693	72.526	206.130	-29.008	-17.104	182.883	198.698	46.135	158.341	118.930	153.197	-12.652	248.003	-24.548	59.634	0.0007585	0.00063412	0.00017278	1471	5.9485e-06	5.6323e-06	1461.4	376.92	8.435e-06	4.3322e-06	438.41	149.06	129.51	43.824	3.7782e-06	54.118	0.00066442	0.00068581	0.00019742	1491.8	7.2079e-06	7.5072e-06	1486.4	384.89	7.8568e-06	7.544e-06	447.56	151.77	132.01	45.046	7.3969e-06	55.762	46.231	-16.176	-16.144	-91.767	18.352	51.663	-91.798	-86.921	6.009	22.153	-87.803	-83.617	-82.836	-77.930	31.032	-78.904	-8191	255	
32249.199	1	1	0	0	0.17368	0.094961	0.0733	0.18995	0.072222	0.11927	0.23964	0.21439	0.086092	0.1235	0.15998	0.20229	0.1736	0.032678	0.052419	0.23242	-3.8479	-4.7042	-3.9417	-4.6687	-4.5375	-4.0917	-4.6833	-4.3292	-4.2875	-4.5938	-4.175	-4.5896	-4.7125	-4.2271	-4.6333	-4.4542	60.868	133.481	4.371	195.647	217.079	212.096	223.541	247.675	112.821	28.908	238.017	-89.150	63.697	175.633	76.081	182.085	0.00077215	0.00036831	0.00013937	1472	5.8877e-06	5.5284e-06	1461.1	378.54	4.6424e-06	5.5206e-06	440.01	147.84	128.55	43.912	5.7386e-06	54.24	0.00067078	0.00068406	0.0001987	1492.9	7.4567e-06	8.0285e-06	1485.3	385.43	7.4387e-06	7.54e-06	448.46	151.26	131.9	45.068	7.0721e-06	55.769	49.310	4.282	-8.237	-91.738	9.624	48.147	-91.981	-87.063	-7.846	60.822	-87.610	-83.414	-83.059	-78.167	32.434	-79.047	-8191	255	
32249.297	1	1	0	0	0.15716	0.058808	0.23066	0.17535	0.090011	0.23859	0.15423	0.20198	0.038068	0.18874	0.13851	0.25853	0.1831	0.034208	0.094562	0.25007	-3.8875	-4.6312	-4.2583	-4.6375	-4.4396	-3.9938	-4.7792	-4.5104	-4.125	-4.7667	-4.4146	-4.3875	-4.7125	-4.3229	-4.6417	-4.6438	59.839	157.082	-79.155	184.990	33.417	67.919	205.714	195.962	60.331	56.839	-94.218	238.728	143.655	107.909	44.344	13.400	0.00075356	0.00057073	0.00010752	1473.5	4.8567e-06	4.7348e-06	1465.6	378.77	4.0514e-06	4.7916e-06	439.28	148.11	128.74	43.811	4.2274e-06	53.88	0.00067619	0.00070174	0.00019762	1492.7	7.3608e-06	8.5244e-06	1485.9	384.92	7.4377e-06	7.4665e-06	447.87	151.46	132.03	45.042	7.667e-06	55.718	46.384	-21.983	-13.584	-91.697	19.380	37.241	-91.828	-87.089	16.635	47.490	-87.544	-83.616	-82.899	-78.212	36.363	-78.817	-8191	255	
32249.414	1	1	0	0	0.29131	0.10908	0.12562	0.24411	0.10975	0.086874	0.29167	0.35864	0.15958	0.1526	0.25308	0.1326	0.1693	0.12189	0.25119	0.19042	-3.9062	-4.7729	-4.3458	-4.4812	-4.6937	-4.1937	-4.6896	-4.6875	-4.1438	-4.95	-4.3417	-4.4271	-4.8896	-4.1271	-4.5563	-4.6771	229.717	-18.346	-81.175	231.000	-49.901	-66.229	210.645	199.580	-3.070	181.318	218.110	-89.568	229.279	-100.565	31.495	235.354	0.00078684	0.00054807	0.00015786	1472.9	5.3237e-06	4.2331e-06	1467.4	378.35	6.3859e-06	5.3597e-06	440.77	148.46	129.38	43.743	3.0153e-06	53.995	0.00067492	0.00072	0.0002046	1492.9	7.082e-06	7.9696e-06	1486.3	385.54	7.6268e-06	7.6844e-06	448.39	151.48	132.11	45.065	7.4049e-06	55.751	47.429	-30.904	-11.005	-91.740	15.714	30.307	-91.703	-87.247	34.358	43.778	-87.492	-83.328	-82.732	-78.114	34.681	-79.176	-8191	255	
32249.512	1	1	0	0	0.029734	0.23198	0.063928	0.16672	0.13298	0.13044	0.14681	0.28927	0.24154	0.21902	0.10615	0.12939	0.11767	0.30921	0.10463	0.11237	-3.7292	-4.6833	-4.4979	-4.5437	-4.6375	-4.25	-4.8	-4.7625	-4.125	-4.7875	-4.5188	-4.4208	-4.8167	-4.4771	-4.4542	-4.8979	105.177	116.607	-82.030	-84.829	22.225	-17.763	220.959	196.814	160.066	74.650	237.886	143.965	214.244	200.612	-85.906	151.845	0.00071649	0.00051879	0.00014892	1475	6.1398e-06	6.2857e-06	1465.1	377.88	5.7522e-06	5.5515e-06	437.73	148.85	129.24	43.786	4.9215e-06	54.189	0.00067901	0.00070174	0.00019493	1494.3	7.2908e-06	8.0996e-06	1485.7	385.26	7.5368e-06	7.9652e-06	446.84	151.51	132.03	44.992	7.1417e-06	55.756	48.045	-11.637	-4.601	-91.826	20.475	43.343	-91.757	-87.274	11.391	59.292	-87.636	-83.412	-82.889	-78.178	44.932	-78.993	-8191	255	
32249.607	1	1	0	0	0.062105	0.071349	0.043179	0.32907	0.40226	0.1692	0.28706	0.11309	0.15066	0.11154	0.13641	0.076365	0.16001	0.14374	0.33571	0.11977	-3.8563	-4.625	-4.3625	-4.3958	-4.6958	-4.2042	-4.6208	-4.8167	-4.0417	-4.6271	-4.7021	-4.2937	-4.725	-4.45	-4.3167	-4.8125	71.257	-8.472	146.036	157.856	111.348	221.026	207.683	-103.609	153.571	-12.937	132.032	-105.151	227.354	-75.339	11.654	-43.282	0.00075473	0.00044804	0.00011441	1469.8	3.5433e-06	5.0474e-06	1460	377.51	6.249e-06	4.9417e-06	439.24	147.46	128.2	43.711	5.695e-06	53.998	0.00068365	0.00069011	0.00018403	1487.9	6.9361e-06	7.6815e-06	1479.9	384.47	7.3855e-06	7.1697e-06	446.69	151.04	131.81	44.967	7.0972e-06	55.634	46.513	-28.415	-1.129	-91.714	25.612	45.317	-91.827	-87.252	2.727	40.262	-87.679	-83.293	-83.013	-78.085	31.562	-78.969	-8191	255	
32249.703	1	1	0	0	0.043052	0.20582	0.2201	0.12609	0.036409	0.025604	0.16191	0.10991	0.12357	0.27553	0.21424	0.38156	0.053901	0.085287	0.14949	0.17036	-3.8896	-4.4875	-4.4917	-4.3396	-4.6438	-4.4104	-4.4646	-4.8208	-4.2562	-4.5521	-4.4979	-4.3146	-4.7667	-4.4458	-4.15	-4.7854	220.214	82.201	201.882	196.173	122.428	50.806	195.216	174.786	-3.710	131.078	-84.578	239.835	-75.178	180.010	-20.852	212.796	0.00085886	0.00061437	0.00015301	1466.2	1.9619e-06	4.385e-06	1455.8	375.88	5.6918e-06	5.8984e-06	436.66	147.47	128.88	43.74	5.5891e-06	54.07	0.00067857	0.00063417	0.00017541	1485	6.9032e-06	7.1709e-06	1477.1	383.59	7.3395e-06	7.266e-06	445.21	150.93	131.46	44.922	7.0482e-06	55.608	47.587	-9.115	-12.204	-91.531	18.676	46.000	-91.939	-87.130	26.616	50.276	-87.610	-83.618	-82.670	-78.156	29.436	-79.047	-8191	255	
32249.799	1	1	0	0	0.046694	0.17189	0.11762	0.15604	0.11666	0.019595	0.32835	0.33644	0.122	0.019334	0.064076	0.063662	0.11181	0.070466	0.24278	0.13144	-3.9146	-4.4958	-4.5188	-4.2521	-4.6542	-4.4896	-4.4979	-4.8667	-4.0042	-4.3521	-4.7667	-4.2125	-4.6125	-4.5437	-4.1979	-4.8292	58.021	229.389	97.808	221.029	-92.840	163.471	171.040	206.684	161.252	-36.312	180.974	-100.601	44.021	246.274	-91.575	-60.821	0.00073629	0.00055987	0.00012475	1467.2	4.905e-06	5.927e-06	1451.5	376.41	6.5493e-06	4.6849e-06	437.54	147.55	128.81	43.768	5.3251e-06	53.774	0.00066381	0.00067115	0.00018492	1485.8	6.9901e-06	7.1441e-06	1475	383.77	7.2485e-06	7.4825e-06	445.34	150.82	131.75	44.9	7.259e-06	55.499	52.893	-26.301	-11.177	-91.592	13.803	33.668	-91.842	-87.072	6.887	40.920	-87.743	-83.463	-82.891	-78.115	24.763	-78.617	-8191	255	
32249.895	1	1	0	0	0.12786	0.04538	0.063319	0.15039	0.026249	0.184	0.036746	0.096969	0.15526	0.12359	0.20932	0.11693	0.044198	0.1989	0.09178	0.29623	-3.9562	-4.4667	-4.5292	-4.4042	-4.5417	-4.5083	-4.3187	-4.8354	-4.3104	-4.4437	-4.7771	-4.1937	-4.575	-4.6958	-4.1188	-4.8583	76.203	-50.057	102.342	237.809	18.672	76.494	-48.140	122.216	162.297	-71.958	110.740	123.912	177.479	-101.943	146.727	196.917	0.00074987	0.0006395	0.00014394	1462.4	4.7101e-06	4.8043e-06	1448.9	375.49	7.1079e-06	4.4887e-06	436.83	146.89	128.07	43.759	5.4781e-06	54.136	0.00064861	0.00063161	0.00017173	1480.6	6.8952e-06	6.7957e-06	1471.9	383.04	6.948e-06	7.1657e-06	445.11	150.56	131.4	44.84	7.3536e-06	55.577	46.098	-23.538	-20.871	-91.715	20.557	42.178	-91.794	-87.092	12.300	35.938	-87.806	-83.350	-82.785	-78.197	49.568	-78.890	-8191	255	
32249.990	1	1	0	0	0.14545	0.16693	0.034812	0.096655	0.10161	0.076123	0.21807	0.10225	0.33248	0.12471	0.15698	0.1001	0.06964	0.13344	0.31803	0.31165	-4.0104	-4.3458	-4.6521	-4.3104	-4.5958	-4.6458	-4.2375	-4.8688	-4.3667	-4.1875	-4.8958	-4.2792	-4.5896	-4.6917	-4.0813	-4.7812	-81.759	194.120	132.644	-55.750	222.063	-21.024	221.108	210.008	233.202	129.787	148.052	214.065	195.822	-101.162	-67.238	238.485	0.00074114	0.00042225	0.00011396	1462.5	5.4757e-06	4.5171e-06	1450	375.24	6.8629e-06	5.7827e-06	437.65	147.11	128.07	43.522	5.5766e-06	53.783	0.00065486	0.00068023	0.00017449	1480.2	6.8282e-06	7.0302e-06	1471.2	382.53	7.2036e-06	7.0868e-06	445.03	150.57	131.31	44.801	7.2727e-06	55.492	46.216	-19.478	-33.890	-91.609	29.622	35.398	-91.734	-87.140	-5.145	55.734	-87.665	-83.801	-82.742	-78.095	60.566	-78.868	-8191	255	
32250.111	1	1	0	0	0.15556	0.24295	0.15698	0.046325	0.078386	0.11354	0.39147	0.036009	0.061313	0.28093	0.18651	0.12336	0.21701	0.045642	0.21698	0.22235	-3.9521	-4.2583	-4.7896	-4.5188	-4.4146	-4.5292	-4.3958	-4.9688	-4.4854	-4.2229	-5.0104	-4.4729	-4.4146	-4.6958	-4.1875	-4.6979	29.751	5.856	187.977	180.866	-101.904	10.048	208.103	-96.271	186.142	15.807	201.696	170.446	225.360	59.198	-68.816	172.777	0.00077309	0.00049737	0.00012609	1461.3	3.4901e-06	4.7794e-06	1449.9	376.19	4.8996e-06	5.8593e-06	437.73	146.81	128.04	43.496	5.733e-06	53.799	0.00065873	0.00065639	0.00016616	1479.1	6.7893e-06	6.6951e-06	1471.7	382.95	6.9398e-06	7.1336e-06	445.96	150.36	131.28	44.796	7.1941e-06	55.494	45.606	-16.341	-7.977	-91.711	17.171	45.355	-91.758	-87.180	6.686	63.873	-87.391	-83.589	-83.112	-78.073	48.729	-78.954	-8191	255	
32250.207	1	1	0	0	0.16334	0.23497	0.052676	0.072149	0.049705	0.12457	0.219	0.12693	0.1463	0.31094	0.19052	0.12187	0.1653	0.28591	0.12232	0.032829	-4.4417	-4.1083	-4.675	-4.5396	-4.5417	-4.7792	-4.3792	-4.7438	-4.4104	-4.0792	-4.8521	-4.2917	-4.3979	-4.7708	-4.1813	-4.7042	221.146	142.024	126.490	184.610	-43.250	-97.725	210.789	253.518	106.407	3.660	-92.991	-24.668	182.729	199.485	231.843	-91.728	0.00085287	0.0005962	0.00016405	1458.6	4.4864e-06	5.0602e-06	1452.4	376.49	6.0378e-06	4.496e-06	437.18	146.99	128.59	43.693	5.0963e-06	53.816	0.00061927	0.00064138	0.00017203	1480	6.8722e-06	7.0422e-06	1473.8	382.83	6.723e-06	7.135e-06	445.25	150.52	131.32	44.857	7.1804e-06	55.438	48.010	-24.237	-6.106	-91.687	18.836	56.793	-91.838	-87.018	28.257	53.307	-87.796	-83.368	-82.712	-78.116	33.413	-78.863	-8191	255	
32250.303	1	1	0	0	0.056365	0.17358	0.23586	0.47233	0.14954	0.21879	0.32053	0.058128	0.21979	0.13532	0.39782	0.095756	0.057703	0.22062	0.030243	0.095021	-4.2042	-4.0833	-4.675	-4.6188	-4.2271	-4.7521	-4.35	-4.5375	-4.6146	-4.1771	-4.775	-4.5271	-4.425	-4.8562	-4.1771	-4.6479	77.386	-18.831	16.427	187.426	-46.316	171.716	158.209	182.610	74.526	104.164	203.405	237.689	174.171	14.519	-26.859	166.909	0.00075259	0.00052581	0.0001314	1460.9	5.5799e-06	5.7077e-06	1454.9	374.54	6.7552e-06	3.7105e-06	437.17	146.48	128.09	43.658	5.1629e-06	53.858	0.00063308	0.00064929	0.00016842	1480.8	6.9701e-06	6.9725e-06	1473.8	382.47	6.6331e-06	7.397e-06	444.88	150.38	131.09	44.811	6.9502e-06	55.529	48.625	-14.323	-13.292	-91.711	20.577	43.132	-91.784	-87.090	15.198	34.919	-87.770	-83.453	-82.996	-78.063	49.744	-78.889	-8191	255	
32250.400	1	1	0	0	0.1884	0.28116	0.30186	0.30808	0.096182	0.10958	0.14467	0.16616	0.10309	0.16	0.13367	0.26233	0.2468	0.38012	0.27763	0.098101	-4.3708	-4.1021	-4.4542	-4.7229	-4.1167	-4.8875	-4.5875	-4.3896	-4.7125	-4.1375	-4.7354	-4.5917	-4.3417	-4.8833	-4.3458	-4.3479	26.179	166.034	161.094	234.723	238.147	-100.347	196.652	-98.035	-18.470	48.922	146.072	198.471	244.080	211.878	-97.314	82.031	0.0007518	0.00063005	0.00014198	1457.7	5.6427e-06	5.229e-06	1446.1	376.91	6.678e-06	6.4108e-06	435.5	146.65	128.22	43.594	5.7039e-06	54.386	0.00061567	0.00067034	0.00017606	1477.9	6.7253e-06	6.5451e-06	1470.7	382.92	6.3979e-06	6.5026e-06	444.33	150.48	131.4	44.774	7.0596e-06	55.602	47.659	-22.641	-18.900	-91.726	9.603	43.700	-91.936	-87.056	11.727	51.079	-87.546	-83.621	-82.992	-78.093	34.590	-78.845	-8191	255	
32250.494	1	1	0	0	0.04003	0.28593	0.032098	0.16463	0.11658	0.15841	0.19484	0.0547	0.082201	0.020813	0.1079	0.30127	0.23995	0.11271	0.28613	0.22468	-4.5563	-4.0875	-4.6708	-4.7792	-4.1167	-4.6646	-4.4563	-4.4333	-4.8104	-4.1625	-4.6771	-4.7521	-4.1479	-4.7396	-4.4187	-4.3292	231.876	175.722	110.295	215.702	108.495	187.849	136.102	112.338	60.380	162.075	235.621	235.858	-89.144	-53.048	85.167	226.828	0.00073415	0.00047967	0.00013644	1455.5	5.684e-06	4.9962e-06	1448.8	376.96	5.8638e-06	7.5505e-06	437.35	146.98	128.64	43.764	4.4087e-06	53.958	0.00061678	0.00062603	0.00017127	1477.8	6.8672e-06	6.8332e-06	1471.6	382.85	6.6085e-06	7.4505e-06	445.18	150.36	131.23	44.844	6.679e-06	55.52	43.697	-31.056	-11.021	-91.691	26.986	52.641	-91.901	-87.109	16.286	53.050	-87.466	-83.360	-82.881	-78.269	52.044	-78.929	-8191	255	
32250.592	1	1	0	0	0.13065	0.05692	0.10367	0.17688	0.21175	0.11005	0.13054	0.15654	0.10286	0.10678	0.041717	0.20479	0.20583	0.10852	0.077581	0.06401	-4.4167	-4.3208	-4.4396	-4.6521	-4.2	-4.6979	-4.7438	-4.175	-4.8104	-4.1792	-4.6833	-4.6958	-4.1583	-4.6687	-4.4333	-4.3667	183.138	-64.409	-91.000	236.263	-91.217	107.868	224.922	196.452	-32.966	249.033	-15.287	-93.137	186.887	-42.440	142.206	46.675	0.00073245	0.00054693	0.0001294	1453.7	6.13e-06	3.4254e-06	1447.8	375.88	7.4584e-06	5.2725e-06	436.55	147.7	128.05	43.577	4.0822e-06	53.841	0.00062678	0.00060766	0.00016858	1475.1	6.9401e-06	6.4472e-06	1470.6	382.73	6.5308e-06	6.7285e-06	444.5	150.47	131.18	44.752	6.3975e-06	55.477	49.341	-5.961	-11.763	-91.611	31.859	50.992	-92.067	-87.054	5.667	45.525	-87.493	-83.135	-82.917	-78.058	44.854	-79.059	-8191	255	
32250.713	1	1	0	0	0.068932	0.10053	0.2278	0.23565	0.17612	0.25474	0.19642	0.079602	0.053387	0.1242	0.17496	0.19743	0.16669	0.11436	0.046418	0.15479	-4.4917	-4.2521	-4.3583	-4.875	-3.9417	-4.5375	-4.5604	-4.3542	-4.6562	-4.4292	-4.3688	-4.7542	-4.1604	-4.5813	-4.3812	-4.2771	-38.491	-96.905	149.953	198.013	-37.609	148.400	141.005	206.057	-42.017	136.036	-86.693	193.621	233.935	-82.323	239.792	21.130	0.00073985	0.00044354	0.000154	1454	3.6863e-06	4.0465e-06	1443.1	373.72	2.9022e-06	5.3148e-06	436.57	147.08	127.49	43.502	5.2849e-06	53.464	0.00062148	0.00062208	0.00016471	1474.3	6.8412e-06	6.4017e-06	1468.7	381.52	6.2292e-06	6.77e-06	444.48	150.02	130.75	44.737	6.6232e-06	55.269	49.456	-20.783	-6.530	-91.645	52.859	41.253	-91.765	-87.114	3.399	46.543	-87.530	-83.370	-83.052	-77.931	37.931	-79.129	-8191	255	
32250.809	1	1	0	0	0.15294	0.068216	0.11956	0.23497	0.060046	0.21828	0.1214	0.24017	0.10154	0.3928	0.22958	0.047454	0.043035	0.23276	0.17262	0.13661	-4.3708	-4.375	-4.2083	-4.9458	-4.2188	-4.5042	-4.8396	-4.225	-4.7979	-4.4271	-4.3271	-4.8333	-4.2188	-4.5271	-4.4625	-4.1417	226.446	-80.108	184.424	202.746	87.860	144.698	-76.875	185.847	179.501	115.165	-56.663	245.499	222.260	243.547	136.520	-99.176	0.00078621	0.00040776	0.00013168	1451.5	4.3939e-06	6.5962e-06	1442.6	375.51	5.6562e-06	5.2126e-06	435.06	146.7	127.84	43.797	3.8142e-06	53.678	0.00060761	0.00058602	0.00017009	1470.8	6.5585e-06	6.6791e-06	1465.3	381.68	6.2241e-06	6.8101e-06	442.86	150.01	130.69	44.703	6.1434e-06	55.343	46.697	-23.969	-4.939	-91.698	43.710	58.203	-91.836	-87.004	23.051	44.331	-87.808	-83.438	-83.052	-77.951	21.446	-78.890	-8191	255	
32250.904	1	1	0	0	0.16299	0.19451	0.23378	0.2458	0.071456	0.073151	0.19014	0.19375	0.21626	0.13175	0.074815	0.075136	0.041189	0.19506	0.13451	0.080886	-4.3792	-4.5354	-4.075	-4.8792	-4.2	-4.4	-4.8542	-4.2937	-4.5521	-4.5146	-4.2604	-4.8146	-4.3729	-4.5	-4.85	-4.3063	5.066	227.525	150.324	217.876	227.850	51.422	187.697	241.789	-26.833	155.623	-5.144	-92.101	51.470	202.267	-39.701	189.812	0.00076633	0.00058326	0.00013755	1451.9	6.6259e-06	5.4522e-06	1443.3	374.94	8.5298e-06	5.2851e-06	434.67	146.9	127.81	43.467	3.9293e-06	53.839	0.00060357	0.00056416	0.00017305	1471	6.8132e-06	6.6817e-06	1463.8	381.16	6.5145e-06	6.6978e-06	443.38	150.06	130.84	44.663	6.4716e-06	55.344	50.080	-13.554	-11.818	-91.630	25.177	51.131	-91.687	-87.156	29.257	53.992	-87.433	-83.353	-82.910	-78.157	37.701	-78.855	-8191	255	
32250.977	1	1	0	0	0.095245	0.12948	0.073294	0.3354	0.17383	0.12868	0.27772	0.14761	0.090522	0.13026	0.062875	0.090836	0.26724	0.23136	0.070813	0.051492	-4.2083	-4.4354	-4.1417	-4.8521	-4.4646	-4.3167	-4.8854	-4.2312	-4.4187	-4.6021	-4.1792	-4.7688	-4.2458	-4.4062	-4.6958	-4.2396	177.776	195.005	107.043	229.645	52.012	113.121	164.619	137.899	-84.789	230.580	-65.358	63.500	-86.787	149.849	182.588	-11.879	0.00076264	0.0004492	0.00012361	1447.6	3.0997e-06	5.3833e-06	1442.1	373.23	5.3951e-06	5.2481e-06	434.13	146.32	127.78	43.582	3.9207e-06	53.529	0.00060689	0.00058033	0.00017495	1468.9	6.5325e-06	7.0315e-06	1463.8	380.74	6.2589e-06	6.4424e-06	443.19	149.93	130.82	44.706	6.369e-06	55.347	49.537	-20.038	-13.495	-91.602	34.688	42.117	-91.814	-86.866	21.993	54.397	-87.459	-83.235	-82.829	-78.222	36.240	-78.983	-8191	255	
32251.096	1	1	0	0	0.20656	0.1691	0.13552	0.5289	0.071166	0.27652	0.21239	0.13029	0.086966	0.23831	0.19035	0.15889	0.10333	0.3089	0.11063	0.08478	-4.1417	-4.625	-4.1917	-4.8708	-4.3667	-4.2146	-4.9042	-4.3646	-4.4896	-4.6979	-4.3333	-4.7479	-4.5188	-4.1229	-4.8229	-4.3	-33.089	72.917	150.475	217.012	136.232	214.758	248.923	90.377	17.633	-91.291	-34.197	227.119	177.579	193.390	188.902	88.629	0.00077814	0.00057018	0.00018317	1448.5	5.2775e-06	5.9897e-06	1438.4	373.35	4.5936e-06	4.779e-06	435.07	147.19	127.75	43.44	5.105e-06	53.708	0.00063237	0.00058696	0.00017875	1468	6.4915e-06	6.5759e-06	1461.5	380.44	6.6055e-06	6.3342e-06	442.88	150.12	130.72	44.649	6.6243e-06	55.348	50.934	-20.635	-18.246	-91.570	23.676	57.531	-91.898	-86.871	6.974	31.797	-87.627	-83.600	-82.845	-78.256	36.490	-79.006	-8191	255	
32251.191	1	1	0	0	0.099901	0.0052585	0.20954	0.17933	0.13196	0.27506	0.21001	0.12363	0.10324	0.13697	0.23615	0.23683	0.13573	0.10531	0.042283	0.12629	-4.0062	-4.6542	-4.1854	-4.8271	-4.4417	-4.325	-4.9938	-4.4083	-4.3417	-4.6125	-4.2792	-4.6375	-4.6104	-4.1708	-4.7792	-4.3479	107.867	214.122	-56.261	199.951	224.294	140.923	248.900	-80.225	252.812	233.145	239.218	224.250	-31.162	-2.096	-98.841	225.188	0.00078983	0.00047428	0.00010574	1445.5	3.8418e-06	5.3401e-06	1444	373.79	2.5351e-06	6.2704e-06	434.88	146.3	127.8	43.299	5.7586e-06	53.463	0.00063165	0.0005944	0.00017593	1467	6.3147e-06	7.0985e-06	1464.3	381.02	6.5707e-06	6.9772e-06	442.77	149.73	130.67	44.632	6.3645e-06	55.23	46.964	-32.695	-7.384	-91.735	8.474	49.881	-91.852	-87.125	12.616	50.915	-87.552	-83.497	-82.893	-78.169	20.082	-78.920	-8191	255	
32251.289	1	1	0	0	0.12184	0.22579	0.055362	0.19495	0.055543	0.14983	0.20014	0.024649	0.079552	0.26638	0.12078	0.20391	0.1333	0.099097	0.14057	0.11658	-3.7396	-4.7208	-4.1583	-4.7312	-4.6583	-3.9229	-5.0146	-4.3625	-4.3042	-4.7583	-4.2458	-4.4667	-4.5792	-4.05	-4.5875	-4.4333	164.443	111.682	72.868	205.634	-50.669	235.919	197.006	231.341	150.168	57.695	175.476	110.384	-88.974	222.430	12.613	253.582	0.00080809	0.00048967	0.00012981	1449.3	4.3472e-06	4.4406e-06	1442.7	374.44	7.7943e-06	5.5986e-06	435.23	146.61	127.29	43.545	4.2024e-06	53.735	0.00063209	0.000583	0.00018105	1469.9	6.5345e-06	6.9538e-06	1463.3	381.1	6.9173e-06	6.3449e-06	442.29	149.77	130.5	44.67	6.7029e-06	55.323	43.578	-15.634	-9.976	-91.674	21.693	32.755	-91.727	-87.026	28.917	43.037	-87.507	-83.329	-82.865	-78.003	61.630	-79.120	-8191	255	
32251.385	1	1	0	0	0.034771	0.035411	0.1891	0.34227	0.20208	0.065108	0.38452	0.15495	0.16505	0.21625	0.082913	0.17216	0.14657	0.20027	0.069724	0.067706	-3.8375	-4.6229	-4.1896	-4.5146	-4.475	-4.075	-5.05	-4.5687	-4.2063	-4.9042	-4.1604	-4.4854	-4.6125	-4.0708	-4.6	-4.5312	46.035	186.286	244.990	-73.211	93.910	-0.374	233.637	-81.221	0.568	140.452	199.721	204.581	139.790	-69.366	225.241	185.705	0.00067984	0.00051833	0.00014657	1448.9	5.1687e-06	5.0469e-06	1439.3	372.21	6.9106e-06	5.3745e-06	434.25	146.21	127.8	43.425	5.7705e-06	53.748	0.00062203	0.00060975	0.00017488	1468.5	6.2787e-06	7.1628e-06	1462.4	380.16	6.7292e-06	6.4785e-06	443.05	149.83	130.5	44.641	6.6357e-06	55.256	42.329	-13.821	-23.001	-91.617	26.557	39.448	-91.770	-86.997	-16.623	35.636	-87.660	-83.328	-82.709	-78.006	48.219	-78.863	-8191	255	
32251.504	1	1	0	0	0.23974	0.30678	0.034743	0.065885	0.2027	0.18617	0.016266	0.12364	0.18579	0.080258	0.14715	0.22673	0.27401	0.16536	0.081866	0.13869	-3.7083	-4.7125	-4.2396	-4.3063	-4.8479	-4.1625	-4.8375	-4.6542	-4.0854	-4.7104	-4.5667	-4.2667	-4.7937	-4.1458	-4.5917	-4.6625	-30.344	236.010	142.415	209.474	196.254	215.277	-39.868	227.653	138.882	-45.021	209.397	101.792	226.676	227.250	17.604	181.109	0.00073032	0.00041083	0.00013036	1450.3	4.4269e-06	6.1163e-06	1438.6	372.78	6.1445e-06	4.8214e-06	435.25	146.34	128	43.316	5.2806e-06	53.663	0.00065353	0.00058149	0.00016619	1467.8	6.4925e-06	7.191e-06	1462.2	380.82	7.0022e-06	6.9211e-06	443.64	149.7	130.66	44.622	6.7656e-06	55.355	47.434	-1.859	3.801	-91.713	34.304	41.740	-91.842	-86.979	3.683	39.660	-87.541	-83.333	-82.536	-78.180	27.983	-78.812	-8191	255	
32251.600	1	1	0	0	0.14285	0.3213	0.091665	0.20328	0.141	0.25457	0.24896	0.17867	0.25037	0.20106	0.08308	0.14404	0.095186	0.22172	0.19853	0.12885	-3.8438	-4.6396	-4.5167	-4.4708	-4.7167	-4.1292	-4.6813	-4.7333	-4.2438	-4.7417	-4.5604	-4.3417	-4.7937	-4.2833	-4.4479	-4.6625	60.220	24.113	32.458	180.708	83.555	-73.200	-17.870	222.199	176.026	-52.594	127.447	211.333	-103.207	241.640	-23.327	-67.728	0.00077164	0.00047838	0.00011691	1445.2	6.1407e-06	5.3429e-06	1440.9	372.8	5.0556e-06	5.07e-06	433.48	146.46	127.59	43.48	5.3879e-06	53.91	0.00063181	0.00059731	0.00016386	1467.5	6.5695e-06	6.6898e-06	1460.9	380.33	7.0502e-06	6.2165e-06	442.73	149.79	130.3	44.615	6.6118e-06	55.24	48.672	-3.297	-2.908	-91.702	33.104	50.313	-91.884	-87.063	43.358	51.849	-87.570	-83.333	-82.757	-77.939	37.146	-78.776	-8191	255	
32251.674	1	1	0	0	0.066126	0.078676	0.14516	0.09785	0.0672	0.12956	0.18742	0.24607	0.087479	0.17379	0.099405	0.17749	0.13656	0.12376	0.21677	0.051051	-3.7542	-4.7625	-4.5521	-4.4938	-4.7312	-4.0458	-4.5708	-4.7063	-4.075	-4.7021	-4.5667	-4.3375	-4.6708	-4.4104	-4.3063	-4.8625	188.452	46.988	-37.117	130.587	54.720	-59.425	-89.553	205.614	32.696	154.907	243.267	170.107	234.930	187.775	111.654	-38.862	0.00078404	0.0006014	0.00014873	1447.7	5.4579e-06	4.6622e-06	1441.9	373.22	6.5612e-06	6.1566e-06	433.47	146.51	127.4	43.533	4.4428e-06	53.437	0.00063717	0.00060661	0.00017268	1467.3	6.5195e-06	6.6161e-06	1461.4	380.19	6.9653e-06	6.5106e-06	442.45	149.84	130.31	44.614	6.6334e-06	55.192	47.724	-24.768	-15.837	-91.520	1.249	54.134	-91.911	-86.936	37.012	48.268	-87.616	-83.343	-82.843	-78.047	18.038	-78.991	-8191	255	
32251.793	1	1	0	0	0.20214	0.073805	0.10066	0.31107	0.14856	0.15149	0.24639	0.06158	0.17384	0.21148	0.12495	0.27803	0.25198	0.13955	0.072707	0.32475	-3.7	-4.5312	-4.4187	-4.4042	-4.6292	-4.2979	-4.4708	-4.7667	-4.1542	-4.4729	-4.6354	-4.225	-4.7833	-4.4979	-4.1792	-4.7917	80.841	121.089	-0.121	206.975	17.122	81.785	158.822	232.031	21.094	22.766	246.370	197.150	139.163	126.645	39.429	233.189	0.0007762	0.00058283	0.00016492	1444.5	3.7525e-06	5.2634e-06	1436.6	373.7	5.3622e-06	6.4502e-06	434.66	146.57	126.95	43.409	5.2845e-06	53.646	0.00064679	0.00059277	0.0001719	1467	6.3337e-06	6.4419e-06	1460.2	380.31	6.8181e-06	6.7058e-06	442.43	149.63	130.15	44.592	6.6175e-06	55.204	43.048	-4.164	-10.308	-91.574	10.135	46.040	-91.658	-87.192	26.843	51.581	-87.586	-83.373	-82.724	-78.118	31.623	-78.739	-8191	255	
32251.889	1	1	0	0	0.19055	0.21779	0.14129	0.19879	0.16133	0.15944	0.14396	0.32913	0.091717	0.15794	0.19093	0.16591	0.053988	0.094331	0.20141	0.2215	-3.8354	-4.5208	-4.4875	-4.2396	-4.5354	-4.3	-4.5188	-4.825	-4.2125	-4.4021	-4.8292	-4.0563	-4.6542	-4.5104	-4.2	-4.8771	14.337	-45.238	-11.509	204.645	122.444	130.178	185.288	154.871	29.920	54.377	182.029	-99.449	156.282	142.529	-0.951	93.223	0.00069562	0.00048203	0.00016984	1443	3.4346e-06	5.0087e-06	1437.4	372.62	2.8491e-06	5.5784e-06	434.52	146.18	126.95	43.448	4.5273e-06	53.536	0.00062573	0.00058637	0.00016265	1463.6	6.4556e-06	6.2449e-06	1459.4	380.22	6.6832e-06	6.6082e-06	442.58	149.6	130.01	44.573	6.687e-06	55.211	42.499	-12.225	-18.356	-91.615	27.049	43.222	-91.879	-87.101	21.788	49.719	-87.392	-83.371	-82.664	-77.823	34.584	-78.991	-8191	255	
32251.984	1	1	0	0	0.13405	0.28492	0.073779	0.37883	0.058917	0.10657	0.18111	0.21505	0.20837	0.22929	0.1581	0.11146	0.25114	0.13675	0.043392	0.064543	-3.9062	-4.3521	-4.3187	-4.1271	-4.5958	-4.3854	-4.3833	-4.7646	-4.2833	-4.4667	-4.7021	-4.1042	-4.5708	-4.5479	-4.1396	-4.7958	-78.330	-24.724	152.259	196.126	2.451	221.649	205.018	221.007	193.533	-46.682	214.497	15.958	211.734	-83.576	-17.884	-93.833	0.00073128	0.00057887	0.00012507	1444.4	4.8172e-06	4.1871e-06	1441.3	372.61	5.1205e-06	5.5575e-06	432.34	146.14	127.81	43.292	5.2004e-06	53.698	0.00062374	0.00059882	0.00016274	1463.9	6.1658e-06	6.2636e-06	1460	380.25	6.539e-06	6.1056e-06	441.91	149.66	130.51	44.524	6.5799e-06	55.252	46.501	-14.631	-20.738	-91.788	56.934	40.345	-91.766	-87.037	22.092	37.327	-87.688	-83.317	-82.767	-77.963	29.295	-78.970	-8191	255	
32252.080	1	1	0	0	0.45904	0.11888	0.17659	0.09584	0.052988	0.053136	0.26377	0.38309	0.080939	0.094261	0.076249	0.11886	0.14827	0.10079	0.11057	0.067501	-3.8896	-4.2417	-4.7583	-4.2896	-4.4854	-4.4271	-4.2375	-4.8667	-4.4292	-4.35	-4.8938	-4.1792	-4.7063	-4.7562	-4.0813	-4.7417	174.794	188.497	177.355	190.492	72.242	-1.330	126.502	209.490	143.777	-52.324	195.825	76.957	163.604	-95.801	-100.180	106.005	0.00075086	0.00065322	0.00013986	1445.5	4.4943e-06	6.2159e-06	1431.6	372.88	4.431e-06	5.6223e-06	434.53	146.38	127.38	43.341	3.8862e-06	53.572	0.00060772	0.00058893	0.00016179	1464.6	6.3037e-06	6.3186e-06	1458.1	379.81	6.4675e-06	6.647e-06	441.97	149.39	130.06	44.592	6.6311e-06	55.213	45.157	-16.206	-15.938	-91.589	23.500	46.492	-91.889	-87.057	30.583	53.885	-87.405	-83.598	-83.009	-78.077	37.656	-78.936	-8191	255	
32252.201	1	1	0	0	0.17299	0.13498	0.062579	0.23558	0.0069706	0.2001	0.1134	0.054042	0.091217	0.062743	0.16874	0.026878	0.2768	0.073007	0.093333	0.083433	-4.0458	-4.2271	-4.7333	-4.4042	-4.5417	-4.6562	-4.4292	-4.7417	-4.4563	-4.0917	-4.8562	-4.3063	-4.4688	-4.7354	-4.0771	-4.7521	232.118	195.710	95.817	211.130	-29.986	29.082	147.293	-1.355	251.390	170.750	-103.409	2.932	209.836	226.784	71.695	-32.518	0.00077553	0.00053765	0.00015939	1443.5	4.8597e-06	4.6371e-06	1437.4	371.87	7.0017e-06	5.7824e-06	433.76	146.61	126.5	43.364	5.8427e-06	53.792	0.00060169	0.00061091	0.00015848	1464.1	6.2787e-06	6.3065e-06	1457.5	379.84	6.2027e-06	6.6149e-06	441.5	149.53	129.96	44.566	6.5856e-06	55.282	47.197	-15.559	-11.541	-91.680	41.998	35.451	-91.904	-87.049	12.343	60.546	-87.584	-83.617	-82.913	-77.919	34.754	-78.847	-8191	255	
32252.273	1	1	0	0	0.048253	0.074876	0.1843	0.2887	0.11729	0.20583	0.1525	0.3602	0.17336	0.10018	0.11289	0.26095	0.13262	0.04725	0.25548	0.27746	-4.2063	-4.1542	-4.6958	-4.4333	-4.3875	-4.5687	-4.3417	-4.6687	-4.425	-4.2333	-4.7875	-4.3729	-4.2708	-4.7896	-4.1542	-4.6021	-97.776	252.546	162.813	185.095	-100.780	-83.523	200.179	194.873	180.011	3.911	252.072	-102.088	206.203	54.011	148.111	196.309	0.00076218	0.00052921	0.00016952	1442.7	4.9259e-06	5.0683e-06	1443.9	372.61	5.5333e-06	4.3084e-06	433.43	145.56	127.71	43.53	4.4312e-06	53.781	0.0006207	0.00062789	0.00016127	1462.7	6.7323e-06	6.3561e-06	1459.9	380.1	6.3366e-06	6.4812e-06	442	149.35	130.51	44.601	6.3736e-06	55.234	49.567	-19.432	-23.560	-91.510	16.912	45.557	-91.793	-86.897	18.042	35.266	-87.574	-83.337	-82.717	-78.022	38.346	-78.857	-8191	255	
32252.393	1	1	0	0	0.096767	0.18961	0.21849	0.16161	0.10311	0.4718	0.22993	0.32039	0.068292	0.09904	0.1941	0.25991	0.16217	0.14829	0.12573	0.099076	-4.1708	-4.225	-4.5854	-4.5646	-4.1438	-4.8458	-4.2667	-4.4271	-4.425	-4.0042	-4.7854	-4.5354	-4.1667	-4.9062	-4.2188	-4.5375	131.848	216.951	228.377	201.267	-6.756	-84.030	194.084	204.158	160.480	40.132	-57.809	196.223	235.267	122.770	86.764	125.189	0.00071445	0.00047467	0.00015778	1443.4	3.8983e-06	3.1675e-06	1437.2	372.94	7.3482e-06	5.8395e-06	432.53	146.01	127.67	43.387	3.2004e-06	53.436	0.00058854	0.000598	0.00015549	1463.8	6.5105e-06	6.2543e-06	1458.2	379.86	6.0974e-06	6.9037e-06	441.42	149.43	130.22	44.602	6.1217e-06	55.13	46.688	-24.542	-26.748	-91.692	11.702	35.285	-91.997	-87.118	1.280	52.433	-87.510	-83.372	-82.878	-78.208	36.886	-78.780	-8191	255	
32252.490	1	1	0	0	0.21895	0.28603	0.29898	0.20901	0.049547	0.11879	0.19441	0.33511	0.10306	0.11036	0.075005	0.01452	0.10526	0.27932	0.026185	0.11669	-4.3354	-4.025	-4.6375	-4.6146	-4.1167	-4.625	-4.4688	-4.5542	-4.7479	-4.0646	-4.925	-4.4896	-4.0042	-4.7562	-4.4458	-4.6146	71.941	-73.329	-1.798	246.965	-76.372	-65.799	156.799	234.885	-26.927	4.765	-36.336	235.985	66.648	-87.268	-101.932	183.745	0.00078231	0.00053763	0.00016467	1441.9	4.9585e-06	4.5707e-06	1436.2	373.07	7.2832e-06	4.1302e-06	433.63	147	126.92	43.478	5.126e-06	53.603	0.00059512	0.00059731	0.00015471	1462.4	6.6494e-06	5.5413e-06	1457.7	380.01	6.0391e-06	6.5614e-06	441.55	149.73	130.07	44.585	6.1423e-06	55.267	49.192	-11.482	-14.318	-91.578	34.704	61.619	-91.687	-87.083	13.191	56.389	-87.674	-83.531	-82.978	-77.937	35.905	-78.658	-8191	255	
32252.584	1	1	0	0	0.20908	0.12078	0.2376	0.16553	0.038634	0.016188	0.33092	0.087096	0.051628	0.10355	0.2368	0.027837	0.18136	0.21838	0.054082	0.12173	-4.3417	-4.1562	-4.5312	-4.7063	-4.1229	-4.6479	-4.5771	-4.3708	-4.6479	-4.1458	-4.6188	-4.6354	-4.3583	-4.9042	-4.3771	-4.3604	247.988	211.766	204.210	199.040	-79.724	116.315	201.225	180.461	143.645	108.760	199.936	114.331	217.534	-96.987	248.879	117.843	0.00075604	0.00041015	0.00015524	1441.6	5.2443e-06	4.7324e-06	1434.7	371.17	4.7511e-06	4.0347e-06	433.35	146	127.37	43.404	4.4195e-06	53.582	0.00061065	0.00058451	0.0001695	1460.2	6.3247e-06	5.9581e-06	1455	378.96	6.0401e-06	6.2954e-06	440.81	149.65	130.27	44.535	6.3029e-06	55.173	46.352	-15.049	-8.992	-91.659	19.269	62.552	-91.981	-87.115	7.731	46.832	-87.700	-83.413	-82.901	-78.119	42.775	-79.194	-8191	255	
32252.680	1	1	0	0	0.073868	0.25697	0.053253	0.21177	0.1087	0.21073	0.16175	0.16023	0.12163	0.06489	0.18096	0.049663	0.10982	0.17947	0.15633	0.20425	-4.5104	-4.1104	-4.4146	-4.7625	-4.1229	-4.55	-4.4354	-4.3292	-4.7646	-4.2271	-4.5	-4.6583	-4.05	-4.6167	-4.3792	-4.2479	160.877	-8.365	-91.265	214.592	40.977	103.707	193.314	219.844	227.061	41.322	239.480	219.677	41.754	246.138	-99.591	103.895	0.00076195	0.0004648	0.00013642	1440.2	4.9622e-06	4.6167e-06	1435.5	372.13	6.4321e-06	5.1053e-06	434.03	145.88	126.87	43.312	5.2876e-06	53.601	0.00059882	0.00058451	0.00016465	1460.3	6.5844e-06	5.9822e-06	1456.3	379.09	6.1812e-06	5.9852e-06	441.63	149.31	129.96	44.462	6.2015e-06	55.141	48.767	-12.479	-13.956	-91.600	30.417	44.325	-91.977	-87.019	17.800	35.641	-87.445	-83.600	-82.945	-78.055	12.170	-78.941	-8191	255	
32252.801	1	1	0	0	0.034154	0.17254	0.23738	0.22339	0.063273	0.14387	0.20779	0.24059	0.26133	0.13231	0.27515	0.19593	0.26334	0.17358	0.31322	0.15235	-4.3896	-4.3438	-4.45	-4.8646	-4.0146	-4.5458	-4.7188	-4.15	-4.7083	-4.3979	-4.5792	-4.5563	-4.2917	-4.6833	-4.6417	-4.2583	-65.021	57.680	-39.316	212.594	185.969	78.481	216.943	199.035	105.539	119.506	191.447	202.154	247.599	-61.196	73.908	160.929	0.00077057	0.00052863	0.0001432	1442.3	4.2736e-06	5.4216e-06	1430.3	372.75	6.6804e-06	5.5175e-06	431.91	146	127.68	43.309	5.1036e-06	53.669	0.00060711	0.00057021	0.00016015	1462.1	6.4066e-06	6.4191e-06	1455.9	380.09	5.8908e-06	6.3489e-06	441.41	149.3	130.37	44.498	6.2209e-06	55.174	47.514	-15.098	-19.203	-91.652	15.292	53.475	-91.596	-86.989	13.203	43.995	-87.519	-83.366	-83.005	-78.113	59.881	-78.964	-8191	255	
32252.896	1	1	0	0	0.10258	0.074407	0.11307	0.080748	0.12821	0.069634	0.14837	0.14099	0.18633	0.061615	0.16005	0.13323	0.12497	0.21971	0.15707	0.11762	-4.4333	-4.25	-4.2562	-4.9125	-4.2646	-4.3708	-4.8	-4.2688	-4.6021	-4.425	-4.2792	-4.7208	-4.2271	-4.6146	-4.5333	-4.2354	95.592	-17.601	105.090	178.650	-3.979	214.306	103.071	252.614	19.517	-17.197	217.000	183.134	-80.732	186.305	-71.320	234.265	0.00073813	0.00057695	0.00012513	1442.4	6.2608e-06	4.2801e-06	1437.5	373.63	7.0526e-06	5.3742e-06	432.54	146.74	127.63	43.426	6.2321e-06	53.788	0.00058898	0.00057056	0.00015796	1462.8	6.1578e-06	6.3762e-06	1458.7	380.01	6.1618e-06	5.9077e-06	441.37	149.72	130.36	44.593	6.4454e-06	55.199	48.180	-27.879	-19.850	-91.656	29.834	37.882	-91.804	-86.974	36.171	46.122	-87.702	-83.289	-82.643	-77.977	31.190	-78.906	-8191	255	
32252.969	1	1	0	0	0.027801	0.074521	0.3062	0.2207	0.13878	0.093958	0.13217	0.24373	0.069661	0.043708	0.19332	0.17589	0.060562	0.02875	0.068503	0.16606	-4.2792	-4.4313	-4.2208	-4.9667	-4.4875	-4.3187	-4.8979	-4.2833	-4.45	-4.3771	-4.35	-4.8208	-4.2771	-4.6354	-4.7229	-4.2229	-66.932	-76.128	-23.596	166.763	221.095	187.341	141.316	208.903	29.415	-11.508	209.439	-79.630	26.855	-31.606	21.049	183.311	0.00076374	0.0004444	0.00014099	1442.4	3.8844e-06	5.5155e-06	1433.7	373.41	5.1803e-06	4.9545e-06	434.44	145.89	126.84	43.273	4.6068e-06	53.446	0.00060512	0.0005723	0.00015733	1462.3	6.7923e-06	6.3521e-06	1456.5	379.98	6.0718e-06	6.2981e-06	442.25	149.5	130.08	44.514	6.3474e-06	55.245	47.537	-3.828	-18.554	-91.602	30.931	43.841	-91.788	-87.035	47.803	39.505	-87.495	-83.303	-83.015	-78.058	28.595	-78.881	-8191	255	
32253.064	1	1	0	0	0.29426	0.075919	0.16807	0.27943	0.19424	0.15221	0.17412	0.40251	0.0971	0.1664	0.066285	0.10578	0.19793	0.22514	0.20569	0.17456	-4.3292	-4.3771	-3.9458	-4.8313	-4.2063	-4.2896	-4.6833	-4.2354	-4.4938	-4.5479	-4.2583	-4.6292	-4.275	-4.1708	-4.7688	-4.2875	49.299	249.380	113.529	211.866	-60.082	216.118	175.848	133.658	215.329	236.681	81.996	143.444	152.172	-100.988	78.994	16.901	0.00072386	0.00038077	0.00015096	1439	6.8896e-06	4.0803e-06	1435.8	372.52	6.1576e-06	6.123e-06	433.44	146.17	127.32	43.35	4.8348e-06	53.726	0.00061473	0.00056439	0.0001674	1460.8	6.4206e-06	6.265e-06	1458.2	379.72	6.403e-06	6.0173e-06	441.22	149.58	130.41	44.507	6.091e-06	55.254	45.149	-9.621	-18.111	-91.566	26.442	23.749	-91.906	-87.014	18.379	41.682	-87.709	-83.575	-82.941	-78.167	38.077	-78.864	-8191	255	
32253.186	1	1	0	0	0.20258	0.16425	0.06752	0.24282	0.16556	0.28171	0.35445	0.27905	0.15557	0.1746	0.10201	0.052463	0.21445	0.19522	0.10221	0.18262	-4.1521	-4.5729	-4.0312	-4.9625	-4.3167	-4.1312	-4.7854	-4.3812	-4.3854	-4.4	-4.0437	-4.6396	-4.5125	-4.25	-4.6146	-4.1937	75.112	-1.892	195.540	181.432	188.848	238.318	227.254	147.780	222.163	246.808	212.752	-97.191	224.456	41.460	144.472	189.749	0.000745	0.00053222	0.00015611	1434.7	4.1329e-06	4.1682e-06	1435.1	372.15	6.6852e-06	4.9202e-06	434.26	145.97	127.29	43.211	4.6993e-06	53.651	0.00060153	0.00056916	0.00016553	1459.7	6.3327e-06	6.3186e-06	1456.4	379.77	6.4767e-06	6.2834e-06	441.68	149.27	130.2	44.496	5.8596e-06	55.217	41.472	-9.611	-16.410	-91.601	36.776	55.690	-91.749	-87.206	26.023	42.248	-87.683	-83.301	-82.729	-78.181	39.643	-78.769	-8191	255	
32253.281	1	1	0	0	0.13167	0.1869	0.27508	0.28592	0.39778	0.16684	0.12059	0.18707	0.047073	0.17394	0.12942	0.14185	0.19598	0.14098	0.16647	0.25649	-4.0583	-4.4833	-4.0208	-4.6771	-4.4521	-4.2	-4.7729	-4.3313	-4.3562	-4.6833	-4.0167	-4.5917	-4.4271	-4.2063	-4.6312	-4.3979	-60.766	220.011	9.166	209.503	-69.206	45.261	187.149	177.735	157.914	233.142	229.027	-78.399	178.892	211.244	-4.935	160.688	0.00073004	0.00046245	0.000152	1444.1	3.9716e-06	4.779e-06	1437.7	371.64	7.3147e-06	5.6157e-06	432.65	145.95	127.78	43.312	4.6682e-06	53.334	0.00059821	0.0005266	0.00016156	1461.3	6.0819e-06	6.608e-06	1456.8	379.31	6.2671e-06	6.3569e-06	441.38	149.33	130.46	44.498	5.9611e-06	55.151	50.041	-14.533	-16.137	-91.718	5.649	37.200	-91.702	-87.038	18.399	57.596	-87.623	-83.405	-82.749	-77.918	27.313	-78.836	-8191	255	
32253.377	1	1	0	0	0.072659	0.051632	0.10589	0.32706	0.10797	0.12628	0.099911	0.35407	0.031028	0.10031	0.14002	0.13096	0.164	0.14606	0.18862	0.15421	-4.1542	-4.6208	-4.0083	-4.6	-4.5604	-4.0938	-4.7958	-4.4375	-4.2042	-4.6708	-4.4021	-4.6854	-4.6354	-4.1208	-4.7417	-4.4833	-10.767	-75.621	-23.618	171.461	-47.446	114.801	-55.551	172.209	71.648	119.192	253.496	223.555	-44.599	100.087	137.545	18.100	0.00073193	0.00053136	0.00012982	1443	6.2096e-06	5.312e-06	1430.1	370.94	8.2663e-06	4.3989e-06	432.84	145.6	126.7	43.145	5.8104e-06	53.575	0.00060761	0.00052171	0.00015943	1460.1	6.1278e-06	6.667e-06	1452.6	378.94	6.4828e-06	6.1657e-06	441.11	148.81	129.92	44.442	6.1856e-06	55.062	47.079	-26.154	-11.388	-91.557	13.760	38.600	-91.902	-87.102	23.574	35.151	-87.578	-83.783	-82.985	-78.029	44.898	-79.057	-8191	255	
32253.475	1	1	0	0	0.09916	0.21739	0.11576	0.06158	0.16243	0.14455	0.069222	0.33097	0.25597	0.26885	0.077952	0.36948	0.049085	0.13186	0.15097	0.1963	-4.0979	-4.6292	-4.2292	-4.8083	-4.675	-4.1229	-4.8187	-4.5292	-4.125	-4.8438	-4.3625	-4.4792	-4.8375	-4.1104	-4.6708	-4.5375	158.107	-68.196	-4.501	-101.154	222.994	-1.044	167.235	143.129	-61.191	159.664	119.580	220.209	60.059	163.987	21.487	217.545	0.000756	0.00046824	0.00013439	1438.3	6.5499e-06	5.9824e-06	1434.1	371.63	6.2714e-06	5.0513e-06	434.88	146.13	127.4	43.512	3.7597e-06	53.657	0.00061219	0.00056556	0.00016356	1458.5	5.974e-06	6.5035e-06	1453.5	379	6.7956e-06	5.9558e-06	441.72	149.41	130.07	44.513	6.0898e-06	55.214	43.864	-17.910	-7.473	-91.627	28.756	46.786	-91.629	-87.103	19.988	35.811	-87.476	-83.531	-82.839	-77.923	38.757	-78.867	-8191	255	
32253.570	1	1	0	0	0.15133	0.21673	0.064509	0.17111	0.13059	0.084319	0.14902	0.11643	0.1839	0.15773	0.047485	0.26941	0.17723	0.26751	0.17043	0.24545	-3.8271	-4.8063	-4.3042	-4.5896	-4.6667	-4.1562	-4.8146	-4.6167	-4.1188	-4.6062	-4.4333	-4.1958	-4.9062	-4.2042	-4.5771	-4.6146	207.047	106.018	94.841	226.703	175.481	-75.211	247.379	136.860	-60.689	198.901	31.229	219.563	177.266	219.438	209.736	245.295	0.00071502	0.00047504	0.00013938	1441	4.6274e-06	4.3976e-06	1435.7	372.5	9.1366e-06	5.6052e-06	434.73	146.44	127.5	43.483	3.0775e-06	53.517	0.00059799	0.00053195	0.00016396	1459.8	5.8591e-06	6.5652e-06	1453.7	378.62	6.6259e-06	5.8863e-06	441.68	149.43	130.25	44.473	6.0317e-06	55.164	46.379	-8.277	-15.195	-91.534	50.416	40.909	-91.787	-87.079	22.547	38.382	-87.667	-83.441	-83.069	-78.423	19.464	-78.910	-8191	255	
32253.664	1	1	0	0	0.1455	0.046858	0.15652	0.15545	0.10425	0.18989	0.15397	0.10436	0.1837	0.13539	0.11869	0.062415	0.18271	0.018445	0.24765	0.24701	-3.7979	-4.5521	-4.2104	-4.4146	-4.8104	-4.0229	-4.5521	-4.7312	-4.125	-4.7708	-4.6167	-4.3562	-4.7229	-4.2812	-4.5542	-4.7083	96.918	157.467	138.046	239.772	17.892	-90.741	144.830	173.794	-7.325	7.052	248.961	54.715	-40.580	13.615	-70.992	-76.213	0.00074514	0.00054049	0.00015075	1434.9	5.4521e-06	4.9703e-06	1433.4	371.93	6.8344e-06	4.0646e-06	431.78	145.85	126.96	43.341	5.8644e-06	53.291	0.00061667	0.00055044	0.00015973	1457.5	5.952e-06	6.1899e-06	1454.6	378.73	6.17e-06	5.5922e-06	440.27	149.25	130	44.453	6.2004e-06	55.073	45.323	-18.934	-14.281	-91.584	24.247	43.701	-91.841	-86.999	16.619	41.395	-87.550	-83.396	-82.600	-78.031	39.165	-78.834	-8191	255	
32253.762	1	1	0	0	0.20472	0.092196	0.052746	0.24431	0.36454	0.17537	0.21723	0.3467	0.10808	0.12677	0.04565	0.10751	0.24037	0.16406	0.011319	0.14556	-3.7562	-4.6687	-4.4083	-4.3396	-4.6104	-4.2812	-4.6583	-4.8	-4.2604	-4.675	-4.4979	-4.2792	-4.7271	-4.4917	-4.2833	-4.8542	2.843	245.160	-82.132	173.380	72.329	178.202	197.608	212.903	90.586	19.359	208.488	-14.669	-95.650	156.836	-95.077	230.561	0.00072051	0.00056139	0.0001344	1440.9	4.537e-06	4.0623e-06	1431.5	372.33	3.7331e-06	5.2089e-06	431.21	146.51	127.12	43.308	4.3332e-06	53.69	0.00061766	0.00057405	0.00015986	1458.5	6.0179e-06	6.2288e-06	1452.8	378.72	6.6505e-06	5.9545e-06	439.96	149.19	129.9	44.443	6.0374e-06	55.138	46.683	-4.930	-13.779	-91.776	14.734	55.063	-91.936	-87.077	11.232	49.815	-87.446	-83.536	-82.730	-78.022	44.809	-78.961	-8191	255	
32253.881	1	1	0	0	0.070798	0.14716	0.03395	0.42275	0.10921	0.10379	0.13245	0.23776	0.085311	0.10646	0.1009	0.1156	0.050484	0.19868	0.11204	0.26374	-3.8021	-4.5208	-4.6146	-4.4167	-4.7083	-4.3896	-4.525	-4.8125	-4.0479	-4.5292	-4.6729	-4.1312	-4.7729	-4.4417	-4.2063	-4.9042	151.283	160.817	220.073	225.210	-80.154	-9.954	158.578	231.243	36.665	126.051	203.170	4.859	236.753	239.827	16.066	134.531	0.0007367	0.00057336	0.00015095	1436.8	4.8103e-06	5.6516e-06	1431.2	370.4	4.9968e-06	4.9533e-06	431.09	145.92	127.36	43.275	5.6381e-06	53.385	0.00062695	0.00056823	0.00015208	1456.2	5.9989e-06	6.0747e-06	1453.2	378.45	6.4215e-06	6.2553e-06	440.1	149.26	129.94	44.405	6.1833e-06	55.036	44.956	-23.581	-8.884	-91.791	23.113	36.676	-91.955	-87.139	41.472	42.539	-87.433	-83.445	-82.903	-78.158	54.472	-78.654	-8191	255	
32253.977	1	1	0	0	0.1562	0.051297	0.091385	0.22778	0.11017	0.15763	0.2265	0.2235	0.23178	0.1104	0.23335	0.10041	0.11555	0.23626	0.21604	0.086443	-3.8521	-4.4833	-4.6125	-4.3542	-4.6146	-4.3562	-4.4375	-5.0042	-4.0167	-4.5396	-4.7979	-4.1729	-4.5708	-4.5437	-4.2854	-4.7292	174.102	28.434	-28.129	169.394	182.654	194.763	187.609	251.701	128.661	43.069	150.628	169.563	190.944	-6.022	210.071	-89.955	0.00079986	0.00049957	0.00010726	1433	5.588e-06	5.0162e-06	1427.5	370.74	6.1579e-06	4.0111e-06	432.1	146.31	126.85	43.245	6.3527e-06	53.508	0.0005944	0.00054602	0.00015461	1455	5.8391e-06	6.0519e-06	1448.4	378.42	6.2865e-06	5.9812e-06	440.4	149.15	129.81	44.41	6.3702e-06	55.166	44.608	-15.408	2.692	-91.718	27.841	49.810	-91.846	-86.967	26.981	52.562	-87.516	-83.138	-82.751	-78.050	27.674	-79.184	-8191	255	
32254.072	1	1	0	0	0.16857	0.014297	0.18154	0.36771	0.078159	0.15751	0.2066	0.046921	0.073878	0.07596	0.34883	0.28471	0.075766	0.13519	0.085645	0.28015	-3.9542	-4.3646	-4.5271	-4.3042	-4.6229	-4.45	-4.3375	-4.8396	-4.2021	-4.4521	-4.7667	-4.2208	-4.6562	-4.45	-4.0271	-4.8208	1.598	14.840	123.033	231.307	-78.148	-89.076	133.961	215.282	38.602	110.138	128.126	212.473	195.082	189.274	153.521	250.441	0.00076872	0.00029638	0.00012712	1430.3	4.3367e-06	4.7382e-06	1430.3	372.1	5.9408e-06	5.1234e-06	432.3	145.55	127.26	43.29	4.0744e-06	53.55	0.00061037	0.00055997	0.00015497	1453.1	6.2407e-06	6.2141e-06	1450.4	378.29	6.4501e-06	6.1363e-06	440.35	148.97	129.92	44.406	6.4841e-06	55.091	47.138	-32.245	-25.040	-91.642	5.846	53.048	-91.826	-86.945	17.634	39.543	-87.544	-83.595	-82.567	-78.089	14.765	-78.871	-8191	255	
32254.170	1	1	0	0	0.076699	0.073627	0.18048	0.2723	0.13899	0.14446	0.24531	0.074226	0.10782	0.17444	0.044489	0.16032	0.23432	0.082516	0.056395	0.039283	-3.9792	-4.1583	-4.7042	-4.2771	-4.6937	-4.5125	-4.2479	-4.8833	-4.35	-4.3229	-4.7521	-4.4	-4.6146	-4.6188	-4.0625	-4.8604	178.709	57.202	164.484	233.701	201.672	170.551	206.082	-85.580	140.389	-35.651	19.562	241.100	150.666	71.868	136.054	102.748	0.00075646	0.00056778	0.00015249	1436.6	6.0724e-06	6.1777e-06	1432.3	373.24	5.7092e-06	4.6956e-06	431.93	145.81	127.24	43.257	5.0971e-06	53.359	0.00059208	0.00056928	0.00015277	1457.3	6.1758e-06	6.1028e-06	1453.2	379.33	6.0871e-06	6.032e-06	439.95	149.04	130.02	44.395	6.0477e-06	54.947	47.414	-8.278	-7.935	-91.627	34.894	54.379	-91.856	-87.009	26.291	39.563	-87.735	-83.256	-83.031	-78.013	35.209	-78.853	-8191	255	
32254.266	1	1	0	0	0.2741	0.10921	0.11595	0.17857	0.20323	0.167	0.35334	0.12893	0.25633	0.16177	0.24014	0.22669	0.050064	0.28974	0.26465	0.087407	-3.9	-4.3167	-4.6292	-4.2729	-4.325	-4.5625	-4.3875	-4.6271	-4.4708	-4.1729	-4.8292	-4.3063	-4.3271	-4.6521	-3.975	-4.6687	72.011	-97.064	132.046	189.767	222.974	136.924	-95.780	128.533	26.062	-67.941	234.969	192.557	-62.405	193.114	51.279	-89.658	0.00070157	0.00061395	0.00016335	1429.3	5.4112e-06	4.4204e-06	1428.7	371.21	4.913e-06	6.9059e-06	432.79	145.46	126.86	43.314	6.3045e-06	53.566	0.00057682	0.00052939	0.00014752	1452.3	5.7701e-06	5.343e-06	1447.7	378.37	6.31e-06	6.4892e-06	440.26	149.06	129.96	44.39	6.4739e-06	55.026	49.325	-23.958	-10.100	-91.708	10.161	49.890	-91.619	-87.036	11.838	53.649	-87.518	-83.453	-82.937	-78.007	28.971	-79.124	-8191	255	
32254.361	1	1	0	0	0.18662	0.12227	0.16421	0.29374	0.16572	0.11881	0.17019	0.44196	0.11813	0.29346	0.23312	0.029087	0.18364	0.14334	0.27418	0.19417	-4.1229	-4.1708	-4.6333	-4.3562	-4.3479	-4.5625	-4.35	-4.5917	-4.525	-4.1937	-4.8271	-4.425	-4.2438	-4.8729	-4.275	-4.5521	10.547	138.915	-18.304	206.725	66.264	151.523	195.623	216.575	123.233	118.864	165.333	189.681	-86.256	14.302	66.584	192.584	0.00072406	0.00050739	0.00012293	1437.3	4.3125e-06	4.3331e-06	1435.4	372.03	4.761e-06	4.9643e-06	432.92	145.6	126.74	43.252	5.1562e-06	53.651	0.00059749	0.00056905	0.00013945	1455.9	6.2777e-06	5.6405e-06	1452.8	379.04	6.218e-06	6.2312e-06	441.53	149.15	130.26	44.46	6.516e-06	55.139	51.021	-29.808	-7.568	-91.502	47.942	49.888	-91.980	-87.182	7.999	51.622	-87.646	-83.459	-82.845	-78.187	24.329	-78.759	-8191	255	
32254.457	1	1	0	0	0.24088	0.014106	0.14245	0.10229	0.12905	0.18461	0.07457	0.22427	0.11318	0.026103	0.12244	0.097908	0.11158	0.043232	0.074598	0.12843	-4.2958	-4.0333	-4.7146	-4.5563	-4.3625	-4.7562	-4.3875	-4.5188	-4.5208	-4	-4.7979	-4.5687	-4.3292	-4.8375	-4.0521	-4.5458	108.095	-85.324	79.798	-98.821	169.927	252.178	143.327	189.992	157.065	109.346	164.267	247.912	-88.711	180.637	189.925	236.124	0.00079052	0.00047389	0.00012012	1436.4	4.3409e-06	3.5821e-06	1435	370.99	3.5725e-06	5.1025e-06	432.53	146.01	127.35	43.286	4.9852e-06	53.612	0.00060937	0.00059882	0.00014952	1459.6	6.2887e-06	5.9326e-06	1456.9	379.02	5.7661e-06	6.4906e-06	441.31	149.2	130.11	44.473	6.5514e-06	55.218	46.897	-39.970	-28.603	-91.498	32.426	42.169	-91.670	-86.938	-5.559	49.060	-87.652	-83.084	-82.692	-77.894	24.458	-78.971	-8191	255	
32254.576	1	1	0	0	0.13069	0.03127	0.20413	0.14762	0.070385	0.093242	0.24105	0.21611	0.10315	0.085984	0.18312	0.15991	0.28815	0.15678	0.037871	0.1351	-4.1542	-4.2021	-4.5458	-4.55	-4.1771	-4.6917	-4.4042	-4.5833	-4.6875	-4.0833	-4.6562	-4.5875	-4.1167	-4.7104	-4.2792	-4.5792	156.642	22.726	30.354	206.618	190.075	65.807	-86.664	182.036	-36.432	-58.769	162.687	203.183	-90.695	94.871	-9.707	169.024	0.00073387	0.00052698	0.00011989	1439.3	4.1785e-06	5.0057e-06	1436.5	372.6	4.6698e-06	5.7871e-06	432.77	146.21	127.29	43.139	4.92e-06	53.609	0.00059871	0.00056823	0.00014175	1461.4	6.2467e-06	5.9621e-06	1457.5	379.3	6.2231e-06	6.5654e-06	441.39	149.62	130.27	44.376	6.3519e-06	55.291	48.861	4.726	-13.946	-91.645	12.417	43.274	-91.772	-87.094	41.454	41.138	-87.445	-83.658	-82.937	-78.099	35.432	-78.844	-8191	255	
32254.674	1	1	0	0	0.07336	0.23637	0.29975	0.24336	0.047694	0.22744	0.047902	0.21085	0.063172	0.18544	0.18547	0.18617	0.032557	0.21413	0.12692	0.108	-4.3521	-4.05	-4.4083	-4.7562	-4.0958	-4.6937	-4.5771	-4.4229	-4.6458	-4.0479	-4.5917	-4.4333	-4.0208	-4.8479	-4.2854	-4.2771	-70.632	-102.156	77.815	213.060	-96.420	59.941	96.813	224.069	-87.326	56.964	-50.280	162.802	85.797	180.556	-46.483	140.668	0.0007603	0.00046643	0.00011554	1439.8	3.6465e-06	5.0576e-06	1437.3	372.75	3.9217e-06	5.7372e-06	432.66	146.12	126.96	43.482	5.8479e-06	53.659	0.0006327	0.0006094	0.00015868	1462.3	6.8852e-06	6.2596e-06	1459.9	379.56	6.3673e-06	6.7125e-06	441.38	149.68	130.35	44.488	6.6972e-06	55.276	44.192	-24.054	-13.145	-91.632	44.087	31.615	-91.781	-87.197	41.140	42.877	-87.471	-83.401	-82.800	-77.999	16.621	-78.936	-8191	255	
32254.770	1	1	0	0	0.11602	0.19539	0.10218	0.06737	0.32313	0.041845	0.23831	0.17061	0.14535	0.20091	0.099429	0.1837	0.21311	0.23425	0.050259	0.33832	-4.2479	-3.9458	-4.6229	-4.7521	-4.0771	-4.6229	-4.6521	-4.3167	-4.5687	-4.2229	-4.6083	-4.7083	-3.9667	-4.4896	-4.4062	-4.1833	-74.809	-75.106	-37.006	178.012	41.675	98.965	198.891	175.901	237.029	-59.661	65.430	221.767	212.003	195.865	181.335	213.832	0.00072384	0.00043864	0.00013603	1441.8	6.6419e-06	5.1193e-06	1439.4	372.73	6.6659e-06	5.7552e-06	433.77	145.89	127.65	43.286	4.5685e-06	53.632	0.00061451	0.00061463	0.00016291	1465.1	6.9252e-06	6.5812e-06	1461.3	379.96	6.4245e-06	6.9117e-06	442.3	149.72	130.42	44.57	6.8066e-06	55.217	50.447	-18.781	-15.603	-91.799	19.262	29.736	-91.753	-87.172	22.343	31.123	-87.698	-83.418	-82.741	-78.072	36.102	-78.980	-8191	255	
32254.842	1	1	0	0	0.18297	0.057019	0.22552	0.14837	0.061254	0.071839	0.26389	0.18734	0.1953	0.079939	0.21038	0.16191	0.23365	0.079266	0.10664	0.11525	-4.2917	-4.0687	-4.3125	-4.7125	-4.0917	-4.525	-4.575	-4.1792	-4.6937	-4.3354	-4.4375	-4.675	-4.15	-4.5708	-4.4104	-4.1292	242.809	-55.685	129.438	-92.177	118.695	25.565	240.272	178.651	-88.846	252.785	205.791	170.508	177.139	-62.344	158.538	202.703	0.00075673	0.00045453	0.00014508	1443	6.2316e-06	4.9131e-06	1440	373.8	6.3896e-06	5.7491e-06	434.77	145.87	126.93	43.326	7.4236e-06	53.663	0.00062839	0.00062324	0.0001656	1464.9	6.6214e-06	6.7756e-06	1461.1	380.58	6.6648e-06	6.9358e-06	443.04	149.57	130.25	44.544	6.8112e-06	55.2	48.136	-20.756	-20.489	-91.654	21.566	44.444	-92.018	-87.186	14.418	42.519	-87.724	-83.330	-82.990	-77.795	27.880	-78.927	-8191	255	
32254.963	1	1	0	0	0.13411	0.10677	0.22796	0.23646	0.095039	0.08685	0.30732	0.2061	0.13791	0.11584	0.32908	0.11446	0.1636	0.17923	0.088279	0.026833	-4.2083	-4.3042	-4.2625	-4.8354	-4.0771	-4.4604	-4.6042	-4.1813	-4.5771	-4.2875	-4.325	-4.7667	-4.1542	-4.4229	-4.5271	-4.0708	22.942	124.835	132.884	148.724	231.656	4.101	165.607	165.413	136.189	180.465	212.010	-16.404	224.231	38.101	-25.926	134.988	0.00080379	0.00055787	0.00014069	1446.2	4.5489e-06	4.5275e-06	1443.6	372.58	5.917e-06	5.1365e-06	433.56	146.33	128.13	43.428	3.4455e-06	53.648	0.0006238	0.00065569	0.00017606	1466.4	6.7753e-06	6.9712e-06	1465.2	380.14	6.4971e-06	6.7045e-06	443.12	149.78	130.57	44.559	6.6049e-06	55.297	46.488	-29.761	-6.603	-91.706	15.834	43.346	-91.936	-87.063	9.619	41.730	-87.553	-83.231	-82.729	-78.129	48.215	-79.094	-8191	255	
32255.059	1	1	0	0	0.19412	0.16192	0.18151	0.08891	0.067366	0.18514	0.24479	0.1049	0.11213	0.19243	0.1858	0.34943	0.17217	0.14676	0.081346	0.24644	-4.3792	-4.3125	-4.1375	-4.85	-4.1958	-4.4625	-4.7458	-4.1646	-4.6333	-4.425	-4.325	-4.95	-4.3688	-4.3292	-4.65	-4.2104	142.488	165.706	35.931	-98.307	13.960	-27.832	189.349	194.404	129.244	117.693	220.250	112.102	216.325	199.273	175.195	182.236	0.00070167	0.00046874	0.0001181	1448.6	3.2794e-06	4.6468e-06	1442.2	373.17	9.0005e-06	5.0523e-06	434.44	146.37	127.72	43.327	4.4803e-06	53.567	0.00062369	0.00057777	0.00017856	1467.5	6.6953e-06	7.0154e-06	1464.4	380.43	6.7302e-06	6.9077e-06	442.34	149.45	130.61	44.5	6.0933e-06	55.087	47.403	-3.585	-11.253	-91.587	50.473	36.103	-91.748	-86.960	13.881	57.336	-87.508	-83.441	-82.762	-77.965	15.510	-79.097	-8191	255	
32255.154	1	1	0	0	0.079032	0.11495	0.20596	0.26674	0.082902	0.12706	0.16858	0.29295	0.084052	0.042836	0.15789	0.085388	0.30746	0.083095	0.31431	0.16636	-4.3208	-4.4229	-4.2896	-4.7958	-4.2229	-4.3229	-4.9208	-4.2292	-4.525	-4.5667	-4.3167	-4.7771	-4.2812	-4.2937	-4.6271	-4.0542	-30.983	188.347	-72.779	231.932	68.669	50.083	245.951	233.377	100.492	-31.352	251.531	-4.426	158.438	192.021	147.729	193.706	0.00074889	0.00054333	0.00016888	1443.4	4.9128e-06	4.6073e-06	1437	371.48	7.0282e-06	5.5274e-06	433.12	146.89	127.61	43.504	4.9495e-06	53.801	0.00061755	0.00057335	0.00016258	1464.1	6.4865e-06	6.7219e-06	1460.7	379.95	6.6045e-06	6.6777e-06	442.89	149.73	130.48	44.531	6.0841e-06	55.258	45.178	-35.165	1.401	-91.773	12.145	43.711	-91.880	-87.097	-2.134	47.884	-87.634	-83.580	-82.928	-78.132	46.485	-79.063	-8191	255	
32255.275	1	1	0	0	0.1621	0.24334	0.39138	0.10043	0.090553	0.22858	0.17999	0.15336	0.099252	0.080218	0.21009	0.029417	0.15511	0.18799	0.23107	0.038681	-4.1896	-4.5979	-4.1792	-4.9062	-4.2438	-4.2188	-4.9021	-4.3979	-4.4083	-4.7063	-4.1438	-4.6729	-4.5813	-4.2688	-4.7667	-4.1271	242.427	59.107	-60.201	154.867	26.260	198.771	131.939	140.607	122.969	126.975	-48.440	198.462	250.710	187.608	172.752	96.250	0.00075817	0.0005122	0.00012857	1446.5	3.8403e-06	5.2529e-06	1437.9	372.41	5.8119e-06	4.7531e-06	434.66	146.29	127.42	43.269	5.0898e-06	53.187	0.00060976	0.00060231	0.00016373	1463.9	6.4625e-06	6.801e-06	1460	379.56	6.2579e-06	6.2553e-06	441.94	149.6	130.41	44.451	6.0648e-06	55.101	50.608	-13.279	-16.369	-91.710	20.089	37.771	-91.680	-87.017	20.835	49.639	-87.599	-83.309	-82.949	-77.794	35.611	-79.023	-8191	255	
32255.369	1	1	0	0	0.15554	0.31151	0.22939	0.14472	0.40351	0.083502	0.3575	0.17755	0.06277	0.033848	0.177	0.20743	0.22374	0.17007	0.1235	0.14153	-4.1667	-4.45	-4.1	-4.65	-4.4542	-4.2417	-4.7812	-4.2438	-4.45	-4.8958	-4.2792	-4.5979	-4.4167	-4.325	-4.5625	-4.3104	157.080	46.417	84.099	198.857	230.909	3.831	223.149	190.554	206.251	148.077	-95.055	250.173	-47.484	250.822	101.601	206.193	0.00073259	0.00060345	0.00011411	1440.4	4.7932e-06	4.7334e-06	1442.1	373.14	5.7407e-06	5.3274e-06	433.15	146.14	127.51	43.354	4.0593e-06	53.572	0.0006359	0.0005559	0.00017662	1462.5	6.4855e-06	6.5772e-06	1461.3	379.74	6.5942e-06	6.4826e-06	441.84	149.37	130.18	44.48	6.2232e-06	55.181	46.102	-4.442	-6.098	-91.615	28.082	41.350	-91.684	-87.003	33.986	49.395	-87.495	-83.507	-82.488	-78.040	44.864	-79.123	-8191	255	
32255.441	1	1	0	0	0.0765	0.2022	0.057842	0.23146	0.28988	0.16147	0.2388	0.053764	0.10741	0.090474	0.15173	0.18607	0.1022	0.13842	0.093434	0.28952	-3.9688	-4.7792	-4.3625	-4.7812	-4.5146	-4.1562	-4.8938	-4.4104	-4.2208	-4.5792	-4.475	-4.5333	-4.6	-4.3021	-4.5687	-4.5083	54.433	59.470	71.547	192.318	27.609	222.315	221.775	222.079	249.037	224.806	0.440	252.909	-69.096	179.840	253.321	130.497	0.00073541	0.00050866	0.00015894	1440.2	6.6558e-06	6.0808e-06	1441.1	371.93	7.1478e-06	5.8818e-06	432.63	146.04	127.4	43.199	4.9559e-06	53.612	0.00061899	0.00055079	0.00016924	1463.2	6.3666e-06	6.667e-06	1461.1	379.8	6.5022e-06	5.9826e-06	441.3	149.52	130.39	44.466	6.1628e-06	55.1	49.109	-21.922	-24.160	-91.492	24.230	42.842	-91.944	-87.109	25.992	47.293	-87.661	-83.288	-82.839	-78.243	33.454	-79.061	-8191	255	
32255.561	1	1	0	0	0.06775	0.13194	0.16569	0.15567	0.47925	0.25982	0.17929	0.18539	0.20205	0.079643	0.061386	0.40096	0.052616	0.14133	0.090753	0.22189	-3.9562	-4.6458	-4.1813	-4.7146	-4.6417	-4.1062	-4.975	-4.4729	-4.3146	-4.8	-4.4	-4.5354	-4.7167	-4.2625	-4.5521	-4.6104	-103.418	117.045	211.538	153.431	-32.654	253.349	-92.038	127.676	56.940	65.541	-21.130	223.320	-61.688	-104.051	158.063	95.905	0.00077133	0.000645	0.00014935	1443.2	5.4309e-06	5.854e-06	1443.7	372.81	4.4883e-06	3.9554e-06	434.66	146.46	127.85	43.272	5.5284e-06	53.582	0.00062949	0.00057102	0.00017232	1463.9	6.2277e-06	6.9578e-06	1461.5	380.16	6.5472e-06	6.4665e-06	442.24	149.45	130.28	44.491	6.818e-06	55.18	48.723	-2.571	-17.185	-91.611	21.456	55.128	-91.693	-86.915	10.710	43.837	-87.700	-83.376	-82.989	-78.151	43.885	-78.786	-8191	255	
32255.656	1	1	0	0	0.15778	0.21912	0.21394	0.25487	0.072112	0.15955	0.14301	0.23745	0.34986	0.15333	0.27027	0.10184	0.11214	0.1049	0.037687	0.20762	-3.8312	-4.7083	-4.3021	-4.7125	-4.6646	-4.0563	-4.6729	-4.6208	-4.1208	-4.8292	-4.2208	-4.5292	-4.7458	-4.1146	-4.6104	-4.55	19.712	206.934	250.416	170.715	160.017	248.488	207.624	145.409	122.355	115.592	147.418	199.253	14.891	201.686	84.366	191.781	0.00071842	0.00044631	0.00014418	1445.6	4.9294e-06	4.9762e-06	1438.2	373.32	7.9634e-06	6.4786e-06	434.95	146.83	127.43	43.438	4.2891e-06	53.501	0.00063319	0.00059335	0.00016438	1463.7	6.0119e-06	7.0034e-06	1460.2	380.45	6.6085e-06	6.278e-06	442.08	149.63	130.44	44.58	6.3428e-06	55.147	50.716	-18.819	-14.003	-91.600	27.537	46.698	-91.945	-86.988	6.310	59.720	-87.657	-83.086	-83.100	-77.829	16.237	-78.829	-8191	255	
32255.754	1	1	0	0	0.1589	0.12712	0.22468	0.10307	0.1653	0.23106	0.25714	0.40491	0.1471	0.18503	0.017219	0.25189	0.11354	0.2007	0.099773	0.14643	-3.6646	-4.6021	-4.3063	-4.3396	-4.7688	-4.2521	-4.7479	-4.6104	-4.0563	-4.6646	-4.5521	-4.2188	-4.7438	-4.375	-4.4521	-4.5292	22.126	88.366	143.974	192.897	111.379	-1.662	237.314	172.746	-67.675	-64.920	226.078	191.176	161.690	236.560	-89.423	-50.578	0.00074121	0.00044152	0.0001433	1442.5	6.0178e-06	4.4052e-06	1435.2	372.97	5.2372e-06	4.715e-06	435.23	146.32	127.41	43.264	5.4504e-06	53.528	0.00063938	0.00058056	0.00016639	1464.3	6.0969e-06	6.4218e-06	1457.7	379.76	6.3223e-06	6.163e-06	441.8	149.49	130.48	44.561	6.393e-06	55.12	45.562	-22.982	-1.921	-91.764	26.710	55.323	-91.787	-87.169	24.034	66.327	-87.351	-83.603	-82.893	-78.142	21.366	-78.954	-8191	255	
32255.873	1	1	0	0	0.25184	0.085666	0.14889	0.19804	0.11042	0.092315	0.2193	0.15718	0.19295	0.056998	0.082236	0.14422	0.14747	0.061164	0.074019	0.086987	-3.7667	-4.6521	-4.3917	-4.4	-4.75	-4.2104	-4.7292	-4.7833	-4.15	-4.625	-4.6083	-4.2937	-4.7729	-4.3125	-4.4062	-4.7458	98.858	102.682	220.478	186.634	86.170	82.772	211.645	-98.598	248.603	-35.979	247.088	177.154	-98.434	-42.533	137.567	63.401	0.00080515	0.0005271	0.00012492	1441.5	4.5634e-06	4.2227e-06	1439	373.57	5.405e-06	4.5718e-06	434.04	146.51	127.77	43.471	6.3252e-06	53.661	0.0006296	0.00056986	0.00015625	1463.7	6.2757e-06	6.4445e-06	1459.8	379.79	6.8958e-06	6.4384e-06	441.52	149.74	130.42	44.512	6.4101e-06	55.132	47.080	-8.488	-11.448	-91.440	25.354	54.304	-91.858	-87.023	17.394	40.922	-87.496	-83.356	-82.710	-78.187	28.877	-78.850	-8191	255	
32255.971	1	1	0	0	0.11083	0.22307	0.19808	0.14912	0.18503	0.16264	0.12355	0.10393	0.15923	0.035376	0.21067	0.31225	0.078284	0.23501	0.11104	0.25072	-3.7104	-4.6167	-4.3854	-4.2771	-4.6646	-4.4542	-4.45	-4.825	-4.0896	-4.5917	-4.5958	-4.2396	-4.8042	-4.2833	-4.2083	-4.9042	113.298	-102.385	119.200	253.212	185.741	42.036	183.208	-20.305	45.224	31.938	147.056	236.275	249.792	189.370	172.982	174.159	0.00078289	0.00056374	0.00016672	1438.2	5.4049e-06	6.0695e-06	1436.2	373.16	6.131e-06	4.2045e-06	433.12	146.12	127.86	43.302	2.8831e-06	53.344	0.00063535	0.0005723	0.00015805	1461.6	6.3017e-06	6.7782e-06	1458.5	379.69	6.719e-06	6.4785e-06	441.4	149.27	130.4	44.483	6.4465e-06	55.096	46.489	-28.174	-17.439	-91.561	23.041	42.874	-91.819	-86.941	5.118	45.483	-87.654	-83.395	-83.310	-78.148	43.412	-78.618	-8191	255	
32256.066	1	1	0	0	0.17221	0.20334	0.09685	0.23093	0.18574	0.057538	0.14204	0.13011	0.18861	0.032056	0.24519	0.16343	0.070462	0.2314	0.1736	0.22215	-3.8146	-4.4542	-4.5687	-4.3354	-4.4875	-4.4958	-4.4271	-4.7604	-4.1208	-4.4104	-4.7208	-4.2042	-4.5312	-4.4313	-4.275	-4.9146	-37.574	-70.353	205.808	228.696	53.545	27.785	-76.270	115.669	163.772	-18.736	191.181	-67.049	-83.286	179.452	254.545	245.674	0.0007093	0.00041428	0.00010831	1441.4	6.5196e-06	4.7806e-06	1439.9	372.71	4.3822e-06	5.0877e-06	435.38	145.97	127.5	43.221	3.8474e-06	53.711	0.00061971	0.00057998	0.00015996	1463.3	6.2677e-06	6.3682e-06	1460.7	379.81	6.9899e-06	6.3729e-06	442.16	149.53	130.56	44.509	6.3554e-06	55.179	46.653	2.712	-14.006	-91.650	35.104	61.524	-91.846	-87.015	8.332	49.387	-87.661	-83.682	-82.730	-78.167	34.607	-78.927	-8191	255	
32256.139	1	1	0	0	0.18002	0.20522	0.05913	0.33662	0.18753	0.13459	0.06784	0.1755	0.14355	0.035079	0.18062	0.12538	0.11175	0.2195	0.064533	0.1396	-3.8271	-4.4979	-4.6188	-4.1687	-4.6104	-4.5396	-4.3479	-5.0417	-4.2354	-4.4375	-4.9062	-4.2333	-4.5708	-4.5	-4.2104	-4.9062	95.756	-50.821	126.886	235.288	244.679	63.373	-96.277	244.929	14.154	-74.775	187.570	-46.832	240.400	171.446	58.447	156.589	0.00064319	0.00059823	0.00015048	1442.3	6.2835e-06	5.8852e-06	1440.6	373.7	5.0783e-06	4.7061e-06	433.14	145.81	127.46	43.202	4.165e-06	53.443	0.00062717	0.00058114	0.00014667	1462.9	6.4565e-06	6.4164e-06	1460	379.96	6.4409e-06	6.52e-06	441.63	149.6	130.38	44.373	6.2551e-06	55.082	45.780	-16.744	-1.575	-91.623	34.126	58.896	-91.966	-87.181	7.855	65.195	-87.362	-83.633	-82.907	-78.090	33.205	-78.768	-8191	255	
32256.260	1	1	0	0	0.16599	0.16987	0.10834	0.15313	0.068276	0.074528	0.10973	0.35054	0.12168	0.20483	0.19256	0.24038	0.041397	0.27186	0.17941	0.068565	-3.9167	-4.2604	-4.6521	-4.3896	-4.4875	-4.5271	-4.2708	-4.7646	-4.3417	-4.3021	-4.8896	-4.2104	-4.5833	-4.6792	-4.0771	-4.7604	114.653	188.267	140.845	209.528	118.328	5.846	155.844	220.780	205.530	222.639	150.811	254.581	24.204	232.643	101.019	22.234	0.00077159	0.00070419	0.00014441	1442.1	4.8254e-06	6.0981e-06	1433.5	372.56	6.4509e-06	4.866e-06	434.15	145.93	127.55	43.325	5.317e-06	53.61	0.0006217	0.00057742	0.00015684	1461.3	6.2917e-06	6.5625e-06	1457.3	379.91	6.7128e-06	6.397e-06	441.31	149.38	130.44	44.442	6.7645e-06	55.12	47.225	-22.642	-17.988	-91.750	40.703	42.166	-92.038	-87.225	27.487	48.532	-87.420	-83.437	-82.889	-78.343	31.257	-78.899	-8191	255	
32256.355	1	1	0	0	0.10958	0.092508	0.18593	0.10706	0.085046	0.10708	0.14584	0.19726	0.18854	0.060188	0.18163	0.07018	0.055866	0.25324	0.48567	0.092213	-3.8563	-4.1354	-4.7167	-4.4125	-4.4812	-4.6354	-4.2854	-4.7979	-4.4062	-4.15	-4.7875	-4.3729	-4.3562	-4.7833	-4.2063	-4.6958	166.309	253.170	113.244	211.101	-88.271	130.772	142.229	182.515	142.560	123.314	-71.156	113.864	9.882	142.610	101.877	184.487	0.00066141	0.00051109	0.00010812	1439.3	5.7602e-06	4.8792e-06	1439.6	372.52	7.6253e-06	5.4765e-06	431.23	145.91	127.01	43.27	4.7041e-06	53.676	0.00059777	0.0005994	0.00014874	1459.6	6.3506e-06	5.8375e-06	1458	379.65	6.4726e-06	6.0855e-06	440.56	149.41	130.25	44.415	6.8534e-06	55.183	48.840	-19.731	-9.421	-91.551	32.703	26.524	-91.829	-86.965	19.912	38.029	-87.451	-83.401	-82.842	-78.056	32.300	-78.874	-8191	255	
32256.449	1	1	0	0	0.12246	0.24169	0.21097	0.50574	0.14355	0.044978	0.14176	0.16585	0.19947	0.094668	0.21763	0.21813	0.17379	0.14316	0.19179	0.19592	-4.2	-4.15	-4.7167	-4.5437	-4.2937	-4.8854	-4.3	-4.7771	-4.3521	-4.2604	-4.8667	-4.3063	-4.2708	-4.6833	-4.1062	-4.65	220.509	245.109	-1.661	206.921	-39.657	172.441	198.274	243.186	-82.268	-34.221	205.103	-60.596	-22.380	129.287	-12.592	239.575	0.00070493	0.00065011	0.000137	1440	4.7605e-06	6.5111e-06	1433.5	371.56	6.1467e-06	5.1053e-06	433.45	146.19	127.52	43.198	5.2122e-06	53.475	0.00060219	0.00058475	0.00015376	1460.6	6.2537e-06	6.0305e-06	1457.4	379.31	6.3192e-06	6.4785e-06	441.58	149.79	130.38	44.46	6.5639e-06	55.019	43.818	-26.842	-29.243	-91.786	30.233	47.403	-91.937	-87.004	12.883	50.315	-87.622	-83.317	-82.902	-78.111	40.894	-79.014	-8191	255	
32256.545	1	1	0	0	0.09655	0.15747	0.1653	0.37203	0.1302	0.081263	0.10529	0.10332	0.074496	0.065733	0.26737	0.12929	0.054279	0.095416	0.295	0.26154	-4.2833	-4.1333	-4.675	-4.4979	-4.2854	-4.7063	-4.3667	-4.5813	-4.5042	-4.2417	-4.7792	-4.5417	-4.4021	-4.8417	-4.1333	-4.6167	198.095	19.808	70.713	205.024	29.849	160.548	112.387	163.689	220.501	-99.462	221.110	91.744	-46.351	247.416	98.780	248.962	0.00076022	0.00056423	0.00011738	1437.8	5.9713e-06	5.3495e-06	1432.8	371.58	5.8887e-06	5.8217e-06	432.91	145.95	127.43	43.459	4.5415e-06	53.695	0.00059843	0.00060393	0.00014939	1460.7	6.5365e-06	5.6391e-06	1457.2	379.44	6.3581e-06	6.7219e-06	441.93	149.51	130.4	44.497	6.4648e-06	55.183	47.441	-9.846	-19.104	-91.565	49.596	41.065	-91.813	-87.007	-17.307	47.912	-87.674	-83.479	-82.753	-77.966	49.441	-78.943	-8191	255	
32256.666	1	1	0	0	0.066588	0.23556	0.15578	0.15924	0.16596	0.21339	0.24135	0.22679	0.10274	0.068038	0.11084	0.18855	0.21301	0.11837	0.25902	0.11245	-4.4375	-4.1104	-4.6062	-4.6188	-4.1792	-4.7812	-4.3063	-4.4146	-4.7042	-4.2792	-4.7625	-4.6083	-4.2042	-4.8292	-4.2354	-4.2688	208.331	-93.444	240.389	-67.840	214.556	-8.020	-102.472	233.358	67.787	102.310	210.057	201.220	121.132	208.262	151.548	-92.235	0.00074536	0.00048699	0.00012898	1444.6	4.2312e-06	4.9375e-06	1434.6	371.06	6.5139e-06	3.8992e-06	433.34	145.71	127.43	43.116	5.5263e-06	53.419	0.00060048	0.00057044	0.00014552	1461.8	6.2897e-06	5.8402e-06	1456.7	379.32	6.3969e-06	6.2887e-06	441.68	149.38	130.4	44.477	6.2722e-06	55.046	50.487	-8.160	-28.434	-91.750	9.239	43.509	-91.876	-87.194	23.318	41.313	-87.535	-83.456	-82.831	-78.235	46.744	-79.058	-8191	255	
32256.738	1	1	0	0	0.26769	0.12582	0.15745	0.12248	0.12471	0.041849	0.14488	0.12895	0.18335	0.066056	0.25662	0.023824	0.21741	0.31657	0.042978	0.20627	-4.3833	-4.0354	-4.5479	-4.7896	-4.1188	-4.6896	-4.6438	-4.3812	-4.7562	-4.0875	-4.6729	-4.5667	-4.1917	-4.8896	-4.325	-4.3562	31.909	149.983	113.254	181.639	81.993	41.023	238.191	-94.764	69.744	-99.573	249.164	-97.190	-44.187	234.061	131.486	232.279	0.00077446	0.00060041	0.00011139	1438.4	3.879e-06	4.7096e-06	1431.4	374.11	6.6004e-06	5.4985e-06	433.48	146.61	127.22	43.196	5.5778e-06	53.37	0.0006075	0.00060196	0.00015638	1460.4	6.3057e-06	5.7919e-06	1456.9	380.39	6.4368e-06	6.786e-06	441.71	149.57	130.28	44.467	6.1571e-06	55.123	50.232	-18.724	-15.835	-91.750	31.980	51.503	-91.964	-87.066	31.121	48.129	-87.539	-83.288	-83.095	-78.007	52.710	-78.875	-8191	255	
32256.834	1	1	0	0	0.24391	0.11565	0.11246	0.17561	0.088674	0.10355	0.17823	0.30141	0.22521	0.1676	0.39885	0.14063	0.16321	0.32176	0.20385	0.1772	-4.4583	-4.1896	-4.6229	-4.8208	-4.0521	-4.8438	-4.575	-4.1375	-4.8042	-4.2583	-4.4833	-4.6875	-4.2333	-4.6604	-4.3229	-4.2729	-46.755	142.001	187.209	214.968	32.655	11.856	152.351	232.304	220.277	185.463	209.723	-78.344	-24.247	245.637	25.525	187.053	0.00075776	0.00050558	0.00014933	1440.4	4.3519e-06	4.7742e-06	1434.8	372.21	7.5903e-06	5.3743e-06	434.13	145.44	127.22	43.424	4.6453e-06	53.694	0.00060009	0.00061929	0.00015769	1459.5	6.6104e-06	6.009e-06	1455.8	379.27	6.1843e-06	6.2941e-06	442	149.2	130.37	44.529	6.2334e-06	55.106	46.141	-20.762	-19.123	-91.490	42.988	41.182	-91.844	-87.164	1.247	38.092	-87.464	-83.346	-82.759	-78.246	37.883	-78.762	-8191	255	
32256.955	1	1	0	0	0.20307	0.085095	0.14427	0.25553	0.13483	0.17567	0.46746	0.22619	0.177	0.21992	0.21381	0.21022	0.10228	0.13956	0.031981	0.36813	-4.3708	-4.225	-4.4333	-4.8438	-4.0813	-4.4125	-4.6021	-4.2417	-4.6937	-4.4979	-4.4833	-4.7625	-4.0792	-4.4208	-4.4271	-4.2417	84.173	2.954	-52.162	197.974	201.395	100.203	162.088	182.444	220.745	184.498	-80.078	195.771	207.277	215.759	130.183	238.879	0.00080251	0.00063883	0.00012688	1437.8	4.2097e-06	5.0216e-06	1436	371.22	5.5548e-06	4.4985e-06	432.2	146.33	127.22	43.191	5.1282e-06	53.757	0.00061634	0.00058451	0.00015756	1459.2	6.4795e-06	6.0653e-06	1456.7	379.14	6.2068e-06	6.3181e-06	441.44	149.55	130.27	44.503	6.1081e-06	55.135	43.940	-14.225	-20.365	-91.801	21.860	44.540	-91.704	-87.147	29.065	45.956	-87.383	-83.280	-83.110	-78.266	31.776	-79.028	-8191	255	
32257.051	1	1	0	0	0.0022368	0.040764	0.20506	0.24807	0.17657	0.032857	0.35326	0.20459	0.12679	0.10451	0.13857	0.17747	0.096301	0.28024	0.19366	0.15603	-4.3896	-4.3417	-4.0792	-4.8146	-4.0771	-4.5938	-4.7562	-4.2396	-4.7229	-4.3229	-4.4688	-4.825	-4.15	-4.4	-4.7063	-4.2438	78.607	104.811	-30.755	241.955	-4.986	-80.477	161.084	-80.916	100.125	117.931	227.444	190.518	42.887	226.460	213.040	182.643	0.0007499	0.00059039	0.0001281	1442.5	6.3983e-06	4.2528e-06	1436.2	371.81	7.2196e-06	6.4167e-06	434.31	146.99	127.37	43.551	6.954e-06	53.447	0.00058202	0.00059696	0.00015359	1461.9	6.7563e-06	6.3226e-06	1455.6	379.56	6.3029e-06	6.7259e-06	441.93	149.73	130.31	44.564	6.279e-06	55.106	44.552	-29.066	-7.993	-91.535	25.204	45.248	-91.832	-86.979	43.311	47.816	-87.819	-83.664	-83.055	-78.020	34.785	-78.866	-8191	255	
32257.146	1	1	0	0	0.18295	0.062821	0.05322	0.29425	0.19934	0.2054	0.12023	0.30668	0.14836	0.044119	0.086057	0.047586	0.42553	0.014584	0.15093	0.21442	-4.3812	-4.3812	-4.3146	-4.9958	-4.1021	-4.3375	-4.8417	-4.1375	-4.5229	-4.4646	-4.3521	-4.8208	-4.1854	-4.4854	-4.6438	-4.1833	-34.792	80.471	-87.482	231.825	4.184	3.878	182.281	237.414	-4.992	-20.524	15.077	169.193	-99.160	247.626	-33.259	53.097	0.00070432	0.00060465	0.0001583	1443.1	4.7071e-06	6.2836e-06	1433.3	372.16	7.4408e-06	6.3598e-06	432.8	146.37	127.59	43.243	4.9017e-06	53.199	0.00059705	0.0005573	0.00016596	1459.8	6.3486e-06	6.2288e-06	1455.9	379.59	6.1505e-06	6.2379e-06	441.45	149.49	130.3	44.465	5.9542e-06	55.024	45.271	-2.717	-4.668	-91.795	8.994	58.155	-91.789	-87.121	16.774	39.725	-87.545	-83.553	-82.899	-78.213	30.400	-78.893	-8191	255	
32257.242	1	1	0	0	0.11662	0.20787	0.16688	0.31013	0.17032	0.17158	0.091453	0.18049	0.071346	0.14638	0.25945	0.30175	0.25202	0.11589	0.37014	0.12911	-4.2083	-4.4938	-4.2292	-4.9729	-4.3396	-4.3917	-4.7958	-4.225	-4.6979	-4.3688	-4.1646	-4.9167	-4.3146	-4.3792	-4.6917	-4.3417	-97.530	147.859	49.501	172.261	101.615	-98.970	138.953	146.572	-21.689	-5.680	207.897	199.401	-95.102	-80.659	35.670	190.204	0.00072138	0.00059848	0.00016573	1439.9	4.6411e-06	4.6346e-06	1433.8	371.3	5.4074e-06	5.5834e-06	431.92	146.51	127.28	43.593	4.024e-06	53.298	0.00059766	0.00052183	0.00016494	1460.8	6.2937e-06	6.3253e-06	1456.5	378.96	6.2129e-06	6.0868e-06	441.3	149.46	130.35	44.562	5.9371e-06	55.053	43.861	-7.640	-26.025	-91.684	31.144	50.069	-91.743	-87.017	15.111	41.965	-87.715	-83.441	-82.871	-78.229	34.676	-78.667	-8191	255	
32257.340	1	1	0	0	0.16979	0.15379	0.13422	0.33801	0.1931	0.18737	0.2586	0.086631	0.12017	0.19869	0.15571	0.1665	0.061064	0.23537	0.053382	0.17415	-4.1042	-4.4062	-4.0292	-4.8729	-4.2729	-4.15	-5.0083	-4.2979	-4.4333	-4.6813	-4.1708	-4.8458	-4.3479	-4.2771	-4.6708	-4.2771	108.521	223.507	99.006	210.210	26.201	20.622	227.035	161.680	-13.356	-20.388	220.798	207.389	22.188	-63.656	121.098	143.223	0.00066372	0.00045836	0.00011914	1441	6.2508e-06	4.977e-06	1433.2	373.1	5.8537e-06	5.8901e-06	433.95	146.18	127.35	43.264	4.9763e-06	53.44	0.00059119	0.00054241	0.00015671	1459.2	6.3217e-06	6.1377e-06	1456	379.66	6.4061e-06	5.8582e-06	441.44	149.43	130.39	44.464	5.8676e-06	55.059	46.745	-8.953	-8.044	-91.637	32.136	59.417	-91.898	-87.004	3.851	46.505	-87.559	-83.237	-82.916	-77.906	28.208	-79.109	-8191	255	
32257.436	1	1	0	0	0.037077	0.081839	0.25047	0.28108	0.036773	0.23496	0.24816	0.24557	0.024227	0.098411	0.12669	0.20071	0.10845	0.103	0.090018	0.082209	-4.2458	-4.6354	-4.0875	-4.8396	-4.3229	-4.0458	-4.8917	-4.2479	-4.3708	-4.6813	-4.1854	-4.75	-4.5437	-4.2375	-4.6771	-4.3063	172.346	-104.319	106.354	198.468	153.606	228.049	198.997	192.578	-7.571	36.377	201.832	202.541	-101.506	22.173	211.740	13.279	0.00076981	0.00064911	0.00014403	1432.9	6.7909e-06	6.2616e-06	1438	373.81	6.4881e-06	6.1146e-06	435.5	146.08	127.25	43.272	3.8818e-06	53.465	0.00059418	0.00058998	0.00015645	1458.3	6.0549e-06	6.4915e-06	1456.3	379.87	6.2599e-06	6.3061e-06	442.51	149.54	130.42	44.49	5.9132e-06	55.058	43.972	-29.330	-10.393	-91.665	17.823	46.689	-91.718	-87.114	4.431	52.261	-87.703	-83.386	-82.615	-78.091	40.140	-79.014	-8191	255	
32257.555	1	1	0	0	0.14553	0.1067	0.24886	0.25175	0.18398	0.18675	0.26488	0.25583	0.14637	0.045373	0.093772	0.1531	0.048356	0.028914	0.21634	0.24134	-4.0625	-4.5667	-4.1771	-4.725	-4.5979	-4.0979	-4.8208	-4.3938	-4.3812	-4.8146	-4.3104	-4.5583	-4.5083	-4.1958	-4.6813	-4.3438	-51.584	-91.266	-88.208	200.337	157.398	30.143	196.955	-102.807	111.936	11.117	147.509	105.461	215.659	215.915	252.260	236.043	0.00075872	0.00058775	0.00017299	1441.7	4.492e-06	3.8096e-06	1433.5	372.39	4.211e-06	5.3349e-06	432.23	146.43	127.45	43.405	4.0067e-06	53.517	0.00060783	0.00053927	0.00017275	1459.7	5.7352e-06	5.9648e-06	1455.9	379.54	6.3427e-06	5.7433e-06	441.96	149.44	130.36	44.565	6.1958e-06	55.119	45.414	-8.765	-2.284	-91.652	22.888	43.119	-91.870	-87.109	11.440	50.308	-87.588	-83.346	-82.801	-78.126	30.424	-78.976	-8191	255	
32257.650	1	1	0	0	0.10149	0.33882	0.22302	0.25497	0.27107	0.10396	0.21637	0.24591	0.1724	0.21106	0.097389	0.090801	0.10149	0.17797	0.039881	0.049831	-3.9562	-4.5854	-3.9521	-4.7583	-4.5458	-4.1	-4.7917	-4.5854	-4.125	-4.7604	-4.2375	-4.3938	-4.7208	-4.0687	-4.6833	-4.45	-87.306	-15.861	170.431	194.414	66.379	-89.731	168.821	210.380	150.549	138.012	131.732	38.816	198.199	249.362	-7.019	248.124	0.00074538	0.00063443	0.00012996	1443	5.7641e-06	4.8109e-06	1438	372.72	4.8704e-06	5.9621e-06	433.16	145.31	127.7	43.219	4.6813e-06	53.458	0.000618	0.00056614	0.00016786	1461.9	6.2467e-06	6.7662e-06	1457.6	379.75	6.4102e-06	5.9077e-06	441.81	149.39	130.48	44.478	6.3873e-06	55.072	50.153	-6.097	-3.009	-91.522	26.718	48.254	-91.892	-87.109	8.673	55.112	-87.583	-83.270	-82.927	-78.303	27.690	-78.607	-8191	255	
32257.746	1	1	0	0	0.18378	0.19266	0.015627	0.3992	0.1074	0.063657	0.24826	0.18812	0.040614	0.14811	0.0086348	0.10976	0.065039	0.2309	0.02106	0.17835	-3.8292	-4.6667	-4.2542	-4.6333	-4.6604	-4.1917	-4.7833	-4.8104	-4.2146	-4.7688	-4.4229	-4.4167	-4.7438	-4.0583	-4.5563	-4.7188	188.810	1.598	167.074	206.418	50.731	-82.728	188.148	227.895	-65.090	-42.680	-16.343	167.671	35.328	166.140	11.834	213.798	0.00078226	0.00061395	0.00012792	1439.3	4.8921e-06	5.9213e-06	1432.6	372.93	5.4442e-06	5.2367e-06	432.14	146.94	127.68	43.347	3.7149e-06	53.445	0.0006322	0.00057847	0.00015976	1460.3	5.949e-06	6.3079e-06	1456.5	379.66	6.5953e-06	6.1791e-06	441.04	149.69	130.44	44.422	6.2334e-06	55.088	47.146	-18.358	-17.330	-91.543	21.737	35.207	-91.935	-87.087	14.595	45.266	-87.368	-83.537	-82.810	-78.325	36.821	-79.039	-8191	255	
32257.844	1	1	0	0	0.21622	0.11239	0.18293	0.17604	0.20871	0.10398	0.088461	0.080046	0.1021	0.19107	0.15818	0.1266	0.15243	0.21668	0.11948	0.23559	-3.8563	-4.675	-4.1521	-4.3542	-4.5125	-4.2479	-4.7375	-4.6208	-4.2771	-4.6333	-4.5229	-4.3958	-4.7562	-4.4542	-4.525	-4.8417	223.237	26.027	25.611	220.425	16.973	232.241	-80.320	86.751	126.426	75.375	231.840	152.489	226.495	195.119	-76.868	161.683	0.00073023	0.00057171	0.00012671	1440.3	5.2162e-06	5.1918e-06	1439.7	372.55	3.7653e-06	4.4254e-06	433.16	146.53	127.3	43.23	3.8696e-06	53.436	0.00061451	0.00053962	0.00016498	1459.8	6.0009e-06	6.7715e-06	1456.5	379.34	6.4797e-06	6.5173e-06	441.6	149.59	130.2	44.444	6.3143e-06	54.982	46.188	-24.914	-29.567	-91.651	5.098	30.305	-91.902	-87.145	20.121	49.910	-87.527	-83.424	-82.831	-77.986	47.348	-78.873	-8191	255	
32257.963	1	1	0	0	0.011794	0.045855	0.16115	0.090087	0.20728	0.041402	0.15636	0.37801	0.13655	0.13049	0.30665	0.24848	0.19623	0.078809	0.1664	0.060896	-3.8354	-4.5687	-4.3812	-4.4917	-4.9479	-4.1375	-4.5271	-4.9542	-4.2021	-4.7937	-4.625	-4.3875	-4.6792	-4.4667	-4.4146	-4.7542	110.654	-66.682	141.996	141.616	203.406	186.051	193.191	234.299	77.212	128.526	219.325	220.368	97.405	155.272	-81.552	143.774	0.00073211	0.00057219	0.00015735	1442.3	5.5275e-06	6.1562e-06	1433.9	371.16	7.3592e-06	6.2506e-06	434.53	146.32	127.38	43.266	6.3366e-06	53.616	0.00062396	0.00058451	0.00016383	1460.8	6.2407e-06	6.47e-06	1457.1	379.46	6.5871e-06	6.4812e-06	442.07	149.62	130.24	44.448	6.5434e-06	55.111	41.632	-20.881	-10.063	-91.858	2.533	38.113	-91.747	-86.889	12.034	45.734	-87.679	-83.195	-82.959	-78.183	45.670	-78.708	-8191	255	
32258.035	1	1	0	0	0.093219	0.045115	0.035157	0.22724	0.061463	0.036461	0.31373	0.17144	0.038802	0.28169	0.070761	0.11311	0.18633	0.1669	0.19906	0.042012	-3.7521	-4.3313	-4.4208	-4.4062	-4.6792	-4.1813	-4.6292	-4.7438	-4.0333	-4.5146	-4.6667	-4.1271	-4.8042	-4.3292	-4.3771	-4.7562	219.886	247.065	46.382	216.813	14.560	165.430	167.341	198.784	22.354	154.215	185.751	222.928	221.470	101.006	239.919	119.753	0.00071393	0.00046361	0.00012841	1432.9	5.6329e-06	4.8849e-06	1436.5	373.11	4.7627e-06	4.7568e-06	434.29	146.25	127.67	43.291	5.9199e-06	53.213	0.00061341	0.00053485	0.00015071	1459.7	6.4276e-06	6.4539e-06	1458	379.83	6.539e-06	6.3101e-06	441.69	149.58	130.04	44.483	6.5388e-06	54.975	45.693	-25.500	-17.858	-91.478	23.896	38.114	-91.772	-87.174	31.554	68.241	-87.694	-83.530	-82.956	-78.001	34.230	-78.778	-8191	255	
32258.131	1	1	0	0	0.082046	0.20577	0.05148	0.016498	0.12559	0.024616	0.17368	0.091713	0.10545	0.040398	0.18371	0.25551	0.27461	0.2232	0.061087	0.32988	-3.825	-4.4083	-4.4979	-4.3542	-4.5542	-4.4187	-4.4458	-4.875	-4.1208	-4.4313	-4.6167	-4.1167	-4.7208	-4.4979	-4.3458	-4.6771	-102.054	73.937	-101.153	109.872	-1.298	127.847	196.871	145.576	107.268	94.412	226.011	130.748	241.582	11.752	-23.664	237.637	0.00074516	0.00055605	0.00013735	1441.1	4.4085e-06	5.1543e-06	1437.7	373.81	5.8521e-06	4.8404e-06	432.72	145.83	127.06	43.369	4.3902e-06	53.416	0.00062435	0.000598	0.00016373	1461.8	6.1388e-06	6.5518e-06	1459.2	379.92	6.8345e-06	6.7606e-06	442.01	149.46	130.16	44.513	6.7656e-06	55.016	44.884	-28.006	-14.554	-91.479	27.333	51.658	-91.861	-86.976	27.307	43.637	-87.613	-83.349	-82.771	-78.054	36.339	-78.930	-8191	255	
32258.227	1	1	0	0	0.21	0.15278	0.15012	0.12355	0.20327	0.16531	0.33785	0.13131	0.074965	0.28722	0.14512	0.085969	0.16168	0.046314	0.32812	0.092093	-3.9875	-4.4333	-4.6062	-4.3958	-4.7521	-4.3896	-4.3208	-4.7625	-4.2792	-4.4083	-4.8396	-4.1917	-4.6687	-4.5583	-4.1417	-4.7375	-75.013	-29.759	137.378	172.892	175.319	132.193	208.753	182.276	173.440	-103.346	240.906	-75.574	33.482	54.762	242.853	-25.175	0.0007149	0.00058831	0.00013357	1441.8	6.7859e-06	5.3011e-06	1438.5	374.22	5.3691e-06	4.4354e-06	434.67	145.96	127.08	43.313	5.8592e-06	53.61	0.00062971	0.00058416	0.00015563	1462.9	6.5195e-06	6.277e-06	1459.4	380.35	6.6873e-06	6.1082e-06	442	149.39	130.37	44.439	6.8944e-06	55.117	48.939	-6.613	-13.080	-91.730	21.489	45.333	-91.670	-87.210	17.513	45.751	-87.655	-83.399	-82.863	-77.935	24.521	-79.140	-8191	255	
32258.346	1	1	0	0	0.13563	0.053192	0.16868	0.20805	0.18769	0.09141	0.22799	0.16676	0.040128	0.19276	0.15334	0.15392	0.20607	0.14466	0.28893	0.050392	-3.8396	-4.4208	-4.8	-4.4688	-4.5896	-4.4875	-4.2583	-4.7083	-4.3375	-4.3479	-4.8625	-4.25	-4.6021	-4.5312	-4.1708	-4.8	129.555	49.124	19.309	203.802	213.257	228.905	241.241	108.668	-3.371	-13.062	-73.073	147.607	204.699	-101.534	241.805	33.182	0.00080346	0.00058221	0.00014341	1442.6	4.7166e-06	4.1303e-06	1436	371.9	3.2384e-06	5.7586e-06	433.47	146.15	127.23	43.124	4.3453e-06	53.126	0.00062253	0.00060173	0.00015743	1462.4	6.1538e-06	6.7608e-06	1459.4	379.33	6.582e-06	6.8997e-06	442.1	149.55	130.05	44.402	6.5719e-06	54.877	50.843	-9.396	-15.121	-91.441	28.442	50.603	-91.830	-86.969	7.723	46.196	-87.399	-83.643	-82.894	-78.066	32.778	-78.791	-8191	255	
32258.441	1	1	0	0	0.068868	0.049592	0.023521	0.15212	0.1601	0.12661	0.35349	0.10051	0.1707	0.07347	0.22646	0.017406	0.048973	0.27507	0.088074	0.17016	-4.0792	-4.2438	-4.6125	-4.3208	-4.5896	-4.5375	-4.2438	-4.7833	-4.5125	-4.225	-4.9646	-4.2646	-4.6729	-4.7292	-4.1875	-4.7354	178.787	170.295	-80.987	137.201	196.643	72.621	197.356	188.046	187.790	179.655	127.406	-23.401	246.603	-89.269	-96.635	246.061	0.00071377	0.00045596	0.00014373	1440.6	4.9587e-06	4.5798e-06	1436.1	373.05	5.3299e-06	5.1284e-06	434.13	146.02	126.59	43.193	5.4268e-06	53.426	0.00059346	0.0005937	0.00015851	1460.8	6.3866e-06	6.4794e-06	1458.4	380.06	6.4439e-06	6.5601e-06	442.11	149.43	130.23	44.451	6.8374e-06	55.004	48.462	-30.397	-15.033	-91.621	-4.413	52.203	-91.970	-87.091	37.896	49.110	-87.542	-83.334	-82.781	-77.956	36.721	-78.746	-8191	255	
32258.537	1	1	0	0	0.0904	0.12743	0.060657	0.12011	0.15956	0.091811	0.12498	0.39285	0.17476	0.088409	0.32379	0.17567	0.25139	0.24698	0.18162	0.12391	-4.0625	-4.2	-4.7167	-4.4229	-4.3104	-4.6104	-4.2812	-4.7604	-4.6708	-4.1271	-4.8896	-4.3583	-4.2583	-4.8417	-4.1312	-4.7312	226.622	197.928	124.718	243.227	218.624	223.743	187.957	174.743	4.179	-1.599	225.496	-80.371	251.547	169.553	36.541	-13.354	0.00083752	0.00063325	0.00015006	1442.3	5.4639e-06	5.9543e-06	1434.5	372.49	7.0461e-06	4.3489e-06	433.24	146.47	126.86	42.999	4.2791e-06	53.427	0.00060628	0.00061115	0.00015271	1462.3	6.6784e-06	6.1363e-06	1458.1	379.62	6.5073e-06	6.6764e-06	441.67	149.58	130.21	44.294	6.6836e-06	55.055	47.984	-11.485	0.490	-91.726	37.509	36.652	-91.806	-87.137	26.167	64.927	-87.679	-83.289	-82.623	-78.215	28.795	-78.904	-8191	255	
32258.635	1	1	0	0	0.17035	0.13572	0.14024	0.17401	0.027204	0.18078	0.11934	0.14847	0.098914	0.25154	0.16945	0.05683	0.13623	0.016737	0.047016	0.16901	-4.1813	-4.1479	-4.6729	-4.6583	-4.3771	-4.7854	-4.4021	-4.4958	-4.5896	-4.1604	-4.9583	-4.4042	-4.3354	-4.7542	-4.2937	-4.6104	244.198	-28.620	134.641	179.834	100.833	-36.195	-35.704	178.598	223.541	154.967	67.159	-88.574	149.398	-60.119	227.152	-63.976	0.00076723	0.00063324	0.00013048	1445.8	4.7647e-06	4.7762e-06	1437	371.89	7.0901e-06	5.0341e-06	435.36	146.53	126.8	43.165	4.7991e-06	53.362	0.00060761	0.00061673	0.00015376	1463.2	6.4635e-06	6.7541e-06	1458	379.44	6.3059e-06	6.9598e-06	442.74	149.7	130.28	44.408	6.6744e-06	55.005	48.502	-12.361	-7.629	-91.639	34.371	31.183	-91.822	-86.981	5.007	50.582	-87.756	-83.484	-83.061	-78.104	43.961	-78.711	-8191	255	
32258.730	1	1	0	0	0.064285	0.28702	0.16456	0.36666	0.25255	0.14066	0.12645	0.26343	0.19519	0.13868	0.20374	0.037648	0.0557	0.21649	0.065035	0.2212	-4.5146	-3.9917	-4.7042	-4.5729	-4.3604	-4.8375	-4.4333	-4.5042	-4.6771	-4.1125	-4.7729	-4.5188	-4.3313	-4.8146	-4.2417	-4.5167	102.331	134.112	-54.849	244.811	207.929	64.648	148.696	223.922	-34.963	-95.058	116.001	176.893	-99.339	85.328	-19.532	-67.396	0.0007577	0.00056048	0.00012301	1442.2	5.8511e-06	5.431e-06	1436.4	373.01	7.7644e-06	4.5138e-06	435.13	146.28	127.49	43.258	4.8402e-06	53.523	0.00060915	0.00060335	0.00015677	1462.9	6.7483e-06	6.3038e-06	1458	379.74	6.5462e-06	6.6243e-06	442.47	149.54	130.39	44.437	6.426e-06	55.102	46.118	-16.156	-5.381	-91.731	34.529	42.810	-91.797	-87.020	36.872	46.654	-87.850	-83.517	-82.845	-78.164	58.672	-78.915	-8191	255	
32258.826	1	1	0	0	0.16955	0.083063	0.13751	0.34795	0.26023	0.093564	0.23178	0.16795	0.28313	0.14568	0.040029	0.16267	0.18536	0.05489	0.12938	0.19485	-4.3604	-4.0646	-4.6229	-4.8208	-4.0667	-4.7229	-4.3458	-4.5333	-4.6771	-4.1667	-4.6708	-4.6771	-4.2771	-4.7562	-4.4062	-4.3729	158.932	22.365	-82.912	254.351	154.180	-54.874	211.826	-78.856	75.026	2.579	107.920	249.918	109.115	215.557	24.329	-95.608	0.00071361	0.0004409	0.00013799	1442.8	4.8654e-06	4.4025e-06	1435.4	372.84	6.3013e-06	4.2119e-06	434.56	146.28	126.86	43.32	5.747e-06	53.272	0.00061114	0.00060928	0.00016599	1462.8	6.6244e-06	6.4043e-06	1459.1	379.92	6.3826e-06	6.544e-06	441.93	149.53	130.16	44.505	6.736e-06	55.054	45.840	-23.074	-8.914	-91.661	30.643	42.518	-91.696	-87.143	-4.418	54.049	-87.415	-83.331	-82.933	-78.122	42.138	-78.705	-8191	255	
#DATA ENDS
