BOXY.EXE: ISS Imagent and Oximeter Data Acquisition Program Version 0.80
Ascii Record File

#ACQ INFORMATION
2  Detector Channels 
16  External MUX Channels 
1  Auxiliary Channels 
5000  Waveform (CCF) Frequency (Hz)
1  Waveforms Skipped 
30  Waveforms Averaged 
1  Cycles Averaged 
16  Acquisitions per Waveform 
10.0806  Updata Rate (Hz) 

#FILE INFORMATION
TRUE -- External MUX Channel results are PARSED.
FALSE -- AC DC and Phase are NOT grouped.
TRUE -- Companion Program Settings File CREATED.
FALSE -- AC data not excluded
FALSE -- DC data not excluded
FALSE -- Phase data not excluded
FALSE -- Auxillary Chn. data not excluded
Tab delimiters

#CALIBRATION STATE
TRUE -- Waveform Calibration Values APPLIED.


#AUX CALIBRATION VALUES
Val Type	aux-1	

Term	1.0000e+00	
Factor	0.0000e+00	


#WF CALIBRATION VALUES
A = Detector Channel
Val Type	A-AC1	A-AC2	A-AC3	A-AC4	A-AC5	A-AC6	A-AC7	A-AC8	A-AC9	A-AC10	A-AC11	A-AC12	A-AC13	A-AC14	A-AC15	A-AC16	A-DC1	A-DC2	A-DC3	A-DC4	A-DC5	A-DC6	A-DC7	A-DC8	A-DC9	A-DC10	A-DC11	A-DC12	A-DC13	A-DC14	A-DC15	A-DC16	A-Ph1	A-Ph2	A-Ph3	A-Ph4	A-Ph5	A-Ph6	A-Ph7	A-Ph8	A-Ph9	A-Ph10	A-Ph11	A-Ph12	A-Ph13	A-Ph14	A-Ph15	A-Ph16	

Term	0.00000e+00	0.00000e+00	0.00000e+00	0.00000e+00	0.00000e+00	0.00000e+00	0.00000e+00	0.00000e+00	0.00000e+00	0.00000e+00	0.00000e+00	0.00000e+00	0.00000e+00	0.00000e+00	0.00000e+00	0.00000e+00	0.00000e+00	0.00000e+00	0.00000e+00	0.00000e+00	0.00000e+00	0.00000e+00	0.00000e+00	0.00000e+00	0.00000e+00	0.00000e+00	0.00000e+00	0.00000e+00	0.00000e+00	0.00000e+00	0.00000e+00	0.00000e+00	0.00000e+00	0.00000e+00	0.00000e+00	0.00000e+00	0.00000e+00	0.00000e+00	0.00000e+00	0.00000e+00	0.00000e+00	0.00000e+00	0.00000e+00	0.00000e+00	0.00000e+00	0.00000e+00	0.00000e+00	0.00000e+00	
Factor	1.00000e+00	1.00000e+00	1.00000e+00	1.00000e+00	1.00000e+00	1.00000e+00	1.00000e+00	1.00000e+00	1.00000e+00	1.00000e+00	1.00000e+00	1.00000e+00	1.00000e+00	1.00000e+00	1.00000e+00	1.00000e+00	1.00000e+00	1.00000e+00	1.00000e+00	1.00000e+00	1.00000e+00	1.00000e+00	1.00000e+00	1.00000e+00	1.00000e+00	1.00000e+00	1.00000e+00	1.00000e+00	1.00000e+00	1.00000e+00	1.00000e+00	1.00000e+00	X	X	X	X	X	X	X	X	X	X	X	X	X	X	X	X	

B = Detector Channel
Val Type	B-AC1	B-AC2	B-AC3	B-AC4	B-AC5	B-AC6	B-AC7	B-AC8	B-AC9	B-AC10	B-AC11	B-AC12	B-AC13	B-AC14	B-AC15	B-AC16	B-DC1	B-DC2	B-DC3	B-DC4	B-DC5	B-DC6	B-DC7	B-DC8	B-DC9	B-DC10	B-DC11	B-DC12	B-DC13	B-DC14	B-DC15	B-DC16	B-Ph1	B-Ph2	B-Ph3	B-Ph4	B-Ph5	B-Ph6	B-Ph7	B-Ph8	B-Ph9	B-Ph10	B-Ph11	B-Ph12	B-Ph13	B-Ph14	B-Ph15	B-Ph16	

Term	0.00000e+00	0.00000e+00	0.00000e+00	0.00000e+00	0.00000e+00	0.00000e+00	0.00000e+00	0.00000e+00	0.00000e+00	0.00000e+00	0.00000e+00	0.00000e+00	0.00000e+00	0.00000e+00	0.00000e+00	0.00000e+00	0.00000e+00	0.00000e+00	0.00000e+00	0.00000e+00	0.00000e+00	0.00000e+00	0.00000e+00	0.00000e+00	0.00000e+00	0.00000e+00	0.00000e+00	0.00000e+00	0.00000e+00	0.00000e+00	0.00000e+00	0.00000e+00	-2.15620e+02	-1.31657e+02	-1.25146e+02	-1.81704e+02	-8.15054e+01	-6.68657e+01	-1.57588e+02	-1.62015e+02	-8.60096e+01	-6.69782e+01	-1.71217e+02	-1.72824e+02	-1.83390e+02	-1.77011e+02	-7.37979e+01	-1.49785e+02	
Factor	4.58921e-05	1.65953e-04	4.60063e-05	1.49255e-01	1.93368e-06	1.78685e-06	1.64339e-01	5.03331e-02	2.24651e-06	1.77573e-06	8.09569e-02	3.27481e-02	3.51869e-02	8.81024e-03	1.97165e-06	1.24698e-02	2.73434e-05	7.93411e-05	2.24816e-05	7.78062e-02	6.25384e-07	9.38907e-07	8.07401e-02	2.62746e-02	6.23511e-07	9.41288e-07	4.12738e-02	1.66736e-02	1.85840e-02	4.65689e-03	7.32170e-07	6.40504e-03	X	X	X	X	X	X	X	X	X	X	X	X	X	X	X	X	



#DISTANCE SETTINGS
A = Detector Channel
A-1	A-2	A-3	A-4	A-5	A-6	A-7	A-8	A-9	A-10	A-11	A-12	A-13	A-14	A-15	A-16	

2.5000e+00	3.0000e+00	2.5000e+00	3.0000e+00	2.0000e+00	3.0000e+00	1.5000e+00	3.0000e+00	3.0000e+00	3.0000e+00	3.0000e+00	3.0000e+00	3.0000e+00	3.0000e+00	1.5000e+00	3.0000e+00	

B = Detector Channel
B-1	B-2	B-3	B-4	B-5	B-6	B-7	B-8	B-9	B-10	B-11	B-12	B-13	B-14	B-15	B-16	

1.0000e+01	1.0000e+01	1.0000e+01	1.4400e+00	1.0000e+01	1.0000e+01	1.5100e+00	1.9400e+00	1.0000e+01	1.0000e+01	1.9900e+00	2.4900e+00	2.4100e+00	2.9000e+00	1.0000e+01	2.9800e+00	




#DATA BEGINS
time	group	step	mark	flag	A-AC1	A-AC2	A-AC3	A-AC4	A-AC5	A-AC6	A-AC7	A-AC8	A-AC9	A-AC10	A-AC11	A-AC12	A-AC13	A-AC14	A-AC15	A-AC16	A-DC1	A-DC2	A-DC3	A-DC4	A-DC5	A-DC6	A-DC7	A-DC8	A-DC9	A-DC10	A-DC11	A-DC12	A-DC13	A-DC14	A-DC15	A-DC16	A-Ph1	A-Ph2	A-Ph3	A-Ph4	A-Ph5	A-Ph6	A-Ph7	A-Ph8	A-Ph9	A-Ph10	A-Ph11	A-Ph12	A-Ph13	A-Ph14	A-Ph15	A-Ph16	B-AC1	B-AC2	B-AC3	B-AC4	B-AC5	B-AC6	B-AC7	B-AC8	B-AC9	B-AC10	B-AC11	B-AC12	B-AC13	B-AC14	B-AC15	B-AC16	B-DC1	B-DC2	B-DC3	B-DC4	B-DC5	B-DC6	B-DC7	B-DC8	B-DC9	B-DC10	B-DC11	B-DC12	B-DC13	B-DC14	B-DC15	B-DC16	B-Ph1	B-Ph2	B-Ph3	B-Ph4	B-Ph5	B-Ph6	B-Ph7	B-Ph8	B-Ph9	B-Ph10	B-Ph11	B-Ph12	B-Ph13	B-Ph14	B-Ph15	B-Ph16	aux-1	digaux	

18393.578	1	1	0	768	0.11607	0.21645	0.16358	0.40225	0.17241	0.045154	0.14695	0.27489	0.14711	0.06659	0.3621	0.036619	0.2154	0.23266	0.14994	0.23604	-4.2479	-4.1813	-4.9833	-4.4875	-4.3417	-4.9771	-4.4708	-4.7917	-4.7042	-4.2875	-4.9396	-4.7167	-4.4688	-4.9792	-4.2417	-4.6833	-48.328	240.484	260.620	236.646	-62.977	239.132	257.993	231.948	65.187	37.716	160.829	204.541	263.000	162.192	73.879	202.263	0.00044681	0.00047641	0.00014233	1351.8	4.824e-06	6.2249e-06	1347.5	366.7	3.7001e-06	4.5494e-06	418.28	139.21	121.54	41.81	5.9423e-06	51.674	0.00054846	0.00059043	0.00013854	1366.8	6.2343e-06	5.9053e-06	1366.4	373.05	6.3208e-06	6.3968e-06	425.7	142.42	124.23	42.859	6.5499e-06	53.05	96.007	-5.067	6.908	-78.571	51.169	67.078	-78.786	-74.102	19.888	60.738	-74.584	-70.488	-69.757	-64.914	39.357	-65.971	-8191	255	
18393.676	1	1	0	0	0.31648	0.041758	0.32598	0.27674	0.12434	0.13876	0.31277	0.19066	0.21442	0.08696	0.19369	0.28914	0.055787	0.19198	0.061631	0.011002	-4.3063	-4.3458	-4.6625	-4.825	-4.1958	-5.0271	-4.4729	-4.7521	-4.7375	-4.4062	-4.65	-4.5833	-4.4417	-5.125	-4.3396	-4.6062	260.242	-6.936	181.320	206.187	264.832	57.933	221.650	246.944	10.267	33.471	223.519	209.033	196.909	257.920	-56.316	73.096	0.000443	0.00040793	0.00014959	1348.2	4.3496e-06	6.018e-06	1349.2	366.73	3.0257e-06	4.5536e-06	418.87	138.77	120.8	41.626	6.2691e-06	51.643	0.00053092	0.00056745	0.00015058	1364.9	6.2799e-06	5.5043e-06	1365.6	372.93	6.1494e-06	6.1498e-06	425.42	142.52	123.86	42.751	6.164e-06	52.947	101.326	-9.727	-4.751	-78.505	40.586	61.856	-78.835	-73.833	-26.041	48.086	-74.467	-70.550	-70.031	-65.184	47.818	-65.802	-8191	255	
18393.771	1	1	0	0	0.096058	0.12128	0.27735	0.43776	0.28156	0.099767	0.24885	0.16638	0.19888	0.062288	0.20973	0.077275	0.19388	0.19967	0.22053	0.15644	-4.4479	-4.2667	-4.8771	-4.6396	-4.3479	-4.9437	-4.7125	-4.8146	-4.9104	-4.2812	-4.75	-4.8125	-4.3458	-4.8854	-4.4354	-4.5146	255.640	210.028	153.375	165.358	249.091	-0.295	205.500	231.114	28.514	-71.201	-79.050	218.808	258.120	203.348	12.115	143.855	0.00047164	0.00043533	0.00010796	1350.9	4.3142e-06	6.1696e-06	1347.2	366.62	4.8378e-06	5.2068e-06	418.03	139.89	121.79	41.64	5.0793e-06	51.718	0.00054311	0.00058365	0.00014398	1365.7	6.5783e-06	6.2555e-06	1366.8	372.47	5.9922e-06	6.2635e-06	424.86	142.54	124.05	42.787	6.2265e-06	53.02	101.080	-5.586	11.443	-78.526	28.501	45.566	-78.821	-73.948	1.616	63.285	-74.626	-70.646	-69.663	-65.165	45.412	-65.820	-8191	255	
18393.867	1	1	0	0	0.18112	0.058345	0.16511	0.11188	0.31741	0.081102	0.22095	0.25808	0.26068	0.036714	0.14193	0.12876	0.22051	0.11328	0.15487	0.057228	-4.4271	-4.1583	-4.6813	-4.8875	-4.2375	-4.7562	-4.7188	-4.6854	-4.875	-4.4833	-4.7312	-4.7979	-4.3688	-4.8104	-4.5125	-4.4208	196.333	240.412	-70.624	215.465	61.575	252.633	138.225	211.944	116.435	68.296	219.643	-78.549	-53.496	-88.132	-31.837	30.195	0.00043392	0.00050412	0.00013577	1349.6	3.986e-06	5.3427e-06	1348.6	367.15	2.0196e-06	4.4077e-06	418.55	140.01	121.18	41.726	5.3745e-06	51.306	0.00052112	0.00056762	0.00013878	1364.9	6.1965e-06	5.5454e-06	1364.2	372.63	6.0156e-06	6.4145e-06	425.81	142.78	123.95	42.867	6.3622e-06	52.984	104.267	-12.412	-9.111	-78.790	43.733	52.282	-78.778	-73.977	0.242	61.451	-74.398	-70.423	-69.975	-65.075	48.498	-65.898	-8191	255	
18393.963	1	1	0	0	0.10792	0.11557	0.18536	0.18547	0.11051	0.1956	0.24823	0.15707	0.22764	0.070776	0.084618	0.24433	0.15727	0.13162	0.21181	0.27025	-4.6833	-4.1667	-4.5146	-4.9896	-4.2104	-4.7375	-4.7271	-4.4646	-4.8688	-4.3875	-4.6958	-4.9333	-4.1167	-4.7458	-4.5437	-4.2104	69.648	212.839	69.829	222.036	233.448	236.003	216.364	189.215	112.932	151.275	60.569	-80.392	-53.250	-81.138	22.778	216.677	0.00049364	0.00050488	0.00012638	1348.1	2.6436e-06	5.0238e-06	1344.7	367.09	4.0762e-06	4.2357e-06	419.54	139.8	121.15	41.765	3.8931e-06	51.722	0.00055108	0.00057175	0.0001377	1364.8	6.0389e-06	5.7801e-06	1364.1	373.28	6.0714e-06	6.0693e-06	426.1	142.75	123.95	42.832	6.0618e-06	53.044	103.722	-2.534	-8.089	-78.545	40.832	49.936	-78.706	-73.973	4.591	59.391	-74.611	-70.420	-69.818	-65.126	25.972	-65.784	-8191	255	
18394.059	1	1	0	0	0.20147	0.10303	0.19087	0.17371	0.09851	0.06596	0.41791	0.18282	0.12002	0.11064	0.12802	0.17089	0.099694	0.096054	0.19703	0.23738	-4.6396	-4.2979	-4.4021	-4.9083	-4.1062	-4.6208	-4.7646	-4.3792	-4.8792	-4.3792	-4.6146	-4.9229	-4.3042	-4.9292	-4.5854	-4.3979	168.864	110.879	261.332	80.392	209.530	96.831	198.962	118.291	57.666	153.749	192.731	150.872	183.997	212.862	135.845	161.376	0.00044915	0.00048649	0.00014827	1351.1	4.3411e-06	3.9367e-06	1347.8	366.5	4.3457e-06	5.2198e-06	418.16	139.34	120.78	41.665	3.544e-06	51.457	0.00052032	0.00054911	0.000154	1363.9	6.2617e-06	5.8662e-06	1363.8	372.77	5.9701e-06	6.0497e-06	425.27	142.73	123.77	42.803	5.8589e-06	52.954	102.845	-2.798	2.063	-78.741	47.307	65.666	-78.774	-73.924	7.054	61.868	-74.538	-70.371	-69.780	-65.059	39.167	-65.852	-8191	255	
18394.180	1	1	0	0	0.137	0.050599	0.089572	0.22333	0.13338	0.11841	0.15461	0.14389	0.04484	0.024532	0.063217	0.21153	0.04569	0.21032	0.066815	0.17	-4.5312	-4.4167	-4.2896	-5.1271	-4.2271	-4.7042	-4.9	-4.5042	-4.8417	-4.5625	-4.4042	-4.9437	-4.4729	-4.5146	-4.8562	-4.2458	-35.228	169.930	252.126	213.799	109.012	240.447	166.672	202.412	248.532	224.776	109.187	167.244	79.378	232.065	128.177	214.195	0.00043286	0.00045674	0.0001418	1346.4	3.0001e-06	5.5757e-06	1345.2	366.37	4.7027e-06	5.2972e-06	417.04	139.41	121.48	41.824	5.0656e-06	51.864	0.00055262	0.00053241	0.00015016	1364	6.0506e-06	5.7899e-06	1364.6	372.18	5.6817e-06	6.44e-06	425.18	142.66	123.86	42.78	5.9413e-06	53.112	103.862	-8.478	-0.909	-78.564	43.784	57.525	-78.812	-74.091	13.494	60.537	-74.522	-70.348	-69.676	-65.098	37.859	-65.763	-8191	255	
18394.275	1	1	0	0	0.29628	0.10411	0.099063	0.51375	0.12249	0.23675	0.26055	0.36796	0.046619	0.19993	0.28159	0.27374	0.20411	0.20263	0.22092	0.21631	-4.6271	-4.3542	-4.3083	-4.925	-4.4271	-4.4833	-4.9604	-4.4979	-5.0188	-4.6417	-4.4	-4.9625	-4.5333	-4.45	-4.7833	-4.3896	154.849	123.527	50.759	234.755	49.644	242.719	228.839	201.083	-56.779	81.569	227.765	131.250	61.113	192.177	-24.148	178.286	0.00043794	0.0004512	0.00013032	1349.3	4.3008e-06	6.1207e-06	1344.5	366.82	4.4407e-06	5.011e-06	417.42	138.96	120.93	41.884	5.2592e-06	51.404	0.00054846	0.00056762	0.00016561	1364	6.0206e-06	6.2183e-06	1363.6	372.78	6.1624e-06	6.0909e-06	425.5	142.65	123.93	42.78	6.138e-06	52.932	96.666	2.044	-5.872	-78.674	36.893	53.576	-78.839	-74.139	11.898	57.752	-74.459	-70.325	-69.964	-64.988	50.614	-65.705	-8191	255	
18394.371	1	1	0	0	0.22701	0.13334	0.044892	0.1547	0.19262	0.14718	0.12428	0.31687	0.095499	0.17127	0.11655	0.0184	0.29262	0.11844	0.051272	0.20147	-4.3812	-4.7375	-4.3208	-4.9833	-4.3313	-4.4875	-5.225	-4.3104	-4.8083	-4.6875	-4.2771	-5.0354	-4.575	-4.4604	-4.9146	-4.4708	-59.504	35.001	-72.220	206.012	173.050	218.563	261.301	232.670	165.446	64.142	189.140	9.211	-25.617	219.570	-68.592	189.877	0.00040872	0.00057192	0.00013544	1345.9	3.1986e-06	4.2405e-06	1349.1	366.41	4.243e-06	6.1488e-06	418	139.42	121.33	41.751	5.1771e-06	51.464	0.00054128	0.00055043	0.00016037	1363.2	6.3151e-06	6.1772e-06	1363.6	372.46	6.2988e-06	6.1537e-06	424.99	142.67	123.96	42.762	5.6987e-06	52.977	93.535	0.815	-3.019	-78.605	13.650	70.447	-78.731	-74.071	18.715	64.319	-74.630	-70.527	-69.690	-64.913	33.468	-66.288	-8191	255	
18394.469	1	1	0	0	0.17367	0.2448	0.17443	0.099056	0.07547	0.23888	0.23979	0.11943	0.34162	0.13612	0.10716	0.19245	0.1854	0.3655	0.063723	0.14276	-4.2396	-4.7375	-4.2771	-4.8958	-4.5708	-4.1771	-5.1833	-4.5521	-4.7125	-4.8104	-4.4354	-4.6958	-4.6208	-4.4	-4.8458	-4.4854	-47.418	50.400	48.837	217.685	-57.918	-64.479	183.677	188.830	131.080	131.062	247.801	154.159	203.451	204.472	21.624	-88.967	0.00043477	0.00039381	0.00015631	1349	4.0309e-06	5.8536e-06	1345.1	367	3.6939e-06	3.7353e-06	418.79	138.95	121.24	41.685	3.4259e-06	51.752	0.00054784	0.00050415	0.00016131	1364.2	6.0415e-06	6.3631e-06	1363.4	373.01	5.7973e-06	5.1202e-06	425.2	142.66	123.87	42.736	5.8787e-06	52.994	101.442	-12.443	9.659	-78.774	48.867	50.036	-78.855	-74.043	13.455	51.569	-74.692	-70.215	-69.594	-65.045	31.472	-65.683	-8191	255	
18394.562	1	1	0	0	0.10435	0.2364	0.12783	0.30967	0.30859	0.29621	0.24785	0.33222	0.044595	0.099948	0.06734	0.30184	0.11511	0.13099	0.11873	0.16345	-4.0958	-4.7375	-4.1687	-4.8896	-4.6292	-4.3521	-5.0917	-4.6125	-4.5771	-4.8896	-4.4646	-4.8083	-4.9167	-4.3063	-4.8688	-4.4729	-61.485	-8.523	75.042	202.212	115.443	251.914	179.767	255.919	234.438	160.755	-60.879	211.725	179.148	-87.681	-57.841	113.261	0.00043261	0.00044706	0.00015542	1346.4	4.3467e-06	4.3008e-06	1348	366.47	3.6961e-06	4.6095e-06	419.26	139.28	121.38	41.72	5.31e-06	51.398	0.00053684	0.00046332	0.00016524	1361.9	6.0597e-06	5.9053e-06	1365	372.64	6.1013e-06	5.4987e-06	425.57	142.56	123.95	42.834	5.6972e-06	52.923	99.639	-8.590	0.229	-78.432	48.371	46.036	-78.641	-73.899	4.137	60.215	-74.657	-70.288	-70.193	-65.001	55.080	-65.823	-8191	255	
18394.658	1	1	0	0	0.3534	0.13604	0.13749	0.26368	0.12765	0.29838	0.26005	0.22872	0.27124	0.21865	0.19527	0.13917	0.12043	0.20467	0.23035	0.12812	-4.1104	-4.8667	-4.3292	-4.8667	-4.8167	-4.1333	-5.1125	-4.5375	-4.2375	-4.8875	-4.3458	-4.7292	-4.7208	-4.3708	-4.7958	-4.6375	199.589	259.073	87.246	249.489	154.789	251.573	134.549	161.665	203.569	13.729	150.195	-6.904	213.118	-48.750	200.762	-67.310	0.00044525	0.00051203	0.00014532	1348.9	3.0295e-06	5.0789e-06	1340.4	367.2	4.3531e-06	3.9608e-06	416.58	139.32	121.09	41.526	5.439e-06	51.644	0.00054094	0.00050464	0.00015601	1364.1	5.9868e-06	6.3239e-06	1359.5	372.17	6.5274e-06	5.7556e-06	424.32	142.69	123.8	42.715	5.9397e-06	52.948	102.512	7.709	4.493	-78.612	61.235	59.257	-78.609	-74.059	26.346	63.032	-74.582	-70.391	-69.705	-64.782	42.361	-65.990	-8191	255	
18394.756	1	1	0	0	0.071764	0.12333	0.19793	0.027022	0.06719	0.18153	0.3485	0.278	0.11346	0.27004	0.3586	0.089349	0.07917	0.16887	0.20091	0.033566	-4	-4.8771	-4.3646	-4.7146	-4.8854	-4.1208	-4.9917	-4.7292	-4.3375	-4.9979	-4.3646	-4.7229	-4.9437	-4.475	-4.7688	-4.7271	91.072	-4.204	239.536	132.617	118.548	78.698	171.992	263.656	248.971	213.096	254.973	-19.447	-80.658	199.439	194.906	140.311	0.00048051	0.00049726	0.00016043	1344.5	3.7086e-06	5.2315e-06	1344.1	365.78	3.5891e-06	5.1429e-06	418.26	138.81	121.1	41.663	5.1272e-06	51.618	0.00056549	0.0005063	0.00014824	1361.3	5.7757e-06	6.631e-06	1361.7	371.8	6.1247e-06	5.5242e-06	424.25	142.48	123.94	42.779	5.5569e-06	53.015	98.978	-6.346	-5.294	-78.607	32.467	57.708	-78.906	-74.296	-38.180	44.794	-74.590	-70.453	-70.019	-64.863	39.606	-65.883	-8191	255	
18394.877	1	1	0	0	0.13418	0.28789	0.11654	0.24616	0.34482	0.1356	0.26819	0.13758	0.17781	0.057895	0.17172	0.02568	0.076687	0.072863	0.046515	0.27858	-3.8729	-4.9354	-4.425	-4.6125	-4.9688	-4.1854	-4.8542	-4.8063	-4.3125	-4.9021	-4.7562	-4.6	-4.8688	-4.5146	-4.7333	-4.6667	48.358	-88.101	-55.078	218.326	226.557	172.203	193.174	104.936	15.766	154.447	199.426	236.033	-68.737	242.960	76.960	253.490	0.00044752	0.0004863	0.00015539	1345.9	3.3634e-06	4.8799e-06	1341	366.36	3.7006e-06	4.5649e-06	418.27	138.85	121.3	41.663	3.9267e-06	52.094	0.00056436	0.00051704	0.00016664	1360.5	5.9151e-06	6.2887e-06	1360.9	372.49	6.3611e-06	5.7713e-06	425.01	142.15	123.8	42.759	5.955e-06	53.079	102.522	-3.284	-4.679	-78.498	55.725	52.011	-78.701	-74.067	-3.404	55.787	-74.616	-70.341	-70.099	-65.106	30.977	-65.850	-8191	255	
18394.973	1	1	0	0	0.16437	0.15156	0.13496	0.068369	0.1398	0.09058	0.15232	0.26498	0.12809	0.24147	0.1243	0.11875	0.20248	0.13018	0.15205	0.28126	-3.9146	-4.8521	-4.5292	-4.4958	-4.9	-4.2292	-4.725	-4.8396	-4.25	-4.8208	-4.6833	-4.5062	-4.9625	-4.5312	-4.5146	-4.9812	173.264	-30.054	9.975	-57.916	70.139	132.956	219.560	189.144	241.576	206.529	209.537	-62.048	148.943	44.429	84.284	107.358	0.00045355	0.00061549	0.00016146	1349.5	3.7194e-06	4.2948e-06	1345.8	364.93	3.6047e-06	5.2643e-06	417.25	139.32	121.07	41.67	5.0327e-06	51.58	0.0005598	0.0005415	0.00013826	1363.1	5.6519e-06	5.8525e-06	1362.2	371.71	6.0909e-06	5.9752e-06	424.53	142.62	123.71	42.817	5.8024e-06	53.021	96.214	7.649	1.671	-78.608	27.782	53.648	-78.767	-74.130	40.386	59.012	-74.489	-70.550	-69.733	-65.137	46.251	-65.830	-8191	255	
18395.068	1	1	0	0	0.010588	0.19206	0.072751	0.24399	0.16033	0.086132	0.39631	0.17344	0.17569	0.11932	0.13069	0.16217	0.25545	0.17022	0.13753	0.14246	-3.9208	-4.9104	-4.5563	-4.6042	-4.8479	-4.4646	-4.7125	-4.9833	-4.1146	-4.5792	-4.8187	-4.4688	-5.0563	-4.5	-4.6417	-4.8958	87.564	158.791	44.134	187.910	231.182	243.862	199.924	75.880	115.613	169.184	-83.258	-85.977	149.936	254.438	218.401	170.399	0.00044156	0.00044746	0.00012438	1346.3	3.086e-06	6.0445e-06	1340.6	365.03	4.0258e-06	3.8311e-06	416.8	139.07	121.13	41.785	4.1802e-06	51.588	0.00055826	0.00053159	0.00015503	1361.3	5.9333e-06	5.5298e-06	1362.9	372	6.2689e-06	5.8105e-06	424.53	142.39	123.82	42.833	6.5102e-06	53.025	101.088	0.625	-5.147	-78.531	36.061	55.219	-78.664	-73.987	8.792	43.330	-74.561	-70.243	-69.703	-65.043	61.148	-65.843	-8191	255	
18395.139	1	1	0	0	0.091389	0.17389	0.21469	0.35376	0.2883	0.13355	0.14699	0.16153	0.18094	0.24731	0.35865	0.11969	0.2528	0.19394	0.074404	0.14953	-3.9125	-4.6188	-4.675	-4.4563	-4.9563	-4.475	-4.5979	-5.1562	-4.2333	-4.8771	-4.9417	-4.1542	-5.1188	-4.525	-4.5229	-4.7792	125.470	-8.388	63.538	242.661	179.271	234.896	-91.556	206.946	-56.747	187.325	209.849	-70.248	221.447	69.338	136.718	232.351	0.00040933	0.00032855	0.00014521	1346	3.3789e-06	4.6827e-06	1341.7	365.11	3.4138e-06	5.5135e-06	417.08	139.64	120.96	41.646	4.6585e-06	51.727	0.00057985	0.00051423	0.00014454	1361.5	5.8356e-06	6.2985e-06	1360.9	372.03	6.1091e-06	5.8478e-06	423.94	142.69	123.77	42.805	6.2524e-06	53.071	94.091	3.620	-9.654	-78.490	37.948	57.035	-78.735	-73.998	-0.634	57.845	-74.598	-70.223	-69.768	-65.209	48.102	-65.988	-8191	255	
18395.260	1	1	0	0	0.21755	0.18037	0.044024	0.25632	0.05487	0.24896	0.060704	0.18769	0.060512	0.071318	0.20728	0.19815	0.21538	0.14577	0.23863	0.18035	-4.0521	-4.7146	-4.6042	-4.4146	-4.8271	-4.6375	-4.6771	-5.15	-4.4667	-4.75	-4.9583	-4.2958	-4.8104	-4.6646	-4.2646	-5.15	-52.107	18.757	53.618	254.533	151.497	43.609	176.036	206.630	131.069	-20.917	233.265	-42.202	226.491	-15.810	-83.772	214.601	0.00046378	0.00056882	0.00011265	1346.7	4.033e-06	4.7297e-06	1347.2	365.52	4.0292e-06	5.2634e-06	415.88	139.35	121.07	41.779	2.6064e-06	51.441	0.00055268	0.00054696	0.00013573	1361.7	5.9307e-06	5.4496e-06	1361	371.38	6.6066e-06	5.8987e-06	424.58	142.65	123.94	42.793	6.0816e-06	52.924	102.197	-0.242	-3.278	-78.743	41.292	43.360	-78.830	-74.328	24.451	63.396	-74.671	-70.528	-69.827	-64.955	31.696	-65.818	-8191	255	
18395.355	1	1	0	0	0.13832	0.060955	0.11473	0.20943	0.19123	0.33641	0.25803	0.32613	0.24707	0.069535	0.077041	0.095278	0.055031	0.17721	0.24074	0.22384	-4.0958	-4.6104	-4.95	-4.4896	-4.8063	-4.5604	-4.6729	-4.9625	-4.5896	-4.5208	-4.9604	-4.4521	-4.8438	-4.7646	-4.2896	-4.9833	258.828	51.006	78.643	259.038	-53.428	-50.228	175.046	224.480	58.886	143.493	-45.801	125.242	-87.385	36.775	27.912	-90.534	0.00046641	0.00054906	0.00016643	1347.1	3.4214e-06	5.5536e-06	1344.3	366.16	3.6053e-06	3.7918e-06	419.06	139.46	121.81	41.803	4.0176e-06	51.503	0.00056384	0.00057126	0.0001406	1361.5	5.6688e-06	5.7312e-06	1361.8	372.29	6.5261e-06	5.8242e-06	425.05	142.71	123.96	42.838	6.2646e-06	52.901	102.629	2.570	-8.794	-78.462	26.918	61.518	-78.870	-74.058	-8.295	49.667	-74.534	-70.246	-69.835	-65.204	49.185	-65.909	-8191	255	
18395.451	1	1	0	0	0.2787	0.17758	0.066359	0.22419	0.23616	0.14885	0.19639	0.28102	0.32821	0.28208	0.24263	0.15598	0.22869	0.18068	0.071925	0.16519	-4.05	-4.5375	-4.7271	-4.4583	-4.6188	-4.8979	-4.5188	-5.1521	-4.4542	-4.6292	-4.9104	-4.3125	-4.7729	-4.6937	-4.3375	-5.0667	-30.227	218.922	-40.990	188.549	-48.923	109.749	-85.169	201.740	-66.065	252.210	-65.925	11.563	234.010	-33.924	168.170	-89.590	0.00049909	0.00043117	0.00016357	1343.2	3.4187e-06	5.1737e-06	1339.1	365.28	3.6061e-06	5.478e-06	417.77	139.45	120.9	41.662	3.8313e-06	51.695	0.0005594	0.00056283	0.00014145	1360.7	5.764e-06	5.4574e-06	1359.7	371.81	6.1351e-06	6.2047e-06	424.87	142.53	123.74	42.723	6.0953e-06	53.07	104.492	-4.293	-8.790	-78.574	41.823	62.790	-78.722	-74.078	15.968	58.424	-74.570	-70.416	-69.885	-65.124	41.161	-65.727	-8191	255	
18395.572	1	1	0	0	0.12643	0.17479	0.23094	0.32674	0.12224	0.25711	0.15639	0.13419	0.13069	0.12424	0.084311	0.061426	0.13023	0.15753	0.10077	0.12806	-4.1188	-4.4187	-4.7833	-4.5708	-4.6833	-4.6562	-4.5396	-4.8917	-4.6354	-4.1729	-5.0938	-4.4896	-4.4667	-4.9521	-4.275	-5.0687	68.279	40.419	-61.440	187.188	100.028	129.013	-90.727	228.020	108.484	23.830	56.834	-91.539	-70.213	242.478	-64.158	50.120	0.00042861	0.0005708	0.00014084	1342.4	3.3748e-06	5.8021e-06	1340.6	365.4	2.4622e-06	3.8512e-06	415.72	138.97	121.07	41.662	3.9152e-06	51.622	0.00054732	0.00058117	0.00014847	1360.5	5.8734e-06	5.6374e-06	1361.1	371.65	5.544e-06	5.9654e-06	424.22	142.47	123.9	42.728	6.437e-06	52.959	98.837	-1.033	-1.453	-78.579	46.847	54.998	-78.722	-74.037	13.462	58.028	-74.576	-70.416	-69.931	-64.849	46.629	-65.765	-8191	255	
18395.668	1	1	0	0	0.14001	0.17814	0.12429	0.12389	0.069719	0.11916	0.23945	0.097973	0.1301	0.21958	0.072875	0.22241	0.33982	0.047738	0.068371	0.079726	-4.3063	-4.3104	-4.9396	-4.4292	-4.8146	-4.85	-4.5271	-4.6604	-4.7	-4.2729	-5.0896	-4.5792	-4.4583	-4.9833	-4.3187	-4.8208	113.439	210.119	135.430	-85.473	86.418	38.284	220.159	105.157	256.797	-72.594	244.788	186.481	-66.190	25.788	66.114	92.426	0.00041534	0.00060269	0.00012458	1343.6	4.3741e-06	4.6114e-06	1340.4	364.54	2.4807e-06	4.0179e-06	418	139.31	120.78	41.743	5.0716e-06	51.494	0.00055986	0.00060498	0.00013447	1359.2	6.0415e-06	5.5493e-06	1361	371.57	5.8714e-06	6.4302e-06	424.4	142.43	123.61	42.732	6.617e-06	52.955	96.707	-3.845	-16.721	-78.660	31.434	55.264	-78.746	-74.065	7.837	61.036	-74.629	-70.507	-69.689	-65.075	36.677	-66.168	-8191	255	
18395.740	1	1	0	0	0.14597	0.1785	0.19626	0.28217	0.050971	0.11701	0.32426	0.13268	0.18565	0.050598	0.097869	0.058561	0.040245	0.24287	0.22875	0.1343	-4.4688	-4.2958	-4.8313	-4.6125	-4.375	-5.0271	-4.5604	-4.7688	-4.7937	-4.3063	-5.0396	-4.5437	-4.4938	-4.8354	-4.2875	-4.6604	182.407	265.690	137.749	238.765	108.476	256.500	195.764	-83.578	60.541	-34.164	210.143	145.149	174.880	-38.688	246.111	-10.844	0.00047998	0.00056916	0.00011956	1345.5	4.5245e-06	4.1295e-06	1344	365.58	4.4629e-06	4.6576e-06	418.91	138.66	120.8	41.778	3.5017e-06	51.334	0.00057034	0.00061555	0.00014365	1361.1	6.1965e-06	5.698e-06	1361.9	372.05	5.6649e-06	6.4145e-06	425.46	142.22	123.77	42.815	6.379e-06	52.927	99.886	-2.120	-0.241	-78.607	33.119	41.742	-78.906	-74.122	20.675	56.824	-74.667	-70.540	-69.935	-64.901	53.100	-65.704	-8191	255	
18395.859	1	1	0	0	0.25979	0.066462	0.2132	0.4659	0.11747	0.078146	0.1194	0.1364	0.11482	0.14451	0.081564	0.06035	0.13857	0.12179	0.2139	0.068605	-4.3562	-4.3042	-4.7	-4.9375	-4.1979	-4.9083	-4.5437	-4.7646	-4.9979	-4.4167	-4.9604	-4.8396	-4.4187	-5.1062	-4.5146	-4.6146	65.187	56.298	-41.016	227.713	-83.952	-61.488	184.837	126.875	92.609	267.959	261.588	-80.521	176.139	-25.094	103.195	62.715	0.0004544	0.00046047	0.00012885	1341.8	3.6921e-06	5.2899e-06	1344	366.4	3.6211e-06	3.6396e-06	418.42	139.67	121.43	41.918	4.6143e-06	51.571	0.00054345	0.00055654	0.00013925	1359.9	5.8864e-06	5.6315e-06	1361.4	372.21	5.8181e-06	6.0615e-06	425.04	142.76	123.87	42.876	6.4629e-06	53.004	101.432	-4.747	0.534	-78.630	57.715	59.208	-78.574	-74.037	-16.911	49.698	-74.458	-70.455	-69.867	-64.955	57.340	-65.790	-8191	255	
18395.955	1	1	0	0	0.18848	0.12426	0.092543	0.042275	0.15529	0.099652	0.20642	0.24699	0.28204	0.095349	0.12405	0.09714	0.25483	0.26063	0.03878	0.14148	-4.4875	-4.2708	-4.8313	-4.8604	-4.3271	-4.7771	-4.6604	-4.5625	-4.8167	-4.3083	-4.7063	-4.8688	-4.3646	-4.9833	-4.3104	-4.5979	-67.392	165.595	235.829	142.221	-30.113	161.999	237.800	211.820	150.231	-37.526	223.325	175.699	-87.763	-48.823	224.290	151.701	0.00045381	0.00052664	0.00013151	1343.2	3.5937e-06	5.0472e-06	1338.9	366.19	4.3414e-06	4.3987e-06	417.67	138.98	121.23	41.819	5.095e-06	51.646	0.00054408	0.00062283	0.00013803	1359.9	5.9411e-06	5.7978e-06	1359	371.88	5.8298e-06	6.2439e-06	424.84	142.57	123.83	42.815	6.5636e-06	52.996	100.553	-7.268	19.770	-78.638	62.337	70.480	-78.657	-74.150	4.673	46.029	-74.569	-70.317	-69.681	-65.206	46.105	-65.766	-8191	255	
18396.053	1	1	0	0	0.085244	0.22795	0.062106	0.23059	0.044583	0.086159	0.46658	0.14709	0.15888	0.31836	0.091959	0.10148	0.29131	0.22637	0.099373	0.10513	-4.4917	-4.3	-4.6625	-4.9125	-4.3354	-4.6292	-4.9375	-4.4542	-5.0146	-4.2063	-4.7958	-4.6937	-4.3542	-4.8521	-4.6292	-4.3396	235.054	117.138	-70.625	260.335	-59.626	67.040	245.787	167.443	173.022	258.958	-26.021	199.117	40.851	-88.674	49.300	226.284	0.00044361	0.00049023	0.00013581	1346.1	3.9464e-06	4.8773e-06	1345.7	367.39	4.4107e-06	4.1009e-06	417.52	139.12	120.49	41.712	6.2289e-06	51.811	0.00054163	0.00059291	0.00013597	1361.7	5.9998e-06	5.4418e-06	1362.1	372.5	5.6869e-06	5.9027e-06	424.33	142.64	123.78	42.845	6.0679e-06	53.007	100.161	-3.739	2.543	-78.524	46.555	60.806	-78.836	-74.203	3.331	56.958	-74.306	-70.391	-69.976	-65.149	51.579	-65.735	-8191	255	
18396.174	1	1	0	0	0.19828	0.049404	0.18367	0.18744	0.042921	0.24859	0.15795	0.32647	0.19503	0.071881	0.11973	0.18546	0.12365	0.18894	0.060368	0.20193	-4.6354	-4.1438	-4.4854	-4.9146	-4.4938	-4.6667	-4.7083	-4.4104	-4.8479	-4.5167	-4.6458	-4.7688	-4.475	-4.9396	-4.5896	-4.425	32.849	26.999	149.940	-82.808	196.638	-1.325	195.752	213.268	-2.302	-50.983	196.605	220.905	171.923	188.103	90.989	82.907	0.00048715	0.00053291	0.00017141	1346.6	4.1516e-06	4.6722e-06	1343.8	366.42	4.3846e-06	4.637e-06	417.54	139.45	121.36	41.808	5.6606e-06	51.646	0.00054391	0.00052844	0.00016248	1362.2	6.1522e-06	5.297e-06	1360.8	372.6	6.0273e-06	5.9497e-06	424.61	142.6	123.94	42.894	6.1579e-06	53.013	99.925	-5.663	-1.074	-78.604	35.663	57.325	-78.821	-74.169	18.853	53.328	-74.602	-70.434	-69.805	-65.055	65.812	-65.695	-8191	255	
18396.270	1	1	0	0	0.12087	0.085969	0.069268	0.21553	0.26647	0.37276	0.16304	0.23739	0.11759	0.078944	0.30978	0.04631	0.1938	0.11051	0.15063	0.14366	-4.6083	-4.4917	-4.4771	-5.0271	-4.2979	-4.5708	-4.7917	-4.4125	-4.9833	-4.3292	-4.5687	-4.9208	-4.4583	-4.7104	-4.6458	-4.3125	267.339	255.464	68.279	200.789	122.091	16.524	-52.769	240.510	47.941	-56.777	-87.302	246.371	-22.013	2.813	233.085	258.841	0.00044387	0.00058402	0.00011726	1347.8	3.7218e-06	5.0378e-06	1343	366.97	3.2343e-06	4.5475e-06	416.49	139.96	120.79	41.581	5.0348e-06	51.602	0.00054966	0.000562	0.00015522	1362.1	6.6708e-06	5.6021e-06	1360.7	372.2	6.0013e-06	5.7379e-06	424.25	142.6	123.88	42.739	6.1975e-06	52.945	96.962	-1.799	-5.661	-78.508	44.543	60.288	-78.684	-74.067	-2.851	50.404	-74.708	-70.489	-69.912	-65.207	45.908	-65.621	-8191	255	
18396.365	1	1	0	0	0.054836	0.24139	0.10647	0.40846	0.18291	0.11917	0.21725	0.19569	0.13984	0.16834	0.30063	0.10819	0.096168	0.39111	0.11753	0.2873	-4.6271	-4.3938	-4.2958	-4.9437	-4.425	-4.7042	-4.9125	-4.5208	-4.7396	-4.7271	-4.3396	-5.0396	-4.3812	-4.6271	-4.7021	-4.475	-77.274	35.855	221.541	264.472	113.918	37.605	240.176	131.747	-3.147	216.394	-51.675	-77.848	-48.021	245.676	111.124	93.399	0.00046323	0.00043545	0.00015803	1342.9	3.8556e-06	4.3959e-06	1343.4	365.06	3.6584e-06	5.1751e-06	417.57	139.46	120.98	41.551	3.8405e-06	51.563	0.00055285	0.00049092	0.00016018	1359.3	6.1379e-06	6.365e-06	1362.1	371.39	5.7948e-06	6.4517e-06	424.61	142.65	123.61	42.757	5.354e-06	52.967	96.722	-21.613	0.877	-78.545	35.440	48.981	-78.682	-74.111	-7.853	65.526	-74.624	-70.170	-69.703	-65.012	42.856	-66.265	-8191	255	
18396.438	1	1	0	0	0.033591	0.098125	0.22072	0.41142	0.051064	0.3303	0.16961	0.21415	0.098617	0.026552	0.11509	0.012271	0.090857	0.14188	0.17343	0.36006	-4.3729	-4.5167	-4.1771	-4.9896	-4.3875	-4.5604	-5.1208	-4.4771	-4.7292	-4.8167	-4.2667	-4.9792	-4.4646	-4.5625	-4.8771	-4.2833	115.060	167.952	55.242	256.861	-30.039	202.293	-28.600	168.886	232.252	193.186	188.371	260.810	266.692	-60.485	175.657	165.517	0.0004393	0.00054804	0.00014826	1348.8	3.9876e-06	6.889e-06	1345.3	365.84	4.7359e-06	4.1011e-06	418.45	139	120.4	41.709	4.8827e-06	51.362	0.00055171	0.00053291	0.0001562	1362.5	5.9946e-06	6.3631e-06	1361.7	371.7	5.9584e-06	6.2615e-06	424.71	142.59	123.68	42.806	5.9504e-06	52.844	103.420	-8.859	-8.553	-78.622	54.680	55.767	-78.991	-74.205	12.397	54.884	-74.528	-70.274	-69.597	-65.084	51.275	-65.803	-8191	255	
18396.533	1	1	0	0	0.21016	0.20919	0.15907	0.16782	0.19133	0.15553	0.13629	0.12907	0.14994	0.16561	0.071828	0.12821	0.18096	0.18652	0.068545	0.10632	-4.4979	-4.5958	-4.1396	-5.0667	-4.4479	-4.1958	-5.0917	-4.4437	-4.6917	-4.7208	-4.325	-5.1562	-4.6729	-4.3187	-4.9146	-4.3646	210.697	-10.381	235.472	202.202	-9.332	-5.698	136.790	171.253	249.578	62.891	-85.675	-74.239	-37.880	182.321	187.490	211.465	0.00048694	0.00056292	0.00013174	1342	3.229e-06	6.4287e-06	1345.3	365.35	3.2791e-06	5.9529e-06	418.45	139.18	120.9	41.62	3.6969e-06	51.68	0.00055291	0.00055572	0.00016393	1360.7	5.6545e-06	6.4139e-06	1362.7	372.46	6.0649e-06	6.0713e-06	424.85	142.53	123.8	42.715	5.8177e-06	52.924	95.531	2.024	3.468	-78.533	53.392	70.436	-78.770	-73.932	10.953	57.141	-74.551	-70.676	-69.772	-65.143	46.652	-65.659	-8191	255	
18396.652	1	1	0	0	0.089277	0.30725	0.048864	0.24089	0.091954	0.20108	0.11945	0.24545	0.1745	0.19025	0.031767	0.31446	0.042594	0.15441	0.20415	0.3742	-4.275	-4.7354	-4.2271	-5.0375	-4.4583	-4.1833	-5.0104	-4.6208	-4.5021	-4.8792	-4.3521	-4.8396	-4.6937	-4.5188	-4.8521	-4.4021	25.945	18.770	-2.769	264.634	260.984	28.912	166.481	192.039	-22.264	140.716	156.859	250.419	-25.369	237.091	15.914	239.248	0.00043117	0.00041283	0.00013604	1343.3	3.3943e-06	3.7796e-06	1345.1	366.12	4.3105e-06	5.5773e-06	418.18	139.32	121.46	41.769	4.8608e-06	51.655	0.00055518	0.00047786	0.00014941	1360.4	6.117e-06	6.2809e-06	1361.7	372.24	6.0416e-06	5.585e-06	424.81	142.65	123.93	42.866	5.9397e-06	52.995	100.828	9.890	1.478	-78.606	45.391	70.615	-78.876	-73.968	-1.156	62.121	-74.794	-70.374	-69.808	-65.265	46.514	-65.874	-8191	255	
18396.748	1	1	0	0	0.26764	0.19653	0.14162	0.45781	0.14517	0.042145	0.15256	0.02971	0.012905	0.097416	0.11441	0.12941	0.13643	0.23129	0.092145	0.18556	-3.9979	-4.8063	-4.2646	-4.7208	-4.6542	-4.3083	-5.1729	-4.525	-4.4646	-4.8063	-4.4688	-4.7792	-4.8063	-4.2396	-4.9313	-4.5292	135.962	-30.680	-80.286	231.775	217.984	8.338	170.116	176.110	-81.310	143.564	261.107	196.350	-59.028	257.118	135.239	-5.327	0.00046186	0.00053586	0.00011424	1343.5	2.806e-06	5.7332e-06	1341	366.8	2.9307e-06	4.3282e-06	418.59	139.32	120.81	41.744	4.5661e-06	51.669	0.0005651	0.00051291	0.00015732	1360	5.4917e-06	6.3415e-06	1358.7	372.55	6.0792e-06	5.4104e-06	424.54	142.59	123.5	42.828	5.6087e-06	52.957	102.484	3.922	19.165	-78.508	44.094	52.447	-78.823	-74.071	28.204	65.000	-74.671	-70.407	-69.869	-65.021	54.570	-65.693	-8191	255	
18396.844	1	1	0	0	0.25601	0.23943	0.19059	0.10951	0.1135	0.18049	0.12184	0.30551	0.057922	0.17272	0.22114	0.089732	0.12159	0.31796	0.16434	0.16548	-4.1542	-4.7646	-4.3208	-4.925	-4.8458	-4.1604	-5.2125	-4.6625	-4.4417	-4.8812	-4.3729	-4.6604	-4.7792	-4.2229	-4.7229	-4.8	78.513	189.866	10.945	-65.704	244.047	79.748	169.079	160.920	262.215	192.660	-40.451	-39.296	34.916	217.737	-26.993	131.656	0.00044192	0.00052516	0.00013422	1346.1	4.9478e-06	3.9417e-06	1344.2	365.33	4.273e-06	4.8751e-06	417.78	138.99	121.16	41.815	5.0234e-06	51.805	0.0005786	0.00051522	0.00015035	1361	5.9542e-06	6.0833e-06	1361	371.8	6.4001e-06	5.4634e-06	425.4	142.39	123.98	42.824	5.6774e-06	53.09	102.357	-9.166	5.264	-78.600	28.664	54.809	-78.742	-73.961	12.494	58.884	-74.647	-70.278	-69.682	-65.039	38.256	-65.989	-8191	255	
18396.965	1	1	0	0	0.28676	0.045571	0.060047	0.22224	0.06388	0.049372	0.15642	0.087998	0.020238	0.1322	0.090937	0.038691	0.12299	0.14677	0.056043	0.14726	-4.0396	-4.8458	-4.2854	-4.8542	-4.8313	-4.2896	-4.8583	-4.7708	-4.325	-4.7979	-4.4729	-4.5979	-4.8833	-4.3208	-4.6104	-4.9	-64.051	247.767	-10.808	244.262	-19.385	163.864	186.968	140.354	238.364	24.916	242.767	179.234	36.915	242.917	110.291	158.043	0.00042203	0.00046898	0.00015912	1343.3	4.315e-06	3.7451e-06	1344.3	365.84	2.3762e-06	4.9515e-06	417.07	140	121	41.948	4.863e-06	51.629	0.00056037	0.00052613	0.00015976	1360.3	5.4044e-06	5.9738e-06	1361.2	372.02	6.1507e-06	5.1908e-06	424.39	142.97	123.89	42.897	6.2753e-06	52.975	93.162	-18.602	-3.966	-78.684	37.322	55.334	-78.805	-74.065	33.769	50.866	-74.627	-70.448	-69.991	-65.166	41.634	-65.904	-8191	255	
18397.035	1	1	0	0	0.078348	0.23041	0.1191	0.30846	0.1217	0.12514	0.21277	0.046121	0.32799	0.15342	0.19706	0.17375	0.32848	0.14254	0.08947	0.16878	-3.8771	-4.9333	-4.4021	-4.6146	-4.8583	-4.475	-4.9396	-4.7542	-4.3125	-4.9313	-4.5896	-4.4854	-5.0312	-4.4146	-4.5646	-5.1229	117.099	74.773	226.444	231.648	-64.061	78.670	225.664	115.737	93.778	188.049	210.482	241.908	246.309	191.861	19.041	202.492	0.0004526	0.00054683	0.00013006	1347	4.2892e-06	4.4963e-06	1341.2	364.45	3.3274e-06	5.6927e-06	417.11	139.48	120.72	41.734	4.9927e-06	51.632	0.00057	0.00053456	0.00014894	1362	5.6102e-06	6.0814e-06	1361.7	372.06	6.5715e-06	5.3516e-06	424.68	142.87	123.9	42.816	6.0816e-06	53.033	100.950	-8.076	-8.239	-78.632	31.437	54.660	-78.727	-74.025	7.779	64.213	-74.349	-70.613	-69.873	-65.268	63.527	-65.941	-8191	255	
18397.133	1	1	0	0	0.083389	0.035142	0.21868	0.32777	0.037581	0.09378	0.17054	0.1265	0.2863	0.10714	0.18754	0.3269	0.30627	0.10515	0.10302	0.060506	-3.8146	-4.8521	-4.3688	-4.675	-4.9417	-4.4354	-5.0062	-4.7271	-4.2688	-4.9458	-4.85	-4.3458	-5.0229	-4.4563	-4.4979	-4.8271	21.352	224.612	37.459	-91.796	253.290	20.841	186.981	220.774	-31.809	216.024	163.519	222.112	-80.758	86.064	-37.880	175.478	0.00045684	0.00050647	0.00014393	1345.7	4.6605e-06	4.762e-06	1340.3	365.66	3.0072e-06	4.5854e-06	416.89	140	121.01	41.95	5.2227e-06	51.669	0.00056253	0.00054845	0.00015203	1360.4	5.7718e-06	5.7743e-06	1361.9	372.19	6.1286e-06	6.0968e-06	424.85	142.83	123.91	42.909	6.3821e-06	53.085	97.493	-11.887	-7.209	-78.638	36.795	59.799	-78.925	-74.046	1.901	65.790	-74.997	-70.021	-69.870	-64.847	52.427	-65.807	-8191	255	
18397.254	1	1	0	0	0.10649	0.090068	0.16843	0.16691	0.17863	0.14541	0.20924	0.24114	0.11478	0.09034	0.11141	0.10801	0.16198	0.24413	0.026394	0.24153	-3.9625	-4.7521	-4.4271	-4.6792	-4.8917	-4.4521	-4.7396	-4.9354	-4.4542	-4.575	-4.7854	-4.4542	-5.0042	-4.4875	-4.3625	-4.9812	217.287	104.731	-70.928	224.915	-71.909	253.226	-36.779	238.852	57.682	228.445	-72.903	-90.930	149.641	197.751	133.690	-31.580	0.000498	0.00051066	0.00016539	1346.2	3.3997e-06	5.1485e-06	1343.7	367.1	2.838e-06	5.2268e-06	416.88	139.34	121.03	41.702	4.958e-06	51.765	0.00056236	0.00051952	0.0001658	1360.9	5.6728e-06	5.9718e-06	1361.3	372.22	6.3507e-06	5.687e-06	424.59	142.71	123.91	42.86	6.0236e-06	53.128	101.859	3.290	0.687	-78.457	47.891	53.569	-78.927	-74.022	9.795	56.544	-74.514	-70.577	-69.948	-65.000	51.995	-65.902	-8191	255	
18397.350	1	1	0	0	0.091443	0.063347	0.27739	0.40819	0.048506	0.22358	0.16191	0.19274	0.13909	0.061451	0.16414	0.14224	0.077416	0.067611	0.066083	0.19576	-4.0229	-4.5625	-4.6	-4.4625	-4.7458	-4.5917	-4.4563	-5.0583	-4.2708	-4.6	-4.9688	-4.2729	-4.9896	-4.5042	-4.3729	-4.925	-3.610	36.027	161.013	241.443	-55.524	-86.726	264.290	227.800	128.364	140.661	210.968	232.335	85.748	-59.971	-20.705	264.438	0.00045921	0.00044634	0.0001406	1342.6	3.4051e-06	5.8121e-06	1344.8	366.23	2.8823e-06	5.0408e-06	418.95	140.16	121.51	41.961	6.5027e-06	51.618	0.00055598	0.00048927	0.00014491	1360.2	5.7705e-06	6.322e-06	1361.2	372.32	6.178e-06	6.1694e-06	425.03	142.99	124.18	42.91	6.2921e-06	52.984	96.566	-4.557	1.905	-78.453	45.787	58.836	-78.565	-74.214	14.016	62.674	-74.490	-70.435	-69.873	-65.127	55.568	-65.810	-8191	255	
18397.445	1	1	0	0	0.12226	0.31302	0.27766	0.22916	0.10978	0.22917	0.14006	0.15037	0.1706	0.053559	0.062305	0.11882	0.084016	0.20047	0.22414	0.16514	-4.0833	-4.5104	-4.8229	-4.4146	-4.7479	-4.5146	-4.5229	-5.1208	-4.3375	-4.6167	-4.7854	-4.2958	-4.6229	-4.6604	-4.2042	-4.9062	81.014	165.906	30.016	200.786	-26.234	192.463	222.873	243.297	178.573	22.507	125.748	184.724	87.572	102.793	166.130	195.456	0.00047759	0.00051961	9.299e-05	1344.9	3.8009e-06	6.596e-06	1345	365.55	4.0038e-06	3.9202e-06	419.29	140.35	120.93	41.505	4.4539e-06	51.949	0.00055023	0.00061027	0.00013901	1360.4	5.7874e-06	6.9127e-06	1360.8	372.18	6.2546e-06	5.6615e-06	425.08	143.04	123.79	42.82	6.3241e-06	53.155	104.558	-15.392	6.859	-78.575	68.547	59.192	-78.868	-74.031	1.017	48.407	-74.753	-70.376	-69.773	-65.028	46.799	-65.990	-8191	255	
18397.543	1	1	0	0	0.15417	0.1131	0.21772	0.27836	0.19464	0.10148	0.10949	0.11438	0.17605	0.24644	0.011821	0.092791	0.08414	0.22093	0.16182	0.22947	-3.8563	-4.4229	-4.625	-4.4292	-4.6875	-4.6687	-4.3708	-5.1104	-4.5042	-4.3458	-4.9938	-4.3938	-4.6542	-4.7667	-4.1333	-4.8708	60.178	262.544	149.065	211.427	82.597	139.781	125.118	257.266	186.933	-82.392	176.218	161.434	8.859	264.195	131.641	103.087	0.00042408	0.00045178	0.00015866	1348.4	3.7496e-06	4.568e-06	1338.7	365.87	1.9584e-06	5.6269e-06	418.69	139.72	120.97	41.821	5.0282e-06	51.665	0.0005353	0.00054944	0.00014576	1362.4	5.9946e-06	5.3048e-06	1360.7	372.1	6.3014e-06	6.2988e-06	425.14	142.67	124.02	42.832	6.048e-06	53.05	101.729	3.381	-2.426	-78.540	48.107	38.895	-78.808	-73.892	-0.892	60.018	-74.483	-70.190	-69.630	-65.142	47.895	-65.764	-8191	255	
18397.637	1	1	0	0	0.25436	0.23888	0.18815	0.2803	0.070551	0.20772	0.0911	0.040729	0.12156	0.10941	0.14224	0.13894	0.11538	0.31527	0.045677	0.14468	-3.9875	-4.3688	-4.7583	-4.525	-4.55	-4.8729	-4.2979	-4.8208	-4.4688	-4.2438	-4.9437	-4.4	-4.6125	-4.7583	-4.2021	-4.7729	161.667	182.245	83.271	235.219	15.277	169.181	-13.889	134.704	57.214	128.963	239.156	106.090	251.478	227.541	60.222	226.749	0.00044573	0.00046627	0.0001249	1344.5	4.5495e-06	4.4471e-06	1344.3	365.5	3.807e-06	5.113e-06	418.41	139.54	121.39	41.683	4.3583e-06	51.488	0.00058065	0.00049654	0.00013629	1361.8	5.9828e-06	5.7762e-06	1361.6	372.28	6.2624e-06	6.0321e-06	425.28	142.85	124.14	42.782	5.7658e-06	52.977	101.456	0.729	-2.306	-78.447	27.795	64.721	-78.657	-74.014	13.181	47.925	-74.539	-70.349	-69.795	-65.157	38.686	-66.002	-8191	255	
18397.732	1	1	0	0	0.1242	0.12903	0.075704	0.31842	0.22705	0.091662	0.066863	0.1196	0.33568	0.10342	0.12838	0.19229	0.26048	0.091136	0.36438	0.15232	-4.1583	-4.2958	-4.7792	-4.4	-4.4938	-4.8542	-4.3646	-4.8167	-4.5792	-4.45	-4.875	-4.4688	-4.5292	-4.95	-4.2125	-4.8187	-6.063	47.732	126.287	240.723	1.678	-88.713	231.782	255.913	-9.409	113.383	-75.633	-32.744	219.291	153.462	-22.634	217.745	0.00042955	0.00050775	0.00014088	1349.8	4.0197e-06	4.8818e-06	1349.6	365.99	5.1275e-06	5.7401e-06	417.19	140.28	121.21	42.015	5.1936e-06	51.647	0.00053832	0.00056712	0.00013896	1363.4	6.1744e-06	5.4202e-06	1364.5	372.17	6.2767e-06	6.4616e-06	425.01	142.94	124.03	42.955	6.0663e-06	53.023	99.636	-12.580	-1.455	-78.651	31.397	49.069	-78.821	-73.991	10.951	45.665	-74.493	-70.540	-69.766	-65.233	44.764	-65.732	-8191	255	
18397.854	1	1	0	0	0.171	0.097308	0.12677	0.16705	0.014001	0.065076	0.24051	0.25273	0.18057	0.15542	0.33735	0.11675	0.18301	0.05831	0.071522	0.18998	-4.2354	-4.1771	-5.075	-4.5396	-4.5563	-4.8063	-4.6271	-4.6583	-4.6062	-4.1271	-4.8063	-4.7167	-4.4104	-4.9146	-4.1604	-4.7688	143.409	8.306	178.773	254.191	157.685	199.372	170.320	210.772	-9.110	59.904	242.074	244.381	187.285	-69.167	-20.556	237.809	0.00043285	0.00044117	0.00010873	1350	3.5721e-06	5.3662e-06	1350	366.18	2.6666e-06	5.2902e-06	417.34	139.86	121.01	41.867	4.6505e-06	51.486	0.00055273	0.00054861	0.00012913	1365.5	6.1848e-06	5.7978e-06	1365.6	372.62	6.278e-06	5.8536e-06	425.35	142.95	124.14	42.913	6.2265e-06	53.096	101.874	-3.032	3.912	-78.632	38.005	54.018	-78.698	-74.015	-3.139	63.571	-74.308	-70.590	-70.221	-65.115	38.974	-65.985	-8191	255	
18397.949	1	1	0	0	0.092901	0.16981	0.12213	0.41779	0.1032	0.14132	0.21421	0.14992	0.29013	0.14639	0.085602	0.084731	0.31961	0.055495	0.18504	0.18256	-4.3875	-4.1687	-4.8333	-4.6146	-4.4104	-4.8896	-4.4833	-4.8187	-4.6438	-4.3938	-4.9062	-4.5875	-4.325	-4.8042	-4.4375	-4.5125	219.585	22.698	-63.702	220.496	112.661	-59.815	180.586	218.710	227.895	-61.563	245.745	32.450	-26.188	185.439	221.855	-69.742	0.00043343	0.00051636	0.00012335	1348.8	3.7806e-06	4.4057e-06	1343.4	366.6	3.4112e-06	5.523e-06	417.7	139.56	121.28	41.777	3.3935e-06	51.522	0.00055849	0.00058266	0.0001495	1364.6	6.1249e-06	5.5767e-06	1364.1	373.23	6.1715e-06	6.5067e-06	425.37	142.84	124.22	42.856	6.1533e-06	53.026	97.438	-13.367	5.479	-78.633	38.950	52.733	-78.803	-73.944	1.473	58.262	-74.480	-70.461	-69.625	-64.696	41.827	-65.917	-8191	255	
18398.045	1	1	0	0	0.13059	0.14877	0.17337	0.23112	0.36805	0.17955	0.2502	0.31232	0.23652	0.088343	0.33782	0.13188	0.15067	0.26741	0.14868	0.32529	-4.4896	-4.2708	-4.7125	-4.8104	-4.2917	-4.9708	-4.5312	-4.8458	-4.7792	-4.3021	-4.7042	-4.6854	-4.2792	-4.9708	-4.3625	-4.5271	-55.730	64.286	-51.022	203.202	256.446	53.597	192.894	222.229	-5.023	78.510	207.522	230.288	203.681	-87.798	259.232	236.930	0.00041839	0.00052161	0.00014098	1353	4.3056e-06	3.8869e-06	1350.1	367.22	2.6142e-06	5.6619e-06	420.32	139.95	121.44	41.881	3.7924e-06	51.937	0.00053923	0.00058431	0.0001428	1366.2	6.1952e-06	5.3537e-06	1366.2	373.38	6.0935e-06	6.4596e-06	426.3	142.85	124.26	42.912	5.8162e-06	53.144	102.970	-12.230	-1.414	-78.737	50.342	53.206	-78.773	-74.110	12.159	62.277	-74.545	-70.480	-69.706	-65.052	57.835	-65.866	-8191	255	
18398.141	1	1	0	0	0.058923	0.32011	0.20213	0.26445	0.079668	0.14353	0.11289	0.24248	0.20335	0.17093	0.14025	0.23888	0.060802	0.2068	0.083462	0.10464	-4.4979	-4.4354	-4.6646	-4.925	-4.2208	-4.7396	-4.6292	-4.4396	-4.7292	-4.3562	-4.8812	-4.6687	-4.3292	-4.9167	-4.5521	-4.4708	52.281	210.252	229.025	-88.511	-50.677	-69.470	178.371	219.836	258.973	244.095	-70.856	216.527	134.381	-53.546	-86.175	-63.816	0.00045392	0.00045641	0.00012279	1350.4	3.9148e-06	4.5698e-06	1350.2	365.99	3.2328e-06	4.9538e-06	417.45	140.2	120.91	41.992	4.3303e-06	51.455	0.00053189	0.00060117	0.00015086	1367.3	6.4675e-06	5.4789e-06	1368.3	372.77	5.8584e-06	6.4125e-06	425.89	143.1	124.16	42.96	6.5544e-06	53.084	103.644	0.894	-11.848	-78.726	35.267	55.213	-78.829	-74.106	35.334	63.778	-74.708	-70.379	-69.916	-65.190	62.347	-66.019	-8191	255	
18398.236	1	1	0	0	0.1249	0.068071	0.11885	0.19254	0.039923	0.28834	0.26271	0.11523	0.095489	0.081682	0.18221	0.19935	0.07239	0.074291	0.077566	0.13339	-4.4958	-4.3438	-4.5188	-4.9208	-4.1458	-4.8521	-4.7063	-4.4812	-4.7917	-4.3458	-4.5979	-4.7104	-4.3646	-4.6479	-4.6229	-4.1167	71.113	6.495	11.415	252.627	-77.462	-12.366	179.187	166.977	174.489	24.818	257.690	210.167	129.844	209.303	-80.189	25.790	0.00046184	0.00044275	0.00012542	1353.3	5.615e-06	5.008e-06	1346.7	367.25	5.5939e-06	5.9619e-06	420.82	139.49	121.42	41.885	3.4492e-06	51.936	0.00054026	0.00053588	0.00014674	1367.2	6.2617e-06	5.7586e-06	1366.5	373.17	6.0338e-06	6.3478e-06	426.72	143.08	124.2	42.892	5.9916e-06	53.178	99.134	-0.270	-1.689	-78.661	34.952	58.190	-78.782	-74.105	13.657	52.867	-74.613	-70.506	-69.883	-65.066	41.135	-65.731	-8191	255	
18398.332	1	1	0	0	0.11702	0.11048	0.21065	0.1872	0.12366	0.098731	0.33041	0.088375	0.21708	0.070946	0.12003	0.2047	0.078538	0.26767	0.173	0.094879	-4.3792	-4.3125	-4.4375	-5.0479	-4.2375	-4.6979	-4.9542	-4.4542	-4.8896	-4.3167	-4.4417	-4.7104	-4.5563	-4.7271	-4.5771	-4.4437	40.309	209.108	-64.365	-71.517	258.383	-71.611	203.116	161.212	118.569	199.979	-88.877	-66.114	85.563	223.014	115.833	239.997	0.00041638	0.00062869	0.00012865	1349.3	3.9686e-06	4.6958e-06	1349.9	367.98	3.9516e-06	5.8743e-06	420.78	140.07	120.87	41.935	3.1888e-06	51.581	0.00054168	0.00058266	0.00014903	1365.8	6.461e-06	5.7782e-06	1366.7	373.53	6.1767e-06	6.0066e-06	426.42	143.14	123.93	42.948	5.3525e-06	53.147	99.772	-13.085	12.068	-78.773	36.305	47.067	-78.692	-74.054	14.505	53.053	-74.632	-70.311	-69.818	-65.097	30.755	-66.247	-8191	255	
18398.430	1	1	0	0	0.084641	0.21923	0.25566	0.53616	0.13884	0.18774	0.32568	0.33819	0.056881	0.11283	0.15531	0.19419	0.18114	0.057929	0.16672	0.30862	-4.4563	-4.4521	-4.5	-5.0375	-4.225	-4.6396	-5.025	-4.1917	-4.8917	-4.4062	-4.4854	-4.9187	-4.3083	-4.5854	-4.7771	-4.3479	3.486	152.771	173.135	233.609	140.011	116.551	248.650	254.066	-18.252	160.220	64.107	182.742	88.750	258.655	155.876	205.135	0.00043416	0.00045608	0.00014118	1351.9	3.5299e-06	4.3517e-06	1346.3	367.38	3.9258e-06	4.6311e-06	419.48	139.81	121.77	41.679	4.1048e-06	51.635	0.00055222	0.00059969	0.00016791	1368.2	6.1809e-06	6.1714e-06	1366.9	373.64	6.0961e-06	6.591e-06	426.74	143.29	124.55	42.884	5.7643e-06	53.131	97.960	-0.784	-11.034	-78.654	51.402	54.498	-78.765	-74.104	19.372	63.542	-74.804	-70.444	-70.038	-65.114	43.827	-65.981	-8191	255	
18398.525	1	1	0	0	0.1528	0.42329	0.041354	0.079405	0.099966	0.17162	0.19417	0.14466	0.067068	0.12362	0.12695	0.049141	0.1046	0.32129	0.014611	0.05572	-4.3146	-4.45	-4.3458	-5.0813	-4.3167	-4.3688	-4.7896	-4.4104	-4.7417	-4.525	-4.4604	-4.9708	-4.4083	-4.575	-4.8646	-4.2896	6.495	23.039	-91.790	207.653	189.189	26.864	225.138	-54.414	38.043	-84.673	244.540	240.262	174.056	203.088	-86.774	7.617	0.00043755	0.00045912	0.00015641	1350.3	4.2194e-06	5.3429e-06	1352.8	368.23	6.4886e-06	6.0482e-06	418.91	139.59	121.08	41.966	5.9285e-06	51.852	0.00055011	0.00054762	0.00015981	1367.7	6.2395e-06	6.9479e-06	1368.8	374.15	6.139e-06	5.9066e-06	426.4	143.07	124.21	42.974	5.8772e-06	53.11	100.274	-11.006	7.447	-78.476	28.881	56.021	-78.775	-73.885	19.439	61.310	-74.527	-70.255	-69.774	-65.235	43.256	-65.671	-8191	255	
18398.621	1	1	0	0	0.033117	0.30498	0.228	0.19807	0.15413	0.18938	0.28263	0.22016	0.13499	0.074482	0.14566	0.27052	0.24535	0.27318	0.086728	0.11521	-4.3104	-4.6417	-4.1646	-4.7917	-4.6104	-4.3354	-4.9688	-4.425	-4.5146	-4.7792	-4.1833	-4.9688	-4.5417	-4.3958	-4.9688	-4.3354	215.686	61.930	15.152	-28.545	111.047	223.247	179.496	231.665	-14.125	-80.464	179.172	-86.474	212.647	3.986	234.622	-49.560	0.00045616	0.00050801	0.00012223	1347	3.8633e-06	5.0765e-06	1349.5	366.95	3.1862e-06	4.3982e-06	419.21	139.76	121.92	41.717	3.8893e-06	51.734	0.00056162	0.00055803	0.00015142	1366.4	5.8096e-06	6.3689e-06	1368.8	373.33	6.2065e-06	5.9948e-06	426.15	143.02	124.19	42.906	5.6575e-06	53.113	101.352	-7.330	-2.412	-78.589	47.925	59.984	-78.813	-74.220	-9.073	54.788	-74.556	-70.490	-70.074	-65.102	46.394	-65.792	-8191	255	
18398.740	1	1	0	0	0.1932	0.16394	0.12116	0.18067	0.18788	0.10655	0.18995	0.21222	0.046248	0.2302	0.15627	0.14343	0.16414	0.16652	0.025344	0.076871	-4.2917	-4.5687	-4.225	-5.0229	-4.2979	-4.25	-5.0646	-4.5188	-4.3521	-4.7312	-4.3354	-4.8271	-4.5854	-4.4187	-4.8	-4.2833	9.423	147.185	201.769	234.993	211.853	46.434	212.988	241.896	242.403	-23.185	208.554	58.851	18.627	86.939	-29.767	-40.588	0.00043258	0.00048927	0.00014043	1349.8	4.1406e-06	6.3834e-06	1351.2	367.01	5.012e-06	4.7562e-06	417.16	139.59	121.03	41.765	5.5304e-06	51.765	0.00056293	0.00053109	0.00016426	1365.9	6.1861e-06	6.6291e-06	1366.7	373.27	6.1741e-06	5.33e-06	425.19	143	123.98	42.86	5.8985e-06	53.101	99.737	-4.794	-11.095	-78.610	42.763	56.834	-78.781	-74.028	20.516	60.245	-74.353	-70.433	-69.903	-64.956	42.752	-65.788	-8191	255	
18398.838	1	1	0	0	0.31191	0.21972	0.10318	0.26422	0.19695	0.023461	0.083123	0.28309	0.1077	0.20798	0.24643	0.20064	0.075808	0.29209	0.13628	0.27609	-4.2167	-4.8	-4.3375	-4.9292	-4.5792	-4.3	-4.8646	-4.4479	-4.4521	-4.9208	-4.2771	-4.9187	-4.6375	-4.2625	-4.7729	-4.3875	255.132	81.723	113.359	234.028	217.468	52.449	32.655	-78.871	245.241	36.981	228.604	-63.529	236.726	156.193	218.234	-86.873	0.00046441	0.00060434	0.00012522	1350.1	4.8544e-06	5.5205e-06	1346.3	367.39	3.6426e-06	5.1183e-06	418.88	139.79	121.06	41.662	4.2867e-06	51.733	0.00055382	0.00055026	0.0001636	1365.9	6.0662e-06	6.3181e-06	1365.6	373.31	6.0468e-06	5.4516e-06	425.95	143	124.16	42.902	5.7384e-06	53.119	102.116	-2.948	-1.327	-78.649	62.274	56.721	-78.731	-73.844	9.909	51.916	-74.380	-70.578	-69.787	-65.124	58.732	-65.929	-8191	255	
18398.934	1	1	0	0	0.071838	0.19488	0.060203	0.30275	0.062203	0.12787	0.32843	0.16254	0.14915	0.12701	0.11572	0.055643	0.11743	0.17103	0.052379	0.092428	-4.1333	-4.9458	-4.2417	-4.8375	-4.6125	-4.4583	-4.9375	-4.5167	-4.5479	-4.85	-4.3438	-4.6771	-4.6083	-4.15	-4.7146	-4.5833	217.732	28.072	-48.452	-89.228	105.004	114.609	222.504	226.898	-82.598	53.074	216.598	160.141	211.732	-53.138	99.698	253.517	0.00044432	0.00050517	0.0001315	1347.2	4.943e-06	4.8678e-06	1348.9	367.12	4.2004e-06	6.6817e-06	419.43	140.18	122.22	41.76	4.8231e-06	51.408	0.00054402	0.00049935	0.00016102	1365.6	5.6923e-06	5.9738e-06	1365.5	373.07	6.4235e-06	6.1301e-06	426.34	143.17	124.45	42.805	5.8604e-06	53.039	98.446	-14.270	-1.197	-78.511	28.989	49.847	-78.841	-74.002	16.420	57.043	-74.618	-70.659	-69.685	-65.025	48.036	-65.772	-8191	255	
18399.029	1	1	0	0	0.16225	0.099561	0.28778	0.09271	0.18183	0.088494	0.1722	0.10866	0.085751	0.296	0.18725	0.070141	0.12895	0.26515	0.075129	0.055135	-4.0021	-4.9354	-4.1604	-4.8021	-4.7521	-4.2833	-4.9958	-4.6542	-4.2604	-5.0667	-4.4708	-4.5521	-4.7812	-4.3417	-4.6	-4.7229	176.477	-60.284	214.386	11.696	-56.483	-88.374	219.500	239.480	78.095	-21.129	232.663	182.762	179.630	258.174	190.099	154.864	0.00044194	0.00047551	0.00014354	1348	3.966e-06	5.2139e-06	1343.6	366.92	3.2285e-06	5.7114e-06	419.3	139.2	121.33	41.856	3.0482e-06	51.449	0.00054402	0.00051291	0.00016679	1365.5	5.6232e-06	6.2711e-06	1364.7	373.15	6.2208e-06	5.8713e-06	426.57	142.88	124.1	42.865	6.0251e-06	53.006	98.891	-0.234	6.315	-78.759	42.567	53.881	-78.880	-73.884	-1.187	55.258	-74.625	-70.334	-69.700	-65.184	48.293	-65.878	-8191	255	
18399.125	1	1	0	0	0.030589	0.024273	0.31716	0.096926	0.059056	0.23498	0.26947	0.23275	0.14321	0.096531	0.16908	0.13391	0.1113	0.21591	0.21964	0.13428	-3.7104	-4.7812	-4.3646	-4.6292	-4.7396	-4.275	-4.8833	-4.6396	-4.2354	-4.7854	-4.6896	-4.4396	-4.9812	-4.2667	-4.5563	-4.875	36.798	239.758	28.394	196.075	158.556	134.198	198.842	243.840	234.854	-42.015	213.716	260.674	106.663	221.099	186.199	211.545	0.00044684	0.00045289	0.000151	1350.5	3.7575e-06	5.3239e-06	1345.6	367.4	3.4924e-06	4.574e-06	418.58	139.71	121.6	41.889	5.519e-06	51.474	0.00054635	0.00051935	0.00016112	1365.9	5.7991e-06	5.7097e-06	1364.3	373.14	6.2663e-06	5.6144e-06	426.47	143.02	124.33	42.854	6.0236e-06	53.059	99.539	-6.518	1.755	-78.721	40.941	58.059	-78.959	-74.070	3.082	59.910	-74.626	-70.317	-69.921	-65.077	62.814	-65.860	-8191	255	
18399.223	1	1	0	0	0.18514	0.36159	0.15423	0.2467	0.079975	0.065883	0.15762	0.26675	0.17002	0.14163	0.26531	0.37952	0.2508	0.23255	0.14123	0.19339	-3.8896	-4.7042	-4.3938	-4.5396	-4.7312	-4.3917	-4.6354	-4.8729	-4.1625	-4.5917	-4.7167	-4.2833	-4.9458	-4.4229	-4.7292	-4.9	198.243	-9.494	250.068	-86.768	-41.178	-71.082	-76.925	178.643	115.344	56.936	29.559	-49.102	202.103	216.806	11.842	255.874	0.0004518	0.00054914	0.00012152	1347.2	4.7702e-06	5.1943e-06	1344.5	366.4	4.0922e-06	4.6124e-06	417.15	139.21	122.06	41.661	4.7659e-06	51.67	0.00056965	0.00050514	0.00015672	1365.2	5.4083e-06	6.3552e-06	1365.3	373.04	6.6274e-06	5.7595e-06	425.34	142.7	124.42	42.832	5.9657e-06	53.067	93.562	4.332	3.113	-78.518	30.235	51.169	-78.708	-74.073	12.702	53.427	-74.330	-70.396	-69.746	-65.012	53.478	-65.741	-8191	255	
18399.342	1	1	0	0	0.14716	0.12569	0.15357	0.26745	0.12515	0.13433	0.12581	0.27276	0.042647	0.12515	0.13237	0.039013	0.064696	0.17727	0.080403	0.023808	-3.9271	-4.6937	-4.5125	-4.4458	-4.8771	-4.2812	-4.7729	-4.8375	-4.2771	-4.8521	-4.7604	-4.3667	-4.8146	-4.4875	-4.4417	-4.9979	206.599	259.002	67.686	197.283	242.802	245.482	221.598	210.941	235.404	192.531	201.995	-84.036	47.599	201.567	166.841	164.604	0.00042992	0.00049015	0.00014902	1346.3	4.7391e-06	4.8108e-06	1345.1	366.66	3.3128e-06	6.1891e-06	419.87	139.76	122.17	41.739	4.0902e-06	51.561	0.00055131	0.00053357	0.00014257	1364.6	6.0206e-06	6.2809e-06	1364.6	372.95	6.4884e-06	5.8987e-06	425.97	143.01	124.25	42.87	6.1289e-06	52.984	103.399	3.704	8.844	-78.454	38.414	58.398	-78.831	-74.232	34.381	46.459	-74.708	-70.445	-69.919	-65.127	57.738	-65.705	-8191	255	
18399.438	1	1	0	0	0.22634	0.042667	0.10442	0.27668	0.13112	0.064071	0.21507	0.077897	0.18604	0.037739	0.058833	0.18784	0.10697	0.18598	0.066529	0.12007	-3.9375	-4.6583	-4.6396	-4.2542	-4.975	-4.3313	-4.6271	-5.0167	-4.3187	-4.7792	-4.8208	-4.2354	-4.8208	-4.5729	-4.4271	-4.8896	-50.102	-74.396	71.796	252.227	201.499	138.345	135.529	173.934	148.031	13.599	146.657	-64.221	228.991	158.034	226.519	258.371	0.00041556	0.00032105	0.00016504	1349.7	5.7368e-06	4.5096e-06	1346.4	367.01	3.6979e-06	4.7889e-06	417.88	140.18	122.08	41.736	6.1252e-06	51.575	0.00054772	0.00053274	0.00015128	1364.6	6.1639e-06	6.1674e-06	1365	372.77	6.0701e-06	5.687e-06	425.88	143.3	124.38	42.783	6.225e-06	53.005	94.447	-18.129	0.064	-78.586	53.066	67.952	-78.678	-74.276	6.662	73.134	-74.369	-70.365	-69.612	-64.760	45.473	-65.783	-8191	255	
18399.533	1	1	0	0	0.13337	0.13278	0.089075	0.12992	0.28456	0.074931	0.24327	0.20667	0.05655	0.17715	0.063	0.12716	0.089118	0.075482	0.17061	0.19673	-3.7792	-4.6042	-4.725	-4.3604	-4.7	-4.5625	-4.6625	-5.0062	-4.2292	-4.6396	-4.8354	-4.3167	-4.6083	-4.5312	-4.2583	-5.1562	56.846	210.176	181.519	226.540	248.822	247.712	191.676	228.982	134.697	64.248	265.786	-32.635	255.411	224.126	110.385	196.231	0.00044988	0.00035052	0.00014667	1348.7	3.266e-06	4.9614e-06	1341.5	366.13	3.5136e-06	3.4214e-06	418.68	139.57	121.63	41.848	5.3362e-06	51.804	0.00055592	0.0004853	0.00012772	1364.4	5.6584e-06	5.5043e-06	1363.5	372.86	6.0662e-06	5.5242e-06	425.64	142.98	124.45	42.943	6.1075e-06	53.142	103.020	-4.809	-5.959	-78.664	35.381	63.259	-78.847	-74.071	-3.716	65.481	-74.607	-70.474	-69.683	-65.489	46.729	-66.143	-8191	255	
18399.629	1	1	0	0	0.032996	0.11394	0.21582	0.13614	0.32352	0.011558	0.45512	0.38347	0.18581	0.19687	0.10971	0.34111	0.13289	0.22544	0.22011	0.25016	-4.0396	-4.4521	-4.7229	-4.4208	-4.6708	-4.7063	-4.3604	-4.9979	-4.1167	-4.6792	-4.9542	-4.4146	-4.6125	-4.8625	-4.1042	-5.0229	192.338	73.224	-46.449	266.039	228.884	-47.000	186.283	196.707	36.040	46.875	245.259	258.017	241.979	260.471	157.142	220.620	0.00043719	0.00039182	0.00013377	1347.2	4.0876e-06	6.3582e-06	1346.2	365.62	4.2521e-06	4.076e-06	417.79	140.06	121.61	41.825	4.398e-06	51.472	0.00057079	0.0005496	0.00014252	1364.1	5.5516e-06	6.3278e-06	1364.6	372.59	6.1247e-06	5.8634e-06	425.53	143.01	124.17	42.945	6.0053e-06	53.048	97.976	4.146	10.386	-78.566	36.660	50.928	-78.570	-74.127	37.986	60.721	-74.478	-70.408	-69.868	-65.011	51.560	-65.941	-8191	255	
18399.725	1	1	0	0	0.28371	0.14553	0.1592	0.18234	0.33867	0.15766	0.15957	0.1537	0.082591	0.09275	0.4378	0.1016	0.18578	0.16191	0.055826	0.024887	-4.0396	-4.3917	-4.6521	-4.6417	-4.5104	-4.7646	-4.4021	-4.8521	-4.4479	-4.3292	-4.9979	-4.3438	-4.5604	-4.8021	-4.0479	-4.7063	154.700	160.643	-63.432	234.151	-39.216	111.037	220.908	147.105	245.973	230.301	256.047	-34.460	-71.603	212.159	217.385	-83.479	0.00043179	0.00044478	0.00014994	1346.6	4.8708e-06	5.1609e-06	1347.4	366.31	5.3751e-06	4.5315e-06	416.4	139.68	121.18	41.741	5.1775e-06	51.967	0.00056071	0.00053605	0.00013737	1363.7	5.79e-06	5.3518e-06	1363.5	373.09	5.9974e-06	5.8791e-06	425.61	142.85	124.3	42.933	6.2097e-06	53.219	101.240	-15.418	-11.188	-78.713	30.905	51.466	-78.689	-74.179	-1.807	46.337	-74.619	-70.545	-69.702	-65.306	52.631	-65.870	-8191	255	
18399.820	1	1	0	0	0.29676	0.0774	0.10394	0.27845	0.075429	0.13209	0.3083	0.16782	0.12516	0.1931	0.22854	0.13048	0.26191	0.099532	0.19144	0.14152	-4.1396	-4.4	-4.6667	-4.4167	-4.3979	-4.7396	-4.3625	-4.8187	-4.5146	-4.15	-5.0729	-4.375	-4.7063	-4.7771	-4.3125	-4.6604	4.116	28.356	-39.819	221.795	-85.178	99.519	150.650	173.936	15.711	178.116	216.916	166.481	261.284	187.659	-29.356	159.479	0.00049227	0.00046416	0.00013438	1346	4.6727e-06	3.7555e-06	1347.2	366.29	4.0402e-06	4.6418e-06	418.19	139.16	122.08	41.793	5.4435e-06	51.673	0.00055507	0.00057638	0.00013695	1362.4	6.048e-06	5.1718e-06	1364.3	373.03	5.974e-06	5.9752e-06	425.03	143.14	124.46	42.886	6.3394e-06	53.088	99.867	-1.405	12.906	-78.695	36.076	55.253	-78.798	-74.037	11.229	61.079	-74.757	-70.274	-69.709	-65.322	53.973	-66.026	-8191	255	
18399.918	1	1	0	0	0.1333	0.29296	0.12855	0.26918	0.1803	0.075405	0.25516	0.24556	0.20848	0.24666	0.048358	0.0695	0.12873	0.11782	0.28676	0.15064	-4.1854	-4.2208	-4.8229	-4.6333	-4.3271	-4.9083	-4.25	-4.8396	-4.6646	-4.3583	-4.9396	-4.4625	-4.475	-4.9708	-4.2167	-4.5917	-10.669	130.544	124.816	241.638	124.775	111.577	199.919	263.666	1.091	96.257	257.393	191.820	258.396	215.171	-84.194	248.714	0.00043474	0.00044705	0.00014354	1348	5.2407e-06	4.6309e-06	1344.7	366.81	3.496e-06	5.318e-06	419.61	139.54	121.31	41.964	3.2955e-06	51.92	0.00053502	0.00056216	0.0001465	1363.4	5.9164e-06	5.2853e-06	1364.3	373.2	5.8662e-06	6.2576e-06	425.7	143.09	124.24	42.965	6.2509e-06	53.144	99.192	-10.314	-7.061	-78.828	38.426	63.503	-78.790	-74.144	0.377	46.305	-74.605	-70.284	-69.631	-65.218	44.111	-65.907	-8191	255	
18400.037	1	1	0	0	0.29431	0.17813	0.061925	0.1863	0.11044	0.26484	0.37545	0.18093	0.14436	0.16147	0.25879	0.22764	0.16716	0.13364	0.10737	0.10211	-4.3313	-4.2021	-4.8917	-4.5667	-4.2375	-4.7937	-4.4062	-4.5896	-4.7646	-4.1271	-4.7854	-4.5271	-4.5	-5.0188	-4.3604	-4.6542	-26.283	-70.202	-70.222	213.750	198.368	93.090	194.187	224.332	256.237	-0.723	233.487	-77.195	151.132	165.123	-80.415	-40.140	0.00048038	0.00049187	0.00013171	1348.5	2.8126e-06	5.6546e-06	1348.3	366.38	3.8384e-06	5.3083e-06	419.36	139.61	121.7	41.775	4.2286e-06	51.782	0.00054465	0.00060944	0.00014426	1363.5	5.8317e-06	5.5454e-06	1365.9	373.01	5.4583e-06	5.9811e-06	426.21	143.04	124.42	42.994	6.1853e-06	53.244	104.059	-8.158	5.607	-78.715	32.308	48.752	-78.763	-73.977	20.794	61.551	-74.506	-70.376	-70.204	-65.073	52.415	-65.811	-8191	255	
18400.135	1	1	0	0	0.19187	0.21876	0.099785	0.228	0.38401	0.18939	0.28746	0.23897	0.147	0.17852	0.21933	0.066259	0.051149	0.1966	0.23258	0.11884	-4.3521	-4.1125	-4.7188	-4.6312	-4.3021	-4.8	-4.5917	-4.5188	-4.8125	-4.2104	-4.8729	-4.625	-4.2708	-4.8292	-4.4042	-4.4667	-72.164	220.302	-57.205	186.268	202.276	-61.502	173.264	-83.329	149.970	142.031	165.356	135.422	-41.368	-78.566	267.720	171.990	0.00048372	0.00054361	0.00013932	1350.8	2.7977e-06	5.9143e-06	1344.4	368.55	3.0542e-06	4.8913e-06	417.21	139.7	121.89	41.876	4.6647e-06	51.657	0.00054123	0.00054745	0.0001496	1366.2	5.747e-06	5.2207e-06	1364.9	373.82	5.6545e-06	6.2733e-06	426.11	143.13	124.6	42.937	6.225e-06	53.202	99.693	-7.025	8.555	-78.675	57.315	68.445	-78.744	-74.174	20.418	61.916	-74.537	-70.606	-69.832	-65.245	45.852	-65.871	-8191	255	
18400.205	1	1	0	0	0.069714	0.22397	0.18325	0.080868	0.21059	0.23658	0.18906	0.16293	0.09296	0.34583	0.1484	0.27715	0.097423	0.11067	0.17863	0.23934	-4.4375	-4.1167	-4.5938	-4.7917	-4.2438	-4.8812	-4.6354	-4.5958	-4.9042	-4.2854	-4.7792	-4.8187	-4.3104	-4.8917	-4.4854	-4.4646	223.830	-66.330	-81.276	183.008	-51.566	251.501	221.306	257.751	143.365	164.304	242.634	254.609	-1.371	-78.163	-49.572	197.626	0.00047516	0.00048944	0.00014902	1352.5	4.6177e-06	3.5412e-06	1347.6	367.08	3.5575e-06	4.2888e-06	417.75	139.94	121.67	41.888	4.8988e-06	51.6	0.00052459	0.00057142	0.00014552	1363.9	6.0897e-06	5.1053e-06	1363.4	373.2	5.8389e-06	5.9693e-06	426.04	143.13	124.31	42.965	5.9245e-06	53.177	100.546	-4.685	-7.223	-78.628	44.154	60.484	-78.675	-74.041	20.368	51.542	-74.557	-70.346	-69.827	-65.104	59.863	-65.857	-8191	255	
18400.303	1	1	0	0	0.18163	0.11943	0.18709	0.16187	0.078761	0.036556	0.19896	0.031145	0.15243	0.07727	0.078221	0.24766	0.19943	0.18967	0.26318	0.033125	-4.5938	-4.0646	-4.5917	-4.8625	-4.1521	-4.7917	-4.575	-4.5146	-4.75	-4.3646	-4.6792	-4.7667	-4.2667	-4.9062	-4.625	-4.3958	228.327	-87.026	266.069	249.499	121.586	72.071	163.806	-27.911	-10.496	134.400	72.614	253.970	211.110	-60.910	51.835	39.976	0.00050045	0.00048659	0.0001491	1344.3	3.8776e-06	5.204e-06	1344	367.73	4.5134e-06	4.7108e-06	418.16	139.86	121.38	41.995	5.1327e-06	51.848	0.00053787	0.00055126	0.00013199	1361.9	6.3138e-06	5.5572e-06	1363.4	373.63	5.8077e-06	5.5771e-06	426.16	143.19	124.37	42.99	5.5019e-06	53.15	102.770	-0.498	1.716	-78.591	30.351	49.738	-79.001	-74.034	10.888	60.566	-74.585	-70.471	-69.727	-65.385	61.288	-65.559	-8191	255	
18400.424	1	1	0	0	0.17217	0.20747	0.15991	0.20056	0.078907	0.12184	0.13388	0.13404	0.21486	0.048096	0.097263	0.035672	0.1611	0.043501	0.097307	0.093203	-4.5625	-4.1229	-4.4062	-4.9812	-3.9875	-4.7063	-4.7333	-4.5167	-4.8167	-4.4729	-4.4792	-4.925	-4.3083	-4.8896	-4.5083	-4.3771	159.145	263.354	73.233	220.426	195.885	37.062	109.879	-52.084	248.353	26.862	217.195	72.678	240.262	210.903	-27.059	-37.501	0.00044257	0.00050768	0.00014526	1351.9	3.958e-06	5.4845e-06	1345.8	367.25	2.5025e-06	5.7204e-06	420.55	139.72	121.54	41.834	4.3356e-06	51.707	0.00054875	0.00054117	0.00015241	1364.9	6.491e-06	5.5865e-06	1366.8	373.54	6.0883e-06	6.0497e-06	426.78	143.2	124.46	42.954	5.8635e-06	53.261	99.210	-19.985	10.844	-78.534	42.292	56.899	-78.657	-74.189	12.406	46.430	-74.621	-70.705	-69.848	-65.020	43.744	-65.851	-8191	255	
18400.520	1	1	0	0	0.17079	0.12913	0.13564	0.12914	0.079489	0.029939	0.15042	0.073129	0.1801	0.097968	0.202	0.34456	0.093439	0.24027	0.18504	0.13124	-4.6083	-4.3521	-4.3688	-4.9333	-4.3187	-4.5437	-4.75	-4.2917	-4.5312	-4.35	-4.5625	-4.8812	-4.3417	-4.75	-4.5458	-4.4167	69.503	50.027	62.503	-47.688	81.726	143.531	212.144	183.461	10.782	85.934	204.136	248.905	54.548	253.050	90.285	246.864	0.00041743	0.00049119	0.00012585	1347	2.6072e-06	6.0429e-06	1347.6	368.25	2.8842e-06	5.2482e-06	419.89	140.39	121.54	41.924	4.6755e-06	52.004	0.00055063	0.00052117	0.00015011	1364.8	5.6819e-06	5.5278e-06	1366.7	373.83	5.9234e-06	5.4536e-06	426.57	143.88	124.42	43.054	5.717e-06	53.345	102.175	-2.955	3.167	-78.595	48.712	59.798	-78.859	-74.009	4.289	49.754	-74.526	-70.263	-69.948	-64.971	70.169	-65.783	-8191	255	
18400.615	1	1	0	0	0.027307	0.089577	0.072229	0.12756	0.15467	0.17476	0.1815	0.24799	0.18613	0.057527	0.11687	0.21576	0.06574	0.15536	0.1174	0.19169	-4.2875	-4.4125	-4.4146	-5.0188	-4.2771	-4.4417	-4.8458	-4.3708	-4.5979	-4.5542	-4.5437	-5	-4.2562	-4.6708	-4.8208	-4.2479	142.492	-53.786	90.584	-60.202	231.434	74.387	197.891	143.206	175.842	189.508	153.594	-32.792	92.269	263.635	37.365	232.792	0.000414	0.00047727	0.00015442	1346.2	3.6378e-06	4.5938e-06	1350.2	366.95	4.0067e-06	5.2777e-06	417.59	140.67	121.62	41.846	5.1621e-06	51.872	0.00053439	0.00049605	0.0001599	1364	6.1548e-06	5.6667e-06	1365.7	373.57	5.8142e-06	5.8536e-06	425.92	143.59	124.73	43.004	5.598e-06	53.279	106.189	-2.803	4.420	-78.564	31.015	63.403	-78.789	-74.115	16.807	49.037	-74.535	-70.624	-69.840	-65.009	42.430	-65.891	-8191	255	
18400.734	1	1	0	0	0.067787	0.084141	0.096857	0.11934	0.097804	0.035028	0.11248	0.052919	0.14686	0.17014	0.1323	0.16394	0.079222	0.19073	0.15761	0.15074	-4.2729	-4.4583	-4.2458	-4.9771	-4.2417	-4.5667	-4.9771	-4.2417	-4.7146	-4.6438	-4.4458	-4.8688	-4.3458	-4.5729	-4.7312	-4.2	250.340	136.803	117.712	227.066	-71.221	112.077	25.905	20.875	-50.758	264.308	145.058	-16.275	235.114	250.423	230.551	139.863	0.00046785	0.00051585	7.4051e-05	1353.4	3.8139e-06	5.2062e-06	1349.4	366.94	4.9394e-06	5.1782e-06	420.4	139.92	122.57	41.997	4.4999e-06	52.018	0.0005373	0.00049092	0.00015564	1364.9	6.0766e-06	5.4378e-06	1367.5	373.32	6.1507e-06	5.2183e-06	426.69	143.55	124.99	43.067	5.6362e-06	53.305	100.864	-9.140	-7.965	-78.545	25.544	58.391	-78.808	-74.048	13.510	46.595	-74.536	-70.487	-69.834	-65.100	50.479	-65.675	-8191	255	
18400.805	1	1	0	0	0.04004	0.059921	0.2099	0.11517	0.30819	0.11098	0.203	0.0924	0.17044	0.056366	0.081224	0.045085	0.26395	0.31282	0.088172	0.11858	-4.3	-4.5896	-4.1583	-4.8854	-4.4187	-4.3688	-5.1125	-4.4875	-4.5687	-4.7896	-4.2542	-4.8729	-4.425	-4.4688	-4.6479	-4.3646	6.501	191.065	171.547	209.790	44.664	50.680	200.552	79.468	-8.993	246.176	244.400	-46.096	211.768	251.830	-60.535	185.717	0.00045528	0.00058444	0.00015926	1347.8	2.8826e-06	4.8431e-06	1347.7	369.9	4.0817e-06	4.8498e-06	418.38	140.67	122.01	42.021	5.4741e-06	51.777	0.00054071	0.00050299	0.0001562	1365.5	5.5842e-06	5.6726e-06	1368.1	374.6	5.987e-06	5.8713e-06	426.28	143.71	124.44	43.049	5.7521e-06	53.134	103.510	-4.728	1.662	-78.593	60.705	54.269	-78.837	-74.147	6.109	39.428	-74.617	-70.480	-69.818	-65.041	60.686	-65.861	-8191	255	
18400.902	1	1	0	0	0.26576	0.18529	0.19411	0.24449	0.056075	0.12917	0.15615	0.23802	0.13896	0.10243	0.11635	0.21062	0.077772	0.075103	0.10464	0.47705	-4.1312	-4.5771	-4.0687	-4.8187	-4.6729	-4.3354	-5.0583	-4.4167	-4.4917	-4.7583	-4.3521	-4.8604	-4.5708	-4.3667	-4.8521	-4.3313	159.402	-39.423	105.665	225.730	-52.725	128.189	159.962	144.061	164.318	142.819	121.330	164.766	34.461	21.819	255.390	225.621	0.00041755	0.00056562	0.00012845	1349.9	4.0776e-06	5.4521e-06	1354.3	367.24	3.8926e-06	5.2541e-06	419.55	140.5	120.67	41.82	4.288e-06	51.783	0.00054003	0.00048448	0.00015175	1366.8	5.8682e-06	6.3689e-06	1368	373.71	6.0299e-06	5.5595e-06	426.2	143.54	124.25	43.001	5.4104e-06	53.151	103.009	2.118	-5.713	-78.698	35.123	45.130	-78.691	-74.148	29.338	44.944	-74.689	-70.325	-69.586	-65.191	54.039	-65.669	-8191	255	
18401.021	1	1	0	0	0.10581	0.23503	0.08879	0.15163	0.20537	0.09344	0.080496	0.31446	0.25036	0.046684	0.26678	0.068408	0.13286	0.23319	0.15124	0.090601	-4.2125	-4.6417	-4.2583	-4.9688	-4.625	-4.3562	-4.9167	-4.5188	-4.3833	-4.6896	-4.3604	-4.6604	-4.6417	-4.2979	-4.8187	-4.4583	-74.768	-24.219	234.045	186.335	73.208	234.810	-84.002	169.787	-46.696	154.214	204.491	-35.053	225.294	-41.859	-63.948	86.847	0.00048024	0.00055622	0.00013068	1350.8	3.5377e-06	5.0978e-06	1351.1	367.05	5.5112e-06	5.2605e-06	418.93	139.66	121.24	41.885	4.3358e-06	52.002	0.00054664	0.00053836	0.00013498	1366.8	5.6649e-06	5.8995e-06	1369.2	374	6.5157e-06	5.4771e-06	426.54	143.18	124.34	43.022	5.4867e-06	53.249	98.582	-8.378	-11.625	-78.672	30.226	55.854	-78.745	-74.061	9.189	70.182	-74.555	-70.570	-69.925	-65.119	47.352	-66.143	-8191	255	
18401.117	1	1	0	0	0.1065	0.1858	0.15602	0.29339	0.15883	0.19053	0.065557	0.083772	0.0288	0.25594	0.14626	0.42933	0.18005	0.29448	0.18407	0.20115	-4.1542	-4.8438	-4.1417	-4.8333	-4.6271	-4.1875	-4.9167	-4.65	-4.3	-4.8875	-4.3771	-4.6146	-4.8458	-4.3125	-4.7104	-4.5604	85.373	182.387	146.870	221.490	98.654	-27.966	175.869	-42.061	148.719	-71.017	238.769	248.657	22.079	216.899	76.643	200.019	0.00040343	0.000512	0.00014956	1350.5	3.8203e-06	4.918e-06	1348.2	366.2	4.2527e-06	5.4955e-06	419.71	139.69	121.14	41.795	4.9669e-06	51.767	0.00055991	0.00049026	0.00015494	1366.9	5.777e-06	6.1616e-06	1366.7	372.96	6.0247e-06	5.3438e-06	426.28	143.27	124.28	42.977	6.0755e-06	53.228	99.010	-7.107	3.985	-78.564	45.905	58.226	-78.796	-74.181	-14.632	56.928	-74.549	-70.213	-69.843	-65.150	47.693	-65.878	-8191	255	
18401.215	1	1	0	0	0.12429	0.017585	0.23173	0.33596	0.053218	0.082415	0.017529	0.20079	0.097818	0.26481	0.22418	0.14984	0.21684	0.17451	0.17382	0.12894	-3.8812	-4.7729	-4.1937	-4.6458	-4.6542	-4.3396	-4.9896	-4.5917	-4.3354	-4.8479	-4.5333	-4.4708	-4.7937	-4.325	-4.6625	-4.65	233.508	254.854	180.466	215.225	223.672	72.265	260.445	220.092	116.601	108.834	229.755	-81.138	142.598	233.184	86.517	139.569	0.00049177	0.00041685	0.00014499	1352.6	2.3526e-06	5.2251e-06	1344.8	367.72	4.728e-06	4.1618e-06	419.14	139.85	121.6	41.873	4.4012e-06	51.779	0.00056179	0.0005063	0.000148	1366.9	5.5972e-06	6.0912e-06	1365.4	372.91	6.4118e-06	5.2712e-06	425.87	143.14	124.34	42.998	5.3326e-06	53.103	98.776	-13.618	-2.386	-78.435	74.250	55.990	-78.790	-74.202	16.477	61.097	-74.453	-70.362	-69.967	-64.798	46.736	-65.664	-8191	255	
18401.336	1	1	0	0	0.22728	0.10811	0.091594	0.19511	0.059796	0.2742	0.18591	0.024935	0.098049	0.10236	0.041783	0.16362	0.27039	0.14363	0.26286	0.096225	-3.8479	-4.8625	-4.3333	-4.5625	-4.7604	-4.2	-4.8812	-4.8167	-3.975	-4.7771	-4.5125	-4.4187	-4.8542	-4.3375	-4.5458	-4.8333	232.495	182.781	22.667	247.007	120.177	-34.660	169.184	218.540	252.452	-61.358	-81.006	-70.633	-79.274	204.954	-28.217	84.610	0.00042043	0.00065752	0.00014174	1350.9	4.2249e-06	5.85e-06	1346.7	366.02	2.5804e-06	4.7718e-06	418.86	139.97	121.93	41.724	4.4093e-06	51.783	0.00055752	0.0005344	0.00015166	1365.6	5.6376e-06	6.2672e-06	1365.2	372.73	6.0961e-06	5.7438e-06	425.77	143.07	124.26	42.89	5.6774e-06	53.117	93.612	1.453	-16.825	-78.552	45.177	48.670	-78.837	-73.881	4.594	62.249	-74.697	-70.433	-69.650	-65.132	50.981	-65.783	-8191	255	
18401.432	1	1	0	0	0.05191	0.14421	0.049372	0.13653	0.10647	0.16097	0.29439	0.17133	0.1665	0.13985	0.12886	0.17872	0.19689	0.15481	0.15382	0.16793	-3.7812	-4.7229	-4.4437	-4.6188	-4.7229	-4.3646	-4.7896	-4.9479	-4.1583	-4.7646	-4.5208	-4.3458	-4.8187	-4.2167	-4.2438	-4.7604	22.931	50.529	143.729	228.932	48.439	-9.781	247.670	218.168	1.166	99.635	192.959	247.594	-35.168	190.366	169.830	151.271	0.00045353	0.00043418	0.00014652	1355.2	2.9415e-06	4.4134e-06	1352.1	366.53	4.5514e-06	3.9178e-06	418.21	140.32	121.89	41.882	4.3265e-06	51.622	0.00056191	0.00052101	0.00014426	1367.4	5.6089e-06	5.698e-06	1366.9	373.4	6.6222e-06	4.9339e-06	425.93	143.43	124.44	42.917	5.6789e-06	53.073	97.793	-9.812	2.751	-78.507	30.410	56.950	-78.856	-74.250	2.913	78.340	-74.557	-70.243	-70.002	-65.288	42.203	-65.973	-8191	255	
18401.504	1	1	0	0	0.1749	0.38319	0.2268	0.13704	0.072381	0.11766	0.16118	0.12516	0.097898	0.19373	0.15866	0.17262	0.10935	0.044928	0.090173	0.10347	-3.8167	-4.5729	-4.5437	-4.4458	-4.8583	-4.2875	-4.8479	-4.8479	-4.2375	-4.6083	-4.6854	-4.475	-4.8542	-4.6062	-4.3354	-5	116.107	237.249	206.469	-82.630	89.311	197.981	239.488	110.829	-54.626	207.432	207.834	256.019	256.559	-63.347	-23.406	-58.707	0.0004562	0.00055826	0.00015163	1351.1	3.8707e-06	4.8548e-06	1343	365.42	2.8467e-06	4.8674e-06	419.42	140.08	122.39	41.716	5.4766e-06	51.958	0.00055889	0.00054365	0.00014421	1366.6	5.6154e-06	5.5982e-06	1366.4	372.97	6.3066e-06	5.183e-06	426.34	143.4	124.59	42.94	6.2433e-06	53.24	100.337	-1.764	-9.625	-78.554	51.266	66.814	-78.571	-74.060	22.082	53.860	-74.663	-70.355	-69.877	-65.028	45.042	-65.931	-8191	255	
18401.600	1	1	0	0	0.098424	0.10797	0.13855	0.10495	0.16017	0.058369	0.19124	0.10491	0.15339	0.29607	0.15998	0.27376	0.11921	0.18785	0.12564	0.12787	-3.8146	-4.6854	-4.6375	-4.2854	-4.8104	-4.3938	-4.5917	-4.8146	-4.3354	-4.3729	-4.6937	-4.2167	-4.7063	-4.6396	-4.1875	-4.9229	-86.262	176.442	220.681	196.133	135.751	47.434	261.601	253.495	-80.983	202.669	187.698	139.581	-39.919	30.588	39.517	27.049	0.00042618	0.00044192	0.00013691	1354.2	4.1617e-06	5.0642e-06	1348.1	368.26	4.1399e-06	4.1566e-06	418.32	139.88	121.26	41.921	5.3235e-06	51.727	0.00055911	0.00049258	0.00014557	1367.7	5.7144e-06	5.655e-06	1367.5	374.47	6.2156e-06	5.3889e-06	426.29	143.13	124.34	43.022	5.8513e-06	53.222	103.029	-11.239	-6.258	-78.598	38.927	52.723	-78.756	-74.075	12.487	66.433	-74.534	-70.352	-69.528	-65.097	42.185	-65.815	-8191	255	
18401.719	1	1	0	0	0.22313	0.28598	0.072774	0.27876	0.16087	0.083746	0.088185	0.1681	0.096353	0.28069	0.15852	0.067352	0.070491	0.24097	0.30224	0.050484	-3.925	-4.5708	-4.7604	-4.3625	-4.8333	-4.5229	-4.4042	-4.9875	-4.1083	-4.4146	-4.7542	-4.075	-4.6854	-4.6729	-4.3	-4.8896	-31.242	23.919	-89.018	238.077	114.948	35.622	-67.966	165.088	246.340	162.536	168.116	260.648	196.980	186.274	-82.371	204.288	0.00043297	0.00039003	0.00015389	1350.3	5.5606e-06	5.5581e-06	1350.7	367.38	2.3995e-06	5.3265e-06	418.06	139.54	121.91	41.809	4.5982e-06	51.637	0.00055484	0.00048646	0.00015194	1367.5	5.7001e-06	5.7665e-06	1366.8	373.42	6.0221e-06	5.7419e-06	425.75	143.16	124.28	42.886	6.5346e-06	53.122	99.037	0.875	-1.338	-78.553	43.284	63.434	-78.796	-73.889	-17.686	63.310	-74.673	-70.245	-69.753	-64.988	54.460	-65.526	-8191	255	
18401.814	1	1	0	0	0.036996	0.25325	0.099805	0.41566	0.066228	0.023408	0.18029	0.095985	0.24632	0.10838	0.19023	0.24046	0.18218	0.1391	0.21962	0.29484	-3.8979	-4.3562	-4.6771	-4.375	-4.5854	-4.5708	-4.2625	-4.7375	-4.4187	-4.3104	-4.9417	-4.3583	-4.6979	-4.5813	-4.1646	-4.825	182.860	86.666	157.609	225.592	193.876	76.438	260.809	201.587	230.394	71.216	112.727	265.605	-80.402	209.257	190.323	245.504	0.00045873	0.00052768	0.00014853	1348.2	3.4007e-06	4.1233e-06	1343.8	366.6	4.2545e-06	5.1753e-06	418.41	140.04	121.06	41.946	5.1499e-06	51.43	0.0005459	0.00056497	0.00013358	1363.8	5.8591e-06	5.4867e-06	1364	373.62	5.9753e-06	6.2203e-06	425.45	142.95	124.25	43	6.3577e-06	53.107	99.081	3.736	-1.837	-78.601	30.004	57.483	-78.803	-74.251	22.473	60.736	-74.483	-70.292	-69.792	-65.076	50.591	-65.730	-8191	255	
18401.910	1	1	0	0	0.095135	0.087964	0.11401	0.14686	0.25703	0.15524	0.31279	0.19484	0.30632	0.15094	0.07468	0.18741	0.15282	0.11223	0.03137	0.080932	-4.0875	-4.2229	-4.5958	-4.3208	-4.5396	-4.6375	-4.5021	-4.9812	-4.4354	-4.3167	-4.9437	-4.3146	-4.525	-4.8125	-4.0813	-4.7	147.357	-40.149	-52.561	220.364	135.561	35.848	203.727	207.048	60.824	-7.734	-84.609	262.827	-77.517	188.943	179.910	130.854	0.00042791	0.00043263	0.00012134	1349.5	3.7536e-06	5.2277e-06	1347.3	367.76	4.2262e-06	3.966e-06	418.05	140.29	121.42	41.753	5.16e-06	51.893	0.00054829	0.00052448	0.00013283	1363.7	5.6806e-06	5.2833e-06	1364.2	373.56	5.8857e-06	5.7536e-06	425.81	143.28	124.26	42.924	5.9962e-06	53.186	99.001	-0.076	4.974	-78.657	36.680	56.068	-78.719	-74.206	10.637	55.802	-74.641	-70.622	-69.613	-65.103	57.060	-65.975	-8191	255	
18402.006	1	1	0	0	0.16517	0.085958	0.16866	0.17989	0.047072	0.092753	0.10855	0.15354	0.17921	0.054934	0.10908	0.10505	0.25368	0.067477	0.14901	0.24779	-4.3292	-4.1104	-4.7667	-4.5	-4.35	-4.7771	-4.4313	-4.7646	-4.5542	-4.1854	-4.9208	-4.4437	-4.4854	-4.8979	-4.325	-4.7667	33.393	207.841	-55.799	184.745	39.709	168.854	-61.849	150.836	233.710	43.166	-89.057	248.717	222.038	143.241	50.987	232.740	0.00040257	0.00054906	0.0001431	1346	4.6772e-06	4.7455e-06	1345.4	365.85	3.7346e-06	4.2601e-06	419.8	139.51	121.94	41.82	4.7578e-06	51.732	0.0005418	0.00054464	0.0001392	1363.9	6.1222e-06	5.162e-06	1364.4	372.99	5.7376e-06	5.7909e-06	426.21	143.15	124.54	42.856	6.3638e-06	53.132	96.510	-2.011	11.136	-78.664	44.928	53.368	-78.864	-74.076	22.285	46.103	-74.565	-70.219	-69.868	-65.092	71.828	-65.811	-8191	255	
18402.104	1	1	0	0	0.080474	0.077587	0.2132	0.055726	0.22796	0.1514	0.35404	0.13906	0.067867	0.20493	0.039392	0.23318	0.10399	0.11946	0.27066	0.097193	-4.1542	-4.3063	-4.7812	-4.5938	-4.4521	-4.8125	-4.3167	-4.8167	-4.4604	-4.0146	-4.95	-4.3875	-4.4	-4.7958	-4.3375	-4.6833	-29.830	136.660	130.985	-64.906	-46.591	169.683	179.388	241.791	192.432	57.108	50.599	157.949	214.586	178.797	-18.084	199.893	0.00042848	0.00044299	0.00013317	1347.3	4.8795e-06	4.9058e-06	1346.3	366.54	3.0436e-06	4.7867e-06	417.39	139.31	120.95	41.805	4.3926e-06	51.781	0.00053804	0.00054249	0.0001295	1365.1	6.2955e-06	5.5219e-06	1365.2	372.92	5.8389e-06	6.2145e-06	425.3	142.84	123.94	42.876	6.0679e-06	53.09	103.696	-2.255	0.317	-78.562	47.301	43.985	-78.777	-74.028	2.576	57.764	-74.603	-70.342	-69.852	-65.394	34.198	-65.514	-8191	255	
18402.199	1	1	0	0	0.14319	0.10816	0.29162	0.38795	0.39605	0.14306	0.22339	0.11869	0.090297	0.090522	0.27491	0.079301	0.252	0.39718	0.069843	0.27921	-4.2167	-4.2812	-4.5625	-4.6396	-4.2375	-4.8792	-4.4292	-4.5375	-4.4396	-4.2167	-4.7667	-4.6458	-4.2271	-4.95	-4.1438	-4.7229	65.979	-70.210	-24.226	211.129	37.140	175.308	168.887	-84.168	-12.836	30.044	201.134	176.447	262.410	248.802	-29.642	150.824	0.00042605	0.00032201	0.00010966	1353.1	3.2545e-06	4.4175e-06	1345.9	366.9	2.6947e-06	4.5802e-06	419.23	139.39	121.27	41.764	4.2919e-06	51.735	0.00053849	0.00052663	0.0001399	1365.5	6.3867e-06	5.2051e-06	1365.4	372.69	5.9792e-06	5.9635e-06	425.62	142.59	123.84	42.805	5.8101e-06	53.08	96.713	-18.079	1.080	-78.421	48.313	55.455	-78.881	-74.300	21.157	57.654	-74.522	-70.713	-69.746	-65.049	45.102	-66.056	-8191	255	
18402.295	1	1	0	0	0.3093	0.13558	0.16025	0.2201	0.0843	0.2053	0.44671	0.26423	0.14302	0.25826	0.2514	0.1367	0.091634	0.15591	0.23612	0.24743	-4.2167	-4.0021	-4.7479	-4.6729	-4.1458	-4.8292	-4.5167	-4.6229	-4.7188	-4.15	-4.7042	-4.6937	-4.2562	-4.8604	-4.3729	-4.5687	129.423	237.848	-8.930	201.239	178.453	73.158	184.021	213.528	117.781	221.448	-55.070	234.524	-88.859	192.198	-15.022	-75.757	0.00046489	0.00038543	0.00013781	1351.2	3.457e-06	4.4223e-06	1343	366.53	4.6091e-06	4.5679e-06	417.79	139.17	121.44	41.805	5.1341e-06	51.622	0.00053901	0.00055836	0.00013606	1366	6.031e-06	5.2579e-06	1364.8	372.72	5.7597e-06	6.2027e-06	425.2	142.71	124.01	42.807	5.8955e-06	52.933	99.842	-8.551	11.220	-78.646	67.377	53.744	-78.595	-73.958	10.270	54.778	-74.187	-70.432	-69.737	-65.252	53.157	-65.920	-8191	255	
18402.414	1	1	0	0	0.096404	0.22678	0.14159	0.28051	0.091535	0.11826	0.16397	0.16768	0.092444	0.1742	0.080228	0.17463	0.1685	0.22351	0.0959	0.27069	-4.4917	-4.15	-4.4375	-4.8042	-4.0125	-4.7875	-4.5208	-4.6625	-4.7792	-4.2667	-4.6875	-4.7167	-4.3229	-4.9021	-4.4083	-4.3021	57.325	-20.386	158.945	215.912	198.860	-2.531	182.624	217.517	-37.351	-53.587	222.993	249.018	-84.628	40.363	9.234	246.845	0.00043269	0.00041739	0.00011469	1346.2	3.0063e-06	4.5763e-06	1346.9	367.11	5.5196e-06	4.5399e-06	417.47	139	121.31	41.918	5.4238e-06	51.813	0.0005267	0.00051572	0.000137	1361.9	6.2135e-06	5.7136e-06	1363.2	372.82	5.7766e-06	5.9203e-06	424.96	142.62	123.95	42.901	5.9718e-06	52.978	94.746	-11.080	5.980	-78.633	44.927	57.994	-78.618	-73.973	6.228	78.960	-74.765	-70.410	-69.744	-64.852	66.196	-66.103	-8191	255	
18402.512	1	1	0	0	0.18796	0.059355	0.19647	0.28134	0.086387	0.22093	0.15854	0.097765	0.068123	0.10194	0.18785	0.26883	0.20799	0.23635	0.10873	0.10846	-4.525	-4	-4.4958	-4.8333	-4.2354	-4.625	-4.6229	-4.5271	-4.6146	-4.4146	-4.3729	-4.8562	-4.2812	-4.7875	-4.4437	-4.4292	244.543	-9.036	37.399	203.358	171.298	-2.075	233.689	121.164	76.337	121.581	105.031	120.678	202.108	267.105	-27.217	69.841	0.00044694	0.00050237	0.0001239	1346	4.2551e-06	4.9712e-06	1345.9	366.81	2.3643e-06	5.1014e-06	418.72	139.62	122.15	42.004	4.4329e-06	51.761	0.00052807	0.0005301	0.00015353	1363.2	5.9451e-06	5.8251e-06	1362.9	372.69	5.5947e-06	5.6693e-06	426.17	142.9	124.47	42.94	5.627e-06	53.139	99.969	-8.168	-5.769	-78.635	52.656	75.139	-78.605	-74.291	-7.592	53.076	-74.535	-70.292	-69.630	-65.113	57.781	-66.192	-8191	255	
18402.605	1	1	0	0	0.34915	0.21538	0.11554	0.10927	0.13576	0.23599	0.23262	0.043977	0.14689	0.19553	0.40148	0.11005	0.12892	0.27688	0.099582	0.026717	-4.4563	-4.3208	-4.4875	-4.9812	-4.1167	-4.6354	-4.7104	-4.2771	-4.8354	-4.3604	-4.6271	-4.8917	-4.3021	-4.6625	-4.6958	-4.3125	110.923	197.939	46.591	169.260	135.650	127.356	158.372	184.568	121.399	70.195	-80.767	213.083	57.116	240.617	183.761	15.755	0.00044233	0.00039972	0.00011193	1350	2.9483e-06	4.6098e-06	1342.3	365.68	3.4143e-06	6.0956e-06	418.53	140.04	121.66	41.798	5.413e-06	51.506	0.00053997	0.00054051	0.00015198	1363.5	6.0701e-06	5.4281e-06	1362.9	372.46	5.6064e-06	5.7615e-06	425.24	143.08	124.1	42.912	5.778e-06	53.098	98.821	6.365	2.192	-78.708	51.306	54.357	-78.972	-73.965	-6.149	61.084	-74.576	-70.464	-70.026	-65.041	43.144	-65.737	-8191	255	
18402.703	1	1	0	0	0.27877	0.12158	0.12248	0.20093	0.20306	0.067128	0.28969	0.19616	0.15222	0.049984	0.18716	0.19857	0.18771	0.081266	0.15095	0.30671	-4.5125	-4.3333	-4.3896	-4.9542	-4.2146	-4.7083	-4.7542	-4.5167	-4.7792	-4.3458	-4.4625	-4.8063	-4.4125	-4.5708	-4.825	-4.2521	-84.106	158.533	38.580	-73.733	9.990	-24.375	220.054	230.200	-39.662	186.497	-15.518	191.655	221.268	215.765	-12.156	183.560	0.00039651	0.00055884	0.00013764	1348.6	3.105e-06	5.3348e-06	1343.3	367.42	4.4437e-06	5.0702e-06	419.53	140.24	120.7	41.951	4.7876e-06	51.678	0.00055598	0.00057307	0.00014131	1363.6	6.0558e-06	5.5337e-06	1363.8	373.12	5.6778e-06	5.7575e-06	426.02	143.16	124.05	42.961	5.9092e-06	53.115	91.867	-10.134	-3.820	-78.641	52.690	67.075	-78.667	-74.135	-3.631	58.409	-74.638	-70.596	-69.686	-64.882	41.720	-66.030	-8191	255	
18402.799	1	1	0	0	0.22584	0.20921	0.10238	0.12955	0.15735	0.19239	0.09138	0.2282	0.28985	0.11945	0.26882	0.12814	0.11005	0.1289	0.26812	0.1101	-4.2917	-4.6	-4.1729	-5.1458	-4.2875	-4.5687	-4.8917	-4.2854	-4.9375	-4.4104	-4.4042	-4.9333	-4.4646	-4.4833	-4.7875	-4.4146	130.757	59.482	153.773	251.926	50.394	67.655	-14.088	168.487	10.776	194.429	188.177	187.656	229.022	138.910	265.609	145.316	0.00048033	0.00061531	0.00014046	1345.2	3.3823e-06	5.1457e-06	1345.5	366.49	4.1616e-06	5.1121e-06	417.19	139.34	121.58	41.877	4.3643e-06	51.876	0.00053673	0.00055754	0.00016318	1363.3	5.9425e-06	6.0266e-06	1364.6	373.16	5.9883e-06	5.6615e-06	425.3	142.98	124.2	42.973	5.6286e-06	53.195	99.496	-13.626	1.509	-78.567	39.631	42.189	-78.798	-74.205	-6.230	54.197	-74.684	-70.201	-69.936	-64.997	39.747	-65.656	-8191	255	
18402.895	1	1	0	0	0.23146	0.23622	0.16838	0.063458	0.19881	0.20498	0.10763	0.27635	0.12202	0.20959	0.068234	0.22512	0.14448	0.29135	0.045929	0.2648	-4.15	-4.6896	-4.1854	-5.0104	-4.2208	-4.35	-4.9583	-4.2125	-4.6771	-4.5042	-4.3667	-4.7188	-4.6021	-4.2896	-4.7375	-4.2375	-46.418	175.834	119.644	114.042	170.982	-76.935	192.367	177.189	185.303	243.846	229.670	201.424	248.171	253.027	253.811	132.007	0.00044793	0.00044011	0.00011205	1348.4	4.043e-06	5.3489e-06	1343.9	365.73	4.3206e-06	3.8458e-06	421.46	139.45	121.57	41.853	4.3935e-06	51.725	0.00052824	0.00051307	0.00015189	1365.1	6.418e-06	6.2829e-06	1364.1	373.13	5.6116e-06	5.3202e-06	426.77	142.74	124.2	42.955	5.505e-06	53.136	100.062	-15.984	-0.475	-78.566	41.717	52.141	-78.890	-74.139	-8.572	44.090	-74.581	-70.634	-69.816	-65.048	44.662	-65.860	-8191	255	
18403.016	1	1	0	0	0.2597	0.27816	0.17061	0.20456	0.15722	0.14292	0.069755	0.36711	0.12951	0.089194	0.2164	0.11864	0.18487	0.13671	0.12624	0.082765	-4.2208	-4.5437	-4.0125	-4.975	-4.2271	-4.3313	-5.1083	-4.3875	-4.3542	-4.7375	-4.1438	-4.6625	-4.4917	-4.325	-4.7542	-4.25	135.214	-75.921	221.533	210.715	256.258	-68.165	-40.739	222.854	51.616	33.318	78.866	147.431	180.644	256.362	252.730	-71.187	0.00042814	0.00045997	0.00014791	1348	4.3694e-06	5.032e-06	1346.8	368.16	3.4504e-06	4.7927e-06	418.43	139.5	121.31	41.922	4.9923e-06	51.648	0.00055558	0.00051406	0.00015203	1364.8	5.9112e-06	6.4315e-06	1365.1	373.61	6.2585e-06	5.5948e-06	425.4	142.98	123.97	42.922	5.3464e-06	53.086	100.201	-12.948	-0.176	-78.555	48.303	63.440	-78.843	-73.871	-4.469	66.430	-74.468	-70.596	-69.750	-65.140	61.994	-66.036	-8191	255	
18403.111	1	1	0	0	0.080458	0.34214	0.088953	0.12885	0.13149	0.0356	0.14419	0.31408	0.22972	0.23108	0.2343	0.18872	0.35369	0.14808	0.15888	0.11291	-4.0771	-4.6604	-4.125	-4.7312	-4.4875	-4.1625	-5.0479	-4.6104	-4.3604	-4.7562	-4.2812	-4.4875	-4.65	-4.2292	-4.7625	-4.6083	239.298	38.453	10.773	230.459	140.595	134.784	241.278	211.633	153.552	90.484	224.650	251.599	160.952	146.980	-36.919	89.236	0.00046369	0.0005633	0.00012495	1348.1	4.6178e-06	4.0553e-06	1348.8	366.25	3.5288e-06	4.366e-06	418.68	139.5	121.48	41.797	4.4369e-06	51.776	0.00053918	0.00049406	0.00015081	1364.5	5.932e-06	5.7332e-06	1364	372.53	5.9e-06	5.2516e-06	425.63	142.75	124.32	42.879	5.6286e-06	53.097	101.882	8.039	2.930	-78.726	32.807	59.636	-78.826	-73.983	21.742	54.864	-74.697	-70.386	-69.807	-65.063	53.739	-65.846	-8191	255	
18403.207	1	1	0	0	0.15033	0.12083	0.278	0.14206	0.10178	0.28127	0.10065	0.23644	0.10749	0.030488	0.21726	0.20844	0.079235	0.076531	0.18631	0.012387	-4.0896	-4.8979	-4.075	-4.8187	-4.5646	-4.2812	-4.9313	-4.4375	-4.25	-4.8042	-4.4396	-4.5375	-4.6813	-4.1271	-4.7354	-4.7083	174.836	21.168	236.211	-35.381	-20.476	177.933	221.317	218.345	2.727	244.891	123.109	219.709	139.505	166.877	44.934	85.232	0.00049466	0.00057519	0.00014068	1347.2	2.7689e-06	4.9095e-06	1346.2	368.08	3.799e-06	3.7658e-06	420.08	139.93	121.59	41.794	5.0749e-06	51.493	0.00054413	0.00051555	0.0001547	1364.3	5.6206e-06	5.6902e-06	1364.1	373.14	6.352e-06	5.5026e-06	426.23	142.9	124.16	42.865	6.0511e-06	52.968	99.307	-11.481	9.877	-78.538	57.766	75.090	-78.759	-74.173	16.072	64.682	-74.456	-70.522	-69.906	-65.174	37.512	-65.922	-8191	255	
18403.305	1	1	0	0	0.15199	0.11066	0.24518	0.10077	0.076384	0.17612	0.22707	0.10552	0.036251	0.166	0.085787	0.24688	0.28946	0.022391	0.10168	0.27564	-3.8271	-4.8313	-4.1604	-4.7875	-4.6583	-4.1062	-5.0687	-4.5083	-4.3104	-4.7562	-4.45	-4.5563	-4.9125	-4.2312	-4.5708	-4.6542	70.456	235.094	51.286	238.427	115.690	108.935	204.749	200.415	254.536	-23.818	134.040	-90.902	-39.322	124.659	240.850	235.344	0.00040128	0.00050575	0.00014193	1348.6	4.5846e-06	4.9144e-06	1341.2	365	2.9365e-06	5.1834e-06	419.14	139.42	121.09	41.808	3.3387e-06	51.744	0.00055968	0.00048993	0.00015447	1364.3	6.0519e-06	5.9034e-06	1362.1	372.65	5.9688e-06	4.8084e-06	425.62	142.74	123.92	42.885	5.8558e-06	53.09	101.651	-6.763	0.468	-78.774	32.244	60.312	-78.700	-74.063	0.490	52.831	-74.544	-70.542	-69.800	-64.988	55.266	-65.685	-8191	255	
18403.400	1	1	0	0	0.19004	0.15456	0.13628	0.29392	0.20043	0.10847	0.34862	0.38014	0.1353	0.035637	0.12292	0.105	0.11186	0.18253	0.099816	0.13419	-3.9854	-4.775	-4.2417	-4.5062	-4.7146	-4.2146	-4.7896	-4.725	-3.9708	-4.8	-4.5687	-4.5708	-4.8146	-4.2562	-4.5813	-4.4896	35.646	230.632	-25.181	239.585	42.401	125.692	233.058	196.298	-83.372	-26.626	231.377	243.537	-52.078	203.430	195.928	176.301	0.00047976	0.00056823	0.00011573	1343.7	4.0898e-06	4.5521e-06	1344	366.44	5.2412e-06	5.1982e-06	418.62	139	120.96	41.54	3.5218e-06	51.615	0.00056054	0.00051704	0.00015676	1360.6	5.6597e-06	6.0481e-06	1363.1	371.97	6.3754e-06	5.9144e-06	425.27	142.62	124.03	42.773	5.6545e-06	52.944	107.658	-11.091	-3.295	-78.576	30.825	60.952	-78.697	-74.054	-0.455	62.504	-74.699	-70.504	-69.783	-65.260	43.547	-65.937	-8191	255	
#DATA ENDS
