BOXY.EXE: ISS Imagent and Oximeter Data Acquisition Program Version 0.80
Ascii Record File

#ACQ INFORMATION
2  Detector Channels 
16  External MUX Channels 
1  Auxiliary Channels 
5000  Waveform (CCF) Frequency (Hz)
1  Waveforms Skipped 
30  Waveforms Averaged 
1  Cycles Averaged 
16  Acquisitions per Waveform 
10.0806  Updata Rate (Hz) 

#FILE INFORMATION
TRUE -- External MUX Channel results are PARSED.
FALSE -- AC DC and Phase are NOT grouped.
TRUE -- Companion Program Settings File CREATED.
FALSE -- AC data not excluded
FALSE -- DC data not excluded
FALSE -- Phase data not excluded
FALSE -- Auxillary Chn. data not excluded
Tab delimiters

#CALIBRATION STATE
TRUE -- Waveform Calibration Values APPLIED.


#AUX CALIBRATION VALUES
Val Type	aux-1	

Term	1.0000e+00	
Factor	0.0000e+00	


#WF CALIBRATION VALUES
A = Detector Channel
Val Type	A-AC1	A-AC2	A-AC3	A-AC4	A-AC5	A-AC6	A-AC7	A-AC8	A-AC9	A-AC10	A-AC11	A-AC12	A-AC13	A-AC14	A-AC15	A-AC16	A-DC1	A-DC2	A-DC3	A-DC4	A-DC5	A-DC6	A-DC7	A-DC8	A-DC9	A-DC10	A-DC11	A-DC12	A-DC13	A-DC14	A-DC15	A-DC16	A-Ph1	A-Ph2	A-Ph3	A-Ph4	A-Ph5	A-Ph6	A-Ph7	A-Ph8	A-Ph9	A-Ph10	A-Ph11	A-Ph12	A-Ph13	A-Ph14	A-Ph15	A-Ph16	

Term	0.00000e+00	0.00000e+00	0.00000e+00	0.00000e+00	0.00000e+00	0.00000e+00	0.00000e+00	0.00000e+00	0.00000e+00	0.00000e+00	0.00000e+00	0.00000e+00	0.00000e+00	0.00000e+00	0.00000e+00	0.00000e+00	0.00000e+00	0.00000e+00	0.00000e+00	0.00000e+00	0.00000e+00	0.00000e+00	0.00000e+00	0.00000e+00	0.00000e+00	0.00000e+00	0.00000e+00	0.00000e+00	0.00000e+00	0.00000e+00	0.00000e+00	0.00000e+00	0.00000e+00	0.00000e+00	0.00000e+00	0.00000e+00	0.00000e+00	0.00000e+00	0.00000e+00	0.00000e+00	0.00000e+00	0.00000e+00	0.00000e+00	0.00000e+00	0.00000e+00	0.00000e+00	0.00000e+00	0.00000e+00	
Factor	1.00000e+00	1.00000e+00	1.00000e+00	1.00000e+00	1.00000e+00	1.00000e+00	1.00000e+00	1.00000e+00	1.00000e+00	1.00000e+00	1.00000e+00	1.00000e+00	1.00000e+00	1.00000e+00	1.00000e+00	1.00000e+00	1.00000e+00	1.00000e+00	1.00000e+00	1.00000e+00	1.00000e+00	1.00000e+00	1.00000e+00	1.00000e+00	1.00000e+00	1.00000e+00	1.00000e+00	1.00000e+00	1.00000e+00	1.00000e+00	1.00000e+00	1.00000e+00	X	X	X	X	X	X	X	X	X	X	X	X	X	X	X	X	

B = Detector Channel
Val Type	B-AC1	B-AC2	B-AC3	B-AC4	B-AC5	B-AC6	B-AC7	B-AC8	B-AC9	B-AC10	B-AC11	B-AC12	B-AC13	B-AC14	B-AC15	B-AC16	B-DC1	B-DC2	B-DC3	B-DC4	B-DC5	B-DC6	B-DC7	B-DC8	B-DC9	B-DC10	B-DC11	B-DC12	B-DC13	B-DC14	B-DC15	B-DC16	B-Ph1	B-Ph2	B-Ph3	B-Ph4	B-Ph5	B-Ph6	B-Ph7	B-Ph8	B-Ph9	B-Ph10	B-Ph11	B-Ph12	B-Ph13	B-Ph14	B-Ph15	B-Ph16	

Term	0.00000e+00	0.00000e+00	0.00000e+00	0.00000e+00	0.00000e+00	0.00000e+00	0.00000e+00	0.00000e+00	0.00000e+00	0.00000e+00	0.00000e+00	0.00000e+00	0.00000e+00	0.00000e+00	0.00000e+00	0.00000e+00	0.00000e+00	0.00000e+00	0.00000e+00	0.00000e+00	0.00000e+00	0.00000e+00	0.00000e+00	0.00000e+00	0.00000e+00	0.00000e+00	0.00000e+00	0.00000e+00	0.00000e+00	0.00000e+00	0.00000e+00	0.00000e+00	-1.84242e+02	-1.31288e+02	-1.21626e+02	-1.81577e+02	-7.85704e+01	-6.40695e+01	-1.57418e+02	-1.62015e+02	-9.27530e+01	-5.43537e+01	-1.71140e+02	-1.72811e+02	-1.83937e+02	-1.76769e+02	-8.70099e+01	-1.49549e+02	
Factor	3.59974e-05	1.57676e-04	5.33321e-05	1.56162e-01	1.60835e-06	2.14125e-06	1.73087e-01	5.61743e-02	1.99634e-06	1.80400e-06	9.22686e-02	3.72187e-02	3.89265e-02	9.91070e-03	1.84539e-06	1.43689e-02	3.91198e-06	4.30745e-06	1.20086e-06	7.79773e-02	4.62936e-08	4.73652e-08	8.15129e-02	2.80165e-02	4.65171e-08	4.73618e-08	4.47915e-02	1.80050e-02	1.94850e-02	4.98058e-03	4.68586e-08	6.99640e-03	X	X	X	X	X	X	X	X	X	X	X	X	X	X	X	X	



#DISTANCE SETTINGS
A = Detector Channel
A-1	A-2	A-3	A-4	A-5	A-6	A-7	A-8	A-9	A-10	A-11	A-12	A-13	A-14	A-15	A-16	

2.5000e+00	3.0000e+00	2.5000e+00	3.0000e+00	2.0000e+00	3.0000e+00	1.5000e+00	3.0000e+00	3.0000e+00	3.0000e+00	3.0000e+00	3.0000e+00	3.0000e+00	3.0000e+00	1.5000e+00	3.0000e+00	

B = Detector Channel
B-1	B-2	B-3	B-4	B-5	B-6	B-7	B-8	B-9	B-10	B-11	B-12	B-13	B-14	B-15	B-16	

1.0000e+01	1.0000e+01	1.0000e+01	1.4400e+00	1.0000e+01	1.0000e+01	1.5100e+00	1.9400e+00	1.0000e+01	1.0000e+01	1.9900e+00	2.4900e+00	2.4100e+00	2.9000e+00	1.0000e+01	2.9800e+00	




#DATA BEGINS
time	group	step	mark	flag	A-AC1	A-AC2	A-AC3	A-AC4	A-AC5	A-AC6	A-AC7	A-AC8	A-AC9	A-AC10	A-AC11	A-AC12	A-AC13	A-AC14	A-AC15	A-AC16	A-DC1	A-DC2	A-DC3	A-DC4	A-DC5	A-DC6	A-DC7	A-DC8	A-DC9	A-DC10	A-DC11	A-DC12	A-DC13	A-DC14	A-DC15	A-DC16	A-Ph1	A-Ph2	A-Ph3	A-Ph4	A-Ph5	A-Ph6	A-Ph7	A-Ph8	A-Ph9	A-Ph10	A-Ph11	A-Ph12	A-Ph13	A-Ph14	A-Ph15	A-Ph16	B-AC1	B-AC2	B-AC3	B-AC4	B-AC5	B-AC6	B-AC7	B-AC8	B-AC9	B-AC10	B-AC11	B-AC12	B-AC13	B-AC14	B-AC15	B-AC16	B-DC1	B-DC2	B-DC3	B-DC4	B-DC5	B-DC6	B-DC7	B-DC8	B-DC9	B-DC10	B-DC11	B-DC12	B-DC13	B-DC14	B-DC15	B-DC16	B-Ph1	B-Ph2	B-Ph3	B-Ph4	B-Ph5	B-Ph6	B-Ph7	B-Ph8	B-Ph9	B-Ph10	B-Ph11	B-Ph12	B-Ph13	B-Ph14	B-Ph15	B-Ph16	aux-1	digaux	

11303.684	1	1	0	256	0.048514	0.11658	0.1504	0.067312	0.16919	0.21289	0.092349	0.26049	0.18311	0.090027	0.078818	0.17725	0.16426	0.037944	0.19935	0.10436	-3.6937	-4.8708	-4.3375	-4.4792	-4.7125	-4.1729	-4.7771	-4.6937	-4.1562	-4.85	-4.4479	-4.5375	-4.8354	-4.2271	-4.5437	-4.6188	417.844	231.311	433.860	358.478	342.695	132.291	377.349	424.888	199.874	349.328	114.727	330.858	107.410	165.611	119.437	128.505	0.00058023	0.00039314	0.0001342	1272.1	4.2075e-06	2.8685e-06	1337.5	269.48	7.094e-06	2.6621e-06	332.36	92.278	73.74	20.901	3.9909e-06	29.313	0.00024886	0.00023326	6.4031e-05	1263	2.6348e-06	2.4924e-06	1330.6	268.92	2.5479e-06	2.527e-06	331.27	91.942	73.093	21.311	2.5501e-06	29.814	120.860	156.794	159.389	93.297	216.698	186.088	93.163	100.225	215.480	168.987	100.189	106.580	106.457	113.281	236.090	112.719	-8191	255	
11303.782	1	1	0	0	0.18209	0.18453	0.02383	0.35175	0.17903	0.1764	0.21041	0.31317	0.23147	0.14476	0.2325	0.16262	0.22817	0.10225	0.13718	0.047864	-4.0021	-4.7375	-4.3438	-4.3521	-4.7125	-4.1896	-4.7146	-4.8333	-4.1021	-4.6562	-4.5417	-4.2729	-4.7646	-4.3271	-4.4375	-4.8708	193.062	240.554	320.418	409.154	122.832	322.152	349.798	382.166	113.063	295.255	313.613	98.597	366.833	238.922	304.846	397.647	0.0005888	0.00037825	4.6161e-05	1260	4.5791e-06	3.1514e-06	1339.5	268	4.636e-06	2.766e-06	330.68	92.021	73.181	20.98	2.6748e-06	29.109	0.00025088	0.00022857	6.3536e-05	1248.2	2.5453e-06	2.4223e-06	1325.1	267.84	2.5011e-06	2.453e-06	330.65	91.823	73.066	21.342	2.549e-06	29.927	119.357	176.285	187.789	93.464	218.878	269.544	93.287	100.452	207.639	222.431	100.160	106.271	106.569	113.618	198.222	113.081	-8191	255	
11303.901	1	1	0	0	0.36004	0.020828	0.27281	0.19913	0.16433	0.13169	0.06782	0.14497	0.1392	0.29827	0.27935	0.083169	0.012352	0.070746	0.24202	0.015858	-3.7417	-4.5813	-4.5188	-4.4146	-4.8667	-4.3708	-4.5667	-4.8521	-4.2167	-4.6312	-4.4229	-4.325	-4.8	-4.2458	-4.3833	-4.7646	401.308	400.103	314.496	100.195	267.498	359.356	342.762	396.156	210.640	198.653	424.766	356.406	178.934	121.075	179.236	171.158	0.0005082	0.00027171	0.00018667	1260	4.5622e-06	2.9681e-06	1342.5	269.15	4.333e-06	5.2342e-06	330.91	91.875	73.136	21.028	5.0409e-06	29.626	0.00025504	0.00023166	6.4621e-05	1254.8	2.7153e-06	2.6634e-06	1331.8	268.93	2.8677e-06	2.7111e-06	332.4	92.452	73.425	21.47	2.7923e-06	30.085	117.831	141.159	164.001	93.290	199.757	241.905	93.258	100.225	165.886	242.865	99.886	106.552	106.812	113.531	195.614	112.700	-8191	255	
11303.997	1	1	0	0	0.020084	0.11025	0.21135	0.17937	0.1363	0.051958	0.12438	0.29664	0.093471	0.14115	0.15018	0.23477	0.15931	0.14113	0.21191	0.10836	-3.9417	-4.6333	-4.6375	-4.1583	-4.7688	-4.1875	-4.5771	-4.8792	-4.225	-4.5813	-4.8042	-4.225	-4.7396	-4.5042	-4.2604	-4.8979	215.858	168.793	184.492	392.503	143.451	335.236	381.527	417.846	309.498	342.647	381.437	87.657	261.058	359.163	328.200	415.825	0.00051383	0.00031641	0.000135	1271.9	3.8527e-06	8.8934e-06	1348.8	272.05	8.0385e-06	1.7355e-06	332.85	92.915	73.866	21.254	3.9904e-06	29.653	0.00027444	0.00025638	7.1531e-05	1260.9	2.8407e-06	2.7381e-06	1336.1	270.22	2.7292e-06	2.6402e-06	332.86	92.583	73.641	21.499	2.6358e-06	30.074	115.578	198.704	190.826	93.478	235.550	237.714	93.209	100.312	204.367	183.839	100.377	106.371	106.915	113.219	243.180	113.285	-8191	255	
11304.093	1	1	0	0	0.10241	0.18135	0.14831	0.042256	0.046554	0.14746	0.26379	0.34806	0.26447	0.061716	0.19024	0.11692	0.17595	0.21231	0.052348	0.12733	-4.1229	-4.6083	-4.5062	-4.3438	-4.6021	-4.55	-4.3438	-4.9521	-4.2833	-4.4812	-4.7979	-4.2625	-4.7542	-4.5042	-4.3229	-4.9146	103.289	344.581	302.523	101.355	118.818	357.586	397.655	391.616	156.435	87.671	89.126	259.851	309.166	432.809	253.036	104.957	0.00055441	0.000446	6.2316e-05	1270.9	3.2342e-06	4.9756e-06	1345.6	271.11	5.0561e-06	2.8707e-06	330.54	92.407	73.331	21.017	5.6355e-06	29.263	0.00026364	0.000241	6.6498e-05	1260.3	2.7259e-06	2.5899e-06	1332.6	269.3	2.6428e-06	2.6272e-06	331.09	92.289	73.474	21.429	2.6242e-06	29.889	117.952	208.474	207.532	93.568	218.257	222.831	93.317	100.282	235.324	241.065	100.022	106.363	106.538	113.603	203.541	113.061	-8191	255	
11304.189	1	1	0	0	0.13033	0.32892	0.065746	0.16426	0.21963	0.069985	0.24373	0.084733	0.22023	0.18083	0.15328	0.18735	0.1928	0.065835	0.24054	0.06201	-3.9292	-4.3771	-4.7333	-4.3292	-4.6458	-4.7375	-4.3771	-4.775	-4.2521	-4.2854	-4.7333	-4.1667	-4.6167	-4.5354	-4.1208	-4.7125	118.141	203.396	219.188	386.723	187.972	219.709	384.738	369.934	397.140	170.914	414.304	325.419	147.211	287.078	152.172	83.029	0.00061715	0.00015822	8.4751e-05	1267.1	5.1901e-06	5.4368e-06	1341.1	269.4	6.0546e-06	3.154e-06	330.55	92.441	73.177	20.948	2.1014e-06	29.337	0.0002604	0.00023966	6.5204e-05	1253.5	2.6482e-06	2.5277e-06	1326.8	267.87	2.5515e-06	2.4657e-06	330.38	92.099	73.2	21.333	2.5019e-06	29.887	117.982	177.925	159.952	93.702	235.796	219.111	93.485	100.246	187.165	204.600	100.630	106.769	107.023	113.505	190.669	113.121	-8191	255	
11304.285	1	1	0	0	0.15018	0.11207	0.11953	0.20949	0.090572	0.12923	0.11495	0.17254	0.17633	0.075373	0.044375	0.044119	0.062699	0.35495	0.095278	0.13136	-4.0208	-4.3021	-4.7146	-4.3854	-4.4437	-4.7063	-4.3146	-4.8208	-4.5146	-4.3208	-4.9771	-4.2771	-4.4604	-4.6375	-4.2083	-4.7833	228.662	308.231	412.983	418.425	297.961	389.152	380.185	263.634	187.591	391.963	243.833	426.808	435.223	383.620	121.350	113.726	0.00052334	0.00023303	7.5871e-05	1264.4	3.8858e-06	6.2204e-06	1341.2	268.71	6.1926e-06	4.9777e-06	330.93	92.098	73.556	20.91	4.1743e-06	29.427	0.00024764	0.00022634	6.4198e-05	1250.8	2.6338e-06	2.5067e-06	1325.2	267.65	2.6204e-06	2.5404e-06	330.48	91.787	73.222	21.293	2.5979e-06	29.896	118.124	135.980	155.917	93.488	238.625	244.688	93.604	100.282	226.637	241.162	100.351	106.719	106.895	113.351	238.978	112.969	-8191	255	
11304.381	1	1	0	0	0.15595	0.15315	0.12806	0.19553	0.18811	0.1742	0.25967	0.21995	0.15549	0.037934	0.025339	0.11595	0.091581	0.24349	0.15937	0.13721	-4.0417	-4.3542	-4.8313	-4.425	-4.4604	-4.7771	-4.3021	-4.8042	-4.3521	-4.2188	-4.8667	-4.2625	-4.3125	-4.8479	-4.1687	-4.6188	398.150	360.760	318.230	438.286	122.235	219.374	369.847	361.386	406.058	140.440	407.042	367.731	286.164	376.128	123.222	267.720	0.00053308	0.00040017	4.8761e-05	1261.5	4.9134e-06	3.9272e-06	1333.3	268.17	6.9534e-06	1.2611e-06	328.01	92.298	73.061	20.967	5.2589e-06	29.309	0.00024989	0.0002304	6.2612e-05	1249.8	2.6087e-06	2.4455e-06	1323.1	268	2.5528e-06	2.4954e-06	329.95	91.94	73.133	21.309	2.64e-06	29.854	113.423	131.303	109.864	93.387	219.633	281.890	93.316	100.464	227.627	156.671	100.148	106.464	106.924	113.394	218.342	112.964	-8191	255	
11304.477	1	1	0	0	0.072368	0.19429	0.084861	0.18154	0.1792	0.12209	0.10505	0.12232	0.04405	0.18186	0.0088774	0.057825	0.17326	0.24076	0.089474	0.080474	-4.1771	-4.1687	-4.8063	-4.4542	-4.3479	-4.8333	-4.3354	-4.8187	-4.4979	-4.1333	-4.7937	-4.4625	-4.3375	-4.7875	-4.1792	-4.6687	278.815	273.757	320.122	369.498	293.001	425.816	223.674	335.788	100.163	425.435	332.175	416.088	180.243	427.396	187.774	385.661	0.00056771	0.00031813	5.0246e-05	1258.4	3.9246e-06	4.5503e-06	1335.2	268.82	5.0543e-06	1.2096e-06	330.71	91.955	73.423	20.968	3.4954e-06	29.389	0.00026297	0.00024383	6.8634e-05	1251.3	2.8276e-06	2.6764e-06	1324.8	268.73	2.8755e-06	2.8978e-06	331.56	92.143	73.511	21.376	2.9535e-06	30.015	113.648	176.328	155.924	93.388	201.746	239.615	93.324	100.309	196.454	230.304	100.391	106.756	106.497	113.490	206.260	112.863	-8191	255	
11304.598	1	1	0	0	0.26445	0.08584	0.11542	0.18342	0.10784	0.034317	0.28187	0.076029	0.22742	0.27995	0.097272	0.24855	0.09207	0.19362	0.13004	0.085425	-4.1083	-4.0208	-4.6687	-4.6417	-4.1312	-4.7458	-4.475	-4.5708	-4.5458	-4.0604	-4.8271	-4.5	-4.325	-4.8521	-4.3104	-4.5792	293.584	107.155	211.378	327.561	314.873	428.633	409.415	409.757	346.377	371.208	176.009	355.958	194.349	403.501	195.207	400.696	0.00054047	0.00027438	0.00013504	1262.4	5.3654e-06	2.6665e-06	1334.2	269.51	5.3674e-06	2.3496e-06	331.94	92.19	73.373	20.864	2.2463e-06	29.293	0.00028861	0.0002726	7.5392e-05	1255.8	3.0306e-06	2.9439e-06	1327	269.21	3.0071e-06	2.9719e-06	332.58	92.36	73.486	21.367	2.958e-06	30	114.487	207.543	159.627	93.332	196.061	259.743	93.482	100.344	198.568	202.578	100.361	106.541	106.528	113.499	236.054	113.257	-8191	255	
11304.693	1	1	0	0	0.095304	0.12819	0.19845	0.063057	0.12374	0.063229	0.23702	0.34188	0.093818	0.15469	0.10612	0.25174	0.22851	0.099543	0.011939	0.055364	-4.5333	-4.2667	-4.6562	-4.625	-4.2417	-4.9458	-4.6167	-4.5458	-4.7979	-4.3042	-4.8208	-4.6646	-4.1833	-4.6292	-4.4458	-4.5646	170.738	138.644	217.953	335.674	422.552	315.005	396.788	319.576	407.564	242.328	294.667	131.350	230.895	173.199	101.669	393.668	0.00055434	0.00027076	0.00013887	1269.9	4.5515e-06	3.1188e-06	1338.9	270.15	7.2331e-06	4.0858e-06	331.82	92.116	73.665	20.965	4.4963e-06	29.127	0.00028432	0.00026931	7.5276e-05	1257.7	3.0165e-06	2.9712e-06	1328.6	269.4	2.9243e-06	2.8736e-06	331.7	92.017	73.192	21.328	2.7918e-06	29.785	112.977	138.097	181.768	93.367	231.606	275.601	93.209	100.237	204.914	273.319	100.339	106.774	106.806	113.358	260.934	112.999	-8191	255	
11304.764	1	1	0	0	0.20343	0.064791	0.082536	0.40444	0.17691	0.22992	0.091268	0.11145	0.11084	0.083573	0.086188	0.086071	0.090644	0.25921	0.36305	0.1274	-4.3125	-4.2771	-4.5437	-4.7562	-4.1146	-4.6979	-4.5292	-4.3792	-4.8021	-4.2979	-4.5729	-4.7688	-4.05	-4.8042	-4.4229	-4.275	212.008	88.989	104.375	370.782	402.818	364.768	291.613	200.231	178.833	100.789	409.783	149.008	273.732	111.070	206.288	143.696	0.0005545	0.0004864	8.5094e-05	1258.4	2.9368e-06	6.8441e-06	1328.2	268.02	2.8769e-06	2.3349e-06	329.7	91.967	72.171	20.79	4.4925e-06	29.439	0.00027311	0.00025396	7.0078e-05	1249.7	2.7857e-06	2.7496e-06	1321.9	267.48	2.7365e-06	2.7537e-06	330.01	91.646	72.718	21.19	2.7121e-06	29.773	114.212	183.793	152.876	93.491	227.873	260.185	93.480	100.296	223.637	232.493	99.796	106.466	106.989	113.541	239.562	112.950	-8191	255	
11304.862	1	1	0	0	0.096739	0.019166	0.16496	0.36416	0.088267	0.19936	0.21401	0.086307	0.36479	0.24721	0.17645	0.027157	0.1614	0.051246	0.25193	0.070536	-4.5875	-4.3396	-4.525	-4.8708	-4.2104	-4.6562	-4.7354	-4.4688	-4.8375	-4.3604	-4.4375	-4.7229	-4.2396	-4.6333	-4.4646	-4.3438	223.798	168.750	181.123	376.598	199.437	264.005	357.586	128.434	436.440	264.507	299.554	354.637	402.590	153.234	392.828	107.874	0.00058185	0.00039231	5.8917e-05	1260.8	5.1909e-06	4.3278e-06	1335.7	268.14	3.821e-06	2.4376e-06	330.2	91.275	72.752	20.72	2.0606e-06	29.234	0.00026996	0.00024412	6.8231e-05	1248.8	2.7841e-06	2.6989e-06	1323.4	267.56	2.6447e-06	2.6447e-06	330.27	91.549	72.902	21.199	2.6609e-06	29.728	117.217	152.593	210.405	93.512	199.768	252.326	93.403	100.133	210.228	277.880	99.962	106.425	106.954	113.640	249.587	112.794	-8191	255	
11304.981	1	1	0	0	0.14571	0.12443	0.018841	0.25544	0.21325	0.094206	0.054191	0.10282	0.25647	0.082877	0.25681	0.063724	0.14474	0.16978	0.10039	0.10311	-4.575	-4.3625	-4.3667	-4.8313	-4.2104	-4.6583	-4.8958	-4.2562	-4.7583	-4.4167	-4.4333	-4.7917	-4.3833	-4.6917	-4.6062	-4.2021	89.522	274.913	160.026	409.758	429.526	247.057	407.789	391.488	279.139	426.738	389.750	286.633	93.040	351.810	301.811	427.238	0.00059015	0.00014761	7.8947e-05	1251.6	4.1918e-06	3.5889e-06	1326.4	267.05	7.9038e-06	3.8619e-06	330.41	91.925	74.194	20.848	3.4961e-06	29.306	0.00026729	0.00024884	6.7971e-05	1247.9	2.8663e-06	2.8205e-06	1323	267.68	2.8761e-06	2.8268e-06	331.27	92.014	73.333	21.332	2.9103e-06	29.891	109.672	182.899	237.981	93.397	243.048	263.326	93.062	100.351	214.512	286.806	100.378	106.496	106.785	113.472	196.072	113.118	-8191	255	
11305.077	1	1	0	0	0.064023	0.13741	0.25563	0.1727	0.17198	0.14327	0.21307	0.2246	0.30525	0.015899	0.28625	0.19384	0.16089	0.25186	0.16075	0.058174	-4.4729	-4.3083	-4.325	-4.9417	-4.2229	-4.4604	-4.925	-4.2479	-4.7396	-4.4292	-4.3271	-4.8167	-4.225	-4.4771	-4.7042	-4.1125	98.536	293.149	352.733	416.658	260.734	231.043	400.635	385.324	247.315	326.128	437.164	414.498	438.858	424.850	415.353	105.573	0.00051598	0.00040271	9.8315e-05	1253.7	4.7886e-06	4.3018e-06	1344.1	269.38	6.0426e-06	4.2421e-06	331.07	91.751	73.656	20.942	4.7018e-06	29.494	0.00028442	0.00026241	7.2797e-05	1252.3	2.9405e-06	2.9225e-06	1328.5	268.57	2.9534e-06	2.8735e-06	331.35	92.182	73.6	21.389	2.7915e-06	29.955	113.500	187.795	143.885	93.159	232.867	227.937	93.412	100.243	216.229	235.076	100.249	106.415	106.720	113.211	266.401	112.763	-8191	255	
11305.173	1	1	0	0	0.21933	0.070923	0.06556	0.2336	0.19869	0.094271	0.44376	0.16347	0.15417	0.25447	0.28796	0.2059	0.22788	0.3093	0.15111	0.056139	-4.2333	-4.4729	-4.0708	-4.9542	-4.2833	-4.2854	-4.7	-4.15	-4.575	-4.4479	-4.1667	-4.8187	-4.3792	-4.3021	-4.8271	-4.0875	129.039	338.634	331.115	367.513	383.165	91.492	412.616	398.778	225.174	143.245	373.329	376.370	103.726	104.139	342.727	275.389	0.00048476	0.00039557	9.1863e-05	1265.1	5.6557e-06	1.2857e-06	1335.4	268.9	4.5365e-06	4.0115e-06	330.58	91.875	73.199	20.721	5.469e-06	29.248	0.00026653	0.00024823	6.8129e-05	1252.5	2.6757e-06	2.6255e-06	1325.6	267.9	2.5965e-06	2.5376e-06	330.05	91.74	72.873	21.157	2.4306e-06	29.742	114.893	196.210	215.926	93.404	198.843	260.231	93.377	100.289	174.498	263.849	99.964	106.640	106.956	113.299	234.727	113.109	-8191	255	
11305.269	1	1	0	0	0.095238	0.16674	0.092872	0.066782	0.13911	0.21051	0.3597	0.28195	0.11971	0.27229	0.10812	0.095132	0.16923	0.29385	0.034659	0.3362	-4.1687	-4.6104	-4.2875	-4.8667	-4.3375	-4.2521	-4.8375	-4.1792	-4.5188	-4.8375	-4.25	-4.6854	-4.2646	-4.3854	-4.8542	-4.4521	85.928	426.473	356.333	121.779	99.070	93.623	408.584	391.945	353.232	418.982	107.930	335.930	374.762	352.172	359.264	414.475	0.00056176	0.0002745	4.208e-05	1259.7	4.9019e-06	2.4003e-06	1331.9	267.91	3.0566e-06	4.5535e-06	329.15	91.716	72.711	20.755	3.9312e-06	28.993	0.0002439	0.00021945	6.0436e-05	1247.6	2.4867e-06	2.4302e-06	1318	266.49	2.462e-06	2.3321e-06	328.48	91.225	72.328	21.077	2.3292e-06	29.541	113.141	187.310	279.905	93.490	243.422	241.176	93.360	100.350	181.943	247.605	100.047	106.710	106.892	113.065	203.236	113.342	-8191	255	
11305.390	1	1	0	0	0.21578	0.24921	0.12521	0.31412	0.16589	0.14834	0.028512	0.20225	0.059393	0.13733	0.2635	0.16633	0.28657	0.27609	0.21734	0.16364	-4.2583	-4.6604	-4.05	-4.8104	-4.5104	-4.125	-4.7812	-4.325	-4.2	-4.75	-4.2333	-4.6271	-4.3771	-4.2167	-4.7125	-4.4354	238.183	387.890	422.963	361.193	387.233	278.708	393.538	413.082	145.033	408.712	377.514	324.103	421.597	155.618	149.777	217.962	0.00055645	0.00028342	0.00011969	1246.3	5.9623e-06	5.1695e-06	1320.1	263.49	6.7048e-06	4.4929e-06	326.47	90.442	71.699	20.567	3.1145e-06	28.926	0.00023595	0.0002046	5.608e-05	1235.5	2.2917e-06	2.1907e-06	1305.7	263.22	2.268e-06	2.2225e-06	325.24	90.47	71.722	20.905	2.3112e-06	29.362	112.578	182.749	198.298	93.456	220.788	265.140	93.376	100.531	228.595	238.514	100.011	106.652	106.688	113.959	219.994	113.374	-8191	255	
11305.462	1	1	0	0	0.095587	0.143	0.057453	0.24629	0.15493	0.011475	0.13332	0.074352	0.068881	0.216	0.16622	0.10418	0.27801	0.022717	0.19398	0.18875	-3.8729	-4.6458	-4.0771	-4.6375	-4.6396	-4.0604	-4.9479	-4.5938	-4.2458	-4.6542	-4.3792	-4.7271	-4.6021	-4.1521	-4.7479	-4.4458	351.267	392.603	110.432	421.747	245.654	250.469	329.948	209.688	269.409	120.453	143.811	122.699	362.494	117.533	427.196	87.936	0.00058726	0.00037324	9.9489e-05	1231.5	4.534e-06	6.5751e-06	1300.7	262.61	3.9265e-06	2.0215e-06	325.61	90.651	71.659	20.477	6.4433e-06	28.846	0.00023535	0.00020663	5.5312e-05	1226.8	2.3112e-06	2.2456e-06	1299.3	262.42	2.258e-06	2.1552e-06	324.39	90.436	71.583	20.829	2.1334e-06	29.248	114.568	142.717	148.479	93.450	186.518	202.698	93.242	100.500	196.463	261.885	100.261	106.623	107.288	113.533	261.122	113.334	-8191	255	
11305.582	1	1	0	0	0.14539	0.10174	0.17908	0.20425	0.15546	0.056825	0.23371	0.36396	0.056505	0.057822	0.2865	0.2269	0.16906	0.11381	0.20105	0.11101	-3.9708	-4.8083	-4.325	-4.5625	-4.6146	-4.1937	-4.7708	-4.6021	-4.2333	-4.8021	-4.3229	-4.5875	-4.8688	-4.1	-4.5521	-4.5021	362.160	304.152	438.267	436.437	252.697	192.613	377.841	344.393	362.944	265.273	410.885	414.632	434.206	330.449	234.788	92.414	0.00052664	0.00028528	9.5978e-05	1237.8	1.4889e-06	3.3222e-06	1308.5	262.16	5.2331e-06	4.2981e-06	324.78	90.499	71.294	20.312	2.4368e-06	28.833	0.00021213	0.0001853	5.1977e-05	1226.8	2.1054e-06	2.0493e-06	1298.8	261.78	2.224e-06	2.0756e-06	323.48	90.002	71.254	20.716	2.0819e-06	29.191	122.792	125.601	153.682	93.624	247.147	217.663	93.263	100.563	225.753	253.833	100.484	107.051	106.878	113.794	221.938	113.229	-8191	255	
11305.679	1	1	0	0	0.28737	0.048486	0.22049	0.17365	0.031907	0.17067	0.12099	0.095684	0.0030338	0.12645	0.15669	0.054077	0.12938	0.15866	0.1709	0.17256	-3.8042	-4.6667	-4.2854	-4.6188	-4.65	-4.1583	-4.8292	-4.8917	-4.3229	-4.8833	-4.1958	-4.4	-4.7729	-4.2021	-4.4271	-4.6479	342.799	275.556	333.907	365.730	148.400	267.892	405.502	339.205	226.496	110.125	285.282	141.473	364.226	293.010	182.687	412.078	0.000546	0.00028507	8.1724e-05	1229.5	3.9426e-06	2.4083e-06	1306.9	262.71	4.4088e-06	4.3018e-06	322.47	89.582	71.366	20.265	5.3883e-06	28.684	0.00020989	0.00018464	5.1014e-05	1224.4	2.0562e-06	1.9733e-06	1294.5	260.83	1.9541e-06	1.8479e-06	322.51	89.558	70.895	20.616	1.8903e-06	29.069	113.852	251.513	191.617	93.380	211.608	236.071	93.673	100.588	202.272	245.132	100.109	106.803	106.910	113.522	225.039	112.972	-8191	255	
11305.773	1	1	0	0	0.090775	0.28275	0.31902	0.39283	0.20003	0.075638	0.15099	0.18069	0.087353	0.26618	0.2078	0.12557	0.26822	0.071941	0.079493	0.12469	-3.8604	-4.8458	-4.4187	-4.5208	-4.7917	-4.275	-4.8229	-4.7063	-4.2271	-4.8313	-4.4083	-4.2562	-4.8125	-4.3542	-4.7104	-4.6562	179.777	344.577	365.065	429.780	223.577	117.225	93.201	377.839	83.494	436.489	328.148	266.899	109.250	175.827	380.043	399.011	0.00055083	0.0001365	0.00014184	1223.8	5.3573e-06	4.0425e-06	1295	260.27	6.8776e-06	2.8287e-06	320.97	88.702	70.683	20.097	4.5866e-06	28.689	0.00019562	0.00016088	4.6061e-05	1217.8	1.92e-06	1.8493e-06	1287.7	259.53	1.9307e-06	1.8339e-06	321.08	89.29	70.615	20.55	1.8938e-06	29.055	116.178	174.609	185.314	93.584	215.057	234.378	93.475	100.479	221.064	289.607	100.176	106.538	107.091	113.900	227.288	113.030	-8191	255	
11305.869	1	1	0	0	0.095566	0.15548	0.13782	0.25868	0.039461	0.023841	0.25494	0.038702	0.14401	0.1487	0.044182	0.067877	0.24291	0.11019	0.072115	0.12807	-3.8375	-4.6208	-4.4333	-4.3625	-4.8063	-4.375	-4.5687	-4.8625	-4.3125	-4.8313	-4.5938	-4.2854	-4.7438	-4.2896	-4.4667	-4.675	119.638	428.854	164.225	372.770	119.560	353.187	353.397	189.177	430.840	266.832	185.780	368.996	409.139	259.303	212.593	333.546	0.00055704	0.00014389	0.00011573	1226.2	4.1161e-06	3.4505e-06	1295.2	260.94	7.2654e-06	2.0766e-06	318.41	89.598	70.889	20.361	5.3485e-06	28.78	0.00019521	0.0001682	4.7612e-05	1216.9	1.9026e-06	1.8181e-06	1287.5	259.27	1.8942e-06	1.8118e-06	320.06	89.201	70.554	20.617	1.8236e-06	29.072	111.677	215.691	163.768	93.547	246.347	190.848	93.476	100.185	203.531	184.990	100.146	106.842	107.172	113.443	214.376	113.101	-8191	255	
11305.990	1	1	0	0	0.083774	0.10831	0.094765	0.18644	0.21037	0.053952	0.095547	0.10761	0.16687	0.19032	0.079809	0.24169	0.047556	0.15313	0.064978	0.12874	-3.6667	-4.5188	-4.4479	-4.4292	-4.8187	-4.275	-4.4688	-4.9479	-4.325	-4.625	-4.6562	-4.1042	-4.825	-4.4521	-4.1792	-4.7917	245.381	349.086	407.737	414.559	291.390	351.164	350.075	118.788	296.634	138.530	424.297	104.368	244.864	153.869	198.731	307.795	0.00055163	0.00028322	0.00010591	1225.2	4.4654e-06	3.2766e-06	1299.1	261.13	3.4179e-06	4.2929e-06	318.42	89.288	71.573	20.277	4.1565e-06	28.87	0.00019312	0.00016777	4.505e-05	1214.8	1.9465e-06	1.8229e-06	1288.5	259.77	1.8685e-06	1.8454e-06	320.53	89.227	70.941	20.583	1.8828e-06	29.1	118.637	185.714	155.146	93.345	275.926	247.260	93.531	100.500	180.766	233.250	99.985	106.731	106.926	113.830	216.269	113.474	-8191	255	
11306.061	1	1	0	0	0.13684	0.15226	0.083524	0.089876	0.11001	0.25436	0.22329	0.046446	0.10838	0.1721	0.080872	0.09087	0.16696	0.10476	0.10163	0.11988	-3.9667	-4.6667	-4.5875	-4.2125	-4.7542	-4.425	-4.3875	-4.8854	-4.4229	-4.6042	-4.7396	-4.2646	-4.7063	-4.3792	-4.275	-4.8125	309.445	435.558	423.603	441.514	86.493	127.199	315.323	117.098	272.243	384.088	338.695	429.657	302.852	354.616	265.348	298.274	0.00050882	0.00027419	9.1988e-05	1227.2	2.2955e-06	5.8073e-06	1297.5	261.02	5.5252e-06	2.081e-06	321.56	90.038	71.204	20.245	1.9508e-06	28.599	0.00019621	0.00016417	4.4589e-05	1215	1.8877e-06	1.7742e-06	1288	259.3	1.8504e-06	1.7635e-06	320.64	89.516	70.625	20.607	1.8004e-06	29.073	113.968	214.364	154.190	93.536	226.112	218.748	93.369	100.630	194.690	196.991	100.254	106.645	106.793	113.623	186.535	113.372	-8191	255	
11306.158	1	1	0	0	0.19574	0.2283	0.16076	0.18305	0.18186	0.27141	0.22392	0.24888	0.071676	0.11201	0.14989	0.10839	0.046784	0.10905	0.0014719	0.20433	-3.8646	-4.3583	-4.6271	-4.5146	-4.65	-4.4708	-4.45	-4.9563	-4.2917	-4.3354	-4.8604	-4.3688	-4.6167	-4.7021	-4.2729	-4.8354	240.467	239.377	285.016	392.556	139.268	229.504	408.215	397.792	124.475	158.175	351.408	245.871	321.137	346.302	180.000	427.916	0.00054177	0.00026846	7.1527e-05	1228.3	2.2751e-06	5.2849e-06	1306.2	261.38	4.2042e-06	3.267e-06	323.05	89.658	71.504	20.352	3.7214e-06	28.619	0.00019604	0.00016576	4.4807e-05	1217.6	1.8956e-06	1.7912e-06	1288.5	259.86	1.8503e-06	1.7911e-06	321.46	89.464	71.033	20.716	1.8583e-06	29.086	111.751	198.529	156.325	93.482	251.478	213.048	93.299	100.534	217.080	272.313	100.297	106.898	106.874	113.790	195.704	113.215	-8191	255	
11306.254	1	1	0	0	0.069532	0.14074	0.30215	0.33045	0.14056	0.080209	0.27111	0.18628	0.27592	0.032504	0.22531	0.28206	0.067081	0.091436	0.29492	0.019912	-3.9562	-4.2958	-4.9625	-4.275	-4.5458	-4.6583	-4.2729	-4.7063	-4.4437	-4.2604	-5.0542	-4.3875	-4.3688	-4.725	-4.1417	-4.725	386.344	425.533	344.511	405.574	273.609	268.505	361.884	362.883	418.661	296.969	419.620	430.039	381.070	172.532	377.069	238.583	0.00047474	0.00036556	7.0021e-05	1235.2	3.0485e-06	1.8173e-06	1304.2	262	5.4417e-06	2.928e-06	321.89	89.858	71.783	20.404	6.9284e-06	28.528	0.00019082	0.00016489	4.7224e-05	1220.4	1.9539e-06	1.8511e-06	1292.9	260.8	1.953e-06	1.8661e-06	322.36	89.82	71.123	20.764	1.9719e-06	29.135	118.154	220.744	183.303	93.638	244.747	285.751	93.484	100.553	209.174	259.620	100.461	106.416	106.967	113.811	207.019	113.011	-8191	255	
11306.374	1	1	0	0	0.22799	0.2092	0.25774	0.25738	0.17195	0.15678	0.10507	0.27257	0.17394	0.26728	0.12814	0.079607	0.12018	0.058991	0.058459	0.24576	-4.0083	-4.4521	-4.7521	-4.4875	-4.25	-4.6167	-4.2896	-4.7229	-4.4396	-4.275	-4.9104	-4.3229	-4.525	-4.7521	-4.1979	-4.7167	223.081	399.218	117.592	365.067	131.135	348.088	428.021	373.370	368.021	412.248	319.645	179.945	371.967	187.527	222.875	301.182	0.00050606	0.00019436	0.00010828	1233.8	3.9851e-06	5.7232e-06	1309.5	262.9	3.9349e-06	2.7365e-06	322.3	89.808	71.463	20.516	4.672e-06	28.811	0.00019971	0.00016952	4.6306e-05	1221.3	1.984e-06	1.8756e-06	1295.3	261.02	1.9233e-06	1.8493e-06	322.25	89.599	70.9	20.768	1.8893e-06	29.146	117.848	206.641	164.543	93.518	252.982	208.803	93.392	100.488	220.397	263.754	100.427	106.701	107.350	113.780	206.891	113.282	-8191	255	
11306.470	1	1	0	0	0.16364	0.22375	0.15531	0.26957	0.16902	0.21005	0.33236	0.23802	0.11238	0.17544	0.2951	0.069559	0.050324	0.092874	0.0541	0.25277	-4.1708	-4.1792	-4.9021	-4.5208	-4.2771	-4.7542	-4.2396	-4.7188	-4.6042	-4.3396	-4.8438	-4.45	-4.2854	-4.9104	-4.2458	-4.6458	114.998	143.139	309.919	419.343	295.641	295.985	412.507	369.195	295.131	366.540	374.208	368.857	320.536	244.693	400.379	417.540	0.00054038	0.00017277	7.6933e-05	1237	6.9695e-06	5.2271e-06	1309.1	263.33	6.56e-06	1.6255e-06	323.9	89.862	71.455	20.52	2.0357e-06	28.95	0.00019293	0.00016589	4.6583e-05	1223	1.948e-06	1.796e-06	1295.7	261.08	1.9532e-06	1.8153e-06	322.73	89.742	71.19	20.784	1.8177e-06	29.262	121.886	130.254	188.293	93.618	207.896	249.456	93.531	100.458	200.552	247.014	100.105	106.780	106.999	113.671	224.348	113.384	-8191	255	
11306.567	1	1	0	0	0.085422	0.062363	0.2574	0.41085	0.087187	0.15554	0.026276	0.085973	0.11402	0.033093	0.24123	0.21992	0.20041	0.14347	0.13871	0.042252	-4.2625	-4.1979	-4.6354	-4.5062	-4.0792	-4.7771	-4.3854	-4.4417	-4.5792	-4.1708	-4.825	-4.5729	-4.2625	-4.6562	-4.2396	-4.3979	296.547	317.594	124.309	385.892	172.808	390.382	380.586	352.133	263.215	116.526	144.221	366.867	167.121	362.755	156.379	95.454	0.00048402	1.5124e-05	0.00010793	1235.1	4.0243e-06	3.702e-06	1308.6	261.97	3.2132e-06	9.8322e-07	323.19	90.318	72.459	20.418	1.5713e-06	28.931	0.00019163	0.00016297	4.495e-05	1222.8	1.8658e-06	1.7579e-06	1294.8	260.9	1.8229e-06	1.7884e-06	322.26	89.67	71.336	20.724	1.7902e-06	29.206	117.259	94.648	160.170	93.541	237.106	228.010	93.420	100.555	183.096	244.913	100.269	106.658	107.178	114.089	258.186	113.227	-8191	255	
11306.663	1	1	0	0	0.10774	0.18228	0.16027	0.46687	0.12447	0.10861	0.17114	0.27251	0.14498	0.11249	0.1323	0.13606	0.13555	0.14295	0.12676	0.078887	-4.2812	-4.0896	-4.6521	-4.6542	-4.2958	-4.7625	-4.4854	-4.4979	-4.775	-4.2604	-4.6083	-4.5146	-4.2542	-4.8354	-4.3229	-4.3479	217.559	360.027	428.356	388.593	391.599	438.487	338.763	398.148	198.348	108.277	382.359	346.193	327.079	92.085	177.221	374.401	0.00051359	0.00036805	9.1389e-05	1232.2	3.5481e-06	1.2186e-06	1307.6	262.4	2.7207e-06	4.398e-06	322.52	89.843	70.976	20.488	4.524e-06	28.814	0.00019025	0.0001639	4.5067e-05	1218.9	1.8414e-06	1.8115e-06	1291.9	260.55	1.8103e-06	1.7478e-06	322.22	89.639	70.893	20.72	1.7857e-06	29.185	117.392	151.343	196.844	93.332	196.181	278.992	93.600	100.657	189.772	244.866	100.421	106.525	106.819	113.845	158.701	113.116	-8191	255	
11306.757	1	1	0	0	0.15605	0.088183	0.22627	0.2874	0.13789	0.018616	0.081113	0.26981	0.15663	0.073371	0.10654	0.032926	0.29779	0.13316	0.092361	0.25636	-4.3667	-4.2104	-4.4542	-4.7625	-4.1833	-4.7688	-4.4625	-4.4437	-4.8688	-4.2083	-4.5188	-4.5354	-3.9729	-4.4083	-4.3938	-4.1375	439.973	384.450	213.094	410.495	129.543	237.439	402.094	424.939	326.973	195.932	413.666	346.181	341.138	120.728	96.104	323.764	0.00048041	0.00034786	0.00017073	1231.3	5.2573e-06	5.6643e-06	1309	262	3.4594e-06	2.6475e-06	324.76	90.022	71.195	20.444	3.6319e-06	28.813	0.00018244	0.00015999	4.4932e-05	1220.1	1.8125e-06	1.7158e-06	1292.4	260.4	1.7714e-06	1.7608e-06	321.73	89.606	70.78	20.707	1.7334e-06	29.118	114.740	172.811	199.956	93.414	242.637	244.757	93.495	100.721	203.171	211.932	100.057	106.891	106.696	114.011	199.267	113.368	-8191	255	
11306.853	1	1	0	0	0.28897	0.086848	0.066866	0.20458	0.13551	0.12799	0.1255	0.23549	0.085295	0.075871	0.055022	0.034296	0.3299	0.10115	0.11775	0.17529	-4.4313	-4.1458	-4.4896	-4.8146	-4.1729	-4.6021	-4.7521	-4.3812	-4.5958	-4.2917	-4.4333	-4.6312	-4.3104	-4.5625	-4.5229	-4.2937	116.505	135.635	396.395	384.802	109.041	412.596	413.305	392.920	178.392	411.142	438.175	140.088	366.049	189.505	183.403	341.055	0.00050349	0.00017045	0.00012844	1229.7	6.3897e-06	2.9331e-06	1302.8	261.98	5.6713e-06	2.565e-06	323.78	90.132	71.725	20.455	4.3885e-06	28.9	0.00018537	0.00015847	4.5002e-05	1215.9	1.8202e-06	1.7231e-06	1287.8	260	1.7925e-06	1.7657e-06	321.56	89.527	71.166	20.682	1.7501e-06	29.226	116.972	180.087	163.385	93.665	206.266	223.798	93.583	100.594	216.270	241.325	100.360	106.887	107.037	113.855	235.701	113.110	-8191	255	
11306.949	1	1	0	0	0.052013	0.25823	0.11049	0.16124	0.11648	0.059214	0.18909	0.1611	0.083424	0.24679	0.1896	0.14712	0.25397	0.12335	0.2139	0.21108	-4.4521	-4.4208	-4.5437	-5.0437	-4.2063	-4.6813	-4.6604	-4.3417	-4.6833	-4.3042	-4.4604	-4.8208	-4.2417	-4.7104	-4.5563	-4.1771	399.534	239.415	439.494	327.922	119.244	293.770	328.999	98.730	363.750	225.548	174.559	367.589	137.604	359.769	410.396	418.321	0.00051155	0.00027464	0.00012349	1231	3.5507e-06	5.1602e-06	1308.8	263.08	7.5026e-06	2.7668e-06	324.4	90.686	71.248	20.554	4.8422e-06	28.721	0.00018511	0.00016003	4.4177e-05	1217.8	1.8331e-06	1.7123e-06	1291.9	260.38	1.7853e-06	1.7333e-06	322.62	89.921	71.122	20.796	1.7346e-06	29.236	117.094	165.128	179.971	93.609	239.136	254.883	93.578	100.691	215.245	218.736	100.395	107.175	107.163	113.950	220.241	113.498	-8191	255	
11307.070	1	1	0	0	0.28869	0.16921	0.042431	0.16085	0.18922	0.16593	0.21592	0.21015	0.28395	0.23092	0.18966	0.24949	0.28049	0.13992	0.060071	0.21834	-4.4104	-4.2958	-4.0687	-4.9688	-4.3125	-4.425	-5.0021	-4.1458	-4.6792	-4.5583	-4.2312	-4.8021	-4.1396	-4.4563	-4.7812	-4.1979	338.903	439.605	414.691	351.602	386.771	245.196	413.251	334.104	259.821	397.080	435.549	286.432	90.618	122.133	288.269	432.720	0.00051831	0.00029012	6.3419e-05	1235.4	4.0938e-06	4.1892e-06	1305.4	262.3	5.8725e-06	2.7341e-06	321.86	90.273	71.694	20.454	4.2247e-06	28.77	0.00018011	0.0001556	4.2711e-05	1220.1	1.7715e-06	1.6624e-06	1291.5	260.4	1.7888e-06	1.7787e-06	321.62	89.745	71.023	20.711	1.7319e-06	29.144	115.846	181.345	223.089	93.462	195.364	226.614	93.596	100.599	252.444	255.504	100.268	106.843	107.128	113.663	223.655	113.668	-8191	255	
11307.164	1	1	0	0	0.12725	0.19566	0.1627	0.32233	0.14007	0.14213	0.31744	0.061898	0.098347	0.045004	0.04123	0.25904	0.064404	0.075726	0.23899	0.077328	-4.3083	-4.5625	-4.2562	-4.7854	-4.4187	-4.4167	-4.8938	-4.3187	-4.4542	-4.5042	-4.1188	-4.7521	-4.3021	-4.4583	-4.8042	-4.1438	390.559	240.144	175.326	381.480	173.038	432.071	360.356	211.691	216.128	103.750	401.623	302.987	383.423	288.292	207.379	335.054	0.00058582	0.00014656	7.9242e-05	1227.7	4.1862e-06	4.177e-06	1303.9	262.3	3.4103e-06	4.2678e-06	323.97	90.47	71.793	20.523	3.086e-06	28.816	0.00018969	0.00015908	4.4264e-05	1215.9	1.8074e-06	1.6778e-06	1289	260	1.7944e-06	1.6803e-06	322.03	89.839	71.001	20.76	1.6582e-06	29.23	111.236	228.583	138.425	93.654	209.999	250.774	93.427	100.764	224.961	234.827	100.034	106.796	107.490	113.888	230.625	113.716	-8191	255	
11307.261	1	1	0	0	0.12451	0.082484	0.11767	0.068223	0.1234	0.26747	0.13156	0.18599	0.10908	0.053265	0.08742	0.18428	0.19441	0.22934	0.12404	0.09305	-4.1875	-4.6188	-4.175	-4.7354	-4.3396	-4.3063	-5	-4.0646	-4.2854	-4.6708	-4.2438	-4.8125	-4.4354	-4.2667	-4.9021	-4.2625	327.944	351.476	198.212	116.608	307.123	268.964	426.066	104.779	235.601	177.055	345.523	205.758	399.908	149.438	96.194	318.129	0.00053311	0.00054487	0.00010432	1234.1	3.4103e-06	5.0288e-06	1310.2	262.08	5.9308e-06	2.9745e-06	324.36	90.85	71.227	20.441	4.8641e-06	28.94	0.00018403	0.00015596	4.3218e-05	1219.6	1.7592e-06	1.7594e-06	1292.5	260.21	1.7964e-06	1.689e-06	321.72	89.772	70.787	20.737	1.6657e-06	29.194	119.560	182.978	153.475	93.331	216.952	247.075	93.382	100.566	222.112	283.705	100.219	106.656	106.969	113.859	242.638	113.435	-8191	255	
11307.357	1	1	0	0	0.15267	0.14966	0.096319	0.18474	0.13506	0.1863	0.23167	0.27903	0.093561	0.26246	0.030729	0.17748	0.11838	0.18123	0.18745	0.0054562	-4.1375	-4.6146	-3.9396	-4.8271	-4.5188	-4.1875	-4.8354	-4.3854	-4.3229	-4.6708	-4.1417	-4.6396	-4.5521	-4.1562	-4.6875	-4.375	384.832	179.094	265.228	370.708	243.879	103.155	424.992	425.222	358.032	229.044	93.484	400.138	168.338	366.609	304.376	262.944	0.0005095	0.00024421	0.00014298	1230.3	4.2799e-06	6.0499e-06	1309	262.94	5.444e-06	3.594e-06	324.44	89.981	72.289	20.514	4.1734e-06	28.859	0.00018173	0.0001563	4.2818e-05	1216.6	1.7649e-06	1.7043e-06	1291.9	260.44	1.6965e-06	1.6299e-06	321.72	89.801	71.092	20.73	1.6533e-06	29.164	117.541	159.288	173.862	93.548	218.854	192.969	93.435	100.711	215.828	252.397	100.386	106.449	107.008	113.855	211.027	113.154	-8191	255	
11307.453	1	1	0	0	0.067436	0.095738	0.12935	0.15812	0.073802	0.11492	0.25669	0.078353	0.10438	0.16726	0.13323	0.09405	0.076518	0.22113	0.16332	0.0801	-4.1562	-4.6083	-4.1438	-4.6562	-4.5062	-4.275	-4.95	-4.5583	-4.3104	-4.8021	-4.1875	-4.5312	-4.5958	-4.2583	-4.7708	-4.3438	327.694	438.333	110.274	335.501	260.945	247.169	383.276	417.297	266.093	130.541	414.955	350.886	122.606	101.595	152.545	410.604	0.00054453	6.4524e-05	0.00010887	1232.2	3.7403e-06	5.6832e-06	1306.2	261.36	5.7848e-06	3.0683e-06	324.31	90.257	71.282	20.53	4.3954e-06	28.773	0.00018046	0.00014775	4.1287e-05	1217.8	1.7239e-06	1.6748e-06	1291.3	260.12	1.6963e-06	1.6099e-06	321.85	89.522	70.766	20.755	1.6319e-06	29.154	112.839	141.110	165.746	93.587	244.294	256.547	93.569	100.591	218.838	243.468	100.276	106.938	106.753	114.215	184.592	113.102	-8191	255	
11307.549	1	1	0	0	0.085876	0.097966	0.18608	0.13605	0.068555	0.19685	0.19458	0.08849	0.038991	0.030715	0.067364	0.032832	0.089118	0.16152	0.13317	0.078153	-3.9125	-4.675	-4.15	-4.6771	-4.6104	-4.0667	-4.7333	-4.425	-4.2937	-4.8083	-4.2375	-4.3833	-4.6667	-3.8792	-4.5354	-4.5667	179.991	346.729	353.542	393.024	326.348	84.879	368.504	242.281	438.166	259.878	157.752	165.996	429.948	385.549	182.114	94.905	0.00050511	0.00037888	5.5186e-05	1231.4	4.232e-06	3.0305e-06	1304.4	262.1	6.4865e-06	1.8426e-06	323.65	89.873	71.555	20.394	4.5881e-06	28.865	0.00017494	0.00014763	4.1167e-05	1216.3	1.6673e-06	1.63e-06	1288.5	259.64	1.6536e-06	1.5814e-06	321.24	89.269	70.809	20.666	1.5919e-06	29.13	116.983	177.350	139.930	93.615	221.246	202.047	93.419	100.523	248.368	255.208	100.206	106.566	107.046	113.764	212.105	113.435	-8191	255	
11307.670	1	1	0	0	0.065606	0.22739	0.076996	0.40117	0.1405	0.19683	0.20224	0.076836	0.071469	0.24174	0.18189	0.25195	0.20252	0.13731	0.1779	0.26877	-3.925	-4.7917	-4.1979	-4.4292	-4.7479	-4.2458	-4.7542	-4.6458	-4.1875	-4.7667	-4.3583	-4.3396	-4.7333	-4.2104	-4.575	-4.6396	338.118	275.062	282.044	438.236	243.515	393.161	82.910	346.616	353.827	422.198	84.706	167.720	388.613	124.840	216.498	109.674	0.00056074	0.00022606	0.00014088	1229.2	5.6265e-06	1.5965e-06	1301.9	261.7	4.0274e-06	3.6126e-06	321.74	89.92	71.457	20.45	2.9617e-06	28.738	0.00017805	0.00014253	4.0074e-05	1213.6	1.6491e-06	1.5613e-06	1287.7	259.62	1.6653e-06	1.5271e-06	320.56	89.216	70.701	20.632	1.5243e-06	29.13	115.376	197.619	210.854	93.511	251.749	200.986	93.498	100.573	218.576	245.727	100.082	106.786	106.924	114.355	193.428	113.284	-8191	255	
11307.766	1	1	0	0	0.18691	0.18012	0.13216	0.26571	0.041196	0.20467	0.17668	0.047004	0.30104	0.21841	0.11767	0.045441	0.092954	0.23962	0.092242	0.041533	-3.7479	-4.8417	-4.4583	-4.475	-4.8354	-4.1813	-4.6875	-4.7375	-4.2354	-4.7958	-4.5479	-4.3979	-4.8542	-4.2417	-4.4563	-4.8458	110.777	118.452	351.886	411.620	313.584	122.233	327.428	408.694	382.878	323.973	412.134	370.133	355.613	364.804	203.633	227.577	0.00054608	0.0005138	0.00012289	1229.1	4.6421e-06	2.6857e-06	1303.4	260.84	6.6986e-06	6.1387e-07	322.68	89.767	71.36	20.444	6.3316e-06	28.742	0.00017022	0.00013709	3.9263e-05	1212.7	1.6562e-06	1.5614e-06	1286.8	259.03	1.6708e-06	1.5423e-06	320.4	89.2	70.797	20.704	1.6176e-06	29.082	113.600	178.709	168.536	93.621	232.003	266.459	93.402	100.640	204.805	97.189	100.411	106.724	107.109	113.666	200.699	113.410	-8191	255	
11307.862	1	1	0	0	0.25325	0.096142	0.14918	0.27943	0.058602	0.28462	0.035707	0.084381	0.13164	0.090851	0.16941	0.12208	0.30419	0.16893	0.26663	0.064556	-3.8854	-4.6021	-4.5042	-4.4021	-4.8063	-4.2167	-4.5771	-4.7354	-4.0083	-4.5979	-4.4812	-4.2708	-4.6771	-4.4688	-4.3917	-4.6771	333.153	271.824	156.650	387.980	314.676	415.028	159.206	269.617	312.052	422.974	404.013	276.311	201.215	340.006	415.519	304.462	0.00049502	0.00014425	1.9132e-05	1227.2	3.7995e-06	6.1205e-06	1298.9	260.57	3.8763e-06	4.3095e-06	322.3	90.283	71.965	20.527	3.8193e-06	28.84	0.0001728	0.00014315	3.9641e-05	1214.6	1.6561e-06	1.61e-06	1286	258.78	1.6671e-06	1.5728e-06	320.73	89.495	70.844	20.707	1.5784e-06	29.107	115.068	118.277	214.197	93.644	246.014	201.887	93.582	100.530	241.708	226.836	100.245	106.462	107.411	113.715	242.253	113.272	-8191	255	
11307.934	1	1	0	0	0.057621	0.33877	0.036032	0.14164	0.1079	0.28678	0.14256	0.16493	0.14278	0.11249	0.12924	0.10734	0.28376	0.11496	0.12283	0.090375	-3.825	-4.4958	-4.4271	-4.3583	-4.7792	-4.2771	-4.5437	-4.8917	-4.2896	-4.5188	-4.7	-4.2083	-4.65	-4.4021	-4.2562	-4.8125	194.423	423.599	280.536	301.315	362.147	358.509	388.916	403.953	403.761	357.764	86.047	154.461	416.850	432.787	408.479	333.577	0.00050475	0.00032134	3.7958e-05	1226.9	2.4055e-06	1.3002e-06	1305.6	261.25	5.2093e-06	3.9985e-06	321.73	90.033	71.202	20.437	3.3239e-06	28.991	0.00017461	0.00014399	3.9241e-05	1212.8	1.6628e-06	1.557e-06	1287.6	259.16	1.6514e-06	1.5241e-06	320.62	89.374	70.54	20.661	1.5885e-06	29.239	117.403	144.941	149.105	93.463	205.835	230.626	93.437	100.632	193.219	244.853	100.383	106.880	107.101	114.020	245.583	113.683	-8191	255	
11308.054	1	1	0	0	0.16346	0.22274	0.17946	0.22279	0.20812	0.14377	0.16599	0.26278	0.33901	0.051763	0.21884	0.10087	0.063396	0.043758	0.1114	0.30085	-3.8958	-4.4729	-4.5333	-4.3167	-4.8604	-4.4542	-4.4875	-4.9812	-4.1917	-4.4979	-4.8438	-4.3271	-4.6188	-4.5729	-4.2312	-4.7688	426.656	210.262	386.727	428.275	425.480	437.828	271.674	354.120	120.120	414.930	431.608	92.656	149.691	149.575	210.281	432.172	0.00053825	0.00039793	0.00013277	1229.3	6.4716e-06	4.0733e-06	1305.7	261.21	4.2983e-06	3.9754e-06	321.36	89.926	71.226	20.426	1.8758e-06	28.875	0.00017082	0.00014754	3.8287e-05	1211.7	1.6643e-06	1.5724e-06	1285	259.06	1.6544e-06	1.5876e-06	320.35	89.448	70.7	20.7	1.5951e-06	29.099	117.055	157.394	185.635	93.750	218.860	222.029	93.479	100.497	210.731	271.728	100.166	106.881	106.994	113.885	280.502	113.283	-8191	255	
11308.149	1	1	0	0	0.085172	0.018883	0.078395	0.20495	0.11881	0.16839	0.27008	0.14232	0.26533	0.22284	0.05085	0.10332	0.17231	0.12038	0.2034	0.23376	-3.9917	-4.3562	-4.6562	-4.2521	-4.4104	-4.5792	-4.45	-4.8458	-4.2208	-4.3458	-4.7438	-4.075	-4.7646	-4.5396	-4.0229	-4.7646	216.798	380.571	262.788	422.666	392.485	162.471	352.157	97.283	303.720	92.270	377.209	358.960	440.851	371.537	95.145	338.141	0.0005269	0.00031663	4.2759e-05	1229.3	4.7657e-06	3.7835e-06	1299.9	261.48	5.4453e-06	1.2667e-06	322.48	90.487	71.734	20.342	3.6546e-06	28.923	0.0001761	0.00014678	3.9446e-05	1212.9	1.6929e-06	1.5484e-06	1283.2	259.31	1.6798e-06	1.5815e-06	321.04	89.486	70.811	20.653	1.6136e-06	29.161	121.132	178.629	184.276	93.618	207.512	220.631	93.525	100.282	205.135	260.242	100.114	107.095	107.068	113.631	204.065	113.157	-8191	255	
11308.245	1	1	0	0	0.045334	0.11979	0.24352	0.30787	0.10505	0.21313	0.24219	0.22543	0.14814	0.23604	0.10112	0.13771	0.058367	0.21282	0.134	0.1075	-4.1042	-4.3083	-4.6604	-4.4896	-4.5792	-4.6312	-4.3521	-4.7792	-4.4417	-4.2604	-4.8021	-4.3646	-4.6167	-4.5854	-4.0125	-4.8146	278.616	94.253	191.952	427.039	196.242	364.228	387.885	383.839	411.715	248.419	84.757	323.488	345.816	270.742	314.372	236.363	0.0005192	0.00014228	5.0063e-05	1228.3	3.3392e-06	9.1194e-07	1298	261.11	4.5754e-06	4.0713e-06	321.5	90.108	71.599	20.477	2.5129e-06	28.857	0.00017891	0.00014721	3.9799e-05	1214.4	1.693e-06	1.5749e-06	1285.4	259.11	1.6351e-06	1.5554e-06	320.35	89.478	70.731	20.705	1.5773e-06	29.13	116.838	165.518	160.885	93.668	226.306	415.453	93.502	100.575	215.508	271.475	100.385	106.916	107.386	113.671	244.617	112.841	-8191	255	
11308.343	1	1	0	0	0.16477	0.065431	0.28649	0.18039	0.036074	0.081826	0.052654	0.29731	0.21735	0.068694	0.27082	0.0663	0.067758	0.1377	0.13776	0.16316	-3.9958	-4.2792	-4.7188	-4.2917	-4.4208	-4.6792	-4.3104	-4.6875	-4.6	-4.2625	-4.9062	-4.3292	-4.4896	-4.85	-4.2562	-4.6979	144.415	228.806	210.710	391.440	323.821	403.954	369.271	328.281	264.650	264.832	86.241	155.772	406.266	112.581	314.884	205.107	0.0005517	0.00016684	8.0434e-05	1223.5	5.5604e-06	2.9813e-06	1300.7	261.25	7.43e-06	4.3285e-06	322.67	89.99	71.289	20.288	3.3946e-06	28.843	0.00017294	0.00014241	3.8955e-05	1211.4	1.636e-06	1.545e-06	1285.1	259.04	1.5854e-06	1.5662e-06	320.83	89.37	70.606	20.594	1.557e-06	29.093	118.923	142.223	148.583	93.243	226.028	257.814	93.576	100.638	201.180	218.801	100.138	106.255	107.080	113.803	235.991	113.469	-8191	255	
11308.462	1	1	0	0	0.17933	0.17504	0.13723	0.1288	0.13017	0.078901	0.28037	0.23686	0.11189	0.20618	0.18758	0.16336	0.14546	0.15903	0.11474	0.18273	-4.2375	-4.3771	-4.7937	-4.5646	-4.2979	-4.6604	-4.4646	-4.6354	-4.6479	-4.1021	-4.7583	-4.5417	-4.3125	-4.7896	-4.2271	-4.6854	229.111	237.293	415.869	170.355	247.614	84.820	334.505	400.996	182.737	147.584	351.881	400.423	389.753	88.205	214.421	140.542	0.00055095	0.00024141	0.00013601	1227.2	6.3108e-06	5.1611e-06	1302.7	260.89	4.3668e-06	3.8044e-06	322.22	89.567	70.825	20.507	3.6248e-06	28.737	0.00017061	0.00014383	3.7002e-05	1212.8	1.581e-06	1.4915e-06	1285.7	259.36	1.5587e-06	1.5095e-06	320.53	89.211	70.386	20.679	1.4757e-06	29.078	119.187	181.645	198.212	93.490	226.306	237.417	93.292	100.705	232.903	267.348	100.101	106.744	107.028	113.677	190.360	113.385	-8191	255	
11308.558	1	1	0	0	0.13522	0.21751	0.20297	0.19588	0.1169	0.1798	0.29074	0.11533	0.071433	0.25269	0.024313	0.090392	0.066904	0.17611	0.20888	0.2171	-4.3292	-3.9667	-4.6604	-4.5958	-4.3	-4.6417	-4.4437	-4.7417	-4.4958	-4.1	-4.9104	-4.5167	-4.3875	-4.6937	-4.1917	-4.5062	382.304	359.238	395.026	428.892	178.599	343.391	341.783	365.243	332.007	95.539	330.431	125.779	288.172	205.050	425.329	146.206	0.00054875	0.00024485	0.0001502	1222.7	4.6314e-06	1.9561e-06	1295	260.15	4.4514e-06	3.7459e-06	321.43	89.697	71.709	20.403	1.679e-06	28.772	0.00016302	0.00013186	3.7679e-05	1209.5	1.615e-06	1.4396e-06	1283.5	258.37	1.5545e-06	1.4899e-06	320.42	89.449	70.549	20.62	1.5223e-06	29.165	120.683	180.296	182.146	93.651	226.837	281.687	93.254	100.562	217.034	199.223	100.065	106.539	106.760	113.985	210.710	113.299	-8191	255	
11308.629	1	1	0	0	0.10245	0.10528	0.15979	0.12175	0.11056	0.064049	0.20396	0.24941	0.22397	0.17011	0.23009	0.17753	0.14877	0.13057	0.13603	0.29012	-4.4229	-4.15	-4.6479	-4.5979	-4.2021	-4.7937	-4.3187	-4.4458	-4.8438	-4.1562	-4.6708	-4.5646	-4.1312	-4.6542	-4.1979	-4.5146	386.897	301.633	95.870	340.741	133.837	359.985	350.440	358.843	347.850	308.718	367.627	314.886	433.139	418.217	339.671	412.233	0.00054022	0.00033789	6.9993e-05	1225.2	4.0911e-06	4.9039e-06	1297.1	259.56	3.4039e-06	1.8993e-06	320.86	89.216	71.001	20.462	1.179e-06	28.917	0.00016231	0.00013839	3.8282e-05	1210.9	1.5516e-06	1.5093e-06	1283.5	258.4	1.5919e-06	1.5436e-06	319.67	89.147	70.605	20.705	1.5983e-06	29.182	115.346	176.108	195.653	93.358	235.374	236.939	93.490	100.690	189.589	183.768	100.132	106.408	106.939	113.922	166.673	113.505	-8191	255	
11308.750	1	1	0	0	0.23755	0.1259	0.056421	0.19942	0.1623	0.16861	0.36124	0.16608	0.10299	0.15373	0.14314	0.13634	0.16538	0.20941	0.18705	0.18397	-4.4729	-4.2229	-4.5146	-4.7	-4.0229	-4.7875	-4.4333	-4.3812	-4.8833	-4.1208	-4.6312	-4.7271	-4.1188	-4.6854	-4.4854	-4.3417	411.553	301.201	207.507	85.530	281.182	424.795	381.705	412.021	100.154	385.148	390.568	85.806	434.712	87.934	148.935	404.133	0.00055283	5.7725e-05	4.0904e-05	1229.7	4.9775e-06	4.2768e-06	1299.1	260.94	4.4408e-06	7.1261e-06	322.01	89.873	70.911	20.421	1.6313e-06	28.868	0.00017099	0.00014524	4.0544e-05	1214.3	1.7032e-06	1.603e-06	1286.1	259.63	1.6885e-06	1.6613e-06	321.53	89.75	70.767	20.755	1.6202e-06	29.127	115.317	226.910	155.467	93.710	246.115	238.456	93.359	100.480	225.878	255.885	100.161	106.707	106.835	113.711	183.474	113.260	-8191	255	
11308.846	1	1	0	0	0.10709	0.05245	0.21027	0.28212	0.27836	0.030016	0.23641	0.077933	0.10837	0.17468	0.12608	0.12949	0.1692	0.17726	0.1145	0.091134	-4.5229	-4.15	-4.2708	-4.9896	-4.1375	-4.7104	-4.6687	-4.2875	-4.7604	-4.2042	-4.4875	-4.7146	-3.9437	-4.6292	-4.3521	-4.2667	373.067	101.777	215.166	413.424	347.641	96.852	407.982	288.041	292.290	297.985	307.457	119.369	201.122	146.694	327.410	165.437	0.00054664	0.00036842	0.00015322	1229.6	5.4629e-06	4.5786e-06	1304.9	261.79	4.6395e-06	1.0743e-06	322.33	90.573	71.629	20.405	4.0732e-06	29.046	0.0001747	0.00014742	4.0522e-05	1216.7	1.687e-06	1.5855e-06	1289.7	259.75	1.5775e-06	1.5572e-06	320.57	89.609	70.822	20.719	1.5418e-06	29.208	113.682	180.626	193.882	93.459	250.566	285.066	93.334	100.616	220.203	221.742	100.286	106.527	106.825	113.867	218.700	113.691	-8191	255	
11308.942	1	1	0	0	0.29808	0.19659	0.25283	0.080248	0.13115	0.26872	0.24063	0.18926	0.18129	0.033927	0.17005	0.15838	0.098046	0.05181	0.12448	0.27508	-4.5437	-4.3063	-4.3583	-4.8812	-4.1521	-4.55	-4.7	-4.2937	-4.7625	-4.3896	-4.4542	-4.8354	-4.2458	-4.5188	-4.6958	-4.2063	234.876	156.494	157.607	355.310	185.545	313.835	336.470	371.569	212.668	338.293	141.473	205.788	87.367	241.280	84.061	134.926	0.00048999	0.00036297	0.00015117	1224.9	3.1099e-06	3.6607e-06	1304	261.32	6.4013e-06	1.6206e-06	322.36	89.961	71.243	20.421	3.5891e-06	28.7	0.00016681	0.00014067	3.8398e-05	1214.1	1.6738e-06	1.5769e-06	1288.5	259.61	1.6619e-06	1.5385e-06	321.3	89.556	70.789	20.658	1.6248e-06	29.051	114.750	166.860	179.407	93.508	203.596	270.555	93.652	100.596	200.646	245.524	100.300	106.914	107.290	113.731	189.789	113.591	-8191	255	
11309.063	1	1	0	0	0.0055016	0.087682	0.14581	0.033864	0.28108	0.25659	0.14604	0.15587	0.1144	0.017553	0.23443	0.15194	0.20598	0.066163	0.057892	0.16318	-4.4729	-4.3438	-4.2833	-5.0021	-4.2271	-4.5042	-4.8646	-4.2229	-4.6396	-4.3625	-4.3917	-4.6687	-4.2875	-4.3792	-4.6937	-4.3958	100.972	243.527	372.596	381.115	114.753	162.902	103.443	358.734	112.813	250.841	377.168	299.842	108.398	150.884	105.275	124.144	0.00050694	7.2025e-05	0.00010415	1220	5.0563e-06	2.4638e-06	1301	261.23	5.1454e-06	4.3953e-06	323.84	90.13	71.567	20.598	3.6639e-06	28.96	0.0001743	0.00014634	4.248e-05	1210	1.7417e-06	1.6844e-06	1285	259.36	1.7955e-06	1.7849e-06	321.6	89.595	71.086	20.809	1.6525e-06	29.272	115.169	194.818	152.743	93.650	228.920	260.432	93.545	100.461	227.333	267.327	100.258	106.797	106.955	113.696	217.588	112.964	-8191	255	
11309.157	1	1	0	0	0.14111	0.054252	0.13018	0.2284	0.21867	0.16058	0.32725	0.16218	0.14955	0.24203	0.23226	0.17687	0.15869	0.10495	0.09861	0.20185	-4.275	-4.4	-4.1229	-4.8688	-4.1875	-4.3917	-4.9417	-4.2812	-4.8063	-4.5875	-4.4333	-4.8187	-4.4125	-4.3875	-4.9625	-4.2104	431.230	173.727	126.939	122.083	311.394	84.394	394.297	402.356	95.223	148.672	89.194	143.785	140.461	88.600	435.013	365.123	0.00057396	0.00032168	1.4968e-05	1229.4	3.9244e-06	4.1748e-06	1306.9	262.2	5.5422e-06	4.888e-06	322.93	90.177	71.678	20.405	3.0227e-06	28.545	0.00017903	0.00015306	3.9253e-05	1217.6	1.6586e-06	1.5348e-06	1291.8	259.85	1.5681e-06	1.5086e-06	320.8	89.601	70.887	20.683	1.5768e-06	29.037	118.467	203.379	193.333	93.443	229.381	241.259	93.522	100.703	217.855	262.731	100.217	106.886	106.962	114.104	202.220	113.223	-8191	255	
11309.229	1	1	0	0	0.073695	0.059249	0.065605	0.3074	0.20186	0.16053	0.15195	0.11886	0.15443	0.15154	0.20382	0.11683	0.16491	0.19225	0.09252	0.13643	-4.2583	-4.6104	-4	-4.8208	-4.4146	-4.4437	-5.0188	-4.3187	-4.5167	-4.6188	-4.2417	-4.6104	-4.4708	-4.3021	-4.8583	-4.1521	397.226	135.999	246.061	428.027	125.602	247.018	408.451	369.096	267.634	185.489	376.104	374.977	369.539	267.945	158.701	356.966	0.00050354	0.00024871	0.00013297	1226.6	4.8272e-06	4.8505e-06	1307	262.07	5.478e-06	2.9651e-06	323.9	90.51	72.004	20.48	3.5377e-06	28.77	0.00017527	0.00014896	4.254e-05	1213.5	1.8177e-06	1.7206e-06	1288.6	260.17	1.8401e-06	1.7535e-06	322.31	89.901	71.295	20.813	1.7783e-06	29.292	117.387	150.704	170.868	93.573	248.935	203.953	93.485	100.543	234.084	250.923	100.162	106.663	107.141	113.544	197.047	113.435	-8191	255	
11309.350	1	1	0	0	0.23598	0.089091	0.072453	0.23819	0.054705	0.24277	0.23879	0.15877	0.096904	0.1819	0.32177	0.088553	0.16665	0.074409	0.14821	0.048028	-4	-4.6708	-4.0896	-4.8	-4.3896	-4.1354	-4.8479	-4.3938	-4.4313	-4.5521	-4.1562	-4.7312	-4.4812	-4.1229	-4.7417	-4.4833	337.201	437.359	262.957	354.411	89.176	98.822	368.348	404.101	353.431	116.399	398.914	177.725	357.871	208.298	402.896	270.731	0.00055662	0.00017504	0.00010604	1237.3	5.4401e-06	4.2901e-06	1311.2	262.67	3.7919e-06	3.4546e-06	324.29	90.159	70.975	20.429	2.5557e-06	28.6	0.00017916	0.00015274	4.249e-05	1224.7	1.7234e-06	1.637e-06	1296.3	260.98	1.6476e-06	1.5765e-06	321.96	89.625	70.788	20.706	1.6201e-06	29.052	112.317	221.352	162.754	93.562	217.066	260.410	93.531	100.327	172.213	225.861	100.472	106.890	106.651	113.887	157.971	113.036	-8191	255	
11309.446	1	1	0	0	0.082142	0.077132	0.16873	0.16818	0.17371	0.10923	0.29529	0.16145	0.1726	0.028081	0.24225	0.21861	0.23957	0.029425	0.10201	0.24943	-4.0292	-4.6958	-4.2042	-4.85	-4.5208	-3.9792	-4.925	-4.5	-4.2771	-4.9042	-4.35	-4.6292	-4.6125	-4.1396	-4.6771	-4.2917	295.639	181.965	190.927	378.518	133.214	408.855	349.964	369.874	205.727	343.536	94.531	123.505	85.784	172.027	127.964	109.084	0.00052999	0.00030831	9.5627e-05	1224	4.7482e-06	4.3078e-06	1291.2	259.63	4.2831e-06	2.6385e-06	320.72	89.279	70.967	20.047	4.8776e-06	28.762	0.00017257	0.00014199	4.0999e-05	1211.7	1.6418e-06	1.5265e-06	1280.6	257.96	1.6018e-06	1.5217e-06	318.99	88.922	70.378	20.448	1.5425e-06	28.979	109.049	131.753	164.997	93.631	221.530	215.063	93.566	100.542	185.255	229.557	100.568	106.676	107.330	113.594	205.351	113.394	-8191	255	
11309.542	1	1	0	0	0.28859	0.036173	0.11346	0.082527	0.041927	0.22486	0.10952	0.1212	0.19012	0.0087831	0.073613	0.30647	0.07888	0.11326	0.14121	0.2809	-3.9167	-4.7271	-4.2708	-4.7104	-4.8167	-4.3	-4.8708	-4.5583	-4.3104	-4.7812	-4.3417	-4.4875	-4.5542	-4.3292	-4.6708	-4.5271	202.391	249.797	380.047	105.796	330.370	145.235	369.822	307.531	214.443	99.896	260.083	386.592	82.871	402.785	235.480	440.778	0.0004852	0.00016344	4.2751e-05	1222.1	4.4469e-06	2.9254e-06	1296.3	260.12	3.3266e-06	1.5355e-06	321.85	90.068	70.947	20.464	5.1004e-06	28.618	0.00017497	0.00013798	4.0599e-05	1208.9	1.6244e-06	1.5718e-06	1283	257.92	1.6512e-06	1.5266e-06	319.81	89.265	70.591	20.61	1.4749e-06	28.951	113.481	194.196	121.011	93.650	230.006	226.059	93.336	100.599	239.444	223.335	100.353	106.563	107.483	113.558	211.335	113.668	-8191	255	
11309.638	1	1	0	0	0.036143	0.016387	0.2484	0.42233	0.12113	0.15973	0.23872	0.06341	0.020155	0.14096	0.14625	0.12036	0.21367	0.11009	0.14515	0.15454	-3.8208	-4.9229	-4.2188	-4.5729	-4.6937	-4.0854	-4.7438	-4.5854	-4.1354	-4.725	-4.5396	-4.5813	-4.7354	-4.3187	-4.6354	-4.675	102.931	280.684	394.368	407.335	92.942	381.713	419.200	348.316	434.639	360.324	129.360	315.459	89.523	441.542	172.612	279.253	0.00055311	0.0004556	0.0001316	1225.3	3.3117e-06	2.7765e-06	1296.8	259.96	4.74e-06	3.7802e-06	320.21	89.398	71.34	20.352	6.3277e-06	28.732	0.00016732	0.00013788	3.8753e-05	1211.6	1.5975e-06	1.5089e-06	1283.8	258.34	1.594e-06	1.5107e-06	319.41	88.968	70.553	20.581	1.5025e-06	28.982	117.811	195.802	158.835	93.378	209.678	275.473	93.420	100.705	196.150	268.634	100.538	106.501	107.013	113.719	206.983	113.232	-8191	255	
11309.759	1	1	0	0	0.2265	0.24356	0.054638	0.10934	0.13182	0.019558	0.22639	0.041743	0.086862	0.14441	0.056315	0.24722	0.12693	0.066174	0.091791	0.21573	-3.8792	-4.6333	-4.3583	-4.4292	-4.8854	-4.2208	-4.7479	-4.5771	-4.1813	-4.7188	-4.5	-4.3438	-4.6958	-4.3083	-4.5958	-4.7708	97.842	167.399	389.469	87.595	169.828	131.152	315.631	374.025	265.279	218.711	113.016	427.056	409.422	141.032	390.858	387.165	0.00058008	0.00030034	0.00010606	1221.2	5.39e-06	2.7609e-06	1299.6	259.61	3.9165e-06	2.6841e-06	321.77	89.579	71.057	20.304	2.9377e-06	28.601	0.00016495	0.0001345	3.8588e-05	1209.1	1.5989e-06	1.5218e-06	1283	258.26	1.6045e-06	1.4847e-06	319.24	89.249	70.516	20.613	1.5472e-06	28.986	119.007	168.090	188.179	93.492	212.609	198.248	93.488	100.725	209.138	241.681	100.285	106.499	106.923	113.582	237.308	113.243	-8191	255	
11309.855	1	1	0	0	0.27772	0.15329	0.11992	0.24203	0.17497	0.24004	0.16851	0.22389	0.28517	0.21292	0.22891	0.056273	0.11847	0.069197	0.26459	0.18121	-3.8167	-4.6917	-4.4646	-4.45	-4.6854	-4.3375	-4.6292	-4.8979	-4.2417	-4.6979	-4.6771	-4.1333	-4.925	-4.4062	-4.2146	-4.8688	149.720	87.020	399.585	407.443	252.037	246.593	306.644	433.696	434.406	413.458	398.642	90.101	286.664	216.237	437.768	337.677	0.00055836	0.00023128	0.00010502	1226.7	4.8433e-06	4.9718e-06	1297.8	260.16	2.7039e-06	3.5831e-06	322.12	89.593	70.736	20.294	4.2601e-06	28.539	0.000172	0.00013889	3.9018e-05	1211.2	1.6155e-06	1.4711e-06	1283.6	257.95	1.58e-06	1.4486e-06	319.66	89.128	70.367	20.585	1.5128e-06	28.954	116.571	206.827	167.211	93.617	230.688	247.711	93.449	100.600	221.950	214.929	100.223	106.472	107.004	113.707	212.960	113.308	-8191	255	
11309.927	1	1	0	0	0.24391	0.23589	0.14661	0.13885	0.14683	0.41022	0.29524	0.25817	0.060329	0.027084	0.029617	0.14527	0.20053	0.29322	0.19518	0.30816	-3.9917	-4.6104	-4.5729	-4.2917	-4.7562	-4.3125	-4.6542	-4.925	-4.025	-4.6542	-4.8417	-4.1813	-4.6521	-4.2667	-4.4125	-5.0333	224.830	280.633	202.713	90.785	416.378	267.436	424.430	393.397	242.720	251.882	360.104	398.421	243.033	441.122	365.061	281.824	0.00054827	0.00027265	8.5227e-05	1215.5	3.4453e-06	3.2921e-06	1290.5	260.03	6.0514e-06	2.2774e-06	322.48	89.449	70.583	20.2	3.3955e-06	28.452	0.00016236	0.00012937	3.7652e-05	1206.5	1.5702e-06	1.4901e-06	1279.5	257.64	1.5429e-06	1.4268e-06	319.14	89.081	70.201	20.496	1.5052e-06	28.903	113.104	252.861	118.378	93.475	217.599	240.322	93.378	100.386	227.263	274.889	100.362	106.516	106.763	113.594	226.407	113.438	-8191	255	
11310.023	1	1	0	0	0.17215	0.16952	0.096294	0.051532	0.13999	0.10493	0.32905	0.17509	0.10924	0.24508	0.16082	0.2787	0.1359	0.25132	0.036679	0.17823	-3.8646	-4.6792	-4.5521	-4.3812	-4.6958	-4.525	-4.475	-4.8187	-4.1875	-4.5896	-4.7958	-4.0938	-4.6687	-4.4229	-4.3854	-4.9708	204.008	403.227	206.567	132.086	331.563	432.290	343.974	262.457	308.167	335.081	252.199	437.027	395.931	389.582	237.227	374.937	0.00053038	0.00030888	0.00011363	1218.4	2.5729e-06	3.352e-06	1293.3	258.63	7.5439e-06	1.9067e-06	319.64	88.884	70.388	20.192	3.8251e-06	28.626	0.00016258	0.00013087	3.5403e-05	1206	1.5016e-06	1.4292e-06	1277.5	257.05	1.4912e-06	1.4197e-06	317.57	88.442	69.8	20.466	1.4139e-06	28.884	118.148	156.142	213.251	93.577	233.745	253.506	93.507	100.620	224.444	221.653	100.452	106.595	107.234	113.484	175.264	113.289	-8191	255	
11310.142	1	1	0	0	0.036731	0.18671	0.027386	0.20725	0.017905	0.11462	0.1203	0.24906	0.032798	0.25735	0.12524	0.065084	0.071724	0.25317	0.18467	0.14233	-3.9875	-4.4479	-4.6562	-4.4979	-4.6438	-4.6062	-4.3708	-4.8771	-4.2417	-4.4292	-4.9521	-4.2458	-4.5521	-4.5625	-4.0938	-4.8958	436.336	110.934	308.466	425.713	289.852	343.073	116.248	432.522	255.413	338.714	174.610	173.747	192.307	119.777	394.172	95.690	0.00049917	0.00039116	0.00010547	1207.7	3.6695e-06	2.2244e-06	1281.8	256.81	3.6496e-06	3.713e-06	320.67	88.415	70.617	20.15	4.0296e-06	28.439	0.00015985	0.00013268	3.557e-05	1200.5	1.509e-06	1.3836e-06	1273.2	256.52	1.4918e-06	1.4539e-06	318.11	88.403	69.863	20.393	1.4644e-06	28.786	116.485	165.451	192.449	93.433	250.652	236.845	93.615	100.434	208.976	212.295	100.265	106.507	107.015	114.118	252.534	113.661	-8191	255	
11310.238	1	1	0	0	0.093566	0.17698	0.09219	0.099965	0.03386	0.13753	0.17084	0.26562	0.13913	0.11994	0.22846	0.097545	0.21907	0.26763	0.27324	0.21623	-4.1167	-4.2271	-4.6813	-4.4437	-4.4583	-4.4479	-4.35	-4.7521	-4.4604	-4.3729	-4.85	-4.2167	-4.6229	-4.5375	-4.2167	-4.6479	394.400	295.926	318.378	153.397	100.849	193.291	114.210	402.891	235.901	149.310	392.533	418.029	259.279	437.819	423.035	98.992	0.0004907	0.00024687	7.7748e-05	1208.6	3.9013e-06	2.2746e-06	1286.7	257.69	5.6969e-06	2.8592e-06	319.66	88.353	70.417	20.07	4.222e-06	28.393	0.00015681	0.00013024	3.6556e-05	1199.5	1.5188e-06	1.3924e-06	1273.7	256.36	1.4708e-06	1.4051e-06	317.9	88.222	69.768	20.32	1.3342e-06	28.694	116.331	171.582	167.042	93.492	239.764	258.806	93.678	100.697	238.692	257.413	100.173	106.663	107.182	113.936	205.238	113.339	-8191	255	
11310.334	1	1	0	0	0.10976	0.062403	0.026154	0.10885	0.17488	0.092042	0.04427	0.14699	0.088173	0.022929	0.030503	0.18301	0.1313	0.23834	0.17703	0.11382	-4.1583	-4.225	-4.7958	-4.3979	-4.5667	-4.7271	-4.1937	-4.7312	-4.4875	-4.2417	-4.8812	-4.3604	-4.45	-4.6042	-4.2	-4.6271	222.845	336.412	108.050	102.546	103.727	152.897	312.763	374.466	354.845	185.844	356.024	107.044	421.709	376.499	278.717	176.354	0.00053697	0.00024739	0.00010997	1200.9	3.6985e-06	4.2651e-06	1262	253.06	6.1105e-06	3.8034e-06	311.14	87.256	69.282	19.713	2.6749e-06	28.027	0.00015293	0.00012254	3.3044e-05	1191.5	1.3854e-06	1.3086e-06	1257.4	251.89	1.3713e-06	1.3329e-06	311.71	87.19	68.617	20.018	1.4209e-06	28.268	117.711	172.091	189.813	93.561	231.741	225.755	93.349	100.614	206.343	243.948	100.456	106.831	106.788	113.927	210.764	113.532	-8191	255	
11310.430	1	1	0	0	0.089569	0.057389	0.03677	0.06828	0.12316	0.10934	0.28254	0.23367	0.15131	0.25451	0.20173	0.019357	0.067277	0.27532	0.13724	0.1754	-4.275	-4.2354	-4.8208	-4.4688	-4.4229	-4.8771	-4.4792	-4.6458	-4.6646	-4.175	-4.8333	-4.2625	-4.2937	-4.9146	-4.1583	-4.4896	117.035	257.555	140.201	151.260	401.003	439.024	86.727	355.865	387.768	180.839	394.300	374.401	362.714	317.412	122.936	172.168	0.00048347	0.0004453	9.0394e-05	1185	2.9795e-06	2.2439e-06	1271.7	253.17	5.7998e-06	3.6311e-06	314.12	87.948	68.953	19.924	5.9789e-06	28.07	0.00015414	0.00013024	3.427e-05	1183.5	1.4913e-06	1.3921e-06	1259.7	252.42	1.4518e-06	1.4485e-06	313.53	87.289	68.768	20.145	1.4434e-06	28.45	123.144	177.351	193.643	93.553	227.653	252.364	93.639	100.799	209.513	242.659	100.453	106.844	106.895	113.983	193.843	113.680	-8191	255	
11310.526	1	1	0	0	0.19042	0.061294	0.083214	0.22243	0.21128	0.099835	0.19336	0.14783	0.17622	0.22609	0.045339	0.24651	0.081644	0.068599	0.10759	0.032093	-4.3729	-4.0833	-4.6083	-4.4062	-4.2188	-4.8667	-4.6104	-4.7271	-4.6042	-4.2125	-4.8146	-4.6125	-4.3271	-4.8583	-4.4167	-4.5396	364.861	185.431	368.229	268.542	164.069	120.767	370.354	379.018	376.906	212.826	333.569	112.999	246.618	185.646	410.678	352.675	0.00056238	0.00016596	9.4486e-05	1203.6	2.0315e-06	3.1986e-06	1278.9	253.37	3.5867e-06	3.0733e-06	314.06	88.297	69.52	19.8	2.7413e-06	27.967	0.00015892	0.0001281	3.6376e-05	1191.7	1.5331e-06	1.4265e-06	1263.5	252.82	1.4568e-06	1.3942e-06	313.94	87.654	69.117	20.107	1.4161e-06	28.442	113.899	135.004	167.867	93.518	238.525	232.673	93.381	100.694	225.437	250.479	100.729	107.099	107.308	113.925	240.502	113.348	-8191	255	
11310.622	1	1	0	0	0.12635	0.23266	0.15461	0.10519	0.226	0.14068	0.31944	0.17449	0.093683	0.27161	0.098385	0.035093	0.058141	0.089396	0.07407	0.044355	-4.4521	-4.2521	-4.5938	-4.8417	-4.2458	-4.9021	-4.525	-4.525	-4.8187	-4.0604	-4.7812	-4.5854	-4.1792	-4.8271	-4.55	-4.4896	236.287	403.477	175.085	425.938	355.106	295.807	339.290	90.535	96.507	393.627	115.486	135.293	425.798	198.938	156.211	173.214	0.00054909	0.00034641	7.1942e-05	1200.3	5.1284e-06	2.757e-06	1274.7	254.26	4.1e-06	3.2292e-06	314.18	87.855	69.776	19.891	4.422e-06	28.069	0.0001609	0.00012968	3.5335e-05	1191.7	1.5233e-06	1.3381e-06	1264.3	253.45	1.4189e-06	1.3519e-06	314.46	87.526	69.121	20.214	1.3147e-06	28.447	113.771	174.959	182.773	93.562	204.090	247.072	93.448	100.454	207.230	231.076	100.291	106.854	106.977	113.706	255.685	112.979	-8191	255	
11310.743	1	1	0	0	0.10011	0.14441	0.10636	0.17367	0.25291	0.23909	0.13658	0.11499	0.17131	0.21463	0.13362	0.19921	0.20506	0.030239	0.21612	0.30245	-4.4563	-4.2188	-4.6146	-4.6479	-4.2604	-4.7042	-4.4729	-4.5062	-4.9042	-4.2583	-4.7896	-4.8354	-4.2146	-4.7458	-4.6375	-4.4042	230.705	156.307	249.921	291.442	86.323	417.770	104.292	355.179	137.281	251.732	156.944	405.930	377.578	116.655	362.154	411.754	0.00048448	0.00010367	0.00010066	1195.2	2.8858e-06	8.8202e-07	1267.7	251.62	6.1238e-06	2.226e-06	311.57	87.739	68.456	19.901	6.94e-06	28.013	0.00014384	0.0001211	3.1535e-05	1185.2	1.3741e-06	1.2474e-06	1257.9	251.85	1.2711e-06	1.2495e-06	311.86	87.441	68.675	20.134	1.2231e-06	28.44	117.701	209.549	145.682	93.678	190.732	267.456	93.374	100.644	189.424	247.075	100.042	106.947	107.044	113.740	208.376	113.744	-8191	255	
11310.839	1	1	0	0	0.15095	0.20654	0.087108	0.17318	0.099955	0.13601	0.24017	0.15216	0.24155	0.16178	0.23351	0.17154	0.16593	0.14349	0.073644	0.1442	-4.5542	-4.1438	-4.4375	-4.9396	-4.3271	-4.7208	-4.6583	-4.2875	-4.75	-4.2625	-4.5	-4.8042	-4.2875	-4.7729	-4.4146	-4.3438	150.700	225.014	195.444	414.645	386.479	428.285	359.604	337.406	114.134	436.946	380.430	362.516	335.936	96.425	195.780	401.163	0.00051182	0.00033823	0.00011223	1196.6	4.6929e-06	1.8093e-06	1272.4	253.81	4.7395e-06	3.2465e-06	312.84	88.09	69.61	19.869	2.9988e-06	28.265	0.00014445	0.00011471	3.1518e-05	1185.6	1.3277e-06	1.2292e-06	1260.2	252.46	1.3163e-06	1.2392e-06	312.94	87.685	69.034	20.201	1.2091e-06	28.602	112.066	160.262	184.105	93.473	241.326	213.152	93.259	100.388	202.200	269.936	100.494	106.904	107.203	114.109	197.650	113.791	-8191	255	
11310.935	1	1	0	0	0.12886	0.1187	0.080407	0.2733	0.16382	0.087011	0.19741	0.25393	0.15439	0.011003	0.23791	0.2257	0.053626	0.26156	0.11647	0.088769	-4.5854	-4.3104	-4.3083	-4.9208	-4.3104	-4.7104	-4.8604	-4.3187	-4.7292	-4.3333	-4.4333	-4.8979	-4.2604	-4.7438	-4.7771	-4.2083	245.550	167.206	168.427	372.575	344.892	302.858	332.467	348.810	103.930	279.386	406.684	330.483	352.020	222.600	409.645	334.937	0.00051792	0.00019528	0.00013858	1198.7	1.0612e-06	3.9209e-06	1267.5	254.55	2.2067e-06	2.7413e-06	313.01	88.037	69.651	19.994	2.8526e-06	28.008	0.00014766	0.00011486	3.0369e-05	1185.5	1.3628e-06	1.2109e-06	1258.5	252.51	1.2813e-06	1.2423e-06	313.5	87.727	69.028	20.233	1.2296e-06	28.553	117.478	187.288	177.098	93.549	225.404	258.209	93.587	100.723	177.715	225.976	100.584	106.548	107.030	113.748	205.917	113.165	-8191	255	
11311.031	1	1	0	0	0.081147	0.13958	0.22615	0.32337	0.15952	0.0019239	0.17037	0.15441	0.10016	0.037796	0.076828	0.1788	0.25271	0.16916	0.13929	0.097613	-4.4292	-4.4938	-4.3125	-4.9208	-4.1292	-4.7333	-4.8708	-4.2292	-4.7188	-4.35	-4.3875	-4.9604	-4.3125	-4.6312	-4.6042	-4.3083	111.219	407.075	397.374	402.592	440.937	180.000	387.663	363.108	390.659	326.214	196.178	415.648	266.038	110.123	349.373	270.287	0.0004966	0.00045372	5.1756e-05	1184.2	4.8662e-06	3.3512e-06	1261	253.98	4.995e-06	3.0809e-06	313.67	87.643	69.112	19.801	4.2259e-06	27.994	0.00013962	0.00010928	3.2941e-05	1184.4	1.2764e-06	1.1653e-06	1254.9	252.39	1.1922e-06	1.1407e-06	311.53	87.22	68.495	19.998	1.0836e-06	28.255	113.197	168.049	266.447	93.359	236.218	227.256	93.374	100.681	186.272	261.854	100.290	106.480	107.377	113.958	214.545	113.221	-8191	255	
11311.126	1	1	0	0	0.1901	0.086547	0.049273	0.05227	0.16511	0.057617	0.16836	0.042041	0.085493	0.14694	0.084945	0.23707	0.24222	0.10131	0.045359	0.29445	-4.4479	-4.6229	-4.1188	-4.9375	-4.3354	-4.4833	-4.9167	-4.3938	-4.5771	-4.65	-4.3104	-4.6062	-4.3521	-4.4646	-4.5104	-4.3396	284.522	232.067	140.626	140.653	86.863	121.318	357.535	365.024	245.291	421.222	136.287	390.404	424.981	296.086	111.528	172.334	0.00050769	0.0002193	8.274e-05	1185.1	6.246e-06	3.4817e-06	1263.9	250.77	6.4383e-06	1.9525e-06	312.54	87.319	68.719	19.674	3.5679e-06	27.917	0.00012984	9.9682e-05	2.8748e-05	1174.4	1.1794e-06	1.1173e-06	1247.1	249.65	1.1991e-06	1.1003e-06	310.32	86.663	68.171	19.918	1.1009e-06	28.253	119.710	171.763	187.391	93.710	221.638	234.389	93.423	100.747	211.451	234.932	100.486	106.456	107.373	113.809	208.344	113.308	-8191	255	
11311.222	1	1	0	0	0.07613	0.13824	0.051585	0.26874	0.078927	0.28546	0.07193	0.14983	0.2125	0.030224	0.17456	0.20766	0.092266	0.091307	0.18759	0.20512	-4.2229	-4.7167	-4.1479	-5.0708	-4.3083	-4.3979	-5.0188	-4.3458	-4.4375	-4.7833	-4.2646	-4.8854	-4.3688	-4.1667	-4.8271	-4.4479	221.832	438.259	210.605	389.423	156.011	416.742	333.746	361.022	253.414	432.473	84.636	170.064	100.068	134.579	278.995	315.616	0.00051649	0.00022602	9.7152e-05	1184.1	3.8444e-06	3.8441e-06	1250.2	250.99	5.0937e-06	3.6649e-06	310.4	86.988	68.728	19.692	3.6405e-06	27.725	0.00013388	9.9385e-05	2.8273e-05	1171.2	1.1852e-06	1.1015e-06	1241.8	249.36	1.141e-06	1.0764e-06	309.42	86.679	68.039	19.898	1.0735e-06	28.166	118.208	221.576	214.430	93.408	203.743	273.548	93.560	100.828	205.839	225.069	100.464	106.687	106.953	114.067	218.678	113.433	-8191	255	
11311.318	1	1	0	0	0.062148	0.17091	0.18109	0.17678	0.16617	0.057674	0.31862	0.093262	0.14345	0.2539	0.11374	0.17602	0.12341	0.010685	0.13571	0.15599	-4.1188	-4.8375	-4.0229	-4.9375	-4.7229	-4.2042	-4.9417	-4.3896	-4.4979	-4.8417	-4.2979	-4.8417	-4.5854	-4.2854	-4.8812	-4.4688	383.803	201.106	422.316	96.209	256.324	147.027	379.973	326.197	132.595	195.826	237.175	98.373	93.948	218.172	386.502	105.585	0.00048832	0.00025484	7.3861e-05	1179.4	5.7284e-06	2.9865e-06	1254.1	250.57	4.9591e-06	2.0294e-06	311.08	86.937	68.136	19.655	3.0351e-06	27.752	0.00012569	9.8425e-05	2.8333e-05	1166.9	1.1782e-06	1.0724e-06	1241.9	248.92	1.1471e-06	1.0334e-06	309.17	86.503	67.951	19.892	1.0606e-06	28.161	119.251	143.749	174.160	93.831	211.860	266.292	93.417	100.812	204.332	289.110	100.327	106.729	107.143	114.171	196.288	113.413	-8191	255	
11311.439	1	1	0	0	0.21154	0.087678	0.22622	0.18825	0.14303	0.15965	0.11463	0.31928	0.15072	0.13237	0.14293	0.18897	0.018518	0.03053	0.17528	0.10974	-3.9646	-4.6083	-4.0958	-4.6917	-4.6562	-4.3771	-4.9771	-4.575	-4.4083	-4.8458	-4.2729	-4.6917	-4.6	-4.1062	-4.8042	-4.5062	293.778	303.727	232.162	410.683	244.589	278.464	240.727	380.284	230.119	300.028	140.645	391.487	316.306	375.240	323.583	97.335	0.00048296	0.00011442	8.2221e-05	1175.6	4.5844e-06	5.1688e-06	1254.4	249.65	7.0607e-06	5.5036e-06	308.83	86.476	68.358	19.57	3.2688e-06	27.656	0.00012941	9.5239e-05	2.7622e-05	1165.1	1.153e-06	1.0449e-06	1239.7	248.52	1.1264e-06	1.0669e-06	307.86	86.418	67.79	19.914	1.0777e-06	28.134	113.773	193.001	163.555	93.414	228.614	234.189	93.683	100.767	198.434	216.574	100.373	106.815	107.092	113.808	199.815	113.091	-8191	255	
11311.535	1	1	0	0	0.11033	0.056886	0.11048	0.3395	0.18454	0.23716	0.34629	0.15871	0.079778	0.13587	0.11798	0.22774	0.084551	0.19353	0.14831	0.14879	-4.1	-4.7479	-4.2083	-4.6542	-4.5667	-4.1646	-4.9271	-4.5563	-4.2063	-4.9083	-4.4646	-4.5312	-4.7688	-4.2771	-4.6021	-4.5625	180.159	99.599	413.755	399.200	155.457	416.431	383.525	427.170	250.246	400.167	421.848	346.178	353.671	405.610	208.148	262.498	0.00052392	0.00023436	0.00013247	1168.5	4.3842e-06	2.0098e-06	1251.3	250.01	4.9273e-06	3.4966e-06	308.91	86.971	68.254	19.556	4.8902e-06	27.701	0.00012982	9.2817e-05	2.7077e-05	1164.6	1.1701e-06	1.0753e-06	1238.1	248.35	1.1728e-06	1.0484e-06	308.17	86.515	67.827	19.86	1.088e-06	28.155	112.401	165.661	195.579	93.342	228.055	209.221	93.566	100.459	209.901	242.779	100.326	106.925	107.181	113.628	204.351	113.396	-8191	255	
11311.631	1	1	0	0	0.084224	0.10682	0.26729	0.30832	0.11773	0.20202	0.15081	0.20907	0.15741	0.19312	0.26119	0.25826	0.10522	0.059243	0.046596	0.26369	-3.9729	-4.8938	-4.1021	-4.6375	-4.7104	-4.2896	-4.7083	-4.65	-4.2063	-4.8271	-4.5	-4.3646	-4.7104	-4.2854	-4.5417	-4.5875	294.640	216.068	379.651	384.635	440.650	421.325	421.325	431.181	427.119	200.198	416.133	424.033	328.868	325.728	102.637	360.890	0.000539	0.00018415	7.5009e-05	1169.4	4.1612e-06	1.8172e-06	1242.3	249.26	3.8857e-06	2.8672e-06	310.02	86.247	68.366	19.605	2.9296e-06	27.956	0.00012714	9.7268e-05	2.6269e-05	1164	1.118e-06	1.0414e-06	1237	248.04	1.1398e-06	1.0233e-06	308.33	85.964	67.704	19.82	1.0462e-06	28.153	114.938	137.684	139.983	93.333	228.729	175.818	93.662	100.514	197.390	225.771	100.276	106.642	107.073	113.735	234.147	113.375	-8191	255	
11311.727	1	1	0	0	0.30572	0.21047	0.13007	0.098899	0.0040733	0.02447	0.15779	0.028341	0.14306	0.11614	0.15318	0.14346	0.077603	0.2137	0.11903	0.20122	-3.775	-4.6979	-4.4938	-4.5021	-4.85	-4.4292	-4.8208	-4.6771	-4.2146	-4.7063	-4.5167	-4.3625	-4.7458	-4.2833	-4.45	-4.825	377.071	331.059	116.804	343.760	242.477	440.714	248.798	357.798	126.052	416.635	364.964	103.641	439.114	385.674	92.609	220.590	0.00051767	0.00023834	0.00011932	1180.7	1.8786e-06	5.0498e-06	1251.9	248.92	3.0137e-06	2.2831e-06	308.32	86.453	68.792	19.417	3.6696e-06	27.591	0.00012856	9.454e-05	2.6454e-05	1163.9	1.1383e-06	1.0971e-06	1236	247.5	1.1229e-06	1.0396e-06	307.89	86.042	67.728	19.701	1.0825e-06	28.003	111.713	150.412	199.121	93.519	245.427	241.025	93.406	100.525	217.841	182.645	100.386	107.118	107.318	114.060	225.518	113.664	-8191	255	
11311.823	1	1	0	0	0.25387	0.14098	0.21698	0.23334	0.12625	0.091433	0.25413	0.16144	0.093897	0.10217	0.16086	0.1709	0.13759	0.23743	0.13318	0.32439	-3.7667	-4.7312	-4.4146	-4.3542	-4.8979	-4.225	-4.7104	-4.6667	-4.1667	-4.6417	-4.6042	-4.2937	-4.9292	-4.2583	-4.2979	-4.6479	424.362	213.658	200.112	407.727	267.951	344.179	416.974	370.096	90.767	356.511	327.665	202.411	402.629	91.840	398.412	390.479	0.0004962	0.00039972	6.3558e-05	1172.6	3.3779e-06	2.2925e-06	1247.3	249.06	5.5322e-06	3.8319e-06	307.91	86.703	67.769	19.458	6.3281e-06	27.545	0.00013266	9.8344e-05	2.7988e-05	1161.7	1.1645e-06	1.0751e-06	1233.1	247.3	1.1711e-06	1.1045e-06	306.55	86.019	67.285	19.705	1.1691e-06	27.964	111.636	171.734	203.954	93.794	201.911	250.637	93.611	100.561	201.227	243.824	100.253	106.679	106.843	114.091	220.014	113.573	-8191	255	
11311.920	1	1	0	0	0.060515	0.22996	0.089059	0.39614	0.12879	0.20167	0.18975	0.18108	0.052359	0.085305	0.13336	0.16275	0.064382	0.13695	0.031912	0.083082	-3.7167	-4.4938	-4.5771	-4.2417	-4.7042	-4.3417	-4.5062	-4.825	-4.1229	-4.3667	-4.7417	-4.2708	-4.7854	-4.4646	-4.3521	-4.8833	298.122	278.136	244.076	391.297	323.808	298.609	342.889	375.415	226.109	400.360	158.176	118.249	286.830	406.696	287.116	437.184	0.00048278	0.000272	8.4685e-05	1172.1	3.9514e-06	5.7617e-06	1242.2	248.01	5.9597e-06	4.6924e-06	307.72	86.258	67.751	19.415	4.8166e-06	27.371	0.00013223	0.00010468	2.8603e-05	1162.1	1.2617e-06	1.1743e-06	1231.6	246.58	1.2222e-06	1.135e-06	306.77	85.785	67.269	19.611	1.1828e-06	27.798	119.077	160.707	187.054	93.761	235.385	249.910	93.545	100.661	217.025	249.786	100.522	106.642	106.871	113.915	217.606	112.894	-8191	255	
11312.016	1	1	0	0	0.12547	0.26232	0.15232	0.071819	0.065439	0.28793	0.2641	0.13407	0.15685	0.17595	0.15673	0.3549	0.18481	0.027593	0.061013	0.095684	-3.8292	-4.4875	-4.5354	-4.375	-4.6896	-4.3604	-4.4708	-4.8875	-4.2771	-4.5229	-4.7917	-4.2354	-4.7688	-4.4104	-4.1417	-4.9521	350.836	357.654	249.330	145.075	243.660	441.556	300.692	353.162	165.859	102.710	145.599	228.190	90.919	94.523	252.428	404.870	0.0005266	0.00033343	5.5377e-05	1169.4	3.3466e-06	4.875e-06	1239.2	248.13	4.353e-06	1.5409e-06	306.47	86.128	67.377	19.152	3.3246e-06	27.525	0.00014219	0.00011093	3.0079e-05	1161.7	1.2547e-06	1.2199e-06	1233.7	246.83	1.2667e-06	1.1944e-06	306.11	85.646	67.307	19.613	1.2388e-06	27.829	116.791	193.648	210.290	93.667	233.246	264.325	93.324	100.761	236.307	231.999	100.155	106.697	107.390	113.863	221.879	113.516	-8191	255	
11312.112	1	1	0	0	0.082682	0.17784	0.1267	0.098101	0.081553	0.052579	0.1031	0.31809	0.056162	0.39992	0.092346	0.039517	0.12236	0.10748	0.13276	0.11115	-3.8875	-4.3812	-4.5604	-4.3313	-4.6188	-4.4104	-4.4271	-4.9667	-4.3854	-4.3021	-4.7	-4.35	-4.6229	-4.6792	-4.2958	-4.9313	189.456	207.521	326.852	83.204	111.478	138.890	324.406	356.423	134.765	132.614	271.324	298.886	160.495	385.506	294.622	383.863	0.00050654	0.00020428	9.5441e-05	1177.4	3.7944e-06	7.6664e-07	1252.2	248.33	5.5562e-06	1.4231e-06	307.07	85.339	67.659	19.539	4.7867e-06	27.614	0.00014126	0.00011223	3.0117e-05	1163.4	1.2717e-06	1.2148e-06	1234.2	246.73	1.2124e-06	1.2145e-06	306.58	85.493	67.32	19.681	1.2794e-06	27.924	115.629	151.316	129.116	93.584	232.334	161.013	93.553	100.835	237.831	267.493	100.308	107.037	107.571	113.971	217.201	113.683	-8191	255	
11312.231	1	1	0	0	0.14038	0.091986	0.16888	0.27286	0.10296	0.20155	0.20971	0.14598	0.15948	0.29028	0.27948	0.16939	0.29043	0.07334	0.033647	0.16447	-4.0833	-4.4688	-4.7708	-4.3187	-4.5521	-4.7542	-4.3875	-4.7562	-4.2812	-4.4542	-4.9708	-4.3417	-4.7	-4.6958	-4.2104	-4.9958	367.802	354.830	423.492	432.163	99.616	421.122	292.141	398.910	328.355	196.140	89.949	325.116	97.495	260.529	198.326	190.947	0.00048407	0.00030528	8.5249e-05	1181.2	4.0048e-06	3.5969e-06	1257.5	248.47	5.8505e-06	9.9177e-07	308.57	86.237	68.522	19.671	2.6709e-06	27.589	0.00014192	0.0001153	3.0549e-05	1167.3	1.3152e-06	1.2235e-06	1238.7	247.28	1.332e-06	1.2738e-06	307.67	85.786	67.746	19.756	1.3281e-06	27.96	116.193	142.205	193.252	93.742	200.964	237.477	93.619	100.867	200.622	253.288	100.611	106.772	107.340	113.883	203.501	113.413	-8191	255	
11312.327	1	1	0	0	0.1612	0.041754	0.1121	0.21491	0.039741	0.096881	0.25578	0.28153	0.20365	0.087398	0.26164	0.15257	0.31184	0.011906	0.040228	0.19598	-4.1479	-4.2854	-4.7875	-4.4354	-4.4542	-4.5646	-4.2333	-4.6813	-4.5521	-4.2479	-5.0396	-4.275	-4.3187	-4.7146	-4.1583	-4.6312	100.295	349.974	309.571	327.862	102.975	242.731	416.340	382.103	418.334	138.205	114.334	316.662	349.429	400.765	178.117	406.202	0.0005242	0.00046663	5.4678e-05	1188.6	4.971e-06	2.8733e-06	1261	250.67	5.3225e-06	9.0968e-07	309.33	87.096	68.608	19.464	1.556e-06	27.703	0.00014917	0.00011722	3.2131e-05	1174.1	1.4325e-06	1.2735e-06	1245.1	248.37	1.3842e-06	1.3142e-06	308.52	86.397	67.882	19.767	1.3363e-06	28.018	116.803	170.089	166.789	93.782	234.517	228.055	93.524	100.626	191.014	307.207	100.197	106.794	107.075	114.479	203.220	113.552	-8191	255	
11312.423	1	1	0	0	0.078415	0.15587	0.12338	0.08156	0.088319	0.14531	0.39445	0.10743	0.12672	0.15985	0.15287	0.080403	0.10715	0.25921	0.075223	0.12031	-4.2458	-4.2396	-4.7521	-4.3354	-4.4854	-4.8646	-4.3292	-4.7958	-4.4396	-4.2604	-4.9313	-4.3417	-4.3979	-4.7625	-4.0167	-4.5854	88.451	205.458	166.796	315.562	328.492	332.314	384.548	389.006	293.484	157.869	401.453	88.646	381.086	399.039	436.640	422.623	0.00050448	0.00023009	0.00015081	1189.6	4.3292e-06	2.0429e-06	1270.4	251.65	5.5293e-06	4.0605e-06	310.66	87.052	68.876	19.513	2.8878e-06	27.725	0.00015372	0.00012089	3.3719e-05	1176.8	1.4561e-06	1.3331e-06	1250.9	249.29	1.4575e-06	1.3697e-06	309	86.287	67.952	19.795	1.4083e-06	28.036	117.351	181.384	180.606	93.752	236.561	221.725	93.735	100.734	196.897	233.619	100.484	106.640	107.326	114.040	229.711	113.845	-8191	255	
11312.519	1	1	0	0	0.054022	0.19813	0.25558	0.069447	0.22061	0.23477	0.243	0.24318	0.16792	0.12031	0.15276	0.070205	0.0077238	0.34572	0.036239	0.27781	-4.2896	-4.1208	-4.9229	-4.6292	-4.3104	-4.7604	-4.5062	-4.6667	-4.5833	-4.2125	-4.7812	-4.5271	-4.3792	-4.7937	-4.1417	-4.6271	146.264	411.132	180.684	374.189	384.786	407.334	344.641	306.483	165.789	307.120	388.798	321.066	159.983	396.691	173.236	143.757	0.00049047	0.00036207	5.3748e-05	1196.9	3.4224e-06	4.3536e-06	1269.5	251.97	2.7542e-06	2.1179e-06	311.94	86.923	68.321	19.786	4.3054e-06	27.84	0.00015448	0.00012888	3.4993e-05	1181	1.496e-06	1.4639e-06	1251.1	249.72	1.5006e-06	1.4406e-06	310.61	86.4	68.17	19.89	1.5183e-06	28.094	119.539	206.274	143.037	93.722	235.208	265.064	93.634	100.673	189.768	256.178	100.335	106.652	107.539	113.988	219.487	113.426	-8191	255	
11312.615	1	1	0	0	0.15669	0.16769	0.088314	0.16663	0.11283	0.137	0.12026	0.10244	0.089201	0.094975	0.19842	0.1428	0.30402	0.15064	0.26256	0.18609	-4.4563	-4.25	-4.6729	-4.6167	-4.2729	-4.8313	-4.5979	-4.5458	-4.8313	-4.3292	-4.7146	-4.7167	-4.3562	-4.7917	-4.4167	-4.4479	356.760	330.689	358.353	420.059	287.780	178.359	94.497	127.264	217.554	395.512	397.228	281.679	121.275	310.410	309.875	189.370	0.00048522	0.00030942	0.00010373	1198.2	4.3795e-06	3.0269e-06	1273.1	253.31	6.2217e-06	1.5525e-06	312.59	87.785	68.976	19.669	2.8336e-06	27.909	0.00016119	0.00013488	3.7504e-05	1186.2	1.5969e-06	1.4691e-06	1260.5	251.31	1.5888e-06	1.5067e-06	311.17	87.021	68.454	19.983	1.5951e-06	28.239	115.588	184.317	186.734	93.709	250.406	222.783	93.494	100.688	204.464	249.915	100.602	106.999	106.876	114.340	227.821	113.776	-8191	255	
11312.711	1	1	0	0	0.090868	0.2631	0.097026	0.43504	0.023405	0.24611	0.24935	0.21661	0.17719	0.11129	0.17032	0.30273	0.3669	0.18308	0.12078	0.19349	-4.4104	-4.2125	-4.5479	-4.8125	-4.1896	-4.7562	-4.6646	-4.4771	-4.9125	-4.15	-4.7167	-4.7063	-4.2042	-4.7229	-4.4604	-4.4313	385.602	405.703	312.332	420.949	432.982	384.662	398.741	350.377	229.240	214.605	82.505	377.680	371.503	394.415	205.303	326.185	0.0004955	6.7682e-05	0.00011082	1209.9	3.8893e-06	4.3961e-07	1279.8	255.06	3.6216e-06	2.3633e-06	315.32	88.188	69.201	19.944	5.1252e-06	28.05	0.00016921	0.00014679	4.1215e-05	1195.1	1.7431e-06	1.6069e-06	1264.9	252.51	1.7007e-06	1.6352e-06	313.02	87.437	68.9	20.078	1.6469e-06	28.344	118.288	175.119	166.473	93.663	242.235	401.733	93.377	100.364	233.876	281.202	100.495	106.781	107.403	114.099	211.079	113.695	-8191	255	
11312.832	1	1	0	0	0.13928	0.19402	0.099882	0.094087	0.18693	0.4056	0.17689	0.27181	0.085725	0.21211	0.020755	0.15974	0.21434	0.076582	0.20998	0.15419	-4.5104	-4.2604	-4.4187	-4.925	-4.0396	-4.7542	-4.7083	-4.3875	-4.7188	-4.2438	-4.5708	-4.7083	-4.4417	-4.8187	-4.4646	-4.1958	421.843	302.508	253.326	104.401	269.127	403.770	310.041	382.378	364.456	197.284	214.534	173.295	401.908	101.427	138.584	392.509	0.00046688	0.00030877	8.3965e-05	1215.1	4.0656e-06	4.0448e-06	1285.7	254.63	4.3121e-06	2.8946e-06	314.35	88.234	69.347	19.783	3.9273e-06	27.955	0.00017319	0.00015381	4.1777e-05	1197.8	1.7265e-06	1.5577e-06	1268.3	252.52	1.6297e-06	1.6186e-06	312.8	87.308	68.821	20.001	1.6111e-06	28.288	117.885	174.089	187.751	93.382	251.497	254.686	93.464	100.699	227.432	278.621	100.282	106.801	107.259	114.159	200.630	113.206	-8191	255	
11312.928	1	1	0	0	0.048737	0.13237	0.16338	0.17436	0.21198	0.16917	0.21413	0.090277	0.089063	0.040389	0.10956	0.088168	0.056061	0.13829	0.16514	0.23606	-4.3625	-4.4146	-4.4979	-5.0167	-4.2104	-4.4458	-4.7	-4.3583	-4.7729	-4.5083	-4.3833	-4.7812	-4.1396	-4.6646	-4.7104	-4.1729	354.721	229.986	226.075	110.531	142.189	185.736	415.534	435.809	198.020	129.938	104.338	88.408	331.912	439.036	342.619	399.504	0.00053512	0.00030783	8.8287e-05	1208.8	4.6051e-06	3.3809e-06	1281.8	254.67	6.1636e-06	3.2917e-06	314.28	87.902	69.548	19.872	3.0263e-06	28.079	0.00017267	0.0001459	3.9516e-05	1194.8	1.6664e-06	1.5859e-06	1265.8	252.19	1.5983e-06	1.5784e-06	313.01	87.162	68.642	20	1.5641e-06	28.247	112.654	188.583	158.909	93.389	221.638	168.940	93.544	100.894	233.168	268.008	100.401	106.635	107.050	113.765	171.924	113.532	-8191	255	
11313.023	1	1	0	0	0.083803	0.07309	0.36721	0.21789	0.065318	0.12205	0.28659	0.22655	0.12594	0.14225	0.44474	0.23699	0.052683	0.20299	0.18291	0.14312	-4.425	-4.2562	-4.3771	-4.9271	-4.2042	-4.5604	-4.8438	-4.3042	-4.6792	-4.3729	-4.35	-4.8313	-4.2625	-4.5667	-4.7562	-4.2521	275.787	360.452	117.908	353.546	263.033	404.319	354.395	326.421	190.316	292.214	366.922	355.216	226.928	367.372	248.394	113.257	0.00051273	0.00044174	8.5405e-05	1208.9	2.7302e-06	5.023e-06	1278.5	253.9	3.7787e-06	3.0008e-06	313.46	87.472	69.185	19.732	5.3989e-06	27.902	0.00017001	0.0001436	3.9008e-05	1193.9	1.6408e-06	1.5205e-06	1262.8	252.03	1.6267e-06	1.5457e-06	311.96	86.882	68.777	19.958	1.5477e-06	28.235	115.174	199.822	177.885	93.536	223.324	225.269	93.651	100.556	209.798	301.780	100.424	106.566	107.663	114.027	222.662	113.929	-8191	255	
11313.119	1	1	0	0	0.18188	0.061042	0.13808	0.33373	0.26963	0.24679	0.23783	0.14011	0.10867	0.18955	0.11042	0.098759	0.19597	0.28799	0.24266	0.11197	-4.2979	-4.3938	-4.3438	-5.0646	-4.2646	-4.3854	-4.9771	-4.3479	-4.6396	-4.5958	-4.3042	-4.8167	-4.4833	-4.475	-4.8792	-4.3063	278.629	324.206	222.459	402.792	324.134	431.707	365.054	369.302	389.678	198.366	109.858	315.173	217.754	333.781	436.459	320.975	0.00051037	0.00038964	8.879e-05	1214	4.9235e-06	4.028e-06	1281.8	253.53	3.5117e-06	4.1902e-06	313.75	87.357	69.34	19.758	4.4592e-06	27.723	0.00016967	0.00014112	4.0264e-05	1195	1.7304e-06	1.5498e-06	1263.9	251.71	1.6199e-06	1.5507e-06	312.78	87	68.594	19.968	1.5409e-06	28.215	121.656	189.506	228.674	93.567	240.106	237.452	93.590	100.849	191.186	236.829	100.183	106.867	107.091	113.935	229.025	113.738	-8191	255	
11313.215	1	1	0	0	0.19925	0.167	0.19134	0.098602	0.10032	0.10244	0.26611	0.20779	0.035631	0.11187	0.026001	0.19489	0.082624	0.23109	0.031473	0.33865	-4.2604	-4.7833	-4.3146	-4.8875	-4.3896	-4.4938	-5.1229	-4.4187	-4.5938	-4.7063	-4.2104	-4.8812	-4.5771	-4.2667	-4.7937	-4.4875	380.481	207.206	371.992	418.411	234.495	112.254	376.778	104.623	252.049	242.287	137.866	408.316	417.409	105.781	292.695	409.807	0.00052294	0.00031997	0.00011349	1209.5	4.553e-06	4.4261e-06	1280.1	253.71	4.568e-06	2.5954e-06	313.84	87.964	68.725	19.749	5.9046e-06	27.834	0.00017128	0.00014329	3.9638e-05	1195.6	1.6346e-06	1.5496e-06	1265.5	251.48	1.6276e-06	1.5279e-06	312.02	87.158	68.587	19.97	1.4971e-06	28.123	114.332	147.832	188.776	93.556	202.095	219.759	93.458	100.960	192.216	237.662	100.249	106.743	107.444	113.983	211.285	113.662	-8191	255	
11313.311	1	1	0	0	0.069162	0.1948	0.23587	0.33572	0.099152	0.18513	0.30315	0.16412	0.14248	0.075275	0.19559	0.1574	0.10738	0.22948	0.098857	0.036539	-4.2896	-4.6167	-4.2083	-4.8604	-4.4062	-4.3604	-5.0708	-4.5208	-4.5583	-4.7937	-4.2562	-4.7583	-4.5792	-4.2667	-4.9854	-4.2771	207.115	242.325	419.086	98.669	99.304	392.842	435.140	372.447	271.440	321.598	388.815	162.033	159.735	284.627	437.429	327.348	0.00051291	0.00038235	0.0001443	1207.9	5.6836e-06	2.5902e-06	1275.9	253	2.9068e-06	4.6106e-06	313.44	87.186	68.749	19.743	4.4725e-06	27.782	0.00016971	0.00013621	3.9283e-05	1191.5	1.5866e-06	1.5454e-06	1262.2	251.59	1.5537e-06	1.4953e-06	311.98	86.825	68.494	19.939	1.5356e-06	28.137	113.372	183.637	208.935	93.536	220.457	244.123	93.535	100.372	257.868	244.959	100.309	106.892	107.632	114.056	247.942	113.532	-8191	255	
11313.407	1	1	0	0	0.059394	0.1215	0.028364	0.13098	0.1925	0.19554	0.28603	0.12809	0.19972	0.10584	0.014426	0.14468	0.026423	0.089406	0.15234	0.026301	-4.0333	-4.7708	-4.2438	-4.7229	-4.6687	-4.2792	-4.9917	-4.4542	-4.3917	-4.8583	-4.3208	-4.7271	-4.7604	-4.2167	-4.9146	-4.4062	441.382	137.538	359.498	326.189	99.587	336.036	390.391	299.624	184.738	107.579	441.089	122.850	375.148	244.168	118.451	317.668	0.00049368	0.00032985	6.1932e-05	1203	1.9391e-06	4.0244e-06	1278.8	253.32	4.8018e-06	2.1737e-06	314.05	87.514	69.276	19.718	2.791e-06	27.928	0.00016855	0.00013517	3.8458e-05	1190.1	1.6087e-06	1.478e-06	1260.7	251.63	1.5643e-06	1.4362e-06	311.98	86.787	68.393	19.941	1.5086e-06	28.136	113.317	174.761	193.173	93.643	213.772	280.693	93.415	100.780	212.256	227.724	100.369	107.030	107.166	113.945	221.397	113.390	-8191	255	
11313.528	1	1	0	0	0.05621	0.067233	0.24273	0.09404	0.030502	0.20166	0.27136	0.16855	0.10006	0.20441	0.17824	0.17857	0.085128	0.11998	0.090732	0.080759	-4.0938	-4.7146	-4.2396	-4.7688	-4.6125	-4.3562	-5.0396	-4.6687	-4.5021	-4.8333	-4.4875	-4.5854	-4.7708	-4.1917	-4.6687	-4.3771	91.487	260.089	236.855	106.314	113.323	190.257	369.689	434.579	197.724	424.310	92.471	234.030	340.497	126.199	307.583	181.548	0.00050603	0.00033343	0.00011632	1208.2	3.7086e-06	2.0471e-06	1273.8	252.84	6.4178e-06	4.6873e-06	313.74	87.368	68.663	19.627	2.5658e-06	27.623	0.0001701	0.00013693	3.9101e-05	1191.9	1.5995e-06	1.5167e-06	1261.7	251.36	1.586e-06	1.5125e-06	312.2	86.826	68.475	19.917	1.5312e-06	28.122	114.011	168.184	136.840	93.617	205.499	230.538	93.528	100.968	243.593	233.179	100.415	106.622	106.878	113.873	185.480	113.699	-8191	255	
#DATA ENDS
