BOXY.EXE: ISS Imagent and Oximeter Data Acquisition Program Version 0.80
Ascii Record File

#ACQ INFORMATION
2  Detector Channels 
16  External MUX Channels 
1  Auxiliary Channels 
5000  Waveform (CCF) Frequency (Hz)
1  Waveforms Skipped 
30  Waveforms Averaged 
1  Cycles Averaged 
16  Acquisitions per Waveform 
10.0806  Updata Rate (Hz) 

#FILE INFORMATION
TRUE -- External MUX Channel results are PARSED.
FALSE -- AC DC and Phase are NOT grouped.
TRUE -- Companion Program Settings File CREATED.
FALSE -- AC data not excluded
FALSE -- DC data not excluded
FALSE -- Phase data not excluded
FALSE -- Auxillary Chn. data not excluded
Tab delimiters

#CALIBRATION STATE
TRUE -- Waveform Calibration Values APPLIED.


#AUX CALIBRATION VALUES
Val Type	aux-1	

Term	1.0000e+00	
Factor	0.0000e+00	


#WF CALIBRATION VALUES
A = Detector Channel
Val Type	A-AC1	A-AC2	A-AC3	A-AC4	A-AC5	A-AC6	A-AC7	A-AC8	A-AC9	A-AC10	A-AC11	A-AC12	A-AC13	A-AC14	A-AC15	A-AC16	A-DC1	A-DC2	A-DC3	A-DC4	A-DC5	A-DC6	A-DC7	A-DC8	A-DC9	A-DC10	A-DC11	A-DC12	A-DC13	A-DC14	A-DC15	A-DC16	A-Ph1	A-Ph2	A-Ph3	A-Ph4	A-Ph5	A-Ph6	A-Ph7	A-Ph8	A-Ph9	A-Ph10	A-Ph11	A-Ph12	A-Ph13	A-Ph14	A-Ph15	A-Ph16	

Term	0.00000e+00	0.00000e+00	0.00000e+00	0.00000e+00	0.00000e+00	0.00000e+00	0.00000e+00	0.00000e+00	0.00000e+00	0.00000e+00	0.00000e+00	0.00000e+00	0.00000e+00	0.00000e+00	0.00000e+00	0.00000e+00	0.00000e+00	0.00000e+00	0.00000e+00	0.00000e+00	0.00000e+00	0.00000e+00	0.00000e+00	0.00000e+00	0.00000e+00	0.00000e+00	0.00000e+00	0.00000e+00	0.00000e+00	0.00000e+00	0.00000e+00	0.00000e+00	0.00000e+00	0.00000e+00	0.00000e+00	0.00000e+00	0.00000e+00	0.00000e+00	0.00000e+00	0.00000e+00	0.00000e+00	0.00000e+00	0.00000e+00	0.00000e+00	0.00000e+00	0.00000e+00	0.00000e+00	0.00000e+00	
Factor	1.00000e+00	1.00000e+00	1.00000e+00	1.00000e+00	1.00000e+00	1.00000e+00	1.00000e+00	1.00000e+00	1.00000e+00	1.00000e+00	1.00000e+00	1.00000e+00	1.00000e+00	1.00000e+00	1.00000e+00	1.00000e+00	1.00000e+00	1.00000e+00	1.00000e+00	1.00000e+00	1.00000e+00	1.00000e+00	1.00000e+00	1.00000e+00	1.00000e+00	1.00000e+00	1.00000e+00	1.00000e+00	1.00000e+00	1.00000e+00	1.00000e+00	1.00000e+00	X	X	X	X	X	X	X	X	X	X	X	X	X	X	X	X	

B = Detector Channel
Val Type	B-AC1	B-AC2	B-AC3	B-AC4	B-AC5	B-AC6	B-AC7	B-AC8	B-AC9	B-AC10	B-AC11	B-AC12	B-AC13	B-AC14	B-AC15	B-AC16	B-DC1	B-DC2	B-DC3	B-DC4	B-DC5	B-DC6	B-DC7	B-DC8	B-DC9	B-DC10	B-DC11	B-DC12	B-DC13	B-DC14	B-DC15	B-DC16	B-Ph1	B-Ph2	B-Ph3	B-Ph4	B-Ph5	B-Ph6	B-Ph7	B-Ph8	B-Ph9	B-Ph10	B-Ph11	B-Ph12	B-Ph13	B-Ph14	B-Ph15	B-Ph16	

Term	0.00000e+00	0.00000e+00	0.00000e+00	0.00000e+00	0.00000e+00	0.00000e+00	0.00000e+00	0.00000e+00	0.00000e+00	0.00000e+00	0.00000e+00	0.00000e+00	0.00000e+00	0.00000e+00	0.00000e+00	0.00000e+00	0.00000e+00	0.00000e+00	0.00000e+00	0.00000e+00	0.00000e+00	0.00000e+00	0.00000e+00	0.00000e+00	0.00000e+00	0.00000e+00	0.00000e+00	0.00000e+00	0.00000e+00	0.00000e+00	0.00000e+00	0.00000e+00	-7.26684e+01	-1.29267e+02	-1.24907e+02	-1.81870e+02	-5.07789e+01	-7.05107e+01	-1.57448e+02	-1.62015e+02	-4.62257e+01	-6.38428e+01	-1.71264e+02	-1.72441e+02	-1.82777e+02	-1.77174e+02	-5.93073e+01	-1.49710e+02	
Factor	1.61401e-05	1.59208e-04	4.37177e-05	1.47657e-01	1.35887e-06	1.73276e-06	1.65095e-01	4.93827e-02	1.11487e-06	1.79644e-06	7.99830e-02	3.23445e-02	3.45062e-02	8.62477e-03	1.51567e-06	1.23023e-02	1.56454e-05	4.14206e-05	1.16575e-05	7.63936e-02	3.74041e-07	4.77579e-07	8.05275e-02	2.56400e-02	3.72120e-07	4.73555e-07	4.04468e-02	1.64577e-02	1.81944e-02	4.52542e-03	4.11768e-07	6.25502e-03	X	X	X	X	X	X	X	X	X	X	X	X	X	X	X	X	



#DISTANCE SETTINGS
A = Detector Channel
A-1	A-2	A-3	A-4	A-5	A-6	A-7	A-8	A-9	A-10	A-11	A-12	A-13	A-14	A-15	A-16	

2.5000e+00	3.0000e+00	2.5000e+00	3.0000e+00	2.0000e+00	3.0000e+00	1.5000e+00	3.0000e+00	3.0000e+00	3.0000e+00	3.0000e+00	3.0000e+00	3.0000e+00	3.0000e+00	1.5000e+00	3.0000e+00	

B = Detector Channel
B-1	B-2	B-3	B-4	B-5	B-6	B-7	B-8	B-9	B-10	B-11	B-12	B-13	B-14	B-15	B-16	

1.0000e+01	1.0000e+01	1.0000e+01	1.4400e+00	1.0000e+01	1.0000e+01	1.5100e+00	1.9400e+00	1.0000e+01	1.0000e+01	1.9900e+00	2.4900e+00	2.4100e+00	2.9000e+00	1.0000e+01	2.9800e+00	




#DATA BEGINS
time	group	step	mark	flag	A-AC1	A-AC2	A-AC3	A-AC4	A-AC5	A-AC6	A-AC7	A-AC8	A-AC9	A-AC10	A-AC11	A-AC12	A-AC13	A-AC14	A-AC15	A-AC16	A-DC1	A-DC2	A-DC3	A-DC4	A-DC5	A-DC6	A-DC7	A-DC8	A-DC9	A-DC10	A-DC11	A-DC12	A-DC13	A-DC14	A-DC15	A-DC16	A-Ph1	A-Ph2	A-Ph3	A-Ph4	A-Ph5	A-Ph6	A-Ph7	A-Ph8	A-Ph9	A-Ph10	A-Ph11	A-Ph12	A-Ph13	A-Ph14	A-Ph15	A-Ph16	B-AC1	B-AC2	B-AC3	B-AC4	B-AC5	B-AC6	B-AC7	B-AC8	B-AC9	B-AC10	B-AC11	B-AC12	B-AC13	B-AC14	B-AC15	B-AC16	B-DC1	B-DC2	B-DC3	B-DC4	B-DC5	B-DC6	B-DC7	B-DC8	B-DC9	B-DC10	B-DC11	B-DC12	B-DC13	B-DC14	B-DC15	B-DC16	B-Ph1	B-Ph2	B-Ph3	B-Ph4	B-Ph5	B-Ph6	B-Ph7	B-Ph8	B-Ph9	B-Ph10	B-Ph11	B-Ph12	B-Ph13	B-Ph14	B-Ph15	B-Ph16	aux-1	digaux	

25056.812	1	1	0	256	0.22443	0.16261	0.17667	0.47039	0.097587	0.32312	0.15094	0.034462	0.15459	0.045731	0.48575	0.21543	0.20089	0.056358	0.087881	0.099136	-4.4375	-4.4021	-4.2458	-4.9812	-4.2417	-4.4688	-4.9229	-4.325	-4.6542	-4.2625	-4.3917	-4.8542	-4.1875	-4.4708	-4.7354	-4.2271	22.537	-16.588	-17.466	233.242	47.669	94.847	231.824	-26.543	-17.947	125.601	267.638	218.595	174.625	206.833	206.891	-45.748	6.7871e-05	0.00034639	9.1444e-05	1198.1	2.1524e-06	3.1981e-06	1249.9	233.08	1.3446e-06	3.0302e-06	293.35	83.652	66.149	19.348	1.8164e-06	27.416	0.00014544	0.0001039	3.3345e-05	1171.9	2.1468e-06	1.0865e-06	1228.4	230.57	1.5296e-06	1.2322e-06	291.27	84.286	66.59	19.496	1.2996e-06	27.356	201.600	9.200	26.197	-52.013	119.901	79.244	-51.635	-44.479	92.691	67.028	-44.736	-37.848	-37.656	-30.753	141.380	-31.392	-8191	255	
25056.908	1	1	0	0	0.06073	0.039397	0.15826	0.23479	0.19844	0.050226	0.22369	0.163	0.091605	0.29782	0.12973	0.11549	0.18761	0.14915	0.072931	0.15202	-4.4583	-4.5917	-4.2708	-4.9313	-4.4021	-4.5646	-4.8542	-4.225	-4.7208	-4.4313	-4.3042	-4.8708	-4.3458	-4.4229	-4.7875	-4.4167	103.033	-9.784	273.890	263.254	58.744	173.868	189.983	246.617	-27.216	-55.220	184.336	251.632	-23.847	218.230	97.259	239.873	6.5002e-05	0.00038511	0.00010198	1197.3	1.1858e-06	3.8054e-06	1247.8	232.58	2.0336e-06	2.8597e-06	293.2	84.131	66.998	19.494	2.787e-06	27.318	0.00014661	0.00010994	2.997e-05	1173.2	2.0401e-06	1.2069e-06	1225.7	230.29	1.8366e-06	1.0132e-06	291.06	84.239	66.71	19.486	1.1469e-06	27.397	205.933	33.309	11.936	-51.996	118.722	84.045	-51.534	-44.613	112.454	91.390	-44.302	-37.842	-37.641	-30.912	113.233	-31.406	-8191	255	
25057.006	1	1	0	0	0.35034	0.11475	0.24014	0.25632	0.27632	0.26953	0.096735	0.23422	0.020005	0.18953	0.24379	0.11603	0.14048	0.10022	0.13406	0.051369	-4.3771	-4.6729	-4.2083	-4.925	-4.4	-4.4583	-5.0542	-4.3167	-4.5208	-4.8646	-4.2646	-4.975	-4.4062	-4.4375	-4.9437	-4.4021	153.318	278.648	35.437	279.003	40.587	230.680	183.827	282.629	243.314	28.363	-24.705	-51.861	-3.356	223.235	27.288	204.263	6.6985e-05	0.0003388	8.7161e-05	1197.6	2.1556e-06	2.8127e-06	1246.9	231.98	1.121e-06	2.7964e-06	292.81	83.574	66.644	19.455	2.6855e-06	27.165	0.00015042	0.00010079	3.558e-05	1173.2	2.044e-06	1.186e-06	1226.8	230.53	1.8056e-06	9.333e-07	290.74	84.151	66.666	19.503	1.3451e-06	27.307	206.389	27.355	41.819	-51.808	99.277	99.054	-51.583	-44.316	109.460	102.243	-44.700	-37.959	-37.495	-30.749	91.469	-31.451	-8191	255	
25057.102	1	1	0	0	0.15022	0.18959	0.018928	0.10982	0.1183	0.087731	0.31499	0.090188	0.095118	0.093944	0.12419	0.11614	0.067812	0.16764	0.074982	0.21892	-4.1292	-4.8083	-4.2292	-4.7937	-4.65	-4.3292	-4.8792	-4.4021	-4.5979	-4.7396	-4.2729	-4.8792	-4.4958	-4.3	-4.8812	-4.4271	163.500	249.109	-51.227	256.475	14.966	50.004	218.661	204.610	191.851	20.371	220.370	169.119	95.548	-8.949	13.741	165.006	6.453e-05	0.00030288	6.4131e-05	1201.8	1.7855e-06	3.1733e-06	1250.4	232.82	1.0591e-06	3.2552e-06	295.78	83.689	66.597	19.369	2.5914e-06	27.363	0.00014423	9.9927e-05	3.3758e-05	1175.5	2.1087e-06	1.4218e-06	1227	230.71	1.6621e-06	9.3626e-07	291.4	84.229	66.691	19.472	9.6422e-07	27.456	203.349	16.953	45.838	-51.633	137.560	96.212	-51.502	-44.593	100.842	89.383	-45.208	-37.689	-37.809	-31.386	104.590	-31.516	-8191	255	
25057.197	1	1	0	0	0.054335	0.081995	0.077005	0.31046	0.25319	0.18979	0.24081	0.24683	0.17511	0.13623	0.17515	0.13926	0.15969	0.14657	0.1465	0.097967	-4.0375	-4.7792	-4.2625	-4.8625	-4.5458	-4.2458	-4.9896	-4.475	-4.4021	-4.7396	-4.3604	-4.6458	-4.6229	-4.2292	-4.7542	-4.4854	151.996	163.095	-38.214	285.498	95.303	224.494	296.036	253.857	13.906	168.067	234.496	-22.885	133.829	157.679	-11.241	49.771	6.0256e-05	0.00032425	9.3838e-05	1197.7	1.5596e-06	1.643e-06	1244.2	233.09	1.4987e-06	2.8613e-06	294.2	84.003	66.419	19.394	2.9905e-06	27.288	0.00014286	0.00010096	3.3953e-05	1173.2	1.8873e-06	1.3114e-06	1225.7	230.98	1.7242e-06	7.2809e-07	291.55	84.26	66.709	19.456	1.2825e-06	27.349	205.960	38.314	35.803	-51.782	121.538	103.734	-51.434	-44.502	113.510	94.712	-44.982	-37.559	-37.103	-30.883	93.749	-31.302	-8191	255	
25057.293	1	1	0	0	0.083309	0.17454	0.25217	0.085028	0.10935	0.13292	0.15341	0.33952	0.10122	0.037146	0.26027	0.043818	0.15135	0.076404	0.16064	0.031962	-3.9542	-4.7771	-4.2167	-4.9479	-4.6438	-4.1708	-4.7958	-4.6396	-4.3562	-4.8354	-4.1917	-4.5542	-4.6646	-4.2125	-4.7562	-4.6604	63.256	192.685	54.237	-61.988	-45.143	244.810	-53.503	253.077	170.482	85.024	228.999	138.420	236.297	223.830	80.772	275.069	7.9344e-05	0.0003565	7.1455e-05	1197.5	1.6285e-06	2.5623e-06	1245.8	233.16	1.1055e-06	3.3062e-06	294.11	82.97	66.143	19.166	2.5899e-06	26.866	0.00013928	8.8278e-05	3.575e-05	1170.6	1.8983e-06	1.2566e-06	1222.8	230.48	1.8528e-06	9.6388e-07	290.34	83.575	66.116	19.261	1.3056e-06	27.033	199.911	17.156	6.976	-51.867	141.798	97.184	-51.692	-44.333	83.811	84.179	-44.973	-38.138	-37.593	-30.952	92.046	-31.181	-8191	255	
25057.389	1	1	0	0	0.076273	0.079019	0.049796	0.23593	0.3026	0.10735	0.31069	0.12343	0.056207	0.20706	0.24652	0.16284	0.095731	0.26682	0.0231	0.070575	-4.0292	-4.8229	-4.2875	-4.775	-4.6917	-4.2333	-4.8313	-4.7458	-4.1958	-4.7312	-4.4875	-4.5271	-4.6062	-4.2438	-4.6937	-4.6917	-7.923	117.060	157.004	280.706	-51.600	188.132	199.550	199.221	78.356	48.235	35.123	-2.758	15.463	-28.610	247.921	199.075	5.2251e-05	0.00020961	8.6117e-05	1195.9	1.6496e-06	2.6948e-06	1241.9	230.71	1.0601e-06	3.8478e-06	292.61	82.562	66.173	19.058	2.442e-06	26.717	0.00015782	9.0349e-05	2.9192e-05	1169.5	1.8663e-06	1.3521e-06	1221.8	228.98	1.9598e-06	1.0764e-06	289.79	83.261	65.989	19.12	1.4043e-06	26.975	206.393	24.076	36.671	-51.936	113.159	76.932	-51.502	-44.597	97.839	73.368	-44.596	-37.822	-37.412	-31.187	102.352	-31.361	-8191	255	
25057.508	1	1	0	0	0.060119	0.033257	0.079538	0.30126	0.16676	0.0049471	0.193	0.2042	0.25107	0.16431	0.20287	0.10664	0.066608	0.10381	0.059997	0.082841	-3.7896	-4.6292	-4.4167	-4.5021	-4.8167	-4.3354	-4.6792	-4.5875	-4.2688	-4.7771	-4.5062	-4.2896	-4.7583	-4.1625	-4.5083	-4.7958	88.403	286.967	202.862	272.941	38.022	104.093	215.484	101.451	-18.616	15.257	-28.339	161.188	193.883	236.995	49.381	231.386	7.1006e-05	0.0003252	9.8988e-05	1188.6	1.8002e-06	2.4151e-06	1237.5	230.52	1.1229e-06	4.1044e-06	291.54	82.585	65.736	18.988	2.7012e-06	26.922	0.00014743	9.9582e-05	3.4973e-05	1162.8	1.744e-06	1.189e-06	1216.5	228.14	1.9498e-06	8.741e-07	288.43	83.052	65.58	19.019	1.2816e-06	26.968	213.305	19.891	36.822	-51.880	136.135	92.691	-51.587	-44.403	93.704	78.195	-44.829	-38.135	-37.207	-30.488	110.444	-31.264	-8191	255	
25057.604	1	1	0	0	0.32494	0.15085	0.14931	0.07644	0.38061	0.19804	0.12983	0.090284	0.24074	0.067352	0.21076	0.25121	0.16375	0.36109	0.052832	0.19345	-3.8271	-4.6917	-4.4667	-4.3625	-4.7125	-4.3083	-4.6687	-4.8438	-4.1312	-4.7042	-4.6125	-4.15	-4.8896	-4.3354	-4.4229	-4.8146	199.103	260.772	-1.525	188.035	274.755	61.231	192.739	235.368	85.776	267.009	-1.544	21.796	167.809	224.470	255.296	89.554	6.255e-05	0.00027568	7.3915e-05	1182.1	1.8526e-06	2.5893e-06	1233.6	229.23	1.2976e-06	2.3907e-06	290.26	82.11	65.287	18.703	1.7005e-06	26.534	0.00016111	9.4318e-05	2.9678e-05	1157.7	1.8312e-06	1.5103e-06	1213.7	226.94	1.78e-06	1.0596e-06	286.9	82.555	65.268	18.82	1.4378e-06	26.726	187.879	27.795	39.389	-51.976	121.980	100.891	-51.456	-44.289	147.172	101.772	-44.726	-38.092	-37.538	-30.629	115.587	-31.346	-8191	255	
25057.699	1	1	0	0	0.13375	0.066035	0.11246	0.15488	0.14378	0.24721	0.083769	0.22527	0.092722	0.26104	0.049107	0.06503	0.25809	0.10804	0.071384	0.26112	-3.7917	-4.7417	-4.5396	-4.3167	-4.5979	-4.2458	-4.5062	-4.6583	-4.1208	-4.475	-4.6042	-4.1667	-4.8729	-4.3875	-4.4375	-4.8562	226.095	110.764	72.560	257.613	236.083	-22.851	278.924	221.494	261.250	-28.947	-55.638	56.713	162.379	207.665	61.386	32.767	5.9418e-05	0.00030657	8.0158e-05	1176.5	2.1105e-06	3.2037e-06	1234.7	228.91	1.0109e-06	2.5294e-06	290.39	81.364	65.482	18.685	1.8272e-06	26.756	0.00015916	0.0001108	3.0042e-05	1151	1.7798e-06	1.2347e-06	1210.3	226.16	1.8583e-06	9.8263e-07	286.33	81.984	65.082	18.768	1.5047e-06	26.785	206.413	20.751	28.370	-51.765	136.611	105.553	-51.637	-44.618	105.561	90.649	-44.693	-37.752	-37.565	-31.740	92.634	-31.685	-8191	255	
25057.773	1	1	0	0	0.089367	0.125	0.11511	0.19892	0.10041	0.14664	0.034243	0.068515	0.15463	0.16189	0.13495	0.071642	0.11292	0.11853	0.19017	0.06998	-3.7979	-4.6562	-4.6062	-4.3021	-4.6521	-4.4646	-4.475	-4.7875	-4.35	-4.5521	-4.7917	-4.2667	-4.8375	-4.3896	-4.1	-4.9146	80.966	197.623	231.237	253.673	155.632	217.271	249.196	292.326	188.049	11.828	230.513	267.580	34.194	251.333	178.726	249.712	6.4225e-05	0.0002944	7.573e-05	1171.1	2.0205e-06	3.4713e-06	1231.6	227.57	1.2616e-06	2.876e-06	288.33	81.492	64.68	18.682	2.2185e-06	26.682	0.00015456	0.00011926	2.7711e-05	1147.8	1.9263e-06	1.3531e-06	1209.3	225.64	1.9753e-06	1.0162e-06	284.95	81.956	64.685	18.751	1.5518e-06	26.745	212.258	8.197	36.984	-52.001	118.959	86.848	-51.440	-43.904	135.803	89.271	-44.779	-37.652	-37.611	-30.743	103.048	-31.825	-8191	255	
25057.893	1	1	0	0	0.064464	0.07458	0.090806	0.093278	0.30005	0.17267	0.1892	0.15154	0.18174	0.091606	0.24111	0.20467	0.16721	0.11856	0.224	0.088123	-3.7958	-4.3938	-4.575	-4.3208	-4.6042	-4.4833	-4.3396	-4.8729	-4.3438	-4.6104	-4.7458	-4.2104	-4.7583	-4.6	-4.1875	-4.9062	52.221	121.917	177.715	-21.244	243.492	269.480	245.992	185.555	172.350	236.256	189.468	8.208	-27.311	269.562	292.551	231.300	7.6078e-05	0.00021068	6.9786e-05	1167.8	1.9132e-06	3.2495e-06	1226.9	228.27	1.1533e-06	2.9628e-06	286.62	80.913	64.43	18.722	2.6872e-06	26.551	0.00015684	0.00011814	2.8172e-05	1141.7	2.0167e-06	1.1999e-06	1206.8	225.58	1.8505e-06	1.4305e-06	284.45	81.864	64.572	18.71	1.6153e-06	26.676	204.937	23.257	40.564	-51.969	105.698	89.512	-51.463	-44.512	123.261	96.372	-44.722	-37.793	-37.450	-31.394	96.793	-31.473	-8191	255	
25057.988	1	1	0	0	0.034038	0.10565	0.18509	0.32789	0.092165	0.052306	0.32021	0.26442	0.22187	0.086239	0.34921	0.21059	0.16889	0.1036	0.18662	0.1045	-4.0437	-4.3729	-4.8104	-4.3438	-4.5792	-4.6625	-4.2167	-4.8375	-4.4792	-4.3271	-4.8896	-4.225	-4.4437	-4.5833	-4.0875	-4.9083	282.158	165.810	242.865	248.874	294.264	-52.949	201.389	198.555	45.604	55.326	269.579	-26.620	86.404	287.863	260.640	-32.578	7.2056e-05	0.00021196	0.00010663	1161.8	1.5255e-06	3.6378e-06	1224.2	228.44	9.0155e-07	2.7768e-06	287.2	81.219	65.171	18.65	2.5007e-06	26.486	0.00015518	0.00011917	2.6521e-05	1139	2.1024e-06	1.1223e-06	1204.4	225.79	1.8172e-06	1.173e-06	284.18	81.789	64.801	18.697	1.4558e-06	26.654	206.332	49.547	13.269	-51.876	133.944	77.588	-51.586	-44.166	124.205	73.448	-44.388	-37.901	-37.704	-30.841	106.290	-31.117	-8191	255	
25058.086	1	1	0	0	0.054465	0.13343	0.20541	0.14297	0.31961	0.24365	0.24294	0.30764	0.11645	0.22049	0.20964	0.079439	0.16183	0.2057	0.13014	0.18192	-4.0667	-4.2458	-4.8396	-4.3875	-4.4292	-4.7771	-4.3583	-4.7833	-4.4688	-4.2875	-4.9604	-4.4187	-4.4938	-4.8667	-4.2708	-4.6604	94.102	46.715	238.992	241.266	142.248	26.489	178.453	259.731	-21.628	-13.464	246.242	-44.977	213.925	171.896	292.626	288.559	6.0328e-05	0.00034133	8.121e-05	1156.5	1.1165e-06	4.0706e-06	1226.7	227.07	1.1914e-06	2.9178e-06	287.94	81.238	64.797	18.637	1.7217e-06	26.692	0.00014221	0.00014868	2.2004e-05	1135.4	1.9879e-06	1.2079e-06	1202.7	225.04	1.6908e-06	1.4009e-06	284.67	81.859	64.793	18.706	1.4249e-06	26.696	208.812	34.534	33.243	-51.914	113.625	80.477	-51.589	-44.333	126.275	87.006	-44.745	-37.967	-37.871	-31.108	75.973	-31.451	-8191	255	
25058.182	1	1	0	0	0.066596	0.30656	0.090585	0.077471	0.21508	0.070815	0.077044	0.25338	0.10775	0.18931	0.091345	0.25169	0.082852	0.28078	0.2402	0.13757	-4.2521	-4.0833	-4.7854	-4.5667	-4.5875	-4.8229	-4.3417	-4.9187	-4.5854	-4.1104	-4.8771	-4.3417	-4.4583	-4.8875	-4.1667	-4.5792	-23.019	214.266	32.950	280.563	40.216	-42.357	98.932	227.190	249.341	-60.666	221.245	43.872	-33.753	28.115	233.658	253.147	5.6741e-05	0.00033234	8.5989e-05	1160.3	1.4555e-06	2.767e-06	1226.4	227.63	1.3453e-06	2.61e-06	288.12	81.384	64.341	18.569	2.1942e-06	26.404	0.00013797	0.00012918	2.4116e-05	1134.1	2.1663e-06	9.472e-07	1201.5	224.74	1.6226e-06	1.1119e-06	283.61	81.852	64.622	18.742	1.4669e-06	26.622	213.193	26.462	27.024	-51.793	124.928	102.869	-51.677	-44.480	111.615	104.332	-44.707	-38.095	-37.360	-31.538	113.492	-31.180	-8191	255	
25058.303	1	1	0	0	0.14111	0.11741	0.099575	0.096791	0.10058	0.067182	0.081257	0.26219	0.042044	0.088775	0.04628	0.15821	0.187	0.13084	0.032402	0.11819	-4.45	-4.3458	-4.7167	-4.5229	-4.2021	-4.8	-4.3896	-4.6896	-4.6896	-4.225	-4.9271	-4.5771	-4.4021	-4.8771	-4.3021	-4.5958	230.453	-21.059	-29.595	267.676	173.871	163.775	166.352	294.063	181.061	11.205	-7.983	243.484	-37.201	274.888	-24.002	156.571	5.7575e-05	0.00028821	7.1708e-05	1154	1.93e-06	2.5881e-06	1217.4	225.94	5.8913e-07	2.7577e-06	285.77	81.392	63.653	18.458	2.3014e-06	26.508	0.00014426	0.00012426	2.9751e-05	1131.8	2.0603e-06	8.6064e-07	1196.7	224.44	1.6745e-06	1.2904e-06	283.13	81.8	64.251	18.599	1.37e-06	26.652	201.122	24.520	33.350	-51.834	132.921	95.028	-51.642	-44.414	228.449	75.644	-44.550	-37.997	-37.516	-30.360	107.050	-31.627	-8191	255	
25058.373	1	1	0	0	0.11715	0.143	0.10565	0.22899	0.15006	0.041553	0.32022	0.23423	0.24883	0.13505	0.1413	0.21734	0.21276	0.17732	0.090564	0.10017	-4.5229	-4.1917	-4.7104	-4.7583	-4.3396	-4.9313	-4.4375	-4.6771	-4.7312	-4.1667	-4.7521	-4.5771	-4.4083	-4.8792	-4.2688	-4.4938	122.456	288.604	-25.712	-58.831	142.525	12.366	237.017	250.346	35.561	161.559	-61.796	-15.234	53.161	38.813	-4.494	-56.235	6.9143e-05	0.00020865	9.9246e-05	1153.2	1.9994e-06	3.2343e-06	1221.5	225.44	1.5458e-06	3.2062e-06	283.79	81.288	64.183	18.553	1.4255e-06	26.515	0.00013615	0.00012547	3.1208e-05	1129.6	1.9209e-06	1.1213e-06	1198.1	223.76	1.4714e-06	1.4335e-06	282.34	81.47	64.297	18.616	1.3846e-06	26.667	201.673	15.187	21.015	-51.842	145.616	94.368	-51.733	-44.350	95.951	83.290	-44.701	-37.818	-37.489	-31.112	89.559	-31.381	-8191	255	
25058.494	1	1	0	0	0.050761	0.14261	0.18426	0.18411	0.076915	0.11665	0.24413	0.26067	0.17688	0.018487	0.26546	0.22965	0.2149	0.065788	0.062032	0.10927	-4.5333	-4.1917	-4.7354	-4.6937	-4.1604	-4.7375	-4.4792	-4.55	-4.95	-4.0333	-4.6917	-4.8979	-4.2188	-4.7333	-4.5625	-4.3729	4.892	-0.557	-59.237	192.713	297.321	-45.138	230.801	218.457	116.166	-16.939	269.942	224.044	292.215	217.649	-41.279	246.674	6.7094e-05	0.00025229	6.8312e-05	1148.4	1.8989e-06	3.0133e-06	1212.3	225.31	6.0027e-07	3.5647e-06	286.13	80.566	64.232	18.353	2.8958e-06	26.408	0.00013031	0.00011814	2.8415e-05	1124.1	2.199e-06	7.6612e-07	1192.3	222.93	1.3047e-06	1.2816e-06	282.14	81.421	64.046	18.567	1.3374e-06	26.593	206.410	50.130	22.001	-51.851	124.622	76.270	-51.803	-44.302	124.399	81.097	-44.758	-37.776	-37.475	-30.986	115.399	-31.438	-8191	255	
25058.590	1	1	0	0	0.064825	0.22487	0.097766	0.19473	0.22681	0.092778	0.33361	0.28636	0.088266	0.080681	0.099767	0.047528	0.19139	0.097475	0.13385	0.17831	-4.6188	-4.3083	-4.5938	-4.7375	-4.2229	-4.7812	-4.5542	-4.3208	-4.7229	-4.3313	-4.4812	-4.8708	-4.2146	-4.7521	-4.5771	-4.1625	175.288	179.135	165.400	-58.876	32.308	153.992	225.532	265.320	257.398	287.522	103.465	-47.859	-45.330	-32.592	62.472	142.989	5.8952e-05	0.00025079	7.2484e-05	1145.6	1.187e-06	3.3584e-06	1212.5	224.44	1.8087e-06	3.0084e-06	285.97	80.762	63.801	18.576	2.137e-06	26.327	0.00013184	0.00011744	2.2805e-05	1121.5	2.0346e-06	8.1686e-07	1189.2	222.85	1.4582e-06	1.0744e-06	282.47	81.499	64.14	18.616	1.3005e-06	26.486	191.008	34.647	20.719	-51.765	129.820	86.239	-51.435	-44.199	109.089	91.677	-44.677	-37.782	-37.865	-30.869	103.548	-31.763	-8191	255	
25058.686	1	1	0	0	0.13931	0.22968	0.11425	0.17937	0.14656	0.25208	0.075945	0.13532	0.059124	0.18164	0.12402	0.20127	0.14298	0.20229	0.10321	0.037841	-4.5208	-4.3708	-4.45	-5.0687	-4.3458	-4.6354	-4.8	-4.2354	-4.8	-4.2875	-4.4271	-4.775	-4.2792	-4.7625	-4.6625	-4.2604	271.213	-60.483	143.958	276.630	19.199	77.606	-3.646	-55.526	268.887	157.638	-4.698	276.978	286.186	198.872	218.392	253.590	6.19e-05	0.00030373	7.2686e-05	1143.8	1.5824e-06	3.9515e-06	1206.7	225.28	1.7448e-06	3.8954e-06	282.56	80.486	64.365	18.407	1.1954e-06	26.588	0.00012419	0.000102	2.2829e-05	1118.7	1.9029e-06	9.7705e-07	1185.2	222.71	1.4854e-06	9.8756e-07	280.84	81.163	64.336	18.564	9.8138e-07	26.609	203.845	28.371	20.789	-51.957	110.403	98.018	-51.634	-44.378	116.308	95.568	-44.548	-37.795	-37.423	-31.180	101.944	-31.232	-8191	255	
25058.781	1	1	0	0	0.036624	0.26967	0.11622	0.28648	0.24682	0.30989	0.22992	0.078298	0.11537	0.108	0.13417	0.11594	0.11816	0.21386	0.066126	0.082641	-4.55	-4.5229	-4.4042	-5.0396	-4.2396	-4.5667	-4.7708	-4.1917	-4.5687	-4.3708	-4.4062	-4.8542	-4.2937	-4.6604	-4.7479	-4.2104	39.513	290.216	47.786	239.414	155.999	149.676	235.004	-55.994	-45.442	131.912	188.547	284.825	-50.860	-22.397	269.067	200.037	5.8684e-05	0.00026624	9.7555e-05	1140.6	1.0436e-06	2.5494e-06	1213.3	224.22	1.0635e-06	3.6842e-06	283.18	80.422	63.904	18.519	3.5681e-06	26.371	0.00013302	0.00010381	2.7832e-05	1115.6	1.8312e-06	8.9447e-07	1186	222.14	1.497e-06	1.0339e-06	281.26	81.156	64.264	18.591	1.2036e-06	26.527	196.054	49.029	40.592	-51.988	119.231	79.926	-51.639	-44.283	138.769	83.594	-44.223	-38.007	-37.188	-30.603	108.245	-31.034	-8191	255	
25058.900	1	1	0	0	0.091274	0.15445	0.16323	0.37941	0.10949	0.017482	0.14997	0.13506	0.13283	0.13396	0.074706	0.168	0.16677	0.075192	0.089968	0.15873	-4.4021	-4.4833	-4.35	-5.0042	-4.3354	-4.425	-5.0021	-4.1813	-4.8521	-4.7	-4.2396	-4.8917	-4.3812	-4.4771	-4.7833	-4.1104	-23.470	174.181	132.950	232.907	139.439	242.290	-30.206	39.575	268.757	118.200	258.708	273.311	257.431	267.903	88.167	89.695	6.8649e-05	0.00026415	9.2244e-05	1140.5	1.4837e-06	3.1552e-06	1206.2	223.83	1.2508e-06	3.4237e-06	283.07	80.165	64.074	18.557	2.2955e-06	26.631	0.00014729	9.7511e-05	3.2471e-05	1117.5	1.938e-06	9.5715e-07	1183.5	222.11	1.4489e-06	9.698e-07	280.7	81.17	64.207	18.564	1.0097e-06	26.608	192.146	26.965	46.663	-51.909	100.099	78.821	-51.581	-44.474	96.790	81.796	-44.819	-37.539	-37.283	-30.560	82.778	-31.126	-8191	255	
25058.998	1	1	0	0	0.10143	0.037873	0.13956	0.16867	0.14393	0.099239	0.1566	0.26828	0.063021	0.1021	0.23658	0.25259	0.13092	0.15924	0.14928	0.27602	-4.175	-4.5938	-4.2375	-5.0229	-4.3542	-4.2958	-5.0542	-4.35	-4.5458	-4.8375	-4.2083	-4.6979	-4.35	-4.4	-4.8	-4.2896	121.141	178.325	183.744	-30.406	41.896	80.428	133.378	285.175	-28.320	23.898	288.508	244.487	27.585	83.330	35.462	278.145	6.3227e-05	0.00032019	6.4917e-05	1138.4	1.474e-06	2.8807e-06	1198.8	224.5	1.6467e-06	2.6966e-06	284.14	80.45	64.318	18.586	1.4831e-06	26.515	0.000134	8.9831e-05	2.8294e-05	1113.7	1.779e-06	9.1337e-07	1182.5	222.28	1.7358e-06	8.9975e-07	280.68	81.25	64.181	18.617	7.7035e-07	26.454	211.150	25.579	32.616	-51.737	116.272	93.481	-51.608	-44.423	117.085	112.998	-44.706	-37.926	-37.714	-30.756	124.413	-31.073	-8191	255	
25059.068	1	1	0	0	0.13922	0.092802	0.14813	0.14842	0.060973	0.15366	0.27414	0.12881	0.1842	0.21003	0.17808	0.18069	0.044811	0.11637	0.24376	0.20384	-4.2417	-4.6896	-4.1521	-4.7833	-4.3833	-4.1646	-5.0396	-4.3271	-4.5479	-4.6646	-4.2333	-4.8167	-4.5479	-4.3083	-4.875	-4.4	-58.664	258.458	165.070	249.495	214.330	214.406	163.918	211.297	280.337	84.704	296.912	-33.263	287.282	242.186	130.553	166.023	6.9122e-05	0.00032546	8.4785e-05	1140.6	1.6298e-06	2.2029e-06	1202.7	224.23	1.1544e-06	3.3792e-06	283.81	80.449	64.059	18.547	1.2509e-06	26.436	0.00013432	7.5679e-05	2.9994e-05	1114.4	1.6427e-06	1.0278e-06	1183.2	221.83	1.4939e-06	1.1237e-06	281.18	81.14	64.207	18.551	1.0963e-06	26.514	205.801	21.003	26.818	-51.859	150.388	111.410	-51.420	-44.283	143.887	94.702	-44.724	-37.531	-37.337	-30.916	118.085	-31.036	-8191	255	
25059.164	1	1	0	0	0.20103	0.28889	0.11232	0.20835	0.14104	0.22427	0.2966	0.098273	0.1664	0.14075	0.26533	0.073981	0.089667	0.11271	0.23546	0.1567	-4.1875	-4.8438	-4.3542	-4.8583	-4.7375	-4.3979	-5.075	-4.2667	-4.4646	-4.775	-4.3313	-4.7396	-4.6875	-4.2333	-4.8313	-4.4	139.052	145.663	-60.424	280.006	21.959	235.210	221.362	268.095	-18.922	147.253	243.626	222.699	9.657	-2.353	226.957	255.687	6.9311e-05	0.00033294	7.594e-05	1139.1	1.8612e-06	3.1827e-06	1201.6	224.04	1.4485e-06	2.215e-06	283.91	79.664	64.246	18.569	2.2413e-06	26.432	0.00014351	0.00010122	2.9581e-05	1113.6	1.779e-06	1.0556e-06	1181.8	222.27	1.4869e-06	7.6262e-07	280.67	80.893	64.229	18.607	9.8138e-07	26.513	199.991	21.862	33.599	-51.855	140.453	100.221	-51.544	-44.117	124.893	94.765	-44.673	-37.550	-37.583	-31.045	115.185	-31.361	-8191	255	
25059.285	1	1	0	0	0.25174	0.049518	0.1374	0.13691	0.15271	0.093161	0.30943	0.16385	0.078194	0.16826	0.27619	0.07734	0.051107	0.18063	0.14588	0.16856	-4.0875	-4.7896	-4.225	-4.6438	-4.6667	-4.1458	-4.9417	-4.5167	-4.3167	-4.8979	-4.4	-4.6125	-4.7312	-4.3042	-4.6687	-4.5792	289.079	9.168	207.804	275.098	228.257	226.861	271.856	270.255	-3.813	211.712	272.587	-20.959	160.509	145.962	93.987	-36.678	5.7803e-05	0.00029127	7.996e-05	1130.6	2.3503e-06	2.5347e-06	1200.1	223.3	1.3532e-06	2.6449e-06	281.87	80.235	64.319	18.457	1.6973e-06	26.49	0.00014003	7.9303e-05	3.5094e-05	1112.3	1.7393e-06	1.0059e-06	1180.9	221.89	1.5172e-06	7.9715e-07	279.7	81.021	64.134	18.529	9.4278e-07	26.491	196.046	24.820	40.373	-51.811	108.365	89.152	-51.449	-44.335	129.420	93.209	-44.435	-37.610	-37.234	-31.163	113.683	-31.576	-8191	255	
25059.383	1	1	0	0	0.16527	0.12359	0.033998	0.30008	0.12795	0.088906	0.13438	0.076243	0.17589	0.14349	0.052236	0.085875	0.18622	0.18866	0.16237	0.16464	-3.9667	-4.7542	-4.2042	-4.6792	-4.6188	-4.1729	-4.8792	-4.5771	-4.0958	-4.8146	-4.2312	-4.3438	-4.75	-4.1813	-4.6625	-4.4771	233.960	273.888	105.161	243.337	139.212	189.829	187.605	-49.347	-50.649	233.365	180.012	-15.767	243.830	-62.000	-39.796	237.933	5.9915e-05	0.00034728	7.9651e-05	1135.6	2.8689e-06	2.2734e-06	1202.8	224.83	1.1271e-06	2.9158e-06	281.84	80.291	64.06	18.472	2.2017e-06	26.344	0.00014462	7.3608e-05	3.0601e-05	1109.6	1.7182e-06	9.9297e-07	1180.6	221.67	1.5776e-06	7.7545e-07	279.62	80.814	64.166	18.589	1.0895e-06	26.452	193.994	34.647	32.467	-51.789	136.578	82.188	-51.316	-44.515	115.729	111.298	-44.886	-37.646	-37.275	-30.810	98.234	-31.277	-8191	255	
25059.477	1	1	0	0	0.15144	0.10491	0.048227	0.089677	0.035468	0.15373	0.16683	0.30042	0.12393	0.22513	0.1436	0.16784	0.1952	0.053096	0.10486	0.18353	-4.0292	-4.7708	-4.3313	-4.6104	-4.7896	-4.3125	-4.8417	-4.6646	-4.1562	-4.9208	-4.5271	-4.4917	-4.8458	-4.4229	-4.5104	-4.6062	49.080	16.201	-35.263	181.980	297.395	-9.563	-61.221	253.873	160.792	256.614	154.973	187.625	24.329	240.330	2.020	273.242	6.292e-05	0.00034761	7.4443e-05	1133.5	1.998e-06	4.0977e-06	1200.3	223.46	7.8699e-07	3.9887e-06	283.25	80.439	63.305	18.439	3.4295e-06	26.18	0.00014654	7.4385e-05	2.8877e-05	1108.5	1.6427e-06	1.2218e-06	1178.6	221.21	1.5288e-06	7.1329e-07	279.84	80.944	63.677	18.537	9.8653e-07	26.385	206.624	29.775	34.318	-51.897	89.849	83.438	-51.663	-44.301	102.393	88.303	-44.710	-37.593	-37.314	-31.076	108.455	-31.404	-8191	255	
25059.574	1	1	0	0	0.14099	0.045998	0.18134	0.23791	0.25136	0.14589	0.11617	0.076049	0.095364	0.15174	0.21615	0.036398	0.095243	0.11304	0.1273	0.13277	-4.0062	-4.6896	-4.4938	-4.4563	-4.8604	-4.2542	-4.7125	-4.8604	-4.1833	-4.6604	-4.6208	-4.375	-4.8729	-4.2937	-4.5312	-4.8833	254.284	-36.562	-33.100	-45.867	12.696	23.034	195.232	163.206	63.293	201.246	223.853	91.671	213.748	-1.815	-48.671	124.043	6.7623e-05	0.00033536	9.3108e-05	1127.5	2.2604e-06	2.9778e-06	1200.3	223.09	1.1844e-06	3.2623e-06	284.61	80.669	63.978	18.436	3.4528e-06	26.355	0.00015065	7.1882e-05	1.8336e-05	1107.1	1.546e-06	1.1333e-06	1177.9	221.33	1.7381e-06	7.271e-07	280.37	81.158	63.996	18.524	1.171e-06	26.412	207.742	31.547	35.096	-51.571	112.970	68.259	-51.569	-44.569	136.759	87.081	-44.701	-37.523	-37.601	-31.188	103.798	-31.276	-8191	255	
25059.670	1	1	0	0	0.19194	0.2566	0.088551	0.20635	0.087532	0.096294	0.26602	0.18137	0.10144	0.025348	0.087407	0.22507	0.17918	0.050576	0.11745	0.020913	-3.7542	-4.7312	-4.6146	-4.3562	-4.7688	-4.3854	-4.6833	-4.925	-4.3021	-4.5687	-4.8271	-4.1708	-4.8	-4.5917	-4.4396	-4.8063	9.779	238.902	290.534	235.401	283.549	185.835	190.929	239.018	207.734	-54.914	253.651	242.932	21.439	233.985	74.250	243.126	6.3233e-05	0.00024138	8.2643e-05	1129.8	1.6411e-06	3.1934e-06	1198.3	222.85	1.3901e-06	2.3854e-06	282.98	80.712	63.737	18.457	2.573e-06	26.337	0.00014133	7.1192e-05	2.2708e-05	1106.8	1.6146e-06	9.9894e-07	1177	221.06	1.6443e-06	8.228e-07	280.68	81.093	63.835	18.583	1.1667e-06	26.396	204.802	38.176	32.036	-51.789	137.911	96.927	-51.314	-44.283	113.358	97.781	-44.591	-37.674	-37.132	-30.576	116.675	-31.110	-8191	255	
25059.766	1	1	0	0	0.11025	0.11485	0.19612	0.30939	0.15001	0.12631	0.13002	0.2375	0.18499	0.15775	0.087901	0.20575	0.11097	0.13567	0.15365	0.14016	-3.8792	-4.6229	-4.65	-4.2896	-4.7708	-4.4313	-4.5479	-5.0354	-4.2458	-4.6646	-5.0021	-4.3542	-4.6438	-4.4938	-4.4375	-4.6667	75.082	67.724	-11.424	252.668	248.003	3.819	204.150	167.372	-3.119	165.843	-19.964	-35.222	24.652	154.049	-6.713	255.908	6.0644e-05	0.00033745	0.00010907	1130.3	2.3506e-06	3.6015e-06	1194.2	222.94	1.1603e-06	3.7105e-06	283.55	81.051	64.033	18.568	1.6457e-06	26.27	0.00014452	7.5938e-05	2.3582e-05	1108.2	1.5788e-06	8.8651e-07	1177.2	220.96	1.7218e-06	8.6917e-07	280.24	80.966	64.104	18.595	1.1212e-06	26.462	209.525	31.263	37.928	-51.808	123.460	100.233	-51.515	-44.332	122.446	91.446	-44.437	-37.727	-37.103	-30.786	92.567	-31.415	-8191	255	
25059.861	1	1	0	0	0.10494	0.06414	0.102	0.073036	0.14367	0.16537	0.071694	0.10368	0.15465	0.22976	0.15268	0.13804	0.20397	0.027151	0.0064949	0.10193	-4.0167	-4.6542	-4.6438	-4.2771	-4.75	-4.5563	-4.5667	-4.8896	-4.3604	-4.5042	-4.9417	-4.2896	-4.8375	-4.5667	-4.3	-4.9583	-1.141	30.185	291.094	269.387	127.871	45.899	219.664	270.618	252.782	46.284	229.289	-20.161	-0.832	181.999	286.809	271.690	7.1425e-05	0.00020588	0.00010517	1132.9	1.5443e-06	3.0647e-06	1200.2	223.75	7.2116e-07	2.9212e-06	282.54	79.969	64.082	18.495	3.2497e-06	26.237	0.00014928	9.2506e-05	2.2854e-05	1108.5	1.8203e-06	8.0492e-07	1179.5	221.43	1.342e-06	8.7608e-07	279.77	80.848	64.231	18.547	1.2808e-06	26.446	209.620	38.758	40.480	-51.803	105.757	90.106	-51.643	-44.488	167.040	105.539	-44.755	-37.459	-37.770	-30.628	97.015	-31.142	-8191	255	
25059.982	1	1	0	0	0.14371	0.049656	0.11665	0.18656	0.15002	0.17496	0.17305	0.30353	0.20562	0.11237	0.21818	0.1267	0.18571	0.20502	0.11887	0.095864	-3.8833	-4.4854	-4.7083	-4.425	-4.4812	-4.5792	-4.4313	-4.8875	-4.2854	-4.1771	-4.8625	-4.35	-4.6979	-4.7729	-3.9729	-4.6958	204.582	-27.617	54.012	251.456	-61.816	-45.400	267.611	173.078	276.992	109.945	226.895	55.059	-9.382	281.436	288.270	212.285	6.8081e-05	0.00020464	7.059e-05	1133.5	2.806e-06	3.3629e-06	1201.4	223.92	7.1157e-07	3.0745e-06	283.83	80.805	63.898	18.64	2.555e-06	26.406	0.00014267	8.6983e-05	1.36e-05	1110.9	1.7884e-06	1.189e-06	1180.6	221.99	1.611e-06	1.0458e-06	280.15	81.101	64.012	18.661	1.1881e-06	26.43	202.650	42.984	43.500	-51.681	122.744	95.291	-51.285	-44.367	112.715	75.842	-44.757	-37.577	-37.747	-30.816	105.424	-31.522	-8191	255	
25060.078	1	1	0	0	0.039218	0.23439	0.16848	0.22597	0.095927	0.1181	0.098446	0.039224	0.13047	0.16527	0.098004	0.30645	0.13335	0.096231	0.16428	0.10481	-4.1333	-4.2125	-4.8479	-4.5083	-4.5104	-4.6438	-4.3229	-4.8479	-4.5	-4.3	-5.1104	-4.3479	-4.5896	-4.7354	-4.3562	-4.6937	236.741	115.978	-53.653	270.244	130.922	-52.877	164.920	281.304	27.310	207.490	-41.650	265.276	215.002	-50.892	5.009	2.507	6.4394e-05	0.00021524	8.9964e-05	1131.4	1.8646e-06	2.8153e-06	1201.7	224.22	1.1883e-06	3.0322e-06	283.68	81.05	63.617	18.545	2.6915e-06	26.311	0.00014707	9.3628e-05	2.1615e-05	1110.9	1.9099e-06	8.9845e-07	1178.7	221.7	1.5435e-06	1.2401e-06	280.66	81.23	63.991	18.623	1.4343e-06	26.477	196.728	23.417	30.743	-51.645	128.445	88.787	-51.644	-44.115	146.150	94.453	-44.612	-37.792	-37.151	-31.148	87.768	-31.503	-8191	255	
25060.174	1	1	0	0	0.11886	0.076525	0.19977	0.1711	0.26416	0.085345	0.30752	0.22408	0.07931	0.12916	0.070282	0.098878	0.091434	0.22902	0.17699	0.31452	-4.0979	-4.1083	-4.7729	-4.4479	-4.4646	-4.8729	-4.4458	-4.7604	-4.6188	-4.4646	-4.9333	-4.45	-4.5208	-4.8771	-4.2583	-4.6875	56.478	173.662	13.250	188.328	-15.391	122.685	226.302	240.028	78.233	98.408	248.019	111.854	98.601	288.999	278.571	246.964	7.0515e-05	0.00031494	7.7626e-05	1129.5	1.1341e-06	3.5759e-06	1200.6	223.74	1.0365e-06	3.2708e-06	282.51	80.436	64.056	18.59	2.2642e-06	26.392	0.00014081	9.846e-05	2.1639e-05	1109.6	1.8679e-06	8.8949e-07	1179.7	221.68	1.3334e-06	1.1868e-06	280.27	81.082	64.105	18.603	1.2482e-06	26.505	208.433	16.978	29.561	-51.733	109.593	87.121	-51.529	-44.053	131.300	101.527	-44.950	-37.981	-37.568	-31.129	98.199	-31.157	-8191	255	
25060.270	1	1	0	0	0.064048	0.31444	0.26101	0.2182	0.18002	0.082622	0.17632	0.1139	0.17191	0.15982	0.12913	0.12283	0.28475	0.20475	0.1644	0.089861	-4.3042	-4.1104	-4.7521	-4.6771	-4.4187	-4.8833	-4.3771	-4.7521	-4.7458	-4.3708	-4.7229	-4.4896	-4.4	-4.8146	-4.1854	-4.8104	71.083	-15.722	275.394	288.550	-21.192	80.536	170.554	226.354	270.334	144.410	258.535	126.089	290.869	230.225	81.598	130.921	6.7331e-05	0.00023182	9.6851e-05	1135.8	1.9303e-06	3.1837e-06	1206.5	223.15	1.8157e-06	3.4747e-06	283.36	80.411	64.292	18.581	2.1331e-06	26.528	0.00014749	9.5354e-05	2.2756e-05	1111	1.9653e-06	7.0741e-07	1181.8	221.82	1.3714e-06	1.1158e-06	280.44	81.109	64.287	18.64	1.5759e-06	26.511	191.622	4.584	23.941	-51.552	111.917	68.654	-51.646	-44.334	122.232	87.132	-44.664	-37.921	-37.815	-30.991	131.612	-30.926	-8191	255	
25060.365	1	1	0	0	0.050985	0.12436	0.27136	0.32759	0.10302	0.065338	0.047327	0.19479	0.14004	0.093281	0.18673	0.17405	0.16264	0.23409	0.10196	0.024666	-4.4	-4.1042	-4.7021	-4.6188	-4.2292	-4.9083	-4.4167	-4.5542	-4.6833	-4.2042	-4.8562	-4.5875	-4.3604	-4.8479	-4.3146	-4.6479	292.472	232.016	105.539	260.864	244.133	154.667	47.157	261.319	178.074	274.448	178.624	-47.701	274.483	252.273	97.348	235.260	6.4198e-05	0.00030655	8.5401e-05	1130.3	2.0095e-06	2.5393e-06	1205.2	224.26	1.0749e-06	3.4841e-06	283.52	80.75	63.928	18.502	1.007e-06	26.324	0.0001323	0.00011952	1.6588e-05	1110.6	1.8718e-06	7.4721e-07	1182.3	222.02	1.4234e-06	1.2421e-06	280.71	81.313	63.994	18.588	1.0457e-06	26.449	207.024	46.154	29.193	-51.751	147.621	77.755	-51.409	-44.323	103.785	105.748	-44.739	-37.359	-37.586	-30.705	104.438	-31.177	-8191	255	
25060.463	1	1	0	0	0.094907	0.28456	0.10966	0.097908	0.12151	0.11281	0.21845	0.24431	0.011367	0.10025	0.036047	0.11299	0.19251	0.13809	0.10909	0.066009	-4.3562	-4.1229	-4.675	-4.5917	-4.2125	-4.8792	-4.6062	-4.5188	-4.7375	-4.3667	-4.8167	-4.7	-4.2979	-4.8021	-4.5104	-4.4375	105.090	137.715	115.581	24.353	57.845	278.128	235.412	211.785	72.074	287.792	233.797	293.247	-5.908	-57.742	51.097	270.106	7.1086e-05	0.00023714	9.2995e-05	1133.4	1.808e-06	2.9251e-06	1201.9	223.76	1.2555e-06	2.7608e-06	282.8	80.472	64.76	18.64	2.2301e-06	26.375	0.00013413	0.00010312	2.3072e-05	1110.3	1.7572e-06	9.1038e-07	1180.4	222.01	1.273e-06	1.1089e-06	280.01	81.107	64.421	18.649	1.2139e-06	26.489	200.429	25.640	26.185	-51.833	145.648	83.917	-51.432	-44.105	91.657	83.339	-44.868	-37.737	-37.451	-31.060	110.428	-31.267	-8191	255	
25060.580	1	1	0	0	0.040102	0.12334	0.2349	0.16134	0.17429	0.098028	0.28135	0.17272	0.10189	0.15033	0.13912	0.05541	0.017165	0.03805	0.21049	0.059876	-4.5625	-4.1521	-4.5479	-4.8438	-4.175	-4.8104	-4.6958	-4.3917	-4.8604	-4.2812	-4.7646	-4.7604	-4.1333	-4.6146	-4.5396	-4.4583	5.021	223.457	-45.859	291.155	54.023	-36.604	248.895	224.398	91.788	76.914	270.019	249.101	224.668	10.773	-2.332	158.596	5.9233e-05	0.00032181	8.7946e-05	1136.7	2.5609e-06	3.0199e-06	1200.1	223.05	1.3238e-06	3.4162e-06	283.98	80.606	64.457	18.535	2.2749e-06	26.491	0.00013713	9.3887e-05	2.5064e-05	1112	1.8725e-06	8.7755e-07	1179.6	221.58	1.3861e-06	1.174e-06	280.46	81.229	64.283	18.644	1.2559e-06	26.581	197.758	27.633	31.134	-51.808	109.892	91.771	-51.584	-44.459	130.721	85.739	-44.771	-37.867	-37.610	-30.909	99.460	-31.168	-8191	255	
25060.678	1	1	0	0	0.094494	0.03332	0.11006	0.32444	0.068579	0.12089	0.14303	0.29152	0.15264	0.059413	0.16463	0.2024	0.19594	0.043042	0.11676	0.16908	-4.425	-4.1958	-4.4583	-4.9917	-4.0896	-4.7021	-4.5021	-4.3542	-4.9396	-4.5292	-4.6188	-4.7188	-4.325	-4.5229	-4.5125	-4.0917	160.257	189.779	294.996	206.724	208.732	102.336	262.883	257.226	109.091	151.866	40.278	247.316	-2.869	74.702	82.763	230.444	6.1143e-05	0.00029861	8.0602e-05	1133.5	1.1454e-06	2.9339e-06	1201.3	224.1	8.9731e-07	2.7645e-06	283.63	80.665	64.283	18.577	1.7028e-06	26.187	0.00012784	0.00010554	2.4116e-05	1110	1.7892e-06	1.189e-06	1179	221.85	1.366e-06	1.0142e-06	280.5	81.231	64.301	18.688	1.2096e-06	26.392	198.544	39.661	40.017	-51.519	139.496	81.730	-51.655	-44.394	134.344	70.852	-44.584	-37.875	-37.290	-31.177	80.772	-31.417	-8191	255	
25060.773	1	1	0	0	0.16142	0.19322	0.2	0.070898	0.095997	0.11465	0.16371	0.27921	0.092923	0.149	0.13029	0.29257	0.16568	0.1998	0.08723	0.073697	-4.2063	-4.4313	-4.3604	-4.9521	-4.3542	-4.4354	-4.6833	-4.0771	-4.6667	-4.4833	-4.5146	-4.7542	-4.3292	-4.6	-4.6167	-4.0979	-11.504	169.666	-22.025	16.826	137.585	132.743	231.657	-31.416	110.168	234.905	142.083	250.984	254.967	-34.322	87.475	-23.924	6.6607e-05	0.00029811	7.6183e-05	1134.1	1.5821e-06	1.5849e-06	1199.1	225.17	1.035e-06	4.7189e-06	284.42	80.989	63.801	18.692	3.3807e-06	26.467	0.00013761	0.00010045	2.0546e-05	1110.8	1.9575e-06	7.2035e-07	1179	222.13	1.3877e-06	1.1326e-06	280.41	81.305	64.21	18.678	1.0148e-06	26.452	199.976	37.485	19.324	-51.651	125.042	92.843	-51.357	-44.183	114.951	83.416	-44.651	-37.538	-37.408	-30.411	100.575	-31.339	-8191	255	
25060.869	1	1	0	0	0.2623	0.06532	0.10228	0.22579	0.061029	0.10788	0.21173	0.097183	0.17216	0.019705	0.25812	0.29361	0.066959	0.3782	0.24512	0.24702	-4.4333	-4.3958	-4.3708	-5.0333	-4.225	-4.5104	-4.7896	-4.2479	-4.8	-4.6021	-4.35	-4.9458	-4.2729	-4.5292	-4.6458	-4.0458	-6.394	217.958	72.459	281.176	-44.116	221.984	-61.785	245.586	269.658	254.310	243.882	-34.105	146.080	-51.113	-10.763	-48.265	5.1191e-05	0.0001084	6.579e-05	1137.1	1.7762e-06	4.2405e-06	1205.3	223.44	1.4451e-06	2.7041e-06	284.24	80.747	63.712	18.661	3.085e-06	26.266	0.00013286	9.5613e-05	3.3175e-05	1111.5	1.8141e-06	1.2158e-06	1181.5	221.91	1.5017e-06	8.1787e-07	280.66	81.333	64.138	18.682	1.1375e-06	26.427	201.920	34.584	34.012	-51.856	99.767	83.038	-51.633	-44.546	104.938	121.010	-44.702	-37.899	-37.150	-31.027	113.721	-31.380	-8191	255	
25060.967	1	1	0	0	0.16002	0.036385	0.21514	0.18043	0.043052	0.1378	0.27547	0.11812	0.079353	0.2911	0.22255	0.11994	0.2152	0.11457	0.12602	0.034586	-4.3208	-4.6125	-4.0917	-4.8917	-4.2688	-4.3875	-4.9979	-4.2958	-4.5854	-4.7312	-4.3104	-4.8625	-4.4521	-4.4437	-4.7417	-4.45	-35.152	221.050	65.579	246.865	-5.721	208.759	171.176	31.062	106.833	77.622	-61.582	-2.985	18.798	271.461	11.150	93.379	5.8866e-05	0.00031369	8.3623e-05	1138.3	1.4275e-06	3.6778e-06	1200.1	225.13	1.0965e-06	3.7041e-06	283.88	80.541	63.712	18.649	3.1124e-06	26.083	0.000141	7.8009e-05	2.6108e-05	1112.8	1.6886e-06	9.3824e-07	1180.2	222.38	1.3203e-06	7.9912e-07	280.63	81.155	64.274	18.711	7.652e-07	26.32	203.028	35.260	19.950	-51.945	128.908	94.909	-51.567	-44.242	102.439	89.282	-44.935	-37.778	-37.327	-30.987	114.264	-31.056	-8191	255	
25061.061	1	1	0	0	0.10998	0.16055	0.096802	0.26234	0.07133	0.19225	0.24586	0.18674	0.016871	0.063281	0.19423	0.12525	0.16258	0.13799	0.02604	0.21753	-4.3708	-4.4812	-4.2146	-4.9354	-4.5062	-4.3583	-4.8417	-4.2833	-4.4458	-4.75	-4.2167	-4.6687	-4.3792	-4.3292	-4.8375	-4.2625	147.408	217.953	45.929	-55.950	17.449	125.844	165.523	206.650	45.814	270.786	-10.158	149.519	110.894	204.593	57.753	278.878	6.0653e-05	0.00032139	7.4175e-05	1134.9	1.4104e-06	2.8313e-06	1205.5	223.17	1.6078e-06	2.5615e-06	284.28	80.381	64.14	18.724	2.8355e-06	26.251	0.00013123	8.3186e-05	2.2659e-05	1112.9	1.7767e-06	7.8403e-07	1180.3	221.58	1.4644e-06	6.8764e-07	281.13	81.309	64.449	18.71	1.0792e-06	26.435	207.290	21.421	21.252	-51.552	107.216	89.708	-51.470	-44.422	107.131	111.148	-44.750	-37.748	-37.716	-30.562	99.206	-30.982	-8191	255	
25061.156	1	1	0	0	0.076311	0.15581	0.13574	0.29473	0.20442	0.10088	0.027372	0.19186	0.13918	0.092379	0.12566	0.177	0.15707	0.091489	0.031393	0.21763	-4.1292	-4.4854	-4.2229	-4.7167	-4.4417	-4.2354	-4.925	-4.4833	-4.35	-4.5854	-4.2125	-4.6333	-4.4208	-4.1646	-4.6792	-4.275	-57.346	26.182	281.465	215.861	73.528	284.414	152.555	203.565	285.014	122.097	249.261	22.932	49.033	126.014	50.574	154.036	5.618e-05	0.00026677	8.3282e-05	1136.4	2.1999e-06	2.5568e-06	1204.3	223.54	1.6105e-06	3.0717e-06	285.14	80.61	63.685	18.545	3.163e-06	26.394	0.00013631	8.6897e-05	3.2811e-05	1112.3	1.7564e-06	9.8998e-07	1180.9	221.6	1.7087e-06	5.5741e-07	280.65	81.284	64.023	18.673	1.0689e-06	26.451	217.022	23.274	19.525	-51.811	139.337	74.097	-51.375	-44.284	103.412	90.253	-44.582	-37.715	-37.752	-31.084	102.747	-31.443	-8191	255	
25061.254	1	1	0	0	0.24936	0.14991	0.19903	0.12612	0.14297	0.22635	0.24144	0.099977	0.063628	0.2367	0.15908	0.081636	0.10656	0.13322	0.1239	0.19521	-4.0813	-4.775	-4.1375	-4.7937	-4.6375	-4.0708	-4.8479	-4.4604	-4.1833	-4.7896	-4.2521	-4.6604	-4.4854	-4.15	-4.6937	-4.3833	260.173	134.196	-46.648	208.970	28.575	192.423	165.794	263.308	262.274	19.116	-35.087	62.014	73.723	-8.206	108.564	180.503	6.079e-05	0.00026543	8.5637e-05	1137.4	2.0232e-06	3.056e-06	1198.1	225.64	1.3153e-06	3.188e-06	283.7	80.286	63.609	18.493	3.0529e-06	26.37	0.00014801	6.3943e-05	3.1427e-05	1112.2	1.7931e-06	9.9595e-07	1178.4	222.48	1.7017e-06	1.0132e-06	280.17	81.069	64.113	18.611	9.1618e-07	26.466	190.420	49.297	36.869	-51.616	115.902	82.178	-51.464	-44.422	142.050	71.424	-44.461	-37.547	-38.047	-30.990	100.307	-31.268	-8191	255	
25061.373	1	1	0	0	0.27021	0.15828	0.18399	0.14601	0.24249	0.2467	0.05844	0.18102	0.1011	0.12344	0.053187	0.22756	0.06291	0.1349	0.13036	0.2766	-3.8187	-4.6542	-4.2792	-4.5792	-4.6104	-4.1333	-4.8187	-4.6104	-4.2833	-4.8521	-4.2479	-4.5042	-4.7021	-4.1396	-4.6854	-4.5271	271.680	275.431	-6.973	4.946	36.960	66.479	198.574	230.122	-34.406	85.471	36.592	-21.480	-37.356	187.180	149.912	211.680	6.1235e-05	0.00025976	9.7879e-05	1134	1.3679e-06	3.0344e-06	1198.1	224.81	1.2113e-06	3.3575e-06	284.65	80.46	64.081	18.501	2.6551e-06	26.198	0.00014935	7.1451e-05	3.0407e-05	1111.8	1.6403e-06	1.3034e-06	1178	222.36	1.6962e-06	6.393e-07	280.7	81.294	64.292	18.695	1.1204e-06	26.415	211.951	17.329	35.835	-51.715	113.005	102.486	-51.696	-44.172	139.817	108.743	-44.892	-37.680	-37.352	-31.274	88.026	-31.296	-8191	255	
25061.471	1	1	0	0	0.13188	0.13832	0.018404	0.30049	0.091872	0.2263	0.40987	0.081315	0.19106	0.050485	0.025876	0.12603	0.39662	0.24203	0.05307	0.20839	-3.9875	-4.6396	-4.1958	-4.5188	-4.65	-4.2042	-4.6687	-4.6062	-3.9917	-4.7937	-4.3771	-4.5687	-4.7854	-4.2479	-4.6771	-4.7729	159.764	196.624	69.365	264.096	215.711	271.686	230.802	193.719	-31.852	-46.411	212.007	104.240	45.516	262.620	259.857	77.929	7.5033e-05	0.00044176	7.8752e-05	1134.8	1.9341e-06	2.8621e-06	1199.7	224.69	1.522e-06	3.6054e-06	284.67	80.718	64.347	18.775	2.7785e-06	26.445	0.00014068	7.4989e-05	2.4384e-05	1110.4	1.6263e-06	9.661e-07	1180.7	221.96	1.6296e-06	8.3464e-07	281.05	81.162	64.281	18.75	1.177e-06	26.516	197.987	37.747	22.979	-51.717	129.643	107.095	-51.540	-44.424	137.880	85.283	-44.541	-37.667	-37.541	-30.894	80.582	-31.007	-8191	255	
25061.566	1	1	0	0	0.20155	0.18397	0.22524	0.19686	0.26123	0.16595	0.31585	0.11526	0.058727	0.15024	0.10125	0.053577	0.19906	0.144	0.06566	0.1329	-3.6625	-4.7417	-4.3979	-4.4625	-4.8313	-4.4021	-4.7125	-4.7812	-4.0083	-4.825	-4.4521	-4.2708	-4.8771	-4.175	-4.5125	-4.8063	139.550	-54.730	24.504	231.939	-4.836	246.112	203.667	137.311	201.698	-16.587	-32.151	254.134	242.290	188.453	40.297	134.272	7.5349e-05	0.0003667	0.00010328	1136.2	1.9489e-06	3.197e-06	1206	224.58	1.2053e-06	3.2421e-06	283.5	80.28	64.024	18.607	1.4808e-06	26.412	0.0001529	8.1806e-05	2.0814e-05	1111.5	1.6808e-06	9.4819e-07	1180.6	222.26	1.7707e-06	8.0603e-07	280.69	81.111	64.16	18.672	9.8224e-07	26.434	197.624	37.959	27.697	-51.883	108.466	104.324	-51.506	-44.331	86.510	95.713	-44.477	-37.713	-37.573	-31.054	95.913	-31.647	-8191	255	
25061.662	1	1	0	0	0.10634	0.11141	0.11482	0.25884	0.13883	0.040434	0.13583	0.19021	0.13816	0.14493	0.10657	0.12662	0.086609	0.13398	0.22426	0.046362	-3.725	-4.7458	-4.4917	-4.2396	-4.9479	-4.3792	-4.6625	-4.8292	-4.2167	-4.7583	-4.5417	-4.1792	-4.8	-4.5437	-4.4979	-4.825	31.118	83.995	275.105	179.525	-8.444	265.190	254.214	243.525	286.750	111.226	170.153	186.502	1.153	270.848	0.611	-25.116	6.5313e-05	0.00024419	4.8344e-05	1136.6	2.0205e-06	3.7517e-06	1201.2	224.4	8.7684e-07	2.7027e-06	283.13	80.367	64.24	18.578	2.5095e-06	26.456	0.00014821	7.3867e-05	2.1324e-05	1112.4	1.6263e-06	9.263e-07	1181.3	222.1	1.6784e-06	7.7347e-07	280.91	81.22	64.309	18.655	1.0826e-06	26.471	198.676	39.262	12.400	-51.809	116.511	98.601	-51.472	-44.195	118.647	81.256	-44.562	-37.761	-37.563	-30.974	109.488	-31.289	-8191	255	
25061.758	1	1	0	0	0.2328	0.065383	0.035614	0.13361	0.017098	0.091674	0.35605	0.13	0.10246	0.16078	0.054104	0.091173	0.10135	0.17483	0.21498	0.12435	-3.8167	-4.6937	-4.5708	-4.3146	-4.7917	-4.3771	-4.5938	-4.8063	-4.2438	-4.6562	-4.7771	-4.25	-4.6813	-4.4146	-4.3917	-5.0042	-22.328	244.185	252.996	-10.272	-35.702	-17.522	234.352	14.425	-49.461	73.221	-14.105	249.101	209.395	90.687	-9.984	39.411	7.4141e-05	0.00027065	9.9675e-05	1137.3	2.8991e-06	2.5883e-06	1204.7	224.37	8.3526e-07	3.9333e-06	283.33	80.705	63.935	18.659	1.8655e-06	26.41	0.00014335	7.8872e-05	2.3315e-05	1110.9	1.6629e-06	1.0377e-06	1181.8	222.02	1.6009e-06	9.0173e-07	280.61	81.432	64.278	18.715	1.0946e-06	26.453	212.619	45.638	36.864	-51.703	144.601	100.653	-51.588	-44.125	165.101	77.006	-44.752	-37.370	-37.463	-31.044	113.015	-30.754	-8191	255	
25061.854	1	1	0	0	0.21594	0.083608	0.26606	0.1047	0.14281	0.046831	0.15268	0.19427	0.11213	0.26747	0.058904	0.07668	0.26413	0.075997	0.12053	0.23675	-3.8833	-4.5062	-4.6729	-4.3771	-4.6521	-4.5437	-4.4125	-4.9688	-4.2646	-4.4417	-4.8146	-4.2875	-4.6687	-4.5208	-4.2771	-4.8479	191.929	194.309	254.282	265.069	194.884	38.239	185.343	-54.238	216.403	222.684	33.293	23.044	293.226	200.243	169.016	297.324	6.9133e-05	0.00028363	9.3692e-05	1138.1	1.5301e-06	3.1893e-06	1208.9	223.67	1.0121e-06	3.3678e-06	283.87	80.564	64.024	18.473	3.0106e-06	26.437	0.00014443	7.4643e-05	2.2416e-05	1114	1.4962e-06	7.5219e-07	1181.8	221.87	1.5017e-06	8.9581e-07	280.87	81.3	64.358	18.665	1.2602e-06	26.497	212.848	29.432	28.380	-51.792	107.283	82.494	-51.534	-44.286	116.469	86.357	-44.604	-37.714	-37.614	-30.636	109.168	-30.954	-8191	255	
25061.973	1	1	0	0	0.079059	0.16135	0.063632	0.28203	0.16925	0.14793	0.2873	0.20422	0.12798	0.048039	0.072612	0.26154	0.067613	0.19645	0.32885	0.088605	-3.9854	-4.4729	-4.8104	-4.3583	-4.525	-4.4958	-4.4354	-4.8187	-4.4187	-4.5354	-4.8854	-4.2542	-4.7271	-4.6542	-4.3313	-4.95	-4.084	272.642	72.413	268.559	58.112	80.644	214.886	235.678	88.063	87.037	283.260	-1.176	174.182	268.372	127.269	272.780	6.0657e-05	0.00038453	0.00010465	1131.1	1.9064e-06	3.7485e-06	1199.7	224.88	1.5592e-06	1.7842e-06	283.37	80.018	64.052	18.669	2.9285e-06	26.433	0.00013452	0.00010165	1.6078e-05	1111.8	1.5453e-06	8.6959e-07	1180.6	222.37	1.6699e-06	1.0191e-06	280.72	81.171	64.405	18.752	1.3228e-06	26.497	202.353	29.008	40.398	-51.802	130.799	77.998	-51.526	-44.298	137.205	64.950	-44.647	-37.947	-37.307	-30.973	100.899	-31.647	-8191	255	
25062.068	1	1	0	0	0.17142	0.10704	0.19489	0.18782	0.18382	0.16571	0.080897	0.12824	0.10928	0.18751	0.1448	0.14527	0.053712	0.10639	0.37575	0.075617	-4.2312	-4.3417	-4.8417	-4.3271	-4.5292	-4.5708	-4.3521	-4.8042	-4.5813	-4.3208	-5.0042	-4.3667	-4.6042	-4.8042	-4.1125	-4.6417	207.498	271.934	40.553	277.000	110.227	62.072	267.927	293.829	267.672	26.460	-48.441	279.708	223.765	-14.764	-5.630	294.371	5.5644e-05	0.00034293	7.5854e-05	1136.8	1.2421e-06	3.6972e-06	1202.9	224.84	8.9911e-07	3.0144e-06	283.91	80.965	64.557	18.5	2.0428e-06	26.369	0.00013155	9.6907e-05	2.0304e-05	1112.6	1.6801e-06	8.686e-07	1181	222.21	1.3792e-06	1.1247e-06	281.29	81.445	64.44	18.7	1.2979e-06	26.478	200.214	25.198	41.458	-51.572	132.607	90.338	-51.522	-44.356	157.591	96.603	-44.545	-37.874	-37.671	-30.922	84.258	-31.183	-8191	255	
25062.164	1	1	0	0	0.10237	0.050423	0.1747	0.18312	0.11967	0.03649	0.21092	0.13628	0.043058	0.3084	0.27707	0.15529	0.17229	0.28552	0.24831	0.28754	-4.2167	-4.3354	-4.7917	-4.4625	-4.3479	-4.8187	-4.3583	-4.6833	-4.6042	-4.2167	-4.9854	-4.4292	-4.5188	-4.7958	-4.3583	-4.7417	182.153	-20.769	-60.997	-8.209	144.975	4.022	-28.673	252.043	-43.859	61.450	285.616	-48.041	-42.733	273.664	187.013	-58.425	6.1983e-05	0.00026696	7.6529e-05	1137.5	1.5904e-06	2.8953e-06	1205.7	223.7	7.8995e-07	2.795e-06	282.76	80.756	64.033	18.686	2.6896e-06	26.104	0.00013383	0.00010372	1.6952e-05	1111.9	1.5071e-06	7.2134e-07	1182.5	222.06	1.5381e-06	9.5796e-07	281.09	81.462	64.435	18.723	1.4017e-06	26.433	206.612	25.951	29.167	-51.741	123.799	92.847	-51.641	-44.410	67.491	94.543	-44.780	-37.962	-37.477	-31.051	104.477	-31.021	-8191	255	
25062.262	1	1	0	0	0.037087	0.20686	0.042198	0.17956	0.023719	0.077752	0.13093	0.071865	0.10402	0.10148	0.14034	0.20306	0.060955	0.3049	0.047147	0.077597	-4.2875	-4.1979	-4.8333	-4.3812	-4.3458	-4.7271	-4.3562	-4.7729	-4.6771	-4.2333	-4.9604	-4.3417	-4.4208	-5.0771	-4.1021	-4.65	246.402	200.955	71.007	-38.313	73.231	283.501	172.438	219.662	46.541	-52.213	289.340	128.767	176.610	214.629	255.448	187.271	6.4602e-05	0.0002978	9.3298e-05	1137.5	1.1864e-06	3.6596e-06	1201.7	225.15	9.8867e-07	3.1425e-06	284.3	80.738	64.585	18.663	2.277e-06	26.27	0.00013025	9.9064e-05	1.1828e-05	1111.9	1.6473e-06	5.91e-07	1181	222.41	1.3311e-06	9.1554e-07	281.41	81.444	64.602	18.716	1.3082e-06	26.461	215.426	26.878	24.557	-51.648	146.201	85.535	-51.418	-44.376	102.626	105.698	-44.928	-37.330	-37.143	-30.723	93.221	-31.118	-8191	255	
25062.357	1	1	0	0	0.30748	0.060803	0.13565	0.083961	0.15759	0.22738	0.14605	0.084283	0.18138	0.13271	0.34153	0.1392	0.12557	0.13323	0.11517	0.16503	-4.4688	-4.1188	-4.8354	-4.7667	-4.5708	-4.8792	-4.4104	-4.6167	-4.6021	-4.2063	-4.85	-4.5208	-4.3396	-4.7917	-4.1792	-4.4854	258.394	238.692	102.823	184.890	23.182	-28.381	249.587	-58.039	273.820	38.456	239.272	123.137	249.112	85.657	12.263	-35.055	7.8088e-05	0.00025623	9.0752e-05	1138.5	1.621e-06	2.3957e-06	1204.6	225.23	7.857e-07	2.9012e-06	283.13	81.146	64.186	18.593	1.4941e-06	26.585	0.00013664	0.00010813	1.7195e-05	1112.8	1.6707e-06	4.1589e-07	1181.8	222.44	1.2675e-06	1.0181e-06	281.18	81.609	64.455	18.741	1.1049e-06	26.597	207.728	26.549	40.896	-51.607	144.607	117.400	-51.488	-44.442	99.394	88.060	-44.869	-37.778	-37.395	-30.681	116.279	-31.445	-8191	255	
25062.453	1	1	0	0	0.2494	0.13507	0.011418	0.11958	0.11018	0.11536	0.29685	0.067076	0.24232	0.23064	0.1851	0.25483	0.13225	0.11487	0.15249	0.12829	-4.3187	-4.1813	-4.775	-4.7354	-4.2083	-4.8292	-4.4083	-4.5458	-4.9812	-4.2208	-4.8417	-4.5333	-4.3104	-4.8958	-4.4292	-4.4708	200.506	-54.738	16.846	237.483	147.231	65.701	207.729	240.816	47.535	117.890	24.138	84.884	171.353	150.753	26.390	36.503	6.0846e-05	0.00030132	8.0825e-05	1133.3	2.279e-06	2.1349e-06	1202.9	223.84	9.065e-07	3.8614e-06	283.63	81.184	64.401	18.826	2.8162e-06	26.485	0.00013263	9.5181e-05	1.9065e-05	1112.7	1.8546e-06	5.8702e-07	1181.5	222.46	1.3063e-06	1.2036e-06	281.46	81.671	64.424	18.841	1.1469e-06	26.538	203.037	27.726	29.877	-51.642	135.171	72.064	-51.446	-44.253	179.419	98.199	-44.777	-37.837	-37.711	-30.818	111.748	-31.290	-8191	255	
25062.551	1	1	0	0	0.25984	0.20284	0.092995	0.19769	0.21085	0.026571	0.077377	0.24497	0.093346	0.06898	0.26228	0.18654	0.036591	0.38643	0.12927	0.17789	-4.4542	-4.2729	-4.4583	-4.725	-4.2167	-4.6062	-4.55	-4.55	-4.8021	-4.2833	-4.7458	-4.7688	-4.1771	-4.675	-4.4333	-4.4437	-40.465	270.181	-41.594	230.594	124.715	274.042	178.487	222.737	250.544	126.634	193.401	37.562	101.275	171.508	109.471	240.187	6.998e-05	0.00033605	9.664e-05	1133.8	1.2082e-06	3.0635e-06	1205.5	224.57	7.6182e-07	4.0269e-06	285.53	80.754	64.675	18.94	2.7844e-06	26.393	0.00012875	9.9927e-05	1.7098e-05	1112.1	1.6988e-06	5.6016e-07	1182.7	222.43	1.2644e-06	1.1385e-06	282.31	81.448	64.484	18.894	1.1512e-06	26.53	200.859	28.199	26.480	-51.854	129.145	82.579	-51.450	-44.314	112.570	98.379	-44.604	-37.575	-37.530	-30.881	92.232	-31.512	-8191	255	
25062.672	1	1	0	0	0.070266	0.081123	0.15355	0.20805	0.058423	0.11642	0.18327	0.19157	0.22036	0.12091	0.084216	0.056997	0.11458	0.36874	0.34678	0.16361	-4.4896	-4.3313	-4.5125	-4.8521	-4.1083	-4.7188	-4.6333	-4.3333	-4.8458	-4.3	-4.5458	-4.8146	-4.2354	-4.7458	-4.5	-4.3375	13.138	9.087	50.489	248.331	200.555	87.212	207.712	193.620	97.034	15.276	-6.602	154.570	234.891	251.018	1.862	28.089	5.9941e-05	0.00034391	8.928e-05	1139.1	1.7603e-06	3.3086e-06	1201	225.49	1.1997e-06	2.9499e-06	285.61	80.604	64.518	18.866	2.1456e-06	26.358	0.00012301	8.9486e-05	1.4353e-05	1112.9	1.9092e-06	5.1937e-07	1181.4	222.6	1.2334e-06	7.1526e-07	281.83	81.281	64.527	18.856	9.1876e-07	26.527	212.778	34.886	37.172	-51.665	116.093	65.513	-51.433	-44.411	81.398	82.555	-44.507	-37.953	-37.645	-31.132	107.716	-31.220	-8191	255	
25062.766	1	1	0	0	0.12138	0.26937	0.14003	0.052696	0.22098	0.046722	0.1935	0.04859	0.13713	0.11993	0.14961	0.15509	0.12225	0.062183	0.26138	0.10811	-4.4563	-4.3812	-4.3688	-4.9042	-4.1667	-4.5188	-4.8167	-4.3	-4.7188	-4.4875	-4.3812	-4.8562	-4.3625	-4.5687	-4.6292	-4.2125	-35.459	-16.043	-17.555	-61.375	-50.441	93.391	189.345	12.428	234.770	-47.428	-13.210	261.384	235.499	158.425	-6.170	236.547	7.0476e-05	0.00028611	8.6973e-05	1139.2	2.2891e-06	3.0715e-06	1204.6	223.52	1.2828e-06	2.6945e-06	284.94	80.986	65.031	18.799	2.5324e-06	26.475	0.00013823	7.7664e-05	2.7274e-05	1114.1	1.8375e-06	7.5318e-07	1180.8	221.8	1.4265e-06	8.8693e-07	282.2	81.68	64.75	18.852	1.0054e-06	26.545	199.042	29.960	21.782	-51.776	139.347	85.250	-51.725	-44.205	101.465	102.604	-44.820	-37.915	-37.555	-31.018	94.202	-31.045	-8191	255	
25062.838	1	1	0	0	0.15739	0.091682	0.02958	0.14791	0.12778	0.099185	0.37028	0.258	0.18713	0.21039	0.2391	0.25706	0.17045	0.17534	0.19951	0.1857	-4.3708	-4.3854	-4.2458	-5.0604	-4.2167	-4.6417	-4.8812	-4.2042	-4.675	-4.5792	-4.3542	-4.9083	-4.3896	-4.4458	-4.8438	-4.2125	255.287	155.852	38.592	253.583	50.704	59.335	205.761	191.990	-10.840	220.980	234.334	148.347	181.040	197.911	0.115	247.485	6.9169e-05	0.00029484	9.4465e-05	1134.8	1.6011e-06	2.1511e-06	1201.1	225.33	1.4846e-06	1.9508e-06	285.28	80.834	64.648	18.693	1.6524e-06	26.503	0.00013491	9.1988e-05	2.1202e-05	1112.1	1.6427e-06	5.6514e-07	1181.1	222.72	1.3567e-06	7.9123e-07	281.73	81.512	64.645	18.846	7.2059e-07	26.554	199.281	48.929	25.352	-51.783	132.315	76.684	-51.663	-44.450	95.707	75.349	-44.340	-37.462	-37.442	-30.976	84.630	-31.203	-8191	255	
25062.936	1	1	0	0	0.030692	0.16223	0.10312	0.21319	0.13424	0.095356	0.36423	0.098368	0.10129	0.063261	0.16598	0.12665	0.096699	0.13339	0.21844	0.18945	-4.3833	-4.5604	-4.2125	-4.9812	-4.2375	-4.6396	-4.8583	-4.3646	-4.6542	-4.5604	-4.3896	-4.6479	-4.5208	-4.3625	-4.975	-4.2125	-0.484	-9.809	228.349	-16.102	-17.592	8.011	189.769	193.582	11.316	41.780	-16.216	-33.118	205.003	277.367	224.208	284.817	5.8738e-05	0.00041202	9.0697e-05	1137.5	1.339e-06	3.093e-06	1200.8	223.1	1.8029e-06	3.4932e-06	284.88	80.742	64.697	18.939	1.7384e-06	26.572	0.00012855	7.24e-05	2.5477e-05	1114.9	1.7907e-06	8.1686e-07	1181	221.86	1.4854e-06	7.5966e-07	282.1	81.422	64.664	18.876	6.2966e-07	26.536	214.422	25.137	33.221	-51.794	106.882	114.092	-51.614	-44.310	102.580	96.591	-44.613	-37.498	-37.511	-31.005	102.389	-31.255	-8191	255	
25063.053	1	1	0	0	0.18611	0.16182	0.10123	0.36828	0.060076	0.17884	0.27304	0.2131	0.053397	0.38718	0.036152	0.14888	0.14653	0.11035	0.12869	0.055219	-4.2417	-4.6229	-4.1833	-4.9646	-4.5125	-4.4042	-4.8833	-4.2458	-4.6687	-4.5896	-4.2812	-4.6583	-4.4646	-4.3313	-4.7333	-4.3812	190.288	10.240	39.056	278.194	23.185	211.837	289.093	179.538	66.966	108.897	-47.611	-38.724	-16.805	103.344	152.622	-60.001	7.1067e-05	0.00029999	6.2452e-05	1133.7	1.3444e-06	3.1127e-06	1202.1	225.31	5.6324e-07	3.0166e-06	285.47	80.491	64.444	18.762	1.8104e-06	26.286	0.00013621	7.7923e-05	2.4724e-05	1112.2	1.5336e-06	1.1711e-06	1181.7	222.76	1.3381e-06	8.3661e-07	281.82	81.518	64.575	18.808	9.1018e-07	26.453	202.203	25.368	33.524	-51.697	115.902	105.672	-51.554	-44.524	95.924	101.196	-45.077	-37.733	-37.537	-31.246	120.161	-31.237	-8191	255	
25063.150	1	1	0	0	0.27947	0.16779	0.24821	0.26706	0.075052	0.064876	0.090798	0.089362	0.027353	0.047967	0.24233	0.17256	0.12749	0.21527	0.25307	0.17537	-4.4479	-4.5958	-4.1687	-4.9	-4.4688	-4.3021	-4.9729	-4.4812	-4.4771	-4.6438	-4.2854	-4.7812	-4.575	-4.2854	-4.9521	-4.4	-6.851	198.492	79.445	269.693	20.902	244.527	-60.294	163.199	15.984	-51.405	293.570	267.883	265.683	240.538	24.426	-22.399	7.2267e-05	0.00032928	0.0001162	1134.3	2.9827e-06	3.1575e-06	1204.8	225.54	1.4881e-06	3.0248e-06	286.52	80.897	64.244	18.677	1.6653e-06	26.467	0.00012692	5.4451e-05	2.6958e-05	1113.4	1.5819e-06	8.5268e-07	1182.5	222.8	1.5993e-06	4.3409e-07	282.21	81.501	64.675	18.864	6.2451e-07	26.582	200.344	26.344	27.307	-51.758	116.104	71.710	-51.400	-44.125	141.795	100.519	-44.652	-38.216	-37.176	-30.760	116.682	-31.409	-8191	255	
25063.246	1	1	0	0	0.16971	0.15521	0.068703	0.13749	0.18488	0.29651	0.081705	0.037072	0.2301	0.05206	0.12673	0.15769	0.11612	0.088473	0.19255	0.081187	-4.2229	-4.5896	-4.1062	-4.9396	-4.5208	-4.2979	-4.9667	-4.5417	-4.4271	-4.9083	-4.3562	-4.5583	-4.6917	-4.2396	-4.8083	-4.4604	-56.399	267.802	20.228	-58.465	287.672	108.782	199.395	53.785	161.262	292.393	274.998	277.260	-25.343	42.105	-40.688	12.186	6.1801e-05	0.00028944	6.7117e-05	1135.3	1.9287e-06	2.8961e-06	1200.4	224.26	9.3972e-07	2.8295e-06	284.9	81.2	64.948	18.548	2.2658e-06	26.517	0.00012865	7.1278e-05	2.6035e-05	1113.1	1.5998e-06	1.0765e-06	1180.1	222.36	1.6265e-06	6.5114e-07	281.65	81.509	64.618	18.765	1.0397e-06	26.514	197.147	18.357	36.373	-51.942	132.651	81.024	-51.586	-44.150	140.366	56.265	-44.807	-37.655	-37.712	-31.094	94.268	-31.026	-8191	255	
25063.365	1	1	0	0	0.038983	0.1081	0.17365	0.091624	0.13557	0.046145	0.26428	0.13073	0.086381	0.046618	0.19372	0.29823	0.087646	0.27432	0.16337	0.095643	-3.9562	-4.7417	-4.4354	-4.8187	-4.7792	-4.2521	-5.2063	-4.6667	-4.3375	-4.9187	-4.3271	-4.5354	-4.7396	-4.1792	-4.9125	-4.4979	179.449	15.024	21.742	234.363	178.443	215.425	237.875	237.473	134.259	-49.834	-62.284	279.077	181.385	207.595	85.570	164.087	5.9042e-05	0.00032892	9.0814e-05	1137.8	1.2959e-06	3.3157e-06	1196.3	224.45	1.1815e-06	3.6837e-06	285.42	80.454	64.473	18.773	2.4239e-06	26.382	0.00014609	8.2841e-05	2.8561e-05	1112.8	1.6847e-06	1.0089e-06	1180.4	222.67	1.7218e-06	9.402e-07	281.95	81.237	64.373	18.836	1.0612e-06	26.509	205.511	36.927	37.307	-51.709	119.044	93.432	-51.381	-44.420	119.985	91.809	-44.569	-37.297	-37.478	-31.180	102.783	-31.225	-8191	255	
25063.438	1	1	0	0	0.14812	0.1357	0.22978	0.12238	0.19558	0.099062	0.11383	0.25246	0.21518	0.12123	0.12171	0.063819	0.10232	0.15152	0.1258	0.27763	-3.9208	-4.75	-4.3333	-4.5292	-4.7292	-4.1625	-4.9667	-4.7	-4.1937	-4.9396	-4.4042	-4.4833	-4.8167	-4.3313	-4.6479	-4.7458	168.372	-50.690	293.658	140.690	261.966	-56.385	-61.278	254.693	76.763	235.308	156.666	258.330	0.108	-54.102	46.240	211.474	5.5225e-05	0.00020597	5.8944e-05	1139	1.9163e-06	2.7454e-06	1199.8	224.04	1.1377e-06	3.7242e-06	285.59	80.796	64.26	18.786	2.4942e-06	26.421	0.00014459	5.3415e-05	2.4287e-05	1113.6	1.7954e-06	1.0686e-06	1181.3	222.26	1.5598e-06	4.6665e-07	282.25	81.606	64.294	18.83	1.0543e-06	26.468	212.535	25.340	40.829	-51.855	115.893	95.928	-51.542	-44.093	117.108	102.357	-44.551	-37.786	-37.588	-30.919	90.181	-31.485	-8191	255	
25063.533	1	1	0	0	0.24638	0.17916	0.059862	0.1533	0.24439	0.10221	0.17674	0.09244	0.10853	0.16975	0.21595	0.098738	0.19163	0.21188	0.11018	0.15315	-3.9479	-4.8708	-4.4812	-4.5708	-4.6917	-4.3042	-4.7854	-4.6813	-4.275	-4.9729	-4.5625	-4.4958	-4.8958	-4.275	-4.4375	-4.7188	-10.591	14.194	-41.271	-44.737	243.181	269.991	183.369	121.190	256.407	48.233	276.242	198.365	159.683	282.809	17.523	29.591	6.9423e-05	0.00031914	8.548e-05	1135.1	1.782e-06	3.3426e-06	1203.6	224.52	7.4196e-07	1.8184e-06	286.19	80.658	64.44	18.653	2.1435e-06	26.58	0.00013709	5.9111e-05	2.1591e-05	1112.6	1.4767e-06	7.8602e-07	1181.8	222.72	1.649e-06	8.3365e-07	281.71	81.359	64.743	18.82	9.5135e-07	26.541	214.646	42.110	26.053	-51.685	123.376	83.811	-51.583	-44.352	109.193	94.498	-44.689	-37.980	-37.337	-31.032	110.148	-31.281	-8191	255	
25063.654	1	1	0	0	0.31616	0.12648	0.098765	0.19728	0.42396	0.051014	0.31944	0.22372	0.28438	0.07047	0.066551	0.42117	0.13157	0.16191	0.10371	0.051683	-3.7979	-4.7375	-4.5437	-4.5104	-4.6458	-4.2937	-4.6917	-4.7562	-4.2417	-4.7438	-4.6771	-4.5125	-4.9479	-4.5083	-4.5042	-4.75	-36.523	-29.275	-20.175	237.491	186.766	278.607	271.063	163.361	204.983	17.653	-47.169	294.937	205.157	204.925	46.567	267.856	5.4749e-05	0.00038603	7.6723e-05	1136.1	2.1127e-06	3.5122e-06	1205.3	224.57	1.5271e-06	3.2859e-06	285.39	81.173	64.187	18.676	2.3007e-06	26.2	0.00013872	7.7577e-05	2.4092e-05	1112.1	1.6333e-06	9.5516e-07	1181.2	222.43	1.8986e-06	6.0576e-07	282.38	81.601	64.296	18.784	1.1615e-06	26.415	207.182	8.277	27.785	-51.802	127.610	87.839	-51.470	-44.157	119.709	98.056	-44.840	-38.091	-37.793	-30.952	120.347	-31.358	-8191	255	
25063.752	1	1	0	0	0.086076	0.17017	0.1324	0.20593	0.20765	0.11609	0.12619	0.24376	0.10093	0.21091	0.023971	0.092145	0.089761	0.20447	0.24947	0.12821	-4.025	-4.6792	-4.6833	-4.5146	-4.7146	-4.2479	-4.5938	-5.0312	-4.1917	-4.7312	-4.65	-4.3021	-5.0104	-4.325	-4.2896	-4.8771	172.102	132.156	99.834	277.350	289.861	196.294	262.029	266.347	236.992	136.611	93.690	284.117	44.441	75.743	-28.636	199.815	7.3822e-05	0.00021851	7.4769e-05	1135.7	2.3872e-06	3.4564e-06	1201.9	223.95	8.4047e-07	2.5589e-06	285.04	80.412	63.946	18.759	3.1344e-06	26.326	0.00013602	7.7491e-05	2.1129e-05	1113.4	1.5749e-06	1.1024e-06	1180.2	222.43	1.5319e-06	7.1625e-07	281.94	81.393	64.375	18.801	1.3262e-06	26.48	208.284	5.130	23.448	-51.785	115.334	72.824	-51.495	-44.310	91.859	85.806	-44.514	-37.361	-37.435	-31.273	100.880	-31.236	-8191	255	
25063.848	1	1	0	0	0.063565	0.11833	0.11028	0.12405	0.10733	0.10613	0.17825	0.16505	0.21071	0.21861	0.12099	0.17323	0.2346	0.057266	0.12869	0.10524	-4.0771	-4.6979	-4.5062	-4.2646	-4.5271	-4.4792	-4.5396	-4.9583	-4.2854	-4.6188	-4.7917	-4.2625	-4.6062	-4.45	-4.2917	-4.8146	60.655	286.479	154.654	223.691	-24.808	52.151	247.370	-2.220	221.042	147.496	240.956	200.167	-2.533	214.934	65.994	170.722	6.5987e-05	0.00021866	0.00010556	1133.2	1.7027e-06	2.2881e-06	1204.8	223.63	1.4886e-06	3.9834e-06	285.16	80.549	63.816	18.803	3.0481e-06	26.426	0.00013768	8.0339e-05	1.8531e-05	1114.1	1.5803e-06	1.1382e-06	1183.9	222.37	1.7056e-06	9.6684e-07	282.06	81.437	64.389	18.849	1.2602e-06	26.514	208.451	39.870	48.591	-51.805	117.857	106.564	-51.547	-44.503	97.606	118.688	-44.541	-38.051	-37.208	-31.114	94.803	-30.795	-8191	255	
25063.967	1	1	0	0	0.1546	0.23638	0.11599	0.20664	0.13261	0.052052	0.14371	0.31933	0.091448	0.053284	0.18998	0.20204	0.092589	0.2399	0.15203	0.17777	-3.9688	-4.5458	-4.6833	-4.3021	-4.7229	-4.6708	-4.4479	-5.0604	-4.3979	-4.5312	-4.9583	-4.1479	-4.8042	-4.7	-4.3146	-5.0917	-47.684	31.714	-21.027	-61.840	114.686	215.236	194.400	214.260	-57.123	116.398	168.562	235.710	273.017	-43.046	19.848	5.983	7.2956e-05	0.00025477	9.8139e-05	1138.1	1.1533e-06	3.2863e-06	1205.2	224.31	1.2331e-06	2.8535e-06	283.9	80.376	63.942	18.812	2.3964e-06	26.487	0.00015121	9.3283e-05	2.0158e-05	1112.5	1.6255e-06	8.8551e-07	1180.5	222.49	1.5241e-06	8.6424e-07	282.44	81.309	64.136	18.824	1.3743e-06	26.457	195.640	26.461	38.936	-51.744	110.712	83.375	-51.591	-44.545	107.240	82.300	-44.524	-37.657	-37.593	-30.968	113.172	-31.199	-8191	255	
25064.062	1	1	0	0	0.29262	0.043152	0.040319	0.17492	0.080564	0.15104	0.13664	0.029347	0.18683	0.10614	0.10772	0.21467	0.11108	0.19385	0.24675	0.14004	-4.1229	-4.4583	-4.8083	-4.4125	-4.6896	-4.6896	-4.4417	-4.9583	-4.5083	-4.3562	-4.7937	-4.2583	-4.4938	-4.6729	-4.2167	-4.9812	167.471	16.000	20.983	181.696	273.901	-4.321	183.517	271.054	136.291	17.428	96.419	258.895	44.522	189.518	293.627	276.217	6.8944e-05	0.00018977	7.5465e-05	1136.2	2.2934e-06	3.2087e-06	1200.4	225.5	1.1072e-06	2.6744e-06	283.79	80.389	64.531	18.717	2.0902e-06	26.23	0.00013533	8.2237e-05	2.1615e-05	1112.3	1.8336e-06	9.3426e-07	1180.2	222.9	1.5172e-06	8.159e-07	281.15	81.215	64.246	18.735	1.1504e-06	26.428	203.681	16.418	35.196	-51.802	128.836	95.478	-51.561	-44.511	87.569	83.070	-44.923	-37.930	-37.326	-30.998	89.008	-31.549	-8191	255	
25064.135	1	1	0	0	0.19477	0.12447	0.13077	0.10452	0.21082	0.067248	0.12926	0.18433	0.26411	0.20014	0.13976	0.12853	0.18328	0.13925	0.14441	0.21953	-4.0521	-4.3292	-4.9667	-4.3313	-4.4688	-4.7354	-4.3125	-4.7833	-4.3125	-4.3417	-5.025	-4.4708	-4.6854	-4.7167	-4.2083	-4.8104	263.338	-34.898	197.683	249.733	259.843	81.350	165.143	244.629	194.383	104.078	50.668	216.841	210.995	271.639	69.448	172.717	5.9969e-05	0.00029051	6.3742e-05	1133.7	2.6868e-06	2.3621e-06	1201.5	224.23	1.2451e-06	2.2916e-06	285.62	80.731	64.013	18.725	2.2915e-06	26.416	0.00013859	0.00010062	1.5058e-05	1111.2	1.7962e-06	4.5271e-07	1178.3	222.6	1.3458e-06	8.5634e-07	281.88	81.263	64.26	18.77	9.7537e-07	26.49	214.701	24.768	18.978	-51.748	118.999	90.525	-51.369	-44.476	139.073	99.580	-44.737	-37.456	-37.299	-31.086	87.324	-31.265	-8191	255	
25064.230	1	1	0	0	0.096614	0.38074	0.081935	0.22209	0.14651	0.16527	0.42074	0.084896	0.06349	0.20656	0.19235	0.093584	0.21578	0.033035	0.090249	0.1355	-4.175	-4.2292	-4.7021	-4.5896	-4.275	-4.7521	-4.4333	-4.575	-4.6354	-4.2063	-5.1021	-4.5458	-4.4604	-4.875	-4.325	-4.6042	-5.031	230.964	37.357	269.217	74.065	0.910	249.900	185.042	-40.638	255.951	293.294	-14.803	285.547	195.959	-28.147	-35.682	5.7657e-05	0.00029175	9.7906e-05	1133	2.496e-06	2.2189e-06	1198.5	224.39	1.4312e-06	3.323e-06	284.83	81.096	64.09	18.703	2.7226e-06	26.151	0.0001309	8.7156e-05	2.1979e-05	1108.9	1.8375e-06	6.9846e-07	1176.8	222.03	1.3784e-06	8.8101e-07	281.23	81.402	64.466	18.766	1.2018e-06	26.424	198.743	37.041	41.119	-51.716	118.379	89.503	-51.439	-44.737	98.896	91.420	-44.539	-37.765	-37.495	-31.146	114.578	-31.331	-8191	255	
25064.352	1	1	0	0	0.19656	0.053275	0.34646	0.24504	0.19085	0.095445	0.12831	0.1156	0.12401	0.12995	0.22887	0.14345	0.010791	0.23054	0.14298	0.14661	-4.1875	-4.3396	-4.9229	-4.5458	-4.2333	-4.7063	-4.5417	-4.65	-4.7771	-4.2917	-4.875	-4.5583	-4.4792	-4.8854	-4.2833	-4.6062	-38.370	265.420	115.297	232.573	93.606	228.693	-47.700	196.618	105.366	154.613	222.606	290.658	1.027	142.242	-1.613	169.028	6.313e-05	0.00029197	8.7076e-05	1137.7	1.9425e-06	1.7891e-06	1195.3	223.51	1.2282e-06	2.9116e-06	283	80.463	63.933	18.733	2.9903e-06	26.322	0.00011907	7.2486e-05	1.8045e-05	1110.6	1.7744e-06	5.7807e-07	1175.6	221.73	1.3644e-06	7.8334e-07	280.43	81.247	64.265	18.762	1.1049e-06	26.507	207.450	42.186	42.978	-51.906	124.463	85.532	-51.463	-44.357	89.273	86.483	-44.751	-37.359	-37.467	-30.534	127.711	-31.180	-8191	255	
25064.447	1	1	0	0	0.27429	0.18161	0.1077	0.075721	0.17447	0.078802	0.39429	0.16447	0.10638	0.1348	0.19716	0.06925	0.16866	0.17921	0.21829	0.22029	-4.5292	-4.2396	-4.7188	-4.7542	-4.2875	-4.9042	-4.5021	-4.4812	-4.8333	-4.2458	-4.8583	-4.5437	-4.3542	-5.0146	-4.3833	-4.4104	238.846	243.629	143.791	224.238	64.261	-29.820	229.793	259.848	77.006	-34.766	213.618	-24.965	200.476	205.142	30.352	-34.245	6.244e-05	0.00030854	0.0001112	1130.3	1.5631e-06	2.9941e-06	1200.9	224.39	1.0156e-06	2.4686e-06	283.2	80.458	63.63	18.695	2.6243e-06	26.367	0.0001368	0.00010312	1.7583e-05	1110.2	1.7783e-06	5.9498e-07	1178	221.93	1.4218e-06	7.715e-07	280.73	81.365	64.275	18.778	1.2267e-06	26.445	194.897	31.318	37.262	-51.780	85.871	91.982	-51.614	-44.442	130.036	94.164	-44.701	-37.818	-37.401	-31.164	117.581	-31.455	-8191	255	
25064.543	1	1	0	0	0.12476	0.23387	0.13152	0.1858	0.10725	0.030707	0.11436	0.12688	0.054452	0.22873	0.23838	0.19822	0.1061	0.28774	0.22715	0.33945	-4.5563	-4.2854	-4.7646	-4.6271	-4.0604	-4.8125	-4.6188	-4.3708	-4.9021	-4.3333	-4.7458	-4.5667	-4.2875	-5.0146	-4.525	-4.3438	294.876	295.387	83.239	171.722	140.122	30.068	264.770	179.301	-58.004	82.461	265.397	254.095	290.051	259.702	135.703	236.392	7.3295e-05	0.00033884	7.3736e-05	1133.5	1.6144e-06	3.6708e-06	1199.4	223.11	8.5346e-07	2.6205e-06	285.31	80.876	63.764	18.555	2.2704e-06	26.138	0.00013171	9.5958e-05	1.8992e-05	1109.4	1.825e-06	8.2183e-07	1177.2	221.91	1.3187e-06	7.6854e-07	280.9	81.4	64.345	18.752	1.0474e-06	26.311	204.517	50.242	27.239	-51.946	172.535	77.034	-51.560	-44.442	140.039	84.670	-44.906	-37.447	-36.974	-31.347	110.374	-31.473	-8191	255	
25064.639	1	1	0	0	0.093461	0.12574	0.14785	0.36415	0.23823	0.060551	0.35855	0.06365	0.13764	0.12281	0.099216	0.23156	0.097519	0.10744	0.11973	0.13687	-4.5458	-4.3729	-4.5729	-4.8958	-4.2354	-4.7792	-4.5604	-4.3479	-4.8917	-4.2937	-4.6958	-4.7917	-4.2292	-4.7812	-4.7083	-4.5292	109.549	245.520	83.744	253.081	142.499	-27.585	241.150	170.781	136.779	215.012	199.365	258.990	217.325	98.741	267.290	-21.533	5.8732e-05	0.00022345	7.5242e-05	1132.6	1.3596e-06	2.7489e-06	1202.9	224.34	6.4834e-07	3.1866e-06	283.26	80.363	64.741	18.758	2.9222e-06	26.453	0.00012161	8.1547e-05	1.5665e-05	1110.1	1.8647e-06	8.7556e-07	1180.2	222.26	1.1939e-06	9.6092e-07	280.5	81.246	64.424	18.761	1.1324e-06	26.511	203.024	48.101	36.840	-51.969	133.402	100.272	-51.466	-44.204	109.431	105.042	-44.795	-37.749	-37.157	-31.020	84.832	-31.158	-8191	255	
25064.734	1	1	0	0	0.17856	0.103	0.074845	0.18749	0.29018	0.13781	0.16601	0.094841	0.063223	0.20147	0.019496	0.22019	0.24536	0.045445	0.10612	0.13407	-4.6417	-4.3458	-4.4792	-4.8021	-4.3688	-4.5521	-4.7979	-4.3083	-4.8438	-4.3479	-4.6229	-4.7854	-4.2896	-4.7979	-4.575	-4.4333	44.847	-1.215	293.032	257.789	271.482	69.390	193.874	219.065	139.660	260.251	7.118	248.303	260.537	46.583	200.173	-57.722	6.9095e-05	0.00021461	6.2094e-05	1136	2.1553e-06	3.013e-06	1199.3	225.54	9.7673e-07	3.8145e-06	282.26	80.841	64.316	18.678	2.1645e-06	26.293	0.0001249	8.8796e-05	2.2028e-05	1110.7	1.8725e-06	9.6113e-07	1176.5	222.65	1.3063e-06	1.1415e-06	281.27	81.356	64.406	18.789	1.0071e-06	26.46	209.643	30.160	38.718	-51.850	130.546	80.574	-51.511	-44.408	128.698	100.170	-44.342	-37.285	-37.687	-30.809	91.694	-31.531	-8191	255	
25064.830	1	1	0	0	0.12014	0.076559	0.34082	0.1723	0.084096	0.18363	0.27217	0.18305	0.11419	0.038966	0.14785	0.13684	0.33944	0.18924	0.30797	0.13258	-4.5167	-4.5083	-4.25	-4.9042	-4.1312	-4.5687	-5.05	-4.2271	-4.7208	-4.5479	-4.2917	-4.8979	-4.0979	-4.5417	-4.6312	-4.1021	25.678	-51.117	-8.797	236.484	-0.853	170.071	293.949	241.213	261.292	86.673	279.045	-2.444	285.873	233.404	113.259	272.178	6.7892e-05	0.00025583	7.1831e-05	1130.3	2.3023e-06	3.0766e-06	1199.5	224.02	7.2738e-07	2.2753e-06	284.37	80.651	64.219	18.708	2.4786e-06	26.297	0.0001208	5.8938e-05	2.1736e-05	1109.9	1.8772e-06	7.0343e-07	1178.3	222	1.2466e-06	1.248e-06	281.93	81.298	64.335	18.768	8.8187e-07	26.385	213.941	16.819	13.010	-51.645	108.779	85.748	-51.547	-44.469	118.481	69.408	-44.754	-37.732	-37.546	-30.912	116.278	-31.247	-8191	255	
25064.928	1	1	0	0	0.13678	0.091405	0.26298	0.12115	0.15264	0.31507	0.17677	0.1277	0.12865	0.21653	0.057345	0.06891	0.1563	0.13137	0.10119	0.11015	-4.3583	-4.4479	-4.2063	-5.0333	-4.3146	-4.4708	-4.7208	-4.1792	-4.7458	-4.5687	-4.3938	-4.9	-4.6104	-4.4333	-4.9563	-4.3292	-14.007	87.582	255.600	-35.387	-43.658	269.450	272.227	125.839	246.956	-37.482	156.614	-28.654	-35.002	235.262	-52.882	212.331	6.7922e-05	0.00035473	8.6744e-05	1133.6	1.4938e-06	2.2057e-06	1203.4	224.46	9.887e-07	3.7853e-06	285.34	80.86	64.055	18.547	8.9713e-07	26.16	0.00012751	9.1988e-05	2.5792e-05	1109.3	1.7642e-06	9.6013e-07	1179.7	222.33	1.3458e-06	6.7087e-07	281.53	81.287	64.249	18.715	8.0724e-07	26.39	211.799	36.630	31.476	-51.840	82.021	83.057	-51.440	-44.307	87.765	91.301	-44.971	-37.820	-37.402	-31.043	89.310	-31.401	-8191	255	
25065.047	1	1	0	0	0.08113	0.28906	0.19047	0.17027	0.019326	0.079436	0.24436	0.22	0.042355	0.15257	0.20058	0.10165	0.16639	0.1505	0.042797	0.10483	-4.45	-4.6583	-4.275	-5.0563	-4.4104	-4.4708	-4.9146	-4.2312	-4.5625	-4.6292	-4.2667	-4.7604	-4.3896	-4.4396	-4.6396	-4.4292	264.009	13.913	98.203	295.524	254.997	2.551	-52.206	213.072	240.938	76.450	241.811	170.628	182.178	171.111	55.379	249.519	6.8339e-05	0.00036743	7.7235e-05	1132	1.4131e-06	3.0643e-06	1194.3	224.71	9.3959e-07	3.0383e-06	283.29	80.541	63.972	18.611	2.2558e-06	26.27	0.00013475	9.5785e-05	3.082e-05	1108.5	1.7416e-06	7.4124e-07	1176.7	222.26	1.5466e-06	9.2343e-07	281.38	81.381	64.211	18.7	1.0097e-06	26.481	202.656	25.495	27.535	-51.747	119.608	97.689	-51.676	-44.378	123.659	82.147	-44.697	-37.785	-37.942	-30.680	83.113	-31.078	-8191	255	
25065.143	1	1	0	0	0.30188	0.17158	0.39792	0.30936	0.15242	0.18032	0.06531	0.212	0.256	0.048111	0.12989	0.083179	0.20293	0.10311	0.22968	0.23219	-4.2312	-4.7875	-4.4104	-4.875	-4.6104	-4.3063	-5.1458	-4.4021	-4.4146	-4.8875	-4.325	-4.8333	-4.5208	-4.4292	-4.85	-4.3	135.655	221.778	199.043	267.609	58.143	273.884	167.651	217.561	81.318	268.683	-48.176	288.311	256.413	286.266	185.236	286.678	6.1865e-05	0.00032594	9.3779e-05	1135.9	2.3809e-06	2.6015e-06	1202	225.42	1.0534e-06	3.4429e-06	284.79	80.408	63.824	18.628	1.8783e-06	26.278	0.00012366	7.0933e-05	2.4359e-05	1111	1.8118e-06	1.1392e-06	1179.6	222.55	1.3978e-06	8.228e-07	281.53	81.242	64.297	18.748	8.69e-07	26.397	202.188	34.166	32.234	-51.841	132.384	76.050	-51.457	-44.493	109.275	113.496	-44.567	-37.574	-37.156	-30.672	100.732	-31.550	-8191	255	
25065.238	1	1	0	0	0.20026	0.092165	0.05916	0.31935	0.051034	0.14425	0.22161	0.23124	0.14187	0.095858	0.1717	0.087775	0.076266	0.29492	0.14977	0.075286	-4.125	-4.5292	-4.1854	-4.9917	-4.4354	-4.2146	-4.9833	-4.35	-4.4437	-4.7708	-4.2688	-4.8354	-4.6958	-4.2896	-4.8729	-4.5188	257.220	62.519	223.765	-57.051	-7.133	218.403	194.303	237.973	41.922	281.937	249.915	292.258	13.573	198.558	204.988	270.566	5.7085e-05	0.00039622	8.7932e-05	1135.5	1.5918e-06	2.8897e-06	1199.4	225.19	1.3009e-06	3.9074e-06	284.2	80.876	64.055	18.836	2.6935e-06	26.093	0.00013149	8.1288e-05	3.1427e-05	1111.6	1.6123e-06	8.1686e-07	1180.3	222.53	1.3567e-06	8.3859e-07	281.47	81.33	64.272	18.828	9.951e-07	26.42	201.549	24.518	41.533	-51.650	108.825	96.720	-51.348	-44.291	108.782	108.566	-44.475	-37.806	-37.499	-31.196	100.434	-31.205	-8191	255	
25065.336	1	1	0	0	0.09984	0.15702	0.15766	0.30422	0.13266	0.2266	0.30148	0.061584	0.15271	0.073981	0.20843	0.23667	0.075636	0.16285	0.10967	0.052134	-4.1833	-4.8083	-4.3979	-4.6729	-4.6	-4.2271	-4.8354	-4.3875	-4.225	-4.8938	-4.3854	-4.6083	-4.7125	-4.1958	-4.6917	-4.5396	236.739	140.948	79.342	-53.375	47.227	229.998	257.087	110.601	100.055	193.881	82.295	188.371	171.156	82.788	274.994	236.087	7.7454e-05	0.00031245	7.0334e-05	1133.4	1.2801e-06	3.2e-06	1200.4	224.28	5.9229e-07	2.9426e-06	283.58	80.921	63.993	18.817	3.2024e-06	26.457	0.00013641	4.3923e-05	2.9314e-05	1110	1.6536e-06	1.0696e-06	1179.9	222.24	1.5102e-06	5.8997e-07	281.5	81.488	64.288	18.817	1.1238e-06	26.463	206.862	19.317	32.905	-51.922	125.292	74.360	-51.533	-44.129	129.013	88.797	-44.891	-37.949	-37.332	-30.673	101.599	-31.029	-8191	255	
25065.432	1	1	0	0	0.28019	0.15864	0.041464	0.22923	0.2961	0.098731	0.13488	0.17597	0.29766	0.10053	0.1324	0.023525	0.10132	0.092046	0.26579	0.060923	-3.9708	-4.7646	-4.2937	-4.7438	-4.7562	-4.2042	-4.7708	-4.5854	-4.2417	-4.7896	-4.2812	-4.5563	-4.7438	-4.2146	-4.7375	-4.575	68.456	-53.811	174.919	266.931	109.322	234.043	197.403	291.234	180.294	46.015	120.688	-16.141	-52.753	28.157	183.192	184.862	6.61e-05	0.00032449	9.2245e-05	1133.9	1.1626e-06	2.9769e-06	1202.1	223.53	1.0139e-06	3.1827e-06	285.34	81.054	64.319	18.688	2.7562e-06	26.31	0.00014681	6.938e-05	2.5549e-05	1112.3	1.6154e-06	1.0447e-06	1180.5	222.33	1.5032e-06	5.1203e-07	282.53	81.56	64.553	18.743	1.0431e-06	26.477	209.333	48.749	29.047	-51.812	118.482	79.698	-51.423	-44.337	98.982	96.192	-44.671	-37.841	-37.589	-31.359	125.998	-30.944	-8191	255	
25065.527	1	1	0	0	0.078586	0.088456	0.13254	0.17245	0.08159	0.15969	0.14405	0.12699	0.31597	0.15496	0.31739	0.30215	0.19854	0.16667	0.082126	0.099	-4.0104	-4.7937	-4.1729	-4.4521	-4.8812	-4.2208	-4.7688	-4.8417	-4.1708	-4.8083	-4.5667	-4.2812	-4.8271	-4.1875	-4.6229	-4.7729	89.510	187.672	-35.451	245.726	13.981	243.058	277.019	218.138	154.267	79.604	241.974	-9.253	236.126	190.734	-18.325	206.293	4.8243e-05	0.00027983	0.00010098	1133.4	1.3831e-06	3.0964e-06	1202.4	223.4	1.3427e-06	2.7209e-06	285.16	81.449	64.444	18.746	1.7838e-06	26.303	0.00014009	6.9466e-05	2.8342e-05	1110.8	1.3949e-06	1.0198e-06	1179.2	222.22	1.5203e-06	5.5741e-07	281.68	81.477	64.545	18.801	1.0517e-06	26.495	194.513	27.359	32.071	-51.874	116.190	76.502	-51.403	-44.379	105.913	95.136	-44.705	-37.543	-37.446	-31.129	121.459	-31.229	-8191	255	
25065.623	1	1	0	0	0.12107	0.18623	0.055706	0.1923	0.24623	0.092229	0.16375	0.065506	0.11279	0.04808	0.10372	0.087547	0.14182	0.35145	0.12735	0.056667	-3.8438	-4.9583	-4.6	-4.3792	-4.875	-4.2958	-4.65	-4.8104	-4.15	-4.7271	-4.4771	-4.3438	-4.8333	-4.35	-4.4646	-4.6604	-61.185	-20.731	71.104	262.943	146.507	265.332	269.559	-46.276	-16.433	161.873	148.076	-54.925	287.971	138.540	280.816	-4.257	7.8696e-05	0.0002202	8.8391e-05	1136.9	1.3852e-06	3.4653e-06	1202	224.13	1.5517e-06	3.3808e-06	284.83	80.78	64.233	18.801	2.9418e-06	26.325	0.00013869	7.4039e-05	2.3461e-05	1112.5	1.359e-06	1.0218e-06	1182.9	222.21	1.5048e-06	6.6594e-07	281.86	81.439	64.333	18.798	1.2216e-06	26.454	208.904	53.024	22.827	-51.671	127.157	83.594	-51.358	-44.442	85.756	65.642	-44.454	-37.734	-36.968	-30.862	97.247	-31.668	-8191	255	
25065.744	1	1	0	0	0.16142	0.18779	0.14098	0.50462	0.081519	0.0842	0.16356	0.065401	0.25379	0.17812	0.22491	0.1126	0.081252	0.1518	0.20484	0.025486	-3.8042	-4.5729	-4.3854	-4.4354	-4.8958	-4.4833	-4.5938	-4.7146	-4.2875	-4.6667	-4.6271	-4.3604	-4.7583	-4.3688	-4.325	-4.8667	243.796	241.990	64.172	-51.267	101.562	-53.776	44.709	214.688	100.074	86.669	219.467	54.477	100.225	76.261	36.420	238.494	7.1764e-05	0.00041925	9.9135e-05	1134.3	1.3275e-06	2.7287e-06	1200.8	224.85	1.5525e-06	2.6923e-06	285.22	80.382	64.379	18.702	3.6223e-06	26.347	0.00014087	8.5171e-05	2.6448e-05	1113.9	1.493e-06	9.4919e-07	1181	222.18	1.5993e-06	7.7249e-07	281.84	81.193	64.387	18.793	1.3314e-06	26.46	202.999	31.933	28.093	-51.756	130.312	85.510	-51.467	-44.427	99.106	107.002	-44.469	-37.831	-37.461	-31.085	104.832	-31.220	-8191	255	
25065.838	1	1	0	0	0.24462	0.030901	0.2118	0.28136	0.17996	0.18945	0.23614	0.2475	0.07251	0.252	0.094299	0.1783	0.080307	0.081087	0.10429	0.1101	-3.6813	-4.5833	-4.5396	-4.55	-4.8271	-4.3854	-4.4583	-4.8479	-4.3063	-4.5687	-4.7688	-4.2979	-4.6479	-4.5146	-4.1	-4.9938	150.899	8.965	-20.929	258.577	183.956	59.928	174.947	212.540	96.866	158.607	162.100	8.057	214.271	57.300	-11.218	-43.841	6.5615e-05	0.00037953	8.8509e-05	1133.3	1.4834e-06	2.1431e-06	1204.5	226.06	6.691e-07	3.6975e-06	285.4	81.104	64.148	18.735	1.9432e-06	26.401	0.00013435	8.6293e-05	2.3242e-05	1111.8	1.638e-06	9.5516e-07	1182.2	222.6	1.6459e-06	9.1159e-07	281.98	81.541	64.349	18.787	1.1255e-06	26.478	202.422	27.926	33.747	-51.617	116.141	109.489	-51.869	-44.263	138.234	101.336	-45.204	-37.755	-36.988	-31.057	75.635	-31.054	-8191	255	
25065.934	1	1	0	0	0.15895	0.060317	0.1698	0.16301	0.15602	0.11091	0.17487	0.18185	0.2017	0.087113	0.19588	0.10973	0.13204	0.038834	0.06199	0.15678	-3.9292	-4.5125	-4.6771	-4.3854	-4.6458	-4.6292	-4.4021	-4.8167	-4.3292	-4.3187	-4.9229	-4.3	-4.6667	-4.5625	-4.2792	-4.6438	-15.829	294.923	108.911	248.125	21.487	266.549	265.140	233.578	-19.067	-19.479	266.120	44.736	296.407	94.121	273.734	-19.486	6.9777e-05	0.00028448	0.00010869	1137.1	1.5784e-06	3.4777e-06	1202.2	224.28	1.1192e-06	3.5511e-06	286.54	80.989	63.919	18.766	1.6243e-06	26.329	0.00014905	7.3522e-05	1.8433e-05	1112.8	1.5889e-06	7.492e-07	1181.6	222.44	1.7056e-06	1.1434e-06	282.07	81.524	64.361	18.791	1.2722e-06	26.468	194.672	25.871	36.425	-51.804	133.123	82.309	-51.231	-44.413	122.104	91.038	-44.864	-37.670	-37.552	-31.184	107.408	-30.852	-8191	255	
25066.008	1	1	0	0	0.13122	0.11038	0.17887	0.082276	0.23792	0.1863	0.19215	0.057105	0.17815	0.29045	0.092889	0.023184	0.129	0.10013	0.20271	0.17042	-3.9604	-4.4375	-4.725	-4.2396	-4.5646	-4.5167	-4.2479	-4.8354	-4.3125	-4.35	-4.7104	-4.2771	-4.5	-4.7875	-4.2333	-4.8583	141.487	35.579	80.001	263.184	98.078	192.843	217.490	-42.586	96.912	21.152	-29.751	88.515	178.234	283.937	-43.658	251.329	4.9918e-05	0.00035928	0.00011309	1133.6	1.9409e-06	3.5941e-06	1200.7	224.39	9.2931e-07	2.7871e-06	284.82	81.096	64.208	18.755	2.6571e-06	26.427	0.00014622	9.2506e-05	2.4432e-05	1111.5	1.6216e-06	4.5569e-07	1180.8	222.32	1.4551e-06	8.5832e-07	281.52	81.508	64.309	18.809	1.2121e-06	26.553	207.975	48.779	34.088	-51.994	117.304	109.140	-51.526	-44.490	92.744	102.221	-44.538	-37.960	-37.269	-30.928	90.449	-31.356	-8191	255	
25066.127	1	1	0	0	0.053626	0.28934	0.069291	0.26013	0.1174	0.11798	0.28766	0.29734	0.118	0.10295	0.1789	0.311	0.2775	0.13565	0.049164	0.04723	-4.0521	-4.2125	-4.7	-4.4375	-4.5083	-4.6458	-4.3271	-4.7042	-4.3917	-4.4104	-5	-4.2479	-4.5021	-4.675	-4.2104	-4.6458	-40.351	2.623	-18.645	245.497	167.420	244.435	208.164	272.175	212.204	72.148	17.672	222.929	15.299	30.715	234.763	-0.076	7.1079e-05	0.00033889	8.6629e-05	1136	1.9345e-06	3.9325e-06	1202.1	224.01	1.0907e-06	2.7597e-06	285.02	80.849	64.499	18.84	2.6869e-06	26.247	0.00013514	0.00010338	2.2441e-05	1112.2	1.8788e-06	7.0144e-07	1179.6	222.5	1.4885e-06	9.254e-07	281.86	81.287	64.422	18.856	1.2954e-06	26.447	205.207	25.500	29.515	-51.779	113.550	87.848	-51.817	-44.294	110.889	72.138	-44.795	-37.618	-37.381	-30.595	93.902	-31.158	-8191	255	
25066.223	1	1	0	0	0.33946	0.082422	0.046954	0.14382	0.093259	0.20831	0.20844	0.072386	0.18701	0.23393	0.31785	0.08243	0.10856	0.25245	0.15813	0.1183	-4.0833	-4.2604	-4.6979	-4.4021	-4.5708	-4.6813	-4.2812	-4.6958	-4.4437	-4.2625	-4.9021	-4.2	-4.5833	-4.7771	-4.1458	-4.7583	220.249	-24.519	-25.666	182.364	24.621	176.946	250.939	164.615	268.020	27.997	275.829	116.530	176.975	127.424	-9.029	-56.432	6.2265e-05	0.00028588	8.3442e-05	1136	1.7944e-06	3.3054e-06	1194.1	224.77	1.6784e-06	3.0442e-06	285.2	81.149	64.593	18.765	1.994e-06	26.24	0.00013165	8.7156e-05	1.6126e-05	1114.1	1.8725e-06	4.9449e-07	1177.4	222.33	1.549e-06	9.3034e-07	281.82	81.673	64.627	18.776	1.2439e-06	26.441	201.411	23.260	38.124	-51.740	130.826	93.478	-51.466	-44.331	117.411	87.275	-44.667	-37.719	-37.691	-31.074	107.936	-31.073	-8191	255	
25066.318	1	1	0	0	0.23599	0.095495	0.15814	0.19841	0.093058	0.12029	0.2059	0.17048	0.029094	0.09368	0.042534	0.1166	0.086725	0.095654	0.082624	0.18103	-4.1917	-4.1458	-4.7021	-4.4313	-4.1646	-4.7458	-4.4938	-4.5687	-4.5854	-4.3063	-4.9187	-4.6396	-4.3167	-4.9896	-4.4333	-4.5437	297.377	284.889	16.887	245.018	-12.978	100.741	248.659	288.889	195.803	169.616	184.516	145.970	207.562	166.346	148.820	208.079	6.2095e-05	0.00022591	7.1879e-05	1138	2.3366e-06	3.4834e-06	1201.6	223.41	1.3212e-06	2.1257e-06	285.76	81.057	64.734	18.797	2.1904e-06	26.341	0.00014394	9.2334e-05	1.2653e-05	1112.5	1.8764e-06	6.4075e-07	1179.7	222.26	1.4327e-06	8.8594e-07	281.95	81.495	64.549	18.843	1.1547e-06	26.474	209.800	29.858	40.275	-51.863	128.155	83.122	-51.371	-44.123	107.020	107.512	-44.629	-37.680	-37.355	-30.887	93.611	-31.192	-8191	255	
25066.414	1	1	0	0	0.17383	0.08266	0.077736	0.1069	0.1577	0.22299	0.32231	0.27918	0.047844	0.093114	0.26404	0.028697	0.1495	0.11072	0.24093	0.042929	-4.3667	-4.1917	-4.6917	-4.5542	-4.3271	-4.9437	-4.5792	-4.6208	-4.7875	-4.2479	-4.8875	-4.6729	-4.2146	-4.8646	-4.4375	-4.4688	249.917	292.398	180.521	-1.016	248.739	-24.266	276.033	272.436	68.149	223.689	260.679	207.133	-43.928	-12.097	213.365	243.551	5.5358e-05	0.00022671	6.9202e-05	1136.2	1.9097e-06	3.4176e-06	1208.5	224.9	9.6987e-07	2.2812e-06	284.05	81.211	64.395	18.738	1.6622e-06	26.414	0.000125	9.0608e-05	2.0304e-05	1114.2	1.9442e-06	8.1785e-07	1183.2	222.3	1.4063e-06	9.994e-07	281.64	81.556	64.569	18.792	1.3091e-06	26.489	205.329	24.827	52.050	-51.774	131.731	91.743	-51.543	-44.006	103.268	92.864	-44.567	-37.499	-37.613	-30.878	102.463	-31.066	-8191	255	
25066.535	1	1	0	0	0.046704	0.092925	0.15565	0.047452	0.062745	0.17325	0.2542	0.15705	0.15176	0.064664	0.11485	0.096835	0.15302	0.22969	0.065993	0.063213	-4.3708	-4.1542	-4.6333	-4.4542	-4.2979	-4.8021	-4.4958	-4.4854	-4.9062	-4.1958	-4.6417	-4.6271	-4.2833	-4.85	-4.3854	-4.4812	-45.801	134.653	-43.614	39.352	187.564	282.387	236.711	60.160	272.562	281.073	237.624	125.028	249.906	281.063	247.368	40.036	6.813e-05	0.00033752	9.7971e-05	1136.3	2.1572e-06	2.2861e-06	1200.1	224.76	1.3125e-06	3.3678e-06	283.77	81.172	64.337	18.622	1.9518e-06	26.448	0.00013517	0.00010907	2.4189e-05	1112.8	1.804e-06	8.4173e-07	1181	222.38	1.4831e-06	1.0448e-06	281.82	81.592	64.487	18.794	1.05e-06	26.579	202.148	39.183	38.172	-51.937	105.957	89.808	-51.485	-44.246	120.515	74.844	-44.664	-37.744	-37.241	-31.245	98.924	-31.227	-8191	255	
25066.607	1	1	0	0	0.10286	0.10084	0.17141	0.16512	0.10685	0.092658	0.17658	0.079988	0.20391	0.088403	0.10443	0.10591	0.31817	0.16337	0.15159	0.087053	-4.5667	-4.3313	-4.5979	-4.9187	-4.2625	-4.8604	-4.6958	-4.3958	-4.8521	-4.3333	-4.6292	-4.7875	-4.3333	-4.7146	-4.6208	-4.3625	257.642	178.791	28.180	206.482	116.029	271.325	232.787	170.027	193.288	196.539	265.695	151.969	13.020	231.997	23.959	24.485	6.3244e-05	0.00023393	9.1704e-05	1138	2.3537e-06	2.242e-06	1204.4	224.39	5.8295e-07	2.2551e-06	284.63	80.473	64.095	18.619	2.4807e-06	26.342	0.00012324	9.2592e-05	2.2149e-05	1113.4	1.924e-06	7.4821e-07	1182.3	222.63	1.3265e-06	1.1849e-06	281.69	81.371	64.439	18.819	1.032e-06	26.521	207.016	23.929	17.334	-51.697	124.010	83.116	-51.499	-44.402	122.995	92.147	-44.657	-37.891	-37.447	-31.098	81.476	-31.329	-8191	255	
#DATA ENDS
