BOXY.EXE: ISS Imagent and Oximeter Data Acquisition Program Version 0.80
Ascii Record File

#ACQ INFORMATION
2  Detector Channels 
16  External MUX Channels 
1  Auxiliary Channels 
5000  Waveform (CCF) Frequency (Hz)
1  Waveforms Skipped 
30  Waveforms Averaged 
1  Cycles Averaged 
16  Acquisitions per Waveform 
10.0806  Updata Rate (Hz) 

#FILE INFORMATION
TRUE -- External MUX Channel results are PARSED.
FALSE -- AC DC and Phase are NOT grouped.
TRUE -- Companion Program Settings File CREATED.
FALSE -- AC data not excluded
FALSE -- DC data not excluded
FALSE -- Phase data not excluded
FALSE -- Auxillary Chn. data not excluded
Tab delimiters

#CALIBRATION STATE
TRUE -- Waveform Calibration Values APPLIED.


#AUX CALIBRATION VALUES
Val Type	aux-1	

Term	1.0000e+00	
Factor	0.0000e+00	


#WF CALIBRATION VALUES
A = Detector Channel
Val Type	A-AC1	A-AC2	A-AC3	A-AC4	A-AC5	A-AC6	A-AC7	A-AC8	A-AC9	A-AC10	A-AC11	A-AC12	A-AC13	A-AC14	A-AC15	A-AC16	A-DC1	A-DC2	A-DC3	A-DC4	A-DC5	A-DC6	A-DC7	A-DC8	A-DC9	A-DC10	A-DC11	A-DC12	A-DC13	A-DC14	A-DC15	A-DC16	A-Ph1	A-Ph2	A-Ph3	A-Ph4	A-Ph5	A-Ph6	A-Ph7	A-Ph8	A-Ph9	A-Ph10	A-Ph11	A-Ph12	A-Ph13	A-Ph14	A-Ph15	A-Ph16	

Term	0.00000e+00	0.00000e+00	0.00000e+00	0.00000e+00	0.00000e+00	0.00000e+00	0.00000e+00	0.00000e+00	0.00000e+00	0.00000e+00	0.00000e+00	0.00000e+00	0.00000e+00	0.00000e+00	0.00000e+00	0.00000e+00	0.00000e+00	0.00000e+00	0.00000e+00	0.00000e+00	0.00000e+00	0.00000e+00	0.00000e+00	0.00000e+00	0.00000e+00	0.00000e+00	0.00000e+00	0.00000e+00	0.00000e+00	0.00000e+00	0.00000e+00	0.00000e+00	0.00000e+00	0.00000e+00	0.00000e+00	0.00000e+00	0.00000e+00	0.00000e+00	0.00000e+00	0.00000e+00	0.00000e+00	0.00000e+00	0.00000e+00	0.00000e+00	0.00000e+00	0.00000e+00	0.00000e+00	0.00000e+00	
Factor	1.00000e+00	1.00000e+00	1.00000e+00	1.00000e+00	1.00000e+00	1.00000e+00	1.00000e+00	1.00000e+00	1.00000e+00	1.00000e+00	1.00000e+00	1.00000e+00	1.00000e+00	1.00000e+00	1.00000e+00	1.00000e+00	1.00000e+00	1.00000e+00	1.00000e+00	1.00000e+00	1.00000e+00	1.00000e+00	1.00000e+00	1.00000e+00	1.00000e+00	1.00000e+00	1.00000e+00	1.00000e+00	1.00000e+00	1.00000e+00	1.00000e+00	1.00000e+00	X	X	X	X	X	X	X	X	X	X	X	X	X	X	X	X	

B = Detector Channel
Val Type	B-AC1	B-AC2	B-AC3	B-AC4	B-AC5	B-AC6	B-AC7	B-AC8	B-AC9	B-AC10	B-AC11	B-AC12	B-AC13	B-AC14	B-AC15	B-AC16	B-DC1	B-DC2	B-DC3	B-DC4	B-DC5	B-DC6	B-DC7	B-DC8	B-DC9	B-DC10	B-DC11	B-DC12	B-DC13	B-DC14	B-DC15	B-DC16	B-Ph1	B-Ph2	B-Ph3	B-Ph4	B-Ph5	B-Ph6	B-Ph7	B-Ph8	B-Ph9	B-Ph10	B-Ph11	B-Ph12	B-Ph13	B-Ph14	B-Ph15	B-Ph16	

Term	0.00000e+00	0.00000e+00	0.00000e+00	0.00000e+00	0.00000e+00	0.00000e+00	0.00000e+00	0.00000e+00	0.00000e+00	0.00000e+00	0.00000e+00	0.00000e+00	0.00000e+00	0.00000e+00	0.00000e+00	0.00000e+00	0.00000e+00	0.00000e+00	0.00000e+00	0.00000e+00	0.00000e+00	0.00000e+00	0.00000e+00	0.00000e+00	0.00000e+00	0.00000e+00	0.00000e+00	0.00000e+00	0.00000e+00	0.00000e+00	0.00000e+00	0.00000e+00	-1.84242e+02	-1.31288e+02	-1.21626e+02	-1.81577e+02	-7.85704e+01	-6.40695e+01	-1.57418e+02	-1.62015e+02	-9.27530e+01	-5.43537e+01	-1.71140e+02	-1.72811e+02	-1.83937e+02	-1.76769e+02	-8.70099e+01	-1.49549e+02	
Factor	3.59974e-05	1.57676e-04	5.33321e-05	1.56162e-01	1.60835e-06	2.14125e-06	1.73087e-01	5.61743e-02	1.99634e-06	1.80400e-06	9.22686e-02	3.72187e-02	3.89265e-02	9.91070e-03	1.84539e-06	1.43689e-02	3.91198e-06	4.30745e-06	1.20086e-06	7.79773e-02	4.62936e-08	4.73652e-08	8.15129e-02	2.80165e-02	4.65171e-08	4.73618e-08	4.47915e-02	1.80050e-02	1.94850e-02	4.98058e-03	4.68586e-08	6.99640e-03	X	X	X	X	X	X	X	X	X	X	X	X	X	X	X	X	



#DISTANCE SETTINGS
A = Detector Channel
A-1	A-2	A-3	A-4	A-5	A-6	A-7	A-8	A-9	A-10	A-11	A-12	A-13	A-14	A-15	A-16	

2.5000e+00	3.0000e+00	2.5000e+00	3.0000e+00	2.0000e+00	3.0000e+00	1.5000e+00	3.0000e+00	3.0000e+00	3.0000e+00	3.0000e+00	3.0000e+00	3.0000e+00	3.0000e+00	1.5000e+00	3.0000e+00	

B = Detector Channel
B-1	B-2	B-3	B-4	B-5	B-6	B-7	B-8	B-9	B-10	B-11	B-12	B-13	B-14	B-15	B-16	

1.0000e+01	1.0000e+01	1.0000e+01	1.4400e+00	1.0000e+01	1.0000e+01	1.5100e+00	1.9400e+00	1.0000e+01	1.0000e+01	1.9900e+00	2.4900e+00	2.4100e+00	2.9000e+00	1.0000e+01	2.9800e+00	




#DATA BEGINS
time	group	step	mark	flag	A-AC1	A-AC2	A-AC3	A-AC4	A-AC5	A-AC6	A-AC7	A-AC8	A-AC9	A-AC10	A-AC11	A-AC12	A-AC13	A-AC14	A-AC15	A-AC16	A-DC1	A-DC2	A-DC3	A-DC4	A-DC5	A-DC6	A-DC7	A-DC8	A-DC9	A-DC10	A-DC11	A-DC12	A-DC13	A-DC14	A-DC15	A-DC16	A-Ph1	A-Ph2	A-Ph3	A-Ph4	A-Ph5	A-Ph6	A-Ph7	A-Ph8	A-Ph9	A-Ph10	A-Ph11	A-Ph12	A-Ph13	A-Ph14	A-Ph15	A-Ph16	B-AC1	B-AC2	B-AC3	B-AC4	B-AC5	B-AC6	B-AC7	B-AC8	B-AC9	B-AC10	B-AC11	B-AC12	B-AC13	B-AC14	B-AC15	B-AC16	B-DC1	B-DC2	B-DC3	B-DC4	B-DC5	B-DC6	B-DC7	B-DC8	B-DC9	B-DC10	B-DC11	B-DC12	B-DC13	B-DC14	B-DC15	B-DC16	B-Ph1	B-Ph2	B-Ph3	B-Ph4	B-Ph5	B-Ph6	B-Ph7	B-Ph8	B-Ph9	B-Ph10	B-Ph11	B-Ph12	B-Ph13	B-Ph14	B-Ph15	B-Ph16	aux-1	digaux	

12103.509	1	1	0	256	0.09662	0.074571	0.17042	0.17996	0.20845	0.23974	0.14314	0.2062	0.097587	0.14473	0.055688	0.08938	0.19486	0.14839	0.18957	0.24748	-4.1687	-4.0208	-4.3313	-4.5979	-4.1042	-4.7125	-4.45	-4.3521	-4.5333	-4.0312	-4.6229	-4.6354	-4.0604	-4.725	-4.4396	-4.3313	444.454	346.757	511.287	406.973	343.320	338.664	387.505	467.771	467.746	375.767	390.647	177.891	519.468	174.969	349.644	455.056	0.0019455	0.00070524	0.00022296	982.98	9.0778e-06	5.4782e-06	1114.3	436.63	8.0499e-06	1.0373e-05	541.91	232.47	178.49	83.032	1.0532e-05	113.44	0.0010394	0.00097732	0.00028013	931.77	1.0545e-05	1.0973e-05	1057.1	413.63	1.0794e-05	1.0928e-05	514.77	220.13	169.85	79.354	1.0895e-05	108.38	501.550	289.835	250.988	185.687	248.879	357.567	184.265	190.542	272.048	332.470	188.326	192.578	194.597	200.137	296.776	197.184	-8191	255	
12103.605	1	1	0	0	0.28437	0.17297	0.17507	0.10776	0.20934	0.17771	0.39798	0.17266	0.04405	0.089561	0.14118	0.18028	0.26168	0.20223	0.1775	0.17017	-4.3083	-3.9875	-4.2896	-4.6875	-4.1333	-4.4542	-4.4125	-4.3938	-4.5646	-4.0646	-4.425	-4.7042	-4.1896	-4.7792	-4.1896	-4.2688	339.888	503.963	190.726	438.539	250.156	276.817	486.799	486.014	492.579	464.408	199.281	228.284	453.532	231.679	319.464	488.078	0.0020458	0.0012442	0.00038012	980.73	5.5869e-06	1.3576e-05	1122.6	437.8	2.04e-05	1.3372e-05	541.19	233.22	177.17	83.312	8.3521e-06	113.04	0.0010309	0.00098575	0.00027487	931.8	1.0471e-05	1.0836e-05	1060.1	416.06	1.0472e-05	1.0552e-05	515.2	220.91	169.6	79.363	1.0861e-05	107.92	499.822	248.494	269.314	185.519	316.880	292.255	184.331	190.460	276.541	329.061	188.663	192.250	194.339	199.775	303.006	197.228	-8191	255	
12103.725	1	1	0	0	0.18428	0.25079	0.14278	0.10384	0.14921	0.080922	0.19468	0.14822	0.14639	0.14326	0.28229	0.19509	0.10672	0.28091	0.12841	0.28053	-4.3729	-3.8667	-4.3208	-4.8083	-3.9792	-4.5646	-4.5521	-4.1771	-4.6542	-4.2583	-4.3833	-4.6792	-3.9958	-4.7479	-4.3	-4.1729	387.232	421.791	252.713	187.930	192.730	217.961	474.509	451.855	470.964	502.769	487.690	454.674	512.744	519.963	463.998	194.116	0.0017911	0.0010492	0.0002375	972.63	8.6473e-06	1.4716e-05	1106.8	431.66	1.3983e-05	7.6688e-06	536.82	230.67	176.48	82.001	4.3107e-06	112	0.0010584	0.0010034	0.00028334	925.23	1.0773e-05	1.1168e-05	1049.5	410.37	1.0956e-05	1.1011e-05	510.71	218.52	168.24	78.433	1.1159e-05	106.96	506.329	228.073	266.786	185.551	270.753	324.000	184.264	190.559	265.144	254.214	188.717	192.751	194.310	200.018	335.022	197.355	-8191	255	
12103.797	1	1	0	0	0.21004	0.0099985	0.22023	0.20172	0.09396	0.25806	0.16025	0.28446	0.10892	0.18052	0.10934	0.06914	0.049226	0.056481	0.15609	0.36338	-4.3708	-4.1875	-4.1708	-4.7375	-3.9833	-4.3667	-4.6208	-4.0833	-4.5208	-4.2896	-4.2271	-4.6792	-4.3208	-4.6479	-4.4979	-4.0292	209.910	504.840	325.159	220.324	459.067	390.282	493.048	467.194	362.742	233.252	527.446	318.769	375.729	498.794	454.536	492.653	0.0018863	0.0013307	0.00037816	972.03	1.0094e-05	7.4135e-06	1086.3	426.78	6.0056e-06	8.9067e-06	525.81	225.54	173.43	80.686	1.2498e-05	109.7	0.0010915	0.0010631	0.00029435	923.62	1.173e-05	1.2035e-05	1036.5	406.52	1.2239e-05	1.2308e-05	503.18	214.29	165.98	77.036	1.229e-05	104.72	504.178	252.672	267.742	185.527	311.260	429.974	184.515	190.386	232.104	352.829	188.521	192.716	194.878	199.970	272.259	197.348	-8191	255	
12103.893	1	1	0	0	0.14026	0.32574	0.11491	0.13082	0.14133	0.1607	0.19178	0.14078	0.1331	0.15503	0.1454	0.23692	0.16414	0.27675	0.047619	0.15962	-4.1333	-4.2833	-3.9854	-4.6813	-4.0771	-4.375	-4.6188	-4.1417	-4.5479	-4.3542	-4.0375	-4.7729	-4.1625	-4.3646	-4.5312	-4.2396	511.448	365.017	291.444	514.112	265.828	430.925	238.145	514.943	529.977	240.075	298.193	186.117	232.919	513.838	237.868	498.113	0.0019806	0.00090843	0.00047876	964.76	5.7226e-06	1.5271e-05	1078.6	423.67	6.3717e-06	1.6638e-06	521.69	222.78	171.57	80.135	9.9532e-06	108.86	0.0011601	0.0011289	0.00031308	917.82	1.2077e-05	1.2413e-05	1029.2	403.12	1.2597e-05	1.2724e-05	498.97	211.99	164.35	76.482	1.2714e-05	104.07	497.773	236.871	305.253	185.443	299.473	349.955	184.212	190.786	265.959	331.286	188.678	192.591	194.607	199.916	293.133	197.337	-8191	255	
12103.989	1	1	0	0	0.16713	0.063776	0.15167	0.21783	0.1404	0.15178	0.1985	0.31116	0.067439	0.065809	0.025886	0.21822	0.19567	0.17564	0.14671	0.1813	-4.0167	-4.2458	-3.9833	-4.7271	-4.1479	-4.3104	-4.7646	-4.2021	-4.3583	-4.2583	-4.0875	-4.8292	-4.1958	-4.3542	-4.6229	-4.0833	380.813	313.456	405.534	467.915	399.476	226.184	503.653	490.085	182.437	485.538	484.254	491.085	520.281	181.028	192.860	481.976	0.0020082	0.00067669	0.00015715	961.14	4.7924e-06	6.8851e-06	1075.7	425.57	1.583e-05	6.4688e-06	524.49	224.9	174.06	80.795	4.988e-06	109.73	0.0012201	0.0011635	0.00032363	914.57	1.2272e-05	1.2665e-05	1027.4	405.05	1.2552e-05	1.246e-05	501.75	213.96	166.41	77.528	1.2313e-05	105.02	500.876	269.302	262.449	185.774	262.261	424.970	184.251	190.578	270.347	315.544	188.983	192.501	194.631	199.972	328.736	197.336	-8191	255	
12104.110	1	1	0	0	0.1919	0.059183	0.13321	0.31439	0.040546	0.17799	0.064683	0.29467	0.22015	0.14475	0.16124	0.1855	0.11719	0.091288	0.1667	0.084146	-4.1354	-4.3792	-3.8979	-4.7542	-4.275	-4.2771	-4.8187	-4.1875	-4.3146	-4.5188	-4.0229	-4.5875	-4.4062	-4.3583	-4.675	-4.2271	505.170	252.742	243.223	506.946	240.323	372.434	434.818	493.400	392.245	179.354	504.677	480.141	392.063	473.336	387.913	175.532	0.0018364	0.0009627	0.00023927	959.68	1.7547e-06	1.4083e-05	1083.3	428.76	1.9798e-05	6.9203e-06	529.84	227.91	176.29	81.919	1.1481e-05	111.3	0.0011804	0.0011172	0.00030939	913.31	1.2002e-05	1.2152e-05	1030.7	407.4	1.2033e-05	1.1977e-05	504.75	216.13	168.15	78.316	1.2047e-05	106.1	502.530	283.221	295.727	185.733	297.916	357.185	184.222	190.481	283.212	310.386	188.745	192.342	194.765	200.174	297.447	197.281	-8191	255	
12104.206	1	1	0	0	0.19998	0.050037	0.25787	0.34722	0.08628	0.21444	0.11986	0.23345	0.11778	0.039942	0.040376	0.059729	0.13576	0.12515	0.11681	0.18434	-3.8542	-4.3688	-3.9667	-4.7896	-4.3917	-4.2562	-4.7021	-4.2604	-4.2229	-4.4917	-4.0833	-4.6729	-4.4	-4.1792	-4.7521	-4.3854	463.115	180.203	177.555	466.896	369.128	269.723	424.547	409.658	180.179	220.788	304.478	498.032	453.080	507.304	228.320	492.722	0.0019107	1.8756e-05	0.00032555	967.77	8.6018e-06	1.085e-05	1088.6	430.22	3.1605e-06	5.9262e-06	530.75	229.17	175.53	82.187	7.2114e-06	111.8	0.0011373	0.0010968	0.00030256	918.88	1.1801e-05	1.1887e-05	1035.8	409.38	1.1666e-05	1.1668e-05	505.8	217.05	167.66	78.537	1.177e-05	106.72	498.671	457.380	265.185	185.689	265.199	329.424	184.109	190.451	345.941	326.655	188.407	192.648	194.223	200.048	279.192	197.569	-8191	255	
12104.302	1	1	0	0	0.27135	0.074184	0.19797	0.24706	0.085969	0.14466	0.22786	0.11972	0.22969	0.17887	0.11649	0.11623	0.16777	0.12396	0.048882	0.29817	-3.9562	-4.6	-4.0062	-4.5146	-4.3375	-3.9896	-4.775	-4.325	-4.1708	-4.5375	-4.1167	-4.5542	-4.4667	-4.1687	-4.5417	-4.3125	268.747	410.509	424.601	436.159	523.767	484.034	362.834	437.909	429.719	376.275	425.261	509.626	412.403	515.568	522.384	488.641	0.0017842	0.00047456	0.00026877	966.02	9.2766e-06	1.0086e-05	1094.6	432.46	8.4212e-06	1.1175e-05	534.84	230.79	176.36	82.639	1.6774e-05	112.87	0.0011281	0.0010721	0.00029853	919.95	1.1663e-05	1.1806e-05	1040.3	410.09	1.1553e-05	1.1498e-05	510.4	218.84	168.1	78.641	1.1629e-05	107.81	497.923	253.025	261.106	185.575	278.085	328.477	184.211	190.705	328.701	333.323	188.458	192.477	194.466	200.121	316.304	197.319	-8191	255	
12104.399	1	1	0	0	0.052882	0.084261	0.23807	0.20235	0.0095617	0.14815	0.11082	0.2753	0.093668	0.080987	0.24144	0.13026	0.069809	0.21036	0.22331	0.17997	-3.8917	-4.525	-4.0667	-4.5708	-4.5833	-4.0021	-4.6271	-4.6312	-4.1479	-4.7312	-4.1583	-4.625	-4.5833	-4.1	-4.7354	-4.4146	479.372	466.414	476.988	502.937	362.498	529.741	196.063	474.559	238.440	197.555	435.634	473.063	340.291	526.351	495.544	457.253	0.0020105	0.00077835	0.00034636	976.65	1.0682e-05	2.054e-05	1105.8	431.51	1.3731e-05	1.1897e-05	539.87	232.86	175.95	83.575	1.2837e-05	114.63	0.001098	0.0010375	0.00028903	925.94	1.1255e-05	1.1266e-05	1050.8	410.91	1.1665e-05	1.1411e-05	514.23	221.35	168.93	79.535	1.1399e-05	109.6	500.463	247.894	289.011	185.573	292.052	309.097	184.446	190.528	292.101	341.195	188.339	192.466	194.673	200.181	253.324	197.239	-8191	255	
12104.495	1	1	0	0	0.13646	0.20146	0.11331	0.11524	0.19068	0.13098	0.30529	0.087226	0.095124	0.22688	0.0441	0.2547	0.2866	0.27086	0.21306	0.42644	-3.7	-4.5771	-4.1708	-4.5	-4.6813	-4.0396	-4.5687	-4.6354	-4.1083	-4.6729	-4.2937	-4.425	-4.6646	-4.1271	-4.5104	-4.6417	403.657	440.916	227.098	515.986	395.614	383.248	514.261	495.600	394.569	356.536	359.955	480.015	529.935	505.770	530.093	430.309	0.0020202	0.00071275	0.00018238	973.08	7.8068e-06	6.8301e-06	1113.4	433.54	1.5981e-05	4.4937e-06	546.19	234.81	178.35	83.976	1.6849e-05	115.16	0.0010971	0.0010331	0.00028548	926.24	1.0976e-05	1.131e-05	1055.7	412.02	1.1258e-05	1.1396e-05	518.01	222.58	170.38	80.061	1.132e-05	109.98	500.335	283.807	296.049	185.778	297.444	348.979	184.028	190.614	292.277	394.210	188.861	192.581	194.650	200.018	251.355	197.405	-8191	255	
12104.591	1	1	0	0	0.16713	0.1301	0.093	0.15801	0.080357	0.15507	0.3061	0.28955	0.2169	0.2838	0.22497	0.10854	0.088282	0.36416	0.16213	0.12862	-3.8625	-4.5479	-4.3208	-4.3542	-4.6708	-4.0583	-4.5625	-4.7146	-4.0417	-4.5771	-4.3354	-4.1271	-4.7375	-4.2521	-4.3688	-4.6062	338.422	399.287	207.770	432.135	212.784	368.936	500.249	495.031	227.035	260.599	466.119	235.773	456.031	499.475	184.800	459.696	0.0019745	0.00068539	0.00030516	976.76	8.0956e-06	1.3146e-05	1108.8	435.75	1.6971e-05	8.3522e-06	541.48	233.93	177.76	83.423	6.4831e-06	114.19	0.0010762	0.0010214	0.00028358	926.63	1.085e-05	1.0988e-05	1052.4	413.32	1.0894e-05	1.1097e-05	513.59	221.82	169.45	79.879	1.1262e-05	109.04	500.252	254.026	232.841	185.656	278.985	349.693	184.213	190.581	271.327	329.465	188.680	192.745	194.670	200.090	335.748	197.162	-8191	255	
12104.710	1	1	0	0	0.056546	0.049574	0.094572	0.10658	0.13574	0.10786	0.073536	0.17291	0.11735	0.15051	0.13957	0.1157	0.14816	0.075111	0.18226	0.19938	-3.7833	-4.5875	-4.2542	-4.1917	-4.6625	-4.0917	-4.5792	-4.8562	-4.125	-4.5271	-4.5667	-4.3042	-4.7625	-4.3729	-4.2542	-4.75	333.619	256.902	176.097	486.334	291.804	234.833	217.908	475.630	241.449	251.161	431.073	526.016	468.072	530.159	263.132	466.823	0.0019894	0.0010026	0.00021026	966.96	1.113e-05	7.1253e-06	1101.1	432.06	1.1508e-05	4.7981e-06	536.65	231.08	176.86	83.472	6.6735e-06	113.69	0.0010651	0.0010105	0.00027785	918.69	1.0885e-05	1.0972e-05	1044	409.44	1.1052e-05	1.1229e-05	509.92	220.07	168.86	79.484	1.1173e-05	108.34	502.128	236.832	238.528	185.675	261.824	356.441	184.233	190.687	294.375	377.536	188.616	192.535	194.526	200.042	310.081	197.400	-8191	255	
12104.806	1	1	0	0	0.15087	0.24806	0.1202	0.28598	0.14798	0.13139	0.25371	0.23163	0.029142	0.014509	0.18784	0.15314	0.14175	0.29682	0.30933	0.21182	-3.7646	-4.5479	-4.2896	-4.0958	-4.575	-4.05	-4.4062	-4.7063	-3.9458	-4.4292	-4.5167	-4.1417	-4.7604	-4.4792	-4.2646	-4.8375	423.145	366.901	453.975	375.952	375.960	215.325	476.258	339.076	254.986	345.228	491.020	372.478	173.014	511.486	233.660	480.831	0.0020705	0.00075813	0.00043401	966	5.9147e-06	8.9277e-06	1093.8	426.7	1.7123e-05	1.9197e-05	531.85	229.1	175.54	82.211	1.6578e-05	112.18	0.0010739	0.0010397	0.00028705	915.29	1.1172e-05	1.1291e-05	1038.6	405.98	1.1217e-05	1.1518e-05	505.93	217.73	167.06	78.535	1.1486e-05	107.47	499.385	261.854	272.031	185.747	276.166	334.306	184.158	190.519	300.190	339.155	188.696	192.569	194.639	200.069	282.747	197.466	-8191	255	
12104.902	1	1	0	0	0.15042	0.18934	0.23975	0.33594	0.1173	0.11499	0.15973	0.27451	0.10782	0.19936	0.16659	0.086208	0.069039	0.28124	0.23084	0.19565	-3.6104	-4.4229	-4.3	-4.2083	-4.6271	-4.2917	-4.1896	-4.8521	-4.0875	-4.3896	-4.5979	-4.0542	-4.7375	-4.5125	-4.1146	-4.8521	457.984	331.267	213.814	519.862	390.437	333.527	428.677	462.251	252.774	378.118	212.620	428.742	323.989	509.610	339.780	417.130	0.0019078	0.00026377	7.0371e-05	958.26	9.6816e-06	5.4614e-06	1088.7	423.72	7.2595e-06	2.0231e-05	529.75	228.15	174.08	81.869	1.3146e-05	111.93	0.0010849	0.0010538	0.00028502	911.49	1.1378e-05	1.1462e-05	1035.6	403.66	1.1619e-05	1.1938e-05	504.11	216.65	166.4	78.271	1.2055e-05	106.62	500.830	244.876	324.955	185.477	342.062	328.811	184.450	190.625	309.602	310.174	188.594	192.725	194.476	200.226	308.118	197.522	-8191	255	
12105.023	1	1	0	0	0.11	0.075907	0.12372	0.37188	0.19926	0.023071	0.33989	0.26504	0.18246	0.071587	0.14773	0.15928	0.12056	0.099951	0.11274	0.23076	-3.6604	-4.3729	-4.5542	-4.1562	-4.4396	-4.3771	-4.2292	-4.8187	-4.1104	-4.5292	-4.7042	-4.0625	-4.6312	-4.4812	-4.2333	-4.9979	464.125	253.363	469.339	494.181	451.266	322.966	481.522	457.682	354.631	372.659	213.864	271.115	220.955	480.154	524.416	383.409	0.0019071	0.00064789	0.00037161	958.77	9.4115e-06	1.8493e-05	1083	425.32	1.4768e-05	7.9941e-06	529.65	228.31	174.17	82.139	8.6209e-06	111.47	0.001152	0.001122	0.00030897	910.27	1.1841e-05	1.2081e-05	1033.9	404.37	1.1948e-05	1.2315e-05	504.67	217.19	166.86	78.454	1.2107e-05	106.64	503.161	267.413	238.606	185.730	335.523	333.207	184.206	190.621	272.156	356.968	188.766	192.766	194.780	200.241	227.371	197.589	-8191	255	
12105.094	1	1	0	0	0.10484	0.079866	0.15276	0.17419	0.10352	0.080486	0.19202	0.084501	0.23941	0.099133	0.16831	0.1993	0.22612	0.38445	0.24305	0.33949	-3.8042	-4.1833	-4.6146	-4.2667	-4.5271	-4.3625	-4.1521	-4.8292	-3.9833	-4.1813	-4.75	-4.1833	-4.4729	-4.4958	-3.9188	-4.8333	461.140	509.940	274.745	526.406	178.762	442.416	444.919	178.586	337.005	284.517	460.561	487.939	449.069	504.769	197.131	489.047	0.0018285	0.00142	0.00011643	955.2	2.6064e-06	8.9748e-06	1078.3	425.22	1.0531e-05	8.4324e-06	524.52	228.79	175.1	82.275	8.2071e-06	111.4	0.0011607	0.0011238	0.00031041	906.48	1.2221e-05	1.216e-05	1027.4	403.78	1.1852e-05	1.2105e-05	501.43	216.26	167.27	78.582	1.1719e-05	106.77	498.873	265.435	245.164	185.771	348.583	330.593	184.514	190.610	272.154	376.350	188.561	192.440	194.686	200.142	372.461	197.286	-8191	255	
12105.189	1	1	0	0	0.1459	0.061688	0.067264	0.086057	0.13583	0.04068	0.31498	0.14443	0.099958	0.036844	0.27509	0.21087	0.077476	0.21674	0.037291	0.39969	-3.7687	-4.3583	-4.5042	-4.2479	-4.4167	-4.3958	-4.0604	-4.7562	-4.2396	-4.1042	-4.8812	-4.1729	-4.5062	-4.55	-4.075	-4.6188	327.708	192.621	334.322	234.110	411.698	221.098	435.890	456.182	516.204	352.434	480.930	462.738	188.775	517.505	383.295	490.112	0.0019413	0.0014471	0.00053106	950.34	6.1585e-06	7.3477e-06	1081.5	424.88	2.1763e-05	8.6354e-06	523.43	228.07	173.79	81.921	1.1618e-05	111.71	0.0011223	0.0010832	0.00030153	906.91	1.1969e-05	1.1927e-05	1025.9	403.52	1.1758e-05	1.1782e-05	499.37	216.15	166.66	78.379	1.1557e-05	106.84	500.825	266.420	287.988	185.643	318.637	330.900	184.228	190.510	264.538	315.566	188.591	192.729	194.773	200.319	309.952	197.297	-8191	255	
12105.285	1	1	0	0	0.22486	0.22616	0.12926	0.31015	0.13978	0.10121	0.058359	0.079479	0.19274	0.066671	0.08263	0.28163	0.10444	0.11881	0.18127	0.27162	-3.9667	-3.9708	-4.7208	-4.1833	-4.1354	-4.5521	-4.0729	-4.725	-4.5542	-4.0917	-4.8583	-4.2271	-4.2771	-4.6333	-3.8958	-4.4354	484.629	530.427	381.030	186.189	210.685	194.425	399.577	292.248	430.745	425.264	398.703	500.177	295.806	465.329	457.318	406.462	0.0019823	0.00092142	0.00036644	957.27	8.3802e-06	1.3625e-05	1087.9	425.87	3.6472e-06	9.1921e-06	528.45	228.67	175.15	81.783	8.9757e-06	111.5	0.0010953	0.0010326	0.00029203	909.51	1.127e-05	1.1115e-05	1032.2	404.63	1.1491e-05	1.1499e-05	503.55	216.82	166.9	78.237	1.1647e-05	106.83	497.844	240.648	275.198	185.795	314.030	263.107	184.265	190.695	341.687	362.887	188.778	192.616	194.595	200.123	328.735	197.557	-8191	255	
12105.405	1	1	0	0	0.067783	0.17537	0.18053	0.14692	0.10189	0.12957	0.30668	0.23222	0.009095	0.090657	0.16055	0.18343	0.077247	0.086868	0.016936	0.12509	-3.9188	-4.1229	-4.5104	-4.2354	-4.2396	-4.6625	-4.0563	-4.5687	-4.4542	-3.8875	-4.7354	-4.3104	-4.25	-4.8104	-3.8604	-4.6062	363.757	443.522	198.493	212.252	202.090	380.584	521.730	468.092	352.899	179.470	519.113	424.881	254.105	477.856	274.032	470.485	0.0018207	0.00067077	0.00051031	959.48	8.3453e-06	1.3823e-05	1088.7	427.13	6.5467e-06	1.3738e-05	531.28	229.3	174.61	82.181	1.3769e-05	112.42	0.0010938	0.0010453	0.00029434	912.23	1.1399e-05	1.1477e-05	1034.2	405.41	1.1379e-05	1.1467e-05	505.42	217.57	167.04	78.484	1.1452e-05	107.27	500.093	277.773	271.714	185.740	300.373	306.793	184.404	190.476	263.450	320.446	188.830	192.692	194.612	200.091	280.448	197.346	-8191	255	
12105.502	1	1	0	0	0.14463	0.21491	0.25647	0.12345	0.13711	0.13077	0.038764	0.24212	0.014785	0.23309	0.12787	0.11922	0.22825	0.12603	0.19244	0.19632	-4.1562	-3.8354	-4.5021	-4.3521	-4.0708	-4.5292	-4.1292	-4.4854	-4.45	-3.9938	-4.7688	-4.3438	-4.1125	-4.8146	-4.1458	-4.4	519.473	190.784	372.006	243.398	192.891	183.467	186.820	443.329	201.509	490.083	463.956	455.290	433.419	303.359	326.469	526.434	0.0019891	0.00027552	0.00020487	956.98	1.2443e-05	1.5182e-05	1094.3	426.38	8.6331e-06	8.4116e-06	537.52	232.58	175.96	83.576	1.4846e-05	114.78	0.0011086	0.0010432	0.00029821	909.85	1.1489e-05	1.1492e-05	1040.5	405.51	1.1272e-05	1.1202e-05	511.07	220.82	168.26	79.646	1.1347e-05	109.8	502.916	270.164	281.044	185.691	314.658	331.812	184.317	190.802	225.168	317.953	188.645	192.531	194.746	200.145	268.039	197.405	-8191	255	
12105.598	1	1	0	0	0.079753	0.11397	0.042504	0.19161	0.13274	0.30739	0.46929	0.16399	0.30906	0.19343	0.15109	0.11208	0.058183	0.34689	0.16558	0.15796	-4.3146	-4.0854	-4.4896	-4.6667	-4.1771	-4.6312	-4.2729	-4.5583	-4.5604	-4.0125	-4.6042	-4.4812	-4.0271	-4.7542	-4.35	-4.3542	453.408	515.644	191.942	496.876	180.957	298.164	456.587	513.292	372.275	480.933	407.698	523.813	531.414	447.674	344.954	211.743	0.0019554	0.0014669	0.00038055	957.57	1.2924e-05	1.3553e-05	1099.6	426.73	1.5208e-05	4.5232e-06	538.02	231.91	175.99	83.72	4.7726e-06	114.58	0.0010778	0.0010308	0.00029028	912.74	1.1312e-05	1.1461e-05	1043.5	405.99	1.1295e-05	1.1489e-05	509.79	220.14	168.26	79.764	1.1342e-05	109.37	500.316	244.293	258.241	185.795	325.819	303.663	184.280	190.421	311.371	310.624	188.553	192.732	194.948	200.171	281.121	197.493	-8191	255	
12105.669	1	1	0	0	0.18315	0.18273	0.14867	0.1332	0.15625	0.20288	0.2923	0.093542	0.088895	0.21358	0.022587	0.24745	0.25724	0.2016	0.065742	0.43931	-4.0979	-3.9583	-4.4667	-4.6479	-4.025	-4.6438	-4.3167	-4.3042	-4.6208	-4.0604	-4.4354	-4.5208	-4.1271	-4.7396	-4.2562	-4.2583	510.479	215.888	351.826	462.622	239.297	327.430	448.710	415.421	440.372	329.722	493.452	480.194	451.141	508.179	321.998	446.535	0.0020305	4.7966e-05	0.00021867	957.7	2.3526e-06	1.0719e-05	1090.3	426.02	1.1202e-05	8.3797e-07	530.86	229.77	175.91	82.848	1.4756e-05	112.76	0.0010822	0.001013	0.00029133	910.14	1.1033e-05	1.1276e-05	1036.2	404.84	1.1443e-05	1.1497e-05	504.66	218.14	167.82	79.012	1.133e-05	108.03	499.955	418.092	275.377	185.557	333.610	291.726	184.328	190.519	264.607	524.680	188.769	192.470	194.608	200.243	284.773	197.426	-8191	255	
12105.790	1	1	0	0	0.22971	0.16264	0.11339	0.093614	0.1488	0.17813	0.090872	0.13489	0.067837	0.13825	0.20045	0.29816	0.21749	0.182	0.24112	0.39624	-4.3542	-4.0875	-4.2646	-4.5813	-4.1	-4.5021	-4.3812	-4.3354	-4.5917	-4.0167	-4.4417	-4.6646	-4.0771	-4.7521	-4.2333	-4.2458	326.985	455.678	405.357	395.228	429.563	274.491	429.682	511.747	392.041	383.719	507.841	506.554	296.607	500.267	384.455	462.325	0.0020268	0.0010408	8.3615e-05	956.7	8.5374e-06	1.3824e-05	1087.7	425.24	3.9885e-06	1.1069e-05	530.04	229.53	176.44	82.827	8.7433e-06	113.09	0.001098	0.0010228	0.00028976	912.24	1.0956e-05	1.1376e-05	1034.3	404.12	1.1154e-05	1.1247e-05	504.87	218.43	167.51	78.939	1.1391e-05	107.85	501.463	253.426	317.143	186.010	304.153	329.482	184.276	190.565	356.566	338.577	188.913	192.688	194.836	199.967	248.866	197.321	-8191	255	
12105.886	1	1	0	0	0.13156	0.12125	0.14629	0.21904	0.23091	0.047871	0.22476	0.11145	0.072132	0.033722	0.18602	0.25324	0.10886	0.064466	0.26509	0.28321	-4.2875	-4.125	-4.125	-4.7521	-4.0417	-4.5083	-4.5062	-4.2417	-4.4313	-4.2771	-4.3396	-4.7333	-4.1583	-4.6833	-4.5188	-4.0875	382.016	513.490	360.241	443.030	211.748	400.724	439.456	445.298	172.979	369.191	476.399	181.385	472.366	283.949	228.332	517.925	0.0020724	0.00017546	0.00027998	954.49	6.7947e-06	1.1944e-05	1084.1	423.07	1.1749e-05	7.9442e-06	526.86	230.38	174.81	82.75	1.0719e-05	113.2	0.0010979	0.0010399	0.00029428	908.62	1.1102e-05	1.1736e-05	1035.7	401.78	1.1132e-05	1.1301e-05	504.56	218.34	166.54	78.662	1.1231e-05	108.05	502.244	239.441	253.573	185.603	362.935	332.020	184.421	190.600	246.401	389.182	189.154	192.634	194.535	199.959	340.139	197.184	-8191	255	
12105.982	1	1	0	0	0.1425	0.27777	0.1535	0.2831	0.11801	0.18453	0.24442	0.023294	0.15847	0.14066	0.034325	0.094884	0.046039	0.18359	0.020834	0.14735	-4.2438	-4.25	-4.2833	-4.7042	-3.9833	-4.45	-4.5979	-4.1083	-4.5542	-4.3542	-4.3396	-4.6604	-4.2542	-4.5312	-4.3479	-4.1208	293.162	302.651	235.551	475.743	367.465	349.259	428.550	256.380	385.496	390.947	388.766	474.782	459.040	480.650	281.679	452.121	0.0017917	0.0012367	0.00027029	958.22	6.1014e-06	1.1696e-05	1090.2	424.88	8.5317e-06	9.9623e-06	530.06	229.45	173.34	82.242	8.9302e-06	113	0.0010821	0.0010327	0.00028733	911.99	1.1277e-05	1.1556e-05	1036.2	402.64	1.1652e-05	1.1453e-05	505.05	218.31	166.06	78.403	1.1466e-05	107.75	497.159	294.976	278.152	185.713	333.322	306.081	184.131	190.490	292.786	331.891	188.787	192.439	194.826	200.049	280.685	197.591	-8191	255	
12106.101	1	1	0	0	0.10845	0.10157	0.10045	0.20614	0.29311	0.14716	0.21927	0.15382	0.13506	0.2117	0.19306	0.13328	0.29232	0.23943	0.12744	0.10843	-4.2125	-4.2604	-4.1604	-4.6979	-4.1271	-4.4271	-4.6937	-4.3042	-4.4125	-4.3438	-4.1792	-4.7375	-4.2146	-4.4313	-4.6542	-4.1813	280.929	352.532	183.076	350.711	354.919	263.606	181.138	507.578	216.951	204.612	401.207	517.500	476.786	174.641	341.295	455.443	0.0019824	0.0012432	0.00033801	961.08	1.3403e-05	1.276e-05	1106.4	427.77	6.3987e-06	1.0133e-05	534.1	230.07	174.56	82.061	1.2419e-05	112.59	0.001101	0.0010415	0.000289	914.07	1.124e-05	1.1439e-05	1048.4	406.28	1.117e-05	1.1434e-05	508.96	218.91	166.53	78.288	1.1397e-05	107.45	498.612	285.438	308.524	185.716	296.164	324.342	184.307	190.644	293.341	294.470	188.437	192.769	194.621	200.087	282.692	197.549	-8191	255	
12106.197	1	1	0	0	0.19231	0.17998	0.18959	0.15737	0.25266	0.084921	0.20928	0.26354	0.042438	0.16058	0.14809	0.26489	0.22895	0.20739	0.29022	0.42207	-4.1813	-4.3063	-4.1042	-4.7271	-4.1646	-4.2188	-4.7396	-4.1729	-4.5083	-4.3771	-4.0625	-4.6604	-4.3458	-4.2271	-4.4604	-4.1312	268.144	296.433	498.688	173.360	392.494	423.835	425.799	173.585	515.872	385.050	517.357	179.693	526.950	505.264	522.914	413.991	0.001847	0.00032113	0.00030218	961.28	7.512e-06	1.1536e-05	1092.1	426.81	8.2237e-06	3.0849e-06	529.79	228.94	174.95	81.812	8.3953e-06	111.5	0.0011148	0.001036	0.00029052	912.8	1.1222e-05	1.1363e-05	1037.7	404.05	1.1436e-05	1.1037e-05	503.59	217.4	166.65	78.153	1.1555e-05	106.45	501.689	248.365	304.296	185.699	282.069	263.057	184.227	190.468	254.822	294.373	188.763	192.543	194.561	200.105	281.694	197.198	-8191	255	
12106.271	1	1	0	0	0.094759	0.12185	0.25462	0.20482	0.32257	0.23647	0.25924	0.083769	0.13384	0.038987	0.23243	0.11212	0.28169	0.29577	0.11117	0.1932	-3.8396	-4.4604	-3.9167	-4.6208	-4.2562	-4.2042	-4.8146	-4.2479	-4.2708	-4.4625	-3.9875	-4.5333	-4.3479	-4.2625	-4.6562	-4.3562	497.529	403.008	202.780	412.127	237.516	471.243	469.942	201.828	224.655	183.354	439.339	224.771	509.689	474.045	437.802	461.303	0.0018791	0.0013067	0.00016487	957.37	8.4326e-06	1.3242e-05	1092.5	427.93	8.0216e-06	2.0524e-06	531.23	229.09	175.02	81.652	7.9346e-06	112.31	0.0010984	0.0010434	0.00028891	910.12	1.1123e-05	1.128e-05	1036.6	405.5	1.1237e-05	1.1169e-05	504.24	217.29	166.64	78.025	1.105e-05	107.19	501.960	283.785	338.372	185.637	310.403	296.669	184.047	190.837	325.125	420.066	188.814	192.564	194.658	199.955	313.617	197.410	-8191	255	
12106.390	1	1	0	0	0.11363	0.093326	0.018883	0.13391	0.18168	0.092672	0.19782	0.14108	0.1719	0.17236	0.14533	0.17358	0.1449	0.26591	0.16207	0.045603	-3.8937	-4.4042	-3.7875	-4.5458	-4.3583	-4.025	-4.7	-4.2958	-4.2625	-4.7146	-4.125	-4.4938	-4.5125	-4.2188	-4.5854	-4.3771	231.330	276.426	239.519	194.452	265.268	291.128	447.014	494.958	374.335	371.432	216.514	514.935	219.648	525.137	419.665	429.830	0.0019102	0.00088056	0.00026043	965.38	5.8216e-06	1.0198e-05	1098.3	425.89	1.4431e-05	9.875e-06	535.96	229.93	175.57	81.836	4.6667e-06	113.26	0.0010682	0.0010007	0.00027872	914.87	1.0842e-05	1.1016e-05	1042.7	405.32	1.1015e-05	1.0908e-05	507.9	218.3	166.69	78.146	1.1133e-05	107.43	501.024	243.661	284.075	185.455	224.357	392.760	184.015	190.440	257.189	379.324	188.298	192.266	194.770	200.016	280.030	197.156	-8191	255	
12106.486	1	1	0	0	0.19918	0.032365	0.19582	0.24069	0.15476	0.28713	0.11736	0.17797	0.094961	0.16596	0.29801	0.11556	0.39543	0.24483	0.10705	0.11231	-3.7896	-4.5167	-4.0292	-4.6021	-4.4958	-4	-4.7583	-4.2896	-4.0667	-4.5792	-4.0437	-4.6979	-4.575	-4.0333	-4.5771	-4.4083	281.146	173.239	341.055	522.823	421.173	336.904	468.893	475.919	448.496	309.095	501.105	439.622	517.850	251.230	378.779	425.937	0.0019467	0.0010902	0.00010325	966.86	1.1094e-05	6.9667e-06	1105.1	428.07	9.4028e-06	1.5672e-05	534.21	230.62	174.96	81.83	1.4515e-05	113.03	0.0010586	0.0010078	0.00027888	915.19	1.0712e-05	1.0935e-05	1050.9	407.22	1.1069e-05	1.1207e-05	510.81	219.39	167	78.137	1.1111e-05	107.78	500.829	289.628	217.392	185.776	329.786	351.860	184.120	190.601	299.028	313.265	188.671	192.335	194.451	200.003	284.263	197.341	-8191	255	
12106.582	1	1	0	0	0.29479	0.16104	0.15828	0.13099	0.14808	0.24448	0.076195	0.37605	0.067747	0.048851	0.13944	0.084804	0.37477	0.07507	0.12696	0.18815	-3.7167	-4.5958	-3.975	-4.525	-4.7312	-3.9042	-4.7688	-4.4313	-4.025	-4.6458	-4.3354	-4.3417	-4.6062	-4.2083	-4.4521	-4.5792	333.083	490.635	179.594	495.165	275.146	226.724	387.660	451.574	439.303	351.945	524.101	506.518	212.308	529.586	353.959	173.362	0.0018872	0.0010281	0.00041182	975.66	4.3283e-06	3.669e-06	1118.6	434.75	1.0154e-05	6.6982e-07	547.88	234.53	177.91	83.093	4.3352e-06	114.76	0.0010733	0.00099497	0.00027949	923.83	1.0767e-05	1.0891e-05	1058.6	412.8	1.0801e-05	1.095e-05	521.12	222.93	169.44	79.316	1.1047e-05	109.6	497.923	265.755	276.156	185.393	311.525	307.220	184.134	190.397	288.361	485.693	188.580	192.678	194.498	200.168	306.689	197.333	-8191	255	
12106.703	1	1	0	0	0.10385	0.088202	0.17232	0.17707	0.074307	0.14422	0.29843	0.30947	0.2234	0.12624	0.19202	0.15948	0.29013	0.32131	0.027955	0.058942	-3.7167	-4.5896	-4.1583	-4.3375	-4.5396	-4.1354	-4.5583	-4.5167	-4.0792	-4.6021	-4.2729	-4.275	-4.7729	-4.1521	-4.4729	-4.65	473.477	375.428	417.789	496.701	506.846	480.994	457.565	480.922	318.166	454.065	527.321	177.579	231.151	505.614	352.614	429.879	0.0019395	0.0010573	0.00028392	971.38	6.2937e-06	1.2994e-05	1127.2	438.12	8.0299e-06	3.4571e-06	545.77	236.5	178.17	83.716	1.6063e-05	115.12	0.0010487	0.0010074	0.00027666	925.04	1.0747e-05	1.0802e-05	1066.8	415.18	1.0572e-05	1.0794e-05	520.34	223.96	169.61	79.796	1.0834e-05	109.76	502.962	281.116	241.017	185.802	296.420	338.961	184.397	190.686	267.785	382.858	188.368	192.641	194.184	200.003	299.958	197.470	-8191	255	
12106.799	1	1	0	0	0.18533	0.072884	0.12686	0.13194	0.10353	0.23232	0.21189	0.26612	0.11743	0.1102	0.23506	0.047709	0.094818	0.31332	0.13914	0.40789	-3.5312	-4.5896	-4.3333	-4.4396	-4.7167	-3.9833	-4.4771	-4.6979	-4.0792	-4.7125	-4.3042	-4.2812	-4.7562	-4.3292	-4.3958	-4.6833	522.268	515.281	218.624	475.354	468.793	325.353	202.233	362.757	208.780	364.410	513.503	498.743	302.905	467.249	336.749	500.350	0.0018368	0.0011385	0.00037969	967.93	7.7291e-06	1.6467e-05	1113.6	435.55	1.1314e-05	3.6645e-06	544.84	234.78	178.89	83.405	8.4184e-06	114.98	0.00104	0.00097505	0.0002728	922.3	1.0585e-05	1.0697e-05	1057	413.48	1.0546e-05	1.0804e-05	516.59	222.52	169.97	79.602	1.0779e-05	109.34	499.400	256.355	255.676	185.580	274.958	328.995	184.164	190.565	240.390	346.082	188.545	192.549	194.558	199.988	254.856	197.296	-8191	255	
12106.893	1	1	0	0	0.14637	0.048288	0.11783	0.33289	0.11287	0.19505	0.37894	0.11526	0.16874	0.059124	0.090052	0.13826	0.15286	0.11103	0.16553	0.14623	-3.8063	-4.4875	-4.3375	-4.2271	-4.6146	-4.1521	-4.4563	-4.6583	-3.9542	-4.4792	-4.3583	-4.1438	-4.6875	-4.3542	-4.3979	-4.6542	413.091	410.535	377.715	498.458	358.148	303.671	439.945	400.087	365.135	236.775	484.715	415.526	201.161	441.860	308.967	514.483	0.0019315	0.00022257	0.00029518	977.84	1.3743e-05	1.1835e-05	1121	437.04	8.8641e-06	9.2586e-06	548.2	235.03	178.83	83.081	7.3652e-06	114.76	0.0010398	0.0009663	0.00027336	927.81	1.0575e-05	1.0571e-05	1066.8	415.61	1.07e-05	1.0904e-05	520.7	223.32	170.27	79.319	1.0868e-05	109.39	502.251	255.930	229.730	185.582	298.670	337.984	184.372	190.549	265.132	312.051	188.952	192.575	194.716	199.991	286.771	197.252	-8191	255	
12106.967	1	1	0	0	0.22275	0.10995	0.23589	0.30488	0.14057	0.14606	0.084541	0.15326	0.095217	0.036786	0.21885	0.2434	0.12218	0.24497	0.098415	0.32139	-3.6833	-4.5437	-4.4375	-4.125	-4.7521	-4.2	-4.3229	-4.8625	-3.9125	-4.4708	-4.4854	-4.2125	-4.5521	-4.4	-4.1771	-4.8042	377.538	189.631	433.674	383.644	516.101	284.259	417.931	469.165	202.339	477.699	517.583	526.931	360.543	492.583	213.183	483.345	0.0018991	0.00070811	0.00043036	972.44	1.0104e-05	1.1497e-05	1123.1	436	5.8921e-06	1.4226e-05	548.64	237.13	178.65	83.202	9.6279e-06	116.1	0.0010418	0.00098711	0.00027154	925.93	1.0643e-05	1.0782e-05	1067.4	413.85	1.0487e-05	1.0753e-05	521.68	224.27	170.2	79.567	1.0796e-05	110.54	498.436	286.720	294.801	185.598	301.465	300.745	184.147	190.557	232.750	330.041	188.231	192.511	194.835	200.069	291.021	197.079	-8191	255	
12107.085	1	1	0	0	0.11932	0.24834	0.06062	0.2216	0.16456	0.095391	0.13978	0.24578	0.10798	0.04355	0.17903	0.25647	0.076091	0.29155	0.24453	0.0511	-3.75	-4.3833	-4.4333	-4.1396	-4.6542	-4.2625	-4.3271	-4.8313	-4.0146	-4.4125	-4.6604	-4.0792	-4.65	-4.3625	-4.1375	-4.8125	427.924	212.187	255.292	184.679	505.450	531.293	528.553	489.474	181.289	292.292	472.521	522.224	482.643	178.223	462.947	435.282	0.0019585	0.00064334	1.8574e-05	975.7	8.8973e-06	7.3254e-06	1126.4	441.84	1.7109e-05	1.0328e-05	554.42	239.87	179.86	84.312	1.001e-05	117.58	0.0010447	0.00098196	0.00027336	926.66	1.078e-05	1.0755e-05	1071.6	417.45	1.0723e-05	1.0845e-05	528.04	226.8	171.61	80.386	1.0798e-05	111.94	500.221	234.700	207.978	185.447	295.588	311.448	184.080	190.775	261.677	312.192	188.903	192.486	194.547	200.111	281.872	197.296	-8191	255	
12107.182	1	1	0	0	0.23948	0.10892	0.31763	0.28635	0.039892	0.14928	0.25794	0.34187	0.22189	0.064415	0.27434	0.2043	0.27949	0.05787	0.19246	0.18654	-3.8333	-4.3313	-4.5646	-4.0312	-4.6188	-4.3292	-4.2708	-4.5583	-4.0813	-4.3688	-4.8292	-4.025	-4.5312	-4.5813	-4.0625	-4.6813	404.902	291.157	209.377	463.910	314.266	268.321	524.053	460.345	266.185	384.993	478.549	322.941	509.129	216.199	193.549	508.258	0.0020909	0.0012377	0.0001495	986.91	1.0324e-05	1.8044e-05	1132	442.96	1.1305e-05	6.9904e-06	553.66	238.53	179.88	84.258	8.6792e-06	116.08	0.0010584	0.0010028	0.00027459	934.64	1.067e-05	1.0822e-05	1077.6	418.96	1.0861e-05	1.1025e-05	525.52	225.19	171.46	80.346	1.0754e-05	110.65	504.148	281.816	264.530	185.668	314.190	307.450	184.400	190.648	287.845	333.073	188.509	192.476	194.575	199.910	310.285	196.929	-8191	255	
12107.278	1	1	0	0	0.14159	0.054549	0.022399	0.38425	0.0064224	0.2168	0.1799	0.22845	0.22501	0.11798	0.1241	0.27717	0.18778	0.11015	0.29208	0.27857	-3.925	-4.2458	-4.6813	-4.0979	-4.4292	-4.4771	-4.1292	-4.825	-4.1958	-4.1708	-4.6667	-4.2042	-4.4625	-4.5	-3.9625	-4.9458	196.472	344.591	317.433	469.000	380.534	515.243	421.136	459.300	434.179	289.857	522.975	175.503	196.387	473.919	440.980	442.615	0.0021338	0.0011348	0.00018084	977.1	8.1901e-06	3.6797e-06	1129	438.58	7.784e-06	9.0589e-06	548.09	236	180.01	83.792	4.8998e-06	115.1	0.0010422	0.00097147	0.00027172	930.88	1.0627e-05	1.0483e-05	1068.4	416.56	1.0735e-05	1.0813e-05	519.88	223.84	170.8	80.012	1.0669e-05	109.81	499.948	248.854	241.884	185.880	328.459	222.265	184.203	190.562	282.086	279.874	188.720	192.605	194.635	199.945	253.593	197.369	-8191	255	
12107.374	1	1	0	0	0.13271	0.21254	0.20582	0.091839	0.11538	0.15688	0.12689	0.162	0.15324	0.0092071	0.23065	0.049467	0.1433	0.159	0.11963	0.057411	-3.9479	-4.0229	-4.5875	-4.1208	-4.2583	-4.5062	-4.0667	-4.7562	-4.0667	-4.1479	-4.7542	-4.3271	-4.1979	-4.7708	-4.0125	-4.625	389.862	388.552	344.346	418.804	483.534	406.677	309.375	499.100	208.211	427.551	452.319	511.953	374.052	178.518	247.234	393.506	0.0019589	0.00049501	0.00010315	973.15	1.1176e-05	1.2546e-05	1121.4	438.94	1.188e-05	1.2892e-05	551.31	236.87	180.9	84.14	8.7843e-06	116.42	0.0010468	0.0009887	0.00027122	927.24	1.0613e-05	1.0557e-05	1066.3	417.11	1.064e-05	1.0578e-05	521.55	224.39	171.57	80.291	1.0484e-05	110.63	503.262	232.246	278.582	185.786	364.058	360.441	184.221	190.564	282.144	324.540	188.332	192.555	194.578	200.063	311.522	197.369	-8191	255	
12107.495	1	1	0	0	0.071552	0.11504	0.16355	0.21822	0.12368	0.065193	0.16116	0.31481	0.14982	0.15899	0.11479	0.050859	0.22769	0.15506	0.11418	0.18281	-3.9854	-4.0625	-4.5333	-4.2667	-4.2042	-4.4646	-4.0917	-4.7604	-4.3292	-4.1479	-4.75	-4.2792	-4.275	-4.6729	-3.9854	-4.6729	199.387	424.244	431.646	491.278	411.553	238.541	464.715	467.857	204.762	264.175	454.522	523.512	474.527	487.502	506.026	384.605	0.0019955	0.00099353	0.00045592	978.67	8.8262e-06	1.0541e-05	1129	440.16	1.702e-05	8.2026e-06	553.25	237.87	179.67	84.051	7.2478e-06	116.4	0.0010335	0.00096845	0.00027254	930.46	1.0623e-05	1.0496e-05	1069.6	417.58	1.0546e-05	1.0553e-05	525.21	225.31	170.82	80.134	1.0313e-05	111.35	498.872	309.447	266.571	185.573	317.740	297.843	184.245	190.811	280.235	343.459	188.735	192.481	194.411	199.986	326.535	197.243	-8191	255	
12107.566	1	1	0	0	0.22414	0.35471	0.30228	0.084721	0.12616	0.12549	0.17035	0.31961	0.14761	0.23513	0.065543	0.19741	0.36945	0.22019	0.11207	0.17724	-4.0292	-3.9437	-4.675	-4.2125	-4.1146	-4.6083	-4.1562	-4.5292	-4.4229	-3.8729	-4.8	-4.4	-4.1167	-4.7104	-3.9979	-4.5333	425.678	283.569	246.075	499.383	270.489	180.927	474.105	492.387	404.694	174.820	475.751	466.622	502.071	494.583	444.702	473.494	0.0020082	0.00045592	0.00029637	983.4	7.0341e-06	7.3292e-06	1131.9	439.1	8.8182e-06	1.0512e-05	553.2	239.36	180.29	84.067	1.2018e-05	117.35	0.0010047	0.00094653	0.00026593	933.05	1.0426e-05	1.0525e-05	1075.1	416.77	1.0519e-05	1.0541e-05	526.41	226.4	171.06	80.423	1.045e-05	112	498.711	292.026	270.042	185.784	297.022	345.982	184.092	190.502	313.241	343.816	188.602	192.614	194.506	200.018	247.929	197.194	-8191	255	
12107.662	1	1	0	0	0.083357	0.14265	0.14564	0.24507	0.13503	0.12977	0.10173	0.27146	0.15481	0.16544	0.13148	0.21265	0.12335	0.25379	0.17367	0.30823	-4.2292	-4.0646	-4.5437	-4.3667	-3.9271	-4.6521	-4.2125	-4.5167	-4.4938	-3.9958	-4.5604	-4.4542	-4.1833	-4.8375	-4.1583	-4.4458	338.923	222.265	429.003	486.580	329.760	460.430	407.387	508.779	387.816	482.989	323.674	472.945	509.943	472.252	236.776	471.096	0.0020466	0.00034271	0.00045679	986.55	3.2749e-06	1.0711e-05	1139.1	443.25	1.2761e-05	2.0544e-06	555.46	239.17	180.02	84.454	1.4185e-05	116.35	0.0010141	0.00093811	0.00027012	933.68	1.034e-05	1.0422e-05	1082.5	419.6	1.0458e-05	1.0589e-05	528.14	226.87	171.29	80.424	1.075e-05	111.07	502.398	216.034	261.699	185.710	387.517	366.168	184.415	190.439	257.437	320.207	188.898	192.533	194.554	199.930	318.432	197.140	-8191	255	
12107.783	1	1	0	0	0.21428	0.055332	0.10101	0.28209	0.21447	0.090154	0.24901	0.21966	0.12682	0.1509	0.18029	0.20576	0.17731	0.46236	0.18804	0.28318	-4.3	-3.8146	-4.4917	-4.5521	-4.0958	-4.6917	-4.2104	-4.3313	-4.6813	-3.9979	-4.55	-4.6438	-3.9708	-4.6917	-4.3021	-4.4917	459.359	315.539	462.032	478.147	498.524	285.767	407.593	504.153	410.163	410.660	516.521	462.950	203.013	175.343	386.993	453.364	0.0018495	0.00064588	0.00037667	974.72	3.0897e-06	3.4031e-06	1122.9	436.17	1.3855e-05	3.2339e-06	545.37	237.2	181.01	84.727	1.8827e-06	116.52	0.0010436	0.00098418	0.00027831	925.19	1.0497e-05	1.066e-05	1064.6	414.61	1.0531e-05	1.0514e-05	519.86	224.72	171.52	80.874	1.0725e-05	111.2	501.050	288.290	255.533	185.668	279.681	271.720	184.143	190.690	270.107	478.072	188.392	192.595	194.337	200.039	366.195	197.386	-8191	255	
12107.879	1	1	0	0	0.26339	0.048439	0.21579	0.22714	0.1707	0.19842	0.18047	0.13848	0.21093	0.14692	0.097295	0.46189	0.25092	0.080018	0.14034	0.27271	-4.2646	-3.9708	-4.3208	-4.7229	-3.8833	-4.6333	-4.4167	-4.1458	-4.5646	-3.9646	-4.5167	-4.6312	-4.1625	-4.6458	-4.2375	-4.1438	383.525	506.952	459.561	181.174	377.273	223.727	240.265	499.646	174.980	243.907	437.136	474.555	515.100	412.877	442.791	405.594	0.0018202	0.00098365	0.00020251	972.01	8.1358e-06	1.0156e-05	1123.7	438.55	1.5837e-05	9.9638e-06	547.46	238.4	181.09	85.126	5.8864e-06	118.3	0.0010333	0.00095476	0.00027398	922.77	1.0346e-05	1.0585e-05	1064.5	415.67	1.0211e-05	1.0279e-05	521.26	226.41	171.81	81.073	1.01e-05	112.64	502.283	244.916	335.050	185.773	314.155	354.766	184.156	190.557	276.641	314.459	188.916	192.708	194.528	200.053	317.410	197.365	-8191	255	
12107.974	1	1	0	0	0.18854	0.22425	0.089688	0.17053	0.17239	0.12601	0.048388	0.35737	0.19578	0.15532	0.13252	0.1672	0.066366	0.10252	0.049382	0.26689	-4.225	-3.8979	-4.4104	-4.7667	-3.9354	-4.5146	-4.4313	-4.2792	-4.625	-4.2104	-4.3708	-4.5667	-4.0813	-4.75	-4.3354	-4.2104	485.971	467.030	414.790	212.024	520.807	237.212	417.836	466.654	236.462	275.362	450.936	391.292	228.476	490.677	509.887	470.419	0.0021456	0.001092	0.00011365	975.78	6.8832e-06	1.409e-05	1137.5	440.65	1.3107e-05	8.4156e-06	556.39	242.82	181.42	85.76	1.6383e-05	118.97	0.0010124	0.0009223	0.0002625	927.46	9.9939e-06	1.0327e-05	1080	418.29	1.0168e-05	1.0092e-05	530.47	229.41	172.5	81.636	1.0182e-05	113.36	501.105	262.761	306.286	185.593	331.332	311.851	184.462	190.400	272.200	328.640	188.716	192.477	194.412	200.088	270.029	197.294	-8191	255	
12108.071	1	1	0	0	0.15014	0.19691	0.11865	0.016914	0.12203	0.10354	0.35985	0.18035	0.10552	0.069953	0.041823	0.19019	0.28367	0.25234	0.14907	0.20656	-4.275	-4.175	-4.2604	-4.7854	-4.0813	-4.4875	-4.4542	-4.1687	-4.6042	-4.1833	-4.3438	-4.6479	-4.1396	-4.5979	-4.5875	-4.1583	364.189	226.245	472.638	460.910	389.714	227.436	469.028	524.168	397.833	464.897	234.138	503.170	502.515	515.943	256.328	374.436	0.0019377	0.00063939	0.00031417	988.21	6.2935e-06	6.9936e-06	1167.3	448.86	1.7509e-05	1.0849e-05	567.44	248.32	183.95	86.856	6.6799e-06	122.03	0.0010034	0.000921	0.00025814	934.77	9.9667e-06	1.0025e-05	1102.6	424.32	1.0025e-05	9.9887e-06	539.72	234.6	174.37	82.64	1.0005e-05	116.08	505.148	199.939	284.242	185.873	339.517	387.731	184.051	190.528	254.902	357.375	188.738	192.718	194.362	200.022	318.742	197.365	-8191	255	
12108.190	1	1	0	0	0.040665	0.12889	0.13073	0.1802	0.15421	0.063751	0.17241	0.1397	0.29114	0.17005	0.36071	0.25936	0.14836	0.13848	0.20343	0.18973	-4.3667	-4.2729	-4.2458	-4.8458	-4.0875	-4.5563	-4.7583	-4.0396	-4.6188	-4.3896	-4.2438	-4.6042	-4.2	-4.4583	-4.5979	-4.2083	320.892	175.928	292.314	502.628	296.011	256.746	179.443	467.179	221.622	491.845	496.914	462.524	207.343	523.474	455.887	464.391	0.0021126	7.2314e-05	0.00040627	996.38	3.8985e-06	9.1366e-06	1175.6	449.19	1.2408e-05	7.6032e-06	576.42	252.81	185.98	88.095	1.0448e-05	123.51	0.00099515	0.00090532	0.00025618	941.07	9.9065e-06	9.8841e-06	1113.3	425.65	1.0009e-05	1.012e-05	547.92	238.12	176.78	83.856	1.0098e-05	117.7	500.327	490.135	259.748	185.571	288.342	344.898	184.071	190.630	257.768	334.707	188.555	192.195	194.270	199.994	258.220	197.414	-8191	255	
12108.262	1	1	0	0	0.12622	0.26449	0.11779	0.17952	0.25489	0.26328	0.33261	0.050754	0.21514	0.044789	0.054447	0.26036	0.22423	0.26315	0.093459	0.14806	-4.1458	-4.2	-4.0479	-4.8021	-4.1	-4.2979	-4.7271	-4.3708	-4.4792	-4.3688	-4.3021	-4.7104	-4.2229	-4.5521	-4.5271	-4.1687	367.630	453.316	262.956	477.547	419.367	431.533	494.506	508.356	371.626	476.696	500.322	189.228	186.286	462.372	400.686	429.789	0.002182	0.00079852	0.00043177	989.23	1.0692e-05	1.3421e-05	1164.1	448.52	1.6637e-05	1.4827e-05	564.48	245.6	184.19	86.624	1.2266e-05	120.5	0.0010027	0.00092213	0.00025479	939.06	1.0052e-05	1.029e-05	1100.5	424.62	1.0257e-05	1.0227e-05	536.64	232.86	174.87	82.571	1.0257e-05	114.44	501.530	226.539	245.072	185.653	271.182	342.299	184.214	190.632	288.568	364.216	188.322	192.460	194.423	200.075	278.147	197.550	-8191	255	
12108.383	1	1	0	0	0.099571	0.26312	0.144	0.11091	0.11533	0.20243	0.22711	0.1735	0.17105	0.22169	0.1859	0.086692	0.45637	0.059064	0.25817	0.27752	-3.9646	-4.4292	-4.0104	-4.7896	-4.2	-4.1208	-4.825	-4.175	-4.6188	-4.4167	-3.9813	-4.5708	-4.3708	-4.3229	-4.5312	-4.2667	294.679	341.485	440.914	210.790	175.281	350.268	438.344	507.254	258.471	256.980	496.492	355.788	493.265	276.543	201.841	484.721	0.0021455	0.00096828	0.00026056	977.73	4.9435e-06	1.7155e-05	1134.2	443	7.0018e-06	1.1908e-05	550.09	241	181.68	86.106	1.0873e-05	118.18	0.0010269	0.00093352	0.00026325	928.88	1.0325e-05	1.0538e-05	1076.7	419.48	1.0512e-05	1.0452e-05	524.2	228.06	172.87	81.751	1.0395e-05	112.71	505.651	276.619	279.996	185.705	338.122	326.641	184.336	190.491	282.739	358.766	188.806	192.384	194.598	199.968	316.938	197.273	-8191	255	
12108.479	1	1	0	0	0.21959	0.24076	0.082613	0.33792	0.13187	0.050004	0.21224	0.3575	0.1693	0.16351	0.20767	0.23068	0.083397	0.29741	0.16442	0.031917	-4.1167	-4.3729	-4.0771	-4.6312	-4.2354	-3.9562	-4.7979	-4.3125	-4.4208	-4.4583	-4.1771	-4.5479	-4.4187	-4.1917	-4.6167	-4.3396	177.978	485.861	414.302	518.930	338.254	491.150	175.225	496.355	483.916	494.546	503.882	509.132	178.495	504.516	275.735	501.107	0.002214	0.00064004	0.00030293	975.22	5.7112e-06	3.8649e-06	1135.4	442.38	1.079e-05	1.1207e-05	555.72	243.01	181.98	85.256	1.2567e-05	118.64	0.0010342	0.00093856	0.00026039	926.61	1.027e-05	1.0506e-05	1077.7	419.26	1.0569e-05	1.0565e-05	526.67	229.59	172.87	81.627	1.0945e-05	112.94	496.967	304.180	283.525	185.610	323.210	386.486	184.197	190.356	267.628	347.753	188.644	192.506	194.509	199.968	292.387	197.402	-8191	255	
12108.575	1	1	0	0	0.10229	0.092999	0.23286	0.033239	0.23195	0.024743	0.32377	0.11086	0.12499	0.11366	0.20876	0.11764	0.19233	0.19863	0.085971	0.29784	-4.1146	-4.4583	-3.9833	-4.45	-4.3375	-4.0917	-4.6937	-4.2729	-4.0521	-4.5917	-4.1542	-4.5729	-4.4313	-4.1292	-4.3562	-4.4604	512.935	402.201	502.128	480.297	230.752	312.927	523.757	390.052	207.856	188.219	442.061	232.749	358.796	510.692	433.403	482.356	0.0021313	0.0012504	0.00026615	973.45	1.1777e-05	1.2675e-05	1139.6	441.67	1.6936e-05	6.1959e-06	556.1	242.18	182.4	85.971	5.3601e-06	118.98	0.0010412	0.00096632	0.00026977	922.05	1.0456e-05	1.053e-05	1077.8	418.64	1.0633e-05	1.0451e-05	528.67	229.75	173.42	81.607	1.0616e-05	113.46	505.397	304.889	245.987	185.534	312.446	307.223	184.030	190.578	258.259	359.653	188.673	192.569	194.347	200.083	275.958	197.058	-8191	255	
12108.671	1	1	0	0	0.17907	0.20282	0.18653	0.26446	0.28437	0.12415	0.17668	0.25494	0.21124	0.099733	0.093341	0.22815	0.19957	0.20158	0.17874	0.20314	-3.8667	-4.4729	-4.1271	-4.5896	-4.4458	-4.0396	-4.7354	-4.4563	-4.2	-4.5188	-4.2708	-4.5521	-4.4896	-4.1021	-4.5875	-4.4229	398.857	358.912	377.172	480.670	491.292	410.711	416.450	181.179	222.443	213.302	276.873	496.208	190.534	481.497	451.019	504.507	0.0020673	0.00031499	0.00010438	973.91	1.2969e-05	2.6592e-06	1136.9	440.53	1.2559e-05	9.0299e-06	559.74	246.28	182.67	86.566	1.4441e-05	120.94	0.0010567	0.00098415	0.0002698	923.4	1.0431e-05	1.0659e-05	1080.9	418.49	1.0614e-05	1.0426e-05	531.33	232.18	173.52	82.372	1.0649e-05	115.34	503.335	209.213	330.119	185.871	288.218	341.968	184.045	190.386	283.384	286.285	188.586	192.486	194.350	199.734	284.532	197.263	-8191	255	
12108.792	1	1	0	0	0.077144	0.059277	0.16502	0.096516	0.26309	0.20889	0.18545	0.29946	0.33116	0.082076	0.22596	0.19065	0.17971	0.23613	0.22458	0.36826	-3.8937	-4.6	-4.0792	-4.575	-4.4604	-4.0458	-4.65	-4.4542	-4.0021	-4.5729	-4.3604	-4.4125	-4.7167	-4.1	-4.4146	-4.4896	312.676	500.633	302.856	449.893	513.069	505.234	512.862	454.491	345.178	336.795	530.657	476.335	194.086	175.999	487.621	479.071	0.0021783	0.00091051	0.0003285	967.18	6.9541e-06	1.6696e-05	1146.2	442.67	8.8604e-06	1.4196e-05	562.02	245.68	183.17	86.334	8.6389e-06	120.83	0.0010301	0.0009793	0.00026575	921.6	1.0392e-05	1.0481e-05	1088.8	419.7	1.0591e-05	1.0587e-05	535.47	232.94	173.94	82.344	1.0573e-05	115.2	500.544	293.250	293.225	185.628	266.587	348.611	184.116	190.466	340.111	350.719	188.903	192.623	194.144	200.023	275.159	197.200	-8191	255	
12108.863	1	1	0	0	0.159	0.12033	0.26882	0.11649	0.22712	0.21316	0.1329	0.20746	0.14349	0.077891	0.29635	0.16912	0.18228	0.34006	0.18982	0.3355	-3.6562	-4.6479	-4.2	-4.5312	-4.5333	-4.0167	-4.6271	-4.5229	-4.0125	-4.5312	-4.4187	-4.3729	-4.7208	-4.1958	-4.3771	-4.775	491.140	270.309	246.086	508.186	395.644	359.559	461.640	474.107	266.925	432.839	485.395	448.327	469.099	466.112	243.634	462.325	0.0022366	0.0010492	0.000276	965.21	4.184e-06	1.4853e-05	1145.8	440.65	1.094e-05	1.0534e-05	554.69	243.58	180.96	85.78	1.4581e-05	118.7	0.0010309	0.00095241	0.00026711	916.62	1.0202e-05	1.0365e-05	1083.9	418.32	1.0207e-05	1.049e-05	527.5	230.02	172.08	81.616	1.0541e-05	113.16	498.897	249.133	299.606	185.550	333.977	290.326	184.238	190.515	297.349	329.133	188.878	192.329	194.361	200.284	312.174	197.047	-8191	255	
12108.960	1	1	0	0	0.17913	0.21654	0.10417	0.22634	0.1101	0.054801	0.17533	0.25901	0.11992	0.29153	0.072024	0.3145	0.12242	0.4787	0.12942	0.23324	-3.5833	-4.6646	-4.1917	-4.2812	-4.7354	-4.1625	-4.55	-4.6771	-4.0854	-4.7729	-4.375	-4.1438	-4.8083	-4.3417	-4.25	-4.6271	285.771	419.499	172.863	442.620	392.112	298.743	476.342	483.074	513.412	314.383	491.642	471.261	512.863	525.074	297.698	427.592	0.0020821	0.00088242	0.0001826	956.59	7.459e-06	4.0374e-06	1132.8	437.82	1.207e-05	3.0735e-06	556.81	244.24	180.26	85.462	1.1489e-05	119.86	0.0010082	0.00097685	0.00026444	909.53	1.0236e-05	1.0365e-05	1075.8	414.85	1.0241e-05	1.0336e-05	527.74	230.6	172.11	81.564	1.0369e-05	113.98	503.328	282.419	242.661	185.367	307.323	299.963	183.877	190.392	276.980	318.846	188.564	192.632	194.561	200.155	293.386	197.079	-8191	255	
12109.056	1	1	0	0	0.28159	0.32984	0.17282	0.16451	0.23063	0.18181	0.038335	0.25063	0.1966	0.18317	0.23493	0.16802	0.16092	0.50103	0.26072	0.21239	-3.6271	-4.4667	-4.3083	-4.1854	-4.7792	-4.075	-4.5229	-4.6	-3.9646	-4.4375	-4.4333	-4.1292	-4.7146	-4.3583	-4.2063	-4.7125	391.853	489.346	263.897	462.850	243.166	519.430	398.693	448.841	227.475	519.766	477.413	210.385	521.587	505.836	254.016	487.699	0.0019883	0.0003173	0.00026612	962.74	1.082e-05	1.2495e-05	1139.9	437.25	1.2498e-05	6.3693e-06	556.16	244.23	180.58	85.266	6.4268e-06	119.97	0.0010083	0.00095405	0.00026417	914.52	1.037e-05	1.0418e-05	1078.9	415.44	1.032e-05	1.064e-05	530.06	230.56	172.19	81.36	1.0382e-05	114.19	500.678	185.432	312.863	185.607	285.222	330.355	184.166	190.542	262.816	284.545	188.505	192.238	194.360	200.056	288.682	197.310	-8191	255	
12109.152	1	1	0	0	0.098848	0.20534	0.2444	0.19992	0.10724	0.16699	0.041879	0.13176	0.054221	0.12104	0.20991	0.12938	0.12363	0.1261	0.087859	0.13588	-3.6917	-4.4771	-4.3688	-4.125	-4.5646	-4.3438	-4.2688	-4.8208	-3.9917	-4.3313	-4.4646	-4.2042	-4.8063	-4.5271	-4.1312	-4.7854	238.021	508.427	261.711	531.835	510.751	402.019	349.816	510.356	193.893	267.934	468.252	490.971	172.596	491.739	527.174	383.482	0.0020105	0.00073012	0.00017029	969.17	7.5699e-06	1.0867e-05	1149.4	443.27	1.3872e-05	7.1079e-06	560.42	244.06	181.26	85.076	6.3979e-06	119.95	0.0010056	0.0009662	0.00026623	919.4	1.0352e-05	1.0464e-05	1089.8	418.82	1.0349e-05	1.0606e-05	532.19	230.9	172.38	81.203	1.0511e-05	114.11	501.403	295.109	331.585	185.758	315.220	347.727	184.053	190.541	296.255	342.970	188.716	192.469	194.490	199.875	279.530	197.058	-8191	255	
12109.271	1	1	0	0	0.18541	0.083478	0.14292	0.27302	0.1018	0.13322	0.071303	0.31517	0.078875	0.12449	0.3145	0.081014	0.22704	0.24446	0.19966	0.083385	-3.5396	-4.4167	-4.4021	-4.1271	-4.5563	-4.2562	-4.2188	-4.6542	-4.1417	-4.4354	-4.6833	-4.1188	-4.7	-4.5354	-4.1458	-4.9792	324.750	180.943	491.812	227.811	466.094	335.349	509.154	456.177	532.152	389.461	498.300	511.428	496.289	531.853	245.574	389.908	0.0020558	0.0006069	0.00034461	974.8	1.0869e-05	9.214e-06	1163.6	444.38	6.6148e-06	7.9086e-06	566.11	246.68	182.26	85.644	1.5418e-06	119.97	0.0010159	0.00094418	0.00026068	925.29	1.028e-05	1.0298e-05	1099.6	421.08	1.0263e-05	1.0344e-05	538	232.7	173.12	81.489	1.036e-05	114.38	498.710	266.159	227.463	185.565	293.360	317.395	184.204	190.381	363.559	323.074	188.549	192.560	194.377	200.098	291.589	197.206	-8191	255	
12109.367	1	1	0	0	0.20772	0.076704	0.11304	0.19534	0.23175	0.26248	0.041112	0.11625	0.11274	0.029726	0.36502	0.20182	0.18165	0.1493	0.069598	0.13335	-3.9437	-4.2812	-4.475	-4.0854	-4.5208	-4.2438	-4.2229	-4.7875	-4.2104	-4.3313	-4.8354	-4.125	-4.4417	-4.6104	-3.975	-4.9333	345.621	476.716	427.824	207.462	233.769	444.266	380.488	402.408	508.793	215.545	487.092	390.790	179.199	512.642	177.455	468.542	0.002274	0.00022806	0.00027298	971.38	6.5804e-06	1.3311e-05	1149.7	443.52	1.0297e-05	1.2144e-05	559.83	244.76	182.45	85.753	9.3936e-06	119.59	0.0010195	0.00095013	0.00025842	921.8	1.0103e-05	1.0304e-05	1090.1	419.97	1.0294e-05	1.0295e-05	531.93	231.03	172.98	81.539	1.0143e-05	113.84	495.438	525.879	283.908	185.593	378.767	302.246	184.184	190.591	250.005	344.124	188.587	192.352	194.341	199.860	279.995	197.145	-8191	255	
12109.463	1	1	0	0	0.11032	0.11605	0.18547	0.24647	0.23079	0.089832	0.073671	0.23828	0.085765	0.095327	0.11658	0.16294	0.1238	0.24648	0.11165	0.22563	-3.8667	-4.3708	-4.5771	-4.1188	-4.375	-4.4417	-4.3021	-4.6708	-4.2896	-4.2229	-4.6875	-4.1354	-4.3812	-4.525	-4.0437	-4.5604	442.313	298.065	323.641	469.754	397.135	180.414	508.754	299.956	371.186	322.373	300.601	190.241	183.385	494.812	500.628	453.323	0.0021425	0.00075557	0.00025787	971.06	1.1995e-05	1.2644e-05	1148.5	445	6.0816e-06	1.0636e-05	555.13	242.99	181.25	85.489	9.6609e-06	119.48	0.0010179	0.00093088	0.00025981	923.33	1.0022e-05	1.0208e-05	1087.1	420.36	1.0181e-05	1.0194e-05	529.8	230.17	172.82	81.485	1.0132e-05	113.83	499.185	316.289	254.620	185.477	305.795	289.802	184.201	190.434	342.692	311.046	188.442	192.419	194.246	199.877	285.635	197.285	-8191	255	
12109.559	1	1	0	0	0.097142	0.070528	0.030658	0.1776	0.097914	0.13051	0.22573	0.21066	0.17631	0.10123	0.13809	0.10867	0.17652	0.31683	0.10859	0.14689	-3.9562	-4.1396	-4.6646	-4.2167	-4.3	-4.4979	-4.15	-4.6937	-4.3979	-4.2083	-4.7021	-4.3021	-4.3542	-4.7438	-3.9021	-4.7771	352.772	467.383	245.692	369.208	399.020	230.620	405.057	464.084	458.918	516.886	434.203	388.707	491.959	455.194	318.969	403.474	0.0022343	0.00079488	0.0004022	977.18	8.7739e-06	1.8234e-05	1157.2	446.59	1.5989e-05	6.5094e-06	561.02	243.74	183.4	85.318	1.3889e-05	120.08	0.0010006	0.00092847	0.00026019	927.24	1.0021e-05	1.0063e-05	1095.8	422.13	9.9924e-06	1.0155e-05	533.77	230.93	173.63	81.506	1.0181e-05	114.33	504.020	265.036	261.328	185.646	313.692	305.961	184.264	190.370	288.461	306.146	188.656	192.414	194.339	199.713	313.031	197.247	-8191	255	
12109.655	1	1	0	0	0.13313	0.02077	0.11097	0.23098	0.084911	0.10022	0.2588	0.06627	0.27658	0.23311	0.14055	0.097302	0.18727	0.064967	0.023307	0.41629	-4.0417	-3.9667	-4.5542	-4.2333	-4.2	-4.7167	-4.1271	-4.7312	-4.3354	-3.9083	-4.7917	-4.3417	-4.4771	-4.7958	-4.1125	-4.6833	485.722	513.449	476.510	199.134	462.591	467.044	461.283	492.421	496.731	347.443	298.518	418.098	283.830	278.464	524.501	443.941	0.0020936	0.0010944	0.00023003	986.19	6.7591e-06	1.8141e-05	1168.5	449.38	1.4524e-05	1.499e-05	569.74	246.85	183.11	86.227	5.124e-06	120.96	0.00099568	0.0009113	0.00025649	931.51	9.9319e-06	1.0146e-05	1106.8	424.68	1.0133e-05	1.0195e-05	541.39	233.63	174.35	81.987	1.0034e-05	115.31	496.837	254.078	307.749	185.621	328.139	304.641	184.116	190.492	290.436	330.732	188.707	192.187	194.587	200.078	348.388	197.171	-8191	255	
12109.751	1	1	0	0	0.20885	0.26508	0.056399	0.30524	0.029955	0.20425	0.32688	0.27368	0.036458	0.097072	0.24065	0.080088	0.15683	0.24214	0.17245	0.23572	-4.1792	-3.9938	-4.6729	-4.3812	-4.1792	-4.7104	-4.2854	-4.6604	-4.5667	-4.0458	-4.6625	-4.3896	-4.3542	-4.8667	-4.1729	-4.7771	409.999	172.487	271.887	525.493	308.841	351.894	477.218	518.995	315.715	277.437	497.756	477.420	477.901	172.662	363.277	494.424	0.0020117	0.0007067	0.00020101	986.98	1.0194e-05	5.2392e-06	1176.5	451.64	1.3334e-05	1.8287e-05	576.3	250.1	186.26	87.512	1.5658e-05	122.5	0.00099408	0.0009185	0.00025879	935.93	1.006e-05	9.9937e-06	1114.9	428.51	9.9694e-06	9.9788e-06	548.34	237.17	176.68	83.224	1.0012e-05	116.79	500.064	268.510	275.362	185.572	282.079	326.004	184.164	190.380	265.492	337.461	188.560	192.214	194.251	199.659	271.642	197.077	-8191	255	
12109.872	1	1	0	0	0.21399	0.19797	0.17528	0.17203	0.21707	0.049882	0.099583	0.040546	0.21044	0.19581	0.31068	0.2298	0.21186	0.12919	0.026717	0.30711	-4.3042	-4.2021	-4.4833	-4.3812	-4.0146	-4.6021	-4.3375	-4.4667	-4.6562	-3.9292	-4.6354	-4.55	-4.1542	-4.8438	-4.1104	-4.5188	478.225	478.863	197.004	526.749	188.496	383.788	471.848	530.825	513.495	393.009	182.939	513.263	379.910	178.407	449.463	490.261	0.0021725	0.00090511	0.00024925	994.57	6.7598e-06	3.9131e-06	1177.1	451.75	1.3274e-05	1.3535e-05	571.53	247.87	186.16	87.237	7.9195e-06	121.34	0.00099989	0.00092101	0.00025963	941.03	9.8855e-06	9.9537e-06	1113.1	428.06	9.8473e-06	9.8623e-06	542.45	234.95	176.25	83.151	9.9259e-06	115.81	499.141	267.079	254.098	185.407	242.318	310.865	184.005	190.476	245.275	338.544	188.575	192.067	194.144	199.983	255.225	197.123	-8191	255	
12109.966	1	1	0	0	0.19822	0.10153	0.13375	0.060518	0.16655	0.034353	0.27176	0.052331	0.03678	0.25694	0.32082	0.20395	0.022431	0.19185	0.084213	0.29581	-4.3604	-4.0271	-4.3583	-4.5646	-4.1375	-4.6917	-4.3625	-4.3187	-4.6229	-4.0333	-4.4021	-4.625	-3.95	-4.85	-4.3021	-4.5292	467.525	415.237	375.259	295.152	433.150	222.256	445.268	204.956	394.222	384.884	458.705	497.299	369.056	509.382	477.304	465.866	0.002104	0.00090283	0.00015242	992.72	8.909e-06	9.8217e-06	1163.3	453.18	1.5516e-05	6.763e-06	566.14	248.24	186.69	86.835	1.3136e-05	122.2	0.00098428	0.0009074	0.00025633	937.92	9.8501e-06	1.013e-05	1103.9	427.95	9.9873e-06	1.0017e-05	538.41	234.33	176.48	82.889	9.9019e-06	115.81	501.903	281.212	284.118	185.502	313.758	337.986	184.204	190.437	287.932	306.959	188.572	192.471	194.286	199.806	282.081	197.321	-8191	255	
12110.064	1	1	0	0	0.20067	0.20348	0.31932	0.41897	0.063015	0.020416	0.41066	0.37546	0.30069	0.25369	0.23455	0.15283	0.1141	0.26059	0.09636	0.39358	-4.3063	-4.0042	-4.4146	-4.7125	-3.8875	-4.4167	-4.3792	-4.3	-4.6188	-4.325	-4.6354	-4.6667	-4.1125	-4.7146	-4.2438	-4.4021	269.872	434.803	423.077	182.049	360.395	251.981	479.075	461.239	351.949	525.249	476.246	474.512	419.923	524.418	274.837	468.642	0.0020894	0.0010377	0.0003777	992.2	4.7201e-06	1.3427e-05	1174.5	452.17	1.565e-05	2.1464e-06	571.2	247.74	185.27	86.605	1.1689e-05	120.81	0.0009884	0.00091051	0.00025687	939.73	9.8361e-06	1.0105e-05	1111.6	428.97	1.0051e-05	9.9791e-06	541.91	234.53	175.72	82.43	1.0025e-05	115.16	498.850	251.252	301.092	185.452	281.508	362.797	184.188	190.237	302.917	287.646	188.591	192.544	194.185	200.088	313.162	197.297	-8191	255	
12110.159	1	1	0	0	0.096433	0.20498	0.097486	0.12329	0.18485	0.12611	0.26257	0.089055	0.039369	0.09972	0.30044	0.11978	0.1927	0.2513	0.18854	0.31997	-4.3875	-4.2812	-4.2812	-4.8104	-3.9313	-4.5875	-4.4917	-4.075	-4.5625	-4.2625	-4.475	-4.6333	-4.0875	-4.5333	-4.4375	-4.35	239.226	295.043	189.975	491.509	278.958	311.180	476.360	403.867	365.293	287.940	180.134	507.052	514.842	528.263	527.108	456.485	0.0022239	0.00077732	0.00029111	989.7	6.4661e-06	1.139e-05	1162.7	450.45	1.0344e-05	1.1981e-05	570.4	246.83	184.69	86.153	9.5956e-06	121.05	0.0010026	0.00093099	0.00026125	935.97	1.0033e-05	1.0373e-05	1105.9	426.73	1.0255e-05	1.0061e-05	540.75	233.7	175.1	82.323	1.0061e-05	115.18	504.804	273.611	266.687	185.625	314.239	344.485	184.041	190.333	306.797	301.007	188.583	192.347	194.376	199.625	303.268	197.395	-8191	255	
12110.255	1	1	0	0	0.27941	0.23337	0.12329	0.13048	0.12007	0.13508	0.11136	0.28233	0.1661	0.25116	0.12706	0.28687	0.23542	0.34357	0.11357	0.18452	-4.075	-4.2354	-4.1479	-4.6917	-4.1146	-4.3375	-4.6208	-4.2583	-4.6083	-4.3063	-4.4021	-4.7979	-4.1771	-4.575	-4.55	-4.1375	215.717	426.978	363.527	486.921	471.829	448.633	460.068	485.108	515.449	380.555	471.367	520.920	182.258	469.241	512.677	519.962	0.0020735	0.00062217	0.00037579	986.4	6.3263e-06	9.9493e-06	1167.5	448.66	2.4398e-06	1.044e-05	570.41	248.68	184.23	87.045	1.6947e-05	122.19	0.001023	0.00093303	0.00025955	933.4	1.0027e-05	1.0373e-05	1105.2	425.74	1.0337e-05	1.0339e-05	541.39	234.6	175.4	82.922	1.0024e-05	116.36	503.698	260.939	272.445	185.705	336.179	296.633	184.014	190.363	313.083	332.013	188.707	192.459	194.366	199.957	278.487	197.134	-8191	255	
12110.351	1	1	0	0	0.1368	0.058699	0.11153	0.12386	0.20603	0.22863	0.17623	0.33318	0.10296	0.17353	0.19584	0.052444	0.12121	0.12467	0.13718	0.2983	-4.2729	-4.4021	-4.0542	-4.6833	-4.0125	-4.1729	-4.8063	-4.0625	-4.625	-4.2833	-4.2167	-4.8292	-4.1562	-4.4396	-4.6375	-4.1375	397.279	268.841	454.689	419.556	191.425	521.757	229.889	443.025	249.218	401.466	412.966	347.772	311.463	503.821	405.738	506.018	0.0020249	0.00051668	0.00018443	993.03	1.3205e-05	1.6158e-05	1172.8	451.57	1.5826e-05	2.0656e-05	569.91	248.52	185.42	87.187	1.551e-05	122.12	0.0010142	0.00092125	0.00025423	938.65	1.0099e-05	1.0179e-05	1108.8	427.42	1.0066e-05	1.0203e-05	540.92	235.3	176.29	83.13	9.9372e-06	116.21	501.156	229.971	285.741	185.798	293.217	345.572	184.169	190.523	269.743	320.416	188.403	192.236	194.232	199.883	271.278	197.249	-8191	255	
12110.472	1	1	0	0	0.11225	0.22412	0.082177	0.29156	0.079887	0.060738	0.02696	0.31123	0.09342	0.23839	0.1957	0.16548	0.17071	0.32479	0.24823	0.32495	-4.2312	-4.3646	-4.0208	-4.6417	-4.1687	-4.1771	-4.5708	-4.1854	-4.6104	-4.3333	-4.2083	-4.7354	-4.3125	-4.3333	-4.6021	-4.2917	236.498	353.914	471.124	451.595	482.455	489.912	294.100	461.364	494.699	255.371	471.640	455.496	172.466	530.324	178.582	428.008	0.0021058	0.0011526	0.0003797	978.73	1.056e-06	1.3047e-05	1159.8	447.07	6.1741e-06	1.4075e-05	561.91	245.29	184.03	86.659	8.5368e-06	120.89	0.00099458	0.00090348	0.00025225	930.64	9.8425e-06	1.0037e-05	1097.5	423.98	1.0027e-05	9.993e-06	533.26	232.68	174.79	82.747	1.0071e-05	114.99	501.422	227.804	270.658	185.669	360.470	337.336	184.106	190.361	287.502	343.044	188.586	192.499	194.324	199.854	279.670	197.239	-8191	255	
12110.568	1	1	0	0	0.084826	0.081797	0.31622	0.15126	0.36561	0.25597	0.20908	0.078259	0.20356	0.11335	0.1222	0.092559	0.14125	0.29082	0.16159	0.16931	-4.0333	-4.3604	-4.0917	-4.6646	-4.1292	-4.1979	-4.8104	-4.3729	-4.5167	-4.5417	-3.9667	-4.7375	-4.4062	-4.2229	-4.7458	-4.2792	221.380	509.120	371.672	474.691	182.751	235.374	498.137	430.759	173.743	495.376	423.572	497.584	259.870	512.576	294.623	467.930	0.0021647	0.00134	0.0002807	981.61	1.3295e-05	9.0339e-06	1152.1	447.59	1.4592e-05	1.0738e-05	560.48	246.31	184.89	86.786	1.2532e-05	120.43	0.00098945	0.00089856	0.00025372	927.82	1.0041e-05	1.0126e-05	1093.1	423.53	1.0301e-05	9.921e-06	534.06	232.97	174.89	82.561	1.0258e-05	114.83	500.912	243.251	305.111	185.731	295.137	303.521	184.351	190.625	263.477	329.979	188.683	192.441	194.135	199.837	273.705	197.049	-8191	255	
12110.664	1	1	0	0	0.033887	0.18249	0.15037	0.29456	0.072603	0.24948	0.38852	0.18941	0.19888	0.030415	0.16854	0.13318	0.19685	0.12994	0.31361	0.27813	-3.9458	-4.5583	-3.9938	-4.7354	-4.1813	-4.0625	-4.9167	-4.2583	-4.3479	-4.7458	-4.2354	-4.6708	-4.4708	-4.2083	-4.5771	-4.3688	283.663	364.823	485.721	511.904	271.486	198.413	444.531	524.777	328.138	255.256	477.546	467.190	477.677	195.136	318.820	482.382	0.0021518	0.00057511	0.00041944	972.85	1.195e-05	1.1758e-05	1145.2	446.18	1.0286e-05	1.0029e-05	562.65	244.31	181.86	86.414	8.7714e-06	120.37	0.0010055	0.00092827	0.0002563	925.5	9.9555e-06	1.0236e-05	1088.8	422.36	1.0282e-05	1.0263e-05	533.01	231.62	173.46	82.009	1.0422e-05	114.45	503.506	255.472	272.262	185.573	296.440	289.010	184.055	190.633	287.102	318.239	188.568	192.283	194.560	199.964	279.772	197.325	-8191	255	
12110.736	1	1	0	0	0.10864	0.14729	0.22105	0.14202	0.087215	0.1727	0.12002	0.20364	0.13829	0.023447	0.20826	0.073644	0.2162	0.15108	0.14251	0.30968	-3.8812	-4.6896	-3.9646	-4.6	-4.5042	-4.2188	-4.7937	-4.3583	-4.1646	-4.7271	-4.1937	-4.6312	-4.6375	-4.2812	-4.5875	-4.5875	432.885	345.536	304.865	174.875	202.800	517.541	496.909	475.470	508.153	236.984	469.324	485.814	386.486	443.304	191.646	399.192	0.0020236	0.0010399	0.00021723	972.69	6.362e-06	1.0248e-05	1148.7	443.31	9.9084e-06	2.8523e-06	559.15	243.97	181.5	85.714	1.6357e-05	120.39	0.0010273	0.00092651	0.0002616	921.94	1.011e-05	1.0376e-05	1088.6	419.85	1.0333e-05	1.0266e-05	530.55	231.16	172.85	81.698	1.0523e-05	114.23	501.812	237.604	261.100	185.697	295.560	353.333	184.150	190.473	282.869	273.730	188.513	192.498	194.335	199.959	275.421	197.217	-8191	255	
12110.832	1	1	0	0	0.049646	0.20795	0.0699	0.081289	0.27826	0.19367	0.092225	0.14602	0.19787	0.10762	0.28967	0.22436	0.049069	0.081734	0.06961	0.054245	-3.8563	-4.3896	-4.1042	-4.4708	-4.4708	-4.0083	-4.7875	-4.3438	-4.1458	-4.6104	-4.2083	-4.4875	-4.5583	-4.2479	-4.5875	-4.3833	205.832	528.487	377.810	391.330	513.855	503.944	505.377	466.112	192.448	371.846	198.048	451.104	198.139	487.811	353.224	442.444	0.0020337	0.00072225	0.00019167	969.86	7.7223e-06	1.014e-05	1151.9	444.02	1.3119e-05	1.1232e-05	563.07	244.66	182.1	85.622	1.3163e-05	119.06	0.0010255	0.00095423	0.00026952	920.13	1.024e-05	1.0346e-05	1091.7	421.67	1.0527e-05	1.0524e-05	533.41	231.74	172.96	81.836	1.0824e-05	113.63	498.943	320.232	249.319	185.487	309.776	289.696	184.309	190.563	288.205	349.883	188.479	192.369	194.350	200.028	328.994	197.334	-8191	255	
12110.952	1	1	0	0	0.22773	0.079351	0.0575	0.26953	0.041508	0.019454	0.40616	0.22557	0.088688	0.12856	0.28969	0.27845	0.17341	0.24525	0.059972	0.31119	-3.7687	-4.6062	-4.2333	-4.3896	-4.5104	-4.0917	-4.6708	-4.4667	-4.0542	-4.6625	-4.3792	-4.4667	-4.6813	-4.1458	-4.4688	-4.5062	264.975	485.946	408.367	255.988	342.170	362.241	475.440	519.652	173.979	376.725	174.507	495.931	224.731	459.862	487.162	448.553	0.002021	0.0011755	0.00010939	966.71	1.2258e-05	1.0626e-05	1135.3	441.82	1.5124e-05	6.8473e-06	553.17	242.08	181.32	85.306	5.3318e-06	117.75	0.0010328	0.00098674	0.0002679	916.06	1.0498e-05	1.0515e-05	1077.5	419.28	1.0496e-05	1.0492e-05	524.71	228.67	172.7	81.414	1.087e-05	112.2	503.189	267.214	263.408	185.569	316.035	322.208	184.385	190.489	308.412	291.917	188.497	192.650	194.523	199.807	268.343	197.319	-8191	255	
12111.047	1	1	0	0	0.09037	0.19814	0.090553	0.14372	0.021857	0.21035	0.3033	0.32186	0.098122	0.042657	0.084407	0.20993	0.073122	0.23005	0.28286	0.34248	-3.7729	-4.5896	-4.1958	-4.2979	-4.5896	-4.1542	-4.8125	-4.6792	-4.1125	-4.5958	-4.6125	-4.4396	-4.8083	-4.2562	-4.4104	-4.6833	213.948	442.312	357.761	476.868	241.179	454.987	470.103	498.342	403.482	315.144	247.339	174.819	471.623	494.429	337.772	466.700	0.0021006	0.00068717	0.00017011	955.14	6.3919e-06	1.0316e-05	1120.2	437.87	7.8369e-06	1.1578e-06	545.74	240.21	180.01	84.935	1.7106e-05	118.44	0.0010489	0.0009762	0.00026895	911.81	1.0463e-05	1.0697e-05	1062.1	415.07	1.0572e-05	1.0574e-05	518.74	226.95	171.75	81.131	1.0484e-05	112.76	503.503	238.104	179.646	185.776	329.520	349.236	184.244	190.733	311.886	184.820	188.631	192.316	194.365	200.057	275.753	197.251	-8191	255	
12111.145	1	1	0	0	0.03854	0.11741	0.17936	0.29647	0.10887	0.10449	0.10412	0.23269	0.076493	0.17315	0.11873	0.16088	0.12482	0.27067	0.10425	0.21949	-3.7354	-4.6979	-4.3542	-4.3958	-4.7208	-4.1438	-4.6042	-4.7604	-4.0667	-4.6438	-4.3604	-4.2729	-4.9062	-4.55	-4.3604	-4.7083	308.067	490.815	327.728	192.689	453.316	394.443	447.843	513.051	486.361	507.548	207.296	471.078	484.433	468.763	324.685	462.626	0.0021222	0.0009216	6.7429e-05	964.07	1.0476e-05	7.8625e-06	1139.4	439.03	1.8318e-05	9.5875e-06	552.39	241.92	181.88	85.354	8.4526e-06	119.21	0.00099534	0.0009596	0.00026393	914.74	1.0095e-05	1.0259e-05	1077.9	417.8	1.0326e-05	1.0556e-05	525.46	228.98	172.63	81.454	1.0365e-05	113.48	501.529	270.538	290.782	185.581	261.842	332.853	184.320	190.437	295.906	372.855	188.865	192.641	194.688	200.017	320.473	197.179	-8191	255	
12111.264	1	1	0	0	0.0057853	0.14232	0.15509	0.14164	0.20968	0.068677	0.1834	0.36991	0.15	0.17063	0.024545	0.18411	0.29371	0.24912	0.089875	0.54582	-3.7438	-4.5521	-4.3104	-4.1521	-4.5938	-4.3438	-4.5083	-4.5729	-4.0854	-4.6333	-4.5146	-4.2458	-4.7292	-4.3917	-4.1792	-4.7604	259.591	331.952	277.201	516.829	361.172	218.497	448.769	452.972	516.094	252.660	197.574	216.955	475.778	472.243	217.791	486.772	0.0019051	0.00055722	0.00035669	970.16	1.1743e-05	8.6471e-06	1140.1	441.76	1.2546e-05	4.8818e-06	553.15	242.04	181.6	85.139	7.3551e-06	118.8	0.0010026	0.0009523	0.00025867	915.86	1.0204e-05	1.0259e-05	1079.9	418.67	1.0354e-05	1.041e-05	526.03	229.02	172.03	81.164	1.0607e-05	112.94	502.089	184.048	248.774	185.708	302.384	305.124	184.116	190.568	307.853	352.345	188.838	192.450	194.512	200.014	317.998	197.073	-8191	255	
12111.360	1	1	0	0	0.14021	0.11942	0.026495	0.21503	0.028979	0.14308	0.21737	0.20216	0.16166	0.28924	0.23728	0.17063	0.23249	0.2258	0.083482	0.042269	-3.8958	-4.3875	-4.3708	-4.2583	-4.6479	-4.2875	-4.2708	-4.8562	-4.2354	-4.3979	-4.6479	-4.1625	-4.6708	-4.4229	-4.1062	-4.9	233.335	225.510	352.451	444.786	339.074	445.924	410.604	493.082	183.355	200.911	469.579	195.044	181.648	516.748	493.953	402.673	0.0019994	0.00082276	0.00036506	960.1	8.0697e-06	8.8615e-06	1133.5	441.13	1.418e-05	4.3197e-06	553.53	243.5	181.49	85.597	5.3149e-06	119.34	0.001024	0.00097259	0.0002703	911.37	1.0496e-05	1.0477e-05	1077.4	417.77	1.0323e-05	1.0389e-05	527.04	229.92	172.33	81.465	1.0534e-05	113.49	502.559	300.209	291.136	185.514	277.530	327.440	184.309	190.489	294.092	367.176	188.533	192.515	194.362	199.835	308.924	197.296	-8191	255	
12111.431	1	1	0	0	0.040497	0.20325	0.0056302	0.15539	0.21096	0.23808	0.076051	0.39281	0.079371	0.11915	0.21983	0.17545	0.12498	0.18645	0.021131	0.50931	-3.8479	-4.325	-4.3979	-4.1687	-4.5479	-4.3792	-4.3292	-4.9313	-4.3063	-4.5604	-4.6042	-4.1188	-4.7604	-4.675	-4.1479	-4.9229	483.581	346.171	433.371	436.753	424.340	357.512	457.132	414.451	186.620	310.049	489.756	530.738	425.082	466.589	234.051	486.446	0.0020964	0.00079852	0.00034284	960.91	1.0322e-05	1.0158e-05	1121.4	436.39	1.7134e-05	6.2235e-06	546.84	239.07	179.16	84.807	1.3864e-05	117.38	0.0010342	0.00096964	0.00026858	909.15	1.0541e-05	1.0701e-05	1066.1	414.39	1.0504e-05	1.0744e-05	520.76	226.32	171	80.847	1.0632e-05	111.69	499.749	263.780	245.040	185.652	317.759	358.221	184.397	190.447	272.271	342.717	188.906	192.490	194.456	200.141	272.379	197.405	-8191	255	
12111.552	1	1	0	0	0.19812	0.098464	0.13553	0.076471	0.16954	0.27598	0.40346	0.10223	0.17712	0.24401	0.15791	0.22237	0.092584	0.16503	0.14648	0.10657	-3.9479	-4.4313	-4.5854	-4.2083	-4.5833	-4.4958	-4.3396	-4.8333	-4.2833	-4.0875	-4.7354	-4.2146	-4.6104	-4.55	-3.8979	-4.8729	528.377	238.260	375.824	191.646	337.771	352.182	464.975	499.170	358.807	414.585	505.315	192.549	428.617	423.615	458.067	531.544	0.0019421	0.00080868	0.00030656	951.01	5.7139e-06	8.7213e-06	1114.8	436.15	1.5952e-05	5.6437e-06	540.82	236.96	179.1	84.509	9.0301e-06	116.76	0.0010247	0.00098545	0.00027412	901.58	1.0713e-05	1.0763e-05	1056.5	412.36	1.0675e-05	1.0792e-05	513.87	224.37	170.37	80.513	1.065e-05	111.3	500.448	271.999	266.964	185.626	287.843	328.492	184.168	190.713	264.523	354.255	188.748	192.207	194.649	200.024	310.109	197.166	-8191	255	
12111.648	1	1	0	0	0.25779	0.12577	0.04526	0.060762	0.027134	0.25121	0.16404	0.054664	0.33037	0.12247	0.084166	0.061413	0.17959	0.14057	0.13259	0.22936	-3.9875	-4.3562	-4.6771	-4.0917	-4.4333	-4.4875	-4.1167	-4.7625	-4.225	-4.0563	-4.7083	-4.0813	-4.5042	-4.6458	-4.0833	-4.7167	185.709	248.396	393.188	463.655	205.543	457.536	474.646	195.548	498.595	256.066	491.259	260.564	446.258	434.656	181.266	447.350	0.0019283	0.00054215	0.0003124	946.05	2.0785e-06	9.7654e-06	1115.3	435.2	1.2156e-05	8.8629e-06	544.03	238.97	180.17	84.84	1.0102e-05	117.67	0.0010313	0.0009703	0.00027232	898.08	1.0591e-05	1.0709e-05	1058	412.46	1.0435e-05	1.0587e-05	517.47	226.65	170.77	80.829	1.0576e-05	112.05	499.761	259.382	305.034	185.614	313.580	327.657	184.244	190.540	255.123	317.471	188.726	192.467	194.462	199.907	304.714	197.375	-8191	255	
12111.744	1	1	0	0	0.12189	0.1242	0.19926	0.19862	0.14175	0.21344	0.28473	0.11655	0.21421	0.096991	0.046595	0.19357	0.1398	0.10494	0.17412	0.13119	-3.9167	-4.2354	-4.7812	-4.1625	-4.3208	-4.7312	-4.2021	-4.7292	-4.3083	-4.0062	-4.8396	-4.2833	-4.375	-4.725	-4.2229	-4.7771	254.613	419.982	528.710	194.532	367.088	230.549	456.423	476.830	510.583	272.958	224.053	483.800	223.262	508.004	510.041	410.476	0.0021063	0.00085425	0.00044927	940.69	8.9601e-06	5.8491e-06	1113	434.3	6.8714e-06	1.0232e-05	543.9	239.11	179.04	84.176	4.6287e-06	117.2	0.0010342	0.00096105	0.00027241	893.67	1.0584e-05	1.066e-05	1057.6	410.49	1.0597e-05	1.0644e-05	516.91	226.28	169.77	80.168	1.0595e-05	111.49	507.871	280.708	313.192	185.734	267.129	286.129	184.208	190.437	279.113	328.926	188.551	192.575	194.487	199.960	263.005	197.057	-8191	255	
12111.865	1	1	0	0	0.013545	0.10656	0.12956	0.26427	0.044639	0.17412	0.097242	0.21184	0.06755	0.30005	0.19479	0.334	0.043193	0.05708	0.099439	0.14389	-4.0208	-4.0708	-4.6958	-4.425	-4.2937	-4.5979	-4.1125	-4.6875	-4.55	-4.2021	-4.8729	-4.4583	-4.3917	-4.8812	-3.9729	-4.6583	226.790	405.930	234.959	472.513	324.240	433.163	483.552	195.378	461.516	519.308	524.252	199.136	264.823	496.155	191.844	442.611	0.0019797	0.00049025	0.00032826	939.11	1.2412e-05	8.5196e-06	1108.1	434.02	1.7543e-05	6.8962e-06	544.44	236.87	178.11	84.179	8.9299e-06	117.16	0.0010436	0.00097545	0.00027343	892.1	1.0796e-05	1.0831e-05	1054.6	410.22	1.0846e-05	1.0918e-05	517.18	225.01	169.35	80.099	1.0835e-05	111.54	500.967	281.837	272.680	185.627	272.339	353.071	184.093	190.210	245.171	370.764	188.678	192.600	194.470	200.215	289.742	197.002	-8191	255	
12111.959	1	1	0	0	0.25463	0.063278	0.30863	0.27492	0.17259	0.28212	0.26824	0.27717	0.053235	0.06673	0.15594	0.086534	0.3699	0.27761	0.18631	0.023359	-4.2583	-4.0125	-4.7	-4.3812	-4.1833	-4.5375	-4.2167	-4.5146	-4.3333	-3.9688	-4.6521	-4.5188	-4.1937	-4.7083	-4.1396	-4.4021	517.895	294.827	441.045	478.453	352.195	486.179	511.653	510.824	325.283	436.301	494.826	475.337	485.276	525.366	311.613	496.789	0.0018504	0.00086604	0.0001422	942.4	8.1751e-06	1.0835e-05	1117.3	430.54	1.6299e-05	8.1828e-06	542.46	236.32	178.22	83.508	6.9915e-06	116.36	0.0010458	0.00098837	0.00028258	892.66	1.0774e-05	1.0944e-05	1055	409.56	1.0889e-05	1.0903e-05	515.63	224.05	169.16	79.715	1.1127e-05	110.65	498.793	270.294	252.810	185.636	305.496	295.335	184.120	190.748	276.367	388.419	188.627	192.528	194.252	199.833	272.765	197.161	-8191	255	
12112.033	1	1	0	0	0.17443	0.075484	0.085756	0.11395	0.12297	0.030098	0.043435	0.23938	0.083176	0.093338	0.33039	0.20267	0.17941	0.19904	0.10521	0.21522	-4.375	-4.0146	-4.4812	-4.3688	-4.0312	-4.5354	-4.3292	-4.4354	-4.6	-4.2354	-4.6625	-4.4333	-4.1687	-4.9104	-4.2688	-4.4854	365.933	254.542	217.903	519.422	332.633	422.709	232.276	456.536	177.713	509.503	452.970	399.742	367.467	528.178	515.376	409.335	0.0018732	0.00074061	0.00010487	933.35	1.1406e-05	9.3382e-06	1098.8	429.44	1.0348e-05	4.4377e-06	531.47	233.64	175.79	82.785	1.0162e-05	113.6	0.0010522	0.00099607	0.00028853	885.3	1.1048e-05	1.1147e-05	1042.9	407	1.1164e-05	1.1334e-05	507.06	221.59	167.81	78.935	1.1207e-05	108.65	494.882	255.160	228.455	185.648	317.924	291.988	184.239	190.440	327.094	294.065	188.741	192.520	194.549	199.932	265.963	197.261	-8191	255	
12112.129	1	1	0	0	0.048161	0.28902	0.1029	0.23609	0.078186	0.073638	0.1077	0.14878	0.11023	0.072396	0.30053	0.10265	0.02199	0.24824	0.246	0.22732	-4.1687	-4.05	-4.5542	-4.5208	-4.1062	-4.7188	-4.4458	-4.2417	-4.7583	-3.9979	-4.4271	-4.4854	-4.1396	-4.5833	-4.2604	-4.3458	289.260	293.690	241.330	202.449	250.223	431.164	505.134	408.673	411.084	452.889	468.317	470.872	505.355	176.176	257.929	453.274	0.002062	0.0010998	0.00045492	931.22	1.3286e-05	1.0194e-05	1092.4	429.37	4.6035e-06	9.5872e-06	532.39	232.65	175.94	82.476	8.005e-06	113.69	0.0010732	0.0010308	0.0002924	884.62	1.0975e-05	1.1293e-05	1040.6	406.86	1.0977e-05	1.1039e-05	507.25	220.8	167.83	78.851	1.1051e-05	108.83	499.039	238.813	290.807	185.723	316.526	270.795	184.172	190.260	368.311	348.387	189.035	192.359	194.462	199.825	292.098	197.182	-8191	255	
12112.248	1	1	0	0	0.1123	0.10457	0.1193	0.17023	0.059938	0.2623	0.15317	0.12155	0.22824	0.23447	0.15599	0.2982	0.060963	0.12482	0.051226	0.1598	-4.4771	-4.2354	-4.425	-4.6896	-4.0542	-4.4313	-4.4042	-4.275	-4.5833	-4.1833	-4.4875	-4.5167	-4.1208	-4.7292	-4.3375	-4.2979	529.235	178.475	398.483	501.994	386.254	527.573	434.936	369.092	341.799	470.178	481.723	500.302	520.525	463.598	486.200	224.961	0.0020998	0.0012612	0.00036967	933.32	1.0971e-05	1.094e-05	1100.3	428.38	9.9854e-06	1.0647e-05	533.82	234.18	176.82	82.81	5.2281e-06	114.96	0.0010655	0.0010104	0.00028385	887.27	1.0828e-05	1.1102e-05	1047.2	406.31	1.1145e-05	1.0964e-05	509.71	221.99	167.56	78.86	1.0773e-05	109.69	498.865	271.947	276.507	185.521	266.667	233.049	184.273	190.540	270.964	303.857	188.437	192.456	194.247	199.908	291.955	197.123	-8191	255	
12112.344	1	1	0	0	0.077731	0.2631	0.19119	0.13871	0.09107	0.11724	0.089368	0.32156	0.27899	0.080175	0.098302	0.07859	0.21152	0.30792	0.09159	0.11178	-4.2771	-4.1417	-4.3542	-4.85	-3.9813	-4.575	-4.5813	-4.1167	-4.5563	-4.2271	-4.2958	-4.6792	-4.1229	-4.5208	-4.5125	-4.1792	288.820	204.669	416.505	503.842	453.498	301.499	516.998	410.671	515.093	195.058	455.367	234.684	527.700	510.962	484.071	506.853	0.0018647	0.0012521	0.00032919	938.27	7.1905e-06	1.2597e-05	1112.8	433.89	1.5532e-05	2.4506e-06	542.12	237.02	177.11	82.902	1.3073e-05	116.25	0.0010432	0.00098326	0.00028181	892.78	1.0764e-05	1.0919e-05	1055.7	409.26	1.0954e-05	1.0748e-05	515.63	223.64	168.94	79.272	1.0814e-05	110.73	501.183	264.903	278.609	185.550	382.784	324.626	184.196	190.388	269.136	329.269	188.434	192.295	194.437	200.028	282.977	197.093	-8191	255	
12112.440	1	1	0	0	0.10716	0.12264	0.045723	0.15096	0.13365	0.10986	0.26178	0.26246	0.063122	0.11661	0.23145	0.34571	0.02882	0.11232	0.16352	0.16085	-4.15	-4.1271	-4.2854	-4.75	-4.2167	-4.5437	-4.5604	-4.1729	-4.6292	-4.2125	-4.4313	-4.9104	-4.3104	-4.4604	-4.55	-4.2396	291.481	514.115	174.097	486.987	484.183	268.107	455.672	501.890	406.473	527.584	196.030	176.299	215.905	527.409	196.627	494.237	0.0019445	0.0013505	0.00021988	948.94	2.6446e-06	2.5168e-06	1123.6	436.69	7.1354e-06	3.267e-06	548.85	238.09	179.12	83.736	8.1493e-06	115.83	0.0010574	0.0010043	0.00027477	899.75	1.0647e-05	1.0917e-05	1066.6	413.5	1.0796e-05	1.0944e-05	521.1	225.87	170.02	79.795	1.0984e-05	110.75	500.822	266.613	270.168	185.381	319.691	278.228	184.374	190.443	259.984	266.137	188.590	192.636	194.404	199.831	260.230	197.289	-8191	255	
12112.536	1	1	0	0	0.13593	0.44643	0.10214	0.24855	0.16057	0.10914	0.17006	0.18966	0.062208	0.14724	0.13485	0.11533	0.26828	0.37621	0.076605	0.18373	-4.3521	-4.3333	-4.2	-4.6229	-4.1542	-4.5146	-4.6833	-4.1417	-4.6542	-4.125	-4.3292	-4.8125	-4.3208	-4.5458	-4.6062	-4.2625	375.656	178.430	228.927	515.238	216.215	520.950	453.566	496.082	356.848	173.089	525.922	180.118	382.554	475.966	177.247	467.456	0.0020495	0.00091396	0.00030789	947.72	2.5087e-06	7.7777e-06	1118.6	432.99	2.0898e-05	8.0577e-06	540.06	236.43	178.06	83.702	7.8197e-06	115.89	0.0010524	0.00099784	0.00027764	899.52	1.0588e-05	1.0823e-05	1060.2	411.88	1.0722e-05	1.0801e-05	513.69	223.91	169.77	80.003	1.0837e-05	110.5	505.379	206.869	225.626	185.941	335.529	264.096	184.372	190.578	283.122	346.379	188.783	192.448	194.759	199.978	291.335	197.177	-8191	255	
12112.632	1	1	0	0	0.044809	0.06002	0.19869	0.13292	0.11224	0.26331	0.084301	0.12062	0.25102	0.089766	0.27196	0.20148	0.2275	0.26418	0.14485	0.17485	-4.2542	-4.4708	-4.0354	-4.7854	-4.1438	-4.2771	-4.6396	-4.2833	-4.4021	-4.4938	-4.0563	-4.7521	-4.2792	-4.3292	-4.85	-4.0625	334.179	392.699	357.205	527.663	246.190	254.899	436.962	512.498	293.557	317.873	500.717	484.004	259.288	515.352	406.376	320.586	0.0021313	0.00070692	9.6177e-05	948.19	1.1147e-05	1.1994e-05	1115.4	435.73	1.0841e-05	1.1182e-05	541.56	237.15	179.7	83.66	5.3928e-06	116.26	0.0010577	0.00097301	0.00027068	901.15	1.0426e-05	1.0791e-05	1057.5	413.1	1.0753e-05	1.058e-05	515.72	224.66	170.35	79.799	1.0513e-05	110.8	500.713	222.837	267.245	185.719	316.867	298.952	184.081	190.452	245.161	331.418	188.676	192.458	194.633	199.959	324.746	197.396	-8191	255	
12112.729	1	1	0	0	0.05979	0.069567	0.13162	0.25162	0.11881	0.11376	0.16772	0.28849	0.14234	0.11011	0.2152	0.13558	0.27027	0.099364	0.23071	0.14043	-4.1646	-4.3792	-3.9896	-4.5896	-4.1042	-4.1583	-4.5396	-4.175	-4.4271	-4.5437	-3.9896	-4.7104	-4.3979	-4.2833	-4.6854	-4.3083	473.999	428.747	501.411	484.223	185.421	271.479	397.852	506.101	499.288	352.479	509.799	514.350	507.181	493.694	178.552	237.175	0.0020007	0.00064359	0.00018358	958.91	8.5091e-06	4.2758e-06	1128.7	436.31	1.4888e-05	8.1258e-06	547.76	239.13	179.38	83.943	6.7777e-06	116.37	0.0010281	0.00094713	0.00026604	906.78	1.0224e-05	1.0548e-05	1068.7	415.01	1.0523e-05	1.0551e-05	520.67	226.17	170.3	79.978	1.0473e-05	111.04	503.358	249.967	358.329	185.569	285.702	316.803	184.114	190.548	269.004	333.993	188.660	192.384	194.512	200.049	305.425	197.432	-8191	255	
12112.825	1	1	0	0	0.069825	0.20745	0.067696	0.13543	0.17316	0.18703	0.12816	0.28051	0.28136	0.27454	0.20935	0.2326	0.11793	0.11884	0.2703	0.2164	-3.9437	-4.5125	-4.1333	-4.5854	-4.3167	-4.05	-4.8125	-4.2396	-4.3708	-4.5771	-4.2	-4.6687	-4.4271	-4.3792	-4.6687	-4.3375	184.894	414.585	318.995	365.267	270.084	231.630	183.026	481.669	503.644	410.674	178.328	476.506	414.406	506.867	344.600	497.112	0.0019608	0.00038695	0.00041148	954.24	1.0153e-05	1.2008e-05	1132.7	439.61	9.3146e-06	1.2053e-05	552.44	241.68	181.62	84.396	1.0446e-05	118.77	0.001032	0.00096341	0.0002618	907.53	1.0329e-05	1.0462e-05	1074.3	416.13	1.034e-05	1.0283e-05	524.56	228.36	171.83	80.507	1.0499e-05	112.96	499.792	297.950	278.980	185.458	269.683	326.425	184.171	190.463	286.071	362.816	188.688	192.245	194.082	199.914	264.837	197.257	-8191	255	
12112.945	1	1	0	0	0.18045	0.047339	0.078236	0.2055	0.23676	0.36547	0.18419	0.38278	0.25308	0.016474	0.19321	0.14751	0.069834	0.26607	0.04048	0.39952	-3.9521	-4.6354	-4.0188	-4.6937	-4.5083	-4.0792	-4.7375	-4.3958	-4.1792	-4.7458	-4.1854	-4.5875	-4.5917	-4.0813	-4.5021	-4.4083	337.005	490.502	284.219	511.095	464.798	236.521	504.349	513.798	261.273	231.320	188.383	529.638	401.495	484.471	196.294	204.821	0.0021875	0.00088416	0.00023816	961.79	5.0363e-06	7.7641e-06	1136.8	442.69	1.2417e-05	9.4152e-06	556.42	240.42	181.41	84.935	6.6489e-06	118.56	0.0010209	0.00093911	0.00026511	911.67	1.0313e-05	1.035e-05	1079.8	418.96	1.0507e-05	1.0581e-05	528.77	228.66	172.07	80.867	1.0504e-05	112.72	499.019	261.586	292.289	185.912	248.464	382.562	184.531	190.607	284.114	337.998	188.532	192.492	194.500	199.885	265.771	197.172	-8191	255	
12113.042	1	1	0	0	0.19309	0.067524	0.26258	0.1472	0.13605	0.048713	0.29015	0.32883	0.039498	0.079806	0.15477	0.20409	0.21421	0.35372	0.13209	0.41696	-3.8688	-4.5979	-4.0479	-4.7688	-4.7396	-3.9875	-4.8063	-4.3979	-4.1292	-4.6958	-4.1583	-4.4958	-4.7729	-4.2937	-4.5042	-4.5042	203.287	389.920	366.646	422.606	396.989	514.937	410.042	506.761	220.407	287.104	453.722	463.424	181.061	481.771	218.792	466.978	0.0022047	0.00072773	0.00030031	960.16	5.9479e-06	1.298e-05	1134.6	440.06	1.3979e-05	4.6651e-06	547.54	239.61	180.85	84.18	1.2362e-05	116.78	0.0010225	0.00095863	0.00026336	913.17	1.0569e-05	1.0631e-05	1075.1	418.24	1.0525e-05	1.0515e-05	522.41	226.51	171.55	80.518	1.0773e-05	111.37	501.101	274.056	276.647	185.810	351.644	328.890	184.136	190.666	265.125	409.606	188.554	192.509	194.429	200.175	249.716	197.260	-8191	255	
12113.136	1	1	0	0	0.080769	0.25527	0.13287	0.19002	0.16988	0.12235	0.17797	0.30233	0.17134	0.099727	0.13168	0.25239	0.27713	0.39438	0.12981	0.13175	-3.7938	-4.5792	-4.1062	-4.5042	-4.6646	-3.9042	-4.6854	-4.6604	-4.0021	-4.575	-4.3271	-4.4479	-4.6792	-4.1167	-4.4646	-4.6813	348.088	315.910	207.312	531.901	298.699	410.097	460.615	484.592	332.451	439.007	213.105	454.835	235.942	517.048	514.383	439.142	0.0020297	0.00074637	0.00012921	963.19	9.143e-06	1.4551e-05	1128	440.11	1.0155e-05	6.1904e-06	552.12	239.11	181.5	84.609	1.4189e-05	117.2	0.0010214	0.00097321	0.00026726	912.36	1.036e-05	1.0226e-05	1069.6	418.16	1.0294e-05	1.0406e-05	521.79	226.69	171.79	80.608	1.051e-05	111.46	503.418	278.457	294.153	185.695	301.312	326.372	184.094	190.559	299.935	331.927	188.769	192.242	194.432	199.844	273.222	197.332	-8191	255	
12113.232	1	1	0	0	0.1931	0.18858	0.20637	0.23289	0.12068	0.072122	0.15895	0.24378	0.095813	0.07876	0.11777	0.36312	0.14765	0.31415	0.096021	0.39589	-3.5542	-4.5979	-4.3438	-4.2562	-4.7417	-4.1771	-4.7562	-4.6	-4.0917	-4.5958	-4.4458	-4.25	-4.7521	-4.2688	-4.4042	-4.7625	469.486	368.717	431.726	518.744	205.912	376.040	431.114	504.835	472.041	500.656	452.716	504.703	506.382	495.506	327.282	469.662	0.0020221	0.00060837	0.00026717	959.46	7.1053e-06	1.7147e-05	1129.9	440.6	1.9045e-05	5.4073e-06	548.91	238.76	180.18	84.684	9.6445e-06	116.89	0.0010155	0.00094897	0.00026482	911.31	1.0271e-05	1.0462e-05	1069.9	417.65	1.0345e-05	1.0437e-05	520.57	226.27	171.08	80.39	1.0329e-05	111.15	502.318	275.261	252.619	185.825	335.655	347.726	183.927	190.576	300.177	364.064	188.593	192.470	194.774	199.975	297.448	197.326	-8191	255	
12113.328	1	1	0	0	0.16412	0.26372	0.20782	0.15491	0.051361	0.2644	0.21218	0.14913	0.1682	0.19759	0.090181	0.19343	0.13113	0.35305	0.20917	0.11546	-3.6583	-4.4917	-4.225	-4.1771	-4.7521	-4.2562	-4.5583	-4.5479	-4.0146	-4.5437	-4.5104	-4.2667	-4.8521	-4.4646	-4.3458	-4.6646	519.323	458.787	513.702	363.071	508.349	471.076	494.703	476.531	420.563	425.638	527.440	506.293	214.554	470.865	269.002	431.082	0.0019685	0.00079476	0.00030801	960.28	7.9282e-06	1.0792e-05	1128.3	438.48	3.6602e-06	1.0319e-05	550.51	239.27	180.17	84.186	1.0065e-05	117.57	0.0009967	0.00095178	0.00026656	912.04	1.0206e-05	1.0449e-05	1069.9	416.95	1.0209e-05	1.0494e-05	522.9	226.55	170.79	80.306	1.0328e-05	111.9	499.303	245.473	281.865	185.793	315.908	341.479	184.241	190.252	258.768	366.698	188.755	192.388	194.193	199.883	305.374	197.295	-8191	255	
#DATA ENDS
