BOXY.EXE: ISS Imagent and Oximeter Data Acquisition Program Version 0.80
Ascii Record File

#ACQ INFORMATION
2  Detector Channels 
16  External MUX Channels 
1  Auxiliary Channels 
5000  Waveform (CCF) Frequency (Hz)
1  Waveforms Skipped 
30  Waveforms Averaged 
1  Cycles Averaged 
16  Acquisitions per Waveform 
10.0806  Updata Rate (Hz) 

#FILE INFORMATION
TRUE -- External MUX Channel results are PARSED.
FALSE -- AC DC and Phase are NOT grouped.
TRUE -- Companion Program Settings File CREATED.
FALSE -- AC data not excluded
FALSE -- DC data not excluded
FALSE -- Phase data not excluded
FALSE -- Auxillary Chn. data not excluded
Tab delimiters

#CALIBRATION STATE
TRUE -- Waveform Calibration Values APPLIED.


#AUX CALIBRATION VALUES
Val Type	aux-1	

Term	1.0000e+00	
Factor	0.0000e+00	


#WF CALIBRATION VALUES
A = Detector Channel
Val Type	A-AC1	A-AC2	A-AC3	A-AC4	A-AC5	A-AC6	A-AC7	A-AC8	A-AC9	A-AC10	A-AC11	A-AC12	A-AC13	A-AC14	A-AC15	A-AC16	A-DC1	A-DC2	A-DC3	A-DC4	A-DC5	A-DC6	A-DC7	A-DC8	A-DC9	A-DC10	A-DC11	A-DC12	A-DC13	A-DC14	A-DC15	A-DC16	A-Ph1	A-Ph2	A-Ph3	A-Ph4	A-Ph5	A-Ph6	A-Ph7	A-Ph8	A-Ph9	A-Ph10	A-Ph11	A-Ph12	A-Ph13	A-Ph14	A-Ph15	A-Ph16	

Term	0.00000e+00	0.00000e+00	0.00000e+00	0.00000e+00	0.00000e+00	0.00000e+00	0.00000e+00	0.00000e+00	0.00000e+00	0.00000e+00	0.00000e+00	0.00000e+00	0.00000e+00	0.00000e+00	0.00000e+00	0.00000e+00	0.00000e+00	0.00000e+00	0.00000e+00	0.00000e+00	0.00000e+00	0.00000e+00	0.00000e+00	0.00000e+00	0.00000e+00	0.00000e+00	0.00000e+00	0.00000e+00	0.00000e+00	0.00000e+00	0.00000e+00	0.00000e+00	0.00000e+00	0.00000e+00	0.00000e+00	0.00000e+00	0.00000e+00	0.00000e+00	0.00000e+00	0.00000e+00	0.00000e+00	0.00000e+00	0.00000e+00	0.00000e+00	0.00000e+00	0.00000e+00	0.00000e+00	0.00000e+00	
Factor	1.00000e+00	1.00000e+00	1.00000e+00	1.00000e+00	1.00000e+00	1.00000e+00	1.00000e+00	1.00000e+00	1.00000e+00	1.00000e+00	1.00000e+00	1.00000e+00	1.00000e+00	1.00000e+00	1.00000e+00	1.00000e+00	1.00000e+00	1.00000e+00	1.00000e+00	1.00000e+00	1.00000e+00	1.00000e+00	1.00000e+00	1.00000e+00	1.00000e+00	1.00000e+00	1.00000e+00	1.00000e+00	1.00000e+00	1.00000e+00	1.00000e+00	1.00000e+00	X	X	X	X	X	X	X	X	X	X	X	X	X	X	X	X	

B = Detector Channel
Val Type	B-AC1	B-AC2	B-AC3	B-AC4	B-AC5	B-AC6	B-AC7	B-AC8	B-AC9	B-AC10	B-AC11	B-AC12	B-AC13	B-AC14	B-AC15	B-AC16	B-DC1	B-DC2	B-DC3	B-DC4	B-DC5	B-DC6	B-DC7	B-DC8	B-DC9	B-DC10	B-DC11	B-DC12	B-DC13	B-DC14	B-DC15	B-DC16	B-Ph1	B-Ph2	B-Ph3	B-Ph4	B-Ph5	B-Ph6	B-Ph7	B-Ph8	B-Ph9	B-Ph10	B-Ph11	B-Ph12	B-Ph13	B-Ph14	B-Ph15	B-Ph16	

Term	0.00000e+00	0.00000e+00	0.00000e+00	0.00000e+00	0.00000e+00	0.00000e+00	0.00000e+00	0.00000e+00	0.00000e+00	0.00000e+00	0.00000e+00	0.00000e+00	0.00000e+00	0.00000e+00	0.00000e+00	0.00000e+00	0.00000e+00	0.00000e+00	0.00000e+00	0.00000e+00	0.00000e+00	0.00000e+00	0.00000e+00	0.00000e+00	0.00000e+00	0.00000e+00	0.00000e+00	0.00000e+00	0.00000e+00	0.00000e+00	0.00000e+00	0.00000e+00	-1.84242e+02	-1.31288e+02	-1.21626e+02	-1.81577e+02	-7.85704e+01	-6.40695e+01	-1.57418e+02	-1.62015e+02	-9.27530e+01	-5.43537e+01	-1.71140e+02	-1.72811e+02	-1.83937e+02	-1.76769e+02	-8.70099e+01	-1.49549e+02	
Factor	3.59974e-05	1.57676e-04	5.33321e-05	1.56162e-01	1.60835e-06	2.14125e-06	1.73087e-01	5.61743e-02	1.99634e-06	1.80400e-06	9.22686e-02	3.72187e-02	3.89265e-02	9.91070e-03	1.84539e-06	1.43689e-02	3.91198e-06	4.30745e-06	1.20086e-06	7.79773e-02	4.62936e-08	4.73652e-08	8.15129e-02	2.80165e-02	4.65171e-08	4.73618e-08	4.47915e-02	1.80050e-02	1.94850e-02	4.98058e-03	4.68586e-08	6.99640e-03	X	X	X	X	X	X	X	X	X	X	X	X	X	X	X	X	



#DISTANCE SETTINGS
A = Detector Channel
A-1	A-2	A-3	A-4	A-5	A-6	A-7	A-8	A-9	A-10	A-11	A-12	A-13	A-14	A-15	A-16	

2.5000e+00	3.0000e+00	2.5000e+00	3.0000e+00	2.0000e+00	3.0000e+00	1.5000e+00	3.0000e+00	3.0000e+00	3.0000e+00	3.0000e+00	3.0000e+00	3.0000e+00	3.0000e+00	1.5000e+00	3.0000e+00	

B = Detector Channel
B-1	B-2	B-3	B-4	B-5	B-6	B-7	B-8	B-9	B-10	B-11	B-12	B-13	B-14	B-15	B-16	

1.0000e+01	1.0000e+01	1.0000e+01	1.4400e+00	1.0000e+01	1.0000e+01	1.5100e+00	1.9400e+00	1.0000e+01	1.0000e+01	1.9900e+00	2.4900e+00	2.4100e+00	2.9000e+00	1.0000e+01	2.9800e+00	




#DATA BEGINS
time	group	step	mark	flag	A-AC1	A-AC2	A-AC3	A-AC4	A-AC5	A-AC6	A-AC7	A-AC8	A-AC9	A-AC10	A-AC11	A-AC12	A-AC13	A-AC14	A-AC15	A-AC16	A-DC1	A-DC2	A-DC3	A-DC4	A-DC5	A-DC6	A-DC7	A-DC8	A-DC9	A-DC10	A-DC11	A-DC12	A-DC13	A-DC14	A-DC15	A-DC16	A-Ph1	A-Ph2	A-Ph3	A-Ph4	A-Ph5	A-Ph6	A-Ph7	A-Ph8	A-Ph9	A-Ph10	A-Ph11	A-Ph12	A-Ph13	A-Ph14	A-Ph15	A-Ph16	B-AC1	B-AC2	B-AC3	B-AC4	B-AC5	B-AC6	B-AC7	B-AC8	B-AC9	B-AC10	B-AC11	B-AC12	B-AC13	B-AC14	B-AC15	B-AC16	B-DC1	B-DC2	B-DC3	B-DC4	B-DC5	B-DC6	B-DC7	B-DC8	B-DC9	B-DC10	B-DC11	B-DC12	B-DC13	B-DC14	B-DC15	B-DC16	B-Ph1	B-Ph2	B-Ph3	B-Ph4	B-Ph5	B-Ph6	B-Ph7	B-Ph8	B-Ph9	B-Ph10	B-Ph11	B-Ph12	B-Ph13	B-Ph14	B-Ph15	B-Ph16	aux-1	digaux	

12291.241	1	1	0	512	0.34411	0.1271	0.31676	0.30736	0.064342	0.11435	0.1633	0.030554	0.034159	0.11085	0.12925	0.12134	0.028787	0.10784	0.24283	0.149	-3.7938	-4.5667	-4.5542	-4.0833	-4.5813	-4.2396	-4.2729	-4.6875	-4.1583	-4.2583	-4.6229	-4.2208	-4.5125	-4.4667	-4.1188	-4.7583	147.103	-19.427	29.110	179.619	49.895	147.473	109.601	60.848	40.337	-8.860	126.760	209.747	191.008	140.216	-40.393	-70.839	0.00079454	0.00080907	0.00020253	380.39	4.4504e-06	8.622e-06	504.4	144.89	5.8919e-06	7.1887e-06	256.65	128.02	65.64	35.059	1.3774e-06	76.935	0.0012388	0.0012742	0.00035319	389.87	1.3818e-05	1.3979e-05	515.91	148.57	1.3711e-05	1.4214e-05	262.06	129.7	69.356	35.821	1.3928e-05	77.438	141.803	-36.637	-5.265	-123.387	-46.387	-34.719	-123.207	-118.587	-100.455	34.282	-119.399	-115.918	-115.488	-110.581	45.771	-111.777	-8191	255	
12291.336	1	1	0	0	0.12705	0.20163	0.14024	0.097126	0.32411	0.17888	0.18292	0.21634	0.076295	0.16231	0.029541	0.092798	0.11308	0.23621	0.093676	0.052253	-3.7979	-4.2583	-4.6562	-4.1333	-4.4	-4.5125	-4.2229	-4.6833	-4.4104	-4.2812	-4.8083	-4.2167	-4.6125	-4.4875	-4.1188	-5.0083	-84.937	207.348	14.330	-108.513	-122.669	101.518	-25.631	132.473	185.207	-43.864	-65.699	116.093	-52.309	31.943	78.453	199.334	0.00099789	0.00017662	5.8068e-05	378.38	5.14e-06	7.6083e-06	503.7	144.97	2.0429e-06	6.6352e-06	254.97	126.97	64.944	34.699	6.0242e-06	75.811	0.0012395	0.0012915	0.00035837	389.67	1.3723e-05	1.4077e-05	515.3	148.7	1.3923e-05	1.4172e-05	260.66	128.67	69.218	35.545	1.3968e-05	76.55	144.048	81.630	223.595	-123.327	-65.464	25.691	-123.283	-118.224	210.379	118.512	-119.528	-115.662	-115.080	-110.453	-59.008	-111.900	-8191	255	
12291.432	1	1	0	0	0.03472	0.16373	0.11772	0.031699	0.18888	0.11351	0.27157	0.14758	0.19478	0.067569	0.037908	0.09154	0.097735	0.12224	0.029442	0.087908	-3.9583	-4.1521	-4.6729	-4.0979	-4.6687	-4.5083	-4.1937	-4.8292	-4.4792	-4.3396	-4.7083	-4.0604	-4.4625	-4.6687	-4.1813	-4.7021	60.031	112.942	198.920	6.705	105.123	-4.300	-109.514	125.540	189.089	-70.297	-30.080	-107.060	-116.485	187.142	0.816	-93.725	0.0008423	0.0009852	0.00017969	377.26	3.1934e-06	9.6873e-06	502.02	143.21	2.9314e-06	3.0785e-06	251.7	126.5	65.168	34.729	3.2394e-06	75.459	0.0012418	0.0012748	0.00035024	387.79	1.3748e-05	1.3792e-05	510.57	147.56	1.3685e-05	1.3795e-05	258.77	128.16	69.058	35.46	1.3535e-05	76.294	146.365	-132.826	-16.284	-123.057	-67.803	-2.436	-123.227	-118.506	-62.681	-18.147	-119.305	-115.979	-115.240	-110.539	-37.398	-111.854	-8191	255	
12291.528	1	1	0	0	0.095223	0.25787	0.034555	0.18876	0.11023	0.098759	0.19261	0.091704	0.45795	0.085728	0.12444	0.16227	0.27338	0.14207	0.018757	0.086338	-4.0687	-4.1438	-4.7729	-4.2125	-4.2875	-4.5938	-4.0667	-4.4729	-4.3208	-4.1792	-4.7396	-4.2917	-4.3438	-4.7083	-4.0458	-4.6292	215.024	135.378	-92.055	193.888	37.748	-48.197	-107.264	46.079	27.219	-30.839	144.531	193.008	196.029	-44.101	27.268	221.564	0.00098711	0.00015322	0.00015737	373.68	5.9503e-06	8.2576e-06	498.27	142.59	2.8359e-06	7.7608e-06	252.84	125.86	64.735	34.296	4.3527e-06	75.515	0.0012066	0.0012441	0.00034643	384.78	1.3429e-05	1.3653e-05	509.17	146.44	1.3421e-05	1.3707e-05	257.73	127.85	68.469	35.185	1.3803e-05	76.065	141.269	9.907	-67.033	-122.923	-37.544	78.602	-123.107	-118.712	215.964	2.581	-119.267	-115.841	-115.604	-110.526	31.409	-111.723	-8191	255	
12291.648	1	1	0	0	0.085887	0.0931	0.18249	0.17154	0.21616	0.12349	0.13418	0.19839	0.25167	0.17394	0.21978	0.045967	0.19551	0.15007	0.15593	0.082244	-4.1167	-4.0687	-4.7292	-4.2896	-4.3479	-4.5458	-4.1417	-4.4229	-4.4375	-4.1271	-4.7729	-4.3583	-4.375	-4.6687	-3.9521	-4.4812	93.395	-62.180	85.585	108.339	197.815	30.836	74.248	139.185	-1.818	101.016	-52.111	4.106	-50.524	-87.950	-46.681	-110.513	0.00086754	0.0005433	0.00015158	377	4.0011e-06	8.6444e-06	499.84	141.58	5.8301e-06	9.609e-06	251.88	126.6	64.324	34.386	4.2386e-06	75.67	0.0012515	0.0012783	0.00035845	386.31	1.4069e-05	1.4227e-05	509.37	146.53	1.4033e-05	1.4289e-05	257.67	128.17	68.554	35.26	1.4409e-05	76.431	143.732	-102.915	-60.026	-122.974	85.221	20.470	-123.232	-118.199	-20.929	-29.124	-119.117	-116.126	-115.305	-110.350	184.931	-111.819	-8191	255	
12291.745	1	1	0	0	0.092843	0.15771	0.20697	0.12037	0.12061	0.084774	0.085857	0.094095	0.053908	0.070679	0.037769	0.18747	0.30242	0.13431	0.099183	0.18573	-4.0583	-3.9646	-4.5146	-4.2063	-4.1417	-4.7792	-4.3292	-4.4917	-4.2812	-4.1917	-4.6104	-4.3917	-4.15	-4.7021	-4.1188	-4.4208	43.713	0.643	-106.546	56.256	42.627	27.021	169.182	-104.933	159.014	167.441	167.080	-110.589	156.760	-85.450	155.449	178.593	0.00090088	0.00027591	8.8321e-05	373.95	5.3745e-06	8.6576e-06	499.23	143.84	4.2529e-06	4.3385e-06	254.63	127.07	65.623	34.925	2.1207e-07	76.357	0.0012737	0.0013228	0.00036918	387.92	1.4138e-05	1.4466e-05	513.01	147.92	1.4146e-05	1.4358e-05	260.37	129.15	69.349	35.729	1.4043e-05	77.152	140.696	-118.526	-66.545	-122.842	-23.086	8.427	-123.336	-118.074	183.525	28.196	-119.321	-116.311	-115.322	-110.325	173.968	-111.669	-8191	255	
12291.841	1	1	0	0	0.065368	0.17545	0.13109	0.20524	0.15392	0.1641	0.048782	0.10589	0.19447	0.13816	0.034922	0.07655	0.17017	0.1978	0.059827	0.093173	-4.3271	-3.9708	-4.5938	-4.3187	-4.05	-4.5542	-4.1042	-4.3938	-4.5854	-4.0417	-4.5167	-4.3292	-4.1271	-4.7146	-4.1146	-4.4021	3.338	191.854	-115.918	-70.993	-79.721	-14.998	-129.469	-82.522	109.264	5.635	122.537	102.441	-7.793	-96.197	122.909	180.315	0.0010016	0.00028846	3.0498e-05	379.4	6.8719e-06	1.7546e-06	506.62	144.56	4.3828e-06	3.3235e-06	254.82	127.42	65.795	35.098	9.6648e-07	76.677	0.0012365	0.0012903	0.00036258	389.05	1.3862e-05	1.4238e-05	515.42	148.9	1.4069e-05	1.4165e-05	261.17	129.53	69.642	35.947	1.4008e-05	77.149	145.358	7.984	120.909	-123.237	17.485	65.152	-123.102	-118.316	-120.464	-0.389	-119.441	-115.707	-115.004	-110.641	-37.950	-111.782	-8191	255	
12291.937	1	1	0	0	0.051012	0.31039	0.058934	0.10173	0.044802	0.011213	0.0425	0.050424	0.027277	0.1627	0.22906	0.20838	0.10028	0.047766	0.08202	0.1066	-4.3042	-3.8417	-4.4021	-4.4958	-4.0792	-4.6292	-4.2854	-4.1771	-4.6937	-4.0979	-4.5813	-4.7021	-4.1042	-4.6542	-4.4146	-4.2729	-82.728	-93.889	-58.581	-32.086	-94.199	221.956	-75.391	-105.637	148.656	-44.622	124.165	-119.284	12.530	204.552	-39.281	-134.854	0.00094778	0.0003388	0.00012077	376.76	2.3216e-06	4.8587e-06	499.42	143.48	3.7923e-06	7.8956e-06	249.71	126.11	64.699	34.884	1.7557e-06	75.491	0.0012569	0.0012816	0.00036618	388.74	1.3894e-05	1.4441e-05	509.55	147.78	1.405e-05	1.4096e-05	257.52	128.41	69.029	35.638	1.4252e-05	76.277	144.717	-61.894	-43.833	-123.066	-80.346	-45.617	-123.438	-118.205	66.654	174.940	-119.123	-115.869	-115.105	-110.476	-113.869	-111.509	-8191	255	
12292.033	1	1	0	0	0.2193	0.088443	0.15466	0.062804	0.0641	0.40135	0.14258	0.22598	0.048338	0.11623	0.11661	0.20992	0.09002	0.065785	0.20366	0.20839	-4.3667	-4.1979	-4.4417	-4.6375	-4.0437	-4.5542	-4.3521	-4.0708	-4.7521	-4.2292	-4.4125	-4.7604	-4.1417	-4.5188	-4.4729	-4.2396	177.819	-79.122	16.298	122.865	-68.028	212.201	212.442	116.169	-12.444	8.047	6.183	147.801	-120.432	-79.299	158.502	177.249	0.00087425	0.00053883	4.7621e-05	373.33	8.3516e-06	4.7765e-06	493.22	142.05	1.0281e-05	5.9067e-06	252.57	126.56	65.175	34.737	5.1857e-06	75.884	0.0012789	0.0013119	0.00036383	386.67	1.3758e-05	1.4362e-05	505.42	146.09	1.3632e-05	1.3681e-05	257.13	128.3	69.052	35.525	1.3617e-05	76.258	140.124	-71.877	21.935	-122.952	-80.994	4.324	-123.242	-118.272	-52.313	88.689	-119.112	-115.780	-115.227	-110.605	-43.018	-111.946	-8191	255	
12292.129	1	1	0	0	0.32502	0.13714	0.17028	0.061344	0.17878	0.098437	0.11178	0.027029	0.12258	0.1832	0.017055	0.11588	0.252	0.038057	0.31842	0.11321	-4.3812	-4.1479	-4.3625	-4.6229	-4.1125	-4.5	-4.3167	-4.2271	-4.6271	-4.1958	-4.225	-4.7375	-4.1979	-4.4688	-4.2646	-4.2083	-29.336	-21.895	19.803	94.932	-42.424	71.268	52.054	22.549	-117.306	-100.557	-82.551	-110.852	142.360	-14.932	120.488	-37.267	0.00096798	0.00086605	0.00012707	373.59	6.5149e-07	1.0656e-05	496.02	141.57	2.7299e-06	9.256e-06	250.4	125.9	65.286	34.494	1.03e-05	75.457	0.0012235	0.0012624	0.00035126	384.4	1.3683e-05	1.4143e-05	506.16	146.03	1.3844e-05	1.4082e-05	256.35	127.88	68.825	35.341	1.4199e-05	76.076	143.070	-33.573	-56.514	-123.291	167.583	64.847	-123.316	-118.455	-2.881	-34.220	-119.382	-115.973	-115.384	-110.700	-40.055	-112.165	-8191	255	
12292.248	1	1	0	0	0.10001	0.13413	0.13996	0.029325	0.16698	0.12422	0.026655	0.071799	0.21852	0.12479	0.29099	0.21321	0.32442	0.1351	0.20483	0.36873	-4.3042	-4.2083	-4.1771	-4.7063	-4.075	-4.4792	-4.4938	-4.2146	-4.5229	-4.2958	-4.1979	-4.7896	-4.0833	-4.3896	-4.5312	-4.0854	-31.219	18.831	138.064	79.560	214.341	-130.777	-56.460	-74.537	214.874	99.023	-23.253	-125.103	95.312	-132.432	208.121	-124.205	0.0008632	0.00047634	0.00013166	374.32	6.4676e-06	7.2867e-06	493.98	142.52	2.6353e-06	7.7183e-06	250.85	126.33	65.287	34.694	4.6247e-06	75.73	0.0012767	0.0013021	0.00036626	383.65	1.4008e-05	1.4576e-05	506.35	146.35	1.4289e-05	1.417e-05	257.23	128.01	69.034	35.473	1.4124e-05	76.415	142.017	0.681	36.819	-122.646	16.990	-58.557	-123.171	-118.382	-20.322	27.236	-119.287	-115.734	-115.480	-109.986	-13.348	-111.833	-8191	255	
12292.344	1	1	0	0	0.16412	0.09539	0.12427	0.105	0.16116	0.15749	0.10472	0.11388	0.10744	0.054671	0.22222	0.13665	0.29271	0.067684	0.021944	0.094763	-4.1937	-4.4333	-4.3083	-4.6625	-4.0396	-4.3625	-4.7188	-4.1667	-4.7188	-4.2042	-4.1771	-4.7792	-4.1917	-4.4479	-4.6062	-4.3375	-59.410	103.364	20.388	-133.514	176.055	166.268	62.420	15.986	-22.531	127.708	106.696	182.151	-92.014	82.998	107.270	-104.045	0.00090353	0.00080383	0.00020881	371.63	5.2859e-06	3.2661e-06	498.18	142	8.2347e-06	6.3391e-06	251.11	126.85	64.897	34.791	2.2223e-06	75.402	0.001271	0.001296	0.00036067	384.58	1.3697e-05	1.405e-05	507.32	146.12	1.363e-05	1.3564e-05	256.4	128.28	68.663	35.467	1.3254e-05	76.012	139.676	-71.741	2.354	-123.014	63.180	3.753	-123.261	-118.122	-18.162	178.313	-119.273	-115.744	-115.254	-110.367	154.026	-111.872	-8191	255	
12292.440	1	1	0	0	0.059171	0.10785	0.16134	0.066257	0.19417	0.049512	0.10769	0.19769	0.078826	0.084323	0.30879	0.19738	0.25164	0.30528	0.071849	0.32665	-4.1479	-4.4125	-4.0104	-4.65	-4.2063	-4.5292	-4.7479	-4.1708	-4.5188	-4.575	-4.1667	-4.675	-4.1813	-4.325	-4.7854	-4.2458	-120.916	195.782	216.802	-131.424	-112.879	29.322	-130.128	165.107	-98.554	8.750	40.704	196.855	171.280	160.951	-45.220	95.603	0.0010237	0.00028655	0.00011232	370.75	6.9591e-06	9.3207e-06	493.07	142.69	1.88e-06	4.615e-06	247.42	124.54	64.246	34.229	6.6384e-06	74.35	0.001201	0.0012208	0.00033696	381.95	1.3283e-05	1.3445e-05	501.86	145.05	1.3324e-05	1.3285e-05	252.85	126.4	67.88	35.061	1.3126e-05	74.812	149.250	218.936	-70.935	-123.179	9.320	81.073	-123.287	-118.432	-43.105	-31.113	-119.226	-116.088	-115.214	-110.705	13.307	-112.093	-8191	255	
12292.512	1	1	0	0	0.22091	0.1429	0.094099	0.12141	0.25129	0.028695	0.22359	0.12948	0.19889	0.070457	0.32811	0.20511	0.16205	0.051216	0.29652	0.273	-4.2042	-4.4875	-4.0667	-4.7521	-4.1417	-4.1729	-4.7417	-4.4354	-4.3438	-4.3979	-4.0167	-4.6708	-4.4917	-4.1	-4.6583	-4.225	-118.132	-84.784	-127.940	220.071	133.404	85.848	176.410	-25.654	222.682	-117.893	135.858	217.956	167.606	143.773	222.903	212.047	0.00083468	0.001087	0.00024638	368.5	1.7022e-06	6.3759e-06	488.67	139.24	5.2247e-06	7.7224e-06	242.18	121.71	62.925	33.383	4.2839e-06	72.795	0.0012037	0.0012105	0.00033799	378.93	1.3178e-05	1.3567e-05	497.04	143.68	1.3696e-05	1.3754e-05	248.38	123.95	66.823	34.265	1.3913e-05	73.392	141.842	-69.332	-21.278	-123.067	99.126	73.551	-123.581	-118.248	3.974	40.261	-119.446	-115.695	-115.404	-110.178	-70.375	-111.743	-8191	255	
12292.633	1	1	0	0	0.032295	0.31385	0.037377	0.32538	0.13296	0.0054906	0.11926	0.10427	0.081057	0.1083	0.077334	0.11209	0.087127	0.024907	0.15664	0.22391	-4.0687	-4.5062	-3.8875	-4.4604	-4.3187	-4.1292	-4.6562	-4.1542	-4.1021	-4.6896	-4.1521	-4.6125	-4.4771	-4.075	-4.7063	-4.3063	121.398	217.093	-98.928	180.154	90.388	-3.632	-90.806	-94.696	-86.969	-73.877	-130.360	155.984	-1.879	-46.637	100.352	180.973	0.00076153	0.00054652	3.9354e-05	366.32	6.0076e-06	1.9936e-06	484.66	138.05	8.7915e-06	7.9874e-06	239.69	121.76	62.488	33.388	5.1742e-06	72.977	0.0012501	0.001275	0.00035607	378.91	1.3775e-05	1.4069e-05	495.39	141.88	1.3844e-05	1.4012e-05	247.29	123.3	66.156	34.114	1.3708e-05	73.424	145.717	-28.198	109.876	-123.139	33.234	91.213	-122.983	-118.301	-98.903	8.252	-119.166	-115.751	-115.248	-109.981	141.937	-111.861	-8191	255	
12292.729	1	1	0	0	0.18058	0.16349	0.26133	0.25421	0.41507	0.1908	0.029434	0.38477	0.13183	0.083983	0.08888	0.09761	0.08361	0.056773	0.071904	0.015415	-3.9833	-4.5542	-4.0104	-4.4979	-4.4604	-3.9354	-4.5563	-4.4125	-4.2042	-4.6542	-4.0708	-4.4229	-4.4667	-4.0563	-4.4833	-4.3146	167.544	42.034	-68.334	-123.722	139.290	19.411	34.784	140.732	31.087	-29.385	153.723	76.784	-47.680	15.970	-13.895	221.640	0.00091121	0.00078379	0.00016321	364.44	1.3298e-06	1.112e-05	482.51	137.7	8.3297e-06	1.6326e-06	240.7	121.73	62.362	33.468	2.5326e-06	72.83	0.0011974	0.0012316	0.0003425	375.96	1.3247e-05	1.359e-05	493.58	141.48	1.3404e-05	1.3583e-05	246.62	123.53	66.158	34.124	1.3603e-05	73.439	140.016	-17.746	-49.738	-122.914	121.452	25.043	-123.483	-118.441	-12.704	-80.326	-119.270	-115.819	-115.145	-110.514	42.120	-111.583	-8191	255	
12292.825	1	1	0	0	0.3412	0.11967	0.04362	0.042617	0.17563	0.050274	0.30574	0.087302	0.18855	0.30149	0.18573	0.28497	0.15458	0.30576	0.087954	0.21019	-3.8396	-4.6458	-4.0104	-4.5229	-4.3875	-4.1021	-4.5333	-4.3667	-4.1417	-4.7625	-4.0917	-4.4083	-4.6458	-4.1188	-4.4812	-4.3125	111.357	164.562	171.527	-88.431	108.595	82.785	194.317	57.474	207.042	-91.714	192.983	-136.441	182.557	-128.045	-115.535	74.589	0.00099514	0.0004414	0.00015038	369.69	3.9302e-06	6.8184e-06	486.58	138	2.2293e-06	1.5359e-06	240	121.39	62.422	33.329	7.3617e-06	72.947	0.0012098	0.0012574	0.00034645	378.57	1.3367e-05	1.3766e-05	495.87	141.89	1.3561e-05	1.3781e-05	247.09	123.28	66.07	34.09	1.3742e-05	73.443	142.068	-39.465	-11.382	-122.980	-14.052	-41.529	-123.448	-118.618	199.684	-6.372	-119.005	-115.556	-115.456	-110.196	-14.340	-111.653	-8191	255	
12292.921	1	1	0	0	0.14855	0.17393	0.184	0.22111	0.19617	0.15047	0.093968	0.042884	0.2234	0.17609	0.037796	0.026982	0.076204	0.15641	0.10167	0.24076	-3.7021	-4.5813	-4.1646	-4.3417	-4.5604	-4.0292	-4.6146	-4.4833	-4.0667	-4.8688	-4.3438	-4.3417	-4.5354	-4.3208	-4.4875	-4.6771	177.316	25.580	155.264	-88.155	-93.033	176.850	108.374	-15.440	-42.027	161.932	221.036	110.617	-135.558	167.826	-90.631	-108.317	0.00095001	0.0010311	0.0002505	370.41	6.2214e-06	2.8498e-06	485.79	137.71	8.5461e-06	7.851e-06	239.81	120.39	61.981	33.229	2.572e-06	72.162	0.0012172	0.0012748	0.00035106	380.89	1.3891e-05	1.4054e-05	495.86	142.01	1.3754e-05	1.4093e-05	246.04	122.16	66.001	33.978	1.4133e-05	72.732	148.495	-39.477	26.101	-123.291	7.381	171.331	-123.177	-118.240	-19.364	21.683	-119.222	-115.870	-115.296	-110.412	-75.644	-111.572	-8191	255	
12293.040	1	1	0	0	0.17153	0.08	0.078244	0.023635	0.2119	0.094697	0.13626	0.1424	0.071116	0.095045	0.11583	0.10412	0.2301	0.33646	0.17473	0.31799	-3.7479	-4.5854	-4.2417	-4.275	-4.7333	-4.2104	-4.6417	-4.6333	-4.0333	-4.6813	-4.4417	-4.2063	-4.6729	-4.2438	-4.4042	-4.6854	139.648	30.974	-95.225	164.679	-82.285	45.813	209.707	96.389	-133.568	145.586	121.428	-91.270	134.968	140.472	-43.057	129.977	0.00083496	0.00023834	5.3232e-05	369.15	5.2028e-06	8.4373e-06	481.01	136.95	4.1203e-06	8.8836e-06	238.67	119.8	61.985	33.146	1.7787e-06	71.676	0.001222	0.0012815	0.00035304	380.67	1.3549e-05	1.3832e-05	491.64	141.37	1.3734e-05	1.4145e-05	244.49	121.69	65.891	33.927	1.3896e-05	72.398	144.241	-48.593	11.276	-123.639	47.833	61.127	-123.725	-118.318	218.601	21.186	-119.205	-115.555	-114.994	-110.021	-12.355	-111.660	-8191	255	
12293.113	1	1	0	0	0.10667	0.21719	0.13565	0.15175	0.075519	0.17988	0.091984	0.19346	0.063874	0.032038	0.11443	0.21725	0.26024	0.17549	0.19165	0.11839	-3.65	-4.5771	-4.4104	-4.1896	-4.7042	-4.0729	-4.3875	-4.5521	-4.1208	-4.5771	-4.3792	-4.3042	-4.6583	-4.1208	-4.3521	-4.8438	1.978	103.160	177.069	131.074	143.097	-48.177	-70.316	178.128	142.740	-56.503	39.557	198.110	-85.540	107.619	135.517	182.466	0.00082931	0.0012821	9.0147e-05	366.4	4.4521e-06	3.2128e-06	481.07	135.99	4.1936e-06	2.8339e-06	237.3	119.13	61.047	33.078	3.2511e-06	71.575	0.0012099	0.0012709	0.00035219	379.19	1.3608e-05	1.3979e-05	491.2	140.78	1.3922e-05	1.4218e-05	243.7	121.21	65.337	33.783	1.404e-05	72.298	141.001	-33.981	-6.999	-123.239	98.780	-56.472	-123.035	-118.138	22.894	-134.410	-119.414	-115.773	-115.082	-110.444	-79.781	-111.455	-8191	255	
12293.210	1	1	0	0	0.033077	0.12009	0.083991	0.12766	0.041655	0.13169	0.067209	0.096337	0.19308	0.18637	0.26715	0.1732	0.15711	0.25092	0.085423	0.063566	-3.6688	-4.5563	-4.4396	-4.1438	-4.5646	-4.1833	-4.3417	-4.6042	-3.8792	-4.5729	-4.4563	-4.2188	-4.6813	-4.2	-4.1188	-4.7375	9.381	-118.979	21.076	208.715	33.496	192.680	143.026	219.181	16.996	169.394	210.418	139.900	-89.661	208.565	190.946	106.718	0.00082642	0.00046022	0.00028818	367.27	5.4021e-06	7.6267e-07	479.48	136.35	1.7621e-06	8.8171e-06	238.65	119.86	62.102	33.183	1.9061e-06	72.233	0.0012427	0.0013127	0.00035893	380.12	1.4141e-05	1.416e-05	491.78	141	1.3753e-05	1.4217e-05	243.67	121.66	65.799	33.982	1.378e-05	72.97	145.781	-76.616	-28.366	-123.121	63.097	156.613	-123.218	-118.254	-85.991	9.621	-119.348	-115.522	-115.398	-110.272	119.603	-111.694	-8191	255	
12293.328	1	1	0	0	0.18545	0.076954	0.088503	0.10006	0.061186	0.042191	0.088805	0.24515	0.1584	0.033809	0.19033	0.16864	0.15661	0.10552	0.23521	0.31121	-3.8187	-4.5	-4.4875	-4.1167	-4.6083	-4.3354	-4.2063	-4.6458	-4.0292	-4.3792	-4.6813	-4.0188	-4.7854	-4.5667	-4.2146	-4.8625	-30.948	88.413	-78.398	161.107	152.327	64.997	-10.343	-68.674	20.472	165.013	111.858	-58.233	13.338	18.340	-95.109	211.744	0.00096223	0.00088519	0.00018603	367.41	4.1997e-06	8.3091e-06	486.8	138.02	7.7384e-06	4.8857e-06	239.64	121.3	62.369	33.751	3.2194e-06	73.273	0.0012209	0.0012553	0.00034992	379.79	1.3567e-05	1.3842e-05	496.36	142.47	1.3392e-05	1.3705e-05	245.87	123.11	66.273	34.446	1.3379e-05	73.919	147.494	-48.532	-85.240	-123.321	34.769	52.358	-123.198	-118.195	-42.254	17.033	-119.356	-115.357	-115.208	-110.139	-53.235	-111.710	-8191	255	
12293.425	1	1	0	0	0.05148	0.19964	0.24539	0.3103	0.19999	0.24765	0.10225	0.1282	0.10904	0.094176	0.093849	0.097579	0.14464	0.14192	0.058169	0.30528	-3.7521	-4.3521	-4.6167	-4.1021	-4.4396	-4.3646	-4.1521	-4.6708	-4.0104	-4.2438	-4.5312	-4.0813	-4.5292	-4.6625	-4.1375	-4.8917	-11.529	99.697	138.675	176.226	-101.628	69.255	200.262	94.138	-56.118	59.104	176.206	130.926	-85.216	183.273	117.305	147.009	0.0007678	0.00029682	0.00037209	372.92	4.8778e-06	1.0015e-05	486.6	139.33	8.9235e-06	7.3562e-07	241.39	121.84	62.433	34.077	2.6264e-06	73.265	0.0011977	0.0012367	0.00034049	381.31	1.3254e-05	1.3323e-05	497.81	143.38	1.3263e-05	1.3595e-05	247.79	123.84	66.964	34.866	1.3118e-05	73.998	144.884	-72.986	-4.713	-123.236	29.016	24.243	-123.160	-118.482	-71.437	3.417	-119.486	-115.713	-115.413	-109.971	162.418	-111.553	-8191	255	
12293.521	1	1	0	0	0.048809	0.1667	0.13893	0.062466	0.063812	0.24389	0.20653	0.13514	0.014543	0.077348	0.12385	0.16347	0.10543	0.12275	0.047525	0.26415	-4.0521	-4.2417	-4.525	-4.0938	-4.3562	-4.5917	-4.2063	-4.7521	-4.2375	-4.1417	-4.6438	-4.0563	-4.4854	-4.5542	-3.9229	-4.7562	-95.609	219.903	128.861	-123.399	75.816	94.333	144.979	146.098	-105.038	-70.841	112.710	192.183	221.227	-93.159	-26.108	116.143	0.00094884	0.00015263	0.00020441	369.3	3.7118e-06	1.0081e-05	486.49	138.6	2.539e-06	2.4112e-06	242.6	122.18	62.953	34.245	7.4574e-07	73.563	0.0011684	0.0012079	0.00033367	378.81	1.2941e-05	1.2924e-05	494.28	142.62	1.2814e-05	1.2835e-05	246.68	123.56	66.507	34.801	1.2362e-05	73.951	146.415	0.395	-44.671	-123.406	-10.481	68.022	-123.139	-118.121	142.151	20.823	-119.219	-115.702	-115.190	-110.231	-97.663	-111.728	-8191	255	
12293.641	1	1	0	0	0.2513	0.22543	0.080393	0.22546	0.10735	0.1147	0.12841	0.023245	0.28388	0.21834	0.30988	0.050348	0.12287	0.29874	0.24594	0.14435	-3.9458	-4.1	-4.725	-4.2208	-4.5062	-4.7458	-4.0896	-4.6417	-4.3104	-4.0646	-4.8479	-4.1396	-4.3583	-4.6687	-3.9667	-4.6062	-24.167	-10.222	-63.766	98.902	-77.887	214.201	97.746	-13.043	-106.082	206.746	5.011	179.174	113.437	179.256	68.102	-104.364	0.00091114	0.00064013	0.00010467	366.91	4.0134e-06	7.1594e-06	486.99	139.05	7.0361e-06	1.0071e-05	241.03	122.56	63.271	34.329	8.0004e-06	73.839	0.0011159	0.0011356	0.00031694	376.62	1.2198e-05	1.2488e-05	494.41	142.4	1.2026e-05	1.2216e-05	246.02	124.07	66.467	34.802	1.1945e-05	74.12	141.017	-46.881	-34.203	-123.111	-16.134	-2.551	-123.571	-118.272	-29.686	72.447	-119.142	-115.747	-114.930	-110.182	-23.065	-111.761	-8191	255	
12293.713	1	1	0	0	0.28696	0.26411	0.12242	0.07246	0.27117	0.049354	0.33733	0.041945	0.19213	0.15198	0.13945	0.050145	0.10024	0.067511	0.066335	0.097244	-4.0104	-4.1375	-4.6042	-4.3229	-4.2312	-4.6875	-4.1875	-4.5875	-4.4771	-3.9562	-4.7146	-4.2833	-4.125	-4.5792	-3.9229	-4.4708	133.413	167.514	77.158	214.810	-109.186	149.274	144.494	-53.347	182.179	182.194	130.436	214.788	-65.668	60.255	130.923	170.248	0.00087499	0.00087357	0.00031798	364.13	8.7277e-06	9.6818e-06	483.45	138.51	3.9037e-06	3.6708e-06	240.61	123.55	63.406	34.436	2.6737e-06	73.991	0.0010682	0.0010928	0.00030632	373.92	1.1774e-05	1.194e-05	491.9	141.92	1.1884e-05	1.1988e-05	245.9	124.64	66.575	34.817	1.193e-05	74.315	147.179	4.511	-8.015	-123.229	20.610	17.243	-123.191	-118.312	46.627	79.765	-119.452	-115.681	-114.882	-110.361	97.665	-111.597	-8191	255	
12293.809	1	1	0	0	0.10881	0.10738	0.048856	0.12451	0.1019	0.21428	0.095308	0.28096	0.1211	0.17637	0.12755	0.16511	0.1077	0.19416	0.15232	0.28819	-4.0563	-4.1354	-4.6	-4.3208	-4.1125	-4.6417	-4.225	-4.5396	-4.5667	-3.9271	-4.7583	-4.3979	-4.1917	-4.6354	-4.075	-4.3917	71.285	2.747	92.631	-73.895	87.723	164.552	189.840	-90.223	17.132	-114.323	163.019	142.405	125.097	176.412	-97.341	159.393	0.00091907	0.00050086	0.00013909	368.86	6.7044e-06	1.109e-05	485.01	139.75	4.5752e-06	2.7873e-06	242.87	124.32	64.204	34.666	4.6631e-06	74.771	0.0010667	0.0010907	0.00030402	374.38	1.1776e-05	1.1945e-05	495.89	142.61	1.1854e-05	1.1883e-05	247.78	125.37	67.253	35.111	1.1864e-05	75.13	147.137	-65.123	-79.782	-123.239	78.834	13.092	-123.437	-118.080	-6.058	47.164	-119.015	-115.919	-115.090	-110.251	-29.905	-111.531	-8191	255	
12293.930	1	1	0	0	0.19564	0.15015	0.092673	0.17231	0.12991	0.21671	0.048477	0.11858	0.13598	0.1184	0.091374	0.036593	0.094409	0.23281	0.13843	0.23208	-4.2875	-3.9313	-4.4729	-4.3292	-4.2104	-4.6708	-4.2021	-4.2646	-4.5417	-3.9729	-4.4833	-4.2625	-4.0833	-4.6208	-4.2646	-4.5125	-69.098	152.714	-6.062	198.125	-76.049	126.442	39.926	212.993	46.378	-61.764	151.160	101.591	186.316	-128.147	91.575	157.032	0.00082695	0.00097998	0.00012914	369.64	5.6918e-06	2.6044e-06	490.92	140.53	3.9683e-06	4.504e-06	245.41	123.86	64.02	34.696	6.8969e-06	74.245	0.0010635	0.0010848	0.00030604	376.87	1.1543e-05	1.1904e-05	499.98	143.98	1.1808e-05	1.1926e-05	248.38	125.34	67.202	35.229	1.1914e-05	74.674	149.856	-101.515	-100.890	-123.278	-68.288	21.460	-123.354	-118.078	-41.832	-13.149	-119.123	-115.641	-114.918	-110.139	-46.196	-111.725	-8191	255	
12294.026	1	1	0	0	0.28015	0.17819	0.26824	0.14622	0.010355	0.12569	0.14843	0.13031	0.17793	0.04286	0.13665	0.2402	0.072008	0.22757	0.059904	0.15421	-4.25	-4.0896	-4.6146	-4.6583	-4.0021	-4.6687	-4.4979	-4.3417	-4.7083	-4.1042	-4.5563	-4.5542	-4.0104	-4.7708	-4.4625	-4.4313	105.458	29.243	177.797	150.680	60.955	-94.004	-99.629	-6.864	27.182	159.701	94.793	-71.312	-110.506	89.884	-2.878	151.046	0.00092444	0.00037622	0.00012953	368.49	1.2984e-06	5.1535e-06	489.51	140.61	8.8478e-06	2.9451e-06	240.69	122.67	63.632	34.217	4.2845e-06	73.684	0.001063	0.0010893	0.00030526	377.6	1.1639e-05	1.2125e-05	498.08	143.39	1.1741e-05	1.2032e-05	245.88	123.89	66.572	34.923	1.1866e-05	73.974	144.182	-124.479	-65.616	-123.291	103.282	125.424	-123.406	-118.070	-20.315	-63.059	-118.740	-115.558	-115.321	-110.133	25.579	-111.632	-8191	255	
12294.120	1	1	0	0	0.19076	0.39811	0.19471	0.1595	0.094169	0.20626	0.16431	0.050121	0.13696	0.080185	0.10506	0.16594	0.19184	0.074587	0.17118	0.21416	-4.3708	-3.9833	-4.3333	-4.4313	-3.9083	-4.65	-4.5062	-4.2812	-4.65	-4.2146	-4.5	-4.5917	-4.1458	-4.6625	-4.2937	-4.325	-7.776	187.209	-30.729	197.539	-96.629	-33.937	135.971	191.658	69.680	18.879	187.814	199.656	-121.549	107.467	47.177	165.287	0.00096281	0.00028694	0.00023942	367.98	7.1356e-07	7.5214e-06	487.62	139.04	8.2021e-06	2.906e-06	239.54	121.74	63.597	34.073	7.6198e-06	73.553	0.0010674	0.0010868	0.00030323	376.33	1.1815e-05	1.2067e-05	494.81	142.22	1.1762e-05	1.1922e-05	244.54	123.13	66.46	34.688	1.1708e-05	73.741	143.920	7.612	-54.953	-122.911	-35.607	179.565	-123.594	-118.169	-33.394	10.375	-119.329	-115.506	-115.156	-110.415	38.154	-111.901	-8191	255	
12294.217	1	1	0	0	0.22469	0.11744	0.12285	0.21375	0.14239	0.16037	0.074703	0.30705	0.096264	0.25362	0.045662	0.06293	0.12567	0.26933	0.18905	0.27328	-4.2896	-4.0729	-4.4375	-4.5062	-4.0312	-4.5021	-4.4729	-4.0687	-4.6687	-4.2854	-4.3396	-4.7583	-4.225	-4.6458	-4.5542	-4.2229	203.560	145.824	106.701	166.332	-88.845	-62.253	182.335	166.140	-19.872	46.330	190.571	5.460	-67.334	-135.091	191.497	159.128	0.00088374	0.00026564	2.4393e-05	364.98	2.9803e-06	4.3722e-06	484	139.1	5.058e-06	4.1927e-06	239.39	123.07	63.6	34.305	6.022e-06	73.879	0.0010461	0.0010564	0.00029685	373.12	1.1345e-05	1.1744e-05	492.77	141.81	1.1518e-05	1.1596e-05	244.33	123.89	66.508	34.778	1.1578e-05	74.055	151.520	-38.138	123.807	-123.269	31.483	73.490	-123.481	-118.211	-51.522	33.124	-119.156	-115.595	-114.995	-110.374	-7.243	-111.652	-8191	255	
12294.337	1	1	0	0	0.096794	0.11934	0.293	0.2329	0.10941	0.037474	0.073557	0.13308	0.20138	0.03952	0.014828	0.39504	0.25585	0.096591	0.17782	0.10321	-4.35	-4.3	-4.2271	-4.6979	-4.1188	-4.5583	-4.6354	-3.8688	-4.7312	-4.2667	-4.2146	-4.8375	-4.3562	-4.6458	-4.6896	-4.1667	3.216	-53.179	-77.592	206.848	89.436	-56.733	-125.869	-98.562	-43.103	-70.463	-110.072	160.280	49.693	-67.240	45.024	81.359	0.00090971	0.0001346	0.00016166	365.14	9.7188e-06	2.3352e-06	485.8	139.88	7.5972e-06	4.5313e-06	239.51	123.2	63.036	34.174	3.7806e-06	73.561	0.0010597	0.0010678	0.00030178	373.57	1.1656e-05	1.1981e-05	495.19	141.97	1.1936e-05	1.2131e-05	244.77	123.87	66.275	34.763	1.2197e-05	74.073	143.407	-62.552	-18.700	-123.069	22.250	-48.246	-123.320	-118.213	4.910	-18.745	-118.765	-115.691	-115.427	-110.098	-8.746	-111.749	-8191	255	
12294.409	1	1	0	0	0.082646	0.071716	0.096006	0.070328	0.10157	0.17017	0.27666	0.16288	0.1286	0.088264	0.30271	0.092198	0.17799	0.25458	0.039485	0.18432	-4.3146	-4.2667	-4.1792	-4.6125	-4.1417	-4.4354	-4.7083	-3.9979	-4.5542	-4.5208	-4.0479	-4.8438	-4.1854	-4.55	-4.6042	-4.2833	208.237	-116.822	-127.155	183.611	-33.995	28.172	211.180	-60.056	-54.072	78.726	186.613	-66.545	-19.056	216.445	-44.895	143.180	0.00081925	0.0002091	0.0001431	367.74	2.6005e-06	7.7393e-06	490.66	139.36	3.1578e-06	5.6726e-06	241.52	122.8	64.053	34.632	5.7661e-06	74.398	0.0011108	0.0011316	0.00031206	376.85	1.2151e-05	1.2472e-05	497.55	142.68	1.2281e-05	1.2255e-05	246.08	124.39	67.057	35.129	1.192e-05	74.705	135.986	-105.386	-98.045	-122.865	-86.358	39.044	-122.949	-118.129	-90.845	51.532	-119.239	-115.447	-114.848	-110.410	17.313	-111.715	-8191	255	
12294.505	1	1	0	0	0.10176	0.1826	0.10756	0.10218	0.12407	0.15972	0.16592	0.10043	0.23539	0.35695	0.26054	0.30186	0.076882	0.19713	0.25912	0.16842	-4.1604	-4.4104	-4.1542	-4.8521	-4.3625	-4.4104	-4.6438	-4.1854	-4.4729	-4.4792	-4.2542	-4.7875	-4.2875	-4.3667	-4.7208	-4.3375	166.362	13.136	-21.156	215.448	-84.197	110.469	70.840	127.182	-47.227	78.825	89.933	208.573	167.511	171.635	-48.397	194.564	0.00082961	0.00033801	0.00011797	365.48	7.5554e-06	1.4921e-05	486.49	140.44	4.7202e-06	6.7077e-06	243.08	124.29	64.685	34.96	5.046e-06	74.251	0.0010813	0.0010868	0.00029877	374.65	1.1464e-05	1.1721e-05	495.48	143	1.1493e-05	1.1565e-05	246.43	125.37	67.515	35.393	1.1298e-05	74.666	140.884	-76.246	-51.647	-123.213	-60.324	41.342	-123.371	-118.111	-41.141	34.232	-119.081	-115.403	-115.160	-110.005	0.821	-111.686	-8191	255	
12294.601	1	1	0	0	0.10491	0.28813	0.046968	0.068271	0.15861	0.09286	0.13312	0.15362	0.078585	0.1388	0.068956	0.32324	0.19659	0.18954	0.2015	0.23173	-4.3792	-4.5604	-4.1062	-4.6854	-4.2521	-4.2042	-4.8229	-4.2354	-4.4563	-4.5375	-4.1208	-4.6417	-4.1542	-4.3104	-4.7812	-4.2271	209.908	167.615	-3.799	-87.317	-96.877	137.384	205.972	-22.168	52.347	63.503	-5.545	214.876	116.500	145.858	-131.446	150.720	0.00096175	0.00037369	0.00025286	367.21	6.4877e-06	4.3719e-06	485.31	139.71	5.4712e-06	2.4277e-06	243.48	125.15	65.426	35.349	5.2948e-06	74.98	0.0010296	0.0010376	0.00028989	373.39	1.1242e-05	1.1359e-05	491.31	142.66	1.1174e-05	1.1176e-05	247.07	126.15	68.203	35.731	1.0682e-05	75.181	142.715	-47.472	-75.592	-123.090	-46.940	-6.381	-122.674	-118.215	-73.401	51.942	-119.118	-115.667	-115.058	-110.179	19.263	-111.520	-8191	255	
12294.722	1	1	0	0	0.21008	0.11526	0.18856	0.095473	0.12274	0.13257	0.084152	0.19257	0.032815	0.044702	0.052183	0.19158	0.12226	0.14595	0.096062	0.20448	-4.2146	-4.5833	-4.1208	-4.7229	-4.5687	-4.3167	-4.7729	-4.2375	-4.4375	-4.7646	-4.0833	-4.6375	-4.3292	-4.1021	-4.8187	-4.4854	113.011	42.140	188.634	-122.242	-31.332	-38.762	-0.395	-15.277	221.724	68.454	13.337	146.115	-28.580	218.045	-121.267	142.521	0.00076183	0.00060897	0.00012885	362.24	4.87e-06	3.1459e-06	484.09	141.07	6.5698e-06	3.11e-06	245.68	127.3	66.288	35.716	4.8003e-06	74.966	0.00097076	0.00095957	0.000267	367.93	1.0235e-05	1.06e-05	488.82	143.06	1.0496e-05	1.0404e-05	248.36	127.46	68.902	36.005	1.0507e-05	75.281	151.369	-45.148	-68.086	-123.054	45.561	6.940	-122.983	-118.147	-135.403	111.780	-118.845	-115.792	-114.720	-110.643	-5.491	-111.737	-8191	255	
12294.818	1	1	0	0	0.14829	0.076117	0.15848	0.16816	0.10424	0.068953	0.28462	0.10898	0.18218	0.013597	0.10637	0.25597	0.13764	0.28354	0.19736	0.11066	-4.1125	-4.6104	-4.1917	-4.6729	-4.6583	-4.2333	-4.7625	-4.3792	-4.2896	-4.7458	-4.1438	-4.7	-4.6979	-4.2542	-4.5271	-4.6083	-125.653	165.068	41.010	-102.614	-30.889	14.271	37.299	133.537	102.495	172.684	-111.592	-39.107	-112.827	-60.981	32.731	-129.305	0.00088812	0.00018677	0.00012661	358.01	4.8298e-06	5.7872e-06	482.75	140.32	1.0084e-05	4.5349e-06	244.86	126.47	66.553	35.422	6.0952e-06	75.178	0.00095066	0.00095505	0.00026588	365.13	1.035e-05	1.0569e-05	487.83	142.61	1.0531e-05	1.0794e-05	247.89	126.78	68.698	35.86	1.0829e-05	75.43	144.510	123.370	-1.596	-123.409	21.384	72.690	-123.227	-118.213	-18.438	-46.089	-119.281	-115.884	-115.225	-110.403	-33.892	-111.701	-8191	255	
12294.914	1	1	0	0	0.20595	0.186	0.2042	0.055624	0.033163	0.10158	0.15944	0.29479	0.089524	0.25971	0.13168	0.11391	0.20639	0.19242	0.10189	0.17687	-3.9729	-4.525	-4.2312	-4.5917	-4.4875	-3.9833	-4.7417	-4.4646	-4.0167	-4.6438	-4.3271	-4.4833	-4.5604	-4.0083	-4.475	-4.5292	136.193	179.881	140.017	-56.566	-29.785	-60.335	154.985	130.349	-106.466	18.612	182.409	197.650	-130.670	16.623	-72.847	144.044	0.00087895	0.00067835	0.00023916	359.77	3.409e-06	9.5958e-06	486.44	141.12	9.8983e-06	3.6924e-06	245.49	127.22	66.354	35.826	6.8156e-06	75.791	0.00097259	0.0009845	0.00027306	366.34	1.0478e-05	1.074e-05	490.46	143.27	1.0618e-05	1.0858e-05	248.12	128.05	69.092	36.266	1.0704e-05	76.132	141.653	-34.728	-49.021	-123.147	-11.438	1.006	-123.162	-118.180	-16.125	80.420	-119.121	-115.883	-115.470	-110.076	-30.343	-111.838	-8191	255	
12295.010	1	1	0	0	0.14442	0.10225	0.12027	0.044691	0.23058	0.10013	0.15229	0.13949	0.097814	0.061989	0.15272	0.07367	0.085751	0.17393	0.12648	0.13448	-3.6854	-4.6833	-4.1396	-4.4979	-4.5542	-4.0813	-4.5125	-4.3854	-4.0396	-4.6479	-4.2896	-4.4021	-4.6833	-4.1813	-4.5938	-4.4854	113.959	-134.827	88.985	-131.668	-104.769	158.677	-103.624	31.930	0.990	-20.237	163.191	217.747	-48.258	-118.104	174.627	203.438	0.00090392	0.00051224	0.00015358	363.1	7.6209e-06	3.7924e-06	486.71	143.55	3.4788e-06	6.1055e-06	247.13	129.13	68.122	36.572	3.1296e-06	76.71	0.0009794	0.00097629	0.00027306	368.63	1.0398e-05	1.0555e-05	492.25	145.02	1.0239e-05	1.0554e-05	250.16	129.23	70.22	36.908	1.0465e-05	76.649	144.255	-38.752	-41.975	-122.870	82.648	18.638	-123.837	-118.347	57.248	17.608	-119.169	-115.874	-115.530	-110.346	-65.513	-111.963	-8191	255	
12295.106	1	1	0	0	0.11691	0.14285	0.33652	0.23599	0.2526	0.10695	0.13042	0.027876	0.02836	0.20577	0.086816	0.099309	0.066201	0.11485	0.11313	0.074459	-3.6312	-4.7229	-4.2188	-4.4104	-4.5813	-4.0521	-4.5125	-4.6667	-3.9854	-4.6396	-4.3292	-4.2979	-4.6729	-4.2333	-4.4	-4.6417	217.325	120.928	-1.896	-99.744	-23.390	-39.216	-83.307	215.633	209.610	42.355	-80.171	-103.502	-120.235	209.535	-18.266	173.128	0.00093835	0.00043308	7.4534e-05	362.18	8.3215e-06	1.0657e-05	484.52	142.69	2.6701e-06	6.2083e-06	246.97	126.74	67.042	35.868	6.6051e-06	74.614	0.00093488	0.00096441	0.00026738	367.5	1.0399e-05	1.0712e-05	490.85	145.13	1.074e-05	1.1101e-05	249.42	127.78	69.671	36.333	1.1492e-05	75.066	142.316	1.399	-53.653	-123.191	51.345	43.441	-123.115	-118.182	106.423	14.719	-119.090	-115.906	-115.153	-110.452	-60.126	-111.842	-8191	255	
12295.203	1	1	0	0	0.13649	0.17495	0.1809	0.13817	0.21336	0.26086	0.11023	0.10824	0.20616	0.10528	0.094284	0.085776	0.10577	0.089209	0.22376	0.25151	-3.7521	-4.6646	-4.3187	-4.0938	-4.6687	-4.1687	-4.3729	-4.5396	-4.1229	-4.5729	-4.4458	-4.1875	-4.6375	-4.2042	-4.2479	-4.6292	-27.203	-20.833	48.752	153.979	-82.864	222.642	112.345	-112.437	75.799	13.882	-88.868	93.543	149.518	169.023	-15.113	162.083	0.00095191	0.00072181	7.1197e-05	360.92	4.1487e-06	7.1174e-06	478.48	139.74	4.444e-06	5.0674e-06	242.14	125.51	65.322	35.371	2.0698e-06	74.132	0.0010386	0.001069	0.00029561	369.03	1.1502e-05	1.1687e-05	487.86	143.12	1.1492e-05	1.1878e-05	246.16	126.04	68.695	35.911	1.1879e-05	74.506	141.568	-37.919	-45.526	-122.815	-55.931	62.689	-123.367	-118.471	-5.841	83.947	-119.016	-115.799	-115.120	-110.261	-129.049	-111.527	-8191	255	
12295.321	1	1	0	0	0.048676	0.13933	0.12449	0.14838	0.062158	0.1121	0.19387	0.069862	0.061354	0.11181	0.073374	0.036881	0.21813	0.13331	0.12037	0.22543	-3.6813	-4.6271	-4.5229	-4.0938	-4.6667	-4.2792	-4.5167	-4.6875	-4.0854	-4.3729	-4.5208	-4.0625	-4.5521	-4.4417	-4.3625	-4.7854	95.270	133.243	69.502	97.513	-13.530	15.079	123.848	102.163	-90.770	200.963	197.851	73.458	165.561	179.368	160.722	42.861	0.00093772	0.00054494	0.00014925	362.41	4.8495e-06	6.9907e-06	479.95	139.73	6.0335e-06	7.9809e-06	243.02	124.43	65.766	35.074	2.0417e-06	74.4	0.0010483	0.0010921	0.00030163	368.43	1.1674e-05	1.1848e-05	486.18	142.34	1.1592e-05	1.1604e-05	246.18	125.48	68.341	35.663	1.1506e-05	74.478	146.181	-39.137	-25.897	-123.057	-25.010	-34.319	-123.371	-117.927	-7.306	-74.855	-119.475	-116.091	-114.939	-110.399	2.591	-111.732	-8191	255	
12295.418	1	1	0	0	0.12834	0.1053	0.23887	0.071144	0.10636	0.13145	0.13322	0.25021	0.069988	0.093814	0.016025	0.11197	0.08801	0.083778	0.23038	0.15241	-3.7583	-4.5833	-4.4854	-4.1021	-4.6562	-4.4125	-4.4833	-4.7937	-4.2667	-4.4854	-4.5729	-4.0167	-4.5312	-4.3292	-4.0188	-4.7333	-13.126	-91.572	191.999	-116.154	-50.182	179.759	157.140	-2.951	-46.911	-56.539	-76.343	100.320	35.347	-43.349	-106.838	188.410	0.00085386	0.00031258	0.00026549	356.75	3.2585e-06	2.7326e-06	480.08	140.11	2.2266e-06	3.8318e-06	242.74	125.99	66.148	35.321	4.4933e-06	74.455	0.0010408	0.0010742	0.00029092	365.5	1.1431e-05	1.166e-05	485.75	142.73	1.1415e-05	1.1657e-05	246.34	126.37	68.737	35.805	1.1452e-05	74.762	141.314	-25.834	-68.667	-123.302	68.308	29.677	-123.448	-118.228	-17.559	17.317	-119.551	-115.663	-115.656	-110.300	-16.180	-111.486	-8191	255	
12295.514	1	1	0	0	0.030564	0.080557	0.16563	0.1455	0.096325	0.19068	0.10914	0.23515	0.18283	0.26646	0.052558	0.24874	0.21405	0.31493	0.065671	0.10916	-3.7896	-4.3667	-4.3958	-4.1083	-4.4021	-4.5458	-4.1521	-4.7292	-4.1354	-4.4167	-4.5312	-4.2771	-4.6833	-4.4896	-4.0542	-4.7021	-14.041	-16.221	173.460	52.621	60.618	-32.303	207.013	217.568	-18.754	222.914	168.896	136.856	188.933	117.298	149.062	182.976	0.00089974	0.00020318	0.00021143	358.22	3.0346e-06	1.0243e-05	480.47	139.51	5e-06	9.5082e-06	243.19	125.63	65.15	35.251	1.88e-06	74.574	0.0010439	0.0010631	0.00029061	366.44	1.1564e-05	1.1829e-05	487.64	142.63	1.1595e-05	1.176e-05	246.43	126.18	68.411	35.717	1.1428e-05	74.644	150.685	-2.265	-41.139	-123.340	64.256	-65.159	-123.110	-117.990	-65.117	66.769	-119.289	-115.977	-115.450	-110.627	11.900	-111.873	-8191	255	
12295.610	1	1	0	0	0.2205	0.24411	0.24397	0.056118	0.17238	0.20938	0.2393	0.08275	0.055561	0.090006	0.1497	0.41294	0.056348	0.033654	0.1153	0.19187	-3.7542	-4.1667	-4.7333	-4.0521	-4.4979	-4.4812	-3.9646	-4.7667	-4.3479	-4.1583	-4.5687	-4.0875	-4.5479	-4.6438	-4.0604	-4.7854	17.260	-29.727	11.074	-84.672	-50.944	109.644	73.881	-116.241	102.879	21.596	32.847	191.398	71.535	124.771	91.171	179.522	0.00091399	0.00083203	0.00012448	358.57	4.9202e-06	7.6509e-06	479.34	139.81	1.5485e-06	2.5182e-06	244.73	126.09	66.078	35.572	1.6176e-06	74.617	0.0010333	0.0010536	0.00028879	365.11	1.1135e-05	1.1279e-05	485.26	142.47	1.0846e-05	1.1093e-05	246.68	126.87	68.895	35.912	1.0732e-05	74.634	149.634	-22.707	185.641	-123.202	34.009	64.377	-123.255	-118.093	5.795	107.049	-119.330	-116.114	-115.521	-110.594	-91.453	-111.681	-8191	255	
12295.706	1	1	0	0	0.012555	0.27589	0.35649	0.1391	0.053015	0.21462	0.13419	0.27991	0.071655	0.1795	0.15717	0.26936	0.23384	0.16459	0.15827	0.20459	-3.8812	-4.0771	-4.5354	-4.0938	-4.3292	-4.5479	-4.1375	-4.5896	-4.3604	-4.0896	-4.6	-4.1062	-4.2792	-4.5312	-4.0437	-4.5813	-122.274	-26.300	-7.006	161.434	62.761	154.342	-97.895	24.832	171.472	112.548	212.526	165.748	102.947	164.300	204.755	153.716	0.00090156	0.00082061	0.00022094	355.62	4.4999e-06	5.2797e-06	477.59	138.54	5.8332e-06	1.2998e-05	241.85	124.58	65.377	34.835	6.8299e-06	73.537	0.00097147	0.0009824	0.00027552	361.26	1.0613e-05	1.0763e-05	481.6	141.17	1.0592e-05	1.0637e-05	244.28	125.53	68.161	35.406	1.075e-05	73.719	143.831	-71.672	25.573	-123.454	-92.328	84.421	-122.980	-118.244	-20.452	-17.368	-119.244	-115.982	-115.045	-110.686	-15.729	-111.765	-8191	255	
12295.802	1	1	0	0	0.13224	0.16027	0.21975	0.075834	0.075959	0.12485	0.059819	0.17863	0.065895	0.075137	0.1394	0.10882	0.19072	0.14863	0.25262	0.077987	-3.9583	-4.1292	-4.5854	-4.1208	-4.2042	-4.7083	-4.15	-4.6646	-4.2354	-4.0375	-4.6875	-4.3146	-4.4125	-4.8646	-4.1312	-4.6167	-32.837	-76.771	10.080	73.369	150.891	-76.302	115.722	33.367	161.007	-96.877	222.604	-99.051	97.974	25.545	-123.047	206.031	0.00082122	0.00038769	0.00010167	353.56	1.7356e-06	6.3987e-06	473.32	138.44	3.0887e-06	8.7772e-06	240.47	124.39	65.409	34.879	2.666e-06	73.128	0.00096633	0.00098607	0.00027727	360.67	1.0652e-05	1.0687e-05	480.26	140.77	1.0499e-05	1.047e-05	242.67	125.01	67.713	35.265	1.0205e-05	73.502	143.836	-7.118	-119.589	-123.454	88.425	81.038	-123.189	-118.427	8.520	29.410	-119.127	-115.959	-115.473	-110.610	-38.349	-111.857	-8191	255	
12295.898	1	1	0	0	0.21912	0.15102	0.14404	0.13584	0.20133	0.18493	0.23153	0.058653	0.27308	0.15505	0.21996	0.045564	0.13345	0.085645	0.3499	0.14862	-4.1417	-4.0188	-4.6917	-4.3542	-4.15	-4.4771	-4.1583	-4.2896	-4.5396	-4.0979	-4.6271	-4.2958	-4.0667	-4.6896	-3.9917	-4.5354	-56.336	-91.125	-35.514	144.239	6.267	-21.095	-117.924	89.670	-56.455	-39.673	134.969	147.305	209.573	99.793	12.469	-20.059	0.00088345	0.00064858	0.00015804	352.97	3.2173e-06	3.754e-06	475.5	139.85	7.0088e-06	3.6977e-06	241.64	124.55	65.824	34.934	5.2251e-06	74.077	0.00092024	0.00093726	0.00026418	358.26	1.0098e-05	1.023e-05	480.84	141.09	1.0098e-05	1.0264e-05	243.89	125.32	67.795	35.398	1.0362e-05	74.28	148.833	-15.991	-27.478	-123.306	63.436	182.201	-123.072	-118.221	-44.036	12.312	-119.337	-116.093	-115.354	-110.563	91.940	-111.712	-8191	255	
12296.019	1	1	0	0	0.20306	0.1327	0.16752	0.18601	0.12709	0.11467	0.15201	0.18779	0.19047	0.069482	0.12135	0.22525	0.21393	0.18487	0.32115	0.012483	-4.2542	-3.9458	-4.4563	-4.3583	-4.075	-4.5521	-4.1167	-4.3583	-4.6521	-4.0583	-4.7104	-4.5229	-4.1271	-4.7146	-4.1667	-4.425	47.050	180.759	71.097	80.936	-135.481	119.714	-25.330	-135.353	49.110	176.464	111.282	147.894	-53.561	195.464	107.515	18.960	0.00075897	0.00058414	9.132e-05	358.6	1.0639e-06	2.8651e-06	479.84	140.05	3.9686e-06	3.4891e-06	243.61	125.54	65.835	35.658	3.3806e-06	74.466	0.00096957	0.00097556	0.00027716	363.74	1.0752e-05	1.1098e-05	485.16	142.79	1.1026e-05	1.1209e-05	247.07	126.63	68.741	35.985	1.1398e-05	74.908	149.312	-18.180	-34.159	-123.163	-78.754	-75.497	-123.213	-118.277	59.376	25.421	-119.203	-115.840	-115.693	-110.788	-84.037	-111.691	-8191	255	
12296.113	1	1	0	0	0.13292	0.2699	0.078951	0.17267	0.13403	0.042782	0.11274	0.077521	0.069722	0.24639	0.054193	0.12542	0.23319	0.19442	0.14909	0.13967	-4.0667	-3.8521	-4.5292	-4.3854	-3.9417	-4.7438	-4.3729	-4.2458	-4.625	-4.0833	-4.4729	-4.3438	-3.9625	-4.5833	-4.2958	-4.4187	179.157	100.376	-124.007	-135.516	-116.451	-60.413	-43.876	88.910	-91.732	30.763	-126.704	192.073	-73.004	194.221	72.764	24.665	0.00093589	0.00046641	0.00023725	357.45	6.9733e-06	7.5937e-06	480.4	139.74	3.5137e-06	5.1396e-06	240.75	125.97	66.108	35.773	7.828e-06	74.737	0.0010305	0.0010355	0.00029408	365.73	1.1249e-05	1.1539e-05	486.79	142.59	1.1338e-05	1.1352e-05	245.59	126.22	68.872	36.093	1.0954e-05	74.812	146.437	-54.605	-40.619	-123.357	-15.053	33.593	-123.403	-118.466	35.884	-22.887	-119.220	-115.822	-115.322	-110.559	32.040	-111.879	-8191	255	
12296.209	1	1	0	0	0.1155	0.085573	0.22558	0.058798	0.23649	0.076799	0.22497	0.1542	0.066601	0.17453	0.11817	0.16197	0.18533	0.19466	0.37398	0.072714	-4.2167	-3.7729	-4.3187	-4.3979	-4.0625	-4.4708	-4.2271	-4.1687	-4.6833	-3.95	-4.3625	-4.5771	-4.1521	-4.6167	-4.3333	-4.1813	175.898	33.898	-79.764	-75.043	123.641	-53.709	145.062	-92.813	55.337	28.494	-25.094	145.701	72.295	-116.591	80.158	27.269	0.0010175	0.0001528	5.2894e-05	356.16	3.7851e-06	5.4783e-06	476.34	141.93	4.3241e-06	4.6845e-06	243.66	126.88	66.746	35.955	9.6898e-06	74.766	0.00098274	0.00098476	0.00027285	363.05	1.0273e-05	1.056e-05	482.63	143.28	1.021e-05	1.0256e-05	246.82	127.14	69.351	36.337	9.8852e-06	74.831	150.250	203.465	-110.576	-123.368	-49.580	-24.942	-123.534	-118.668	59.731	26.807	-119.184	-115.965	-115.152	-110.714	-95.390	-111.967	-8191	255	
12296.283	1	1	0	0	0.12947	0.26722	0.17652	0.22508	0.079303	0.13571	0.093705	0.039777	0.123	0.13212	0.10622	0.29496	0.26021	0.38244	0.089929	0.11667	-4.4042	-4.2542	-4.3208	-4.5312	-3.9375	-4.3958	-4.5312	-4.1271	-4.7208	-4.2729	-4.4354	-4.7208	-3.9146	-4.6542	-4.3604	-4.1021	179.009	188.172	-78.660	196.691	-76.407	-51.517	31.018	26.544	171.470	-134.972	121.374	-64.780	146.517	-97.440	68.695	113.301	0.00092172	0.00051284	0.00020182	353.59	1.1767e-06	7.4875e-06	478.01	141.22	3.9022e-06	2.1663e-06	245.28	127.04	67.724	35.75	4.77e-06	74.399	0.00089492	0.0008935	0.00025373	358.37	9.6256e-06	9.866e-06	480.93	143.03	9.6651e-06	9.7846e-06	247.02	127.43	69.523	36.139	9.9189e-06	74.624	151.562	-54.581	0.945	-123.340	-35.352	59.402	-123.425	-118.128	14.940	120.771	-119.388	-115.932	-115.471	-110.423	-25.354	-111.978	-8191	255	
12296.402	1	1	0	0	0.1194	0.068687	0.35111	0.19842	0.071993	0.23138	0.30509	0.091025	0.12664	0.12308	0.12557	0.089789	0.21933	0.061197	0.21569	0.16694	-4.4208	-4.2917	-4.2833	-4.7312	-3.9729	-4.4229	-4.6625	-4.0687	-4.5833	-4.2	-4.2375	-4.7729	-4.1562	-4.4542	-4.5188	-4.1125	-36.795	-70.542	-124.265	139.772	50.078	-66.699	213.040	145.649	-119.445	194.806	-119.864	13.069	139.258	90.675	-127.859	125.256	0.00088978	0.00082536	0.00028374	353.77	6.6183e-06	1.4542e-06	477.4	141.53	6.2111e-06	3.2707e-06	245.2	127.66	67.779	36.146	1.8792e-06	75.285	0.00090042	0.00091327	0.00025514	358.28	9.7409e-06	9.9586e-06	483.18	143.36	9.9348e-06	9.9916e-06	247.56	127.89	69.877	36.393	1.0127e-05	75.313	137.357	-65.452	-26.112	-123.113	30.051	-0.207	-123.460	-118.604	-49.603	-12.954	-119.218	-115.802	-115.737	-110.589	-122.929	-111.895	-8191	255	
12296.498	1	1	0	0	0.066739	0.20909	0.077588	0.1712	0.20192	0.16868	0.16306	0.15457	0.069439	0.30063	0.012441	0.020224	0.16971	0.21252	0.13719	0.067435	-4.2333	-4.2979	-4.1125	-4.5479	-4.0771	-4.5	-4.675	-4.0375	-4.5333	-4.2542	-4.1438	-4.6729	-4.0542	-4.3458	-4.7208	-4.0875	81.533	16.519	21.653	-55.702	-107.497	59.293	-70.082	32.680	67.638	191.316	-120.169	-60.417	-87.808	207.909	-60.445	40.280	0.00090477	0.00019025	5.5976e-05	353.81	4.486e-06	3.7233e-06	480.53	142.31	1.6843e-06	7.0249e-07	246.26	128.53	68.622	36.532	6.0894e-06	76.209	0.000928	0.0009274	0.00025654	360.55	9.905e-06	1.0102e-05	485.01	144.37	1.0063e-05	1.0051e-05	248.83	128.65	70.713	36.917	1.0118e-05	76.076	143.625	-90.909	88.768	-123.058	-25.831	207.185	-123.438	-118.506	-29.812	-40.702	-119.340	-115.714	-115.114	-110.413	-50.016	-111.695	-8191	255	
12296.594	1	1	0	0	0.057402	0.27166	0.094431	0.12065	0.15993	0.090248	0.064289	0.083347	0.14585	0.13741	0.074765	0.068973	0.061013	0.085206	0.091752	0.22774	-4.0583	-4.2542	-3.9729	-4.6583	-4.1583	-4.2542	-4.6562	-4.1542	-4.475	-4.5396	-4.075	-4.7646	-4.2979	-4.2937	-4.8417	-4.2354	2.994	-42.813	-64.648	164.478	36.471	138.776	105.974	119.151	55.568	43.126	30.247	149.907	63.783	30.555	15.144	170.273	0.00092693	0.00096242	0.00015662	357.35	1.7298e-06	1.1338e-06	482.69	143.49	5.0038e-06	5.2532e-06	248.41	129.28	68.297	36.744	3.1919e-06	75.905	0.00092581	0.00091296	0.00025752	362.77	9.8995e-06	1.0139e-05	486.65	145.96	1.0121e-05	1.0291e-05	249.75	129.59	71.008	37.067	1.0186e-05	75.956	145.957	-22.040	-55.536	-122.879	-73.064	70.161	-123.380	-118.275	-76.526	67.784	-119.305	-115.832	-115.583	-110.761	55.279	-111.858	-8191	255	
12296.690	1	1	0	0	0.15091	0.23491	0.03216	0.17514	0.043859	0.097537	0.068852	0.17879	0.076394	0.18373	0.15564	0.11626	0.10586	0.20255	0.20346	0.23462	-4.1813	-4.4812	-4.0375	-4.6833	-4.2208	-3.9333	-4.7208	-4.1271	-4.3625	-4.5	-4.1146	-4.7875	-4.2271	-4.2646	-4.6667	-4.4062	216.121	153.444	-63.966	68.673	-37.390	206.675	198.175	203.855	-41.637	133.009	-11.301	220.361	159.765	69.546	141.194	119.622	0.00094938	0.00025882	0.00024747	358.12	2.8775e-06	8.4108e-07	479.79	143.53	3.0605e-06	1.0076e-05	245.82	128.34	68.163	36.488	4.9887e-06	75.626	0.00093566	0.00093735	0.00026096	363.84	1.0162e-05	1.047e-05	485.35	145.16	1.0434e-05	1.0376e-05	248.84	128.69	70.521	36.884	1.0313e-05	75.504	140.782	113.273	-32.201	-123.248	219.774	18.851	-123.285	-118.195	-23.111	-7.497	-118.988	-116.399	-115.322	-110.749	46.781	-112.002	-8191	255	
12296.811	1	1	0	0	0.17209	0.23248	0.017674	0.12309	0.21016	0.055973	0.1733	0.1726	0.081159	0.19479	0.14682	0.22568	0.18057	0.072438	0.089875	0.25281	-4.0917	-4.4875	-4.0792	-4.6312	-4.3292	-4.1104	-4.6562	-4.0896	-4.2812	-4.6813	-4.0125	-4.6792	-4.3708	-4.1438	-4.7146	-4.3292	61.355	101.253	-14.898	-29.732	22.555	209.198	-4.909	186.262	-22.042	114.752	76.361	127.997	-93.440	-128.857	132.531	166.671	0.00094063	0.00031691	0.00014619	356.47	4.724e-06	9.9689e-06	478.32	142.8	4.263e-06	6.1144e-06	244.02	128.4	67.392	36.1	5.6645e-06	74.975	0.00094733	0.00094198	0.00026402	362.44	1.0162e-05	1.0306e-05	484.02	144.55	1.0256e-05	1.0094e-05	247.72	128.51	69.954	36.491	1.0123e-05	75.246	150.602	-119.588	6.818	-123.419	-34.856	14.840	-123.349	-118.009	51.911	60.497	-119.407	-115.960	-115.246	-110.577	-4.266	-111.895	-8191	255	
12296.883	1	1	0	0	0.048692	0.12159	0.19327	0.093388	0.26756	0.096898	0.20041	0.13637	0.076806	0.074235	0.11652	0.083679	0.10335	0.29101	0.074115	0.11068	-4.2042	-4.6875	-3.8958	-4.4708	-4.4521	-4.1667	-4.5854	-4.0375	-4.2188	-4.6083	-4.0396	-4.4563	-4.4313	-3.9958	-4.7562	-4.4667	-37.335	0.345	-111.107	-104.474	71.153	57.823	132.101	210.586	157.430	-113.266	-20.509	215.358	12.577	-119.827	-34.807	20.529	0.00082175	0.00028942	0.00013605	355.58	4.2333e-06	7.9179e-06	479.98	141.47	5.7173e-06	4.4295e-06	246.01	127.63	67.991	36.144	7.3125e-06	75.082	0.0009217	0.00091588	0.00025557	361.18	9.8641e-06	9.9337e-06	483.5	143.45	1.0071e-05	1.0181e-05	248.26	128.23	69.987	36.446	1.0156e-05	75.351	143.549	-74.775	-77.022	-123.400	-20.878	36.323	-123.564	-118.455	-19.423	27.913	-119.388	-115.929	-115.604	-110.479	-9.444	-111.774	-8191	255	
12297.003	1	1	0	0	0.08132	0.11189	0.10457	0.1672	0.15566	0.05838	0.072979	0.009207	0.088913	0.17414	0.082322	0.29083	0.22585	0.20052	0.25401	0.15482	-3.9167	-4.7562	-4.0375	-4.325	-4.5625	-4.1396	-4.6188	-4.3833	-4.1167	-4.6604	-4.3	-4.5521	-4.5563	-4.1708	-4.675	-4.4729	-53.936	-40.418	-76.921	87.201	201.980	-29.946	96.749	-127.230	-40.990	22.754	124.631	191.415	-78.327	153.459	130.655	-106.748	0.00087785	4.9522e-05	0.00022602	357.91	6.7153e-06	3.9759e-06	481.78	141.61	5.4403e-06	6.1121e-06	246.7	128.66	68.112	36.637	8.5417e-06	76.142	0.00093742	0.00092758	0.00025994	361.96	1.0014e-05	1.0201e-05	486.65	144.27	1.0114e-05	1.0283e-05	249.66	128.89	70.407	36.899	1.0385e-05	76.196	152.077	-50.071	-53.068	-122.986	-36.768	-29.346	-123.214	-118.364	81.902	-2.297	-119.189	-115.937	-115.664	-110.551	-61.539	-111.964	-8191	255	
12297.099	1	1	0	0	0.19638	0.11535	0.090578	0.033977	0.055067	0.078132	0.27379	0.07971	0.17295	0.20209	0.041662	0.15699	0.15133	0.08419	0.1698	0.27572	-3.8042	-4.5979	-4.1312	-4.2917	-4.5271	-3.9417	-4.5437	-4.2708	-3.8958	-4.7125	-4.2958	-4.3646	-4.6312	-4.2167	-4.5167	-4.4354	59.065	-75.409	7.271	40.990	215.602	173.122	-134.080	146.198	111.318	76.183	184.508	1.809	210.251	167.217	106.459	161.723	0.00084447	0.00021773	0.00017467	356.39	4.6945e-06	6.1102e-06	481.72	143.74	6.7469e-06	9.4527e-06	248.9	129.24	68.667	36.664	5.3445e-06	76.073	0.00092275	0.00094354	0.00026087	363.86	1.0036e-05	1.0424e-05	487.93	145.41	1.0254e-05	1.0309e-05	250.45	129.45	70.698	37.029	1.0352e-05	76.313	147.992	46.676	-20.332	-123.244	6.676	25.561	-122.876	-118.116	-106.307	85.776	-119.523	-116.204	-115.411	-110.461	-105.759	-111.824	-8191	255	
12297.194	1	1	0	0	0.051948	0.23995	0.071912	0.25416	0.27153	0.32127	0.16308	0.10423	0.37878	0.20768	0.05059	0.077736	0.059235	0.22452	0.12683	0.24275	-3.6104	-4.65	-4.3354	-4.2667	-4.4812	-4.0792	-4.4437	-4.4583	-4.1062	-4.6562	-4.4354	-4.2375	-4.6104	-4.2542	-4.5208	-4.6813	-120.621	65.526	87.183	-95.808	178.046	129.690	46.602	111.707	168.130	168.060	-88.004	-6.850	96.892	219.211	146.634	102.917	0.00099115	0.00014876	0.00010546	359.36	5.9411e-06	3.7426e-06	482.37	145.76	3.7438e-06	4.7875e-06	248.78	129.14	68.715	36.902	4.8483e-06	76.082	0.00093025	0.00093403	0.00025978	364.42	1.0005e-05	1.0161e-05	487.26	146.58	1.0044e-05	1.0291e-05	250.36	129.44	70.959	37.165	1.043e-05	76.01	141.985	20.050	24.295	-123.093	34.625	73.368	-123.333	-118.339	50.442	-9.994	-118.882	-116.103	-115.498	-110.735	-24.934	-112.027	-8191	255	
12297.292	1	1	0	0	0.079923	0.12318	0.086792	0.15354	0.12279	0.077717	0.18237	0.11094	0.17458	0.091176	0.18827	0.19469	0.15051	0.12479	0.17987	0.084761	-3.6646	-4.5854	-4.2292	-4.1208	-4.6479	-4.2312	-4.4396	-4.5333	-3.9854	-4.5938	-4.4	-4.15	-4.6729	-4.1125	-4.1937	-4.8583	153.261	192.770	182.279	213.167	6.219	102.194	153.870	121.763	-129.425	169.945	186.763	169.445	162.477	104.278	191.945	174.168	0.0010091	0.00055929	0.00010217	359.82	3.1704e-06	7.6965e-06	480.93	142.79	4.3149e-06	4.8592e-07	244.89	127.51	67.536	36.555	4.2852e-06	75.049	0.00093974	0.00097137	0.0002687	365.3	1.0486e-05	1.0725e-05	484.98	145.15	1.0533e-05	1.0974e-05	248.11	128	70.164	36.808	1.0644e-05	75.285	139.953	-17.416	20.032	-123.141	-34.799	-49.185	-123.376	-118.584	18.254	53.567	-119.189	-115.859	-115.465	-110.647	-82.309	-111.922	-8191	255	
12297.410	1	1	0	0	0.15951	0.080502	0.16819	0.072131	0.071744	0.20059	0.18057	0.1478	0.1223	0.16384	0.074117	0.098965	0.046106	0.048414	0.25398	0.16471	-3.5896	-4.4667	-4.4125	-4.025	-4.525	-4.1625	-4.4083	-4.6438	-3.975	-4.5104	-4.6375	-4.1583	-4.6604	-4.2667	-4.1458	-4.7937	3.135	194.360	202.007	-86.973	157.089	202.108	216.801	68.014	196.240	90.097	-129.544	125.273	201.752	170.270	28.919	121.952	0.0010412	0.00038056	0.00017554	353.35	3.4952e-06	7.0008e-06	477.82	142.21	6.4175e-07	1.1895e-05	245.39	128.36	68.79	36.501	1.4644e-06	75.715	0.00097064	0.00096883	0.0002742	361.48	1.0433e-05	1.0564e-05	483.59	144.46	1.0339e-05	1.0593e-05	248.38	128.67	70.649	36.851	1.0398e-05	75.907	148.515	-47.450	-74.182	-123.545	48.002	-11.913	-123.153	-117.838	-81.792	6.126	-119.366	-116.180	-115.428	-110.857	-65.738	-111.803	-8191	255	
12297.507	1	1	0	0	0.070076	0.23069	0.20692	0.082701	0.22028	0.30006	0.13702	0.093538	0.10567	0.15074	0.24578	0.082348	0.17465	0.24176	0.049423	0.14962	-3.9604	-4.3812	-4.5021	-3.9667	-4.55	-4.275	-4.3042	-4.5	-4.2396	-4.4479	-4.4875	-4.0563	-4.5271	-4.3917	-4.0396	-4.8063	170.277	12.817	207.038	212.172	-11.097	-90.753	-132.185	10.567	42.193	-34.880	109.320	104.144	-134.553	138.358	218.810	104.906	0.00094151	0.00038493	0.000182	353.29	7.0343e-06	1.3207e-06	477.26	143.25	2.0331e-06	7.3907e-06	246.67	128.26	67.928	36.603	3.774e-06	76.083	0.00094568	0.0009653	0.00026554	360.83	1.0425e-05	1.0515e-05	484.05	144.71	1.0387e-05	1.0607e-05	248.9	128.76	70.745	36.958	1.0438e-05	76.12	144.543	-39.125	-131.966	-122.951	-32.112	-29.831	-123.587	-118.556	-56.582	34.069	-119.692	-115.855	-115.563	-110.448	-79.369	-111.924	-8191	255	
12297.578	1	1	0	0	0.11958	0.15442	0.12692	0.15844	0.1696	0.13072	0.1661	0.026706	0.11188	0.19364	0.15627	0.30288	0.1538	0.1142	0.12845	0.048719	-3.7146	-4.225	-4.4917	-4.0813	-4.4958	-4.3167	-4.1854	-4.6521	-4.1896	-4.4167	-4.7208	-4.1312	-4.5687	-4.5104	-3.9375	-4.6896	23.513	-46.387	-122.907	203.409	102.769	-54.276	61.943	123.684	-3.911	182.889	-96.569	-123.934	85.848	-103.166	177.974	146.717	0.001026	0.00048205	0.00014087	356.7	1.0036e-06	2.3783e-06	483.66	144.8	1.7712e-06	5.8888e-06	247.52	128.46	68.59	36.709	4.5755e-06	76.119	0.00096037	0.00096966	0.00026897	362.09	1.0516e-05	1.0616e-05	487.78	146.24	1.0643e-05	1.0773e-05	250.23	129.37	71.061	37.223	1.0656e-05	76.301	136.272	-45.834	-121.758	-123.284	71.411	6.418	-123.473	-118.434	-110.443	-8.768	-119.177	-115.724	-115.354	-110.755	35.696	-111.881	-8191	255	
12297.699	1	1	0	0	0.12666	0.019122	0.097734	0.19563	0.25433	0.23045	0.082804	0.20145	0.33562	0.22808	0.12384	0.11875	0.20545	0.27452	0.048611	0.31126	-3.925	-4.3354	-4.5813	-4.1396	-4.5083	-4.6083	-4.2125	-4.7604	-4.3146	-4.1854	-4.7312	-4.2104	-4.325	-4.7104	-3.9083	-4.6167	123.914	165.942	-107.515	181.146	-33.844	177.616	150.719	-109.228	46.099	-39.080	-129.658	-134.482	156.592	196.979	-63.522	147.943	0.00099309	0.00038935	0.00012283	357.1	5.3309e-06	2.3587e-06	483.45	142.99	6.7573e-06	4.1839e-06	245.02	127.79	68.348	36.885	5.8986e-06	75.672	0.00097902	0.00099071	0.00027597	365.39	1.0652e-05	1.076e-05	486.91	145.5	1.061e-05	1.0776e-05	248.64	129.19	71.037	37.233	1.0713e-05	75.766	144.132	-1.059	-92.096	-123.150	-24.413	82.248	-122.986	-118.086	27.937	109.228	-119.435	-116.034	-115.417	-110.546	125.825	-112.137	-8191	255	
12297.795	1	1	0	0	0.20605	0.03814	0.24341	0.15766	0.20352	0.11643	0.11386	0.045617	0.22186	0.25513	0.092594	0.077525	0.109	0.091987	0.16617	0.17186	-3.9833	-4.1229	-4.7167	-4.1708	-4.2979	-4.4812	-4.075	-4.5	-4.4271	-4.1188	-4.7396	-4.1125	-4.4812	-4.6896	-3.8521	-4.7833	-5.665	52.219	108.196	113.685	82.305	34.747	158.865	126.641	203.051	190.608	62.055	144.562	219.854	177.464	-75.293	109.520	0.00093497	0.00026669	0.00030301	358.27	6.6808e-06	3.0201e-06	478.31	142.34	9.2988e-06	5.684e-06	245.68	127.55	68.025	36.44	1.2412e-06	74.845	0.00097377	0.00097729	0.00027453	364.32	1.0574e-05	1.0859e-05	484.12	145.09	1.0672e-05	1.0697e-05	247.91	128.09	70.346	36.894	1.0776e-05	75.214	142.505	37.586	-63.191	-123.152	19.299	15.877	-122.964	-118.342	-12.744	121.561	-119.543	-116.145	-115.184	-110.568	107.473	-111.798	-8191	255	
12297.891	1	1	0	0	0.24561	0.10959	0.072129	0.12606	0.1404	0.17294	0.19126	0.13722	0.21171	0.1129	0.14263	0.23585	0.14087	0.21787	0.14481	0.086221	-4.0813	-4.1854	-4.7	-4.2417	-4.2792	-4.5854	-4.0813	-4.6229	-4.45	-4.2917	-4.7229	-4.2729	-4.1292	-4.6896	-4.0521	-4.5542	99.559	-41.737	83.847	159.548	-20.725	34.951	194.051	-130.410	173.479	-73.265	198.803	-106.179	-123.269	151.515	37.223	-129.989	0.00082476	0.00059692	0.00011427	357.34	1.9072e-06	7.4035e-06	475.24	142.12	6.0594e-06	6.0592e-06	243.49	127.03	67.689	36.167	7.4192e-06	74.956	0.00098307	0.00098338	0.00027747	362.38	1.0776e-05	1.0924e-05	481.47	144.17	1.0795e-05	1.072e-05	246.32	127.5	70.07	36.73	1.0716e-05	75.122	143.985	-135.953	-83.119	-123.031	-23.804	-14.078	-123.649	-118.260	-78.952	15.701	-119.084	-116.025	-115.641	-110.441	77.012	-111.843	-8191	255	
12297.987	1	1	0	0	0.39189	0.19768	0.12173	0.22326	0.13875	0.13666	0.18344	0.17371	0.14203	0.20693	0.098091	0.12417	0.15779	0.069705	0.15711	0.26004	-4.1104	-3.9542	-4.6583	-4.3812	-4.1667	-4.6417	-4.0604	-4.3458	-4.3667	-3.9375	-4.5604	-4.275	-4.2333	-4.9271	-3.9875	-4.5146	-18.493	-76.570	193.635	-109.359	-28.198	215.718	-124.634	198.359	136.188	-17.730	-126.667	-65.519	-51.940	92.607	134.432	171.834	0.00091402	0.00019709	0.00017024	353	3.665e-06	6.403e-06	477.11	141.6	6.1813e-06	3.2815e-06	242.78	127.52	68.312	36.493	7.0603e-06	75.554	0.00096555	0.00097163	0.00027269	360.09	1.0465e-05	1.0502e-05	480.93	143.79	1.0444e-05	1.0601e-05	246.7	128.13	70.391	36.871	1.0516e-05	75.725	148.465	187.549	-76.850	-123.060	48.600	-84.346	-123.248	-118.624	-73.717	-106.923	-119.052	-115.975	-115.182	-110.563	-82.210	-111.875	-8191	255	
12298.108	1	1	0	0	0.2616	0.21106	0.099844	0.16073	0.08672	0.20319	0.069787	0.19215	0.13133	0.11231	0.047196	0.17464	0.10868	0.22114	0.20351	0.15305	-4.2042	-4.0375	-4.5479	-4.3688	-4.3417	-4.6458	-4.3021	-4.3021	-4.6167	-4.0083	-4.5625	-4.4833	-4.2042	-4.5979	-4.0667	-4.4604	194.344	-46.171	10.514	214.076	-93.666	-99.610	-131.657	-31.696	50.496	26.374	-46.670	127.908	-54.906	-60.323	-5.019	175.229	0.00096086	0.00041211	0.00019006	353.24	6.106e-06	6.1416e-06	476.52	143.25	4.6412e-06	5.332e-06	246.21	129.27	68.917	37.089	9.3135e-06	76.745	0.00095417	0.0009454	0.00027339	360.67	1.0317e-05	1.0551e-05	484.33	145.64	1.044e-05	1.0555e-05	249.33	129.73	71.487	37.441	1.0546e-05	76.65	149.000	216.664	-46.599	-123.278	-81.762	29.825	-123.247	-118.177	-56.835	1.378	-119.197	-115.916	-115.302	-110.640	22.289	-111.906	-8191	255	
12298.180	1	1	0	0	0.23836	0.042699	0.13226	0.18336	0.24162	0.12805	0.19368	0.12964	0.16203	0.05032	0.31557	0.079248	0.097881	0.25227	0.24209	0.24773	-4.2979	-4.0333	-4.4563	-4.3979	-4.0312	-4.5042	-4.3896	-4.2312	-4.6292	-3.9896	-4.5229	-4.6438	-3.9958	-4.5771	-4.3042	-4.3979	101.410	-84.062	93.144	133.205	126.464	35.296	-78.544	-132.096	34.191	-75.734	102.079	154.632	26.433	151.806	-91.672	126.521	0.00092309	9.9543e-05	0.00015007	358.68	3.757e-06	2.7516e-06	480.14	144.5	6.3271e-06	9.0048e-06	248.5	129.63	69.686	37.196	7.2633e-06	76.229	0.00096606	0.00096314	0.00026894	363.26	1.0319e-05	1.0694e-05	486.27	147.2	1.0477e-05	1.0608e-05	250.5	130.32	71.775	37.641	1.0469e-05	76.497	146.812	18.111	1.563	-123.533	-55.182	14.189	-123.115	-118.341	-81.117	8.898	-119.097	-116.088	-115.087	-110.432	-8.726	-112.031	-8191	255	
12298.274	1	1	0	0	0.29354	0.19856	0.16123	0.080143	0.18426	0.021582	0.04145	0.080387	0.14137	0.077939	0.26974	0.079605	0.16857	0.2526	0.10808	0.13451	-4.3083	-3.9333	-4.3229	-4.4792	-3.9083	-4.5792	-4.3313	-4.1146	-4.6854	-3.8771	-4.5479	-4.7188	-4.1562	-4.5854	-4.2792	-4.2292	24.239	172.703	-98.145	-22.023	207.224	100.318	217.474	174.836	-107.283	-132.786	81.490	108.292	-107.938	164.677	78.805	165.596	0.00087178	0.00075692	9.3292e-05	356.28	1.4862e-06	6.4055e-06	479.4	144.56	5.1707e-06	4.387e-06	246.32	129.66	69.374	37.14	5.4058e-06	75.61	0.00095219	0.00096152	0.00026972	361.4	1.0167e-05	1.0534e-05	484.18	146.14	1.0257e-05	1.0339e-05	248.68	129.8	71.416	37.432	1.0241e-05	75.813	144.161	-68.466	-120.381	-123.191	188.933	-92.221	-123.363	-118.374	30.594	48.980	-119.381	-116.090	-115.471	-110.633	3.038	-111.969	-8191	255	
12298.372	1	1	0	0	0.039091	0.1304	0.091453	0.07104	0.27085	0.18495	0.065695	0.1008	0.1546	0.16377	0.15481	0.090225	0.22282	0.23969	0.061825	0.26501	-4.4125	-4.2625	-4.3938	-4.4917	-4.1104	-4.5396	-4.5396	-3.9271	-4.7417	-4.1146	-4.4833	-4.5938	-4.125	-4.45	-4.4333	-4.1208	63.917	-20.826	21.026	53.387	-74.754	62.267	-20.330	116.155	-64.462	2.302	-132.225	105.603	141.274	-110.955	164.070	210.030	0.00097807	0.00078136	0.00014922	356.39	3.7228e-06	8.4967e-06	476.44	143.04	4.0291e-06	6.5315e-06	244.16	128.32	68.671	36.738	4.1711e-06	75.275	0.00094209	0.00093857	0.00026675	360.04	1.0108e-05	1.0425e-05	481.45	145.26	1.031e-05	1.0421e-05	247.89	128.89	70.856	37.054	1.0495e-05	75.347	136.554	-84.065	-66.977	-122.975	-30.326	31.790	-123.104	-118.227	-19.992	-2.242	-119.526	-116.120	-115.462	-110.837	-43.189	-112.102	-8191	255	
12298.491	1	1	0	0	0.094728	0.10606	0.045199	0.21977	0.16343	0.16803	0.33188	0.14698	0.055562	0.10734	0.22137	0.073591	0.1371	0.15174	0.059408	0.33089	-4.25	-4.2312	-4.2646	-4.7354	-4.0062	-4.4271	-4.5708	-3.9917	-4.5188	-4.3292	-4.2854	-4.725	-4.2542	-4.5396	-4.4458	-4.0062	-49.915	-125.055	-74.259	123.542	-34.422	-85.558	211.757	208.153	-59.754	176.634	130.692	157.239	179.201	-105.322	14.388	107.065	0.00096869	0.0005623	0.00018845	351.88	8.9278e-06	8.6737e-06	474.88	141.91	2.0681e-06	8.3602e-06	243.27	128.11	68.031	36.595	5.599e-06	75.324	0.00096079	0.00095794	0.00026845	358.11	1.0479e-05	1.0802e-05	481.46	144.44	1.0735e-05	1.0738e-05	247.22	128.64	70.697	36.929	1.0702e-05	75.244	147.388	-80.751	-41.261	-123.233	33.942	95.339	-123.341	-118.427	-128.311	59.889	-118.951	-115.861	-115.577	-110.583	9.922	-112.006	-8191	255	
12298.587	1	1	0	0	0.077618	0.048376	0.1411	0.23999	0.1544	0.030417	0.060434	0.36935	0.14792	0.059866	0.087903	0.18101	0.28108	0.18428	0.20117	0.32032	-4.2	-4.2312	-4.2521	-4.6396	-4.0813	-4.4521	-4.5542	-4.0813	-4.5354	-4.3271	-4.1458	-4.8271	-4.0938	-4.3875	-4.7354	-4.1833	-133.735	150.920	-136.391	134.839	100.214	177.693	155.669	197.313	84.413	47.956	55.997	70.005	178.283	-85.296	195.550	165.141	0.00095675	0.0002812	0.00026247	352.13	3.9488e-06	6.6823e-06	475.26	143.17	5.4899e-06	6.3365e-06	243.37	128.8	68.517	36.649	6.9617e-06	75.539	0.00098234	0.00098747	0.00027425	358.04	1.0655e-05	1.0787e-05	480.29	144.79	1.0648e-05	1.075e-05	247.27	129.27	70.915	36.965	1.0685e-05	75.581	147.071	-25.931	-56.336	-123.393	-11.699	24.236	-123.190	-118.506	-21.753	72.152	-119.195	-115.972	-115.336	-110.781	-9.457	-111.830	-8191	255	
12298.683	1	1	0	0	0.22278	0.37891	0.16042	0.12815	0.027892	0.097976	0.15632	0.17723	0.18183	0.16923	0.1352	0.23901	0.13468	0.2775	0.13372	0.084028	-4.3896	-4.4563	-4.0083	-4.725	-4.1604	-4.2292	-4.6604	-4.1792	-4.4125	-4.4542	-4.1167	-4.6854	-4.3417	-4.1687	-4.5417	-4.2771	49.867	-9.879	156.528	-35.032	57.111	84.367	-121.784	219.284	119.351	149.775	205.863	109.698	-6.169	192.337	25.772	102.745	0.00090474	0.00024587	0.00014445	354.13	3.2616e-06	6.1824e-06	478.75	142.31	6.1386e-06	5.1369e-06	245.09	129.37	68.535	36.703	5.6255e-06	75.381	0.0009748	0.00096788	0.00027201	359.89	1.0344e-05	1.0778e-05	482.55	144.95	1.0726e-05	1.0694e-05	248.11	129.58	71.024	37.131	1.0728e-05	75.726	149.498	50.656	-83.464	-123.159	-18.978	25.693	-123.134	-118.257	6.762	89.010	-119.355	-115.966	-115.620	-110.686	-129.482	-111.999	-8191	255	
12298.804	1	1	0	0	0.038524	0.13923	0.17361	0.15553	0.02699	0.059561	0.034205	0.13203	0.14729	0.23196	0.29803	0.064926	0.21456	0.19686	0.11379	0.16406	-4.1062	-4.6271	-3.9917	-4.6125	-4.1854	-4.0437	-4.7562	-4.1562	-4.5354	-4.6104	-4.1062	-4.4979	-4.3146	-4.3729	-4.6104	-4.3583	99.950	-99.624	-89.275	214.589	13.974	-101.867	-6.557	-81.584	63.802	29.181	148.283	170.968	-31.393	-91.976	81.263	-79.078	0.0010134	0.00060485	0.0002604	353.83	8.217e-06	3.6009e-06	477.83	142.91	7.3126e-06	8.1486e-06	243.93	127.59	68.632	36.536	1.3465e-06	74.689	0.00098403	0.00099365	0.00027556	360.03	1.0666e-05	1.0978e-05	482.13	145.02	1.078e-05	1.0913e-05	246.51	128.46	70.79	36.911	1.0881e-05	74.806	137.891	77.654	-53.638	-122.948	-50.093	10.324	-123.330	-118.109	55.687	24.570	-119.115	-116.068	-115.592	-110.725	22.364	-111.996	-8191	255	
12298.875	1	1	0	0	0.10223	0.042144	0.16197	0.12045	0.076849	0.055139	0.030566	0.14597	0.31123	0.072818	0.11213	0.29526	0.027514	0.049855	0.3438	0.14056	-3.9854	-4.4625	-4.0854	-4.6458	-4.2833	-4.1167	-4.7042	-4.0875	-4.2542	-4.5896	-4.1188	-4.6188	-4.3146	-4.0917	-4.5521	-4.3021	76.279	123.981	-64.601	-63.639	-63.904	-120.480	137.133	151.233	-9.744	17.670	171.931	163.084	-80.888	-2.214	90.859	165.793	0.00091287	0.00029606	8.2972e-05	350.64	4.6703e-06	9.3851e-06	471.92	141.27	6.208e-06	6.6993e-06	241.96	127.3	67.592	35.964	4.6629e-06	74.032	0.00099178	0.0010127	0.00027806	358.02	1.0885e-05	1.1107e-05	478.34	143.68	1.1154e-05	1.1096e-05	245.02	127.76	70.251	36.468	1.0979e-05	74.319	148.113	-102.728	-29.534	-123.331	61.965	-39.471	-123.094	-118.380	-29.266	5.617	-119.382	-116.224	-115.603	-110.788	-48.250	-112.081	-8191	255	
12298.972	1	1	0	0	0.071798	0.10921	0.20161	0.2451	0.046855	0.11806	0.11919	0.20121	0.13351	0.10481	0.13139	0.090553	0.15304	0.30747	0.088938	0.069766	-3.8458	-4.5687	-4.0042	-4.5167	-4.4396	-4.1667	-4.7396	-4.3	-4.1104	-4.6292	-4.0021	-4.4542	-4.6312	-4.1479	-4.7312	-4.3417	88.154	-89.470	96.247	172.148	60.750	41.133	95.191	-120.986	131.575	72.614	181.570	105.156	111.445	140.530	81.513	98.397	0.00093418	0.00044774	0.00014743	348.14	5.1846e-06	1.4047e-05	470.47	141.01	8.1849e-06	2.2141e-06	241.18	126.5	67.354	36.08	4.3119e-06	74.092	0.00098754	0.00099453	0.00027989	356.49	1.0681e-05	1.0852e-05	477.2	143.09	1.0706e-05	1.0973e-05	244.53	127.53	69.886	36.46	1.0857e-05	74.24	144.749	-71.101	-14.564	-123.141	19.449	39.240	-123.211	-118.431	-57.416	3.053	-119.273	-116.209	-115.564	-110.462	-91.360	-112.225	-8191	255	
12299.092	1	1	0	0	0.04602	0.2571	0.14785	0.13057	0.11866	0.029133	0.16743	0.071803	0.2024	0.070138	0.14372	0.14936	0.062954	0.18914	0.11108	0.078177	-3.7188	-4.7042	-4.1979	-4.2104	-4.4833	-4.0646	-4.7312	-4.3208	-4.1396	-4.7917	-4.2583	-4.2833	-4.6062	-4.1562	-4.5958	-4.3417	73.976	35.749	207.560	-61.914	21.862	-64.579	95.706	-115.794	-133.300	23.414	112.793	129.095	178.346	-131.072	186.688	141.721	0.0009534	0.00075537	0.00012255	350.38	2.0989e-06	1.6342e-06	473.56	140.57	7.6524e-06	4.0363e-06	242.09	126.04	67.07	35.993	1.8861e-06	74.148	0.00096767	0.00098649	0.00027469	357.16	1.0637e-05	1.085e-05	479.41	143.1	1.1075e-05	1.1225e-05	244.82	126.92	69.629	36.365	1.1451e-05	74.464	138.937	-20.132	-47.774	-123.372	58.136	60.019	-123.440	-118.206	-116.008	17.139	-119.114	-115.738	-115.578	-110.443	-51.640	-111.774	-8191	255	
12299.187	1	1	0	0	0.13932	0.12668	0.12508	0.16112	0.17619	0.16474	0.15611	0.21516	0.16759	0.087624	0.31305	0.054205	0.097716	0.085747	0.15434	0.2697	-3.6063	-4.5062	-4.0458	-4.075	-4.5542	-4.1458	-4.6917	-4.4167	-4.1771	-4.7562	-4.3875	-4.3917	-4.7125	-4.2458	-4.4729	-4.6521	-53.417	-95.951	61.856	-86.441	-113.485	-17.780	207.045	179.321	-113.728	-68.610	214.430	-37.343	-45.152	-58.121	159.074	146.099	0.0009098	0.00052978	6.7424e-05	353.65	8.2443e-06	7.2274e-06	476.9	141.46	1.0797e-06	6.8885e-06	240.76	127.35	67.068	36.355	3.2351e-06	74.956	0.001028	0.0010501	0.00029447	361.98	1.1431e-05	1.167e-05	482.55	144.07	1.1588e-05	1.1791e-05	245.83	128.03	70.264	36.824	1.1793e-05	75.422	144.065	-85.952	-30.373	-123.195	14.029	116.631	-123.109	-118.185	-32.907	9.982	-119.093	-115.990	-115.773	-110.358	-82.339	-111.920	-8191	255	
12299.283	1	1	0	0	0.098016	0.14261	0.055343	0.093936	0.088444	0.098397	0.1829	0.081617	0.077691	0.12156	0.036975	0.0061372	0.29922	0.086851	0.16322	0.14927	-3.7292	-4.6292	-4.2812	-4.3313	-4.6792	-4.0333	-4.5687	-4.5667	-4.0229	-4.6583	-4.5437	-4.35	-4.7417	-4.2812	-4.4167	-4.7292	158.437	139.398	209.912	-4.499	45.310	111.284	211.782	80.406	-79.218	126.448	-114.784	37.434	-121.828	134.589	-21.043	-4.400	0.0010341	0.00012863	0.00013391	356.52	3.0227e-06	7.1468e-06	476.86	142.82	7.7698e-06	8.237e-06	243.17	127.95	67.77	36.752	4.6113e-06	75.088	0.0010417	0.0010907	0.00029724	364.16	1.1613e-05	1.1787e-05	484.2	145.56	1.1622e-05	1.2014e-05	246.96	128.28	70.866	37.214	1.1954e-05	75.34	140.580	176.807	-33.192	-123.313	-57.100	50.738	-123.128	-117.929	1.431	52.861	-119.416	-116.072	-115.419	-110.461	31.923	-111.836	-8191	255	
12299.381	1	1	0	0	0.090316	0.10882	0.19678	0.12813	0.16739	0.32535	0.21372	0.11572	0.26785	0.2856	0.11152	0.26158	0.13807	0.047744	0.24122	0.28012	-3.775	-4.4812	-4.1958	-4.2854	-4.7188	-4.3521	-4.3917	-4.7354	-3.8792	-4.4917	-4.5958	-4.1167	-4.7854	-4.2646	-4.3104	-4.9021	98.120	52.453	-99.538	-85.688	12.926	97.703	149.338	20.897	-109.789	27.519	37.831	-134.187	100.253	117.819	31.244	201.824	0.00081965	0.00074495	0.00015221	355.78	5.2777e-06	3.3197e-07	473.16	142.74	7.6332e-06	4.5693e-06	243.94	129.3	68.868	37.226	5.4821e-06	75.54	0.0010707	0.0011058	0.0003027	362.18	1.1636e-05	1.1667e-05	480.86	145.63	1.1262e-05	1.1423e-05	247.61	129.62	71.443	37.519	1.0749e-05	75.627	146.563	-16.692	14.611	-123.200	-28.280	-103.792	-123.307	-117.999	-79.044	64.838	-119.270	-116.013	-115.506	-110.847	-81.401	-111.962	-8191	255	
12299.475	1	1	0	0	0.11756	0.32282	0.050974	0.25914	0.13598	0.14182	0.13666	0.084777	0.1868	0.14004	0.20859	0.17465	0.15289	0.15148	0.1481	0.079588	-3.6729	-4.6604	-4.4667	-4.1625	-4.875	-4.4979	-4.2542	-4.7917	-4.1271	-4.5687	-4.7667	-4.1667	-4.6729	-4.3854	-4.1854	-4.8729	-129.067	184.911	58.711	146.896	146.232	-134.828	-116.598	109.488	53.671	-77.682	-123.615	176.887	219.163	131.808	-19.684	163.459	0.000945	0.00025274	0.0002071	351.83	2.9525e-06	7.5041e-06	474.8	143.87	1.2401e-06	1.0854e-05	244.31	127.86	68.154	36.707	1.1886e-06	74.631	0.00096914	0.00097144	0.00026583	357.5	1.0251e-05	1.05e-05	479.82	145.66	1.0313e-05	1.0787e-05	246.76	128.47	70.711	37.018	1.1075e-05	74.889	141.674	66.836	14.102	-123.168	-33.548	30.107	-123.299	-118.215	119.058	103.371	-119.516	-115.837	-115.550	-110.461	-127.328	-112.007	-8191	255	
12299.571	1	1	0	0	0.14749	0.16032	0.28143	0.11257	0.073618	0.13179	0.31883	0.0089841	0.25537	0.29402	0.25188	0.1506	0.17992	0.15292	0.18314	0.075103	-3.8125	-4.4604	-4.5271	-4.0917	-4.7271	-4.3042	-4.1896	-4.6646	-4.3646	-4.4854	-4.6146	-4.1	-4.7167	-4.4792	-4.1583	-4.7979	-59.905	183.830	-73.489	-60.280	52.109	112.122	67.906	-81.442	0.227	-123.940	61.270	112.233	7.197	83.150	13.584	129.134	0.00087829	0.00072105	8.7475e-05	350.49	6.3755e-06	9.0003e-06	471.3	141.33	5.4174e-06	7.8025e-06	240.33	126.55	67.161	36.208	5.3407e-06	73.995	0.0010197	0.0010358	0.00029421	359.79	1.1521e-05	1.1742e-05	479.36	144.1	1.1897e-05	1.2135e-05	245.25	127.19	70.334	36.849	1.2174e-05	74.583	147.753	-12.278	-58.172	-123.282	3.453	-44.071	-123.025	-118.294	-71.220	88.287	-119.203	-116.111	-115.496	-110.392	-74.373	-111.906	-8191	255	
12299.667	1	1	0	0	0.058754	0.059044	0.12233	0.21306	0.072452	0.14799	0.06644	0.10613	0.24403	0.061172	0.22726	0.082411	0.087473	0.20275	0.223	0.14585	-3.7542	-4.3104	-4.6521	-4.1458	-4.5583	-4.4417	-4.1604	-4.7708	-4.2521	-4.3083	-4.6875	-4.2792	-4.5146	-4.5021	-4.1583	-4.6687	16.844	185.994	-6.500	216.928	38.291	180.127	165.642	201.067	42.733	-91.496	-76.931	175.182	85.820	194.477	126.806	79.842	0.00090576	0.0007921	0.0001868	354.61	2.5122e-06	2.3251e-06	470.15	142.07	3.1538e-06	6.5081e-06	240.95	126.86	68.293	36.707	5.1519e-06	75.06	0.0011174	0.001131	0.00031599	362.75	1.2268e-05	1.2323e-05	480.08	144.53	1.2124e-05	1.2137e-05	245.45	127.81	70.95	37.273	1.1847e-05	75.565	147.107	-22.778	-82.896	-123.202	-20.975	39.455	-123.250	-118.543	-31.279	10.067	-119.150	-115.857	-115.340	-110.259	-79.217	-111.762	-8191	255	
12299.764	1	1	0	0	0.20519	0.097089	0.16132	0.12097	0.14045	0.08344	0.15632	0.1764	0.07633	0.25397	0.3875	0.19398	0.11577	0.31095	0.17357	0.17585	-3.8146	-4.1625	-4.5938	-4.0667	-4.3979	-4.4646	-4.0583	-4.6792	-4.3083	-4.2521	-4.6438	-4.2521	-4.4625	-4.5729	-4.0542	-4.6583	-0.549	-69.568	87.547	196.796	-98.484	-16.486	208.138	61.630	113.334	221.562	-107.855	174.868	182.457	-124.317	203.334	109.086	0.00085175	0.00026117	0.00013474	351.8	5.3187e-06	4.4989e-06	474.67	144.2	6.3564e-06	2.1768e-06	243.93	128.89	69.156	37.37	4.4709e-06	75.45	0.0010493	0.0010574	0.00029519	360.56	1.1316e-05	1.1317e-05	482.54	146.27	1.108e-05	1.1237e-05	247.85	129.54	71.834	37.748	1.1089e-05	75.715	152.602	-82.762	-93.817	-123.098	18.815	-14.363	-123.145	-118.484	-27.247	222.661	-119.162	-116.038	-115.454	-110.743	-23.852	-111.974	-8191	255	
12299.884	1	1	0	0	0.21077	0.13004	0.11047	0.13013	0.2608	0.18954	0.079138	0.12992	0.15371	0.04521	0.20364	0.24679	0.18786	0.24005	0.082925	0.24534	-4.0021	-4.2479	-4.7896	-4.2729	-4.3812	-4.6208	-4.0958	-4.6458	-4.3938	-4.2229	-4.7562	-4.3104	-4.4646	-4.5375	-4.0188	-4.7542	66.024	-125.695	-95.537	116.310	-56.263	-50.713	-110.278	-1.925	82.630	-110.213	-97.223	108.088	-23.854	189.448	-133.726	184.624	0.00097542	0.00046619	8.2713e-05	351.98	2.742e-06	1.1186e-05	473.41	143.87	1.0467e-05	5.3811e-06	242.39	128.65	69.705	37.403	6.7648e-06	75.356	0.0010037	0.0010243	0.00028056	359.65	1.0907e-05	1.1162e-05	480.19	146.43	1.1045e-05	1.1112e-05	246.98	129.27	72.143	37.797	1.0974e-05	75.347	136.887	-84.377	0.908	-122.728	-124.831	8.512	-123.215	-118.343	-43.264	68.420	-119.361	-115.907	-115.590	-110.700	-44.170	-111.784	-8191	255	
12299.980	1	1	0	0	0.096965	0.37624	0.065265	0.26841	0.16413	0.19063	0.17783	0.2447	0.11442	0.22996	0.23269	0.19074	0.16868	0.11004	0.24283	0.05853	-4.2208	-4.0729	-4.6042	-4.2167	-4.2063	-4.775	-4.0021	-4.5604	-4.3146	-3.9833	-4.5917	-4.0813	-4.25	-4.5521	-4.0396	-4.725	210.291	63.480	-4.398	133.530	90.277	109.420	55.054	-107.869	117.472	15.231	175.237	195.418	194.912	-122.203	-133.668	185.988	0.00087186	0.00049886	0.00022445	351.21	5.7457e-06	6.0091e-06	472.46	143.24	3.5452e-06	8.1212e-07	240.16	127.25	68.867	36.825	5.5178e-06	74.893	0.0010052	0.0010143	0.00028254	357.98	1.0954e-05	1.1155e-05	477.41	145.55	1.0931e-05	1.1111e-05	244.47	128.22	71.433	37.197	1.0997e-05	75.002	146.029	12.727	-18.405	-123.063	-10.089	-47.797	-123.410	-118.454	-106.934	111.712	-119.472	-115.883	-115.017	-110.613	65.465	-111.832	-8191	255	
12300.052	1	1	0	0	0.17995	0.20257	0.1902	0.28637	0.11855	0.16241	0.054816	0.16958	0.17458	0.10272	0.22443	0.21927	0.11384	0.14987	0.36648	0.18574	-4.1208	-3.775	-4.5625	-4.2708	-4.2104	-4.6417	-4.1146	-4.4042	-4.5167	-3.9188	-4.6208	-4.3896	-4.0646	-4.7521	-4.1354	-4.425	72.274	-15.563	186.098	-125.900	-131.574	-133.543	161.090	150.254	-103.904	95.961	-74.385	199.126	128.477	-107.750	173.850	202.267	0.0009885	0.00015855	0.00021539	348.32	4.2641e-06	4.3297e-06	469.85	142.9	7.3361e-06	2.6842e-06	245.21	129.56	69.71	37.31	1.1441e-06	75.687	0.00099029	0.00099362	0.00027795	356.42	1.065e-05	1.0899e-05	476.89	145.25	1.0594e-05	1.0719e-05	247.64	130.16	71.915	37.634	1.0701e-05	75.846	140.225	-34.498	-19.711	-123.011	44.447	-40.016	-122.842	-118.358	-3.149	187.808	-119.059	-116.358	-115.392	-110.850	105.191	-111.890	-8191	255	
12300.173	1	1	0	0	0.20494	0.14805	0.086469	0.22157	0.094505	0.32797	0.079037	0.19188	0.12561	0.0079447	0.12541	0.19588	0.037128	0.17789	0.11705	0.20793	-4.1708	-3.9333	-4.6667	-4.3229	-4.0708	-4.6583	-4.3417	-4.5062	-4.4688	-4.2292	-4.4979	-4.4979	-3.9854	-4.725	-3.8521	-4.5062	106.891	-39.282	116.443	-118.333	81.454	-34.931	158.930	-44.383	36.260	-133.043	202.864	181.729	162.981	159.649	-48.713	146.232	0.00084686	0.00065638	0.00018995	351.4	6.6861e-06	5.7828e-06	471.56	143.88	7.9235e-06	6.8163e-06	245.05	131.3	70.916	37.805	3.535e-06	76.58	0.00096366	0.00097969	0.00027574	355.71	1.0446e-05	1.0739e-05	478.15	146.68	1.0535e-05	1.0766e-05	249.86	131.71	73.08	38.17	1.0688e-05	76.659	148.415	-73.811	-52.073	-122.838	19.873	19.754	-123.299	-118.144	-14.415	61.330	-119.334	-115.967	-115.463	-110.646	-82.860	-111.991	-8191	255	
12300.267	1	1	0	0	0.20469	0.15715	0.05848	0.077602	0.18598	0.053913	0.20044	0.10507	0.066699	0.079359	0.16818	0.20084	0.072607	0.068574	0.18027	0.11648	-4.4333	-4.0292	-4.7042	-4.3979	-3.9083	-4.6396	-4.2812	-4.3438	-4.6188	-4.2438	-4.6271	-4.6958	-4.0896	-4.6438	-4.3187	-4.4167	23.418	-35.533	194.094	-90.739	-10.952	-96.206	81.360	-105.124	-28.064	46.461	119.550	187.992	178.398	205.543	-133.842	28.832	0.0010203	0.00065128	5.5623e-05	354.25	3.9107e-06	2.5045e-06	474.05	145.66	3.3469e-06	8.2441e-06	246.99	131.12	71.208	38.243	3.6852e-06	76.745	0.00098694	0.00099482	0.00028073	359.58	1.081e-05	1.1186e-05	481.15	148.08	1.1048e-05	1.1188e-05	250.84	131.83	73.685	38.602	1.1167e-05	77.099	144.229	-73.416	41.047	-123.363	-3.979	-47.756	-123.057	-118.359	-47.532	55.174	-119.295	-116.128	-115.322	-110.835	-65.959	-112.067	-8191	255	
12300.365	1	1	0	0	0.19733	0.15026	0.0072659	0.10701	0.16796	0.24176	0.0092811	0.25716	0.053773	0.16984	0.23373	0.085452	0.16422	0.27652	0.252	0.051097	-4.3875	-3.9271	-4.4146	-4.4854	-4.1021	-4.6208	-4.4812	-4.2771	-4.7229	-4.0833	-4.4062	-4.6542	-4.1292	-4.575	-4.3854	-4.3042	196.522	-4.547	137.155	-11.701	144.754	192.906	63.208	43.366	117.904	85.144	152.115	189.604	-129.567	164.634	-30.604	-19.450	0.0008477	0.00036831	0.00018826	350.84	2.521e-06	1.1454e-05	472.82	146.46	8.1373e-06	7.9285e-06	248.74	131.73	71.814	38.262	4.3843e-06	76.716	0.00098385	0.00099987	0.00028014	358.06	1.0635e-05	1.1053e-05	480.23	149.2	1.0593e-05	1.074e-05	251.36	132.46	74.292	38.774	1.0648e-05	76.746	142.541	-35.975	-18.466	-123.101	-71.062	11.966	-123.334	-118.186	16.096	25.315	-119.211	-116.124	-115.525	-110.836	-9.160	-112.041	-8191	255	
12300.484	1	1	0	0	0.065163	0.08557	0.13364	0.14083	0.17011	0.28021	0.10989	0.091169	0.15992	0.29751	0.028892	0.082713	0.22819	0.21584	0.19054	0.22375	-4.3812	-4.0625	-4.2479	-4.7042	-3.9188	-4.4896	-4.4833	-4.0729	-4.625	-4.1729	-4.2854	-4.6167	-3.9875	-4.5375	-4.5042	-4.3146	-25.970	119.612	174.161	159.972	32.368	-108.282	-115.998	91.404	-0.894	-70.599	113.768	24.495	-127.051	-11.317	179.022	187.260	0.00087467	7.3861e-05	5.904e-05	348.02	3.6731e-06	2.742e-06	471.99	145.69	9.4436e-06	6.5648e-06	245.3	130.7	70.814	37.769	3.4402e-06	75.592	0.00096214	0.00097529	0.00027373	355.2	1.0488e-05	1.081e-05	477.59	147.72	1.0777e-05	1.0845e-05	249.15	131.17	73.38	38.236	1.0784e-05	75.714	145.314	-79.880	-0.864	-123.177	49.305	20.463	-123.398	-118.211	-101.202	8.103	-119.278	-116.179	-115.450	-110.805	10.150	-112.137	-8191	255	
12300.580	1	1	0	0	0.01911	0.14083	0.23328	0.18032	0.032339	0.11411	0.16775	0.17056	0.027346	0.22946	0.11997	0.15789	0.1858	0.074236	0.1867	0.20478	-4.2833	-4.2667	-4.2542	-4.6833	-4.2188	-4.4938	-4.6333	-4.125	-4.7125	-4.2063	-4.1292	-4.7729	-3.975	-4.3375	-4.5292	-4.2292	-116.035	172.369	-79.623	177.726	108.437	203.193	128.184	200.025	-47.527	82.070	129.593	65.290	105.006	-67.037	40.065	121.643	0.0008912	0.00039304	0.00015827	348.22	4.5693e-06	6.7617e-06	466.35	143.14	2.1985e-06	1.4463e-06	241.93	128.45	69.231	37.102	8.9552e-06	74.799	0.0009795	0.0010015	0.00027807	355.25	1.0998e-05	1.1122e-05	473.83	145.96	1.1148e-05	1.1164e-05	245.37	128.99	72.122	37.555	1.1099e-05	74.956	138.494	-18.363	-73.706	-123.165	-65.963	60.196	-123.483	-118.303	172.451	46.934	-119.274	-116.057	-115.517	-110.665	-64.051	-111.928	-8191	255	
12300.676	1	1	0	0	0.26448	0.10413	0.20888	0.16005	0.25663	0.064899	0.16082	0.29009	0.038889	0.24979	0.071148	0.15193	0.030146	0.12217	0.11105	0.2635	-4.1792	-4.3521	-4.1188	-4.75	-4.0375	-4.2833	-4.5708	-4.1062	-4.5771	-4.3063	-3.8583	-4.7208	-4.1813	-4.2542	-4.6083	-4.0854	77.584	95.704	80.015	138.217	120.812	-110.039	85.870	6.953	46.727	-129.276	-126.828	109.720	204.017	-88.174	199.792	125.501	0.0008816	0.00078011	0.00011524	347.18	8.5717e-06	5.017e-06	468.21	143.34	8.6294e-06	6.7614e-07	243.03	128.85	69.596	37.311	3.1599e-06	75.285	0.0010079	0.0010325	0.00028247	355.26	1.0883e-05	1.1272e-05	475.43	145.61	1.1047e-05	1.1251e-05	246.22	129.62	72.221	37.789	1.1208e-05	75.607	146.515	-58.192	10.779	-122.984	-31.099	-38.566	-123.254	-118.637	-51.746	-89.851	-119.198	-115.874	-115.420	-110.393	-90.263	-111.923	-8191	255	
12300.772	1	1	0	0	0.10465	0.0084175	0.4211	0.15356	0.044335	0.069944	0.05544	0.18545	0.317	0.24239	0.15812	0.25555	0.20657	0.03287	0.1322	0.16742	-4.1896	-4.3	-4.0146	-4.6833	-4.275	-4.2833	-4.7354	-4.1604	-4.4896	-4.4854	-3.8396	-4.6312	-4.2771	-4.2354	-4.5729	-4.3146	-95.662	-14.435	-46.785	-40.630	55.393	119.167	104.893	104.364	-98.170	214.510	167.839	193.902	156.653	77.691	156.513	-113.581	0.0010624	0.00071692	2.337e-05	348.25	3.8083e-06	4.4295e-06	471.43	144.49	9.4806e-07	7.3325e-06	243.44	129.81	70.474	37.439	4.2931e-06	75.817	0.001031	0.0010329	0.00028552	356.89	1.1114e-05	1.1324e-05	477.9	146.82	1.1341e-05	1.1407e-05	247.43	130.18	72.707	38.009	1.1598e-05	76.017	143.330	-78.963	221.033	-123.277	21.280	-23.860	-123.322	-118.389	-31.405	50.600	-119.142	-115.995	-115.968	-110.728	-34.012	-112.017	-8191	255	
12300.868	1	1	0	0	0.14578	0.16564	0.22134	0.16296	0.02851	0.055105	0.13772	0.13217	0.13467	0.079825	0.11305	0.20865	0.13081	0.22634	0.11578	0.098403	-4.0938	-4.4563	-4.0375	-4.7167	-4.2688	-4.0583	-4.8083	-4.1167	-4.4	-4.5458	-3.9979	-4.6417	-4.3771	-4.2979	-4.7396	-4.2875	-24.683	66.508	170.614	-38.176	176.753	-82.471	160.516	160.313	111.492	-124.811	122.486	-27.908	64.446	-106.802	200.926	-31.831	0.00089698	0.00092883	0.00021798	350.66	4.9298e-06	1.2317e-06	466.66	144.09	2.8003e-06	7.5754e-06	241.32	127.95	69.444	37.417	4.0816e-06	75.154	0.001066	0.0010614	0.0002979	358.96	1.1352e-05	1.177e-05	476.63	146.51	1.1488e-05	1.1597e-05	245.27	129.33	72.335	37.963	1.1423e-05	75.265	152.418	-57.199	8.803	-122.946	-5.053	-2.549	-123.320	-118.015	-48.889	6.615	-119.089	-116.100	-115.414	-110.494	79.453	-111.654	-8191	255	
12300.965	1	1	0	0	0.20779	0.12509	0.17367	0.093203	0.068303	0.26169	0.12538	0.16155	0.13057	0.15779	0.24429	0.1696	0.15544	0.2852	0.10464	0.23795	-4.0667	-4.6083	-4.0042	-4.5333	-4.4125	-4.0437	-4.8562	-4.275	-4.3438	-4.6146	-4.0604	-4.6021	-4.4521	-4.1562	-4.7937	-4.3854	34.122	-14.361	100.956	-87.975	180.213	183.239	138.646	134.073	201.758	156.373	139.729	195.131	112.302	179.235	182.981	113.053	0.00088681	0.00062212	0.0002411	351.55	7.0023e-06	3.9896e-06	468.65	144.51	4.6014e-06	1.1442e-05	240.25	127.76	69.337	37.697	9.4893e-06	75.044	0.0010293	0.0010324	0.00028977	358.4	1.1189e-05	1.1361e-05	475.34	146.35	1.1241e-05	1.1455e-05	244.48	128.87	72.386	37.947	1.1255e-05	75.311	144.249	-101.420	-58.818	-122.917	-14.874	79.304	-123.081	-118.076	168.564	54.384	-119.450	-116.341	-115.577	-110.843	-74.996	-111.901	-8191	255	
12301.085	1	1	0	0	0.08529	0.11915	0.10111	0.12817	0.12285	0.19347	0.16928	0.053651	0.089326	0.20691	0.081156	0.32562	0.098735	0.22958	0.053962	0.18832	-3.8979	-4.6417	-4.0979	-4.3625	-4.4417	-4.0875	-4.6042	-4.1833	-4.1083	-4.6687	-4.0292	-4.4938	-4.4313	-4.0917	-4.5354	-4.4354	-45.695	142.419	22.112	17.159	-97.643	93.806	139.231	108.982	-16.367	-76.945	41.652	201.192	38.059	59.645	-94.706	198.611	0.00093071	0.00035058	0.00016927	348.62	5.8514e-06	7.5097e-06	467.49	143.74	6.9509e-06	2.6643e-06	241.83	128.83	70.035	37.416	6.6129e-06	75.369	0.001028	0.0010325	0.00028657	356.94	1.1088e-05	1.1352e-05	474.35	146.47	1.1137e-05	1.1293e-05	245.68	129.61	72.596	37.943	1.1418e-05	75.461	144.296	-71.700	-112.188	-123.327	-110.137	-27.465	-123.472	-118.490	-16.803	20.627	-119.144	-116.064	-115.360	-110.663	-27.501	-112.131	-8191	255	
#DATA ENDS
