BOXY.EXE: ISS Imagent and Oximeter Data Acquisition Program Version 0.80
Ascii Record File

#ACQ INFORMATION
2  Detector Channels 
16  External MUX Channels 
1  Auxiliary Channels 
5000  Waveform (CCF) Frequency (Hz)
1  Waveforms Skipped 
30  Waveforms Averaged 
1  Cycles Averaged 
16  Acquisitions per Waveform 
10.0806  Updata Rate (Hz) 

#FILE INFORMATION
TRUE -- External MUX Channel results are PARSED.
FALSE -- AC DC and Phase are NOT grouped.
TRUE -- Companion Program Settings File CREATED.
FALSE -- AC data not excluded
FALSE -- DC data not excluded
FALSE -- Phase data not excluded
FALSE -- Auxillary Chn. data not excluded
Tab delimiters

#CALIBRATION STATE
TRUE -- Waveform Calibration Values APPLIED.


#AUX CALIBRATION VALUES
Val Type	aux-1	

Term	1.0000e+00	
Factor	0.0000e+00	


#WF CALIBRATION VALUES
A = Detector Channel
Val Type	A-AC1	A-AC2	A-AC3	A-AC4	A-AC5	A-AC6	A-AC7	A-AC8	A-AC9	A-AC10	A-AC11	A-AC12	A-AC13	A-AC14	A-AC15	A-AC16	A-DC1	A-DC2	A-DC3	A-DC4	A-DC5	A-DC6	A-DC7	A-DC8	A-DC9	A-DC10	A-DC11	A-DC12	A-DC13	A-DC14	A-DC15	A-DC16	A-Ph1	A-Ph2	A-Ph3	A-Ph4	A-Ph5	A-Ph6	A-Ph7	A-Ph8	A-Ph9	A-Ph10	A-Ph11	A-Ph12	A-Ph13	A-Ph14	A-Ph15	A-Ph16	

Term	0.00000e+00	0.00000e+00	0.00000e+00	0.00000e+00	0.00000e+00	0.00000e+00	0.00000e+00	0.00000e+00	0.00000e+00	0.00000e+00	0.00000e+00	0.00000e+00	0.00000e+00	0.00000e+00	0.00000e+00	0.00000e+00	0.00000e+00	0.00000e+00	0.00000e+00	0.00000e+00	0.00000e+00	0.00000e+00	0.00000e+00	0.00000e+00	0.00000e+00	0.00000e+00	0.00000e+00	0.00000e+00	0.00000e+00	0.00000e+00	0.00000e+00	0.00000e+00	0.00000e+00	0.00000e+00	0.00000e+00	0.00000e+00	0.00000e+00	0.00000e+00	0.00000e+00	0.00000e+00	0.00000e+00	0.00000e+00	0.00000e+00	0.00000e+00	0.00000e+00	0.00000e+00	0.00000e+00	0.00000e+00	
Factor	1.00000e+00	1.00000e+00	1.00000e+00	1.00000e+00	1.00000e+00	1.00000e+00	1.00000e+00	1.00000e+00	1.00000e+00	1.00000e+00	1.00000e+00	1.00000e+00	1.00000e+00	1.00000e+00	1.00000e+00	1.00000e+00	1.00000e+00	1.00000e+00	1.00000e+00	1.00000e+00	1.00000e+00	1.00000e+00	1.00000e+00	1.00000e+00	1.00000e+00	1.00000e+00	1.00000e+00	1.00000e+00	1.00000e+00	1.00000e+00	1.00000e+00	1.00000e+00	X	X	X	X	X	X	X	X	X	X	X	X	X	X	X	X	

B = Detector Channel
Val Type	B-AC1	B-AC2	B-AC3	B-AC4	B-AC5	B-AC6	B-AC7	B-AC8	B-AC9	B-AC10	B-AC11	B-AC12	B-AC13	B-AC14	B-AC15	B-AC16	B-DC1	B-DC2	B-DC3	B-DC4	B-DC5	B-DC6	B-DC7	B-DC8	B-DC9	B-DC10	B-DC11	B-DC12	B-DC13	B-DC14	B-DC15	B-DC16	B-Ph1	B-Ph2	B-Ph3	B-Ph4	B-Ph5	B-Ph6	B-Ph7	B-Ph8	B-Ph9	B-Ph10	B-Ph11	B-Ph12	B-Ph13	B-Ph14	B-Ph15	B-Ph16	

Term	0.00000e+00	0.00000e+00	0.00000e+00	0.00000e+00	0.00000e+00	0.00000e+00	0.00000e+00	0.00000e+00	0.00000e+00	0.00000e+00	0.00000e+00	0.00000e+00	0.00000e+00	0.00000e+00	0.00000e+00	0.00000e+00	0.00000e+00	0.00000e+00	0.00000e+00	0.00000e+00	0.00000e+00	0.00000e+00	0.00000e+00	0.00000e+00	0.00000e+00	0.00000e+00	0.00000e+00	0.00000e+00	0.00000e+00	0.00000e+00	0.00000e+00	0.00000e+00	2.93131e+01	-1.38054e+02	-1.55137e+02	-1.83507e+02	-8.93409e+01	-7.38741e+01	-1.57185e+02	-1.62015e+02	-1.04756e+02	-8.47356e+01	-1.72626e+02	-1.72814e+02	-1.80483e+02	-1.78435e+02	-9.61728e+01	-1.51297e+02	
Factor	4.06815e-05	8.32167e-05	3.41537e-05	1.61071e-01	1.09079e-06	8.84274e-07	1.94396e-01	6.71829e-02	1.01989e-06	8.41751e-07	9.46126e-02	3.23926e-02	2.57595e-02	9.54239e-03	8.66236e-07	1.36832e-02	5.31991e-07	5.38450e-07	1.50082e-07	7.64884e-02	5.87831e-09	5.89810e-09	8.61984e-02	3.09803e-02	5.88643e-09	5.89619e-09	4.18274e-02	1.42647e-02	1.18748e-02	4.35937e-03	5.89889e-09	5.99575e-03	X	X	X	X	X	X	X	X	X	X	X	X	X	X	X	X	



#DISTANCE SETTINGS
A = Detector Channel
A-1	A-2	A-3	A-4	A-5	A-6	A-7	A-8	A-9	A-10	A-11	A-12	A-13	A-14	A-15	A-16	

2.5000e+00	3.0000e+00	2.5000e+00	3.0000e+00	2.0000e+00	3.0000e+00	1.5000e+00	3.0000e+00	3.0000e+00	3.0000e+00	3.0000e+00	3.0000e+00	3.0000e+00	3.0000e+00	1.5000e+00	3.0000e+00	

B = Detector Channel
B-1	B-2	B-3	B-4	B-5	B-6	B-7	B-8	B-9	B-10	B-11	B-12	B-13	B-14	B-15	B-16	

1.0000e+01	1.0000e+01	1.0000e+01	1.4400e+00	1.0000e+01	1.0000e+01	1.5100e+00	1.9400e+00	1.0000e+01	1.0000e+01	1.9900e+00	2.4900e+00	2.4100e+00	2.9000e+00	1.0000e+01	2.9800e+00	




#DATA BEGINS
time	group	step	mark	flag	A-AC1	A-AC2	A-AC3	A-AC4	A-AC5	A-AC6	A-AC7	A-AC8	A-AC9	A-AC10	A-AC11	A-AC12	A-AC13	A-AC14	A-AC15	A-AC16	A-DC1	A-DC2	A-DC3	A-DC4	A-DC5	A-DC6	A-DC7	A-DC8	A-DC9	A-DC10	A-DC11	A-DC12	A-DC13	A-DC14	A-DC15	A-DC16	A-Ph1	A-Ph2	A-Ph3	A-Ph4	A-Ph5	A-Ph6	A-Ph7	A-Ph8	A-Ph9	A-Ph10	A-Ph11	A-Ph12	A-Ph13	A-Ph14	A-Ph15	A-Ph16	B-AC1	B-AC2	B-AC3	B-AC4	B-AC5	B-AC6	B-AC7	B-AC8	B-AC9	B-AC10	B-AC11	B-AC12	B-AC13	B-AC14	B-AC15	B-AC16	B-DC1	B-DC2	B-DC3	B-DC4	B-DC5	B-DC6	B-DC7	B-DC8	B-DC9	B-DC10	B-DC11	B-DC12	B-DC13	B-DC14	B-DC15	B-DC16	B-Ph1	B-Ph2	B-Ph3	B-Ph4	B-Ph5	B-Ph6	B-Ph7	B-Ph8	B-Ph9	B-Ph10	B-Ph11	B-Ph12	B-Ph13	B-Ph14	B-Ph15	B-Ph16	aux-1	digaux	

8002.178	1	1	0	131328	0.14488	0.13692	0.11999	0.20931	0.11401	0.05332	0.16682	0.38546	0.14767	0.15244	0.19848	0.22939	0.22653	0.26301	0.18882	0.1063	-2.7625	-2.8271	-3.2292	-3.2167	-3.0479	-3.3292	-3.2958	-3.3542	-3.2625	-2.9771	-3.4083	-3.2083	-3.1104	-3.4146	-2.9208	-3.2583	113.163	14.655	23.800	171.235	-127.916	2.710	98.417	170.625	90.749	-55.617	124.993	13.676	179.838	165.637	62.793	-130.904	0.0010543	0.00048939	0.00010515	1676.8	2.0767e-06	4.1447e-06	1646	429.44	3.6398e-06	2.5791e-06	483.94	162.13	143.63	48.978	2.2439e-06	59.093	0.00014114	0.00012565	3.3505e-05	1630.3	1.4963e-06	1.344e-06	1586.5	408.42	1.464e-06	1.4015e-06	452.67	152.59	135.43	46.095	1.4866e-06	55.575	-3.272	-97.581	-120.900	-151.777	-59.413	-67.939	-152.263	-147.455	-82.240	10.355	-147.819	-143.617	-143.336	-138.540	-84.212	-139.491	-8191	255	
8002.273	1	1	0	0	0.14761	0.093684	0.10483	0.38386	0.0796	0.055603	0.2634	0.26364	0.14139	0.088252	0.30845	0.38521	0.2241	0.24065	0.035158	0.1822	-2.7167	-2.7708	-3.1813	-3.4042	-3.1083	-3.3229	-3.2083	-3.2479	-3.2708	-2.9813	-3.4313	-3.2958	-3.0542	-3.3854	-3.0438	-3.1208	156.372	-164.911	-10.014	180.308	78.288	-81.340	89.441	86.464	-110.220	-133.539	108.049	166.160	146.496	-124.766	-77.100	142.131	0.0010869	0.00036839	0.00011436	1684.3	3.7654e-06	2.9877e-06	1642.9	430.85	4.7651e-06	3.5106e-06	481.23	162.04	143.22	48.921	2.5364e-06	58.964	0.00014133	0.00012939	3.7694e-05	1636.8	1.4906e-06	1.3404e-06	1591	409.56	1.4376e-06	1.3859e-06	453.57	152.73	135.26	45.977	1.5744e-06	55.44	3.687	-64.776	-151.859	-151.953	-47.845	-16.689	-152.134	-147.539	-47.785	-13.074	-147.851	-143.834	-143.210	-138.672	-9.868	-139.359	-8191	255	
8002.393	1	1	0	0	0.14047	0.23571	0.14175	0.22741	0.10228	0.050921	0.30383	0.098658	0.22165	0.09872	0.030022	0.23757	0.22723	0.18272	0.10816	0.32978	-2.6667	-2.825	-3.1417	-3.3958	-2.9562	-3.3604	-3.225	-3.1437	-3.2875	-2.5604	-3.1875	-3.3896	-2.8396	-3.3875	-3.1479	-3.0729	155.662	-88.889	6.185	-110.411	-55.945	-65.203	137.609	141.763	-40.269	-72.033	91.341	-134.865	146.754	-23.352	32.031	191.778	0.0010671	0.00016602	0.00013324	1683.8	4.8366e-06	3.3271e-06	1645	430.18	2.9304e-06	3.2208e-06	482.14	161.93	143.61	48.942	1.4144e-06	59.07	0.0001364	0.00012645	3.9844e-05	1635.5	1.4401e-06	1.3396e-06	1592.5	408.81	1.374e-06	1.3801e-06	454.31	152.22	135.15	46.092	1.5891e-06	55.388	-6.938	-91.843	-100.331	-151.972	-26.911	-31.966	-152.169	-147.509	-95.023	-31.733	-147.727	-143.807	-143.311	-138.564	-94.832	-139.262	-8191	255	
8002.465	1	1	0	0	0.11026	0.063966	0.095439	0.26107	0.14371	0.26304	0.31011	0.15582	0.16568	0.22392	0.037746	0.2038	0.29055	0.17343	0.15253	0.054335	-3.0292	-2.925	-3.2021	-3.3458	-2.9271	-3.3833	-3.2958	-3.0625	-3.2	-2.9854	-3.2062	-3.3771	-2.9313	-3.4417	-3.0667	-2.9167	-26.097	-110.222	-149.274	100.992	-110.839	-103.044	161.884	149.774	-123.857	-154.844	142.003	159.369	192.135	163.874	-48.192	193.524	0.0011016	0.00039304	7.3657e-05	1684.8	5.4264e-06	2.6944e-06	1646.6	430.05	4.0067e-06	2.9956e-06	481.43	162.22	143.62	48.747	5.7065e-06	59.051	0.0001318	0.00012847	4.052e-05	1633.1	1.396e-06	1.3846e-06	1591.4	408.34	1.3169e-06	1.4389e-06	453.21	152.13	134.98	46.075	1.5713e-06	55.269	3.042	-103.531	-90.223	-152.135	-43.958	25.032	-152.129	-147.618	-24.815	-102.762	-147.634	-143.691	-143.065	-138.318	-79.505	-139.236	-8191	255	
8002.561	1	1	0	131072	0.07502	0.29259	0.14355	0.31398	0.19686	0.13232	0.29433	0.27632	0.040591	0.074336	0.10314	0.099763	0.40736	0.21377	0.2235	0.35357	-2.7542	-2.8063	-2.8375	-3.4292	-2.7938	-3.2208	-3.1604	-3.2833	-3.3271	-3.1104	-3.0417	-3.2042	-2.9062	-3.2146	-3.2104	-3.0521	193.732	-9.247	136.749	156.997	149.809	-70.736	142.387	133.941	18.902	-136.435	-93.851	129.978	-108.474	164.309	-100.940	146.211	0.0011076	0.00040291	6.5914e-05	1682.5	3.6383e-06	1.9488e-06	1643.5	429.44	3.8102e-06	3.1255e-06	481.57	162.38	143.14	48.889	1.7858e-06	59.178	0.00012678	0.0001332	3.9217e-05	1631.3	1.3186e-06	1.451e-06	1590.4	407.51	1.2834e-06	1.509e-06	452.69	151.77	134.7	46.159	1.4696e-06	55.205	-0.602	-105.077	-109.283	-151.887	-89.243	-67.014	-152.108	-147.375	-98.426	-49.837	-147.900	-143.856	-143.274	-138.413	-13.387	-139.327	-8191	255	
8002.657	1	1	0	0	0.20939	0.24881	0.023898	0.21	0.032348	0.25107	0.20689	0.25228	0.14724	0.10881	0.077504	0.10937	0.18928	0.088615	0.16638	0.28554	-2.8125	-2.7833	-3.0146	-3.3708	-2.9667	-3.1646	-3.4354	-2.8438	-3.3042	-2.9292	-2.9104	-3.4417	-3.0417	-3.3667	-3.1333	-2.9208	120.602	25.708	-152.174	141.380	-144.581	126.953	152.268	122.036	36.491	-106.869	-141.299	157.248	-110.430	-156.217	-89.440	-126.047	0.0010904	0.00028688	0.00016757	1686.3	3.2617e-06	1.3685e-06	1645.6	429.71	3.6408e-06	1.3016e-06	480.64	161.85	143.17	48.814	4.0378e-06	58.947	0.00012811	0.00014077	3.8022e-05	1631.6	1.3462e-06	1.5283e-06	1588.2	407.3	1.3309e-06	1.5509e-06	451.52	151.38	134.86	46.143	1.402e-06	55.05	-1.646	-37.200	-60.811	-151.908	-19.097	-156.331	-152.097	-147.427	-133.622	-45.654	-147.650	-143.793	-143.088	-138.157	-55.023	-139.352	-8191	255	
8002.778	1	1	0	131072	0.20346	0.22375	0.12895	0.14998	0.10072	0.091601	0.20878	0.10559	0.12267	0.12585	0.27535	0.077541	0.16044	0.085323	0.19851	0.052326	-2.725	-3.0229	-2.8312	-3.4458	-3.0396	-3.0125	-3.3563	-2.9125	-3.1125	-3.0187	-3.0833	-3.2854	-3.0417	-3.2833	-3.2271	-2.9083	71.661	79.576	158.129	-157.050	127.095	-85.109	128.359	120.250	-98.527	82.253	167.183	35.448	138.721	-155.896	142.361	103.835	0.0011472	0.00030149	4.0619e-05	1679.1	2.1883e-06	3.1536e-06	1645.8	428.63	5.6177e-06	2.3725e-06	481.02	162.28	142.79	48.882	2.299e-06	58.967	0.00013483	0.00014046	3.5676e-05	1626.7	1.4189e-06	1.5301e-06	1585.6	406.35	1.3916e-06	1.49e-06	450.96	151.25	134.67	46.124	1.3386e-06	55.022	-8.004	-55.805	-119.685	-151.903	-50.771	-60.211	-152.073	-147.324	-91.742	-14.248	-147.872	-143.805	-142.896	-138.376	6.191	-139.326	-8191	255	
8002.874	1	1	0	0	0.26397	0.068373	0.11428	0.17475	0.17094	0.092314	0.082255	0.026921	0.15643	0.077997	0.15114	0.16904	0.087298	0.3457	0.048399	0.30717	-2.6875	-2.925	-2.8729	-3.6479	-2.8583	-2.9979	-3.4688	-3.0208	-3.1875	-2.9437	-2.9333	-3.4313	-3.3292	-3.0312	-3.3479	-2.9	-55.562	20.947	107.123	31.002	-120.661	-101.456	60.561	-30.919	129.359	184.315	179.141	142.824	65.997	-112.577	62.300	179.332	0.0010933	0.00020022	0.00020434	1683.1	6.1103e-06	2.8245e-06	1647.4	429.98	1.7851e-06	2.1151e-06	481.29	162.25	143.74	48.909	3.0159e-06	59.089	0.00014125	0.0001349	3.4642e-05	1627.4	1.5001e-06	1.4942e-06	1586.3	406.74	1.5119e-06	1.4524e-06	451.06	151.43	135.19	46.064	1.3109e-06	55.122	-5.910	-70.136	-78.508	-151.989	-102.398	-26.050	-152.169	-147.265	-96.429	-27.953	-147.672	-143.644	-143.324	-138.271	-78.004	-139.224	-8191	255	
8002.970	1	1	0	131072	0.056221	0.22277	0.11587	0.069089	0.19712	0.11575	0.25067	0.20366	0.11749	0.31311	0.076259	0.27769	0.19797	0.22189	0.20515	0.12655	-2.8563	-3.2458	-2.7583	-3.5833	-3.0687	-3.0438	-3.5021	-3.0563	-3.2896	-3.2542	-2.8917	-3.4021	-3.3146	-3.0958	-3.3771	-2.9938	-76.327	99.400	65.501	167.348	-78.272	-43.499	152.717	194.517	-47.487	54.767	130.506	172.598	161.687	160.843	-8.837	-162.351	0.0011235	0.00028991	0.00018883	1686.7	4.8361e-06	3.7829e-06	1644.7	429.21	4.9619e-06	5.6531e-06	479.33	161.84	143.52	48.772	3.4351e-06	58.926	0.00014857	0.00013006	3.4058e-05	1630.4	1.5404e-06	1.4073e-06	1585.3	406.65	1.5416e-06	1.366e-06	450.19	151.46	134.97	45.958	1.2801e-06	55.124	1.025	-71.381	-92.240	-151.815	-41.480	-10.255	-152.096	-147.447	-93.565	-28.515	-147.728	-143.489	-143.149	-138.514	-82.112	-139.483	-8191	255	
8003.067	1	1	0	0	0.10247	0.34913	0.12109	0.12074	0.075774	0.14964	0.19824	0.23104	0.19233	0.38475	0.27138	0.089474	0.1276	0.27506	0.097796	0.27272	-2.7729	-3.2042	-2.6333	-3.4188	-3.1333	-2.9021	-3.5042	-3.15	-3.075	-3.1479	-3.1125	-3.2917	-3.2896	-2.8708	-3.3625	-3.0875	-94.165	4.390	188.546	180.703	-100.632	-56.968	149.963	148.468	-79.952	39.826	154.158	38.695	84.981	144.593	60.962	80.377	0.0010431	0.00033065	0.00016908	1684.1	6.1527e-06	5.0437e-06	1639.5	430.04	1.1988e-06	2.875e-06	479.11	162.07	143.56	48.712	2.4701e-06	58.758	0.00014713	0.00012252	3.3282e-05	1630	1.5221e-06	1.3834e-06	1582.5	407.53	1.5286e-06	1.3285e-06	449.5	151.86	134.93	45.967	1.2752e-06	55.186	-5.174	-54.770	-131.894	-151.931	-32.523	5.191	-152.093	-147.305	30.284	-48.168	-147.985	-143.861	-143.290	-138.176	-53.717	-139.277	-8191	255	
8003.163	1	1	0	131072	0.013677	0.21048	0.14815	0.21017	0.31962	0.33093	0.29089	0.21717	0.10552	0.060552	0.14542	0.031478	0.13546	0.11956	0.1578	0.24396	-2.5563	-3.2354	-2.8646	-3.4271	-3.1521	-2.9042	-3.4396	-3.0104	-2.9917	-3.2812	-2.9396	-3.2188	-3.1813	-2.8	-3.1729	-3.2313	123.965	-8.179	-46.447	178.018	-107.954	-122.509	142.053	-154.276	48.813	-83.030	99.876	-124.313	98.130	-159.168	-32.979	93.098	0.0010686	0.00048222	6.3975e-05	1680.8	5.3016e-06	2.4102e-06	1645.5	428.61	4.6189e-06	5.1895e-06	478.89	161.81	143.31	48.721	3.506e-06	58.933	0.00014338	0.0001202	3.3621e-05	1631.2	1.4395e-06	1.3535e-06	1584.2	407.3	1.455e-06	1.2995e-06	449.81	151.85	134.58	45.871	1.3115e-06	55.148	2.637	-86.876	-85.702	-151.824	-93.903	-37.694	-152.144	-147.519	-68.186	-25.089	-147.976	-143.583	-143.140	-138.367	-57.649	-139.269	-8191	255	
8003.259	1	1	0	0	0.20006	0.10264	0.13589	0.3816	0.18979	0.25222	0.26373	0.39724	0.27624	0.23284	0.43194	0.16024	0.28416	0.29491	0.34743	0.2308	-2.4542	-3.3958	-2.9062	-3.4625	-3.1458	-2.7	-3.5187	-3.3812	-3.0583	-3.2188	-3.0646	-3.1937	-3.2792	-2.7917	-3.3104	-3.1937	-19.664	-50.261	125.392	159.912	55.328	-134.581	129.501	171.299	45.062	-69.342	166.410	-87.410	-14.647	-151.531	-75.231	137.812	0.0011302	0.00049771	0.0002077	1682.4	3.958e-06	2.9675e-06	1641	427.61	5.5071e-06	5.1875e-06	478.36	161.03	142.85	48.641	5.0921e-06	58.946	0.00013597	0.00011463	3.4629e-05	1631.5	1.346e-06	1.29e-06	1582.2	406.87	1.3579e-06	1.2263e-06	450.17	151.53	134.16	45.767	1.3859e-06	55.135	2.329	-93.640	-94.986	-152.003	-29.970	-20.661	-152.138	-147.511	-73.771	-31.446	-147.961	-143.532	-143.035	-138.339	-67.923	-139.463	-8191	255	
8003.355	1	1	0	0	0.32929	0.048722	0.18745	0.32625	0.17918	0.016256	0.18221	0.27071	0.15453	0.040746	0.26475	0.19253	0.25024	0.14185	0.15649	0.2067	-2.4437	-3.1937	-2.9333	-3.2687	-3.3063	-3.0396	-3.4062	-3.2708	-2.8083	-3.3229	-3.1604	-3.0625	-3.3083	-2.975	-3.3542	-3.2104	24.798	132.212	-79.218	174.640	-62.908	-99.122	82.960	-165.495	164.680	119.493	171.497	-159.827	169.703	168.360	-150.774	-92.706	0.0011071	0.00027138	8.7579e-05	1677.3	3.8347e-06	3.5269e-06	1643.2	427.86	6.3834e-06	3.4302e-06	480.15	161.89	142.58	48.88	2.3543e-06	58.632	0.00013193	0.0001129	3.6301e-05	1628.6	1.3067e-06	1.2749e-06	1584.4	406.7	1.3479e-06	1.2422e-06	451.25	151.61	134.13	45.829	1.4944e-06	54.994	6.439	-130.214	146.900	-151.967	-74.875	-11.523	-152.278	-147.532	-37.253	-38.080	-147.895	-143.606	-143.313	-138.137	-85.123	-139.334	-8191	255	
8003.474	1	1	0	0	0.2131	0.15891	0.18171	0.33782	0.11673	0.10222	0.11963	0.096834	0.095595	0.072152	0.12112	0.1461	0.23528	0.18969	0.054123	0.19921	-2.2479	-3.2875	-2.8	-3.0687	-3.2562	-3.0125	-3.5229	-3.1979	-2.7146	-3.4188	-3.1396	-3.0958	-3.3812	-2.9813	-3.1562	-3.2021	138.239	126.808	-113.116	192.463	-70.653	0.826	174.242	67.592	-55.879	-56.958	154.828	189.846	124.262	108.976	-151.380	170.023	0.0011057	0.00037939	0.00021488	1681.6	2.1421e-06	5.1748e-06	1641.7	429.2	3.4865e-06	2.8049e-06	479.35	161.59	143.04	48.749	1.7848e-06	58.775	0.00012976	0.0001166	3.8634e-05	1627.4	1.2833e-06	1.3251e-06	1586.6	406.26	1.3121e-06	1.2994e-06	450.63	151.51	134.28	45.877	1.5078e-06	54.961	-2.042	-73.374	-128.869	-151.862	-100.888	-36.127	-152.111	-147.525	-82.439	-77.559	-147.927	-143.728	-143.342	-138.588	-21.946	-139.308	-8191	255	
8003.570	1	1	0	0	0.054343	0.10669	0.066986	0.23049	0.17676	0.36045	0.2832	0.25342	0.16662	0.21549	0.14492	0.18317	0.12983	0.097201	0.020419	0.15138	-2.3396	-3.1979	-3.0354	-3.1333	-3.3625	-2.8708	-3.4167	-3.325	-2.875	-3.3146	-3.2646	-3.025	-3.3563	-3.0292	-3.0042	-3.3187	-98.628	-7.215	34.400	-142.862	-148.301	-47.524	152.282	191.989	126.418	3.967	115.172	-91.893	138.463	129.118	147.146	164.041	0.0010354	0.00015169	5.1903e-05	1677.4	2.6866e-06	2.2122e-06	1639.1	427.25	2.9777e-06	1.4003e-06	477.89	161.46	142.73	48.721	2.2021e-06	58.732	0.00012676	0.00012322	3.8067e-05	1626.1	1.2477e-06	1.3729e-06	1583.5	405.4	1.2882e-06	1.3834e-06	449.76	151.11	133.98	45.861	1.4552e-06	54.837	-2.596	-119.011	-131.499	-151.850	-49.367	40.168	-152.024	-147.528	-70.974	-43.842	-147.840	-143.638	-143.076	-138.482	-83.968	-139.307	-8191	255	
8003.666	1	1	0	0	0.21162	0.14484	0.26826	0.029612	0.25384	0.22253	0.13885	0.21206	0.1937	0.12395	0.07414	0.417	0.4478	0.057987	0.19275	0.20922	-2.4292	-3.1729	-3.0375	-3.1458	-3.1146	-2.9813	-3.0125	-3.3458	-3.0354	-3.0604	-3.2292	-3.0125	-3.5187	-3.0563	-3.0625	-3.3375	-69.572	60.809	41.379	-49.741	-32.092	-149.466	88.700	85.086	153.942	163.815	164.659	171.761	128.377	-85.206	25.052	49.926	0.0011949	0.00038904	0.00013435	1679.7	2.8059e-06	8.3414e-07	1639.4	427.91	4.456e-06	2.0155e-06	478.92	161.21	142.75	48.876	5.5661e-06	58.61	0.00012376	0.00013023	3.6128e-05	1626.1	1.2499e-06	1.4666e-06	1583.4	405.18	1.2828e-06	1.4725e-06	449.52	151.02	133.98	45.92	1.4154e-06	54.794	-0.979	-103.970	-82.848	-151.949	-51.583	-161.466	-152.120	-147.327	-100.557	-65.229	-147.920	-143.574	-142.885	-138.269	-43.842	-139.318	-8191	255	
8003.762	1	1	0	0	0.10129	0.15334	0.13718	0.11052	0.21446	0.25084	0.20083	0.11108	0.1884	0.21818	0.33123	0.20298	0.12364	0.16357	0.067873	0.19365	-2.4437	-3.0771	-3.1354	-2.9479	-3.3458	-3.1708	-3.0271	-3.4021	-2.7021	-3.1688	-3.1583	-3.0187	-3.3479	-3.0563	-2.8583	-3.4354	51.463	-23.754	10.766	182.787	82.223	136.847	-152.609	-25.917	-61.414	-92.373	161.406	160.962	-106.069	145.166	-62.480	-131.380	0.0011366	0.00034045	0.00012496	1673.7	3.8628e-06	3.7012e-06	1640.6	428.63	3.6593e-06	2.8325e-06	479.57	161.34	142.38	48.568	3.9705e-06	58.764	0.00012872	0.00013671	3.4459e-05	1624.2	1.314e-06	1.4887e-06	1580.6	404.92	1.3512e-06	1.48e-06	449.09	150.87	134.06	45.869	1.3534e-06	54.761	-2.341	-100.664	-91.281	-151.948	-64.478	-24.760	-152.157	-147.478	-91.002	-13.256	-147.979	-143.432	-143.071	-138.335	-73.387	-138.999	-8191	255	
8003.858	1	1	0	0	0.15804	0.1988	0.099978	0.18143	0.21438	0.15051	0.060228	0.37605	0.065323	0.14911	0.14626	0.30147	0.22614	0.12777	0.20391	0.10991	-2.5438	-3.2562	-3.2521	-3.0146	-3.1854	-3.2042	-3.1312	-3.425	-2.9062	-2.9604	-3.3354	-2.9521	-3.1625	-3.1937	-2.8937	-3.2292	-40.155	61.418	127.313	192.569	-18.890	161.926	34.409	120.899	75.872	16.967	129.497	138.131	177.910	118.456	-9.504	172.117	0.0010672	0.00038807	0.00022746	1674.6	4.3761e-06	4.4613e-06	1640.6	427.76	2.7035e-06	3.554e-06	479.03	161.47	142.88	48.604	4.1518e-06	58.696	0.00013695	0.00013552	3.3446e-05	1621.8	1.4069e-06	1.45e-06	1579.3	404.91	1.4424e-06	1.4626e-06	448.56	150.83	134.43	45.793	1.3306e-06	54.784	-4.402	-77.819	-80.245	-151.913	-78.458	-15.819	-152.152	-147.457	-116.374	-29.323	-147.785	-143.725	-143.237	-138.327	-79.114	-139.392	-8191	255	
8003.955	1	1	0	0	0.1227	0.14051	0.18636	0.32041	0.14794	0.20851	0.16092	0.076925	0.028335	0.116	0.022176	0.11706	0.23563	0.17205	0.11018	0.2011	-2.4104	-3.0375	-3.2042	-3.0833	-3.2646	-3.1	-2.9479	-3.3688	-2.9854	-2.9792	-3.3479	-2.9771	-3.1875	-3.1458	-2.8771	-3.4104	54.648	-78.580	-21.009	129.304	33.897	3.725	85.372	-88.199	58.378	-33.445	37.092	-13.995	-87.544	176.234	-115.882	130.533	0.0011428	0.00065259	0.00010126	1676.8	4.4933e-06	4.633e-06	1638.5	427.87	3.5797e-06	1.2831e-06	478.68	161.92	142.45	48.604	1.3096e-06	58.684	0.00014298	0.00013137	3.239e-05	1622.5	1.4935e-06	1.3894e-06	1580	404.99	1.5088e-06	1.3874e-06	448.51	150.97	134.49	45.825	1.3052e-06	54.873	-1.030	-67.665	188.488	-151.840	-48.954	11.565	-152.072	-147.358	-52.680	-4.769	-147.871	-143.801	-142.998	-138.462	-88.068	-139.136	-8191	255	
8004.075	1	1	0	0	0.19542	0.096819	0.097055	0.33424	0.27604	0.028949	0.30062	0.21402	0.16808	0.23824	0.15022	0.1224	0.19561	0.34537	0.30103	0.044179	-2.6229	-2.7583	-3.3104	-3.1312	-3.1667	-3.0854	-3.1396	-3.2938	-3.0542	-2.9292	-3.5062	-3.0375	-3.1771	-3.25	-2.7188	-3.3896	-12.154	34.659	182.898	161.250	81.871	118.863	94.920	-109.686	-79.311	-126.829	121.275	84.842	75.460	156.192	35.810	-129.162	0.001238	0.00043288	0.00014268	1673.5	3.0854e-06	4.3136e-06	1636.8	427.38	5.9184e-06	2.2441e-06	478.93	160.34	143.05	48.613	2.9834e-06	58.475	0.00014773	0.00012599	3.1638e-05	1623.7	1.5205e-06	1.3379e-06	1577.9	405.65	1.4957e-06	1.357e-06	448.35	150.94	134.54	45.713	1.2879e-06	54.966	-4.382	-72.776	-87.388	-152.080	-63.369	-13.331	-152.169	-147.429	-64.365	-86.258	-147.870	-143.623	-143.110	-138.310	-39.897	-139.093	-8191	255	
8004.170	1	1	0	0	0.15208	0.14332	0.20924	0.11941	0.3202	0.049666	0.12853	0.18964	0.044641	0.12562	0.14953	0.17006	0.21522	0.081175	0.20356	0.13791	-2.5312	-2.8542	-3.1688	-3.2271	-3.0917	-3.25	-3.1188	-3.3375	-3.1604	-2.8	-3.4313	-3.15	-3.0896	-3.325	-2.8521	-3.0625	-134.519	57.261	-101.801	107.301	-106.880	72.763	162.845	129.785	63.762	129.873	182.385	150.951	-136.698	115.913	131.832	47.884	0.00095847	0.00030709	0.00013914	1674.7	3.789e-06	4.9026e-06	1637.3	426.59	5.1848e-06	1.8885e-06	477.22	161.12	142.66	48.564	2.7181e-06	58.508	0.00014288	0.00012249	3.1841e-05	1625	1.4809e-06	1.2917e-06	1579.3	405.65	1.423e-06	1.3232e-06	448.04	151.31	134.26	45.713	1.3024e-06	55.021	-0.493	-63.000	-88.873	-151.811	-48.317	-10.143	-152.227	-147.404	-64.790	-21.615	-147.849	-143.715	-143.038	-138.421	-71.749	-139.299	-8191	255	
8004.266	1	1	0	0	0.15447	0.099	0.17007	0.12399	0.11501	0.10896	0.17346	0.17785	0.18352	0.049761	0.13591	0.15152	0.34352	0.028946	0.090084	0.26205	-2.7083	-2.825	-3.2542	-3.3646	-2.9104	-3.3	-3.0958	-3.2583	-3.1125	-2.8625	-3.2458	-3.0583	-2.9625	-3.3792	-2.9188	-3.125	79.400	161.231	69.542	158.911	116.213	-78.908	143.221	-43.837	-45.557	-135.820	163.952	60.128	155.806	148.031	105.661	164.811	0.0010118	0.00043781	9.9624e-05	1676.7	5.4342e-06	2.7518e-06	1645.8	427.6	5.185e-06	4.1107e-06	478.28	160.79	142.64	48.68	8.9721e-07	58.825	0.00013555	0.00011926	3.2692e-05	1625	1.415e-06	1.2678e-06	1581	406.18	1.3698e-06	1.2894e-06	448.8	151.11	134.11	45.686	1.3809e-06	55.016	1.648	-85.791	-119.251	-151.923	-34.481	-69.567	-152.230	-147.210	-59.087	-18.832	-147.908	-143.675	-143.159	-138.351	-109.110	-139.212	-8191	255	
8004.362	1	1	0	0	0.32718	0.082966	0.040584	0.08197	0.20992	0.079212	0.16457	0.18943	0.11736	0.21676	0.089665	0.29709	0.16031	0.085033	0.15748	0.10216	-2.8458	-2.7208	-2.975	-3.1688	-2.7313	-3.1333	-3.0167	-3.1562	-3.1104	-2.7604	-3.3417	-3.1646	-3.0229	-3.2792	-2.8167	-3.1667	17.922	-109.774	112.682	-147.465	-41.521	-149.660	138.120	172.509	-148.414	-9.134	-22.874	159.307	144.508	-116.629	-58.209	173.433	0.0010529	9.5203e-05	0.00013107	1673	5.0101e-06	2.5656e-06	1640.2	425.37	2.957e-06	3.4579e-06	475.82	160.67	142.48	48.643	3.2433e-06	58.63	0.00013026	0.00011628	3.4795e-05	1623.6	1.3536e-06	1.2198e-06	1579.6	405.82	1.3072e-06	1.255e-06	448.45	150.74	133.94	45.611	1.4397e-06	54.996	0.852	-111.995	-85.519	-152.030	-44.076	12.976	-152.024	-147.465	-74.090	-8.053	-147.831	-143.415	-143.046	-138.428	-76.895	-139.238	-8191	255	
8004.458	1	1	0	0	0.04957	0.12162	0.094192	0.26318	0.22237	0.075085	0.34447	0.11791	0.26131	0.1578	0.099144	0.15342	0.41977	0.15735	0.25148	0.2962	-2.9542	-2.8312	-3.1896	-3.2854	-2.7229	-3.1646	-3.2854	-3.0958	-3.2167	-2.7896	-3.2229	-3.3708	-2.8042	-3.1479	-2.7792	-2.9333	-39.889	-99.527	-74.819	152.338	-34.475	-137.120	68.517	28.774	-60.747	7.533	166.548	60.923	193.132	172.496	9.454	173.823	0.0011815	0.00020923	0.00011275	1674	4.6375e-06	3.1977e-06	1639.2	425.79	4.175e-06	2.0585e-06	479.3	160.29	142.15	48.557	2.1676e-06	58.742	0.00012677	0.00011537	3.6596e-05	1623.1	1.3269e-06	1.2279e-06	1580.3	405.05	1.2644e-06	1.2827e-06	448.97	150.65	133.8	45.684	1.4889e-06	54.895	-4.865	-59.433	-60.493	-151.984	-17.561	-44.634	-152.031	-147.510	-114.352	-91.905	-147.869	-143.552	-143.175	-138.374	-72.264	-139.202	-8191	255	
8004.554	1	1	0	0	0.26641	0.16533	0.21594	0.12209	0.31129	0.10475	0.079111	0.13599	0.15492	0.063688	0.16182	0.11481	0.17857	0.1732	0.1427	0.22523	-2.7521	-2.8729	-3.0938	-3.2604	-2.9833	-3.3417	-3.2604	-3.1979	-3.3604	-2.8187	-3.3229	-3.1896	-3.0125	-3.3937	-3.025	-2.9417	19.016	-51.291	-69.182	148.941	36.830	67.800	187.483	55.302	-3.354	193.815	171.231	21.150	116.748	-7.964	8.777	175.390	0.0010245	0.00048752	0.00013314	1672.6	2.9483e-06	1.1243e-06	1635.9	428.09	3.602e-06	2.6498e-06	478.58	161.29	142.3	48.672	4.5548e-06	58.632	0.00012371	0.00012137	3.7871e-05	1622.1	1.2953e-06	1.3089e-06	1580.1	405.3	1.2391e-06	1.3599e-06	449.66	150.69	133.78	45.82	1.4708e-06	54.83	-2.107	-66.523	-119.572	-152.069	20.956	4.696	-152.324	-147.364	-41.930	-51.662	-147.918	-143.628	-143.156	-138.379	-49.191	-139.135	-8191	255	
8004.650	1	1	0	0	0.29683	0.27731	0.16381	0.24087	0.09194	0.14276	0.31888	0.23043	0.098854	0.14736	0.21049	0.098132	0.16033	0.097743	0.28907	0.37505	-2.9437	-2.8146	-2.9875	-3.4854	-2.7542	-2.9979	-3.3833	-3.1458	-3.2438	-2.9979	-3.0521	-3.3854	-2.9417	-3.2417	-3.1979	-2.9	148.150	99.320	-25.215	172.954	52.749	181.776	122.063	138.213	121.003	21.341	102.427	-146.215	-144.436	179.906	26.916	186.776	0.0010397	0.00032768	0.00018673	1674.7	3.655e-06	2.2154e-06	1637.4	426.4	6.2303e-06	4.4332e-06	476.75	160.87	142.63	48.603	3.7503e-06	58.498	0.00012112	0.00012941	3.7602e-05	1622.3	1.2886e-06	1.4175e-06	1578.7	405.3	1.2472e-06	1.4504e-06	448.7	150.49	134.04	45.846	1.3903e-06	54.805	-1.689	-69.160	-84.723	-151.824	-73.295	-98.654	-152.141	-147.277	-77.070	-23.956	-147.614	-143.671	-143.069	-138.339	-43.984	-139.353	-8191	255	
8004.747	1	1	0	0	0.094597	0.15369	0.19319	0.19137	0.11246	0.46249	0.020007	0.25329	0.020378	0.14148	0.066717	0.23395	0.035753	0.16014	0.17456	0.041939	-2.7562	-2.7917	-2.7646	-3.4938	-2.8917	-3.1854	-3.1458	-3.0417	-3.2687	-2.9813	-3.0604	-3.3708	-2.9979	-3.0583	-3.3458	-2.8896	43.255	102.704	-127.964	177.002	81.937	14.916	14.326	117.871	-33.664	42.073	112.370	-130.898	139.980	163.320	-98.825	49.776	0.0010894	0.00021991	0.00012607	1673	4.1808e-06	3.1541e-06	1638.5	426.06	6.813e-06	5.5603e-06	477.9	160.58	142.6	48.62	3.8829e-06	58.466	0.00012326	0.00013434	3.5746e-05	1621.4	1.3047e-06	1.4751e-06	1579.3	404.22	1.2853e-06	1.4878e-06	448.63	150.39	133.91	45.876	1.3288e-06	54.692	-0.859	-118.679	-92.628	-151.833	-71.867	-34.505	-152.163	-147.296	-114.898	-50.260	-147.902	-143.585	-143.082	-138.377	-77.927	-139.247	-8191	255	
8004.867	1	1	0	0	0.14714	0.12019	0.088081	0.35899	0.24101	0.18105	0.28477	0.35462	0.14645	0.018128	0.44619	0.29305	0.26077	0.06545	0.07157	0.1786	-2.7729	-3.0833	-2.8042	-3.4771	-2.7792	-3.0229	-3.2854	-2.9333	-3.1854	-2.8979	-3.1708	-3.2646	-2.875	-3.2313	-3.2375	-2.7979	4.904	-150.409	154.035	173.362	183.553	-46.371	160.824	153.325	12.345	31.263	133.265	-133.447	-148.136	140.185	88.938	128.652	0.0011298	8.9335e-05	0.00020277	1675.7	2.9821e-06	3.6611e-06	1637.5	427.36	4.9424e-06	4.7757e-06	477.11	160.56	142.19	48.568	3.4253e-06	58.58	0.00013015	0.00013543	3.3998e-05	1620.3	1.3713e-06	1.4644e-06	1578	404.74	1.3735e-06	1.4442e-06	447.92	150.35	134	45.781	1.3018e-06	54.688	-4.155	-92.287	-88.726	-151.853	-84.755	6.966	-152.356	-147.330	-111.210	-42.570	-147.700	-143.557	-143.226	-138.537	-47.837	-139.215	-8191	255	
8004.963	1	1	0	0	0.13759	0.047254	0.29837	0.33577	0.20487	0.13173	0.14416	0.22969	0.31519	0.037543	0.35026	0.25595	0.12835	0.42452	0.091275	0.20654	-2.7438	-3.0083	-2.9042	-3.4813	-2.9875	-2.9958	-3.4896	-3.1208	-3.0979	-3.2896	-2.9667	-3.3208	-3.0979	-2.9167	-3.2917	-2.95	113.553	176.274	179.508	-158.762	-42.962	49.378	64.122	62.465	93.867	26.202	98.056	132.836	60.609	169.911	-16.610	122.175	0.0010596	0.00034324	0.00015734	1671.3	2.4805e-06	3.3015e-06	1638.5	427.19	8.9978e-06	3.4462e-06	477.41	161.24	142.6	48.502	2.4093e-06	58.506	0.00013931	0.00012986	3.3459e-05	1619	1.4514e-06	1.4235e-06	1576.9	404.58	1.4621e-06	1.3643e-06	447.55	150.44	134.25	45.769	1.2614e-06	54.658	-4.141	-52.705	-121.561	-151.855	-149.601	-16.670	-152.028	-147.514	-84.415	7.021	-147.783	-143.549	-143.089	-138.378	-57.668	-139.046	-8191	255	
8005.035	1	1	0	0	0.32991	0.10509	0.18972	0.2921	0.058546	0.047112	0.097154	0.44797	0.042555	0.30429	0.062316	0.31208	0.039287	0.27184	0.27894	0.20896	-2.7625	-3.0479	-2.8479	-3.5687	-2.9646	-3.1312	-3.4208	-3.2417	-3.0604	-3.1583	-2.9042	-3.4583	-3.2062	-3.1583	-3.4479	-2.9917	-49.323	154.807	-15.129	120.701	-140.820	-107.828	-123.293	132.098	-100.548	136.365	-97.094	185.471	-156.967	119.197	135.148	145.741	0.0011112	0.00036367	0.00010796	1676.7	1.9129e-06	4.8033e-06	1637.3	426.04	4.057e-06	3.0549e-06	479.11	160.78	142.14	48.523	3.1296e-06	58.508	0.00014499	0.00012289	3.2854e-05	1622.4	1.4897e-06	1.3573e-06	1576.9	405.18	1.4971e-06	1.3263e-06	447.86	150.7	134.11	45.691	1.2486e-06	54.81	0.067	-69.422	-108.339	-151.751	-43.431	21.647	-152.122	-147.283	-87.204	-25.978	-147.941	-143.768	-143.068	-138.382	-38.804	-139.169	-8191	255	
8005.156	1	1	0	0	0.14229	0.27793	0.08514	0.40576	0.079247	0.091869	0.32351	0.20811	0.19945	0.16877	0.08359	0.12185	0.26267	0.28491	0.14532	0.08729	-2.5896	-3.0312	-2.7708	-3.4208	-3.0625	-2.8417	-3.3229	-3.1208	-3.1688	-3.2583	-3.0583	-3.4396	-3.3208	-2.9583	-3.3979	-3.1104	65.238	-1.573	-105.214	-164.009	69.709	-96.353	118.149	-146.012	-98.209	134.718	-93.644	-123.234	183.244	155.099	146.452	104.796	0.0010824	0.00031497	7.9965e-05	1671.2	4.8136e-06	9.8408e-07	1636.7	426.11	4.2426e-06	2.1531e-06	477.05	160.99	142.59	48.451	4.3834e-06	58.526	0.000147	0.00011922	3.2385e-05	1622.6	1.4758e-06	1.3522e-06	1576.1	405.4	1.4762e-06	1.3034e-06	446.85	150.84	134.21	45.688	1.2659e-06	54.896	4.325	-57.550	-122.659	-151.999	-55.824	-74.672	-152.226	-147.386	-53.551	74.208	-147.778	-143.613	-143.292	-138.394	-92.367	-139.205	-8191	255	
8005.252	1	1	0	0	0.1648	0.17989	0.13222	0.44003	0.15816	0.21343	0.20006	0.2759	0.21983	0.086553	0.24427	0.18719	0.21435	0.37175	0.089009	0.18563	-2.7062	-3.3854	-2.7646	-3.4083	-3.2521	-2.8375	-3.3688	-3.2979	-3.1104	-3.2854	-3.0104	-3.2896	-3.2104	-2.8187	-3.2687	-3.1271	163.020	113.162	58.112	160.471	-160.242	-90.096	-164.855	191.652	-21.024	118.269	81.896	100.002	154.760	183.643	-125.815	106.899	0.00096654	0.00033624	9.5599e-05	1678	3.787e-06	1.9528e-07	1634.9	426.78	5.9809e-06	2.3479e-06	477.68	160.93	143	48.261	2.7455e-06	58.427	0.00014021	0.00011845	3.338e-05	1626.3	1.418e-06	1.3243e-06	1578	405.67	1.4279e-06	1.2776e-06	448.07	151.1	134.1	45.591	1.3401e-06	54.912	1.219	-38.819	-120.520	-151.929	-52.929	71.341	-152.176	-147.658	-64.728	-25.686	-147.824	-143.542	-143.012	-138.134	-58.001	-139.227	-8191	255	
8005.348	1	1	0	0	0.042654	0.12432	0.26771	0.15678	0.09175	0.28487	0.30815	0.34563	0.23003	0.18165	0.14386	0.2342	0.31983	0.14979	0.21729	0.1548	-2.6271	-3.1979	-2.7687	-3.3187	-3.0729	-2.8854	-3.425	-3.0229	-2.8521	-3.3104	-3.0104	-3.1875	-3.3333	-3.0458	-3.3229	-3.1	140.506	-137.021	-33.495	170.935	142.889	-21.255	137.754	152.196	-52.340	76.980	25.520	-128.078	166.063	144.509	-123.915	47.772	0.0011483	0.00021857	0.00013006	1676.3	3.4386e-06	3.2297e-06	1635.8	426.88	4.7239e-06	4.6362e-06	476.24	161.23	142.3	48.475	2.1684e-06	58.637	0.00013752	0.00011645	3.4966e-05	1625.6	1.3736e-06	1.3098e-06	1578.8	405.23	1.4071e-06	1.2779e-06	448.28	151.18	133.86	45.594	1.4599e-06	54.933	-1.295	-77.394	-158.996	-151.966	-28.347	-9.425	-151.998	-147.369	-92.165	-41.297	-147.743	-143.651	-143.403	-138.312	-24.256	-138.993	-8191	255	
8005.467	1	1	0	0	0.066644	0.065174	0.035366	0.31897	0.1741	0.14101	0.20486	0.21159	0.077644	0.19316	0.16723	0.24822	0.093586	0.095023	0.21127	0.087105	-2.4625	-3.1729	-2.8854	-3.1792	-3.3271	-2.8417	-3.2938	-3.1458	-2.8979	-3.2271	-2.9688	-3.1396	-3.4354	-2.9667	-3.0771	-3.1437	37.238	144.514	-3.201	161.115	-79.616	-48.132	99.628	-160.512	-72.352	89.169	174.990	112.698	-155.087	-130.709	176.404	100.417	0.0011211	0.00021886	7.2788e-05	1676.4	5.9396e-06	3.0969e-06	1640.8	427.96	6.195e-06	1.4429e-06	477.84	161.03	142.88	48.373	2.8984e-06	58.875	0.00013636	0.00011751	3.8042e-05	1628.3	1.3615e-06	1.3293e-06	1584.2	406.47	1.3889e-06	1.3076e-06	449.38	151.16	134.14	45.671	1.5525e-06	54.957	4.426	-45.405	-136.242	-152.043	-65.948	-61.032	-152.183	-147.308	-95.444	-56.918	-147.682	-143.739	-143.048	-138.467	-98.635	-138.984	-8191	255	
8005.563	1	1	0	0	0.23525	0.23807	0.078796	0.19579	0.13675	0.15082	0.25709	0.029338	0.14633	0.14713	0.1851	0.10016	0.138	0.26556	0.13094	0.39299	-2.475	-3.3354	-2.9646	-3.1688	-3.2292	-2.9354	-3.3333	-3.3833	-2.9604	-3.3042	-3.2292	-3.0333	-3.2646	-3.0958	-3.3125	-3.2271	-11.842	-94.945	-65.817	-107.417	147.886	29.012	91.760	-142.581	78.696	97.053	102.102	179.674	36.024	166.174	77.656	149.170	0.00095311	0.00032668	9.0327e-05	1676.9	7.4324e-06	3.167e-06	1637.7	427.49	3.3452e-06	2.91e-06	476.99	161.3	142.1	48.46	6.2851e-06	58.49	0.00013402	0.0001217	3.9671e-05	1625.8	1.3376e-06	1.384e-06	1584.4	405.87	1.3745e-06	1.3736e-06	449.83	151.18	133.74	45.785	1.5801e-06	54.846	-0.609	-84.892	-110.729	-151.908	-45.262	-79.057	-152.121	-147.728	-79.354	-40.897	-147.811	-143.589	-143.218	-138.468	-40.215	-139.086	-8191	255	
8005.635	1	1	0	0	0.24306	0.2322	0.15028	0.24929	0.051653	0.13266	0.23	0.14765	0.16623	0.26206	0.37868	0.049946	0.054081	0.14276	0.20998	0.10493	-2.475	-3.2229	-2.9833	-3.0854	-3.2438	-2.7875	-3.2812	-3.2542	-2.9354	-3.2854	-3.1667	-2.9604	-3.3771	-3.1562	-3.0458	-3.2354	-121.356	122.656	4.898	138.181	-141.052	15.495	71.075	92.783	-9.739	162.209	170.376	172.288	-150.124	99.565	-12.833	149.043	0.0010774	0.00033538	0.00015922	1679.4	3.9843e-06	2.086e-06	1642.5	427.24	2.7177e-06	9.461e-07	476.84	161.86	142.66	48.518	3.1999e-06	58.746	0.00013255	0.00013031	3.9458e-05	1625.9	1.3084e-06	1.4662e-06	1585	405.4	1.3347e-06	1.4678e-06	449.46	150.82	134	45.895	1.5327e-06	54.855	-5.111	-76.876	-110.439	-151.889	-87.760	-19.316	-152.058	-147.438	-83.032	-131.994	-147.922	-143.571	-143.322	-138.390	-42.613	-139.229	-8191	255	
8005.755	1	1	0	0	0.2174	0.072285	0.18821	0.13982	0.084431	0.21869	0.090778	0.14726	0.21195	0.32956	0.13002	0.1377	0.34477	0.072112	0.29631	0.099587	-2.3083	-3.2375	-2.9833	-3.1979	-3.0854	-3.0708	-3.225	-3.4	-2.7354	-3.1646	-3.325	-2.9021	-3.3833	-3.2313	-3.0125	-3.2292	-137.091	-3.124	147.714	94.802	-148.544	164.577	41.097	88.907	87.814	-127.009	-128.494	-147.665	156.872	-51.711	-102.134	87.470	0.0010539	0.0002108	0.00013977	1679.7	9.8479e-07	3.0361e-06	1641.5	427.06	3.0692e-06	2.6162e-06	477.7	161.1	142.3	48.562	1.1482e-06	58.569	0.0001318	0.00013936	3.742e-05	1627.6	1.3226e-06	1.5439e-06	1583.3	405.17	1.3688e-06	1.5468e-06	448.55	150.72	133.99	45.912	1.474e-06	54.825	0.095	-69.179	-93.809	-151.861	-16.691	-54.456	-152.036	-147.392	-53.915	-21.823	-147.776	-143.851	-143.149	-138.180	-55.328	-139.256	-8191	255	
8005.851	1	1	0	0	0.28713	0.070673	0.071499	0.15032	0.027151	0.1218	0.13455	0.19301	0.12834	0.11287	0.20028	0.1403	0.12422	0.18042	0.27611	0.29858	-2.3063	-3.05	-3.1521	-3.0563	-3.2958	-2.9938	-3.2229	-3.3354	-2.9188	-3.0312	-3.25	-2.775	-3.3646	-3.025	-2.8563	-3.3083	-4.080	-116.489	61.017	66.998	-146.626	131.696	175.905	133.417	-149.699	-75.870	-86.438	104.193	97.538	98.695	189.228	159.959	0.0011767	0.00050038	0.00012043	1680.9	5.7594e-06	6.2238e-06	1640.6	426.97	4.0565e-06	4.5281e-06	478.06	160.6	142.32	48.592	2.7018e-06	58.674	0.00013573	0.00014359	3.5713e-05	1626.7	1.3844e-06	1.5713e-06	1581.8	404.56	1.4384e-06	1.5694e-06	448.82	150.64	134.17	45.925	1.4165e-06	54.784	-2.762	-106.637	-95.554	-151.928	-66.959	-16.620	-152.132	-147.429	-82.988	-33.705	-147.980	-143.579	-143.085	-138.285	-40.446	-139.129	-8191	255	
8005.948	1	1	0	0	0.19549	0.15254	0.19097	0.24769	0.13512	0.13861	0.18573	0.40308	0.16704	0.13051	0.17395	0.052925	0.088972	0.28462	0.20399	0.15122	-2.5062	-3.0208	-3.2687	-3.1729	-3.2625	-3.1354	-3.1042	-3.4104	-2.9188	-3.2021	-3.2396	-2.8312	-3.2521	-3.1188	-2.8354	-3.4688	150.295	155.890	-151.057	152.733	-105.601	112.211	125.321	152.042	-155.055	51.128	142.831	179.389	-46.550	181.681	-30.905	78.520	0.0011327	0.00046526	0.00013624	1674.6	3.9605e-06	3.8094e-06	1630.7	427.03	5.0248e-06	5.7313e-06	479.44	161.33	142.62	48.573	5.4363e-06	58.619	0.0001438	0.00014191	3.4359e-05	1623.8	1.4863e-06	1.5134e-06	1578.6	404.83	1.5167e-06	1.5215e-06	448.8	150.77	134.45	45.824	1.4002e-06	54.712	-2.858	-51.991	-84.466	-151.919	-84.246	30.116	-152.111	-147.520	-97.178	2.491	-147.829	-143.700	-142.970	-138.426	-44.912	-139.166	-8191	255	
8006.044	1	1	0	0	0.12009	0.25648	0.26596	0.23692	0.25033	0.21512	0.21504	0.33825	0.048829	0.28227	0.16271	0.15105	0.12988	0.06112	0.12079	0.15435	-2.5292	-2.9979	-3.1729	-2.9083	-3.1708	-2.9354	-2.7208	-3.2146	-3.0125	-2.95	-3.3354	-2.9917	-3.3396	-3.1396	-2.7188	-3.3208	113.665	163.722	72.230	135.870	-70.362	-10.023	147.992	121.643	18.963	102.828	180.752	155.470	-140.539	139.001	133.322	78.700	0.0010925	0.00043083	0.00017306	1676	4.8976e-06	4.0697e-06	1637.8	426.73	5.32e-06	3.9929e-06	480.18	161.41	142.61	48.801	3.4311e-06	58.476	0.00015027	0.00013523	3.3833e-05	1625.3	1.5567e-06	1.4328e-06	1579.8	404.82	1.5654e-06	1.4287e-06	448.53	150.83	134.39	45.789	1.3321e-06	54.783	-3.797	-84.435	-101.544	-151.946	-97.803	-50.381	-152.153	-147.521	-73.009	-43.415	-147.552	-143.740	-143.040	-138.173	-64.691	-139.223	-8191	255	
8006.163	1	1	0	0	0.27792	0.07004	0.24033	0.20161	0.21239	0.10963	0.10464	0.079234	0.046948	0.17108	0.19662	0.2622	0.099696	0.28507	0.21518	0.14592	-2.6833	-2.95	-3.1333	-3.0104	-3.1354	-3.1271	-2.8229	-3.475	-3.0208	-3.0083	-3.3708	-3.1104	-3.2375	-3.3563	-2.6729	-3.2667	107.361	95.396	89.763	174.712	10.947	37.118	-143.397	160.049	-68.480	25.120	-151.901	171.103	4.697	-144.326	-140.115	69.969	0.0011729	0.00051696	0.00016005	1675.5	6.6733e-06	2.9544e-06	1639.1	426.43	2.7257e-06	1.0042e-06	477.63	160.42	142.7	48.568	5.008e-06	58.479	0.00014793	0.00012671	3.2569e-05	1623.1	1.5421e-06	1.354e-06	1580.1	405.44	1.5129e-06	1.3644e-06	447.22	150.91	134.42	45.758	1.3002e-06	54.976	3.951	-114.250	-132.993	-152.000	-71.750	9.525	-151.925	-147.576	-42.655	-74.727	-147.903	-143.858	-143.062	-138.338	-64.600	-139.279	-8191	255	
8006.259	1	1	0	0	0.34552	0.19285	0.14653	0.30425	0.11243	0.23432	0.35041	0.069554	0.14203	0.088076	0.11592	0.053372	0.12958	0.30471	0.10681	0.29717	-2.7458	-2.7354	-3.1958	-3.125	-3.2458	-3.3479	-2.8646	-3.1813	-2.9813	-2.9042	-3.3354	-3.0187	-3.2042	-3.425	-2.6854	-3.3688	88.092	-44.696	35.871	160.226	26.851	-46.202	144.689	167.225	103.342	37.413	-124.313	93.450	-129.438	182.147	29.117	126.867	0.0010428	0.00031823	0.00010319	1675.4	3.3305e-06	3.7696e-06	1640.5	426.2	3.9676e-06	1.2322e-06	478.12	160.83	142.93	48.708	3.3618e-06	58.75	0.00014335	0.00012255	3.1824e-05	1624.9	1.4611e-06	1.2927e-06	1579.7	405.76	1.4276e-06	1.3251e-06	447.88	150.96	134.22	45.707	1.3244e-06	55.035	2.958	-53.927	-135.806	-151.969	-29.296	52.007	-152.125	-147.544	-5.806	36.204	-147.909	-143.632	-143.189	-138.397	-93.331	-139.362	-8191	255	
8006.332	1	1	0	0	0.070065	0.14236	0.084061	0.27582	0.32012	0.15947	0.092855	0.24998	0.20307	0.11099	0.14421	0.11221	0.13398	0.23212	0.15177	0.047398	-2.6396	-2.7625	-3.0708	-3.3583	-2.9	-3.2958	-3.1021	-3.3604	-3.0396	-2.7625	-3.4375	-3.1854	-3.1146	-3.2771	-2.8396	-3.1437	-110.315	65.977	187.498	-148.490	-9.624	-139.009	128.587	126.396	-155.986	-151.522	-49.656	-114.099	171.187	149.182	83.145	192.078	0.0010176	0.00012626	0.00011494	1672.2	5.9111e-06	3.2459e-06	1643.6	426.24	3.1368e-06	3.0259e-06	476.75	160.76	142.44	48.586	2.8523e-06	58.761	0.00013462	0.0001205	3.2623e-05	1625.4	1.403e-06	1.2513e-06	1580.7	405.91	1.3812e-06	1.3107e-06	448.26	151.21	134.12	45.732	1.4345e-06	55.16	1.627	-86.932	-113.113	-151.842	-43.962	19.052	-152.280	-147.494	-57.438	-22.446	-147.941	-143.622	-143.309	-138.245	-85.051	-139.242	-8191	255	
8006.428	1	1	0	131072	0.1097	0.10564	0.049509	0.19002	0.12334	0.19152	0.25499	0.14972	0.15998	0.10541	0.16795	0.21759	0.24918	0.10057	0.073892	0.13761	-2.7313	-2.6813	-3.1813	-3.3208	-2.9604	-3.2979	-2.975	-3.2729	-3.2896	-3.0146	-3.3396	-3.1542	-2.9458	-3.4	-2.875	-3.0812	156.243	54.244	66.664	194.174	-73.447	14.780	141.185	54.082	98.619	94.562	70.446	157.026	-131.288	107.558	139.934	167.704	0.0010836	0.00029591	4.0071e-05	1680.2	5.2586e-06	1.7585e-06	1643	427.98	5.2015e-06	2.1149e-06	477.79	160.69	142.64	48.743	2.2989e-06	58.791	0.00013478	0.00012187	3.6582e-05	1629.2	1.4143e-06	1.2945e-06	1585.8	406.99	1.3606e-06	1.3298e-06	450.2	151.18	134.34	45.795	1.5264e-06	55.142	-4.562	-84.619	-98.720	-151.849	-56.961	40.444	-152.087	-147.427	-62.495	10.502	-147.800	-143.678	-143.202	-138.455	-47.065	-139.359	-8191	255	
8006.547	1	1	0	0	0.17679	0.10675	0.034571	0.21569	0.12849	0.38518	0.22253	0.16315	0.07374	0.23691	0.21989	0.28773	0.082165	0.30006	0.32921	0.34527	-2.9688	-2.8208	-3.15	-3.1521	-2.9458	-3.1771	-3.0542	-3.0271	-3.3667	-2.9229	-3.2562	-3.1354	-2.8688	-3.3646	-2.8521	-2.9042	-90.784	-131.945	31.048	166.825	-64.276	65.181	124.309	94.986	-29.253	-4.740	127.989	141.210	146.629	-139.873	0.170	127.938	0.0011631	0.00027559	0.00011418	1676.1	2.0057e-06	3.8336e-06	1651.8	427.43	4.1096e-06	1.3005e-06	478.47	160.66	142.85	48.679	4.1447e-06	58.913	0.00013053	0.00012116	3.8468e-05	1625.7	1.3549e-06	1.3018e-06	1589.6	406.64	1.3204e-06	1.357e-06	450.55	150.86	134.39	45.83	1.546e-06	55.038	4.304	-54.694	-100.356	-151.749	-48.787	-77.765	-152.225	-147.326	-32.664	-65.812	-147.783	-143.854	-143.085	-138.322	-53.576	-139.111	-8191	255	
8006.643	1	1	0	0	0.20765	0.28013	0.25567	0.3426	0.10154	0.09377	0.10904	0.14197	0.047399	0.15325	0.19494	0.25523	0.12024	0.17972	0.12695	0.12277	-2.8563	-2.8688	-3.2021	-3.4562	-2.9625	-3.2083	-3.0833	-3.0458	-3.3083	-2.875	-3.0604	-3.2479	-3.0354	-3.2604	-3.0563	-2.8833	130.441	89.715	41.888	-147.279	114.508	49.007	-124.191	80.531	-120.586	2.789	-119.930	128.896	178.964	118.947	-29.627	129.114	0.0011285	0.00026463	0.00012474	1675.2	5.7446e-06	4.1498e-06	1639.7	427.23	5.5493e-06	1.3566e-06	480.14	161.15	142.47	48.625	3.516e-06	58.657	0.00012677	0.00012676	3.9516e-05	1625.1	1.3415e-06	1.378e-06	1584.3	405.79	1.2837e-06	1.4435e-06	450.64	151.12	134	45.918	1.5248e-06	54.936	0.407	-93.870	-119.322	-151.842	-38.201	-7.612	-152.133	-147.550	-69.885	-79.292	-147.748	-143.560	-143.131	-138.404	-70.935	-139.237	-8191	255	
8006.739	1	1	0	0	0.13699	0.13853	0.065844	0.59199	0.13605	0.24393	0.36296	0.13213	0.16435	0.20161	0.21709	0.24576	0.17338	0.18684	0.22092	0.17825	-2.7604	-2.7604	-3.0354	-3.3125	-3.1083	-3.2104	-3.3083	-2.9583	-3.3271	-2.9417	-3.3229	-3.2646	-2.8792	-3.2917	-3.1417	-3.1521	-117.939	-123.833	-4.060	-162.600	96.082	-45.213	135.337	96.146	-49.714	83.036	-158.794	143.404	194.044	-145.479	143.268	-80.523	0.0012051	0.00033241	0.0001537	1674.2	5.5331e-06	1.7364e-06	1636.4	428.54	2.8365e-06	5.5133e-06	477.94	161.58	142.34	48.615	1.4112e-06	58.829	0.00012676	0.00013513	3.8331e-05	1625.2	1.3125e-06	1.4596e-06	1582.6	405.63	1.2855e-06	1.4866e-06	449.48	150.65	134.08	45.933	1.3863e-06	54.831	-2.555	-112.473	-108.940	-151.937	-93.712	-34.752	-152.170	-147.252	-67.848	-57.066	-147.882	-143.584	-143.245	-138.542	-48.441	-139.238	-8191	255	
8006.836	1	1	0	0	0.20351	0.10349	0.15978	0.2395	0.19226	0.078248	0.34372	0.10082	0.11453	0.18705	0.10544	0.091938	0.1194	0.14252	0.11032	0.0155	-2.6458	-3.0729	-2.9021	-3.4667	-2.7625	-3.1417	-3.3354	-2.8229	-3.1854	-2.9333	-3.1042	-3.3375	-2.9833	-3.1312	-3.125	-2.8021	114.283	168.902	-99.318	136.638	-133.812	-42.673	133.058	-55.260	-103.645	-152.339	-7.351	26.708	155.791	126.713	98.917	-145.164	0.0011506	0.00025373	0.00016761	1675.4	4.8199e-06	3.0534e-06	1636.7	428.03	4.8289e-06	1.5608e-06	478.18	160.87	142.66	48.552	1.9059e-06	58.775	0.00012541	0.00013414	3.5354e-05	1621	1.3022e-06	1.4872e-06	1579.8	405.01	1.2927e-06	1.48e-06	448.44	150.51	134	45.881	1.3218e-06	54.846	-4.059	-72.938	-72.346	-152.008	-80.366	-72.610	-152.095	-147.507	-95.349	-23.666	-147.916	-143.468	-143.212	-138.352	-45.692	-139.193	-8191	255	
8006.932	1	1	0	0	0.050282	0.15578	0.20568	0.35962	0.1919	0.16021	0.31691	0.23516	0.040245	0.40087	0.2018	0.13244	0.22183	0.26432	0.12267	0.069576	-2.7646	-3.0604	-2.8604	-3.4188	-2.9729	-3.0812	-3.4437	-3.0417	-3.1729	-3.1083	-3.0312	-3.3229	-2.9604	-3.1854	-3.1625	-2.8833	-53.053	-121.241	-108.658	-164.230	72.476	187.511	93.353	126.923	-21.109	105.223	-131.813	190.126	-133.630	169.825	-116.805	-100.591	0.0012209	7.2263e-05	0.00023324	1671.5	6.6239e-06	2.8516e-06	1642.3	426.96	5.6564e-06	3.5172e-06	477.74	160.67	142.49	48.54	3.4028e-06	58.699	0.000132	0.00013445	3.4141e-05	1618.9	1.382e-06	1.4453e-06	1579.9	404.29	1.3954e-06	1.4489e-06	447.75	150.2	134.18	45.807	1.2837e-06	54.763	0.078	-68.077	-125.283	-151.895	-76.234	26.899	-152.114	-147.494	-73.670	12.160	-147.800	-143.570	-143.094	-138.643	-40.707	-139.199	-8191	255	
8007.028	1	1	0	0	0.0742	0.24377	0.12544	0.37243	0.16815	0.22581	0.19562	0.17523	0.075425	0.173	0.24574	0.31102	0.40014	0.39665	0.19147	0.1624	-2.9313	-2.9271	-2.7313	-3.3917	-3.0854	-3.0271	-3.3958	-2.8979	-3.1813	-3.2125	-3.0896	-3.3708	-3.0167	-3.0062	-3.1542	-2.9021	110.376	184.733	48.298	172.280	187.534	-48.826	129.877	44.745	-59.125	7.978	149.491	137.541	-156.834	-152.955	73.518	57.240	0.0010812	0.00040063	0.00011559	1676.1	4.1349e-06	4.3139e-06	1635.1	427.24	4.2172e-06	3.1524e-06	477.56	161.34	142.57	48.725	3.5805e-06	58.966	0.00014057	0.00013016	3.3744e-05	1620	1.4837e-06	1.416e-06	1577.4	404.43	1.4773e-06	1.3819e-06	447.53	150.5	134.29	45.83	1.2735e-06	54.935	0.472	-86.046	-81.105	-151.919	-49.834	-9.376	-152.076	-147.381	-72.121	-47.157	-147.853	-143.535	-143.214	-138.488	-30.853	-139.230	-8191	255	
8007.149	1	1	0	0	0.09286	0.14408	0.25161	0.16221	0.24696	0.3146	0.34497	0.31539	0.12088	0.17884	0.32006	0.25678	0.16577	0.30616	0.20171	0.25765	-2.5833	-3.2438	-2.75	-3.5479	-3.0771	-2.8063	-3.5375	-3.0271	-3	-3.1937	-2.8333	-3.2583	-3.2562	-3.0208	-3.25	-2.8646	84.209	47.879	-131.224	138.688	-68.057	167.818	102.590	146.773	29.748	-121.686	74.003	-163.965	123.728	131.996	-26.468	180.510	0.0010295	0.00046879	5.008e-05	1675.1	5.3078e-06	3.8783e-06	1637.1	426.89	4.3129e-06	4.2841e-06	478.54	160.83	141.61	48.64	3.6458e-06	58.701	0.00014593	0.00012466	3.2797e-05	1621.1	1.4987e-06	1.3705e-06	1578.4	404.62	1.5086e-06	1.3413e-06	447.64	150.62	134.09	45.756	1.257e-06	54.962	-9.079	-103.843	-112.199	-151.932	-81.064	-23.828	-152.202	-147.544	-99.561	-14.714	-147.819	-143.707	-143.088	-138.387	-14.299	-139.178	-8191	255	
8007.245	1	1	0	0	0.10879	0.12809	0.12407	0.15699	0.12225	0.13934	0.2042	0.17575	0.25115	0.23539	0.07716	0.20427	0.13627	0.18492	0.080183	0.20909	-2.9104	-3.1083	-2.7479	-3.35	-3.0667	-2.8917	-3.2896	-3.0125	-3.0542	-3.2125	-2.6771	-3.3292	-3.2687	-2.9146	-3.2354	-3.0583	60.829	-123.420	-15.914	121.886	142.110	-17.893	144.034	71.257	62.856	72.117	98.134	177.834	38.006	133.925	64.731	23.734	0.0010428	0.00016487	0.0001314	1671.1	5.6285e-06	6.7814e-07	1637.4	426.21	4.6827e-06	4.249e-06	479.63	160.8	142.22	48.555	3.197e-06	58.717	0.00014578	0.00012118	3.2595e-05	1622.4	1.4697e-06	1.3224e-06	1576.9	405.21	1.4589e-06	1.2849e-06	447.41	150.76	133.96	45.704	1.2601e-06	54.975	-3.091	2.840	-75.668	-151.860	-28.980	-8.789	-151.979	-147.525	-60.752	-23.088	-147.880	-143.727	-143.104	-138.447	-109.671	-139.026	-8191	255	
8007.339	1	1	0	0	0.27541	0.058588	0.068977	0.33435	0.11633	0.17389	0.36379	0.08279	0.10356	0.078938	0.17178	0.1077	0.14144	0.26649	0.2229	0.18829	-2.4771	-3.1	-2.8583	-3.4625	-3.2208	-2.9583	-3.4354	-3.0979	-3.0458	-3.2083	-2.8583	-3.2812	-3.2042	-2.9667	-3.3458	-3.05	-79.595	-62.182	0.472	133.127	137.339	-47.783	164.381	-120.029	-65.151	18.037	-142.698	63.395	173.549	-86.675	-35.596	137.098	0.0010079	0.00040045	5.3497e-05	1676.9	2.13e-06	2.2533e-06	1641	427.47	5.3229e-06	2.997e-06	478.48	161.3	142.48	48.767	1.1693e-06	58.657	0.00014051	0.00011809	3.3154e-05	1623.5	1.4184e-06	1.3165e-06	1579.2	406.07	1.4245e-06	1.2765e-06	447.96	151.16	133.95	45.741	1.3504e-06	55.005	2.302	-93.719	12.201	-152.065	-34.672	52.246	-152.166	-147.402	-92.368	-52.287	-147.992	-143.812	-143.239	-138.325	-67.477	-139.222	-8191	255	
8007.435	1	1	0	0	0.10362	0.222	0.013829	0.081254	0.12375	0.0784	0.30902	0.13284	0.10882	0.25675	0.17482	0.097911	0.19866	0.079236	0.078471	0.39571	-2.4583	-3.1667	-2.8333	-3.3104	-3.1625	-2.9542	-3.4813	-3.1208	-2.9542	-3.3521	-2.9604	-3.1417	-3.275	-2.9958	-3.1333	-3.0521	56.598	181.820	-130.191	-162.231	11.280	-103.345	101.526	22.194	92.619	163.624	53.675	83.772	146.289	110.443	36.276	127.873	0.0012147	0.0002092	0.00016314	1677.7	2.3555e-06	3.8491e-06	1639.3	427.87	5.0522e-06	4.4747e-06	477.35	160.6	142.3	48.496	2.2253e-06	58.626	0.000136	0.00011598	3.5011e-05	1625.3	1.3522e-06	1.3005e-06	1581.6	406.01	1.3691e-06	1.2413e-06	448.8	151.02	133.96	45.664	1.4247e-06	54.949	-3.359	-85.637	-101.955	-151.928	-60.690	-8.330	-152.066	-147.291	-80.823	-29.703	-147.934	-143.854	-143.209	-138.384	-135.546	-139.541	-8191	255	
8007.556	1	1	0	0	0.10235	0.044827	0.20185	0.19099	0.044518	0.17659	0.097499	0.21579	0.125	0.077937	0.26887	0.22416	0.15973	0.28664	0.1286	0.21705	-2.5875	-3.125	-2.7604	-3.3042	-3.2458	-2.8229	-3.1792	-3.1312	-2.8688	-3.1875	-3.0208	-3.175	-3.2792	-3.0312	-3.2083	-3.1542	43.571	119.376	-97.622	153.293	-90.938	47.000	133.274	49.801	122.281	179.986	98.955	167.337	170.819	181.150	110.520	173.099	0.0010879	0.00055466	6.7163e-05	1670.6	1.5777e-06	3.405e-06	1638	426.07	4.1093e-06	8.1105e-07	478.25	160.83	142.52	48.599	2.1337e-06	58.534	0.0001318	0.00011306	3.6614e-05	1623.8	1.2924e-06	1.2689e-06	1580.2	405.27	1.3126e-06	1.2234e-06	449.14	150.73	133.78	45.691	1.4415e-06	54.854	-1.657	-88.893	183.702	-151.969	-49.760	-12.350	-152.167	-147.438	-54.251	23.447	-147.825	-143.595	-143.076	-138.405	-65.804	-139.227	-8191	255	
8007.628	1	1	0	0	0.22065	0.15867	0.15369	0.38086	0.16955	0.39753	0.25154	0.0076885	0.26156	0.12503	0.06519	0.047669	0.05785	0.26095	0.18766	0.30903	-2.4313	-3.2875	-2.7938	-2.9521	-3.0792	-2.95	-3.1937	-3.2292	-2.7354	-3.2604	-2.9708	-3.0167	-3.3417	-2.6562	-3.1292	-3.0833	26.393	-100.455	-135.848	139.804	-23.965	45.899	153.935	124.341	188.595	78.907	41.658	-156.485	-129.299	156.109	169.218	88.227	0.0010839	0.00030447	5.436e-05	1671.6	4.4194e-06	2.9795e-06	1637.4	427.33	5.6145e-06	3.0435e-06	478.07	161.26	142.81	48.641	4.7403e-06	58.843	0.00012421	0.00011296	3.6911e-05	1620.6	1.2263e-06	1.2896e-06	1580	404.63	1.2593e-06	1.2819e-06	449.52	150.74	133.73	45.788	1.4564e-06	54.82	-0.819	-133.205	-117.148	-152.058	-63.181	-19.510	-151.976	-147.225	-63.824	-112.018	-148.052	-143.678	-143.241	-138.288	-19.470	-139.212	-8191	255	
8007.724	1	1	0	0	0.15231	0.33039	0.067653	0.41367	0.15041	0.10409	0.17846	0.1433	0.35505	0.072667	0.014563	0.29103	0.26838	0.14837	0.20258	0.13931	-2.5208	-3.2208	-2.8187	-3.1292	-3.1792	-2.9417	-3.3021	-3.4104	-2.7313	-3.2062	-3.2542	-2.875	-3.3312	-2.9979	-3.0312	-3.225	160.901	114.124	67.778	135.234	28.284	86.849	83.170	14.831	128.725	-66.429	-58.539	54.247	-148.684	174.495	-4.566	130.240	0.0010958	0.00015529	0.00015388	1674.4	4.5052e-06	1.9842e-06	1634.1	426.06	4.2776e-06	2.9988e-06	476.72	161.28	142.04	48.459	2.5881e-06	58.752	0.00012275	0.00012134	3.6896e-05	1621.4	1.2179e-06	1.378e-06	1579.8	404.83	1.2514e-06	1.3856e-06	448.41	150.59	133.53	45.846	1.4119e-06	54.881	-7.745	-78.973	-94.056	-151.926	-18.118	-8.514	-152.216	-147.363	-64.517	-69.432	-147.950	-143.628	-143.000	-138.300	-112.628	-139.035	-8191	255	
8007.820	1	1	0	0	0.12546	0.16391	0.26423	0.43072	0.14608	0.27051	0.13902	0.25358	0.14673	0.22237	0.19236	0.084239	0.072497	0.07116	0.14934	0.11149	-2.3646	-3.0312	-3.0229	-3.0312	-3.2333	-2.8958	-3.1771	-3.2521	-2.9854	-3.125	-3.2792	-3.1	-3.3083	-2.9958	-2.8958	-3.2438	-83.111	-102.262	169.631	147.554	77.653	4.198	167.143	118.327	189.512	182.823	128.489	55.424	37.049	-65.168	29.622	82.259	0.0011595	0.00038529	0.0002118	1671.2	3.4281e-06	2.6782e-06	1640	427.2	4.1858e-06	1.9291e-06	476.8	160.87	142.55	48.681	3.7163e-06	58.559	0.00012359	0.00013053	3.5138e-05	1622	1.2434e-06	1.4476e-06	1580.9	404.88	1.2875e-06	1.4502e-06	447.94	150.36	133.92	45.922	1.3603e-06	54.726	-5.123	190.335	-111.707	-151.804	-26.053	-33.579	-152.101	-147.409	-92.687	-89.038	-147.792	-143.427	-143.355	-138.461	-53.428	-139.165	-8191	255	
8007.940	1	1	0	0	0.15807	0.066105	0.12708	0.23228	0.24843	0.14135	0.2094	0.16029	0.20647	0.056077	0.35187	0.17788	0.053755	0.26658	0.086347	0.19528	-2.3083	-3.0896	-3.1375	-3.1396	-3.2354	-2.8146	-3.2396	-3.3958	-2.9292	-2.9854	-3.3229	-2.8667	-3.2125	-3.0917	-2.8229	-3.2625	101.077	105.092	153.289	135.533	-147.568	-56.710	120.474	-87.518	-18.638	153.180	119.603	-104.555	-8.951	129.988	33.156	62.709	0.00112	0.00038184	9.7518e-05	1674	3.0723e-06	1.5013e-06	1634.4	425.39	2.9502e-06	6.6024e-06	477.94	160.91	142.47	48.568	1.7022e-06	58.562	0.00012749	0.00013543	3.3536e-05	1620.6	1.3053e-06	1.4529e-06	1577.6	403.98	1.3689e-06	1.4463e-06	447.85	150.53	133.94	45.827	1.3204e-06	54.698	-2.197	-114.354	-61.945	-152.040	-113.341	-35.349	-152.195	-147.414	-92.344	-51.985	-147.883	-143.498	-143.242	-138.618	-74.557	-139.036	-8191	255	
8008.037	1	1	0	0	0.11067	0.22756	0.2065	0.1836	0.14099	0.13982	0.2115	0.09585	0.21776	0.16527	0.14982	0.17555	0.39187	0.28911	0.051358	0.20793	-2.375	-3.0062	-3.1208	-3.1542	-3.0542	-3.1312	-3.0542	-3.3333	-2.825	-3.0271	-3.2979	-2.9396	-3.1708	-3.1396	-2.8042	-3.2146	5.637	142.821	127.020	193.749	-157.741	-63.703	155.889	190.292	128.767	-119.878	140.680	161.043	-151.670	70.727	-6.730	78.397	0.0010394	0.00024729	8.0107e-05	1674.3	5.6703e-06	2.1164e-06	1643	427.96	3.8761e-06	1.6122e-06	477.86	161.46	142.11	48.557	3.2474e-06	58.823	0.00013592	0.00013109	3.2496e-05	1619.5	1.4155e-06	1.4076e-06	1579	404.09	1.4498e-06	1.4029e-06	447.83	150.7	133.98	45.786	1.3061e-06	54.761	-2.164	-27.525	-118.131	-151.968	-138.952	37.928	-152.199	-147.459	-59.054	7.944	-147.763	-143.740	-143.135	-138.452	-51.279	-139.246	-8191	255	
8008.133	1	1	0	0	0.088517	0.15517	0.27157	0.27326	0.15699	0.086643	0.2651	0.15622	0.10559	0.051787	0.027223	0.2353	0.32991	0.13438	0.028143	0.1327	-2.6583	-2.8875	-3.1208	-2.8083	-3.1417	-3.1521	-2.925	-3.3625	-2.9646	-3.0271	-3.5938	-2.8812	-3.2438	-3.3104	-2.8625	-3.1708	126.627	91.206	103.062	154.333	-28.363	-99.572	160.782	154.046	-4.308	52.173	-43.700	160.871	96.754	138.870	128.151	-163.779	0.0010617	0.00050654	0.00013351	1673.8	5.7696e-06	1.5358e-06	1637.4	428.86	4.3284e-06	4.5034e-06	479.64	161.31	142.48	48.557	2.8598e-06	58.606	0.00014351	0.00012683	3.255e-05	1621.9	1.4982e-06	1.3542e-06	1580	405.44	1.4804e-06	1.3589e-06	448.04	150.92	134.15	45.764	1.2897e-06	54.788	-5.226	-81.879	-84.409	-152.139	-55.360	8.577	-152.177	-147.487	-45.391	-2.173	-147.923	-143.647	-143.194	-138.413	-22.363	-139.144	-8191	255	
8008.229	1	1	0	0	0.02378	0.16933	0.19017	0.30683	0.17038	0.045476	0.36141	0.093039	0.18439	0.16437	0.21901	0.34698	0.28504	0.25096	0.20881	0.080094	-2.7333	-2.7333	-3.2208	-3.1917	-2.9562	-3.0187	-2.9167	-3.2854	-3.0563	-2.9021	-3.325	-3.0292	-3.1375	-3.1688	-2.8063	-3.1188	164.555	77.445	127.119	184.580	86.836	165.474	121.573	-120.472	34.299	105.477	179.062	118.982	145.460	146.515	75.210	126.455	0.0010639	0.00014594	0.0001045	1675.2	7.6642e-06	2.3942e-06	1637.3	426.31	3.1764e-06	3.7512e-06	477.83	161.26	142.33	48.516	3.486e-06	58.944	0.00014291	0.00012124	3.1458e-05	1622.5	1.48e-06	1.3074e-06	1577.4	405.32	1.4693e-06	1.3265e-06	447.28	151.04	134.11	45.77	1.2661e-06	55.032	-0.640	-68.914	-117.001	-152.054	-51.233	7.266	-152.069	-147.499	-87.992	10.800	-147.873	-143.638	-143.095	-138.412	-82.968	-139.172	-8191	255	
8008.325	1	1	0	0	0.12446	0.2106	0.23271	0.032326	0.32868	0.028464	0.30368	0.21747	0.29672	0.25161	0.24164	0.12178	0.16096	0.23429	0.31944	0.51806	-2.5708	-2.8021	-3.1792	-3.0833	-2.9958	-3.0771	-2.9792	-3.1771	-3.0104	-2.8292	-3.1375	-3.0958	-3.1458	-3.2979	-2.8354	-3.2687	-32.323	108.546	17.458	-117.735	97.492	96.550	141.365	24.472	-114.507	151.103	-144.584	155.879	38.938	-136.042	-125.086	110.108	0.0011214	0.00020055	9.7853e-05	1672.7	2.4366e-06	1.2687e-06	1640.5	425.19	4.9234e-06	3.7339e-06	477.03	161.15	143.37	48.46	2.692e-06	58.672	0.00013838	0.00011916	3.172e-05	1623.1	1.4317e-06	1.2633e-06	1578.2	405.16	1.4007e-06	1.2843e-06	447.42	150.98	134.39	45.675	1.2882e-06	55.077	2.001	-90.569	-76.282	-151.940	-68.352	35.693	-152.181	-147.513	-61.903	-63.726	-147.841	-143.518	-143.144	-138.394	-109.790	-139.462	-8191	255	
8008.419	1	1	0	0	0.13269	0.14787	0.23523	0.27161	0.3042	0.18049	0.26179	0.08516	0.23532	0.14106	0.17996	0.061092	0.27432	0.40465	0.059319	0.29957	-2.7188	-2.7021	-3.2104	-3.1146	-2.8875	-3.2146	-3.0354	-3.1896	-3.0938	-2.8854	-3.3396	-3.1562	-2.8542	-3.4146	-2.9417	-3.1312	53.106	3.694	-154.870	-158.909	-12.693	16.950	132.795	80.881	31.882	187.684	-162.818	-158.414	69.736	182.297	68.248	191.424	0.0010785	0.00048068	9.8597e-05	1672.6	4.2978e-06	4.2679e-06	1641.4	426.04	2.4937e-06	3.5778e-06	477.02	161.24	142.31	48.579	1.9233e-06	58.707	0.00013149	0.0001151	3.2488e-05	1623.6	1.3536e-06	1.2323e-06	1579.5	405.59	1.3196e-06	1.2348e-06	447.54	151.01	133.9	45.667	1.3449e-06	54.951	-2.935	-56.545	-114.051	-152.103	-52.853	-7.587	-151.987	-147.374	-61.786	-38.922	-147.852	-143.539	-143.225	-138.496	-145.528	-139.237	-8191	255	
8008.517	1	1	0	0	0.2242	0.069317	0.11488	0.23373	0.1525	0.12909	0.15814	0.20193	0.014917	0.2044	0.16624	0.25741	0.18032	0.12147	0.089423	0.35103	-2.7854	-2.7042	-3.1208	-3.2687	-2.7313	-3.2021	-3.0833	-3.1437	-3.2979	-2.7938	-3.3042	-3.0396	-2.8479	-3.2292	-2.9792	-2.9375	-42.313	161.853	-131.799	149.240	-67.523	-113.891	102.815	136.315	63.416	161.338	148.302	161.419	121.419	159.823	-36.408	135.807	0.00098374	0.00019915	0.00013475	1670.3	2.2511e-06	2.4276e-06	1641.3	425.88	3.2197e-06	2.5261e-06	478.95	160.92	142.21	48.613	2.1478e-06	58.956	0.00012568	0.00011181	3.4493e-05	1622.7	1.2999e-06	1.1844e-06	1580.4	404.92	1.2756e-06	1.2198e-06	448.61	150.69	133.79	45.63	1.4261e-06	54.961	3.460	-83.310	194.024	-152.077	-63.723	18.324	-152.177	-147.447	-37.586	-39.403	-147.907	-143.613	-143.146	-138.460	-34.594	-139.402	-8191	255	
8008.636	1	1	0	0	0.11866	0.1968	0.17144	0.041848	0.1339	0.22177	0.075894	0.19702	0.099348	0.16229	0.1441	0.15699	0.1166	0.26132	0.098232	0.18069	-2.8167	-2.6792	-3.0833	-3.2104	-2.9271	-3.4479	-3.1479	-3.1958	-3.2792	-2.9229	-3.1271	-3.1167	-2.9188	-3.2583	-2.9708	-2.9958	122.016	-14.208	104.692	-77.198	10.616	48.326	89.344	171.940	71.922	-98.274	133.641	177.837	183.206	178.944	1.611	-144.851	0.0011126	0.00023664	0.00014121	1672.7	7.3636e-06	4.1986e-06	1638	426.96	2.7875e-06	1.7875e-06	477.12	160.68	142.91	48.485	3.4811e-06	58.749	0.00012354	0.00011326	3.6528e-05	1621.6	1.2747e-06	1.2225e-06	1581.7	404.49	1.2289e-06	1.2659e-06	448.82	150.5	133.94	45.667	1.458e-06	54.909	-3.285	-145.144	-144.037	-151.903	-67.590	-35.798	-152.260	-147.370	-52.957	-29.703	-147.838	-143.844	-143.255	-138.441	-39.343	-139.178	-8191	255	
8008.732	1	1	0	0	0.092301	0.29006	0.16732	0.24814	0.050971	0.20059	0.081706	0.42489	0.2195	0.092563	0.27878	0.069233	0.12976	0.061187	0.099768	0.22957	-2.8271	-2.8083	-3.2521	-3.3979	-3.0917	-3.1833	-3.0708	-3.0146	-3.2396	-3.0417	-3.1625	-3.4417	-2.9813	-3.1854	-2.9125	-2.9917	-144.999	-10.144	91.083	140.412	19.567	132.172	137.807	152.768	143.334	162.585	-146.014	-3.757	164.561	112.643	129.404	177.996	0.001009	0.00021141	0.00013925	1674.5	7.0599e-06	1.7291e-06	1639.5	426.13	3.4567e-06	4.3732e-06	478.49	160.53	142.64	48.619	3.0115e-06	58.613	0.00011942	0.00012021	3.6985e-05	1621.6	1.2553e-06	1.3114e-06	1580.7	404.43	1.2163e-06	1.3594e-06	448.97	150.19	133.8	45.783	1.4316e-06	54.791	3.296	-88.766	-125.340	-152.114	-46.907	-39.625	-152.136	-147.501	-89.157	-59.082	-147.862	-143.787	-143.152	-138.393	2.353	-139.077	-8191	255	
8008.829	1	1	0	0	0.13239	0.12189	0.031378	0.25132	0.1133	0.29497	0.29753	0.35301	0.18849	0.25799	0.12069	0.21987	0.20706	0.2484	0.20631	0.23679	-2.9167	-2.7708	-3.0271	-3.3833	-2.8	-3.2313	-3.3146	-2.8896	-3.2	-2.8083	-2.9729	-3.4125	-2.8625	-3.2667	-3.0938	-3.0062	-135.041	140.253	56.291	178.771	-47.177	110.836	120.394	156.170	158.853	-96.358	77.581	-121.633	184.806	101.245	-87.184	126.951	0.0010543	0.00056982	0.00015727	1678.1	4.3992e-06	3.5736e-06	1643.1	426.96	4.4767e-06	3.2144e-06	477.7	161.2	142.51	48.596	3.4516e-06	58.692	0.00011928	0.00012923	3.5788e-05	1621.3	1.2639e-06	1.4092e-06	1581.5	404.66	1.2234e-06	1.4196e-06	447.8	150.3	133.78	45.836	1.3488e-06	54.713	-0.333	-83.655	-106.107	-151.921	-100.771	12.903	-151.893	-147.416	-123.394	-61.101	-147.809	-143.639	-143.237	-138.288	-9.267	-139.179	-8191	255	
8008.925	1	1	0	0	0.074163	0.075749	0.16401	0.16933	0.085405	0.058453	0.2574	0.15462	0.13919	0.29934	0.16472	0.1541	0.33575	0.12572	0.020593	0.18037	-2.6688	-2.9417	-2.7875	-3.3958	-2.7313	-3.2667	-3.4729	-2.8875	-3.1271	-3.175	-2.9521	-3.5062	-2.7896	-3.0729	-3.2583	-2.8688	78.483	-29.811	34.299	120.351	170.712	177.494	157.228	159.941	160.725	-136.396	193.236	114.967	166.321	71.740	-152.912	-47.564	0.0011084	6.7258e-05	0.0001868	1670.8	4.5256e-06	3.5503e-06	1636.1	427.97	2.327e-06	3.1767e-07	479.81	160.66	142.73	48.553	3.8629e-06	58.646	0.0001218	0.0001309	3.3852e-05	1616.9	1.2922e-06	1.4413e-06	1576.9	404.23	1.283e-06	1.4443e-06	448.32	150.11	133.95	45.789	1.2856e-06	54.737	-1.710	-69.929	-96.339	-151.980	-97.882	-25.545	-152.027	-147.406	6.551	65.710	-147.898	-143.658	-143.288	-138.355	-34.888	-139.115	-8191	255	
8009.021	1	1	0	0	0.13012	0.046867	0.12022	0.17679	0.2403	0.17526	0.32655	0.16397	0.11245	0.066993	0.053609	0.14719	0.13154	0.1002	0.18625	0.19362	-2.7771	-2.8667	-2.8917	-3.5083	-2.7625	-3.1167	-3.3438	-2.9437	-3.1063	-3.0687	-2.7604	-3.3208	-3.0542	-3.1146	-3.2229	-2.9062	178.876	155.324	188.690	127.454	162.601	-27.428	137.248	180.263	-17.249	-52.006	105.839	-165.400	170.626	161.357	-121.769	-143.871	0.0010524	0.00039948	0.00017261	1673.7	4.9114e-06	2.5195e-06	1636.3	426.58	7.094e-06	3.5757e-06	479.23	160.77	142.56	48.559	2.7558e-06	58.492	0.00013015	0.00013002	3.3015e-05	1618.3	1.3789e-06	1.4202e-06	1576.2	403.93	1.3788e-06	1.3923e-06	447.35	150.17	134.09	45.763	1.2445e-06	54.648	-4.068	-63.556	-121.218	-151.789	-64.385	-89.762	-152.264	-147.440	-116.342	-6.906	-147.949	-143.764	-143.113	-138.331	-21.310	-139.129	-8191	255	
8009.117	1	1	0	0	0.15059	0.13409	0.21418	0.27243	0.14476	0.17508	0.15612	0.19742	0.13761	0.062873	0.097549	0.19268	0.010233	0.22527	0.24471	0.33839	-2.5875	-3.0396	-2.7854	-3.45	-3.0271	-3.0687	-3.2188	-3.0333	-3.2062	-3.075	-2.9646	-3.2354	-3.0708	-2.9917	-3.3292	-2.8417	-7.427	-10.192	-157.743	-162.408	173.064	-44.433	72.696	151.510	8.823	-4.070	-26.915	-62.661	19.699	191.578	81.583	89.181	0.0010819	0.00073314	7.7414e-05	1676.6	3.2783e-06	5.0464e-06	1637.9	426.68	5.9762e-06	3.6995e-06	476.41	160.79	142.37	48.332	2.8874e-06	58.736	0.00013796	0.00012441	3.2367e-05	1618.7	1.4486e-06	1.3727e-06	1575.9	404.26	1.4514e-06	1.3301e-06	447.11	150.2	134.04	45.66	1.2358e-06	54.819	-2.215	-95.474	-86.500	-152.108	-54.769	12.174	-152.174	-147.615	-67.240	-20.117	-147.789	-143.559	-143.017	-138.358	-42.288	-139.162	-8191	255	
8009.238	1	1	0	0	0.12746	0.10375	0.086948	0.32693	0.1214	0.13366	0.19337	0.37906	0.1793	0.058296	0.036823	0.05367	0.18319	0.31753	0.20232	0.4327	-2.5917	-3.0625	-2.7854	-3.375	-3.0521	-2.9208	-3.35	-2.9479	-2.9667	-3.1958	-2.8667	-3.3438	-3.0563	-3.1021	-3.3708	-3.0042	192.916	-100.620	-75.389	139.165	-76.605	118.164	-148.199	107.275	83.164	72.127	28.339	53.746	141.075	164.443	150.406	-134.732	0.0011223	0.00028445	0.00018286	1669.8	1.9178e-06	4.3165e-06	1634.3	426.6	1.5123e-06	3.6573e-06	478.18	160.52	142	48.346	5.1344e-06	58.563	0.00014092	0.00011808	3.196e-05	1618.8	1.4553e-06	1.3207e-06	1574.6	403.98	1.4514e-06	1.2885e-06	446.24	150.45	133.84	45.591	1.2182e-06	54.819	2.982	-103.042	-83.804	-151.755	-49.070	3.424	-152.096	-147.511	-46.634	-40.046	-147.803	-143.649	-142.980	-138.445	-54.748	-139.052	-8191	255	
8009.332	1	1	0	0	0.060946	0.15144	0.11041	0.35432	0.095475	0.08527	0.31882	0.11968	0.14746	0.09179	0.10458	0.22084	0.096681	0.017782	0.1759	0.068952	-2.9813	-3.2667	-2.9646	-3.3937	-3.0229	-3.0312	-3.2042	-3.0646	-3.1188	-3.2604	-2.8688	-3.2625	-3.1271	-3.1104	-3.2667	-2.925	-100.157	-37.737	-66.771	146.369	87.187	103.164	144.270	164.041	-105.879	-154.534	184.869	-126.231	78.360	83.257	-82.229	73.322	0.0010937	0.00052965	0.00014489	1671.1	7.1844e-06	4.2112e-06	1638	425.2	4.5587e-06	2.6474e-06	478.38	160.78	142.02	48.416	3.1553e-06	58.552	0.00013914	0.00011565	3.1119e-05	1619.7	1.4229e-06	1.2941e-06	1575	404.14	1.4146e-06	1.2552e-06	446.93	150.67	133.83	45.612	1.2268e-06	54.914	-6.839	-94.576	-42.348	-152.058	-42.635	-11.901	-152.223	-147.198	-2.055	-22.844	-147.929	-143.652	-143.212	-138.367	-91.986	-139.267	-8191	255	
8009.428	1	1	0	0	0.082667	0.13932	0.18359	0.10211	0.26126	0.026662	0.10804	0.19134	0.20934	0.23247	0.31114	0.20329	0.13114	0.056244	0.16483	0.21955	-2.3271	-3.1708	-2.8521	-3.3833	-3.0563	-2.8896	-3.3146	-3.2479	-2.9833	-3.2458	-2.9146	-3.0042	-3.2583	-2.8896	-3.2542	-2.9604	-128.690	-133.927	-131.407	-162.751	-12.333	69.157	123.350	26.338	-122.589	-61.345	-146.757	-153.830	33.617	46.675	34.400	121.100	0.0010615	0.00031664	0.00013564	1667	3.1303e-06	3.6892e-06	1633.8	427.06	4.6336e-06	1.042e-06	477.33	160.14	142.14	48.454	3.1082e-06	58.612	0.00013482	0.0001133	3.2232e-05	1620.3	1.3602e-06	1.2756e-06	1575.1	404.95	1.3628e-06	1.22e-06	447.95	150.64	133.76	45.617	1.3186e-06	54.95	2.965	-56.281	-105.208	-151.996	-47.663	-1.709	-152.096	-147.496	-81.031	-144.639	-147.767	-143.581	-143.173	-138.393	-70.702	-139.385	-8191	255	
8009.500	1	1	0	0	0.070751	0.15164	0.03283	0.13562	0.20847	0.21277	0.38996	0.093335	0.20764	0.1266	0.16867	0.17293	0.11552	0.18364	0.052971	0.31436	-2.5021	-3.1396	-2.8417	-3.1896	-3.3458	-2.8812	-3.2875	-3.1688	-2.9771	-3.2875	-2.9562	-3.0021	-3.3187	-2.8812	-3.0563	-3.2021	-156.315	-79.629	163.210	189.972	-138.345	-96.623	149.297	187.472	-7.943	114.039	155.263	141.648	192.285	180.842	157.536	83.099	0.0010026	0.00028746	0.00017613	1679.8	2.2418e-06	1.9985e-06	1632.3	426.21	6.114e-06	1.7689e-06	477.58	160.92	141.75	48.401	2.6589e-06	58.639	0.00013036	0.00011256	3.4574e-05	1624	1.3155e-06	1.2666e-06	1576.9	404.88	1.3302e-06	1.2164e-06	448.42	150.77	133.66	45.617	1.4307e-06	54.874	-1.953	-62.006	-110.807	-151.900	-101.043	-9.461	-152.055	-147.560	-40.569	-7.988	-147.748	-143.756	-143.247	-138.391	-44.360	-139.349	-8191	255	
8009.620	1	1	0	0	0.28483	0.27112	0.090417	0.29428	0.1201	0.13725	0.34848	0.11171	0.088483	0.24291	0.45521	0.31455	0.073178	0.067863	0.19368	0.14336	-2.4958	-3.0875	-3.0542	-3.3292	-3.1063	-2.8458	-3.2708	-3.2146	-2.8625	-3.175	-2.9854	-3.0333	-3.4354	-3.0521	-3.1021	-3.0812	147.985	-90.180	-59.732	92.456	47.710	42.844	145.536	133.436	30.167	74.870	119.573	133.282	7.110	40.642	140.989	135.113	0.0010906	0.00024043	7.8752e-05	1664.4	3.9934e-06	4.1935e-06	1631.4	425.63	5.2093e-06	4.3092e-06	477.51	160.94	142.49	48.481	4.0686e-06	58.613	0.00013016	0.0001129	3.7305e-05	1618.5	1.2964e-06	1.272e-06	1578	404.26	1.3254e-06	1.2437e-06	448.72	150.6	133.6	45.719	1.5129e-06	54.794	-2.837	-40.974	173.357	-151.995	-24.521	14.450	-152.083	-147.494	-95.379	-46.055	-147.996	-143.624	-143.073	-138.472	-38.425	-139.272	-8191	255	
8009.717	1	1	0	0	0.16195	0.09867	0.14357	0.34097	0.10383	0.072488	0.20974	0.34887	0.14905	0.024131	0.25452	0.18004	0.16153	0.090722	0.17538	0.17159	-2.4521	-3.25	-2.9292	-3.0125	-3.1875	-2.7125	-3.1437	-3.0854	-2.85	-3.4625	-2.9437	-2.6417	-3.3208	-2.8479	-2.9437	-3.3604	-22.961	-50.598	-52.114	179.362	-84.751	-8.590	107.145	89.132	-85.734	174.839	154.465	123.642	158.974	-57.124	-151.446	174.769	0.0011006	0.00032289	0.00014509	1673.7	5.785e-06	2.1116e-06	1636.3	428.23	2.6039e-06	2.3842e-06	477.82	160.26	142.44	48.429	4.9216e-06	58.928	0.00012904	0.00011916	3.8263e-05	1622.6	1.2785e-06	1.3492e-06	1580.1	404.67	1.3016e-06	1.3216e-06	449.4	150.45	133.67	45.715	1.4967e-06	54.837	-1.317	-102.216	-88.184	-151.969	-55.231	-66.485	-152.002	-147.580	-77.330	-98.347	-147.929	-143.352	-143.008	-138.491	-40.784	-139.078	-8191	255	
8009.813	1	1	0	0	0.15207	0.10629	0.14507	0.4561	0.061458	0.048608	0.12223	0.1237	0.073873	0.19904	0.26196	0.19592	0.19441	0.17533	0.08335	0.33702	-2.4417	-3.1479	-3.0729	-3.0792	-3.1667	-2.9042	-3.2229	-3.2542	-2.7271	-3.2771	-3.3229	-2.9979	-3.3979	-3.0771	-3	-3.2625	128.873	78.521	-60.093	121.935	-91.397	-95.078	157.750	156.772	182.420	122.443	117.083	-165.128	164.556	165.703	187.953	107.454	0.0010654	0.0003906	9.5579e-05	1670.6	2.5964e-06	1.6119e-06	1636.9	427.3	1.8467e-06	2.3035e-06	476.87	159.97	142.18	48.746	5.6348e-06	58.574	0.00012558	0.0001273	3.7668e-05	1618.8	1.2529e-06	1.4248e-06	1578	403.85	1.2822e-06	1.4338e-06	447.33	150.12	133.51	45.79	1.4547e-06	54.67	-4.899	-124.867	-105.544	-152.044	-61.793	8.717	-152.260	-147.390	-73.682	-31.690	-147.756	-143.746	-143.284	-138.359	-60.657	-139.094	-8191	255	
8009.909	1	1	0	0	0.22514	0.04969	0.09535	0.24958	0.12026	0.27607	0.27515	0.3569	0.087948	0.16112	0.28604	0.17523	0.13463	0.035987	0.17546	0.1363	-2.3979	-3.2354	-3.1729	-3.1729	-3.4021	-3.0396	-3.1104	-3.3042	-2.9292	-3.0979	-3.2687	-2.9062	-3.5042	-3.0417	-2.9688	-3.3646	141.109	-121.127	-164.162	113.852	160.203	-84.898	150.127	70.275	-32.231	75.632	108.453	105.886	107.548	-148.674	187.309	23.324	0.001076	0.00022813	0.00021111	1665.5	3.2318e-06	1.9167e-06	1639.5	426.03	4.8898e-06	4.4303e-06	477.93	161.49	142.03	48.598	3.021e-06	58.55	0.00012797	0.00013615	3.605e-05	1617.2	1.296e-06	1.5027e-06	1577.1	404.06	1.3257e-06	1.5005e-06	447.97	150.65	133.59	45.79	1.4115e-06	54.639	3.587	-58.770	-121.567	-151.895	-117.883	-5.890	-152.107	-147.420	-95.583	-28.520	-148.028	-143.521	-143.144	-138.571	-80.551	-139.196	-8191	255	
8010.030	1	1	0	0	0.065412	0.22922	0.26995	0.2387	0.077224	0.25104	0.2798	0.10006	0.12535	0.014984	0.0070259	0.14908	0.20441	0.18952	0.075205	0.14106	-2.3333	-3.2438	-3.1063	-2.95	-3.2125	-3.0458	-3.2208	-3.3563	-2.9313	-3.0812	-3.2021	-2.7583	-3.2604	-3.1479	-2.9229	-3.3771	82.800	-20.575	152.698	166.920	-58.479	101.247	151.284	-137.457	149.939	-60.862	60.145	153.365	-149.181	-80.416	188.132	111.193	0.0010826	0.00048076	0.00011864	1675.3	4.9745e-06	3.8641e-06	1635.6	427.2	4.5548e-06	4.6297e-06	478.19	160.88	142.32	48.396	9.6787e-07	58.572	0.00013453	0.00013704	3.391e-05	1619.8	1.3564e-06	1.4944e-06	1575.8	403.89	1.4065e-06	1.4921e-06	447.37	150.05	133.87	45.765	1.3779e-06	54.662	1.669	-117.966	-92.534	-151.964	-64.537	-32.394	-152.183	-147.265	-89.901	-34.489	-147.718	-143.655	-143.216	-138.370	-99.835	-139.391	-8191	255	
8010.101	1	1	0	0	0.046242	0.12863	0.1275	0.30115	0.25543	0.15386	0.10174	0.31482	0.16771	0.2156	0.27821	0.3704	0.10848	0.35217	0.14634	0.14236	-2.3812	-3	-3.0583	-3.0604	-3.1292	-2.8688	-3.1354	-3.3479	-3.025	-2.9646	-3.3125	-2.9583	-3.3896	-3.2062	-2.7625	-3.2375	-131.495	-105.042	-12.832	128.938	-68.716	-152.158	139.599	-111.672	45.135	-4.062	76.915	126.007	167.139	178.916	103.164	77.446	0.0011751	0.00029694	0.00015758	1673.4	3.3162e-06	2.653e-06	1635.8	425.27	4.1688e-06	3.7319e-06	477.6	160.39	142.06	48.597	4.0632e-06	58.62	0.00014357	0.00013665	3.379e-05	1618.7	1.4904e-06	1.4606e-06	1576.6	403.83	1.5053e-06	1.4698e-06	447.3	150.09	134.09	45.673	1.3428e-06	54.71	0.951	-56.140	-136.139	-152.016	-73.048	-19.968	-152.345	-147.517	-90.826	-20.694	-147.910	-143.695	-143.022	-138.379	-54.602	-139.392	-8191	255	
8010.197	1	1	0	0	0.15162	0.058649	0.28188	0.41481	0.3747	0.071451	0.19112	0.10738	0.13252	0.062596	0.19291	0.034754	0.39249	0.13602	0.22477	0.15189	-2.6271	-2.7396	-3.2792	-3.0687	-3.0292	-3.2042	-3.0521	-3.2542	-3.0479	-2.9167	-3.25	-2.8542	-3.275	-3.3646	-2.8812	-3.3125	-83.585	-118.725	158.731	162.769	41.427	9.952	126.689	136.872	-29.748	33.674	98.897	-77.376	130.424	91.356	180.654	75.918	0.0010393	0.00044376	8.1885e-05	1672.7	2.2328e-06	1.6368e-06	1635.5	424.37	3.3226e-06	3.3138e-06	476.46	160.76	141.89	48.457	3.1449e-06	58.669	0.00014865	0.00013034	3.3033e-05	1621.5	1.5473e-06	1.3799e-06	1576.2	403.95	1.5357e-06	1.3978e-06	446.75	150.58	134.12	45.645	1.32e-06	54.785	-5.041	-47.498	-68.557	-151.980	-72.087	2.517	-152.111	-147.501	-37.245	-31.501	-147.935	-143.880	-143.065	-138.337	-34.677	-138.946	-8191	255	
8010.318	1	1	0	0	0.11679	0.067195	0.17595	0.29278	0.10408	0.26847	0.36991	0.46466	0.24865	0.10598	0.2982	0.25115	0.17058	0.082555	0.10572	0.090177	-2.7333	-3.0708	-3.3104	-3.15	-2.9646	-3.1292	-3.0396	-3.3063	-3.0854	-2.8375	-3.3833	-2.9896	-3.1917	-3.3438	-2.8292	-3.3646	-98.862	164.750	-36.814	63.184	114.583	149.224	132.554	183.256	37.129	21.620	-58.556	70.221	-112.402	61.764	-60.974	156.653	0.00095889	0.00016262	7.6313e-05	1667.4	3.5062e-06	2.0471e-06	1637.3	426.03	5.9683e-06	4.9918e-06	478.38	160.66	142.55	48.622	3.9915e-06	58.738	0.00014825	0.00012718	3.2234e-05	1620.8	1.5253e-06	1.3481e-06	1577.5	405	1.5031e-06	1.3638e-06	447.18	150.71	134.11	45.645	1.3018e-06	54.883	-4.901	-87.457	-144.749	-151.961	-56.731	33.316	-152.113	-147.433	-66.609	-0.889	-147.679	-143.755	-142.993	-138.400	-75.598	-139.443	-8191	255	
8010.412	1	1	0	0	0.15214	0.097706	0.23286	0.24093	0.13654	0.36781	0.23928	0.15175	0.18884	0.015506	0.23894	0.24949	0.16979	0.12707	0.13155	0.21045	-2.7479	-2.7875	-3.0104	-3.15	-3.0875	-3.3146	-2.9896	-3.2896	-3.1688	-2.7146	-3.2271	-3.0375	-3.0062	-3.2979	-3.0771	-3.1917	-65.073	29.593	169.364	-142.412	-142.284	-1.308	117.651	-34.840	126.763	142.007	193.978	82.894	-141.746	86.183	35.109	112.463	0.0010758	0.00019512	0.00018812	1674.9	3.7513e-06	4.281e-06	1636.2	426.23	4.2998e-06	3.8911e-06	477.26	160.25	142.19	48.458	2.9173e-06	58.391	0.00014104	0.00012401	3.2475e-05	1622.6	1.4545e-06	1.3015e-06	1577.2	405.39	1.4297e-06	1.3236e-06	447.73	150.8	133.86	45.591	1.3575e-06	54.927	5.071	-87.090	-121.675	-152.005	-84.908	-40.931	-152.160	-147.370	-49.468	-40.281	-147.925	-143.514	-143.050	-138.386	-51.536	-139.162	-8191	255	
8010.509	1	1	0	0	0.075222	0.19698	0.1433	0.19036	0.28988	0.29295	0.32505	0.32872	0.22486	0.063201	0.096103	0.15806	0.1018	0.33921	0.23392	0.18397	-2.7646	-2.8042	-3.3271	-3.3604	-3.0458	-3.2438	-3.1083	-3.3125	-3.1833	-2.7417	-3.0563	-3.1375	-2.9062	-3.5125	-2.8896	-3.0104	14.315	-153.388	63.256	147.077	-40.034	-34.615	144.392	-151.509	16.004	37.799	-2.914	161.763	-32.374	168.129	-134.660	67.761	0.001119	0.00030415	0.00011118	1672.3	4.559e-06	3.7936e-06	1637	425.01	2.9207e-06	3.7959e-06	478.07	160.29	142.39	48.368	5.4525e-07	58.544	0.00013491	0.00012091	3.4001e-05	1621.9	1.3941e-06	1.2688e-06	1578.6	404.94	1.3656e-06	1.2756e-06	448.63	150.59	133.8	45.568	1.4063e-06	54.898	0.813	-92.540	-119.656	-151.980	-79.055	-22.209	-152.255	-147.629	-62.461	-25.311	-147.935	-143.698	-143.067	-138.424	-116.125	-139.084	-8191	255	
8010.629	1	1	0	0	0.085756	0.15642	0.19073	0.30282	0.088819	0.03991	0.17814	0.27032	0.10946	0.030402	0.30089	0.37327	0.20977	0.084378	0.47985	0.080686	-2.7396	-2.7417	-3.1604	-3.2979	-2.8979	-3.1875	-3.1979	-3.0896	-3.15	-3.0396	-3.3021	-3.1229	-2.9729	-3.3812	-2.8542	-3.3688	121.517	19.371	-4.996	153.633	-162.277	-44.375	113.909	146.534	-59.919	59.742	130.312	134.225	191.828	161.205	-148.451	-120.066	0.0011252	0.00047666	6.1868e-05	1673	4.0038e-06	3.2752e-06	1637.2	425.34	2.9411e-06	1.7315e-06	479.06	160.77	141.99	48.53	3.5877e-06	58.689	0.00012684	0.00011566	3.5788e-05	1620.9	1.3375e-06	1.2183e-06	1577.5	405.03	1.2759e-06	1.2745e-06	448.92	150.69	133.63	45.577	1.4844e-06	54.904	-0.158	-88.560	-157.684	-151.952	-32.851	-60.068	-151.872	-147.318	-78.664	-16.244	-147.668	-143.816	-143.231	-138.491	-125.698	-139.188	-8191	255	
8010.725	1	1	0	0	0.21801	0.092777	0.087317	0.30474	0.27803	0.21538	0.22606	0.1925	0.19072	0.13965	0.19916	0.19172	0.25171	0.17507	0.16772	0.11267	-2.8625	-2.7333	-3.1396	-3.3479	-2.8792	-3.3167	-3.2375	-3.1	-3.4688	-2.7708	-3.3187	-3.325	-3.0354	-3.3583	-2.9104	-3.2083	71.318	-31.702	-73.679	181.224	-20.297	38.213	102.367	128.940	137.173	182.313	165.812	160.420	105.476	168.808	-113.067	149.166	0.0011685	0.00035663	5.2611e-05	1676.5	2.562e-06	4.1723e-06	1635.4	425.73	5.8696e-06	3.4981e-06	476.82	160.61	142.24	48.523	3.4674e-06	58.587	0.00012611	0.00011751	3.8043e-05	1620.4	1.2955e-06	1.2789e-06	1579.7	404.44	1.2737e-06	1.3249e-06	449.18	150.36	133.62	45.643	1.4907e-06	54.77	-0.201	-98.744	-94.142	-151.932	-6.230	-13.426	-152.114	-147.453	-77.041	-70.873	-148.010	-143.676	-143.248	-138.456	-26.941	-139.191	-8191	255	
8010.797	1	1	0	0	0.22643	0.17345	0.32897	0.42529	0.161	0.08962	0.18115	0.09946	0.14799	0.15652	0.089044	0.40008	0.26285	0.27032	0.2348	0.13661	-2.8479	-3.0083	-2.9354	-3.3208	-2.7979	-3.1021	-3.2208	-2.9271	-3.3125	-2.9625	-3.1208	-3.2104	-2.9333	-3.3312	-3.0708	-3.0583	2.362	-163.418	-65.149	125.274	-149.363	-83.750	139.740	75.381	93.004	119.660	-148.455	-141.858	162.096	138.617	25.734	150.967	0.0011355	0.0002673	0.00012312	1669.7	2.6066e-06	2.1114e-06	1636.4	426.07	3.2271e-06	8.8475e-07	478.1	161.12	142.15	48.319	2.2409e-06	58.695	0.0001221	0.0001238	3.7691e-05	1618.4	1.2728e-06	1.3499e-06	1578.2	404.18	1.2317e-06	1.4014e-06	447.83	150.37	133.6	45.642	1.4374e-06	54.761	0.546	-0.809	-105.026	-151.925	-76.982	-51.052	-152.009	-147.454	-142.621	-90.241	-148.036	-143.638	-143.041	-138.506	-48.296	-139.487	-8191	255	
8010.918	1	1	0	0	0.033267	0.12695	0.11589	0.24892	0.04325	0.15138	0.10911	0.2489	0.034174	0.19846	0.12212	0.090176	0.1394	0.04634	0.32862	0.24396	-2.9292	-2.9271	-3.0125	-3.4354	-3.0896	-3.2292	-3.2625	-2.9292	-3.3563	-2.8771	-3.1688	-3.4375	-2.9583	-3.25	-3.0833	-2.8604	-135.484	35.752	-137.272	119.057	-138.359	27.066	155.954	150.565	-102.827	-125.619	73.174	-155.703	-142.260	181.672	-24.206	79.809	0.0010769	0.00013183	0.00012438	1671.9	3.6001e-06	3.6905e-06	1640.9	426.14	3.7688e-06	2.044e-06	478.16	160.36	141.64	48.597	4.3772e-06	58.464	0.00012107	0.0001306	3.6449e-05	1619.3	1.2718e-06	1.4493e-06	1579.2	404.03	1.2561e-06	1.4656e-06	447.6	150.1	133.39	45.74	1.3583e-06	54.653	-3.063	-126.456	-46.499	-151.967	-49.595	-20.118	-152.094	-147.443	-104.039	-51.365	-147.962	-143.697	-143.035	-138.223	-46.052	-139.222	-8191	255	
8011.014	1	1	0	0	0.037335	0.12362	0.060331	0.29491	0.20129	0.2673	0.19784	0.1447	0.18916	0.14797	0.12949	0.11706	0.19768	0.2206	0.07252	0.051075	-2.8479	-2.8542	-2.8917	-3.4792	-2.9188	-2.9146	-3.3229	-2.8417	-3.1167	-3.0542	-3.0812	-3.4292	-3.0062	-3.1271	-3.1125	-2.9479	-149.239	68.864	148.687	128.185	-1.780	83.059	171.405	118.249	77.336	-0.922	-158.270	144.664	-90.451	182.030	-11.913	-149.293	0.0011267	0.00016078	0.00020127	1674.4	2.7342e-06	4.1116e-06	1636.8	426.19	4.5559e-06	2.4044e-06	477.01	160.43	142.24	48.448	2.9936e-06	58.644	0.00012495	0.00013569	3.4549e-05	1618.5	1.3205e-06	1.4727e-06	1576.2	403.69	1.3059e-06	1.4553e-06	447.4	149.95	133.64	45.747	1.2978e-06	54.706	2.397	-55.472	-89.260	-151.839	-55.223	12.197	-152.207	-147.592	-91.106	-60.511	-147.818	-143.567	-143.278	-138.513	-49.681	-139.407	-8191	255	
8011.110	1	1	0	0	0.11829	0.13679	0.24784	0.24105	0.16788	0.17859	0.2455	0.03751	0.092971	0.17058	0.18512	0.31288	0.054326	0.18202	0.18792	0.073782	-2.8708	-3.0625	-2.9875	-3.4167	-2.9208	-3.0542	-3.5271	-2.9562	-3.3208	-3.0333	-3.0333	-3.5021	-3.1437	-3.1771	-3.1583	-2.9542	3.819	173.392	31.085	176.124	-52.164	3.943	79.767	-56.078	-125.003	2.165	188.421	-158.973	91.570	46.084	-43.219	116.315	0.0011325	0.00041909	0.0001383	1672.6	6.0765e-06	3.2966e-06	1631.4	424.85	5.1109e-06	4.1678e-06	475.67	159.99	141.95	48.671	3.9969e-06	58.656	0.00013143	0.00013044	3.3326e-05	1617	1.389e-06	1.415e-06	1573.8	403.03	1.3999e-06	1.3811e-06	446.26	149.85	133.84	45.754	1.2527e-06	54.677	3.333	-68.428	-87.471	-152.020	-101.199	-4.272	-152.305	-147.413	-98.039	-25.135	-147.897	-143.715	-142.982	-138.484	-55.371	-139.172	-8191	255	
8011.206	1	1	0	0	0.21013	0.10573	0.17141	0.51265	0.098959	0.18425	0.33456	0.095275	0.19919	0.070797	0.15529	0.19052	0.08932	0.14414	0.10707	0.14671	-2.9042	-3.0687	-2.8583	-3.4458	-2.9604	-3.0187	-3.2708	-3.0229	-3.1521	-3.2562	-2.9562	-3.2771	-3.2479	-3.0479	-3.4208	-3.1708	68.925	62.552	-136.070	140.379	29.824	-84.320	138.191	117.443	-61.381	59.122	178.479	187.022	48.155	169.942	63.342	132.338	0.0010023	0.00042247	0.00014896	1667.3	4.1012e-06	5.1715e-06	1632.3	426.43	5.4066e-06	3.264e-06	475.27	161.13	141.88	48.424	2.9581e-06	58.458	0.00013802	0.00012259	3.2057e-05	1615.6	1.4281e-06	1.3412e-06	1572.5	403.69	1.4214e-06	1.2973e-06	446.24	150.18	133.77	45.642	1.1877e-06	54.68	0.563	-40.499	-95.617	-151.909	-37.660	17.770	-152.169	-147.163	-140.795	-5.535	-147.977	-143.634	-143.272	-138.360	-36.808	-139.128	-8191	255	
8011.325	1	1	0	0	0.26673	0.18649	0.2594	0.328	0.07728	0.063443	0.23836	0.13211	0.11166	0.0797	0.188	0.24354	0.05284	0.1232	0.27996	0.011334	-2.6146	-3.1333	-2.7167	-3.525	-3.2271	-2.9917	-3.4333	-3.1188	-3.1271	-3.3333	-2.8812	-3.175	-3.1562	-2.9167	-3.4813	-3.0896	188.063	-99.585	-32.604	-162.387	-140.226	193.653	148.301	-93.019	107.558	96.510	129.116	161.102	109.886	158.876	-111.112	95.558	0.0010564	0.00044719	0.00011444	1671.5	6.7772e-06	3.1323e-06	1633.8	426.26	1.961e-06	1.5213e-06	477.23	160.36	142.11	48.489	3.0946e-06	58.756	0.00014105	0.00011672	3.1334e-05	1619.4	1.43e-06	1.305e-06	1574	404.16	1.4227e-06	1.2539e-06	446.42	150.1	133.84	45.571	1.1771e-06	54.839	0.316	-84.595	-94.691	-152.092	-72.380	-36.933	-152.063	-147.446	-74.162	-44.622	-148.031	-143.594	-142.882	-138.417	-62.303	-139.363	-8191	255	
8011.397	1	1	0	0	0.065561	0.26148	0.12428	0.25459	0.27268	0.037166	0.40949	0.22841	0.25031	0.19452	0.2657	0.15511	0.28118	0.19152	0.11014	0.058275	-2.6354	-3.1458	-3.0229	-3.5417	-3.0271	-2.95	-3.3875	-3.2917	-3.0687	-3.1688	-2.95	-3.2708	-3.2354	-2.9208	-3.2771	-2.9125	12.442	-91.386	-147.289	-120.191	-29.917	-60.090	158.504	103.415	166.690	71.237	-137.820	151.646	155.970	152.548	97.165	186.957	0.0011394	0.00038125	9.83e-05	1673.5	2.7643e-06	2.9129e-06	1632.4	425.93	5.1055e-06	2.8463e-06	478.61	160.07	141.92	48.519	7.488e-07	58.504	0.00013616	0.00011304	3.098e-05	1620.1	1.3709e-06	1.2594e-06	1573.2	404.35	1.3801e-06	1.2293e-06	446.67	150.28	133.58	45.582	1.2108e-06	54.843	1.355	-83.165	-82.282	-152.119	-62.814	-16.101	-152.118	-147.308	-63.371	-44.642	-147.833	-143.625	-143.253	-138.458	-94.441	-138.979	-8191	255	
8011.493	1	1	0	0	0.13044	0.13511	0.14986	0.1765	0.26211	0.19812	0.30846	0.15682	0.21831	0.17622	0.037888	0.30765	0.33249	0.18805	0.32859	0.080885	-2.6542	-3.2146	-2.9021	-3.4042	-3.1937	-2.8812	-3.5229	-3.2292	-2.9896	-3.2	-3.0229	-3.2021	-3.2938	-2.9188	-3.2687	-3.0333	-112.973	21.144	-116.358	176.927	104.018	-134.427	138.294	127.235	-79.025	-21.309	151.717	160.844	-133.047	22.867	111.689	13.934	0.0010632	0.00050584	9.2539e-05	1669.4	4.2885e-06	3.5961e-06	1636.1	425.48	2.5604e-06	2.6691e-06	477.74	160.39	142.23	48.668	2.6336e-06	58.613	0.00013122	0.00011081	3.1987e-05	1619.7	1.3036e-06	1.2366e-06	1574	404.45	1.3295e-06	1.178e-06	446.18	150.62	133.58	45.643	1.2905e-06	54.835	-0.855	-87.831	-107.231	-151.918	-6.862	-46.661	-152.220	-147.461	-49.131	-57.589	-147.843	-143.702	-143.040	-138.604	-106.042	-139.414	-8191	255	
8011.589	1	1	0	0	0.16401	0.11015	0.22086	0.42134	0.043173	0.10752	0.54247	0.14808	0.13735	0.11117	0.29121	0.2784	0.19986	0.019712	0.037746	0.13458	-2.4333	-3.2938	-2.8438	-3.275	-3.0896	-2.8438	-3.4521	-3.1875	-2.9958	-3.2062	-3.25	-3.1479	-3.3833	-2.9688	-3.1562	-3.2271	138.758	145.357	86.678	152.272	-48.632	-137.611	138.933	134.800	-55.049	167.391	188.657	-148.888	-38.347	152.141	-137.580	106.905	0.0010573	0.00029247	0.00011269	1669.8	2.2664e-06	2.3113e-06	1628.7	426.11	5.0873e-06	3.4718e-06	476.42	160.57	142.03	48.542	3.3226e-06	58.827	0.00012692	0.00010854	3.3884e-05	1617.3	1.2567e-06	1.2147e-06	1574.3	404.58	1.2912e-06	1.1845e-06	447.18	150.58	133.47	45.551	1.3702e-06	54.826	-3.097	-111.567	-119.444	-151.964	-44.766	-49.918	-152.253	-147.366	-41.567	-8.307	-147.850	-143.446	-143.158	-138.465	-46.991	-139.278	-8191	255	
8011.710	1	1	0	0	0.32744	0.17646	0.16867	0.43794	0.064408	0.24879	0.12441	0.055426	0.17434	0.06901	0.2316	0.23772	0.25907	0.22558	0.33031	0.12683	-2.4667	-3.2271	-3.1792	-3.0979	-3.225	-2.9188	-3.25	-3.1708	-2.75	-3.2313	-3.1729	-3.1354	-3.5917	-2.8937	-3.1354	-3.4042	9.860	-137.754	116.997	181.861	-20.012	127.334	125.654	-118.740	126.346	56.177	107.281	165.742	152.201	22.414	84.763	87.733	0.0011293	0.00028274	3.7041e-05	1673.9	2.7058e-06	2.6932e-06	1635.8	425.63	5.1249e-06	7.3491e-07	475.16	161.1	142.4	48.438	3.7592e-06	58.74	0.00012549	0.00010813	3.5788e-05	1619.5	1.2285e-06	1.2286e-06	1577.1	403.64	1.2507e-06	1.212e-06	447.55	150.45	133.41	45.56	1.4397e-06	54.831	7.651	-92.543	77.121	-151.993	-36.913	-19.439	-152.113	-147.386	-86.839	-5.770	-147.776	-143.813	-143.102	-138.380	-76.828	-139.147	-8191	255	
8011.806	1	1	0	0	0.075051	0.11677	0.066966	0.19417	0.15362	0.15596	0.29681	0.29706	0.13047	0.14894	0.084105	0.1781	0.21046	0.2296	0.073712	0.21386	-2.3896	-3.1771	-2.7792	-3.1833	-3.3542	-2.9042	-3.4333	-3.3354	-2.9688	-3.3271	-3.1063	-3.1104	-3.2542	-2.9146	-3.35	-3.3875	-12.156	-39.606	12.735	163.424	22.214	76.388	173.783	-162.830	25.453	121.435	156.663	-151.567	79.602	-133.073	68.230	134.500	0.00097077	0.00021764	0.00019714	1670	5.6927e-06	1.7277e-06	1631	426	5.4975e-06	3.0129e-06	476.98	160.66	142.4	48.526	1.7355e-06	58.638	0.00012209	0.00011441	3.6185e-05	1617.3	1.1953e-06	1.2824e-06	1575.2	403.58	1.2237e-06	1.2835e-06	447.32	150.38	133.46	45.656	1.4123e-06	54.658	2.449	-138.110	-137.532	-151.934	-60.181	-48.099	-152.146	-147.334	-99.349	-64.997	-148.057	-143.817	-143.000	-138.434	-71.067	-139.257	-8191	255	
8011.902	1	1	0	0	0.35626	0.29608	0.042797	0.3375	0.10238	0.13879	0.42017	0.031506	0.030662	0.25741	0.088	0.099275	0.27589	0.24237	0.24929	0.13775	-2.3438	-3.0062	-3.1	-3.0021	-3.1979	-2.9583	-3.2208	-3.3292	-2.6354	-3.3729	-3.2479	-2.8833	-3.4604	-3.0542	-3.1021	-3.3229	62.711	7.638	133.086	150.899	-18.827	45.392	143.832	107.999	8.819	96.126	109.177	153.353	159.590	191.431	86.714	-161.965	0.0010699	0.00017244	0.00019534	1663.1	2.4731e-06	2.1724e-06	1628.1	427.07	5.4837e-06	2.0323e-06	476.61	160.43	142.59	48.537	3.8236e-06	58.771	0.00011797	0.00012173	3.4809e-05	1614	1.1762e-06	1.3636e-06	1573	403.25	1.2224e-06	1.372e-06	447.42	150.02	133.51	45.688	1.3448e-06	54.626	3.027	-123.498	-83.735	-152.053	-52.419	-17.150	-151.935	-147.395	-121.988	-134.292	-147.948	-143.556	-143.217	-138.250	-49.072	-139.303	-8191	255	
8011.998	1	1	0	0	0.13572	0.16529	0.1598	0.3708	0.11645	0.18563	0.39439	0.1604	0.14659	0.15333	0.25068	0.080311	0.24696	0.15222	0.10873	0.15039	-2.3729	-3.2583	-3.1021	-2.9896	-3.4	-3.1375	-3.1292	-3.4458	-2.9833	-3.2625	-3.2667	-2.8854	-3.2208	-3.1188	-2.9688	-3.3021	29.301	159.905	-52.468	-161.917	-81.446	131.388	120.981	95.211	80.622	125.256	144.423	142.690	193.390	163.609	-0.617	-21.837	0.0012206	0.00034383	0.00016988	1665.7	3.2883e-06	3.4001e-06	1627.1	426.03	3.7102e-06	5.6155e-06	475.59	160.08	142.31	48.372	3.4052e-06	58.673	0.00012114	0.00012899	3.3451e-05	1613.4	1.2227e-06	1.4329e-06	1572	403	1.266e-06	1.4161e-06	446.45	149.96	133.37	45.671	1.2882e-06	54.551	-0.517	-60.715	-102.555	-151.870	-61.754	16.127	-152.146	-147.589	-117.602	-62.861	-147.990	-143.629	-143.134	-138.221	-16.235	-139.130	-8191	255	
#DATA ENDS
