BOXY.EXE: ISS Imagent and Oximeter Data Acquisition Program Version 0.80
Ascii Record File

#ACQ INFORMATION
2  Detector Channels 
16  External MUX Channels 
1  Auxiliary Channels 
5000  Waveform (CCF) Frequency (Hz)
1  Waveforms Skipped 
30  Waveforms Averaged 
1  Cycles Averaged 
16  Acquisitions per Waveform 
10.0806  Updata Rate (Hz) 

#FILE INFORMATION
TRUE -- External MUX Channel results are PARSED.
FALSE -- AC DC and Phase are NOT grouped.
TRUE -- Companion Program Settings File CREATED.
FALSE -- AC data not excluded
FALSE -- DC data not excluded
FALSE -- Phase data not excluded
FALSE -- Auxillary Chn. data not excluded
Tab delimiters

#CALIBRATION STATE
TRUE -- Waveform Calibration Values APPLIED.


#AUX CALIBRATION VALUES
Val Type	aux-1	

Term	1.0000e+00	
Factor	0.0000e+00	


#WF CALIBRATION VALUES
A = Detector Channel
Val Type	A-AC1	A-AC2	A-AC3	A-AC4	A-AC5	A-AC6	A-AC7	A-AC8	A-AC9	A-AC10	A-AC11	A-AC12	A-AC13	A-AC14	A-AC15	A-AC16	A-DC1	A-DC2	A-DC3	A-DC4	A-DC5	A-DC6	A-DC7	A-DC8	A-DC9	A-DC10	A-DC11	A-DC12	A-DC13	A-DC14	A-DC15	A-DC16	A-Ph1	A-Ph2	A-Ph3	A-Ph4	A-Ph5	A-Ph6	A-Ph7	A-Ph8	A-Ph9	A-Ph10	A-Ph11	A-Ph12	A-Ph13	A-Ph14	A-Ph15	A-Ph16	

Term	0.00000e+00	0.00000e+00	0.00000e+00	0.00000e+00	0.00000e+00	0.00000e+00	0.00000e+00	0.00000e+00	0.00000e+00	0.00000e+00	0.00000e+00	0.00000e+00	0.00000e+00	0.00000e+00	0.00000e+00	0.00000e+00	0.00000e+00	0.00000e+00	0.00000e+00	0.00000e+00	0.00000e+00	0.00000e+00	0.00000e+00	0.00000e+00	0.00000e+00	0.00000e+00	0.00000e+00	0.00000e+00	0.00000e+00	0.00000e+00	0.00000e+00	0.00000e+00	0.00000e+00	0.00000e+00	0.00000e+00	0.00000e+00	0.00000e+00	0.00000e+00	0.00000e+00	0.00000e+00	0.00000e+00	0.00000e+00	0.00000e+00	0.00000e+00	0.00000e+00	0.00000e+00	0.00000e+00	0.00000e+00	
Factor	1.00000e+00	1.00000e+00	1.00000e+00	1.00000e+00	1.00000e+00	1.00000e+00	1.00000e+00	1.00000e+00	1.00000e+00	1.00000e+00	1.00000e+00	1.00000e+00	1.00000e+00	1.00000e+00	1.00000e+00	1.00000e+00	1.00000e+00	1.00000e+00	1.00000e+00	1.00000e+00	1.00000e+00	1.00000e+00	1.00000e+00	1.00000e+00	1.00000e+00	1.00000e+00	1.00000e+00	1.00000e+00	1.00000e+00	1.00000e+00	1.00000e+00	1.00000e+00	X	X	X	X	X	X	X	X	X	X	X	X	X	X	X	X	

B = Detector Channel
Val Type	B-AC1	B-AC2	B-AC3	B-AC4	B-AC5	B-AC6	B-AC7	B-AC8	B-AC9	B-AC10	B-AC11	B-AC12	B-AC13	B-AC14	B-AC15	B-AC16	B-DC1	B-DC2	B-DC3	B-DC4	B-DC5	B-DC6	B-DC7	B-DC8	B-DC9	B-DC10	B-DC11	B-DC12	B-DC13	B-DC14	B-DC15	B-DC16	B-Ph1	B-Ph2	B-Ph3	B-Ph4	B-Ph5	B-Ph6	B-Ph7	B-Ph8	B-Ph9	B-Ph10	B-Ph11	B-Ph12	B-Ph13	B-Ph14	B-Ph15	B-Ph16	

Term	0.00000e+00	0.00000e+00	0.00000e+00	0.00000e+00	0.00000e+00	0.00000e+00	0.00000e+00	0.00000e+00	0.00000e+00	0.00000e+00	0.00000e+00	0.00000e+00	0.00000e+00	0.00000e+00	0.00000e+00	0.00000e+00	0.00000e+00	0.00000e+00	0.00000e+00	0.00000e+00	0.00000e+00	0.00000e+00	0.00000e+00	0.00000e+00	0.00000e+00	0.00000e+00	0.00000e+00	0.00000e+00	0.00000e+00	0.00000e+00	0.00000e+00	0.00000e+00	-2.04314e+02	-1.42203e+02	-1.28168e+02	-1.83188e+02	-8.07192e+01	-9.55538e+01	-1.57235e+02	-1.62015e+02	-9.38696e+01	-7.87754e+01	-1.72586e+02	-1.73078e+02	-1.80462e+02	-1.78286e+02	-1.03677e+02	-1.51187e+02	
Factor	5.12228e-05	5.56067e-05	1.88345e-05	1.95333e-01	6.11813e-07	6.20629e-07	2.43410e-01	8.63391e-02	5.78950e-07	5.10576e-07	1.23214e-01	4.08652e-02	3.29490e-02	1.20693e-02	4.99769e-07	1.77148e-02	2.19044e-07	2.19549e-07	6.10483e-08	8.04949e-02	2.40446e-09	2.40050e-09	9.18355e-02	3.25942e-02	2.40413e-09	2.39780e-09	4.31712e-02	1.43532e-02	1.21673e-02	4.38651e-03	2.40139e-09	6.00466e-03	X	X	X	X	X	X	X	X	X	X	X	X	X	X	X	X	



#DISTANCE SETTINGS
A = Detector Channel
A-1	A-2	A-3	A-4	A-5	A-6	A-7	A-8	A-9	A-10	A-11	A-12	A-13	A-14	A-15	A-16	

2.5000e+00	3.0000e+00	2.5000e+00	3.0000e+00	2.0000e+00	3.0000e+00	1.5000e+00	3.0000e+00	3.0000e+00	3.0000e+00	3.0000e+00	3.0000e+00	3.0000e+00	3.0000e+00	1.5000e+00	3.0000e+00	

B = Detector Channel
B-1	B-2	B-3	B-4	B-5	B-6	B-7	B-8	B-9	B-10	B-11	B-12	B-13	B-14	B-15	B-16	

1.0000e+01	1.0000e+01	1.0000e+01	1.4400e+00	1.0000e+01	1.0000e+01	1.5100e+00	1.9400e+00	1.0000e+01	1.0000e+01	1.9900e+00	2.4900e+00	2.4100e+00	2.9000e+00	1.0000e+01	2.9800e+00	




#DATA BEGINS
time	group	step	mark	flag	A-AC1	A-AC2	A-AC3	A-AC4	A-AC5	A-AC6	A-AC7	A-AC8	A-AC9	A-AC10	A-AC11	A-AC12	A-AC13	A-AC14	A-AC15	A-AC16	A-DC1	A-DC2	A-DC3	A-DC4	A-DC5	A-DC6	A-DC7	A-DC8	A-DC9	A-DC10	A-DC11	A-DC12	A-DC13	A-DC14	A-DC15	A-DC16	A-Ph1	A-Ph2	A-Ph3	A-Ph4	A-Ph5	A-Ph6	A-Ph7	A-Ph8	A-Ph9	A-Ph10	A-Ph11	A-Ph12	A-Ph13	A-Ph14	A-Ph15	A-Ph16	B-AC1	B-AC2	B-AC3	B-AC4	B-AC5	B-AC6	B-AC7	B-AC8	B-AC9	B-AC10	B-AC11	B-AC12	B-AC13	B-AC14	B-AC15	B-AC16	B-DC1	B-DC2	B-DC3	B-DC4	B-DC5	B-DC6	B-DC7	B-DC8	B-DC9	B-DC10	B-DC11	B-DC12	B-DC13	B-DC14	B-DC15	B-DC16	B-Ph1	B-Ph2	B-Ph3	B-Ph4	B-Ph5	B-Ph6	B-Ph7	B-Ph8	B-Ph9	B-Ph10	B-Ph11	B-Ph12	B-Ph13	B-Ph14	B-Ph15	B-Ph16	aux-1	digaux	

4154.606	1	1	0	256	0.012344	0.093065	0.2152	0.15587	0.16984	0.20649	0.117	0.10097	0.14299	0.088551	0.066061	0.17768	0.1135	0.10076	0.06631	0.27941	-3.2167	-3.6229	-4.0021	-3.1708	-3.6854	-3.6042	-3.1146	-4.1	-3.5104	-3.7625	-3.9875	-3.2625	-3.8542	-3.7979	-3.3521	-3.9542	525.954	522.301	206.615	464.977	202.854	440.344	268.003	353.010	427.705	278.717	504.549	422.934	365.723	452.216	506.319	437.599	0.00077312	0.00012547	4.8312e-05	574.8	2.1891e-06	2.0035e-06	557.36	220.75	2.6634e-06	8.268e-07	195.13	84.937	101.54	43.71	1.0267e-06	37.034	6.3129e-05	6.2873e-05	1.6085e-05	509.24	6.6848e-07	6.8366e-07	484.35	180.43	6.8784e-07	6.758e-07	155.7	66.754	80.552	34.409	6.2401e-07	28.132	475.108	215.638	378.993	186.863	271.695	303.452	183.600	192.649	218.113	408.664	188.209	191.950	197.376	202.268	297.025	196.020	-8191	255	
4154.702	1	1	0	0	0.036977	0.12369	0.24511	0.20559	0.20917	0.10147	0.14904	0.12339	0.19063	0.088406	0.15292	0.10996	0.35504	0.20547	0.004187	0.032657	-3.1437	-3.3396	-3.8937	-3.4917	-3.6562	-3.7146	-3.3312	-3.9125	-3.6417	-3.4771	-4.0167	-3.3958	-3.7062	-3.7375	-3.225	-3.8208	512.910	534.200	479.674	206.457	450.323	363.793	425.713	433.240	406.184	252.065	367.469	452.796	478.958	524.092	251.286	463.358	0.00099317	0.00012884	4.698e-05	579.2	1.8318e-06	1.5631e-06	559.7	219.01	7.1257e-07	1.6594e-06	194.33	84.329	101.43	43.808	1.0267e-06	36.861	6.6206e-05	6.1392e-05	1.5645e-05	511.39	7.0468e-07	6.6661e-07	485.54	180.61	7.2042e-07	6.6283e-07	154.94	66.392	80.583	34.328	6.2072e-07	28.173	484.009	234.872	292.916	186.632	224.566	308.527	183.503	192.845	208.930	332.642	188.455	191.807	197.236	202.519	241.484	195.837	-8191	255	
4154.798	1	1	0	0	0.085648	0.10484	0.35098	0.17891	0.15201	0.13148	0.22568	0.16624	0.084769	0.12906	0.031973	0.12578	0.13691	0.027592	0.076455	0.30444	-3.2687	-3.2833	-3.9625	-3.4479	-3.6354	-3.8563	-3.175	-3.7208	-3.6271	-3.2417	-4.0229	-3.5229	-3.4437	-4.1625	-3.2375	-3.8354	210.013	227.677	366.227	515.579	220.099	517.987	178.445	523.202	487.325	251.880	409.136	278.204	215.304	503.885	436.000	381.628	0.00073143	0.00021819	6.7985e-05	580.16	1.6266e-06	1.5357e-06	562.65	220.67	2.2441e-06	2.268e-06	193.78	84.095	101.85	44.049	1.2787e-06	37.113	6.7778e-05	6.0432e-05	1.5435e-05	513.74	7.115e-07	6.4395e-07	485.67	181.74	7.0207e-07	6.3848e-07	154.85	66.738	80.601	34.432	5.9457e-07	28.441	477.959	268.439	315.895	186.866	223.680	309.928	183.474	192.884	298.421	324.956	188.498	191.350	197.333	202.269	292.581	195.708	-8191	255	
4154.895	1	1	0	0	0.26285	0.038581	0.089363	0.24409	0.15506	0.12923	0.16565	0.10242	0.063837	0.052073	0.23229	0.12434	0.13526	0.0826	0.34754	0.11331	-3.1771	-3.2917	-3.8167	-3.3875	-3.6146	-3.9625	-3.225	-3.8563	-3.6208	-3.2417	-4.0021	-3.6146	-3.575	-4.0563	-3.3063	-3.7708	415.003	276.967	530.771	193.656	355.077	533.403	209.888	244.218	306.481	324.905	444.887	362.713	397.331	403.342	375.971	492.531	0.00082352	0.0001205	6.2779e-05	577.82	2.6484e-06	2.1564e-06	562.25	221.15	1.298e-06	5.6744e-07	195.48	85.322	102.29	44.341	1.9245e-06	37.513	6.4018e-05	5.6763e-05	1.4612e-05	514.34	6.5534e-07	6.1004e-07	484.42	182.42	6.625e-07	6.0649e-07	155.74	67.519	80.874	34.545	5.9814e-07	28.733	485.405	228.849	211.200	186.770	363.491	324.007	183.254	192.779	255.980	510.492	188.545	191.941	197.604	202.326	215.671	195.875	-8191	255	
4155.015	1	1	0	0	0.088614	0.27353	0.13329	0.20242	0.17913	0.016963	0.29831	0.036298	0.11562	0.1502	0.34924	0.097512	0.22019	0.053911	0.16555	0.04635	-3.4313	-3.3542	-3.8958	-3.6312	-3.3063	-3.9833	-3.3521	-3.6688	-3.7896	-3.3375	-3.8708	-3.65	-3.4062	-3.8979	-3.4229	-3.7646	330.030	322.603	526.831	511.708	456.834	245.015	477.925	446.321	304.056	322.232	248.599	312.268	176.066	403.716	466.123	182.952	0.00078715	7.8384e-05	2.0472e-05	578.46	3.4392e-07	5.6654e-07	562.83	221.55	7.386e-07	2.6825e-06	196.7	85.857	102.48	44.519	1.0223e-06	37.587	6.0679e-05	5.3805e-05	1.4895e-05	515.4	6.2256e-07	5.7716e-07	487.09	183.21	6.2065e-07	5.7871e-07	156.54	67.898	81.134	34.666	6.3042e-07	28.846	485.700	319.157	297.757	186.856	280.378	276.276	183.349	192.806	339.419	339.676	188.289	191.592	197.382	202.370	284.521	195.500	-8191	255	
4155.110	1	1	0	0	0.086761	0.26165	0.10993	0.15863	0.097796	0.12617	0.14963	0.11303	0.26377	0.16967	0.32341	0.17901	0.24002	0.30734	0.045579	0.20144	-3.2562	-3.1875	-3.625	-3.7417	-3.3729	-3.9104	-3.4396	-3.675	-3.625	-3.2313	-3.9167	-3.6521	-3.3396	-3.8458	-3.4833	-3.5167	196.144	177.335	338.917	435.729	511.012	445.931	413.054	477.919	177.353	390.716	253.086	175.547	345.781	518.522	404.250	275.831	0.0007465	0.00010913	4.8262e-05	581.51	1.3005e-06	1.4725e-06	566.76	223.64	1.1441e-07	1.4214e-06	194.69	85.296	103.28	44.501	1.0349e-06	37.453	6.054e-05	5.5129e-05	1.6837e-05	519.08	6.4631e-07	5.9586e-07	493.46	184.08	6.3923e-07	6.0564e-07	157.68	67.805	81.671	34.778	7.0937e-07	28.799	476.100	281.716	255.620	186.701	359.746	253.911	183.432	192.538	302.266	302.712	188.625	191.817	197.281	202.070	199.924	195.709	-8191	255	
4155.206	1	1	0	0	0.12422	0.22792	0.26366	0.098449	0.26958	0.13164	0.24448	0.0442	0.083992	0.12199	0.13518	0.044394	0.25424	0.3088	0.043085	0.091583	-3.5687	-3.2354	-3.6813	-3.7417	-3.2708	-4.1125	-3.5479	-3.3771	-3.9375	-3.3021	-3.8667	-3.6188	-3.3229	-3.9604	-3.5438	-3.5938	440.224	421.134	350.916	347.001	485.736	525.109	518.089	355.756	341.619	295.957	183.876	220.856	415.493	513.135	213.006	481.558	0.00072365	7.3324e-05	8.2336e-05	585.4	1.4795e-06	1.706e-06	566.38	222.88	1.2189e-06	1.4989e-06	196.12	85.792	103.83	44.576	1.3499e-06	38.007	6.1299e-05	5.6968e-05	1.804e-05	521.14	6.4291e-07	6.1949e-07	496.87	183.85	6.4193e-07	6.4126e-07	159.08	67.973	81.931	34.985	7.5182e-07	28.998	478.787	222.214	206.395	186.837	346.938	408.599	183.389	192.726	419.912	285.283	188.045	191.726	197.536	202.153	512.602	195.962	-8191	255	
4155.277	1	1	0	0	0.067005	0.37888	0.16794	0.11897	0.069382	0.14137	0.11242	0.08555	0.037414	0.28327	0.15686	0.18817	0.1362	0.15293	0.056066	0.15035	-3.55	-3.2896	-3.5521	-3.8917	-3.1667	-3.8604	-3.6063	-3.3729	-4.0708	-3.1458	-3.7938	-3.8708	-3.4188	-3.7438	-3.6583	-3.4167	404.961	339.985	510.936	413.454	446.496	250.413	385.570	339.511	381.462	286.043	360.390	289.615	348.332	471.165	337.621	476.441	0.00065981	1.6828e-05	6.3409e-05	585.51	8.3522e-07	1.8723e-06	571.23	224.02	3.7342e-07	1.6198e-06	197.96	87.237	104.27	44.981	1.9795e-06	38.42	6.1489e-05	6.1518e-05	1.9174e-05	522.12	6.5342e-07	6.8143e-07	500.2	184.7	6.4584e-07	6.9221e-07	160.56	68.901	82.601	35.332	7.4444e-07	29.228	480.888	531.275	499.226	186.576	270.224	315.822	183.507	193.120	423.925	347.329	188.288	191.708	196.984	201.982	290.370	195.924	-8191	255	
4155.375	1	1	0	0	0.13078	0.13461	0.23192	0.038039	0.31849	0.074783	0.19778	0.20753	0.20016	0.107	0.17565	0.15322	0.11259	0.26272	0.077427	0.2099	-3.5354	-3.4188	-3.3917	-3.9208	-3.3708	-3.6813	-3.6417	-3.2229	-3.9562	-3.4542	-3.4938	-3.9917	-3.2313	-3.8958	-3.8375	-3.2021	321.204	398.595	423.084	345.299	314.708	533.640	502.297	214.899	357.817	373.926	473.634	472.236	292.796	452.901	403.058	519.912	0.00073884	7.8324e-05	1.5677e-05	586.6	1.0457e-06	2.4007e-06	575.06	224.81	2.3655e-06	1.0838e-06	199.16	88.645	106.16	45.584	1.0275e-06	38.566	6.0608e-05	6.5678e-05	1.8724e-05	522.68	6.3872e-07	7.2348e-07	501.93	185.51	6.4866e-07	7.4779e-07	161.36	70.018	83.919	35.909	7.5508e-07	29.561	476.469	234.294	347.556	186.528	296.511	267.174	183.406	192.645	265.005	258.567	188.566	191.817	197.149	202.225	310.878	195.554	-8191	255	
4155.494	1	1	0	0	0.094389	0.0072721	0.21404	0.062284	0.050861	0.047974	0.27894	0.16369	0.070124	0.088012	0.19526	0.10362	0.06731	0.19143	0.18613	0.13629	-3.5542	-3.5896	-3.3563	-4.0437	-3.3563	-3.6479	-3.8688	-3.1771	-4.0625	-3.5187	-3.4562	-3.7958	-3.5938	-3.7521	-3.825	-3.4646	346.636	393.916	515.910	496.206	307.519	510.569	435.754	429.517	461.223	346.880	227.280	299.134	507.047	203.657	329.842	420.473	0.00077337	0.00020834	7.1311e-05	593.04	2.7999e-06	2.4529e-07	577.53	225.45	1.0155e-06	1.0504e-06	199.97	89.14	106.58	45.356	1.174e-06	38.422	6.404e-05	7.2382e-05	1.9205e-05	525.89	6.981e-07	8.0001e-07	504.29	186.24	6.9791e-07	7.9898e-07	161.17	70.365	84.682	35.828	7.2061e-07	29.317	475.214	234.037	256.724	186.832	255.868	250.318	183.541	192.851	206.162	394.091	188.480	191.626	197.254	201.978	337.365	195.500	-8191	255	
4155.590	1	1	0	0	0.051911	0.20289	0.071936	0.16409	0.047511	0.15847	0.12522	0.19737	0.15593	0.14906	0.035121	0.10408	0.081605	0.21314	0.25004	0.35327	-3.3167	-3.5958	-3.3521	-4.0875	-3.4625	-3.5104	-3.8688	-3.2146	-3.6542	-3.6667	-3.3396	-3.9688	-3.5229	-3.4979	-3.8208	-3.4125	231.679	219.451	341.917	252.904	502.367	478.100	292.279	195.745	175.630	408.953	482.521	428.312	462.861	477.372	337.797	422.183	0.00082165	3.8632e-05	6.0059e-05	594.22	1.4496e-06	1.5113e-06	579.89	226.72	2.1107e-06	4.6579e-07	199.06	89.247	107.49	45.138	9.5424e-07	38.299	6.7006e-05	7.2072e-05	1.8188e-05	527.82	7.284e-07	7.8289e-07	503.63	185.95	7.3223e-07	7.7193e-07	161.28	70.555	85.244	35.614	6.9469e-07	29.217	470.534	408.188	236.102	186.625	243.945	319.049	183.567	192.872	256.111	392.666	188.439	191.742	197.183	202.018	414.693	195.656	-8191	255	
4155.687	1	1	0	0	0.066894	0.21083	0.093939	0.19825	0.073454	0.01924	0.11073	0.19906	0.12675	0.059414	0.2253	0.061458	0.022628	0.11144	0.25925	0.095384	-3.3271	-3.6375	-3.1896	-3.8917	-3.5583	-3.4125	-4.1271	-3.25	-3.7229	-3.7812	-3.1833	-3.7396	-3.6083	-3.6292	-3.7958	-3.5896	206.201	453.257	315.185	472.055	257.033	372.397	369.044	427.007	205.889	438.212	393.869	531.079	271.098	459.463	323.240	525.292	0.00082782	0.00026349	5.3783e-05	594.08	4.4021e-07	2.283e-06	574.84	223.39	1.069e-06	1.5849e-06	199	89.537	107.18	45.334	8.0987e-07	38.828	6.9376e-05	6.7318e-05	1.7154e-05	525.73	7.4051e-07	7.1858e-07	500.51	184.68	7.4249e-07	7.2266e-07	159.57	70.5	85.084	35.585	6.7218e-07	29.438	471.622	247.260	326.324	186.584	493.567	327.504	183.645	192.479	231.685	358.322	188.520	191.395	197.183	201.931	251.311	195.408	-8191	255	
4155.807	1	1	0	0	0.10244	0.08452	0.13373	0.089755	0.21589	0.10877	0.30809	0.01976	0.28014	0.16875	0.17377	0.19922	0.2097	0.55249	0.093359	0.14585	-3.2146	-3.7313	-3.2021	-3.9771	-3.6937	-3.4271	-3.9417	-3.4375	-3.5521	-3.8667	-3.3375	-3.8375	-3.5292	-3.45	-4.0021	-3.3521	261.615	381.060	496.499	387.201	208.598	193.101	480.655	183.787	435.632	186.548	425.659	232.772	478.677	465.805	498.441	254.439	0.0010082	0.0001615	3.0574e-05	593.31	1.7985e-06	1.1551e-06	574.06	225.28	3.7527e-07	8.4016e-07	198.01	89.096	106.81	45.176	1.3895e-06	38.575	7.2511e-05	6.5964e-05	1.702e-05	528.6	7.8173e-07	7.1113e-07	499.43	185.46	7.5822e-07	6.9398e-07	158.99	70.396	84.645	35.451	6.3909e-07	29.397	478.527	298.257	189.009	186.670	315.929	267.094	183.380	192.852	362.309	315.564	188.366	191.936	197.304	202.151	301.202	195.760	-8191	255	
4155.879	1	1	0	0	0.30206	0.15074	0.069064	0.24863	0.25993	0.22432	0.064765	0.078606	0.14042	0.27122	0.18439	0.18369	0.21462	0.1455	0.24791	0.12053	-3.25	-4.0354	-3.1979	-3.8563	-3.5979	-3.3083	-4.0625	-3.4729	-3.5021	-3.8667	-3.35	-3.7604	-3.625	-3.2854	-3.8979	-3.4854	448.019	218.858	215.892	336.156	289.703	484.740	406.690	431.250	211.239	447.264	284.420	508.894	523.327	328.811	329.582	525.226	0.00086406	0.00023339	4.8182e-06	592.32	1.8112e-06	1.1145e-06	572.3	223.72	1.923e-06	1.4836e-06	198.09	88.568	106.27	45.011	1.3593e-06	38.072	7.0693e-05	6.2586e-05	1.6251e-05	527.54	7.5331e-07	6.918e-07	496.91	185.35	7.5088e-07	6.8766e-07	158.63	70.383	84.396	35.347	6.498e-07	29.268	489.432	216.173	366.554	186.512	272.426	302.902	183.466	192.628	295.882	342.368	188.361	191.908	196.973	201.981	269.188	195.220	-8191	255	
4155.975	1	1	0	0	0.15438	0.10345	0.21205	0.13927	0.1713	0.20312	0.07861	0.25282	0.078952	0.055205	0.036544	0.15782	0.12089	0.11308	0.27621	0.09388	-3.0583	-3.9333	-3.2271	-3.7188	-3.825	-3.1958	-3.825	-3.5563	-3.4167	-3.8104	-3.225	-3.7167	-3.7083	-3.4292	-3.925	-3.6854	440.192	223.729	417.853	455.275	273.039	343.461	323.643	463.932	482.346	496.661	302.050	327.247	220.399	482.858	302.744	335.779	0.0007097	0.00010199	3.5948e-05	592.05	3.1713e-06	1.9308e-07	571.08	224.02	4.614e-07	1.5897e-06	197.14	88.842	106.33	44.972	1.8058e-06	38.25	6.9126e-05	6.2056e-05	1.6649e-05	529.25	7.3549e-07	6.7441e-07	498.64	185.66	7.2506e-07	6.7108e-07	158.69	70.649	84.448	35.364	6.9072e-07	29.45	478.325	306.510	502.715	186.703	374.380	264.423	183.472	192.572	268.486	331.469	188.333	191.751	197.123	201.973	218.865	195.256	-8191	255	
4156.096	1	1	0	0	0.18474	0.072361	0.084457	0.23462	0.09206	0.163	0.1392	0.10813	0.10947	0.0958	0.17838	0.26176	0.17916	0.11045	0.13292	0.18752	-3.0187	-3.9333	-3.2604	-3.675	-3.9271	-3.3625	-3.9542	-3.6271	-3.4958	-3.7812	-3.3604	-3.5271	-3.8229	-3.2521	-3.8479	-3.7604	377.476	191.069	461.484	212.381	528.799	387.621	413.624	467.932	328.969	431.332	201.476	502.375	227.319	352.066	181.183	473.024	0.00077838	0.00023045	8.0975e-05	594.97	1.2402e-06	6.7436e-07	576.22	224.3	2.9343e-06	2.919e-06	197.91	88.849	106.51	45.049	6.6627e-07	38.162	6.7969e-05	6.1408e-05	1.7907e-05	531.41	7.2205e-07	6.6479e-07	501.28	186.47	7.0903e-07	6.5163e-07	160.28	70.979	84.546	35.362	7.2955e-07	29.546	492.349	211.938	283.258	186.871	357.351	364.176	183.589	192.710	303.085	342.679	188.115	191.902	197.214	202.018	218.439	195.607	-8191	255	
4156.190	1	1	0	0	0.11651	0.038638	0.28665	0.063811	0.4052	0.21675	0.082672	0.14391	0.2097	0.1728	0.15881	0.162	0.091737	0.061147	0.1548	0.095778	-2.9292	-3.8146	-3.4604	-3.6333	-3.8042	-3.275	-3.7771	-3.7104	-3.2542	-3.9437	-3.275	-3.5917	-4.025	-3.4458	-3.7208	-3.8271	417.041	232.287	365.629	226.892	317.892	395.404	472.995	224.548	265.902	207.144	466.926	278.864	482.654	439.208	482.825	342.914	0.00073657	8.7092e-05	4.4279e-05	590.36	1.5695e-06	1.4329e-06	577.45	224.57	2.8909e-06	2.1129e-07	199.6	89.597	106.62	45.241	1.8454e-06	38.465	6.5924e-05	6.0062e-05	1.8914e-05	529.37	6.9729e-07	6.5502e-07	503.22	185.94	6.9556e-07	6.51e-07	161.29	71.017	84.382	35.395	7.5481e-07	29.407	476.794	177.532	194.271	186.823	309.081	263.775	183.644	192.796	254.953	264.255	188.444	191.645	197.298	202.098	211.301	195.558	-8191	255	
4156.286	1	1	0	0	0.21094	0.060357	0.10679	0.21415	0.14223	0.083717	0.10675	0.24837	0.10779	0.12346	0.10003	0.12349	0.17706	0.18668	0.15318	0.22795	-2.9688	-3.9042	-3.4938	-3.45	-3.8917	-3.4313	-3.8292	-3.9375	-3.2896	-3.8667	-3.6146	-3.4271	-3.7896	-3.4542	-3.5354	-3.9521	259.454	200.611	400.453	503.044	194.484	219.885	258.048	348.083	190.363	419.218	533.569	359.428	410.430	509.792	368.801	268.713	0.00068909	0.00016103	2.6514e-05	591.6	2.9129e-07	1.4181e-06	571.46	224.07	7.6364e-07	1.9248e-06	196.94	87.871	105.74	44.845	2.2642e-06	37.791	6.4457e-05	6.0408e-05	1.9406e-05	526.71	6.7161e-07	6.7306e-07	500.65	184.54	6.7006e-07	6.793e-07	160.06	69.913	83.712	35.179	7.7071e-07	28.999	480.113	513.753	306.877	186.771	293.471	293.355	183.485	192.821	293.567	278.922	188.020	191.518	197.165	202.041	310.204	195.728	-8191	255	
4156.407	1	1	0	0	0.032322	0.20421	0.11478	0.16317	0.011717	0.21659	0.18564	0.14856	0.18661	0.20023	0.10634	0.30882	0.32541	0.16771	0.18655	0.068082	-2.9125	-3.9271	-3.7646	-3.275	-3.9792	-3.4458	-3.65	-3.8312	-3.2229	-3.9271	-3.7208	-3.2646	-4.0646	-3.3208	-3.5708	-3.8688	319.881	362.884	381.999	494.356	226.806	507.910	380.433	308.912	317.988	387.946	533.133	220.964	496.722	200.434	221.028	212.164	0.00076897	0.00026439	6.1511e-05	590.18	3.0251e-07	1.2965e-06	571.93	222.63	9.0072e-07	7.9342e-07	194.61	88.289	105.5	44.636	1.3221e-06	37.712	6.2363e-05	6.4568e-05	1.9754e-05	526.05	6.5897e-07	7.2264e-07	500.6	184.08	6.6208e-07	7.305e-07	159.58	69.543	83.195	35.119	7.4411e-07	28.92	478.164	277.303	224.586	186.669	530.073	249.132	183.531	192.831	319.514	359.119	188.491	191.815	197.301	201.956	269.071	195.501	-8191	255	
4156.478	1	1	0	0	0.17171	0.058344	0.029323	0.096962	0.14585	0.19062	0.057706	0.19472	0.14805	0.11711	0.08496	0.29012	0.18411	0.10201	0.18657	0.057043	-2.7792	-3.725	-3.6479	-3.3521	-3.8917	-3.425	-3.3563	-3.7625	-3.225	-3.7917	-3.7917	-3.375	-3.9583	-3.5271	-3.4104	-3.8708	434.595	404.351	226.948	178.054	302.469	217.735	190.555	531.277	242.933	384.820	367.769	236.098	501.871	202.385	419.828	392.726	0.00072549	0.00025786	6.1952e-05	591.97	3.9072e-07	1.8918e-06	571.37	223.42	1.4105e-06	1.0336e-06	198.06	88.122	105.9	44.694	1.6245e-06	38.071	6.0893e-05	6.6966e-05	1.845e-05	524.59	6.393e-07	7.5071e-07	497.84	183.48	6.5461e-07	7.4956e-07	159.41	69.548	83.584	35.275	7.1934e-07	29.058	484.060	211.308	273.242	186.708	191.897	182.081	183.407	192.596	285.332	195.789	188.162	191.890	197.258	202.006	254.442	195.549	-8191	255	
4156.575	1	1	0	0	0.15459	0.11662	0.061533	0.24018	0.1722	0.18756	0.061307	0.061628	0.29228	0.063606	0.25001	0.14188	0.085948	0.19148	0.017848	0.18361	-2.9646	-3.7479	-3.7188	-3.4229	-3.9125	-3.5958	-3.4979	-3.9313	-3.2979	-3.6063	-3.8708	-3.4021	-3.8583	-3.6562	-3.2958	-3.9167	303.476	224.207	332.110	248.678	457.240	248.471	461.044	233.040	361.337	491.031	377.797	402.360	275.274	410.373	228.124	217.865	0.00090114	5.8176e-05	8.8281e-05	589.6	1.0357e-06	9.9973e-07	571.18	223.22	1.2585e-06	1.8032e-06	197.89	87.569	105.42	44.826	3.9702e-07	38.005	6.3917e-05	6.9471e-05	1.7976e-05	523.65	6.7109e-07	7.6066e-07	497.67	183.34	6.9034e-07	7.4998e-07	159.28	69.288	83.524	35.252	6.8506e-07	28.956	483.856	222.919	344.392	186.796	325.028	329.395	183.329	192.588	220.685	349.322	188.440	191.630	196.994	202.049	334.605	195.689	-8191	255	
4156.671	1	1	0	0	0.14818	0.090767	0.13265	0.24869	0.086233	0.2171	0.11485	0.026894	0.15625	0.10186	0.20775	0.062202	0.10369	0.17737	0.1183	0.21556	-2.9	-3.6292	-3.6479	-3.1562	-3.7812	-3.6167	-3.3187	-4.0437	-3.6104	-3.6958	-3.9229	-3.3542	-3.9229	-3.6521	-3.2896	-4.0083	291.036	424.351	311.941	500.126	352.052	435.423	503.568	215.707	293.175	268.597	417.076	180.328	416.753	485.197	323.362	530.492	0.00085213	0.0001623	2.8618e-05	590.6	1.6661e-06	2.4598e-06	569.3	223.22	4.6893e-07	1.4476e-06	196.06	87.782	105.29	44.732	2.0339e-06	37.817	6.735e-05	6.8133e-05	1.7452e-05	523.06	7.1668e-07	7.4555e-07	496.59	182.91	7.3705e-07	7.3629e-07	158.19	69.132	83.613	35.231	6.8295e-07	28.916	473.232	328.298	308.957	186.656	224.914	350.560	183.247	192.747	357.527	324.050	188.233	191.799	197.048	202.087	334.790	195.646	-8191	255	
4156.790	1	1	0	0	0.019499	0.10497	0.022644	0.059127	0.19354	0.050759	0.082131	0.13888	0.23754	0.080609	0.0076565	0.15529	0.27098	0.27053	0.075569	0.14682	-3.1354	-3.4229	-3.8104	-3.2604	-3.7521	-3.6083	-3.2292	-3.9375	-3.6	-3.4875	-4.0854	-3.3125	-3.5583	-3.95	-3.1958	-3.8937	384.269	522.070	458.465	384.485	328.589	335.855	412.759	295.269	385.543	381.529	325.281	185.712	508.887	377.790	177.227	498.641	0.00089712	0.00019695	3.4224e-05	591.83	1.1636e-06	1.3548e-06	570.86	222.98	9.5022e-07	7.615e-07	197.84	87.785	105.68	44.892	3.7046e-07	38.087	7.194e-05	6.7552e-05	1.7446e-05	524.44	7.7168e-07	7.3064e-07	496.67	183.27	7.8175e-07	7.2294e-07	158.15	69.46	84.103	35.318	6.6854e-07	29.19	476.368	236.117	340.731	186.477	271.476	332.779	183.376	193.011	273.855	386.180	188.135	191.790	197.398	202.045	486.014	195.539	-8191	255	
4156.886	1	1	0	0	0.20804	0.11015	0.1193	0.21996	0.19705	0.15983	0.26004	0.11266	0.063279	0.14269	0.12686	0.13422	0.20965	0.26988	0.020285	0.12893	-3.3146	-3.3438	-3.9875	-3.3312	-3.7146	-3.825	-3.1833	-3.775	-3.5333	-3.2208	-3.9604	-3.3708	-3.5438	-3.9313	-3.2083	-3.775	182.209	194.868	426.319	511.862	492.235	186.710	485.431	531.576	485.702	328.645	284.679	444.371	199.580	495.014	260.843	404.154	0.00069587	0.00012905	4.8098e-05	591.61	2.2149e-06	1.5688e-06	570	222.89	3.3965e-06	5.8088e-07	199.58	88.377	105.96	45.004	1.058e-06	38.204	7.4387e-05	6.6468e-05	1.6881e-05	526.33	7.8617e-07	7.1785e-07	497.07	184.32	7.8612e-07	7.0567e-07	159.01	70.235	84.333	35.351	6.5511e-07	29.496	476.189	206.791	261.565	186.528	326.802	283.326	183.991	192.579	299.205	370.724	188.290	191.596	197.160	202.104	229.230	195.457	-8191	255	
4156.982	1	1	0	0	0.18385	0.11704	0.10615	0.10582	0.12868	0.18431	0.081477	0.22356	0.083001	0.20398	0.17909	0.088149	0.15606	0.15725	0.2905	0.29303	-3.1854	-3.2271	-3.85	-3.4313	-3.5687	-3.9042	-3.0729	-3.7979	-3.6188	-3.2875	-3.7917	-3.3771	-3.4021	-4.0854	-3.3688	-3.6208	375.998	233.771	245.898	366.891	362.449	292.991	419.622	509.989	487.908	270.382	430.429	236.867	264.450	266.512	409.931	488.115	0.00076345	0.00016728	8.3572e-05	587.9	8.1284e-07	2.1106e-06	570.06	223.43	8.7404e-07	2.2055e-06	198.15	88.398	105.96	44.923	1.1123e-06	38.305	7.2195e-05	6.4089e-05	1.6587e-05	526.92	7.5542e-07	6.8651e-07	497	184.91	7.5267e-07	6.8123e-07	159	70.569	84.011	35.308	6.7066e-07	29.534	488.436	272.328	296.863	186.461	328.626	284.327	183.619	192.734	239.418	350.527	188.282	191.989	197.309	202.060	247.764	195.261	-8191	255	
4157.078	1	1	0	0	0.29758	0.20696	0.16195	0.12813	0.20844	0.06167	0.1969	0.25304	0.07334	0.30477	0.094932	0.10759	0.22639	0.079625	0.10717	0.15542	-3.4188	-3.0708	-3.9292	-3.3187	-3.4417	-3.8646	-3.2313	-3.7708	-3.7104	-3.0896	-3.9979	-3.6604	-3.1833	-4.1708	-3.4188	-3.5375	286.559	312.799	258.200	181.485	494.402	525.717	449.491	204.313	297.021	415.645	319.666	429.349	485.204	528.638	533.379	397.692	0.0006359	0.00013197	7.1295e-05	588.47	2.2063e-06	1.9228e-06	574.15	221.67	4.4841e-07	1.9749e-06	197.73	88.503	105.85	44.904	3.2416e-07	37.951	6.9509e-05	6.1117e-05	1.6937e-05	526.53	7.2214e-07	6.6057e-07	497.13	184.48	7.1375e-07	6.5992e-07	158.79	70.179	83.693	35.096	7.0883e-07	29.346	484.609	527.681	205.426	186.946	299.810	252.336	183.392	192.822	422.303	336.638	188.628	191.576	197.292	202.181	205.503	195.735	-8191	255	
4157.174	1	1	0	0	0.22345	0.20493	0.21189	0.27794	0.084731	0.10804	0.029114	0.079903	0.17999	0.10112	0.088739	0.10361	0.16929	0.20507	0.07841	0.31635	-3.2104	-3.3229	-3.7458	-3.5333	-3.2313	-3.8312	-3.3125	-3.5333	-3.9104	-3.3063	-3.7417	-3.6458	-3.4375	-3.8854	-3.4938	-3.4292	520.514	301.563	255.093	494.659	366.988	471.363	376.936	476.287	213.649	529.329	222.170	226.758	523.879	497.974	240.136	417.546	0.00075385	5.206e-05	3.78e-05	590.4	1.9297e-06	1.6338e-06	571.09	221.49	1.7016e-06	1.5664e-06	195.42	88.038	105.89	44.804	1.0852e-06	38.086	6.68e-05	5.993e-05	1.8074e-05	527.05	7.0323e-07	6.4612e-07	498.42	184.31	6.9282e-07	6.4838e-07	159.2	69.898	83.495	35.013	7.4789e-07	29.294	478.942	280.383	183.804	186.956	376.347	326.075	183.186	192.877	345.039	347.050	188.338	191.538	197.261	202.144	186.448	195.529	-8191	255	
4157.270	1	1	0	0	0.028054	0.42435	0.056766	0.23449	0.094077	0.15163	0.14445	0.26794	0.069384	0.16315	0.14692	0.19278	0.17082	0.13937	0.37505	0.15502	-3.3854	-3.0687	-3.7333	-3.7208	-3.2208	-3.8229	-3.4083	-3.5521	-3.9708	-3.1125	-3.7854	-3.7479	-3.3333	-3.7438	-3.3708	-3.4062	280.096	482.159	419.154	479.737	390.832	355.538	470.466	480.660	466.970	287.480	530.703	425.744	409.347	261.234	234.235	269.425	0.00078851	7.0381e-05	1.4115e-05	588.95	1.1816e-06	1.7769e-06	575.09	222.79	2.328e-06	8.8906e-07	196.93	88.23	105.64	44.766	5.019e-07	38.278	6.4601e-05	5.9674e-05	1.9241e-05	526	6.7758e-07	6.4853e-07	501.55	184.35	6.7186e-07	6.5441e-07	160.25	70.07	83.511	35.034	7.7163e-07	29.291	480.708	207.992	241.122	186.725	364.048	224.139	183.593	192.886	298.037	267.700	188.257	191.796	197.228	201.900	335.039	195.784	-8191	255	
4157.367	1	1	0	0	0.13645	0.059714	0.072191	0.066224	0.21457	0.11063	0.059773	0.028089	0.042561	0.17408	0.11217	0.12194	0.035999	0.24908	0.21581	0.095304	-3.5917	-3.3375	-3.5812	-3.7604	-3.1188	-3.9188	-3.5062	-3.3771	-4.0167	-3.3375	-3.6646	-3.7979	-3.2271	-3.9125	-3.8708	-3.4104	231.113	462.156	422.000	196.365	407.647	418.159	488.258	272.447	202.873	520.305	198.666	501.063	288.405	531.211	451.220	273.131	0.00086857	0.00020935	6.4349e-05	590.46	1.7443e-07	8.3166e-07	576.64	222.94	1.9948e-06	1.2897e-06	197.82	88.624	105.09	44.52	8.0207e-07	38.068	6.1962e-05	6.1722e-05	1.9362e-05	524.98	6.5727e-07	6.737e-07	503.03	183.38	6.3597e-07	6.8645e-07	160.29	69.682	83.062	34.952	7.3686e-07	29.165	489.848	196.617	193.083	186.861	330.075	480.969	183.437	192.934	269.930	196.820	188.428	191.728	197.501	201.857	492.664	195.659	-8191	255	
4157.487	1	1	0	0	0.15622	0.35326	0.11626	0.29589	0.20451	0.17195	0.11724	0.23727	0.20608	0.21	0.17426	0.19994	0.13848	0.26785	0.12941	0.31801	-3.6333	-3.4167	-3.5	-3.8729	-3.1042	-3.9542	-3.6813	-3.2562	-3.9771	-3.4417	-3.5687	-3.7812	-3.3542	-3.8271	-3.7708	-3.4271	310.611	373.613	347.645	190.501	234.054	318.820	416.564	531.581	424.615	388.848	416.898	388.328	213.910	222.853	517.826	518.074	0.00093561	6.5663e-05	6.1634e-05	586.96	1.2585e-06	1.0765e-06	570.27	222.08	1.4742e-06	5.5511e-07	195.9	87.5	104.75	44.247	2.022e-06	37.712	5.9534e-05	6.3814e-05	1.859e-05	522.41	6.3066e-07	7.0655e-07	498.19	182.77	6.2448e-07	7.3029e-07	158.77	69.23	82.657	34.821	7.2387e-07	28.85	477.218	182.873	303.533	186.497	220.905	291.658	183.400	192.967	265.038	329.377	188.520	191.885	197.253	201.995	273.901	195.693	-8191	255	
4157.582	1	1	0	0	0.18824	0.11249	0.10134	0.18633	0.062126	0.10511	0.29798	0.12621	0.046191	0.088745	0.38068	0.21589	0.27254	0.2541	0.25779	0.20522	-3.4313	-3.4042	-3.4958	-3.9188	-3.1875	-3.7042	-3.7042	-3.1979	-3.6979	-3.4625	-3.4979	-4.0167	-3.4	-3.7396	-3.7438	-3.2771	399.120	258.353	441.868	259.999	271.353	415.244	475.735	463.158	262.839	336.664	262.138	452.112	517.262	523.795	360.073	207.108	0.0008561	7.065e-05	1.8667e-05	590.64	8.2754e-07	9.5883e-07	565.98	221.07	2.2847e-06	9.5917e-07	195.59	87.103	104.18	44.038	1.0816e-06	37.692	6.013e-05	6.7928e-05	1.7979e-05	522.05	6.5195e-07	7.4001e-07	496.05	182.05	6.5097e-07	7.4342e-07	157.85	68.714	82.451	34.728	6.9193e-07	28.753	480.224	328.550	288.275	186.637	492.051	241.519	183.456	193.034	237.966	312.686	188.431	191.722	197.160	202.036	352.980	195.602	-8191	255	
4157.680	1	1	0	0	0.26773	0.13185	0.058328	0.087255	0.18329	0.11955	0.17429	0.1263	0.077872	0.064898	0.12421	0.15339	0.084981	0.21125	0.073327	0.1247	-3.4292	-3.5333	-3.2771	-4.0104	-3.4479	-3.6667	-3.7458	-3.2083	-3.7375	-3.6229	-3.3375	-4.0479	-3.4167	-3.5667	-3.825	-3.2917	209.359	429.397	414.954	338.012	528.807	328.943	429.803	309.434	406.180	415.432	456.147	235.939	425.226	227.114	264.194	451.149	0.00084605	0.0001087	5.9521e-05	585.3	2.5669e-06	2.3055e-06	566.34	220.73	5.4973e-07	7.2307e-07	197.27	87.573	104.86	44.099	8.1655e-07	37.862	6.3449e-05	6.8687e-05	1.7431e-05	520.49	6.8174e-07	7.3799e-07	494.27	181.76	6.8898e-07	7.2756e-07	157.68	69.01	82.946	34.733	6.7196e-07	28.808	479.429	276.914	392.944	186.626	282.781	261.323	183.829	192.574	322.879	272.789	188.434	191.813	197.169	201.879	285.759	195.360	-8191	255	
4157.774	1	1	0	0	0.078524	0.28561	0.010013	0.10648	0.22988	0.31	0.30884	0.11519	0.17952	0.065331	0.16154	0.1007	0.040872	0.12768	0.13099	0.1931	-3.3167	-3.6667	-3.3792	-4.025	-3.3208	-3.6646	-3.8563	-3.4354	-3.8125	-3.7062	-3.4125	-3.9521	-3.5687	-3.3396	-3.8917	-3.325	465.080	479.917	518.639	175.419	357.966	293.929	272.776	409.329	413.231	366.042	267.540	206.191	530.690	473.932	203.145	472.750	0.00074367	0.00012521	8.9491e-06	586.19	6.4697e-07	2.6032e-06	568.4	221.32	1.7239e-06	6.1536e-07	198.5	88.617	105.14	44.048	1.5691e-06	37.817	6.6541e-05	6.6186e-05	1.6743e-05	519.51	7.238e-07	7.1416e-07	495.25	182.03	7.3408e-07	7.1848e-07	158.53	69.63	83.468	34.636	6.6463e-07	28.928	484.973	351.570	196.720	186.636	237.763	341.400	183.249	192.513	228.768	321.089	188.417	191.891	197.110	201.783	324.291	195.791	-8191	255	
4157.870	1	1	0	0	0.11922	0.11188	0.33694	0.10976	0.10267	0.15603	0.17757	0.066958	0.094183	0.15984	0.094912	0.12873	0.081317	0.12801	0.030802	0.15158	-3.2438	-3.8479	-3.2333	-3.8042	-3.4583	-3.4875	-3.9729	-3.3604	-3.7313	-3.8729	-3.2708	-3.9958	-3.7188	-3.3542	-3.825	-3.4417	356.415	254.814	352.854	472.251	389.544	520.534	466.429	415.891	489.729	243.328	175.440	497.239	262.679	445.152	178.430	396.533	0.00099542	0.0001756	3.9563e-05	587.32	1.208e-06	2.0551e-06	570.33	221.25	8.9869e-07	1.1497e-06	197.88	87.998	104.57	43.861	1.769e-06	37.465	7.0897e-05	6.5158e-05	1.6658e-05	521.01	7.597e-07	6.962e-07	493.66	182.24	7.5611e-07	6.9485e-07	157.69	69.329	83.301	34.501	6.4051e-07	28.794	474.441	287.456	326.957	186.532	341.309	297.588	183.549	192.704	527.189	280.732	188.602	191.489	197.123	201.738	313.819	195.660	-8191	255	
4157.966	1	1	0	0	0.1552	0.11561	0.12487	0.11973	0.077483	0.20346	0.14684	0.2436	0.076993	0.051073	0.070205	0.089537	0.14872	0.060596	0.1196	0.21673	-3.1437	-4.0167	-3.1083	-3.8208	-3.6688	-3.4646	-4.1	-3.3104	-3.6167	-3.9792	-3.4708	-3.7292	-3.6042	-3.4062	-3.9292	-3.6167	335.333	433.213	476.619	494.110	313.151	176.583	272.053	389.861	455.372	267.820	468.338	177.307	493.820	378.820	457.183	390.848	0.00077747	0.00025285	2.5884e-05	588.08	7.5996e-07	1.0756e-06	566.84	221.25	8.9708e-07	2.3765e-06	195.04	87.922	104.71	43.964	1.8994e-06	37.808	7.145e-05	6.3332e-05	1.6437e-05	523.39	7.5307e-07	6.8266e-07	493.08	182.89	7.4622e-07	6.7712e-07	157.16	69.506	83.228	34.53	6.3605e-07	29.073	488.461	284.751	225.844	186.709	361.357	297.899	183.813	192.719	319.731	300.863	188.182	191.486	197.115	202.108	191.709	195.460	-8191	255	
4158.087	1	1	0	0	0.10879	0.15948	0.19191	0.24226	0.14803	0.18703	0.15353	0.2552	0.033078	0.20105	0.14667	0.081623	0.14535	0.038875	0.071522	0.18169	-3.2167	-3.9729	-3.3417	-3.8417	-3.725	-3.3917	-3.9854	-3.5812	-3.4396	-4.0167	-3.3292	-3.8042	-4.025	-3.3125	-3.8396	-3.7	398.201	402.921	324.229	412.910	324.564	498.631	194.260	190.426	328.836	319.858	431.657	519.273	525.316	405.801	309.576	243.292	0.00077425	8.8455e-05	8.2371e-05	588.29	8.0594e-07	5.5444e-07	568.1	220.51	5.7238e-07	1.7575e-06	197.88	88.904	105.33	44.065	1.3432e-06	37.996	6.9557e-05	6.2121e-05	1.6549e-05	525.26	7.3913e-07	6.731e-07	494.76	183.48	7.3162e-07	6.7139e-07	158.49	70.452	83.395	34.604	6.758e-07	29.283	481.597	318.269	353.566	186.898	250.368	363.630	183.465	192.755	360.475	384.453	188.198	191.638	197.080	201.911	270.930	195.298	-8191	255	
4158.183	1	1	0	0	0.040611	0.2605	0.094774	0.17519	0.091748	0.23847	0.05438	0.041285	0.11049	0.14904	0.073928	0.050528	0.18486	0.09403	0.080731	0.18862	-3.0583	-3.9771	-3.3542	-3.5667	-3.9333	-3.2458	-3.8896	-3.6104	-3.5146	-3.9854	-3.2875	-3.7	-4.0104	-3.4417	-3.7604	-3.7833	255.754	284.821	303.697	320.049	208.774	438.437	271.021	236.098	354.513	467.122	492.099	530.884	441.462	332.231	283.303	517.305	0.00074698	8.1212e-05	5.2471e-05	586.49	1.099e-06	1.3171e-07	568.38	221.45	9.1454e-07	1.8948e-06	198.33	88.828	105.29	44.279	9.8158e-07	37.959	6.773e-05	6.0064e-05	1.7421e-05	524.61	7.1265e-07	6.5568e-07	497.17	183.94	7.0159e-07	6.486e-07	159.97	70.807	83.463	34.555	7.1598e-07	29.268	479.156	281.284	517.488	186.678	327.344	411.767	183.706	192.799	281.969	359.576	188.265	191.549	197.120	201.951	234.376	195.511	-8191	255	
4158.279	1	1	0	0	0.097823	0.064743	0.24064	0.15398	0.097898	0.17699	0.12016	0.16697	0.19103	0.15501	0.15407	0.020872	0.077577	0.057775	0.21653	0.3424	-2.8812	-3.7792	-3.3104	-3.6042	-3.8063	-3.3583	-3.8646	-3.6479	-3.3208	-3.9229	-3.4688	-3.6188	-4.0333	-3.2667	-3.6396	-3.7729	205.998	207.126	347.259	499.318	225.328	480.207	225.946	494.574	270.965	216.139	434.348	456.725	515.765	355.456	461.749	520.529	0.00069694	8.9048e-05	4.4954e-05	587.22	1.4862e-06	2.215e-06	569.24	220.49	8.1026e-07	1.0058e-06	196.57	87.733	104.24	44.034	1.9164e-06	37.681	6.5117e-05	5.8369e-05	1.8462e-05	522.98	6.8322e-07	6.3675e-07	496.8	182.83	6.8332e-07	6.4025e-07	159.2	69.701	82.844	34.484	7.5923e-07	28.987	484.040	240.200	320.126	186.902	347.645	303.824	183.257	192.964	310.849	369.998	188.492	191.624	197.069	201.985	218.732	195.568	-8191	255	
4158.375	1	1	0	0	0.029997	0.19468	0.15661	0.073587	0.20003	0.19909	0.22035	0.22124	0.061075	0.095551	0.084206	0.22254	0.11574	0.11445	0.044418	0.072695	-2.9396	-3.9104	-3.55	-3.5	-3.8792	-3.3229	-3.8229	-3.8333	-3.4792	-3.9083	-3.6146	-3.4208	-4.0604	-3.3438	-3.5896	-3.8729	235.488	180.129	291.145	477.248	388.538	449.954	453.201	474.261	306.191	398.733	186.410	487.429	466.619	492.697	456.216	417.339	0.00076461	0.0001115	2.8721e-05	588.51	1.5923e-06	1.1273e-06	568.07	220.24	1.202e-06	1.8305e-06	195.14	87.465	104.6	44.1	8.3373e-07	37.724	6.4649e-05	6.074e-05	1.9706e-05	523.8	6.7745e-07	6.8934e-07	498.18	182.59	6.9295e-07	7.0196e-07	159.73	69.491	82.935	34.726	8.2018e-07	29.06	476.559	260.151	293.860	186.534	370.867	180.297	183.155	192.433	244.952	282.387	188.177	191.540	196.911	201.574	231.001	195.296	-8191	255	
4158.471	1	1	0	0	0.099155	0.14337	0.10168	0.32157	0.10402	0.13218	0.18134	0.19372	0.069649	0.12306	0.054843	0.070157	0.047126	0.29668	0.16028	0.06593	-2.8729	-3.8063	-3.4646	-3.3854	-4	-3.4792	-3.5812	-3.8521	-3.0979	-3.9333	-3.6042	-3.2708	-3.8708	-3.3937	-3.5542	-3.875	187.932	489.203	321.286	205.418	184.240	203.207	463.867	405.855	300.932	420.935	439.898	438.293	421.626	410.452	174.658	233.923	0.00084806	0.00019329	4.9646e-05	591.18	2.0185e-06	2.2277e-06	569.77	220.56	1.5968e-06	8.2238e-07	197.64	88.033	105.4	44.527	3.2259e-06	38.209	6.6677e-05	6.7944e-05	2.1007e-05	526.14	6.9606e-07	7.642e-07	503.01	183.12	6.9679e-07	7.632e-07	160.75	70.14	83.339	35.014	7.9399e-07	29.233	481.702	475.914	321.240	186.585	332.776	219.458	183.319	192.420	234.354	210.427	188.120	191.898	197.256	201.799	303.557	195.429	-8191	255	
4158.568	1	1	0	0	0.066505	0.19762	0.16698	0.15153	0.13324	0.066589	0.11446	0.074547	0.26428	0.10733	0.062768	0.12963	0.075482	0.021142	0.19358	0.15414	-2.9021	-3.6292	-3.8083	-3.2875	-3.9125	-3.4896	-3.5646	-3.9854	-3.3229	-3.9125	-3.8042	-3.25	-3.8458	-3.5229	-3.4958	-3.9375	402.313	359.635	384.007	466.055	437.664	442.598	498.867	361.048	498.526	342.332	285.969	275.737	333.857	474.290	354.181	447.243	0.00088449	0.00011266	4.6977e-05	587.62	1.6773e-06	1.707e-06	572.31	221.87	5.2033e-07	1.0125e-06	197.9	89.545	106.4	44.772	1.318e-06	38.618	6.521e-05	7.1637e-05	1.994e-05	523.97	6.8167e-07	7.9232e-07	502.25	183.23	7.004e-07	8.1016e-07	161.3	71.005	84.299	35.308	7.7582e-07	29.472	480.073	236.232	292.252	186.695	249.293	245.824	183.369	192.642	258.523	288.335	188.391	191.776	197.163	202.223	226.183	195.808	-8191	255	
4158.662	1	1	0	0	0.038345	0.15105	0.28359	0.27835	0.057095	0.16431	0.14481	0.20739	0.042933	0.14851	0.18217	0.11445	0.18898	0.15191	0.23141	0.081847	-2.8646	-3.7146	-3.6375	-3.4083	-3.8812	-3.625	-3.3958	-3.9062	-3.4896	-3.5292	-3.6167	-3.2458	-3.825	-3.6083	-3.3667	-3.9833	236.794	413.279	238.514	428.656	496.302	194.644	322.771	442.304	462.914	178.302	262.556	386.718	441.240	488.041	285.079	465.052	0.00092423	0.00015409	2.6855e-05	587.79	1.3555e-06	9.4093e-07	571.81	221.03	9.9617e-07	2.246e-06	197.03	88.926	105.39	44.235	4.7644e-07	37.647	6.8004e-05	7.5028e-05	1.938e-05	523.99	7.1349e-07	8.1404e-07	499.62	182.26	7.2773e-07	7.9997e-07	159.43	70.118	83.588	34.861	7.2965e-07	28.82	473.307	265.459	280.300	186.832	258.584	246.054	183.594	192.634	304.218	312.961	188.710	191.635	197.170	201.818	525.146	195.604	-8191	255	
4158.760	1	1	0	0	0.082179	0.10191	0.12483	0.37399	0.10451	0.27156	0.039407	0.041496	0.10049	0.087242	0.17935	0.067211	0.24033	0.13734	0.17578	0.25634	-3.0438	-3.6333	-4.0333	-3.3354	-3.9313	-3.7375	-3.5521	-4.025	-3.5729	-3.6104	-3.9583	-3.2833	-3.7833	-3.7521	-3.2354	-4.0417	396.077	242.423	209.368	495.182	391.725	526.399	184.575	376.234	205.588	531.933	447.832	461.811	506.469	249.556	194.450	421.503	0.00088902	7.566e-05	3.2024e-05	585.48	1.1909e-06	6.4611e-07	567.48	220.79	1.5542e-06	1.4735e-06	195.4	87.621	104.55	43.989	1.3999e-06	37.341	7.046e-05	7.2726e-05	1.8346e-05	521.28	7.6165e-07	7.9288e-07	496.61	181.33	7.7758e-07	7.8581e-07	157.9	69.189	83.204	34.6	7.2232e-07	28.661	471.531	212.413	232.722	186.641	234.232	249.826	183.438	192.663	229.073	335.481	187.905	191.640	197.076	201.767	275.340	195.588	-8191	255	
4158.879	1	1	0	0	0.098694	0.28697	0.087257	0.17517	0.22022	0.17484	0.15411	0.1894	0.17973	0.22823	0.177	0.081943	0.022706	0.116	0.223	0.19493	-2.9396	-3.4771	-3.8583	-3.3688	-3.6271	-3.7938	-3.3083	-3.9583	-3.4167	-3.3271	-3.9	-3.3271	-3.7	-3.7125	-3.0812	-3.9708	318.416	455.871	315.138	203.344	426.815	423.525	371.391	456.983	179.921	178.871	527.532	372.849	316.043	270.895	417.160	448.386	0.00080916	7.3713e-05	6.1527e-05	588.51	2.0585e-06	2.8274e-06	567.65	219.81	3.2406e-06	1.0709e-06	194.34	87.613	104.41	43.932	2.1754e-06	37.521	7.5255e-05	7.0826e-05	1.8048e-05	521.97	7.9928e-07	7.6652e-07	495.03	181.06	8.0963e-07	7.5236e-07	157.02	69.335	83.358	34.569	6.9277e-07	28.797	481.130	297.603	305.285	186.617	228.913	290.762	183.452	192.735	285.373	339.405	188.202	191.234	197.186	201.640	265.662	195.791	-8191	255	
4158.975	1	1	0	0	0.073086	0.19664	0.15039	0.17719	0.14639	0.12866	0.13862	0.14862	0.25871	0.12511	0.13482	0.12174	0.25146	0.081284	0.19884	0.09062	-3.3625	-3.4333	-3.7771	-3.4375	-3.5958	-3.8583	-3.2229	-3.7229	-3.825	-3.55	-3.9688	-3.3458	-3.6021	-3.8604	-3.3375	-3.8396	175.223	314.525	461.232	494.478	518.100	202.862	361.853	494.742	400.895	292.587	174.890	291.788	490.128	233.586	287.892	271.391	0.00070983	0.00011732	8.3588e-05	586.09	4.5005e-07	1.4684e-06	564.05	219.34	1.9459e-06	1.652e-06	196.2	87.666	103.95	43.624	4.7363e-07	37.659	7.5078e-05	6.6339e-05	1.7003e-05	520.29	7.7824e-07	7.0606e-07	490.92	181.27	7.6298e-07	6.8922e-07	156.49	69.385	82.754	34.252	6.326e-07	28.884	490.023	308.261	265.951	186.456	450.565	278.308	183.457	192.758	502.569	400.268	188.379	191.803	197.076	201.665	314.122	195.677	-8191	255	
4159.047	1	1	0	0	0.18701	0.099119	0.2223	0.21163	0.094348	0.066774	0.11279	0.082617	0.27633	0.15534	0.13817	0.18362	0.13511	0.13077	0.19649	0.34544	-3.1208	-3.325	-3.8875	-3.4354	-3.5896	-3.7875	-3.3542	-3.8187	-3.6312	-3.3521	-3.8771	-3.5062	-3.4167	-4.125	-3.3042	-3.5625	413.279	415.699	228.051	533.416	285.484	264.493	462.240	357.325	379.728	530.454	246.318	471.086	471.777	270.019	282.741	315.398	0.00068599	0.00016056	5.2719e-05	584.87	1.018e-06	9.3068e-07	565.83	220.82	1.9738e-06	6.5317e-07	195.12	87.101	103.76	43.137	1.2525e-06	37.247	7.011e-05	6.1843e-05	1.5946e-05	519.49	7.2968e-07	6.6562e-07	490.22	182.14	7.3159e-07	6.6586e-07	156.44	69.395	82.415	33.904	6.3903e-07	28.616	476.963	244.977	256.447	186.725	235.530	442.529	183.069	192.541	323.478	359.593	188.084	191.516	197.300	201.740	234.077	195.192	-8191	255	
4159.167	1	1	0	0	0.21221	0.13438	0.13506	0.076497	0.14976	0.2058	0.13522	0.162	0.12828	0.076416	0.061944	0.1365	0.21644	0.063061	0.082176	0.17096	-3.4	-3.2771	-3.8333	-3.6021	-3.5854	-4.0354	-3.325	-3.8187	-3.9146	-3.1333	-4.0188	-3.5375	-3.3167	-3.9917	-3.2188	-3.7333	531.446	379.283	344.762	443.863	305.661	315.902	514.533	487.939	394.079	434.342	444.921	364.824	467.205	209.711	270.035	525.920	0.00075982	8.972e-05	6.7957e-05	581.75	9.0603e-07	1.61e-06	563.74	219.23	6.3799e-07	1.0012e-06	195.71	87.288	103.9	43.364	1.1002e-06	37.229	6.6088e-05	5.912e-05	1.6004e-05	518.89	6.7642e-07	6.2119e-07	488.59	181.55	6.7733e-07	6.251e-07	156.12	69.138	82.162	33.84	6.5572e-07	28.539	481.991	252.392	202.373	186.620	498.201	329.092	183.684	192.917	353.655	315.681	188.164	191.723	197.214	201.732	197.892	195.403	-8191	255	
4159.263	1	1	0	0	0.19605	0.13447	0.11776	0.14741	0.37794	0.13802	0.12945	0.15272	0.15776	0.06258	0.21701	0.32165	0.19256	0.049082	0.13839	0.20791	-3.3042	-3.1312	-3.7396	-3.6583	-3.3688	-4.0437	-3.3479	-3.6021	-3.8417	-3.3167	-4.0604	-3.7229	-3.4771	-3.9708	-3.4104	-3.5083	455.551	400.895	381.418	227.114	353.958	236.944	469.540	178.055	493.757	244.073	226.689	448.346	328.160	504.292	227.285	431.658	0.000574	2.9416e-05	3.1209e-05	583.71	1.4743e-06	8.0055e-07	565.89	219.45	1.1772e-06	1.3891e-06	195.51	87.023	103.57	43.21	1.6276e-06	37.337	6.2821e-05	5.6052e-05	1.6575e-05	520.12	6.5317e-07	5.9293e-07	491.34	181.61	6.424e-07	5.9453e-07	157.17	69.088	81.933	33.763	6.8257e-07	28.549	479.288	396.664	216.529	186.536	344.636	290.989	183.264	192.424	321.169	295.804	188.276	191.758	197.156	201.743	193.558	195.488	-8191	255	
4159.360	1	1	0	0	0.17558	0.15677	0.17088	0.13297	0.20487	0.16047	0.20705	0.064565	0.066196	0.041145	0.13259	0.17632	0.053933	0.19703	0.17227	0.3405	-3.4917	-3.0375	-3.7542	-3.725	-3.1562	-3.9104	-3.5646	-3.5458	-3.8563	-3.4083	-3.8042	-3.8271	-3.2562	-3.9688	-3.4062	-3.4583	385.345	214.554	300.429	484.085	458.645	430.710	446.745	203.930	511.380	425.096	530.254	264.699	389.818	240.446	263.015	383.577	0.0008191	4.3697e-05	5.7216e-05	583.53	1.7033e-06	2.949e-06	565.67	220.23	8.6627e-07	1.2606e-06	195.87	87.735	104.38	43.228	9.0881e-08	37.586	5.9445e-05	5.4857e-05	1.7332e-05	518.66	6.3478e-07	5.9478e-07	492.16	181.56	6.2776e-07	6.0582e-07	158.14	69.124	82.082	33.801	7.0984e-07	28.687	486.536	254.787	211.779	186.747	320.957	288.395	183.678	192.872	284.384	329.435	187.956	191.666	197.350	201.686	339.361	195.354	-8191	255	
4159.480	1	1	0	0	0.30381	0.075915	0.061969	0.12988	0.1584	0.24367	0.24947	0.22107	0.11811	0.17866	0.1137	0.24949	0.1121	0.14855	0.11991	0.13322	-3.3458	-3.3167	-3.6583	-3.7729	-3.1	-3.75	-3.4375	-3.35	-3.8458	-3.3167	-3.5208	-3.8312	-3.1979	-3.8583	-3.4688	-3.1917	409.723	247.764	199.682	297.482	254.096	209.259	440.120	501.994	508.325	278.546	509.195	368.991	359.138	201.515	326.905	191.954	0.00071976	7.8039e-05	1.4335e-05	581.24	8.4582e-07	2.3057e-06	562.55	219.85	1.361e-06	5.1013e-07	195.29	87.047	103.54	43.402	2.0583e-06	37.238	5.7774e-05	5.6234e-05	1.768e-05	515.75	6.0927e-07	6.1768e-07	489.07	180.29	5.894e-07	6.2945e-07	157.26	68.533	81.437	33.916	7.0332e-07	28.397	483.069	186.168	462.425	186.857	372.359	215.770	183.416	192.639	308.218	267.196	188.020	191.821	196.829	202.073	306.789	195.576	-8191	255	
4159.576	1	1	0	0	0.29588	0.14048	0.18579	0.13327	0.14633	0.16888	0.05028	0.22281	0.1274	0.35463	0.26435	0.26074	0.077857	0.13977	0.12468	0.17193	-3.5896	-3.3063	-3.5375	-3.9729	-3.3958	-3.7771	-3.6292	-3.3875	-3.8521	-3.5542	-3.4083	-3.6958	-3.2979	-3.6625	-3.5979	-3.2625	323.479	490.860	291.216	176.958	323.604	447.961	191.547	274.321	208.443	250.865	260.154	516.942	215.107	360.391	444.124	213.446	0.00056115	0.00014704	5.8082e-05	582.79	1.1877e-06	5.9744e-07	562.48	217.53	1.4933e-06	1.1563e-06	193.11	86.108	103.37	43.409	7.0094e-07	36.99	5.5913e-05	5.9732e-05	1.7592e-05	516.34	5.969e-07	6.6023e-07	488.67	180.09	5.8869e-07	6.838e-07	156.33	68.118	81.398	34.058	6.8255e-07	28.356	464.661	199.442	314.618	186.592	392.211	271.155	183.551	192.758	244.242	276.228	188.014	191.799	197.255	201.808	380.515	195.140	-8191	255	
4159.648	1	1	0	0	0.18837	0.10166	0.24327	0.10651	0.21664	0.13259	0.13961	0.084775	0.066095	0.20763	0.18001	0.19572	0.031295	0.33879	0.33881	0.23903	-3.5708	-3.4188	-3.4604	-3.8625	-3.2	-3.6437	-3.7604	-3.1333	-4.05	-3.5104	-3.5125	-3.9813	-3.3833	-3.7083	-3.7792	-3.2792	347.436	465.752	261.189	285.988	273.512	308.559	481.759	505.862	486.433	399.691	183.232	352.895	506.432	254.563	534.362	461.451	0.00081661	0.00017069	5.5771e-05	582.17	1.0442e-06	2.536e-06	565.24	220.2	8.1015e-07	7.1627e-07	195.64	86.638	103.47	43.159	1.0252e-06	37.28	5.6827e-05	6.4056e-05	1.709e-05	515.51	6.1214e-07	6.9743e-07	489.4	179.99	6.1178e-07	7.0637e-07	156.76	68.156	81.648	34.064	6.538e-07	28.423	480.755	273.084	287.562	186.764	504.509	257.620	183.423	192.727	182.537	352.873	188.302	191.682	197.090	201.938	331.325	195.207	-8191	255	
4159.767	1	1	0	0	0.14767	0.10353	0.30243	0.15589	0.15631	0.27223	0.36833	0.1527	0.20612	0.19454	0.059014	0.18477	0.23611	0.062785	0.098986	0.058443	-3.6271	-3.5417	-3.3396	-3.9771	-3.3167	-3.7104	-3.8063	-3.1771	-3.8312	-3.5104	-3.2625	-3.9792	-3.3896	-3.6792	-3.7896	-3.3521	476.293	430.906	444.354	416.173	468.990	186.056	434.105	415.259	330.762	224.154	402.330	175.052	492.005	214.679	316.066	361.616	0.00075191	3.0051e-05	3.3836e-05	585.77	1.4565e-06	4.5244e-07	565.33	219.65	1.4042e-06	2.5128e-06	196.7	87.839	104.26	43.397	1.2717e-06	37.608	5.9889e-05	6.4999e-05	1.6585e-05	516.12	6.4319e-07	6.9975e-07	489.27	180.57	6.5069e-07	7.0377e-07	156.96	68.709	82.348	34.06	6.3955e-07	28.583	489.135	496.901	252.622	186.719	256.621	192.799	183.445	192.835	220.026	316.753	188.026	191.745	197.215	202.073	291.564	195.302	-8191	255	
4159.863	1	1	0	0	0.11768	0.18584	0.1755	0.10364	0.23713	0.21374	0.17567	0.12277	0.18244	0.27231	0.044003	0.27711	0.16687	0.22537	0.034318	0.057779	-3.3417	-3.7042	-3.1188	-3.8521	-3.3375	-3.325	-3.8542	-3.3458	-3.75	-3.7771	-3.4417	-3.9792	-3.4896	-3.525	-3.7313	-3.2292	310.543	480.869	400.189	304.222	345.073	257.650	460.066	472.085	189.459	296.411	409.444	327.759	519.072	298.726	391.576	198.078	0.001015	0.00014353	2.0956e-05	585.69	1.0187e-06	1.2681e-06	565.51	219.58	1.4187e-06	1.751e-06	195.33	87.438	103.66	43.145	8.7178e-07	37.476	6.3814e-05	6.3338e-05	1.6052e-05	515.54	6.9355e-07	6.8323e-07	488.73	180.31	6.8839e-07	6.7529e-07	156.44	68.64	82.237	33.951	6.1586e-07	28.463	476.742	341.579	334.300	186.650	224.782	241.000	183.534	192.610	200.385	363.515	188.407	191.510	196.924	201.658	373.175	195.293	-8191	255	
4159.959	1	1	0	0	0.066659	0.22168	0.12723	0.046186	0.055224	0.12232	0.059466	0.15277	0.1465	0.23184	0.10795	0.21372	0.10671	0.22593	0.19133	0.060243	-3.3458	-3.5542	-3.1583	-3.7542	-3.5625	-3.5292	-3.9313	-3.25	-3.6208	-3.7083	-3.2896	-3.8625	-3.7958	-3.3354	-3.8146	-3.4229	444.891	428.551	507.800	282.524	341.076	191.024	523.022	452.221	205.155	244.613	532.170	458.030	208.604	518.650	400.008	488.751	0.00094822	0.00026085	6.9423e-05	581.83	9.315e-07	2.5151e-06	559.84	218.71	1.8072e-06	1.4688e-06	195.22	86.811	103.46	43.246	1.3765e-06	37.306	6.6593e-05	6.0959e-05	1.567e-05	515.51	7.1699e-07	6.6185e-07	486.13	180.19	7.1536e-07	6.574e-07	155.55	68.271	81.971	33.929	6.0294e-07	28.487	480.371	304.575	218.484	186.650	178.509	367.358	183.351	192.582	284.138	212.877	188.372	191.628	197.249	201.860	257.162	195.316	-8191	255	
4160.055	1	1	0	0	0.08443	0.08398	0.19822	0.1563	0.18054	0.13438	0.186	0.16434	0.133	0.06534	0.23335	0.080064	0.28841	0.20163	0.015932	0.13414	-3.2354	-3.8312	-3.2042	-3.9875	-3.4292	-3.2333	-3.9021	-3.4146	-3.6521	-3.8271	-3.3479	-3.9896	-3.7458	-3.4646	-3.7438	-3.3458	180.475	322.684	326.412	383.695	341.177	321.967	229.805	335.318	440.009	236.491	210.663	427.729	533.077	525.200	497.661	444.482	0.00092853	6.8957e-05	5.3795e-05	584.05	2.6835e-06	2.6172e-06	563.18	218.55	9.6253e-07	7.4699e-07	194.09	86.95	103.56	43.391	1.7335e-06	37.388	6.8027e-05	5.9761e-05	1.5514e-05	517.36	7.2281e-07	6.5511e-07	486.56	180.49	7.1122e-07	6.5003e-07	155.3	68.853	82.125	33.998	6.1139e-07	28.675	478.561	400.892	282.296	186.567	312.055	312.992	183.578	192.731	272.921	371.594	188.081	191.910	197.055	201.755	273.529	195.720	-8191	255	
4160.176	1	1	0	0	0.055001	0.21095	0.19768	0.091666	0.062297	0.040407	0.21603	0.18506	0.096121	0.061726	0.15958	0.091525	0.16487	0.18599	0.11339	0.18872	-3.1375	-3.7313	-3.3271	-3.9167	-3.6104	-3.4688	-3.8354	-3.4896	-3.5333	-4.0021	-3.2812	-3.6833	-3.8333	-3.275	-3.8854	-3.4083	510.410	320.310	253.903	448.249	343.240	350.227	352.641	485.461	359.166	350.118	473.331	492.434	522.581	211.737	199.294	505.531	0.00073747	0.00015181	2.3863e-05	580.4	2.0103e-06	1.1933e-06	563.25	218.69	9.8216e-07	1.8042e-06	196.25	86.667	103.46	43.256	1.179e-06	37.536	6.619e-05	5.8232e-05	1.5561e-05	517.54	6.8975e-07	6.3405e-07	487.27	181.27	6.7743e-07	6.2118e-07	155.99	69.136	81.915	33.891	6.2662e-07	28.867	477.340	295.365	506.620	186.346	356.626	191.136	183.350	192.551	257.772	360.019	188.087	191.667	197.324	201.935	227.659	195.557	-8191	255	
4160.272	1	1	0	0	0.22155	0.21004	0.12422	0.097395	0.1253	0.15994	0.1256	0.068944	0.2419	0.19448	0.049228	0.099172	0.15311	0.21885	0.06806	0.20077	-3.0396	-3.9125	-3.2562	-3.7062	-3.9104	-3.3125	-3.9062	-3.7354	-3.4125	-3.9292	-3.4313	-3.7021	-3.9646	-3.4854	-3.8937	-3.7979	270.694	195.664	486.116	405.622	409.709	425.670	295.161	408.408	289.053	276.787	196.214	484.714	399.697	532.831	445.516	528.899	0.00059414	0.00025286	6.6643e-05	580.09	2.6574e-06	2.6902e-06	563.93	219.28	5.4383e-07	1.6744e-07	195.34	87.614	103.54	43.053	1.0235e-06	37.373	6.3863e-05	5.6808e-05	1.6403e-05	518.38	6.6657e-07	6.1614e-07	488.57	181.29	6.6219e-07	5.9941e-07	156.54	69.135	81.755	33.748	6.634e-07	28.654	485.826	278.001	222.198	186.531	300.019	331.746	183.451	192.790	198.231	400.409	188.087	191.823	197.141	201.911	183.370	195.501	-8191	255	
4160.344	1	1	0	0	0.3718	0.20071	0.087121	0.21441	0.1491	0.18216	0.13623	0.21788	0.21427	0.032214	0.040359	0.11642	0.10347	0.22846	0.096843	0.1084	-3.0021	-3.9396	-3.4583	-3.6458	-3.9083	-3.3333	-3.9146	-3.6542	-3.3854	-3.9583	-3.5875	-3.5833	-4.1562	-3.2792	-3.6708	-3.9083	265.198	215.976	455.054	427.900	447.048	358.221	313.846	203.913	267.294	235.803	314.880	492.450	447.521	524.080	221.998	411.449	0.00064628	9.1102e-05	3.2036e-05	579.63	1.2426e-06	2.8811e-06	562.74	218.75	5.8137e-07	5.2732e-07	193.63	87.131	103.55	43.171	4.5516e-07	37.071	6.1782e-05	5.4735e-05	1.7493e-05	517.51	6.4994e-07	6.1436e-07	489.54	180.42	6.5377e-07	6.0153e-07	156.54	68.757	81.636	33.795	7.1936e-07	28.533	481.113	307.409	230.116	186.844	319.382	264.153	183.123	192.630	254.648	217.815	187.785	191.639	197.004	201.628	239.106	195.533	-8191	255	
4160.440	1	1	0	0	0.26967	0.11649	0.19661	0.033062	0.19278	0.2241	0.12857	0.074351	0.077819	0.17323	0.090026	0.25195	0.037075	0.092631	0.10028	0.39221	-2.8083	-3.8563	-3.5625	-3.5938	-4.0146	-3.4271	-3.7667	-3.7083	-3.2979	-3.85	-3.7167	-3.4354	-3.9542	-3.425	-3.6542	-3.9208	442.932	430.278	204.881	487.534	522.959	306.620	378.497	297.017	335.400	504.469	482.046	174.907	482.219	380.968	354.070	185.380	0.00075578	0.00012908	6.1414e-05	582.01	1.2037e-06	8.6264e-07	562.52	219.37	1.7652e-06	1.3507e-06	193.72	86.953	103.52	43.218	1.3909e-06	37.513	6.2014e-05	5.7028e-05	1.8613e-05	516.61	6.338e-07	6.3021e-07	491.48	180.55	6.3647e-07	6.3042e-07	157.53	68.694	81.74	33.921	7.3825e-07	28.62	484.787	249.099	377.784	186.565	372.718	288.284	183.178	192.630	271.152	281.046	188.295	191.581	197.030	201.830	282.029	195.651	-8191	255	
4160.561	1	1	0	0	0.14178	0.096429	0.028609	0.22287	0.15827	0.026712	0.21411	0.029453	0.20194	0.32433	0.11144	0.036686	0.11097	0.25346	0.28771	0.1571	-2.9062	-4.0542	-3.5271	-3.2646	-4.0375	-3.5187	-3.5542	-3.6958	-3.375	-3.8604	-3.675	-3.2833	-4.0167	-3.4042	-3.5833	-3.8375	534.776	218.132	467.288	219.678	460.736	462.025	475.521	505.185	423.571	225.268	503.146	486.977	472.991	487.476	228.873	177.679	0.00078133	6.8608e-05	8.8366e-05	580.58	1.484e-06	8.6526e-07	564.31	219.09	1.2411e-06	1.3874e-06	194.57	87.63	103.85	43.173	1.6442e-06	37.515	5.9474e-05	6.0559e-05	1.8855e-05	516.7	6.1666e-07	6.7402e-07	493.08	180.62	6.2286e-07	6.7896e-07	158.08	69.175	81.92	34.007	7.2501e-07	28.66	475.587	202.901	272.276	186.960	283.036	237.788	183.457	193.089	255.638	262.743	188.274	191.887	197.224	201.818	248.993	195.614	-8191	255	
4160.655	1	1	0	0	0.13308	0.10094	0.088189	0.038578	0.23097	0.27418	0.17276	0.13601	0.15769	0.10868	0.066111	0.14376	0.20863	0.25121	0.11066	0.02042	-2.9167	-3.8292	-3.7313	-3.4042	-3.8312	-3.5187	-3.6667	-3.9083	-3.3833	-3.7604	-3.85	-3.1708	-4.0312	-3.5208	-3.4854	-3.9417	408.840	300.540	508.515	486.310	351.488	504.382	523.212	415.451	240.435	349.654	501.594	476.136	435.144	258.996	301.584	373.693	0.0008109	0.00020599	2.396e-05	583.59	3.2395e-06	1.7777e-06	563.24	218.45	1.2772e-06	7.3162e-07	196.46	88.073	103.73	43.177	6.7512e-07	37.353	5.8923e-05	6.4952e-05	1.8305e-05	516.49	6.1865e-07	7.2967e-07	492.96	180	6.4075e-07	7.3457e-07	157.85	69.092	82.053	34.012	7.1091e-07	28.516	476.535	212.512	267.204	186.707	316.738	243.213	183.733	192.778	291.456	505.784	188.549	191.654	197.164	201.706	228.653	195.692	-8191	255	
4160.751	1	1	0	0	0.22869	0.10703	0.057552	0.24756	0.17198	0.17547	0.10715	0.16315	0.20823	0.1025	0.19202	0.17931	0.16342	0.22462	0.097406	0.1885	-2.9854	-3.6479	-3.7042	-3.2438	-3.9646	-3.6312	-3.6021	-4.0208	-3.4458	-3.7271	-3.7708	-3.1396	-3.7396	-3.6458	-3.325	-4.0479	339.524	232.651	224.873	415.343	216.317	392.659	377.874	385.418	299.695	245.296	427.977	228.051	514.357	452.347	338.696	464.894	0.00087667	0.00016641	7.6618e-05	581.21	7.1338e-07	1.9283e-06	558.6	217.48	1.1094e-06	8.8115e-07	195.2	87.041	103.93	42.903	1.0262e-06	36.935	6.1962e-05	6.85e-05	1.7811e-05	515.01	6.6414e-07	7.6215e-07	490.23	179.26	6.7805e-07	7.542e-07	156.32	68.675	82.041	33.954	6.9432e-07	28.264	476.106	396.391	274.787	186.898	254.425	282.144	183.593	192.793	522.107	439.388	188.592	191.814	196.991	201.811	335.793	195.400	-8191	255	
4160.847	1	1	0	0	0.24951	0.16531	0.22561	0.16555	0.15458	0.15579	0.077262	0.04485	0.24151	0.16108	0.071455	0.032931	0.10356	0.16244	0.042595	0.07251	-3.0375	-3.5417	-3.7333	-3.2333	-3.6958	-3.6375	-3.4062	-3.9771	-3.5729	-3.5563	-3.7958	-3.4104	-3.9958	-3.5687	-3.3083	-3.9667	210.661	315.368	469.911	397.948	512.127	428.791	456.262	454.372	398.809	374.011	359.571	475.992	500.923	221.051	326.194	185.149	0.00066944	7.8679e-05	3.5471e-05	578.13	2.0446e-06	1.9588e-07	561.4	217.89	4.6785e-06	2.3674e-06	194.03	86.557	103.06	42.985	1.9197e-06	37.276	6.6648e-05	6.7754e-05	1.7216e-05	514.26	6.9968e-07	7.3964e-07	489.72	178.92	7.1651e-07	7.2857e-07	155.77	68.276	81.918	33.944	6.7282e-07	28.382	471.213	500.329	233.923	186.740	234.531	291.417	183.344	192.443	247.218	364.220	188.444	191.538	197.225	201.913	342.658	195.602	-8191	255	
4160.943	1	1	0	0	0.31923	0.03908	0.0077734	0.11911	0.14023	0.056776	0.13985	0.075748	0.050796	0.21418	0.095478	0.11994	0.07273	0.21388	0.1085	0.33117	-3.1271	-3.5833	-3.9917	-3.4604	-3.7458	-3.7292	-3.2146	-4.0208	-3.5875	-3.5583	-4.075	-3.3667	-3.8312	-3.9167	-3.2625	-3.8917	349.691	263.872	503.629	528.389	409.097	278.280	252.563	387.943	185.192	490.173	447.050	472.152	227.223	488.264	352.910	506.760	0.00089051	0.00020926	5.3915e-05	581.11	1.7797e-06	1.6371e-06	560.69	217.43	1.4213e-06	1.0867e-06	194.28	86.857	103.36	43.308	1.6986e-06	37.496	7.0432e-05	6.5698e-05	1.6706e-05	514.32	7.4082e-07	7.0775e-07	489.61	179.16	7.5819e-07	7.1109e-07	156.25	68.921	82.329	33.994	6.5776e-07	28.643	478.514	245.167	290.114	186.611	248.042	357.728	183.487	192.918	264.194	312.107	188.466	191.557	197.131	201.996	300.075	195.328	-8191	255	
4161.040	1	1	0	0	0.2097	0.21739	0.11098	0.089078	0.30315	0.16326	0.25067	0.033717	0.21581	0.26069	0.19578	0.15201	0.15933	0.061113	0.1768	0.14107	-3.0167	-3.5083	-4.0792	-3.3771	-3.7271	-3.8333	-3.4042	-3.8396	-3.5333	-3.3042	-4.0542	-3.3083	-3.7812	-4.0042	-3.3354	-3.875	387.666	533.094	416.716	313.230	239.054	443.635	365.049	266.622	182.818	274.140	432.100	178.052	303.330	433.739	487.211	493.191	0.00078787	0.00012193	2.3007e-05	580.89	4.983e-08	1.6049e-06	563.29	218.22	1.8402e-06	6.8581e-07	194.19	87.679	103.65	43.057	1.012e-06	37.5	7.21e-05	6.43e-05	1.6474e-05	516.27	7.6368e-07	6.9448e-07	489.6	180.05	7.5728e-07	6.8723e-07	155.97	69.372	82.457	33.862	6.4126e-07	28.675	471.346	244.859	290.513	186.697	514.138	355.180	183.308	192.671	318.728	384.653	188.239	191.680	197.188	201.985	288.196	195.495	-8191	255	
4161.160	1	1	0	0	0.085074	0.17601	0.21748	0.24099	0.2415	0.12283	0.23586	0.22401	0.050953	0.2194	0.11408	0.10643	0.096449	0.14419	0.15776	0.047484	-3.1625	-3.3292	-3.8187	-3.5042	-3.5104	-3.8375	-3.3542	-3.9708	-3.8125	-3.3208	-4.025	-3.5479	-3.4521	-3.8438	-3.4771	-3.7979	300.960	217.143	301.315	508.736	382.381	433.552	316.141	514.432	266.397	433.225	529.837	373.284	502.025	271.489	451.191	455.370	0.00069897	6.7522e-05	4.2648e-05	583.07	2.7451e-06	2.1067e-06	564.48	217.64	4.2311e-07	1.3003e-06	193.95	86.971	103.54	42.778	1.0798e-06	37.046	6.9894e-05	6.2223e-05	1.593e-05	517.81	7.4003e-07	6.6635e-07	488.34	180.21	7.1904e-07	6.5702e-07	155.01	68.966	81.967	33.65	6.3143e-07	28.515	489.090	285.931	175.517	186.874	382.567	301.001	183.527	192.768	282.374	355.860	188.302	191.624	197.016	201.710	282.612	195.477	-8191	255	
4161.256	1	1	0	0	0.20879	0.015706	0.14499	0.1599	0.078237	0.18989	0.12275	0.12977	0.15049	0.17616	0.33382	0.29066	0.18979	0.15265	0.28835	0.077272	-3.325	-3.1312	-3.8563	-3.6542	-3.5792	-4.0188	-3.4521	-3.7292	-3.6792	-3.3479	-3.8646	-3.5146	-3.575	-4.0979	-3.3271	-3.7812	527.227	392.038	263.583	469.217	221.063	413.131	504.089	414.581	268.390	533.089	339.685	358.221	412.132	177.039	214.091	202.112	0.00075819	9.8019e-05	4.887e-05	579.9	3.2775e-06	1.4518e-06	561.85	218.24	1.2996e-06	1.8619e-06	193.87	87.022	103.1	42.988	2.7364e-06	36.981	6.585e-05	5.9339e-05	1.5899e-05	517.66	6.9789e-07	6.3783e-07	487.96	180.36	6.8703e-07	6.36e-07	155.25	69.041	81.738	33.615	6.7076e-07	28.523	472.253	243.911	224.268	186.895	370.951	367.531	183.416	192.852	218.304	332.023	188.722	191.543	197.016	202.087	191.235	195.274	-8191	255	
4161.352	1	1	0	0	0.04562	0.31979	0.1426	0.24056	0.070927	0.26737	0.19178	0.107	0.1632	0.07897	0.12723	0.2282	0.2476	0.26752	0.33505	0.1327	-3.4521	-3.2625	-3.8833	-3.5479	-3.4771	-4.05	-3.3833	-3.7771	-3.8604	-3.25	-3.7958	-3.6646	-3.2	-3.8917	-3.45	-3.6417	323.499	380.099	272.905	528.481	485.227	306.480	442.496	194.670	337.170	471.931	482.859	451.156	182.819	221.106	240.436	253.799	0.00076078	0.00018324	3.1042e-05	579.98	1.2962e-06	1.5941e-06	563.25	217.35	1.7392e-06	1.4127e-06	193.72	86.847	103.28	42.963	1.0008e-06	37.252	6.4241e-05	5.7391e-05	1.6839e-05	517.19	6.7278e-07	6.1608e-07	490.22	180.08	6.6478e-07	6.198e-07	156.01	68.831	81.533	33.551	7.0899e-07	28.556	483.143	530.825	218.501	186.366	222.735	272.845	183.257	192.601	300.440	274.764	188.243	191.894	197.040	201.854	266.644	195.623	-8191	255	
4161.449	1	1	0	0	0.14341	0.083257	0.046774	0.10385	0.16015	0.089493	0.23964	0.33167	0.1307	0.23538	0.17483	0.13916	0.18425	0.085008	0.14509	0.21573	-3.5438	-3.2687	-3.7313	-3.7771	-3.2958	-3.9792	-3.4437	-3.3792	-4.0271	-3.3979	-3.7833	-3.8354	-3.4417	-4.0229	-3.5438	-3.4479	327.310	184.278	265.058	429.089	299.339	223.986	423.358	440.320	411.734	403.818	495.687	354.429	264.489	210.171	318.563	501.843	0.00081869	6.7134e-05	4.1268e-05	578.65	2.5234e-06	1.1033e-06	562.35	217.26	3.0978e-06	9.7606e-07	194.3	86.508	103.36	42.624	9.1349e-07	37.258	6.1464e-05	5.6494e-05	1.7902e-05	515.92	6.4737e-07	6.1097e-07	490.53	179.39	6.4485e-07	6.2282e-07	157.01	68.633	81.443	33.513	7.3789e-07	28.41	470.590	238.163	257.086	186.467	384.852	264.926	183.372	192.603	357.005	306.112	188.178	191.544	196.939	201.931	236.898	195.233	-8191	255	
4161.567	1	1	0	0	0.10833	0.19166	0.099565	0.16329	0.31623	0.10586	0.093722	0.15043	0.17375	0.10534	0.1946	0.079976	0.15384	0.27458	0.20798	0.12012	-3.4333	-3.2354	-3.5542	-3.9188	-3.2292	-3.8187	-3.5646	-3.3417	-4.0083	-3.4292	-3.5854	-3.875	-3.2708	-4.025	-3.7167	-3.5542	413.483	176.122	329.137	520.054	373.500	244.233	377.899	295.483	248.323	243.087	258.981	268.200	317.996	454.088	516.941	491.249	0.00082659	0.000129	4.4678e-05	575.65	1.479e-06	1.61e-06	560.4	215.68	2.3332e-06	2.2882e-06	191.86	86.759	102.84	42.567	2.4638e-06	36.766	5.9674e-05	5.8193e-05	1.859e-05	513.07	6.3258e-07	6.4257e-07	489.66	178.53	6.2068e-07	6.5728e-07	155.74	68.217	81.149	33.496	7.4196e-07	28.13	478.556	460.738	278.783	186.715	360.567	285.701	183.332	192.648	242.601	274.006	188.044	191.622	197.252	201.735	267.035	195.765	-8191	255	
4161.641	1	1	0	0	0.082203	0.2729	0.10765	0.039897	0.13749	0.1191	0.044902	0.14354	0.1921	0.059467	0.11442	0.33341	0.12759	0.15635	0.14722	0.18381	-3.6604	-3.4333	-3.5396	-4.0208	-3.3792	-3.8458	-3.6521	-3.3583	-3.9396	-3.35	-3.6167	-3.9938	-3.2604	-3.95	-3.7896	-3.3521	487.365	441.412	312.129	445.366	481.987	257.272	441.463	443.637	300.097	278.618	465.579	420.708	529.807	488.319	255.176	383.812	0.00079463	0.00011369	5.2967e-05	581.51	1.6955e-06	6.0763e-07	560.71	216.62	5.8037e-07	1.3612e-06	192.05	86.403	102.77	42.725	1.6384e-06	36.745	5.8434e-05	6.3097e-05	1.852e-05	514.41	6.257e-07	6.8786e-07	489.34	178.11	6.1264e-07	7.0998e-07	155.41	68.076	81.136	33.568	7.0439e-07	28.092	479.339	192.725	259.057	186.851	319.375	310.981	183.446	192.753	253.343	308.153	188.343	191.549	196.992	201.785	275.094	195.595	-8191	255	
4161.735	1	1	0	0	0.10298	0.072158	0.16432	0.082627	0.10822	0.14083	0.045897	0.22539	0.17764	0.12222	0.27995	0.085837	0.15772	0.076237	0.090845	0.18638	-3.4417	-3.3875	-3.4896	-3.8396	-3.1917	-3.7229	-3.75	-3.1542	-3.9646	-3.4688	-3.3583	-4.0333	-3.2896	-3.7854	-3.8812	-3.3625	474.814	194.225	299.298	511.420	285.769	447.038	282.187	256.159	412.959	229.593	177.192	466.961	414.976	502.419	526.792	183.017	0.00087386	0.00021422	5.9419e-05	578.82	1.6832e-06	1.3659e-06	560.14	217.05	2.3218e-06	7.0352e-07	192.77	86.71	103.18	42.843	2.3607e-06	37.157	5.8274e-05	6.6336e-05	1.7799e-05	513.71	6.3132e-07	7.2478e-07	488.3	178.46	6.2513e-07	7.2675e-07	155.35	68.233	81.385	33.618	6.688e-07	28.16	475.466	209.101	179.631	186.642	243.256	459.624	183.597	192.779	216.239	256.464	188.550	192.105	197.127	202.147	228.378	195.772	-8191	255	
4161.831	1	1	0	0	0.15561	0.11648	0.074832	0.11363	0.12071	0.030151	0.067855	0.13548	0.10087	0.11905	0.16572	0.19665	0.34445	0.19158	0.23839	0.09204	-3.2792	-3.4437	-3.3729	-3.925	-3.2771	-3.7604	-3.8083	-3.4208	-3.7438	-3.6042	-3.2083	-3.9354	-3.4521	-3.6646	-3.7687	-3.35	233.695	424.725	369.188	203.046	450.555	271.947	455.546	206.345	452.944	200.377	194.325	189.587	217.123	197.605	490.251	502.109	0.00084135	0.0001505	8.1396e-05	577.48	2.578e-06	1.4744e-06	560.72	215.68	2.6416e-06	1.2421e-06	192.92	86.795	103.09	42.489	1.3592e-06	36.668	6.0921e-05	6.663e-05	1.6848e-05	510.89	6.7017e-07	7.2844e-07	487.87	178.14	6.7555e-07	7.2407e-07	155.2	68.091	81.46	33.531	6.5242e-07	27.994	481.081	282.476	323.608	186.747	254.538	360.687	183.129	192.911	274.810	298.348	188.858	191.652	197.170	202.039	309.223	195.645	-8191	255	
4161.952	1	1	0	0	0.053917	0.23261	0.21403	0.14185	0.18623	0.12411	0.22911	0.13891	0.17983	0.13543	0.28357	0.066589	0.12584	0.051079	0.064463	0.10649	-3.5187	-3.5521	-3.2458	-3.9292	-3.5729	-3.6063	-3.9146	-3.3542	-3.6583	-3.9167	-3.1167	-3.9938	-3.4979	-3.6521	-3.975	-3.4208	322.250	310.135	449.325	257.431	524.038	360.248	461.539	203.730	379.477	408.927	458.082	229.427	192.114	350.910	273.531	386.446	0.00064676	8.5239e-05	8.0265e-06	576.38	9.4188e-07	1.6723e-06	556.41	214.64	2.8749e-06	2.3982e-06	191.18	85.522	102.39	42.576	1.7547e-06	36.604	6.5095e-05	6.5248e-05	1.6283e-05	508.82	7.07e-07	6.919e-07	482.5	176.82	6.9776e-07	6.8401e-07	153.37	67.206	81.2	33.414	6.215e-07	27.849	481.344	273.359	312.666	186.399	220.217	374.521	183.336	192.830	232.402	344.731	188.292	191.700	197.219	201.832	256.536	195.270	-8191	255	
4162.048	1	1	0	0	0.22487	0.063091	0.11557	0.063615	0.18585	0.14465	0.11999	0.14966	0.066405	0.15114	0.1173	0.12306	0.23166	0.05951	0.13115	0.21409	-3.5833	-3.6604	-3.1167	-3.8417	-3.4437	-3.3208	-3.95	-3.4896	-3.6229	-3.8354	-3.3083	-3.9625	-3.7417	-3.25	-3.8896	-3.5104	252.494	195.174	510.050	440.038	274.766	420.270	300.970	296.577	475.947	363.981	288.352	395.391	232.982	357.669	493.424	176.445	0.00094467	0.00016582	2.726e-05	576.19	2.624e-06	1.8641e-06	554.76	215.61	1.0401e-06	4.3519e-07	190.19	85.617	102.14	42.43	9.7167e-07	36.655	6.7294e-05	6.0886e-05	1.5793e-05	510.3	7.2441e-07	6.6693e-07	482.38	177.31	7.1952e-07	6.5047e-07	153.03	67.54	81.208	33.337	5.9661e-07	28.014	480.169	298.971	232.281	186.571	257.429	317.210	183.295	192.769	284.173	487.947	188.285	191.543	197.230	201.907	302.096	195.567	-8191	255	
4162.144	1	1	0	0	0.24509	0.022526	0.2544	0.11381	0.21703	0.043892	0.43958	0.2401	0.073672	0.10254	0.048879	0.16008	0.075005	0.22592	0.13244	0.19776	-3.1583	-3.7333	-3.1604	-3.9896	-3.675	-3.4667	-4.0938	-3.5333	-3.5521	-3.9062	-3.25	-3.8333	-3.9062	-3.3521	-3.9417	-3.3833	292.082	211.644	291.232	524.556	312.638	195.698	450.370	271.087	334.030	299.053	402.855	513.630	490.585	448.160	191.696	421.051	0.00078485	0.00022697	7.4701e-05	575.2	1.9021e-06	8.2195e-07	557.96	215.09	2.8702e-06	1.407e-06	191.98	86.4	102.87	42.772	7.9612e-07	36.949	6.641e-05	5.7983e-05	1.4999e-05	510.74	7.0185e-07	6.3486e-07	482.9	178.28	7.0214e-07	6.2669e-07	153.49	68.121	81.265	33.426	5.8427e-07	28.322	478.109	209.431	267.563	186.374	371.541	392.827	183.284	192.903	285.122	317.500	188.548	191.645	197.098	201.824	179.406	195.601	-8191	255	
4162.241	1	1	0	0	0.24114	0.15032	0.099524	0.15476	0.042609	0.081169	0.15628	0.1188	0.16239	0.25395	0.1031	0.17914	0.17718	0.035465	0.070146	0.15416	-3.1396	-3.9562	-3.4146	-3.7833	-3.6708	-3.1146	-3.8146	-3.5896	-3.475	-3.9062	-3.2667	-3.8771	-3.8187	-3.125	-3.8271	-3.6667	187.100	478.787	320.286	491.741	303.211	218.596	532.925	245.462	362.206	230.580	326.914	455.987	200.526	370.341	531.883	425.896	0.00059351	9.6397e-05	8.2739e-05	576.04	7.6247e-07	3.3374e-06	561.13	216.05	1.3233e-06	2.939e-07	192.42	85.99	102.18	42.464	5.3269e-07	36.995	6.4162e-05	5.6113e-05	1.513e-05	512.34	6.7644e-07	6.1384e-07	482.58	178.76	6.6934e-07	6.0351e-07	154	68.274	80.856	33.261	5.9794e-07	28.318	491.436	207.230	247.628	186.783	335.830	317.864	183.495	192.761	347.537	408.175	188.501	191.845	197.019	201.623	285.351	195.700	-8191	255	
4162.337	1	1	0	0	0.058021	0.15217	0.052831	0.12497	0.074914	0.063628	0.20262	0.26934	0.070214	0.035315	0.056362	0.062843	0.15442	0.16492	0.19182	0.10139	-2.975	-3.8833	-3.2375	-3.8438	-3.8229	-3.2458	-3.7792	-3.4958	-3.3375	-3.9771	-3.2771	-3.7333	-3.9896	-3.3458	-3.6833	-3.6521	323.741	363.917	415.858	310.056	234.001	431.340	527.808	433.124	419.608	489.779	437.779	222.709	496.063	503.352	341.649	217.683	0.00081335	0.00015805	3.9879e-05	575.11	2.9215e-07	1.7322e-06	558.17	215.31	1.8675e-06	1.8483e-06	192.03	85.195	101.89	42.349	1.0376e-06	36.554	6.1315e-05	5.4484e-05	1.5722e-05	512.3	6.4157e-07	5.871e-07	482.86	178.51	6.3383e-07	5.7705e-07	154	67.824	80.504	33.165	6.4094e-07	28.054	487.883	249.034	244.394	186.430	351.170	310.010	183.520	192.507	277.361	435.502	188.198	191.568	197.048	201.829	237.708	195.668	-8191	255	
4162.433	1	1	0	0	0.21858	0.097383	0.18712	0.11723	0.17047	0.14302	0.16275	0.082404	0.17027	0.36136	0.17626	0.14204	0.16023	0.15716	0.28283	0.18022	-2.9771	-3.7771	-3.4562	-3.5896	-3.8979	-3.2958	-3.8021	-3.6229	-3.2875	-3.8812	-3.425	-3.5229	-4.0021	-3.3937	-3.6646	-3.5854	488.413	435.429	245.007	363.422	518.674	492.329	420.002	493.665	227.969	360.812	404.716	315.360	338.091	458.890	295.272	217.385	0.00086701	0.00017862	2.8423e-05	573.72	9.8254e-07	2.3269e-06	556.19	216.07	2.1146e-06	1.5798e-06	191.18	85.603	101.56	42.516	1.4647e-06	36.727	5.9219e-05	5.2255e-05	1.6543e-05	511.09	6.1105e-07	5.8196e-07	483.49	178.36	6.1658e-07	5.7018e-07	154.62	67.683	80.417	33.285	6.8159e-07	28.113	478.693	280.631	361.459	186.741	232.043	279.974	183.263	193.008	324.838	304.537	188.359	191.438	197.138	201.762	303.350	195.221	-8191	255	
4162.529	1	1	0	0	0.10264	0.073995	0.23385	0.20567	0.20814	0.30568	0.13708	0.25829	0.19536	0.036269	0.22949	0.23908	0.20393	0.13911	0.28992	0.29761	-3.0417	-3.9021	-3.5062	-3.3812	-3.8688	-3.3417	-3.5792	-3.7979	-3.4104	-3.9625	-3.6063	-3.3479	-3.9437	-3.4396	-3.7208	-3.7938	217.229	486.213	408.611	481.455	530.905	324.644	404.242	250.135	534.343	175.857	340.658	434.872	397.292	288.951	176.475	321.148	0.00076432	0.0001668	5.5891e-05	575.42	3.2282e-06	2.6464e-06	554.83	216.57	1.9093e-06	3.8789e-07	193.12	86.092	102.33	42.687	1.5494e-06	36.825	5.7773e-05	5.3772e-05	1.7632e-05	511.38	6.0203e-07	5.9929e-07	484.93	177.94	5.9602e-07	5.9786e-07	155.43	67.613	80.498	33.345	7.0421e-07	28.174	479.445	230.120	251.589	186.517	328.610	244.247	183.525	192.668	260.292	186.076	188.096	191.655	197.261	201.854	293.343	195.761	-8191	255	
4162.648	1	1	0	0	0.19045	0.29628	0.14483	0.20007	0.14879	0.13361	0.21039	0.073143	0.062678	0.14392	0.22631	0.263	0.15629	0.2025	0.079735	0.11491	-2.8	-3.7292	-3.5062	-3.3646	-4.0062	-3.3333	-3.6208	-3.8771	-3.2354	-3.8208	-3.6083	-3.3312	-3.9333	-3.3312	-3.5604	-4.0104	334.311	218.982	367.905	318.055	245.187	333.789	403.516	458.451	445.247	390.281	223.618	484.397	224.942	302.744	220.580	267.727	0.00065357	0.0001178	1.9111e-05	575.26	2.999e-06	1.9364e-06	558.76	216.14	2.1903e-06	8.1999e-07	192.74	86.013	102.71	42.512	2.1786e-06	36.912	5.5871e-05	5.6563e-05	1.7857e-05	510.18	5.8245e-07	6.3349e-07	486.69	177.55	5.8313e-07	6.4422e-07	155.73	67.763	80.522	33.379	6.782e-07	28.091	479.837	259.900	325.725	186.594	327.298	212.596	183.418	192.731	294.715	249.914	188.829	191.858	197.089	201.794	275.392	195.623	-8191	255	
4162.744	1	1	0	0	0.16741	0.15851	0.21693	0.095425	0.12469	0.12682	0.21963	0.26591	0.066002	0.11882	0.10007	0.1834	0.19494	0.18571	0.081963	0.20475	-2.8521	-3.6813	-3.6292	-3.3667	-3.8458	-3.3375	-3.625	-3.9313	-3.3917	-3.7667	-3.9292	-3.0958	-3.8688	-3.5354	-3.4896	-3.9938	298.940	484.323	233.970	207.833	442.363	409.709	226.074	431.478	378.960	416.994	457.847	203.509	296.789	459.459	221.383	433.999	0.00087431	0.00023073	3.2223e-05	575.68	1.6895e-06	1.2973e-06	555.68	215.03	3.1338e-06	5.7604e-07	191.57	85.168	101.42	42.466	2.8815e-06	36.628	5.523e-05	6.0151e-05	1.7057e-05	508.82	5.6559e-07	6.7229e-07	483.04	176.62	5.7975e-07	6.7412e-07	153.82	66.877	79.842	33.371	6.5169e-07	27.832	482.096	227.344	313.784	186.796	326.978	186.279	183.504	192.555	284.062	350.768	188.376	191.581	196.988	201.826	247.845	195.305	-8191	255	
4162.840	1	1	0	0	0.10877	0.11845	0.09368	0.044316	0.10014	0.091198	0.091083	0.15838	0.081907	0.19279	0.021831	0.077677	0.17124	0.24109	0.07787	0.041374	-2.9542	-3.6396	-3.9667	-3.4146	-3.9146	-3.5271	-3.4979	-3.9125	-3.3688	-3.7104	-3.8563	-3.2229	-3.8792	-3.6792	-3.4729	-4.0479	455.887	219.250	300.175	250.717	363.679	351.708	223.885	453.628	502.848	476.924	340.241	371.066	321.222	411.810	363.064	205.994	0.00088048	0.00021112	3.7167e-05	572.53	3.032e-07	1.5522e-06	554.81	215.78	1.5663e-06	1.3587e-06	190.84	85.05	101.41	42.53	9.7717e-07	36.827	5.6987e-05	6.3136e-05	1.6561e-05	507.93	6.0615e-07	6.9939e-07	482.38	176.42	6.1759e-07	6.9395e-07	152.86	66.716	80.06	33.418	6.2548e-07	27.857	486.941	174.695	276.448	186.713	284.285	269.187	183.388	192.493	257.136	247.712	188.326	191.582	197.137	201.865	226.761	195.473	-8191	255	
4162.936	1	1	0	0	0.13947	0.22116	0.34334	0.080777	0.077632	0.095769	0.26338	0.086621	0.0848	0.18925	0.05169	0.070013	0.13153	0.11675	0.1182	0.19156	-3.0896	-3.7521	-3.6937	-3.2021	-3.7167	-3.6521	-3.3417	-3.9104	-3.4396	-3.6646	-3.8958	-3.2687	-4.0125	-3.6188	-3.3187	-3.9646	433.550	456.795	452.122	281.006	202.351	453.706	495.595	235.577	265.413	361.860	478.202	339.390	515.922	427.377	493.856	238.308	0.00080695	0.0001258	5.2561e-05	573.31	2.5707e-06	1.8274e-06	553.63	214.44	1.0831e-06	5.3708e-07	191.21	85.968	102.08	42.448	8.3153e-07	36.8	6.0435e-05	6.2828e-05	1.5788e-05	507.54	6.4511e-07	6.8434e-07	481.45	176.39	6.5763e-07	6.7802e-07	153.6	67.149	80.634	33.363	6.0693e-07	27.951	478.640	283.064	292.599	186.733	285.410	302.384	183.363	192.557	250.512	374.865	188.169	191.659	196.970	202.123	261.694	195.526	-8191	255	
4163.032	1	1	0	0	0.20916	0.14263	0.14515	0.16666	0.11426	0.04249	0.1225	0.21944	0.041688	0.32406	0.10926	0.1729	0.024149	0.17779	0.13388	0.19672	-3.05	-3.4354	-3.8896	-3.2354	-3.7875	-3.6896	-3.2979	-3.8146	-3.5604	-3.5708	-3.8521	-3.1458	-3.7479	-3.7458	-3.3667	-3.7854	329.025	351.223	488.721	511.517	280.760	368.860	461.075	383.639	252.634	341.044	421.872	189.074	196.879	182.499	349.861	188.771	0.00073041	0.00011586	8.849e-05	576.84	1.5577e-06	2.1942e-06	558.43	215.9	1.1619e-06	1.0354e-06	192.41	86.357	101.87	42.63	7.374e-07	37.092	6.3301e-05	5.9519e-05	1.5184e-05	507.88	6.7188e-07	6.4434e-07	481.41	176.95	6.8495e-07	6.3827e-07	153.6	67.548	80.737	33.34	5.8618e-07	28.052	481.418	300.593	326.800	186.664	250.555	316.346	183.401	192.707	208.148	399.044	188.507	191.667	197.003	201.807	259.884	195.443	-8191	255	
4163.129	1	1	0	0	0.1491	0.078082	0.059405	0.10341	0.10743	0.25353	0.089535	0.17269	0.17727	0.10334	0.24846	0.10459	0.068938	0.17897	0.33205	0.21643	-3.1833	-3.2729	-3.8583	-3.3271	-3.5687	-3.725	-3.2417	-3.8396	-3.6625	-3.4375	-3.9938	-3.4521	-3.4708	-3.7896	-3.2687	-3.8792	403.975	343.982	489.698	220.991	521.549	216.135	423.971	217.877	223.495	298.318	185.856	443.500	190.728	214.256	496.625	183.485	0.00068523	0.00031246	5.1064e-05	570.96	9.291e-07	2.0589e-06	553.12	214.71	1.4635e-06	1.6497e-06	191.87	85.344	101.5	42.418	8.5e-07	36.553	6.4421e-05	5.6808e-05	1.4401e-05	505.85	6.7786e-07	6.1231e-07	477.67	176.69	6.7156e-07	6.0637e-07	151.86	66.837	80.245	33.2	5.6397e-07	27.936	483.452	269.845	247.162	186.629	187.070	299.359	183.245	192.718	274.497	359.061	188.349	191.371	197.011	201.811	301.864	195.208	-8191	255	
4163.249	1	1	0	0	0.099001	0.11939	0.25509	0.041621	0.20479	0.096889	0.060757	0.19991	0.26941	0.21852	0.20499	0.29079	0.20376	0.20012	0.12117	0.11757	-3.2354	-3.3875	-3.9167	-3.4437	-3.45	-3.9042	-3.3021	-3.7604	-3.6667	-3.1979	-3.9979	-3.4062	-3.4542	-4.0583	-3.1021	-3.7938	255.373	383.731	424.411	354.865	326.450	363.778	454.067	327.250	434.206	329.479	438.739	412.167	515.431	523.152	381.117	463.342	0.00082518	9.0816e-05	2.8772e-05	576.2	2.1783e-06	9.2766e-07	549.9	215.61	1.5239e-06	2.1808e-06	191.07	84.477	101.28	42.454	1.6683e-06	36.463	6.3283e-05	5.4958e-05	1.4039e-05	509.18	6.5825e-07	5.8506e-07	476.6	177.29	6.5366e-07	5.885e-07	151.57	66.994	79.997	33.172	5.6981e-07	28.005	489.654	294.864	345.004	186.566	306.401	251.356	183.183	192.607	335.571	381.070	188.292	191.519	197.163	201.954	250.969	195.726	-8191	255	
4163.345	1	1	0	0	0.12501	0.23258	0.12068	0.14615	0.32049	0.087087	0.22422	0.11476	0.10368	0.13321	0.20687	0.15077	0.18426	0.14729	0.10825	0.06717	-3.2292	-3.1521	-3.9562	-3.4667	-3.35	-3.9437	-3.3583	-3.4979	-3.7625	-3.1708	-3.7417	-3.5792	-3.35	-3.9437	-3.1646	-3.6042	530.408	473.207	336.314	179.617	304.716	196.612	441.491	404.828	475.892	230.223	523.370	292.950	529.374	527.955	471.319	367.065	0.00086866	0.00019128	4.5235e-05	573.36	2.1156e-06	1.2207e-06	555.68	216.68	1.1503e-06	1.3949e-06	190.93	85.126	101.39	42.516	1.1781e-06	37.035	6.0261e-05	5.3535e-05	1.4539e-05	510.3	6.3726e-07	5.7635e-07	479.91	178.58	6.2756e-07	5.7963e-07	152.55	67.601	80.161	33.176	6.0875e-07	28.265	486.444	299.292	212.075	186.564	322.588	368.174	183.225	192.965	256.915	328.010	188.281	191.572	197.085	201.856	217.169	195.398	-8191	255	
4163.442	1	1	0	0	0.3493	0.15272	0.041311	0.12158	0.30492	0.1679	0.10382	0.1495	0.16445	0.066742	0.18288	0.13151	0.25078	0.0013036	0.19888	0.16575	-3.3937	-3.1604	-3.925	-3.575	-3.3688	-3.9479	-3.3438	-3.6229	-3.9333	-3.1937	-3.8125	-3.725	-3.2188	-4.0667	-3.4062	-3.4146	428.201	351.392	281.777	201.608	414.511	413.749	194.731	374.130	226.960	189.534	509.747	401.327	474.221	180.000	458.631	531.826	0.00078931	3.099e-05	3.7176e-05	573.84	3.2853e-06	1.5009e-06	555.96	216.14	1.4807e-06	5.6065e-07	191.1	85.38	102.15	42.626	2.3016e-06	36.993	5.8336e-05	5.2813e-05	1.5464e-05	510.81	6.209e-07	5.7088e-07	482.49	178.58	6.157e-07	5.7266e-07	154.1	67.884	80.544	33.299	6.6795e-07	28.318	477.289	187.985	251.992	186.637	192.829	471.532	183.294	192.709	293.697	433.632	188.498	191.576	197.286	201.747	187.251	195.418	-8191	255	
4163.513	1	1	0	0	0.096531	0.16294	0.10279	0.3044	0.11667	0.10036	0.1404	0.087497	0.033621	0.13248	0.252	0.17465	0.056948	0.13317	0.24025	0.10247	-3.2896	-3.2479	-3.675	-3.5125	-3.1937	-3.8438	-3.6125	-3.5271	-3.8563	-3.1354	-3.8812	-3.7875	-3.225	-3.8229	-3.4292	-3.4583	305.664	365.807	387.472	466.890	511.122	274.484	451.931	429.827	393.110	242.187	212.094	475.430	204.196	316.553	253.173	276.348	0.00071934	0.00012743	0.00011075	576.92	2.5653e-06	1.5112e-06	552.53	215.65	3.5834e-06	1.129e-06	191.61	85.354	101.4	42.365	3.3831e-07	36.77	5.8158e-05	5.3303e-05	1.7047e-05	510.38	6.1865e-07	5.7932e-07	482.75	177.53	6.0719e-07	5.89e-07	154.28	67.419	80.241	33.197	7.0183e-07	28.082	479.116	190.498	205.799	186.540	319.917	225.824	183.576	192.358	321.536	204.289	188.191	191.794	197.128	201.787	372.134	195.569	-8191	255	
4163.632	1	1	0	0	0.086267	0.14007	0.202	0.21504	0.26185	0.13741	0.097601	0.13386	0.15707	0.20374	0.16784	0.039684	0.14631	0.13154	0.08303	0.058279	-3.5354	-3.1833	-3.5458	-3.8312	-3.1542	-3.8479	-3.5146	-3.3146	-4.0021	-3.2458	-3.7396	-3.7625	-3.1896	-3.7417	-3.6854	-3.4396	495.920	247.041	435.263	322.541	443.105	350.593	477.291	512.328	177.889	508.566	268.923	462.684	238.216	507.153	380.217	510.822	0.00064532	0.00023017	1.0136e-05	572.35	9.4978e-07	1.9296e-06	554.37	215.35	2.0958e-06	1.1143e-06	190.51	85.198	101.28	42.582	1.6597e-06	36.688	5.692e-05	5.6114e-05	1.8011e-05	508.47	6.0724e-07	6.1619e-07	483.87	177.19	5.9199e-07	6.2785e-07	154.44	67.266	80.106	33.361	7.0294e-07	27.978	487.453	208.731	531.930	186.570	216.886	245.910	183.306	192.902	335.829	231.085	187.943	191.773	197.107	201.804	340.719	195.458	-8191	255	
4163.728	1	1	0	0	0.24899	0.04486	0.11032	0.12428	0.083464	0.18669	0.073165	0.18623	0.090966	0.13864	0.14374	0.26071	0.10903	0.37574	0.077126	0.11592	-3.6792	-3.2771	-3.6063	-3.9104	-3.3	-3.7729	-3.6083	-3.2354	-3.8292	-3.45	-3.4875	-3.8792	-3.4854	-3.8458	-3.7208	-3.3042	341.671	227.801	345.745	199.714	531.684	289.422	462.736	444.114	176.412	513.659	416.572	276.519	411.112	513.429	188.004	399.748	0.00070992	0.00011464	2.67e-05	573.41	8.8759e-07	5.6e-07	554.77	215.32	1.515e-06	1.0342e-06	191.33	85.449	102.14	42.621	1.7508e-06	37.052	5.5411e-05	5.9196e-05	1.7657e-05	508.14	5.8907e-07	6.6541e-07	484.77	177.3	5.8874e-07	6.791e-07	154.51	67.425	80.364	33.523	6.9012e-07	28.152	483.945	527.197	271.326	186.530	390.301	280.406	183.393	192.787	228.510	478.450	188.506	191.767	197.100	201.707	340.627	195.364	-8191	255	
4163.824	1	1	0	0	0.089885	0.15507	0.093374	0.20323	0.16122	0.21165	0.16414	0.27007	0.093072	0.064367	0.13817	0.14124	0.097163	0.032358	0.15702	0.13054	-3.45	-3.3479	-3.3729	-3.7667	-3.3146	-3.7	-3.6854	-3.2542	-3.9104	-3.5438	-3.4583	-3.8104	-3.3812	-3.8833	-3.7979	-3.3021	317.824	462.802	312.383	524.103	484.338	183.068	329.977	250.145	244.492	300.928	267.636	216.516	382.761	461.092	478.279	263.262	0.00080458	9.5179e-05	1.9436e-05	573.93	1.2881e-06	1.5102e-06	558.17	214.76	2.3072e-06	1.3382e-06	191.89	85.73	102.45	42.744	1.1237e-06	37.163	5.7227e-05	6.504e-05	1.7466e-05	508.99	6.1456e-07	7.1713e-07	485.05	177.11	6.1989e-07	7.2219e-07	154.99	67.593	80.723	33.653	6.6238e-07	28.256	490.327	280.868	409.934	186.520	294.114	223.181	183.218	192.629	231.427	252.596	187.933	191.718	196.939	201.973	238.924	195.468	-8191	255	
4163.921	1	1	0	0	0.072433	0.21475	0.19803	0.09566	0.23104	0.087221	0.1617	0.1822	0.060308	0.28705	0.096821	0.09913	0.19539	0.2205	0.024085	0.16813	-3.4208	-3.4521	-3.3167	-4.0229	-3.3833	-3.7667	-3.7479	-3.2583	-3.8042	-3.75	-3.2896	-4.0417	-3.5083	-3.6396	-3.925	-3.3208	301.590	403.339	273.863	493.353	265.759	285.150	532.973	507.352	322.555	182.094	521.800	223.579	453.562	195.212	264.580	477.653	0.00085746	9.5373e-05	5.6115e-05	572.88	4.5284e-07	1.8524e-06	554.55	214.09	1.8634e-06	1.3163e-06	190.96	85.413	101.77	42.448	1.2779e-06	36.639	6.0647e-05	6.5943e-05	1.6797e-05	506.48	6.5124e-07	7.1653e-07	481.73	176.3	6.4998e-07	7.1108e-07	153.25	67.177	80.691	33.433	6.3942e-07	27.914	480.007	194.310	356.219	186.664	525.992	489.352	183.274	192.778	211.714	338.844	187.938	191.593	197.008	201.784	370.530	195.343	-8191	255	
4164.041	1	1	0	0	0.16768	0.099813	0.20886	0.093722	0.10791	0.091688	0.28463	0.14361	0.17167	0.11063	0.10523	0.025347	0.13133	0.15163	0.26138	0.12843	-3.3604	-3.7208	-3.2271	-4.0188	-3.45	-3.5292	-3.7062	-3.2833	-3.6792	-3.7917	-3.4042	-3.9479	-3.4188	-3.4417	-3.8771	-3.1979	468.585	203.377	306.363	494.729	415.601	209.313	477.275	532.779	519.024	404.656	506.508	212.495	430.230	469.639	268.787	488.124	0.00075674	9.5106e-05	4.5564e-05	573.69	1.47e-06	1.9425e-06	553.7	213.83	2.377e-06	6.6664e-07	189.98	84.53	101.43	42.375	1.7872e-06	36.517	6.3309e-05	6.3913e-05	1.6211e-05	506.56	6.9096e-07	6.9247e-07	480.82	176.16	6.9817e-07	6.8346e-07	152.37	66.727	80.648	33.303	6.2381e-07	27.782	474.126	274.353	301.015	186.877	328.599	311.497	183.292	192.794	242.356	256.020	188.492	191.679	197.130	201.668	264.950	195.238	-8191	255	
4164.113	1	1	0	0	0.31161	0.2269	0.059433	0.12508	0.1168	0.18606	0.33267	0.063245	0.10471	0.21856	0.24105	0.34331	0.11345	0.047652	0.26352	0.13285	-3.3271	-3.5375	-3.2167	-4	-3.5771	-3.5604	-3.8917	-3.4646	-3.7313	-3.8812	-3.2687	-4.0417	-3.6083	-3.5438	-3.8271	-3.4021	278.353	509.281	238.969	406.286	350.646	393.674	487.694	514.685	289.624	275.135	391.143	299.027	215.674	226.221	326.497	374.192	0.00067765	0.0002271	5.1364e-05	574.84	3.1144e-06	1.7805e-06	555.32	215.03	1.1645e-06	1.3539e-06	189.61	85.489	101.63	42.5	1.4986e-06	36.836	6.8186e-05	6.2285e-05	1.6128e-05	508.03	7.3902e-07	6.8303e-07	481.89	176.99	7.4261e-07	6.753e-07	152.97	67.571	81.075	33.355	6.2291e-07	28.148	492.783	290.807	275.823	186.786	296.213	298.726	183.575	192.628	258.449	314.608	188.204	191.355	196.868	201.899	287.766	195.446	-8191	255	
4164.209	1	1	0	0	0.06723	0.34054	0.3377	0.19533	0.33766	0.13533	0.013078	0.13306	0.032057	0.22064	0.34816	0.14587	0.12482	0.18305	0.067889	0.11926	-3.2042	-3.6896	-3.2583	-4.0354	-3.4313	-3.3083	-4.0687	-3.475	-3.7062	-3.8542	-3.2271	-3.8187	-3.5687	-3.3625	-3.8833	-3.4333	315.793	381.820	265.212	487.064	463.684	335.500	255.994	365.011	214.957	511.428	357.085	311.180	364.109	431.703	287.469	241.328	0.00072242	0.00013453	6.6117e-05	573.99	8.3002e-07	5.8253e-07	554.49	215.46	1.9402e-06	6.7574e-07	189.91	85.89	102.05	42.512	1.9571e-06	36.91	6.901e-05	6.0955e-05	1.5897e-05	509.17	7.3685e-07	6.6321e-07	481.1	177.7	7.1813e-07	6.453e-07	153.01	68.152	81.066	33.264	5.981e-07	28.271	479.812	262.763	321.890	186.570	371.682	350.493	183.089	192.687	266.931	285.697	188.117	191.757	197.231	201.878	244.129	195.375	-8191	255	
4164.330	1	1	0	0	0.1456	0.24361	0.34088	0.2698	0.094108	0.11014	0.026728	0.12641	0.11049	0.057147	0.12374	0.075097	0.094677	0.25752	0.15741	0.12452	-2.9646	-3.8646	-3.3187	-3.8021	-3.6792	-3.2958	-3.8125	-3.3479	-3.6396	-3.8563	-3.2417	-3.7896	-3.8729	-3.325	-3.9125	-3.4417	371.427	201.742	514.986	429.117	452.404	201.937	322.005	202.734	286.391	256.502	466.811	355.392	212.717	331.410	430.655	451.951	0.00079504	9.591e-05	3.7957e-05	570.73	1.7101e-06	2.0086e-06	554.54	215.11	1.0262e-06	1.8688e-06	190.94	85.355	101.74	42.138	1.3617e-06	36.494	6.5354e-05	5.673e-05	1.5179e-05	508.83	6.7546e-07	6.24e-07	480.03	177.36	6.6381e-07	5.9783e-07	152.24	67.777	80.509	33.034	6.0757e-07	28.001	479.638	255.792	533.097	186.610	304.372	339.692	183.523	192.654	302.296	329.469	188.373	191.811	197.139	201.785	247.331	195.542	-8191	255	
4164.426	1	1	0	0	0.16437	0.1182	0.28854	0.070998	0.11704	0.14591	0.097704	0.053398	0.16776	0.0087965	0.11521	0.17204	0.086049	0.093874	0.10412	0.144	-3.0062	-3.8937	-3.1188	-3.8125	-3.7604	-3.2583	-3.9354	-3.6063	-3.4021	-4.0437	-3.4667	-3.6604	-3.8792	-3.2083	-3.6792	-3.5396	421.469	351.562	427.803	381.847	388.596	513.149	419.363	443.914	372.520	532.594	312.961	367.058	405.039	461.369	254.354	478.017	0.00064995	5.6882e-05	4.452e-05	569.25	3.4243e-06	4.8241e-07	553.12	214.38	1.2714e-06	2.8101e-07	189.16	85.255	102.09	42.089	1.3068e-06	36.074	6.1268e-05	5.4352e-05	1.5691e-05	508.09	6.323e-07	5.8847e-07	478.65	177.01	6.3523e-07	5.8079e-07	151.61	67.219	80.068	32.854	6.4104e-07	27.818	476.896	217.679	187.704	186.698	285.764	230.578	183.375	192.815	293.950	220.576	188.083	191.476	197.251	201.914	235.674	195.465	-8191	255	
#DATA ENDS
