BOXY.EXE: ISS Imagent and Oximeter Data Acquisition Program Version 0.80
Ascii Record File

#ACQ INFORMATION
2  Detector Channels 
16  External MUX Channels 
1  Auxiliary Channels 
5000  Waveform (CCF) Frequency (Hz)
1  Waveforms Skipped 
30  Waveforms Averaged 
1  Cycles Averaged 
16  Acquisitions per Waveform 
10.0806  Updata Rate (Hz) 

#FILE INFORMATION
TRUE -- External MUX Channel results are PARSED.
FALSE -- AC DC and Phase are NOT grouped.
TRUE -- Companion Program Settings File CREATED.
FALSE -- AC data not excluded
FALSE -- DC data not excluded
FALSE -- Phase data not excluded
FALSE -- Auxillary Chn. data not excluded
Tab delimiters

#CALIBRATION STATE
TRUE -- Waveform Calibration Values APPLIED.


#AUX CALIBRATION VALUES
Val Type	aux-1	

Term	1.0000e+00	
Factor	0.0000e+00	


#WF CALIBRATION VALUES
A = Detector Channel
Val Type	A-AC1	A-AC2	A-AC3	A-AC4	A-AC5	A-AC6	A-AC7	A-AC8	A-AC9	A-AC10	A-AC11	A-AC12	A-AC13	A-AC14	A-AC15	A-AC16	A-DC1	A-DC2	A-DC3	A-DC4	A-DC5	A-DC6	A-DC7	A-DC8	A-DC9	A-DC10	A-DC11	A-DC12	A-DC13	A-DC14	A-DC15	A-DC16	A-Ph1	A-Ph2	A-Ph3	A-Ph4	A-Ph5	A-Ph6	A-Ph7	A-Ph8	A-Ph9	A-Ph10	A-Ph11	A-Ph12	A-Ph13	A-Ph14	A-Ph15	A-Ph16	

Term	0.00000e+00	0.00000e+00	0.00000e+00	0.00000e+00	0.00000e+00	0.00000e+00	0.00000e+00	0.00000e+00	0.00000e+00	0.00000e+00	0.00000e+00	0.00000e+00	0.00000e+00	0.00000e+00	0.00000e+00	0.00000e+00	0.00000e+00	0.00000e+00	0.00000e+00	0.00000e+00	0.00000e+00	0.00000e+00	0.00000e+00	0.00000e+00	0.00000e+00	0.00000e+00	0.00000e+00	0.00000e+00	0.00000e+00	0.00000e+00	0.00000e+00	0.00000e+00	0.00000e+00	0.00000e+00	0.00000e+00	0.00000e+00	0.00000e+00	0.00000e+00	0.00000e+00	0.00000e+00	0.00000e+00	0.00000e+00	0.00000e+00	0.00000e+00	0.00000e+00	0.00000e+00	0.00000e+00	0.00000e+00	
Factor	1.00000e+00	1.00000e+00	1.00000e+00	1.00000e+00	1.00000e+00	1.00000e+00	1.00000e+00	1.00000e+00	1.00000e+00	1.00000e+00	1.00000e+00	1.00000e+00	1.00000e+00	1.00000e+00	1.00000e+00	1.00000e+00	1.00000e+00	1.00000e+00	1.00000e+00	1.00000e+00	1.00000e+00	1.00000e+00	1.00000e+00	1.00000e+00	1.00000e+00	1.00000e+00	1.00000e+00	1.00000e+00	1.00000e+00	1.00000e+00	1.00000e+00	1.00000e+00	X	X	X	X	X	X	X	X	X	X	X	X	X	X	X	X	

B = Detector Channel
Val Type	B-AC1	B-AC2	B-AC3	B-AC4	B-AC5	B-AC6	B-AC7	B-AC8	B-AC9	B-AC10	B-AC11	B-AC12	B-AC13	B-AC14	B-AC15	B-AC16	B-DC1	B-DC2	B-DC3	B-DC4	B-DC5	B-DC6	B-DC7	B-DC8	B-DC9	B-DC10	B-DC11	B-DC12	B-DC13	B-DC14	B-DC15	B-DC16	B-Ph1	B-Ph2	B-Ph3	B-Ph4	B-Ph5	B-Ph6	B-Ph7	B-Ph8	B-Ph9	B-Ph10	B-Ph11	B-Ph12	B-Ph13	B-Ph14	B-Ph15	B-Ph16	

Term	0.00000e+00	0.00000e+00	0.00000e+00	0.00000e+00	0.00000e+00	0.00000e+00	0.00000e+00	0.00000e+00	0.00000e+00	0.00000e+00	0.00000e+00	0.00000e+00	0.00000e+00	0.00000e+00	0.00000e+00	0.00000e+00	0.00000e+00	0.00000e+00	0.00000e+00	0.00000e+00	0.00000e+00	0.00000e+00	0.00000e+00	0.00000e+00	0.00000e+00	0.00000e+00	0.00000e+00	0.00000e+00	0.00000e+00	0.00000e+00	0.00000e+00	0.00000e+00	-7.26684e+01	-1.29267e+02	-1.24907e+02	-1.81870e+02	-5.07789e+01	-7.05107e+01	-1.57448e+02	-1.62015e+02	-4.62257e+01	-6.38428e+01	-1.71264e+02	-1.72441e+02	-1.82777e+02	-1.77174e+02	-5.93073e+01	-1.49710e+02	
Factor	1.61401e-05	1.59208e-04	4.37177e-05	1.47657e-01	1.35887e-06	1.73276e-06	1.65095e-01	4.93827e-02	1.11487e-06	1.79644e-06	7.99830e-02	3.23445e-02	3.45062e-02	8.62477e-03	1.51567e-06	1.23023e-02	1.56454e-05	4.14206e-05	1.16575e-05	7.63936e-02	3.74041e-07	4.77579e-07	8.05275e-02	2.56400e-02	3.72120e-07	4.73555e-07	4.04468e-02	1.64577e-02	1.81944e-02	4.52542e-03	4.11768e-07	6.25502e-03	X	X	X	X	X	X	X	X	X	X	X	X	X	X	X	X	



#DISTANCE SETTINGS
A = Detector Channel
A-1	A-2	A-3	A-4	A-5	A-6	A-7	A-8	A-9	A-10	A-11	A-12	A-13	A-14	A-15	A-16	

2.5000e+00	3.0000e+00	2.5000e+00	3.0000e+00	2.0000e+00	3.0000e+00	1.5000e+00	3.0000e+00	3.0000e+00	3.0000e+00	3.0000e+00	3.0000e+00	3.0000e+00	3.0000e+00	1.5000e+00	3.0000e+00	

B = Detector Channel
B-1	B-2	B-3	B-4	B-5	B-6	B-7	B-8	B-9	B-10	B-11	B-12	B-13	B-14	B-15	B-16	

1.0000e+01	1.0000e+01	1.0000e+01	1.4400e+00	1.0000e+01	1.0000e+01	1.5100e+00	1.9400e+00	1.0000e+01	1.0000e+01	1.9900e+00	2.4900e+00	2.4100e+00	2.9000e+00	1.0000e+01	2.9800e+00	




#DATA BEGINS
time	group	step	mark	flag	A-AC1	A-AC2	A-AC3	A-AC4	A-AC5	A-AC6	A-AC7	A-AC8	A-AC9	A-AC10	A-AC11	A-AC12	A-AC13	A-AC14	A-AC15	A-AC16	A-DC1	A-DC2	A-DC3	A-DC4	A-DC5	A-DC6	A-DC7	A-DC8	A-DC9	A-DC10	A-DC11	A-DC12	A-DC13	A-DC14	A-DC15	A-DC16	A-Ph1	A-Ph2	A-Ph3	A-Ph4	A-Ph5	A-Ph6	A-Ph7	A-Ph8	A-Ph9	A-Ph10	A-Ph11	A-Ph12	A-Ph13	A-Ph14	A-Ph15	A-Ph16	B-AC1	B-AC2	B-AC3	B-AC4	B-AC5	B-AC6	B-AC7	B-AC8	B-AC9	B-AC10	B-AC11	B-AC12	B-AC13	B-AC14	B-AC15	B-AC16	B-DC1	B-DC2	B-DC3	B-DC4	B-DC5	B-DC6	B-DC7	B-DC8	B-DC9	B-DC10	B-DC11	B-DC12	B-DC13	B-DC14	B-DC15	B-DC16	B-Ph1	B-Ph2	B-Ph3	B-Ph4	B-Ph5	B-Ph6	B-Ph7	B-Ph8	B-Ph9	B-Ph10	B-Ph11	B-Ph12	B-Ph13	B-Ph14	B-Ph15	B-Ph16	aux-1	digaux	

26096.676	1	1	0	256	0.1086	0.098372	0.19064	0.063898	0.17051	0.22966	0.38122	0.13854	0.12013	0.12575	0.14961	0.20014	0.21835	0.18055	0.13444	0.14633	-4.4729	-4.4187	-4.4896	-4.8875	-4.2979	-4.7208	-4.7083	-4.3812	-4.7667	-4.5	-4.6083	-4.8625	-4.1875	-4.7354	-4.5792	-4.4437	103.435	96.672	-109.820	47.370	-87.972	124.189	139.656	184.547	-55.012	126.659	-62.461	-143.457	76.049	146.426	7.409	136.261	0.00070436	0.00056984	0.0022402	756.21	3.6134e-06	5.0592e-06	755.15	306.71	3.9964e-05	5.2248e-06	346.73	147.32	124.67	59.448	5.8148e-06	77.372	0.0010334	0.0013726	0.0074489	796.28	1.223e-05	2.0068e-05	793.27	337.78	6.9076e-05	1.6049e-05	367.4	157.38	133.29	66.675	1.4678e-05	82.578	-106.414	-77.569	147.012	-160.117	-26.361	0.904	-161.037	-155.253	-65.380	-20.665	-157.338	-153.204	-151.492	-146.764	-20.468	-149.793	-8191	255	
26096.797	1	1	0	0	0.17052	0.1341	0.11075	0.12872	0.12334	0.21394	0.23049	0.078779	0.04059	0.14629	0.1808	0.019544	0.083679	0.22461	0.092838	0.037048	-4.4396	-4.3396	-4.3104	-4.7188	-4.2896	-4.7063	-4.8042	-4.2042	-4.7521	-4.3958	-4.3583	-4.8604	-4.3396	-4.625	-4.7625	-4.4083	-114.013	74.754	34.148	-108.446	127.381	161.338	100.481	145.313	-21.166	73.433	116.690	-14.271	174.973	181.660	93.859	81.595	0.00070352	0.00058593	0.002994	760.51	6.0825e-06	5.3562e-06	755.4	307.42	2.8093e-05	4.6633e-06	349.06	148.09	126.1	59.548	5.2364e-06	77.519	0.0010716	0.0014027	0.01009	799.63	1.2548e-05	1.9174e-05	798.35	324.88	0.00019501	1.5941e-05	369.41	158.21	134.26	68.001	1.4484e-05	83.008	-106.293	-85.785	153.601	-160.026	-27.669	9.316	-161.320	-155.372	-66.266	-9.906	-157.674	-153.247	-151.359	-146.677	-27.150	-149.794	-8191	255	
26096.867	1	1	0	0	0.15139	0.23541	0.071719	0.18624	0.14047	0.1272	0.043532	0.15687	0.074565	0.049686	0.25712	0.052821	0.13416	0.031016	0.03028	0.15641	-4.4667	-4.4313	-4.4563	-4.8979	-4.1375	-4.5646	-4.8583	-4.2646	-4.5479	-4.4333	-4.3021	-5.0062	-4.3396	-4.5646	-4.7812	-4.4167	34.653	-4.215	-154.906	126.989	-93.007	123.152	75.635	119.767	0.551	93.508	106.794	-128.637	55.803	-96.845	25.278	111.271	0.00068168	0.00055563	0.0018711	762.27	4.5549e-06	3.9467e-06	760.47	305.7	8.419e-05	4.8713e-06	348.32	148.88	126.12	59.663	6.4597e-06	78.095	0.0011015	0.0013716	0.0073918	801.5	1.3035e-05	2.0738e-05	800.07	324.75	0.00032184	1.6033e-05	369.49	159.23	134.67	67.056	1.4557e-05	83.246	-107.160	-102.062	163.929	-159.916	-13.505	-11.732	-161.270	-155.720	-0.207	-23.603	-157.569	-153.340	-151.772	-146.869	-27.505	-149.773	-8191	255	
26096.988	1	1	0	0	0.12106	0.12565	0.095335	0.16165	0.21092	0.16465	0.29027	0.059496	0.24173	0.18231	0.076056	0.11108	0.22511	0.1442	0.088895	0.065471	-4.3667	-4.6208	-4.275	-4.9479	-4.3958	-4.4021	-4.7229	-4.3458	-4.5687	-4.4896	-4.4437	-4.9667	-4.3729	-4.5021	-4.6917	-4.4208	-109.208	-28.754	-69.667	164.470	-62.881	131.239	75.589	91.291	71.559	108.211	-88.602	-58.800	46.349	104.601	-103.314	133.349	0.00069602	0.00044125	0.00031237	761.27	4.1234e-06	4.2888e-06	754.95	305.49	6.4783e-05	5.5902e-06	347.24	148.77	125.19	59.134	4.664e-06	77.225	0.0011877	0.0014312	0.0064046	814.13	1.3559e-05	1.7654e-05	795.85	323.79	0.00023627	1.5519e-05	367.44	158.58	134.22	67.868	1.4683e-05	82.57	-107.024	-88.652	-24.007	-161.167	-3.167	-27.678	-161.252	-155.743	3.657	-22.809	-157.409	-153.234	-151.537	-146.718	-34.247	-149.802	-8191	255	
26097.084	1	1	0	0	0.066504	0.097688	0.11521	0.14213	0.16201	0.06507	0.022443	0.057447	0.13115	0.052511	0.060539	0.17487	0.27431	0.23048	0.21781	0.17641	-4.2688	-4.5417	-4.2417	-4.8229	-4.525	-4.5146	-5.0854	-4.2708	-4.6396	-4.6271	-4.2667	-4.9521	-4.4729	-4.5104	-4.9271	-4.5167	103.866	138.877	-96.780	142.510	71.753	164.694	-23.123	146.001	102.289	69.291	-122.440	-103.519	121.754	130.507	20.269	37.695	0.00071048	0.00048583	0.00034093	758.3	4.41e-06	3.2496e-06	753.53	305.56	8.2268e-05	6.0415e-06	345.54	147.97	125.22	59.135	4.0999e-06	77.138	0.0011448	0.0013288	0.00040726	839.52	1.306e-05	1.8888e-05	793.3	323.38	0.00032384	1.5013e-05	366.74	157.83	133.85	66.623	1.4302e-05	82.53	-104.720	-74.582	-93.934	-160.831	-27.631	0.230	-161.183	-155.595	12.659	-21.269	-157.583	-153.066	-151.685	-146.793	-35.086	-149.632	-8191	255	
26097.180	1	1	0	0	0.029622	0.18835	0.10769	0.1662	0.12377	0.17457	0.11609	0.21755	0.11404	0.17952	0.25333	0.027439	0.12916	0.22495	0.14661	0.16815	-4.1104	-4.6188	-4.2375	-4.7625	-4.4854	-4.2562	-4.9062	-4.4458	-4.4167	-4.7375	-4.3208	-4.7896	-4.6333	-4.3521	-4.7604	-4.5167	-90.508	-62.048	-25.894	85.096	11.031	129.651	18.420	106.907	-75.901	-168.492	102.590	177.770	143.938	79.043	-66.674	40.716	0.00070552	0.00067187	0.00016393	761.85	3.7029e-06	6.472e-06	751.54	305.09	6.1896e-05	6.4553e-06	345.33	147.78	125.01	59.084	9.1041e-05	76.805	0.001175	0.0012733	0.00037122	865.31	1.2881e-05	1.7551e-05	794.36	323.5	0.00023759	1.4493e-05	366.59	157.85	133.8	65.836	0.00010658	82.29	-106.231	-93.081	-94.881	-160.904	-4.156	-10.935	-161.299	-155.594	15.031	-22.688	-157.561	-153.388	-151.697	-146.543	-172.555	-149.726	-8191	255	
26097.277	1	1	0	0	0.15613	0.13087	0.060608	0.24651	0.11797	0.038548	0.16977	0.16554	0.26497	0.076874	0.22342	0.1411	0.29312	0.18876	0.11514	0.08508	-4.0292	-4.6854	-4.1312	-4.8521	-4.5125	-4.1813	-4.8375	-4.4875	-4.4521	-5.0833	-4.4771	-4.7646	-4.6104	-4.4625	-4.8667	-4.7104	163.379	18.261	49.279	91.649	-13.067	59.991	45.758	162.855	86.891	3.964	123.260	149.303	142.047	169.869	-68.965	4.107	0.00070538	0.0006426	0.00017599	758.13	5.2793e-06	6.0325e-06	751.34	303.92	7.8969e-05	6.4943e-06	347.19	147.58	124.85	59.402	6.9114e-05	77.265	0.0011011	0.0013576	0.0003822	844.98	1.3028e-05	1.6111e-05	793.2	322.44	0.00032201	1.5738e-05	367	157.44	133.3	63.495	0.00023671	82.427	-105.878	-74.846	-89.160	-160.759	-20.168	-9.071	-161.101	-155.565	24.526	-2.009	-157.750	-153.178	-151.639	-147.001	-163.321	-149.651	-8191	255	
26097.396	1	1	0	0	0.16318	0.16686	0.28583	0.12345	0.14301	0.12429	0.23204	0.016852	0.0042065	0.14447	0.24924	0.18779	0.11016	0.13577	0.077221	0.20805	-3.9958	-4.7708	-4.2646	-4.5687	-4.6271	-4.0854	-4.8958	-4.7021	-4.2438	-4.9292	-4.3854	-4.5833	-4.7021	-4.2479	-4.6729	-4.8688	82.192	-168.864	-124.082	-131.629	-108.675	71.149	117.010	161.491	-60.710	87.440	137.773	-165.749	42.211	168.715	159.697	89.015	0.00066445	0.00061321	0.00015728	761.4	4.8173e-06	4.7234e-06	753.55	305.14	6.3975e-05	6.965e-06	346.72	148.23	124.97	59.571	0.00010347	77.522	0.0011127	0.001391	0.0004016	863.28	1.2438e-05	1.5402e-05	797.37	322.72	0.00023892	1.5611e-05	368.08	158.16	133.67	63.729	0.00035694	82.713	-104.761	-69.086	-85.792	-160.805	-13.343	3.752	-161.185	-155.711	31.398	-4.956	-157.654	-153.152	-151.496	-147.210	147.001	-149.621	-8191	255	
26097.467	1	1	0	0	0.13943	0.18543	0.03822	0.061128	0.23349	0.15566	0.10206	0.23808	0.07111	0.1565	0.026968	0.13067	0.12992	0.16559	0.30277	0.06891	-3.9688	-4.7958	-4.2917	-4.4354	-4.7542	-4.0896	-4.8333	-4.7083	-4.2271	-4.8	-4.4583	-4.5813	-4.9062	-4.4646	-4.5563	-4.8083	125.834	-144.842	128.700	-134.256	-80.789	81.629	141.794	-150.863	-16.354	-110.000	131.801	56.236	160.101	178.533	-66.593	-156.624	0.00069503	0.00057526	0.00014875	765.84	4.8247e-06	7.0091e-06	753.51	303.99	8.4522e-05	3.2977e-06	345.33	147.13	124.51	59.3	7.5506e-05	76.667	0.0010754	0.0013998	0.00039587	848	1.2258e-05	1.521e-05	795.76	322.39	0.00017952	0.00013805	365.93	157.01	132.82	63.446	0.00026341	82.11	-106.605	-84.552	-69.799	-160.575	-19.398	-13.368	-161.134	-155.587	38.416	-54.129	-157.633	-153.010	-151.723	-146.982	149.782	-149.600	-8191	255	
26097.562	1	1	0	0	0.062796	0.079098	0.16941	0.091133	0.14323	0.12356	0.062619	0.16321	0.039404	0.14799	0.10124	0.13615	0.065197	0.084514	0.10003	0.0796	-3.8958	-4.6937	-4.3688	-4.3854	-4.6813	-4.2646	-4.6438	-4.6937	-4.0896	-4.8396	-4.5271	-4.1896	-4.8354	-4.4083	-4.6417	-4.8271	-142.603	-72.482	177.503	-10.652	180.441	-165.086	-6.781	126.589	-56.377	6.655	-62.380	0.885	184.620	172.851	78.452	110.080	0.00069236	0.00048618	0.00012809	760.43	2.4856e-06	5.6766e-06	747.83	302.4	4.5865e-06	7.8426e-06	343.6	147.1	124.05	59.203	9.8009e-05	76.861	0.0010287	0.0016634	0.00039203	860.51	1.3021e-05	1.5875e-05	791.46	321.4	1.2838e-05	0.00028329	364.65	156.67	132.82	63.403	0.00035843	82.046	-107.113	-76.044	-91.495	-160.661	-24.113	-26.389	-161.213	-155.603	-30.039	-144.634	-157.374	-153.319	-151.454	-147.142	157.650	-149.735	-8191	255	
26097.660	1	1	0	0	0.20699	0.0083587	0.30401	0.19457	0.13041	0.32962	0.056951	0.087297	0.14413	0.03496	0.12662	0.17659	0.19682	0.11219	0.17709	0.13582	-3.7208	-4.8271	-4.4938	-4.4583	-4.9125	-4.3271	-4.6438	-4.8625	-4.1375	-4.7583	-4.7604	-4.3146	-4.8625	-4.4375	-4.5333	-4.8208	-148.470	20.638	-133.494	88.648	39.645	114.576	143.078	125.113	-137.892	-161.520	164.410	128.537	-156.563	165.734	158.091	72.779	0.0007124	0.00044375	0.000177	755.9	5.0089e-06	4.1791e-06	753.17	303.24	5.7772e-06	0.00013653	343.53	146.86	124.19	59.247	7.3434e-05	77.024	0.0010116	0.0016444	0.00037666	841.96	1.2917e-05	1.5861e-05	793.14	321.28	1.3403e-05	0.0004127	363.79	157.07	132.89	63.468	0.00026367	82.355	-106.674	-75.396	-72.299	-160.507	-5.117	-2.940	-161.156	-155.575	-15.095	30.107	-157.416	-153.305	-151.722	-147.121	166.796	-149.687	-8191	255	
26097.779	1	1	0	0	0.063052	0.063369	0.087037	0.23123	0.071364	0.19963	0.24534	0.06414	0.26693	0.11421	0.22466	0.24253	0.10456	0.16883	0.125	0.17281	-3.9583	-4.65	-4.5542	-4.2521	-4.8354	-4.4458	-4.35	-5.0521	-4.3708	-4.6521	-4.8042	-4.2292	-4.9167	-4.5083	-4.3271	-4.9771	13.178	-144.066	-155.518	156.052	149.174	19.552	30.238	171.992	167.940	-111.280	141.358	-158.893	138.238	74.006	177.042	180.505	0.00066543	0.00057155	0.00015726	760	8.0436e-05	3.9199e-06	752.45	302.68	5.5967e-06	9.5812e-05	343.62	147.65	125.07	59.502	0.00010764	77.472	0.001024	0.0017385	0.00037649	827.63	0.00012477	1.5632e-05	793.62	321.85	1.3223e-05	0.00030422	365.56	157.56	133.65	63.68	0.00035834	82.763	-107.853	-61.849	-64.898	-159.578	-90.447	-40.976	-161.178	-155.743	-32.961	42.400	-157.544	-153.139	-151.421	-147.065	169.448	-149.753	-8191	255	
26097.877	1	1	0	0	0.16701	0.11925	0.058424	0.25845	0.0688	0.20316	0.16468	0.084064	0.047017	0.19411	0.24138	0.18892	0.25394	0.16753	0.10164	0.35537	-3.9188	-4.5146	-4.6937	-4.3083	-4.7271	-4.5542	-4.2896	-5.0479	-4.2688	-4.55	-4.8167	-4.3104	-4.675	-4.5437	-4.3063	-4.9708	112.802	-95.917	-138.658	145.660	105.381	170.309	75.777	85.037	-32.855	-170.578	-163.659	164.646	172.720	-29.797	174.904	133.699	0.00067531	0.00056358	0.00015352	757.58	6.1149e-05	4.1257e-06	755.37	304.05	4.8846e-06	0.00012245	347.21	147.64	125.37	59.809	7.6115e-05	77.756	0.0010089	0.0016603	0.0003666	797.58	0.00023569	1.5132e-05	797.46	322.4	1.3499e-05	0.00041222	367.38	157.84	133.85	63.838	0.00026335	83.007	-107.160	-94.196	-74.235	-159.958	-84.961	-36.012	-161.139	-155.558	-31.577	46.379	-157.563	-153.367	-151.611	-147.208	177.013	-149.790	-8191	255	
26097.973	1	1	0	0	0.18723	0.20962	0.25498	0.088465	0.18888	0.095575	0.17249	0.29859	0.0079021	0.24083	0.22464	0.023753	0.14768	0.12626	0.34013	0.36272	-3.9042	-4.3313	-4.8167	-4.2417	-4.7583	-4.6229	-4.3354	-4.9396	-4.4167	-4.5396	-4.8333	-4.3229	-4.6958	-4.725	-4.1604	-4.9771	34.885	-48.785	49.164	-56.795	-102.447	158.384	71.680	145.979	-66.063	91.634	75.195	-58.123	114.313	144.691	58.346	115.607	0.00070165	0.00064529	0.00014524	755.87	9.7968e-05	4.1522e-06	748.93	303.41	4.4433e-06	8.9567e-05	344.46	145.86	124.57	59.248	6.1256e-05	77.033	0.0010332	0.0017623	0.00035827	796.61	0.00032549	1.4916e-05	791.73	321.43	1.345e-05	0.00030213	364.64	156.59	133.17	63.366	0.00016761	84.479	-106.178	-67.601	-90.641	-160.142	-54.305	-35.259	-161.263	-155.602	-19.343	50.180	-157.475	-153.177	-151.713	-147.117	91.649	-150.522	-8191	255	
26098.068	1	1	0	0	0.17494	0.12361	0.032771	0.16447	0.22921	0.056747	0.21722	0.2028	0.096887	0.0065868	0.041314	0.17197	0.1629	0.11892	0.14287	0.11703	-3.9896	-4.4125	-4.8583	-4.2646	-4.5521	-4.7125	-4.3833	-4.9354	-4.3083	-4.3583	-4.9083	-4.2	-4.6854	-4.9229	-4.2667	-4.8125	-85.385	-112.012	-6.228	-155.748	-134.104	59.633	150.047	-126.508	143.157	-30.805	125.929	137.877	63.740	-161.851	166.677	88.810	0.0006736	0.00046285	0.00013392	751.74	7.6635e-05	3.7464e-06	745.58	301	4.8014e-06	0.00012168	341.05	146.6	123.11	59.044	6.4883e-06	76.552	0.00099909	0.0015697	0.00037999	791.56	0.00023766	1.4837e-05	787.62	319.8	1.3374e-05	0.00040973	361.97	156.32	132.27	63.202	1.4172e-05	86.056	-107.892	-79.207	-64.806	-160.178	-48.161	-39.597	-160.983	-155.734	-28.214	60.210	-157.703	-153.173	-151.529	-147.149	-40.625	-150.177	-8191	255	
26098.162	1	1	0	0	0.10575	0.036104	0.15847	0.27068	0.13429	0.12154	0.070558	0.19711	0.12446	0.20764	0.065978	0.15786	0.19762	0.25932	0.22746	0.34071	-4.1354	-4.1583	-4.8063	-4.4083	-4.4708	-4.5958	-4.1958	-4.8917	-4.5479	-4.3396	-4.7979	-4.4979	-4.6271	-4.8458	-4.125	-4.825	41.676	45.739	-100.776	85.305	-102.261	88.004	145.770	104.034	150.529	-156.528	-141.084	143.768	184.333	164.169	144.461	123.042	0.00069436	0.00074769	0.00011656	749.11	9.6731e-05	5.927e-06	748.44	301	3.9886e-06	0.00010183	343.79	147.63	124	59.173	5.531e-06	77.079	0.00099987	0.0016057	0.0003897	789.59	0.00032585	1.4225e-05	788.64	320.02	1.2733e-05	0.00030162	364.6	156.91	132.94	63.284	1.4452e-05	87.957	-107.546	-85.298	-100.724	-159.998	-37.540	-32.983	-161.144	-155.623	-34.575	61.145	-157.443	-153.251	-151.484	-147.107	-38.022	-150.217	-8191	255	
26098.260	1	1	0	0	0.19857	0.018475	0.099074	0.18168	0.14303	0.18355	0.23247	0.1798	0.18711	0.22826	0.037337	0.087648	0.27794	0.12203	0.33794	0.079497	-4.2333	-4.2021	-4.7438	-4.4708	-4.3417	-4.7917	-4.4812	-4.7042	-4.6583	-4.0312	-4.9854	-4.4938	-4.375	-4.8375	-4.1354	-4.7833	37.519	97.539	-114.261	172.393	93.984	-45.030	106.061	142.376	-16.604	-150.059	140.861	-113.715	-159.127	-129.561	-79.159	63.747	0.00068578	0.00038341	0.0001243	752.47	7.2409e-05	5.3001e-06	750.37	301	5.6859e-06	0.00014503	343.12	147.3	124.29	59.146	6.9406e-06	77.014	0.00097454	0.0014506	0.00040828	790.69	0.00023883	1.5115e-05	791.83	320.31	1.2819e-05	0.000175	380.68	157.12	132.97	63.25	1.4538e-05	86.56	-108.998	-82.550	-74.581	-159.886	-34.232	-27.335	-161.002	-155.530	-26.095	47.716	-158.112	-153.225	-151.565	-147.314	-36.537	-150.230	-8191	255	
26098.381	1	1	0	0	0.26197	0.17336	0.045602	0.096228	0.18747	0.054431	0.15898	0.030876	0.10899	0.2608	0.31372	0.12273	0.055358	0.1505	0.017359	0.097111	-4.1458	-4.175	-4.9208	-4.5687	-4.2792	-4.8521	-4.5208	-4.7083	-4.5604	-4.2312	-4.7937	-4.5458	-4.2125	-5.0125	-4.325	-4.6396	69.957	157.499	-40.879	138.872	-164.878	-10.577	33.544	77.662	-2.036	-110.054	67.624	4.733	34.800	116.209	-153.434	49.061	0.00068783	0.00051819	9.6813e-05	754.19	9.9117e-05	5.0753e-06	754.37	302.48	3.7715e-06	4.2393e-06	342.71	147.7	124.29	59.166	5.5458e-06	77.308	0.0009808	0.0013578	0.00046628	792.91	0.0003235	1.5627e-05	795.33	321.3	1.2164e-05	1.5081e-05	391.74	157.6	133.05	63.36	1.5042e-05	88.222	-106.215	-90.183	-62.135	-160.309	-29.684	-23.062	-161.329	-155.489	-25.280	-27.440	-156.964	-153.141	-151.385	-147.262	-25.846	-150.275	-8191	255	
26098.477	1	1	0	0	0.028172	0.29002	0.10571	0.21324	0.12712	0.25317	0.051133	0.11832	0.060395	0.1401	0.0727	0.18192	0.1669	0.21157	0.10682	0.41058	-4.5062	-4.1854	-4.4062	-4.6292	-4.2375	-4.8229	-4.4271	-4.6771	-4.7458	-4.2875	-4.9479	-4.5458	-4.1667	-4.975	-4.3917	-4.65	151.452	-100.432	67.223	160.645	136.134	-59.620	176.471	-0.651	123.969	18.694	-142.989	145.562	-153.761	-155.073	-8.161	58.521	0.00070095	0.00065037	0.00010681	754.15	6.0451e-05	5.3834e-06	753.78	302.02	5.1373e-06	5.6051e-06	339.97	146.93	123.86	58.824	4.8242e-06	76.976	0.00097712	0.001408	0.00046387	792.96	0.00023437	1.6425e-05	793.32	320.5	1.269e-05	1.5493e-05	400.06	156.81	132.46	63.009	1.4456e-05	86.148	-108.143	-96.299	-71.690	-160.254	3.238	-27.987	-161.166	-155.528	-21.796	-23.618	-157.030	-153.152	-151.723	-147.089	-24.253	-150.072	-8191	255	
26098.570	1	1	0	0	0.23735	0.052614	0.18416	0.02055	0.065933	0.04692	0.15739	0.081448	0.23696	0.10944	0.21923	0.16495	0.28575	0.063448	0.023596	0.062949	-4.2708	-4.2521	-4.5875	-4.6167	-4.125	-4.7042	-4.5625	-4.4021	-4.75	-4.125	-4.7271	-4.6875	-4.2167	-4.8042	-4.3792	-4.4583	-34.486	6.471	159.322	21.082	-144.918	-56.165	92.588	143.379	19.944	110.747	180.033	158.726	-149.277	104.953	-26.874	183.111	0.0007142	0.00048402	0.00016224	750.29	8.0366e-05	7.007e-05	747.73	299.73	5.1544e-06	5.4758e-06	340.13	146.58	123.83	58.702	4.5505e-06	77.057	0.0010249	0.0013866	0.00049785	788.73	0.00012442	0.00021183	787.65	318	1.3638e-05	1.5823e-05	388.47	156.49	132.17	62.941	1.4496e-05	87.634	-106.833	-95.150	-75.555	-159.985	9.131	-91.871	-160.958	-155.429	-18.805	-23.370	-156.977	-153.244	-151.745	-147.155	-39.321	-150.194	-8191	255	
26098.668	1	1	0	0	0.17189	0.062528	0.11278	0.09111	0.15907	0.054151	0.19049	0.14611	0.04201	0.070343	0.15561	0.077547	0.21371	0.33865	0.12025	0.14425	-4.5396	-4.1229	-4.4042	-4.8104	-4.2042	-4.6312	-4.6188	-4.4229	-4.7646	-4.2354	-4.5729	-4.9604	-4.2896	-4.6396	-4.6708	-4.4437	5.650	183.229	-65.002	130.247	-97.163	-73.669	110.906	174.740	150.597	126.614	27.696	109.418	-163.480	161.628	89.428	160.549	0.00069733	0.00035847	0.00015407	749.3	5.0959e-06	9.064e-05	746.54	300.24	4.4925e-06	5.3797e-06	338.32	146.53	123.97	59.153	3.6465e-06	76.876	0.0010394	0.0014149	0.00046448	789	1.3141e-05	0.00030636	788.8	318.91	1.3903e-05	1.5634e-05	398.88	156.84	132.61	63.163	1.4191e-05	85.918	-106.697	-82.038	-81.958	-160.073	-26.042	-27.616	-161.287	-155.487	-38.001	-29.525	-156.957	-153.159	-151.510	-147.069	-42.564	-149.657	-8191	255	
26098.764	1	1	0	0	0.18423	0.16896	0.18625	0.15334	0.13543	0.1758	0.090509	0.019145	0.20087	0.15404	0.099179	0.26005	0.16773	0.19678	0.098305	0.11064	-4.5604	-4.3833	-4.5146	-4.8125	-4.1125	-4.7417	-4.6062	-4.3313	-4.9062	-4.5021	-4.4042	-4.9396	-4.2417	-4.8333	-4.6562	-4.35	-7.071	9.479	-34.403	45.940	57.942	-41.182	-13.541	-149.928	-57.873	9.796	-158.491	90.567	-109.759	87.414	-2.392	130.060	0.00070961	0.00058823	0.00016993	752.31	3.72e-06	0.00012146	748.07	301.04	4.9238e-06	5.516e-06	340	146.97	123.9	58.945	5.3168e-06	77.121	0.0010466	0.0013898	0.00046285	791.5	1.3243e-05	0.00041577	790.86	319.47	1.4506e-05	1.592e-05	390.42	157.32	132.64	63.107	1.4133e-05	84.17	-107.223	-93.199	-82.466	-159.949	-10.541	-20.263	-161.348	-155.473	-35.354	-15.496	-157.331	-153.036	-151.430	-146.921	-23.466	-149.632	-8191	255	
26098.859	1	1	0	0	0.15115	0.090201	0.21879	0.081352	0.14382	0.27441	0.093961	0.27885	0.29254	0.046399	0.24103	0.35179	0.1011	0.14863	0.062745	0.19711	-4.6062	-4.3083	-4.4354	-4.9688	-4.1354	-4.6312	-4.8771	-4.3187	-4.9125	-4.4417	-4.4875	-5.0104	-4.4708	-4.5687	-4.6354	-4.3979	-16.075	114.824	-112.957	25.961	-141.896	-131.052	113.287	153.771	80.066	-85.330	126.056	57.474	76.791	-137.381	86.877	103.180	0.0018543	0.00054329	0.0001214	752.11	4.8306e-06	0.00010136	751.7	300.91	5.6803e-06	5.8871e-06	341.97	147.51	123.94	58.945	6.6549e-06	77.112	0.0080304	0.0014025	0.00043344	791.67	1.3574e-05	0.00030557	793.3	319.54	1.6335e-05	1.517e-05	400.95	157.65	132.74	63.154	1.4071e-05	82.403	-126.959	-95.204	-69.556	-160.206	-21.898	-18.247	-161.291	-155.572	-32.900	-22.747	-157.119	-153.282	-151.405	-147.076	-31.546	-149.647	-8191	255	
26098.980	1	1	0	0	0.091362	0.066643	0.12601	0.16952	0.28111	0.26692	0.20954	0.16307	0.20404	0.028688	0.099453	0.17951	0.093547	0.23472	0.026635	0.1464	-4.4354	-4.5917	-4.2438	-4.8938	-4.3667	-4.625	-5.05	-4.2417	-4.6438	-4.5125	-4.2458	-4.9479	-4.4146	-4.5146	-4.7458	-4.3917	-76.601	15.930	151.767	171.943	-114.548	-73.431	167.141	146.271	-72.334	-11.539	121.391	-152.315	4.647	-171.080	186.091	-59.577	0.0015058	0.00052986	0.00011296	746.5	4.1101e-06	0.0001293	746.39	299.68	4.1648e-06	5.7424e-06	339.99	146.3	123.68	58.596	6.5088e-06	76.241	0.010523	0.0013593	0.00046528	788.86	1.3207e-05	0.00041378	789.37	318.13	1.5987e-05	1.502e-05	385.16	156.61	132.05	62.79	1.4453e-05	81.639	-122.404	-113.065	-60.097	-160.296	-6.609	-10.845	-161.111	-155.533	-42.170	-22.367	-156.787	-153.175	-151.531	-146.999	-31.945	-149.585	-8191	255	
26099.076	1	1	0	0	0.17679	0.11257	0.034134	0.19412	0.099867	0.10366	0.010665	0.18715	0.15515	0.1253	0.21089	0.13674	0.24085	0.27735	0.10739	0.22369	-4.4604	-4.7271	-4.2312	-4.9125	-4.3458	-4.4333	-4.9125	-4.1687	-4.5833	-4.5917	-4.3521	-5.0104	-4.4313	-4.2646	-4.8646	-4.4812	45.849	-149.196	-151.303	-159.984	52.718	-159.966	-51.838	-162.291	156.678	160.489	162.924	103.379	97.455	144.807	18.763	107.119	0.0018409	0.00047932	0.00015614	747.72	3.4246e-06	9.4625e-05	744.89	299.27	4.9264e-06	5.0807e-06	339.05	145.28	123.53	58.636	7.5432e-06	76.233	0.013977	0.0013545	0.00042667	787.58	1.2948e-05	0.00030313	785.58	317.3	1.6677e-05	1.5017e-05	370.71	164.39	131.79	62.742	1.5228e-05	81.573	-118.187	-82.592	-76.187	-160.161	-8.102	-9.522	-161.207	-155.848	-38.639	-19.986	-156.676	-153.725	-151.684	-147.105	-26.437	-149.634	-8191	255	
26099.172	1	1	0	0	0.096895	0.121	0.12865	0.10737	0.15613	0.14413	0.19364	0.1717	0.19722	0.036884	0.24209	0.17351	0.059759	0.099686	0.11045	0.11109	-4.2708	-4.7604	-4.1562	-4.9229	-4.475	-4.525	-4.9104	-4.4146	-4.8063	-4.7896	-4.2771	-4.8958	-4.5	-4.525	-4.725	-4.6917	-52.381	-126.267	155.183	136.964	20.641	68.616	182.037	91.308	-48.067	185.698	60.530	-161.791	-125.064	150.990	162.535	-14.679	0.0014993	0.00029816	0.00014673	745.7	4.6075e-06	0.00013216	744.94	297.78	4.2665e-06	6.8324e-06	341.76	144.4	123.45	58.538	4.0551e-06	76.302	0.01048	0.0012993	0.000399	786.41	1.2549e-05	0.00041203	786.32	316.49	1.4972e-05	1.4961e-05	361.79	166.54	131.7	62.717	1.5519e-05	81.736	-112.734	-69.598	-86.229	-160.021	-34.596	3.134	-161.422	-155.475	-32.629	-6.557	-157.331	-153.034	-151.480	-147.054	-51.374	-149.718	-8191	255	
26099.268	1	1	0	0	0.12497	0.26456	0.11324	0.27259	0.1928	0.060917	0.069959	0.20168	0.092319	0.17141	0.28183	0.12237	0.11687	0.069026	0.070282	0.053131	-4.0729	-4.7562	-4.2292	-4.7646	-4.55	-4.3521	-4.9958	-4.4292	-4.4625	-4.65	-4.2521	-4.6833	-4.625	-4.2958	-4.8833	-4.4375	64.956	-112.109	94.870	167.735	-113.653	149.863	-100.661	121.322	-163.990	175.956	95.971	96.988	67.744	-26.486	-100.250	80.029	0.0018302	0.0006303	0.00017167	747.26	4.3363e-06	9.6235e-05	748.06	298.29	5.2659e-06	4.6604e-06	343.69	144.29	122.84	58.538	5.0665e-06	76.519	0.013946	0.0013354	0.00040002	787.76	1.2567e-05	0.00025847	788.11	317	1.5723e-05	1.5679e-05	363.14	170.98	131.58	62.666	1.6436e-05	81.989	-112.232	-95.783	-100.490	-159.990	-6.199	9.376	-161.066	-155.368	-35.347	-46.533	-157.632	-153.245	-151.375	-146.956	-26.399	-149.917	-8191	255	
26099.340	1	1	0	0	0.17178	0.20264	0.16061	0.18518	0.088591	0.12871	0.23883	0.31337	0.067697	0.16605	0.13365	0.07928	0.12102	0.23507	0.017208	0.28364	-4.025	-4.8583	-4.2146	-4.775	-4.5375	-4.2729	-4.8812	-4.4938	-4.1333	-4.9292	-4.4667	-4.7271	-4.8646	-4.4333	-4.8229	-4.6188	-33.756	123.846	40.064	170.480	-167.714	-2.813	76.607	131.492	42.192	159.792	163.706	125.786	166.048	98.152	-28.165	115.790	0.0015094	0.00052443	0.00016653	746.66	4.4443e-06	0.00014241	744.52	297.84	4.9812e-06	4.4081e-06	339.99	144.6	122.32	58.252	4.564e-06	76.218	0.010484	0.0014477	0.00040653	787.29	1.269e-05	0.00010476	830.88	316.38	1.516e-05	1.6333e-05	360.97	166.48	131.08	62.333	1.8354e-05	81.424	-107.058	-97.751	-89.621	-159.714	-17.552	16.041	-161.236	-155.488	-33.161	-50.178	-157.652	-153.197	-151.697	-147.104	-15.321	-149.737	-8191	255	
26099.461	1	1	0	0	0.21969	0.091802	0.21984	0.15274	0.18051	0.1094	0.055262	0.32186	0.045295	0.17912	0.064944	0.18017	0.0023423	0.28134	0.16196	0.19396	-4.0271	-4.6937	-4.4375	-4.6396	-4.7042	-4.2688	-4.8771	-4.6667	-4.3479	-4.8917	-4.4917	-4.675	-4.7958	-4.4958	-4.75	-4.6292	-40.426	-131.893	-143.853	183.867	-75.930	-8.650	72.024	123.802	147.405	-62.471	124.978	92.556	180.000	140.116	2.165	132.981	0.0018226	0.00057524	0.00014803	743.14	4.9761e-06	3.5898e-06	746.57	297.06	5.8498e-06	6.1194e-06	339.85	143.81	122.9	58.298	5.5001e-06	76.039	0.013891	0.0015109	0.000399	784.54	1.2398e-05	1.6018e-05	835.68	315.66	1.567e-05	1.649e-05	360.51	169.95	131.23	62.395	1.7266e-05	81.295	-104.355	-75.963	-73.906	-159.931	-28.890	-30.253	-160.378	-155.579	-37.308	-33.362	-157.413	-153.586	-151.587	-147.077	-39.553	-149.673	-8191	255	
26099.557	1	1	0	0	0.18383	0.10336	0.12721	0.31234	0.13901	0.27772	0.31468	0.078872	0.098827	0.0707	0.28888	0.081286	0.16409	0.21065	0.10531	0.15916	-3.8708	-4.7208	-4.375	-4.5292	-4.7292	-4.1854	-4.7917	-4.7937	-4.2542	-4.7292	-4.6125	-4.4479	-4.9271	-4.6	-4.6625	-4.8729	-153.714	-114.480	138.583	-167.192	105.927	-104.363	-2.150	135.191	99.715	-94.374	-155.470	6.421	-147.954	141.692	50.474	-128.723	0.00079514	0.0070773	0.00014469	742.57	2.7975e-06	5.3762e-06	744.1	297.44	4.9477e-06	6.7844e-06	340.53	144.6	122.58	58.475	5.6303e-06	76.252	0.0085459	0.0026224	0.00038324	784.35	1.2665e-05	1.573e-05	856.44	315.41	1.4336e-05	1.7143e-05	361.16	166.29	131.25	62.519	1.8081e-05	81.638	-85.751	-169.849	-89.719	-160.171	-41.540	-18.930	-160.317	-155.513	-27.725	-33.918	-157.472	-153.240	-151.673	-146.938	-4.429	-149.747	-8191	255	
26099.650	1	1	0	0	0.26645	0.087962	0.13798	0.077856	0.19289	0.096301	0.062972	0.18398	0.10225	0.1915	0.085336	0.14962	0.18892	0.20328	0.19182	0.082532	-3.8333	-4.6708	-4.4458	-4.4292	-4.7688	-4.3104	-4.625	-4.7958	-4.1708	-4.8958	-4.6188	-4.4042	-4.9375	-4.5958	-4.6458	-4.9354	9.126	-85.026	54.255	-62.732	107.885	52.112	1.607	27.020	182.778	176.289	68.165	123.262	119.464	144.378	-168.875	132.084	0.00094922	0.010379	0.0001502	745.24	2.8175e-06	5.3242e-06	748.9	297.96	4.7566e-06	4e-06	342.06	145.18	123.35	58.474	5.5141e-06	76.644	0.003336	0.024224	0.00037236	786.12	1.3458e-05	1.6269e-05	839.68	316.29	1.3778e-05	1.9501e-05	362.63	170.95	131.9	62.655	1.7059e-05	82.002	-73.741	-167.818	-74.136	-159.976	-9.662	-21.135	-160.377	-155.384	-12.828	-11.363	-157.487	-153.401	-151.517	-147.182	-14.612	-149.434	-8191	255	
26099.748	1	1	0	0	0.099972	0.1589	0.14539	0.11012	0.22495	0.046049	0.25312	0.28372	0.046907	0.085893	0.089345	0.093806	0.15446	0.21778	0.049336	0.10909	-3.7792	-4.7042	-4.45	-4.4125	-4.8729	-4.3604	-4.6021	-4.825	-4.1188	-4.5917	-4.65	-4.2604	-4.8375	-4.3729	-4.3458	-4.9396	-135.308	-69.965	-172.740	64.995	2.366	-107.027	-149.205	132.213	-47.025	181.783	136.645	39.295	133.751	158.674	-75.480	127.059	0.00068696	0.0088558	0.00019517	746.5	4.6383e-06	4.4412e-06	746.21	299.9	3.4782e-06	7.0975e-06	343.44	146.8	123.3	58.96	4.8131e-06	77.135	0.0010343	0.026345	0.00037047	788.57	1.408e-05	1.5871e-05	862.61	317.76	1.3882e-05	1.8557e-05	364.69	165.55	133.73	63.054	1.6987e-05	82.564	-107.077	-132.391	-69.039	-160.231	-30.296	-23.790	-160.110	-155.660	-12.678	-23.148	-157.663	-152.862	-152.545	-146.969	-4.074	-149.696	-8191	255	
26099.867	1	1	0	0	0.28793	0.079597	0.10422	0.22343	0.27126	0.084247	0.15233	0.077377	0.17472	0.096692	0.024126	0.24054	0.19258	0.17985	0.15294	0.19699	-3.9292	-4.5375	-4.5917	-4.2979	-4.6333	-4.5667	-4.4167	-4.8458	-4.1396	-4.8083	-4.7417	-4.3396	-4.8063	-4.4667	-4.4521	-4.9229	34.419	163.942	-65.075	130.587	-12.710	-142.021	42.857	128.203	24.015	-72.973	-4.195	92.002	-0.120	-130.224	78.397	180.159	0.00068279	0.01167	0.00017039	749.79	4.2161e-06	6.2142e-06	750.94	301.15	5.298e-06	6.4964e-06	345.7	147.31	123.34	59.167	5.4389e-06	77.057	0.0010257	0.035816	0.00036845	791.46	1.3995e-05	1.5315e-05	845.32	319.46	1.3667e-05	1.8992e-05	366.49	160.17	144.32	63.192	1.6677e-05	82.453	-108.108	-129.329	-75.925	-159.958	-7.979	-23.851	-160.458	-155.489	-37.333	-23.707	-157.283	-152.939	-153.013	-147.027	-35.075	-149.626	-8191	255	
26099.965	1	1	0	0	0.13913	0.093781	0.15159	0.088792	0.053477	0.36029	0.11836	0.11071	0.31958	0.15143	0.18662	0.2175	0.22169	0.23132	0.23688	0.13631	-3.9583	-4.4187	-4.5563	-4.3875	-4.7271	-4.4563	-4.4396	-4.8688	-4.2958	-4.5146	-4.7625	-4.2021	-4.7333	-4.6333	-4.25	-4.8333	-17.272	149.216	45.406	102.175	43.222	-109.404	107.386	-167.182	95.109	156.947	27.929	177.392	-130.313	139.722	-9.090	132.553	0.00069466	0.0080523	0.0001476	750.56	3.4437e-06	6.1667e-06	742.95	299.59	5.8588e-06	6.7484e-06	344.72	147.07	122.83	58.816	5.1548e-06	76.904	0.0010342	0.026297	0.00038278	791.4	1.6252e-05	1.412e-05	861.57	318.85	1.3044e-05	1.8039e-05	364.37	157.37	144.02	63.054	1.7407e-05	82.213	-107.665	-118.633	-91.414	-159.998	-12.685	-20.132	-160.388	-155.529	-35.574	-28.095	-157.600	-153.137	-151.989	-147.270	-2.500	-149.543	-8191	255	
26100.061	1	1	0	0	0.18081	0.022702	0.28779	0.25602	0.05547	0.23491	0.3142	0.18195	0.034128	0.24339	0.10176	0.13089	0.20266	0.40893	0.17742	0.10277	-4.0229	-4.3333	-4.7979	-4.3625	-4.6917	-4.5979	-4.4458	-4.8187	-4.3167	-4.4042	-4.9521	-4.4104	-4.725	-4.7562	-4.0771	-4.9917	149.969	-131.401	37.161	169.535	140.482	-165.053	108.241	157.867	-164.731	28.192	152.270	-133.871	-47.607	152.630	155.632	128.190	0.00068692	0.010831	0.00016074	746.62	3.5376e-06	6.4395e-06	741.22	300.09	3.1813e-06	6.1836e-06	342.78	146.81	122.81	58.944	5.2563e-06	76.838	0.00099648	0.035615	0.00037741	789.06	1.5035e-05	1.4779e-05	824.6	321.52	1.2948e-05	1.8041e-05	363.66	157.16	148.21	63.019	1.5206e-05	82.194	-105.961	-112.465	-83.172	-160.000	-37.964	-28.140	-160.343	-155.892	-14.046	-13.369	-157.630	-153.106	-152.424	-147.288	-20.136	-149.800	-8191	255	
26100.156	1	1	0	0	0.15106	0.040218	0.2059	0.23076	0.12641	0.19091	0.313	0.24849	0.097139	0.17527	0.10464	0.15672	0.071269	0.18519	0.026329	0.10338	-4.2208	-4.2438	-4.9521	-4.3792	-4.5417	-4.7292	-4.3021	-5.0125	-4.2854	-4.3938	-4.9938	-4.5146	-4.65	-4.925	-4.1417	-4.8833	53.649	-146.839	-120.672	154.772	-60.608	4.346	81.867	138.885	130.725	115.526	106.195	-29.249	-127.415	-157.539	-140.008	110.954	0.00067877	0.0083972	0.00010888	749.39	3.471e-06	5.029e-06	745.58	299.93	4.9789e-06	2.772e-06	342.73	147.23	122.97	59.056	5.3975e-06	77.086	0.00097992	0.026481	0.00039024	791.14	1.5941e-05	1.501e-05	797.79	336.28	1.2592e-05	1.745e-05	364.51	157.4	144.42	63.203	1.4707e-05	82.579	-107.705	-111.868	-84.697	-160.174	-36.873	-40.429	-160.199	-155.955	-41.851	-32.104	-157.485	-153.194	-152.145	-147.192	-45.282	-149.724	-8191	255	
26100.252	1	1	0	0	0.16678	0.084015	0.16266	0.14048	0.15769	0.12183	0.1502	0.16037	0.11926	0.2285	0.11872	0.26336	0.11793	0.35744	0.047607	0.23405	-4.2479	-4.2063	-4.6542	-4.3146	-4.4229	-4.6312	-4.3333	-4.8708	-4.6312	-4.2729	-4.8542	-4.3458	-4.5	-4.9083	-4.1042	-4.8667	56.513	-149.877	-48.251	179.251	-9.623	-65.896	-140.685	-165.466	-82.121	-6.976	61.216	108.600	111.787	-161.526	33.702	140.808	0.00068178	0.011862	0.00015274	752.07	3.9595e-06	5.6909e-06	756.18	301.46	3.8873e-06	8.7414e-06	345.47	147.44	123.69	58.986	6.3673e-06	77.316	0.00097321	0.035559	0.00041039	793.04	1.4669e-05	1.5438e-05	794.41	337.27	1.2479e-05	1.906e-05	366.19	157.85	149	63.27	1.4521e-05	82.743	-106.956	-104.286	-70.548	-160.104	-9.444	-45.564	-160.835	-155.121	-31.963	-34.204	-157.616	-153.493	-152.429	-147.150	-45.520	-149.592	-8191	255	
26100.348	1	1	0	0	0.10028	0.10222	0.06106	0.11598	0.18534	0.10492	0.29022	0.2787	0.080973	0.098261	0.097584	0.0162	0.13183	0.075303	0.20445	0.2378	-4.1813	-3.9771	-4.8187	-4.6354	-4.3146	-4.9521	-4.4292	-4.5771	-4.6833	-4.1479	-4.9313	-4.6479	-4.3396	-4.9896	-4.2083	-4.7375	-132.535	178.482	-125.944	52.618	-16.623	97.216	109.695	45.292	-154.641	59.873	167.788	100.987	122.599	159.278	89.213	114.088	0.0006905	0.0069104	0.0011895	754.89	4.5998e-06	4.9257e-06	758.73	301.16	3.6665e-06	8.096e-06	347.51	147.66	124.22	59.343	6.2141e-06	77.517	0.00099068	0.018158	0.0016474	795.9	1.5178e-05	1.6347e-05	797.43	344.1	1.2734e-05	1.643e-05	367.68	157.96	144.92	63.435	1.4493e-05	82.804	-107.313	-71.144	-140.240	-160.002	-11.707	-52.261	-161.177	-155.161	-28.776	-18.029	-157.509	-153.328	-152.307	-147.063	-32.926	-149.720	-8191	255	
26100.469	1	1	0	0	0.17278	0.13342	0.19192	0.071716	0.25666	0.15414	0.3836	0.3211	0.23703	0.15938	0.098976	0.24904	0.099554	0.29624	0.090898	0.062266	-4.4146	-4.0354	-4.6667	-4.5229	-4.2063	-4.7917	-4.4396	-4.6875	-4.575	-4.0229	-4.5396	-4.6917	-4.2667	-4.7333	-4.1625	-4.5625	29.222	-10.361	-118.999	95.159	0.737	21.168	104.893	126.415	55.727	-62.692	59.577	169.613	21.767	149.922	35.965	-128.169	0.00072322	0.010155	0.0015306	755.5	3.9855e-06	5.3287e-06	753.08	301	2.7411e-06	6.0276e-06	344.93	146.79	123.78	59.037	5.74e-06	76.737	0.001	0.0028713	0.0080953	794.6	1.4615e-05	1.5728e-05	793.6	337.26	1.2976e-05	1.5672e-05	365.12	157.06	148.52	63.148	1.4134e-05	82.128	-107.122	-66.469	-142.458	-160.126	-2.889	-37.899	-161.055	-155.306	-27.998	-34.299	-157.426	-153.141	-152.737	-147.180	-36.641	-149.712	-8191	255	
26100.562	1	1	0	0	0.098586	0.084324	0.18132	0.15859	0.2233	0.18736	0.19665	0.2445	0.16206	0.093871	0.13017	0.042319	0.11	0.16767	0.065116	0.21158	-4.3604	-4.1042	-4.5708	-4.6104	-4.225	-4.8292	-4.3771	-4.6667	-4.7708	-4.0979	-4.7354	-4.7458	-4.2562	-4.7792	-4.3604	-4.4583	86.864	7.509	-124.767	-136.439	-66.279	92.594	91.119	165.078	126.876	34.688	184.202	-132.023	71.310	100.336	-154.163	116.207	0.000695	0.00062829	0.0023693	755	4.6607e-06	6.4662e-06	748.83	298.34	4.4905e-06	6.0813e-06	341.94	146.29	123.78	58.895	5.0951e-06	77.018	0.00099371	0.0013853	0.0074207	793.9	1.5132e-05	1.5979e-05	790.75	342.31	1.321e-05	1.5487e-05	363.56	156.67	139.75	63.728	1.3647e-05	82.237	-106.539	-107.336	-83.837	-160.038	-2.034	-33.590	-161.347	-155.565	-27.937	-17.894	-157.400	-153.060	-151.411	-147.661	-19.592	-149.697	-8191	255	
26100.637	1	1	0	0	0.1518	0.087621	0.18567	0.1833	0.12276	0.10736	0.17165	0.30704	0.032649	0.12106	0.20453	0.19919	0.20107	0.0677	0.012662	0.17092	-4.5042	-4.2688	-4.5646	-4.6708	-4.1833	-4.7937	-4.5062	-4.4812	-4.7229	-4.2229	-4.6729	-4.7188	-4.2271	-5.0083	-4.5542	-4.4	-86.500	-159.896	-12.887	137.377	-170.239	-47.652	-146.823	78.851	-171.810	104.957	30.387	-93.138	82.809	145.411	-38.723	78.396	0.00065844	0.0005145	0.0032664	750.92	3.6469e-06	8.562e-06	753.02	299.24	3.8194e-06	4.4889e-06	343.91	146.23	124.3	59.213	5.5368e-06	77.032	0.0010188	0.0013639	0.010045	793.02	1.3356e-05	1.7109e-05	791.25	336.75	1.3937e-05	1.508e-05	364.52	156.75	132.82	66.619	1.3924e-05	82.327	-108.382	-91.165	-78.545	-159.889	-18.280	-43.722	-161.172	-155.413	-35.166	-19.884	-157.609	-153.154	-151.396	-147.859	-30.480	-149.562	-8191	255	
26100.756	1	1	0	0	0.10716	0.1327	0.23239	0.28939	0.2248	0.20827	0.060609	0.29921	0.067852	0.24167	0.18523	0.18121	0.091206	0.15847	0.16022	0.38729	-4.5563	-4.2917	-4.3271	-4.8167	-4.0833	-4.6958	-4.7854	-4.4583	-4.8458	-4.4771	-4.7646	-4.8375	-4.2979	-4.8958	-4.6375	-4.3187	-117.667	180.993	-35.161	90.360	-152.318	47.866	102.234	78.626	-109.405	160.556	61.254	32.902	100.991	147.079	121.119	132.520	0.00068711	0.00045064	0.0024613	750.5	4.2418e-06	3.7874e-06	753.28	298.96	4.5458e-06	5.8681e-06	344.05	147.52	124.95	59.215	6.1862e-06	77.143	0.001029	0.001335	0.0074182	792.78	1.3066e-05	1.9222e-05	793.83	342.47	1.3923e-05	1.5063e-05	365.44	157.37	133.33	66.299	1.4203e-05	82.726	-108.222	-89.108	-72.074	-160.202	-21.473	-48.027	-161.051	-155.669	-26.070	-14.121	-157.477	-153.206	-151.630	-147.690	-29.950	-149.822	-8191	255	
26100.852	1	1	0	0	0.15506	0.19167	0.22241	0.1466	0.11938	0.090048	0.13665	0.15736	0.22083	0.17811	0.28228	0.057723	0.13561	0.042777	0.091496	0.21562	-4.4625	-4.2521	-4.3396	-4.9979	-4.1687	-4.5958	-4.7792	-4.1333	-4.7708	-4.2542	-4.4667	-4.8521	-4.1604	-4.8125	-4.5042	-4.2604	-101.012	-89.701	-21.972	86.440	-62.109	127.901	102.725	146.750	-28.768	-154.238	75.175	-21.408	100.202	-39.712	116.079	154.574	0.00069651	0.00058989	0.0035315	753.06	4.9939e-06	4.9035e-06	755.59	301.36	4.7137e-05	6.5726e-06	344.54	147.2	124.18	59.322	4.8564e-06	77.19	0.0010449	0.0013199	0.010068	796.12	1.3168e-05	1.8168e-05	796.42	330.61	7.4144e-05	1.4408e-05	366.25	157.64	133.02	67.333	1.4002e-05	82.442	-107.649	-88.036	-61.697	-160.091	-12.314	-37.105	-161.340	-155.360	-157.077	-35.926	-157.572	-153.260	-151.434	-147.816	-45.541	-149.731	-8191	255	
26100.947	1	1	0	0	0.2575	0.12961	0.036679	0.24505	0.1642	0.057217	0.045879	0.056882	0.25184	0.26655	0.20107	0.08758	0.02592	0.15841	0.25512	0.16803	-4.5271	-4.3833	-4.3271	-4.9104	-4.2229	-4.6229	-4.8187	-4.375	-4.7229	-4.4604	-4.3604	-4.9146	-4.45	-4.5417	-4.9604	-4.4604	-15.796	-154.805	-140.703	141.686	131.921	24.669	-45.811	-129.982	29.382	-131.559	119.321	162.331	-171.849	110.547	-150.122	181.104	0.00072219	0.00052379	0.0024683	752	4.4677e-06	5.721e-06	750.57	300.99	7.5348e-05	4.2031e-06	341.69	145.94	124.25	58.998	5.2175e-06	76.62	0.0010874	0.0012986	0.0074596	793.58	1.2684e-05	1.9196e-05	792.54	319.69	0.00028775	1.4503e-05	363.37	156.41	132.77	65.95	1.4473e-05	81.913	-107.548	-72.667	-56.135	-160.112	-20.254	-33.852	-161.195	-155.564	-153.386	-21.218	-157.453	-153.425	-151.529	-147.610	-34.717	-149.916	-8191	255	
26101.045	1	1	0	0	0.10497	0.13047	0.088432	0.1214	0.042128	0.16766	0.24068	0.37243	0.076743	0.32509	0.13692	0.14373	0.081618	0.055547	0.07783	0.12529	-4.2979	-4.6687	-4.1354	-4.9604	-4.3104	-4.3729	-4.8542	-4.4104	-4.6021	-4.4271	-4.3021	-4.9979	-4.3396	-4.4729	-4.8021	-4.5687	-153.628	-19.484	152.164	175.542	7.466	-117.290	111.132	-162.341	-25.692	-65.385	96.578	-135.902	184.007	79.712	117.825	60.065	0.00068374	0.00068177	0.0034337	751.9	4.4953e-06	6.7478e-06	747.51	300.34	5.4485e-05	5.121e-06	340.95	146.19	124.13	59.327	4.825e-06	76.733	0.0011232	0.0012929	0.010043	793.33	1.2272e-05	1.8405e-05	788.78	318.91	0.00023622	1.483e-05	362.42	155.99	132.62	67.07	1.4816e-05	81.92	-108.233	-84.632	-47.963	-160.059	-36.828	-38.203	-161.457	-155.546	153.065	-15.012	-157.477	-153.268	-151.797	-147.590	-32.020	-149.883	-8191	255	
26101.164	1	1	0	0	0.12056	0.085135	0.027614	0.14291	0.015445	0.045034	0.23739	0.14328	0.11035	0.07332	0.21534	0.21636	0.47471	0.22752	0.094651	0.20392	-4.2312	-4.6646	-4.0875	-4.9792	-4.425	-4.3854	-4.9458	-4.5583	-4.8229	-4.8562	-4.1833	-4.9667	-4.5708	-4.6667	-4.6271	-4.4375	-144.572	-129.605	-125.339	-126.278	65.423	-13.109	53.973	52.113	89.996	-115.687	141.761	50.895	186.514	142.274	-125.389	-161.686	0.00068216	0.00058668	0.0026061	752.86	4.6224e-06	7.0762e-06	748.38	300.99	7.6793e-05	6.0198e-06	342.52	146.01	124.02	59.047	6.6119e-06	76.765	0.001089	0.0013451	0.0041334	807.77	1.2297e-05	1.9029e-05	788.89	319.72	0.00031991	1.53e-05	363.08	156.14	132.42	65.966	1.5112e-05	81.976	-107.556	-74.494	-40.306	-160.020	-28.940	-37.442	-161.436	-155.486	163.240	-25.186	-157.609	-153.195	-151.615	-147.495	-22.445	-149.562	-8191	255	
26101.262	1	1	0	0	0.1828	0.14927	0.22357	0.26058	0.064863	0.16374	0.085204	0.1837	0.15965	0.1061	0.21174	0.10975	0.095555	0.24091	0.1447	0.28061	-4.2146	-4.6896	-3.9104	-4.7521	-4.5188	-4.2979	-4.8771	-4.4563	-4.3833	-4.6438	-4.15	-4.6562	-4.6438	-4.3625	-4.8354	-4.4958	-173.292	173.022	73.899	93.150	16.729	19.596	-159.339	134.989	70.475	36.637	-120.249	170.656	182.365	-160.944	48.203	125.088	0.00065105	0.00051236	0.000157	753.35	4.2177e-06	6.9071e-06	751.05	301.56	5.4707e-05	7.7074e-06	342.65	146.72	124.56	59.58	4.234e-06	76.609	0.0011351	0.0013575	0.00038625	855.84	1.2279e-05	1.8346e-05	791.96	319.74	0.00023663	1.5504e-05	363.86	156.86	132.86	67.185	1.5345e-05	82.108	-107.354	-86.600	-83.139	-160.056	-14.491	-29.131	-161.314	-155.621	164.887	-18.835	-157.396	-153.297	-151.562	-147.500	-22.481	-149.646	-8191	255	
26101.332	1	1	0	0	0.11633	0.12523	0.24484	0.11961	0.2188	0.19557	0.3431	0.194	0.20467	0.18448	0.14906	0.40426	0.13177	0.20436	0.15374	0.23511	-3.9125	-4.7604	-4.0958	-4.7083	-4.5104	-4.1875	-4.8875	-4.3688	-4.5208	-4.7458	-4.1562	-4.7208	-4.6125	-4.2292	-4.5458	-4.6729	27.691	-52.617	71.689	-84.290	100.321	-137.317	115.792	-119.645	-72.565	118.995	-73.662	143.072	64.705	149.682	-35.147	97.864	0.0007033	0.00031251	0.00017156	758.26	3.7802e-06	6.597e-06	752.75	302.84	7.7e-05	5.9131e-06	344.13	147.05	124.21	59.152	6.8163e-05	76.665	0.0011184	0.0013606	0.00039028	844.64	1.2939e-05	1.9098e-05	794.47	320.73	0.00032292	1.5884e-05	364.77	157.24	133.06	64.597	0.00010351	82.047	-106.881	-77.803	-89.186	-159.640	-12.006	-21.887	-161.321	-155.706	172.966	-22.013	-157.349	-153.249	-151.580	-147.068	-100.696	-149.510	-8191	255	
26101.430	1	1	0	0	0.12552	0.078704	0.14356	0.23991	0.14072	0.025853	0.12946	0.13762	0.19299	0.17691	0.086506	0.21496	0.1641	0.35977	0.12351	0.16167	-3.9938	-4.8146	-4.1271	-4.7083	-4.45	-4.2625	-4.7188	-4.6042	-4.0875	-4.75	-4.4187	-4.5125	-4.7979	-4.2333	-4.7479	-4.6021	169.119	-123.803	53.310	-162.969	130.563	-103.132	148.361	102.622	-150.330	108.410	162.818	169.498	181.102	-164.844	-166.557	128.295	0.00070543	0.00059357	0.00011074	755.23	3.7244e-06	5.1769e-06	749.11	301.38	5.6756e-05	5.1101e-06	342.13	146.03	124.05	58.913	9.1614e-05	75.983	0.001137	0.0014853	0.00038193	861.06	1.2906e-05	1.5971e-05	791.53	319.55	0.00023885	1.5803e-05	362.41	156.2	132.57	62.945	0.00034793	81.571	-108.612	-89.135	-67.470	-159.276	-18.297	-24.116	-161.276	-155.673	185.250	-24.496	-157.494	-153.099	-151.424	-147.226	-98.079	-149.819	-8191	255	
26101.549	1	1	0	0	0.14026	0.1569	0.085338	0.14131	0.20341	0.075049	0.13529	0.081686	0.22982	0.10711	0.34166	0.094122	0.19777	0.11111	0.10017	0.14169	-3.9521	-4.6458	-4.1292	-4.4958	-4.6896	-4.1937	-4.7188	-4.6062	-4.2667	-4.8354	-4.4604	-4.5021	-4.7625	-4.2083	-4.65	-4.8438	-74.691	117.854	109.949	111.704	-110.190	124.854	68.506	147.206	-140.449	44.274	137.201	-106.117	138.692	142.753	163.232	123.710	0.00067067	0.00047401	0.00015848	753.73	3.9887e-06	5.1087e-06	748.27	299.81	7.663e-05	6.2054e-06	341.51	145.3	124.02	58.641	8.6803e-05	76.076	0.0011004	0.0014442	0.00037605	840.92	1.2869e-05	1.5378e-05	789.74	318.65	0.00032238	1.6184e-05	361.87	155.69	132.14	62.887	0.00026122	81.568	-107.645	-63.761	-60.587	-159.539	3.609	-29.734	-161.363	-155.452	184.027	-13.528	-157.394	-153.112	-151.475	-147.192	-67.858	-149.777	-8191	255	
26101.645	1	1	0	0	0.26704	0.097369	0.061343	0.21318	0.076577	0.25261	0.1281	0.41134	0.046139	0.041492	0.22201	0.10811	0.093359	0.21702	0.22955	0.18106	-3.8208	-4.6292	-4.3313	-4.5104	-4.8208	-4.2958	-4.8104	-4.6917	-4.0146	-4.6375	-4.5437	-4.4917	-4.7479	-4.3729	-4.4833	-4.65	-22.993	-106.114	176.064	100.088	-24.729	175.824	-50.045	82.359	123.291	-62.223	-143.512	-146.338	107.391	133.221	57.436	75.554	0.00068397	0.00047995	0.0001213	752.95	5.2925e-06	5.043e-06	747.6	301.37	2.9547e-05	8.8728e-05	342.27	145.92	123.56	58.681	0.00010803	76.349	0.0011056	0.0014498	0.00036085	860.48	1.3112e-05	1.5057e-05	789.68	319.55	0.00011378	0.00013073	362.02	156.34	132.41	63.029	0.0003549	81.645	-107.426	-88.732	-71.566	-159.332	-19.747	-35.817	-161.398	-155.587	110.910	-151.122	-157.583	-153.229	-151.547	-147.190	-58.812	-149.752	-8191	255	
26101.742	1	1	0	0	0.12108	0.17186	0.17046	0.14938	0.17315	0.048205	0.15463	0.16214	0.079262	0.092994	0.062713	0.20628	0.052147	0.085979	0.1577	0.12825	-3.9062	-4.7958	-4.4229	-4.275	-4.9354	-4.2833	-4.5312	-4.9542	-3.8958	-4.8583	-4.7542	-4.2583	-4.6542	-4.5521	-4.3625	-4.8333	-81.582	-37.878	40.196	106.166	140.032	47.754	-167.094	-10.592	108.075	-136.756	-102.483	94.118	-17.891	137.775	-148.072	-121.811	0.00069851	0.00053423	0.00011512	756.2	3.7358e-06	5.0981e-06	751.14	302.13	3.4985e-06	0.00011506	343.21	146.55	124.02	58.835	8.7548e-05	76.379	0.0010309	0.0015404	0.0003711	844.32	1.335e-05	1.4919e-05	792.46	320.43	1.3043e-05	0.00040739	363.35	156.63	132.91	63.161	0.00026547	81.93	-107.307	-115.434	-72.570	-159.532	-22.623	-31.779	-161.115	-155.721	-22.986	182.191	-157.491	-153.181	-151.734	-147.175	-46.562	-149.711	-8191	255	
26101.861	1	1	0	0	0.23636	0.20394	0.16181	0.11626	0.27121	0.18658	0.1687	0.1517	0.036983	0.078815	0.29695	0.070332	0.17416	0.10288	0.25451	0.14944	-3.8083	-4.5667	-4.4979	-4.4917	-4.8396	-4.5208	-4.4187	-4.9229	-4.2917	-4.7958	-4.7646	-4.2312	-4.8417	-4.6062	-4.2604	-4.9729	-83.828	-49.520	117.053	163.379	140.018	148.698	146.149	149.744	-47.766	-76.540	144.838	-156.709	-167.769	-1.749	87.347	94.171	0.00067094	0.00050676	0.00010455	751.74	2.8643e-06	5.1128e-06	752.17	302.13	4.8984e-06	9.416e-05	342.91	146.4	124.66	59.139	0.00011607	76.852	0.0010079	0.0016466	0.00037545	860.82	1.3387e-05	1.4732e-05	794.43	320.46	1.305e-05	0.00030101	364.51	156.84	133.28	63.202	0.0003553	82.136	-106.722	-74.322	-89.172	-159.317	7.206	-39.172	-161.244	-155.677	-30.150	-172.419	-157.475	-153.225	-151.441	-147.042	-46.759	-149.751	-8191	255	
26101.932	1	1	0	0	0.16933	0.032815	0.2526	0.14673	0.16636	0.17455	0.072649	0.29331	0.096542	0.14174	0.24648	0.31842	0.09858	0.34043	0.22233	0.041138	-3.8792	-4.4708	-4.5271	-4.3333	-4.7229	-4.4271	-4.4187	-4.9479	-4.125	-4.5479	-4.8354	-4.2583	-4.8812	-4.3333	-4.1792	-5.1625	151.197	124.556	12.537	161.471	164.061	-16.744	-166.575	143.133	-145.977	-148.808	-133.504	131.205	173.088	174.139	-142.834	-12.741	0.00069651	0.00043686	0.00015903	755.16	3.0991e-05	5.341e-06	751.64	301.85	3.8138e-06	0.00013068	341.28	146.08	124.59	58.952	7.9284e-05	76.47	0.0010057	0.0016132	0.0003837	815	0.00011346	1.4763e-05	791.93	319.77	1.2833e-05	0.00040786	362.29	156.31	132.75	63.107	0.00026044	81.665	-107.623	-98.662	-91.943	-159.340	176.756	-20.952	-161.204	-155.504	-20.525	-163.431	-157.664	-153.063	-151.561	-147.229	-39.253	-149.913	-8191	255	
26102.027	1	1	0	0	0.18079	0.18532	0.072457	0.22299	0.15155	0.18971	0.15646	0.27214	0.03148	0.069389	0.19205	0.30988	0.21746	0.18547	0.23888	0.30888	-3.8688	-4.4708	-4.7167	-4.3125	-4.6813	-4.5271	-4.3604	-4.9437	-4.1958	-4.3979	-4.8583	-4.1188	-4.8354	-4.4375	-4.1625	-4.9146	70.375	132.170	97.845	55.642	-123.281	89.713	84.683	163.279	92.364	-139.835	107.776	174.236	69.562	163.560	-73.748	174.258	0.00066879	0.00051516	0.00011667	750.64	9.9657e-05	4.5888e-06	744.19	300.77	5.153e-06	8.9028e-05	340.12	145.76	124.3	59.004	8.6388e-05	76.55	0.00097024	0.0016827	0.0003753	792.9	0.00032236	1.4995e-05	787.4	319.08	1.2424e-05	0.00030023	361.12	155.87	133.03	63.193	0.00034447	81.825	-108.974	-87.363	-83.820	-160.117	89.122	-30.159	-161.395	-155.413	-26.722	-162.892	-157.618	-153.252	-151.578	-147.168	-6.112	-149.612	-8191	255	
26102.148	1	1	0	0	0.011341	0.092505	0.12092	0.1247	0.1716	0.15933	0.094647	0.069255	0.21204	0.31963	0.13333	0.083396	0.17758	0.18257	0.16805	0.04692	-4.2104	-4.2229	-4.6396	-4.3104	-4.5396	-4.5917	-4.1292	-4.8604	-4.4313	-4.2333	-4.8958	-4.2063	-4.5292	-4.7604	-3.9792	-4.875	-168.740	163.466	51.365	81.760	-89.471	-20.201	116.471	170.378	71.265	161.898	-105.998	112.897	145.266	-170.248	169.666	128.359	0.00070035	0.00068291	0.00015038	753.69	6.5363e-05	5.5522e-06	746.1	301.24	5.6845e-06	0.00012446	340.88	145.89	124.21	59.107	7.4497e-05	76.896	0.0009676	0.0015988	0.00037921	793.53	0.00023636	1.5097e-05	787.63	319.24	1.2576e-05	0.00040472	362.27	156.13	132.94	63.182	0.0001026	83.759	-106.078	-81.771	-85.674	-160.121	97.479	-36.422	-161.048	-155.547	-41.063	-148.479	-157.620	-153.081	-151.652	-147.223	1.963	-149.839	-8191	255	
26102.244	1	1	0	0	0.11764	0.1829	0.043687	0.20438	0.036063	0.10156	0.075294	0.13758	0.11487	0.29862	0.1466	0.14309	0.24495	0.12546	0.19513	0.30191	-3.9375	-4.2167	-4.8229	-4.2312	-4.5729	-4.7125	-4.3542	-4.9375	-4.4292	-4.2292	-5.0062	-4.3729	-4.7312	-4.7146	-4.2625	-4.8042	-86.693	180.440	91.429	146.831	-69.961	91.523	86.825	85.352	-153.469	150.837	32.679	-128.803	170.649	166.060	-48.323	124.643	0.00068117	0.00057255	0.00010649	754.41	9.6236e-05	4.5003e-06	749.47	300.44	4.5604e-06	9.4132e-05	342.14	146.75	124.59	58.877	6.3137e-06	77.226	0.00097669	0.0016384	0.00038725	792.78	0.00032237	1.5077e-05	789.74	319.55	1.2802e-05	0.00029888	363.04	156.71	133.24	63.137	1.4058e-05	87.37	-106.582	-87.022	-83.744	-159.861	100.381	-22.620	-161.128	-155.699	-26.661	-145.294	-157.565	-153.331	-151.615	-147.244	-28.038	-149.297	-8191	255	
26102.342	1	1	0	0	0.062909	0.28114	0.11618	0.14281	0.22556	0.0088991	0.089981	0.097825	0.28689	0.13734	0.060309	0.12656	0.20343	0.33277	0.080224	0.26007	-4.2188	-4.325	-4.9396	-4.3812	-4.425	-4.6937	-4.2229	-4.6521	-4.5542	-4.3187	-4.9604	-4.3958	-4.5479	-4.7688	-4.0583	-4.7146	112.655	-172.426	35.695	94.911	-76.905	177.681	-56.534	62.792	142.072	57.724	-8.886	38.254	-60.168	134.634	172.775	36.564	0.00069188	0.00055486	0.00013503	753.07	7.0853e-05	3.6821e-06	749.43	300.7	5.7691e-06	1.8004e-05	342.99	147.2	124.16	58.988	4.4831e-06	77.396	0.001005	0.0015763	0.00037632	793.6	0.00023799	1.517e-05	791.84	320.52	1.2982e-05	0.00038104	364.76	157.51	133.4	63.107	1.3757e-05	86.29	-108.224	-83.810	-93.141	-160.165	102.675	-23.256	-161.047	-155.450	-40.661	85.008	-157.341	-153.138	-151.728	-147.168	-41.131	-149.280	-8191	255	
26102.463	1	1	0	0	0.49297	0.22034	0.10371	0.24434	0.26283	0.079202	0.10557	0.4872	0.057154	0.17821	0.069425	0.32858	0.24492	0.097532	0.10935	0.24229	-4.3333	-4.1458	-4.6	-4.475	-4.3542	-4.7146	-4.3688	-4.7875	-4.7229	-4.1687	-4.9563	-4.5667	-4.3208	-4.8396	-4.1625	-4.8313	48.886	56.021	109.025	130.886	28.405	160.438	74.454	145.252	-49.202	177.893	7.022	132.791	-141.866	115.056	-22.905	121.024	0.0006964	0.00055252	0.00014358	754.02	8.6457e-05	6.576e-06	749.84	301.16	4.6323e-06	9.4538e-06	344.44	147.03	124.45	59.034	6.9205e-06	77.082	0.0010091	0.0015176	0.00039956	793.45	0.00032274	1.5749e-05	790.72	319.96	1.2916e-05	0.00010383	377.21	156.94	133.41	63.032	1.3823e-05	87.256	-107.047	-72.542	-85.667	-159.986	114.569	-11.033	-161.185	-155.645	-25.152	32.526	-158.367	-153.272	-151.498	-147.213	-36.688	-149.199	-8191	255	
26102.533	1	1	0	0	0.078633	0.014867	0.090657	0.021588	0.040379	0.15037	0.16584	0.1843	0.16029	0.034626	0.23938	0.076922	0.067892	0.16806	0.19823	0.08833	-4.2521	-4.1146	-4.7375	-4.4812	-4.4271	-4.7438	-4.0792	-4.6667	-4.4729	-4.2229	-4.8979	-4.5708	-4.1833	-4.7896	-4.2333	-4.6021	96.022	-160.726	23.174	62.395	-99.998	-161.014	142.356	110.489	-132.401	89.823	140.586	151.775	13.114	-128.163	-161.703	76.923	0.00067148	0.00043839	0.00012821	748.94	6.8402e-05	7.3054e-06	744.89	301.38	5.4877e-06	6.0987e-06	345.12	146.09	124.46	58.897	6.3053e-06	76.955	0.0010006	0.001357	0.00042555	791.85	0.00023698	1.4984e-05	787.28	319.52	1.2604e-05	1.4241e-05	397.74	156.52	133.08	63.061	1.3858e-05	85.764	-106.635	-89.273	-86.206	-160.032	123.073	-39.392	-161.025	-155.756	-13.077	-26.255	-158.494	-153.295	-151.595	-147.096	-23.906	-149.348	-8191	255	
26102.631	1	1	0	0	0.088986	0.051548	0.24218	0.19917	0.14423	0.19509	0.18851	0.13355	0.31976	0.11854	0.24059	0.10393	0.22349	0.022774	0.12289	0.26728	-4.2688	-4.1438	-4.7521	-4.6083	-4.1125	-4.7646	-4.5083	-4.4333	-4.7438	-4.2312	-4.6937	-4.6396	-4.1438	-4.8042	-4.5042	-4.4167	158.482	-160.362	41.565	128.087	163.549	-126.910	100.565	141.969	97.817	146.081	102.563	157.191	118.878	171.981	-104.119	178.182	0.00071278	0.00050314	0.00010977	752.4	8.9607e-05	5.3249e-06	744.31	300.77	6.1493e-06	6.5572e-06	343.93	146.98	124.89	58.845	5.1847e-06	77.027	0.0010053	0.0012336	0.00046433	792.91	0.00028606	1.5155e-05	787.88	319.81	1.2618e-05	1.4481e-05	389.24	157.06	133.57	63.176	1.4149e-05	87.32	-107.357	-82.910	-73.854	-160.159	76.157	-35.364	-161.320	-155.671	-24.900	-12.182	-158.123	-153.234	-151.692	-147.127	-40.027	-149.128	-8191	255	
26102.725	1	1	0	0	0.23186	0.12314	0.049053	0.063139	0.038775	0.083216	0.040943	0.20556	0.1551	0.049233	0.058419	0.30866	0.25966	0.061832	0.39476	0.30214	-4.55	-4.1667	-4.4688	-4.7396	-4.1146	-4.7875	-4.4333	-4.4333	-4.7604	-4.3104	-4.6854	-4.6917	-4.1458	-4.9229	-4.3583	-4.2833	-172.674	132.945	-148.608	-115.336	-48.034	15.318	179.397	108.245	52.400	109.419	29.535	127.841	114.923	-110.282	-129.150	56.879	0.00067591	0.00057468	0.0001032	753.37	6.1395e-05	7.0803e-05	748.97	302.61	6.0937e-06	6.5414e-06	347.35	147.56	124.82	59.091	5.3702e-06	76.686	0.0010122	0.0012983	0.00043602	794.78	7.2092e-05	0.00018095	790.25	320.53	1.3112e-05	1.4031e-05	400.26	157.52	133.61	63.313	1.3611e-05	86.025	-105.911	-82.336	-91.767	-160.109	81.142	177.810	-161.128	-155.638	-18.072	-6.749	-158.633	-153.168	-151.520	-147.078	-28.559	-149.167	-8191	255	
26102.846	1	1	0	0	0.18355	0.182	0.047974	0.034169	0.16662	0.19201	0.16395	0.17171	0.19945	0.27856	0.23211	0.011142	0.081367	0.1938	0.31809	0.34709	-4.2729	-4.1833	-4.4375	-4.7063	-4.2542	-4.7083	-4.6771	-4.3354	-4.9229	-4.25	-4.6021	-4.8104	-4.1146	-4.9771	-4.4437	-4.1813	32.699	-104.661	-95.486	143.948	119.741	-163.693	98.970	153.376	-145.626	-99.125	129.245	-9.486	120.234	54.215	-26.102	82.780	0.00071001	0.00047041	0.00017226	754.38	4.7245e-06	0.00011852	751.95	302.73	4.8134e-06	7.2121e-06	347.14	147.09	125.26	59.162	6.3875e-06	77.263	0.00099997	0.0012761	0.00047446	793.76	1.1752e-05	0.0004098	791.96	320.85	1.259e-05	1.4528e-05	391.6	157.57	133.83	63.275	1.4134e-05	86.738	-106.617	-79.348	-90.126	-160.039	-31.073	121.300	-161.128	-155.742	-20.896	-28.471	-157.942	-153.309	-151.724	-147.146	-35.664	-149.196	-8191	255	
26102.941	1	1	0	0	0.11491	0.35411	0.10359	0.11338	0.11605	0.10818	0.20671	0.31982	0.12478	0.031537	0.24865	0.15169	0.12784	0.22285	0.24656	0.1162	-4.5917	-4.4187	-4.1875	-4.9167	-4.1438	-4.5146	-4.7125	-4.2354	-4.7667	-4.6146	-4.4875	-4.9354	-4.35	-4.7396	-4.8125	-4.3958	51.145	22.474	-95.485	157.059	-74.282	-157.526	109.226	92.317	-161.544	162.731	-139.370	89.971	25.432	159.982	141.738	112.691	0.00084535	0.00053886	0.000189	753.26	3.9894e-06	8.9041e-05	749.65	301.86	5.5367e-06	6.9344e-06	346.88	146.51	123.94	58.763	5.7261e-06	76.173	0.0010941	0.0013189	0.00043893	793.92	1.1966e-05	0.00030242	790.15	319.79	1.3641e-05	1.4878e-05	398.82	156.74	132.94	62.966	1.3981e-05	82.34	-103.243	-87.188	-83.481	-160.171	-27.785	125.085	-161.233	-155.656	-26.844	-33.967	-158.126	-153.505	-151.599	-147.270	-44.294	-149.109	-8191	255	
26103.037	1	1	0	0	0.062774	0.13591	0.048675	0.087041	0.17921	0.18167	0.11176	0.23305	0.24436	0.30753	0.19003	0.28927	0.10003	0.13776	0.087615	0.19578	-4.2312	-4.3479	-4.3417	-4.75	-4.2438	-4.4771	-4.8125	-4.3396	-4.6813	-4.2896	-4.2896	-5.0208	-4.3792	-4.6146	-4.6854	-4.1188	-168.620	77.715	24.645	-104.759	-155.664	-52.579	-134.096	105.852	131.541	97.917	117.395	30.413	-162.683	155.326	-162.463	156.503	0.00077734	0.00064863	0.00019046	750.3	4.5347e-06	0.00011802	743.08	300.27	4.6937e-06	6.1421e-06	344.21	145.88	124.38	58.323	4.2872e-06	75.704	0.0068802	0.0013083	0.00046431	791.37	1.1989e-05	0.0004095	785.21	317.75	1.4748e-05	1.4964e-05	386.85	155.96	132.68	62.664	1.3746e-05	80.97	-114.678	-69.908	-106.853	-159.961	-10.709	136.729	-161.204	-155.707	-27.013	-18.356	-157.940	-153.366	-151.735	-147.088	-25.745	-149.835	-8191	255	
26103.133	1	1	0	0	0.13493	0.27288	0.089964	0.11112	0.13752	0.20576	0.15143	0.34653	0.15084	0.1214	0.16746	0.02789	0.24132	0.071262	0.057126	0.23962	-4.2812	-4.4688	-4.0938	-4.8792	-4.275	-4.3812	-4.7979	-4.0521	-4.5729	-4.6396	-4.3187	-4.7812	-4.5104	-4.5687	-4.7896	-4.4604	-164.467	55.064	67.199	-130.188	-83.558	-32.379	165.169	115.508	80.171	81.410	161.143	-52.444	159.065	118.267	118.844	157.145	0.00092766	0.00061534	9.709e-05	749.8	4.2018e-06	8.8016e-05	744.79	299.14	3.3106e-06	6.349e-06	344.7	146.35	124.31	58.613	4.5737e-06	75.674	0.01378	0.0013268	0.00043427	789.01	1.2331e-05	0.00030132	785.2	317.66	1.6258e-05	1.4889e-05	389.93	156.47	132.88	62.71	1.3689e-05	80.956	-14.910	-89.122	-82.918	-160.183	-16.190	143.497	-161.052	-155.716	-18.185	-22.448	-157.446	-153.967	-151.549	-147.088	-21.357	-149.850	-8191	255	
26103.229	1	1	0	0	0.11098	0.10062	0.13162	0.24972	0.26873	0.1316	0.21635	0.18462	0.078509	0.16104	0.14124	0.14552	0.040882	0.2245	0.19162	0.36154	-4.2125	-4.4708	-4.2021	-4.8417	-4.3896	-4.2312	-4.9437	-4.3479	-4.3104	-4.525	-4.2667	-4.6625	-4.3896	-4.3688	-4.8229	-4.2021	147.595	-11.628	-8.133	-132.357	-107.538	-121.042	98.355	99.189	52.675	-129.405	54.041	-13.838	53.510	166.225	148.490	114.413	0.00065	0.00068814	0.00018647	750.67	4.9566e-06	0.00011212	746.32	300.29	4.7473e-06	6.3759e-06	343.86	146.68	123.82	58.492	4.4455e-06	75.968	0.010289	0.0013402	0.00040537	791.07	1.2786e-05	0.0004082	786.28	318.3	1.5424e-05	1.4872e-05	367.32	163	132.66	62.67	1.4153e-05	81.193	-27.761	-85.090	-88.825	-160.042	-19.988	151.726	-161.463	-155.559	-22.823	-20.836	-157.336	-153.762	-151.769	-147.206	-45.733	-149.533	-8191	255	
26103.324	1	1	0	0	0.15692	0.071582	0.12988	0.3259	0.30866	0.078899	0.23339	0.22215	0.0438	0.1004	0.058556	0.19312	0.19241	0.15916	0.029627	0.17856	-4.2771	-4.6021	-4.0833	-4.775	-4.6625	-4.2521	-4.8375	-4.6354	-4.5188	-4.7312	-4.2229	-4.8417	-4.675	-4.2167	-4.7479	-4.575	134.990	72.803	-139.636	160.513	132.301	151.112	-53.137	182.838	-33.290	-120.637	10.335	161.029	184.631	168.586	-12.043	128.639	0.00073819	0.00055925	0.00017164	752.45	3.9216e-06	8.4946e-05	749.18	300.42	3.8548e-06	6.8737e-06	343.7	148.94	124.3	58.727	4.3188e-06	76.246	0.013837	0.0013164	0.00036231	792.9	1.2673e-05	0.00030346	789.73	318.99	1.6279e-05	1.4621e-05	364.29	170.8	133.1	62.866	1.3597e-05	81.462	-3.272	-76.698	-81.118	-160.000	-36.953	159.118	-161.205	-155.516	-3.075	-28.166	-157.573	-153.724	-151.457	-147.298	-43.129	-149.804	-8191	255	
26103.422	1	1	0	0	0.056338	0.173	0.32169	0.09127	0.083308	0.019797	0.2609	0.18778	0.21983	0.082043	0.14684	0.2584	0.098693	0.14301	0.116	0.1648	-3.9833	-4.7833	-4.1729	-4.5875	-4.3625	-3.9292	-4.8313	-4.4542	-4.4	-4.7583	-4.2312	-4.5521	-4.6438	-4.1813	-4.7208	-4.5104	148.437	-143.950	-71.892	137.272	44.920	15.888	91.940	148.927	5.623	-9.166	-150.447	129.740	112.573	144.412	95.426	112.707	0.00048091	0.0004944	0.00014589	753.45	6.9549e-06	6.9642e-05	748.13	300.21	3.5164e-06	5.9119e-06	341.63	147.75	124.63	58.478	5.7027e-06	75.933	0.010355	0.0013176	0.00035733	794.67	1.2442e-05	0.0003113	795.32	318.91	1.5262e-05	1.503e-05	362.95	166.24	133.04	62.696	1.5493e-05	81.104	-18.389	-87.060	-81.494	-160.046	-32.321	82.238	-162.118	-155.665	-30.775	-7.152	-157.557	-153.706	-151.764	-147.273	-49.948	-149.727	-8191	255	
26103.543	1	1	0	0	0.21418	0.20903	0.27752	0.33274	0.17709	0.099124	0.26716	0.17872	0.034052	0.068229	0.060944	0.17167	0.14318	0.22775	0.18407	0.3163	-4.0167	-4.7646	-4.3104	-4.7438	-4.7646	-3.9646	-4.8167	-4.5062	-4.1646	-4.7604	-4.2688	-4.5833	-4.7667	-4.3938	-4.6188	-4.65	-65.944	-37.447	-147.127	125.752	-53.662	63.888	87.503	160.112	-129.062	22.499	171.955	162.875	70.956	155.598	123.221	97.140	0.00063008	0.00045418	0.00019114	750.68	4.213e-06	4.8112e-05	747.5	299.37	4.7254e-06	5.1623e-06	340.36	147.64	123.19	58.138	4.9973e-06	75.514	0.013844	0.0013318	0.00036311	791.72	1.2375e-05	5.1991e-05	822.51	317.89	1.5583e-05	1.4907e-05	361.26	169.32	132.21	62.379	1.6659e-05	80.71	16.823	-84.966	-83.732	-160.032	-21.658	78.809	-161.829	-155.559	-20.719	-28.288	-157.601	-153.526	-151.529	-147.064	-51.127	-149.705	-8191	255	
26103.639	1	1	0	0	0.0697	0.077171	0.11032	0.39143	0.16849	0.067992	0.10021	0.10803	0.15901	0.17552	0.15171	0.31132	0.15326	0.11719	0.18611	0.25112	-3.875	-4.7937	-4.1958	-4.3812	-4.6958	-4.1583	-4.7708	-4.6458	-4.1646	-4.8396	-4.1604	-4.3792	-4.9417	-4.2688	-4.5125	-4.7521	152.359	-172.769	-40.502	177.983	127.580	7.770	116.870	175.165	-77.989	114.093	84.024	60.238	-102.639	-162.780	-108.523	100.385	0.00036647	0.00053881	0.00015918	748.48	5.4793e-06	6.2309e-06	742.39	299.16	4.1213e-06	6.2208e-06	340.71	147.37	123.72	58.363	5.5682e-06	75.72	0.010322	0.0013406	0.00037042	790.8	1.222e-05	1.4605e-05	856.04	317.53	1.4604e-05	1.4855e-05	361.17	165.85	132.35	62.492	1.8027e-05	80.874	-7.865	-64.806	-75.760	-160.080	-22.015	-31.562	-161.976	-155.731	-26.440	-18.653	-157.518	-153.288	-151.596	-147.187	-34.208	-149.765	-8191	255	
26103.732	1	1	0	0	0.23376	0.086131	0.09681	0.16439	0.016989	0.063578	0.14703	0.10547	0.17556	0.16167	0.13647	0.20086	0.083414	0.1536	0.092695	0.26081	-3.8063	-4.7896	-4.3396	-4.3271	-4.8979	-4.2542	-4.5604	-4.7812	-4.1542	-4.7604	-4.4958	-4.1958	-4.9542	-4.3125	-4.3812	-4.7438	87.694	-155.639	141.443	86.980	11.858	46.769	-8.120	127.190	75.950	177.435	177.837	-136.654	-68.360	-141.047	108.586	113.434	0.00085002	0.0045994	0.00013993	751.39	4.1264e-06	4.8696e-06	743.43	300.8	4.2347e-06	5.1888e-06	342.14	149.23	124.15	58.621	6.341e-06	75.956	0.010096	0.0059728	0.00037831	792.65	1.2219e-05	1.4665e-05	838.4	318.84	1.3445e-05	1.6573e-05	363.24	170.47	132.93	62.765	1.6665e-05	81.255	5.476	91.700	-71.600	-160.107	-30.235	-1.225	-161.927	-155.714	-11.573	-27.361	-157.577	-153.274	-151.697	-147.224	-36.249	-149.773	-8191	255	
26103.828	1	1	0	0	0.086412	0.14902	0.087046	0.13416	0.19285	0.050603	0.22762	0.17987	0.074646	0.23196	0.053512	0.1604	0.17948	0.17839	0.10069	0.12418	-3.8583	-4.5854	-4.3125	-4.3479	-4.7958	-4.2958	-4.525	-4.6604	-4.1333	-4.8	-4.6042	-4.0958	-5.0792	-4.3375	-4.3083	-4.8271	-104.181	59.276	-37.138	144.693	-112.328	-6.750	149.878	96.331	-71.503	7.555	-148.550	103.296	-163.347	-156.687	7.146	148.673	0.00052202	0.0040462	0.00015382	754.51	5.3438e-06	5.8725e-06	749.81	301.09	5.6593e-06	5.475e-06	343.4	148.2	125.28	58.869	6.7842e-06	76.443	0.0018034	0.020353	0.00037552	795.95	1.2632e-05	1.5266e-05	862.11	319.74	1.2678e-05	1.7665e-05	364.09	167.01	133.83	62.978	1.8148e-05	81.613	-5.717	106.343	-86.556	-160.106	-19.737	-23.069	-162.123	-155.467	-25.081	-17.354	-157.530	-153.113	-151.781	-147.158	-58.367	-149.854	-8191	255	
26103.926	1	1	0	0	0.13199	0.074201	0.1528	0.026386	0.14697	0.27783	0.06549	0.34585	0.075408	0.048283	0.037655	0.16629	0.014672	0.34761	0.15131	0.19233	-3.8479	-4.7021	-4.3938	-4.4187	-4.6562	-4.2958	-4.4771	-4.8812	-4.0792	-4.5312	-4.575	-4.1646	-4.6333	-4.4688	-4.2604	-4.7708	97.679	103.775	-111.396	129.088	-42.967	153.977	40.407	163.152	79.564	-72.912	-26.256	26.211	-38.536	150.804	-35.457	99.619	0.00070954	0.010706	0.00015527	755.25	3.1286e-06	6.0598e-06	749.55	300.73	4.4868e-06	5.4174e-06	343.15	148.52	125.12	58.601	3.2612e-06	75.782	0.00099368	0.035525	0.00036981	796.86	1.2374e-05	1.5383e-05	841.89	320.08	1.2548e-05	1.9151e-05	364.01	166.02	136.19	62.89	1.6553e-05	81.239	-107.401	10.204	-81.433	-160.176	-0.259	-28.040	-161.860	-155.871	-36.672	-16.900	-157.459	-152.920	-152.204	-147.214	-46.702	-149.676	-8191	255	
26104.021	1	1	0	0	0.094523	0.1496	0.21525	0.32245	0.267	0.11559	0.14078	0.33619	0.31107	0.12535	0.27466	0.098375	0.31449	0.18945	0.16461	0.07945	-3.8625	-4.5521	-4.5667	-4.2875	-4.6875	-4.4437	-4.5188	-4.9292	-4.35	-4.3917	-4.725	-4.2312	-4.6708	-4.5167	-4.0771	-4.8146	-32.552	0.302	-22.317	124.040	29.031	-9.346	170.573	135.081	133.922	117.464	108.516	133.834	-119.309	170.437	173.258	21.891	0.00067745	0.007835	0.00015753	754.17	7.1219e-06	3.3108e-06	748.14	301.1	4.0057e-06	7.2707e-06	341.15	146.85	125.23	58.581	5.9109e-06	75.758	0.00099514	0.026231	0.0003729	795.44	1.4058e-05	1.5045e-05	858.71	319.76	1.2444e-05	1.778e-05	362.25	156.28	142.22	62.795	1.6644e-05	81.12	-106.659	21.108	-79.824	-160.063	-23.817	-33.358	-162.009	-155.780	-27.716	-11.261	-157.622	-152.775	-151.748	-147.092	-39.255	-149.630	-8191	255	
26104.143	1	1	0	0	0.052844	0.066221	0.055928	0.16844	0.076749	0.095396	0.031588	0.22268	0.20481	0.28473	0.17787	0.24935	0.066617	0.23808	0.24946	0.21503	-3.7708	-4.2354	-4.7688	-4.2292	-4.4187	-4.3646	-4.1542	-4.8	-4.3604	-4.2771	-4.85	-4.2396	-4.7333	-4.6125	-4.1604	-4.8292	115.291	186.062	-107.724	-95.683	76.342	82.068	39.249	155.081	137.693	-6.519	-167.925	83.776	79.482	104.924	172.965	68.103	0.00068301	0.010877	0.00016732	753.47	5.5163e-06	3.7146e-06	751.75	301.77	5.4513e-06	3.7714e-06	341.15	145.85	127.16	58.52	4.3485e-06	75.739	0.00099547	0.035455	0.00035653	793.96	1.4695e-05	1.5347e-05	839.85	320.33	1.2752e-05	1.9127e-05	362.45	156.15	148.66	62.825	1.5609e-05	81.12	-106.815	27.549	-77.611	-159.938	-26.216	-26.780	-161.724	-155.690	-35.477	0.724	-157.515	-153.238	-151.347	-147.320	-28.716	-149.788	-8191	255	
26104.238	1	1	0	0	0.15084	0.083275	0.15078	0.17198	0.043292	0.23058	0.21812	0.12798	0.19206	0.080831	0.26858	0.057983	0.12883	0.29918	0.11891	0.12837	-4.0229	-4.2021	-4.8187	-4.2521	-4.5062	-4.675	-4.1875	-4.7146	-4.2688	-4.1896	-4.9083	-4.2979	-4.5125	-4.7375	-4.1583	-4.975	-134.612	108.662	-51.759	152.938	-83.000	18.881	-156.717	68.459	-103.264	86.919	161.822	129.924	-64.672	150.240	112.971	123.350	0.00068798	0.0085673	0.00016219	755.53	6.0193e-06	5.2222e-06	746.44	303.48	5.9253e-06	4.7182e-06	341.78	146.69	126.64	58.987	4.2146e-06	76.071	0.00099824	0.026476	0.00035024	794.92	1.572e-05	1.4322e-05	832.99	325.61	1.2869e-05	1.7358e-05	364.02	156.57	144.81	63.141	1.4421e-05	81.489	-107.309	26.012	-79.999	-160.073	-16.695	-29.682	-161.007	-156.442	-29.159	-10.031	-157.502	-153.210	-151.369	-147.160	-27.928	-149.838	-8191	255	
26104.334	1	1	0	0	0.068121	0.19653	0.1945	0.42695	0.12746	0.076555	0.20484	0.21672	0.12561	0.042474	0.12523	0.2162	0.18012	0.23418	0.15957	0.098933	-3.9062	-4.1125	-4.7208	-4.4729	-4.4771	-4.7	-4.3313	-4.9437	-4.5604	-4.3229	-4.8	-4.2979	-4.5208	-4.7979	-4.0042	-4.7396	150.767	26.778	45.760	165.865	-93.259	-42.009	-6.912	63.448	97.845	94.004	128.319	152.085	142.234	121.408	15.211	171.734	0.0006882	0.0109	0.00012587	755.07	4.1416e-06	6.6281e-06	749.25	303.5	5.7157e-06	5.1343e-06	343.47	146.9	127.51	59.03	5.3888e-06	76.324	0.00098677	0.03548	0.00036252	796.13	1.5224e-05	1.4251e-05	791.47	335.2	1.3225e-05	1.7761e-05	364.75	156.95	149.44	63.134	1.3949e-05	81.711	-107.837	36.411	-81.270	-160.057	-12.199	-29.143	-161.146	-155.987	-27.873	2.492	-157.537	-153.179	-150.976	-147.297	-23.907	-149.891	-8191	255	
26104.430	1	1	0	0	0.10559	0.26213	0.14974	0.040852	0.048282	0.16392	0.16764	0.1929	0.32679	0.16919	0.29835	0.13254	0.31616	0.011233	0.15609	0.11635	-4.1937	-4.1062	-4.7333	-4.4021	-4.2979	-4.7854	-4.1417	-4.6958	-4.575	-3.9938	-4.7854	-4.4771	-4.3313	-4.9437	-4.1042	-4.5021	176.706	-108.483	104.753	-62.361	100.052	50.355	133.975	127.491	-110.781	-166.633	134.118	137.126	-161.421	91.756	-74.499	88.238	0.0006885	0.0079176	8.4445e-05	755.94	4.7644e-06	6.4189e-06	751.81	304.46	3.776e-06	4.4545e-06	343.89	146.31	126.62	58.923	5.6458e-06	76.03	0.00098422	0.026417	0.00036789	798.16	1.6106e-05	1.4127e-05	793.42	343.87	1.251e-05	1.6461e-05	364.57	156.75	144.82	62.908	1.4196e-05	81.338	-105.795	43.789	-58.202	-160.079	-1.625	-32.811	-161.180	-156.269	-18.074	-9.148	-157.576	-153.065	-151.174	-147.211	-26.859	-149.656	-8191	255	
26104.527	1	1	0	0	0.08089	0.38367	0.068688	0.26546	0.25604	0.1202	0.10972	0.15481	0.12346	0.041501	0.2408	0.18767	0.18051	0.38119	0.035194	0.13941	-4.325	-4.3125	-4.6813	-4.4521	-4.2063	-4.7479	-4.4229	-4.6583	-4.4708	-4.1208	-4.6875	-4.5271	-4.1917	-4.7438	-4.1792	-4.5312	-14.180	-149.285	-27.312	101.637	161.632	-111.206	22.447	105.072	-26.958	166.435	6.874	175.732	134.241	137.342	4.880	78.921	0.00068402	0.010639	0.0024421	755.44	4.6115e-06	6.4649e-06	747.02	303.15	3.6578e-06	7.2549e-06	342.78	145.92	126.71	58.703	4.5951e-06	75.647	0.00098403	0.021221	0.0029819	795.32	1.413e-05	1.4995e-05	788.67	336.88	1.2507e-05	1.5064e-05	363.4	155.79	148.51	62.755	1.4402e-05	81.067	-107.949	-1.815	120.416	-160.260	-22.538	-10.756	-161.181	-156.385	-10.945	-21.960	-157.576	-153.289	-150.832	-147.384	-41.384	-149.555	-8191	255	
26104.621	1	1	0	0	0.13586	0.11634	0.032611	0.22865	0.18133	0.05574	0.20229	0.17761	0.088333	0.069747	0.19043	0.26154	0.085961	0.20864	0.17003	0.1038	-4.3229	-4.0604	-4.5917	-4.6792	-3.9667	-4.7375	-4.3938	-4.5396	-4.7271	-4.2292	-4.7958	-4.5979	-4.15	-4.7688	-4.2167	-4.4583	-31.602	-74.042	-35.286	181.881	32.450	2.217	1.160	140.369	-155.382	-24.795	161.510	140.780	-125.231	-171.362	96.991	130.484	0.00066496	0.00057526	0.0018559	754.25	5.7804e-06	6.5934e-06	747.26	304.99	5.2526e-06	4.9584e-06	341.75	144.94	125.31	58.847	6.0454e-06	75.943	0.00096431	0.0013127	0.0066696	793.5	1.4823e-05	1.5071e-05	788.01	342.22	1.1917e-05	1.4547e-05	362.74	155.65	144.12	62.809	1.4736e-05	81.251	-106.522	-87.497	122.824	-160.060	-10.259	-28.265	-160.950	-156.219	-24.097	-18.741	-157.466	-153.188	-151.055	-147.189	-41.944	-149.744	-8191	255	
26104.717	1	1	0	0	0.13005	0.050727	0.10296	0.1404	0.21825	0.1097	0.23951	0.16838	0.068557	0.047508	0.046482	0.20103	0.13757	0.048952	0.091572	0.19561	-4.5667	-4.0167	-4.5167	-4.6479	-3.8604	-4.6625	-4.5354	-4.3125	-4.7333	-4.0583	-4.6375	-4.6958	-4.2979	-4.9479	-4.5312	-4.3917	52.436	-85.435	-40.371	116.159	128.536	-160.008	153.579	145.369	-19.969	-98.833	77.371	146.282	-78.095	-147.241	-34.602	157.739	0.00068484	0.00080058	0.0029679	753.05	4.5577e-06	5.9985e-06	751.22	303.27	4.669e-06	6.4071e-06	342.15	146.78	126.62	58.951	5.3005e-06	76.415	0.00096441	0.0013346	0.010128	792.81	1.3555e-05	1.5516e-05	788.92	336.49	1.249e-05	1.4649e-05	363.44	156.36	141.57	64.271	1.4505e-05	81.607	-107.514	-79.022	73.905	-160.205	10.042	-29.107	-161.265	-155.930	-46.216	-22.228	-157.403	-153.011	-150.805	-147.408	-31.734	-149.806	-8191	255	
26104.812	1	1	0	0	0.1031	0.15743	0.33296	0.18279	0.22931	0.13684	0.26172	0.1504	0.094856	0.055693	0.34349	0.10356	0.16774	0.25877	0.089383	0.15294	-4.3875	-4.2479	-4.5146	-4.7417	-4.0271	-4.6375	-4.5563	-4.35	-4.7562	-4.2792	-4.475	-4.625	-4.3313	-4.6396	-4.5813	-4.4688	-27.868	0.499	-55.452	-105.081	136.685	-79.298	-150.808	121.041	-170.609	-64.193	145.160	143.962	172.227	165.384	-84.105	157.268	0.00070122	0.0004632	0.0023648	752.15	3.9196e-06	4.1147e-06	750.79	305.43	5.9233e-06	5.509e-06	343.86	147.16	124.77	59.188	4.4733e-06	76.733	0.00099697	0.0013416	0.0075198	793.04	1.2868e-05	1.8209e-05	792.15	343.27	1.3121e-05	1.5045e-05	364.76	157.4	133.75	65.959	1.4332e-05	82.127	-106.548	-76.743	73.499	-160.182	-5.439	-39.283	-161.185	-156.067	-33.589	-24.427	-157.402	-152.796	-151.721	-147.187	-29.204	-149.554	-8191	255	
26104.908	1	1	0	0	0.20146	0.12033	0.23573	0.19695	0.099816	0.071483	0.21203	0.192	0.078429	0.10459	0.14219	0.2232	0.23032	0.16584	0.19879	0.14566	-4.7042	-4.3396	-4.4313	-4.9021	-4.0083	-4.6375	-4.7708	-4.1562	-4.6813	-4.4	-4.5417	-4.9708	-4.2604	-4.5854	-4.6208	-4.2167	110.656	62.113	67.233	83.143	-122.914	-87.858	139.972	107.256	151.698	-169.191	137.612	-141.656	131.205	112.837	169.252	96.546	0.00067709	0.00052969	0.002994	754.24	4.3993e-06	5.6042e-06	753.76	304.97	5.1555e-06	5.6537e-06	346.48	147.58	125.42	59.454	5.7231e-06	76.744	0.0010018	0.0013681	0.010184	795.89	1.2438e-05	1.8467e-05	794.56	337.42	1.3227e-05	1.5165e-05	366.32	157.66	133.87	67.467	1.3885e-05	81.973	-106.249	-92.352	85.676	-160.058	-25.411	-20.541	-161.256	-155.753	-37.665	-22.615	-157.386	-153.270	-151.648	-146.636	-37.207	-149.571	-8191	255	
26105.029	1	1	0	0	0.031496	0.20657	0.059004	0.18931	0.1532	0.17762	0.082126	0.090194	0.11152	0.040112	0.19313	0.11177	0.24854	0.27583	0.13476	0.33307	-4.575	-4.4917	-4.3604	-4.8	-4.1208	-4.5312	-4.6583	-4.2542	-4.5875	-4.5958	-4.2271	-4.9	-4.2729	-4.5792	-4.5312	-4.2562	-40.295	-140.161	171.716	-124.923	44.403	28.217	163.984	138.860	152.819	-29.088	-84.484	61.491	130.547	147.321	62.218	140.477	0.00069873	0.0006436	0.002071	752.48	4.8938e-06	6.7499e-06	747.79	303.3	7.3132e-05	7.0865e-06	343.13	146.87	125.56	59.459	4.5148e-06	76.635	0.0010124	0.0013345	0.0074708	793.39	1.2805e-05	1.9286e-05	790.24	331.7	0.00012468	1.4956e-05	364.53	157.07	133.9	66.434	1.3391e-05	81.929	-107.111	-80.615	95.021	-160.169	-42.069	-19.617	-161.433	-155.520	-86.492	-15.621	-157.602	-153.045	-151.397	-146.554	-48.965	-149.688	-8191	255	
26105.102	1	1	0	0	0.24793	0.32292	0.17123	0.13096	0.15055	0.19084	0.090379	0.12578	0.16574	0.16341	0.21964	0.22964	0.061469	0.096777	0.083482	0.15961	-4.3521	-4.4229	-4.2229	-4.7625	-4.2875	-4.5354	-4.8	-4.3729	-4.4708	-4.5458	-4.4833	-4.8708	-4.35	-4.6354	-4.5938	-4.2167	-45.576	160.122	-84.714	-108.977	-92.505	148.343	37.656	118.189	0.062	79.170	186.148	-159.995	-130.430	117.508	86.757	111.801	0.00070704	0.00054293	0.0028411	751.4	4.9777e-06	7.2854e-06	749.11	302.49	5.4114e-05	5.3305e-06	343.49	147.93	125.67	59.541	4.1505e-06	76.677	0.0011011	0.0013174	0.010065	793.41	1.2604e-05	1.7812e-05	790.09	320.61	0.00023574	1.5056e-05	364.59	157.86	134.28	67.543	1.308e-05	82.047	-108.129	-85.630	97.124	-160.038	-18.372	10.683	-161.316	-155.729	-87.570	-15.263	-157.482	-153.259	-151.418	-146.633	-32.173	-149.762	-8191	255	
26105.223	1	1	0	0	0.31044	0.15719	0.12048	0.16145	0.20992	0.10243	0.17292	0.15239	0.11395	0.20327	0.16931	0.13457	0.32016	0.089688	0.020205	0.25286	-4.3354	-4.525	-4.1667	-4.825	-4.3146	-4.2812	-4.9521	-4.2292	-4.4292	-4.5917	-4.0938	-4.9458	-4.4167	-4.5104	-4.7458	-4.2458	-103.384	-67.816	-14.771	136.344	175.235	-150.930	67.665	133.819	-70.770	-149.071	-106.695	115.606	172.352	139.126	141.652	116.514	0.00072172	0.00049768	0.0020761	753.54	4.9296e-06	5.8556e-06	749.37	303.65	8.5971e-05	4.3994e-06	346.04	148.46	125.71	59.646	5.973e-06	76.538	0.0011037	0.0012784	0.0074974	795.24	1.2396e-05	1.9191e-05	792.02	321.67	0.00032406	1.4162e-05	366.13	158.25	134.29	66.614	1.371e-05	82.197	-105.295	-97.552	104.463	-159.984	-13.203	-5.276	-161.307	-155.627	-53.279	-15.793	-157.372	-153.105	-151.787	-146.727	-55.093	-149.779	-8191	255	
26105.318	1	1	0	0	0.18208	0.24252	0.089066	0.048337	0.25018	0.071393	0.2167	0.24088	0.1186	0.048724	0.0705	0.16376	0.22186	0.13615	0.021285	0.1978	-4.0917	-4.6438	-4.1396	-4.7729	-4.4958	-4.2812	-4.8125	-4.3646	-4.6188	-4.6375	-4.2792	-4.8729	-4.5188	-4.4042	-4.7458	-4.4417	132.091	-4.493	-29.004	117.987	-59.916	84.224	21.928	-5.528	-105.944	28.575	-130.729	151.414	164.136	-171.389	67.659	138.484	0.00068891	0.00052037	0.0016671	753.28	4.4132e-06	5.3369e-06	753.71	303.59	6.3072e-05	4.6352e-06	346.28	148.59	126.54	59.745	5.1442e-06	77.558	0.0011371	0.0012332	0.0047254	824.55	1.2432e-05	1.6697e-05	796.15	322.82	0.00024041	1.3698e-05	367.42	158.99	135.17	67.932	1.4451e-05	82.817	-104.905	-83.690	24.782	-160.857	-21.492	-37.390	-161.143	-155.525	-50.570	-39.417	-157.512	-153.070	-151.592	-146.338	-19.794	-149.734	-8191	255	
26105.414	1	1	0	0	0.018144	0.12437	0.10275	0.065312	0.12846	0.12063	0.25207	0.18375	0.10713	0.16718	0.046646	0.19795	0.14149	0.20431	0.17437	0.23772	-4.0188	-4.7083	-4.1729	-4.6875	-4.5292	-4.3021	-4.9833	-4.5188	-4.3021	-4.6729	-4.1771	-4.8458	-4.6229	-4.2812	-4.7708	-4.3896	117.730	-103.020	39.586	65.178	-80.343	172.496	-171.378	87.108	176.150	-131.420	-140.757	-122.305	15.880	110.657	-68.902	162.442	0.00070368	0.00056602	0.00013311	753.66	4.4129e-06	4.5473e-06	756.11	304.13	8.4062e-05	5.2219e-06	346.85	148.56	126.42	59.486	4.9749e-06	76.911	0.0011014	0.0012709	0.00036184	848.25	1.1977e-05	1.7898e-05	798.36	323.25	0.00032361	1.4344e-05	367.98	158.74	134.88	66.622	1.5055e-05	82.428	-104.937	-88.921	-74.651	-160.578	-43.178	-8.972	-161.118	-155.426	-39.559	-32.795	-157.568	-153.439	-151.641	-146.770	-26.603	-150.008	-8191	255	
26105.512	1	1	0	0	0.19331	0.20345	0.088357	0.29624	0.21761	0.088203	0.19361	0.24437	0.39627	0.16628	0.11622	0.2115	0.26719	0.10296	0.13143	0.39181	-3.9437	-4.7479	-4.175	-4.5979	-4.6292	-4.2458	-4.8521	-4.6354	-4.4104	-4.9479	-4.3521	-4.6687	-4.7375	-4.1375	-4.7021	-4.6937	-109.243	-138.403	74.080	115.460	-81.456	-154.638	115.189	147.154	106.090	16.487	17.643	130.030	112.732	-12.384	136.962	139.268	0.000669	0.00065366	0.0001842	749.01	4.5634e-06	5.8318e-06	749.78	303.64	6.1267e-05	5.1672e-06	345.37	148.04	126.24	59.722	4.4994e-05	76.432	0.0011189	0.001269	0.00036481	863.78	1.1882e-05	1.6465e-05	792.46	321.93	0.00023835	1.4619e-05	365.73	158.3	134.8	65.159	0.00016672	81.97	-104.215	-76.593	-84.479	-160.690	-10.913	-23.613	-161.257	-155.587	-26.924	-35.804	-157.639	-153.066	-151.507	-146.589	168.582	-149.721	-8191	255	
26105.631	1	1	0	0	0.20697	0.28919	0.1038	0.11097	0.17579	0.23826	0.10123	0.31942	0.23612	0.14783	0.13169	0.050178	0.15078	0.12329	0.30791	0.13634	-3.9354	-4.8479	-4.2917	-4.6104	-4.7396	-4.2083	-4.6771	-4.6917	-4.1312	-4.8021	-4.4333	-4.3479	-4.9604	-4.2	-4.7375	-4.6521	100.422	165.821	28.501	155.710	110.336	5.959	63.750	147.242	-159.407	-26.435	81.558	-21.078	-77.996	-122.143	-35.253	128.323	0.00069068	0.00061659	0.00011407	752.21	4.2296e-06	3.1665e-06	752.08	303.63	8.8744e-05	7.8247e-06	343.57	147.97	125.7	59.373	8.721e-05	76.664	0.0010704	0.001326	0.0003676	845.52	1.1725e-05	1.5161e-05	793.21	322.07	0.00032074	1.5222e-05	365.09	158.05	134.52	63.641	0.00026381	82.101	-106.202	-78.908	-77.109	-160.628	-22.828	-16.615	-161.116	-155.676	-28.598	-14.052	-157.616	-153.217	-151.523	-147.181	76.610	-149.548	-8191	255	
26105.703	1	1	0	0	0.012322	0.064217	0.13336	0.22336	0.063333	0.10687	0.069583	0.19519	0.12756	0.133	0.2976	0.21955	0.18942	0.14627	0.17838	0.16372	-4.0667	-4.6625	-4.125	-4.5083	-4.8125	-4.1875	-4.8729	-4.6875	-4.2083	-4.7875	-4.4708	-4.4583	-5.0667	-4.1521	-4.5	-4.5521	17.929	158.913	97.656	105.288	-163.794	126.183	129.396	117.160	-157.469	14.017	92.043	-168.141	104.743	159.064	185.799	107.025	0.00066978	0.00043055	0.00015622	752.25	6.1053e-06	3.3567e-06	752.29	304.16	5.0132e-05	6.4993e-06	346.34	147.41	126.14	59.355	0.00010657	76.792	0.0010684	0.001362	0.00037882	863.96	1.1799e-05	1.5003e-05	794.22	322.78	0.00023291	1.5423e-05	366.83	158.23	134.81	63.62	0.00035669	82.175	-104.553	-90.288	-71.482	-161.027	-25.106	-19.384	-160.820	-155.798	6.576	-41.962	-157.574	-153.269	-151.857	-147.303	84.849	-149.781	-8191	255	
26105.822	1	1	0	0	0.19982	0.17531	0.078693	0.036437	0.096373	0.15093	0.084616	0.081947	0.06385	0.10205	0.19166	0.036576	0.12652	0.19011	0.17036	0.17872	-3.9021	-4.4771	-4.5042	-4.4083	-4.6292	-4.1458	-4.4021	-4.7937	-4.1417	-4.65	-4.3208	-4.2292	-4.9979	-4.3458	-4.3104	-4.9021	-126.741	33.176	-107.087	164.068	-133.657	16.185	-144.998	139.701	95.716	132.070	-125.909	116.455	59.174	118.254	150.885	139.213	0.00070975	0.00049894	0.000154	757.99	4.3209e-06	6.0259e-06	753.09	303.99	6.8709e-05	7.7312e-05	345.72	149.09	125.77	59.648	8.0557e-05	77.371	0.0010555	0.0014317	0.00038047	848.42	1.2543e-05	1.5547e-05	796.76	323.16	0.00012285	0.00020936	367.02	158.94	134.99	63.9	0.00026392	82.577	-105.744	-77.942	-86.630	-160.584	-14.446	-26.471	-161.125	-155.672	9.481	-82.877	-157.390	-152.972	-151.678	-147.298	93.951	-149.734	-8191	255	
26105.918	1	1	0	0	0.13559	0.042243	0.10474	0.012309	0.22344	0.15163	0.092527	0.13228	0.013522	0.14813	0.25187	0.090085	0.071177	0.094015	0.11311	0.057073	-3.7646	-4.6375	-4.4625	-4.3396	-4.7542	-4.1625	-4.6	-4.8396	-4.0521	-4.7917	-4.7604	-4.3438	-4.7646	-4.2667	-4.4292	-4.9625	-75.298	-27.609	-32.318	151.958	4.296	98.593	-34.880	116.413	21.811	-133.991	-81.452	155.136	143.627	149.661	-168.498	181.794	0.00067372	0.00058274	0.00014805	757.48	4.0271e-06	4.2759e-06	754.4	305.04	3.9019e-06	0.00010387	344.98	148.46	125.71	59.539	0.00010478	76.697	0.0010152	0.0016605	0.0003574	866.41	1.3172e-05	1.491e-05	797.93	323.43	1.3128e-05	0.00030396	366.59	158.5	134.85	63.715	0.00035462	82.095	-105.556	-86.689	-81.233	-160.806	-27.955	-15.103	-161.328	-155.676	-30.359	-29.174	-157.646	-153.209	-151.649	-147.205	97.015	-149.577	-8191	255	
26106.014	1	1	0	0	0.23437	0.13603	0.041483	0.057877	0.18137	0.090039	0.15251	0.30207	0.19505	0.074417	0.29869	0.14194	0.28474	0.23838	0.056527	0.11719	-3.8625	-4.5667	-4.5479	-4.3333	-4.7562	-4.3271	-4.2417	-4.9542	-4.2292	-4.4958	-4.8625	-4.1687	-4.6562	-4.7	-4.3771	-5.0083	162.970	-25.516	139.963	-142.770	-27.653	-3.504	113.530	95.189	71.179	85.893	176.581	93.433	-168.119	179.125	-77.475	-153.824	0.00068427	0.00050611	0.0001448	758.3	2.3231e-06	6.2983e-06	749.62	304.02	4.8183e-06	0.00013804	344.38	147.35	125.69	59.353	7.25e-05	76.706	0.0010061	0.0016101	0.00035381	843.41	1.331e-05	1.4871e-05	792.82	322.51	1.3047e-05	0.00040764	364.82	157.73	134.58	63.585	0.00026269	81.958	-106.774	-79.321	-82.034	-159.991	-9.801	-34.003	-161.331	-155.837	-34.295	-21.593	-157.582	-153.358	-151.578	-147.306	102.869	-149.915	-8191	255	
26106.109	1	1	0	0	0.28687	0.096191	0.14591	0.21536	0.23749	0.12455	0.054746	0.079477	0.18055	0.071552	0.23728	0.089639	0.07672	0.22835	0.21483	0.13151	-3.8542	-4.6062	-4.6	-4.2604	-4.5479	-4.5188	-4.4521	-4.9417	-4.3042	-4.425	-4.8771	-4.1562	-4.8542	-4.55	-4.1708	-4.975	9.563	-45.749	-60.530	167.810	10.950	139.977	-142.227	62.966	-154.445	43.059	134.465	67.444	40.268	122.875	-108.321	90.794	0.00070414	0.00072257	0.00016227	756.18	0.0001067	5.7429e-06	753.19	303.23	3.783e-06	9.3857e-05	344.28	147.98	125.79	59.657	9.9181e-05	76.759	0.0010218	0.0016301	0.00034591	817.32	0.00018013	1.4525e-05	792.94	322.53	1.2887e-05	0.00030203	364.34	158.03	134.74	63.679	0.00035442	82.022	-106.321	-83.136	-69.708	-160.099	-116.813	-26.026	-161.135	-155.622	-21.357	-16.801	-157.489	-153.140	-151.660	-147.111	104.225	-149.657	-8191	255	
26106.230	1	1	0	0	0.048008	0.077166	0.11422	0.42873	0.20725	0.031826	0.21604	0.21824	0.19153	0.18732	0.15392	0.15261	0.24229	0.39232	0.032486	0.10331	-4.1542	-4.2771	-4.7271	-4.2917	-4.7125	-4.675	-4.375	-4.6354	-4.5	-4.3729	-4.8187	-4.2312	-4.6813	-4.7604	-4.1146	-5.0312	39.921	-82.951	-170.898	171.618	71.391	91.352	-134.465	93.567	67.509	0.822	107.360	135.938	-152.050	143.916	-27.795	-70.967	0.00068054	0.00052552	0.00019731	757.89	7.5486e-05	5.3797e-06	749.96	303.71	5.2516e-06	0.00014013	346.38	147.97	126.37	59.688	7.6662e-05	76.855	0.0010065	0.0015352	0.00035716	797.6	0.00023917	1.4328e-05	793.34	322.7	1.2844e-05	0.00040782	366.36	158.31	134.98	63.841	0.00023498	82.304	-107.838	-79.374	-78.565	-160.089	-108.572	-29.590	-161.084	-155.566	-31.630	-7.324	-157.561	-153.181	-151.527	-147.271	70.251	-149.733	-8191	255	
26106.326	1	1	0	0	0.11064	0.11347	0.13556	0.0594	0.20959	0.1783	0.17547	0.13805	0.095198	0.26158	0.087005	0.27089	0.11447	0.19585	0.15809	0.072641	-4.1042	-4.2792	-4.7271	-4.2688	-4.3688	-4.625	-4.175	-4.8271	-4.4688	-4.3021	-4.9229	-4.3771	-4.5021	-4.9021	-4.0521	-4.8771	-62.264	-164.265	-93.566	118.312	-46.744	119.017	101.615	42.409	11.257	92.987	-163.249	-166.974	-132.185	-162.153	28.328	78.964	0.00067233	0.00057596	0.00013377	759.74	9.8793e-05	5.9412e-06	754.83	303.85	4.7775e-06	9.7573e-05	347.64	148.32	126.56	59.567	0.00010233	77.164	0.00097559	0.001625	0.00036449	799.16	0.00032225	1.4104e-05	795.75	323.51	1.2506e-05	0.0003027	367.53	158.77	135.35	63.847	0.00010563	85.805	-106.575	-78.431	-97.087	-159.911	-102.423	-28.304	-161.075	-155.589	-10.066	-2.676	-157.411	-153.094	-151.446	-147.188	71.730	-150.129	-8191	255	
26106.398	1	1	0	0	0.08562	0.10202	0.16702	0.10493	0.25397	0.063528	0.01038	0.27617	0.17859	0.19444	0.1005	0.086618	0.27407	0.1465	0.006983	0.24259	-4.1958	-3.9562	-4.7875	-4.2958	-4.45	-4.7708	-4.0979	-4.6646	-4.6396	-4.2271	-4.7458	-4.4979	-4.525	-4.6479	-4.1937	-4.8083	46.477	-103.947	49.935	120.268	-13.095	184.564	-169.316	162.244	-6.924	165.737	165.359	150.507	153.397	-161.958	4.078	141.239	0.00068994	0.0005681	0.00016073	758.34	7.2922e-05	5.9213e-06	756.87	305.89	4.2358e-06	0.00013284	345.58	148.89	126.25	59.535	4.5866e-06	76.336	0.00098321	0.0015354	0.00039473	799.98	0.0002401	1.4211e-05	797.5	324.34	1.22e-05	0.00040531	367.26	158.64	135.17	63.836	1.4138e-05	86.297	-108.609	-84.348	-72.861	-159.981	-98.811	-29.311	-161.067	-155.697	-43.684	3.580	-157.746	-153.267	-151.691	-147.155	-34.012	-149.927	-8191	255	
26106.494	1	1	0	0	0.056156	0.15291	0.20309	0.01403	0.10755	0.1451	0.25392	0.13428	0.20571	0.1143	0.23568	0.17628	0.15052	0.23051	0.097914	0.17831	-4.4417	-4.0271	-4.7438	-4.3771	-4.2271	-4.7771	-4.1979	-4.7292	-4.65	-4.1521	-4.9104	-4.4563	-4.325	-4.8979	-4.0354	-4.775	-67.435	-27.440	-58.696	132.299	166.651	36.252	81.650	89.374	59.908	-79.761	74.310	102.434	-129.450	135.228	159.165	47.418	0.00070571	0.00054599	0.00014356	759.84	9.9823e-05	5.6936e-06	749.95	304.49	5.5092e-06	0.00010258	345.22	147.55	125.74	59.504	4.8841e-06	75.693	0.00097683	0.0015975	0.00040566	799.48	0.00032031	1.4634e-05	791.75	323.15	1.244e-05	0.00025526	366.06	157.59	134.74	63.621	1.4294e-05	87.417	-107.057	-88.741	-64.201	-159.891	-91.283	-29.664	-160.947	-155.586	-19.552	17.457	-157.587	-153.180	-151.715	-147.352	-58.692	-149.786	-8191	255	
#DATA ENDS
