BOXY.EXE: ISS Imagent and Oximeter Data Acquisition Program Version 0.80
Ascii Record File

#ACQ INFORMATION
2  Detector Channels 
16  External MUX Channels 
1  Auxiliary Channels 
5000  Waveform (CCF) Frequency (Hz)
1  Waveforms Skipped 
30  Waveforms Averaged 
1  Cycles Averaged 
16  Acquisitions per Waveform 
10.0806  Updata Rate (Hz) 

#FILE INFORMATION
TRUE -- External MUX Channel results are PARSED.
FALSE -- AC DC and Phase are NOT grouped.
TRUE -- Companion Program Settings File CREATED.
FALSE -- AC data not excluded
FALSE -- DC data not excluded
FALSE -- Phase data not excluded
FALSE -- Auxillary Chn. data not excluded
Tab delimiters

#CALIBRATION STATE
TRUE -- Waveform Calibration Values APPLIED.


#AUX CALIBRATION VALUES
Val Type	aux-1	

Term	1.0000e+00	
Factor	0.0000e+00	


#WF CALIBRATION VALUES
A = Detector Channel
Val Type	A-AC1	A-AC2	A-AC3	A-AC4	A-AC5	A-AC6	A-AC7	A-AC8	A-AC9	A-AC10	A-AC11	A-AC12	A-AC13	A-AC14	A-AC15	A-AC16	A-DC1	A-DC2	A-DC3	A-DC4	A-DC5	A-DC6	A-DC7	A-DC8	A-DC9	A-DC10	A-DC11	A-DC12	A-DC13	A-DC14	A-DC15	A-DC16	A-Ph1	A-Ph2	A-Ph3	A-Ph4	A-Ph5	A-Ph6	A-Ph7	A-Ph8	A-Ph9	A-Ph10	A-Ph11	A-Ph12	A-Ph13	A-Ph14	A-Ph15	A-Ph16	

Term	0.00000e+00	0.00000e+00	0.00000e+00	0.00000e+00	0.00000e+00	0.00000e+00	0.00000e+00	0.00000e+00	0.00000e+00	0.00000e+00	0.00000e+00	0.00000e+00	0.00000e+00	0.00000e+00	0.00000e+00	0.00000e+00	0.00000e+00	0.00000e+00	0.00000e+00	0.00000e+00	0.00000e+00	0.00000e+00	0.00000e+00	0.00000e+00	0.00000e+00	0.00000e+00	0.00000e+00	0.00000e+00	0.00000e+00	0.00000e+00	0.00000e+00	0.00000e+00	0.00000e+00	0.00000e+00	0.00000e+00	0.00000e+00	0.00000e+00	0.00000e+00	0.00000e+00	0.00000e+00	0.00000e+00	0.00000e+00	0.00000e+00	0.00000e+00	0.00000e+00	0.00000e+00	0.00000e+00	0.00000e+00	
Factor	1.00000e+00	1.00000e+00	1.00000e+00	1.00000e+00	1.00000e+00	1.00000e+00	1.00000e+00	1.00000e+00	1.00000e+00	1.00000e+00	1.00000e+00	1.00000e+00	1.00000e+00	1.00000e+00	1.00000e+00	1.00000e+00	1.00000e+00	1.00000e+00	1.00000e+00	1.00000e+00	1.00000e+00	1.00000e+00	1.00000e+00	1.00000e+00	1.00000e+00	1.00000e+00	1.00000e+00	1.00000e+00	1.00000e+00	1.00000e+00	1.00000e+00	1.00000e+00	X	X	X	X	X	X	X	X	X	X	X	X	X	X	X	X	

B = Detector Channel
Val Type	B-AC1	B-AC2	B-AC3	B-AC4	B-AC5	B-AC6	B-AC7	B-AC8	B-AC9	B-AC10	B-AC11	B-AC12	B-AC13	B-AC14	B-AC15	B-AC16	B-DC1	B-DC2	B-DC3	B-DC4	B-DC5	B-DC6	B-DC7	B-DC8	B-DC9	B-DC10	B-DC11	B-DC12	B-DC13	B-DC14	B-DC15	B-DC16	B-Ph1	B-Ph2	B-Ph3	B-Ph4	B-Ph5	B-Ph6	B-Ph7	B-Ph8	B-Ph9	B-Ph10	B-Ph11	B-Ph12	B-Ph13	B-Ph14	B-Ph15	B-Ph16	

Term	0.00000e+00	0.00000e+00	0.00000e+00	0.00000e+00	0.00000e+00	0.00000e+00	0.00000e+00	0.00000e+00	0.00000e+00	0.00000e+00	0.00000e+00	0.00000e+00	0.00000e+00	0.00000e+00	0.00000e+00	0.00000e+00	0.00000e+00	0.00000e+00	0.00000e+00	0.00000e+00	0.00000e+00	0.00000e+00	0.00000e+00	0.00000e+00	0.00000e+00	0.00000e+00	0.00000e+00	0.00000e+00	0.00000e+00	0.00000e+00	0.00000e+00	0.00000e+00	-2.04314e+02	-1.42203e+02	-1.28168e+02	-1.83188e+02	-8.07192e+01	-9.55538e+01	-1.57235e+02	-1.62015e+02	-9.38696e+01	-7.87754e+01	-1.72586e+02	-1.73078e+02	-1.80462e+02	-1.78286e+02	-1.03677e+02	-1.51187e+02	
Factor	5.12228e-05	5.56067e-05	1.88345e-05	1.95333e-01	6.11813e-07	6.20629e-07	2.43410e-01	8.63391e-02	5.78950e-07	5.10576e-07	1.23214e-01	4.08652e-02	3.29490e-02	1.20693e-02	4.99769e-07	1.77148e-02	2.19044e-07	2.19549e-07	6.10483e-08	8.04949e-02	2.40446e-09	2.40050e-09	9.18355e-02	3.25942e-02	2.40413e-09	2.39780e-09	4.31712e-02	1.43532e-02	1.21673e-02	4.38651e-03	2.40139e-09	6.00466e-03	X	X	X	X	X	X	X	X	X	X	X	X	X	X	X	X	



#DISTANCE SETTINGS
A = Detector Channel
A-1	A-2	A-3	A-4	A-5	A-6	A-7	A-8	A-9	A-10	A-11	A-12	A-13	A-14	A-15	A-16	

2.5000e+00	3.0000e+00	2.5000e+00	3.0000e+00	2.0000e+00	3.0000e+00	1.5000e+00	3.0000e+00	3.0000e+00	3.0000e+00	3.0000e+00	3.0000e+00	3.0000e+00	3.0000e+00	1.5000e+00	3.0000e+00	

B = Detector Channel
B-1	B-2	B-3	B-4	B-5	B-6	B-7	B-8	B-9	B-10	B-11	B-12	B-13	B-14	B-15	B-16	

1.0000e+01	1.0000e+01	1.0000e+01	1.4400e+00	1.0000e+01	1.0000e+01	1.5100e+00	1.9400e+00	1.0000e+01	1.0000e+01	1.9900e+00	2.4900e+00	2.4100e+00	2.9000e+00	1.0000e+01	2.9800e+00	




#DATA BEGINS
time	group	step	mark	flag	A-AC1	A-AC2	A-AC3	A-AC4	A-AC5	A-AC6	A-AC7	A-AC8	A-AC9	A-AC10	A-AC11	A-AC12	A-AC13	A-AC14	A-AC15	A-AC16	A-DC1	A-DC2	A-DC3	A-DC4	A-DC5	A-DC6	A-DC7	A-DC8	A-DC9	A-DC10	A-DC11	A-DC12	A-DC13	A-DC14	A-DC15	A-DC16	A-Ph1	A-Ph2	A-Ph3	A-Ph4	A-Ph5	A-Ph6	A-Ph7	A-Ph8	A-Ph9	A-Ph10	A-Ph11	A-Ph12	A-Ph13	A-Ph14	A-Ph15	A-Ph16	B-AC1	B-AC2	B-AC3	B-AC4	B-AC5	B-AC6	B-AC7	B-AC8	B-AC9	B-AC10	B-AC11	B-AC12	B-AC13	B-AC14	B-AC15	B-AC16	B-DC1	B-DC2	B-DC3	B-DC4	B-DC5	B-DC6	B-DC7	B-DC8	B-DC9	B-DC10	B-DC11	B-DC12	B-DC13	B-DC14	B-DC15	B-DC16	B-Ph1	B-Ph2	B-Ph3	B-Ph4	B-Ph5	B-Ph6	B-Ph7	B-Ph8	B-Ph9	B-Ph10	B-Ph11	B-Ph12	B-Ph13	B-Ph14	B-Ph15	B-Ph16	aux-1	digaux	

2769.394	1	1	0	768	0.14105	0.053966	0.087459	0.31975	0.31399	0.16222	0.043204	0.24419	0.092419	0.16254	0.080474	0.20364	0.19103	0.10403	0.066253	0.15573	-3.6229	-3.5521	-4.1813	-3.9104	-3.6333	-4.1875	-3.7604	-3.9208	-4.1646	-3.6042	-4.2479	-4.1396	-3.6792	-4.3604	-3.625	-3.7417	298.199	121.589	269.943	364.138	219.170	177.734	360.246	368.216	400.218	217.317	145.025	381.421	60.972	318.315	273.166	249.308	0.0011681	0.00010501	4.435e-05	783.71	1.3965e-06	1.1976e-06	966.42	283.68	1.4319e-06	1.0212e-06	414.9	158.36	111.24	40.873	1.3542e-06	65.242	6.6055e-06	2.6181e-06	7.0892e-07	662.7	3.2931e-08	2.5625e-08	796.9	220.91	3.1659e-08	2.6556e-08	308.68	117.95	83.919	30.752	3.3084e-08	46.952	85.565	122.818	137.023	67.211	196.864	170.875	66.128	71.853	179.670	202.531	70.561	74.713	76.511	82.238	187.156	79.336	-8191	255	
2769.490	1	1	0	0	0.084729	0.047264	0.088866	0.26355	0.11529	0.048493	0.19188	0.14316	0.065749	0.12231	0.14394	0.083618	0.1835	0.15292	0.056747	0.079852	-3.7958	-3.4333	-4.0833	-3.9271	-3.6813	-4.1958	-3.9062	-3.9771	-4.2562	-3.65	-4.05	-4.2229	-3.4521	-4.325	-3.7792	-3.8792	56.041	141.129	120.373	332.219	383.830	312.049	350.695	315.809	112.022	105.661	112.521	140.271	269.984	314.125	406.660	246.394	0.0011624	0.00012405	4.7094e-05	779.41	1.5006e-06	1.4626e-06	962.84	283.63	1.5672e-06	8.566e-07	412	156.28	110.72	40.406	1.1371e-06	64.306	6.4075e-06	2.4836e-06	7.3042e-07	659.93	3.1153e-08	2.4505e-08	792.87	220.53	3.0027e-08	2.5811e-08	305.96	116.7	83.277	30.434	3.2489e-08	46.329	84.226	136.874	152.243	67.158	210.026	173.425	66.237	71.811	194.915	196.532	70.227	74.632	76.511	82.230	176.101	79.439	-8191	255	
2769.585	1	1	0	0	0.081601	0.08351	0.15864	0.22805	0.15336	0.091859	0.024964	0.14028	0.069425	0.042393	0.11666	0.22839	0.12861	0.1331	0.11381	0.19932	-3.8583	-3.7646	-3.9021	-4.1854	-3.6625	-4.1	-3.9917	-3.8563	-4.2833	-3.6688	-4.1	-4.2125	-3.5812	-4.4083	-3.925	-3.6625	137.875	225.525	257.744	355.392	127.914	231.138	116.934	406.095	364.740	273.846	318.853	394.150	403.272	380.077	288.868	350.774	0.0011567	8.5277e-05	4.667e-05	773.37	1.7829e-06	1.4769e-06	956.84	280.86	1.439e-06	1.179e-06	408.3	156.77	110.24	40.25	1.1978e-06	64.459	6.2085e-06	2.4567e-06	7.6705e-07	654.66	3.0797e-08	2.55e-08	789.64	218.78	2.8108e-08	2.745e-08	304.76	116.51	82.902	30.273	3.3354e-08	46.292	86.031	131.691	146.012	67.000	206.649	190.528	66.260	71.955	194.160	189.676	70.105	74.623	76.634	82.137	173.313	79.214	-8191	255	
2769.683	1	1	0	0	0.2507	0.046946	0.15854	0.14095	0.022383	0.20736	0.29885	0.169	0.092525	0.030355	0.10628	0.21783	0.07054	0.04761	0.1507	0.15291	-3.9479	-3.6896	-3.9167	-4.3271	-3.4646	-4.1042	-4.0021	-3.7104	-4.3313	-3.7792	-4.0437	-4.2229	-3.5979	-4.2542	-3.9271	-3.6396	120.254	389.071	61.391	406.370	318.426	72.545	65.243	353.963	55.437	365.568	307.254	65.735	318.020	200.805	341.001	336.258	0.0011545	0.00016463	4.2322e-05	777.54	1.8212e-06	1.4209e-06	964.63	282.33	1.4163e-06	8.789e-07	412.54	157.06	110.75	40.455	1.326e-06	65.063	6.2368e-06	2.6511e-06	7.7646e-07	658.92	2.9625e-08	2.7456e-08	796.11	220.06	2.8719e-08	2.8574e-08	307.5	117.24	83.379	30.444	3.1944e-08	46.692	85.147	133.046	153.292	67.082	193.204	180.510	66.120	71.856	185.822	200.080	70.250	74.818	76.491	82.315	171.054	79.135	-8191	255	
2769.777	1	1	0	0	0.22438	0.19403	0.24782	0.2034	0.092509	0.072325	0.16564	0.17776	0.16772	0.085534	0.16798	0.021373	0.19399	0.19634	0.14374	0.072973	-3.9042	-3.9271	-3.7646	-4.2792	-3.6479	-3.9938	-4.2125	-3.5271	-4.2167	-3.8417	-3.8563	-4.4	-3.75	-3.7771	-4.025	-3.7333	280.811	142.399	143.044	349.025	104.631	287.257	368.745	362.905	314.101	107.523	335.859	185.211	140.044	296.357	315.528	88.678	0.0011533	0.00016756	5.0113e-05	780.2	1.4923e-06	1.6768e-06	969.91	284.62	1.6939e-06	1.0166e-06	413.98	158.04	110.89	40.941	1.2396e-06	64.981	6.2259e-06	2.6817e-06	7.6895e-07	661.5	3.0707e-08	2.9601e-08	800.33	221.03	2.8564e-08	3.0767e-08	308.69	117.62	83.707	30.729	3.1668e-08	46.753	83.914	135.311	156.892	67.067	202.321	187.965	66.142	71.858	190.298	199.397	70.236	74.578	77.010	82.066	172.721	79.212	-8191	255	
2769.873	1	1	0	0	0.21941	0.18955	0.1164	0.19509	0.12745	0.18763	0.122	0.20511	0.082109	0.19642	0.049283	0.35818	0.38608	0.27987	0.022628	0.25772	-4.0104	-3.7687	-3.8604	-4.2833	-3.6667	-3.8625	-4.1438	-3.5667	-3.9938	-3.8083	-3.6937	-4.4729	-3.7604	-4.0646	-4.0437	-3.7271	115.949	296.495	272.109	321.527	316.070	386.136	393.583	387.967	54.062	386.718	383.900	379.290	341.098	72.309	170.994	118.380	0.0011406	0.00014909	5.6403e-05	789.35	2.0024e-06	1.1366e-06	977.71	284.85	1.7774e-06	1.1764e-06	416.32	157.88	111.25	40.824	1.2973e-06	64.776	6.3149e-06	2.8811e-06	7.2495e-07	666.69	3.0321e-08	2.9821e-08	803.8	222.07	2.9957e-08	2.8734e-08	308.95	117.53	83.814	30.713	3.0197e-08	46.66	84.943	124.385	147.210	67.107	205.367	192.608	66.088	71.789	185.571	195.433	69.993	74.465	76.869	82.326	172.284	79.329	-8191	255	
2769.994	1	1	0	0	0.14962	0.068648	0.097269	0.19298	0.16765	0.11386	0.22807	0.11676	0.15093	0.069249	0.026659	0.27179	0.037612	0.25774	0.21512	0.17343	-3.8563	-3.8833	-3.5396	-4.4187	-4.0729	-3.8958	-4.4437	-3.4333	-4.0875	-4.0792	-3.7542	-4.3187	-3.7542	-3.7792	-4.1167	-3.6625	77.533	70.715	309.148	54.988	186.007	169.304	320.112	55.313	361.145	253.321	265.400	314.216	373.729	396.318	333.624	288.696	0.001201	0.00011489	4.0786e-05	788.44	1.728e-06	1.2505e-06	979.08	284.42	1.4522e-06	9.3304e-07	415.49	158.02	111.45	40.469	1.1422e-06	64.842	6.5681e-06	2.7988e-06	7.3042e-07	667.31	3.239e-08	2.9246e-08	804.49	221.53	3.1549e-08	2.9343e-08	309.28	117.69	83.841	30.517	2.9887e-08	46.684	85.997	120.139	142.576	67.116	188.237	185.287	66.199	71.844	181.927	206.312	70.046	74.706	76.567	82.156	170.447	79.136	-8191	255	
2770.090	1	1	0	0	0.013165	0.26459	0.082441	0.12977	0.15568	0.095898	0.26655	0.11156	0.080624	0.1026	0.28498	0.177	0.12759	0.31356	0.21355	0.14765	-3.7375	-4.0458	-3.6604	-4.2188	-3.8875	-3.7104	-4.2125	-3.7146	-3.9208	-4.1521	-3.5875	-4.3125	-3.8583	-3.7167	-4.2417	-3.6396	349.342	325.537	314.397	182.257	402.814	282.631	323.928	375.125	295.866	205.567	145.660	54.160	320.273	107.247	345.024	299.087	0.0011726	0.00015408	5.1902e-05	783.76	1.8031e-06	1.3415e-06	979.42	284.38	1.4848e-06	1.3452e-06	413.74	157.37	110.8	40.374	1.5051e-06	64.785	6.6366e-06	2.7471e-06	7.0447e-07	666.41	3.3237e-08	2.8621e-08	805.47	221.49	3.2641e-08	2.701e-08	309.19	117.5	83.485	30.383	2.8577e-08	46.617	85.378	149.210	143.823	67.239	196.025	200.062	66.343	71.748	185.363	180.242	70.137	74.600	76.770	82.136	185.972	79.086	-8191	255	
2770.186	1	1	0	0	0.18487	0.098241	0.039449	0.24299	0.09772	0.14582	0.16844	0.20061	0.036627	0.29831	0.013193	0.028289	0.2089	0.1398	0.20935	0.079339	-3.6479	-4.0021	-3.6562	-4.2042	-3.9354	-3.7354	-4.3958	-3.6167	-3.8583	-4.15	-3.5542	-4.0667	-4.025	-3.6875	-4.2188	-3.7625	351.201	60.442	334.522	64.120	181.740	159.375	344.568	402.579	122.265	362.830	385.506	176.209	321.182	282.497	252.503	331.353	0.0011865	0.00013246	3.804e-05	786.17	1.3126e-06	1.4217e-06	973.51	283.93	1.6271e-06	1.0629e-06	412.55	156.84	110.35	40.052	1.4053e-06	63.992	6.8136e-06	2.5852e-06	7.0358e-07	665.76	3.3217e-08	2.7371e-08	802.28	220.97	3.2306e-08	2.5232e-08	307.23	116.69	83.191	30.206	2.7331e-08	46.044	86.040	122.915	143.964	67.063	205.114	179.782	66.282	71.878	203.182	195.814	70.311	74.648	76.665	82.309	180.455	79.236	-8191	255	
2770.282	1	1	0	0	0.14025	0.23734	0.14994	0.17013	0.191	0.1364	0.11718	0.15003	0.23903	0.15969	0.17854	0.038251	0.18254	0.24374	0.16756	0.1464	-3.4583	-4.1188	-3.7833	-4.0354	-3.875	-3.6417	-4.1687	-3.6688	-3.8083	-4.0958	-3.7896	-4.0312	-4.2812	-3.5979	-4.3625	-3.8646	349.337	233.367	347.405	366.516	194.293	376.733	311.694	260.111	261.261	163.267	373.442	409.665	94.130	180.638	267.408	354.325	0.001104	0.00015408	6.0547e-05	786.85	1.0723e-06	1.3539e-06	973.55	284.87	1.1621e-06	1.3875e-06	413.04	156.47	110.8	40.244	1.3804e-06	64.005	6.7091e-06	2.5426e-06	7.1198e-07	666.98	3.2385e-08	2.7721e-08	802.93	221.54	3.1955e-08	2.6985e-08	307.2	116.82	83.362	30.26	2.8356e-08	46.129	85.525	119.452	142.496	67.248	202.378	190.000	65.965	71.760	193.236	187.317	70.191	74.693	76.608	82.217	179.962	79.069	-8191	255	
2770.378	1	1	0	0	0.042252	0.031185	0.13105	0.18751	0.079467	0.33459	0.20337	0.097002	0.080936	0.14978	0.12197	0.29745	0.21445	0.16123	0.23451	0.2046	-3.4562	-4.2167	-3.7354	-4.05	-4.0667	-3.4792	-4.2854	-3.8292	-3.65	-4.2729	-3.8708	-3.9708	-4.4313	-3.5667	-4.1188	-3.7792	223.390	161.480	358.462	374.928	148.935	381.851	68.764	57.905	367.658	210.704	400.862	309.907	81.924	296.891	346.300	107.712	0.0011695	0.0001162	4.0083e-05	787.52	1.5291e-06	9.2154e-07	976.4	283.81	1.9781e-06	9.3833e-07	415.18	157	110.91	40.453	1.2888e-06	64.437	6.5152e-06	2.4928e-06	6.8819e-07	667.76	3.1043e-08	2.5465e-08	805.29	221.29	3.206e-08	2.4073e-08	308.2	117.18	83.527	30.396	3.0688e-08	46.361	85.332	124.993	127.633	67.012	196.395	184.886	66.111	71.956	180.556	204.663	70.197	74.848	76.777	82.180	172.897	79.281	-8191	255	
2770.475	1	1	0	0	0.20335	0.35884	0.26423	0.17089	0.17389	0.25488	0.14367	0.13794	0.23432	0.1637	0.064549	0.049598	0.061231	0.24489	0.19252	0.38313	-3.4604	-4.0396	-3.7833	-3.9604	-4.1729	-3.7021	-4.0333	-3.8812	-3.5	-4.325	-3.9354	-3.9396	-4.2229	-3.4854	-4.0917	-4.2146	82.936	330.753	199.157	331.958	94.475	193.608	253.702	66.852	173.709	72.260	105.055	213.314	318.723	393.508	224.314	361.527	0.0011621	0.00011457	3.7623e-05	788.51	1.5848e-06	1.3781e-06	976.39	284.75	1.8938e-06	1.1257e-06	413.9	157.74	111.5	40.639	1.2221e-06	64.756	6.5823e-06	2.4516e-06	7.453e-07	666.92	3.0296e-08	2.571e-08	804.8	221.67	3.2476e-08	2.4213e-08	308.41	117.68	83.949	30.642	3.2299e-08	46.583	87.008	131.861	120.122	66.950	195.558	182.152	66.215	71.786	188.147	187.770	70.174	74.672	76.750	82.189	175.357	79.169	-8191	255	
2770.595	1	1	0	0	0.071107	0.16949	0.16109	0.14506	0.28342	0.2509	0.18932	0.17528	0.13929	0.17373	0.30038	0.12968	0.30971	0.13275	0.024289	0.42841	-3.4333	-4.2729	-3.6937	-3.7167	-4.3271	-3.5292	-4.2021	-3.8604	-3.8042	-4.2854	-3.9917	-3.6333	-4.4146	-3.5458	-3.975	-4.0708	292.932	276.177	215.307	399.910	164.235	328.591	402.836	400.870	283.572	188.378	293.809	56.072	381.271	386.959	193.767	386.679	0.0011765	0.00013946	4.6241e-05	788.17	1.6371e-06	1.1041e-06	969.99	285.27	1.5071e-06	1.0274e-06	414.49	156.69	111.4	40.531	1.2423e-06	64.78	6.6252e-06	2.4095e-06	7.7162e-07	667.68	2.9249e-08	2.7011e-08	800.77	221.91	3.199e-08	2.5447e-08	308.54	117.11	83.975	30.618	3.2739e-08	46.493	85.415	139.583	149.427	67.104	208.557	180.150	66.217	71.781	183.561	200.132	70.475	74.679	76.391	82.292	181.197	79.123	-8191	255	
2770.690	1	1	0	0	0.20394	0.043271	0.14	0.17835	0.15198	0.13508	0.081646	0.18259	0.26696	0.080217	0.19242	0.16964	0.1928	0.24182	0.10572	0.010609	-3.2083	-4.2458	-3.7792	-3.675	-4.2042	-3.6854	-3.7979	-4.1833	-3.5	-4.1792	-3.9417	-3.9062	-4.2625	-3.9042	-3.8563	-4.0542	234.760	178.060	176.964	86.455	54.443	410.121	161.963	88.434	250.521	75.285	141.519	295.464	348.256	367.774	243.521	61.136	0.0011551	0.00013947	4.0129e-05	791.36	1.4385e-06	1.2623e-06	968.88	285	1.6858e-06	1.0738e-06	415.77	157.79	111.47	40.717	1.0675e-06	64.689	6.4572e-06	2.5971e-06	7.8663e-07	669.75	2.9675e-08	2.8306e-08	801.23	222.11	3.0307e-08	2.6541e-08	309.08	117.54	83.917	30.641	3.38e-08	46.616	85.570	134.716	151.920	66.888	203.663	181.508	66.052	71.967	174.935	195.083	70.115	74.723	76.598	81.996	169.679	79.205	-8191	255	
2770.786	1	1	0	0	0.12173	0.14813	0.053962	0.086331	0.020502	0.083667	0.19136	0.034379	0.2424	0.21636	0.18508	0.26742	0.28992	0.12328	0.099507	0.12382	-3.2625	-4.175	-3.7938	-3.7417	-4.2417	-3.7687	-3.8854	-4.1958	-3.7146	-4.0458	-3.8792	-3.6437	-4.2583	-3.8542	-3.8458	-4.2937	401.345	202.740	297.439	397.240	120.725	140.741	299.653	61.406	215.417	233.007	67.374	339.940	359.760	351.560	323.027	349.506	0.0011555	0.00017636	5.1609e-05	792.53	1.9131e-06	1.5687e-06	977.53	287.55	1.547e-06	9.8089e-07	417.53	158.44	112.12	40.878	1.4137e-06	65.015	6.512e-06	2.6945e-06	7.4835e-07	670.22	2.9299e-08	2.9606e-08	805.68	223.77	2.9886e-08	2.8444e-08	310.63	118.14	84.226	30.729	3.3634e-08	46.802	83.576	125.292	144.801	67.298	183.124	173.074	66.184	71.867	186.001	219.502	70.369	74.547	76.427	82.224	171.423	79.158	-8191	255	
2770.882	1	1	0	0	0.11495	0.26011	0.15527	0.17035	0.11939	0.23931	0.14015	0.21916	0.084671	0.19361	0.047106	0.13885	0.097736	0.14489	0.24108	0.12232	-3.4021	-4.0271	-3.9583	-3.7812	-4.2125	-3.8	-3.9646	-4.2458	-3.7188	-3.9458	-4.3229	-3.5042	-4.2521	-3.9958	-3.6312	-4.4938	262.853	131.416	110.753	404.097	326.461	220.329	391.083	321.376	77.827	302.631	270.909	388.711	366.720	253.638	289.839	125.946	0.0011542	0.00015617	2.2263e-05	792.48	1.4124e-06	1.2623e-06	988.28	286.59	1.9299e-06	1.0697e-06	419.05	158	111.84	40.841	1.3274e-06	64.863	6.4399e-06	2.8875e-06	7.397e-07	670.31	2.8843e-08	2.9311e-08	809.3	223.53	3.2446e-08	2.9653e-08	310.85	117.9	84.235	30.73	3.1678e-08	46.661	85.115	119.348	153.468	67.390	198.199	179.168	66.183	72.031	192.986	199.001	70.284	74.748	76.348	82.183	170.193	79.070	-8191	255	
2770.954	1	1	0	0	0.22964	0.18263	0.14238	0.20075	0.16329	0.10002	0.17598	0.20257	0.056449	0.046326	0.19686	0.063109	0.09376	0.22564	0.1245	0.20511	-3.3896	-4.2021	-4.1542	-3.7708	-4.1083	-4.0042	-3.7104	-4.1417	-3.7729	-3.8312	-4.2021	-3.7542	-4.1542	-3.9979	-3.5187	-4.375	236.373	124.201	328.124	342.317	412.637	220.947	268.333	73.460	107.816	356.219	405.998	331.261	157.212	365.716	68.188	72.543	0.0011348	0.00010818	4.8532e-05	792.88	1.839e-06	1.1638e-06	982.23	286.01	2.1692e-06	1.1926e-06	417.08	158.05	111.59	40.778	1.2621e-06	64.117	6.5485e-06	2.8436e-06	7.1426e-07	670.02	3.1233e-08	2.8781e-08	806.04	223.23	3.4059e-08	2.9318e-08	309.51	117.43	84.18	30.685	3.1588e-08	46.391	86.368	129.593	148.756	67.090	196.451	164.375	66.235	71.796	177.121	186.931	70.183	74.573	76.781	82.352	170.512	79.418	-8191	255	
2771.074	1	1	0	0	0.16101	0.066138	0.15709	0.14697	0.26116	0.27198	0.25377	0.20133	0.13128	0.091624	0.05886	0.098732	0.28334	0.045916	0.037702	0.087823	-3.2479	-3.8604	-4.4979	-3.5333	-3.9167	-4.2021	-3.6375	-4.1625	-3.8438	-3.9	-4.3875	-3.7521	-4.1042	-4.0708	-3.5854	-4.3688	118.914	113.969	182.927	393.410	86.160	241.603	365.349	334.483	182.880	98.289	331.787	76.989	404.589	410.171	327.909	117.482	0.00119	0.00013546	4.2885e-05	792.37	1.4842e-06	1.8052e-06	972.7	286.39	1.5053e-06	1.0082e-06	416.18	157.03	111.33	40.742	1.2297e-06	64.636	6.7479e-06	2.6977e-06	6.5589e-07	670.02	3.2465e-08	2.7651e-08	803.76	223.2	3.4339e-08	2.9088e-08	309.14	117.2	84.125	30.72	3.0213e-08	46.601	84.651	122.450	147.974	67.203	193.255	181.700	66.292	71.940	195.586	176.615	70.116	74.755	76.812	82.219	162.318	79.439	-8191	255	
2771.170	1	1	0	0	0.10573	0.0024338	0.18216	0.1923	0.10612	0.30651	0.089286	0.16465	0.17788	0.25996	0.095765	0.25122	0.038908	0.092137	0.18914	0.3365	-3.6375	-3.6562	-4.1479	-3.7104	-4.0312	-4.125	-3.6292	-4.1854	-4.0104	-3.7479	-4.4333	-3.7021	-3.9375	-4.1	-3.6104	-4.1771	91.698	180.000	219.825	399.991	244.285	93.564	308.608	362.366	75.231	243.213	336.497	118.199	54.111	106.721	205.084	326.467	0.0012178	0.00011434	3.8301e-05	790.39	1.9693e-06	1.4807e-06	975.38	286.06	2.1266e-06	1.0843e-06	414.89	157.75	111.32	40.477	1.1953e-06	64.73	6.8762e-06	2.7128e-06	6.5271e-07	668.93	3.3687e-08	2.7381e-08	804.21	222.73	3.22e-08	2.749e-08	308.73	117.3	83.785	30.544	3.1013e-08	46.527	84.333	142.314	127.726	67.046	207.996	191.252	66.068	71.943	173.971	178.602	70.342	74.774	76.823	82.116	170.745	79.120	-8191	255	
2771.267	1	1	0	0	0.23127	0.054356	0.11565	0.074493	0.17795	0.14009	0.15124	0.028923	0.15518	0.18752	0.17516	0.14758	0.13287	0.097954	0.045167	0.10311	-3.3354	-3.6813	-4.0938	-3.7354	-3.9146	-4.2583	-3.7812	-4.225	-4.0104	-3.4292	-4.3875	-3.7875	-3.7521	-4.0833	-3.5208	-4.0188	229.902	357.078	263.107	412.249	137.397	69.189	248.140	115.405	254.144	326.143	256.222	59.220	83.312	139.203	102.144	360.276	0.0011931	0.00011639	2.4627e-05	786.88	1.9245e-06	1.4427e-06	974.33	283.47	1.7184e-06	8.4443e-07	413.66	156.27	110.52	40.293	1.1553e-06	64.211	6.7178e-06	2.5797e-06	6.1201e-07	666.54	3.3622e-08	2.6746e-08	801.63	221.46	3.1584e-08	2.756e-08	307.76	116.67	83.4	30.36	2.9112e-08	46.153	86.233	132.175	140.053	66.867	204.687	169.510	66.181	71.681	181.893	188.743	70.033	74.609	76.740	81.889	184.133	79.085	-8191	255	
2771.363	1	1	0	0	0.12729	0.32231	0.093454	0.21654	0.23122	0.15746	0.082683	0.21779	0.060395	0.22634	0.21391	0.14154	0.2228	0.28118	0.099385	0.20841	-3.7146	-3.6271	-4.2583	-3.9375	-3.7896	-4.3313	-3.6417	-4.1542	-4.2354	-3.4667	-4.2917	-3.9333	-3.8167	-4.2396	-3.7125	-4.0167	408.010	133.381	276.652	304.772	312.388	317.506	221.461	364.848	65.699	172.797	145.688	56.085	324.906	64.294	339.715	365.095	0.0011346	0.0001294	5.4328e-05	790.22	1.3413e-06	1.0677e-06	976.08	285.77	1.5019e-06	1.1443e-06	415.32	156.76	111.71	40.59	1.4895e-06	64.284	6.5065e-06	2.6414e-06	6.1659e-07	668.63	3.3011e-08	2.5005e-08	804.2	222.99	3.1269e-08	2.6031e-08	308.9	116.87	84.084	30.515	2.9542e-08	46.251	85.007	111.074	144.627	67.131	201.533	182.175	65.985	71.786	185.548	199.931	70.075	74.489	76.693	82.077	178.506	79.115	-8191	255	
2771.483	1	1	0	0	0.19086	0.17967	0.012566	0.16946	0.14244	0.15959	0.23374	0.34119	0.36924	0.10193	0.16728	0.14889	0.21532	0.26502	0.15063	0.18861	-3.7396	-3.5646	-4.2167	-4.0271	-3.5979	-4.3792	-3.7812	-3.9708	-4.2542	-3.6042	-4.2396	-3.975	-3.8042	-4.2312	-3.5625	-4	378.556	167.164	321.174	398.148	371.004	308.584	333.027	336.070	86.875	91.959	335.960	398.925	380.009	287.894	326.634	54.568	0.0011475	0.00012662	4.9753e-05	790.27	1.5588e-06	1.7332e-06	973.77	284.63	1.7355e-06	1.1306e-06	414.04	156.92	110.76	40.354	9.4429e-07	64.332	6.4125e-06	2.5463e-06	6.8247e-07	668.29	3.227e-08	2.4465e-08	801.37	222.21	3.0257e-08	2.5492e-08	307.87	116.75	83.455	30.368	3.2484e-08	46.19	83.792	124.581	148.168	67.147	199.643	168.559	65.904	71.928	182.889	184.806	70.037	74.667	76.667	82.165	169.221	79.183	-8191	255	
2771.555	1	1	0	0	0.042018	0.07354	0.23113	0.093937	0.2615	0.099348	0.095068	0.05969	0.12828	0.18805	0.090561	0.13405	0.18521	0.099229	0.055985	0.235	-3.8104	-3.5396	-3.9771	-4.0062	-3.625	-4.1771	-3.8979	-3.6479	-4.2729	-3.575	-4.0854	-4.0292	-3.4854	-4.3417	-3.8104	-3.8875	108.584	210.569	57.241	294.886	269.097	279.256	226.646	108.045	95.730	55.880	139.205	408.265	88.819	339.216	412.073	319.901	0.001106	0.00012498	4.8326e-05	789.32	1.7089e-06	1.0333e-06	975.08	286.94	1.7263e-06	1.357e-06	416.73	157.93	111.79	40.625	1.246e-06	64.757	6.2701e-06	2.5646e-06	7.3207e-07	668.89	3.1689e-08	2.396e-08	805.72	223.43	3.0342e-08	2.763e-08	309.99	117.67	84.192	30.588	3.3915e-08	46.623	85.654	135.268	157.866	67.267	187.902	176.643	66.091	71.861	175.735	184.618	70.211	74.726	76.769	82.146	169.905	79.056	-8191	255	
2771.676	1	1	0	0	0.10304	0.36977	0.095194	0.0059539	0.2066	0.048789	0.035587	0.26321	0.13622	0.2613	0.37245	0.18101	0.13479	0.044849	0.089934	0.15905	-3.7833	-3.3063	-3.8958	-3.9146	-3.6167	-4.125	-3.7771	-3.7812	-4.1646	-3.5292	-4.1562	-4.1146	-3.5	-4.3375	-3.7542	-3.6917	384.415	286.094	357.100	291.321	235.338	346.584	321.548	79.810	352.384	172.372	408.437	308.806	306.065	226.105	297.002	406.493	0.0011648	0.00012437	4.5321e-05	787.26	1.8898e-06	1.1148e-06	978.37	286.93	1.2327e-06	8.5677e-07	417.23	157.4	112.14	41.011	1.2578e-06	64.981	6.3208e-06	2.4768e-06	7.6476e-07	668.37	3.0977e-08	2.4885e-08	805.1	223.46	2.9746e-08	2.8254e-08	309.93	117.43	84.231	30.851	3.3309e-08	46.811	84.667	131.900	148.489	67.101	188.174	193.867	66.237	71.829	188.183	196.094	70.244	74.657	76.523	82.292	178.819	79.216	-8191	255	
2771.770	1	1	0	0	0.14131	0.069467	0.15337	0.23922	0.00856	0.27072	0.087064	0.19621	0.078507	0.052019	0.025614	0.33255	0.04614	0.25169	0.012046	0.058819	-4.0292	-3.5396	-3.8875	-4.0417	-3.4708	-4.1646	-3.9771	-3.7146	-4.0375	-3.825	-4.0229	-4.2417	-3.5833	-4.2229	-3.9104	-3.7833	248.145	323.990	279.065	350.016	280.965	267.384	411.866	239.981	336.841	233.735	375.427	366.043	68.179	77.905	341.292	233.913	0.0012513	0.00010856	3.69e-05	796.53	1.6445e-06	1.4112e-06	976.68	289.61	1.7817e-06	1.1897e-06	415.56	157.9	112.34	41.217	1.0421e-06	64.832	6.3751e-06	2.7128e-06	7.9604e-07	673.2	3.1649e-08	2.6981e-08	805.33	225.12	2.883e-08	2.9523e-08	309.55	117.61	84.644	31.032	3.1808e-08	46.837	85.148	136.274	137.839	67.146	197.844	176.770	66.253	71.647	181.528	186.206	70.267	74.723	76.767	82.310	173.347	79.212	-8191	255	
2771.866	1	1	0	0	0.30555	0.22791	0.12998	0.14653	0.16821	0.18538	0.1954	0.26549	0.21549	0.1395	0.22805	0.25954	0.19556	0.26526	0.19052	0.12584	-3.7604	-3.7083	-3.9104	-4.175	-3.5854	-3.8563	-4.2937	-3.6479	-4.2833	-3.7333	-3.8375	-4.3125	-3.5167	-4.0208	-3.8292	-3.6917	346.576	318.183	331.210	132.320	153.909	234.983	75.019	325.415	174.443	376.098	301.429	394.395	57.430	409.709	291.230	344.841	0.0011722	0.00013646	3.9685e-05	789.55	1.6317e-06	1.0187e-06	973.9	287.96	1.6263e-06	1.1729e-06	414.19	157.31	111.41	40.974	1.343e-06	64.382	6.2651e-06	2.7608e-06	7.5407e-07	669.35	3.0391e-08	2.8516e-08	803.71	224.25	2.8404e-08	2.8069e-08	308.58	117.2	84.027	30.764	3.1378e-08	46.387	84.689	137.396	166.378	66.930	189.265	177.449	66.338	71.955	180.417	178.146	70.262	74.807	76.951	82.334	174.298	79.348	-8191	255	
2771.962	1	1	0	0	0.029443	0.10464	0.11304	0.14101	0.077243	0.19783	0.070576	0.055705	0.14016	0.042755	0.3076	0.078424	0.077142	0.14677	0.14501	0.19705	-4.0042	-3.8042	-3.7958	-4.2146	-3.5646	-3.9021	-4.2021	-3.3646	-4.3313	-3.8271	-3.8312	-4.3688	-3.6729	-3.925	-4.2125	-3.6083	57.637	184.843	97.645	279.375	250.936	332.118	286.684	206.978	148.150	323.483	376.014	202.345	168.512	318.677	359.978	380.147	0.0011487	0.00012701	4.9888e-05	784.97	1.8042e-06	1.2882e-06	968.85	285.87	1.9715e-06	1.1875e-06	413.54	156.57	111.55	40.678	1.3155e-06	64.205	6.3066e-06	2.8258e-06	7.1236e-07	664.94	3.1028e-08	2.9266e-08	798.36	222.13	3.0938e-08	3.0537e-08	308.01	116.69	83.821	30.621	3.0613e-08	46.345	85.173	136.913	151.399	67.237	188.030	172.450	66.419	71.755	194.960	191.280	70.388	74.859	76.483	82.224	174.742	79.131	-8191	255	
2772.083	1	1	0	0	0.097891	0.11657	0.025967	0.15749	0.049225	0.022005	0.27684	0.076309	0.14493	0.24674	0.16011	0.060733	0.10829	0.20943	0.099962	0.14484	-3.7146	-3.9667	-3.6792	-4.3313	-3.6958	-3.9021	-4.1813	-3.4479	-4.2125	-3.9729	-3.5354	-4.3146	-3.7771	-4.0104	-4.0271	-3.6875	153.729	140.440	286.147	394.383	183.353	250.402	337.605	100.422	395.535	228.393	94.545	387.153	407.891	413.735	252.756	127.147	0.0011364	0.0001585	4.1303e-05	784.65	2.0707e-06	1.4695e-06	973.57	284.93	1.647e-06	1.1182e-06	411.9	156.67	110.23	40.352	1.4153e-06	63.847	6.397e-06	2.8038e-06	7.3131e-07	662.85	3.1779e-08	2.8776e-08	798.52	221.32	3.0738e-08	2.7625e-08	306.11	116.16	83.275	30.407	2.8426e-08	45.918	85.360	131.834	142.819	67.340	201.972	179.130	66.311	71.885	191.361	182.396	70.149	74.834	76.537	82.325	171.540	79.145	-8191	255	
2772.179	1	1	0	0	0.068652	0.076733	0.21756	0.25496	0.050952	0.20019	0.27957	0.13331	0.14887	0.12897	0.064971	0.046809	0.16083	0.24603	0.1197	0.2154	-3.6875	-3.9583	-3.6083	-4.3083	-3.8604	-3.6479	-4.3083	-3.65	-4.1708	-4.1667	-3.6333	-4.3938	-4.0125	-3.9437	-4.1771	-3.7792	201.200	80.958	304.020	330.986	154.985	306.881	355.920	91.460	400.725	207.110	355.132	409.168	408.883	263.588	409.480	77.428	0.0011435	0.00016735	4.4673e-05	785.29	1.97e-06	1.4696e-06	961.68	285.71	1.3458e-06	1.0754e-06	410.34	155.69	110.41	40.384	1.0594e-06	63.545	6.5106e-06	2.6314e-06	6.7407e-07	664.25	3.3437e-08	2.8501e-08	795.9	221.93	3.2391e-08	2.7899e-08	305.24	115.76	83.306	30.355	2.6976e-08	45.78	85.906	132.999	142.090	66.979	192.676	175.750	66.038	71.975	196.588	203.957	70.280	74.618	76.544	82.358	177.443	79.085	-8191	255	
2772.251	1	1	0	0	0.081488	0.18225	0.23188	0.20131	0.23069	0.23102	0.24527	0.28324	0.23487	0.34913	0.21579	0.10068	0.10851	0.12741	0.1538	0.23317	-3.5958	-4.1188	-3.4729	-4.4042	-3.6792	-3.7083	-4.4083	-3.7125	-3.9292	-4.1729	-3.5812	-4.2312	-4.0521	-3.6604	-4.3187	-3.7542	254.687	68.949	382.537	379.329	291.805	137.363	60.348	350.855	76.092	206.921	209.580	373.320	317.114	292.287	82.518	364.615	0.0011588	0.00017088	3.3583e-05	784.24	1.6403e-06	1.4945e-06	964.41	284.72	1.6839e-06	1.3023e-06	412.57	155.48	110.48	40.371	1.4632e-06	63.887	6.7178e-06	2.6332e-06	7.2202e-07	663.67	3.3828e-08	2.8731e-08	795.88	221.59	3.3207e-08	2.6421e-08	306.02	115.73	83.155	30.325	2.6831e-08	45.915	85.566	124.727	131.744	67.295	198.436	176.331	66.389	72.047	185.156	191.756	69.860	74.771	76.776	82.252	170.188	79.345	-8191	255	
2772.371	1	1	0	0	0.2083	0.17404	0.28601	0.35325	0.14971	0.13715	0.13945	0.33583	0.0090286	0.1822	0.14483	0.23421	0.045017	0.34007	0.20372	0.26644	-3.5771	-4.0396	-3.5792	-4.1583	-4	-3.6729	-4.3292	-3.7062	-3.8958	-4.0375	-3.6083	-4.0958	-4.0062	-3.4646	-4.2417	-3.9292	151.252	94.615	408.241	359.362	164.664	315.443	344.793	360.859	234.125	149.303	199.254	360.367	210.606	339.693	182.744	367.602	0.0011495	0.00015834	4.5673e-05	784.59	1.2012e-06	1.542e-06	970.56	283.07	1.4644e-06	9.3608e-07	411.71	155.17	110.1	40.376	1.0899e-06	64.192	6.6781e-06	2.4704e-06	6.7573e-07	664.2	3.1584e-08	2.7481e-08	798.12	221.13	3.1384e-08	2.6056e-08	306.44	116.05	83.032	30.321	2.6811e-08	46.131	84.870	134.109	145.218	67.180	198.202	181.914	66.189	71.853	179.297	193.574	70.294	74.729	76.479	82.392	169.186	79.098	-8191	255	
2772.468	1	1	0	0	0.073467	0.13469	0.16949	0.20851	0.11227	0.065554	0.049306	0.14797	0.15896	0.19489	0.093947	0.13523	0.18688	0.10153	0.064318	0.28548	-3.3083	-4.2688	-3.5792	-4.0667	-3.9125	-3.5438	-4.1375	-3.9646	-3.7479	-4.4146	-3.5646	-4.15	-4.1958	-3.5333	-4.1042	-3.8667	341.614	107.212	154.841	358.821	266.533	259.629	175.158	252.360	216.200	270.716	132.998	164.724	230.322	78.068	360.950	298.449	0.0011463	0.00012571	4.7992e-05	790.5	1.5002e-06	1.0911e-06	970.14	285.38	1.7242e-06	1.0653e-06	411.55	155.7	110.36	40.275	1.1169e-06	63.848	6.6001e-06	2.3848e-06	7.3436e-07	667.18	3.1413e-08	2.7966e-08	800.32	222.33	3.2706e-08	2.4063e-08	306.38	116	83.081	30.231	2.8822e-08	45.925	86.616	128.441	151.770	67.165	182.852	174.237	66.195	71.743	179.325	203.575	70.357	74.477	76.778	82.168	175.246	79.273	-8191	255	
2772.562	1	1	0	0	0.068124	0.21066	0.056599	0.22124	0.10162	0.13361	0.089769	0.38141	0.11344	0.26185	0.15893	0.17711	0.019228	0.074674	0.2035	0.056785	-3.2042	-4.2896	-3.5646	-3.9771	-4.3042	-3.4417	-4.1937	-3.8688	-3.5896	-4.3792	-3.6958	-4.0542	-4.1875	-3.775	-4.0042	-4.1417	208.736	119.212	238.785	357.836	98.128	293.538	285.474	355.676	309.732	100.861	300.585	134.199	384.925	131.429	96.939	366.160	0.001172	0.00015514	5.1952e-05	795.01	2.0678e-06	1.2538e-06	981.07	287.9	1.4062e-06	1.3694e-06	413.82	156.5	111.03	40.549	1.2245e-06	64.31	6.4417e-06	2.3249e-06	7.1592e-07	673.44	3.0251e-08	2.537e-08	808.42	224.32	3.1239e-08	2.3663e-08	308.27	116.69	83.683	30.493	3.2534e-08	46.246	85.970	124.642	151.140	66.972	191.018	183.917	66.085	71.647	178.474	195.596	70.247	74.779	76.507	82.415	163.993	79.079	-8191	255	
2772.658	1	1	0	0	0.072852	0.25782	0.15663	0.19193	0.13994	0.057291	0.41797	0.095188	0.039807	0.054575	0.01188	0.18315	0.17852	0.06455	0.23512	0.22837	-3.0438	-4.2958	-3.6667	-3.9896	-4.1729	-3.4542	-4.0687	-4.1	-3.6312	-4.3125	-3.8438	-3.875	-4.1417	-3.5333	-3.9521	-4.1562	107.207	287.454	313.045	358.982	96.150	196.605	340.664	317.385	151.966	195.456	411.840	363.126	394.409	186.150	220.875	327.064	0.0011467	0.00013188	4.3635e-05	796.64	1.648e-06	1.4729e-06	989.55	288.09	1.6444e-06	1.0878e-06	417.48	157.82	111.5	40.791	1.3309e-06	64.644	6.5394e-06	2.2815e-06	7.9846e-07	674.64	2.9174e-08	2.6851e-08	813.56	224.28	3.18e-08	2.4253e-08	310.67	117.43	84.131	30.639	3.3665e-08	46.423	86.039	141.527	143.861	66.967	193.461	181.871	66.259	71.868	186.735	196.320	70.190	74.828	76.664	82.336	174.599	79.170	-8191	255	
2772.779	1	1	0	0	0.19109	0.087098	0.088285	0.27688	0.070543	0.19271	0.16406	0.217	0.16783	0.1279	0.19173	0.17162	0.15752	0.23356	0.31133	0.12212	-3.1146	-4.1917	-3.9583	-3.8	-4.25	-3.6083	-4.0354	-4.1813	-3.3917	-4.1438	-4.0208	-3.6229	-4.2896	-3.5187	-4	-4.1521	233.586	206.241	132.888	376.615	146.008	308.621	406.397	78.825	389.374	380.820	66.489	345.484	77.035	398.754	56.058	308.211	0.0011448	0.00013421	4.1344e-05	797.05	1.6652e-06	1.3627e-06	988.12	287.97	1.487e-06	1.0913e-06	418.72	158.56	111.82	40.773	1.421e-06	64.389	6.4422e-06	2.4416e-06	7.5382e-07	674.94	2.7756e-08	2.8251e-08	815.06	223.79	3.0222e-08	2.6136e-08	310.49	117.79	84.15	30.563	3.3469e-08	46.337	83.666	140.728	155.449	66.955	205.486	179.347	66.165	71.458	181.782	189.801	70.043	74.666	76.637	82.258	172.868	79.103	-8191	255	
2772.850	1	1	0	0	0.092962	0.15307	0.11316	0.065137	0.13131	0.13539	0.21093	0.19414	0.14789	0.067598	0.05277	0.17372	0.14607	0.21692	0.29477	0.20028	-3.175	-4.0854	-3.8104	-3.6771	-4.3271	-3.6354	-4.0125	-4.1438	-3.4354	-4.125	-4.0271	-3.6083	-4.2542	-3.8375	-3.8229	-4.4062	75.083	239.184	364.878	242.570	129.563	118.510	360.592	291.598	136.775	216.592	185.454	97.845	67.903	253.576	59.928	393.394	0.0011756	0.00015025	4.8156e-05	797.43	1.5555e-06	1.0449e-06	982.53	287.02	1.7603e-06	1.4111e-06	414.14	156.44	111.37	40.606	1.2375e-06	64.293	6.4189e-06	2.6652e-06	7.6234e-07	675.26	2.7802e-08	2.9316e-08	812.63	223.47	3.1053e-08	2.8759e-08	308.99	117.01	84.057	30.586	3.2134e-08	46.16	85.769	108.355	140.615	67.088	194.452	169.975	66.067	71.503	186.359	185.929	70.138	74.719	76.825	82.201	158.953	79.046	-8191	255	
2772.947	1	1	0	0	0.17967	0.11049	0.13209	0.16081	0.11267	0.12637	0.13806	0.074301	0.099318	0.14468	0.23686	0.025031	0.27868	0.20965	0.27354	0.20217	-3.25	-4.1083	-4.0021	-3.8	-4.2562	-3.8438	-3.8	-4.2542	-3.6667	-3.975	-4.2875	-3.6708	-4.1521	-4.0125	-3.7938	-4.4583	259.061	166.761	169.416	55.391	409.600	189.812	120.248	94.963	320.735	137.798	332.737	352.562	319.583	405.316	308.266	275.877	0.0011552	0.00014673	4.432e-05	797.69	1.5711e-06	1.3006e-06	984.47	287	1.8424e-06	1.164e-06	413.53	156.65	111.23	40.492	1.3572e-06	63.71	6.4276e-06	2.8244e-06	6.8895e-07	675.7	2.7832e-08	2.9311e-08	810.82	223.84	3.0497e-08	2.8659e-08	308.13	116.78	83.939	30.443	3.2784e-08	45.935	82.662	118.286	143.295	67.036	189.271	181.699	65.934	71.727	186.852	205.748	70.230	74.634	76.533	82.001	179.316	79.049	-8191	255	
2773.043	1	1	0	0	0.1974	0.17625	0.16279	0.30216	0.31996	0.031137	0.03074	0.21472	0.1356	0.060017	0.14581	0.21422	0.070056	0.36194	0.25911	0.16513	-3.4208	-3.9271	-4.2271	-3.7229	-4.3187	-3.8458	-3.6854	-4.3729	-3.75	-3.9188	-4.3562	-3.5812	-4.2208	-3.9979	-3.7313	-4.4042	240.993	135.599	345.637	303.634	334.539	347.393	163.213	361.601	145.235	215.938	303.560	319.547	382.824	385.460	206.941	302.710	0.0012105	0.00017551	4.226e-05	792.05	1.6257e-06	1.8021e-06	982.26	287.03	1.3169e-06	1.1697e-06	414.56	156.94	111.66	40.529	1.2269e-06	64.111	6.5038e-06	2.8322e-06	7.1948e-07	673.76	3.1398e-08	3.0156e-08	809.41	223.61	3.21e-08	2.8874e-08	308.56	117.03	84.136	30.497	3.2734e-08	46.094	85.607	129.848	150.693	67.072	197.910	171.938	66.049	72.045	172.982	212.098	70.115	74.475	76.554	82.054	181.703	79.175	-8191	255	
2773.163	1	1	0	0	0.030888	0.18735	0.15768	0.22521	0.28454	0.20434	0.0080864	0.071537	0.036078	0.33382	0.21807	0.20624	0.10747	0.24588	0.089406	0.18086	-3.4	-3.8	-4.2562	-3.5896	-4.1125	-4.0271	-3.7208	-4.3583	-3.7542	-3.9125	-4.225	-3.7	-4.1167	-4.1229	-3.6146	-4.3833	163.496	393.335	226.575	199.807	189.933	126.809	262.869	132.052	176.929	344.500	112.756	67.904	275.524	72.523	203.795	298.981	0.0011473	0.00012193	4.4695e-05	793.49	1.4523e-06	1.0272e-06	985.13	286.86	1.5089e-06	1.1424e-06	415.63	156.46	111	40.08	1.2152e-06	63.818	6.6348e-06	2.8427e-06	7.2113e-07	673.2	3.2295e-08	2.9091e-08	810.64	223.62	3.3668e-08	2.9353e-08	308.53	117.06	83.886	30.298	3.0778e-08	45.936	85.024	140.947	150.038	67.115	200.996	159.865	66.176	71.775	192.037	193.039	70.328	74.785	76.463	82.274	187.450	79.269	-8191	255	
2773.259	1	1	0	0	0.043273	0.086901	0.14663	0.14998	0.057778	0.073108	0.13996	0.16558	0.063164	0.255	0.11747	0.16057	0.1294	0.26607	0.11306	0.18254	-3.5	-3.7625	-4.1979	-3.7188	-4.1271	-4.1604	-3.9833	-4.2354	-3.9146	-3.9521	-4.4354	-4.0188	-4.0104	-4.2229	-3.4396	-4.3354	195.293	328.247	309.000	351.400	248.933	90.205	308.751	316.681	56.205	86.782	325.176	247.794	379.179	80.712	315.003	373.600	0.0011362	0.00014649	3.7281e-05	792.38	1.3319e-06	1.4852e-06	982.48	285.87	1.358e-06	1.1975e-06	412.72	155.36	110.52	40.101	1.3876e-06	63.289	6.5982e-06	2.802e-06	6.5004e-07	671.4	3.253e-08	2.7211e-08	806.8	222.72	3.4549e-08	2.8209e-08	306.63	116.09	83.515	30.193	3.1568e-08	45.607	84.936	141.561	152.104	66.910	196.376	169.485	66.065	71.796	176.475	185.673	70.195	74.689	76.672	82.040	169.938	79.135	-8191	255	
2773.356	1	1	0	0	0.21193	0.070722	0.092935	0.12074	0.045239	0.12845	0.06399	0.1549	0.15874	0.20404	0.12037	0.13195	0.16351	0.17874	0.2496	0.073025	-3.5833	-3.6021	-4.3438	-3.7708	-4.05	-4.1271	-3.7708	-4.1687	-3.9021	-3.7354	-4.4167	-3.8625	-3.9354	-4.3562	-3.6333	-4.0354	242.334	54.391	311.114	321.561	96.281	209.916	247.596	281.412	148.551	105.579	81.866	366.837	241.178	119.232	145.763	81.775	0.0011354	0.00014629	3.8959e-05	796.16	1.5455e-06	1.5482e-06	980.71	286.23	1.7639e-06	9.7148e-07	412.78	155.58	110.81	39.843	1.1805e-06	63.602	6.6133e-06	2.8038e-06	6.6161e-07	673.26	3.4559e-08	2.6475e-08	805.96	222.63	3.3147e-08	2.9023e-08	306.33	115.98	83.393	30.069	3.0167e-08	45.637	83.200	139.268	140.740	67.026	192.802	164.830	66.030	71.576	167.701	178.154	70.120	74.706	76.458	81.891	185.052	79.071	-8191	255	
2773.452	1	1	0	0	0.055792	0.28959	0.023923	0.40836	0.16998	0.17794	0.14286	0.095558	0.096348	0.18896	0.29303	0.12938	0.13384	0.10766	0.092781	0.24012	-3.8021	-3.5583	-4.2917	-3.9021	-3.9062	-4.3479	-3.7188	-3.8583	-4.0833	-3.5417	-4.3146	-3.8875	-3.975	-4.325	-3.7042	-4.2292	354.760	266.923	318.098	69.300	390.216	218.732	260.795	363.163	105.740	323.161	388.392	362.509	95.285	65.817	221.278	394.484	0.0011879	0.00012148	3.7262e-05	792.32	1.663e-06	1.6787e-06	979.23	286.17	1.6315e-06	8.7264e-07	415.68	156.49	110.65	40.117	1.3575e-06	63.919	6.6119e-06	2.6881e-06	6.4711e-07	672.59	3.3021e-08	2.7491e-08	807.48	223.26	3.2316e-08	2.7505e-08	308.41	116.74	83.683	30.28	3.2364e-08	46.014	84.931	128.603	143.267	66.941	189.068	172.990	66.083	71.641	183.843	186.972	70.143	74.452	76.570	81.905	171.301	79.038	-8191	255	
2773.548	1	1	0	0	0.18872	0.079824	0.22485	0.30183	0.097922	0.045927	0.10286	0.15203	0.18512	0.22973	0.28498	0.22063	0.19711	0.17663	0.34007	0.10096	-3.6813	-3.5062	-4.1521	-3.8521	-3.875	-4.1021	-3.7208	-4.1146	-4.1042	-3.5875	-4.3042	-3.8833	-3.6667	-4.4708	-3.5563	-4.1	279.116	410.336	193.087	315.115	162.524	77.517	297.626	196.416	269.483	78.043	394.352	66.384	96.693	329.221	394.376	397.519	0.0011559	0.00012217	5.1558e-05	796.69	1.6676e-06	1.163e-06	981.58	288.88	1.8799e-06	1.1261e-06	413.99	157.55	111.18	40.554	1.5526e-06	64.294	6.5147e-06	2.6222e-06	6.9582e-07	674.65	3.3863e-08	2.573e-08	810.07	224.48	3.0713e-08	2.7045e-08	309.47	117.28	84.124	30.423	3.2789e-08	46.1	83.823	123.919	139.217	67.038	195.060	181.967	65.935	71.718	178.395	175.275	70.135	74.563	76.613	82.221	172.374	78.999	-8191	255	
2773.644	1	1	0	0	0.1126	0.082562	0.17075	0.05808	0.093312	0.10918	0.058048	0.026461	0.035029	0.26507	0.32107	0.20388	0.24426	0.043226	0.28757	0.14936	-3.9396	-3.4479	-4.1	-4.0167	-3.4375	-4.4354	-3.8708	-3.9833	-4.0729	-3.7438	-3.9958	-4.025	-3.5896	-4.2688	-3.7896	-3.925	306.457	376.712	286.895	115.438	146.649	385.018	386.649	276.345	217.373	182.131	351.627	395.449	94.220	328.599	229.314	380.392	0.0011611	0.00012824	4.0244e-05	793.33	2.0018e-06	1.388e-06	981.76	287.89	1.3411e-06	1.0774e-06	415.3	157.58	111.73	40.336	1.0955e-06	63.875	6.5476e-06	2.5504e-06	7.659e-07	673	3.2901e-08	2.413e-08	809.64	224.46	2.9746e-08	2.6646e-08	308.44	117.04	84.111	30.408	3.4075e-08	45.968	84.467	109.757	152.189	66.984	200.489	185.421	66.200	71.840	199.279	197.690	70.015	74.652	76.460	81.964	166.201	79.041	-8191	255	
2773.763	1	1	0	0	0.40951	0.26812	0.065844	0.14221	0.28145	0.030638	0.15266	0.1143	0.052091	0.049265	0.10937	0.1198	0.10284	0.10565	0.14651	0.22722	-3.85	-3.5542	-4.1875	-4.2479	-3.5167	-4.2604	-3.8	-3.8729	-4.3063	-3.525	-4.0625	-4.0563	-3.6312	-4.275	-3.875	-3.9333	183.492	99.556	259.982	150.913	183.064	79.985	377.529	294.413	358.051	399.500	360.752	408.057	146.538	233.973	292.551	289.766	0.0011119	0.00011545	4.1571e-05	796.99	1.5656e-06	1.4104e-06	981.48	288.67	1.4061e-06	1.3168e-06	415.68	157.37	111.46	40.463	1.3363e-06	64.059	6.2469e-06	2.5843e-06	7.5433e-07	675.24	3.1604e-08	2.606e-08	808.99	224.42	2.9756e-08	2.8224e-08	309.27	116.94	84.022	30.481	3.3149e-08	46.04	86.301	135.446	145.064	67.066	191.730	161.265	65.967	71.866	178.136	203.124	69.997	74.708	76.385	82.221	173.239	79.327	-8191	255	
2773.859	1	1	0	0	0.11549	0.30341	0.11134	0.063995	0.067781	0.12482	0.036185	0.099741	0.16784	0.33065	0.24774	0.34031	0.20626	0.080223	0.10149	0.32657	-3.9021	-3.5229	-4.1687	-4.2417	-3.6792	-4.1937	-4.1729	-3.7292	-4.3021	-3.6604	-4.0333	-4.0771	-3.7562	-4.1854	-3.9813	-3.675	76.709	140.864	341.722	127.997	144.618	185.571	341.814	109.170	67.839	192.589	376.497	70.437	57.523	375.734	390.312	354.350	0.0011364	0.00013143	5.0704e-05	795.87	1.4028e-06	1.6858e-06	987.91	289.06	1.4447e-06	1.1855e-06	417.76	157.25	111.61	40.633	1.223e-06	64.433	6.3536e-06	2.6767e-06	7.9617e-07	675.56	3.0927e-08	2.64e-08	812.66	224.84	2.9045e-08	2.768e-08	310.14	117.47	84.354	30.567	3.2884e-08	46.309	85.506	125.744	144.225	67.057	189.394	187.896	66.383	71.866	177.711	209.013	70.072	74.623	76.748	81.932	175.295	79.260	-8191	255	
2773.955	1	1	0	0	0.15876	0.10551	0.16847	0.23198	0.039902	0.10402	0.15042	0.036157	0.081851	0.026955	0.18906	0.18056	0.34273	0.1731	0.28023	0.035907	-3.9437	-3.625	-4.0458	-4.2542	-3.8125	-3.8875	-4.1792	-3.7667	-4.1167	-3.8125	-3.6583	-4.2896	-3.4521	-4.0625	-4.0062	-3.6125	184.517	267.267	222.430	331.019	148.074	71.885	74.931	215.672	396.124	75.461	315.186	199.620	381.993	404.135	211.754	127.914	0.0011657	0.00014985	3.9606e-05	796.82	1.618e-06	1.4632e-06	989.02	288.3	1.6744e-06	1.3011e-06	416.63	157.58	111.29	40.428	1.5131e-06	63.848	6.2606e-06	2.829e-06	7.5916e-07	675.91	3.0016e-08	2.7091e-08	813.92	224.52	2.8504e-08	3.0237e-08	310.11	117.31	83.875	30.373	3.1979e-08	46.041	87.143	143.066	152.861	66.924	200.188	185.562	66.237	71.889	188.880	193.046	70.226	74.700	76.692	82.201	164.380	79.339	-8191	255	
2774.076	1	1	0	0	0.2209	0.19484	0.24602	0.22472	0.10581	0.14082	0.13929	0.11955	0.070487	0.040993	0.049179	0.065996	0.16196	0.13383	0.1628	0.021081	-3.6792	-3.6688	-3.6979	-4.2396	-3.5521	-3.9792	-4.1417	-3.5812	-4.2604	-3.9708	-3.6917	-4.3979	-3.7125	-4.1375	-4.0437	-3.6167	269.752	238.489	176.703	402.274	324.864	401.546	347.304	333.090	350.729	404.300	275.333	406.246	393.220	236.139	345.776	261.858	0.0011759	0.0001122	3.7111e-05	794.53	1.825e-06	1.3993e-06	983.99	288.23	1.6818e-06	1.2973e-06	414.76	156.72	111	39.957	1.1089e-06	63.273	6.34e-06	2.7718e-06	7.8294e-07	673.51	3.0947e-08	3.0476e-08	809.22	223.43	3.0117e-08	2.9528e-08	307.75	116.41	83.534	30.058	3.0408e-08	45.553	84.650	145.322	144.972	67.080	194.952	189.929	66.191	71.678	185.431	194.402	70.252	74.759	76.467	81.845	171.471	78.957	-8191	255	
2774.148	1	1	0	0	0.20234	0.188	0.20373	0.23384	0.059884	0.17124	0.082697	0.16919	0.28099	0.11935	0.16791	0.15683	0.16754	0.19621	0.15884	0.10608	-3.7917	-3.9583	-3.5958	-4.2458	-3.7	-4.0083	-3.9938	-3.6042	-4.0188	-3.925	-3.4542	-4.3354	-3.7	-4.0146	-4.2646	-3.675	75.935	239.901	297.800	282.543	327.663	304.072	405.694	256.090	250.471	203.457	332.085	282.159	59.186	409.573	263.493	63.811	0.0010925	0.000121	2.6671e-05	797.82	1.7625e-06	1.7837e-06	984.17	286.51	1.6956e-06	1.3058e-06	413.77	155.82	111.01	40.053	1.2932e-06	63.409	6.4344e-06	2.775e-06	7.7379e-07	674.8	3.2941e-08	2.9816e-08	808.79	223.3	3.2646e-08	2.9668e-08	308.04	116.31	83.59	30.136	3.1138e-08	45.689	84.486	125.212	155.315	67.183	208.126	167.117	66.244	71.800	197.756	193.325	70.254	74.472	76.678	82.224	172.207	78.949	-8191	255	
2774.244	1	1	0	0	0.14768	0.096853	0.17604	0.25511	0.23446	0.16221	0.1253	0.1758	0.044127	0.092115	0.19404	0.10662	0.18026	0.061352	0.18961	0.21282	-3.6604	-4.1229	-3.5646	-4.35	-3.7125	-3.8	-4.3833	-3.7292	-3.9125	-3.8896	-3.6771	-4.3521	-3.7313	-3.7812	-4.2917	-3.7771	226.648	207.154	93.424	303.491	263.810	54.264	354.472	297.646	96.543	200.766	369.653	59.503	162.380	263.665	377.656	246.525	0.0011333	0.00010874	3.8246e-05	796.62	2.0107e-06	1.5976e-06	986.43	286.79	1.6424e-06	1.0464e-06	416.01	156.97	110.82	40.115	1.0067e-06	63.383	6.6306e-06	2.7128e-06	7.3601e-07	675	3.4178e-08	2.8271e-08	810.44	223.68	3.2531e-08	2.7979e-08	308.92	116.83	83.636	30.092	2.8622e-08	45.742	84.826	115.605	150.467	66.918	187.465	165.477	66.184	71.749	178.343	207.806	70.084	74.692	76.482	82.153	166.943	79.100	-8191	255	
2774.340	1	1	0	0	0.10446	0.25319	0.050849	0.19193	0.17148	0.15035	0.048966	0.21121	0.095183	0.066572	0.064307	0.12586	0.29663	0.16843	0.11991	0.068378	-3.4396	-4.0542	-3.575	-4.225	-3.7458	-3.7917	-4.3104	-3.7271	-3.6875	-4.0208	-3.7271	-4.0583	-3.9688	-3.6521	-4.2688	-3.5125	288.584	194.233	174.800	289.328	186.429	313.719	245.705	331.637	318.374	367.673	385.635	290.033	409.223	125.469	411.067	347.120	0.0011001	9.7318e-05	4.6017e-05	795.22	1.6442e-06	1.6081e-06	984.67	287.64	1.6112e-06	6.6937e-07	415.65	156.63	110.98	39.849	1.2439e-06	63.137	6.4682e-06	2.6085e-06	7.1477e-07	673.86	3.3918e-08	2.8366e-08	811.88	223.42	3.3803e-08	2.6041e-08	308.72	116.83	83.59	30.041	2.8211e-08	45.493	86.425	119.928	163.583	66.964	183.922	184.943	66.127	71.645	174.462	207.841	70.079	74.507	76.334	82.081	187.772	79.171	-8191	255	
2774.459	1	1	0	0	0.2377	0.28364	0.20509	0.075665	0.17979	0.1966	0.36997	0.17908	0.1978	0.18434	0.125	0.10518	0.13293	0.18803	0.055903	0.056723	-3.4896	-4.0771	-3.525	-4.2521	-3.9146	-3.6771	-4.35	-3.6292	-3.7583	-4.1729	-3.6125	-4.1146	-4.1667	-3.4708	-4.3875	-3.7104	65.577	211.745	171.998	117.926	124.599	303.241	362.464	178.800	298.477	142.311	141.323	395.177	315.666	234.726	364.041	148.814	0.0011516	0.0001534	4.0721e-05	794.1	1.6452e-06	1.2445e-06	980.19	287.4	1.3754e-06	1.0603e-06	415.31	156.43	111.03	39.956	1.2012e-06	63.35	6.6576e-06	2.5866e-06	7.1643e-07	672.45	3.3748e-08	2.8146e-08	808.06	223.48	3.3172e-08	2.5372e-08	307.81	116.64	83.723	30.171	2.7996e-08	45.585	86.096	134.535	148.236	66.988	205.229	166.015	66.060	71.532	188.517	199.851	69.944	74.589	76.574	81.901	188.310	79.077	-8191	255	
2774.555	1	1	0	0	0.16	0.10396	0.048718	0.093173	0.20852	0.051357	0.17114	0.19209	0.15218	0.20035	0.069024	0.049977	0.13082	0.049337	0.19764	0.077501	-3.2667	-4.1292	-3.5917	-4.1896	-4.0646	-3.5167	-4.2854	-3.7042	-3.7313	-4.1167	-3.7521	-3.975	-4.1062	-3.5833	-4.1604	-3.9938	113.392	108.636	280.455	399.803	130.899	362.492	231.611	329.359	135.547	295.232	348.904	348.566	360.910	98.931	90.755	401.014	0.0011261	0.00013475	5.2946e-05	793.96	2.1789e-06	1.366e-06	979.5	284.65	1.7939e-06	1.4319e-06	413.4	156.24	110.54	39.877	1.2901e-06	63.557	6.5097e-06	2.56e-06	7.2177e-07	672.18	3.3402e-08	2.7756e-08	807.4	222.78	3.2326e-08	2.5027e-08	307.49	116.32	83.444	30.028	2.8401e-08	45.591	86.215	130.601	144.492	67.142	202.596	174.548	66.157	71.518	187.122	195.365	69.995	74.481	76.779	82.209	163.320	79.033	-8191	255	
2774.651	1	1	0	0	0.15197	0.26166	0.064801	0.21735	0.12167	0.15924	0.36271	0.25077	0.29522	0.12707	0.29265	0.27948	0.19745	0.14099	0.23288	0.42383	-3.3375	-4.4083	-3.6	-4.0021	-4.0125	-3.4188	-4.1813	-3.9062	-3.5417	-4.1312	-3.7396	-4.0771	-4.1083	-3.675	-4.1542	-3.8979	257.651	336.405	282.748	302.523	311.793	113.130	339.058	366.542	382.079	222.856	335.981	324.412	314.618	300.154	283.054	353.792	0.0011169	0.00013022	4.1606e-05	795.73	1.523e-06	1.4773e-06	981.17	286.88	1.5638e-06	1.0353e-06	414.46	156.18	110.67	39.96	1.1529e-06	63.624	6.3025e-06	2.3592e-06	7.0269e-07	673.56	3.0732e-08	2.7516e-08	808.06	222.94	3.2346e-08	2.4847e-08	308.22	116.52	83.305	30.009	3.1158e-08	45.748	85.685	130.219	148.579	67.070	202.694	181.545	65.965	71.703	178.901	188.939	70.044	74.602	76.673	82.028	166.465	79.150	-8191	255	
2774.724	1	1	0	0	0.22774	0.12531	0.12952	0.2411	0.19807	0.13071	0.35364	0.10717	0.21929	0.29776	0.26525	0.10769	0.029642	0.16206	0.21145	0.061774	-3.375	-4.2271	-3.8229	-3.9583	-4.1062	-3.7021	-4.1167	-3.8312	-3.5312	-4.2667	-3.8271	-3.7729	-4.075	-3.5854	-3.6354	-4.1167	68.842	369.782	378.077	317.271	177.480	333.473	325.595	256.577	118.876	360.728	90.889	337.090	136.485	189.795	338.137	167.043	0.0011204	0.00013034	5.462e-05	794.59	1.9938e-06	1.4088e-06	981.76	286.46	1.461e-06	1.4685e-06	414.49	157.12	110.7	39.993	1.3478e-06	63.285	6.4623e-06	2.26e-06	7.8282e-07	673.27	3.1068e-08	2.7686e-08	808.32	223.5	3.1184e-08	2.4957e-08	307.99	116.9	83.444	30.058	3.1583e-08	45.545	85.421	137.326	157.685	67.073	189.739	170.915	66.123	71.791	190.733	187.700	70.264	74.822	76.559	82.043	189.799	79.192	-8191	255	
2774.843	1	1	0	0	0.084817	0.14981	0.061418	0.26428	0.099602	0.16337	0.13987	0.23191	0.035423	0.10478	0.1933	0.26759	0.15684	0.21904	0.16363	0.17801	-3.325	-4.05	-3.8229	-3.5833	-4.2771	-3.7104	-3.9813	-4.175	-3.5104	-4.1354	-4.0563	-3.7521	-4.275	-3.6625	-3.7208	-4.2688	151.145	351.118	75.868	354.724	336.201	291.737	333.254	384.134	61.614	208.921	339.904	383.429	412.471	370.755	172.296	298.526	0.0011654	0.00016114	4.7025e-05	789.69	1.8419e-06	1.3294e-06	973.97	285.95	1.5723e-06	1.1551e-06	410.35	155.99	110.57	39.914	1.1464e-06	62.968	6.5198e-06	2.3958e-06	7.8727e-07	669.77	2.951e-08	2.6265e-08	803.75	222.79	3.0683e-08	2.6356e-08	306.12	116.13	83.424	29.981	3.3484e-08	45.182	84.308	129.926	147.122	67.024	203.764	204.240	66.331	71.879	169.748	195.728	70.032	74.561	76.400	81.850	166.407	79.266	-8191	255	
2774.939	1	1	0	0	0.22116	0.072836	0.057459	0.034061	0.058978	0.19549	0.187	0.079179	0.26086	0.1718	0.1157	0.11673	0.20945	0.27742	0.057595	0.1654	-3.0062	-4.1229	-3.7625	-3.5583	-4.1875	-3.7229	-4.15	-4.05	-3.7062	-4.1771	-4.0687	-3.8917	-4.1958	-3.9458	-3.9	-4.2854	118.289	286.427	142.278	385.816	265.896	125.138	281.374	114.035	89.564	171.335	391.225	159.534	105.509	141.801	244.568	354.624	0.001135	0.00015198	4.4734e-05	786.62	1.7242e-06	1.0619e-06	973.39	285.01	1.302e-06	1.355e-06	412.73	155.12	110.27	39.906	1.3396e-06	63.351	6.4335e-06	2.4841e-06	7.5306e-07	667.75	2.8067e-08	2.7901e-08	801.4	221.69	2.9701e-08	2.6795e-08	306.61	115.82	83.12	29.946	3.2794e-08	45.494	85.387	120.103	147.563	67.067	211.988	175.489	66.012	71.629	175.513	193.214	70.227	74.614	76.730	82.190	163.352	79.187	-8191	255	
2775.036	1	1	0	0	0.25064	0.11314	0.21671	0.078398	0.1378	0.14359	0.13015	0.25278	0.14556	0.034463	0.19524	0.2065	0.17524	0.3155	0.045235	0.18234	-3.2958	-3.85	-3.9667	-3.5521	-4.1958	-3.7	-3.9875	-4.3021	-3.6729	-3.9229	-4.2688	-3.5292	-4.1021	-3.7396	-3.7	-4.3292	196.871	253.652	280.351	122.354	384.367	186.053	209.688	330.425	220.792	112.826	396.392	82.990	385.135	339.833	388.232	321.460	0.0011517	0.00016282	5.1176e-05	789.13	1.244e-06	1.3763e-06	974.73	285.17	1.538e-06	1.0003e-06	414.58	156.08	110.69	40.058	1.2215e-06	63.78	6.423e-06	2.7165e-06	7.2558e-07	668.95	2.9986e-08	2.9586e-08	803.23	221.73	3.0037e-08	2.9453e-08	307.32	116.4	83.373	30.115	3.1638e-08	45.873	84.948	124.103	150.565	67.015	203.599	176.991	66.149	71.445	188.776	184.223	70.262	74.691	76.610	82.366	172.468	78.954	-8191	255	
2775.156	1	1	0	0	0.16291	0.086342	0.14882	0.29227	0.36255	0.28117	0.27802	0.17958	0.11484	0.15666	0.26088	0.32239	0.34729	0.18458	0.13795	0.13252	-3.3729	-3.9854	-3.9229	-3.625	-4	-3.9479	-3.6208	-4.3938	-3.6208	-3.8208	-4.1771	-3.5604	-4.2125	-3.8625	-3.6708	-4.3958	137.033	60.891	287.934	373.413	70.181	135.506	341.946	331.462	402.349	231.745	63.306	302.944	362.577	392.835	365.509	234.610	0.0011863	0.00011195	4.1081e-05	792.88	1.5445e-06	1.7676e-06	982.35	286.05	1.4915e-06	1.3046e-06	414.83	156.53	111.14	40.192	1.4286e-06	63.446	6.5426e-06	2.7691e-06	6.9824e-07	669.81	2.975e-08	2.9161e-08	806.66	222.22	3.182e-08	2.8514e-08	307.65	116.61	83.49	30.221	3.1928e-08	45.78	85.135	130.254	140.088	67.236	204.335	176.318	65.997	71.903	188.533	185.627	70.001	74.576	76.532	81.970	184.133	79.186	-8191	255	
2775.252	1	1	0	0	0.068721	0.19121	0.23718	0.25019	0.078271	0.39719	0.12126	0.15355	0.15527	0.09566	0.20318	0.096586	0.10008	0.07525	0.11465	0.12407	-3.2583	-3.7646	-4.2521	-3.5354	-3.9729	-3.9896	-3.6417	-4.275	-3.7458	-3.8125	-4.2625	-3.4333	-4.1146	-4.0979	-3.4604	-4.3125	389.128	396.969	284.452	318.328	172.049	379.834	388.911	333.490	363.943	303.093	77.440	101.644	209.216	330.966	260.105	185.997	0.001079	0.00014671	5.155e-05	786.77	1.696e-06	1.3584e-06	970.81	281.63	1.2628e-06	1.1057e-06	411.02	154.84	109.74	39.622	9.6051e-07	62.562	6.4002e-06	2.823e-06	6.8183e-07	666.38	3.0482e-08	2.8711e-08	799.96	220.52	3.197e-08	2.76e-08	304.37	115.26	82.687	29.775	3.0663e-08	45.039	85.302	130.846	144.047	67.127	200.856	183.524	65.928	71.857	187.311	184.189	70.153	74.864	76.588	82.145	177.822	79.339	-8191	255	
2775.349	1	1	0	0	0.10661	0.29682	0.15148	0.12974	0.22097	0.12864	0.25713	0.065869	0.1485	0.15128	0.036965	0.18214	0.17974	0.04923	0.25039	0.096906	-3.4	-3.6417	-4.2312	-3.6312	-4.2812	-4.2333	-3.5083	-4.1458	-3.8792	-3.4875	-4.4625	-3.5917	-3.9458	-4.1021	-3.4521	-4.3604	341.059	344.662	337.539	301.942	194.453	94.931	391.406	146.761	166.442	330.460	121.628	306.362	331.178	343.252	289.864	65.064	0.0011427	0.00015482	4.7968e-05	784.33	1.6455e-06	1.4041e-06	970.43	282.52	1.5512e-06	1.2231e-06	410.68	154.74	109.22	39.803	1.2865e-06	63.533	6.658e-06	2.7297e-06	6.77e-07	664.48	3.2781e-08	2.7511e-08	799.24	220.03	3.3122e-08	2.7385e-08	304.57	115.46	82.506	29.881	2.9727e-08	45.596	83.141	117.521	160.792	67.194	206.145	188.554	66.187	71.560	178.001	190.753	70.181	74.813	76.549	82.170	165.163	79.264	-8191	255	
2775.445	1	1	0	0	0.42113	0.18816	0.099996	0.14309	0.018522	0.089682	0.046938	0.065378	0.064806	0.061324	0.093707	0.27305	0.19057	0.20855	0.25191	0.18403	-3.6042	-3.6333	-4.2833	-3.8187	-3.8479	-4.1188	-3.7313	-4.1104	-3.9042	-3.7	-4.5042	-3.7396	-4.0687	-4.3812	-3.3729	-4.3958	136.048	226.522	332.815	342.332	208.012	251.051	391.668	175.406	72.581	332.591	382.322	303.356	320.114	391.188	238.344	401.030	0.0011446	0.00014848	4.7517e-05	787.57	1.6198e-06	1.6468e-06	973.62	285.31	1.3284e-06	1.093e-06	413.79	156.44	110.41	40.103	1.4946e-06	64.04	6.7251e-06	2.6954e-06	6.2663e-07	667.47	3.3427e-08	2.656e-08	804.55	222.05	3.1755e-08	2.7195e-08	307.07	116.46	83.214	30.174	3.0348e-08	46.056	83.956	128.394	157.059	67.096	194.677	193.116	66.309	71.786	193.767	195.347	70.234	74.827	76.404	82.302	183.615	79.178	-8191	255	
2775.541	1	1	0	0	0.15011	0.18533	0.14954	0.28325	0.33829	0.2249	0.17013	0.061864	0.17282	0.042837	0.1369	0.10177	0.074957	0.034019	0.27067	0.11223	-3.5125	-3.5187	-4.3896	-3.9583	-3.8104	-4.3271	-3.6208	-4.2542	-4.0625	-3.6688	-4.3333	-3.7833	-4.0333	-4.2896	-3.4562	-4.1042	96.698	140.661	77.991	293.409	61.407	346.489	292.529	69.024	398.274	209.736	410.795	93.317	235.199	285.578	191.519	148.564	0.0011331	0.00012683	3.806e-05	789.26	1.4153e-06	1.175e-06	976.59	285.32	1.3382e-06	1.3059e-06	413.95	156.92	111.25	40.549	1.1148e-06	64.429	6.3993e-06	2.5591e-06	6.2371e-07	669.27	3.2871e-08	2.555e-08	804.68	222.4	3.1604e-08	2.728e-08	308.18	116.88	83.722	30.481	2.9987e-08	46.226	86.778	148.262	160.678	67.114	188.867	174.214	66.212	71.817	187.008	181.779	70.324	74.925	76.610	82.257	174.635	79.292	-8191	255	
2775.635	1	1	0	0	0.24236	0.21316	0.28709	0.19552	0.13216	0.13595	0.13431	0.1095	0.022654	0.25165	0.28491	0.058117	0.046736	0.23902	0.11128	0.2141	-3.8208	-3.4729	-4.3417	-3.6896	-3.65	-4.2229	-3.7958	-4.025	-4.1625	-3.6292	-4.1792	-3.8063	-3.8187	-4.2167	-3.6667	-3.975	102.847	333.490	362.418	362.402	238.495	76.268	393.449	400.392	121.307	79.559	327.630	359.828	223.450	355.312	165.806	387.521	0.0011558	0.00012911	4.7285e-05	792.31	1.607e-06	1.4792e-06	975.01	285.7	1.7371e-06	8.523e-07	412.1	155.39	110.25	40.148	1.3298e-06	63.327	6.3997e-06	2.6094e-06	6.4024e-07	670.57	3.1934e-08	2.523e-08	802.1	222.73	3.0092e-08	2.5202e-08	305.5	115.96	83.131	30.207	3.0803e-08	45.65	85.243	132.790	150.764	67.099	189.808	171.812	66.115	71.735	175.106	196.350	70.276	74.687	76.516	82.314	172.722	79.216	-8191	255	
2775.756	1	1	0	0	0.12156	0.12719	0.14686	0.095125	0.12238	0.077398	0.092631	0.15452	0.071905	0.17826	0.20914	0.098601	0.16788	0.30701	0.075744	0.23195	-3.6708	-3.6875	-3.8208	-3.9083	-3.6104	-4.2562	-3.8771	-3.8187	-4.4479	-3.5229	-4.3063	-4.0583	-3.7333	-4.3688	-3.6125	-3.925	408.412	278.500	77.434	398.261	204.872	398.947	405.820	383.520	256.064	276.664	299.185	111.951	306.442	386.502	221.486	182.956	0.001134	0.00012777	5.6218e-05	789.53	1.7552e-06	1.1248e-06	975.27	286.56	1.8275e-06	7.3777e-07	412.28	156.55	110.63	40.229	1.2329e-06	63.878	6.3381e-06	2.4242e-06	7.3283e-07	669.55	3.2125e-08	2.349e-08	801.44	223.21	3.1374e-08	2.5861e-08	306.81	116.67	83.627	30.25	3.2004e-08	45.882	84.245	131.821	146.477	67.081	195.210	203.385	66.238	72.013	188.102	176.423	70.380	74.893	76.926	82.208	181.387	79.153	-8191	255	
2775.852	1	1	0	0	0.045531	0.15853	0.025324	0.21577	0.16071	0.062184	0.079089	0.39024	0.042786	0.04426	0.034525	0.10183	0.076319	0.27217	0.17726	0.13874	-3.875	-3.5208	-4.2458	-4.2604	-3.7042	-4.1687	-3.9688	-3.6479	-4.3229	-3.6792	-3.9854	-3.8583	-3.6312	-4.1333	-3.8583	-3.7979	111.884	286.923	311.440	379.717	174.686	278.977	363.057	285.249	308.729	171.136	287.294	112.863	329.205	73.603	216.328	351.123	0.0011633	0.00010466	4.5639e-05	789.29	1.5514e-06	1.8763e-06	973.28	285.16	1.225e-06	1.3684e-06	412.59	156.49	110.14	39.873	1.0101e-06	63.166	6.3692e-06	2.4997e-06	7.2915e-07	668.17	2.9931e-08	2.489e-08	801.06	222.83	2.7818e-08	2.4972e-08	306.62	116.27	83.199	29.998	3.2574e-08	45.452	85.248	123.441	158.914	66.933	196.716	174.437	66.171	71.726	178.823	184.636	70.393	74.547	76.630	82.092	168.584	78.970	-8191	255	
2775.948	1	1	0	0	0.30068	0.033624	0.2588	0.12805	0.17188	0.057518	0.13416	0.049201	0.23643	0.029195	0.12089	0.24137	0.35598	0.11178	0.14158	0.11039	-3.9229	-3.675	-3.7438	-4.0813	-3.5021	-4.3229	-4.0333	-3.6542	-4.2771	-3.7708	-4.0729	-4.2063	-3.7604	-3.9708	-4.05	-3.5438	326.188	125.348	76.845	394.647	141.183	371.590	68.967	140.297	153.153	116.663	395.948	63.343	57.005	328.961	371.402	194.098	0.0011313	0.00010156	3.9837e-05	787.08	1.6096e-06	1.5778e-06	972.15	284.03	1.715e-06	8.2476e-07	410.64	154.9	109.97	39.603	1.3003e-06	62.589	6.0087e-06	2.4617e-06	7.5242e-07	664.81	3.0136e-08	2.5935e-08	801.26	220.96	2.7622e-08	2.7435e-08	305.18	115.74	82.634	29.825	3.1473e-08	45.058	84.663	127.373	150.011	67.036	204.656	176.202	66.088	71.736	191.654	195.571	70.438	74.562	76.401	82.082	188.617	79.065	-8191	255	
2776.020	1	1	0	0	0.28226	0.15046	0.12914	0.29927	0.24241	0.23631	0.32445	0.091387	0.062258	0.21329	0.14869	0.21528	0.1803	0.19438	0.1368	0.15073	-3.8917	-3.4771	-3.8833	-4.1542	-3.5896	-4.3146	-4.0813	-3.6271	-4.1896	-3.7375	-3.6854	-4.2729	-3.6188	-4.1729	-4.1	-3.6542	390.752	158.624	316.558	110.306	105.387	388.623	64.338	266.627	240.083	109.900	394.734	352.743	300.371	400.533	270.177	287.006	0.0011146	0.00013585	3.521e-05	782	1.8424e-06	1.4531e-06	968.32	282.84	1.6799e-06	8.834e-07	411.15	155.49	110.85	40.114	1.0626e-06	63.238	6.0114e-06	2.6035e-06	7.4517e-07	663.47	3.0251e-08	2.8166e-08	797.83	220.71	2.7968e-08	2.8529e-08	305.48	115.91	83.374	30.147	3.0157e-08	45.558	84.295	135.990	127.140	66.974	195.844	172.956	66.231	71.574	180.965	181.530	70.238	74.455	76.701	82.274	176.793	79.163	-8191	255	
2776.140	1	1	0	0	0.19657	0.11187	0.23988	0.12273	0.17032	0.094287	0.038204	0.24819	0.094811	0.13854	0.37266	0.1879	0.2233	0.29466	0.056998	0.16995	-3.8167	-3.775	-3.7729	-4.3458	-3.7396	-3.9437	-4.2	-3.5875	-4.1937	-3.6188	-3.7938	-4.3354	-3.7542	-3.9667	-4.3292	-3.5583	71.921	58.734	359.282	337.939	201.362	207.764	398.460	336.926	207.385	249.989	369.888	336.774	380.591	399.721	402.117	76.934	0.0010946	0.00011487	5.7749e-05	790.07	1.4172e-06	9.25e-07	968.75	284.27	1.2717e-06	1.141e-06	411.25	157.07	111.3	40.035	1.4457e-06	63.493	6.1205e-06	2.8793e-06	7.9693e-07	666.76	3.0762e-08	2.9301e-08	798.75	221.52	2.8554e-08	3.0107e-08	306.28	116.64	83.644	30.069	3.2274e-08	45.691	86.425	137.152	158.210	67.061	194.231	193.044	66.198	71.697	181.674	193.636	70.160	74.546	76.602	82.336	173.575	78.989	-8191	255	
2776.237	1	1	0	0	0.23075	0.21254	0.20618	0.19314	0.084725	0.22056	0.13405	0.1767	0.20279	0.11464	0.045805	0.080262	0.24143	0.24512	0.047905	0.10716	-3.9625	-3.8125	-3.725	-4.325	-3.7167	-3.9771	-4.4708	-3.525	-4.2063	-3.9146	-3.9271	-4.35	-3.8021	-3.9688	-4.1458	-3.7104	131.999	207.423	78.455	72.164	209.618	301.228	393.003	391.691	248.139	80.929	118.921	140.770	380.066	394.457	369.373	350.089	0.0011142	0.00014555	5.2333e-05	792.97	1.389e-06	1.1919e-06	972.42	288.52	1.361e-06	1.1327e-06	418.63	158.4	113.41	41.158	1.9006e-06	64.418	6.5097e-06	2.8537e-06	7.6298e-07	670.47	3.2991e-08	3.0791e-08	802.53	224.12	3.1785e-08	3.0012e-08	310.82	118.34	85.396	30.892	3.2004e-08	46.492	84.171	118.608	148.586	67.046	203.324	203.108	66.191	71.658	189.519	193.044	70.262	74.645	76.674	81.935	178.289	79.056	-8191	255	
2776.333	1	1	0	0	0.3133	0.11002	0.12	0.12444	0.18354	0.074429	0.14965	0.1845	0.12957	0.14361	0.069913	0.07559	0.18039	0.057655	0.21079	0.25121	-3.6792	-3.8187	-3.5771	-4.1458	-3.5896	-3.7417	-4.3167	-3.6833	-3.9354	-4.0979	-3.8042	-4.2625	-3.9271	-3.8292	-4.2125	-3.7375	101.542	69.274	301.248	360.868	401.372	284.493	409.835	355.361	64.274	73.324	333.510	316.889	55.100	66.457	225.264	351.621	0.0011192	0.00014055	4.8258e-05	799.06	1.6034e-06	1.4437e-06	974.34	287.77	1.372e-06	1.2018e-06	410.13	156.19	111.34	39.788	1.4188e-06	62.022	6.6986e-06	2.8198e-06	7.7595e-07	676.22	3.4409e-08	2.9986e-08	800.32	224.37	3.3683e-08	2.8114e-08	306.51	116.62	83.868	29.926	2.9452e-08	44.726	83.390	132.170	145.214	67.128	201.429	196.294	66.093	71.809	190.280	175.476	70.286	74.546	76.740	82.168	167.596	78.976	-8191	255	
2776.429	1	1	0	0	0.057815	0.1609	0.24454	0.1883	0.41268	0.11119	0.12409	0.23294	0.19529	0.16414	0.034926	0.034042	0.19607	0.10277	0.21917	0.31487	-3.4354	-4.2312	-3.5812	-4.3104	-3.8708	-3.7208	-4.2396	-3.7271	-3.925	-4.1646	-3.5854	-4.1021	-4.0271	-3.6771	-4.3667	-3.7875	117.810	259.783	332.219	272.283	121.937	329.749	404.182	251.673	385.934	167.911	409.003	222.792	60.119	215.301	348.656	357.449	0.001119	0.00011684	3.2724e-05	783.61	1.6556e-06	1.5079e-06	962.37	281.71	1.6684e-06	9.2285e-07	404.83	153.94	109.49	38.716	1.4156e-06	60.718	6.6772e-06	2.6529e-06	7.121e-07	664.86	3.4539e-08	2.9531e-08	789.61	219.81	3.4409e-08	2.7844e-08	301.71	114.76	82.392	29.118	2.9282e-08	43.657	85.931	135.388	146.043	67.108	202.526	188.668	66.144	71.842	189.122	191.693	70.108	74.713	76.289	81.919	187.928	78.842	-8191	255	
2776.548	1	1	0	0	0.33187	0.085144	0.066623	0.11739	0.06586	0.24892	0.044341	0.14555	0.17567	0.17696	0.22688	0.35807	0.33587	0.29801	0.099038	0.15003	-3.5479	-4.2375	-3.5604	-3.9813	-3.7729	-3.5167	-4.3083	-3.7958	-3.7938	-4.0271	-3.8375	-4.2604	-3.9375	-3.6396	-4.1687	-3.7812	188.499	310.281	129.063	259.832	216.418	411.209	375.348	391.151	142.163	115.025	296.165	368.540	403.446	302.837	75.277	297.491	0.0011424	0.00013	3.0278e-05	777.97	1.9979e-06	1.3663e-06	951.52	279.4	1.6727e-06	1.1017e-06	403.45	153.46	108.86	38.464	1.4207e-06	60.47	6.6083e-06	2.5454e-06	7.0956e-07	658.44	3.491e-08	2.8681e-08	784.17	217.72	3.3593e-08	2.9398e-08	300.43	114.18	81.958	28.933	2.7691e-08	43.55	85.925	111.863	137.449	67.031	194.184	167.719	66.290	71.665	189.025	188.334	70.321	74.662	76.482	82.238	175.989	78.885	-8191	255	
2776.621	1	1	0	0	0.21674	0.1579	0.086745	0.2922	0.08852	0.17251	0.22037	0.085581	0.079827	0.057248	0.0752	0.068449	0.039385	0.24721	0.060649	0.11543	-3.3312	-4.2208	-3.5187	-3.9521	-4.0604	-3.6437	-4.3542	-3.7333	-3.8	-4.1979	-3.7125	-4.2042	-3.9813	-3.4729	-4.2146	-4.025	270.631	379.366	242.138	314.302	131.431	324.498	401.941	136.047	232.945	125.081	236.132	170.387	379.797	373.162	78.745	278.473	0.0010651	0.00016541	4.6682e-05	778	1.525e-06	1.5589e-06	954.29	281.57	1.7119e-06	8.6902e-07	408.46	154.98	110.39	39.576	1.3104e-06	61.928	6.5631e-06	2.7663e-06	7.9897e-07	658.44	3.4795e-08	3.1326e-08	787.07	219.52	3.7034e-08	2.782e-08	303.35	115.86	83.225	29.735	3.1803e-08	44.599	85.333	128.059	144.228	67.047	190.701	168.175	66.004	71.777	186.995	187.274	70.245	74.752	76.656	81.949	177.574	78.968	-8191	255	
2776.717	1	1	0	0	0.086395	0.18392	0.14675	0.084364	0.043031	0.27782	0.08714	0.11732	0.34771	0.062485	0.15042	0.12883	0.1785	0.27227	0.037658	0.18645	-3.2708	-4.0917	-3.6167	-3.9375	-4.1542	-3.4125	-4.3208	-3.775	-3.5479	-4.2896	-3.6375	-3.9333	-4.1438	-3.5417	-4.225	-4.0563	92.145	275.471	406.030	409.389	254.864	152.338	248.011	353.092	108.048	388.048	390.278	266.593	167.972	375.484	197.001	380.059	0.0011118	0.00011832	4.7796e-05	780.44	1.4574e-06	1.321e-06	949.76	282.24	1.3016e-06	1.4286e-06	403.56	154.17	110.27	39.498	1.1486e-06	61.962	6.8164e-06	2.7343e-06	8.2008e-07	659.73	3.6222e-08	3.0536e-08	783.7	219.87	3.5471e-08	2.8139e-08	301.54	115.13	83.045	29.782	3.499e-08	44.487	84.026	138.303	134.670	66.906	184.118	187.931	66.108	71.646	184.762	201.355	70.168	74.667	76.803	82.292	159.442	78.826	-8191	255	
2776.836	1	1	0	0	0.073588	0.22412	0.16795	0.17766	0.026017	0.23762	0.13425	0.15614	0.099368	0.049723	0.29422	0.17796	0.2227	0.19215	0.13198	0.11054	-3.3479	-4.1646	-3.6021	-3.9437	-4.2604	-3.6396	-4.1813	-4.1958	-3.5083	-4.3208	-3.8771	-4.1312	-4.2021	-3.6625	-4.1083	-4.1875	392.677	328.403	366.304	372.981	223.729	406.840	313.558	85.712	313.156	213.914	384.347	65.474	78.122	54.565	128.563	240.981	0.0011106	9.0299e-05	3.9187e-05	778.42	1.7355e-06	1.5546e-06	948.8	282.32	1.7308e-06	1.4418e-06	406.04	154.99	111.81	39.784	1.2557e-06	61.32	6.7151e-06	2.6497e-06	8.3598e-07	659.24	3.3988e-08	2.9056e-08	780.31	220.6	3.5251e-08	2.7325e-08	302.22	115.64	83.883	29.878	3.4055e-08	44.078	86.774	150.217	134.828	67.292	196.208	166.888	66.272	72.153	190.330	189.954	70.050	74.702	76.642	81.788	190.118	79.031	-8191	255	
2776.932	1	1	0	0	0.20392	0.17366	0.11452	0.28745	0.10808	0.2549	0.024038	0.1104	0.060972	0.22878	0.36188	0.2023	0.22937	0.17268	0.14241	0.17344	-3.1396	-4.1792	-3.6542	-3.9396	-4.2271	-3.5167	-4.1667	-4.0458	-3.4437	-4.0813	-4.0458	-3.6292	-4.3479	-3.7208	-3.8479	-4.2292	60.566	99.749	68.794	341.246	290.473	219.244	339.965	318.937	74.348	200.297	142.758	69.417	304.416	97.306	185.262	359.547	0.0010706	0.000116	4.6107e-05	772.85	1.6368e-06	1.1694e-06	936.99	279.46	1.462e-06	1.2055e-06	397.93	152.46	108.33	37.83	1.2085e-06	59.182	6.387e-06	2.5308e-06	8.0253e-07	655.42	3.0191e-08	2.8251e-08	771.65	216.86	3.0558e-08	2.728e-08	296.07	113.31	81.671	28.457	3.386e-08	42.503	88.311	121.615	156.138	67.028	192.004	162.434	66.161	71.844	189.339	193.145	70.076	74.468	76.313	81.872	178.334	78.844	-8191	255	
2777.029	1	1	0	0	0.20291	0.0728	0.25725	0.094822	0.14422	0.09733	0.1735	0.030092	0.12929	0.15865	0.177	0.16233	0.10669	0.27598	0.020732	0.34454	-3.3167	-3.9958	-3.9354	-3.6104	-4.225	-3.5938	-4.0625	-4.2833	-3.6729	-4.0833	-4.1396	-3.6458	-4.1646	-3.6917	-3.8937	-4.3313	130.951	358.983	131.149	410.121	287.810	305.423	384.599	283.728	60.895	212.174	76.853	54.861	363.943	125.225	270.554	358.759	0.0010435	0.00012635	3.7637e-05	759.9	1.82e-06	1.3897e-06	930.24	274.05	1.3478e-06	1.09e-06	396.63	150.44	106.82	36.839	1.4574e-06	58.021	6.1456e-06	2.533e-06	8.0304e-07	645.97	2.9114e-08	3.0221e-08	766.4	213.33	2.88e-08	2.7095e-08	294.56	112.02	80.329	27.667	3.3614e-08	41.646	83.807	142.987	142.699	67.240	203.393	169.051	66.024	71.704	188.866	208.784	70.145	74.476	76.398	81.606	187.482	78.591	-8191	255	
2777.125	1	1	0	0	0.12005	0.13906	0.10148	0.13502	0.080324	0.04064	0.16512	0.021679	0.093583	0.16519	0.11099	0.099665	0.076814	0.24098	0.099983	0.17952	-3.2208	-4.0292	-3.8167	-3.4896	-4.1125	-3.5938	-3.8438	-4.3542	-3.575	-4.1625	-3.8479	-3.5646	-4.1833	-3.8063	-3.7	-4.2208	79.670	224.684	177.001	337.862	295.870	228.019	310.263	119.447	326.496	154.067	87.318	325.476	117.451	265.746	304.350	313.260	0.0010382	0.00012866	4.0728e-05	761.85	1.6686e-06	1.6621e-06	927.35	272.43	1.4698e-06	9.1632e-07	396.48	148.66	106.51	36.424	1.0073e-06	57.551	6.0205e-06	2.6232e-06	7.0778e-07	643.46	2.9074e-08	2.8971e-08	765.41	211.91	2.9075e-08	2.7535e-08	293.72	111.22	79.961	27.366	3.2204e-08	41.482	84.452	130.405	151.854	67.071	200.261	178.586	65.867	71.654	181.528	199.094	69.834	74.295	76.186	81.374	166.963	78.850	-8191	255	
2777.245	1	1	0	0	0.038528	0.23415	0.10685	0.10051	0.17821	0.20255	0.082078	0.096036	0.13907	0.088675	0.066613	0.086931	0.15112	0.16753	0.19275	0.14998	-3.1625	-3.9938	-4.0333	-3.6063	-4.1208	-3.7542	-4.0354	-4.2521	-3.6688	-3.8187	-4.275	-3.3354	-4.175	-3.9604	-3.8104	-4.2417	361.949	220.589	236.816	359.123	342.319	226.696	203.943	399.606	387.244	323.314	392.649	125.528	146.876	56.533	94.391	369.469	0.00096062	0.00015653	4.4188e-05	765.1	1.9008e-06	1.6539e-06	938.49	275.7	1.2792e-06	1.0159e-06	397.31	149.99	106.95	37.09	9.3246e-07	58.685	6.0584e-06	2.8587e-06	7.0358e-07	648.13	3.0071e-08	3.0881e-08	773.5	213.95	3.1063e-08	3.0252e-08	295.25	111.9	80.382	27.856	3.2274e-08	42.302	83.988	126.045	133.946	66.919	196.956	186.063	66.161	71.541	180.658	189.254	70.188	74.325	76.386	81.691	159.607	78.755	-8191	255	
2777.317	1	1	0	0	0.12778	0.096654	0.11613	0.15173	0.31781	0.13673	0.11556	0.072321	0.31236	0.082957	0.12145	0.059715	0.18668	0.087915	0.080109	0.07473	-3.4521	-3.8375	-4.1167	-3.8229	-3.9792	-4.0021	-3.5917	-4.1792	-3.7562	-3.7896	-4.175	-3.7146	-4.0667	-4.1042	-3.5958	-4.2375	124.544	75.160	295.492	310.637	75.125	204.329	299.400	91.580	82.785	368.354	358.402	374.758	295.572	302.568	166.575	271.278	0.0010677	0.000132	6.0918e-05	772.85	1.2908e-06	1.2605e-06	944.27	277.29	1.8191e-06	1.3654e-06	403.34	152.35	108.07	38.202	1.3188e-06	60.349	6.4477e-06	2.8285e-06	7.481e-07	650.65	3.3938e-08	3.0611e-08	776.93	216.09	3.483e-08	3.1306e-08	299.04	113.45	81.497	28.663	3.3184e-08	43.343	85.059	139.940	132.787	67.097	199.922	181.215	66.113	71.841	175.818	203.340	70.103	74.694	76.340	81.775	174.855	78.938	-8191	255	
2777.438	1	1	0	0	0.11709	0.12065	0.23388	0.30996	0.13151	0.032837	0.098884	0.14312	0.14512	0.077796	0.12612	0.061476	0.12048	0.22244	0.17098	0.094277	-3.5292	-3.6063	-4.3167	-3.8	-4.0396	-4.0042	-3.6583	-4.4187	-3.7917	-3.8021	-4.4604	-3.5187	-4.0312	-4.1604	-3.6042	-4.1458	91.287	162.114	339.238	310.871	152.849	164.033	351.970	84.445	222.409	365.516	395.852	338.288	62.055	74.983	300.124	299.886	0.0011265	0.00011616	4.2432e-05	770.9	1.7929e-06	1.2243e-06	948.07	278.94	1.3193e-06	1.2105e-06	401.87	152.27	107.85	37.862	1.2273e-06	59.981	6.7981e-06	2.9625e-06	7.4517e-07	652.59	3.5075e-08	3.0021e-08	779.88	216.44	3.5872e-08	3.0987e-08	298.87	113.24	81.127	28.457	3.2939e-08	43.052	82.815	140.524	157.556	67.206	205.246	179.116	66.133	71.709	193.450	197.551	70.150	74.678	76.401	81.970	161.307	79.022	-8191	255	
2777.532	1	1	0	0	0.097324	0.096683	0.12305	0.20559	0.21402	0.27001	0.11146	0.066251	0.064654	0.13933	0.12552	0.15405	0.080169	0.044333	0.44003	0.11198	-3.4604	-3.7687	-4.2833	-3.8042	-3.8021	-3.9979	-3.8625	-4.2854	-3.9021	-3.6896	-4.3979	-3.75	-4.0583	-4.2021	-3.5146	-4.0938	264.071	300.594	184.794	133.696	254.812	361.660	355.660	130.357	294.136	152.297	361.034	348.164	383.316	236.606	148.389	138.898	0.0010153	9.9504e-05	3.1754e-05	760.81	1.2393e-06	1.4827e-06	937.69	276.37	1.5983e-06	1.3096e-06	401.28	151.68	108.17	38.154	1.2829e-06	60.837	6.6895e-06	2.9067e-06	7.2431e-07	646.51	3.5315e-08	3.0176e-08	772.9	214.99	3.6197e-08	3.1012e-08	297.47	112.98	81.318	28.823	3.1293e-08	43.812	86.141	133.063	154.815	66.921	204.287	176.605	66.122	71.647	184.421	190.804	70.214	74.645	76.491	81.989	191.159	79.289	-8191	255	
2777.628	1	1	0	0	0.075979	0.084518	0.21943	0.07864	0.030486	0.17242	0.13872	0.2279	0.16951	0.045767	0.099848	0.21484	0.21609	0.20729	0.11779	0.2281	-3.6021	-3.5438	-4.1333	-3.8646	-3.7396	-4.1542	-3.525	-3.9396	-4.0292	-3.6146	-4.3438	-3.75	-3.8396	-4.1458	-3.5583	-4.3521	79.664	79.783	308.414	350.845	249.833	367.989	373.855	328.960	378.658	139.572	245.732	319.021	365.288	381.849	136.637	386.803	0.0010825	0.00013546	3.7343e-05	769.34	1.1046e-06	1.4434e-06	941.15	278.7	1.9932e-06	1.18e-06	402.41	152.42	108.48	38.909	1.4134e-06	61.058	6.5996e-06	2.7069e-06	6.5589e-07	651.58	3.3497e-08	2.7016e-08	772.94	217.22	3.3603e-08	2.7315e-08	298.43	113.51	81.862	29.206	3.0628e-08	43.947	84.446	131.631	138.929	67.006	173.013	170.886	66.397	71.754	195.130	202.857	70.311	74.639	76.385	82.000	176.533	79.012	-8191	255	
2777.724	1	1	0	0	0.11813	0.16988	0.1409	0.064216	0.067632	0.19043	0.31163	0.1215	0.12491	0.094682	0.10113	0.18185	0.09656	0.14302	0.067132	0.24967	-3.6146	-3.4646	-4.2458	-4.0458	-3.8667	-4.2833	-3.7958	-4.0854	-3.9646	-3.5333	-4.3396	-3.7417	-3.7854	-4.2708	-3.6729	-4.0917	393.801	183.225	238.321	243.879	66.658	287.214	364.088	165.795	268.271	299.799	171.982	70.887	155.372	263.999	342.006	340.893	0.0011094	0.00014115	4.453e-05	765.26	1.8245e-06	1.3204e-06	941.15	276.67	1.1852e-06	9.2146e-07	400.25	151.68	107.36	38.051	1.535e-06	60.418	6.2583e-06	2.5866e-06	6.5983e-07	648.51	3.3607e-08	2.4675e-08	773.86	215.6	3.2e-08	2.6835e-08	297.62	113.13	81.11	28.659	3.1063e-08	43.548	87.001	133.021	146.332	67.200	212.891	177.763	66.252	71.868	194.839	191.654	70.235	74.632	76.429	81.965	167.257	79.040	-8191	255	
2777.820	1	1	0	0	0.12242	0.20921	0.11389	0.16537	0.26338	0.11639	0.12954	0.088323	0.19085	0.063656	0.15923	0.19215	0.2931	0.12695	0.28738	0.37221	-3.7958	-3.4479	-4	-4.0958	-3.6708	-4.2021	-3.7812	-3.9833	-4.1917	-3.6562	-4.1917	-4.0646	-3.7833	-4.2312	-3.7792	-4.1771	321.239	372.819	68.748	126.938	169.554	219.898	277.441	309.565	353.355	273.968	292.273	401.222	409.107	78.520	164.938	388.807	0.0010389	0.00013536	3.549e-05	768.19	1.7057e-06	1.3688e-06	943.94	276.23	1.5037e-06	9.9147e-07	403.47	151.89	107.69	37.54	1.5038e-06	60.28	6.1369e-06	2.6149e-06	7.1376e-07	650.28	3.1989e-08	2.3645e-08	778.19	215.32	3.0077e-08	2.6016e-08	299.15	113.28	80.927	28.284	3.4145e-08	43.378	85.480	142.264	131.261	67.057	197.202	170.879	66.224	71.870	192.963	176.866	70.205	74.461	76.495	81.732	183.911	78.927	-8191	255	
2777.917	1	1	0	0	0.31732	0.15415	0.11161	0.035642	0.14067	0.22811	0.16887	0.14907	0.061703	0.25481	0.15804	0.26239	0.24617	0.19736	0.20563	0.080149	-3.6521	-3.6437	-4.1271	-3.9896	-3.6646	-4.4167	-3.7625	-3.75	-4.3271	-3.5146	-4.2167	-4.1229	-3.5125	-4.1875	-3.9271	-3.7104	406.952	85.067	397.075	293.463	335.402	387.340	351.528	295.475	106.231	304.112	57.940	173.139	228.697	111.869	219.421	99.585	0.0010368	0.00012669	4.7804e-05	772.96	1.4325e-06	1.5063e-06	953.1	278.34	1.3605e-06	1.0653e-06	403.11	152.01	107.52	37.649	1.1116e-06	60.756	6.0429e-06	2.6103e-06	7.5929e-07	654.71	3.1038e-08	2.5755e-08	784.65	216.8	2.8975e-08	2.6326e-08	299.54	113.21	80.957	28.438	3.2174e-08	43.608	84.313	122.867	156.093	67.152	198.901	185.132	65.928	71.884	178.477	183.914	70.059	74.677	76.299	81.912	174.534	78.761	-8191	255	
2778.013	1	1	0	0	0.046927	0.13203	0.06781	0.22473	0.082015	0.18615	0.11248	0.13068	0.11656	0.20186	0.20276	0.21488	0.039769	0.14388	0.17526	0.2005	-3.8854	-3.6896	-3.8667	-4.3438	-3.3917	-4.1833	-4.1167	-3.425	-4.2438	-3.6875	-4.0021	-3.9604	-3.7167	-4.4167	-3.7917	-3.7875	220.216	266.115	291.578	225.228	305.745	284.755	238.763	367.717	372.293	285.024	92.173	72.650	76.006	80.552	135.784	331.364	0.0010811	0.00013975	5.0951e-05	777.37	1.4109e-06	1.5449e-06	957	280.94	1.4453e-06	1.2384e-06	405.1	153.17	108.72	38.43	1.0297e-06	60.992	6.1346e-06	2.6149e-06	7.9108e-07	658.47	3.0602e-08	2.8321e-08	788.26	218.51	2.8479e-08	2.8189e-08	301.31	114.24	81.759	28.872	3.3294e-08	44.004	83.655	137.498	140.816	67.024	198.853	177.923	66.035	71.658	186.568	205.297	70.093	74.594	76.417	81.745	166.477	78.964	-8191	255	
2778.109	1	1	0	0	0.044353	0.20575	0.14189	0.23825	0.41197	0.11598	0.21523	0.1047	0.049954	0.064888	0.18987	0.22197	0.21798	0.16203	0.13213	0.42454	-3.9896	-3.6604	-3.8937	-4.3167	-3.3417	-4.0646	-4.1792	-3.7333	-4.3063	-3.9292	-3.9042	-4.2979	-3.5125	-4.1896	-4.0312	-3.675	386.674	375.538	86.126	377.379	362.900	110.044	377.059	316.214	404.921	153.183	224.712	69.273	311.123	138.120	386.872	355.667	0.0010822	0.00014562	4.803e-05	780.86	1.4813e-06	1.1149e-06	961.95	281.25	1.3781e-06	9.934e-07	407.77	154.7	109.76	38.903	1.3081e-06	61.808	6.1013e-06	2.7874e-06	7.5713e-07	658.54	3.0011e-08	2.9541e-08	788.49	219.15	2.923e-08	3.0122e-08	302.92	115.21	82.575	29.313	3.3289e-08	44.519	84.114	133.299	141.044	67.124	211.727	156.543	66.032	71.797	191.478	194.035	70.221	74.371	76.351	81.913	179.764	79.278	-8191	255	
2778.205	1	1	0	0	0.18066	0.022556	0.089602	0.22069	0.043462	0.078149	0.15155	0.1117	0.1995	0.11063	0.18488	0.22094	0.1026	0.11908	0.23789	0.23911	-3.9938	-3.7833	-3.9042	-4.225	-3.5687	-4.1562	-4.0437	-3.6625	-4.0604	-3.8604	-3.6021	-4.3562	-3.7208	-3.9646	-4.25	-3.4813	394.290	259.497	269.983	81.439	321.038	135.520	293.056	129.485	106.084	87.796	338.023	359.105	409.520	288.995	247.367	362.476	0.0011475	0.00014784	3.7083e-05	781.59	1.5411e-06	1.5866e-06	958.91	282.34	1.6912e-06	1.1594e-06	410.39	156.08	110.68	39.82	1.4372e-06	63.001	6.1994e-06	2.7613e-06	7.9871e-07	659.54	3.1624e-08	3.0186e-08	790.66	220.63	3.2e-08	3.2505e-08	305.51	116.54	83.63	29.922	3.394e-08	45.336	84.774	137.309	129.678	66.717	204.683	188.111	66.037	71.548	187.623	209.125	70.099	74.832	76.439	82.086	169.704	79.306	-8191	255	
2778.326	1	1	0	0	0.073128	0.19657	0.17882	0.12662	0.19388	0.18863	0.20943	0.11762	0.07749	0.13027	0.04045	0.15139	0.13502	0.064753	0.21954	0.16529	-3.9146	-3.9313	-3.5458	-4.3146	-3.7292	-3.8958	-4.2396	-3.5146	-4.2896	-3.9188	-3.6792	-4.2604	-3.875	-3.8667	-4.2083	-3.6437	178.656	245.930	299.589	144.097	128.152	103.316	316.251	90.579	58.850	408.687	322.138	368.176	108.400	327.403	236.234	83.374	0.0010797	0.00014478	4.9007e-05	780.76	1.3788e-06	1.4621e-06	957.88	283.32	1.6265e-06	8.9747e-07	409.07	154.99	110.31	39.478	1.2541e-06	62.623	6.4034e-06	3.0074e-06	8.0978e-07	661.04	3.4634e-08	3.1401e-08	789.04	220.85	3.3643e-08	3.2096e-08	304.03	115.71	83.325	29.787	3.2609e-08	45.026	86.517	141.241	128.484	67.102	184.598	171.145	66.068	72.057	184.679	185.358	70.296	74.530	76.609	82.131	164.162	78.737	-8191	255	
2778.422	1	1	0	0	0.095184	0.18895	0.089518	0.05101	0.13144	0.058427	0.02134	0.090813	0.12334	0.054136	0.061777	0.12924	0.072696	0.20507	0.22873	0.13695	-3.8146	-3.8042	-3.6271	-4.3729	-3.7792	-3.85	-4.4354	-3.7729	-4.0021	-4.1792	-3.5479	-4.3771	-3.8708	-3.8729	-4.3562	-3.7896	258.251	267.526	356.236	337.947	372.252	196.689	406.714	253.860	263.597	144.242	136.966	371.371	391.727	62.408	364.709	140.813	0.0011158	0.00013848	4.7223e-05	776.47	1.8457e-06	1.4434e-06	951.77	281.05	1.3691e-06	1.3654e-06	407.06	155.08	110.38	39.618	1.225e-06	63.216	6.8278e-06	2.9415e-06	7.8689e-07	658.16	3.6858e-08	3.2147e-08	784.84	219.11	3.6017e-08	3.0692e-08	302.58	115.5	83.241	29.948	3.2024e-08	45.675	81.464	121.004	144.097	66.939	190.804	181.050	65.983	71.904	177.276	200.004	70.121	74.539	76.569	81.671	167.142	79.109	-8191	255	
2778.518	1	1	0	0	0.057685	0.051987	0.11973	0.26132	0.15739	0.059548	0.083381	0.050804	0.084405	0.068784	0.074033	0.2167	0.10999	0.076568	0.19978	0.10471	-3.7021	-3.9917	-3.5417	-4.1937	-3.9938	-3.8375	-4.1833	-3.8604	-3.9146	-4.2083	-3.5938	-4.3729	-4.0563	-3.6437	-4.275	-3.8458	138.315	184.541	338.196	366.559	59.474	60.531	307.615	318.819	137.293	285.971	158.592	339.658	271.339	202.184	348.442	122.339	0.0011036	9.8886e-05	5.6855e-05	787.33	1.4781e-06	1.071e-06	959.54	288.02	1.5121e-06	8.4793e-07	411.9	157.11	112.13	40.533	1.409e-06	63.87	6.8191e-06	3.0709e-06	8.0584e-07	667.85	3.7249e-08	3.0441e-08	791.74	224.22	3.495e-08	2.8719e-08	306.38	117.04	84.416	30.426	3.0398e-08	45.991	87.732	124.699	146.010	67.310	199.419	191.319	66.278	71.786	188.918	181.069	70.165	74.665	76.405	82.126	174.982	79.209	-8191	255	
2778.614	1	1	0	0	0.041429	0.2108	0.11873	0.29038	0.078181	0.042947	0.2262	0.12522	0.14434	0.19024	0.21394	0.12005	0.14441	0.26986	0.27191	0.26362	-3.5479	-4.0458	-3.5021	-4.3146	-3.8271	-3.7208	-4.2417	-3.7812	-4.0771	-4.1396	-3.5917	-4.2833	-3.9813	-3.8708	-4.1708	-3.7438	376.863	178.667	205.333	361.932	264.030	188.590	227.685	60.475	143.009	85.623	409.632	328.815	395.323	388.053	296.512	74.803	0.0011475	8.7064e-05	4.6133e-05	784.33	1.3797e-06	1.193e-06	957.76	286.49	1.478e-06	1.1432e-06	411.53	156.55	111.8	40.242	1.3464e-06	63.492	6.7904e-06	2.6799e-06	7.3207e-07	665.16	3.4083e-08	2.9651e-08	788.27	223.03	3.4169e-08	2.7705e-08	305.63	116.87	84.186	30.259	3.0082e-08	45.646	86.905	131.700	144.729	67.238	203.908	162.017	66.203	71.975	178.818	201.744	70.120	74.448	76.420	82.004	181.339	79.137	-8191	255	
2778.709	1	1	0	0	0.22359	0.086905	0.050598	0.10165	0.20395	0.15179	0.36184	0.12365	0.15525	0.23875	0.45903	0.07845	0.053724	0.13302	0.18595	0.046677	-3.6229	-4.025	-3.2958	-4.1542	-3.8354	-3.4167	-4.3729	-3.7583	-3.6917	-4.2146	-3.6042	-4.1646	-4.1333	-3.5729	-3.9958	-3.95	380.390	127.313	174.839	392.141	281.284	397.942	366.496	367.288	174.612	292.971	382.943	371.873	93.996	73.482	337.968	241.510	0.0010785	0.00012769	4.1063e-05	778.5	1.6871e-06	1.4227e-06	948.77	283.28	1.4996e-06	1.0718e-06	406.2	155.48	110.62	40.032	1.1297e-06	63.211	6.4892e-06	2.5989e-06	7.4441e-07	659.55	3.3512e-08	2.8381e-08	782.11	220.6	3.4309e-08	2.4712e-08	301.97	115.84	83.576	30.058	2.9222e-08	45.369	85.970	128.241	139.204	67.337	194.328	203.605	66.078	71.879	181.219	195.684	70.358	74.536	76.675	82.177	179.870	79.240	-8191	255	
2778.806	1	1	0	0	0.19822	0.090301	0.23184	0.14225	0.0064967	0.20446	0.078584	0.32652	0.29399	0.15814	0.27816	0.16982	0.20195	0.28337	0.0027141	0.072411	-3.3917	-4.2375	-3.6479	-4.075	-4.1667	-3.3708	-4.2521	-3.7979	-3.4583	-4.2979	-3.7167	-3.9833	-4.1375	-3.5229	-4.1854	-3.9042	61.884	286.257	343.135	373.949	297.009	122.882	269.690	372.728	267.066	409.381	285.119	327.308	394.762	126.285	148.410	362.395	0.0011342	0.000152	3.0861e-05	775.85	1.8385e-06	9.8384e-07	949.83	283.44	1.0329e-06	1.0572e-06	408.96	156.83	112.3	40.831	1.1677e-06	64.122	6.6393e-06	2.3693e-06	7.4988e-07	657.25	3.1899e-08	2.7381e-08	781.6	221.03	3.4534e-08	2.5971e-08	304.23	116.93	84.59	30.712	3.2819e-08	46.243	85.904	143.192	139.742	67.046	180.892	154.645	66.201	71.707	188.597	190.442	70.261	74.755	76.774	82.019	165.563	79.107	-8191	255	
2778.925	1	1	0	0	0.26881	0.14677	0.10877	0.037567	0.22503	0.21138	0.059065	0.087696	0.19099	0.12017	0.12467	0.0314	0.17466	0.21102	0.059184	0.13061	-3.1688	-4.2688	-3.4729	-3.8187	-4.1104	-3.6125	-4.1729	-3.8854	-3.7458	-4.2875	-3.9104	-3.9979	-4.1687	-3.6396	-4.0687	-3.9688	213.179	180.518	268.447	110.186	209.855	104.960	74.780	380.611	312.452	388.115	144.528	60.293	286.992	366.164	285.777	238.195	0.0011695	0.00014331	5.0562e-05	783.46	1.827e-06	1.5728e-06	952.53	285.7	1.2352e-06	9.9559e-07	410.64	158.57	114.4	41.826	1.6153e-06	65.712	6.8118e-06	2.3679e-06	8.2644e-07	663.26	3.1013e-08	2.9236e-08	784.4	223.19	3.2977e-08	2.6376e-08	306.6	118.44	86	31.478	3.531e-08	47.27	85.643	122.344	138.389	67.173	197.571	175.979	66.443	71.944	192.518	211.193	70.435	75.004	76.604	82.294	171.065	79.311	-8191	255	
2779.021	1	1	0	0	0.14058	0.087195	0.14973	0.25782	0.060692	0.06372	0.10592	0.22419	0.10532	0.23993	0.21105	0.10481	0.20578	0.34491	0.22941	0.078921	-3.3125	-4.1042	-3.6771	-3.85	-4.2458	-3.5146	-4.0938	-3.9583	-3.5771	-4.1208	-3.9542	-3.5938	-4.4062	-3.5521	-3.7687	-4.1562	174.221	302.963	85.545	399.870	290.408	382.865	185.094	65.371	161.865	144.361	375.978	85.268	253.032	349.131	86.041	183.373	0.0012242	0.00017795	4.1095e-05	787.77	1.7818e-06	1.1742e-06	952.77	289.2	1.4896e-06	1.3628e-06	412.22	159	114.74	41.749	1.3297e-06	65.419	6.9186e-06	2.694e-06	8.7897e-07	667.07	3.217e-08	3.0606e-08	786.09	224.75	3.3307e-08	2.8834e-08	306.39	118.53	86.285	31.525	3.8192e-08	47.124	83.989	130.288	153.841	67.508	202.741	176.645	66.418	71.999	197.028	195.492	70.325	74.929	76.864	82.089	153.953	79.257	-8191	255	
2779.118	1	1	0	0	0.23319	0.075238	0.27684	0.22739	0.13554	0.14267	0.24485	0.13725	0.1069	0.14124	0.25127	0.28228	0.27051	0.28321	0.19805	0.3094	-3.1688	-4.1146	-3.8	-3.7188	-4.1875	-3.775	-3.9521	-4.0958	-3.5854	-4.0979	-3.9354	-3.6417	-4.3896	-3.7208	-3.8125	-3.9854	129.423	304.259	138.057	370.993	212.372	330.009	283.058	406.546	241.971	278.527	313.541	375.057	128.961	94.937	336.216	290.488	0.001186	0.00010283	5.2205e-05	787.01	2.1724e-06	1.7552e-06	938.88	286.04	1.6511e-06	1.4044e-06	408.14	157.33	113.49	41.462	1.2518e-06	64.481	6.805e-06	2.8587e-06	8.9041e-07	666.03	3.247e-08	3.1021e-08	776.28	223.28	3.5882e-08	3.0952e-08	303.72	117.22	85.538	31.178	3.6701e-08	46.494	85.066	134.312	126.735	67.252	191.478	178.491	66.109	72.148	187.385	202.230	70.283	74.792	76.724	82.169	184.898	79.265	-8191	255	
2779.214	1	1	0	0	0.13768	0.049608	0.053885	0.23859	0.16124	0.08322	0.15813	0.27578	0.092351	0.037675	0.19891	0.1379	0.1558	0.28389	0.16588	0.30367	-3.2438	-4.0208	-3.9938	-3.6396	-4.3042	-3.825	-3.8396	-4.3438	-3.525	-4.0563	-4.0917	-3.6688	-4.2312	-3.9646	-3.7083	-4.4542	207.949	264.694	210.039	88.682	214.907	88.585	208.408	325.763	236.996	230.846	64.013	392.687	332.833	63.545	281.565	394.663	0.0012074	0.00013051	5.8467e-05	783.92	1.7874e-06	7.3741e-07	941.1	285.62	1.5586e-06	1.3396e-06	406.03	156.26	113.13	41.067	1.0759e-06	64.129	6.8397e-06	3.0151e-06	8.8584e-07	663.91	3.255e-08	3.3642e-08	773.43	221.96	3.3322e-08	3.273e-08	302.68	116.74	85.144	30.941	3.5786e-08	46.18	87.964	128.378	168.583	67.331	199.905	180.907	66.307	72.303	175.590	194.283	70.453	74.682	76.990	82.309	169.389	78.945	-8191	255	
#DATA ENDS
