BOXY.EXE: ISS Imagent and Oximeter Data Acquisition Program Version 0.80
Ascii Record File

#ACQ INFORMATION
2  Detector Channels 
16  External MUX Channels 
1  Auxiliary Channels 
5000  Waveform (CCF) Frequency (Hz)
1  Waveforms Skipped 
30  Waveforms Averaged 
1  Cycles Averaged 
16  Acquisitions per Waveform 
10.0806  Updata Rate (Hz) 

#FILE INFORMATION
TRUE -- External MUX Channel results are PARSED.
FALSE -- AC DC and Phase are NOT grouped.
TRUE -- Companion Program Settings File CREATED.
FALSE -- AC data not excluded
FALSE -- DC data not excluded
FALSE -- Phase data not excluded
FALSE -- Auxillary Chn. data not excluded
Tab delimiters

#CALIBRATION STATE
TRUE -- Waveform Calibration Values APPLIED.


#AUX CALIBRATION VALUES
Val Type	aux-1	

Term	1.0000e+00	
Factor	0.0000e+00	


#WF CALIBRATION VALUES
A = Detector Channel
Val Type	A-AC1	A-AC2	A-AC3	A-AC4	A-AC5	A-AC6	A-AC7	A-AC8	A-AC9	A-AC10	A-AC11	A-AC12	A-AC13	A-AC14	A-AC15	A-AC16	A-DC1	A-DC2	A-DC3	A-DC4	A-DC5	A-DC6	A-DC7	A-DC8	A-DC9	A-DC10	A-DC11	A-DC12	A-DC13	A-DC14	A-DC15	A-DC16	A-Ph1	A-Ph2	A-Ph3	A-Ph4	A-Ph5	A-Ph6	A-Ph7	A-Ph8	A-Ph9	A-Ph10	A-Ph11	A-Ph12	A-Ph13	A-Ph14	A-Ph15	A-Ph16	

Term	0.00000e+00	0.00000e+00	0.00000e+00	0.00000e+00	0.00000e+00	0.00000e+00	0.00000e+00	0.00000e+00	0.00000e+00	0.00000e+00	0.00000e+00	0.00000e+00	0.00000e+00	0.00000e+00	0.00000e+00	0.00000e+00	0.00000e+00	0.00000e+00	0.00000e+00	0.00000e+00	0.00000e+00	0.00000e+00	0.00000e+00	0.00000e+00	0.00000e+00	0.00000e+00	0.00000e+00	0.00000e+00	0.00000e+00	0.00000e+00	0.00000e+00	0.00000e+00	0.00000e+00	0.00000e+00	0.00000e+00	0.00000e+00	0.00000e+00	0.00000e+00	0.00000e+00	0.00000e+00	0.00000e+00	0.00000e+00	0.00000e+00	0.00000e+00	0.00000e+00	0.00000e+00	0.00000e+00	0.00000e+00	
Factor	1.00000e+00	1.00000e+00	1.00000e+00	1.00000e+00	1.00000e+00	1.00000e+00	1.00000e+00	1.00000e+00	1.00000e+00	1.00000e+00	1.00000e+00	1.00000e+00	1.00000e+00	1.00000e+00	1.00000e+00	1.00000e+00	1.00000e+00	1.00000e+00	1.00000e+00	1.00000e+00	1.00000e+00	1.00000e+00	1.00000e+00	1.00000e+00	1.00000e+00	1.00000e+00	1.00000e+00	1.00000e+00	1.00000e+00	1.00000e+00	1.00000e+00	1.00000e+00	X	X	X	X	X	X	X	X	X	X	X	X	X	X	X	X	

B = Detector Channel
Val Type	B-AC1	B-AC2	B-AC3	B-AC4	B-AC5	B-AC6	B-AC7	B-AC8	B-AC9	B-AC10	B-AC11	B-AC12	B-AC13	B-AC14	B-AC15	B-AC16	B-DC1	B-DC2	B-DC3	B-DC4	B-DC5	B-DC6	B-DC7	B-DC8	B-DC9	B-DC10	B-DC11	B-DC12	B-DC13	B-DC14	B-DC15	B-DC16	B-Ph1	B-Ph2	B-Ph3	B-Ph4	B-Ph5	B-Ph6	B-Ph7	B-Ph8	B-Ph9	B-Ph10	B-Ph11	B-Ph12	B-Ph13	B-Ph14	B-Ph15	B-Ph16	

Term	0.00000e+00	0.00000e+00	0.00000e+00	0.00000e+00	0.00000e+00	0.00000e+00	0.00000e+00	0.00000e+00	0.00000e+00	0.00000e+00	0.00000e+00	0.00000e+00	0.00000e+00	0.00000e+00	0.00000e+00	0.00000e+00	0.00000e+00	0.00000e+00	0.00000e+00	0.00000e+00	0.00000e+00	0.00000e+00	0.00000e+00	0.00000e+00	0.00000e+00	0.00000e+00	0.00000e+00	0.00000e+00	0.00000e+00	0.00000e+00	0.00000e+00	0.00000e+00	-2.15620e+02	-1.31657e+02	-1.25146e+02	-1.81704e+02	-8.15054e+01	-6.68657e+01	-1.57588e+02	-1.62015e+02	-8.60096e+01	-6.69782e+01	-1.71217e+02	-1.72824e+02	-1.83390e+02	-1.77011e+02	-7.37979e+01	-1.49785e+02	
Factor	4.58921e-05	1.65953e-04	4.60063e-05	1.49255e-01	1.93368e-06	1.78685e-06	1.64339e-01	5.03331e-02	2.24651e-06	1.77573e-06	8.09569e-02	3.27481e-02	3.51869e-02	8.81024e-03	1.97165e-06	1.24698e-02	2.73434e-05	7.93411e-05	2.24816e-05	7.78062e-02	6.25384e-07	9.38907e-07	8.07401e-02	2.62746e-02	6.23511e-07	9.41288e-07	4.12738e-02	1.66736e-02	1.85840e-02	4.65689e-03	7.32170e-07	6.40504e-03	X	X	X	X	X	X	X	X	X	X	X	X	X	X	X	X	



#DISTANCE SETTINGS
A = Detector Channel
A-1	A-2	A-3	A-4	A-5	A-6	A-7	A-8	A-9	A-10	A-11	A-12	A-13	A-14	A-15	A-16	

2.5000e+00	3.0000e+00	2.5000e+00	3.0000e+00	2.0000e+00	3.0000e+00	1.5000e+00	3.0000e+00	3.0000e+00	3.0000e+00	3.0000e+00	3.0000e+00	3.0000e+00	3.0000e+00	1.5000e+00	3.0000e+00	

B = Detector Channel
B-1	B-2	B-3	B-4	B-5	B-6	B-7	B-8	B-9	B-10	B-11	B-12	B-13	B-14	B-15	B-16	

1.0000e+01	1.0000e+01	1.0000e+01	1.4400e+00	1.0000e+01	1.0000e+01	1.5100e+00	1.9400e+00	1.0000e+01	1.0000e+01	1.9900e+00	2.4900e+00	2.4100e+00	2.9000e+00	1.0000e+01	2.9800e+00	




#DATA BEGINS
time	group	step	mark	flag	A-AC1	A-AC2	A-AC3	A-AC4	A-AC5	A-AC6	A-AC7	A-AC8	A-AC9	A-AC10	A-AC11	A-AC12	A-AC13	A-AC14	A-AC15	A-AC16	A-DC1	A-DC2	A-DC3	A-DC4	A-DC5	A-DC6	A-DC7	A-DC8	A-DC9	A-DC10	A-DC11	A-DC12	A-DC13	A-DC14	A-DC15	A-DC16	A-Ph1	A-Ph2	A-Ph3	A-Ph4	A-Ph5	A-Ph6	A-Ph7	A-Ph8	A-Ph9	A-Ph10	A-Ph11	A-Ph12	A-Ph13	A-Ph14	A-Ph15	A-Ph16	B-AC1	B-AC2	B-AC3	B-AC4	B-AC5	B-AC6	B-AC7	B-AC8	B-AC9	B-AC10	B-AC11	B-AC12	B-AC13	B-AC14	B-AC15	B-AC16	B-DC1	B-DC2	B-DC3	B-DC4	B-DC5	B-DC6	B-DC7	B-DC8	B-DC9	B-DC10	B-DC11	B-DC12	B-DC13	B-DC14	B-DC15	B-DC16	B-Ph1	B-Ph2	B-Ph3	B-Ph4	B-Ph5	B-Ph6	B-Ph7	B-Ph8	B-Ph9	B-Ph10	B-Ph11	B-Ph12	B-Ph13	B-Ph14	B-Ph15	B-Ph16	aux-1	digaux	

18518.303	1	1	0	256	0.14323	0.064348	0.14515	0.18373	0.065447	0.14387	0.49179	0.10212	0.13436	0.058002	0.12117	0.11529	0.16071	0.049623	0.12031	0.2755	-4.2688	-4.1833	-4.6021	-4.9542	-4.175	-4.6604	-4.7479	-4.4208	-4.9854	-4.3896	-4.7	-4.8167	-4.1958	-4.6896	-4.4375	-4.2917	136.160	104.688	-2.528	241.635	134.950	103.182	171.014	240.822	189.988	219.554	200.443	227.514	202.227	156.281	189.092	198.000	0.00049224	0.00067154	0.00015302	1483	3.6954e-06	5.6744e-06	1465.4	394.74	3.8108e-06	3.7083e-06	442.38	148.58	130.13	45.047	5.7051e-06	54.768	0.00061864	0.00068928	0.00019995	1504	7.3378e-06	7.5582e-06	1486.6	401.51	7.1756e-06	7.8323e-06	450.84	152.08	133.77	46.224	7.5566e-06	56.509	102.698	-7.400	11.893	-78.862	28.239	31.896	-79.052	-74.332	29.281	68.371	-74.739	-71.081	-70.205	-65.135	38.160	-66.009	-8191	255	
18518.400	1	1	0	0	0.17174	0.08818	0.14407	0.1921	0.28179	0.13968	0.11584	0.1021	0.14254	0.16659	0.26467	0.1991	0.13421	0.1792	0.16682	0.20224	-4.5625	-4.3146	-4.4729	-4.8833	-4.2583	-4.7458	-4.6438	-4.275	-4.7083	-4.425	-4.5521	-4.8958	-4.1917	-4.7333	-4.5687	-4.2896	95.581	45.603	116.384	216.418	197.258	6.423	162.643	234.056	-1.013	101.140	169.765	244.590	161.445	186.917	31.305	-89.182	0.00049252	0.00060171	0.0001722	1477.4	4.148e-06	5.4104e-06	1464.4	391.45	3.4517e-06	6.1471e-06	441	148.14	130.71	44.937	3.4533e-06	54.75	0.00062303	0.00074366	0.00019826	1497.7	7.7743e-06	7.8086e-06	1486.2	400.13	7.6809e-06	8.3088e-06	450.23	151.61	133.53	46.102	7.3141e-06	56.344	102.956	-7.258	5.386	-78.859	52.227	58.377	-79.145	-74.222	40.260	65.765	-74.730	-70.738	-70.158	-65.234	53.985	-65.993	-8191	255	
18518.520	1	1	0	0	0.027921	0.18098	0.23166	0.26259	0.12799	0.21126	0.27457	0.22778	0.14603	0.16569	0.18141	0.27484	0.14345	0.19481	0.1976	0.1412	-4.4917	-4.5208	-4.3604	-4.9979	-4.2333	-4.625	-4.9104	-4.3854	-4.7875	-4.4521	-4.4563	-4.8792	-4.2812	-4.5563	-4.5896	-4.3313	200.161	21.200	105.466	238.088	41.250	125.295	222.348	200.681	134.395	67.498	-87.355	210.915	7.098	-91.937	191.977	-7.398	0.00051234	0.00044132	0.00011264	1479	3.4312e-06	4.6129e-06	1463.8	393.18	5.7156e-06	5.1596e-06	439.67	148.02	130.07	44.843	4.4654e-06	54.675	0.00062257	0.00071903	0.00020454	1499.8	7.4629e-06	7.5445e-06	1486.4	400.39	7.7263e-06	7.8892e-06	449.86	151.43	133.19	46.011	7.3827e-06	56.205	101.310	-12.498	4.415	-79.045	38.129	63.735	-78.787	-74.484	-9.072	77.340	-74.645	-70.546	-70.358	-65.713	46.146	-66.276	-8191	255	
18518.615	1	1	0	0	0.18284	0.22829	0.074894	0.1201	0.13842	0.041226	0.23417	0.2626	0.25793	0.16655	0.58044	0.018386	0.12446	0.076706	0.15791	0.097346	-4.5125	-4.5312	-4.0979	-5.0375	-4.3542	-4.5312	-4.9333	-4.1167	-4.725	-4.4938	-4.3125	-4.8979	-4.45	-4.4708	-4.825	-4.1729	140.032	223.646	-74.594	190.481	-13.405	-86.561	151.950	216.130	62.755	191.350	238.259	223.568	172.557	255.233	-80.060	168.470	0.00050865	0.00056891	0.00013809	1474.7	3.9514e-06	4.7168e-06	1460.6	391.85	4.4002e-06	5.0321e-06	440.43	146.75	129.94	44.584	4.579e-06	54.295	0.00061517	0.0007501	0.00020491	1497.3	7.6075e-06	8.0687e-06	1484.1	399.1	7.6146e-06	8.1363e-06	449.02	150.78	132.67	45.887	7.4986e-06	56.021	101.805	-11.192	-12.142	-78.858	34.616	56.914	-78.853	-74.486	-8.625	52.961	-74.798	-70.774	-70.119	-65.343	71.700	-66.165	-8191	255	
18518.713	1	1	0	0	0.057443	0.20677	0.11301	0.14882	0.18199	0.14954	0.099157	0.20914	0.1047	0.2048	0.20134	0.12201	0.30702	0.03339	0.13893	0.30143	-4.225	-4.45	-4.1937	-5.0521	-4.2812	-4.3667	-5.0125	-4.425	-4.6083	-4.7396	-4.3417	-4.8667	-4.4771	-4.4375	-4.7896	-4.3187	-65.082	99.140	-27.419	229.042	210.488	231.712	137.442	191.333	-13.807	-40.862	210.625	-35.171	229.754	107.942	181.419	200.710	0.00048811	0.00053375	0.00013688	1469.7	4.8415e-06	4.4087e-06	1454.8	389.01	4.7502e-06	5.8954e-06	440.19	146.19	129.68	44.561	4.4912e-06	54.42	0.00061272	0.0006868	0.00020397	1491.2	7.446e-06	7.969e-06	1474.6	397.24	7.512e-06	7.9774e-06	447.93	150.2	132.46	45.736	7.5536e-06	55.821	100.542	-11.539	-16.375	-78.864	50.990	55.576	-78.850	-74.235	-1.378	49.211	-74.652	-70.474	-70.370	-65.524	40.890	-66.096	-8191	255	
18518.809	1	1	0	0	0.11438	0.02223	0.075027	0.22816	0.32559	0.097535	0.086996	0.1991	0.18145	0.12554	0.044767	0.30384	0.19834	0.041016	0.049769	0.2213	-4.3292	-4.625	-4.2417	-4.9646	-4.4646	-4.3292	-5.0979	-4.4	-4.6208	-4.9333	-4.45	-4.9625	-4.5583	-4.4104	-4.7708	-4.3896	203.579	22.008	245.551	253.975	234.606	-35.863	176.083	170.393	195.690	39.576	57.813	249.570	8.547	3.280	259.830	161.871	0.00048608	0.00062143	0.00014664	1463.2	3.913e-06	4.2236e-06	1451.2	389.43	3.2184e-06	4.6194e-06	437.84	146.48	129.36	44.327	5.4807e-06	54.271	0.00062998	0.00068283	0.00020294	1486.5	7.5958e-06	7.9279e-06	1472.3	396.58	7.1964e-06	7.5009e-06	446.15	150.06	131.99	45.56	7.1402e-06	55.732	98.880	-2.231	3.266	-78.685	44.731	57.846	-78.991	-74.347	-10.957	60.724	-74.869	-70.616	-70.236	-65.476	41.893	-66.059	-8191	255	
18518.930	1	1	0	0	0.12319	0.13284	0.24023	0.33709	0.16935	0.063744	0.19087	0.12264	0.029367	0.1732	0.053511	0.28341	0.057741	0.32059	0.21418	0.1655	-4.1625	-4.7083	-4.0021	-4.7937	-4.5188	-4.3271	-5.1021	-4.4792	-4.4542	-4.8417	-4.3167	-4.5833	-4.6958	-4.3854	-4.8938	-4.6062	-58.651	91.691	-86.819	230.077	205.251	-34.860	232.456	-83.219	184.500	197.519	222.661	-84.387	212.703	258.618	57.590	180.115	0.00046524	0.00055274	0.00011725	1463.8	5.14e-06	4.6142e-06	1444.2	389.17	3.6884e-06	4.6608e-06	435.5	145.81	128.42	43.945	4.4795e-06	54.288	0.00062132	0.00068035	0.00021662	1482.6	7.8121e-06	8.4463e-06	1467.5	395.4	7.6627e-06	7.1263e-06	444.72	149.54	131.48	45.326	7.2988e-06	55.688	98.688	-26.132	-10.072	-79.004	43.869	62.526	-79.084	-74.286	16.723	65.195	-74.566	-70.683	-70.232	-65.284	55.739	-66.158	-8191	255	
18519.000	1	1	0	0	0.1556	0.14529	0.27166	0.19943	0.16448	0.049711	0.33807	0.15819	0.1572	0.17914	0.1903	0.084256	0.069706	0.15875	0.1462	0.10786	-4.1354	-4.9854	-4.1917	-4.9042	-4.575	-4.2688	-5.1229	-4.5687	-4.4021	-4.6979	-4.3333	-4.6729	-4.9062	-4.1979	-4.7167	-4.4437	92.956	-14.297	-26.478	225.777	203.092	132.914	217.259	238.230	90.393	126.624	183.778	172.738	159.377	224.778	70.285	138.695	0.00045193	0.00049917	0.00015505	1460.3	3.9061e-06	5.7183e-06	1444.2	387.76	4.5527e-06	4.4408e-06	437.21	145.53	127.23	44.082	4.2889e-06	53.875	0.00062069	0.00060911	0.00020838	1481.2	7.4772e-06	8.724e-06	1465.5	394.72	7.9576e-06	7.7813e-06	444.58	149.3	131.07	45.264	7.6374e-06	55.435	104.360	-5.698	-4.750	-78.962	36.817	62.463	-79.091	-74.105	20.882	60.114	-74.868	-70.702	-70.015	-65.413	39.617	-66.163	-8191	255	
18519.096	1	1	0	0	0.2661	0.12675	0.18197	0.16765	0.30826	0.099181	0.056113	0.21147	0.087528	0.20482	0.21895	0.033023	0.15178	0.13403	0.049832	0.22511	-4.0458	-4.7792	-4.3208	-4.7708	-4.675	-4.2667	-5.0042	-4.8187	-4.3479	-4.9062	-4.4271	-4.6687	-4.9042	-4.2771	-4.5687	-4.6813	195.880	-25.672	211.182	267.427	45.558	80.486	233.637	229.516	25.151	-27.768	258.226	1.635	2.854	-38.434	54.181	206.969	0.00046122	0.00052782	0.00012192	1456.9	4.5311e-06	4.4046e-06	1439.3	386.97	5.1323e-06	4.1033e-06	436.16	145.7	127.47	44.07	3.5556e-06	53.73	0.00061306	0.00069473	0.00019582	1475.9	7.8186e-06	8.3093e-06	1460.2	393.77	7.7406e-06	7.5009e-06	443.64	149.07	130.76	45.237	7.7381e-06	55.48	96.883	-15.001	0.643	-78.857	49.073	51.375	-79.141	-74.457	-11.586	50.340	-74.500	-70.685	-70.012	-65.254	49.312	-66.189	-8191	255	
18519.193	1	1	0	0	0.11287	0.11113	0.11488	0.31175	0.2253	0.14993	0.18539	0.30649	0.12903	0.071013	0.041584	0.26164	0.12343	0.14872	0.22985	0.11019	-3.9167	-4.6813	-4.2708	-4.7125	-4.6021	-4.1708	-4.9313	-4.6917	-4.2271	-4.8229	-4.5375	-4.3583	-4.8187	-4.3667	-4.6375	-4.6333	8.103	244.736	47.857	236.522	200.748	217.295	150.027	223.647	-30.965	162.736	240.700	-63.845	34.960	-48.385	159.532	-80.545	0.00042819	0.00040204	0.00014293	1453.1	2.8581e-06	6.2863e-06	1438.3	387.35	4.9151e-06	4.0481e-06	435.05	144.78	128.09	44.066	3.0119e-06	54.034	0.00062514	0.00065919	0.00020987	1473.1	7.1906e-06	8.1372e-06	1460	393.72	7.6497e-06	7.2205e-06	443.29	148.95	130.93	45.324	7.6481e-06	55.516	104.682	4.581	-0.622	-78.808	35.476	68.979	-79.020	-74.324	17.612	68.561	-74.686	-70.749	-70.234	-65.327	51.378	-66.295	-8191	255	
18519.311	1	1	0	0	0.11979	0.30642	0.20159	0.19214	0.071561	0.04314	0.22823	0.17046	0.11079	0.14243	0.33239	0.092912	0.054388	0.14201	0.020901	0.10349	-3.85	-4.7104	-4.4354	-4.4854	-4.8146	-4.3479	-4.775	-4.7708	-4.0021	-4.85	-4.4479	-4.4083	-4.8521	-4.4104	-4.5729	-4.8667	115.517	214.725	26.295	203.875	60.200	98.264	252.268	165.321	15.180	-88.958	201.811	164.197	125.360	251.029	186.094	50.314	0.00047476	0.00052898	0.00015432	1455.9	2.7218e-06	4.573e-06	1441.5	386.95	3.9825e-06	3.9417e-06	435.3	145.26	127.43	43.99	3.4418e-06	53.659	0.00064536	0.00067886	0.0002028	1474.4	7.3352e-06	8.411e-06	1461.9	393.69	7.9939e-06	7.7186e-06	444.03	149.19	130.89	45.24	7.3247e-06	55.405	102.999	-12.179	-1.526	-78.741	55.305	47.292	-78.984	-74.308	4.770	55.188	-74.617	-70.719	-70.252	-65.235	26.597	-66.090	-8191	255	
18519.408	1	1	0	0	0.19274	0.28338	0.20369	0.29773	0.090404	0.031286	0.31661	0.28343	0.010428	0.09447	0.17638	0.12694	0.10635	0.082372	0.17461	0.14153	-3.8042	-4.6229	-4.4812	-4.325	-4.8792	-4.4771	-4.6	-4.8229	-4.2896	-4.7479	-4.6104	-4.3792	-4.7875	-4.5125	-4.4	-4.9542	-83.217	265.259	194.308	179.319	206.503	198.787	217.922	167.565	-52.144	52.671	203.510	-76.238	-37.860	-61.063	177.509	135.007	0.00047717	0.00044495	0.000133	1457.8	4.0398e-06	6.813e-06	1437.7	387.02	3.9864e-06	5.8712e-06	435.25	145.62	127.52	44.309	5.4328e-06	53.901	0.00063778	0.00071457	0.00018931	1473.9	7.0616e-06	8.7142e-06	1461.9	394.05	7.5653e-06	7.0499e-06	443.75	149.22	130.75	45.313	7.398e-06	55.545	97.179	-11.873	-0.515	-78.941	42.113	63.997	-78.906	-74.399	10.095	55.172	-74.685	-70.732	-70.334	-65.320	47.263	-66.293	-8191	255	
18519.504	1	1	0	0	0.31129	0.02711	0.16616	0.24619	0.28185	0.10715	0.11551	0.20492	0.18427	0.02525	0.10754	0.12104	0.15224	0.16448	0.058687	0.10025	-3.7771	-4.5854	-4.5604	-4.3958	-4.7708	-4.2396	-4.6229	-4.8	-4.2125	-4.6375	-4.8771	-4.4396	-4.6312	-4.3479	-4.3812	-5.0563	-28.832	97.095	37.001	214.904	-29.284	97.778	144.556	204.238	-16.427	107.004	228.057	179.525	-70.192	-39.345	-39.113	264.642	0.0004939	0.00041878	0.00011494	1450.2	4.0856e-06	5.9182e-06	1435.1	387.71	2.0749e-06	4.0659e-06	434.63	145.72	128.25	44.028	3.987e-06	54.077	0.00064855	0.00065622	0.00018505	1472.4	7.158e-06	8.012e-06	1458.9	393.88	7.5224e-06	7.3911e-06	443.6	149.38	131.2	45.331	7.5627e-06	55.58	100.530	0.704	-13.531	-78.661	33.859	59.672	-78.994	-74.183	31.238	52.493	-74.548	-70.688	-70.042	-65.086	57.669	-66.119	-8191	255	
18519.600	1	1	0	0	0.13174	0.1738	0.19829	0.11792	0.24897	0.027192	0.33781	0.35221	0.20695	0.042761	0.21697	0.36843	0.083969	0.032181	0.13606	0.34299	-3.7604	-4.5687	-4.7646	-4.1896	-4.8542	-4.4396	-4.5917	-5.0563	-4.2375	-4.3042	-4.825	-4.3063	-4.5104	-4.6042	-4.2625	-4.9146	153.937	127.590	0.046	-63.568	5.486	-24.040	177.318	174.245	176.290	-12.138	238.584	238.100	238.740	250.698	112.950	251.271	0.00045377	0.00052604	0.00012843	1453.1	5.6728e-06	5.4209e-06	1436.4	386.36	4.1259e-06	4.6686e-06	434.68	145.68	128.17	43.997	4.2876e-06	54.156	0.00063813	0.00067589	0.00018927	1475.2	7.3431e-06	7.7401e-06	1458.5	393.82	7.36e-06	7.8539e-06	442.98	148.94	131.01	45.245	7.822e-06	55.536	100.152	2.702	18.483	-78.930	49.526	58.733	-78.987	-74.194	2.105	51.684	-74.656	-70.601	-69.920	-65.212	48.327	-66.174	-8191	255	
18519.695	1	1	0	0	0.1358	0.049527	0.3061	0.36149	0.1963	0.022115	0.14387	0.11317	0.068055	0.032785	0.15455	0.12696	0.33696	0.069405	0.14991	0.15598	-3.9792	-4.4437	-4.6562	-4.4437	-4.625	-4.55	-4.4667	-4.9917	-4.3854	-4.3479	-4.8688	-4.4417	-4.625	-4.7854	-4.1771	-4.9896	172.911	83.929	-24.408	228.983	184.386	105.714	204.887	210.105	228.423	-53.910	188.834	31.867	-47.203	264.769	118.142	-13.011	0.00048618	0.00060131	0.00015089	1447	3.5996e-06	5.3067e-06	1431.2	385.52	2.856e-06	5.1754e-06	434.2	145.43	127.9	44.139	5.4141e-06	53.595	0.00061728	0.00069589	0.00018196	1465	7.0199e-06	6.9675e-06	1452.8	392.71	7.0483e-06	7.4185e-06	442.15	148.67	130.76	45.21	7.2897e-06	55.37	100.239	-16.050	3.788	-78.874	51.193	56.677	-78.993	-74.302	-10.131	63.636	-74.661	-70.567	-70.263	-65.299	40.706	-66.196	-8191	255	
18519.793	1	1	0	0	0.26082	0.099505	0.11168	0.36936	0.084525	0.11138	0.24501	0.1365	0.11762	0.29771	0.17064	0.043072	0.31362	0.29402	0.14148	0.034085	-4.1354	-4.4229	-4.675	-4.3833	-4.55	-4.7833	-4.2583	-4.9167	-4.3625	-4.3625	-4.9625	-4.2646	-4.6729	-4.875	-4.1729	-4.8208	87.582	218.899	31.017	237.971	26.950	237.832	227.474	264.487	238.790	254.949	203.350	-15.598	213.285	264.391	-9.442	-5.318	0.00044736	0.00057014	0.00012988	1447.8	3.5034e-06	5.3734e-06	1425.6	385.43	5.1199e-06	5.3142e-06	434.92	144.76	127.42	43.817	4.6559e-06	53.728	0.000604	0.00070316	0.00018725	1465.8	6.9105e-06	6.9968e-06	1450.9	392.54	7.2652e-06	7.5283e-06	442.36	148.55	130.65	45.167	7.7137e-06	55.297	102.343	-2.394	-0.908	-78.813	36.348	59.300	-78.959	-74.284	4.225	52.010	-74.856	-70.485	-70.393	-65.494	57.414	-65.982	-8191	255	
18519.889	1	1	0	0	0.059441	0.25152	0.16408	0.24859	0.1148	0.13677	0.17392	0.13334	0.13497	0.16516	0.2374	0.19382	0.075819	0.071752	0.14823	0.1895	-4.1	-4.4125	-4.8333	-4.5958	-4.6104	-4.9125	-4.3479	-4.7667	-4.5229	-4.1896	-4.8854	-4.3479	-4.6396	-4.8958	-4.1375	-4.6792	-52.267	126.468	265.454	232.839	202.367	194.686	195.609	265.162	190.333	111.434	195.207	189.989	118.355	217.244	-29.025	207.967	0.000488	0.00064547	0.00015129	1449.7	4.0465e-06	4.1911e-06	1430.5	386.05	3.4205e-06	5.1391e-06	432.94	144.85	127.84	43.814	6.1559e-06	53.824	0.00061699	0.00070316	0.00017531	1466.5	7.704e-06	6.8364e-06	1453.7	392.96	7.26e-06	7.7754e-06	443.1	148.68	130.9	45.143	7.5154e-06	55.37	105.271	-2.313	7.174	-78.778	37.834	55.304	-78.912	-74.215	-4.667	44.017	-74.628	-70.787	-70.080	-65.333	49.951	-65.948	-8191	255	
18520.010	1	1	0	0	0.10169	0.034444	0.17494	0.25772	0.16403	0.15924	0.1104	0.20575	0.21927	0.17178	0.099668	0.072677	0.23511	0.088687	0.13781	0.14581	-4.2	-4.3042	-4.7354	-4.7063	-4.4854	-4.8812	-4.3583	-4.8417	-4.7708	-4.2812	-5.0146	-4.4625	-4.4125	-4.9563	-4.2937	-4.675	66.029	55.139	-48.649	220.709	134.942	-8.662	208.442	188.438	81.105	133.760	228.941	194.715	245.652	-74.479	61.907	77.870	0.00043098	0.00044157	0.00013269	1451.2	3.7403e-06	4.1487e-06	1431.4	386.61	2.9373e-06	4.7345e-06	432.5	145.07	127.55	43.99	4.673e-06	53.863	0.00063767	0.00068895	0.00019634	1468	7.3274e-06	7.4702e-06	1453.6	393.06	7.0794e-06	7.8127e-06	442.3	148.66	130.89	45.218	7.6222e-06	55.482	103.044	-10.010	12.000	-78.943	49.074	54.884	-79.155	-74.232	14.094	53.974	-74.647	-70.575	-69.902	-65.232	66.455	-66.246	-8191	255	
18520.105	1	1	0	0	0.058076	0.1421	0.092656	0.1388	0.18189	0.077002	0.12432	0.20183	0.1924	0.082248	0.1148	0.28425	0.29902	0.16135	0.12301	0.2273	-4.1771	-4.225	-4.8604	-4.6062	-4.3229	-4.8708	-4.5312	-4.5813	-4.6729	-4.1542	-4.8792	-4.5229	-4.4062	-4.9	-4.2562	-4.6042	-64.389	126.260	211.596	190.041	63.901	-10.189	151.424	203.194	247.560	-71.563	244.100	267.554	215.090	219.994	-86.763	203.921	0.0004661	0.00046197	0.00015177	1454.1	3.6934e-06	5.9415e-06	1434.5	385.71	4.4359e-06	5.7081e-06	434.17	145.5	128.18	44.226	4.0776e-06	53.923	0.00060776	0.00070382	0.0001851	1471.6	7.1502e-06	7.5934e-06	1455.5	393.39	6.9145e-06	8.5638e-06	443.15	149.13	131.2	45.325	7.3125e-06	55.592	97.685	5.015	-4.047	-78.930	52.296	50.704	-79.009	-74.344	0.198	49.322	-74.547	-70.638	-70.246	-65.278	32.822	-66.174	-8191	255	
18520.201	1	1	0	0	0.082877	0.039678	0.15074	0.32875	0.22823	0.2356	0.067798	0.11521	0.043727	0.10104	0.27837	0.14207	0.14887	0.050639	0.20853	0.29322	-4.3792	-4.1875	-4.725	-4.5312	-4.2562	-4.9062	-4.5792	-4.6771	-4.6896	-3.9958	-4.7792	-4.7479	-4.2312	-4.8875	-4.3479	-4.4396	188.477	-20.663	47.559	223.614	-40.372	-52.613	-92.280	229.584	32.119	-79.791	260.432	257.159	9.943	188.455	124.890	200.821	0.00049729	0.00043276	0.00012941	1448.6	3.5009e-06	5.9882e-06	1431.3	386.21	2.1669e-06	4.7135e-06	436.18	145.26	128.68	44.105	6.4391e-06	53.91	0.00062172	0.00073738	0.00017372	1470.2	7.0108e-06	7.2022e-06	1455.1	393.66	6.9366e-06	7.897e-06	444.33	149.08	131.7	45.411	7.4803e-06	55.564	101.621	-11.447	6.756	-78.879	22.837	64.304	-78.859	-74.324	12.970	62.785	-74.876	-71.010	-70.156	-65.179	53.325	-66.045	-8191	255	
18520.297	1	1	0	0	0.20062	0.1999	0.10124	0.2087	0.19843	0.21347	0.21491	0.29693	0.099792	0.18949	0.20491	0.1111	0.048508	0.19534	0.14081	0.18018	-4.5396	-4.1833	-4.7417	-4.8396	-4.3417	-4.75	-4.6438	-4.3667	-4.8542	-4.4187	-4.7021	-4.9125	-4.2646	-4.9229	-4.4812	-4.5687	141.374	-0.471	127.393	-83.178	225.822	162.467	227.461	151.169	78.551	259.019	-29.614	-67.713	85.694	209.258	61.236	255.864	0.00048291	0.00060066	0.00013494	1452.1	3.0612e-06	4.2706e-06	1439.4	386.17	3.1524e-06	6.1252e-06	436.88	145.44	127.88	44.268	3.951e-06	53.923	0.00062519	0.00067308	0.00018594	1471.7	7.3079e-06	7.2139e-06	1458.5	394.37	6.9327e-06	7.6872e-06	444.37	149.11	131.37	45.47	7.3964e-06	55.618	97.300	-11.634	-5.073	-78.862	50.068	51.614	-79.154	-74.331	29.560	49.319	-74.649	-70.504	-70.330	-65.210	59.331	-66.220	-8191	255	
18520.393	1	1	0	0	0.18221	0.10504	0.059055	0.31846	0.14801	0.21519	0.16916	0.43942	0.099113	0.094004	0.27404	0.28814	0.16613	0.11545	0.076623	0.20514	-4.7125	-4.2063	-4.5708	-4.9646	-4.1125	-4.7708	-4.7583	-4.2583	-4.7458	-4.4208	-4.5958	-4.9271	-4.3313	-4.8646	-4.6062	-4.2958	-38.988	64.099	205.754	225.349	-85.541	183.197	209.018	243.538	-12.145	2.078	185.177	-88.310	-47.073	123.817	-83.972	240.404	0.00050565	0.00042216	0.00012253	1454.3	2.0099e-06	4.6092e-06	1430.1	386.55	3.0996e-06	4.5119e-06	437.21	145.79	127.93	44.145	5.0068e-06	54.276	0.00058788	0.00067192	0.00018393	1472.6	7.4929e-06	7.7069e-06	1454.2	393.71	6.7898e-06	7.3283e-06	444.42	149.32	131.04	45.387	7.6207e-06	55.661	100.262	1.832	8.924	-78.937	68.448	53.979	-79.178	-74.097	6.187	65.209	-74.728	-70.921	-70.203	-65.402	56.879	-66.061	-8191	255	
18520.488	1	1	0	0	0.23882	0.045215	0.074591	0.27747	0.17903	0.13789	0.14864	0.17206	0.23201	0.15695	0.20319	0.072041	0.29897	0.050989	0.065313	0.13437	-4.5125	-4.4167	-4.4042	-4.9896	-4.1521	-4.5583	-4.7688	-4.3562	-4.8167	-4.4563	-4.5125	-4.8917	-4.1979	-4.5771	-4.525	-4.3104	-35.347	-50.718	-63.440	255.417	-25.334	-89.819	219.889	187.227	120.792	99.656	246.412	-49.366	249.769	261.732	7.669	-59.910	0.00047842	0.00058762	0.00014792	1452.4	4.4525e-06	5.3888e-06	1437.7	386.32	5.5872e-06	5.5364e-06	435.92	145.2	128.06	44.214	5.4281e-06	54.082	0.00060959	0.00072994	0.00020009	1474.2	7.4225e-06	8.145e-06	1459.2	394.12	7.5653e-06	8.4481e-06	444.46	149.11	131.34	45.382	7.613e-06	55.555	100.624	-3.761	12.424	-78.783	35.739	51.040	-79.111	-74.206	-5.403	59.805	-74.739	-70.708	-69.963	-65.398	30.185	-65.942	-8191	255	
18520.609	1	1	0	0	0.11924	0.23997	0.13524	0.13314	0.20165	0.20928	0.10119	0.12823	0.059911	0.096631	0.14997	0.15237	0.13316	0.050781	0.16415	0.096854	-4.4896	-4.3875	-4.3354	-5.075	-4.1813	-4.575	-4.9458	-4.3	-4.4979	-4.6062	-4.4021	-5.1521	-4.4708	-4.5021	-4.7896	-4.3562	41.267	202.257	202.819	228.704	260.009	223.004	134.753	186.181	41.694	225.864	6.795	-85.964	-78.027	-45.950	-9.591	260.942	0.00046694	0.00043456	0.0001418	1454.3	4.0629e-06	5.5007e-06	1437.6	385.93	4.5235e-06	5.7183e-06	437.23	144.63	127.44	44.026	4.4945e-06	54.211	0.00061129	0.00072118	0.00018702	1474.2	7.8277e-06	7.6501e-06	1459	393.76	7.5601e-06	7.295e-06	444.81	149	130.99	45.315	7.4453e-06	55.633	101.252	3.176	11.316	-78.811	49.833	53.222	-78.858	-74.196	7.002	61.424	-74.342	-70.715	-70.242	-65.323	59.790	-66.024	-8191	255	
18520.705	1	1	0	0	0.030745	0.2048	0.13778	0.17172	0.15917	0.19709	0.31363	0.11876	0.2018	0.23577	0.31781	0.031167	0.11664	0.058893	0.23502	0.30331	-4.5458	-4.7917	-4.3271	-5.0062	-4.4708	-4.55	-5.0875	-4.3354	-4.7021	-4.6958	-4.4688	-4.7688	-4.3479	-4.3938	-4.75	-4.2042	16.478	42.160	176.830	211.263	172.580	136.108	141.429	223.700	80.813	-59.843	214.275	174.925	223.001	-13.452	255.598	170.902	0.00045138	0.00045444	0.00014664	1456.6	4.5027e-06	4.2372e-06	1443.3	387.27	4.5123e-06	4.4244e-06	438	144.96	127.32	44.194	4.9075e-06	54.106	0.00060497	0.000702	0.00020219	1474.9	7.36e-06	7.9827e-06	1460.6	394.46	7.6783e-06	7.8715e-06	445.18	148.94	130.97	45.392	7.5017e-06	55.532	99.653	-10.845	-3.085	-79.073	44.940	56.057	-78.948	-74.080	-9.536	52.400	-74.606	-70.743	-70.036	-65.319	49.971	-66.115	-8191	255	
18520.801	1	1	0	0	0.3395	0.074295	0.21737	0.33709	0.30192	0.15007	0.15619	0.28834	0.0877	0.13477	0.20164	0.18365	0.11381	0.13004	0.098224	0.069236	-4.3167	-4.6104	-4.1854	-5.05	-4.3938	-4.3583	-5.0542	-4.5021	-4.6542	-4.6438	-4.2583	-4.7833	-4.6604	-4.3854	-4.8938	-4.3417	119.952	87.498	238.121	247.576	116.217	-23.131	263.675	207.516	-45.027	47.589	212.699	84.689	152.830	235.391	92.514	23.324	0.00049322	0.00048646	0.00010008	1455	2.7868e-06	4.6312e-06	1436	387.88	3.6058e-06	3.5138e-06	435.02	145.7	128.12	44.07	4.6897e-06	54.037	0.0005864	0.00063159	0.00019985	1473	7.4199e-06	8.2917e-06	1458.3	394.6	7.347e-06	7.3185e-06	444.32	149.45	131.36	45.303	7.4147e-06	55.703	102.753	-3.276	-2.887	-78.871	43.416	52.957	-79.094	-74.295	1.865	38.375	-74.799	-70.861	-70.043	-65.364	66.645	-66.062	-8191	255	
18520.873	1	1	0	0	0.18509	0.19092	0.16597	0.36189	0.067762	0.10186	0.27516	0.11361	0.11463	0.10901	0.040552	0.032779	0.17775	0.20572	0.1166	0.18357	-4.1458	-4.6292	-4.0792	-4.9458	-4.6271	-4.3229	-5.0125	-4.6354	-4.55	-4.7396	-4.3063	-4.7562	-4.425	-4.3042	-4.8042	-4.4313	-60.055	-11.439	-84.167	247.835	265.660	200.675	-67.695	246.126	-39.942	111.570	216.375	12.372	213.985	-45.584	37.941	111.375	0.00047694	0.00061176	0.00017373	1453.6	3.6326e-06	4.7722e-06	1443.5	386.46	3.7954e-06	4.4044e-06	436.91	145.38	128.32	43.912	4.6381e-06	54.079	0.00062257	0.00065093	0.00021025	1474.1	7.0278e-06	7.8966e-06	1462	394.05	6.9807e-06	7.1087e-06	444.47	149.07	131.39	45.262	7.4163e-06	55.581	102.847	4.958	-0.702	-78.999	57.436	43.322	-79.030	-74.312	-26.504	61.181	-74.734	-70.594	-70.132	-65.200	46.017	-66.212	-8191	255	
18520.992	1	1	0	0	0.13686	0.19367	0.037216	0.18984	0.076888	0.027575	0.38269	0.14905	0.11406	0.18625	0.20325	0.1343	0.27142	0.10254	0.23359	0.25545	-4.0083	-4.7708	-4.0896	-4.9167	-4.5854	-4.0875	-4.9625	-4.4	-4.4333	-4.6896	-4.2958	-4.7	-4.5771	-4.2104	-4.8542	-4.5938	14.148	60.888	13.916	229.356	78.270	-68.419	169.852	237.017	140.813	61.628	243.551	255.455	179.827	-59.971	247.905	189.270	0.00047511	0.00045936	0.00012163	1459.1	4.565e-06	5.2528e-06	1442.7	386.82	3.4068e-06	4.7249e-06	434.62	145.28	128.02	44.105	3.9524e-06	53.993	0.00063522	0.00063423	0.00020116	1476.4	7.2297e-06	8.1255e-06	1461.3	393.76	7.4211e-06	6.9244e-06	443.76	149	131.29	45.3	6.7802e-06	55.541	100.405	-0.336	-7.833	-78.893	52.905	63.837	-78.987	-74.128	3.612	54.120	-74.658	-70.295	-69.983	-65.318	38.123	-66.260	-8191	255	
18521.090	1	1	0	0	0.086693	0.13859	0.038566	0.30435	0.19567	0.30597	0.19998	0.05412	0.16659	0.10842	0.12408	0.19033	0.17367	0.14783	0.19555	0.026163	-4.1188	-4.7812	-4.2312	-4.7896	-4.7229	-4.0896	-4.9042	-4.4646	-4.0938	-4.6417	-4.4563	-4.6042	-4.9208	-4.25	-4.6875	-4.6292	-20.367	0.623	62.305	251.829	250.363	98.916	185.576	18.002	58.441	-45.593	80.800	-18.105	222.932	266.063	-2.417	76.891	0.00048177	0.00071058	0.00010646	1458.4	2.1446e-06	3.8572e-06	1441.3	387.48	3.9889e-06	5.5874e-06	436.7	145.81	127.48	44.123	4.5442e-06	54.13	0.00064388	0.00069738	0.00019119	1476.1	6.9613e-06	8.3485e-06	1461.9	394.69	7.6783e-06	7.1793e-06	444.58	149.18	131.19	45.379	7.3019e-06	55.61	96.583	-9.946	-0.211	-78.883	36.431	76.986	-79.091	-74.320	23.308	44.298	-74.565	-70.642	-70.003	-65.074	33.973	-66.073	-8191	255	
18521.186	1	1	0	0	0.20417	0.13969	0.092779	0.34774	0.055415	0.11928	0.27096	0.17477	0.077833	0.14085	0.15227	0.21831	0.12742	0.24579	0.07283	0.12412	-3.8083	-4.7271	-4.2958	-4.5646	-4.5417	-4.2479	-5.0958	-4.7917	-4.1687	-4.6167	-4.6708	-4.5146	-4.9146	-4.4	-4.8208	-4.6271	-82.369	4.639	102.469	218.739	222.888	78.123	221.872	219.268	139.045	78.094	181.841	238.174	-68.516	262.152	-74.819	158.673	0.00046999	0.00062346	0.0001375	1455.8	4.2698e-06	5.144e-06	1439.9	387.44	4.3258e-06	4.4204e-06	435.9	145.22	128.46	44.06	4.4359e-06	54.159	0.00065111	0.00067605	0.0002029	1474.8	7.244e-06	8.2448e-06	1461.8	394.48	7.6757e-06	7.1381e-06	444.03	149.26	131.58	45.377	7.1707e-06	55.597	102.693	-6.470	-11.181	-78.990	41.954	56.888	-79.099	-74.187	-4.752	66.870	-74.804	-70.731	-70.242	-65.204	65.212	-66.135	-8191	255	
18521.281	1	1	0	0	0.079052	0.056735	0.17687	0.17023	0.33388	0.13903	0.16405	0.25526	0.21679	0.17483	0.1624	0.21723	0.14888	0.22691	0.079213	0.15461	-3.7729	-4.8979	-4.2771	-4.7583	-4.7458	-4.1875	-4.6854	-4.7542	-4.1208	-4.8	-4.4854	-4.4667	-5.0125	-4.4563	-4.5042	-4.6458	258.547	237.874	-74.563	-55.514	183.337	60.599	-84.458	226.169	239.423	190.558	33.017	240.527	-87.308	-28.721	136.117	246.182	0.00047767	0.00046014	0.00012503	1454.9	3.2627e-06	4.9908e-06	1437.1	386.64	2.897e-06	4.4012e-06	436.78	145.22	128.39	44.331	4.5243e-06	54.166	0.00063448	0.00067737	0.00019133	1476.1	6.9287e-06	8.1059e-06	1460.2	394.48	7.4886e-06	7.5597e-06	444.37	148.9	131.19	45.405	7.3217e-06	55.599	104.068	-15.092	2.749	-78.912	34.422	59.197	-79.017	-74.254	10.064	57.738	-74.624	-70.657	-70.201	-65.283	37.464	-66.334	-8191	255	
18521.400	1	1	0	0	0.22282	0.23969	0.19163	0.11743	0.075154	0.065655	0.24488	0.21313	0.24085	0.29016	0.15887	0.14749	0.16128	0.27158	0.1406	0.10295	-3.85	-4.8854	-4.4375	-4.525	-4.7479	-4.2438	-4.6625	-4.8875	-3.9979	-4.7042	-4.7167	-4.4333	-4.8521	-4.425	-4.6	-4.8917	-90.979	11.808	91.322	203.657	140.974	-80.838	198.466	170.401	174.651	-46.077	162.285	145.385	-85.720	222.475	236.996	-75.678	0.00048781	0.00051449	0.00011296	1454.9	4.8567e-06	7.1014e-06	1436	387.06	3.9282e-06	4.3461e-06	437.1	145.62	128.64	44.226	4.1044e-06	54.008	0.00063551	0.00067622	0.00019409	1476.1	6.8467e-06	8.2643e-06	1459.6	394.44	7.3457e-06	7.2185e-06	445.11	149.11	131.3	45.431	7.4437e-06	55.49	101.170	1.308	-3.442	-78.767	43.205	56.708	-79.028	-74.165	1.798	57.439	-74.821	-70.718	-70.059	-65.421	52.009	-66.236	-8191	255	
18521.473	1	1	0	0	0.085443	0.045982	0.12903	0.3545	0.11621	0.047657	0.1597	0.41491	0.23727	0.1015	0.23638	0.14556	0.25748	0.13098	0.16454	0.19715	-3.9479	-4.4667	-4.525	-4.45	-4.9792	-4.5333	-4.725	-4.8229	-4.1521	-4.6646	-4.8375	-4.3208	-4.8042	-4.4625	-4.3896	-4.8708	-19.772	118.616	172.823	161.775	-90.269	233.210	166.602	205.264	213.866	-57.165	-91.652	-83.167	202.009	-18.496	51.830	-90.632	0.00047024	0.00043804	0.00014309	1456.8	4.2106e-06	4.8651e-06	1438	387.43	3.2627e-06	5.8045e-06	435.83	145.65	127.83	44.086	3.8335e-06	54.072	0.0006277	0.00064498	0.00019704	1475.1	6.9379e-06	7.8536e-06	1458.6	394.08	7.2769e-06	7.6107e-06	444.01	148.99	131.15	45.355	7.578e-06	55.524	99.665	-3.684	6.952	-78.904	37.163	59.473	-79.015	-74.436	-6.368	67.330	-74.527	-70.790	-70.260	-65.187	63.041	-66.195	-8191	255	
18521.568	1	1	0	0	0.073194	0.21885	0.093647	0.24299	0.14967	0.032178	0.14496	0.18756	0.10134	0.28995	0.08076	0.11724	0.037596	0.19669	0.10005	0.17867	-3.975	-4.6625	-4.7	-4.4042	-4.65	-4.45	-4.5708	-4.9167	-4.3458	-4.6646	-4.8917	-4.2688	-4.9208	-4.6562	-4.2875	-4.8	232.869	244.518	-88.806	229.732	159.362	-2.645	182.307	178.693	177.137	68.111	182.922	48.814	253.393	166.844	188.933	-86.149	0.00046543	0.00057653	0.00014874	1460.8	2.8098e-06	4.2161e-06	1439.9	386.11	3.6968e-06	5.2076e-06	435.49	145.85	127.9	44.258	4.3027e-06	54.006	0.00061124	0.00067572	0.00018322	1476.4	7.1528e-06	7.5915e-06	1461.3	394.16	7.664e-06	7.8441e-06	443.84	149.37	130.93	45.342	7.7976e-06	55.517	98.785	-4.603	7.630	-78.892	55.250	48.386	-78.769	-74.305	8.111	65.665	-74.726	-70.642	-70.331	-65.491	46.119	-66.235	-8191	255	
18521.689	1	1	0	0	0.21701	0.1676	0.25789	0.25308	0.08973	0.034725	0.18012	0.41006	0.090288	0.06137	0.095665	0.19412	0.23105	0.21817	0.15254	0.08595	-3.9125	-4.3938	-4.6562	-4.4	-4.7292	-4.5188	-4.3	-4.9833	-4.3042	-4.5042	-4.9375	-4.0687	-4.7667	-4.4979	-4.275	-4.9083	159.854	-72.773	-26.391	218.001	143.857	195.935	172.498	185.944	-71.127	144.387	212.331	250.253	144.458	102.503	112.127	217.647	0.00049482	0.00061453	0.0001506	1456.7	3.6243e-06	5.4425e-06	1437.8	387.77	4.0001e-06	5.6918e-06	435.65	145.2	128.28	44.11	4.7728e-06	53.926	0.00063192	0.00069308	0.00019142	1475.1	7.1346e-06	7.744e-06	1461	394.09	7.5575e-06	8.2598e-06	444.19	148.98	131.5	45.259	7.671e-06	55.51	97.164	-12.042	-23.846	-78.944	53.342	52.650	-79.074	-74.244	-6.597	60.959	-74.700	-70.714	-70.049	-65.396	40.465	-66.221	-8191	255	
18521.785	1	1	0	0	0.1509	0.20387	0.060936	0.23815	0.060318	0.1695	0.094449	0.20078	0.15229	0.23874	0.22579	0.14716	0.12761	0.24268	0.1416	0.081719	-4.0229	-4.3375	-4.7792	-4.3187	-4.4896	-4.7625	-4.4583	-5.0125	-4.5458	-4.3917	-4.9479	-4.2021	-4.7	-4.7	-4.1354	-4.825	-37.065	-84.846	-47.044	231.899	161.637	99.871	180.783	220.285	93.375	237.422	195.647	-81.003	131.802	-78.647	223.901	130.422	0.0004648	0.00057627	0.00014328	1457.3	4.7277e-06	5.0476e-06	1441	386.72	3.876e-06	5.2232e-06	434.76	144.87	127.71	44.088	5.573e-06	53.858	0.00062548	0.00069109	0.00018669	1476	7.3509e-06	6.9597e-06	1461.7	394.07	7.499e-06	8.503e-06	443.97	148.99	131.05	45.272	8.0844e-06	55.505	97.021	8.156	-1.113	-78.875	52.473	65.106	-78.867	-74.312	11.557	63.053	-74.902	-70.592	-69.951	-65.307	50.569	-66.010	-8191	255	
18521.881	1	1	0	0	0.13016	0.12717	0.044346	0.064381	0.1	0.05958	0.22713	0.36189	0.17692	0.11272	0.059381	0.074668	0.26325	0.15426	0.11845	0.13475	-3.9771	-4.2438	-4.7646	-4.5437	-4.5375	-4.8917	-4.4167	-4.7708	-4.6583	-4.3042	-4.9896	-4.3521	-4.5062	-4.7125	-4.225	-4.8583	145.500	59.450	187.419	-69.344	8.504	3.697	230.159	204.378	96.645	169.035	251.488	147.135	266.873	167.476	192.501	140.105	0.00045312	0.00050535	0.00011017	1455.4	4.4102e-06	5.0284e-06	1439.2	385.98	2.5215e-06	3.9251e-06	436.63	145.13	127.86	43.952	4.9175e-06	54.138	0.00061859	0.00068944	0.00017615	1475.3	7.5124e-06	7.6834e-06	1461.7	393.72	7.8367e-06	8.0931e-06	444.96	148.84	131.14	45.235	7.7473e-06	55.52	100.110	8.132	10.531	-79.072	37.643	73.113	-78.909	-74.304	12.899	60.344	-74.762	-70.755	-70.305	-65.091	48.143	-65.898	-8191	255	
18522.002	1	1	0	0	0.063961	0.25373	0.1031	0.21138	0.073565	0.093454	0.22262	0.15382	0.086013	0.23709	0.28538	0.035947	0.052526	0.24283	0.05681	0.064359	-4.3042	-4.1333	-4.7667	-4.6021	-4.4083	-4.8792	-4.4854	-4.6813	-4.5396	-4.2646	-4.9771	-4.4833	-4.3542	-4.9563	-4.3104	-4.7042	69.486	28.797	130.962	258.744	17.791	247.448	199.569	187.951	192.483	161.222	219.103	158.104	85.238	-40.193	68.026	21.113	0.0004559	0.00052422	8.9395e-05	1455.9	3.821e-06	6.5775e-06	1442.3	386.8	4.3372e-06	5.3576e-06	434.05	144.97	127.68	44.067	5.3878e-06	54.079	0.00061016	0.00070994	0.00018852	1473.8	7.5632e-06	7.7499e-06	1461.1	394.24	7.4665e-06	7.948e-06	443.45	148.81	130.94	45.215	7.8525e-06	55.452	98.539	-3.949	-10.018	-78.885	41.491	60.625	-79.052	-74.356	19.938	58.814	-74.763	-70.749	-69.996	-65.112	50.507	-66.321	-8191	255	
18522.098	1	1	0	0	0.1606	0.074695	0.22722	0.12194	0.010434	0.15233	0.30029	0.25785	0.17664	0.17358	0.074231	0.20169	0.16026	0.32587	0.21363	0.16194	-4.3396	-4.0854	-4.8229	-4.65	-4.3583	-4.9042	-4.35	-4.7479	-4.7833	-4.0542	-4.7354	-4.5042	-4.2688	-4.95	-4.2688	-4.5354	36.012	218.078	93.127	195.240	15.893	-83.461	200.620	258.462	207.113	103.038	-26.185	243.997	-66.142	256.955	219.010	223.313	0.0004558	0.00051476	0.00014735	1450.6	4.095e-06	4.1204e-06	1437.4	385.47	2.3907e-06	4.5878e-06	437.49	144.49	128.18	43.94	3.8817e-06	53.963	0.00061471	0.00069473	0.00017995	1471.9	7.33e-06	6.8892e-06	1459.2	393.11	7.3353e-06	8.3461e-06	444.19	148.57	131.16	45.229	7.1097e-06	55.478	95.970	-23.152	4.211	-78.873	15.960	54.082	-78.929	-74.166	24.221	54.223	-74.628	-70.601	-70.163	-65.038	58.349	-66.181	-8191	255	
18522.170	1	1	0	0	0.22553	0.11752	0.033836	0.16484	0.111	0.26023	0.13899	0.20562	0.050898	0.18461	0.15219	0.19098	0.36403	0.18532	0.19645	0.14034	-4.4104	-4.3313	-4.6771	-4.6833	-4.15	-4.8208	-4.5083	-4.775	-4.7521	-4.3583	-4.6438	-4.7396	-4.4563	-4.9313	-4.3354	-4.6229	139.407	-57.990	-78.107	210.635	243.120	264.012	209.231	178.162	138.124	-0.105	247.678	239.503	221.540	222.625	222.325	224.039	0.00049515	0.00040878	0.00013451	1456.8	3.1884e-06	4.5732e-06	1437.4	387.13	5.2106e-06	4.5331e-06	436.52	145.45	128.08	44.065	4.4319e-06	53.856	0.00062622	0.0007149	0.00018229	1474.5	7.3235e-06	6.9264e-06	1459.1	394.22	7.0911e-06	8.2324e-06	443.94	149.02	131.09	45.271	7.2546e-06	55.454	99.631	-10.075	-1.652	-78.859	55.698	54.201	-79.140	-74.474	18.930	46.199	-74.812	-70.590	-70.131	-65.156	32.093	-66.295	-8191	255	
18522.289	1	1	0	0	0.064573	0.046297	0.06412	0.2194	0.26162	0.12938	0.33562	0.13826	0.25759	0.17197	0.28286	0.074832	0.063307	0.059103	0.188	0.079168	-4.4167	-4.3375	-4.8146	-4.8417	-4.0396	-5.0375	-4.5708	-4.4458	-4.8104	-4.3167	-4.7792	-4.7937	-4.3125	-4.7021	-4.4938	-4.4563	-18.806	257.500	253.511	200.583	55.878	-7.921	261.453	205.507	243.037	88.788	222.226	-13.467	100.060	242.353	125.083	-75.580	0.00047129	0.00058763	0.00015193	1451.7	4.4747e-06	5.8957e-06	1435.1	387.96	2.5232e-06	6.0236e-06	436.95	145.09	128.42	44.108	5.8892e-06	53.902	0.0006003	0.00071886	0.0001947	1473.9	7.347e-06	6.9186e-06	1460.1	394.29	7.0379e-06	8.5853e-06	444.28	148.93	131.26	45.328	7.3705e-06	55.516	102.461	-3.528	-0.781	-78.941	32.117	63.334	-79.034	-74.242	29.564	58.979	-74.807	-70.826	-70.153	-65.307	34.088	-66.053	-8191	255	
18522.385	1	1	0	0	0.24202	0.1197	0.020022	0.15708	0.072917	0.1904	0.17062	0.12633	0.19845	0.1964	0.095202	0.18644	0.28814	0.19602	0.08017	0.26555	-4.5896	-4.425	-4.5333	-4.9958	-4.2208	-4.6458	-4.8417	-4.4771	-4.9271	-4.3667	-4.6333	-4.8917	-4.1604	-4.9146	-4.525	-4.4083	60.884	152.540	-14.169	162.443	183.481	202.308	166.882	-66.473	227.715	-33.173	240.604	251.563	264.744	233.191	67.393	248.380	0.00043206	0.00054153	0.00017849	1452.4	5.0988e-06	4.7241e-06	1442.1	386.16	3.2099e-06	5.1229e-06	434.4	145.37	127.28	44.121	4.3902e-06	53.8	0.00061312	0.00068399	0.00019423	1474.5	7.6675e-06	7.2883e-06	1460.3	393.79	6.9158e-06	7.2048e-06	443.45	149.14	131.01	45.288	7.1737e-06	55.579	99.863	-6.013	6.958	-78.878	38.128	64.133	-79.099	-74.340	-10.264	53.931	-74.645	-70.711	-69.917	-65.351	52.498	-66.016	-8191	255	
18522.480	1	1	0	0	0.097245	0.21039	0.16396	0.21098	0.10172	0.20463	0.15155	0.17405	0.13261	0.3138	0.16155	0.35991	0.11479	0.32037	0.084974	0.30172	-4.5062	-4.35	-4.4771	-5.1042	-4.25	-4.8	-4.7562	-4.3625	-4.8562	-4.3875	-4.4688	-4.8979	-4.3521	-4.7042	-4.6833	-4.3146	-57.709	52.536	-41.501	205.444	214.007	28.603	158.450	135.526	232.502	179.822	-81.654	254.644	-3.957	267.081	-72.630	235.508	0.00044445	0.00039149	0.00016453	1452.8	3.937e-06	5.638e-06	1433	385.49	3.4444e-06	5.4925e-06	435.93	145.39	128.29	43.981	3.961e-06	53.98	0.00060395	0.00069242	0.00018866	1472.9	7.3352e-06	7.4976e-06	1458.4	393.95	7.1522e-06	7.797e-06	443.98	148.93	131.28	45.278	7.1356e-06	55.514	97.852	-14.433	-1.199	-78.789	51.900	58.788	-79.141	-74.383	34.026	57.972	-74.929	-70.769	-70.133	-65.364	48.257	-66.066	-8191	255	
18522.576	1	1	0	0	0.27584	0.13672	0.27671	0.28852	0.22023	0.13265	0.21254	0.17585	0.1437	0.065928	0.12871	0.19999	0.16559	0.092085	0.052125	0.20158	-4.4062	-4.6354	-4.3167	-5.0938	-4.2979	-4.5417	-4.9521	-4.4417	-4.8375	-4.5458	-4.6021	-4.9125	-4.3229	-4.5229	-4.6583	-4.2958	16.924	-40.718	-28.522	195.696	-46.819	-24.692	239.998	231.311	55.385	213.106	200.480	185.928	-61.112	140.531	46.159	227.278	0.00041862	0.00058331	0.00017675	1450.4	3.7544e-06	4.511e-06	1428.5	387.26	3.6408e-06	5.3992e-06	435.6	145.38	128.03	44.2	3.3064e-06	54.258	0.00061129	0.00067523	0.00020308	1471.9	7.1398e-06	7.1513e-06	1456.1	394.2	6.7352e-06	7.6421e-06	443.82	148.91	131.23	45.391	7.2637e-06	55.616	99.994	9.805	0.586	-78.889	53.074	73.592	-79.071	-74.205	-9.722	53.903	-74.449	-70.870	-70.211	-65.162	28.027	-66.142	-8191	255	
18522.697	1	1	0	0	0.10412	0.056949	0.1159	0.25822	0.016483	0.19989	0.1451	0.23987	0.076473	0.24559	0.25814	0.37162	0.11615	0.12719	0.16113	0.15349	-4.1625	-4.6708	-4.3542	-5.0875	-4.2958	-4.3625	-4.9604	-4.3417	-4.8333	-4.5354	-4.4542	-4.9062	-4.4583	-4.4958	-4.7792	-4.3167	240.419	55.875	77.913	237.810	-84.404	186.380	237.472	176.895	199.423	10.514	-86.193	233.691	169.583	210.810	163.971	187.376	0.00042292	0.00049176	0.00014457	1457.6	4.3403e-06	5.8382e-06	1437.9	387.02	4.6332e-06	5.6623e-06	437.32	145.23	127.05	43.896	4.1411e-06	53.921	0.00059369	0.00068233	0.00019854	1475.1	7.4668e-06	7.1729e-06	1458.7	394.09	7.4458e-06	8.2578e-06	444.67	148.91	130.75	45.276	6.9693e-06	55.473	98.967	-9.852	-0.013	-78.826	37.843	64.889	-78.860	-74.415	-8.201	56.164	-74.640	-70.791	-70.313	-65.142	50.975	-66.160	-8191	255	
18522.770	1	1	0	0	0.27019	0.12155	0.081336	0.26504	0.19246	0.066424	0.10899	0.088192	0.024722	0.089533	0.13474	0.24526	0.042651	0.12818	0.15796	0.099563	-4.2812	-4.725	-4.1937	-4.9	-4.2979	-4.5125	-5.0938	-4.3688	-4.4917	-4.6583	-4.2896	-4.8104	-4.4479	-4.3938	-4.9667	-4.4354	225.961	214.463	-90.210	251.161	47.010	254.064	164.959	248.773	230.959	216.808	197.707	29.077	49.624	266.147	205.220	53.650	0.00048435	0.00066137	0.00015321	1454.8	4.5729e-06	4.8478e-06	1439.8	387.44	5.1127e-06	4.7048e-06	435.35	144.78	128.3	44.237	4.0418e-06	53.922	0.00059147	0.00068944	0.00020009	1473.3	7.4629e-06	8.2174e-06	1459.3	394.17	7.4574e-06	7.346e-06	444.12	148.9	131.29	45.338	7.2424e-06	55.597	101.668	-6.406	2.407	-78.870	60.439	68.249	-79.103	-74.475	3.073	61.852	-74.624	-70.654	-70.329	-65.360	41.811	-66.050	-8191	255	
18522.865	1	1	0	0	0.153	0.16312	0.28797	0.15406	0.091275	0.23768	0.34189	0.045081	0.015365	0.093736	0.30843	0.20037	0.25769	0.23509	0.12745	0.11071	-4.2854	-4.6167	-4.1458	-4.8104	-4.5167	-4.0708	-5.0229	-4.3938	-4.3708	-4.825	-4.2812	-4.7104	-4.5813	-4.4875	-5.0229	-4.5146	-27.039	-79.473	16.011	-92.184	3.427	248.956	222.280	78.425	214.946	267.466	266.394	-86.437	-43.771	-70.935	194.085	98.833	0.00047109	0.00039664	0.00014821	1450.9	4.0049e-06	3.0468e-06	1434.6	387.09	3.5551e-06	4.912e-06	434.19	144.98	127.95	44.036	2.6338e-06	54.045	0.00061654	0.00066647	0.00019226	1472.2	7.218e-06	7.6834e-06	1458.1	394.09	7.5679e-06	7.6323e-06	442.76	148.67	131.12	45.269	7.1097e-06	55.608	97.358	8.145	16.497	-78.901	50.386	52.350	-79.079	-74.299	2.479	62.839	-74.706	-70.670	-70.586	-65.419	41.144	-66.373	-8191	255	
18522.963	1	1	0	0	0.17137	0.14003	0.1057	0.23391	0.15021	0.13098	0.09657	0.14757	0.062856	0.19877	0.25058	0.060828	0.067531	0.15572	0.19649	0.19679	-4.2146	-4.5604	-4.3667	-4.9083	-4.6479	-4.2	-5.0104	-4.6729	-4.4062	-4.7167	-4.3542	-4.6958	-4.7312	-4.4104	-4.7896	-4.6542	187.768	11.447	160.195	263.522	151.017	0.694	207.864	-38.935	61.227	58.156	195.381	10.388	140.143	-2.925	248.675	206.811	0.00047398	0.00046026	0.00013481	1454.8	4.0033e-06	5.1795e-06	1442.5	387	3.9984e-06	5.3396e-06	435.79	145.61	128.32	44.092	5.0497e-06	54.003	0.0006199	0.00063374	0.00019695	1474	7.3118e-06	8.1235e-06	1460	393.86	7.725e-06	7.848e-06	443.89	149.13	131.14	45.308	7.2103e-06	55.527	103.242	8.427	-5.242	-78.826	40.339	62.480	-79.062	-74.241	3.237	62.291	-74.625	-70.774	-70.091	-65.329	27.589	-66.140	-8191	255	
18523.082	1	1	0	0	0.16802	0.066914	0.04977	0.2266	0.17939	0.16963	0.3435	0.18848	0.25294	0.12532	0.12216	0.14059	0.052666	0.064381	0.13437	0.15642	-4.0958	-4.8833	-4.2396	-4.7667	-4.675	-4.2021	-5.1542	-4.6875	-4.325	-4.9437	-4.4646	-4.625	-4.9542	-4.2125	-4.7438	-4.6604	30.687	-47.366	139.938	174.855	-4.894	29.973	206.586	122.002	178.880	216.682	-82.938	206.642	156.756	261.290	64.094	106.918	0.00047757	0.00049389	0.0001704	1453.5	4.1184e-06	4.1957e-06	1436.3	386.65	4.5195e-06	4.9313e-06	434.92	145.2	127.72	44.248	4.6482e-06	54.049	0.00061585	0.000642	0.0002043	1475.1	7.2662e-06	7.8497e-06	1459	394.21	7.7211e-06	7.1891e-06	443.9	149.13	131.1	45.358	7.0532e-06	55.622	101.573	-7.798	-3.224	-78.852	50.393	58.365	-78.959	-74.310	-0.784	55.184	-74.567	-70.642	-69.929	-65.360	44.462	-66.117	-8191	255	
18523.178	1	1	0	0	0.14836	0.15092	0.10854	0.27179	0.071494	0.13789	0.40681	0.17327	0.060233	0.098414	0.048887	0.14455	0.10481	0.13557	0.1754	0.049664	-3.9583	-4.8688	-4.2958	-4.6917	-4.8104	-4.1896	-4.9396	-4.7833	-4.3042	-4.8938	-4.4167	-4.6292	-4.9396	-4.2104	-4.5729	-4.7083	225.852	73.643	-11.030	158.739	210.928	-34.327	233.387	188.551	115.275	263.110	10.456	209.639	88.616	183.100	119.089	-38.078	0.00050175	0.00052224	0.00012263	1452.5	4.5776e-06	5.994e-06	1441	385.93	2.8948e-06	5.5638e-06	433.74	144.84	128.87	44.106	4.9972e-06	53.828	0.00061517	0.00063903	0.0002043	1473.8	6.9626e-06	7.9475e-06	1460.9	394.08	7.0223e-06	7.1263e-06	443.27	149.05	131.41	45.283	7.0365e-06	55.484	98.190	-12.105	12.110	-78.924	41.355	50.351	-79.050	-74.349	6.618	59.868	-74.522	-70.438	-70.185	-65.243	60.962	-66.020	-8191	255	
18523.273	1	1	0	0	0.14974	0.09376	0.15145	0.29885	0.034751	0.19072	0.22024	0.22996	0.20907	0.22716	0.16695	0.16696	0.18783	0.091073	0.15248	0.11776	-3.9021	-4.7146	-4.4146	-4.7542	-4.8917	-4.0375	-4.8146	-4.8083	-4.1813	-4.7396	-4.5375	-4.3812	-4.7583	-4.5125	-4.5354	-4.8187	20.249	214.194	-24.328	253.303	120.475	245.263	201.985	245.885	-8.566	75.308	222.915	232.384	24.583	-35.670	54.799	212.546	0.00047398	0.00053649	0.00017418	1456	4.3352e-06	4.9689e-06	1434	386.24	2.9466e-06	5.2951e-06	437.31	145.02	128.24	44.106	5.3414e-06	54.129	0.00061762	0.00067142	0.00017348	1473.1	7.1815e-06	7.2335e-06	1456.1	393.54	7.4393e-06	6.9028e-06	444.23	148.98	131.31	45.311	7.4651e-06	55.552	103.564	-17.051	3.414	-78.748	45.960	47.136	-78.993	-74.405	21.466	47.878	-74.464	-70.771	-70.292	-65.346	38.279	-66.173	-8191	255	
18523.371	1	1	0	0	0.29631	0.39714	0.042393	0.10047	0.042329	0.091501	0.12754	0.13615	0.12106	0.032956	0.18239	0.18666	0.21769	0.2231	0.20969	0.081544	-3.7104	-4.875	-4.5625	-4.5729	-4.8479	-4.3625	-4.6417	-4.8417	-4.1521	-4.7229	-4.5729	-4.3313	-5.0229	-4.3688	-4.5792	-4.8938	240.828	-2.329	-35.030	156.192	218.059	132.024	176.108	259.268	81.133	81.584	-33.641	263.925	246.702	-62.021	208.388	209.500	0.00047669	0.00047344	0.00015817	1454.6	4.0931e-06	4.1959e-06	1438	385.02	4.2893e-06	5.1431e-06	435.76	145.51	128.45	44.049	4.2842e-06	54.019	0.00062542	0.00065076	0.00018313	1474.2	6.9405e-06	7.6404e-06	1459.9	393.24	7.3535e-06	7.7656e-06	444.25	148.97	131.51	45.3	7.2653e-06	55.648	99.814	-13.764	3.024	-78.852	29.968	53.613	-79.017	-74.127	8.612	46.487	-74.636	-70.734	-70.299	-65.333	48.613	-65.901	-8191	255	
18523.465	1	1	0	0	0.36605	0.088462	0.18681	0.25929	0.12813	0.24256	0.065931	0.11993	0.14938	0.20914	0.22325	0.21858	0.22487	0.067211	0.30018	0.15469	-3.7313	-4.6375	-4.4146	-4.4708	-4.7292	-4.4979	-4.7125	-4.8792	-4.0938	-4.5625	-4.7104	-4.3604	-5.0125	-4.4417	-4.3396	-4.8104	-77.040	97.611	57.256	261.175	101.768	59.040	-73.242	236.352	201.583	194.351	205.626	232.358	13.395	31.077	24.110	213.694	0.00049429	0.00046412	0.00013346	1457.1	4.6291e-06	5.6216e-06	1443.8	387.22	4.2742e-06	6.3315e-06	436.8	145.8	127.86	43.801	5.4555e-06	53.689	0.00063169	0.00069936	0.00019006	1477.7	7.2636e-06	8.1176e-06	1463.4	394.95	7.6185e-06	7.9402e-06	445.27	149.24	131.14	45.256	7.8464e-06	55.496	98.353	-21.482	18.168	-78.859	29.489	61.843	-79.162	-74.399	30.197	52.975	-74.824	-70.840	-70.222	-65.511	49.341	-66.370	-8191	255	
18523.561	1	1	0	0	0.14248	0.070277	0.14747	0.15677	0.19199	0.092516	0.24378	0.17607	0.24437	0.15086	0.065831	0.14817	0.1364	0.12189	0.029824	0.14011	-3.9292	-4.5646	-4.6375	-4.3938	-4.8292	-4.4979	-4.5583	-4.975	-4.3896	-4.6937	-4.8146	-4.3958	-4.8187	-4.6604	-4.3396	-5.0125	217.824	66.213	193.846	241.843	-19.479	215.658	219.203	260.167	114.927	88.271	153.101	229.365	219.286	235.611	242.942	179.398	0.00049278	0.00058101	0.00012638	1461.3	4.137e-06	4.9292e-06	1444.8	387.79	3.6984e-06	6.7693e-06	436.43	145.12	127.36	43.992	3.775e-06	54.013	0.00061927	0.00071721	0.00019217	1482.2	7.4277e-06	7.9964e-06	1466.5	395.01	7.9342e-06	8.6246e-06	445.04	149.12	131.01	45.217	7.7686e-06	55.431	98.170	-6.932	5.072	-78.593	33.873	37.798	-79.125	-74.273	7.232	58.437	-74.675	-70.625	-70.299	-65.263	27.343	-66.251	-8191	255	
18523.682	1	1	0	0	0.20066	0.18548	0.05072	0.032494	0.075435	0.21418	0.32476	0.12171	0.20939	0.17102	0.045621	0.17403	0.12721	0.11881	0.13211	0.14422	-3.9	-4.5354	-4.8271	-4.2729	-4.7229	-4.5542	-4.4229	-4.9104	-4.3	-4.5646	-4.7854	-4.2083	-4.7438	-4.6292	-4.2562	-4.9958	23.345	190.263	22.637	163.375	-73.356	-15.934	209.340	239.645	-14.035	159.470	173.511	-68.638	-42.827	201.068	170.995	111.271	0.00048803	0.00053443	0.00016678	1457.7	3.5591e-06	4.8606e-06	1438.8	387.44	4.4136e-06	5.3322e-06	435.35	145.42	128.11	43.944	3.6026e-06	53.74	0.00065163	0.00072696	0.00018796	1479.3	7.2141e-06	8.0472e-06	1464.5	394.81	7.5263e-06	8.1265e-06	444.22	149.08	131.22	45.256	7.9532e-06	55.396	97.658	-2.720	-7.092	-78.961	43.953	54.702	-79.119	-74.291	7.287	68.355	-74.754	-70.638	-70.169	-65.567	59.541	-66.298	-8191	255	
18523.777	1	1	0	0	0.1969	0.2947	0.20087	0.26117	0.22681	0.16128	0.13447	0.32859	0.20592	0.17179	0.10058	0.12936	0.030427	0.36001	0.086873	0.14627	-4.0938	-4.4	-4.8187	-4.5021	-4.6458	-4.6729	-4.4375	-4.9938	-4.4333	-4.4646	-4.8021	-4.3708	-4.7667	-4.7042	-4.2667	-4.8854	-15.594	116.436	-77.361	232.266	-55.553	195.203	184.900	205.719	16.294	43.506	-70.066	-74.104	264.328	-16.191	-75.902	-24.684	0.00046706	0.00051542	0.00014046	1456.4	4.3949e-06	5.1286e-06	1444.8	387.08	3.6084e-06	5.2466e-06	435.48	145.29	127.78	44.01	3.5758e-06	53.984	0.00062662	0.00070663	0.00018224	1477.2	7.317e-06	7.7088e-06	1464.9	394.18	7.4341e-06	8.3265e-06	444.18	149.01	131.06	45.18	7.9044e-06	55.484	101.175	2.998	-9.493	-78.957	39.562	55.800	-79.232	-74.364	6.777	49.289	-74.422	-70.639	-70.099	-65.466	47.684	-66.214	-8191	255	
18523.873	1	1	0	0	0.17434	0.29024	0.26905	0.17967	0.14264	0.037265	0.080806	0.38973	0.15098	0.15309	0.084743	0.20594	0.22356	0.18211	0.2352	0.10817	-4.1438	-4.3667	-4.825	-4.2896	-4.6521	-4.9	-4.3708	-4.8146	-4.5458	-4.2188	-4.9479	-4.3083	-4.5437	-4.9771	-4.2354	-4.8125	43.610	116.048	-4.170	-89.201	261.646	217.311	169.967	210.644	30.917	-67.734	241.332	-38.887	171.182	205.062	-17.233	152.472	0.0004321	0.00049481	0.00011579	1458.4	3.575e-06	5.9515e-06	1434.9	386.59	4.5816e-06	5.3336e-06	435.17	145.16	127.67	43.896	4.1947e-06	54.028	0.00060229	0.00068779	0.0001755	1474.4	7.0382e-06	7.744e-06	1460.3	393.46	7.286e-06	7.7166e-06	443.42	148.87	130.6	45.087	7.7488e-06	55.486	96.097	-4.999	-10.212	-78.778	42.259	55.731	-79.004	-74.315	8.160	54.778	-74.505	-70.490	-69.975	-65.251	51.587	-66.028	-8191	255	
18523.971	1	1	0	0	0.097538	0.051421	0.25808	0.29162	0.16081	0.072429	0.31175	0.087155	0.11052	0.040885	0.20674	0.14873	0.12119	0.20152	0.19401	0.17932	-4.0687	-4.1917	-4.7812	-4.4812	-4.4667	-4.7438	-4.4458	-4.7479	-4.6667	-4.2083	-5.0125	-4.6271	-4.4708	-4.7917	-4.1146	-4.6854	73.403	-45.565	25.871	204.295	108.567	220.108	199.039	146.658	-5.009	122.453	237.853	165.760	165.984	247.209	110.689	162.815	0.00047314	0.0005446	0.00012777	1451.3	4.1829e-06	4.5176e-06	1434.9	385.72	4.2902e-06	5.212e-06	435.11	144.7	127.45	43.894	5.2395e-06	53.875	0.000615	0.000702	0.00017114	1471	7.1919e-06	7.1905e-06	1458.7	393.16	7.1314e-06	7.7401e-06	443.63	148.82	130.75	45.127	7.4864e-06	55.376	98.987	7.190	5.495	-78.792	39.021	58.959	-78.969	-74.022	15.399	59.617	-74.695	-70.577	-70.400	-65.313	59.171	-65.951	-8191	255	
18524.066	1	1	0	0	0.23496	0.19821	0.25898	0.27396	0.15474	0.092188	0.3278	0.05564	0.16213	0.18276	0.30228	0.063034	0.18569	0.2491	0.18725	0.076364	-4.2708	-3.9792	-4.8042	-4.6354	-4.3458	-4.7896	-4.4042	-4.6479	-4.6188	-4.2021	-4.9187	-4.625	-4.4458	-4.9875	-4.1125	-4.7146	-34.386	-45.407	2.732	-91.254	-7.371	130.190	202.948	20.566	83.681	116.487	191.402	-24.134	-88.395	235.979	87.131	162.728	0.00047899	0.0005078	0.00017119	1454.5	4.0097e-06	5.5941e-06	1438.9	386.67	3.9383e-06	3.6639e-06	436.36	145.02	127.27	44.012	4.9707e-06	53.712	0.00059364	0.00072762	0.00018468	1471.4	7.532e-06	6.854e-06	1458.7	393.3	7.0353e-06	7.3675e-06	443.71	148.75	130.55	45.175	7.0426e-06	55.276	99.913	-3.285	1.785	-78.857	35.019	57.471	-79.005	-74.351	21.572	49.342	-74.604	-70.743	-70.108	-65.246	46.646	-66.002	-8191	255	
18524.162	1	1	0	0	0.07611	0.067317	0.14424	0.064714	0.20289	0.15096	0.29318	0.18664	0.18028	0.29553	0.11599	0.20722	0.10329	0.081719	0.056923	0.11196	-4.3771	-4.2292	-4.7396	-4.6813	-4.1625	-4.7438	-4.5271	-4.7125	-4.7	-4.2937	-4.8646	-4.6021	-4.3125	-4.8979	-4.1646	-4.7312	183.893	32.937	92.382	249.981	-0.185	115.830	193.434	239.940	97.573	-1.652	201.290	182.625	204.010	-49.236	244.990	-66.513	0.00048339	0.00057281	0.00015338	1449.5	5.5994e-06	7.0307e-06	1433	384.75	4.4683e-06	4.7216e-06	433.94	145.47	127.16	43.659	5.3139e-06	53.979	0.00060127	0.00068614	0.00017479	1468.9	7.4799e-06	6.9577e-06	1457	393.05	7.108e-06	7.8656e-06	442.91	148.89	130.63	45.104	7.5322e-06	55.374	99.291	-16.099	-11.889	-78.870	49.108	49.572	-78.905	-74.279	11.700	69.630	-74.788	-70.868	-70.206	-65.407	59.207	-66.164	-8191	255	
18524.258	1	1	0	0	0.060583	0.15613	0.27051	0.34417	0.12263	0.14548	0.24987	0.29811	0.30018	0.1567	0.096025	0.081377	0.17547	0.34407	0.11938	0.20427	-4.4646	-4.0854	-4.5437	-4.6396	-4.3375	-4.8792	-4.6271	-4.6083	-4.8604	-4.1521	-4.6979	-4.7396	-4.3042	-4.7521	-4.3938	-4.3271	113.149	98.951	73.928	215.247	-1.592	234.156	197.825	193.562	217.980	121.473	171.881	116.379	-41.409	249.596	-29.017	183.863	0.00050798	0.00046509	0.00013977	1449.5	5.5199e-06	5.4943e-06	1437	384.8	4.1793e-06	4.1692e-06	435.19	145.22	127.44	43.867	3.9928e-06	53.815	0.00059791	0.00070547	0.00018721	1470.2	7.1997e-06	7.6032e-06	1456.9	392.5	7.1483e-06	7.6166e-06	443.19	148.41	130.43	45.08	7.8968e-06	55.387	100.163	-2.091	15.161	-78.907	34.578	60.089	-79.037	-74.169	8.671	63.009	-74.711	-70.798	-70.350	-65.370	40.975	-66.072	-8191	255	
18524.379	1	1	0	0	0.042617	0.052046	0.14625	0.24266	0.11071	0.14637	0.21225	0.092399	0.12452	0.10713	0.12968	0.12151	0.19433	0.33837	0.18842	0.046684	-4.3708	-4.1813	-4.6354	-4.9521	-4.0625	-4.7479	-4.6813	-4.5583	-4.8167	-4.3125	-4.6708	-4.825	-4.1958	-4.8708	-4.4896	-4.4667	220.208	226.275	101.289	190.055	-76.945	36.393	145.441	177.489	43.431	68.807	182.098	236.374	67.221	249.641	173.826	248.093	0.00047248	0.0004094	0.00010281	1446.1	2.3595e-06	4.3794e-06	1432.8	385.2	4.0603e-06	4.4522e-06	433.67	145.02	127.91	43.982	4.2743e-06	53.87	0.00060657	0.00065407	0.00018777	1469.8	7.0134e-06	6.9733e-06	1457.3	392.82	6.7534e-06	7.7205e-06	442.35	148.65	131.06	45.204	6.9892e-06	55.413	102.944	-9.415	8.139	-78.715	45.429	57.413	-79.007	-74.250	5.994	66.530	-74.712	-70.735	-70.186	-65.200	42.721	-66.002	-8191	255	
18524.475	1	1	0	0	0.11539	0.11949	0.097099	0.26201	0.10445	0.19749	0.084731	0.058318	0.19922	0.020241	0.14165	0.11563	0.12006	0.23504	0.15527	0.097278	-4.45	-4.2729	-4.4125	-4.9104	-4.15	-4.8	-4.8271	-4.3708	-4.85	-4.3604	-4.4896	-4.9729	-4.3479	-4.6417	-4.4604	-4.4625	208.484	225.476	137.243	184.446	-61.979	-13.392	-81.248	210.905	54.954	223.729	-71.694	-78.631	220.559	-65.358	45.910	190.425	0.00047291	0.00053667	0.00013771	1450.5	4.5994e-06	5.7954e-06	1433.7	385.17	4.1645e-06	6.2725e-06	434.16	144.34	127.54	43.904	4.8165e-06	53.912	0.00058526	0.00066845	0.00019255	1468.1	7.6388e-06	7.165e-06	1455.6	392.28	6.8729e-06	7.3283e-06	442.03	148.22	130.78	45.129	7.4529e-06	55.366	100.096	3.808	-7.313	-78.844	40.556	53.520	-78.938	-74.365	-1.822	65.053	-74.641	-70.580	-70.091	-64.968	58.861	-66.091	-8191	255	
18524.570	1	1	0	0	0.12875	0.14902	0.088412	0.23974	0.20812	0.099559	0.17415	0.13006	0.14573	0.23578	0.28129	0.11629	0.096894	0.16094	0.22021	0.063177	-4.55	-4.4042	-4.4354	-4.8688	-4.2979	-4.6417	-4.8375	-4.3646	-4.6417	-4.3979	-4.5875	-4.9396	-4.2833	-4.7667	-4.7854	-4.1438	52.933	46.430	32.695	198.073	166.758	-10.989	219.392	155.309	-52.237	-53.286	209.109	49.717	-66.658	252.709	-8.879	224.044	0.00042913	0.00058909	0.00016552	1446.3	3.4596e-06	5.1101e-06	1429.8	385.37	4.8422e-06	4.949e-06	434.06	145.12	127.31	44.012	4.0446e-06	53.871	0.000597	0.00072432	0.00019376	1465.6	7.2766e-06	7.1357e-06	1453.4	392.62	6.9703e-06	7.6264e-06	442.37	148.64	130.58	45.167	7.401e-06	55.429	97.319	-17.190	-9.238	-78.959	39.105	57.523	-78.946	-74.453	19.946	68.250	-74.760	-70.860	-70.098	-65.133	40.792	-66.139	-8191	255	
18524.643	1	1	0	0	0.37687	0.15291	0.2908	0.23179	0.18103	0.15718	0.30892	0.15227	0.098753	0.18285	0.14115	0.19643	0.23745	0.39897	0.091901	0.10282	-4.4958	-4.4979	-4.3063	-5.0833	-4.3083	-4.4875	-4.9625	-4.3021	-4.5563	-4.5708	-4.3042	-4.8438	-4.3375	-4.4958	-4.7375	-4.3438	-63.636	110.634	-0.818	202.514	118.464	-34.478	243.739	51.698	-75.272	-12.308	156.823	232.687	188.345	233.149	3.894	-13.799	0.0004763	0.00048852	0.00012315	1451.9	3.3604e-06	4.6892e-06	1434.1	384.95	3.2266e-06	4.3484e-06	434.39	144.66	127.96	43.91	5.1519e-06	54.022	0.00060383	0.00064084	0.000185	1469.8	7.2597e-06	6.8599e-06	1455.2	392.69	6.8716e-06	6.944e-06	443.6	148.48	130.83	45.186	6.8351e-06	55.469	100.237	-4.023	-5.649	-78.667	48.225	53.491	-79.074	-74.377	-14.043	69.133	-74.714	-70.508	-70.209	-65.466	42.670	-66.208	-8191	255	
18524.762	1	1	0	0	0.15939	0.20386	0.32906	0.20821	0.29866	0.012895	0.25369	0.27135	0.21991	0.17894	0.20645	0.28474	0.16645	0.16616	0.21763	0.15083	-4.3208	-4.5958	-4.3208	-5.0875	-4.4313	-4.5375	-5.0042	-4.2479	-4.7167	-4.7229	-4.2979	-4.9167	-4.35	-4.5354	-4.7958	-4.4417	-31.231	-90.384	178.008	237.843	177.790	182.220	156.966	211.613	154.286	122.671	250.807	207.803	196.874	-81.284	-9.815	145.761	0.00047532	0.00053648	0.00014673	1445.6	1.5488e-06	3.9048e-06	1430	386.81	3.7331e-06	6.5674e-06	435.75	144.9	127.74	43.966	5.2634e-06	53.832	0.00060537	0.00065473	0.00018945	1466.3	6.9626e-06	7.2179e-06	1454.4	393.37	7.1691e-06	7.548e-06	443.39	148.61	130.99	45.209	6.9419e-06	55.398	97.773	0.338	5.437	-78.858	59.146	46.844	-79.052	-74.269	10.519	73.580	-74.711	-70.669	-70.069	-65.242	59.581	-66.176	-8191	255	
18524.857	1	1	0	0	0.065674	0.082914	0.15126	0.22787	0.086709	0.065228	0.2866	0.15085	0.24152	0.079976	0.21952	0.16356	0.047697	0.32467	0.060794	0.14961	-4.425	-4.7854	-4.1687	-5.0292	-4.4604	-4.3208	-4.8583	-4.4271	-4.3833	-4.8396	-4.4333	-4.8729	-4.5875	-4.4917	-4.8208	-4.35	228.840	11.036	-64.510	167.993	-28.971	266.298	231.739	224.499	189.674	35.273	165.354	-19.701	94.009	235.933	114.363	100.520	0.00047496	0.00045306	0.00012618	1458	3.9506e-06	5.3354e-06	1435.8	385.36	3.3478e-06	6.6339e-06	437	145.32	127.43	44.078	3.9515e-06	53.888	0.00059956	0.00062746	0.00019119	1470.6	7.3092e-06	7.8516e-06	1456.5	393.26	7.3457e-06	7.2165e-06	443.57	148.72	130.89	45.25	6.7985e-06	55.402	105.358	-16.354	4.117	-78.808	45.344	55.595	-79.000	-74.235	17.238	52.449	-74.641	-70.472	-70.107	-65.349	47.477	-66.177	-8191	255	
18524.955	1	1	0	0	0.045643	0.2525	0.048141	0.19661	0.19941	0.12713	0.28317	0.30857	0.16186	0.14097	0.10407	0.3012	0.038588	0.20782	0.066636	0.13928	-4.2125	-4.7083	-4.1229	-4.9563	-4.4563	-4.1417	-4.9854	-4.4812	-4.4667	-4.65	-4.4042	-4.7646	-4.6021	-4.3896	-4.8187	-4.4875	0.697	156.018	65.247	256.998	238.515	242.189	194.177	255.395	-73.217	-17.476	-25.361	-66.574	-11.189	256.262	69.586	257.843	0.00046901	0.00054702	0.00012551	1452.9	4.3788e-06	5.6178e-06	1433.8	386.03	2.7188e-06	4.771e-06	433.32	144.6	127.7	44.123	4.5516e-06	53.707	0.00061306	0.00065886	0.00018613	1471.1	7.2297e-06	7.7968e-06	1456.5	393.21	7.2132e-06	7.1518e-06	442.23	148.92	131.03	45.268	7.0502e-06	55.479	102.592	-13.949	0.337	-78.945	45.702	49.706	-79.023	-74.415	10.436	54.846	-74.791	-70.753	-70.028	-65.220	24.021	-66.100	-8191	255	
18525.051	1	1	0	0	0.096086	0.037542	0.085136	0.27317	0.10591	0.1822	0.13257	0.30198	0.027893	0.091779	0.055176	0.18922	0.08351	0.081134	0.30881	0.039012	-4.0417	-4.9292	-4.1146	-4.9979	-4.4854	-4.2562	-4.9208	-4.4708	-4.3313	-4.8896	-4.2958	-4.5083	-4.5792	-4.2396	-4.7792	-4.7188	-63.121	145.321	142.307	229.753	204.310	-41.088	-78.941	234.216	161.419	68.783	244.675	224.961	156.749	-82.984	77.058	-73.033	0.00044748	0.00066062	0.00016256	1447.3	3.2835e-06	5.7291e-06	1436.9	385.85	3.1156e-06	6.0598e-06	435.38	145.2	127.47	44.08	3.5049e-06	53.795	0.00062394	0.00067837	0.00019062	1469.9	7.0173e-06	7.4174e-06	1457.4	392.97	7.0729e-06	7.3519e-06	443.82	149	131.06	45.357	6.6521e-06	55.397	97.506	-5.609	0.745	-78.765	14.098	53.464	-79.177	-74.389	-15.838	66.733	-74.586	-70.478	-70.166	-65.254	54.776	-66.309	-8191	255	
18525.172	1	1	0	0	0.1777	0.17375	0.047799	0.24025	0.028066	0.1558	0.25922	0.24113	0.11848	0.18359	0.16926	0.3295	0.35301	0.14906	0.15557	0.066933	-4.0938	-4.7875	-4.3042	-4.7562	-4.7438	-4.2	-4.9688	-4.4792	-4.2312	-4.7625	-4.475	-4.5896	-4.7271	-4.3104	-4.775	-4.5563	127.613	143.985	-64.121	-80.669	6.346	-36.531	173.572	232.046	19.093	251.744	197.467	165.847	218.283	180.826	263.900	222.833	0.00050597	0.00052016	0.00011148	1450.5	4.7674e-06	4.6907e-06	1441.8	386.38	5.1715e-06	5.6752e-06	435.05	144.78	128.51	44.007	3.4998e-06	53.781	0.00061631	0.00062514	0.00019039	1471.1	7.1424e-06	7.6619e-06	1458.5	393.68	7.5445e-06	7.3911e-06	443.78	148.75	131.28	45.268	7.2332e-06	55.452	97.601	-4.423	-0.718	-78.990	37.901	66.844	-78.935	-74.271	11.556	45.667	-74.999	-70.587	-70.300	-65.265	24.357	-66.268	-8191	255	
18525.266	1	1	0	0	0.25974	0.2556	0.1211	0.25442	0.12911	0.062377	0.1472	0.23987	0.16496	0.22186	0.15337	0.24013	0.34319	0.074478	0.25572	0.084268	-3.9917	-4.8688	-4.1521	-4.6396	-4.8	-4.1042	-4.8479	-4.8	-4.2458	-4.7771	-4.6958	-4.6292	-4.8896	-4.4167	-4.5125	-4.8333	-81.976	223.116	-64.121	218.524	237.046	143.915	-79.564	190.503	-39.669	-53.236	-46.226	148.216	257.039	258.478	-32.176	148.279	0.00044178	0.00044968	0.00013525	1457.2	5.6771e-06	5.6259e-06	1434.1	385.01	3.7673e-06	4.0453e-06	436.74	146.18	128.21	44.106	4.8026e-06	53.991	0.0006322	0.00063622	0.00018931	1474.3	7.1372e-06	7.8575e-06	1458.2	393.34	7.5497e-06	7.244e-06	444.21	149.41	131.14	45.298	7.1814e-06	55.49	101.348	-0.409	-3.198	-78.977	33.532	66.658	-78.929	-74.297	-0.617	50.984	-74.447	-70.524	-70.182	-65.422	53.391	-66.185	-8191	255	
18525.361	1	1	0	0	0.26798	0.17293	0.050419	0.045839	0.29825	0.024363	0.047324	0.057986	0.13548	0.067543	0.33717	0.24108	0.054773	0.30319	0.11392	0.020465	-3.8104	-4.7208	-4.2771	-4.5563	-4.7417	-4.4542	-4.8458	-4.8271	-4.1562	-4.8104	-4.6042	-4.4042	-4.9042	-4.4917	-4.3667	-4.6687	73.560	-87.689	252.825	267.661	107.354	37.293	224.267	247.244	82.334	236.339	211.008	-83.771	-35.643	-62.431	43.745	-23.068	0.00046845	0.00043091	0.00014111	1458.6	2.7007e-06	5.4227e-06	1440.4	386.1	4.3145e-06	4.8749e-06	437.66	146.17	128.04	44.104	5.53e-06	53.79	0.00061921	0.00061506	0.00019114	1475.3	6.7125e-06	7.8438e-06	1459.5	393.31	7.5744e-06	6.8263e-06	444.15	149.32	131.11	45.301	7.6619e-06	55.45	99.620	9.788	4.682	-78.831	49.781	48.976	-78.970	-74.285	-7.936	55.832	-74.565	-70.916	-70.093	-65.249	44.948	-66.243	-8191	255	
18525.457	1	1	0	0	0.13819	0.19957	0.14974	0.39822	0.14076	0.20483	0.11012	0.10987	0.053322	0.27963	0.23476	0.077621	0.37665	0.24604	0.10611	0.11249	-3.7646	-4.7604	-4.5854	-4.4354	-4.8917	-4.3104	-4.6833	-4.7937	-4.15	-4.5875	-4.6438	-4.2854	-4.5854	-4.5125	-4.5813	-4.8458	-35.598	-87.335	176.215	255.275	85.391	-43.169	-39.209	255.147	249.895	10.932	241.658	150.248	22.099	190.061	102.135	155.117	0.00047911	0.00034083	0.00014646	1456.7	3.7446e-06	5.4382e-06	1440.6	386.21	3.6826e-06	4.3163e-06	433.35	145.32	128.01	44.047	2.7983e-06	53.944	0.00061306	0.00062266	0.00018074	1473.7	6.7125e-06	8.2409e-06	1460.3	393.62	7.0898e-06	6.8479e-06	443.12	149.2	131.03	45.359	6.9587e-06	55.518	99.137	-3.804	13.143	-78.880	53.198	49.862	-79.139	-74.559	-6.721	71.033	-74.567	-70.448	-69.839	-65.302	38.366	-66.266	-8191	255	
18525.555	1	1	0	0	0.27041	0.1472	0.20234	0.19711	0.12503	0.23103	0.42141	0.29701	0.13488	0.10079	0.12881	0.22107	0.15598	0.098678	0.17239	0.084212	-3.7833	-4.6104	-4.4479	-4.3229	-4.7104	-4.4292	-4.5083	-4.9875	-4.3146	-4.5521	-4.85	-4.2875	-4.8292	-4.5396	-4.3771	-4.8708	-25.451	210.218	-59.324	222.702	-16.074	-82.802	233.198	199.695	139.627	99.366	-28.784	244.290	245.015	202.850	188.679	241.217	0.00042461	0.0004902	0.00010176	1453.4	3.7883e-06	4.6909e-06	1437.9	386.26	5.5913e-06	4.5197e-06	435.62	145.44	128.21	43.955	4.9835e-06	53.912	0.00061864	0.00067324	0.00018842	1472	7.0734e-06	7.1416e-06	1458.2	393.36	7.703e-06	7.4323e-06	444.25	149.04	131.09	45.232	7.2653e-06	55.531	100.917	-12.684	15.314	-79.027	31.156	60.588	-79.278	-74.351	20.823	57.320	-74.873	-70.645	-70.158	-65.454	43.131	-66.106	-8191	255	
18525.650	1	1	0	0	0.13059	0.18937	0.034617	0.21469	0.090186	0.18551	0.20307	0.2469	0.09742	0.11203	0.10498	0.22873	0.062378	0.12419	0.078705	0.18453	-3.8854	-4.5917	-4.7562	-4.5062	-4.7688	-4.3812	-4.5938	-5	-4.2979	-4.6292	-4.8562	-4.2875	-4.8917	-4.6729	-4.2167	-4.8042	193.998	146.955	223.762	208.045	119.218	206.069	204.082	225.551	-37.116	224.071	185.428	218.240	128.139	150.214	-25.749	249.776	0.0004414	0.00049972	0.0001749	1452	3.9554e-06	5.6859e-06	1435.2	386.1	6.039e-06	5.1084e-06	434.96	145.46	127.57	44.281	3.1374e-06	53.827	0.00063197	0.00067175	0.00018337	1471.9	6.8714e-06	7.2433e-06	1458.9	393.31	7.6393e-06	7.2969e-06	443.74	148.88	131.06	45.374	7.041e-06	55.512	101.899	-5.032	1.481	-78.796	57.383	63.140	-78.962	-74.260	4.266	54.049	-74.666	-70.654	-69.998	-65.107	42.770	-66.346	-8191	255	
18525.771	1	1	0	0	0.10935	0.16835	0.12313	0.13912	0.10176	0.050094	0.21133	0.41041	0.21942	0.2328	0.2006	0.090857	0.25255	0.082217	0.043533	0.13717	-3.925	-4.4417	-4.6667	-4.5125	-4.7917	-4.5625	-4.5833	-4.9833	-4.2625	-4.4458	-4.8896	-4.3375	-4.7188	-4.7604	-4.2625	-4.7833	-27.373	127.731	87.430	233.889	-12.762	102.353	242.981	224.447	-22.743	-76.274	-84.301	-57.049	181.269	144.963	199.978	-39.306	0.00046866	0.00057908	0.00015514	1453.5	4.3632e-06	6.3735e-06	1434	388.14	2.2744e-06	5.6595e-06	434.58	144.64	128.02	43.93	4.0566e-06	54.013	0.00060229	0.00067671	0.00017985	1473	6.8336e-06	7.5054e-06	1457.2	393.83	7.4419e-06	7.4264e-06	443.29	148.86	131.11	45.234	7.6985e-06	55.481	102.194	-17.763	-13.300	-78.859	48.263	46.376	-79.042	-74.359	5.574	73.054	-74.755	-70.590	-69.832	-65.405	39.832	-66.012	-8191	255	
18525.867	1	1	0	0	0.16048	0.051861	0.16868	0.23722	0.10576	0.19081	0.04919	0.23507	0.071188	0.16719	0.10563	0.076114	0.13565	0.16302	0.11405	0.14952	-4.2583	-4.3167	-4.6542	-4.4688	-4.7417	-4.725	-4.3	-4.8167	-4.3958	-4.4229	-4.9208	-4.3625	-4.4604	-4.8604	-4.1542	-4.8292	-84.228	-24.835	-8.132	-52.236	253.716	-40.005	-9.011	186.825	157.952	18.745	252.347	54.608	150.272	198.435	115.693	243.774	0.00048142	0.00048687	0.00012534	1453	2.5716e-06	4.3642e-06	1434.2	387.57	3.7061e-06	5.2463e-06	434.07	144.84	127.89	44.022	4.8985e-06	54.091	0.00063824	0.0006339	0.00017376	1473.6	6.9939e-06	7.1279e-06	1458.7	393.56	7.2496e-06	7.548e-06	443.39	148.73	131.21	45.208	7.9562e-06	55.557	97.932	-8.351	6.133	-78.695	31.104	59.033	-79.225	-74.274	-7.449	54.684	-74.654	-70.588	-70.182	-65.187	54.639	-65.955	-8191	255	
18525.939	1	1	0	0	0.18258	0.19592	0.11208	0.26104	0.086898	0.074924	0.1944	0.095097	0.046111	0.052282	0.03695	0.037224	0.071291	0.08341	0.16053	0.12564	-4.0146	-4.2625	-4.9208	-4.5563	-4.4708	-4.7667	-4.3417	-4.8021	-4.5875	-4.2812	-4.8375	-4.5312	-4.7667	-4.8583	-4.2438	-4.7479	252.358	106.052	124.768	179.012	81.127	149.047	218.209	168.589	-70.420	102.652	-18.878	95.600	135.904	254.123	-8.510	177.112	0.00045322	0.00049508	0.00015033	1447.6	3.6635e-06	4.9742e-06	1437.2	386.69	4.2768e-06	5.9855e-06	434.31	145.44	127.58	43.928	4.9517e-06	53.965	0.00061733	0.00067456	0.00016945	1470.5	7.3587e-06	6.8149e-06	1457.9	393.69	7.0314e-06	7.6166e-06	443.32	148.94	131.16	45.247	7.5551e-06	55.582	97.400	14.000	-0.348	-78.941	29.816	60.223	-79.010	-74.001	-22.771	53.744	-74.373	-70.721	-69.977	-65.491	46.485	-66.560	-8191	255	
18526.059	1	1	0	0	0.12125	0.072812	0.13824	0.27253	0.15775	0.059863	0.048562	0.30585	0.04906	0.16496	0.11245	0.11308	0.083133	0.11106	0.12478	0.11286	-4.2312	-4.2417	-4.8125	-4.3812	-4.4479	-4.8187	-4.4667	-4.8833	-4.9062	-4.2833	-4.7833	-4.5125	-4.3625	-4.8833	-4.3458	-4.6083	254.223	228.524	-84.234	235.456	-1.591	-9.945	178.023	228.431	-5.759	-15.943	219.649	220.131	239.125	-62.638	130.235	168.951	0.00046883	0.00052017	0.00015835	1452.1	3.9676e-06	4.8429e-06	1436.5	387.55	2.9164e-06	5.4008e-06	432.85	144.64	127.72	44.211	5.7653e-06	54.091	0.0006048	0.00070498	0.00017929	1471.8	7.132e-06	7.1298e-06	1457.4	393.94	6.5001e-06	7.3734e-06	442.9	148.99	131.01	45.404	7.9364e-06	55.533	99.509	-9.701	-9.197	-78.846	43.373	69.362	-79.084	-74.257	-16.135	71.175	-74.741	-70.808	-69.846	-65.356	64.545	-65.995	-8191	255	
18526.154	1	1	0	0	0.031992	0.049468	0.17288	0.31712	0.056768	0.11108	0.21373	0.1388	0.040851	0.085804	0.04104	0.11222	0.15023	0.2495	0.066643	0.29314	-4.3792	-4.1854	-4.6583	-4.6104	-4.2354	-4.7937	-4.5042	-4.6625	-4.6771	-4.2937	-4.9021	-4.525	-4.2625	-4.8646	-4.1562	-4.6604	188.714	171.800	12.657	218.923	-9.033	-66.753	227.659	160.446	197.236	247.565	-65.303	85.504	8.421	183.284	47.729	184.022	0.00049141	0.00047594	0.0001537	1454.5	2.6128e-06	4.9179e-06	1433.9	386.13	5.0891e-06	5.5616e-06	436.15	145.13	128.29	44.173	4.1821e-06	53.978	0.00060531	0.00068663	0.00018383	1471.9	7.386e-06	7.0242e-06	1456.7	393.57	7.1288e-06	7.9166e-06	443.82	149.18	131.26	45.291	7.4086e-06	55.574	97.278	-5.223	0.133	-78.869	52.634	47.458	-79.087	-74.244	14.611	46.794	-74.623	-70.705	-70.396	-65.418	41.289	-66.088	-8191	255	
18526.250	1	1	0	0	0.1725	0.099866	0.24744	0.065659	0.22996	0.096309	0.039513	0.081837	0.16981	0.11619	0.17415	0.2646	0.13614	0.046953	0.18938	0.26968	-4.4271	-4.1708	-4.6937	-4.7771	-4.2271	-4.8187	-4.4833	-4.6188	-4.8	-4.2083	-4.6604	-4.5896	-4.2833	-5.0271	-4.4062	-4.45	156.920	22.210	76.842	-56.212	-11.760	156.091	-4.246	-66.115	78.074	142.413	218.150	249.672	201.927	160.145	81.756	181.267	0.00053528	0.00057705	0.00010625	1450.3	3.6866e-06	4.7516e-06	1435.8	386.25	3.805e-06	5.9535e-06	434.85	145.21	127.37	44.038	4.6291e-06	54.146	0.00061488	0.0006987	0.00018018	1471.3	7.2128e-06	7.5895e-06	1458.3	393.58	7.1483e-06	8.0108e-06	444.4	149.18	130.97	45.281	7.2805e-06	55.548	98.585	-1.834	4.151	-78.945	52.678	53.379	-78.975	-74.166	1.040	47.212	-74.641	-70.544	-70.025	-65.323	25.807	-65.944	-8191	255	
18526.346	1	1	0	0	0.14993	0.26442	0.23342	0.18196	0.099053	0.11798	0.06096	0.25651	0.17671	0.22903	0.16031	0.27643	0.34191	0.15837	0.045075	0.1537	-4.5	-4.15	-4.4437	-4.6458	-4.225	-4.7625	-4.6917	-4.4167	-4.8875	-4.2208	-4.6104	-4.7875	-4.1271	-4.7479	-4.3375	-4.5188	163.366	192.340	-27.198	234.019	69.233	10.155	-59.099	-88.333	74.485	175.178	217.930	-75.803	171.776	211.789	-66.168	235.926	0.00046451	0.00034621	0.00013686	1454.7	3.7181e-06	5.0663e-06	1433.9	387	4.943e-06	5.1175e-06	434.25	145.68	127.88	44.241	3.7145e-06	53.929	0.00059802	0.0007101	0.00018721	1473.7	7.7938e-06	6.8697e-06	1460.6	393.73	7.1028e-06	7.4009e-06	443.71	149.14	131.29	45.418	7.2912e-06	55.62	99.049	-14.588	-5.818	-78.883	39.587	67.995	-79.124	-74.309	-3.829	64.216	-74.294	-70.887	-70.023	-65.333	44.499	-66.210	-8191	255	
18526.441	1	1	0	0	0.12611	0.1423	0.22845	0.27826	0.21559	0.10815	0.36393	0.084915	0.19656	0.28687	0.10488	0.17032	0.13698	0.27757	0.3186	0.24704	-4.6146	-4.2	-4.5771	-4.8812	-4.1958	-4.7063	-4.7521	-4.4042	-4.8333	-4.2083	-4.5792	-4.7146	-4.2688	-4.7146	-4.6125	-4.3979	-25.829	-11.697	264.621	249.724	258.976	114.854	259.124	-40.276	79.960	164.352	190.857	125.763	-87.652	211.570	116.736	207.392	0.00046655	0.00063541	0.00015953	1453.8	3.1627e-06	5.7776e-06	1436.6	386.6	3.1675e-06	5.2367e-06	435.93	145.77	127.82	43.858	3.4265e-06	53.887	0.00060691	0.00074432	0.00019194	1473.2	7.3287e-06	7.9435e-06	1458.1	393.75	6.9405e-06	7.8735e-06	443.97	149.31	131.17	45.222	6.977e-06	55.448	97.797	-6.768	1.733	-79.078	45.050	70.283	-79.071	-74.452	0.060	47.884	-74.727	-70.873	-70.262	-65.505	46.852	-66.057	-8191	255	
18526.562	1	1	0	0	0.11321	0.13128	0.18774	0.14943	0.092143	0.2272	0.12657	0.10865	0.25012	0.12759	0.35604	0.064089	0.047737	0.41739	0.037935	0.091059	-4.3271	-4.4125	-4.4604	-5.1	-4.1542	-4.7375	-4.8396	-4.2792	-4.7688	-4.5271	-4.5333	-4.7812	-4.2	-4.6958	-4.6542	-4.35	112.731	34.896	-67.547	230.861	256.936	242.132	182.205	1.240	-4.836	187.123	96.790	-38.094	152.969	248.603	-22.713	100.991	0.00046421	0.00061516	0.00016723	1455	4.0611e-06	4.5567e-06	1436.5	387.38	4.2404e-06	6.5422e-06	435.39	146.36	127.45	44.229	4.2304e-06	53.695	0.00061938	0.00069523	0.00018299	1473.8	7.1828e-06	7.3782e-06	1460.9	393.9	7.5146e-06	7.8656e-06	443.91	149.43	130.95	45.326	7.1326e-06	55.504	99.573	-12.593	-6.111	-78.759	48.467	62.393	-79.124	-74.253	-3.320	50.578	-74.718	-70.528	-70.131	-65.484	49.867	-66.090	-8191	255	
18526.635	1	1	0	0	0.2285	0.09094	0.072601	0.29143	0.28633	0.22105	0.16974	0.22758	0.20453	0.15767	0.18135	0.1774	0.13901	0.21258	0.1429	0.072021	-4.5437	-4.3479	-4.4917	-5.0813	-4.2021	-4.7167	-4.9062	-4.4187	-4.7042	-4.4458	-4.4271	-4.8833	-4.3208	-4.6292	-4.6646	-4.2375	-10.021	220.310	-51.695	231.010	242.387	-6.746	225.696	203.263	206.382	38.633	199.478	240.256	-23.695	204.913	76.401	-28.764	0.00045712	0.0004739	0.00014831	1451.6	4.0711e-06	5.0071e-06	1437.3	386.23	3.1069e-06	5.6937e-06	435.32	145.18	128.56	44.075	3.6217e-06	54.048	0.00060714	0.00066613	0.00018543	1473.4	7.2727e-06	7.5308e-06	1459.3	394.09	7.1989e-06	8.2402e-06	444.63	149.13	131.34	45.301	6.9099e-06	55.513	104.101	-11.140	-1.147	-78.808	29.777	62.782	-79.100	-74.268	45.681	60.963	-74.643	-70.591	-69.992	-65.507	57.285	-66.279	-8191	255	
18526.730	1	1	0	0	0.050698	0.12473	0.073246	0.16346	0.092996	0.16276	0.21902	0.069415	0.13123	0.23758	0.29153	0.045512	0.1831	0.13196	0.097266	0.17488	-4.2	-4.4875	-4.4062	-4.9563	-4.2667	-4.5062	-4.8854	-4.4042	-4.6896	-4.5771	-4.5729	-4.975	-4.4042	-4.4292	-4.7479	-4.2125	99.744	236.559	-47.190	-82.142	214.201	139.749	193.046	9.864	106.854	12.536	-71.781	-31.026	-87.120	185.175	261.589	229.533	0.00048615	0.00045068	0.00015124	1457.6	3.8902e-06	3.6602e-06	1435.7	387.56	3.1188e-06	5.3562e-06	436.95	145.48	127.52	44.04	3.8114e-06	53.992	0.00061221	0.00067721	0.00020814	1475.3	7.5268e-06	7.3763e-06	1460	394.33	7.2561e-06	7.2969e-06	444.97	149.09	130.92	45.297	6.8397e-06	55.557	103.758	-7.589	5.801	-78.931	32.823	64.794	-79.138	-74.355	14.636	64.839	-74.718	-70.746	-69.858	-65.367	47.251	-65.937	-8191	255	
18526.852	1	1	0	0	0.039171	0.088891	0.083454	0.12436	0.067185	0.11109	0.37631	0.22293	0.12277	0.22089	0.12843	0.19008	0.12374	0.20976	0.18419	0.2002	-4.4208	-4.5667	-3.9896	-5.1729	-4.2958	-4.3792	-5.0042	-4.375	-4.6792	-4.6208	-4.1979	-5.0437	-4.7562	-4.5437	-4.8063	-4.4833	-67.044	111.337	120.372	199.016	256.606	64.266	220.132	243.091	-28.092	78.104	249.224	187.783	265.335	-18.507	38.941	190.589	0.00044538	0.00040189	0.00014926	1452.4	2.549e-06	4.9365e-06	1438.8	387.03	3.3775e-06	4.9137e-06	435.84	145.65	127.88	44.162	4.1256e-06	53.47	0.00062052	0.00068184	0.00018393	1474.5	7.3548e-06	7.8946e-06	1460.8	394.89	7.6003e-06	7.4166e-06	444.15	149.23	131.3	45.405	6.8671e-06	55.436	98.156	-19.061	-8.280	-78.950	41.064	60.291	-79.067	-74.150	11.396	54.003	-74.640	-70.633	-70.353	-65.182	47.247	-66.156	-8191	255	
18526.947	1	1	0	0	0.22459	0.21814	0.12675	0.3749	0.078354	0.083997	0.11577	0.23215	0.0074047	0.069155	0.056515	0.19366	0.046869	0.017648	0.25218	0.13515	-4.2458	-4.7729	-4.1854	-4.9042	-4.6583	-4.2854	-5.0167	-4.5875	-4.6146	-4.7583	-4.2937	-4.9354	-4.6125	-4.5104	-4.8396	-4.3562	192.163	42.753	-12.355	194.430	262.343	266.431	118.119	209.311	161.575	-87.086	97.894	264.797	64.526	92.707	58.854	170.886	0.00046573	0.00041398	0.00012292	1455.8	5.3089e-06	4.3772e-06	1434.1	385.42	4.0265e-06	5.2826e-06	437.38	145.38	128.78	44.104	5.33e-06	54.066	0.00061739	0.00062547	0.00020969	1473.6	7.3222e-06	7.1279e-06	1459.3	393.68	7.1548e-06	7.4009e-06	444.95	149.12	131.6	45.389	7.0654e-06	55.556	100.447	1.889	4.523	-78.802	43.781	56.513	-78.980	-74.244	30.068	64.615	-74.493	-70.610	-70.178	-65.259	53.119	-66.151	-8191	255	
18527.045	1	1	0	0	0.13869	0.1192	0.26344	0.14002	0.30367	0.11769	0.12992	0.19014	0.02806	0.09775	0.28884	0.17995	0.29555	0.11372	0.10851	0.0048835	-4.0625	-4.6625	-4.2125	-4.8417	-4.5167	-4.2958	-5.0021	-4.5417	-4.5146	-4.8208	-4.4458	-4.6167	-4.6167	-4.4062	-4.8187	-4.575	69.224	-42.530	-67.198	-41.235	46.798	-57.898	243.809	259.031	-84.486	46.450	186.350	259.530	190.925	31.412	169.859	96.475	0.00041778	0.00044779	0.00015413	1451.5	3.5577e-06	5.6697e-06	1440.1	387.9	3.0888e-06	5.503e-06	435.83	145.74	128.4	44.195	5.4902e-06	53.826	0.00062001	0.00064151	0.000194	1473.2	6.7463e-06	7.3704e-06	1460.3	394.27	7.5237e-06	7.1558e-06	444.75	149.34	131.46	45.402	7.0914e-06	55.591	100.339	-2.267	10.138	-78.808	55.202	57.434	-79.006	-74.169	1.962	53.197	-74.558	-70.725	-70.004	-65.546	40.016	-65.815	-8191	255	
18527.164	1	1	0	0	0.12239	0.27161	0.18389	0.32839	0.26242	0.081776	0.39074	0.16041	0.17993	0.098957	0.13498	0.15149	0.14593	0.015985	0.17522	0.17834	-4.0271	-4.7271	-4.1083	-4.7021	-4.5146	-4.1708	-4.8292	-4.6583	-4.3896	-4.8771	-4.4646	-4.5604	-4.7208	-4.3229	-4.8146	-4.4833	-36.630	56.816	119.306	229.328	-10.845	212.903	181.711	216.880	221.392	3.678	249.345	237.699	105.745	212.653	-1.776	249.747	0.00046202	0.0005331	0.00015555	1452.7	5.0221e-06	5.5805e-06	1437.2	386.61	3.9597e-06	4.7575e-06	437.13	145.52	127.58	44.234	4.492e-06	54.022	0.0006265	0.00063556	0.00020332	1473	6.9261e-06	7.4232e-06	1459.3	393.97	7.4665e-06	6.8243e-06	444.85	149.19	131.04	45.401	7.2424e-06	55.603	98.058	-10.619	-0.122	-78.832	42.497	50.724	-78.935	-74.368	12.132	61.605	-74.780	-70.704	-70.294	-65.339	40.336	-66.125	-8191	255	
18527.236	1	1	0	0	0.033129	0.1044	0.16496	0.17244	0.14521	0.19675	0.14657	0.35642	0.078059	0.12151	0.1819	0.088392	0.1423	0.41925	0.18801	0.22524	-3.8479	-4.5917	-4.275	-4.6479	-4.7729	-4.1771	-4.8292	-4.6583	-4.2125	-4.7729	-4.375	-4.5771	-4.9479	-4.3438	-4.5083	-4.7646	80.184	-60.358	59.827	-51.780	132.746	5.407	187.934	193.376	75.660	-82.192	224.857	-48.495	154.665	247.325	89.365	215.177	0.00045994	0.00049158	0.00014299	1452.8	3.687e-06	4.7298e-06	1439	387.78	4.097e-06	6.3227e-06	435.9	145.67	128.38	44.286	4.8149e-06	54.21	0.00061779	0.00064051	0.00019025	1473.9	7.1659e-06	7.343e-06	1460.8	394.58	7.4484e-06	7.1577e-06	444.08	149.41	131.37	45.412	7.5947e-06	55.63	102.311	-9.804	-3.690	-78.779	44.509	62.199	-79.066	-74.575	19.577	57.870	-74.686	-70.797	-70.172	-65.391	43.825	-66.024	-8191	255	
18527.332	1	1	0	0	0.12058	0.041888	0.10925	0.14117	0.059054	0.1414	0.32776	0.18743	0.22503	0.23817	0.024505	0.28022	0.16883	0.036549	0.13326	0.16449	-3.7313	-4.7917	-4.275	-4.5875	-4.8354	-4.3208	-4.7875	-4.8313	-4.1438	-4.7146	-4.5875	-4.4604	-4.8417	-4.5229	-4.7833	-4.7208	23.770	173.006	44.991	206.561	-38.574	-55.333	228.474	172.941	93.124	187.166	38.523	193.704	30.466	-46.304	125.026	159.615	0.00046661	0.00050431	0.0001624	1457.8	3.5222e-06	3.9507e-06	1437.9	385.8	1.9954e-06	4.0984e-06	437.76	145.71	128.09	44.11	4.9354e-06	54.209	0.00062183	0.00068399	0.00019779	1478.4	7.102e-06	8.2819e-06	1462.7	394.18	7.4133e-06	7.2126e-06	444.27	149.24	131.26	45.339	7.581e-06	55.567	101.127	-3.445	2.367	-78.929	42.800	50.132	-79.074	-74.182	6.449	61.031	-74.655	-70.731	-70.044	-65.271	50.972	-66.192	-8191	255	
18527.451	1	1	0	0	0.10863	0.027168	0.22419	0.073084	0.083962	0.13078	0.13313	0.38886	0.079222	0.057812	0.041628	0.13989	0.12848	0.19317	0.1576	0.10077	-3.8438	-4.7875	-4.4646	-4.4333	-4.85	-4.3438	-4.7646	-4.8979	-4.2896	-4.7125	-4.5146	-4.4062	-4.9625	-4.3812	-4.5271	-4.8667	-14.948	1.415	-23.770	181.083	42.277	-57.477	238.744	186.426	-25.933	-35.356	-67.499	213.171	-82.048	247.209	260.346	-77.127	0.00047542	0.00048059	0.0001195	1456.6	3.2008e-06	5.3646e-06	1439.5	386.97	3.065e-06	4.9125e-06	436.81	145.15	127.78	44.261	3.8836e-06	54.217	0.00064257	0.00063787	0.00018889	1477.1	6.8011e-06	7.6893e-06	1461	394.11	7.6172e-06	7.1911e-06	444.6	149.09	131.38	45.413	7.1631e-06	55.624	102.944	2.342	4.280	-78.835	42.971	57.174	-78.910	-74.479	17.482	60.443	-74.543	-70.847	-69.923	-65.368	46.792	-66.201	-8191	255	
18527.547	1	1	0	0	0.1725	0.087384	0.10084	0.11786	0.18574	0.11004	0.087563	0.1727	0.16576	0.067094	0.32526	0.072769	0.18042	0.098096	0.23795	0.13867	-3.85	-4.5729	-4.6	-4.5	-4.6521	-4.4604	-4.6583	-5.0625	-4.2708	-4.8354	-4.8146	-4.5542	-4.8104	-4.3458	-4.5333	-4.8583	19.051	98.026	132.071	170.806	245.805	-40.307	238.229	193.631	134.487	25.464	-75.926	115.118	-13.153	174.958	64.359	205.684	0.00047132	0.00046141	0.00011464	1454.4	4.8095e-06	6.3593e-06	1436.3	386.77	4.1119e-06	5.4753e-06	436.44	145.3	128.26	44.088	3.7448e-06	53.94	0.00060623	0.00060993	0.00018664	1473.7	7.0512e-06	7.7851e-06	1461.2	394.53	7.5575e-06	7.4126e-06	444.25	149.45	131.55	45.333	7.0105e-06	55.559	104.178	15.227	8.723	-78.955	49.180	62.157	-79.078	-74.390	1.816	70.311	-74.820	-70.675	-70.153	-65.224	53.140	-66.314	-8191	255	
18527.643	1	1	0	0	0.076287	0.10542	0.26822	0.19683	0.16928	0.049467	0.19374	0.20618	0.08858	0.12358	0.19061	0.17383	0.086928	0.042343	0.328	0.13057	-3.9354	-4.6562	-4.5521	-4.3417	-4.8354	-4.4417	-4.5417	-5.025	-4.2708	-4.6146	-4.8375	-4.1833	-4.8875	-4.4125	-4.1125	-4.9104	184.192	-22.788	243.306	200.772	209.870	150.641	154.334	205.811	69.333	143.520	239.801	247.119	166.482	123.537	8.637	-79.294	0.00051354	0.00046383	0.00010781	1454.3	4.0646e-06	4.5458e-06	1438.5	387.49	3.078e-06	4.3786e-06	435.44	146.24	127.95	44.281	3.0818e-06	54.013	0.00063169	0.00068795	0.00017573	1476.1	7.1984e-06	7.8457e-06	1461.5	394.48	6.9859e-06	7.6244e-06	444.44	149.65	131.39	45.424	7.8052e-06	55.61	105.926	3.555	8.723	-78.951	77.758	49.009	-78.863	-74.200	-2.933	53.497	-74.588	-70.926	-69.950	-65.302	56.140	-66.299	-8191	255	
18527.738	1	1	0	0	0.16308	0.17876	0.31126	0.34201	0.083831	0.14364	0.27858	0.2401	0.15111	0.16265	0.12812	0.075802	0.20826	0.14653	0.23004	0.20606	-4.0354	-4.3021	-4.7917	-4.2229	-4.875	-4.5188	-4.4812	-5.0625	-4.3313	-4.5604	-4.9625	-4.2708	-4.6396	-4.6458	-4.1312	-4.9396	141.889	247.915	205.196	230.904	-78.262	-74.268	190.568	224.546	217.538	93.121	196.244	-64.945	236.038	180.887	25.370	225.266	0.00045688	0.00048474	0.00015967	1459.8	4.623e-06	4.8067e-06	1439.4	387.45	2.5789e-06	5.2972e-06	436.18	145.22	128.15	43.967	4.3409e-06	53.845	0.00063813	0.0006658	0.00018664	1476.1	6.9457e-06	7.8321e-06	1462.2	394.62	7.2288e-06	7.2479e-06	445.16	149.45	131.38	45.359	7.6268e-06	55.565	103.462	-3.688	-1.553	-78.891	46.249	59.125	-79.164	-74.385	28.755	59.607	-74.645	-70.776	-70.311	-65.276	35.239	-65.922	-8191	255	
18527.836	1	1	0	0	0.20119	0.1598	0.030659	0.32903	0.056392	0.11957	0.19301	0.12786	0.032829	0.011748	0.14058	0.17906	0.10651	0.24061	0.17654	0.18178	-4.0062	-4.3625	-4.8833	-4.4563	-4.6917	-4.45	-4.2312	-5.0083	-4.45	-4.5292	-5.0813	-4.3688	-4.5437	-4.6917	-4.1271	-4.9208	43.722	256.996	232.695	218.746	95.325	140.913	104.435	217.127	72.975	105.664	167.353	213.750	-62.622	247.752	203.481	247.286	0.00044597	0.00041178	0.00015409	1452.8	2.8921e-06	5.0067e-06	1440.4	386.87	3.9192e-06	4.7723e-06	437.67	145.85	128.07	44.218	4.2669e-06	54.138	0.00061511	0.00069027	0.00019077	1472.8	6.9691e-06	7.21e-06	1462.4	394.52	7.0197e-06	7.7441e-06	445.13	149.63	131.34	45.465	7.7122e-06	55.644	102.131	8.914	-4.691	-78.903	45.358	43.721	-78.929	-74.142	6.717	67.118	-74.636	-70.650	-70.271	-65.268	31.255	-66.094	-8191	255	
18527.932	1	1	0	0	0.025121	0.10358	0.19097	0.26106	0.074159	0.16504	0.34241	0.13469	0.1595	0.20718	0.28818	0.067618	0.23272	0.049176	0.15169	0.14571	-4.1	-4.3979	-4.7354	-4.5813	-4.7583	-4.7312	-4.4167	-4.9542	-4.55	-4.3521	-4.9833	-4.4833	-4.7375	-4.7729	-4.1792	-4.725	101.686	-55.071	257.993	255.211	247.403	27.492	215.634	185.861	-19.318	-45.885	227.023	183.756	-77.000	-91.721	32.354	242.660	0.00048528	0.00051003	0.00014641	1456.9	4.6849e-06	5.7898e-06	1442.2	386.94	4.5349e-06	4.6243e-06	436.19	145.42	128.24	44.132	4.4217e-06	53.953	0.00059973	0.00070795	0.00019208	1477.5	7.0291e-06	7.4291e-06	1461.7	394.4	6.9768e-06	6.9695e-06	444.83	149.24	131.46	45.345	7.5291e-06	55.549	103.091	5.807	-4.195	-78.981	64.943	47.279	-78.977	-74.507	8.331	53.720	-74.657	-70.919	-70.100	-65.385	50.755	-66.136	-8191	255	
18528.027	1	1	0	0	0.17904	0.016034	0.30508	0.25138	0.24139	0.18111	0.12294	0.14956	0.048673	0.086971	0.058518	0.08364	0.36036	0.078753	0.061956	0.26562	-4.2083	-4.2771	-4.8833	-4.6188	-4.5146	-4.8354	-4.4938	-5.0188	-4.7042	-4.2688	-4.9354	-4.6146	-4.2917	-4.8958	-4.3229	-4.5958	217.173	184.834	253.589	242.055	-75.078	-44.978	-66.805	261.404	113.262	-55.643	126.012	54.734	256.109	130.382	245.023	210.312	0.00044181	0.00054919	0.00014492	1458.5	3.4134e-06	4.7384e-06	1442.3	385.78	3.3752e-06	5.263e-06	438.31	145.8	128.42	44.167	4.4535e-06	54.043	0.00063089	0.00072812	0.00018781	1477.4	7.2961e-06	7.079e-06	1462.6	394.17	7.2158e-06	7.6676e-06	446.15	149.49	131.59	45.378	7.9318e-06	55.603	102.085	-14.337	6.312	-78.780	58.257	58.269	-78.845	-74.397	4.192	59.448	-74.583	-70.831	-69.960	-65.499	48.933	-66.344	-8191	255	
18528.123	1	1	0	0	0.14414	0.10369	0.27495	0.21424	0.2306	0.069682	0.29612	0.24127	0.20983	0.17665	0.080353	0.19501	0.29524	0.087272	0.083928	0.068836	-4.2583	-4.2229	-4.9104	-4.6104	-4.3708	-4.8896	-4.3646	-4.6813	-4.5437	-4.3625	-4.9417	-4.4958	-4.3958	-4.9062	-4.1875	-4.7542	10.561	-36.712	56.627	-91.432	-89.031	104.776	218.369	220.744	51.505	50.076	170.418	-87.172	-75.801	-62.933	112.569	216.548	0.00046543	0.00047693	0.000133	1457.9	3.2659e-06	4.4568e-06	1438.6	388.09	4.3245e-06	4.0939e-06	437.5	146.16	128.43	44.177	3.205e-06	53.997	0.00059973	0.00065556	0.00017615	1475.6	7.2401e-06	6.7406e-06	1462.3	395.11	6.7911e-06	7.3009e-06	444.6	149.43	131.5	45.444	7.6985e-06	55.661	99.308	-6.935	5.633	-78.865	57.883	42.645	-79.207	-74.449	9.599	50.172	-74.572	-70.639	-70.118	-65.144	60.324	-65.953	-8191	255	
#DATA ENDS
