BOXY.EXE: ISS Imagent and Oximeter Data Acquisition Program Version 0.80
Ascii Record File

#ACQ INFORMATION
2  Detector Channels 
16  External MUX Channels 
1  Auxiliary Channels 
5000  Waveform (CCF) Frequency (Hz)
1  Waveforms Skipped 
30  Waveforms Averaged 
1  Cycles Averaged 
16  Acquisitions per Waveform 
10.0806  Updata Rate (Hz) 

#FILE INFORMATION
TRUE -- External MUX Channel results are PARSED.
FALSE -- AC DC and Phase are NOT grouped.
TRUE -- Companion Program Settings File CREATED.
FALSE -- AC data not excluded
FALSE -- DC data not excluded
FALSE -- Phase data not excluded
FALSE -- Auxillary Chn. data not excluded
Tab delimiters

#CALIBRATION STATE
TRUE -- Waveform Calibration Values APPLIED.


#AUX CALIBRATION VALUES
Val Type	aux-1	

Term	1.0000e+00	
Factor	0.0000e+00	


#WF CALIBRATION VALUES
A = Detector Channel
Val Type	A-AC1	A-AC2	A-AC3	A-AC4	A-AC5	A-AC6	A-AC7	A-AC8	A-AC9	A-AC10	A-AC11	A-AC12	A-AC13	A-AC14	A-AC15	A-AC16	A-DC1	A-DC2	A-DC3	A-DC4	A-DC5	A-DC6	A-DC7	A-DC8	A-DC9	A-DC10	A-DC11	A-DC12	A-DC13	A-DC14	A-DC15	A-DC16	A-Ph1	A-Ph2	A-Ph3	A-Ph4	A-Ph5	A-Ph6	A-Ph7	A-Ph8	A-Ph9	A-Ph10	A-Ph11	A-Ph12	A-Ph13	A-Ph14	A-Ph15	A-Ph16	

Term	0.00000e+00	0.00000e+00	0.00000e+00	0.00000e+00	0.00000e+00	0.00000e+00	0.00000e+00	0.00000e+00	0.00000e+00	0.00000e+00	0.00000e+00	0.00000e+00	0.00000e+00	0.00000e+00	0.00000e+00	0.00000e+00	0.00000e+00	0.00000e+00	0.00000e+00	0.00000e+00	0.00000e+00	0.00000e+00	0.00000e+00	0.00000e+00	0.00000e+00	0.00000e+00	0.00000e+00	0.00000e+00	0.00000e+00	0.00000e+00	0.00000e+00	0.00000e+00	0.00000e+00	0.00000e+00	0.00000e+00	0.00000e+00	0.00000e+00	0.00000e+00	0.00000e+00	0.00000e+00	0.00000e+00	0.00000e+00	0.00000e+00	0.00000e+00	0.00000e+00	0.00000e+00	0.00000e+00	0.00000e+00	
Factor	1.00000e+00	1.00000e+00	1.00000e+00	1.00000e+00	1.00000e+00	1.00000e+00	1.00000e+00	1.00000e+00	1.00000e+00	1.00000e+00	1.00000e+00	1.00000e+00	1.00000e+00	1.00000e+00	1.00000e+00	1.00000e+00	1.00000e+00	1.00000e+00	1.00000e+00	1.00000e+00	1.00000e+00	1.00000e+00	1.00000e+00	1.00000e+00	1.00000e+00	1.00000e+00	1.00000e+00	1.00000e+00	1.00000e+00	1.00000e+00	1.00000e+00	1.00000e+00	X	X	X	X	X	X	X	X	X	X	X	X	X	X	X	X	

B = Detector Channel
Val Type	B-AC1	B-AC2	B-AC3	B-AC4	B-AC5	B-AC6	B-AC7	B-AC8	B-AC9	B-AC10	B-AC11	B-AC12	B-AC13	B-AC14	B-AC15	B-AC16	B-DC1	B-DC2	B-DC3	B-DC4	B-DC5	B-DC6	B-DC7	B-DC8	B-DC9	B-DC10	B-DC11	B-DC12	B-DC13	B-DC14	B-DC15	B-DC16	B-Ph1	B-Ph2	B-Ph3	B-Ph4	B-Ph5	B-Ph6	B-Ph7	B-Ph8	B-Ph9	B-Ph10	B-Ph11	B-Ph12	B-Ph13	B-Ph14	B-Ph15	B-Ph16	

Term	0.00000e+00	0.00000e+00	0.00000e+00	0.00000e+00	0.00000e+00	0.00000e+00	0.00000e+00	0.00000e+00	0.00000e+00	0.00000e+00	0.00000e+00	0.00000e+00	0.00000e+00	0.00000e+00	0.00000e+00	0.00000e+00	0.00000e+00	0.00000e+00	0.00000e+00	0.00000e+00	0.00000e+00	0.00000e+00	0.00000e+00	0.00000e+00	0.00000e+00	0.00000e+00	0.00000e+00	0.00000e+00	0.00000e+00	0.00000e+00	0.00000e+00	0.00000e+00	8.08205e+01	-1.29234e+02	-1.26031e+02	-1.81587e+02	-8.04158e+01	-6.70324e+01	-1.57320e+02	-1.62015e+02	-6.06783e+01	-6.54006e+01	-1.71053e+02	-1.72518e+02	-1.82789e+02	-1.76934e+02	-6.95614e+01	-1.49544e+02	
Factor	6.67383e-05	1.91415e-04	4.93186e-05	1.58798e-01	2.57486e-06	2.00385e-06	1.78873e-01	5.50616e-02	3.22509e-06	1.97440e-06	8.99765e-02	3.70833e-02	3.90633e-02	9.87122e-03	2.25571e-06	1.39431e-02	2.65282e-05	5.58230e-05	1.57463e-05	8.19480e-02	4.79595e-07	6.43249e-07	8.68198e-02	2.84307e-02	4.90733e-07	6.41705e-07	4.53190e-02	1.86095e-02	2.03683e-02	5.15739e-03	5.46992e-07	7.08478e-03	X	X	X	X	X	X	X	X	X	X	X	X	X	X	X	X	



#DISTANCE SETTINGS
A = Detector Channel
A-1	A-2	A-3	A-4	A-5	A-6	A-7	A-8	A-9	A-10	A-11	A-12	A-13	A-14	A-15	A-16	

2.5000e+00	3.0000e+00	2.5000e+00	3.0000e+00	2.0000e+00	3.0000e+00	1.5000e+00	3.0000e+00	3.0000e+00	3.0000e+00	3.0000e+00	3.0000e+00	3.0000e+00	3.0000e+00	1.5000e+00	3.0000e+00	

B = Detector Channel
B-1	B-2	B-3	B-4	B-5	B-6	B-7	B-8	B-9	B-10	B-11	B-12	B-13	B-14	B-15	B-16	

1.0000e+01	1.0000e+01	1.0000e+01	1.4400e+00	1.0000e+01	1.0000e+01	1.5100e+00	1.9400e+00	1.0000e+01	1.0000e+01	1.9900e+00	2.4900e+00	2.4100e+00	2.9000e+00	1.0000e+01	2.9800e+00	




#DATA BEGINS
time	group	step	mark	flag	A-AC1	A-AC2	A-AC3	A-AC4	A-AC5	A-AC6	A-AC7	A-AC8	A-AC9	A-AC10	A-AC11	A-AC12	A-AC13	A-AC14	A-AC15	A-AC16	A-DC1	A-DC2	A-DC3	A-DC4	A-DC5	A-DC6	A-DC7	A-DC8	A-DC9	A-DC10	A-DC11	A-DC12	A-DC13	A-DC14	A-DC15	A-DC16	A-Ph1	A-Ph2	A-Ph3	A-Ph4	A-Ph5	A-Ph6	A-Ph7	A-Ph8	A-Ph9	A-Ph10	A-Ph11	A-Ph12	A-Ph13	A-Ph14	A-Ph15	A-Ph16	B-AC1	B-AC2	B-AC3	B-AC4	B-AC5	B-AC6	B-AC7	B-AC8	B-AC9	B-AC10	B-AC11	B-AC12	B-AC13	B-AC14	B-AC15	B-AC16	B-DC1	B-DC2	B-DC3	B-DC4	B-DC5	B-DC6	B-DC7	B-DC8	B-DC9	B-DC10	B-DC11	B-DC12	B-DC13	B-DC14	B-DC15	B-DC16	B-Ph1	B-Ph2	B-Ph3	B-Ph4	B-Ph5	B-Ph6	B-Ph7	B-Ph8	B-Ph9	B-Ph10	B-Ph11	B-Ph12	B-Ph13	B-Ph14	B-Ph15	B-Ph16	aux-1	digaux	

32657.096	1	1	0	512	0.16833	0.12989	0.39957	0.30141	0.035126	0.16116	0.15973	0.099359	0.1844	0.1689	0.24003	0.20449	0.28928	0.21612	0.037065	0.20116	-4.4646	-4.3917	-4.3187	-5.0104	-4.2333	-4.65	-4.6917	-4.2458	-4.6729	-4.4833	-4.4021	-4.7896	-4.4125	-4.7167	-4.7375	-4.2646	43.767	0.703	-118.442	-110.768	88.716	-55.394	97.406	97.131	3.554	120.854	27.663	104.881	14.781	200.365	52.748	116.832	0.0010461	0.00076122	0.0018215	463.12	2.17e-05	9.5692e-06	469.1	152.28	9.1163e-06	4.8005e-06	172.01	81.476	69.324	31.213	8.5974e-06	39.324	0.024998	0.05239	0.022066	541.98	0.00045917	0.00062982	557.18	190.76	0.00048998	0.00065127	220.81	101.55	93.354	38.672	0.00055839	47.401	35.019	-6.116	-146.805	-145.217	-71.274	183.883	-145.998	-139.702	-97.956	48.763	-142.257	-139.029	-136.885	-133.661	-51.338	-134.925	-8191	255	
32657.191	1	1	0	0	0.13412	0.11781	0.030095	0.050635	0.21663	0.13045	0.31077	0.17759	0.24021	0.09714	0.26433	0.050139	0.1062	0.017867	0.19372	0.18557	-4.5292	-4.5	-4.2875	-5.0437	-4.3646	-4.5646	-4.7438	-4.3667	-4.6979	-4.7354	-4.3792	-4.8021	-4.4354	-4.5167	-4.9	-4.3042	117.391	189.401	-80.857	54.850	-35.825	95.417	169.572	-102.243	-132.301	-132.398	126.237	157.702	-102.324	113.154	156.530	118.278	0.0012502	0.00058114	0.00143	460.7	1.9842e-05	7.7569e-06	469.95	150.36	2.4011e-05	3.911e-06	171.52	80.011	67.963	29.629	7.952e-06	37.773	0.026527	0.05562	0.020749	540.83	0.00045543	0.00061522	551.97	188.76	0.00044003	0.00057655	212.64	96.417	85.395	36.273	0.00045146	44.492	36.252	-126.893	-137.963	-145.284	63.828	119.814	-145.949	-139.527	-42.325	-81.678	-141.622	-138.990	-137.306	-133.222	177.780	-135.332	-8191	255	
32657.285	1	1	0	0	0.088351	0.082089	0.22771	0.28359	0.16959	0.072305	0.29318	0.16646	0.12217	0.045897	0.18105	0.15684	0.11702	0.072733	0.18742	0.17884	-4.4521	-4.825	-4.3375	-4.8208	-4.5604	-4.4938	-4.9104	-4.1958	-4.6521	-4.65	-4.3542	-4.8771	-4.4333	-4.3354	-4.8021	-4.3875	124.081	-136.817	153.970	-148.178	110.209	64.093	-91.178	113.338	-133.423	150.225	-67.162	-153.633	-2.359	64.534	56.424	161.936	0.0012634	0.00077855	0.0018293	469.85	1.1507e-05	4.5625e-06	483.14	150.78	6.9622e-06	6.9025e-06	173.98	79.104	66.159	28.222	8.1721e-06	37.199	0.021483	0.044483	0.018353	533.19	0.00036098	0.00048666	548.7	178.28	0.00035542	0.00046569	208.02	92.837	81.386	34.701	0.00039283	43.056	54.553	-66.765	-132.293	-145.571	-38.441	-45.044	-146.250	-139.645	-70.774	61.760	-141.768	-138.501	-137.572	-132.953	199.132	-134.583	-8191	255	
32657.383	1	1	0	0	0.13719	0.22826	0.20119	0.16041	0.20882	0.20928	0.20826	0.16402	0.081969	0.0068721	0.29076	0.16336	0.094455	0.088074	0.11405	0.045905	-4.25	-4.7188	-4.25	-4.6875	-4.5312	-4.3812	-4.9958	-4.3833	-4.5104	-4.8333	-4.3417	-4.725	-4.5375	-4.2188	-4.8167	-4.3562	115.874	135.222	166.206	-76.915	40.295	-110.824	180.881	149.508	-30.939	58.222	-122.776	80.888	-119.948	138.838	87.384	201.309	0.0014182	0.00089873	0.0014936	484.9	6.5113e-06	8.0344e-06	499.21	151.08	1.9946e-05	6.0079e-06	173.57	77.515	64.957	27.144	5.6373e-06	36.269	0.019663	0.040528	0.015632	541.39	0.00034889	0.00047376	562.34	174.22	0.00047109	0.00046837	207.63	91.434	80.114	33.069	0.00039106	42.067	36.181	-121.641	-128.046	-145.670	-115.105	38.502	-145.770	-139.911	33.684	175.895	-141.778	-138.532	-137.339	-132.726	82.890	-134.678	-8191	255	
32657.502	1	1	0	0	0.072942	0.12627	0.29853	0.068843	0.079533	0.18012	0.084047	0.23589	0.14201	0.25046	0.071598	0.13193	0.15564	0.1637	0.16234	0.13808	-4.2146	-4.9479	-4.1917	-4.6167	-4.6354	-3.9938	-4.7271	-4.4833	-4.4708	-4.6937	-4.3771	-4.6417	-4.6771	-4.3063	-4.7417	-4.4208	151.154	-27.595	44.522	75.271	98.529	-68.750	107.996	106.641	163.614	112.635	176.745	72.585	123.722	-98.742	-29.806	197.074	0.00079899	0.00035944	0.0019225	486.53	1.57e-05	4.6489e-06	502.53	151.33	7.3813e-05	6.4084e-06	175.7	78.63	65.336	27.109	4.6893e-06	36.632	0.019295	0.039448	0.016641	542.92	0.00033036	0.00043613	560.25	170.62	0.00043666	0.00040637	205.9	90.286	78.112	32.588	0.00032193	41.637	38.965	-90.291	-116.540	-145.202	-41.787	125.811	-146.036	-140.387	67.593	109.145	-142.003	-138.391	-137.183	-132.714	15.382	-134.597	-8191	255	
32657.600	1	1	0	0	0.15455	0.12026	0.14773	0.12638	0.11833	0.27123	0.31774	0.23254	0.073821	0.1116	0.17243	0.25038	0.083367	0.058042	0.027283	0.097003	-4.1479	-4.8458	-4.2063	-4.6188	-4.7125	-4.1792	-4.7604	-4.475	-4.4458	-4.8729	-4.4417	-4.6875	-4.8333	-4.2937	-4.725	-4.4708	-107.631	157.166	-61.828	200.916	53.820	55.791	109.950	81.027	-153.793	-71.065	167.591	196.108	15.358	0.632	-110.745	-59.274	0.00079376	0.00044532	0.00053611	501.53	1.3401e-05	8.8215e-06	515.44	155.4	9.7916e-05	1.0987e-05	179.29	79.747	65.844	27.586	8.0138e-06	37.46	0.016183	0.033095	0.011956	550.07	0.00027965	0.00037265	567.06	171.56	0.00042513	0.00035768	206.34	90.805	77.545	32.047	0.00029121	41.859	48.840	0.071	-91.624	-145.757	70.536	-71.268	-146.279	-140.664	65.102	-45.835	-142.289	-138.315	-136.856	-132.766	-55.562	-134.406	-8191	255	
32657.670	1	1	0	0	0.06164	0.18278	0.15181	0.070527	0.27952	0.069809	0.11115	0.18407	0.11031	0.24888	0.049369	0.20873	0.20755	0.1275	0.064872	0.046658	-4.1062	-4.7792	-4.2271	-4.5646	-4.8125	-4.3167	-4.8313	-4.8021	-4.2271	-4.8688	-4.2896	-4.4271	-4.9187	-4.1729	-4.7438	-4.7292	-15.546	-145.074	-136.671	176.924	-111.989	-146.742	-92.022	-148.900	111.885	49.616	-10.653	157.825	-124.277	77.620	147.517	-32.322	0.0011036	0.0012342	0.00072474	510.82	1.2039e-05	7.4311e-06	528.08	156.82	4.6379e-05	1.6463e-05	183.25	80.428	66.349	27.202	1.2086e-05	36.898	0.014486	0.028938	0.009054	568.27	0.00025366	0.00033501	574.68	173.09	0.0003656	0.00034409	209.36	91.562	78.13	32.441	0.00032647	42.028	49.470	168.555	-63.778	-145.870	17.594	-25.817	-145.943	-140.267	73.334	-29.490	-141.726	-138.504	-137.150	-132.837	-45.227	-134.650	-8191	255	
32657.766	1	1	0	0	0.17593	0.1601	0.065555	0.23016	0.11079	0.12694	0.079309	0.16563	0.32451	0.22536	0.056342	0.32405	0.12617	0.3113	0.069103	0.011253	-4	-4.9208	-4.3812	-4.6292	-4.9083	-4.1708	-4.6021	-4.5813	-4.2708	-4.8229	-4.5563	-4.4167	-4.8708	-4.2542	-4.6104	-4.8313	69.416	201.340	73.184	135.539	90.532	-76.051	129.962	177.781	21.552	-120.730	79.294	-149.718	3.346	199.896	196.797	62.504	0.0012264	0.0010907	0.0001308	510.64	7.8748e-06	7.8692e-06	522.22	154.03	8.0389e-05	8.2238e-06	179.91	78.686	64.642	26.75	4.5159e-05	36.074	0.016804	0.034568	0.0099331	579.17	0.00031174	0.0004162	578.91	173.9	0.00048412	0.0004227	211.04	91.816	78.766	31.689	0.00039124	41.731	43.099	-83.751	128.432	-145.287	-37.469	-32.514	-146.051	-140.462	82.695	20.314	-141.895	-138.688	-137.225	-132.195	-146.180	-134.665	-8191	255	
32657.887	1	1	0	0	0.13131	0.1984	0.041467	0.19555	0.24491	0.18484	0.11961	0.14921	0.016656	0.15811	0.25521	0.10928	0.044864	0.15265	0.16477	0.13274	-3.8396	-4.6937	-4.5437	-4.3438	-4.8271	-4.3417	-4.7188	-4.9229	-4.1792	-4.825	-4.6292	-4.3875	-4.9688	-4.2604	-4.55	-5.0271	-157.552	26.042	122.834	187.879	63.789	-155.340	200.214	-133.537	0.791	124.103	195.282	-158.182	12.513	122.191	72.680	107.602	0.00095341	0.00077201	0.00026442	503.02	6.7219e-06	2.3183e-05	518.39	152.63	8.3238e-05	2.5083e-06	177.64	77.68	64.213	26.774	7.238e-05	36.355	0.018799	0.038817	0.01111	584.82	0.0003324	0.00044665	578.19	173.54	0.00045084	0.00043733	210.46	91.372	78.636	30.879	0.0004991	41.75	52.246	-129.695	-129.741	-145.541	-15.746	9.187	-146.385	-140.291	94.529	39.066	-141.653	-138.316	-137.346	-132.434	-147.040	-134.270	-8191	255	
32657.982	1	1	0	0	0.1397	0.099757	0.099995	0.096974	0.071434	0.25806	0.065818	0.13467	0.14372	0.11377	0.14486	0.095306	0.19255	0.16851	0.36406	0.20119	-3.9979	-4.6917	-4.6354	-4.3854	-4.8438	-4.4229	-4.725	-4.9333	-4.3042	-4.8042	-4.625	-4.3688	-4.875	-4.3625	-4.5104	-4.7958	124.322	190.858	116.657	-123.369	-5.436	-20.557	76.647	199.929	40.848	139.259	186.687	125.725	94.890	-134.582	-43.167	189.410	0.00073793	0.00082433	0.00021258	512.55	1.4364e-05	8.3031e-06	530.36	156.26	7.9362e-05	2.5366e-06	182.48	79.103	65.109	26.916	5.6941e-05	36.637	0.018326	0.038088	0.010888	583.82	0.00032153	0.0004333	591.89	176.74	0.00048915	0.00044897	216.37	93.385	80.849	31.304	0.00056287	43.072	52.096	18.472	-42.471	-145.054	139.592	146.540	-145.948	-140.458	98.967	-100.942	-141.617	-138.099	-137.171	-132.273	200.781	-134.396	-8191	255	
32658.078	1	1	0	0	0.18697	0.14797	0.29129	0.20154	0.10586	0.13258	0.17065	0.17135	0.25383	0.18834	0.094386	0.070922	0.24408	0.17166	0.040664	0.19651	-4	-4.5833	-4.6937	-4.3542	-4.7083	-4.4187	-4.4042	-4.9146	-4.3313	-4.6333	-4.7896	-4.4125	-4.7958	-4.4167	-4.525	-4.8625	48.508	28.146	-12.275	168.396	-62.276	-52.896	140.789	-143.183	-150.155	173.221	-104.983	-133.317	180.655	-98.780	-122.056	114.717	0.0011207	0.00048576	5.3467e-05	540.55	5.174e-06	1.3776e-05	564.47	162.81	6.938e-05	2.2581e-05	191.43	82.436	67.749	28.254	5.2539e-05	38.917	0.02159	0.045949	0.012969	630.43	0.00038853	0.00052095	634.35	186.14	0.00047395	0.00053262	227.84	97.422	83.995	32.767	0.00061512	45.365	42.711	178.233	-113.255	-145.259	-138.188	-24.408	-145.951	-140.279	49.415	152.843	-142.033	-138.277	-137.047	-132.281	-128.934	-134.140	-8191	255	
32658.176	1	1	0	0	0.30264	0.086167	0.17341	0.051782	0.26545	0.10233	0.21033	0.010581	0.15959	0.15017	0.16353	0.13683	0.061499	0.090232	0.15754	0.055449	-3.9521	-4.775	-4.6813	-4.2063	-4.7937	-4.5396	-4.2458	-4.8917	-4.4292	-4.6208	-4.8083	-4.2438	-4.7188	-4.5938	-4.2979	-5.1021	-151.069	30.391	-32.499	-138.443	-55.573	-134.301	144.458	-76.972	154.681	90.952	163.238	124.266	171.225	-41.479	134.182	139.635	0.00096734	0.0018811	0.00022522	572.96	1.2402e-05	7.815e-06	599.7	170.6	0.00010282	3.257e-05	200.06	85.317	69.816	29.193	5.4812e-05	40.222	0.021596	0.045602	0.012871	658.42	0.00039819	0.00054583	674.4	195.58	0.00043238	0.00071897	239.87	101.96	88.048	34.296	0.00061675	47.207	71.793	-132.050	9.302	-145.352	14.904	78.656	-146.300	-140.683	63.849	159.747	-141.833	-138.309	-137.089	-132.205	-131.222	-133.987	-8191	255	
32658.271	1	1	0	0	0.11258	0.14314	0.15226	0.097293	0.10951	0.19213	0.073801	0.03426	0.20452	0.058885	0.20045	0.16835	0.27512	0.16451	0.062691	0.19666	-4.0729	-4.6062	-4.7229	-4.2833	-4.6979	-4.5521	-4.4354	-5.0646	-4.3187	-4.4292	-4.8354	-4.1562	-4.7917	-4.8396	-4.2292	-4.95	-21.595	85.396	51.217	28.710	173.661	-87.255	0.700	158.507	69.243	-35.979	126.973	-145.569	-108.771	129.802	-135.507	137.949	0.0011217	0.0012215	0.00028322	599.45	1.1613e-05	4.4295e-06	625.05	175.58	2.6146e-06	5.1478e-05	204.96	86.179	71.184	29.74	7.3231e-05	40.548	0.023814	0.050495	0.014027	698.9	0.00044486	0.00060725	709.62	204.8	0.00048197	0.00081896	250.24	104.95	91.638	35.112	0.00072658	48.136	56.015	50.354	147.790	-145.512	173.863	-67.814	-146.096	-140.711	107.661	106.892	-141.724	-138.251	-137.492	-131.989	-127.990	-134.286	-8191	255	
32658.365	1	1	0	0	0.21441	0.12475	0.20815	0.17447	0.19047	0.19826	0.37536	0.20866	0.36934	0.17376	0.1751	0.12072	0.19581	0.17255	0.14558	0.030761	-4.3979	-4.4729	-4.7958	-4.35	-4.4458	-4.6458	-4.1125	-4.8646	-4.5979	-4.4688	-5.0667	-4.4167	-4.5646	-4.8438	-4.1958	-4.9729	113.499	182.541	-140.622	153.067	-99.738	20.525	122.640	138.918	154.832	-22.386	199.190	193.639	148.438	-16.875	-75.678	151.712	0.00093057	0.0014571	0.00046002	607.16	2.2041e-05	6.6325e-06	636.52	178.08	7.7083e-06	7.3426e-05	207.38	86.493	71.661	28.972	6.9322e-05	39.608	0.025789	0.053576	0.014967	701.08	0.00049703	0.00064109	726.57	209.25	0.00051828	0.00094716	256.71	107.58	94.847	35.268	0.00077172	48.294	51.507	-51.592	-61.745	-145.361	-83.296	108.087	-146.260	-140.412	159.208	117.864	-142.029	-138.611	-137.645	-132.125	-126.998	-134.283	-8191	255	
32658.465	1	1	0	0	0.088518	0.14156	0.076657	0.12269	0.12583	0.16015	0.21876	0.17993	0.12656	0.14559	0.11618	0.12467	0.19176	0.077629	0.035011	0.1438	-4.1687	-4.3688	-4.9938	-4.4688	-4.6021	-4.8958	-4.4	-4.7875	-4.5792	-4.4187	-4.9437	-4.2625	-4.5229	-4.8271	-4.2542	-4.7021	82.214	-6.006	-150.182	184.002	-52.433	133.154	190.440	120.816	-102.026	4.751	-25.245	-45.585	-0.797	112.936	64.712	179.494	0.0008769	0.00047319	0.00037189	616.3	4.2007e-05	1.2288e-05	649.29	179.86	1.3472e-05	5.0097e-05	206.41	85.746	71.588	28.707	8.7024e-05	38.889	0.030209	0.063191	0.017651	709.69	0.00071201	0.00072392	747.51	212.59	0.00054708	0.00090275	257.03	106.79	93.823	34.678	0.00079268	47.388	54.901	35.134	-50.636	-145.235	-74.296	-30.019	-146.431	-140.759	-89.203	117.634	-142.455	-138.947	-137.810	-132.285	-111.299	-134.043	-8191	255	
32658.582	1	1	0	0	0.22121	0.073798	0.11141	0.38294	0.15921	0.10221	0.083412	0.20202	0.073862	0.43451	0.28211	0.023796	0.15882	0.065956	0.1384	0.17202	-4.3771	-4.2875	-4.975	-4.4083	-4.3729	-4.9208	-4.275	-4.6875	-4.7396	-4.1604	-4.9917	-4.5167	-4.4646	-4.9062	-4.2438	-4.7333	-123.852	-8.753	-137.835	-119.633	183.230	154.674	99.233	65.030	153.004	-0.679	-71.213	-96.795	178.975	-97.374	170.939	197.530	0.0012122	0.00020062	0.00010558	614.86	7.9884e-05	1.8925e-05	651.24	179.97	1.5669e-05	6.1101e-05	206.02	85.696	71.202	28.448	7.3402e-06	38.601	0.028224	0.057753	0.016109	702.45	0.00062958	0.00064359	740.27	209.25	0.00048497	0.00085976	252.73	104.19	91.435	33.757	0.00061872	46.764	40.694	-90.542	158.287	-145.472	0.182	50.066	-146.299	-140.846	6.944	126.047	-142.384	-138.886	-137.394	-132.516	-21.259	-134.477	-8191	255	
32658.680	1	1	0	0	0.10184	0.088032	0.14226	0.16614	0.037192	0.071063	0.26796	0.32156	0.33185	0.10283	0.25991	0.44985	0.089756	0.19005	0.084125	0.088851	-4.2667	-4.2604	-4.7438	-4.7438	-4.2833	-4.9333	-4.4625	-4.5875	-4.7021	-4.1562	-4.9458	-4.5813	-4.3458	-4.9833	-4.4083	-4.5938	112.841	110.893	134.473	-58.651	74.808	144.627	-5.317	-93.790	-114.787	-139.324	187.230	60.793	50.083	179.867	-150.812	-109.614	0.00069315	0.00053569	0.00038794	621.38	7.5646e-05	5.9242e-06	654.8	181.21	1.5254e-05	4.4692e-05	210.44	85.75	71.239	27.809	3.0061e-05	39.197	0.025661	0.052201	0.014799	698.28	0.00060553	0.0005729	734.87	207.31	0.00042571	0.00070733	249.54	101.95	88.724	32.741	0.00045482	47.576	98.814	-126.693	-132.909	-145.758	0.381	50.981	-145.933	-141.023	-147.196	115.816	-142.318	-138.241	-137.453	-132.342	-61.299	-134.574	-8191	255	
32658.775	1	1	0	0	0.19716	0.14965	0.046904	0.093329	0.099868	0.15567	0.10809	0.21253	0.13261	0.15476	0.19162	0.12827	0.063467	0.10859	0.2403	0.21831	-4.4563	-4.1896	-4.5437	-4.6167	-4.3229	-4.8562	-4.5875	-4.65	-4.7937	-4.2896	-4.6646	-4.5875	-4.3875	-4.8833	-4.4	-4.5396	-88.087	131.464	155.665	148.510	23.974	-151.689	142.568	81.987	66.211	-72.781	-87.306	146.862	-46.853	-41.257	-26.275	171.409	0.00095524	0.00045641	0.00026564	616.58	5.7738e-05	1.1486e-05	656.71	181.75	1.111e-05	4.0627e-05	210.21	86.244	71.261	28.137	1.7205e-05	39.887	0.021751	0.044688	0.012612	685.6	0.00047772	0.0004835	722.94	203.36	0.00034744	0.00063996	244.06	99.439	85.344	32.01	0.00037121	46.675	76.187	161.152	-68.560	-145.305	2.414	-16.467	-146.327	-140.825	-71.002	150.725	-142.096	-138.845	-136.926	-132.079	-85.188	-134.765	-8191	255	
32658.896	1	1	0	0	0.10234	0.12341	0.041543	0.20371	0.21178	0.064151	0.054022	0.12391	0.12035	0.078084	0.22764	0.13826	0.12954	0.17341	0.22983	0.095298	-4.5292	-4.2479	-4.6146	-4.9229	-4.3146	-4.7917	-4.4604	-4.4167	-4.8333	-4.2188	-4.7083	-4.6729	-4.3812	-4.9313	-4.5563	-4.4875	-2.768	148.909	87.062	160.234	28.872	-57.704	59.011	-143.729	53.913	-43.834	79.327	-50.659	-71.785	-147.931	-76.414	150.871	0.0011795	0.00063109	7.7579e-05	620.37	8.287e-05	2.87e-06	646.89	180.39	1.686e-05	2.5536e-05	207.47	85.55	70.413	27.653	1.1333e-05	39.335	0.01769	0.036696	0.01048	672.8	0.00044793	0.00041655	705.64	199.65	0.00031095	0.00048679	241.65	97.665	83.63	31.36	0.00035065	46.36	42.234	-127.317	-46.277	-145.362	-7.681	-110.067	-146.468	-140.642	-114.000	73.767	-142.670	-138.440	-137.399	-131.936	-27.357	-134.695	-8191	255	
32658.967	1	1	0	0	0.10213	0.20121	0.097838	0.27927	0.071897	0.11918	0.076787	0.19954	0.16392	0.081091	0.14144	0.17497	0.078856	0.48	0.057899	0.16079	-4.5125	-4.2937	-4.4958	-4.7771	-4.4021	-4.7854	-4.6167	-4.4062	-4.9833	-4.2542	-4.6396	-4.8083	-4.1979	-4.7396	-4.7271	-4.4292	10.842	0.113	57.688	132.150	102.360	179.805	44.686	177.295	142.742	-130.579	77.970	141.084	39.700	153.978	121.651	136.955	0.00095172	0.00014499	9.3714e-05	601.85	4.3493e-05	1.0397e-05	634.43	177.37	1.0201e-05	7.2523e-06	203.97	84.525	69.26	27.27	1.5616e-05	38.613	0.016837	0.035493	0.010084	657.16	0.00039907	0.00041434	690.85	196.93	0.00031509	0.00041984	247.83	97.221	83.184	31.13	0.00036307	45.249	65.040	-133.330	116.305	-145.343	22.932	-148.862	-146.189	-140.642	194.693	69.696	-142.695	-138.345	-137.232	-132.130	-30.387	-133.816	-8191	255	
32659.064	1	1	0	0	0.18465	0.036805	0.08368	0.20265	0.0739	0.25708	0.10396	0.087411	0.2173	0.045109	0.20732	0.089118	0.20016	0.15581	0.12781	0.20727	-4.4646	-4.2937	-4.4979	-4.7375	-4.2958	-4.7667	-4.5979	-4.4792	-4.9229	-4.4229	-4.4521	-4.9667	-4.2958	-4.8063	-4.6375	-4.4042	113.162	167.632	199.736	34.562	85.988	66.655	-152.608	151.795	191.603	-144.149	-119.929	154.889	-36.265	138.981	152.689	-108.678	0.0010318	0.00048366	6.4649e-05	588.92	5.1783e-05	4.4076e-06	616.2	173.71	6.4055e-06	6.0824e-06	200.84	83.982	68.275	26.815	5.1915e-06	37.689	0.017818	0.037762	0.010644	644.91	0.00044946	0.00043644	675.43	193.79	0.00032922	0.00043275	243.32	96.315	82.923	30.789	0.00037093	44.848	53.102	-99.408	-61.685	-145.688	26.142	63.281	-146.131	-140.610	-111.500	-33.437	-142.737	-138.370	-137.309	-131.934	74.998	-134.528	-8191	255	
32659.184	1	1	0	0	0.24241	0.061508	0.31981	0.13497	0.17761	0.10117	0.0068893	0.28899	0.0090007	0.15636	0.079508	0.15153	0.28483	0.12478	0.076987	0.15437	-4.6083	-4.4979	-4.4958	-4.9396	-4.3521	-4.6979	-4.7688	-4.3167	-4.7417	-4.6646	-4.4896	-4.8729	-4.3021	-4.5708	-4.8562	-4.2229	-154.197	-61.568	-153.085	188.385	43.586	25.246	14.428	191.839	-117.738	-156.786	199.876	99.783	187.173	-100.232	-50.359	-152.350	0.0010258	0.00073877	3.5942e-05	580.85	4.5998e-05	4.8201e-06	608.25	172.31	2.0708e-05	9.5202e-06	195.4	81.472	67.531	26.038	1.1831e-05	36.303	0.01835	0.038472	0.010705	637.26	0.00038387	0.00048926	670.47	193.2	0.00035663	0.00046799	244.97	95.701	83.39	30.322	0.00041225	43.604	53.210	74.630	-130.050	-145.414	21.900	25.254	-145.956	-140.830	-48.012	-7.271	-142.645	-138.857	-137.487	-131.834	-78.223	-134.531	-8191	255	
32659.279	1	1	0	0	0.082143	0.19369	0.077854	0.11581	0.077127	0.18302	0.058414	0.13776	0.084172	0.086641	0.25535	0.089801	0.11574	0.059203	0.0056846	0.34549	-4.5458	-4.475	-4.3604	-4.9208	-4.2875	-4.5979	-4.8708	-4.1625	-4.6771	-4.525	-4.2125	-5.0333	-4.5062	-4.5771	-4.8708	-4.3333	126.806	56.613	24.661	145.910	145.079	-137.522	21.720	192.184	128.430	-28.378	64.164	176.066	12.971	-105.755	30.727	91.954	0.00091868	0.00091654	0.00027681	575.27	2.4597e-05	1.0782e-05	602.77	169.46	2.0651e-05	8.1049e-06	195.03	79.169	66.238	25.257	1.0759e-05	34.673	0.020838	0.043621	0.012131	639.83	0.00037732	0.00067591	673.83	193.72	0.00039548	0.000517	242.01	94.811	83.634	29.861	0.00044254	43.137	55.336	79.114	188.820	-145.308	-18.739	143.769	-146.224	-140.400	-89.923	-24.511	-141.874	-139.304	-137.958	-132.347	-67.811	-134.555	-8191	255	
32659.375	1	1	0	0	0.18255	0.0244	0.043471	0.15336	0.1724	0.07314	0.18936	0.22885	0.25102	0.11918	0.23113	0.16202	0.10142	0.032502	0.067727	0.12182	-4.4812	-4.8042	-4.2542	-5.05	-4.45	-4.5458	-4.8771	-4.2271	-4.8167	-4.7396	-4.3521	-4.7979	-4.5771	-4.5021	-4.7708	-4.4646	-101.949	-129.825	-40.794	-127.282	-11.465	93.325	106.329	174.972	33.430	70.306	-60.014	-127.326	-21.705	160.075	9.821	4.953	0.0009101	0.0008273	0.00010449	560.92	3.1935e-06	4.6563e-05	588.59	165.72	4.0447e-06	7.7516e-06	184.78	76.757	63.648	24.195	5.3409e-06	33.1	0.022534	0.046754	0.013215	634.62	0.00041818	0.00069829	663.75	191.97	0.00044869	0.00058143	244.32	94.814	83.864	29.539	0.00051529	41.321	42.467	-52.016	22.869	-145.425	97.377	39.087	-146.099	-140.719	-114.885	54.643	-142.741	-138.811	-137.262	-132.237	9.142	-133.984	-8191	255	
32659.494	1	1	0	0	0.2299	0.26641	0.089628	0.15722	0.15817	0.19968	0.036609	0.17962	0.13393	0.12284	0.11096	0.25329	0.023906	0.11056	0.090861	0.17243	-4.3562	-4.7833	-4.2917	-4.9083	-4.5396	-4.6208	-4.9771	-4.5563	-4.5771	-4.7521	-4.2271	-4.8604	-4.5271	-4.3604	-4.8333	-4.4125	166.629	-38.082	130.055	75.798	145.249	58.825	129.730	152.073	-107.366	-139.880	-8.247	-19.189	-96.283	172.554	177.972	92.846	0.0017974	0.00062241	0.00022226	527.47	8.9998e-06	7.4044e-05	549.23	157.11	2.963e-05	1.0808e-05	177.13	74.696	62.254	23.917	1.1215e-05	32.132	0.028564	0.054499	0.015567	613.34	0.00048753	0.00086688	639.99	187.18	0.00050853	0.00064905	238.16	94.434	83.865	29.384	0.00055748	40.156	50.555	79.582	-131.973	-145.343	-152.382	56.158	-146.129	-140.856	-12.031	38.737	-142.298	-139.035	-137.455	-132.037	44.946	-134.236	-8191	255	
32659.566	1	1	0	0	0.31015	0.18771	0.083184	0.17387	0.032634	0.16316	0.023366	0.31133	0.21635	0.27822	0.10211	0.12481	0.22819	0.20361	0.17817	0.11622	-4.1896	-4.8604	-4.2312	-4.8292	-4.6021	-4.2917	-4.9875	-4.3146	-4.3833	-4.7417	-4.2958	-4.6458	-4.6229	-4.1458	-4.6896	-4.5458	-53.999	66.156	-59.541	-3.927	-30.782	144.710	86.788	142.006	-95.938	-18.188	41.015	53.106	-129.054	-30.864	-74.874	152.545	0.0019462	0.0012962	0.00027216	512.11	1.1492e-05	4.9613e-05	536.4	152.34	2.7326e-05	1.055e-05	173.46	74.42	61.207	23.89	1.4793e-06	32.136	0.036479	0.056552	0.016235	596.73	0.00049575	0.00081819	624.09	183	0.00051428	0.00065568	240.02	94.168	83.196	29.693	0.00057802	40.488	47.638	-48.628	-112.674	-145.307	42.783	79.952	-145.662	-140.660	53.512	-136.231	-143.127	-138.800	-137.425	-132.703	87.796	-134.073	-8191	255	
32659.662	1	1	0	0	0.096703	0.10146	0.037355	0.15813	0.084767	0.14418	0.021568	0.091589	0.24214	0.081284	0.12995	0.11345	0.045257	0.31054	0.18531	0.17114	-4.1208	-4.6667	-4.2271	-4.7417	-4.5625	-4.0938	-4.7979	-4.5146	-4.2625	-4.9271	-4.4396	-4.4729	-4.8063	-4.1438	-4.8979	-4.4917	185.296	-112.332	8.520	110.559	184.781	-54.740	61.574	155.038	12.065	15.624	93.299	165.822	-126.815	132.086	114.950	185.648	0.0018125	0.0012232	0.00019165	508.64	1.6752e-05	6.688e-05	531.75	151.56	1.6564e-05	1.606e-05	172.62	73.447	61.649	24.031	1.1105e-05	32.355	0.035341	0.059362	0.017144	598.72	0.00051456	0.00092478	629.19	183.65	0.00052894	0.00069366	230.65	96.424	83.933	30.01	0.00059597	40.739	88.875	103.454	-156.208	-145.547	-11.842	65.999	-146.043	-140.866	23.459	-119.767	-142.021	-139.608	-137.523	-132.348	95.085	-134.789	-8191	255	
32659.760	1	1	0	0	0.13875	0.11687	0.13843	0.20571	0.087278	0.15415	0.12317	0.070283	0.080459	0.12415	0.24961	0.10396	0.16973	0.11821	0.072647	0.32124	-4.0167	-4.9271	-4.2063	-4.5708	-4.7146	-4.3458	-4.925	-4.4896	-4.2208	-4.8875	-4.5458	-4.7063	-4.8417	-4.1146	-4.775	-4.5958	-72.473	-126.078	198.147	150.034	150.153	150.647	163.883	137.320	55.969	-126.356	55.741	182.051	139.849	-137.270	156.704	166.967	0.0031564	0.0012684	0.00039973	509.53	1.9323e-05	3.4381e-05	534.71	151.86	5.2928e-06	1.4397e-05	175.93	73.866	62.21	24.721	7.6202e-06	33.146	0.038388	0.060297	0.017294	599.3	0.00050651	0.0008468	629.88	182.91	0.00050033	0.0006559	223.6	100.44	82.671	30.266	0.00055834	41.151	95.011	182.475	181.091	-144.989	10.528	77.858	-146.082	-140.452	-21.450	90.831	-141.781	-139.403	-137.566	-132.211	48.476	-134.266	-8191	255	
32659.855	1	1	0	0	0.078387	0.17994	0.19123	0.082544	0.074729	0.2818	0.099292	0.20718	0.16321	0.10985	0.06695	0.033184	0.3009	0.15223	0.32353	0.22512	-3.9604	-4.8812	-4.4104	-4.4583	-4.8479	-4.3021	-4.6625	-4.6708	-4.2562	-4.9833	-4.525	-4.5521	-4.8708	-4.2583	-4.4313	-4.5917	4.899	-49.422	189.742	174.969	158.022	-7.166	147.192	58.161	62.628	-76.491	147.355	-153.843	-131.230	-69.275	92.127	161.332	0.0021353	0.00086636	0.00012815	521.29	1.2454e-05	5.6999e-05	551.4	156.49	1.5476e-05	6.2755e-06	180.12	76.115	63.731	25.099	1.5254e-05	34.003	0.033643	0.057567	0.016522	608.69	0.00049985	0.00092529	649.48	188.16	0.00054153	0.00072206	233.99	103.37	87.208	31.575	0.00064316	42.91	95.839	129.815	119.125	-145.308	-11.147	82.887	-146.145	-140.474	-135.014	-53.487	-142.426	-138.967	-137.807	-132.416	-56.662	-133.989	-8191	255	
32659.977	1	1	0	0	0.024394	0.18804	0.29028	0.10366	0.13831	0.20677	0.015586	0.079296	0.10617	0.19188	0.37118	0.25155	0.078691	0.19842	0.09599	0.064953	-3.8896	-4.7979	-4.4417	-4.3521	-4.95	-4.2646	-4.7667	-4.6417	-4.275	-4.7917	-4.475	-4.3688	-4.8229	-4.2	-4.575	-4.7063	-155.699	-2.781	0.700	192.218	117.519	-122.528	128.183	150.883	-14.978	-141.072	180.270	182.507	172.592	102.006	165.203	54.536	0.0032446	0.0023714	4.769e-05	538.45	3.135e-06	5.0599e-05	572.06	159.95	2.655e-05	4.8441e-06	185.37	78.422	65.87	25.856	3.1609e-05	34.847	0.041571	0.06738	0.019055	636.64	0.00058253	0.00087977	691.93	196.07	0.00061902	0.00083055	245.26	110.6	92.568	33.204	0.00071778	44.68	107.593	-49.892	-100.404	-145.357	-112.044	56.620	-146.340	-140.827	177.876	-39.987	-142.212	-139.946	-138.058	-132.552	153.192	-134.373	-8191	255	
32660.072	1	1	0	0	0.14828	0.26975	0.12379	0.30751	0.13386	0.23534	0.079745	0.060692	0.13782	0.082019	0.14063	0.19761	0.11994	0.25324	0.036191	0.042247	-3.8625	-4.8042	-4.4583	-4.4042	-4.9125	-4.4521	-4.5521	-4.8438	-4.3646	-4.8688	-4.6458	-4.15	-4.9437	-4.2479	-4.5792	-4.8042	171.647	131.590	191.600	138.297	-65.375	99.129	-0.199	183.812	34.859	91.454	185.505	199.532	68.223	152.591	100.707	183.068	0.0018171	0.00058799	0.00041033	544.13	2.0254e-05	1.257e-05	577.36	162.32	2.555e-05	6.8959e-06	189.11	80.297	67.488	27.023	1.284e-05	35.912	0.043176	0.074637	0.020807	656.58	0.00063871	0.00086701	734.9	202.02	0.00065772	0.00086848	250.68	111.98	95.709	34.474	0.00073809	46.175	111.367	105.705	-8.926	-145.119	-95.267	-121.861	-145.944	-140.933	-120.004	12.681	-142.482	-139.541	-138.086	-132.743	-43.557	-134.158	-8191	255	
32660.168	1	1	0	0	0.20373	0.077655	0.040548	0.20034	0.064337	0.061487	0.076022	0.275	0.025857	0.085893	0.072805	0.081517	0.18073	0.2264	0.089642	0.20209	-3.8958	-4.6833	-4.5938	-4.3333	-4.9271	-4.4708	-4.4792	-4.9187	-4.3375	-4.7354	-4.7063	-4.3042	-4.8354	-4.3833	-4.3917	-4.8458	-43.225	198.068	-115.351	82.387	-134.623	-56.424	-32.277	141.636	135.900	-8.602	188.771	98.196	-30.880	148.496	190.595	136.591	0.0025915	0.0012071	0.00024094	559.37	5.6276e-06	1.9538e-05	581.35	166.8	1.3134e-05	7.6264e-06	193.72	83.26	69.881	28.056	2.2103e-05	37.23	0.047772	0.076603	0.021316	670.25	0.00066635	0.00090155	735.6	207.06	0.00070117	0.00091835	258.53	119.08	100.14	36.13	0.00079414	48.544	121.965	-26.369	-129.825	-145.461	58.666	101.681	-146.026	-140.888	-104.191	52.552	-142.216	-139.608	-137.838	-133.154	-118.342	-134.452	-8191	255	
32660.266	1	1	0	0	0.29411	0.10114	0.023505	0.1178	0.093369	0.22708	0.11382	0.10072	0.25593	0.10881	0.16452	0.15589	0.12379	0.17091	0.042998	0.18038	-3.8896	-4.5229	-4.7167	-4.1625	-4.7833	-4.5333	-4.5146	-4.8521	-4.2729	-4.6813	-4.7542	-4.225	-4.8	-4.7167	-4.3875	-4.9667	45.542	172.059	148.254	134.648	119.948	-137.646	75.479	-124.781	27.738	132.222	173.923	105.752	154.005	-18.730	-34.671	119.391	0.0022133	0.0011435	5.618e-05	564.38	1.8169e-05	1.3472e-05	582.26	168.63	1.385e-05	1.492e-05	193.87	85.204	70.876	28.717	2.781e-05	38.153	0.043051	0.09184	0.023011	686.54	0.00071895	0.00095085	757.6	210.7	0.00071837	0.00091265	259.02	118.02	100.08	36.391	0.00075705	48.866	117.597	-120.909	2.820	-145.552	24.774	11.693	-145.926	-140.866	4.314	-57.791	-142.435	-139.247	-137.808	-132.731	63.681	-134.721	-8191	255	
32660.359	1	1	0	0	0.073383	0.12461	0.16728	0.20131	0.25958	0.094205	0.14632	0.18967	0.20035	0.23739	0.1305	0.062131	0.20228	0.095666	0.064991	0.21607	-3.8958	-4.5396	-4.8187	-4.3812	-4.7271	-4.7188	-4.425	-4.8792	-4.3562	-4.5229	-4.9333	-4.2979	-4.7042	-4.6	-4.2771	-4.9083	87.244	47.081	111.345	105.823	55.636	45.522	93.767	157.248	139.953	34.531	-122.385	117.807	-121.259	-62.706	-79.053	52.480	0.00095856	0.0059994	0.00036488	556.61	6.6056e-06	6.4402e-06	578.11	168.11	1.2252e-05	2.6915e-05	194.93	84.445	70.297	28.69	1.1897e-05	37.495	0.037874	0.10202	0.021905	676.59	0.00068399	0.0009028	737.32	210	0.0007118	0.00092598	261.31	121.16	101.57	36.853	0.00081728	49.25	19.723	-63.495	194.781	-145.292	179.016	-23.723	-146.119	-140.645	10.821	-9.251	-142.633	-138.765	-137.793	-132.906	-99.828	-134.587	-8191	255	
32660.457	1	1	0	0	0.22922	0.17982	0.0083189	0.2032	0.30184	0.14277	0.079098	0.27045	0.17605	0.023888	0.10514	0.2639	0.15923	0.27707	0.058356	0.079793	-3.975	-4.4062	-4.6562	-4.3313	-4.6917	-4.5938	-4.3229	-4.8125	-4.3604	-4.3042	-5.0229	-4.4125	-4.5479	-4.8479	-4.3187	-4.8812	-94.931	6.208	-25.422	135.261	41.202	-136.260	-143.081	123.605	13.973	-156.022	82.323	43.703	164.180	184.670	-122.384	-95.982	0.0012502	0.0051298	8.7577e-05	559.54	2.0556e-05	6.8223e-06	579.39	167.57	2.5185e-05	1.116e-05	192.53	83.981	70.431	27.875	1.3129e-05	36.726	0.040867	0.1031	0.023862	686.79	0.00074009	0.00097778	766.14	213.89	0.00076513	0.00099024	266.14	115.88	106.25	36.397	0.00085759	48.783	60.625	-65.200	64.035	-145.437	-79.610	176.593	-146.047	-140.563	-96.343	44.671	-142.513	-139.157	-138.914	-133.165	20.001	-134.632	-8191	255	
32660.576	1	1	0	0	0.26075	0.19025	0.11246	0.11934	0.21802	0.087874	0.14887	0.26883	0.059221	0.15439	0.17668	0.021684	0.084284	0.1935	0.10653	0.24515	-4.2125	-4.4167	-4.8458	-4.3479	-4.4604	-4.6062	-4.2083	-4.9583	-4.4688	-4.4125	-4.9021	-4.25	-4.475	-4.7542	-4.0708	-4.7729	-86.760	179.830	46.943	191.993	75.057	63.144	178.675	-137.384	-82.094	158.930	-125.210	188.873	47.687	196.984	87.384	-154.485	0.00099588	0.0088895	0.00016787	569.49	1.2427e-05	1.5478e-06	597.53	170.75	7.1023e-06	4.8324e-06	197.99	82.177	69.652	26.027	6.2328e-06	34.913	0.041074	0.11133	0.024182	697.44	0.00072524	0.00095679	767.36	215.11	0.00071238	0.00092525	264.99	109.08	107	33.322	0.00073444	44.895	55.424	-45.477	-87.650	-145.418	102.056	31.107	-146.049	-141.139	129.769	-74.775	-142.554	-139.345	-139.428	-132.573	-105.095	-133.848	-8191	255	
32660.672	1	1	0	0	0.075161	0.067191	0.26892	0.075998	0.11839	0.15088	0.10023	0.055306	0.25989	0.031523	0.18823	0.095051	0.20157	0.18215	0.092184	0.11614	-4.1833	-4.2479	-4.7688	-4.3292	-4.3812	-4.6271	-4.3104	-4.5771	-4.6813	-4.3271	-4.9563	-4.4625	-4.4688	-4.8458	-4.3021	-4.7271	139.878	-122.668	12.780	171.914	-136.771	-4.616	-62.653	114.042	-144.987	-154.937	153.501	176.275	16.576	55.746	16.670	-86.980	0.0013431	0.0045737	0.0002872	593.85	1.3556e-05	9.1348e-06	623.32	180.07	2.6149e-05	8.6311e-06	206.94	82.132	71.405	26.954	8.88e-06	38.276	0.033212	0.084978	0.019086	692.05	0.00054419	0.00071924	758.48	212.17	0.00051295	0.00067103	255.66	101.03	97.923	32.318	0.00052613	45.689	37.020	-46.163	-98.616	-145.407	69.611	-157.125	-145.707	-141.314	-17.221	-119.227	-142.203	-139.591	-138.897	-132.577	158.580	-134.842	-8191	255	
32660.768	1	1	0	0	0.12199	0.33314	0.17824	0.081384	0.16324	0.11114	0.2471	0.16885	0.11477	0.061581	0.18234	0.055757	0.24325	0.24131	0.21402	0.1355	-4.25	-4.2438	-4.8125	-4.3271	-4.2937	-4.7708	-4.3125	-4.6583	-4.5458	-4.0979	-4.9375	-4.5563	-4.2896	-5.0604	-4.3938	-4.6438	-22.844	-144.129	115.160	9.148	-42.632	137.534	109.070	131.694	-25.482	71.737	141.998	111.452	165.047	-141.205	-109.441	-43.231	0.00089881	0.0061909	0.000185	604.92	1.144e-05	4.509e-06	625.79	187.16	2.8696e-06	1.0278e-05	211.4	84.988	76.607	28.408	6.7045e-06	40.499	0.023999	0.072587	0.013487	674.4	0.00037498	0.00049117	699.59	212.86	0.00032619	0.00041488	239.93	96.007	93.396	31.467	0.00026878	44.496	45.601	-41.578	-116.023	-145.436	112.272	42.447	-146.645	-141.962	-105.220	33.901	-142.983	-140.285	-139.955	-132.832	45.792	-134.655	-8191	255	
32660.863	1	1	0	0	0.24316	0.1541	0.076016	0.11227	0.23462	0.0088194	0.06398	0.25408	0.15423	0.13822	0.21041	0.24339	0.14865	0.048032	0.15296	0.24623	-4.3458	-4.1521	-4.8521	-4.4667	-4.3875	-4.725	-4.3667	-4.6417	-4.7042	-4.3104	-4.8771	-4.6396	-4.3625	-4.9187	-4.4292	-4.5563	175.286	-36.439	-9.338	186.925	-15.429	-154.121	96.289	141.745	80.308	-44.253	-33.074	154.232	124.110	180.113	-120.457	129.985	0.00075506	0.0029566	0.00034579	615.08	9.517e-06	1.1109e-05	626.17	188.04	1.369e-05	2.6801e-06	209.22	87.512	76.742	28.789	5.3483e-06	44.404	0.011456	0.031286	0.0056935	642.32	0.00014623	0.00018716	649.32	201.65	0.00011373	0.00014045	219.21	91.527	82.913	30.135	9.0322e-05	46.339	28.583	-42.685	-49.992	-145.461	2.632	-8.244	-146.331	-141.568	-74.675	-121.447	-142.781	-140.190	-139.581	-132.600	-59.245	-135.012	-8191	255	
32660.961	1	1	0	0	0.24963	0.11104	0.1431	0.21042	0.16182	0.13559	0.19806	0.23213	0.10639	0.037947	0.15455	0.13467	0.30882	0.23052	0.15382	0.040215	-4.5042	-4.2021	-4.7604	-4.6167	-4.1229	-4.85	-4.55	-4.5708	-4.8292	-4.3313	-4.6229	-4.7937	-4.2542	-4.9229	-4.5958	-4.6125	177.224	162.986	-124.267	131.014	27.434	151.108	111.884	109.598	-97.332	95.113	156.879	135.342	130.685	-155.486	-19.223	190.210	0.0014316	0.0029714	0.00010889	618.63	8.1796e-06	5.3507e-06	638.29	189.11	4.4968e-06	2.9804e-06	213.28	89.037	77.842	30.894	6.6475e-06	45.038	0.0046061	0.016175	0.0027291	633.23	9.2846e-05	0.00013451	660.47	200.37	0.00012783	0.00018312	229.03	95.691	89.315	33.422	0.00023389	49.182	48.308	-39.236	-51.882	-145.496	-53.031	-8.180	-146.453	-141.266	-99.750	197.910	-143.067	-140.164	-139.512	-133.277	-15.165	-134.910	-8191	255	
32661.057	1	1	0	0	0.21636	0.15804	0.26251	0.27625	0.1335	0.22072	0.17261	0.11584	0.1592	0.14615	0.085104	0.13334	0.11844	0.068733	0.058714	0.15113	-4.4479	-4.2479	-4.6354	-4.8229	-4.2333	-4.8479	-4.5563	-4.375	-4.8229	-4.4708	-4.6021	-4.7438	-4.35	-4.8771	-4.5271	-4.3542	1.824	153.748	-128.632	172.262	92.335	-18.054	114.078	125.040	142.094	-29.052	178.629	65.462	184.439	-151.823	127.356	80.765	0.0013869	0.0047208	0.00032283	679.74	6.434e-06	1.0637e-05	758.24	225.67	2.1626e-06	1.2951e-05	263.72	111.36	97.289	34.609	6.6154e-06	47.763	0.01408	0.034035	0.011389	733.82	0.00033516	0.00047891	826.84	261.64	0.0004188	0.00055428	305.46	127.99	121.31	39.839	0.00048269	55.316	49.968	-30.337	79.530	-145.313	51.941	-26.847	-146.650	-142.230	-114.680	86.107	-143.977	-140.932	-140.370	-133.971	-61.698	-135.261	-8191	255	
32661.152	1	1	0	0	0.11846	0.15879	0.26963	0.027903	0.23027	0.10778	0.13998	0.15389	0.13219	0.14499	0.11992	0.31642	0.3486	0.13697	0.080881	0.20509	-4.5417	-4.3604	-4.5146	-4.6562	-4.2208	-4.7146	-4.8438	-4.3854	-4.9271	-4.4437	-4.5771	-4.8229	-4.2667	-4.8792	-4.5792	-4.5563	90.986	127.886	-69.921	-104.543	-81.406	114.221	129.941	106.955	89.702	51.495	18.890	-3.376	-156.709	178.933	71.566	170.705	0.0012274	0.0012751	0.0014686	768.71	4.4635e-06	1.3153e-05	820.33	242.76	2.6861e-05	5.1339e-06	270.95	112.49	98.425	36.223	2.3581e-06	50.031	0.024774	0.051392	0.020211	848.33	0.00044743	0.00058964	899.15	277.63	0.00041463	0.00051634	307.1	126.85	118.03	39.994	0.00034143	55.257	46.941	-29.989	-5.706	-145.809	-120.043	-64.869	-146.714	-142.204	25.126	-30.015	-143.532	-141.149	-139.802	-133.605	85.247	-135.109	-8191	255	
32661.273	1	1	0	0	0.21768	0.11027	0.11065	0.094362	0.21752	0.14355	0.060049	0.014528	0.13741	0.098379	0.18007	0.11703	0.089122	0.068639	0.12811	0.13221	-4.4875	-4.4563	-4.4125	-4.9187	-4.4437	-4.7375	-4.7396	-4.225	-4.8042	-4.4646	-4.5792	-4.9958	-4.2562	-4.7312	-4.7104	-4.3396	50.334	85.877	152.048	109.102	180.833	-46.589	61.843	-148.843	180.831	172.544	189.359	114.993	162.126	-99.400	93.423	85.157	0.0016533	0.00029003	0.0007713	795.14	1.8121e-05	1.1492e-05	832.31	245.41	4.5632e-06	1.0532e-05	269.09	111.3	97.223	36.536	5.9594e-06	51.755	0.015799	0.030616	0.011053	836.17	0.00023674	0.00030289	873.2	266.51	0.00021549	0.00026955	290.5	119.56	106.22	39.603	0.00021752	55.589	42.199	-75.771	-10.102	-145.555	-65.525	11.830	-146.886	-141.986	43.650	-72.038	-143.197	-140.406	-139.237	-133.308	12.122	-135.340	-8191	255	
32661.367	1	1	0	0	0.0531	0.23489	0.086958	0.11953	0.17986	0.097425	0.20398	0.1161	0.19118	0.22832	0.24602	0.24003	0.14091	0.1738	0.19812	0.016506	-4.45	-4.6104	-4.5312	-4.8562	-4.4021	-4.5958	-4.8125	-4.3729	-4.7937	-4.5208	-4.3479	-5.0354	-4.2708	-4.5312	-4.7521	-4.4563	51.863	-47.712	-102.303	-90.285	153.299	16.067	-122.934	191.057	192.626	-149.634	91.382	19.147	-14.240	0.804	-99.758	41.902	0.0014561	0.00094874	0.00088772	801.75	1.0071e-05	3.486e-06	830.71	241.44	1.0839e-05	5.9519e-06	262.66	108.02	93.273	37.19	5.3373e-06	52.904	0.011017	0.022096	0.0093981	832.59	0.0001925	0.00025509	866.02	258.69	0.00019354	0.00024959	282.7	115.74	101.63	40.557	0.00021835	56.635	48.088	-94.682	-6.544	-145.444	-22.017	39.622	-146.836	-141.806	39.157	19.166	-143.271	-140.517	-139.175	-133.222	3.250	-135.013	-8191	255	
32661.439	1	1	0	0	0.15016	0.080214	0.12595	0.096185	0.17142	0.038597	0.095327	0.24461	0.20244	0.10131	0.11227	0.16927	0.31298	0.15633	0.12423	0.13734	-4.5833	-4.6396	-4.2479	-4.9875	-4.5292	-4.4938	-4.8604	-4.4458	-4.7104	-4.6312	-4.4125	-4.8042	-4.3771	-4.4688	-4.6792	-4.3667	35.268	197.443	37.970	131.203	112.549	-154.936	171.876	194.608	5.081	-143.447	40.891	-115.139	154.958	-26.587	142.311	66.732	0.0016597	0.0011949	0.00056155	776.39	1.3789e-05	7.6316e-06	806.62	232.37	4.6471e-05	3.2387e-06	258.61	106.09	89.951	37.418	8.7847e-06	52.959	0.011096	0.022556	0.0087065	808.2	0.00020085	0.00027074	843.8	249.58	0.00021988	0.0002771	278.58	114.83	99.535	40.84	0.00024745	57.03	47.771	-55.503	-12.230	-145.409	-33.277	63.053	-146.770	-141.514	-143.516	63.134	-143.237	-139.931	-138.260	-133.066	-20.089	-135.356	-8191	255	
32661.537	1	1	0	0	0.36564	0.012003	0.24628	0.26409	0.13101	0.13464	0.15011	0.16079	0.14789	0.26641	0.12085	0.035597	0.021232	0.19257	0.10278	0.24936	-4.3812	-4.5437	-4.3313	-5.0375	-4.5729	-4.4875	-4.975	-4.4833	-4.7854	-4.8854	-4.2917	-4.8333	-4.5042	-4.3396	-4.8812	-4.4833	119.552	44.370	198.763	-155.147	75.885	106.350	196.571	-154.623	170.557	-1.908	187.253	49.661	-4.337	43.599	20.018	96.052	0.0015741	0.00068844	0.00067558	756.28	9.8073e-06	4.1123e-06	783.2	225.14	1.4041e-05	1.1609e-05	252.21	105.35	88.244	38.446	1.229e-05	54.341	0.012339	0.024913	0.0097408	792.52	0.00021159	0.00028149	823.93	239.09	0.00024325	0.00026332	271.74	113.39	97.009	41.694	0.00023162	58.269	49.131	-92.128	15.073	-145.498	-6.641	66.736	-146.994	-141.291	191.306	-20.405	-142.902	-139.690	-138.532	-132.985	-147.228	-135.092	-8191	255	
32661.656	1	1	0	0	0.3229	0.10574	0.1036	0.13566	0.25473	0.17258	0.051374	0.2584	0.21084	0.059165	0.14947	0.16487	0.18891	0.21482	0.19375	0.11044	-4.3583	-4.8812	-4.2937	-5.0104	-4.6708	-4.5271	-5.0563	-4.6104	-4.4917	-4.7708	-4.3688	-4.7396	-4.6438	-4.3396	-4.8896	-4.4125	175.671	-37.771	192.747	-86.915	130.135	0.172	-48.916	54.389	-60.705	162.515	75.616	24.430	-63.093	97.011	-44.842	162.532	0.0015877	0.0003086	0.00046293	739.79	7.5085e-06	1.2077e-05	776.61	222.27	4.0536e-05	2.5649e-06	250.47	104.16	87.674	36.819	4.3735e-06	51.867	0.011807	0.02478	0.0090043	776.6	0.00021881	0.00029667	817.36	236.8	0.00030911	0.00030368	272.91	113.6	98.258	40.404	0.0002733	56.478	44.522	-60.684	14.674	-145.531	-37.222	-69.118	-146.582	-141.322	-117.161	3.406	-143.029	-139.649	-138.307	-133.009	-124.721	-135.089	-8191	255	
32661.752	1	1	0	0	0.19272	0.17355	0.16012	0.141	0.04211	0.28897	0.09376	0.16588	0.29858	0.14295	0.043254	0.16897	0.21866	0.0044132	0.032723	0.30838	-4.3688	-4.7708	-4.3292	-4.8167	-4.5854	-4.0833	-4.8688	-4.5021	-4.5917	-4.8438	-4.3375	-4.7083	-4.7771	-4.3688	-4.8417	-4.6229	-84.924	62.646	169.728	152.831	-80.027	170.488	137.334	153.223	-49.499	-0.515	-18.000	106.036	111.631	200.257	51.594	-124.067	0.0012802	0.00086237	0.00098572	727.09	8.7644e-06	1.0251e-05	766.54	220.31	3.9521e-05	5.5881e-06	245	101.86	85.562	35.661	1.6586e-06	50.687	0.013351	0.027343	0.0095647	770.79	0.00022454	0.00029868	804.98	233.96	0.00027671	0.00028601	266.61	110.36	95.214	39.172	0.00024422	54.734	53.678	-42.593	-12.045	-145.516	-66.530	-66.170	-146.726	-141.566	-123.843	-13.315	-142.844	-139.392	-138.235	-132.936	172.060	-135.093	-8191	255	
32661.848	1	1	0	0	0.20734	0.09298	0.2349	0.31008	0.22333	0.16862	0.17035	0.16413	0.032076	0.15271	0.074477	0.24657	0.22331	0.13065	0.19349	0.23665	-4.3042	-5.0042	-4.2812	-4.7958	-4.7604	-4.2812	-4.9437	-4.6562	-4.5125	-4.9375	-4.3896	-4.6854	-4.6167	-4.325	-4.7292	-4.6438	-144.363	167.481	-106.192	170.335	-84.587	-10.892	82.020	105.071	-107.945	-71.504	-58.761	-154.300	95.545	-123.206	82.279	123.372	0.0012751	0.0010687	0.00075053	723.8	4.9263e-06	7.5997e-06	754.02	215.17	4.6321e-05	7.2971e-06	240.32	99.353	84.321	34.738	4.0176e-06	49.305	0.01227	0.025118	0.0072427	768.24	0.00021839	0.00029694	794.31	230.42	0.00030387	0.00030154	263.06	108.16	93.65	38.1	0.00025781	53.541	52.548	-41.453	-18.865	-145.605	-74.476	-20.659	-146.634	-141.347	195.504	-20.280	-142.929	-139.685	-138.431	-132.598	93.193	-135.007	-8191	255	
32661.945	1	1	0	0	0.12783	0.18001	0.14605	0.093735	0.32547	0.22197	0.17186	0.065948	0.1874	0.38616	0.17213	0.10738	0.096699	0.097168	0.067843	0.1235	-4.0729	-5.0667	-4.5458	-4.5938	-4.7937	-4.2771	-4.9229	-4.6	-4.4625	-4.9854	-4.5	-4.5229	-4.8583	-4.4167	-4.6792	-4.7833	-123.468	-90.617	179.430	-68.154	78.189	56.881	117.080	-18.597	50.024	45.782	166.476	-107.952	-128.514	77.399	-54.431	130.826	0.0012076	0.00094404	0.00038582	700.62	6.9034e-06	5.3805e-06	729.42	208.93	2.1422e-05	1.1076e-05	235.2	97.056	80.624	34.082	1.2577e-05	48.165	0.012845	0.025868	0.0072508	752.23	0.0002195	0.00029233	771.48	222.8	0.00026745	0.00028018	255.44	105.27	89.866	36.991	0.0002329	52.027	47.547	-100.359	-72.263	-145.570	48.439	24.525	-146.551	-141.265	-89.939	-38.656	-142.818	-139.210	-138.127	-132.827	-6.000	-135.162	-8191	255	
32662.064	1	1	0	0	0.26093	0.15156	0.15033	0.1233	0.15518	0.15299	0.30449	0.1248	0.12367	0.16105	0.084944	0.13808	0.035025	0.092409	0.24836	0.036309	-4.0354	-4.9229	-4.225	-4.5542	-4.8708	-4.2063	-4.7271	-4.8688	-4.2667	-4.9021	-4.5396	-4.3521	-4.8104	-4.2979	-4.65	-4.7375	177.700	41.152	121.666	136.698	189.727	-57.678	127.469	-138.614	171.631	76.702	179.652	-75.594	180.074	14.083	138.046	-111.718	0.0011989	0.000557	0.00015429	686.22	3.3557e-06	7.0365e-06	716.74	204.29	3.9454e-05	6.01e-06	228.66	95.258	78.89	33.841	3.1398e-06	48.373	0.011076	0.022379	0.0061945	729.08	0.00019309	0.00025808	749.03	216.15	0.00025467	0.000249	248.11	103.24	87.27	36.227	0.00024457	51.755	51.213	-47.298	-40.944	-145.508	78.004	5.618	-146.505	-141.356	-110.640	-26.571	-142.693	-139.210	-137.852	-132.910	-117.092	-135.310	-8191	255	
32662.137	1	1	0	0	0.099625	0.28139	0.19564	0.044962	0.10473	0.15835	0.044312	0.23365	0.17784	0.039795	0.20863	0.2998	0.15762	0.15158	0.14723	0.26241	-3.975	-4.7063	-4.4333	-4.2854	-4.9354	-4.4313	-4.8833	-4.7146	-4.3458	-4.8271	-4.6729	-4.3042	-5.0042	-4.5042	-4.5167	-4.8271	-18.244	42.836	-32.983	34.566	200.089	-96.658	59.063	179.097	200.226	93.346	157.897	96.722	29.144	89.571	-76.813	99.707	0.0014065	0.00028478	0.00016491	666.68	7.6344e-06	4.0405e-06	693.45	199.23	1.8833e-05	9.1316e-06	224.58	94.771	77.604	32.978	1.9739e-05	46.251	0.010369	0.020744	0.0057643	706.56	0.00017778	0.00023478	725.21	210.27	0.00022609	0.000239	243.69	102.3	85.922	35.424	0.00027197	49.728	47.263	-133.328	-64.841	-145.491	-50.017	-46.092	-146.307	-141.130	-133.348	24.868	-142.982	-138.890	-138.025	-132.844	18.120	-134.815	-8191	255	
32662.258	1	1	0	0	0.13959	0.0764	0.061512	0.36709	0.086402	0.091412	0.065491	0.11865	0.21614	0.17025	0.1119	0.068085	0.15243	0.15118	0.16981	0.2036	-3.6896	-4.8063	-4.5917	-4.4062	-4.8146	-4.3896	-4.6979	-4.9146	-4.1375	-4.7646	-4.7562	-4.4271	-5.0083	-4.5083	-4.4875	-4.9542	140.801	-17.527	-34.798	-118.218	-73.689	-99.835	151.581	-101.217	123.332	170.796	-111.514	-127.135	170.101	140.285	-136.532	147.688	0.001612	0.00083758	0.00011195	648.05	6.2404e-06	6.5591e-06	673.05	193.64	2.7342e-05	2.365e-05	219.17	92.164	75.611	31.369	1.3348e-05	43.004	0.010972	0.022077	0.0064308	690.98	0.00020785	0.00027933	712.1	207.3	0.00026737	0.00031681	242.62	101.78	85.735	34.3	0.00031203	47.431	49.805	-60.567	100.870	-145.574	-82.173	39.824	-146.590	-141.139	-4.665	-114.061	-142.503	-138.962	-137.700	-132.627	-1.270	-135.067	-8191	255	
32662.354	1	1	0	0	0.13802	0.19545	0.15185	0.45387	0.24985	0.14577	0.18294	0.18837	0.11364	0.045757	0.020386	0.30709	0.21543	0.13102	0.15528	0.08878	-3.9292	-4.5729	-4.6708	-4.3417	-4.7646	-4.5188	-4.4542	-5.0396	-4.325	-4.6438	-4.9125	-4.2375	-4.8854	-4.4333	-4.3479	-5.1062	-94.114	-109.546	55.924	-150.459	43.940	101.564	3.820	-47.860	141.216	143.698	71.104	166.036	60.689	200.979	166.928	101.148	0.0012212	0.00071808	0.00010828	627.85	3.5693e-06	1.6995e-05	657.92	187.51	8.1745e-06	7.0764e-06	214.28	90.17	74.193	30.144	3.3196e-05	41.675	0.013012	0.026442	0.0075713	678.95	0.0002345	0.00031255	702.66	202.91	0.000246	0.00037299	238.95	100.15	84.861	33.173	0.00034778	46.077	65.526	-96.014	51.962	-145.403	-26.480	-33.463	-146.117	-140.929	2.179	-88.794	-142.535	-138.979	-137.724	-132.670	-7.758	-134.908	-8191	255	
32662.447	1	1	0	0	0.23848	0.053437	0.046502	0.07673	0.027373	0.14445	0.27024	0.16668	0.14714	0.055228	0.13363	0.069597	0.13205	0.041107	0.33557	0.21388	-3.9625	-4.6188	-4.8604	-4.4187	-4.8875	-4.5104	-4.4062	-4.9271	-4.3979	-4.4437	-4.8625	-4.2583	-4.8208	-4.6917	-4.2583	-4.9667	10.838	72.736	146.486	-36.961	31.412	139.095	117.118	54.660	-125.499	138.314	-121.587	-27.317	127.757	-115.921	-25.392	107.272	0.0012868	0.0010769	0.00010617	617.15	1.6164e-05	9.2078e-06	649.99	183.81	1.9885e-05	1.8989e-05	213.3	89.644	73.227	29.836	2.3756e-05	41.21	0.013791	0.028118	0.007984	669.2	0.00024156	0.00032024	695.15	199.52	0.00024388	0.0003973	236.57	99.76	84.072	32.963	0.00034481	45.742	55.021	129.513	-28.543	-145.360	-34.868	-2.527	-146.589	-140.897	84.443	-110.040	-142.425	-139.055	-137.883	-132.591	24.375	-134.699	-8191	255	
32662.545	1	1	0	0	0.16722	0.34444	0.015099	0.18556	0.1616	0.027423	0.25143	0.04865	0.093193	0.28338	0.18442	0.098626	0.14883	0.041054	0.21406	0.065303	-4.2625	-4.5687	-4.7875	-4.2854	-4.7708	-4.6729	-4.275	-4.9771	-4.4896	-4.6646	-4.8583	-4.4229	-4.7729	-4.8104	-4.225	-4.925	-3.853	-58.450	0.258	167.457	118.899	74.177	-26.536	88.620	178.009	-62.724	130.644	-17.809	-80.337	-130.497	163.005	-5.189	0.0011677	0.00054513	0.00015755	604.52	1.3655e-05	7.1996e-06	628.83	179.08	2.6607e-05	2.4513e-05	204.24	86.455	71.638	29.074	4.9333e-05	39.564	0.014913	0.03156	0.009167	660.01	0.00030327	0.00039133	688.43	197.92	0.00031691	0.00049443	236.88	100.27	85.986	33.19	0.00048254	45.613	57.672	-70.108	-19.584	-145.259	198.978	-78.665	-146.250	-140.782	-12.187	-68.520	-142.489	-139.045	-137.399	-132.202	17.144	-134.538	-8191	255	
32662.664	1	1	0	0	0.11966	0.058491	0.18971	0.12068	0.080499	0.20784	0.15698	0.14134	0.053607	0.16789	0.075321	0.15224	0.31552	0.17218	0.22027	0.052961	-4.1312	-4.3479	-4.8625	-4.3396	-4.6229	-4.7625	-4.2333	-4.7833	-4.4854	-4.2583	-4.9917	-4.4062	-4.8396	-4.7896	-4.2417	-4.9104	24.117	-146.179	74.479	171.934	121.417	146.092	200.373	-40.345	-19.046	-149.737	35.184	199.107	-131.349	133.203	80.435	30.350	0.0012395	7.556e-05	0.00021865	582.76	2.4315e-05	1.3908e-05	611.63	174.63	1.6675e-05	2.7821e-05	201.64	86.622	71.257	28.953	2.8907e-05	39.304	0.02011	0.042464	0.01203	644.29	0.00041156	0.00049295	680.85	197.12	0.0003706	0.00058937	238.86	101.4	87.984	33.616	0.00052175	46.195	39.592	-43.680	47.793	-145.377	167.997	-35.029	-146.420	-140.736	-46.539	-90.899	-142.327	-138.605	-137.318	-132.602	24.700	-134.633	-8191	255	
32662.736	1	1	0	0	0.26117	0.19457	0.14191	0.27191	0.036365	0.07502	0.1158	0.14807	0.1028	0.12569	0.10496	0.077058	0.15981	0.18253	0.10435	0.10006	-4.2438	-4.3125	-4.9021	-4.3979	-4.7562	-4.9104	-4.2479	-4.9146	-4.6792	-4.2688	-4.8625	-4.4563	-4.5667	-4.9458	-4.2937	-4.8958	-124.709	-114.305	-40.646	185.041	135.801	-90.351	-153.036	-138.592	81.593	77.974	162.979	-144.443	-133.183	163.682	-31.388	161.272	0.00098605	0.0010098	0.00019259	581.98	5.7111e-05	3.5786e-06	613.1	175.13	2.3706e-05	2.0893e-05	202.87	86.182	72.01	29.041	5.0326e-05	39.178	0.023298	0.050737	0.014513	656.86	0.00054308	0.00063108	700.36	205.24	0.00050406	0.00076357	252.06	106.57	94.027	34.947	0.00065531	48.405	42.810	-65.061	26.324	-145.714	137.619	-46.576	-146.282	-140.487	-74.855	-70.919	-142.253	-138.503	-137.263	-132.271	31.809	-134.446	-8191	255	
32662.832	1	1	0	0	0.035881	0.31922	0.10886	0.33038	0.14166	0.027746	0.40986	0.16043	0.046846	0.16495	0.11312	0.11124	0.21053	0.11307	0.14226	0.020988	-4.4938	-4.2292	-4.8812	-4.4646	-4.3375	-4.7833	-4.3271	-4.5417	-4.7667	-4.3271	-4.8458	-4.6229	-4.4729	-4.8583	-4.3146	-4.7042	-48.848	156.954	9.669	191.986	107.462	-129.079	72.433	-144.231	142.814	-68.726	44.316	198.814	166.340	-66.631	-122.206	83.820	0.0010458	0.00032167	0.000527	584.08	3.6882e-05	8.4778e-06	613.12	178.73	1.3177e-05	4.1807e-05	204.62	87.409	72.544	29.495	9.4435e-06	39.739	0.030284	0.063766	0.018088	678.68	0.00064577	0.00077055	721.09	213.39	0.00061308	0.00094819	263.89	111.83	99.785	36.754	0.00071064	51.165	57.049	180.951	-59.680	-145.393	163.089	2.035	-146.309	-140.824	96.216	-66.562	-142.068	-138.614	-137.202	-132.300	18.610	-134.438	-8191	255	
32662.930	1	1	0	0	0.18101	0.12465	0.24519	0.14858	0.10262	0.18108	0.18886	0.21906	0.20599	0.12438	0.15989	0.12893	0.1728	0.21651	0.12435	0.18486	-4.3208	-4.1771	-4.9292	-4.5479	-4.45	-4.8646	-4.3729	-4.6604	-4.7042	-4.1062	-4.7729	-4.5833	-4.3958	-4.95	-4.4479	-4.6521	113.450	-13.079	76.783	-93.877	-100.727	78.252	120.001	66.767	172.639	45.368	99.843	-126.321	169.970	113.692	-72.893	-89.289	0.0010598	0.0011313	0.00018852	588.38	6.8564e-05	1.0482e-05	617.16	179.39	2.4677e-05	4.5302e-05	207.52	89.519	74.045	30.679	7.7148e-07	41.314	0.035758	0.075249	0.020978	699.09	0.0007597	0.00086506	734.82	218.15	0.00064579	0.0009456	267.28	114.08	101.41	37.837	0.00070322	53.217	59.741	-131.476	-84.401	-145.677	151.800	-57.412	-146.309	-140.698	-43.010	-40.820	-142.178	-138.489	-136.942	-132.528	73.253	-133.969	-8191	255	
32663.049	1	1	0	0	0.082193	0.20515	0.064115	0.071857	0.21373	0.087195	0.1053	0.25511	0.25181	0.14222	0.13823	0.34434	0.21116	0.16207	0.031358	0.037861	-4.4792	-4.3167	-4.7812	-4.5979	-4.2896	-5.0417	-4.4854	-4.6042	-4.725	-4.2312	-4.8521	-4.6208	-4.3583	-4.8146	-4.5375	-4.6438	160.333	108.309	65.362	-0.574	117.377	-56.288	-147.548	-129.634	175.402	42.913	-35.371	167.383	158.657	197.402	-74.726	99.981	0.001611	0.0021724	0.00032664	587.68	3.1053e-05	6.7972e-06	619.44	181.75	1.3195e-05	3.4124e-05	209.32	90.226	74.231	31.164	1.6363e-05	41.779	0.035002	0.07259	0.020441	698.61	0.00071994	0.00085156	740.48	221.08	0.00067356	0.0009577	278.93	117.58	104.46	39.003	0.00076835	54.219	60.917	-77.662	-92.489	-145.489	183.530	192.018	-145.939	-140.449	-109.931	-5.938	-142.560	-138.474	-137.370	-132.120	24.059	-134.165	-8191	255	
32663.146	1	1	0	0	0.075698	0.28909	0.052269	0.053748	0.17138	0.15331	0.18915	0.25556	0.15658	0.06761	0.23784	0.1431	0.1957	0.28458	0.1369	0.15024	-4.5229	-4.3396	-4.6604	-4.6583	-4.4167	-4.8562	-4.4479	-4.4146	-4.8042	-4.45	-4.8542	-4.7896	-4.4146	-5.0104	-4.4938	-4.3458	201.171	111.845	-11.100	93.613	193.214	-106.574	47.475	56.484	125.660	179.366	122.349	77.296	190.102	-133.723	110.661	58.822	0.00088513	0.002995	0.00023032	612.31	5.5977e-05	7.7672e-06	647.87	184.21	1.6069e-05	1.2372e-06	214.67	91.34	75.731	31.496	5.5141e-06	42.279	0.03697	0.075181	0.020877	720.93	0.00072794	0.00082234	760.63	222.21	0.00063366	0.0008183	282.6	116.54	102.75	38.84	0.0007337	54.768	60.041	196.217	82.655	-145.259	175.934	183.119	-146.298	-140.631	23.050	-69.044	-142.375	-138.598	-137.233	-132.328	11.036	-133.923	-8191	255	
32663.242	1	1	0	0	0.25248	0.26815	0.16413	0.20523	0.11161	0.26838	0.07402	0.044608	0.069089	0.15567	0.29217	0.12918	0.29053	0.094972	0.27804	0.18249	-4.5958	-4.4938	-4.6188	-4.9375	-4.5208	-4.7479	-4.6646	-4.5229	-4.925	-4.4417	-4.5875	-5.0458	-4.3708	-4.7479	-4.5083	-4.5167	-12.686	106.681	161.356	130.861	-6.383	21.649	135.311	191.257	100.843	122.911	148.351	-124.107	87.100	-74.831	-3.008	200.557	0.0011928	0.0011659	0.00036415	625.17	5.4614e-05	1.4606e-05	658.83	185.4	1.2961e-05	2.2481e-05	214.79	89.404	75.003	31.072	1.768e-05	41.65	0.03691	0.077619	0.022447	744.78	0.00078125	0.00092834	790.24	228.7	0.00072026	0.00094162	293.02	117.74	105.3	39.127	0.00079171	54.374	47.242	21.150	-3.877	-145.288	199.819	-81.727	-146.165	-140.501	-58.200	-15.325	-142.582	-138.550	-136.869	-132.057	58.238	-133.984	-8191	255	
32663.361	1	1	0	0	0.02005	0.17551	0.1925	0.32284	0.094226	0.12469	0.071429	0.23106	0.1435	0.12962	0.24319	0.08646	0.19069	0.1588	0.21698	0.14166	-4.5167	-4.4812	-4.4875	-4.9313	-4.325	-4.7208	-4.7229	-4.4375	-4.8375	-4.5167	-4.625	-4.8	-4.3958	-4.7917	-4.6562	-4.2792	81.952	-85.002	108.990	180.400	144.860	86.586	162.003	158.380	58.548	-126.683	132.076	58.803	-140.936	148.333	113.074	153.820	0.0011825	0.00096996	0.00043223	622.12	2.8392e-05	4.026e-05	665.96	186.02	3.9271e-06	7.5354e-06	215.2	89.433	74.992	31.122	6.7206e-06	42.3	0.037807	0.077607	0.02204	738.24	0.00069783	0.00092334	784.11	224.57	0.00064585	0.00084019	282.15	114.47	101.8	38.287	0.0006941	53.379	30.123	158.124	3.857	-145.320	36.935	-132.988	-146.686	-140.618	197.920	-71.542	-142.562	-138.476	-137.486	-132.341	-89.256	-134.084	-8191	255	
32663.432	1	1	0	0	0.18553	0.15687	0.075133	0.12021	0.15266	0.20164	0.10883	0.17173	0.22263	0.2301	0.11914	0.097659	0.14447	0.095859	0.24524	0.16809	-4.3875	-4.4563	-4.4437	-4.8042	-4.1896	-4.6667	-4.9333	-4.4187	-4.8042	-4.575	-4.4521	-4.8583	-4.2604	-4.7417	-4.8396	-4.2438	198.969	38.554	5.437	145.094	192.330	69.682	97.214	90.905	-131.851	-144.704	-149.803	62.008	-6.966	5.780	146.492	-106.758	0.0011565	0.0018674	0.00018498	630.88	9.8392e-06	3.1413e-05	673.57	188.32	1.723e-05	7.6054e-06	216.18	90.847	76.415	31.518	1.2347e-05	42.532	0.033112	0.069006	0.019526	734.76	0.00057865	0.00089032	782.07	223.04	0.00058158	0.0007605	279.65	112.86	100.33	38.134	0.00062184	52.777	41.168	169.977	-15.264	-145.635	74.946	185.730	-146.760	-141.018	-61.519	-107.497	-142.280	-138.834	-137.300	-132.062	116.167	-134.201	-8191	255	
32663.527	1	1	0	0	0.097254	0.23555	0.081632	0.25286	0.22765	0.19603	0.16353	0.15973	0.068544	0.07558	0.25182	0.0052033	0.27212	0.35338	0.15204	0.086496	-4.4396	-4.5833	-4.3208	-4.8958	-4.4229	-4.5729	-4.8229	-4.2312	-4.7208	-4.5667	-4.4688	-4.8229	-4.5271	-4.5125	-4.9104	-4.3438	154.254	-67.830	200.289	113.115	47.871	-59.463	108.095	142.675	-33.773	-20.581	-37.172	-82.727	-52.804	146.367	145.502	-128.850	0.001334	0.00063831	0.00012577	640.17	1.6906e-06	3.2069e-05	677	189.16	2.3218e-05	7.652e-06	218.69	92.284	76.492	31.875	5.9807e-06	42.674	0.030109	0.062998	0.017814	732.81	0.00053702	0.00086174	776.64	222.87	0.00056624	0.00074603	278.02	113.62	100.97	38.515	0.00064688	52.44	30.474	127.090	36.783	-145.373	26.902	190.878	-146.441	-140.592	-146.228	8.842	-142.546	-138.906	-137.027	-132.116	171.047	-134.040	-8191	255	
32663.625	1	1	0	0	0.18534	0.032635	0.01884	0.14504	0.11773	0.16629	0.12246	0.046906	0.11225	0.28709	0.0090264	0.13028	0.13996	0.053441	0.14468	0.19253	-4.4583	-4.6583	-4.25	-4.8708	-4.4271	-4.45	-4.9729	-4.3938	-4.7167	-4.5708	-4.3917	-4.8729	-4.3792	-4.5792	-4.7896	-4.3417	-32.714	-80.346	14.801	-53.995	188.090	13.964	150.311	-120.512	165.920	-101.578	35.998	-91.827	155.934	-158.460	-10.585	144.816	0.001763	0.0007994	8.8014e-05	620.74	2.0679e-05	2.5048e-05	647.62	184.8	2.1157e-05	1.2617e-05	212.57	90.462	76.451	31.602	6.6786e-06	41.64	0.034445	0.068025	0.019203	719.97	0.00059152	0.0009189	758.54	222.57	0.00063584	0.00084438	282.42	115.82	103.79	39.071	0.00073076	52.231	24.606	-27.762	-64.613	-145.500	49.974	-125.835	-146.380	-140.635	-89.476	-100.303	-141.814	-138.796	-137.334	-132.432	-138.305	-134.613	-8191	255	
32663.744	1	1	0	0	0.13263	0.20486	0.094142	0.18127	0.12424	0.20255	0.13774	0.21163	0.10476	0.1393	0.075066	0.35265	0.21044	0.12023	0.21898	0.067095	-4.3313	-4.7438	-4.3104	-4.9563	-4.5896	-4.3729	-4.9708	-4.525	-4.65	-4.8688	-4.3167	-4.9688	-4.6104	-4.3792	-5.0188	-4.3229	108.049	-74.781	125.262	-131.146	157.572	177.618	-140.105	-139.433	64.903	165.823	-97.784	160.461	170.147	-115.715	39.008	-150.483	6.4563e-05	0.001022	0.00016403	591.66	2.0714e-05	4.1935e-05	615.62	180.53	2.4582e-05	7.0114e-06	208.15	90.779	75.459	32.217	5.3874e-06	41.926	0.041392	0.076472	0.021507	704.77	0.00066349	0.0010489	735.11	221.21	0.00069285	0.00091065	280.19	117.44	105.63	40.033	0.00076614	52.887	-140.178	187.969	-39.925	-145.514	32.009	-116.973	-146.750	-140.966	-126.155	-87.558	-142.041	-138.636	-137.331	-132.643	21.845	-134.575	-8191	255	
32663.840	1	1	0	0	0.10723	0.12015	0.19245	0.21059	0.1083	0.12391	0.087482	0.26405	0.22834	0.06365	0.05487	0.18178	0.2417	0.11477	0.15839	0.2206	-4.2958	-4.7208	-4.1771	-4.7021	-4.6062	-4.2688	-4.9375	-4.4646	-4.5375	-4.9229	-4.4271	-4.7479	-4.6583	-4.4104	-4.875	-4.4938	104.304	-1.923	130.720	111.860	34.122	-120.031	-148.368	188.563	-139.986	110.940	8.738	-145.548	-111.099	196.001	178.723	-107.377	0.00024581	0.002208	0.00034546	565.1	5.56e-06	2.3179e-05	587.6	176.99	1.4591e-05	1.2459e-05	204.12	91.058	75.986	32.318	4.2881e-06	41.634	0.04497	0.080129	0.02253	684.15	0.00070594	0.0010669	714.42	221.27	0.00074292	0.00096301	277.08	122.42	108.02	41.004	0.00084804	54.114	-102.436	-123.851	-58.728	-145.213	-148.295	-129.405	-146.406	-140.961	-156.407	30.894	-141.812	-138.837	-137.145	-132.378	-69.389	-134.742	-8191	255	
32663.936	1	1	0	0	0.052158	0.077349	0.084439	0.11107	0.11802	0.056171	0.30204	0.17359	0.15494	0.12139	0.1298	0.056177	0.13186	0.12941	0.11119	0.24943	-4.275	-4.8146	-4.3	-4.8854	-4.775	-4.3542	-4.8854	-4.5083	-4.5646	-4.9146	-4.3604	-4.7958	-4.6687	-4.4	-4.8271	-4.6	31.397	51.106	81.361	180.457	68.927	-69.906	104.882	147.218	134.678	126.996	172.311	145.961	52.727	12.782	-2.113	73.383	0.00088457	0.0013365	0.00019018	543.41	1.6973e-05	5.2894e-05	558.31	172.17	1.7506e-05	1.028e-05	195.24	88.445	74.575	31.662	1.8541e-05	40.446	0.048828	0.089968	0.02553	679.35	0.00079724	0.0012654	705.59	222.56	0.00085066	0.0011156	277.24	126.63	111.75	41.63	0.0010064	54.626	-35.568	-55.505	-154.651	-145.082	-15.647	-145.132	-146.585	-140.703	-7.755	172.537	-142.308	-138.553	-137.181	-132.697	85.203	-135.217	-8191	255	
32664.031	1	1	0	0	0.12747	0.23782	0.08016	0.25236	0.10999	0.040947	0.10241	0.16633	0.044627	0.06115	0.22189	0.12886	0.24606	0.2565	0.043027	0.1164	-4.0104	-4.9021	-4.2708	-4.8187	-4.7917	-4.2375	-4.9729	-4.5188	-4.4229	-4.8708	-4.5208	-4.7125	-4.8688	-4.3479	-4.7354	-4.7271	-87.440	-106.655	146.456	-45.963	-65.250	55.360	112.218	51.070	134.007	-90.721	-153.737	-55.569	-13.307	132.684	-120.333	152.182	0.00087456	0.0018714	0.000224	516.91	1.8906e-05	2.7651e-05	530.44	166.4	4.6173e-05	6.989e-06	188.28	86.525	71.703	30.997	1.1609e-05	39.181	0.059344	0.10531	0.030073	678.39	0.00092623	0.0013853	703.49	222.55	0.000955	0.0012385	278.18	128.95	112.07	41.431	0.0010569	53.991	-80.460	-122.241	49.535	-145.725	118.549	165.798	-146.014	-140.872	-6.670	92.416	-142.154	-138.797	-137.641	-132.638	108.990	-134.709	-8191	255	
32664.129	1	1	0	0	0.039093	0.15149	0.14363	0.076861	0.077751	0.039513	0.18009	0.080577	0.096267	0.11476	0.20475	0.17313	0.10764	0.1977	0.02445	0.058013	-4.0167	-4.7125	-4.4708	-4.4333	-4.8562	-4.4313	-4.7958	-4.8271	-4.3104	-5.0521	-4.5146	-4.5604	-4.9896	-4.3958	-4.6708	-4.8042	-48.154	22.019	8.016	56.417	-27.347	69.537	66.593	173.267	137.942	40.668	80.165	152.983	51.409	154.994	-20.624	69.889	0.0010736	0.00069356	0.00034816	499.74	1.398e-05	1.3574e-05	522.93	162.32	2.3087e-05	1.1009e-05	186.48	85.415	71.233	30.838	1.1183e-05	38.457	0.058226	0.10594	0.030257	660.89	0.00091483	0.0012984	706.61	219.78	0.00095238	0.001252	278.07	127.51	112.32	41.46	0.0011136	53.943	-57.524	146.669	34.503	-145.800	24.162	31.836	-146.976	-140.493	29.089	14.044	-142.226	-138.426	-137.499	-132.509	27.545	-134.788	-8191	255	
32664.225	1	1	0	0	0.17916	0.1754	0.23226	0.16035	0.080881	0.093962	0.25797	0.17368	0.14936	0.13817	0.28027	0.17804	0.2082	0.19659	0.14265	0.22289	-4.0417	-4.8938	-4.4812	-4.6438	-4.875	-4.4542	-4.6833	-4.7854	-4.2667	-4.9104	-4.525	-4.4667	-4.8792	-4.3646	-4.6396	-4.6458	147.823	172.985	-156.145	191.180	-143.145	-133.160	-93.768	-155.885	190.363	-108.408	121.474	95.651	75.947	171.580	-100.397	174.479	0.0022515	0.00064956	0.00030993	486.21	1.6e-05	1.6337e-06	511.81	159.26	2.5098e-05	1.2804e-05	181.32	82.628	69.915	29.73	1.6643e-05	37.684	0.063878	0.11401	0.032666	659.89	0.00098018	0.0013237	716.1	219.43	0.0010086	0.001329	277.63	128.78	111.84	41.078	0.0011406	53.224	-66.426	49.089	96.144	-145.727	-102.674	199.218	-146.979	-140.772	-49.560	4.923	-142.220	-138.041	-137.218	-132.818	52.407	-134.653	-8191	255	
32664.346	1	1	0	0	0.16494	0.092498	0.14159	0.22264	0.08686	0.039903	0.041079	0.050169	0.097191	0.098344	0.010848	0.22359	0.18413	0.2	0.13291	0.11829	-3.975	-4.8854	-4.4437	-4.3333	-4.8187	-4.3042	-4.7729	-4.7854	-4.3938	-4.8292	-4.7021	-4.4875	-4.7833	-4.3979	-4.5062	-4.9604	104.766	4.529	105.189	112.076	-69.014	-125.838	54.577	92.309	10.993	189.238	-125.137	53.988	146.471	179.694	24.580	150.172	0.00038815	0.0024544	7.7264e-05	481.33	1.9156e-05	1.7849e-05	505.65	156.39	2.8234e-05	1.5981e-05	179.09	82.337	69.126	29.901	1.9656e-05	37.512	0.061343	0.11525	0.032534	649.55	0.00096435	0.0013026	713.73	215.3	0.00096479	0.0012746	270.66	123.37	109.21	40.483	0.0010614	51.971	-134.702	-98.828	32.918	-145.686	64.480	-111.781	-146.787	-140.878	-66.805	17.240	-142.165	-138.279	-137.284	-132.871	49.617	-135.001	-8191	255	
32664.441	1	1	0	0	0.16445	0.1105	0.079566	0.14444	0.048692	0.13952	0.14657	0.15928	0.046904	0.14094	0.073399	0.037803	0.17494	0.37039	0.09566	0.16799	-3.9813	-4.7542	-4.6562	-4.3729	-4.9021	-4.3625	-4.4625	-4.9229	-4.3208	-4.75	-4.7562	-4.2	-4.7625	-4.5229	-4.4542	-4.9896	75.571	-106.232	-86.442	-100.871	0.259	102.989	-106.764	91.952	142.614	-139.502	-45.700	-62.591	159.994	173.950	191.422	3.840	0.0011132	0.0044418	0.00058852	484.8	1.9582e-05	2.4066e-05	508.91	158.96	2.4483e-05	6.4119e-06	180.8	83.19	69.436	30.056	6.5327e-06	37.668	0.053323	0.11928	0.030061	641.25	0.00089998	0.0012207	696.35	212.42	0.00091011	0.0012017	267.07	124.03	108.04	40.23	0.0010161	51.63	-141.462	111.015	-16.096	-145.362	-95.443	-105.370	-146.778	-140.659	-27.416	46.175	-142.171	-138.126	-136.891	-132.361	-137.994	-134.941	-8191	255	
32664.537	1	1	0	0	0.027959	0.13749	0.0903	0.14923	0.14693	0.24628	0.1998	0.28259	0.24945	0.097962	0.073718	0.16277	0.13514	0.10388	0.17076	0.14531	-3.9646	-4.6667	-4.7667	-4.3875	-4.8146	-4.6333	-4.4563	-4.9604	-4.4021	-4.5771	-4.7771	-4.3979	-4.7979	-4.5917	-4.2292	-4.9479	-70.670	-78.562	176.338	110.425	-77.275	28.877	162.812	51.181	-107.209	49.112	-5.951	77.764	45.038	100.516	-79.490	31.997	0.00082182	0.0047677	0.00023584	495.94	1.4099e-05	1.6099e-05	524.14	161.09	3.3147e-05	4.906e-06	183.63	83.237	70.497	30.631	1.0975e-05	38.767	0.049488	0.12104	0.029272	647.74	0.00089223	0.0011998	714.05	213.78	0.00090327	0.0011811	266.56	121.32	108.56	40.509	0.00098017	52.098	69.436	86.560	-60.992	-145.769	58.662	-56.491	-146.829	-140.840	-21.676	10.413	-142.446	-137.932	-137.655	-132.979	166.567	-134.971	-8191	255	
32664.609	1	1	0	0	0.19685	0.094238	0.10829	0.043032	0.08496	0.08063	0.16281	0.15388	0.19241	0.16764	0.17605	0.16253	0.13078	0.24532	0.27356	0.025494	-3.8542	-4.4833	-4.7812	-4.3625	-4.6188	-4.5083	-4.3583	-4.8333	-4.4083	-4.6188	-4.8979	-4.3354	-4.7063	-4.6917	-4.3688	-4.9167	-44.398	-75.295	200.949	79.839	-116.820	-53.166	-128.650	122.753	70.522	-13.827	-131.169	-131.922	-134.769	172.424	122.868	-142.539	0.001183	0.0070761	9.1695e-05	512.3	2.5897e-05	1.0267e-05	540.89	165.23	1.7317e-05	1.0003e-05	188.59	85.786	73.01	32.068	4.3371e-06	40.278	0.047662	0.12046	0.027281	655.61	0.0008357	0.0011055	709.4	213.11	0.00081767	0.0010538	261.53	116.73	109.86	40.582	0.00082822	52.027	52.813	86.262	63.149	-145.655	52.643	-12.358	-146.720	-140.533	-28.554	154.124	-142.077	-138.421	-137.164	-132.612	-81.596	-134.536	-8191	255	
32664.729	1	1	0	0	0.050174	0.15919	0.15522	0.016886	0.13803	0.27755	0.18635	0.023347	0.095421	0.2795	0.28469	0.14563	0.13512	0.08505	0.055582	0.2851	-3.9896	-4.3729	-4.7208	-4.4604	-4.725	-4.8583	-4.225	-4.8896	-4.2729	-4.5	-4.7812	-4.3187	-4.6771	-4.7896	-4.275	-4.8562	81.274	-144.482	-38.274	86.619	77.434	182.981	43.179	7.247	18.408	87.344	28.509	-36.610	-78.448	13.833	-105.673	156.303	0.0015228	0.0032134	0.00022868	538.5	2.3928e-05	1.4744e-05	572.82	171.94	3.358e-05	1.214e-05	196.44	89.637	75.963	33.426	5.1264e-06	42.913	0.040581	0.096711	0.023136	661.36	0.00071507	0.00093621	723.42	213.45	0.00069967	0.00090016	259.95	115.41	108.63	41.03	0.00071435	53.136	57.272	101.404	-126.150	-145.448	108.073	47.284	-146.659	-140.574	8.999	19.831	-141.942	-138.622	-136.668	-132.452	-74.527	-134.532	-8191	255	
32664.824	1	1	0	0	0.11613	0.18923	0.12078	0.24623	0.22799	0.09989	0.19443	0.1813	0.24092	0.30901	0.03644	0.18852	0.13965	0.29472	0.095243	0.19687	-4.2292	-4.4896	-4.8438	-4.2729	-4.6292	-4.8625	-4.1646	-4.7396	-4.5458	-4.2833	-4.8292	-4.55	-4.6229	-4.7646	-4.2771	-4.8083	132.287	-12.330	147.342	116.267	160.017	78.738	165.113	-155.406	190.968	-26.920	45.787	73.552	142.332	124.665	-58.934	-70.758	0.0011475	0.0030635	0.00015488	573.7	1.0179e-05	1.1303e-05	598.32	180.1	2.8235e-05	1.4427e-05	207.66	94.47	81.015	36.411	9.5734e-06	46.599	0.034837	0.087268	0.019819	675.22	0.00060029	0.00078124	715.59	215.2	0.00056729	0.00071651	258.27	115.63	107.17	42.182	0.00053843	54.71	71.200	96.808	0.904	-145.477	68.505	-60.125	-146.323	-140.569	34.405	-132.586	-141.938	-138.330	-136.264	-132.304	75.079	-134.582	-8191	255	
32664.920	1	1	0	0	0.12325	0.099866	0.020419	0.17503	0.12342	0.064943	0.17078	0.22144	0.060249	0.11029	0.32767	0.050025	0.32064	0.092317	0.17224	0.23558	-4.2146	-4.2125	-4.8333	-4.6146	-4.4792	-4.8458	-4.2875	-4.7479	-4.6875	-4.3417	-4.7812	-4.65	-4.4771	-4.75	-4.2542	-4.6333	109.126	194.024	-156.395	-117.640	44.724	-19.760	75.159	-132.479	-38.545	105.341	-142.218	135.538	-72.342	-140.483	184.539	82.313	0.0010117	0.0027624	4.5266e-05	608.78	5.1458e-06	3.1014e-06	635.32	190.98	2.0335e-05	1.0932e-05	219.28	101.51	85.136	39.229	9.2399e-06	50.486	0.025667	0.061014	0.014354	682.5	0.00042625	0.0005535	711.26	220.4	0.00040675	0.00051985	258.45	117.07	104.64	43.796	0.00042949	57.126	56.562	107.158	140.351	-145.527	-0.248	160.321	-146.213	-140.743	-7.454	-45.747	-141.913	-138.565	-136.762	-132.124	3.808	-134.663	-8191	255	
32665.018	1	1	0	0	0.040558	0.21005	0.069893	0.18224	0.15777	0.10049	0.19637	0.12835	0.026473	0.17495	0.044629	0.16244	0.12774	0.053658	0.12938	0.15016	-4.2646	-4.1896	-4.7854	-4.5938	-4.4354	-4.7417	-4.3708	-4.7375	-4.7458	-4.2104	-4.7729	-4.4812	-4.3458	-5.0563	-4.4458	-4.6438	88.617	-139.133	-144.980	158.684	-91.343	60.988	172.852	154.400	1.655	172.111	-98.591	198.661	19.103	164.568	-87.535	97.713	0.0010463	0.0034274	0.00011081	639.25	7.039e-06	4.7238e-06	659.71	197.78	1.1387e-05	2.738e-06	225.05	103.86	86.856	40.676	9.4045e-06	53.162	0.02114	0.054234	0.012535	705.19	0.00037747	0.00049702	732.05	224.23	0.00036307	0.00046114	259.69	117.14	104.54	44.757	0.00034333	58.527	59.178	108.638	-128.774	-145.440	-72.667	-67.528	-146.280	-140.277	-96.623	31.542	-141.803	-138.315	-136.546	-131.925	1.687	-134.630	-8191	255	
32665.137	1	1	0	0	0.10607	0.073836	0.16658	0.20518	0.081528	0.045551	0.11622	0.20573	0.083063	0.22767	0.11376	0.13976	0.12259	0.094896	0.14112	0.16414	-4.3979	-4.4042	-4.9917	-4.6021	-4.3688	-4.9292	-4.3292	-4.6188	-4.8479	-4.2729	-4.6771	-4.7208	-4.4875	-5.0604	-4.3292	-4.5833	16.937	168.753	157.712	-137.267	158.201	19.914	139.213	118.312	-104.290	-138.200	37.931	145.534	-63.853	189.312	-96.258	112.249	0.0015563	0.00055478	0.0007532	656.6	4.7161e-06	1.4182e-05	679.31	203.84	2.1328e-05	7.3092e-06	230.7	105.06	87.947	40.76	1.1187e-05	52.649	0.01605	0.037556	0.0094308	704.52	0.00027188	0.00036601	728.15	224.92	0.00028051	0.00037114	259.28	116.62	102.99	44.605	0.00033051	58.015	59.449	-111.709	150.608	-145.696	-28.304	-12.044	-146.233	-140.331	-72.172	-20.066	-142.352	-138.475	-136.631	-132.184	62.291	-134.429	-8191	255	
32665.232	1	1	0	0	0.23858	0.15917	0.15828	0.34746	0.1208	0.28692	0.24037	0.16974	0.12091	0.15122	0.13365	0.097288	0.17137	0.25804	0.17214	0.048818	-4.5604	-4.3812	-4.6542	-4.7104	-4.125	-4.8125	-4.6646	-4.4729	-4.7562	-4.3417	-4.625	-4.7646	-4.3667	-4.7604	-4.4958	-4.4625	-105.905	137.094	16.794	-145.202	36.515	184.031	148.081	160.379	78.577	185.175	66.081	15.305	112.013	-155.324	30.776	121.646	0.0013557	0.0012477	0.0010153	668.59	4.5963e-06	6.1301e-06	684.57	202.89	1.1512e-05	2.4158e-06	231.31	105.47	88.349	41.342	7.7712e-06	52.949	0.01595	0.03425	0.01118	714.62	0.00027797	0.00037895	737.87	223.64	0.00028781	0.00038305	260.1	117.19	104.31	45.109	0.00033225	58.333	51.381	52.502	162.813	-145.329	-101.182	61.761	-146.009	-140.287	-93.415	69.983	-142.061	-138.313	-136.521	-132.220	-82.569	-134.436	-8191	255	
32665.305	1	1	0	0	0.088687	0.14113	0.1579	0.35562	0.13681	0.17308	0.23739	0.20167	0.17941	0.11792	0.18842	0.18224	0.2524	0.10106	0.044262	0.1083	-4.4958	-4.3146	-4.7188	-4.8875	-4.1271	-4.8854	-4.6458	-4.3333	-4.8313	-4.1396	-4.525	-4.8063	-4.2312	-4.9187	-4.5542	-4.4167	28.167	172.359	-96.052	-152.170	-142.529	115.710	183.235	178.031	111.830	168.048	-80.033	174.447	186.487	88.190	127.009	59.035	0.0013731	0.00058666	0.00053363	666.18	1.0206e-05	1.6529e-05	691.28	201.16	1.0582e-05	7.875e-06	227.09	103.2	86.7	40.45	1.315e-05	51.755	0.016352	0.034501	0.011849	716.49	0.00029785	0.00040873	747.35	224.69	0.00031498	0.00042119	259.22	116.05	102.21	44.559	0.00034739	57.385	49.819	-139.999	134.653	-145.409	-36.205	-29.911	-146.310	-140.336	-74.239	-105.729	-141.863	-138.656	-136.455	-132.235	46.226	-134.657	-8191	255	
32665.426	1	1	0	0	0.069635	0.22843	0.098655	0.064941	0.11536	0.095492	0.098478	0.18226	0.088484	0.031236	0.16711	0.12628	0.22283	0.16552	0.29349	0.24867	-4.4729	-4.4104	-4.4271	-4.8562	-4.2312	-4.7688	-4.6292	-4.3521	-4.7917	-4.3625	-4.6021	-4.7958	-4.3083	-4.8562	-4.6792	-4.3562	-115.456	73.385	-50.117	152.311	136.820	21.131	-6.626	39.463	162.446	150.820	-64.752	3.369	160.200	-102.811	-147.690	190.443	0.0015795	0.00032977	0.00060592	667.54	1.6394e-05	4.7089e-06	690.47	201.04	9.4928e-06	6.1465e-06	228.13	103.53	86.819	40.119	3.6635e-06	51.32	0.016867	0.034891	0.012253	715.88	0.00028828	0.0003907	742.06	221.48	0.0002918	0.00038616	256.25	114.73	99.592	44.592	0.00032097	56.501	42.486	-116.105	150.045	-145.182	-14.194	84.876	-146.378	-140.579	-156.233	183.793	-141.726	-138.439	-136.521	-132.400	-68.927	-134.569	-8191	255	
32665.521	1	1	0	0	0.075245	0.25499	0.23824	0.084907	0.1297	0.17769	0.10296	0.20025	0.11083	0.040198	0.10188	0.27624	0.095255	0.10043	0.07539	0.1856	-4.4167	-4.5521	-4.5396	-4.9875	-4.2937	-4.8333	-4.8854	-4.3313	-4.9208	-4.4062	-4.4604	-4.925	-4.4646	-4.7729	-4.6667	-4.3333	-100.666	-44.568	-124.171	91.549	136.832	20.751	-23.422	178.726	25.311	-35.277	-89.489	177.354	-33.831	-91.052	83.154	133.289	0.0013737	0.00089282	0.00044078	664.07	5.4694e-06	1.1161e-05	685.75	200.85	5.5206e-06	7.8215e-06	229.02	103.12	86.84	39.865	4.7709e-06	50.986	0.016169	0.033226	0.011148	710.6	0.00028062	0.00037492	735.7	221.96	0.0002825	0.00036559	255.66	114.75	99.241	44.17	0.00031191	56.064	61.864	-150.742	161.968	-145.308	-72.581	196.802	-146.548	-140.311	15.370	-64.866	-142.365	-138.875	-136.880	-132.179	7.943	-134.779	-8191	255	
32665.617	1	1	0	0	0.17906	0.049999	0.13376	0.29237	0.047344	0.20773	0.20543	0.10696	0.053661	0.25418	0.088057	0.053134	0.25309	0.15793	0.1685	0.21646	-4.5312	-4.5437	-4.4187	-4.925	-4.3979	-4.6396	-4.8854	-4.3063	-4.8021	-4.5583	-4.3313	-5.0354	-4.4313	-4.7188	-4.7875	-4.4167	-18.434	81.091	66.648	-156.641	16.788	100.609	74.041	-144.700	185.228	97.729	148.146	-135.891	197.625	96.419	38.958	102.883	0.0014429	0.0012483	0.00065232	656.32	1.152e-05	3.996e-06	675.77	201.93	3.1501e-06	1.4038e-05	231.27	104.35	87.572	39.486	6.0839e-06	50.826	0.015735	0.03181	0.011203	703.3	0.00027033	0.00035778	725.18	220.02	0.00028407	0.00035576	256.55	115	99.305	44.007	0.00030512	55.668	50.892	-23.321	188.764	-145.539	-73.977	-144.538	-146.407	-140.307	-95.197	30.770	-142.674	-138.605	-136.965	-131.911	112.326	-134.736	-8191	255	
32665.738	1	1	0	0	0.080957	0.14201	0.13273	0.24916	0.050759	0.068761	0.088308	0.15551	0.1874	0.21457	0.21799	0.088172	0.22959	0.087533	0.094831	0.50524	-4.3292	-4.7875	-4.2958	-4.8438	-4.4396	-4.6542	-4.9167	-4.4292	-4.8125	-4.7021	-4.2958	-4.9437	-4.6125	-4.4958	-4.7854	-4.2792	-106.216	79.261	151.344	90.159	-102.860	68.372	124.967	121.988	188.394	162.364	152.215	-140.943	52.282	-151.589	73.424	75.996	0.0017011	0.00021414	0.00051747	645.02	1.3145e-05	2.4695e-06	663.89	199.64	5.1892e-05	1.3323e-05	226.78	103.45	86.434	38.894	1.2587e-05	49.543	0.015747	0.03165	0.010765	691.36	0.00027904	0.00036744	713.32	216.41	0.00034703	0.00036661	253.82	114.56	98.895	43.245	0.00032479	54.722	43.327	63.870	132.984	-145.324	10.949	18.662	-146.266	-140.256	-68.891	23.124	-142.132	-138.347	-137.174	-132.012	22.359	-134.799	-8191	255	
32665.832	1	1	0	0	0.16549	0.11313	0.063718	0.22683	0.31624	0.055206	0.13582	0.11263	0.034947	0.16081	0.13343	0.14296	0.056216	0.032702	0.065041	0.067128	-4.3646	-4.5708	-4.3458	-4.775	-4.4604	-4.4396	-4.9437	-4.3958	-4.5042	-4.8021	-4.3125	-4.8583	-4.6375	-4.5042	-5.0062	-4.4708	-55.910	-139.007	108.561	141.305	-146.461	-94.233	85.945	144.894	-129.197	-117.458	172.019	31.344	21.650	-155.478	-143.176	45.295	0.0012476	0.00052995	0.00069796	633.1	2.1582e-05	1.098e-05	648.48	194.44	3.1882e-05	1.0759e-05	220.17	100.69	84.024	37.725	1.4236e-05	48.33	0.016684	0.033936	0.012421	683.15	0.00030484	0.00040447	703.88	213.69	0.00038317	0.00040657	251.1	113.43	97.727	42.694	0.0003484	53.818	64.340	115.144	182.336	-145.402	7.456	-126.435	-146.493	-140.478	14.425	-101.512	-142.155	-138.516	-136.987	-132.273	-13.023	-134.709	-8191	255	
32665.904	1	1	0	0	0.17497	0.23217	0.067846	0.17425	0.09789	0.14294	0.34227	0.19133	0.33102	0.23629	0.057979	0.17737	0.28769	0.30712	0.056343	0.17706	-4.3083	-4.725	-4.1979	-4.875	-4.5125	-4.3771	-5.0437	-4.4479	-4.5667	-4.7708	-4.4083	-4.7937	-4.525	-4.2854	-4.9229	-4.5208	134.672	-153.448	-133.697	107.328	194.740	8.319	148.444	78.066	-150.430	-88.277	-88.264	121.787	-143.694	170.180	-113.780	134.988	0.001311	0.00041953	5.9071e-05	618.08	9.3379e-06	1.4339e-05	640.55	192.01	6.2159e-05	1.2133e-05	220.08	100.59	84.091	37.742	1.3834e-05	47.893	0.017222	0.034841	0.011227	673.86	0.00029975	0.00039886	693.91	211.06	0.000388	0.0003903	248.88	112.27	96.773	42.225	0.00033636	53.289	59.196	-41.627	54.987	-145.790	-81.291	-100.747	-146.331	-140.399	11.587	-93.382	-142.186	-138.559	-137.402	-132.165	-8.380	-134.651	-8191	255	
32666.025	1	1	0	0	0.067022	0.12201	0.15312	0.057714	0.14818	0.23086	0.28129	0.17184	0.18174	0.030446	0.29764	0.15552	0.081337	0.061738	0.11728	0.21471	-4.2812	-4.875	-4.3	-4.8396	-4.6687	-4.3958	-5.0646	-4.5	-4.3667	-4.8938	-4.3812	-4.65	-4.6708	-4.2771	-5	-4.55	-116.522	122.543	90.595	164.450	18.122	24.477	-134.362	143.818	-96.041	186.867	-107.346	15.732	85.445	6.979	-145.214	119.255	0.0012202	0.00062708	0.00029673	611.74	6.3761e-06	9.4324e-06	630.24	189.99	4.1049e-05	4.7158e-06	216.22	99.462	82.291	37.409	1.4011e-05	47.478	0.016552	0.033982	0.0098388	673.4	0.00029506	0.00040033	687.19	209.32	0.00037556	0.00040433	247.74	111.95	96.388	42.432	0.00036298	53.193	46.828	-114.615	-55.567	-145.483	113.231	-51.073	-146.479	-140.336	2.827	-36.857	-142.165	-138.588	-137.324	-132.183	134.455	-134.595	-8191	255	
32666.121	1	1	0	0	0.11068	0.14681	0.14289	0.3195	0.16795	0.056993	0.060066	0.18244	0.14571	0.13468	0.092426	0.031363	0.10128	0.07751	0.11106	0.25883	-4.1854	-4.7958	-4.2833	-4.7667	-4.7271	-4.2833	-4.8104	-4.4708	-4.4563	-4.8792	-4.4646	-4.7	-4.7771	-4.2	-4.8333	-4.5292	-65.214	43.420	40.170	-157.156	77.279	-99.619	-97.974	188.352	62.795	60.840	-12.980	-156.159	49.168	129.426	165.824	182.795	0.0015475	0.0005527	0.00028679	606.89	1.2834e-05	5.813e-06	632.72	190.01	4.389e-05	1.1368e-05	217.13	98.615	82.406	37.48	2.1622e-05	48.047	0.017728	0.036466	0.010447	673.52	0.00031174	0.00042833	691.13	209.68	0.00041549	0.00043101	249.19	111.58	96.54	42.013	0.00038888	53.607	51.088	83.132	146.149	-145.487	-45.894	162.797	-146.560	-140.548	-17.722	-68.019	-142.176	-138.885	-137.071	-131.765	177.951	-134.564	-8191	255	
32666.217	1	1	0	0	0.14732	0.27417	0.17234	0.23888	0.1478	0.074333	0.11411	0.14789	0.08013	0.04268	0.10256	0.20219	0.057199	0.14543	0.018544	0.11791	-3.8854	-4.6979	-4.3771	-4.6708	-4.6604	-4.2771	-4.7625	-4.6854	-4.3187	-4.7562	-4.425	-4.6104	-4.8063	-4.2646	-4.7479	-4.725	172.982	-71.694	-40.597	-152.026	181.736	-118.659	172.206	57.231	100.600	85.909	128.946	-82.209	-146.281	162.574	48.491	152.334	0.0010954	0.00048401	0.00038016	622.78	5.1031e-06	1.2535e-06	649.64	193.16	4.8679e-05	5.1792e-06	222.35	101.2	84.881	38.427	4.7819e-05	49.699	0.017493	0.0366	0.010294	688.05	0.00030463	0.00041717	704.57	212.61	0.00039098	0.00043169	254.16	114.37	98.918	42.669	0.00045609	55.3	54.500	-69.403	-50.203	-145.401	-145.911	79.875	-146.626	-140.474	22.257	-53.256	-142.309	-138.513	-137.046	-132.048	182.921	-134.297	-8191	255	
32666.312	1	1	0	0	0.050799	0.090832	0.11586	0.12701	0.15351	0.046628	0.1108	0.064239	0.098193	0.27197	0.06814	0.13701	0.24449	0.2047	0.15027	0.1447	-3.9229	-4.8458	-4.4917	-4.5875	-4.9	-4.3729	-4.8333	-4.6917	-4.2354	-4.6854	-4.5229	-4.4833	-4.9729	-4.4333	-4.6	-4.8146	5.751	193.609	46.046	-129.026	25.392	-85.724	111.051	-25.943	196.267	-72.673	-62.216	172.510	142.606	-154.252	-70.315	141.811	0.0013459	0.0013003	0.00017162	644.72	1.2636e-05	7.4926e-06	678.02	199.08	4.8173e-05	9.2446e-06	229.52	104.69	87.401	40.096	2.4998e-05	51.75	0.018084	0.03787	0.010722	713.46	0.00032461	0.00044051	737.28	219.67	0.0004296	0.0004411	261.95	117.85	102.04	44.376	0.00045813	57.79	53.385	-3.028	108.711	-145.662	56.338	-38.064	-146.396	-140.725	29.507	-52.662	-142.069	-138.336	-136.959	-132.164	108.138	-134.471	-8191	255	
32666.434	1	1	0	0	0.2892	0.15466	0.1318	0.13714	0.13755	0.21122	0.17666	0.27275	0.14425	0.2193	0.041365	0.21568	0.066525	0.074718	0.25693	0.29001	-4.0125	-4.7354	-4.4792	-4.4437	-4.7396	-4.2229	-4.7479	-4.8187	-4.3083	-4.8729	-4.575	-4.4646	-4.9396	-4.4146	-4.7063	-4.8708	-117.950	67.566	-86.370	79.965	-66.537	135.940	94.062	151.339	-143.097	-124.203	157.934	129.485	167.345	-132.599	-137.244	159.818	0.0015107	0.0010513	2.8344e-05	669.99	1.2753e-05	4.2157e-06	698.86	204.48	5.0809e-05	1.2365e-05	234.71	105.71	88.268	40.411	3.861e-05	52.11	0.019261	0.040206	0.01127	744.98	0.00035357	0.0004854	763.99	227.26	0.00042654	0.00053923	271.58	121.28	105.55	45.502	0.00057613	59.071	45.036	3.187	-99.728	-145.544	29.379	195.228	-146.294	-140.447	33.416	76.219	-141.525	-138.404	-136.992	-132.028	166.819	-134.293	-8191	255	
32666.529	1	1	0	0	0.27975	0.10978	0.19932	0.1578	0.10742	0.15816	0.1224	0.11384	0.10254	0.23147	0.25305	0.15071	0.12931	0.20143	0.11741	0.14022	-3.8771	-4.8583	-4.5854	-4.3562	-4.9313	-4.4583	-4.5979	-4.9542	-4.2292	-4.8271	-4.7896	-4.4167	-4.9521	-4.5542	-4.4146	-4.8729	-118.565	170.504	71.546	88.869	-25.688	173.814	91.745	-157.127	-110.164	-127.326	-97.309	162.421	3.115	153.239	57.153	157.484	0.0014522	0.0008125	0.00032233	680.42	1.248e-05	1.3223e-05	699.92	205.12	1.9475e-05	6.2651e-06	236.51	108.33	90.105	42.092	1.4683e-05	53.748	0.022607	0.04639	0.012572	760.61	0.00037584	0.00049326	768.37	227.92	0.00036068	0.00057858	269.81	122	105.42	46.572	0.00046756	60.205	48.204	8.838	-29.747	-145.411	178.939	29.717	-146.049	-140.481	-14.376	111.029	-142.087	-138.261	-136.721	-132.024	156.100	-134.655	-8191	255	
32666.602	1	1	0	0	0.17542	0.17194	0.1974	0.092308	0.14895	0.18271	0.22814	0.23926	0.25031	0.12807	0.092029	0.19281	0.15003	0.1642	0.062143	0.12774	-4.0083	-4.6562	-4.5458	-4.2396	-4.8	-4.5312	-4.5521	-4.9729	-4.3771	-4.4625	-4.7917	-4.2688	-4.8187	-4.6438	-4.275	-5.0167	50.470	-156.575	-149.226	176.190	157.948	25.553	113.225	156.609	-97.798	157.272	-133.302	-103.951	170.784	91.214	-135.837	-130.701	0.001806	0.0010742	0.0002139	692.43	7.9799e-06	1.1023e-05	716.65	207.18	1.6816e-05	3.8551e-05	236.52	106.88	89.743	42.041	2.2993e-05	54.472	0.01975	0.040726	0.011336	765.92	0.00035463	0.00046305	778.75	228.86	0.00034706	0.00053382	268.97	120.67	104.08	46.238	0.00044776	60.239	55.942	-112.574	-37.339	-145.416	-93.822	-51.042	-145.844	-140.239	-69.737	28.992	-142.250	-138.437	-136.689	-131.692	188.420	-134.271	-8191	255	
32666.697	1	1	0	0	0.15287	0.083473	0.15038	0.19625	0.08251	0.13008	0.039236	0.20664	0.058157	0.12446	0.29263	0.078711	0.13979	0.016854	0.19569	0.11647	-3.9417	-4.5208	-4.6104	-4.1937	-4.725	-4.6833	-4.2917	-4.95	-4.4542	-4.55	-4.9396	-4.2458	-4.8271	-4.7312	-4.3042	-4.9062	-143.880	-119.894	16.737	144.184	141.695	23.903	-59.318	189.973	51.993	-6.100	-122.729	-72.141	170.247	131.676	159.790	77.656	0.0015617	0.00097017	0.0003046	694.23	2.1133e-05	3.2636e-06	723.02	208.77	1.7889e-05	4.0948e-05	238.22	107.19	88.921	41.84	2.6345e-05	53.833	0.017549	0.035238	0.0099181	753.14	0.00033247	0.00040771	779.89	228.26	0.00032135	0.00053351	268.87	120.5	103.62	46.039	0.00046046	60.034	51.136	199.040	95.358	-145.454	-140.746	105.875	-146.350	-140.720	-90.650	47.884	-141.891	-138.531	-137.481	-132.296	155.063	-134.490	-8191	255	
32666.816	1	1	0	0	0.23285	0.021201	0.082466	0.27049	0.057817	0.15163	0.17449	0.26648	0.22458	0.23549	0.20625	0.13942	0.060698	0.14578	0.085124	0.19386	-4.1042	-4.5896	-4.8021	-4.4625	-4.7021	-4.7792	-4.1771	-4.8042	-4.3896	-4.4854	-4.7562	-4.2438	-4.7646	-4.7604	-4.4479	-4.8875	-120.781	164.159	25.703	196.227	36.888	-137.680	194.237	156.813	127.270	160.529	138.275	-143.935	59.889	139.466	68.156	86.030	0.0015432	0.0009695	0.00014798	698.28	2.6714e-05	3.1542e-06	732.68	206.89	1.6353e-05	3.6145e-05	234.84	104.21	87.865	40.988	3.6953e-05	53.122	0.019183	0.039572	0.011313	759.93	0.00044206	0.00046356	795.24	229.16	0.0003614	0.00056673	269.23	118.79	103.61	45.493	0.00052356	59.507	51.773	-106.362	64.396	-145.416	-96.237	113.187	-146.432	-140.559	-100.460	42.988	-142.193	-138.632	-136.668	-132.441	176.424	-134.373	-8191	255	
32666.912	1	1	0	0	0.051926	0.15611	0.12713	0.094559	0.10427	0.069072	0.25619	0.055325	0.30251	0.14833	0.013325	0.094419	0.1201	0.21667	0.16631	0.19017	-4.1583	-4.3458	-4.7937	-4.4187	-4.6729	-4.7812	-4.3354	-4.8333	-4.3667	-4.4812	-5.0083	-4.4146	-4.4729	-4.8438	-4.1937	-4.6979	-86.646	-103.617	-97.186	84.209	186.675	22.085	64.340	101.563	167.445	94.672	141.402	-13.237	-10.880	180.081	174.422	-65.239	0.0014998	0.0010991	0.00027309	700.42	3.0047e-05	5.1172e-06	730.29	204.84	2.4106e-05	3.8757e-05	232.8	102.62	86.723	40.632	1.8979e-05	52.487	0.02027	0.041404	0.012035	763.08	0.00043803	0.00048387	797.14	228.51	0.0003732	0.00061556	268.63	117.99	102.83	45.146	0.00044294	59.377	54.665	125.232	-83.483	-145.280	-75.867	-0.755	-146.215	-140.325	-2.660	43.295	-142.143	-138.572	-136.851	-132.156	92.307	-134.789	-8191	255	
#DATA ENDS
