BOXY.EXE: ISS Imagent and Oximeter Data Acquisition Program Version 0.80
Ascii Record File

#ACQ INFORMATION
2  Detector Channels 
16  External MUX Channels 
1  Auxiliary Channels 
5000  Waveform (CCF) Frequency (Hz)
1  Waveforms Skipped 
30  Waveforms Averaged 
1  Cycles Averaged 
16  Acquisitions per Waveform 
10.0806  Updata Rate (Hz) 

#FILE INFORMATION
TRUE -- External MUX Channel results are PARSED.
FALSE -- AC DC and Phase are NOT grouped.
TRUE -- Companion Program Settings File CREATED.
FALSE -- AC data not excluded
FALSE -- DC data not excluded
FALSE -- Phase data not excluded
FALSE -- Auxillary Chn. data not excluded
Tab delimiters

#CALIBRATION STATE
TRUE -- Waveform Calibration Values APPLIED.


#AUX CALIBRATION VALUES
Val Type	aux-1	

Term	1.0000e+00	
Factor	0.0000e+00	


#WF CALIBRATION VALUES
A = Detector Channel
Val Type	A-AC1	A-AC2	A-AC3	A-AC4	A-AC5	A-AC6	A-AC7	A-AC8	A-AC9	A-AC10	A-AC11	A-AC12	A-AC13	A-AC14	A-AC15	A-AC16	A-DC1	A-DC2	A-DC3	A-DC4	A-DC5	A-DC6	A-DC7	A-DC8	A-DC9	A-DC10	A-DC11	A-DC12	A-DC13	A-DC14	A-DC15	A-DC16	A-Ph1	A-Ph2	A-Ph3	A-Ph4	A-Ph5	A-Ph6	A-Ph7	A-Ph8	A-Ph9	A-Ph10	A-Ph11	A-Ph12	A-Ph13	A-Ph14	A-Ph15	A-Ph16	

Term	0.00000e+00	0.00000e+00	0.00000e+00	0.00000e+00	0.00000e+00	0.00000e+00	0.00000e+00	0.00000e+00	0.00000e+00	0.00000e+00	0.00000e+00	0.00000e+00	0.00000e+00	0.00000e+00	0.00000e+00	0.00000e+00	0.00000e+00	0.00000e+00	0.00000e+00	0.00000e+00	0.00000e+00	0.00000e+00	0.00000e+00	0.00000e+00	0.00000e+00	0.00000e+00	0.00000e+00	0.00000e+00	0.00000e+00	0.00000e+00	0.00000e+00	0.00000e+00	0.00000e+00	0.00000e+00	0.00000e+00	0.00000e+00	0.00000e+00	0.00000e+00	0.00000e+00	0.00000e+00	0.00000e+00	0.00000e+00	0.00000e+00	0.00000e+00	0.00000e+00	0.00000e+00	0.00000e+00	0.00000e+00	
Factor	1.00000e+00	1.00000e+00	1.00000e+00	1.00000e+00	1.00000e+00	1.00000e+00	1.00000e+00	1.00000e+00	1.00000e+00	1.00000e+00	1.00000e+00	1.00000e+00	1.00000e+00	1.00000e+00	1.00000e+00	1.00000e+00	1.00000e+00	1.00000e+00	1.00000e+00	1.00000e+00	1.00000e+00	1.00000e+00	1.00000e+00	1.00000e+00	1.00000e+00	1.00000e+00	1.00000e+00	1.00000e+00	1.00000e+00	1.00000e+00	1.00000e+00	1.00000e+00	X	X	X	X	X	X	X	X	X	X	X	X	X	X	X	X	

B = Detector Channel
Val Type	B-AC1	B-AC2	B-AC3	B-AC4	B-AC5	B-AC6	B-AC7	B-AC8	B-AC9	B-AC10	B-AC11	B-AC12	B-AC13	B-AC14	B-AC15	B-AC16	B-DC1	B-DC2	B-DC3	B-DC4	B-DC5	B-DC6	B-DC7	B-DC8	B-DC9	B-DC10	B-DC11	B-DC12	B-DC13	B-DC14	B-DC15	B-DC16	B-Ph1	B-Ph2	B-Ph3	B-Ph4	B-Ph5	B-Ph6	B-Ph7	B-Ph8	B-Ph9	B-Ph10	B-Ph11	B-Ph12	B-Ph13	B-Ph14	B-Ph15	B-Ph16	

Term	0.00000e+00	0.00000e+00	0.00000e+00	0.00000e+00	0.00000e+00	0.00000e+00	0.00000e+00	0.00000e+00	0.00000e+00	0.00000e+00	0.00000e+00	0.00000e+00	0.00000e+00	0.00000e+00	0.00000e+00	0.00000e+00	0.00000e+00	0.00000e+00	0.00000e+00	0.00000e+00	0.00000e+00	0.00000e+00	0.00000e+00	0.00000e+00	0.00000e+00	0.00000e+00	0.00000e+00	0.00000e+00	0.00000e+00	0.00000e+00	0.00000e+00	0.00000e+00	-2.04314e+02	-1.42203e+02	-1.28168e+02	-1.83188e+02	-8.07192e+01	-9.55538e+01	-1.57235e+02	-1.62015e+02	-9.38696e+01	-7.87754e+01	-1.72586e+02	-1.73078e+02	-1.80462e+02	-1.78286e+02	-1.03677e+02	-1.51187e+02	
Factor	5.12228e-05	5.56067e-05	1.88345e-05	1.95333e-01	6.11813e-07	6.20629e-07	2.43410e-01	8.63391e-02	5.78950e-07	5.10576e-07	1.23214e-01	4.08652e-02	3.29490e-02	1.20693e-02	4.99769e-07	1.77148e-02	2.19044e-07	2.19549e-07	6.10483e-08	8.04949e-02	2.40446e-09	2.40050e-09	9.18355e-02	3.25942e-02	2.40413e-09	2.39780e-09	4.31712e-02	1.43532e-02	1.21673e-02	4.38651e-03	2.40139e-09	6.00466e-03	X	X	X	X	X	X	X	X	X	X	X	X	X	X	X	X	



#DISTANCE SETTINGS
A = Detector Channel
A-1	A-2	A-3	A-4	A-5	A-6	A-7	A-8	A-9	A-10	A-11	A-12	A-13	A-14	A-15	A-16	

2.5000e+00	3.0000e+00	2.5000e+00	3.0000e+00	2.0000e+00	3.0000e+00	1.5000e+00	3.0000e+00	3.0000e+00	3.0000e+00	3.0000e+00	3.0000e+00	3.0000e+00	3.0000e+00	1.5000e+00	3.0000e+00	

B = Detector Channel
B-1	B-2	B-3	B-4	B-5	B-6	B-7	B-8	B-9	B-10	B-11	B-12	B-13	B-14	B-15	B-16	

1.0000e+01	1.0000e+01	1.0000e+01	1.4400e+00	1.0000e+01	1.0000e+01	1.5100e+00	1.9400e+00	1.0000e+01	1.0000e+01	1.9900e+00	2.4900e+00	2.4100e+00	2.9000e+00	1.0000e+01	2.9800e+00	




#DATA BEGINS
time	group	step	mark	flag	A-AC1	A-AC2	A-AC3	A-AC4	A-AC5	A-AC6	A-AC7	A-AC8	A-AC9	A-AC10	A-AC11	A-AC12	A-AC13	A-AC14	A-AC15	A-AC16	A-DC1	A-DC2	A-DC3	A-DC4	A-DC5	A-DC6	A-DC7	A-DC8	A-DC9	A-DC10	A-DC11	A-DC12	A-DC13	A-DC14	A-DC15	A-DC16	A-Ph1	A-Ph2	A-Ph3	A-Ph4	A-Ph5	A-Ph6	A-Ph7	A-Ph8	A-Ph9	A-Ph10	A-Ph11	A-Ph12	A-Ph13	A-Ph14	A-Ph15	A-Ph16	B-AC1	B-AC2	B-AC3	B-AC4	B-AC5	B-AC6	B-AC7	B-AC8	B-AC9	B-AC10	B-AC11	B-AC12	B-AC13	B-AC14	B-AC15	B-AC16	B-DC1	B-DC2	B-DC3	B-DC4	B-DC5	B-DC6	B-DC7	B-DC8	B-DC9	B-DC10	B-DC11	B-DC12	B-DC13	B-DC14	B-DC15	B-DC16	B-Ph1	B-Ph2	B-Ph3	B-Ph4	B-Ph5	B-Ph6	B-Ph7	B-Ph8	B-Ph9	B-Ph10	B-Ph11	B-Ph12	B-Ph13	B-Ph14	B-Ph15	B-Ph16	aux-1	digaux	

2860.106	1	1	0	768	0.20487	0.17291	0.096339	0.14646	0.034254	0.21488	0.069216	0.063292	0.085659	0.23664	0.057885	0.21714	0.20962	0.076094	0.17321	0.077985	-3.8208	-3.5271	-3.925	-4.0333	-3.7229	-4.0896	-3.6958	-3.7792	-4.2104	-3.6562	-3.8979	-3.9604	-3.5938	-4.1771	-3.8917	-3.7687	206.401	198.982	484.257	495.844	235.695	390.216	187.095	415.901	200.468	496.833	403.045	446.705	497.850	504.055	509.671	483.872	0.0015579	0.00015627	6.4766e-05	634.12	1.0249e-06	1.0315e-06	723.77	240.65	9.4114e-07	7.9112e-07	309.97	132.93	106.09	51.022	2.6395e-07	68.092	2.4782e-05	1.9002e-05	6.1528e-06	546.29	2.283e-07	2.0795e-07	607.63	191.68	2.2396e-07	2.1141e-07	234.91	100.86	81.479	39.056	2.5739e-07	49.927	476.364	226.762	258.196	179.465	297.706	287.347	177.551	184.288	259.436	275.264	182.387	186.678	189.503	195.446	323.467	190.762	-8191	255	
2860.202	1	1	0	0	0.34663	0.066511	0.045664	0.30737	0.058449	0.16033	0.24744	0.18167	0.12332	0.20049	0.18772	0.14603	0.25927	0.17535	0.13695	0.084056	-3.9375	-3.5979	-3.85	-4.0437	-3.6562	-4.1583	-3.9583	-3.7229	-4.1333	-3.6042	-3.9604	-4.0854	-3.5625	-4.1646	-3.6979	-3.7625	374.482	499.419	290.519	186.084	308.367	354.517	523.809	474.150	197.389	395.175	517.218	498.952	409.772	253.212	445.375	192.874	0.0014764	9.258e-05	3.7977e-05	638.19	1.8445e-06	1.459e-06	722.29	246.04	1.6961e-06	9.2723e-07	312.14	133.99	107.11	51.253	2.2401e-06	68.241	2.4101e-05	2.0021e-05	6.4901e-06	550.09	2.1621e-07	2.1751e-07	609.8	194.52	2.1253e-07	2.2529e-07	237.6	101.52	82.039	39.188	2.581e-07	49.815	477.425	243.777	269.625	179.223	283.045	252.024	177.598	184.878	272.268	249.483	182.292	186.331	189.329	195.149	259.367	191.015	-8191	255	
2860.298	1	1	0	0	0.1077	0.066323	0.11769	0.12615	0.1814	0.077435	0.2187	0.22393	0.18671	0.092517	0.13139	0.031197	0.083894	0.10235	0.143	0.27975	-3.7958	-3.5958	-3.9521	-4.2625	-3.4771	-4.2125	-4.0854	-3.6271	-4.1229	-3.7958	-3.9375	-4.2646	-3.4875	-4.1542	-3.9562	-3.7958	390.913	422.577	488.116	425.825	476.781	518.195	212.758	413.228	492.879	193.440	507.429	520.115	416.823	311.978	379.016	432.588	0.0015565	0.00015693	5.7771e-05	627.31	1.1265e-06	1.2876e-06	717.58	238.09	2.3886e-06	8.0581e-07	305.51	131.72	104.77	50.306	8.2588e-07	67.05	2.3644e-05	2.1493e-05	6.3409e-06	542.09	2.0978e-07	2.3272e-07	602.43	189.42	2.0795e-07	2.3947e-07	232.48	99.815	80.328	38.522	2.4932e-07	49.393	478.911	236.913	256.025	179.201	301.653	301.861	177.428	184.377	292.269	291.582	182.195	186.293	189.182	195.233	265.283	190.823	-8191	255	
2860.394	1	1	0	0	0.093217	0.095299	0.11984	0.10542	0.053832	0.14918	0.043597	0.19688	0.096371	0.021896	0.16863	0.25587	0.17946	0.096225	0.13928	0.24216	-3.8958	-3.7396	-3.7875	-4.1771	-3.75	-3.9313	-4.1062	-3.5208	-4.2229	-3.8667	-3.8792	-4.1729	-3.6354	-4.175	-4.0104	-3.5146	278.859	337.469	217.931	377.007	292.620	343.194	480.990	488.969	190.859	275.442	200.883	375.673	370.567	459.183	410.702	330.049	0.0015567	9.4389e-05	3.7219e-05	624.52	1.1836e-06	6.6157e-07	713.59	236.68	1.6028e-06	1.5377e-06	302.63	130.51	103.54	49.664	1.4448e-06	66.089	2.3575e-05	2.2629e-05	6.1451e-06	537.73	2.1439e-07	2.4728e-07	598.15	187.91	2.1237e-07	2.5125e-07	230.23	98.887	79.383	38.131	2.2968e-07	48.531	480.106	209.932	295.014	179.249	315.058	300.382	177.754	184.401	256.003	278.725	182.370	186.296	189.500	195.325	283.475	191.059	-8191	255	
2860.490	1	1	0	0	0.037889	0.080201	0.021643	0.072975	0.13062	0.02925	0.12841	0.13975	0.1043	0.12909	0.064382	0.086798	0.082591	0.061428	0.23965	0.106	-3.6625	-3.8604	-3.6417	-4.3896	-3.5917	-3.9	-4.0833	-3.4604	-4.1021	-4.0312	-3.6292	-4.3646	-3.5542	-3.9833	-4.0604	-3.4854	360.750	329.397	250.210	386.354	484.629	496.842	429.455	419.769	303.512	205.367	453.225	336.650	511.109	303.073	310.687	510.743	0.0015296	0.00011921	5.8435e-05	622.28	1.0495e-06	4.617e-07	708.73	234.49	1.5173e-06	7.7522e-07	301.69	129.09	102.58	49.598	9.8355e-07	66.197	2.4229e-05	2.3232e-05	5.89e-06	535.31	2.2367e-07	2.4985e-07	594.81	186.2	2.2621e-07	2.5189e-07	228.83	97.656	78.941	38.001	2.2498e-07	48.508	479.906	217.008	243.798	179.198	269.723	317.088	177.511	184.567	262.037	334.469	182.279	186.467	189.354	195.299	283.561	191.031	-8191	255	
2860.587	1	1	0	0	0.086835	0.064716	0.017802	0.15923	0.17448	0.13765	0.17216	0.15901	0.15303	0.18208	0.086648	0.1158	0.23719	0.1574	0.1875	0.10007	-3.6729	-3.8708	-3.5812	-4.3833	-3.4354	-3.9813	-4.2792	-3.7417	-4.0125	-3.8833	-3.4979	-4.2771	-3.8021	-3.8042	-4.1958	-3.6833	371.270	346.231	459.876	476.059	400.634	345.896	382.425	454.693	259.120	380.509	379.612	485.922	444.689	507.613	467.506	406.069	0.0014374	0.00013547	4.0909e-05	627.69	7.5341e-07	1.1226e-06	714.3	240.36	1.8841e-06	8.3857e-07	306.65	131.52	104.95	50.687	1.0749e-06	66.81	2.5975e-05	2.2517e-05	5.6779e-06	539.46	2.4553e-07	2.4605e-07	599.3	190.68	2.4794e-07	2.4511e-07	232.4	99.635	80.854	38.728	2.2013e-07	48.976	477.309	243.898	262.904	179.271	292.321	341.126	177.745	184.451	291.223	327.915	182.005	186.454	189.497	195.256	259.371	190.951	-8191	255	
2860.707	1	1	0	0	0.10706	0.2541	0.1077	0.15698	0.22335	0.19292	0.095512	0.024003	0.044296	0.15869	0.25012	0.12109	0.15593	0.14628	0.14948	0.23531	-3.5604	-3.9833	-3.4104	-4.1125	-3.7458	-3.775	-4.1375	-3.7396	-3.9271	-4.1438	-3.5583	-4.1167	-3.8979	-3.6646	-4.2042	-3.7104	417.867	389.481	506.392	348.456	250.974	314.765	446.512	340.990	410.385	182.110	441.929	304.832	413.772	207.198	330.676	410.798	0.0014721	0.00011568	4.4743e-05	624.9	1.8697e-06	1.6002e-06	708.12	234.48	1.4585e-06	1.5989e-06	300.31	128.43	102.54	49.327	1.1739e-06	65.612	2.7259e-05	2.1744e-05	5.5934e-06	536.06	2.5599e-07	2.3731e-07	592.07	186.21	2.5639e-07	2.3201e-07	228	97.734	78.912	37.735	2.1302e-07	48.156	475.940	248.124	263.613	179.151	281.772	303.777	177.420	184.512	289.935	324.080	182.155	186.184	189.612	195.125	251.685	190.792	-8191	255	
2860.802	1	1	0	0	0.18112	0.079135	0.13321	0.16451	0.25204	0.23464	0.28439	0.16881	0.24015	0.20134	0.2167	0.20913	0.17736	0.2829	0.20298	0.14227	-3.5187	-3.9854	-3.5646	-4.2188	-3.8563	-3.5563	-4.3771	-3.6333	-3.9542	-4.1458	-3.5438	-4.125	-3.8896	-3.6771	-4.1937	-3.8667	298.699	198.774	350.496	193.483	442.027	207.884	520.845	450.705	320.082	347.745	181.941	441.921	485.868	525.258	516.400	459.850	0.0013712	4.2155e-05	5.9476e-05	618.63	1.3705e-06	1.7033e-06	703.15	233.47	2.3832e-06	1.2101e-06	299.92	128.1	101.9	48.81	2.1039e-06	65.218	2.7684e-05	2.0645e-05	5.335e-06	531.42	2.5226e-07	2.2326e-07	589.08	185.15	2.4981e-07	2.2284e-07	227.01	97.362	78.359	37.502	2.1075e-07	47.945	478.395	246.329	280.843	179.173	302.874	274.062	177.570	184.865	276.597	315.570	182.312	186.549	189.335	195.133	252.478	190.928	-8191	255	
2860.898	1	1	0	0	0.17424	0.090835	0.18261	0.19319	0.16694	0.17683	0.10157	0.20464	0.033336	0.20048	0.23595	0.075254	0.10153	0.26586	0.11944	0.17842	-3.3958	-4.1562	-3.5854	-4.2292	-3.8396	-3.4896	-4.3417	-3.6271	-3.4896	-4.1562	-3.5062	-3.8333	-4.0625	-3.4875	-4.1312	-3.8333	273.871	486.304	309.612	299.199	483.229	360.534	311.391	397.028	492.863	375.514	351.511	481.679	345.904	272.315	217.262	196.399	0.0014815	0.00016706	1.798e-05	624.74	1.7544e-06	2.6077e-06	708.71	237.12	1.0839e-06	1.3107e-06	303.74	130.42	105	50.615	1.2377e-06	67.149	2.6916e-05	2.0467e-05	5.3226e-06	539.41	2.4843e-07	2.1963e-07	595.93	188.47	2.4472e-07	2.1718e-07	230.22	99.053	80.599	38.645	2.1232e-07	49.247	476.172	230.655	263.443	179.186	301.709	329.376	177.587	184.391	301.076	347.612	182.129	186.464	189.605	195.221	229.486	190.683	-8191	255	
2860.994	1	1	0	0	0.20749	0.10521	0.12135	0.29771	0.2503	0.066057	0.18014	0.35493	0.15524	0.21819	0.03992	0.15477	0.027454	0.23994	0.11292	0.033124	-3.2417	-4.1125	-3.4417	-3.9854	-3.9625	-3.6021	-4.1562	-3.75	-3.7271	-4.2167	-3.6896	-4.1229	-4.3229	-3.5708	-4.0271	-3.8271	223.982	238.070	360.071	516.207	258.749	266.418	366.275	430.277	237.599	484.928	284.790	447.023	519.725	261.402	416.411	315.919	0.0014339	0.00012151	2.3889e-05	630.6	2.0881e-06	7.5741e-07	718.66	242.46	1.407e-06	1.7722e-06	307.84	131.45	105.71	50.942	1.4416e-06	67	2.6065e-05	1.9252e-05	5.6528e-06	544.4	2.3681e-07	2.1655e-07	600.74	192.89	2.3309e-07	2.0886e-07	233.08	99.916	81.069	38.764	2.3246e-07	49.083	479.524	255.915	248.438	179.206	310.918	353.825	177.532	184.589	288.730	297.313	181.969	186.192	189.271	195.165	254.246	190.827	-8191	255	
2861.090	1	1	0	0	0.081746	0.030435	0.15565	0.15501	0.20675	0.045906	0.19861	0.15532	0.050689	0.08042	0.020406	0.065705	0.15573	0.29143	0.11945	0.25057	-3.3563	-4.1	-3.6167	-3.775	-4.0583	-3.4813	-4.3187	-3.8833	-3.5042	-4.0938	-3.8083	-3.8937	-4.2125	-3.5187	-3.9917	-3.9604	291.895	328.423	503.103	240.449	363.783	189.339	480.001	449.386	496.259	219.165	508.995	523.279	232.334	459.232	224.191	373.044	0.0014494	0.00011424	6.4244e-05	627.12	1.5005e-06	1.3864e-06	710.45	237.44	1.1548e-06	3.3822e-07	302.04	129.82	104.11	50.109	1.8099e-06	66.681	2.5329e-05	1.847e-05	6.0106e-06	538.19	2.256e-07	2.0735e-07	595.23	188.05	2.2949e-07	2.0469e-07	230.17	98.602	79.712	38.231	2.4534e-07	48.875	479.160	222.074	221.752	179.363	334.457	344.872	177.462	184.505	279.565	257.796	182.118	186.400	189.597	195.400	245.108	190.764	-8191	255	
2861.186	1	1	0	0	0.17628	0.30137	0.12535	0.14743	0.24282	0.3431	0.064399	0.10848	0.18743	0.11025	0.15081	0.024164	0.14653	0.047509	0.15233	0.10728	-3.2	-4.1021	-3.5187	-3.9	-4.2104	-3.5792	-4.1604	-3.9437	-3.5542	-4.2104	-3.8292	-3.8208	-4.2083	-3.6542	-4.0312	-4.125	362.187	451.357	250.853	286.494	175.095	209.695	515.184	508.131	212.759	391.710	479.574	268.548	184.939	345.700	269.633	261.222	0.0013611	8.7807e-05	9.4774e-05	623.66	1.3309e-06	1.8203e-06	714.69	237.56	1.8642e-06	1.8943e-06	303.22	129.68	103.82	49.931	1.5137e-06	65.961	2.4643e-05	1.8797e-05	6.3079e-06	537.21	2.1728e-07	2.0633e-07	597.24	188.56	2.2038e-07	2.1098e-07	230.07	98.388	79.567	38.157	2.5544e-07	48.33	480.065	316.817	220.635	179.176	286.177	252.240	177.058	184.399	282.716	271.455	182.147	186.533	189.192	195.160	273.596	190.779	-8191	255	
2861.282	1	1	0	0	0.12315	0.17208	0.15817	0.047229	0.044219	0.12511	0.33299	0.068142	0.22351	0.042177	0.3979	0.3226	0.041812	0.33433	0.051918	0.23765	-3.075	-4.1896	-3.7625	-3.6271	-4.1354	-3.5146	-3.9938	-4.0833	-3.4208	-4.1292	-4.0813	-3.7417	-4.2146	-3.6958	-3.9208	-4.1854	490.729	229.970	525.556	495.752	438.606	317.175	387.248	198.214	335.419	379.695	170.215	171.586	315.557	198.395	417.737	463.358	0.0014144	0.00012102	6.0044e-05	622.73	1.8504e-06	1.246e-06	703.65	235.34	7.5838e-07	6.502e-07	301.68	129.53	104.55	50.521	1.1889e-06	66.246	2.3811e-05	2.0092e-05	6.4529e-06	535.57	2.0957e-07	2.2313e-07	592.64	186.9	2.0961e-07	2.2257e-07	229.46	98.181	79.925	38.555	2.5002e-07	48.671	479.194	246.594	258.247	179.271	280.232	281.270	177.654	184.421	335.482	325.785	182.282	186.458	189.242	195.227	269.662	190.875	-8191	255	
2861.403	1	1	0	0	0.12278	0.17131	0.058219	0.15435	0.16137	0.058292	0.070867	0.14637	0.19484	0.23636	0.18088	0.1817	0.073782	0.24653	0.13376	0.21637	-3.0875	-4.1271	-3.7667	-3.6646	-3.9354	-3.75	-3.7917	-4.1583	-3.5375	-4.225	-4.1146	-3.4958	-4.4354	-3.6312	-3.825	-4.1875	302.059	508.579	231.443	219.317	416.531	332.160	432.413	224.612	483.046	440.290	479.071	258.276	495.171	395.178	453.910	447.766	0.0014318	9.2338e-05	3.8375e-05	625.97	1.4206e-06	1.241e-06	713.72	239.11	2.1878e-06	2.1845e-07	304.77	129.82	103.88	50.025	1.513e-06	66.019	2.2985e-05	2.1599e-05	6.2532e-06	538.65	2.0544e-07	2.4129e-07	596.85	189.78	2.0881e-07	2.3928e-07	230.76	98.367	79.784	38.289	2.4306e-07	48.221	475.997	264.012	271.936	179.161	290.348	262.141	177.562	184.474	271.047	383.831	182.233	186.311	189.350	195.125	275.192	190.649	-8191	255	
2861.499	1	1	0	0	0.11863	0.16436	0.10398	0.17916	0.10328	0.1223	0.19848	0.2635	0.10629	0.11965	0.31853	0.21733	0.10974	0.25027	0.12377	0.19708	-2.9188	-3.8729	-3.9521	-3.4437	-4.175	-3.5667	-3.6896	-4.3083	-3.6813	-3.9396	-3.9375	-3.5521	-3.9708	-3.9021	-3.6521	-4.3417	453.626	190.439	428.761	328.778	201.785	325.842	292.421	440.930	329.118	314.800	508.087	471.599	286.942	188.619	490.160	475.997	0.0013664	0.00022812	6.3457e-05	615.27	1.6339e-06	1.7075e-06	704.46	234.01	1.6806e-06	1.2483e-06	300.23	127.5	102.04	49.007	1.3453e-06	65.327	2.3481e-05	2.2863e-05	5.8374e-06	530.44	2.1204e-07	2.4856e-07	588.79	185.34	2.216e-07	2.461e-07	226.62	96.706	78.16	37.561	2.2803e-07	47.629	476.537	240.972	255.196	179.293	269.820	269.044	177.532	184.567	265.025	306.302	182.322	186.582	189.393	195.317	279.804	190.717	-8191	255	
2861.595	1	1	0	0	0.27947	0.26633	0.025275	0.16641	0.10601	0.075769	0.12452	0.18815	0.098415	0.19424	0.12784	0.10378	0.26007	0.25925	0.13972	0.16751	-3.2438	-4.0375	-3.9292	-3.35	-4.1	-4.0208	-3.6292	-4.0542	-3.7417	-3.8729	-4.1875	-3.4437	-4.0188	-3.9792	-3.5833	-4.1958	351.148	342.981	411.633	517.879	363.759	250.943	461.374	328.315	327.372	334.133	424.205	251.566	517.423	519.204	252.089	400.993	0.0013341	0.00014483	1.5241e-05	615.56	1.8032e-06	2.5089e-06	698.65	232.63	1.9007e-06	1.9321e-06	296.56	126.05	101.49	48.527	9.6567e-07	64.273	2.4865e-05	2.2915e-05	5.7635e-06	528.71	2.2977e-07	2.4651e-07	586.48	183.98	2.3025e-07	2.4532e-07	224.87	95.727	77.617	37.22	2.2841e-07	47.024	479.049	226.480	237.310	179.138	296.029	308.756	177.350	184.446	276.256	291.078	182.286	186.250	189.260	195.299	279.492	190.949	-8191	255	
2861.691	1	1	0	0	0.099782	0.16885	0.1	0.21444	0.29854	0.11415	0.022914	0.17994	0.013863	0.23824	0.10532	0.27134	0.11632	0.060575	0.095699	0.14601	-3.3083	-3.7625	-4.2521	-3.5271	-3.8917	-3.9292	-3.3729	-4.2229	-3.6542	-3.5292	-4.3667	-3.6771	-4.1083	-3.9542	-3.3937	-4.1271	247.966	207.810	311.131	525.990	301.812	365.863	428.510	482.734	476.375	354.434	421.280	518.281	243.938	350.550	359.746	486.838	0.0015098	0.00011697	9.9506e-06	617.71	2.4811e-06	1.4771e-06	700.98	230.79	8.244e-07	1.0696e-06	297.29	126.8	102.36	49.399	1.9805e-06	65.068	2.6654e-05	2.2034e-05	5.5464e-06	531.68	2.4951e-07	2.4088e-07	587.47	183.55	2.5497e-07	2.373e-07	224.93	96.171	78.612	37.868	2.205e-07	47.787	479.147	258.595	303.763	179.390	290.892	284.730	177.424	184.371	197.046	285.427	182.260	186.494	189.618	195.285	278.917	190.695	-8191	255	
2861.786	1	1	0	0	0.18026	0.11449	0.24448	0.11869	0.24117	0.14303	0.021602	0.20575	0.19617	0.25688	0.29825	0.1198	0.085212	0.10652	0.094265	0.14198	-3.4833	-3.6437	-4.0312	-3.4417	-3.7188	-4.2688	-3.625	-4.25	-3.9125	-3.6271	-4.025	-3.625	-3.8375	-4.2104	-3.5104	-4.1167	498.671	300.339	389.579	231.289	363.894	210.036	364.220	327.600	282.637	502.083	186.976	223.250	423.371	258.813	375.469	209.890	0.0014026	0.00014768	5.2463e-05	621.18	2.0311e-06	1.8372e-06	706.47	236.38	5.1169e-07	1.0911e-06	300.36	128.39	103.27	49.685	1.1161e-06	65.276	2.7815e-05	2.1302e-05	5.4519e-06	535.25	2.5594e-07	2.2865e-07	590.63	187.61	2.5514e-07	2.2967e-07	227.23	97.255	79.374	37.997	2.1373e-07	47.83	474.893	284.989	271.430	179.716	277.485	265.951	177.568	184.622	250.685	311.839	182.301	186.609	189.284	195.328	301.945	191.047	-8191	255	
2861.882	1	1	0	0	0.14736	0.064779	0.12609	0.15851	0.070114	0.035118	0.20841	0.027781	0.056362	0.17622	0.10555	0.23563	0.28119	0.021615	0.1653	0.18823	-3.3729	-3.5708	-4.225	-3.5979	-3.8271	-3.9875	-3.2958	-4.1021	-3.875	-3.4854	-4.2438	-3.7125	-3.6958	-4.2292	-3.6417	-4.1146	385.499	250.581	304.984	437.206	413.233	457.920	422.725	271.937	312.230	397.889	278.480	201.733	429.571	249.702	268.529	523.542	0.0013801	0.00017883	2.7106e-05	619.75	8.4209e-07	1.052e-06	704.31	233.08	1.6344e-06	1.6708e-06	298.02	127.75	102.38	49.566	2.1625e-06	65.306	2.7398e-05	2.0773e-05	5.2131e-06	533.54	2.5037e-07	2.1956e-07	587.65	185.39	2.4728e-07	2.2446e-07	225.36	96.912	78.814	37.89	2.1473e-07	48.163	479.089	261.022	234.326	178.789	273.932	355.136	177.651	184.388	313.754	287.614	182.230	186.595	189.287	195.441	240.395	190.894	-8191	255	
2861.978	1	1	0	0	0.058213	0.07699	0.10522	0.10023	0.22462	0.051381	0.10509	0.17934	0.14803	0.12731	0.17305	0.073165	0.04053	0.12482	0.072205	0.23668	-3.4604	-3.6208	-3.9542	-3.7417	-3.6604	-4.0458	-3.5771	-4.0896	-4.0375	-3.6625	-4.3458	-3.7562	-3.6979	-4.2375	-3.5979	-4.0167	273.886	500.612	341.870	422.701	350.181	229.840	439.635	472.854	262.222	467.755	380.800	425.981	353.869	476.589	358.467	196.619	0.001381	0.00011825	7.1315e-05	619.6	1.6044e-06	1.007e-06	703.86	234.65	5.9237e-07	1.0506e-06	299.91	127.35	102.57	49.641	1.4443e-06	65.316	2.6135e-05	2.0069e-05	5.261e-06	534.67	2.4181e-07	2.1088e-07	589.9	186.6	2.3715e-07	2.1382e-07	226.33	96.844	78.832	37.968	2.2354e-07	47.942	478.621	291.353	259.684	179.245	287.052	298.556	177.594	184.648	302.051	314.284	182.423	186.605	189.523	195.205	259.817	190.784	-8191	255	
2862.074	1	1	0	0	0.33228	0.069304	0.061376	0.11889	0.021246	0.079944	0.30727	0.21539	0.20205	0.093689	0.11133	0.24902	0.21093	0.056287	0.096922	0.15931	-3.7208	-3.3063	-4.0042	-3.9813	-3.7208	-4.0708	-3.7604	-3.7646	-4.2375	-3.5417	-4.2146	-4.0021	-3.5667	-4.2208	-3.4562	-3.9	404.224	183.341	213.414	170.986	266.169	401.395	410.112	424.264	423.404	401.905	333.510	252.130	476.313	292.641	458.887	419.202	0.0013673	0.00020302	5.3934e-05	624.3	1.9399e-06	1.088e-06	707.02	236.75	6.9847e-07	9.4633e-07	301.41	128.88	104.22	50.394	1.4071e-06	66.433	2.5289e-05	1.9497e-05	5.5462e-06	537.58	2.3501e-07	2.0882e-07	592.18	188.07	2.2677e-07	2.0525e-07	228.66	98.128	80.133	38.66	2.4265e-07	48.722	476.053	248.055	255.387	179.268	308.395	350.090	177.595	184.594	259.498	320.404	182.323	186.649	189.537	195.440	242.669	190.794	-8191	255	
2862.195	1	1	0	0	0.25257	0.28774	0.28016	0.1735	0.074212	0.094015	0.093487	0.21796	0.068166	0.1549	0.19519	0.097628	0.064057	0.20815	0.16073	0.1428	-3.8396	-3.4688	-3.9062	-4.0104	-3.5104	-4.3063	-3.6813	-3.8771	-4.0542	-3.6917	-3.9979	-3.9396	-3.6437	-4.2521	-3.7417	-3.9042	377.188	496.711	455.169	504.803	519.698	178.350	189.105	499.492	170.288	217.551	480.551	279.511	425.062	237.068	288.699	456.574	0.0014455	8.6365e-05	3.3317e-05	621.65	1.606e-06	2.0265e-06	707.32	235.81	2.0028e-06	8.3764e-07	298.66	127.71	102.81	49.843	1.952e-06	65.366	2.4773e-05	1.9097e-05	6.1088e-06	537.03	2.23e-07	2.048e-07	591.59	187.45	2.2089e-07	2.0863e-07	227.26	97.047	78.998	38.084	2.5427e-07	47.972	482.922	236.921	216.465	179.456	315.601	323.521	177.522	184.711	291.773	274.677	182.523	186.506	189.614	195.303	241.501	190.792	-8191	255	
2862.267	1	1	0	0	0.03909	0.10452	0.23641	0.21505	0.23571	0.092534	0.14622	0.11559	0.097387	0.20547	0.14849	0.23591	0.22131	0.2018	0.1853	0.10916	-3.7333	-3.3896	-4.0854	-4.0938	-3.6167	-4.2688	-3.7438	-3.9	-4.2688	-3.5854	-4.0479	-4.1	-3.4125	-4.3271	-3.8521	-3.8812	394.372	384.353	491.788	194.419	521.730	340.546	359.303	399.670	499.639	418.187	510.583	192.302	185.191	212.036	524.542	183.020	0.0013774	6.9801e-05	2.8747e-05	616.08	4.368e-07	1.9476e-06	702.16	232.17	1.9248e-06	1.3289e-06	297.09	126.79	101.91	49.332	1.3415e-06	65.178	2.3713e-05	1.9361e-05	6.4767e-06	529.47	2.1638e-07	2.107e-07	586.99	184.36	2.0958e-07	2.1514e-07	225.06	96.342	78.191	37.884	2.5408e-07	47.85	478.895	231.044	240.534	179.256	308.968	208.411	177.265	184.561	265.819	287.034	182.413	186.394	189.329	195.149	288.183	190.741	-8191	255	
2862.387	1	1	0	0	0.085589	0.17831	0.1861	0.28076	0.075068	0.19596	0.25304	0.13494	0.15601	0.046113	0.14334	0.26193	0.34471	0.084807	0.069466	0.098877	-3.825	-3.6021	-3.9	-4.1354	-3.4146	-4.0938	-4.075	-3.4125	-4.1792	-3.8583	-4.0583	-4.2375	-3.7146	-4.15	-3.8854	-3.7125	338.981	222.280	201.765	208.381	524.917	415.596	443.661	521.704	511.424	214.764	258.297	519.320	491.754	459.561	415.158	502.368	0.001394	0.00018476	8.3001e-05	615.11	1.0329e-06	1.1274e-06	698.52	231.67	1.21e-06	1.1662e-06	293.25	125.8	101.01	48.931	2.0892e-06	63.815	2.3107e-05	2.1222e-05	6.3315e-06	528.53	2.0874e-07	2.2774e-07	585.29	183.71	2.025e-07	2.3625e-07	223.64	95.47	77.503	37.376	2.4857e-07	46.855	478.296	224.149	276.374	179.384	292.844	249.403	177.416	184.565	223.956	250.176	182.225	186.198	189.535	195.122	229.838	190.987	-8191	255	
2862.483	1	1	0	0	0.081851	0.07532	0.14761	0.079878	0.1023	0.23081	0.15437	0.096523	0.11173	0.11187	0.27779	0.29242	0.096794	0.21873	0.063117	0.24726	-3.5792	-3.7167	-3.5708	-4.2333	-3.5292	-4.0062	-4.0646	-3.6917	-4.25	-3.6625	-3.7083	-4.1083	-3.475	-4.1104	-4.0375	-3.6292	287.158	250.977	222.598	305.914	233.761	486.054	482.199	427.477	179.339	215.701	301.196	520.428	311.210	518.311	235.838	442.863	0.001375	0.00012675	6.8556e-05	615.76	7.5319e-07	7.0937e-07	696.7	231.84	1.5492e-06	1.0364e-06	297.32	127.27	102.92	49.765	1.3718e-06	64.921	2.2885e-05	2.2496e-05	6.1173e-06	527.96	2.0975e-07	2.4508e-07	583.62	183.99	2.0993e-07	2.5156e-07	225.35	96.144	78.913	38.104	2.3217e-07	47.655	478.809	194.413	271.738	179.254	317.873	312.715	177.729	184.337	248.723	268.529	182.366	186.316	189.293	195.214	240.832	190.862	-8191	255	
2862.580	1	1	0	0	0.15159	0.11952	0.11876	0.21099	0.028616	0.15604	0.16532	0.1483	0.21126	0.19078	0.066216	0.18369	0.20656	0.077014	0.15639	0.13472	-3.7771	-3.7958	-3.5542	-4.2333	-3.7188	-3.8417	-4.2688	-3.4625	-3.9625	-3.8083	-3.6771	-4.1438	-3.5604	-3.9562	-4.0875	-3.6354	267.201	332.912	283.860	455.300	451.476	523.156	485.821	510.479	257.229	301.228	219.865	388.422	389.433	486.950	490.639	323.877	0.0014684	0.00011739	4.5154e-05	616.81	1.7688e-06	2.2422e-06	699.56	235.06	2.4433e-06	4.4723e-07	297.47	127.15	102.43	49.218	4.765e-07	64.458	2.391e-05	2.3076e-05	5.8536e-06	530.55	2.2188e-07	2.5196e-07	586.4	186.55	2.2368e-07	2.4972e-07	225.78	96.194	78.677	37.79	2.2507e-07	47.233	479.070	234.608	301.669	179.285	308.488	243.259	177.767	184.523	268.620	305.898	182.473	186.655	189.438	195.278	241.045	191.225	-8191	255	
2862.676	1	1	0	0	0.22701	0.20449	0.063864	0.11104	0.10592	0.12574	0.066509	0.031746	0.21973	0.22374	0.061551	0.14598	0.14883	0.0041429	0.021541	0.255	-3.7333	-3.8917	-3.4188	-4.3917	-3.6042	-3.6958	-4.1729	-3.5563	-4.0167	-3.8333	-3.3375	-4.1354	-3.6792	-3.7229	-4.2896	-3.5292	286.900	407.798	340.327	515.853	469.809	331.712	391.244	502.605	308.397	461.601	464.099	509.326	471.594	410.676	390.816	426.855	0.0014035	9.9201e-05	4.5589e-05	610.97	1.7589e-06	1.8291e-06	691.63	230.65	1.2329e-06	1.3926e-06	292.64	125.5	100.87	48.564	1.0629e-06	64.155	2.5359e-05	2.229e-05	5.6225e-06	524.53	2.3969e-07	2.4262e-07	579.99	182.52	2.3973e-07	2.3834e-07	222.01	94.99	77.711	37.244	2.1763e-07	46.943	477.889	274.505	302.041	179.531	292.770	314.258	177.404	184.368	230.567	308.804	182.033	186.556	189.403	195.217	301.351	190.878	-8191	255	
2862.795	1	1	0	0	0.16002	0.16025	0.15703	0.27469	0.1615	0.057669	0.15194	0.089938	0.15702	0.13399	0.12189	0.11996	0.072548	0.12493	0.17757	0.077282	-3.5187	-3.9375	-3.4271	-4.1292	-3.7938	-3.7458	-4.1708	-3.5396	-3.9271	-3.875	-3.5792	-4.1917	-3.7021	-3.7583	-4.1521	-3.5958	292.377	481.181	302.191	401.651	332.470	501.774	384.805	239.412	407.917	289.896	190.650	219.579	442.786	480.294	226.884	169.960	0.0014681	0.0002076	5.9173e-05	614.06	1.6742e-06	1.2182e-06	696.62	232.9	1.2169e-06	1.1732e-06	295.14	125.95	102.16	49.227	1.6659e-06	64.555	2.6933e-05	2.1462e-05	5.5109e-06	527.03	2.5315e-07	2.3252e-07	583.54	184.29	2.549e-07	2.2628e-07	224.1	95.627	78.591	37.673	2.1132e-07	47.362	475.022	267.392	259.149	179.249	306.657	264.558	177.514	184.697	275.702	320.433	182.405	186.138	189.257	195.301	231.199	190.924	-8191	255	
2862.891	1	1	0	0	0.1478	0.055356	0.14773	0.17696	0.030413	0.055287	0.10276	0.35701	0.20327	0.084587	0.1205	0.15129	0.15668	0.1995	0.07438	0.1319	-3.4875	-3.9375	-3.5021	-3.9521	-3.8208	-3.7	-4.3187	-3.775	-3.725	-4.0687	-3.5375	-4.0708	-3.8792	-3.7458	-4.2771	-3.6854	323.862	311.262	472.681	260.598	468.392	477.839	379.591	389.138	268.228	271.530	470.508	452.871	463.093	264.979	270.283	445.878	0.0013341	0.00017183	4.7665e-05	625.24	8.1635e-07	1.7009e-06	706.61	238.51	2.2739e-06	1.3357e-06	303.46	129.62	105.82	50.883	1.2229e-06	66.451	2.7255e-05	2.09e-05	5.3032e-06	537.53	2.5448e-07	2.2639e-07	591.53	189.79	2.5182e-07	2.2242e-07	229.6	98.378	81.285	39.006	2.077e-07	48.595	477.738	228.783	238.325	179.083	301.543	294.838	177.572	184.825	266.888	298.881	182.405	186.471	189.479	195.349	250.636	190.540	-8191	255	
2862.962	1	1	0	0	0.13172	0.19202	0.11785	0.22872	0.018454	0.038465	0.15862	0.14094	0.11041	0.24352	0.11589	0.16602	0.07801	0.10473	0.20971	0.11839	-3.3833	-4.0479	-3.5354	-4.1417	-3.8917	-3.6375	-4.3083	-3.5854	-3.7375	-4.1354	-3.425	-4.1583	-4.0458	-3.6625	-4.0021	-3.8167	513.307	377.270	435.977	166.782	500.536	526.143	410.310	422.251	300.797	208.986	484.531	490.798	518.485	322.764	247.471	415.006	0.0013503	7.3524e-05	1.2011e-05	625.49	7.4155e-07	1.0591e-06	702.93	236.69	1.2441e-06	9.4715e-07	300.75	128.25	103.77	49.897	1.1979e-06	65.27	2.669e-05	1.9911e-05	5.2237e-06	537.22	2.4279e-07	2.1761e-07	590.27	188.83	2.3943e-07	2.1365e-07	227.24	97.442	79.797	38.239	2.114e-07	47.886	478.221	271.890	252.219	179.410	287.675	279.805	177.458	184.611	272.863	288.397	182.341	186.408	189.740	195.298	288.723	190.764	-8191	255	
2863.083	1	1	0	0	0.25592	0.029084	0.11109	0.1859	0.096258	0.25856	0.22128	0.22492	0.076496	0.23557	0.10671	0.052596	0.14832	0.30417	0.11919	0.18572	-3.2646	-4.1354	-3.4562	-3.9208	-3.9146	-3.5646	-4.2063	-3.9167	-3.6708	-4.1896	-3.6542	-4.0375	-3.9646	-3.7	-4.0875	-3.8271	178.884	355.561	265.780	180.920	174.408	442.329	169.061	490.004	460.736	239.652	467.696	381.773	220.633	487.837	437.513	193.497	0.0013567	0.00013646	4.1296e-05	617.93	5.7355e-07	1.5745e-06	700.73	235.98	1.3257e-06	1.1882e-06	299.33	127.81	103.57	49.709	2.5394e-06	65.267	2.5605e-05	1.9044e-05	5.5072e-06	532.09	2.296e-07	2.1297e-07	586.89	187.03	2.2993e-07	2.0345e-07	226.73	97.272	79.481	38.057	2.2878e-07	47.895	478.181	236.803	272.126	179.288	333.030	248.241	177.690	184.531	261.563	303.211	182.181	186.524	189.560	195.333	247.405	190.945	-8191	255	
2863.179	1	1	0	0	0.24119	0.17033	0.023135	0.32268	0.23637	0.1934	0.39705	0.12313	0.044417	0.088224	0.13447	0.037114	0.079598	0.21671	0.16073	0.2188	-3.3479	-4.2833	-3.5979	-3.8479	-4.1062	-3.4562	-4.125	-3.9979	-3.525	-4.2521	-3.8167	-3.8208	-4.2854	-3.625	-4.0042	-4	486.622	416.244	335.840	477.283	385.201	177.524	476.861	447.412	402.648	341.586	196.112	494.249	209.685	480.091	369.663	465.471	0.0013808	6.5639e-05	5.4723e-05	614.95	1.1522e-06	1.5236e-06	699.83	234.55	5.5333e-07	5.8346e-07	295.71	126.01	102.52	49.159	1.9884e-06	64.154	2.4603e-05	1.8306e-05	5.8095e-06	531.01	2.1741e-07	2.0398e-07	585.77	186.14	2.2312e-07	1.985e-07	224.79	95.92	78.561	37.548	2.464e-07	47.065	477.902	251.452	251.897	179.360	251.689	268.617	177.651	184.521	337.057	305.421	182.145	186.588	189.409	195.241	280.801	190.883	-8191	255	
2863.275	1	1	0	0	0.001117	0.20248	0.1973	0.23266	0.1526	0.068105	0.057896	0.094074	0.26475	0.1703	0.1886	0.099012	0.081941	0.31705	0.07221	0.17757	-3.0667	-4.1771	-3.8042	-3.7542	-4.1375	-3.55	-4.0521	-4.25	-3.5271	-4.2271	-3.8625	-3.7729	-4.1792	-3.7396	-3.9583	-4.0792	180.000	492.280	392.492	372.637	467.043	178.450	521.382	467.982	521.710	308.493	369.273	479.846	520.700	509.922	310.289	441.143	0.0013559	0.00015855	7.1985e-05	617.14	1.2683e-06	1.2811e-06	697.43	236.19	1.8993e-06	1.1155e-06	299.07	128.53	104.12	50.144	1.2241e-06	64.979	2.421e-05	1.8493e-05	6.2413e-06	530.29	2.1407e-07	2.0784e-07	585.75	187.43	2.1304e-07	2.0673e-07	227.1	97.358	79.983	38.266	2.4502e-07	47.703	482.815	234.329	255.225	178.935	278.531	322.083	177.526	184.621	270.784	292.692	182.197	186.427	189.632	195.259	280.663	190.948	-8191	255	
2863.371	1	1	0	0	0.20171	0.25462	0.39622	0.049297	0.16135	0.12454	0.061089	0.38272	0.16345	0.021171	0.10726	0.3577	0.20982	0.068805	0.15301	0.15051	-3.3083	-4.1125	-3.8208	-3.7313	-4.3667	-3.5229	-4.1083	-4.1229	-3.5458	-3.95	-4.1438	-3.4917	-4.2688	-3.6021	-3.7479	-4.2188	253.193	218.576	209.972	456.975	286.000	347.324	426.361	402.575	476.833	250.262	418.393	500.708	497.811	249.760	267.234	196.211	0.0013991	0.00017916	1.8213e-05	618.77	1.961e-06	1.242e-06	696.92	235.94	1.0261e-06	1.0584e-06	295.88	126.64	102.6	49.1	1.3125e-06	64.188	2.3206e-05	1.957e-05	6.4108e-06	531.99	2.063e-07	2.1807e-07	584.96	186.93	2.064e-07	2.2272e-07	225.46	96.118	78.666	37.637	2.4615e-07	47.013	474.934	205.269	239.653	179.221	339.205	246.333	177.558	184.589	259.324	276.205	182.477	186.347	189.372	195.165	260.083	190.801	-8191	255	
2863.492	1	1	0	0	0.16015	0.18665	0.083753	0.36271	0.19836	0.16196	0.12502	0.22034	0.085749	0.23099	0.13143	0.19367	0.17003	0.22081	0.20635	0.17151	-3.025	-4.0563	-3.8958	-3.7062	-4.1896	-3.6292	-3.8333	-4.2562	-3.4229	-4.0437	-3.8625	-3.6417	-4.2667	-3.7854	-3.6604	-4.2104	206.844	413.515	519.454	471.938	263.919	425.892	182.414	467.690	311.378	241.240	355.583	479.371	197.924	444.395	267.069	219.078	0.00138	0.00015798	4.4383e-05	613.32	2.5825e-06	8.3121e-07	695.87	232.1	2.0516e-06	1.4249e-06	293.88	126	101.67	48.678	1.3125e-06	63.375	2.2965e-05	2.0945e-05	6.1113e-06	525.9	2.0106e-07	2.36e-07	581.21	184.19	2.0899e-07	2.3489e-07	223.07	95.305	77.877	37.334	2.3708e-07	46.605	483.226	209.253	254.650	179.206	301.759	266.759	177.393	184.469	248.524	267.589	182.170	186.414	189.285	195.147	277.356	190.730	-8191	255	
2863.564	1	1	0	0	0.072824	0.15938	0.17953	0.18645	0.063492	0.10943	0.048824	0.080473	0.12368	0.16986	0.17841	0.2467	0.19449	0.081492	0.17814	0.19309	-3.1271	-3.8583	-4.0208	-3.5604	-4.0625	-3.7521	-3.7917	-4.2354	-3.5396	-3.7687	-4.0208	-3.6021	-4.0854	-3.8604	-3.6396	-4.0083	373.491	402.820	366.620	306.189	274.629	343.571	194.553	259.467	290.878	251.431	287.111	501.464	501.986	405.759	375.940	440.117	0.001453	0.00012294	3.828e-05	612.42	1.053e-06	8.4679e-07	697.44	232.8	1.2848e-06	8.6461e-07	294.98	125.13	101.67	48.989	1.5139e-06	64.053	2.3407e-05	2.2657e-05	5.845e-06	527.63	2.0902e-07	2.459e-07	584.3	184.61	2.1912e-07	2.4873e-07	223.44	95.121	78.255	37.472	2.2932e-07	46.848	478.959	226.404	279.917	179.376	284.903	300.905	177.691	184.436	263.092	297.137	182.115	186.401	189.425	195.295	285.890	190.759	-8191	255	
2863.660	1	1	0	0	0.097824	0.17199	0.14691	0.30842	0.098293	0.20873	0.026475	0.10597	0.15556	0.28921	0.044947	0.22174	0.25812	0.096632	0.20199	0.087921	-3.3646	-3.7729	-4.15	-3.6292	-4.1021	-4.1292	-3.6104	-4.2	-3.6521	-3.7313	-4.2562	-3.3958	-3.9958	-4.0375	-3.6417	-4.2792	441.302	177.338	469.859	484.329	487.332	193.169	226.032	482.884	445.957	224.717	497.960	507.145	435.988	520.032	471.998	525.382	0.001468	0.00012092	4.0604e-05	621.16	1.342e-06	1.8989e-06	700.84	238.48	1.3345e-06	1.4321e-06	301.11	128.72	105.19	50.604	9.5171e-07	65.624	2.5032e-05	2.3078e-05	5.7745e-06	534.7	2.3079e-07	2.4752e-07	588.14	188.81	2.3447e-07	2.4519e-07	227.97	97.607	81.025	38.794	2.2469e-07	48.042	479.568	238.343	272.297	179.454	270.712	295.533	177.453	184.558	239.865	299.052	182.491	186.523	189.522	195.338	303.501	190.896	-8191	255	
2863.756	1	1	0	0	0.19173	0.27861	0.22399	0.21511	0.20705	0.22601	0.074674	0.25667	0.35418	0.15362	0.26083	0.28689	0.086188	0.11929	0.079516	0.17879	-3.3354	-3.7333	-4.1396	-3.4313	-3.9896	-4.1937	-3.5917	-4.2125	-3.65	-3.6813	-4.2	-3.5438	-4.1188	-3.975	-3.5104	-4.1937	375.306	168.883	203.196	433.344	195.790	233.775	353.878	505.793	463.505	516.245	517.210	499.892	188.230	206.120	344.284	423.959	0.001482	9.5561e-05	6.4e-05	623.5	1.8132e-06	3.2692e-07	703.99	237.63	3.2671e-06	4.7402e-07	300.27	127.74	103.67	49.768	1.4299e-06	64.784	2.6472e-05	2.2191e-05	5.637e-06	535.54	2.461e-07	2.4062e-07	588.38	188.41	2.4992e-07	2.3651e-07	227.11	96.718	79.826	38.191	2.1932e-07	47.543	478.891	285.826	256.118	179.300	264.364	319.398	177.471	184.428	276.414	300.752	182.424	186.513	189.712	195.557	275.460	190.957	-8191	255	
2863.875	1	1	0	0	0.039271	0.034819	0.11071	0.13626	0.25083	0.27305	0.30109	0.14058	0.092295	0.052491	0.19888	0.087353	0.085339	0.2108	0.022397	0.10622	-3.1562	-3.6521	-4.075	-3.5896	-3.9354	-3.9875	-3.6521	-4.0687	-3.9188	-3.7229	-4.5083	-3.6188	-4.0208	-4.0312	-3.425	-4.2917	262.724	374.965	479.613	354.086	216.028	174.846	272.479	461.241	271.015	417.567	359.818	379.883	476.107	482.570	349.173	261.549	0.0013789	9.9241e-05	4.0959e-05	617.63	1.4237e-06	8.4015e-07	701.49	237.14	1.8506e-06	7.0642e-07	300.87	128.72	104.28	49.934	1.063e-06	64.99	2.7222e-05	2.0896e-05	5.4015e-06	532.45	2.5264e-07	2.2737e-07	587.23	188.31	2.5495e-07	2.2851e-07	227.43	97.232	80.242	38.235	2.1061e-07	47.63	477.338	244.496	255.645	179.037	302.110	322.911	177.624	184.593	290.170	273.605	182.449	186.384	189.467	195.377	215.832	190.745	-8191	255	
2863.971	1	1	0	0	0.1072	0.17771	0.33759	0.25544	0.11904	0.27509	0.12691	0.18438	0.14928	0.18986	0.15666	0.21655	0.21346	0.13994	0.097376	0.17841	-3.4979	-3.6417	-4.1417	-3.7271	-3.7896	-4.2188	-3.6813	-4.0042	-3.7604	-3.6458	-4.1104	-3.6813	-3.8688	-4.1708	-3.6479	-4.0021	504.590	521.097	427.743	224.377	497.850	211.902	428.709	463.802	443.822	314.080	459.306	454.620	247.424	486.979	497.208	475.028	0.0015173	5.2089e-05	3.5621e-05	622.37	1.602e-06	2.2787e-06	700.01	236.5	1.9941e-06	1.4134e-06	297.97	126.79	103.86	49.385	1.0506e-06	64.262	2.7005e-05	2.0597e-05	5.1722e-06	534.83	2.509e-07	2.1718e-07	586.66	187.85	2.4773e-07	2.2763e-07	225.42	96.253	79.592	37.808	2.1057e-07	47.186	478.083	209.131	271.796	179.272	286.377	304.375	177.610	184.535	312.848	347.311	182.240	186.418	189.543	195.161	263.402	190.779	-8191	255	
2864.067	1	1	0	0	0.056618	0.17668	0.15871	0.10313	0.1281	0.14881	0.32234	0.089371	0.11431	0.082871	0.29809	0.33298	0.045385	0.40357	0.067001	0.12105	-3.5729	-3.5271	-4.1562	-3.7	-3.6271	-4.3063	-3.575	-4.0146	-4.0667	-3.3104	-4.2729	-3.8083	-3.5479	-4.2937	-3.5479	-4.0083	428.150	240.324	331.436	179.046	310.887	234.372	456.616	180.805	183.602	318.556	445.550	431.546	184.525	442.505	435.672	479.082	0.0014874	0.00019403	5.0422e-05	620.75	8.8503e-07	1.5523e-06	700.59	239.05	2.0844e-06	1.1096e-06	301.07	128.79	105.2	50.117	2.226e-06	64.909	2.628e-05	2.0154e-05	5.189e-06	534.86	2.3681e-07	2.1225e-07	587.57	190.31	2.3153e-07	2.121e-07	227.98	97.493	80.644	38.456	2.2105e-07	47.727	479.467	275.034	255.834	179.275	298.408	320.976	177.788	184.314	267.413	293.207	182.425	186.361	189.503	195.449	248.194	191.013	-8191	255	
2864.163	1	1	0	0	0.17364	0.18671	0.16714	0.13943	0.064464	0.13267	0.16853	0.16128	0.20229	0.15635	0.065199	0.11644	0.15697	0.076583	0.15366	0.065574	-3.5542	-3.3937	-4.1458	-3.8604	-3.7542	-4.2688	-3.7625	-4.0542	-3.9875	-3.4229	-4.0292	-3.9208	-3.7396	-4.2458	-3.7854	-3.9854	242.373	295.552	336.018	367.744	476.364	342.176	387.356	436.913	381.204	273.295	170.353	286.621	518.842	190.270	377.742	495.403	0.001355	0.00012013	3.1701e-05	619.54	1.9506e-06	1.284e-06	696.66	236.78	2.6308e-06	1.728e-06	297.49	126.73	103.28	49.49	6.7539e-07	64.385	2.5066e-05	1.9398e-05	5.53e-06	532.39	2.2982e-07	2.0627e-07	584.14	187.84	2.2426e-07	2.0715e-07	225.41	96.299	79.158	37.723	2.3974e-07	47.092	479.782	230.724	221.895	179.195	297.680	258.391	177.462	184.409	288.368	300.102	182.015	186.639	189.342	195.390	281.195	190.674	-8191	255	
2864.260	1	1	0	0	0.28214	0.10203	0.093307	0.14078	0.05194	0.27383	0.10624	0.15162	0.053836	0.18216	0.079808	0.2333	0.10735	0.26913	0.23269	0.13453	-3.7292	-3.6896	-4.0292	-3.8563	-3.6229	-4.2854	-3.7083	-3.8542	-4.2375	-3.6958	-4.1083	-4.0604	-3.6042	-4.3562	-3.725	-3.9792	397.441	339.717	168.826	339.186	477.414	295.135	494.159	290.282	492.281	232.336	465.994	425.809	214.427	510.519	205.633	445.309	0.0013747	6.8611e-05	7.3231e-05	615.97	1.2373e-06	1.3073e-06	694.91	235.99	8.2551e-07	1.3561e-06	296.02	126.89	103.26	49.379	1.3112e-06	64.258	2.4297e-05	1.8907e-05	6.0644e-06	529.45	2.2261e-07	2.0033e-07	583.23	187.17	2.2088e-07	2.0457e-07	225.39	96.175	79.241	37.767	2.4861e-07	47.048	480.216	276.387	283.406	179.336	303.485	253.971	177.699	184.665	307.373	303.990	182.422	186.445	189.259	195.456	270.432	190.823	-8191	255	
2864.356	1	1	0	0	0.14043	0.20117	0.14488	0.28008	0.30847	0.10217	0.30599	0.092061	0.083328	0.24767	0.043711	0.21469	0.26832	0.16226	0.16516	0.13742	-3.6354	-3.5979	-4.0167	-4.0396	-3.4646	-4.1813	-3.9667	-3.825	-4.3042	-3.6	-3.9417	-3.9437	-3.6854	-4.3208	-3.8563	-3.6729	205.165	354.907	208.976	505.896	390.784	221.809	385.765	476.257	228.136	481.467	462.057	418.452	516.227	251.262	282.532	525.614	0.0013413	0.00015644	6.5872e-05	617.57	2.3488e-06	1.1402e-06	695.34	234.85	1.456e-06	3.8003e-07	295.88	125.25	102.82	48.753	9.4406e-07	63.571	2.3557e-05	1.9053e-05	6.3597e-06	530.65	2.1645e-07	2.1179e-07	583.38	186.19	2.1419e-07	2.1665e-07	224.49	95.136	78.682	37.435	2.5344e-07	46.746	479.146	241.991	226.632	179.311	322.579	261.684	177.371	184.658	280.834	294.550	182.381	186.263	189.292	195.218	271.776	190.732	-8191	255	
2864.476	1	1	0	0	0.14785	0.099224	0.058116	0.078593	0.063766	0.26437	0.083742	0.18624	0.1905	0.090852	0.15389	0.30587	0.093567	0.22726	0.212	0.13124	-3.9625	-3.6125	-3.9625	-4.3083	-3.5979	-4.1354	-3.925	-3.7812	-3.9813	-3.5646	-3.9437	-4.2958	-3.6875	-4.3125	-3.8771	-3.6771	460.284	178.681	248.443	438.981	365.800	353.592	185.170	496.245	278.695	266.632	473.725	447.899	412.906	462.488	208.647	384.644	0.0013775	5.8874e-05	4.1327e-05	621.05	1.3068e-06	2.3968e-06	693.31	239.24	1.7324e-06	8.2426e-07	299.06	128.01	104.78	49.763	1.2562e-06	64.458	2.313e-05	2.0838e-05	6.3317e-06	531.88	2.0812e-07	2.2647e-07	584.81	189.22	2.0921e-07	2.3447e-07	227.35	96.879	80.254	38.204	2.4943e-07	47.207	475.022	250.198	251.284	179.332	287.434	225.938	177.676	184.501	323.883	316.946	182.422	186.319	189.626	195.375	299.086	190.955	-8191	255	
2864.572	1	1	0	0	0.15231	0.096969	0.2926	0.13499	0.20995	0.17412	0.079124	0.058452	0.084443	0.014487	0.098819	0.049697	0.059268	0.13415	0.11259	0.072623	-3.9083	-3.6229	-3.7896	-4.1604	-3.5833	-3.975	-4.0062	-3.5667	-4.2188	-3.7375	-3.8542	-4.2021	-3.6104	-3.9562	-4.0687	-3.6688	490.994	525.394	245.459	494.250	383.300	339.096	496.049	185.217	386.850	329.723	191.300	428.525	431.688	512.825	372.520	498.212	0.0014075	0.00010778	6.5029e-05	616.68	1.0835e-06	2.695e-06	694.17	235.61	2.0845e-06	1.2318e-06	296.27	126.56	103.03	48.925	1.2347e-06	63.641	2.2823e-05	2.2216e-05	6.1128e-06	530.86	2.1165e-07	2.4486e-07	581.66	187.3	2.0777e-07	2.5056e-07	224.73	95.716	78.949	37.476	2.3292e-07	46.629	477.321	282.167	270.348	179.215	284.560	272.031	177.596	184.626	269.180	258.517	182.182	186.253	189.323	195.175	255.096	190.887	-8191	255	
2864.669	1	1	0	0	0.11615	0.12499	0.38801	0.19063	0.086953	0.24765	0.11518	0.25832	0.016908	0.28732	0.084359	0.090008	0.25016	0.095107	0.088739	0.19319	-3.8	-3.6354	-3.4854	-4.3229	-3.5542	-4.0021	-4.1021	-3.4771	-4.05	-3.8271	-3.6708	-4.0167	-3.5917	-4.1125	-4.0021	-3.5271	443.180	254.868	195.660	302.571	192.503	222.687	458.031	495.705	181.670	366.099	484.430	310.215	172.964	231.820	296.627	481.552	0.0014254	0.00021696	4.1792e-05	613.44	1.1587e-06	2.1244e-06	691.48	233.2	2.1993e-06	1.4161e-06	295.89	125.98	102.97	49.187	1.3379e-06	63.858	2.3713e-05	2.2968e-05	5.852e-06	526.73	2.1884e-07	2.4806e-07	579.86	185.47	2.1958e-07	2.5265e-07	224.32	95.651	79.132	37.671	2.2829e-07	46.744	477.896	280.869	290.517	179.319	321.982	286.128	177.431	184.640	273.988	284.572	182.558	186.386	189.332	195.434	258.389	191.033	-8191	255	
2864.788	1	1	0	0	0.20994	0.1088	0.16033	0.087571	0.15454	0.17847	0.27447	0.13933	0.17521	0.11423	0.14515	0.10433	0.13532	0.15213	0.12167	0.20068	-3.8271	-3.7687	-3.5687	-4.3229	-3.6125	-3.7188	-4.1625	-3.4104	-4.0979	-3.8187	-3.6375	-4.2875	-3.7792	-3.8167	-4.2521	-3.5083	441.587	277.189	368.353	284.570	233.496	315.491	418.344	368.197	186.070	171.960	376.842	213.208	468.437	345.827	374.562	466.459	0.0014501	0.00013685	6.7442e-05	617.91	9.2294e-07	9.0901e-07	697.85	235.91	2.1208e-06	1.4471e-06	297.63	127.15	104.11	49.649	1.9934e-06	64.483	2.5324e-05	2.3095e-05	5.7083e-06	531.43	2.4152e-07	2.4635e-07	584.23	187.33	2.4721e-07	2.4611e-07	225.7	96.16	80.078	38.024	2.2313e-07	47.298	478.004	254.532	242.252	179.385	315.767	243.372	177.439	184.753	254.689	323.082	182.303	186.394	189.201	195.207	269.717	190.883	-8191	255	
2864.859	1	1	0	0	0.21802	0.13127	0.1401	0.096297	0.3376	0.042761	0.12294	0.21086	0.23538	0.13098	0.14963	0.17617	0.19442	0.24988	0.14135	0.38782	-3.8438	-3.9229	-3.4313	-4.2	-3.7271	-3.65	-4.3	-3.6271	-3.9542	-3.9813	-3.6271	-4.2438	-3.8979	-3.7542	-4.0083	-3.6688	342.636	457.629	294.095	315.735	459.080	231.756	328.367	476.011	328.753	324.045	517.027	185.540	485.874	429.407	282.711	455.008	0.0013554	0.00020605	3.3307e-05	626.42	6.857e-07	1.4273e-06	704.07	243.51	8.8589e-07	2.0966e-06	304.84	130.35	106.41	50.711	2.1229e-06	65.459	2.6999e-05	2.2027e-05	5.6227e-06	538.93	2.5837e-07	2.384e-07	590.45	192.78	2.5781e-07	2.3381e-07	230.25	98.243	81.942	38.743	2.1263e-07	47.803	476.791	241.514	238.026	179.367	315.406	309.110	177.682	184.710	352.629	284.548	182.337	186.266	189.452	195.303	278.895	190.849	-8191	255	
2864.955	1	1	0	0	0.23399	0.092264	0.20541	0.30086	0.055678	0.06068	0.24254	0.14809	0.079285	0.20002	0.11621	0.30691	0.22911	0.17428	0.03942	0.21526	-3.4854	-3.9417	-3.4	-4.1208	-3.9104	-3.4437	-4.0542	-3.6979	-3.8979	-4.0437	-3.4875	-4.1042	-4.0687	-3.6833	-4.2896	-3.5896	289.174	321.276	403.149	510.531	441.499	522.627	434.649	243.938	383.257	461.285	489.939	441.590	475.042	507.759	399.163	437.731	0.0014477	0.00024882	4.6578e-05	626.21	2.2807e-06	8.0923e-07	705.57	239.4	1.8193e-06	3.8959e-07	299.74	128.18	104.52	49.884	1.4009e-06	64.597	2.7254e-05	2.0858e-05	5.4327e-06	537.24	2.6088e-07	2.3199e-07	588.44	190.24	2.5813e-07	2.2325e-07	227.45	97.241	80.56	38.11	2.128e-07	47.437	479.516	258.984	249.788	179.146	295.246	271.064	177.401	184.496	242.512	226.065	182.163	186.457	189.318	195.331	247.662	190.864	-8191	255	
2865.051	1	1	0	0	0.060093	0.1278	0.21122	0.17776	0.16737	0.16023	0.19106	0.23263	0.27973	0.22453	0.19214	0.095386	0.072009	0.040429	0.23432	0.4857	-3.3771	-4.0458	-3.5354	-4.1	-4.0292	-3.3083	-4.1708	-3.8104	-3.9583	-4.1125	-3.6875	-4.1104	-3.9229	-3.7	-4.2854	-3.9896	298.347	204.966	467.843	167.894	497.664	310.434	428.961	186.166	353.072	483.190	218.739	474.731	436.456	194.679	315.245	457.718	0.0013978	0.00011767	4.2768e-05	622.24	3.0214e-07	1.4849e-06	701.09	240.52	8.5297e-07	1.1707e-06	300.56	128.47	105.44	50.044	1.3819e-06	64.524	2.6813e-05	2.0376e-05	5.3329e-06	535.73	2.4801e-07	2.221e-07	586.59	191.03	2.4405e-07	2.1679e-07	228.1	97.765	81.072	38.276	2.1403e-07	47.516	479.951	246.622	240.363	179.217	309.785	310.240	177.707	184.623	281.687	327.729	182.317	186.228	189.406	195.270	277.424	190.905	-8191	255	
2865.172	1	1	0	0	0.16136	0.082593	0.071708	0.13815	0.048737	0.19695	0.034019	0.21713	0.12883	0.20306	0.18977	0.3673	0.027369	0.069849	0.31736	0.1917	-3.2708	-4.1229	-3.3833	-3.9458	-4.0188	-3.3896	-4.0833	-3.8312	-3.5979	-4.1917	-3.6063	-3.7792	-4.1062	-3.6792	-4.1146	-3.9208	286.203	402.929	319.864	491.196	384.742	331.157	299.915	467.312	370.010	299.475	446.771	525.554	444.894	410.154	476.852	450.712	0.0013412	8.3573e-05	3.6913e-05	621.29	2.1137e-06	2.2497e-07	700.84	238.93	1.9507e-06	8.6712e-07	299.14	127.14	104.48	49.55	1.0111e-06	64.18	2.6234e-05	1.9726e-05	5.5381e-06	535.92	2.3498e-07	2.152e-07	586.11	189.55	2.3857e-07	2.0753e-07	226.43	96.797	80.059	37.99	2.2634e-07	47.215	478.570	248.235	310.236	179.337	305.573	375.981	177.774	184.558	267.853	287.823	182.221	186.240	189.502	195.391	234.393	190.943	-8191	255	
2865.268	1	1	0	0	0.13264	0.096209	0.12566	0.010841	0.15879	0.13112	0.31284	0.27343	0.048465	0.13587	0.063295	0.10702	0.18741	0.29186	0.076414	0.047147	-3.0708	-4.1208	-3.6479	-3.8146	-4.0792	-3.4125	-4.0896	-4.0479	-3.5104	-4.2063	-3.7292	-4.0042	-4.175	-3.6958	-4.0708	-3.9729	287.644	230.419	187.002	306.540	309.215	489.792	493.255	512.641	473.040	458.708	404.419	332.070	176.657	298.140	512.203	372.278	0.0013003	0.00011424	5.8232e-05	621.51	9.9266e-07	1.9161e-06	696.41	242.17	5.2611e-07	1.4017e-06	302.63	129.66	105.48	50.334	8.7409e-07	64.874	2.4978e-05	1.927e-05	6.0144e-06	536.56	2.2893e-07	2.0936e-07	586.34	192.01	2.2959e-07	2.0562e-07	229.16	97.99	81.01	38.437	2.4566e-07	47.534	478.342	241.358	248.536	179.376	281.425	246.743	177.682	184.688	226.830	294.655	182.334	186.442	189.524	195.151	256.021	190.914	-8191	255	
2865.364	1	1	0	0	0.013348	0.21201	0.10092	0.12037	0.34172	0.14413	0.13607	0.041172	0.15353	0.11181	0.057488	0.21689	0.14493	0.11784	0.022572	0.14547	-3.1896	-4.0479	-3.6958	-3.8833	-4.2438	-3.5062	-3.8354	-3.8042	-3.6125	-4.1104	-3.9062	-3.8563	-4.2562	-3.5229	-3.875	-4.0875	209.042	303.452	399.597	372.836	213.269	413.583	440.967	411.637	253.833	377.357	464.633	201.705	272.156	320.300	336.896	351.476	0.0014514	7.864e-05	6.9386e-05	620.15	1.3309e-06	1.7369e-06	694.55	237.18	9.5171e-07	6.7384e-07	296.16	127.1	103.52	49.379	1.811e-06	64.134	2.4695e-05	1.8707e-05	6.3185e-06	534.1	2.2086e-07	2.1178e-07	583.15	188.48	2.2138e-07	2.0841e-07	226.32	96.428	79.432	37.769	2.5408e-07	47.089	476.861	229.169	235.638	179.091	308.803	261.161	177.574	184.596	295.748	292.988	182.387	186.343	189.325	195.235	260.961	190.704	-8191	255	
2865.436	1	1	0	0	0.077353	0.12441	0.19904	0.10947	0.028558	0.033903	0.18614	0.072039	0.33946	0.19245	0.28294	0.16703	0.040556	0.20459	0.11825	0.27521	-3.1854	-4.2729	-3.7812	-3.4729	-4.0875	-3.5125	-3.7396	-4.15	-3.3667	-3.9583	-3.8729	-3.5833	-4.2583	-3.6771	-3.9104	-4.2521	519.216	445.133	408.128	205.805	364.764	514.851	423.191	257.585	204.470	481.782	264.458	462.877	419.264	475.649	228.863	385.310	0.0013742	5.1568e-05	3.4892e-05	615.23	1.9982e-06	1.5745e-06	690.68	235.98	6.6467e-07	6.0256e-07	299.28	127.3	104.21	49.379	1.1563e-06	64.228	2.3654e-05	1.9795e-05	6.422e-06	530.08	2.0832e-07	2.2217e-07	581.46	187.49	2.1419e-07	2.2441e-07	226.72	96.608	79.887	37.811	2.5323e-07	46.961	482.581	295.052	252.166	179.392	314.748	305.343	177.450	184.316	305.946	287.988	182.210	186.551	189.322	195.379	255.754	191.070	-8191	255	
2865.557	1	1	0	0	0.18236	0.045094	0.26561	0.31009	0.046383	0.081079	0.16448	0.17595	0.11825	0.18078	0.088728	0.062263	0.18158	0.083545	0.11618	0.082354	-3.075	-4.0083	-3.9146	-3.6167	-4.1937	-3.7313	-3.9875	-4.0646	-3.3937	-3.8937	-3.925	-3.6333	-4.1625	-3.7542	-3.6896	-4.0167	483.202	442.557	410.195	414.260	419.406	438.602	336.636	245.741	368.142	357.702	499.385	385.128	303.477	519.693	169.766	445.745	0.0014108	0.00011607	6.6978e-05	619.56	1.0258e-06	1.0704e-07	696.76	236.26	1.6119e-06	5.4716e-07	295.82	126.68	103.99	49.218	1.2084e-06	63.954	2.3213e-05	2.1425e-05	6.3503e-06	532.23	2.062e-07	2.4051e-07	583.04	187.86	2.1348e-07	2.4791e-07	225.5	96.128	79.742	37.747	2.4539e-07	46.767	478.416	239.217	257.243	179.155	282.896	233.481	177.501	184.382	270.661	281.095	182.555	186.464	189.323	195.326	259.700	190.802	-8191	255	
2865.653	1	1	0	0	0.24743	0.1637	0.36559	0.29118	0.21334	0.13747	0.10565	0.27939	0.20382	0.17287	0.19587	0.093692	0.55077	0.22649	0.20813	0.27109	-3.2271	-3.7521	-3.8375	-3.6437	-4.1833	-3.5958	-3.6375	-4.0708	-3.5375	-4.0167	-3.9646	-3.4396	-4.1667	-3.9396	-3.5833	-4.0813	264.621	345.837	430.054	463.966	352.795	193.575	371.591	406.982	402.200	405.488	455.412	268.315	515.889	174.863	413.534	495.633	0.0013195	0.00015948	3.9388e-05	622.72	1.6078e-06	1.3593e-06	699.32	241.61	1.7805e-06	9.9571e-07	301.74	128.84	106.2	50.349	1.2049e-06	64.949	2.3826e-05	2.3181e-05	6.1085e-06	535.62	2.1719e-07	2.523e-07	586.38	191.23	2.1926e-07	2.5203e-07	229.13	97.835	81.441	38.578	2.3415e-07	47.461	479.759	213.750	260.265	179.378	293.718	322.786	177.871	184.524	267.455	276.377	182.400	186.279	189.278	195.311	287.324	190.778	-8191	255	
2865.749	1	1	0	0	0.14848	0.11226	0.084962	0.25697	0.10107	0.03394	0.16231	0.04002	0.25105	0.080784	0.042189	0.16716	0.044789	0.068455	0.21088	0.082677	-3.325	-3.8583	-4.2458	-3.4313	-4.0083	-3.8375	-3.4354	-4.2812	-3.5271	-3.8792	-3.9917	-3.5479	-4.1229	-3.8625	-3.5479	-4.1875	499.233	452.631	234.304	248.066	399.947	512.336	359.882	490.120	172.867	340.524	455.348	324.492	301.683	417.889	213.209	343.917	0.0014013	8.0153e-05	1.8684e-05	620.98	1.1369e-06	7.1193e-07	696.14	238.63	8.3973e-07	1.4594e-06	298.33	128.16	104.39	49.483	1.5864e-06	64.326	2.5167e-05	2.3166e-05	5.7797e-06	534.45	2.2679e-07	2.5242e-07	582.7	188.9	2.3905e-07	2.4878e-07	226.46	96.802	80.199	37.957	2.2992e-07	47.151	478.795	232.764	370.515	179.264	251.141	281.816	177.698	184.773	254.796	302.303	182.103	186.411	189.255	195.142	290.503	190.861	-8191	255	
2865.868	1	1	0	0	0.087179	0.074029	0.26573	0.041322	0.17964	0.16806	0.0094969	0.28171	0.19569	0.11125	0.10098	0.17277	0.13737	0.22408	0.17653	0.13516	-3.1375	-3.8625	-3.9979	-3.4437	-4.0458	-4.0437	-3.6458	-4.0875	-3.7417	-3.7917	-4.2083	-3.6083	-4.0604	-4.1042	-3.45	-4.2542	167.052	189.226	238.519	195.158	190.581	422.530	475.299	467.445	440.698	413.623	207.947	481.449	501.882	183.829	301.642	482.620	0.0014638	0.0001702	5.8011e-05	618.66	1.3445e-06	1.5642e-06	695.28	238.23	1.8018e-06	6.5719e-07	299.42	128.23	105.12	49.939	1.1385e-06	65.038	2.6693e-05	2.2723e-05	5.5967e-06	531.87	2.4937e-07	2.4296e-07	583.78	189.28	2.5473e-07	2.3744e-07	227.42	97.379	80.865	38.286	2.2036e-07	47.618	478.495	262.191	299.152	179.056	276.328	285.417	177.554	184.667	245.758	306.439	182.384	186.413	189.450	195.211	285.685	190.629	-8191	255	
2865.964	1	1	0	0	0.1628	0.17401	0.033906	0.20141	0.029763	0.071655	0.15076	0.1593	0.13843	0.14623	0.15575	0.18884	0.10879	0.15075	0.066278	0.088502	-3.4396	-3.6771	-4.1667	-3.5687	-3.7917	-3.95	-3.5917	-4.1354	-3.8958	-3.4667	-4.1937	-3.7229	-3.7771	-4.0646	-3.3937	-4.05	393.732	452.321	226.006	246.799	199.752	308.139	414.588	457.770	326.246	277.166	516.665	449.320	459.044	187.870	430.890	418.065	0.0014224	0.00017454	7.8832e-05	627.73	1.8571e-06	9.1865e-07	704.59	242.58	9.2991e-07	1.0786e-06	304.94	130.67	106.65	50.833	1.5521e-06	65.745	2.7655e-05	2.1641e-05	5.4337e-06	540.87	2.5834e-07	2.3416e-07	590.94	192.45	2.6175e-07	2.3313e-07	230.47	98.791	82.315	38.926	2.1521e-07	48.266	479.171	268.837	270.083	179.077	303.620	320.073	177.478	184.301	261.755	303.996	182.146	186.263	189.366	195.242	257.579	190.789	-8191	255	
2866.060	1	1	0	0	0.1478	0.086001	0.090014	0.11985	0.12261	0.039681	0.090755	0.20303	0.14988	0.070888	0.17735	0.085616	0.13564	0.11504	0.16277	0.35221	-3.5333	-3.4688	-4.0375	-3.6562	-3.7146	-4.0021	-3.4542	-3.9854	-3.95	-3.6271	-4.1229	-3.8167	-3.8167	-4.1021	-3.5542	-4.0417	526.511	186.879	347.957	433.134	372.581	270.566	326.577	456.895	491.290	500.795	448.865	227.291	449.999	315.061	458.282	520.338	0.0013827	0.00015083	6.4341e-05	631.48	1.1641e-06	1.1897e-06	705.47	244.06	2.2152e-06	1.0203e-06	307.36	131.13	107.38	50.825	1.5802e-06	65.78	2.7668e-05	2.1062e-05	5.2559e-06	543.46	2.5369e-07	2.227e-07	591.67	194.66	2.5503e-07	2.2423e-07	231.76	99.294	82.566	38.935	2.1279e-07	48.185	479.727	214.188	230.164	179.187	320.976	273.536	177.729	184.523	302.915	323.934	182.306	186.261	189.575	195.316	234.916	191.053	-8191	255	
2866.156	1	1	0	0	0.087822	0.067852	0.035149	0.077631	0.068719	0.096113	0.2667	0.05117	0.28514	0.23236	0.14744	0.11812	0.10967	0.097649	0.078567	0.074505	-3.5312	-3.5229	-4.2417	-3.8271	-3.7354	-4.1396	-3.6292	-3.9938	-3.9104	-3.5542	-4.2375	-3.8604	-3.8583	-4.0437	-3.4729	-3.9958	326.494	505.195	185.825	259.766	273.366	458.787	426.227	380.825	273.640	180.162	212.323	473.486	478.991	175.637	207.483	402.782	0.0014376	0.00014378	4.9397e-05	626.48	8.7773e-07	2.4007e-06	700.89	241.69	8.4718e-07	7.5986e-07	302.97	129.22	106.19	50.184	1.4961e-06	65.199	2.6762e-05	2.0445e-05	5.2953e-06	540.43	2.4483e-07	2.1672e-07	587.59	192.36	2.4007e-07	2.1687e-07	229.47	98.367	81.495	38.446	2.2296e-07	47.965	477.293	220.583	229.969	179.431	317.129	308.485	177.601	184.644	286.786	332.372	182.385	186.476	189.152	195.059	249.360	191.118	-8191	255	
2866.252	1	1	0	0	0.017292	0.035387	0.18148	0.14905	0.19855	0.15093	0.24082	0.088493	0.12705	0.065151	0.20654	0.12141	0.16866	0.033113	0.059384	0.060299	-3.7292	-3.4417	-4.0312	-3.7583	-3.6292	-4.1146	-3.5542	-3.9646	-3.9354	-3.4958	-4.2896	-3.8854	-3.6542	-4.2104	-3.6604	-3.9896	296.235	316.719	180.330	515.611	215.622	390.076	450.938	504.253	174.434	456.535	397.058	496.491	367.129	494.499	295.555	357.649	0.0014776	0.00013654	4.9644e-05	625.37	8.7595e-07	1.2047e-06	703.51	241.53	1.7815e-06	1.3802e-06	302.76	129.73	105.67	49.985	7.9359e-07	64.91	2.5404e-05	1.9417e-05	5.5999e-06	537.94	2.3158e-07	2.0483e-07	588.03	192.19	2.3274e-07	2.0829e-07	229.2	98.325	81.277	38.256	2.3989e-07	47.543	478.038	263.704	198.671	179.112	302.177	274.119	177.420	184.523	251.931	301.245	182.120	186.340	189.517	195.144	249.293	191.044	-8191	255	
2866.349	1	1	0	0	0.17816	0.081011	0.10452	0.15613	0.13022	0.28563	0.17871	0.075856	0.12271	0.06423	0.21349	0.11708	0.14678	0.21441	0.2226	0.042482	-3.6229	-3.5354	-3.8146	-3.8167	-3.35	-4.0521	-3.8729	-3.8542	-4.1729	-3.5771	-4.0583	-4.0979	-3.4062	-4.2729	-3.8271	-3.7625	481.619	334.795	208.393	480.858	173.684	233.216	455.577	270.380	435.532	470.515	392.589	500.265	209.937	205.334	483.348	403.195	0.0013167	0.00020151	6.4558e-05	624.24	1.7255e-06	8.7427e-07	697.07	239.34	1.5701e-06	1.0623e-06	301.15	128.27	105.29	49.899	1.6074e-06	64.514	2.5016e-05	1.9319e-05	6.0569e-06	537.21	2.2772e-07	2.0897e-07	585.73	190.56	2.2393e-07	2.1057e-07	228.28	97.589	80.868	38.145	2.5617e-07	47.462	476.975	250.702	258.241	179.236	335.310	326.510	177.586	184.689	292.492	294.028	182.179	186.250	189.322	195.101	282.160	190.851	-8191	255	
2866.469	1	1	0	0	0.12426	0.066479	0.063476	0.055023	0.18334	0.2114	0.21823	0.089121	0.078266	0.075773	0.14191	0.078457	0.085705	0.21651	0.28784	0.22159	-3.7271	-3.3625	-3.9542	-3.9188	-3.5062	-4.0021	-3.8875	-3.6292	-4.175	-3.6312	-3.8854	-4.1146	-3.3688	-4.1458	-3.8688	-3.7458	422.025	236.017	235.561	300.884	347.813	199.225	428.026	503.949	475.157	334.248	504.460	524.830	273.022	489.877	482.936	465.154	0.0013443	7.1679e-05	5.8172e-05	625.81	1.7753e-06	1.1378e-06	701.18	243.72	1.9985e-06	6.5569e-07	303.33	130.94	107	50.428	8.5523e-07	65.047	2.4133e-05	1.9597e-05	6.4731e-06	538.78	2.2153e-07	2.1244e-07	589.16	193.49	2.1705e-07	2.2362e-07	231.38	99.038	82.117	38.665	2.6282e-07	47.715	476.230	261.020	246.730	179.213	310.116	295.691	177.401	184.514	290.596	286.355	182.220	186.392	189.631	195.430	286.374	190.651	-8191	255	
2866.565	1	1	0	0	0.050563	0.17185	0.10532	0.035835	0.056574	0.068522	0.25164	0.09115	0.088351	0.27662	0.21279	0.10706	0.14294	0.099087	0.28471	0.14955	-3.8458	-3.6937	-3.7375	-4.0208	-3.5438	-4.225	-3.9562	-3.6292	-4.2833	-3.5563	-3.975	-4.2375	-3.4208	-4.1021	-3.9229	-3.5521	420.489	463.470	342.737	422.009	304.787	177.534	397.391	467.425	418.850	172.160	295.117	198.320	361.111	499.650	311.840	426.756	0.0013645	6.4547e-05	5.0349e-05	619.27	1.9591e-06	1.4543e-06	695.21	239.55	1.8304e-06	6.0804e-07	300.63	128.37	104.68	49.506	3.0639e-07	64.262	2.3517e-05	2.134e-05	6.42e-06	533.44	2.1264e-07	2.2749e-07	584.33	189.95	2.0906e-07	2.3726e-07	227.82	97.153	80.404	38.03	2.4898e-07	47.306	477.127	218.355	233.555	179.206	324.072	282.248	177.616	184.701	281.545	326.986	182.449	186.345	189.310	195.349	260.027	191.055	-8191	255	
2866.662	1	1	0	0	0.10922	0.34176	0.034336	0.3018	0.15704	0.035769	0.079356	0.25127	0.051257	0.10983	0.14147	0.27712	0.18542	0.07436	0.20083	0.074906	-3.7708	-3.7396	-3.7562	-4.2208	-3.6562	-3.9396	-3.9604	-3.4396	-4.0938	-3.7396	-3.7229	-4.1333	-3.6167	-4.0875	-4.0646	-3.7604	179.963	279.807	368.897	502.899	466.413	369.722	422.257	451.493	267.724	197.371	177.997	477.076	404.204	413.238	364.205	481.860	0.0014542	5.4062e-05	7.3748e-05	616.89	1.8381e-06	1.0115e-06	694.5	237.99	2.9839e-06	1.0055e-06	299.81	128.1	105.31	49.806	1.6017e-06	64.533	2.32e-05	2.2238e-05	6.2131e-06	531.39	2.1286e-07	2.4714e-07	581.97	189.19	2.1346e-07	2.5156e-07	227.44	97.034	80.544	38.125	2.378e-07	47.393	477.148	386.508	263.801	179.451	274.716	311.512	177.415	184.442	287.964	257.594	182.220	186.142	189.371	195.330	243.939	191.075	-8191	255	
2866.733	1	1	0	0	0.14295	0.13028	0.064231	0.1183	0.065251	0.20662	0.21518	0.11706	0.051629	0.099502	0.09254	0.17736	0.18834	0.13001	0.060471	0.016616	-3.825	-4.0417	-3.5812	-4.3667	-3.5812	-3.9833	-4.1646	-3.4667	-4.1333	-3.8771	-3.6562	-4.2146	-3.6042	-3.9313	-4.1521	-3.6	423.513	411.295	347.466	174.718	225.737	198.002	419.612	437.361	364.480	181.426	462.112	264.205	226.108	171.077	220.610	333.373	0.001466	8.9968e-05	4.5416e-05	627.89	1.723e-06	2.3718e-06	706.05	240.89	1.476e-06	1.8379e-06	304.19	130.36	107.19	51.169	1.7848e-06	65.681	2.4308e-05	2.3391e-05	5.9722e-06	539.3	2.2813e-07	2.5743e-07	590.75	191.5	2.3559e-07	2.5814e-07	230.89	98.515	82.356	39.12	2.3342e-07	48.322	479.141	245.035	251.216	179.259	290.959	253.037	177.735	184.648	292.565	307.690	182.284	186.445	189.327	195.175	254.588	190.863	-8191	255	
2866.829	1	1	0	0	0.34163	0.17039	0.14774	0.11137	0.11072	0.08734	0.24548	0.13984	0.19564	0.1536	0.19671	0.32157	0.075894	0.076147	0.22186	0.17088	-3.7021	-3.7313	-3.4354	-4.2583	-3.7229	-3.8646	-4.0896	-3.6354	-4.1042	-3.9417	-3.6521	-4.2125	-3.7354	-3.8312	-4.0292	-3.5042	488.681	342.593	343.349	344.631	222.755	261.825	453.187	276.332	257.283	332.660	403.076	458.574	498.988	354.507	367.311	413.731	0.0014442	0.00018938	6.4994e-05	637.39	1.837e-06	1.0306e-06	711.75	247.25	8.4993e-07	1.024e-06	307.74	131.97	108.32	51.135	1.7893e-06	66.192	2.5939e-05	2.3495e-05	5.9854e-06	546.26	2.4263e-07	2.5274e-07	595.94	195.8	2.4596e-07	2.4992e-07	233.26	99.714	83.107	39.299	2.217e-07	48.518	477.065	223.959	264.005	179.338	297.737	343.727	177.751	184.614	236.014	323.268	182.325	186.578	189.534	195.427	274.754	190.783	-8191	255	
2866.948	1	1	0	0	0.076133	0.019638	0.11175	0.061674	0.075263	0.21417	0.17777	0.19345	0.098641	0.10732	0.21744	0.082937	0.18708	0.19155	0.25547	0.067032	-3.7708	-3.8958	-3.3854	-4.2292	-3.6042	-3.7687	-4.2188	-3.5	-3.9083	-4.1125	-3.625	-4.2104	-3.8354	-3.7313	-4.1438	-3.5312	311.166	502.723	356.930	357.658	186.793	297.008	364.008	407.606	474.444	196.172	525.993	408.031	467.875	438.154	517.889	201.233	0.00151	9.6932e-05	4.2687e-05	629.84	2.9502e-07	1.1649e-06	710.1	242.8	2.4743e-06	9.4265e-07	303.72	130.68	106.98	50.696	1.8891e-06	66.211	2.7464e-05	2.2196e-05	5.6143e-06	542.58	2.6003e-07	2.384e-07	593.19	192.71	2.6049e-07	2.377e-07	230.5	98.674	82.084	38.831	2.1585e-07	48.412	477.547	233.520	264.329	179.129	332.860	269.705	177.830	184.549	245.142	339.972	182.637	186.611	189.583	195.202	271.003	190.908	-8191	255	
2867.044	1	1	0	0	0.15741	0.061653	0.20699	0.15456	0.19593	0.09429	0.1076	0.10545	0.14219	0.14212	0.030185	0.156	0.15717	0.20543	0.076926	0.21344	-3.6583	-3.9479	-3.45	-4.1146	-3.8542	-3.65	-4.1542	-3.6437	-3.8104	-4.0521	-3.5104	-4.0208	-3.8583	-3.7271	-4.1979	-3.8646	272.567	489.845	521.426	315.588	184.150	437.265	184.932	516.820	330.676	490.108	507.353	462.831	208.556	519.053	221.634	508.340	0.00154	0.00014024	4.8059e-05	630.54	8.4812e-07	1.2253e-06	707.24	242.64	1.0293e-06	1.9848e-06	303.88	130.23	106.29	50.73	6.5121e-07	65.797	2.8049e-05	2.1394e-05	5.3491e-06	541.27	2.6004e-07	2.2889e-07	592.06	192.62	2.5381e-07	2.2743e-07	230.35	98.729	81.858	38.739	2.0794e-07	48.223	480.323	271.741	260.904	179.375	373.521	303.760	177.594	184.468	253.302	329.410	182.220	186.536	189.473	195.160	290.944	190.826	-8191	255	
2867.141	1	1	0	0	0.12555	0.18691	0.26828	0.11869	0.020791	0.24803	0.28801	0.2561	0.14559	0.11179	0.14721	0.21013	0.14021	0.19744	0.19358	0.13518	-3.4375	-4.1021	-3.2771	-4.0167	-3.8125	-3.6104	-4.3521	-3.6354	-3.7271	-4.325	-3.6375	-4.1021	-3.9354	-3.7	-4.075	-3.8312	170.781	396.557	431.386	292.266	451.480	300.970	410.624	213.413	275.381	473.297	277.058	425.795	174.432	184.423	303.528	475.501	0.00136	0.00021646	2.7394e-05	628.03	1.6665e-06	2.0585e-06	703.2	240.75	2.3343e-06	1.9019e-06	302.96	129.11	106.24	50.316	1.9629e-06	65.803	2.7144e-05	2.036e-05	5.3808e-06	540.98	2.4998e-07	2.2089e-07	588.9	191.55	2.5101e-07	2.1808e-07	229.2	98.179	81.563	38.633	2.1338e-07	48.184	479.340	262.500	257.478	179.264	316.842	309.836	177.332	184.541	291.547	284.905	182.334	186.471	189.392	195.339	242.734	190.851	-8191	255	
2867.261	1	1	0	0	0.13838	0.14319	0.11325	0.33454	0.10211	0.090256	0.24657	0.19128	0.16456	0.028071	0.070305	0.28871	0.15915	0.20691	0.049891	0.12674	-3.2687	-4.1625	-3.7021	-4.0521	-4.0375	-3.5125	-4.2271	-3.8521	-3.7792	-4.2271	-3.7	-3.9562	-4.0354	-3.5146	-4.05	-4.0229	194.224	216.912	400.137	452.155	199.692	507.855	463.946	246.077	352.747	237.653	328.627	174.993	312.487	490.076	171.834	346.339	0.0014937	9.5955e-05	2.5883e-05	632.33	2.2222e-06	1.3138e-06	706.84	246.29	1.7204e-06	1.7795e-06	305.99	131.32	107.91	50.936	1.5324e-06	65.704	2.6252e-05	1.9699e-05	5.44e-06	544.11	2.3614e-07	2.1775e-07	591.46	195.23	2.3398e-07	2.107e-07	232.57	99.803	82.753	39.024	2.2931e-07	48.362	483.548	256.070	261.215	179.040	323.569	305.083	177.619	184.666	273.190	303.371	182.034	186.298	189.555	195.129	268.688	190.955	-8191	255	
2867.333	1	1	0	0	0.30699	0.102	0.17624	0.087183	0.12186	0.23674	0.31837	0.24607	0.2642	0.071545	0.25806	0.11417	0.098758	0.18792	0.12087	0.19429	-3.1625	-4.0125	-3.5833	-3.825	-4.0792	-3.4813	-4.1875	-3.8167	-3.4437	-4.3396	-3.575	-3.8542	-4.1188	-3.6417	-4.1375	-3.9771	370.476	173.185	256.696	408.564	398.220	282.064	261.254	452.797	377.351	263.285	481.301	408.216	497.448	179.799	368.159	332.658	0.0015069	0.00016044	3.77e-05	626.82	2.1118e-06	1.0157e-06	700.94	242.68	1.115e-06	1.8194e-06	303.87	129.53	106.25	50.208	1.6316e-06	65.135	2.5163e-05	1.927e-05	5.87e-06	539.56	2.2852e-07	2.1224e-07	587.28	192.51	2.285e-07	2.0495e-07	229.93	98.591	81.394	38.357	2.4393e-07	47.935	479.757	269.331	219.560	179.075	320.677	251.921	177.714	184.614	247.209	297.141	182.285	186.705	189.237	195.302	264.853	190.754	-8191	255	
2867.429	1	1	0	0	0.023094	0.17873	0.20492	0.07507	0.23193	0.12439	0.19579	0.071095	0.018379	0.23256	0.21152	0.19629	0.098633	0.15376	0.16038	0.12054	-3.2396	-4.1042	-3.7625	-3.6	-4.3375	-3.4396	-3.8792	-4.0979	-3.4375	-4.1125	-3.6312	-3.6229	-4.2354	-3.5729	-3.8917	-4.1062	459.793	472.520	241.113	471.874	420.927	252.338	182.872	201.005	508.244	442.807	174.349	491.611	237.537	519.526	215.861	346.664	0.0014096	0.00013087	6.619e-05	623.05	2.5741e-06	1.4402e-06	699.28	240.25	9.5949e-07	1.4222e-06	303.23	129.69	105.92	50.182	2.0694e-06	65.176	2.4426e-05	1.8887e-05	6.3029e-06	536.56	2.2185e-07	2.1425e-07	586.14	191.45	2.2428e-07	2.0801e-07	230.28	98.478	81.069	38.3	2.5377e-07	47.762	481.096	262.905	234.420	179.342	292.271	252.013	177.414	184.393	246.758	317.367	182.406	186.203	189.578	195.337	253.383	190.705	-8191	255	
2867.550	1	1	0	0	0.14694	0.20004	0.25137	0.22561	0.12048	0.17893	0.025151	0.2432	0.13526	0.29991	0.12269	0.19171	0.23216	0.13931	0.16632	0.041769	-3.0042	-3.9271	-3.8292	-3.5667	-4.175	-3.525	-4.0979	-4.0188	-3.3333	-4.1542	-3.85	-3.7062	-4.2583	-3.8333	-3.8312	-3.9313	443.220	478.224	201.963	479.578	231.465	446.212	316.090	356.914	262.610	254.997	462.028	455.068	520.415	524.090	415.528	383.826	0.0014249	0.00014982	8.4673e-06	622.4	7.0654e-07	7.2683e-07	699.73	240.89	1.729e-06	1.3456e-06	304	129.92	106.02	50.29	1.9774e-06	65.295	2.3863e-05	2.0086e-05	6.4608e-06	535.98	2.1505e-07	2.2485e-07	587.65	190.65	2.1705e-07	2.2676e-07	230.59	98.267	81.337	38.427	2.618e-07	47.985	481.045	183.760	252.827	179.379	297.951	229.491	177.701	184.316	262.584	250.089	182.344	186.387	189.337	195.259	289.770	190.862	-8191	255	
2867.646	1	1	0	0	0.21829	0.26315	0.15014	0.075443	0.1302	0.20056	0.058565	0.32609	0.31652	0.15108	0.34324	0.019898	0.099737	0.21155	0.14728	0.11563	-3.0021	-4.0375	-3.85	-3.75	-4.1729	-3.6396	-3.8063	-4.0979	-3.4583	-4.0542	-4.0188	-3.4958	-4.2458	-3.7646	-3.6208	-4.275	356.433	284.453	388.326	449.120	457.566	205.856	469.629	480.483	167.225	366.002	353.590	378.210	455.473	496.279	198.164	506.222	0.0013295	0.00013545	6.7325e-05	630.92	1.5222e-06	2.6106e-06	706.11	245.56	1.4315e-06	1.2967e-06	308.74	132.66	107.9	51.317	1.2566e-06	66.468	2.3801e-05	2.1977e-05	6.4056e-06	543.03	2.1264e-07	2.4289e-07	592.78	194.95	2.1226e-07	2.4193e-07	234.39	100.25	83.118	39.329	2.4511e-07	48.691	482.323	177.163	270.119	179.324	299.178	259.847	177.884	184.626	255.003	287.549	182.238	186.201	189.442	195.125	248.926	190.890	-8191	255	
2867.740	1	1	0	0	0.24286	0.061655	0.089755	0.25743	0.11264	0.12191	0.12008	0.21387	0.14035	0.18324	0.15383	0.11194	0.10845	0.065602	0.14805	0.20723	-3.0625	-3.9708	-4.0417	-3.5521	-4.1729	-3.5812	-3.8312	-4.2083	-3.6604	-3.9458	-4.0979	-3.5917	-4.1479	-3.8312	-3.6708	-4.1771	497.053	280.213	223.217	469.474	294.993	402.670	390.685	503.615	328.623	303.425	299.006	230.960	224.878	173.368	346.370	423.491	0.0014263	0.00014171	6.1535e-05	631.29	8.3706e-07	1.3644e-06	704.29	242.68	2.1119e-06	1.7352e-06	306.83	131.27	107.52	50.826	1.8544e-06	66.835	2.4139e-05	2.2965e-05	6.1439e-06	542.96	2.1484e-07	2.5561e-07	592.18	192.81	2.2583e-07	2.5469e-07	232.41	99.64	82.337	38.994	2.3729e-07	48.816	479.236	224.248	251.978	179.418	270.275	328.379	177.588	184.246	271.947	292.105	182.319	186.568	189.551	195.308	328.448	190.781	-8191	255	
2867.838	1	1	0	0	0.015134	0.040251	0.16397	0.10277	0.14385	0.3386	0.15241	0.039585	0.12605	0.095572	0.23156	0.30924	0.13408	0.21895	0.11688	0.11228	-3.275	-3.8187	-3.8917	-3.4542	-4.0938	-3.8812	-3.6646	-4.2812	-3.6063	-3.7708	-3.9875	-3.525	-4.2521	-3.8958	-3.5417	-4.1083	265.532	319.211	315.113	197.831	250.573	426.744	326.173	281.550	216.829	216.847	464.337	478.071	468.495	461.580	419.014	182.924	0.0014846	0.00017992	4.1221e-05	628.75	1.1305e-06	2.2789e-06	702.97	244.29	1.5756e-06	8.5525e-07	308.86	131.46	107.35	51.086	1.2768e-06	66.892	2.494e-05	2.3179e-05	5.7917e-06	540.38	2.3155e-07	2.5146e-07	591.91	193.57	2.3965e-07	2.5035e-07	233.38	100.05	82.527	39.199	2.2841e-07	48.871	477.716	257.068	255.210	179.430	334.813	315.491	177.649	184.616	253.812	330.805	182.481	186.572	189.409	195.291	250.623	190.998	-8191	255	
2867.957	1	1	0	0	0.16315	0.15624	0.026756	0.075361	0.3257	0.18817	0.23788	0.20212	0.10778	0.37823	0.16283	0.16161	0.20444	0.16956	0.090479	0.12352	-3.2208	-3.7375	-4.0062	-3.5312	-4.05	-4.0146	-3.5021	-4.2479	-3.8271	-3.6521	-4.1813	-3.5583	-3.9562	-3.9708	-3.4646	-4.3354	477.797	339.655	186.329	192.059	293.609	405.966	415.201	521.987	172.400	509.843	422.891	247.216	494.827	456.034	480.281	336.960	0.0015823	0.00017856	6.3141e-05	628.59	9.3547e-07	2.4403e-06	707.98	243.28	1.6221e-06	5.7338e-07	305.74	131.19	107.55	51.012	1.5985e-06	66.734	2.6275e-05	2.216e-05	5.614e-06	540.15	2.4403e-07	2.4226e-07	592.03	192.54	2.5435e-07	2.4099e-07	232.03	99.486	82.572	39.039	2.2386e-07	48.805	479.427	275.993	279.857	179.284	298.701	316.231	177.819	184.505	250.262	305.585	182.333	186.470	189.432	195.430	299.046	191.060	-8191	255	
2868.029	1	1	0	0	0.13167	0.092022	0.28214	0.13551	0.24077	0.0075926	0.12663	0.13912	0.17557	0.23998	0.10017	0.19636	0.12331	0.22015	0.11979	0.23978	-3.4813	-3.7771	-3.9604	-3.5896	-4.0792	-4.0188	-3.5812	-4.2146	-3.8167	-3.7292	-4.125	-3.5792	-4.0271	-4.2	-3.5563	-4.1042	313.098	328.246	377.025	499.102	344.578	360.963	269.559	382.943	483.635	394.385	485.923	438.042	259.809	480.449	250.109	413.996	0.0015333	0.00013704	5.944e-05	631.4	1.5917e-06	6.1807e-07	708.88	246.04	9.6848e-08	3.7796e-07	309.31	133.44	108.23	51.321	1.0342e-06	66.687	2.777e-05	2.1499e-05	5.4651e-06	543.89	2.5621e-07	2.2849e-07	593.36	195.49	2.5982e-07	2.325e-07	234.29	100.77	83.267	39.369	2.1559e-07	49.084	479.363	228.187	223.834	179.477	313.466	308.913	177.802	184.398	187.629	255.255	182.735	186.629	189.557	195.189	278.971	190.956	-8191	255	
2868.149	1	1	0	0	0.058275	0.035222	0.1462	0.24621	0.15928	0.084772	0.054166	0.21681	0.028711	0.20265	0.19895	0.045396	0.11225	0.18039	0.20843	0.11923	-3.4604	-3.6208	-4.1708	-3.6208	-3.8333	-4.0833	-3.4083	-4.1417	-3.8271	-3.4562	-4.3875	-3.6688	-3.8854	-4.1854	-3.4562	-4.0771	476.590	211.680	282.644	252.683	443.905	477.727	225.760	204.798	359.924	407.907	212.371	487.499	500.961	235.042	504.098	172.116	0.0014672	0.00011499	5.0599e-05	629.37	1.99e-06	2.2741e-06	702.77	242.2	1.7987e-06	1.1425e-06	303.99	130.94	106.24	50.363	1.2066e-06	66.167	2.7818e-05	2.1303e-05	5.35e-06	540.24	2.5738e-07	2.2471e-07	588.94	192.56	2.5517e-07	2.2827e-07	231.15	99.389	82.079	38.694	2.1526e-07	48.636	482.797	280.651	274.740	179.341	302.632	318.942	177.566	184.378	296.192	265.396	182.230	186.536	189.301	195.247	283.502	190.959	-8191	255	
2868.245	1	1	0	0	0.25597	0.12535	0.18015	0.028603	0.15764	0.18305	0.12156	0.2145	0.17613	0.19813	0.14673	0.08321	0.14921	0.041255	0.25298	0.20006	-3.4583	-3.5979	-4.3042	-3.6792	-3.6625	-4.1479	-3.5542	-4.1375	-4.2396	-3.5771	-4.3	-3.6583	-3.6271	-4.3375	-3.5812	-3.9667	213.139	230.213	214.837	295.970	375.835	412.902	262.159	219.532	272.484	412.646	497.480	458.750	370.880	506.387	411.356	183.083	0.001422	0.0001217	2.2229e-05	626.6	1.3314e-06	1.6702e-06	703.54	242.82	1.019e-06	1.9765e-07	305.01	131.27	106.6	50.361	6.0249e-07	65.688	2.7374e-05	2.0498e-05	5.3981e-06	538.88	2.4865e-07	2.2307e-07	587.92	193.43	2.4814e-07	2.2383e-07	231.13	99.614	81.977	38.535	2.2712e-07	48.269	476.359	303.678	254.255	179.310	295.755	313.193	177.496	184.441	281.292	353.377	182.497	186.424	189.414	195.344	218.492	190.834	-8191	255	
2868.342	1	1	0	0	0.21956	0.068208	0.23494	0.13301	0.030523	0.15559	0.23397	0.15531	0.15205	0.15571	0.052408	0.031213	0.13016	0.023664	0.11492	0.29708	-3.5729	-3.4854	-4.0604	-3.9229	-3.6167	-4.1917	-3.7292	-3.9562	-4.025	-3.6729	-4.2312	-3.825	-3.5792	-4.2417	-3.4146	-4.0083	213.344	256.750	462.619	325.897	394.739	247.405	414.763	202.939	222.126	452.740	339.506	419.087	194.557	433.921	247.715	353.356	0.0014443	0.00020524	3.3121e-05	622.99	6.939e-07	1.4849e-06	700.04	240.5	1.1343e-06	1.2244e-06	302.82	129.35	105.8	49.964	1.1442e-06	65.668	2.5793e-05	1.9909e-05	5.7786e-06	537.11	2.3659e-07	2.129e-07	585.53	191.33	2.364e-07	2.1648e-07	229.26	98.27	81.2	38.207	2.444e-07	48.259	480.711	259.791	281.007	179.124	258.837	299.088	177.465	184.238	271.179	320.221	182.155	186.741	189.329	195.271	223.168	191.161	-8191	255	
2868.438	1	1	0	0	0.17244	0.064835	0.071378	0.49324	0.21331	0.18926	0.12968	0.13897	0.080083	0.22623	0.2169	0.11384	0.11051	0.10919	0.37137	0.19866	-3.9	-3.5042	-4.1646	-4.1312	-3.6937	-4.1917	-3.7083	-3.8688	-4.1875	-3.5479	-3.9979	-3.9854	-3.6646	-4.2917	-3.675	-3.7979	248.110	476.496	323.753	430.844	379.274	323.496	284.252	450.624	269.783	218.137	338.177	424.680	180.966	488.623	468.807	433.620	0.0013834	5.6183e-05	8.0471e-05	627.23	9.9056e-07	1.5304e-06	701.99	246.34	1.7058e-06	1.0014e-06	308.53	133.78	109.04	51.629	1.0212e-06	67.351	2.5496e-05	1.9456e-05	6.2872e-06	541	2.2864e-07	2.0994e-07	590.17	195.8	2.287e-07	2.1232e-07	235.46	101.3	83.794	39.55	2.578e-07	49.506	479.187	231.721	216.269	179.308	322.562	300.566	177.695	184.691	271.901	354.489	182.352	186.440	189.320	195.403	263.742	190.748	-8191	255	
2868.534	1	1	0	0	0.18502	0.086759	0.088681	0.14752	0.13816	0.15172	0.054297	0.14654	0.019468	0.24214	0.11828	0.14665	0.33691	0.25029	0.29079	0.065171	-3.975	-3.4417	-4.0521	-4.05	-3.6	-4.1271	-3.7875	-3.5604	-4.2229	-3.6875	-4.0854	-4.0146	-3.5625	-4.4146	-3.875	-3.7583	461.431	433.903	293.219	462.283	295.770	409.521	447.243	478.160	232.966	381.779	476.828	445.182	496.235	167.764	413.228	441.003	0.0015005	5.8224e-05	3.6696e-05	627.58	1.6032e-06	1.2994e-06	705.27	244.55	1.7682e-06	1.2644e-06	307.03	132.33	107.65	51.022	2.3873e-06	66.875	2.4611e-05	1.9673e-05	6.5891e-06	540.83	2.253e-07	2.1646e-07	592.61	194.9	2.1956e-07	2.266e-07	234.64	100.5	82.79	39.113	2.6601e-07	49.148	478.762	224.556	212.593	179.328	308.614	323.765	177.805	184.635	282.341	291.418	182.285	186.583	189.398	195.195	264.869	191.161	-8191	255	
2868.630	1	1	0	0	0.044722	0.29826	0.1985	0.33289	0.2309	0.042613	0.088218	0.22583	0.16287	0.23133	0.017105	0.20897	0.17961	0.1874	0.12303	0.11093	-3.7708	-3.5833	-3.8583	-4.275	-3.3979	-4.1479	-3.8771	-3.5917	-4.1208	-3.7	-3.9562	-4.1604	-3.5396	-4.1083	-3.7583	-3.6375	270.238	475.627	387.847	523.694	402.438	224.227	520.111	516.463	364.748	210.862	509.230	482.161	459.536	433.066	170.264	385.913	0.00145	8.389e-05	4.2764e-05	627.11	1.4938e-06	8.5306e-07	707.29	245.9	1.3236e-06	4.9977e-07	309.78	133.65	108.58	51.24	1.5486e-06	66.917	2.3946e-05	2.0987e-05	6.5795e-06	540.01	2.1823e-07	2.3495e-07	592.68	195.22	2.1334e-07	2.3999e-07	235.22	101.15	83.285	39.189	2.5474e-07	49.067	479.658	226.979	297.222	179.196	291.423	299.012	177.576	184.531	261.153	421.461	182.400	186.817	189.429	195.251	278.384	191.098	-8191	255	
2868.726	1	1	0	0	0.13241	0.34253	0.043081	0.18653	0.11044	0.057932	0.16865	0.13604	0.093495	0.30587	0.091795	0.20602	0.042379	0.027962	0.19687	0.17985	-3.9792	-3.6771	-3.8979	-4.1854	-3.2646	-4.1	-4.0271	-3.5438	-4.2958	-3.6667	-3.8083	-4.0333	-3.5771	-3.9396	-3.8833	-3.5229	275.312	426.309	391.975	514.763	282.982	281.727	422.285	169.499	222.971	259.512	173.515	364.374	446.533	428.865	385.924	488.687	0.0014149	0.00019546	1.9548e-05	628.73	1.4182e-06	1.081e-06	705.88	244.89	6.929e-07	8.3082e-07	308.12	132.32	107.87	50.754	2.075e-06	66.796	2.335e-05	2.2859e-05	6.3762e-06	539.98	2.2037e-07	2.5357e-07	591.06	194.05	2.1778e-07	2.6056e-07	234.15	100.29	82.964	39.021	2.4327e-07	48.957	478.059	258.346	219.741	179.271	301.421	271.903	177.526	184.732	320.240	294.966	182.297	186.486	189.326	195.427	268.510	190.970	-8191	255	
2868.822	1	1	0	0	0.33103	0.17735	0.27754	0.14178	0.26168	0.10713	0.15082	0.27062	0.16466	0.18323	0.1494	0.07477	0.1761	0.10661	0.28357	0.14733	-3.9104	-3.6604	-3.5062	-4.2688	-3.5583	-3.7604	-4.0687	-3.5333	-4.2438	-3.8104	-3.7417	-4.1687	-3.7562	-3.9542	-4.0604	-3.5938	371.130	245.691	258.213	219.290	231.603	445.737	337.417	243.326	339.262	171.448	288.216	456.945	519.811	217.251	210.732	468.636	0.0014238	0.00012676	2.9223e-05	632.24	1.2136e-06	1.6347e-06	707.93	248.7	1.3019e-06	1.9864e-06	311.51	134.36	109.36	51.682	8.2891e-07	67.564	2.4475e-05	2.3787e-05	6.0495e-06	543.02	2.2669e-07	2.5869e-07	593.14	197.15	2.2784e-07	2.6134e-07	237.2	101.95	84.253	39.644	2.3542e-07	49.451	476.498	233.535	303.393	179.222	248.507	246.625	177.669	184.393	294.892	315.708	182.282	186.555	189.145	195.255	256.287	191.135	-8191	255	
2868.918	1	1	0	0	0.18266	0.077737	0.23604	0.14489	0.10688	0.12757	0.082854	0.088133	0.13307	0.15328	0.11696	0.077381	0.10556	0.29461	0.16924	0.11301	-3.7167	-3.5958	-3.5375	-4.1333	-3.6	-3.6667	-4.1937	-3.5958	-3.9938	-4.05	-3.55	-4.3521	-3.825	-3.7479	-4.0104	-3.5563	331.165	222.195	403.503	439.718	295.043	226.277	349.691	453.544	418.872	510.971	322.294	244.788	463.284	521.352	191.176	413.868	0.0016043	0.00011441	4.0536e-05	627.51	2.2093e-06	1.523e-06	708.65	245.44	2.5096e-06	5.2617e-07	308.93	132.37	107.53	50.674	4.3329e-07	66.673	2.6437e-05	2.382e-05	5.9133e-06	539.87	2.4789e-07	2.5762e-07	590.29	194.23	2.4797e-07	2.5198e-07	233.72	100.23	82.81	38.832	2.2933e-07	48.768	479.531	219.179	252.048	179.305	237.553	235.194	177.502	184.561	241.728	307.480	182.510	186.391	189.340	195.233	305.630	190.892	-8191	255	
2869.037	1	1	0	0	0.12664	0.12358	0.11178	0.057531	0.28246	0.11124	0.15	0.052897	0.20365	0.26441	0.37492	0.34956	0.1658	0.091042	0.25887	0.1992	-3.6958	-3.8958	-3.4125	-4.2063	-3.7625	-3.7188	-4.3375	-3.5375	-3.8771	-4.075	-3.5687	-4.3021	-3.8104	-3.7687	-4.1729	-3.6437	277.803	365.270	208.162	361.341	397.772	304.578	276.863	206.462	509.862	218.364	232.605	469.682	487.096	467.539	200.634	494.240	0.0015007	0.00023025	5.2721e-05	625.94	1.0743e-06	1.4047e-06	701.94	243.16	2.1483e-06	5.7242e-07	308.62	132.12	107.33	50.409	8.6869e-07	66.269	2.7676e-05	2.2473e-05	5.7071e-06	536.48	2.6188e-07	2.4459e-07	587.55	193.41	2.6199e-07	2.4143e-07	233.2	100.23	82.595	38.731	2.2316e-07	48.666	475.923	268.204	275.210	179.220	283.720	331.810	177.740	184.590	321.597	286.503	182.563	186.594	189.363	195.214	250.068	191.116	-8191	255	
2869.133	1	1	0	0	0.065276	0.035923	0.15437	0.22047	0.089392	0.11161	0.19394	0.085298	0.1872	0.14263	0.15006	0.23431	0.027066	0.095011	0.16598	0.1273	-3.6646	-3.8958	-3.3	-3.9833	-3.7687	-3.6479	-4.3	-3.6292	-3.8354	-3.9188	-3.5208	-4.0542	-3.9521	-3.7313	-4.2667	-3.7271	511.455	220.838	242.913	469.653	460.824	386.715	215.229	358.178	519.928	316.290	497.368	214.775	435.060	507.101	470.247	218.735	0.0013547	0.00014634	3.7575e-05	622.85	1.4321e-06	1.7423e-06	697.06	241.19	2.3687e-06	1.3237e-06	305.23	131.26	107.11	50.11	1.3031e-06	66.286	2.8098e-05	2.1481e-05	5.4577e-06	534.88	2.6565e-07	2.3304e-07	584.69	191.97	2.6373e-07	2.2996e-07	231.61	99.427	82.099	38.43	2.2004e-07	48.637	479.345	262.638	230.975	179.359	308.516	288.850	177.481	184.500	255.502	307.966	182.426	186.411	189.499	195.361	243.449	190.874	-8191	255	
2869.230	1	1	0	0	0.084863	0.094791	0.02453	0.26222	0.081612	0.20383	0.16789	0.1677	0.15558	0.19321	0.10727	0.16267	0.049861	0.1022	0.083442	0.1317	-3.6312	-4.0437	-3.4437	-3.9771	-3.8917	-3.6417	-4.125	-3.7313	-3.7708	-4.1708	-3.5833	-3.925	-3.9813	-3.5563	-4.2396	-3.6979	278.971	176.056	375.474	466.684	367.239	470.981	370.631	385.418	181.122	512.151	297.691	239.241	384.428	302.385	251.521	464.872	0.0014906	8.7533e-05	2.5115e-05	627.55	2.2645e-06	2.0112e-06	704.1	247.68	2.253e-06	1.6632e-06	312.76	134.88	109.99	51.936	1.456e-06	67.517	2.8178e-05	2.1327e-05	5.5294e-06	542.36	2.5816e-07	2.3028e-07	590.75	196.39	2.558e-07	2.2282e-07	236.94	102.37	84.536	39.703	2.204e-07	49.727	481.778	252.384	284.611	179.194	299.547	267.696	177.609	184.598	295.306	325.684	182.503	186.362	189.357	195.244	265.423	190.967	-8191	255	
2869.326	1	1	0	0	0.26241	0.21208	0.18265	0.02816	0.29041	0.071893	0.073333	0.11094	0.14764	0.29013	0.14058	0.10944	0.1155	0.16682	0.094604	0.035308	-3.2625	-4.1625	-3.6333	-4.0667	-4.0396	-3.4167	-4.0979	-3.8583	-3.5875	-4.3271	-3.6729	-4.0292	-4.1458	-3.4042	-4.0917	-3.8667	194.818	479.669	229.063	388.048	445.554	254.954	372.756	351.729	386.693	450.665	434.499	486.422	432.068	348.800	261.184	167.720	0.0014164	0.00018298	3.5717e-05	629.65	1.8502e-06	2.6599e-06	707.98	245.95	2.3199e-06	1.2282e-06	310.41	133.48	108.73	51.039	1.177e-06	67.163	2.6713e-05	2.043e-05	5.7135e-06	541.8	2.4905e-07	2.2427e-07	592.21	196.09	2.4528e-07	2.1708e-07	235.42	101.36	83.457	39.018	2.3387e-07	49.369	478.469	231.968	218.813	179.411	266.496	307.450	177.500	184.347	289.538	287.514	182.228	186.348	189.390	194.922	244.470	190.976	-8191	255	
2869.422	1	1	0	0	0.15209	0.22045	0.079323	0.16968	0.21613	0.20919	0.026912	0.29011	0.0271	0.17277	0.45403	0.19325	0.29787	0.13812	0.19439	0.065696	-3.3396	-4.1458	-3.5542	-3.9729	-3.9625	-3.6583	-4.0646	-3.8979	-3.5167	-4.0396	-3.7021	-3.9229	-4.1	-3.65	-3.9813	-4.075	412.243	423.198	193.518	226.476	383.810	426.025	182.883	234.354	477.376	463.625	453.573	232.131	512.183	384.867	381.205	170.532	0.0015322	0.00010194	2.2078e-05	623.57	1.3416e-06	1.6951e-06	703.36	246.7	1.5305e-06	2.2752e-06	311.53	133.91	108.26	51.061	1.2587e-06	67.444	2.6225e-05	1.9665e-05	6.0311e-06	538.96	2.3129e-07	2.1289e-07	591.25	195.41	2.3596e-07	2.1202e-07	236.43	101.72	83.297	39.104	2.5156e-07	49.485	479.607	226.190	246.597	179.349	279.581	309.841	177.736	184.487	296.545	314.397	182.404	186.493	189.329	195.171	265.965	190.899	-8191	255	
2869.518	1	1	0	0	0.12771	0.13786	0.12503	0.040387	0.059973	0.18998	0.094857	0.13444	0.22216	0.083927	0.14025	0.10575	0.25954	0.16825	0.12065	0.053607	-3.1625	-4.1146	-3.5271	-3.6667	-4.1562	-3.6958	-4.1708	-4	-3.5125	-4.1604	-3.7146	-4.0354	-4.1208	-3.5167	-3.9375	-4.1708	242.096	483.194	433.313	339.319	269.625	389.146	203.706	382.956	284.601	384.609	340.662	460.820	446.241	502.247	476.674	486.316	0.0014862	0.00010178	3.6178e-05	625.13	2.1774e-06	1.2563e-06	701.76	245.26	1.2222e-06	7.0522e-07	307.02	132.75	107.85	50.507	1.6059e-06	66.59	2.5255e-05	1.9179e-05	6.3907e-06	538.05	2.293e-07	2.1365e-07	590.44	194.29	2.2834e-07	2.1438e-07	234.37	100.7	82.522	38.652	2.6463e-07	48.854	480.092	250.961	215.833	179.427	266.764	308.081	177.653	184.481	292.814	343.906	182.486	186.634	189.046	195.001	269.540	190.838	-8191	255	
2869.639	1	1	0	0	0.15604	0.024247	0.27155	0.0514	0.078742	0.085963	0.099107	0.15192	0.18138	0.2986	0.1233	0.26282	0.10711	0.13277	0.1082	0.20146	-3.1521	-3.9917	-3.8792	-3.7979	-4.1271	-3.5812	-3.9646	-4.0167	-3.4333	-4.0958	-3.9479	-3.7479	-4.1792	-3.6417	-3.8583	-4.1375	470.642	169.884	290.397	192.581	300.389	443.240	431.594	378.372	440.885	369.438	485.696	499.075	488.001	342.738	209.846	408.101	0.0014117	0.00015145	6.0385e-05	627.73	1.323e-06	1.9441e-06	705.9	246.64	1.3708e-06	1.1865e-06	311.01	134.22	109.73	51.256	2.0538e-06	67.385	2.4882e-05	2.053e-05	6.7092e-06	539.85	2.2015e-07	2.3351e-07	592.3	196.02	2.2261e-07	2.3249e-07	236.83	102.07	84.18	39.372	2.6441e-07	49.411	479.553	201.654	204.419	179.400	259.082	304.091	177.722	184.331	255.661	284.287	182.306	186.364	189.374	194.948	261.791	191.019	-8191	255	
2869.733	1	1	0	0	0.14514	0.39442	0.01749	0.37205	0.11161	0.022141	0.23454	0.10458	0.17395	0.26773	0.077902	0.18364	0.12852	0.02823	0.087276	0.11882	-3.0438	-4.0312	-3.8146	-3.5333	-4.1875	-3.75	-3.8792	-4.1458	-3.4146	-3.8375	-3.7979	-3.5292	-4.3167	-3.75	-3.6188	-4.025	486.047	205.155	264.888	193.110	503.467	360.689	379.343	203.176	248.972	333.406	422.313	267.970	205.169	244.538	482.452	233.161	0.0014796	9.8901e-05	4.9575e-05	625.7	1.8293e-06	1.4267e-06	701.01	244.25	1.2009e-06	1.0999e-06	308.3	132.5	108.18	50.413	1.8817e-06	66.746	2.4068e-05	2.2029e-05	6.5621e-06	537.37	2.154e-07	2.4553e-07	588.66	193.87	2.1541e-07	2.4467e-07	234.14	100.41	82.663	38.665	2.5313e-07	48.831	482.518	219.829	221.560	179.320	300.232	236.835	177.529	184.363	289.276	327.232	182.378	186.571	189.101	195.073	262.982	190.729	-8191	255	
2869.829	1	1	0	0	0.26733	0.13615	0.30542	0.14437	0.19117	0.22272	0.16223	0.060535	0.13561	0.061617	0.091775	0.092313	0.21956	0.11287	0.074788	0.11639	-3.1479	-3.9271	-3.8229	-3.5021	-4.1917	-3.8042	-3.7375	-4.2167	-3.5938	-3.9375	-4.0021	-3.5	-4.1604	-3.8438	-3.675	-4.175	176.726	364.819	395.578	436.996	179.484	498.825	409.442	176.757	247.970	202.515	219.212	395.393	438.823	490.970	428.400	202.493	0.0014472	0.00024285	3.0226e-05	620.67	1.2699e-06	6.3144e-07	695.81	241.81	1.9069e-06	6.7064e-07	305.36	132.58	106.73	50.379	1.749e-06	66.24	2.4189e-05	2.328e-05	6.1917e-06	532.92	2.215e-07	2.601e-07	585.11	191.53	2.2539e-07	2.6018e-07	232.6	100.21	81.965	38.593	2.4168e-07	48.696	479.447	227.155	276.169	179.065	334.478	330.044	177.533	184.394	286.335	284.198	182.416	186.215	189.299	194.980	235.634	191.032	-8191	255	
2869.925	1	1	0	0	0.1397	0.11902	0.25352	0.10753	0.18552	0.039686	0.26155	0.20317	0.093781	0.12059	0.26004	0.21748	0.055398	0.13538	0.12642	0.059156	-3.1979	-3.8646	-4.0271	-3.6167	-4.0312	-3.6167	-3.6875	-4.3458	-3.6667	-3.8375	-4.0271	-3.3729	-4.0375	-3.9625	-3.6083	-4.275	264.833	288.061	329.156	386.668	517.740	298.849	474.917	263.564	266.183	426.066	505.702	243.860	202.356	218.723	303.626	362.339	0.0014858	0.00022328	2.3091e-05	620.15	5.6575e-07	1.874e-06	704.16	244.25	1.0856e-06	1.2765e-06	308.94	132.39	108.16	50.413	1.7787e-06	66.662	2.5344e-05	2.3733e-05	5.9696e-06	534.3	2.3591e-07	2.622e-07	589.1	193.02	2.4559e-07	2.6194e-07	233.88	100.44	82.847	38.727	2.445e-07	48.891	476.260	207.617	322.143	179.150	355.976	290.564	177.547	184.189	282.633	246.388	182.098	186.555	189.146	195.115	260.228	190.927	-8191	255	
#DATA ENDS
