BOXY.EXE: ISS Imagent and Oximeter Data Acquisition Program Version 0.80
Ascii Record File

#ACQ INFORMATION
2  Detector Channels 
16  External MUX Channels 
1  Auxiliary Channels 
5000  Waveform (CCF) Frequency (Hz)
1  Waveforms Skipped 
30  Waveforms Averaged 
1  Cycles Averaged 
16  Acquisitions per Waveform 
10.0806  Updata Rate (Hz) 

#FILE INFORMATION
TRUE -- External MUX Channel results are PARSED.
FALSE -- AC DC and Phase are NOT grouped.
TRUE -- Companion Program Settings File CREATED.
FALSE -- AC data not excluded
FALSE -- DC data not excluded
FALSE -- Phase data not excluded
FALSE -- Auxillary Chn. data not excluded
Tab delimiters

#CALIBRATION STATE
TRUE -- Waveform Calibration Values APPLIED.


#AUX CALIBRATION VALUES
Val Type	aux-1	

Term	1.0000e+00	
Factor	0.0000e+00	


#WF CALIBRATION VALUES
A = Detector Channel
Val Type	A-AC1	A-AC2	A-AC3	A-AC4	A-AC5	A-AC6	A-AC7	A-AC8	A-AC9	A-AC10	A-AC11	A-AC12	A-AC13	A-AC14	A-AC15	A-AC16	A-DC1	A-DC2	A-DC3	A-DC4	A-DC5	A-DC6	A-DC7	A-DC8	A-DC9	A-DC10	A-DC11	A-DC12	A-DC13	A-DC14	A-DC15	A-DC16	A-Ph1	A-Ph2	A-Ph3	A-Ph4	A-Ph5	A-Ph6	A-Ph7	A-Ph8	A-Ph9	A-Ph10	A-Ph11	A-Ph12	A-Ph13	A-Ph14	A-Ph15	A-Ph16	

Term	0.00000e+00	0.00000e+00	0.00000e+00	0.00000e+00	0.00000e+00	0.00000e+00	0.00000e+00	0.00000e+00	0.00000e+00	0.00000e+00	0.00000e+00	0.00000e+00	0.00000e+00	0.00000e+00	0.00000e+00	0.00000e+00	0.00000e+00	0.00000e+00	0.00000e+00	0.00000e+00	0.00000e+00	0.00000e+00	0.00000e+00	0.00000e+00	0.00000e+00	0.00000e+00	0.00000e+00	0.00000e+00	0.00000e+00	0.00000e+00	0.00000e+00	0.00000e+00	0.00000e+00	0.00000e+00	0.00000e+00	0.00000e+00	0.00000e+00	0.00000e+00	0.00000e+00	0.00000e+00	0.00000e+00	0.00000e+00	0.00000e+00	0.00000e+00	0.00000e+00	0.00000e+00	0.00000e+00	0.00000e+00	
Factor	1.00000e+00	1.00000e+00	1.00000e+00	1.00000e+00	1.00000e+00	1.00000e+00	1.00000e+00	1.00000e+00	1.00000e+00	1.00000e+00	1.00000e+00	1.00000e+00	1.00000e+00	1.00000e+00	1.00000e+00	1.00000e+00	1.00000e+00	1.00000e+00	1.00000e+00	1.00000e+00	1.00000e+00	1.00000e+00	1.00000e+00	1.00000e+00	1.00000e+00	1.00000e+00	1.00000e+00	1.00000e+00	1.00000e+00	1.00000e+00	1.00000e+00	1.00000e+00	X	X	X	X	X	X	X	X	X	X	X	X	X	X	X	X	

B = Detector Channel
Val Type	B-AC1	B-AC2	B-AC3	B-AC4	B-AC5	B-AC6	B-AC7	B-AC8	B-AC9	B-AC10	B-AC11	B-AC12	B-AC13	B-AC14	B-AC15	B-AC16	B-DC1	B-DC2	B-DC3	B-DC4	B-DC5	B-DC6	B-DC7	B-DC8	B-DC9	B-DC10	B-DC11	B-DC12	B-DC13	B-DC14	B-DC15	B-DC16	B-Ph1	B-Ph2	B-Ph3	B-Ph4	B-Ph5	B-Ph6	B-Ph7	B-Ph8	B-Ph9	B-Ph10	B-Ph11	B-Ph12	B-Ph13	B-Ph14	B-Ph15	B-Ph16	

Term	0.00000e+00	0.00000e+00	0.00000e+00	0.00000e+00	0.00000e+00	0.00000e+00	0.00000e+00	0.00000e+00	0.00000e+00	0.00000e+00	0.00000e+00	0.00000e+00	0.00000e+00	0.00000e+00	0.00000e+00	0.00000e+00	0.00000e+00	0.00000e+00	0.00000e+00	0.00000e+00	0.00000e+00	0.00000e+00	0.00000e+00	0.00000e+00	0.00000e+00	0.00000e+00	0.00000e+00	0.00000e+00	0.00000e+00	0.00000e+00	0.00000e+00	0.00000e+00	-2.15620e+02	-1.31657e+02	-1.25146e+02	-1.81704e+02	-8.15054e+01	-6.68657e+01	-1.57588e+02	-1.62015e+02	-8.60096e+01	-6.69782e+01	-1.71217e+02	-1.72824e+02	-1.83390e+02	-1.77011e+02	-7.37979e+01	-1.49785e+02	
Factor	4.58921e-05	1.65953e-04	4.60063e-05	1.49255e-01	1.93368e-06	1.78685e-06	1.64339e-01	5.03331e-02	2.24651e-06	1.77573e-06	8.09569e-02	3.27481e-02	3.51869e-02	8.81024e-03	1.97165e-06	1.24698e-02	2.73434e-05	7.93411e-05	2.24816e-05	7.78062e-02	6.25384e-07	9.38907e-07	8.07401e-02	2.62746e-02	6.23511e-07	9.41288e-07	4.12738e-02	1.66736e-02	1.85840e-02	4.65689e-03	7.32170e-07	6.40504e-03	X	X	X	X	X	X	X	X	X	X	X	X	X	X	X	X	



#DISTANCE SETTINGS
A = Detector Channel
A-1	A-2	A-3	A-4	A-5	A-6	A-7	A-8	A-9	A-10	A-11	A-12	A-13	A-14	A-15	A-16	

2.5000e+00	3.0000e+00	2.5000e+00	3.0000e+00	2.0000e+00	3.0000e+00	1.5000e+00	3.0000e+00	3.0000e+00	3.0000e+00	3.0000e+00	3.0000e+00	3.0000e+00	3.0000e+00	1.5000e+00	3.0000e+00	

B = Detector Channel
B-1	B-2	B-3	B-4	B-5	B-6	B-7	B-8	B-9	B-10	B-11	B-12	B-13	B-14	B-15	B-16	

1.0000e+01	1.0000e+01	1.0000e+01	1.4400e+00	1.0000e+01	1.0000e+01	1.5100e+00	1.9400e+00	1.0000e+01	1.0000e+01	1.9900e+00	2.4900e+00	2.4100e+00	2.9000e+00	1.0000e+01	2.9800e+00	




#DATA BEGINS
time	group	step	mark	flag	A-AC1	A-AC2	A-AC3	A-AC4	A-AC5	A-AC6	A-AC7	A-AC8	A-AC9	A-AC10	A-AC11	A-AC12	A-AC13	A-AC14	A-AC15	A-AC16	A-DC1	A-DC2	A-DC3	A-DC4	A-DC5	A-DC6	A-DC7	A-DC8	A-DC9	A-DC10	A-DC11	A-DC12	A-DC13	A-DC14	A-DC15	A-DC16	A-Ph1	A-Ph2	A-Ph3	A-Ph4	A-Ph5	A-Ph6	A-Ph7	A-Ph8	A-Ph9	A-Ph10	A-Ph11	A-Ph12	A-Ph13	A-Ph14	A-Ph15	A-Ph16	B-AC1	B-AC2	B-AC3	B-AC4	B-AC5	B-AC6	B-AC7	B-AC8	B-AC9	B-AC10	B-AC11	B-AC12	B-AC13	B-AC14	B-AC15	B-AC16	B-DC1	B-DC2	B-DC3	B-DC4	B-DC5	B-DC6	B-DC7	B-DC8	B-DC9	B-DC10	B-DC11	B-DC12	B-DC13	B-DC14	B-DC15	B-DC16	B-Ph1	B-Ph2	B-Ph3	B-Ph4	B-Ph5	B-Ph6	B-Ph7	B-Ph8	B-Ph9	B-Ph10	B-Ph11	B-Ph12	B-Ph13	B-Ph14	B-Ph15	B-Ph16	aux-1	digaux	

18494.199	1	1	0	256	0.11357	0.0085583	0.12001	0.17364	0.21519	0.036799	0.03621	0.11208	0.15993	0.20334	0.14907	0.28362	0.19166	0.097323	0.060117	0.12937	-4.4125	-4.3063	-4.4521	-5.0104	-4.1625	-4.5375	-4.7208	-4.3	-4.8729	-4.5917	-4.3833	-4.9458	-4.3021	-4.5375	-4.6458	-4.25	188.426	249.287	26.500	-79.385	-83.358	22.499	135.859	272.042	138.281	141.622	181.949	219.849	139.684	55.788	-81.641	-38.998	0.00016685	0.0002694	8.6434e-05	1059.2	1.1682e-06	2.402e-06	1134.8	219.16	1.9427e-06	2.3776e-06	274.64	78.511	62.196	17.726	3.0268e-06	25.238	0.00021584	0.0001686	3.7282e-05	1040.4	2.8703e-06	1.8367e-06	1119.4	218.28	1.8614e-06	1.8237e-06	273.89	79.21	62.353	17.966	1.6718e-06	25.717	91.837	21.763	12.372	-76.525	43.178	56.284	-76.432	-69.558	19.389	58.512	-69.692	-63.409	-63.244	-55.602	50.498	-56.598	-8191	255	
18494.297	1	1	0	0	0.16075	0.097266	0.2069	0.076002	0.077276	0.062714	0.2612	0.1734	0.13175	0.094665	0.13409	0.23032	0.07731	0.11381	0.09173	0.017549	-4.2312	-4.6104	-4.2292	-4.9208	-4.3667	-4.4375	-4.9854	-4.3063	-4.7604	-4.6604	-4.2771	-5.0062	-4.3792	-4.5188	-4.7646	-4.3583	40.395	59.723	72.425	232.683	25.425	120.694	213.688	202.960	170.720	27.172	256.481	-45.212	187.603	26.333	-9.265	259.858	0.00015515	0.00031139	0.00010028	1048.6	2.1612e-06	3.0487e-06	1130.8	219.87	2.7517e-06	2.4048e-06	274.99	78.483	62.013	17.656	2.4734e-06	25.446	0.00022376	0.00013273	4.5338e-05	1036.4	2.9706e-06	1.9658e-06	1117.7	218.32	2.194e-06	1.5904e-06	273.67	78.936	62.234	17.887	1.4079e-06	25.676	93.061	-1.055	9.057	-76.666	55.608	47.360	-76.438	-69.331	28.652	42.992	-69.477	-63.771	-62.745	-55.813	55.893	-56.644	-8191	255	
18494.391	1	1	0	0	0.25727	0.090569	0.22519	0.20374	0.079818	0.22284	0.33549	0.2455	0.10344	0.094953	0.29412	0.34955	0.3111	0.13785	0.21456	0.055061	-4.2083	-4.6458	-4.25	-4.8958	-4.3458	-4.3354	-4.8125	-4.3938	-4.6625	-4.6208	-4.3917	-4.7646	-4.4688	-4.3958	-4.7771	-4.3167	-78.309	67.336	-32.324	265.832	75.177	101.850	196.814	140.534	-34.027	51.725	183.061	268.906	249.361	237.254	-27.226	220.613	0.00018399	0.00031528	6.8337e-05	1054.3	2.0782e-06	3.114e-06	1128	218.39	1.8474e-06	2.6103e-06	273.79	78.735	62.018	17.762	2.9226e-06	25.405	0.00023242	0.00015124	5.2316e-05	1036.8	2.8233e-06	1.9013e-06	1114.8	217.5	2.5824e-06	1.2649e-06	272.67	79.148	62.238	17.92	1.7175e-06	25.765	89.047	9.380	29.246	-76.559	11.253	66.948	-76.631	-69.263	26.478	62.423	-69.583	-63.311	-63.436	-55.876	60.327	-56.424	-8191	255	
18494.486	1	1	0	0	0.16726	0.24737	0.16974	0.10625	0.2087	0.2198	0.30275	0.11169	0.1179	0.15029	0.18558	0.24489	0.044475	0.078929	0.09243	0.15829	-4.2458	-4.5917	-4.0687	-5.025	-4.4042	-4.2167	-4.9979	-4.3812	-4.3917	-4.8479	-4.2917	-4.6708	-4.5354	-4.4313	-4.8979	-4.25	-61.766	177.308	112.986	229.653	160.583	228.267	238.949	104.688	-81.108	147.273	233.372	-53.543	70.387	-27.042	70.371	127.651	0.00015766	0.00030366	0.00010115	1049.3	2.7798e-06	3.3785e-06	1127.1	218.24	2.1984e-06	1.6765e-06	273.81	78.825	61.979	17.785	2.9556e-06	25.25	0.00021408	0.0001129	4.4542e-05	1032.9	2.5641e-06	1.7996e-06	1111.8	217.33	2.3291e-06	1.159e-06	273.38	78.981	62.083	17.876	1.3408e-06	25.589	86.354	-9.956	15.531	-76.572	84.227	57.604	-76.604	-69.426	-10.758	84.878	-69.710	-63.325	-63.062	-55.893	76.848	-56.154	-8191	255	
18494.607	1	1	0	0	0.094042	0.30747	0.22005	0.11212	0.29387	0.034487	0.17523	0.1509	0.11917	0.14366	0.055041	0.2571	0.02734	0.30326	0.068241	0.19202	-4.1375	-4.675	-4.2	-4.8729	-4.6375	-4.3167	-4.9062	-4.2979	-4.3063	-4.7771	-4.2438	-4.6708	-4.6542	-4.0938	-4.7521	-4.3187	263.443	111.218	-46.654	152.727	-68.751	-5.444	215.631	-63.665	71.973	252.690	155.222	236.730	194.190	-34.389	110.378	-40.974	0.00019336	0.00030572	6.5662e-05	1046.4	2.8249e-06	3.9418e-06	1121.2	218.82	1.7159e-06	2.3103e-06	274.68	77.837	61.688	17.847	3.1147e-06	25.165	0.00022387	7.6696e-05	5.3628e-05	1029.4	2.5419e-06	1.9854e-06	1109.9	217.06	2.6642e-06	8.6285e-07	272.87	78.851	62.094	17.944	1.5604e-06	25.533	98.701	-11.672	7.888	-76.577	48.264	68.267	-76.521	-69.676	5.638	71.541	-69.607	-63.236	-62.627	-55.663	62.970	-56.668	-8191	255	
18494.703	1	1	0	0	0.13808	0.043695	0.1046	0.11524	0.14843	0.050512	0.26368	0.075127	0.12562	0.030123	0.17021	0.12698	0.40884	0.20068	0.22921	0.17734	-3.9708	-4.8646	-4.1312	-4.5958	-4.5896	-4.15	-4.8021	-4.4167	-4.1667	-4.7042	-4.3771	-4.5437	-4.8562	-4.0167	-4.6167	-4.5042	-70.834	149.121	-40.930	242.169	97.792	178.391	235.622	120.596	175.480	266.746	180.503	209.522	9.823	128.703	224.646	63.161	0.00018629	0.00036603	9.0656e-05	1044.6	2.47e-06	2.3064e-06	1116.5	218.12	2.2845e-06	2.9494e-06	271.48	78.337	61.368	17.51	3.1685e-06	25.346	0.0002392	0.00012794	4.4307e-05	1028.9	2.7791e-06	1.9072e-06	1105.4	216.68	2.8461e-06	1.1864e-06	272.61	78.705	61.784	17.772	1.5864e-06	25.624	87.975	-10.038	8.427	-76.685	56.463	59.710	-76.597	-69.504	29.608	67.191	-69.553	-63.346	-63.260	-55.914	32.635	-56.414	-8191	255	
18494.801	1	1	0	0	0.14787	0.09322	0.12671	0.046882	0.10332	0.13392	0.20667	0.1116	0.16552	0.30529	0.13027	0.058285	0.12364	0.33629	0.081994	0.16686	-3.975	-4.9417	-4.2521	-4.5062	-4.7354	-4.2333	-4.9146	-4.5	-4.3021	-4.7375	-4.2875	-4.4771	-4.825	-4.2292	-4.7417	-4.5542	-67.552	216.723	92.588	214.577	259.972	144.718	238.978	217.413	208.669	54.995	178.471	142.864	188.934	-50.893	241.454	167.611	0.0001831	0.00037402	7.1229e-05	1041.7	1.5206e-06	3.3515e-06	1120.1	218.88	1.4129e-06	2.8443e-06	274.77	78.098	61.591	17.596	2.3863e-06	25.301	0.00023538	0.00012827	5.2832e-05	1028	2.3309e-06	1.6098e-06	1109	216.97	2.6408e-06	8.452e-07	272.72	78.59	61.958	17.836	1.6245e-06	25.61	94.429	3.119	9.154	-76.461	58.294	59.379	-76.425	-69.637	69.684	68.329	-69.624	-63.647	-62.831	-56.031	61.882	-56.274	-8191	255	
18494.896	1	1	0	0	0.15551	0.20358	0.050726	0.24241	0.05003	0.13945	0.14841	0.27088	0.15837	0.1317	0.23587	0.081381	0.082073	0.116	0.04412	0.12512	-3.9271	-4.9167	-4.3313	-4.6813	-4.8229	-4.15	-4.775	-4.6792	-4.2146	-4.7083	-4.45	-4.275	-4.8438	-4.3042	-4.6875	-4.5833	47.678	-59.508	101.761	245.549	17.602	160.791	-87.032	181.712	81.896	112.471	111.804	171.208	106.274	198.772	163.339	267.801	0.00017111	0.00030018	8.7029e-05	1040.9	1.7343e-06	1.9744e-06	1117.3	218.27	2.3836e-06	2.7979e-06	275.47	77.826	61.043	17.663	1.5836e-06	25.273	0.00023361	0.00013637	4.7164e-05	1027.6	2.3895e-06	1.7839e-06	1105.2	216.73	2.4992e-06	8.3932e-07	273.37	78.559	61.636	17.857	1.8838e-06	25.582	98.331	15.012	-1.141	-76.498	78.638	82.414	-76.520	-69.591	22.536	78.282	-69.472	-62.853	-62.488	-55.586	61.300	-56.335	-8191	255	
18494.992	1	1	0	0	0.17217	0.27509	0.10942	0.12605	0.043573	0.22399	0.13407	0.01552	0.1351	0.1516	0.11612	0.14488	0.1076	0.11619	0.13601	0.14772	-3.825	-4.8063	-4.5958	-4.3438	-4.7458	-4.1813	-4.7354	-4.725	-4.2021	-4.7854	-4.4958	-4.4646	-4.7542	-4.3604	-4.5437	-4.7854	14.999	-73.191	75.480	236.748	-71.733	21.064	186.425	102.685	214.153	-20.603	195.707	195.526	214.039	-56.807	38.667	-25.109	0.0001753	0.00032155	0.00010545	1041.4	2.3784e-06	2.4069e-06	1114.3	217.42	1.1422e-06	3.1892e-06	273.85	77.529	61.746	17.606	2.2212e-06	25.149	0.00025013	0.00015951	5.1192e-05	1026.2	2.5862e-06	1.649e-06	1103.1	216.57	2.5733e-06	1.1041e-06	272.21	78.21	61.77	17.805	1.5818e-06	25.505	91.731	-3.526	14.181	-76.468	46.654	52.362	-76.344	-69.216	13.322	66.820	-69.629	-63.717	-63.181	-55.985	53.107	-56.240	-8191	255	
18495.090	1	1	0	0	0.13303	0.12764	0.10137	0.10813	0.071552	0.23453	0.066741	0.21813	0.15073	0.10282	0.04711	0.12639	0.13136	0.17508	0.25802	0.12903	-3.7542	-4.6146	-4.4646	-4.3063	-4.6896	-4.3688	-4.5292	-4.9625	-4.1667	-4.5542	-4.8	-4.1354	-4.85	-4.4563	-4.5417	-4.8958	-0.608	46.570	208.702	167.495	214.657	39.991	224.667	151.828	59.161	252.750	-34.056	60.778	-32.633	80.412	216.452	175.103	0.00016215	0.00031076	0.00010273	1035.7	2.2668e-06	3.1746e-06	1117	217.25	1.8464e-06	3.0081e-06	273.77	78.012	61.771	17.738	3.1356e-06	25.21	0.00023618	0.0001048	3.4238e-05	1023	2.5563e-06	1.6196e-06	1104.1	216.48	2.5122e-06	1.5002e-06	272.38	78.538	61.778	17.88	1.6565e-06	25.602	91.067	3.895	2.314	-76.667	3.189	63.157	-76.396	-69.641	40.625	83.307	-69.638	-63.345	-63.112	-55.638	54.920	-56.558	-8191	255	
18495.186	1	1	0	0	0.077959	0.12643	0.106	0.22239	0.10292	0.26688	0.15765	0.13097	0.15892	0.13965	0.065375	0.071536	0.31414	0.13279	0.28439	0.14427	-3.9542	-4.7083	-4.5396	-4.3521	-4.6646	-4.3854	-4.4083	-5.1417	-4.1896	-4.6792	-4.625	-4.2812	-4.7167	-4.5854	-4.2812	-4.8833	66.908	173.572	26.898	251.675	190.516	133.892	271.126	93.469	216.950	220.326	-52.924	59.162	238.443	8.218	260.690	137.485	0.00016612	0.0002476	8.7251e-05	1039.4	1.7155e-06	3.7895e-06	1113.1	215.78	2.4172e-06	2.398e-06	273.17	77.804	61.335	17.476	3.3595e-06	25.422	0.00022461	0.00013538	2.8102e-05	1023.1	2.3283e-06	1.3712e-06	1100.9	215.71	2.3823e-06	1.1119e-06	271.65	78.413	61.73	17.792	1.8823e-06	25.557	95.910	9.536	-8.383	-76.543	66.589	53.636	-76.439	-69.130	36.547	59.173	-69.530	-63.502	-63.139	-55.584	62.283	-56.538	-8191	255	
18495.305	1	1	0	0	0.079497	0.24815	0.1322	0.22802	0.066999	0.25823	0.25456	0.068675	0.13357	0.061553	0.13593	0.12276	0.092963	0.11223	0.19437	0.029325	-3.8438	-4.4604	-4.7208	-4.2875	-4.6396	-4.5375	-4.2917	-4.8396	-4.1813	-4.4646	-4.7333	-4.2083	-4.6583	-4.3938	-4.1708	-4.7708	49.218	61.090	80.048	236.154	72.510	168.693	192.497	83.182	261.850	116.491	-3.993	34.777	251.917	-59.738	173.333	-22.970	0.0001488	0.00036627	7.8261e-05	1036.4	2.416e-06	3.0504e-06	1109.5	217.35	2.0827e-06	3.7269e-06	271.83	78.13	61.29	17.706	2.6662e-06	25.155	0.00022706	0.00017753	3.2598e-05	1020.7	2.3322e-06	1.2421e-06	1099.3	215.94	2.4772e-06	1.2296e-06	270.64	78.488	61.752	17.825	1.9677e-06	25.546	83.736	-3.582	-13.637	-76.408	58.583	49.154	-76.383	-69.174	33.506	66.467	-69.170	-63.246	-63.007	-55.732	37.133	-56.333	-8191	255	
18495.400	1	1	0	0	0.1448	0.15578	0.084634	0.093077	0.033808	0.23423	0.17278	0.20934	0.097835	0.038022	0.14364	0.1299	0.32873	0.22941	0.17333	0.0052255	-4.1042	-4.4896	-4.7688	-4.2229	-4.6958	-4.6	-4.3646	-4.7729	-4.3021	-4.3854	-4.8792	-4.2708	-4.5104	-4.5021	-4.2646	-4.7458	12.254	164.758	37.497	260.807	157.727	66.223	171.415	101.360	-78.803	-45.566	46.743	93.604	237.113	249.733	167.198	252.776	0.00019825	0.00037945	0.00010217	1036.8	1.8039e-06	3.096e-06	1113.1	216.44	1.8729e-06	2.3891e-06	272.38	77.931	61.439	17.642	3.6792e-06	25.292	0.00022074	0.00014133	3.3441e-05	1020.2	2.1485e-06	8.4306e-07	1097.6	215.42	1.9809e-06	1.5217e-06	271	78.318	61.752	17.828	1.9692e-06	25.617	93.791	9.092	16.077	-76.381	59.452	66.217	-76.392	-69.247	0.060	63.654	-69.436	-63.042	-62.844	-55.974	45.395	-56.120	-8191	255	
18495.471	1	1	0	0	0.065763	0.24538	0.19575	0.33885	0.12783	0.092468	0.1871	0.27487	0.10479	0.095427	0.040401	0.26121	0.21133	0.18017	0.095355	0.0061097	-3.9458	-4.2229	-4.8	-4.3292	-4.4333	-4.8187	-4.3042	-4.7562	-4.4021	-4.2083	-4.9354	-4.1833	-4.4854	-4.6687	-4.1229	-4.6667	53.790	190.884	92.677	213.836	214.367	42.706	-80.619	229.799	241.537	-10.620	249.347	227.760	162.306	215.150	265.513	133.380	0.00015401	0.00030151	0.00010746	1034.4	2.31e-06	2.9046e-06	1108.3	216.46	2.7118e-06	2.7866e-06	271.87	77.96	61.131	17.685	1.6245e-06	25.241	0.00022621	0.00013422	2.6228e-05	1018.6	2.5745e-06	6.2789e-07	1096.1	215.62	2.2109e-06	1.7296e-06	270.84	78.322	61.609	17.775	1.9891e-06	25.508	88.448	2.363	0.590	-76.596	47.270	54.086	-76.414	-69.538	27.813	68.902	-68.978	-63.766	-62.786	-55.593	56.703	-56.692	-8191	255	
18495.568	1	1	0	0	0.11543	0.15268	0.12593	0.30769	0.22329	0.15333	0.14275	0.12771	0.16573	0.19473	0.17036	0.18759	0.16798	0.35895	0.037262	0.16094	-4.0875	-4.3104	-4.7688	-4.3458	-4.5146	-4.8917	-4.1333	-4.7	-4.4812	-4.2708	-4.85	-4.3438	-4.4396	-4.7875	-4.2354	-4.6687	-48.526	253.268	62.620	266.567	190.173	-10.947	236.621	253.470	88.470	-78.726	98.101	203.231	-57.033	236.684	-11.784	217.919	0.0001879	0.00035331	8.1821e-05	1027.2	2.4641e-06	3.8557e-06	1106.4	216.46	2.0279e-06	3.4603e-06	271.71	77.862	60.785	17.609	2.6159e-06	24.876	0.00021926	0.00017091	1.6627e-05	1015.2	2.4455e-06	1.0348e-06	1094.8	215.54	1.9472e-06	2.0512e-06	270.61	78.12	61.407	17.776	1.7953e-06	25.401	89.622	10.626	3.877	-76.466	39.045	85.561	-76.559	-69.225	19.739	72.820	-69.559	-63.418	-63.408	-55.505	78.200	-55.959	-8191	255	
18495.688	1	1	0	0	0.18988	0.25041	0.056411	0.29214	0.090781	0.18046	0.17697	0.31315	0.23911	0.14121	0.078118	0.1923	0.082711	0.18622	0.088024	0.05598	-4.3042	-4.2708	-4.6937	-4.4125	-4.3979	-4.7167	-4.2854	-4.5979	-4.6479	-4.1167	-4.7625	-4.3333	-4.3104	-4.7542	-4.0958	-4.5583	114.040	-38.839	100.873	205.423	171.712	-29.496	81.227	260.780	232.450	20.244	-43.795	171.638	257.435	147.511	271.862	220.184	0.00018257	0.00025996	8.571e-05	1033.5	3.401e-06	2.6836e-06	1106.8	217.83	1.432e-06	2.0316e-06	272.19	77.965	61.608	17.724	3.0617e-06	25.04	0.00022615	0.00020315	2.6931e-05	1019.4	2.6527e-06	5.0075e-07	1095.8	215.73	2.2226e-06	1.2825e-06	271.05	78.382	61.64	17.79	2.1645e-06	25.487	89.004	5.986	2.113	-76.437	70.490	40.221	-76.566	-69.385	40.347	39.072	-70.018	-63.375	-63.022	-55.420	46.485	-56.223	-8191	255	
18495.783	1	1	0	0	0.21439	0.18611	0.16749	0.12969	0.11939	0.11211	0.3	0.17245	0.16222	0.14326	0.10809	0.10543	0.10815	0.15746	0.061606	0.083467	-4.4292	-4.2729	-4.6375	-4.6604	-4.2708	-4.9667	-4.4542	-4.575	-4.7021	-4.1417	-4.7917	-4.3917	-4.1042	-4.725	-4.3208	-4.5354	-32.982	-28.132	189.886	263.149	270.874	251.806	-51.158	204.379	94.988	15.149	223.015	96.815	-11.419	15.753	137.358	-45.037	0.00017183	0.00037779	8.189e-05	1033.4	2.3607e-06	3.1485e-06	1104.2	216.29	1.5802e-06	3.1765e-06	271.79	77.728	61.565	17.538	3.1829e-06	25.117	0.00022091	0.00019191	2.2247e-05	1018.5	2.3673e-06	8.548e-07	1094.7	215.23	2.1927e-06	1.7943e-06	270.76	78.117	61.514	17.761	1.8975e-06	25.481	95.251	17.793	10.498	-76.533	35.022	79.299	-76.407	-69.205	-29.620	52.363	-69.693	-63.313	-63.052	-55.701	70.929	-56.603	-8191	255	
18495.881	1	1	0	0	0.14599	0.20912	0.13061	0.12885	0.054459	0.173	0.33276	0.21324	0.1237	0.24317	0.082028	0.20474	0.29547	0.17749	0.065703	0.17391	-4.4792	-4.3146	-4.625	-4.6958	-4.2667	-4.7937	-4.4938	-4.4958	-4.8979	-4.0729	-4.7458	-4.4812	-4.2562	-4.9896	-4.3812	-4.35	45.777	196.863	97.645	160.745	66.536	163.831	193.353	174.087	199.067	126.314	222.413	-33.642	199.816	263.105	98.815	230.150	0.00014405	0.00034503	8.9771e-05	1034.8	2.1945e-06	3.5762e-06	1110.6	216.88	2.5173e-06	3.9303e-06	271.65	77.518	61.492	17.626	3.1675e-06	24.934	0.00021049	0.00019538	3.6767e-05	1019.2	2.611e-06	1.1697e-06	1098.4	215.34	1.9446e-06	2.0355e-06	271.1	78.211	61.623	17.756	1.8884e-06	25.457	88.831	8.283	20.421	-76.607	39.621	74.131	-76.559	-69.593	23.768	64.740	-69.399	-63.228	-63.028	-55.790	57.550	-56.525	-8191	255	
18496.002	1	1	0	0	0.22827	0.084594	0.17789	0.1934	0.20952	0.16555	0.252	0.11081	0.1341	0.32573	0.11681	0.15355	0.20458	0.2173	0.085443	0.2122	-4.525	-4.2083	-4.5167	-4.7	-4.1125	-4.7292	-4.525	-4.4062	-4.8396	-4.2979	-4.6354	-4.6458	-4.0167	-4.7792	-4.4354	-4.3167	159.699	-81.703	82.900	180.388	177.752	262.617	240.365	167.525	253.229	172.923	90.287	204.804	98.282	269.454	263.352	267.667	0.00016933	0.00033606	4.9297e-05	1035.9	1.9437e-06	3.3114e-06	1110.7	217.83	1.7654e-06	3.6929e-06	271.35	77.208	61.758	17.77	4.0071e-06	25.284	0.00020029	0.00019769	2.0421e-05	1021.6	2.8637e-06	1.1834e-06	1099.4	215.68	2.1485e-06	1.763e-06	271.25	78.278	61.897	17.831	1.5513e-06	25.574	92.228	-22.554	22.614	-76.658	70.005	47.675	-76.604	-69.399	0.388	64.703	-69.567	-63.332	-62.800	-55.568	59.175	-56.651	-8191	255	
18496.072	1	1	0	0	0.2595	0.14098	0.047525	0.1871	0.23757	0.27355	0.022342	0.12737	0.18047	0.16236	0.10094	0.33121	0.27556	0.065977	0.083757	0.17598	-4.5125	-4.3458	-4.325	-4.6813	-4.2396	-4.7083	-4.6021	-4.2583	-4.8667	-4.2979	-4.4563	-4.9708	-4.2958	-4.8625	-4.5062	-4.2021	-37.159	124.695	259.235	242.063	-76.606	-69.658	218.651	-8.640	90.245	125.908	-76.781	253.559	-14.473	62.976	-79.258	-15.090	0.00016912	0.00029173	7.2688e-05	1036.2	2.8274e-06	2.782e-06	1110.2	216.66	1.9039e-06	3.8905e-06	272.41	78.175	61.323	17.641	3.3601e-06	25.283	0.00021015	0.00017356	3.0772e-05	1019.3	2.6409e-06	1.291e-06	1096.6	215.65	1.99e-06	1.6374e-06	271.2	78.643	61.728	17.785	1.4323e-06	25.549	89.891	-3.795	-4.394	-76.631	49.235	82.032	-76.767	-69.550	19.382	63.445	-69.376	-63.304	-62.974	-55.865	66.335	-56.039	-8191	255	
18496.170	1	1	0	0	0.12066	0.12557	0.035914	0.1451	0.095131	0.16718	0.17399	0.1751	0.024192	0.1268	0.15237	0.062633	0.26291	0.11102	0.09	0.072927	-4.4938	-4.4333	-4.4229	-4.9	-4.0625	-4.6333	-4.8979	-4.2729	-4.8729	-4.5	-4.4083	-4.85	-4.1542	-4.5875	-4.5375	-4.2896	-55.864	192.533	158.157	191.580	19.447	147.834	257.803	215.551	21.783	53.221	-32.055	-12.482	185.481	-83.968	187.174	-81.723	0.00019982	0.00039931	8.1075e-05	1038.6	2.6362e-06	3.1439e-06	1109.7	216.3	2.5601e-06	2.9725e-06	272.54	77.918	61.15	17.711	2.037e-06	25.27	0.00020792	0.00016348	4.412e-05	1021.9	2.5354e-06	1.068e-06	1100	215.7	1.7276e-06	1.2982e-06	271.19	78.323	61.66	17.845	1.3881e-06	25.594	104.935	3.527	9.655	-76.452	40.053	78.737	-76.609	-69.567	0.380	79.553	-69.710	-63.547	-62.727	-55.694	58.708	-56.400	-8191	255	
18496.289	1	1	0	0	0.034287	0.12214	0.06999	0.03213	0.20482	0.23201	0.14753	0.11266	0.16537	0.080079	0.15555	0.084511	0.029626	0.24775	0.22705	0.15748	-4.4	-4.4146	-4.2646	-4.7979	-4.2979	-4.4625	-4.8521	-4.1937	-4.7146	-4.4354	-4.1792	-4.7688	-4.3812	-4.5896	-4.6479	-4.2458	2.349	66.700	102.326	268.866	214.782	-80.357	158.367	219.446	225.777	-86.377	-58.449	33.707	213.389	263.006	-41.874	-69.231	0.00015903	0.00035299	6.41e-05	1040.6	2.1326e-06	2.4799e-06	1107.2	216.24	7.9e-07	3.4802e-06	271.82	77.607	61.482	17.5	3.6457e-06	25.401	0.00022513	0.00015207	3.6486e-05	1022.7	2.2787e-06	1.1952e-06	1097	215.79	2.0537e-06	1.612e-06	270.67	78.251	61.72	17.732	1.2843e-06	25.532	98.294	10.561	-1.435	-76.548	36.636	59.834	-76.335	-69.459	57.723	58.565	-69.523	-63.441	-62.837	-55.706	50.690	-56.175	-8191	255	
18496.385	1	1	0	0	0.069509	0.056543	0.052515	0.24782	0.12184	0.092509	0.25132	0.18826	0.10008	0.21981	0.21874	0.25908	0.052302	0.24244	0.04563	0.15864	-4.2937	-4.5375	-4.3187	-4.9833	-4.4354	-4.3646	-4.8854	-4.3021	-4.5375	-4.6	-4.2479	-4.875	-4.2292	-4.4187	-4.65	-4.1646	244.343	186.605	38.068	171.014	62.074	-63.714	-71.839	242.076	219.850	161.694	-34.423	210.941	-34.557	-83.843	202.720	217.153	0.00016436	0.00019004	8.431e-05	1035	2.3088e-06	2.76e-06	1114.3	217.38	2.6945e-06	3.7972e-06	272.95	77.454	61.216	17.436	2.3734e-06	25.171	0.00021111	0.00011091	4.6228e-05	1021.5	2.5732e-06	9.8194e-07	1098.4	215.92	2.3187e-06	1.1531e-06	270.81	78.148	61.522	17.734	1.4033e-06	25.53	98.092	2.767	-6.669	-76.508	65.097	59.285	-76.586	-69.407	0.480	45.731	-69.463	-63.334	-62.961	-55.831	75.615	-56.542	-8191	255	
18496.480	1	1	0	0	0.11306	0.16559	0.19369	0.19301	0.28051	0.21865	0.094121	0.27715	0.053294	0.23699	0.16648	0.26362	0.14711	0.079709	0.15428	0.30753	-4.3938	-4.5687	-4.2417	-4.8167	-4.35	-4.325	-5.0542	-4.2271	-4.6667	-4.7	-4.3271	-4.8812	-4.4417	-4.3083	-4.7229	-4.4104	62.571	91.801	-81.105	179.873	29.352	206.103	138.095	242.148	30.593	151.313	159.702	258.744	-1.805	-12.933	185.482	247.753	0.00018512	0.00024228	5.01e-05	1031.3	1.7401e-06	3.531e-06	1110.2	216.21	3.7059e-06	2.4242e-06	271.16	77.357	61.096	17.57	3.2309e-06	24.943	0.00024056	0.00011455	2.9835e-05	1017.4	2.4716e-06	1.6137e-06	1094.5	215.39	2.1095e-06	1.0335e-06	269.88	78.259	61.281	17.723	1.2981e-06	25.354	94.641	7.861	16.815	-76.618	49.817	93.360	-76.535	-69.194	8.396	57.911	-69.867	-63.193	-62.668	-55.853	50.116	-56.163	-8191	255	
18496.602	1	1	0	0	0.12949	0.091687	0.087602	0.071222	0.20963	0.056328	0.27528	0.067459	0.13718	0.32453	0.25062	0.17802	0.12391	0.23935	0.057964	0.23734	-4.1792	-4.75	-4.2354	-4.7854	-4.4062	-4.3375	-4.9375	-4.3875	-4.525	-4.9563	-4.1125	-4.6896	-4.4667	-4.1083	-4.7354	-4.3729	-51.678	4.675	37.830	-48.870	80.170	139.436	233.058	227.385	133.045	8.880	176.710	148.893	99.478	-52.012	194.901	70.997	0.0002062	0.00029811	9.9234e-05	1029.1	3.0469e-06	3.2584e-06	1109.9	215.29	1.7808e-06	3.6861e-06	269.75	77.262	60.757	17.408	2.7822e-06	24.937	0.00021692	0.00011438	4.4823e-05	1016.1	2.482e-06	1.6509e-06	1090.5	214.18	2.1667e-06	8.4716e-07	269.56	77.909	61.034	17.648	1.3789e-06	25.291	99.682	-27.283	-1.910	-76.818	69.791	47.284	-76.642	-69.150	14.527	53.843	-69.549	-63.348	-62.524	-55.393	52.986	-56.079	-8191	255	
18496.697	1	1	0	0	0.067352	0.25242	0.17965	0.22419	0.033475	0.12517	0.10536	0.16825	0.18389	0.1611	0.11237	0.11701	0.15159	0.36992	0.14366	0.10009	-4.05	-4.9	-4.1292	-4.8063	-4.5396	-4.1375	-4.9792	-4.4125	-4.225	-4.7958	-4.45	-4.6833	-4.6396	-4.2125	-4.8646	-4.4229	181.055	68.532	233.326	197.576	108.883	155.023	237.548	260.404	-51.440	-78.920	200.665	-71.531	252.732	211.722	255.427	-64.031	0.00017448	0.00033773	0.00010937	1028.3	2.1073e-06	1.4182e-06	1102	215.02	3.3111e-06	4.1288e-06	268.92	77.463	61.396	17.36	2.7454e-06	24.925	0.00021197	0.00012513	4.7071e-05	1013.1	2.4703e-06	1.7585e-06	1090.2	214.3	2.5187e-06	1.51e-06	269.1	78.069	61.42	17.643	1.1821e-06	25.314	98.230	-22.615	8.159	-76.559	82.061	64.693	-76.330	-69.393	30.238	54.461	-69.506	-63.556	-63.062	-55.399	62.704	-56.492	-8191	255	
18496.770	1	1	0	0	0.086186	0.14296	0.26153	0.13873	0.18139	0.24182	0.16777	0.21511	0.23628	0.17771	0.10853	0.083576	0.20647	0.14405	0.10435	0.038458	-3.9896	-4.6937	-4.2063	-4.7812	-4.5312	-4.0312	-4.7896	-4.4583	-4.3396	-4.7333	-4.4271	-4.6583	-4.6583	-4.0917	-4.575	-4.575	164.951	232.891	14.566	182.913	158.372	-86.328	270.292	233.528	253.163	84.659	240.306	12.450	135.471	219.851	271.152	16.977	0.00014573	0.00021101	8.1694e-05	1029.1	2.4903e-06	2.9012e-06	1099.7	215.32	3.7213e-06	3.06e-06	268.65	77.441	60.512	17.408	1.8236e-06	24.75	0.00022843	6.3969e-05	4.604e-05	1013.8	2.5146e-06	1.7018e-06	1087.5	214.44	2.5499e-06	1.2041e-06	268.75	77.958	61.182	17.643	1.3011e-06	25.212	82.748	-25.830	9.931	-76.391	56.924	64.799	-76.267	-69.166	6.368	59.799	-69.664	-63.287	-62.962	-55.138	49.219	-56.349	-8191	255	
18496.865	1	1	0	0	0.11493	0.24107	0.11235	0.3761	0.18444	0.06759	0.25031	0.065105	0.1285	0.070692	0.098473	0.22958	0.09952	0.21616	0.19281	0.073949	-3.8854	-4.9042	-4.3396	-4.5854	-4.8375	-4.2771	-4.8167	-4.5687	-4.3042	-4.9604	-4.3604	-4.5167	-4.7833	-4.0792	-4.7354	-4.8063	136.251	166.994	223.671	243.892	99.304	229.623	222.558	112.730	173.088	43.144	193.068	176.975	118.707	138.112	155.754	133.611	0.0001582	0.00027734	7.5334e-05	1025.2	2.0107e-06	2.6529e-06	1094.7	214.79	2.7091e-06	3.0588e-06	269.77	77.159	60.668	17.558	3.2699e-06	24.923	0.00023287	0.00012199	3.8172e-05	1011.4	2.5458e-06	1.5903e-06	1085.6	214.23	2.3667e-06	3.2357e-07	269.7	77.686	60.976	17.633	1.6443e-06	25.261	91.939	11.707	-2.137	-76.450	72.218	79.364	-76.293	-69.181	34.908	58.667	-69.573	-63.570	-63.199	-55.529	49.178	-56.538	-8191	255	
18496.984	1	1	0	0	0.14978	0.2126	0.098867	0.057337	0.15566	0.25757	0.071959	0.19396	0.23602	0.066516	0.12657	0.047704	0.1528	0.24188	0.070944	0.16181	-3.9813	-4.8375	-4.4042	-4.5958	-4.7771	-4.1958	-4.8854	-4.825	-4.2937	-4.8229	-4.5958	-4.3542	-4.7646	-4.4708	-4.6438	-4.7354	-53.267	56.091	56.402	-52.926	253.787	33.975	205.646	5.230	-86.616	-86.278	-68.319	204.302	135.733	72.011	209.411	38.095	0.00016797	0.0002959	8.0626e-05	1022.8	3.13e-06	3.1379e-06	1098.5	215.09	3.4301e-06	3.2595e-06	270.13	77.311	60.928	17.486	3.3353e-06	24.959	0.00022695	0.00012893	3.3207e-05	1011.1	2.3778e-06	1.8661e-06	1087.2	214.37	2.4875e-06	9.1776e-07	268.9	77.86	61.259	17.679	1.7496e-06	25.237	97.153	13.277	12.188	-76.689	58.101	52.082	-76.457	-69.293	7.852	60.033	-69.591	-63.305	-62.870	-55.819	57.840	-55.946	-8191	255	
18497.080	1	1	0	0	0.1246	0.15233	0.13632	0.11483	0.075889	0.076908	0.31584	0.049593	0.13009	0.22996	0.077237	0.16834	0.1443	0.13924	0.27148	0.14592	-3.7313	-4.6542	-4.5708	-4.6021	-4.7854	-4.3542	-4.6292	-4.8146	-4.1937	-4.7312	-4.6208	-4.2583	-4.8812	-4.2875	-4.5354	-4.6687	112.609	23.263	-73.412	88.210	261.651	159.438	188.676	188.711	130.523	135.326	-40.245	199.391	146.447	-66.872	38.033	225.603	0.00019818	0.00042189	9.2474e-05	1027.4	2.2693e-06	2.9427e-06	1094.9	215.57	2.0077e-06	3.2592e-06	271	77.886	60.677	17.455	2.5403e-06	24.909	0.00023339	0.00011405	3.8874e-05	1013	2.0403e-06	1.6607e-06	1086.5	214.35	2.5382e-06	1.4923e-06	269.82	78.029	61.135	17.652	1.8472e-06	25.26	92.784	-7.716	-12.990	-76.484	57.558	51.691	-76.281	-69.303	26.495	78.422	-69.714	-63.063	-63.002	-55.659	71.643	-56.541	-8191	255	
18497.176	1	1	0	0	0.18827	0.1233	0.22863	0.35204	0.07554	0.27519	0.17058	0.23036	0.28058	0.073359	0.16733	0.19625	0.18326	0.11595	0.066931	0.038749	-3.8021	-4.6312	-4.6729	-4.2854	-4.7479	-4.4125	-4.5229	-4.7042	-4.3292	-4.5604	-4.5563	-4.1229	-4.7333	-4.4521	-4.375	-4.8521	-5.676	-49.695	74.420	238.681	100.834	34.443	-84.728	253.892	-19.203	-57.390	43.881	34.942	198.274	66.927	180.599	206.798	0.0001481	0.00037066	9.2662e-05	1028.6	2.939e-06	2.2772e-06	1103.9	215.8	2.6183e-06	2.3581e-06	272.18	77.538	61.069	17.459	2.9134e-06	24.829	0.00021658	0.00014728	3.7703e-05	1014.3	2.3673e-06	1.2421e-06	1089.7	214.54	2.446e-06	1.1884e-06	270.36	77.95	61.166	17.661	1.7404e-06	25.238	97.541	-2.483	19.448	-76.394	61.703	66.182	-76.468	-69.473	29.292	51.051	-69.603	-63.671	-62.895	-55.411	57.754	-56.599	-8191	255	
18497.271	1	1	0	0	0.16952	0.18336	0.15304	0.11108	0.079774	0.050402	0.33071	0.17357	0.23019	0.30269	0.26121	0.10029	0.21634	0.22687	0.10205	0.024073	-3.8917	-4.4812	-4.7146	-4.1896	-4.5938	-4.4646	-4.3833	-4.875	-4.075	-4.5542	-4.7333	-4.1562	-4.6937	-4.4667	-4.1083	-4.8354	188.087	-22.224	131.537	-49.488	203.857	231.481	258.557	178.667	3.506	-63.369	76.095	-23.317	259.363	266.241	180.300	-10.146	0.00018634	0.00023392	7.9796e-05	1029.3	1.7066e-06	3.8136e-06	1096.5	214.8	2.4712e-06	2.8325e-06	271.29	77.602	60.97	17.432	3.8279e-06	24.864	0.0002237	0.00012083	2.3278e-05	1013.7	2.0989e-06	1.6822e-06	1087.6	214.23	2.6006e-06	1.5904e-06	269.79	78.145	61.183	17.641	2.1904e-06	25.143	92.155	1.778	4.484	-76.591	49.626	72.935	-76.611	-69.287	31.068	61.979	-69.481	-63.127	-63.578	-55.482	68.827	-56.340	-8191	255	
18497.369	1	1	0	0	0.16895	0.14585	0.15995	0.12335	0.073028	0.047458	0.024788	0.17263	0.14663	0.14486	0.16915	0.11938	0.1533	0.29589	0.11796	0.15887	-3.9396	-4.4833	-4.7438	-4.2812	-4.7	-4.6458	-4.3521	-4.9958	-4.2583	-4.3208	-4.7667	-4.3021	-4.7438	-4.5771	-4.2688	-4.9479	12.529	248.899	81.132	218.962	-10.652	188.557	244.122	-77.559	232.489	101.243	-84.619	66.278	185.243	251.119	195.017	-55.134	0.00016525	0.00025554	8.438e-05	1026.2	2.7489e-06	3.3005e-06	1100.8	215.04	1.5066e-06	3.5267e-06	270.29	77.294	60.933	17.513	2.0784e-06	24.788	0.00023766	0.00010777	3.1896e-05	1013.1	2.3921e-06	1.3634e-06	1087	213.92	2.2433e-06	1.6512e-06	269.39	77.867	60.971	17.647	2.2743e-06	25.112	83.525	-15.514	-6.684	-76.660	11.481	51.525	-76.638	-69.648	35.775	73.368	-69.432	-63.312	-62.958	-56.046	42.640	-56.229	-8191	255	
18497.465	1	1	0	0	0.17103	0.05372	0.16773	0.27446	0.094562	0.11998	0.094587	0.22469	0.045684	0.052439	0.0085403	0.093974	0.1467	0.18399	0.19205	0.039212	-4.0958	-4.3917	-4.7312	-4.2646	-4.4833	-4.7125	-4.3938	-4.8021	-4.3562	-4.4167	-4.8146	-4.1979	-4.5146	-4.7063	-4.0979	-4.8458	92.065	-45.102	41.042	231.659	123.970	1.262	217.738	220.644	131.837	97.521	-70.887	-50.510	-46.398	7.603	86.675	74.000	0.00016401	0.00026972	6.2498e-05	1030.1	1.8414e-06	2.7983e-06	1101.3	213.87	1.9146e-06	3.9813e-06	269.36	77.023	61.002	17.521	2.8087e-06	24.783	0.00022382	0.00016513	2.8055e-05	1014.1	2.3348e-06	9.7216e-07	1085.4	214.04	2.0914e-06	2.0826e-06	268.33	77.635	61.057	17.67	2.0592e-06	25.228	90.146	3.864	0.079	-76.497	58.997	61.262	-76.389	-69.623	22.270	52.369	-69.427	-63.655	-63.101	-55.124	61.358	-56.615	-8191	255	
18497.561	1	1	0	0	0.14876	0.13836	0.11115	0.22315	0.14912	0.16388	0.19229	0.14838	0.22004	0.014618	0.23553	0.28422	0.044897	0.080524	0.13032	0.031896	-4.2167	-4.3667	-4.7708	-4.4229	-4.4375	-4.8917	-4.4521	-4.6042	-4.5396	-4.3854	-4.9708	-4.4542	-4.5417	-4.7417	-4.1062	-4.875	251.457	-83.534	68.787	215.123	88.608	29.753	163.134	260.188	45.047	245.777	1.087	-41.808	271.642	-21.432	184.812	32.947	0.00015839	0.00033529	7.1776e-05	1027.4	2.6227e-06	2.0004e-06	1098.7	215.08	2.5848e-06	4.265e-06	270.04	77.178	60.953	17.26	3.6127e-06	24.71	0.0002216	0.00020116	2.6275e-05	1013.5	2.5445e-06	1.2656e-06	1089.7	214.21	2.1225e-06	1.7943e-06	269.11	77.842	61.286	17.636	1.9677e-06	25.172	100.400	0.568	10.972	-76.214	55.622	88.599	-76.332	-69.455	31.642	76.596	-69.366	-63.194	-62.798	-55.660	40.726	-56.257	-8191	255	
18497.682	1	1	0	0	0.14978	0.1057	0.13982	0.38215	0.18432	0.23823	0.23206	0.156	0.049682	0.0772	0.18252	0.044004	0.060555	0.085411	0.14317	0.16035	-4.1833	-4.2729	-4.7396	-4.425	-4.4042	-4.8792	-4.2771	-4.8917	-4.4958	-4.1979	-4.7562	-4.4	-4.5083	-4.8958	-4.0792	-4.6729	-31.002	-53.673	267.669	241.181	61.274	105.405	219.279	139.057	110.577	-50.592	164.275	138.034	35.749	163.914	-24.366	225.767	0.00018213	0.00035245	9.3511e-05	1028.6	2.9251e-06	3.2417e-06	1101.6	215.9	2.1086e-06	3.374e-06	270.35	77.24	61.084	17.431	2.1119e-06	24.885	0.0002151	0.00020992	2.6416e-05	1012.9	2.7738e-06	1.5081e-06	1089.5	214.44	2.0667e-06	1.5884e-06	269.62	77.765	61.226	17.634	1.7465e-06	25.209	101.688	8.844	-3.616	-76.613	60.244	40.622	-76.588	-69.438	66.048	71.204	-69.655	-63.154	-63.097	-55.355	75.859	-56.388	-8191	255	
18497.777	1	1	0	0	0.19997	0.19731	0.051596	0.15647	0.14062	0.16097	0.22869	0.042572	0.26362	0.093396	0.12271	0.16922	0.2704	0.12584	0.20886	0.19668	-4.2937	-4.1771	-4.6292	-4.2917	-4.25	-4.7708	-4.4896	-4.5729	-4.7562	-4.0583	-4.6917	-4.4583	-4.4729	-4.9979	-4.2729	-4.6125	263.165	127.114	-13.346	235.063	206.727	-40.672	201.866	-22.149	49.901	250.382	136.027	222.864	-59.798	234.740	-48.608	-77.220	0.00017931	0.0003544	0.00010127	1027.4	1.1165e-06	2.0935e-06	1095.6	215.76	1.6627e-06	3.4132e-06	268.9	77.416	60.828	17.499	3.3052e-06	25.066	0.0002192	0.0001848	3.1568e-05	1013	2.7087e-06	7.5308e-07	1087.1	214.24	1.9809e-06	1.5904e-06	268.82	78.09	61.332	17.671	1.623e-06	25.328	94.662	4.325	11.712	-76.682	19.866	59.557	-76.703	-69.353	32.489	79.984	-69.486	-63.353	-62.978	-55.858	74.399	-56.489	-8191	255	
18497.873	1	1	0	0	0.1413	0.27274	0.24208	0.16049	0.057448	0.30283	0.12809	0.32876	0.084445	0.078915	0.08498	0.27067	0.043761	0.098481	0.11244	0.41825	-4.4104	-4.0771	-4.7229	-4.6604	-4.275	-4.7646	-4.5188	-4.5625	-4.7021	-4.1771	-4.7958	-4.6771	-4.3958	-4.9917	-4.3979	-4.6188	99.986	130.811	-57.268	140.524	172.049	58.856	198.994	211.805	236.123	219.079	117.801	133.304	146.675	43.161	260.598	146.612	0.00018752	0.0003751	9.1266e-05	1026.6	2.9739e-06	2.9217e-06	1101.3	216.15	2.537e-06	2.6983e-06	269.93	77.54	61.217	17.483	2.2554e-06	24.958	0.00021715	0.00016397	2.9741e-05	1013	2.6918e-06	1.0563e-06	1088.6	214.43	2.2485e-06	1.7551e-06	268.82	77.917	61.356	17.666	1.7709e-06	25.306	93.548	-6.022	30.399	-76.542	57.417	90.084	-76.666	-69.439	3.276	57.489	-69.586	-63.347	-62.892	-55.829	45.561	-55.925	-8191	255	
18497.971	1	1	0	0	0.29532	0.089039	0.11176	0.22793	0.11299	0.25818	0.054257	0.27576	0.28665	0.053549	0.16947	0.15925	0.23604	0.17612	0.1846	0.35569	-4.4792	-4.325	-4.7375	-4.6917	-4.2708	-4.7583	-4.5146	-4.4083	-4.9021	-4.2042	-4.6271	-4.8271	-4.1354	-4.8562	-4.3271	-4.4417	251.085	167.318	121.643	-87.264	-40.208	97.809	62.358	-51.335	99.925	-52.713	217.027	244.481	63.233	207.183	-0.121	200.430	0.00017933	0.00035958	9.7264e-05	1027.2	1.1032e-06	2.5153e-06	1096.7	214.92	2.4106e-06	3.7195e-06	269.93	77.624	61.084	17.471	2.7884e-06	24.971	0.00020901	0.00017488	3.5455e-05	1013.6	2.9015e-06	6.6702e-07	1086.1	214.22	1.8433e-06	1.4865e-06	269.2	77.966	61.389	17.639	1.7786e-06	25.334	96.101	7.614	14.177	-76.562	20.283	54.997	-76.638	-69.503	34.573	66.345	-69.778	-63.301	-62.848	-55.792	51.722	-56.327	-8191	255	
18498.066	1	1	0	0	0.29036	0.16816	0.079529	0.20904	0.22488	0.1054	0.14536	0.19969	0.084733	0.10988	0.16848	0.25261	0.24565	0.14743	0.18626	0.11754	-4.4479	-4.2833	-4.6146	-4.8083	-3.9896	-4.6687	-4.5167	-4.2625	-4.8542	-4.2542	-4.4771	-4.8625	-4.1646	-4.6146	-4.5021	-4.3167	147.867	224.191	176.796	226.529	162.021	-26.483	-74.819	114.539	270.072	195.709	207.505	-72.612	186.478	218.954	166.643	131.478	0.00019176	0.00034608	7.8326e-05	1028	2.3124e-06	2.8349e-06	1104.7	215.31	8.8994e-07	2.1941e-06	271	77.087	61.596	17.482	3.6542e-06	25.091	0.00020895	0.00016629	2.768e-05	1014.4	2.6305e-06	9.4478e-07	1091.4	214.44	1.851e-06	1.6218e-06	269.96	77.801	61.687	17.693	1.8487e-06	25.346	90.083	4.389	11.147	-76.622	61.743	60.598	-76.535	-69.581	73.652	44.385	-69.732	-63.054	-62.927	-55.683	65.127	-56.455	-8191	255	
18498.160	1	1	0	0	0.10775	0.10825	0.020009	0.14334	0.034937	0.2742	0.16838	0.17927	0.17547	0.037477	0.20727	0.31889	0.2075	0.091503	0.14214	0.19152	-4.5479	-4.2083	-4.475	-4.8562	-4.2188	-4.5021	-4.6771	-4.2458	-4.8438	-4.4521	-4.5458	-4.8146	-4.3542	-4.5979	-4.6229	-4.2604	68.635	139.661	132.851	271.074	-70.433	33.066	208.265	238.216	75.175	51.321	121.206	-15.665	94.266	-25.234	123.023	170.579	0.00016771	0.00033543	9.15e-05	1030	1.3649e-06	3.5052e-06	1103.5	215.88	1.6975e-06	3.0689e-06	271.22	77.21	61.338	17.538	2.741e-06	25.035	0.00021231	0.00016232	3.9202e-05	1016	2.5628e-06	1.0954e-06	1092.5	214.7	2.003e-06	1.8316e-06	269.99	77.868	61.439	17.712	1.5208e-06	25.331	91.792	-4.262	12.033	-76.788	89.837	55.045	-76.429	-69.254	45.146	57.453	-69.684	-63.634	-62.913	-55.507	62.327	-56.002	-8191	255	
18498.281	1	1	0	0	0.15507	0.053505	0.069874	0.059924	0.034521	0.066249	0.33505	0.14693	0.1632	0.0054373	0.10919	0.2234	0.063028	0.10066	0.17564	0.12255	-4.3771	-4.5667	-4.3187	-4.7729	-4.225	-4.5167	-4.7812	-4.3812	-4.8042	-4.5437	-4.2958	-4.8562	-4.275	-4.6292	-4.7042	-4.3562	247.342	59.249	248.838	224.322	-87.483	29.493	156.184	-42.286	192.308	95.804	231.807	-83.929	211.497	74.905	17.089	208.986	0.00016956	0.00037667	7.6185e-05	1029	1.7777e-06	2.99e-06	1105.8	216.22	2.4323e-06	2.6001e-06	269.93	77.609	61.486	17.442	2.5074e-06	25.018	0.00021772	0.00015587	3.3254e-05	1014.7	2.8064e-06	1.6118e-06	1091.9	215.01	2.0043e-06	1.2609e-06	269.52	78.103	61.5	17.639	1.1944e-06	25.429	87.632	0.686	21.828	-76.705	54.651	59.894	-76.480	-69.714	-21.311	85.400	-69.766	-63.144	-63.371	-56.001	96.864	-55.961	-8191	255	
18498.377	1	1	0	0	0.19707	0.14822	0.11585	0.26011	0.083047	0.20276	0.25546	0.11814	0.18425	0.18822	0.077814	0.31613	0.15635	0.15891	0.20405	0.24901	-4.3688	-4.4229	-4.3438	-4.9021	-4.3146	-4.6	-5.0292	-4.3042	-4.7042	-4.5208	-4.2229	-4.85	-4.425	-4.325	-4.7771	-4.0896	171.724	53.017	-9.227	-20.840	108.216	85.123	204.543	-51.028	39.051	-67.345	-60.655	164.525	-10.195	179.934	127.145	141.189	0.00018492	0.00031429	0.000109	1031.3	1.006e-06	3.9725e-06	1105.8	215.77	7.9137e-07	3.3242e-06	272.18	77.385	61.653	17.505	2.2716e-06	25.045	0.00020633	0.00014463	4.6696e-05	1015.1	2.138e-06	1.8954e-06	1091.6	214.68	1.9693e-06	1.9336e-06	270.56	78.089	61.589	17.724	1.5498e-06	25.417	92.479	8.249	-4.478	-76.614	39.634	68.482	-76.576	-69.197	-17.926	75.992	-69.923	-63.323	-63.216	-55.260	61.359	-56.539	-8191	255	
18498.473	1	1	0	0	0.12427	0.11154	0.15642	0.19517	0.14757	0.11226	0.29774	0.25207	0.09367	0.16281	0.021334	0.010415	0.14801	0.13336	0.11252	0.17914	-4.3792	-4.4854	-4.2104	-4.8896	-4.3021	-4.3958	-4.8625	-4.2167	-4.625	-4.5896	-4.1667	-4.75	-4.4292	-4.3104	-4.8333	-4.2542	113.303	121.823	-39.753	218.920	251.765	166.850	179.223	136.860	168.987	53.906	245.128	-57.016	-12.862	229.145	-3.548	34.920	0.00016291	0.00022378	7.7154e-05	1034.3	1.864e-06	3.601e-06	1102.2	216.92	9.2497e-07	3.8413e-06	273.04	77.873	61.332	17.442	3.0529e-06	25.157	0.00022661	0.00011356	4.8195e-05	1018.9	2.9458e-06	1.293e-06	1092.9	215.09	2.1576e-06	1.0727e-06	270.27	78.064	61.619	17.728	1.0815e-06	25.436	90.967	10.016	3.236	-76.404	42.274	72.000	-76.596	-69.585	84.542	70.621	-69.581	-63.328	-63.227	-55.168	55.208	-56.298	-8191	255	
18498.568	1	1	0	0	0.24519	0.21212	0.087079	0.41414	0.24401	0.097093	0.024749	0.1026	0.18849	0.13354	0.12396	0.16191	0.061426	0.14375	0.14227	0.16106	-4.225	-4.5813	-4.1708	-4.8583	-4.375	-4.325	-5.1229	-4.4875	-4.4938	-4.6188	-4.2521	-4.8875	-4.6562	-4.3271	-4.9062	-4.3083	-83.176	36.517	31.463	227.900	198.854	-39.785	260.856	161.186	-66.279	237.067	265.017	-49.478	255.256	-3.474	-84.415	162.997	0.0002045	0.00024128	4.4656e-05	1029.3	2.075e-06	3.6801e-06	1104.5	215.76	1.4597e-06	3.05e-06	270.38	77.273	61.383	17.569	2.8735e-06	24.993	0.00021681	0.00011554	4.0279e-05	1015.4	2.3621e-06	1.291e-06	1094.5	214.67	2.3044e-06	1.1237e-06	269.9	77.998	61.506	17.774	1.4369e-06	25.408	96.783	-5.387	-4.277	-76.594	78.179	56.989	-76.594	-69.327	41.034	63.524	-69.657	-63.447	-62.905	-55.508	86.592	-56.124	-8191	255	
18498.641	1	1	0	0	0.15061	0.39202	0.18046	0.22856	0.049498	0.12906	0.1946	0.1512	0.12311	0.067753	0.1061	0.068855	0.078348	0.051388	0.10235	0.14997	-4.1854	-4.6917	-4.2396	-4.7625	-4.4792	-4.0792	-4.9021	-4.3708	-4.4708	-4.6875	-4.3938	-4.6937	-4.5104	-4.0375	-4.7042	-4.3875	122.008	-36.551	172.207	198.445	127.779	-49.179	188.315	-14.375	-82.179	90.165	-83.529	-53.273	265.013	-39.402	58.681	249.569	0.00018441	0.0003637	7.3797e-05	1029.6	2.6996e-06	2.5911e-06	1107.1	215.67	7.0495e-07	3.3766e-06	271.07	77.547	60.824	17.588	2.0142e-06	24.917	0.0002257	0.00012612	4.2293e-05	1016.8	2.3647e-06	1.6157e-06	1093.4	215.03	2.3343e-06	1.4178e-06	270.08	77.804	61.5	17.764	1.1242e-06	25.444	94.089	-27.421	11.341	-76.606	61.770	51.814	-76.470	-69.316	-15.739	68.625	-69.616	-63.417	-62.609	-55.559	52.041	-56.599	-8191	255	
18498.760	1	1	0	0	0.15656	0.26922	0.095698	0.1429	0.22828	0.056693	0.26951	0.017184	0.18798	0.069503	0.095012	0.14835	0.041615	0.063857	0.1591	0.17661	-4.0625	-4.8	-4.2688	-4.7333	-4.5958	-4.0792	-4.9042	-4.5625	-4.3667	-4.9333	-4.3063	-4.5917	-4.6417	-4.175	-4.8438	-4.4333	-70.019	-62.384	36.069	15.992	46.985	132.054	230.066	27.017	-30.238	187.111	55.089	-57.330	-70.854	254.733	60.816	76.184	0.00012146	0.00020435	8.6169e-05	1029.1	2.9548e-06	2.6086e-06	1107.1	215.52	2.1416e-06	3.1151e-06	270.28	77.242	60.964	17.413	3.0178e-06	25.364	0.00022273	0.00013951	3.7422e-05	1016.9	2.4924e-06	1.9815e-06	1093.7	214.93	2.546e-06	5.0202e-07	269.91	78.068	61.451	17.702	1.2767e-06	25.505	86.646	14.453	3.285	-76.377	53.209	67.686	-76.745	-69.352	31.191	49.023	-69.707	-63.370	-62.713	-55.443	45.100	-56.263	-8191	255	
18498.855	1	1	0	0	0.15112	0.088544	0.080688	0.039223	0.10655	0.10255	0.38791	0.13845	0.088875	0.082148	0.22513	0.090406	0.071301	0.056057	0.1033	0.16354	-3.9271	-4.7208	-4.4167	-4.7	-4.6875	-4.1458	-4.9271	-4.5667	-4.2208	-4.7188	-4.2875	-4.5958	-4.7771	-4.1062	-4.6667	-4.6042	235.153	-26.926	209.458	73.692	187.887	179.482	187.071	135.506	87.737	202.079	164.429	-71.098	80.494	152.431	53.059	48.784	0.00018003	0.00025076	6.6718e-05	1034.6	2.7762e-06	3.4297e-06	1108.8	216.26	1.7604e-06	3.908e-06	271.77	77.697	61.253	17.514	1.8862e-06	25.154	0.00022222	7.7358e-05	4.2059e-05	1018.2	2.3712e-06	1.827e-06	1095.8	215.05	2.8123e-06	8.452e-07	270.25	78.162	61.622	17.682	1.4003e-06	25.428	91.695	5.398	-3.704	-76.439	24.569	66.859	-76.595	-69.567	26.204	50.816	-69.408	-63.488	-62.632	-55.668	30.359	-56.115	-8191	255	
18498.951	1	1	0	0	0.24762	0.15391	0.14512	0.084753	0.10343	0.094223	0.07631	0.20447	0.15428	0.059841	0.11419	0.12173	0.22468	0.08542	0.18144	0.26567	-3.7792	-4.6042	-4.4479	-4.65	-4.8375	-4.15	-4.7729	-4.6937	-4.1396	-4.6813	-4.4	-4.3979	-4.7146	-4.2583	-4.5542	-4.8167	-1.514	-53.409	-76.082	247.201	26.110	0.348	244.598	249.007	-49.134	43.027	-58.614	-7.742	-57.893	203.499	205.967	254.661	0.00016858	0.00036278	8.5473e-05	1030	2.2919e-06	3.5921e-06	1108.3	216.5	2.0931e-06	2.3365e-06	269.96	78.114	61.194	17.569	4.1621e-06	25.287	0.00025002	0.0001005	4.7773e-05	1016.4	2.4546e-06	2.2514e-06	1095.9	215.08	2.5538e-06	7.8245e-07	270.08	78.372	61.695	17.745	1.9387e-06	25.574	91.717	21.153	-3.270	-76.404	40.326	81.225	-76.435	-69.351	27.622	58.604	-69.622	-63.408	-62.738	-55.927	65.729	-56.046	-8191	255	
18499.072	1	1	0	0	0.25955	0.15703	0.027109	0.15836	0.15316	0.36797	0.08487	0.19679	0.26232	0.117	0.19367	0.29432	0.14208	0.076017	0.1353	0.16948	-3.7938	-4.6646	-4.2896	-4.4875	-4.9208	-4.1375	-4.6813	-4.6729	-4.1104	-4.7396	-4.6604	-4.2354	-4.9125	-4.2688	-4.4396	-4.6667	121.388	272.174	132.758	120.200	189.841	-36.118	174.746	-82.486	258.953	209.937	-30.328	221.670	8.396	217.585	242.356	220.804	0.00019518	0.00034763	8.4947e-05	1029.3	2.139e-06	2.5366e-06	1112.3	216.81	1.3407e-06	2.7006e-06	270.29	77.132	61.418	17.55	3.3989e-06	25.063	0.00022826	8.8267e-05	3.9905e-05	1018.6	2.2931e-06	1.6059e-06	1097.2	215.52	2.5135e-06	7.648e-07	270.14	77.993	61.736	17.741	1.7542e-06	25.428	90.825	3.907	28.968	-76.364	54.862	74.426	-76.727	-69.357	20.727	65.282	-69.522	-63.341	-62.963	-55.575	72.768	-56.341	-8191	255	
18499.170	1	1	0	0	0.17792	0.11876	0.20914	0.087696	0.21475	0.068405	0.31587	0.28114	0.19817	0.10225	0.14327	0.12682	0.089873	0.08026	0.35971	0.14033	-3.8167	-4.6917	-4.6104	-4.3854	-4.6979	-4.3125	-4.6875	-4.7417	-4.0354	-4.5938	-4.6208	-4.2479	-4.9313	-4.35	-4.3688	-4.8146	180.066	265.776	99.072	183.557	159.273	1.558	226.861	216.119	25.815	-22.944	-17.927	124.964	-37.052	180.314	176.791	-18.840	0.00017721	0.00025018	6.3986e-05	1035.5	1.9926e-06	2.4147e-06	1108.1	217.28	2.4495e-06	3.1618e-06	272.14	77.766	60.926	17.586	2.9879e-06	24.924	0.00023185	7.6035e-05	4.0045e-05	1020.3	1.9895e-06	1.1541e-06	1096.4	215.59	2.4901e-06	1.3315e-06	270.57	78.083	61.467	17.723	1.6779e-06	25.396	93.375	19.839	19.932	-76.467	73.086	67.355	-76.532	-69.045	16.640	82.544	-69.593	-63.496	-63.022	-55.742	46.869	-56.150	-8191	255	
18499.240	1	1	0	0	0.16836	0.18949	0.19769	0.26181	0.16515	0.15202	0.31241	0.054175	0.030963	0.14717	0.36827	0.11238	0.20203	0.25547	0.30547	0.10588	-3.8396	-4.6062	-4.6438	-4.2312	-4.8083	-4.5583	-4.4938	-4.8958	-4.2854	-4.5146	-4.7188	-4.15	-4.675	-4.6125	-4.0833	-4.7854	168.402	83.949	196.744	226.614	40.603	269.963	178.508	129.530	-45.465	-45.979	220.727	-74.333	34.802	152.108	222.073	-30.803	0.00016094	0.00029462	8.2864e-05	1036.3	2.0529e-06	2.9531e-06	1106.9	216.68	1.0689e-06	3.111e-06	270.22	77.536	61.775	17.502	4.1018e-06	25.269	0.00023897	0.00012744	4.4073e-05	1019.1	2.1745e-06	1.336e-06	1097	215.32	2.4148e-06	9.3541e-07	270.57	78.258	61.841	17.774	2.2072e-06	25.581	98.378	8.505	-7.432	-76.684	69.989	61.045	-76.558	-69.593	50.712	73.646	-69.551	-63.310	-62.844	-55.848	59.381	-56.145	-8191	255	
18499.361	1	1	0	0	0.081974	0.17695	0.19436	0.13052	0.080605	0.1542	0.11303	0.10058	0.1891	0.12513	0.15996	0.22228	0.044361	0.11156	0.2181	0.10034	-3.8375	-4.5604	-4.6542	-4.2458	-4.6667	-4.5708	-4.3021	-4.9021	-4.4708	-4.4167	-4.9708	-4.1062	-4.6625	-4.5792	-4.1854	-4.9229	224.775	-32.137	-79.241	204.063	15.596	13.159	-79.743	205.124	225.230	218.282	266.598	248.690	-86.006	-32.320	55.537	29.599	0.00016174	0.00029716	7.0699e-05	1033.7	3.6619e-06	3.3892e-06	1105.8	215.25	1.7733e-06	2.9275e-06	270.72	77.501	61.259	17.633	3.5141e-06	25.209	0.00022746	0.00015802	3.6205e-05	1017.9	2.3087e-06	1.3986e-06	1095.5	214.92	2.4824e-06	1.5512e-06	270.43	77.991	61.606	17.749	2.2575e-06	25.43	86.870	-11.085	13.250	-76.756	56.299	48.644	-76.615	-69.312	57.775	33.346	-69.335	-63.222	-63.223	-55.492	28.839	-56.375	-8191	255	
18499.457	1	1	0	0	0.26242	0.20293	0.21163	0.026512	0.11451	0.14728	0.1581	0.21303	0.077155	0.23973	0.25991	0.091083	0.076762	0.19328	0.21983	0.15061	-3.9146	-4.3417	-4.75	-4.3625	-4.6521	-4.6417	-4.2896	-4.9167	-4.4146	-4.6229	-4.9396	-4.3	-4.5833	-4.6625	-4.2708	-4.7458	-64.262	216.861	213.719	-51.709	43.763	217.109	186.878	194.316	-64.708	-80.633	258.435	-87.133	199.179	231.486	92.084	191.605	0.0002068	0.00026847	9.8721e-05	1034.4	1.8645e-06	2.9866e-06	1109.7	216.72	2.842e-06	3.0611e-06	271.57	77.723	61.64	17.679	1.7211e-06	25.306	0.00021755	0.00015273	4.3745e-05	1019.8	2.284e-06	1.5629e-06	1095.5	215.19	2.4992e-06	1.357e-06	270.58	78.206	61.79	17.788	1.9265e-06	25.523	87.645	-6.715	-2.155	-76.612	109.929	58.300	-76.612	-69.510	23.153	76.565	-69.854	-63.872	-63.227	-56.297	48.139	-56.616	-8191	255	
18499.553	1	1	0	0	0.1277	0.10152	0.33835	0.17182	0.12538	0.34296	0.26922	0.16725	0.044009	0.071727	0.13678	0.0060477	0.076034	0.19351	0.30022	0.11352	-3.9417	-4.5042	-4.6208	-4.6083	-4.5437	-4.6208	-4.2104	-4.8708	-4.4167	-4.3438	-4.9375	-4.3979	-4.5667	-4.6521	-4.0667	-4.8896	-68.212	-55.472	167.535	235.672	262.845	-61.186	192.137	173.408	261.669	169.613	170.169	145.680	245.863	198.519	190.163	250.245	0.00017841	0.00033507	7.4797e-05	1030.3	1.856e-06	3.0348e-06	1108.2	215.54	1.238e-07	2.4399e-06	273.25	77.488	61.598	17.671	2.9891e-06	25.358	0.00022849	0.00016959	2.0889e-05	1019.6	2.3673e-06	9.037e-07	1096.9	215.12	2.3395e-06	1.459e-06	270.99	78.275	61.892	17.774	1.8121e-06	25.548	90.888	14.336	24.656	-76.487	59.288	73.399	-76.555	-69.321	189.592	57.350	-69.647	-63.054	-63.068	-56.190	72.036	-56.636	-8191	255	
18499.650	1	1	0	0	0.32283	0.081446	0.10734	0.11385	0.049299	0.069163	0.14153	0.19272	0.09756	0.14356	0.055802	0.029809	0.17679	0.057429	0.097144	0.23774	-4.2125	-4.1917	-4.8729	-4.3896	-4.5396	-4.8583	-4.3917	-4.7063	-4.4812	-4.3688	-4.8292	-4.3313	-4.3729	-4.7729	-4.1792	-4.6896	101.574	23.486	50.980	243.406	85.488	239.312	127.790	228.820	10.567	219.060	235.256	11.868	5.888	166.590	136.264	235.522	0.00016423	0.00024276	8.5172e-05	1032.2	2.2494e-06	1.9172e-06	1109.9	215.39	2.947e-06	3.2529e-06	270.66	77.092	61.753	17.515	3.1893e-06	25.123	0.00021174	0.00014943	2.7446e-05	1018.8	2.5081e-06	7.5113e-07	1096.6	214.96	1.9498e-06	1.1923e-06	270.18	78.091	61.757	17.7	2.2713e-06	25.483	104.501	-2.942	3.576	-76.303	30.942	59.302	-76.493	-69.425	3.115	57.622	-69.700	-63.236	-63.088	-55.495	57.627	-56.218	-8191	255	
18499.768	1	1	0	0	0.080973	0.09333	0.11416	0.23475	0.41291	0.085982	0.19969	0.19048	0.28562	0.29969	0.11559	0.089218	0.029151	0.16756	0.22063	0.11518	-4.1979	-4.2312	-4.5708	-4.3875	-4.3542	-4.7188	-4.2958	-4.7063	-4.4875	-4.2125	-4.9292	-4.4521	-4.2875	-4.8792	-4.2625	-4.6125	199.388	92.782	211.120	208.246	251.464	207.288	156.270	232.457	270.638	105.471	-60.304	169.701	-14.934	192.851	270.205	220.744	0.00013573	0.00026399	0.00011354	1031.2	2.3662e-06	3.1323e-06	1109.1	216.25	1.7006e-06	3.362e-06	272.21	77.632	61.367	17.575	2.2244e-06	25.14	0.00024336	0.00012959	3.3722e-05	1018.3	2.7139e-06	7.8633e-07	1096.5	215.45	2.1082e-06	1.8375e-06	270.89	78.194	61.837	17.702	1.6718e-06	25.469	91.303	11.986	12.935	-76.685	61.293	80.799	-76.511	-69.526	28.354	60.619	-69.207	-63.601	-63.359	-55.611	68.990	-56.127	-8191	255	
18499.865	1	1	0	0	0.18945	0.16288	0.1102	0.24954	0.25	0.02493	0.15506	0.33564	0.26855	0.26452	0.35898	0.11229	0.30876	0.15048	0.23502	0.15428	-4.3646	-4.1542	-4.6167	-4.3896	-4.3875	-4.8833	-4.4042	-4.6229	-4.6292	-4.1354	-4.7833	-4.5	-4.2479	-4.8792	-4.2	-4.5646	19.403	175.598	-71.976	-77.860	-67.532	-66.198	187.555	-58.850	228.633	107.683	266.033	262.060	262.794	267.882	-1.971	209.292	0.00017356	0.00026361	8.1002e-05	1038	1.7436e-06	3.4385e-06	1115.3	215.81	2.3197e-06	3.179e-06	270.09	77.422	61.579	17.611	2.4703e-06	25.087	0.0002163	0.00019538	2.9554e-05	1020.4	2.7478e-06	4.6163e-07	1098.7	215.04	2.1251e-06	1.863e-06	270.1	78.049	61.783	17.773	1.5787e-06	25.507	96.878	8.462	-9.294	-76.577	36.755	74.780	-76.679	-69.287	2.521	56.889	-69.472	-63.412	-63.285	-55.958	66.557	-56.408	-8191	255	
18499.961	1	1	0	0	0.10821	0.050882	0.056073	0.10207	0.20592	0.12828	0.33112	0.16623	0.17736	0.046554	0.30305	0.077173	0.18002	0.086156	0.054186	0.105	-4.4625	-4.2771	-4.7458	-4.6104	-4.2292	-4.7771	-4.4521	-4.4125	-4.6792	-4.3854	-4.7979	-4.7625	-4.3333	-4.7417	-4.4896	-4.3396	-81.405	115.241	5.834	163.605	-32.635	-50.416	206.919	-67.184	6.702	19.746	231.436	194.021	195.331	252.350	-14.362	263.654	0.00015002	0.00031694	5.8671e-05	1034.7	2.4427e-06	4.0431e-06	1109.1	216.31	2.6445e-06	2.6638e-06	271.3	77.513	61.98	17.472	3.2074e-06	25.171	0.00022085	0.00016761	2.8055e-05	1017.2	2.5471e-06	8.1568e-07	1097.7	215.52	2.0264e-06	1.2198e-06	270.76	78.185	61.9	17.688	1.6169e-06	25.51	103.241	12.348	-4.379	-76.525	35.793	75.590	-76.488	-69.561	39.365	47.628	-69.661	-63.194	-63.166	-55.644	72.679	-56.302	-8191	255	
18500.057	1	1	0	0	0.15521	0.14697	0.14239	0.16001	0.04469	0.080793	0.14657	0.099618	0.083449	0.12843	0.12125	0.13495	0.059787	0.060082	0.094862	0.19586	-4.4917	-4.3021	-4.5646	-4.7792	-4.1896	-4.7729	-4.4875	-4.5208	-4.7021	-4.0938	-4.6917	-4.6312	-4.2917	-4.8187	-4.4313	-4.3125	223.886	226.774	216.902	-44.261	-28.473	154.535	185.973	228.098	226.885	-59.802	-30.349	-78.463	65.116	22.003	-11.060	-54.083	0.00014758	0.00030165	6.2688e-05	1033.4	2.486e-06	2.7856e-06	1106	217.16	2.3653e-06	2.1874e-06	271.06	77.554	61.144	17.646	1.8833e-06	25.086	0.00021704	0.0001605	3.6111e-05	1019.3	2.4924e-06	7.3352e-07	1096.3	215.7	1.703e-06	2.0159e-06	270.88	78.213	61.768	17.699	1.4537e-06	25.475	93.451	1.589	6.327	-76.453	37.004	63.859	-76.290	-69.430	28.345	66.395	-69.308	-63.404	-62.749	-55.422	35.791	-56.537	-8191	255	
18500.152	1	1	0	0	0.18961	0.18153	0.1547	0.18834	0.13532	0.12357	0.08401	0.14999	0.12435	0.20031	0.17946	0.19925	0.12508	0.20115	0.050433	0.28085	-4.5708	-4.075	-4.6229	-4.7708	-4.1708	-4.85	-4.6479	-4.375	-4.8875	-4.3271	-4.4521	-4.7625	-4.0625	-4.7208	-4.5625	-4.2521	33.302	71.776	-43.086	-39.935	140.742	253.390	201.163	188.084	238.655	2.606	243.909	214.527	170.211	-6.322	67.466	246.344	0.00014243	0.00037322	0.00010347	1031	2.2246e-06	3.008e-06	1111.3	216.8	2.1662e-06	2.6045e-06	272.06	77.799	61.87	17.483	3.1243e-06	25.095	0.00021795	0.00019009	3.2458e-05	1017.9	2.9028e-06	1.2832e-06	1097.8	215.66	2.1043e-06	1.1433e-06	270.26	78.146	61.778	17.7	1.5513e-06	25.544	85.069	11.898	26.237	-76.454	30.311	66.236	-76.619	-69.023	30.348	63.171	-69.883	-63.226	-62.919	-55.983	46.599	-56.594	-8191	255	
18500.248	1	1	0	0	0.062372	0.123	0.0046627	0.13814	0.053782	0.045538	0.23357	0.055597	0.17222	0.093482	0.10658	0.046402	0.1928	0.077641	0.11015	0.33908	-4.5667	-4.4125	-4.4187	-4.9062	-4.1521	-4.6021	-4.6396	-4.2208	-4.7792	-4.3854	-4.3625	-4.7354	-4.1375	-4.5875	-4.6333	-4.1083	186.991	93.823	183.969	149.773	102.318	-32.381	168.259	-59.923	-50.441	267.307	-45.506	238.979	23.717	239.236	232.708	199.882	0.00021953	0.00037032	7.4664e-05	1034.8	3.5607e-06	3.0942e-06	1104.7	216.49	1.0785e-06	4.1093e-06	273.14	77.439	61.419	17.566	2.6182e-06	24.944	0.00021698	0.00017802	3.9062e-05	1021.4	2.9914e-06	1.3888e-06	1096.3	215.58	1.7341e-06	1.5786e-06	271.05	78.152	61.729	17.723	1.7587e-06	25.455	92.993	3.515	11.006	-76.561	34.802	84.775	-76.848	-69.322	67.878	60.933	-69.886	-63.125	-62.590	-55.809	30.297	-56.319	-8191	255	
18500.369	1	1	0	0	0.06194	0.12544	0.13015	0.065868	0.19651	0.092993	0.34511	0.33839	0.12105	0.10565	0.20386	0.15017	0.14232	0.23332	0.066026	0.08235	-4.3521	-4.3938	-4.3208	-5.1375	-4.2354	-4.6625	-4.8042	-4.2417	-4.8104	-4.5792	-4.2354	-4.7792	-4.2771	-4.5958	-4.6583	-4.2146	243.647	5.634	96.866	147.991	182.725	-58.613	152.652	229.842	122.441	32.707	224.596	-67.286	226.139	211.864	251.306	248.954	0.00012318	0.00028013	8.3154e-05	1037.2	1.9903e-06	3.4417e-06	1111.5	216.06	1.1555e-06	3.3893e-06	271.4	78.419	61.595	17.39	2.8217e-06	25.122	0.00021818	0.00012976	3.4846e-05	1021	2.8325e-06	1.5707e-06	1098.8	215.27	2.1381e-06	1.3139e-06	270.85	78.521	61.809	17.697	1.2233e-06	25.543	83.793	2.023	15.200	-76.470	54.575	71.136	-76.757	-69.232	10.396	59.014	-69.828	-63.133	-62.665	-55.565	60.194	-56.492	-8191	255	
18500.467	1	1	0	0	0.21329	0.10415	0.091976	0.23224	0.33592	0.26161	0.28506	0.096737	0.13492	0.057466	0.32321	0.060471	0.12615	0.094332	0.024802	0.088332	-4.2896	-4.4667	-4.1979	-5.0687	-4.3583	-4.3458	-5.0042	-4.4271	-4.6771	-4.6333	-4.325	-4.8458	-4.4542	-4.3896	-4.7083	-4.2542	49.673	220.931	153.201	210.138	58.203	166.887	169.910	136.498	-45.746	75.797	223.689	-43.769	172.597	-6.657	67.396	141.819	0.00014584	0.00028359	6.354e-05	1034.7	1.8669e-06	2.6451e-06	1110.8	216.6	1.943e-06	3.54e-06	273.17	77.929	61.387	17.595	2.193e-06	25.234	0.00022353	0.0001605	2.8149e-05	1019.6	2.7321e-06	1.7663e-06	1098.6	215.73	1.9381e-06	1.2119e-06	270.89	78.327	61.708	17.746	1.1059e-06	25.523	90.535	-4.507	12.552	-76.517	60.638	48.329	-76.720	-69.448	10.334	54.496	-69.361	-63.634	-62.996	-55.120	48.392	-56.381	-8191	255	
18500.537	1	1	0	0	0.26771	0.13745	0.091272	0.39706	0.034503	0.24741	0.18528	0.091869	0.068472	0.2322	0.034974	0.14018	0.1159	0.24133	0.14683	0.090941	-4.4646	-4.6771	-4.2083	-4.9396	-4.5604	-4.4729	-4.7667	-4.2625	-4.6333	-4.5625	-4.2146	-4.6958	-4.5417	-4.25	-4.6188	-4.0917	262.546	-32.336	-76.377	200.903	15.335	148.909	-15.432	131.210	50.535	40.635	63.965	70.590	43.664	194.189	225.150	193.475	0.00018912	0.00019876	0.00010156	1035.6	3.1983e-06	2.7915e-06	1112.9	216.01	1.6777e-06	3.4464e-06	271.73	77.457	61.505	17.612	3.3922e-06	25.143	0.00021556	0.00013835	4.0373e-05	1020.9	2.7882e-06	1.6059e-06	1099.1	215.22	2.4226e-06	9.256e-07	270.73	78.309	61.796	17.796	1.4735e-06	25.503	99.234	-4.204	-5.168	-76.633	55.804	65.876	-76.643	-69.211	-7.881	71.754	-69.556	-63.398	-63.166	-55.710	51.824	-56.017	-8191	255	
18500.635	1	1	0	0	0.14636	0.097803	0.035291	0.13324	0.043522	0.28819	0.10308	0.043733	0.20885	0.16456	0.072171	0.28825	0.12997	0.072893	0.27559	0.15304	-4.3625	-4.7667	-4.1958	-4.8771	-4.4917	-4.2771	-5.1208	-4.3812	-4.3604	-4.7271	-4.2042	-4.7021	-4.5417	-4.2479	-4.7312	-4.4604	52.087	115.548	51.451	117.384	165.511	6.601	116.073	233.520	52.831	-61.400	107.708	270.396	56.801	199.559	138.078	240.548	0.00017257	0.00034483	6.4242e-05	1034.6	2.1823e-06	3.05e-06	1113.3	217.17	3.4596e-06	2.0269e-06	272.54	77.941	61.35	17.539	3.8886e-06	25.256	0.00022615	0.00014546	3.7516e-05	1020.4	2.495e-06	1.5707e-06	1099	215.81	2.194e-06	9.0011e-07	271.28	78.367	61.545	17.694	1.5437e-06	25.523	100.160	18.073	-5.907	-76.663	54.498	72.338	-76.354	-69.256	12.536	69.726	-69.594	-62.959	-63.143	-55.640	49.377	-56.152	-8191	255	
18500.730	1	1	0	0	0.24533	0.15599	0.21069	0.16575	0.3019	0.15804	0.067358	0.15158	0.1896	0.041153	0.029207	0.11782	0.15656	0.24556	0.096746	0.2616	-4.1438	-4.6833	-4.1375	-4.8042	-4.5188	-4.2208	-4.85	-4.4521	-4.35	-4.7167	-4.2979	-4.6833	-4.5312	-4.2417	-4.7667	-4.4458	35.322	192.287	139.772	214.488	100.419	-29.917	220.005	-77.625	155.675	28.351	240.553	215.787	209.272	-84.510	17.111	269.624	0.00015885	0.00034605	8.2166e-05	1034.1	1.3727e-06	2.8758e-06	1108.1	216.19	1.614e-06	3.0855e-06	271.52	78.233	61.615	17.524	2.0586e-06	25.128	0.00022558	0.00010265	5.0256e-05	1019	2.2501e-06	1.2421e-06	1096.9	215.78	2.281e-06	1.2021e-06	270.74	78.382	61.693	17.717	1.1974e-06	25.503	93.065	24.974	-0.805	-76.525	85.396	60.552	-76.586	-69.504	24.259	59.529	-69.469	-63.249	-63.158	-55.816	58.150	-55.982	-8191	255	
18500.850	1	1	0	0	0.13642	0.23223	0.32584	0.33471	0.19979	0.15912	0.30605	0.13232	0.18491	0.28224	0.28451	0.13545	0.16983	0.17072	0.1316	0.21019	-4.0708	-4.8083	-4.3292	-4.7104	-4.5646	-4.2604	-4.8396	-4.5833	-4.1125	-4.7438	-4.2	-4.6375	-4.7479	-4.0896	-4.5771	-4.6583	160.260	120.608	222.449	230.413	265.369	86.063	197.855	-64.997	255.687	1.502	193.407	-68.983	218.735	-75.434	-1.180	80.018	0.00020698	0.00021128	5.1102e-05	1036	2.4364e-06	2.2591e-06	1110.7	216.04	3.0996e-06	3.0484e-06	271.5	77.411	62.258	17.545	2.7237e-06	25.101	0.00022444	0.0001086	3.7001e-05	1019.2	2.211e-06	1.8133e-06	1097.5	215.4	2.4707e-06	1.0335e-06	270.76	78.172	61.897	17.697	1.5482e-06	25.511	102.254	9.031	29.497	-76.549	29.373	80.603	-76.645	-69.230	-8.098	56.356	-69.892	-63.705	-63.351	-55.390	67.741	-56.252	-8191	255	
18500.945	1	1	0	0	0.19374	0.039885	0.14008	0.10814	0.23589	0.24189	0.31251	0.13048	0.11684	0.22284	0.38238	0.084461	0.2158	0.10389	0.14735	0.11695	-3.9604	-4.7875	-4.3938	-4.4958	-4.6875	-4.35	-4.7604	-4.5813	-4.125	-4.8083	-4.3271	-4.4125	-4.7667	-4.3063	-4.5896	-4.6438	-73.244	-65.822	-4.879	-43.237	134.671	168.363	201.410	198.770	-10.329	-71.147	217.134	11.812	-11.042	240.784	-67.452	204.964	0.00016737	0.00036134	8.0518e-05	1032.7	1.6137e-06	3.2767e-06	1113.1	215.71	2.5801e-06	3.2861e-06	271.66	77.96	61.279	17.487	2.3781e-06	25.024	0.00022404	0.00013852	3.9155e-05	1017.5	2.013e-06	1.8367e-06	1098	215.37	2.4681e-06	9.5698e-07	270.88	78.364	61.67	17.709	1.6794e-06	25.535	94.544	2.760	9.139	-76.483	45.462	77.729	-76.600	-69.457	26.798	58.712	-69.742	-63.216	-62.801	-55.840	55.722	-56.083	-8191	255	
18501.041	1	1	0	0	0.21192	0.24665	0.15816	0.22857	0.069539	0.082865	0.17322	0.29583	0.11364	0.045534	0.17372	0.26163	0.090137	0.2547	0.10797	0.25883	-3.9167	-4.8292	-4.3979	-4.3479	-4.7271	-4.1396	-4.8042	-4.6396	-4.2146	-4.9417	-4.4563	-4.2875	-4.7812	-4.3104	-4.5292	-4.5437	24.095	152.088	235.996	165.690	-71.073	229.436	194.584	99.674	-58.471	82.937	94.866	-68.736	134.865	93.827	53.155	51.176	0.00011659	0.0003144	8.4837e-05	1030.6	2.9082e-06	3.8225e-06	1107.7	216.22	3.1066e-06	4.0751e-06	271.49	77.834	61.54	17.637	2.9163e-06	25.191	0.00024723	0.00014182	4.1591e-05	1018.4	2.1888e-06	1.9874e-06	1096	215.48	2.2953e-06	1.0844e-06	270.87	78.294	61.796	17.796	1.5284e-06	25.502	84.760	-4.110	1.885	-76.306	55.821	70.584	-76.700	-69.318	7.312	42.112	-69.390	-63.642	-63.125	-56.032	69.945	-55.868	-8191	255	
18501.162	1	1	0	0	0.17447	0.057064	0.11571	0.23659	0.29254	0.1222	0.088479	0.11271	0.11338	0.1345	0.3633	0.28381	0.1673	0.12088	0.13104	0.23986	-3.6896	-4.7771	-4.5167	-4.5375	-4.7417	-4.45	-4.7063	-4.6958	-4.2063	-4.5729	-4.5813	-4.1146	-4.8417	-4.1417	-4.4104	-4.7937	215.388	216.772	-50.912	241.292	-0.433	-34.565	222.923	220.504	247.101	89.459	-70.312	197.695	200.195	11.573	199.334	258.046	0.00019706	0.00034913	7.0652e-05	1037.9	9.9708e-07	3.1704e-06	1105.8	216.42	3.1663e-07	2.7785e-06	271	77.892	61.373	17.584	2.0207e-06	25.157	0.00022068	7.6531e-05	2.6931e-05	1019.6	2.2071e-06	1.8015e-06	1092.8	215.69	2.6408e-06	8.8442e-07	270.61	78.296	61.611	17.773	2.0958e-06	25.522	91.147	0.377	23.574	-76.861	116.861	67.624	-76.543	-69.390	31.466	47.899	-69.521	-63.443	-63.075	-55.606	63.028	-56.077	-8191	255	
18501.232	1	1	0	0	0.41602	0.21618	0.36486	0.21828	0.097946	0.16704	0.30334	0.06394	0.077975	0.12208	0.16611	0.14783	0.097586	0.21832	0.062055	0.1593	-4.0458	-4.7917	-4.3333	-4.3542	-4.6875	-4.4042	-4.5292	-4.8	-4.1167	-4.6729	-4.6646	-4.0687	-4.8313	-4.2792	-4.3667	-4.7583	166.606	124.728	108.492	210.664	109.488	-12.419	185.412	-69.999	124.929	27.828	212.445	211.923	-83.443	-62.933	80.874	268.134	0.00014477	0.00035134	8.4761e-05	1027	2.2631e-06	3.2095e-06	1114.3	216.85	8.2117e-07	3.8493e-06	270.88	77.883	62.107	17.512	3.5567e-06	25.303	0.00022279	0.00010083	3.4519e-05	1016	2.1367e-06	8.5284e-07	1097.8	215.52	2.6499e-06	1.2511e-06	270.58	78.178	61.964	17.691	1.7099e-06	25.581	80.830	22.316	11.015	-76.648	75.751	68.375	-76.314	-69.526	24.021	52.873	-69.724	-63.239	-63.043	-55.954	57.582	-56.455	-8191	255	
18501.330	1	1	0	0	0.09877	0.10568	0.18889	0.24597	0.13625	0.26826	0.078486	0.21197	0.068877	0.17479	0.16995	0.13265	0.13941	0.065844	0.16067	0.1957	-4.0375	-4.7708	-4.5854	-4.25	-4.9	-4.2542	-4.375	-4.9375	-4.3083	-4.4604	-4.675	-4.2458	-4.7271	-4.4042	-4.2562	-4.6354	-77.888	24.704	-87.005	249.723	-81.317	95.204	212.943	257.874	228.600	-57.019	-46.157	258.928	229.952	148.626	221.692	61.652	0.0001869	0.00027277	6.0188e-05	1031.9	1.9673e-06	2.9047e-06	1107.8	217.2	2.5404e-06	3.2933e-06	270.81	77.096	61.721	17.45	1.8358e-06	25.268	0.00023624	0.00014033	2.3887e-05	1019.1	2.2032e-06	1.0739e-06	1097.2	215.61	2.2615e-06	1.1962e-06	270.11	77.919	61.772	17.693	1.5284e-06	25.52	91.413	0.234	17.319	-76.392	62.504	69.046	-76.564	-69.709	-9.300	60.520	-69.641	-63.420	-63.156	-55.709	45.241	-56.075	-8191	255	
18501.449	1	1	0	0	0.21047	0.13674	0.087676	0.15932	0.095024	0.098361	0.19493	0.085091	0.13865	0.041843	0.17362	0.15622	0.019936	0.14599	0.13687	0.15586	-3.8646	-4.5521	-4.65	-4.1687	-4.6167	-4.4521	-4.3542	-4.825	-4.2729	-4.4458	-4.8792	-4.1438	-4.6833	-4.6271	-4.2646	-4.7875	230.605	-1.836	-53.827	127.593	118.508	176.507	261.279	56.880	111.774	132.504	-67.650	83.924	1.029	193.657	144.599	18.067	0.00018265	0.00037562	4.7033e-05	1031.4	2.7534e-06	3.8014e-06	1107.9	216.14	6.4229e-07	2.9007e-06	271.7	77.304	61.332	17.487	4.2535e-06	25.218	0.00022188	0.00015356	1.6908e-05	1017.8	2.4077e-06	1.8543e-06	1096.8	215.4	2.3732e-06	1.3041e-06	270.6	78.151	61.691	17.728	1.9433e-06	25.508	76.761	20.531	-3.653	-76.520	52.933	55.723	-76.442	-69.586	-49.109	70.809	-69.770	-63.466	-62.805	-55.468	57.498	-56.698	-8191	255	
18501.547	1	1	0	0	0.14048	0.065599	0.06667	0.12659	0.12947	0.099616	0.2195	0.20167	0.20755	0.052592	0.087838	0.33984	0.094356	0.3775	0.13123	0.2577	-3.9437	-4.3625	-4.9563	-4.3771	-4.7188	-4.5938	-4.3875	-4.8792	-4.5375	-4.3833	-4.8229	-4.3583	-4.75	-4.7438	-4.2208	-4.7021	225.784	-56.959	26.832	204.354	106.638	114.224	246.118	252.641	-13.323	180.838	217.485	216.998	217.985	-9.349	224.016	187.047	0.00018263	0.00037689	0.00010039	1030	9.9937e-07	2.9263e-06	1110.5	215.24	3.197e-06	2.8633e-06	271.73	77.656	61.306	17.587	3.8798e-06	25.241	0.00023971	0.00016	3.2692e-05	1018	1.9491e-06	9.1348e-07	1099.2	215	2.5018e-06	1.3747e-06	270.61	78.122	61.65	17.693	2.1507e-06	25.535	83.498	-0.162	-7.832	-76.648	86.164	61.828	-76.496	-69.028	42.975	75.228	-69.322	-63.420	-63.004	-55.823	57.600	-56.261	-8191	255	
18501.643	1	1	0	0	0.21226	0.17043	0.14885	0.21979	0.082087	0.13918	0.087461	0.1586	0.18108	0.13684	0.12664	0.27302	0.17465	0.21013	0.072153	0.21604	-4.1583	-4.1854	-4.8396	-4.3833	-4.6354	-4.6438	-4.3938	-4.6937	-4.6396	-4.4021	-4.9833	-4.3375	-4.5229	-4.8396	-4.25	-4.7438	-17.517	-30.711	7.368	29.032	103.687	4.676	174.884	-52.440	89.805	70.028	260.818	-85.128	251.854	112.374	74.025	-36.061	0.00016424	0.00036331	9.5353e-05	1035.4	3.5736e-06	1.7609e-06	1106.4	216.23	2.322e-06	2.5797e-06	273.66	78.039	61.429	17.611	3.6774e-06	25.296	0.00023151	0.00017273	1.8922e-05	1019.7	2.7361e-06	1.1228e-06	1097.1	215.31	2.2187e-06	1.7865e-06	271.52	78.221	61.686	17.735	2.1462e-06	25.522	90.557	-2.555	4.893	-76.589	71.365	59.147	-76.328	-69.301	-4.662	78.979	-69.694	-63.320	-62.847	-55.513	65.194	-56.538	-8191	255	
18501.762	1	1	0	0	0.13684	0.032018	0.036172	0.097195	0.23591	0.24284	0.34955	0.19083	0.18923	0.25998	0.092687	0.075506	0.075461	0.038083	0.05928	0.12392	-4.1583	-4.2625	-4.8542	-4.4354	-4.4021	-4.8417	-4.3521	-4.6813	-4.5687	-4.2271	-4.9417	-4.3604	-4.2729	-4.775	-4.1896	-4.6771	47.719	209.886	-53.844	263.667	-8.186	238.682	220.066	-14.974	189.389	176.755	4.195	183.720	-4.145	169.909	-81.878	248.133	0.00014543	0.00030968	8.5556e-05	1032.9	2.8185e-06	3.0311e-06	1107.9	216.93	1.7712e-06	3.819e-06	271.14	78.294	61.098	17.547	2.8395e-06	25.281	0.00022535	0.00017637	2.5339e-05	1019.9	2.6071e-06	1.1775e-06	1097.8	215.21	2.0511e-06	1.8355e-06	270.07	78.329	61.645	17.748	2.1019e-06	25.509	86.317	-0.994	19.192	-76.315	66.909	73.920	-76.172	-69.578	-1.689	66.307	-69.876	-63.211	-63.122	-55.707	72.718	-56.184	-8191	255	
18501.832	1	1	0	0	0.20804	0.21624	0.088203	0.35867	0.11331	0.10729	0.14233	0.25763	0.068165	0.062746	0.11529	0.13875	0.079634	0.078525	0.064013	0.10634	-4.1833	-4.2812	-4.8792	-4.3812	-4.3354	-4.8167	-4.3313	-4.4396	-4.6333	-4.1333	-4.8021	-4.3771	-4.2229	-4.8521	-4.2167	-4.5729	225.204	261.012	65.355	235.639	224.826	264.954	180.384	259.218	-13.842	184.230	195.350	200.282	147.815	-22.642	195.376	-71.338	0.00018234	0.00038175	8.3459e-05	1034.7	1.9988e-06	2.4041e-06	1109	216.06	2.6408e-06	2.8117e-06	270.39	77.505	61.51	17.596	3.6229e-06	25.215	0.00021476	0.00016827	1.9203e-05	1020.6	2.555e-06	9.9955e-07	1098.1	215.09	2.0199e-06	1.712e-06	270.18	78.334	61.607	17.724	2.1507e-06	25.556	90.788	-7.694	20.753	-76.549	61.635	63.792	-76.461	-69.493	29.637	67.170	-69.412	-63.360	-62.643	-55.677	77.084	-56.285	-8191	255	
18501.930	1	1	0	0	0.23506	0.073304	0.10499	0.081594	0.35121	0.056167	0.29853	0.14622	0.050692	0.17497	0.21661	0.30533	0.16393	0.2186	0.19851	0.10833	-4.3625	-4.3354	-4.8042	-4.4083	-4.2833	-4.8708	-4.5354	-4.4979	-4.7021	-4.1167	-4.7146	-4.7375	-4.3313	-4.8042	-4.1479	-4.4563	93.561	201.563	-31.620	236.624	10.782	115.051	184.769	66.456	51.832	14.831	238.232	128.129	-4.434	149.150	-24.703	235.456	0.00018462	0.00039564	8.2083e-05	1037.2	2.2358e-06	2.2846e-06	1105.7	216.39	2.6149e-06	2.7567e-06	271.68	77.446	61.393	17.561	2.7584e-06	25.166	0.00020582	0.00021852	3.8266e-05	1020.4	2.3765e-06	1.1599e-06	1096.3	215.62	2.1771e-06	1.71e-06	270.56	78.191	61.579	17.735	1.742e-06	25.506	93.792	23.542	3.066	-76.529	54.027	71.542	-76.581	-69.244	31.916	68.608	-69.423	-63.075	-63.561	-55.783	74.450	-56.234	-8191	255	
18502.025	1	1	0	0	0.18074	0.14402	0.040193	0.11235	0.25315	0.17626	0.28437	0.20209	0.081667	0.10989	0.082856	0.046031	0.097077	0.22073	0.29056	0.081243	-4.6375	-4.2708	-4.6146	-4.7	-4.2646	-4.925	-4.5854	-4.4021	-4.6167	-4.2292	-4.7021	-4.5229	-3.9708	-4.6312	-4.4625	-4.4333	26.634	251.687	178.907	24.901	236.078	164.260	180.903	218.810	22.934	-50.902	23.320	216.147	-82.193	257.620	190.430	-55.877	0.00017316	0.00020693	7.1938e-05	1034.2	1.5096e-06	2.7585e-06	1111.9	216.55	2.4744e-06	2.5288e-06	272.09	78.183	61.466	17.569	2.7508e-06	24.89	0.00021789	0.00016447	2.6556e-05	1019.3	2.7647e-06	5.2422e-07	1098	215.68	1.8523e-06	1.5786e-06	270.94	78.426	61.666	17.714	1.5299e-06	25.485	94.040	11.792	1.136	-76.494	33.396	54.823	-76.333	-69.245	-8.648	76.844	-69.573	-63.432	-63.188	-55.732	54.893	-56.228	-8191	255	
18502.146	1	1	0	0	0.21089	0.21581	0.14983	0.094276	0.32319	0.24387	0.19309	0.3282	0.13598	0.1848	0.18346	0.18599	0.085168	0.15428	0.064251	0.094459	-4.4167	-4.2875	-4.5583	-4.8083	-4.1917	-4.7396	-4.5	-4.3958	-4.8333	-4.2042	-4.6042	-4.7083	-4.3271	-4.6979	-4.4292	-4.2937	187.635	39.955	-44.395	210.388	146.438	-8.239	264.710	214.808	223.634	144.140	-31.402	-68.176	155.200	-78.701	255.122	185.165	0.0001538	0.00031287	0.00010305	1026.9	2.6236e-06	5.0296e-06	1109.5	216.69	2.4453e-06	2.4576e-06	270.99	77.501	61.623	17.546	2.9956e-06	25.139	0.00021744	0.00018546	3.3488e-05	1017.7	2.6318e-06	1.4084e-06	1097.1	215.53	1.8705e-06	2.1081e-06	270.49	78.251	61.632	17.695	1.4476e-06	25.543	87.919	4.579	15.916	-76.533	61.421	45.812	-76.610	-69.730	23.834	43.313	-69.827	-63.178	-62.489	-55.468	74.769	-55.898	-8191	255	
18502.242	1	1	0	0	0.12169	0.1578	0.061122	0.30436	0.16398	0.20121	0.18015	0.089418	0.027036	0.14174	0.088275	0.10945	0.12663	0.073706	0.22237	0.10212	-4.5062	-4.4146	-4.3812	-4.6917	-4.1188	-4.6979	-4.7479	-4.1583	-4.8896	-4.4396	-4.3896	-4.8938	-4.2458	-4.6167	-4.5875	-4.2792	184.566	-45.137	160.317	204.776	-86.652	270.882	205.894	85.882	-72.453	39.513	229.107	268.746	124.606	183.655	77.927	238.807	0.00016641	0.00027689	8.5624e-05	1040.5	2.2871e-06	2.4733e-06	1116	217.22	1.9213e-06	3.8728e-06	271.91	77.714	61.875	17.69	3.257e-06	25.342	0.00020428	0.00014546	4.1685e-05	1021.3	2.9732e-06	1.0661e-06	1098.4	216.04	1.9056e-06	2.1022e-06	270.83	78.271	61.876	17.777	1.504e-06	25.527	96.084	-5.233	12.426	-76.453	51.519	78.331	-76.410	-69.340	7.741	63.524	-69.448	-63.450	-63.027	-55.822	56.857	-55.893	-8191	255	
18502.338	1	1	0	0	0.26299	0.21752	0.095198	0.10718	0.031752	0.14863	0.20568	0.08003	0.14392	0.046642	0.10945	0.13241	0.15576	0.18897	0.37383	0.19224	-4.575	-4.4083	-4.2458	-4.8521	-4.3	-4.725	-4.7333	-4.2854	-4.9083	-4.4437	-4.4583	-5.0083	-4.3313	-4.5333	-4.6854	-4.3167	60.353	-71.553	86.178	248.356	198.791	9.496	192.796	73.278	116.182	67.495	249.279	24.873	-56.797	133.736	199.188	-64.098	0.00015963	0.00033981	5.9826e-05	1032	1.3607e-06	3.1883e-06	1107	216.07	1.1929e-06	2.883e-06	272.65	78.387	61.076	17.545	2.1019e-06	25.159	0.00020439	0.00018348	3.3629e-05	1020.5	2.822e-06	1.2264e-06	1096.2	215.82	2.155e-06	1.4453e-06	270.83	78.424	61.732	17.733	1.3057e-06	25.472	88.845	-7.818	-11.365	-76.454	56.640	64.676	-76.542	-69.407	101.988	62.475	-69.712	-63.190	-63.108	-55.631	46.461	-56.576	-8191	255	
18502.410	1	1	0	0	0.04196	0.093212	0.14266	0.35469	0.087041	0.097896	0.14337	0.16196	0.10144	0.16937	0.098565	0.12194	0.069165	0.16078	0.18071	0.11953	-4.4354	-4.5396	-4.1875	-5.0042	-4.2479	-4.575	-4.6937	-4.4208	-4.6979	-4.6875	-4.4563	-4.7542	-4.5437	-4.4083	-4.8604	-4.2979	-77.186	114.397	183.418	186.860	-35.110	6.752	201.337	-29.755	107.875	269.595	267.046	-67.155	17.647	-68.938	-32.960	-76.664	0.00013864	0.00027051	0.00010254	1034.7	1.3626e-06	2.3544e-06	1108.1	217.29	1.3305e-06	2.8694e-06	271.27	78.309	61.74	17.608	2.6301e-06	25.249	0.0002237	0.00016116	4.5478e-05	1019.7	2.6618e-06	1.0426e-06	1097.5	215.38	2.2368e-06	1.2433e-06	270.67	78.294	61.755	17.772	1.4277e-06	25.527	86.519	2.848	5.955	-76.659	35.696	43.358	-76.585	-69.675	-11.610	54.805	-69.733	-63.010	-63.473	-55.657	54.410	-56.466	-8191	255	
18502.531	1	1	0	0	0.17459	0.12112	0.04478	0.11515	0.15	0.1028	0.063972	0.35772	0.15245	0.048428	0.1482	0.20509	0.14855	0.27033	0.17065	0.14133	-4.175	-4.5458	-4.2438	-4.95	-4.3979	-4.575	-5.0083	-4.2146	-4.7562	-4.6354	-4.2583	-4.7292	-4.5167	-4.4417	-4.8313	-4.1104	178.115	39.555	-51.085	223.946	67.338	261.840	148.595	208.061	53.955	180.781	245.676	36.817	264.901	-72.630	238.257	36.359	0.00020687	0.00035679	7.5697e-05	1037.1	1.5648e-06	3.6762e-06	1109.6	216.96	1.9587e-06	3.0772e-06	271.16	77.948	61.54	17.569	2.8378e-06	25.154	0.00023122	0.00013703	4.4823e-05	1021.2	2.5458e-06	1.3399e-06	1097.5	215.84	2.2057e-06	8.2755e-07	270.75	78.36	61.622	17.745	1.3743e-06	25.507	84.592	3.578	23.158	-76.619	43.237	50.102	-76.910	-69.235	26.336	69.196	-69.526	-63.286	-62.834	-55.715	49.373	-56.442	-8191	255	
18502.627	1	1	0	0	0.19763	0.075944	0.16247	0.18392	0.20021	0.11755	0.15964	0.026916	0.16582	0.25301	0.012379	0.32411	0.16876	0.051659	0.069168	0.11106	-4.2812	-4.6646	-4.1	-4.9375	-4.4104	-4.4104	-5.0604	-4.3729	-4.5729	-4.6729	-4.2146	-4.7979	-4.5125	-4.125	-4.8125	-4.2958	59.572	153.907	72.147	248.762	-58.367	-5.220	254.137	105.560	158.737	113.945	49.816	-70.774	213.681	-47.230	255.557	218.622	0.00018137	0.00025711	0.00010054	1037.5	3.0868e-06	3.0827e-06	1112.2	216.88	2.4371e-06	2.6583e-06	273.71	77.862	61.056	17.524	3.8607e-06	25.216	0.00021533	0.00013257	5.241e-05	1020.9	2.5615e-06	1.5355e-06	1099.7	215.62	2.1849e-06	1.0178e-06	270.92	78.282	61.683	17.728	1.4064e-06	25.541	97.400	-2.807	-1.149	-76.447	38.271	68.372	-76.425	-69.237	33.928	52.266	-69.586	-63.417	-62.687	-55.422	68.274	-56.138	-8191	255	
18502.723	1	1	0	0	0.29065	0.24974	0.073296	0.23652	0.047031	0.094984	0.077716	0.24041	0.012897	0.18978	0.17987	0.14743	0.12573	0.076312	0.058488	0.14479	-4.1792	-4.7229	-4.1625	-5.0125	-4.5104	-4.2188	-4.975	-4.4396	-4.3562	-4.9083	-4.2292	-4.8125	-4.5625	-4.2292	-4.7625	-4.3125	255.478	-73.490	142.921	209.597	88.417	170.332	138.946	133.620	110.106	-4.491	188.676	169.398	151.071	239.493	-49.481	229.369	0.00017902	0.00027252	7.5224e-05	1032.2	2.0105e-06	3.4187e-06	1107.8	215.89	1.9663e-06	3.1095e-06	272.68	77.697	61.422	17.58	2.0968e-06	25.265	0.00022216	8.5457e-05	4.0982e-05	1019.5	2.3009e-06	1.9658e-06	1097.8	215.47	2.2472e-06	5.1379e-07	270.58	78.289	61.709	17.774	1.3911e-06	25.461	82.337	29.948	-13.458	-76.601	69.590	63.577	-76.470	-69.465	50.337	62.996	-69.471	-63.381	-62.947	-55.389	45.834	-56.718	-8191	255	
18502.842	1	1	0	0	0.1306	0.037786	0.048781	0.20744	0.055205	0.10706	0.1394	0.33504	0.094781	0.16932	0.19563	0.038277	0.090196	0.14767	0.17621	0.11286	-4.0854	-4.7812	-4.125	-4.8104	-4.6021	-4.3292	-4.7917	-4.3812	-4.3792	-4.8229	-4.3521	-4.6438	-4.7479	-4.2438	-4.7271	-4.4667	-29.587	193.110	227.614	256.908	113.923	84.677	191.736	203.409	159.706	-34.034	-74.472	227.932	239.727	211.068	138.217	33.619	0.00015625	0.00027551	9.8606e-05	1035.3	3.4421e-06	2.5426e-06	1110	216.18	1.7741e-06	3.3757e-06	271.13	77.331	61.414	17.578	2.6774e-06	25.116	0.00021128	0.00010827	4.0842e-05	1019.9	2.181e-06	1.7115e-06	1097.6	215.6	2.6499e-06	8.5893e-07	270.98	78.231	61.756	17.74	1.3011e-06	25.483	93.675	17.870	9.535	-76.594	72.816	62.148	-76.584	-69.348	17.382	56.032	-69.563	-63.161	-63.143	-55.449	62.084	-55.970	-8191	255	
18502.938	1	1	0	0	0.22606	0.14948	0.15725	0.099617	0.095855	0.08166	0.26088	0.11742	0.14523	0.24921	0.15979	0.37538	0.026097	0.14891	0.12615	0.11788	-3.7229	-4.7583	-4.2125	-4.5021	-4.7854	-4.3375	-4.9187	-4.4313	-4.1167	-4.8417	-4.3625	-4.4333	-4.8292	-4.2208	-4.6417	-4.5375	43.916	272.160	209.355	-65.413	180.130	241.521	222.818	218.596	-73.380	252.020	159.853	-80.921	-3.357	-55.865	59.877	225.028	0.0001382	0.0003044	0.00010616	1033.5	2.7141e-06	2.5841e-06	1112	215.82	1.2338e-06	2.9622e-06	272.14	77.74	61.628	17.554	2.0884e-06	24.948	0.00024102	8.9424e-05	4.1123e-05	1020.2	2.555e-06	1.7018e-06	1099.7	215.48	2.3602e-06	8.5696e-07	271.14	78.372	61.776	17.767	1.115e-06	25.419	90.764	11.057	15.810	-76.383	50.111	88.430	-76.494	-69.300	90.477	80.623	-69.726	-63.449	-63.184	-55.497	69.025	-56.149	-8191	255	
18503.033	1	1	0	0	0.21147	0.12966	0.29792	0.092201	0.13419	0.18843	0.1363	0.119	0.13117	0.12893	0.065134	0.15602	0.025138	0.11266	0.11166	0.095383	-3.9729	-4.8438	-4.3438	-4.6312	-4.75	-4.2896	-4.8854	-4.5333	-4.4437	-4.8021	-4.4187	-4.4208	-4.7271	-4.2583	-4.7229	-4.6583	131.937	244.935	235.582	-21.554	207.325	237.248	256.543	202.274	219.236	95.294	-36.425	3.749	115.417	18.945	77.230	-58.413	0.00017899	0.00037709	5.7316e-05	1034.5	3.2228e-06	2.084e-06	1106.2	215.66	4.275e-06	3.6013e-06	271.91	77.974	62.139	17.561	3.5016e-06	25.105	0.00024461	0.0001005	3.2458e-05	1019	1.9791e-06	1.4338e-06	1097.2	215.43	2.6161e-06	1.4296e-06	270.29	78.325	61.795	17.745	1.7801e-06	25.523	88.312	-1.672	3.961	-76.522	60.131	84.207	-76.578	-69.609	42.899	78.081	-69.508	-63.504	-63.123	-55.389	59.057	-56.001	-8191	255	
18503.131	1	1	0	0	0.090933	0.093828	0.099609	0.25117	0.078628	0.26642	0.050718	0.10958	0.22146	0.03489	0.19515	0.14937	0.12316	0.054964	0.019051	0.099142	-3.7375	-4.9917	-4.5542	-4.4563	-4.9292	-4.3521	-4.8042	-4.8271	-4.3187	-4.8333	-4.55	-4.4187	-4.8521	-4.2833	-4.4958	-4.7812	209.361	203.396	217.803	248.330	-34.800	217.388	241.877	-66.346	-73.868	7.965	185.016	137.064	118.136	-40.216	232.451	-77.275	0.00019416	0.00028199	6.9216e-05	1035.4	2.2937e-06	4.3316e-06	1107.9	216.75	1.8414e-06	4.1296e-06	271.9	77.613	61.253	17.44	2.8114e-06	25.181	0.00023418	0.00010166	3.8266e-05	1020.7	2.28e-06	1.8348e-06	1097.4	215.51	2.5499e-06	1.5276e-06	270.69	78.251	61.618	17.703	1.6367e-06	25.486	90.140	-7.381	15.785	-76.747	57.808	70.916	-76.517	-69.498	47.340	74.628	-69.700	-63.129	-62.980	-55.169	46.367	-56.292	-8191	255	
18503.227	1	1	0	0	0.115	0.11795	0.10954	0.10551	0.10206	0.053055	0.38761	0.15882	0.040448	0.19997	0.11315	0.091325	0.32613	0.11729	0.14592	0.22368	-3.8896	-4.7417	-4.5188	-4.3875	-4.9	-4.2417	-4.6646	-4.8187	-4.1208	-4.5813	-4.6792	-4.25	-4.8333	-4.3063	-4.3083	-4.7771	89.433	216.298	189.164	247.967	28.234	23.978	227.419	177.859	163.300	172.444	183.917	200.658	215.855	-64.691	150.713	176.458	0.00016034	0.00030885	6.9947e-05	1034.4	3.9489e-07	2.9748e-06	1102.8	216.99	1.3537e-06	2.42e-06	271.81	77.692	61.298	17.495	2.0903e-06	25.017	0.00023652	0.00014843	3.7703e-05	1020.8	2.0507e-06	1.3947e-06	1096.5	215.9	2.5083e-06	1.0982e-06	270.2	78.308	61.742	17.72	1.9219e-06	25.502	87.540	-4.045	-1.214	-76.535	-3.862	64.924	-76.518	-69.474	32.998	65.058	-69.666	-63.354	-63.120	-55.950	66.867	-56.126	-8191	255	
18503.322	1	1	0	0	0.26138	0.17977	0.18285	0.088933	0.1626	0.13215	0.018444	0.18682	0.2366	0.1831	0.17412	0.13269	0.10395	0.079202	0.076208	0.082441	-3.9333	-4.6146	-4.5604	-4.3562	-4.8063	-4.5479	-4.6875	-4.8771	-4.2167	-4.7167	-4.8458	-4.4208	-4.7771	-4.4625	-4.2229	-4.825	-63.336	177.032	37.926	270.099	32.186	-47.652	154.304	238.861	124.413	225.637	-20.622	-31.527	237.575	253.142	49.111	265.933	0.00018423	0.00034459	8.1464e-05	1037.2	1.7608e-06	3.4722e-06	1114.5	215.69	3.5783e-06	3.5735e-06	270.33	77.987	61.432	17.556	2.1812e-06	25.253	0.00023436	0.00014265	1.939e-05	1022.4	2.2279e-06	1.7546e-06	1099.7	215.23	2.6252e-06	6.942e-07	270.42	78.378	61.586	17.717	1.9814e-06	25.55	101.976	-0.833	-7.881	-76.570	49.830	49.697	-76.504	-69.134	60.092	70.207	-69.322	-63.528	-63.077	-56.045	53.561	-56.503	-8191	255	
18503.443	1	1	0	0	0.052649	0.11408	0.24626	0.1724	0.15728	0.12047	0.1826	0.13944	0.12838	0.13945	0.16738	0.17595	0.11277	0.26853	0.17279	0.10035	-3.9292	-4.4708	-4.8896	-4.2875	-4.6813	-4.4563	-4.5896	-4.9229	-4.3792	-4.525	-4.8104	-4.2438	-4.7396	-4.6104	-4.2771	-4.9625	111.806	263.743	219.018	234.598	220.472	135.047	187.985	120.931	250.165	242.925	63.516	174.315	159.549	188.851	250.762	245.466	0.00017954	0.00026117	6.3236e-05	1034.9	1.93e-06	3.0832e-06	1111.5	216.26	1.7246e-06	2.2918e-06	271.89	77.429	61.711	17.425	3.4657e-06	25.155	0.00021242	0.00015438	3.8078e-05	1020.9	2.4142e-06	1.1541e-06	1097.4	215.2	2.6655e-06	1.5747e-06	270.81	78.157	61.894	17.666	2.0928e-06	25.522	98.192	-0.828	13.541	-76.676	52.375	59.808	-76.728	-69.412	20.473	72.341	-69.715	-63.140	-62.825	-55.413	42.894	-56.376	-8191	255	
18503.539	1	1	0	0	0.15554	0.21281	0.07458	0.30621	0.075241	0.1867	0.19238	0.096893	0.20646	0.16688	0.077853	0.081064	0.097292	0.085986	0.097541	0.14835	-4.0083	-4.5229	-4.8542	-4.35	-4.5521	-4.6792	-4.4625	-5.0396	-4.3396	-4.5437	-4.8396	-4.4187	-4.5271	-4.6917	-4.2958	-4.6958	257.130	49.215	-76.426	207.366	266.706	-47.584	194.236	10.163	220.911	-58.302	244.021	219.992	188.513	264.991	202.439	155.542	0.00017835	0.00029478	8.4778e-05	1033.7	1.1264e-06	2.4222e-06	1112.6	216.73	2.4369e-06	1.6853e-06	270.28	78.285	61.497	17.551	3.8685e-06	25.149	0.00023549	0.00014381	2.7868e-05	1019.6	2.4924e-06	1.4299e-06	1099.2	215.57	2.4888e-06	1.608e-06	270.68	78.422	61.599	17.756	1.893e-06	25.406	89.560	7.847	3.460	-76.604	13.204	48.579	-76.600	-69.413	40.904	58.880	-69.385	-63.296	-63.291	-55.844	71.133	-56.299	-8191	255	
18503.635	1	1	0	0	0.12409	0.089189	0.20093	0.20352	0.17924	0.063367	0.18072	0.069722	0.19464	0.12712	0.26245	0.11919	0.23638	0.17767	0.1705	0.23609	-3.9896	-4.225	-4.7771	-4.2917	-4.65	-4.7375	-4.375	-4.8458	-4.4437	-4.3167	-4.8792	-4.375	-4.5896	-4.6937	-4.1375	-4.8104	-63.504	-21.797	3.690	219.011	-11.187	74.511	210.683	158.538	151.387	205.218	252.723	164.758	194.842	47.263	-25.346	179.763	0.00016868	0.0003359	6.152e-05	1035.9	2.8313e-06	3.7149e-06	1111.5	216.78	2.2134e-06	2.8057e-06	271.94	77.667	61.448	17.525	3.4906e-06	25.026	0.00023669	0.00017769	3.1755e-05	1021.2	2.5719e-06	1.3712e-06	1097.9	215.39	2.4746e-06	1.6139e-06	270.53	78.115	61.618	17.713	1.9464e-06	25.464	87.930	6.116	30.857	-76.343	43.175	77.090	-76.728	-69.250	11.055	88.442	-69.474	-62.830	-62.944	-55.511	56.395	-56.161	-8191	255	
18503.707	1	1	0	0	0.11255	0.15369	0.15249	0.1033	0.065415	0.056537	0.25649	0.11577	0.16973	0.099422	0.36638	0.025811	0.13651	0.022199	0.15433	0.15942	-4.0479	-4.4354	-4.9542	-4.4896	-4.3812	-4.7292	-4.4021	-4.9187	-4.5188	-4.3042	-5.0021	-4.3833	-4.3562	-4.7479	-4.1708	-4.7438	13.327	-66.653	26.429	215.110	192.901	-56.269	178.448	106.324	150.697	165.560	266.136	178.538	39.820	173.358	36.674	179.441	0.0001709	0.00036681	9.2671e-05	1034.1	3.6729e-06	3.4022e-06	1109.7	216.48	2.0558e-06	3.305e-06	274.25	77.791	61.647	17.522	1.4377e-06	25.144	0.00022057	0.00018529	2.7306e-05	1020.1	2.7361e-06	1.1091e-06	1097.8	215.54	2.255e-06	1.5433e-06	270.87	78.458	61.82	17.701	2.0745e-06	25.48	99.210	5.869	7.448	-76.328	23.903	84.908	-76.547	-69.397	17.741	83.074	-69.535	-63.376	-63.001	-55.987	53.241	-56.593	-8191	255	
18503.826	1	1	0	0	0.20223	0.089315	0.12057	0.15747	0.084601	0.11953	0.19051	0.14114	0.13285	0.047856	0.25204	0.085731	0.098322	0.064838	0.10402	0.058726	-4.2438	-4.2	-4.75	-4.4938	-4.2854	-4.9604	-4.3667	-4.7188	-4.6042	-4.2438	-4.7542	-4.425	-4.3542	-4.9792	-4.1771	-4.5875	234.489	5.611	64.657	265.794	11.560	-46.216	270.052	113.185	244.063	218.571	245.831	-7.153	44.183	112.536	8.244	220.133	0.00020396	0.00042577	9.1122e-05	1038.3	2.6783e-06	2.3701e-06	1111.2	217.1	1.9495e-06	3.349e-06	272	77.455	61.811	17.598	3.3913e-06	25.219	0.00022216	0.00018711	3.7376e-05	1021.6	2.8233e-06	1.4025e-06	1099.1	215.86	2.2654e-06	1.8316e-06	270.77	78.152	61.676	17.704	2.1935e-06	25.563	102.887	6.240	18.697	-76.492	100.502	59.699	-76.430	-69.437	45.647	63.591	-69.720	-63.382	-63.120	-55.961	66.958	-55.915	-8191	255	
18503.922	1	1	0	0	0.22389	0.10196	0.13514	0.079365	0.15579	0.12395	0.38804	0.23566	0.21118	0.19784	0.15539	0.32216	0.046176	0.12692	0.32399	0.091823	-4.3812	-4.1708	-4.7646	-4.6375	-4.3979	-4.8229	-4.4812	-4.6354	-4.8646	-4.2333	-4.7792	-4.6	-4.35	-4.9042	-4.3583	-4.45	53.611	-13.982	147.225	214.051	-67.405	46.863	251.384	-21.475	-5.135	230.976	217.402	-56.622	-37.461	271.902	-54.461	85.585	0.00017442	0.00025743	9.5615e-05	1033.3	2.4007e-06	3.9777e-06	1112.9	216.72	2.2748e-06	3.7197e-06	270.14	77.531	61.884	17.567	2.6412e-06	25.052	0.00023162	0.00019538	2.8477e-05	1018.3	2.5081e-06	9.4478e-07	1100.3	215.56	2.103e-06	1.7767e-06	269.77	78.166	61.719	17.727	1.9143e-06	25.481	87.519	9.376	3.749	-76.782	65.108	53.724	-76.797	-69.362	27.791	58.795	-69.433	-63.170	-63.002	-55.665	44.023	-56.195	-8191	255	
18504.018	1	1	0	0	0.11953	0.27904	0.21048	0.13905	0.15071	0.27238	0.29676	0.20966	0.082576	0.042971	0.12271	0.12364	0.19219	0.074274	0.15296	0.19121	-4.4563	-3.9938	-4.6771	-4.6458	-4.2292	-4.8042	-4.7021	-4.6875	-4.6917	-4.1	-4.6292	-4.6333	-4.2417	-4.6458	-4.3792	-4.4396	72.789	156.329	-53.969	185.154	201.562	-25.368	252.387	248.467	26.896	10.045	206.882	225.792	28.320	192.361	262.053	198.297	0.00016717	0.00026464	8.1278e-05	1032.7	2.6085e-06	3.7672e-06	1113.4	216.47	2.7196e-06	2.547e-06	272.49	78.12	61.383	17.555	2.8652e-06	25.181	0.00023191	0.00016133	3.6673e-05	1020.7	2.8637e-06	6.3572e-07	1099.4	215.43	2.3421e-06	2.3473e-06	271.69	78.36	61.664	17.746	1.7343e-06	25.507	82.167	-10.996	-6.827	-76.666	58.442	42.554	-76.553	-69.603	3.561	60.367	-69.698	-63.489	-62.693	-55.695	42.781	-56.418	-8191	255	
#DATA ENDS
