BOXY.EXE: ISS Imagent and Oximeter Data Acquisition Program Version 0.80
Ascii Record File

#ACQ INFORMATION
2  Detector Channels 
16  External MUX Channels 
1  Auxiliary Channels 
5000  Waveform (CCF) Frequency (Hz)
1  Waveforms Skipped 
30  Waveforms Averaged 
1  Cycles Averaged 
16  Acquisitions per Waveform 
10.0806  Updata Rate (Hz) 

#FILE INFORMATION
TRUE -- External MUX Channel results are PARSED.
FALSE -- AC DC and Phase are NOT grouped.
TRUE -- Companion Program Settings File CREATED.
FALSE -- AC data not excluded
FALSE -- DC data not excluded
FALSE -- Phase data not excluded
FALSE -- Auxillary Chn. data not excluded
Tab delimiters

#CALIBRATION STATE
TRUE -- Waveform Calibration Values APPLIED.


#AUX CALIBRATION VALUES
Val Type	aux-1	

Term	1.0000e+00	
Factor	0.0000e+00	


#WF CALIBRATION VALUES
A = Detector Channel
Val Type	A-AC1	A-AC2	A-AC3	A-AC4	A-AC5	A-AC6	A-AC7	A-AC8	A-AC9	A-AC10	A-AC11	A-AC12	A-AC13	A-AC14	A-AC15	A-AC16	A-DC1	A-DC2	A-DC3	A-DC4	A-DC5	A-DC6	A-DC7	A-DC8	A-DC9	A-DC10	A-DC11	A-DC12	A-DC13	A-DC14	A-DC15	A-DC16	A-Ph1	A-Ph2	A-Ph3	A-Ph4	A-Ph5	A-Ph6	A-Ph7	A-Ph8	A-Ph9	A-Ph10	A-Ph11	A-Ph12	A-Ph13	A-Ph14	A-Ph15	A-Ph16	

Term	0.00000e+00	0.00000e+00	0.00000e+00	0.00000e+00	0.00000e+00	0.00000e+00	0.00000e+00	0.00000e+00	0.00000e+00	0.00000e+00	0.00000e+00	0.00000e+00	0.00000e+00	0.00000e+00	0.00000e+00	0.00000e+00	0.00000e+00	0.00000e+00	0.00000e+00	0.00000e+00	0.00000e+00	0.00000e+00	0.00000e+00	0.00000e+00	0.00000e+00	0.00000e+00	0.00000e+00	0.00000e+00	0.00000e+00	0.00000e+00	0.00000e+00	0.00000e+00	0.00000e+00	0.00000e+00	0.00000e+00	0.00000e+00	0.00000e+00	0.00000e+00	0.00000e+00	0.00000e+00	0.00000e+00	0.00000e+00	0.00000e+00	0.00000e+00	0.00000e+00	0.00000e+00	0.00000e+00	0.00000e+00	
Factor	1.00000e+00	1.00000e+00	1.00000e+00	1.00000e+00	1.00000e+00	1.00000e+00	1.00000e+00	1.00000e+00	1.00000e+00	1.00000e+00	1.00000e+00	1.00000e+00	1.00000e+00	1.00000e+00	1.00000e+00	1.00000e+00	1.00000e+00	1.00000e+00	1.00000e+00	1.00000e+00	1.00000e+00	1.00000e+00	1.00000e+00	1.00000e+00	1.00000e+00	1.00000e+00	1.00000e+00	1.00000e+00	1.00000e+00	1.00000e+00	1.00000e+00	1.00000e+00	X	X	X	X	X	X	X	X	X	X	X	X	X	X	X	X	

B = Detector Channel
Val Type	B-AC1	B-AC2	B-AC3	B-AC4	B-AC5	B-AC6	B-AC7	B-AC8	B-AC9	B-AC10	B-AC11	B-AC12	B-AC13	B-AC14	B-AC15	B-AC16	B-DC1	B-DC2	B-DC3	B-DC4	B-DC5	B-DC6	B-DC7	B-DC8	B-DC9	B-DC10	B-DC11	B-DC12	B-DC13	B-DC14	B-DC15	B-DC16	B-Ph1	B-Ph2	B-Ph3	B-Ph4	B-Ph5	B-Ph6	B-Ph7	B-Ph8	B-Ph9	B-Ph10	B-Ph11	B-Ph12	B-Ph13	B-Ph14	B-Ph15	B-Ph16	

Term	0.00000e+00	0.00000e+00	0.00000e+00	0.00000e+00	0.00000e+00	0.00000e+00	0.00000e+00	0.00000e+00	0.00000e+00	0.00000e+00	0.00000e+00	0.00000e+00	0.00000e+00	0.00000e+00	0.00000e+00	0.00000e+00	0.00000e+00	0.00000e+00	0.00000e+00	0.00000e+00	0.00000e+00	0.00000e+00	0.00000e+00	0.00000e+00	0.00000e+00	0.00000e+00	0.00000e+00	0.00000e+00	0.00000e+00	0.00000e+00	0.00000e+00	0.00000e+00	-2.04314e+02	-1.42203e+02	-1.28168e+02	-1.83188e+02	-8.07192e+01	-9.55538e+01	-1.57235e+02	-1.62015e+02	-9.38696e+01	-7.87754e+01	-1.72586e+02	-1.73078e+02	-1.80462e+02	-1.78286e+02	-1.03677e+02	-1.51187e+02	
Factor	5.12228e-05	5.56067e-05	1.88345e-05	1.95333e-01	6.11813e-07	6.20629e-07	2.43410e-01	8.63391e-02	5.78950e-07	5.10576e-07	1.23214e-01	4.08652e-02	3.29490e-02	1.20693e-02	4.99769e-07	1.77148e-02	2.19044e-07	2.19549e-07	6.10483e-08	8.04949e-02	2.40446e-09	2.40050e-09	9.18355e-02	3.25942e-02	2.40413e-09	2.39780e-09	4.31712e-02	1.43532e-02	1.21673e-02	4.38651e-03	2.40139e-09	6.00466e-03	X	X	X	X	X	X	X	X	X	X	X	X	X	X	X	X	



#DISTANCE SETTINGS
A = Detector Channel
A-1	A-2	A-3	A-4	A-5	A-6	A-7	A-8	A-9	A-10	A-11	A-12	A-13	A-14	A-15	A-16	

2.5000e+00	3.0000e+00	2.5000e+00	3.0000e+00	2.0000e+00	3.0000e+00	1.5000e+00	3.0000e+00	3.0000e+00	3.0000e+00	3.0000e+00	3.0000e+00	3.0000e+00	3.0000e+00	1.5000e+00	3.0000e+00	

B = Detector Channel
B-1	B-2	B-3	B-4	B-5	B-6	B-7	B-8	B-9	B-10	B-11	B-12	B-13	B-14	B-15	B-16	

1.0000e+01	1.0000e+01	1.0000e+01	1.4400e+00	1.0000e+01	1.0000e+01	1.5100e+00	1.9400e+00	1.0000e+01	1.0000e+01	1.9900e+00	2.4900e+00	2.4100e+00	2.9000e+00	1.0000e+01	2.9800e+00	




#DATA BEGINS
time	group	step	mark	flag	A-AC1	A-AC2	A-AC3	A-AC4	A-AC5	A-AC6	A-AC7	A-AC8	A-AC9	A-AC10	A-AC11	A-AC12	A-AC13	A-AC14	A-AC15	A-AC16	A-DC1	A-DC2	A-DC3	A-DC4	A-DC5	A-DC6	A-DC7	A-DC8	A-DC9	A-DC10	A-DC11	A-DC12	A-DC13	A-DC14	A-DC15	A-DC16	A-Ph1	A-Ph2	A-Ph3	A-Ph4	A-Ph5	A-Ph6	A-Ph7	A-Ph8	A-Ph9	A-Ph10	A-Ph11	A-Ph12	A-Ph13	A-Ph14	A-Ph15	A-Ph16	B-AC1	B-AC2	B-AC3	B-AC4	B-AC5	B-AC6	B-AC7	B-AC8	B-AC9	B-AC10	B-AC11	B-AC12	B-AC13	B-AC14	B-AC15	B-AC16	B-DC1	B-DC2	B-DC3	B-DC4	B-DC5	B-DC6	B-DC7	B-DC8	B-DC9	B-DC10	B-DC11	B-DC12	B-DC13	B-DC14	B-DC15	B-DC16	B-Ph1	B-Ph2	B-Ph3	B-Ph4	B-Ph5	B-Ph6	B-Ph7	B-Ph8	B-Ph9	B-Ph10	B-Ph11	B-Ph12	B-Ph13	B-Ph14	B-Ph15	B-Ph16	aux-1	digaux	

4169.875	1	1	0	256	0.22044	0.15555	0.18128	0.23056	0.13405	0.23629	0.12762	0.15852	0.14589	0.10756	0.10931	0.13775	0.18355	0.112	0.20166	0.073214	-3.4979	-3.2708	-3.6208	-3.8417	-3.0812	-3.7792	-3.5521	-3.5563	-4.0833	-3.3625	-3.6562	-4.0229	-3.3312	-3.9667	-3.5958	-3.4271	385.028	345.578	285.047	532.767	360.262	332.609	289.990	431.875	502.075	266.369	447.859	529.645	358.516	488.932	451.777	461.003	0.00085354	0.00030448	7.292e-05	683.47	9.1867e-07	1.576e-06	690.59	272.03	3.7085e-06	6.3385e-06	248.92	95.672	111.67	56.753	5.3318e-06	49.875	0.00043335	0.00042996	0.00013631	750.36	4.58e-06	4.5652e-06	771.66	279.14	4.3943e-06	4.5612e-06	276.78	99.239	106.94	51.424	4.9981e-06	47.444	487.270	462.579	457.676	186.497	356.441	257.100	183.257	191.852	364.995	216.498	187.501	191.684	196.542	201.665	290.585	195.157	-8191	255	
4169.971	1	1	0	0	0.32353	0.12189	0.043174	0.19907	0.010328	0.020946	0.20735	0.11024	0.13864	0.072772	0.21651	0.20329	0.11354	0.30017	0.13158	0.15649	-3.6729	-3.5208	-3.5875	-3.8542	-3.1958	-3.7125	-3.7438	-3.2979	-3.9896	-3.4333	-3.6292	-4.0521	-3.3875	-3.8604	-3.7438	-3.1813	191.140	212.513	382.883	428.857	513.574	249.699	183.256	408.593	197.187	456.716	180.799	503.295	216.387	402.137	327.249	492.165	0.00092141	0.00073209	0.0001341	684.75	5.3314e-06	7.8352e-06	688.79	271.94	2.096e-06	7.0103e-06	246.72	94.928	111.4	56.515	3.2022e-06	49.395	0.00038739	0.00042042	0.00012702	734.95	4.3086e-06	4.7747e-06	764.8	277.15	4.351e-06	4.9494e-06	276.2	98.835	107.28	52.178	5.0634e-06	47.31	492.852	493.329	330.670	186.335	325.133	185.336	182.984	191.963	200.546	185.531	187.524	191.195	196.421	201.683	328.597	195.203	-8191	255	
4170.092	1	1	0	0	0.080005	0.22788	0.23585	0.1735	0.15004	0.14234	0.26884	0.15233	0.17347	0.065758	0.14781	0.13853	0.050444	0.28016	0.063892	0.13966	-3.5792	-3.2833	-3.4354	-3.9375	-3.4208	-3.675	-3.6583	-3.2438	-4.0104	-3.6667	-3.4396	-4.0229	-3.2188	-3.7313	-3.7104	-3.4271	264.043	501.724	262.022	462.467	430.891	389.634	202.946	464.252	292.539	496.829	357.138	318.675	223.371	181.830	373.155	485.224	0.00090994	0.00035326	0.00015053	680.91	8.9067e-06	5.0424e-06	687.11	272.3	5.3527e-06	3.8038e-06	245.4	94.46	111.01	56.1	2.9502e-06	48.894	0.00040231	0.00046668	0.00012763	734.15	4.4171e-06	5.0592e-06	752.58	273.24	4.2714e-06	4.9532e-06	266.53	96.015	106.3	51.67	4.449e-06	45.727	475.500	477.992	354.277	186.184	202.363	523.569	183.202	191.991	199.743	245.247	187.685	191.047	196.369	201.633	265.519	195.189	-8191	255	
4170.188	1	1	0	0	0.18452	0.017208	0.18143	0.27255	0.15698	0.15032	0.24658	0.12278	0.27092	0.23625	0.031193	0.14776	0.18096	0.096163	0.13544	0.15049	-3.475	-3.6271	-3.3458	-3.8271	-3.4	-3.7708	-3.8667	-3.275	-3.8167	-3.6333	-3.3083	-4.0104	-3.4562	-3.6979	-3.8063	-3.4021	199.595	391.953	366.544	525.294	308.268	502.624	424.982	417.396	307.066	271.585	248.314	385.194	430.322	254.039	292.146	180.211	0.0014091	0.00036036	0.000241	683.2	3.744e-06	4.8486e-06	685.46	271.78	7.2302e-06	5.0584e-06	247.15	94.884	110.94	56.151	4.1245e-06	49.289	0.00038039	0.00043553	0.00011093	716.96	4.2623e-06	4.77e-06	732.66	268.24	4.2455e-06	4.6466e-06	258.73	93.449	105.72	50.813	3.8918e-06	44.786	471.635	481.952	325.043	186.437	287.434	290.103	183.004	191.914	528.139	428.898	187.488	191.375	196.016	201.787	329.916	194.900	-8191	255	
4170.284	1	1	0	0	0.38088	0.17069	0.15653	0.14535	0.11899	0.084447	0.10669	0.07681	0.12898	0.20273	0.33805	0.19461	0.061516	0.10187	0.13525	0.10032	-3.6396	-3.5396	-3.3708	-3.9188	-3.3583	-3.6354	-3.9229	-3.2146	-3.7104	-3.7521	-3.2687	-3.9292	-3.4396	-3.575	-3.9458	-3.3604	354.933	446.324	509.793	525.567	490.015	239.314	237.643	428.816	187.972	250.739	435.939	421.329	474.522	483.224	524.505	268.090	0.0014599	0.0001363	8.774e-05	683.96	7.588e-06	7.65e-06	685.56	272.24	6.7339e-06	2.0874e-06	247.1	95.563	111.31	56.483	3.0624e-06	49.615	0.00037117	0.00039272	9.97e-05	705.18	4.2381e-06	4.3725e-06	719	265.04	4.3291e-06	4.3404e-06	255.26	93.741	107.26	50.802	3.8967e-06	45.501	467.420	358.600	328.323	186.266	221.430	320.132	183.189	191.925	223.941	418.961	187.877	191.018	196.363	201.622	311.254	195.276	-8191	255	
4170.380	1	1	0	0	0.12819	0.14634	0.014002	0.11031	0.046275	0.217	0.18317	0.31786	0.077024	0.069433	0.16745	0.0015729	0.11192	0.19774	0.11726	0.018924	-3.2188	-3.7396	-3.2687	-3.9542	-3.5646	-3.4333	-3.9458	-3.4542	-3.7292	-3.7958	-3.3187	-3.975	-3.4938	-3.3479	-4.0417	-3.3042	456.636	272.422	186.103	179.627	203.804	414.597	497.089	402.402	460.028	250.505	291.667	180.000	518.900	192.350	492.494	230.617	0.0013149	0.00027187	0.00016019	680.54	9.4434e-07	5.8422e-06	687.22	271.81	6.2463e-06	3.2991e-06	246.62	94.788	111.48	56.311	2.9645e-06	49.564	0.00040194	0.00038241	9.7546e-05	704.36	4.3203e-06	4.0322e-06	709.67	264.15	4.3019e-06	3.9678e-06	250.38	93.602	106.98	50.151	3.725e-06	45.577	467.511	279.476	344.870	186.204	281.300	328.898	183.146	191.762	237.840	366.031	187.699	191.024	196.532	201.706	328.330	194.838	-8191	255	
4170.476	1	1	0	0	0.13991	0.17783	0.23219	0.17653	0.28591	0.15229	0.085961	0.1395	0.27942	0.1898	0.055275	0.062866	0.050895	0.24495	0.23357	0.24405	-3.2438	-3.7625	-3.2188	-3.9792	-3.6813	-3.2396	-4.0938	-3.5208	-3.5667	-3.8521	-3.2812	-3.9437	-3.8063	-3.5687	-4.05	-3.5896	248.320	236.669	231.146	506.814	403.286	269.593	402.292	459.929	430.891	336.190	493.898	477.583	444.165	476.510	187.833	504.906	0.0010337	0.00058778	4.806e-05	683.29	2.2164e-06	4.3181e-06	684.41	271.52	6.2905e-06	6.7957e-07	245.99	94.934	110.98	56.024	1.259e-06	48.992	0.00040518	0.00036462	9.5388e-05	714.35	4.4187e-06	3.9618e-06	707.53	267.74	4.316e-06	3.8595e-06	248.47	94.798	105.98	49.63	3.5735e-06	45.594	476.908	309.651	501.409	186.277	281.422	367.201	182.843	191.914	356.250	422.442	187.514	190.884	196.544	201.855	267.347	195.349	-8191	255	
4170.572	1	1	0	0	0.18452	0.093938	0.31891	0.11343	0.16895	0.12074	0.1981	0.10682	0.1751	0.12701	0.050757	0.10761	0.10579	0.26016	0.09408	0.20337	-3.1729	-3.975	-3.2	-3.7958	-3.8104	-3.2542	-4.0104	-3.5833	-3.5438	-3.8833	-3.3875	-3.7708	-3.7812	-3.3396	-3.9479	-3.6813	307.747	486.387	209.515	448.173	524.811	502.738	285.954	379.087	280.795	409.790	344.929	354.175	487.757	489.984	466.206	450.445	0.00061537	0.0005617	4.6061e-05	680.13	5.8415e-06	4.0457e-06	686.56	272.4	6.3172e-06	1.493e-06	246.07	95.522	110.89	56.037	2.9865e-06	49.045	0.00038065	0.00034178	9.1328e-05	717.13	4.0943e-06	3.7607e-06	702.72	270.04	4.0751e-06	3.705e-06	248.4	95.99	104.77	49.315	3.5246e-06	45.744	482.418	317.446	427.452	186.317	331.852	324.883	182.780	191.971	357.302	454.601	187.199	191.058	196.557	202.217	206.668	195.282	-8191	255	
4170.669	1	1	0	0	0.080981	0.17942	0.12656	0.13013	0.12059	0.019155	0.060746	0.11935	0.13544	0.015797	0.17115	0.1211	0.074811	0.28072	0.26609	0.17719	-3.0771	-4.025	-3.3667	-3.675	-3.6625	-3.2271	-4.0563	-3.5	-3.2979	-3.9958	-3.3979	-3.725	-3.8521	-3.3083	-3.7354	-3.5812	299.185	254.210	497.231	447.292	268.023	523.444	282.867	260.649	221.331	381.944	290.397	177.745	318.728	205.130	176.280	179.679	0.00098029	0.00072129	0.00013601	677.8	1.4359e-06	3.0242e-06	683.7	270.92	2.9237e-06	2.8865e-06	246.85	95.397	111.42	56.34	6.6369e-06	49.653	0.00034892	0.00031499	8.8271e-05	712.26	3.6211e-06	3.3483e-06	694.52	265.84	3.5524e-06	3.2746e-06	246.57	94.476	102.82	48.996	3.5647e-06	45.7	504.111	288.074	189.776	186.213	369.456	288.752	183.095	192.085	362.649	377.238	187.375	191.337	196.515	201.778	532.968	195.353	-8191	255	
4170.765	1	1	0	0	0.15516	0.098102	0.17795	0.17033	0.076719	0.073679	0.089275	0.20246	0.078644	0.11285	0.15538	0.10628	0.21866	0.18128	0.14099	0.064203	-2.9437	-3.9833	-3.3771	-3.8333	-3.8667	-3.2271	-3.8896	-3.7792	-3.475	-3.925	-3.5042	-3.6271	-3.7875	-3.2646	-3.7458	-3.7208	388.080	514.549	202.582	297.199	287.460	453.845	378.518	504.492	326.535	188.263	360.220	216.015	477.951	487.786	333.207	418.089	0.0011796	0.0003317	0.00027383	682.34	3.8707e-06	3.2058e-06	688.45	270.4	2.3543e-06	2.4054e-06	246.64	95.501	111.25	56.389	5.6933e-06	49.272	0.00032662	0.00030339	9.3803e-05	712.38	3.5418e-06	3.354e-06	708.89	265.77	3.5132e-06	3.2914e-06	251.47	93.921	102	48.791	3.7149e-06	44.919	483.807	289.713	208.778	186.514	384.378	357.685	183.038	192.371	420.594	192.819	187.339	191.439	196.622	201.603	208.706	195.253	-8191	255	
4170.884	1	1	0	0	0.18776	0.066125	0.30715	0.162	0.22643	0.0981	0.12216	0.12727	0.16442	0.32348	0.14601	0.24322	0.21537	0.31701	0.1996	0.17374	-3.0229	-3.9479	-3.5563	-3.4458	-3.9271	-3.3583	-4.0125	-3.95	-3.2792	-3.8125	-3.6333	-3.5354	-3.9313	-3.4146	-3.5417	-3.8771	418.532	372.018	464.698	513.513	444.224	218.719	498.064	407.943	200.800	499.668	227.659	333.628	193.224	528.761	264.049	461.783	0.00095084	0.00013896	0.00011599	680.95	5.2277e-06	3.5137e-06	683.78	270.51	1.1133e-06	4.1414e-06	245.78	94.889	111.12	56.286	1.6321e-06	48.98	0.0003088	0.00029284	9.5243e-05	700.86	3.3399e-06	3.2593e-06	709.55	261.48	3.3334e-06	3.2533e-06	251.28	92.084	101.12	48.964	3.8331e-06	44.374	496.747	460.311	508.761	186.295	376.913	182.764	182.990	192.197	380.327	510.397	187.127	191.353	196.691	201.816	198.602	195.489	-8191	255	
4170.980	1	1	0	0	0.2326	0.20039	0.13676	0.15869	0.36719	0.27233	0.1142	0.073095	0.28764	0.15879	0.23944	0.14825	0.24045	0.11714	0.025708	0.1521	-2.9958	-3.7812	-3.6792	-3.5167	-3.9604	-3.3604	-3.5896	-3.9458	-3.4271	-3.9104	-3.5563	-3.2667	-4.1292	-3.5479	-3.4896	-3.9458	508.854	495.990	529.830	521.775	461.880	515.590	528.147	509.150	243.463	329.082	403.054	277.074	293.772	477.816	240.611	487.370	0.00097262	0.00061274	0.00012605	676.41	3.3922e-06	5.8807e-06	683.77	270.9	4.1468e-06	1.753e-06	245.05	95.243	111.2	56.493	4.4065e-06	49.489	0.00030486	0.00031188	9.8992e-05	697.96	3.3021e-06	3.5045e-06	713.01	259.55	3.2513e-06	3.4528e-06	249.65	90.772	100.06	49.089	3.552e-06	43.711	495.779	496.642	324.799	186.459	369.848	204.011	182.893	191.988	374.751	202.037	187.471	191.112	196.420	202.061	379.434	195.444	-8191	255	
4171.076	1	1	0	0	0.25404	0.28457	0.17746	0.32989	0.057884	0.20719	0.17297	0.15253	0.069373	0.11805	0.45629	0.092505	0.080958	0.085077	0.13526	0.20613	-2.8708	-3.8063	-3.65	-3.2833	-3.8896	-3.6063	-3.525	-3.9688	-3.2	-3.8583	-3.6479	-3.3271	-4.0979	-3.5958	-3.4708	-3.9646	316.720	233.951	312.299	475.457	192.660	531.438	269.762	487.112	293.529	334.406	488.535	235.796	517.540	523.899	253.596	323.200	0.00099231	0.0005749	6.3827e-05	679.19	3.9835e-06	6.2679e-06	682.92	270.85	7.601e-07	2.1868e-06	246.38	95.812	111.44	56.694	2.0601e-06	49.664	0.00027907	0.00031021	8.9929e-05	687.02	3.0711e-06	3.5681e-06	703.13	257.46	3.1863e-06	3.6362e-06	248.09	90.998	100.76	49.789	3.5234e-06	44.027	475.002	505.676	346.810	186.163	318.847	231.970	182.922	192.030	454.582	182.513	187.564	191.381	196.497	201.865	321.016	195.334	-8191	255	
4171.172	1	1	0	0	0.1047	0.26559	0.17029	0.10479	0.19773	0.1933	0.088406	0.1616	0.26786	0.15999	0.15521	0.1427	0.09604	0.15924	0.21511	0.22847	-2.9396	-3.8021	-3.7771	-3.2917	-3.8958	-3.475	-3.5104	-3.9437	-3.2833	-3.8354	-3.7417	-3.2979	-3.9292	-3.7375	-3.3104	-3.9958	365.215	330.185	345.525	514.922	482.846	507.604	266.475	189.579	293.371	295.862	496.545	183.645	214.417	524.999	532.066	424.104	0.0011193	0.00065702	0.0001569	679.35	3.7669e-06	6.8183e-07	679.95	268.8	6.7508e-06	1.2926e-06	244.05	95.332	110.66	56.143	4.0975e-06	49.438	0.00029277	0.00033467	8.8524e-05	685.28	3.1701e-06	3.6635e-06	691.39	253.72	3.1899e-06	3.6253e-06	242.1	89.616	100.72	49.399	3.2918e-06	43.246	471.834	526.556	310.750	186.561	175.850	391.046	182.947	192.005	174.514	426.992	187.657	191.093	196.479	201.968	263.255	195.167	-8191	255	
4171.268	1	1	0	0	0.26252	0.1818	0.18917	0.15321	0.23	0.17958	0.11872	0.23122	0.1493	0.29563	0.061108	0.15979	0.23374	0.23229	0.12713	0.17167	-3.0021	-3.6625	-3.8396	-3.3937	-3.9458	-3.7458	-3.4958	-4.1292	-3.6521	-3.6354	-3.975	-3.4479	-3.9562	-3.6646	-3.2646	-3.9375	255.764	495.600	377.897	319.962	272.750	282.904	484.100	214.641	345.337	286.856	456.994	369.538	529.744	517.496	243.785	267.590	0.00134	0.0003696	2.9117e-05	673.7	9.6298e-06	2.2267e-06	678.75	268.3	1.927e-06	3.1109e-06	243.15	94.299	110.54	55.768	1.7726e-06	49.058	0.0002982	0.00032473	8.1115e-05	674.48	3.1861e-06	3.4545e-06	679.02	249.74	3.2416e-06	3.4162e-06	237.18	88.035	100.87	48.72	3.0962e-06	42.614	463.164	354.710	469.181	186.280	234.606	369.860	183.007	191.799	199.560	368.361	187.597	191.310	196.238	201.737	359.368	195.302	-8191	255	
4171.364	1	1	0	0	0.094644	0.17828	0.097232	0.25589	0.18778	0.23358	0.1658	0.26394	0.030981	0.33413	0.20967	0.2355	0.17843	0.23378	0.014539	0.081921	-3.0875	-3.6	-3.9146	-3.3937	-3.8563	-3.8708	-3.3875	-4.05	-3.3271	-3.5729	-4.1042	-3.3625	-3.7812	-3.8479	-3.175	-3.7583	354.920	363.090	519.426	526.341	489.193	359.057	431.639	527.622	427.815	207.298	190.867	528.202	201.790	492.042	243.110	417.513	0.0011943	0.00042726	0.00013046	673.39	5.048e-06	5.2147e-06	679.64	269.1	1.8793e-06	2.5102e-06	242.82	94.69	110.55	55.901	1.1592e-06	49.055	0.00031127	0.00030988	7.8346e-05	673.61	3.4091e-06	3.3494e-06	676.76	249.95	3.4338e-06	3.2913e-06	234.54	88.311	101.36	48.388	2.9882e-06	42.813	467.066	280.190	295.327	186.325	196.539	356.140	183.446	191.893	482.776	314.952	187.605	191.332	196.727	201.857	388.121	195.138	-8191	255	
4171.485	1	1	0	0	0.155	0.0076273	0.14656	0.077905	0.18031	0.053811	0.21706	0.10098	0.13563	0.11216	0.14415	0.1992	0.04568	0.15788	0.10081	0.26374	-3.2125	-3.3854	-3.7729	-3.4771	-3.6333	-3.7979	-3.2167	-3.8	-3.5375	-3.4417	-4.0875	-3.1521	-3.7458	-3.8583	-3.2667	-3.9083	392.704	402.260	387.692	433.133	179.539	475.191	359.798	344.164	183.621	227.198	489.560	449.873	178.192	307.244	421.890	384.790	0.0013766	0.00050761	9.0793e-05	675.11	2.7834e-06	5.9596e-06	675.29	268.63	2.5269e-06	2.5249e-06	245.47	94.906	111.03	56.066	1.127e-06	49.687	0.00031515	0.00029157	7.471e-05	676.28	3.4386e-06	3.1309e-06	670.51	251.64	3.4427e-06	3.1301e-06	233.51	89.579	101.68	48.229	2.9111e-06	43.544	478.289	353.795	334.568	186.367	502.838	373.861	183.319	191.889	217.316	322.373	187.587	191.105	196.603	201.892	246.923	195.159	-8191	255	
4171.581	1	1	0	0	0.15437	0.18278	0.026197	0.22624	0.23218	0.20531	0.085596	0.061067	0.20022	0.28434	0.27169	0.13045	0.26195	0.11827	0.25463	0.047871	-3.2313	-3.3271	-3.9125	-3.4729	-3.5979	-3.8771	-3.3208	-3.7792	-3.6688	-3.4062	-3.9938	-3.5354	-3.5938	-3.9938	-3.4188	-3.7646	523.583	196.251	476.160	259.305	311.546	232.298	336.950	457.007	465.112	218.152	497.786	478.663	259.680	411.521	247.603	296.857	0.00077696	0.00034587	1.7796e-05	674.42	6.5145e-06	4.1381e-06	676.84	268.94	3.9814e-06	1.1805e-06	243.99	95.497	110.69	56.013	2.5228e-06	49.399	0.00031096	0.0002794	7.2174e-05	680.36	3.3328e-06	2.9901e-06	667.67	253.58	3.274e-06	2.9878e-06	231.81	90.601	100.56	47.997	2.8859e-06	44.021	484.152	260.074	316.544	186.258	365.414	262.095	183.090	192.028	373.854	453.176	187.480	191.172	196.491	201.944	283.127	195.417	-8191	255	
4171.675	1	1	0	0	0.17885	0.09699	0.10829	0.18258	0.084579	0.10345	0.20732	0.12502	0.14495	0.069377	0.23382	0.15147	0.35789	0.12819	0.20275	0.10786	-3.325	-3.4292	-3.9021	-3.5146	-3.5958	-3.9875	-3.3875	-3.7417	-3.8917	-3.3083	-3.8125	-3.6771	-3.4729	-4	-3.2417	-3.6604	500.885	230.154	510.168	432.593	458.699	259.578	470.499	439.918	334.964	303.400	478.405	491.316	505.159	528.420	257.756	273.396	0.0011471	2.991e-05	0.00010986	671.94	5.998e-07	2.8247e-06	678.87	268.33	2.8662e-06	3.6436e-06	242.02	94.011	110.33	55.782	4.6557e-07	49.122	0.00030392	0.00028026	7.5344e-05	689.52	3.3497e-06	3.0654e-06	675.69	258.32	3.304e-06	3.0498e-06	234.7	91.634	100.37	47.891	3.0837e-06	44.174	510.726	180.367	519.706	186.234	365.942	355.368	182.923	191.989	278.739	261.406	187.685	190.953	196.670	201.936	473.753	195.399	-8191	255	
4171.772	1	1	0	0	0.32281	0.052492	0.066724	0.16374	0.25312	0.20154	0.10647	0.24991	0.098202	0.098326	0.11406	0.16166	0.072985	0.11205	0.19229	0.057492	-3.5292	-3.1688	-3.7958	-3.6104	-3.4583	-3.9167	-3.4917	-3.7354	-3.925	-3.4042	-3.9167	-3.7146	-3.4542	-4	-3.4708	-3.7021	425.956	285.089	527.759	177.691	332.571	300.282	501.238	198.838	214.474	228.505	395.822	472.116	444.345	311.944	339.419	418.090	0.00094541	4.4444e-05	0.00022366	673.38	1.8363e-06	4.4361e-06	678.27	267.39	6.1784e-06	3.0526e-06	243.55	94.613	109.84	56.205	3.4934e-06	49.38	0.00029465	0.00027447	7.9471e-05	692.07	3.1998e-06	2.9565e-06	681.3	257.89	3.1719e-06	3.0204e-06	239.95	91.99	100.23	48.128	3.37e-06	44.35	487.342	310.760	180.260	186.520	427.019	288.913	182.676	192.219	371.252	343.942	187.095	191.258	196.763	201.910	518.422	195.439	-8191	255	
4171.868	1	1	0	0	0.1753	0.13342	0.071215	0.10787	0.21339	0.2202	0.12006	0.1651	0.18174	0.19685	0.0345	0.073811	0.17236	0.11391	0.2019	0.11178	-3.4813	-3.2958	-3.775	-3.8146	-3.5167	-3.9313	-3.6	-3.5479	-3.9896	-3.2021	-3.8417	-3.7188	-3.275	-4.0062	-3.3896	-3.6125	253.951	518.003	288.270	424.031	374.670	463.892	313.596	520.315	526.349	431.011	421.467	361.255	486.276	473.287	245.231	435.437	0.0011139	0.00027778	7.3684e-05	671.11	2.2895e-06	4.2656e-07	679.46	269.91	1.689e-06	2.5074e-06	244.1	95.108	111	56.216	1.0728e-06	49.585	0.00029048	0.00027244	8.5568e-05	688.62	3.1184e-06	2.9298e-06	689.45	256.78	3.0444e-06	2.9559e-06	243.49	91.221	100.11	48.326	3.5502e-06	44.474	477.158	427.663	211.857	186.430	380.446	392.205	182.640	192.069	324.791	237.824	187.621	191.327	196.868	201.709	338.557	195.415	-8191	255	
4171.964	1	1	0	0	0.15693	0.11666	0.26046	0.15012	0.16583	0.14406	0.30289	0.27402	0.032753	0.091419	0.30038	0.19236	0.16749	0.17638	0.1175	0.24297	-3.5375	-3.1542	-3.725	-3.8937	-3.3604	-3.9521	-3.6083	-3.525	-3.9562	-3.3208	-3.8063	-3.7438	-3.2792	-3.9313	-3.2917	-3.5	428.410	320.891	403.083	335.529	324.697	175.885	419.955	312.181	501.823	425.054	461.092	498.918	521.852	497.011	348.428	235.271	0.0010708	0.00041225	0.00016536	674.99	4.8855e-06	1.1677e-06	680.22	270.19	5.0666e-06	3.7101e-06	245.45	95.241	110.9	56.286	3.081e-06	49.735	0.00028747	0.0002855	9.1091e-05	688.29	3.1256e-06	3.1356e-06	700.56	257.01	3.0824e-06	3.2058e-06	248.52	91.229	100.32	48.691	3.6772e-06	44.314	486.444	481.501	515.685	186.525	350.501	249.591	183.084	192.304	351.982	204.127	187.607	191.485	196.570	201.835	269.528	195.670	-8191	255	
4172.060	1	1	0	0	0.16137	0.079285	0.028862	0.23555	0.24928	0.07254	0.15327	0.22695	0.23321	0.21398	0.38167	0.20236	0.19634	0.21017	0.17005	0.057886	-3.5646	-3.4354	-3.7	-4.0021	-3.2396	-3.8292	-3.6875	-3.4333	-3.9146	-3.3479	-3.5542	-3.8271	-3.3292	-3.8187	-3.7	-3.3438	273.625	527.020	484.231	402.992	449.924	354.868	479.689	424.270	502.138	373.086	310.672	528.056	406.768	200.512	479.682	358.578	0.0010272	0.00014136	2.8077e-05	673.56	1.5935e-06	5.9582e-06	679.3	268.75	6.9822e-07	3.8411e-06	245.05	94.39	110.29	56.058	3.8225e-06	49.268	0.00028876	0.0003156	9.6125e-05	689.69	3.2391e-06	3.5288e-06	707.17	257.36	3.1917e-06	3.6031e-06	248.74	90.865	100.21	49.258	3.6733e-06	43.973	470.116	531.413	334.979	186.302	330.731	183.692	183.019	192.133	464.117	261.875	187.744	191.340	196.503	201.848	318.021	195.405	-8191	255	
4172.181	1	1	0	0	0.12297	0.12666	0.042441	0.16589	0.20851	0.30286	0.17223	0.11078	0.31104	0.35413	0.14783	0.051528	0.25975	0.2355	0.034195	0.049471	-3.4979	-3.3688	-3.5333	-3.9375	-3.1042	-3.7	-3.7	-3.3688	-3.7542	-3.3875	-3.5	-3.9562	-3.1562	-3.9229	-3.8417	-3.0792	440.668	503.031	328.240	506.325	331.892	356.549	275.524	264.304	470.325	284.485	345.263	446.841	200.986	474.963	315.627	416.531	0.0014319	0.000656	8.1036e-05	674.22	2.6105e-06	5.5711e-06	682.22	268.46	2.5833e-06	2.6207e-06	245.03	95.022	110.78	56.446	3.6666e-06	49.639	0.00029432	0.00034032	9.4257e-05	688.56	3.306e-06	3.7779e-06	704.31	257.46	3.2985e-06	3.8527e-06	248.59	91.234	101.51	50.029	3.6159e-06	44.24	472.994	521.292	314.624	186.485	179.913	210.463	183.331	191.884	526.362	251.455	187.358	191.500	196.395	201.769	300.094	195.409	-8191	255	
4172.277	1	1	0	0	0.086351	0.25458	0.11982	0.11364	0.062391	0.13173	0.12611	0.15355	0.16818	0.10701	0.15261	0.11522	0.1208	0.23161	0.12793	0.13227	-3.3312	-3.6542	-3.3292	-3.9562	-3.4021	-3.55	-3.7625	-3.1542	-3.8708	-3.5187	-3.2687	-3.8854	-3.5542	-3.6542	-3.9354	-3.4125	416.799	355.552	533.409	388.166	438.936	414.138	430.272	326.681	198.071	530.634	462.486	205.710	486.840	453.693	192.033	444.304	0.0012599	0.00021008	0.00012927	678.95	7.9622e-06	2.9821e-06	683.96	272.91	6.005e-06	3.4172e-06	247.98	96.687	111.21	56.8	3.9895e-06	50.251	0.00030941	0.00035281	9.024e-05	687.16	3.4257e-06	3.8488e-06	699.42	257.83	3.4884e-06	3.905e-06	248.35	91.742	103.35	50.575	3.6678e-06	45.064	483.217	180.353	293.314	186.579	193.929	333.402	182.657	191.971	207.933	370.627	187.650	191.276	196.538	201.841	323.870	195.502	-8191	255	
4172.349	1	1	0	0	0.30683	0.068632	0.17152	0.1963	0.09392	0.043578	0.1303	0.1499	0.17171	0.11334	0.14542	0.035014	0.15398	0.17885	0.075342	0.14481	-3.425	-3.6542	-3.3167	-3.9979	-3.4437	-3.5396	-3.8958	-3.1875	-3.6625	-3.7521	-3.3354	-4.0854	-3.475	-3.5958	-3.8271	-3.1417	510.210	278.374	521.295	182.794	526.546	364.421	452.700	442.871	306.571	312.279	372.889	192.798	244.717	435.731	433.148	390.544	0.0014724	0.00063298	0.00014729	682.75	4.6867e-06	6.5645e-06	689.61	270.16	5.1838e-06	6.8022e-06	248.4	96.392	111.29	56.967	4.1216e-06	50.25	0.0003599	0.00038855	9.919e-05	703.61	4.2144e-06	4.4012e-06	722.14	264.91	4.3311e-06	4.3791e-06	256.91	94.836	107.54	51.367	3.9589e-06	45.936	461.709	308.074	258.859	186.184	206.056	364.466	183.092	191.746	180.611	338.828	187.486	191.033	196.431	201.830	347.519	195.196	-8191	255	
4172.445	1	1	0	0	0.15914	0.14345	0.2562	0.15119	0.035014	0.28311	0.11558	0.10407	0.10971	0.13365	0.25194	0.13283	0.21364	0.078069	0.26406	0.1918	-3.3042	-3.7604	-3.2354	-3.975	-3.4708	-3.5479	-3.8854	-3.3875	-3.8479	-3.8333	-3.3292	-3.9313	-3.5354	-3.325	-4.0312	-3.3292	270.362	340.034	407.896	199.279	210.198	430.775	239.910	517.547	183.228	383.018	383.506	194.583	198.625	403.686	353.478	470.798	0.00078706	0.00089286	0.00010236	680.09	5.3949e-06	7.592e-06	689.69	272.07	2.5155e-06	3.4035e-06	247.03	95.397	110.93	56.898	5.6911e-06	50.075	0.00040681	0.00039378	0.0001007	708.34	4.4968e-06	4.2624e-06	717.37	266.81	4.5519e-06	4.262e-06	255.6	95.401	108.26	50.971	3.9458e-06	46.526	452.703	274.750	361.710	186.213	242.421	364.319	182.992	191.880	229.566	361.996	187.368	191.039	196.620	201.894	344.241	195.347	-8191	255	
4172.565	1	1	0	0	0.16029	0.045715	0.034891	0.22098	0.048321	0.13263	0.23243	0.23698	0.023453	0.091361	0.19766	0.2813	0.23531	0.14325	0.095278	0.32103	-3.2708	-3.7375	-3.2667	-4.0188	-3.6167	-3.5042	-4.1188	-3.3438	-3.6417	-3.7708	-3.2146	-4.0021	-3.8458	-3.3563	-3.9479	-3.5042	519.709	274.301	251.566	353.535	337.513	187.868	409.714	467.470	417.502	291.205	473.418	175.149	252.764	456.042	328.073	465.241	0.00058145	0.00070432	3.1259e-05	681.24	5.1077e-06	3.1415e-06	686.6	271.75	6.1474e-06	2.3408e-06	245.49	95.12	111.63	56.927	1.6382e-06	50.069	0.00042693	0.00038641	0.00010098	720.18	4.6102e-06	4.1359e-06	711.73	268.66	4.4068e-06	3.9322e-06	250	95.545	106.7	50.442	3.6732e-06	46.787	458.670	300.405	460.486	186.003	277.426	345.596	182.792	192.019	395.641	343.879	187.426	191.086	196.605	201.669	321.871	195.528	-8191	255	
4172.660	1	1	0	0	0.15327	0.022545	0.09636	0.22931	0.11843	0.2574	0.23413	0.16203	0.29612	0.047689	0.063882	0.17082	0.15031	0.045004	0.34543	0.094183	-3.2125	-3.7771	-3.2125	-3.7667	-3.7083	-3.4396	-3.9813	-3.4729	-3.4958	-3.95	-3.1937	-3.7292	-3.875	-3.3729	-3.9396	-3.6688	518.010	302.124	209.200	192.005	213.626	259.271	365.017	403.763	436.507	496.191	261.654	502.523	186.840	298.602	334.390	208.259	0.00057621	0.00039418	9.4398e-05	679.85	5.193e-06	2.8609e-06	687.08	271.93	3.5404e-06	4.2722e-06	248.4	96.293	111.75	57.263	4.9535e-06	50.58	0.0004053	0.0003705	0.00010015	733.74	4.6355e-06	4.2783e-06	725.62	278.7	4.7545e-06	4.3301e-06	260.78	101.34	109.16	51.539	4.2835e-06	49.253	488.512	245.616	265.217	186.219	350.015	351.568	182.630	191.780	294.033	267.334	187.526	191.083	196.484	201.871	208.064	195.098	-8191	255	
4172.756	1	1	0	0	0.047321	0.17381	0.21804	0.15037	0.045483	0.038963	0.048334	0.11758	0.21397	0.16444	0.18518	0.19367	0.11318	0.17441	0.08702	0.25295	-2.9813	-3.9313	-3.3208	-3.7958	-3.8563	-3.35	-3.8	-3.5208	-3.3292	-3.9396	-3.3646	-3.65	-3.8604	-3.35	-3.8375	-3.6312	234.008	184.167	331.550	418.497	457.980	247.029	402.742	411.962	217.019	321.648	184.347	280.849	201.232	515.536	354.961	175.933	0.00084835	0.00044146	0.00026152	681.76	4.773e-06	4.5718e-06	691.99	272.67	8.1009e-06	4.3505e-06	249.66	97.025	111.64	57.197	5.3328e-06	50.799	0.00043711	0.00039906	0.00011199	750.18	4.7173e-06	4.3877e-06	739.04	282.92	4.6008e-06	4.1995e-06	264.88	101.89	107.49	51.168	4.3358e-06	48.799	516.430	315.563	509.186	186.118	313.236	312.979	182.827	191.998	324.260	351.771	187.471	191.263	196.587	201.690	185.135	195.450	-8191	255	
4172.854	1	1	0	0	0.063175	0.24486	0.16218	0.12623	0.17228	0.1908	0.22137	0.041582	0.027968	0.16386	0.15242	0.10904	0.1802	0.2212	0.19638	0.089473	-2.8125	-3.9146	-3.2542	-3.5833	-3.9771	-3.2771	-3.8292	-3.8042	-3.3896	-3.9083	-3.3604	-3.7417	-3.9333	-3.5083	-3.8937	-3.6688	293.966	409.934	187.977	366.431	272.573	498.633	385.247	230.388	469.421	240.883	391.667	259.967	512.448	197.296	370.302	445.613	0.0012881	0.00048965	6.8789e-05	683.29	2.1654e-06	1.7936e-06	690.71	271.99	2.2239e-06	2.4517e-06	249.03	96.045	111.86	57.117	1.8345e-06	50.683	0.00039761	0.00036702	0.00011156	740.6	4.2454e-06	4.0281e-06	740.33	278.05	4.3091e-06	4.0296e-06	267.88	100.42	106.78	50.953	4.6567e-06	48.406	479.745	251.622	514.474	186.246	302.474	205.520	182.788	191.859	306.067	298.902	187.092	191.197	196.405	201.771	212.116	195.204	-8191	255	
4172.973	1	1	0	0	0.086593	0.10964	0.044465	0.17702	0.12628	0.25643	0.17972	0.11314	0.12459	0.1394	0.17495	0.059536	0.15506	0.22593	0.17136	0.25974	-2.9917	-3.7792	-3.3771	-3.6521	-3.8312	-3.3833	-3.7417	-3.8187	-3.2167	-4.1021	-3.6583	-3.6333	-3.9292	-3.4083	-3.7708	-3.8438	296.266	347.843	298.017	241.411	455.352	350.494	183.070	445.069	253.671	495.954	187.632	182.700	514.048	506.070	174.323	486.494	0.00068443	0.00030557	8.5858e-05	683.42	6.006e-06	5.3209e-06	692.77	270.97	4.5331e-06	5.9878e-06	250.09	96.843	111.36	57.191	9.3268e-07	50.912	0.00039789	0.00037628	0.00012233	741.38	4.3474e-06	4.2652e-06	761.74	279.81	4.508e-06	4.4067e-06	278.49	101.53	108.14	52.064	5.2632e-06	49.059	484.389	263.237	466.257	186.444	370.094	261.980	183.125	191.756	325.208	256.938	186.902	190.931	196.393	201.612	328.482	195.408	-8191	255	
4173.044	1	1	0	0	0.16106	0.030114	0.30706	0.21751	0.15733	0.17872	0.13092	0.17985	0.15529	0.29578	0.14415	0.13295	0.20428	0.033189	0.067884	0.084348	-2.7646	-3.7938	-3.4313	-3.4729	-3.9583	-3.4437	-3.6208	-3.8063	-3.2687	-3.8688	-3.7208	-3.3667	-3.9271	-3.5521	-3.7479	-3.9729	475.744	246.632	247.090	414.012	219.404	527.534	484.505	470.937	366.103	302.191	445.216	175.388	194.773	306.909	379.303	511.128	0.0010417	0.00037258	3.7571e-05	684.51	4.5164e-06	4.3553e-06	693.76	273.68	5.4841e-06	3.5854e-06	249.27	97.744	112.2	57.619	2.7566e-06	51.117	0.00042033	0.00042427	0.00013501	747.91	4.494e-06	4.7303e-06	776.5	279.42	4.4249e-06	4.657e-06	278.51	100.28	106.99	52.467	4.9977e-06	48.503	476.345	204.618	421.700	186.236	374.380	212.179	183.054	192.095	275.593	216.782	187.350	191.258	196.244	201.530	396.487	195.555	-8191	255	
4173.165	1	1	0	0	0.31836	0.060905	0.051889	0.11435	0.30442	0.069151	0.12466	0.23219	0.095404	0.13202	0.29844	0.17225	0.030666	0.22543	0.25159	0.27406	-2.9688	-3.7021	-3.7542	-3.4479	-3.9229	-3.4437	-3.775	-3.8563	-3.2583	-3.9354	-3.6688	-3.2875	-3.9854	-3.5687	-3.5646	-3.8417	397.584	385.810	403.119	524.647	433.891	532.274	418.889	465.671	288.702	251.870	226.905	220.156	449.275	505.587	240.194	392.240	0.0011263	0.00072145	0.00017857	683.75	3.4594e-06	5.1401e-06	693.69	273.2	5.6096e-06	1.0603e-05	251.59	97.705	112.64	57.506	7.3155e-07	51.377	0.00039186	0.00043117	0.00012555	735.6	4.1823e-06	4.7584e-06	759.89	274.63	4.1832e-06	4.7541e-06	272.38	98.753	106.26	52.584	4.5519e-06	47.631	476.453	525.821	305.810	186.127	310.697	202.098	183.072	192.148	296.859	222.905	187.419	190.826	196.172	201.793	357.020	195.242	-8191	255	
4173.261	1	1	0	0	0.24199	0.2067	0.11877	0.23664	0.13491	0.13458	0.15678	0.17435	0.06632	0.031054	0.029665	0.16537	0.20564	0.16518	0.054913	0.20844	-2.7604	-3.6958	-3.6479	-3.2625	-3.9562	-3.4729	-3.5042	-3.8083	-3.3146	-3.7792	-3.7646	-3.3333	-3.8604	-3.5479	-3.3083	-4.0833	199.923	280.215	413.304	518.451	208.737	319.122	394.537	351.737	189.596	211.300	336.868	498.511	502.903	483.138	308.986	515.944	0.0013634	0.00035244	0.00019808	685.13	1.2561e-06	5.2189e-06	691.81	273.62	7.6139e-06	1.9548e-06	249.64	97.476	112.25	57.556	4.1934e-06	50.937	0.00037598	0.00043247	0.00011553	726.17	4.1486e-06	4.8884e-06	749.85	273.52	4.4038e-06	5.0667e-06	271.25	99.283	108.7	53.531	4.8123e-06	48.256	480.116	197.932	320.771	186.439	490.941	517.051	182.913	191.849	204.030	185.302	187.571	191.210	196.282	201.635	325.249	195.248	-8191	255	
4173.357	1	1	0	0	0.099082	0.056214	0.088227	0.3379	0.048173	0.2568	0.14611	0.1385	0.052351	0.051171	0.37214	0.19623	0.10811	0.2134	0.14767	0.1456	-2.8271	-3.6917	-3.7083	-3.2979	-3.7229	-3.7583	-3.3187	-3.9688	-3.4062	-3.6521	-4.0083	-3.3812	-3.7896	-3.8146	-3.2687	-4.0125	283.234	481.293	406.259	532.886	248.626	267.890	474.226	340.826	184.269	404.942	438.473	478.205	193.325	504.703	511.705	207.083	0.0015494	0.00040735	0.00011791	686.6	4.2295e-06	2.5836e-06	692.33	274.25	6.0678e-06	3.9086e-06	251.49	97.718	111.94	58.097	2.0231e-06	51.45	0.00043555	0.00048259	0.00012217	737.84	4.8268e-06	5.2892e-06	758.71	276.41	4.9599e-06	5.2716e-06	272.88	99.607	111.03	53.704	4.8048e-06	48.563	462.099	384.332	266.190	186.045	213.240	348.959	182.981	191.882	219.753	388.675	187.508	191.321	196.052	201.582	180.464	195.338	-8191	255	
4173.453	1	1	0	0	0.22372	0.1134	0.098364	0.12327	0.084477	0.25874	0.23727	0.21214	0.14662	0.093525	0.10821	0.081186	0.15168	0.25618	0.1791	0.19886	-3.0292	-3.5354	-3.8708	-3.3583	-3.6	-3.7667	-3.3187	-3.85	-3.3021	-3.5312	-4.0792	-3.3375	-3.7208	-3.8688	-3.2229	-3.8271	360.951	321.845	472.216	467.348	440.900	412.475	465.681	402.121	397.736	281.625	490.525	492.280	277.397	462.392	217.765	435.741	0.0016755	0.00078231	9.3421e-05	688.71	6.1354e-06	2.6012e-06	699.86	275.22	6.8298e-06	2.8394e-06	251.17	98.11	112.76	58.155	3.0705e-06	52.001	0.00047288	0.00047693	0.00012072	739.11	5.1518e-06	5.1214e-06	757.96	276.97	5.1878e-06	5.0044e-06	269.76	100.08	112.07	53.121	4.4766e-06	48.473	462.732	339.464	333.945	186.382	199.061	452.945	182.959	191.856	214.416	392.753	187.533	191.065	196.220	201.609	298.771	195.201	-8191	255	
4173.574	1	1	0	0	0.23093	0.1103	0.22356	0.22798	0.11939	0.11295	0.37398	0.11198	0.20562	0.10222	0.18042	0.11926	0.25317	0.12919	0.24535	0.079922	-3.1479	-3.4104	-3.8875	-3.4667	-3.6167	-3.9021	-3.2167	-3.7729	-3.4938	-3.3396	-4	-3.1979	-3.7188	-3.825	-3.1875	-4.0062	453.127	289.902	217.174	507.573	520.930	355.797	491.929	216.984	312.385	489.401	219.031	446.325	500.550	341.437	352.192	291.538	0.0011516	0.00016516	0.0001822	686.03	3.021e-06	7.2399e-06	697.27	277.52	1.5171e-06	1.8691e-06	252.72	98.528	113.03	58.167	2.3436e-06	52.057	0.00046492	0.00042909	0.00010933	731.99	4.9059e-06	4.5003e-06	737.82	274.86	4.8614e-06	4.4185e-06	262.05	99.705	110.64	52.32	4.1497e-06	48.819	479.113	365.833	246.822	186.319	519.036	351.925	183.439	191.411	183.833	375.461	187.552	190.916	196.629	201.870	399.376	195.158	-8191	255	
4173.646	1	1	0	0	0.1451	0.17118	0.21384	0.22339	0.13131	0.23377	0.53537	0.12074	0.16563	0.19404	0.25802	0.17584	0.2664	0.28947	0.23043	0.1604	-3.2833	-3.3021	-3.8458	-3.3854	-3.6542	-3.8312	-3.3958	-3.7062	-3.4479	-3.275	-3.8979	-3.5604	-3.6375	-3.9688	-2.9417	-3.6917	179.769	509.539	385.244	500.014	508.026	343.166	470.492	496.561	303.491	362.562	189.196	505.868	424.146	427.518	250.250	421.472	0.00077306	0.00071584	2.7857e-05	686.05	4.9117e-06	6.5376e-06	698.83	275.27	6.9228e-06	8.4624e-07	250.53	98.075	112.51	58.23	4.3598e-06	51.642	0.00045101	0.00040992	0.00010618	741.7	4.8858e-06	4.3908e-06	734.21	278.14	4.7107e-06	4.2782e-06	259.61	100.48	109.38	51.907	4.0706e-06	49.041	487.964	313.535	321.645	186.129	420.377	350.936	183.120	191.657	337.067	430.343	187.656	190.651	196.505	201.838	231.425	194.899	-8191	255	
4173.742	1	1	0	0	0.097776	0.14795	0.045343	0.065887	0.23752	0.27004	0.24168	0.31192	0.11032	0.12765	0.089224	0.18165	0.25948	0.06307	0.21162	0.18073	-3.1896	-3.2729	-3.8542	-3.6021	-3.3583	-3.8229	-3.4896	-3.725	-3.55	-3.3	-3.9875	-3.4813	-3.5229	-4.2562	-3.2958	-3.7521	256.015	404.954	456.920	241.868	190.600	462.189	473.975	385.424	366.241	383.135	198.881	402.943	222.070	320.871	247.127	476.953	0.00092878	0.00026871	0.00013975	685.26	4.6511e-06	4.2548e-06	695.06	275.11	4.4546e-06	4.0677e-06	249.62	97.722	112.62	57.856	2.7279e-06	51.817	0.00042607	0.00039276	0.00010461	747.12	4.6746e-06	4.3078e-06	736.71	282.66	4.6475e-06	4.3078e-06	263.18	102.67	108.92	51.78	4.2455e-06	49.347	492.136	312.075	192.566	186.342	369.114	378.523	182.913	191.925	352.348	402.516	187.464	190.741	196.130	201.660	524.248	195.056	-8191	255	
4173.838	1	1	0	0	0.32563	0.093637	0.17444	0.12108	0.17124	0.14497	0.11285	0.19707	0.19213	0.091938	0.079172	0.21912	0.15441	0.12155	0.17465	0.25991	-3.4229	-3.1813	-3.8646	-3.7083	-3.3979	-3.8604	-3.2708	-3.5667	-3.8208	-3.1396	-3.7479	-3.4646	-3.3146	-3.9604	-3.2667	-3.5146	326.805	277.353	306.919	498.767	439.871	425.085	508.795	314.028	326.453	444.023	396.916	494.703	483.620	487.731	351.750	403.705	0.00096045	0.00045066	0.00028254	683.63	4.9489e-06	1.0958e-06	693.97	275.96	2.5967e-06	1.1709e-06	252.02	98.204	112.94	58.178	3.2228e-06	52.209	0.00039841	0.00036856	0.00010477	740.75	4.1911e-06	3.8994e-06	735.84	278.59	4.1856e-06	3.9465e-06	264.49	101.46	107.73	51.622	4.41e-06	49.409	493.753	279.574	516.469	186.315	407.775	515.712	183.130	192.097	245.090	343.400	187.192	191.624	196.592	201.788	203.880	195.183	-8191	255	
4173.957	1	1	0	0	0.084018	0.18711	0.07621	0.040825	0.22297	0.17376	0.11353	0.10364	0.19136	0.14786	0.24944	0.11301	0.14136	0.086425	0.025135	0.24469	-3.4146	-3.025	-3.7062	-3.8125	-3.2417	-3.9333	-3.525	-3.6646	-3.8583	-3.0604	-3.925	-3.8417	-3.3667	-3.8479	-3.5292	-3.5875	235.183	499.906	478.164	388.516	467.370	289.536	219.869	533.422	470.406	177.006	318.630	363.568	471.648	492.514	418.000	433.561	0.00079798	0.00023009	0.0001899	689.61	3.9381e-06	5.0857e-06	699.25	276.19	2.1359e-06	1.3815e-06	253.42	98.552	113.48	58.518	2.5992e-06	52.144	0.00038691	0.00036312	0.00011338	741.23	4.1796e-06	3.9332e-06	750.99	279.24	4.2163e-06	4.0841e-06	273.89	101.91	108.25	52.152	4.8159e-06	49.592	458.817	234.590	523.745	186.441	378.256	339.162	182.883	191.962	330.074	269.863	187.271	191.224	196.398	201.627	174.274	195.520	-8191	255	
4174.053	1	1	0	0	0.041887	0.1587	0.077606	0.20501	0.04744	0.37077	0.2756	0.12304	0.19515	0.19258	0.15865	0.18847	0.29305	0.098386	0.17275	0.12655	-3.6625	-3.0833	-3.6646	-3.7958	-3.1208	-3.8896	-3.6896	-3.3708	-3.9625	-3.2542	-3.7042	-3.6729	-3.1729	-3.9979	-3.575	-3.3958	188.546	177.964	201.254	465.445	318.517	478.532	457.060	367.650	471.651	408.640	214.669	411.654	469.721	174.835	449.500	482.109	0.0012184	0.00054104	8.4695e-05	690.72	2.2656e-06	4.399e-07	699.67	274.31	2.3721e-06	5.6305e-06	254.17	98.257	113.64	58.362	7.8842e-07	52.198	0.00039186	0.00038573	0.00012379	739.87	4.2694e-06	4.233e-06	766.24	278.59	4.2065e-06	4.3088e-06	276.29	100.38	107.47	52.399	4.8498e-06	48.81	499.947	245.131	213.193	186.334	306.452	495.818	183.074	191.921	369.621	233.302	187.768	190.995	196.500	201.510	302.380	195.559	-8191	255	
4174.149	1	1	0	0	0.24612	0.17876	0.16435	0.12271	0.20532	0.088009	0.15095	0.21106	0.16626	0.27432	0.18003	0.077704	0.18545	0.1284	0.25344	0.12951	-3.6333	-3.3833	-3.5979	-3.8521	-3.3083	-3.9083	-3.6146	-3.3021	-3.9688	-3.4417	-3.6708	-4.0458	-3.3667	-3.7667	-3.5646	-3.4375	314.550	311.767	274.639	441.196	329.239	330.561	402.706	492.000	340.583	479.795	487.167	400.829	176.618	233.782	206.374	523.301	0.0012788	0.00031785	0.00015501	689.28	3.4232e-06	4.1123e-06	697.4	276.45	2.1371e-06	5.2462e-06	251.44	98.736	113.18	58.238	2.4981e-06	52.114	0.00037784	0.00040308	0.00012245	733.38	4.1132e-06	4.4184e-06	760.39	275.96	4.0662e-06	4.5305e-06	273.41	99.227	106.82	52.835	4.6662e-06	48.52	486.892	501.979	256.236	186.135	385.891	516.792	182.855	191.659	360.870	259.541	187.685	191.201	196.207	201.450	304.001	195.489	-8191	255	
4174.245	1	1	0	0	0.18532	0.12543	0.13906	0.36124	0.067375	0.10399	0.033508	0.19576	0.18294	0.17258	0.24332	0.11093	0.1536	0.30474	0.29827	0.22396	-3.5854	-3.1979	-3.3937	-3.8187	-3.1813	-3.7958	-3.8063	-3.1646	-3.8438	-3.2854	-3.65	-3.9271	-3.2042	-3.8167	-3.7354	-3.4292	293.410	420.979	249.021	247.682	341.970	254.633	207.596	508.389	335.475	513.273	474.230	510.981	265.588	278.184	356.753	179.890	0.0011571	0.00047522	7.1075e-05	686.8	5.4096e-06	1.3481e-06	697.18	276.48	3.678e-06	6.4416e-06	252.91	98.753	113.47	58.696	1.0959e-06	52.704	0.0003736	0.00042725	0.00011927	730.91	4.1298e-06	4.7387e-06	755.92	275.6	4.1337e-06	4.8238e-06	272.23	99.363	107.84	53.648	4.5704e-06	48.829	470.267	519.897	274.108	186.124	240.105	420.523	183.141	191.689	234.790	263.725	187.801	191.164	196.224	201.440	365.425	195.553	-8191	255	
4174.340	1	1	0	0	0.0709	0.17884	0.052722	0.13526	0.084004	0.13137	0.19506	0.17924	0.094685	0.13459	0.1862	0.1705	0.12521	0.2196	0.13753	0.090662	-3.5	-3.4979	-3.3042	-4.0125	-3.3396	-3.6417	-3.925	-3.3	-3.7708	-3.4667	-3.2687	-3.8854	-3.4771	-3.5646	-3.8063	-3.2333	471.411	459.651	264.062	479.753	412.167	359.221	459.629	360.288	377.418	381.456	369.659	200.654	176.242	418.577	197.713	200.219	0.0016116	0.00021898	0.00011402	691.93	9.287e-06	1.1277e-06	703.48	277.72	5.4328e-06	8.4801e-07	255.64	99.824	114.39	58.858	3.7252e-06	53.006	0.00039202	0.00045105	0.00011633	730.33	4.3728e-06	4.9443e-06	753.85	275.16	4.4007e-06	4.93e-06	271.02	99.444	109.56	53.844	4.409e-06	48.765	464.916	291.294	338.680	186.427	529.692	378.217	183.168	191.939	250.853	415.386	187.453	190.983	196.496	201.561	375.757	195.554	-8191	255	
4174.436	1	1	0	0	0.12703	0.1165	0.10171	0.12859	0.065423	0.11478	0.27509	0.088754	0.11096	0.17312	0.32148	0.13703	0.02297	0.11131	0.11869	0.28862	-3.4375	-3.6937	-3.3104	-4.1042	-3.2146	-3.6	-3.7729	-3.4	-3.8563	-3.7271	-3.3708	-3.9667	-3.5354	-3.7125	-3.8792	-3.1937	294.678	269.084	293.651	464.359	471.673	321.672	273.355	475.580	495.324	413.216	230.663	483.725	480.116	395.020	204.262	419.905	0.0017257	0.00075692	7.836e-05	691.12	4.6221e-06	6.6648e-06	702.42	276.9	4.5657e-06	4.2677e-07	253.66	98.564	114.24	58.676	2.3982e-06	52.514	0.00041289	0.00043821	0.00011007	721.78	4.471e-06	4.5822e-06	736.38	269.43	4.3027e-06	4.3771e-06	260.93	96.46	108.73	52.611	3.9847e-06	47.597	460.251	304.477	300.850	186.006	234.466	356.056	183.077	192.028	527.558	334.608	187.760	191.248	196.275	201.816	306.987	195.284	-8191	255	
4174.532	1	1	0	0	0.21512	0.19024	0.13748	0.21848	0.31009	0.30337	0.22655	0.22546	0.06295	0.11948	0.10865	0.11644	0.33673	0.13888	0.092489	0.11952	-3.4375	-3.65	-3.2021	-4.0167	-3.5958	-3.5687	-4.0917	-3.2917	-3.8083	-3.8583	-3.4333	-3.9729	-3.6271	-3.3812	-4.0938	-3.4458	324.569	319.594	200.272	436.014	438.164	277.217	476.257	212.745	517.027	174.608	252.375	366.468	488.608	505.839	276.287	386.607	0.0013843	0.00066428	9.7746e-05	687.78	2.9527e-06	4.4423e-06	702.55	276.77	2.4311e-06	2.4461e-06	253.69	98.69	113.9	58.379	2.5368e-06	52.057	0.00040957	0.00039959	0.00010257	718.52	4.5757e-06	4.3896e-06	733.52	272.43	4.6571e-06	4.3464e-06	261.67	97.936	110.14	52.314	3.9555e-06	47.872	478.518	368.111	252.949	185.908	204.889	312.606	183.334	191.516	212.252	355.178	187.636	190.924	196.553	201.783	330.954	194.912	-8191	255	
4174.653	1	1	0	0	0.094715	0.16375	0.17971	0.086578	0.31026	0.4507	0.020006	0.16077	0.13541	0.15807	0.18871	0.18608	0.12271	0.20162	0.0341	0.047505	-3.3208	-3.7438	-3.0583	-3.9229	-3.4708	-3.4146	-4.0708	-3.2458	-3.6125	-3.925	-3.1813	-3.7292	-3.6937	-3.5625	-3.9292	-3.5229	217.633	362.487	364.279	210.884	451.709	219.410	359.776	337.402	383.182	435.607	519.449	444.726	475.634	512.858	479.712	315.690	0.001298	0.00039816	8.4183e-05	689.75	3.1957e-06	1.6062e-06	698.33	276.72	1.411e-06	2.5664e-06	254.89	99.196	113.27	58.7	3.3309e-06	52.593	0.0004206	0.00038298	9.9749e-05	726.43	4.5852e-06	4.1577e-06	727.6	274.62	4.5618e-06	4.0993e-06	259.02	99.221	109.17	51.994	3.7222e-06	48.478	464.342	260.842	409.417	186.026	371.966	446.303	183.302	191.871	495.045	433.186	187.706	190.695	196.391	201.791	234.674	195.096	-8191	255	
4174.749	1	1	0	0	0.22853	0.069114	0.15392	0.093195	0.15755	0.35023	0.1843	0.12395	0.14318	0.11268	0.10772	0.062895	0.01731	0.10681	0.081107	0.129	-3.2771	-3.9208	-3.3312	-3.9021	-3.5583	-3.2583	-3.9813	-3.2542	-3.3917	-3.9938	-3.4521	-3.7458	-3.7125	-3.5271	-3.8646	-3.6125	397.805	437.030	256.192	174.126	186.500	514.656	430.685	439.479	392.128	418.987	384.247	420.620	253.535	509.900	288.058	389.932	0.00098572	0.00028533	7.4403e-05	691.69	3.8381e-06	4.5416e-06	702.66	278.52	3.482e-06	3.9549e-06	255.47	100.05	113.87	58.883	1.5595e-06	53.153	0.00039436	0.00035438	9.2644e-05	726.53	4.1412e-06	3.7804e-06	716.88	274.69	4.1151e-06	3.7439e-06	255.93	99.835	107.56	51.717	3.6762e-06	49.238	479.038	268.491	398.139	186.055	330.009	331.552	182.957	191.971	355.216	367.163	187.290	191.116	196.451	201.894	233.244	195.180	-8191	255	
4174.845	1	1	0	0	0.2348	0.079486	0.069936	0.11844	0.11508	0.031335	0.087167	0.14246	0.095669	0.25811	0.22096	0.22544	0.19781	0.20624	0.2226	0.28085	-3.2042	-4.0062	-3.2438	-3.7271	-3.6354	-3.2667	-3.8208	-3.6292	-3.3292	-3.9125	-3.3563	-3.7188	-3.7958	-3.4521	-3.9833	-3.5583	504.306	219.081	509.509	402.705	428.263	177.858	201.089	359.660	387.793	476.488	300.284	335.434	462.547	399.941	184.551	510.658	0.00069028	0.00027816	7.0042e-05	691.5	2.1642e-06	8.9073e-06	703.56	278.22	6.6733e-06	1.8616e-06	255.09	99.532	113.88	58.314	5.8259e-06	52.549	0.00037925	0.00034672	9.72e-05	736.62	4.1328e-06	3.871e-06	730.1	279.09	4.1379e-06	3.8164e-06	261.65	101.28	107.49	51.57	4.0462e-06	49.32	452.585	326.795	244.142	186.113	331.667	325.038	182.876	191.802	371.206	264.827	187.231	191.297	196.419	201.752	208.370	195.335	-8191	255	
4174.941	1	1	0	0	0.085825	0.12127	0.20034	0.39444	0.18907	0.15017	0.15757	0.084578	0.13057	0.098297	0.15218	0.23062	0.11317	0.22563	0.18914	0.043663	-2.9979	-3.9938	-3.3896	-3.5708	-3.8646	-3.2354	-4.0042	-3.7417	-3.3208	-3.8521	-3.5625	-3.6188	-3.8396	-3.2125	-3.8021	-3.6979	418.250	480.139	313.346	175.809	173.796	245.120	466.810	203.847	179.894	372.198	196.613	388.697	444.357	530.576	287.473	234.387	0.0012747	0.00032511	0.00018942	693.34	6.0458e-06	2.1726e-06	705.67	276.43	1.1694e-06	2.4739e-06	254.27	99.442	113.43	58.466	2.1943e-06	52.205	0.00037988	0.0003523	0.00010686	743.29	4.1217e-06	3.8777e-06	744.02	279.35	4.1273e-06	3.8526e-06	268.12	101.33	107.43	51.696	4.5045e-06	49.212	482.228	344.032	174.113	186.206	365.961	291.978	182.676	191.733	368.963	320.396	187.380	191.349	196.408	201.593	199.974	195.484	-8191	255	
4175.037	1	1	0	0	0.02561	0.10153	0.26228	0.086696	0.2283	0.16183	0.11383	0.055578	0.019332	0.05065	0.35894	0.1676	0.26481	0.14258	0.12489	0.29455	-2.85	-3.7229	-3.4146	-3.6	-3.8438	-3.3042	-3.7417	-3.5375	-3.2333	-3.7771	-3.525	-3.3708	-4.0062	-3.4521	-3.7354	-3.7958	420.455	286.144	226.992	496.514	316.804	384.934	364.201	310.832	254.137	506.602	440.520	522.991	455.259	180.082	365.753	188.036	0.0010273	0.00031669	0.00017053	694.5	2.7039e-06	1.6732e-06	703.81	276.58	4.8774e-06	2.3012e-06	255.59	99.055	113.45	58.685	1.0534e-06	52.296	0.00038511	0.00036395	0.00011763	744.07	4.1515e-06	4.0628e-06	761	279.74	4.2109e-06	4.0775e-06	275.77	101.31	107.6	52.156	4.7622e-06	49.04	468.650	526.569	493.241	186.337	317.989	528.248	182.752	192.055	273.444	247.313	187.215	191.530	196.268	201.516	213.784	195.613	-8191	255	
4175.133	1	1	0	0	0.089529	0.21269	0.2599	0.15879	0.069183	0.30649	0.11728	0.1088	0.064778	0.17443	0.019871	0.24789	0.14466	0.083437	0.11812	0.10754	-2.8875	-3.9562	-3.6229	-3.3792	-4.0208	-3.325	-3.7708	-3.8833	-3.125	-3.7792	-3.5438	-3.3458	-4.0625	-3.4958	-3.6437	-3.8854	463.651	524.344	218.566	342.372	250.135	430.408	197.980	240.271	292.762	328.623	368.499	492.935	193.258	507.824	222.204	381.583	0.0010785	0.00094812	5.3495e-05	690.52	6.3445e-06	3.7444e-06	705.99	278.2	8.4424e-07	3.6442e-06	255.7	100.22	113.95	58.467	1.491e-06	52.585	0.00037911	0.00038	0.00012173	739.01	4.0774e-06	4.2846e-06	767.66	277.44	4.0924e-06	4.2771e-06	276.64	100.47	106.71	52.649	4.7123e-06	48.911	510.885	497.733	483.281	186.457	317.948	250.717	183.080	191.977	514.019	231.854	187.617	191.423	196.391	201.493	249.892	195.346	-8191	255	
4175.252	1	1	0	0	0.17246	0.14568	0.073788	0.25006	0.43832	0.14942	0.07774	0.084251	0.045553	0.1495	0.14369	0.18166	0.19701	0.14604	0.036486	0.30125	-2.7562	-3.8042	-3.7	-3.2771	-4.1021	-3.5083	-3.4771	-3.9854	-3.2167	-3.7667	-3.7333	-3.3937	-3.9125	-3.4354	-3.4313	-3.9292	470.480	348.801	204.254	410.195	397.953	497.825	515.471	203.863	318.646	433.320	210.898	517.235	333.713	411.120	438.428	443.673	0.0013774	0.0006808	6.7509e-05	693.65	4.8385e-06	7.5711e-06	703.6	277.45	1.99e-06	3.5807e-06	257.55	99.201	113.35	58.126	3.4386e-06	52.393	0.00037072	0.00040321	0.00011842	731.77	3.9242e-06	4.4414e-06	757.53	273.37	3.8714e-06	4.359e-06	269.33	97.752	105.14	52.234	4.1721e-06	47.452	475.652	473.585	316.312	186.288	294.485	533.007	183.096	191.919	294.239	196.945	187.440	191.271	196.359	201.569	352.791	195.607	-8191	255	
4175.348	1	1	0	0	0.14484	0.1659	0.24977	0.19375	0.21122	0.15109	0.1857	0.28244	0.22345	0.25035	0.14917	0.037299	0.2104	0.11076	0.14883	0.19305	-2.825	-3.8563	-3.6646	-3.2229	-3.85	-3.6479	-3.6458	-4.1604	-3.4021	-3.7333	-3.6604	-3.3458	-3.8521	-3.5479	-3.5771	-4.1562	285.937	402.197	357.754	225.815	311.382	234.318	477.744	358.328	365.442	436.129	396.990	530.482	194.929	512.937	376.675	521.798	0.0012159	0.00047865	0.00020357	695.57	2.994e-06	2.4913e-06	709.44	278.36	2.3081e-06	1.1e-06	254.44	98.139	112.94	58.048	2.7468e-06	51.751	0.0003418	0.00038982	0.00010427	719.84	3.6919e-06	4.2879e-06	738.41	268.04	3.6792e-06	4.1711e-06	259.76	94.871	104.09	51.611	3.6987e-06	45.905	474.615	521.388	286.923	186.315	231.380	244.511	183.270	191.962	234.856	460.402	187.457	190.839	196.505	201.561	243.479	195.318	-8191	255	
4175.445	1	1	0	0	0.31023	0.12627	0.17243	0.075341	0.24483	0.12514	0.10412	0.12857	0.11859	0.14792	0.19961	0.13491	0.24643	0.068101	0.18823	0.16067	-2.8583	-3.7542	-3.8812	-3.3021	-3.8417	-3.6688	-3.4417	-4.1292	-3.2667	-3.6646	-3.9396	-3.2958	-3.8292	-3.7083	-3.4562	-4.0146	476.069	522.395	467.256	182.668	369.445	319.304	440.996	406.220	203.984	389.904	492.040	489.388	495.775	390.929	452.043	486.385	0.0017607	0.00029009	0.00018441	695.37	3.46e-06	3.4227e-06	706.1	276.7	5.5308e-06	4.7008e-06	253.5	98.443	113.13	57.638	1.5483e-06	51.573	0.00032878	0.00036242	9.1299e-05	704.16	3.5644e-06	3.9533e-06	718.97	262.5	3.6381e-06	3.8648e-06	251.79	93.033	104.13	50.62	3.3215e-06	44.835	478.745	281.599	331.493	186.326	196.609	323.036	183.288	191.979	221.864	366.305	187.711	191.336	196.280	202.039	272.425	195.723	-8191	255	
4175.516	1	1	0	0	0.014602	0.26018	0.12796	0.17452	0.11851	0.20373	0.041171	0.14928	0.15646	0.25842	0.058265	0.20394	0.15211	0.18569	0.13858	0.098841	-3.05	-3.4896	-3.8312	-3.2271	-3.6917	-3.7812	-3.3542	-4.125	-3.6	-3.4292	-3.8667	-3.3271	-3.9354	-3.9021	-3.3375	-4.0833	287.746	383.286	388.776	423.012	319.842	344.188	208.828	355.065	308.186	251.627	480.797	521.596	490.854	510.109	360.285	240.135	0.0014286	0.00030877	6.927e-05	689.77	6.1464e-06	9.5635e-06	703.04	275.26	4.209e-06	4.2182e-06	254.48	98.502	113.15	57.735	3.9699e-06	51.211	0.00031809	0.00031716	7.9138e-05	687.17	3.3506e-06	3.353e-06	697.62	256.57	3.4509e-06	3.3784e-06	245.58	92.036	103.83	49.93	3.1572e-06	44.961	464.627	315.391	298.549	186.337	199.821	347.910	183.174	191.894	232.133	364.151	187.581	191.091	196.593	201.873	294.737	195.380	-8191	255	
4175.637	1	1	0	0	0.20575	0.096862	0.20936	0.24716	0.19032	0.14754	0.12894	0.13598	0.21601	0.14819	0.14988	0.11093	0.085548	0.17442	0.25792	0.15943	-3.1708	-3.4146	-3.9167	-3.4958	-3.5542	-3.7771	-3.3187	-3.9271	-3.6021	-3.5021	-4.1062	-3.4583	-3.775	-3.8396	-3.2729	-3.9479	453.195	436.792	256.149	419.948	331.527	458.582	466.337	433.756	454.749	362.887	252.511	497.026	200.751	244.483	209.249	491.245	0.0012962	0.00049162	2.5418e-05	686.25	5.448e-07	4.3971e-06	698.95	275.72	2.6713e-06	3.7932e-06	253.77	98.684	112.44	57.133	3.4091e-06	51.159	0.00032932	0.00030536	7.7618e-05	689.58	3.5291e-06	3.2531e-06	695.84	259	3.5839e-06	3.2885e-06	244.22	92.982	104.06	49.497	3.1399e-06	45.438	471.163	263.581	458.767	186.213	367.705	279.595	183.481	191.724	289.191	360.387	187.979	191.217	196.371	201.893	205.734	195.363	-8191	255	
4175.733	1	1	0	0	0.12498	0.090604	0.17512	0.18392	0.12417	0.15354	0.18907	0.08403	0.068554	0.18319	0.13402	0.16037	0.16309	0.19659	0.10414	0.1608	-3.2375	-3.3146	-3.8479	-3.25	-3.6625	-3.7583	-3.2917	-4.0083	-3.7583	-3.3625	-3.9437	-3.3896	-3.6312	-3.9854	-3.1521	-3.6708	464.066	258.392	420.130	447.177	319.031	332.664	524.530	452.907	455.851	473.202	480.224	448.781	191.472	469.374	247.289	464.039	0.0010465	0.00012401	5.8324e-06	690.72	3.6993e-06	7.4404e-06	701.41	276.9	2.3874e-06	6.0017e-06	254.59	97.454	112.58	57.178	2.639e-06	51.034	0.00034254	0.00030888	8.0461e-05	705.5	3.7288e-06	3.3542e-06	700.55	263.87	3.6265e-06	3.2773e-06	243.77	94.035	103.59	49.332	3.0858e-06	45.691	491.027	188.781	314.502	186.017	291.270	395.599	183.107	191.702	288.944	392.840	187.350	190.907	196.419	201.846	236.296	195.240	-8191	255	
4175.829	1	1	0	0	0.21142	0.10378	0.060367	0.133	0.12642	0.19245	0.25901	0.086119	0.15117	0.045161	0.083053	0.30583	0.22362	0.12866	0.030397	0.22348	-3.4271	-3.1708	-3.7896	-3.6292	-3.4104	-3.8542	-3.4875	-3.8375	-3.6667	-3.1792	-3.9688	-3.6042	-3.4229	-4.0958	-3.1771	-3.7583	206.728	263.542	273.047	273.336	305.562	470.531	185.498	383.330	337.008	185.614	335.457	224.064	414.216	476.881	300.194	440.392	0.00094109	0.00053684	4.4635e-05	691.79	3.5804e-06	8.555e-06	706.03	276.82	3.0711e-06	4.7881e-06	256.53	98.164	112.27	56.876	3.1874e-06	50.946	0.00032358	0.00029483	7.7938e-05	708.98	3.495e-06	3.1788e-06	698.94	265.08	3.3872e-06	3.109e-06	243.99	94.57	102.11	48.754	3.0612e-06	45.646	499.025	282.524	487.109	186.223	361.205	364.947	183.134	191.824	330.872	347.170	187.202	191.375	196.410	201.951	240.970	195.131	-8191	255	
4175.925	1	1	0	0	0.20022	0.2674	0.13938	0.16595	0.014087	0.24916	0.074362	0.04473	0.22622	0.091566	0.16521	0.22722	0.1883	0.091974	0.20809	0.06485	-3.2917	-3.2438	-3.9042	-3.6333	-3.3958	-3.8583	-3.3563	-3.5521	-3.7792	-3.2792	-4.0146	-3.6667	-3.4062	-4.1271	-3.4354	-3.7604	194.445	420.845	308.452	405.068	295.378	455.601	461.580	491.887	357.177	257.366	521.189	215.401	195.977	522.907	232.928	520.718	0.00092777	0.0001424	5.7653e-05	686.15	3.3645e-07	3.0112e-06	703.24	277.71	3.5753e-06	2.4825e-07	257.15	99.124	112.85	57.109	4.4566e-06	51.405	0.00029443	0.00027183	7.6895e-05	701.81	3.1022e-06	2.861e-06	696.43	263.13	3.0387e-06	2.8297e-06	244.72	93.642	101.14	48.559	3.083e-06	45.463	495.682	318.305	221.559	186.414	498.361	411.109	183.061	192.116	340.204	467.422	187.379	191.479	196.897	201.959	243.210	195.434	-8191	255	
4176.044	1	1	0	0	0.24719	0.2105	0.12574	0.18706	0.073582	0.087257	0.14708	0.13004	0.20524	0.18692	0.18802	0.078932	0.12145	0.20825	0.025073	0.23744	-3.6417	-3.1729	-3.7896	-3.7604	-3.3688	-3.8979	-3.425	-3.5062	-3.8667	-3.1437	-3.7542	-3.8333	-3.225	-3.8146	-3.1937	-3.3417	192.126	415.474	389.288	472.361	403.424	522.703	452.540	320.672	432.282	398.090	485.050	335.362	468.689	518.266	421.794	461.261	0.00093125	0.00021544	0.00011886	687.46	4.6595e-06	9.5187e-07	705.59	278.34	3.6417e-06	3.2039e-06	257.46	99.479	112.89	57.296	1.9861e-06	51.655	0.00027161	0.00025404	7.83e-05	694.56	2.9377e-06	2.723e-06	702.36	260.88	2.885e-06	2.7567e-06	247.84	92.78	100.47	48.611	3.1782e-06	45.087	504.600	187.184	176.075	186.307	351.307	237.342	182.896	192.201	274.014	233.200	187.512	191.454	196.572	201.744	208.148	195.643	-8191	255	
4176.140	1	1	0	0	0.10922	0.1266	0.037328	0.032431	0.3164	0.073193	0.10482	0.18027	0.024491	0.12488	0.092311	0.13377	0.22201	0.2388	0.27723	0.16175	-3.4708	-3.275	-3.6312	-3.8167	-3.1229	-3.9667	-3.5563	-3.4208	-3.8792	-3.4083	-3.8458	-3.7292	-3.2812	-3.9479	-3.5833	-3.2896	295.615	509.428	502.224	503.424	378.089	490.245	491.753	418.632	295.975	435.375	316.312	482.697	527.500	503.611	311.145	363.226	0.0010981	0.00013105	0.0001491	695.29	4.5292e-06	5.0123e-06	704.89	277.18	3.0575e-06	3.7379e-06	256.79	99.345	113.47	57.61	4.362e-06	51.396	0.00026374	0.00025792	8.3194e-05	695.45	2.9372e-06	2.917e-06	713.67	261.68	2.9673e-06	3.0211e-06	252.6	92.987	101.3	49.415	3.4828e-06	45.336	479.112	492.850	509.580	186.352	383.312	218.941	182.946	192.199	338.633	256.701	187.540	191.544	196.705	201.991	241.402	195.207	-8191	255	
4176.214	1	1	0	0	0.15687	0.061666	0.3841	0.25695	0.089964	0.18683	0.15873	0.10656	0.16721	0.13616	0.15491	0.22593	0.15106	0.13812	0.12469	0.20798	-3.65	-3.2875	-3.6167	-3.8771	-3.2812	-3.8063	-3.6188	-3.3854	-3.8438	-3.3167	-3.4938	-3.8042	-3.1896	-3.7854	-3.6188	-3.1937	496.157	398.099	265.521	491.528	302.347	453.630	383.010	449.554	230.795	300.043	185.069	434.619	429.366	474.012	203.569	473.632	0.0010369	0.00019111	7.2169e-05	695.86	1.0544e-06	2.7002e-06	708.5	277.97	3.1478e-06	2.7241e-06	257.69	100	113.86	58.056	4.0557e-06	52.018	0.00027283	0.00028951	8.9273e-05	698.69	3.0108e-06	3.2284e-06	719.31	261.42	2.9275e-06	3.2507e-06	253.68	92.861	101.33	50.051	3.3583e-06	45.32	491.510	515.177	180.517	186.435	325.324	218.379	183.421	192.126	404.641	219.537	187.734	191.480	196.525	201.648	375.553	195.659	-8191	255	
4176.333	1	1	0	0	0.034175	0.31271	0.18701	0.16624	0.10617	0.23263	0.17334	0.17411	0.15727	0.087917	0.16478	0.19552	0.19907	0.18009	0.17745	0.29321	-3.6188	-3.4042	-3.5875	-3.7812	-3.3146	-3.6375	-3.7521	-3.2708	-3.7854	-3.4104	-3.6333	-3.8792	-3.3146	-3.775	-3.6042	-3.1542	499.837	434.669	382.269	206.973	373.094	442.415	468.012	458.288	478.519	444.464	453.280	446.504	186.557	459.646	326.777	447.923	0.001035	0.00052883	0.00019213	694.07	3.9627e-06	6.5746e-06	707.69	278.54	1.6475e-06	3.7511e-06	257.8	100.24	113.74	58.006	3.4561e-06	52.462	0.00026372	0.00030256	8.5165e-05	693.64	2.928e-06	3.339e-06	712.43	260.26	2.8958e-06	3.367e-06	250.21	92.39	101.31	50.248	3.0755e-06	45.069	489.396	513.699	262.183	186.353	264.464	191.392	183.195	191.798	191.787	174.196	188.035	191.381	196.740	201.952	349.364	195.428	-8191	255	
4176.429	1	1	0	0	0.089704	0.29327	0.2269	0.11502	0.078112	0.080827	0.24329	0.29234	0.20356	0.13398	0.055292	0.21145	0.03954	0.07062	0.10869	0.14004	-3.5854	-3.3771	-3.2438	-3.9354	-3.2208	-3.5812	-3.7917	-3.1354	-3.8646	-3.5792	-3.325	-3.9917	-3.4813	-3.7021	-3.8229	-3.1875	529.402	368.816	339.745	488.537	384.587	465.561	494.625	459.889	300.424	199.872	450.713	234.275	200.342	185.412	498.785	176.532	0.0015425	0.00034352	7.8627e-05	692.62	4.9944e-06	2.3679e-06	711.57	279.47	7.6461e-06	5.0814e-06	258.81	101.14	114.39	58.492	2.0844e-06	52.54	0.00025771	0.00029743	7.6941e-05	684.94	2.8914e-06	3.3077e-06	704.41	258.6	3.0256e-06	3.4645e-06	250.21	92.972	103.27	50.911	3.1858e-06	45.551	492.247	177.228	259.508	186.461	286.937	446.513	183.057	192.050	183.997	416.417	187.579	191.501	196.151	201.761	311.491	195.397	-8191	255	
4176.525	1	1	0	0	0.13608	0.092189	0.13989	0.21657	0.23923	0.18021	0.20437	0.16213	0.12449	0.03215	0.15526	0.063066	0.12326	0.13153	0.044697	0.052912	-3.4437	-3.3083	-3.2188	-3.9104	-3.3958	-3.5625	-3.7479	-3.4208	-3.8604	-3.6271	-3.3083	-4.0292	-3.4604	-3.7562	-3.9083	-3.325	331.277	228.005	455.390	433.253	223.285	282.945	188.380	356.490	270.577	450.428	497.811	318.248	522.426	465.614	443.013	504.240	0.0014616	0.00026272	0.00011887	694.39	6.7983e-06	2.6279e-06	710.06	279.47	4.1322e-06	3.7078e-06	257.81	100.85	114.6	58.432	1.614e-06	52.742	0.00029953	0.00032172	8.1085e-05	690.4	3.2896e-06	3.4405e-06	704.42	258.72	3.2541e-06	3.3646e-06	247.15	92.324	104.05	50.685	3.1023e-06	45.488	474.907	468.392	248.627	186.450	237.254	243.159	183.096	192.042	249.504	362.447	187.661	191.234	196.263	201.738	381.750	195.391	-8191	255	
4176.646	1	1	0	0	0.085861	0.36789	0.14899	0.1088	0.31199	0.15403	0.011565	0.13361	0.14721	0.24647	0.2705	0.035653	0.089448	0.11684	0.14793	0.15671	-3.3375	-3.5687	-3.0687	-4.0333	-3.4333	-3.3708	-3.9	-3.3667	-3.6104	-3.7188	-3.275	-3.9271	-3.5604	-3.4583	-3.9167	-3.4979	391.536	368.176	460.703	320.337	332.934	290.142	445.597	462.049	339.804	228.654	502.557	321.165	179.053	524.490	286.670	202.001	0.0013577	0.00037181	0.00011041	694.59	1.9629e-06	5.836e-06	711.83	279.53	4.0766e-06	4.419e-06	258.6	100.99	115.14	58.906	2.0019e-06	52.932	0.00031741	0.00031261	8.0327e-05	694.04	3.5743e-06	3.4415e-06	710.17	261.96	3.5768e-06	3.3937e-06	249.26	93.787	105.6	50.858	3.0464e-06	46.217	473.272	304.200	304.156	186.414	200.219	374.407	182.919	192.084	185.869	377.392	187.666	190.559	196.624	201.859	433.887	195.282	-8191	255	
4176.742	1	1	0	0	0.12547	0.14415	0.077207	0.17029	0.18715	0.018995	0.29913	0.093565	0.25071	0.072174	0.12431	0.35218	0.04171	0.11764	0.076993	0.49211	-3.3354	-3.7875	-3.375	-3.9979	-3.5479	-3.3667	-3.9938	-3.475	-3.6792	-3.8042	-3.3333	-3.9062	-3.6562	-3.3375	-3.8271	-3.4313	305.354	426.773	188.688	227.209	197.504	272.475	450.686	523.461	530.418	448.856	262.821	482.275	508.543	420.228	277.430	444.839	0.00097729	0.00057842	7.7175e-05	696.58	4.0579e-06	1.9623e-06	712	281.05	3.6963e-06	4.5673e-06	260.51	102.17	115.25	59.126	3.5668e-06	53.945	0.00032863	0.00029893	7.765e-05	699.8	3.5913e-06	3.2694e-06	703.82	264.2	3.6045e-06	3.2767e-06	248.78	96.117	106.17	51.135	3.0952e-06	47.579	459.018	293.988	329.695	186.180	516.011	322.033	183.219	191.827	394.443	448.480	187.839	190.827	196.293	201.709	323.728	195.230	-8191	255	
4176.813	1	1	0	0	0.23944	0.12431	0.18852	0.32016	0.1276	0.24629	0.18221	0.09732	0.1289	0.12076	0.044011	0.15258	0.13065	0.17347	0.17083	0.050717	-3.2083	-3.6958	-3.2833	-3.7042	-3.6125	-3.2333	-3.9479	-3.4417	-3.4875	-3.9437	-3.4292	-3.8229	-3.6708	-3.475	-3.7917	-3.5187	294.423	224.756	226.569	480.453	346.272	185.555	503.426	227.413	429.729	457.710	194.846	493.616	449.327	216.532	316.835	361.084	0.0013036	0.0005068	6.9865e-05	699.63	5.5268e-06	2.1081e-06	717.26	281.77	7.2971e-06	1.4991e-06	261.11	102.43	115.07	59.222	3.9867e-06	53.612	0.00033388	0.00030002	7.925e-05	712.41	3.6034e-06	3.2794e-06	710.35	269.17	3.546e-06	3.2312e-06	250.77	97.875	105.93	51.15	3.1226e-06	48.027	479.712	292.402	236.095	186.256	331.611	427.749	183.387	191.677	313.669	444.378	187.486	190.939	196.362	201.832	273.648	195.339	-8191	255	
4176.934	1	1	0	0	0.26924	0.12525	0.37486	0.1768	0.077254	0.071918	0.08233	0.21207	0.14267	0.32734	0.10256	0.20686	0.13332	0.32606	0.33096	0.13616	-3.0229	-3.8771	-3.1625	-3.7771	-3.4875	-3.2458	-3.8333	-3.5333	-3.3563	-3.8375	-3.3688	-3.5271	-3.9292	-3.4229	-3.9542	-3.5875	456.814	337.366	413.865	205.817	462.551	256.001	240.381	473.245	382.504	233.043	443.610	292.748	338.713	524.407	227.747	462.545	0.00073269	0.00037107	0.00011415	696.86	8.7227e-07	5.9776e-06	710.91	281.21	1.334e-06	7.7339e-07	259.34	101.39	115.08	59.186	5.8207e-06	53.427	0.00031845	0.00028976	7.958e-05	714.23	3.3651e-06	3.1275e-06	708.58	269.57	3.3668e-06	3.0933e-06	250.8	97.533	104.41	50.642	3.1917e-06	47.554	486.498	305.659	491.130	185.960	481.072	339.824	182.894	191.696	286.585	396.155	187.335	191.488	196.541	201.707	193.603	195.427	-8191	255	
4177.030	1	1	0	0	0.087424	0.15496	0.29936	0.10564	0.13445	0.14224	0.23363	0.31399	0.18035	0.04599	0.26523	0.13839	0.082257	0.23726	0.048386	0.20719	-3.0583	-3.8896	-3.2896	-3.7208	-3.7417	-3.0875	-3.7875	-3.6937	-3.325	-3.9146	-3.3396	-3.6875	-3.8125	-3.4062	-3.6854	-3.6771	372.712	451.213	304.826	495.243	274.794	391.028	518.247	479.695	409.254	463.613	448.144	357.980	515.180	203.569	196.715	500.023	0.00083092	0.00070449	0.00022498	694.78	5.0635e-06	1.1678e-06	712.72	281.1	1.7222e-06	1.8547e-06	259.37	102.25	115.58	58.933	5.1357e-06	53.449	0.0002978	0.00027128	8.0578e-05	708.58	3.0754e-06	2.8472e-06	705.45	264.71	2.9636e-06	2.7299e-06	247.92	95.014	102.32	49.862	3.0524e-06	46.555	480.356	261.159	518.830	186.389	336.672	261.570	182.869	192.256	321.805	282.825	187.457	191.099	196.373	201.916	205.975	195.697	-8191	255	
4177.126	1	1	0	0	0.20333	0.21173	0.0027166	0.13613	0.084277	0.17646	0.10051	0.13616	0.08942	0.11316	0.22131	0.12865	0.1173	0.23342	0.12043	0.10693	-2.8937	-3.8479	-3.4396	-3.5354	-4.0125	-3.2458	-3.8896	-3.7062	-3.3604	-4.0813	-3.5958	-3.6167	-3.9667	-3.3458	-3.8854	-3.775	339.652	388.554	232.222	433.557	515.097	385.109	462.289	518.239	498.771	487.702	188.177	428.960	328.696	195.667	403.050	495.225	0.00090408	0.00034192	9.2378e-05	699.19	1.9315e-06	3.5719e-06	715.54	280.71	1.845e-06	3.9796e-06	262.01	102.11	115.18	58.857	1.5979e-06	53.709	0.00026679	0.00024888	8.0563e-05	698.57	2.8783e-06	2.7693e-06	710.68	262.43	2.862e-06	2.7574e-06	251.8	94.413	101.85	49.984	3.2022e-06	46.266	468.366	288.793	490.711	186.433	469.955	243.033	182.969	191.929	385.256	223.867	187.532	191.500	196.758	201.713	238.814	195.575	-8191	255	
4177.221	1	1	0	0	0.053763	0.10246	0.036578	0.085553	0.11288	0.040925	0.14692	0.079606	0.2655	0.23858	0.16337	0.12365	0.18251	0.3713	0.15155	0.21291	-2.7604	-3.8354	-3.5438	-3.3583	-4.075	-3.3729	-3.6667	-3.7875	-3.1604	-3.8729	-3.7	-3.4542	-3.9375	-3.4167	-3.7812	-3.8896	452.304	314.964	178.896	271.722	263.050	495.786	357.368	523.983	287.152	361.978	337.490	465.379	201.559	180.633	253.034	460.345	0.00090189	0.00043065	0.00014919	697.02	2.1062e-06	4.258e-06	718.08	281.47	8.781e-07	1.5532e-06	262.01	102.31	115.13	59.056	3.4225e-06	53.643	0.00025886	0.00025675	8.3001e-05	695.72	2.8111e-06	2.9242e-06	716.77	260.95	2.7989e-06	2.8873e-06	252.72	93.722	101.18	50.198	3.1491e-06	45.912	487.142	184.962	244.117	186.409	286.140	282.225	182.799	192.105	338.445	256.049	187.505	191.306	196.371	201.548	350.935	195.563	-8191	255	
4177.341	1	1	0	0	0.047823	0.19885	0.16241	0.095373	0.065404	0.042529	0.17618	0.20179	0.13174	0.22286	0.1348	0.13342	0.31314	0.062323	0.26514	0.25589	-2.7812	-3.8333	-3.6375	-3.4146	-3.8917	-3.3667	-3.6354	-3.8146	-3.3042	-3.8292	-3.6333	-3.2562	-3.9667	-3.4375	-3.3542	-3.8083	393.803	256.107	488.776	381.853	414.857	336.415	427.998	414.965	370.048	237.349	220.648	488.354	465.257	197.237	399.427	418.078	0.0012304	0.00061181	4.8971e-05	698.83	2.6962e-06	2.5999e-06	715.86	280.68	1.8782e-06	1.0281e-06	259.7	101.15	115.39	59.024	4.2629e-06	52.997	0.00024795	0.00026461	7.9179e-05	688.29	2.6184e-06	2.9419e-06	706.46	257.52	2.612e-06	2.9355e-06	248.07	92.151	100.56	50.19	2.9592e-06	45.108	485.338	500.195	234.295	186.062	253.972	216.186	182.958	192.012	275.596	286.224	187.577	191.145	196.328	201.602	389.620	195.554	-8191	255	
4177.437	1	1	0	0	0.059202	0.17131	0.067566	0.29612	0.18908	0.15486	0.32215	0.1012	0.14293	0.22114	0.11972	0.03671	0.17264	0.20075	0.13061	0.24508	-2.9875	-3.6125	-3.4104	-3.3792	-3.9771	-3.5146	-3.5187	-3.9083	-3.3042	-3.6875	-3.7354	-3.2375	-4.0667	-3.6458	-3.45	-3.9958	288.588	375.525	381.210	481.160	304.369	525.106	341.032	193.154	212.761	227.862	463.149	213.891	354.845	509.513	189.088	478.031	0.0013244	0.0002722	0.00015933	697.89	2.9339e-06	9.3808e-07	716.68	280.97	3.8995e-06	4.1469e-06	260.52	101.63	115.14	58.801	4.7036e-06	53.485	0.00024087	0.00027498	7.3971e-05	684.19	2.6092e-06	3.0397e-06	702.65	256.38	2.6494e-06	3.0415e-06	245.65	91.923	101.06	50.446	2.8472e-06	45.086	469.603	245.035	285.049	186.476	258.505	196.257	183.427	192.031	187.301	514.469	187.505	191.258	196.297	201.673	303.502	195.422	-8191	255	
4177.509	1	1	0	0	0.064627	0.14385	0.11298	0.29527	0.093149	0.13586	0.041211	0.16208	0.10945	0.061348	0.16543	0.1267	0.14767	0.38721	0.11503	0.1229	-2.9437	-3.4938	-3.8021	-3.4	-4.0521	-3.5229	-3.4604	-4.0479	-3.2313	-3.6417	-3.7604	-3.4646	-3.9813	-3.7958	-3.2396	-4.15	226.787	462.465	200.986	533.082	181.219	381.445	393.181	200.641	385.416	379.753	407.304	192.933	362.586	471.780	446.102	323.492	0.0015549	0.00025785	7.5956e-05	696.16	4.2967e-06	9.4474e-07	718.25	281.31	5.0526e-06	4.9571e-06	262.36	102.63	115.47	59.01	7.6982e-07	53.712	0.00024862	0.00027838	7.0587e-05	681.72	2.7255e-06	3.035e-06	697.69	255.44	2.7741e-06	2.9736e-06	243.64	91.607	101.86	50.311	2.6705e-06	44.942	483.660	255.865	363.237	186.427	220.091	427.451	183.129	192.043	206.994	377.808	187.557	191.247	196.424	201.986	197.470	195.453	-8191	255	
4177.605	1	1	0	0	0.063863	0.14709	0.2903	0.097669	0.098316	0.10567	0.33556	0.23053	0.14895	0.32985	0.18061	0.20988	0.18221	0.26515	0.1955	0.28845	-3.0938	-3.4813	-3.9104	-3.3063	-3.825	-3.75	-3.3583	-3.8937	-3.5438	-3.5146	-3.9792	-3.3333	-3.8167	-3.9292	-3.3521	-3.9625	209.658	308.481	422.774	293.615	314.384	254.175	449.390	276.484	262.050	309.780	406.195	174.976	233.394	473.923	483.771	508.935	0.0012918	0.00057591	1.0574e-05	696.38	4.0438e-06	6.614e-06	719.96	280.02	2.0112e-06	1.3847e-06	263.19	102.63	115.03	58.675	2.1515e-06	53.317	0.0002587	0.00026311	6.6055e-05	675.37	2.7556e-06	2.7817e-06	688.86	252.06	2.7277e-06	2.6533e-06	238.58	90.183	101.15	49.426	2.3783e-06	44.416	465.278	292.198	503.721	186.432	229.190	318.679	183.068	192.029	202.056	306.716	187.406	191.146	196.629	201.847	256.328	195.478	-8191	255	
4177.726	1	1	0	0	0.063732	0.057131	0.080171	0.17136	0.20395	0.10533	0.14019	0.10323	0.27157	0.11561	0.12384	0.034636	0.25008	0.18188	0.23719	0.072022	-3.1854	-3.4562	-3.9021	-3.425	-3.7604	-3.8104	-3.1667	-4.0083	-3.5563	-3.4542	-4.0375	-3.3896	-3.6625	-4.0271	-3.3521	-4.0938	496.445	433.900	199.982	370.866	404.942	276.128	383.653	354.507	521.046	311.095	414.550	483.515	522.480	501.840	307.647	238.068	0.0011267	0.00039295	1.6362e-05	697.02	2.2882e-06	4.2222e-06	714.65	282.04	2.7965e-06	1.3348e-06	260.49	101.73	114.62	58.525	4.5564e-06	52.676	0.00024982	0.00023536	6.0236e-05	672.62	2.7558e-06	2.5848e-06	682.64	253.39	2.8367e-06	2.6141e-06	237.34	90.958	101.63	49.171	2.4336e-06	44.532	481.748	347.445	206.574	186.072	229.668	394.856	183.381	191.899	312.081	230.656	187.582	191.014	196.526	201.839	307.661	195.185	-8191	255	
4177.822	1	1	0	0	0.2173	0.14075	0.026111	0.12441	0.12871	0.096777	0.15729	0.16909	0.045148	0.28602	0.15567	0.49983	0.17514	0.16773	0.17915	0.16828	-3.2083	-3.35	-3.9542	-3.5333	-3.475	-3.9375	-3.2875	-3.8854	-3.6917	-3.2729	-3.9375	-3.5417	-3.5979	-3.9083	-3.2875	-3.8104	504.442	452.848	468.353	447.176	245.531	516.360	491.175	443.839	346.668	282.912	438.825	525.422	375.515	505.802	510.782	455.997	0.0011723	0.0001361	0.00017401	696.12	1.9904e-06	2.3867e-06	713.3	282	1.2862e-06	3.4324e-06	260.87	101.36	114.61	58.385	2.6513e-06	52.933	0.00026108	0.00023383	6.0254e-05	678.76	2.7701e-06	2.4995e-06	679.27	254.8	2.7615e-06	2.4925e-06	235.58	91.588	101.21	49.012	2.4108e-06	45.041	476.260	522.177	253.224	186.263	338.702	203.630	183.217	191.888	460.215	364.734	187.719	191.347	196.570	201.976	268.794	195.254	-8191	255	
4177.918	1	1	0	0	0.2135	0.10449	0.27649	0.055862	0.28669	0.17694	0.13245	0.18263	0.09991	0.12124	0.11886	0.046696	0.10156	0.041476	0.21709	0.19427	-3.4313	-3.2	-3.8521	-3.6188	-3.4083	-4	-3.4417	-3.7812	-3.7625	-3.3208	-4	-3.5104	-3.4417	-3.9688	-3.2771	-3.7417	308.469	329.969	226.802	341.612	313.474	305.298	433.103	252.031	196.301	220.275	464.999	404.779	283.906	444.703	428.317	464.590	0.0010394	0.00041658	0.00017644	700.52	1.967e-06	4.3473e-06	717.71	281.51	3.6293e-06	2.6891e-06	260.26	101.71	114.28	58.681	2.3335e-06	53.477	0.00025582	0.00023162	6.0595e-05	687.69	2.7248e-06	2.4792e-06	683.6	257.8	2.6632e-06	2.4609e-06	237.38	92.69	100.7	49.026	2.4811e-06	45.698	480.473	307.253	200.541	186.169	352.394	281.400	183.198	191.917	355.608	416.107	187.724	191.487	196.549	201.863	235.970	195.545	-8191	255	
4178.014	1	1	0	0	0.20647	0.051501	0.13216	0.17918	0.1675	0.21032	0.13844	0.22424	0.18786	0.25368	0.32558	0.28591	0.1078	0.14089	0.22757	0.15294	-3.6646	-3.3521	-3.8958	-3.5792	-3.425	-3.9917	-3.2104	-3.55	-3.6979	-3.3604	-3.8729	-3.6312	-3.2771	-3.9792	-3.3604	-3.6333	245.944	360.145	366.546	516.731	332.325	289.495	207.269	503.340	416.432	518.495	514.508	473.540	411.916	294.626	405.373	413.788	0.00093692	0.00039403	8.1155e-05	695.39	4.5763e-06	4.832e-06	715.23	281.24	1.9076e-06	4.9995e-06	261.92	101.82	114.66	58.766	1.5308e-06	53.058	0.00024861	0.00022945	6.4724e-05	692.06	2.7082e-06	2.505e-06	692.63	260.11	2.6796e-06	2.4988e-06	242.32	93.537	100.68	48.946	2.683e-06	45.658	485.959	245.324	193.610	186.141	399.188	326.706	182.999	192.062	344.867	294.126	187.572	191.107	196.434	201.931	191.732	195.587	-8191	255	
4178.111	1	1	0	0	0.18707	0.015329	0.15673	0.059568	0.10602	0.097506	0.26743	0.13837	0.15212	0.14822	0.10616	0.1655	0.079453	0.11051	0.07537	0.18898	-3.6396	-3.2354	-3.7896	-3.6188	-3.3187	-3.8458	-3.3271	-3.4833	-3.7229	-3.1562	-3.9	-3.7062	-3.2271	-4.1	-3.4625	-3.725	200.829	300.425	408.589	424.446	339.772	340.003	515.401	467.712	208.946	328.840	509.588	483.051	215.719	207.311	183.437	357.005	0.0010734	0.00015781	0.00013677	694.25	3.8188e-06	4.0588e-06	716.97	278.46	7.6402e-07	1.7001e-06	261.29	102.01	114.39	58.332	2.2655e-06	52.856	0.00024301	0.00022542	6.9272e-05	688.99	2.63e-06	2.451e-06	698.7	258.79	2.6341e-06	2.5144e-06	246.03	93.26	100.6	48.983	2.9797e-06	45.507	502.389	222.660	517.363	186.419	246.883	342.977	183.031	192.017	372.078	194.183	187.400	191.391	196.171	201.775	227.995	195.457	-8191	255	
4178.207	1	1	0	0	0.19671	0.27901	0.14883	0.20791	0.2488	0.089376	0.21027	0.29396	0.025366	0.21778	0.068009	0.061906	0.36632	0.1783	0.07648	0.18991	-3.5167	-3.1979	-3.7938	-4.05	-3.2313	-3.7708	-3.675	-3.5542	-3.9042	-3.3417	-3.6958	-3.6937	-3.2646	-3.9458	-3.5021	-3.3937	465.514	325.787	391.737	531.898	265.205	306.814	462.958	434.108	406.388	292.527	198.003	247.683	533.615	253.584	206.931	470.410	0.00099874	0.00015436	0.00012881	695.75	3.7483e-06	5.1451e-06	715.06	278.8	2.6929e-06	1.0165e-06	260.49	101.11	113.77	58.023	2.9918e-06	53.231	0.00024899	0.00024031	7.6502e-05	690.86	2.6811e-06	2.6149e-06	708.12	258.4	2.6227e-06	2.6303e-06	247.43	92.038	99.725	49.008	2.9853e-06	45.092	469.337	240.482	526.223	186.495	415.943	252.365	183.246	192.102	305.061	431.397	187.686	191.076	196.465	201.870	226.359	195.626	-8191	255	
4178.326	1	1	0	0	0.076965	0.11122	0.043677	0.1678	0.13975	0.17934	0.11815	0.2011	0.1777	0.24088	0.18817	0.054573	0.15313	0.062106	0.098171	0.051069	-3.5542	-3.3646	-3.5062	-3.8521	-3.1521	-3.9188	-3.5542	-3.5771	-3.8958	-3.3854	-3.6417	-3.9188	-3.3854	-3.7979	-3.6104	-3.2646	532.573	209.539	508.359	422.282	364.059	487.927	523.679	499.592	367.231	350.913	526.950	391.890	460.155	338.205	330.646	365.201	0.0012917	0.00019696	2.8885e-05	698.88	3.1183e-06	2.4936e-06	716.83	281.79	2.0111e-06	1.1555e-06	261.81	101.72	114.88	58.321	4.4554e-06	53.251	0.0002348	0.00024285	7.6173e-05	685.56	2.5596e-06	2.7076e-06	708.17	257.48	2.5419e-06	2.8031e-06	248.51	92.238	100.21	49.683	3.0133e-06	45.466	472.957	265.527	522.426	186.234	273.655	248.260	182.869	191.941	312.960	212.261	187.672	191.038	196.496	201.653	350.568	195.628	-8191	255	
4178.422	1	1	0	0	0.096851	0.18421	0.26143	0.097878	0.13734	0.17389	0.2105	0.43844	0.055207	0.070637	0.16558	0.11048	0.14294	0.26452	0.017909	0.37869	-3.7021	-3.4167	-3.4667	-4.0917	-3.2604	-3.8521	-3.7438	-3.3354	-3.925	-3.5208	-3.3875	-3.9688	-3.3125	-3.8229	-3.7792	-3.3688	282.064	288.778	428.335	218.788	260.927	455.420	312.796	468.215	221.705	226.054	500.070	374.238	181.783	519.103	307.567	454.195	0.0010197	0.00047877	0.00016607	699.87	2.3208e-06	6.3306e-06	718.65	281.39	2.126e-06	3.8283e-06	262.65	102.32	115.31	58.873	2.5433e-06	53.511	0.00023929	0.00027084	7.7174e-05	686.92	2.646e-06	3.0158e-06	710.74	258.71	2.6763e-06	3.1183e-06	251.3	93.309	101.31	50.509	3.0274e-06	45.794	478.479	527.631	363.626	186.335	269.071	208.135	183.214	192.110	217.742	193.056	187.702	191.183	196.424	201.755	400.064	195.346	-8191	255	
4178.518	1	1	0	0	0.012079	0.17223	0.056867	0.16161	0.11884	0.1697	0.28569	0.20551	0.038618	0.044744	0.1769	0.28813	0.18283	0.17995	0.071843	0.15734	-3.6063	-3.5417	-3.5312	-3.9396	-3.2313	-3.6771	-3.9271	-3.3479	-3.8667	-3.5708	-3.4458	-3.9583	-3.4042	-3.8542	-3.8667	-3.2375	510.550	231.854	180.199	233.154	499.168	229.826	510.570	475.593	237.081	319.529	242.338	463.164	450.938	444.195	225.117	384.498	0.0013692	0.00014505	0.00016521	698.51	1.7989e-06	2.7313e-06	719.76	281.82	4.4973e-06	5.3471e-06	262.16	102.15	114.76	59.048	2.1125e-06	53.615	0.00025203	0.00029258	7.6567e-05	687.23	2.7837e-06	3.191e-06	705.98	258.47	2.8107e-06	3.2118e-06	247.82	92.4	101.64	50.518	2.8246e-06	45.394	465.225	201.068	345.076	186.189	224.673	524.481	183.344	191.960	231.850	337.958	187.453	191.399	196.263	201.689	315.008	195.472	-8191	255	
4178.614	1	1	0	0	0.13431	0.08412	0.10063	0.12841	0.33331	0.11427	0.075944	0.25064	0.11121	0.22336	0.068265	0.095701	0.156	0.1523	0.25981	0.055622	-3.5563	-3.5354	-3.2188	-4.1417	-3.5167	-3.7354	-3.9062	-3.3812	-3.9833	-3.725	-3.3563	-3.8771	-3.5458	-3.8396	-3.8646	-3.3833	518.077	462.575	206.669	499.615	469.056	277.916	217.029	478.608	351.876	527.731	204.401	181.702	449.299	486.752	463.654	513.071	0.0010583	0.0002619	0.00011143	698.76	4.141e-06	3.165e-06	719.45	280.62	2.8907e-06	3.2614e-06	264.05	102.91	115.42	59.148	8.816e-07	53.878	0.00026035	0.00028352	7.1703e-05	682.75	2.8927e-06	3.1019e-06	701.36	257.27	2.9599e-06	3.1373e-06	247.27	92.592	103.36	50.835	2.8895e-06	45.999	475.023	337.968	204.932	186.160	256.616	318.564	183.106	191.819	195.373	378.773	187.950	190.841	196.343	201.639	486.390	195.319	-8191	255	
4178.710	1	1	0	0	0.28117	0.089913	0.20114	0.086806	0.34979	0.3024	0.18708	0.13333	0.083766	0.16128	0.20638	0.022683	0.042389	0.15643	0.26778	0.26685	-3.1958	-3.5542	-3.3563	-3.9625	-3.3771	-3.4833	-3.8438	-3.425	-3.7396	-3.5875	-3.2083	-3.9562	-3.6396	-3.4	-3.8979	-3.6396	189.763	303.191	180.928	449.983	324.439	532.783	364.926	196.910	482.661	383.377	388.542	517.658	176.991	436.675	394.885	450.641	0.0015774	0.00031546	8.2292e-05	698.67	1.5037e-06	4.4479e-06	722.66	281.78	6.2185e-06	5.7166e-06	263.86	102.88	115.5	59.445	2.4641e-06	54.843	0.00029384	0.00029365	7.5326e-05	689.97	3.2801e-06	3.1897e-06	706.91	260.51	3.2964e-06	3.1544e-06	249.12	94.072	105.1	51.081	2.9352e-06	47.059	475.082	265.873	358.641	186.156	228.866	351.702	183.171	192.127	202.971	358.133	187.417	191.175	196.514	201.873	330.014	195.341	-8191	255	
4178.806	1	1	0	0	0.12662	0.040666	0.047932	0.12455	0.30203	0.14496	0.14424	0.088892	0.23683	0.045534	0.17347	0.0057357	0.17154	0.18621	0.10174	0.23403	-3.3333	-3.6979	-3.325	-3.95	-3.5354	-3.3958	-3.8125	-3.3354	-3.4167	-3.9562	-3.3208	-3.8042	-3.5604	-3.1917	-4.0146	-3.3604	244.837	301.178	327.879	456.639	409.179	404.153	230.996	179.425	496.965	344.634	188.012	366.453	521.141	441.320	330.994	462.200	0.0010978	0.00062554	0.00014454	700.91	5.427e-06	1.965e-06	720.25	281.85	3.3051e-06	4.3489e-06	266.42	103.58	115.52	59.621	1.3306e-06	55.188	0.00031709	0.000291	7.5944e-05	700.61	3.5046e-06	3.1948e-06	709.07	264.51	3.4805e-06	3.1404e-06	250.83	96.484	105.74	51.126	2.9025e-06	47.723	466.868	304.954	306.480	185.854	325.941	321.896	183.250	191.822	275.655	310.907	187.665	190.900	196.224	201.917	267.298	195.153	-8191	255	
4178.902	1	1	0	0	0.014258	0.19182	0.22909	0.0026264	0.16616	0.1209	0.21561	0.20866	0.13275	0.30743	0.14489	0.34664	0.16826	0.0923	0.13827	0.24523	-3.0646	-3.8708	-3.2396	-3.9208	-3.4562	-3.3792	-3.8708	-3.3292	-3.4167	-3.8688	-3.2979	-3.7875	-3.7938	-3.3646	-3.8854	-3.4062	363.081	181.124	404.759	514.229	473.140	515.267	453.998	399.878	331.907	424.900	219.094	520.293	192.650	318.998	443.069	175.215	0.0013984	0.0002594	6.6084e-05	702.42	5.0059e-06	3.1857e-06	721.79	282.41	6.1033e-06	3.1701e-06	265.8	103.28	115.27	59.21	2.8568e-06	54.611	0.00031259	0.00027759	7.2962e-05	703.23	3.2933e-06	2.9994e-06	703.32	265.31	3.282e-06	2.9609e-06	248.85	96.868	104.56	50.703	2.8965e-06	47.832	478.175	238.365	232.164	186.127	327.697	276.766	183.106	191.587	306.234	359.873	187.549	191.302	196.479	201.611	241.722	195.118	-8191	255	
4179.023	1	1	0	0	0.10645	0.047638	0.30213	0.2202	0.18688	0.15921	0.079517	0.18326	0.097681	0.25627	0.07144	0.25369	0.31073	0.14373	0.072336	0.2688	-3.0438	-3.8917	-3.3083	-3.6771	-3.725	-3.3563	-3.9958	-3.7687	-3.4042	-3.8937	-3.3708	-3.5708	-3.75	-3.2812	-3.6521	-3.5938	513.720	340.703	364.929	228.576	214.443	473.967	428.254	196.307	453.286	525.097	238.881	517.999	508.157	459.228	368.532	394.799	0.0011803	0.000494	0.0001058	701.22	8.4296e-06	3.388e-06	719.83	282.74	5.1529e-06	2.1365e-06	262.54	103.17	115.11	59.375	3.0675e-06	54.513	0.00030513	0.00027805	7.6516e-05	714.91	3.3574e-06	3.1074e-06	714.26	270.46	3.381e-06	3.1174e-06	253.57	98.831	104.78	50.942	3.2139e-06	48.646	496.257	255.448	191.219	186.194	366.411	302.894	182.829	192.106	347.450	267.666	187.395	191.119	196.405	201.825	227.766	195.558	-8191	255	
4179.118	1	1	0	0	0.11784	0.058216	0.15922	0.13625	0.17693	0.18202	0.11926	0.32661	0.040637	0.039109	0.13086	0.30805	0.26815	0.12417	0.24463	0.24217	-3.025	-3.9333	-3.3646	-3.6208	-3.6813	-3.1667	-3.8604	-3.5583	-3.4146	-3.8563	-3.3333	-3.6542	-3.9042	-3.4604	-3.8479	-3.7	254.368	454.012	182.647	445.804	241.796	528.624	480.435	489.303	340.745	449.085	473.118	442.062	315.452	524.128	483.536	484.237	0.00072505	0.00023944	0.00016693	699.48	1.1186e-06	2.1963e-06	722.84	282.48	5.4893e-06	3.6497e-06	264.79	103.47	115.59	59.603	4.719e-06	55.038	0.00030833	0.000281	8.3335e-05	718.99	3.256e-06	3.0453e-06	721.49	269.64	3.1743e-06	2.9159e-06	255.3	98.024	103.52	50.704	3.2353e-06	48.338	479.596	320.234	519.756	186.340	424.599	338.210	182.916	192.090	312.958	321.354	187.450	191.579	196.356	201.783	210.375	195.575	-8191	255	
4179.214	1	1	0	0	0.17271	0.22994	0.084825	0.33981	0.098998	0.16585	0.29516	0.25058	0.11663	0.043224	0.047006	0.25288	0.12138	0.27046	0.19901	0.268	-2.9646	-3.975	-3.2958	-3.7354	-3.9208	-3.3375	-3.9104	-3.725	-3.4146	-3.9479	-3.5792	-3.4792	-4.0104	-3.4146	-3.7062	-4.0229	216.294	214.523	320.024	218.824	226.169	368.152	448.632	202.035	338.990	430.227	506.383	175.329	275.000	184.029	211.678	449.723	0.00073819	0.00013533	0.00011577	703.19	4.2578e-06	1.143e-06	724.13	283.39	1.3173e-06	2.2155e-06	267.22	105.2	115.73	60.302	5.4891e-06	55.626	0.00028839	0.00027039	8.7311e-05	716.19	3.2076e-06	3.125e-06	736.59	271.69	3.3462e-06	3.2082e-06	266.48	100.21	105.2	51.834	3.8233e-06	49.511	491.892	367.107	196.167	186.215	375.703	510.006	182.760	191.905	324.418	338.670	187.444	191.335	196.595	201.490	196.678	195.587	-8191	255	
4179.310	1	1	0	0	0.11274	0.19361	0.041484	0.024849	0.087936	0.15266	0.17124	0.16589	0.063222	0.23574	0.10076	0.042511	0.20321	0.15434	0.23084	0.1991	-2.7646	-3.8	-3.5146	-3.5292	-3.9729	-3.4333	-3.6958	-3.7958	-3.2104	-3.8708	-3.5875	-3.3354	-3.9333	-3.3396	-3.6792	-4.0333	523.755	450.009	326.237	507.161	294.233	357.627	484.673	403.713	199.854	414.198	232.500	474.177	466.894	207.534	387.815	239.661	0.0011098	0.00048497	5.3601e-05	702.94	4.2401e-06	6.2795e-06	728.09	284.35	6.5374e-06	2.2838e-06	266.08	104.43	115.77	60.166	2.7169e-06	55.683	0.00031372	0.00030872	0.00010075	725.1	3.4518e-06	3.5707e-06	757.92	273.88	3.5595e-06	3.6304e-06	273.21	100.95	106.16	52.756	4.1872e-06	49.703	497.663	196.058	491.752	186.309	339.355	222.559	183.080	191.810	293.640	531.757	187.223	191.265	196.224	201.532	260.788	195.659	-8191	255	
4179.406	1	1	0	0	0.24522	0.12302	0.10137	0.21665	0.17038	0.22789	0.19489	0.070217	0.083537	0.07817	0.2899	0.10451	0.088018	0.12089	0.070009	0.034991	-2.8458	-3.7938	-3.5542	-3.4	-3.9646	-3.4062	-3.7271	-3.7542	-3.1667	-3.7687	-3.7	-3.3125	-3.8708	-3.4646	-3.5083	-3.9313	392.252	197.207	319.202	474.315	216.463	456.911	496.128	259.462	302.145	264.970	412.427	197.141	300.256	441.108	219.166	477.610	0.0011311	0.00079449	0.00013931	704.88	3.8569e-06	6.8738e-06	726.2	284.44	3.0975e-06	5.8723e-06	264.95	104.61	115.84	60.455	2.9584e-06	55.963	0.00032813	0.00034813	0.00010584	727.23	3.503e-06	3.9015e-06	759.3	273.17	3.5153e-06	3.9012e-06	270.87	99.862	105.67	53.182	4.004e-06	49.542	486.930	496.468	223.895	186.426	393.423	181.587	183.336	191.772	212.595	238.869	187.483	191.093	196.205	201.322	312.513	195.129	-8191	255	
4179.502	1	1	0	0	0.1438	0.15282	0.096991	0.066838	0.13855	0.13851	0.099908	0.24174	0.14977	0.22183	0.072223	0.23971	0.167	0.11534	0.10451	0.13016	-2.8604	-3.5896	-3.5667	-3.2729	-4.0479	-3.5146	-3.7104	-4.0292	-3.2833	-3.7917	-3.7313	-3.1458	-3.8396	-3.5667	-3.6229	-4.0271	260.561	319.672	309.562	361.194	490.769	452.033	185.695	222.494	525.702	386.363	526.908	400.711	447.159	177.990	487.862	504.876	0.0011566	0.00032753	8.9027e-05	705.21	5.1419e-06	2.7941e-06	729.24	283.05	4.5258e-06	8.4375e-07	266.42	104.52	116.46	60.532	4.3127e-06	55.987	0.00032625	0.00037217	0.0001028	727.5	3.5596e-06	4.158e-06	755.48	272.49	3.594e-06	4.1333e-06	268.8	99.79	106.61	53.643	3.8385e-06	49.46	466.984	203.089	368.502	186.152	254.145	205.785	182.971	191.764	241.053	249.623	187.737	191.185	196.476	201.629	359.041	195.487	-8191	255	
4179.598	1	1	0	0	0.18627	0.15189	0.18189	0.086845	0.11104	0.30224	0.21705	0.16854	0.053072	0.062643	0.0658	0.38125	0.23422	0.28072	0.06194	0.18889	-2.9	-3.7583	-3.7146	-3.2583	-3.675	-3.6521	-3.4146	-3.9875	-3.5792	-3.5271	-3.8521	-3.3771	-3.9521	-3.6854	-3.4375	-4.1458	176.824	522.897	393.026	240.532	260.215	490.773	500.270	447.207	510.610	317.596	522.500	409.071	205.671	507.284	248.095	417.098	0.0015902	0.00024313	9.5165e-05	707.76	7.0908e-06	4.5806e-06	726.53	284.72	7.7147e-06	4.2201e-06	265.94	104.43	117.15	60.561	3.2318e-06	56.102	0.0003356	0.00037924	9.6389e-05	722.91	3.6551e-06	4.1464e-06	746.35	271.35	3.7552e-06	4.1257e-06	266.06	99.737	108.09	53.621	3.6999e-06	49.341	475.995	176.216	323.573	186.184	260.609	380.733	183.123	191.987	219.194	425.676	187.691	191.267	196.009	201.688	256.129	195.508	-8191	255	
4179.694	1	1	0	0	0.10507	0.099666	0.10233	0.2025	0.073208	0.19629	0.16253	0.21949	0.013917	0.088002	0.052119	0.14135	0.082414	0.16437	0.02437	0.22989	-3.0687	-3.6188	-3.7333	-3.3396	-3.9625	-3.6437	-3.4313	-4.0188	-3.3854	-3.6	-3.9833	-3.4813	-3.7542	-3.7167	-3.3604	-3.9188	402.865	422.740	285.507	489.626	428.327	279.514	425.967	260.574	287.443	308.268	532.192	237.629	185.346	512.617	356.727	480.859	0.0014205	0.00033678	7.7379e-05	703.45	9.2431e-06	4.7226e-06	725.29	283.47	3.0828e-06	5.0061e-06	268.45	105.17	115.95	60.183	3.0749e-06	55.883	0.00035174	0.00036874	9.2485e-05	715.81	3.8454e-06	3.9631e-06	739.34	268.59	3.9169e-06	3.9348e-06	262.31	98.981	108.51	52.97	3.5756e-06	48.879	467.252	313.742	305.393	186.239	192.038	369.976	183.029	191.865	263.625	397.912	187.541	191.127	196.206	201.746	342.750	195.222	-8191	255	
#DATA ENDS
