BOXY.EXE: ISS Imagent and Oximeter Data Acquisition Program Version 0.80
Ascii Record File

#ACQ INFORMATION
2  Detector Channels 
16  External MUX Channels 
1  Auxiliary Channels 
5000  Waveform (CCF) Frequency (Hz)
1  Waveforms Skipped 
30  Waveforms Averaged 
1  Cycles Averaged 
16  Acquisitions per Waveform 
10.0806  Updata Rate (Hz) 

#FILE INFORMATION
TRUE -- External MUX Channel results are PARSED.
FALSE -- AC DC and Phase are NOT grouped.
TRUE -- Companion Program Settings File CREATED.
FALSE -- AC data not excluded
FALSE -- DC data not excluded
FALSE -- Phase data not excluded
FALSE -- Auxillary Chn. data not excluded
Tab delimiters

#CALIBRATION STATE
TRUE -- Waveform Calibration Values APPLIED.


#AUX CALIBRATION VALUES
Val Type	aux-1	

Term	1.0000e+00	
Factor	0.0000e+00	


#WF CALIBRATION VALUES
A = Detector Channel
Val Type	A-AC1	A-AC2	A-AC3	A-AC4	A-AC5	A-AC6	A-AC7	A-AC8	A-AC9	A-AC10	A-AC11	A-AC12	A-AC13	A-AC14	A-AC15	A-AC16	A-DC1	A-DC2	A-DC3	A-DC4	A-DC5	A-DC6	A-DC7	A-DC8	A-DC9	A-DC10	A-DC11	A-DC12	A-DC13	A-DC14	A-DC15	A-DC16	A-Ph1	A-Ph2	A-Ph3	A-Ph4	A-Ph5	A-Ph6	A-Ph7	A-Ph8	A-Ph9	A-Ph10	A-Ph11	A-Ph12	A-Ph13	A-Ph14	A-Ph15	A-Ph16	

Term	0.00000e+00	0.00000e+00	0.00000e+00	0.00000e+00	0.00000e+00	0.00000e+00	0.00000e+00	0.00000e+00	0.00000e+00	0.00000e+00	0.00000e+00	0.00000e+00	0.00000e+00	0.00000e+00	0.00000e+00	0.00000e+00	0.00000e+00	0.00000e+00	0.00000e+00	0.00000e+00	0.00000e+00	0.00000e+00	0.00000e+00	0.00000e+00	0.00000e+00	0.00000e+00	0.00000e+00	0.00000e+00	0.00000e+00	0.00000e+00	0.00000e+00	0.00000e+00	0.00000e+00	0.00000e+00	0.00000e+00	0.00000e+00	0.00000e+00	0.00000e+00	0.00000e+00	0.00000e+00	0.00000e+00	0.00000e+00	0.00000e+00	0.00000e+00	0.00000e+00	0.00000e+00	0.00000e+00	0.00000e+00	
Factor	1.00000e+00	1.00000e+00	1.00000e+00	1.00000e+00	1.00000e+00	1.00000e+00	1.00000e+00	1.00000e+00	1.00000e+00	1.00000e+00	1.00000e+00	1.00000e+00	1.00000e+00	1.00000e+00	1.00000e+00	1.00000e+00	1.00000e+00	1.00000e+00	1.00000e+00	1.00000e+00	1.00000e+00	1.00000e+00	1.00000e+00	1.00000e+00	1.00000e+00	1.00000e+00	1.00000e+00	1.00000e+00	1.00000e+00	1.00000e+00	1.00000e+00	1.00000e+00	X	X	X	X	X	X	X	X	X	X	X	X	X	X	X	X	

B = Detector Channel
Val Type	B-AC1	B-AC2	B-AC3	B-AC4	B-AC5	B-AC6	B-AC7	B-AC8	B-AC9	B-AC10	B-AC11	B-AC12	B-AC13	B-AC14	B-AC15	B-AC16	B-DC1	B-DC2	B-DC3	B-DC4	B-DC5	B-DC6	B-DC7	B-DC8	B-DC9	B-DC10	B-DC11	B-DC12	B-DC13	B-DC14	B-DC15	B-DC16	B-Ph1	B-Ph2	B-Ph3	B-Ph4	B-Ph5	B-Ph6	B-Ph7	B-Ph8	B-Ph9	B-Ph10	B-Ph11	B-Ph12	B-Ph13	B-Ph14	B-Ph15	B-Ph16	

Term	0.00000e+00	0.00000e+00	0.00000e+00	0.00000e+00	0.00000e+00	0.00000e+00	0.00000e+00	0.00000e+00	0.00000e+00	0.00000e+00	0.00000e+00	0.00000e+00	0.00000e+00	0.00000e+00	0.00000e+00	0.00000e+00	0.00000e+00	0.00000e+00	0.00000e+00	0.00000e+00	0.00000e+00	0.00000e+00	0.00000e+00	0.00000e+00	0.00000e+00	0.00000e+00	0.00000e+00	0.00000e+00	0.00000e+00	0.00000e+00	0.00000e+00	0.00000e+00	2.93131e+01	-1.38054e+02	-1.55137e+02	-1.83507e+02	-8.93409e+01	-7.38741e+01	-1.57185e+02	-1.62015e+02	-1.04756e+02	-8.47356e+01	-1.72626e+02	-1.72814e+02	-1.80483e+02	-1.78435e+02	-9.61728e+01	-1.51297e+02	
Factor	4.06815e-05	8.32167e-05	3.41537e-05	1.61071e-01	1.09079e-06	8.84274e-07	1.94396e-01	6.71829e-02	1.01989e-06	8.41751e-07	9.46126e-02	3.23926e-02	2.57595e-02	9.54239e-03	8.66236e-07	1.36832e-02	5.31991e-07	5.38450e-07	1.50082e-07	7.64884e-02	5.87831e-09	5.89810e-09	8.61984e-02	3.09803e-02	5.88643e-09	5.89619e-09	4.18274e-02	1.42647e-02	1.18748e-02	4.35937e-03	5.89889e-09	5.99575e-03	X	X	X	X	X	X	X	X	X	X	X	X	X	X	X	X	



#DISTANCE SETTINGS
A = Detector Channel
A-1	A-2	A-3	A-4	A-5	A-6	A-7	A-8	A-9	A-10	A-11	A-12	A-13	A-14	A-15	A-16	

2.5000e+00	3.0000e+00	2.5000e+00	3.0000e+00	2.0000e+00	3.0000e+00	1.5000e+00	3.0000e+00	3.0000e+00	3.0000e+00	3.0000e+00	3.0000e+00	3.0000e+00	3.0000e+00	1.5000e+00	3.0000e+00	

B = Detector Channel
B-1	B-2	B-3	B-4	B-5	B-6	B-7	B-8	B-9	B-10	B-11	B-12	B-13	B-14	B-15	B-16	

1.0000e+01	1.0000e+01	1.0000e+01	1.4400e+00	1.0000e+01	1.0000e+01	1.5100e+00	1.9400e+00	1.0000e+01	1.0000e+01	1.9900e+00	2.4900e+00	2.4100e+00	2.9000e+00	1.0000e+01	2.9800e+00	




#DATA BEGINS
time	group	step	mark	flag	A-AC1	A-AC2	A-AC3	A-AC4	A-AC5	A-AC6	A-AC7	A-AC8	A-AC9	A-AC10	A-AC11	A-AC12	A-AC13	A-AC14	A-AC15	A-AC16	A-DC1	A-DC2	A-DC3	A-DC4	A-DC5	A-DC6	A-DC7	A-DC8	A-DC9	A-DC10	A-DC11	A-DC12	A-DC13	A-DC14	A-DC15	A-DC16	A-Ph1	A-Ph2	A-Ph3	A-Ph4	A-Ph5	A-Ph6	A-Ph7	A-Ph8	A-Ph9	A-Ph10	A-Ph11	A-Ph12	A-Ph13	A-Ph14	A-Ph15	A-Ph16	B-AC1	B-AC2	B-AC3	B-AC4	B-AC5	B-AC6	B-AC7	B-AC8	B-AC9	B-AC10	B-AC11	B-AC12	B-AC13	B-AC14	B-AC15	B-AC16	B-DC1	B-DC2	B-DC3	B-DC4	B-DC5	B-DC6	B-DC7	B-DC8	B-DC9	B-DC10	B-DC11	B-DC12	B-DC13	B-DC14	B-DC15	B-DC16	B-Ph1	B-Ph2	B-Ph3	B-Ph4	B-Ph5	B-Ph6	B-Ph7	B-Ph8	B-Ph9	B-Ph10	B-Ph11	B-Ph12	B-Ph13	B-Ph14	B-Ph15	B-Ph16	aux-1	digaux	

8584.574	1	1	0	768	0.049779	0.17256	0.1592	0.24453	0.2042	0.23916	0.16225	0.11514	0.072038	0.12466	0.28727	0.023362	0.23734	0.15556	0.090379	0.24976	-3.2104	-2.9062	-3.6188	-3.4792	-3.0062	-3.8729	-3.1813	-3.4333	-3.5021	-2.95	-3.7646	-3.4	-3.1542	-3.7771	-3.1021	-3.2125	92.659	122.866	315.700	343.611	143.513	195.085	334.895	310.799	343.537	294.988	359.509	363.164	386.687	190.699	46.588	362.566	0.001737	0.00050242	0.00018377	1235.5	7.7656e-06	4.0918e-06	1434.3	467.24	3.4621e-06	3.6683e-06	620.28	231.26	166.78	73.329	7.2527e-06	113.45	5.7452e-05	3.6504e-05	9.6415e-06	1065.5	4.3499e-07	3.7858e-07	1216.8	391.16	4.2809e-07	3.9454e-07	510.09	190.05	138.5	61.168	4.381e-07	92.993	314.526	95.763	109.399	58.636	176.245	163.353	57.814	64.048	157.109	166.363	61.822	66.419	68.565	73.740	181.751	70.471	-8191	255	
8584.671	1	1	0	0	0.055123	0.14067	0.058713	0.14216	0.24018	0.13552	0.23287	0.25469	0.060367	0.37479	0.14702	0.19878	0.31409	0.10206	0.12134	0.21919	-3.0938	-3.0396	-3.4271	-3.3396	-3.1083	-3.7771	-3.225	-3.3396	-3.6771	-2.8625	-3.5312	-3.5917	-3.2292	-3.7104	-3.1	-3.3646	207.435	313.648	175.902	276.906	183.243	76.822	285.437	352.618	208.289	162.380	344.954	399.993	359.797	336.762	250.048	56.212	0.0017043	0.00015182	0.00013099	1248.1	5.9285e-06	3.2987e-06	1443.7	469.75	8.0609e-06	4.5993e-06	622.9	233.47	167.38	73.581	5.4813e-06	113.92	5.543e-05	3.6138e-05	1.0462e-05	1075	4.3442e-07	3.7583e-07	1228.7	394.27	4.1467e-07	3.9259e-07	513.43	191.21	138.99	61.253	4.6225e-07	93.22	314.282	114.885	117.343	58.834	175.530	183.184	57.632	64.014	170.588	179.036	62.094	66.509	68.444	73.734	171.671	70.524	-8191	255	
8584.767	1	1	0	0	0.17953	0.19187	0.1938	0.2122	0.24943	0.18985	0.27205	0.060785	0.21608	0.174	0.15031	0.37066	0.21336	0.23253	0.017962	0.2309	-3.2542	-3.0396	-3.3604	-3.5375	-2.9292	-3.5563	-3.4354	-3.2271	-3.8208	-3.025	-3.65	-3.675	-2.9833	-3.8583	-3.4625	-3.2271	93.282	153.186	244.089	56.069	187.593	113.333	312.017	82.404	139.155	111.533	163.492	67.831	48.161	126.977	180.617	303.901	0.0018151	0.00039428	0.00021513	1250.2	6.2321e-06	4.74e-06	1457.8	469.35	6.9841e-06	2.4679e-06	624.82	231.27	167.05	72.835	2.9462e-06	113.3	5.5826e-05	3.6582e-05	1.1159e-05	1076.4	4.1636e-07	3.8807e-07	1236.9	394.05	4.0237e-07	3.9708e-07	513.82	190.37	138.59	60.934	4.7476e-07	92.554	312.557	138.729	107.936	58.594	166.888	183.981	57.723	63.673	193.327	175.822	61.798	66.592	68.789	73.858	194.576	70.391	-8191	255	
8584.863	1	1	0	0	0.062436	0.12408	0.065302	0.33963	0.040016	0.1115	0.28794	0.1375	0.072734	0.071479	0.21195	0.095298	0.23359	0.20716	0.15046	0.2085	-3.3	-3.1042	-3.1688	-3.5958	-2.9125	-3.6458	-3.4917	-2.9979	-3.6708	-2.9667	-3.4833	-3.7125	-2.9313	-3.6896	-3.3646	-2.9938	155.103	116.155	352.817	50.184	270.540	169.216	308.989	349.455	225.970	181.654	306.451	380.815	338.439	354.034	386.591	399.624	0.0017053	0.00047758	0.00015357	1251.9	3.6177e-06	2.1244e-06	1437.2	467.15	5.0965e-06	4.7896e-06	613.79	230.11	167.06	72.702	4.7059e-06	112.04	5.3529e-05	3.7505e-05	1.1746e-05	1070.7	4.063e-07	4.0055e-07	1217.8	391.8	3.8462e-07	4.2981e-07	508.32	189.18	138.32	60.886	4.6724e-07	91.849	310.388	113.782	124.303	58.705	208.100	176.105	57.701	63.884	140.288	196.111	61.869	66.392	68.343	73.712	175.650	70.705	-8191	255	
8584.957	1	1	0	0	0.077427	0.17934	0.24398	0.14197	0.24682	0.20288	0.33983	0.12888	0.15291	0.076311	0.13873	0.19215	0.15501	0.24609	0.050696	0.26974	-3.2354	-3.0896	-3.2313	-3.8083	-2.9333	-3.6188	-3.6083	-3.0979	-3.7708	-3.1354	-3.4583	-3.7438	-3.1375	-3.6521	-3.325	-3.25	110.391	405.893	115.012	323.353	302.907	243.630	54.810	294.183	358.635	403.909	143.987	50.578	61.300	397.260	398.306	363.090	0.0017211	0.00055191	0.00019905	1240.5	5.2887e-06	5.5159e-06	1437.6	465.5	6.1537e-06	3.3571e-06	619.6	231.34	167.78	73.026	3.6248e-06	112.55	5.3083e-05	4.0333e-05	1.1665e-05	1065	4.0083e-07	4.3296e-07	1216.9	391.65	3.9147e-07	4.5144e-07	509.67	189.88	138.75	61.037	4.4701e-07	92.193	311.638	140.597	115.390	58.806	186.072	200.506	57.579	64.123	159.523	197.488	61.822	66.423	68.521	73.742	179.073	70.433	-8191	255	
8585.055	1	1	0	0	0.10238	0.29531	0.21534	0.32561	0.17332	0.17126	0.14573	0.217	0.16287	0.10866	0.18625	0.10453	0.32165	0.15283	0.12295	0.17976	-3.3812	-3.2729	-2.9813	-3.8583	-3.0312	-3.3312	-3.6437	-3.0417	-3.7583	-3.2604	-3.0458	-3.6479	-3.1979	-3.275	-3.7021	-3.0687	187.548	342.513	64.799	306.165	382.526	109.213	354.958	285.963	328.455	381.084	338.278	403.537	386.022	105.229	143.625	327.522	0.0018493	0.00054946	0.00016284	1241.4	9.9561e-06	4.4957e-06	1444.1	466.8	5.4965e-06	3.8073e-06	620.4	232.46	168	72.686	5.1785e-06	112.51	5.3577e-05	4.2513e-05	1.0952e-05	1067.1	4.0865e-07	4.5729e-07	1223.9	390.66	3.9805e-07	4.6015e-07	512.24	190.08	138.95	60.66	4.2388e-07	92.162	311.466	123.433	104.464	58.708	167.197	179.974	57.548	64.043	170.111	188.020	61.755	66.549	68.468	73.710	160.050	70.493	-8191	255	
8585.174	1	1	0	0	0.10775	0.14978	0.191	0.1693	0.096393	0.094236	0.24454	0.33126	0.051948	0.089255	0.21499	0.1587	0.16032	0.14697	0.067615	0.17425	-3.0021	-3.2854	-2.8021	-3.8375	-3.0375	-3.3292	-3.8021	-3.0125	-3.5708	-3.5438	-3.0771	-3.7896	-3.2479	-3.5167	-3.5	-3.0312	377.855	232.167	168.308	310.688	156.000	296.437	312.735	378.929	329.433	203.133	332.243	49.397	303.699	318.675	218.736	317.638	0.0018206	0.0004368	0.0001897	1256.1	6.9616e-06	4.9042e-06	1483.1	473.25	3.4103e-06	5.1778e-06	628.09	231.81	168.75	73.161	5.2707e-06	113	5.4229e-05	4.244e-05	1.0743e-05	1079.3	4.2773e-07	4.6683e-07	1255	394.86	4.2848e-07	4.4341e-07	517.35	191.1	139.36	61.025	4.0133e-07	92.193	312.155	129.590	100.127	58.668	181.986	145.713	57.579	63.878	157.654	164.559	62.065	66.525	68.447	73.899	171.232	70.367	-8191	255	
8585.270	1	1	0	0	0.16023	0.22511	0.16969	0.11802	0.15865	0.088722	0.11879	0.30456	0.091177	0.10573	0.22387	0.21097	0.085754	0.10523	0.20958	0.2043	-3.0271	-3.2375	-2.8125	-3.7188	-3.2917	-3.1146	-3.8271	-3.1542	-3.2979	-3.5312	-3.1604	-3.7812	-3.2042	-3.2708	-3.7833	-3.3896	151.403	352.726	338.112	375.353	91.684	47.535	374.909	78.736	202.933	363.489	345.697	68.837	71.160	358.974	361.387	371.280	0.0017887	0.0004794	0.00014338	1253.7	6.9763e-06	4.4185e-06	1449.4	469.17	5.3444e-06	4.8636e-06	619.34	228.75	165.97	72.21	4.0286e-06	110.85	5.7556e-05	4.0165e-05	1.0256e-05	1074.4	4.5688e-07	4.2953e-07	1230.6	392.49	4.6316e-07	4.1788e-07	510.09	187.93	138.03	60.279	3.9375e-07	90.814	310.887	109.176	108.671	58.784	178.129	210.369	57.520	64.119	176.455	153.382	61.879	66.435	68.627	73.711	173.367	70.603	-8191	255	
8585.366	1	1	0	0	0.16963	0.035137	0.10489	0.28104	0.055023	0.063099	0.12602	0.078268	0.20171	0.13467	0.12883	0.25261	0.1336	0.25251	0.1613	0.22919	-2.8563	-3.5021	-2.8854	-3.8375	-3.2604	-2.9333	-3.7896	-3.2729	-3.1875	-3.6125	-3.1542	-3.8458	-3.5563	-3.2313	-3.7167	-3.3	391.380	274.307	297.620	365.655	294.098	173.411	210.541	346.708	171.655	328.928	61.670	322.083	52.480	51.378	214.719	368.032	0.0018257	0.00041373	0.00015077	1245	5.3764e-06	3.1759e-06	1455	469.45	5.4804e-06	3.2517e-06	627.61	231.55	167.44	72.76	3.2659e-06	112.69	6.0201e-05	3.6417e-05	9.6487e-06	1072.5	4.6253e-07	4.1545e-07	1231.1	393.98	4.7442e-07	3.886e-07	515.67	189.87	139.04	60.925	3.8402e-07	92.159	308.685	127.532	100.279	58.607	175.832	192.777	57.430	64.108	149.808	162.924	61.989	66.747	68.682	73.798	165.358	70.371	-8191	255	
8585.462	1	1	0	0	0.16916	0.075032	0.16656	0.11026	0.17707	0.16221	0.22281	0.23592	0.15402	0.21205	0.19609	0.14362	0.18409	0.10294	0.078167	0.16691	-2.9	-3.5354	-3.0354	-3.6542	-3.4437	-2.9542	-3.9458	-3.3208	-3.1771	-3.7062	-3.3563	-3.5042	-3.5271	-3.1688	-3.475	-3.3	154.768	379.949	339.743	389.073	68.003	298.900	336.476	360.396	243.030	95.621	78.925	360.507	78.838	370.877	137.926	382.138	0.0017859	0.00040481	0.00018211	1254.3	4.2339e-06	4.079e-06	1464	474.67	4.567e-06	4.9088e-06	632.02	234.67	167.69	73.16	4.7991e-06	114.08	6.0514e-05	3.6454e-05	9.765e-06	1080.8	4.5147e-07	4.0509e-07	1243.2	397.39	4.4808e-07	3.9446e-07	518.95	191.97	139.27	61.197	3.9509e-07	93.059	314.763	130.457	134.744	58.373	150.126	201.214	57.544	64.163	168.641	161.603	61.838	66.393	68.641	73.688	188.665	70.301	-8191	255	
8585.559	1	1	0	0	0.19296	0.17358	0.30483	0.2746	0.057806	0.18297	0.13059	0.014491	0.09676	0.11478	0.025118	0.15562	0.068894	0.081562	0.34452	0.16422	-2.6083	-3.8125	-3.1604	-3.5479	-3.5146	-2.9042	-3.7354	-3.4604	-3.1229	-3.5833	-3.1229	-3.4188	-3.725	-3.2292	-3.6958	-3.5021	342.037	284.774	103.491	342.813	333.020	352.189	256.881	396.950	204.372	149.977	405.199	47.505	277.231	47.165	290.563	389.731	0.0019019	0.0003506	0.00022223	1258.2	4.6827e-06	3.8254e-06	1473.6	472.16	4.6509e-06	2.3788e-06	628.99	232.05	168.21	73.126	4.9615e-06	112.49	5.894e-05	3.5013e-05	1.0199e-05	1083.2	4.3071e-07	3.9736e-07	1252.4	396.66	4.4543e-07	3.828e-07	517.58	191.26	139.22	61.031	4.2585e-07	92.318	311.622	117.501	118.312	58.998	184.668	200.560	57.662	63.816	172.279	203.979	61.948	66.506	68.510	73.659	144.419	70.536	-8191	255	
8585.655	1	1	0	0	0.10545	0.17431	0.14462	0.19277	0.11232	0.24762	0.30744	0.19125	0.39623	0.081975	0.01705	0.28608	0.1719	0.23245	0.11931	0.35396	-2.6188	-3.7583	-3.2083	-3.4396	-3.7208	-3.0187	-3.7146	-3.5938	-2.9229	-3.7396	-3.3771	-3.5021	-3.8396	-3.1937	-3.3438	-3.675	224.994	351.215	270.751	357.478	330.109	129.221	312.424	341.581	324.670	202.047	159.811	96.456	72.931	341.979	119.485	302.705	0.001805	0.00032594	0.00016958	1245.8	5.1279e-06	3.8206e-06	1444.6	470.44	5.0169e-06	4.2386e-06	620.87	231.18	167.7	72.712	4.9891e-06	111.64	5.6705e-05	3.5156e-05	1.0744e-05	1072.5	4.2612e-07	3.9506e-07	1228.7	394.42	4.3562e-07	3.8017e-07	512.1	189.65	138.66	60.727	4.6155e-07	91.537	313.453	144.241	102.836	58.560	192.269	187.359	57.727	64.249	158.992	173.386	61.823	66.284	68.431	73.775	187.795	70.443	-8191	255	
8585.775	1	1	0	0	0.16754	0.10863	0.13482	0.18958	0.23615	0.0046719	0.25365	0.088401	0.098027	0.033167	0.40524	0.11653	0.25701	0.24723	0.11994	0.18974	-2.5542	-3.5333	-3.2104	-3.3937	-3.6521	-3.1583	-3.6208	-3.6188	-3.0708	-3.6271	-3.5042	-3.3271	-3.7021	-3.3167	-3.3521	-3.7812	388.512	355.542	257.162	295.231	369.278	330.027	54.056	350.617	186.372	171.623	332.917	397.311	368.304	351.847	348.335	313.380	0.001774	0.00050839	0.00015202	1248.5	2.6124e-06	2.7613e-06	1449.2	470.5	5.9114e-06	4.0918e-06	625.56	231.78	167.49	72.919	6.0346e-06	112.62	5.6709e-05	3.5869e-05	1.1888e-05	1072.8	4.0577e-07	3.9023e-07	1229.3	394.38	4.28e-07	4.0717e-07	512.93	190.24	138.73	60.862	4.8642e-07	92.119	308.585	123.157	138.758	58.619	190.025	171.137	57.906	64.083	161.623	148.774	62.034	66.492	68.498	73.730	154.033	70.358	-8191	255	
8585.870	1	1	0	0	0.081207	0.11215	0.10512	0.31875	0.18649	0.16798	0.25822	0.18288	0.066162	0.13448	0.18664	0.34649	0.24721	0.34831	0.12769	0.33989	-2.5312	-3.4667	-3.3458	-3.2792	-3.6479	-2.9	-3.4146	-3.725	-2.8771	-3.6479	-3.5604	-3.2313	-4.0021	-3.1729	-3.1896	-3.8917	364.564	156.549	247.149	364.372	387.042	158.383	342.464	313.653	240.481	90.937	287.427	358.180	109.124	378.199	336.946	357.426	0.0017367	0.00052993	0.00018517	1248.4	5.9034e-06	4.9359e-06	1453.4	472.66	4.2096e-06	6.0893e-06	628.4	231.63	167.51	73.225	7.5766e-06	113.36	5.5725e-05	3.75e-05	1.2281e-05	1074.2	4.0495e-07	4.327e-07	1238.7	395.53	4.199e-07	4.2881e-07	516.86	191.26	139.21	61.003	4.8891e-07	92.563	312.798	127.873	144.774	58.435	184.359	219.509	57.385	63.865	140.405	191.465	61.852	66.642	68.541	73.729	158.748	70.527	-8191	255	
8585.966	1	1	0	0	0.20137	0.11733	0.18789	0.20928	0.15058	0.15683	0.47615	0.098445	0.059683	0.059591	0.16178	0.11104	0.16756	0.16749	0.1407	0.18273	-2.4896	-3.4313	-3.4813	-3.3375	-3.5792	-3.275	-3.275	-3.7792	-2.8625	-3.475	-3.6271	-3.1208	-3.9292	-3.2958	-3.0771	-3.7875	228.972	77.410	353.794	331.133	293.548	287.410	308.456	375.319	280.218	133.771	340.312	350.829	55.468	369.776	129.328	333.044	0.0018124	0.00038254	0.00022888	1253.9	6.774e-06	5.9735e-06	1465.8	470.59	4.994e-06	3.5705e-06	630.83	233.27	167.91	73.145	4.9928e-06	112.85	5.4423e-05	4.0889e-05	1.2003e-05	1078.2	4.0216e-07	4.6242e-07	1247.4	396.45	4.1703e-07	4.5816e-07	519.08	191.61	139.4	61.156	4.7604e-07	92.237	310.143	118.885	119.408	58.731	183.350	197.897	57.655	63.949	173.034	203.323	61.849	66.615	68.462	73.991	184.721	70.355	-8191	255	
8586.062	1	1	0	0	0.21202	0.1177	0.031924	0.3593	0.12391	0.16276	0.25667	0.073965	0.074765	0.13709	0.13833	0.28171	0.1155	0.2567	0.039394	0.095479	-2.6104	-3.3771	-3.3458	-3.1542	-3.6979	-3.2979	-3.3167	-3.7979	-3.0667	-3.4396	-3.7271	-3.0854	-3.6771	-3.4938	-3.1042	-3.875	80.794	308.224	299.274	382.529	230.509	181.544	353.907	57.069	64.917	123.337	403.232	342.375	368.999	48.583	403.428	271.024	0.0018943	0.00035413	8.6482e-05	1245.1	4.0477e-06	2.9201e-06	1438.9	466.32	5.7941e-06	4.2746e-06	617.88	230.94	167.16	72.285	5.1933e-06	111.28	5.6073e-05	4.3346e-05	1.1334e-05	1068.6	4.1785e-07	4.7397e-07	1221.2	391.84	4.4012e-07	4.8264e-07	509.54	189.1	138.15	60.56	4.473e-07	91.028	311.848	123.159	111.172	58.666	169.193	166.150	57.807	64.153	170.030	167.930	62.225	66.502	68.405	73.669	177.439	70.274	-8191	255	
8586.136	1	1	0	0	0.088466	0.0085297	0.127	0.1458	0.1645	0.087938	0.31022	0.29413	0.094431	0.054754	0.055527	0.34494	0.14835	0.099752	0.10323	0.3964	-2.6708	-3.1562	-3.5583	-3.1208	-3.6042	-3.4521	-3.1958	-3.7542	-3.0958	-3.1292	-3.7562	-2.9938	-3.5833	-3.4542	-3.1437	-3.6937	242.250	235.471	189.337	356.073	390.891	87.308	356.029	339.196	396.054	326.347	333.062	390.705	383.432	106.318	50.040	337.330	0.0017269	0.00044623	8.4845e-05	1234.8	9.2703e-06	4.2263e-06	1425.1	462.08	4.3711e-06	3.5962e-06	615.7	229.56	166.27	71.962	3.5076e-06	111.02	5.8474e-05	4.4268e-05	1.081e-05	1060.7	4.5602e-07	4.6873e-07	1211.2	388.23	4.5879e-07	4.8167e-07	508.51	188.85	137.96	60.211	4.4932e-07	91.117	309.712	117.964	120.164	58.559	175.920	184.299	57.364	64.465	171.504	171.593	61.582	66.598	68.446	73.878	183.191	70.466	-8191	255	
8586.254	1	1	0	0	0.12599	0.23763	0.22271	0.24799	0.073828	0.15659	0.20917	0.18512	0.12635	0.079062	0.32944	0.022705	0.094354	0.24168	0.037401	0.11067	-2.6458	-3.1521	-3.4021	-3.2396	-3.4875	-3.4625	-3.1146	-3.6917	-3.3646	-3.0292	-3.6083	-3.1125	-3.4	-3.6792	-2.9188	-3.7687	317.451	173.903	81.224	357.301	264.053	79.250	372.243	106.314	123.074	351.380	46.768	131.864	268.672	334.978	221.655	94.911	0.0017272	0.00035706	0.00011592	1232.4	7.4345e-06	4.2243e-06	1437.3	464.85	3.2508e-06	4.1529e-06	623.39	230.58	167.19	72.204	4.471e-06	112.51	6.0946e-05	4.3636e-05	1.0751e-05	1063	4.9766e-07	4.5187e-07	1225.6	390.05	5.0409e-07	4.6247e-07	512.56	190.12	138.68	60.441	4.4072e-07	92.089	307.969	140.753	129.583	58.746	201.161	198.332	57.509	63.989	163.510	179.504	61.917	66.564	68.420	73.987	163.861	70.463	-8191	255	
8586.351	1	1	0	0	0.2511	0.20061	0.050079	0.25845	0.084413	0.20591	0.30849	0.22906	0.1954	0.12096	0.18282	0.19652	0.11964	0.34413	0.30918	0.24023	-2.9417	-2.9208	-3.6792	-2.9625	-3.2625	-3.4792	-2.9354	-3.575	-3.2208	-3.0333	-3.8333	-3.1854	-3.4958	-3.7458	-2.9333	-3.6146	100.951	282.047	374.413	390.086	331.321	243.795	378.768	332.619	154.305	383.067	254.004	378.589	381.607	398.706	192.479	311.911	0.0017699	0.00061672	0.00016396	1245.4	7.3963e-06	2.1192e-06	1460.3	468.06	5.6107e-06	2.639e-06	624.31	231.46	166.73	72.769	3.7413e-06	112.35	6.1656e-05	4.0957e-05	1.062e-05	1070.9	5.0264e-07	4.3528e-07	1240.6	392.48	4.9531e-07	4.4779e-07	513.36	190.6	138.68	60.583	4.2675e-07	91.948	316.035	129.714	80.204	58.665	178.026	212.058	57.661	64.010	128.504	177.187	62.037	66.395	68.528	73.881	167.493	70.443	-8191	255	
8586.447	1	1	0	0	0.2013	0.11749	0.10774	0.086667	0.10203	0.291	0.31272	0.21752	0.12158	0.15036	0.14163	0.23889	0.081889	0.13814	0.2391	0.32859	-2.8542	-2.8812	-3.6625	-3.1625	-3.2042	-3.5771	-3.0729	-3.6021	-3.3771	-2.925	-3.7375	-3.1375	-3.2104	-3.8021	-2.9375	-3.7292	330.239	375.782	246.783	368.899	91.482	151.355	335.012	397.268	351.216	403.531	390.153	377.644	294.981	48.472	172.293	361.016	0.0016867	0.00044958	0.00017111	1235.3	3.9436e-06	4.0392e-06	1437.3	463.52	4.6067e-06	2.9836e-06	615.79	229.29	165.92	72.019	4.6005e-06	110.6	6.1724e-05	3.9133e-05	9.8119e-06	1066.7	4.8731e-07	4.1289e-07	1217.9	389.14	4.6852e-07	4.2719e-07	506.62	188.69	137.94	60.026	4.2391e-07	90.938	313.463	110.456	153.651	58.697	184.821	203.271	57.797	63.947	160.442	179.257	62.381	66.530	68.544	73.947	176.023	70.482	-8191	255	
8586.543	1	1	0	0	0.30366	0.23994	0.23062	0.30492	0.16544	0.25208	0.091702	0.19839	0.25524	0.073264	0.21314	0.13596	0.13705	0.14579	0.21747	0.4061	-3.0625	-2.9104	-3.5	-3.35	-3.2229	-3.6937	-2.9917	-3.3688	-3.4688	-3.0563	-3.4229	-3.525	-3.0875	-3.6729	-3.1896	-3.3729	327.450	241.566	308.481	384.808	97.994	320.026	349.254	349.056	363.504	239.117	104.871	273.911	374.673	251.515	363.240	343.369	0.0018595	0.00040701	0.00020309	1235.9	7.4902e-06	4.4622e-06	1426.2	464.61	7.0744e-06	4.0439e-06	614.35	230.74	165.86	72.272	4.9055e-06	111.6	5.8169e-05	3.8762e-05	1.0171e-05	1062.1	4.6155e-07	3.9876e-07	1215.1	389.26	4.4931e-07	4.0074e-07	506.89	189.51	137.76	60.282	4.4323e-07	91.513	313.082	95.409	107.581	58.558	194.013	194.504	57.652	64.148	175.405	190.175	61.814	66.296	68.513	73.863	143.688	70.452	-8191	255	
8586.663	1	1	0	0	0.10565	0.31933	0.07233	0.10854	0.22362	0.11064	0.25021	0.44885	0.39451	0.11645	0.24616	0.25209	0.1992	0.16809	0.17503	0.28343	-3.0729	-2.8042	-3.5687	-3.4417	-2.9375	-3.7604	-3.3167	-3.3354	-3.6854	-2.9604	-3.6688	-3.4229	-3.0375	-3.6896	-3.1125	-3.4062	375.999	348.826	256.890	334.307	320.955	322.714	386.568	359.075	169.528	337.804	336.990	294.425	366.928	87.010	56.012	385.339	0.001642	0.00028595	0.00018392	1232.3	5.9683e-06	4.026e-06	1438.7	463.01	3.7718e-06	3.996e-06	618.92	230.83	166.48	72.4	4.1541e-06	112.43	5.8757e-05	3.8684e-05	1.1e-05	1062.1	4.541e-07	3.906e-07	1219.3	389.22	4.4418e-07	4.1682e-07	510.65	190.37	138.06	60.409	4.9444e-07	92.012	310.388	105.573	101.734	58.515	164.212	180.438	57.665	64.042	162.394	199.597	62.017	66.502	68.571	73.858	180.428	70.370	-8191	255	
8586.735	1	1	0	0	0.28139	0.091388	0.17002	0.20386	0.35171	0.07115	0.12688	0.0018776	0.040111	0.18773	0.29958	0.2803	0.22634	0.55473	0.12428	0.15174	-3.1875	-2.9208	-3.3187	-3.4604	-2.9021	-3.5833	-3.5125	-3.2979	-3.7	-3.0042	-3.4854	-3.6458	-3.1375	-3.7812	-3.2354	-3.2417	46.162	262.056	227.676	273.279	264.741	67.191	215.234	180.000	295.830	93.069	342.712	318.009	69.964	380.712	302.012	307.488	0.0018796	0.00039652	0.000211	1236.4	8.2285e-06	5.0265e-06	1441	464.11	6.3538e-06	3.1177e-06	621.55	230.88	166.69	72.199	3.4114e-06	111.64	5.7821e-05	3.8317e-05	1.2062e-05	1064.2	4.5335e-07	4.1513e-07	1225.3	389.49	4.3638e-07	4.1295e-07	512.66	190.26	138.32	60.317	5.029e-07	91.516	313.131	114.784	109.762	58.480	166.712	200.289	57.575	64.034	154.046	213.968	62.033	66.340	68.529	73.731	178.816	70.296	-8191	255	
8586.856	1	1	0	0	0.047185	0.18553	0.065022	0.087853	0.11449	0.10054	0.28637	0.23814	0.14999	0.15145	0.27486	0.40056	0.1654	0.38915	0.11769	0.23964	-3.3292	-2.9479	-3.1979	-3.6917	-3.025	-3.6917	-3.4	-3.1458	-3.5312	-3.1729	-3.4979	-3.5812	-3.0396	-3.7292	-3.4042	-3.1708	234.994	225.950	184.628	394.478	358.753	329.281	367.370	345.821	346.787	312.319	392.590	328.976	354.912	382.910	118.087	350.281	0.0016827	0.00051421	0.00018145	1225.6	8.0015e-06	4.8843e-06	1421.9	456.29	5.0542e-06	4.6239e-06	610.17	227.95	165.07	71.699	4.6541e-06	110.59	5.5316e-05	4.027e-05	1.2691e-05	1054.4	4.365e-07	4.3478e-07	1207	384.76	4.1129e-07	4.5229e-07	503.09	187.17	136.87	59.793	5.0356e-07	90.521	316.959	121.239	122.141	58.427	179.201	219.090	57.498	64.055	180.733	157.705	61.867	66.313	68.624	73.705	182.982	70.582	-8191	255	
8586.950	1	1	0	0	0.03386	0.20407	0.22829	0.30612	0.25162	0.18244	0.22466	0.19083	0.14576	0.20129	0.17219	0.03962	0.028389	0.24266	0.23956	0.094942	-3.1896	-3.1854	-3.1979	-3.6771	-3.025	-3.5854	-3.4271	-3.0083	-3.6104	-3.2313	-3.3083	-3.6333	-2.9125	-3.4479	-3.4562	-2.8667	154.502	152.780	47.802	116.713	263.972	361.484	318.437	373.421	164.695	368.800	88.032	109.182	67.085	307.317	134.464	335.340	0.0018525	0.00035045	0.0002916	1224.1	7.23e-06	6.921e-06	1418.1	459.88	4.3217e-06	4.3621e-06	612.3	229.11	164.25	71.62	4.7937e-06	110.76	5.4967e-05	4.2953e-05	1.2324e-05	1050.8	4.3078e-07	4.6436e-07	1203.3	385.03	4.0797e-07	4.7556e-07	504.36	188.1	136.78	59.878	4.6575e-07	90.81	310.067	122.445	96.797	58.615	176.179	184.822	57.754	63.936	171.830	187.378	62.023	66.494	68.727	73.961	177.694	70.472	-8191	255	
8587.046	1	1	0	0	0.038601	0.10599	0.16609	0.33447	0.046856	0.077891	0.064605	0.36756	0.18445	0.050657	0.071075	0.28851	0.095787	0.32058	0.16002	0.36962	-3.2354	-3.2167	-3.1125	-3.5625	-3.0146	-3.3083	-3.5354	-2.8708	-3.6125	-3.2188	-3.2979	-3.575	-3.0854	-3.4938	-3.7562	-2.9479	200.651	99.858	226.467	394.396	130.485	48.395	72.053	356.012	270.679	328.978	395.757	347.911	340.051	341.368	137.139	355.445	0.0017252	0.00050226	0.00016003	1220.7	7.5425e-06	4.6015e-06	1427.2	461.45	6.4091e-06	3.9058e-06	618.89	230.01	165.08	71.995	6.3712e-06	111.39	5.568e-05	4.54e-05	1.185e-05	1052	4.2314e-07	4.7961e-07	1212.9	386.13	4.2359e-07	4.8951e-07	508.18	189.15	137.26	60.022	4.4705e-07	91.21	307.427	126.344	116.156	58.652	196.407	218.437	57.642	64.113	167.733	189.459	62.188	66.453	68.771	73.820	188.174	70.508	-8191	255	
8587.143	1	1	0	0	0.093192	0.24222	0.37561	0.15573	0.1164	0.071788	0.26523	0.3552	0.16003	0.095887	0.16829	0.22812	0.15181	0.060426	0.1489	0.1299	-3.2042	-3.2333	-2.8583	-3.6667	-2.9917	-3.0771	-3.775	-3	-3.5292	-3.4313	-2.9729	-3.6646	-3.3604	-3.3125	-3.6542	-3.2062	347.689	60.303	261.509	68.778	191.639	128.518	368.736	357.097	386.073	61.193	66.735	329.325	51.221	68.904	339.951	352.970	0.0018619	0.00043165	0.00022969	1230.4	5.1014e-06	4.309e-06	1431.9	461.11	6.8349e-06	3.0194e-06	616.76	229.65	164.73	71.222	4.64e-06	110.87	5.7493e-05	4.5391e-05	1.1326e-05	1055.7	4.6104e-07	4.9205e-07	1216.5	386.69	4.5859e-07	4.8339e-07	506.75	188.66	137.09	59.67	4.1816e-07	90.617	312.528	111.654	152.906	58.529	164.443	198.024	57.646	64.120	156.201	176.735	61.816	66.551	68.377	74.011	168.930	70.318	-8191	255	
8587.263	1	1	0	0	0.24561	0.18768	0.17855	0.14906	0.19309	0.22354	0.21373	0.38235	0.11986	0.062499	0.28121	0.33837	0.27102	0.33147	0.1499	0.19288	-2.925	-3.2708	-2.8146	-3.7917	-3.2417	-3.0667	-3.6979	-3.0479	-3.3917	-3.4167	-2.9	-3.6542	-3.3729	-3.2083	-3.5167	-3.0687	83.202	320.555	203.646	47.333	94.093	242.569	58.609	322.753	144.182	283.149	358.516	395.299	371.708	382.586	322.234	267.627	0.0017941	0.00035479	0.0001912	1226.2	6.7867e-06	3.6676e-06	1418.6	458.35	7.6679e-06	4.0073e-06	610.92	227.03	164.02	71.228	6.1361e-06	109.51	6.0524e-05	4.2801e-05	1.1114e-05	1052	4.8832e-07	4.5064e-07	1204.2	384.68	4.8588e-07	4.4504e-07	502.34	186.9	136.75	59.533	4.1177e-07	89.854	307.258	130.467	86.278	58.588	169.133	218.559	57.610	64.192	157.582	197.858	61.631	66.562	68.410	73.910	173.202	70.320	-8191	255	
8587.359	1	1	0	0	0.10668	0.24852	0.087178	0.46866	0.24638	0.28354	0.10119	0.060238	0.24641	0.18557	0.053431	0.2092	0.23305	0.30745	0.19975	0.52028	-2.8354	-3.5042	-2.8438	-3.7021	-3.0563	-3.1979	-3.7479	-3.3229	-3.2417	-3.5479	-3.0271	-3.6604	-3.3667	-3.2167	-3.5958	-3.1896	344.846	94.959	194.838	402.906	216.754	203.736	350.908	321.043	121.388	79.324	220.373	329.488	380.794	393.464	246.868	396.789	0.0017578	0.00017278	0.00024605	1220.5	6.7392e-06	2.4439e-06	1410.9	459.1	6.3088e-06	2.4009e-06	608.95	228.97	164.22	71.679	4.5374e-06	110.5	6.1929e-05	4.0322e-05	1.0479e-05	1048.8	4.9917e-07	4.3427e-07	1200.3	384.97	5.0008e-07	4.1681e-07	502.21	187.87	136.96	59.906	4.0237e-07	90.498	311.766	123.991	93.122	58.594	181.625	193.454	57.687	64.175	174.038	165.355	62.056	66.294	68.624	74.124	183.035	70.414	-8191	255	
8587.431	1	1	0	0	0.068105	0.19105	0.23971	0.33194	0.15902	0.16394	0.12121	0.19479	0.14337	0.13426	0.34598	0.063454	0.12336	0.30032	0.19886	0.4167	-2.7438	-3.4125	-2.7854	-3.5042	-3.2729	-2.9813	-3.8187	-3.4042	-3.0042	-3.5354	-3.0563	-3.3125	-3.6	-3.1021	-3.5563	-3.4813	225.792	113.618	124.138	348.781	394.806	80.726	305.299	81.116	289.349	225.393	91.552	394.399	320.914	395.710	377.438	389.096	0.0017577	0.00026554	0.00016939	1226.9	7.492e-06	4.538e-06	1425.9	458.62	4.5102e-06	5.1417e-06	612.96	228.57	164.97	71.485	4.2416e-06	110.9	6.2426e-05	3.8343e-05	1.0274e-05	1052.3	4.6827e-07	4.3146e-07	1211.6	383.92	4.7576e-07	4.0862e-07	505.26	188.45	136.75	59.643	4.1391e-07	90.731	312.141	128.447	74.411	58.662	160.287	202.879	57.645	63.922	176.619	208.938	61.614	66.356	68.787	73.793	160.563	70.452	-8191	255	
8587.552	1	1	0	0	0.11286	0.12899	0.17024	0.17667	0.048382	0.083573	0.14166	0.10198	0.19125	0.12407	0.25331	0.12176	0.33876	0.23035	0.23985	0.099148	-2.6917	-3.5646	-2.6917	-3.4729	-3.5292	-2.7083	-3.6604	-3.4042	-2.9979	-3.5271	-3.0479	-3.3417	-3.5042	-2.9437	-3.5667	-3.225	266.318	83.303	264.173	369.198	170.981	138.789	367.441	127.946	183.277	115.584	50.103	372.393	398.058	398.105	178.772	253.598	0.0017271	0.00047842	0.0001487	1229.2	5.9266e-06	5.4296e-07	1437.2	459.61	4.5223e-06	4.8557e-06	613.64	229.76	164.49	71.252	5.9063e-06	110.45	6.0169e-05	3.7256e-05	1.0522e-05	1057.8	4.5492e-07	4.1588e-07	1220.2	385.92	4.5774e-07	3.9551e-07	505.43	188.89	136.63	59.445	4.2382e-07	90.472	311.485	118.009	111.245	58.628	173.026	191.976	57.451	63.737	160.528	167.659	61.909	66.478	68.621	73.691	153.510	70.673	-8191	255	
8587.648	1	1	0	0	0.052627	0.15269	0.098732	0.30469	0.057899	0.12381	0.21395	0.19903	0.045135	0.17395	0.26752	0.097524	0.23997	0.12436	0.13414	0.14455	-2.6333	-3.6188	-3.0062	-3.2542	-3.4083	-2.9292	-3.5896	-3.475	-2.8667	-3.3792	-3.0062	-3.2396	-3.7062	-2.7729	-3.45	-3.4292	334.026	303.044	163.525	354.764	99.490	144.842	405.721	54.419	271.624	274.898	352.880	349.359	77.380	376.541	398.339	49.382	0.0018349	0.00032385	0.000228	1225.9	5.1507e-06	3.1454e-06	1420.4	458.67	2.8874e-06	4.1853e-06	611.27	227.62	164.85	70.95	5.0434e-06	109.41	5.7915e-05	3.4887e-05	1.1087e-05	1054.5	4.3496e-07	3.9769e-07	1207.9	384.7	4.3233e-07	3.7943e-07	503.89	186.96	136.36	59.275	4.5997e-07	89.564	312.768	146.856	99.102	58.758	174.865	193.943	57.382	64.320	165.560	169.240	61.931	66.646	68.475	73.725	177.893	70.548	-8191	255	
8587.744	1	1	0	0	0.25316	0.19262	0.10696	0.1422	0.15326	0.043802	0.027145	0.062764	0.22617	0.1076	0.22268	0.17671	0.31252	0.20093	0.19473	0.18407	-2.4604	-3.3833	-2.9813	-2.9917	-3.5729	-2.8729	-3.3729	-3.475	-2.9792	-3.5042	-3.1896	-3.1271	-3.6625	-2.8083	-3.2979	-3.5146	204.609	113.224	53.573	68.770	329.381	253.526	185.458	382.419	184.286	381.006	360.967	396.823	83.369	363.325	99.396	358.762	0.0018189	0.00047994	0.00018429	1222.8	5.4429e-06	4.3227e-06	1426	459.07	5.76e-06	2.7678e-06	615.8	229.98	165.43	71.241	5.3768e-06	110.06	5.5438e-05	3.4183e-05	1.1475e-05	1050.3	4.1219e-07	4.0192e-07	1210.3	384.87	4.125e-07	3.827e-07	506.15	188.48	136.95	59.384	4.6707e-07	90.285	311.665	135.803	99.486	58.675	180.909	185.598	57.565	64.275	166.625	161.807	61.908	66.633	68.772	73.716	181.954	70.636	-8191	255	
8587.865	1	1	0	0	0.16219	0.10591	0.26208	0.20042	0.23668	0.3545	0.19029	0.34638	0.2512	0.085505	0.33908	0.28672	0.20071	0.2517	0.15122	0.15238	-2.375	-3.5417	-3.4938	-2.9708	-3.7979	-2.9667	-3.3354	-3.5187	-2.7292	-3.6604	-3.3729	-3.1292	-3.7896	-3.1521	-3.0792	-3.6625	72.530	134.848	107.760	284.230	100.735	128.768	360.644	374.488	269.463	162.250	311.722	346.725	341.485	396.846	287.472	316.246	0.0017165	0.00039666	0.00020975	1224.4	4.9705e-06	3.7728e-06	1440.4	457.59	6.2432e-06	3.5522e-06	616.6	231.76	165.99	71.377	4.9053e-06	111.28	5.4167e-05	3.5934e-05	1.1952e-05	1052.4	3.8133e-07	4.0522e-07	1222.7	385.01	4.0993e-07	3.9985e-07	508.97	189.98	137.33	59.544	4.6119e-07	91.179	313.419	146.089	123.322	58.594	178.692	194.519	57.570	64.304	171.055	193.283	61.687	66.397	68.525	73.767	167.778	70.509	-8191	255	
8587.959	1	1	0	0	0.36644	0.016499	0.085992	0.23455	0.022686	0.11699	0.24438	0.18381	0.19662	0.11907	0.25674	0.026953	0.08822	0.28754	0.10015	0.20349	-2.5521	-3.4271	-3.4375	-2.9188	-3.6854	-3.2771	-3.3937	-3.6333	-3.0979	-3.4542	-3.4271	-3.0333	-3.8708	-3.2667	-3.1167	-3.7792	196.793	151.598	215.305	94.635	332.724	230.749	367.631	319.764	236.507	118.218	398.072	363.764	66.514	385.998	209.291	331.589	0.0017789	0.00055805	0.00022846	1226.8	7.8657e-06	5.5719e-06	1444.1	456.82	3.3537e-06	5.6984e-06	617.17	231.24	164.97	71.3	4.3206e-06	110.87	5.4416e-05	3.8225e-05	1.1673e-05	1056.5	3.818e-07	4.2771e-07	1230.4	385.05	3.8749e-07	4.3085e-07	508.91	189.54	137.25	59.45	4.4148e-07	90.356	311.018	112.357	105.036	58.575	177.787	195.865	57.462	63.885	174.427	178.603	61.905	66.518	68.416	74.024	178.555	70.641	-8191	255	
8588.032	1	1	0	0	0.31571	0.13604	0.23578	0.31024	0.27751	0.27295	0.36967	0.099022	0.15139	0.26866	0.49156	0.18525	0.11222	0.29196	0.10393	0.44201	-2.5	-3.2979	-3.15	-3.0354	-3.4479	-3.2958	-3.2313	-3.6417	-3.0687	-3.2938	-3.5812	-2.8104	-3.6813	-3.4229	-2.8229	-3.6625	67.140	207.373	46.413	64.560	296.577	131.410	382.826	49.749	297.060	261.657	335.039	328.240	74.837	369.039	261.112	321.516	0.0018111	0.00014381	0.00022335	1221.5	5.517e-06	4.3862e-06	1427	457.66	2.6767e-06	2.019e-06	611.34	227.2	164.66	70.181	2.754e-06	109.02	5.2863e-05	4.0552e-05	1.0428e-05	1051.2	3.8556e-07	4.3847e-07	1214.6	383.94	4.138e-07	4.4911e-07	502.7	186.75	136.48	58.652	4.0984e-07	88.858	311.674	108.710	83.912	58.794	174.562	225.027	57.558	63.896	149.834	206.291	62.140	66.531	68.755	74.000	173.224	70.579	-8191	255	
8588.127	1	1	0	0	0.21359	0.17355	0.055685	0.29094	0.124	0.10328	0.13684	0.20119	0.3638	0.12292	0.18579	0.22395	0.25937	0.25663	0.11948	0.1691	-2.5771	-3.2625	-3.5396	-2.9437	-3.3771	-3.3708	-3.2542	-3.6542	-3.0417	-3.1604	-3.7062	-3.2021	-3.6312	-3.5687	-2.9125	-3.7146	56.097	89.985	374.510	382.496	305.575	133.409	248.315	333.139	244.760	149.687	403.520	357.732	359.802	95.074	164.811	321.841	0.0017313	0.00052456	0.00024853	1220.4	6.0586e-06	2.851e-06	1428.4	458.48	4.68e-06	3.4968e-06	614.99	228.44	166.08	71.153	4.8786e-06	110.62	5.4698e-05	4.0496e-05	9.7403e-06	1046.9	4.0323e-07	4.4275e-07	1209.7	383.42	4.4337e-07	4.291e-07	504.51	187.8	137.59	59.654	4.163e-07	90.522	309.779	135.861	123.380	58.711	174.995	178.116	57.811	63.958	174.523	191.953	62.103	66.747	68.506	73.976	160.516	70.402	-8191	255	
8588.225	1	1	0	0	0.16427	0.020684	0.13448	0.20713	0.29275	0.013542	0.29196	0.27963	0.14556	0.11647	0.059327	0.49471	0.19173	0.13487	0.1633	0.20771	-2.75	-3.0083	-3.4667	-3.0896	-3.4688	-3.4062	-3.225	-3.5833	-3.2313	-3.0708	-3.7062	-3.1479	-3.5146	-3.5604	-2.7833	-3.775	377.691	337.360	235.763	336.900	165.936	371.047	349.272	324.063	295.475	279.197	132.019	348.719	84.961	381.941	55.467	370.640	0.0018153	0.00047597	0.00015364	1222.8	6.824e-06	5.4795e-06	1436.7	462.19	6.4429e-06	4.3229e-06	620.85	234.26	169.04	73.332	4.1946e-06	112.9	5.9078e-05	3.9929e-05	1.0023e-05	1052	4.545e-07	4.1626e-07	1220.1	387.16	4.5832e-07	4.22e-07	510.63	192.43	140.56	61.121	4.0316e-07	92.453	314.507	102.437	117.643	58.437	197.363	221.262	57.653	64.103	183.348	146.303	62.240	66.554	68.427	73.791	150.305	70.511	-8191	255	
8588.344	1	1	0	0	0.044554	0.13788	0.13401	0.39891	0.30332	0.25372	0.1659	0.14398	0.024938	0.18353	0.22956	0.040716	0.16058	0.018523	0.091161	0.091232	-2.8646	-2.8646	-3.5083	-3.3229	-3.2375	-3.4458	-3.0125	-3.5604	-3.3167	-2.9875	-3.6417	-3.1396	-3.1479	-3.6708	-2.9167	-3.6813	253.659	93.569	188.737	355.102	187.026	229.789	347.250	155.132	246.820	179.868	335.714	391.785	375.209	375.224	287.611	272.563	0.001857	0.00013872	0.0001788	1228.2	6.9754e-06	3.3753e-06	1443.9	463.4	5.4595e-06	4.7594e-06	623.13	237.24	172.05	73.501	4.856e-06	113.78	6.1156e-05	3.7651e-05	9.5008e-06	1056.1	4.5868e-07	4.0165e-07	1229.2	388.75	4.5715e-07	4.0544e-07	513.64	194.81	142.49	61.38	3.9766e-07	92.77	310.074	126.810	115.715	58.678	178.112	201.900	57.595	64.047	161.213	184.945	62.124	66.360	68.596	73.810	147.713	70.631	-8191	255	
8588.440	1	1	0	0	0.25864	0.2062	0.058772	0.069153	0.057333	0.16329	0.33358	0.22559	0.082669	0.28043	0.36678	0.29629	0.21159	0.24658	0.071641	0.19965	-2.9167	-3.0167	-3.4938	-3.2646	-3.1688	-3.4542	-2.9875	-3.3375	-3.35	-2.9729	-3.6562	-3.3271	-3.3458	-3.7062	-2.7646	-3.5521	221.462	268.286	361.522	249.922	149.401	307.706	273.851	331.240	78.254	402.805	348.734	385.551	387.984	375.746	108.806	339.071	0.0018126	0.0002155	0.00016329	1236.2	5.7747e-06	2.4827e-06	1441	464.61	5.3986e-06	2.0528e-06	622.05	236.19	172.71	73.406	5.4788e-06	113.28	5.9941e-05	3.6627e-05	9.3416e-06	1063.6	4.4809e-07	3.7847e-07	1222.3	390.56	4.3563e-07	3.8793e-07	512.28	193.93	142.75	61.172	4.0083e-07	92.56	312.252	131.258	124.803	58.640	191.705	218.980	57.816	64.018	174.662	183.001	61.691	66.319	68.558	73.854	185.647	70.428	-8191	255	
8588.536	1	1	0	0	0.077312	0.33209	0.041214	0.2769	0.066238	0.063746	0.2313	0.26778	0.19866	0.20931	0.26804	0.29952	0.34995	0.27726	0.13485	0.2625	-2.9229	-2.7208	-3.6583	-3.2687	-2.9167	-3.5021	-3.2979	-3.3563	-3.4229	-2.9604	-3.6229	-3.3458	-3.2354	-3.7792	-3.0083	-3.325	209.358	220.546	201.289	319.148	387.883	111.444	382.596	343.828	87.232	188.172	344.791	370.689	74.267	392.707	162.174	366.296	0.0018352	0.00026656	0.00017547	1237.6	6.8989e-06	5.0997e-06	1441.8	466.41	4.9183e-06	2.8849e-06	623.89	237.6	173.36	73.933	5.7529e-06	113.66	5.7088e-05	3.5235e-05	9.5214e-06	1065	4.2024e-07	3.7936e-07	1225.3	391.4	4.1185e-07	3.8963e-07	515.51	195.59	143.48	61.564	4.2047e-07	93.1	312.814	98.557	111.555	58.496	145.890	207.113	57.787	64.224	177.877	167.131	61.704	66.399	68.829	73.796	154.486	70.393	-8191	255	
8588.632	1	1	0	0	0.27241	0.055941	0.35828	0.28537	0.14249	0.21029	0.32172	0.040806	0.20661	0.35514	0.17186	0.11218	0.17492	0.22927	0.13989	0.15945	-3.0438	-2.9417	-3.4208	-3.4583	-3.1042	-3.8271	-3.3937	-3.3854	-3.5229	-2.9437	-3.6542	-3.525	-3.0104	-3.7313	-2.9708	-3.3854	305.218	361.395	79.927	382.435	401.788	346.655	382.437	391.235	337.081	231.505	352.992	85.392	337.713	70.400	307.071	331.789	0.001708	0.00051166	0.00010564	1248.9	3.3371e-06	5.5096e-06	1457	470.62	6.6311e-06	4.609e-06	631.37	241.29	173.95	73.846	5.6358e-06	114.6	5.5476e-05	3.5663e-05	9.8622e-06	1075	4.1311e-07	3.8086e-07	1238.2	395.07	4.1613e-07	3.7899e-07	521.12	197.73	144.61	61.525	4.5264e-07	93.882	309.374	126.523	126.105	58.860	158.225	173.619	57.593	64.294	154.132	171.598	61.638	66.468	68.763	73.926	196.559	70.579	-8191	255	
8588.728	1	1	0	0	0.050397	0.31238	0.057076	0.10315	0.18082	0.11728	0.10017	0.12564	0.25981	0.18119	0.17198	0.33438	0.12364	0.39201	0.016335	0.073306	-3.1458	-2.9958	-3.4021	-3.5417	-2.9042	-3.6688	-3.2104	-3.2104	-3.6625	-3.0479	-3.5021	-3.7562	-2.8458	-3.7875	-3.2062	-3.0917	296.983	100.079	98.890	377.243	248.392	61.514	383.072	355.213	383.538	161.192	338.334	338.989	353.609	357.545	97.168	195.312	0.0017867	0.00056838	0.00019435	1255	6.0804e-06	6.4119e-06	1465.7	473.15	4.4916e-06	3.2787e-06	636.27	241.11	174.52	73.249	6.058e-06	113.8	5.6311e-05	3.4668e-05	1.0756e-05	1076.7	4.0367e-07	3.7748e-07	1246.4	396.65	4.0652e-07	3.8727e-07	522.87	197.96	144.58	61.148	4.7348e-07	93	311.578	126.935	101.091	58.573	188.927	204.175	57.815	64.114	158.068	179.237	62.231	66.615	68.553	73.746	176.361	70.805	-8191	255	
8588.824	1	1	0	0	0.1589	0.12444	0.065955	0.11189	0.24677	0.13761	0.18368	0.16218	0.25694	0.13748	0.10722	0.20945	0.1609	0.36067	0.21507	0.32792	-3.2542	-3.0187	-3.1542	-3.6896	-2.975	-3.6042	-3.475	-3.125	-3.5979	-3.0854	-3.325	-3.5458	-3.1688	-3.5229	-3.4146	-3.0583	91.421	85.852	88.691	345.965	266.701	353.170	360.888	358.046	156.251	85.821	302.722	393.984	387.343	385.538	180.690	370.661	0.0017632	0.00054012	0.00016912	1247.2	6.3879e-06	4.6851e-06	1457.1	467.54	6.6589e-06	2.9531e-06	629.31	238.72	173.5	73.285	3.0663e-06	113.35	5.3544e-05	3.7904e-05	1.1718e-05	1073.7	4.1203e-07	4.0143e-07	1238	392.76	4.0242e-07	4.1779e-07	519.58	196.2	144.01	60.992	4.6668e-07	92.706	311.999	123.108	104.200	58.551	201.437	199.561	57.519	64.068	174.167	193.816	62.039	66.509	68.742	73.878	164.399	70.596	-8191	255	
8588.945	1	1	0	0	0.15178	0.22309	0.22072	0.21183	0.03851	0.083971	0.15917	0.25176	0.089899	0.19142	0.18314	0.15579	0.45337	0.1306	0.16483	0.14915	-3.1875	-3.1542	-3.0312	-3.9271	-3.0083	-3.4792	-3.4188	-3.0396	-3.6792	-3.25	-3.2479	-3.7208	-3.0417	-3.45	-3.475	-2.9604	381.478	137.319	385.347	355.697	53.142	242.361	324.625	320.178	118.874	125.572	47.591	307.257	351.018	48.297	402.509	343.070	0.0016711	0.00053361	0.00018293	1249.3	8.3105e-06	4.1203e-06	1459.6	467.86	4.3102e-06	4.3729e-06	629.72	239.91	173.2	72.354	5.2575e-06	113.1	5.2843e-05	4.1186e-05	1.1717e-05	1073.2	3.9839e-07	4.4661e-07	1236.9	392.3	3.9822e-07	4.4497e-07	518.99	196.5	143.89	60.722	4.67e-07	92.573	312.689	127.365	109.922	58.752	180.441	165.349	57.802	64.315	182.868	189.695	61.962	66.636	68.447	73.602	196.333	70.645	-8191	255	
8589.039	1	1	0	0	0.21359	0.22193	0.018173	0.20903	0.21539	0.098323	0.048116	0.13537	0.27634	0.10104	0.2924	0.043394	0.22399	0.28478	0.037044	0.098585	-3.1562	-3.1688	-2.9271	-3.775	-2.9313	-3.4146	-3.8208	-3.0021	-3.4875	-3.1542	-3.0583	-3.8271	-3.0667	-3.2042	-3.5563	-2.8792	386.523	367.349	103.430	344.798	334.480	80.655	307.272	374.175	270.303	292.485	92.880	150.935	110.563	351.442	390.904	320.793	0.0018757	0.00058994	9.1184e-05	1253.3	4.0095e-06	3.5708e-06	1469.1	468.82	5.0147e-06	3.1989e-06	629.16	240.59	173.7	72.739	4.5008e-06	114.01	5.3952e-05	4.2377e-05	1.1189e-05	1076.6	4.1447e-07	4.6691e-07	1246.4	393.71	4.183e-07	4.7629e-07	521.01	197.56	144.02	60.749	4.3644e-07	93.039	310.835	139.968	133.881	58.614	188.716	199.139	57.570	64.199	173.675	161.546	61.882	66.668	68.805	73.849	152.186	70.830	-8191	255	
8589.135	1	1	0	0	0.12185	0.076349	0.35465	0.38932	0.24452	0.06209	0.27833	0.048268	0.14408	0.21683	0.19832	0.30796	0.11335	0.29481	0.1014	0.14161	-3.1562	-3.2021	-3.0542	-3.6833	-3.0917	-3.2271	-3.7396	-2.9667	-3.3521	-3.3187	-3.0417	-3.7271	-3.2438	-3.3083	-3.6854	-3.0271	213.300	361.832	185.115	393.983	284.066	327.462	51.994	292.010	59.623	402.316	376.894	386.692	67.121	352.113	184.879	51.803	0.0019446	0.00042368	0.00012019	1246.9	5.4258e-06	4.1798e-06	1473	472.03	5.1925e-06	3.2403e-06	632.01	240.23	173.36	72.463	3.7095e-06	112.46	5.7377e-05	4.41e-05	1.0866e-05	1075.2	4.4483e-07	4.6914e-07	1247.2	394.44	4.5448e-07	4.6355e-07	520.78	196.78	143.81	60.387	4.3338e-07	92.156	311.566	115.212	104.627	58.728	167.463	198.366	57.610	64.068	159.654	182.507	61.909	66.573	68.430	73.689	168.356	70.686	-8191	255	
8589.256	1	1	0	0	0.077344	0.10761	0.11267	0.12946	0.08533	0.052935	0.31117	0.33848	0.061686	0.13248	0.11442	0.38489	0.14349	0.029901	0.2713	0.22603	-3.0458	-3.4708	-2.7625	-3.6375	-3.1208	-3.1896	-3.7875	-3.0021	-3.4167	-3.4792	-3.0687	-3.675	-3.4271	-3.1792	-3.7146	-3.2417	351.660	175.683	285.191	205.923	356.722	119.658	312.669	399.551	210.147	198.348	258.843	364.391	341.470	301.379	133.118	356.191	0.0019594	0.00038945	0.00012024	1254.8	7.7519e-06	3.8812e-06	1466.3	466.38	7.5289e-06	5.3998e-06	628.01	236.89	172.01	71.676	2.4242e-06	111.7	6.0835e-05	4.2162e-05	1.0686e-05	1077.1	4.8703e-07	4.5801e-07	1240.2	391.54	4.8933e-07	4.4396e-07	516.75	194.81	143	59.927	4.1971e-07	91.364	308.729	104.454	114.587	58.763	176.898	205.323	57.398	64.232	164.764	196.046	61.878	66.476	68.351	73.812	185.105	70.547	-8191	255	
8589.328	1	1	0	0	0.016547	0.22204	0.20333	0.31385	0.10127	0.17435	0.16009	0.13206	0.10937	0.10554	0.060265	0.3646	0.15805	0.16834	0.093945	0.23672	-3.0333	-3.3854	-2.7771	-3.6271	-3.2208	-2.9979	-3.8375	-3.2208	-3.3792	-3.4979	-3.1542	-3.5687	-3.3604	-3.175	-3.7438	-3.1625	255.294	248.095	376.342	351.317	146.871	203.421	325.787	388.929	239.245	113.578	73.712	380.027	336.236	402.947	229.736	327.032	0.0019541	0.00042262	0.00011025	1251.7	6.6858e-06	3.934e-06	1470.2	469.26	3.656e-06	2.8752e-06	630.95	237.95	173.08	72.018	4.332e-06	111.5	6.2983e-05	4.0677e-05	1.0626e-05	1077.8	5.0078e-07	4.3974e-07	1243.4	393.04	5.0076e-07	4.3627e-07	518.72	195.55	143.74	60.048	4.1953e-07	91.649	307.618	135.568	78.690	58.699	178.612	207.304	57.652	64.039	179.517	185.074	62.086	66.878	68.820	73.927	164.585	70.651	-8191	255	
8589.424	1	1	0	0	0.32002	0.16114	0.22422	0.095289	0.18722	0.21289	0.17638	0.084906	0.20682	0.25494	0.15566	0.13142	0.12719	0.16831	0.034562	0.30732	-2.6188	-3.525	-2.875	-3.6375	-3.3729	-2.8438	-3.6104	-3.2958	-3.0792	-3.7667	-3.1229	-3.6167	-3.4417	-3.0729	-3.5021	-3.3229	395.081	303.800	222.277	369.618	64.522	336.192	311.256	380.837	47.886	215.980	382.758	74.845	385.665	358.260	169.774	331.628	0.0018338	0.0003558	4.7663e-05	1256.6	4.5528e-06	4.0696e-06	1461.8	467.73	5.5051e-06	5.1069e-06	630.4	237.05	172.54	71.512	5.2198e-06	112.02	6.1927e-05	4.0083e-05	1.0714e-05	1080.1	4.8578e-07	4.2961e-07	1243.2	393.15	4.9816e-07	4.2719e-07	518.62	195.57	143.53	59.669	4.3303e-07	91.792	309.337	129.320	131.173	58.791	173.826	220.529	57.680	64.236	169.293	169.006	61.758	66.562	68.485	73.957	157.526	70.466	-8191	255	
8589.520	1	1	0	0	0.081321	0.18454	0.16483	0.16591	0.057749	0.21786	0.28008	0.2594	0.072999	0.21977	0.36229	0.22949	0.22861	0.12591	0.2247	0.25709	-2.7729	-3.5521	-2.7979	-3.1979	-3.4417	-2.8729	-3.4792	-3.4062	-3.1354	-3.6854	-3.0312	-3.3896	-3.5583	-3.0604	-3.3833	-3.4104	360.623	241.062	130.781	386.876	230.401	340.236	339.227	361.328	103.360	161.981	381.648	301.073	60.398	80.629	362.021	366.784	0.0018162	0.00037082	0.00022054	1252.3	3.9278e-06	2.6144e-06	1464.3	467.08	6.7294e-06	3.9786e-06	629.26	237.17	171.51	71.345	5.6014e-06	110.58	6.2337e-05	4.0058e-05	1.1229e-05	1081.3	4.7999e-07	4.3555e-07	1246.2	393.27	4.8542e-07	4.2432e-07	518.67	195.28	142.58	59.542	4.785e-07	90.739	311.265	94.976	114.159	58.761	177.828	170.700	57.332	64.133	172.855	181.724	61.899	66.568	68.610	73.689	178.784	70.694	-8191	255	
8589.641	1	1	0	0	0.15515	0.12458	0.17517	0.19854	0.11674	0.19661	0.20255	0.068189	0.17653	0.24337	0.17574	0.27121	0.17024	0.16698	0.0924	0.20436	-2.4604	-3.5917	-2.8688	-3.225	-3.5167	-2.8375	-3.6167	-3.4375	-2.9333	-3.5396	-3.1208	-3.2917	-3.7333	-3.1958	-3.4562	-3.4313	71.434	87.443	309.419	336.718	269.872	345.262	361.242	128.740	394.390	164.382	335.420	393.050	93.402	49.603	349.036	55.178	0.0018324	0.00049272	0.00016322	1243.6	8.0892e-06	2.9011e-06	1446.3	466.87	5.3667e-06	5.0103e-06	619.6	234.55	170.43	70.76	6.4871e-06	109.94	6.139e-05	3.9472e-05	1.1928e-05	1072.5	4.8142e-07	4.2761e-07	1230.2	390.12	4.7424e-07	4.2438e-07	511.5	192.8	141.81	59.13	5.1572e-07	90.208	312.964	95.283	131.023	58.521	156.525	180.850	57.721	64.109	168.131	145.013	62.343	66.478	68.620	73.654	143.375	70.655	-8191	255	
8589.737	1	1	0	0	0.15465	0.072877	0.25469	0.26084	0.17967	0.16482	0.080237	0.29213	0.12085	0.10618	0.085087	0.20524	0.09229	0.14577	0.17071	0.16405	-2.525	-3.5479	-3.1021	-3.2417	-3.6063	-3.1312	-3.4583	-3.5333	-2.9375	-3.6375	-3.3708	-3.175	-3.6562	-3.0958	-3.3021	-3.5833	313.281	399.509	304.282	390.819	206.415	313.870	65.559	51.353	362.747	369.269	165.350	341.578	73.927	48.810	258.783	150.611	0.0017286	0.00050835	0.00018416	1245.1	7.1924e-06	6.4291e-06	1441.4	465.08	5.738e-06	3.9132e-06	622.36	233.83	170.85	70.553	4.3619e-06	110.76	6.0313e-05	3.9653e-05	1.3102e-05	1070.5	4.5085e-07	4.4925e-07	1226.6	389.66	4.8052e-07	4.4124e-07	512.41	193	141.62	59.125	5.4452e-07	90.555	312.906	112.051	124.640	58.610	162.503	199.039	57.793	64.125	187.818	176.585	61.700	66.612	68.966	74.046	187.655	70.571	-8191	255	
8589.833	1	1	0	0	0.17638	0.10632	0.090778	0.089644	0.16793	0.090207	0.047383	0.26969	0.27193	0.13355	0.30521	0.15109	0.29829	0.088819	0.024663	0.18535	-2.5208	-3.525	-3.2562	-3.1188	-3.7875	-3.1771	-3.4583	-3.6813	-2.7687	-3.675	-3.2917	-3.1833	-3.6479	-3.2771	-3.1958	-3.7313	328.489	149.748	190.659	235.595	164.285	89.229	382.666	303.211	92.981	200.644	383.454	356.387	186.911	345.292	210.909	362.674	0.0016941	0.00067852	0.00016806	1242.8	5.1294e-06	4.2256e-06	1443.2	462.98	4.397e-06	5.1569e-06	620.72	235.45	171.36	70.59	3.8999e-06	111.27	5.9665e-05	4.3328e-05	1.3959e-05	1069	4.6065e-07	4.7261e-07	1227.7	388.42	4.5447e-07	4.771e-07	512.88	193.34	141.63	59.06	5.474e-07	90.775	318.649	104.845	102.521	58.642	195.715	173.057	57.619	64.129	145.912	179.534	61.913	66.651	68.795	73.953	150.515	70.759	-8191	255	
8589.905	1	1	0	0	0.26096	0.14731	0.23798	0.44155	0.19402	0.13485	0.18037	0.059246	0.21366	0.17699	0.35737	0.17293	0.34305	0.094658	0.17765	0.16981	-2.5771	-3.4271	-3.1188	-3.125	-3.6562	-3.3187	-3.3917	-3.8083	-2.9708	-3.5854	-3.4917	-3.0271	-3.6188	-3.2208	-3.0708	-3.8812	157.706	211.693	99.935	392.735	54.888	376.480	322.208	376.543	337.570	395.500	341.131	268.819	377.936	60.711	385.746	357.887	0.0018056	0.00046273	0.0001502	1242.2	7.9075e-06	4.2613e-06	1452.1	461.51	8.9825e-06	2.8742e-06	622.72	234.85	170.37	70.676	5.8981e-06	110.34	5.962e-05	4.6349e-05	1.3424e-05	1071.1	4.4149e-07	5.1893e-07	1231.4	387.45	4.5993e-07	5.1624e-07	512.91	193	141.46	58.981	5.2072e-07	90.479	310.451	130.802	118.720	58.916	169.114	224.721	57.917	64.164	160.623	170.995	61.994	66.845	68.547	73.893	171.561	70.374	-8191	255	
8590.024	1	1	0	0	0.024583	0.12419	0.07059	0.2538	0.048984	0.12686	0.1439	0.1825	0.098186	0.056756	0.60816	0.12131	0.16149	0.25891	0.13158	0.39424	-2.5729	-3.4583	-3.4646	-3.1562	-3.5625	-3.4146	-3.1292	-3.8271	-3.0208	-3.2458	-3.6625	-3.0771	-3.5667	-3.4708	-2.9875	-3.75	130.382	274.086	296.100	385.890	381.323	177.962	358.727	371.062	167.641	91.972	391.398	362.235	342.003	105.697	75.177	383.045	0.0018116	0.00045334	0.00010373	1243.1	7.0642e-06	1.4456e-06	1439.2	461.84	3.6644e-06	4.3499e-06	620.01	234.52	171.44	70.671	3.6602e-06	110.59	5.9411e-05	4.873e-05	1.2607e-05	1069.7	4.6327e-07	5.3255e-07	1222.4	388.3	4.7058e-07	5.4466e-07	511.65	192.31	141.89	59.015	4.9866e-07	90.267	310.261	132.046	97.707	58.547	183.847	178.033	57.614	64.389	146.494	219.968	62.025	66.603	68.598	74.153	218.067	70.466	-8191	255	
8590.120	1	1	0	0	0.019483	0.059905	0.002367	0.31363	0.31608	0.099445	0.26327	0.1257	0.13072	0.16176	0.15704	0.2011	0.25741	0.098086	0.10135	0.034142	-2.8208	-3.1125	-3.4646	-3.1188	-3.5083	-3.1583	-3.0021	-3.7125	-3.1167	-3.3021	-3.7542	-3.0187	-3.4917	-3.4229	-3.0021	-3.8583	76.055	297.869	205.806	386.150	243.373	405.599	363.440	326.302	274.542	229.518	99.579	394.855	341.134	205.216	181.757	94.321	0.001818	0.00053667	9.2646e-05	1237.6	7.9482e-06	3.4592e-06	1443.3	462.31	7.8931e-06	3.4068e-06	618.41	232.87	170.46	70.031	5.6073e-06	109.23	6.2475e-05	4.9108e-05	1.2157e-05	1062.6	5.1565e-07	5.3549e-07	1222.7	387.91	5.4397e-07	5.2249e-07	510.44	191.82	141.39	58.698	4.9331e-07	89.557	310.632	138.625	110.499	58.459	180.593	155.235	57.664	64.278	167.831	167.619	62.031	66.668	68.845	73.673	170.100	70.665	-8191	255	
8590.216	1	1	0	0	0.28183	0.11774	0.29851	0.080834	0.12009	0.18991	0.13341	0.1387	0.1588	0.081516	0.088593	0.5497	0.18866	0.068179	0.1452	0.34713	-2.6625	-3.0083	-3.4729	-3.1292	-3.3292	-3.3542	-3.1312	-3.5958	-3.2417	-3.1688	-3.8063	-3.2146	-3.4792	-3.5771	-2.9188	-3.6813	259.714	208.412	125.544	265.674	127.015	104.999	376.480	197.562	281.537	65.571	305.163	380.939	68.555	46.405	57.761	305.253	0.0017266	0.0005865	0.00013177	1234.8	9.2675e-06	3.5165e-06	1431.8	460.53	3.9254e-06	2.5539e-06	618.99	233.1	169.95	70.04	3.705e-06	110.13	6.6728e-05	4.8201e-05	1.2004e-05	1061.9	5.6791e-07	5.1767e-07	1221.9	385.83	5.598e-07	5.2223e-07	509.73	192.14	141.32	58.618	4.7909e-07	90.19	313.518	122.635	99.153	58.583	146.299	201.233	57.650	64.389	153.039	172.212	62.109	66.653	68.653	73.957	184.761	70.560	-8191	255	
8590.336	1	1	0	0	0.057208	0.29319	0.13029	0.30944	0.1258	0.16667	0.080268	0.24791	0.12818	0.16029	0.26315	0.27777	0.35689	0.25423	0.19286	0.21764	-2.7875	-2.9729	-3.5333	-3.1854	-3.3771	-3.4208	-3.1083	-3.6917	-3.2479	-2.9208	-3.8229	-3.3458	-3.2646	-3.4604	-2.8542	-3.5062	255.116	340.472	330.824	393.474	59.086	78.347	404.090	321.630	200.275	205.010	322.487	59.470	55.592	355.133	367.641	386.716	0.0017169	0.00042368	0.00018424	1237.5	5.3852e-06	9.5363e-07	1441.6	464.41	5.9021e-06	4.2766e-06	621.96	234.02	170.74	70.362	2.9923e-06	109.12	6.9297e-05	4.5375e-05	1.1712e-05	1065.2	5.6578e-07	4.9882e-07	1229	388.74	5.6182e-07	5.0092e-07	511.36	192.31	141.76	58.806	4.776e-07	89.613	316.352	127.034	122.475	58.645	190.546	281.031	57.681	64.119	139.397	162.080	62.334	66.684	68.624	74.147	177.361	70.594	-8191	255	
8590.433	1	1	0	0	0.21666	0.24793	0.093036	0.31861	0.24347	0.11035	0.18898	0.22751	0.17591	0.12915	0.057592	0.1658	0.025538	0.12801	0.059779	0.43007	-2.9479	-2.9271	-3.5812	-3.2188	-3.1625	-3.6458	-3.0646	-3.5104	-3.4542	-2.9771	-3.6063	-3.2938	-3.0062	-3.75	-3.0021	-3.5979	298.295	92.086	185.260	398.722	195.516	116.857	346.676	302.086	358.514	287.257	210.039	352.881	352.153	402.880	356.168	325.994	0.0017342	0.00032267	0.00012698	1232.3	4.4398e-06	5.4318e-06	1438	461.81	7.4347e-06	3.5003e-06	616.11	232.5	169.86	70.057	5.5631e-06	109.5	6.8087e-05	4.3971e-05	1.1291e-05	1062.6	5.5658e-07	4.7471e-07	1217	387.35	5.4745e-07	4.8246e-07	508.06	191.33	141.47	58.588	4.7096e-07	89.481	307.567	154.684	117.127	58.433	166.980	180.981	57.601	64.304	203.803	170.425	61.910	66.838	68.410	73.872	184.533	70.731	-8191	255	
8590.529	1	1	0	0	0.079596	0.25445	0.12939	0.1553	0.12999	0.10617	0.21411	0.11228	0.085773	0.077178	0.21032	0.066957	0.27596	0.21565	0.26369	0.084586	-3.1167	-2.7917	-3.6729	-3.2521	-3	-3.5958	-3.0687	-3.4021	-3.1958	-2.7708	-3.6875	-3.2854	-3.0687	-3.8271	-3.075	-3.475	358.280	168.728	256.194	94.138	261.098	273.712	317.216	265.965	96.093	53.025	401.731	234.424	395.034	341.571	297.170	297.655	0.0017079	0.00040385	0.0001838	1237.4	4.8434e-06	5.4604e-06	1436.6	462.46	5.1361e-06	6.3573e-06	622.07	232.89	170.75	70.185	6.7509e-06	110.02	6.4568e-05	4.3922e-05	1.1844e-05	1063	5.1907e-07	4.6411e-07	1219.1	388.43	5.1585e-07	4.6042e-07	511.39	191.99	141.64	58.732	5.0411e-07	90.182	310.405	137.498	94.455	58.643	198.512	204.868	57.850	64.196	171.224	193.729	61.926	66.829	68.829	73.718	177.207	70.405	-8191	255	
8590.625	1	1	0	0	0.20188	0.14253	0.058892	0.20465	0.32282	0.1879	0.10354	0.18749	0.090839	0.083843	0.11372	0.21687	0.22015	0.039701	0.34752	0.18949	-3.0958	-2.8479	-3.4417	-3.3333	-3.0042	-3.7604	-3.3958	-3.3042	-3.4125	-2.9604	-3.6771	-3.5875	-2.9167	-3.7562	-3.0979	-3.3167	153.650	307.775	96.799	65.042	148.639	133.715	261.422	400.736	404.997	277.949	119.821	305.639	365.595	267.807	405.719	53.429	0.0017702	0.00046498	0.00028879	1242.1	9.5952e-06	5.3377e-06	1435.1	459.66	7.1272e-06	4.0445e-06	624.19	234.95	172.16	70.53	4.7686e-06	110.97	6.2096e-05	4.2427e-05	1.3013e-05	1068.6	5.0644e-07	4.4539e-07	1225.2	388.63	4.7483e-07	4.4556e-07	513.9	193.31	142.49	59.095	5.4363e-07	90.882	311.397	118.201	123.233	58.671	171.625	207.410	57.650	64.164	164.363	165.534	62.209	66.461	68.544	73.739	162.121	70.472	-8191	255	
8590.721	1	1	0	0	0.22763	0.082274	0.17948	0.17777	0.14613	0.15894	0.19328	0.3178	0.22521	0.18209	0.36789	0.12062	0.1168	0.3173	0.29187	0.16863	-3.1708	-3.0292	-3.3729	-3.4833	-2.6562	-3.6729	-3.2708	-3.3375	-3.7271	-3.0708	-3.6083	-3.475	-2.9521	-3.6208	-3.3083	-3.2042	85.273	290.994	330.867	328.266	209.532	381.362	286.591	371.641	168.885	350.751	357.469	152.562	70.847	380.874	357.504	297.222	0.0018506	0.00051664	0.0001693	1237.4	6.2952e-06	3.4579e-06	1430	463.42	7.9346e-06	4.8901e-06	620.07	233.39	170.48	70.315	4.9956e-06	109.23	6.173e-05	4.2312e-05	1.3928e-05	1067.1	4.8096e-07	4.4145e-07	1222.6	388.36	4.6982e-07	4.6399e-07	509.69	191.62	141.42	58.737	5.7161e-07	89.568	312.805	119.449	101.064	58.503	166.384	209.470	57.755	64.216	153.468	181.877	62.049	66.703	68.694	73.928	184.262	70.677	-8191	255	
8590.817	1	1	0	0	0.035431	0.24252	0.052405	0.22993	0.12507	0.026878	0.23718	0.14429	0.28063	0.13096	0.34682	0.12701	0.021006	0.2955	0.23884	0.030345	-3.2833	-2.9229	-3.2354	-3.5833	-3.0271	-3.5667	-3.4437	-3.025	-3.6625	-2.8896	-3.2208	-3.6354	-2.8771	-3.5167	-3.3688	-3.1208	224.135	386.778	396.262	133.841	372.416	384.679	357.436	366.961	50.732	218.549	331.673	274.683	140.795	340.003	120.935	376.453	0.00166	0.00029061	0.00020299	1230.3	7.1056e-06	5.9989e-06	1421.6	461.86	5.157e-06	4.2816e-06	610.34	232.45	170.37	69.899	4.9246e-06	109.02	5.9678e-05	4.3775e-05	1.4073e-05	1058	4.7455e-07	4.8418e-07	1208.4	386.14	4.626e-07	4.9376e-07	505.58	190.66	140.99	58.442	5.5858e-07	89.313	315.353	124.616	114.783	58.912	175.299	195.319	57.605	64.620	195.813	203.180	62.184	66.659	68.648	74.266	199.341	70.723	-8191	255	
8590.936	1	1	0	0	0.053317	0.09633	0.1301	0.10188	0.30573	0.1122	0.10938	0.091843	0.15044	0.16297	0.13686	0.12035	0.21424	0.29798	0.2439	0.36977	-3.325	-3.1437	-3.3271	-3.8021	-2.9333	-3.4062	-3.4437	-3.0146	-3.4813	-3.1271	-3.175	-3.7083	-3.0896	-3.5146	-3.3625	-3.1	258.869	204.664	181.997	64.662	135.132	283.560	279.785	295.732	74.927	66.035	375.160	400.551	344.081	51.409	251.488	61.659	0.0017817	0.0004239	0.0002295	1229.2	6.4056e-06	7.0927e-06	1419.1	460.42	5.3484e-06	4.9792e-06	615.67	231.87	170.09	69.729	5.3736e-06	109.9	6.0656e-05	4.8033e-05	1.3927e-05	1059.4	4.6784e-07	5.221e-07	1212	387.37	4.5617e-07	5.4473e-07	507.68	191.13	141.32	58.623	5.2501e-07	89.976	312.130	100.823	126.737	58.960	179.314	179.601	57.548	64.557	196.059	169.193	61.653	66.558	68.791	73.987	168.891	70.698	-8191	255	
8591.032	1	1	0	0	0.13108	0.14624	0.13962	0.27369	0.35552	0.1846	0.18648	0.17661	0.11202	0.12065	0.13937	0.24167	0.33211	0.19551	0.14951	0.25513	-3.2	-3.1271	-3.1417	-3.6729	-3.0583	-3.275	-3.5958	-3.0958	-3.4688	-3.1917	-3.2667	-3.8458	-3.2729	-3.4437	-3.4042	-2.8812	275.705	72.662	277.516	382.039	263.495	206.002	345.623	67.312	367.976	190.525	353.617	349.864	67.433	352.985	65.097	385.581	0.0016964	0.00039055	0.00015857	1230.5	2.9304e-06	4.0232e-06	1431.3	461.53	7.8439e-06	6.4653e-06	622.95	234.34	170.76	70.393	3.3204e-06	109.89	5.8686e-05	5.0919e-05	1.3416e-05	1061.4	4.9657e-07	5.6527e-07	1218.1	387.32	4.8409e-07	5.507e-07	512.25	192.35	141.83	58.847	4.9839e-07	90.42	312.384	160.632	113.080	58.491	164.349	191.769	57.383	64.283	188.468	215.684	61.630	66.545	68.834	74.052	202.191	70.782	-8191	255	
8591.128	1	1	0	0	0.062177	0.1697	0.10956	0.21569	0.10073	0.10637	0.1073	0.19234	0.11252	0.33117	0.13753	0.17942	0.13123	0.21514	0.073662	0.24019	-3.1917	-3.2771	-2.8271	-3.8583	-3.2792	-3.3146	-3.4979	-3.0729	-3.6604	-3.3271	-3.1333	-3.6104	-3.1854	-3.2729	-3.4437	-3.1688	405.103	298.155	197.662	166.140	55.182	337.916	260.380	325.985	302.198	98.328	50.813	305.870	379.136	340.019	124.199	316.267	0.0018537	0.00065367	0.00026561	1228.6	5.8817e-06	5.3077e-06	1418.7	459.25	6.0667e-06	4.7662e-06	616.33	231.57	169.73	69.538	2.2949e-06	108.23	6.2748e-05	4.9648e-05	1.2265e-05	1061.2	5.1145e-07	5.2554e-07	1214.4	386.54	4.9751e-07	5.2461e-07	507.29	190.53	141.21	58.279	4.577e-07	88.843	311.479	105.846	115.642	58.823	163.748	169.260	57.710	64.082	170.400	159.168	62.093	66.461	68.613	73.882	161.197	70.577	-8191	255	
8591.200	1	1	0	0	0.21386	0.091586	0.21358	0.40188	0.34555	0.1969	0.27858	0.24785	0.24199	0.06636	0.29161	0.31715	0.07143	0.39254	0.13959	0.19452	-3.0917	-3.2687	-2.7771	-3.8271	-3.1083	-3.0729	-3.6146	-3.0958	-3.2313	-3.3	-2.9	-3.5938	-3.2375	-3.1021	-3.5771	-2.9188	378.714	190.826	155.989	362.815	181.793	204.649	353.716	309.067	90.002	103.581	357.116	391.825	368.774	79.351	312.701	376.157	0.0017121	0.00031839	0.00014452	1229	6.0719e-06	3.5216e-06	1425.8	459.2	5.8128e-06	2.5013e-06	613.83	230.96	169.38	69.763	3.8727e-06	109.06	6.4807e-05	4.5532e-05	1.163e-05	1056.9	5.306e-07	5.0627e-07	1208.1	385.14	5.3961e-07	4.8795e-07	505.77	189.7	140.8	58.323	4.487e-07	89.202	308.092	134.111	102.622	58.827	192.959	172.030	57.641	64.380	157.059	159.569	62.353	66.526	68.847	73.914	161.385	70.560	-8191	255	
8591.321	1	1	0	0	0.040258	0.18511	0.18545	0.067005	0.30509	0.12285	0.1053	0.22686	0.11407	0.071214	0.14038	0.14571	0.095563	0.1798	0.13641	0.070658	-2.8167	-3.2396	-2.7271	-3.5896	-3.1833	-3.1479	-3.8438	-3.0062	-3.1937	-3.5896	-2.9417	-3.575	-3.6167	-3.0563	-3.5312	-3.2875	53.591	319.250	61.164	355.606	57.612	236.870	399.379	357.779	80.402	163.470	69.580	334.078	254.440	299.022	268.293	321.262	0.0018142	0.00056474	0.00016489	1230.4	7.6273e-06	5.2129e-06	1431.7	461.87	4.5214e-06	4.0408e-06	614.5	232.24	170.89	69.933	3.2903e-06	110.32	6.4879e-05	4.41e-05	1.1337e-05	1059.3	5.4325e-07	4.7446e-07	1212.9	387.54	5.259e-07	4.6097e-07	507.88	191.19	141.53	58.664	4.2552e-07	90.059	310.093	126.124	141.718	58.566	175.732	214.566	57.806	63.988	166.602	221.023	61.977	66.412	68.760	74.013	141.248	70.618	-8191	255	
8591.417	1	1	0	0	0.065909	0.099858	0.08762	0.01307	0.16941	0.30509	0.26273	0.14987	0.20343	0.17223	0.17595	0.060601	0.20467	0.20624	0.081252	0.11011	-2.7875	-3.4729	-2.9771	-3.4667	-3.4479	-3.025	-3.7771	-3.0458	-3.1646	-3.6375	-2.9437	-3.4771	-3.4917	-2.9708	-3.65	-3.3542	146.802	139.150	196.271	352.779	355.297	335.909	341.582	58.704	183.356	201.529	384.883	340.764	378.272	82.863	368.930	267.602	0.0018496	0.00034388	0.00014096	1239.5	6.4426e-06	4.5582e-06	1436.8	462.92	5.7954e-06	2.4223e-06	620.05	234.62	170.49	70.538	5.9655e-06	110.82	6.4746e-05	4.0983e-05	1.1019e-05	1063	5.0808e-07	4.5138e-07	1220.4	389.04	4.9748e-07	4.3427e-07	510.82	192.84	141.72	58.872	4.461e-07	90.714	310.167	135.591	75.660	58.593	174.207	158.298	57.549	64.238	126.621	173.800	62.057	66.762	68.634	73.929	192.608	70.435	-8191	255	
8591.513	1	1	0	0	0.2128	0.084482	0.014731	0.19996	0.11877	0.27523	0.24562	0.19411	0.32456	0.1655	0.17741	0.055161	0.21684	0.21841	0.069766	0.28088	-2.6437	-3.7708	-2.8354	-3.5083	-3.5271	-2.8354	-3.6771	-3.3042	-2.9875	-3.5917	-2.9729	-3.4125	-3.5479	-2.9396	-3.5812	-3.4646	253.033	257.054	279.727	368.041	332.280	198.186	325.717	350.853	159.205	183.077	345.488	267.025	339.429	54.612	325.485	344.962	0.0018228	0.00034208	0.00025181	1241.1	4.7192e-06	1.9653e-06	1423	460.26	4.1265e-06	3.7129e-06	614.03	231.39	169.94	69.755	6.1537e-06	108.95	6.1712e-05	3.9791e-05	1.1376e-05	1063.3	4.7943e-07	4.1955e-07	1210.4	386.61	4.7745e-07	4.2582e-07	506.43	190.55	140.7	58.322	4.7223e-07	89.245	313.488	117.300	107.195	58.742	189.955	170.435	57.816	64.331	195.206	153.911	62.023	66.831	68.877	73.921	181.949	70.980	-8191	255	
8591.609	1	1	0	0	0.076916	0.29647	0.11668	0.11836	0.26785	0.18224	0.14201	0.17172	0.13157	0.091014	0.14865	0.16437	0.17209	0.14446	0.15018	0.38418	-2.5083	-3.6437	-3.0875	-3.3125	-3.6021	-2.8354	-3.7	-3.5875	-2.9188	-3.4604	-3.1312	-3.3958	-3.6875	-3.0333	-3.3542	-3.7292	67.248	225.167	165.209	386.879	300.162	109.193	331.126	346.423	141.152	154.921	289.664	354.991	357.196	405.878	376.932	330.039	0.0016124	0.00056513	0.00016726	1223.8	5.4797e-06	5.0656e-06	1407.5	455.95	6.4267e-06	4.4904e-06	612.91	230.41	168.84	69.597	5.6579e-06	108.73	5.806e-05	3.8073e-05	1.1976e-05	1052.7	4.6342e-07	4.2337e-07	1199.9	383.07	4.6709e-07	4.1568e-07	503.24	189.43	140.39	58.233	4.9484e-07	89.44	309.071	145.699	136.032	58.460	198.749	194.775	57.739	64.250	167.507	166.291	62.170	66.803	68.728	74.070	144.432	70.635	-8191	255	
8591.728	1	1	0	0	0.29151	0.046853	0.18816	0.25258	0.1632	0.10377	0.19537	0.39099	0.24927	0.13201	0.15029	0.19468	0.099449	0.13224	0.16465	0.12939	-2.3917	-3.4917	-2.9833	-3.125	-3.6979	-2.9458	-3.5938	-3.5417	-2.7875	-3.5875	-3.2625	-3.2458	-3.6646	-3.0687	-3.3604	-3.5563	145.907	59.004	218.586	329.903	325.605	147.456	292.947	370.238	132.083	313.827	81.166	345.137	338.413	268.007	165.215	343.107	0.0017142	0.00046169	0.00016313	1220.9	5.4677e-06	3.971e-06	1410.6	458.54	5.0583e-06	2.2475e-06	611.69	231.88	169.15	69.855	5.5862e-06	109.61	5.7362e-05	3.7322e-05	1.2586e-05	1053.7	4.2827e-07	4.2687e-07	1204.9	383.83	4.5702e-07	4.2132e-07	505.52	190.56	140.6	58.421	5.2682e-07	89.978	312.017	123.848	108.959	58.756	170.514	168.397	57.975	64.363	159.715	147.001	62.198	66.677	68.939	73.977	170.367	70.809	-8191	255	
8591.801	1	1	0	0	0.10111	0.22449	0.082509	0.37352	0.17122	0.10182	0.12833	0.29406	0.080415	0.11022	0.17517	0.20236	0.30236	0.21551	0.19767	0.19768	-2.5229	-3.4458	-3.1458	-3.0792	-3.5812	-2.9896	-3.3396	-3.6708	-2.825	-3.5021	-3.3896	-3.0396	-3.6521	-3.2021	-3.075	-3.6521	207.823	51.507	101.404	80.334	211.280	403.229	316.638	309.461	273.471	228.981	353.978	392.284	352.499	304.882	192.395	347.366	0.0017751	0.00029688	0.00018411	1230.1	4.9566e-06	5.0386e-06	1423.4	458.88	5.3331e-06	5.3957e-06	618.1	233.04	169.27	69.66	1.9412e-06	110.1	5.8498e-05	3.9408e-05	1.3169e-05	1060	4.3642e-07	4.4314e-07	1212.6	384.79	4.4489e-07	4.6581e-07	509.44	191.75	140.74	58.304	5.1066e-07	90.161	312.128	87.188	127.060	58.684	201.469	167.651	57.808	64.055	159.749	205.108	62.053	66.694	68.658	73.670	202.920	70.647	-8191	255	
8591.898	1	1	0	0	0.16532	0.1582	0.029148	0.16084	0.22892	0.16029	0.064304	0.20145	0.18582	0.1489	0.1501	0.18237	0.16287	0.088968	0.092019	0.29123	-2.3187	-3.2458	-3.4375	-3.0312	-3.7604	-3.1542	-3.3479	-3.6688	-2.8625	-3.3438	-3.4542	-2.9313	-3.6896	-3.325	-3.0917	-3.8021	187.244	289.003	349.417	347.697	235.702	339.058	385.836	298.958	316.712	215.198	106.019	361.939	130.552	379.223	308.303	384.554	0.0016361	0.00024955	0.00020897	1225.5	5.8639e-06	5.747e-06	1419.5	455.55	6.8481e-06	3.9657e-06	611.17	230.55	168.55	69.274	4.7393e-06	108.54	5.7331e-05	4.4553e-05	1.2783e-05	1055	4.3618e-07	4.9301e-07	1205.2	382.65	4.4202e-07	4.9264e-07	503.24	189.71	139.67	57.896	4.9483e-07	89.051	313.132	117.461	102.613	58.740	181.386	189.771	57.779	64.303	168.937	163.922	61.851	66.724	69.036	73.744	169.218	70.534	-8191	255	
8592.018	1	1	0	0	0.082071	0.066938	0.2094	0.38037	0.014343	0.063845	0.097223	0.075218	0.13752	0.18071	0.12881	0.19951	0.056018	0.18389	0.14485	0.33005	-2.5229	-3.3479	-3.3312	-2.9354	-3.5229	-3.4604	-3.2313	-3.6542	-2.9229	-3.2896	-3.7354	-3.0354	-3.5021	-3.2583	-2.8667	-3.8104	96.291	151.998	255.635	290.925	274.831	95.509	271.487	335.432	90.905	279.283	253.486	314.109	402.863	383.533	391.733	379.484	0.001658	0.000599	0.00016604	1216.8	9.7264e-06	4.9569e-06	1405.4	451.98	5.751e-06	5.6698e-06	606.42	229.8	168.08	69.352	4.9715e-06	109.02	5.7982e-05	4.5499e-05	1.2275e-05	1045.9	4.4696e-07	5.2335e-07	1193.8	380.68	4.7171e-07	5.1674e-07	500.29	188.82	139.57	58.013	4.7895e-07	89.221	313.360	137.147	126.124	58.803	182.807	187.224	57.754	63.832	178.356	162.317	61.942	66.625	68.612	73.909	187.940	70.699	-8191	255	
8592.113	1	1	0	0	0.07262	0.11258	0.090596	0.29907	0.058519	0.15471	0.10318	0.19877	0.34945	0.25861	0.24402	0.12751	0.43963	0.35255	0.10558	0.27093	-2.5396	-3.2167	-3.3771	-2.9646	-3.5667	-3.2	-3.1271	-3.7479	-3.1021	-3.1354	-3.6208	-3.0625	-3.4521	-3.5104	-3.1729	-3.7812	211.310	99.616	392.716	392.380	400.942	337.481	310.289	89.751	135.321	202.779	382.232	84.219	326.352	379.280	176.000	353.058	0.0019131	0.00046031	0.00020775	1213.3	6.4835e-06	2.185e-06	1405	454.91	4.1436e-06	3.0547e-06	608.98	230.75	167.15	69.187	6.7026e-06	109.23	6.2946e-05	4.8255e-05	1.1641e-05	1046.4	4.7667e-07	5.1097e-07	1195.8	381.04	5.0198e-07	5.0458e-07	502.13	189.52	139.5	57.787	4.8072e-07	89.361	309.916	123.791	110.250	58.834	178.639	175.871	57.530	64.139	163.737	188.382	62.044	66.929	68.630	73.851	175.806	70.657	-8191	255	
8592.209	1	1	0	0	0.073222	0.23178	0.18416	0.36347	0.037814	0.14511	0.40764	0.13477	0.11595	0.27023	0.15253	0.39858	0.18594	0.058037	0.24095	0.25496	-2.5479	-3.0229	-3.4896	-3.1271	-3.325	-3.4792	-2.9896	-3.6479	-3.2125	-3.1417	-3.7104	-3.05	-3.4271	-3.6104	-2.8875	-3.4854	228.052	377.259	146.180	371.938	142.442	81.804	360.892	353.177	352.196	184.096	354.467	332.451	372.145	326.572	270.806	93.354	0.0018208	0.00040595	0.00023095	1220.2	4.6634e-06	2.4569e-06	1418.1	455.24	8.6328e-06	5.1062e-06	614.26	231.89	168.11	69.087	2.2438e-06	109.01	6.4455e-05	4.5585e-05	1.1443e-05	1046.5	5.1692e-07	4.7987e-07	1202.6	381	5.3284e-07	4.9715e-07	504.48	190.63	139.57	57.796	4.5267e-07	89.578	308.388	144.549	129.651	58.778	208.049	160.214	57.414	64.096	161.416	181.848	61.988	66.651	68.678	73.918	175.413	70.455	-8191	255	
8592.305	1	1	0	0	0.17212	0.28628	0.029315	0.20406	0.10329	0.057659	0.12928	0.16707	0.18051	0.18709	0.18267	0.0070302	0.38221	0.20734	0.093638	0.17047	-2.7521	-2.95	-3.6792	-3.0479	-3.1625	-3.3583	-2.9021	-3.6271	-3.3063	-3.0042	-3.7604	-3.2729	-3.1667	-3.7708	-2.9896	-3.5438	222.243	102.355	261.247	76.662	405.640	332.385	302.721	369.648	198.484	73.727	395.777	230.782	361.517	405.945	256.636	355.068	0.0016477	0.00038995	0.00013809	1210.7	5.5596e-06	2.7234e-06	1400	452.69	2.8813e-06	4.1056e-06	605.72	229.99	167.06	68.675	5.0225e-06	107.83	6.5627e-05	4.4332e-05	1.0914e-05	1041.6	5.2858e-07	4.6471e-07	1193.3	379.84	5.3813e-07	4.5253e-07	499.43	188.76	138.89	57.395	4.3914e-07	88.405	310.068	80.424	136.989	58.886	164.274	155.848	57.752	64.311	167.184	191.047	62.145	66.544	68.443	73.972	198.949	70.600	-8191	255	
8592.426	1	1	0	0	0.14629	0.20247	0.026218	0.27423	0.14849	0.19269	0.24097	0.14711	0.12387	0.12839	0.20391	0.24458	0.13235	0.12226	0.10469	0.39054	-2.8771	-2.9562	-3.5812	-3.2396	-2.9708	-3.5958	-3.0167	-3.5146	-3.3625	-3.0104	-3.625	-3.2979	-3.1417	-3.7687	-3.0521	-3.5792	349.751	136.483	353.892	87.042	128.139	335.609	353.710	346.049	355.197	268.674	360.606	372.317	379.521	312.921	97.816	341.855	0.0018035	0.00022455	0.00022049	1201.9	4.2832e-06	2.7152e-06	1399.8	449.71	7.3386e-06	5.5089e-06	601.92	230.15	167.05	68.982	4.9112e-06	108.29	6.4519e-05	4.3998e-05	1.0666e-05	1037.6	5.1787e-07	4.545e-07	1185.5	378.08	5.1159e-07	4.5111e-07	497.88	188.6	138.49	57.532	4.5052e-07	88.839	312.848	98.852	99.141	58.516	226.401	156.572	57.885	64.515	149.165	194.291	62.063	66.616	68.683	74.014	202.233	70.618	-8191	255	
8592.497	1	1	0	0	0.18947	0.035434	0.16674	0.16516	0.19068	0.11684	0.10286	0.17779	0.064045	0.058368	0.17676	0.08017	0.34522	0.237	0.18313	0.21776	-3.0021	-2.8771	-3.6771	-3.3583	-3.0542	-3.5438	-3.0104	-3.4437	-3.4833	-2.9354	-3.6896	-3.2229	-2.9979	-3.9417	-2.9813	-3.4021	208.222	308.705	343.271	347.516	94.143	226.723	152.650	333.816	72.114	235.732	339.826	267.971	337.658	75.420	120.020	350.056	0.0017221	0.00040151	0.00018586	1207.3	7.1915e-06	5.2309e-06	1402.8	451.04	6.3627e-06	9.5449e-07	607.78	230.19	167.16	68.793	4.6312e-06	109.08	6.0634e-05	4.0007e-05	1.1043e-05	1041.3	4.8032e-07	4.2375e-07	1193	378.81	4.6069e-07	4.3337e-07	500.69	189.27	138.94	57.314	4.7915e-07	89.334	312.457	119.211	101.435	58.420	171.212	193.820	57.525	64.072	172.655	180.324	61.960	66.536	68.848	73.639	198.693	70.554	-8191	255	
8592.618	1	1	0	0	0.18925	0.10498	0.12674	0.13981	0.29919	0.12976	0.22834	0.18213	0.29105	0.1211	0.037797	0.14574	0.017469	0.22617	0.13651	0.093389	-3.1979	-2.7604	-3.3896	-3.3396	-2.9708	-3.6604	-3.2313	-3.4562	-3.5812	-2.7604	-3.5542	-3.6771	-3.0021	-3.6417	-3.1063	-3.3	323.090	335.260	192.151	59.730	237.145	386.953	395.319	244.965	314.928	52.686	73.970	280.202	327.702	337.408	63.268	163.066	0.0016416	0.00055846	0.00019262	1212.6	4.8395e-06	3.6626e-06	1410.6	451.12	4.2243e-06	4.6882e-06	612.45	229.66	167.09	68.863	2.9816e-06	108.41	5.8416e-05	3.9171e-05	1.1849e-05	1043.2	4.6998e-07	4.0322e-07	1196.7	379.24	4.4933e-07	4.21e-07	502.12	189.17	138.67	57.381	5.0337e-07	88.877	308.798	109.830	110.690	58.803	190.460	170.748	57.590	64.401	189.418	185.503	61.962	66.660	68.657	73.953	138.458	70.844	-8191	255	
8592.714	1	1	0	0	0.11089	0.12665	0.21425	0.22632	0.17517	0.1831	0.19642	0.13206	0.36573	0.22999	0.10401	0.13508	0.20406	0.16775	0.036095	0.10104	-3.1271	-2.7854	-3.4167	-3.3583	-2.8229	-3.6167	-3.2417	-3.1583	-3.7917	-3.0583	-3.3771	-3.5646	-3.0229	-3.5792	-3.4188	-3.2	186.517	72.923	81.411	74.827	105.641	351.550	302.924	304.458	297.466	335.692	399.527	134.782	92.936	400.083	272.195	199.393	0.0017493	0.00031273	0.00014872	1205.8	5.807e-06	4.9505e-06	1392.6	449.26	4.0247e-06	5.1686e-06	601.4	227.77	165.83	67.776	5.9981e-06	107.03	5.7904e-05	3.8558e-05	1.279e-05	1038.4	4.4717e-07	4.2447e-07	1188.2	376.97	4.4867e-07	4.3769e-07	496.38	187.39	137.56	56.698	5.4214e-07	87.724	307.899	167.847	116.168	58.405	173.456	188.954	57.852	64.274	192.948	182.698	62.050	66.631	68.759	73.720	141.650	70.923	-8191	255	
8592.810	1	1	0	0	0.13498	0.15385	0.2167	0.22041	0.13659	0.25257	0.018149	0.1291	0.12196	0.011426	0.10987	0.13802	0.19473	0.1594	0.17925	0.12383	-3.2958	-3.0146	-3.2687	-3.6937	-2.9562	-3.5438	-3.4917	-3.2333	-3.6188	-3.1104	-3.3708	-3.5792	-2.9354	-3.6958	-3.2062	-3.0104	290.666	62.077	244.352	108.075	361.501	195.869	69.551	372.654	402.406	299.084	126.709	111.265	379.940	112.589	175.631	341.053	0.0017787	0.00043769	0.00021731	1206.1	6.0147e-06	3.7685e-06	1394.1	451.79	5.8096e-06	5.6119e-06	608.53	228.24	166.54	68.132	4.0474e-06	107.8	5.7791e-05	4.0938e-05	1.3311e-05	1037.7	4.4719e-07	4.5047e-07	1182.9	378.59	4.3436e-07	4.7749e-07	499.4	187.91	138.31	57.082	5.4014e-07	88.347	315.129	150.034	87.583	58.795	170.199	221.620	57.997	64.370	193.442	207.001	62.221	66.564	69.028	74.208	188.182	70.716	-8191	255	
8592.905	1	1	0	0	0.12474	0.074737	0.25949	0.45468	0.17449	0.13006	0.18922	0.24449	0.097537	0.18768	0.21826	0.21235	0.23769	0.10335	0.091845	0.088262	-3.2333	-3.0917	-3.3667	-3.6813	-3.0625	-3.6479	-3.4583	-3.0542	-3.575	-3.2625	-3.2104	-3.8333	-2.9188	-3.5229	-3.3375	-3.1063	66.185	154.281	181.439	373.183	382.472	388.666	60.627	114.918	405.665	279.468	346.766	379.560	375.614	358.529	221.701	322.388	0.0017578	0.00048251	9.8895e-05	1206.3	4.6182e-06	4.0756e-06	1400.2	449	8.3698e-06	4.3695e-06	609.61	230.4	167	68.684	4.3213e-06	108.68	5.6851e-05	4.5274e-05	1.2884e-05	1037.3	4.4429e-07	5.0581e-07	1191.8	377.9	4.4205e-07	5.1519e-07	501.37	188.75	138.51	57.323	5.0803e-07	88.884	312.907	109.466	172.847	58.803	178.856	195.927	57.729	64.449	167.309	204.678	62.154	66.556	68.819	74.095	196.901	70.641	-8191	255	
8593.025	1	1	0	0	0.1828	0.19167	0.080102	0.30365	0.034907	0.15929	0.22912	0.28076	0.11781	0.22669	0.13669	0.042914	0.10759	0.061083	0.17184	0.1428	-3.1229	-3.1688	-2.9813	-3.6771	-3.2208	-3.2479	-3.5979	-3.0167	-3.4583	-3.2104	-3.2896	-3.7958	-3.1083	-3.4604	-3.5729	-3.1688	304.374	295.728	344.384	318.986	306.755	203.437	385.655	284.972	332.821	359.644	356.962	120.051	374.182	356.366	264.675	403.583	0.0018285	0.00045227	0.00017572	1204.7	7.3555e-06	4.8095e-06	1394.8	451.78	5.2344e-06	3.0676e-06	607.57	229.86	166.31	68.361	3.2878e-06	108.52	5.817e-05	4.7993e-05	1.2355e-05	1036.5	4.635e-07	5.3084e-07	1191.8	378.2	4.563e-07	5.213e-07	500.72	188.92	138.58	57.217	4.8118e-07	88.675	314.028	131.388	109.836	58.608	181.778	199.503	58.010	64.081	162.997	172.272	62.224	66.599	68.887	73.998	182.433	70.733	-8191	255	
8593.097	1	1	0	0	0.13115	0.1156	0.12079	0.089564	0.2644	0.17531	0.23925	0.042804	0.17135	0.27355	0.3111	0.20184	0.32864	0.36169	0.21807	0.093441	-3.15	-3.1521	-2.7875	-3.8375	-3.0563	-3.0604	-3.8583	-2.9062	-3.4792	-3.3146	-3.1458	-3.6688	-3.1167	-3.3708	-3.4646	-3.1229	143.633	170.432	66.925	89.855	236.284	335.050	377.661	404.221	46.751	358.375	355.431	77.188	97.549	396.662	403.874	359.236	0.0016513	0.00021665	0.00020654	1203	8.1574e-06	4.5734e-06	1392.9	449.48	3.917e-06	9.1521e-07	599.57	227.8	166.17	67.843	5.3386e-06	107.22	6.0217e-05	4.7826e-05	1.1928e-05	1035.2	4.9418e-07	5.1751e-07	1184.8	376.35	5.1203e-07	5.1051e-07	495.15	187.32	138.18	56.81	4.7305e-07	87.763	314.184	106.541	105.504	58.623	158.477	175.708	57.447	64.212	152.294	191.913	61.926	66.937	69.034	74.137	163.238	70.679	-8191	255	
8593.193	1	1	0	0	0.34418	0.13071	0.16084	0.15722	0.13854	0.049641	0.023721	0.2924	0.12677	0.011721	0.066153	0.097677	0.28988	0.24816	0.1545	0.24187	-3.0771	-3.4125	-2.8021	-3.7479	-3.2271	-3.2604	-3.8271	-3.1354	-3.2854	-3.3208	-3.1521	-3.6625	-3.3375	-3.2958	-3.5646	-3.2208	297.568	150.820	162.688	330.311	240.098	254.568	327.010	386.492	312.493	170.332	149.750	61.484	394.261	332.902	51.967	331.635	0.0017011	0.00040497	0.00016262	1198.3	7.6042e-06	6.4004e-06	1395.1	448.05	5.7958e-06	2.9433e-06	601.48	227.74	166.71	67.621	5.3609e-06	106.9	6.3622e-05	4.6597e-05	1.1821e-05	1033.7	5.4439e-07	5.1266e-07	1184.9	375.8	5.3833e-07	4.9464e-07	496.23	187.52	138.24	56.606	4.5188e-07	87.622	313.835	129.026	98.565	58.890	162.045	224.792	57.883	64.265	152.800	177.019	62.138	66.517	68.445	74.107	188.979	71.088	-8191	255	
8593.289	1	1	0	0	0.14162	0.20275	0.13865	0.084077	0.14631	0.074303	0.05899	0.092939	0.025918	0.1147	0.082	0.033898	0.088498	0.23811	0.11761	0.24804	-2.8729	-3.3792	-3.0812	-3.7083	-3.3271	-2.9875	-3.8125	-3.2042	-3.2583	-3.5833	-3.0083	-3.4875	-3.45	-3.0729	-3.6229	-3.2083	220.968	90.745	59.467	317.382	158.085	59.793	268.169	235.545	390.379	84.125	398.546	107.654	167.241	54.222	299.519	359.388	0.0015428	0.00038405	0.00014689	1211.9	8.4142e-06	5.2749e-06	1395.3	448.94	4.1344e-06	4.6368e-06	603.72	229.79	165.84	67.538	4.6491e-06	107.57	6.5375e-05	4.3373e-05	1.1412e-05	1037.8	5.4843e-07	4.6906e-07	1189	376.58	5.4422e-07	4.6365e-07	497.92	188.57	138.45	56.562	4.4065e-07	87.931	310.156	142.760	112.758	58.821	167.839	177.134	57.886	64.347	122.511	183.070	61.983	66.652	68.850	74.040	191.270	70.959	-8191	255	
8593.385	1	1	0	0	0.43368	0.2413	0.038354	0.31007	0.16524	0.049198	0.26136	0.1228	0.23441	0.2218	0.11692	0.39871	0.25958	0.17693	0.26082	0.035207	-2.7646	-3.3917	-2.8063	-3.55	-3.1854	-3	-3.5854	-3.2854	-3.0458	-3.525	-3.0167	-3.4396	-3.4562	-2.9437	-3.5104	-3.3083	284.400	89.190	156.732	397.293	84.585	308.754	376.223	353.595	205.379	125.545	80.758	361.838	387.955	339.035	144.229	383.967	0.0017056	0.0002907	0.00024565	1203.6	3.1923e-06	2.9752e-06	1412.7	450.88	5.1855e-06	5.3142e-06	604.15	229.35	167.01	67.928	3.2501e-06	108.21	6.5059e-05	4.2043e-05	1.1373e-05	1037.7	5.2519e-07	4.6368e-07	1194.7	377.33	5.1679e-07	4.456e-07	497.84	188.78	138.57	56.676	4.595e-07	88.284	309.732	143.090	89.032	58.704	180.445	185.960	57.813	64.323	172.442	161.844	62.268	66.859	68.840	74.201	170.870	70.707	-8191	255	
8593.506	1	1	0	0	0.061664	0.18068	0.34428	0.26046	0.21292	0.18841	0.11482	0.11637	0.29466	0.11248	0.047966	0.19746	0.16965	0.17059	0.28739	0.097634	-2.7083	-3.5104	-2.7771	-3.425	-3.4938	-2.925	-3.6417	-3.3292	-3.0417	-3.5854	-3.1646	-3.5062	-3.6688	-3.1	-3.4	-3.3625	235.963	238.722	177.607	397.246	161.878	217.528	375.531	49.197	210.121	180.565	206.633	331.833	389.839	46.594	304.071	301.652	0.0017042	0.00056948	9.9912e-05	1206.3	5.3833e-06	3.7588e-06	1391.9	448.12	4.908e-06	3.8131e-06	602.67	227.54	166.62	67.792	4.6286e-06	107.42	6.3215e-05	4.0648e-05	1.1453e-05	1040.4	4.8848e-07	4.5018e-07	1186.8	375.92	4.8919e-07	4.2286e-07	495.88	187.58	138.36	56.564	4.6845e-07	88.111	306.770	122.957	96.401	58.852	163.953	203.961	57.706	64.531	143.468	163.495	62.303	66.654	68.976	74.333	163.030	70.709	-8191	255	
8593.602	1	1	0	0	0.34006	0.28325	0.2124	0.13264	0.10946	0.19443	0.13384	0.076514	0.17756	0.13418	0.10884	0.24521	0.14456	0.066298	0.044981	0.30872	-2.6896	-3.6333	-3.1188	-3.4125	-3.6167	-2.9458	-3.6208	-3.4	-2.8708	-3.5792	-3.0729	-3.3229	-3.7042	-3.1896	-3.3375	-3.5687	324.711	339.182	53.095	376.769	258.251	199.434	260.306	334.159	224.765	334.789	315.878	330.516	354.775	399.973	154.249	288.473	0.0016122	0.00049855	0.00019413	1202.5	4.0558e-06	3.0864e-06	1404.9	448.85	3.1874e-06	4.5809e-06	605.17	229.76	167.18	68.617	7.2679e-06	108.54	5.9336e-05	3.7242e-05	1.2178e-05	1035.3	4.5468e-07	4.1056e-07	1191.6	377.47	4.6009e-07	3.9455e-07	499.48	189.02	139.13	57.163	5.017e-07	88.984	315.094	140.570	98.917	58.763	217.818	220.824	57.588	64.131	192.680	183.819	61.879	66.668	68.750	74.085	174.453	70.602	-8191	255	
8593.698	1	1	0	0	0.13425	0.23526	0.010561	0.22502	0.17337	0.34573	0.20684	0.30424	0.2068	0.21615	0.17297	0.12872	0.27524	0.30699	0.13115	0.31679	-2.4667	-3.5292	-3.0375	-3.1833	-3.4979	-2.925	-3.5312	-3.4354	-2.8771	-3.6188	-3.3458	-3.0833	-3.7521	-3.2167	-3.3021	-3.6021	144.206	236.435	287.454	355.711	374.475	276.297	301.664	375.694	265.147	60.157	79.535	405.374	393.635	386.745	307.330	337.598	0.001652	0.00038866	0.00012393	1201.7	5.8831e-06	4.2187e-06	1404.2	449.64	8.9635e-06	6.0933e-06	611.74	231.46	169.27	68.963	5.9169e-06	109.52	5.7176e-05	3.6765e-05	1.2369e-05	1035.8	4.3753e-07	4.2308e-07	1193.1	378.12	4.5285e-07	4.1381e-07	502.66	190.18	140.07	57.666	5.1457e-07	89.869	311.363	111.910	142.274	58.331	176.252	216.918	57.954	64.298	170.215	183.048	62.031	67.266	68.770	73.972	177.906	70.699	-8191	255	
8593.794	1	1	0	0	0.13778	0.22539	0.19917	0.21503	0.27695	0.31664	0.15177	0.047987	0.12164	0.034358	0.25963	0.17461	0.28804	0.52805	0.23818	0.2285	-2.4479	-3.4854	-3.1042	-3.1521	-3.7083	-2.8688	-3.3396	-3.6979	-2.7958	-3.5187	-3.3771	-3.1125	-3.8958	-3.225	-3.2333	-3.6458	402.261	106.491	124.749	383.988	136.032	91.140	56.089	73.721	227.762	194.046	355.893	327.259	365.781	385.877	404.200	382.288	0.0016991	0.0004258	0.00021536	1209.3	9.6065e-06	3.7731e-06	1414.5	451.2	6.4559e-06	6.2094e-06	614.5	234.09	169.2	68.784	4.1719e-06	109.26	5.6356e-05	4.0253e-05	1.2582e-05	1038.7	4.1794e-07	4.4795e-07	1200.2	378.18	4.4032e-07	4.5397e-07	505.16	191.26	140.11	57.531	5.1476e-07	89.654	311.907	145.363	89.042	58.917	201.703	182.438	57.875	64.386	178.051	173.620	62.061	66.763	68.900	73.936	173.649	70.700	-8191	255	
8593.890	1	1	0	0	0.21671	0.063092	0.17855	0.22317	0.16722	0.22361	0.30349	0.15583	0.32587	0.28099	0.1217	0.26702	0.087361	0.14969	0.041539	0.19592	-2.4792	-3.2604	-3.2771	-3.0021	-3.6042	-3.2792	-3.1063	-3.7188	-2.9771	-3.525	-3.4125	-3.075	-3.5438	-3.3083	-3.0979	-3.6562	391.690	403.208	260.074	263.670	98.253	361.753	336.158	290.551	360.549	175.890	106.208	65.354	115.391	331.118	147.622	380.480	0.0017151	0.0005015	0.00012776	1203.3	5.6758e-06	4.1802e-06	1405.8	449.37	6.613e-06	4.3463e-06	608.72	230.45	168.42	68.537	3.8054e-06	108.67	5.5829e-05	4.2962e-05	1.225e-05	1035.5	4.1498e-07	4.8289e-07	1194.6	377.34	4.2317e-07	4.9172e-07	501.09	189.66	139.43	57.252	4.8346e-07	88.854	308.034	131.115	111.355	58.890	209.160	175.040	57.645	64.291	148.393	166.701	61.986	66.781	68.986	74.176	149.225	70.626	-8191	255	
8593.987	1	1	0	0	0.13479	0.1449	0.25327	0.26033	0.075578	0.22927	0.38448	0.2068	0.092274	0.11816	0.32525	0.27177	0.20352	0.12219	0.18865	0.12969	-2.6437	-3.1042	-3.4479	-2.8417	-3.5958	-3.3021	-3.0875	-3.8229	-3.0125	-3.3708	-3.6604	-2.9938	-3.5104	-3.3479	-3.0208	-3.8688	134.852	283.001	211.209	396.878	54.304	147.930	68.013	350.311	69.230	90.210	380.690	364.560	405.831	313.137	387.267	133.368	0.0017463	0.00019396	0.00016424	1204	5.224e-06	4.8103e-06	1401.2	449.63	6.7285e-06	1.9405e-06	612.49	231.74	167.85	68.423	4.4232e-06	109.11	5.8365e-05	4.6683e-05	1.1713e-05	1034.5	4.4071e-07	5.1734e-07	1190.8	378.28	4.645e-07	4.9784e-07	502.88	190.37	139.58	57.35	4.6233e-07	89.353	315.141	121.254	95.994	58.914	180.487	169.815	57.715	64.430	140.948	205.537	62.009	66.805	68.822	73.880	160.612	70.866	-8191	255	
8594.106	1	1	0	0	0.16629	0.17027	0.16139	0.16614	0.070413	0.12795	0.3377	0.098605	0.15377	0.052963	0.23795	0.17989	0.064951	0.18337	0.14184	0.36592	-2.7292	-3.3937	-3.4062	-2.9688	-3.4229	-3.4958	-2.9979	-3.8146	-3.0417	-3.0708	-3.6437	-3.0875	-3.4938	-3.6688	-3.0521	-3.7479	204.884	276.966	84.619	294.537	294.295	172.435	348.641	357.507	133.677	181.889	348.041	352.905	338.753	342.870	295.122	298.223	0.0017886	0.0004015	0.00015178	1204.9	7.7155e-06	4.2666e-06	1404.3	450.36	4.2348e-06	4.6393e-06	612.46	232.47	168.21	68.662	3.3906e-06	109.14	6.0014e-05	4.7176e-05	1.1226e-05	1035.6	4.7329e-07	4.9878e-07	1195.9	377.95	4.8516e-07	5.0962e-07	503.96	190.57	139.79	57.465	4.628e-07	89.721	311.546	99.624	116.425	58.562	192.447	192.166	58.003	64.082	168.873	181.369	61.966	66.786	68.726	74.110	184.377	70.593	-8191	255	
8594.202	1	1	0	0	0.18446	0.31725	0.21076	0.14819	0.14681	0.21304	0.14488	0.26772	0.1281	0.24366	0.1107	0.33647	0.28008	0.21264	0.13798	0.33253	-2.8167	-3.1292	-3.5354	-3.0521	-3.5062	-3.3917	-2.9479	-3.6562	-3.1333	-3.1292	-3.6667	-3.1042	-3.5229	-3.65	-2.7396	-3.6208	203.412	275.187	193.545	332.340	93.384	390.440	57.868	374.488	374.647	398.943	199.891	56.753	351.332	56.999	125.456	56.575	0.001754	0.00046747	0.00017053	1204.6	6.2049e-06	3.8608e-06	1408.2	451.88	9.2305e-06	4.0958e-06	613	232.43	168.4	68.661	3.5225e-06	109.6	6.3563e-05	4.424e-05	1.1e-05	1036.8	5.0769e-07	4.6534e-07	1198.9	379.17	5.0984e-07	4.7496e-07	505.13	190.69	139.87	57.382	4.4428e-07	89.706	307.431	146.660	124.952	58.987	178.708	183.698	57.659	64.304	162.105	187.945	62.087	66.654	68.799	73.998	140.280	70.739	-8191	255	
8594.298	1	1	0	0	0.15469	0.24624	0.1562	0.21652	0.25377	0.20056	0.24055	0.21132	0.10145	0.19662	0.28477	0.038193	0.20148	0.13467	0.15964	0.34142	-2.9854	-2.9875	-3.4875	-3.0625	-3.3604	-3.5458	-3.1167	-3.8042	-3.4583	-2.9958	-3.8042	-3.0167	-3.3479	-3.7333	-3.0771	-3.6021	178.501	313.096	229.047	350.094	358.806	283.025	311.650	300.019	309.558	258.260	71.136	338.477	383.279	357.785	378.396	391.371	0.0018014	0.0002732	0.00011837	1206.7	4.1603e-06	3.538e-06	1408.6	452.76	6.905e-06	2.4957e-06	607.19	229.78	167.81	68.191	3.2214e-06	108.71	6.4557e-05	4.1098e-05	1.0777e-05	1036.2	5.1719e-07	4.4676e-07	1192.3	379.13	5.1689e-07	4.4334e-07	499.61	189.33	139.36	57.131	4.2597e-07	89.182	308.277	142.301	98.011	59.084	131.840	185.558	57.723	64.411	155.890	197.455	62.422	66.663	68.985	74.064	173.850	70.786	-8191	255	
8594.394	1	1	0	0	0.094869	0.19427	0.13	0.16964	0.085475	0.029033	0.19822	0.19865	0.19603	0.13401	0.097118	0.11673	0.20426	0.2351	0.22839	0.14189	-2.9458	-2.9292	-3.725	-3.3812	-3.1	-3.6312	-3.1833	-3.5292	-3.5292	-3.1188	-3.7375	-3.3646	-3.3396	-3.6729	-2.8917	-3.4667	388.842	353.612	300.673	393.910	157.191	136.561	323.317	343.819	267.818	337.648	76.017	175.387	377.821	373.489	363.275	354.599	0.0016528	0.0004239	7.9896e-05	1199.5	4.2228e-06	5.1212e-06	1395.2	451.56	1.5802e-06	3.928e-06	612.06	231.46	168.54	68.842	5.6593e-06	109.9	6.2946e-05	4.184e-05	1.0603e-05	1032.9	5.0487e-07	4.3618e-07	1188.3	379.26	4.9175e-07	4.4928e-07	502.18	190.12	139.95	57.578	4.4291e-07	90.103	313.171	144.483	117.739	58.786	179.284	220.891	57.826	64.215	230.527	186.421	62.215	66.717	68.714	73.865	145.958	70.860	-8191	255	
#DATA ENDS
