BOXY.EXE: ISS Imagent and Oximeter Data Acquisition Program Version 0.80
Ascii Record File

#ACQ INFORMATION
2  Detector Channels 
16  External MUX Channels 
1  Auxiliary Channels 
5000  Waveform (CCF) Frequency (Hz)
1  Waveforms Skipped 
30  Waveforms Averaged 
1  Cycles Averaged 
16  Acquisitions per Waveform 
10.0806  Updata Rate (Hz) 

#FILE INFORMATION
TRUE -- External MUX Channel results are PARSED.
FALSE -- AC DC and Phase are NOT grouped.
TRUE -- Companion Program Settings File CREATED.
FALSE -- AC data not excluded
FALSE -- DC data not excluded
FALSE -- Phase data not excluded
FALSE -- Auxillary Chn. data not excluded
Tab delimiters

#CALIBRATION STATE
TRUE -- Waveform Calibration Values APPLIED.


#AUX CALIBRATION VALUES
Val Type	aux-1	

Term	1.0000e+00	
Factor	0.0000e+00	


#WF CALIBRATION VALUES
A = Detector Channel
Val Type	A-AC1	A-AC2	A-AC3	A-AC4	A-AC5	A-AC6	A-AC7	A-AC8	A-AC9	A-AC10	A-AC11	A-AC12	A-AC13	A-AC14	A-AC15	A-AC16	A-DC1	A-DC2	A-DC3	A-DC4	A-DC5	A-DC6	A-DC7	A-DC8	A-DC9	A-DC10	A-DC11	A-DC12	A-DC13	A-DC14	A-DC15	A-DC16	A-Ph1	A-Ph2	A-Ph3	A-Ph4	A-Ph5	A-Ph6	A-Ph7	A-Ph8	A-Ph9	A-Ph10	A-Ph11	A-Ph12	A-Ph13	A-Ph14	A-Ph15	A-Ph16	

Term	0.00000e+00	0.00000e+00	0.00000e+00	0.00000e+00	0.00000e+00	0.00000e+00	0.00000e+00	0.00000e+00	0.00000e+00	0.00000e+00	0.00000e+00	0.00000e+00	0.00000e+00	0.00000e+00	0.00000e+00	0.00000e+00	0.00000e+00	0.00000e+00	0.00000e+00	0.00000e+00	0.00000e+00	0.00000e+00	0.00000e+00	0.00000e+00	0.00000e+00	0.00000e+00	0.00000e+00	0.00000e+00	0.00000e+00	0.00000e+00	0.00000e+00	0.00000e+00	0.00000e+00	0.00000e+00	0.00000e+00	0.00000e+00	0.00000e+00	0.00000e+00	0.00000e+00	0.00000e+00	0.00000e+00	0.00000e+00	0.00000e+00	0.00000e+00	0.00000e+00	0.00000e+00	0.00000e+00	0.00000e+00	
Factor	1.00000e+00	1.00000e+00	1.00000e+00	1.00000e+00	1.00000e+00	1.00000e+00	1.00000e+00	1.00000e+00	1.00000e+00	1.00000e+00	1.00000e+00	1.00000e+00	1.00000e+00	1.00000e+00	1.00000e+00	1.00000e+00	1.00000e+00	1.00000e+00	1.00000e+00	1.00000e+00	1.00000e+00	1.00000e+00	1.00000e+00	1.00000e+00	1.00000e+00	1.00000e+00	1.00000e+00	1.00000e+00	1.00000e+00	1.00000e+00	1.00000e+00	1.00000e+00	X	X	X	X	X	X	X	X	X	X	X	X	X	X	X	X	

B = Detector Channel
Val Type	B-AC1	B-AC2	B-AC3	B-AC4	B-AC5	B-AC6	B-AC7	B-AC8	B-AC9	B-AC10	B-AC11	B-AC12	B-AC13	B-AC14	B-AC15	B-AC16	B-DC1	B-DC2	B-DC3	B-DC4	B-DC5	B-DC6	B-DC7	B-DC8	B-DC9	B-DC10	B-DC11	B-DC12	B-DC13	B-DC14	B-DC15	B-DC16	B-Ph1	B-Ph2	B-Ph3	B-Ph4	B-Ph5	B-Ph6	B-Ph7	B-Ph8	B-Ph9	B-Ph10	B-Ph11	B-Ph12	B-Ph13	B-Ph14	B-Ph15	B-Ph16	

Term	0.00000e+00	0.00000e+00	0.00000e+00	0.00000e+00	0.00000e+00	0.00000e+00	0.00000e+00	0.00000e+00	0.00000e+00	0.00000e+00	0.00000e+00	0.00000e+00	0.00000e+00	0.00000e+00	0.00000e+00	0.00000e+00	0.00000e+00	0.00000e+00	0.00000e+00	0.00000e+00	0.00000e+00	0.00000e+00	0.00000e+00	0.00000e+00	0.00000e+00	0.00000e+00	0.00000e+00	0.00000e+00	0.00000e+00	0.00000e+00	0.00000e+00	0.00000e+00	8.08205e+01	-1.29234e+02	-1.26031e+02	-1.81587e+02	-8.04158e+01	-6.70324e+01	-1.57320e+02	-1.62015e+02	-6.06783e+01	-6.54006e+01	-1.71053e+02	-1.72518e+02	-1.82789e+02	-1.76934e+02	-6.95614e+01	-1.49544e+02	
Factor	6.67383e-05	1.91415e-04	4.93186e-05	1.58798e-01	2.57486e-06	2.00385e-06	1.78873e-01	5.50616e-02	3.22509e-06	1.97440e-06	8.99765e-02	3.70833e-02	3.90633e-02	9.87122e-03	2.25571e-06	1.39431e-02	2.65282e-05	5.58230e-05	1.57463e-05	8.19480e-02	4.79595e-07	6.43249e-07	8.68198e-02	2.84307e-02	4.90733e-07	6.41705e-07	4.53190e-02	1.86095e-02	2.03683e-02	5.15739e-03	5.46992e-07	7.08478e-03	X	X	X	X	X	X	X	X	X	X	X	X	X	X	X	X	



#DISTANCE SETTINGS
A = Detector Channel
A-1	A-2	A-3	A-4	A-5	A-6	A-7	A-8	A-9	A-10	A-11	A-12	A-13	A-14	A-15	A-16	

2.5000e+00	3.0000e+00	2.5000e+00	3.0000e+00	2.0000e+00	3.0000e+00	1.5000e+00	3.0000e+00	3.0000e+00	3.0000e+00	3.0000e+00	3.0000e+00	3.0000e+00	3.0000e+00	1.5000e+00	3.0000e+00	

B = Detector Channel
B-1	B-2	B-3	B-4	B-5	B-6	B-7	B-8	B-9	B-10	B-11	B-12	B-13	B-14	B-15	B-16	

1.0000e+01	1.0000e+01	1.0000e+01	1.4400e+00	1.0000e+01	1.0000e+01	1.5100e+00	1.9400e+00	1.0000e+01	1.0000e+01	1.9900e+00	2.4900e+00	2.4100e+00	2.9000e+00	1.0000e+01	2.9800e+00	




#DATA BEGINS
time	group	step	mark	flag	A-AC1	A-AC2	A-AC3	A-AC4	A-AC5	A-AC6	A-AC7	A-AC8	A-AC9	A-AC10	A-AC11	A-AC12	A-AC13	A-AC14	A-AC15	A-AC16	A-DC1	A-DC2	A-DC3	A-DC4	A-DC5	A-DC6	A-DC7	A-DC8	A-DC9	A-DC10	A-DC11	A-DC12	A-DC13	A-DC14	A-DC15	A-DC16	A-Ph1	A-Ph2	A-Ph3	A-Ph4	A-Ph5	A-Ph6	A-Ph7	A-Ph8	A-Ph9	A-Ph10	A-Ph11	A-Ph12	A-Ph13	A-Ph14	A-Ph15	A-Ph16	B-AC1	B-AC2	B-AC3	B-AC4	B-AC5	B-AC6	B-AC7	B-AC8	B-AC9	B-AC10	B-AC11	B-AC12	B-AC13	B-AC14	B-AC15	B-AC16	B-DC1	B-DC2	B-DC3	B-DC4	B-DC5	B-DC6	B-DC7	B-DC8	B-DC9	B-DC10	B-DC11	B-DC12	B-DC13	B-DC14	B-DC15	B-DC16	B-Ph1	B-Ph2	B-Ph3	B-Ph4	B-Ph5	B-Ph6	B-Ph7	B-Ph8	B-Ph9	B-Ph10	B-Ph11	B-Ph12	B-Ph13	B-Ph14	B-Ph15	B-Ph16	aux-1	digaux	

33039.117	1	1	0	512	0.10866	0.12212	0.1054	0.295	0.20364	0.26265	0.33465	0.31117	0.20404	0.10148	0.22666	0.17258	0.17598	0.18134	0.15152	0.32114	-4.0708	-5.0083	-4.7792	-4.6021	-4.9688	-4.6646	-4.9313	-5.0979	-4.5854	-4.9396	-5.0813	-4.5979	-5.2396	-4.9208	-4.6833	-5.2917	153.520	192.298	331.878	321.420	326.638	74.137	275.124	327.804	20.603	278.786	249.704	9.515	267.578	294.514	24.134	265.600	0.001741	0.0010761	0.00028099	1426.4	5.7621e-06	2.5026e-05	1468.3	528.98	1.3245e-05	8.1994e-06	670.02	278.42	210.36	89.909	9.2292e-06	126.07	0.002046	0.0028414	0.00080224	1281.2	2.4093e-05	9.8396e-05	1318.1	478.19	2.6549e-05	3.1776e-05	613.6	251.81	191.35	82.203	2.9477e-05	116.29	343.550	104.915	84.213	-0.909	139.428	220.596	-1.817	4.674	161.478	132.658	3.130	7.176	9.253	13.594	154.446	10.630	-8191	255	
33039.234	1	1	0	0	0.21487	0.15525	0.13332	0.25703	0.070282	0.077869	0.33488	0.069722	0.1926	0.15365	0.046097	0.21868	0.21839	0.12013	0.13742	0.23518	-4.2896	-4.8292	-4.9375	-4.5604	-5.0104	-4.6438	-4.8104	-5.1979	-4.5792	-4.8417	-5.1375	-4.5104	-5.1771	-5.0708	-4.6375	-5.2875	42.354	145.196	-11.866	343.940	237.372	207.373	297.278	330.908	104.233	132.140	151.330	295.071	339.522	4.271	62.881	284.255	0.0015835	0.0013311	0.00031597	1418.9	1.1137e-05	2.1128e-05	1463.8	526.88	1.765e-05	1.4552e-05	673.08	276.4	211.28	89.268	1.2535e-05	125.55	0.0020439	0.0029338	0.00084213	1278.2	2.514e-05	0.00011594	1313.4	476.74	2.6738e-05	3.4137e-05	613.89	250.43	191.68	81.809	3.043e-05	115.51	-6.529	78.968	64.157	-0.681	117.395	232.980	-1.713	4.896	152.866	150.555	2.761	7.107	9.329	13.692	148.946	10.443	-8191	255	
33039.309	1	1	0	0	0.13525	0.21699	0.24594	0.11199	0.14303	0.038865	0.38651	0.39554	0.14563	0.13647	0.22064	0.172	0.033159	0.21494	0.21533	0.24223	-4.3146	-4.6875	-5.0104	-4.5875	-4.95	-4.9021	-4.6521	-5.2542	-4.6771	-4.7021	-5.1396	-4.6479	-5.1	-5.1521	-4.5229	-5.3812	15.152	85.708	181.589	33.206	256.092	21.635	303.666	302.618	111.659	345.504	292.046	6.699	92.075	309.556	162.850	265.225	0.0027642	0.0011205	0.0002242	1416.7	1.5055e-05	2.6305e-05	1466.6	527.35	1.0004e-05	9.3185e-06	667.21	275.04	209	88.868	7.5427e-06	125.42	0.0030263	0.0030564	0.00084597	1277.5	2.6195e-05	0.00011655	1318.2	476.26	2.7648e-05	3.4445e-05	612.26	249.46	190.31	81.38	3.1436e-05	114.83	345.267	74.014	81.392	-0.776	119.187	260.714	-1.855	4.696	155.050	112.198	2.942	7.088	9.337	13.403	150.799	10.557	-8191	255	
33039.406	1	1	0	0	0.15298	0.10384	0.13376	0.19247	0.070067	0.30475	0.11024	0.14894	0.13166	0.081125	0.2575	0.22696	0.18903	0.14391	0.12017	0.28749	-4.275	-4.6896	-5.15	-4.7479	-5.0833	-4.9938	-4.7312	-5.2521	-4.6	-4.8208	-5.2229	-4.7729	-5.0417	-5.1458	-4.5521	-5.3146	117.663	303.825	237.850	289.092	182.585	187.230	292.382	300.959	269.163	61.350	324.882	283.321	249.854	4.575	299.633	288.004	0.0024783	0.0011167	0.00013353	1417.6	9.9989e-06	2.2555e-05	1474.7	522.91	2.0928e-05	1.1727e-05	669.84	275.01	208.32	88.502	8.6322e-06	124.63	0.0051646	0.0030975	0.00087628	1278.6	2.7489e-05	0.00012035	1324.4	473.34	2.9369e-05	3.6862e-05	613.33	249.39	189.44	81.038	3.1947e-05	114	338.684	91.377	75.752	-1.039	153.011	254.614	-1.664	4.803	161.513	174.448	2.765	7.112	9.144	13.823	156.255	10.615	-8191	255	
33039.523	1	1	0	0	0.066015	0.1117	0.21428	0.041562	0.1323	0.12491	0.25137	0.06309	0.014981	0.097455	0.27755	0.19628	0.20849	0.2269	0.064186	0.25346	-4.5604	-4.7021	-5.0979	-4.6771	-4.8396	-4.9292	-4.5979	-5.2125	-4.8854	-4.7354	-5.1438	-4.675	-4.8083	-5.1729	-4.4104	-5.0938	112.063	179.127	32.781	95.190	255.706	328.135	311.920	308.987	257.907	9.413	320.955	304.507	275.039	302.926	166.863	307.771	0.0027845	0.0010682	0.0002797	1413.6	9.203e-06	1.8939e-05	1465.9	519.92	1.9491e-05	1.2457e-05	663.03	271.67	205.74	87.768	1.0783e-05	123.45	0.0056947	0.003315	0.00088179	1275.8	2.8487e-05	0.00011996	1317.5	471.13	2.9257e-05	3.7565e-05	604.09	247.46	187.55	80.48	3.2456e-05	113.19	339.607	95.539	69.314	-0.889	89.172	236.324	-1.889	4.677	157.463	136.527	2.674	6.888	9.546	13.554	154.219	10.556	-8191	255	
33039.621	1	1	0	0	0.060093	0.16491	0.25185	0.2529	0.19751	0.072568	0.072445	0.22294	0.015456	0.1534	0.18324	0.28155	0.045016	0.23556	0.1508	0.29916	-4.4688	-4.4313	-5.2188	-4.8667	-4.8313	-5.0521	-4.7729	-5.0667	-4.8854	-4.4917	-5.2937	-4.9271	-4.7958	-5.2354	-4.5667	-5.1271	150.553	285.510	146.104	-7.934	302.257	8.160	321.916	346.215	263.311	160.829	316.193	310.203	17.479	298.236	262.709	273.367	0.0024203	0.00080581	0.00025408	1406.1	1.7099e-05	2.408e-05	1461.1	519.2	4.9126e-06	1.2532e-05	662.78	271.17	205.1	87.318	1.0398e-05	123.55	0.0056473	0.003296	0.00088445	1269.8	2.7435e-05	0.0001208	1311.4	468.97	3.0366e-05	3.6017e-05	599.75	248.22	186.55	80.211	3.167e-05	112.81	331.396	90.485	79.545	-0.698	149.502	273.668	-1.527	4.885	210.321	112.361	3.006	7.408	9.293	13.810	135.853	10.790	-8191	255	
33039.719	1	1	0	0	0.10264	0.20012	0.13454	0.14974	0.22247	0.22961	0.17631	0.25738	0.09227	0.043422	0.048635	0.092704	0.073422	0.11801	0.13925	0.19998	-4.5188	-4.2604	-5.1104	-4.9667	-4.6604	-5.0417	-4.7667	-5.0437	-5.0396	-4.5271	-5.1604	-4.8646	-4.6958	-5.1854	-4.5333	-5.0563	292.081	118.475	73.028	335.628	-12.371	304.961	229.628	287.513	157.377	40.672	-0.612	292.603	63.057	271.875	83.658	299.438	0.0020144	0.0014195	0.00028839	1415.1	1.3717e-05	2.2192e-05	1466.2	520.14	1.9494e-05	4.9211e-06	660.63	272.21	205.5	87.448	1.6986e-05	124.15	0.005649	0.0032453	0.00089311	1270.2	2.884e-05	0.0001209	1316.4	468.88	2.9523e-05	3.5847e-05	599.31	248.53	187.02	80.199	3.1975e-05	113.43	339.617	85.638	75.927	-0.597	127.715	279.313	-1.732	4.896	162.477	121.135	3.156	7.182	9.369	13.800	154.859	10.698	-8191	255	
33039.840	1	1	0	0	0.3173	0.29905	0.024285	0.25767	0.13009	0.13521	0.28142	0.1918	0.20871	0.082417	0.00874	0.34309	0.1231	0.19941	0.11631	0.26782	-4.7396	-4.475	-4.9646	-4.9104	-4.4375	-5.2438	-4.7958	-4.9167	-5.225	-4.4708	-5.1979	-4.8583	-4.6292	-5.2854	-4.7021	-4.9646	279.936	245.634	342.354	321.685	96.373	131.230	275.733	242.528	258.427	264.010	2.999	327.547	295.855	327.113	177.156	299.602	0.0024945	0.00098332	0.00024384	1405.4	1.1827e-05	6.6616e-06	1474.3	520.33	1.6634e-05	1.0453e-05	665.28	271.48	206.73	88.217	6.5092e-06	124.18	0.0056152	0.003096	0.00089419	1270.2	2.8414e-05	7.6001e-05	1325.4	469.95	2.8785e-05	3.4857e-05	602.84	249.43	187.45	80.918	3.2448e-05	113.78	331.522	78.747	74.170	-0.369	138.542	64.156	-1.763	4.829	124.803	134.756	3.130	7.434	9.224	13.838	109.864	10.734	-8191	255	
33039.934	1	1	0	0	0.09497	0.20626	0.07758	0.05844	0.32363	0.03273	0.21215	0.16253	0.013372	0.26908	0.12914	0.30278	0.13701	0.3029	0.13878	0.31688	-4.7917	-4.4042	-5.0604	-4.9313	-4.5354	-5.1083	-4.8708	-4.9521	-5.125	-4.5062	-4.9583	-4.9979	-4.5833	-5.1521	-4.65	-4.8833	96.899	124.097	292.070	29.324	293.862	166.184	244.620	271.306	297.061	58.454	251.849	308.579	314.278	18.053	214.814	282.415	0.0022157	0.0013339	0.00025352	1405.8	1.3168e-05	7.0838e-06	1450.3	515.07	1.9359e-05	1.4071e-05	657.98	270.25	204.42	87.818	1.1888e-05	122.45	0.0055674	0.0030692	0.00086752	1265.5	2.747e-05	3.4573e-05	1322.4	467.88	2.964e-05	3.5973e-05	596.58	246.96	186.33	80.126	3.3125e-05	112.46	340.807	80.351	65.154	-0.575	145.888	151.969	-1.802	4.980	141.559	134.309	3.135	7.171	9.102	14.000	150.103	10.698	-8191	255	
33040.008	1	1	0	0	0.099243	0.18501	0.15916	0.37181	0.094522	0.17271	0.27096	0.29425	0.099686	0.28239	0.3	0.12484	0.10022	0.40521	0.10931	0.16532	-4.6521	-4.6062	-4.8021	-5.0938	-4.5229	-4.9479	-4.9479	-4.7604	-5.0917	-4.675	-4.9167	-5.1792	-4.7375	-5.1542	-4.8458	-4.7625	287.706	136.696	277.106	318.818	305.263	109.750	313.921	285.251	120.025	118.888	306.975	329.413	315.086	293.496	61.780	4.602	0.0024621	0.00050993	0.00028102	1405.7	1.4862e-05	6.8873e-06	1450.7	517.78	1.8115e-05	7.5848e-06	659	269.89	204.19	87.475	1.263e-05	122.6	0.0055759	0.0030614	0.00091515	1263.5	2.7122e-05	3.5355e-05	1317.7	466.82	2.8245e-05	3.5374e-05	595.86	246.6	185.22	79.91	3.2577e-05	112.13	341.692	78.246	79.488	-0.727	125.040	170.876	-2.137	4.805	184.743	130.409	2.755	6.991	9.474	13.936	146.706	10.573	-8191	255	
33040.102	1	1	0	0	0.17203	0.15158	0.25468	0.14948	0.30304	0.081509	0.13515	0.17259	0.040734	0.18057	0.25051	0.25163	0.25267	0.22437	0.25085	0.37475	-4.7292	-4.6188	-4.7	-5.1417	-4.45	-4.9958	-4.8208	-4.6979	-5.1	-4.5396	-4.9521	-5.2208	-4.6438	-5.1896	-4.9812	-4.6042	56.573	159.357	204.335	2.103	224.726	33.008	264.838	263.845	183.740	237.487	309.884	29.898	269.145	5.966	135.512	320.854	0.0015365	0.0027675	0.00017789	1407.3	1.7461e-05	1.4087e-05	1454.1	516.65	1.2646e-05	1.1863e-05	658.09	268.86	204.06	87.212	1.0516e-05	123.22	0.0037428	0.0061035	0.00089662	1264.7	2.7662e-05	3.4304e-05	1318.6	466.67	2.7294e-05	3.6163e-05	596.48	246.38	185.36	79.929	3.2126e-05	112.62	335.103	136.555	103.801	-0.396	134.389	140.679	-1.908	4.999	156.378	139.779	2.842	7.300	9.336	13.584	124.523	10.512	-8191	255	
33040.223	1	1	0	0	0.12368	0.041906	0.11934	0.11521	0.11037	0.14336	0.19686	0.22648	0.089847	0.053715	0.33363	0.11036	0.11857	0.25162	0.082882	0.187	-4.6229	-4.7083	-4.6854	-5.3438	-4.5062	-4.9208	-5.1917	-4.675	-5.0417	-4.7292	-4.7542	-5.2917	-4.7042	-5.0271	-4.9187	-4.9437	311.507	250.516	299.462	-0.060	287.030	315.094	284.164	248.088	311.445	49.492	251.191	15.839	152.253	21.923	71.430	15.656	0.0014933	0.0019065	0.00025572	1402.4	7.7604e-06	1.0793e-05	1456.1	516.37	6.545e-06	8.0256e-06	659.07	269.7	205.09	87.385	1.1872e-05	122.71	0.0021177	0.010432	0.00089613	1266	2.7444e-05	3.6003e-05	1324	466.63	2.7924e-05	3.5788e-05	596.04	246.92	185.99	80.046	3.2569e-05	112.53	341.517	114.108	77.567	-0.505	157.119	151.493	-1.479	5.096	131.465	152.718	3.022	7.209	9.521	13.746	125.328	10.490	-8191	255	
33040.316	1	1	0	0	0.1194	0.17203	0.1863	0.21713	0.14656	0.063099	0.18415	0.094838	0.099337	0.18393	0.247	0.15406	0.27713	0.23283	0.11968	0.18854	-4.5687	-4.6875	-4.6062	-5.3438	-4.5042	-4.7458	-5.0521	-4.575	-5.0479	-4.9229	-4.625	-5.3604	-4.6479	-5	-5.0417	-4.5958	127.571	103.805	116.019	287.476	113.203	146.210	204.847	345.876	187.603	169.945	274.681	280.860	332.453	268.695	150.805	212.520	0.0016616	0.0024181	0.00031776	1403.4	9.2441e-06	1.3386e-05	1442.7	513.32	1.5491e-05	1.3401e-05	651.61	268.76	203.43	87.052	1.4965e-05	122.34	0.0020904	0.010477	0.00087051	1264	2.6894e-05	3.4977e-05	1309.6	465.26	2.7793e-05	3.4383e-05	591.88	244.21	186.43	79.81	3.1363e-05	112.12	-12.144	121.416	40.094	-0.749	157.329	151.640	-1.885	5.096	135.426	146.880	2.499	7.358	9.481	13.788	144.832	10.914	-8191	255	
33040.414	1	1	0	0	0.18135	0.072769	0.19344	0.24192	0.093032	0.14324	0.1965	0.11434	0.14589	0.19585	0.16606	0.23174	0.2521	0.28403	0.032142	0.19972	-4.5167	-4.7375	-4.375	-5.3896	-4.6292	-4.7667	-5.0708	-4.675	-4.8562	-4.9854	-4.7646	-5.2562	-4.8333	-4.9396	-5.0333	-4.7167	310.756	315.525	190.223	345.152	92.493	196.011	287.479	256.247	296.397	304.872	215.357	302.112	33.181	323.557	319.275	287.579	0.0014998	0.0033001	0.00020093	1389.2	8.901e-06	5.6122e-06	1441	512.58	1.779e-05	1.0395e-05	656.61	269.01	204.45	87.136	1.4361e-05	122.32	0.0021032	0.010262	0.00085233	1254.5	2.7556e-05	3.4746e-05	1306.5	464.14	2.7531e-05	3.4723e-05	593.11	243.53	187.98	80.114	3.0504e-05	112.3	346.275	136.583	73.525	-0.582	148.068	160.361	-1.888	5.074	144.648	125.202	3.047	7.110	9.129	13.907	149.542	10.584	-8191	255	
33040.508	1	1	0	0	0.045197	0.09837	0.081599	0.27852	0.20351	0.15019	0.023908	0.163	0.07506	0.10989	0.30025	0.25831	0.20233	0.26376	0.13116	0.19334	-4.3896	-4.7604	-4.3979	-5.1896	-4.6438	-4.6417	-5.1729	-4.6771	-4.8271	-5.0021	-4.5687	-5.0771	-4.9062	-4.6562	-5.0771	-4.9458	121.623	60.417	265.458	337.379	125.279	57.907	238.475	252.173	309.550	273.248	298.787	317.143	3.830	311.869	117.851	256.795	0.0016282	0.0030421	0.00018307	1395.2	1.0299e-05	6.9824e-06	1449.3	513.08	1.5838e-05	9.6939e-06	655.41	268.31	204.3	87.659	6.2419e-06	122.8	0.0020774	0.010351	0.00081799	1257.7	2.8556e-05	3.4584e-05	1312.5	465.35	2.782e-05	3.425e-05	593.85	243.54	187.83	80.211	2.9786e-05	112.41	-7.044	131.713	83.789	-0.643	179.151	141.393	-2.015	5.140	146.017	130.260	2.916	7.170	8.837	13.600	162.902	10.550	-8191	255	
33040.605	1	1	0	0	0.034172	0.1731	0.062743	0.14884	0.21499	0.11703	0.2883	0.36842	0.11398	0.17151	0.12124	0.15708	0.085569	0.38762	0.28444	0.2626	-4.3688	-4.8125	-4.3292	-5.1854	-4.7208	-4.625	-5.2521	-4.9021	-4.8083	-4.9604	-4.7146	-5.1479	-4.9812	-4.5042	-5.0333	-4.8896	139.727	56.818	175.396	252.656	206.068	1.728	231.439	286.069	217.190	134.257	171.970	250.510	277.887	-8.645	77.606	326.489	0.0016229	0.0020791	0.00025864	1399.5	1.6771e-05	9.1851e-06	1446.2	513.44	9.3558e-06	8.8828e-06	654.24	268.88	204.81	87.333	1.1041e-05	123	0.0020915	0.0098145	0.00084843	1258	2.8039e-05	3.1975e-05	1307.7	466.59	2.647e-05	3.3005e-05	593.48	243.98	187.72	80.104	2.9352e-05	112.38	-11.400	131.757	83.058	-0.597	134.970	154.066	-1.631	4.978	173.282	134.246	2.728	7.144	9.113	13.487	120.231	10.655	-8191	255	
33040.699	1	1	0	0	0.1445	0.098023	0.12832	0.21628	0.23687	0.14638	0.13847	0.32763	0.1096	0.15662	0.25676	0.13218	0.10798	0.0759	0.12036	0.32946	-4.3438	-5.05	-4.3667	-5.0271	-4.8958	-4.4958	-5.0979	-4.9208	-4.5479	-5.0375	-4.6958	-5.0708	-5.0563	-4.7	-4.9542	-4.9125	28.705	174.662	63.740	272.364	334.721	-12.225	204.701	300.213	-11.704	19.605	303.259	254.410	266.152	253.377	111.856	314.778	0.001615	0.0021608	9.4448e-05	1395.6	1.4679e-05	6.7743e-06	1441.9	512.24	1.7889e-05	8.9318e-06	652.52	266.98	202.77	86.508	1.2292e-05	121.83	0.0020528	0.0096876	0.00078446	1255.4	2.6032e-05	3.2207e-05	1290.7	467.06	2.6921e-05	3.294e-05	589.7	241.59	186.77	79.579	2.8976e-05	111.27	-9.857	138.086	23.898	-0.677	126.896	124.294	-1.534	4.894	157.448	147.362	2.897	7.335	9.415	13.683	142.772	10.729	-8191	255	
33040.797	1	1	0	0	0.14412	0.20545	0.077213	0.067179	0.23136	0.23447	0.16348	0.2804	0.038933	0.053942	0.29043	0.174	0.13862	0.30882	0.25474	0.13252	-4.2917	-4.9688	-4.5146	-4.9875	-5.0208	-4.4083	-5.1083	-4.9187	-4.6375	-5.2208	-4.7521	-4.8854	-5.1354	-4.5188	-4.9938	-4.8417	217.688	-9.346	292.332	111.217	79.863	346.600	283.324	299.310	236.926	155.075	326.690	326.686	271.486	292.428	240.984	328.607	0.0015638	0.00037589	0.00033127	1386.4	1.248e-05	1.0674e-05	1426.5	509.17	9.2604e-06	1.0074e-05	647.43	265.12	202.46	86.469	1.2798e-05	121.15	0.002079	0.0094537	0.00080539	1249.6	2.6702e-05	3.2288e-05	1286.1	464.66	2.5868e-05	3.2119e-05	587.16	240.38	185.88	79.25	2.8624e-05	110.82	343.589	76.689	98.829	-0.455	148.501	137.812	-1.609	4.901	131.972	133.775	2.600	7.380	9.230	13.873	140.517	10.733	-8191	255	
33040.918	1	1	0	0	0.25799	0.13755	0.14281	0.12209	0.16935	0.068556	0.051033	0.33227	0.11024	0.23695	0.16907	0.16997	0.16524	0.14058	0.22871	0.3237	-4.1417	-5.1813	-4.6	-4.8271	-4.9729	-4.4729	-5.1083	-4.9625	-4.3604	-5.0042	-4.8021	-4.6917	-5.0917	-4.4542	-4.9104	-5.0292	243.023	162.937	15.244	176.987	54.868	166.409	138.028	288.358	318.896	-3.180	305.951	339.897	334.866	325.369	139.738	280.367	0.0015505	0.001207	0.00068272	1388.8	1.3763e-05	7.0764e-06	1439.1	510.45	1.8552e-05	6.5088e-06	651.62	264.98	201.74	86.553	5.7624e-06	121.18	0.0019304	0.0050263	0.0018502	1249.5	2.5059e-05	3.0916e-05	1291.4	465.03	2.5815e-05	3.0497e-05	588.98	240.42	185.77	79.234	2.8271e-05	111.09	-4.777	87.295	157.060	-0.928	120.581	148.986	-1.778	4.855	132.221	152.397	3.269	7.374	9.351	13.613	119.695	10.647	-8191	255	
33041.016	1	1	0	0	0.094166	0.32674	0.10788	0.38486	0.099108	0.27072	0.3345	0.1933	0.087946	0.1883	0.20411	0.35394	0.27071	0.13946	0.16059	0.32562	-4.2458	-5.0542	-4.5979	-4.9208	-5.0458	-4.4083	-5	-5.05	-4.375	-4.8229	-4.6854	-4.5938	-5.2646	-4.6729	-4.8208	-5.1292	138.897	292.966	177.717	-12.796	-1.014	233.181	241.480	284.585	78.760	260.568	333.795	299.088	315.588	341.817	10.546	275.233	0.0016496	0.0007982	0.00047591	1393.9	1.4159e-05	8.1669e-06	1432.2	509.92	1.5465e-05	1.227e-05	652.11	266.05	201.38	86.806	1.5405e-05	121.26	0.0019802	0.0027377	0.0027006	1249.8	2.5196e-05	3.0584e-05	1294.5	465.64	2.4339e-05	3.0275e-05	590.28	241.14	185.94	79.423	2.7876e-05	111.32	-11.708	84.215	175.327	-0.645	146.443	169.641	-1.537	5.023	150.915	127.645	3.203	7.251	9.210	13.708	160.037	10.972	-8191	255	
33041.109	1	1	0	0	0.15202	0.1286	0.09219	0.3359	0.10458	0.075937	0.16577	0.35162	0.12781	0.12592	0.14975	0.10072	0.090722	0.10268	0.065104	0.1271	-4.25	-4.8792	-4.6375	-4.7542	-5.1417	-4.7146	-4.8667	-5.0938	-4.4854	-5.0396	-4.8917	-4.6521	-5.2708	-4.8958	-4.7396	-5.1208	300.798	184.815	83.312	304.032	196.463	196.403	219.267	298.688	-12.647	220.104	266.351	209.629	267.946	41.289	19.378	272.978	0.0016786	0.00088421	0.00050644	1382.5	8.3496e-06	1.2025e-05	1433.6	509.2	1.9793e-05	6.495e-06	650.48	265.05	202.62	86.682	1.1403e-05	121.23	0.0019555	0.0027259	0.0026949	1248.4	2.3252e-05	3.034e-05	1288	464.44	2.5017e-05	3.0089e-05	587.03	240.04	184.36	79.688	2.6406e-05	111.09	343.152	86.322	177.245	-0.749	124.962	148.749	-1.632	5.050	173.054	78.230	3.045	7.188	9.371	13.841	124.083	10.617	-8191	255	
33041.207	1	1	0	0	0.075962	0.18257	0.087299	0.32942	0.1458	0.10264	0.2105	0.16985	0.036899	0.081879	0.13399	0.17687	0.34229	0.35367	0.20409	0.32683	-4.0083	-4.8917	-4.9271	-4.6562	-5.0604	-4.7521	-4.8729	-5.0875	-4.3875	-5.0687	-4.9604	-4.6937	-5.1937	-4.9375	-4.5708	-5.2917	124.630	67.639	111.526	314.401	160.277	251.884	285.350	262.289	208.491	-4.084	265.543	301.812	-4.487	299.850	261.677	279.462	0.0016497	0.0012167	0.00027421	1384.9	1.3932e-05	9.4096e-06	1425.5	511.69	1.1833e-05	7.5195e-06	648.97	266.47	202.77	86.991	9.2721e-06	121.67	0.0018888	0.0026274	0.0025453	1246.8	2.3724e-05	3.0247e-05	1281.5	464.63	2.3324e-05	2.8096e-05	586.49	241.22	184.15	80.306	2.5108e-05	111.52	-10.786	64.893	195.944	-0.628	134.018	136.154	-1.525	4.721	161.896	132.670	2.775	7.606	9.501	13.790	127.926	10.499	-8191	255	
33041.305	1	1	0	0	0.090024	0.04269	0.20048	0.30215	0.058584	0.11584	0.10039	0.20283	0.10569	0.12727	0.17132	0.10111	0.056074	0.30416	0.3318	0.26271	-4.2063	-4.7021	-4.9771	-4.8333	-4.9083	-4.6167	-4.8792	-5.2333	-4.4646	-4.8063	-5.0333	-4.5687	-5.0687	-4.8812	-4.4646	-5.1854	269.718	53.480	267.848	299.845	-4.890	225.184	304.500	281.339	333.697	287.085	273.524	285.908	55.037	315.152	90.834	285.576	0.0015388	0.001191	0.00048055	1384.9	8.5858e-06	1.6068e-05	1432.5	511.09	9.7028e-06	9.0325e-06	648.93	266.91	203.45	87.58	1.0474e-05	121.7	0.0017727	0.0023381	0.0024486	1247.5	2.1371e-05	2.835e-05	1288.9	464.31	2.317e-05	2.7534e-05	587.33	241.76	184.39	80.685	2.4144e-05	112.01	345.153	77.249	192.711	-0.771	168.829	139.977	-1.685	5.170	139.260	121.383	3.105	7.280	9.231	13.873	180.443	10.406	-8191	255	
33041.398	1	1	0	0	0.097057	0.099329	0.20448	0.16203	0.018536	0.14896	0.4158	0.11611	0.15199	0.1488	0.34072	0.13195	0.10239	0.24276	0.17218	0.26926	-4.2021	-4.6958	-4.9667	-4.6021	-5.0375	-4.8646	-4.8146	-5.3	-4.6396	-4.65	-5.1896	-4.7562	-5.0979	-4.9563	-4.4812	-5.2021	268.874	122.942	292.749	331.140	334.578	328.280	224.938	245.278	112.874	296.949	258.833	32.971	322.468	23.024	43.941	316.101	0.0018101	0.00093516	0.0003065	1383.7	1.9395e-05	1.1449e-05	1436.2	512.38	2.5105e-05	8.1077e-06	650.9	267.24	203.31	86.998	7.8106e-06	123.44	0.0018803	0.0024118	0.0023745	1252.1	2.1524e-05	2.7374e-05	1293.1	462.98	5.5362e-05	2.8481e-05	589.33	242.22	184.13	80.425	2.4677e-05	112.34	346.171	79.105	198.600	-0.641	121.499	124.140	-1.657	4.809	173.923	129.227	3.084	7.340	9.466	13.735	166.158	10.690	-8191	255	
33041.520	1	1	0	0	0.025463	0.19512	0.16921	0.46059	0.08642	0.3837	0.027161	0.34263	0.069841	0.096196	0.40293	0.19648	0.18147	0.35541	0.091342	0.3096	-4.3604	-4.5854	-5.0521	-4.5729	-4.8771	-5.0292	-4.5604	-5.1979	-4.5729	-4.6958	-5.3896	-4.8021	-4.7958	-4.9396	-4.5938	-5.0167	104.168	56.266	2.469	325.910	109.475	170.484	330.589	257.321	144.856	199.665	335.433	324.005	298.332	31.204	188.373	303.378	0.0016042	0.00103	0.00035771	1392	1.1643e-05	9.8278e-06	1433.5	511.05	2.5514e-05	9.1329e-06	646.93	266.69	203.82	87.389	9.842e-06	122.02	0.0018171	0.0024	0.0023949	1254.4	2.14e-05	2.7377e-05	1288.5	461.92	7.3869e-05	2.548e-05	586.87	240.86	184.27	80.511	2.3611e-05	111.68	345.765	91.687	218.035	-0.810	110.176	138.379	-1.526	4.968	90.623	150.113	2.885	7.528	9.481	14.122	134.524	10.462	-8191	255	
33041.613	1	1	0	0	0.19473	0.0047768	0.096319	0.056226	0.084555	0.19509	0.14163	0.30357	0.31182	0.11689	0.10086	0.098375	0.098517	0.13238	0.080437	0.15892	-4.4521	-4.5896	-5.0667	-4.7	-4.9271	-5.0771	-4.5813	-5.2708	-4.7979	-4.6354	-5.2917	-4.5792	-4.7688	-5.2104	-4.4771	-5.0938	314.647	147.550	314.266	10.638	43.257	266.110	281.249	257.505	77.832	152.090	14.717	343.780	82.027	16.909	80.972	269.825	0.0016666	0.00091637	4.2966e-05	1387.5	1.1752e-05	1.0972e-05	1434.6	508.11	3.9804e-05	8.2373e-06	649.08	266.9	202.78	87.717	1.5001e-05	122.75	0.0017863	0.0022678	0.0020194	1247.2	2.1085e-05	2.6427e-05	1287.2	459.82	7.3464e-05	2.6088e-05	587.42	241.57	183.86	80.502	2.4113e-05	112.25	-9.988	74.813	-6.264	-0.633	131.748	154.651	-1.823	5.166	78.978	140.949	3.164	7.690	9.322	13.876	157.674	10.395	-8191	255	
33041.711	1	1	0	0	0.14264	0.15127	0.094406	0.090636	0.053801	0.074743	0.087692	0.3003	0.091644	0.053755	0.18714	0.38129	0.19144	0.27882	0.10838	0.213	-4.3875	-4.5521	-5.0375	-4.7146	-4.6458	-5.0958	-4.5479	-5.0146	-4.7812	-4.5417	-5.125	-4.8458	-4.7083	-5.2917	-4.425	-5.125	12.508	302.017	113.739	77.922	96.226	25.883	262.646	302.505	35.177	279.828	295.993	310.635	306.134	326.798	24.723	261.967	0.0015737	0.0010173	9.8164e-05	1389	1.675e-05	1.3881e-05	1439	510.27	3.1233e-05	1.2474e-05	647.97	267.43	203.12	88.09	8.5614e-06	122.99	0.0017668	0.0021931	0.00095649	1256.2	2.0701e-05	2.46e-05	1292.2	461.36	7.2128e-05	2.5464e-05	587.15	242.52	184.35	80.892	2.3499e-05	112.76	345.686	78.337	30.211	-0.592	122.830	136.054	-1.559	4.903	75.786	129.783	2.938	7.407	9.599	13.575	139.876	10.666	-8191	255	
33041.805	1	1	0	0	0.045613	0.14861	0.073694	0.03817	0.11909	0.14036	0.30265	0.20708	0.24057	0.1397	0.10126	0.073834	0.12944	0.39723	0.1351	0.13007	-4.5312	-4.3938	-4.9021	-4.7104	-4.6438	-5.1458	-4.75	-4.9667	-4.875	-4.4437	-5.1646	-4.7875	-4.7333	-5.1604	-4.4792	-4.8854	35.846	166.884	299.930	2.585	23.683	38.574	329.485	316.738	273.105	186.622	264.668	344.833	196.168	298.045	136.365	285.961	0.0015941	0.00083672	0.00031297	1394.7	1.344e-05	9.6244e-06	1441.5	511.57	3.1515e-05	8.7258e-06	654.31	268.42	204.54	87.878	3.1087e-05	122.99	0.0017011	0.0021396	0.00060607	1262.9	1.905e-05	2.5844e-05	1294.7	462.24	7.1295e-05	2.3726e-05	591.33	242.74	185.21	80.872	2.7827e-05	112.75	346.365	80.136	94.516	-0.642	130.384	120.053	-1.645	5.020	106.681	97.806	3.310	7.280	9.293	13.843	187.295	10.537	-8191	255	
33041.902	1	1	0	0	0.15099	0.20927	0.18655	0.3464	0.1071	0.09339	0.11506	0.17711	0.15961	0.10302	0.0072909	0.2712	0.38973	0.23819	0.15526	0.085818	-4.5792	-4.4646	-4.9563	-4.95	-4.5188	-5.1104	-4.825	-4.6708	-4.9187	-4.3875	-5.0563	-4.9271	-4.6062	-5.0938	-4.7333	-5.0042	298.972	294.802	145.113	-7.840	32.604	242.280	-11.346	294.356	332.220	195.697	62.217	314.983	292.237	325.597	132.034	261.628	0.0016241	0.0008716	0.00027186	1392	1.5639e-05	1.0843e-05	1426.6	510.8	3.6495e-05	9.331e-06	648.82	267.2	203.3	87.647	2.5452e-05	122.51	0.0016914	0.0022915	0.00060564	1261	1.9206e-05	2.4261e-05	1283.5	461.03	7.0549e-05	2.5756e-05	586	241.5	184.14	80.324	6.3266e-05	112.5	-9.112	67.622	85.827	-0.694	139.295	105.678	-1.710	5.133	91.864	143.055	3.022	7.280	9.658	13.739	189.738	10.880	-8191	255	
33041.996	1	1	0	0	0.038434	0.12068	0.11652	0.12257	0.15547	0.21058	0.092617	0.44281	0.021238	0.19067	0.11591	0.26375	0.20923	0.13629	0.073869	0.27271	-4.7208	-4.4521	-4.8833	-5.0188	-4.4854	-4.9792	-4.8083	-4.8083	-5.2583	-4.5167	-4.9563	-4.9208	-4.3938	-5.45	-4.5229	-4.8875	144.189	37.376	180.872	292.386	89.651	21.909	214.616	310.169	327.150	241.058	230.509	275.343	25.430	315.482	306.169	262.789	0.0018722	0.00071414	0.00025638	1378.8	8.6136e-06	1.3489e-05	1421.1	507.07	3.4059e-05	1.1795e-05	648.85	267.65	202.59	87.318	3.1456e-05	122.87	0.0016882	0.0022095	0.00058084	1253.9	1.8722e-05	2.3942e-05	1280.9	459.6	6.8585e-05	2.5823e-05	585.64	241.48	184.08	80.112	7.9501e-05	112.43	-10.793	73.280	90.156	-0.615	127.070	138.938	-1.616	5.073	115.599	129.079	2.970	7.401	9.247	13.848	182.450	10.846	-8191	255	
33042.094	1	1	0	0	0.098712	0.079061	0.023807	0.22519	0.051166	0.039697	0.078867	0.29948	0.20556	0.1128	0.13653	0.10989	0.075135	0.34423	0.16565	0.26782	-4.6	-4.4062	-4.7917	-5.125	-4.3646	-5.1521	-4.9479	-4.75	-5.0583	-4.5521	-4.8708	-5.1646	-4.4208	-5.0646	-4.7208	-4.8271	321.520	36.277	281.123	333.901	176.964	187.353	281.879	291.976	29.569	19.591	106.909	-1.476	23.165	323.356	55.757	340.376	0.0017355	0.0010115	0.00028517	1389.9	1.5814e-05	7.1153e-06	1428.3	506.45	3.399e-05	2.0591e-05	645.17	268.28	202.32	87.48	2.4545e-05	122.87	0.001655	0.0021212	0.00061076	1256.2	1.8925e-05	2.3118e-05	1284.5	459.57	5.5851e-05	3.2129e-05	584.61	241.85	183.56	80.177	7.9074e-05	112.49	-10.440	70.680	75.889	-0.756	150.627	136.121	-1.869	5.108	74.794	148.577	3.005	7.448	9.205	13.715	185.006	10.823	-8191	255	
33042.191	1	1	0	0	0.24251	0.026201	0.15278	0.12261	0.27055	0.10778	0.16541	0.35994	0.19201	0.18333	0.13103	0.15523	0.13138	0.052305	0.13299	0.32901	-4.7	-4.4896	-4.8208	-5.2167	-4.4563	-4.8729	-4.9854	-4.6146	-5.1438	-4.5354	-4.9354	-5.2958	-4.4354	-4.9292	-4.9	-4.7063	7.712	126.182	314.059	251.928	263.501	273.343	293.248	244.284	52.433	213.352	314.346	13.009	239.057	177.129	26.141	278.324	0.0016914	0.0010937	0.00025366	1391.2	1.4263e-05	1.2651e-05	1437.5	510.67	3.4496e-05	2.074e-05	647.4	266.36	200.7	87.353	2.7683e-05	122.7	0.0016563	0.0022387	0.00057608	1258.5	2.0223e-05	2.4569e-05	1290.4	460.73	2.5467e-05	7.6059e-05	586.25	241.5	183.3	79.809	7.8284e-05	112.27	-10.973	73.108	83.104	-0.711	130.251	130.927	-1.885	4.967	89.383	152.673	3.051	7.489	9.567	13.940	182.345	10.432	-8191	255	
33042.309	1	1	0	0	0.22429	0.16626	0.19485	0.29346	0.11983	0.16992	0.19557	0.30743	0.088616	0.14788	0.21372	0.2774	0.2311	0.43607	0.22978	0.068023	-4.6208	-4.5375	-4.6646	-5.1604	-4.5667	-4.9792	-5.1417	-4.6604	-5.125	-4.6521	-4.7021	-5.1146	-4.6813	-5.1354	-4.9792	-4.6937	92.390	251.944	159.637	278.477	52.511	341.535	314.515	338.535	287.678	262.178	312.579	14.119	334.865	299.455	283.720	234.340	0.00164	0.00084694	0.00031748	1389.3	8.7289e-06	1.1238e-05	1424.2	507.35	1.3678e-05	2.7681e-05	643.1	264.01	201.13	86.607	2.8921e-05	121.57	0.0017464	0.0023133	0.0005977	1255.3	1.9772e-05	2.474e-05	1282.6	458.89	1.9754e-05	9.047e-05	581.98	239.56	182.79	79.402	7.7666e-05	111.38	-11.444	54.656	71.829	-0.733	140.125	139.096	-1.769	5.194	149.381	101.838	2.873	7.296	9.584	13.882	184.882	10.883	-8191	255	
33042.406	1	1	0	0	0.074028	0.16867	0.087361	0.24373	0.080265	0.19176	0.20606	0.25681	0.074899	0.028607	0.10151	0.18077	0.08232	0.16402	0.12361	0.22083	-4.7208	-4.85	-4.5229	-5.275	-4.5208	-4.8042	-5.1229	-4.5646	-4.9812	-4.6479	-4.6979	-5.2333	-4.8083	-4.9667	-5.0125	-4.6542	8.438	318.868	113.050	291.237	153.961	302.134	286.361	317.628	294.225	211.657	257.132	261.313	248.318	302.542	-2.316	29.408	0.0015272	0.0010008	0.00023676	1378.2	1.2768e-05	7.3517e-06	1415.5	505.62	1.532e-05	2.9719e-05	645.67	264.67	201.69	86.786	2.8572e-05	121.32	0.0016568	0.0022736	0.00060115	1246.2	2.8845e-05	2.4449e-05	1275	456.3	2.1009e-05	8.9881e-05	581.95	238.64	182.3	79.232	7.8616e-05	111.15	-11.266	58.576	67.095	-0.788	156.891	123.332	-1.693	4.920	129.678	114.065	3.078	7.570	9.357	13.758	188.645	10.462	-8191	255	
33042.480	1	1	0	0	0.024047	0.054495	0.11637	0.29835	0.02612	0.15134	0.26287	0.21031	0.015194	0.12682	0.20982	0.39083	0.18258	0.31884	0.17985	0.15165	-4.6438	-4.8104	-4.5875	-5.1917	-4.6417	-4.6937	-5.2688	-4.5354	-5.0021	-4.7729	-4.6833	-5.0958	-4.5687	-4.8063	-5.25	-4.5583	311.422	-3.732	253.815	300.643	280.316	86.688	12.289	26.991	23.183	35.002	224.541	291.809	287.677	345.905	17.873	300.084	0.0015397	0.0007817	0.00036082	1370.8	1.2136e-05	8.9643e-06	1425.9	503.62	2.0512e-05	3.7051e-05	642.3	264.31	199.82	86.142	2.9894e-05	120.54	0.0016449	0.0021719	0.0006251	1239	6.0518e-05	2.3354e-05	1282.2	455.86	2.0864e-05	9.1285e-05	582.56	238.84	181.75	78.926	8.1902e-05	110.98	-10.061	73.050	81.147	-0.774	177.742	121.747	-1.607	4.977	138.731	123.435	3.145	7.388	9.282	13.770	198.162	10.636	-8191	255	
33042.598	1	1	0	0	0.14344	0.079502	0.10078	0.23854	0.14384	0.12789	0.34094	0.27123	0.14046	0.22494	0.28255	0.22303	0.15157	0.21879	0.046159	0.4004	-4.5417	-4.8562	-4.5042	-5.3187	-4.6896	-4.65	-5.3583	-4.6438	-4.9	-4.9458	-4.6417	-5.3208	-4.9104	-4.7188	-5.1521	-4.8167	125.220	197.244	7.513	184.522	239.898	334.786	299.448	234.441	232.028	273.295	263.297	-6.034	253.840	318.356	230.446	323.137	0.0016544	0.00080407	0.00029461	1375	7.5307e-06	1.1072e-05	1432.2	505.66	1.2865e-05	2.5953e-05	643.89	262.93	198.69	86.89	7.9152e-06	121.43	0.0016636	0.0022334	0.00060768	1240.2	7.0328e-05	2.4947e-05	1289.6	455.55	2.1383e-05	9.2261e-05	583.02	238.92	181.35	79.153	5.9298e-05	111.3	342.040	72.630	75.338	-0.743	25.221	113.679	-1.825	5.074	142.744	125.764	2.958	7.563	9.652	13.839	112.772	10.735	-8191	255	
33042.695	1	1	0	0	0.17768	0.087508	0.078799	0.17265	0.081211	0.12112	0.22064	0.20926	0.2457	0.17801	0.13163	0.20683	0.11129	0.1025	0.19611	0.11098	-4.5896	-5	-4.4458	-5.0146	-4.6521	-4.475	-5.1271	-4.6521	-4.8271	-4.9563	-4.6354	-5.075	-4.9104	-4.6312	-5.0958	-4.8042	291.679	35.778	213.239	9.325	145.379	213.983	272.240	333.494	299.375	80.076	305.823	249.780	310.906	-6.595	27.011	221.695	0.0017018	0.00097253	0.00021802	1376.2	2.0473e-05	5.0527e-06	1430.5	501.78	1.9881e-05	2.6191e-05	644.18	262.68	199.48	85.353	8.3651e-06	120.13	0.0016947	0.0022333	0.00063707	1236.9	7.1308e-05	2.5824e-05	1281.7	453.47	2.094e-05	9.1591e-05	580.45	237.77	180.84	78.32	2.3469e-05	110.76	-6.570	82.403	92.197	-0.703	343.573	115.247	-1.634	5.241	162.064	125.789	2.722	7.270	9.260	14.013	133.061	10.729	-8191	255	
33042.789	1	1	0	0	0.2543	0.14356	0.11491	0.21459	0.15952	0.14865	0.29913	0.22395	0.063763	0.11796	0.28563	0.15288	0.27728	0.40471	0.027191	0.39506	-4.5104	-5.0563	-4.5167	-5.1021	-4.9917	-4.5563	-5.3458	-4.7958	-4.6937	-5.0792	-4.6854	-5.0521	-5.0229	-4.5854	-5.15	-4.8833	243.920	275.105	105.561	314.421	115.128	140.337	308.751	298.223	36.929	-8.914	312.280	256.541	47.161	294.634	108.261	289.634	0.0016496	0.00088644	0.00026726	1366.5	1.379e-05	1.0811e-05	1420.2	502.67	1.5026e-05	2.7525e-05	640.73	262.29	198.78	85.024	1.0583e-05	120.12	0.0017242	0.002207	0.00064163	1231.6	6.9559e-05	2.606e-05	1275.9	452.32	2.0976e-05	9.4786e-05	578.83	237.42	180.46	78.062	2.2658e-05	110.95	-12.867	58.151	82.596	-0.715	66.153	136.277	-1.624	4.989	135.804	138.804	3.151	7.264	9.332	13.814	142.079	10.578	-8191	255	
33042.887	1	1	0	0	0.11867	0.18695	0.041582	0.10894	0.11537	0.23968	0.20118	0.34728	0.12787	0.18533	0.41063	0.24294	0.11388	0.1301	0.092065	0.13113	-4.2979	-5.1167	-4.3896	-4.875	-4.8271	-4.4313	-5.2521	-4.9604	-4.5646	-5.0583	-4.6958	-4.8438	-4.9688	-4.625	-4.8375	-4.9375	334.229	19.706	233.801	-9.376	344.585	320.897	274.965	264.835	-11.396	32.781	304.666	311.860	27.993	14.602	171.077	175.925	0.0014961	0.00092358	0.00021663	1369.9	9.1664e-06	8.752e-06	1423.1	501.42	1.6326e-05	1.8822e-05	642.19	263.01	198.59	85.639	1.401e-05	120.74	0.0016426	0.0022639	0.00066174	1234.4	7.0977e-05	2.575e-05	1277.8	452.92	2.1297e-05	6.4874e-05	582.32	238.25	180.18	78.54	2.2966e-05	111.47	344.422	75.272	95.922	-0.589	31.797	113.081	-1.822	4.921	162.391	100.158	3.021	7.367	9.371	13.930	129.886	11.052	-8191	255	
33043.008	1	1	0	0	0.2033	0.077127	0.13236	0.35972	0.12901	0.19742	0.22916	0.17581	0.033898	0.10367	0.11098	0.27357	0.23729	0.16575	0.17656	0.066713	-4.2438	-5.1687	-4.5229	-4.95	-4.9083	-4.6062	-5.1271	-5.0271	-4.6708	-5.1333	-4.7042	-4.8646	-5.0896	-4.6771	-4.8354	-5	98.127	37.493	-1.651	304.114	298.627	246.499	275.746	287.820	16.436	325.604	22.978	259.639	-9.573	249.126	304.230	302.683	0.0015561	0.0010689	0.00023059	1373	2.3431e-05	1.1615e-05	1431.1	500.86	2.3371e-05	4.4317e-06	645	263.26	199.54	85.663	8.1707e-06	120.08	0.0016942	0.0023067	0.00065915	1236.9	6.7911e-05	2.646e-05	1285.1	454.27	2.0433e-05	2.4366e-05	586.26	238.03	180.51	78.323	2.2326e-05	110.87	-11.222	48.233	82.888	-0.590	19.330	113.496	-1.609	4.926	176.075	107.243	3.215	7.532	9.612	13.641	144.176	10.615	-8191	255	
33043.102	1	1	0	0	0.18362	0.11901	0.28464	0.097716	0.13717	0.16688	0.29398	0.3958	0.31069	0.19384	0.22708	0.24554	0.12751	0.19578	0.090997	0.43707	-4.1958	-5.1354	-4.5833	-4.8146	-4.9792	-4.4125	-4.975	-5.1583	-4.4187	-5.0521	-5.0229	-4.6917	-5.0437	-4.7312	-4.8208	-5.2396	259.815	179.080	227.856	323.557	328.603	203.688	271.186	304.548	49.024	222.286	338.351	314.078	150.040	277.024	74.361	292.750	0.0016751	0.00086302	0.00032	1372.2	1.7236e-05	7.2677e-06	1420.7	500.22	1.7808e-05	1.0089e-05	642.42	259.69	197.57	85.027	8.9198e-06	119.63	0.0016581	0.0021485	0.0006185	1234	6.9666e-05	2.4661e-05	1276.3	452.31	2.0728e-05	2.4369e-05	583.53	235.77	179.53	77.865	2.2299e-05	110.15	-11.477	68.604	71.790	-0.390	50.158	119.015	-1.942	5.102	157.213	153.559	3.309	7.506	9.585	13.978	140.706	10.945	-8191	255	
33043.199	1	1	0	0	0.12984	0.20921	0.12244	0.04974	0.16278	0.10106	0.28998	0.25775	0.14427	0.095201	0.055738	0.096329	0.29348	0.26103	0.091411	0.32194	-4.3292	-4.9646	-4.7042	-4.6521	-5.2521	-4.5833	-4.9875	-5.1604	-4.3729	-4.8917	-4.9521	-4.7188	-5.0979	-4.8063	-4.7	-5.3021	327.056	142.861	137.408	317.104	270.366	29.741	292.059	289.025	288.819	232.654	203.684	337.460	320.926	290.418	187.728	269.084	0.001596	0.00093401	0.00021938	1361.3	2.5783e-05	9.8839e-06	1410.4	498.65	2.1153e-05	1.0806e-05	633.11	259.2	197.96	84.777	1.2859e-05	119.1	0.0016809	0.0022507	0.00062995	1227.4	4.657e-05	4.4725e-05	1270	449.89	2.0762e-05	2.5802e-05	579.74	234.96	179.08	77.525	2.1579e-05	109.66	345.392	88.119	75.141	-0.642	32.754	149.943	-1.734	4.876	141.559	129.735	3.185	7.582	9.721	13.863	156.992	10.783	-8191	255	
33043.297	1	1	0	0	0.22116	0.073112	0.26732	0.20436	0.20214	0.2589	0.15262	0.020064	0.11375	0.40489	0.18829	0.056239	0.15549	0.13243	0.29051	0.33238	-4.2083	-4.9521	-4.8979	-4.7729	-5.0833	-4.6854	-4.9854	-5.1438	-4.45	-4.8792	-4.9646	-4.5833	-5.1104	-4.9458	-4.6104	-5.3021	185.398	149.543	186.290	342.509	280.751	68.548	300.534	305.548	268.842	202.788	313.650	291.508	320.575	322.629	285.643	295.425	0.0016495	0.0013009	0.00022312	1362.6	1.0713e-05	1.1215e-05	1415.6	497.34	1.7885e-05	6.8562e-06	640.6	259.27	196.08	84.345	1.0263e-05	119.38	0.0017115	0.0021602	0.00061194	1227.9	1.9787e-05	8.6676e-05	1275.3	449.36	2.1075e-05	2.4922e-05	581.82	235.05	178.15	77.231	2.3194e-05	109.86	-9.789	98.783	74.360	-0.705	139.630	117.427	-1.959	5.066	163.725	100.408	3.495	7.459	9.481	13.947	153.518	10.906	-8191	255	
33043.391	1	1	0	0	0.17321	0.10238	0.038882	0.25591	0.080188	0.062363	0.24746	0.22608	0.035709	0.17037	0.11399	0.043598	0.16875	0.12461	0.043776	0.36599	-4.2354	-4.8208	-5.0229	-4.8	-5.0375	-4.725	-4.6417	-5.1042	-4.5396	-4.875	-5.1312	-4.6188	-4.9646	-4.8646	-4.4417	-5.3458	314.544	288.696	186.157	262.160	163.072	139.595	297.199	258.422	285.569	152.015	6.593	147.426	321.220	267.656	224.713	244.264	0.0016053	0.00087777	0.00025413	1374.2	1.39e-05	2.5945e-05	1434.6	495.54	1.3421e-05	8.1368e-06	638.55	259.09	194.83	83.944	1.1191e-05	118.61	0.0017207	0.002198	0.00064704	1231.2	2.0181e-05	9.3311e-05	1286.9	448.68	2.1801e-05	2.4149e-05	581.58	235.13	177.28	76.992	2.2872e-05	109.24	-9.330	61.100	62.582	-0.605	113.919	77.190	-1.778	5.152	165.343	137.511	3.148	7.649	9.388	14.002	170.814	10.953	-8191	255	
33043.484	1	1	0	0	0.083149	0.21864	0.02623	0.39079	0.14819	0.17186	0.17322	0.13409	0.017932	0.31184	0.18207	0.19418	0.070185	0.17291	0.0084149	0.28367	-4.2771	-4.7667	-5.0333	-4.7937	-5.1167	-4.8562	-4.7854	-5.1396	-4.6521	-4.8729	-5.1521	-4.45	-4.975	-4.9792	-4.7083	-5.3646	179.209	77.196	146.520	303.417	313.905	210.429	176.886	326.586	157.468	39.654	315.391	338.273	-8.173	302.315	334.246	271.028	0.0019524	0.0012567	0.00024754	1361.8	7.7385e-06	1.9854e-05	1419.7	493.73	1.2496e-05	1.1267e-05	636.75	259.61	195.49	84.009	7.9514e-06	119.38	0.0026776	0.0020536	0.00064445	1230.1	1.9167e-05	9.2038e-05	1277.3	447.73	2.069e-05	2.381e-05	580.22	234.46	177.35	76.963	2.2985e-05	108.84	9.813	76.821	54.992	-0.464	154.934	94.429	-1.470	5.056	167.244	127.170	3.146	7.462	9.831	14.096	147.169	10.673	-8191	255	
33043.605	1	1	0	0	0.22463	0.21212	0.14281	0.099021	0.27865	0.18558	0.23594	0.36131	0.15634	0.059201	0.12605	0.21509	0.25643	0.31835	0.12381	0.24782	-4.1958	-4.7688	-5.1208	-4.6979	-5.0312	-4.8667	-4.7167	-5.3521	-4.7167	-4.775	-5.2271	-4.5521	-5.0167	-4.9583	-4.3458	-5.3042	139.557	37.358	33.170	299.319	36.942	226.956	259.958	261.511	271.865	28.579	197.331	329.504	304.190	335.326	51.316	302.057	0.0022898	0.00099809	0.00016513	1361.3	1.6144e-05	1.9176e-05	1426.7	496.44	1.4618e-05	5.0502e-06	633.41	259.41	194.98	83.853	1.2939e-05	118.6	0.0044571	0.002213	0.00063277	1226.5	1.9092e-05	9.1691e-05	1277.9	448.01	2.0548e-05	2.4805e-05	578.26	234.48	177.19	76.849	2.3167e-05	108.63	3.678	101.935	111.568	-0.548	118.123	76.425	-1.490	4.758	150.449	118.665	3.130	7.524	9.564	13.945	140.784	10.803	-8191	255	
33043.703	1	1	0	0	0.041706	0.17706	0.2187	0.22271	0.23658	0.19803	0.25341	0.15794	0.080671	0.035519	0.20103	0.27959	0.20537	0.042748	0.13416	0.04666	-4.4792	-4.6667	-4.9979	-4.7812	-5.0104	-4.9521	-4.4646	-5.1583	-4.725	-4.5396	-5.3667	-4.8896	-5.0479	-5.0896	-4.3542	-5.1542	111.834	199.326	37.015	323.608	99.327	51.104	342.962	323.521	314.619	252.142	333.034	289.966	346.172	46.999	305.650	56.673	0.0013008	0.0010068	0.00025679	1359.5	1.2608e-05	2.145e-05	1420.2	494.08	1.8623e-05	1.3112e-05	638.42	259.13	194.79	84.061	1.0184e-05	118.93	0.0043921	0.0022149	0.00063208	1226.5	1.9613e-05	9.394e-05	1277.3	446.06	2.0528e-05	2.5576e-05	577.54	235.06	176.71	76.858	2.3228e-05	109.03	5.976	83.664	78.579	-0.701	139.397	96.869	-1.601	4.745	164.782	142.131	3.141	7.701	9.421	13.938	133.883	10.666	-8191	255	
33043.773	1	1	0	0	0.15899	0.10674	0.077173	0.27233	0.11434	0.10686	0.12075	0.24344	0.10668	0.32853	0.2536	0.07406	0.40201	0.086479	0.11443	0.32654	-4.5271	-4.6312	-5.1917	-4.9208	-4.7438	-5.0042	-4.7063	-5.1375	-4.7812	-4.5771	-5.3688	-4.7708	-4.8146	-5.1271	-4.6312	-5.0083	121.979	24.039	324.102	282.614	339.121	25.840	238.392	254.937	4.362	42.722	-4.203	249.178	334.742	86.690	17.690	305.197	0.0013457	0.00067477	0.00031395	1365	7.0064e-06	1.9976e-05	1426.6	493.91	1.2853e-05	7.0206e-06	636.45	258.7	194.9	83.958	8.5367e-06	119.22	0.0044788	0.0021865	0.00061653	1224.7	1.9169e-05	9.1951e-05	1282.6	446.18	2.0765e-05	2.4466e-05	575.81	236.84	176.96	76.854	2.293e-05	109.06	14.940	97.881	64.673	-0.624	90.525	103.725	-1.464	5.099	155.319	122.015	3.288	7.286	9.432	13.954	133.628	11.062	-8191	255	
33043.871	1	1	0	0	0.37443	0.18643	0.17599	0.19946	0.09867	0.37216	0.23762	0.13125	0.080519	0.16964	0.40485	0.16662	0.22087	0.1807	0.013324	0.16236	-4.5667	-4.6	-4.9979	-4.6792	-4.5083	-5.1562	-4.7354	-5.1083	-4.9688	-4.4688	-5.0917	-4.7458	-4.7688	-5.4125	-4.4646	-5.0521	240.385	50.283	249.325	114.034	309.130	201.341	325.409	341.750	246.060	222.512	311.477	327.832	-5.403	332.774	151.724	246.919	0.0014871	0.0010343	0.00031852	1354.3	1.5082e-05	1.9514e-05	1416.6	494.31	1.0208e-05	9.1284e-06	631.55	258.04	195.46	83.964	1.5989e-05	118.99	0.0043469	0.0022004	0.00062145	1221.7	1.9851e-05	9.1631e-05	1270.1	446.6	2.0815e-05	2.5187e-05	571.75	235.59	177.26	76.909	2.2697e-05	108.73	10.171	69.430	59.728	-0.740	129.725	103.927	-1.370	5.297	153.133	140.490	3.026	7.379	9.792	13.752	139.334	10.780	-8191	255	
33043.992	1	1	0	0	0.10383	0.10994	0.089228	0.29038	0.055966	0.18668	0.17223	0.14039	0.10004	0.049911	0.27155	0.22512	0.0089744	0.43749	0.16069	0.18668	-4.7438	-4.5354	-5.0167	-4.8708	-4.5813	-5.2229	-4.7917	-4.7771	-4.9729	-4.4	-5.1417	-4.9083	-4.675	-5.1521	-4.575	-4.9292	219.819	214.096	44.010	325.951	46.765	333.624	341.691	296.293	139.605	332.893	295.846	276.755	81.866	312.801	52.827	288.354	0.0014424	0.0010467	0.00028923	1359.9	8.6887e-06	2.0569e-05	1412.3	496.4	1.8104e-05	5.9717e-06	635.31	260.18	196.46	84.241	1.4142e-05	119.44	0.0044268	0.0021876	0.00057996	1221.2	1.8909e-05	4.918e-05	1270.7	447.49	2.0477e-05	2.4232e-05	572.99	236.94	177.8	76.986	2.2753e-05	109.26	3.067	71.255	87.404	-0.472	152.622	54.878	-1.771	5.227	156.668	116.436	3.212	7.293	9.486	13.863	143.794	10.643	-8191	255	
33044.090	1	1	0	0	0.13685	0.10255	0.048335	0.19904	0.13779	0.25769	0.066879	0.064339	0.085189	0.17711	0.10687	0.2776	0.22837	0.52853	0.076231	0.37557	-4.6729	-4.5188	-4.8562	-5.0583	-4.3958	-5.0437	-4.7271	-4.9542	-5.0229	-4.5208	-5.1104	-5.0417	-4.6646	-5.1771	-4.5333	-4.7042	276.085	274.562	78.563	271.265	333.536	38.226	291.939	338.176	47.825	20.321	289.807	344.135	277.916	322.940	22.868	328.018	0.0014777	0.001228	0.00032344	1355.8	7.1158e-06	1.0625e-05	1421.2	492.52	1.5972e-05	8.9138e-06	632.68	259.98	194.45	83.965	1.0482e-05	119.44	0.0043243	0.0022437	0.00059744	1220	1.9868e-05	2.3453e-05	1283.1	445.94	2.089e-05	2.5005e-05	573.52	236.43	176.92	76.87	2.1504e-05	109.2	11.390	85.318	70.084	-0.431	137.705	128.692	-1.474	5.123	157.474	137.416	3.256	7.390	9.666	13.832	153.276	10.950	-8191	255	
33044.184	1	1	0	0	0.16677	0.15714	0.046219	0.2939	0.054014	0.063838	0.23803	0.065236	0.18483	0.081526	0.12917	0.20215	0.014393	0.080471	0.1576	0.23326	-4.7833	-4.4146	-4.9979	-5.0708	-4.4208	-4.9729	-4.9	-4.6833	-5.1	-4.5687	-4.9396	-5.2292	-4.4313	-5.1271	-4.6792	-4.6687	335.005	299.176	51.515	298.146	156.583	103.401	309.364	144.131	-11.322	306.513	274.090	341.187	185.912	51.880	141.699	325.958	0.0011561	0.00089401	0.00023809	1360.9	1.4107e-05	9.7791e-06	1426.7	494.13	1.2196e-05	9.0331e-06	636.37	259.14	194.38	83.577	1.3298e-05	118.66	0.0043156	0.0021255	0.00058553	1223.6	1.9646e-05	2.419e-05	1288.8	446.41	2.0427e-05	2.4575e-05	575.08	236.75	176.65	76.625	2.331e-05	108.63	4.188	68.526	91.937	-0.684	115.959	124.736	-1.650	5.022	167.983	136.239	3.303	7.611	9.677	14.184	120.670	10.696	-8191	255	
33044.281	1	1	0	0	0.11577	0.081863	0.17125	0.063548	0.1013	0.18736	0.35573	0.13139	0.15295	0.087961	0.20009	0.19624	0.12017	0.26877	0.13889	0.19326	-4.8083	-4.5188	-4.7792	-5.2063	-4.4417	-5.0958	-5.0167	-4.5333	-5.1208	-4.7479	-4.925	-5.0521	-4.5646	-5.0604	-4.8688	-4.7042	95.311	39.705	73.064	183.458	336.458	40.276	281.965	261.199	76.087	270.796	325.376	64.729	176.983	313.372	88.634	312.912	0.0011613	0.00071184	0.00028857	1357.6	1.2092e-05	8.289e-06	1410.9	493	1.5371e-05	1.004e-05	634.59	257.66	193.5	83.904	9.8303e-06	118.22	0.0026153	0.0050517	0.00059232	1220.9	2.0057e-05	2.3763e-05	1282	446.08	2.1179e-05	2.531e-05	573.5	236.1	176.55	76.92	2.2448e-05	108.45	3.497	133.806	74.811	-0.759	120.317	144.161	-1.607	5.055	164.348	140.193	3.130	7.626	9.509	13.819	154.103	10.785	-8191	255	
33044.398	1	1	0	0	0.28695	0.0696	0.10406	0.078947	0.17253	0.36235	0.165	0.084127	0.18073	0.086407	0.040202	0.26851	0.16857	0.17448	0.13915	0.3525	-4.7104	-4.7375	-4.7333	-5.2562	-4.3896	-4.9542	-5.1375	-4.7625	-5.0687	-4.6813	-4.7271	-5.2	-4.5333	-4.975	-4.8833	-4.6542	317.319	324.711	311.918	271.084	108.865	72.242	242.158	248.354	109.430	193.653	-12.335	309.533	308.961	300.252	68.779	284.249	0.0015017	0.00073013	0.00016206	1351.4	9.8339e-06	1.0093e-05	1416.4	495.24	1.8231e-05	6.7746e-06	636.48	259.8	195.16	83.978	8.7913e-06	119.21	0.0016502	0.0080286	0.00060515	1220.6	1.9514e-05	2.3542e-05	1280.7	446.84	2.034e-05	2.5223e-05	574.37	236.96	177.39	76.768	2.2075e-05	109.05	344.502	325.677	64.043	-0.650	116.232	147.062	-1.493	5.103	171.219	128.253	3.176	7.433	9.568	14.196	123.860	11.017	-8191	255	
33044.469	1	1	0	0	0.098267	0.21336	0.16436	0.33849	0.1249	0.25308	0.15107	0.13151	0.17423	0.24098	0.064347	0.36931	0.24481	0.16684	0.21988	0.252	-4.8167	-4.8271	-4.6312	-5.1813	-4.5687	-4.8917	-5.1	-4.5813	-5	-4.7917	-4.6521	-5.1333	-4.7188	-4.9708	-5.0708	-4.6583	297.678	209.884	113.948	332.901	36.478	105.055	237.477	60.813	273.226	314.411	267.982	318.605	-2.258	28.403	79.653	290.097	0.0015657	0.0016413	0.00020043	1361.1	1.3765e-05	8.4496e-06	1423	493.17	9.0723e-06	9.8451e-06	638.69	260.87	195.63	84.156	1.5153e-05	119.65	0.0016486	0.0079668	0.00061771	1223.2	1.9793e-05	2.4049e-05	1285.4	445.96	2.0051e-05	2.514e-05	578.23	236.18	178.33	77.057	2.3419e-05	109.46	-12.248	331.210	94.349	-0.463	123.362	124.795	-1.808	5.243	158.737	150.664	3.030	7.682	9.350	13.782	133.663	10.853	-8191	255	
33044.566	1	1	0	0	0.076678	0.11343	0.12635	0.16978	0.10777	0.067432	0.19036	0.32331	0.077307	0.06911	0.27611	0.39165	0.14809	0.28229	0.099019	0.18429	-4.6521	-4.6604	-4.65	-5.1125	-4.3854	-4.6917	-5.4062	-4.6583	-4.8417	-4.9583	-4.6667	-5.4292	-4.8792	-4.75	-5.075	-4.6271	197.182	312.721	165.843	273.605	337.696	106.265	282.722	276.324	344.487	105.170	342.865	288.609	332.362	314.857	232.919	325.672	0.001497	0.0014113	0.00022815	1357.6	1.2676e-05	1.1671e-05	1425.2	491.51	1.443e-05	1.0105e-05	639.14	259.04	195.46	83.95	8.94e-06	120.12	0.0016344	0.007972	0.00061296	1223.3	1.9805e-05	2.4322e-05	1287	445.59	1.9468e-05	2.5251e-05	576.58	235.28	179.29	76.719	2.2849e-05	109.47	-6.917	340.564	87.224	-0.654	118.666	138.865	-1.578	4.874	173.339	110.702	3.023	7.294	9.575	14.043	187.302	10.994	-8191	255	
33044.688	1	1	0	0	0.095939	0.10435	0.016993	0.042284	0.18884	0.34726	0.12944	0.054748	0.081186	0.026261	0.24486	0.084364	0.32123	0.167	0.092875	0.10773	-4.5021	-4.9792	-4.4313	-5.0896	-4.6292	-4.6771	-5.1979	-4.8438	-4.8521	-5.0354	-4.6896	-5.1479	-4.8396	-4.6875	-5.025	-4.7271	11.128	277.077	251.606	322.087	245.015	308.890	314.965	283.711	268.089	250.695	211.199	243.232	5.532	337.242	331.675	327.563	0.0016092	0.0013727	0.00026415	1356.8	1.4247e-05	1.2685e-05	1422.8	490.37	1.7615e-05	9.6544e-06	632.23	259.01	193.55	83.657	5.2257e-06	118.37	0.0016214	0.0080305	0.00062601	1220.5	1.9875e-05	2.4205e-05	1281.3	443.87	2.0343e-05	2.4635e-05	572.27	234.69	178.29	76.653	2.209e-05	108.55	-11.227	336.269	62.648	-0.802	146.969	121.245	-1.763	4.701	174.948	153.837	3.270	7.392	9.460	14.169	103.078	10.969	-8191	255	
33044.781	1	1	0	0	0.1619	0.12728	0.20082	0.36595	0.18144	0.073466	0.24641	0.29674	0.12549	0.057331	0.30318	0.31854	0.25276	0.30989	0.18903	0.33014	-4.5479	-4.925	-4.4354	-5.025	-4.8542	-4.7104	-5.3917	-4.5354	-4.8521	-4.9792	-4.6729	-5.1417	-4.9583	-4.6458	-5.0062	-4.9	133.345	86.424	151.547	340.716	142.447	285.668	284.948	315.313	236.865	151.421	-12.909	333.438	338.650	334.111	47.983	287.303	0.0016086	0.0014969	0.00023734	1350.7	1.5229e-05	7.9615e-06	1405	492.65	1.9785e-05	1.2473e-05	636.45	259.64	195.3	84.223	1.5229e-05	120.1	0.0016352	0.0080092	0.00064189	1216.3	2.0036e-05	2.3678e-05	1270.1	446.44	1.9807e-05	2.4846e-05	573.75	235.23	179.17	76.884	2.2007e-05	109.39	-9.739	9.172	85.936	-0.277	125.053	147.147	-1.806	5.060	142.504	142.410	3.181	7.368	9.682	14.131	127.533	10.908	-8191	255	
33044.879	1	1	0	0	0.11787	0.2986	0.14823	0.19714	0.063002	0.097204	0.12167	0.2347	0.078939	0.14274	0.068055	0.28504	0.040353	0.25244	0.042952	0.1773	-4.4563	-5.0312	-4.5958	-5.0188	-4.9458	-4.5521	-5.275	-4.7125	-4.7688	-5.0708	-4.7312	-5.1813	-5.0292	-4.6458	-5.0333	-4.8146	312.859	-9.351	64.843	13.150	-11.567	118.101	342.539	295.801	93.181	333.652	-3.104	317.635	323.777	336.572	106.093	12.516	0.0014313	0.0019985	0.00024385	1354.6	1.3493e-05	7.2411e-06	1421.2	492.34	8.5038e-06	1.0664e-05	638.38	260.15	195.4	84.099	1.1198e-05	119.7	0.0016843	0.0078367	0.00060128	1217.1	2.0077e-05	2.3726e-05	1274.6	447.34	2.0528e-05	2.5683e-05	576.45	235.74	179.29	76.925	2.247e-05	109.53	346.953	338.160	57.126	-0.511	143.909	128.559	-1.816	5.025	136.669	144.987	2.935	7.469	9.904	13.906	142.424	10.984	-8191	255	
33045.000	1	1	0	0	0.15009	0.072677	0.10139	0.24322	0.17307	0.18949	0.18182	0.12467	0.12481	0.14789	0.26791	0.15102	0.12232	0.21753	0.15253	0.11183	-4.3375	-5.125	-4.5104	-5.0813	-4.9292	-4.5604	-5.2854	-5.0708	-4.6292	-5.1729	-4.7292	-4.925	-5.0604	-4.6542	-4.9667	-5.1	139.994	-0.519	91.294	286.765	43.574	162.207	319.758	299.505	94.404	77.864	272.475	342.070	318.319	274.835	61.977	284.504	0.0015503	0.0020279	0.00028171	1359.2	1.494e-05	1.1827e-05	1414.7	491.58	1.3863e-05	1.0563e-05	636.63	259.83	194.22	83.79	1.2566e-05	120.14	0.0016959	0.007248	0.00064557	1220.6	1.906e-05	2.5069e-05	1276.8	447.48	2.0603e-05	2.4785e-05	577.18	235.72	178.77	76.633	2.2818e-05	109.57	-9.376	342.010	76.870	-0.594	148.071	117.095	-1.402	5.237	141.844	135.194	3.324	7.683	9.853	13.918	151.245	11.068	-8191	255	
33045.070	1	1	0	0	0.17776	0.20516	0.09245	0.19265	0.066018	0.077573	0.26012	0.3337	0.071554	0.1872	0.23453	0.13513	0.091899	0.36097	0.11024	0.094511	-4.1312	-4.9854	-4.4812	-4.9313	-5.0708	-4.5229	-5.3917	-4.9708	-4.4771	-5.1167	-4.8271	-4.9521	-5.2375	-4.6375	-4.9896	-5.1458	218.354	19.819	168.680	46.828	269.648	176.329	265.589	277.562	268.261	261.610	-8.254	283.089	311.706	314.757	26.863	265.403	0.0014252	0.0016184	0.00033598	1356.4	1.3813e-05	7.0867e-06	1413.2	492.19	1.3093e-05	1.1139e-05	633.96	259.11	193.94	83.487	1.1891e-05	119.16	0.0016694	0.0034597	0.0016011	1217.4	2.0499e-05	2.4979e-05	1269.3	447.7	2.1217e-05	2.3401e-05	573.47	234.76	178.49	76.466	2.2844e-05	109.1	-11.377	0.186	95.504	-0.573	122.577	130.486	-1.526	5.380	169.440	123.268	3.158	7.564	9.699	14.122	155.595	10.859	-8191	255	
33045.168	1	1	0	0	0.29714	0.14522	0.044979	0.33631	0.17628	0.35294	0.37193	0.22722	0.25348	0.049321	0.082944	0.21756	0.13614	0.17447	0.11795	0.38038	-4.225	-5.0729	-4.6729	-4.8208	-5.0938	-4.5687	-5.1333	-5.1771	-4.4833	-5.0458	-4.8771	-4.7229	-5.0062	-4.5229	-4.8604	-5.2438	284.367	86.881	139.967	340.608	4.319	118.794	342.284	276.677	334.559	250.558	54.993	272.705	72.207	-2.497	300.634	303.036	0.0015739	0.0010095	0.00051795	1349.5	1.0912e-05	9.0701e-06	1416.4	492.35	1.759e-05	6.2028e-06	635.76	259.8	193.94	83.903	1.0021e-05	119.5	0.0016342	0.0022054	0.0022733	1217.6	2.0172e-05	2.4868e-05	1272.3	447.43	2.058e-05	2.2813e-05	575.09	235.11	178.06	76.705	2.1863e-05	109.17	-4.427	72.924	37.943	-0.851	141.499	141.746	-1.299	5.239	150.025	103.027	3.204	7.191	9.696	14.089	155.447	10.808	-8191	255	
33045.289	1	1	0	0	0.31203	0.093222	0.46353	0.013694	0.12989	0.15794	0.16308	0.17897	0.1314	0.048391	0.0489	0.053534	0.27444	0.21881	0.080116	0.2058	-4.1188	-5.1729	-4.7021	-4.7979	-5.1542	-4.5958	-4.8625	-5.05	-4.5167	-4.9333	-5.1438	-4.7312	-5.225	-4.7312	-4.7292	-5.2083	219.816	291.220	215.942	216.124	48.714	196.100	293.366	83.458	202.089	225.811	93.539	51.683	11.958	306.832	291.892	331.773	0.0014899	0.00098654	0.00054934	1357.4	9.9276e-06	7.5119e-06	1421	494.27	1.5313e-05	7.151e-06	634.48	261.86	195.63	84.228	1.0494e-05	119.77	0.0016861	0.0021322	0.0022102	1221.2	1.9845e-05	2.5142e-05	1275.9	449.52	2.0478e-05	2.4386e-05	575.83	236.78	177.51	77.253	2.3444e-05	109.78	-10.966	95.038	3.838	-0.643	122.321	148.592	-1.574	5.357	136.894	125.248	3.212	7.560	9.001	14.014	115.943	10.883	-8191	255	
33045.383	1	1	0	0	0.2477	0.069502	0.12862	0.078468	0.032167	0.21932	0.14543	0.33713	0.071184	0.10232	0.15499	0.093864	0.051746	0.12706	0.15774	0.1489	-4.0229	-5.0896	-4.8354	-4.6438	-5.0938	-4.7	-4.7792	-5.1604	-4.5875	-4.9458	-5.1333	-4.625	-5.1667	-4.7708	-4.6333	-5.175	335.987	92.946	52.508	294.785	109.786	69.268	248.477	318.911	119.880	91.074	336.828	-11.295	27.710	271.216	218.111	290.979	0.0016231	0.0010145	0.00044146	1361.5	8.0634e-06	1.0836e-05	1416.1	493.34	2.1861e-05	7.1433e-06	637.35	259.31	194.78	83.79	1.4944e-05	119.6	0.0017211	0.0020688	0.0022835	1222	2.0167e-05	2.485e-05	1278.5	449.17	2.1251e-05	2.4688e-05	577.6	235.86	176.95	77.328	2.2408e-05	109.78	342.060	67.369	15.319	-0.563	129.253	125.396	-1.552	5.002	157.974	147.813	3.110	7.535	9.498	13.907	149.148	10.797	-8191	255	
33045.480	1	1	0	0	0.118	0.087864	0.050468	0.32025	0.056912	0.19064	0.22569	0.23588	0.28334	0.24782	0.33623	0.12064	0.31515	0.27413	0.28365	0.22084	-4.2979	-4.9062	-4.8667	-4.4271	-5.1958	-4.6042	-4.8458	-5.1396	-4.7188	-4.8604	-4.9917	-4.6833	-5.0667	-4.7854	-4.4854	-5.2542	307.776	18.282	86.123	336.760	311.104	296.037	293.873	328.582	287.929	311.173	297.670	57.856	339.048	-9.898	139.655	243.561	0.0015058	0.0011745	0.00062016	1356.4	1.0574e-05	1.0696e-05	1416.5	490.05	4.4295e-05	9.6215e-06	633.6	259.13	194.3	83.949	1.2083e-05	119.07	0.0016207	0.0021844	0.0022444	1217.1	1.9355e-05	2.6151e-05	1271.5	445.56	2.4387e-05	2.3854e-05	574.31	234.96	176.17	77.241	2.2315e-05	109.1	346.760	72.896	33.813	-0.565	138.416	131.937	-1.651	5.209	197.685	118.648	3.142	7.562	9.591	13.885	127.189	10.651	-8191	255	
33045.574	1	1	0	0	0.19535	0.063375	0.14404	0.053409	0.071778	0.15368	0.20355	0.33296	0.16257	0.13662	0.2581	0.15992	0.11287	0.15763	0.23651	0.1203	-4.3833	-4.7958	-4.9917	-4.6771	-5.0125	-4.7396	-4.7021	-5.1521	-4.7312	-4.7833	-5.225	-4.6229	-5	-4.9521	-4.5521	-5.2917	251.130	252.514	342.358	263.824	-10.277	74.056	244.662	258.224	326.110	134.770	332.803	172.267	-3.753	266.810	196.824	329.045	0.0015701	0.0012327	0.00060165	1347.6	1.2563e-05	7.239e-06	1414	491.65	3.9462e-05	1.0711e-05	635.08	258.49	195.58	83.623	1.366e-05	119.35	0.0016608	0.0022036	0.00226	1214.6	1.8983e-05	2.4514e-05	1271.7	444.44	5.5224e-05	2.3409e-05	574.13	234.89	176.74	77.233	2.3088e-05	109.26	346.214	71.825	26.107	-0.668	115.137	130.062	-1.661	5.330	193.982	128.477	3.076	7.562	9.871	13.940	128.300	10.847	-8191	255	
33045.648	1	1	0	0	0.14538	0.041773	0.11352	0.29835	0.12441	0.1737	0.11502	0.19685	0.30555	0.056278	0.14158	0.15228	0.1664	0.24476	0.10167	0.15416	-4.3187	-4.7333	-5.075	-4.5	-4.8208	-5.0771	-4.7063	-5.2625	-4.7292	-4.5687	-5.0833	-4.7542	-4.7292	-5.0792	-4.5042	-5.1646	279.748	238.433	237.687	287.302	-9.985	53.832	292.127	267.458	138.270	158.077	15.790	313.408	272.004	307.772	25.705	250.683	0.0015622	0.0012717	0.00049474	1355.8	1.3612e-05	1.3988e-05	1406	490.13	4.8911e-05	1.0824e-05	635.24	260.02	193.72	83.548	1.1622e-05	119.84	0.0016696	0.0021414	0.0022576	1214.8	1.8559e-05	2.4517e-05	1269.8	443.83	7.1553e-05	2.4505e-05	575.2	236.02	176.27	77.171	2.1838e-05	109.79	342.180	58.913	17.673	-0.630	127.714	135.700	-1.637	5.073	177.098	112.536	2.990	7.691	9.478	14.069	160.380	10.791	-8191	255	
33045.770	1	1	0	0	0.27563	0.15621	0.13204	0.15216	0.10684	0.11363	0.098272	0.29164	0.10445	0.093049	0.15081	0.34937	0.11391	0.047348	0.057902	0.14706	-4.3333	-4.7479	-5.1042	-4.8208	-4.8729	-5.1188	-4.6958	-5.1229	-4.8292	-4.5979	-5.2396	-4.65	-5.0062	-5.1937	-4.5208	-5.0917	320.202	-4.266	270.929	295.966	75.401	262.022	340.729	316.661	344.301	25.024	-6.844	302.374	342.949	119.280	66.569	274.260	0.001636	0.001266	0.00040981	1353.4	7.2025e-06	1.1545e-05	1420.4	491.52	4.3238e-05	8.6317e-06	634.29	259.48	193.39	83.088	9.5963e-06	118.58	0.0016994	0.0021981	0.001768	1217.7	1.8324e-05	2.5363e-05	1274.4	443.7	6.9993e-05	2.5083e-05	574.35	235.17	175.32	76.753	2.1425e-05	109.04	343.784	82.053	1.173	-0.512	120.466	134.419	-1.732	5.235	188.110	125.036	2.979	7.571	9.678	13.921	162.688	10.821	-8191	255	
33045.863	1	1	0	0	0.051574	0.12976	0.1563	0.094245	0.16946	0.11537	0.093553	0.27284	0.21861	0.12081	0.030674	0.21965	0.10589	0.21444	0.36587	0.23827	-4.5958	-4.4625	-5.125	-4.7708	-4.7271	-5.0583	-4.7125	-5.1417	-4.8771	-4.4625	-5.3271	-4.7917	-4.6667	-5.1542	-4.4042	-5.0375	283.160	325.999	23.557	284.701	293.693	281.781	328.684	327.212	1.161	129.268	84.717	290.230	204.307	340.479	66.422	265.351	0.0016948	0.0012371	0.00052055	1347.1	9.2012e-06	8.654e-06	1404.7	487.49	3.1226e-05	8.2637e-06	633.32	257.86	192.84	82.782	1.2352e-05	118.32	0.0016919	0.0021395	0.00072879	1215.9	1.9081e-05	2.4126e-05	1265.2	440.36	7.1542e-05	2.4235e-05	571.02	233.3	175.18	76.312	2.1558e-05	108.17	346.908	81.638	22.732	-0.533	132.378	147.726	-1.465	5.070	183.101	152.887	3.078	7.815	9.822	13.963	135.393	10.842	-8191	255	
33045.961	1	1	0	0	0.10927	0.22489	0.056823	0.18221	0.2871	0.12194	0.17749	0.11084	0.12538	0.085839	0.39125	0.41146	0.087107	0.25187	0.14842	0.24458	-4.5	-4.5042	-5.0104	-4.8604	-4.575	-5.0958	-4.7521	-4.9896	-4.9062	-4.3646	-5.1292	-4.8438	-4.6438	-5.275	-4.4812	-4.9375	145.941	210.896	51.362	324.927	68.217	137.453	301.947	309.767	296.870	86.426	280.007	328.736	300.539	305.774	173.524	255.957	0.001623	0.00090197	0.00022228	1337.6	1.3095e-05	9.0478e-06	1407.2	487.09	4.1446e-05	8.631e-06	629.16	256.57	191.8	82.456	9.9394e-06	118.04	0.0016921	0.0021498	0.00058015	1214.1	1.9091e-05	2.4504e-05	1262	440.18	7.1087e-05	2.5493e-05	570.21	233.08	174.57	76.023	3.3525e-05	108.03	346.851	70.583	73.270	-0.646	137.466	119.490	-1.666	5.050	182.435	147.758	3.015	7.604	9.665	14.045	214.128	10.941	-8191	255	
33046.078	1	1	0	0	0.14794	0.059513	0.1472	0.11293	0.16083	0.13524	0.12513	0.31958	0.26902	0.19792	0.2176	0.21498	0.077749	0.064133	0.19567	0.084604	-4.65	-4.4125	-4.9375	-4.8229	-4.4604	-5.075	-4.6771	-4.7354	-4.9875	-4.5938	-5.1021	-4.9271	-4.7979	-5.2667	-4.6792	-4.9271	244.438	81.989	121.318	145.970	109.167	200.734	191.030	277.589	327.351	71.282	306.969	286.622	9.701	342.467	323.620	321.318	0.0015822	0.00088622	0.00024723	1334.9	1.4836e-05	6.6142e-06	1405.7	486.16	4.0642e-05	5.5248e-06	632.21	257.23	191.93	82.454	9.1358e-06	118	0.0016766	0.0022565	0.00059042	1212.3	1.996e-05	2.3345e-05	1265.6	439.27	7.1424e-05	2.3838e-05	571.76	233.22	173.98	75.495	6.6268e-05	108.39	-12.251	93.470	84.481	-0.738	148.702	157.698	-1.683	5.126	202.626	133.891	2.878	7.341	9.878	13.955	204.057	10.979	-8191	255	
33046.176	1	1	0	0	0.069811	0.13153	0.092748	0.33484	0.018771	0.15277	0.1471	0.17025	0.18218	0.043204	0.15942	0.074778	0.23661	0.18328	0.014942	0.32673	-4.7083	-4.4083	-4.825	-4.9375	-4.5521	-5.0396	-4.7167	-4.8354	-4.975	-4.4917	-5.0396	-5.1354	-4.4604	-5.1312	-4.6729	-4.9021	272.264	287.158	346.500	275.409	184.144	304.926	196.880	-8.609	146.516	47.163	297.436	57.893	267.881	279.551	84.743	299.084	0.0017308	0.00059754	0.00022151	1335.4	1.6557e-05	8.4249e-06	1407	487.32	4.4755e-05	8.8224e-06	631.24	257.68	191.63	82.294	7.4203e-06	117.67	0.001678	0.0021326	0.00060243	1212.9	1.9394e-05	2.4265e-05	1265.2	440.01	7.0749e-05	2.573e-05	570.36	233.37	174.21	75.358	7.9742e-05	107.87	-9.099	67.131	72.073	-0.521	126.801	138.221	-1.499	5.189	223.601	136.403	3.305	7.576	9.269	14.290	26.767	10.631	-8191	255	
33046.273	1	1	0	0	0.14627	0.090003	0.059173	0.2118	0.26144	0.040007	0.11105	0.2807	0.029854	0.077338	0.17092	0.26013	0.09619	0.14292	0.15423	0.22611	-4.6687	-4.5312	-4.7188	-5.1021	-4.4583	-5.0792	-4.775	-4.7833	-5.0833	-4.5167	-4.9437	-5.05	-4.5917	-5.0312	-4.6625	-4.6687	303.648	234.057	231.109	319.121	251.922	241.185	346.410	293.404	81.121	49.490	-2.165	281.885	326.246	23.609	234.449	310.127	0.0016027	0.00027746	0.00024372	1335.5	1.5255e-05	1.2161e-05	1400.1	484.89	1.5756e-05	2.0188e-05	625.74	255.2	192.68	82.184	1.3084e-05	117.04	0.0016788	0.0020458	0.00060148	1209.9	1.9844e-05	2.3965e-05	1256.7	438.28	5.1766e-05	3.7905e-05	566.97	231.63	173.94	75.137	7.8946e-05	107.25	-7.781	76.885	86.478	-0.537	129.329	133.144	-1.612	5.098	174.228	195.873	3.092	7.586	9.611	13.801	344.883	10.732	-8191	255	
33046.367	1	1	0	0	0.19616	0.010662	0.3038	0.35852	0.11525	0.19122	0.18285	0.41922	0.13961	0.1568	0.17374	0.21126	0.23557	0.32231	0.022218	0.20568	-4.7812	-4.5	-4.65	-5.0646	-4.4958	-4.9688	-4.9854	-4.6813	-5.1708	-4.8083	-4.825	-5.2875	-4.3688	-5.0646	-4.7333	-4.6354	328.909	109.052	300.102	6.099	216.576	70.858	250.459	279.544	109.821	254.344	270.050	317.179	299.097	344.701	65.980	284.796	0.0015568	0.00094467	0.00023055	1330.7	1.5412e-05	8.7422e-06	1398.5	482.63	1.0145e-05	1.3615e-05	624.81	256.34	191.8	81.601	1.3446e-05	117.51	0.0016663	0.0022329	0.00063048	1206.3	1.9602e-05	2.309e-05	1255.5	437.24	1.9094e-05	8.0438e-05	566.56	231.74	173.43	74.896	7.8618e-05	107.54	-8.228	67.416	75.818	-0.506	119.748	122.136	-1.687	4.901	191.289	227.687	3.058	7.574	9.195	14.038	54.892	10.736	-8191	255	
33046.465	1	1	0	0	0.15388	0.21185	0.24789	0.19722	0.14883	0.08248	0.061324	0.28406	0.14253	0.072505	0.13247	0.33453	0.23345	0.14177	0.10408	0.1681	-4.7667	-4.7146	-4.6229	-5.2708	-4.5646	-4.8771	-5.1396	-4.6104	-5.2521	-4.75	-4.7646	-5.1646	-4.7562	-5.0125	-4.8438	-4.6521	178.744	258.364	173.024	174.012	246.152	178.346	26.508	335.405	70.176	240.758	293.603	319.020	54.864	229.605	79.318	272.374	0.0015655	0.0012746	0.00029922	1336.9	1.2332e-05	4.6494e-06	1402.1	481.56	1.8875e-05	6.5781e-06	627.93	256.67	190.71	81.712	1.065e-05	117.96	0.001611	0.002342	0.00059577	1209.1	1.8879e-05	2.358e-05	1260.4	436.53	2.0365e-05	9.0693e-05	567.88	232.18	173.64	74.916	7.8735e-05	107.78	-9.998	72.642	81.680	-0.652	127.410	122.909	-1.571	5.003	154.343	217.925	3.383	7.300	9.724	14.112	57.750	10.673	-8191	255	
33046.562	1	1	0	0	0.065575	0.018812	0.015558	0.10035	0.12608	0.081874	0.26152	0.24347	0.13092	0.10213	0.18047	0.087925	0.12677	0.28584	0.14858	0.1674	-4.8042	-4.8187	-4.6062	-5.2625	-4.4854	-4.9437	-5.0958	-4.6792	-5.0458	-4.6771	-4.5312	-5.3146	-4.7167	-5.0729	-4.9688	-4.7396	150.576	72.923	222.602	296.352	238.371	303.593	259.048	327.197	282.959	27.979	341.961	101.590	12.018	294.948	181.189	297.011	0.0014689	0.0012001	0.00039303	1335.1	3.6362e-05	6.6726e-06	1408.8	484.07	1.5738e-05	6.7003e-06	626.86	258.28	191.65	81.957	1.7829e-05	118.18	0.0016004	0.0022448	0.00061092	1205.8	3.246e-05	2.4465e-05	1266.9	437.16	1.952e-05	9.055e-05	568	233.44	173.72	75.01	8.051e-05	107.78	345.347	79.865	90.715	-0.795	158.982	136.885	-1.532	4.913	166.908	198.971	3.475	7.468	9.876	13.889	44.937	10.952	-8191	255	
33046.680	1	1	0	0	0.059894	0.1883	0.14132	0.24859	0.18511	0.13546	0.20407	0.28096	0.24146	0.18128	0.17295	0.2633	0.063723	0.20343	0.062453	0.1949	-4.675	-4.9	-4.4313	-5.2937	-4.7604	-4.8208	-5.25	-4.6396	-4.9271	-4.8729	-4.5271	-5.075	-4.7417	-4.9479	-4.9896	-4.5854	235.831	192.514	165.080	256.897	98.387	156.871	314.304	310.275	190.995	304.529	318.552	-7.152	293.338	-0.973	98.799	292.335	0.0017124	0.0010573	0.00021063	1334.6	3.2156e-05	5.9605e-06	1398.3	482.09	1.1353e-05	1.6718e-05	624.21	255.63	189.76	81.947	1.6978e-05	117.22	0.0016966	0.0021621	0.00060177	1201.2	6.3888e-05	2.4577e-05	1254	437.46	1.9776e-05	9.2173e-05	566.05	231.76	172.65	75	7.7581e-05	107.3	-8.739	84.692	53.809	-0.692	146.172	135.693	-1.563	5.045	129.965	210.835	2.770	7.384	9.718	14.098	59.967	11.003	-8191	255	
33046.777	1	1	0	0	0.09391	0.16071	0.05349	0.28794	0.12204	0.0998	0.19853	0.089256	0.072461	0.173	0.14816	0.14449	0.097659	0.2611	0.1037	0.32909	-4.5708	-4.9229	-4.5625	-5.2396	-4.6438	-4.6708	-5.2354	-4.6188	-4.8562	-4.9875	-4.5687	-5.1438	-4.8208	-4.6229	-5.1771	-4.875	213.034	56.385	248.452	288.841	334.728	267.041	235.052	249.120	272.283	14.183	288.451	333.130	139.134	335.859	312.794	264.954	0.0015354	0.00081238	0.00023912	1330.9	3.4114e-05	1.0008e-05	1400.4	484.67	1.7596e-05	8.849e-06	629.95	255.48	190.32	81.862	2.2614e-05	117.23	0.0016441	0.002245	0.00060253	1196.8	6.8545e-05	2.4137e-05	1256.1	438.3	2.0447e-05	8.9827e-05	568.79	232.28	173.03	75.06	5.1716e-05	107.9	344.679	74.698	71.776	-0.696	127.961	111.344	-1.713	4.781	147.027	228.330	3.220	7.485	9.549	13.954	48.931	10.797	-8191	255	
33046.871	1	1	0	0	0.035905	0.14267	0.093883	0.13333	0.082885	0.25221	0.21821	0.25081	0.11485	0.27101	0.28917	0.19124	0.15603	0.30354	0.083151	0.34522	-4.3333	-5.0229	-4.4938	-5.0813	-4.5958	-4.5687	-5.325	-4.6708	-4.7917	-5.0042	-4.5167	-5.2458	-4.9479	-4.6937	-5.0354	-4.7229	-5.128	325.096	168.058	236.937	190.499	106.989	321.496	333.756	260.790	70.195	253.496	257.706	213.538	323.104	167.482	289.591	0.0016968	0.00082799	0.00026506	1331.1	3.9204e-05	6.4209e-06	1410.3	485.7	1.7823e-05	1.0898e-05	629.69	258.93	191.54	82.249	8.8188e-06	117.71	0.0016481	0.0021108	0.00058042	1199.4	6.9136e-05	2.4011e-05	1261.4	438.2	2.0563e-05	9.0276e-05	569.19	233.37	173.47	74.923	2.2018e-05	108.46	-10.947	80.155	86.447	-0.480	120.440	135.168	-1.711	5.216	161.279	252.344	3.469	7.651	9.498	14.132	133.109	11.034	-8191	255	
33046.945	1	1	0	0	0.11071	0.059825	0.19315	0.054595	0.034119	0.11327	0.088298	0.43536	0.12437	0.23106	0.11951	0.23471	0.33548	0.23404	0.047398	0.29274	-4.4875	-5.1562	-4.3583	-5.0396	-4.7312	-4.5479	-5.2979	-4.7083	-4.7042	-5.1021	-4.6687	-4.9792	-4.9313	-4.5938	-5.1458	-5.0312	221.798	0.450	106.051	79.199	62.998	249.054	254.055	275.670	32.410	15.875	337.854	288.768	295.884	19.132	56.298	317.242	0.0014616	0.00089639	0.00027877	1333.8	4.3073e-05	9.4801e-06	1408	483.52	1.4331e-05	1.1086e-05	632.45	258.34	192.49	82.021	7.6403e-06	117.67	0.0017063	0.002233	0.0006312	1202	7.0727e-05	2.424e-05	1264.9	437.47	2.0364e-05	9.0633e-05	571	233.52	173.64	75.077	2.2472e-05	108.54	-6.146	80.140	78.792	-0.710	131.586	126.807	-1.383	4.955	124.306	216.873	3.109	7.305	9.410	13.963	163.671	10.960	-8191	255	
33047.066	1	1	0	0	0.10391	0.30886	0.045326	0.25214	0.33777	0.12755	0.12639	0.27074	0.14019	0.22786	0.1472	0.325	0.34563	0.2296	0.076567	0.29484	-4.3917	-5.0667	-4.575	-5.0083	-4.8375	-4.4187	-5.2333	-4.8708	-4.5813	-5.0896	-4.7354	-4.8625	-4.9313	-4.6875	-4.9021	-5.0354	168.627	258.057	193.520	283.011	226.559	325.401	41.170	339.205	25.512	150.113	291.672	316.288	-12.646	-5.352	77.174	278.626	0.0015515	0.00080301	0.00022508	1330	3.338e-05	8.1246e-06	1403.1	482.73	2.0857e-05	6.2699e-06	625.51	256.12	190.64	81.798	6.7798e-06	117.69	0.0016745	0.0021908	0.00063382	1196.7	6.8921e-05	2.4623e-05	1258.2	437.07	2.0891e-05	5.6536e-05	570.24	231.93	173.12	74.889	2.0987e-05	108.53	-9.265	83.842	70.061	-0.344	139.275	169.558	-1.421	5.167	147.019	97.899	3.174	7.397	9.672	14.105	170.114	11.013	-8191	255	
33047.160	1	1	0	0	0.13412	0.26702	0.21429	0.18443	0.18669	0.15883	0.04772	0.10557	0.01601	0.19983	0.35217	0.13641	0.15273	0.04428	0.19821	0.096245	-4.3646	-5.1312	-4.5042	-4.8833	-4.9812	-4.3438	-5.075	-5.025	-4.5396	-5.1687	-4.7167	-4.7292	-5.2063	-4.6542	-4.9354	-5.0125	150.718	248.376	126.269	318.872	232.353	224.222	283.770	334.403	202.966	73.304	17.404	259.673	51.659	-11.959	160.903	277.687	0.0015904	0.00078886	0.00022353	1331.3	3.5945e-05	5.0586e-06	1398	486.27	1.1024e-05	8.4363e-06	628.1	256.59	191.87	81.981	1.1702e-05	118.29	0.0016681	0.0020672	0.00062779	1198.8	6.746e-05	2.3949e-05	1254.7	438.76	2.1044e-05	2.3838e-05	573.78	233.07	173.64	74.969	2.2241e-05	108.74	-9.252	87.224	83.056	-0.449	137.171	149.006	-1.656	5.045	150.293	163.285	2.689	7.604	9.951	14.016	153.448	11.034	-8191	255	
33047.258	1	1	0	0	0.061261	0.1033	0.061517	0.12572	0.1479	0.049087	0.048352	0.22569	0.16945	0.07404	0.065462	0.20691	0.058887	0.1047	0.27291	0.14791	-4.1396	-5.0312	-4.3167	-4.7708	-5.1146	-4.5292	-5.1104	-5.1854	-4.4792	-5.1792	-4.8021	-4.7583	-5.3125	-4.8167	-4.7271	-5.2354	-4.724	140.031	177.056	260.947	103.109	178.227	334.890	330.071	143.596	-4.086	199.820	289.760	201.556	42.337	236.129	248.340	0.0014913	0.0010792	0.00027082	1330.8	4.102e-05	7.2175e-06	1413.4	483.98	1.3575e-05	1.0428e-05	627.26	255.83	191.91	81.844	9.9558e-06	118.71	0.0016701	0.0020491	0.00064809	1198.9	6.9085e-05	2.4532e-05	1262.4	437.31	2.061e-05	2.3246e-05	575.76	232.96	173.86	75.003	2.2924e-05	109.17	-10.117	101.481	73.129	-0.677	144.451	122.454	-1.523	5.305	160.202	142.805	3.202	7.552	9.447	13.718	140.825	10.785	-8191	255	
33047.352	1	1	0	0	0.072162	0.089234	0.11803	0.3205	0.10363	0.21	0.19774	0.14489	0.19585	0.13027	0.21178	0.41336	0.093527	0.30429	0.10082	0.019624	-4.0896	-5.0333	-4.7833	-4.9	-5.1167	-4.5938	-4.8792	-5.2604	-4.4104	-5.1583	-5.0437	-4.6521	-5.2812	-4.8604	-4.8125	-5.1229	294.163	0.289	223.983	319.103	271.155	20.321	274.002	258.851	124.738	156.819	308.375	316.457	4.385	329.035	182.275	261.544	0.0016769	0.0011342	0.00023954	1329.7	2.5824e-05	2.0636e-05	1409.2	485.54	1.2169e-05	9.607e-06	631.62	259.1	191.48	81.779	8.9288e-06	117.98	0.0016581	0.002153	0.00062857	1197.9	4.2037e-05	5.0614e-05	1267.8	438.29	2.0517e-05	2.4339e-05	575.88	234.52	173.65	75.035	2.2318e-05	109.02	-8.786	67.724	80.267	-0.459	112.399	183.045	-1.545	5.052	160.543	150.402	3.350	7.886	9.975	13.901	117.064	10.692	-8191	255	
33047.473	1	1	0	0	0.091121	0.028751	0.084586	0.018103	0.095381	0.16583	0.058072	0.19135	0.18422	0.018685	0.14582	0.17093	0.075183	0.1783	0.073626	0.18295	-4.1792	-4.8979	-4.8042	-4.6917	-5.2833	-4.725	-4.85	-5.2792	-4.3833	-4.9229	-4.9604	-4.5854	-5.2292	-4.8833	-4.825	-5.3542	278.109	257.090	298.241	237.220	74.567	274.835	-10.013	295.501	270.674	260.929	322.109	15.701	323.758	37.291	254.598	319.088	0.0015174	0.00092796	0.00023932	1328.6	1.2226e-05	1.9287e-05	1408.8	485.12	1.1222e-05	8.3567e-06	628.93	257.07	191.18	81.632	1.4303e-05	117.55	0.0016458	0.0021388	0.00059856	1197.4	1.9038e-05	9.0927e-05	1261.8	437.25	2.0432e-05	2.3627e-05	574.3	232.76	173.45	74.862	2.2576e-05	108.64	345.262	70.621	85.207	-0.784	127.121	160.212	-1.512	5.135	148.079	157.386	3.103	7.335	9.624	13.817	132.230	11.028	-8191	255	
33047.566	1	1	0	0	0.062961	0.28796	0.1877	0.45809	0.12779	0.032343	0.26801	0.35534	0.12155	0.22322	0.30158	0.28534	0.21388	0.11986	0.076254	0.32877	-4.3313	-4.775	-4.7937	-4.6167	-5.1208	-4.7729	-4.9271	-5.4	-4.5208	-4.9333	-5.1	-4.6687	-5.0563	-4.85	-4.7167	-5.2396	-3.522	95.040	77.944	329.503	98.807	220.668	229.219	267.354	22.075	-1.929	2.879	306.274	291.567	304.964	196.952	302.827	0.0015547	0.0011124	0.00026098	1330.3	1.3606e-05	2.2794e-05	1394.3	482.25	1.2674e-05	1.2868e-05	626.83	256.53	192.48	81.959	9.6955e-06	117.99	0.0016718	0.0021496	0.00060617	1198.5	1.9179e-05	9.1237e-05	1257.8	437.58	1.8995e-05	2.4433e-05	574.44	233.52	173.77	74.912	2.2416e-05	108.47	-10.217	64.895	81.352	-0.547	127.124	171.270	-1.595	5.101	147.300	151.336	3.234	7.488	9.669	14.158	142.688	10.914	-8191	255	
33047.641	1	1	0	0	0.19963	0.046313	0.021193	0.26142	0.14363	0.050563	0.16747	0.25188	0.12566	0.26597	0.274	0.21834	0.16338	0.10194	0.30255	0.3765	-4.2917	-4.8562	-5.1188	-4.5708	-5.0062	-4.8917	-4.7958	-5.3479	-4.5104	-4.8854	-5.1958	-4.5354	-4.9729	-4.9688	-4.6312	-5.2833	7.223	7.440	218.631	278.567	251.551	28.953	268.587	290.970	255.493	237.857	236.280	325.601	226.926	282.238	285.383	257.683	0.0018915	0.0010738	0.00029728	1329.2	1.6916e-05	1.825e-05	1406.1	482.7	1.7241e-05	8.3969e-06	632.76	257.34	191.43	81.423	8.1633e-06	117.81	0.0028951	0.0021798	0.00058429	1198.3	1.947e-05	9.0284e-05	1262.8	436.23	2.1316e-05	2.4839e-05	576.62	233.54	173.33	74.724	2.2018e-05	108.1	344.312	70.821	50.310	-0.773	135.617	178.346	-1.651	5.351	157.666	138.996	3.298	7.420	9.635	13.916	160.624	11.024	-8191	255	
33047.762	1	1	0	0	0.24516	0.19464	0.026506	0.14222	0.097245	0.17963	0.029995	0.23369	0.14633	0.13107	0.30253	0.2919	0.1517	0.062547	0.20131	0.22834	-4.3333	-4.6854	-5.0958	-4.6687	-4.9083	-5.0792	-4.5896	-5.2896	-4.6646	-4.7646	-5.2458	-4.7229	-5.0188	-5.1083	-4.425	-5.1896	235.204	147.518	321.960	274.606	316.479	340.069	249.832	285.143	42.040	39.595	330.124	312.638	289.656	182.580	292.571	322.730	0.0016045	0.00094376	0.00017172	1343	1.1367e-05	2.1611e-05	1411.3	482.09	2.001e-05	1.1533e-05	630.58	258.03	188.68	81.466	1.009e-05	117.59	0.0044052	0.0021446	0.0005769	1202.9	1.9994e-05	9.3029e-05	1268.3	436.04	2.1062e-05	2.466e-05	576.17	233.26	172.08	74.553	2.2379e-05	107.54	335.213	79.808	98.567	-0.609	124.124	182.045	-1.511	5.373	147.983	152.091	3.099	7.313	9.548	14.185	160.962	10.787	-8191	255	
33047.855	1	1	0	0	0.13834	0.2323	0.11929	0.2913	0.33668	0.039193	0.076966	0.16256	0.22854	0.12676	0.25656	0.13079	0.023702	0.11911	0.20732	0.04902	-4.3875	-4.6771	-5.1458	-4.7875	-4.7562	-5.0667	-4.6833	-5.1708	-4.7479	-4.6271	-5.3583	-4.6292	-4.7937	-5.1979	-4.6396	-5.2292	19.285	293.461	158.700	341.204	246.449	343.508	253.751	246.568	36.401	218.955	73.190	305.459	259.406	291.276	162.597	317.597	0.0014191	0.0012658	0.00026647	1324.5	1.5108e-05	2.0945e-05	1390.2	481.64	1.1944e-05	1.0532e-05	627.27	255.96	188.81	81.144	1.554e-05	116.9	0.0043654	0.0021372	0.00058524	1193.6	2.019e-05	9.0401e-05	1255.2	435.64	2.0535e-05	2.4268e-05	569.86	232.94	171.77	74.285	2.2345e-05	107.31	331.613	90.548	102.074	-0.876	148.098	192.075	-1.497	5.372	141.323	136.798	3.205	7.430	9.798	13.866	141.614	10.840	-8191	255	
33047.953	1	1	0	0	0.088436	0.18819	0.13314	0.18886	0.18793	0.088558	0.057567	0.040144	0.29145	0.46496	0.13626	0.12491	0.13046	0.18032	0.17053	0.10087	-4.4521	-4.5625	-5.2188	-4.7438	-4.7771	-5.125	-4.6333	-5.1042	-4.8708	-4.5729	-5.2833	-4.7104	-4.7625	-5.2021	-4.5167	-5.0062	228.688	332.273	5.204	267.365	19.108	153.590	0.091	315.841	333.269	264.476	295.672	282.868	-3.485	277.355	228.765	255.671	0.0015372	0.0011624	0.0003043	1322.8	1.2326e-05	1.5114e-05	1396.5	480.95	1.9085e-05	5.4223e-06	632.15	256.33	189.39	81.618	1.06e-05	118.01	0.0044419	0.0022179	0.00059875	1192.3	1.958e-05	9.2186e-05	1259.3	435.55	2.0863e-05	2.3956e-05	570.57	234.8	172.34	74.642	2.2052e-05	107.96	331.570	63.783	72.582	-0.332	131.311	209.842	-1.677	5.116	145.129	111.870	3.309	7.646	9.765	13.920	124.991	10.746	-8191	255	
33048.051	1	1	0	0	0.22543	0.035291	0.1322	0.2134	0.18026	0.29527	0.37978	0.40471	0.16688	0.154	0.40835	0.16611	0.15411	0.1342	0.11005	0.22935	-4.5354	-4.4938	-5.1188	-4.9021	-4.6521	-5.0021	-4.7625	-5.0813	-4.9437	-4.5813	-5.1646	-4.7979	-4.7271	-5.1896	-4.4542	-5.0229	-8.126	237.202	27.109	-4.451	334.581	251.838	321.454	304.077	102.117	105.030	300.500	320.865	326.412	329.081	159.690	293.897	0.0014798	0.0012409	0.00022418	1330.9	9.6085e-06	1.0944e-05	1404.9	483.65	8.1639e-06	9.9804e-06	629.43	257.59	190.45	81.71	7.425e-06	117.59	0.0043973	0.0020518	0.00061965	1197.5	1.8984e-05	8.6635e-05	1263.2	435.91	2.0455e-05	2.3929e-05	569.82	235.47	172.76	74.426	2.2978e-05	108.02	319.802	90.032	88.365	-0.554	103.934	143.510	-1.489	5.131	169.070	166.806	3.181	7.454	9.812	13.950	137.623	10.917	-8191	255	
33048.172	1	1	0	0	0.12053	0.068187	0.10063	0.14297	0.048046	0.12162	0.2265	0.12155	0.095367	0.05681	0.058902	0.083377	0.18459	0.11971	0.089553	0.3652	-4.6813	-4.5646	-5.0604	-4.825	-4.6646	-5.2479	-4.7875	-4.9396	-5.1271	-4.4812	-5.1979	-5	-4.7271	-5.2833	-4.5687	-4.9458	1.529	2.419	253.928	330.054	-4.071	341.348	234.670	303.266	60.966	89.303	246.489	300.814	302.231	326.414	237.905	292.865	0.0017224	0.00098236	0.00027193	1334.5	1.1568e-05	1.1417e-05	1401.4	483	1.6329e-05	5.7937e-06	630.09	257.11	188.67	81.547	7.9987e-06	117.16	0.0043668	0.0022023	0.00060216	1200.1	1.9958e-05	4.6098e-05	1269.1	436.11	2.0612e-05	2.4162e-05	571.06	234.79	171.56	74.514	2.2601e-05	107.76	324.148	62.030	57.616	-0.638	128.589	123.758	-1.432	5.314	163.754	125.271	3.172	7.622	9.815	13.988	148.339	10.977	-8191	255	
33048.242	1	1	0	0	0.23875	0.024898	0.21622	0.24145	0.34541	0.28589	0.13363	0.12668	0.051883	0.18369	0.33123	0.2926	0.18395	0.36296	0.022991	0.27904	-4.7708	-4.5458	-4.9542	-5.0458	-4.5896	-5.0271	-4.9125	-5.0104	-5.1771	-4.5271	-5.0312	-5.1375	-4.6146	-5.3479	-4.7396	-4.8167	78.562	119.577	191.128	317.179	10.287	308.742	322.252	316.899	228.432	145.842	253.438	25.599	331.472	322.617	274.716	261.924	0.001935	0.0011336	0.00032491	1324.6	1.7906e-05	1.1247e-05	1401.5	478.97	1.2319e-05	1.2768e-05	629.73	256.3	188.76	80.952	9.903e-06	117.2	0.0043956	0.0022088	0.00061873	1195.7	1.9114e-05	2.4226e-05	1265.7	434.98	2.0433e-05	2.4044e-05	569.31	234.26	171.96	74.367	2.3172e-05	107.5	330.205	87.920	90.696	-0.575	137.666	140.773	-1.693	5.098	157.446	153.450	2.884	7.688	9.421	14.088	151.880	10.739	-8191	255	
33048.363	1	1	0	0	0.22428	0.14267	0.26174	0.24845	0.063315	0.19571	0.30571	0.19201	0.18171	0.13321	0.19685	0.14723	0.29349	0.32852	0.10909	0.14978	-4.7708	-4.4625	-4.9458	-5.0938	-4.4896	-5.0396	-4.8313	-4.8187	-5.175	-4.6521	-5.1125	-5.0687	-4.5938	-5.1708	-4.8688	-4.7708	327.327	3.623	213.440	-10.797	193.747	160.235	296.045	300.489	113.567	59.378	304.187	290.633	345.830	30.633	313.319	289.755	0.001401	0.00087488	0.00034037	1325.7	1.3432e-05	8.5249e-06	1393.6	481.37	2.3535e-05	7.1923e-06	628.53	257.38	190.44	81.207	1.2223e-05	117.71	0.0040686	0.002153	0.00060636	1195	1.8853e-05	2.4659e-05	1268.8	434.99	2.064e-05	2.5129e-05	569.17	234.8	172.3	74.504	2.3335e-05	107.93	330.415	73.636	85.503	-0.976	121.269	125.771	-1.851	5.248	132.719	124.086	3.243	7.527	9.459	14.170	137.559	11.099	-8191	255	
33048.457	1	1	0	0	0.10069	0.31496	0.13194	0.26219	0.11584	0.096183	0.22558	0.25721	0.14577	0.14278	0.089271	0.20286	0.27743	0.044526	0.071493	0.091793	-4.8021	-4.6062	-4.8646	-5.1583	-4.4563	-5.1292	-4.7333	-4.6625	-5.0625	-4.5958	-4.9042	-5.0437	-4.7167	-5.2417	-4.7958	-4.7875	102.823	-4.758	322.777	295.513	272.928	-12.203	310.219	299.273	4.763	-5.131	55.183	296.886	319.424	137.753	160.306	343.929	0.0013054	0.0025442	0.00032236	1327.4	1.3663e-05	8.2052e-06	1408.4	480.81	1.3819e-05	1.0318e-05	631.37	257.58	190.43	81.321	1.0165e-05	118.07	0.002353	0.0056094	0.00063061	1195.8	1.9618e-05	2.4411e-05	1272.1	434.54	2.008e-05	2.5454e-05	570.88	235.28	172.43	74.629	2.3312e-05	108.31	333.267	96.410	85.136	-0.511	117.617	109.735	-1.553	5.384	166.732	182.688	3.312	7.533	9.452	13.884	142.206	11.040	-8191	255	
33048.551	1	1	0	0	0.17737	0.044859	0.052991	0.085965	0.20607	0.069235	0.093606	0.27211	0.087554	0.11925	0.093271	0.12803	0.063151	0.079304	0.2246	0.29752	-4.8875	-4.5208	-4.7333	-5.2542	-4.5	-5.0167	-4.9979	-4.5521	-4.8938	-4.8104	-4.8958	-5.2979	-4.6354	-5.0687	-4.7875	-4.6708	202.284	156.007	79.073	346.485	266.748	144.881	321.323	317.215	173.309	219.627	217.746	131.558	290.144	292.519	237.676	275.288	0.0015166	0.0032099	0.00020247	1330.4	1.2944e-05	7.0924e-06	1404.3	481.32	1.7047e-05	9.3683e-06	629.23	255.64	188.65	81.115	1.1781e-05	117.01	0.0016856	0.0079734	0.00060705	1197	1.9528e-05	2.477e-05	1273.5	435.04	2.0666e-05	2.6592e-05	569.98	233.75	171.32	74.261	2.2302e-05	107.44	346.328	67.904	76.185	-0.789	168.243	136.957	-1.608	5.286	138.857	149.931	3.294	7.641	9.414	14.129	142.257	10.634	-8191	255	
33048.648	1	1	0	0	0.22422	0.15027	0.073654	0.075742	0.29603	0.15227	0.28296	0.3647	0.21904	0.20447	0.064471	0.15911	0.057955	0.28994	0.34964	0.076756	-4.7333	-4.7417	-4.5458	-5.2417	-4.5021	-4.6875	-5.2	-4.5271	-4.9604	-4.8812	-4.7	-5.2833	-4.7854	-5.0667	-4.9854	-4.6312	53.440	212.713	160.182	23.398	310.594	293.766	260.220	299.603	245.467	301.152	329.705	328.884	310.678	334.594	333.321	251.397	0.0014095	0.0026116	0.00034037	1319.1	1.1658e-05	7.4615e-06	1388.8	479.26	1.3298e-05	5.4297e-06	625.81	253.67	188.98	81.062	1.1561e-05	117.15	0.0016568	0.0082749	0.00061621	1190.7	2.078e-05	2.4607e-05	1262.9	433.57	2.0614e-05	2.5093e-05	566.1	230.8	172.76	74.083	2.2073e-05	107.11	-6.748	69.834	79.070	-0.478	137.505	134.089	-1.767	5.296	159.558	126.373	3.047	7.437	9.594	14.161	173.072	11.214	-8191	255	
33048.770	1	1	0	0	0.29328	0.025038	0.21206	0.20795	0.17266	0.17071	0.14677	0.16636	0.18069	0.055415	0.058335	0.21312	0.20478	0.29153	0.21147	0.16591	-4.7312	-4.8521	-4.6062	-5.3104	-4.5292	-4.7625	-5.1583	-4.6792	-5.0854	-4.8229	-4.7708	-5.3042	-4.6354	-4.85	-5.05	-4.5146	61.722	217.416	26.133	-5.176	16.430	226.913	257.868	281.104	212.475	26.233	4.275	313.388	312.991	344.433	21.569	313.778	0.0016644	0.0023077	0.00010684	1320.6	1.0073e-05	5.8687e-06	1398.9	481.5	1.4682e-05	6.3628e-06	626.56	254.63	189.17	81.294	1.1398e-05	116.93	0.0016948	0.0079029	0.00060108	1188.8	2.0957e-05	2.4147e-05	1265.3	434.23	2.0694e-05	2.4429e-05	567.29	230.75	173.42	74.135	2.2243e-05	107.3	-12.133	88.500	94.445	-0.439	130.925	121.252	-1.676	5.079	147.902	125.471	3.021	7.807	9.319	13.916	147.025	11.177	-8191	255	
33048.840	1	1	0	0	0.038916	0.31183	0.06385	0.23858	0.13666	0.25192	0.2195	0.10896	0.25094	0.075614	0.12911	0.33501	0.10048	0.26329	0.052612	0.32409	-4.5813	-4.7896	-4.5083	-5.1729	-4.6583	-4.6146	-5.2896	-4.7333	-4.9542	-4.9021	-4.6625	-5.1271	-4.7167	-4.6687	-5.1146	-4.8229	50.071	101.444	288.637	318.811	222.273	70.579	237.978	283.137	247.346	-7.731	4.284	325.145	1.494	15.817	323.947	263.339	0.0016544	0.0030363	0.00024553	1317.6	1.2394e-05	9.2573e-06	1402.2	478.41	9.8028e-06	7.5451e-06	626.57	255.8	189.81	81.227	1.3646e-05	117.58	0.0017151	0.0081014	0.00062742	1188.5	2.0922e-05	2.3861e-05	1266.9	433.49	1.9871e-05	2.478e-05	568.09	232.08	174.19	74.181	2.2905e-05	107.61	344.477	82.922	76.693	-0.429	106.826	130.546	-1.564	5.005	157.988	139.627	3.308	7.445	9.673	14.004	158.582	11.127	-8191	255	
33048.938	1	1	0	0	0.20433	0.1742	0.076933	0.25894	0.29995	0.075804	0.26556	0.20832	0.035488	0.31539	0.12959	0.029152	0.26292	0.28812	0.14736	0.2601	-4.5167	-4.9479	-4.4958	-5.1146	-4.7854	-4.6042	-5.2125	-4.8146	-4.7979	-5.0146	-4.6458	-5.1354	-4.9125	-4.5667	-5.0667	-4.8104	323.031	19.565	39.231	335.812	294.205	336.272	305.353	296.166	193.394	9.136	249.130	344.767	231.785	284.618	342.104	240.592	0.0014526	0.0029959	0.00029119	1328.4	9.4865e-06	8.0707e-06	1412.3	477.25	1.8884e-05	7.2249e-06	628.21	255.74	189.16	80.856	1.1858e-05	117.68	0.0016308	0.0079743	0.00060859	1192.9	2.0107e-05	2.4358e-05	1264.9	435.67	1.9479e-05	2.4373e-05	567.57	231.51	173.48	74.034	2.2528e-05	107.49	-12.211	80.939	89.872	-0.378	122.917	119.080	-1.624	5.127	145.397	145.318	3.105	7.708	9.665	14.002	147.826	10.566	-8191	255	
#DATA ENDS
