BOXY.EXE: ISS Imagent and Oximeter Data Acquisition Program Version 0.80
Ascii Record File

#ACQ INFORMATION
2  Detector Channels 
16  External MUX Channels 
1  Auxiliary Channels 
5000  Waveform (CCF) Frequency (Hz)
1  Waveforms Skipped 
30  Waveforms Averaged 
1  Cycles Averaged 
16  Acquisitions per Waveform 
10.0806  Updata Rate (Hz) 

#FILE INFORMATION
TRUE -- External MUX Channel results are PARSED.
FALSE -- AC DC and Phase are NOT grouped.
TRUE -- Companion Program Settings File CREATED.
FALSE -- AC data not excluded
FALSE -- DC data not excluded
FALSE -- Phase data not excluded
FALSE -- Auxillary Chn. data not excluded
Tab delimiters

#CALIBRATION STATE
TRUE -- Waveform Calibration Values APPLIED.


#AUX CALIBRATION VALUES
Val Type	aux-1	

Term	1.0000e+00	
Factor	0.0000e+00	


#WF CALIBRATION VALUES
A = Detector Channel
Val Type	A-AC1	A-AC2	A-AC3	A-AC4	A-AC5	A-AC6	A-AC7	A-AC8	A-AC9	A-AC10	A-AC11	A-AC12	A-AC13	A-AC14	A-AC15	A-AC16	A-DC1	A-DC2	A-DC3	A-DC4	A-DC5	A-DC6	A-DC7	A-DC8	A-DC9	A-DC10	A-DC11	A-DC12	A-DC13	A-DC14	A-DC15	A-DC16	A-Ph1	A-Ph2	A-Ph3	A-Ph4	A-Ph5	A-Ph6	A-Ph7	A-Ph8	A-Ph9	A-Ph10	A-Ph11	A-Ph12	A-Ph13	A-Ph14	A-Ph15	A-Ph16	

Term	0.00000e+00	0.00000e+00	0.00000e+00	0.00000e+00	0.00000e+00	0.00000e+00	0.00000e+00	0.00000e+00	0.00000e+00	0.00000e+00	0.00000e+00	0.00000e+00	0.00000e+00	0.00000e+00	0.00000e+00	0.00000e+00	0.00000e+00	0.00000e+00	0.00000e+00	0.00000e+00	0.00000e+00	0.00000e+00	0.00000e+00	0.00000e+00	0.00000e+00	0.00000e+00	0.00000e+00	0.00000e+00	0.00000e+00	0.00000e+00	0.00000e+00	0.00000e+00	0.00000e+00	0.00000e+00	0.00000e+00	0.00000e+00	0.00000e+00	0.00000e+00	0.00000e+00	0.00000e+00	0.00000e+00	0.00000e+00	0.00000e+00	0.00000e+00	0.00000e+00	0.00000e+00	0.00000e+00	0.00000e+00	
Factor	1.00000e+00	1.00000e+00	1.00000e+00	1.00000e+00	1.00000e+00	1.00000e+00	1.00000e+00	1.00000e+00	1.00000e+00	1.00000e+00	1.00000e+00	1.00000e+00	1.00000e+00	1.00000e+00	1.00000e+00	1.00000e+00	1.00000e+00	1.00000e+00	1.00000e+00	1.00000e+00	1.00000e+00	1.00000e+00	1.00000e+00	1.00000e+00	1.00000e+00	1.00000e+00	1.00000e+00	1.00000e+00	1.00000e+00	1.00000e+00	1.00000e+00	1.00000e+00	X	X	X	X	X	X	X	X	X	X	X	X	X	X	X	X	

B = Detector Channel
Val Type	B-AC1	B-AC2	B-AC3	B-AC4	B-AC5	B-AC6	B-AC7	B-AC8	B-AC9	B-AC10	B-AC11	B-AC12	B-AC13	B-AC14	B-AC15	B-AC16	B-DC1	B-DC2	B-DC3	B-DC4	B-DC5	B-DC6	B-DC7	B-DC8	B-DC9	B-DC10	B-DC11	B-DC12	B-DC13	B-DC14	B-DC15	B-DC16	B-Ph1	B-Ph2	B-Ph3	B-Ph4	B-Ph5	B-Ph6	B-Ph7	B-Ph8	B-Ph9	B-Ph10	B-Ph11	B-Ph12	B-Ph13	B-Ph14	B-Ph15	B-Ph16	

Term	0.00000e+00	0.00000e+00	0.00000e+00	0.00000e+00	0.00000e+00	0.00000e+00	0.00000e+00	0.00000e+00	0.00000e+00	0.00000e+00	0.00000e+00	0.00000e+00	0.00000e+00	0.00000e+00	0.00000e+00	0.00000e+00	0.00000e+00	0.00000e+00	0.00000e+00	0.00000e+00	0.00000e+00	0.00000e+00	0.00000e+00	0.00000e+00	0.00000e+00	0.00000e+00	0.00000e+00	0.00000e+00	0.00000e+00	0.00000e+00	0.00000e+00	0.00000e+00	2.93131e+01	-1.38054e+02	-1.55137e+02	-1.83507e+02	-8.93409e+01	-7.38741e+01	-1.57185e+02	-1.62015e+02	-1.04756e+02	-8.47356e+01	-1.72626e+02	-1.72814e+02	-1.80483e+02	-1.78435e+02	-9.61728e+01	-1.51297e+02	
Factor	4.06815e-05	8.32167e-05	3.41537e-05	1.61071e-01	1.09079e-06	8.84274e-07	1.94396e-01	6.71829e-02	1.01989e-06	8.41751e-07	9.46126e-02	3.23926e-02	2.57595e-02	9.54239e-03	8.66236e-07	1.36832e-02	5.31991e-07	5.38450e-07	1.50082e-07	7.64884e-02	5.87831e-09	5.89810e-09	8.61984e-02	3.09803e-02	5.88643e-09	5.89619e-09	4.18274e-02	1.42647e-02	1.18748e-02	4.35937e-03	5.89889e-09	5.99575e-03	X	X	X	X	X	X	X	X	X	X	X	X	X	X	X	X	



#DISTANCE SETTINGS
A = Detector Channel
A-1	A-2	A-3	A-4	A-5	A-6	A-7	A-8	A-9	A-10	A-11	A-12	A-13	A-14	A-15	A-16	

2.5000e+00	3.0000e+00	2.5000e+00	3.0000e+00	2.0000e+00	3.0000e+00	1.5000e+00	3.0000e+00	3.0000e+00	3.0000e+00	3.0000e+00	3.0000e+00	3.0000e+00	3.0000e+00	1.5000e+00	3.0000e+00	

B = Detector Channel
B-1	B-2	B-3	B-4	B-5	B-6	B-7	B-8	B-9	B-10	B-11	B-12	B-13	B-14	B-15	B-16	

1.0000e+01	1.0000e+01	1.0000e+01	1.4400e+00	1.0000e+01	1.0000e+01	1.5100e+00	1.9400e+00	1.0000e+01	1.0000e+01	1.9900e+00	2.4900e+00	2.4100e+00	2.9000e+00	1.0000e+01	2.9800e+00	




#DATA BEGINS
time	group	step	mark	flag	A-AC1	A-AC2	A-AC3	A-AC4	A-AC5	A-AC6	A-AC7	A-AC8	A-AC9	A-AC10	A-AC11	A-AC12	A-AC13	A-AC14	A-AC15	A-AC16	A-DC1	A-DC2	A-DC3	A-DC4	A-DC5	A-DC6	A-DC7	A-DC8	A-DC9	A-DC10	A-DC11	A-DC12	A-DC13	A-DC14	A-DC15	A-DC16	A-Ph1	A-Ph2	A-Ph3	A-Ph4	A-Ph5	A-Ph6	A-Ph7	A-Ph8	A-Ph9	A-Ph10	A-Ph11	A-Ph12	A-Ph13	A-Ph14	A-Ph15	A-Ph16	B-AC1	B-AC2	B-AC3	B-AC4	B-AC5	B-AC6	B-AC7	B-AC8	B-AC9	B-AC10	B-AC11	B-AC12	B-AC13	B-AC14	B-AC15	B-AC16	B-DC1	B-DC2	B-DC3	B-DC4	B-DC5	B-DC6	B-DC7	B-DC8	B-DC9	B-DC10	B-DC11	B-DC12	B-DC13	B-DC14	B-DC15	B-DC16	B-Ph1	B-Ph2	B-Ph3	B-Ph4	B-Ph5	B-Ph6	B-Ph7	B-Ph8	B-Ph9	B-Ph10	B-Ph11	B-Ph12	B-Ph13	B-Ph14	B-Ph15	B-Ph16	aux-1	digaux	

8725.831	1	1	0	768	0.087148	0.10376	0.069708	0.010034	0.079747	0.0924	0.09804	0.11486	0.11459	0.074102	0.24386	0.050104	0.13381	0.074893	0.10352	0.13756	-2.825	-2.9333	-3.4354	-2.9646	-3.2125	-3.4604	-2.8937	-3.4958	-3.475	-2.775	-3.6125	-3.1188	-3.0125	-3.6021	-2.8979	-3.4271	198.710	108.152	309.379	283.033	25.395	304.641	42.913	95.687	93.243	7.283	282.449	110.247	326.515	67.259	73.202	327.463	0.00045835	0.00010062	0.00010555	271.12	1.8766e-06	1.2693e-06	335.79	114.53	2.8608e-06	4.9675e-07	153.85	71.374	54.028	24.131	9.5396e-07	33.568	0.00030456	0.00026858	6.9498e-05	327.14	3.2725e-06	2.8957e-06	392.77	134.79	3.2302e-06	2.8943e-06	175.14	80.342	62.22	26.952	2.7783e-06	37.118	299.254	-6.539	28.171	-3.840	-8.321	75.573	-4.729	2.615	99.772	146.436	-0.111	5.095	7.422	12.578	17.565	8.675	-8191	255	
8725.927	1	1	0	0	0.14704	0.36917	0.22917	0.2556	0.089138	0.12687	0.24942	0.0577	0.17211	0.15375	0.097088	0.10304	0.10989	0.025732	0.13977	0.13714	-3.0292	-2.7938	-3.3229	-2.8875	-2.8937	-3.5812	-2.8229	-3.2708	-3.4375	-3.05	-3.3042	-3.1042	-3.1521	-3.6021	-2.8833	-3.2604	336.039	231.261	38.089	69.617	177.158	67.057	194.251	63.447	334.200	94.470	334.064	52.668	266.519	129.548	291.255	255.841	0.00037883	7.2215e-05	0.00018379	270.42	2.2856e-06	2.8243e-06	336.48	114.36	1.9567e-06	1.395e-06	152.89	71.133	54.183	24.03	2.8209e-06	33.305	0.00029117	0.00026315	7.0237e-05	329.21	3.1073e-06	2.8062e-06	393.14	135.57	3.0291e-06	2.7862e-06	175.09	80.134	61.776	26.735	2.8193e-06	36.906	300.382	74.044	111.784	-3.525	72.073	141.742	-4.750	2.212	310.460	104.019	0.188	5.198	7.548	12.729	231.772	8.611	-8191	255	
8726.024	1	1	0	0	0.19765	0.1805	0.038819	0.15095	0.081459	0.070401	0.13172	0.23524	0.31048	0.075998	0.15437	0.054045	0.078073	0.22632	0.096662	0.11016	-3.0083	-2.7396	-3.4375	-3.1479	-2.8833	-3.4104	-2.9708	-3.2854	-3.5229	-3.0229	-3.4979	-3.2167	-2.8646	-3.5479	-3.075	-3.2687	335.846	270.178	253.529	207.461	341.301	144.603	220.766	10.741	100.493	310.570	246.316	342.356	35.398	51.217	257.660	183.241	0.00040726	0.00010493	0.00012538	272.71	1.27e-06	6.5288e-07	336.35	115	2.2033e-06	2.195e-06	152.5	71.017	54.147	24.003	3.2038e-06	33.125	0.0002681	0.0002486	7.1876e-05	329.5	2.8697e-06	2.6726e-06	394.87	135.67	2.8475e-06	2.6832e-06	176.08	79.879	61.366	26.674	3.0176e-06	36.732	290.188	43.990	47.370	-3.899	76.161	123.170	-4.791	2.205	79.121	119.455	0.191	4.926	7.497	12.749	141.994	8.621	-8191	255	
8726.120	1	1	0	0	0.17294	0.11817	0.23159	0.25038	0.11901	0.087107	0.083443	0.15686	0.10976	0.18616	0.19092	0.06095	0.065194	0.1662	0.16375	0.21266	-3.0875	-2.5521	-3.4646	-3.2333	-2.9437	-3.4688	-3.0917	-3.2375	-3.7667	-3.0583	-3.2833	-3.375	-2.8292	-3.5875	-3.1417	-2.9875	133.881	128.072	49.722	253.366	95.415	162.947	61.196	323.523	104.582	321.263	223.247	310.596	66.164	320.234	216.334	297.942	0.00029171	0.00029578	0.00012533	271.9	3.1489e-06	1.463e-06	335.23	114.18	7.2131e-07	2.4737e-06	152.42	71.107	53.989	23.988	3.6574e-06	33.191	0.00026064	0.00024635	7.8387e-05	328.12	2.8576e-06	2.6829e-06	398.21	134.65	2.8053e-06	2.7227e-06	177.65	79.626	61.257	26.707	3.2575e-06	36.714	295.729	39.055	105.442	-3.898	72.937	148.331	-4.427	2.310	40.097	219.642	0.005	5.039	7.851	12.940	123.888	8.794	-8191	255	
8726.216	1	1	0	0	0.023843	0.17329	0.084281	0.094709	0.19984	0.16054	0.10244	0.074455	0.27169	0.14641	0.049346	0.17998	0.17353	0.12926	0.17316	0.11791	-3.1021	-2.9062	-3.3354	-3.5854	-2.9167	-3.6417	-3.1125	-2.9854	-3.5146	-2.9875	-3.4354	-3.6458	-2.8042	-3.4458	-3.1375	-2.8771	322.306	294.113	181.527	-9.859	44.032	62.236	182.765	76.003	0.110	275.902	297.215	64.046	336.312	40.990	203.501	307.841	0.00044412	0.00038882	6.0596e-05	272.35	2.5085e-06	3.2963e-06	335.75	114.12	2.6118e-06	3.807e-06	152.63	70.883	53.768	23.916	2.6097e-06	33.446	0.00025967	0.00025841	8.4605e-05	327.02	2.8444e-06	2.889e-06	400.51	134.01	2.8262e-06	2.9571e-06	179.05	79.418	61.139	26.849	3.4292e-06	36.76	295.754	140.539	73.151	-3.739	81.970	218.379	-4.549	2.498	119.924	186.700	0.382	5.019	7.914	12.828	17.964	9.052	-8191	255	
8726.312	1	1	0	0	0.23295	0.087368	0.43057	0.28729	0.17584	0.193	0.14554	0.090808	0.051528	0.24045	0.23983	0.073861	0.017575	0.17422	0.16745	0.30648	-3.05	-2.85	-3.0521	-3.4354	-2.8812	-3.6167	-3.1979	-2.8521	-3.6917	-3.0792	-3.2687	-3.6521	-2.8917	-3.4229	-3.3979	-3.0167	214.328	52.600	23.610	46.229	204.976	-0.621	5.187	232.523	102.686	233.383	-11.273	338.273	-9.538	318.279	248.138	343.958	0.00033508	0.00036944	4.2016e-05	268.91	3.5792e-06	4.3166e-06	335.64	113.5	2.2232e-06	4.333e-06	151.21	70.52	53.715	23.802	3.7101e-07	33.05	0.00026263	0.00028507	8.7534e-05	324.7	2.8864e-06	3.194e-06	400.14	133.25	2.8492e-06	3.256e-06	177.78	78.907	60.896	26.935	3.3123e-06	36.43	318.871	119.970	315.110	-3.866	26.865	231.209	-4.740	2.506	92.117	154.235	0.120	5.019	7.605	12.699	125.808	8.787	-8191	255	
8726.433	1	1	0	0	0.20018	0.20024	0.22421	0.21886	0.16135	0.052537	0.2379	0.18063	0.29796	0.048968	0.20663	0.17052	0.094705	0.050221	0.29448	0.27539	-3.1896	-3.0208	-3.1104	-3.6583	-2.6625	-3.2979	-3.4583	-2.85	-3.5792	-3.2146	-3.1292	-3.6417	-2.8854	-3.2354	-3.5938	-2.7354	22.060	-6.162	26.445	13.077	44.733	213.925	266.149	315.196	214.881	135.980	275.835	278.272	123.373	178.201	177.452	310.186	0.00043913	0.00033388	0.00018082	268.88	5.3557e-06	3.1369e-06	333.08	113.21	2.1487e-06	9.7246e-07	151.46	70.078	53.566	23.626	1.3925e-06	32.839	0.00026238	0.00030596	8.3959e-05	323.08	2.9033e-06	3.3926e-06	396.23	132.5	2.923e-06	3.456e-06	176.17	78.259	60.776	26.929	3.1714e-06	36.111	302.742	123.186	18.898	-3.688	183.173	224.987	-4.649	2.387	157.803	88.156	0.015	5.002	7.971	12.804	42.907	8.847	-8191	255	
8726.527	1	1	0	0	0.11452	0.0047695	0.22534	0.24179	0.079392	0.14788	0.21247	0.061982	0.087389	0.22713	0.14763	0.16093	0.087023	0.2963	0.15539	0.11915	-2.9437	-3.1583	-2.925	-3.5146	-2.9125	-3.1021	-3.3146	-2.8958	-3.5104	-3.2042	-2.8625	-3.5146	-2.9708	-3.1229	-3.5354	-2.9625	4.988	316.448	95.788	188.193	278.800	297.613	204.465	334.869	282.373	225.989	314.183	317.588	342.681	316.882	280.320	154.101	0.00045049	8.2174e-05	5.6707e-05	268.62	5.7129e-06	2.4167e-06	334.32	112.95	4.2275e-06	1.3942e-06	150.07	69.584	53.062	23.584	1.6957e-06	32.844	0.00027522	0.00031788	8.001e-05	321.9	3.0846e-06	3.4991e-06	393.88	132.01	3.1609e-06	3.5325e-06	175.17	77.934	61.1	26.877	3.0968e-06	36.071	309.511	328.772	327.096	-3.736	213.582	234.679	-4.954	2.519	178.307	116.598	0.162	5.188	7.801	12.659	149.765	8.622	-8191	255	
8726.623	1	1	0	0	0.11691	0.045334	0.28342	0.017198	0.15906	0.16606	0.1243	0.20044	0.019761	0.16964	0.30977	0.20694	0.19077	0.085589	0.11738	0.19279	-2.9188	-3.25	-2.7687	-3.6271	-2.925	-3.0687	-3.4146	-2.8646	-3.2313	-3.2479	-2.8896	-3.5229	-3.175	-3.1208	-3.5083	-2.9042	66.855	293.929	127.819	175.544	76.524	269.659	183.127	6.292	28.481	146.349	24.444	284.297	65.502	78.148	107.320	307.929	0.00046755	0.00013363	6.4823e-05	267.54	6.4986e-06	1.9904e-06	334.38	112.43	2.1748e-06	1.8403e-06	150.44	70.091	53.309	23.706	3.1675e-06	32.991	0.0003001	0.00031381	7.788e-05	320.62	3.2943e-06	3.3825e-06	393.08	131.48	3.3153e-06	3.3083e-06	174.38	78.213	61.677	26.754	2.9396e-06	36.144	315.865	303.325	-10.140	-3.675	170.517	49.457	-5.028	2.331	155.704	83.956	0.286	5.299	7.853	12.622	91.061	8.860	-8191	255	
8726.719	1	1	0	0	0.21561	0.21625	0.036586	0.23398	0.1224	0.36401	0.10271	0.18959	0.19617	0.099459	0.13216	0.15403	0.42741	0.24534	0.10112	0.092696	-2.7625	-3.275	-2.7271	-3.3292	-3.2729	-2.8896	-3.5792	-2.8542	-3.275	-3.3667	-2.6792	-3.4979	-3.0563	-2.7854	-3.4437	-2.9646	285.888	68.386	12.505	315.966	12.828	230.477	308.438	31.303	13.568	296.987	172.618	112.926	300.065	320.122	122.006	276.422	0.00051066	0.00020261	5.5735e-05	267.82	2.935e-06	2.0841e-06	333.43	112.9	2.6263e-06	3.0231e-06	151.59	70.174	53.459	23.77	1.3467e-06	33.115	0.00030982	0.0002907	7.4621e-05	321.76	3.4142e-06	3.1896e-06	391.91	132.5	3.4569e-06	3.1469e-06	174.68	78.821	61.908	26.708	2.8647e-06	36.529	313.835	-14.850	251.645	-3.370	139.971	319.319	-4.799	2.717	93.288	26.182	0.023	4.902	7.582	12.775	67.505	8.901	-8191	255	
8726.816	1	1	0	0	0.2421	0.16637	0.16773	0.12843	0.15939	0.15909	0.16833	0.12308	0.088146	0.10931	0.055825	0.046331	0.19323	0.14311	0.25117	0.14126	-2.7375	-3.3083	-2.5917	-3.3312	-3.1729	-2.8438	-3.3854	-3.0646	-3.0771	-3.4	-2.7938	-3.3458	-3.3042	-2.8604	-3.4792	-2.8625	97.962	246.837	-9.437	340.754	65.548	296.922	63.064	12.114	-0.855	12.150	196.281	55.085	224.725	47.863	199.094	9.542	0.00045779	0.00028822	8.5037e-05	269.25	2.0925e-06	1.0441e-06	333.71	113.1	3.1454e-06	6.2743e-07	151.16	70.161	53.329	23.716	2.9604e-06	33.005	0.00031445	0.00027931	7.298e-05	324.39	3.4142e-06	3.0398e-06	391.18	133.57	3.4096e-06	3.0226e-06	174.14	79.237	61.666	26.662	2.8615e-06	36.645	285.664	296.578	40.012	-3.484	309.341	163.547	-4.578	2.544	93.636	105.454	0.044	5.205	7.697	12.801	161.645	9.049	-8191	255	
8726.912	1	1	0	0	0.15755	0.33466	0.15761	0.16981	0.14911	0.21682	0.11473	0.22955	0.2756	0.096327	0.19893	0.20172	0.25234	0.1467	0.25415	0.096646	-2.5896	-3.2354	-2.8625	-3.2833	-3.3021	-2.7792	-3.6229	-3.1292	-2.9417	-3.5417	-2.9417	-3.3063	-3.4062	-2.8146	-3.4271	-3.1896	305.091	259.587	194.998	295.401	257.047	-10.293	44.105	152.005	338.392	251.651	57.578	-12.819	36.210	37.918	159.728	64.788	0.00036468	8.823e-05	0.00016066	269.17	2.7291e-06	1.4799e-06	331.43	112.96	3.3862e-06	9.09e-07	150.46	69.908	53.51	23.633	3.0572e-06	32.746	0.00030509	0.0002709	7.2893e-05	327.64	3.2498e-06	2.9712e-06	389.99	134.48	3.2359e-06	2.9259e-06	173.64	79.369	61.076	26.472	2.9199e-06	36.642	300.685	28.128	75.391	-3.508	10.607	56.062	-4.710	2.558	73.996	64.690	0.100	5.171	7.733	12.573	165.831	8.778	-8191	255	
8727.032	1	1	0	0	0.012729	0.15359	0.13945	0.35555	0.18938	0.10507	0.16425	0.036357	0.056838	0.11277	0.16977	0.29162	0.14119	0.1005	0.18105	0.079409	-2.575	-3.425	-2.7042	-3.0417	-3.4021	-2.8208	-3.4479	-3.1396	-3.0708	-3.5917	-2.9062	-3.2917	-3.4813	-2.9833	-3.2771	-3.2938	2.474	164.264	324.019	321.970	147.389	120.351	128.276	60.357	104.656	172.494	271.329	-17.835	124.361	182.647	119.431	257.050	0.00035317	0.00024026	0.0001897	268.59	1.7875e-06	7.2795e-07	337.07	131.94	2.8763e-06	1.1208e-06	184.98	86.191	65.561	29.017	4.0805e-06	40.652	0.00028835	0.00026318	7.583e-05	328.31	3.0692e-06	2.8685e-06	387.41	151.93	3.6428e-06	3.3962e-06	211.25	95.892	73.376	31.863	3.7366e-06	44.259	313.821	37.545	115.216	-3.742	32.047	210.349	-11.849	-4.064	56.071	128.982	-0.597	4.031	6.716	11.969	189.954	7.746	-8191	255	
8727.129	1	1	0	0	0.11681	0.12893	0.12724	0.12231	0.22311	0.084511	0.29746	0.064722	0.21853	0.2059	0.10834	0.20966	0.1132	0.17644	0.11861	0.14072	-2.4313	-3.4604	-2.6542	-2.9396	-3.4625	-2.9708	-3.4021	-3.4292	-2.9333	-3.4375	-3.0542	-2.9562	-3.4833	-2.7562	-3.4083	-3.3646	15.997	253.750	189.153	119.385	55.486	194.726	276.439	87.469	282.125	192.029	-11.650	202.736	290.521	277.541	282.194	57.662	0.00041086	0.00032005	0.00022441	330.27	1.0006e-06	2.7368e-06	410.16	138.87	2.1514e-06	1.0604e-06	185.02	86.465	65.423	29.266	2.124e-06	40.858	0.00033055	0.00030577	9.6977e-05	394.95	3.5454e-06	3.3962e-06	479.19	161.73	3.5633e-06	3.3903e-06	213.32	95.986	73.345	32.057	4.0651e-06	44.415	296.992	37.188	108.323	-4.726	103.117	130.203	-5.633	1.583	53.119	161.650	-0.826	4.279	6.869	11.703	198.737	8.102	-8191	255	
8727.225	1	1	0	0	0.24057	0.097538	0.20212	0.39063	0.083509	0.031574	0.10196	0.20614	0.31089	0.10002	0.14236	0.23095	0.077343	0.30203	0.19483	0.13844	-2.2917	-3.3854	-3.0604	-2.9104	-3.4688	-2.8208	-3.3312	-3.2646	-2.7208	-3.4875	-3.1708	-2.8688	-3.4625	-2.8312	-3.0292	-3.4104	90.318	232.365	22.319	300.655	100.694	106.045	277.840	291.134	128.275	270.538	230.712	160.616	231.704	23.652	114.571	323.295	0.00046952	0.00015648	2.1863e-05	330.09	4.5442e-06	4.1386e-06	410.54	139.1	4.5386e-06	1.8248e-06	185.69	86.439	65.34	29.11	1.8391e-06	40.339	0.00033218	0.00032007	0.00010593	393.79	3.5455e-06	3.5594e-06	482.32	160.66	3.5468e-06	3.5818e-06	214.71	95.3	72.993	32.122	4.1381e-06	43.881	301.579	172.802	111.886	-4.767	60.659	156.883	-5.765	1.219	82.553	226.873	-0.616	4.167	6.684	11.948	126.745	8.087	-8191	255	
8727.319	1	1	0	0	0.21707	0.20263	0.18935	0.10353	0.2436	0.08767	0.22302	0.17363	0.35778	0.22669	0.13552	0.21332	0.21176	0.15167	0.077342	0.32608	-2.2792	-3.3167	-3.1396	-2.7542	-3.4979	-2.7562	-3.325	-3.4542	-2.7896	-3.4458	-3.225	-2.9104	-3.5812	-2.9146	-3.1125	-3.5625	205.646	88.372	21.858	290.189	327.499	-12.497	219.602	83.446	249.255	52.840	-12.456	288.844	314.138	149.932	-10.654	258.448	0.0004601	0.00031193	5.809e-05	329.59	2.8589e-06	4.5489e-06	409.02	138.39	4.8752e-06	5.4644e-06	185.71	85.859	65.429	28.971	2.2815e-06	40.189	0.00031655	0.00033171	0.00010523	390	3.4318e-06	3.7799e-06	481.06	159.73	3.4399e-06	3.8272e-06	213.79	94.47	72.739	32.175	4.0483e-06	43.551	300.866	137.124	309.502	-4.528	117.617	187.042	-5.693	1.436	301.491	124.727	-0.825	4.315	6.841	11.918	10.123	7.898	-8191	255	
8727.392	1	1	0	0	0.12748	0.1313	0.13528	0.10249	0.045131	0.26866	0.17284	0.19413	0.16051	0.21893	0.12712	0.1087	0.24712	0.083067	0.37652	0.22802	-2.35	-3.1667	-3.3125	-2.8333	-3.5812	-2.9625	-2.9875	-3.4646	-2.6833	-3.2438	-3.3375	-2.7729	-3.5896	-3.1583	-2.8312	-3.5167	109.117	279.890	179.170	80.635	68.977	156.793	331.751	263.749	82.517	153.563	196.871	276.349	114.381	51.857	230.558	-9.947	0.00056314	0.00065099	5.5688e-05	330.73	4.6192e-06	1.4342e-06	408.57	138.12	5.1001e-06	5.2762e-06	184.9	85.921	65.067	29.065	5.3043e-06	40.556	0.00031656	0.00036006	0.00010208	389.25	3.3774e-06	4.0187e-06	478.12	158.88	3.5075e-06	4.091e-06	212.16	94.303	72.728	32.407	3.9565e-06	43.692	303.372	130.891	278.090	-4.766	94.688	177.607	-5.605	1.528	138.762	141.929	-0.970	4.546	6.933	11.944	52.562	7.849	-8191	255	
8727.511	1	1	0	0	0.21399	0.27606	0.14891	0.25568	0.34148	0.29202	0.13513	0.16427	0.17241	0.2194	0.15159	0.011355	0.12296	0.25906	0.22473	0.27667	-2.4021	-3.1562	-3.1875	-2.8063	-3.5938	-3	-2.9521	-3.3937	-2.9688	-3.1667	-3.4062	-2.8937	-3.3521	-3.2562	-3.0125	-3.7375	130.879	160.397	19.265	17.181	50.171	42.435	277.385	164.725	10.841	-6.735	339.866	228.503	207.012	88.562	164.986	239.301	0.00060581	0.00026805	8.9838e-05	328.06	3.227e-06	3.8759e-06	407.81	137.74	4.8799e-06	2.8749e-06	184.66	85.307	64.681	29.08	1.4605e-06	40.544	0.00033727	0.00039193	0.00010029	388.24	3.7436e-06	4.3502e-06	476.18	158.69	3.8708e-06	4.3844e-06	211.46	94.341	73.355	32.57	3.9002e-06	43.843	297.963	69.600	34.243	-4.736	137.205	139.864	-5.605	1.648	156.501	39.994	-0.756	4.330	6.996	11.831	111.036	8.075	-8191	255	
8727.608	1	1	0	0	0.22355	0.12808	0.20144	0.061231	0.055625	0.22065	0.26421	0.060056	0.16127	0.12624	0.063891	0.22775	0.24352	0.2093	0.26178	0.20964	-2.4854	-3.0625	-3.3396	-2.8312	-3.3042	-3.0896	-2.8104	-3.5042	-3.0958	-3.1396	-3.4646	-2.7792	-3.2083	-3.3375	-2.5875	-3.5563	209.008	232.261	317.915	235.705	53.152	160.087	318.859	264.497	285.392	64.120	301.861	241.759	243.628	200.262	194.637	31.376	0.00068665	0.00020925	0.00017085	326.32	7.0408e-06	1.2638e-06	406.84	137.41	6.5277e-06	2.9731e-06	184.72	85.828	64.787	29.081	2.6007e-06	40.482	0.000368	0.00039598	9.7209e-05	386.5	4.0307e-06	4.3002e-06	474.06	158.26	4.1671e-06	4.2821e-06	211.32	94.585	73.906	32.506	3.893e-06	43.989	304.475	24.423	330.487	-4.454	160.049	39.183	-5.491	1.477	148.383	89.218	-0.605	4.352	7.094	11.721	9.188	8.106	-8191	255	
8727.704	1	1	0	0	0.23932	0.13059	0.18228	0.079559	0.09677	0.14506	0.16992	0.045732	0.077943	0.042622	0.13797	0.13316	0.3504	0.13084	0.045786	0.083295	-2.6875	-2.95	-3.4333	-2.8563	-3.2625	-3.3875	-2.9938	-3.4771	-3.1813	-2.8854	-3.5104	-2.9271	-3.1188	-3.2792	-2.6521	-3.4271	68.573	142.861	61.171	341.610	67.833	194.276	323.194	274.199	202.111	143.325	275.790	14.585	288.951	273.753	168.012	42.873	0.00062749	0.00041233	1.8414e-05	326.52	3.9053e-06	2.4388e-06	405.92	137.19	3.2094e-06	2.5444e-06	184.09	85.361	64.966	28.883	1.7679e-06	40.088	0.00040505	0.00039481	9.8488e-05	388.71	4.4377e-06	4.1956e-06	473.83	158.96	4.4475e-06	4.1455e-06	210.28	94.599	74.562	32.175	3.8251e-06	43.779	319.351	-12.240	230.854	-4.626	142.549	72.181	-5.840	1.685	166.190	181.747	-0.863	4.194	6.836	11.935	158.269	8.080	-8191	255	
8727.800	1	1	0	0	0.11325	0.045214	0.19978	0.13255	0.19628	0.12465	0.042822	0.058994	0.2249	0.14232	0.13512	0.078986	0.23963	0.17005	0.13375	0.05855	-2.7875	-2.8583	-3.5875	-2.9146	-3.1292	-3.3667	-2.8312	-3.3583	-3.0812	-2.7958	-3.6333	-2.925	-3.1854	-3.5438	-2.8	-3.4313	321.258	21.335	315.218	9.706	228.038	313.863	193.565	288.343	163.374	241.064	281.157	215.991	39.306	334.006	142.059	219.299	0.00045667	0.00016241	9.6892e-05	325.32	3.0651e-06	6.1005e-06	406.29	137.26	3.6941e-06	2.3675e-06	184.39	85.281	64.645	28.742	3.2843e-06	39.982	0.00041817	0.00037573	9.6755e-05	391.42	4.5682e-06	4.0652e-06	472.7	160.67	4.534e-06	4.0459e-06	209.68	95.269	74.314	31.961	3.8166e-06	44.032	308.323	56.927	60.299	-4.393	43.358	21.837	-5.569	1.751	73.014	93.540	-0.650	4.459	6.756	11.656	113.786	8.009	-8191	255	
8727.920	1	1	0	0	0.033499	0.2819	0.25233	0.25039	0.011406	0.16179	0.15489	0.030944	0.37292	0.068925	0.1176	0.11552	0.13126	0.3033	0.19087	0.097893	-2.8729	-2.7792	-3.5208	-3.0271	-3.1167	-3.5708	-2.8708	-3.2458	-3.2792	-2.8771	-3.3958	-3.0938	-2.9854	-3.5417	-2.875	-3.4771	34.962	46.148	266.569	317.392	340.056	80.997	263.723	115.954	264.464	91.056	288.832	331.278	302.253	324.117	167.390	131.445	0.00028359	0.00016518	0.00013454	327.09	3.7661e-06	3.1743e-06	406.53	136.56	3.9259e-06	3.2695e-06	184.2	84.959	64.636	28.704	3.3231e-06	40.067	0.00041074	0.00036525	9.6034e-05	396.09	4.4345e-06	3.9529e-06	472.41	161.94	4.3636e-06	3.9588e-06	210.18	95.94	73.916	31.894	3.9111e-06	44.421	304.992	14.947	32.571	-4.422	342.577	99.371	-5.841	1.618	-0.620	105.787	-0.639	4.458	6.929	11.863	170.038	8.229	-8191	255	
8727.992	1	1	0	0	0.26244	0.37413	0.053888	0.16444	0.12361	0.20483	0.14148	0.090046	0.21844	0.29673	0.12531	0.2711	0.14281	0.13189	0.23556	0.046604	-2.9688	-2.9167	-3.4313	-3.2104	-3.0687	-3.6562	-3.0104	-3.3146	-3.2687	-2.5646	-3.5271	-3.2938	-3.0521	-3.5521	-2.8729	-3.0604	6.523	298.937	231.451	172.470	133.553	222.909	181.665	5.013	144.004	336.106	94.324	73.075	329.716	312.824	113.900	136.037	0.00038079	0.00041049	0.00023254	325.4	6.3274e-06	1.8674e-06	404.46	136.34	2.6608e-06	3.6394e-06	183.44	85.666	64.27	28.796	4.5354e-06	40.308	0.00039522	0.00036574	0.0001007	398.64	4.2922e-06	3.9368e-06	476.68	163.19	4.2355e-06	3.9241e-06	212.27	96.573	73.407	31.882	4.1315e-06	44.59	289.945	28.244	100.802	-4.508	22.492	36.149	-5.520	1.307	2.274	96.873	-0.558	4.446	6.946	12.097	147.289	8.100	-8191	255	
8728.113	1	1	0	0	0.26184	0.17085	0.22685	0.18851	0.12389	0.10035	0.25415	0.17697	0.15987	0.13033	0.058531	0.13411	0.26626	0.083854	0.034817	0.41917	-3.0417	-2.6646	-3.4062	-3.2562	-2.7875	-3.3604	-2.9125	-3.2146	-3.4875	-2.7792	-3.4292	-3.3375	-2.8604	-3.6708	-2.9854	-3.2104	87.640	44.139	42.020	245.866	282.797	175.771	200.107	203.257	52.308	136.421	323.846	255.646	-13.864	267.999	2.285	303.761	0.00041898	0.0001553	0.00012631	326.38	2.8589e-06	1.2991e-06	405.88	137.56	1.9901e-06	6.8012e-07	184.87	85.835	65.324	28.914	4.1704e-06	40.508	0.00037108	0.00034779	0.00010539	397.65	3.9997e-06	3.7152e-06	480.45	163.01	3.9393e-06	3.7628e-06	215.21	96.485	73.733	31.98	4.3653e-06	44.507	287.680	50.610	53.870	-4.781	241.047	241.523	-5.456	1.434	289.412	239.305	-0.401	4.186	6.819	11.908	173.631	7.891	-8191	255	
8728.209	1	1	0	0	0.17554	0.21916	0.21518	0.14238	0.20571	0.1542	0.059735	0.29914	0.13658	0.086769	0.14621	0.16235	0.11084	0.091399	0.19457	0.055407	-3.0604	-2.6417	-3.0687	-3.5167	-2.7354	-3.3771	-3.075	-2.9896	-3.5667	-2.95	-3.3312	-3.4958	-2.8812	-3.4938	-3.0521	-3.0958	186.378	303.426	254.749	27.068	329.965	-5.088	265.720	202.978	250.788	266.401	247.851	188.961	138.947	-13.284	83.718	219.645	0.00046105	4.8877e-05	0.00011725	330.1	2.0903e-06	4.0096e-06	409.97	138.44	1.5604e-06	2.1111e-06	185.82	86.339	65.736	29.034	3.2198e-06	40.433	0.00035708	0.00034541	0.00011234	396.99	3.9136e-06	3.7793e-06	485.08	162.4	3.8252e-06	3.8087e-06	216.71	96.088	73.852	32.07	4.4501e-06	44.066	314.448	6.019	53.789	-4.824	61.054	175.434	-5.447	1.408	337.850	59.425	-0.501	4.094	6.682	11.969	200.646	7.983	-8191	255	
8728.305	1	1	0	0	0.27028	0.079174	0.093391	0.17032	0.052381	0.19677	0.13455	0.098434	0.050203	0.055089	0.07719	0.096859	0.29145	0.38295	0.045738	0.16125	-3.1667	-2.9583	-3.0542	-3.6354	-2.8438	-3.4333	-3.1854	-2.8479	-3.4792	-3.0854	-3.1604	-3.6021	-2.775	-3.5167	-3.1625	-2.8542	331.480	22.304	38.576	274.705	201.794	320.018	182.242	249.432	323.411	29.502	104.897	262.072	279.758	298.715	291.480	337.895	0.00039461	0.00027582	5.0282e-05	330.12	1.1205e-06	2.5637e-07	409.58	138.63	2.4787e-06	5.5726e-06	186.71	86.294	65.87	28.993	2.8561e-06	40.43	0.00034051	0.00035248	0.00011153	393.89	3.6548e-06	3.8372e-06	483.61	160.86	3.5676e-06	3.8921e-06	216.28	95.503	73.581	32.185	4.2107e-06	43.799	301.737	135.350	106.703	-4.634	-6.756	254.718	-5.560	1.457	201.943	178.339	-0.717	4.321	6.804	11.803	68.250	8.132	-8191	255	
8728.401	1	1	0	0	0.25313	0.11218	0.070175	0.38814	0.20154	0.14294	0.23656	0.08182	0.22714	0.2061	0.11144	0.12015	0.037454	0.071678	0.25725	0.19621	-3.1	-3.0333	-3.0667	-3.4813	-3.0229	-3.2271	-3.2521	-2.7542	-3.5896	-3.1958	-2.9896	-3.6083	-2.6875	-3.3229	-3.3167	-2.9042	131.351	286.538	104.619	6.511	284.022	39.477	51.875	249.382	197.614	279.128	37.095	175.287	281.146	78.430	207.572	301.529	0.00065306	0.00035914	0.00012197	331.83	1.154e-06	6.157e-06	413.49	139.41	3.1343e-06	6.746e-06	187.51	86.889	66.031	29.19	3.5334e-06	40.615	0.00032424	0.00036565	0.00010537	392.52	3.5159e-06	4.0257e-06	482.73	160.77	3.4956e-06	4.0882e-06	215.36	95.66	73.806	32.415	3.9155e-06	43.837	302.992	86.091	327.115	-4.448	26.432	216.044	-5.565	1.427	201.072	178.960	-0.951	4.441	6.709	11.841	119.084	7.975	-8191	255	
8728.520	1	1	0	0	0.12073	0.49573	0.069417	0.12454	0.19376	0.17833	0.15796	0.11435	0.19173	0.14918	0.19615	0.070201	0.10084	0.15487	0.21201	0.074459	-2.9854	-2.925	-2.7771	-3.5062	-2.8771	-3.1417	-3.3708	-2.8771	-3.4229	-3.2521	-3.0438	-3.5896	-3.0167	-3.0271	-3.525	-2.6771	258.196	128.478	95.266	0.115	118.991	2.156	-12.100	229.239	296.134	216.487	337.768	309.876	201.649	242.682	254.203	207.430	0.00058872	0.00028482	0.00012287	333.56	4.1668e-06	3.1578e-06	413.34	140.23	8.6359e-07	1.184e-06	190.08	88.033	66.84	29.389	2.1924e-06	41.021	0.00032103	0.00037166	9.7513e-05	391.74	3.5066e-06	4.0355e-06	480.55	160.87	3.4942e-06	4.0251e-06	214.98	96.141	74.636	32.647	3.6358e-06	44.04	297.308	89.348	12.917	-4.533	172.456	194.628	-5.717	1.434	134.019	251.414	-0.953	4.131	6.851	11.826	-1.044	8.192	-8191	255	
8728.616	1	1	0	0	0.20532	0.24728	0.08609	0.13652	0.11793	0.096455	0.029219	0.091535	0.17615	0.11283	0.12587	0.25762	0.10691	0.038533	0.19178	0.23381	-3.0187	-2.9958	-2.8167	-3.4854	-3.0458	-3.1333	-3.3021	-2.8646	-3.2875	-3.1833	-2.7792	-3.5	-3.1604	-3.1083	-3.3563	-2.8875	86.318	276.171	98.165	253.499	272.484	168.379	285.118	296.371	328.756	202.975	95.655	263.991	269.951	194.304	-2.329	306.269	0.00071114	0.00044574	7.4555e-05	337.48	5.3215e-06	8.5581e-07	415.67	140.7	6.4044e-06	2.6238e-06	190.4	87.866	66.86	29.319	6.1833e-07	40.807	0.00033478	0.00036752	9.1801e-05	392.65	3.6911e-06	3.9836e-06	479.94	160.98	3.7778e-06	4.0102e-06	214.52	96.075	75.376	32.676	3.6981e-06	44.031	313.264	84.408	2.338	-4.491	165.994	81.554	-5.625	1.510	143.279	90.019	-0.616	4.211	6.823	11.821	181.033	7.978	-8191	255	
8728.688	1	1	0	0	0.13467	0.025406	0.095508	0.084674	0.15957	0.12832	0.23406	0.25024	0.20738	0.10835	0.12564	0.23777	0.27588	0.37868	0.085958	0.34309	-2.9625	-3.275	-2.7271	-3.575	-3.0687	-2.9396	-3.5021	-2.7625	-3.3229	-3.3438	-2.8875	-3.425	-3.0625	-2.9854	-3.5396	-2.8292	159.526	295.121	337.664	55.973	146.477	299.721	304.383	-11.869	288.642	268.524	86.189	-11.482	188.646	284.449	88.283	309.532	0.00052177	0.0003083	0.00014028	335.53	3.3327e-06	2.3838e-06	415.8	140.23	2.7835e-06	1.6397e-06	189.47	87.771	66.801	29.275	2.3151e-06	40.791	0.00037326	0.00037117	9.4197e-05	393.84	4.103e-06	3.9812e-06	478.59	161.24	4.1019e-06	3.9065e-06	213.57	96.121	75.793	32.483	3.5821e-06	44.049	317.416	-14.042	39.018	-4.618	181.352	88.737	-5.870	1.481	258.705	97.702	-0.968	4.142	6.694	11.799	28.741	7.876	-8191	255	
8728.809	1	1	0	0	0.086853	0.0088588	0.025594	0.13842	0.14296	0.058759	0.14739	0.28728	0.054614	0.24828	0.12731	0.27884	0.1815	0.12404	0.29028	0.069316	-2.8042	-3.5167	-2.9021	-3.6375	-3.05	-2.9625	-3.5625	-3.1	-3.1146	-3.4604	-2.775	-3.3312	-3.1063	-2.8438	-3.6333	-2.9396	258.533	109.248	143.757	259.427	-7.400	171.893	102.317	227.611	301.365	13.055	247.320	82.877	296.754	16.864	41.820	194.097	0.00053715	0.00016565	9.021e-05	333.11	2.3808e-06	2.5669e-06	415.42	140.01	4.6159e-06	3.1671e-06	189.42	87.309	66.803	29.381	1.5189e-06	40.897	0.000383	0.00035238	9.1612e-05	395.12	4.2342e-06	3.8453e-06	477.88	161.98	4.2206e-06	3.7816e-06	213.11	96.684	75.76	32.386	3.5428e-06	44.429	303.434	25.384	46.635	-4.594	43.465	40.793	-5.684	1.405	213.524	19.192	-0.962	4.537	6.661	11.793	99.350	7.850	-8191	255	
8728.905	1	1	0	0	0.16808	0.046208	0.12753	0.25883	0.14624	0.070097	0.23398	0.06477	0.18675	0.20267	0.25224	0.20486	0.066649	0.074137	0.076517	0.071301	-2.5771	-3.4958	-2.85	-3.2938	-3.2667	-3.0104	-3.5167	-2.9792	-3.1083	-3.4667	-2.9417	-3.3271	-3.2104	-2.8854	-3.4604	-3.2083	-5.607	157.891	76.557	305.157	41.652	0.245	94.383	95.155	38.805	1.501	245.891	289.220	38.872	69.814	156.736	97.692	0.00025409	0.00015432	7.2593e-05	336.09	5.2456e-06	1.8152e-06	413.91	140.6	5.0996e-06	2.0142e-06	189.1	88.19	66.814	29.409	3.3476e-06	41.175	0.00038412	0.00034412	9.0604e-05	400.06	4.1538e-06	3.7432e-06	478.29	163.83	4.0975e-06	3.7011e-06	213.8	97.913	75.595	32.436	3.5968e-06	44.996	274.301	282.295	-4.664	-4.552	7.481	126.008	-5.529	1.540	53.543	110.599	-0.740	4.312	6.492	11.934	186.513	7.885	-8191	255	
8729.001	1	1	0	0	0.22727	0.088768	0.068268	0.15221	0.10677	0.18695	0.16852	0.30282	0.06725	0.11115	0.10934	0.068149	0.19195	0.13502	0.041392	0.15332	-2.4792	-3.5167	-2.6542	-3.3771	-3.3375	-2.7708	-3.5687	-3.1792	-2.8312	-3.5479	-2.9146	-3.1771	-3.4958	-2.7396	-3.2854	-3.3458	13.521	66.555	37.277	-14.959	262.251	160.546	202.297	240.758	268.031	257.603	42.828	241.407	58.341	295.238	21.135	152.324	0.00034951	0.00014535	0.00014627	333.42	6.4096e-06	2.7922e-06	412.83	140.13	8.5745e-07	4.3285e-06	188.64	88.174	66.635	29.479	3.3122e-07	40.973	0.00037524	0.00034326	9.3582e-05	403.22	4.0842e-06	3.782e-06	481.01	165.65	4.0975e-06	3.8037e-06	215.79	98.803	75.364	32.501	3.9626e-06	45.186	306.226	103.775	114.186	-4.296	41.231	134.405	-5.488	1.562	343.035	91.778	-0.486	4.164	6.725	11.692	48.805	7.759	-8191	255	
8729.097	1	1	0	0	0.2889	0.2744	0.16989	0.059659	0.25894	0.2361	0.23514	0.032747	0.20054	0.2447	0.078359	0.1078	0.17611	0.16401	0.057651	0.098327	-2.3812	-3.5333	-2.8979	-3.2917	-3.4667	-3.0271	-3.4104	-3.1583	-2.8937	-3.4521	-3.1271	-3.4062	-3.4854	-2.8021	-3.1854	-3.2979	-10.204	263.004	-14.827	74.228	146.827	268.433	-9.590	156.502	51.515	67.718	329.249	14.157	306.532	329.313	69.229	274.704	0.00049615	0.00030403	0.00025814	333.9	2.9437e-06	3.3302e-07	412.07	140.03	2.6913e-07	5.867e-06	188.04	87.619	66.477	29.399	3.6057e-06	40.757	0.00037267	0.00034838	0.00010353	405	4.0322e-06	3.8092e-06	485.34	165.88	4.0695e-06	3.8287e-06	217.45	98.406	75.069	32.548	4.3789e-06	45.039	303.111	323.986	91.125	-4.649	121.346	196.331	-5.341	1.674	117.339	99.489	-0.658	4.046	6.670	11.792	196.354	7.928	-8191	255	
8729.216	1	1	0	0	0.032316	0.070035	0.14467	0.1705	0.097662	0.063834	0.060483	0.2625	0.16858	0.071859	0.12603	0.31862	0.14653	0.079638	0.11973	0.13123	-2.4479	-3.525	-3.2042	-3.0958	-3.6104	-2.9083	-3.4646	-3.1708	-2.7042	-3.4375	-3.1542	-3.1042	-3.5083	-2.9021	-3.2062	-3.5896	-3.418	38.095	333.424	162.824	287.917	-8.663	252.108	340.504	270.507	34.342	38.697	305.264	44.981	169.502	208.731	163.387	0.00044394	0.00024459	0.00016005	332.97	5.5719e-06	2.5952e-06	411.92	139.48	2.9739e-06	4.402e-06	188.19	87.369	66.387	29.364	3.5814e-06	41.028	0.00037293	0.00035162	0.00011385	403.06	4.023e-06	3.8724e-06	489.26	164.58	3.9668e-06	3.8355e-06	219.09	97.506	74.661	32.38	4.4472e-06	44.697	296.329	100.115	143.222	-4.789	44.237	118.439	-5.614	1.399	118.628	196.179	-0.459	4.051	6.800	11.949	118.238	8.056	-8191	255	
8729.289	1	1	0	0	0.18299	0.030359	0.1442	0.24444	0.12331	0.16929	0.15108	0.095898	0.14956	0.1434	0.24614	0.39496	0.0029363	0.14648	0.21578	0.37404	-2.2938	-3.3396	-3.1396	-2.8458	-3.5979	-2.8542	-3.3021	-3.4479	-2.9	-3.5771	-3.225	-2.9896	-3.5708	-2.9437	-3.2	-3.4729	88.662	-10.194	318.770	13.032	251.886	99.243	319.645	10.691	340.696	207.578	46.161	325.381	290.025	302.655	190.670	319.384	0.00031973	0.00033248	0.00011058	332.93	2.0624e-06	2.8049e-06	414.83	139.81	2.2409e-06	4.6819e-06	188.39	87.219	66.341	29.261	3.2172e-07	40.994	0.00035168	0.00035069	0.00011367	399.92	3.7981e-06	3.927e-06	491.62	163.32	3.8012e-06	4.0045e-06	219.73	97.064	74.414	32.466	4.4191e-06	44.421	289.022	130.544	73.463	-4.722	241.146	138.371	-5.449	1.457	116.407	160.428	-0.545	4.092	6.528	12.100	95.536	7.990	-8191	255	
8729.385	1	1	0	0	0.30363	0.14891	0.19206	0.18504	0.097582	0.34397	0.072232	0.10571	0.22964	0.088171	0.43804	0.34268	0.069045	0.18833	0.050926	0.22115	-2.4667	-3.3396	-3.2625	-2.9313	-3.5542	-3.0896	-3.0917	-3.4313	-2.9062	-3.3667	-3.4479	-2.8354	-3.6104	-3.2333	-3.0167	-3.6396	2.117	34.348	-3.318	326.313	217.619	202.708	338.332	196.388	27.643	61.058	253.841	239.073	42.553	84.133	-0.852	331.221	0.00043256	0.00040917	0.00010907	334.33	4.0496e-06	4.2053e-06	415.38	139.73	3.2954e-06	2.4103e-06	189.48	87.981	66.573	29.261	3.9366e-06	41.062	0.00033713	0.0003697	0.00011092	396.67	3.6235e-06	4.1001e-06	488.79	162.14	3.6099e-06	4.1314e-06	218.54	97.084	74.423	32.688	4.1179e-06	44.493	287.393	90.250	334.256	-4.672	155.164	180.844	-5.475	1.346	60.403	160.589	-0.970	4.265	6.633	11.834	29.141	8.042	-8191	255	
8729.482	1	1	0	0	0.043203	0.20509	0.26335	0.12377	0.094188	0.148	0.069434	0.13785	0.24875	0.10605	0.043209	0.085369	0.033089	0.14038	0.076673	0.10987	-2.4417	-3.3396	-3.1562	-2.7687	-3.4188	-3.1312	-3.0542	-3.5479	-2.7667	-3.2875	-3.3812	-2.7083	-3.6021	-3.1208	-3.0812	-3.5917	97.816	325.066	5.294	83.203	-14.197	113.583	308.245	282.705	147.137	66.353	-15.984	31.980	-3.468	-14.724	131.030	271.004	0.00052094	0.00038375	0.00022741	333.82	4.6963e-06	3.2819e-06	414.97	139.61	6.1529e-06	1.8417e-06	189.67	87.556	66.325	29.34	3.3011e-06	40.876	0.00033334	0.00038626	0.00010528	396.19	3.6796e-06	4.3622e-06	486.7	161.85	3.7743e-06	4.4071e-06	216.71	96.638	74.621	32.877	4.0444e-06	44.238	300.650	85.303	338.180	-4.591	150.899	222.161	-5.566	1.117	122.384	176.929	-0.725	4.410	6.800	11.845	2.520	7.823	-8191	255	
8729.600	1	1	0	0	0.17211	0.18101	0.10825	0.10418	0.17035	0.11681	0.20483	0.083813	0.35284	0.11685	0.18604	0.16026	0.13893	0.20443	0.13208	0.19134	-2.6604	-3.1167	-3.4458	-2.8896	-3.5104	-3.2687	-2.9958	-3.5208	-2.8063	-3.225	-3.6312	-2.7396	-3.2333	-3.3708	-2.9062	-3.7438	309.023	233.881	232.689	175.478	330.987	181.680	267.420	267.548	254.864	290.357	321.765	156.337	129.798	326.156	53.301	125.167	0.00065382	0.00043518	0.00014746	333.59	8.1041e-06	8.5231e-07	413.53	139.97	6.6112e-06	2.2127e-07	187.87	87.493	66.54	29.361	1.9637e-06	40.933	0.00035939	0.00040509	0.0001014	394.75	3.9316e-06	4.4048e-06	482	161.39	4.0097e-06	4.3757e-06	214.94	96.381	75.312	32.907	3.9359e-06	44.247	309.004	103.150	-8.948	-4.611	154.413	256.330	-5.677	1.510	192.325	247.243	-0.675	4.002	7.030	11.864	16.219	7.906	-8191	255	
8729.697	1	1	0	0	0.014354	0.21259	0.23757	0.053122	0.2398	0.24887	0.080601	0.10967	0.16174	0.28812	0.063267	0.20769	0.13927	0.30745	0.11108	0.24472	-2.5646	-2.9729	-3.4146	-2.8729	-3.3125	-3.3479	-3.1063	-3.7229	-3.0229	-3.0208	-3.5458	-2.95	-3.3229	-3.3792	-2.95	-3.5021	147.987	228.821	47.392	253.347	151.386	334.371	297.470	24.390	180.184	338.088	236.397	72.717	164.400	-4.989	107.324	307.618	0.00053859	0.00028914	8.1705e-05	332.33	8.3939e-06	6.0881e-06	412.41	139.23	4.0087e-06	5.3629e-06	187.8	87.688	66.356	29.24	1.8656e-06	40.93	0.00039062	0.00040333	0.00010051	394.82	4.3502e-06	4.4046e-06	480.91	161.44	4.4231e-06	4.334e-06	214.57	96.618	75.768	32.743	3.898e-06	44.463	312.567	20.141	267.272	-4.677	168.052	44.425	-5.675	1.698	189.714	1.650	-0.503	4.458	6.673	11.484	197.661	8.124	-8191	255	
8729.793	1	1	0	0	0.060495	0.088166	0.10212	0.18124	0.22362	0.03173	0.36033	0.19881	0.3186	0.16393	0.34104	0.29967	0.089975	0.18639	0.17875	0.094688	-2.6792	-2.7396	-3.35	-2.8312	-3.0917	-3.3563	-2.9	-3.5542	-3.3125	-2.7646	-3.5771	-3.0542	-3.2687	-3.3729	-2.7854	-3.4958	16.342	210.376	215.081	-3.897	148.754	42.986	295.152	312.044	7.670	307.107	64.126	133.810	165.849	142.739	288.975	186.455	0.00050041	0.00032636	0.00010167	333.32	5.0049e-06	3.5337e-06	411.88	140.48	3.9447e-06	3.1009e-06	187.59	87.621	66.083	29.428	8.4348e-07	41.042	0.00041255	0.0003841	9.7796e-05	396.54	4.4892e-06	4.1362e-06	479.41	162.56	4.4954e-06	4.0584e-06	214.08	97.245	75.739	32.619	3.7609e-06	44.854	305.110	337.322	326.894	-4.413	137.307	17.250	-5.681	1.422	47.044	45.279	-0.579	4.446	6.805	11.627	86.351	8.170	-8191	255	
8729.889	1	1	0	0	0.078088	0.30799	0.060426	0.25498	0.043642	0.21674	0.13407	0.2194	0.2163	0.20087	0.19241	0.086345	0.21539	0.13368	0.16119	0.060647	-2.8542	-2.7958	-3.6333	-2.9562	-3.0875	-3.4313	-3.0021	-3.2833	-3.4125	-2.9125	-3.4917	-3.1229	-2.9979	-3.3667	-2.8646	-3.3958	158.391	54.768	253.899	343.214	275.499	319.498	333.698	329.221	246.397	64.256	27.259	33.933	294.024	296.733	233.056	-1.780	0.00031262	0.00025568	7.2534e-05	334.66	4.7152e-06	1.2303e-06	412.55	139.41	2.0695e-06	3.0053e-06	188.19	87.698	65.812	29.281	2.0238e-06	41.04	0.00040793	0.00036285	9.4665e-05	399.72	4.3837e-06	3.9078e-06	478.8	163.56	4.2873e-06	3.8539e-06	212.99	97.674	75.126	32.365	3.5906e-06	44.838	296.841	338.385	15.961	-4.523	304.644	-15.966	-5.508	1.584	118.989	3.890	-0.790	4.308	6.583	11.702	92.474	8.135	-8191	255	
8729.985	1	1	0	0	0.12377	0.18333	0.2008	0.40904	0.1284	0.12205	0.18849	0.29845	0.16655	0.15492	0.2013	0.24291	0.27177	0.18195	0.11285	0.27177	-2.9292	-2.7583	-3.5167	-3.0958	-2.8021	-3.6188	-2.7333	-3.3187	-3.3896	-2.7375	-3.5042	-3.0771	-2.8083	-3.3854	-2.9729	-3.2208	282.841	268.252	275.989	305.666	52.197	11.393	242.401	80.315	166.134	56.790	50.110	312.312	224.420	328.121	139.783	257.898	0.000368	5.8854e-05	0.00013213	335.85	4.3725e-06	2.0814e-06	415.47	140.61	3.3837e-06	2.5174e-06	187.35	87.019	66.042	29.206	4.2254e-06	40.716	0.00037406	0.00033561	8.9255e-05	401.77	3.9302e-06	3.596e-06	478.84	164.29	3.9754e-06	3.671e-06	213.09	97.538	74.729	32.23	3.8844e-06	44.868	303.400	6.715	118.849	-4.524	84.406	12.848	-5.773	1.553	65.274	80.916	-0.807	4.310	6.733	12.039	153.198	7.890	-8191	255	
8730.081	1	1	0	0	0.13868	0.09637	0.38528	0.19851	0.10339	0.12207	0.22153	0.10024	0.082391	0.028297	0.14299	0.20868	0.098363	0.18908	0.10209	0.10098	-2.95	-2.6813	-3.3375	-3.1667	-2.8417	-3.5312	-3.1042	-3.1333	-3.4958	-2.875	-3.4229	-3.3187	-2.8354	-3.5208	-2.9458	-3.1583	41.351	246.718	153.657	-1.632	208.956	321.188	199.934	91.408	139.566	117.447	20.180	327.561	252.388	238.789	266.101	77.325	0.00034922	0.00023978	0.00021609	329.27	7.2624e-06	4.7852e-07	409.08	138.32	1.4975e-06	4.4616e-06	185.64	86.97	65.675	29.278	6.4614e-06	40.953	0.00037888	0.00035073	0.00010176	402.26	4.1142e-06	3.8119e-06	480.49	164.41	4.0262e-06	3.782e-06	214.85	97.67	74.315	32.242	4.1664e-06	45.006	288.642	46.683	93.346	-4.555	49.922	32.494	-5.437	1.408	117.542	140.187	-0.552	4.058	6.624	11.753	176.851	7.861	-8191	255	
8730.202	1	1	0	0	0.12167	0.14969	0.21133	0.14833	0.038156	0.16487	0.087516	0.18196	0.074047	0.16938	0.19608	0.18288	0.030014	0.070212	0.16247	0.26799	-3.0417	-2.8583	-3.4	-3.1167	-2.8958	-3.5083	-3.1312	-3.0542	-3.4562	-2.7938	-3.2188	-3.3583	-2.925	-3.4938	-3.0604	-3.1792	1.832	97.074	45.955	11.032	230.586	193.191	162.553	38.037	94.828	63.477	142.934	246.530	304.190	129.002	82.008	230.207	0.00054319	0.00022198	0.00014401	330.6	6.5512e-07	3.5447e-06	408.2	137.99	3.0841e-06	1.9556e-06	185.93	86.807	65.344	29.056	2.131e-06	40.724	0.00036391	0.00034289	0.00010833	401.25	3.9768e-06	3.7945e-06	485.43	163.65	4.0023e-06	3.8487e-06	216.85	97.216	73.855	32.215	4.4974e-06	44.774	293.097	311.378	94.478	-4.387	340.285	174.492	-5.526	1.351	74.582	112.685	-0.549	4.356	6.782	11.887	219.615	7.957	-8191	255	
8730.298	1	1	0	0	0.20968	0.13071	0.2862	0.20536	0.13355	0.10944	0.14815	0.23693	0.22236	0.083222	0.1979	0.20091	0.066135	0.10047	0.1643	0.088913	-3.1562	-2.7396	-3.1375	-3.6208	-2.75	-3.5083	-3.0333	-2.9958	-3.6146	-3.0208	-3.2771	-3.525	-2.6354	-3.5125	-3.1646	-2.9771	263.867	101.103	35.888	141.502	54.667	88.152	267.505	23.003	239.435	154.924	37.835	109.100	246.327	35.322	80.414	32.074	0.00052036	0.00010958	0.0002213	330.54	3.89e-06	3.7585e-06	409.37	138.04	1.427e-06	3.1091e-06	185.91	86.203	64.805	28.964	4.6445e-06	40.561	0.00035799	0.00035112	0.00011406	397.01	3.8397e-06	3.8583e-06	487.8	161.99	3.8662e-06	4.0254e-06	217.89	96.532	73.353	32.257	4.7621e-06	44.567	299.648	108.385	106.288	-4.598	51.079	187.094	-5.793	1.493	105.586	176.868	-0.626	4.382	7.002	12.126	114.339	7.885	-8191	255	
8730.392	1	1	0	0	0.22249	0.18327	0.25261	0.102	0.12683	0.18211	0.23336	0.25386	0.21543	0.030853	0.19495	0.18274	0.086546	0.17038	0.18104	0.098021	-3.0958	-2.9437	-3.1312	-3.4667	-2.6813	-3.4583	-3.3521	-2.9708	-3.5354	-2.9104	-3.1813	-3.4062	-2.8604	-3.3958	-3.3979	-2.9583	-1.036	186.385	82.742	244.595	259.491	265.503	-13.325	292.674	274.900	318.517	231.599	211.237	251.639	303.238	68.298	337.894	0.00046511	0.00045018	6.8108e-05	326.71	6.3913e-06	2.3972e-06	407.38	137.3	2.735e-06	4.6478e-06	184.66	85.485	64.587	28.732	4.221e-06	40.309	0.00036357	0.00038936	0.00011931	393.44	3.9066e-06	4.2629e-06	486.03	160.39	3.814e-06	4.2998e-06	216.22	95.406	72.909	32.259	4.501e-06	44.016	297.242	154.038	70.568	-4.625	108.449	89.776	-5.411	1.470	244.125	169.624	-0.760	4.292	6.740	11.929	55.174	8.036	-8191	255	
8730.513	1	1	0	0	0.22443	0.078763	0.17044	0.046115	0.045946	0.1022	0.090594	0.078818	0.21504	0.028811	0.18784	0.14842	0.033855	0.10513	0.18036	0.29108	-3.0833	-2.9583	-2.9917	-3.4396	-2.8521	-3.325	-3.3417	-2.8542	-3.5333	-3.0417	-2.9917	-3.4437	-2.8854	-3.1833	-3.4479	-2.6583	21.711	65.091	199.372	50.958	200.668	287.448	311.733	266.202	85.099	237.900	-4.913	231.943	5.868	260.352	117.486	41.671	0.0005632	0.00032348	0.00020419	326.3	5.288e-06	2.7367e-06	405.63	136.63	2.4404e-06	4.1124e-06	184.21	85.108	64.433	28.685	2.1209e-06	40.253	0.0003546	0.00041242	0.00011385	391.31	3.8952e-06	4.5296e-06	481.24	159.51	3.905e-06	4.5916e-06	213.9	94.713	73.085	32.368	4.2408e-06	43.803	296.411	142.534	-6.804	-4.574	181.578	203.098	-5.908	1.348	130.967	155.457	-0.566	3.985	6.785	11.955	-5.081	7.899	-8191	255	
8730.585	1	1	0	0	0.13481	0.25195	0.14696	0.079973	0.13762	0.11835	0.1439	0.10173	0.1809	0.086079	0.075446	0.087698	0.23813	0.21088	0.008631	0.30035	-2.8812	-2.8292	-2.825	-3.5375	-2.9208	-3.1458	-3.4688	-2.6771	-3.3771	-3.3167	-2.8833	-3.6917	-3.0292	-3.1437	-3.5583	-2.7875	265.510	79.743	144.644	257.503	336.978	65.190	113.287	162.964	-15.063	176.032	185.479	287.452	159.991	-15.842	290.696	207.896	0.00053819	0.00049207	0.00016248	327.91	4.2626e-06	3.3644e-06	407.65	136.72	6.2054e-06	3.8746e-06	185.22	85.682	64.892	28.675	2.0943e-06	40.187	0.00036205	0.00041917	0.00010683	389.87	3.9996e-06	4.5807e-06	478.58	159.03	4.0492e-06	4.5559e-06	212.93	94.607	73.661	32.24	3.9891e-06	43.55	298.781	68.438	-4.497	-4.473	181.913	152.269	-5.753	1.585	164.497	111.569	-0.739	4.252	6.911	11.754	3.097	7.855	-8191	255	
8730.681	1	1	0	0	0.10289	0.020152	0.20457	0.075403	0.07505	0.187	0.079391	0.016978	0.0061962	0.2088	0.07545	0.12859	0.062207	0.070238	0.23739	0.11647	-2.8812	-3.1833	-2.6396	-3.3771	-3.0333	-2.975	-3.3479	-2.8604	-3.1688	-3.475	-2.825	-3.6063	-2.9188	-3.0229	-3.4896	-2.8875	300.199	157.821	54.972	219.331	248.576	197.849	232.879	283.646	-8.655	-1.521	267.412	245.052	45.801	18.831	9.297	314.149	0.00070541	0.00039525	5.2888e-05	330.24	5.2259e-06	2.0614e-06	408.85	137.39	8.7093e-06	2.3009e-06	186.09	85.691	64.964	28.454	6.0025e-07	40.183	0.0003759	0.0003991	9.9023e-05	389.8	4.1423e-06	4.3309e-06	477.97	158.74	4.2395e-06	4.3438e-06	212.59	94.843	74.284	32.063	3.964e-06	43.662	300.636	313.592	253.319	-4.834	189.746	88.051	-5.499	1.539	160.805	52.246	-0.582	4.254	6.781	11.745	246.434	8.263	-8191	255	
8730.777	1	1	0	0	0.25903	0.12712	0.13194	0.079402	0.1482	0.067891	0.093748	0.25554	0.098163	0.088937	0.26228	0.094493	0.10088	0.1902	0.26207	0.10986	-2.8146	-3.2854	-2.7583	-3.6937	-3.0917	-2.8521	-3.55	-2.5792	-3.1896	-3.3375	-2.7917	-3.425	-3.2354	-2.9729	-3.3896	-2.8708	82.389	213.133	196.189	96.822	155.782	246.052	275.415	229.984	98.125	72.592	151.096	314.705	275.599	325.481	327.960	326.497	0.00040667	0.0002377	9.7337e-05	328.45	1.7716e-06	1.8502e-06	409.37	137.76	4.8267e-06	2.5397e-06	184.97	86.21	64.707	28.605	2.9898e-07	40.274	0.00040973	0.00039373	0.00010054	391.16	4.5193e-06	4.2288e-06	477.23	159.8	4.4688e-06	4.1128e-06	211.62	95.306	74.518	31.93	3.7896e-06	43.862	304.024	323.853	47.109	-4.626	164.737	87.578	-5.608	1.391	178.703	137.334	-0.874	4.337	6.719	11.749	-3.172	8.097	-8191	255	
8730.898	1	1	0	0	0.24773	0.24571	0.024489	0.24746	0.20623	0.13601	0.13131	0.16244	0.13011	0.18527	0.085239	0.13874	0.21169	0.16469	0.18971	0.031595	-2.7687	-3.1937	-2.6854	-3.3333	-3.1583	-2.8771	-3.5771	-2.8042	-3.1437	-3.5042	-2.9396	-3.3021	-3.225	-2.8646	-3.6042	-3.1375	245.964	247.450	78.980	313.287	229.417	10.104	184.604	45.733	65.240	336.769	211.709	34.838	-11.741	267.624	224.835	264.080	0.00052616	0.00044217	0.00014507	326.52	6.1208e-06	3.3972e-06	404.77	135.56	5.9497e-06	2.7955e-06	183.11	85.12	64.391	28.317	2.1011e-06	39.828	0.0004137	0.00037377	9.7784e-05	392.22	4.5698e-06	4.1481e-06	474	160.77	4.6459e-06	4.1542e-06	210.74	95.61	74.253	31.75	3.9779e-06	44.119	314.265	26.776	-7.712	-4.543	102.686	34.533	-5.751	1.818	82.750	78.325	-0.921	4.482	6.504	11.968	151.385	8.087	-8191	255	
8730.994	1	1	0	0	0.31647	0.27808	0.12993	0.37851	0.21708	0.16324	0.12125	0.2111	0.053921	0.28475	0.20106	0.10291	0.32765	0.10507	0.12651	0.33751	-2.725	-3.3375	-2.8563	-3.3146	-3.4146	-2.7854	-3.5187	-3.0438	-2.95	-3.3396	-2.7292	-3.2292	-3.2396	-2.7792	-3.4729	-3.0833	117.886	61.843	243.639	281.248	-10.194	264.396	33.209	342.960	32.071	334.162	153.869	234.019	35.555	116.875	150.348	279.805	0.00031217	0.00017126	0.00019411	324.98	1.65e-06	1.3939e-06	403.56	135.59	3.4271e-06	1.3945e-06	183.22	85.312	64.439	28.396	4.9133e-06	39.923	0.00043216	0.00038982	0.00010443	397.89	4.6671e-06	4.222e-06	472.79	162.33	4.4944e-06	4.0454e-06	210.46	96.293	73.708	31.64	3.9487e-06	44.243	287.094	40.806	43.935	-4.488	145.049	68.356	-5.512	1.727	57.661	334.882	-0.584	4.157	6.779	11.580	132.563	8.076	-8191	255	
8731.090	1	1	0	0	0.039092	0.10417	0.14828	0.13448	0.11093	0.052296	0.18185	0.11487	0.042946	0.085982	0.17035	0.18424	0.17616	0.062331	0.17371	0.21773	-2.4688	-3.4083	-2.8958	-3.1063	-3.3646	-2.8875	-3.2708	-3.2417	-2.9375	-3.5458	-2.8688	-3.1625	-3.4354	-2.6937	-3.2021	-3.1583	151.348	18.531	332.275	272.269	18.521	55.017	149.902	327.571	324.957	285.971	216.811	322.617	325.634	322.481	275.449	231.986	0.00032159	0.00029783	0.00018917	326.85	4.7558e-06	4.1581e-07	407.26	136.74	3.4333e-06	1.3259e-06	185.1	85.732	64.513	28.462	4.4166e-06	39.964	0.00039262	0.00035978	0.00010139	398.84	4.1835e-06	3.8949e-06	476.24	162.71	4.11e-06	3.817e-06	212.76	96.612	73.318	31.586	4.1673e-06	44.355	302.232	37.135	104.512	-4.752	15.378	225.497	-5.559	1.746	34.332	197.602	-0.593	4.285	6.715	11.872	212.898	8.028	-8191	255	
8731.162	1	1	0	0	0.14109	0.23288	0.1207	0.26604	0.032955	0.28815	0.27787	0.10361	0.10678	0.16549	0.085056	0.020551	0.2554	0.15924	0.26196	0.22272	-2.4333	-3.4104	-2.7833	-2.9458	-3.3542	-2.6083	-3.175	-3.2271	-2.8833	-3.4417	-2.8354	-3.0417	-3.2	-2.6708	-3.2271	-3.3125	32.052	241.740	200.555	300.951	148.380	252.002	113.809	-4.638	158.320	149.125	169.632	196.384	2.266	76.190	160.250	262.426	0.00016759	0.00021612	0.00010934	326.36	1.6251e-06	2.7154e-06	406.41	135.95	3.6361e-06	6.2771e-07	183.59	86.085	64.469	28.724	2.7864e-06	40.473	0.00037848	0.00035474	0.00011122	399.2	4.1674e-06	3.964e-06	482.76	162.66	4.204e-06	3.9595e-06	215.78	96.879	73.354	31.882	4.5389e-06	44.616	305.875	302.035	117.042	-4.634	113.349	166.023	-5.527	1.296	62.987	46.568	-0.834	4.081	6.853	11.916	150.597	7.941	-8191	255	
8731.282	1	1	0	0	0.058313	0.083012	0.2002	0.12808	0.087204	0.14533	0.10648	0.22584	0.11828	0.082033	0.21041	0.05676	0.14059	0.14179	0.074051	0.1986	-2.3688	-3.4313	-3.0104	-2.9604	-3.575	-2.9125	-3.2854	-3.3583	-2.7729	-3.5792	-2.8833	-2.9125	-3.5333	-2.9917	-3.1167	-3.4833	152.670	165.915	330.841	299.964	79.814	248.903	227.962	39.241	161.453	321.554	276.782	31.683	41.538	91.698	-5.296	214.989	0.00035712	0.0004803	0.00012148	326.97	2.9966e-06	1.3318e-06	408.75	137.75	3.6716e-06	2.4075e-06	184.7	85.972	64.64	28.732	2.2639e-06	40.244	0.00037195	0.0003548	0.00011602	395.98	3.9312e-06	3.8585e-06	485.02	161.78	3.8639e-06	3.8486e-06	216.46	95.989	73.092	31.919	4.5326e-06	44.066	293.330	100.119	103.651	-4.449	66.188	181.004	-5.892	1.444	45.767	179.113	-0.715	4.336	6.712	11.959	-13.909	8.001	-8191	255	
8731.378	1	1	0	0	0.19819	0.06906	0.14228	0.19095	0.24411	0.21938	0.20563	0.13222	0.051662	0.093718	0.30171	0.13267	0.16908	0.052443	0.16419	0.15414	-2.4	-3.3042	-2.9125	-2.7854	-3.6188	-3.1375	-2.9854	-3.3771	-2.9521	-3.5583	-3.2417	-2.8917	-3.3167	-2.9271	-3.0062	-3.4938	254.163	141.311	220.945	333.893	18.264	3.176	174.870	19.593	146.479	-15.069	231.955	85.821	323.756	160.087	6.349	329.844	0.00031476	7.775e-05	0.00018535	327.34	1.6581e-06	4.4629e-06	404.12	136.05	1.319e-06	4.017e-06	182.49	85.367	64.323	28.698	6.0597e-07	40.18	0.00035673	0.00036791	0.00011853	394	3.9001e-06	4.2027e-06	484.15	160.13	3.9386e-06	4.2763e-06	215.49	95.261	72.61	32.145	4.5518e-06	43.855	292.367	141.640	94.868	-4.680	335.512	159.105	-5.729	1.472	292.523	170.824	-0.867	4.307	6.803	12.031	118.069	8.074	-8191	255	
8731.474	1	1	0	0	0.030173	0.19094	0.093932	0.14301	0.064069	0.22427	0.11144	0.15028	0.14413	0.26808	0.034056	0.15766	0.14583	0.060901	0.23905	0.12803	-2.2708	-3.4875	-3.1458	-2.6708	-3.4375	-2.9146	-2.95	-3.6542	-2.8167	-3.3792	-3.2188	-2.7167	-3.4292	-3.0875	-2.9646	-3.5729	313.827	113.395	336.120	25.398	160.860	288.328	108.756	14.190	188.520	169.743	21.164	206.737	302.084	48.144	164.955	191.050	0.00036347	9.9715e-05	0.00012278	324.13	1.8551e-06	3.8166e-06	404.13	135.74	3.4471e-06	4.6767e-06	183.02	85.669	64.173	28.606	3.5101e-06	40.202	0.00035568	0.00040034	0.00011595	391.01	3.8424e-06	4.4821e-06	481.28	159.29	3.8855e-06	4.5227e-06	214.24	95.105	72.767	32.391	4.3892e-06	43.91	321.092	97.743	313.575	-4.586	69.572	224.436	-5.439	1.460	105.948	145.973	-0.712	4.236	6.664	11.958	23.759	7.971	-8191	255	
8731.593	1	1	0	0	0.15711	0.16359	0.14878	0.049735	0.11286	0.090917	0.21637	0.065266	0.037553	0.14791	0.25474	0.10907	0.18676	0.17389	0.024775	0.055114	-2.5292	-3.1375	-3.3396	-2.65	-3.4083	-3.1979	-3.0333	-3.3271	-2.6396	-3.2938	-3.3563	-2.7875	-3.3563	-3.2208	-2.8958	-3.5312	110.235	131.196	71.798	20.165	333.917	102.052	296.408	313.496	207.768	149.997	88.868	105.355	-3.609	24.365	339.815	343.223	0.0005983	0.0004962	0.0001384	325.76	5.5973e-06	3.6613e-06	407.91	136.69	2.8943e-06	1.0324e-06	184.03	85.985	64.441	28.911	2.9024e-06	40.791	0.00036474	0.00042149	0.00010941	389.06	3.9444e-06	4.6249e-06	479.2	159	4.0403e-06	4.6145e-06	213.19	95.479	73.383	32.572	4.1376e-06	44.24	307.153	61.402	45.701	-4.696	146.349	148.320	-5.759	1.520	184.553	6.226	-0.827	4.053	6.806	11.975	0.651	8.175	-8191	255	
8731.690	1	1	0	0	0.28977	0.071892	0.06778	0.13943	0.066675	0.18614	0.17475	0.15433	0.11758	0.091909	0.25068	0.17685	0.13391	0.21116	0.11337	0.10819	-2.4958	-3.0021	-3.3896	-2.7458	-3.4646	-3.1521	-2.8646	-3.5604	-2.9583	-3.0083	-3.4271	-2.7938	-3.2417	-3.2188	-2.8625	-3.5521	233.239	21.959	270.699	115.639	61.624	220.993	156.482	178.281	335.835	248.102	248.622	42.546	-13.661	207.637	163.527	71.417	0.00058882	0.00017428	6.9209e-05	327.77	8.2079e-06	3.6509e-06	406.4	136.77	8.8981e-06	1.57e-06	184.41	86.541	64.779	28.844	3.0517e-06	40.575	0.00038197	0.0004206	0.00010473	389.51	4.1996e-06	4.5687e-06	477.19	158.7	4.2928e-06	4.4771e-06	212.17	95.246	73.974	32.446	3.9627e-06	43.974	301.235	148.799	-15.048	-4.608	185.274	84.790	-5.510	1.274	143.260	287.562	-0.848	4.055	6.873	11.837	40.924	7.715	-8191	255	
8731.786	1	1	0	0	0.21434	0.13682	0.16574	0.18388	0.093532	0.36036	0.24697	0.11873	0.12783	0.21822	0.12781	0.12987	0.10368	0.27006	0.062539	0.060212	-2.5458	-3.05	-3.3063	-2.6229	-3.0021	-3.2104	-2.7333	-3.4042	-3.0083	-3.0146	-3.3583	-2.9583	-3.2521	-3.5271	-2.7396	-3.4208	288.365	229.755	321.078	149.527	206.493	159.248	260.725	65.429	17.049	135.184	268.228	305.695	25.299	310.624	267.401	57.817	0.00076003	0.00038701	2.5309e-05	327.56	9.3013e-07	5.0528e-06	406.61	136.79	2.2872e-06	2.0928e-06	184.31	85.983	64.8	28.93	4.8612e-07	40.391	0.00039984	0.00039462	9.8424e-05	388.11	4.3146e-06	4.2066e-06	473.11	158.42	4.3449e-06	4.1111e-06	209.87	94.881	74.071	32.133	3.7173e-06	43.809	295.806	303.313	311.217	-4.536	105.681	49.331	-5.613	1.493	210.600	22.386	-0.847	4.092	6.619	11.673	35.194	8.150	-8191	255	
8731.882	1	1	0	0	0.08049	0.21503	0.15558	0.10598	0.062201	0.016196	0.11067	0.14319	0.10546	0.089243	0.15096	0.091971	0.26947	0.028591	0.084865	0.0416	-2.6875	-2.9458	-3.4417	-2.8958	-3.0333	-3.3229	-2.8021	-3.3812	-3.2625	-2.8688	-3.4542	-2.8792	-2.9417	-3.5458	-2.7104	-3.4542	79.167	182.462	98.818	303.453	105.673	19.780	10.590	0.816	153.674	338.804	48.872	125.493	301.375	36.613	320.211	333.773	0.00049354	0.00013927	0.00012855	325.75	2.086e-06	1.1794e-06	405.09	137.07	3.0995e-06	3.5031e-06	183.83	85.885	64.421	28.862	2.9428e-06	40.291	0.00040048	0.00036334	9.3908e-05	389.82	4.3734e-06	3.959e-06	470.84	159.69	4.4525e-06	3.9932e-06	209.54	95.608	74.016	32.028	3.724e-06	44.144	292.223	-7.602	339.369	-4.635	193.587	13.849	-5.734	1.472	38.575	47.855	-0.755	4.232	6.803	11.922	138.401	7.908	-8191	255	
8731.978	1	1	0	0	0.20645	0.27634	0.13294	0.059832	0.16454	0.21134	0.038786	0.22325	0.13014	0.10686	0.21016	0.064352	0.097789	0.14565	0.15773	0.024936	-2.8542	-2.9083	-3.4667	-3.0938	-3.0417	-3.5417	-2.7854	-3.3417	-3.3688	-2.8333	-3.5812	-3.0438	-2.925	-3.3792	-2.8625	-3.1271	-5.186	258.985	178.835	112.750	147.287	25.047	182.670	188.901	262.765	90.473	32.967	307.527	263.943	292.786	293.128	213.218	0.00026527	0.00026783	0.00013888	327.1	4.2806e-06	5.0046e-06	406.27	136.89	3.2878e-06	2.5817e-06	184.85	86.136	64.743	28.795	4.0575e-06	40.645	0.00040144	0.00035824	9.2955e-05	393.46	4.3109e-06	3.8669e-06	470.99	160.98	4.2406e-06	3.8109e-06	209.29	96.348	73.732	31.903	3.6692e-06	44.552	307.586	19.992	38.058	-4.587	49.803	80.905	-5.664	1.886	19.064	-13.211	-0.632	4.205	6.562	11.853	151.149	7.920	-8191	255	
8732.074	1	1	0	0	0.34488	0.1476	0.1516	0.39195	0.15666	0.26434	0.11086	0.20163	0.19177	0.17928	0.070445	0.22815	0.070845	0.27805	0.11447	0.21275	-2.825	-2.6083	-3.3646	-3.0854	-2.7458	-3.5792	-2.9313	-3.1396	-3.4188	-2.6688	-3.4854	-3.1063	-2.8354	-3.6688	-2.8542	-3.1396	232.714	318.510	173.832	156.283	78.239	229.497	178.404	296.044	286.046	332.895	307.790	150.193	272.276	9.123	153.417	111.064	0.00042095	0.00016276	0.00011443	326.73	7.9617e-06	4.1599e-06	407.21	136.83	5.2174e-06	4.0324e-06	184.35	86.291	64.566	28.952	8.3506e-07	40.585	0.00037929	0.00034414	9.4017e-05	396.1	4.1083e-06	3.7575e-06	472.4	161.92	4.0335e-06	3.7137e-06	210.62	96.691	73.163	31.847	3.8603e-06	44.546	301.239	79.686	107.380	-4.459	38.877	85.742	-5.439	1.496	-9.637	99.417	-0.661	4.548	6.634	11.889	166.019	7.927	-8191	255	
8732.195	1	1	0	0	0.24476	0.03364	0.089484	0.22215	0.020037	0.19565	0.32325	0.29755	0.051874	0.14114	0.40107	0.28338	0.18838	0.25464	0.080954	0.24261	-2.8542	-2.7333	-3.4313	-3.1437	-2.8396	-3.5354	-2.9271	-3.0854	-3.3875	-2.8312	-3.3458	-3.2542	-2.8292	-3.4292	-2.9938	-2.9354	60.978	154.638	258.024	234.764	194.311	330.441	297.421	341.313	191.101	80.609	62.052	278.490	216.788	301.939	23.006	293.703	0.00039807	0.00034957	0.00013201	327.17	3.3468e-06	2.7546e-06	405.96	136.48	3.9733e-06	6.2228e-06	184.1	85.672	64.712	28.828	5.0193e-06	40.363	0.00035827	0.00033535	9.9512e-05	396.61	3.8931e-06	3.625e-06	475.7	161.6	3.8721e-06	3.6441e-06	211.97	96.132	72.95	31.802	4.2105e-06	44.403	286.652	18.709	83.228	-4.419	101.213	52.032	-5.180	1.591	96.339	86.731	-0.443	4.175	6.507	12.123	157.920	7.927	-8191	255	
8732.289	1	1	0	0	0.29595	0.14073	0.13383	0.078075	0.041806	0.14936	0.21752	0.16281	0.16497	0.11397	0.20575	0.10451	0.070809	0.15356	0.099441	0.052671	-3.0458	-2.7729	-3.2604	-3.2562	-2.9062	-3.5375	-2.9875	-2.8688	-3.4583	-2.875	-3.2583	-3.2021	-2.8375	-3.6688	-3.1604	-2.9667	3.189	108.928	289.492	91.156	128.318	270.914	1.928	200.091	83.187	143.943	302.615	184.068	70.841	239.413	316.061	243.099	0.00043667	0.00027554	0.00018955	327.29	1.6616e-06	4.9602e-06	404.66	136.64	3.2884e-06	2.4004e-06	184.09	85.667	64.638	28.805	2.7806e-06	40.334	0.00035463	0.00033651	0.00010839	393.95	3.8362e-06	3.6901e-06	478.69	160.66	3.8103e-06	3.7311e-06	214.12	95.544	72.887	31.822	4.4293e-06	44.136	298.309	107.487	82.373	-4.941	60.366	152.549	-5.800	1.498	63.928	130.663	-0.784	4.014	6.609	12.126	121.711	7.725	-8191	255	
8732.385	1	1	0	0	0.0746	0.1741	0.16828	0.17972	0.16877	0.17783	0.076319	0.11551	0.15608	0.025525	0.11271	0.05302	0.16694	0.13779	0.20593	0.16071	-3.0062	-2.85	-3.2292	-3.4958	-2.8396	-3.2938	-3.0417	-3.0354	-3.6604	-2.8125	-3.2854	-3.4104	-2.8271	-3.3354	-3.3229	-2.8375	248.141	215.881	261.204	184.242	21.277	261.057	216.114	247.442	11.847	276.716	245.173	42.545	69.422	224.323	-13.322	-6.914	0.00050128	0.00019502	9.6485e-05	328.7	1.4087e-07	4.9684e-06	404.75	137.58	2.2589e-06	2.3802e-06	185.58	86.048	64.801	28.912	1.8346e-06	40.334	0.00034373	0.0003482	0.00011239	391.89	3.7001e-06	3.8268e-06	481.44	159.98	3.6525e-06	3.8746e-06	214.82	95.285	72.618	31.998	4.2521e-06	43.886	284.798	138.661	74.030	-4.603	2.624	172.307	-5.535	1.399	186.215	233.147	-0.703	4.247	6.777	11.842	108.056	7.804	-8191	255	
8732.459	1	1	0	0	0.02979	0.13445	0.14688	0.21447	0.06543	0.24177	0.20673	0.06933	0.1966	0.26308	0.12962	0.14663	0.37199	0.21367	0.1327	0.32459	-3.0208	-2.9333	-3.1271	-3.3	-2.7521	-3.2812	-3.275	-2.8521	-3.4521	-3.0604	-3.1271	-3.5833	-2.8438	-3.1833	-3.4688	-2.8354	11.889	81.184	22.685	315.256	114.462	324.935	273.270	254.221	305.171	37.360	232.631	314.733	304.823	304.420	193.067	315.880	0.00065985	0.00063893	0.00018663	329.15	2.9385e-06	4.013e-06	407.97	137.45	1.2614e-06	5.5632e-06	184.97	86.399	64.914	29.021	2.3158e-06	40.511	0.00032139	0.00035445	0.00010453	388.51	3.4279e-06	3.8635e-06	478.64	158.56	3.4151e-06	3.9567e-06	212.91	95.051	72.443	32.176	3.9831e-06	43.866	314.365	79.211	20.444	-4.734	140.020	164.585	-5.647	1.406	82.102	156.057	-0.809	4.133	6.880	11.892	4.770	7.842	-8191	255	
8732.555	1	1	0	0	0.19445	0.36167	0.098707	0.038747	0.011214	0.20159	0.033042	0.18836	0.27091	0.082915	0.20043	0.11449	0.3208	0.15537	0.10462	0.0092202	-3.05	-3.0687	-2.8854	-3.4875	-2.8688	-3.1354	-3.5771	-2.8896	-3.3896	-3.2167	-3.0146	-3.7521	-2.8312	-3.2042	-3.2687	-2.8042	200.965	89.756	58.868	65.689	167.475	-11.212	291.321	34.260	146.642	305.628	8.968	5.011	152.142	198.927	208.534	166.460	0.00034292	0.00037687	0.00011397	328.96	5.5e-06	3.1312e-06	407.19	137.4	2.9885e-06	4.8319e-06	183.91	85.39	64.383	28.649	1.9793e-06	40.239	0.0003204	0.00037587	0.00010084	387.57	3.5401e-06	4.1684e-06	475.46	157.88	3.6415e-06	4.3081e-06	211.05	94.164	72.463	32.222	4.0085e-06	43.544	291.489	80.754	299.791	-4.582	170.760	165.114	-5.723	1.486	124.179	189.274	-0.701	4.247	6.688	11.875	36.663	7.796	-8191	255	
8732.674	1	1	0	0	0.34188	0.095263	0.15325	0.12455	0.16179	0.087151	0.15494	0.10837	0.26435	0.084607	0.14108	0.098363	0.2342	0.26063	0.17753	0.07604	-3.0125	-3.125	-2.8833	-3.5729	-2.9396	-3.2604	-3.3583	-2.7938	-3.4313	-3.1729	-2.8563	-3.5167	-2.9542	-3.1875	-3.4708	-2.7125	168.352	96.434	296.016	242.561	302.622	192.120	296.109	301.532	6.277	198.922	206.630	111.850	288.983	292.389	140.267	73.626	0.00067657	0.00010721	0.00018363	325.29	4.5452e-06	6.9098e-07	403.88	136.14	3.3593e-06	3.6351e-06	182.17	84.914	63.992	28.693	1.0542e-06	40.108	0.0003549	0.00040327	0.00010009	385.38	3.8944e-06	4.3497e-06	470.65	157.11	3.9295e-06	4.2966e-06	208.73	93.4	72.731	32.066	3.8001e-06	43.302	311.124	66.912	316.018	-4.891	158.034	254.841	-5.705	1.478	190.437	76.466	-0.709	4.050	6.911	11.926	256.306	7.886	-8191	255	
8732.770	1	1	0	0	0.13333	0.22892	0.23179	0.080691	0.022963	0.11197	0.27656	0.13512	0.08518	0.17707	0.15903	0.19749	0.1125	0.091637	0.15182	0.19303	-2.8917	-3.0333	-2.8271	-3.5	-3.0292	-2.9604	-3.4313	-2.8	-3.2	-3.3417	-2.7062	-3.5625	-3.0458	-3.0333	-3.4542	-2.9562	123.482	9.054	73.043	100.687	211.827	-1.958	320.753	178.077	177.413	104.496	225.541	341.698	304.717	318.632	79.392	214.004	0.00059044	8.0627e-05	0.00011801	325.9	2.9987e-06	3.302e-06	402.07	136.09	2.8153e-06	1.2696e-06	182.5	84.987	63.782	28.594	1.5681e-06	39.921	0.00037627	0.00038843	9.7717e-05	384.36	4.1998e-06	4.1973e-06	469.15	157.08	4.242e-06	4.1809e-06	208.39	93.663	73.249	31.845	3.7638e-06	43.342	299.746	155.832	0.231	-4.499	173.644	60.294	-5.598	1.479	146.537	-0.049	-0.676	4.058	6.542	11.627	224.151	7.847	-8191	255	
8732.866	1	1	0	0	0.12128	0.096524	0.12528	0.17212	0.047787	0.039809	0.12651	0.069505	0.063562	0.28669	0.11117	0.22808	0.084251	0.17163	0.42934	0.10724	-2.7687	-3.4021	-2.5875	-3.4	-2.9646	-2.8042	-3.55	-2.8104	-2.9875	-3.2875	-2.7708	-3.4833	-3.2771	-3.0375	-3.4646	-2.9521	322.916	167.190	182.901	129.956	230.049	303.944	236.785	152.933	143.215	36.602	52.132	-9.634	199.241	320.268	56.343	294.923	0.00051959	0.00031452	7.6642e-05	325.33	5.0492e-07	4.0044e-06	404.41	135.62	3.209e-06	1.8043e-06	182.97	84.9	64.126	28.612	2.1294e-06	40.359	0.00039801	0.00036928	9.463e-05	386.28	4.359e-06	4.0081e-06	468.59	157.9	4.3735e-06	3.9538e-06	208.22	94.262	73.506	31.743	3.6523e-06	43.895	316.591	318.061	-9.935	-4.680	180.730	92.742	-5.740	1.665	85.764	42.848	-0.897	4.296	6.790	11.899	139.822	8.027	-8191	255	
8732.962	1	1	0	0	0.032186	0.2318	0.15568	0.051121	0.12683	0.35321	0.26719	0.25848	0.20835	0.12622	0.35048	0.19633	0.24264	0.29792	0.25201	0.11027	-2.5229	-3.1854	-2.5875	-3.3625	-3.1708	-2.9083	-3.3354	-2.9792	-3.0792	-3.375	-2.5833	-3.6	-3.0625	-2.8417	-3.3479	-3.0792	-0.359	177.249	96.514	161.257	303.761	176.399	239.917	114.866	129.342	69.097	70.545	331.279	220.902	291.379	268.820	309.036	0.00048723	0.00013473	0.00012436	324.96	4.0062e-06	1.8061e-06	401.51	135.22	4.2739e-06	2.1525e-06	182.22	84.821	64.173	28.521	2.2511e-06	40.089	0.00040062	0.0003572	9.3196e-05	389.83	4.3644e-06	3.8885e-06	466.36	159.34	4.3123e-06	3.8502e-06	207.72	94.875	73.193	31.63	3.6466e-06	43.967	302.082	302.602	13.789	-4.624	124.892	110.879	-5.605	1.774	6.215	137.733	-0.700	4.235	6.449	11.785	226.286	8.072	-8191	255	
8733.058	1	1	0	0	0.10838	0.20089	0.17027	0.19401	0.098621	0.17938	0.30035	0.29879	0.10392	0.060672	0.20726	0.15481	0.1421	0.12168	0.24774	0.1043	-2.6729	-3.3688	-2.8396	-3.3021	-3.4271	-2.9688	-3.4521	-2.9688	-3.0604	-3.5625	-2.7729	-3.2083	-3.1958	-2.7458	-3.3312	-3.0854	158.217	128.791	158.030	140.536	57.725	140.393	28.906	7.728	291.945	342.556	113.222	157.797	315.384	238.919	21.593	120.441	0.00028909	0.0002574	0.000122	324.27	2.5806e-06	3.3266e-06	400.8	135.07	1.646e-06	3.561e-06	182.9	84.669	64.052	28.5	3.3002e-06	39.942	0.0003861	0.00034783	9.3252e-05	393.23	4.16e-06	3.7756e-06	467.11	160.71	4.1e-06	3.7652e-06	207.97	95.214	72.78	31.513	3.7918e-06	43.971	301.515	51.519	104.920	-4.656	37.782	-2.482	-5.469	1.610	333.831	32.447	-0.637	4.398	6.736	11.875	106.302	7.908	-8191	255	
8733.154	1	1	0	0	0.20731	0.107	0.077664	0.072145	0.36072	0.18819	0.22137	0.043723	0.14708	0.079374	0.063694	0.1709	0.18574	0.024245	0.067281	0.18584	-2.3667	-3.4667	-2.8812	-3.1333	-3.4042	-2.8833	-3.4917	-3.2542	-2.8542	-3.4917	-2.8708	-3.0687	-3.3667	-2.7125	-3.1729	-3.0917	91.686	266.719	242.367	230.588	72.279	324.982	49.907	0.416	291.868	39.446	150.442	283.654	99.881	244.594	227.369	281.027	0.00021553	0.00024582	0.00016602	325.84	5.4536e-06	2.5955e-06	402.45	136.14	4.4734e-06	3.6558e-06	182.9	85.265	64.121	28.692	5.006e-06	40.025	0.00036504	0.00033664	9.6707e-05	394.29	3.8964e-06	3.6052e-06	469.85	160.68	3.8266e-06	3.5547e-06	209.31	95.036	72.14	31.453	3.9205e-06	43.8	267.024	23.450	101.586	-4.457	35.328	101.748	-5.531	1.231	99.979	103.697	-0.750	4.180	6.743	11.896	171.022	7.903	-8191	255	
8733.275	1	1	0	0	0.11348	0.10597	0.097987	0.11663	0.091816	0.25809	0.11376	0.03385	0.39012	0.20133	0.20797	0.11054	0.24419	0.20666	0.1011	0.057643	-2.2792	-3.5125	-2.8187	-3.0312	-3.5125	-2.8812	-3.3292	-3.2375	-2.6521	-3.6417	-3.0208	-2.9688	-3.5	-2.8187	-3.1375	-3.3937	187.612	72.058	319.527	222.298	108.909	236.956	196.292	278.307	13.565	327.421	250.852	-9.898	-3.042	60.166	120.091	65.451	0.0003389	0.00046097	0.00015704	325.72	2.47e-06	1.855e-06	404.12	136.7	3.6836e-06	1.0091e-06	183.26	85.563	64.494	28.679	3.7074e-06	40.456	0.00033955	0.00031848	0.00010094	391.86	3.6717e-06	3.4737e-06	474.45	159.98	3.64e-06	3.487e-06	212.08	95.094	72.289	31.552	4.1376e-06	43.933	301.223	97.016	55.232	-4.701	55.296	227.879	-5.475	1.603	99.367	231.590	-0.570	4.125	6.792	11.854	137.309	7.854	-8191	255	
8733.371	1	1	0	0	0.23246	0.20996	0.094305	0.19595	0.07104	0.097657	0.20034	0.11332	0.061518	0.089284	0.13074	0.21714	0.15608	0.14721	0.21486	0.27919	-2.2938	-3.4396	-2.8229	-3.05	-3.2521	-2.8396	-3.3875	-3.3937	-2.7313	-3.3771	-3.1667	-2.7792	-3.5333	-2.9104	-3.0604	-3.5083	132.908	204.938	111.599	320.048	301.627	13.269	288.648	227.044	64.835	275.607	132.821	-9.774	295.371	311.732	189.710	221.270	0.00043566	0.00039217	0.00019626	328.6	8.322e-07	4.1063e-06	406.06	137.06	2.9092e-06	2.8488e-06	183.51	85.595	64.771	28.711	5.3988e-07	40.162	0.00033129	0.00032662	0.00010681	391.05	3.5777e-06	3.6198e-06	479.3	159.58	3.5461e-06	3.6417e-06	213.29	94.868	72.249	31.729	4.1744e-06	43.576	290.565	141.439	89.411	-4.634	158.010	168.793	-5.556	1.511	20.654	185.502	-0.747	4.169	6.683	11.807	75.593	7.755	-8191	255	
8733.466	1	1	0	0	0.25865	0.21629	0.10588	0.18128	0.086852	0.16216	0.1095	0.13317	0.1018	0.17783	0.30338	0.18347	0.16855	0.076454	0.16116	0.1934	-2.2604	-3.2396	-3.0292	-2.7979	-3.5896	-2.7687	-3.1104	-3.6188	-2.6271	-3.3187	-3.2167	-2.8021	-3.3708	-2.9792	-2.9271	-3.4354	97.064	63.745	300.242	227.168	143.874	196.396	37.779	107.114	19.135	177.737	29.968	104.555	278.597	236.624	146.747	172.462	0.00039488	0.0001868	5.825e-05	328.06	4.897e-07	2.6138e-06	407.65	137.23	2.3453e-06	3.8184e-06	183.41	85.32	64.744	28.57	2.7053e-06	39.877	0.00031904	0.00034171	0.00010578	388.54	3.4309e-06	3.8234e-06	478.53	158.16	3.4526e-06	3.855e-06	211.89	93.984	72.076	31.773	4.0038e-06	43.142	302.584	125.618	55.780	-4.530	301.128	199.469	-5.733	1.475	138.265	199.125	-0.778	4.097	6.646	11.863	334.747	7.967	-8191	255	
8733.564	1	1	0	0	0.12511	0.32015	0.2346	0.25359	0.18147	0.072019	0.15831	0.26528	0.073103	0.094407	0.14379	0.15681	0.10687	0.10758	0.15041	0.041483	-2.2958	-3.2104	-3.2083	-2.6417	-3.2896	-2.8625	-2.9833	-3.3833	-2.7458	-3.3542	-3.3875	-2.6917	-3.2833	-3.0167	-2.8688	-3.5021	1.220	-8.659	34.216	13.656	239.071	270.828	286.287	243.586	97.386	45.310	57.619	1.431	201.638	-14.719	111.665	161.905	0.00057133	0.00048202	0.00013402	327.41	4.8891e-06	4.8167e-06	405.53	137.14	2.9857e-06	3.0678e-06	184.42	84.889	64.471	28.542	1.2857e-06	39.852	0.00031444	0.00035997	0.00010056	386.02	3.4217e-06	4.0317e-06	473.99	157.84	3.5072e-06	4.1067e-06	210.92	93.52	72.247	31.942	3.8954e-06	43.102	321.625	78.267	-8.600	-4.750	160.171	151.722	-5.608	1.499	169.110	161.040	-0.725	4.269	6.895	11.843	45.097	8.034	-8191	255	
8733.682	1	1	0	0	0.29639	0.15363	0.12044	0.042023	0.14852	0.1114	0.21009	0.21509	0.10018	0.10944	0.12907	0.10625	0.2917	0.32206	0.23482	0.20837	-2.3542	-3.2792	-3.2354	-2.8292	-3.3063	-3.0854	-2.8729	-3.3833	-2.9875	-3.2396	-3.3688	-2.7562	-3.4521	-3.2562	-2.7708	-3.5729	27.760	37.234	94.229	167.295	260.651	105.829	6.879	252.078	292.893	162.784	-7.174	167.997	-15.921	132.941	182.284	68.534	0.00064977	0.00013225	8.4104e-05	326.28	4.2859e-06	2.0749e-06	405.1	136.82	6.5241e-06	1.1235e-06	184.27	85.398	64.207	28.464	2.909e-06	39.864	0.00033536	0.00038844	9.9036e-05	385.82	3.7036e-06	4.2742e-06	472.93	157.35	3.7671e-06	4.2378e-06	209.76	93.562	72.629	31.878	3.7306e-06	43.104	296.197	235.854	42.555	-4.673	157.328	105.010	-5.296	1.478	152.328	175.168	-0.720	4.368	6.981	11.874	106.710	7.820	-8191	255	
8733.754	1	1	0	0	0.14744	0.22198	0.11374	0.16095	0.087169	0.085897	0.081874	0.24271	0.089546	0.085133	0.22127	0.1096	0.050479	0.25676	0.065035	0.13339	-2.3688	-3.1792	-3.3688	-2.7438	-3.2687	-3.1875	-2.9625	-3.4917	-3.15	-3.0208	-3.5896	-2.7167	-3.3021	-3.3333	-2.6958	-3.4813	123.843	119.387	6.106	88.486	200.192	121.030	170.312	272.375	125.277	49.103	274.222	71.459	225.964	-4.785	122.791	255.701	0.00059083	9.0071e-05	7.6033e-05	326.92	6.463e-06	5.525e-06	406.53	136.6	3.5778e-06	1.4627e-06	184.16	85.559	64.661	28.51	1.9174e-06	39.893	0.00035542	0.00037737	9.4258e-05	384.56	3.9426e-06	4.1415e-06	471.14	156.87	4.0194e-06	4.0615e-06	208.95	93.711	73.34	31.717	3.567e-06	43.007	297.270	10.577	118.029	-4.681	194.428	47.001	-5.758	1.598	151.262	24.615	-0.779	4.167	6.666	11.856	1.054	7.969	-8191	255	
8733.850	1	1	0	0	0.12229	0.1504	0.081335	0.23569	0.188	0.10182	0.15396	0.1813	0.29211	0.036553	0.078518	0.11337	0.18179	0.057177	0.04465	0.15414	-2.4875	-3.1042	-3.2083	-2.8917	-3.2458	-3.4833	-2.8583	-3.4833	-3.1958	-2.8708	-3.5667	-2.9646	-3.1458	-3.4979	-2.7208	-3.3417	101.371	238.740	220.626	-10.224	314.828	102.408	283.987	324.218	199.574	145.299	63.224	-6.155	222.374	16.089	-11.016	224.964	0.00066292	0.00049081	0.00013438	327.45	5.8984e-06	3.0986e-06	406.76	136.64	3.1962e-06	3.6772e-06	184.85	85.502	65.046	28.456	3.4032e-06	39.601	0.0003696	0.00035116	8.8859e-05	384.73	4.0179e-06	3.8194e-06	469.35	157.48	4.0975e-06	3.7799e-06	208.28	93.853	73.575	31.469	3.4292e-06	42.899	307.597	341.177	32.932	-4.543	226.579	15.346	-5.314	1.567	60.891	59.539	-0.658	4.159	6.990	11.909	179.113	8.146	-8191	255	
8733.971	1	1	0	0	0.21201	0.09014	0.17114	0.18547	0.12686	0.067207	0.13519	0.16677	0.14236	0.13978	0.057647	0.11868	0.10205	0.12757	0.31524	0.17475	-2.7771	-2.6875	-3.5104	-2.9479	-3.0771	-3.5687	-2.7604	-3.3979	-3.2104	-3.0167	-3.5	-3.0271	-3.1417	-3.5938	-2.7354	-3.3438	155.846	182.822	322.204	113.656	258.666	9.572	298.141	309.373	315.502	177.099	107.640	40.604	98.418	6.775	72.066	-11.984	0.00043321	0.00040585	0.00016861	328.42	2.7352e-06	1.1994e-06	405.55	136.62	1.1368e-06	3.8608e-06	184.61	85.234	64.74	28.495	3.2158e-06	39.586	0.00037525	0.00033396	8.6753e-05	387.69	4.0485e-06	3.6052e-06	466.37	158.19	4.0296e-06	3.5727e-06	207.08	94.142	73.46	31.289	3.3335e-06	43.13	300.156	333.530	11.782	-4.481	9.090	105.237	-5.668	1.549	122.621	55.789	-0.692	4.125	6.717	11.798	111.147	8.174	-8191	255	
8734.067	1	1	0	0	0.17584	0.21132	0.3407	0.026026	0.093902	0.22618	0.16817	0.18651	0.23429	0.24072	0.10267	0.16402	0.090747	0.21926	0.18894	0.1395	-2.7917	-2.7438	-3.4354	-3.0729	-3.0396	-3.5375	-2.8708	-3.2562	-3.3521	-2.6771	-3.2812	-2.9542	-2.8187	-3.4562	-2.7438	-3.2188	-3.091	204.547	286.661	164.884	53.399	-7.253	196.611	325.069	238.781	341.492	96.578	249.283	83.086	296.527	245.227	231.530	0.00029708	0.00034234	0.00013511	326.93	1.6471e-06	5.0019e-06	406.87	136.74	6.4489e-06	1.6348e-06	183.98	85.461	64.63	28.416	2.3203e-06	39.692	0.00036189	0.00031897	8.4758e-05	389.61	3.8696e-06	3.4903e-06	466.65	159.46	3.8469e-06	3.4782e-06	206.99	94.861	72.757	31.228	3.4156e-06	43.412	269.111	36.067	90.503	-4.687	31.296	110.127	-5.817	1.668	36.061	41.568	-0.707	4.070	6.739	11.984	189.443	8.148	-8191	255	
8734.163	1	1	0	0	0.098735	0.18899	0.14863	0.22688	0.041312	0.024457	0.32446	0.13771	0.14218	0.2079	0.26279	0.16211	0.17776	0.077552	0.034396	0.24004	-2.9833	-2.7188	-3.2729	-3.0687	-2.9542	-3.4938	-2.8208	-3.2438	-3.2646	-2.6688	-3.3563	-3.0833	-2.8812	-3.4813	-2.7062	-3.1	65.883	229.682	324.877	218.901	248.465	176.961	-12.566	297.380	55.524	57.886	305.718	196.171	325.775	249.005	76.692	293.196	0.00039879	0.00010105	0.00014878	326.54	4.432e-06	2.0872e-06	405.14	136.53	1.2905e-06	3.311e-06	183.77	85.588	64.514	28.323	3.0935e-06	39.835	0.00034178	0.00031047	8.7748e-05	391.16	3.64e-06	3.381e-06	467.42	159.72	3.624e-06	3.3831e-06	208.6	95.085	72.313	31.099	3.6227e-06	43.53	301.362	45.247	41.731	-4.315	-14.653	-3.882	-5.479	1.329	327.207	55.446	-0.558	4.232	6.517	12.178	201.856	8.120	-8191	255	
8734.259	1	1	0	0	0.1427	0.088036	0.04622	0.082578	0.033416	0.12088	0.40429	0.25601	0.16294	0.10853	0.030079	0.09295	0.15912	0.24162	0.14593	0.23358	-2.9729	-2.6	-3.2958	-3.1229	-2.8229	-3.3917	-2.9792	-2.9688	-3.4104	-2.7042	-3.2708	-3.2208	-2.7292	-3.5042	-3.0208	-2.9542	34.920	82.944	281.374	111.063	8.264	81.554	280.880	233.678	-0.589	118.618	329.320	-0.765	43.801	49.423	13.241	295.902	0.00031844	0.00033802	0.00018698	326.32	1.7739e-06	3.0989e-06	405.16	136.35	4.5225e-07	1.8975e-06	182.61	84.859	64.331	28.148	3.309e-06	39.439	0.0003285	0.00030678	9.4114e-05	390.61	3.5558e-06	3.3627e-06	471.29	159.02	3.5536e-06	3.3609e-06	209.79	94.229	71.932	30.87	3.9376e-06	42.868	317.395	71.356	118.720	-4.905	44.558	64.289	-5.468	1.243	142.194	138.447	-0.353	4.218	6.891	12.264	185.220	7.903	-8191	255	
8734.356	1	1	0	0	0.10838	0.15703	0.17479	0.17302	0.096805	0.1414	0.218	0.076806	0.25923	0.050275	0.054734	0.25257	0.16632	0.27638	0.25907	0.20021	-3.1042	-2.6354	-3.1417	-3.2146	-2.7188	-3.3	-3.0292	-2.9458	-3.3708	-2.6333	-3.0875	-3.3271	-2.5542	-3.4146	-3.1396	-2.8771	25.417	255.624	67.934	68.593	54.035	218.512	283.842	138.268	166.630	61.415	265.375	24.635	34.511	282.331	30.154	341.849	0.00039763	0.00040656	0.00021494	325.23	3.1256e-06	1.7516e-06	402.29	136.2	1.7298e-06	3.8289e-06	182.31	84.932	64.287	28.076	3.7001e-06	39.239	0.00032279	0.00030878	0.00010127	387.6	3.4862e-06	3.3784e-06	473.17	157.54	3.4259e-06	3.417e-06	210.27	93.423	71.507	30.879	3.9962e-06	42.571	292.982	98.159	95.381	-4.759	76.136	123.450	-5.514	1.634	0.388	191.630	-0.329	4.110	6.715	11.786	224.690	7.983	-8191	255	
8734.452	1	1	0	0	0.12417	0.20572	0.19274	0.056975	0.078952	0.11224	0.27626	0.13386	0.17507	0.12981	0.038055	0.053352	0.14953	0.12174	0.13445	0.29524	-2.9646	-2.8646	-3.0458	-3.2521	-2.5958	-3.4104	-3.1479	-2.6937	-3.3771	-2.8729	-3.2354	-3.325	-2.6792	-3.4188	-3.1688	-3.0021	275.565	106.220	262.399	249.504	135.493	176.110	314.827	144.692	5.953	107.665	120.278	250.597	266.743	191.661	95.969	241.502	0.00045718	0.00038649	9.2373e-05	324.1	4.1708e-07	3.1745e-06	404.01	135.68	2.0389e-06	3.6314e-06	183.08	85.277	64.108	28.123	1.7782e-06	39.475	0.00031048	0.0003188	0.00010203	384.18	3.3428e-06	3.554e-06	472.68	156.35	3.3089e-06	3.6038e-06	210.2	93.357	71.371	31.094	3.8946e-06	42.572	300.842	113.320	116.558	-4.801	116.252	212.265	-5.716	1.487	43.543	157.950	-0.758	4.390	6.742	11.938	331.430	7.987	-8191	255	
8734.546	1	1	0	0	0.13175	0.2194	0.019969	0.092172	0.19466	0.22258	0.11234	0.13473	0.12561	0.10499	0.15411	0.084974	0.19925	0.17237	0.066902	0.11477	-2.9229	-2.8271	-2.9021	-3.3937	-2.8312	-3.1542	-3.0042	-2.6979	-3.5604	-3.075	-2.8688	-3.5354	-2.7875	-3.2562	-3.2104	-3.1208	330.995	227.044	198.573	214.513	211.046	3.239	68.462	15.867	219.273	271.906	190.797	278.157	302.099	187.113	193.618	343.304	0.00050575	0.00035648	0.00011906	325.73	1.1763e-06	2.1632e-06	405.61	135.92	5.1535e-06	2.1092e-06	183.52	85.099	64.569	28.333	4.587e-06	39.796	0.00029859	0.00033704	9.7216e-05	382.61	3.2491e-06	3.7343e-06	471.28	156.03	3.2652e-06	3.8279e-06	209.44	93.223	71.609	31.459	3.704e-06	42.84	282.236	127.892	2.691	-4.376	196.014	190.286	-5.681	1.623	179.274	149.265	-0.981	4.143	6.628	11.884	23.374	7.829	-8191	255	
8734.644	1	1	0	0	0.13716	0.055853	0.23332	0.27574	0.16537	0.25235	0.11838	0.18276	0.090489	0.066673	0.13564	0.024653	0.10176	0.073981	0.17415	0.022872	-2.9833	-2.95	-2.9667	-3.4062	-2.8167	-3.1354	-3.275	-2.6312	-3.3917	-3.1542	-2.8333	-3.4333	-2.7083	-3.3333	-3.5062	-2.7979	254.689	129.314	313.120	324.446	14.251	22.277	170.393	43.047	325.235	178.176	28.212	152.019	85.906	206.683	99.535	213.210	0.00041746	0.00036444	2.7487e-05	326.4	2.5506e-06	1.3487e-06	403.21	136.17	8.5353e-06	2.665e-06	182.82	85.16	64.358	28.397	7.4892e-07	39.855	0.00030633	0.00035587	9.2697e-05	381.18	3.3509e-06	3.901e-06	466.8	155.52	3.3487e-06	3.8764e-06	207.15	92.707	71.734	31.527	3.4205e-06	42.544	313.489	97.866	276.418	-4.597	169.024	120.517	-5.444	1.659	172.423	337.283	-0.975	4.395	6.784	12.096	343.259	8.018	-8191	255	
8734.763	1	1	0	0	0.10167	0.154	0.040707	0.21261	0.18477	0.19217	0.19146	0.26677	0.35709	0.22709	0.16611	0.17017	0.15977	0.11468	0.17165	0.19152	-2.9813	-3.1396	-2.7812	-3.6688	-3.1208	-2.9479	-3.4646	-2.8333	-3.2438	-3.2646	-2.9729	-3.6312	-3.1146	-2.9854	-3.5771	-2.9021	133.485	315.288	52.222	96.512	115.716	141.111	113.418	18.223	67.744	43.734	127.095	194.035	50.198	180.625	205.469	100.162	0.00061208	0.00039097	1.0928e-05	324.98	5.2342e-06	3.8548e-06	402.33	136.18	4.2809e-06	1.2569e-06	182.85	84.823	64.181	28.494	2.6722e-06	39.626	0.00031081	0.00034251	8.4713e-05	378.32	3.4022e-06	3.6975e-06	461.82	154.53	3.4525e-06	3.6915e-06	205.03	92.084	71.797	31.418	3.2963e-06	42.523	301.660	341.035	107.410	-4.638	171.253	85.037	-5.539	1.645	117.591	97.172	-0.770	4.416	6.568	11.835	2.599	7.868	-8191	255	
8734.859	1	1	0	0	0.27388	0.12341	0.053224	0.040627	0.18464	0.19698	0.11619	0.3023	0.27025	0.14436	0.19848	0.075072	0.1408	0.19728	0.27148	0.16292	-2.8104	-3.3417	-2.9021	-3.6396	-3.0896	-3.0333	-3.5	-2.7938	-3.3896	-3.3625	-2.7583	-3.2104	-3.0417	-2.9708	-3.3937	-3.0125	120.528	117.363	227.969	297.886	34.483	269.252	276.641	296.472	19.176	108.432	113.303	260.981	55.402	272.191	16.927	331.868	0.00068032	0.00044406	0.0001282	324.36	8.1904e-06	3.2107e-06	399.03	135.01	2.4593e-06	1.8136e-06	181.37	84.574	63.996	28.415	1.9437e-06	39.838	0.000333	0.00033263	8.3914e-05	376.93	3.6759e-06	3.5981e-06	458.82	153.61	3.6826e-06	3.5165e-06	203.81	91.963	71.886	31.267	3.1534e-06	42.656	306.209	329.922	323.307	-4.433	183.000	61.200	-5.560	1.594	193.508	19.667	-0.679	4.356	6.859	11.735	157.017	8.006	-8191	255	
8734.955	1	1	0	0	0.12602	0.14573	0.11477	0.071444	0.15201	0.077807	0.18719	0.15346	0.12311	0.20591	0.063767	0.20273	0.11723	0.30093	0.25637	0.12937	-2.7583	-3.3042	-2.7	-3.2938	-3.2229	-2.8292	-3.5438	-2.8854	-3.2521	-3.3958	-2.8583	-3.3958	-3.1937	-2.8583	-3.375	-2.9437	45.034	339.976	110.687	-2.822	89.467	159.138	200.324	205.819	221.478	101.868	335.469	23.837	33.026	-3.932	146.241	2.502	0.0005562	0.00050362	7.708e-05	323.83	1.3703e-06	3.7422e-06	398.88	134.99	1.3739e-06	1.8584e-06	182.97	84.241	63.925	28.357	1.6903e-06	39.903	0.00033652	0.00030649	7.8267e-05	376.19	3.5969e-06	3.2518e-06	454.76	153.68	3.5594e-06	3.1795e-06	202.19	91.939	71.372	30.859	2.8833e-06	42.66	305.848	23.915	-12.407	-4.414	117.304	32.891	-5.656	1.956	114.420	76.989	-0.632	4.289	6.889	11.986	89.795	7.931	-8191	255	
8735.051	1	1	0	0	0.11967	0.064625	0.19581	0.087233	0.20853	0.21341	0.12371	0.29494	0.085743	0.22893	0.26572	0.14345	0.19908	0.16468	0.078201	0.29213	-2.5479	-3.4688	-2.65	-3.3875	-3.4333	-3.05	-3.4667	-3.0917	-3.0354	-3.4688	-3.0271	-3.2771	-3.2938	-2.7021	-3.3958	-3.05	233.654	265.853	207.732	232.049	31.731	49.867	296.607	162.886	155.175	152.850	29.606	29.116	-1.373	52.327	295.779	316.055	0.00047749	0.0001211	2.8287e-05	321.04	1.5988e-06	1.6645e-06	402.28	134.31	1.5044e-06	9.7504e-07	181.41	84.244	63.728	28.199	3.8314e-06	39.524	0.00031201	0.00027848	7.2718e-05	376.37	3.3561e-06	2.9968e-06	452.81	153.62	3.2691e-06	2.9384e-06	200.55	92.013	70.561	30.593	2.8198e-06	42.491	296.909	-14.860	201.464	-4.401	245.547	118.961	-5.783	1.618	103.166	80.619	-0.840	4.374	6.994	11.852	145.843	8.099	-8191	255	
8735.147	1	1	0	0	0.24466	0.11323	0.16443	0.15756	0.12583	0.08876	0.14653	0.068621	0.14752	0.11583	0.084524	0.079314	0.094341	0.2533	0.057361	0.23645	-2.5938	-3.4021	-2.8833	-3.4313	-3.1333	-2.8833	-3.3167	-2.9979	-2.9313	-3.475	-2.8167	-3.2375	-3.5042	-2.6667	-3.4396	-3.2208	141.365	328.943	267.851	-8.126	3.493	-1.079	229.839	26.163	257.641	282.722	261.319	226.221	21.508	234.373	331.179	313.639	0.00050209	0.00018462	3.0924e-05	322.1	2.4951e-06	1.6121e-06	396.07	134.23	1.6725e-06	1.0756e-06	179.75	84.036	63.476	28.064	4.2388e-06	39.457	0.0002913	0.00026344	7.1664e-05	376.95	3.097e-06	2.8335e-06	450.37	153.5	3.0304e-06	2.8035e-06	199.56	91.621	69.94	30.38	2.8752e-06	42.286	296.569	61.943	41.897	-4.448	-1.048	137.028	-5.773	1.679	114.153	73.739	-0.695	4.347	6.863	11.955	193.647	7.988	-8191	255	
8735.244	1	1	0	0	0.13754	0.21532	0.027405	0.024835	0.097561	0.085976	0.15665	0.089476	0.086762	0.096447	0.11013	0.12976	0.23038	0.096481	0.29717	0.11647	-2.4708	-3.5521	-2.7083	-3	-3.3917	-2.6958	-3.3688	-3.2875	-2.8104	-3.6458	-2.8479	-3.1417	-3.3583	-2.6542	-3.3104	-3.3042	136.547	291.846	315.119	333.342	331.747	22.251	242.564	-14.332	20.265	224.642	257.213	224.912	332.325	44.420	342.110	-12.836	0.00041146	0.00010014	0.00011032	321.25	1.5316e-06	2.3041e-06	398.51	133.81	2.826e-06	1.0947e-06	180.82	83.479	63.2	28.07	4.3818e-06	39.273	0.00027157	0.0002505	7.4136e-05	375.5	2.9105e-06	2.7475e-06	452.3	152.95	2.8742e-06	2.6991e-06	200.68	90.992	69.448	30.27	3.0097e-06	42.117	299.401	62.602	129.374	-4.603	243.068	97.572	-5.738	1.734	110.154	120.292	-0.682	4.115	6.921	11.968	142.325	7.762	-8191	255	
8735.364	1	1	0	0	0.17532	0.094104	0.097443	0.04849	0.2974	0.37798	0.18711	0.14347	0.1904	0.065905	0.29165	0.26402	0.44469	0.10287	0.13734	0.098454	-2.4896	-3.5833	-2.9042	-3.0021	-3.5625	-2.7875	-3.3625	-3.4854	-2.9062	-3.4167	-3.0521	-2.8271	-3.3104	-2.7875	-3.4042	-3.3896	132.679	79.541	330.359	186.958	112.092	12.263	276.623	169.397	61.753	119.548	206.928	285.269	313.283	71.504	139.792	167.286	0.00041185	0.00020049	7.9279e-05	322.08	1.5165e-06	1.3927e-06	400.23	134.95	1.8502e-06	2.342e-06	181.99	84.27	63.627	27.995	4.6473e-06	39.657	0.00025921	0.00024253	7.6947e-05	373.06	2.7329e-06	2.6328e-06	454.64	152.21	2.7001e-06	2.6183e-06	202.4	91.134	69.658	30.27	3.0527e-06	42.051	305.569	83.329	121.543	-4.623	188.569	91.079	-5.334	1.344	50.243	99.636	-0.421	4.400	6.892	12.130	156.885	8.028	-8191	255	
8735.459	1	1	0	0	0.12814	0.27622	0.056546	0.24225	0.026741	0.13928	0.20932	0.23462	0.21363	0.13026	0.11728	0.15375	0.24391	0.18905	0.063707	0.11302	-2.4208	-3.4167	-2.95	-2.8708	-3.3479	-2.8979	-3.2833	-3.2083	-2.7583	-3.3875	-3.1562	-2.9479	-3.5375	-2.9083	-3.2812	-3.5771	219.113	75.354	258.227	177.965	137.622	181.548	126.436	304.660	43.890	207.129	54.183	216.722	320.345	282.939	18.412	181.612	0.00034891	0.00026079	8.4951e-05	324.15	1.3691e-06	5.8085e-06	401.76	135.25	1.3404e-06	1.9826e-06	183.22	84.837	64.058	28.332	1.3949e-06	39.854	0.00024388	0.00024125	7.8073e-05	372.69	2.6253e-06	2.6776e-06	457.85	151.88	2.5973e-06	2.72e-06	203.52	91.266	69.779	30.615	3.1064e-06	42.227	308.368	122.688	56.009	-4.487	103.376	150.504	-5.624	1.716	9.232	163.484	-0.370	4.299	6.847	11.906	55.725	8.101	-8191	255	
8735.555	1	1	0	0	0.13059	0.23069	0.091568	0.089801	0.19346	0.23108	0.18118	0.13225	0.08663	0.18569	0.25396	0.19879	0.13717	0.045356	0.3248	0.14047	-2.2917	-3.2958	-3.2333	-2.8438	-3.3625	-3.0792	-3.2167	-3.4104	-2.7542	-3.0729	-3.2292	-2.9417	-3.4792	-2.8917	-3.0729	-3.4604	17.165	160.132	314.413	287.307	316.782	29.615	135.668	316.642	265.923	65.321	337.848	16.843	222.117	51.738	100.291	319.847	0.00048006	0.00020699	5.5563e-06	323.52	1.4765e-06	2.749e-06	400.83	134.71	2.68e-06	1.2094e-06	182.21	84.415	63.474	28.205	2.7029e-06	39.505	0.00024408	0.00026283	7.9892e-05	372.26	2.6549e-06	2.9502e-06	457.29	151.82	2.6691e-06	3.0138e-06	202.88	90.74	69.545	30.735	3.1214e-06	41.906	297.500	197.652	277.889	-4.808	136.035	231.310	-5.685	1.614	101.057	173.001	-0.617	4.411	6.760	12.133	39.814	7.792	-8191	255	
8735.651	1	1	0	0	0.02949	0.16392	0.032093	0.16443	0.058296	0.18864	0.25167	0.10424	0.17765	0.048248	0.12633	0.23681	0.061966	0.18429	0.11296	0.067039	-2.3208	-3.2604	-3.2042	-2.7188	-3.4062	-3.1021	-2.9542	-3.6	-2.4938	-3.025	-3.375	-2.7083	-3.4396	-2.9917	-2.9333	-3.5125	245.532	-8.810	-0.492	297.276	246.184	323.259	283.172	254.650	73.428	18.368	269.602	67.500	90.845	-13.211	80.514	122.101	0.00058841	3.7588e-05	6.7354e-05	321.89	5.0634e-06	1.5303e-06	398.61	134.38	3.3976e-06	1.1848e-06	181.61	83.692	63.4	27.783	3.6131e-06	39.174	0.00025137	0.00028901	7.8508e-05	370.8	2.7413e-06	3.2219e-06	454.44	151.21	2.8023e-06	3.2593e-06	201.62	90.359	69.783	30.631	3.0731e-06	41.673	296.732	112.745	242.353	-4.568	177.711	181.422	-5.831	1.645	164.035	84.958	-0.617	4.307	7.016	11.954	-8.570	7.928	-8191	255	
#DATA ENDS
