BOXY.EXE: ISS Imagent and Oximeter Data Acquisition Program Version 0.80
Ascii Record File

#ACQ INFORMATION
2  Detector Channels 
16  External MUX Channels 
1  Auxiliary Channels 
5000  Waveform (CCF) Frequency (Hz)
1  Waveforms Skipped 
30  Waveforms Averaged 
1  Cycles Averaged 
16  Acquisitions per Waveform 
10.0806  Updata Rate (Hz) 

#FILE INFORMATION
TRUE -- External MUX Channel results are PARSED.
FALSE -- AC DC and Phase are NOT grouped.
TRUE -- Companion Program Settings File CREATED.
FALSE -- AC data not excluded
FALSE -- DC data not excluded
FALSE -- Phase data not excluded
FALSE -- Auxillary Chn. data not excluded
Tab delimiters

#CALIBRATION STATE
TRUE -- Waveform Calibration Values APPLIED.


#AUX CALIBRATION VALUES
Val Type	aux-1	

Term	1.0000e+00	
Factor	0.0000e+00	


#WF CALIBRATION VALUES
A = Detector Channel
Val Type	A-AC1	A-AC2	A-AC3	A-AC4	A-AC5	A-AC6	A-AC7	A-AC8	A-AC9	A-AC10	A-AC11	A-AC12	A-AC13	A-AC14	A-AC15	A-AC16	A-DC1	A-DC2	A-DC3	A-DC4	A-DC5	A-DC6	A-DC7	A-DC8	A-DC9	A-DC10	A-DC11	A-DC12	A-DC13	A-DC14	A-DC15	A-DC16	A-Ph1	A-Ph2	A-Ph3	A-Ph4	A-Ph5	A-Ph6	A-Ph7	A-Ph8	A-Ph9	A-Ph10	A-Ph11	A-Ph12	A-Ph13	A-Ph14	A-Ph15	A-Ph16	

Term	0.00000e+00	0.00000e+00	0.00000e+00	0.00000e+00	0.00000e+00	0.00000e+00	0.00000e+00	0.00000e+00	0.00000e+00	0.00000e+00	0.00000e+00	0.00000e+00	0.00000e+00	0.00000e+00	0.00000e+00	0.00000e+00	0.00000e+00	0.00000e+00	0.00000e+00	0.00000e+00	0.00000e+00	0.00000e+00	0.00000e+00	0.00000e+00	0.00000e+00	0.00000e+00	0.00000e+00	0.00000e+00	0.00000e+00	0.00000e+00	0.00000e+00	0.00000e+00	0.00000e+00	0.00000e+00	0.00000e+00	0.00000e+00	0.00000e+00	0.00000e+00	0.00000e+00	0.00000e+00	0.00000e+00	0.00000e+00	0.00000e+00	0.00000e+00	0.00000e+00	0.00000e+00	0.00000e+00	0.00000e+00	
Factor	1.00000e+00	1.00000e+00	1.00000e+00	1.00000e+00	1.00000e+00	1.00000e+00	1.00000e+00	1.00000e+00	1.00000e+00	1.00000e+00	1.00000e+00	1.00000e+00	1.00000e+00	1.00000e+00	1.00000e+00	1.00000e+00	1.00000e+00	1.00000e+00	1.00000e+00	1.00000e+00	1.00000e+00	1.00000e+00	1.00000e+00	1.00000e+00	1.00000e+00	1.00000e+00	1.00000e+00	1.00000e+00	1.00000e+00	1.00000e+00	1.00000e+00	1.00000e+00	X	X	X	X	X	X	X	X	X	X	X	X	X	X	X	X	

B = Detector Channel
Val Type	B-AC1	B-AC2	B-AC3	B-AC4	B-AC5	B-AC6	B-AC7	B-AC8	B-AC9	B-AC10	B-AC11	B-AC12	B-AC13	B-AC14	B-AC15	B-AC16	B-DC1	B-DC2	B-DC3	B-DC4	B-DC5	B-DC6	B-DC7	B-DC8	B-DC9	B-DC10	B-DC11	B-DC12	B-DC13	B-DC14	B-DC15	B-DC16	B-Ph1	B-Ph2	B-Ph3	B-Ph4	B-Ph5	B-Ph6	B-Ph7	B-Ph8	B-Ph9	B-Ph10	B-Ph11	B-Ph12	B-Ph13	B-Ph14	B-Ph15	B-Ph16	

Term	0.00000e+00	0.00000e+00	0.00000e+00	0.00000e+00	0.00000e+00	0.00000e+00	0.00000e+00	0.00000e+00	0.00000e+00	0.00000e+00	0.00000e+00	0.00000e+00	0.00000e+00	0.00000e+00	0.00000e+00	0.00000e+00	0.00000e+00	0.00000e+00	0.00000e+00	0.00000e+00	0.00000e+00	0.00000e+00	0.00000e+00	0.00000e+00	0.00000e+00	0.00000e+00	0.00000e+00	0.00000e+00	0.00000e+00	0.00000e+00	0.00000e+00	0.00000e+00	-2.04314e+02	-1.42203e+02	-1.28168e+02	-1.83188e+02	-8.07192e+01	-9.55538e+01	-1.57235e+02	-1.62015e+02	-9.38696e+01	-7.87754e+01	-1.72586e+02	-1.73078e+02	-1.80462e+02	-1.78286e+02	-1.03677e+02	-1.51187e+02	
Factor	5.12228e-05	5.56067e-05	1.88345e-05	1.95333e-01	6.11813e-07	6.20629e-07	2.43410e-01	8.63391e-02	5.78950e-07	5.10576e-07	1.23214e-01	4.08652e-02	3.29490e-02	1.20693e-02	4.99769e-07	1.77148e-02	2.19044e-07	2.19549e-07	6.10483e-08	8.04949e-02	2.40446e-09	2.40050e-09	9.18355e-02	3.25942e-02	2.40413e-09	2.39780e-09	4.31712e-02	1.43532e-02	1.21673e-02	4.38651e-03	2.40139e-09	6.00466e-03	X	X	X	X	X	X	X	X	X	X	X	X	X	X	X	X	



#DISTANCE SETTINGS
A = Detector Channel
A-1	A-2	A-3	A-4	A-5	A-6	A-7	A-8	A-9	A-10	A-11	A-12	A-13	A-14	A-15	A-16	

2.5000e+00	3.0000e+00	2.5000e+00	3.0000e+00	2.0000e+00	3.0000e+00	1.5000e+00	3.0000e+00	3.0000e+00	3.0000e+00	3.0000e+00	3.0000e+00	3.0000e+00	3.0000e+00	1.5000e+00	3.0000e+00	

B = Detector Channel
B-1	B-2	B-3	B-4	B-5	B-6	B-7	B-8	B-9	B-10	B-11	B-12	B-13	B-14	B-15	B-16	

1.0000e+01	1.0000e+01	1.0000e+01	1.4400e+00	1.0000e+01	1.0000e+01	1.5100e+00	1.9400e+00	1.0000e+01	1.0000e+01	1.9900e+00	2.4900e+00	2.4100e+00	2.9000e+00	1.0000e+01	2.9800e+00	




#DATA BEGINS
time	group	step	mark	flag	A-AC1	A-AC2	A-AC3	A-AC4	A-AC5	A-AC6	A-AC7	A-AC8	A-AC9	A-AC10	A-AC11	A-AC12	A-AC13	A-AC14	A-AC15	A-AC16	A-DC1	A-DC2	A-DC3	A-DC4	A-DC5	A-DC6	A-DC7	A-DC8	A-DC9	A-DC10	A-DC11	A-DC12	A-DC13	A-DC14	A-DC15	A-DC16	A-Ph1	A-Ph2	A-Ph3	A-Ph4	A-Ph5	A-Ph6	A-Ph7	A-Ph8	A-Ph9	A-Ph10	A-Ph11	A-Ph12	A-Ph13	A-Ph14	A-Ph15	A-Ph16	B-AC1	B-AC2	B-AC3	B-AC4	B-AC5	B-AC6	B-AC7	B-AC8	B-AC9	B-AC10	B-AC11	B-AC12	B-AC13	B-AC14	B-AC15	B-AC16	B-DC1	B-DC2	B-DC3	B-DC4	B-DC5	B-DC6	B-DC7	B-DC8	B-DC9	B-DC10	B-DC11	B-DC12	B-DC13	B-DC14	B-DC15	B-DC16	B-Ph1	B-Ph2	B-Ph3	B-Ph4	B-Ph5	B-Ph6	B-Ph7	B-Ph8	B-Ph9	B-Ph10	B-Ph11	B-Ph12	B-Ph13	B-Ph14	B-Ph15	B-Ph16	aux-1	digaux	

2841.379	1	1	0	256	0.17484	0.35172	0.2555	0.079108	0.096416	0.14689	0.061807	0.16121	0.11431	0.15868	0.22637	0.12562	0.02633	0.09401	0.074082	0.29066	-3.4417	-4.0979	-3.5146	-4.0979	-3.8708	-3.6708	-4.1771	-3.675	-3.9354	-4.0563	-3.4875	-3.925	-4.0104	-3.7104	-4.2896	-3.7104	238.383	222.337	379.169	315.550	139.973	300.231	219.828	64.391	60.711	179.970	314.563	282.390	77.714	44.158	187.941	384.635	0.00076974	0.00010273	4.6193e-05	549.85	2.1432e-07	1.1859e-06	635.31	195.2	1.4032e-06	1.0063e-06	250.04	101.59	80.349	40.257	1.3981e-06	56.101	0.00015748	0.0001403	3.647e-05	517.63	1.7356e-06	1.5749e-06	579.7	174.87	1.7594e-06	1.5922e-06	213.6	86.012	69.805	33.512	1.4875e-06	44.858	75.987	391.273	237.996	43.576	170.087	225.346	42.252	49.317	115.025	169.646	47.170	51.592	54.748	59.495	187.505	55.321	-8191	255	
2841.475	1	1	0	0	0.20277	0.10433	0.080218	0.10458	0.22478	0.23114	0.079438	0.11767	0.26602	0.09836	0.18189	0.16997	0.13676	0.070746	0.27737	0.2085	-3.4938	-4.1021	-3.5375	-4.1104	-3.9521	-3.5938	-4.1583	-3.7833	-3.6583	-4.2292	-3.675	-3.9313	-4.1125	-3.5687	-4.2771	-3.775	292.135	176.824	31.770	99.098	309.662	158.509	225.127	195.102	109.203	183.332	390.852	273.103	305.308	90.378	350.439	310.625	0.00068154	0.00010592	8.9204e-05	536.14	1.2212e-06	2.4131e-06	629.73	192.47	2.3463e-06	8.8893e-07	249.72	100.79	79.805	39.929	3.0876e-06	55.127	0.00016439	0.00014726	3.8941e-05	513.83	1.7725e-06	1.6299e-06	575.43	175.11	1.7754e-06	1.607e-06	214.09	86.692	69.376	33.248	1.6282e-06	44.834	68.723	349.395	140.810	43.251	355.275	389.193	42.024	49.330	126.666	216.729	47.109	51.580	54.469	59.374	184.998	55.029	-8191	255	
2841.572	1	1	0	0	0.10161	0.12311	0.069298	0.044498	0.25641	0.11114	0.094302	0.33886	0.11562	0.096307	0.09087	0.20101	0.14503	0.11735	0.053798	0.11232	-3.3875	-4.1583	-3.4979	-3.9417	-3.9271	-3.5021	-4.2	-3.7208	-3.6271	-4.1646	-3.5812	-3.9688	-4.0417	-3.4479	-4.1167	-3.8542	69.467	302.143	282.041	162.935	171.896	189.296	345.827	374.630	56.196	378.774	333.305	333.073	363.935	356.624	67.791	115.126	0.00067842	7.0661e-05	0.00010492	533.79	1.2274e-06	2.2256e-06	623.19	189.95	1.9479e-06	4.1899e-07	245.44	99.246	78.878	39.069	5.4299e-07	54.127	0.00017032	0.00015508	4.4045e-05	518.33	1.8621e-06	1.7515e-06	581.24	177.1	1.9142e-06	1.7479e-06	216.87	87.341	69.376	32.903	1.9446e-06	44.378	73.003	244.889	111.391	43.297	90.769	175.695	42.416	49.261	119.793	123.214	46.883	51.628	54.439	59.194	197.116	55.106	-8191	255	
2841.668	1	1	0	0	0.18081	0.23626	0.13583	0.13739	0.14661	0.19235	0.022479	0.17562	0.094076	0.17255	0.077001	0.10882	0.16697	0.168	0.14843	0.093179	-3.275	-4.175	-3.5812	-3.8646	-4.0875	-3.5208	-4.0229	-3.7646	-3.5438	-4.1125	-3.6833	-3.6979	-4.3667	-3.6229	-3.8771	-3.9104	55.339	326.320	256.711	292.809	235.081	136.102	32.875	147.285	103.638	314.956	366.110	147.654	374.968	349.136	343.588	68.134	0.00092656	9.665e-05	0.00014566	521.69	2.5501e-06	9.576e-07	612.94	188.49	1.3637e-06	1.6461e-06	246.62	99.871	79.028	39.344	4.2327e-06	53.99	0.0001818	0.00016566	5.2111e-05	517.84	1.9944e-06	1.8807e-06	586.84	178.65	2.0391e-06	1.8948e-06	223.1	88.685	70.449	33.409	2.2653e-06	44.789	72.100	286.299	136.122	43.371	108.467	276.547	42.578	49.092	324.856	47.046	47.729	51.459	54.226	59.036	157.738	54.818	-8191	255	
2841.788	1	1	0	0	0.29158	0.041536	0.12733	0.18919	0.06337	0.23338	0.13501	0.12952	0.20694	0.13081	0.11451	0.0082587	0.15664	0.13518	0.23455	0.011345	-3.2125	-4.2438	-3.7271	-3.7625	-4.1188	-3.5833	-4.0687	-4.1042	-3.5333	-4.1479	-3.8667	-3.8458	-4.1958	-3.7938	-3.85	-4.1417	41.315	105.539	156.957	296.851	137.485	41.153	146.277	133.023	177.621	287.486	346.895	71.161	43.258	358.673	316.763	77.276	0.00087329	0.00019739	7.9119e-05	511.39	8.709e-07	3.3559e-06	604.3	187.75	2.3872e-06	1.3643e-06	241.82	99.132	78.502	38.771	1.3695e-06	53.569	0.00019101	0.00018102	5.9685e-05	512.41	2.0763e-06	2.0406e-06	588.76	177.42	2.0985e-06	2.0601e-06	224.6	88.17	69.912	33.263	2.4517e-06	44.165	71.598	192.762	165.250	43.268	111.711	164.042	42.001	48.916	53.275	123.648	47.042	51.399	54.321	59.333	147.405	54.819	-8191	255	
2841.883	1	1	0	0	0.19598	0.10112	0.15898	0.22957	0.082194	0.16287	0.19147	0.11381	0.14886	0.13006	0.19016	0.12706	0.042071	0.094354	0.038431	0.12894	-3.3063	-4.1042	-3.6437	-3.6937	-4.2458	-3.525	-3.9771	-4.1854	-3.4104	-4.1479	-4.0042	-3.5292	-4.1604	-3.5417	-3.8542	-4.1542	364.639	278.240	113.709	302.092	62.787	77.464	35.604	298.214	65.178	160.573	38.247	101.042	145.562	229.049	374.053	320.793	0.00043167	0.00013362	9.6805e-05	506.49	3.726e-06	5.2543e-06	598.62	184.62	1.8744e-06	3.0587e-06	239.62	97.862	77.215	38.011	1.6895e-06	52.163	0.00019556	0.00019871	6.3397e-05	507.01	2.0882e-06	2.2735e-06	589.04	174.67	2.1313e-06	2.293e-06	223.56	87.165	69.077	33.045	2.5313e-06	43.435	53.919	129.377	132.054	43.313	268.782	187.667	42.129	49.258	344.406	200.462	46.990	51.112	54.069	59.186	101.475	55.068	-8191	255	
2841.979	1	1	0	0	0.079415	0.19983	0.24345	0.060896	0.21107	0.044649	0.04744	0.19413	0.18874	0.10467	0.21167	0.23416	0.18413	0.15624	0.22237	0.29216	-2.9667	-4	-3.8042	-3.525	-4.2479	-3.7104	-3.7542	-4.025	-3.4062	-3.9333	-4.0479	-3.4333	-4.175	-3.8521	-3.7083	-4.2583	61.770	280.838	119.725	389.631	370.345	129.461	167.077	222.085	70.084	123.314	61.113	233.991	290.028	353.600	264.424	341.993	0.00071813	0.00032196	4.7413e-05	499.43	1.8123e-06	3.2898e-06	588.18	182.07	3.5519e-06	4.5588e-06	235.98	96.639	75.944	37.5	4.3518e-06	51.215	0.00020201	0.00022916	6.6705e-05	505.46	2.2646e-06	2.638e-06	588.19	175.22	2.2985e-06	2.6526e-06	222.91	86.724	69.271	33.181	2.5524e-06	42.972	75.835	79.223	84.018	43.484	259.780	160.534	42.175	49.488	143.668	218.506	46.947	51.206	54.580	58.922	381.799	54.828	-8191	255	
2842.051	1	1	0	0	0.19804	0.072061	0.040928	0.359	0.12063	0.16901	0.13482	0.14371	0.099956	0.26518	0.16751	0.25393	0.33095	0.055523	0.149	0.2537	-3.2417	-3.8292	-3.8104	-3.5479	-4.0167	-3.8063	-3.7604	-4.1729	-3.45	-3.8583	-3.975	-3.3271	-3.9271	-3.825	-3.6125	-4.0667	178.184	51.656	237.499	389.274	336.819	78.547	276.683	356.545	301.263	127.815	371.963	365.212	37.940	323.962	74.450	339.094	0.0012215	0.00019114	3.0402e-05	500.28	6.5936e-06	4.7492e-06	591.29	183.08	1.0883e-06	1.8054e-06	238.11	98.252	77.758	37.873	2.924e-07	51.905	0.00021103	0.00024363	6.4143e-05	504.73	2.3318e-06	2.7483e-06	584.73	175.46	2.4278e-06	2.766e-06	223.46	87.81	71.278	33.803	2.5139e-06	43.255	74.213	110.221	75.870	43.440	180.369	139.602	41.912	49.138	262.851	126.155	46.828	51.380	54.270	59.142	271.154	54.985	-8191	255	
2842.148	1	1	0	0	0.081071	0.18223	0.11551	0.17974	0.19925	0.10344	0.13517	0.14209	0.15346	0.1042	0.18087	0.24717	0.26089	0.019465	0.21606	0.017341	-3.2292	-3.7479	-3.9333	-3.5354	-4.1229	-3.8021	-3.5729	-4.225	-3.7125	-3.8854	-4.1396	-3.4104	-4.1125	-3.8271	-3.5354	-4.2771	376.371	81.690	279.600	281.144	301.421	286.479	312.221	381.463	88.441	205.905	313.980	364.505	349.402	127.752	294.774	249.338	0.00099967	0.00032955	5.0297e-05	504.12	5.6363e-06	2.1357e-06	589.85	184.56	5.3851e-06	3.3721e-06	237.84	97.867	77.236	37.544	2.3709e-06	51.442	0.00023056	0.00025136	6.2932e-05	503.71	2.5253e-06	2.7253e-06	581.29	174.44	2.5776e-06	2.7017e-06	220.63	86.862	71.643	33.334	2.4524e-06	42.901	73.680	65.598	95.215	43.268	186.213	375.662	42.413	49.267	185.613	383.702	47.138	51.287	54.438	59.060	250.230	54.986	-8191	255	
2842.267	1	1	0	0	0.14098	0.1606	0.099761	0.059955	0.016668	0.16439	0.10998	0.45256	0.18506	0.06722	0.11804	0.052793	0.03677	0.22605	0.11683	0.15777	-3.2042	-3.5875	-4.0437	-3.4833	-3.9354	-3.9	-3.4208	-4.2208	-3.5708	-3.6875	-4.2208	-3.6333	-3.8292	-4.0563	-3.3	-4.1188	149.906	370.154	160.773	144.787	174.280	258.968	312.766	349.003	31.066	320.519	44.698	222.399	124.821	223.048	203.804	242.241	0.00088994	0.00017888	0.00011363	498.28	4.3432e-06	2.7779e-06	587.87	182.22	1.8539e-06	8.7811e-07	236	96.902	76.205	37.541	3.3371e-06	51.738	0.0002431	0.00024038	6.0013e-05	497.49	2.5568e-06	2.4539e-06	570.05	170.95	2.4693e-06	2.3384e-06	214.76	85.302	70.575	32.659	2.1637e-06	42.69	87.085	362.961	121.994	43.700	165.310	367.532	41.953	48.845	177.374	357.589	46.918	51.545	54.773	59.139	61.549	55.387	-8191	255	
2842.364	1	1	0	0	0.10263	0.21593	0.18317	0.1887	0.28666	0.074816	0.11946	0.17798	0.24621	0.25233	0.25728	0.12897	0.13893	0.1627	0.15111	0.15846	-3.4313	-3.6917	-4.15	-3.6208	-3.9229	-4.1375	-3.3896	-4.1083	-3.8	-3.6729	-4.1104	-3.7292	-3.9354	-4.0875	-3.425	-3.9646	129.607	232.492	112.297	265.983	71.642	164.872	170.332	336.397	238.501	58.722	246.500	353.642	368.455	119.027	370.924	350.685	0.00090728	9.0286e-05	6.0871e-05	507.45	6.9015e-07	1.4921e-06	594.36	184.99	6.9468e-07	2.9736e-06	238.83	97.554	76.858	38.096	1.1995e-06	52.286	0.00023084	0.00020984	5.3178e-05	502.4	2.4576e-06	2.2307e-06	569.73	173.33	2.4306e-06	2.2068e-06	214.19	86.37	70.909	32.78	2.0493e-06	43.368	62.414	76.601	262.340	43.517	349.995	52.359	42.283	49.105	363.118	387.081	46.881	51.219	54.329	59.015	219.571	55.377	-8191	255	
2842.460	1	1	0	0	0.089916	0.23566	0.14987	0.2599	0.050966	0.089563	0.17386	0.15724	0.05907	0.11579	0.087785	0.082346	0.38727	0.070954	0.2509	0.14411	-3.4021	-3.5708	-4.2729	-3.5354	-3.9208	-4.275	-3.6042	-3.8729	-4.0354	-3.4062	-4.1271	-3.6104	-3.8729	-4.2188	-3.575	-4.1438	241.202	42.682	164.037	366.319	301.647	157.884	282.627	367.150	253.709	70.836	375.451	84.787	368.544	192.654	358.151	336.149	0.00063673	3.3693e-05	6.4641e-05	512.6	1.3985e-06	1.062e-06	601.04	188.05	3.496e-06	2.4757e-06	241.62	98.287	78.125	38.341	1.9734e-06	53.04	0.00022179	0.00020035	5.111e-05	511.02	2.3998e-06	2.1583e-06	571.91	177.61	2.3954e-06	2.2025e-06	216.43	88.217	71.494	33.185	2.1151e-06	44.356	84.700	351.410	104.705	43.754	383.523	125.898	42.012	49.231	301.497	72.547	46.738	51.352	54.262	59.252	251.852	55.143	-8191	255	
2842.580	1	1	0	0	0.15822	0.14776	0.10658	0.097697	0.087144	0.041874	0.16537	0.090554	0.19083	0.024813	0.19673	0.18407	0.10047	0.32196	0.042964	0.060446	-3.625	-3.4729	-4.1771	-3.7646	-3.8937	-4.3042	-3.625	-4.0521	-3.9938	-3.6396	-4.2208	-3.5417	-3.7812	-4.3646	-3.4542	-3.8125	286.221	250.661	183.236	109.447	42.407	352.491	300.456	204.195	267.606	244.192	170.980	35.396	319.148	248.473	72.885	196.228	0.00039894	0.00033774	8.4979e-05	512.45	2.6682e-06	2.2979e-06	597.49	186.84	5.4089e-07	1.9028e-06	240.77	97.707	77.411	37.777	2.5574e-06	52.278	0.00021938	0.00020174	5.3358e-05	517.28	2.3823e-06	2.1542e-06	575.35	179.62	2.3579e-06	2.2041e-06	218.72	88.601	70.632	32.583	2.2522e-06	44.135	47.702	363.793	151.021	43.521	350.952	343.571	42.511	49.660	183.617	166.396	47.220	51.292	54.222	59.301	176.799	54.939	-8191	255	
2842.652	1	1	0	0	0.25014	0.1045	0.21008	0.13022	0.060224	0.052419	0.1642	0.16658	0.091819	0.22777	0.2538	0.10641	0.1755	0.1859	0.17807	0.046328	-3.75	-3.4646	-4.0917	-3.9062	-3.7562	-4.1937	-3.55	-3.8021	-4.0729	-3.4104	-3.9833	-3.8083	-3.575	-4.1896	-3.6083	-3.7333	377.203	177.024	178.326	49.369	247.619	66.495	207.117	182.193	59.304	242.454	359.042	338.161	321.927	387.827	363.474	291.055	0.0007219	0.00032941	0.00013884	511.15	2.4831e-06	2.5332e-06	598.81	185.61	1.2648e-06	2.8406e-06	239.88	97.793	77.455	37.943	2.5215e-06	52.403	0.00021403	0.00019804	5.7461e-05	516.72	2.2904e-06	2.0826e-06	581.48	179.15	2.2532e-06	2.1171e-06	221.1	88.244	70.253	32.635	2.406e-06	44.196	56.662	67.539	132.903	43.279	91.127	340.747	42.589	49.092	313.664	75.678	46.974	51.314	54.193	59.192	165.167	54.869	-8191	255	
2842.748	1	1	0	0	0.094626	0.14534	0.17516	0.24857	0.080636	0.10321	0.21168	0.055487	0.13636	0.13404	0.1299	0.14056	0.22816	0.13349	0.27012	0.28363	-3.7188	-3.3729	-3.8438	-3.7458	-3.4688	-4.0542	-3.7938	-3.6375	-4.0396	-3.5125	-4.0083	-3.9417	-3.6312	-4.1479	-3.6667	-3.7667	100.104	390.849	351.195	31.039	296.686	255.626	153.072	64.461	128.099	350.631	50.654	337.604	351.033	327.711	233.936	344.324	0.00057431	0.00014213	0.00025512	524.37	1.2621e-06	2.6189e-06	612.56	191.68	2.8152e-06	4.0255e-06	246.18	100	79.203	39.237	2.2907e-06	53.796	0.00020863	0.0001961	6.2289e-05	529.18	2.2887e-06	2.1329e-06	601.91	181.94	2.2336e-06	2.1757e-06	227.88	89.46	71.73	33.626	2.5591e-06	44.96	58.656	74.766	134.778	43.288	123.066	189.065	42.003	48.927	193.691	221.479	47.045	51.376	54.714	59.284	31.892	55.180	-8191	255	
2842.869	1	1	0	0	0.089291	0.087123	0.18698	0.24595	0.22831	0.21286	0.075339	0.18264	0.16675	0.11417	0.13608	0.25491	0.22511	0.091848	0.21648	0.23913	-3.6937	-3.4146	-4.0188	-4.0188	-3.325	-4.0667	-3.9292	-3.6271	-4.1708	-3.4646	-3.8583	-3.9417	-3.5042	-3.9583	-3.8146	-3.4604	130.586	46.807	66.083	324.577	233.703	38.585	349.377	333.834	340.882	240.644	387.315	48.502	50.717	338.254	149.098	221.442	0.00085278	0.00044964	0.00012114	531.6	2.6831e-06	2.3817e-06	620.22	193.15	1.0727e-06	3.2199e-06	248.32	101.35	80.677	39.584	5.1851e-06	54.556	0.00020438	0.00020471	6.5782e-05	531.74	2.2289e-06	2.2297e-06	609.88	183.53	2.1677e-06	2.2891e-06	231.58	89.971	72.402	34.315	2.5971e-06	45.237	79.710	75.130	117.295	43.584	60.655	183.019	42.220	49.156	371.997	141.886	47.257	51.737	54.391	59.473	138.563	55.406	-8191	255	
2842.963	1	1	0	0	0.043294	0.18481	0.12416	0.11344	0.19248	0.18514	0.18417	0.059708	0.021068	0.042926	0.28432	0.16782	0.01971	0.20434	0.14438	0.068512	-3.8542	-3.6021	-3.625	-4.0542	-3.4458	-4.2	-3.9458	-3.4	-4.0583	-3.6125	-3.7313	-4.2188	-3.3083	-3.8917	-3.7792	-3.5583	152.640	323.103	99.102	178.597	244.838	344.779	213.409	318.491	84.401	354.936	300.618	216.206	245.353	326.565	53.252	336.737	0.0005609	0.00064776	9.6033e-05	531.77	2.0269e-06	1.7973e-06	620.42	193.15	2.3376e-06	4.2893e-06	245.56	100.76	80.249	39.691	2.0822e-06	54.299	0.0002033	0.00022311	6.7488e-05	533.05	2.2682e-06	2.5045e-06	612.29	183.61	2.2478e-06	2.5572e-06	231.69	89.974	72.297	34.743	2.6215e-06	45.226	83.797	93.624	378.837	43.347	45.768	178.309	41.886	49.258	260.701	190.511	46.961	51.385	54.642	59.453	383.174	55.241	-8191	255	
2843.059	1	1	0	0	0.19474	0.1808	0.15438	0.027799	0.21649	0.10182	0.15483	0.15331	0.076437	0.08929	0.21384	0.10276	0.14154	0.12051	0.12764	0.20947	-3.8125	-3.5667	-3.6125	-4.2188	-3.6021	-3.9417	-3.9875	-3.6083	-3.9917	-3.8937	-3.5854	-4.2646	-3.5979	-3.9604	-3.9896	-3.5938	95.593	340.054	185.507	379.521	371.663	51.477	381.902	66.157	216.747	243.292	266.424	129.755	271.199	223.137	145.142	51.173	0.00088774	0.00035636	0.00019472	524.46	1.7655e-06	1.931e-06	614.2	191.44	4.2132e-06	1.9623e-06	247.08	100.9	80.34	39.598	4.5449e-06	53.834	0.00020902	0.00024606	6.7513e-05	528.28	2.3656e-06	2.7645e-06	609.34	183.93	2.4127e-06	2.8566e-06	232.76	90.42	73.562	35.218	2.6445e-06	45.168	95.304	150.592	46.128	42.964	216.235	128.619	42.275	49.369	152.583	232.632	47.243	51.192	54.506	59.320	384.976	54.865	-8191	255	
2843.180	1	1	0	0	0.07376	0.084487	0.1911	0.096952	0.065945	0.02225	0.31437	0.088964	0.21678	0.08934	0.12933	0.17813	0.21943	0.24868	0.30739	0.059509	-3.7646	-3.8208	-3.65	-4.1375	-3.4229	-3.8854	-4.1042	-3.4896	-4.0458	-3.8688	-3.5417	-4.1083	-3.6271	-3.9333	-4.0167	-3.6021	193.823	259.428	232.420	210.910	101.899	218.362	55.717	219.648	276.189	184.849	239.733	325.775	326.943	326.638	362.859	373.077	0.0010632	0.00028075	0.00010721	532.13	2.3907e-06	1.8063e-06	618.56	192.71	5.8772e-06	3.5354e-06	245.64	101.04	80.891	39.563	4.0923e-07	54.266	0.00022874	0.00026315	6.6911e-05	532.09	2.5454e-06	2.8634e-06	606.63	183.79	2.5927e-06	2.878e-06	230.94	90.286	74.995	35.311	2.6178e-06	45.205	87.750	359.149	298.012	43.351	180.325	144.640	42.268	49.250	142.270	224.371	46.937	51.454	54.191	59.074	213.686	55.288	-8191	255	
2843.252	1	1	0	0	0.032063	0.084301	0.062654	0.20554	0.040567	0.2538	0.14653	0.13444	0.042042	0.11887	0.12645	0.11816	0.16668	0.14891	0.15195	0.13118	-3.7833	-3.6875	-3.5187	-4.1292	-3.7229	-3.7313	-4.3104	-3.4542	-4.125	-3.8354	-3.5542	-4.0833	-3.675	-3.8438	-4.1021	-3.5	63.217	209.168	187.124	307.762	343.988	244.761	260.303	44.797	192.466	241.052	195.068	79.543	370.626	295.929	129.765	212.787	0.0010024	0.00034522	0.00013051	529.4	5.1849e-06	3.2468e-06	611.36	192.35	2.4234e-06	9.3989e-07	247.39	101.42	80.743	39.358	4.9266e-07	53.603	0.00025243	0.00026531	6.757e-05	529.38	2.8265e-06	2.8797e-06	604.35	184.14	2.8415e-06	2.848e-06	230.95	90.466	75.897	35.02	2.5361e-06	44.945	65.531	351.859	371.201	43.418	174.523	54.550	42.182	49.211	183.717	383.869	47.398	51.524	54.303	59.057	232.294	55.243	-8191	255	
2843.348	1	1	0	0	0.20322	0.049847	0.24177	0.18598	0.082856	0.26612	0.12598	0.18712	0.14754	0.090821	0.15343	0.17115	0.10903	0.13751	0.12639	0.23561	-3.4521	-3.7771	-3.1854	-4.1562	-3.8667	-3.7333	-4.2312	-3.6188	-3.9062	-3.9708	-3.4938	-4.2438	-3.9021	-3.6437	-4.0312	-3.6437	365.647	37.420	290.242	35.131	318.015	77.222	321.654	188.687	264.686	307.626	228.657	83.401	336.244	270.232	266.897	64.064	0.00081643	0.00030428	4.2281e-05	523.98	3.8055e-06	1.003e-06	607.75	191.03	3.7164e-06	1.3952e-06	245.25	101.81	79.905	39.333	1.6193e-06	53.918	0.00026262	0.00024809	6.3527e-05	523.98	2.8274e-06	2.6345e-06	591.88	182.49	2.7778e-06	2.5505e-06	226.03	90.356	74.998	34.333	2.2985e-06	44.973	77.738	365.250	122.998	43.332	138.638	115.733	41.632	49.527	156.442	83.956	46.967	51.520	54.309	59.383	272.584	55.311	-8191	255	
2843.444	1	1	0	0	0.32266	0.17636	0.19139	0.13287	0.044423	0.11028	0.12145	0.20062	0.088171	0.084678	0.14818	0.19139	0.18336	0.24145	0.1052	0.30811	-3.3708	-4.1604	-3.4521	-4.1438	-3.9542	-3.5458	-4.3063	-3.6729	-3.8146	-4.1792	-3.55	-4.0312	-4.0104	-3.4875	-4.1583	-3.6542	232.555	326.727	335.455	337.302	78.963	130.130	349.714	165.724	94.322	230.496	156.767	122.986	273.081	320.634	157.799	48.745	0.00064173	0.00036329	4.0561e-05	521.59	1.103e-06	1.214e-06	610.33	192.14	4.3983e-06	1.2882e-06	247.84	101.82	80.818	39.196	2.2992e-06	53.935	0.00024696	0.00022052	5.7238e-05	523.63	2.6403e-06	2.3944e-06	585.67	183.02	2.6069e-06	2.3406e-06	223.61	90.941	74.185	34.098	2.1683e-06	45.188	78.258	335.109	78.500	43.393	237.729	304.201	42.058	49.114	59.597	179.493	47.229	51.638	54.420	59.286	122.944	55.250	-8191	255	
2843.563	1	1	0	0	0.21603	0.17565	0.086357	0.077335	0.12615	0.087909	0.14899	0.25682	0.20168	0.25326	0.26093	0.11879	0.14852	0.056273	0.17455	0.048611	-3.4083	-4.0042	-3.675	-4.0917	-3.9813	-3.4458	-4.2896	-3.6521	-3.5979	-4.2625	-3.6521	-3.8979	-4.0917	-3.7625	-4.0479	-3.8083	131.885	251.951	105.928	296.441	180.706	370.463	75.618	382.091	133.624	388.073	329.138	114.750	196.018	366.710	217.500	282.538	0.00067844	7.6499e-05	3.0822e-05	529.65	2.3527e-06	1.8415e-06	613.51	193.64	3.9305e-06	1.9082e-06	246.43	101.75	81.358	39.647	3.2633e-06	53.901	0.00023476	0.00020903	5.5963e-05	534.55	2.511e-06	2.3127e-06	588.57	185.38	2.4755e-06	2.264e-06	224.03	91.566	73.955	34.118	2.2039e-06	45.525	68.989	70.543	243.167	43.321	80.533	150.767	42.101	49.162	372.264	195.496	47.282	51.153	54.466	59.083	190.885	55.166	-8191	255	
2843.659	1	1	0	0	0.1896	0.13756	0.088703	0.23788	0.093004	0.10406	0.18699	0.10244	0.23909	0.25125	0.22064	0.16368	0.078198	0.13304	0.12732	0.08569	-3.1188	-3.9729	-3.5375	-4.0354	-3.9271	-3.55	-4.1333	-3.8833	-3.6625	-4.1521	-3.5938	-3.9313	-3.9708	-3.6917	-4.1583	-3.8604	101.097	162.982	367.849	256.902	160.249	195.531	305.967	227.514	362.150	107.695	140.617	342.987	37.288	135.533	297.375	378.058	0.00066291	0.00025073	0.00013628	527.62	2.7729e-06	8.7373e-07	612.05	193.52	2.973e-06	2.5331e-06	246.39	101.92	80.591	39.126	4.2398e-06	53.555	0.00022497	0.00020359	5.7818e-05	535.49	2.3993e-06	2.2399e-06	592.62	186.93	2.3803e-06	2.1785e-06	226.11	91.873	73.277	33.755	2.4022e-06	45.238	100.867	140.054	148.796	43.440	372.244	359.407	42.442	49.480	379.730	112.087	46.919	51.175	54.616	59.323	204.132	55.036	-8191	255	
2843.755	1	1	0	0	0.18537	0.1734	0.20614	0.10406	0.10446	0.15305	0.048524	0.23259	0.2416	0.2838	0.17661	0.038808	0.15674	0.17473	0.2756	0.099001	-3.2375	-4.05	-3.4583	-3.9125	-3.8729	-3.4646	-4.0833	-3.8604	-3.5625	-4.1979	-3.7208	-3.775	-4.1083	-3.3417	-3.9458	-3.8833	233.266	182.733	235.062	299.245	272.951	123.000	372.086	38.747	196.091	110.622	345.314	155.473	343.192	206.631	346.154	120.949	0.00078539	0.0002519	0.00015447	521.47	2.2491e-06	1.1007e-06	608.13	190.18	7.543e-07	4.2843e-07	244.47	100.57	79.69	38.556	3.7447e-06	52.839	0.00022071	0.00020036	6.2797e-05	530.47	2.3685e-06	2.2249e-06	595.83	183.78	2.3873e-06	2.1835e-06	228.28	91.004	72.394	33.283	2.5968e-06	44.561	60.364	239.610	167.350	43.529	46.988	186.485	42.441	49.014	173.134	296.646	47.316	51.255	54.153	59.182	205.927	55.118	-8191	255	
2843.851	1	1	0	0	0.24554	0.14406	0.15026	0.052484	0.11454	0.03251	0.16188	0.19182	0.34088	0.20559	0.1248	0.21177	0.36989	0.10273	0.1669	0.14183	-3.1021	-4.0958	-3.7583	-3.7062	-3.9854	-3.4979	-3.9354	-3.9479	-3.4646	-4.1937	-3.7979	-3.7938	-4.1312	-3.7708	-3.775	-3.9375	381.571	232.446	348.263	195.995	199.044	310.272	385.474	264.809	69.505	42.945	378.433	326.848	50.069	388.284	33.215	348.731	0.00076916	0.00057193	9.6778e-05	515.86	2.5838e-06	4.9265e-06	601.17	188.69	2.2982e-06	2.1446e-06	240.05	99.621	78.462	38.063	3.2275e-06	51.652	0.0002184	0.00020467	6.7813e-05	525.31	2.3366e-06	2.3112e-06	599.32	182.04	2.3717e-06	2.3182e-06	229.83	90.25	71.765	33.227	2.7888e-06	43.884	93.162	116.289	167.369	43.249	63.176	176.173	42.139	49.038	249.275	214.617	47.233	51.394	54.201	58.961	164.434	54.930	-8191	255	
2843.947	1	1	0	0	0.0086823	0.052696	0.25596	0.11485	0.080539	0.18127	0.10741	0.26894	0.10453	0.12317	0.13492	0.17202	0.075767	0.090766	0.23065	0.24671	-2.9958	-4.0542	-3.6521	-3.6646	-4.1542	-3.5021	-3.8771	-3.9917	-3.3937	-4.0729	-3.8479	-3.5625	-4.0521	-3.5396	-3.7062	-3.9917	304.319	94.494	274.803	380.560	370.778	384.603	98.382	34.941	128.592	271.385	287.960	45.711	55.166	58.022	354.897	80.309	0.0005417	0.00056116	3.6553e-05	522.93	1.0232e-06	5.3986e-06	604.17	189.96	1.8859e-06	4.7176e-06	242.65	100.85	79.875	38.491	2.5435e-06	51.866	0.00022211	0.00022719	7.2258e-05	528.25	2.3849e-06	2.5838e-06	608.43	183.48	2.4109e-06	2.6062e-06	232.95	90.901	72.636	33.98	2.8463e-06	44.154	51.474	152.550	181.535	43.286	275.321	193.140	42.242	49.358	355.421	188.929	47.078	51.222	54.418	58.925	77.834	54.890	-8191	255	
2844.044	1	1	0	0	0.1856	0.14185	0.15253	0.32807	0.10689	0.19106	0.15526	0.1621	0.1298	0.15928	0.060249	0.10924	0.01822	0.13363	0.19993	0.29874	-3.1625	-4.1	-3.8729	-3.5354	-4.1375	-3.5563	-3.8875	-4.0437	-3.3896	-3.8771	-3.9417	-3.5729	-4.1167	-3.6729	-3.725	-4.1	304.495	143.556	386.580	296.954	84.212	209.120	161.539	387.219	68.453	351.521	120.844	295.710	193.024	261.545	187.726	181.488	0.0010319	0.00023427	9.3168e-05	520.11	1.3314e-06	4.9445e-06	602.5	190.7	1.066e-06	2.0337e-06	244.97	100.73	80.076	38.424	1.6111e-06	52.275	0.00022111	0.0002472	7.1131e-05	526.25	2.3684e-06	2.7468e-06	603.43	183.09	2.3985e-06	2.7567e-06	231.1	90.536	72.565	34.175	2.659e-06	43.925	67.254	99.446	360.061	43.478	64.653	190.004	42.198	49.270	119.577	206.435	46.954	51.276	54.416	58.948	126.856	54.939	-8191	255	
2844.140	1	1	0	0	0.21839	0.070081	0.18419	0.11742	0.38931	0.069088	0.12289	0.05388	0.20632	0.22084	0.24457	0.16335	0.068872	0.088388	0.17225	0.040316	-3.0479	-3.9	-3.9708	-3.6646	-4.0979	-3.7021	-3.6667	-4.1458	-3.5271	-3.85	-4.0042	-3.3896	-4.1687	-3.6813	-3.55	-4.1417	269.119	316.312	319.206	370.170	95.845	84.441	307.111	341.845	217.410	372.300	325.909	245.913	235.717	375.272	75.329	263.823	0.0011356	0.00050075	0.00013562	519.1	2.561e-06	9.48e-07	599.57	187.99	6.9107e-06	2.502e-06	242.31	99.737	79.658	37.813	1.8603e-06	51.837	0.00022165	0.00025375	6.6419e-05	519.05	2.3865e-06	2.79e-06	593.95	179.47	2.4625e-06	2.8071e-06	226.47	89.208	72.516	33.838	2.5544e-06	43.194	68.050	162.034	323.584	43.658	166.483	175.037	42.164	48.763	231.726	222.828	46.622	51.502	54.025	58.980	53.165	55.126	-8191	255	
2844.260	1	1	0	0	0.13932	0.058367	0.069853	0.073054	0.32023	0.18929	0.1369	0.259	0.18645	0.1523	0.11345	0.05296	0.076268	0.11537	0.27623	0.092269	-3.2	-3.7292	-3.9729	-3.4021	-4.1937	-3.9229	-3.5271	-4.2833	-3.5292	-3.6583	-4.1979	-3.2625	-4.0813	-3.9208	-3.7812	-4.2562	103.960	188.111	42.688	37.629	340.252	53.524	274.663	388.041	252.626	185.639	350.293	161.496	316.901	346.618	334.020	210.048	0.0011348	6.9398e-05	1.9879e-05	513.79	4.7894e-06	2.2447e-06	601.74	189.87	4.2334e-06	2.9333e-06	241.49	100.39	79.17	37.597	8.9937e-07	51.593	0.00023495	0.00025694	6.4764e-05	516.68	2.6081e-06	2.8415e-06	593.89	180.29	2.7211e-06	2.8643e-06	226.86	89.203	74.044	33.75	2.5751e-06	43.22	67.601	249.999	163.958	43.273	144.758	68.292	42.107	49.405	176.884	368.343	47.098	51.462	54.224	58.946	144.965	54.919	-8191	255	
2844.355	1	1	0	0	0.12601	0.072799	0.10325	0.097987	0.1392	0.18777	0.07026	0.29877	0.086366	0.081553	0.057945	0.17759	0.21448	0.034205	0.060676	0.28044	-3.2875	-3.8104	-3.9104	-3.5354	-3.9688	-3.9417	-3.4479	-4.1438	-3.9021	-3.6063	-4.1708	-3.5438	-3.9083	-4.1271	-3.3167	-4.1562	371.203	359.315	196.049	378.976	269.389	162.077	167.361	295.866	127.181	315.637	186.131	76.106	88.440	117.239	318.731	356.204	0.0010453	0.00011313	0.00012125	524.27	4.6644e-06	3.74e-06	606.26	191.66	6.8683e-06	2.2244e-06	244.73	100.54	80.042	38.29	2.6902e-06	52.36	0.00025832	0.00025439	6.4162e-05	524.7	2.8086e-06	2.738e-06	595.48	181.98	2.8449e-06	2.7115e-06	226.46	90.326	75.308	33.978	2.4671e-06	43.866	67.992	233.549	388.073	43.181	182.754	367.170	42.282	49.156	168.610	40.248	46.710	51.706	54.237	59.234	354.289	55.189	-8191	255	
2844.453	1	1	0	0	0.023221	0.19225	0.1793	0.11529	0.18056	0.088385	0.074826	0.099382	0.17051	0.3038	0.12886	0.13638	0.14426	0.097937	0.07681	0.020174	-3.5438	-3.5896	-4.0875	-3.6625	-3.8042	-4.1854	-3.6333	-4.2917	-3.7667	-3.5875	-4.3104	-3.6854	-3.9292	-4.1167	-3.3771	-4.0625	80.929	388.997	84.033	355.870	270.250	89.092	388.754	390.375	181.058	303.687	384.246	266.033	111.844	280.143	310.818	169.328	0.00073958	0.00034001	6.289e-05	523.89	2.4215e-06	3.2114e-06	606.64	192.7	1.4945e-06	2.6816e-06	244.67	101.73	80.534	38.47	2.5294e-06	52.514	0.00026313	0.0002413	6.1145e-05	528.09	2.8478e-06	2.57e-06	593.8	183.97	2.8001e-06	2.5206e-06	224.72	91.199	75.101	33.739	2.3415e-06	44.373	65.608	291.520	101.971	43.618	201.198	79.391	41.571	49.165	200.251	360.788	46.682	51.581	54.065	58.841	146.441	55.069	-8191	255	
2844.549	1	1	0	0	0.14265	0.15632	0.16021	0.29592	0.23126	0.2553	0.093073	0.14748	0.18965	0.25259	0.33863	0.082535	0.20409	0.17274	0.057105	0.15182	-3.6354	-3.4813	-4.075	-3.5979	-3.6937	-3.9375	-3.5167	-4.025	-3.8875	-3.4375	-3.9625	-3.6542	-3.7375	-4.2104	-3.4854	-4.0083	78.204	129.000	223.793	377.428	217.594	143.907	281.755	372.873	386.436	112.003	389.758	289.696	359.184	376.380	168.653	357.125	0.00063015	8.8389e-05	0.00011086	527.58	1.9455e-06	2.3448e-06	609.14	191.54	1.8018e-06	3.0418e-06	247.41	101.91	80.638	38.517	2.1614e-06	52.869	0.00025504	0.00023063	5.8795e-05	534.11	2.7538e-06	2.4909e-06	591.88	186.19	2.7165e-06	2.4729e-06	225.13	92.203	74.909	33.579	2.3443e-06	44.953	72.840	367.925	93.956	43.596	34.727	273.193	42.061	49.475	368.139	234.065	47.095	51.333	54.235	59.268	207.293	54.996	-8191	255	
2844.643	1	1	0	0	0.10485	0.16363	0.078401	0.15193	0.16288	0.29745	0.19187	0.11803	0.16609	0.22077	0.11353	0.20516	0.20219	0.2196	0.17424	0.13025	-3.3792	-3.3333	-4.2375	-3.6229	-3.8083	-3.9562	-3.6208	-3.8583	-3.8937	-3.6229	-4.0042	-3.8667	-3.6479	-4.3104	-3.5854	-4.0188	349.698	300.731	53.725	93.925	386.953	359.227	79.835	188.316	157.800	32.211	81.749	334.489	328.859	372.597	212.776	342.839	0.00056241	0.00027483	9.8254e-05	532.81	1.7602e-06	2.3292e-06	615.88	195.34	4.1422e-06	1.9775e-06	249.84	103.01	82.244	38.908	4.33e-06	53.237	0.00024762	0.00022773	6.0873e-05	546.79	2.7161e-06	2.4917e-06	603.89	191.56	2.6909e-06	2.5026e-06	230.91	94.618	75.904	34.159	2.5839e-06	45.784	97.274	115.667	139.274	43.567	349.107	150.617	42.311	49.438	341.320	253.361	46.929	51.600	53.864	58.854	148.463	55.299	-8191	255	
2844.739	1	1	0	0	0.16679	0.14645	0.090476	0.16422	0.19622	0.10164	0.063455	0.089683	0.12384	0.17094	0.078915	0.10344	0.1417	0.27794	0.11925	0.038291	-3.6854	-3.3375	-4.0792	-3.7854	-3.425	-4.2125	-3.6521	-3.9792	-4.2063	-3.5396	-4.0708	-3.9708	-3.4458	-4.3438	-3.6729	-3.9229	277.861	44.051	385.999	34.401	282.435	277.552	288.454	255.395	231.750	237.425	280.998	57.037	220.706	323.772	32.690	66.637	0.0010171	0.00024864	8.0969e-05	537.52	5.6137e-06	1.9876e-06	621.19	197.23	2.8675e-06	4.0552e-07	252.99	103.71	82.9	39.584	5.809e-06	53.182	0.00024478	0.00022605	6.5975e-05	555.31	2.644e-06	2.4138e-06	613.57	193.44	2.6017e-06	2.4318e-06	234.84	94.977	76.045	34.24	2.7375e-06	45.695	82.214	314.443	150.951	43.399	333.702	369.736	42.452	48.937	104.184	304.695	47.048	51.344	54.024	58.906	179.456	55.104	-8191	255	
2844.860	1	1	0	0	0.20002	0.13631	0.19464	0.099998	0.22731	0.010835	0.088941	0.1654	0.13374	0.18555	0.12773	0.11787	0.18868	0.29869	0.15797	0.3705	-3.7208	-3.3917	-3.975	-3.9104	-3.5229	-4.2188	-3.6188	-3.6833	-4.0729	-3.4792	-3.9938	-3.8937	-3.7292	-4.0354	-3.6708	-3.6562	264.822	210.311	80.697	241.267	271.821	204.516	329.861	160.648	306.842	220.407	348.162	341.369	237.878	354.343	159.454	320.706	0.0010958	0.00025824	0.00012078	534.91	1.6385e-06	3.8712e-06	619.11	196.44	1.6288e-06	2.5659e-06	250.52	103.43	82.152	39.191	2.0872e-06	53.14	0.00023364	0.00021771	6.9165e-05	546.66	2.5152e-06	2.3359e-06	616.01	190.22	2.4571e-06	2.385e-06	235.39	93.423	74.594	33.95	2.7803e-06	45.043	70.686	99.767	152.620	43.333	61.064	177.818	42.612	48.923	374.656	204.803	46.820	51.144	54.487	58.889	147.867	54.855	-8191	255	
2844.956	1	1	0	0	0.11534	0.32042	0.043538	0.15571	0.029667	0.1036	0.16924	0.23472	0.042784	0.10093	0.10867	0.04905	0.13766	0.042281	0.061348	0.081437	-3.8146	-3.6729	-3.8771	-3.9375	-3.6542	-3.9833	-3.9625	-3.6583	-4.2146	-3.55	-3.9062	-4.1813	-3.5479	-4.2146	-3.95	-3.6	383.651	220.757	266.729	251.855	304.440	188.636	324.339	67.294	108.630	119.319	351.950	304.400	359.977	40.892	234.214	349.461	0.00085331	0.00023226	9.6597e-05	532.63	7.7228e-07	5.1658e-06	615.6	194.52	4.5632e-06	4.1275e-06	248.41	102.96	80.78	38.84	2.0159e-06	53.064	0.00022041	0.00021931	7.0005e-05	535.5	2.3829e-06	2.3804e-06	613.87	186.13	2.292e-06	2.4069e-06	233.63	91.5	73.221	33.746	2.6274e-06	44.251	78.595	185.964	96.180	43.218	163.487	171.884	42.450	48.853	69.898	207.510	46.722	51.375	54.293	59.380	386.862	55.260	-8191	255	
2845.052	1	1	0	0	0.22714	0.068346	0.11647	0.13219	0.1555	0.16062	0.016047	0.1409	0.17884	0.18113	0.18581	0.18901	0.21049	0.12576	0.13812	0.16899	-3.9417	-3.7375	-3.8146	-4.2354	-3.4583	-4.1146	-3.9396	-3.4688	-4.0271	-3.7	-3.8333	-4.1167	-3.6021	-4.0771	-3.8688	-3.7521	98.280	280.935	153.201	349.866	333.242	150.100	256.403	339.550	53.880	362.249	346.803	34.286	341.990	257.491	297.690	349.227	0.00071984	0.00029463	9.334e-06	532.24	2.5084e-06	3.2048e-06	619.09	196.2	1.8049e-06	6.4175e-06	248.2	102.74	81.355	38.921	4.9097e-07	52.918	0.00019988	0.00021634	6.4408e-05	529.71	2.1341e-06	2.3291e-06	606.45	183.39	2.0614e-06	2.3817e-06	229.74	90.359	72.585	33.937	2.4652e-06	43.847	51.424	92.715	362.435	43.578	208.233	167.149	41.850	49.056	75.103	208.793	46.989	51.288	54.213	59.181	322.426	55.071	-8191	255	
2845.148	1	1	0	0	0.070751	0.23707	0.080459	0.12699	0.10341	0.12387	0.13935	0.1175	0.10313	0.059685	0.108	0.031831	0.085932	0.29222	0.074015	0.29904	-3.9	-3.6979	-3.8271	-4.0938	-3.3937	-3.9729	-3.9813	-3.6312	-3.9729	-3.6688	-3.9292	-4.0396	-3.6667	-3.8354	-3.875	-3.6292	362.720	134.900	343.070	347.258	284.285	193.952	302.514	129.653	321.603	229.635	123.785	285.358	307.076	295.627	140.278	362.731	0.00077348	0.00055119	4.1343e-05	536.82	1.0913e-06	2.8751e-06	618.88	196.24	2.0346e-06	4.7179e-06	249.67	103.68	82.314	39.325	2.4355e-06	53.29	0.00019798	0.00023004	6.275e-05	530.89	2.1819e-06	2.5373e-06	604.66	184.01	2.1819e-06	2.5764e-06	230.44	90.761	73.988	34.532	2.4036e-06	44.192	87.577	105.408	271.431	43.689	144.012	148.918	42.182	49.016	194.250	226.332	47.167	51.704	54.478	59.400	280.080	55.156	-8191	255	
2845.245	1	1	0	0	0.054704	0.22269	0.078687	0.2001	0.24337	0.18977	0.2139	0.047613	0.23648	0.037994	0.18155	0.19197	0.10273	0.14964	0.13747	0.18217	-3.7729	-3.5667	-3.6729	-4.1687	-3.7542	-3.7833	-3.9229	-3.4896	-4.1875	-3.7708	-3.3729	-4.1896	-3.5396	-3.7771	-3.9208	-3.5354	72.699	87.259	129.598	99.316	319.401	246.546	343.126	147.595	295.126	262.187	228.211	337.813	111.881	212.351	325.312	52.526	0.00083574	0.0003829	4.301e-05	538.47	5.4746e-06	1.9013e-06	620.3	196.03	5.9482e-06	1.0093e-06	249.85	102.67	81.44	38.725	1.9467e-07	52.656	0.00020918	0.00023816	6.0681e-05	528.46	2.3141e-06	2.5766e-06	600.87	182.05	2.3124e-06	2.5571e-06	227.12	89.598	73.657	33.985	2.2775e-06	43.553	74.801	112.188	78.425	43.402	158.796	89.624	41.967	49.325	155.960	198.601	47.058	51.188	54.283	58.938	112.049	55.178	-8191	255	
2845.341	1	1	0	0	0.14449	0.094496	0.1782	0.21342	0.21166	0.087982	0.19803	0.027937	0.18262	0.11077	0.060822	0.23818	0.22475	0.12936	0.15721	0.045024	-3.6125	-3.9792	-3.4813	-4.0646	-3.8271	-3.6937	-4.0563	-3.6479	-4.0542	-4.0062	-3.5917	-4.2417	-3.6917	-3.6604	-4.0875	-3.4771	229.449	365.047	147.690	275.745	85.648	32.959	356.275	245.969	31.309	111.112	203.479	250.785	39.788	389.557	331.658	40.733	0.001327	0.00024601	7.132e-05	531.11	4.6562e-06	3.4687e-06	616.39	194.79	7.5498e-06	6.2194e-07	246.39	101.94	80.853	38.511	2.4282e-06	52.743	0.00022102	0.00023196	5.846e-05	522.81	2.4607e-06	2.4957e-06	594.75	180.58	2.4514e-06	2.4502e-06	224.84	89.063	74.013	33.707	2.2477e-06	43.453	82.739	234.553	91.714	43.607	133.150	85.446	42.022	49.277	197.672	97.034	46.977	51.614	54.482	59.049	65.210	55.281	-8191	255	
2845.435	1	1	0	0	0.056947	0.14218	0.22167	0.18942	0.14021	0.27522	0.16469	0.2176	0.093146	0.12942	0.24876	0.13373	0.13349	0.071051	0.01585	0.15898	-3.6083	-3.875	-3.4125	-4.2688	-3.7458	-3.9	-4.1396	-3.2542	-4.0208	-3.975	-3.6604	-3.8833	-3.6937	-3.6917	-4.0375	-3.725	39.749	363.043	306.427	175.364	63.357	206.972	217.845	277.573	36.677	249.824	346.229	73.118	335.222	252.321	122.336	180.533	0.00090741	0.00051967	3.1869e-05	530.52	3.8281e-06	3.1386e-06	615.44	193.11	5.2832e-07	2.0441e-06	245.1	101.08	80.275	38.115	5.8437e-07	52.19	0.00023521	0.00022363	5.7494e-05	524.14	2.5941e-06	2.4305e-06	591.81	181.35	2.598e-06	2.4169e-06	223.9	89.567	74.354	33.271	2.2206e-06	43.502	86.946	321.725	113.084	43.320	180.050	362.423	42.053	49.291	93.169	79.847	46.605	51.526	54.097	59.219	160.191	55.226	-8191	255	
2845.533	1	1	0	0	0.078894	0.27441	0.21699	0.19831	0.13842	0.1055	0.063198	0.20859	0.11011	0.14566	0.07673	0.05455	0.11934	0.14061	0.10438	0.27025	-3.5229	-4.15	-3.3354	-4.2458	-3.7396	-3.7979	-4.3042	-3.4646	-3.9229	-4.0417	-3.5563	-4.0417	-3.9458	-3.5958	-4.3187	-3.7333	195.489	326.674	130.332	46.393	34.119	360.123	381.459	362.769	257.243	254.510	85.388	341.166	279.813	31.895	251.980	232.544	0.00081715	0.00036615	4.8769e-05	531	2.4209e-06	5.1347e-06	616.49	194.25	2.8243e-06	2.1554e-06	249.7	102.85	81.514	38.745	3.6577e-07	52.744	0.00024081	0.00021623	5.5479e-05	528.89	2.554e-06	2.2924e-06	588.89	183.91	2.5144e-06	2.2557e-06	223.68	90.878	74.371	33.483	2.0776e-06	44.166	72.215	331.469	388.620	43.667	306.405	84.262	41.746	49.361	139.035	360.701	46.943	51.511	53.942	58.942	70.899	55.432	-8191	255	
2845.652	1	1	0	0	0.27314	0.23069	0.094215	0.15753	0.13835	0.096379	0.048779	0.052595	0.22466	0.20637	0.11003	0.15718	0.15469	0.12951	0.10173	0.17238	-3.3688	-3.9792	-3.4771	-4.1312	-3.7333	-3.5521	-4.2	-3.5104	-3.8146	-4.075	-3.5333	-4.0146	-3.9375	-3.7271	-3.9896	-3.6354	225.367	311.256	95.618	349.802	60.950	151.561	140.848	216.818	291.063	175.707	338.237	242.268	93.316	271.697	179.049	327.952	0.0005453	8.3417e-05	0.00011923	542.38	1.5595e-06	1.3543e-06	623.66	196.63	2.0486e-06	7.9104e-07	251.46	102.28	81.356	38.445	2.2241e-06	52.713	0.00022366	0.00019816	5.1815e-05	536.2	2.2931e-06	2.0691e-06	589.06	184.74	2.1815e-06	1.9727e-06	221.66	90.134	72.324	32.652	1.8746e-06	43.53	79.243	80.566	168.730	43.411	161.059	298.392	42.357	49.077	304.323	111.318	46.886	51.555	54.439	59.273	164.797	55.491	-8191	255	
2845.748	1	1	0	0	0.077388	0.090553	0.1045	0.22322	0.18543	0.10716	0.086115	0.16539	0.18277	0.19063	0.12156	0.049595	0.12606	0.1645	0.12429	0.19055	-3.2438	-3.9021	-3.5104	-3.8937	-4.0125	-3.3771	-4.2188	-3.7812	-3.675	-4.2333	-3.575	-4.0708	-4.0021	-3.5771	-4.1271	-3.8083	314.051	51.546	244.190	228.138	119.166	363.433	158.439	295.194	200.958	291.561	381.037	376.953	329.450	369.989	331.686	109.067	0.00078168	8.8224e-05	9.7895e-05	547.38	1.2639e-06	2.5089e-06	631.15	198.14	1.4466e-06	2.1256e-06	252.86	102.17	80.934	38.354	4.9048e-06	52.156	0.00018635	0.00016941	4.7767e-05	537.09	1.9741e-06	1.8243e-06	591.71	183.36	1.9382e-06	1.7817e-06	222.52	89.249	71.231	32.29	1.9551e-06	43.238	79.903	51.955	103.227	43.371	247.533	230.747	42.014	49.387	270.751	63.961	46.882	51.311	54.218	59.443	156.056	55.378	-8191	255	
2845.820	1	1	0	0	0.026661	0.060897	0.16766	0.078125	0.18694	0.20882	0.12076	0.18508	0.14313	0.20494	0.19597	0.021879	0.11111	0.15534	0.09109	0.35655	-3.2208	-4.2667	-3.525	-3.7667	-4.1708	-3.525	-4.0854	-3.9396	-3.5604	-4.1729	-3.8125	-3.7458	-3.9625	-3.4542	-3.9229	-3.9875	264.431	195.536	122.280	200.397	182.296	63.291	152.428	369.716	83.688	335.366	303.562	165.900	35.250	59.811	286.451	336.761	0.00046788	0.00017314	0.00011555	550.84	2.3527e-06	2.0523e-06	637.12	199.15	1.658e-06	1.5688e-06	255.11	102.46	82.798	39.159	4.2788e-06	53.53	0.00018004	0.0001641	5.1337e-05	539.35	1.9632e-06	1.8451e-06	605.7	186.01	2.0628e-06	1.9428e-06	231.25	91.037	73.336	33.356	2.3334e-06	44.563	72.838	135.242	110.836	43.340	82.972	93.794	42.235	49.474	336.543	173.077	47.410	51.401	54.139	59.480	141.966	55.334	-8191	255	
2845.940	1	1	0	0	0.24918	0.084698	0.15896	0.19245	0.18726	0.20472	0.28457	0.051267	0.22282	0.030609	0.063411	0.14151	0.055471	0.1131	0.2727	0.16134	-2.9729	-4.125	-3.6333	-3.8812	-4.2854	-3.475	-4.1	-4.0646	-3.4854	-4.2438	-3.7667	-3.6229	-4.1667	-3.675	-3.8812	-3.9917	254.887	137.432	322.658	358.877	330.796	194.925	318.865	63.568	87.417	77.866	237.987	354.142	268.159	376.086	298.333	382.693	0.00094963	0.00018336	0.00018307	566.66	1.5533e-06	2.1382e-06	646.22	203.68	3.214e-06	2.001e-06	259.78	104.44	83.792	40.01	2.6935e-06	54.632	0.00019414	0.00018242	5.9382e-05	554	2.0609e-06	2.0239e-06	622.34	189.88	2.1029e-06	2.0775e-06	237.17	91.775	74.327	34.291	2.479e-06	45.279	68.375	117.571	148.332	43.593	38.520	260.883	42.290	49.349	344.854	224.923	46.931	51.487	54.384	59.647	257.019	55.471	-8191	255	
2846.036	1	1	0	0	0.17178	0.15336	0.20997	0.069765	0.13986	0.14723	0.19373	0.20459	0.24177	0.080933	0.11872	0.13994	0.30957	0.12714	0.1389	0.18907	-3.2042	-4.1167	-3.7917	-3.6604	-4.1312	-3.4521	-3.8896	-4.0583	-3.5604	-4.1021	-3.8104	-3.4875	-4.2729	-3.7208	-3.6375	-4.225	99.856	385.542	192.889	148.925	169.005	352.039	327.448	389.290	155.917	308.959	292.530	382.754	301.430	196.876	33.771	259.191	0.00055415	0.00036103	2.9006e-05	561.39	9.3952e-07	5.5175e-06	644.2	202.55	1.7634e-06	4.1932e-06	258.73	103.89	83.225	40.126	2.733e-06	55.026	0.00019936	0.00020255	6.4835e-05	553.91	2.1553e-06	2.3254e-06	630.27	190.49	2.215e-06	2.4006e-06	239.66	92.319	74.403	34.91	2.6419e-06	45.796	76.818	150.583	171.124	43.593	151.904	185.415	41.933	49.377	356.534	145.190	47.085	51.422	54.412	59.457	98.019	55.268	-8191	255	
2846.133	1	1	0	0	0.087969	0.028468	0.15247	0.18287	0.064382	0.049087	0.069873	0.29618	0.25601	0.1448	0.13326	0.41288	0.03795	0.33565	0.014497	0.26407	-3.1188	-3.9042	-3.8458	-3.5146	-4.2396	-3.6458	-3.7625	-4.1062	-3.5021	-4.0729	-3.8208	-3.4667	-4.0208	-3.9125	-3.6354	-4.1104	351.460	110.982	185.960	324.258	321.829	389.021	354.815	355.548	157.725	287.761	281.399	323.675	47.940	361.284	352.761	86.555	0.00086909	0.00043198	5.3551e-05	560.27	3.9485e-06	6.1299e-06	648.08	204.79	3.1134e-06	3.6719e-06	258.42	105.06	84.499	40.658	9.5087e-07	55.221	0.00020941	0.00023418	6.7868e-05	556.85	2.2627e-06	2.646e-06	635.76	192.43	2.3424e-06	2.7123e-06	242.05	93.717	76.162	36.093	2.8076e-06	46.488	71.487	134.293	57.027	43.404	91.543	180.109	42.286	49.276	197.071	209.149	46.925	51.873	54.258	59.342	341.765	55.262	-8191	255	
2846.253	1	1	0	0	0.10596	0.069762	0.15448	0.20965	0.029381	0.11541	0.078521	0.19988	0.028744	0.049864	0.11088	0.13631	0.17516	0.26925	0.13928	0.11012	-3.1625	-4.0646	-3.9479	-3.4375	-4.2812	-3.7417	-3.75	-4.1562	-3.4292	-4.0042	-4.1271	-3.575	-4.1292	-3.6854	-3.4813	-4.2167	279.491	341.964	296.522	99.846	387.814	40.224	196.986	282.858	344.431	326.698	360.116	102.951	47.333	272.093	226.627	86.627	0.0014169	0.00026531	0.00013265	576.4	4.3587e-06	2.1449e-06	657.87	207.75	7.0738e-06	9.616e-07	261.45	105.77	85.246	41.153	2.0028e-06	55.783	0.00023993	0.00027884	7.4204e-05	579.78	2.7333e-06	3.218e-06	659.49	200.29	2.8677e-06	3.2562e-06	248.65	96.029	79.227	37.027	2.9343e-06	47.104	74.814	93.154	287.799	43.354	183.011	120.937	42.157	48.933	210.815	388.177	47.145	51.515	54.349	59.185	188.753	55.188	-8191	255	
2846.349	1	1	0	0	0.20303	0.058606	0.1182	0.13321	0.015746	0.33122	0.2322	0.1849	0.20253	0.019401	0.065479	0.04781	0.11505	0.24852	0.38325	0.38844	-3.0729	-3.6875	-4.2063	-3.3229	-4.025	-3.8396	-3.65	-4.1771	-3.7729	-3.8604	-4.0437	-3.475	-4.1208	-3.9354	-3.5396	-4.1646	266.223	67.234	38.459	80.551	373.702	189.193	49.295	319.613	143.291	123.345	348.832	277.683	308.391	286.396	382.062	308.737	0.0012094	2.9822e-05	5.4201e-05	571.74	5.8599e-06	1.8434e-06	649.48	206.15	3.5388e-06	2.9116e-06	258.94	104.5	83.996	41.625	1.2544e-06	57.325	0.00026465	0.00028586	7.0797e-05	570.73	2.7963e-06	3.0101e-06	641.71	195.23	2.8636e-06	3.0016e-06	243.07	93.966	78.711	37.111	2.7686e-06	47.874	74.556	376.283	33.178	43.549	223.003	337.058	42.263	49.775	175.240	386.250	46.920	51.819	54.713	59.299	347.262	55.020	-8191	255	
2846.421	1	1	0	0	0.10871	0.10913	0.036578	0.11498	0.070029	0.076326	0.20701	0.059384	0.1551	0.043046	0.051987	0.21343	0.014574	0.24682	0.17272	0.07368	-3.3479	-3.8187	-3.8958	-3.4667	-3.9208	-3.8333	-3.5896	-4.1479	-3.7542	-3.7083	-4.3	-3.6167	-4.1354	-4.0437	-3.5042	-4.0729	330.292	176.422	387.767	235.741	36.262	357.039	95.905	130.861	207.302	209.379	131.750	149.809	200.315	178.932	315.260	329.470	0.0012877	0.0001484	8.717e-05	560.27	5.973e-06	4.247e-06	641.88	202.16	4.4215e-06	4.763e-06	256.42	103.39	82.466	41.656	1.7939e-06	57.984	0.00027637	0.00027187	6.889e-05	561.06	3.0058e-06	2.9312e-06	633.7	192.75	3.0685e-06	2.939e-06	240.11	93.518	78.526	37.123	2.7963e-06	48.811	74.805	40.937	87.110	43.812	192.082	297.394	42.328	49.698	168.219	386.246	47.168	51.699	54.636	59.293	99.810	55.283	-8191	255	
2846.540	1	1	0	0	0.10914	0.23078	0.084315	0.065433	0.11967	0.16761	0.030854	0.039899	0.086872	0.12475	0.12923	0.23502	0.074565	0.12215	0.12549	0.17497	-3.3792	-3.5229	-4.1937	-3.6521	-3.8937	-4.1188	-3.3271	-4.2042	-3.8208	-3.6208	-4.1646	-3.5896	-3.8979	-4.1417	-3.4646	-4.1708	167.373	374.641	374.900	339.689	384.531	341.784	47.187	58.001	55.364	309.589	319.072	271.998	257.799	353.265	95.019	371.105	0.0012382	0.00013796	6.5487e-05	556.83	3.6011e-06	3.2061e-06	640.62	199.9	2.3319e-06	1.0004e-06	253.37	102.37	81.881	41.311	1.969e-06	56.679	0.00030092	0.00027701	7.1222e-05	568.78	3.3006e-06	3.0002e-06	635.55	196.28	3.369e-06	3.0996e-06	241.38	95.72	80.133	37.298	3.0759e-06	49.454	84.748	302.722	200.676	43.884	215.747	52.913	42.284	49.531	213.535	95.521	47.138	51.907	54.882	59.517	319.615	55.258	-8191	255	
2846.636	1	1	0	0	0.0099335	0.046373	0.22041	0.2714	0.086396	0.27945	0.11652	0.21335	0.18607	0.10636	0.14876	0.11725	0.33947	0.13173	0.21748	0.12507	-3.5271	-3.5875	-4.2042	-3.5542	-3.8042	-4.0625	-3.5187	-4.0354	-4.05	-3.6354	-4.2104	-3.6042	-3.9062	-4.1062	-3.4521	-4.0521	253.698	158.410	302.561	365.224	91.866	68.805	263.066	162.156	264.622	156.162	365.073	360.516	99.303	286.866	205.589	282.612	0.00092391	4.6957e-05	6.4408e-05	546.3	4.3792e-06	4.0575e-06	629.1	197.93	6.6166e-06	1.2425e-06	252	101.89	81.612	40.801	7.4306e-07	55.771	0.00033974	0.00030781	7.9704e-05	581.05	3.6995e-06	3.3306e-06	637.87	202.08	3.5634e-06	3.234e-06	241.65	97.364	79.689	36.766	3.0443e-06	49.272	75.868	383.601	201.207	43.858	354.061	353.994	42.407	49.677	384.181	319.900	47.114	51.801	54.432	59.364	249.062	55.608	-8191	255	
2846.732	1	1	0	0	0.1737	0.15813	0.17958	0.16371	0.078055	0.12785	0.071923	0.18584	0.057341	0.20848	0.17916	0.34158	0.078203	0.22951	0.15078	0.25966	-3.6604	-3.4479	-3.9833	-3.9333	-3.9104	-4.2271	-3.4958	-3.8396	-3.9542	-3.4708	-4.3292	-3.725	-3.7708	-4.1813	-3.6542	-3.8063	127.665	183.471	36.775	297.566	320.054	267.311	349.322	273.671	304.753	49.261	211.664	356.443	359.455	327.751	140.586	246.364	0.0005242	0.00021614	0.00014548	533.92	3.9229e-06	3.3163e-06	617.16	195.25	3.8254e-06	2.9941e-06	247.52	100.73	80.38	39.944	2.0514e-06	55.168	0.00032096	0.00029638	7.9276e-05	575.91	3.4741e-06	3.1514e-06	626.93	199.46	3.236e-06	2.9311e-06	235.93	95.539	76.159	35.316	2.789e-06	47.71	88.162	286.424	119.517	43.445	389.077	362.738	42.351	49.051	163.611	60.305	47.530	51.729	54.285	59.199	244.588	55.087	-8191	255	
2846.828	1	1	0	0	0.12399	0.35826	0.044522	0.15455	0.14521	0.16932	0.080847	0.26743	0.20504	0.049275	0.34415	0.11502	0.28739	0.10208	0.061802	0.20397	-3.6771	-3.3854	-3.9688	-3.7833	-3.5812	-4.1729	-3.6875	-3.8979	-4.0396	-3.6979	-4.0875	-3.8083	-3.4708	-4.1833	-3.4708	-3.725	369.820	290.595	336.067	368.723	118.756	89.288	66.322	33.553	126.924	173.820	330.804	37.284	293.734	272.125	160.054	189.767	0.00083526	0.00020208	0.00013974	521.44	1.4982e-06	3.4993e-06	606.2	189.22	2.3455e-06	3.3764e-06	245.05	99.389	78.531	40.323	5.2543e-06	55.944	0.00026019	0.00023735	6.8447e-05	543.67	2.7087e-06	2.4798e-06	602.43	187.76	2.6484e-06	2.4273e-06	229.7	91.636	72.697	34.941	2.6603e-06	47.386	105.592	271.550	119.776	43.296	219.485	130.492	42.558	49.336	362.381	136.078	47.162	51.569	54.477	59.581	167.941	55.168	-8191	255	
2846.949	1	1	0	0	0.1253	0.14313	0.14483	0.10865	0.11671	0.094357	0.080221	0.23871	0.13319	0.052398	0.23824	0.12776	0.31064	0.23426	0.052792	0.091739	-3.6354	-3.45	-3.8958	-3.8833	-3.6125	-4.0479	-3.7396	-3.675	-4.0979	-3.5458	-4.1604	-3.9125	-3.425	-4.1354	-3.6417	-3.6813	317.522	147.674	86.099	108.921	373.451	337.295	313.224	298.845	189.254	193.426	302.636	79.161	328.661	147.843	143.354	226.949	0.00076932	0.00030661	0.0001765	515.67	2.1914e-06	3.2425e-06	600.12	187.01	1.3382e-06	3.4276e-06	241.18	99.03	78.37	40.617	3.6345e-06	56.211	0.00023032	0.00021187	6.7621e-05	528.26	2.4434e-06	2.2897e-06	598.19	182.39	2.424e-06	2.3208e-06	228.26	89.847	71.504	34.906	2.724e-06	46.978	74.739	121.775	145.483	43.437	191.058	88.105	42.640	49.357	216.975	194.963	47.334	51.323	54.512	59.228	149.883	54.752	-8191	255	
2847.045	1	1	0	0	0.21057	0.21556	0.17062	0.080706	0.13389	0.060715	0.27378	0.27577	0.10416	0.18944	0.19065	0.056429	0.035307	0.092613	0.10998	0.069826	-3.8104	-3.4521	-3.7708	-4.1062	-3.4646	-4.1667	-3.6188	-3.6229	-4.2833	-3.4688	-3.9417	-3.9979	-3.325	-4.1375	-3.8646	-3.8187	277.241	390.234	261.059	80.938	319.676	215.975	353.753	309.493	390.936	279.467	369.222	240.305	92.071	196.674	192.754	52.000	0.00072579	0.00017826	6.634e-05	512.47	3.0388e-06	3.6353e-06	604.51	186.26	1.4498e-06	4.678e-06	243.15	100.36	79.503	40.935	1.1175e-06	56.265	0.00021706	0.00021349	6.872e-05	521.28	2.3145e-06	2.3028e-06	599.04	179.42	2.2514e-06	2.3649e-06	229.64	89.804	72.148	35.53	2.8686e-06	47.466	78.364	37.649	163.111	43.300	333.170	195.655	42.515	49.234	318.635	229.825	47.142	51.851	54.539	59.124	114.558	55.352	-8191	255	
2847.117	1	1	0	0	0.21861	0.17488	0.14716	0.1645	0.2659	0.025059	0.21501	0.095168	0.076867	0.13067	0.23734	0.12382	0.15781	0.088472	0.050982	0.27343	-3.75	-3.5167	-3.9896	-4.2083	-3.5104	-4.2229	-4.0146	-3.6542	-4.3187	-3.675	-3.8771	-4.1458	-3.5563	-4.1458	-4.0437	-3.6625	40.034	315.079	123.226	55.343	68.288	199.104	309.059	323.010	116.449	334.358	131.445	152.112	316.393	103.584	147.428	319.121	0.0011156	0.00065281	4.4533e-05	513.3	2.0113e-06	3.9284e-06	602.61	189.84	2.4242e-06	5.4765e-06	243.88	100.81	79.721	40.122	3.4895e-06	54.72	0.00023161	0.00025809	7.9476e-05	532.83	2.724e-06	3.0235e-06	619.26	188.35	2.7459e-06	3.1437e-06	240.12	93.437	75.08	36.419	3.3503e-06	47.36	73.072	110.932	348.191	43.620	278.808	187.449	42.243	49.598	194.196	184.905	46.862	51.276	54.655	59.122	320.698	55.006	-8191	255	
2847.213	1	1	0	0	0.12174	0.252	0.063527	0.14028	0.24518	0.13947	0.17947	0.050107	0.26147	0.22691	0.17132	0.095935	0.27929	0.2501	0.17315	0.10258	-3.9875	-3.6188	-3.6292	-4.1104	-3.4375	-4.1646	-3.9333	-3.5104	-4.1479	-3.8208	-3.7708	-4.3562	-3.6646	-3.9313	-3.9188	-3.6083	129.085	192.997	124.632	355.221	106.604	293.043	333.669	38.559	271.516	124.490	381.508	113.049	380.769	351.993	382.746	306.202	0.0011036	0.00034236	0.00012626	511.35	5.3526e-06	3.7715e-06	592.71	187.55	3.9499e-06	3.9303e-06	240.64	100.14	79.622	39.539	3.3188e-06	53.622	0.00026925	0.00031463	8.6738e-05	539.06	3.0425e-06	3.5464e-06	623.6	189.69	3.074e-06	3.6118e-06	241.14	94.161	76.129	36.403	3.3792e-06	46.695	75.015	102.377	370.574	43.619	238.424	157.299	41.897	48.841	185.427	180.949	47.059	51.439	54.492	59.006	91.595	54.813	-8191	255	
2847.334	1	1	0	0	0.19953	0.23804	0.13402	0.20588	0.083917	0.16372	0.18516	0.33009	0.12242	0.33165	0.080964	0.25825	0.09406	0.059338	0.10136	0.14659	-3.7708	-3.8021	-3.575	-4.0687	-3.4646	-3.9271	-4.0771	-3.4167	-4.0604	-3.7771	-3.7167	-4.1458	-3.5896	-3.9375	-4.2042	-3.5083	321.528	84.144	261.584	375.391	119.686	324.841	364.496	32.135	95.786	285.929	339.609	325.547	245.040	263.471	40.212	51.055	0.00088364	0.0003392	0.00014636	510.58	9.6537e-06	5.1913e-06	599.93	188.55	9.8121e-06	9.42e-07	242.95	100.4	79.885	39.66	1.2883e-06	53.982	0.00029187	0.00033196	8.4103e-05	534.43	3.1957e-06	3.593e-06	617.4	188.38	3.1975e-06	3.5589e-06	238.53	93.145	77.016	36.431	3.15e-06	46.512	97.384	357.878	240.443	43.432	182.216	122.301	42.494	49.260	183.980	165.062	46.990	51.066	54.409	58.792	360.746	54.980	-8191	255	
2847.428	1	1	0	0	0.17444	0.1275	0.05621	0.12122	0.26459	0.1546	0.058934	0.20336	0.27094	0.2233	0.13833	0.088997	0.20975	0.02483	0.066692	0.32109	-3.6354	-3.7271	-3.4313	-4.0958	-3.5729	-3.9229	-4.2438	-3.3917	-4.1813	-3.8563	-3.7333	-4.1875	-3.7646	-3.8458	-4.2188	-3.5417	64.482	337.917	258.560	352.251	302.299	328.991	88.670	163.745	260.910	113.678	386.835	382.789	142.592	341.633	185.434	368.697	0.0014483	0.00025955	6.343e-05	525.05	4.7494e-06	4.1658e-06	609.77	191.88	7.5615e-06	1.6163e-06	245.03	101.94	81.169	40.275	2.0488e-06	55.232	0.00030012	0.00031544	7.8796e-05	541.93	3.2986e-06	3.3727e-06	618.88	188.35	3.2966e-06	3.2797e-06	237.21	93.268	78.37	36.539	2.9646e-06	47.106	78.703	265.417	231.551	43.397	227.283	81.586	41.951	49.091	172.006	314.028	46.960	51.395	54.668	58.942	314.411	54.994	-8191	255	
2847.524	1	1	0	0	0.27099	0.094599	0.13121	0.025763	0.20691	0.20228	0.22627	0.095593	0.085898	0.25706	0.080639	0.072931	0.17266	0.1281	0.15446	0.22296	-3.4792	-3.9208	-3.4292	-4.1896	-3.7417	-3.7083	-4.2104	-3.6937	-3.9458	-3.9521	-3.5	-4.2896	-3.8208	-3.7604	-4.0646	-3.7917	266.339	86.805	329.841	372.162	154.585	325.850	121.420	256.341	71.593	97.346	164.963	127.902	259.325	292.308	322.513	364.314	0.0010159	0.00010021	3.1459e-05	527.46	2.7866e-06	1.5528e-06	608.21	192.07	2.3765e-06	9.5093e-07	245.26	102.06	80.968	40.77	3.0685e-06	56.149	0.00030866	0.00029582	7.5116e-05	544.5	3.4182e-06	3.2074e-06	615.85	190.8	3.4502e-06	3.1922e-06	236.9	94.647	79.162	36.848	2.9459e-06	48.401	68.083	114.368	178.174	43.956	187.081	91.687	42.182	49.617	149.131	206.162	46.975	51.674	54.575	59.093	372.625	55.332	-8191	255	
2847.620	1	1	0	0	0.18064	0.042066	0.067586	0.21463	0.22426	0.064776	0.21865	0.081296	0.1113	0.033559	0.10207	0.059241	0.051733	0.2751	0.105	0.030573	-3.3688	-3.8729	-3.4646	-4.0312	-3.9646	-3.5333	-4.1458	-3.7896	-3.7458	-4.1417	-3.4729	-4.1979	-3.8812	-3.4979	-4.0188	-3.7417	363.451	106.092	185.908	128.986	56.741	164.854	333.657	303.439	303.467	161.461	377.080	264.610	73.763	338.482	122.705	73.792	0.00073465	0.00025521	0.0001551	526.08	5.5854e-06	5.6666e-06	607.38	189.88	4.2104e-06	1.3258e-06	244.95	101.34	80.574	40.821	2.2213e-06	56.097	0.00032047	0.00028946	7.4449e-05	548.91	3.4401e-06	3.1043e-06	610.6	191.76	3.3747e-06	3.0486e-06	234.12	95.203	77.897	36.474	2.811e-06	48.683	77.123	318.535	368.081	43.863	112.149	54.544	41.738	49.403	328.380	363.125	47.117	51.546	54.432	58.998	94.380	55.524	-8191	255	
2847.716	1	1	0	0	0.084359	0.15133	0.16978	0.15342	0.13142	0.16347	0.22929	0.090726	0.15221	0.1203	0.30464	0.14039	0.20832	0.17435	0.10343	0.056599	-3.4146	-3.9875	-3.4021	-3.8604	-3.9021	-3.4479	-4.1521	-3.7958	-3.6917	-4.1917	-3.6167	-4.0062	-3.9521	-3.6479	-4.1854	-3.7479	199.129	203.212	173.391	232.609	339.078	128.626	205.652	255.360	252.049	379.199	366.298	34.160	374.940	65.873	272.160	231.896	0.00078072	0.00017964	0.0001419	522.8	3.1889e-06	3.1246e-06	605.39	189.66	3.2088e-06	2.8752e-06	245.45	101.66	80.086	40.507	2.7679e-06	55.525	0.00030049	0.000272	7.1222e-05	551.83	3.2337e-06	2.9394e-06	607.36	193.2	3.1779e-06	2.8969e-06	233.93	95.653	76.777	35.908	2.8102e-06	48.318	390.363	59.640	216.240	43.747	34.367	369.190	42.212	49.429	341.333	58.725	47.191	51.619	54.317	59.262	132.665	54.990	-8191	255	
2847.813	1	1	0	0	0.1017	0.20477	0.048628	0.021437	0.085046	0.1783	0.1959	0.12534	0.25236	0.24869	0.13982	0.17085	0.13581	0.2432	0.14792	0.097458	-3.3521	-4.2583	-3.4417	-3.9854	-4.05	-3.4354	-4.3875	-3.725	-3.6792	-4.0896	-3.7542	-3.8875	-4.1813	-3.6104	-4.1271	-3.7854	316.462	376.848	182.616	183.921	260.262	281.457	306.577	75.302	53.476	382.762	121.188	168.103	361.369	318.886	386.018	84.671	0.00086994	0.00029569	0.00020837	525.72	2.7077e-06	4.1302e-06	606.81	190.99	1.4647e-06	2.572e-06	246.76	102.26	81.23	40.758	4.5689e-06	55.214	0.00028214	0.00025592	7.2669e-05	555.78	3.0543e-06	2.828e-06	613.92	196.55	3.1587e-06	2.9402e-06	241.62	98.379	78.761	36.496	3.3932e-06	49.343	70.852	309.364	148.025	43.522	101.962	295.062	42.481	49.466	34.798	56.486	46.982	51.416	54.470	58.950	203.794	55.045	-8191	255	
2847.933	1	1	0	0	0.068931	0.093097	0.063776	0.24445	0.25575	0.14009	0.14385	0.034135	0.1898	0.040303	0.16956	0.098932	0.1026	0.12301	0.19073	0.069093	-3.3042	-4.4354	-3.6667	-4.0146	-4.1417	-3.5604	-4.15	-4.0479	-3.6167	-4.3104	-3.8438	-3.9667	-4.2917	-3.5771	-4.0271	-4.2583	376.638	166.930	196.592	387.273	386.236	306.672	302.087	58.607	224.401	87.165	347.842	52.019	290.364	205.871	189.059	94.502	0.00092604	0.00021246	0.00027897	521.48	4.3972e-06	1.3034e-06	604.44	191.42	1.653e-06	1.6012e-06	246.98	102.65	81.457	39.763	5.8747e-06	54.224	0.00031194	0.00028604	8.823e-05	565.59	3.3366e-06	3.1182e-06	634.63	200.74	3.4149e-06	3.2006e-06	251.05	99.949	79.655	36.308	3.9055e-06	49.004	73.347	305.487	155.004	43.279	64.170	263.846	42.234	49.266	61.490	350.367	47.448	51.238	54.390	59.065	200.245	55.033	-8191	255	
2848.029	1	1	0	0	0.058895	0.18799	0.091075	0.2156	0.091629	0.085461	0.049607	0.2289	0.30511	0.077575	0.21437	0.23553	0.070911	0.2446	0.15176	0.25561	-3.1271	-4.3708	-3.7208	-3.9271	-4.3667	-3.675	-4.0938	-4.1333	-3.55	-4.2292	-3.9396	-3.6813	-4.1479	-3.6458	-3.8604	-4.1854	156.726	55.427	99.703	355.583	238.006	244.816	227.200	78.738	256.561	256.568	355.563	261.584	384.301	31.816	320.438	321.548	0.00052401	0.00031233	0.00018909	517.56	4.2215e-06	6.0311e-06	605.39	191.11	6.7268e-07	2.4369e-06	246.06	102.73	80.411	39.14	1.2635e-06	53.115	0.00032834	0.00031351	0.00010308	571.12	3.5768e-06	3.4772e-06	653.65	201.69	3.5143e-06	3.4563e-06	255.51	98.968	78.409	35.841	3.8561e-06	47.43	383.494	135.241	142.622	43.438	82.785	174.111	42.229	49.157	56.209	202.370	46.789	51.352	54.102	58.723	192.700	54.854	-8191	255	
2848.126	1	1	0	0	0.037873	0.16375	0.091408	0.18481	0.1549	0.066605	0.29168	0.29978	0.16034	0.12575	0.19436	0.16802	0.0734	0.20852	0.057895	0.17202	-3.2708	-4.2667	-3.7521	-3.7729	-4.2021	-3.5187	-4.1604	-4.1438	-3.5771	-4.125	-4.0396	-3.8292	-4.3021	-3.7583	-3.9354	-4.2583	51.714	264.493	192.940	367.840	356.784	244.520	376.043	337.645	182.191	155.122	247.639	367.845	62.251	59.429	87.485	379.341	0.00068467	0.00056963	6.3697e-05	514.23	6.3206e-07	8.3827e-06	601.78	192.16	2.5482e-06	4.2395e-06	245.73	101.75	80.907	39.296	2.868e-06	53.225	0.00030088	0.00030673	9.7157e-05	553.66	3.1856e-06	3.3963e-06	641.69	195.73	3.1636e-06	3.4032e-06	249.89	96.631	77.069	36.014	3.6113e-06	46.683	66.801	139.823	125.295	43.201	364.317	201.895	42.116	49.132	323.782	192.296	46.581	51.078	53.938	58.682	60.577	54.874	-8191	255	
2848.222	1	1	0	0	0.28781	0.10092	0.16102	0.20857	0.047096	0.14278	0.18431	0.16426	0.16625	0.20648	0.10336	0.17536	0.35451	0.023607	0.13522	0.24718	-3.1417	-4.0479	-3.8688	-3.5167	-4.2229	-3.7604	-3.7854	-4.2333	-3.5417	-4.0563	-3.9729	-3.65	-4.1833	-3.8937	-3.9208	-4.3625	342.962	52.907	145.095	212.876	317.145	103.006	360.436	107.292	237.403	136.537	287.260	376.979	311.884	132.896	141.218	201.121	0.00072369	0.00065392	6.7664e-05	522.25	7.0767e-07	8.6045e-06	606.14	192.11	2.8087e-06	3.3869e-06	243.97	102.07	81.703	39.237	4.2938e-06	53.442	0.00028053	0.00031569	9.0469e-05	550.88	3.0266e-06	3.4813e-06	633.63	193.38	3.03e-06	3.5175e-06	246.12	95.956	77.307	36.343	3.4803e-06	46.59	68.376	145.396	375.243	43.216	194.006	186.409	42.260	48.827	181.659	256.022	46.798	51.487	53.937	59.040	318.117	54.576	-8191	255	
2848.342	1	1	0	0	0.098961	0.2736	0.25596	0.22758	0.21721	0.16123	0.11484	0.16161	0.098128	0.14352	0.15734	0.36784	0.27754	0.08417	0.071453	0.21705	-3.1646	-4.0062	-4.0396	-3.5604	-4.2063	-4.1062	-3.7875	-4.2937	-3.6396	-4.0708	-4.1292	-3.7021	-4.1167	-3.8354	-3.8021	-4.4875	156.615	192.222	364.385	389.153	321.033	237.764	169.933	82.824	140.303	211.024	340.398	328.480	381.159	292.765	185.140	41.068	0.0016272	2.6657e-05	1.5426e-05	517.05	4.4984e-06	3.459e-06	603.96	191.25	4.9393e-06	4.5815e-06	244.75	101.88	80.723	39.275	1.2831e-06	53.649	0.00028772	0.000333	8.7616e-05	546.21	3.1392e-06	3.6601e-06	628.64	191.88	3.1992e-06	3.6411e-06	242.15	95.006	77.187	36.435	3.2562e-06	46.309	79.000	285.517	260.416	43.524	165.917	242.894	41.998	48.902	219.285	249.928	46.412	51.128	54.433	59.044	388.911	54.969	-8191	255	
2848.412	1	1	0	0	0.18259	0.072815	0.040167	0.082029	0.19449	0.22735	0.15938	0.16025	0.085751	0.12939	0.12305	0.12294	0.13848	0.073427	0.043511	0.068651	-3.1958	-3.9583	-4.0708	-3.5333	-4.1021	-3.8812	-3.6833	-4.5396	-3.8625	-4.0917	-4.35	-3.8	-4.1833	-4.0188	-3.7229	-4.4	145.560	99.088	236.293	187.519	130.993	56.991	92.243	243.783	71.636	123.975	262.225	364.648	83.064	270.821	237.433	232.108	0.0013357	0.000456	6.2127e-05	514.04	7.4765e-06	4.3439e-06	602.7	189.19	1.06e-05	1.6331e-06	243.44	101.11	80.508	39.241	3.7416e-06	53.89	0.00029542	0.00032145	8.1254e-05	536.86	3.2157e-06	3.476e-06	615.89	187.6	3.2421e-06	3.3627e-06	236.97	92.804	77.029	35.762	2.937e-06	45.797	79.340	389.523	217.053	43.349	180.619	155.349	42.077	49.122	188.656	359.681	46.656	51.589	54.344	59.115	109.843	55.148	-8191	255	
2848.508	1	1	0	0	0.28657	0.12336	0.14512	0.097656	0.14279	0.06373	0.11103	0.16937	0.13758	0.16408	0.098361	0.013319	0.15682	0.26274	0.041706	0.12328	-3.4479	-3.9271	-4.2625	-3.5208	-4.1979	-4.1312	-3.7979	-4.2375	-3.8667	-3.9917	-4.3417	-3.6688	-4.0958	-4.1979	-3.6896	-4.3313	76.217	254.803	301.765	205.468	77.184	358.160	45.353	188.967	287.611	271.856	189.855	249.068	389.634	99.831	286.605	163.030	0.0010314	0.00025883	0.00012641	519.72	2.9132e-06	3.279e-06	609.48	193.14	4.4152e-06	1.984e-06	247.31	101.98	81.601	39.795	8.7749e-07	54.221	0.00029147	0.00028618	7.265e-05	532.27	3.1131e-06	3.0446e-06	608.65	186.1	3.0838e-06	2.9162e-06	232.55	92.236	77.081	35.275	2.5877e-06	45.554	98.308	344.928	93.996	43.583	193.248	82.352	42.097	48.717	224.443	384.916	46.765	51.485	54.205	58.765	119.222	55.174	-8191	255	
2848.605	1	1	0	0	0.27933	0.18205	0.17077	0.29048	0.15114	0.093354	0.11865	0.23697	0.12783	0.17808	0.1283	0.032596	0.044572	0.13433	0.063977	0.19721	-3.725	-3.9	-4.4625	-3.8417	-4.1188	-4.1583	-3.7313	-4.2479	-3.8979	-3.7896	-4.35	-3.6604	-4.0354	-4.3021	-3.5833	-4.2292	381.785	274.234	228.001	273.042	260.149	369.918	94.550	337.356	192.820	126.720	332.758	69.536	357.327	379.173	204.922	65.288	0.0012234	0.00021583	2.7373e-05	530.79	2.6163e-06	1.2994e-06	611.93	195.48	3.4281e-06	2.0563e-06	247.73	103.99	82.4	39.978	2.5037e-06	54.19	0.00027473	0.00025013	6.4238e-05	535.62	2.9516e-06	2.7069e-06	601.57	187.74	2.9687e-06	2.6981e-06	230.48	93.8	77.796	35.405	2.6149e-06	46.407	64.370	369.126	374.660	43.599	140.969	39.705	42.190	49.820	344.377	89.285	46.885	51.493	54.098	58.987	86.163	55.306	-8191	255	
2848.725	1	1	0	0	0.27498	0.27921	0.10275	0.26376	0.24128	0.092201	0.19253	0.058391	0.12463	0.1135	0.10796	0.058076	0.36622	0.18835	0.1043	0.051343	-3.5062	-3.6958	-4.3333	-3.8625	-3.8833	-4.2875	-3.6417	-4.1562	-4.1062	-3.5875	-4.4208	-3.7458	-4.0792	-4.3	-3.6625	-4.1292	39.355	102.255	220.470	35.999	315.302	172.926	249.344	315.289	324.532	279.320	373.671	250.642	307.181	360.052	390.031	109.697	0.00082391	3.2611e-05	4.0991e-05	529.19	2.0835e-06	4.5306e-06	610.9	194.59	4.9897e-06	1.7063e-06	246.97	102.88	81.517	39.338	5.7765e-07	53.675	0.00029298	0.00026828	7.0399e-05	553.03	3.303e-06	3.0015e-06	611.13	195.23	3.2907e-06	2.9857e-06	234.51	96.675	78.545	35.432	2.8845e-06	47.28	63.896	344.825	328.465	43.666	358.856	68.582	42.241	49.443	275.187	86.651	46.980	51.351	54.047	59.062	371.958	55.044	-8191	255	
2848.821	1	1	0	0	0.17881	0.11572	0.20935	0.13193	0.22565	0.12977	0.15351	0.20462	0.15348	0.061207	0.12541	0.054296	0.16042	0.22299	0.31936	0.16907	-3.775	-3.5312	-4.2937	-3.9062	-3.8542	-4.2438	-3.6604	-4.1604	-4.1208	-3.6104	-4.3229	-3.8833	-3.9062	-4.2792	-3.525	-4.0333	264.328	77.366	77.673	245.413	228.089	192.465	292.292	376.956	82.933	96.243	252.284	365.974	88.733	262.478	174.034	246.727	0.0004207	0.00014885	0.0002175	522.18	1.8389e-06	2.7628e-06	609.08	193.86	4.4344e-06	1.66e-06	246.93	102.71	81.381	38.807	1.6938e-06	52.838	0.00030112	0.00027562	7.3836e-05	558.7	3.2456e-06	3.0065e-06	615.78	197.89	3.2156e-06	2.9299e-06	237.02	97.327	77.613	34.908	2.9446e-06	46.75	74.467	141.142	112.287	43.722	159.971	188.068	42.415	49.331	75.209	294.908	47.211	51.118	54.294	59.188	177.212	54.986	-8191	255	
2848.917	1	1	0	0	0.19474	0.24406	0.15574	0.12329	0.020371	0.052812	0.04054	0.21286	0.10299	0.19347	0.10655	0.10828	0.35217	0.088549	0.25998	0.084261	-3.8167	-3.5604	-4.2104	-3.9083	-3.8312	-4.2375	-3.8292	-4.0062	-4.0542	-3.5104	-4.1208	-3.9979	-3.7792	-4.45	-3.7625	-3.9917	166.345	257.205	90.814	143.201	109.005	249.202	73.156	344.856	77.253	290.360	40.517	249.555	34.403	358.296	103.359	286.609	0.00068069	0.00022439	0.00019029	525.76	8.8993e-07	9.8045e-07	614.92	194.7	2.2672e-06	1.5249e-06	247.81	102.75	81.237	39.552	3.6833e-06	53.343	0.00028073	0.0002568	7.5446e-05	559.5	2.9903e-06	2.7843e-06	621.93	196.34	2.9707e-06	2.7227e-06	239.33	96.125	76.524	34.76	2.9757e-06	46.308	63.611	249.204	130.091	43.374	31.335	362.647	42.340	49.035	388.972	239.801	47.065	51.139	54.068	58.698	160.126	54.820	-8191	255	
2849.014	1	1	0	0	0.15518	0.043335	0.21257	0.21703	0.085371	0.25403	0.21383	0.17282	0.16721	0.091835	0.14634	0.16411	0.29932	0.19088	0.080027	0.13697	-3.9729	-3.4	-4.3729	-3.9854	-3.6396	-4.2167	-4.0292	-3.8812	-4.2875	-3.5708	-4.1125	-4.1792	-3.75	-4.1729	-3.9521	-3.8521	146.620	366.444	53.999	128.805	263.624	74.139	388.248	297.195	80.099	63.902	38.352	86.603	313.767	42.943	378.820	231.101	0.00058227	0.00029748	9.9317e-05	534.43	3.8686e-06	1.4414e-06	617.98	196.21	2.0054e-06	2.633e-06	249.24	103.1	82.217	39.933	4.3591e-06	54.139	0.00025636	0.00023452	7.4219e-05	552.47	2.6849e-06	2.5177e-06	623.07	192.24	2.6289e-06	2.4983e-06	238.33	94.4	75.666	34.811	2.9421e-06	46.088	69.514	328.895	139.269	43.295	50.820	94.891	42.452	49.036	88.526	196.521	46.888	51.179	54.065	59.069	150.933	54.902	-8191	255	
2849.110	1	1	0	0	0.17262	0.13658	0.20654	0.25628	0.38688	0.10357	0.20245	0.22152	0.11454	0.14108	0.16453	0.078346	0.097926	0.11484	0.13602	0.15524	-3.8187	-3.5687	-3.9521	-3.9833	-3.4437	-4.225	-3.8021	-3.7729	-4.3729	-3.7771	-3.9813	-4.0125	-3.6771	-4.1146	-3.9125	-3.7854	354.675	99.317	351.658	390.644	53.344	193.125	375.367	388.520	218.242	367.221	287.842	40.910	244.844	341.226	173.517	75.753	0.00069575	0.00023391	5.8737e-05	535.42	4.581e-06	5.4334e-06	620.27	195.63	1.4632e-06	3.6307e-06	249.51	102.47	81.216	39.611	4.2862e-06	53.791	0.00023565	0.00023161	7.4778e-05	546.86	2.5491e-06	2.5611e-06	624.89	189.57	2.5292e-06	2.6151e-06	238.91	93.354	74.693	34.803	2.9701e-06	45.577	68.226	117.548	183.804	43.189	59.574	166.676	42.118	48.977	66.165	182.199	46.593	51.305	54.090	59.073	389.708	55.005	-8191	255	
2849.206	1	1	0	0	0.20503	0.07109	0.078059	0.1024	0.20868	0.16613	0.12755	0.051646	0.16285	0.076521	0.077329	0.090622	0.10834	0.31098	0.1494	0.050371	-4.0333	-3.7104	-4.0125	-4.1813	-3.5167	-4.2937	-4.0542	-3.6937	-4.2417	-3.9271	-3.9167	-4.2063	-3.7208	-4.1062	-3.8521	-3.7687	192.420	155.200	155.829	84.659	85.565	323.807	328.125	212.408	49.574	207.155	348.644	302.649	247.862	300.729	69.618	380.705	0.00072183	0.0002619	4.9574e-05	534.06	3.5123e-06	2.4272e-06	618.9	196.04	2.8798e-07	2.488e-06	248.61	102.44	81.722	39.545	2.6093e-06	53.593	0.00023071	0.00024941	7.5113e-05	545.48	2.4851e-06	2.754e-06	622.78	188.26	2.4574e-06	2.7761e-06	237.54	92.659	74.444	35.062	2.858e-06	45.241	60.153	153.368	103.026	43.294	107.055	152.203	42.280	48.888	255.062	188.768	46.697	51.140	54.279	59.193	373.242	55.078	-8191	255	
2849.302	1	1	0	0	0.14217	0.34486	0.057879	0.092496	0.086088	0.16832	0.025309	0.21448	0.17306	0.21996	0.18179	0.031974	0.22333	0.22141	0.34542	0.15455	-4.0292	-3.7042	-3.6729	-4.1417	-3.4604	-4.2354	-4.1333	-3.6729	-4.2583	-3.8458	-3.8417	-4.2375	-3.7875	-4.0021	-4.1833	-3.7771	339.872	193.618	104.951	58.055	355.402	134.676	312.523	381.502	136.009	128.057	303.401	85.075	333.985	49.553	185.145	297.678	0.0009166	0.00052839	3.2272e-05	546.18	5.0685e-06	3.4012e-06	632.47	199.26	4.342e-06	2.3655e-06	253.74	103.7	83.535	40.208	1.106e-06	54.589	0.00022907	0.00026377	7.2043e-05	550.96	2.5119e-06	2.9161e-06	629.93	190.74	2.5247e-06	2.9741e-06	239.24	93.149	76.226	35.89	2.7421e-06	45.774	71.916	147.811	210.116	43.290	169.512	118.062	42.133	49.078	245.395	93.772	46.882	51.277	54.395	58.968	118.386	55.006	-8191	255	
2849.423	1	1	0	0	0.0095459	0.12907	0.19787	0.093364	0.068992	0.038166	0.16196	0.13401	0.17566	0.11574	0.12811	0.082425	0.1892	0.19002	0.29367	0.27418	-3.8125	-3.8812	-3.7062	-4.2375	-3.7042	-3.9833	-4.1646	-3.4625	-4.1667	-3.825	-3.9167	-4.4667	-3.7104	-3.8729	-4.1667	-3.6271	306.024	282.978	88.932	309.394	103.869	160.654	32.321	370.567	307.231	326.985	325.494	338.163	370.329	185.827	202.892	271.346	0.0010274	0.00045408	5.479e-05	557.94	5.0911e-06	4.5651e-06	638.47	202.62	5.2885e-06	1.1671e-06	256.35	105.18	84.533	41.105	1.5424e-06	55.439	0.00023467	0.00026931	6.792e-05	556.28	2.5783e-06	2.9046e-06	629.1	191.39	2.5826e-06	2.8489e-06	237.34	93.101	77.359	36.272	2.5335e-06	46.097	81.356	101.510	149.792	43.468	164.474	186.099	42.148	49.061	163.207	247.345	46.731	51.183	54.425	58.888	346.359	55.071	-8191	255	
2849.517	1	1	0	0	0.19041	0.11285	0.089113	0.080359	0.12926	0.11691	0.01036	0.068561	0.055211	0.14958	0.14774	0.19209	0.10015	0.13404	0.20955	0.24377	-3.775	-4.0271	-3.7438	-4.2896	-3.7354	-3.8333	-4.2625	-3.7729	-4.1896	-4.1062	-3.5354	-4.3771	-3.7938	-3.9688	-4.1937	-3.6063	232.627	330.982	110.373	160.782	298.303	227.732	352.745	365.501	288.902	46.776	341.775	64.233	115.203	296.530	289.746	309.829	0.00099918	0.00016197	7.2914e-05	563.38	4.1644e-06	4.4597e-06	648.04	203.39	2.5842e-06	2.0194e-06	256.55	104.88	84.006	40.904	1.653e-06	55.896	0.00024111	0.00025343	6.3976e-05	555.68	2.6778e-06	2.7404e-06	628.28	190.02	2.684e-06	2.7049e-06	235.8	92.683	77.458	35.816	2.4287e-06	46.162	77.103	38.712	318.359	43.403	251.821	305.908	42.055	48.960	252.480	61.661	47.030	51.719	54.466	59.354	312.082	55.362	-8191	255	
2849.613	1	1	0	0	0.17482	0.088878	0.083904	0.16104	0.23447	0.14675	0.093723	0.19015	0.2532	0.18646	0.18514	0.24086	0.035393	0.05335	0.01315	0.24097	-3.5917	-3.9813	-3.725	-4.375	-3.8125	-3.7562	-4.3271	-3.6375	-3.9854	-4.1542	-3.6875	-4.1458	-3.9271	-3.7417	-4.2667	-3.8396	210.958	121.927	374.632	327.832	290.248	245.570	320.498	379.293	96.469	82.957	247.297	310.162	61.407	136.152	145.703	262.491	0.00098989	0.0002857	0.00014981	561.67	4.1636e-06	5.5659e-06	641.62	202.76	4.0096e-06	1.0031e-06	257.45	105.66	84.507	40.889	2.2272e-06	55.759	0.00025256	0.00024162	6.1068e-05	557.18	2.7585e-06	2.5637e-06	623.19	190.58	2.7413e-06	2.5329e-06	233.92	93.209	77.974	35.684	2.3271e-06	46.401	80.462	378.471	46.903	43.512	206.250	89.775	42.059	49.310	187.510	87.435	47.129	51.579	54.205	59.252	95.345	55.111	-8191	255	
2849.709	1	1	0	0	0.18155	0.1758	0.12898	0.14964	0.07872	0.028367	0.2499	0.061039	0.084825	0.1108	0.30585	0.15326	0.023853	0.23964	0.11039	0.32629	-3.5646	-4.1333	-3.55	-4.2542	-3.9021	-3.7021	-4.3229	-3.7354	-3.9313	-4.0854	-3.4583	-4.125	-3.8583	-3.5708	-4.35	-3.6292	173.252	374.185	159.165	337.839	291.048	215.513	113.670	389.166	158.616	338.235	223.731	310.088	133.909	361.975	116.397	312.500	0.0009775	0.00025511	5.0427e-05	568.16	1.2295e-06	1.7879e-06	646.27	203.14	2.0331e-06	1.4001e-06	256.49	105.15	84.454	41.274	1.1965e-06	56.332	0.00025265	0.00022699	5.8621e-05	562.88	2.7062e-06	2.4149e-06	619.55	191.99	2.6371e-06	2.385e-06	231.59	93.648	77.348	35.65	2.2371e-06	47.014	77.769	121.550	160.541	43.514	289.907	281.009	42.133	49.328	244.693	360.146	46.646	51.686	54.354	59.368	108.284	55.140	-8191	255	
2849.806	1	1	0	0	0.1248	0.21227	0.33542	0.16742	0.2218	0.041382	0.17205	0.078696	0.12906	0.022176	0.097444	0.23218	0.22011	0.13909	0.19549	0.15149	-3.4896	-4.05	-3.6771	-4.1229	-3.9542	-3.6417	-4.2604	-3.8521	-3.5896	-4.2917	-3.5333	-4.1146	-4.0521	-3.7646	-4.3313	-3.9083	112.625	212.186	170.622	240.198	202.126	248.604	387.386	31.574	364.978	114.281	368.073	338.263	379.586	346.949	144.437	306.648	0.00071301	0.0001759	9.5635e-05	568.01	1.9569e-06	2.2654e-06	644.31	204.17	8.2346e-07	2.0117e-06	260	105.78	84.709	41.311	3.0027e-06	55.993	0.00023897	0.00021291	5.5921e-05	565.44	2.5151e-06	2.2936e-06	616.34	194.3	2.5059e-06	2.3185e-06	232.7	95.078	77.122	35.497	2.2852e-06	47.086	67.767	342.152	55.033	43.498	37.261	59.443	42.245	49.403	72.516	84.631	46.908	51.365	54.147	58.998	197.490	55.256	-8191	255	
2849.902	1	1	0	0	0.31118	0.15944	0.14802	0.15832	0.081339	0.18941	0.09926	0.13279	0.14934	0.079753	0.16899	0.17701	0.29948	0.13929	0.21531	0.18039	-3.5875	-4.3938	-3.5938	-4.0146	-4.0354	-3.7208	-4.2979	-3.825	-3.7229	-4.3208	-3.8458	-3.9333	-4.2042	-3.7729	-4.1708	-3.9792	267.970	311.903	41.168	273.206	75.997	282.427	324.190	286.306	131.723	60.744	346.052	84.972	371.273	81.250	127.703	339.823	0.00059577	0.00011388	0.00012192	563.06	1.0813e-06	4.2811e-06	644.66	202.01	2.3012e-06	1.0583e-06	257.63	105.46	83.831	40.859	3.2674e-06	55.722	0.00023027	0.0002107	5.8912e-05	566.48	2.4991e-06	2.3027e-06	621.86	195.06	2.4818e-06	2.322e-06	235.42	95.417	76.483	35.132	2.498e-06	46.984	50.169	304.691	168.773	43.328	227.767	292.396	42.271	49.026	148.693	331.312	46.776	51.423	54.194	58.993	199.839	54.963	-8191	255	
2850.022	1	1	0	0	0.15493	0.024484	0.24721	0.28121	0.047447	0.16425	0.14071	0.29865	0.15676	0.086983	0.19681	0.12204	0.16443	0.072529	0.25856	0.24368	-3.4	-4.3375	-3.5708	-4.025	-4.2146	-3.7542	-4.2625	-3.9958	-3.6104	-4.3438	-3.6229	-3.8167	-4.0854	-3.7208	-4.0083	-4.1146	135.290	213.395	47.511	332.984	325.387	248.824	312.869	309.272	63.837	59.994	366.035	359.889	302.457	68.312	59.666	348.837	0.000686	0.0001955	0.0001272	556.95	3.7047e-06	6.5316e-07	642.68	202.16	1.0136e-06	1.2526e-06	255.19	104.24	83.178	40.354	2.8775e-06	54.605	0.00022711	0.00020922	6.4133e-05	563.84	2.4423e-06	2.2516e-06	626.62	193.7	2.4362e-06	2.282e-06	237.25	94.324	75.782	34.882	2.6773e-06	46.271	83.012	294.080	120.521	43.483	115.252	138.233	42.302	49.182	110.578	190.066	47.168	50.939	53.940	59.050	205.844	54.985	-8191	255	
2850.118	1	1	0	0	0.17129	0.10554	0.15285	0.056991	0.26562	0.10612	0.14756	0.14133	0.029262	0.088022	0.10074	0.16441	0.22024	0.18179	0.10192	0.21493	-3.4292	-4.3229	-3.7333	-3.8542	-4.1333	-3.6958	-4.0896	-4.0563	-3.5	-4.3562	-3.9188	-3.7146	-4.3625	-3.6896	-3.9646	-4.1479	157.099	169.461	181.559	133.469	173.677	239.540	381.805	125.137	85.190	281.790	324.992	164.620	60.228	250.027	50.973	251.192	0.00060957	0.00040982	0.00012313	557.44	3.2533e-06	7.1804e-06	643.43	201.05	1.743e-06	6.5682e-06	256.3	104.04	83.649	40.776	9.561e-07	55.429	0.0002227	0.00021148	6.8556e-05	561.44	2.3821e-06	2.2874e-06	631.87	191.63	2.2784e-06	2.2445e-06	237.45	92.848	74.992	35.006	2.5902e-06	46.05	88.264	118.857	149.560	43.366	201.120	178.926	42.066	48.984	144.011	187.029	46.873	51.211	54.072	59.275	220.995	55.060	-8191	255	
2850.215	1	1	0	0	0.11135	0.15901	0.11634	0.11503	0.17194	0.1938	0.097171	0.1732	0.17516	0.044619	0.28134	0.1453	0.13047	0.089797	0.20866	0.13978	-3.2083	-4.2125	-3.9833	-3.6333	-4.2312	-3.6542	-4.1438	-4.3333	-3.5896	-4.1458	-4.2688	-3.8354	-4.375	-3.7375	-3.8083	-4.225	343.534	193.532	374.907	288.921	226.910	196.929	289.131	160.817	267.076	140.325	355.688	352.815	83.044	230.622	216.592	316.874	0.00073465	0.00042929	5.0644e-05	560.05	1.3053e-06	6.3283e-06	641.3	202.55	4.6019e-06	5.5798e-06	257.43	105.25	84.118	40.86	2.7573e-06	55.39	0.00020326	0.00020981	6.6257e-05	554.48	2.2122e-06	2.3117e-06	627.48	189.97	2.1311e-06	2.3212e-06	236.73	92.474	74.652	35.241	2.4945e-06	45.737	79.047	135.765	157.799	43.656	235.297	190.799	42.299	48.957	355.302	193.318	46.869	51.182	54.305	59.266	62.351	54.899	-8191	255	
2850.286	1	1	0	0	0.24838	0.10251	0.11464	0.21405	0.19471	0.14636	0.052722	0.20639	0.18523	0.1295	0.039294	0.15558	0.26007	0.11692	0.13028	0.1392	-3.1479	-4.2333	-3.7396	-3.5896	-4.2562	-3.6875	-3.8708	-4.3583	-3.6	-4.15	-4.0583	-3.65	-4.1312	-3.8229	-3.8542	-4.1792	198.180	186.552	47.386	363.438	269.312	257.620	271.084	245.403	38.860	365.239	296.857	248.590	357.156	99.762	79.054	320.484	0.00086666	0.00035246	5.298e-05	556.03	2.5479e-06	1.9107e-06	638.87	199.89	1.8373e-06	1.774e-06	254.72	104.4	83.621	40.623	2.9081e-06	55.175	0.00019697	0.00022265	6.4437e-05	547.53	2.1747e-06	2.5141e-06	622.05	187.84	2.1866e-06	2.5314e-06	235.28	92.03	74.23	35.463	2.4622e-06	45.594	82.739	89.282	288.256	43.203	279.137	157.521	42.248	48.811	160.802	227.496	46.983	51.267	54.372	59.151	58.141	55.141	-8191	255	
2850.405	1	1	0	0	0.11758	0.11699	0.15981	0.11842	0.11257	0.094648	0.14841	0.25856	0.095563	0.21655	0.11341	0.045359	0.12791	0.25223	0.21031	0.16224	-3.225	-4.0062	-3.9521	-3.6792	-4.3708	-3.7708	-3.9813	-4.3187	-3.6854	-4.0896	-4.3104	-3.6063	-4.3146	-3.8521	-3.7375	-4.4917	195.684	51.385	342.134	232.800	58.663	60.110	320.017	348.761	254.351	183.763	73.071	332.347	88.877	382.510	53.792	252.430	0.0013132	0.00039782	0.00010087	554.55	3.943e-06	3.3232e-07	638.34	201.3	5.4653e-06	9.0459e-07	254.99	105.35	84.272	41.157	2.3657e-06	55.635	0.00020407	0.00023602	6.2687e-05	545.62	2.2601e-06	2.6414e-06	620.85	187.86	2.3349e-06	2.7139e-06	235.38	92.746	76.165	36.195	2.5062e-06	46.046	75.191	146.089	52.822	43.543	170.351	222.019	42.133	48.973	163.460	137.252	46.848	51.490	54.338	59.019	310.263	55.343	-8191	255	
2850.501	1	1	0	0	0.16579	0.06157	0.18319	0.014533	0.038237	0.076112	0.094264	0.045276	0.13172	0.20715	0.044286	0.23484	0.069991	0.099934	0.28246	0.14712	-3.4062	-4.0667	-4.175	-3.6688	-4.1708	-4.1375	-3.9042	-4.2583	-3.7146	-4.1458	-4.3646	-3.525	-4.1125	-3.9896	-3.7354	-4.3396	97.981	344.182	38.633	116.627	215.844	222.450	295.295	234.320	353.563	131.647	243.306	278.808	339.014	385.398	121.887	295.967	0.0013276	0.00019794	6.4449e-05	562.19	6.2846e-06	2.1525e-06	644.54	202.13	4.7992e-06	3.7898e-06	258.22	105.7	85.766	41.667	1.0312e-06	56.144	0.00023094	0.00025265	6.384e-05	555.73	2.5569e-06	2.7812e-06	626.17	190.28	2.6165e-06	2.7454e-06	237.29	93.432	78.252	36.553	2.4653e-06	46.308	74.306	206.427	94.848	43.230	199.008	360.261	42.034	49.380	205.459	135.952	46.902	51.344	54.469	59.292	155.306	55.015	-8191	255	
2850.597	1	1	0	0	0.24716	0.14279	0.25805	0.057785	0.16163	0.28496	0.18697	0.29619	0.023208	0.15438	0.056363	0.34299	0.19683	0.093362	0.23415	0.14076	-3.3833	-3.9521	-4.2104	-3.6583	-4.1438	-4.2354	-3.7896	-4.2604	-3.7625	-3.7687	-4.3667	-3.5979	-4.0292	-4.0521	-3.5771	-4.2479	305.730	113.926	48.938	36.194	136.098	73.832	333.442	45.298	256.087	271.947	322.591	301.563	328.148	353.831	183.417	328.416	0.001304	0.00023655	0.00010639	559.25	6.4554e-06	4.6899e-06	644.31	203.13	6.7698e-06	4.2789e-06	256.44	106.13	84.69	41.236	1.3233e-06	55.608	0.0002465	0.00024237	6.1718e-05	550.85	2.6807e-06	2.6458e-06	621.03	189.86	2.7286e-06	2.5945e-06	234.71	93.254	78.063	35.939	2.3443e-06	46.142	67.066	358.750	385.103	43.415	161.697	75.866	42.255	49.307	169.295	366.733	47.039	51.169	53.836	59.152	185.920	55.280	-8191	255	
2850.694	1	1	0	0	0.15652	0.055413	0.15213	0.28013	0.16433	0.1171	0.23894	0.1885	0.041185	0.011832	0.053882	0.10782	0.083602	0.069338	0.14646	0.13998	-3.525	-3.6333	-4.2042	-3.6854	-3.9688	-4.0896	-3.6333	-4.3833	-3.8812	-3.7	-4.4021	-3.7604	-4.0188	-4.1521	-3.5479	-4.3	103.678	287.821	211.528	299.343	215.213	357.827	185.392	280.226	140.610	240.291	165.356	195.426	280.104	166.123	389.554	318.162	0.0010249	0.00024532	0.00010553	551.9	3.1608e-06	3.3759e-06	633.92	200.53	3.2441e-06	2.6073e-06	254.02	105.62	84.152	40.997	1.8812e-06	55.909	0.00025304	0.00022897	5.9295e-05	547.95	2.7095e-06	2.4851e-06	611.93	189.53	2.7535e-06	2.4863e-06	231.42	94.118	77.774	35.691	2.2874e-06	46.644	79.178	319.717	39.035	43.606	371.575	371.811	42.325	49.305	54.013	288.065	46.876	51.050	53.925	58.956	363.334	55.498	-8191	255	
2850.814	1	1	0	0	0.092977	0.10556	0.10032	0.017561	0.053455	0.1869	0.27829	0.22284	0.16212	0.1119	0.10339	0.13046	0.16268	0.29424	0.16903	0.27834	-3.6208	-3.7229	-4.2521	-3.9271	-3.9938	-4.1958	-3.6771	-4.3187	-3.9208	-3.5687	-4.3104	-4.0229	-3.8375	-4.175	-3.6417	-4.3063	144.726	377.834	72.492	285.605	323.906	58.874	85.732	73.312	213.162	34.208	355.891	366.220	375.573	33.647	343.798	287.862	0.0006051	0.00011519	6.3903e-05	547.91	1.8544e-06	5.17e-07	634.42	200.26	2.3545e-06	1.6484e-06	254.13	105.92	83.739	40.93	9.9717e-07	55.457	0.00024752	0.00021972	5.6481e-05	548.63	2.6232e-06	2.3928e-06	607.25	190.94	2.623e-06	2.3764e-06	230.07	94.641	76.956	35.386	2.2717e-06	46.69	63.436	366.842	373.776	43.334	47.879	135.111	41.994	49.410	362.849	275.341	46.851	51.179	54.124	59.110	209.269	55.243	-8191	255	
2850.886	1	1	0	0	0.061832	0.15774	0.31451	0.13736	0.031372	0.21015	0.1746	0.15663	0.24051	0.10138	0.21204	0.072002	0.06323	0.19555	0.16826	0.051089	-3.55	-3.6125	-4.4521	-3.9	-3.8875	-4.2625	-3.7146	-3.9938	-4.0479	-3.5917	-4.3438	-3.975	-3.9771	-4.2854	-3.8458	-4.0458	304.639	108.896	263.580	90.739	40.268	311.533	358.419	378.853	197.098	130.160	52.629	256.118	323.629	192.262	366.604	358.767	0.00085195	0.00024574	9.0653e-05	545.94	4.6773e-06	1.0663e-07	629.41	199.92	2.117e-06	2.8615e-06	253.6	105.82	84.585	41.119	5.3069e-06	55.639	0.00024038	0.00021509	5.8174e-05	553.63	2.5436e-06	2.3423e-06	608.31	192.74	2.5414e-06	2.3195e-06	231.73	95.548	76.738	35.433	2.4054e-06	47.093	76.837	324.551	199.691	43.435	348.536	134.310	42.393	49.223	187.191	95.712	47.286	51.500	54.088	59.001	158.932	55.048	-8191	255	
2850.982	1	1	0	0	0.23513	0.21411	0.16687	0.15435	0.05485	0.10601	0.20693	0.26001	0.030885	0.12534	0.18414	0.22829	0.069817	0.1076	0.18997	0.057202	-3.7833	-3.4896	-4.1521	-4.0146	-3.7875	-4.4375	-3.6833	-4.0771	-4.1104	-3.5333	-4.1646	-3.8937	-3.6375	-4.3229	-3.7104	-3.9833	353.247	116.592	205.739	127.547	71.915	178.626	130.725	319.225	188.152	316.611	193.282	41.276	341.494	335.057	274.257	109.147	0.00082728	0.00010971	7.7609e-05	548.12	2.6303e-06	2.437e-06	631.87	200.18	2.2093e-06	1.5343e-06	252.67	105.33	84.024	40.551	3.0018e-06	54.681	0.00023368	0.00021298	6.3534e-05	558.6	2.5257e-06	2.3622e-06	617.81	194.09	2.5162e-06	2.3104e-06	234.91	95.255	75.942	34.905	2.5928e-06	46.449	85.228	379.556	160.508	43.330	63.514	336.693	42.332	49.157	51.253	375.721	46.981	51.212	54.032	59.155	149.181	54.915	-8191	255	
2851.103	1	1	0	0	0.16768	0.069862	0.11968	0.14089	0.058724	0.16266	0.063956	0.14532	0.14821	0.12805	0.31876	0.078995	0.10488	0.15589	0.21777	0.19666	-3.7708	-3.4708	-4.0833	-3.9688	-3.5271	-4.275	-3.8625	-3.9208	-4.0958	-3.6875	-3.9958	-3.9104	-3.6458	-4.3	-3.7417	-3.85	42.696	354.603	222.604	62.369	158.754	228.394	191.144	375.186	61.585	222.330	276.550	47.372	286.941	382.573	259.994	239.720	0.00089561	0.0001798	4.0687e-05	541.76	2.0869e-06	2.2853e-06	624.82	196.05	1.3408e-06	1.7416e-06	252.85	103.98	83.239	40.29	1.9317e-06	54.693	0.0002253	0.00020795	6.6003e-05	547.1	2.3953e-06	2.256e-06	617.63	189.46	2.38e-06	2.266e-06	235.39	93.572	75.019	34.615	2.6484e-06	45.801	72.219	153.453	51.167	43.605	208.342	259.947	42.689	49.053	248.038	168.063	47.230	51.014	54.268	58.969	217.882	54.791	-8191	255	
2851.199	1	1	0	0	0.0383	0.024343	0.16889	0.25185	0.042953	0.067663	0.07055	0.086036	0.046648	0.29037	0.040565	0.20287	0.1608	0.25858	0.46354	0.42518	-3.925	-3.6542	-4.0625	-4.0271	-3.6729	-4.3208	-3.825	-3.775	-4.3604	-3.55	-4.1375	-4.2167	-3.7167	-4.3708	-3.9771	-3.8271	201.093	98.355	234.832	340.590	292.913	58.727	373.674	122.187	386.617	247.299	382.984	256.625	191.176	300.631	263.660	345.325	0.00064737	0.00040812	7.4943e-05	537.76	4.6652e-06	3.6594e-06	628.03	197.05	1.8632e-06	5.5148e-06	252.48	104.36	83.434	40.418	2.847e-06	54.734	0.00021345	0.00020931	6.7613e-05	541.08	2.2989e-06	2.3303e-06	620.8	188.31	2.3282e-06	2.443e-06	237.84	93.765	75.378	35.206	2.8282e-06	45.971	84.550	175.306	107.398	43.333	115.638	163.148	42.242	48.797	204.031	221.791	46.739	51.040	54.122	59.313	183.807	55.086	-8191	255	
#DATA ENDS
