BOXY.EXE: ISS Imagent and Oximeter Data Acquisition Program Version 0.80
Ascii Record File

#ACQ INFORMATION
2  Detector Channels 
16  External MUX Channels 
1  Auxiliary Channels 
5000  Waveform (CCF) Frequency (Hz)
1  Waveforms Skipped 
30  Waveforms Averaged 
1  Cycles Averaged 
16  Acquisitions per Waveform 
10.0806  Updata Rate (Hz) 

#FILE INFORMATION
TRUE -- External MUX Channel results are PARSED.
FALSE -- AC DC and Phase are NOT grouped.
TRUE -- Companion Program Settings File CREATED.
FALSE -- AC data not excluded
FALSE -- DC data not excluded
FALSE -- Phase data not excluded
FALSE -- Auxillary Chn. data not excluded
Tab delimiters

#CALIBRATION STATE
TRUE -- Waveform Calibration Values APPLIED.


#AUX CALIBRATION VALUES
Val Type	aux-1	

Term	1.0000e+00	
Factor	0.0000e+00	


#WF CALIBRATION VALUES
A = Detector Channel
Val Type	A-AC1	A-AC2	A-AC3	A-AC4	A-AC5	A-AC6	A-AC7	A-AC8	A-AC9	A-AC10	A-AC11	A-AC12	A-AC13	A-AC14	A-AC15	A-AC16	A-DC1	A-DC2	A-DC3	A-DC4	A-DC5	A-DC6	A-DC7	A-DC8	A-DC9	A-DC10	A-DC11	A-DC12	A-DC13	A-DC14	A-DC15	A-DC16	A-Ph1	A-Ph2	A-Ph3	A-Ph4	A-Ph5	A-Ph6	A-Ph7	A-Ph8	A-Ph9	A-Ph10	A-Ph11	A-Ph12	A-Ph13	A-Ph14	A-Ph15	A-Ph16	

Term	0.00000e+00	0.00000e+00	0.00000e+00	0.00000e+00	0.00000e+00	0.00000e+00	0.00000e+00	0.00000e+00	0.00000e+00	0.00000e+00	0.00000e+00	0.00000e+00	0.00000e+00	0.00000e+00	0.00000e+00	0.00000e+00	0.00000e+00	0.00000e+00	0.00000e+00	0.00000e+00	0.00000e+00	0.00000e+00	0.00000e+00	0.00000e+00	0.00000e+00	0.00000e+00	0.00000e+00	0.00000e+00	0.00000e+00	0.00000e+00	0.00000e+00	0.00000e+00	0.00000e+00	0.00000e+00	0.00000e+00	0.00000e+00	0.00000e+00	0.00000e+00	0.00000e+00	0.00000e+00	0.00000e+00	0.00000e+00	0.00000e+00	0.00000e+00	0.00000e+00	0.00000e+00	0.00000e+00	0.00000e+00	
Factor	1.00000e+00	1.00000e+00	1.00000e+00	1.00000e+00	1.00000e+00	1.00000e+00	1.00000e+00	1.00000e+00	1.00000e+00	1.00000e+00	1.00000e+00	1.00000e+00	1.00000e+00	1.00000e+00	1.00000e+00	1.00000e+00	1.00000e+00	1.00000e+00	1.00000e+00	1.00000e+00	1.00000e+00	1.00000e+00	1.00000e+00	1.00000e+00	1.00000e+00	1.00000e+00	1.00000e+00	1.00000e+00	1.00000e+00	1.00000e+00	1.00000e+00	1.00000e+00	X	X	X	X	X	X	X	X	X	X	X	X	X	X	X	X	

B = Detector Channel
Val Type	B-AC1	B-AC2	B-AC3	B-AC4	B-AC5	B-AC6	B-AC7	B-AC8	B-AC9	B-AC10	B-AC11	B-AC12	B-AC13	B-AC14	B-AC15	B-AC16	B-DC1	B-DC2	B-DC3	B-DC4	B-DC5	B-DC6	B-DC7	B-DC8	B-DC9	B-DC10	B-DC11	B-DC12	B-DC13	B-DC14	B-DC15	B-DC16	B-Ph1	B-Ph2	B-Ph3	B-Ph4	B-Ph5	B-Ph6	B-Ph7	B-Ph8	B-Ph9	B-Ph10	B-Ph11	B-Ph12	B-Ph13	B-Ph14	B-Ph15	B-Ph16	

Term	0.00000e+00	0.00000e+00	0.00000e+00	0.00000e+00	0.00000e+00	0.00000e+00	0.00000e+00	0.00000e+00	0.00000e+00	0.00000e+00	0.00000e+00	0.00000e+00	0.00000e+00	0.00000e+00	0.00000e+00	0.00000e+00	0.00000e+00	0.00000e+00	0.00000e+00	0.00000e+00	0.00000e+00	0.00000e+00	0.00000e+00	0.00000e+00	0.00000e+00	0.00000e+00	0.00000e+00	0.00000e+00	0.00000e+00	0.00000e+00	0.00000e+00	0.00000e+00	-2.04314e+02	-1.42203e+02	-1.28168e+02	-1.83188e+02	-8.07192e+01	-9.55538e+01	-1.57235e+02	-1.62015e+02	-9.38696e+01	-7.87754e+01	-1.72586e+02	-1.73078e+02	-1.80462e+02	-1.78286e+02	-1.03677e+02	-1.51187e+02	
Factor	5.12228e-05	5.56067e-05	1.88345e-05	1.95333e-01	6.11813e-07	6.20629e-07	2.43410e-01	8.63391e-02	5.78950e-07	5.10576e-07	1.23214e-01	4.08652e-02	3.29490e-02	1.20693e-02	4.99769e-07	1.77148e-02	2.19044e-07	2.19549e-07	6.10483e-08	8.04949e-02	2.40446e-09	2.40050e-09	9.18355e-02	3.25942e-02	2.40413e-09	2.39780e-09	4.31712e-02	1.43532e-02	1.21673e-02	4.38651e-03	2.40139e-09	6.00466e-03	X	X	X	X	X	X	X	X	X	X	X	X	X	X	X	X	



#DISTANCE SETTINGS
A = Detector Channel
A-1	A-2	A-3	A-4	A-5	A-6	A-7	A-8	A-9	A-10	A-11	A-12	A-13	A-14	A-15	A-16	

2.5000e+00	3.0000e+00	2.5000e+00	3.0000e+00	2.0000e+00	3.0000e+00	1.5000e+00	3.0000e+00	3.0000e+00	3.0000e+00	3.0000e+00	3.0000e+00	3.0000e+00	3.0000e+00	1.5000e+00	3.0000e+00	

B = Detector Channel
B-1	B-2	B-3	B-4	B-5	B-6	B-7	B-8	B-9	B-10	B-11	B-12	B-13	B-14	B-15	B-16	

1.0000e+01	1.0000e+01	1.0000e+01	1.4400e+00	1.0000e+01	1.0000e+01	1.5100e+00	1.9400e+00	1.0000e+01	1.0000e+01	1.9900e+00	2.4900e+00	2.4100e+00	2.9000e+00	1.0000e+01	2.9800e+00	




#DATA BEGINS
time	group	step	mark	flag	A-AC1	A-AC2	A-AC3	A-AC4	A-AC5	A-AC6	A-AC7	A-AC8	A-AC9	A-AC10	A-AC11	A-AC12	A-AC13	A-AC14	A-AC15	A-AC16	A-DC1	A-DC2	A-DC3	A-DC4	A-DC5	A-DC6	A-DC7	A-DC8	A-DC9	A-DC10	A-DC11	A-DC12	A-DC13	A-DC14	A-DC15	A-DC16	A-Ph1	A-Ph2	A-Ph3	A-Ph4	A-Ph5	A-Ph6	A-Ph7	A-Ph8	A-Ph9	A-Ph10	A-Ph11	A-Ph12	A-Ph13	A-Ph14	A-Ph15	A-Ph16	B-AC1	B-AC2	B-AC3	B-AC4	B-AC5	B-AC6	B-AC7	B-AC8	B-AC9	B-AC10	B-AC11	B-AC12	B-AC13	B-AC14	B-AC15	B-AC16	B-DC1	B-DC2	B-DC3	B-DC4	B-DC5	B-DC6	B-DC7	B-DC8	B-DC9	B-DC10	B-DC11	B-DC12	B-DC13	B-DC14	B-DC15	B-DC16	B-Ph1	B-Ph2	B-Ph3	B-Ph4	B-Ph5	B-Ph6	B-Ph7	B-Ph8	B-Ph9	B-Ph10	B-Ph11	B-Ph12	B-Ph13	B-Ph14	B-Ph15	B-Ph16	aux-1	digaux	

678.494	1	1	0	256	0.36612	0.24044	0.093824	0.32265	0.10331	0.15968	0.12599	0.11363	0.091836	0.095376	0.10514	0.10673	0.27212	0.18968	0.13581	0.20737	-4.5563	-4.5667	-4.6208	-5.0042	-4.3458	-4.8771	-4.7521	-4.6958	-4.8521	-4.4583	-4.9437	-4.8604	-4.4333	-4.8667	-4.7104	-4.5437	33.941	171.260	221.515	264.880	50.067	280.948	23.054	279.995	112.132	51.947	189.445	34.804	320.953	310.308	68.095	239.737	0.00047621	0.00031323	9.7233e-06	1361.3	4.8915e-07	3.2111e-06	1361.6	381.69	1.3305e-06	1.2083e-06	432.71	143.74	126.38	43.582	6.579e-07	53.907	5.9899e-05	5.8547e-05	1.8589e-05	1193.5	6.3695e-07	6.4418e-07	1168.7	310.28	6.174e-07	6.5706e-07	339.51	113.37	100.01	34.337	7.1543e-07	40.983	46.955	80.662	144.978	-12.167	187.060	116.819	-12.195	-7.365	96.624	108.385	-7.914	-3.473	-3.002	1.509	89.130	0.545	-8191	255	
678.590	1	1	0	0	0.035922	0.28626	0.218	0.29412	0.24269	0.056877	0.18085	0.11016	0.086348	0.09759	0.13437	0.15953	0.12663	0.10998	0.21923	0.038889	-4.5542	-4.3729	-4.775	-4.9667	-4.2583	-4.7375	-4.6729	-4.475	-4.9625	-4.5083	-4.7688	-4.9812	-4.65	-4.7542	-4.6958	-4.4896	185.911	270.746	29.042	293.251	-1.553	269.342	-7.514	276.637	131.529	145.785	254.706	303.472	287.937	287.505	301.402	216.011	0.00052762	5.8684e-05	5.279e-05	1359.7	3.1402e-06	2.2217e-06	1362.8	382.68	1.7447e-06	1.8004e-06	434.2	144.41	126.56	43.725	4.4359e-07	53.947	5.7784e-05	6.146e-05	1.802e-05	1192.3	6.185e-07	6.8586e-07	1167.8	310.28	6.0976e-07	6.9133e-07	339.03	113.29	99.91	34.4	6.7549e-07	40.912	59.503	68.505	28.086	-12.138	101.930	120.184	-12.183	-7.587	146.256	151.942	-8.173	-3.455	-2.894	1.554	39.853	0.574	-8191	255	
678.711	1	1	0	0	0.2072	0.055883	0.26128	0.14379	0.16238	0.059093	0.19275	0.25536	0.07415	0.10564	0.16722	0.14415	0.12351	0.051729	0.079442	0.16654	-4.5437	-4.4854	-4.6583	-5.0125	-4.4042	-4.7375	-4.8063	-4.3833	-4.9062	-4.6104	-4.7146	-4.8646	-4.3438	-5.0687	-4.7042	-4.4	17.790	164.975	46.865	285.418	247.625	265.833	304.100	328.460	227.074	209.089	177.130	326.417	279.843	88.748	121.665	309.157	0.00061684	8.6377e-05	7.7018e-05	1362.7	7.3879e-07	8.0253e-07	1355.5	381.48	1.2415e-06	2.1069e-06	431.77	143.97	126.81	43.578	1.2139e-06	53.801	5.6882e-05	6.3373e-05	1.6846e-05	1190.1	6.0989e-07	6.9343e-07	1161.9	309.42	6.0688e-07	6.9556e-07	337.62	113.15	100.08	34.422	6.4486e-07	40.815	71.639	4.624	76.918	-12.149	90.373	51.385	-12.343	-7.525	102.103	87.190	-7.856	-3.523	-3.110	1.741	70.887	0.762	-8191	255	
678.807	1	1	0	0	0.13183	0.1918	0.1837	0.0047036	0.32589	0.077626	0.14435	0.1854	0.18625	0.11494	0.11528	0.14684	0.12375	0.19162	0.10237	0.17348	-4.6333	-4.4792	-4.425	-5.1708	-4.3979	-4.7979	-4.8229	-4.3833	-4.9771	-4.675	-4.5167	-4.9292	-4.45	-4.8333	-4.9563	-4.5271	161.390	96.170	140.097	284.625	-20.031	194.809	294.324	216.101	169.847	193.809	94.882	300.993	295.553	28.969	58.802	249.460	0.00067834	0.00012726	4.9583e-05	1357.2	2.5188e-06	1.089e-06	1354.2	381	2.3713e-06	4.2612e-07	433.79	143.59	126.17	43.799	2.3126e-06	53.762	5.9642e-05	6.3843e-05	1.6315e-05	1189	6.5594e-07	7.0378e-07	1162.6	309.34	6.5956e-07	6.9999e-07	337.92	113.05	100.33	34.453	6.442e-07	40.811	62.884	77.763	37.635	-12.142	163.961	167.434	-12.149	-7.460	192.755	138.889	-8.027	-3.472	-3.083	1.512	83.523	0.726	-8191	255	
678.901	1	1	0	0	0.065847	0.13245	0.039089	0.069461	0.24347	0.12446	0.19258	0.084104	0.11434	0.12681	0.076206	0.046755	0.13108	0.11032	0.25386	0.22921	-4.5354	-4.7375	-4.4313	-5.175	-4.4021	-4.6854	-5.0083	-4.4292	-4.6458	-4.6542	-4.65	-5.0229	-4.725	-4.7208	-4.9104	-4.5521	141.178	272.151	-6.140	267.309	71.257	-3.976	3.414	91.677	21.784	239.770	316.150	322.172	289.284	260.680	200.757	284.260	0.00049409	0.00011439	3.9723e-05	1360.2	1.6949e-06	1.0811e-06	1360.4	380.31	1.1125e-06	2.067e-06	433.63	144.03	126.62	43.56	1.1762e-06	53.947	6.5838e-05	6.4591e-05	1.6431e-05	1190.9	7.1669e-07	7.0011e-07	1163.7	309.7	7.227e-07	6.8838e-07	337.76	113.28	100.63	34.392	6.3409e-07	40.955	60.211	32.663	-13.198	-12.128	205.546	46.708	-12.265	-7.429	159.364	85.278	-8.003	-3.586	-3.067	1.474	12.847	0.440	-8191	255	
678.999	1	1	0	0	0.16495	0.15532	0.15815	0.16385	0.18501	0.029634	0.1047	0.1522	0.2416	0.067443	0.15718	0.091867	0.18498	0.096824	0.10086	0.21279	-4.5437	-4.6896	-4.5146	-5.2646	-4.3958	-4.6083	-5.1583	-4.5083	-4.9229	-4.8313	-4.6396	-5.0333	-4.5479	-4.6854	-4.9771	-4.5021	69.301	52.012	224.914	294.376	310.674	181.331	199.498	222.064	320.936	49.049	206.200	65.005	-17.793	34.787	57.871	293.422	0.00061068	0.00022206	7.8595e-05	1361	8.7598e-07	1.4245e-06	1357.4	382.09	2.0307e-06	7.1522e-07	432.52	144.29	126.06	43.528	1.8966e-06	53.947	6.9338e-05	6.2045e-05	1.6079e-05	1193	7.3693e-07	6.7284e-07	1163.3	310.65	7.3284e-07	6.61e-07	337.37	113.58	100.41	34.329	6.2047e-07	40.95	58.445	24.558	26.555	-12.142	207.384	103.204	-12.276	-7.377	90.641	7.636	-7.973	-3.542	-3.000	1.610	126.729	0.512	-8191	255	
679.093	1	1	0	0	0.24043	0.18657	0.23582	0.23009	0.03052	0.069706	0.17342	0.18336	0.051256	0.085768	0.049911	0.16772	0.18881	0.23076	0.25787	0.16949	-4.5958	-4.7583	-4.3083	-4.9667	-4.4958	-4.4708	-5.0875	-4.3854	-4.7521	-4.9833	-4.375	-4.8583	-4.7438	-4.3896	-5.0542	-4.3708	41.357	0.986	56.931	289.207	213.975	151.633	-9.477	317.641	-13.437	327.292	180.908	308.289	312.683	252.216	16.985	-14.254	0.00052008	2.9724e-05	4.2881e-05	1361.7	2.1064e-06	8.2003e-07	1356.9	382.86	4.5454e-07	1.3508e-06	432.15	144.23	126.68	43.789	1.3872e-06	53.836	6.841e-05	5.9828e-05	1.5697e-05	1193.6	7.2111e-07	6.4718e-07	1162.5	311.25	7.1347e-07	6.4491e-07	337.66	113.93	100.53	34.375	6.2187e-07	41.124	65.568	-10.858	320.250	-12.070	111.894	56.280	-12.058	-7.491	247.758	119.801	-8.212	-3.613	-3.173	1.562	82.980	0.575	-8191	255	
679.190	1	1	0	0	0.18439	0.12062	0.17526	0.27959	0.11394	0.12136	0.24708	0.23652	0.1233	0.16792	0.04326	0.077771	0.1374	0.31305	0.091538	0.16174	-4.2479	-4.8938	-4.3562	-4.9542	-4.7208	-4.4333	-5.0625	-4.5792	-4.5542	-4.8854	-4.3979	-4.8375	-4.7792	-4.5437	-4.9646	-4.475	318.104	287.077	286.090	274.483	50.302	53.431	244.438	316.324	69.636	197.766	188.645	297.395	19.114	2.440	10.412	3.831	0.00051311	6.2077e-05	6.453e-05	1360.7	1.7911e-06	2.5642e-06	1359.7	381.37	5.7607e-07	1.3255e-06	432.93	144.11	126.18	43.735	1.3134e-06	53.875	6.5982e-05	5.9152e-05	1.6095e-05	1195.7	6.996e-07	6.3821e-07	1165.5	311.33	6.884e-07	6.3107e-07	337.69	114.08	100.28	34.291	6.4754e-07	41.156	55.821	221.862	158.320	-11.984	139.631	90.865	-12.181	-7.334	56.893	54.722	-7.859	-3.566	-3.069	1.489	100.187	0.660	-8191	255	
679.286	1	1	0	0	0.067381	0.23256	0.27457	0.12847	0.14437	0.10529	0.035799	0.1775	0.10111	0.1471	0.12615	0.090984	0.19642	0.10913	0.13253	0.15993	-4.1458	-4.875	-4.5188	-4.8	-4.7458	-4.4062	-5.0458	-4.6646	-4.4604	-4.8292	-4.5271	-4.6562	-4.9896	-4.6167	-4.9521	-4.6604	211.742	257.806	17.691	66.225	321.941	85.822	298.326	-10.590	181.132	-13.626	221.719	243.015	282.174	5.500	18.581	195.339	0.00051439	9.0534e-05	4.0618e-06	1360.9	6.2733e-07	1.7475e-06	1362.6	381.03	1.491e-06	6.019e-07	434.67	144.24	126.27	43.647	1.7389e-06	53.913	6.3871e-05	5.7359e-05	1.6933e-05	1197	6.6958e-07	6.2579e-07	1165.4	311.26	6.6959e-07	6.1876e-07	339.1	114.06	100.14	34.235	6.9814e-07	41.111	75.462	46.443	330.685	-12.122	119.197	64.618	-12.162	-7.403	34.379	194.970	-7.988	-3.390	-3.138	1.495	130.751	0.438	-8191	255	
679.406	1	1	0	0	0.23422	0.18154	0.075872	0.30799	0.10765	0.10216	0.099566	0.099494	0.059917	0.062316	0.20445	0.16062	0.066761	0.28342	0.20692	0.18351	-4.0833	-5.0833	-4.3896	-4.7917	-4.7833	-4.4333	-4.8729	-4.7937	-4.4938	-5.05	-4.5896	-4.5354	-4.9812	-4.5646	-4.9167	-4.8063	17.695	53.657	210.815	275.436	78.917	83.445	22.989	268.267	320.444	223.885	158.206	219.205	7.375	297.837	74.762	11.812	0.00042033	0.00021711	5.191e-05	1362.7	7.7321e-07	1.772e-06	1358.9	381.18	1.5052e-06	1.2076e-06	431.19	143.82	126.94	43.611	1.6399e-06	53.742	6.2733e-05	5.6715e-05	1.795e-05	1196.5	6.5846e-07	6.2922e-07	1168.6	311.35	6.6142e-07	6.274e-07	339.28	113.86	100.39	34.297	7.4199e-07	41.006	54.010	25.872	108.274	-11.984	174.812	85.868	-12.149	-7.286	122.176	49.502	-7.966	-3.268	-2.963	1.631	126.855	0.418	-8191	255	
679.502	1	1	0	0	0.19937	0.18065	0.15768	0.13103	0.013639	0.052316	0.22545	0.093554	0.099003	0.013391	0.25558	0.091837	0.11396	0.32339	0.21469	0.17487	-4.0917	-4.9542	-4.3875	-4.7146	-4.9917	-4.2083	-4.95	-4.7708	-4.4042	-4.9458	-4.5229	-4.5	-4.9729	-4.4875	-4.7958	-4.7688	286.562	-15.093	290.013	296.300	186.796	306.474	290.749	309.136	171.271	52.637	306.308	189.687	253.380	255.414	32.720	199.806	0.0005103	0.00016183	4.5592e-05	1364	1.5532e-06	2.2354e-06	1362.6	381.46	1.703e-06	2.6132e-06	432.49	144.26	126.63	43.657	9.4516e-07	53.796	6.2014e-05	5.8932e-05	1.9125e-05	1196.7	6.4743e-07	6.5658e-07	1170.9	311.14	6.4437e-07	6.5974e-07	340.1	113.69	100.14	34.4	7.3532e-07	40.978	56.556	182.225	19.868	-12.001	174.922	106.428	-12.069	-7.548	99.565	109.062	-8.042	-3.495	-3.149	1.500	39.005	0.962	-8191	255	
679.599	1	1	0	0	0.036119	0.22368	0.17369	0.2048	0.15382	0.14558	0.33963	0.21133	0.099741	0.17093	0.12792	0.094164	0.15721	0.26346	0.10145	0.12704	-3.9542	-4.8729	-4.4708	-4.5583	-4.9104	-4.4563	-4.9833	-4.7875	-4.2937	-4.8854	-4.6396	-4.6125	-4.9729	-4.4229	-4.6375	-5.0188	334.009	304.724	15.721	293.260	295.947	54.814	305.597	14.750	117.458	254.207	186.486	-24.605	282.471	177.112	82.381	279.606	0.00050637	0.00019218	1.7855e-05	1358.7	1.5534e-07	1.286e-06	1364.5	382.06	2.2354e-07	6.6501e-07	431.66	144.45	126.44	43.671	1.6556e-06	53.865	5.993e-05	6.1904e-05	1.8628e-05	1193.4	6.2974e-07	6.9421e-07	1169.9	310.74	6.293e-07	7.15e-07	339.67	113.74	100.02	34.501	7.2554e-07	40.947	57.558	115.806	13.164	-12.004	225.282	143.223	-12.252	-7.462	47.456	246.818	-8.221	-3.551	-2.957	1.484	73.166	0.337	-8191	255	
679.695	1	1	0	0	0.18542	0.15691	0.061799	0.10931	0.13058	0.14509	0.15141	0.049746	0.1317	0.096121	0.1031	0.11164	0.041883	0.19712	0.11683	0.078398	-3.7771	-4.8875	-4.5729	-4.5042	-4.8375	-4.3354	-4.7542	-4.9938	-4.4458	-4.975	-4.7375	-4.2979	-5.0125	-4.5958	-4.5062	-5.0437	279.907	218.420	210.851	-15.278	240.347	261.221	14.846	323.226	300.035	170.647	290.902	29.962	75.280	9.492	-4.537	308.091	0.00053541	0.00011824	5.7611e-06	1360.8	5.5848e-07	2.8196e-06	1363.6	382.66	1.1277e-06	1.1378e-06	431.5	144.05	126.78	43.485	1.5245e-06	53.497	6.0307e-05	6.599e-05	1.8138e-05	1193.6	6.3179e-07	7.317e-07	1168.3	310.26	6.3671e-07	7.2467e-07	338.57	113.31	100.25	34.456	6.9074e-07	40.826	62.289	108.939	32.416	-12.100	214.145	153.787	-12.224	-7.509	142.226	135.025	-8.060	-3.376	-3.144	1.491	31.119	0.872	-8191	255	
679.791	1	1	0	0	0.15478	0.088609	0.1375	0.23637	0.087519	0.17857	0.20715	0.29003	0.28168	0.14973	0.13231	0.18638	0.33805	0.2489	0.16576	0.085617	-4.0729	-4.8229	-4.6979	-4.5312	-4.9125	-4.4583	-4.6792	-4.95	-4.3708	-4.5896	-4.7583	-4.5333	-4.9479	-4.6354	-4.4375	-5.1167	164.110	52.398	146.836	287.688	301.867	238.814	151.306	297.319	180.590	107.587	93.181	58.478	36.600	215.870	287.082	-6.715	0.00066097	0.00020634	3.1796e-05	1363.4	2.8828e-06	2.3408e-06	1360.1	380.97	1.6635e-06	1.7396e-06	432.77	144.15	126.66	43.626	1.5018e-06	53.6	6.3691e-05	6.9457e-05	1.7613e-05	1195.4	6.8698e-07	7.5956e-07	1168.5	309.89	6.8786e-07	7.3763e-07	338.6	113.37	100.29	34.421	6.4348e-07	40.725	55.782	1.142	88.577	-12.249	194.947	80.880	-12.089	-7.335	177.251	132.223	-8.046	-3.590	-3.010	1.605	92.083	0.545	-8191	255	
679.887	1	1	0	0	0.084169	0.24614	0.064458	0.21251	0.03624	0.2898	0.12676	0.22139	0.019107	0.25012	0.16076	0.079587	0.071975	0.24646	0.14217	0.17872	-4.0396	-4.7688	-4.8438	-4.4958	-4.8604	-4.6896	-4.5917	-5.1104	-4.5563	-4.6271	-4.8917	-4.4542	-4.8979	-4.6146	-4.4062	-5.0042	156.360	150.217	69.226	47.202	318.588	128.401	31.684	303.342	274.197	280.738	332.887	316.359	267.251	147.692	266.764	268.770	0.00057228	0.00018461	5.2523e-05	1360.3	1.4558e-06	2.2947e-06	1359.1	381.41	1.3081e-06	1.3129e-06	431.29	143.78	126.95	43.575	1.73e-06	53.97	6.3858e-05	6.3148e-05	1.6014e-05	1189.5	6.7853e-07	6.8474e-07	1163.8	309.14	6.9573e-07	6.9415e-07	337.49	113.23	100.59	34.437	6.6126e-07	40.991	57.581	75.992	17.454	-12.105	142.994	59.119	-12.228	-7.335	124.309	131.845	-7.866	-3.500	-3.176	1.687	77.020	0.425	-8191	255	
679.981	1	1	0	0	0.12026	0.27324	0.08329	0.20117	0.10113	0.12026	0.42202	0.21008	0.29056	0.09677	0.048855	0.18876	0.084969	0.073938	0.1134	0.079007	-4.1292	-4.7104	-4.9563	-4.525	-4.8521	-4.7917	-4.6271	-5.1542	-4.5687	-4.6583	-5.0208	-4.4313	-4.9396	-4.9396	-4.4	-4.9375	261.597	139.628	50.196	323.707	324.138	321.790	293.277	262.061	290.599	-20.927	17.835	147.758	186.674	254.334	42.575	-12.296	0.00056944	9.5988e-05	5.653e-05	1366.2	2.1712e-06	8.3433e-07	1364.2	382.27	3.1797e-07	1.5397e-06	432.96	144.4	126.75	43.652	2.4874e-07	53.972	7.1004e-05	6.5397e-05	1.6913e-05	1198.3	7.688e-07	7.0482e-07	1169.4	311.08	7.5913e-07	6.7988e-07	338.37	113.61	100.66	34.347	6.2405e-07	40.951	67.655	50.543	60.287	-12.002	173.912	29.874	-12.288	-7.465	103.915	76.187	-7.979	-3.477	-3.092	1.418	178.107	0.529	-8191	255	
680.079	1	1	0	0	0.17466	0.077541	0.19835	0.27113	0.18944	0.090832	0.068293	0.24906	0.13337	0.201	0.080513	0.053962	0.10853	0.18324	0.24465	0.061551	-4.2104	-4.4604	-5.0563	-4.6667	-4.7958	-4.825	-4.4646	-5.0292	-4.5958	-4.4771	-5.0437	-4.5521	-4.7375	-4.8875	-4.4917	-4.9479	301.462	145.004	112.397	262.836	71.695	48.059	118.354	8.496	-0.585	199.298	175.408	-16.391	78.733	311.745	315.837	16.565	0.00044105	0.00029848	3.0623e-05	1358.8	6.5818e-07	1.4131e-06	1365	381.02	1.0784e-06	6.6374e-07	432.32	144.22	126.6	43.533	1.9775e-06	53.786	6.7993e-05	5.9692e-05	1.5674e-05	1192.9	7.2368e-07	6.5669e-07	1164.3	310.96	7.2811e-07	6.5701e-07	337.59	113.91	100.49	34.301	6.4024e-07	41.124	68.282	6.921	15.789	-12.135	198.970	68.522	-12.126	-7.304	85.838	111.857	-7.973	-3.596	-3.180	1.600	120.683	0.594	-8191	255	
680.198	1	1	0	0	0.18051	0.06273	0.15701	0.23091	0.19753	0.36012	0.27081	0.21151	0.20612	0.12159	0.1226	0.18312	0.16766	0.032842	0.20604	0.16985	-4.4417	-4.4667	-4.8187	-4.4771	-4.5354	-4.7188	-4.4708	-4.9333	-4.7042	-4.6271	-5.0542	-4.6562	-4.6896	-5.0083	-4.4375	-4.8396	195.605	254.163	42.506	315.094	173.137	-16.744	237.922	276.055	106.746	190.243	220.674	207.690	191.189	220.174	75.163	319.448	0.00046397	0.00016382	4.9384e-05	1364.8	1.7502e-06	1.6087e-06	1365.3	381.98	1.2372e-06	1.3511e-06	433.03	144.16	126.61	43.758	1.4004e-06	53.867	6.9067e-05	6.1224e-05	1.6126e-05	1198.7	7.2577e-07	6.5842e-07	1168.4	311.62	7.1693e-07	6.5291e-07	338.16	114.07	100.46	34.274	6.4332e-07	41.121	58.433	34.361	93.909	-12.058	63.336	90.560	-12.169	-7.425	294.079	48.473	-8.120	-3.415	-2.872	1.651	116.118	0.641	-8191	255	
680.294	1	1	0	0	0.13229	0.16876	0.10803	0.23477	0.15371	0.20601	0.10868	0.11535	0.12256	0.28043	0.27213	0.29102	0.189	0.12764	0.19862	0.17946	-4.4354	-4.2292	-4.9437	-4.6833	-4.5125	-5.0687	-4.6312	-5.0062	-4.7792	-4.4104	-5.2438	-4.7063	-4.5021	-5.0604	-4.5771	-4.8979	125.750	141.592	272.086	312.838	103.896	40.141	303.764	313.613	144.509	117.387	318.988	25.398	23.640	-3.093	38.427	328.738	0.00054289	0.00010798	3.9357e-05	1360.3	4.7473e-07	1.6719e-06	1364.1	381.83	1.2765e-06	1.2622e-06	433.91	144.18	126.35	43.625	1.1756e-06	53.915	6.3949e-05	5.7418e-05	1.6275e-05	1196.3	6.7608e-07	6.3022e-07	1168.8	312.01	6.7673e-07	6.3555e-07	338.95	114.06	100.3	34.311	6.9696e-07	41.182	50.209	13.068	100.284	-11.959	143.287	88.760	-12.108	-7.420	106.735	121.406	-8.002	-3.538	-3.066	1.647	124.689	0.546	-8191	255	
680.391	1	1	0	0	0.093147	0.1468	0.0086448	0.25463	0.17978	0.078304	0.091943	0.072147	0.075188	0.17415	0.094286	0.15458	0.22509	0.084013	0.35711	0.0087986	-4.4667	-4.275	-5.0208	-4.8479	-4.5292	-4.9167	-4.7438	-4.8625	-4.7792	-4.5917	-5.0833	-4.6458	-4.4021	-5.0521	-4.4625	-4.7875	-0.886	181.462	161.771	-21.711	-2.798	63.441	331.990	31.059	204.920	130.839	260.521	231.668	325.707	4.309	205.886	105.691	0.0005243	9.4839e-05	3.2563e-05	1367.9	1.9641e-06	3.1434e-06	1362.9	383.46	3.0957e-06	5.3713e-07	432.89	144.06	127.03	43.698	1.6746e-06	53.915	6.3761e-05	5.835e-05	1.8025e-05	1199.8	6.7959e-07	6.4115e-07	1172.7	312.63	6.7761e-07	6.4071e-07	340.74	114.16	100.44	34.305	7.4155e-07	41.132	53.280	27.769	149.934	-12.076	125.688	92.819	-12.133	-7.473	149.218	188.667	-7.724	-3.493	-2.935	1.400	171.684	0.546	-8191	255	
680.487	1	1	0	0	0.32535	0.16365	0.058638	0.059579	0.12162	0.070287	0.18495	0.21804	0.11505	0.2784	0.092496	0.12919	0.09394	0.21807	0.055411	0.068094	-4.6208	-4.275	-4.6562	-4.7562	-4.3292	-5.0292	-4.5687	-4.8021	-4.8917	-4.4229	-4.8125	-4.7729	-4.4479	-5.0375	-4.5979	-4.5958	118.691	212.863	212.789	268.318	41.755	31.018	222.003	333.171	17.249	-7.576	309.781	21.865	193.222	-14.342	29.129	221.748	0.00051341	8.3358e-05	8.0073e-05	1365.1	9.9041e-07	1.5906e-06	1364.4	382.23	1.568e-06	1.3619e-06	433.03	144.29	127.58	43.686	2.8275e-06	53.806	6.2449e-05	5.8941e-05	1.8706e-05	1198	6.5629e-07	6.4756e-07	1172.3	311.48	6.6481e-07	6.7424e-07	341.16	114.09	100.72	34.426	7.7984e-07	41.138	61.092	45.710	83.427	-12.140	148.244	152.548	-12.359	-7.374	38.097	165.714	-8.142	-3.486	-3.089	1.778	75.989	0.637	-8191	255	
680.583	1	1	0	0	0.14172	0.096211	0.13696	0.07586	0.09713	0.2136	0.031753	0.21861	0.14227	0.072488	0.24804	0.19455	0.12527	0.096801	0.30215	0.095622	-4.5104	-4.4938	-4.6813	-4.9458	-4.3354	-4.9563	-4.7479	-4.5396	-4.8688	-4.3583	-4.8125	-4.8125	-4.4833	-4.9563	-4.6167	-4.5875	0.702	254.080	26.949	334.174	275.074	7.175	135.968	15.559	257.539	290.112	235.272	227.411	330.186	273.519	303.855	231.702	0.00043712	0.0001296	8.2046e-05	1366.7	9.325e-07	1.9935e-06	1365	381.68	1.3563e-06	5.6007e-07	434.43	144.55	126.8	43.65	2.0218e-06	53.952	6.319e-05	6.442e-05	1.9832e-05	1201.1	6.6529e-07	7.1538e-07	1176.4	311.81	6.6079e-07	7.2423e-07	341.35	114.14	100.45	34.531	7.5701e-07	41.082	53.490	88.124	47.399	-12.122	114.305	152.207	-12.190	-7.478	125.382	105.862	-8.159	-3.370	-2.962	1.417	65.573	0.497	-8191	255	
680.679	1	1	0	0	0.026662	0.14946	0.011154	0.2194	0.021531	0.16525	0.076841	0.19114	0.2326	0.050371	0.12211	0.15588	0.069036	0.16168	0.39959	0.065896	-4.6625	-4.3271	-4.6562	-5.025	-4.4	-4.8479	-4.7771	-4.3604	-5.025	-4.35	-4.8458	-5.0125	-4.4604	-4.8625	-4.6917	-4.4812	81.849	85.394	164.399	21.097	226.571	12.727	296.686	230.489	132.203	171.573	276.066	-7.606	302.100	236.254	32.663	292.825	0.00061667	0.0001782	6.2438e-05	1367.9	1.2201e-06	3.0472e-06	1363	382.88	2.1184e-06	7.4443e-07	434.41	144.34	126.22	43.658	1.8701e-06	54.045	6.1132e-05	6.7771e-05	1.8585e-05	1199.1	6.4637e-07	7.3983e-07	1172.4	311.38	6.5007e-07	7.5143e-07	340.17	113.65	100.35	34.539	7.1778e-07	41.013	63.888	129.129	37.940	-11.919	145.063	125.361	-12.301	-7.509	138.785	120.469	-8.141	-3.435	-3.101	1.657	70.383	0.447	-8191	255	
680.800	1	1	0	0	0.24501	0.14812	0.039552	0.15312	0.05355	0.28269	0.092764	0.16334	0.055975	0.21369	0.099677	0.065979	0.20525	0.18676	0.21419	0.25745	-4.6042	-4.4583	-4.5604	-4.8875	-4.3688	-4.7854	-4.9521	-4.2979	-4.95	-4.5	-4.6667	-5.1917	-4.6062	-4.8146	-5	-4.4625	177.904	108.638	118.915	256.750	40.842	29.485	316.620	266.057	239.520	248.025	218.408	255.656	284.847	258.888	253.516	263.217	0.00049287	0.00023327	4.6373e-05	1368.7	1.1386e-06	1.4311e-06	1366.3	382.29	7.9394e-07	1.6971e-06	432.22	143.95	126.76	43.739	1.1218e-06	54.101	6.3714e-05	7.0613e-05	1.7989e-05	1199.2	6.8713e-07	7.7452e-07	1172.2	310.99	6.922e-07	7.7114e-07	339.66	113.63	100.54	34.535	6.8469e-07	41	70.609	24.076	313.951	-11.887	88.308	101.132	-12.083	-7.482	116.579	21.059	-7.908	-3.741	-2.918	1.701	170.983	0.467	-8191	255	
680.894	1	1	0	0	0.17842	0.21561	0.3364	0.059515	0.10678	0.13562	0.14986	0.14519	0.042276	0.17788	0.11386	0.12356	0.17343	0.10398	0.12537	0.14095	-4.5542	-4.5896	-4.4271	-5.2833	-4.5021	-4.7333	-4.9854	-4.5229	-4.95	-4.6083	-4.6146	-5.0375	-4.3583	-4.6687	-4.7833	-4.5292	246.980	-8.316	30.669	276.836	52.637	186.460	148.719	38.555	53.491	170.895	-18.508	9.338	-17.790	178.067	81.243	53.282	0.0006528	0.00022051	8.7867e-05	1366	2.4072e-06	1.5893e-06	1365.9	383.8	1.6609e-06	5.7485e-07	434.21	144.37	127.07	43.715	1.3027e-06	53.926	6.6066e-05	6.8505e-05	1.724e-05	1197.7	7.239e-07	7.5511e-07	1170.8	311.38	7.3918e-07	7.4822e-07	339.87	113.75	100.98	34.525	6.7913e-07	41.016	67.778	60.645	-14.030	-12.078	198.187	46.927	-12.279	-7.409	146.741	76.865	-8.101	-3.598	-2.973	1.475	54.124	0.702	-8191	255	
680.990	1	1	0	0	0.12597	0.12002	0.12728	0.062989	0.13739	0.16245	0.42048	0.17228	0.13676	0.17323	0.37138	0.13165	0.093248	0.11411	0.22514	0.031443	-4.5188	-4.5583	-4.4646	-5.0792	-4.4104	-4.5437	-5.0458	-4.3938	-4.775	-4.8063	-4.3792	-4.9417	-4.5771	-4.5396	-4.975	-4.3688	320.586	168.465	304.249	227.448	262.745	83.996	323.447	310.561	222.755	-16.444	-20.744	214.117	-7.104	194.163	118.500	120.606	0.00065719	0.00011432	2.5037e-05	1366.2	1.5261e-06	2.8392e-06	1362.4	381.63	1.6008e-06	1.8114e-06	433.91	144.51	126.84	43.779	7.5258e-07	53.923	7.1536e-05	6.7383e-05	1.7241e-05	1200.2	7.7755e-07	7.3431e-07	1171.7	311.7	7.756e-07	7.1569e-07	339.61	113.91	101.14	34.495	6.5632e-07	41.081	60.014	48.493	98.826	-12.185	197.781	48.157	-12.178	-7.392	150.418	52.069	-7.696	-3.569	-3.169	1.752	259.605	0.724	-8191	255	
681.088	1	1	0	0	0.088552	0.18939	0.10796	0.10424	0.15066	0.19436	0.41886	0.30583	0.18343	0.13505	0.32569	0.033453	0.21494	0.17294	0.081611	0.14743	-4.3958	-4.7104	-4.2646	-4.9854	-4.5375	-4.4875	-5.0229	-4.4604	-4.775	-4.7729	-4.3562	-4.8729	-4.4979	-4.5292	-5.0396	-4.4125	164.980	250.237	292.554	-3.312	130.277	92.456	229.000	258.616	98.328	284.827	318.523	-6.360	15.499	234.913	56.857	230.897	0.00048236	0.00024048	6.6841e-05	1369.6	9.5333e-07	1.7281e-06	1368	382.49	1.1495e-06	5.0148e-07	432.92	144.81	126.48	43.721	1.6549e-06	54.096	7.2301e-05	6.3336e-05	1.6633e-05	1200.5	7.6887e-07	6.8451e-07	1169.9	312.31	7.6337e-07	6.8858e-07	339.08	114.19	100.93	34.461	6.565e-07	41.274	58.373	10.104	60.604	-12.060	91.454	89.318	-12.079	-7.422	42.808	282.462	-7.764	-3.444	-2.917	1.448	110.785	0.615	-8191	255	
681.182	1	1	0	0	0.2385	0.12281	0.14098	0.096525	0.17106	0.20593	0.17429	0.097499	0.065801	0.17433	0.40972	0.17451	0.13157	0.10162	0.15606	0.097226	-4.2604	-4.7729	-4.2479	-4.9896	-4.6312	-4.4292	-5.075	-4.5542	-4.6104	-4.8896	-4.2583	-4.9229	-4.7812	-4.4083	-5.0854	-4.6	-16.095	109.826	29.143	14.581	23.695	167.902	0.097	250.904	235.667	203.430	3.295	-23.135	3.082	-15.590	19.597	38.756	0.00043765	0.00019974	4.9102e-05	1369.2	4.6074e-07	9.9919e-08	1363.7	381.5	1.9945e-06	5.8003e-07	434.06	144.2	126.74	43.667	1.0749e-06	53.931	7.1397e-05	6.254e-05	1.6562e-05	1201.7	7.4277e-07	6.6773e-07	1169.6	312.08	7.2088e-07	6.611e-07	338.76	114.24	100.81	34.381	6.5469e-07	41.248	66.606	75.559	84.616	-12.201	192.366	171.755	-12.057	-7.321	130.377	207.611	-8.024	-3.553	-2.881	1.624	88.229	0.601	-8191	255	
681.279	1	1	0	0	0.027093	0.093032	0.2175	0.14095	0.1327	0.12138	0.17033	0.16508	0.098213	0.22255	0.040717	0.076917	0.23057	0.31621	0.068937	0.028117	-4.1958	-4.9125	-4.2354	-4.9062	-4.8083	-4.3979	-5.1854	-4.6875	-4.6604	-4.8479	-4.4604	-4.7604	-4.8958	-4.4146	-4.9521	-4.7458	-15.165	123.789	22.852	48.273	1.055	271.669	-14.652	216.821	288.707	220.615	168.593	263.337	326.521	312.545	98.146	276.615	0.00044596	0.00013657	2.6431e-05	1366.5	3.2812e-07	1.0542e-06	1367	383.54	7.2758e-07	1.6221e-06	434.1	143.52	127.06	43.694	6.5656e-07	54.033	6.7594e-05	6.0487e-05	1.7e-05	1202.9	7.1326e-07	6.6022e-07	1171	312.76	6.9635e-07	6.4864e-07	339.83	114.25	100.65	34.364	6.8296e-07	41.249	54.371	-0.649	50.113	-11.957	165.829	106.353	-12.262	-7.295	-13.860	112.505	-7.994	-3.294	-3.143	1.555	52.808	0.689	-8191	255	
681.375	1	1	0	0	0.089312	0.033112	0.12452	0.26853	0.092924	0.076138	0.25261	0.1373	0.13404	0.16971	0.05133	0.26122	0.27957	0.17633	0.059512	0.23961	-4.0625	-4.8917	-4.3417	-4.8104	-4.7875	-4.2417	-5.0458	-4.6646	-4.5042	-4.9521	-4.6021	-4.7	-4.8354	-4.4229	-4.8542	-4.8021	266.279	328.331	122.223	261.566	56.505	273.526	270.531	301.055	89.825	289.242	148.594	-9.651	17.185	230.926	311.247	222.510	0.0004901	0.00017306	3.8467e-05	1366.4	2.0119e-06	1.1358e-06	1366.6	381.64	3.7441e-07	1.3498e-06	435.07	144.26	126.66	43.837	1.8243e-06	53.84	6.4426e-05	5.8192e-05	1.7773e-05	1201.9	6.9065e-07	6.4026e-07	1171.7	312.07	6.8668e-07	6.4341e-07	340.97	114.18	100.59	34.387	7.4202e-07	41.164	70.048	82.957	102.581	-12.009	163.475	74.116	-12.198	-7.296	35.753	77.036	-8.116	-3.552	-3.184	1.594	117.887	0.665	-8191	255	
681.495	1	1	0	0	0.11858	0.048234	0.25868	0.12608	0.086893	0.096541	0.26967	0.17175	0.096615	0.16011	0.2275	0.028153	0.049321	0.14992	0.047358	0.055298	-4.0188	-4.875	-4.4333	-4.9104	-4.8396	-4.3438	-4.9542	-4.65	-4.4104	-4.8667	-4.6937	-4.5833	-4.9	-4.5563	-4.875	-4.7562	214.802	270.481	7.285	308.402	237.555	64.701	293.691	283.990	109.912	76.356	271.360	294.575	323.507	204.108	227.343	72.366	0.00052812	0.00016794	4.6438e-05	1369.8	1.6568e-06	2.5756e-06	1368.7	381.97	1.6789e-06	1.7802e-06	434.94	144.86	126.82	43.628	5.8545e-07	54.023	6.4089e-05	5.8835e-05	1.9031e-05	1201.5	6.7238e-07	6.4837e-07	1174.8	311.94	6.6361e-07	6.5132e-07	341.36	114.08	100.31	34.353	7.6285e-07	41.107	76.004	32.651	52.617	-12.006	187.145	119.900	-12.197	-7.558	155.421	99.172	-7.913	-3.484	-3.002	1.744	124.309	0.704	-8191	255	
681.592	1	1	0	0	0.13285	0.16238	0.12681	0.24308	0.056633	0.050917	0.16567	0.03127	0.28505	0.12425	0.25089	0.21465	0.10854	0.18948	0.18449	0.13269	-4.0854	-4.7562	-4.6125	-4.5917	-4.9	-4.3854	-4.8792	-4.7833	-4.4229	-4.8208	-4.7292	-4.6729	-5.0208	-4.5292	-4.7833	-4.8313	207.193	212.295	-20.838	270.017	120.729	170.064	217.893	333.992	301.569	308.918	294.472	244.415	273.075	-21.277	298.372	235.544	0.00057225	0.00013566	7.7306e-05	1370.7	1.7504e-06	1.714e-06	1363.9	382.07	6.604e-07	1.6253e-06	434.47	144.44	126.35	43.742	1.0576e-06	53.779	6.2073e-05	6.1705e-05	1.9408e-05	1199.4	6.5474e-07	6.835e-07	1173.9	311.04	6.472e-07	6.9591e-07	341.35	113.81	100.43	34.473	7.633e-07	41.062	58.121	117.180	39.970	-11.981	98.920	164.114	-12.077	-7.392	111.979	93.274	-7.983	-3.665	-3.079	1.715	90.103	0.539	-8191	255	
681.663	1	1	0	0	0.21554	0.080156	0.11102	0.15781	0.26414	0.045758	0.18979	0.039746	0.16606	0.16106	0.15573	0.085751	0.27126	0.31734	0.061559	0.11296	-3.8833	-4.9479	-4.6667	-4.4646	-5.0563	-4.4938	-4.6917	-4.8771	-4.4146	-4.6604	-4.7792	-4.5646	-4.9667	-4.4229	-4.5292	-5.0979	302.794	240.392	73.497	220.551	153.407	30.670	62.556	93.539	-24.945	77.259	245.611	251.670	34.587	305.520	276.894	-24.334	0.00054839	7.4073e-05	4.5359e-05	1369.7	2.1893e-06	1.7683e-06	1366	382.39	5.7662e-07	7.8685e-07	434.07	144.41	126.85	43.721	1.5561e-06	53.94	6.1953e-05	6.7325e-05	1.9262e-05	1202	6.5159e-07	7.407e-07	1173.8	311.59	6.5471e-07	7.4272e-07	340.77	113.91	100.42	34.545	7.2702e-07	41.088	52.575	65.737	12.499	-12.042	112.754	125.086	-12.076	-7.389	150.334	218.131	-8.041	-3.739	-3.010	1.586	116.848	0.703	-8191	255	
681.759	1	1	0	0	0.11003	0.10548	0.14356	0.23806	0.14226	0.043794	0.073816	0.054693	0.17487	0.21947	0.07607	0.035015	0.29525	0.062203	0.17126	0.077783	-4.2396	-4.8979	-4.6708	-4.5271	-4.9375	-4.4938	-4.65	-5.0125	-4.2667	-4.8417	-4.8063	-4.4833	-5.0583	-4.5208	-4.5583	-4.9896	206.600	161.407	145.261	286.556	331.902	71.114	250.839	-22.188	194.883	190.977	276.653	141.178	-13.780	84.876	315.020	242.695	0.00061003	0.00014515	0.00013043	1367.5	1.8418e-06	2.0889e-06	1367.1	382.74	1.0993e-06	2.0199e-06	433.68	144.08	126.24	43.646	1.8943e-06	53.96	6.2854e-05	6.9547e-05	1.8336e-05	1200.1	6.7178e-07	7.6484e-07	1173.5	311.24	6.7436e-07	7.6118e-07	340.06	113.54	100.49	34.585	6.9302e-07	41.038	57.563	71.695	43.834	-12.188	159.979	145.675	-12.146	-7.595	135.987	135.938	-7.921	-3.491	-2.797	1.545	63.633	0.650	-8191	255	
681.880	1	1	0	0	0.33213	0.22311	0.091248	0.2801	0.10608	0.095354	0.20079	0.14097	0.14109	0.17453	0.14777	0.24284	0.25853	0.074421	0.17751	0.26731	-3.925	-4.8292	-4.725	-4.4604	-4.9083	-4.5292	-4.6333	-5.1167	-4.4208	-4.7667	-4.9458	-4.4333	-4.9	-4.7146	-4.4229	-5.075	129.416	81.026	211.191	283.543	59.566	267.141	250.051	262.956	27.103	168.550	304.820	277.806	333.048	123.640	314.722	280.788	0.00071635	0.00023141	5.9753e-05	1366.6	2.3035e-06	7.5253e-07	1368.8	382.77	1.1629e-06	1.9792e-06	435.77	144.39	126.71	43.935	1.6621e-06	54.127	6.6251e-05	6.9482e-05	1.7635e-05	1198.3	7.0897e-07	7.6085e-07	1171.8	311.56	7.2382e-07	7.4908e-07	340.09	113.82	100.84	34.567	6.8029e-07	41.006	61.767	74.311	102.722	-12.130	188.346	10.041	-12.211	-7.451	150.321	113.306	-7.920	-3.485	-2.827	1.413	112.216	0.598	-8191	255	
681.974	1	1	0	0	0.17212	0.16075	0.08536	0.1122	0.12139	0.065138	0.24642	0.18629	0.16184	0.080428	0.099568	0.047417	0.32755	0.31203	0.14634	0.16764	-4.1542	-4.6312	-4.8875	-4.4688	-4.875	-4.525	-4.5687	-5.025	-4.5687	-4.7125	-4.9104	-4.4313	-4.9313	-4.8	-4.4229	-5.1646	20.051	323.167	187.067	269.238	312.920	309.774	217.786	-3.488	223.852	130.404	289.872	45.861	274.919	277.059	295.520	204.544	0.00070321	0.00028	2.5602e-05	1366.1	4.1202e-06	1.29e-06	1368.2	382.8	1.5115e-06	7.5626e-07	434.13	145.23	126.91	43.592	1.3474e-06	53.836	7.0806e-05	6.7096e-05	1.7146e-05	1198.8	7.4973e-07	7.27e-07	1172.3	311.51	7.5681e-07	7.1632e-07	340.01	113.87	100.91	34.492	6.6817e-07	41.09	57.384	35.762	77.283	-12.124	112.298	82.983	-12.074	-7.472	170.684	160.201	-7.955	-3.419	-2.932	1.472	101.695	0.555	-8191	255	
682.072	1	1	0	0	0.11752	0.2735	0.19979	0.098317	0.20423	0.26089	0.20292	0.16613	0.081017	0.17314	0.050064	0.21259	0.26448	0.052156	0.23329	0.041086	-4.2042	-4.5625	-4.8063	-4.5854	-4.725	-4.8063	-4.3583	-5.1104	-4.5729	-4.4146	-5.0958	-4.6146	-4.7979	-4.8	-4.3604	-5.0208	264.437	131.575	178.325	242.726	-3.782	16.857	18.775	210.890	234.845	284.212	195.451	300.128	307.954	-5.983	213.117	114.489	0.00051837	0.00028282	0.00012984	1370.2	2.966e-06	1.4131e-06	1363.6	382.85	2.457e-06	1.3352e-06	432.41	144.15	126.34	43.601	3.1945e-07	54.04	7.3057e-05	6.4661e-05	1.7018e-05	1202.5	7.7324e-07	6.9933e-07	1170.7	311.84	7.6293e-07	6.8102e-07	338.53	113.93	100.76	34.388	6.3258e-07	41.048	62.421	59.510	53.988	-12.058	154.429	35.390	-12.115	-7.257	75.079	94.101	-7.855	-3.216	-2.806	1.524	166.536	0.696	-8191	255	
682.191	1	1	0	0	0.23368	0.23387	0.12558	0.23103	0.084768	0.21586	0.065067	0.096079	0.099905	0.052918	0.13287	0.097976	0.17454	0.20096	0.16657	0.22453	-4.1979	-4.3812	-4.9646	-4.6292	-4.6458	-4.9271	-4.4292	-4.9875	-4.5354	-4.3625	-4.9792	-4.5375	-4.7896	-4.9958	-4.3313	-4.8958	206.206	81.034	216.045	225.900	152.500	184.213	275.712	227.286	132.510	196.988	291.124	298.221	-0.642	297.759	161.618	-23.685	0.00048204	0.00015488	7.0246e-05	1364.1	1.7295e-06	1.3806e-06	1364.9	381.34	3.3592e-07	1.361e-06	434.05	144.52	126.21	43.667	5.4282e-07	54.029	7.0762e-05	6.0638e-05	1.6072e-05	1199.1	7.3535e-07	6.6839e-07	1167.3	311.63	7.3152e-07	6.57e-07	338.97	114.23	100.48	34.318	6.4037e-07	41.212	41.572	-3.545	79.162	-11.950	91.810	125.950	-12.165	-7.659	107.465	76.948	-7.933	-3.334	-2.812	1.586	331.500	0.642	-8191	255	
682.263	1	1	0	0	0.16109	0.14924	0.090873	0.13461	0.19339	0.15661	0.24868	0.18628	0.060507	0.14198	0.2474	0.098383	0.17823	0.088986	0.13164	0.088136	-4.4208	-4.4083	-5.0417	-4.8208	-4.6438	-4.9417	-4.5042	-4.8667	-4.6375	-4.4146	-5.0271	-4.5021	-4.65	-4.9792	-4.4917	-4.8167	46.788	150.441	294.630	253.949	286.524	88.650	-12.766	241.499	253.708	156.395	287.904	52.714	-22.114	267.284	228.143	10.660	0.00049361	9.011e-05	4.6394e-05	1368.9	1.6011e-06	2.5352e-06	1363	381.28	1.8249e-06	1.2813e-06	432.93	143.55	126.54	43.814	1.9509e-06	53.628	6.85e-05	6.0359e-05	1.6607e-05	1201.2	7.181e-07	6.6382e-07	1169.3	312.14	7.1663e-07	6.559e-07	339.19	114.33	100.54	34.343	6.8481e-07	41.176	44.707	-6.006	45.850	-11.928	75.589	66.550	-12.198	-7.419	98.007	89.232	-7.808	-3.439	-3.181	1.449	147.408	0.463	-8191	255	
682.359	1	1	0	0	0.12193	0.065235	0.095224	0.096352	0.19523	0.070002	0.15204	0.19077	0.18925	0.17688	0.20256	0.067434	0.17102	0.10638	0.37688	0.20435	-4.3354	-4.4354	-4.9812	-4.8229	-4.3896	-5.0208	-4.5417	-4.8063	-4.7937	-4.3604	-4.9208	-4.6646	-4.5312	-5.1833	-4.5583	-4.7042	294.260	273.000	134.544	309.355	70.670	218.226	323.538	286.968	291.233	61.822	256.124	305.793	321.494	7.573	229.039	71.780	0.00060481	0.00013237	5.1644e-05	1366.4	1.4562e-06	1.7963e-06	1363.3	381.27	1.3802e-06	8.1526e-07	432.05	144.42	126.65	43.487	7.7921e-07	53.697	6.5788e-05	5.9425e-05	1.7517e-05	1201.8	6.895e-07	6.4415e-07	1171.3	311.92	6.8903e-07	6.4535e-07	339.65	114.25	100.4	34.309	7.3392e-07	41.185	71.300	67.483	125.130	-11.976	119.685	76.841	-11.965	-7.505	46.642	91.892	-7.838	-3.547	-2.951	1.683	124.433	0.679	-8191	255	
682.480	1	1	0	0	0.067993	0.082186	0.083117	0.20854	0.15593	0.1995	0.17171	0.11413	0.10877	0.071658	0.21066	0.11001	0.13772	0.090232	0.10563	0.017575	-4.5479	-4.2875	-4.8417	-4.8708	-4.4938	-4.9521	-4.5021	-4.55	-5.0333	-4.4271	-4.8646	-4.7875	-4.3208	-4.9583	-4.4979	-4.5896	279.109	279.618	106.538	255.687	10.568	0.451	313.770	-13.881	129.160	291.415	287.587	323.167	285.251	97.395	316.769	-3.549	0.00058846	0.00011099	5.2834e-05	1366.3	2.1802e-06	1.9515e-06	1365.2	382.54	1.6603e-07	1.2141e-06	434.94	143.84	126.64	43.582	9.2218e-07	53.635	6.4951e-05	5.9194e-05	1.8869e-05	1200.8	6.8227e-07	6.4728e-07	1173.2	311.9	6.8254e-07	6.4877e-07	340.75	114.04	100.39	34.38	7.7733e-07	40.97	64.609	48.728	121.633	-11.898	128.623	109.164	-12.139	-7.428	307.389	104.596	-8.057	-3.537	-2.901	1.658	73.269	0.642	-8191	255	
682.576	1	1	0	0	0.088205	0.081592	0.11816	0.15581	0.18955	0.066028	0.26937	0.10699	0.11138	0.033274	0.25516	0.20077	0.11176	0.16433	0.073286	0.17081	-4.4187	-4.2583	-4.7208	-4.7937	-4.4563	-4.9812	-4.6813	-4.7729	-4.9313	-4.3979	-4.8812	-4.8271	-4.5292	-4.9542	-4.425	-4.6146	104.321	322.766	162.522	305.229	266.525	330.325	248.861	288.020	140.421	241.392	195.605	216.798	166.148	333.891	169.269	99.692	0.00056783	9.8509e-05	2.9691e-05	1366.1	1.8882e-06	2.0043e-06	1363.1	382.94	1.5384e-06	1.5378e-06	432.7	144.27	126.84	43.602	7.1276e-07	53.992	6.3177e-05	6.1758e-05	1.969e-05	1198.8	6.6957e-07	6.8498e-07	1175.6	311.92	6.7395e-07	6.9863e-07	340.85	113.94	100.4	34.439	7.7816e-07	41.119	65.987	68.495	65.765	-11.983	162.057	142.668	-11.940	-7.449	114.268	149.013	-7.893	-3.510	-3.038	1.533	131.963	0.809	-8191	255	
682.672	1	1	0	0	0.15573	0.097812	0.10116	0.19319	0.1762	0.17891	0.1316	0.29495	0.28375	0.16763	0.15826	0.1352	0.15267	0.16723	0.20328	0.29525	-4.6792	-4.4354	-4.6292	-4.9979	-4.3104	-4.8958	-4.7396	-4.4958	-4.9	-4.35	-4.7833	-4.9333	-4.3979	-4.8542	-4.6604	-4.55	287.039	14.470	221.761	-16.819	263.541	37.207	160.097	251.931	261.069	262.244	133.027	-5.573	189.327	305.635	105.856	299.467	0.00043315	0.00034258	0.00011031	1366	1.9336e-06	1.4547e-06	1364.9	381.18	1.755e-06	2.3212e-06	432.75	144.77	126.49	43.618	5.2914e-07	53.933	6.3009e-05	6.6598e-05	1.9681e-05	1199.9	6.6301e-07	7.3755e-07	1173.6	311.07	6.5986e-07	7.4316e-07	340.79	113.82	100.37	34.549	7.5733e-07	41.078	60.477	123.783	53.597	-12.192	175.014	93.183	-11.925	-7.359	59.473	123.883	-8.009	-3.508	-2.839	1.525	80.391	0.550	-8191	255	
682.793	1	1	0	0	0.13733	0.080052	0.11663	0.045941	0.15242	0.19076	0.2993	0.17107	0.10358	0.27478	0.27075	0.066443	0.2487	0.1152	0.25529	0.10459	-4.5563	-4.2812	-4.6021	-5.0542	-4.4062	-4.6458	-4.8208	-4.3896	-4.7979	-4.4917	-4.7625	-5.0417	-4.4708	-4.7521	-4.8104	-4.3021	129.804	215.154	208.946	16.477	93.306	137.864	312.259	306.588	249.508	97.199	119.222	255.326	296.717	222.947	190.650	279.090	0.00056271	0.0002433	7.1588e-05	1369.7	1.3914e-06	1.9043e-06	1368.8	382.89	5.3537e-07	3.0532e-06	433.96	144.92	126.97	43.816	7.3347e-07	53.981	6.3187e-05	7.1041e-05	1.894e-05	1201	6.7896e-07	7.7741e-07	1176	312.01	6.9553e-07	7.9711e-07	341.02	114.13	100.83	34.701	7.3775e-07	41.103	58.226	72.068	35.242	-12.148	206.311	141.436	-12.349	-7.276	140.023	131.649	-7.839	-3.466	-2.758	1.668	74.136	0.530	-8191	255	
682.887	1	1	0	0	0.02365	0.25126	0.16677	0.32282	0.00057299	0.025419	0.24811	0.096414	0.11072	0.12079	0.10503	0.074868	0.40677	0.12775	0.16555	0.040699	-4.5563	-4.4333	-4.475	-5.225	-4.2625	-4.8187	-4.7646	-4.4792	-4.8688	-4.6667	-4.7208	-5.0167	-4.5521	-4.8562	-4.9396	-4.2937	76.195	243.650	329.266	307.119	180.000	129.527	118.446	282.500	206.599	164.008	294.848	0.531	294.001	279.882	139.768	268.495	0.00067715	0.00017735	2.7856e-05	1368.8	1.667e-06	1.264e-06	1366	382.78	1.0399e-06	1.7553e-06	433.02	144.52	126.88	43.531	8.8481e-07	53.96	6.6534e-05	7.2009e-05	1.7893e-05	1200.8	6.9951e-07	7.504e-07	1171.1	310.75	6.8319e-07	7.3151e-07	338.71	113.48	100.65	34.462	6.6178e-07	40.984	65.876	75.867	305.478	-12.098	188.710	127.438	-12.108	-7.453	107.889	141.155	-7.773	-3.616	-2.996	1.679	132.124	0.444	-8191	255	
682.960	1	1	0	0	0.15944	0.068684	0.12862	0.31286	0.19153	0.067935	0.095419	0.10423	0.22216	0.13018	0.027424	0.1949	0.13534	0.15601	0.10648	0.054625	-4.525	-4.6958	-4.4167	-5.0354	-4.4354	-4.7354	-4.9563	-4.4563	-4.8417	-4.8604	-4.5229	-5.0021	-4.5208	-4.5813	-4.9375	-4.1708	199.620	2.581	275.852	300.752	97.123	128.670	222.632	332.036	5.590	148.788	169.825	190.615	265.660	36.897	41.159	186.694	0.00057628	0.0001761	3.8904e-05	1362.8	2.0971e-06	2.3081e-06	1359.1	381.67	2.0731e-06	1.0439e-06	432.75	144.68	126.31	43.774	6.327e-07	53.997	6.6827e-05	6.6298e-05	1.6809e-05	1195.1	7.2173e-07	7.2248e-07	1167.6	310.22	7.328e-07	7.0727e-07	338.51	113.59	100.62	34.465	6.5123e-07	40.965	79.316	24.909	7.483	-12.091	172.723	58.134	-12.290	-7.329	135.577	130.114	-7.924	-3.489	-2.873	1.549	-13.808	0.588	-8191	255	
683.055	1	1	0	0	0.23574	0.15395	0.072521	0.23653	0.094648	0.21062	0.26742	0.26432	0.046587	0.10431	0.15248	0.26078	0.060678	0.14036	0.046006	0.33371	-4.55	-4.7312	-4.3604	-5.025	-4.4229	-4.6667	-4.9958	-4.3542	-4.7021	-4.7479	-4.4521	-4.975	-4.5083	-4.4729	-4.8854	-4.2625	219.506	69.213	77.687	232.427	116.906	188.559	250.598	246.761	241.081	-11.566	-14.843	288.355	120.630	278.158	215.323	-3.458	0.00055993	0.00011467	3.8711e-05	1365.4	1.8108e-06	1.2195e-06	1367.7	383.72	1.9561e-06	3.4851e-06	432.54	144.5	126.42	43.796	2.5485e-06	53.837	7.0021e-05	6.3828e-05	1.6459e-05	1197	7.5253e-07	6.9171e-07	1170.7	311.48	7.4289e-07	6.8083e-07	338.36	113.9	100.72	34.421	6.2634e-07	41.011	61.505	28.151	10.669	-11.928	148.057	113.530	-12.082	-7.332	128.124	78.734	-8.346	-3.526	-2.969	1.515	66.848	0.689	-8191	255	
683.153	1	1	0	0	0.10348	0.1542	0.045316	0.20436	0.20139	0.21974	0.12058	0.21983	0.0081847	0.055159	0.032706	0.07624	0.16595	0.24436	0.022794	0.15711	-4.2583	-4.6937	-4.3417	-4.8979	-4.4688	-4.4958	-5.0083	-4.5458	-4.6708	-4.9375	-4.4563	-4.8083	-4.5583	-4.4229	-4.9375	-4.4792	48.249	285.659	126.634	281.519	141.736	288.481	280.896	263.460	228.500	41.718	85.791	292.612	306.928	6.102	324.911	220.600	0.00059284	0.00031169	3.8693e-05	1363.3	2.1383e-06	1.4724e-06	1363.7	381.91	1.7147e-06	2.1214e-06	433.91	144.71	126.99	43.768	7.0997e-07	54.046	6.8556e-05	6.1007e-05	1.5835e-05	1197.2	7.408e-07	6.6317e-07	1169.6	311.72	7.442e-07	6.7456e-07	339.09	114.26	101.03	34.417	6.5199e-07	41.276	70.189	-2.458	138.950	-11.985	76.904	87.817	-12.237	-7.458	50.578	109.938	-7.978	-3.617	-3.079	1.544	96.829	0.632	-8191	255	
683.272	1	1	0	0	0.17978	0.20581	0.11751	0.26013	0.28866	0.2304	0.098934	0.12442	0.11166	0.054011	0.15338	0.024073	0.16872	0.22116	0.21439	0.23583	-4.2646	-4.9958	-4.325	-5.1729	-4.5375	-4.6292	-4.9521	-4.4583	-4.6062	-4.8583	-4.2229	-4.8562	-4.7896	-4.3187	-4.9437	-4.5729	39.428	308.990	178.874	314.336	247.085	18.869	-16.197	213.740	218.167	88.492	276.497	294.881	108.612	15.711	157.051	328.148	0.00046462	6.8555e-05	2.9959e-05	1367.8	2.1753e-06	1.6884e-06	1371.7	382.86	1.3129e-06	2.133e-06	434.43	144.5	127.06	43.795	9.0415e-07	54.226	6.8953e-05	6.1336e-05	1.6492e-05	1202.7	7.3603e-07	6.697e-07	1171.7	313.11	7.2541e-07	6.6941e-07	340.5	114.56	100.98	34.485	6.7827e-07	41.419	69.480	41.803	56.565	-12.044	53.497	96.669	-11.984	-7.619	92.589	63.671	-8.065	-3.539	-2.991	1.477	139.313	0.572	-8191	255	
683.368	1	1	0	0	0.12843	0.18078	0.12909	0.2071	0.13201	0.13431	0.22785	0.050343	0.20176	0.14126	0.16264	0.20796	0.17721	0.2329	0.099673	0.17708	-4.1312	-4.8354	-4.475	-4.875	-4.7354	-4.3104	-4.975	-4.5583	-4.5938	-4.975	-4.5938	-4.8854	-4.9229	-4.4479	-4.8083	-4.65	312.155	-9.619	59.502	317.301	303.766	61.502	70.550	264.708	164.446	271.453	55.956	1.627	303.914	40.758	95.250	101.110	0.00052345	5.0641e-05	4.554e-05	1372.3	3.0146e-06	1.996e-07	1363.4	383.03	6.7209e-07	1.8442e-06	434.09	144.66	127.15	43.742	9.39e-07	53.951	6.7964e-05	6.0616e-05	1.752e-05	1207.1	7.0725e-07	6.4773e-07	1174	313.09	6.8523e-07	6.3137e-07	340.28	114.37	100.78	34.397	6.8966e-07	41.29	49.793	16.137	126.909	-12.007	148.737	181.520	-12.279	-7.562	80.200	130.280	-7.895	-3.329	-3.320	1.703	125.330	0.728	-8191	255	
683.464	1	1	0	0	0.23358	0.10519	0.15372	0.086662	0.12428	0.12735	0.17382	0.18844	0.15849	0.12437	0.067023	0.1325	0.32664	0.1574	0.12588	0.031688	-4.0563	-4.9292	-4.4938	-4.8292	-4.8562	-4.3333	-4.9313	-4.6875	-4.4792	-4.8979	-4.5021	-4.6729	-4.925	-4.3354	-4.6292	-4.8646	108.917	171.307	326.097	308.444	37.123	279.621	234.055	52.958	194.669	173.052	174.548	53.771	326.616	317.179	132.591	260.256	0.00049441	0.00011388	4.9349e-05	1368.5	3.222e-07	1.4818e-06	1369.7	383.59	2.9313e-07	7.732e-07	434.6	144.82	127.2	43.785	9.7952e-07	53.937	6.3055e-05	5.7202e-05	1.808e-05	1202	6.674e-07	6.2831e-07	1175.7	312.93	6.6574e-07	6.2596e-07	340.9	114.38	100.66	34.388	7.4034e-07	41.193	74.607	89.467	155.733	-12.028	242.924	123.217	-12.132	-7.549	-20.472	137.982	-7.981	-3.486	-2.989	1.408	56.942	0.732	-8191	255	
683.560	1	1	0	0	0.28269	0.25139	0.1282	0.27851	0.1192	0.11642	0.10674	0.14402	0.047206	0.093006	0.31201	0.086647	0.16021	0.10044	0.20414	0.032956	-3.9542	-4.9125	-4.4208	-4.7396	-5	-4.45	-5.0521	-4.9729	-4.3583	-4.9146	-4.6375	-4.6896	-5.1021	-4.4812	-4.7917	-4.9646	89.124	10.907	325.896	238.940	77.294	107.036	259.211	251.564	192.274	243.422	30.701	116.803	235.061	301.719	28.385	19.714	0.00050251	5.2604e-05	3.876e-05	1368.9	1.2353e-06	1.3508e-06	1373.5	383.44	5.2579e-07	2.1177e-06	435.49	144.75	127.11	43.839	2.1767e-06	53.977	6.2618e-05	5.8795e-05	1.9045e-05	1203.4	6.607e-07	6.4737e-07	1177.7	312.03	6.454e-07	6.4735e-07	341.54	114.03	100.46	34.435	7.2501e-07	41.068	57.586	20.166	71.892	-12.114	77.465	153.136	-12.159	-7.280	141.420	124.405	-7.867	-3.582	-3.026	1.468	71.699	0.529	-8191	255	
683.656	1	1	0	0	0.17356	0.26737	0.042759	0.27385	0.10883	0.10186	0.24194	0.12347	0.19553	0.071756	0.25889	0.21565	0.18864	0.22925	0.07531	0.16636	-4.025	-4.9104	-4.5146	-4.6687	-4.9854	-4.4417	-4.9792	-4.8125	-4.4208	-4.9417	-4.7646	-4.5833	-4.8896	-4.6896	-4.6375	-4.9938	16.494	0.214	223.466	-15.189	270.553	179.580	308.109	-22.692	90.534	-10.280	110.144	23.579	-2.019	8.779	308.347	192.833	0.00053024	0.00022987	2.8326e-05	1370.5	1.8763e-06	1.8974e-06	1366.2	381.75	1.3732e-06	2.9588e-06	433.11	144.84	126.52	43.796	6.9116e-07	54.129	5.8583e-05	6.0067e-05	1.8302e-05	1199	6.1222e-07	6.659e-07	1172.6	310.91	6.0631e-07	6.6393e-07	340.11	113.64	100.24	34.481	6.9967e-07	41.029	44.828	64.649	85.672	-11.942	73.069	141.372	-12.196	-7.482	135.440	153.993	-8.021	-3.402	-3.011	1.620	81.153	0.775	-8191	255	
683.752	1	1	0	0	0.14693	0.20753	0.21299	0.054111	0.094495	0.33788	0.080173	0.084423	0.10638	0.21522	0.27095	0.37497	0.19756	0.13998	0.2366	0.10198	-4.0042	-4.9396	-4.7604	-4.5229	-4.8167	-4.5979	-4.8375	-4.9521	-4.35	-4.8938	-4.7104	-4.6042	-5.0375	-4.6562	-4.7333	-5.0979	19.623	294.005	169.592	15.822	284.130	62.137	161.381	65.252	-5.587	260.390	272.950	304.732	-20.362	145.634	20.950	321.420	0.00057569	0.00018606	5.6056e-05	1370.9	1.7079e-06	2.0588e-06	1367.1	381.64	5.8244e-07	2.2786e-06	433.15	144.5	127.04	43.878	4.2239e-07	54.3	5.7999e-05	6.407e-05	1.7878e-05	1200.2	6.2265e-07	7.0949e-07	1173.6	311.05	6.2013e-07	7.0379e-07	340.17	113.64	100.65	34.599	6.7641e-07	41.048	56.701	82.840	60.700	-11.918	119.053	175.261	-12.268	-7.446	142.400	170.698	-8.026	-3.481	-3.019	1.629	83.509	0.594	-8191	255	
683.873	1	1	0	0	0.2351	0.12144	0.2759	0.21587	0.083194	0.095257	0.18271	0.035263	0.077563	0.048801	0.12111	0.26841	0.21726	0.18472	0.087906	0.096424	-3.8896	-4.6208	-4.7042	-4.6021	-4.9688	-4.4271	-4.7396	-5.1604	-4.2958	-4.8354	-4.8646	-4.5146	-5.1229	-4.7583	-4.5646	-4.9604	13.831	147.096	28.163	268.200	330.608	93.048	290.723	163.275	129.477	283.433	316.199	228.555	325.189	295.223	177.170	206.491	0.00067924	0.00028906	3.7127e-05	1372.6	2.9279e-06	1.0957e-06	1364.4	382.49	1.6934e-06	1.0192e-06	432.88	144.29	126.94	43.579	7.4567e-07	53.719	6.1015e-05	6.6548e-05	1.7097e-05	1201.4	6.4091e-07	7.1023e-07	1170.2	310.72	6.1765e-07	6.7117e-07	338.15	113.07	100.15	34.339	5.8399e-07	40.695	67.033	30.016	60.615	-11.960	161.361	148.052	-12.157	-7.455	162.945	171.609	-7.990	-3.527	-3.009	1.434	65.851	0.860	-8191	255	
683.967	1	1	0	0	0.17731	0.21129	0.063684	0.083213	0.11767	0.25257	0.27585	0.041036	0.053169	0.11814	0.30715	0.05075	0.023876	0.1007	0.11752	0.074937	-4.1188	-4.7333	-4.8313	-4.475	-4.7875	-4.8042	-4.5479	-5.1333	-4.4833	-4.6479	-4.8667	-4.475	-4.7854	-4.7333	-4.4062	-5.0042	250.585	201.308	285.564	251.017	315.862	167.537	242.279	176.664	185.394	6.090	252.399	55.110	172.846	261.092	1.595	268.144	0.00056707	0.00019737	4.5481e-05	1362.7	1.6067e-06	5.6919e-07	1361.9	381.58	2.8135e-06	2.0319e-06	432.21	144.05	127.72	43.72	1.7347e-06	53.69	5.8052e-05	5.913e-05	1.479e-05	1190.3	6.2464e-07	6.477e-07	1165.2	309.53	6.6137e-07	6.6621e-07	338.67	113.57	101.02	34.462	6.553e-07	40.95	53.586	41.015	51.954	-11.980	140.812	44.049	-11.978	-7.530	169.614	57.778	-7.785	-3.524	-2.743	1.463	124.106	0.768	-8191	255	
684.063	1	1	0	0	0.064781	0.15205	0.042817	0.12423	0.029339	0.23329	0.30945	0.20704	0.16645	0.13707	0.059154	0.041586	0.15745	0.17404	0.077829	0.039473	-4.1021	-4.5729	-4.8729	-4.6021	-4.925	-4.6292	-4.5083	-5.0729	-4.6062	-4.6333	-5.0437	-4.3812	-4.7896	-4.8521	-4.4062	-5.0188	46.545	80.066	241.613	3.042	150.021	129.971	241.026	263.273	251.044	42.355	279.505	195.023	305.630	3.367	237.141	282.450	0.00055272	0.00010134	2.8794e-05	1372.3	1.3292e-06	2.7551e-06	1365.3	383	2.5516e-06	1.0762e-06	435.12	144.85	127.8	43.812	8.0443e-07	54.187	6.9382e-05	6.4105e-05	1.6352e-05	1201.8	7.2754e-07	6.8224e-07	1171.7	311	7.1577e-07	6.5638e-07	338.88	113.7	101	34.392	6.054e-07	41.038	76.439	19.619	54.377	-11.985	194.788	107.333	-12.236	-7.427	132.264	105.268	-7.913	-3.428	-2.781	1.787	113.287	0.546	-8191	255	
684.160	1	1	0	0	0.06887	0.085207	0.34886	0.22943	0.051327	0.19069	0.24731	0.12931	0.15083	0.017479	0.17472	0.068521	0.10362	0.35721	0.1364	0.1231	-4.2542	-4.5938	-4.9187	-4.5146	-4.7104	-4.7104	-4.4146	-4.8896	-4.5458	-4.5146	-4.8958	-4.5625	-4.7458	-4.8604	-4.3042	-4.9187	53.852	219.699	90.231	296.519	259.890	-16.187	227.923	-23.451	249.047	227.048	318.333	7.480	284.852	262.133	176.177	212.213	0.00058462	0.0001983	3.968e-05	1368.4	1.5282e-06	2.6344e-06	1368	382.77	1.0144e-06	1.2026e-06	433.41	144.73	126.96	43.607	9.1325e-07	53.873	6.7406e-05	5.8854e-05	1.5447e-05	1199.6	7.1478e-07	6.4658e-07	1170.7	311.72	7.2505e-07	6.4884e-07	338.12	113.97	100.84	34.313	5.9545e-07	41.088	74.315	31.113	49.707	-11.955	150.424	110.431	-12.235	-7.320	137.057	124.307	-7.977	-3.330	-2.884	1.621	137.221	0.566	-8191	255	
684.256	1	1	0	0	0.04123	0.13621	0.2472	0.22422	0.074402	0.095529	0.049629	0.12735	0.089587	0.090897	0.22181	0.2526	0.11422	0.21741	0.22389	0.13283	-4.2042	-4.3458	-4.8542	-4.5271	-4.7875	-4.8187	-4.4917	-4.7604	-4.7604	-4.3625	-4.8792	-4.6417	-4.6125	-5.0646	-4.3875	-4.9167	36.878	6.202	-8.864	292.019	292.961	273.565	52.917	-2.480	314.268	196.959	112.401	226.889	284.231	-3.448	117.131	221.397	0.0005666	7.5991e-05	8.1277e-05	1362.6	1.2648e-06	1.9583e-06	1363.4	382.69	1.3717e-06	1.8279e-06	434.23	144.26	127.03	43.901	9.3618e-07	54.136	6.4658e-05	5.6052e-05	1.489e-05	1197.3	6.6789e-07	6.0971e-07	1165.5	311.88	6.802e-07	6.2302e-07	338.39	114.3	100.74	34.421	6.4573e-07	41.388	62.371	164.600	39.382	-11.742	104.160	42.990	-12.254	-7.349	-24.077	124.038	-7.997	-3.427	-3.000	1.469	159.393	0.588	-8191	255	
684.352	1	1	0	0	0.21962	0.11103	0.095791	0.23438	0.1223	0.17742	0.28846	0.16651	0.128	0.080508	0.090926	0.24299	0.21078	0.14417	0.06858	0.23456	-4.3125	-4.4125	-5.0062	-4.6104	-4.5062	-4.9375	-4.6479	-4.9854	-4.8333	-4.3146	-4.9396	-4.5604	-4.5354	-5.1208	-4.3875	-4.7312	107.025	268.366	323.612	231.351	32.476	227.732	276.486	171.002	217.966	51.936	254.097	296.955	276.440	210.433	37.293	231.191	0.00049031	0.00010422	4.9437e-05	1376.2	9.8187e-07	1.2875e-06	1374.6	384.3	1.3784e-06	3.314e-07	436.34	144.34	127.45	43.627	2.9177e-06	53.948	6.7293e-05	6.149e-05	1.6999e-05	1210.9	7.2361e-07	6.68e-07	1177.8	314.28	7.1587e-07	6.5834e-07	341.06	114.68	100.95	34.393	6.9787e-07	41.368	66.802	70.704	99.252	-11.943	153.019	64.367	-12.123	-7.447	42.691	50.773	-8.003	-3.560	-2.951	1.717	159.463	0.572	-8191	255	
684.448	1	1	0	0	0.18053	0.085505	0.086931	0.15771	0.099948	0.17459	0.10688	0.24754	0.16266	0.14231	0.36701	0.14915	0.26506	0.05015	0.30064	0.43344	-4.6562	-4.3375	-4.7917	-4.7771	-4.4896	-4.9833	-4.6229	-4.8146	-4.8396	-4.2354	-5.0021	-4.7458	-4.6083	-4.9958	-4.4187	-4.7	316.929	110.715	99.452	259.991	286.835	12.346	181.476	18.556	138.016	127.399	250.721	-10.384	289.098	37.929	252.160	278.392	0.00047439	0.0001112	0.00011296	1373.4	1.2286e-06	1.815e-06	1372	383.7	1.2818e-06	2.3328e-06	436.49	144.94	126.8	43.593	2.0852e-06	54.256	6.4611e-05	5.8243e-05	1.7687e-05	1208.8	6.6852e-07	6.2286e-07	1176.6	312.97	6.4971e-07	6.1352e-07	340.89	114.18	100.55	34.367	7.079e-07	41.231	61.517	44.897	120.450	-12.081	92.975	74.252	-12.149	-7.343	156.287	134.324	-7.926	-3.648	-2.952	1.577	136.023	0.694	-8191	255	
684.569	1	1	0	0	0.15375	0.28818	0.054466	0.18504	0.27618	0.020998	0.24412	0.27491	0.061849	0.17443	0.25022	0.13377	0.24091	0.14563	0.22997	0.092369	-4.3333	-4.3229	-4.9292	-4.8646	-4.3938	-4.8729	-4.5521	-4.5646	-4.9583	-4.375	-4.7958	-4.7521	-4.6521	-5.0396	-4.3938	-4.6583	316.273	289.338	164.925	253.703	168.373	-9.903	238.903	245.031	87.382	19.486	-7.068	296.159	217.344	235.412	159.306	53.738	0.00053836	0.00019521	5.3971e-05	1372.8	2.7097e-06	1.7019e-06	1372.8	384.19	1.6232e-06	1.1692e-06	434.65	144.87	127.1	43.739	1.2237e-06	54.172	6.1457e-05	5.6706e-05	1.8285e-05	1205.6	6.547e-07	6.3981e-07	1180.1	312.91	6.5558e-07	6.5003e-07	341.98	114.41	100.8	34.433	7.5031e-07	41.178	60.126	66.782	93.162	-12.075	107.767	122.850	-12.133	-7.253	51.578	161.097	-7.776	-3.540	-3.025	1.602	142.515	0.144	-8191	255	
684.665	1	1	0	0	0.073699	0.020594	0.16424	0.2176	0.20574	0.21359	0.053707	0.12887	0.039131	0.12971	0.12217	0.051011	0.15171	0.12233	0.1171	0.046414	-4.4688	-4.1875	-4.9062	-4.775	-4.3458	-4.9042	-4.5938	-4.4979	-4.9062	-4.4708	-4.725	-4.8438	-4.4396	-4.95	-4.6521	-4.7021	309.676	203.925	218.331	-17.044	140.888	34.150	275.907	317.729	-9.852	92.778	252.236	101.515	-1.851	234.032	77.349	268.536	0.00057768	0.00014635	8.4405e-05	1370.9	2.9464e-07	2.209e-06	1370.1	383.09	1.1314e-06	2.5853e-06	433.86	144.62	127.13	43.641	1.3249e-06	53.877	6.0391e-05	5.9741e-05	1.8725e-05	1203.3	6.2885e-07	6.5863e-07	1177.4	311.87	6.1837e-07	6.6243e-07	341.04	113.86	100.52	34.47	7.0263e-07	41.048	59.448	102.980	46.856	-12.021	317.021	143.685	-12.338	-7.695	161.744	183.819	-8.030	-3.452	-3.173	1.484	80.304	0.707	-8191	255	
684.761	1	1	0	0	0.19846	0.10478	0.20247	0.26155	0.10617	0.13903	0.24238	0.058433	0.16712	0.077338	0.089745	0.13958	0.20626	0.15919	0.077304	0.068562	-4.6167	-4.3958	-4.6125	-5.0646	-4.4875	-4.8167	-4.7354	-4.5729	-4.9187	-4.525	-4.8625	-5.0563	-4.5875	-5.0062	-4.6854	-4.5312	185.806	38.380	90.265	270.354	8.110	142.788	166.075	320.751	260.631	229.427	314.989	231.482	24.236	237.120	27.949	11.169	0.00044961	0.00011604	6.1996e-05	1374.4	4.9986e-07	1.3327e-06	1372.8	383.63	1.5864e-06	1.4775e-06	435.77	144	127.31	43.635	9.8763e-07	54.266	5.7484e-05	6.2237e-05	1.7851e-05	1202.5	6.263e-07	7.0768e-07	1177.5	312.22	6.4455e-07	7.5007e-07	342.03	114.09	100.97	34.655	7.4568e-07	41.296	67.093	104.440	57.278	-12.032	194.019	139.219	-12.235	-7.404	134.548	172.163	-7.947	-3.516	-2.974	1.551	84.212	0.523	-8191	255	
684.833	1	1	0	0	0.19353	0.14281	0.1383	0.26422	0.064062	0.11679	0.35213	0.23565	0.19048	0.25741	0.12296	0.19666	0.34512	0.040615	0.27177	0.12733	-4.4792	-4.4833	-4.7562	-4.9521	-4.3417	-4.7521	-4.8771	-4.4625	-4.8604	-4.5792	-4.5458	-5.0292	-4.5125	-4.8875	-4.7625	-4.4812	50.265	26.567	87.424	-22.361	119.672	13.216	312.417	274.807	-20.461	149.229	26.751	99.126	-19.847	20.763	-21.533	301.838	0.00056062	0.00015214	4.3886e-05	1373.5	3.0778e-06	1.8152e-06	1373.8	382.94	1.4407e-06	2.3426e-06	434.84	144.6	127.16	43.735	8.5675e-07	53.894	6.4154e-05	6.9825e-05	1.8088e-05	1205.7	6.52e-07	7.3179e-07	1176.9	311.36	6.2257e-07	6.9206e-07	339.46	113.38	100.28	34.399	5.9586e-07	40.807	66.179	48.842	56.656	-12.069	151.750	42.548	-12.244	-7.551	135.937	110.795	-7.994	-3.706	-3.001	1.741	121.406	0.584	-8191	255	
684.952	1	1	0	0	0.17725	0.069972	0.22626	0.36428	0.10167	0.10275	0.05227	0.048068	0.14686	0.15268	0.16344	0.16078	0.16484	0.014423	0.18132	0.249	-4.5188	-4.525	-4.5125	-5.0417	-4.5188	-4.8521	-5.0208	-4.4812	-5.0188	-4.6937	-4.6083	-5.1271	-4.5917	-4.8125	-4.7104	-4.3917	44.020	-20.596	158.930	283.597	81.088	296.542	135.067	239.086	293.782	256.049	-1.077	-2.675	288.007	223.871	76.177	329.410	0.00066865	0.00012595	2.8265e-05	1368.9	1.824e-06	6.1845e-07	1366.6	382.07	9.8395e-07	1.2236e-06	433	143.91	126.86	43.68	1.3838e-06	53.923	5.6549e-05	5.9608e-05	1.494e-05	1194.7	6.1209e-07	6.4955e-07	1167.8	309.94	6.2026e-07	6.4598e-07	338.01	113.08	100.4	34.346	5.7833e-07	40.755	57.915	41.694	334.599	-11.984	182.273	92.520	-11.986	-7.240	148.989	78.391	-7.873	-3.409	-2.759	1.572	121.765	0.627	-8191	255	
685.048	1	1	0	0	0.18849	0.12472	0.15927	0.16885	0.19888	0.12748	0.36165	0.10374	0.084472	0.025582	0.0893	0.10147	0.31394	0.1912	0.28091	0.35499	-4.6292	-4.4812	-4.3875	-5.0146	-4.6354	-4.6833	-5.0083	-4.4625	-4.7438	-4.6771	-4.4146	-4.9792	-4.6042	-4.7604	-4.9313	-4.5167	251.665	303.483	320.784	263.721	288.005	127.778	265.767	294.655	216.348	289.047	269.265	318.789	282.959	224.243	135.956	244.451	0.00063212	0.00011794	2.1726e-05	1365.3	1.5253e-06	1.5788e-07	1367.9	383.09	9.0914e-07	1.9689e-06	434.45	144.51	126.85	43.828	1.2413e-06	53.932	5.9413e-05	5.739e-05	1.456e-05	1192.5	6.4933e-07	6.3005e-07	1166.6	310.36	6.7252e-07	6.3703e-07	338.07	113.39	100.71	34.413	5.9246e-07	40.889	74.349	51.927	110.964	-12.039	147.604	55.755	-12.270	-7.222	188.798	105.107	-8.007	-3.403	-2.829	1.445	55.900	0.725	-8191	255	
685.144	1	1	0	0	0.13795	0.2032	0.22476	0.10269	0.12375	0.17668	0.017728	0.16224	0.073875	0.093556	0.132	0.059509	0.30794	0.1221	0.08299	0.13896	-4.4771	-4.7896	-4.5375	-5.1021	-4.5646	-4.6917	-5.125	-4.4604	-4.6625	-4.8792	-4.4208	-4.9542	-4.6583	-4.5917	-5.0062	-4.3979	1.679	216.776	175.221	213.667	193.738	280.962	33.651	154.913	-17.498	243.279	301.076	288.929	328.437	76.318	278.820	285.010	0.00049388	4.8097e-05	1.0976e-05	1367.3	1.9277e-06	1.8198e-06	1371.1	383.65	6.2271e-07	5.7865e-07	434.29	144.41	127.35	43.908	2.3372e-06	54.155	6.5172e-05	5.7409e-05	1.5104e-05	1199.1	6.9329e-07	6.2987e-07	1171.1	311.59	6.8915e-07	6.1926e-07	338.6	113.83	101.05	34.402	5.7969e-07	41.066	48.392	154.698	-22.310	-11.952	133.375	52.285	-12.186	-7.259	124.904	44.867	-8.107	-3.469	-2.941	1.619	84.379	0.704	-8191	255	
685.242	1	1	0	0	0.10802	0.11169	0.23539	0.2959	0.20897	0.19347	0.11002	0.24251	0.13588	0.16333	0.32135	0.25174	0.17986	0.21757	0.096081	0.039825	-4.425	-4.7271	-4.2896	-5.0458	-4.6188	-4.5917	-4.9729	-4.5229	-4.7479	-4.9521	-4.4458	-4.8792	-4.8542	-4.4542	-4.8771	-4.5917	-4.550	89.995	65.526	281.857	38.312	79.864	180.059	2.433	109.893	123.035	307.284	5.736	29.297	41.429	66.207	151.171	0.00049701	3.2587e-05	6.4641e-05	1366.9	2.1294e-06	1.5272e-06	1368.4	383.96	1.8973e-06	2.1709e-06	434.71	144.98	127.27	43.749	6.4201e-07	54.217	6.3994e-05	5.5942e-05	1.4558e-05	1200.7	6.5937e-07	5.8803e-07	1169.1	311.84	6.2828e-07	5.7115e-07	337.63	113.87	100.45	34.306	5.4939e-07	41.077	72.997	282.198	54.833	-12.185	156.298	91.791	-12.290	-7.301	316.649	79.536	-7.832	-3.299	-2.763	1.557	38.067	0.669	-8191	255	
685.361	1	1	0	0	0.11029	0.27844	0.19192	0.27716	0.1123	0.16099	0.25529	0.21673	0.15359	0.15162	0.11463	0.13009	0.14387	0.036257	0.063372	0.10937	-4.3292	-4.7833	-4.2625	-5.1833	-4.7479	-4.5021	-5.1729	-4.6104	-4.5792	-5.0208	-4.5417	-4.9521	-4.725	-4.2896	-5.0312	-4.6792	270.432	235.783	241.788	288.639	24.545	221.780	230.390	102.379	-21.451	59.822	135.357	182.117	250.478	-22.418	113.758	256.746	0.00061013	0.00023604	3.0859e-05	1372.3	1.4933e-06	1.0931e-06	1366.3	383.11	1.2257e-06	5.6029e-07	434.65	144.77	127.34	43.933	2.7454e-06	54.103	5.8467e-05	5.2214e-05	1.4267e-05	1201	6.1716e-07	5.6484e-07	1168.5	311.85	6.0748e-07	5.6862e-07	338.29	114.16	100.55	34.377	6.1767e-07	41.243	61.435	60.797	123.737	-11.995	119.294	62.854	-12.128	-7.305	115.874	281.905	-7.913	-3.301	-3.086	1.672	136.994	0.763	-8191	255	
685.432	1	1	0	0	0.14262	0.23388	0.11681	0.18422	0.19028	0.015155	0.20036	0.10575	0.14829	0.14279	0.058771	0.19265	0.2286	0.2388	0.12424	0.12556	-4.1792	-5.1562	-4.3625	-5.0646	-4.8125	-4.5333	-5.1	-4.7312	-4.5896	-5.0312	-4.625	-4.7708	-4.8292	-4.3333	-4.8896	-4.7625	73.322	113.590	254.682	283.751	51.859	236.101	275.229	69.106	107.549	219.598	31.496	207.445	323.830	268.419	203.144	243.652	0.00056113	0.0001588	2.0488e-05	1371.9	2.0935e-06	1.1933e-06	1370.4	384.77	1.9764e-06	9.6856e-07	435.97	144.21	127.45	43.706	2.6398e-06	54.13	6.0925e-05	5.5079e-05	1.6524e-05	1204.6	6.5268e-07	6.0506e-07	1174.8	312.89	6.3724e-07	5.9753e-07	340.69	114.18	100.81	34.317	6.7763e-07	41.254	60.759	-18.970	128.009	-12.069	140.938	26.623	-12.226	-7.369	102.752	110.450	-7.924	-3.482	-3.070	1.590	133.829	0.565	-8191	255	
685.553	1	1	0	0	0.14661	0.17974	0.082211	0.17999	0.0139	0.17828	0.15182	0.13897	0.24534	0.19527	0.15293	0.066053	0.13972	0.16263	0.15999	0.18162	-4.1979	-4.9208	-4.4708	-4.7229	-4.8292	-4.2896	-5.0625	-4.5437	-4.3292	-4.9083	-4.6417	-4.7604	-4.8771	-4.5083	-4.7167	-4.8	272.231	15.382	259.381	11.207	242.326	332.114	264.291	299.547	56.669	57.673	58.351	207.662	39.832	273.353	60.608	203.801	0.00063423	0.00019596	9.8834e-05	1377.5	1.9011e-06	2.6652e-06	1372.8	383.01	3.4184e-07	6.7251e-07	435.26	144.73	127.06	43.831	9.0914e-07	54.238	6.0097e-05	5.5242e-05	1.7624e-05	1205.9	6.303e-07	6.0246e-07	1176.9	312.43	6.2554e-07	5.9838e-07	341.13	114.1	100.61	34.404	6.868e-07	41.113	52.243	88.773	88.565	-12.057	117.641	83.140	-12.171	-7.312	119.332	145.618	-7.860	-3.425	-2.991	1.743	170.254	0.528	-8191	255	
685.649	1	1	0	0	0.23823	0.18865	0.21773	0.22989	0.10051	0.19858	0.12365	0.11723	0.14197	0.059226	0.21866	0.21667	0.18449	0.18858	0.15269	0.21653	-3.9917	-5.0396	-4.5625	-4.6771	-4.9271	-4.3521	-4.8729	-4.6833	-4.3688	-5.0396	-4.6625	-4.675	-5.1333	-4.4604	-4.7	-4.925	320.684	-22.878	179.076	300.242	-1.048	61.435	188.044	286.001	209.207	41.879	34.754	324.878	-12.648	326.023	117.211	171.648	0.00065012	0.00023195	5.9168e-05	1375.5	2.4455e-06	1.2901e-06	1372.9	383.3	1.2069e-06	1.4716e-06	436.13	145.14	127.32	43.943	2.0983e-06	54.081	5.7426e-05	5.5177e-05	1.7896e-05	1204.5	6.0491e-07	6.2249e-07	1179.2	312.13	6.096e-07	6.3451e-07	341.68	114.2	100.66	34.511	7.0728e-07	41.113	62.993	86.224	74.661	-11.924	157.379	107.394	-12.184	-7.430	186.765	192.787	-8.154	-3.436	-2.970	1.676	101.066	0.688	-8191	255	
685.745	1	1	0	0	0.12279	0.15377	0.080771	0.29673	0.18903	0.18678	0.061944	0.12481	0.32769	0.07882	0.046075	0.017631	0.13704	0.096194	0.093312	0.11533	-3.9604	-4.7562	-4.5771	-4.5229	-4.8896	-4.4583	-4.8187	-4.8667	-4.3	-4.825	-4.9688	-4.3333	-5.0188	-4.4667	-4.7354	-4.9271	150.854	-9.102	159.430	322.056	74.947	232.173	271.244	-7.496	22.681	176.728	75.517	220.856	313.158	275.778	133.106	293.573	0.00041775	0.00011049	1.8877e-05	1376.9	2.191e-06	2.0641e-06	1369.4	384	1.6804e-06	1.0563e-06	434.47	144.35	126.98	43.75	1.4031e-06	54.252	5.7403e-05	6.0062e-05	1.7872e-05	1203.9	6.0297e-07	6.6483e-07	1176.3	311.88	5.9288e-07	6.6655e-07	341.01	113.79	100.56	34.539	6.676e-07	41.066	43.448	126.418	73.311	-12.047	138.522	145.567	-12.016	-7.328	148.725	130.205	-7.994	-3.530	-2.948	1.728	84.159	0.861	-8191	255	
685.841	1	1	0	0	0.10398	0.14573	0.026711	0.20229	0.19228	0.12214	0.25361	0.18413	0.21763	0.25396	0.22381	0.065984	0.14623	0.13939	0.083474	0.23738	-3.8208	-4.7604	-4.7271	-4.4688	-4.7583	-4.5583	-4.6021	-5.0875	-4.4604	-4.7583	-4.7771	-4.5312	-4.9938	-4.6167	-4.6354	-4.9167	285.840	216.408	70.599	310.320	79.800	55.412	324.335	247.902	330.047	-6.147	-22.407	257.382	56.519	7.123	7.086	173.254	0.00054711	0.00029462	8.9479e-05	1370	1.8849e-06	1.0979e-06	1372.1	383.52	1.4872e-06	2.69e-07	434.7	144.53	126.91	44.034	1.1304e-06	53.82	5.6972e-05	6.2814e-05	1.6955e-05	1201.8	6.0633e-07	7.0192e-07	1175.8	311.75	6.1328e-07	6.9426e-07	339.89	113.68	100.62	34.61	6.3167e-07	40.937	55.438	45.303	51.222	-11.999	142.600	76.805	-12.118	-7.417	129.607	287.853	-8.138	-3.495	-2.997	1.690	88.146	0.616	-8191	255	
685.962	1	1	0	0	0.24897	0.16058	0.17513	0.22422	0.18717	0.23279	0.1206	0.20303	0.12149	0.16773	0.23535	0.22666	0.17967	0.16218	0.083648	0.19239	-4.0729	-4.7125	-4.6979	-4.3688	-5.0687	-4.6062	-4.7021	-5.0604	-4.4583	-4.7375	-4.8375	-4.4812	-5.0208	-4.5813	-4.3458	-4.9104	203.909	28.316	196.301	302.716	-15.366	150.938	227.534	11.290	145.651	31.105	26.048	10.719	156.216	263.570	22.762	188.769	0.00062425	0.00019321	7.7567e-05	1371.3	2.2021e-06	1.369e-06	1371.7	383.95	8.2201e-07	5.5377e-07	432.71	144.22	127.24	44.006	1.2232e-06	54.108	5.8699e-05	6.2426e-05	1.5918e-05	1200.7	6.2789e-07	6.8543e-07	1173	310.98	6.2953e-07	6.6877e-07	338.74	113.42	100.6	34.517	6.0259e-07	40.885	59.939	24.400	28.086	-12.009	167.431	72.369	-11.959	-7.498	115.025	167.525	-8.181	-3.468	-2.968	1.630	80.033	0.708	-8191	255	
686.056	1	1	0	0	0.14519	0.067396	0.21116	0.099045	0.13163	0.19717	0.26639	0.19124	0.065056	0.039686	0.25866	0.24187	0.040886	0.083483	0.1698	0.12351	-4.1375	-4.7229	-5.0146	-4.4042	-4.9833	-4.7521	-4.5	-5.0271	-4.3896	-4.7292	-4.9354	-4.4021	-4.9583	-4.7667	-4.3854	-4.9854	302.089	189.352	289.176	63.544	49.677	299.667	324.517	318.760	-14.845	278.262	-10.520	299.050	319.368	185.122	149.488	25.007	0.00058269	0.00023195	3.0103e-05	1372.8	1.6025e-06	1.3175e-06	1372.7	384.05	1.952e-06	1.6089e-06	434.15	145.23	127.62	43.741	2.0307e-06	53.989	6.1193e-05	6.042e-05	1.5339e-05	1199.5	6.5702e-07	6.5228e-07	1171.4	310.49	6.6006e-07	6.4041e-07	338.8	113.59	100.74	34.412	5.9596e-07	40.837	64.230	112.775	46.546	-11.904	161.862	111.501	-12.214	-7.464	145.991	109.594	-7.929	-3.534	-2.798	1.539	67.676	0.521	-8191	255	
686.130	1	1	0	0	0.11987	0.15477	0.32707	0.075848	0.078257	0.19452	0.14672	0.19419	0.054479	0.24182	0.10024	0.16873	0.084951	0.059845	0.016643	0.10441	-4.1833	-4.5625	-4.8271	-4.4958	-4.8042	-4.6792	-4.5021	-5.0875	-4.5083	-4.4208	-4.9292	-4.4313	-4.8292	-4.8375	-4.3333	-4.875	313.444	53.755	214.906	246.226	89.270	-15.617	332.724	266.246	150.496	-6.898	283.444	309.920	4.132	305.301	144.289	229.847	0.00056672	0.00014157	2.7376e-05	1369.6	1.4345e-06	1.4211e-06	1372.9	382.24	1.6054e-06	9.1855e-07	434.6	145.09	127.1	43.901	2.0755e-06	53.972	6.4053e-05	5.7867e-05	1.497e-05	1197.7	6.7476e-07	6.2824e-07	1170.7	310.74	6.8385e-07	6.1915e-07	338.13	113.77	100.89	34.417	5.8201e-07	40.972	66.492	49.843	133.661	-11.906	100.820	22.592	-12.266	-7.286	121.919	189.951	-7.822	-3.671	-2.993	1.649	86.920	0.425	-8191	255	
686.249	1	1	0	0	0.19879	0.07573	0.068611	0.18268	0.094084	0.11084	0.080722	0.14048	0.19528	0.18561	0.22444	0.081949	0.29701	0.26213	0.19418	0.071701	-4.2312	-4.5521	-4.8771	-4.3583	-4.5312	-4.7667	-4.4667	-4.9479	-4.5333	-4.5479	-5.1667	-4.5542	-4.8313	-4.9563	-4.3313	-4.9854	41.755	121.854	293.647	-21.620	235.348	119.550	288.159	271.851	214.820	2.466	15.341	290.326	29.470	-13.822	160.325	168.658	0.00043527	0.00031031	7.5275e-06	1370.4	7.2882e-07	1.3778e-06	1367.3	383.34	1.1437e-06	7.8424e-07	433.85	144.68	127.16	43.809	1.7207e-06	54.068	6.4249e-05	5.6524e-05	1.4786e-05	1200.8	6.8037e-07	6.1347e-07	1170.6	311.94	6.8434e-07	6.089e-07	338.92	113.98	100.97	34.39	5.8832e-07	41.16	59.505	37.158	306.574	-11.854	113.316	64.857	-12.248	-7.344	35.452	104.146	-7.872	-3.479	-3.043	1.512	84.238	0.453	-8191	255	
686.345	1	1	0	0	0.013356	0.13183	0.078503	0.050637	0.19692	0.12572	0.25289	0.096882	0.059415	0.22938	0.19763	0.11661	0.096797	0.12567	0.11995	0.20769	-4.2271	-4.4229	-4.9	-4.6333	-4.5667	-4.9083	-4.4729	-4.9167	-4.6771	-4.4354	-5.0146	-4.7042	-4.5167	-4.9458	-4.3354	-4.9625	310.787	141.700	106.670	259.162	128.101	161.287	247.441	319.308	125.115	71.747	256.914	60.203	245.657	155.036	294.164	238.498	0.00054577	0.00023363	5.8742e-05	1371.4	2.1303e-06	1.5422e-06	1367.8	383.19	8.5083e-07	8.1486e-07	435.48	144.98	127.55	43.86	9.0209e-07	54.174	6.3298e-05	5.5464e-05	1.4819e-05	1203.3	6.4921e-07	5.9608e-07	1169.5	311.85	6.4583e-07	5.9354e-07	338.22	114.27	100.71	34.335	6.0027e-07	41.189	41.778	29.714	65.208	-11.977	94.491	74.699	-12.121	-7.240	37.183	134.383	-7.941	-3.533	-3.165	1.521	161.475	0.616	-8191	255	
686.441	1	1	0	0	0.17703	0.059665	0.12539	0.094425	0.33491	0.066271	0.10132	0.041053	0.17172	0.18582	0.10476	0.17035	0.33923	0.055992	0.26617	0.11863	-4.4313	-4.3792	-4.95	-4.6833	-4.4083	-4.8917	-4.5125	-4.7625	-4.8896	-4.3562	-5.0687	-4.7812	-4.6125	-4.9042	-4.3438	-4.8792	32.552	304.525	192.102	73.834	305.536	88.682	291.458	20.100	60.752	75.276	169.535	154.146	235.541	308.485	267.332	151.854	0.00052437	9.4008e-05	8.674e-05	1365.3	2.278e-06	1.7619e-06	1366.4	381.77	1.2724e-06	1.0364e-06	435.02	144.82	127.01	43.906	1.9446e-06	53.95	6.0111e-05	5.4049e-05	1.5452e-05	1200.8	6.2295e-07	5.77e-07	1169.8	312.04	6.2066e-07	5.7875e-07	339.29	114.31	100.5	34.295	6.4226e-07	41.144	60.529	27.524	80.136	-11.974	138.464	49.687	-11.952	-7.365	90.409	62.155	-8.040	-3.268	-3.037	1.645	133.627	0.645	-8191	255	
686.537	1	1	0	0	0.071257	0.029156	0.13392	0.10418	0.10814	0.19376	0.42684	0.29131	0.30662	0.14827	0.26191	0.27322	0.2221	0.13994	0.073135	0.069302	-4.6604	-4.3938	-4.9229	-4.825	-4.4458	-5.0021	-4.5771	-4.8417	-4.7812	-4.3625	-4.8958	-4.8396	-4.6083	-5.0188	-4.4	-4.7146	18.134	115.982	-3.364	277.570	231.164	152.230	286.108	297.724	103.409	144.743	18.937	290.052	327.460	283.515	244.206	308.993	0.00047239	5.4145e-05	5.3182e-05	1371.7	2.8958e-06	1.0452e-06	1368.2	382.28	6.1407e-07	9.3247e-07	434.4	144.21	127.16	43.799	9.2637e-07	53.998	5.8436e-05	5.2823e-05	1.6545e-05	1200.7	6.0792e-07	5.7404e-07	1171.5	311.34	6.0451e-07	5.7041e-07	339.68	113.76	100.31	34.298	6.6481e-07	41.061	65.029	172.759	100.015	-11.970	128.869	110.568	-12.242	-7.372	159.008	-0.286	-7.813	-3.218	-2.983	1.633	158.084	0.777	-8191	255	
686.658	1	1	0	0	0.23633	0.12761	0.17257	0.28328	0.21859	0.20324	0.25561	0.078791	0.048281	0.098175	0.17738	0.03236	0.23121	0.12583	0.25868	0.29257	-4.6583	-4.525	-4.7937	-4.8292	-4.4083	-4.9771	-4.8104	-4.6104	-5.0542	-4.5667	-4.9979	-4.9021	-4.4125	-5.0437	-4.525	-4.8354	282.081	15.507	-15.704	319.034	42.436	149.366	316.873	4.633	239.572	172.191	250.059	147.074	305.993	-14.591	238.826	237.710	0.00043221	0.00012286	5.9349e-05	1367	9.311e-07	6.8017e-07	1367.3	383.06	1.5976e-06	9.6724e-07	433.23	144.44	127.09	43.729	1.4591e-06	54.075	5.6626e-05	5.2536e-05	1.6909e-05	1196.9	5.8791e-07	5.7909e-07	1171.7	310.58	5.8204e-07	5.868e-07	339.78	113.59	100.11	34.358	6.7484e-07	41.019	56.560	72.330	105.148	-12.015	51.162	65.468	-12.097	-7.327	109.268	222.984	-8.068	-3.406	-2.755	1.617	113.927	0.461	-8191	255	
686.729	1	1	0	0	0.14283	0.028193	0.23899	0.2473	0.069866	0.23439	0.25313	0.020442	0.082668	0.13355	0.13923	0.031024	0.23501	0.10189	0.049145	0.13014	-4.7167	-4.3167	-4.6896	-5.1062	-4.2333	-4.9083	-4.7188	-4.5667	-4.9875	-4.3229	-4.8271	-4.7667	-4.5062	-4.9625	-4.8542	-4.4292	-12.926	297.238	130.977	243.558	120.359	100.934	229.144	306.952	11.442	107.435	279.871	169.524	-24.556	264.761	60.861	297.438	0.00049139	0.0002756	3.5922e-05	1367.9	1.8679e-06	2.4205e-06	1371.1	384.68	9.942e-07	5.118e-07	433.98	144.15	127.32	43.846	1.072e-06	54.184	5.5579e-05	5.695e-05	1.7116e-05	1198.7	5.9165e-07	6.2553e-07	1173.4	311.34	5.8861e-07	6.4712e-07	339.94	113.48	100.27	34.472	6.6599e-07	40.96	53.977	93.742	84.309	-12.007	70.850	121.756	-12.122	-7.326	101.102	247.332	-8.050	-3.360	-3.123	1.596	98.189	0.625	-8191	255	
686.826	1	1	0	0	0.081723	0.091578	0.1308	0.056561	0.26155	0.27686	0.051456	0.21206	0.081147	0.17454	0.044153	0.023517	0.10152	0.11369	0.1568	0.06381	-4.6875	-4.4375	-4.6542	-4.9417	-4.3667	-4.8313	-4.8125	-4.5458	-5.1125	-4.6312	-4.6646	-4.9458	-4.4437	-4.8292	-4.5938	-4.4208	138.723	319.986	64.357	220.950	269.020	8.088	313.418	263.968	172.341	45.895	30.985	281.023	117.615	-16.239	290.523	82.288	0.00061281	8.074e-05	6.6107e-05	1365.5	1.0542e-06	3.2122e-07	1368	382.49	2.1885e-06	2.817e-06	433.89	145.05	127.22	43.551	6.0071e-07	54.064	5.4658e-05	6.0085e-05	1.6415e-05	1197.1	5.8355e-07	6.5327e-07	1170.9	310.29	5.8703e-07	6.7131e-07	339	113.59	100.39	34.482	6.4371e-07	40.962	53.084	139.116	21.878	-11.973	116.498	272.334	-12.144	-7.384	180.908	137.223	-8.072	-3.250	-3.102	1.717	251.358	0.400	-8191	255	
686.922	1	1	0	0	0.1001	0.15391	0.13005	0.22256	0.092227	0.13625	0.14442	0.41288	0.13418	0.12591	0.16047	0.24879	0.081133	0.1624	0.062619	0.02053	-4.7312	-4.3854	-4.6375	-5.1917	-4.4979	-4.75	-4.9646	-4.4437	-4.9125	-4.5167	-4.5854	-4.8375	-4.4625	-4.8375	-4.9271	-4.5375	331.382	186.382	274.019	267.880	189.986	317.547	217.993	264.823	183.282	210.496	254.662	297.988	259.804	81.681	58.988	43.600	0.00057784	0.00013105	8.26e-06	1368	6.8499e-07	2.8423e-06	1364.2	383.19	2.0721e-06	3.5075e-07	434.25	144.11	127.03	43.735	4.5708e-07	53.863	5.7189e-05	6.2894e-05	1.601e-05	1197.3	6.1415e-07	6.8103e-07	1169.4	310.81	6.2916e-07	6.8131e-07	338.95	113.4	100.53	34.52	6.2687e-07	40.863	53.580	76.621	23.099	-11.930	152.206	88.465	-12.018	-7.504	151.580	65.355	-7.968	-3.534	-3.065	1.563	196.349	0.811	-8191	255	
687.042	1	1	0	0	0.080496	0.22605	0.025535	0.109	0.15545	0.12143	0.27424	0.16764	0.051128	0.20841	0.10938	0.17383	0.066798	0.16995	0.29727	0.1555	-4.6542	-4.4792	-4.4208	-5.175	-4.4104	-4.7	-5.025	-4.5062	-5.0042	-4.6937	-4.5	-4.9479	-4.4729	-4.8313	-5.0687	-4.4625	320.749	193.003	131.236	265.054	-6.826	253.085	290.482	278.438	29.373	200.520	291.159	303.682	228.098	308.720	7.266	171.680	0.00063414	0.00016878	6.6467e-05	1369.2	2.5059e-06	1.6535e-06	1365.5	382.83	9.9111e-07	2.0362e-06	434.66	144.42	127.13	43.675	4.8634e-07	54.028	6.1179e-05	6.3219e-05	1.5811e-05	1196.6	6.6022e-07	6.766e-07	1169.8	310.69	6.6936e-07	6.7528e-07	339.01	113.4	100.84	34.43	6.1475e-07	40.925	67.326	42.589	49.934	-11.893	163.358	107.816	-12.094	-7.345	208.824	70.677	-8.001	-3.392	-2.829	1.618	104.000	0.552	-8191	255	
687.137	1	1	0	0	0.20114	0.2278	0.24249	0.24084	0.11142	0.13118	0.17586	0.22082	0.0934	0.22966	0.21677	0.19747	0.046875	0.29691	0.12283	0.069394	-4.6167	-4.6146	-4.4208	-5.0687	-4.5146	-4.7521	-5.0125	-4.575	-4.7708	-4.6208	-4.3542	-4.9313	-4.5792	-4.6667	-4.8688	-4.3812	324.089	254.883	299.120	302.661	42.600	276.685	311.947	-0.056	1.376	223.252	249.046	278.210	20.911	17.711	11.260	156.912	0.00057781	0.00021678	1.7595e-05	1368.8	2.1962e-06	2.4483e-06	1368.1	382.8	2.2216e-06	5.2775e-07	435.76	143.44	126.93	43.59	1.2385e-06	53.865	6.4517e-05	6.0181e-05	1.5326e-05	1197.6	6.8853e-07	6.4028e-07	1168.5	310.58	6.8603e-07	6.3469e-07	338.36	113.42	100.78	34.364	5.886e-07	40.912	59.973	34.397	87.704	-12.109	128.410	55.627	-12.344	-7.314	116.746	53.626	-7.957	-3.430	-2.910	1.643	167.387	0.742	-8191	255	
687.233	1	1	0	0	0.092723	0.096133	0.1806	0.073303	0.19214	0.20462	0.090332	0.15721	0.098859	0.058085	0.2855	0.13765	0.16759	0.12107	0.066179	0.17142	-4.6188	-4.7396	-4.3979	-5.0917	-4.4792	-4.4479	-4.9896	-4.6604	-4.725	-4.7729	-4.5646	-5.1229	-4.7667	-4.5583	-4.9437	-4.5458	105.199	88.170	245.704	-7.956	330.449	222.761	230.436	312.464	201.848	116.431	304.306	308.020	225.406	94.256	126.306	330.010	0.00057462	0.0001807	4.9511e-05	1366	2.1484e-06	1.9792e-06	1367.6	382.66	1.8018e-06	8.1621e-07	433.43	144.61	126.99	43.878	8.7484e-07	53.988	6.4372e-05	5.713e-05	1.4837e-05	1197.8	6.8856e-07	6.2006e-07	1168.3	311.05	6.8499e-07	6.1918e-07	337.99	113.69	100.81	34.403	5.8755e-07	41.022	72.898	18.000	57.316	-12.009	111.731	93.165	-12.068	-7.234	55.871	132.923	-7.991	-3.171	-3.024	1.693	317.139	0.488	-8191	255	
687.354	1	1	0	0	0.16669	0.079764	0.10205	0.10301	0.064573	0.15605	0.1068	0.08283	0.051619	0.28007	0.24937	0.11485	0.12529	0.30196	0.10802	0.16598	-4.3458	-4.8396	-4.3562	-4.975	-4.5625	-4.4437	-5.0604	-4.4792	-4.7208	-4.725	-4.3375	-4.925	-4.7792	-4.6604	-4.8938	-4.6208	54.729	118.814	328.438	-10.953	36.900	110.635	311.998	101.394	202.600	288.885	293.154	282.321	-15.334	300.657	-22.705	274.950	0.00056415	6.6891e-05	6.4503e-05	1370.7	7.7775e-07	2.1669e-06	1364.6	383.78	5.9215e-07	2.9377e-06	436.3	144.62	126.98	43.858	1.4044e-06	54.006	6.3541e-05	5.6017e-05	1.4732e-05	1199.8	6.6413e-07	6.11e-07	1166.7	311.95	6.549e-07	5.9975e-07	338.47	114.06	100.64	34.322	5.8963e-07	41.198	53.307	142.765	82.376	-12.112	327.991	52.932	-12.100	-7.406	86.554	75.924	-7.799	-3.341	-2.909	1.749	105.387	0.730	-8191	255	
687.425	1	1	0	0	0.087443	0.13492	0.053882	0.15627	0.12563	0.21315	0.42983	0.12719	0.19107	0.32768	0.087457	0.098904	0.06871	0.21158	0.11435	0.22622	-4.25	-4.9458	-4.3375	-4.8646	-4.6042	-4.3604	-4.9812	-4.5917	-4.5312	-5.0146	-4.5167	-4.8646	-4.85	-4.4792	-4.7562	-4.5896	-15.912	44.730	-14.077	276.978	156.748	174.853	223.414	37.416	25.758	209.528	324.883	122.056	84.744	255.580	200.319	311.571	0.00052042	0.00015181	7.8831e-06	1369.1	1.6847e-06	1.0867e-06	1366.8	383.1	1.7217e-06	1.4096e-06	436.65	144.46	127.43	43.839	1.1409e-06	53.823	6.1013e-05	5.4808e-05	1.5269e-05	1200.8	6.4907e-07	5.944e-07	1168.5	312.05	6.3695e-07	5.9402e-07	338.91	114.24	100.7	34.34	6.4589e-07	41.249	63.664	83.559	96.181	-11.987	161.266	53.728	-12.119	-7.410	88.221	123.312	-7.967	-3.422	-2.817	1.619	138.909	0.686	-8191	255	
687.521	1	1	0	0	0.16671	0.054643	0.18749	0.11629	0.17646	0.087784	0.0047716	0.19918	0.17221	0.076172	0.11357	0.1899	0.14327	0.21214	0.1062	0.12685	-4.1333	-4.9437	-4.2729	-4.8	-4.6479	-4.1583	-4.9833	-4.6917	-4.4437	-4.8667	-4.5292	-4.6646	-4.8792	-4.3792	-4.7875	-4.7104	253.691	207.976	216.007	4.495	248.102	247.042	173.166	-6.364	269.383	131.747	92.131	6.045	174.024	332.061	99.030	232.805	0.00064435	0.00013915	2.7568e-05	1372.8	1.8203e-06	1.9452e-06	1367.7	383.91	1.1158e-06	1.284e-06	434.91	144.59	127.04	43.838	2.8915e-06	54.021	6.0789e-05	5.5795e-05	1.6783e-05	1202.9	6.4363e-07	6.0624e-07	1173.7	312.6	6.4223e-07	6.0428e-07	340.7	114.17	100.49	34.407	6.9057e-07	41.21	69.872	87.844	95.535	-12.016	37.890	101.058	-12.110	-7.594	6.579	92.350	-8.012	-3.347	-3.047	1.646	151.510	0.543	-8191	255	
687.642	1	1	0	0	0.11779	0.097069	0.19293	0.16438	0.1195	0.1315	0.27541	0.020958	0.12791	0.13018	0.0421	0.15797	0.24484	0.14237	0.23283	0.22981	-3.9688	-4.8208	-4.5542	-4.6021	-4.8083	-4.2729	-4.9771	-4.7708	-4.3646	-5.1146	-4.5896	-4.6833	-4.9708	-4.2479	-4.6937	-4.8021	317.078	178.386	278.945	-18.751	29.840	265.250	293.823	300.313	44.069	37.925	300.706	184.271	50.071	-2.953	306.564	321.257	0.000618	0.00018385	6.6422e-05	1370.9	4.2228e-07	1.4992e-06	1364.3	382.08	1.6269e-06	1.3016e-06	432.49	144.84	127.14	43.749	6.8779e-07	54.071	5.884e-05	5.4778e-05	1.7586e-05	1201.5	6.167e-07	5.9637e-07	1171.7	311.68	6.0757e-07	5.9346e-07	339.89	113.92	100.41	34.308	6.8834e-07	40.995	52.644	83.245	80.558	-12.099	131.364	108.581	-12.132	-7.176	18.495	118.820	-8.018	-3.427	-3.073	1.674	81.468	0.803	-8191	255	
687.738	1	1	0	0	0.047663	0.38528	0.033301	0.048554	0.26555	0.02795	0.059062	0.22539	0.12471	0.091587	0.10429	0.029156	0.20342	0.19606	0.16258	0.32063	-4.2	-4.8646	-4.5146	-4.6917	-4.7396	-4.4187	-4.9146	-4.7646	-4.3333	-4.7208	-4.55	-4.5833	-5.0979	-4.5521	-4.7708	-4.9229	206.411	182.079	243.458	293.813	293.311	181.417	307.532	27.159	14.137	18.205	312.845	143.431	255.167	309.453	263.997	21.858	0.00050914	4.579e-05	2.1883e-05	1368	1.8565e-06	2.3466e-06	1369.6	383.45	4.591e-07	1.2278e-06	433.25	144.57	127.04	43.663	1.7688e-06	54.015	5.6562e-05	5.5924e-05	1.7632e-05	1197.4	6.002e-07	6.2749e-07	1172	310.93	5.9209e-07	6.3012e-07	340.36	113.8	100.38	34.383	6.8496e-07	40.977	51.256	38.787	53.134	-12.116	116.829	131.807	-12.065	-7.307	152.671	176.408	-8.096	-3.370	-3.021	1.674	98.415	0.480	-8191	255	
687.834	1	1	0	0	0.20975	0.13246	0.17212	0.088155	0.19908	0.16261	0.19282	0.15151	0.15408	0.16509	0.088041	0.13931	0.10324	0.29408	0.092154	0.1215	-4.0708	-4.9542	-4.65	-4.5271	-4.875	-4.5229	-4.7083	-4.8938	-4.3688	-4.8729	-4.8	-4.45	-4.9354	-4.5062	-4.5396	-4.8271	118.823	202.171	331.606	282.625	-21.489	38.223	171.952	-21.130	196.430	275.049	69.447	333.906	-11.400	44.288	165.534	186.600	0.00061666	2.2819e-05	9.8967e-05	1366.8	1.6183e-06	1.77e-06	1368.4	383.37	4.5066e-07	1.5032e-06	433.24	144.86	127.33	43.898	1.0629e-06	54.05	5.6379e-05	6.0392e-05	1.7511e-05	1198.9	5.9424e-07	6.7068e-07	1172.6	310.87	5.9252e-07	6.7449e-07	339.58	113.71	100.42	34.494	6.4468e-07	40.901	66.481	46.506	50.373	-11.915	32.478	131.853	-12.252	-7.541	34.735	157.565	-7.871	-3.535	-2.960	1.689	58.437	0.873	-8191	255	
687.955	1	1	0	0	0.14099	0.013551	0.10299	0.17772	0.017301	0.16142	0.10932	0.16671	0.14977	0.012979	0.058812	0.1536	0.13591	0.23761	0.1011	0.016321	-4.1125	-4.7083	-4.7562	-4.525	-4.9854	-4.4917	-4.8646	-5.0188	-4.4458	-4.8271	-4.9875	-4.3146	-4.9896	-4.6104	-4.4396	-4.9896	97.788	242.951	200.258	-21.224	14.845	193.360	223.986	208.645	195.659	111.931	71.899	300.292	254.613	329.366	220.337	274.224	0.00063996	8.2094e-05	2.2363e-05	1366.1	2.4593e-06	9.8992e-07	1366.1	382.3	2.8972e-06	1.1726e-06	434.99	144.34	126.78	43.724	1.3275e-06	54.159	5.5237e-05	6.0259e-05	1.5771e-05	1196	5.7404e-07	6.539e-07	1166.8	309.87	5.7802e-07	6.5023e-07	338.4	113.38	100.33	34.416	5.9813e-07	40.834	59.780	20.672	142.814	-11.912	138.888	115.833	-12.039	-7.190	147.918	114.644	-7.866	-3.329	-2.916	1.436	51.383	0.503	-8191	255	
688.025	1	1	0	0	0.29144	0.082946	0.12243	0.24236	0.095855	0.19497	0.15849	0.22955	0.24349	0.2298	0.16067	0.23746	0.18011	0.12997	0.17434	0.029276	-4.0854	-4.6562	-4.6604	-4.3146	-4.7729	-4.5042	-4.5667	-5.1333	-4.2896	-4.6896	-4.7417	-4.3187	-5.1	-4.8208	-4.3146	-4.8979	-24.574	86.122	159.505	294.935	144.716	284.092	271.257	244.701	-16.542	328.669	207.415	278.233	319.904	202.212	321.183	62.998	0.00057551	0.00014723	6.9685e-05	1367.7	2.1032e-06	1.587e-06	1365	381.06	7.4262e-07	1.9746e-06	432.66	144.59	126.67	43.65	6.4283e-07	53.919	5.7122e-05	6.0417e-05	1.5236e-05	1195.6	6.1759e-07	6.6044e-07	1167.9	309.7	6.3428e-07	6.5131e-07	337.84	113.3	100.45	34.419	5.8713e-07	40.868	53.128	32.499	91.344	-11.948	127.501	111.951	-12.239	-7.413	170.003	164.785	-7.757	-3.312	-2.740	1.822	177.890	0.658	-8191	255	
688.121	1	1	0	0	0.18926	0.11503	0.15957	0.14887	0.10106	0.22353	0.05235	0.059181	0.079041	0.053664	0.1668	0.13021	0.15743	0.14317	0.10981	0.07453	-4.225	-4.5875	-4.8333	-4.4	-4.9104	-4.7104	-4.5167	-5.1	-4.4313	-4.575	-4.9812	-4.4833	-4.8708	-4.7271	-4.3625	-5.1083	196.822	11.078	165.889	299.630	227.352	32.219	38.930	153.479	90.360	204.128	158.934	100.683	92.608	184.413	73.396	-19.311	0.00050959	0.00017939	1.629e-05	1366.1	2.8259e-06	7.0045e-07	1368.1	383.78	1.6093e-06	1.9456e-06	434.78	144.8	127.27	43.701	2.2416e-06	53.971	6.1096e-05	5.8526e-05	1.4962e-05	1195.1	6.5067e-07	6.3961e-07	1168.5	310.31	6.6601e-07	6.2364e-07	338.16	113.45	100.65	34.381	5.8078e-07	40.851	74.125	60.160	85.006	-12.028	121.357	222.081	-12.106	-7.409	173.307	77.671	-7.683	-3.398	-2.922	1.817	116.624	0.633	-8191	255	
688.217	1	1	0	0	0.076413	0.22377	0.19379	0.30235	0.17574	0.14601	0.34114	0.075831	0.28089	0.035422	0.057338	0.094828	0.093292	0.080434	0.21806	0.18218	-4.2021	-4.4125	-4.8812	-4.55	-4.8417	-4.8771	-4.3229	-5.0167	-4.6	-4.5125	-5.0417	-4.5312	-4.7979	-4.95	-4.3229	-4.8417	251.914	3.996	184.561	317.125	82.515	307.743	230.161	68.677	147.902	90.063	283.521	-2.066	311.285	276.225	187.153	23.935	0.00074984	9.0841e-05	4.9521e-05	1367.6	1.1545e-06	1.8326e-06	1370.3	381.59	7.646e-07	2.0641e-06	434.55	144.19	126.94	43.79	5.7691e-07	53.993	6.3338e-05	5.6409e-05	1.4471e-05	1195.4	6.6411e-07	6.0818e-07	1166.5	310.44	6.6779e-07	5.999e-07	337.86	113.49	100.62	34.341	5.6182e-07	40.96	59.358	57.664	79.733	-12.048	240.864	47.058	-12.071	-7.359	211.659	59.512	-8.062	-3.361	-3.091	1.753	65.522	0.628	-8191	255	
688.338	1	1	0	0	0.24279	0.060369	0.16208	0.2422	0.06897	0.12204	0.35773	0.20882	0.28347	0.11252	0.19641	0.053239	0.36046	0.11801	0.17665	0.057772	-4.4333	-4.325	-4.9313	-4.3583	-4.6937	-4.7792	-4.5188	-4.9417	-4.5917	-4.3063	-5.0792	-4.5354	-4.6312	-4.8208	-4.3917	-4.8562	215.630	-23.932	39.711	307.110	-18.537	297.260	276.253	312.966	111.780	66.960	287.320	35.019	316.065	315.524	184.402	21.619	0.00054036	0.00012737	5.1615e-05	1365.9	1.4357e-06	2.0681e-06	1364.2	381.23	3.6438e-07	1.2291e-06	434.45	144.69	127.05	43.818	1.6524e-06	53.985	6.2305e-05	5.3629e-05	1.4289e-05	1197.5	6.5071e-07	5.9089e-07	1165.4	310.63	6.4658e-07	5.8293e-07	337.78	113.82	100.57	34.331	5.7101e-07	41.041	69.928	84.978	63.332	-12.056	171.927	95.739	-12.033	-7.290	119.033	132.655	-7.692	-3.409	-2.912	1.658	193.393	0.732	-8191	255	
#DATA ENDS
