BOXY.EXE: ISS Imagent and Oximeter Data Acquisition Program Version 0.80
Ascii Record File

#ACQ INFORMATION
2  Detector Channels 
16  External MUX Channels 
1  Auxiliary Channels 
5000  Waveform (CCF) Frequency (Hz)
1  Waveforms Skipped 
30  Waveforms Averaged 
1  Cycles Averaged 
16  Acquisitions per Waveform 
10.0806  Updata Rate (Hz) 

#FILE INFORMATION
TRUE -- External MUX Channel results are PARSED.
FALSE -- AC DC and Phase are NOT grouped.
TRUE -- Companion Program Settings File CREATED.
FALSE -- AC data not excluded
FALSE -- DC data not excluded
FALSE -- Phase data not excluded
FALSE -- Auxillary Chn. data not excluded
Tab delimiters

#CALIBRATION STATE
TRUE -- Waveform Calibration Values APPLIED.


#AUX CALIBRATION VALUES
Val Type	aux-1	

Term	1.0000e+00	
Factor	0.0000e+00	


#WF CALIBRATION VALUES
A = Detector Channel
Val Type	A-AC1	A-AC2	A-AC3	A-AC4	A-AC5	A-AC6	A-AC7	A-AC8	A-AC9	A-AC10	A-AC11	A-AC12	A-AC13	A-AC14	A-AC15	A-AC16	A-DC1	A-DC2	A-DC3	A-DC4	A-DC5	A-DC6	A-DC7	A-DC8	A-DC9	A-DC10	A-DC11	A-DC12	A-DC13	A-DC14	A-DC15	A-DC16	A-Ph1	A-Ph2	A-Ph3	A-Ph4	A-Ph5	A-Ph6	A-Ph7	A-Ph8	A-Ph9	A-Ph10	A-Ph11	A-Ph12	A-Ph13	A-Ph14	A-Ph15	A-Ph16	

Term	0.00000e+00	0.00000e+00	0.00000e+00	0.00000e+00	0.00000e+00	0.00000e+00	0.00000e+00	0.00000e+00	0.00000e+00	0.00000e+00	0.00000e+00	0.00000e+00	0.00000e+00	0.00000e+00	0.00000e+00	0.00000e+00	0.00000e+00	0.00000e+00	0.00000e+00	0.00000e+00	0.00000e+00	0.00000e+00	0.00000e+00	0.00000e+00	0.00000e+00	0.00000e+00	0.00000e+00	0.00000e+00	0.00000e+00	0.00000e+00	0.00000e+00	0.00000e+00	0.00000e+00	0.00000e+00	0.00000e+00	0.00000e+00	0.00000e+00	0.00000e+00	0.00000e+00	0.00000e+00	0.00000e+00	0.00000e+00	0.00000e+00	0.00000e+00	0.00000e+00	0.00000e+00	0.00000e+00	0.00000e+00	
Factor	1.00000e+00	1.00000e+00	1.00000e+00	1.00000e+00	1.00000e+00	1.00000e+00	1.00000e+00	1.00000e+00	1.00000e+00	1.00000e+00	1.00000e+00	1.00000e+00	1.00000e+00	1.00000e+00	1.00000e+00	1.00000e+00	1.00000e+00	1.00000e+00	1.00000e+00	1.00000e+00	1.00000e+00	1.00000e+00	1.00000e+00	1.00000e+00	1.00000e+00	1.00000e+00	1.00000e+00	1.00000e+00	1.00000e+00	1.00000e+00	1.00000e+00	1.00000e+00	X	X	X	X	X	X	X	X	X	X	X	X	X	X	X	X	

B = Detector Channel
Val Type	B-AC1	B-AC2	B-AC3	B-AC4	B-AC5	B-AC6	B-AC7	B-AC8	B-AC9	B-AC10	B-AC11	B-AC12	B-AC13	B-AC14	B-AC15	B-AC16	B-DC1	B-DC2	B-DC3	B-DC4	B-DC5	B-DC6	B-DC7	B-DC8	B-DC9	B-DC10	B-DC11	B-DC12	B-DC13	B-DC14	B-DC15	B-DC16	B-Ph1	B-Ph2	B-Ph3	B-Ph4	B-Ph5	B-Ph6	B-Ph7	B-Ph8	B-Ph9	B-Ph10	B-Ph11	B-Ph12	B-Ph13	B-Ph14	B-Ph15	B-Ph16	

Term	0.00000e+00	0.00000e+00	0.00000e+00	0.00000e+00	0.00000e+00	0.00000e+00	0.00000e+00	0.00000e+00	0.00000e+00	0.00000e+00	0.00000e+00	0.00000e+00	0.00000e+00	0.00000e+00	0.00000e+00	0.00000e+00	0.00000e+00	0.00000e+00	0.00000e+00	0.00000e+00	0.00000e+00	0.00000e+00	0.00000e+00	0.00000e+00	0.00000e+00	0.00000e+00	0.00000e+00	0.00000e+00	0.00000e+00	0.00000e+00	0.00000e+00	0.00000e+00	8.08205e+01	-1.29234e+02	-1.26031e+02	-1.81587e+02	-8.04158e+01	-6.70324e+01	-1.57320e+02	-1.62015e+02	-6.06783e+01	-6.54006e+01	-1.71053e+02	-1.72518e+02	-1.82789e+02	-1.76934e+02	-6.95614e+01	-1.49544e+02	
Factor	6.67383e-05	1.91415e-04	4.93186e-05	1.58798e-01	2.57486e-06	2.00385e-06	1.78873e-01	5.50616e-02	3.22509e-06	1.97440e-06	8.99765e-02	3.70833e-02	3.90633e-02	9.87122e-03	2.25571e-06	1.39431e-02	2.65282e-05	5.58230e-05	1.57463e-05	8.19480e-02	4.79595e-07	6.43249e-07	8.68198e-02	2.84307e-02	4.90733e-07	6.41705e-07	4.53190e-02	1.86095e-02	2.03683e-02	5.15739e-03	5.46992e-07	7.08478e-03	X	X	X	X	X	X	X	X	X	X	X	X	X	X	X	X	



#DISTANCE SETTINGS
A = Detector Channel
A-1	A-2	A-3	A-4	A-5	A-6	A-7	A-8	A-9	A-10	A-11	A-12	A-13	A-14	A-15	A-16	

2.5000e+00	3.0000e+00	2.5000e+00	3.0000e+00	2.0000e+00	3.0000e+00	1.5000e+00	3.0000e+00	3.0000e+00	3.0000e+00	3.0000e+00	3.0000e+00	3.0000e+00	3.0000e+00	1.5000e+00	3.0000e+00	

B = Detector Channel
B-1	B-2	B-3	B-4	B-5	B-6	B-7	B-8	B-9	B-10	B-11	B-12	B-13	B-14	B-15	B-16	

1.0000e+01	1.0000e+01	1.0000e+01	1.4400e+00	1.0000e+01	1.0000e+01	1.5100e+00	1.9400e+00	1.0000e+01	1.0000e+01	1.9900e+00	2.4900e+00	2.4100e+00	2.9000e+00	1.0000e+01	2.9800e+00	




#DATA BEGINS
time	group	step	mark	flag	A-AC1	A-AC2	A-AC3	A-AC4	A-AC5	A-AC6	A-AC7	A-AC8	A-AC9	A-AC10	A-AC11	A-AC12	A-AC13	A-AC14	A-AC15	A-AC16	A-DC1	A-DC2	A-DC3	A-DC4	A-DC5	A-DC6	A-DC7	A-DC8	A-DC9	A-DC10	A-DC11	A-DC12	A-DC13	A-DC14	A-DC15	A-DC16	A-Ph1	A-Ph2	A-Ph3	A-Ph4	A-Ph5	A-Ph6	A-Ph7	A-Ph8	A-Ph9	A-Ph10	A-Ph11	A-Ph12	A-Ph13	A-Ph14	A-Ph15	A-Ph16	B-AC1	B-AC2	B-AC3	B-AC4	B-AC5	B-AC6	B-AC7	B-AC8	B-AC9	B-AC10	B-AC11	B-AC12	B-AC13	B-AC14	B-AC15	B-AC16	B-DC1	B-DC2	B-DC3	B-DC4	B-DC5	B-DC6	B-DC7	B-DC8	B-DC9	B-DC10	B-DC11	B-DC12	B-DC13	B-DC14	B-DC15	B-DC16	B-Ph1	B-Ph2	B-Ph3	B-Ph4	B-Ph5	B-Ph6	B-Ph7	B-Ph8	B-Ph9	B-Ph10	B-Ph11	B-Ph12	B-Ph13	B-Ph14	B-Ph15	B-Ph16	aux-1	digaux	

32213.092	1	1	0	256	0.14845	0.39297	0.10172	0.3288	0.089798	0.026749	0.055201	0.45984	0.1177	0.037735	0.18015	0.27768	0.059106	0.16769	0.12068	0.15255	-4.5396	-4.1833	-4.2979	-4.8333	-4.3229	-4.4583	-4.8208	-4.1083	-4.6479	-4.2542	-4.4708	-4.8854	-4.1729	-4.6062	-4.3958	-4.1792	-74.885	46.539	65.312	175.223	185.300	163.266	42.738	214.627	122.814	190.573	171.794	65.018	44.347	243.791	15.522	-69.224	0.00072179	0.00045425	0.00013594	1406.6	6.4659e-06	3.113e-06	1394	369.64	5.1565e-06	5.5796e-06	423.49	143.59	126.1	42.846	6.8657e-06	52.273	0.00072411	0.00083618	0.00024384	1426.1	8.9734e-06	8.8125e-06	1412.6	376.96	8.4038e-06	9.2205e-06	431.17	146.85	128.6	43.959	8.7815e-06	53.83	46.114	-15.110	-9.641	-91.673	31.940	47.213	-91.738	-87.002	18.366	41.461	-87.570	-83.332	-82.763	-78.304	37.982	-79.186	-8191	255	
32213.188	1	1	0	0	0.15776	0.029091	0.11127	0.34033	0.16844	0.12057	0.36579	0.13895	0.26665	0.41241	0.12483	0.35333	0.25961	0.28727	0.11236	0.15619	-4.3854	-4.2729	-4.2417	-4.9417	-4.3125	-4.6	-4.8208	-4.4	-4.575	-4.3833	-4.4833	-4.8917	-4.2542	-4.6917	-4.6	-4.1583	-61.795	16.802	206.182	221.805	50.580	212.153	164.400	91.666	-4.061	140.943	111.215	243.940	223.650	-17.309	8.876	-97.463	0.0006875	0.00056304	0.00016604	1404.9	4.0399e-06	5.7986e-06	1388.4	371.09	4.549e-06	5.0607e-06	424.05	143.21	125.72	42.877	3.2968e-06	52.087	0.00069963	0.00078489	0.00024554	1421.7	8.2251e-06	8.779e-06	1408.9	378.05	8.2597e-06	8.7994e-06	431.58	146.75	128.44	44.033	8.1354e-06	53.832	47.156	-6.885	-4.133	-91.593	15.149	48.295	-91.849	-86.970	29.299	49.696	-87.564	-83.360	-82.673	-77.879	42.266	-78.688	-8191	255	
32213.283	1	1	0	0	0.21247	0.24085	0.1586	0.15734	0.36998	0.14016	0.13136	0.080657	0.25122	0.23738	0.18423	0.081815	0.1465	0.06671	0.22003	0.21026	-4.3708	-4.3229	-4.1833	-4.8375	-4.2354	-4.3729	-4.75	-4.1	-4.5021	-4.4083	-4.2937	-4.7875	-4.3625	-4.4	-4.6771	-4.2333	89.147	146.143	252.179	189.675	-81.717	83.126	169.571	150.280	208.397	181.218	139.155	-77.730	114.763	133.183	-76.643	205.548	0.00080944	0.00062808	0.00012458	1396.9	6.1579e-06	5.7912e-06	1388.3	370.16	6.4856e-06	3.2136e-06	422.29	143.08	125.51	42.694	4.3435e-06	52.402	0.00070255	0.00080152	0.00022599	1419.5	8.24e-06	9.0805e-06	1409.1	377.35	7.8068e-06	8.4585e-06	430.93	146.66	128.54	43.958	8.1958e-06	53.939	46.655	-22.795	-27.999	-91.525	26.733	66.262	-91.633	-86.781	-2.675	72.479	-87.501	-83.357	-82.635	-78.147	40.231	-78.767	-8191	255	
32213.402	1	1	0	0	0.10833	0.044607	0.14508	0.057479	0.26389	0.02922	0.29595	0.16213	0.15807	0.11512	0.042262	0.049118	0.2471	0.15763	0.08665	0.22828	-4.3479	-4.5354	-4.0167	-4.8771	-4.2083	-4.2521	-4.8625	-4.3333	-4.5354	-4.5604	-4.1667	-4.6167	-4.4771	-4.4375	-4.7562	-4.2479	168.573	-23.784	58.530	175.909	-96.753	219.853	169.576	154.568	54.356	60.663	102.742	-55.305	250.731	138.022	56.328	117.137	0.00075739	0.00047984	0.00013645	1400.8	5.8131e-06	4.7689e-06	1389.7	369.15	6.1829e-06	4.6896e-06	422.49	143.54	125.68	43.032	8.6943e-06	52.253	0.00068979	0.0007578	0.00021349	1421.8	8.1871e-06	8.6932e-06	1407.6	376.99	8.2167e-06	8.1791e-06	430.98	146.97	128.63	44.098	8.3587e-06	53.947	50.013	-31.519	-4.489	-91.662	35.418	57.988	-92.022	-87.215	11.333	35.649	-87.715	-83.384	-82.861	-78.088	37.250	-78.989	-8191	255	
32213.498	1	1	0	0	0.13744	0.19748	0.14409	0.12565	0.32785	0.050091	0.1881	0.23266	0.066309	0.060245	0.13179	0.14232	0.11703	0.07254	0.2369	0.1691	-4.2083	-4.4	-4.0813	-4.8812	-4.2625	-4.2812	-4.8688	-4.3875	-4.3854	-4.5792	-4.375	-4.6104	-4.4708	-4.3562	-4.7521	-4.3521	167.219	120.429	-43.198	162.444	141.638	92.031	183.579	171.911	219.834	254.360	7.136	57.897	6.820	241.429	-98.442	103.688	0.00079887	0.00063273	9.6007e-05	1402.9	5.9315e-06	4.6583e-06	1386.8	370.29	5.8704e-06	5.1405e-06	422.72	143.03	125.22	42.671	4.7319e-06	52.095	0.00072267	0.00076768	0.00022717	1422.9	8.239e-06	8.8098e-06	1408.5	377.54	8.002e-06	8.5654e-06	431.49	146.75	128.28	44.017	8.1935e-06	53.832	47.830	-3.684	-15.478	-91.544	10.952	45.252	-91.813	-87.100	16.084	34.820	-87.556	-83.322	-82.825	-78.205	56.789	-78.822	-8191	255	
32213.570	1	1	0	0	0.16345	0.14189	0.21667	0.2688	0.065173	0.18282	0.16703	0.05771	0.24682	0.12207	0.21365	0.23187	0.11745	0.2536	0.2842	0.33569	-4.0021	-4.6479	-4.1354	-4.7021	-4.3167	-4.125	-4.9042	-4.4	-4.2917	-4.6667	-4.2479	-4.6417	-4.5417	-4.1917	-4.6042	-4.3646	-86.337	232.499	186.387	-66.286	-7.452	214.622	208.232	80.695	45.451	173.283	207.660	169.082	104.843	195.661	250.790	199.570	0.00071906	0.00058725	0.000146	1401.1	6.1042e-06	5.3458e-06	1389.8	369.63	5.7713e-06	5.8123e-06	423.2	143.94	125.97	42.984	5.3881e-06	52.915	0.00069548	0.00077954	0.00023387	1422.2	7.9543e-06	8.7468e-06	1411.1	377.42	7.9642e-06	8.8649e-06	431.63	147.09	128.91	44.207	7.8277e-06	54.316	48.138	-27.388	-1.484	-91.634	19.999	66.254	-91.878	-87.110	39.257	46.569	-87.527	-83.573	-82.927	-78.134	36.921	-78.899	-8191	255	
32213.666	1	1	0	0	0.11565	0.12632	0.023914	0.15405	0.17289	0.22867	0.2444	0.27757	0.15438	0.10634	0.1314	0.16702	0.24789	0.16075	0.22041	0.41341	-3.85	-4.7521	-4.1417	-4.7917	-4.5854	-4.0062	-4.9125	-4.4208	-4.275	-4.6021	-4.2354	-4.5687	-4.6583	-4.0854	-4.5104	-4.3479	1.832	-18.942	202.789	241.905	239.893	-97.856	139.091	204.591	-1.774	-63.548	-8.050	196.042	-47.693	197.368	141.417	168.241	0.00071882	0.00040076	0.00012449	1409.4	3.1505e-06	5.8252e-06	1401.1	374.41	3.3498e-06	6.5906e-06	428.96	146.73	128.37	44.016	5.8995e-06	53.599	0.00066862	0.00073396	0.00022379	1430.1	7.5856e-06	8.2041e-06	1422.5	381.58	7.7199e-06	8.1256e-06	436.57	149.57	131.09	45.111	7.92e-06	55.19	43.282	-27.529	-2.018	-91.772	37.636	55.123	-91.771	-87.160	32.344	45.290	-87.640	-83.536	-82.772	-77.967	32.956	-78.751	-8191	255	
32213.787	1	1	0	0	0.13666	0.078259	0.072816	0.12537	0.12232	0.073398	0.12449	0.10864	0.24575	0.11121	0.21428	0.22568	0.25966	0.059585	0.034925	0.075948	-3.7479	-4.6333	-4.2562	-4.6062	-4.6604	-4.1292	-4.7208	-4.6188	-4.0687	-4.8667	-4.3958	-4.5854	-4.6417	-4.2521	-4.5667	-4.6875	56.351	-102.549	14.601	181.166	-89.133	-72.546	181.117	157.377	199.209	168.482	125.795	81.951	-78.982	-91.689	-5.277	188.463	0.00075281	0.00056398	0.00015178	1408.7	5.2537e-06	4.1341e-06	1398.6	372.97	4.5947e-06	3.9601e-06	426.04	146.22	127.58	43.462	3.6513e-06	52.929	0.00068631	0.00067534	0.00021169	1433	7.4157e-06	7.8034e-06	1421.3	380.83	7.8119e-06	7.9625e-06	435.45	149.22	130.5	44.793	7.5804e-06	54.61	48.132	-14.647	-14.586	-91.501	35.047	53.055	-91.800	-87.142	16.697	32.491	-87.611	-83.368	-83.075	-78.229	16.210	-79.104	-8191	255	
32213.883	1	1	0	0	0.072038	0.092016	0.060203	0.27724	0.29064	0.14276	0.2158	0.025702	0.20643	0.10331	0.21913	0.072085	0.22775	0.22494	0.23339	0.082468	-3.7562	-4.725	-4.1292	-4.5708	-4.4521	-4.1021	-4.6687	-4.6479	-4.0708	-4.6625	-4.4021	-4.4583	-4.7792	-4.2229	-4.5375	-4.7292	209.950	81.591	-15.761	-83.008	96.757	18.345	189.852	-61.314	39.413	20.539	151.567	-44.425	165.701	204.710	-93.112	94.911	0.00076275	0.00042949	9.643e-05	1408.9	4.3686e-06	5.9298e-06	1397.8	373.46	6.1644e-06	5.1771e-06	426.93	145.61	127.06	43.44	5.2645e-06	53.181	0.00069338	0.00071035	0.00021025	1429.2	7.3978e-06	8.2041e-06	1417.9	380.51	8.1165e-06	8.0734e-06	434.88	148.79	130.02	44.708	7.9348e-06	54.675	45.071	-33.662	-3.089	-91.676	38.147	35.726	-91.921	-86.906	10.216	51.963	-87.725	-83.472	-82.876	-78.101	36.244	-78.758	-8191	255	
32213.979	1	1	0	0	0.11406	0.070958	0.15606	0.32307	0.16636	0.17052	0.27943	0.14492	0.35218	0.11453	0.14721	0.14164	0.26188	0.14189	0.017379	0.040402	-3.6958	-4.7146	-4.2896	-4.5312	-4.6333	-4.175	-4.5687	-4.7	-4.2458	-4.7229	-4.5104	-4.2083	-4.8958	-4.2292	-4.4042	-4.6292	164.606	237.381	162.409	191.898	-59.688	167.029	140.685	229.655	89.682	226.249	-80.684	181.888	177.157	241.659	121.526	-24.524	0.00073704	0.00039199	0.00011715	1408.1	4.3284e-06	5.4643e-06	1392.7	373.72	8.4684e-06	5.2551e-06	425.99	145.4	128.06	43.62	5.7634e-06	53.026	0.00068293	0.00069686	0.00020949	1427.2	7.2519e-06	8.4775e-06	1415	380.55	7.8977e-06	8.155e-06	434.11	148.87	130.42	44.724	7.4915e-06	54.538	47.484	-18.400	4.733	-91.546	31.897	50.896	-92.016	-86.874	18.803	39.326	-87.405	-83.404	-83.008	-78.086	47.351	-78.788	-8191	255	
32214.074	1	1	0	0	0.040308	0.26319	0.26097	0.27927	0.095995	0.17183	0.13808	0.10953	0.12889	0.090608	0.19561	0.26092	0.11082	0.14694	0.16773	0.184	-3.8563	-4.5625	-4.4833	-4.3688	-4.6479	-4.325	-4.4917	-4.5271	-4.1771	-4.6271	-4.6917	-4.1687	-4.9229	-4.3604	-4.275	-4.7021	-72.592	-87.311	38.639	222.478	66.266	55.661	186.047	119.678	-74.472	-103.977	94.971	223.736	217.438	250.205	209.475	237.297	0.00073662	0.00044843	8.8558e-05	1404.8	5.3367e-06	4.7963e-06	1394.6	371.9	5.2945e-06	5.8019e-06	426.73	145.45	126.96	43.591	5.8475e-06	53.061	0.00067907	0.00069058	0.00019197	1426.2	7.2569e-06	7.8785e-06	1414.8	379.64	7.8057e-06	7.7954e-06	434.48	148.64	130.12	44.622	7.8505e-06	54.578	42.586	-18.211	-13.634	-91.564	5.744	62.593	-91.862	-86.939	44.306	54.454	-87.525	-83.441	-82.889	-78.131	34.561	-78.879	-8191	255	
32214.172	1	1	0	0	0.085347	0.17395	0.15331	0.1518	0.088369	0.11611	0.090288	0.28517	0.097241	0.21169	0.14796	0.27463	0.25523	0.21657	0.18654	0.16934	-3.8604	-4.475	-4.5875	-4.4125	-4.6667	-4.4229	-4.4104	-4.8354	-4.2896	-4.5646	-4.6333	-4.1521	-4.6979	-4.4167	-4.2958	-4.8708	159.801	254.419	121.644	210.453	233.945	210.688	122.302	227.262	28.101	248.383	200.893	-66.393	-104.286	-67.382	108.927	195.459	0.00069921	0.00068147	0.00014836	1406.8	3.858e-06	4.2866e-06	1395.5	372.4	5.7862e-06	5.0186e-06	426.59	145.39	126.85	43.362	3.8283e-06	52.71	0.00069625	0.00072547	0.00020592	1426.3	7.3618e-06	7.8168e-06	1415.1	379.45	8.1881e-06	7.6376e-06	434.8	148.64	129.99	44.58	8.0214e-06	54.505	48.098	-17.021	-8.870	-91.589	9.982	49.006	-91.708	-86.981	42.970	59.298	-87.498	-83.364	-82.838	-78.139	38.189	-78.706	-8191	255	
32214.268	1	1	0	0	0.10212	0.059398	0.058474	0.17004	0.13421	0.2043	0.16253	0.4918	0.20037	0.051789	0.14769	0.19508	0.29764	0.044846	0.22853	0.061386	-3.9042	-4.525	-4.5625	-4.3021	-4.6979	-4.4417	-4.3375	-4.8396	-4.1833	-4.3542	-4.6875	-4.2917	-4.7937	-4.4625	-4.0375	-4.8125	-75.528	209.336	80.465	201.605	169.335	-16.879	145.256	248.900	-76.641	223.518	188.593	202.512	235.635	163.313	26.167	-91.733	0.00070521	0.00053229	0.00015021	1406.6	5.8015e-06	4.2296e-06	1395.3	372.11	5.617e-06	4.4006e-06	426.4	145.18	127.1	43.386	6.0998e-06	52.991	0.00067039	0.00069151	0.00020854	1426.6	7.5476e-06	7.9883e-06	1415.9	379.41	7.8139e-06	8.0521e-06	434.56	148.4	129.94	44.577	8.0339e-06	54.45	51.041	-21.582	-20.579	-91.632	51.902	55.659	-91.908	-87.110	48.266	44.291	-87.648	-83.428	-83.028	-78.044	32.509	-78.768	-8191	255	
32214.387	1	1	0	0	0.20756	0.12146	0.18133	0.2196	0.27845	0.098473	0.079813	0.22891	0.12606	0.048557	0.048187	0.27303	0.062676	0.32007	0.20222	0.16157	-3.9583	-4.3521	-4.5896	-4.3042	-4.7083	-4.5021	-4.2104	-4.6271	-4.1271	-4.3083	-4.8625	-4.175	-4.5833	-4.6375	-4.0646	-4.8375	243.993	68.656	248.424	188.843	-86.220	-63.617	130.958	-82.792	129.166	227.478	203.307	210.493	234.836	-87.346	-25.499	-32.715	0.00075849	0.00050887	0.00014219	1408.8	7.0395e-06	4.6838e-06	1391.3	372.56	6.2028e-06	4.939e-06	427.08	145.62	127.27	43.26	4.9898e-06	52.762	0.00067586	0.00070977	0.0001984	1427.4	7.6455e-06	8.4721e-06	1413.2	379.57	7.6728e-06	8.2218e-06	433.82	148.25	129.95	44.485	7.9576e-06	54.41	41.749	-8.257	-3.664	-91.629	24.382	41.711	-91.755	-87.275	14.973	34.230	-87.575	-83.490	-82.966	-78.097	30.740	-79.147	-8191	255	
32214.482	1	1	0	0	0.29716	0.15127	0.068695	0.19579	0.062606	0.10393	0.24236	0.2581	0.078515	0.11924	0.069562	0.14366	0.20188	0.33541	0.016247	0.051851	-3.9188	-4.2937	-4.6625	-4.3583	-4.4375	-4.4979	-4.2562	-4.8917	-4.2104	-4.1937	-4.8271	-4.3083	-4.4313	-4.6312	-4.3	-4.6583	-93.981	107.648	12.275	172.105	38.201	-102.534	235.624	180.424	68.006	37.061	208.809	-85.812	254.760	192.831	-7.092	-45.555	0.00073459	0.00057887	0.00014371	1406.2	5.0906e-06	4.0769e-06	1394.9	371.42	7.213e-06	5.5062e-06	426.42	144.41	126.47	43.461	5.4149e-06	53	0.00068139	0.00073547	0.00019273	1424.8	7.6825e-06	8.2805e-06	1413	379.31	7.7883e-06	8.4237e-06	433.82	148.19	129.66	44.573	7.9405e-06	54.525	45.763	-4.274	-14.221	-91.666	18.556	16.832	-91.633	-87.021	0.886	33.191	-87.544	-83.392	-82.848	-77.996	32.799	-78.786	-8191	255	
32214.578	1	1	0	0	0.20866	0.12101	0.18425	0.2914	0.21148	0.08683	0.2239	0.24046	0.22406	0.16425	0.096635	0.11345	0.1079	0.13743	0.27962	0.15682	-3.9771	-4.2396	-4.5979	-4.3333	-4.3146	-4.5479	-4.2875	-4.9437	-4.3625	-4.0458	-4.9771	-4.5125	-4.4854	-4.6062	-4.0375	-4.775	199.493	156.563	13.160	197.041	32.523	227.617	165.906	170.028	110.611	40.808	164.184	-84.795	-103.942	-92.809	139.334	238.752	0.00074565	0.00052489	0.00014207	1405.5	4.5989e-06	4.8487e-06	1396.5	372.08	6.5402e-06	5.1897e-06	425.01	145.13	126.45	43.376	4.7074e-06	52.967	0.00068183	0.00075314	0.0001967	1425.2	7.6445e-06	7.6788e-06	1414.1	378.77	7.7444e-06	8.3021e-06	433.97	148.23	129.54	44.505	7.7969e-06	54.378	43.553	-15.309	-20.408	-91.600	35.318	59.272	-91.774	-87.028	40.310	62.165	-87.651	-83.628	-82.773	-78.148	48.769	-78.865	-8191	255	
32214.676	1	1	0	0	0.15441	0.08431	0.099952	0.10362	0.1254	0.053742	0.13642	0.18217	0.11613	0.19228	0.10547	0.070258	0.21949	0.097554	0.36529	0.16316	-4.2042	-4.2167	-4.7063	-4.4792	-4.2542	-4.65	-4.4625	-4.475	-4.5604	-4.0229	-4.8917	-4.4125	-4.2583	-4.7833	-4.2979	-4.5333	-9.100	-15.793	177.196	173.272	244.765	67.267	144.434	217.478	40.794	141.479	-42.219	127.784	-102.499	212.085	-55.661	-50.095	0.00075206	0.000527	0.00014558	1404.3	4.7372e-06	4.702e-06	1392	372.48	6.122e-06	3.4345e-06	424.11	144.43	126.77	43.442	5.1687e-06	52.752	0.00069233	0.00074419	0.00020414	1424.6	7.8004e-06	8.3609e-06	1413.5	379.04	7.9151e-06	8.4384e-06	433.52	147.87	129.67	44.485	7.8471e-06	54.307	46.663	-12.168	-12.677	-91.571	21.033	46.014	-91.789	-87.115	38.049	52.894	-87.555	-83.535	-82.922	-78.205	25.518	-78.857	-8191	255	
32214.795	1	1	0	0	0.10278	0.11685	0.067583	0.077072	0.11138	0.094605	0.12619	0.24896	0.034505	0.10358	0.084183	0.19308	0.17827	0.13999	0.099419	0.17949	-4.2896	-4.1479	-4.6604	-4.4271	-4.2312	-4.7063	-4.4458	-4.6229	-4.6375	-3.9917	-4.7562	-4.4062	-4.3104	-4.7833	-4.1292	-4.4833	77.420	71.568	26.513	201.283	-84.822	129.129	74.620	135.623	23.738	235.382	122.443	89.610	107.818	-81.869	-4.690	-99.887	0.00074774	0.00059286	0.00013278	1403.6	4.8358e-06	3.2998e-06	1391.9	371.7	5.6892e-06	5.865e-06	425.78	145.16	126.6	43.157	4.8125e-06	52.792	0.00067194	0.00075	0.00020588	1424.3	7.9273e-06	7.8945e-06	1412.2	378.69	7.6299e-06	8.5614e-06	433.56	148.03	129.44	44.382	7.9621e-06	54.323	49.899	-5.201	-27.056	-91.435	40.105	61.795	-91.995	-87.118	43.039	33.616	-87.625	-83.564	-83.060	-78.036	27.646	-78.784	-8191	255	
32214.867	1	1	0	0	0.11654	0.17744	0.19268	0.13663	0.10741	0.13096	0.064808	0.35913	0.16449	0.12081	0.10753	0.14721	0.080185	0.15345	0.16066	0.16011	-4.2438	-4.1062	-4.5417	-4.5563	-4.2063	-4.6813	-4.4229	-4.3812	-4.6292	-4.025	-4.6979	-4.4646	-4.1771	-4.8438	-4.2958	-4.4292	-90.197	-50.261	36.843	216.850	-49.034	200.365	-12.098	195.817	73.001	172.588	159.794	246.189	65.149	58.574	-19.560	217.629	0.00075457	0.00053031	0.00015539	1407.4	3.9193e-06	5.8313e-06	1392.1	373	6.559e-06	5.0922e-06	425.49	144.89	126.74	43.262	4.757e-06	52.714	0.00067205	0.00075268	0.00019952	1424.6	7.8084e-06	8.0929e-06	1412.9	378.97	7.5542e-06	8.2539e-06	433.19	147.87	129.61	44.444	8.1889e-06	54.321	46.059	-26.901	-11.652	-91.552	28.291	44.608	-91.746	-87.038	20.198	66.838	-87.633	-83.346	-82.965	-78.007	33.050	-79.000	-8191	255	
32214.963	1	1	0	0	0.2166	0.037832	0.28326	0.14513	0.23771	0.11092	0.073277	0.12385	0.23248	0.10533	0.12336	0.15985	0.18379	0.074626	0.10545	0.099272	-4.2833	-4.2021	-4.5396	-4.8083	-4.1896	-4.6687	-4.4708	-4.3792	-4.6771	-4.2667	-4.5792	-4.7104	-4.1687	-4.7979	-4.3417	-4.3646	48.965	-3.984	178.564	208.802	-98.884	135.626	192.464	156.420	-99.929	24.042	-99.140	211.782	75.694	-8.140	-8.218	185.915	0.00076115	0.00058019	0.00012214	1404.2	6.3094e-06	6.18e-06	1394.1	371.98	4.4654e-06	5.8446e-06	424.01	144.54	125.77	43.142	4.8284e-06	52.546	0.00066022	0.00075884	0.00020464	1424.7	7.7495e-06	7.7257e-06	1412.6	379.49	7.4193e-06	8.1911e-06	432.93	148.15	129.3	44.435	7.7992e-06	54.323	49.156	-19.043	-27.272	-91.618	43.400	33.546	-91.792	-87.115	12.551	42.159	-87.662	-83.546	-82.706	-77.982	27.343	-78.787	-8191	255	
32215.059	1	1	0	0	0.19155	0.2795	0.074871	0.1523	0.018117	0.1285	0.2385	0.045697	0.030453	0.14016	0.19193	0.18912	0.095123	0.16267	0.22685	0.062229	-4.4146	-4.1229	-4.5896	-4.8146	-4.1312	-4.7896	-4.7104	-4.1562	-4.75	-4.1708	-4.6146	-4.7354	-4.2063	-4.6792	-4.3187	-4.2417	142.269	4.288	251.021	-51.567	7.081	203.199	196.597	133.160	-89.665	52.180	249.682	133.281	-95.014	166.634	73.781	142.502	0.00073186	0.0004384	0.00014493	1403.6	4.4793e-06	5.4321e-06	1391.1	371.93	5.728e-06	5.0279e-06	424.61	144.31	126.52	43.269	3.775e-06	52.841	0.0006469	0.00072733	0.00019755	1423.7	7.5596e-06	7.5381e-06	1411	379.26	7.3293e-06	8.2713e-06	433.12	147.74	129.38	44.399	7.7092e-06	54.338	50.319	-42.533	-8.144	-91.542	14.175	31.854	-91.893	-87.008	9.581	46.969	-87.583	-83.348	-82.730	-78.161	57.068	-78.945	-8191	255	
32215.180	1	1	0	0	0.096987	0.10539	0.051079	0.14738	0.14248	0.073343	0.26596	0.25573	0.1768	0.093838	0.08074	0.23751	0.013098	0.14883	0.13759	0.15885	-4.3771	-4.2167	-4.2667	-4.8354	-4.0333	-4.6021	-4.6604	-4.2542	-4.6833	-4.4083	-4.3146	-4.7333	-4.1354	-4.425	-4.4938	-4.2	160.782	156.233	63.656	225.911	236.875	40.531	191.686	174.483	-84.476	50.716	22.787	112.920	27.859	212.978	84.585	142.991	0.00076382	0.00058373	0.00014406	1402.2	4.3524e-06	5.618e-06	1390.3	370.93	6.5426e-06	5.581e-06	423.95	144.21	126.87	43.01	4.2045e-06	52.725	0.00065475	0.00077466	0.00020611	1422.7	7.7245e-06	7.8128e-06	1410.9	378.51	7.9233e-06	8.274e-06	432.62	147.83	129.51	44.301	7.7901e-06	54.276	41.130	-18.056	-16.525	-91.655	36.188	44.436	-91.832	-87.007	15.682	57.711	-87.566	-83.555	-82.963	-77.840	26.549	-78.778	-8191	255	
32215.273	1	1	0	0	0.10252	0.12534	0.070686	0.08201	0.1276	0.16408	0.033475	0.11595	0.27371	0.1481	0.077859	0.094142	0.025905	0.11645	0.082212	0.17765	-4.2771	-4.3958	-4.2021	-4.9292	-4.075	-4.5458	-4.6729	-4.3167	-4.7021	-4.3625	-4.3625	-4.7583	-4.2688	-4.6708	-4.5312	-4.3	119.889	108.862	-104.021	159.527	99.156	198.305	191.446	70.659	-16.821	163.984	102.940	117.765	180.127	-60.006	-98.361	211.474	0.00077034	0.00058769	0.00012385	1401.4	3.8322e-06	6.3565e-06	1392.8	371.88	8.2027e-06	5.8686e-06	424.29	144.56	126.32	43.036	4.367e-06	52.683	0.00064867	0.00072291	0.00021126	1422.5	7.5856e-06	8.0071e-06	1412.8	378.45	7.864e-06	8.2887e-06	432.81	147.76	129.19	44.274	7.5086e-06	54.193	49.953	-24.587	-14.115	-91.573	-6.391	45.006	-91.900	-86.906	43.059	42.214	-87.690	-83.385	-82.831	-78.156	49.090	-78.843	-8191	255	
32215.369	1	1	0	0	0.13617	0.33623	0.16384	0.21091	0.21222	0.28279	0.084944	0.16449	0.1201	0.10572	0.18016	0.22773	0.10822	0.09374	0.15555	0.24691	-4.3354	-4.4958	-4.2458	-4.9667	-4.1792	-4.3167	-4.7729	-4.2667	-4.6875	-4.5188	-4.2937	-4.9104	-4.3292	-4.4333	-4.7708	-4.1958	109.236	-82.272	147.204	237.847	241.360	207.931	175.591	197.968	0.410	76.480	214.721	188.921	4.556	68.130	126.302	220.297	0.00070647	0.00046654	0.00012215	1403.1	8.1588e-06	4.1012e-06	1388.4	372.81	5.9143e-06	5.1991e-06	425.31	145.63	126.02	43.073	5.2561e-06	52.502	0.0006894	0.00070023	0.00020073	1421.2	7.8604e-06	8.2604e-06	1411	379.05	7.5726e-06	8.1069e-06	433.6	148	129.23	44.299	7.2898e-06	54.187	46.391	-27.436	12.258	-91.811	18.797	43.695	-91.843	-87.081	17.766	59.796	-87.626	-83.336	-82.906	-77.860	31.176	-78.884	-8191	255	
32215.469	1	1	0	0	0.18675	0.18715	0.24036	0.3334	0.10723	0.17982	0.35642	0.12657	0.10849	0.14733	0.090605	0.25674	0.03169	0.11983	0.12869	0.22044	-4.25	-4.675	-4.0333	-4.9833	-4.2688	-4.4688	-4.9708	-4.3021	-4.6479	-4.5146	-4.1292	-4.8187	-4.4708	-4.2458	-4.6833	-4.3333	203.851	-70.567	240.639	226.868	-8.703	39.363	236.981	96.696	128.181	60.073	179.796	-93.729	-1.580	237.972	-51.026	191.158	0.00071367	0.00055751	0.00015851	1403.9	4.5851e-06	6.0569e-06	1386.3	370.29	5.9818e-06	5.2923e-06	426.68	144.51	126.45	43.145	5.2989e-06	52.748	0.00065453	0.00073186	0.00019935	1422.3	7.6376e-06	8.0929e-06	1409.9	378.42	7.6002e-06	7.643e-06	433.41	147.84	129.42	44.361	7.4163e-06	54.32	46.581	-27.830	-19.870	-91.497	18.674	45.301	-91.809	-87.194	16.725	45.711	-87.702	-83.395	-82.826	-77.962	34.013	-78.801	-8191	255	
32215.562	1	1	0	0	0.22549	0.19582	0.19082	0.35771	0.28019	0.063833	0.14368	0.17861	0.16888	0.15512	0.2603	0.1315	0.019708	0.22498	0.035393	0.097219	-4.1438	-4.5333	-4.2167	-4.9729	-4.3458	-4.2	-4.8875	-4.4042	-4.5604	-4.6417	-4.2792	-4.6833	-4.5083	-4.2833	-4.875	-4.2979	-100.076	137.906	34.763	164.640	-45.396	24.410	197.616	99.957	46.427	212.812	91.262	130.684	95.194	230.640	96.964	-104.141	0.00074814	0.00052928	0.00012452	1402.3	5.6723e-06	4.0301e-06	1386.5	372.02	8.1435e-06	5.3615e-06	425.04	144.15	125.81	42.962	5.3787e-06	52.59	0.00068398	0.00072512	0.00021212	1421.3	7.4038e-06	7.9964e-06	1409.4	378.46	7.7188e-06	8.2138e-06	433.12	147.73	129.08	44.284	7.4528e-06	54.19	50.244	-9.184	-10.912	-91.582	32.163	28.439	-91.748	-86.888	27.431	47.076	-87.419	-83.326	-82.750	-77.958	21.748	-78.637	-8191	255	
32215.658	1	1	0	0	0.124	0.13654	0.034292	0.20086	0.048468	0.17618	0.11612	0.26904	0.15157	0.20397	0.12413	0.25568	0.057064	0.065167	0.06725	0.19878	-3.9437	-4.6104	-4.1188	-4.7521	-4.3729	-4.2083	-5	-4.4667	-4.4125	-4.6042	-4.1833	-4.5083	-4.5979	-4.3354	-4.6583	-4.3063	-92.583	98.107	147.280	-79.744	16.672	222.928	182.663	176.348	240.658	102.571	230.390	-80.891	188.554	111.687	-42.411	228.413	0.00072617	0.00056823	0.00012778	1400.4	4.8901e-06	5.1471e-06	1388.1	370.96	5.2101e-06	3.7822e-06	423.68	143.45	125.63	42.92	3.5867e-06	52.262	0.0006773	0.00071139	0.00020844	1419	7.4777e-06	7.8919e-06	1408.8	377.6	7.3958e-06	7.913e-06	432.21	147.55	129.05	44.206	7.6807e-06	54.009	44.298	-28.598	-7.232	-91.589	38.961	46.137	-91.741	-87.135	15.912	40.297	-87.722	-83.533	-82.825	-78.136	38.922	-79.012	-8191	255	
32215.756	1	1	0	0	0.072048	0.18405	0.049013	0.18137	0.039301	0.13568	0.17846	0.37114	0.23431	0.14711	0.16125	0.088211	0.17468	0.10294	0.048173	0.30675	-4.025	-4.7979	-4.0417	-4.7167	-4.7208	-4.0604	-4.8375	-4.5271	-4.2688	-4.6542	-4.2083	-4.6604	-4.6146	-4.0271	-4.5083	-4.4833	182.258	202.153	94.791	192.731	233.569	-68.862	194.226	168.435	115.253	91.573	195.783	-103.041	189.609	195.512	124.936	-71.054	0.00075029	0.00061921	0.0001232	1401.6	5.3085e-06	5.2245e-06	1383.8	370.83	6.853e-06	5.5002e-06	423.55	144.32	126.17	42.953	6.7999e-06	52.487	0.00068448	0.00067976	0.00021402	1420.2	7.2389e-06	8.259e-06	1407.4	377.62	7.6841e-06	7.8676e-06	431.97	147.56	129.19	44.234	7.4938e-06	54.124	44.908	-26.377	-14.377	-91.566	39.423	53.209	-91.775	-86.994	19.880	52.421	-87.451	-83.444	-82.641	-78.107	40.758	-78.892	-8191	255	
32215.877	1	1	0	0	0.10356	0.046818	0.18406	0.2267	0.078442	0.10188	0.28878	0.13188	0.1057	0.023739	0.16808	0.34218	0.10619	0.149	0.1214	0.41086	-3.9521	-4.7562	-4.0792	-4.6875	-4.525	-4.0604	-4.8187	-4.5667	-4.0667	-4.6875	-4.1479	-4.4688	-4.5771	-4.2271	-4.6062	-4.6917	-26.108	62.598	185.759	176.057	169.890	67.023	167.673	-68.436	42.649	192.204	-86.357	-87.579	149.819	232.229	146.675	115.983	0.00069361	0.00044405	0.00013031	1400.5	6.8175e-06	6.2499e-06	1390.2	371.83	6.6606e-06	5.5617e-06	425.31	144.37	126.31	43.27	6.8305e-06	52.758	0.00067332	0.00069465	0.0002051	1421.7	7.5946e-06	8.1451e-06	1410.4	378.47	7.7965e-06	7.7673e-06	433.41	147.75	129.33	44.31	7.7e-06	54.212	44.701	-28.380	-12.739	-91.793	4.354	46.989	-91.823	-87.241	31.736	63.259	-87.651	-83.161	-82.678	-77.807	41.873	-79.154	-8191	255	
32215.973	1	1	0	0	0.11747	0.21458	0.076518	0.11479	0.16848	0.076648	0.26614	0.14711	0.12545	0.153	0.10185	0.24157	0.21181	0.23124	0.02755	0.054258	-3.925	-4.6854	-4.25	-4.7854	-4.5604	-4.1417	-4.6146	-4.8167	-4.1771	-4.6125	-4.325	-4.3021	-4.7771	-4.3313	-4.5604	-4.4917	-69.816	32.254	112.145	197.665	-12.161	181.925	197.515	181.682	237.539	228.404	122.793	-25.569	193.831	143.365	16.874	166.521	0.0006889	0.00051428	0.00013401	1399.3	4.09e-06	5.2303e-06	1391	371.01	7.59e-06	4.3462e-06	425.06	144.73	126.4	43.179	4.8476e-06	52.786	0.00067768	0.00068244	0.00021212	1419.8	7.3288e-06	8.2617e-06	1410.7	377.79	7.9018e-06	7.893e-06	433.21	147.84	129.23	44.333	7.5622e-06	54.222	47.418	-12.939	-16.674	-91.494	45.585	40.675	-91.805	-87.113	13.099	37.274	-87.739	-83.185	-82.914	-78.067	35.359	-78.803	-8191	255	
32216.068	1	1	0	0	0.15973	0.11693	0.17647	0.24126	0.021881	0.16214	0.26564	0.16043	0.11848	0.1747	0.25718	0.28459	0.12795	0.15245	0.27693	0.15144	-3.6479	-4.7375	-4.3292	-4.2917	-4.8333	-4.1625	-4.7771	-4.6271	-4.2583	-4.6875	-4.5292	-4.3729	-4.6875	-4.2438	-4.4146	-4.7083	93.024	183.664	126.894	202.486	40.485	131.205	183.270	233.689	-67.738	122.561	224.451	177.008	-95.811	167.649	191.878	135.825	0.00075138	0.00049556	8.9592e-05	1403.4	4.5936e-06	4.5846e-06	1387.5	370.63	5.9835e-06	6.1186e-06	425.15	144.39	126.81	42.978	4.1272e-06	52.673	0.00068017	0.00067232	0.00020063	1423.1	7.3478e-06	8.0285e-06	1410.3	378.09	7.8722e-06	7.8248e-06	432.75	147.78	129.33	44.29	7.5314e-06	54.308	45.874	-19.474	-4.737	-91.645	18.368	63.952	-91.801	-87.114	21.094	53.770	-87.432	-83.408	-82.850	-77.952	28.717	-78.915	-8191	255	
32216.164	1	1	0	0	0.33203	0.16389	0.066081	0.083519	0.16041	0.16076	0.1276	0.30364	0.2216	0.040464	0.21963	0.13304	0.1248	0.14027	0.1365	0.16337	-3.7542	-4.6104	-4.4083	-4.2667	-4.7812	-4.4646	-4.6479	-4.9313	-4.0687	-4.4979	-4.6042	-4.2854	-4.8458	-4.3292	-4.3438	-4.8271	59.551	-94.178	-25.813	233.549	44.635	250.507	185.502	222.054	76.146	-9.769	170.512	-88.731	-39.032	210.019	78.652	118.922	0.00073252	0.00064494	0.00010488	1399.7	3.6697e-06	3.6741e-06	1384.4	370.63	6.471e-06	5.7152e-06	426.06	144.17	126.62	43.214	5.7046e-06	52.49	0.00068758	0.00072233	0.00020201	1420.2	7.2799e-06	7.9347e-06	1408.4	378.66	7.7577e-06	7.7472e-06	432.6	147.66	129.17	44.335	7.6875e-06	54.203	43.607	-21.223	-10.787	-91.704	31.503	34.813	-91.810	-86.772	8.800	50.110	-87.690	-83.332	-82.962	-77.797	48.140	-78.976	-8191	255	
32216.260	1	1	0	0	0.0036857	0.12072	0.13305	0.18353	0.15079	0.1044	0.30901	0.16905	0.1839	0.042189	0.17084	0.24253	0.17068	0.1865	0.29609	0.14548	-3.7396	-4.6042	-4.3938	-4.1979	-4.6917	-4.4437	-4.4812	-4.8396	-4.1417	-4.55	-4.6229	-4.2	-4.9062	-4.3875	-4.4333	-4.8583	189.773	133.993	-85.476	204.855	-77.468	-45.925	117.497	213.616	226.758	96.123	155.614	124.257	192.339	251.069	239.554	142.065	0.00069461	0.00054922	0.00016176	1401.3	2.8998e-06	5.0284e-06	1385.5	371.39	9.1182e-06	5.9105e-06	424.95	144.16	126.25	43.171	4.792e-06	52.829	0.00067503	0.00068511	0.00019703	1421.1	7.0101e-06	7.6037e-06	1407.7	378.42	7.6166e-06	7.6095e-06	432.57	147.57	129.3	44.336	7.8972e-06	54.273	47.561	-19.690	-0.108	-91.573	7.086	62.454	-91.658	-86.910	11.188	42.994	-87.682	-83.394	-82.943	-78.108	42.374	-78.826	-8191	255	
32216.355	1	1	0	0	0.11151	0.056547	0.20562	0.39941	0.1101	0.22687	0.11145	0.33133	0.088884	0.13746	0.24292	0.077156	0.23293	0.32003	0.023955	0.1663	-3.7979	-4.4667	-4.4896	-4.35	-4.7917	-4.3688	-4.3646	-4.9646	-4.1042	-4.3938	-4.6583	-4.1396	-4.7	-4.475	-4.2708	-4.7521	-9.250	46.189	-67.452	187.363	-95.409	81.902	-58.321	174.581	74.871	-46.024	174.985	214.798	161.688	-98.540	193.292	-42.002	0.00075972	0.00059174	0.00012751	1403	4.2359e-06	5.9636e-06	1388	370.87	5.1083e-06	4.306e-06	424.98	144.71	126.26	42.984	5.4287e-06	52.709	0.00066669	0.00066615	0.00019722	1421	7.2219e-06	7.4684e-06	1409	378.2	7.4295e-06	7.8087e-06	432.26	147.87	129.37	44.286	7.3639e-06	54.22	52.782	-20.544	-9.452	-91.661	38.812	18.869	-91.917	-87.082	22.540	44.639	-87.678	-83.417	-83.026	-77.976	42.251	-78.910	-8191	255	
32216.475	1	1	0	0	0.10262	0.11558	0.23669	0.097741	0.070384	0.13406	0.31956	0.28613	0.15107	0.13775	0.26529	0.14642	0.084806	0.12428	0.14157	0.092185	-3.9042	-4.4292	-4.6646	-4.2688	-4.6	-4.4021	-4.525	-4.8208	-4.4167	-4.3438	-4.6896	-4.2417	-4.6104	-4.5458	-4.0958	-4.6604	76.043	205.708	31.307	241.102	70.147	-62.629	194.197	-100.031	63.049	60.400	210.491	-80.365	75.331	178.437	252.682	-13.401	0.00068949	0.00050965	9.8153e-05	1399.7	3.5223e-06	5.6283e-06	1384.5	370.35	5.5876e-06	4.2017e-06	424.74	144.67	126.12	43	4.2378e-06	52.468	0.00067802	0.0006636	0.00017659	1419.4	6.8722e-06	7.6332e-06	1406.8	377.89	7.2516e-06	7.786e-06	431.93	147.39	128.8	44.207	7.422e-06	53.995	48.097	-39.520	0.829	-91.797	-9.804	39.699	-91.626	-87.202	56.885	45.583	-87.463	-83.418	-82.971	-77.947	33.598	-78.613	-8191	255	
32216.570	1	1	0	0	0.11131	0.18498	0.11325	0.22648	0.070834	0.076554	0.21959	0.21738	0.11189	0.16111	0.052511	0.24735	0.17017	0.074134	0.16711	0.21917	-3.9833	-4.3417	-4.6917	-4.3896	-4.5958	-4.65	-4.2875	-4.7688	-4.3104	-4.3625	-4.9125	-4.1646	-4.4875	-4.7833	-4.0333	-4.7833	5.591	35.112	-27.363	154.518	36.018	211.902	184.202	250.385	127.515	201.134	-45.404	234.822	5.110	41.550	21.015	-68.995	0.00069802	0.00048821	0.00016188	1383.3	2.9415e-06	5.7139e-06	1380.2	368.5	5.2344e-06	4.5923e-06	421.9	143.13	125.16	42.865	3.5629e-06	52.39	0.0006406	0.00069755	0.00018725	1408.1	6.9781e-06	7.5796e-06	1398.7	375.81	7.5379e-06	7.3502e-06	428.75	146.32	127.96	43.963	7.7639e-06	53.803	43.654	-11.164	-19.929	-91.569	19.185	35.661	-91.873	-86.894	4.954	58.850	-87.720	-83.375	-82.804	-78.028	25.125	-78.865	-8191	255	
32216.668	1	1	0	0	0.18154	0.02134	0.12201	0.1661	0.15658	0.05767	0.1908	0.057638	0.12635	0.20022	0.2111	0.13268	0.087791	0.22681	0.11806	0.14228	-4.0604	-4.2979	-4.7562	-4.4104	-4.3354	-4.6792	-4.3562	-4.8771	-4.3667	-4.0146	-4.9125	-4.3771	-4.4271	-4.725	-4.2854	-4.6229	245.372	106.263	150.390	168.511	243.895	-17.890	203.271	111.657	133.183	172.128	254.599	14.414	254.398	162.359	-53.029	-65.687	0.00077798	0.00055512	0.00014106	1385.5	5.1931e-06	3.8218e-06	1372.3	369.29	5.5881e-06	4.8658e-06	419.86	143.08	124.45	42.501	3.1257e-06	52.15	0.00068542	0.00069848	0.00018161	1406.2	7.6955e-06	7.4965e-06	1394.1	375.28	7.589e-06	7.9611e-06	429.38	146.15	127.8	43.764	7.871e-06	53.651	50.686	-22.005	-2.561	-91.573	24.688	61.979	-91.866	-86.879	28.693	40.680	-87.447	-83.267	-82.912	-78.175	69.887	-78.914	-8191	255	
32216.738	1	1	0	0	0.1436	0.051302	0.23854	0.25335	0.052062	0.02299	0.34348	0.12074	0.13276	0.19157	0.053261	0.10375	0.18448	0.10021	0.33782	0.14183	-4.2854	-4.1479	-4.7375	-4.5354	-4.3021	-4.7063	-4.3354	-4.6542	-4.6083	-4.2833	-4.8521	-4.4062	-4.4042	-4.8208	-4.175	-4.7812	206.226	13.727	149.951	254.866	142.566	146.512	184.415	216.990	116.143	76.099	25.252	15.441	179.230	204.990	196.011	-87.347	0.00070778	0.00046235	0.00015337	1385.6	4.9243e-06	5.4706e-06	1372.8	368.13	5.9652e-06	4.6216e-06	420.3	143.24	124.95	42.844	2.9207e-06	52.351	0.00065928	0.0007214	0.00020188	1409.6	7.3028e-06	7.6694e-06	1395.7	375.22	7.636e-06	8.2299e-06	429.18	146.45	127.91	43.843	8.1285e-06	53.73	49.075	-18.881	-12.174	-91.815	14.520	58.367	-91.619	-87.123	27.517	55.831	-87.623	-83.283	-82.732	-77.925	59.410	-78.718	-8191	255	
32216.859	1	1	0	0	0.16986	0.31955	0.12919	0.18366	0.16707	0.087027	0.18326	0.31757	0.12686	0.16173	0.14205	0.074067	0.094508	0.09844	0.2894	0.17721	-4.2667	-4.1208	-4.625	-4.7292	-4.3063	-4.85	-4.4917	-4.6833	-4.5167	-4.1479	-4.7771	-4.5104	-4.3375	-4.8167	-4.0875	-4.4458	-32.157	-76.253	105.638	164.839	227.781	-62.036	-22.191	241.581	141.868	72.833	214.220	209.445	202.723	234.890	-16.052	236.154	0.00072924	0.0004073	0.00012932	1389.1	5.7268e-06	5.7607e-06	1380	368.12	4.1726e-06	5.3974e-06	421.42	142.82	125.15	42.573	6.2679e-06	52.319	0.00067813	0.00076454	0.00019647	1409.8	7.7255e-06	8.4453e-06	1400.3	375.29	7.8211e-06	8.4946e-06	429.72	146.35	128.08	43.791	7.8915e-06	53.785	50.959	-5.873	-26.394	-91.605	24.633	30.994	-91.921	-86.862	5.839	39.031	-87.755	-83.483	-82.755	-77.802	45.951	-78.647	-8191	255	
32216.955	1	1	0	0	0.17064	0.13886	0.16407	0.31821	0.12105	0.29749	0.10378	0.020289	0.053051	0.1188	0.10561	0.29174	0.2199	0.13387	0.13593	0.13028	-4.3313	-4.1729	-4.6167	-4.6	-4.3104	-4.6417	-4.4271	-4.6417	-4.6396	-4.0854	-4.6854	-4.3917	-4.3229	-5.1708	-4.2937	-4.3875	170.026	-74.598	113.562	-95.545	157.645	162.168	-67.979	-3.063	124.956	-71.472	75.521	248.793	-16.768	-59.512	99.260	152.600	0.00076017	0.0005242	0.00010481	1392.3	5.8214e-06	2.8019e-06	1379.6	366.69	5.6394e-06	5.53e-06	422.75	143.09	125.12	42.637	4.7924e-06	52.128	0.00068083	0.00075524	0.0002009	1411.4	8.1611e-06	8.176e-06	1400.3	375.21	7.8671e-06	8.5681e-06	429.78	146	128.09	43.821	7.912e-06	53.639	48.963	3.505	-6.591	-91.517	30.141	44.763	-91.777	-86.995	3.251	57.500	-87.560	-83.306	-82.464	-78.161	20.836	-78.775	-8191	255	
32217.053	1	1	0	0	0.23174	0.10661	0.11644	0.30286	0.082324	0.10411	0.11331	0.12621	0.12567	0.068885	0.10004	0.088083	0.14773	0.31869	0.099126	0.10437	-4.3646	-4.1646	-4.7188	-4.6813	-4.0708	-4.575	-4.6813	-4.4708	-4.6813	-4.2021	-4.8354	-4.6083	-4.2958	-4.8208	-4.4271	-4.4083	-70.456	181.468	-103.804	232.526	68.417	-33.817	20.594	-51.231	7.330	-4.789	-3.510	232.905	137.616	215.406	116.661	204.599	0.00076313	0.00042726	0.00013828	1386.3	4.063e-06	4.4835e-06	1377.6	367.9	4.5305e-06	5.7185e-06	421.51	142.66	124.51	42.597	5.501e-06	51.933	0.00068194	0.00079001	0.00021238	1407.6	7.9113e-06	8.4668e-06	1397.4	374.78	7.909e-06	9.0895e-06	429.48	145.95	127.71	43.734	7.9291e-06	53.661	43.698	-27.148	-27.403	-91.575	26.045	56.302	-91.927	-86.983	12.705	39.857	-87.543	-83.432	-82.896	-77.865	31.980	-79.007	-8191	255	
32217.148	1	1	0	0	0.076841	0.15054	0.12515	0.31866	0.13916	0.048559	0.17885	0.13804	0.073626	0.060534	0.35128	0.11096	0.11328	0.30193	0.017065	0.24269	-4.3917	-4	-4.4542	-4.7521	-4.1771	-4.7104	-4.4521	-4.4583	-4.7167	-4.2771	-4.5542	-4.8208	-4.2333	-4.5979	-4.4437	-4.1521	254.809	45.960	44.960	210.479	6.854	119.952	163.530	66.181	58.912	56.467	227.236	169.117	44.443	-92.215	35.318	248.609	0.00074885	0.00041866	0.00013519	1391.7	6.3852e-06	6.5262e-06	1380.1	368.25	4.7064e-06	5.6362e-06	419.65	142.71	124.91	42.508	4.9009e-06	52.08	0.00067188	0.00079652	0.00020726	1409.4	8.303e-06	9.0403e-06	1398.3	375.02	7.7638e-06	9.0774e-06	428.31	145.8	127.67	43.713	8.4579e-06	53.574	50.108	-7.686	-32.351	-91.673	19.315	52.069	-91.712	-87.003	23.027	41.416	-87.561	-83.518	-82.768	-77.976	49.839	-78.774	-8191	255	
32217.268	1	1	0	0	0.042636	0.12867	0.14595	0.26809	0.23723	0.12547	0.2162	0.47851	0.10916	0.11374	0.2644	0.047983	0.13612	0.13992	0.050471	0.13472	-4.5625	-4.2208	-4.4354	-4.8583	-4.0604	-4.5312	-4.8604	-4.0542	-4.7042	-4.3375	-4.4875	-4.8646	-4.3771	-4.5104	-4.5604	-4.25	-31.259	224.707	234.582	202.062	124.104	194.961	134.391	211.083	48.065	116.396	-91.042	236.098	128.219	71.771	246.598	243.513	0.0006714	0.00059309	0.00016306	1390.2	3.9291e-06	5.6236e-06	1381.1	367.68	4.407e-06	6.1058e-06	421.6	142.25	124.85	42.477	5.3234e-06	52.067	0.00069388	0.000837	0.00022645	1409.9	8.4798e-06	9.2333e-06	1400.1	375.08	8.323e-06	9.5614e-06	428.84	145.74	127.8	43.656	8.7165e-06	53.611	44.207	-8.621	-22.102	-91.507	57.793	37.274	-91.821	-86.954	29.188	37.788	-87.553	-83.291	-82.828	-77.987	54.577	-78.709	-8191	255	
32217.342	1	1	0	0	0.19149	0.16663	0.032935	0.28356	0.18911	0.10837	0.2016	0.21222	0.089439	0.084271	0.1768	0.091256	0.14824	0.2043	0.16915	0.13749	-4.2896	-4.3938	-4.4771	-4.8812	-4.0729	-4.6229	-4.8063	-4.2688	-4.6979	-4.425	-4.4833	-4.8562	-4.1458	-4.7208	-4.6396	-4.1979	190.288	157.356	147.240	250.537	74.550	194.080	171.991	158.217	236.003	-44.535	-22.218	212.668	223.004	217.613	-78.088	218.071	0.00073212	0.00044634	0.00017197	1396.3	2.5008e-06	6.6582e-06	1380.5	368.14	6.1163e-06	5.3972e-06	421.69	142.08	125.27	42.628	3.8069e-06	51.936	0.00071399	0.00083304	0.00024433	1415	8.6607e-06	9.2869e-06	1401.3	375.2	8.4549e-06	9.27e-06	429.32	145.75	127.75	43.771	8.4157e-06	53.549	41.196	-13.938	0.559	-91.567	58.690	42.828	-91.820	-86.843	50.276	38.258	-87.372	-83.533	-82.850	-78.149	26.257	-78.901	-8191	255	
32217.438	1	1	0	0	0.035276	0.07267	0.050378	0.3729	0.039215	0.12141	0.040382	0.052527	0.065013	0.024324	0.084325	0.1832	0.18867	0.3328	0.11626	0.25646	-4.3063	-4.5312	-4.2542	-4.7646	-4.1417	-4.4938	-4.8396	-4.1292	-4.7812	-4.5833	-4.1917	-4.7812	-4.2729	-4.5312	-4.4896	-4.2	223.771	3.095	232.352	219.586	89.224	185.360	215.660	62.299	167.298	10.091	155.486	223.368	216.074	216.547	16.318	163.750	0.00070282	0.00036428	0.0001463	1392.8	4.6535e-06	5.5096e-06	1377.2	367.93	5.6524e-06	4.7858e-06	421	143.06	124.08	42.494	5.129e-06	52.052	0.00072676	0.00080304	0.00024597	1413.4	8.5588e-06	9.3365e-06	1402.5	375.63	8.6052e-06	9.413e-06	429.46	146.05	127.48	43.707	8.7712e-06	53.569	45.537	-28.666	-15.129	-91.695	-7.782	40.272	-91.848	-87.133	29.474	32.908	-87.402	-83.327	-82.738	-77.876	50.698	-79.069	-8191	255	
32217.557	1	1	0	0	0.12644	0.22513	0.15611	0.12762	0.1094	0.062257	0.17904	0.31644	0.12413	0.19235	0.060406	0.17738	0.23651	0.21214	0.092944	0.10563	-4.4083	-4.5458	-4.1083	-4.9375	-4.375	-4.3854	-4.8812	-4.2188	-4.6167	-4.5167	-4.1896	-4.7646	-4.4271	-4.3562	-4.5375	-4.0521	100.524	215.977	-39.523	248.643	158.679	-92.506	250.518	163.120	-18.419	203.162	222.646	227.742	147.158	196.771	5.540	240.637	0.00066384	0.00045001	0.00012892	1399.2	6.3041e-06	4.9843e-06	1383.7	369.09	6.9105e-06	5.2355e-06	421.87	142.61	125	42.57	4.8441e-06	51.962	0.00071714	0.00083641	0.00024374	1418.3	8.8016e-06	1.006e-05	1406.2	376.14	8.7156e-06	9.2579e-06	430.08	146.31	128.12	43.77	9.0311e-06	53.599	45.070	0.152	-0.820	-91.646	18.951	57.507	-91.858	-87.100	58.817	37.415	-87.481	-83.442	-82.833	-77.932	18.155	-79.016	-8191	255	
32217.652	1	1	0	0	0.25959	0.19246	0.21601	0.27962	0.21194	0.15905	0.19782	0.14595	0.1262	0.055382	0.31689	0.087647	0.23725	0.33772	0.18506	0.15603	-4.1354	-4.5854	-4.1937	-4.9167	-4.3417	-4.2271	-4.7646	-4.2812	-4.6062	-4.7229	-4.1708	-4.9375	-4.4479	-4.1417	-4.8771	-4.3562	-59.949	236.451	-96.224	225.305	140.731	130.572	118.926	178.833	-6.331	74.952	211.992	-37.724	204.324	227.799	41.009	146.387	0.00070422	0.00053315	0.00015373	1398.9	5.2175e-06	7.2041e-06	1387.7	370.21	5.7833e-06	4.8835e-06	423.5	142.72	125.11	42.697	3.3303e-06	52.304	0.0007398	0.00083095	0.00024525	1420.8	8.8086e-06	1.0154e-05	1407.1	376.53	8.9917e-06	9.2633e-06	430.65	146.25	128.2	43.872	9.1336e-06	53.766	45.462	-13.427	-21.502	-91.788	31.423	46.127	-91.837	-86.988	31.960	56.343	-87.691	-83.418	-82.809	-78.218	40.792	-78.941	-8191	255	
32217.748	1	1	0	0	0.13769	0.1739	0.073214	0.19065	0.14388	0.11721	0.20993	0.23794	0.046615	0.21004	0.13937	0.060546	0.19004	0.29516	0.24585	0.1211	-4.0312	-4.5125	-4.1062	-4.7562	-4.3875	-4.1896	-4.8146	-4.4146	-4.2208	-4.6979	-4.2667	-4.6771	-4.5229	-4.1438	-4.8583	-4.3604	36.114	-74.179	46.221	195.003	130.146	-70.705	-86.807	229.284	-35.571	108.668	162.937	28.735	191.781	229.748	67.484	-48.226	0.00074216	0.00050664	0.00016822	1403.1	5.515e-06	3.9348e-06	1392.2	369.59	5.6256e-06	4.9882e-06	422.36	143.53	125.69	42.648	5.1193e-06	52.204	0.00074699	0.00088503	0.00025529	1423.8	9.0464e-06	9.8122e-06	1411.6	377.26	9.0847e-06	9.7887e-06	431.52	146.57	128.52	43.913	9.0527e-06	53.711	48.716	-31.262	-11.275	-91.653	36.464	55.443	-91.823	-86.882	20.512	56.598	-87.620	-83.236	-82.925	-78.134	50.939	-78.800	-8191	255	
32217.869	1	1	0	0	0.24721	0.078393	0.20125	0.18554	0.16478	0.098587	0.24033	0.12557	0.1617	0.116	0.15724	0.037237	0.063068	0.078363	0.094551	0.098321	-3.9354	-4.5958	-4.0479	-4.8271	-4.2854	-3.9896	-4.9208	-4.3042	-4.3104	-4.625	-4.2458	-4.5792	-4.6271	-4.2167	-4.5854	-4.375	53.939	-68.620	140.671	-100.972	84.013	107.054	170.101	-48.175	-38.521	46.158	221.907	249.099	207.447	192.370	-89.848	211.040	0.00075081	0.000621	0.00010989	1410.6	5.1969e-06	3.8848e-06	1391.1	368.35	5.6715e-06	5.7737e-06	423.97	143.46	125.41	42.576	4.7701e-06	52.138	0.00076213	0.000852	0.00024932	1428.5	8.7596e-06	1.0346e-05	1413.6	377.17	9.1532e-06	9.7071e-06	432.51	146.62	128.51	43.879	9.5142e-06	53.758	47.864	-10.113	-0.729	-91.501	29.061	38.353	-91.873	-87.065	14.366	48.267	-87.585	-83.424	-82.748	-78.081	38.580	-78.863	-8191	255	
32217.965	1	1	0	0	0.18318	0.039932	0.38354	0.12105	0.2658	0.16008	0.1239	0.17122	0.1568	0.12594	0.18576	0.11212	0.11677	0.18586	0.19679	0.17763	-3.7292	-4.6646	-4.1208	-4.5875	-4.5396	-4.0396	-4.8021	-4.7667	-4.1104	-4.6979	-4.3167	-4.5042	-4.6229	-4.1083	-4.6146	-4.5062	190.339	78.499	-70.566	-35.009	21.806	-75.630	171.318	172.197	-102.908	11.089	252.232	61.125	92.850	199.252	-2.760	-60.504	0.00077419	0.00044202	0.00017197	1410	3.4057e-06	4.5388e-06	1395.4	372.18	3.3434e-06	4.502e-06	424.88	143.93	126.2	42.888	5.29e-06	52.137	0.00077943	0.00090201	0.00025781	1430.8	9.1523e-06	1.0631e-05	1418	378.27	9.188e-06	9.9491e-06	432.94	147.03	128.81	44.009	9.7319e-06	53.781	46.839	-25.802	-3.487	-91.593	29.277	42.919	-91.886	-87.013	65.144	51.607	-87.545	-83.351	-82.963	-78.093	45.822	-78.842	-8191	255	
32218.035	1	1	0	0	0.11846	0.32071	0.10357	0.25873	0.23319	0.074797	0.12024	0.16814	0.11208	0.18361	0.24938	0.16877	0.12386	0.025853	0.2288	0.20536	-3.875	-4.7667	-4.2063	-4.5229	-4.6813	-4.0896	-4.8917	-4.6937	-4.2458	-4.7604	-4.4146	-4.4583	-4.9125	-4.2167	-4.4563	-4.5062	-22.122	-32.503	191.663	235.482	19.785	65.811	67.220	-71.074	-42.413	-79.725	191.747	36.306	100.022	36.999	64.446	198.988	0.00062431	0.00044558	0.00015662	1415.9	5.4038e-06	7.0188e-06	1400.4	372.57	8.164e-06	5.6867e-06	425.85	144.26	125.81	43.011	3.6381e-06	52.35	0.00075976	0.00089712	0.00026572	1435.9	9.3701e-06	1.0935e-05	1420.7	378.97	9.7043e-06	1.0055e-05	433.28	147.27	128.84	44.122	9.5564e-06	53.934	48.219	-15.620	-13.594	-91.729	19.624	38.625	-91.814	-87.199	0.009	31.478	-87.424	-83.240	-82.948	-78.090	31.115	-78.860	-8191	255	
32218.156	1	1	0	0	0.33887	0.13582	0.097981	0.3152	0.18257	0.27943	0.15893	0.1059	0.1134	0.27021	0.11518	0.10431	0.23155	0.1741	0.19689	0.088411	-3.6479	-4.6104	-4.2083	-4.2375	-4.7021	-4.175	-4.7458	-4.65	-4.0125	-4.6333	-4.2	-4.25	-4.6458	-4.2083	-4.4688	-4.5708	182.379	-37.842	-62.485	207.263	195.376	107.714	137.187	132.630	251.181	240.124	-83.165	232.705	-84.231	-3.224	-56.954	-66.279	0.00076064	0.00051051	0.00013133	1413.6	7.5401e-06	4.8155e-06	1404.6	371.87	9.0747e-06	5.7986e-06	425.88	143.83	126.4	42.764	3.4117e-06	52.538	0.00076821	0.00091619	0.00025847	1434.6	8.9864e-06	1.0242e-05	1422.4	379.26	9.8228e-06	1.0872e-05	433.88	147.28	129.26	44.049	9.4823e-06	53.953	48.475	-21.434	-9.242	-91.777	29.941	56.346	-91.756	-86.987	11.250	50.113	-87.663	-83.408	-83.119	-77.992	23.446	-78.778	-8191	255	
32218.252	1	1	0	0	0.22354	0.12394	0.23651	0.25104	0.064749	0.18903	0.26053	0.25472	0.048309	0.18414	0.064649	0.29875	0.1148	0.12019	0.15517	0.066804	-3.6708	-4.5146	-4.3542	-4.3771	-4.6854	-4.1292	-4.5771	-4.7583	-4.0667	-4.6125	-4.7292	-4.275	-4.7729	-4.3229	-4.3708	-4.6458	253.521	135.497	-41.337	188.236	-12.208	54.404	226.008	237.488	244.646	223.526	-104.085	244.826	-91.756	193.227	39.124	-87.229	0.00067532	0.0004995	0.00013068	1420	3.3364e-06	4.078e-06	1401.5	372.08	5.7432e-06	5.32e-06	424.32	142.91	125.54	42.771	4.6394e-06	52.156	0.00076263	0.00089887	0.00024344	1437	8.9355e-06	1.0415e-05	1422	378.79	9.4896e-06	9.401e-06	433.23	146.74	128.52	43.986	9.2236e-06	53.811	44.240	-18.732	-19.919	-91.777	2.298	57.621	-92.025	-87.071	29.847	49.699	-87.673	-83.469	-82.890	-78.149	26.415	-79.139	-8191	255	
32218.348	1	1	0	0	0.12516	0.15744	0.26867	0.20377	0.16043	0.20046	0.21207	0.13927	0.091033	0.16147	0.13815	0.268	0.14596	0.28596	0.050212	0.25754	-3.7333	-4.5021	-4.5083	-4.3958	-4.7833	-4.4271	-4.3729	-4.7542	-4.2146	-4.3521	-4.5333	-4.1708	-4.8	-4.4062	-4.3042	-4.6958	164.914	111.906	-95.430	-99.571	51.748	-25.774	153.553	207.978	-85.852	201.934	234.225	-88.569	-76.426	192.556	166.472	191.549	0.00065648	0.0003121	0.00011146	1415.2	6.0665e-06	5.2056e-06	1402.6	371.22	4.9793e-06	6.6663e-06	424.04	143.74	125.28	42.844	3.7087e-06	52.02	0.00077495	0.00084851	0.00025867	1434.6	9.0064e-06	9.8672e-06	1423.4	378.52	9.4752e-06	1.0347e-05	432.68	146.95	128.6	43.971	9.8892e-06	53.81	44.187	-22.032	-11.380	-91.579	4.002	64.368	-91.987	-86.906	12.465	42.364	-87.497	-83.708	-82.954	-78.258	36.048	-78.811	-8191	255	
32218.443	1	1	0	0	0.11418	0.098726	0.068282	0.26085	0.18911	0.15868	0.40848	0.16868	0.083751	0.072328	0.088144	0.10751	0.14913	0.15198	0.014052	0.23141	-3.825	-4.3438	-4.5625	-4.2729	-4.5521	-4.4125	-4.3625	-4.8167	-4.1375	-4.475	-4.7979	-4.1271	-4.5938	-4.4333	-4.1104	-4.8125	29.070	205.311	33.451	251.051	-97.227	228.279	245.306	166.124	-54.908	236.448	-25.792	-44.793	189.112	-72.456	-96.862	194.948	0.0007208	0.00051947	0.00015014	1416.1	6.6722e-06	5.963e-06	1400.6	371.23	6.8951e-06	3.9325e-06	425.26	142.98	125.25	42.798	5.0568e-06	52.234	0.00077103	0.00091084	0.00025155	1433.5	9.1363e-06	9.9114e-06	1421	378.74	9.2871e-06	9.8341e-06	432.99	146.63	128.42	43.862	9.978e-06	53.876	46.730	-36.289	-4.967	-91.581	31.423	33.251	-91.895	-87.116	-0.735	40.833	-87.671	-83.220	-82.771	-78.253	37.121	-78.811	-8191	255	
32218.564	1	1	0	0	0.090251	0.063477	0.086987	0.22996	0.1267	0.090952	0.12965	0.25057	0.15613	0.12979	0.19355	0.15489	0.061897	0.12604	0.056794	0.15288	-3.875	-4.2458	-4.675	-4.3375	-4.6833	-4.4333	-4.1146	-4.7896	-4.1917	-4.3063	-4.6979	-4.0521	-4.6021	-4.5417	-3.9771	-4.7625	10.578	58.236	212.571	204.942	193.371	-80.125	119.764	203.839	86.589	164.494	169.415	-63.315	158.286	-89.066	207.610	179.314	0.00076013	0.00061146	0.00015427	1411	4.6932e-06	6.0827e-06	1402.7	371.28	6.0052e-06	3.0734e-06	425.24	143.5	125.63	42.809	3.1216e-06	52.301	0.00076589	0.00092166	0.00025329	1432.5	9.0464e-06	1.0214e-05	1421	378.41	9.3607e-06	1.0301e-05	432.97	146.87	128.7	43.923	1.0054e-05	53.817	47.844	-18.840	-2.428	-91.697	37.432	51.543	-91.935	-87.113	15.383	67.091	-87.708	-83.361	-82.776	-78.097	34.822	-78.879	-8191	255	
32218.637	1	1	0	0	0.15756	0.060868	0.087562	0.38829	0.15612	0.10502	0.19137	0.27426	0.17907	0.18685	0.13421	0.081181	0.025973	0.10254	0.10598	0.086496	-3.8792	-4.2646	-4.7729	-4.3146	-4.4187	-4.4812	-4.1771	-4.8063	-4.2875	-4.2333	-4.675	-4.3167	-4.5958	-4.7292	-4.0146	-4.8438	214.640	-61.602	-40.594	249.671	-14.076	55.815	192.956	185.803	-92.423	139.360	64.348	143.213	140.433	99.218	-29.212	195.984	0.0006964	0.00039379	0.00013034	1410.8	3.5803e-06	6.5243e-06	1402.4	370.95	4.4538e-06	5.0501e-06	424.9	143.67	125.06	42.731	4.9016e-06	52.122	0.00076711	0.00091899	0.00025378	1431.9	9.1033e-06	1.0437e-05	1420.5	378.2	9.4742e-06	1.0302e-05	432.61	146.91	128.54	43.975	1.0154e-05	53.767	53.289	-8.890	-2.897	-91.735	31.068	41.799	-91.734	-87.067	51.391	38.517	-87.547	-83.558	-82.724	-78.281	56.424	-79.044	-8191	255	
32218.732	1	1	0	0	0.13772	0.057048	0.19866	0.23346	0.11419	0.21749	0.13244	0.25694	0.22899	0.16163	0.16023	0.094863	0.01652	0.14968	0.31284	0.054927	-4.1	-4.1188	-4.675	-4.3292	-4.4125	-4.6625	-4.2708	-4.825	-4.375	-4.3771	-4.8208	-4.2312	-4.4917	-4.6521	-3.8417	-4.7375	253.536	218.676	163.442	202.893	-41.612	177.305	245.381	199.121	-55.739	65.587	193.592	-16.093	-86.979	-70.138	114.411	35.203	0.00075616	0.00056734	0.00015981	1415	5.8251e-06	5.6396e-06	1401.5	371.5	6.2955e-06	6.9375e-06	423.83	143.23	125.89	42.741	3.1765e-06	52.194	0.0007576	0.00093259	0.0002543	1434.5	9.1153e-06	1.0143e-05	1422.2	378.58	9.5448e-06	1.0901e-05	432.52	146.8	128.71	43.981	1.0183e-05	53.778	49.213	-27.402	-14.375	-91.651	19.439	40.830	-91.694	-86.993	14.238	43.977	-87.719	-83.484	-83.014	-77.964	35.227	-78.953	-8191	255	
32218.828	1	1	0	0	0.057041	0.25128	0.25379	0.16464	0.076038	0.23941	0.22326	0.18425	0.10068	0.2469	0.2397	0.11242	0.33956	0.081725	0.07283	0.094655	-4.1312	-4.0646	-4.6792	-4.2854	-4.325	-4.5875	-4.2542	-4.6542	-4.3542	-4.1417	-4.6979	-4.3604	-4.4458	-4.8042	-4.2917	-4.5875	32.912	2.397	-75.673	-62.655	-15.222	147.939	217.000	-4.352	44.466	148.097	-88.346	178.691	-97.015	-0.243	-76.989	79.266	0.00070438	0.0006587	0.00012956	1412.1	4.559e-06	5.6055e-06	1401.3	371.15	3.3775e-06	4.9861e-06	425.27	143.95	125.6	42.656	6.2838e-06	52.321	0.00078496	0.00090898	0.00026073	1434.2	9.3091e-06	1.0374e-05	1424.1	378.84	9.7063e-06	1.0487e-05	433.56	147.3	128.64	44.002	1.0131e-05	53.939	49.909	-20.549	-15.334	-91.728	-2.747	59.089	-91.871	-87.068	22.142	43.388	-87.634	-83.590	-82.710	-78.007	30.041	-78.968	-8191	255	
32218.949	1	1	0	0	0.072793	0.06999	0.20296	0.26323	0.072653	0.051395	0.24751	0.28803	0.22604	0.18189	0.053068	0.12567	0.27195	0.12289	0.053399	0.069838	-4.1875	-4.0708	-4.6521	-4.3187	-4.1458	-4.7583	-4.2458	-4.5167	-4.2958	-3.9188	-4.7542	-4.4417	-4.0625	-4.6792	-4.0375	-4.5854	243.999	192.473	-93.224	220.091	-29.043	-67.308	174.126	190.519	18.123	94.165	185.274	108.180	174.994	217.847	113.925	168.848	0.00066546	0.00053335	0.00013947	1414.3	4.9111e-06	7.2771e-06	1404.6	370.96	7.1312e-06	4.363e-06	426.41	144.13	125.75	42.821	5.4952e-06	52.345	0.00076346	0.00091945	0.00024613	1435.9	9.0773e-06	1.0963e-05	1425.2	378.6	9.8535e-06	1.0608e-05	433.82	147.16	128.77	44.034	1.0005e-05	53.863	49.903	-15.973	-22.231	-91.564	34.740	44.534	-91.801	-87.092	8.412	46.832	-87.667	-83.386	-82.892	-78.141	54.427	-78.873	-8191	255	
32219.045	1	1	0	0	0.099273	0.20663	0.14343	0.16029	0.046992	0.12579	0.14157	0.23673	0.22003	0.052206	0.20408	0.13384	0.28385	0.12714	0.087367	0.066455	-4.2875	-3.9021	-4.6292	-4.5	-4.0083	-4.7021	-4.4521	-4.3667	-4.4625	-4.0542	-4.5771	-4.5229	-4.0563	-4.8417	-4.0875	-4.325	153.220	19.961	-15.772	-91.597	192.403	221.754	173.040	218.387	17.488	-66.117	247.451	156.143	-93.725	186.749	-5.839	-79.203	0.00071918	0.00052925	0.00012696	1415	5.2489e-06	5.5976e-06	1400	372.47	5.8143e-06	5.8679e-06	424.28	144.09	125.58	42.965	4.2193e-06	52.041	0.0007476	0.00096946	0.00025502	1436.2	9.3501e-06	1.0293e-05	1423.6	379.09	9.3372e-06	1.1075e-05	433.54	147.25	128.98	44.054	9.2521e-06	53.839	44.460	-19.017	-29.708	-91.669	11.263	37.713	-91.810	-87.099	25.358	34.518	-87.575	-83.781	-83.162	-78.009	42.525	-78.877	-8191	255	
32219.141	1	1	0	0	0.14025	0.14186	0.17346	0.14836	0.12866	0.18144	0.19475	0.11875	0.25431	0.12247	0.11258	0.26044	0.16308	0.061838	0.19878	0.12841	-4.2792	-4.0958	-4.4437	-4.6521	-4.1042	-4.6521	-4.45	-4.4979	-4.6583	-4.0917	-4.6479	-4.3958	-4.3646	-4.7417	-4.3271	-4.4979	157.470	72.321	40.089	196.391	-39.132	113.878	228.328	100.992	75.681	161.300	-91.397	-94.520	217.506	140.262	-79.581	148.753	0.0006676	0.00054081	0.00010123	1418.8	5.4963e-06	3.7441e-06	1399.3	372.3	4.6996e-06	6.0288e-06	425.67	144.07	125.96	42.869	4.809e-06	52.185	0.00076987	0.00093283	0.00024741	1437.8	9.437e-06	9.8015e-06	1422.5	379.3	9.4231e-06	1.0346e-05	433.83	147.36	128.95	44.076	9.2954e-06	53.871	48.409	-4.440	-20.033	-91.543	13.969	60.228	-91.830	-86.995	26.951	44.809	-87.576	-83.249	-82.996	-78.034	43.716	-78.836	-8191	255	
32219.236	1	1	0	0	0.025589	0.17091	0.13214	0.32697	0.04104	0.086647	0.061205	0.18398	0.13861	0.015502	0.19914	0.032491	0.22295	0.13697	0.26771	0.25559	-4.3667	-4	-4.4771	-4.6104	-4.0708	-4.5521	-4.5729	-4.3854	-4.6958	-4.0563	-4.6521	-4.6771	-4.1729	-4.5583	-4.4938	-4.1396	37.429	46.148	199.632	167.319	21.584	62.385	211.413	159.571	245.365	135.707	142.007	-104.146	185.255	-8.318	173.815	-49.038	0.00079379	0.00045346	0.00016589	1420	5.8383e-06	4.2179e-06	1405.6	371.12	7.4482e-06	5.9065e-06	425.29	143.24	125.68	42.864	5.8834e-06	52.319	0.00073312	0.00089712	0.00025985	1438	9.2902e-06	1.0067e-05	1426	379.43	8.871e-06	1.0354e-05	434.26	147.07	128.88	44.078	9.7251e-06	53.876	48.894	-15.686	-17.487	-91.582	15.156	47.777	-91.856	-87.165	38.883	51.078	-87.526	-83.346	-82.912	-78.312	28.628	-79.085	-8191	255	
32219.334	1	1	0	0	0.046686	0.038591	0.12305	0.27647	0.33908	0.11899	0.056909	0.12202	0.19599	0.21502	0.10331	0.18941	0.13812	0.13527	0.20558	0.23473	-4.3417	-4.1917	-4.2667	-4.7229	-4.1292	-4.5396	-4.6521	-4.275	-4.7104	-4.2896	-4.4375	-4.6583	-4.1729	-4.5979	-4.4625	-4.1208	-67.162	91.830	132.227	208.197	35.423	20.336	89.904	196.767	218.382	-55.694	114.442	223.318	143.128	126.577	-52.217	188.751	0.000672	0.00047142	0.00012608	1417	4.319e-06	4.9352e-06	1407.2	371.62	3.3697e-06	5.3956e-06	427.19	144.1	126.01	42.811	4.9042e-06	52.364	0.00076335	0.00093771	0.00025735	1438.7	9.478e-06	1.0098e-05	1427.6	379.78	9.2432e-06	1.0743e-05	434.91	147.41	129.04	44.033	9.0288e-06	53.917	47.777	-22.106	-10.986	-91.748	-1.175	31.579	-91.799	-87.099	17.866	54.636	-87.763	-83.513	-82.676	-78.166	37.200	-78.741	-8191	255	
32219.430	1	1	0	0	0.14695	0.10488	0.13287	0.17678	0.072478	0.13449	0.22383	0.10601	0.12572	0.1269	0.14391	0.18859	0.065682	0.29436	0.059753	0.1487	-4.1687	-4.225	-4.1687	-4.6687	-3.9896	-4.3458	-4.5833	-4.1604	-4.4437	-4.2771	-4.275	-4.8438	-4.2354	-4.4958	-4.4979	-4.0458	95.849	2.774	-12.928	209.060	144.450	21.666	157.293	168.496	99.231	-60.483	220.596	250.655	191.581	245.412	96.576	115.173	0.00077305	0.00054615	9.5641e-05	1422.9	4.6734e-06	4.9197e-06	1406	372.64	5.8101e-06	5.2489e-06	426.57	143.88	126.22	42.855	5.6688e-06	52.499	0.00075147	0.00092957	0.00025555	1441.7	9.447e-06	1.0257e-05	1428	379.73	9.4558e-06	1.0652e-05	434.22	147.47	129.13	44.071	9.8242e-06	53.961	47.601	-18.760	-22.021	-91.622	38.115	42.889	-91.810	-87.071	31.583	43.072	-87.465	-83.504	-82.763	-78.221	42.155	-78.958	-8191	255	
32219.549	1	1	0	0	0.099189	0.1987	0.13817	0.28965	0.13701	0.15481	0.22309	0.22797	0.15979	0.15495	0.10502	0.094979	0.14106	0.22198	0.17982	0.24927	-4.0771	-4.2521	-4.0437	-4.6833	-4.1542	-4.5292	-4.8396	-4.225	-4.6167	-4.4938	-4.2458	-4.8479	-4.45	-4.5042	-4.6771	-4.1583	212.772	222.689	85.035	190.528	14.033	-89.895	-86.156	200.183	250.281	226.445	221.056	241.091	53.475	227.548	213.564	163.359	0.00072897	0.00050099	0.00016184	1420.3	6.4006e-06	5.5447e-06	1403.2	373.61	6.4553e-06	5.0415e-06	425.54	144.13	125.72	42.889	5.1628e-06	52.415	0.00075036	0.00094213	0.00025837	1441.1	9.2852e-06	1.0293e-05	1426	380.26	9.5253e-06	9.9558e-06	434.83	147.39	128.85	44.096	9.4709e-06	54.072	45.971	-11.434	-2.203	-91.470	17.641	55.068	-91.662	-87.030	19.524	52.469	-87.679	-83.388	-82.723	-78.145	26.385	-78.950	-8191	255	
32219.645	1	1	0	0	0.11989	0.084781	0.19534	0.43227	0.066713	0.015535	0.34416	0.2081	0.10257	0.26985	0.26736	0.17076	0.19357	0.22098	0.10835	0.2062	-4.3187	-4.4479	-4.1062	-4.8854	-4.4083	-4.1521	-4.9	-4.0729	-4.4437	-4.4812	-4.2083	-4.7917	-4.2375	-4.3562	-4.725	-4.1417	179.192	-72.955	-20.204	253.471	54.905	-93.286	142.898	173.699	-27.392	143.293	170.766	10.603	-42.463	-53.386	11.394	214.522	0.00079718	0.00048551	0.00013797	1417.4	6.3315e-06	5.2092e-06	1400	372.4	6.3576e-06	5.473e-06	425.52	143.82	125.53	42.885	6.393e-06	52.244	0.00074467	0.00088619	0.00025571	1438.2	9.0594e-06	9.6326e-06	1425.1	379.46	8.9027e-06	9.6496e-06	433.6	147.36	129.06	44.1	9.3581e-06	53.97	45.432	-21.799	-11.191	-91.636	38.994	39.833	-91.845	-87.184	20.924	65.786	-87.666	-83.502	-83.084	-78.039	46.556	-78.891	-8191	255	
32219.740	1	1	0	0	0.22765	0.076902	0.18776	0.10507	0.21121	0.096081	0.27151	0.19613	0.080235	0.1615	0.22746	0.10597	0.17523	0.23903	0.18119	0.1238	-4.2375	-4.4792	-3.95	-4.6875	-4.1833	-4.1687	-4.8396	-4.3042	-4.4688	-4.6417	-4.1854	-4.6333	-4.3812	-4.3688	-4.6396	-4.1958	245.493	86.918	26.171	234.147	-28.792	-47.050	207.071	-33.383	145.210	84.358	157.330	-63.812	184.123	189.139	247.838	215.206	0.00073004	0.00066758	0.00013638	1422.8	4.2605e-06	4.4131e-06	1404.7	372.47	4.6416e-06	4.3434e-06	426.21	144.32	125.55	42.756	3.5577e-06	52.131	0.00075522	0.00089514	0.00025886	1439.2	9.3341e-06	1.0346e-05	1425.3	379.79	9.372e-06	1.0015e-05	434.45	147.53	129.04	44.055	9.4071e-06	53.868	43.385	-13.525	-22.442	-91.630	43.094	37.880	-91.824	-87.095	16.462	54.493	-87.705	-83.492	-83.097	-78.175	29.920	-78.773	-8191	255	
32219.838	1	1	0	0	0.089058	0.15107	0.13539	0.24297	0.14548	0.1474	0.13884	0.23095	0.062184	0.073545	0.028236	0.074118	0.20072	0.20104	0.065828	0.21007	-4.0229	-4.7188	-4.0813	-4.8438	-4.3792	-4.2396	-4.9062	-4.4042	-4.2729	-4.6833	-4.3708	-4.5979	-4.6583	-4.2604	-4.75	-4.2646	-34.901	253.244	-101.838	203.361	107.734	186.536	85.262	194.014	179.307	172.929	239.541	209.330	-81.222	-46.537	84.892	135.469	0.0007273	0.00055328	0.00014719	1424	6.2788e-06	6.4201e-06	1405.8	372.47	5.5549e-06	3.5407e-06	426.88	144.38	125.89	43.157	6.194e-06	52.418	0.0007634	0.00092527	0.00026283	1440.1	9.2312e-06	1.0833e-05	1427.1	379.56	9.2452e-06	1.016e-05	434.28	147.56	128.98	44.154	9.7513e-06	53.934	48.986	-19.617	-9.081	-91.622	9.617	44.034	-91.883	-87.222	9.480	30.923	-87.390	-83.567	-82.926	-77.969	38.608	-78.916	-8191	255	
32219.934	1	1	0	0	0.072914	0.12301	0.048026	0.15602	0.19591	0.099819	0.13037	0.21897	0.095187	0.016217	0.08748	0.18807	0.16378	0.037747	0.15854	0.054589	-4.0458	-4.6292	-4.0146	-4.6042	-4.3896	-4.175	-4.8625	-4.3833	-4.2875	-4.675	-4.3375	-4.5083	-4.7917	-4.2146	-4.6521	-4.4958	-73.172	-45.799	-17.014	-89.356	114.293	-86.549	178.391	182.870	46.172	-67.350	198.655	-73.182	217.221	193.185	131.231	160.605	0.00073026	0.00049054	0.00012848	1422.8	3.972e-06	4.7459e-06	1409	372	7.7149e-06	4.9408e-06	427.04	143.95	126.42	42.762	6.4858e-06	52.314	0.00076451	0.00089503	0.00025912	1440.6	9.0753e-06	1.0496e-05	1429	379.58	9.4436e-06	9.7927e-06	434.47	147.39	129.23	44.068	9.2556e-06	53.997	45.995	-2.985	-1.441	-91.718	5.640	41.535	-91.810	-87.122	-8.032	41.146	-87.683	-83.439	-83.095	-78.017	33.148	-78.773	-8191	255	
32220.029	1	1	0	0	0.097527	0.11291	0.035945	0.22161	0.17901	0.048663	0.099405	0.32865	0.054308	0.034639	0.052147	0.22048	0.16228	0.22906	0.13528	0.13158	-3.8354	-4.6021	-4.1042	-4.5646	-4.5833	-3.9313	-4.8333	-4.45	-4.2646	-4.7396	-4.3063	-4.4771	-4.625	-4.2542	-4.4437	-4.5354	80.430	6.643	56.988	254.290	72.610	53.200	-92.614	241.467	-68.399	88.878	242.745	184.600	87.931	-86.573	17.138	143.749	0.00067792	0.00062745	0.00010705	1425.9	4.5442e-06	5.2519e-06	1407.9	373.29	7.8997e-06	4.3904e-06	424.81	144.18	125.36	43.025	4.2694e-06	52.213	0.00076274	0.00092352	0.00024777	1440	8.9684e-06	1.0317e-05	1426.5	379.78	9.3342e-06	9.8916e-06	434.03	147.29	128.86	44.091	9.6897e-06	53.891	46.801	-32.119	-2.871	-91.713	16.403	38.626	-91.890	-86.955	14.220	47.088	-87.654	-83.163	-82.945	-78.077	37.544	-78.817	-8191	255	
32220.125	1	1	0	0	0.1962	0.23995	0.2093	0.24794	0.10835	0.095295	0.36454	0.031998	0.083851	0.11456	0.1414	0.15387	0.22989	0.1598	0.14253	0.12676	-3.6479	-4.5646	-4.1583	-4.5958	-4.6229	-3.9792	-4.8792	-4.5792	-3.9271	-4.8604	-4.3104	-4.3479	-4.6708	-4.2396	-4.4125	-4.4625	-29.827	247.723	243.789	210.021	157.676	241.143	179.029	158.035	-78.556	-98.181	178.618	77.697	174.796	-37.137	227.689	58.791	0.00075687	0.0005477	0.00012529	1419.1	3.3142e-06	5.5726e-06	1407.8	371.38	6.115e-06	6.6639e-06	425.92	143.27	126.06	43.014	3.4092e-06	52.228	0.00076252	0.0008556	0.00025401	1439.5	8.9015e-06	9.9797e-06	1428	379.39	9.4865e-06	9.8689e-06	434.08	147.1	129.07	44.16	9.0721e-06	53.94	49.297	8.437	-14.665	-91.752	10.678	44.524	-91.818	-87.120	7.999	37.331	-87.681	-83.149	-82.906	-78.184	53.874	-78.639	-8191	255	
32220.223	1	1	0	0	0.056737	0.19245	0.27509	0.14933	0.10682	0.12217	0.034987	0.22984	0.19135	0.28416	0.093983	0.18218	0.17692	0.1478	0.10564	0.21755	-3.6729	-4.5792	-4.2333	-4.3417	-4.6729	-4.1062	-4.5604	-4.6917	-3.9333	-4.625	-4.5375	-4.2562	-4.625	-4.15	-4.3542	-4.6792	245.775	223.310	251.085	210.217	247.992	243.693	217.706	204.467	131.945	45.454	161.083	165.242	130.182	-63.050	-79.152	191.735	0.00074556	0.0003776	0.00013915	1417.8	6.8584e-06	5.821e-06	1404.4	372.75	7.3698e-06	6.1038e-06	427.02	143.74	126.05	42.821	4.094e-06	52.401	0.00075567	0.0008713	0.00026254	1438.8	8.9085e-06	1.0244e-05	1426.5	379.72	9.5529e-06	9.9972e-06	434.44	147.21	129.03	44.07	9.8823e-06	53.911	51.116	-17.577	-13.851	-91.553	3.391	30.451	-91.729	-86.997	36.655	53.354	-87.789	-83.443	-82.868	-78.065	44.577	-78.977	-8191	255	
32220.340	1	1	0	0	0.33459	0.05339	0.087003	0.31754	0.17413	0.24331	0.1903	0.18101	0.32319	0.070141	0.06712	0.14528	0.08908	0.10098	0.15542	0.12219	-3.6437	-4.6979	-4.3396	-4.1958	-4.6687	-4.2	-4.5542	-4.6958	-4.0375	-4.6958	-4.6417	-4.0979	-4.9062	-4.1896	-4.3063	-4.7604	144.730	-65.299	56.136	224.224	105.933	25.436	74.632	173.311	58.050	202.960	189.148	-77.228	209.772	-45.913	216.075	238.981	0.00076027	0.00059108	0.00014774	1421.4	7.4404e-06	5.8792e-06	1410.3	373.17	2.6714e-06	3.3265e-06	424.55	144.62	125.79	42.864	5.4933e-06	52.189	0.00078617	0.00089456	0.00026136	1441.2	8.8226e-06	1.0418e-05	1429.1	379.96	9.6e-06	1.0164e-05	433.45	147.57	128.95	44.098	9.7592e-06	53.931	46.212	-14.330	-26.082	-91.552	25.591	49.172	-91.847	-87.088	-9.515	35.805	-87.429	-83.352	-82.780	-77.969	36.850	-78.948	-8191	255	
32220.438	1	1	0	0	0.047248	0.11922	0.15139	0.41479	0.21327	0.20872	0.22325	0.034615	0.082637	0.20343	0.067772	0.055632	0.18572	0.22129	0.18295	0.26285	-3.7333	-4.5625	-4.4667	-4.2521	-4.6125	-4.2229	-4.3333	-4.9062	-4.0167	-4.5667	-4.5583	-4.1562	-4.7417	-4.3521	-4.3396	-4.8729	74.555	71.650	-19.020	214.467	-67.450	102.094	194.470	2.518	14.705	210.170	241.256	11.334	238.547	240.676	156.792	157.226	0.00066967	0.00047405	0.00012742	1417.2	6.4489e-06	3.6985e-06	1406.3	372.03	5.2898e-06	3.7435e-06	426.82	144.37	126.04	42.839	3.4996e-06	52.393	0.00075136	0.00086677	0.00024902	1440.1	8.8835e-06	9.8605e-06	1427.5	380.05	9.829e-06	1.0234e-05	434.78	147.41	128.96	44.049	1.0045e-05	53.984	50.145	-27.920	-5.029	-91.571	24.524	56.763	-91.710	-87.092	13.599	14.180	-87.694	-83.853	-82.853	-78.166	18.918	-79.055	-8191	255	
32220.510	1	1	0	0	0.20904	0.23053	0.096161	0.11418	0.12204	0.18116	0.26624	0.026643	0.06057	0.107	0.15125	0.061845	0.29943	0.11843	0.12044	0.083185	-3.6271	-4.4354	-4.625	-4.2333	-4.6625	-4.3625	-4.4292	-4.8438	-4.0479	-4.3604	-4.6833	-4.1	-4.5833	-4.4396	-4.1562	-4.8313	-37.945	3.539	92.358	250.439	216.705	-15.757	235.809	12.395	-55.578	84.276	152.543	217.302	230.851	-101.814	-45.244	148.643	0.00071634	0.00056112	0.00015562	1414.6	2.6388e-06	4.6772e-06	1406.6	373.36	7.8041e-06	4.8551e-06	426.27	144.33	125.47	42.872	5.2742e-06	52.264	0.00076937	0.00089991	0.00025561	1438.6	8.8645e-06	1.0526e-05	1428	379.93	9.5949e-06	1.0335e-05	434.26	147.4	128.92	44.004	9.7889e-06	53.817	51.008	-8.444	-15.490	-91.672	47.690	36.211	-91.779	-87.127	26.205	44.261	-87.558	-83.285	-82.623	-78.067	29.322	-78.843	-8191	255	
32220.629	1	1	0	0	0.09037	0.13703	0.067656	0.21739	0.18463	0.18682	0.16968	0.284	0.065922	0.024629	0.25002	0.11051	0.12591	0.21171	0.087282	0.28506	-3.9062	-4.4583	-4.7188	-4.2042	-4.5	-4.2688	-4.3958	-4.6917	-4.2104	-4.3896	-4.7	-4.2125	-4.6625	-4.7542	-3.9813	-4.6604	231.885	145.944	182.957	191.426	-70.891	223.279	243.471	-67.967	-104.901	225.122	-98.253	128.053	-47.660	247.809	254.500	214.691	0.00069515	0.0005444	0.00012453	1420.8	4.0709e-06	6.5772e-06	1404.4	372.54	5.1149e-06	4.8138e-06	424.4	143.9	125.83	42.792	4.8713e-06	52.585	0.00080126	0.00089328	0.00025479	1441.5	9.1083e-06	1.0407e-05	1427.3	379.7	9.3567e-06	1.0257e-05	433.52	147.53	128.93	44.042	9.798e-06	53.921	52.426	-17.522	-19.391	-91.680	17.181	61.019	-91.871	-87.197	27.448	45.101	-87.733	-83.460	-82.737	-78.287	34.119	-78.941	-8191	255	
32220.725	1	1	0	0	0.079996	0.21126	0.10655	0.045981	0.079445	0.091457	0.24925	0.15303	0.15079	0.12384	0.068606	0.10024	0.25794	0.17886	0.085947	0.1343	-3.9333	-4.4146	-4.7958	-4.3958	-4.5854	-4.475	-4.3187	-4.7875	-4.3438	-4.1604	-4.8479	-4.2812	-4.5333	-4.6917	-3.9938	-4.5854	120.591	157.114	212.723	176.326	-40.047	-68.709	206.487	248.944	-39.397	-85.357	159.376	-50.471	213.888	169.031	220.803	-96.986	0.00073573	0.00058676	0.00015217	1420.3	5.1704e-06	5.6563e-06	1406.1	371.55	8.2518e-06	5.4999e-06	424.52	143.43	125.25	43.173	5.0833e-06	52.157	0.0007691	0.00093492	0.00024886	1440.2	9.1842e-06	1.0244e-05	1429.6	379.5	9.0377e-06	1.0674e-05	433.31	147.15	128.85	44.154	9.643e-06	53.9	48.337	-14.500	6.805	-91.562	45.657	38.896	-91.726	-87.081	23.861	59.448	-87.475	-83.669	-83.066	-78.011	29.469	-79.008	-8191	255	
32220.820	1	1	0	0	0.13118	0.061955	0.15872	0.1872	0.17129	0.094071	0.089098	0.29514	0.25922	0.14605	0.03836	0.23717	0.11643	0.328	0.21872	0.25196	-3.9396	-4.1375	-4.6833	-4.2542	-4.4208	-4.6875	-4.3646	-4.7479	-4.5125	-4.1667	-4.8313	-4.1729	-4.3958	-4.6542	-4.0208	-4.6271	-22.709	205.284	73.194	220.224	-104.182	134.587	107.814	180.388	30.891	17.091	157.932	190.158	144.836	-100.261	-90.677	240.165	0.00074332	0.00049718	0.00014189	1422.1	5.9022e-06	7.0642e-06	1406.8	374.07	4.1292e-06	3.3081e-06	427.25	143.47	126.03	42.78	2.2694e-06	52.12	0.00073505	0.00091526	0.00023862	1439.5	9.3811e-06	1.036e-05	1427.9	380.25	9.3413e-06	1.0045e-05	434.3	147.23	129.02	44.001	9.7866e-06	53.786	48.010	-11.492	-9.866	-91.644	14.741	36.697	-91.906	-87.047	16.776	32.466	-87.804	-83.489	-82.953	-78.229	60.713	-78.957	-8191	255	
32220.918	1	1	0	0	0.12937	0.046386	0.16479	0.20433	0.043717	0.1667	0.14542	0.30283	0.1367	0.1223	0.083357	0.034961	0.25153	0.16096	0.088102	0.22528	-3.9896	-4.0479	-4.6333	-4.3375	-4.3208	-4.6354	-4.3354	-4.6479	-4.5687	-4.2312	-4.7667	-4.425	-4.3479	-4.8146	-3.9833	-4.4688	-91.097	166.738	-73.916	145.898	-68.313	183.404	-67.310	239.772	226.960	7.431	1.192	-92.731	-68.887	146.782	218.529	-80.652	0.00070837	0.00061517	0.00010664	1421.3	5.3533e-06	4.4431e-06	1406	372.71	5.0122e-06	3.9288e-06	427.11	143.86	126.14	42.935	4.9436e-06	52.381	0.00075727	0.00091712	0.00026257	1438.3	9.4111e-06	9.8752e-06	1425.5	379.86	9.1092e-06	9.9932e-06	434.36	147.29	129.08	44.046	9.684e-06	53.847	48.456	-22.383	-24.695	-91.687	6.101	40.524	-91.841	-87.119	-3.362	62.662	-87.691	-83.495	-82.724	-78.188	36.684	-79.060	-8191	255	
32221.037	1	1	0	0	0.177	0.29363	0.19598	0.25822	0.10008	0.20471	0.16766	0.21836	0.24618	0.15631	0.19828	0.11452	0.091141	0.12625	0.052691	0.19698	-4.1813	-4.0125	-4.4833	-4.4708	-4.2771	-4.5917	-4.3688	-4.6354	-4.4542	-4.1438	-4.775	-4.3521	-4.3063	-4.8292	-4.2188	-4.5396	-12.626	227.999	120.738	240.873	237.336	202.718	-67.542	212.297	243.228	68.077	176.764	144.049	-22.394	231.311	88.017	49.332	0.000785	0.00063889	0.00013087	1414.4	5.9064e-06	4.2131e-06	1406.8	372.96	4.2921e-06	7.2931e-06	424.45	144.14	126.55	42.804	5.9637e-06	52.103	0.00075301	0.00094922	0.00024574	1439	9.1353e-06	9.8645e-06	1426.3	379.41	8.6175e-06	1.06e-05	433.59	147.28	129.11	43.962	9.9963e-06	53.862	48.900	-4.487	-11.215	-91.627	37.492	59.565	-91.995	-87.222	46.635	24.697	-87.655	-83.537	-82.795	-78.058	23.432	-78.847	-8191	255	
32221.135	1	1	0	0	0.25245	0.14428	0.080706	0.11004	0.03864	0.18674	0.30909	0.31473	0.17831	0.12504	0.16323	0.10714	0.1008	0.19969	0.079344	0.13014	-4.2479	-4.0125	-4.5417	-4.5521	-4.1667	-4.6729	-4.2688	-4.45	-4.6917	-4.1583	-4.7312	-4.3438	-4.2396	-4.6312	-4.2521	-4.3646	67.208	40.583	109.987	204.841	243.072	102.404	181.991	250.320	136.584	218.962	212.672	182.001	-100.150	-76.467	199.443	-52.893	0.00073304	0.00061253	0.00010877	1416	6.7882e-06	5.578e-06	1405.1	372.04	5.1254e-06	2.8016e-06	427.45	143.58	125.57	42.892	4.6295e-06	52.5	0.00076948	0.0009569	0.00025115	1438.2	9.0214e-06	1.0376e-05	1425.9	379.25	9.3618e-06	1.0329e-05	434.14	147.04	128.6	44.037	9.9199e-06	53.986	43.393	-30.566	-48.358	-91.691	15.564	44.993	-91.738	-87.155	39.488	61.939	-87.690	-83.517	-83.017	-78.210	24.948	-78.881	-8191	255	
32221.230	1	1	0	0	0.18766	0.12341	0.053872	0.35044	0.049608	0.22681	0.12372	0.41385	0.16516	0.028078	0.25474	0.13947	0.12751	0.1266	0.060706	0.028032	-4.2917	-3.9625	-4.3542	-4.5687	-4.1646	-4.6479	-4.3458	-4.4021	-4.8083	-4.0104	-4.5708	-4.5833	-4.1771	-4.6583	-4.3458	-4.4042	-4.066	200.553	173.427	211.818	-74.896	-102.129	217.139	200.095	-92.003	-101.265	235.660	164.933	144.128	-59.315	7.939	-51.773	0.00076622	0.0004978	0.0001543	1419.4	5.1562e-06	5.8954e-06	1408.7	371.11	5.2675e-06	4.9154e-06	425.9	143.66	126.6	42.724	5.5841e-06	52.138	0.00077252	0.00090724	0.00025837	1439.9	9.2412e-06	1.0078e-05	1425.8	378.99	9.1399e-06	1.0114e-05	433.81	147.02	129.2	44.051	9.7011e-06	53.832	48.241	-10.985	-16.211	-91.656	8.146	40.246	-91.986	-87.076	27.178	37.421	-87.534	-83.315	-82.891	-77.939	28.857	-78.775	-8191	255	
32221.326	1	1	0	0	0.13473	0.11153	0.063776	0.46982	0.051754	0.12419	0.2219	0.25377	0.06332	0.048853	0.16407	0.088922	0.13925	0.13086	0.12277	0.116	-4.4208	-4.0583	-4.4146	-4.6583	-3.8833	-4.7208	-4.5333	-4.35	-4.6875	-4.1521	-4.5208	-4.6354	-4.1229	-4.6271	-4.3229	-4.2125	195.543	208.272	-96.855	252.697	-12.210	250.533	182.886	-36.324	-26.174	-7.456	167.352	140.747	158.293	96.839	241.546	192.578	0.00069799	0.00051282	0.00015312	1419.3	5.4823e-06	5.7828e-06	1406.9	373.47	5.3182e-06	5.3209e-06	425.54	143.54	125.81	42.791	5.0518e-06	52.485	0.00074517	0.0009027	0.00025624	1438.2	9.488e-06	1.0336e-05	1425.8	380.12	9.0377e-06	1.0072e-05	433.91	147.17	128.91	44.089	9.3171e-06	53.888	44.264	-32.659	-9.285	-91.848	15.974	56.342	-91.764	-87.147	40.087	54.823	-87.330	-83.505	-83.082	-77.860	55.224	-78.846	-8191	255	
32221.422	1	1	0	0	0.18184	0.18023	0.060914	0.20666	0.12115	0.45149	0.2148	0.063385	0.05756	0.25866	0.27857	0.13043	0.16063	0.042649	0.30757	0.32487	-4.2312	-4.1479	-4.4	-4.7812	-4.0813	-4.575	-4.6854	-4.2937	-4.7854	-4.2896	-4.3604	-4.6271	-3.9562	-4.525	-4.4875	-4.1625	-34.676	119.721	117.502	242.003	61.058	197.438	129.303	151.004	84.800	-78.842	184.267	-46.774	92.232	150.110	146.459	200.875	0.00065842	0.00062013	0.00011487	1416.5	4.4862e-06	5.9829e-06	1402.7	372.47	4.8489e-06	4.7125e-06	426.52	144.37	126.24	42.605	5.6166e-06	52.151	0.00074749	0.0009619	0.00024312	1438.9	9.0044e-06	1.0071e-05	1424	379.56	8.9007e-06	1.0021e-05	434.15	147.43	128.93	44.013	9.4835e-06	53.894	45.695	-11.316	-7.958	-91.643	29.424	59.034	-91.751	-87.079	14.051	35.036	-87.732	-83.392	-83.112	-78.052	56.151	-78.884	-8191	255	
32221.518	1	1	0	0	0.2766	0.044637	0.048325	0.14	0.22194	0.21571	0.22991	0.14843	0.086289	0.17212	0.1501	0.20399	0.23595	0.10913	0.12183	0.25848	-4.1417	-4.2542	-4.2271	-4.8333	-4.1396	-4.5917	-4.7729	-4.2542	-4.7042	-4.3479	-4.375	-4.8646	-4.2771	-4.4333	-4.6167	-4.1958	-36.415	162.771	244.059	-103.427	-43.837	-79.618	193.615	236.565	-67.508	150.603	-74.426	-87.350	185.536	53.733	-21.213	192.249	0.00072909	0.000592	0.00012696	1417.1	4.9792e-06	6.2849e-06	1400.4	372.2	5.8222e-06	4.6799e-06	426.09	143.44	125.77	42.706	5.6288e-06	52.185	0.00073848	0.00088235	0.00025601	1440.6	9.2022e-06	1.0174e-05	1424.9	379.46	8.8925e-06	9.6282e-06	434.09	147.02	128.78	44.04	9.3217e-06	53.881	44.928	-14.455	-9.186	-91.781	14.443	53.386	-91.851	-87.097	14.095	54.954	-87.544	-83.415	-82.944	-78.010	34.359	-78.747	-8191	255	
32221.639	1	1	0	0	0.19558	0.0928	0.10667	0.18961	0.061475	0.2489	0.041737	0.13191	0.22456	0.073035	0.30863	0.16102	0.13288	0.21893	0.12473	0.13956	-4.3458	-4.4021	-4.125	-4.9688	-4.1646	-4.4521	-4.6896	-4.1417	-4.7417	-4.525	-4.1188	-4.8438	-4.1687	-4.4083	-4.5583	-4.1771	156.745	-56.790	0.840	208.085	-10.743	190.245	169.706	190.864	24.171	-24.725	172.559	199.739	212.177	-54.130	138.300	-34.438	0.00070685	0.00047366	0.00013968	1419.8	3.9794e-06	4.2683e-06	1405	373.21	5.532e-06	4.6056e-06	428.17	143.81	125.97	42.838	5.7481e-06	52.256	0.00075633	0.00093515	0.00026145	1439.8	9.3551e-06	1.0103e-05	1426.8	379.98	9.3894e-06	1.0059e-05	434.79	147.28	129.02	44.03	9.3125e-06	53.791	50.616	-19.685	-6.129	-91.636	32.141	34.338	-91.882	-87.008	29.717	36.602	-87.627	-83.373	-82.994	-78.084	39.530	-78.922	-8191	255	
32221.734	1	1	0	0	0.14544	0.22734	0.055706	0.11831	0.011118	0.19193	0.15528	0.33614	0.26401	0.24882	0.11973	0.27151	0.17563	0.072599	0.14237	0.17159	-4.2812	-4.4271	-4.1333	-4.8	-4.25	-4.2979	-4.8063	-4.3417	-4.5437	-4.4833	-4.3479	-4.6208	-4.4979	-4.3417	-4.7958	-4.1625	-43.913	178.263	-2.659	186.693	17.918	145.085	-59.680	192.215	238.922	28.347	-98.270	135.072	-97.047	126.284	104.967	234.280	0.00071001	0.00050183	0.00013952	1423.3	4.3919e-06	4.7725e-06	1405.7	372.69	6.3241e-06	7.8669e-06	424.75	143.29	125.51	42.924	7.8063e-06	51.965	0.00076506	0.00092387	0.00025673	1439.6	9.2012e-06	1.0474e-05	1426.8	379.56	9.1931e-06	1.0334e-05	433.08	147.07	128.88	44.135	9.5758e-06	53.795	46.465	-16.895	-30.364	-91.709	38.601	50.287	-91.805	-87.102	7.864	46.549	-87.574	-83.601	-82.984	-78.116	52.687	-78.885	-8191	255	
32221.805	1	1	0	0	0.11137	0.061222	0.22716	0.21071	0.10001	0.22272	0.27518	0.30613	0.099568	0.16193	0.14397	0.12658	0.037818	0.11158	0.064101	0.045646	-4.1375	-4.6937	-4.1042	-4.8604	-4.2417	-4.35	-4.9229	-4.1417	-4.6	-4.5292	-4.1562	-4.6667	-4.4521	-4.2604	-4.7542	-4.3042	7.269	115.388	65.695	227.243	59.026	253.606	209.574	72.213	249.576	-105.004	190.192	8.276	187.009	175.973	217.689	167.603	0.00074739	0.00051456	0.00017685	1417.8	4.197e-06	6.2821e-06	1408.1	371.33	7.369e-06	4.6925e-06	425.73	144.09	125.84	42.787	5.175e-06	52.34	0.00075694	0.00089549	0.0002604	1438.1	9.2642e-06	1.075e-05	1427.3	378.75	9.6306e-06	9.7619e-06	433.69	147.2	128.96	44.027	9.7649e-06	53.94	47.943	-18.053	-26.830	-91.584	12.795	61.844	-91.931	-87.088	31.126	41.945	-87.617	-83.477	-82.836	-77.945	33.746	-78.785	-8191	255	
32221.902	1	1	0	0	0.063781	0.12691	0.10542	0.21135	0.343	0.27802	0.15248	0.27701	0.13979	0.2054	0.078686	0.10571	0.12096	0.011903	0.19075	0.14128	-3.9771	-4.5208	-4.0229	-4.7521	-4.2979	-4.3292	-5.0312	-4.1813	-4.3542	-4.625	-4.2542	-4.6292	-4.4333	-4.175	-4.5813	-4.3917	168.816	101.614	174.811	-83.915	104.396	203.803	236.908	218.307	-2.137	108.161	199.609	228.820	-39.584	83.054	227.621	153.869	0.00072131	0.00045519	0.00018367	1415.8	3.0336e-06	5.284e-06	1405.6	371.37	4.5553e-06	5.3542e-06	425.33	144.35	125.63	42.763	6.3663e-06	52.386	0.00078838	0.00091515	0.00026191	1438.8	9.0334e-06	1.0315e-05	1425.9	378.87	9.4303e-06	1.0088e-05	433.54	147.3	128.86	44.007	9.5473e-06	53.888	44.255	-31.204	-19.470	-91.707	57.154	66.352	-91.944	-86.890	-0.305	37.968	-87.682	-83.570	-83.112	-78.104	36.929	-78.786	-8191	255	
32222.021	1	1	0	0	0.29123	0.065224	0.16868	0.11695	0.070087	0.075593	0.17331	0.17619	0.030155	0.2313	0.075142	0.087265	0.18368	0.23242	0.14877	0.14028	-3.9417	-4.6021	-4.0292	-4.6438	-4.5417	-4.1021	-4.8479	-4.4354	-4.1854	-4.6958	-4.2125	-4.6062	-4.675	-4.2833	-4.7063	-4.4875	224.190	-33.188	231.081	199.019	217.739	194.113	-101.058	-100.899	-54.067	109.470	56.257	236.342	53.161	-95.949	-98.097	173.336	0.00073865	0.00053577	0.00018489	1417.9	1.9022e-06	5.0236e-06	1408.8	371.42	4.2832e-06	3.8374e-06	426.37	143.25	126.42	42.79	5.0215e-06	52.439	0.00076291	0.00088084	0.00026601	1438.6	9.1173e-06	1.0138e-05	1427.1	379.2	9.3004e-06	9.8689e-06	434.31	147.07	128.83	43.981	9.5724e-06	53.92	47.508	-21.895	-18.125	-91.671	21.571	41.868	-91.891	-87.044	6.633	51.869	-87.566	-83.355	-82.922	-78.297	31.886	-79.221	-8191	255	
32222.117	1	1	0	0	0.027584	0.057359	0.057554	0.25735	0.20274	0.078916	0.17695	0.17067	0.13565	0.018085	0.27859	0.16135	0.06664	0.17207	0.10987	0.08869	-4.075	-4.6729	-4.2667	-4.65	-4.5583	-4.0458	-4.8854	-4.5854	-4.1833	-4.7063	-4.3146	-4.4938	-4.6271	-4.1937	-4.5938	-4.4375	126.172	175.013	2.684	-94.891	-103.420	61.732	172.412	212.609	32.575	230.731	204.777	220.196	-69.155	240.234	110.556	240.430	0.00073762	0.00039293	0.00015551	1418.1	5.6627e-06	5.6043e-06	1402.6	372.1	5.4864e-06	3.5028e-06	426	143.09	125.16	42.746	5.5278e-06	52.255	0.00076246	0.00084746	0.00025666	1439.7	9.1263e-06	1.0474e-05	1424.4	379.51	9.3781e-06	9.5427e-06	434.15	147.03	128.54	44.039	9.6715e-06	53.834	45.342	-17.497	3.833	-91.498	25.365	52.791	-91.788	-87.285	19.095	56.176	-87.451	-83.546	-82.923	-78.283	31.977	-78.851	-8191	255	
32222.215	1	1	0	0	0.28394	0.098275	0.082602	0.24498	0.092075	0.18848	0.272	0.3003	0.14125	0.091186	0.12017	0.025417	0.17503	0.096126	0.29573	0.033892	-3.525	-4.8771	-4.25	-4.4542	-4.6167	-4.1125	-4.8063	-4.6083	-4.075	-4.8167	-4.5583	-4.3104	-4.7646	-4.0958	-4.4896	-4.4333	-84.759	-71.434	-7.836	240.693	191.674	114.667	183.738	147.807	218.296	-12.749	210.675	-10.786	146.727	26.357	67.735	246.150	0.00074538	0.00059114	0.00012456	1421.3	5.0062e-06	5.6123e-06	1404.4	372.2	3.6477e-06	4.7963e-06	425.07	143.72	125.82	42.831	4.9952e-06	52.21	0.00077219	0.00086735	0.00025972	1440.1	8.9415e-06	1.0291e-05	1425.5	379.37	9.2084e-06	1.0428e-05	433.76	146.88	128.66	44.031	9.929e-06	53.788	43.591	-14.699	-11.203	-91.532	38.365	34.993	-91.779	-87.065	15.846	69.952	-87.618	-83.489	-82.985	-78.085	45.783	-79.014	-8191	255	
32222.311	1	1	0	0	0.031072	0.32979	0.10423	0.13789	0.19279	0.32867	0.068852	0.14915	0.096164	0.17324	0.2346	0.21798	0.087556	0.11704	0.19965	0.054453	-3.7292	-4.6188	-4.2875	-4.4167	-4.6687	-4.2625	-4.6167	-4.5771	-4.0521	-4.5958	-4.4833	-4.2896	-4.725	-4.2521	-4.5396	-4.5312	174.394	162.217	84.523	248.826	-41.288	60.354	142.087	208.425	87.665	-86.365	217.990	-63.915	165.969	175.499	-97.725	-53.913	0.00070951	0.0005085	0.00012529	1417.1	4.4267e-06	5.2343e-06	1407	371.26	4.7338e-06	4.0698e-06	427.38	143.74	125.92	42.935	2.1185e-06	52.357	0.00078634	0.00090875	0.00026283	1438.3	9.0024e-06	1.0553e-05	1426.3	379.13	9.648e-06	1.0069e-05	434.29	147.03	128.84	44.04	9.4869e-06	53.926	50.132	-14.705	-19.494	-91.701	44.905	39.499	-91.951	-87.180	16.682	63.128	-87.515	-83.482	-82.834	-78.144	30.069	-78.890	-8191	255	
32222.406	1	1	0	0	0.2165	0.17314	0.093844	0.43058	0.18909	0.21786	0.35528	0.20882	0.14416	0.17063	0.35725	0.17626	0.27046	0.18823	0.16372	0.12053	-3.6312	-4.5979	-4.4229	-4.2979	-4.6979	-4.1292	-4.6521	-4.6958	-4.0188	-4.4792	-4.3688	-4.2271	-4.5958	-4.1208	-4.375	-4.7042	149.536	51.490	-71.658	224.392	242.960	43.114	181.192	198.646	238.917	210.639	187.086	177.864	-91.956	14.401	141.073	-41.877	0.0007494	0.0005419	0.00012581	1416.4	4.464e-06	5.2207e-06	1403.2	372.61	4.7399e-06	6.4871e-06	425.54	143.72	125.6	42.773	5.4911e-06	52.232	0.00076053	0.00090677	0.00025083	1436.7	9.1253e-06	1.0356e-05	1424.4	379.46	9.4047e-06	1.0338e-05	434.16	147.08	128.77	43.959	9.7e-06	53.872	47.913	-20.751	-13.629	-91.710	21.870	41.759	-91.832	-87.119	8.660	44.808	-87.728	-83.262	-83.023	-78.048	59.412	-78.926	-8191	255	
32222.502	1	1	0	0	0.15936	0.14791	0.20712	0.23254	0.050687	0.043062	0.19882	0.26993	0.22691	0.30684	0.16806	0.25055	0.031985	0.33609	0.034321	0.2476	-3.8229	-4.6625	-4.5229	-4.3479	-4.6833	-4.3667	-4.3708	-4.6167	-4.0333	-4.5208	-4.7625	-4.1125	-4.7667	-4.4	-4.3688	-4.8375	217.529	89.249	184.888	208.673	-68.036	-63.426	170.959	161.328	164.961	200.973	211.948	153.945	147.086	248.011	48.318	214.081	0.0007187	0.00052896	0.00014307	1416.8	4.3363e-06	4.4684e-06	1405	372.53	7.7259e-06	4.8224e-06	425.85	143.63	125.9	42.956	4.4707e-06	52.274	0.00078208	0.00091526	0.00025296	1437.8	8.8765e-06	1.0254e-05	1426.6	379.88	9.8709e-06	1.0017e-05	433.77	147.12	129.1	44.036	9.6954e-06	53.988	51.144	-13.454	-25.404	-91.751	43.679	52.411	-91.707	-87.089	11.533	38.380	-87.568	-83.502	-82.723	-78.242	39.105	-79.094	-8191	255	
32222.600	1	1	0	0	0.11499	0.092713	0.20054	0.24373	0.21184	0.090129	0.29796	0.23311	0.056715	0.1617	0.32723	0.056604	0.21584	0.10286	0.1699	0.10436	-3.8833	-4.4208	-4.5396	-4.2708	-4.6167	-4.35	-4.4083	-4.8729	-4.1458	-4.5479	-4.5854	-4.2333	-4.8333	-4.4313	-4.0479	-4.85	-76.812	227.725	38.954	220.727	12.658	151.471	188.547	111.348	-29.134	94.280	175.819	143.844	183.313	187.541	176.561	165.394	0.00076266	0.00057096	0.00015673	1421.1	6.5909e-06	4.3731e-06	1402.3	372.24	4.97e-06	3.4586e-06	426.73	143.72	125.68	42.835	6.4894e-06	52.254	0.00075417	0.00089224	0.00025023	1438.9	8.8216e-06	1.0584e-05	1425.6	379.61	9.5264e-06	1.0119e-05	434.44	147.13	128.66	44.04	9.8869e-06	53.791	46.765	-18.209	-12.017	-91.580	-10.107	54.366	-91.835	-86.976	14.650	48.762	-87.555	-83.519	-82.995	-78.235	28.969	-79.070	-8191	255	
32222.719	1	1	0	0	0.11389	0.097204	0.13541	0.42496	0.077601	0.13227	0.23321	0.03748	0.13904	0.19985	0.1035	0.1397	0.027669	0.21849	0.12269	0.012335	-3.8917	-4.4417	-4.7146	-4.3021	-4.425	-4.525	-4.2875	-4.8	-4.2958	-4.3146	-4.6479	-4.3292	-4.6208	-4.525	-3.9938	-4.7792	63.638	-90.138	198.152	230.245	43.029	14.944	214.000	178.169	154.227	-99.116	-50.045	-89.847	-102.673	140.803	-88.234	116.048	0.00071613	0.00066125	0.00013492	1416.2	6.1116e-06	4.7466e-06	1404.3	372.57	6.0538e-06	5.9084e-06	426.45	143.38	125.85	42.937	6.3268e-06	52.292	0.00075152	0.00092282	0.00024784	1438.3	9.0853e-06	9.9958e-06	1425	379.49	9.6347e-06	1.0428e-05	433.99	146.81	128.79	44.131	9.6214e-06	53.865	49.109	-6.246	-2.864	-91.526	14.635	31.334	-91.721	-87.075	43.570	49.583	-87.878	-83.554	-82.906	-77.998	47.182	-79.031	-8191	255	
32222.814	1	1	0	0	0.067452	0.039335	0.10377	0.1208	0.10712	0.059874	0.22775	0.37812	0.14222	0.040791	0.20804	0.052255	0.065752	0.14962	0.10012	0.25739	-3.8167	-4.3187	-4.6062	-4.2667	-4.5833	-4.5563	-4.1958	-4.9688	-4.2188	-4.2354	-4.8958	-4.1104	-4.6875	-4.5979	-4.1583	-4.7688	194.115	240.190	32.866	241.162	170.558	124.498	228.304	189.399	152.679	176.810	-78.502	124.816	-64.653	-68.730	110.184	180.487	0.0006887	0.00053496	0.00015176	1418.7	3.847e-06	4.7776e-06	1403.1	371.91	3.7389e-06	4.8375e-06	424.91	144.53	125.5	42.84	5.2248e-06	52.304	0.00075191	0.00091271	0.00023925	1439	9.1133e-06	1.0016e-05	1425.2	379.66	9.8556e-06	1.0421e-05	433.71	147.19	128.69	44.055	1.0189e-05	53.867	43.974	7.327	-20.222	-91.702	17.785	54.364	-91.780	-87.089	10.592	32.917	-87.663	-83.425	-82.665	-77.929	45.794	-78.990	-8191	255	
32222.910	1	1	0	0	0.23951	0.10337	0.20609	0.25554	0.091453	0.05567	0.079322	0.14067	0.085263	0.16052	0.37775	0.10048	0.13326	0.16761	0.13297	0.16231	-4.1167	-4.1542	-4.7396	-4.3667	-4.3417	-4.5479	-4.1667	-4.7708	-4.2792	-4.1625	-4.8604	-4.2583	-4.2688	-4.6271	-4.1062	-4.5542	76.217	119.175	-83.821	246.466	200.415	148.340	200.961	233.668	220.406	-92.675	-93.834	155.150	211.754	-76.533	-75.565	243.024	0.00071446	0.00049075	0.00012321	1415.8	4.3674e-06	5.1597e-06	1406.9	373.09	7.4647e-06	3.7335e-06	425.53	143.88	126.1	43.099	4.4215e-06	52.4	0.00075959	0.00094736	0.00025325	1439.2	9.2542e-06	1.0045e-05	1428.9	379.63	9.5949e-06	1.0179e-05	434.27	147.21	129.14	44.113	9.6749e-06	53.91	48.919	-12.095	-9.613	-91.731	50.940	49.248	-91.793	-86.991	31.436	35.427	-87.598	-83.519	-82.717	-77.812	31.567	-78.799	-8191	255	
#DATA ENDS
