BOXY.EXE: ISS Imagent and Oximeter Data Acquisition Program Version 0.80
Ascii Record File

#ACQ INFORMATION
2  Detector Channels 
16  External MUX Channels 
1  Auxiliary Channels 
5000  Waveform (CCF) Frequency (Hz)
1  Waveforms Skipped 
30  Waveforms Averaged 
1  Cycles Averaged 
16  Acquisitions per Waveform 
10.0806  Updata Rate (Hz) 

#FILE INFORMATION
TRUE -- External MUX Channel results are PARSED.
FALSE -- AC DC and Phase are NOT grouped.
TRUE -- Companion Program Settings File CREATED.
FALSE -- AC data not excluded
FALSE -- DC data not excluded
FALSE -- Phase data not excluded
FALSE -- Auxillary Chn. data not excluded
Tab delimiters

#CALIBRATION STATE
TRUE -- Waveform Calibration Values APPLIED.


#AUX CALIBRATION VALUES
Val Type	aux-1	

Term	1.0000e+00	
Factor	0.0000e+00	


#WF CALIBRATION VALUES
A = Detector Channel
Val Type	A-AC1	A-AC2	A-AC3	A-AC4	A-AC5	A-AC6	A-AC7	A-AC8	A-AC9	A-AC10	A-AC11	A-AC12	A-AC13	A-AC14	A-AC15	A-AC16	A-DC1	A-DC2	A-DC3	A-DC4	A-DC5	A-DC6	A-DC7	A-DC8	A-DC9	A-DC10	A-DC11	A-DC12	A-DC13	A-DC14	A-DC15	A-DC16	A-Ph1	A-Ph2	A-Ph3	A-Ph4	A-Ph5	A-Ph6	A-Ph7	A-Ph8	A-Ph9	A-Ph10	A-Ph11	A-Ph12	A-Ph13	A-Ph14	A-Ph15	A-Ph16	

Term	0.00000e+00	0.00000e+00	0.00000e+00	0.00000e+00	0.00000e+00	0.00000e+00	0.00000e+00	0.00000e+00	0.00000e+00	0.00000e+00	0.00000e+00	0.00000e+00	0.00000e+00	0.00000e+00	0.00000e+00	0.00000e+00	0.00000e+00	0.00000e+00	0.00000e+00	0.00000e+00	0.00000e+00	0.00000e+00	0.00000e+00	0.00000e+00	0.00000e+00	0.00000e+00	0.00000e+00	0.00000e+00	0.00000e+00	0.00000e+00	0.00000e+00	0.00000e+00	0.00000e+00	0.00000e+00	0.00000e+00	0.00000e+00	0.00000e+00	0.00000e+00	0.00000e+00	0.00000e+00	0.00000e+00	0.00000e+00	0.00000e+00	0.00000e+00	0.00000e+00	0.00000e+00	0.00000e+00	0.00000e+00	
Factor	1.00000e+00	1.00000e+00	1.00000e+00	1.00000e+00	1.00000e+00	1.00000e+00	1.00000e+00	1.00000e+00	1.00000e+00	1.00000e+00	1.00000e+00	1.00000e+00	1.00000e+00	1.00000e+00	1.00000e+00	1.00000e+00	1.00000e+00	1.00000e+00	1.00000e+00	1.00000e+00	1.00000e+00	1.00000e+00	1.00000e+00	1.00000e+00	1.00000e+00	1.00000e+00	1.00000e+00	1.00000e+00	1.00000e+00	1.00000e+00	1.00000e+00	1.00000e+00	X	X	X	X	X	X	X	X	X	X	X	X	X	X	X	X	

B = Detector Channel
Val Type	B-AC1	B-AC2	B-AC3	B-AC4	B-AC5	B-AC6	B-AC7	B-AC8	B-AC9	B-AC10	B-AC11	B-AC12	B-AC13	B-AC14	B-AC15	B-AC16	B-DC1	B-DC2	B-DC3	B-DC4	B-DC5	B-DC6	B-DC7	B-DC8	B-DC9	B-DC10	B-DC11	B-DC12	B-DC13	B-DC14	B-DC15	B-DC16	B-Ph1	B-Ph2	B-Ph3	B-Ph4	B-Ph5	B-Ph6	B-Ph7	B-Ph8	B-Ph9	B-Ph10	B-Ph11	B-Ph12	B-Ph13	B-Ph14	B-Ph15	B-Ph16	

Term	0.00000e+00	0.00000e+00	0.00000e+00	0.00000e+00	0.00000e+00	0.00000e+00	0.00000e+00	0.00000e+00	0.00000e+00	0.00000e+00	0.00000e+00	0.00000e+00	0.00000e+00	0.00000e+00	0.00000e+00	0.00000e+00	0.00000e+00	0.00000e+00	0.00000e+00	0.00000e+00	0.00000e+00	0.00000e+00	0.00000e+00	0.00000e+00	0.00000e+00	0.00000e+00	0.00000e+00	0.00000e+00	0.00000e+00	0.00000e+00	0.00000e+00	0.00000e+00	8.08205e+01	-1.29234e+02	-1.26031e+02	-1.81587e+02	-8.04158e+01	-6.70324e+01	-1.57320e+02	-1.62015e+02	-6.06783e+01	-6.54006e+01	-1.71053e+02	-1.72518e+02	-1.82789e+02	-1.76934e+02	-6.95614e+01	-1.49544e+02	
Factor	6.67383e-05	1.91415e-04	4.93186e-05	1.58798e-01	2.57486e-06	2.00385e-06	1.78873e-01	5.50616e-02	3.22509e-06	1.97440e-06	8.99765e-02	3.70833e-02	3.90633e-02	9.87122e-03	2.25571e-06	1.39431e-02	2.65282e-05	5.58230e-05	1.57463e-05	8.19480e-02	4.79595e-07	6.43249e-07	8.68198e-02	2.84307e-02	4.90733e-07	6.41705e-07	4.53190e-02	1.86095e-02	2.03683e-02	5.15739e-03	5.46992e-07	7.08478e-03	X	X	X	X	X	X	X	X	X	X	X	X	X	X	X	X	



#DISTANCE SETTINGS
A = Detector Channel
A-1	A-2	A-3	A-4	A-5	A-6	A-7	A-8	A-9	A-10	A-11	A-12	A-13	A-14	A-15	A-16	

2.5000e+00	3.0000e+00	2.5000e+00	3.0000e+00	2.0000e+00	3.0000e+00	1.5000e+00	3.0000e+00	3.0000e+00	3.0000e+00	3.0000e+00	3.0000e+00	3.0000e+00	3.0000e+00	1.5000e+00	3.0000e+00	

B = Detector Channel
B-1	B-2	B-3	B-4	B-5	B-6	B-7	B-8	B-9	B-10	B-11	B-12	B-13	B-14	B-15	B-16	

1.0000e+01	1.0000e+01	1.0000e+01	1.4400e+00	1.0000e+01	1.0000e+01	1.5100e+00	1.9400e+00	1.0000e+01	1.0000e+01	1.9900e+00	2.4900e+00	2.4100e+00	2.9000e+00	1.0000e+01	2.9800e+00	




#DATA BEGINS
time	group	step	mark	flag	A-AC1	A-AC2	A-AC3	A-AC4	A-AC5	A-AC6	A-AC7	A-AC8	A-AC9	A-AC10	A-AC11	A-AC12	A-AC13	A-AC14	A-AC15	A-AC16	A-DC1	A-DC2	A-DC3	A-DC4	A-DC5	A-DC6	A-DC7	A-DC8	A-DC9	A-DC10	A-DC11	A-DC12	A-DC13	A-DC14	A-DC15	A-DC16	A-Ph1	A-Ph2	A-Ph3	A-Ph4	A-Ph5	A-Ph6	A-Ph7	A-Ph8	A-Ph9	A-Ph10	A-Ph11	A-Ph12	A-Ph13	A-Ph14	A-Ph15	A-Ph16	B-AC1	B-AC2	B-AC3	B-AC4	B-AC5	B-AC6	B-AC7	B-AC8	B-AC9	B-AC10	B-AC11	B-AC12	B-AC13	B-AC14	B-AC15	B-AC16	B-DC1	B-DC2	B-DC3	B-DC4	B-DC5	B-DC6	B-DC7	B-DC8	B-DC9	B-DC10	B-DC11	B-DC12	B-DC13	B-DC14	B-DC15	B-DC16	B-Ph1	B-Ph2	B-Ph3	B-Ph4	B-Ph5	B-Ph6	B-Ph7	B-Ph8	B-Ph9	B-Ph10	B-Ph11	B-Ph12	B-Ph13	B-Ph14	B-Ph15	B-Ph16	aux-1	digaux	

33082.477	1	1	0	256	0.13183	0.20146	0.10801	0.14275	0.06095	0.18203	0.1755	0.13498	0.16034	0.2076	0.037643	0.10431	0.16911	0.14089	0.082845	0.21517	-3.9271	-4.5667	-4.3646	-4.5563	-4.8	-4.2271	-4.8167	-4.7667	-4.0646	-4.6312	-4.3875	-4.3917	-5.0021	-4.3292	-4.6146	-4.7667	35.702	-9.061	2.807	197.929	-52.711	251.928	164.238	150.030	34.101	174.794	48.316	232.481	145.470	246.614	28.634	154.241	0.0007485	0.0025365	0.00013768	1131.1	1.2582e-05	1.1582e-05	1220.9	392.52	1.1673e-05	8.8169e-06	545.42	208.47	147.81	57.909	8.6449e-06	88.749	0.0025601	0.011855	0.0012199	1018.6	3.9783e-05	4.947e-05	1113.2	354.99	4.0781e-05	5.0259e-05	494.25	189.52	138	53.217	4.3725e-05	81.201	28.823	18.067	22.354	-72.769	19.098	52.442	-73.342	-66.759	53.550	55.422	-68.714	-64.167	-62.405	-57.624	86.538	-60.032	-8191	255	
33082.570	1	1	0	0	0.068053	0.1211	0.25579	0.20558	0.14601	0.065289	0.18795	0.25478	0.12716	0.094683	0.2065	0.24059	0.4102	0.23084	0.040049	0.19226	-3.8563	-4.6687	-4.3583	-4.4583	-4.8625	-4.2271	-4.5708	-4.8083	-4.2375	-4.7958	-4.4708	-4.3542	-4.9354	-4.3688	-4.3125	-4.8042	250.120	127.291	91.250	247.460	148.278	171.736	227.440	241.966	-39.792	148.459	215.338	267.444	-75.395	-75.618	39.111	209.716	0.00080874	0.0022972	0.00014051	1126.7	6.0526e-06	9.8838e-06	1232.2	393.2	2.394e-06	4.4424e-06	547.46	209.08	149.41	58.137	8.218e-06	89.145	0.0025604	0.011949	0.0012854	1018.2	4e-05	5.1213e-05	1110.8	358.17	4.0563e-05	5.1057e-05	495.19	190.65	138.23	53.463	4.499e-05	81.865	30.918	9.970	-1.195	-72.682	106.475	106.234	-73.364	-66.427	-25.720	95.603	-68.707	-64.123	-62.847	-57.469	70.419	-60.065	-8191	255	
33082.645	1	1	0	0	0.1777	0.178	0.18406	0.23845	0.15478	0.042914	0.14321	0.13089	0.13213	0.080273	0.12101	0.2023	0.086888	0.11972	0.30466	0.29522	-3.7313	-4.7333	-4.4062	-4.3688	-4.7625	-4.3479	-4.6188	-4.9375	-4.1562	-4.6604	-4.7688	-4.2229	-4.7917	-4.3042	-4.3958	-4.925	-42.574	-14.744	215.728	268.608	20.362	260.366	95.854	180.946	122.642	1.037	240.699	215.758	-76.157	-80.306	-73.689	243.349	0.00071337	0.0028068	0.000356	1127.5	5.1193e-06	4.9285e-06	1239.9	391.68	6.3426e-06	7.8189e-06	547.36	209.72	148.74	57.915	6.2224e-06	88.918	0.002521	0.011911	0.0012929	1019.1	3.947e-05	5.0806e-05	1116.8	359.95	3.9639e-05	5.06e-05	496.05	190.85	138.19	53.273	4.3722e-05	81.689	36.645	31.275	15.879	-72.600	187.846	46.330	-73.723	-66.881	28.473	56.899	-68.663	-64.064	-62.893	-57.320	-0.115	-60.315	-8191	255	
33082.742	1	1	0	0	0.30438	0.2016	0.13075	0.19994	0.052418	0.025565	0.21968	0.14584	0.13147	0.20574	0.13849	0.034645	0.080159	0.1841	0.21376	0.27741	-3.925	-4.5813	-4.3938	-4.0396	-4.6521	-4.4062	-4.5354	-4.9021	-4.1062	-4.5604	-4.7146	-4.2792	-4.8	-4.5833	-4.3021	-4.8812	243.500	124.576	22.405	250.039	263.789	122.870	-79.519	219.513	-1.686	200.404	196.593	-41.469	51.333	147.232	271.647	156.230	0.00071628	0.0035397	0.0004249	1133.8	8.1118e-06	9.7189e-06	1234.1	396.86	6.9706e-06	1.2633e-05	555.46	212.42	151.76	59.342	8.2138e-06	90.249	0.0025997	0.0097973	0.001529	1020.3	3.9286e-05	5.1224e-05	1111.8	363.52	3.9874e-05	5.2177e-05	501.84	193.18	140.61	54.368	4.5789e-05	82.948	12.787	0.599	66.843	-73.015	71.344	93.413	-73.665	-66.831	-4.184	39.676	-68.405	-64.288	-62.671	-57.559	55.552	-60.007	-8191	255	
33082.859	1	1	0	0	0.35959	0.029929	0.10258	0.15933	0.20515	0.26793	0.30014	0.2684	0.10536	0.15733	0.24537	0.35354	0.15388	0.060124	0.13622	0.0097984	-3.9625	-4.5146	-4.5271	-4.2688	-4.8083	-4.5833	-4.4271	-4.9271	-4.3083	-4.4146	-4.8542	-4.0604	-4.6312	-4.6312	-4.3854	-4.775	-27.014	131.237	69.981	-84.990	204.430	225.875	233.120	219.643	159.643	114.499	271.998	-78.517	-75.226	41.886	201.988	178.949	0.00081027	0.0030536	0.00033293	1150.5	1.2856e-05	1.1637e-05	1254.3	401.05	1.1963e-05	1.2551e-05	561.25	216.01	152.18	59.857	1.1049e-05	92.137	0.0026271	0.0052896	0.0028764	1035.6	4.0818e-05	5.1968e-05	1129.1	367.05	3.9856e-05	5.1159e-05	507.91	196.34	141.99	55.039	4.5427e-05	84.273	34.809	5.419	68.383	-72.642	38.655	75.820	-73.415	-67.275	42.418	88.175	-68.890	-64.168	-62.645	-57.523	58.464	-60.102	-8191	255	
33082.957	1	1	0	0	0.31065	0.12587	0.10117	0.2895	0.040208	0.11066	0.11896	0.35412	0.14985	0.15154	0.20058	0.092128	0.26848	0.16713	0.1662	0.20791	-3.9813	-4.4875	-4.7438	-4.3583	-4.6542	-4.6208	-4.35	-4.8812	-4.2833	-4.2812	-4.8812	-4.2917	-4.4917	-4.8021	-4.2063	-4.9313	-28.416	136.061	76.051	251.725	166.893	190.910	262.109	184.455	0.401	184.094	211.706	9.914	244.122	252.240	250.684	128.692	0.00091312	0.0010777	0.00072602	1166.4	9.14e-06	3.8941e-06	1268.3	405.17	1.3208e-05	1.0451e-05	569.89	218.64	152.44	60.348	6.6983e-06	92.389	0.0025899	0.0044927	0.0034351	1048.5	3.9747e-05	5.178e-05	1142.3	371.53	3.9884e-05	5.3026e-05	514.21	198.93	141.76	55.509	4.6154e-05	85.091	35.700	-9.063	46.715	-72.769	50.125	71.102	-73.362	-66.840	77.382	45.476	-68.516	-64.258	-62.601	-57.643	51.115	-60.115	-8191	255	
33083.055	1	1	0	0	0.15838	0.10605	0.039738	0.27017	0.090194	0.092503	0.10266	0.37436	0.1647	0.1237	0.096154	0.28151	0.21836	0.12502	0.11856	0.093837	-4.1958	-4.0917	-4.8667	-4.2604	-4.5563	-4.7375	-4.3604	-4.85	-4.4167	-4.2646	-4.7792	-4.3292	-4.525	-4.7458	-4.2625	-4.7396	106.990	-26.265	190.123	-53.918	-62.553	-36.796	-73.833	252.458	21.783	-10.918	202.946	263.507	258.762	-79.586	245.403	253.299	0.00091235	0.00064118	0.0008015	1165.1	9.7166e-06	5.9876e-06	1272.2	406.04	1.3923e-05	1.069e-05	566.5	217.33	152.65	59.862	7.3999e-06	91.589	0.002571	0.0044898	0.0033974	1047.1	3.9113e-05	5.1424e-05	1145.4	370.97	4.1286e-05	5.1533e-05	512.05	197.37	138.95	55.414	4.3097e-05	84.104	29.496	2.642	78.536	-72.481	71.012	27.922	-73.566	-66.878	75.825	69.358	-68.674	-64.436	-62.714	-57.525	85.334	-60.412	-8191	255	
33083.148	1	1	0	0	0.048113	0.064968	0.25871	0.043487	0.069053	0.040943	0.075101	0.057255	0.03954	0.19409	0.27237	0.20196	0.1573	0.29517	0.097946	0.12003	-4.1813	-4.1625	-4.8938	-4.4604	-4.5312	-4.5792	-4.1062	-4.6687	-4.5208	-4.2021	-5.0771	-4.4354	-4.4521	-4.9563	-4.1125	-4.6792	-78.771	-10.354	160.146	-62.707	7.387	-59.378	270.544	212.057	98.102	-74.546	223.101	234.930	232.027	250.229	32.578	84.097	0.00077155	0.00099878	0.00056336	1154.6	7.6071e-06	8.26e-06	1258.1	402.37	8.711e-06	8.7334e-06	562.45	216.61	152.53	59.802	8.3508e-06	92.359	0.0025719	0.0044285	0.0033482	1036.8	3.8704e-05	5.1598e-05	1132.7	367.67	4.0629e-05	5.0957e-05	509.73	197	139.08	55.641	4.4597e-05	84.554	38.743	-17.753	58.583	-72.625	61.628	52.062	-73.522	-66.844	48.325	63.726	-68.680	-64.151	-62.722	-57.524	31.647	-60.121	-8191	255	
33083.246	1	1	0	0	0.25863	0.16554	0.13485	0.12186	0.092987	0.032897	0.16041	0.15662	0.088879	0.032721	0.12027	0.25866	0.17835	0.094749	0.35407	0.1615	-4.1104	-4.1729	-4.6604	-4.5458	-4.4	-4.7625	-4.3896	-4.6854	-4.5687	-4.175	-4.7354	-4.4583	-4.3333	-5.0354	-4.3396	-4.6	253.879	270.743	143.798	78.931	140.990	186.141	-31.602	233.250	75.820	254.432	-13.720	-59.733	-6.242	-69.838	31.986	214.572	0.0009208	0.00043959	0.00066109	1147.8	1.0719e-05	1.2362e-05	1256.8	402.74	2.7172e-05	1.0221e-05	560.62	216.87	151.55	59.819	6.9538e-06	91.937	0.0025403	0.0044422	0.0034057	1034.9	3.9354e-05	5.0711e-05	1132	366.13	5.2152e-05	5.0608e-05	508.58	196.51	138.85	55.511	4.3302e-05	84.283	35.774	0.585	51.913	-72.918	87.313	41.482	-73.685	-66.721	243.624	86.123	-68.552	-64.270	-62.660	-57.677	37.835	-60.321	-8191	255	
33083.340	1	1	0	0	0.049097	0.15219	0.1559	0.20355	0.14517	0.1722	0.099936	0.31258	0.044982	0.030174	0.26312	0.25718	0.20841	0.34599	0.26731	0.069583	-4.3187	-4.2354	-4.8063	-4.5479	-4.25	-4.8875	-4.4417	-4.5104	-4.7833	-4.2458	-4.7063	-4.4812	-4.4104	-4.7646	-4.3562	-4.4688	45.620	129.238	77.672	-61.196	25.605	17.561	129.878	225.639	44.766	244.540	205.723	205.678	215.572	211.505	-51.168	49.165	0.0010001	0.0011331	0.00064991	1146	1.3398e-05	1.2064e-05	1267.3	400.28	3.3637e-05	1.1833e-05	563.3	217.03	151.49	59.592	4.1732e-06	92.181	0.0025574	0.004364	0.0033007	1032.9	3.8859e-05	5.0112e-05	1136	363	9.4493e-05	5.0576e-05	510.63	197.28	138.77	55.353	4.432e-05	84.534	27.713	-8.787	69.469	-72.571	28.711	49.355	-73.422	-66.386	235.594	78.811	-68.701	-64.139	-62.432	-57.328	87.066	-60.066	-8191	255	
33083.461	1	1	0	0	0.13243	0.082481	0.07933	0.43648	0.17231	0.18395	0.20094	0.18418	0.081103	0.17516	0.17841	0.1953	0.1324	0.21484	0.17386	0.17568	-4.4833	-4.1125	-4.5396	-4.6208	-4.2188	-4.7312	-4.5521	-4.5208	-4.9896	-4.2479	-4.8292	-4.6729	-4.2292	-5.0146	-4.3021	-4.575	-28.931	-63.197	199.905	233.104	-69.081	123.269	272.489	264.678	-6.480	-8.405	2.403	270.187	239.884	264.491	222.547	87.758	0.00077439	0.00057566	0.00056177	1147.3	5.8608e-06	8.5383e-06	1266.3	401.33	3.0773e-05	8.2162e-06	561.28	216.92	151.47	59.405	9.8932e-06	91.172	0.0026163	0.0044341	0.0033801	1035.4	3.8443e-05	5.1149e-05	1139.7	362.86	0.00010489	5.1215e-05	509.24	196.69	138.49	55.274	4.3546e-05	83.923	34.048	-13.003	60.260	-72.612	23.693	86.312	-73.617	-66.767	-53.226	22.876	-68.950	-64.243	-62.349	-57.507	74.699	-60.270	-8191	255	
33083.559	1	1	0	0	0.031163	0.32955	0.063577	0.06669	0.18891	0.097367	0.26891	0.14386	0.16415	0.073388	0.1633	0.1326	0.21127	0.19958	0.15255	0.19156	-4.5188	-4.2333	-4.5875	-4.6875	-4.1167	-4.8646	-4.5083	-4.3417	-4.6729	-4.3146	-4.5729	-4.7792	-4.3104	-4.65	-4.3333	-4.2604	251.973	52.766	213.826	252.337	165.200	-50.101	240.214	34.833	-26.111	187.390	-43.828	169.446	217.570	165.713	175.986	232.846	0.00083552	0.0009622	0.00084151	1146.9	1.4408e-05	1.1016e-05	1260.6	400.22	3.7531e-05	1.1789e-05	561.69	217.14	150.54	59.795	7.7259e-06	92.144	0.0025738	0.0043031	0.0024764	1036.8	3.9718e-05	5.2284e-05	1136.2	362.9	0.00010751	4.8812e-05	508.86	196.85	138.37	55.371	4.7162e-05	84.538	33.777	26.295	11.086	-72.377	76.708	67.220	-73.465	-66.988	-73.217	53.916	-68.469	-64.244	-62.321	-57.663	34.337	-60.120	-8191	255	
33083.652	1	1	0	0	0.3512	0.076183	0.049342	0.16837	0.049767	0.1014	0.21047	0.12554	0.21541	0.23968	0.10174	0.18022	0.2074	0.28258	0.13867	0.17745	-4.4396	-4.1917	-4.5604	-4.8146	-4.2729	-4.75	-4.5667	-4.2646	-4.7875	-4.4792	-4.7271	-4.7188	-4.2604	-4.7021	-4.5646	-4.3208	141.951	97.808	159.104	3.422	247.966	249.758	185.197	211.074	-72.579	211.972	256.181	156.819	229.113	230.248	4.959	179.156	0.00063067	0.00066028	0.00033824	1149.2	2.9947e-06	9.4875e-06	1277.7	402.63	3.44e-05	5.6209e-06	570.29	218	152.25	60.259	3.2083e-06	92.739	0.0026619	0.0045101	0.0013051	1049.4	3.9002e-05	5.2722e-05	1145.3	364.43	0.0001035	5.1141e-05	513.97	198.34	139.42	55.845	4.5227e-05	85.125	47.438	-37.742	18.275	-72.682	94.691	20.682	-73.886	-66.518	-61.742	58.558	-68.772	-64.216	-62.113	-57.207	56.185	-60.105	-8191	255	
33083.750	1	1	0	0	0.16662	0.27908	0.24497	0.13598	0.17842	0.17669	0.10401	0.31786	0.12669	0.04479	0.25022	0.22808	0.13463	0.13281	0.02323	0.41654	-4.4021	-4.3104	-4.4333	-5.0125	-4.1625	-4.6292	-4.8562	-4.1958	-4.6521	-4.4771	-4.5042	-4.8271	-4.2896	-4.5146	-4.6208	-4.3938	143.240	31.176	263.588	-44.052	49.938	31.163	189.284	227.888	192.204	99.669	222.580	250.671	70.002	-18.448	82.467	229.037	0.00099637	0.00065032	0.00026789	1167.6	6.2781e-06	1.0845e-05	1285.3	405.39	2.0416e-05	4.9527e-06	570.19	219.84	153.16	60.777	9.2473e-06	93.086	0.0025959	0.0044976	0.0012611	1060.5	3.8837e-05	5.1625e-05	1155.7	367.26	0.00010545	5.2332e-05	516.99	200.11	139.86	55.834	6.487e-05	85.966	34.821	-5.188	-10.798	-72.394	57.786	78.680	-73.674	-66.842	-37.566	88.388	-68.411	-64.273	-62.362	-57.385	162.359	-60.061	-8191	255	
33083.867	1	1	0	0	0.13161	0.20323	0.097546	0.10392	0.29859	0.067035	0.19226	0.46764	0.18274	0.044	0.23122	0.041554	0.12991	0.2581	0.12285	0.22968	-4.2854	-4.4417	-4.1937	-4.9271	-4.3042	-4.4812	-4.7438	-4.3063	-4.6458	-4.6042	-4.2958	-4.8562	-4.3583	-4.5625	-4.7479	-4.3438	269.858	-39.601	115.998	169.147	202.144	185.060	161.962	221.840	204.367	104.559	186.114	-14.619	-54.991	265.066	14.079	241.122	0.00075909	0.00060518	0.0001144	1165.9	1.1309e-05	1.0046e-05	1278.4	401.92	5.0984e-05	8.7854e-06	564.27	217.67	151.99	59.316	1.4329e-05	92.758	0.0025454	0.0045657	0.001222	1062	3.8579e-05	5.0629e-05	1152.8	364.58	0.00010381	5.0943e-05	511.75	197.98	138.79	54.825	0.0001112	84.906	45.081	6.921	-20.861	-72.512	51.966	59.890	-73.253	-66.927	-41.366	41.838	-68.601	-64.203	-62.018	-57.427	127.250	-60.064	-8191	255	
33083.941	1	1	0	0	0.25797	0.20606	0.12914	0.25837	0.06703	0.044977	0.2053	0.22602	0.16655	0.084189	0.22535	0.19406	0.14192	0.052836	0.21444	0.18534	-4.3417	-4.3667	-4.1021	-4.9375	-4.3167	-4.4333	-4.7542	-4.3063	-4.6854	-4.5687	-4.25	-4.8438	-4.4979	-4.6021	-4.8313	-4.3542	15.097	88.758	25.669	211.862	261.345	215.686	145.957	197.428	99.156	99.476	204.864	189.815	-1.004	32.719	272.219	230.871	0.00062374	0.0011292	0.00028365	1148.5	1.2287e-05	8.5318e-06	1263.5	401.02	3.1668e-05	3.3258e-06	564.09	216.04	152.79	59.69	3.0833e-05	92.346	0.0025235	0.0043571	0.0012159	1047.7	3.8668e-05	4.8961e-05	1135.1	362.92	0.00010452	4.8347e-05	509.43	196.71	139.09	54.728	0.00011276	84.554	37.449	-22.099	19.738	-72.748	55.606	120.162	-73.228	-67.034	-48.511	98.306	-68.830	-64.303	-62.054	-57.310	53.843	-60.040	-8191	255	
33084.035	1	1	0	0	0.11871	0.20181	0.25952	0.14498	0.22987	0.020744	0.25576	0.41858	0.14792	0.1401	0.26616	0.18995	0.1096	0.10193	0.14218	0.1096	-4.3167	-4.5729	-4.0417	-4.7792	-4.3375	-4.175	-4.7958	-4.3688	-4.625	-4.6438	-4.225	-4.8375	-4.45	-4.4396	-4.9583	-4.3333	-10.653	-22.483	218.343	248.878	172.235	224.422	173.796	205.265	35.517	-53.038	241.726	117.047	219.360	238.525	243.696	227.132	0.00072777	0.00085362	0.00019632	1149.8	6.0698e-06	1.2479e-05	1254.9	399.6	3.9523e-05	1.0309e-05	561.37	217.82	152.03	59.79	3.1888e-05	92.259	0.0024729	0.0042264	0.0011998	1044.8	3.6483e-05	4.9455e-05	1132.2	362.39	6.9229e-05	7.714e-05	509.99	197.76	138.91	54.89	0.00011203	84.872	38.162	-34.301	5.272	-72.798	43.484	94.364	-73.407	-67.140	-2.683	261.922	-68.564	-64.048	-62.408	-57.402	62.521	-60.213	-8191	255	
33084.133	1	1	0	0	0.095102	0.21289	0.2302	0.25615	0.13868	0.098718	0.26002	0.056071	0.042319	0.079848	0.090924	0.29749	0.23029	0.24299	0.068788	0.12444	-4.1854	-4.7792	-4.2083	-4.6896	-4.4333	-4.3313	-4.9271	-4.4104	-4.5437	-4.6687	-4.3812	-4.7	-4.6333	-4.2104	-4.9	-4.5188	266.420	253.853	165.456	144.736	104.642	-58.757	175.510	65.510	145.717	38.385	179.208	214.303	191.292	188.345	64.489	229.518	0.00076834	0.00098038	0.00035749	1144.4	2.3352e-06	8.798e-06	1261.7	401.03	9.4972e-06	7.2317e-06	565.83	218.11	152.05	59.715	3.0188e-05	93.046	0.0025041	0.0043017	0.0011745	1046.7	3.6517e-05	4.6208e-05	1138.6	363.16	3.8052e-05	0.00012905	512.02	198.37	139.19	54.792	0.00011049	85.012	43.564	-8.731	-6.255	-72.563	-14.376	94.933	-73.756	-66.535	21.191	-29.689	-68.652	-64.246	-62.121	-57.395	65.465	-60.404	-8191	255	
33084.254	1	1	0	0	0.22079	0.088771	0.12783	0.026799	0.081394	0.023072	0.23084	0.20468	0.081155	0.156	0.24143	0.23696	0.25155	0.023786	0.13431	0.094359	-4	-4.6354	-4.1396	-4.7146	-4.4917	-4.2417	-4.8833	-4.3938	-4.2229	-4.7688	-4.4875	-4.6896	-4.5583	-4.2396	-4.6479	-4.6271	-60.530	147.918	15.517	-40.547	183.268	-9.244	175.807	-83.548	266.088	64.852	241.288	209.105	-76.104	63.566	87.200	85.732	0.00088278	0.00079632	0.00014706	1152.8	7.5799e-06	1.0561e-05	1268.9	400.88	1.1195e-05	1.9765e-05	566.01	217.13	151.37	59.639	3.3897e-05	91.851	0.0025044	0.0042118	0.0011695	1049.2	3.7485e-05	4.839e-05	1140.1	362.82	3.9222e-05	0.00013036	511.74	197.09	138.11	54.661	0.00011559	84.646	36.853	-18.432	48.171	-72.795	43.037	73.320	-73.360	-66.710	68.398	-22.257	-68.647	-64.117	-62.427	-57.400	81.031	-60.417	-8191	255	
33084.352	1	1	0	0	0.03784	0.074114	0.12429	0.19553	0.1772	0.1482	0.12264	0.24457	0.06603	0.11975	0.19751	0.20316	0.090338	0.12777	0.0097997	0.098541	-3.925	-4.8646	-4.2562	-4.6438	-4.7	-4.2708	-4.8187	-4.5792	-4.2271	-5.0354	-4.2958	-4.4229	-4.8646	-4.2521	-4.6937	-4.6396	235.064	128.823	191.938	253.476	197.175	176.558	260.778	209.163	136.083	192.537	128.619	225.259	251.994	195.532	208.192	172.021	0.00089219	0.0006798	0.00036118	1150.2	2.7488e-05	3.5576e-06	1267.4	401.85	8.1454e-06	1.8465e-05	564.65	217.29	152.15	59.702	3.1421e-05	92.708	0.0025168	0.0041897	0.0012245	1042.7	6.2447e-05	4.8612e-05	1138.7	363.3	3.9745e-05	0.0001352	510.46	197.34	138.76	54.717	0.00011591	84.908	17.153	-11.035	1.905	-72.178	187.099	76.812	-73.598	-66.681	18.942	-9.410	-68.929	-64.195	-62.743	-57.348	69.570	-60.004	-8191	255	
33084.445	1	1	0	0	0.21729	0.088382	0.08542	0.19797	0.12539	0.21475	0.029214	0.16651	0.29909	0.17197	0.22615	0.26067	0.10779	0.17179	0.048573	0.057549	-3.8625	-4.7083	-4.3958	-4.5229	-4.7583	-4.1937	-4.7312	-4.7438	-4.125	-4.8625	-4.4771	-4.5	-4.7833	-4.3292	-4.6312	-4.6771	231.444	-48.111	-29.982	262.745	271.694	82.075	193.138	188.789	-27.464	10.616	275.464	255.927	171.763	23.829	-54.026	155.534	0.00073821	0.0011336	0.00011899	1152.3	1.5266e-05	6.7101e-06	1275.7	403.74	7.851e-06	2.8575e-05	565.01	218.23	151.66	59.959	3.5668e-05	92.968	0.0025457	0.0042867	0.0011985	1037.4	0.00010234	4.9505e-05	1144.2	364.55	3.9221e-05	0.00013384	512.97	198.53	139.26	54.894	0.00011606	85.396	38.754	-3.203	8.928	-72.766	204.643	75.770	-73.485	-66.497	64.419	9.119	-68.531	-64.069	-62.401	-57.385	90.511	-60.231	-8191	255	
33084.543	1	1	0	0	0.15744	0.084693	0.17423	0.19215	0.088371	0.13551	0.061652	0.23218	0.19599	0.23493	0.20642	0.17455	0.30621	0.084019	0.12825	0.19119	-3.8833	-4.7354	-4.4271	-4.375	-4.7167	-4.1271	-4.5896	-4.6917	-4.1354	-4.7292	-4.4167	-4.3604	-4.8146	-4.2646	-4.6375	-4.7917	-32.825	203.724	-34.039	206.092	139.591	157.465	264.251	209.583	189.102	-28.034	228.294	-68.138	44.679	-18.781	160.214	238.063	0.0010142	0.00023914	0.00019692	1157.3	1.7277e-05	1.1844e-05	1277.6	402.87	1.7431e-05	2.3106e-05	566.76	218.5	152.47	59.573	3.2539e-05	93.176	0.0025331	0.0044214	0.0012415	1043.8	9.9688e-05	4.8863e-05	1151.8	365.09	3.8703e-05	0.00013626	513.87	199.2	139.1	54.717	7.4816e-05	85.77	40.600	-1.914	-10.827	-72.704	203.002	80.559	-73.625	-66.595	81.569	-6.783	-68.613	-64.305	-62.461	-57.258	60.876	-60.312	-8191	255	
33084.637	1	1	0	0	0.084309	0.26714	0.26737	0.19113	0.072523	0.2756	0.30309	0.11009	0.15862	0.20537	0.15031	0.025717	0.13455	0.29438	0.14615	0.23896	-3.7646	-4.7833	-4.4729	-4.3375	-4.8604	-4.3042	-4.7521	-4.8	-4.0333	-4.6917	-4.6125	-4.4271	-4.9125	-4.4437	-4.4042	-4.8771	151.825	207.492	-18.411	188.413	144.899	116.969	-83.675	149.791	171.156	262.093	198.617	98.479	-78.983	-61.719	152.389	258.738	0.0010219	0.0005443	0.00026775	1154.2	3.1834e-05	9.5643e-06	1268.9	399.76	9.0429e-06	3.0149e-05	558.84	216.17	150.24	58.95	9.0752e-06	91.678	0.0025327	0.0043394	0.0012475	1040.4	0.00010117	5.1249e-05	1145.4	362.17	3.9424e-05	0.00013392	509.02	196.56	137.67	54.116	4.3882e-05	85.18	35.754	-3.434	3.764	-72.511	195.060	52.879	-73.646	-66.833	98.925	-5.163	-68.658	-64.175	-62.501	-57.207	44.943	-60.033	-8191	255	
33084.734	1	1	0	0	0.1849	0.35235	0.1292	0.28743	0.16882	0.057508	0.31931	0.28604	0.16413	0.29736	0.087837	0.24528	0.15795	0.20279	0.11735	0.28134	-3.8479	-4.8229	-4.4646	-4.3792	-4.8562	-4.5021	-4.6146	-4.8063	-4.275	-4.5625	-4.6354	-4.3083	-4.8792	-4.3812	-4.1771	-4.7937	162.023	130.990	83.104	237.587	13.873	214.577	228.273	219.078	234.686	81.060	134.937	256.766	197.019	-43.557	-81.397	-67.982	0.0008635	0.0010784	0.00022363	1147	2.415e-05	3.0951e-06	1257.1	397.25	1.2797e-05	3.222e-05	558.96	215.16	149.78	58.809	1.0096e-05	90.892	0.0025524	0.0045061	0.0012745	1032.1	0.00010097	5.115e-05	1130	359.09	3.9196e-05	0.00013637	505.42	195.28	136.79	53.925	4.3933e-05	84.543	31.746	27.659	40.181	-72.801	210.611	104.470	-73.610	-66.814	81.569	14.026	-68.627	-64.077	-62.534	-57.224	76.558	-60.046	-8191	255	
33084.832	1	1	0	0	0.14786	0.23162	0.095539	0.04441	0.2511	0.26875	0.30815	0.24236	0.11043	0.12019	0.13888	0.10241	0.12521	0.29336	0.21831	0.21715	-3.7021	-4.5	-4.6958	-4.2396	-4.7542	-4.4333	-4.5604	-5	-4.2292	-4.4083	-4.7729	-4.2312	-4.8979	-4.6167	-4.2854	-4.8313	5.072	54.204	154.108	189.263	196.949	-26.195	194.904	195.053	-8.078	253.131	264.886	-71.285	66.058	244.430	154.471	-81.279	0.00084045	0.00066155	0.00020934	1139.1	1.6243e-05	1.0313e-05	1253.3	397.48	1.2008e-05	2.3918e-05	558.06	214.92	149.04	58.792	4.8008e-06	91.93	0.0024748	0.0044077	0.0012587	1027.4	0.00010339	4.9802e-05	1130.9	358.95	3.9005e-05	8.0956e-05	509.95	195.67	136.62	53.905	4.2342e-05	85.065	40.549	-39.087	-2.676	-72.630	211.407	66.571	-73.584	-66.758	80.440	23.580	-68.685	-64.198	-62.332	-57.062	81.820	-60.285	-8191	255	
33084.949	1	1	0	0	0.17807	0.054542	0.17261	0.3044	0.06392	0.05477	0.21711	0.31076	0.051338	0.22433	0.071624	0.1767	0.14242	0.1842	0.19553	0.28285	-3.8479	-4.4	-4.8542	-4.2458	-4.6896	-4.3646	-4.3396	-4.9021	-4.2208	-4.4896	-4.9062	-4.3646	-4.725	-4.5958	-4.1458	-4.9479	228.607	218.457	105.230	241.901	45.701	92.097	257.689	216.635	-66.787	60.745	106.024	275.137	198.291	7.100	269.114	258.252	0.00095053	0.0011934	0.00027163	1145.2	9.8676e-06	5.8708e-06	1269	399.91	1.0831e-05	1.2248e-05	562.56	217.65	151.55	59.384	9.5678e-06	92.384	0.0025526	0.0045518	0.0012159	1032.6	0.0001016	4.9779e-05	1141.5	360.88	3.9569e-05	5.0596e-05	516.08	198.16	138.4	54.424	4.3647e-05	85.875	24.057	15.660	9.510	-72.603	225.221	108.390	-73.294	-66.757	34.339	81.923	-68.790	-64.213	-62.615	-57.359	64.488	-59.920	-8191	255	
33085.047	1	1	0	0	0.1816	0.097081	0.11126	0.23549	0.094738	0.1133	0.29352	0.21132	0.17011	0.12754	0.22604	0.12968	0.12219	0.084769	0.10094	0.17419	-4.2146	-4.3	-4.7479	-4.4896	-4.6	-4.7375	-4.325	-4.75	-4.3875	-4.3667	-4.8229	-4.4104	-4.5042	-4.7292	-4.275	-4.6979	19.815	139.829	256.677	222.159	73.567	133.763	160.862	257.686	-57.701	233.732	272.951	90.422	-38.968	92.108	99.009	222.771	0.00084177	0.00058555	0.00020477	1154.9	1.8768e-05	1.046e-05	1275.9	402.4	1.4396e-05	6.0299e-06	564.95	218.12	151.85	59.453	1.2369e-05	92.417	0.0024912	0.0044221	0.0012625	1039.4	9.9157e-05	4.9915e-05	1147.1	363.5	3.9063e-05	4.9558e-05	517.85	198.13	138.47	54.543	4.3561e-05	85.625	35.129	20.622	-17.055	-72.459	18.496	85.835	-73.557	-66.737	83.262	86.010	-68.913	-64.287	-62.432	-57.451	48.407	-60.191	-8191	255	
33085.141	1	1	0	0	0.13333	0.17909	0.18172	0.15051	0.11038	0.102	0.038783	0.22886	0.089425	0.10549	0.36834	0.11231	0.17404	0.18031	0.22174	0.27098	-4.1188	-4.2542	-4.9125	-4.2458	-4.5208	-4.6917	-4.4125	-4.7937	-4.5042	-4.3292	-4.8292	-4.3104	-4.6062	-4.8938	-4.0813	-4.7312	137.613	16.844	229.974	201.188	-3.351	253.115	182.268	259.336	12.450	237.789	236.495	-63.700	227.683	223.992	266.096	246.267	0.00082953	0.0008738	7.3905e-05	1156	1.1142e-05	1.6358e-05	1271.4	400.11	4.0289e-06	1.7273e-06	563.56	216.35	150.33	59.014	4.7791e-06	91.887	0.0025699	0.0043229	0.0012036	1041.4	5.8801e-05	9.351e-05	1140.9	362.27	3.8864e-05	4.8393e-05	516.48	196.84	137.69	54.274	4.3282e-05	85.437	52.048	-1.122	-17.075	-72.624	2.998	232.317	-73.474	-66.862	54.228	113.591	-68.726	-64.140	-62.139	-57.242	86.556	-59.928	-8191	255	
33085.238	1	1	0	0	0.11418	0.30624	0.13783	0.15857	0.092198	0.13323	0.21301	0.24578	0.28427	0.24328	0.37202	0.21478	0.13732	0.089229	0.10126	0.20907	-4.3333	-4.4125	-4.9271	-4.5208	-4.3125	-4.8562	-4.3562	-4.7833	-4.5229	-4.1167	-4.8896	-4.6646	-4.3292	-4.8396	-4.0979	-4.7854	-60.727	-77.370	104.634	181.543	33.315	143.585	218.285	185.732	190.128	108.714	236.676	-54.151	260.310	174.203	44.834	248.248	0.00082403	0.00046514	0.00025855	1147.4	9.1995e-06	1.7013e-05	1276.8	400.32	8.827e-07	6.534e-06	567.7	216.78	149.69	58.771	5.3191e-06	91.927	0.0025315	0.004355	0.0012676	1038.4	3.8242e-05	0.00013307	1148.7	362.13	3.8305e-05	4.9061e-05	518.88	196.99	137.06	54.041	4.389e-05	84.889	23.767	-35.076	-8.316	-72.858	5.142	257.443	-73.451	-66.621	-38.902	90.362	-68.676	-63.960	-62.277	-57.153	33.038	-60.251	-8191	255	
33085.336	1	1	0	0	0.26497	0.12378	0.038915	0.083755	0.19423	0.10771	0.16716	0.17575	0.040421	0.045193	0.12238	0.12492	0.29298	0.30659	0.1874	0.17864	-4.1729	-4.2458	-4.7521	-4.4958	-4.3458	-4.7917	-4.3562	-4.7375	-4.6854	-4.2542	-4.7688	-4.45	-4.2667	-4.8896	-4.3708	-4.7083	5.920	-62.470	173.413	264.727	-20.466	126.803	267.872	185.270	-16.517	237.004	18.738	-65.235	211.769	215.075	0.638	8.432	0.00075034	0.00060822	0.00021929	1153.3	1.0597e-05	1.8738e-05	1276.7	398.49	2.1519e-05	1.0686e-05	562.95	215.92	149.4	58.548	7.6757e-06	91.323	0.0024724	0.004241	0.0012361	1039.2	3.6936e-05	0.00013124	1147.4	361.22	3.8466e-05	4.8466e-05	515.75	196.31	136.67	53.652	4.2576e-05	84.145	29.897	33.694	5.071	-72.732	66.321	-53.368	-73.664	-66.583	55.884	82.015	-68.731	-64.220	-62.282	-57.088	51.094	-60.274	-8191	255	
33085.430	1	1	0	0	0.1127	0.19569	0.091934	0.20585	0.15905	0.27888	0.30624	0.033105	0.24934	0.10142	0.13154	0.14072	0.26688	0.076733	0.10603	0.085985	-4.3875	-4.1271	-4.8604	-4.6104	-4.1354	-4.8208	-4.3896	-4.525	-4.75	-4.3646	-4.8479	-4.65	-4.2417	-4.8854	-4.2958	-4.4396	71.054	-3.797	238.507	232.478	59.100	-48.449	256.113	57.480	179.901	208.417	256.840	156.836	-48.391	-3.562	99.283	213.367	0.0015714	0.0010938	0.00022297	1144.4	1.036e-05	1.8324e-05	1270.8	396.08	9.9926e-06	8.2643e-06	557.96	212.54	148.6	57.801	7.364e-06	89.958	0.0044198	0.0043923	0.0012578	1033.1	3.8414e-05	0.00013441	1141.7	357.79	3.6933e-05	4.9447e-05	510.16	193.5	134.89	52.905	4.2711e-05	82.486	13.304	37.656	9.447	-72.747	26.243	267.764	-73.494	-66.701	80.671	66.551	-68.625	-63.890	-62.396	-57.245	80.225	-60.049	-8191	255	
33085.551	1	1	0	0	0.038476	0.035102	0.0482	0.13468	0.20008	0.15187	0.14784	0.15225	0.11224	0.22908	0.11102	0.24208	0.11483	0.062711	0.12081	0.055394	-4.5188	-4.2729	-4.525	-4.6479	-4.2042	-4.7979	-4.5146	-4.5417	-4.8812	-4.2271	-4.55	-4.725	-4.0312	-4.8083	-4.4062	-4.4896	168.454	-25.767	236.345	229.597	209.415	255.854	263.741	179.684	263.512	-42.319	227.528	187.630	197.054	165.095	104.594	209.248	0.00094142	0.00080969	0.00024737	1142.9	1.1744e-05	1.7985e-05	1251.6	393.33	1.1272e-05	1.2143e-05	555.46	213	146.42	57.62	6.995e-06	90.012	0.0060241	0.0044523	0.0012343	1025.8	3.8038e-05	0.00013192	1127.4	356.13	3.8525e-05	5.0224e-05	507.2	192.9	134.55	52.981	4.3398e-05	82.585	-8.815	-27.117	-2.780	-72.624	52.197	-80.792	-73.635	-66.698	57.037	54.096	-68.584	-64.166	-62.272	-56.988	118.730	-59.859	-8191	255	
33085.645	1	1	0	0	0.065026	0.10375	0.1117	0.12496	0.037152	0.05701	0.23245	0.35965	0.050725	0.056053	0.1936	0.16708	0.21399	0.23793	0.067722	0.032612	-4.45	-4.0208	-4.4938	-4.7292	-4.1188	-4.7833	-4.4563	-4.3562	-4.7542	-4.2167	-4.7104	-4.8667	-4.1833	-4.5375	-4.475	-4.2812	58.672	253.429	59.648	-57.185	15.712	61.342	179.791	274.667	155.811	138.605	266.668	119.190	184.511	254.528	-44.162	199.785	0.0010622	0.00049445	0.00026667	1130.1	1.3434e-05	1.6067e-05	1260.2	395.02	5.8755e-06	8.2158e-06	557.46	211.49	147.68	57.697	1.0742e-05	90.16	0.0058051	0.0043203	0.0012648	1022.3	3.81e-05	0.0001368	1131.9	356.57	3.8947e-05	4.8767e-05	505.27	194.53	134.85	53.058	4.1877e-05	82.838	11.289	-33.304	12.581	-72.789	44.781	-49.945	-72.959	-66.613	91.314	73.417	-68.557	-64.315	-62.394	-57.307	50.826	-60.114	-8191	255	
33085.742	1	1	0	0	0.023872	0.08074	0.045479	0.11351	0.1223	0.0042812	0.12479	0.086904	0.26025	0.17285	0.095889	0.27111	0.17845	0.17172	0.065102	0.18269	-4.4958	-4.3292	-4.4375	-4.7833	-4.2125	-4.5917	-4.6833	-4.2	-4.7708	-4.4729	-4.6	-4.8812	-4.1708	-4.7604	-4.55	-4.2688	175.624	168.434	141.500	166.166	263.781	-49.427	253.870	165.210	270.342	27.550	257.628	234.810	216.685	264.030	217.441	233.137	0.0012359	0.0013821	0.00024979	1141.4	1.0346e-05	2.189e-05	1266.9	396.79	1.5182e-05	7.5525e-06	561.64	215.98	148.68	58.308	6.6008e-06	91.354	0.0059841	0.00426	0.0011891	1028.7	3.7773e-05	0.00013245	1139	358.73	3.8368e-05	4.7232e-05	507.12	197.36	136.21	53.586	4.1639e-05	83.763	-11.139	-32.344	14.702	-72.689	53.206	-53.400	-73.343	-66.804	31.708	44.745	-68.559	-64.325	-62.306	-57.190	70.904	-60.091	-8191	255	
33085.816	1	1	0	0	0.1437	0.13312	0.17035	0.26637	0.18475	0.17939	0.22356	0.22788	0.24959	0.26479	0.33322	0.20577	0.19452	0.090611	0.11876	0.16112	-4.4146	-4.4625	-4.3396	-4.9563	-4.3833	-4.5687	-4.8729	-4.3208	-4.7083	-4.4479	-4.4583	-4.8354	-4.3	-4.6479	-4.6687	-4.3604	268.080	99.805	224.442	216.980	127.222	-71.047	255.546	264.468	-22.514	171.254	249.356	166.155	244.977	261.864	16.530	219.026	0.0013952	0.00055625	6.1718e-05	1148.2	8.9708e-06	2.3541e-05	1269.6	398.78	1.7841e-05	1.2746e-05	564.12	216.34	149.05	58.575	1.2494e-05	91.444	0.0058674	0.0042731	0.0011992	1038.1	3.7036e-05	0.00011709	1144.9	361.81	4.0219e-05	4.7918e-05	510.05	198.09	136.67	53.804	4.1454e-05	83.645	-4.236	27.517	15.831	-72.595	76.983	31.313	-73.680	-66.601	27.595	59.262	-68.626	-64.228	-62.348	-57.326	19.627	-59.826	-8191	255	
33085.934	1	1	0	0	0.068366	0.16132	0.12404	0.25725	0.19957	0.19141	0.23686	0.10024	0.11734	0.26014	0.18882	0.08475	0.046343	0.12664	0.13623	0.1617	-4.4062	-4.3708	-4.2875	-4.8438	-4.2854	-4.475	-4.9396	-4.2917	-4.6042	-4.5479	-4.3271	-5.0417	-4.3187	-4.5042	-4.8146	-4.3604	31.915	224.271	-75.561	261.963	21.450	242.791	210.315	190.954	-83.942	112.160	256.489	237.167	27.557	-79.210	262.445	218.505	0.0015871	0.00043304	0.00022144	1152.1	1.6596e-05	1.4893e-05	1267.8	397.05	1.119e-05	2.6039e-06	558.54	216.17	150.29	58.383	8.0213e-06	91.046	0.0059617	0.0042467	0.0012151	1037.3	3.781e-05	6.5418e-05	1145.6	360.65	3.8493e-05	4.9467e-05	508.88	197.84	136.83	53.602	4.3267e-05	83.699	3.747	2.263	-14.661	-72.788	79.020	-0.457	-73.665	-66.665	138.012	139.934	-68.539	-63.977	-62.187	-57.284	114.863	-59.939	-8191	255	
33086.031	1	1	0	0	0.15928	0.10389	0.21774	0.096317	0.17105	0.029569	0.39117	0.17303	0.33143	0.18194	0.31952	0.1205	0.10937	0.2068	0.06733	0.11933	-4.4958	-4.7	-4.0875	-4.8417	-4.4104	-4.3354	-4.8708	-4.2667	-4.7312	-4.5521	-4.3125	-5.0917	-4.3458	-4.3667	-4.7458	-4.4604	103.834	238.068	21.933	-21.259	123.940	227.570	220.188	152.682	96.219	178.798	275.348	-76.990	256.986	195.098	25.275	-11.873	0.0013683	0.00076578	0.00019275	1147.1	8.6091e-06	6.4629e-06	1271.9	397.23	1.496e-05	4.1232e-06	564.06	215.1	148.87	58.235	1.2208e-05	90.921	0.0057951	0.0043317	0.0012105	1035.8	3.729e-05	4.7927e-05	1154.9	359.43	3.9161e-05	4.7889e-05	509.98	197.35	136.38	53.48	4.0866e-05	83.492	25.607	26.499	51.211	-72.628	-30.997	73.438	-73.674	-66.531	23.467	100.647	-68.483	-64.028	-62.582	-57.133	59.563	-59.774	-8191	255	
33086.125	1	1	0	0	0.0034813	0.24219	0.060361	0.14852	0.34332	0.039728	0.19277	0.15522	0.23622	0.066076	0.20826	0.31544	0.1224	0.096842	0.1622	0.29247	-4.2	-4.7125	-4.1542	-4.9292	-4.4583	-4.3375	-5.0062	-4.3938	-4.5	-4.7104	-4.2625	-4.8313	-4.5896	-4.3688	-4.825	-4.4167	-13.263	-53.349	222.533	252.960	-28.770	60.886	15.704	253.088	165.789	187.674	230.525	244.267	167.840	150.580	239.602	189.893	0.00087934	0.0021125	0.00018521	1147	5.5157e-06	1.2314e-05	1273.6	398.63	1.3033e-05	9.2163e-06	563.47	215.02	149.76	58.394	3.2464e-06	90.695	0.0050682	0.0047591	0.0011578	1033.9	3.7645e-05	4.7729e-05	1156.7	360.49	3.7601e-05	4.6276e-05	509.89	197.66	136.21	53.556	4.1862e-05	83.56	30.514	142.097	-34.097	-72.451	15.768	82.665	-73.648	-66.584	81.047	72.220	-68.719	-63.955	-62.500	-57.218	39.677	-60.180	-8191	255	
33086.223	1	1	0	0	0.22707	0.25364	0.062712	0.23445	0.11984	0.31869	0.21373	0.20138	0.13123	0.17226	0.31433	0.18319	0.03842	0.11253	0.3201	0.10289	-4.2188	-4.6229	-4.1104	-4.6896	-4.4479	-4.3354	-5.0833	-4.425	-4.3417	-4.7625	-4.2458	-4.7458	-4.5083	-4.2562	-4.825	-4.4375	224.115	205.144	-17.905	266.322	154.574	-29.831	236.663	150.353	2.165	113.469	273.717	248.533	254.181	-9.687	223.556	255.311	0.00056472	0.001149	0.00024741	1147.9	1.2742e-05	7.0923e-06	1263.7	393.7	7.3946e-06	6.8773e-06	551.83	213.38	146.62	57.815	9.4861e-06	89.803	0.002856	0.0089654	0.0012012	1033.2	3.623e-05	4.8355e-05	1149.9	356.65	3.7622e-05	4.7117e-05	502.34	195.17	134.74	52.974	4.3669e-05	82.409	9.482	160.695	9.648	-72.766	49.980	43.428	-73.624	-66.591	97.809	55.217	-68.624	-64.248	-62.008	-57.482	90.242	-60.140	-8191	255	
33086.344	1	1	0	0	0.18406	0.21629	0.076777	0.3454	0.1084	0.11816	0.17496	0.16769	0.063164	0.18514	0.33115	0.094917	0.059504	0.13946	0.18496	0.19065	-3.9729	-4.7396	-4.2104	-4.5563	-4.6438	-4.1083	-4.9896	-4.5083	-4.3104	-4.9333	-4.3104	-4.5833	-4.7	-4.4146	-4.6417	-4.5375	-51.581	-46.992	-82.552	230.712	15.277	121.465	217.766	206.086	247.205	66.258	237.156	-74.073	252.155	163.177	74.417	-60.312	0.000889	0.0020034	0.00011896	1140.8	3.6161e-06	3.9297e-06	1262.2	393.87	1.558e-05	7.1612e-06	559.36	212.79	146.4	57.207	7.957e-06	89.877	0.0023556	0.011408	0.0012145	1027.9	3.6242e-05	4.8027e-05	1145.7	357.03	3.7379e-05	4.7731e-05	504.51	194.28	135.06	52.68	4.2963e-05	82.394	50.051	135.603	-20.250	-72.886	128.299	190.626	-73.370	-66.909	47.994	47.625	-68.646	-64.337	-62.240	-57.186	92.305	-59.879	-8191	255	
33086.414	1	1	0	0	0.10093	0.11392	0.047618	0.16378	0.066172	0.098918	0.37024	0.10433	0.054296	0.029857	0.15427	0.25133	0.13311	0.083427	0.036996	0.072479	-3.9688	-4.7771	-4.2646	-4.7417	-4.8104	-4.4125	-4.7646	-4.6208	-4.2625	-4.8583	-4.5479	-4.5333	-4.6854	-4.3104	-4.825	-4.6104	243.314	-31.899	191.306	269.486	239.674	230.972	221.172	-79.947	242.791	39.223	247.347	214.664	201.130	199.408	255.053	202.080	0.00068649	0.0016434	0.00026889	1140.5	1.0829e-05	6.9795e-06	1264.5	394.86	5.4969e-06	7.8356e-06	559.5	212.44	147.8	57.895	1.2243e-05	90.336	0.0023554	0.011178	0.0012159	1025.1	3.4691e-05	4.9536e-05	1146.8	357.13	3.6982e-05	4.9838e-05	505.57	193.6	137.1	53.13	4.2059e-05	83.06	44.666	151.474	-7.822	-72.637	44.733	28.792	-73.694	-66.797	0.268	26.201	-68.579	-63.970	-62.743	-57.331	60.479	-60.074	-8191	255	
33086.512	1	1	0	0	0.17608	0.097302	0.25344	0.33234	0.077822	0.16643	0.20281	0.285	0.13929	0.16278	0.17881	0.13109	0.1556	0.23468	0.027223	0.13556	-3.9875	-4.6625	-4.3083	-4.4458	-4.7688	-4.1771	-4.8167	-4.6833	-4.1021	-4.6854	-4.4333	-4.4521	-4.9833	-4.4583	-4.4771	-4.7937	253.873	-5.801	131.245	266.062	102.420	214.935	-69.683	234.603	54.822	247.138	271.160	-37.694	236.899	-33.409	257.252	224.990	0.00077971	0.0030578	0.00016286	1148.5	5.3284e-06	1.0383e-05	1272	397.54	1.273e-06	4.5978e-06	563.38	215.01	148.58	58.173	1.0489e-05	90.904	0.0024032	0.011765	0.001197	1032.5	3.7041e-05	4.8363e-05	1154.7	359.64	3.6834e-05	4.6927e-05	509.02	195.27	138.62	53.396	4.4066e-05	83.478	28.346	133.518	35.794	-72.684	67.957	83.811	-73.592	-66.878	27.232	89.154	-68.654	-63.850	-62.299	-57.510	37.410	-59.906	-8191	255	
33086.633	1	1	0	0	0.3549	0.026001	0.19173	0.049898	0.30833	0.1334	0.15282	0.27534	0.048056	0.18598	0.095756	0.11954	0.30521	0.066092	0.029402	0.37351	-3.8479	-4.7521	-4.4146	-4.4125	-4.8979	-4.3625	-4.6937	-4.8146	-4.2583	-4.6479	-4.6896	-4.3438	-4.8771	-4.3542	-4.4396	-4.725	9.637	138.489	82.299	223.950	108.960	177.915	203.360	273.418	187.525	171.637	-65.724	208.467	-81.126	13.261	216.452	202.911	0.00090598	0.0020171	0.00030272	1147.4	1.9097e-05	5.837e-06	1270.3	396.72	1.7445e-05	1.0987e-05	558.42	213.94	148.1	58.06	1.4638e-05	90.667	0.0024574	0.011391	0.0011989	1034.5	3.7736e-05	4.8994e-05	1149.6	360.42	3.8408e-05	5.0233e-05	506.06	194.09	138.03	53.221	4.2276e-05	82.995	22.745	170.733	-14.072	-72.781	47.595	28.484	-73.444	-66.650	44.981	55.107	-68.492	-64.329	-62.403	-57.336	20.315	-59.916	-8191	255	
33086.727	1	1	0	0	0.15369	0.15464	0.1804	0.36479	0.048237	0.26747	0.088288	0.15377	0.089602	0.24021	0.17846	0.11064	0.076103	0.1768	0.057165	0.15856	-3.7542	-4.6771	-4.3958	-4.3729	-4.8958	-4.4313	-4.4542	-4.9125	-4.2146	-4.8042	-4.575	-4.3812	-4.9625	-4.4917	-4.4854	-4.8938	216.262	190.150	-50.205	244.563	59.468	55.497	245.035	257.861	96.411	220.590	197.628	-43.828	179.007	-30.188	52.781	154.868	0.00076743	0.0025837	6.313e-05	1146.2	1.3534e-05	7.2827e-06	1265.3	396.81	6.3231e-06	1.133e-05	559.14	213.24	148.55	57.954	9.8344e-06	90.236	0.0024537	0.011449	0.0011449	1032.9	3.9727e-05	4.8794e-05	1137.4	361.87	3.8032e-05	4.9155e-05	506	194.23	138.28	53.2	4.1481e-05	82.831	23.696	153.411	43.697	-72.522	52.155	63.843	-73.631	-66.892	-30.069	35.505	-68.845	-64.263	-62.087	-57.260	21.957	-60.008	-8191	255	
33086.824	1	1	0	0	0.16673	0.096688	0.18447	0.12508	0.33738	0.13161	0.053111	0.096012	0.16008	0.067746	0.2718	0.25365	0.099368	0.18536	0.29162	0.38561	-3.9167	-4.5188	-4.6458	-4.35	-4.8292	-4.4187	-4.4375	-5.1208	-4.0021	-4.6229	-4.8167	-4.35	-4.7646	-4.4229	-4.3542	-5.0542	6.114	-42.252	202.948	6.967	157.059	-77.881	-11.796	247.524	-19.512	-32.937	244.364	264.429	154.375	199.170	15.130	162.138	0.0008971	0.0018719	0.00023335	1142.3	7.9522e-06	6.7074e-06	1265.5	396.22	4.2781e-06	7.2284e-06	560.91	212.54	147.3	57.67	9.653e-06	90.249	0.0024442	0.011274	0.0011804	1029.3	3.763e-05	4.8902e-05	1139.2	362.78	3.7655e-05	4.8784e-05	506.5	193.28	137.31	53.005	4.1152e-05	82.96	36.745	183.575	-6.214	-72.322	55.852	4.828	-73.216	-66.794	102.600	80.446	-68.455	-64.170	-62.278	-57.321	14.792	-59.897	-8191	255	
33086.941	1	1	0	0	0.013225	0.13434	0.18459	0.22075	0.048634	0.33671	0.28609	0.06616	0.21141	0.15832	0.1138	0.25407	0.19785	0.1594	0.021361	0.12071	-3.9854	-4.5667	-4.6542	-4.3854	-4.5333	-4.6312	-4.5312	-5.1667	-4.3958	-4.6104	-4.9313	-4.4146	-4.6458	-4.5938	-4.2229	-4.9917	33.628	25.477	-33.431	180.219	-6.562	-12.386	182.442	194.989	213.227	88.055	-1.960	156.874	249.532	119.344	-44.706	222.314	0.00076876	0.0013624	0.00029568	1147.9	1.1448e-05	5.1442e-06	1271.2	394.82	4.6801e-06	6.1824e-06	561.24	213.73	147.79	57.931	6.418e-06	90.648	0.0023569	0.0089749	0.0015676	1033.2	3.7867e-05	4.8209e-05	1145	361.9	3.8349e-05	4.612e-05	506.65	194.12	137.71	53.041	4.1004e-05	82.918	37.291	-18.654	170.690	-72.652	59.434	72.312	-73.465	-66.583	203.649	8.483	-68.548	-64.044	-62.081	-57.288	77.507	-59.977	-8191	255	
33087.039	1	1	0	0	0.30598	0.16242	0.074014	0.1795	0.066442	0.19817	0.25157	0.18483	0.32251	0.22596	0.22119	0.09309	0.026703	0.067207	0.16806	0.18039	-4.0437	-4.5521	-4.7458	-4.4458	-4.7854	-4.6562	-4.3646	-5.0896	-4.3458	-4.575	-4.9979	-4.4354	-4.6292	-4.6813	-4.2521	-4.9021	43.757	260.658	7.605	206.502	-26.935	-51.051	226.102	233.904	270.876	164.444	212.487	1.232	154.500	206.840	-19.498	258.178	0.00079597	0.0011327	0.00036843	1141.7	6.8658e-06	5.3299e-06	1262.7	397.17	1.1705e-05	5.707e-06	559.74	211.58	147.55	57.544	7.3801e-06	89.868	0.002423	0.0041735	0.0028461	1028.2	3.7583e-05	4.6768e-05	1132.4	361.98	3.7733e-05	4.7909e-05	504.17	192.29	137.21	52.78	4.1023e-05	82.422	42.658	-72.033	192.147	-72.708	48.527	-7.830	-73.408	-66.630	87.134	55.421	-68.462	-64.122	-62.021	-57.386	94.067	-59.715	-8191	255	
33087.109	1	1	0	0	0.087713	0.17768	0.10248	0.050642	0.24908	0.13732	0.17412	0.070686	0.26174	0.11351	0.24993	0.082744	0.25835	0.31084	0.34597	0.16017	-4.0229	-4.4646	-4.9208	-4.4042	-4.5583	-4.7729	-4.4187	-4.9437	-4.5208	-4.4333	-4.9354	-4.3792	-4.6042	-4.8167	-4.1896	-4.8521	54.609	26.524	231.390	-75.866	170.578	255.355	-55.848	257.440	63.597	-44.838	195.100	34.261	229.096	230.801	0.863	165.405	0.00084758	0.00062974	0.00055587	1143.3	2.7316e-06	1.052e-05	1255.7	397.73	8.1888e-06	3.9962e-06	554.59	211.67	148.57	57.171	5.3911e-06	89.934	0.0023432	0.0040346	0.0032739	1026.4	3.7139e-05	4.6175e-05	1129.1	361.26	3.7326e-05	4.7235e-05	503.7	192.47	136.39	52.938	4.1622e-05	82.554	43.481	-8.977	199.114	-72.697	69.175	49.635	-73.512	-66.524	94.194	238.870	-68.624	-63.991	-62.432	-57.282	1.842	-60.010	-8191	255	
33087.230	1	1	0	0	0.136	0.12389	0.12123	0.20608	0.083459	0.12367	0.16868	0.28727	0.10847	0.15303	0.12612	0.084461	0.16223	0.19514	0.1514	0.18468	-4.0188	-4.2354	-4.7812	-4.5396	-4.5229	-4.775	-4.4	-4.8104	-4.6292	-4.2063	-4.8958	-4.4229	-4.4875	-4.9208	-4.2688	-4.7896	204.377	171.617	-45.777	239.242	274.380	240.849	144.427	-77.933	246.094	29.544	244.558	164.881	249.122	268.694	129.871	177.972	0.00073744	0.0010927	0.00041701	1134.1	1.0123e-05	1.4276e-05	1259.6	395.27	1.5546e-05	4.6584e-06	559.86	212.26	146.49	57.889	1.2104e-05	90.376	0.0024377	0.0041813	0.0031183	1023.4	3.5797e-05	4.784e-05	1133.6	362.01	3.5905e-05	4.7144e-05	506.61	193.27	134.92	53.651	4.1494e-05	83.047	33.554	37.293	193.535	-72.763	-9.100	75.411	-73.660	-66.804	142.893	32.946	-68.343	-64.326	-62.046	-57.386	111.879	-60.052	-8191	255	
33087.328	1	1	0	0	0.14278	0.03941	0.14982	0.17957	0.024446	0.22047	0.14851	0.35521	0.15939	0.13496	0.29675	0.078705	0.23764	0.19877	0.091411	0.023702	-4.4125	-4.225	-4.5479	-4.5708	-4.5042	-5.0271	-4.5979	-4.9146	-4.8229	-4.3438	-4.9729	-4.5021	-4.4354	-5.1021	-4.2937	-4.8083	93.948	58.892	-51.037	223.753	53.985	174.383	-70.253	241.384	174.495	11.023	224.356	-42.657	144.826	262.298	-76.468	210.120	0.000942	0.00068544	0.00026372	1145.6	1.2307e-05	8.8938e-06	1273.3	398.59	6.7683e-06	7.9486e-06	560.25	214.28	148.78	57.874	8.6459e-06	90.246	0.0024237	0.0042001	0.0032761	1033.2	3.603e-05	4.8646e-05	1143.9	363.27	3.9446e-05	4.8104e-05	508.04	194.47	135.47	53.917	4.1745e-05	83.097	24.999	-1.056	250.255	-72.442	70.433	55.625	-73.451	-66.549	92.440	75.154	-68.592	-64.143	-62.112	-56.965	65.218	-60.190	-8191	255	
33087.422	1	1	0	0	0.23018	0.060073	0.22442	0.31812	0.087073	0.18445	0.16276	0.33603	0.026433	0.054505	0.13007	0.23033	0.15631	0.28262	0.080566	0.085614	-4.4417	-4.3562	-4.7792	-4.7292	-4.4958	-5.0292	-4.5542	-4.5375	-4.7292	-4.3021	-4.975	-4.9125	-4.4167	-5.0687	-4.6271	-4.7396	194.569	252.498	103.583	-77.870	-75.637	-69.619	220.799	189.674	248.455	195.630	146.685	-60.750	232.501	274.131	82.759	-71.742	0.00070493	0.00055888	0.00025162	1147.6	1.0514e-05	1.0765e-05	1263.6	398.23	1.0443e-05	9.4623e-06	555.95	211.7	147.67	57.99	7.3203e-06	90.235	0.0023823	0.0042594	0.0032078	1030.7	3.6362e-05	4.9046e-05	1135.9	360.95	5.7147e-05	4.6574e-05	504.49	192.92	135.51	53.862	4.2685e-05	82.787	28.832	0.229	189.462	-72.693	51.413	71.155	-73.325	-66.772	133.227	109.683	-68.474	-64.193	-62.491	-57.296	68.132	-60.124	-8191	255	
33087.520	1	1	0	0	0.16204	0.19442	0.089599	0.34159	0.20725	0.20187	0.11914	0.21326	0.23111	0.033332	0.17373	0.11089	0.04154	0.25654	0.21265	0.1394	-4.5188	-4.3104	-4.8104	-4.7083	-4.2875	-4.85	-4.5687	-4.7042	-4.8646	-4.3833	-4.7625	-4.8375	-4.4167	-5.0396	-4.4292	-4.6479	-15.939	274.562	195.399	266.377	122.800	215.683	186.432	207.161	68.700	210.964	210.121	160.537	-69.448	197.008	-69.125	236.012	0.00093916	0.00093645	0.00044301	1137.5	1.1332e-05	1.0126e-05	1251	394.7	5.8837e-06	8.1335e-06	555.98	214.25	148.83	57.63	6.9614e-06	90.118	0.002455	0.0041122	0.0032482	1026.4	3.6714e-05	4.9771e-05	1130.9	357.89	9.2899e-05	4.7779e-05	504.12	193.54	135.52	53.693	4.1635e-05	82.735	40.029	7.336	240.046	-72.716	56.964	83.974	-73.547	-66.655	129.500	56.743	-68.254	-63.927	-62.394	-57.102	50.822	-60.278	-8191	255	
33087.641	1	1	0	0	0.2061	0.18213	0.016012	0.19033	0.11769	0.072443	0.19527	0.07889	0.04765	0.21365	0.12702	0.1243	0.16576	0.20438	0.031195	0.29565	-4.6354	-4.4521	-4.7021	-4.7896	-4.3521	-4.8354	-4.5417	-4.5792	-4.925	-4.2583	-4.8542	-4.8042	-4.3125	-4.8812	-4.7208	-4.4313	244.802	-0.525	109.870	-46.381	87.603	-82.283	139.279	259.886	157.832	-34.537	55.695	274.956	-51.490	163.360	111.911	-73.847	0.00076938	0.00092386	0.00033435	1140.8	5.7708e-06	5.1446e-06	1254.9	394.74	4.54e-05	8.6289e-06	554.85	212.07	147.03	57.637	8.0521e-06	90.083	0.0024065	0.0041886	0.0031081	1028.2	3.7186e-05	4.7545e-05	1132.7	357.69	0.00010189	4.7652e-05	504.57	193.04	134.97	53.708	4.0294e-05	82.775	38.249	28.672	248.676	-72.474	31.894	67.980	-73.361	-66.840	55.328	88.368	-68.618	-64.486	-62.321	-57.033	37.264	-59.921	-8191	255	
33087.711	1	1	0	0	0.033037	0.1012	0.12324	0.17145	0.1129	0.24973	0.24856	0.054919	0.22505	0.12879	0.035318	0.26275	0.12628	0.27241	0.19455	0.1412	-4.6458	-4.4688	-4.6083	-4.8271	-4.25	-4.9125	-4.7937	-4.3375	-4.9729	-4.5437	-4.6958	-4.8896	-4.4521	-4.9688	-4.7479	-4.3271	67.937	98.889	181.830	-83.095	124.078	172.301	252.070	165.387	65.965	23.963	140.799	-81.579	197.463	9.035	151.379	196.444	0.00077816	0.00080754	0.00043813	1146.4	1.1091e-05	3.6658e-06	1268.7	394.21	3.3496e-05	9.9361e-06	555.48	213.42	146.82	57.289	4.0947e-06	89.35	0.0024063	0.0042425	0.0022152	1034.2	3.694e-05	4.7385e-05	1139	357.17	0.00010219	4.668e-05	504.04	192.77	134.36	53.414	3.9881e-05	82.096	11.733	-21.033	-23.073	-72.715	89.131	74.405	-73.649	-66.448	55.644	55.606	-68.559	-64.164	-62.175	-57.135	144.913	-59.808	-8191	255	
33087.809	1	1	0	0	0.34347	0.1913	0.054613	0.10479	0.10707	0.20931	0.33045	0.15802	0.23568	0.23965	0.28557	0.26897	0.22893	0.20968	0.20455	0.10016	-4.5792	-4.475	-4.4833	-5.0521	-4.3083	-4.9167	-4.8938	-4.3875	-4.9938	-4.6062	-4.3917	-4.95	-4.2854	-4.8562	-4.8917	-4.5375	-72.205	-71.010	170.285	89.755	97.099	181.084	211.642	218.135	257.336	-58.494	217.315	200.819	147.620	270.961	51.886	209.285	0.00066257	0.00058881	0.00014942	1128.6	8.3677e-06	4.8094e-06	1249.9	389.62	6.1398e-05	8.6102e-06	552.35	210.3	146.78	57.048	6.338e-06	89.14	0.002439	0.0041044	0.0011971	1029.8	3.715e-05	4.8324e-05	1124.5	353.28	0.00010263	4.7114e-05	498.94	190.78	133.6	53.026	3.9057e-05	81.688	41.996	1.539	19.840	-72.619	60.881	72.869	-73.600	-66.472	58.504	22.982	-68.723	-64.050	-62.255	-57.433	53.550	-59.929	-8191	255	
33087.902	1	1	0	0	0.14812	0.040682	0.19184	0.071078	0.14273	0.10864	0.044671	0.21144	0.078078	0.024964	0.11125	0.084062	0.25478	0.21924	0.080018	0.22336	-4.6854	-4.5125	-4.4667	-5.1687	-4.4229	-4.6604	-4.9062	-4.325	-5.0021	-4.5875	-4.4333	-5.0563	-4.5417	-4.6125	-5.0021	-4.4333	112.098	39.550	152.603	41.858	-31.535	155.802	-60.168	-74.989	217.534	126.524	-64.644	-5.701	217.478	-74.194	131.332	157.864	0.00073118	0.0012168	0.00017595	1131.5	8.6198e-06	1.0356e-05	1235.6	391.28	4.7544e-05	7.2713e-06	548.8	210.02	145.98	57.178	2.7972e-05	89.214	0.0024196	0.0040206	0.0011707	1028.4	3.6039e-05	4.6542e-05	1117.7	353.74	9.9121e-05	4.6132e-05	498.47	190.63	133.52	52.681	6.9349e-05	81.95	34.643	2.571	16.140	-72.782	86.494	116.460	-73.556	-66.609	83.927	55.048	-68.506	-63.827	-62.428	-57.066	204.109	-60.178	-8191	255	
33088.023	1	1	0	0	0.11726	0.13809	0.19853	0.31769	0.23006	0.096104	0.14002	0.056575	0.26786	0.20523	0.2679	0.20844	0.1574	0.14956	0.14799	0.14921	-4.6833	-4.7312	-4.3667	-5.1271	-4.4854	-4.6854	-5.0604	-4.3792	-4.6458	-4.8333	-4.4812	-5.0708	-4.4688	-4.5625	-5.0188	-4.3917	-33.811	199.866	87.702	212.331	38.229	206.207	236.091	119.054	-10.546	156.727	260.576	259.590	198.677	269.457	225.244	178.989	0.00079502	0.0010752	0.00013347	1139.6	1.3684e-05	6.9911e-06	1255.4	393.52	3.5422e-05	7.8963e-06	553.29	211.15	147.43	57.489	2.6363e-05	90.219	0.0024281	0.0040957	0.0011632	1030.8	3.6024e-05	4.6085e-05	1129.4	356.08	0.00010112	4.5133e-05	502.52	192.2	134.55	52.948	0.00011138	82.816	29.814	7.428	9.908	-72.703	57.074	76.362	-73.041	-66.440	64.231	103.870	-68.124	-64.083	-62.321	-57.262	176.933	-59.724	-8191	255	
33088.117	1	1	0	0	0.16573	0.15784	0.087774	0.10846	0.28098	0.05432	0.17496	0.28517	0.0469	0.083596	0.18893	0.20331	0.37852	0.26574	0.17456	0.15039	-4.425	-4.625	-4.3688	-5.0375	-4.4833	-4.4667	-4.9771	-4.3812	-4.7854	-4.7458	-4.4125	-4.9396	-4.5896	-4.4313	-4.8604	-4.3021	129.198	218.768	20.619	249.858	73.752	248.947	270.012	242.743	-33.216	267.871	240.904	169.629	260.417	191.746	146.354	144.754	0.00082788	0.00086365	0.00020993	1140.8	5.2871e-06	8.1008e-06	1273.1	396.19	3.8002e-05	4.7313e-06	559.31	212.71	147.31	57.34	2.1318e-05	89.49	0.0024455	0.0041887	0.001232	1039.3	3.7303e-05	4.7135e-05	1142.6	357.99	0.00010128	4.6383e-05	504.8	193.13	134.51	52.76	0.00011329	82.237	31.375	22.913	-17.643	-72.382	66.837	73.417	-73.325	-66.509	85.852	16.507	-68.719	-64.692	-62.420	-57.036	173.781	-60.421	-8191	255	
33088.215	1	1	0	0	0.10216	0.15303	0.031331	0.17744	0.17861	0.011748	0.1872	0.15533	0.19325	0.12527	0.28693	0.14952	0.23417	0.22832	0.056491	0.053207	-4.2937	-4.6646	-4.3562	-4.9938	-4.7271	-4.4187	-5.1438	-4.3604	-4.5479	-4.8479	-4.5083	-4.9938	-4.6667	-4.4688	-4.9896	-4.6896	72.781	111.025	102.884	197.353	255.957	-6.588	231.311	256.910	227.508	216.219	-74.314	207.679	272.560	-37.121	62.566	-75.709	0.0010065	0.001115	0.00025931	1136.3	5.8625e-06	4.5195e-06	1258.1	391.2	4.7482e-05	2.2226e-05	552.58	209.54	144.77	57.123	2.0335e-05	88.629	0.0024539	0.0041388	0.0011751	1036.2	3.4906e-05	4.8151e-05	1129.7	354.4	6.2028e-05	8.5321e-05	498.91	189.78	132.43	52.269	0.00011084	81.178	41.013	-1.100	-8.821	-72.498	48.678	85.402	-73.553	-66.758	75.381	147.867	-68.333	-64.144	-62.754	-57.241	219.874	-59.969	-8191	255	
33088.312	1	1	0	0	0.084216	0.17121	0.18985	0.11285	0.066171	0.20798	0.17931	0.16587	0.28963	0.092611	0.12826	0.23454	0.1732	0.072179	0.10426	0.15607	-4.4083	-4.7708	-4.2354	-4.9563	-4.6292	-4.2708	-5.1917	-4.5687	-4.5479	-4.8396	-4.4542	-4.9688	-4.8854	-4.4917	-4.7875	-4.6271	223.511	176.133	-45.849	247.727	82.880	-35.196	131.302	201.985	32.992	117.266	206.934	232.999	-63.928	217.972	111.644	218.484	0.00091404	0.0011616	6.4812e-05	1131	3.6282e-06	3.1978e-06	1248.6	388.23	4.2823e-06	1.9326e-05	551.88	207.79	144.88	56.659	2.4252e-05	88.925	0.0023551	0.0039392	0.001131	1027.6	3.5411e-05	4.7013e-05	1125.1	353.14	3.5069e-05	0.00012487	499.38	190.02	132.72	52.017	0.00011133	81.458	21.843	8.829	15.336	-72.654	66.692	11.634	-73.570	-66.715	77.248	95.282	-68.423	-64.049	-62.056	-57.073	206.384	-60.091	-8191	255	
33088.406	1	1	0	0	0.088469	0.033643	0.10464	0.20672	0.1695	0.20915	0.069919	0.12312	0.035901	0.15011	0.24456	0.29653	0.046639	0.020095	0.3155	0.20934	-4.1875	-4.95	-4.2271	-4.9354	-4.8104	-4.375	-5.0521	-4.7937	-4.3583	-4.9333	-4.5042	-4.825	-4.8896	-4.4229	-4.8562	-4.8042	174.908	87.824	257.642	245.476	238.229	9.125	159.870	259.536	108.703	-38.029	240.227	-52.971	152.191	22.500	157.505	207.650	0.0010139	0.00059631	0.00015933	1129	9.4362e-06	1.396e-05	1253.7	389.76	5.7037e-06	2.3959e-05	551.18	210.36	145.14	56.73	1.9997e-05	89.092	0.0022899	0.0040476	0.0011218	1025.1	3.3848e-05	4.5798e-05	1129.8	352.78	3.6388e-05	0.00012908	497.97	190.77	132.76	52.04	0.00010471	81.678	44.167	4.270	-3.031	-72.637	51.503	86.869	-73.477	-66.601	109.754	81.752	-68.816	-64.061	-62.042	-56.977	186.534	-60.012	-8191	255	
33088.504	1	1	0	0	0.15963	0.17407	0.15975	0.049658	0.23984	0.12466	0.16221	0.12029	0.10926	0.14073	0.18364	0.2618	0.14064	0.11702	0.081332	0.28398	-4.0229	-4.7479	-4.5167	-4.6375	-4.8271	-4.3958	-5.0396	-4.7854	-4.3979	-4.9042	-4.6354	-4.7729	-4.9708	-4.3458	-4.7396	-4.625	122.297	119.083	132.527	15.705	228.888	201.098	274.778	-73.916	187.042	101.235	169.224	-40.879	-72.595	-56.614	239.174	222.052	0.00071756	0.0011894	0.00033244	1131.3	1.1774e-05	7.7931e-06	1253.7	389.26	1.4088e-05	2.6035e-05	553.39	209.44	144.02	56.049	1.9908e-05	88.202	0.0023019	0.0040311	0.0011179	1022.3	6.3151e-05	4.6223e-05	1130.9	352.12	3.5076e-05	0.0001244	499.61	189.88	132.16	51.673	0.00010809	80.862	26.720	4.177	-1.320	-72.573	7.045	73.863	-73.456	-66.423	64.590	93.840	-68.382	-64.368	-62.082	-57.235	231.970	-60.108	-8191	255	
33088.625	1	1	0	0	0.18231	0.065472	0.11103	0.27785	0.26783	0.2208	0.28613	0.023833	0.22694	0.23792	0.1418	0.13913	0.19952	0.057243	0.16242	0.10196	-4.05	-4.8313	-4.4417	-4.6708	-5.0167	-4.3625	-4.8854	-4.9458	-4.2208	-4.9229	-4.5521	-4.5062	-4.9896	-4.3104	-4.6604	-5.0083	149.651	104.070	185.953	244.113	221.437	211.943	219.615	187.472	-47.272	123.941	213.398	258.486	219.082	258.379	159.620	218.181	0.00072658	0.00042075	0.00013512	1123.4	3.227e-05	1.0539e-05	1239.1	387.27	6.3755e-06	2.0342e-05	543.74	206.36	144.26	55.999	8.0355e-06	87.516	0.0022921	0.0039633	0.0010385	1011.7	9.3424e-05	4.5917e-05	1117.4	350.88	3.596e-05	0.00012653	493.91	188.62	131.9	51.413	0.00010338	80.329	27.368	24.705	-37.703	-72.664	-0.731	81.266	-73.316	-66.854	52.019	108.838	-68.321	-63.970	-62.331	-57.350	-27.561	-59.929	-8191	255	
33088.719	1	1	0	0	0.065318	0.13269	0.17289	0.057597	0.19115	0.20661	0.06189	0.14153	0.12821	0.22447	0.20519	0.20028	0.057428	0.24519	0.25437	0.29702	-4.0417	-4.8167	-4.7312	-4.5896	-4.8646	-4.3792	-4.75	-4.8313	-4.3479	-4.9083	-4.7188	-4.5458	-5.1188	-4.4854	-4.5979	-4.9667	264.778	-45.750	166.763	-12.158	75.972	75.143	87.939	-79.866	242.270	86.217	258.284	-65.442	257.888	268.325	56.024	240.108	0.00062587	0.00039598	0.00028407	1115	3.2524e-05	9.6391e-06	1245.5	388.24	1.4323e-05	2.7823e-05	548.16	207.98	143.93	56.29	9.908e-06	87.772	0.0023538	0.0039647	0.001092	1005.9	9.6717e-05	4.4649e-05	1115.8	350.62	3.5602e-05	0.000125	493.54	189.13	131.82	51.617	6.0469e-05	81.31	37.157	-5.281	20.050	-72.811	-8.582	55.415	-73.468	-66.531	38.410	86.487	-68.642	-63.752	-62.375	-57.297	65.306	-59.932	-8191	255	
33088.816	1	1	0	0	0.19174	0.11959	0.043645	0.22687	0.19679	0.050151	0.1905	0.13694	0.079224	0.091563	0.11162	0.027509	0.22903	0.042724	0.19264	0.0471	-3.775	-4.6833	-4.6792	-4.4208	-5.0333	-4.3354	-4.725	-5.0188	-4.1	-4.6583	-4.9313	-4.4854	-5.0687	-4.6333	-4.5125	-5.025	171.682	79.987	231.902	191.938	147.170	-82.101	232.334	242.809	57.739	202.423	206.104	-25.990	228.270	18.350	-66.911	135.288	0.00070923	0.0007339	0.0001361	1126.9	2.2623e-05	9.877e-06	1247.6	386.29	1.1159e-05	2.254e-05	550.16	209.65	145.52	56.677	8.732e-06	88.936	0.002327	0.0038847	0.0010616	1012.1	9.4424e-05	4.3008e-05	1122.6	351.33	3.5796e-05	0.00012768	497.43	190.85	132.69	52.031	3.8121e-05	82.496	29.849	11.971	-9.665	-72.646	9.747	56.808	-73.367	-66.643	20.592	104.862	-68.941	-64.208	-62.179	-57.358	55.843	-59.887	-8191	255	
33088.910	1	1	0	0	0.20363	0.28576	0.18465	0.13734	0.25946	0.10767	0.20353	0.20427	0.21341	0.15871	0.045033	0.085562	0.3157	0.27749	0.11184	0.34911	-3.9458	-4.7812	-4.5667	-4.3292	-4.7229	-4.6062	-4.6125	-5.0146	-4.4646	-4.6708	-4.9458	-4.2875	-4.8562	-4.5021	-4.4396	-5.1708	241.006	-19.554	21.444	225.657	180.761	246.007	218.267	260.295	-8.310	77.809	81.526	82.570	252.641	142.353	258.930	210.646	0.00085282	0.00079249	0.00014212	1132.2	2.0885e-05	7.4998e-06	1262.3	390.69	1.1488e-05	2.6305e-05	553.79	210.91	145.9	56.376	3.2128e-06	89.282	0.0022905	0.0039291	0.0011411	1017.4	9.734e-05	4.4388e-05	1135.2	354.22	3.5503e-05	0.00011547	501.01	191.54	133.58	52.049	3.9182e-05	82.81	47.291	0.688	-3.182	-72.675	8.175	37.130	-73.845	-66.794	38.651	86.700	-68.253	-63.825	-62.418	-57.055	92.558	-60.373	-8191	255	
33089.008	1	1	0	0	0.15657	0.097801	0.13351	0.15569	0.13785	0.16501	0.60448	0.11335	0.1765	0.11056	0.18644	0.13301	0.13157	0.13665	0.31694	0.12554	-4.0979	-4.6771	-4.8375	-4.4146	-4.7354	-4.6021	-4.4313	-5.1458	-4.5875	-4.6958	-5.0104	-4.5125	-4.9979	-4.825	-4.3354	-4.8562	22.503	82.042	257.622	212.373	93.778	46.483	222.836	-83.362	172.302	129.168	237.209	201.023	194.674	215.665	33.501	176.101	0.00070136	0.00051013	0.00028429	1124.7	2.8051e-05	7.938e-06	1247.6	391.26	1.3545e-05	2.6985e-05	547.43	210.02	145.43	56.932	6.9056e-06	88.552	0.0022622	0.0040096	0.0011142	1015.4	9.4165e-05	4.4104e-05	1126.3	354.03	3.5716e-05	6.64e-05	501.25	190.93	132.99	52.054	4.0502e-05	82.414	26.294	4.714	-20.876	-72.843	28.690	49.899	-73.738	-66.664	50.459	74.322	-68.648	-64.054	-62.178	-57.281	44.509	-60.204	-8191	255	
33089.102	1	1	0	0	0.20763	0.16588	0.27637	0.25799	0.1651	0.21564	0.22167	0.1891	0.074587	0.22983	0.07519	0.039825	0.36839	0.23675	0.23204	0.18468	-4.2521	-4.4521	-4.9167	-4.4729	-4.75	-4.6958	-4.5396	-4.9938	-4.4792	-4.4854	-5.0375	-4.4354	-4.7792	-4.8667	-4.1667	-5.0208	124.454	-26.182	215.497	247.309	-82.084	163.149	203.968	259.716	102.406	72.289	256.635	61.789	249.306	99.071	38.585	275.027	0.00062285	0.00088912	0.00021047	1128.7	2.2956e-05	1.1333e-05	1252.5	390.61	7.5479e-06	9.3444e-06	547.5	209.22	145.16	56.538	1.1919e-05	88.916	0.0023039	0.0039057	0.0011397	1016.4	9.5779e-05	4.5236e-05	1125.7	353.31	3.5816e-05	4.3601e-05	503.07	190.09	132.99	52.012	3.9252e-05	82.734	52.891	-0.540	11.635	-72.470	32.536	80.614	-73.629	-66.842	86.815	39.876	-68.133	-64.290	-62.045	-57.383	-4.507	-60.105	-8191	255	
33089.199	1	1	0	0	0.11375	0.26814	0.048754	0.24116	0.33639	0.13025	0.070959	0.22619	0.12369	0.063663	0.24717	0.19191	0.047416	0.13448	0.28213	0.1263	-4.0875	-4.3479	-4.7854	-4.3688	-4.7562	-4.8938	-4.4812	-5.0437	-4.6625	-4.425	-5.0167	-4.5167	-4.6771	-4.7833	-4.4313	-5.0583	81.417	264.954	-57.994	34.255	140.249	-83.677	-22.557	168.653	-46.829	218.915	229.591	214.344	75.402	-55.473	31.028	236.872	0.00073659	0.0005563	0.00029513	1122.2	3.2143e-05	1.029e-05	1260.4	389.79	1.2404e-05	8.8556e-06	550.61	209.83	144.86	56.641	7.4982e-06	89.372	0.0022003	0.0039738	0.0011011	1012.5	8.3296e-05	4.5893e-05	1129.2	353.29	3.558e-05	4.4236e-05	506.36	191.02	132.84	52.055	4.0195e-05	82.77	31.989	25.086	19.321	-72.695	34.189	54.273	-73.506	-66.992	64.530	27.196	-68.341	-64.083	-62.524	-57.177	75.142	-60.307	-8191	255	
33089.320	1	1	0	0	0.1472	0.13948	0.22	0.30815	0.20819	0.12608	0.23543	0.16479	0.1866	0.25271	0.3478	0.093633	0.047107	0.161	0.2147	0.11114	-4.4646	-4.3896	-4.8083	-4.575	-4.5667	-4.9354	-4.4563	-4.9458	-4.5896	-4.2083	-5.0125	-4.5854	-4.5271	-5.1042	-4.2833	-4.8396	-29.058	213.555	63.547	162.912	253.833	75.817	201.365	186.512	-39.187	238.611	249.225	165.381	10.267	-0.720	263.741	-71.124	0.00085252	0.0006178	0.00028616	1127.6	3.7128e-05	7.1239e-06	1259.2	388.39	1.3088e-05	5.3316e-06	548.09	210.58	145.55	56.591	9.8579e-06	88.784	0.002221	0.003973	0.0011142	1012.7	4.7779e-05	9.3022e-05	1128.9	352.49	3.4675e-05	4.4733e-05	503.51	190.85	132.46	51.909	3.8932e-05	82.264	38.911	-13.218	32.264	-72.647	23.665	69.198	-73.525	-66.356	36.277	-0.732	-68.336	-63.767	-62.368	-57.246	47.333	-59.977	-8191	255	
33089.414	1	1	0	0	0.082885	0.12544	0.2037	0.19519	0.017646	0.067342	0.091632	0.15115	0.065938	0.10086	0.12793	0.1153	0.025463	0.33766	0.10234	0.25198	-4.3521	-4.3313	-4.8938	-4.7667	-4.5583	-4.8938	-4.4167	-4.8688	-4.6687	-4.2875	-5.0375	-4.6354	-4.5229	-5.0292	-4.3792	-4.6667	-68.189	156.032	127.096	-81.821	262.093	146.838	242.551	214.622	159.860	167.778	231.175	-32.980	264.251	268.258	31.393	256.193	0.00076105	0.00052029	2.2003e-05	1121.6	1.1664e-05	2.9741e-05	1245.8	387.96	3.507e-06	5.8953e-06	545.28	209.35	145.35	56.215	5.2214e-06	88.572	0.0022808	0.0039615	0.0011161	1010.2	3.4573e-05	0.00012497	1120.7	351.54	3.5345e-05	4.3332e-05	500.48	189.71	132.59	51.892	3.8104e-05	81.75	33.304	12.992	33.116	-72.448	73.460	32.232	-73.524	-66.498	36.215	57.632	-68.365	-64.056	-61.892	-57.532	103.536	-60.112	-8191	255	
33089.512	1	1	0	0	0.4261	0.21417	0.28863	0.36181	0.27037	0.21195	0.088944	0.29498	0.044131	0.078898	0.26339	0.1449	0.27945	0.079379	0.30259	0.15064	-4.4125	-4.1875	-4.8521	-4.7375	-4.3271	-4.925	-4.4292	-4.7083	-4.8458	-4.1438	-4.9437	-4.7271	-4.4104	-5.1	-4.5729	-4.7146	190.224	108.777	-33.163	240.989	266.473	201.287	250.179	232.416	228.165	260.121	232.423	248.084	136.699	198.687	196.900	226.718	0.0012479	0.0006446	0.00024801	1117.6	7.0399e-06	2.073e-05	1247.5	387.54	7.5712e-06	4.5858e-06	547.94	210.33	146.55	56.622	7.8396e-06	89.331	0.0024421	0.003885	0.0010687	1008.5	3.409e-05	0.00012505	1120.3	350.78	3.6161e-05	4.3778e-05	501.84	190.33	133.11	51.985	3.7565e-05	81.809	36.643	18.555	28.052	-72.577	67.428	55.052	-73.585	-66.220	31.703	36.098	-68.481	-64.293	-61.896	-57.388	70.708	-60.061	-8191	255	
33089.586	1	1	0	0	0.194	0.1091	0.36597	0.12356	0.075035	0.22294	0.13874	0.28016	0.23457	0.029006	0.31327	0.2038	0.1057	0.093497	0.096022	0.13523	-4.4729	-4.3125	-4.7937	-4.8104	-4.475	-4.7833	-4.6	-4.6562	-5.0021	-4.475	-4.7646	-4.8229	-4.3063	-4.8979	-4.4375	-4.7042	203.704	253.382	234.123	-51.153	229.094	106.376	260.436	208.801	59.706	21.845	218.593	189.843	-76.946	47.699	261.306	253.051	0.0011992	0.00025521	0.00033072	1116.2	1.4456e-05	2.6743e-05	1256.1	391.55	1.0085e-05	1.0132e-05	550.96	210.96	145.47	56.719	6.7352e-06	89.332	0.0045372	0.0038903	0.0010862	1010	3.4173e-05	0.00012161	1126.9	353.19	3.5987e-05	4.3807e-05	505.59	191.32	133.09	52.145	3.9741e-05	82.178	35.831	23.549	18.266	-72.567	59.352	55.486	-73.582	-66.634	81.735	63.915	-68.466	-63.880	-62.395	-57.500	66.303	-59.820	-8191	255	
33089.703	1	1	0	0	0.13523	0.23728	0.096595	0.11291	0.14877	0.31521	0.097767	0.18594	0.12182	0.23692	0.20393	0.20571	0.15299	0.29222	0.075702	0.25241	-4.8063	-4.4104	-4.9125	-4.9271	-4.2188	-5.0458	-4.7104	-4.5458	-5.0083	-4.2417	-4.7792	-4.8625	-4.4229	-4.9958	-4.475	-4.4667	90.274	-23.749	251.230	-50.000	264.062	30.978	92.763	257.123	56.605	12.774	245.787	151.573	222.977	196.044	-20.013	197.464	0.0013664	0.00084842	0.00017384	1129	3.7258e-07	4.3816e-05	1266.9	390.36	6.4188e-06	5.8277e-06	555.86	210.92	146.36	56.789	1.3031e-05	88.94	0.0055361	0.0039202	0.0010936	1018.1	3.4946e-05	0.00012524	1136.6	353.65	3.6992e-05	4.3025e-05	505.91	191.94	133.67	52.224	3.8925e-05	81.816	67.146	-14.033	44.619	-72.596	7.949	74.910	-73.519	-66.678	33.189	76.487	-68.522	-63.756	-62.457	-57.236	26.197	-59.979	-8191	255	
33089.801	1	1	0	0	0.19212	0.099751	0.1273	0.24814	0.21441	0.15754	0.11208	0.20875	0.19967	0.16185	0.30458	0.20535	0.35862	0.29249	0.14512	0.15149	-4.4979	-4.4667	-4.5604	-4.9	-4.0646	-4.6625	-4.6917	-4.3708	-4.7688	-4.4667	-4.6708	-4.9125	-4.5667	-4.9812	-4.7104	-4.5458	240.265	95.184	-57.433	273.414	20.586	140.858	197.747	267.665	216.359	60.857	265.763	171.098	227.209	234.615	-81.971	-83.308	0.001376	0.00051467	0.00028264	1128.7	1.083e-05	2.7603e-05	1247.8	388.46	8.4999e-06	1.0325e-05	548.03	208.25	145.81	56.948	1.3543e-05	88.827	0.0057078	0.003987	0.0011447	1017.4	3.3961e-05	0.00012244	1125.8	352.99	3.533e-05	4.4619e-05	498.82	192.18	133.88	52.197	3.9215e-05	81.557	60.247	-10.740	-7.955	-72.600	56.561	68.558	-73.232	-66.534	55.970	52.183	-68.327	-63.767	-62.074	-56.966	38.617	-59.906	-8191	255	
33089.895	1	1	0	0	0.1949	0.064863	0.074233	0.13253	0.22774	0.063368	0.2	0.075846	0.23591	0.11971	0.26414	0.27438	0.12005	0.14036	0.28807	0.39634	-4.6312	-4.55	-4.4208	-5.0271	-4.2979	-4.7083	-4.9708	-4.3562	-5.0104	-4.5	-4.5167	-5.0479	-4.3896	-4.7292	-4.8063	-4.4958	77.782	272.545	120.019	208.262	209.833	-48.166	225.287	84.551	57.685	-34.214	-74.570	-58.602	-74.222	221.142	240.081	265.794	0.00099465	0.000669	0.00027766	1120.9	6.0113e-06	2.1923e-05	1243.5	390.25	1.2545e-05	9.9901e-06	547.88	209.61	145.23	56.807	1.3374e-05	89.169	0.0054298	0.0037165	0.0010968	1010.5	3.3856e-05	0.00012314	1122.9	353.19	3.5111e-05	4.2518e-05	498.18	193.01	133.4	52.181	3.8753e-05	81.834	74.695	10.675	15.479	-72.612	35.086	74.009	-73.614	-66.467	37.776	80.062	-68.363	-63.873	-62.321	-57.241	60.627	-59.902	-8191	255	
33089.992	1	1	0	0	0.11268	0.24449	0.10867	0.24783	0.16729	0.043998	0.14233	0.19398	0.14964	0.19878	0.17011	0.20804	0.12293	0.13518	0.073214	0.27845	-4.5938	-4.5979	-4.2875	-5.0583	-4.3896	-4.5813	-4.9	-4.3708	-4.9167	-4.4812	-4.3979	-5.0563	-4.3771	-4.8375	-4.7125	-4.5062	180.201	24.292	51.857	225.480	30.095	124.552	191.418	204.071	201.579	-24.789	271.612	-72.554	150.269	-80.671	204.641	215.114	0.0011801	0.00082928	0.00019051	1122.6	9.335e-06	2.7069e-05	1257.1	389.5	8.362e-06	6.8441e-06	550.12	210.08	145.96	56.689	5.6845e-06	89.251	0.0055731	0.0039319	0.0010948	1012.1	3.3471e-05	0.00010128	1129.2	352.21	3.4435e-05	4.3955e-05	498.64	193.6	133.23	52.056	3.8612e-05	81.913	69.040	-1.060	-22.391	-72.476	-9.514	49.264	-73.270	-66.475	55.717	107.036	-68.701	-64.177	-62.234	-56.805	71.588	-59.812	-8191	255	
33090.113	1	1	0	0	0.23244	0.16438	0.13357	0.07772	0.19064	0.089151	0.05397	0.21452	0.16332	0.13574	0.3969	0.31287	0.2698	0.25403	0.28535	0.14815	-4.5042	-4.475	-4.4083	-4.9271	-4.5354	-4.475	-4.925	-4.5312	-4.6937	-4.7	-4.5646	-5.0521	-4.5375	-4.5396	-4.8083	-4.4938	87.822	271.078	224.029	184.632	48.701	-55.113	22.002	163.202	-17.073	-39.923	225.161	216.888	275.371	-19.738	134.213	65.997	0.0010672	0.00073562	0.00017021	1125.1	8.0302e-06	2.7985e-05	1256.9	388.52	8.1155e-06	7.31e-06	549.14	207.9	144.78	56.362	9.4246e-06	88.355	0.0054828	0.0039209	0.0010793	1012.4	3.4361e-05	5.1974e-05	1137.8	350.6	3.4941e-05	4.427e-05	498.35	191.88	132.05	51.777	3.9974e-05	81.115	65.124	-7.508	-4.091	-72.716	48.455	57.858	-73.468	-66.291	26.065	32.553	-68.695	-63.977	-62.474	-57.398	19.953	-59.771	-8191	255	
33090.207	1	1	0	0	0.057503	0.13631	0.23941	0.18975	0.038087	0.12917	0.052219	0.069592	0.095163	0.18409	0.33733	0.28838	0.093012	0.10804	0.065138	0.11778	-4.4021	-4.8063	-4.3438	-4.925	-4.3833	-4.4292	-5	-4.4958	-4.5333	-4.8125	-4.4542	-4.8083	-4.6	-4.6167	-5.0333	-4.6854	113.915	210.514	206.744	264.390	24.603	207.948	-79.755	126.617	45.762	100.174	194.356	245.607	243.726	237.355	252.868	269.390	0.0010755	0.00069853	0.0001915	1117.8	7.8881e-06	6.2892e-06	1240.3	385.85	1.0937e-05	3.6735e-06	545.54	207.52	143.79	56.228	8.4049e-06	88.128	0.0056278	0.003885	0.0011108	1005.4	3.3924e-05	4.3943e-05	1127.8	349.62	3.6665e-05	4.4897e-05	493.89	191.1	131.91	51.638	3.9908e-05	80.892	82.720	20.734	6.914	-72.557	46.562	33.972	-73.761	-66.717	56.486	50.913	-68.790	-64.109	-62.184	-57.288	63.582	-59.867	-8191	255	
33090.305	1	1	0	0	0.10785	0.13476	0.065988	0.34068	0.06463	0.080035	0.052617	0.16858	0.20544	0.11655	0.18135	0.047746	0.097102	0.28411	0.18972	0.19877	-4.2708	-4.6417	-4.2458	-5.025	-4.6729	-4.4062	-5.1146	-4.6333	-4.6583	-5.0021	-4.4563	-4.7896	-4.6979	-4.4604	-4.9771	-4.7812	208.427	213.204	167.516	244.861	118.337	60.611	136.981	228.496	200.302	160.609	-57.423	141.041	-78.677	274.841	258.251	223.353	0.00095912	0.00038226	0.00019428	1115.7	7.9508e-06	1.0938e-05	1238.9	386.66	1.204e-05	8.4056e-06	545.52	207.73	144.83	55.957	2.7278e-06	88.909	0.0044699	0.0051233	0.0010805	1005.8	3.3587e-05	4.4006e-05	1130.9	350.74	3.4893e-05	4.3279e-05	495.58	192.22	132.08	51.714	3.8114e-05	81.319	90.988	140.037	38.418	-72.650	25.459	69.983	-73.381	-66.880	77.016	51.588	-68.512	-64.094	-61.835	-57.310	47.113	-59.969	-8191	255	
33090.398	1	1	0	0	0.038823	0.041513	0.16841	0.37462	0.079543	0.18293	0.063881	0.15924	0.045598	0.082819	0.088266	0.033187	0.17824	0.08565	0.037167	0.14946	-4.0208	-4.8875	-4.2729	-4.9021	-4.8104	-4.2042	-5.0771	-4.5437	-4.4792	-4.9542	-4.4625	-4.7292	-4.9229	-4.2917	-4.9021	-4.7458	224.753	141.363	14.224	214.269	200.260	-72.856	137.578	257.730	-22.664	166.016	-81.929	135.250	-48.420	138.608	-42.673	211.192	0.00087354	0.00080644	9.2144e-05	1127.9	7.908e-06	6.8049e-06	1249.7	387.48	8.734e-06	5.5493e-06	551.23	209.31	145.12	56.586	4.4843e-06	89.365	0.0024791	0.0094708	0.001077	1007.1	3.4019e-05	4.4587e-05	1137.1	350.29	3.5211e-05	4.5224e-05	498.25	192.73	132.68	51.946	3.9223e-05	81.725	104.611	-55.883	-9.296	-72.634	51.542	54.500	-73.600	-66.850	55.394	65.433	-68.743	-64.379	-62.062	-57.268	87.689	-59.900	-8191	255	
33090.496	1	1	0	0	0.080713	0.15283	0.16823	0.065018	0.24001	0.038019	0.052659	0.38845	0.19249	0.14463	0.112	0.14152	0.24262	0.13854	0.18216	0.21007	-4.1792	-4.8729	-4.5771	-4.6854	-4.6542	-4.4	-4.9792	-4.8292	-4.3417	-4.9458	-4.6229	-4.8271	-4.9146	-4.4542	-4.8063	-4.8375	119.753	249.330	-51.791	8.941	114.122	-51.411	246.625	224.705	11.061	265.161	154.750	226.503	228.765	-66.600	-43.132	168.508	0.00094284	0.0026396	0.00036226	1119.4	1.2915e-05	6.7434e-06	1252.1	389	8.5242e-06	1.0832e-05	549.4	209.75	144.18	56.545	7.6329e-06	88.337	0.0023098	0.010731	0.0010743	1010.7	3.4186e-05	4.4024e-05	1138.1	350.83	3.5034e-05	4.4744e-05	498.02	192.11	133.21	51.877	3.9516e-05	81.291	24.160	-30.992	21.974	-72.421	41.553	89.705	-73.277	-66.621	40.808	50.946	-68.422	-64.066	-62.024	-56.862	55.416	-60.046	-8191	255	
33090.594	1	1	0	0	0.21947	0.19471	0.10362	0.14919	0.25858	0.13847	0.17569	0.24267	0.15211	0.2897	0.22784	0.18281	0.065789	0.11659	0.13073	0.26643	-3.95	-5.1333	-4.4729	-4.7417	-4.8562	-4.45	-4.9625	-4.6937	-4.3646	-4.8938	-4.5542	-4.5312	-5.0687	-4.3229	-4.7521	-4.925	194.875	65.906	-52.429	196.258	126.858	-24.908	195.232	-59.142	231.055	158.537	191.653	110.811	267.027	264.963	190.913	203.643	0.000727	0.0024399	0.0003146	1117.5	4.3036e-06	1.1591e-05	1241.8	388.01	1.521e-05	8.5065e-06	545.77	208.41	144.97	56.984	8.5411e-06	88.48	0.002324	0.011054	0.0010696	1007.7	3.4691e-05	4.5058e-05	1130.8	350.76	3.5135e-05	4.4406e-05	495.71	189.9	135	51.982	3.9941e-05	81.271	28.729	-57.119	-21.195	-72.514	16.650	75.191	-73.343	-66.397	89.228	65.450	-68.395	-64.175	-62.349	-57.167	56.715	-60.130	-8191	255	
33090.715	1	1	0	0	0.099314	0.15725	0.17774	0.29039	0.15369	0.038968	0.14164	0.073365	0.26666	0.18778	0.25252	0.40456	0.14914	0.21254	0.25109	0.073384	-3.9875	-4.8521	-4.4125	-4.55	-4.8562	-4.3042	-4.7937	-4.8438	-4.4104	-4.8271	-4.7104	-4.4375	-5.1292	-4.4625	-4.6583	-5.0896	240.333	159.387	123.451	255.809	150.138	98.666	200.128	-63.333	218.981	159.174	143.851	236.544	-76.688	227.380	-59.099	191.618	0.00076044	0.002522	0.0001149	1115.2	1.077e-05	1.2026e-05	1248.1	388.85	7.8059e-06	8.8834e-06	549.86	208.44	145.04	56.299	5.4511e-06	88.934	0.0022266	0.010605	0.0010934	1004.8	3.5026e-05	4.2984e-05	1131.4	351.4	3.5626e-05	4.4109e-05	498.3	190.23	135.78	51.867	3.8607e-05	81.698	38.748	-50.952	59.264	-72.697	43.568	79.438	-73.469	-66.559	57.843	78.116	-68.373	-64.053	-62.388	-57.277	18.737	-59.983	-8191	255	
33090.809	1	1	0	0	0.070747	0.21499	0.15245	0.23882	0.14119	0.20028	0.21955	0.083081	0.15505	0.2296	0.11296	0.090241	0.16464	0.21667	0.13647	0.11021	-4.0354	-4.8354	-4.5729	-4.4458	-4.9333	-4.5708	-4.9354	-4.8646	-4.2771	-4.9646	-4.7438	-4.5021	-4.9771	-4.4833	-4.4313	-5.0333	31.526	176.548	80.131	265.969	-30.033	270.119	183.954	270.145	-36.112	131.475	256.842	170.444	207.832	264.190	208.436	153.254	0.00082453	0.0030475	0.00032601	1115.3	8.6367e-06	1.025e-05	1253.7	388.58	1.0553e-05	3.6442e-06	550.77	210.3	146.4	56.827	6.0007e-06	89.003	0.0022255	0.010917	0.0010901	1008.9	3.3628e-05	4.337e-05	1133.1	353.25	3.3886e-05	4.4291e-05	499.72	191.51	136.22	52.082	3.8756e-05	81.987	31.310	-30.399	20.067	-72.477	38.868	71.102	-73.446	-66.487	38.613	74.578	-68.390	-64.209	-62.083	-57.043	2.122	-60.313	-8191	255	
33090.883	1	1	0	0	0.1369	0.15034	0.21739	0.19802	0.15859	0.21786	0.24652	0.21054	0.059355	0.19236	0.054645	0.15381	0.29886	0.19615	0.034834	0.34453	-3.9771	-4.6833	-4.7375	-4.5458	-4.9125	-4.4875	-4.7604	-5.1083	-4.3167	-4.8313	-4.7667	-4.4208	-5.0021	-4.65	-4.375	-5.0271	145.765	-51.518	75.597	-35.599	105.966	71.190	34.948	180.969	-11.807	-62.648	158.795	84.534	-63.780	182.121	206.262	269.722	0.00077137	0.003103	0.00015472	1122.8	1.0221e-05	9.8259e-06	1244.5	388.71	7.7605e-06	2.6657e-06	550.57	210.08	145.67	56.71	1.3692e-05	88.988	0.0022703	0.010612	0.0011006	1011	3.3824e-05	4.2835e-05	1122.1	355.42	3.4414e-05	4.3584e-05	498.51	190.65	135.58	52.021	3.7907e-05	81.485	28.226	-34.711	30.140	-72.885	44.916	76.095	-73.208	-66.749	94.134	60.629	-68.320	-64.370	-62.112	-57.478	62.680	-59.952	-8191	255	
33090.977	1	1	0	0	0.13903	0.21175	0.16864	0.35051	0.26242	0.184	0.076405	0.23148	0.024573	0.13312	0.1383	0.30249	0.10988	0.096964	0.11124	0.13418	-4.0958	-4.6854	-4.7396	-4.5542	-4.8125	-4.4812	-4.5813	-5.0646	-4.4292	-4.6833	-4.9292	-4.4458	-4.9771	-4.6167	-4.2958	-4.9479	233.665	-57.324	120.893	196.703	173.699	273.505	137.924	257.294	199.894	186.070	-40.833	194.590	268.002	160.892	272.769	193.719	0.00078476	0.0020981	0.00020982	1109.4	1.2367e-05	1.0835e-05	1236.1	387.8	1.4917e-05	1.0133e-05	549.22	209.21	144.98	56.137	3.4826e-06	87.763	0.0022112	0.010805	0.0010583	1002.7	3.4348e-05	4.3256e-05	1109.3	354.12	3.2988e-05	4.3403e-05	494.72	189.54	134.9	51.602	3.857e-05	80.757	26.281	-48.669	3.120	-72.502	42.376	67.749	-73.664	-66.594	54.056	81.167	-68.601	-64.055	-62.168	-57.276	-1.254	-59.735	-8191	255	
33091.098	1	1	0	0	0.10072	0.12443	0.15024	0.29855	0.16548	0.16109	0.4097	0.43409	0.024879	0.12757	0.28269	0.20539	0.29927	0.39371	0.12373	0.027759	-4.2354	-4.5208	-4.9125	-4.4875	-4.8396	-4.6604	-4.5292	-5.1396	-4.4146	-4.55	-5.0208	-4.4354	-4.8812	-4.8479	-4.3187	-5.0479	52.008	140.326	213.169	225.913	51.519	-6.792	222.945	210.214	-80.151	-23.594	243.865	226.535	236.232	-44.106	211.707	-61.447	0.00073848	0.0028294	0.00030946	1111.4	1.6485e-05	6.819e-06	1230.1	385.46	2.3061e-06	1.0686e-05	547.41	208.94	144.07	56.539	2.3285e-06	88.186	0.0021951	0.0075496	0.0016589	1000.6	3.3776e-05	4.3746e-05	1110.4	352.78	3.3519e-05	4.3318e-05	494.71	189.4	134.58	51.79	3.6349e-05	80.993	44.224	-33.377	43.237	-72.825	64.197	74.608	-73.496	-66.281	109.619	26.127	-68.585	-64.354	-62.577	-57.103	56.525	-59.962	-8191	255	
33091.191	1	1	0	0	0.24168	0.10922	0.21254	0.26489	0.19786	0.071616	0.3075	0.23351	0.078935	0.079848	0.23039	0.13926	0.05482	0.1869	0.048258	0.10807	-4.225	-4.5083	-4.8083	-4.4771	-4.6896	-4.8187	-4.3771	-5.0792	-4.5333	-4.5125	-5.2229	-4.4083	-4.9042	-4.9812	-4.2792	-5.0312	74.214	223.917	144.500	238.503	-61.627	209.741	159.541	210.837	-17.026	-39.885	239.942	-81.238	59.125	137.492	-23.466	206.160	0.00081373	0.00081943	0.00024037	1115.1	6.4428e-06	8.3557e-06	1237.3	386.53	4.0272e-06	6.6584e-06	551.21	209.58	145.71	55.969	1.4034e-06	88.627	0.0021743	0.0038488	0.0028508	1002.3	3.28e-05	4.4174e-05	1118.6	353.59	3.4026e-05	4.306e-05	497.21	190.26	135.27	51.559	3.8137e-05	81.435	35.675	-2.496	-1.890	-72.759	118.239	49.312	-73.448	-66.736	104.970	105.088	-68.582	-64.077	-62.370	-57.072	92.818	-59.852	-8191	255	
33091.289	1	1	0	0	0.089836	0.13781	0.11558	0.19479	0.10382	0.10903	0.22687	0.23548	0.22364	0.046869	0.28098	0.38683	0.16985	0.2	0.21166	0.13603	-4.3208	-4.2188	-4.9	-4.4812	-4.5146	-4.9625	-4.4313	-4.8771	-4.5437	-4.4604	-5.0271	-4.5542	-4.7708	-4.8521	-4.2646	-5.0687	39.311	-34.379	73.673	260.058	57.665	272.917	254.359	272.789	112.778	117.478	253.013	260.590	252.170	-51.257	63.915	-45.696	0.0008875	0.00089193	0.0006526	1113.8	1.3386e-05	6.8122e-06	1245.7	384.47	1.3366e-05	5.2394e-06	545.85	207.55	143.33	55.35	1.2919e-05	88.085	0.0022989	0.00383	0.0029428	1004.3	3.3687e-05	4.3358e-05	1121.7	352.36	3.4051e-05	4.3914e-05	494.08	188.31	132.14	51.266	3.9047e-05	80.612	28.682	5.312	15.216	-72.870	-10.418	62.203	-73.500	-66.394	34.198	74.635	-68.108	-64.069	-62.253	-57.343	76.687	-60.035	-8191	255	
33091.387	1	1	0	0	0.054546	0.25058	0.034946	0.28358	0.15141	0.09968	0.24534	0.25979	0.27632	0.23284	0.038055	0.24576	0.046857	0.039992	0.21157	0.25286	-4.3854	-4.3479	-5.0229	-4.6208	-4.5958	-4.8958	-4.5083	-4.8979	-4.7104	-4.2438	-5.0292	-4.5896	-4.7042	-5.1229	-4.5083	-4.8708	42.662	-63.109	-11.826	258.911	3.694	147.545	187.972	212.506	-8.366	195.626	172.612	244.446	238.312	229.263	38.145	213.823	0.0010299	0.0010384	0.00092232	1109.7	6.8769e-06	7.3727e-06	1231.4	384.76	3.8036e-06	9.9242e-06	545.32	206.54	145.14	55.824	5.9333e-06	87.618	0.0023115	0.0038589	0.0030689	998.92	3.4317e-05	4.417e-05	1109.7	351.21	3.3687e-05	4.2497e-05	493.21	188	131.55	51.83	3.7819e-05	80.453	37.543	16.177	-18.616	-72.578	25.941	42.882	-73.419	-66.338	259.098	69.502	-68.067	-64.304	-62.429	-57.452	107.953	-59.938	-8191	255	
33091.480	1	1	0	0	0.21546	0.1001	0.022806	0.21329	0.080805	0.098281	0.19662	0.28063	0.077441	0.15493	0.07271	0.10281	0.14412	0.09946	0.24795	0.30875	-4.5521	-4.3625	-4.8875	-4.6542	-4.3938	-4.9833	-4.5563	-4.8042	-4.8708	-4.3938	-5.0021	-4.6375	-4.4604	-4.9771	-4.3792	-4.6146	-14.140	207.104	-64.314	-63.677	218.613	199.603	198.040	263.320	96.544	201.075	185.216	46.733	237.020	117.779	194.641	262.718	0.00078434	0.00062236	0.00052707	1097.3	7.8387e-06	1.1104e-05	1236.5	383.58	1.214e-05	4.1008e-06	541.52	207.86	143.62	55.887	5.9804e-06	88.456	0.0022598	0.0037385	0.003012	993.68	3.4343e-05	4.3883e-05	1112.9	351.26	3.484e-05	4.4458e-05	493.38	188.79	131.5	51.889	3.8007e-05	80.917	35.825	21.536	-13.285	-72.725	92.006	10.020	-73.583	-66.468	88.393	-3.101	-68.624	-64.009	-62.646	-57.250	57.277	-59.944	-8191	255	
33091.578	1	1	0	0	0.1347	0.13637	0.17316	0.061346	0.18217	0.2681	0.09515	0.12565	0.26021	0.18467	0.10782	0.11553	0.26516	0.31913	0.24087	0.16608	-4.3917	-4.2729	-4.8542	-4.8625	-4.4167	-4.9792	-4.6417	-4.8646	-4.8458	-4.5687	-4.9292	-4.7625	-4.3833	-4.9167	-4.4979	-4.6708	169.085	221.767	-49.355	-16.040	63.839	254.405	238.594	212.552	16.551	40.903	20.579	231.634	230.714	-61.861	192.432	239.534	0.0005326	0.0010949	0.00088554	1107.4	7.2874e-06	7.021e-06	1247.2	384.65	2.8339e-05	8.4018e-06	549.67	209.19	144.99	56.338	4.0707e-06	88.704	0.0022566	0.0037844	0.0030571	999.72	3.3765e-05	4.4356e-05	1122.4	350.18	5.8268e-05	4.3365e-05	497.23	190.22	132.6	52.321	3.8436e-05	81.452	28.435	-24.601	2.184	-72.844	70.215	23.489	-73.507	-66.558	208.097	69.119	-68.623	-64.070	-62.096	-56.912	19.924	-59.736	-8191	255	
33091.672	1	1	0	0	0.3271	0.15007	0.1133	0.22935	0.22361	0.18077	0.28949	0.28318	0.30666	0.072461	0.038091	0.17792	0.0088429	0.13394	0.16363	0.20012	-4.6604	-4.3063	-4.6604	-4.7771	-4.4292	-4.9	-4.5938	-4.6542	-4.9375	-4.4646	-4.8875	-4.8021	-4.2896	-4.9021	-4.4583	-4.5896	46.251	74.823	273.840	271.857	136.275	16.273	170.092	140.207	77.780	237.264	156.702	231.904	77.343	264.883	255.918	-70.482	0.00073678	0.00028052	0.00073282	1110.3	8.2308e-06	3.599e-06	1248.8	388.85	2.8833e-05	8.9844e-06	548.4	206.64	143.66	56.015	9.925e-06	88.09	0.0022689	0.0038981	0.0029938	1003.4	3.3168e-05	4.3786e-05	1124.1	349.8	9.8123e-05	4.4171e-05	495.75	188.39	131.43	51.905	3.9283e-05	80.743	37.478	-33.869	26.828	-72.670	50.606	101.052	-73.512	-66.733	185.621	51.469	-68.440	-64.325	-62.210	-57.210	84.360	-59.908	-8191	255	
33091.793	1	1	0	0	0.13388	0.12013	0.19996	0.054214	0.22097	0.1015	0.23038	0.13498	0.10951	0.22404	0.13657	0.18029	0.11884	0.091019	0.16041	0.12104	-4.4229	-4.2854	-4.6521	-4.6479	-4.1521	-4.8688	-4.7396	-4.6479	-4.8146	-4.4625	-4.6396	-4.9708	-4.3812	-5.0938	-4.6979	-4.5854	131.304	227.863	20.895	-25.497	-42.826	-9.254	238.234	239.250	23.424	48.488	254.502	231.780	182.285	-4.948	-18.871	73.661	0.00083147	0.00069316	0.00069276	1110.5	4.4888e-06	1.0457e-05	1235.1	385.17	2.0735e-05	9.637e-06	545.1	207.26	142.82	55.743	9.573e-06	87.888	0.0023012	0.0039117	0.0031589	997.07	3.407e-05	4.367e-05	1115.7	348.04	9.5323e-05	4.4911e-05	493.42	188.51	130.85	51.824	3.9048e-05	80.517	27.762	-13.124	13.786	-72.640	58.976	59.298	-73.422	-66.618	208.196	68.932	-68.276	-63.943	-62.287	-57.252	78.054	-59.644	-8191	255	
33091.887	1	1	0	0	0.073097	0.017204	0.21421	0.082343	0.17625	0.049893	0.010702	0.22668	0.31458	0.060799	0.27895	0.25831	0.033488	0.11713	0.097889	0.24366	-4.5625	-4.3104	-4.5875	-4.9771	-4.4771	-4.7729	-4.7708	-4.5938	-4.9583	-4.675	-4.8354	-4.8208	-4.4792	-4.8292	-4.7271	-4.3771	3.192	116.665	130.902	178.257	-34.504	130.223	202.126	166.727	-34.602	178.581	225.570	215.735	246.607	258.115	140.183	246.415	0.00068239	0.0011951	0.00078249	1111.3	1.097e-05	8.139e-06	1240.9	384.48	2.8347e-05	7.0342e-06	544.86	206.73	143.77	55.888	3.9906e-06	87.71	0.0023333	0.0039973	0.0019015	1002.3	3.3869e-05	4.5383e-05	1117.5	348.05	9.4947e-05	4.3101e-05	493.17	188.54	131.57	51.886	3.8753e-05	80.687	35.723	-12.607	8.148	-72.614	39.551	75.667	-73.165	-66.925	191.523	99.157	-68.346	-64.239	-62.195	-57.535	84.251	-59.953	-8191	255	
33091.984	1	1	0	0	0.056645	0.28108	0.075276	0.15753	0.37732	0.15647	0.25111	0.26344	0.06761	0.057805	0.18272	0.1864	0.10575	0.045796	0.089282	0.085381	-4.6083	-4.4354	-4.4812	-5.1	-4.2708	-4.7104	-4.9729	-4.4167	-4.9187	-4.7854	-4.7917	-5.0583	-4.5458	-4.8417	-4.95	-4.3854	70.558	198.208	29.032	-62.029	1.505	54.619	261.477	169.891	261.823	264.674	214.970	243.094	250.637	190.908	175.124	-70.569	0.00080499	0.00092888	9.4769e-05	1106	8.3782e-06	8.8821e-06	1237.4	384.21	2.686e-05	8.656e-06	542.72	207.35	143.59	55.607	1.1013e-06	88.165	0.0022205	0.0037554	0.0010601	1006.4	3.2066e-05	4.4495e-05	1116.5	346.69	9.3579e-05	4.3751e-05	493	188.88	130.77	51.718	3.7897e-05	80.731	36.737	32.164	14.933	-72.612	89.579	72.438	-73.607	-66.856	206.086	61.787	-68.380	-63.838	-62.014	-57.116	-45.467	-59.814	-8191	255	
33092.105	1	1	0	0	0.10822	0.13702	0.099732	0.097551	0.064722	0.11027	0.13822	0.13766	0.22113	0.16894	0.20271	0.13357	0.27336	0.13009	0.15939	0.014423	-4.4917	-4.7167	-4.4938	-5.2479	-4.45	-4.7729	-4.9563	-4.4771	-4.9125	-4.7083	-4.5563	-5.0854	-4.4833	-4.6979	-4.9646	-4.5833	17.598	269.669	113.557	167.541	30.193	140.074	190.656	144.755	-35.968	242.971	179.046	233.847	145.572	250.308	119.823	-71.223	0.00086382	0.00091448	0.00036825	1107.4	6.2975e-06	1.2638e-05	1238.7	381.58	3.5216e-05	3.3355e-06	541.08	206.47	143.44	55.459	3.1073e-06	87.061	0.0022981	0.0038835	0.0010946	1006.2	3.2769e-05	4.3163e-05	1114	345.99	9.5005e-05	4.3922e-05	490.67	187.38	130.58	51.059	6.8649e-05	79.933	31.041	29.777	20.209	-72.654	91.874	74.748	-73.471	-66.249	243.639	76.533	-68.432	-63.796	-62.066	-57.177	117.504	-59.956	-8191	255	
33092.176	1	1	0	0	0.19239	0.29491	0.010059	0.38409	0.14072	0.05453	0.13517	0.25239	0.22839	0.0662	0.14502	0.09521	0.24066	0.17455	0.041241	0.15256	-4.6146	-4.7438	-4.3063	-4.9875	-4.5896	-4.5708	-4.9208	-4.4542	-4.8438	-4.6917	-4.4729	-5.0583	-4.5312	-4.5167	-4.8917	-4.5104	-61.278	38.722	222.458	200.499	46.592	-49.952	194.627	236.917	110.050	61.786	221.048	266.529	93.133	249.304	233.951	241.376	0.00080564	0.00073638	0.00019523	1095.6	1.3724e-05	6.0602e-06	1226.1	381.11	3.3374e-05	1.1144e-05	539.18	205.19	142.14	55.673	3.3122e-05	86.614	0.0022743	0.0038131	0.0010613	996.02	3.3391e-05	4.3043e-05	1101.4	345.12	9.3169e-05	4.424e-05	488.17	186.82	130.21	50.913	0.00010465	79.718	39.263	23.279	8.873	-72.756	52.880	65.815	-73.402	-66.704	257.836	38.755	-68.342	-63.664	-62.330	-57.354	10.112	-60.162	-8191	255	
33092.273	1	1	0	0	0.13019	0.10169	0.2535	0.28749	0.047851	0.14746	0.43735	0.11428	0.21458	0.20649	0.15344	0.16019	0.21141	0.2071	0.26839	0.40707	-4.3812	-4.7875	-4.2083	-4.9125	-4.5167	-4.5208	-5.1375	-4.525	-4.5354	-4.8417	-4.4458	-4.8812	-4.7354	-4.6667	-4.9167	-4.5312	70.431	-14.211	7.538	260.372	112.990	187.784	246.907	-77.335	222.038	160.319	212.894	147.823	-18.106	-40.677	19.713	261.141	0.00063634	0.00094067	0.00012956	1092.6	1.1305e-05	1.4916e-05	1229.5	381.64	1.3282e-05	1.0744e-05	541.05	206.62	143.34	55.627	2.0093e-05	87.595	0.0021994	0.0038592	0.0010271	994.93	3.3749e-05	4.2362e-05	1105.7	345.25	9.182e-05	4.1327e-05	489.26	187.69	130.75	51.064	0.00010149	80.24	37.926	29.092	-26.722	-72.771	40.159	54.536	-72.983	-66.416	130.263	102.567	-68.284	-63.725	-61.722	-57.147	20.127	-60.177	-8191	255	
#DATA ENDS
