BOXY.EXE: ISS Imagent and Oximeter Data Acquisition Program Version 0.80
Ascii Record File

#ACQ INFORMATION
2  Detector Channels 
16  External MUX Channels 
1  Auxiliary Channels 
5000  Waveform (CCF) Frequency (Hz)
1  Waveforms Skipped 
30  Waveforms Averaged 
1  Cycles Averaged 
16  Acquisitions per Waveform 
10.0806  Updata Rate (Hz) 

#FILE INFORMATION
TRUE -- External MUX Channel results are PARSED.
FALSE -- AC DC and Phase are NOT grouped.
TRUE -- Companion Program Settings File CREATED.
FALSE -- AC data not excluded
FALSE -- DC data not excluded
FALSE -- Phase data not excluded
FALSE -- Auxillary Chn. data not excluded
Tab delimiters

#CALIBRATION STATE
TRUE -- Waveform Calibration Values APPLIED.


#AUX CALIBRATION VALUES
Val Type	aux-1	

Term	1.0000e+00	
Factor	0.0000e+00	


#WF CALIBRATION VALUES
A = Detector Channel
Val Type	A-AC1	A-AC2	A-AC3	A-AC4	A-AC5	A-AC6	A-AC7	A-AC8	A-AC9	A-AC10	A-AC11	A-AC12	A-AC13	A-AC14	A-AC15	A-AC16	A-DC1	A-DC2	A-DC3	A-DC4	A-DC5	A-DC6	A-DC7	A-DC8	A-DC9	A-DC10	A-DC11	A-DC12	A-DC13	A-DC14	A-DC15	A-DC16	A-Ph1	A-Ph2	A-Ph3	A-Ph4	A-Ph5	A-Ph6	A-Ph7	A-Ph8	A-Ph9	A-Ph10	A-Ph11	A-Ph12	A-Ph13	A-Ph14	A-Ph15	A-Ph16	

Term	0.00000e+00	0.00000e+00	0.00000e+00	0.00000e+00	0.00000e+00	0.00000e+00	0.00000e+00	0.00000e+00	0.00000e+00	0.00000e+00	0.00000e+00	0.00000e+00	0.00000e+00	0.00000e+00	0.00000e+00	0.00000e+00	0.00000e+00	0.00000e+00	0.00000e+00	0.00000e+00	0.00000e+00	0.00000e+00	0.00000e+00	0.00000e+00	0.00000e+00	0.00000e+00	0.00000e+00	0.00000e+00	0.00000e+00	0.00000e+00	0.00000e+00	0.00000e+00	0.00000e+00	0.00000e+00	0.00000e+00	0.00000e+00	0.00000e+00	0.00000e+00	0.00000e+00	0.00000e+00	0.00000e+00	0.00000e+00	0.00000e+00	0.00000e+00	0.00000e+00	0.00000e+00	0.00000e+00	0.00000e+00	
Factor	1.00000e+00	1.00000e+00	1.00000e+00	1.00000e+00	1.00000e+00	1.00000e+00	1.00000e+00	1.00000e+00	1.00000e+00	1.00000e+00	1.00000e+00	1.00000e+00	1.00000e+00	1.00000e+00	1.00000e+00	1.00000e+00	1.00000e+00	1.00000e+00	1.00000e+00	1.00000e+00	1.00000e+00	1.00000e+00	1.00000e+00	1.00000e+00	1.00000e+00	1.00000e+00	1.00000e+00	1.00000e+00	1.00000e+00	1.00000e+00	1.00000e+00	1.00000e+00	X	X	X	X	X	X	X	X	X	X	X	X	X	X	X	X	

B = Detector Channel
Val Type	B-AC1	B-AC2	B-AC3	B-AC4	B-AC5	B-AC6	B-AC7	B-AC8	B-AC9	B-AC10	B-AC11	B-AC12	B-AC13	B-AC14	B-AC15	B-AC16	B-DC1	B-DC2	B-DC3	B-DC4	B-DC5	B-DC6	B-DC7	B-DC8	B-DC9	B-DC10	B-DC11	B-DC12	B-DC13	B-DC14	B-DC15	B-DC16	B-Ph1	B-Ph2	B-Ph3	B-Ph4	B-Ph5	B-Ph6	B-Ph7	B-Ph8	B-Ph9	B-Ph10	B-Ph11	B-Ph12	B-Ph13	B-Ph14	B-Ph15	B-Ph16	

Term	0.00000e+00	0.00000e+00	0.00000e+00	0.00000e+00	0.00000e+00	0.00000e+00	0.00000e+00	0.00000e+00	0.00000e+00	0.00000e+00	0.00000e+00	0.00000e+00	0.00000e+00	0.00000e+00	0.00000e+00	0.00000e+00	0.00000e+00	0.00000e+00	0.00000e+00	0.00000e+00	0.00000e+00	0.00000e+00	0.00000e+00	0.00000e+00	0.00000e+00	0.00000e+00	0.00000e+00	0.00000e+00	0.00000e+00	0.00000e+00	0.00000e+00	0.00000e+00	-2.19236e+02	-1.31854e+02	-1.24135e+02	-1.81681e+02	-8.58735e+01	-6.72878e+01	-1.57568e+02	-1.62015e+02	-8.41279e+01	-6.72097e+01	-1.71278e+02	-1.72824e+02	-1.84035e+02	-1.76898e+02	-7.35276e+01	-1.49611e+02	
Factor	5.03203e-05	1.86684e-04	5.35002e-05	1.55221e-01	2.21823e-06	1.93863e-06	1.70040e-01	5.39350e-02	2.78813e-06	2.02691e-06	8.86941e-02	3.59107e-02	3.83696e-02	9.50516e-03	2.03926e-06	1.37819e-02	1.31170e-05	1.87377e-05	5.23375e-06	7.87103e-02	1.87137e-07	2.07811e-07	8.13289e-02	2.73734e-02	1.87871e-07	2.06201e-07	4.39296e-02	1.77345e-02	1.96596e-02	4.87883e-03	1.96838e-07	6.87861e-03	X	X	X	X	X	X	X	X	X	X	X	X	X	X	X	X	



#DISTANCE SETTINGS
A = Detector Channel
A-1	A-2	A-3	A-4	A-5	A-6	A-7	A-8	A-9	A-10	A-11	A-12	A-13	A-14	A-15	A-16	

2.5000e+00	3.0000e+00	2.5000e+00	3.0000e+00	2.0000e+00	3.0000e+00	1.5000e+00	3.0000e+00	3.0000e+00	3.0000e+00	3.0000e+00	3.0000e+00	3.0000e+00	3.0000e+00	1.5000e+00	3.0000e+00	

B = Detector Channel
B-1	B-2	B-3	B-4	B-5	B-6	B-7	B-8	B-9	B-10	B-11	B-12	B-13	B-14	B-15	B-16	

1.0000e+01	1.0000e+01	1.0000e+01	1.4400e+00	1.0000e+01	1.0000e+01	1.5100e+00	1.9400e+00	1.0000e+01	1.0000e+01	1.9900e+00	2.4900e+00	2.4100e+00	2.9000e+00	1.0000e+01	2.9800e+00	




#DATA BEGINS
time	group	step	mark	flag	A-AC1	A-AC2	A-AC3	A-AC4	A-AC5	A-AC6	A-AC7	A-AC8	A-AC9	A-AC10	A-AC11	A-AC12	A-AC13	A-AC14	A-AC15	A-AC16	A-DC1	A-DC2	A-DC3	A-DC4	A-DC5	A-DC6	A-DC7	A-DC8	A-DC9	A-DC10	A-DC11	A-DC12	A-DC13	A-DC14	A-DC15	A-DC16	A-Ph1	A-Ph2	A-Ph3	A-Ph4	A-Ph5	A-Ph6	A-Ph7	A-Ph8	A-Ph9	A-Ph10	A-Ph11	A-Ph12	A-Ph13	A-Ph14	A-Ph15	A-Ph16	B-AC1	B-AC2	B-AC3	B-AC4	B-AC5	B-AC6	B-AC7	B-AC8	B-AC9	B-AC10	B-AC11	B-AC12	B-AC13	B-AC14	B-AC15	B-AC16	B-DC1	B-DC2	B-DC3	B-DC4	B-DC5	B-DC6	B-DC7	B-DC8	B-DC9	B-DC10	B-DC11	B-DC12	B-DC13	B-DC14	B-DC15	B-DC16	B-Ph1	B-Ph2	B-Ph3	B-Ph4	B-Ph5	B-Ph6	B-Ph7	B-Ph8	B-Ph9	B-Ph10	B-Ph11	B-Ph12	B-Ph13	B-Ph14	B-Ph15	B-Ph16	aux-1	digaux	

6863.997	1	1	0	256	0.053036	0.036738	0.046264	0.18136	0.27812	0.080936	0.36245	0.16629	0.089881	0.11345	0.19389	0.106	0.056427	0.22415	0.105	0.19085	-4.6854	-4.8583	-4.6562	-5.4625	-4.5396	-4.7333	-5.2375	-4.2937	-4.8938	-4.7271	-4.5292	-5.075	-4.4625	-4.7542	-4.8438	-4.5458	-38.095	118.763	-84.529	202.372	70.877	148.328	148.903	164.002	58.294	-46.895	212.231	89.011	106.684	82.591	51.497	-92.772	0.00042324	0.00022107	6.922e-05	1240.5	5.1051e-06	4.8877e-06	1304.2	254.59	5.8739e-06	3.3806e-06	315.48	86.703	68.931	19.777	2.7757e-06	27.58	0.00034334	0.00035211	9.7991e-05	1222.9	3.9852e-06	3.7523e-06	1293.2	252.32	3.9007e-06	3.7193e-06	313.92	86.845	68.906	19.913	3.6698e-06	28.096	113.936	-33.135	-50.702	-127.853	-62.031	17.602	-127.936	-121.065	-46.621	5.887	-121.188	-115.235	-114.726	-107.443	22.456	-107.784	-8191	255	
6864.094	1	1	0	0	0.25936	0.28716	0.20208	0.22923	0.2262	0.16746	0.24305	0.19261	0.092394	0.20779	0.17623	0.093578	0.18184	0.22032	0.076683	0.13574	-4.5	-4.6687	-4.3583	-4.9667	-4.4917	-4.7896	-5.2229	-4.4625	-4.8229	-4.95	-4.5792	-5.1062	-4.6167	-4.6958	-5.1479	-4.6208	-17.759	-116.203	216.671	155.478	69.019	112.315	-131.294	84.836	27.894	192.855	199.499	159.347	-119.231	152.148	-65.438	135.293	0.00042244	0.00033299	5.6623e-05	1235.4	2.8959e-06	2.6329e-06	1303.6	255.18	7.37e-06	2.7901e-06	315.51	86.494	68.697	19.725	3.2102e-06	27.617	0.00035927	0.0003543	0.00010475	1220	4.1732e-06	3.9856e-06	1292	252.65	3.9711e-06	3.8486e-06	314.41	87.11	68.905	19.99	3.8584e-06	28.124	110.835	-52.413	-33.333	-127.853	-60.935	49.303	-127.846	-121.069	-63.781	-45.877	-121.223	-115.146	-114.477	-107.567	4.570	-107.849	-8191	255	
6864.190	1	1	0	0	0.16154	0.1486	0.1083	0.037522	0.16788	0.21299	0.28487	0.33331	0.35416	0.052132	0.094574	0.1873	0.11841	0.48717	0.15877	0.086964	-4.5938	-5.0167	-4.3938	-5.2042	-4.7521	-4.5333	-5.1604	-4.5813	-4.7479	-4.9187	-4.4688	-5.1292	-4.6896	-4.6583	-5.0312	-4.6896	-40.831	112.800	90.137	181.970	126.828	141.391	144.292	148.827	4.424	2.580	-133.885	218.915	117.483	220.671	-71.638	219.548	0.00044458	0.00039674	9.1585e-05	1241.3	2.4907e-06	3.9162e-06	1311.6	254.96	5.5274e-06	2.5408e-06	316.6	86.995	69.197	19.96	3.4131e-06	27.877	0.00036741	0.00037405	0.00010778	1223.4	4.3166e-06	4.0493e-06	1297.1	253.87	4.4068e-06	4.0394e-06	315.36	87.669	69.294	20.149	3.9269e-06	28.374	111.325	-44.830	-63.657	-127.760	-52.373	13.844	-128.024	-120.869	-40.005	-14.786	-121.139	-114.982	-114.706	-107.161	-35.906	-107.720	-8191	255	
6864.284	1	1	0	0	0.34849	0.19593	0.19816	0.10923	0.1105	0.18605	0.42202	0.20171	0.25612	0.12353	0.0085592	0.2153	0.23176	0.053069	0.23432	0.062381	-4.475	-5.1479	-4.4229	-5.1604	-4.8958	-4.5	-5.1958	-4.7396	-4.9479	-5.1771	-4.6729	-4.9604	-4.9646	-4.6792	-5.2521	-4.7833	-22.858	124.637	98.958	-132.655	166.967	87.939	176.516	118.375	38.985	83.932	-64.439	210.125	148.936	136.893	-24.613	-95.812	0.00044523	0.00018189	0.00010519	1251.2	8.272e-07	2.7772e-06	1321	257.28	6.5024e-06	1.8059e-06	318.62	87.887	69.329	19.854	2.6654e-06	27.839	0.00036648	0.00034825	0.00010185	1236.2	4.0133e-06	3.6757e-06	1307.8	255.65	3.7973e-06	3.4998e-06	317.07	87.723	69.369	20.136	3.6952e-06	28.427	117.052	7.311	-37.305	-127.871	-37.435	-22.941	-128.060	-120.883	-42.974	5.942	-121.154	-114.723	-115.063	-107.466	13.687	-107.671	-8191	255	
6864.380	1	1	0	0	0.038961	0.18436	0.12335	0.25239	0.24972	0.18479	0.33552	0.20072	0.16217	0.1622	0.17198	0.20353	0.066573	0.20094	0.20927	0.22902	-4.4042	-5.1854	-4.6438	-5.1958	-4.9437	-4.4792	-5.2188	-4.6104	-4.5458	-5.1792	-4.6062	-5.0604	-5.0646	-4.5583	-5.2333	-4.7979	-23.443	-18.402	36.642	165.345	18.986	178.358	197.002	204.300	74.702	63.598	89.089	91.281	-114.296	215.301	170.295	-98.194	0.00048952	0.0003643	0.00013032	1251.6	3.7682e-06	1.4741e-06	1328.4	257.83	6.2882e-06	3.7613e-06	320.64	87.967	69.886	20.053	3.566e-06	28.143	0.00035421	0.00033006	0.00010019	1238.4	3.889e-06	3.9519e-06	1312.5	256.61	4.2032e-06	3.9466e-06	319.07	88.388	70.101	20.287	4.1475e-06	28.56	107.790	-33.060	7.088	-127.807	-59.810	66.193	-127.788	-121.235	-47.242	2.003	-121.272	-114.911	-114.289	-107.649	-12.848	-108.097	-8191	255	
6864.476	1	1	0	0	0.15048	0.042963	0.23285	0.0727	0.16446	0.1551	0.32199	0.10271	0.070408	0.13574	0.23489	0.081694	0.20853	0.12518	0.17743	0.044435	-4.3979	-5.0917	-4.4458	-5.0458	-4.9563	-4.3604	-5.1917	-4.9083	-4.6104	-5.3604	-4.8688	-4.9146	-5.1375	-4.5708	-5.075	-5.025	135.769	-89.501	-0.360	73.740	141.818	196.065	147.048	180.935	-72.365	212.326	207.322	186.928	-58.855	195.842	-123.656	-11.335	0.00046774	0.00040599	0.00010378	1260.3	2.7947e-06	2.8397e-06	1327.9	258.48	8.6197e-06	4.2976e-06	320.02	87.765	69.511	20.032	2.1562e-06	27.801	0.00038856	0.00038346	0.00010827	1240.8	4.2948e-06	4.3775e-06	1312.7	256.7	4.2388e-06	4.0463e-06	318.87	88.272	69.83	20.249	4.1594e-06	28.452	113.933	-55.010	-43.771	-127.944	-44.376	-4.775	-127.844	-121.087	-44.812	6.688	-121.018	-114.952	-114.829	-107.463	-22.037	-107.600	-8191	255	
6864.597	1	1	0	0	0.033455	0.22578	0.1583	0.21933	0.02279	0.10422	0.13639	0.18307	0.2885	0.2482	0.17702	0.31419	0.055583	0.080223	0.2571	0.12918	-4.2312	-5.0229	-4.5062	-4.7292	-4.9104	-4.3938	-5.0979	-4.8979	-4.3083	-4.9563	-4.5396	-4.5854	-5.125	-4.6062	-4.8354	-4.8021	-101.011	-66.100	185.461	143.299	-100.723	206.519	93.689	89.820	-69.384	48.027	52.358	187.424	189.273	-119.505	-16.507	7.821	0.00045223	0.00023062	5.5522e-05	1258.2	2.4086e-06	4.0753e-06	1327.3	258.98	5.9932e-06	3.5839e-06	319.58	87.709	69.894	20.141	5.2995e-06	27.969	0.00037744	0.00037635	0.000109	1240.2	4.2145e-06	4.1675e-06	1312.9	256.94	4.2338e-06	4.0136e-06	318.81	88.128	69.856	20.3	4.0077e-06	28.438	113.397	-92.826	-69.271	-127.810	-22.518	11.289	-127.896	-120.850	-76.294	43.286	-121.223	-115.294	-114.756	-107.506	-2.602	-107.797	-8191	255	
6864.693	1	1	0	0	0.12696	0.14414	0.20702	0.013471	0.0776	0.27866	0.16675	0.081751	0.08734	0.11552	0.25777	0.20381	0.12252	0.070442	0.12228	0.14599	-4.0604	-4.9667	-4.7667	-4.7292	-5.0792	-4.6438	-4.9875	-5.0375	-4.3708	-5.1083	-4.8812	-4.6833	-5.1	-4.6521	-4.8292	-5.0563	144.059	47.692	-117.701	75.375	1.473	201.523	117.982	112.784	132.346	-64.772	52.748	-55.444	202.085	-103.946	113.037	149.944	0.00042311	0.00027107	3.4387e-05	1255.5	3.3584e-06	4.0936e-06	1324	257.98	3.615e-06	3.5446e-06	320.45	88.07	69.982	20.001	4.7295e-06	27.906	0.00037629	0.00036382	0.00010297	1239.3	4.0726e-06	4.2835e-06	1310.7	256.92	4.4236e-06	4.1111e-06	318.65	88.313	69.894	20.276	4.1955e-06	28.478	118.953	-43.950	9.553	-127.606	-17.842	10.624	-127.905	-121.175	-16.538	-6.265	-121.263	-114.867	-114.598	-107.833	-10.050	-108.086	-8191	255	
6864.789	1	1	0	0	0.043994	0.096377	0.073928	0.16215	0.098234	0.283	0.41854	0.15688	0.19301	0.20387	0.054683	0.097249	0.074585	0.048375	0.34941	0.11073	-4.2333	-5.0292	-4.75	-4.7312	-5.1521	-4.6354	-5	-5.1396	-4.3646	-4.8875	-4.8896	-4.4833	-5.1542	-4.725	-4.7208	-5.1417	-44.480	-88.376	83.078	-120.396	-67.558	-81.756	215.368	127.004	194.701	-114.885	-97.569	187.481	-69.966	-129.111	-105.700	-65.110	0.00045882	0.0002835	9.2618e-05	1258.8	5.8968e-06	3.3229e-06	1330.7	260.4	3.7256e-06	2.8632e-06	319.88	88.073	69.573	20.134	1.2908e-06	28.167	0.00037752	0.00039595	0.00011218	1240.3	4.51e-06	4.5247e-06	1313.9	257.83	4.5253e-06	4.4733e-06	319.39	88.625	70.108	20.294	4.4186e-06	28.437	108.887	-31.414	-40.483	-127.694	-0.953	-0.910	-127.877	-120.995	-50.170	15.139	-120.894	-114.763	-114.878	-107.406	10.695	-107.583	-8191	255	
6864.861	1	1	0	0	0.072508	0.3837	0.13819	0.0059689	0.14325	0.055745	0.24609	0.15226	0.18521	0.16033	0.13723	0.23751	0.11735	0.12644	0.12508	0.069287	-4.2646	-5.0042	-4.9646	-4.7188	-5.1771	-4.8542	-4.9104	-5.2021	-4.4104	-5.1	-5.1438	-4.6083	-5.0083	-4.7146	-4.6229	-5.1687	-91.364	-34.347	0.080	40.854	-25.931	148.216	189.619	45.149	-91.423	33.912	73.591	-33.119	-60.733	204.387	156.399	145.532	0.0005194	0.00045037	8.7381e-05	1256.8	5.0675e-06	3.9981e-06	1330.4	259.17	6.4745e-06	3.3546e-06	319.57	88.118	69.513	20.042	2.934e-06	28.118	0.00038507	0.00039575	0.00010922	1240.4	4.3408e-06	4.4848e-06	1312.6	257.26	4.4749e-06	4.0695e-06	319.16	88.261	69.881	20.231	4.3727e-06	28.492	107.700	-71.556	-31.181	-127.921	-28.178	11.078	-127.900	-120.999	-42.951	26.446	-121.035	-114.883	-114.742	-107.738	13.028	-107.631	-8191	255	
6864.982	1	1	0	0	0.14677	0.074237	0.17138	0.10327	0.21646	0.23833	0.098105	0.10544	0.086624	0.15952	0.034997	0.2576	0.062074	0.29097	0.17569	0.21488	-4.3	-4.8938	-5.0708	-4.6	-5.0271	-4.7396	-4.7188	-5.0813	-4.4396	-4.7458	-5.0146	-4.6188	-5.0104	-5	-4.6167	-5.1917	185.036	122.648	26.631	196.473	145.693	5.300	24.282	-126.823	78.872	153.763	-46.940	-83.755	66.502	216.034	52.147	97.120	0.00047962	0.00018663	0.00012353	1254.9	2.7582e-06	4.0901e-06	1322.3	258.72	2.5745e-06	3.1015e-06	320.44	87.613	69.698	20.011	2.9965e-06	27.836	0.00038875	0.00039778	0.00010917	1239.7	4.2578e-06	4.4181e-06	1309.8	256.82	4.2858e-06	4.292e-06	319.07	88.116	69.839	20.154	4.2037e-06	28.354	114.238	-76.924	-18.758	-127.986	12.842	-33.860	-127.923	-121.013	-84.549	15.102	-121.090	-115.100	-114.292	-107.500	-35.376	-107.809	-8191	255	
6865.078	1	1	0	0	0.20364	0.21309	0.27512	0.17593	0.22553	0.093996	0.089626	0.30564	0.083869	0.099566	0.13651	0.098428	0.2027	0.17955	0.083299	0.18828	-4.4187	-4.6854	-5.1604	-4.7188	-4.9917	-4.8042	-4.6312	-4.9333	-4.7708	-4.6646	-5.2521	-4.5125	-4.8771	-5.1083	-4.5188	-5.2438	138.014	36.456	217.259	130.430	172.486	91.635	-84.648	68.400	-71.386	121.133	69.353	-72.816	198.266	-22.998	82.541	190.238	0.00042685	0.00055634	8.7497e-05	1256.1	3.5081e-06	2.7518e-06	1323.2	258.41	6.0373e-06	2.6897e-06	319.96	87.637	69.515	19.846	4.104e-06	27.941	0.00036741	0.00036468	0.00010302	1235.9	4.2188e-06	4.206e-06	1307.5	256.68	4.1351e-06	4.1219e-06	318.45	87.957	69.554	20.064	4.0311e-06	28.294	111.500	-69.019	-33.514	-127.859	-54.754	7.642	-127.821	-121.002	-73.089	4.893	-121.284	-115.207	-114.803	-107.419	-0.104	-107.851	-8191	255	
6865.174	1	1	0	0	0.21089	0.067767	0.17078	0.28717	0.035327	0.231	0.15056	0.16466	0.042463	0.10597	0.14956	0.14977	0.17009	0.16857	0.18859	0.052759	-4.4437	-4.7562	-5.1979	-4.8375	-5.0708	-4.9958	-4.7583	-5.225	-4.9396	-4.7396	-5.3208	-4.6208	-4.8438	-5.1438	-4.525	-4.9563	189.635	181.581	57.497	-137.377	174.008	-94.623	15.850	203.662	-80.360	-36.389	196.657	154.625	-53.097	-117.096	191.522	188.018	0.00040033	0.00031811	8.0636e-05	1248.7	2.3153e-06	3.6759e-06	1317.7	257.08	3.7462e-06	2.439e-06	319.77	87.26	69.443	19.729	1.2001e-06	27.835	0.00035856	0.00036718	9.9888e-05	1230.7	4.0839e-06	3.8835e-06	1304	255.59	3.9343e-06	3.8542e-06	318.29	87.728	69.752	20.039	4.0192e-06	28.244	114.912	-81.439	-62.153	-127.779	-40.622	26.783	-127.873	-120.922	-18.364	-0.949	-120.970	-114.975	-114.264	-107.277	-16.098	-107.559	-8191	255	
6865.270	1	1	0	0	0.02433	0.084794	0.18948	0.16887	0.056621	0.1091	0.16396	0.087306	0.11425	0.15373	0.14119	0.032875	0.033986	0.085566	0.067641	0.088291	-4.5146	-4.6854	-5.0896	-4.7208	-4.9187	-5.1021	-4.8063	-5.2708	-5.0125	-4.5708	-5.175	-4.7625	-4.5792	-4.9271	-4.4271	-4.9479	-32.336	168.788	-66.609	145.873	87.964	-98.489	147.085	140.934	61.882	-62.587	-105.850	112.781	-49.973	-127.519	90.348	-133.680	0.00045075	0.00024745	9.5225e-05	1254.3	4.3088e-06	3.2819e-06	1319.1	258.46	5.1459e-06	3.109e-06	319.97	87.58	69.314	19.695	2.9107e-06	27.83	0.00035782	0.00035379	9.4982e-05	1234.2	3.9353e-06	3.7943e-06	1303.9	256.03	3.8126e-06	3.7769e-06	317.63	87.805	69.403	20.006	3.8203e-06	28.309	109.054	-11.353	-12.921	-127.694	-84.752	37.959	-127.837	-121.163	-47.950	4.479	-121.262	-114.866	-114.728	-107.452	-2.699	-108.126	-8191	255	
6865.389	1	1	0	0	0.21151	0.13175	0.17652	0.15371	0.1481	0.014863	0.18519	0.1668	0.22047	0.24723	0.12795	0.17631	0.15385	0.057591	0.16472	0.067701	-4.6792	-4.6	-5.1625	-4.9167	-4.7354	-5.2479	-4.8042	-4.8271	-4.8375	-4.5125	-5.2875	-4.8417	-4.7063	-5.2	-4.6729	-5.0229	-45.123	-108.951	215.563	99.492	180.360	171.393	156.937	-46.115	114.766	-126.297	16.834	175.623	28.794	128.513	10.128	-24.098	0.0004653	0.00033884	0.00012336	1244.1	3.3269e-06	3.9509e-06	1310.9	256.49	6.4471e-06	3.5095e-06	317.82	86.76	68.855	19.594	4.524e-06	27.653	0.00033082	0.00036296	9.3444e-05	1227.7	3.7973e-06	3.4341e-06	1297.1	254.58	3.7339e-06	3.56e-06	316.41	87.183	68.884	19.826	3.3249e-06	28.062	120.284	-33.925	-11.395	-127.843	-56.243	1.543	-127.887	-121.077	-64.872	18.983	-121.102	-114.991	-114.977	-107.459	-9.940	-107.571	-8191	255	
6865.461	1	1	0	0	0.1734	0.16806	0.12835	0.2591	0.14179	0.12746	0.19464	0.2164	0.1794	0.020277	0.14026	0.14818	0.18719	0.18896	0.13005	0.067138	-4.7625	-4.2688	-4.8167	-4.9437	-4.7125	-5.2021	-4.8646	-4.8708	-4.9437	-4.3292	-4.9667	-4.9	-4.6604	-5.2146	-4.4833	-4.6958	208.823	107.170	-64.306	196.102	172.144	148.784	207.909	116.890	-134.887	41.604	184.231	-34.410	-19.441	143.846	207.430	56.101	0.00046661	0.00042952	8.8691e-05	1235.4	1.6254e-06	3.0984e-06	1300.6	254.14	3.7147e-06	4.7438e-06	313.15	86.17	68.127	19.509	2.7169e-06	27.339	0.00031639	0.00031253	7.8703e-05	1218.1	3.4047e-06	3.0972e-06	1286.6	252.08	3.2177e-06	3.1338e-06	313.07	86.539	68.316	19.679	3.1666e-06	27.85	109.523	-64.789	-34.936	-127.736	-33.444	31.120	-127.986	-120.943	-65.659	15.362	-121.102	-115.020	-114.900	-107.071	18.666	-107.503	-8191	255	
6865.557	1	1	0	0	0.25568	0.040447	0.10575	0.059148	0.19337	0.0081458	0.15622	0.14608	0.074021	0.15597	0.14271	0.026914	0.19345	0.4404	0.19243	0.27594	-4.7479	-4.7146	-5.0188	-5.1062	-4.5813	-5.3	-4.7417	-4.7792	-5.2146	-4.7375	-5.1583	-5.2583	-4.7417	-5.05	-4.6333	-4.7812	-108.084	-31.374	191.805	-83.906	143.021	81.583	-118.661	57.512	199.342	179.328	182.063	-123.520	136.711	-111.589	158.404	186.535	0.00049772	0.00028541	0.00012393	1224.6	1.257e-06	2.7789e-06	1291.5	252.26	6.1829e-06	4.0942e-06	312.22	85.595	67.35	19.279	3.3623e-06	27.337	0.00029333	0.00028349	7.4112e-05	1207.2	3.2231e-06	2.8479e-06	1278.6	249.69	2.8975e-06	2.8954e-06	310.47	85.811	67.572	19.542	2.832e-06	27.641	111.478	-63.123	-35.419	-127.773	-42.267	22.330	-127.809	-120.902	-75.066	31.843	-121.018	-114.732	-114.765	-107.075	32.823	-107.754	-8191	255	
6865.677	1	1	0	0	0.03263	0.11251	0.023027	0.10507	0.15743	0.11171	0.20269	0.036876	0.049339	0.16924	0.17464	0.10533	0.3123	0.092987	0.26738	0.020979	-4.8833	-4.4812	-4.8021	-4.9729	-4.65	-5.1104	-4.9833	-4.8021	-5.1937	-4.7604	-4.9958	-5.1292	-4.5188	-5.0271	-4.5958	-4.7396	109.043	-30.641	92.989	102.887	160.995	-99.265	149.882	-55.471	186.145	-128.125	144.065	126.680	133.873	-90.293	-11.716	31.182	0.00044208	0.00025205	0.00011432	1218.2	3.1244e-06	3.2508e-06	1283.7	248.44	3.7066e-06	2.5923e-06	310.18	85.387	67.416	19.296	2.5813e-06	27.168	0.00028002	0.00026377	7.2477e-05	1201	3.0796e-06	2.6405e-06	1268.3	247.6	2.7746e-06	2.9302e-06	308.06	85.445	67.401	19.426	2.7397e-06	27.511	117.929	-53.643	-46.980	-127.697	-52.002	-6.862	-127.832	-120.915	-38.024	35.400	-120.842	-115.077	-114.704	-107.251	-30.441	-107.961	-8191	255	
6865.774	1	1	0	0	0.3637	0.21985	0.13913	0.20888	0.023165	0.035031	0.24278	0.022917	0.04907	0.24493	0.11391	0.14956	0.075512	0.1459	0.11893	0.15374	-5.1062	-4.7188	-4.8854	-5.3083	-4.4563	-5.1125	-5.2104	-4.6271	-5.0708	-4.7521	-4.9521	-5.2333	-4.5542	-4.8812	-4.8812	-4.3667	-55.620	2.822	168.487	164.239	146.806	-37.168	188.320	54.352	-133.152	104.972	116.781	-26.971	19.751	68.813	170.419	174.619	0.00042024	0.00040463	7.0897e-05	1218.2	9.2023e-07	3.6207e-06	1282.2	250.21	5.9253e-06	3.0438e-06	309.7	85.054	67.403	19.253	3.6202e-06	27.022	0.00027947	0.00024847	6.8039e-05	1200.2	3.032e-06	2.6686e-06	1268.2	247.68	2.8333e-06	2.7266e-06	308.55	85.163	67.292	19.369	2.7516e-06	27.51	113.355	-48.485	-33.644	-127.742	-80.186	17.902	-127.802	-120.749	-49.580	24.582	-120.772	-115.007	-114.544	-107.522	-18.244	-107.523	-8191	255	
6865.870	1	1	0	0	0.20418	0.11186	0.079332	0.30745	0.14353	0.12359	0.19235	0.16258	0.14096	0.070127	0.10722	0.26636	0.073697	0.21994	0.14497	0.24296	-4.8417	-4.5875	-4.8292	-5.4229	-4.5021	-4.8187	-5.0646	-4.4083	-5.2354	-4.8417	-4.9083	-5.2875	-4.6146	-5.1396	-4.9833	-4.3938	-19.496	78.592	130.683	173.667	-25.277	-86.533	211.778	148.577	-12.016	130.914	-67.009	57.532	28.169	-97.078	-42.094	85.014	0.00049427	0.00048993	0.00012934	1214.5	3.4886e-06	3.9037e-06	1279.1	249.51	6.1844e-06	2.7532e-06	310.03	84.851	67.178	18.993	2.9524e-06	27.155	0.00028128	0.00025944	6.9413e-05	1196.1	3.108e-06	2.7526e-06	1267.7	247.48	2.9007e-06	2.782e-06	308.46	85.039	67.169	19.277	2.7447e-06	27.576	107.638	-45.055	-22.177	-127.794	-15.730	-6.656	-127.850	-120.925	-52.174	-2.982	-120.925	-114.932	-114.698	-106.870	-29.994	-107.510	-8191	255	
6865.990	1	1	0	0	0.080038	0.29318	0.13644	0.15994	0.10919	0.18854	0.16055	0.2529	0.083946	0.17647	0.26153	0.14042	0.12609	0.12236	0.20463	0.050251	-4.6792	-4.5479	-4.4979	-5.2792	-4.5687	-4.7958	-5.3187	-4.4958	-5.0854	-4.7354	-4.4938	-5.0583	-4.5188	-4.8438	-5.1958	-4.5	137.408	37.860	-97.540	99.003	-97.560	73.744	177.975	164.305	80.949	43.596	218.815	-131.025	-30.884	-110.216	199.092	82.717	0.00042256	0.00023442	7.4609e-05	1216.1	2.5563e-06	1.8578e-06	1282.1	249.63	4.9498e-06	2.0798e-06	310.82	85.256	67.419	19.161	3.0121e-06	27.031	0.00028218	0.00026408	7.4537e-05	1198.7	3.1509e-06	2.7626e-06	1268.8	247.64	2.9257e-06	2.8593e-06	309.86	85.362	67.256	19.31	2.7664e-06	27.464	112.017	-29.763	-33.713	-127.839	-38.943	46.595	-127.695	-120.939	-40.947	-3.173	-121.223	-114.972	-114.519	-107.318	11.696	-107.694	-8191	255	
6866.087	1	1	0	0	0.23037	0.21575	0.11767	0.14855	0.072597	0.091967	0.20964	0.16949	0.22268	0.027341	0.064683	0.19695	0.13696	0.25344	0.11175	0.14621	-4.6646	-4.85	-4.4167	-5.3958	-4.7354	-4.8479	-5.2979	-4.7021	-5.075	-5.0813	-4.7917	-5.2229	-4.6771	-4.5979	-5.0792	-4.4938	20.156	-125.204	16.432	201.083	186.517	18.548	122.086	209.591	2.430	-10.478	207.224	-38.896	-99.921	59.269	77.731	108.764	0.00043485	0.00044628	0.00013698	1214.8	1.3217e-06	2.5144e-06	1283.7	248.86	4.7714e-06	2.4382e-06	311.43	84.882	66.633	19.08	1.5627e-06	27.055	0.00028396	0.00024921	7.4417e-05	1197.6	3.0114e-06	2.6847e-06	1269	247.51	2.8415e-06	2.5921e-06	308.8	84.889	66.82	19.201	2.7373e-06	27.429	110.928	-41.876	-32.272	-127.655	-22.248	-10.720	-127.876	-120.937	-55.508	57.563	-120.943	-114.952	-114.337	-106.883	15.211	-107.390	-8191	255	
6866.158	1	1	0	0	0.10997	0.13907	0.11651	0.097883	0.08067	0.20498	0.40179	0.12755	0.18465	0.14708	0.1033	0.077929	0.042645	0.11219	0.049236	0.24438	-4.6	-5.0625	-4.5854	-5.2208	-4.6208	-4.7438	-5.3479	-4.7042	-4.7458	-5.0458	-4.5417	-5.1562	-4.8042	-4.7042	-5.0521	-4.7063	60.983	146.861	162.358	195.473	-126.292	-124.992	106.651	126.662	217.057	5.029	156.937	33.417	181.109	169.545	-35.883	138.749	0.00044818	0.00031334	5.89e-05	1211.6	5.0193e-06	4.3098e-06	1277.1	248.04	3.0237e-06	5.21e-06	310.08	84.645	66.666	18.898	4.4621e-06	26.979	0.00027494	0.0002377	6.8333e-05	1194.9	2.8492e-06	2.5448e-06	1265.8	246.69	2.7641e-06	2.5148e-06	308.11	84.989	66.92	19.158	2.6024e-06	27.413	108.239	-72.757	-60.316	-127.841	-28.078	16.376	-127.853	-120.808	-53.890	5.364	-120.822	-114.635	-114.629	-107.435	32.947	-107.343	-8191	255	
6866.254	1	1	0	0	0.13004	0.13634	0.083525	0.14011	0.13396	0.056301	0.11307	0.1878	0.16422	0.16174	0.18122	0.32845	0.18412	0.043403	0.099666	0.16678	-4.6479	-5.1042	-4.4771	-5.2271	-4.9583	-4.5896	-5.2646	-4.5646	-4.6021	-4.9479	-4.5625	-5.1292	-5.1208	-4.6	-5.2542	-4.8063	-95.769	-59.546	-67.601	145.952	-113.386	3.549	119.808	-133.432	185.566	13.396	112.002	142.523	163.704	-137.021	-85.305	51.988	0.00045355	0.00032012	9.4885e-05	1214.6	4.753e-07	2.5401e-06	1284.1	249.85	5.5402e-06	1.4362e-06	309.55	84.855	67.305	19.019	3.5091e-06	27.054	0.00026871	0.00024484	6.8028e-05	1195.9	2.8094e-06	2.7535e-06	1267.6	246.92	2.7844e-06	2.5857e-06	308.36	84.842	66.897	19.23	2.6298e-06	27.434	117.381	-39.388	-12.479	-127.750	75.384	34.939	-127.794	-120.843	-56.315	18.595	-120.953	-114.994	-114.658	-107.373	16.718	-107.264	-8191	255	
6866.373	1	1	0	0	0.092233	0.22269	0.11198	0.23887	0.1393	0.089957	0.14949	0.088459	0.19284	0.17426	0.083407	0.17903	0.14722	0.13537	0.1458	0.2272	-4.2917	-5.0021	-4.6104	-5.2479	-4.9979	-4.6937	-5.35	-4.7646	-4.775	-5.175	-4.5708	-5.0354	-5.0375	-4.5833	-5.1458	-5.0542	-16.840	147.613	-92.651	-125.425	152.103	-44.535	145.637	63.859	29.313	60.043	123.280	-102.382	136.543	134.457	-130.967	130.342	0.00043535	0.00032197	0.00012722	1212.3	2.81e-06	3.1655e-06	1276.7	249.08	4.5808e-06	3.7589e-06	307.77	84.489	66.986	19.081	3.1139e-06	27.045	0.00028098	0.00023114	6.9358e-05	1195.1	2.9568e-06	2.6435e-06	1268	246.9	2.8666e-06	2.5367e-06	307.58	84.845	66.969	19.233	2.337e-06	27.386	108.069	-45.740	-51.700	-127.808	-37.957	19.303	-127.781	-120.919	-67.135	25.769	-120.969	-115.243	-114.546	-107.277	2.134	-107.730	-8191	255	
6866.469	1	1	0	0	0.18961	0.17032	0.239	0.24638	0.057636	0.087514	0.26737	0.33551	0.14765	0.064044	0.11667	0.16564	0.11322	0.17826	0.26075	0.10269	-4.3104	-5.125	-4.5625	-4.8958	-5.0271	-4.6104	-5.3313	-4.7812	-4.4437	-5.2063	-4.7208	-4.8542	-5.2	-4.6292	-4.8104	-5.0292	159.039	179.703	54.878	195.322	-102.750	-23.860	161.904	153.576	105.963	81.434	95.034	-111.706	57.659	-94.594	123.218	175.981	0.00043877	0.00033219	8.1859e-05	1216.7	3.2568e-06	1.9333e-06	1282.2	248.05	7.3475e-06	1.8096e-06	309.75	84.998	67.184	19.026	3.7264e-06	27.321	0.00027253	0.00022969	6.6828e-05	1197.1	2.7201e-06	2.7262e-06	1267.6	246.3	2.8521e-06	2.4108e-06	308.06	84.744	66.96	19.17	2.4182e-06	27.429	114.805	-77.410	-34.828	-127.932	-55.757	1.964	-127.803	-120.869	-47.847	0.169	-120.836	-114.619	-114.276	-107.139	-25.719	-107.719	-8191	255	
6866.566	1	1	0	0	0.26333	0.11265	0.12701	0.070729	0.02023	0.18308	0.22305	0.14228	0.041393	0.14123	0.20029	0.2363	0.17327	0.13858	0.17537	0.083742	-4.4062	-5.1438	-4.675	-5.0042	-5.025	-4.6333	-5.0167	-5.0625	-4.6208	-5.0333	-4.7625	-4.675	-5.0938	-4.3812	-4.8792	-5.0333	-39.608	40.720	144.849	-78.197	128.432	176.943	168.071	134.073	141.440	42.009	194.955	-110.997	63.683	124.486	83.024	-134.851	0.00044672	0.00028287	8.1386e-05	1216.3	9.6731e-07	5.3071e-06	1284.5	247.49	3.3255e-06	2.8138e-06	309.6	84.416	67.07	19.118	2.7098e-06	26.927	0.00027936	0.00022942	6.4975e-05	1198.3	2.7069e-06	2.6578e-06	1269.5	246.55	3.0071e-06	2.7373e-06	308.32	85.204	67.214	19.293	3.0293e-06	27.508	114.963	-63.411	-52.469	-127.719	-43.978	3.147	-127.858	-121.050	-72.492	13.262	-120.985	-114.822	-114.540	-107.208	-46.735	-107.634	-8191	255	
6866.662	1	1	0	0	0.10568	0.23073	0.0335	0.26385	0.10417	0.24869	0.14033	0.050155	0.11398	0.0078254	0.078405	0.20743	0.039528	0.1232	0.11911	0.2279	-4.4625	-5.1896	-4.9646	-4.9208	-5.1979	-4.6104	-5.225	-5.0563	-4.3562	-5	-4.65	-4.775	-5.2063	-4.5833	-5.0958	-5.1521	68.190	1.161	206.481	158.644	126.766	30.399	-15.227	190.008	78.468	-125.489	-40.166	101.136	130.038	118.365	107.841	210.454	0.00043524	8.9545e-05	0.0001446	1221	3.4241e-06	3.7017e-06	1294.3	249.76	6.1386e-06	3.2297e-06	313.24	85.738	67.704	19.23	2.0893e-06	27.069	0.00029541	0.0002553	7.6696e-05	1204.8	3.1833e-06	2.9622e-06	1278	248.15	3.3014e-06	2.9534e-06	311	85.705	67.783	19.399	3.0149e-06	27.624	119.918	-3.101	-55.946	-127.818	-57.723	35.180	-127.934	-120.970	-35.910	-6.899	-121.045	-114.943	-114.087	-107.403	-7.394	-107.962	-8191	255	
6866.758	1	1	0	0	0.045685	0.064692	0.25101	0.18661	0.087953	0.058967	0.17105	0.1611	0.091999	0.084744	0.054806	0.15913	0.087351	0.15531	0.097532	0.31221	-4.2542	-5.1604	-4.7271	-4.5083	-5.2021	-4.7167	-5.0312	-5.1167	-4.5312	-4.8688	-4.8542	-4.5687	-5.2104	-4.7833	-4.9104	-5.0687	-87.487	123.371	31.740	200.653	-100.549	62.431	218.431	158.463	84.350	-12.446	-71.586	161.830	104.307	-102.943	-24.775	107.021	0.00041056	0.00034372	0.00015086	1228.4	3.0983e-06	3.8518e-06	1295.9	250.04	1.9341e-06	3.4983e-06	311.82	85.48	67.552	19.182	2.7459e-06	27.21	0.00030557	0.00025093	7.5977e-05	1208.2	3.0231e-06	2.9907e-06	1278.1	248.34	3.038e-06	2.8507e-06	309.88	85.476	67.542	19.305	2.793e-06	27.565	111.385	-51.124	-42.509	-127.726	-22.536	4.048	-127.799	-120.801	-69.897	16.272	-121.120	-114.403	-114.534	-107.331	-0.361	-107.776	-8191	255	
6866.854	1	1	0	0	0.31443	0.12366	0.19487	0.22495	0.23761	0.13816	0.10325	0.078711	0.097079	0.10211	0.2877	0.086019	0.055834	0.15099	0.20333	0.053436	-4.0687	-4.9708	-4.9125	-4.7708	-5.0208	-4.8458	-4.8729	-5.3667	-4.55	-4.8896	-5.0083	-4.3938	-5.1958	-4.8583	-4.5958	-5.1937	4.696	-125.177	129.171	-85.371	171.314	-115.534	122.027	70.595	116.672	174.018	166.296	128.343	178.878	118.634	140.442	132.469	0.00043369	0.00033852	7.9754e-05	1226.5	3.3026e-06	3.1388e-06	1289.7	251.17	4.7271e-06	3.6614e-06	311.3	85.73	67.302	19.153	2.2009e-06	27.159	0.00028737	0.00023992	7.1572e-05	1205.7	3.0878e-06	2.7604e-06	1277.3	248.29	2.9476e-06	2.7231e-06	309.99	85.433	67.505	19.282	2.8701e-06	27.638	116.284	-43.061	-24.509	-127.758	-22.654	1.988	-127.739	-120.636	-34.952	11.588	-121.143	-115.450	-114.445	-107.234	-13.088	-107.648	-8191	255	
6866.950	1	1	0	0	0.14361	0.19595	0.20366	0.31745	0.38768	0.067011	0.044893	0.14893	0.15916	0.047147	0.21523	0.073994	0.14627	0.1628	0.12635	0.14832	-4.3458	-4.875	-4.7688	-4.5917	-4.9479	-4.7438	-4.7812	-5.2479	-4.6667	-4.8667	-5.225	-4.7312	-5.0875	-5.0583	-4.6062	-5.2917	145.152	-43.005	100.391	171.110	39.493	3.552	57.702	145.296	207.762	-123.423	180.857	70.284	33.933	179.598	-106.720	189.334	0.00044693	0.00021396	9.2937e-05	1225.4	3.0122e-06	1.9299e-06	1295.9	251.24	7.4601e-06	2.5159e-06	311.75	85.141	67.63	19.239	3.1464e-06	27.146	0.00028764	0.00026424	7.3382e-05	1208.2	3.1404e-06	2.8487e-06	1279.8	248.87	3.1061e-06	2.8576e-06	310.54	85.574	67.701	19.421	3.101e-06	27.573	110.687	-56.612	-56.113	-127.773	-16.532	-43.024	-127.888	-120.737	-19.922	6.991	-120.938	-114.751	-114.575	-107.336	6.396	-107.656	-8191	255	
6867.071	1	1	0	0	0.18755	0.015879	0.19168	0.31673	0.24119	0.15503	0.26751	0.12312	0.3374	0.22574	0.12288	0.04527	0.13571	0.16593	0.16401	0.10128	-4.3896	-4.7604	-5.1708	-4.5437	-5.0062	-4.8313	-4.6562	-5.0771	-4.6333	-4.8583	-5.1667	-4.625	-4.8625	-4.7521	-4.3562	-4.9833	-90.812	129.985	189.505	175.482	-120.824	-113.884	-128.198	-134.491	153.395	-18.125	-126.808	66.745	-67.824	201.048	-65.325	209.684	0.00040026	0.00033421	0.00013778	1228	2.4272e-06	4.3479e-06	1294.2	251.48	5.1994e-06	2.3868e-06	312.35	85.84	67.989	19.186	4.0722e-06	27.25	0.00030333	0.00026615	7.3131e-05	1208.9	3.2121e-06	3.131e-06	1281	248.98	3.2161e-06	2.9744e-06	310.85	85.698	67.709	19.374	3.0965e-06	27.654	115.842	-43.707	-47.053	-127.659	-8.992	34.935	-127.995	-120.915	-60.687	33.625	-121.154	-115.155	-114.460	-107.183	23.794	-107.619	-8191	255	
6867.167	1	1	0	0	0.1432	0.1033	0.19141	0.15731	0.10267	0.13462	0.14215	0.14148	0.12832	0.057572	0.16498	0.24446	0.058572	0.1541	0.12568	0.016796	-4.2	-4.6042	-5.2562	-4.7896	-5.0292	-5.1625	-4.7542	-5.2729	-4.8125	-4.55	-5.2875	-4.8125	-4.9667	-5.0792	-4.6083	-4.9396	-83.859	5.969	177.493	171.644	71.000	33.209	-78.443	206.144	55.725	83.490	200.351	173.636	52.632	-102.843	7.381	198.958	0.00046692	0.00023401	0.00012035	1221.6	2.2913e-06	3.2305e-06	1293.4	250.15	5.1769e-06	3.9231e-06	311.27	85.333	67.452	19.134	8.9835e-07	26.889	0.00028767	0.00026807	7.2444e-05	1204.6	3.0655e-06	2.9851e-06	1274.8	248.39	2.9496e-06	2.9053e-06	309.54	85.163	67.317	19.257	2.7016e-06	27.453	112.193	-47.735	-34.493	-127.954	-29.849	4.198	-127.692	-120.941	-54.022	6.460	-121.347	-114.992	-114.370	-107.528	40.248	-107.400	-8191	255	
6867.261	1	1	0	0	0.1652	0.1958	0.20023	0.18155	0.24689	0.17042	0.31686	0.148	0.24742	0.3312	0.086389	0.14778	0.16606	0.11233	0.11692	0.17324	-4.3562	-4.6271	-5.0354	-4.7521	-4.9292	-5.1125	-4.7521	-5.2042	-5.0354	-4.625	-5.1667	-4.7542	-4.7958	-5.1375	-4.4396	-5.0417	-87.015	-77.825	3.126	123.744	-33.780	28.998	-138.157	4.100	-69.934	-108.345	163.728	-98.700	207.570	-121.062	-3.752	152.429	0.00046727	0.00032489	0.00011191	1214.5	1.1783e-06	5.0148e-06	1282.7	249.52	6.0401e-06	3.5912e-06	310.02	84.69	67.154	19.015	2.5004e-06	26.978	0.00028707	0.00025444	6.7145e-05	1198.6	3.0753e-06	2.5548e-06	1267.7	247.22	2.786e-06	2.794e-06	308.82	85.091	67.128	19.221	2.83e-06	27.393	115.357	-25.050	-46.459	-127.597	-66.824	15.121	-127.823	-120.684	-80.129	-4.194	-121.128	-115.043	-114.435	-107.535	-29.988	-107.792	-8191	255	
6867.359	1	1	0	0	0.066902	0.070207	0.10706	0.15069	0.0094976	0.2177	0.052533	0.25506	0.078791	0.15371	0.26139	0.21347	0.058891	0.088617	0.049887	0.22885	-4.4917	-4.5542	-4.9896	-4.7312	-4.725	-5.0792	-4.7896	-5.1458	-5.0542	-4.4729	-5.2937	-4.8938	-4.7063	-5.3833	-4.5583	-5.05	165.959	-22.595	-77.460	217.297	-20.071	202.965	26.315	-135.790	-61.369	-90.753	145.530	-128.710	-135.356	-85.123	200.532	142.846	0.00046397	0.00046131	9.7122e-05	1218.6	1.681e-06	3.1744e-06	1282.6	249.98	2.9001e-06	3.2608e-06	309.38	84.808	67.485	19.108	3.8239e-06	26.888	0.00028764	0.00027275	6.8344e-05	1198.7	3.009e-06	2.7388e-06	1268.4	247.45	2.8572e-06	2.8851e-06	308.92	84.976	67.198	19.228	2.8345e-06	27.458	113.697	-48.106	-39.769	-127.677	-29.947	17.565	-127.856	-120.883	-63.920	10.484	-121.072	-114.981	-114.569	-107.203	26.583	-107.775	-8191	255	
6867.454	1	1	0	0	0.02499	0.083386	0.034573	0.24173	0.016497	0.074526	0.23573	0.11838	0.037626	0.061242	0.060936	0.026668	0.12187	0.1517	0.016496	0.058564	-4.8438	-4.6875	-5.0833	-4.975	-4.6896	-5.1167	-4.8542	-4.8896	-4.9917	-4.5333	-5.2312	-4.9688	-4.725	-5.2458	-4.8688	-5.0042	218.399	-113.494	-3.114	168.361	-123.084	78.263	191.127	183.134	107.516	157.911	89.669	-25.300	-71.394	-114.995	216.914	214.882	0.00045171	0.0003327	0.00011186	1217.6	3.4223e-06	2.0259e-06	1285.2	249.33	6.5072e-06	2.8213e-06	311.84	85.694	67.264	19.187	4.5667e-06	27.282	0.00028437	0.00026764	6.7897e-05	1198.4	3.0106e-06	2.7717e-06	1271.3	247.65	2.9406e-06	2.8542e-06	309.7	85.379	67.333	19.35	2.9481e-06	27.576	112.610	-38.876	-55.335	-127.902	-34.972	44.499	-127.932	-121.075	-48.176	51.550	-120.931	-114.851	-114.432	-107.353	-16.285	-107.572	-8191	255	
6867.550	1	1	0	0	0.12387	0.098994	0.14903	0.41597	0.21313	0.12448	0.13114	0.11345	0.076074	0.036426	0.23703	0.093792	0.33448	0.11843	0.13674	0.099777	-4.7312	-4.6729	-5.0667	-5.1854	-4.5042	-5.1562	-4.7708	-4.7708	-5.1854	-4.6125	-5.0667	-5.0979	-4.5813	-5.125	-4.4313	-4.6125	-20.221	118.666	-132.170	209.114	-21.199	51.699	148.263	152.972	-34.660	212.116	173.592	165.991	-94.954	116.276	-99.274	158.327	0.00038315	0.00025904	9.0942e-05	1215.6	3.5702e-06	4.9497e-06	1282.9	249.39	5.3733e-06	3.4227e-06	310.23	84.917	67.014	19.202	1.9171e-06	26.86	0.00028852	0.00026643	6.9598e-05	1198.3	3.0718e-06	2.5344e-06	1270	247.59	2.9558e-06	2.8091e-06	309.12	85.208	66.864	19.259	2.8123e-06	27.415	115.841	-43.800	-28.406	-127.832	-48.264	22.979	-127.951	-120.942	-54.452	21.646	-120.897	-115.180	-114.710	-106.982	-15.393	-107.164	-8191	255	
6867.670	1	1	0	0	0.12204	0.091753	0.19954	0.10574	0.0828	0.17471	0.28318	0.17496	0.13115	0.11966	0.019312	0.20557	0.10431	0.18083	0.23037	0.076465	-4.7708	-4.5521	-4.875	-5.0479	-4.5188	-5.0604	-4.9771	-4.7875	-5.3021	-4.725	-4.8354	-4.9563	-4.5354	-5.1792	-4.8083	-4.8438	5.429	199.436	119.238	151.894	-74.069	-42.434	215.685	90.327	-4.220	-55.168	58.248	156.747	197.544	-81.682	174.333	148.928	0.00043138	0.00025873	7.2947e-05	1212.3	1.3858e-06	1.9451e-06	1281.9	250.48	6.5911e-06	5.5204e-06	311.61	84.66	67.088	19.076	2.2717e-06	27.106	0.00027305	0.00025776	6.7406e-05	1195.7	2.956e-06	2.5721e-06	1270.3	247.94	2.8204e-06	2.8091e-06	310.14	85.108	67.14	19.277	2.6688e-06	27.462	115.140	-96.292	-43.991	-127.585	38.726	-10.090	-127.757	-120.714	-78.579	30.627	-120.650	-115.080	-114.647	-107.281	-23.306	-107.430	-8191	255	
6867.767	1	1	0	0	0.22115	0.14736	0.23153	0.22295	0.067392	0.14082	0.17503	0.26512	0.072287	0.06372	0.17242	0.25901	0.063809	0.16481	0.12285	0.19481	-4.8583	-4.5521	-4.8812	-5.2958	-4.35	-5.0896	-5.2354	-4.6438	-5.0833	-4.8417	-4.9583	-5.1354	-4.4708	-5.0167	-4.7521	-4.4292	106.348	32.844	154.955	99.005	33.007	94.991	143.181	-130.729	172.490	32.272	58.932	-103.984	140.673	53.283	120.401	-133.649	0.00047484	0.00038725	9.1939e-05	1209.2	4.4398e-07	3.8087e-06	1278.5	247.44	5.8916e-06	3.716e-06	310.06	84.601	66.423	19.011	3.4752e-06	26.942	0.0002698	0.00025214	6.9816e-05	1194	2.862e-06	2.6206e-06	1262.9	246.58	2.7394e-06	2.541e-06	308.51	84.82	66.82	19.159	2.6446e-06	27.373	111.636	-57.839	-70.867	-127.726	-6.625	16.824	-127.878	-120.763	-47.336	39.417	-120.835	-114.941	-114.431	-107.382	28.578	-107.000	-8191	255	
6867.863	1	1	0	0	0.18286	0.057736	0.17441	0.26021	0.14771	0.15463	0.30749	0.10522	0.079339	0.23337	0.04977	0.031008	0.07434	0.059651	0.10306	0.33079	-4.775	-4.5583	-4.7583	-5.3271	-4.625	-5.0021	-5.2458	-4.625	-5.1208	-4.5729	-4.75	-5.1417	-4.6021	-4.9021	-4.9896	-4.6583	-66.106	-101.309	-131.763	172.126	-118.455	120.767	142.365	-137.531	42.924	152.885	100.538	-82.869	28.032	-112.254	175.069	26.202	0.00043841	0.00038371	6.3146e-05	1208.1	2.4803e-06	3.3667e-06	1275	246.89	4.9115e-06	2.3382e-06	309.82	84.559	66.5	18.881	3.9313e-06	26.81	0.00026485	0.00023582	6.8071e-05	1189	2.8336e-06	2.3907e-06	1259.4	245.62	2.7617e-06	2.6497e-06	307.46	84.559	66.631	19.089	2.5076e-06	27.209	113.593	-19.759	-51.642	-127.435	-74.854	42.960	-127.980	-120.833	-51.901	15.843	-120.923	-115.012	-114.748	-107.031	5.260	-107.555	-8191	255	
6867.959	1	1	0	0	0.074959	0.045834	0.17138	0.14662	0.097907	0.33955	0.11195	0.13137	0.23919	0.22026	0.085569	0.21849	0.065537	0.11016	0.069922	0.14624	-4.7896	-4.7375	-4.5854	-5.2875	-4.5896	-4.9583	-5.0979	-4.4563	-5.1208	-4.7229	-4.6125	-5.1646	-4.6417	-4.8208	-5.0417	-4.6833	-45.184	-88.235	64.857	197.531	125.412	-38.995	73.891	179.325	-45.007	166.754	170.628	98.289	143.493	-131.828	114.327	133.231	0.00043202	0.00032564	0.00011099	1203.8	2.3772e-06	1.969e-06	1266.9	247.5	4.7813e-06	3.0558e-06	308.55	83.957	66.69	18.948	2.389e-06	26.77	0.00026116	0.00023164	6.8257e-05	1185.1	2.8215e-06	2.55e-06	1255.5	245.57	2.8196e-06	2.4091e-06	306.85	84.363	66.616	19.063	2.6278e-06	27.273	116.976	-35.830	-45.300	-127.603	-43.443	39.865	-127.694	-121.081	-47.332	-3.506	-120.930	-115.465	-114.355	-106.904	-25.068	-107.572	-8191	255	
6868.055	1	1	0	0	0.074353	0.16257	0.23066	0.044715	0.21034	0.10653	0.10985	0.019172	0.19119	0.033151	0.23307	0.18417	0.21225	0.10423	0.11947	0.23479	-4.8104	-4.9021	-4.5729	-5.4083	-4.625	-4.7188	-5.3854	-4.6979	-5.1458	-4.8979	-4.4688	-5.05	-4.7354	-4.8187	-5.1375	-4.5312	-53.654	19.348	171.665	81.152	73.151	-2.313	110.021	202.315	39.418	-52.936	186.451	-120.892	-19.837	158.883	-96.515	13.189	0.00041679	0.00021704	8.3688e-05	1200.5	4.003e-06	2.6119e-06	1264.2	246.95	6.1601e-06	2.2465e-06	307.96	83.587	66.122	18.78	3.8217e-06	26.828	0.00026436	0.00022243	6.7788e-05	1184.3	2.9314e-06	2.4634e-06	1251.9	244.85	2.6165e-06	2.3919e-06	306.28	84.324	66.195	19.016	2.4986e-06	27.156	113.648	-71.387	-63.467	-127.632	-63.360	22.822	-127.704	-120.902	-45.228	-0.053	-121.136	-115.168	-114.390	-107.089	-25.850	-107.427	-8191	255	
6868.151	1	1	0	0	0.24851	0.12851	0.25686	0.1434	0.16275	0.1046	0.25747	0.11058	0.046982	0.1252	0.13748	0.12747	0.088894	0.29063	0.068621	0.23361	-4.5083	-5.125	-4.6229	-5.2125	-4.675	-4.8708	-5.2875	-4.6979	-4.9583	-5.0854	-4.5708	-5.1792	-4.7208	-4.5521	-5.0229	-4.6625	-91.031	-101.228	-76.514	221.190	150.508	68.964	188.477	-129.130	94.389	204.488	120.402	-62.718	190.082	-138.063	41.788	118.286	0.0004135	0.00017382	7.9317e-05	1198.8	3.5609e-06	3.3368e-06	1263.2	245.38	4.7841e-06	4.0821e-06	305.94	83.414	66.559	18.871	2.2969e-06	26.685	0.00024797	0.00022813	6.5313e-05	1179.4	2.7848e-06	2.5656e-06	1250.3	243.92	2.7104e-06	2.2931e-06	305.43	83.863	66.358	19.006	2.3793e-06	27.131	113.007	-22.156	-41.309	-127.629	-34.419	25.275	-127.846	-120.654	-81.618	9.722	-120.879	-114.787	-114.851	-107.294	-28.426	-107.231	-8191	255	
6868.247	1	1	0	0	0.17249	0.055057	0.14755	0.23243	0.21548	0.12664	0.26241	0.12326	0.25284	0.17631	0.11218	0.16115	0.17634	0.07942	0.10306	0.15627	-4.3625	-5.0312	-4.5188	-5.0479	-4.8083	-4.5833	-5.4583	-4.7375	-4.8313	-5.1312	-4.6917	-5.05	-4.7917	-4.5729	-5.0917	-4.8771	-29.934	-91.095	120.166	173.777	-14.348	46.516	179.846	190.614	82.811	-67.516	128.805	-109.879	177.470	182.098	215.511	62.164	0.00042256	0.00032858	0.00013848	1195.6	3.3247e-06	2.9937e-06	1260.6	245.39	7.1989e-06	4.2756e-06	307.16	84.199	66.112	18.772	3.087e-06	26.734	0.00025584	0.00021334	6.5313e-05	1176.6	2.7018e-06	2.4959e-06	1246.6	243.5	2.6106e-06	2.3017e-06	305.49	84.204	66.031	18.949	2.2915e-06	27.09	116.890	-37.361	-45.108	-127.873	-29.432	9.062	-127.718	-120.730	-52.597	7.903	-120.763	-115.157	-114.064	-107.155	-39.028	-107.777	-8191	255	
6868.342	1	1	0	0	0.2064	0.068854	0.087703	0.026899	0.10976	0.19863	0.36771	0.31886	0.11639	0.18856	0.15698	0.1217	0.15917	0.13459	0.05467	0.25456	-4.4375	-5.0042	-4.2312	-5.1458	-5.0687	-4.4875	-5.4083	-4.7396	-4.5146	-5.0667	-4.6062	-5.0062	-4.8125	-4.4917	-5.075	-4.9	-110.165	-72.225	88.773	220.503	-70.520	91.759	191.740	-94.843	148.576	-79.892	-98.008	209.894	175.794	-123.840	76.511	128.384	0.00038066	0.00027235	8.9763e-05	1192.4	2.3114e-06	1.8248e-06	1255.1	244.92	5.173e-06	2.3585e-06	305.73	83.569	66.533	18.813	4.4667e-06	26.565	0.00025045	0.00022071	6.2434e-05	1174.9	2.6566e-06	2.4236e-06	1244.8	243.29	2.5566e-06	2.1063e-06	304.8	83.787	66.179	18.925	2.3809e-06	27.037	113.122	-43.758	-43.237	-127.727	-15.275	-13.505	-127.581	-120.951	-70.486	-2.332	-120.892	-114.973	-114.676	-107.425	-16.876	-107.123	-8191	255	
6868.462	1	1	0	0	0.17745	0.054812	0.016549	0.27592	0.30319	0.09211	0.29598	0.066399	0.15487	0.06452	0.2867	0.32536	0.15351	0.013595	0.067283	0.037101	-4.1813	-5.0667	-4.5854	-4.9958	-5.0896	-4.4125	-5.1458	-4.9479	-4.6937	-5.2458	-4.6229	-4.8667	-5.1708	-4.6188	-5.1042	-5	24.976	66.368	-35.868	209.477	108.862	136.661	120.189	183.200	50.886	201.756	176.698	-112.005	56.405	-43.214	103.693	149.051	0.00048633	0.00028537	8.7466e-05	1187.1	4.788e-06	4.2802e-06	1252.3	244.94	6.4054e-06	1.8957e-06	306.69	83.543	66.145	18.769	3.8961e-06	26.531	0.0002566	0.00020127	6.3437e-05	1171.5	2.6796e-06	2.5556e-06	1242.2	242.8	2.5183e-06	2.1093e-06	304.56	83.89	66.101	18.94	2.2698e-06	26.924	114.342	-60.021	-48.792	-127.423	-40.042	17.327	-127.794	-120.919	-69.044	37.921	-120.954	-114.922	-114.470	-107.229	-1.038	-107.109	-8191	255	
6868.558	1	1	0	0	0.23242	0.24294	0.04366	0.25174	0.10352	0.2603	0.28911	0.28946	0.16942	0.044119	0.074351	0.3035	0.12974	0.09942	0.09774	0.083181	-4.2188	-5.0625	-4.6687	-5.0646	-5.1354	-4.5646	-5.3396	-5.0521	-4.6208	-5.225	-4.6562	-4.7958	-5.4083	-4.7271	-4.9	-4.9896	90.842	111.501	48.982	-129.983	48.730	149.169	157.056	215.911	-79.817	-58.206	-128.312	-111.680	137.061	88.708	-78.821	52.095	0.00042636	0.0003627	0.00011607	1189.6	2.92e-06	2.0782e-06	1255	245.31	3.3707e-06	2.3842e-06	305.95	84.358	65.891	18.721	9.8785e-07	26.661	0.00025972	0.00020483	6.0613e-05	1170.5	2.6063e-06	2.3682e-06	1242.3	242.89	2.629e-06	2.3223e-06	303.97	83.813	65.877	18.912	2.2702e-06	26.965	113.710	-52.350	-26.329	-127.684	-60.838	3.108	-127.646	-120.520	-57.602	-20.551	-120.758	-115.012	-114.675	-107.466	-36.108	-107.080	-8191	255	
6868.630	1	1	0	0	0.066736	0.11954	0.17447	0.26931	0.058894	0.11698	0.11509	0.15907	0.25759	0.092329	0.22695	0.20374	0.19045	0.075602	0.2622	0.31982	-4.3896	-5.0125	-4.7208	-4.8896	-5.2625	-4.6479	-5.025	-5.1687	-4.5042	-4.9833	-4.9271	-4.5625	-5.2708	-4.6646	-4.7208	-5.0146	-135.230	49.399	-29.203	-94.619	-24.547	6.943	174.507	147.519	-91.112	-37.099	31.514	-136.484	-11.249	-133.491	-119.997	85.966	0.00043594	0.0003922	0.00014617	1183.8	3.3717e-06	2.1207e-06	1247.3	242.8	5.4983e-06	5.6503e-06	304.21	83.615	65.919	18.744	2.7579e-06	26.539	0.00026715	0.00019511	5.5456e-05	1167.4	2.4881e-06	2.2162e-06	1235.5	241.81	2.586e-06	2.1526e-06	303.4	83.627	65.753	18.841	2.4273e-06	26.966	117.096	-81.479	-31.389	-127.593	-33.918	36.072	-127.774	-120.658	-68.959	5.712	-120.840	-114.686	-114.573	-107.310	-21.292	-107.750	-8191	255	
6868.751	1	1	0	0	0.14681	0.10267	0.27977	0.21714	0.15938	0.091985	0.038821	0.27592	0.28345	0.14853	0.088791	0.20732	0.089604	0.13011	0.13109	0.062689	-4.1521	-4.9563	-4.6875	-4.8562	-5.0604	-4.6	-5.0813	-5.2958	-4.5667	-5.1208	-5.1562	-4.6167	-5.2979	-4.8313	-4.5479	-5.1292	134.937	106.856	176.255	173.053	-18.503	-134.087	162.523	213.171	51.384	1.214	89.452	156.522	123.485	178.766	125.852	-14.053	0.00040917	0.00027155	7.6143e-05	1180.2	2.985e-06	2.5356e-06	1251.8	243.4	5.1769e-06	3.5085e-06	304.2	83.5	65.827	18.681	3.0728e-06	26.571	0.0002484	0.00020959	5.5107e-05	1164.8	2.5041e-06	2.2976e-06	1235.1	241.59	2.5453e-06	2.1217e-06	303.21	83.511	65.733	18.834	2.1755e-06	26.945	112.306	-81.332	-41.069	-127.557	-63.052	7.767	-127.676	-120.810	-70.077	37.019	-120.687	-114.656	-114.469	-106.889	11.699	-107.385	-8191	255	
6868.847	1	1	0	0	0.10273	0.14343	0.18309	0.14135	0.086441	0.14359	0.20604	0.059382	0.082382	0.10773	0.075944	0.30005	0.078341	0.076038	0.059931	0.19455	-4.0792	-5.0625	-5.0062	-4.8625	-5.2542	-4.8229	-4.7812	-5.3521	-4.4958	-4.9271	-5.0813	-4.5708	-5.1625	-4.95	-4.8083	-5.4396	31.818	-60.415	170.573	205.766	-18.954	-122.459	184.821	140.751	155.186	4.934	57.164	209.292	102.114	17.566	114.822	55.852	0.00044569	0.00028159	9.3717e-05	1178	3.5339e-06	1.8432e-06	1245.2	243.16	4.975e-06	3.8423e-06	306.21	82.952	65.524	18.633	4.3893e-06	26.612	0.00025267	0.00019464	5.5325e-05	1162	2.4164e-06	2.1543e-06	1233.3	241.32	2.4482e-06	2.1153e-06	303.15	83.218	65.661	18.771	2.3243e-06	26.891	115.874	-52.431	-27.900	-127.767	-55.867	5.704	-127.942	-120.576	-29.901	-6.084	-120.725	-114.567	-114.245	-106.788	15.188	-107.680	-8191	255	
6868.943	1	1	0	0	0.29672	0.19176	0.13044	0.24559	0.14649	0.082112	0.324	0.14061	0.21417	0.066092	0.13745	0.20648	0.12635	0.1218	0.047862	0.14814	-4.4083	-4.9875	-4.9917	-4.4396	-5.0479	-4.675	-4.6854	-5.3042	-4.7958	-4.9208	-5.1583	-4.6354	-4.9542	-4.8854	-4.6854	-5.3396	-8.465	41.904	26.159	130.937	-104.607	41.503	148.056	159.772	-21.128	79.947	-23.404	139.408	-116.568	29.919	-102.755	217.996	0.00043983	0.00037365	0.00012944	1182.1	1.7927e-06	3.4868e-06	1248.3	242.06	3.9228e-06	1.7142e-06	303.43	83.118	65.687	18.684	3.3075e-06	26.404	0.00024253	0.00019963	5.6612e-05	1162.5	2.554e-06	2.0491e-06	1234.3	241.19	2.303e-06	1.9718e-06	302.08	83.499	65.57	18.855	2.1943e-06	26.855	111.631	-55.203	-32.327	-127.550	-54.677	5.685	-127.751	-120.795	-38.273	-6.191	-120.750	-114.834	-114.310	-107.126	-8.379	-107.187	-8191	255	
6869.039	1	1	0	0	0.20007	0.10054	0.1379	0.23528	0.1276	0.26274	0.073111	0.24732	0.17629	0.0905	0.21169	0.1035	0.065749	0.27366	0.13736	0.13652	-4.4521	-4.8646	-5.1646	-4.8229	-5.1917	-4.9958	-4.7854	-5.2896	-4.5458	-4.7146	-5.0958	-4.7375	-4.9875	-5.1312	-4.6021	-5.2771	48.840	-18.569	158.814	130.440	135.204	-86.817	146.814	-72.317	202.640	156.763	113.758	-85.387	-104.259	212.642	90.153	-59.751	0.00046116	0.00045356	9.9912e-05	1176.7	3.0823e-06	1.3375e-06	1243.3	242.51	2.9495e-06	3.5712e-06	303.37	83.444	65.501	18.579	1.8671e-06	26.356	0.0002399	0.00018589	5.14e-05	1160	2.2589e-06	1.9729e-06	1230.8	240.79	2.3453e-06	2.0556e-06	302.08	83.213	65.326	18.81	2.1377e-06	26.761	112.680	-31.983	-53.186	-127.555	-26.460	-10.853	-127.608	-120.733	-72.817	12.934	-120.967	-114.417	-114.379	-107.324	-26.914	-107.480	-8191	255	
6869.160	1	1	0	0	0.1448	0.10759	0.17974	0.17954	0.094255	0.062894	0.25725	0.054298	0.055139	0.13398	0.12347	0.33476	0.17398	0.05123	0.22491	0.084907	-4.4479	-4.6417	-5.2146	-4.7688	-4.9187	-4.9271	-4.725	-5.4521	-4.8458	-4.8	-5.3	-4.6792	-4.9125	-5.1042	-4.425	-5.1417	-45.959	159.219	-108.325	-138.849	105.435	131.323	51.404	208.513	-134.790	86.161	89.481	150.665	-62.731	193.048	-73.535	64.857	0.00037699	0.00036211	0.00010397	1173.3	1.9756e-06	1.942e-06	1241.3	241.93	5.5854e-06	2.9388e-06	303.07	83.243	65.882	18.58	3.1025e-06	26.276	0.00022561	0.00020268	4.9546e-05	1156	2.3115e-06	2.0733e-06	1226.2	240.44	2.3543e-06	2.0745e-06	300.89	83.206	65.574	18.788	2.1943e-06	26.719	110.445	-53.518	-24.245	-127.647	-32.784	6.523	-127.814	-120.915	-54.095	5.592	-120.970	-114.563	-114.324	-106.924	12.092	-107.419	-8191	255	
6869.254	1	1	0	0	0.13243	0.087213	0.25376	0.29833	0.16663	0.34179	0.11897	0.088649	0.10625	0.09851	0.058445	0.20337	0.075898	0.21847	0.1246	0.1119	-4.4896	-4.6583	-5.3979	-4.9292	-5.0021	-5.0979	-4.7583	-5.2354	-4.9042	-4.6	-5.1312	-4.725	-4.7396	-5.0604	-4.6604	-5.1146	-24.851	79.627	-18.670	185.378	116.956	202.410	189.041	-126.842	40.269	-32.364	-112.814	-49.778	-63.187	106.025	-113.265	-107.272	0.00040511	0.00026026	0.00012986	1172.4	3.1795e-06	2.5683e-06	1236.2	241.71	6.2273e-06	4.3527e-06	302.68	83.295	65.336	18.562	2.4987e-06	26.451	0.00022963	0.0001928	4.826e-05	1155	2.2749e-06	2.0257e-06	1225.5	239.88	2.1922e-06	2.1428e-06	301.38	83.323	65.363	18.786	2.1332e-06	26.78	115.900	-21.158	-23.683	-127.669	-3.629	19.242	-127.685	-120.778	-74.950	-3.562	-120.772	-114.471	-114.387	-107.181	-5.187	-107.501	-8191	255	
6869.352	1	1	0	0	0.13525	0.22813	0.099484	0.29336	0.037764	0.16566	0.3033	0.33752	0.22625	0.038792	0.12864	0.12044	0.1351	0.14248	0.21804	0.24851	-4.5708	-4.4229	-5.2333	-5.0479	-4.825	-5.1979	-4.6896	-5.0979	-5.0896	-4.5583	-5.1979	-4.8313	-4.6021	-5.3438	-4.4313	-4.95	-33.155	-57.951	186.981	209.809	145.861	214.178	114.692	177.248	9.675	15.599	108.214	197.548	135.506	185.490	-133.584	103.897	0.00045579	0.00033808	7.0376e-05	1174.6	3.2529e-06	2.3539e-06	1234.2	242.35	6.8271e-06	3.5989e-06	303.76	83.115	65.531	18.727	7.7313e-07	26.371	0.00023471	0.00019272	4.6482e-05	1156	2.3228e-06	1.9175e-06	1224.8	240.1	2.2819e-06	2.1114e-06	301.48	83.13	65.477	18.857	2.1451e-06	26.73	117.136	-62.286	-45.638	-127.598	-56.049	20.744	-127.825	-120.430	-40.863	-29.465	-120.775	-114.622	-114.488	-106.759	-0.014	-107.531	-8191	255	
6869.447	1	1	0	0	0.031283	0.18324	0.1713	0.19411	0.22259	0.19983	0.21686	0.38887	0.13342	0.15509	0.077706	0.11988	0.28003	0.062194	0.093804	0.089233	-4.6229	-4.4792	-5.1813	-4.9396	-4.6667	-5.1833	-4.8396	-4.9625	-4.9979	-4.5188	-5.1417	-4.9354	-4.7271	-5.1604	-4.5958	-5.0417	-80.331	186.493	119.491	125.190	136.570	-75.195	120.441	168.905	101.719	-10.459	-2.746	91.626	-35.221	-10.276	96.960	126.937	0.00041675	0.00037943	7.5335e-05	1172	3.5803e-06	3.6733e-06	1234.8	243.23	5.3222e-06	2.2264e-06	301.2	83.218	65.255	18.687	3.0928e-06	26.314	0.00023504	0.00019963	5.3886e-05	1154.2	2.3622e-06	1.9668e-06	1223.4	240.48	2.3562e-06	2.2145e-06	300.55	83.092	65.288	18.824	2.173e-06	26.782	111.895	-32.101	-47.347	-127.586	-5.518	13.354	-127.657	-120.362	-52.904	18.526	-120.989	-114.854	-114.118	-107.033	-5.270	-107.070	-8191	255	
6869.543	1	1	0	0	0.14925	0.16663	0.2714	0.072606	0.23218	0.10381	0.39971	0.25672	0.16255	0.15743	0.047309	0.30872	0.090447	0.16177	0.21318	0.17141	-4.8812	-4.5958	-4.8854	-5.025	-4.5542	-5.225	-5.0062	-5.0146	-5.1062	-4.5583	-5.1292	-5.1042	-4.7708	-5.0646	-4.7271	-4.7729	119.367	22.165	-37.079	-115.601	205.074	-45.655	165.619	-110.692	-55.744	56.840	106.656	178.790	78.784	176.972	-17.713	-136.744	0.00043717	0.00035658	8.1227e-05	1170.4	2.781e-06	2.0204e-06	1235	241.64	4.667e-06	3.455e-06	302.88	82.742	65.84	18.647	2.8397e-06	26.222	0.00023343	0.00019425	4.9426e-05	1153.6	2.3611e-06	1.9365e-06	1224.1	239.92	2.213e-06	2.0392e-06	301.41	83.055	65.553	18.819	2.125e-06	26.731	108.812	-56.296	-31.081	-127.725	15.012	18.652	-127.897	-120.635	-44.661	0.469	-120.864	-114.827	-114.330	-107.360	-28.943	-107.266	-8191	255	
6869.639	1	1	0	0	0.14943	0.13969	0.16314	0.15267	0.11567	0.10104	0.2629	0.059763	0.28854	0.1176	0.16635	0.29335	0.082292	0.10283	0.16327	0.078075	-4.7542	-4.4062	-4.925	-5.1	-4.6229	-5.275	-4.9375	-4.7562	-5.3146	-4.6542	-5.1771	-5.0375	-4.35	-5.0604	-4.8438	-4.5625	-33.307	216.965	101.578	204.096	82.264	209.596	111.906	166.717	88.139	173.062	-124.707	118.973	161.663	-133.390	-10.686	-36.435	0.00043999	0.00040182	7.1419e-05	1174.5	3.9573e-06	2.9461e-06	1241	242.62	6.6504e-06	4.4537e-06	302.52	82.536	65.451	18.655	3.88e-06	26.537	0.00023816	0.00019757	5.1116e-05	1156	2.5084e-06	1.9716e-06	1226.5	240.18	2.2051e-06	2.0874e-06	301.33	83.056	65.352	18.803	1.9528e-06	26.744	114.164	-34.534	-44.069	-127.572	-21.893	28.258	-127.509	-120.905	-24.395	-18.342	-120.914	-114.470	-114.490	-106.918	0.157	-107.288	-8191	255	
6869.759	1	1	0	0	0.10689	0.26015	0.22954	0.20108	0.11636	0.089732	0.24778	0.038682	0.043021	0.088918	0.068167	0.085187	0.10158	0.13441	0.29305	0.02565	-4.8125	-4.55	-4.9979	-5.3146	-4.7188	-5.1042	-5.0833	-4.6937	-5.4	-4.7417	-4.8438	-5.0792	-4.4563	-5.0458	-5.1146	-4.7854	-72.873	134.509	194.761	191.581	-117.347	-134.567	150.020	-26.126	113.624	159.648	-93.906	-128.599	-58.833	-7.993	-94.060	20.183	0.00039568	0.00038412	5.5532e-05	1168.2	5.0284e-06	2.9386e-06	1233.9	241.38	6.5783e-06	3.6812e-06	302.03	83.287	65.651	18.506	2.966e-06	26.343	0.00022504	0.00020834	4.7747e-05	1151	2.2901e-06	1.8357e-06	1223.1	240.06	2.164e-06	1.9456e-06	300.95	83.134	65.451	18.802	1.8322e-06	26.673	113.734	-53.121	-40.875	-127.607	-14.206	-1.733	-127.715	-120.621	-33.698	14.844	-120.905	-114.604	-114.524	-106.855	-16.676	-107.046	-8191	255	
6869.856	1	1	0	0	0.10794	0.08931	0.14476	0.32321	0.12705	0.16619	0.16833	0.066713	0.13043	0.048009	0.25575	0.082169	0.2114	0.29885	0.16958	0.086408	-5.0042	-4.8354	-4.725	-5.1208	-4.525	-4.9083	-5.2042	-4.7854	-5.175	-4.7208	-4.8083	-5.1562	-4.5125	-4.8479	-5.0229	-4.6333	126.841	68.651	130.714	126.206	30.818	-8.591	20.497	169.366	90.968	-13.263	195.752	-124.087	-86.014	100.298	-41.851	-6.330	0.00041067	0.0003974	6.0223e-05	1163.5	4.8579e-06	2.6972e-06	1237.6	239.85	3.8353e-06	2.7376e-06	301.88	83.068	64.821	18.502	3.5019e-06	26.302	0.00021288	0.00017001	4.8052e-05	1146.6	2.402e-06	1.7218e-06	1217.8	239	1.9535e-06	1.675e-06	299.88	82.924	64.956	18.725	1.8523e-06	26.679	115.643	-46.406	-39.557	-127.475	-70.745	47.241	-127.508	-120.574	-35.638	0.451	-120.635	-114.810	-114.438	-106.953	-3.970	-107.301	-8191	255	
6869.927	1	1	0	0	0.14837	0.14457	0.076149	0.12185	0.083235	0.084778	0.27546	0.091693	0.11951	0.28211	0.25345	0.091769	0.15096	0.15916	0.14094	0.058494	-4.9917	-4.7812	-4.6375	-5.2792	-4.5333	-4.85	-5.3271	-4.6583	-5.2917	-4.9021	-4.5042	-5.2625	-4.7	-4.9062	-5.2083	-4.7833	58.612	112.787	78.058	208.481	25.569	176.251	140.975	-110.474	217.040	-5.254	104.324	114.595	218.144	158.410	131.397	-128.096	0.00047845	0.00040382	7.9569e-05	1164.1	4.0582e-06	2.1069e-06	1230.2	241.73	4.588e-06	1.7214e-06	301.85	82.872	65.015	18.552	2.3064e-06	26.271	0.00022214	0.0001757	4.9132e-05	1146.7	2.3193e-06	1.9006e-06	1216.1	239.31	2.0638e-06	1.7381e-06	300.45	82.85	65.037	18.772	1.8167e-06	26.603	112.545	-62.853	-54.297	-127.649	-21.327	-2.959	-127.566	-120.603	-61.993	-23.849	-120.584	-114.573	-114.108	-107.045	3.166	-107.042	-8191	255	
6870.023	1	1	0	0	0.22233	0.14743	0.103	0.2742	0.15936	0.3164	0.24337	0.068891	0.34231	0.14938	0.25033	0.14717	0.087936	0.21102	0.30065	0.072176	-4.9313	-5.1917	-4.8187	-5.5292	-4.6687	-4.7542	-5.4146	-4.7917	-5.0896	-4.9542	-4.7688	-5.3125	-4.9271	-4.8708	-5.1833	-4.575	134.240	135.573	141.858	193.233	35.870	-99.395	128.750	-77.754	44.511	108.966	105.037	192.063	-134.520	-119.000	124.405	41.844	0.00036422	0.00032485	0.00010266	1164.9	1.4512e-06	3.4901e-06	1229.2	240.43	5.5331e-06	4.0725e-06	303.3	83.095	65.46	18.677	3.0255e-06	26.396	0.00022731	0.00017887	5.4038e-05	1146.7	2.172e-06	1.9859e-06	1216.5	238.79	2.2838e-06	1.9649e-06	301.11	82.931	65.267	18.842	2.0635e-06	26.712	120.245	-43.669	-42.245	-127.670	-19.091	23.271	-127.645	-120.775	-28.952	16.379	-120.751	-115.193	-114.137	-107.317	23.214	-107.443	-8191	255	
6870.144	1	1	0	0	0.12403	0.12621	0.070142	0.22144	0.15244	0.078393	0.11192	0.17623	0.088824	0.16258	0.0068051	0.1743	0.2306	0.20332	0.055659	0.045617	-4.65	-5.1042	-4.6333	-5.3167	-4.8479	-4.85	-5.3	-4.7312	-5.025	-5.0542	-4.525	-5.0729	-4.8063	-4.7063	-5.1021	-4.7042	44.944	-94.857	195.199	-58.335	33.411	-13.401	88.127	196.851	-54.133	204.744	142.812	67.164	136.361	180.450	-33.896	4.867	0.00046192	0.00032994	0.00011296	1173.1	1.9414e-06	3.1265e-06	1238.9	242.19	5.1389e-06	2.7844e-06	302.1	83.434	65.578	18.693	2.5628e-06	26.355	0.00023201	0.00018679	5.1552e-05	1154.7	2.3357e-06	2.0543e-06	1228.1	240.4	2.5053e-06	2.1273e-06	301.15	83.451	65.469	18.937	2.1952e-06	26.808	113.432	-50.349	-30.527	-127.655	-27.247	13.377	-127.916	-120.883	-43.517	20.165	-120.730	-114.694	-114.409	-106.994	-4.064	-107.534	-8191	255	
6870.238	1	1	0	0	0.078566	0.039794	0.11038	0.20792	0.14557	0.091041	0.21133	0.20667	0.22809	0.11506	0.1064	0.23696	0.032994	0.085879	0.14604	0.13727	-4.5583	-5.2604	-4.5312	-5.425	-4.9812	-4.7729	-5.2937	-4.8187	-4.9896	-5.3417	-4.6062	-5.0583	-4.7625	-4.5542	-5.1813	-4.8292	-26.399	216.061	34.858	186.476	24.309	-95.250	138.270	91.669	-66.974	88.443	21.549	5.319	-17.199	-19.123	183.245	-51.032	0.00044571	0.00031996	5.1944e-05	1181.8	3.1483e-06	1.757e-06	1249.8	242.88	4.8557e-06	3.0695e-06	304.78	83.111	66.07	18.865	4.2996e-06	26.265	0.00024682	0.00021181	6.0646e-05	1163.8	2.5069e-06	2.2643e-06	1233.6	241.33	2.6357e-06	2.2807e-06	303	83.618	65.926	18.993	2.0836e-06	26.853	114.821	-62.678	-33.531	-127.672	-74.149	46.485	-127.780	-120.618	-70.135	19.499	-120.741	-114.644	-114.702	-107.274	8.388	-107.558	-8191	255	
6870.335	1	1	0	0	0.30716	0.12067	0.12628	0.14227	0.33349	0.20257	0.31925	0.12115	0.093699	0.25144	0.10776	0.12	0.072076	0.087547	0.079467	0.2824	-4.4604	-5.2417	-4.7208	-5.1292	-5.0542	-4.6417	-5.3	-4.8021	-4.7104	-5.1958	-4.6604	-4.9458	-4.9646	-4.6062	-5.0521	-4.9146	-15.916	-38.033	36.390	-137.197	82.746	-108.874	96.149	-88.846	184.531	-134.392	-135.136	111.685	-68.969	178.285	74.591	169.470	0.00044005	0.00032876	9.4384e-05	1177.5	3.1787e-06	3.8996e-06	1247	243.43	6.6827e-06	3.5793e-06	304.11	84.204	66.126	18.785	2.3357e-06	26.703	0.00024917	0.00018519	5.5303e-05	1164.6	2.4375e-06	2.3422e-06	1235.5	241.83	2.5339e-06	2.1075e-06	303.53	83.863	65.974	18.998	2.1287e-06	26.965	115.323	-25.884	-37.178	-127.687	-38.716	5.694	-127.817	-120.905	-52.134	23.394	-120.970	-114.921	-114.329	-106.655	-6.946	-107.555	-8191	255	
6870.433	1	1	0	0	0.16207	0.10224	0.14298	0.14216	0.39931	0.20507	0.23866	0.15939	0.15825	0.15587	0.24713	0.2758	0.14636	0.28084	0.24155	0.03019	-4.1625	-5.1	-4.6417	-4.9833	-4.9354	-4.5062	-5.2188	-4.9958	-4.7229	-5.3083	-4.7771	-4.7271	-5.0042	-4.5521	-5.1042	-5.0708	83.822	42.322	20.687	100.924	183.207	-14.833	200.329	41.870	10.648	99.468	212.079	192.179	218.687	105.405	104.025	178.068	0.00049426	0.00025415	0.0001004	1180.5	2.9626e-06	1.8903e-06	1252.1	243.66	4.4828e-06	3.0274e-06	304.55	83.776	66.026	18.897	2.4794e-06	26.421	0.00026608	0.00020147	5.7593e-05	1165.6	2.5108e-06	2.2543e-06	1238.6	241.27	2.3836e-06	2.1088e-06	302.57	83.723	65.835	19.023	2.0799e-06	26.93	111.029	-74.746	-49.955	-127.694	-61.410	34.266	-127.646	-120.583	-37.900	1.770	-121.050	-114.825	-114.584	-107.261	29.164	-107.318	-8191	255	
6870.527	1	1	0	0	0.21839	0.22752	0.19796	0.18491	0.15571	0.13993	0.15241	0.019136	0.12851	0.16159	0.031915	0.024993	0.046315	0.11668	0.12063	0.14623	-4.2604	-5.1813	-4.6958	-5.1562	-5.1375	-4.7333	-5.3354	-4.9625	-4.6375	-5.3313	-5.025	-4.8812	-5.2667	-4.7188	-5.0833	-5.25	-110.131	195.347	-1.068	-137.322	163.227	-65.563	162.283	144.328	182.941	146.284	105.214	-95.663	61.253	-81.948	-31.861	132.999	0.00043403	0.00033365	8.9599e-05	1180.5	3.5144e-06	4.3775e-06	1242.9	242.8	4.9922e-06	3.64e-06	304.8	83.388	66.186	18.968	2.8251e-06	26.581	0.00024646	0.00019436	5.333e-05	1163.1	2.3907e-06	2.1638e-06	1234.7	241.19	2.3132e-06	1.8618e-06	302.67	83.723	65.887	19.077	2.0106e-06	26.914	112.676	-43.188	-43.869	-127.631	5.691	12.526	-127.880	-120.704	-46.817	26.275	-120.904	-114.987	-114.129	-107.175	10.157	-107.449	-8191	255	
6870.623	1	1	0	0	0.1121	0.22551	0.011225	0.38468	0.172	0.073363	0.18405	0.12144	0.21521	0.24248	0.33033	0.30772	0.1118	0.11193	0.09003	0.081256	-4.2312	-5.1104	-4.7146	-4.925	-5.1396	-4.6229	-5.2562	-5.1021	-4.4792	-5.1417	-4.9187	-4.7188	-5.2937	-4.9	-4.9667	-5.2167	180.678	76.148	188.873	181.187	221.074	-93.644	187.966	43.710	-134.397	-94.366	103.490	-100.824	-120.556	147.403	-91.108	108.490	0.00047761	0.00029041	8.4993e-05	1184.3	6.6209e-06	2.5645e-06	1249.4	242.83	3.8399e-06	2.2353e-06	304.52	83.779	66.282	18.787	3.3521e-06	26.482	0.00024351	0.00017379	5.0429e-05	1167	2.257e-06	1.9088e-06	1234	240.95	2.2897e-06	1.7927e-06	301.7	83.567	65.969	18.987	1.9311e-06	26.833	115.978	-51.105	-59.354	-127.571	-30.037	19.488	-127.919	-120.839	-46.821	-5.541	-121.111	-115.035	-114.554	-107.145	12.855	-107.362	-8191	255	
6870.719	1	1	0	0	0.1319	0.097127	0.0095897	0.20439	0.075939	0.30734	0.19776	0.065892	0.19547	0.15502	0.26387	0.14824	0.1434	0.12287	0.027207	0.10906	-4.3875	-5.0542	-4.7708	-4.6396	-5.15	-4.6604	-5.1125	-5.1083	-4.6292	-5.2667	-5.0083	-4.8167	-5.2146	-4.6979	-4.7854	-5.0813	206.417	175.493	164.119	-122.006	27.122	-15.979	144.670	122.709	-33.494	-97.331	198.243	159.877	56.954	205.395	147.670	-121.685	0.00041149	0.00038134	7.8443e-05	1178.4	2.3308e-06	1.1738e-06	1241.6	243.67	5.5414e-06	3.6121e-06	302.98	83.572	66.053	18.867	3.2104e-06	26.591	0.0002363	0.00018375	5.0985e-05	1159.1	2.3154e-06	2.0309e-06	1228.5	241.23	2.3852e-06	1.94e-06	301.52	83.517	65.965	19.052	2.2243e-06	26.915	114.866	-20.653	-47.646	-127.737	-48.662	35.226	-127.679	-120.947	-59.612	9.779	-121.119	-114.656	-114.555	-106.905	9.156	-107.864	-8191	255	
6870.840	1	1	0	0	0.062792	0.048543	0.11323	0.25611	0.35318	0.12608	0.15002	0.050262	0.18239	0.20246	0.081406	0.12693	0.045453	0.15079	0.20655	0.25538	-4.2375	-4.9563	-4.9792	-4.7729	-5.2708	-4.6958	-4.8938	-5.15	-4.4125	-4.9812	-5.0958	-4.5687	-5.3104	-4.8771	-4.8292	-5.3708	-15.413	36.275	-42.731	-99.043	-132.325	51.280	170.956	123.952	155.768	-59.997	176.850	180.757	219.112	94.812	212.720	-132.355	0.00047722	0.0003349	9.5799e-05	1179.7	1.7335e-06	3.4092e-06	1248.8	243.39	4.8215e-06	3.0804e-06	304.81	83.441	66.092	18.999	2.2421e-06	26.57	0.00024589	0.00018691	4.9688e-05	1165.8	2.2881e-06	2.0738e-06	1238.2	242.2	2.3621e-06	1.9194e-06	302.81	83.827	66.029	19.092	2.041e-06	26.948	114.145	-50.479	-31.332	-127.562	-60.056	6.800	-127.643	-120.802	-36.348	13.821	-120.909	-114.854	-114.391	-107.250	-1.923	-107.536	-8191	255	
6870.936	1	1	0	0	0.35833	0.090979	0.053122	0.027076	0.14699	0.24873	0.12146	0.11821	0.18095	0.16698	0.1316	0.12219	0.12018	0.080507	0.15154	0.068658	-4.3063	-4.8938	-4.9708	-4.6229	-5.0875	-4.925	-4.8938	-5.3104	-4.6167	-4.8854	-5.0625	-4.6062	-5.0854	-5.15	-4.6687	-5.3479	129.196	-126.768	-83.060	-78.686	211.734	77.959	170.198	18.901	-118.018	41.826	87.097	-103.212	190.121	118.218	82.685	214.939	0.00049062	0.00025446	0.00011445	1184.8	1.9509e-06	3.1004e-06	1251.1	243.26	4.1665e-06	1.0488e-06	303.6	83.936	65.565	18.87	1.2939e-06	26.268	0.00024504	0.00018742	4.9764e-05	1166.5	2.149e-06	1.8906e-06	1238.9	241.66	2.2658e-06	2.0315e-06	302.67	83.642	65.793	19.04	2.0356e-06	26.873	118.223	-39.411	-46.747	-127.726	-70.422	-5.474	-127.741	-120.525	-26.323	-15.716	-120.800	-114.713	-114.448	-107.126	21.571	-107.544	-8191	255	
6871.032	1	1	0	0	0.18147	0.05282	0.3085	0.24528	0.21212	0.097992	0.22943	0.22997	0.11483	0.10177	0.051676	0.11668	0.1052	0.1078	0.052878	0.069128	-4.4479	-4.9625	-5.0687	-4.7063	-5.2083	-4.8021	-4.7	-5.3479	-4.5375	-4.7083	-5.1979	-4.5312	-4.9125	-5.0667	-4.7771	-5.2667	-121.972	129.581	40.235	140.654	103.303	151.117	217.493	127.374	217.685	133.870	6.246	-91.231	-120.762	-103.851	189.973	166.790	0.00048109	0.00038392	0.0001113	1177.2	3.5724e-06	3.7103e-06	1243.4	242.76	6.1398e-06	4.3526e-06	304.56	83.271	65.726	18.81	3.905e-06	26.661	0.00024477	0.00020139	5.3668e-05	1160.7	2.4133e-06	2.085e-06	1232	241.09	2.4537e-06	2.0874e-06	302.68	83.324	65.704	18.998	2.1976e-06	26.998	116.745	-47.368	-51.099	-127.426	-45.641	25.187	-127.789	-120.806	-59.048	24.821	-120.612	-115.033	-114.605	-107.238	23.257	-107.409	-8191	255	
6871.153	1	1	0	0	0.18909	0.12042	0.2539	0.11989	0.10724	0.038027	0.28565	0.27609	0.18444	0.15254	0.10371	0.018476	0.11162	0.066674	0.095324	0.15335	-4.4625	-4.6792	-5.2167	-4.7063	-5.0521	-5.0271	-4.6062	-5.2458	-4.7104	-4.7063	-5.2833	-4.7	-4.9125	-5.1521	-4.3938	-4.9812	8.558	-67.362	-32.993	118.367	-131.329	44.651	147.178	158.874	118.425	-12.777	177.431	111.390	-118.550	-72.836	-108.574	190.954	0.00041803	0.00024691	8.654e-05	1172.8	4.1158e-06	3.3972e-06	1242.2	242.05	4.1575e-06	4.9578e-06	302.64	83.079	65.161	18.84	3.6628e-06	26.371	0.00023269	0.0001809	4.5457e-05	1158.3	2.1946e-06	1.9647e-06	1226.6	240.56	2.1903e-06	1.9559e-06	300.87	83.293	65.201	18.877	2.0738e-06	26.788	112.976	-44.339	-45.050	-127.494	-34.851	29.127	-127.800	-120.663	-61.330	12.182	-120.824	-114.764	-114.269	-107.023	-0.138	-107.398	-8191	255	
6871.224	1	1	0	0	0.29528	0.11775	0.17791	0.20031	0.29956	0.12235	0.19304	0.073089	0.19467	0.11737	0.17407	0.2957	0.035589	0.036611	0.022751	0.07195	-4.3396	-4.6188	-5.1875	-4.8958	-4.9458	-5.1542	-4.6458	-5.125	-4.9417	-4.6458	-5.2667	-4.5625	-4.7063	-5.0333	-4.6167	-5.1333	213.907	38.725	97.505	196.871	-84.798	18.662	198.390	193.247	99.962	21.869	167.500	80.591	-31.706	104.291	-107.313	162.857	0.00043204	0.00026887	0.00011274	1169.2	1.7675e-06	2.7444e-06	1237.4	239.79	2.7238e-06	4.3751e-06	301.78	82.847	65.268	18.445	2.4265e-06	26.281	0.00022731	0.00017184	4.3953e-05	1152.8	2.2445e-06	1.7863e-06	1223.5	239.17	2.1292e-06	1.9623e-06	300.22	82.819	65.044	18.724	2.0012e-06	26.643	113.723	-40.754	-51.415	-127.677	-8.817	21.492	-127.615	-120.605	-46.022	13.417	-120.726	-114.914	-114.493	-107.097	45.027	-107.275	-8191	255	
6871.319	1	1	0	0	0.25691	0.21739	0.12214	0.14821	0.22368	0.094926	0.15167	0.14893	0.018347	0.16007	0.078999	0.22824	0.097895	0.087225	0.23916	0.16662	-4.4583	-4.6021	-4.9083	-4.6542	-4.6917	-4.9396	-4.5687	-5.0083	-4.9875	-4.5563	-5.3083	-4.7271	-4.7937	-5.3333	-4.6083	-4.9729	153.344	148.228	192.511	156.668	3.759	32.698	201.479	-124.693	27.340	45.770	97.742	147.729	152.003	-52.222	153.939	17.525	0.00040624	0.0003099	0.00011492	1159.4	2.7056e-06	2.8265e-06	1229.6	240.28	6.5902e-06	3.703e-06	301.63	82.182	64.933	18.719	4.3705e-06	26.215	0.00022132	0.00016618	4.5381e-05	1144.7	2.0885e-06	1.6071e-06	1214.8	238.15	1.9981e-06	1.8597e-06	299.37	82.632	64.841	18.798	1.9348e-06	26.663	115.188	-47.379	-30.189	-127.726	-31.603	43.047	-127.679	-120.754	-31.747	23.586	-120.811	-115.053	-114.604	-106.768	0.195	-107.511	-8191	255	
6871.439	1	1	0	0	0.075373	0.258	0.15331	0.069081	0.2091	0.093332	0.10929	0.092809	0.20576	0.19336	0.25284	0.1796	0.21686	0.15066	0.13877	0.12534	-4.6312	-4.4583	-4.9833	-4.7521	-4.7812	-5.1167	-4.7	-5.0125	-4.9979	-4.675	-5.4521	-4.8729	-4.7063	-5.1896	-4.5125	-4.8083	111.790	105.056	-9.572	140.825	-99.605	39.205	25.218	-104.290	157.155	208.910	30.947	180.114	-94.398	19.094	47.768	100.160	0.00044651	0.00019026	0.00010349	1162.5	2.292e-06	4.5734e-06	1227.8	240.51	3.2391e-06	4.0957e-06	300.03	83.03	65.305	18.603	3.1041e-06	26.092	0.00023274	0.00017976	4.2993e-05	1144.4	2.1529e-06	1.6521e-06	1215.2	238.36	2.0959e-06	1.757e-06	298.75	82.818	65.038	18.737	1.8281e-06	26.556	121.075	-38.422	-69.245	-127.617	-17.049	11.113	-127.765	-120.596	-24.473	25.346	-120.727	-114.724	-114.463	-106.878	5.968	-107.427	-8191	255	
6871.536	1	1	0	0	0.14298	0.15028	0.15021	0.13106	0.17146	0.13878	0.25018	0.12552	0.25682	0.026246	0.072633	0.0060627	0.016565	0.04514	0.1124	0.15285	-4.7333	-4.5146	-5.1271	-5.1042	-4.5583	-5.2208	-5.1021	-4.9437	-5.0771	-4.4667	-5.0417	-4.8208	-4.6292	-5.2458	-4.7208	-4.8979	94.358	32.898	-36.395	190.418	-84.407	72.535	168.930	195.425	198.518	207.885	188.682	42.409	165.965	149.328	-56.340	-135.632	0.00041907	0.0002656	7.0583e-05	1158.6	2.0386e-06	1.6077e-06	1224.1	239.31	5.855e-06	2.7507e-06	300.33	82.471	64.891	18.638	1.8507e-06	26.182	0.00021968	0.00016434	4.6319e-05	1141.5	2.0733e-06	1.5361e-06	1210.4	237.84	1.9085e-06	1.7536e-06	298.21	82.546	64.775	18.741	1.781e-06	26.606	110.546	-26.166	-49.823	-127.659	-36.631	24.365	-127.787	-120.739	-42.030	34.649	-120.406	-114.522	-114.407	-107.368	39.582	-107.460	-8191	255	
6871.632	1	1	0	0	0.17278	0.13955	0.2689	0.29596	0.14258	0.10722	0.26389	0.25475	0.070951	0.060638	0.3198	0.032334	0.11919	0.17	0.060896	0.25359	-4.8042	-4.55	-5.0958	-5.2083	-4.7208	-5.275	-4.9875	-4.9021	-5.2479	-4.5729	-4.9125	-5.025	-4.65	-5.1583	-4.7792	-4.775	177.335	52.562	-46.321	212.767	-40.579	35.175	168.189	169.612	72.843	154.697	162.075	203.596	205.016	3.682	17.181	154.845	0.0004782	0.00042741	7.0167e-05	1156.9	2.5451e-06	3.204e-06	1221.5	238.81	7.1049e-06	2.6391e-06	299.25	82.095	64.597	18.549	2.9693e-06	26.312	0.00020741	0.00017418	4.3211e-05	1140.3	2.0437e-06	1.6456e-06	1210.5	237.21	1.813e-06	1.8446e-06	298.15	82.545	64.58	18.75	1.7879e-06	26.567	112.820	-47.814	-36.651	-127.589	-30.062	27.935	-127.843	-120.626	-62.727	-10.638	-120.811	-114.857	-113.944	-106.865	-6.351	-107.307	-8191	255	
6871.728	1	1	0	0	0.1055	0.073039	0.026271	0.20126	0.045674	0.16226	0.021036	0.35221	0.096384	0.038764	0.055915	0.074546	0.086202	0.24567	0.21286	0.074009	-5	-4.7479	-4.8938	-5.3229	-4.7417	-5.1479	-5.0125	-4.4292	-5.1521	-4.7021	-5.0042	-4.9667	-4.4167	-4.9604	-4.8063	-4.7146	74.099	-105.712	-127.878	178.460	-136.194	-5.816	138.912	155.334	49.804	-23.550	187.369	59.647	-33.740	14.522	34.829	146.828	0.00042887	0.00036004	9.0309e-05	1151.1	2.597e-06	3.5719e-06	1218.8	238.7	3.8266e-06	3.0743e-06	299.09	82.018	64.671	18.609	3.1679e-06	26.247	0.00021154	0.00016235	4.3135e-05	1135.9	1.9883e-06	1.7647e-06	1206.5	236.85	1.9652e-06	1.7042e-06	297.12	82.287	64.629	18.694	1.6953e-06	26.534	112.746	-74.498	-36.237	-127.434	-43.685	8.329	-127.864	-120.785	-43.648	34.264	-120.964	-114.669	-114.300	-106.875	-29.108	-107.263	-8191	255	
6871.800	1	1	0	0	0.27731	0.21017	0.11426	0.23288	0.092695	0.1011	0.062721	0.37102	0.06703	0.049212	0.21481	0.11947	0.35817	0.19774	0.052548	0.13655	-4.7042	-4.7958	-4.7167	-5.3417	-4.5333	-4.9833	-5.1417	-4.525	-5.1292	-4.8438	-4.7125	-5.1875	-4.5417	-4.825	-4.8104	-4.5312	-115.062	149.232	-59.246	143.766	126.602	181.135	3.582	189.650	130.171	-42.544	197.867	32.457	86.542	118.868	-95.963	95.822	0.00040071	0.00022005	0.00012199	1148.5	1.8996e-06	3.6881e-06	1212.6	237.37	2.2946e-06	2.1984e-06	298.91	82.083	64.579	18.483	2.4163e-06	26.022	0.0001958	0.00015619	4.1739e-05	1131.2	2.0328e-06	1.7331e-06	1200.7	236.34	1.7699e-06	1.6054e-06	296.4	82.147	64.561	18.671	1.7494e-06	26.529	114.172	-50.507	-41.753	-127.498	-48.802	1.059	-127.672	-120.590	-62.821	16.958	-120.764	-114.766	-114.290	-106.956	-29.498	-107.022	-8191	255	
6871.920	1	1	0	0	0.15584	0.14825	0.17467	0.21668	0.35274	0.1169	0.20273	0.48061	0.033222	0.10225	0.012025	0.11665	0.15354	0.098749	0.15451	0.14178	-4.7792	-4.8958	-4.7542	-5.4688	-4.6667	-4.9125	-5.1458	-4.4917	-5.0542	-4.7771	-4.8167	-5.2542	-4.6562	-4.7792	-5.0854	-4.7583	99.095	-35.642	196.563	202.671	183.474	66.235	192.459	153.705	42.305	-57.007	-138.311	-107.905	191.773	-137.637	141.033	126.278	0.0004487	0.00010841	7.4416e-05	1138.7	3.253e-06	2.5575e-06	1211.1	237.51	5.8254e-06	2.4513e-06	297.28	82.037	64.512	18.535	2.5275e-06	26.121	0.00020831	0.00015146	4.3331e-05	1125.7	2.007e-06	1.6421e-06	1198.1	235.7	1.7441e-06	1.5792e-06	296.02	82.114	64.478	18.681	1.5718e-06	26.512	112.708	-41.029	-36.113	-127.699	-16.128	-4.685	-127.567	-120.750	-55.293	8.877	-120.636	-114.942	-114.388	-106.668	-0.625	-107.268	-8191	255	
6872.016	1	1	0	0	0.10682	0.11106	0.19186	0.0090524	0.11682	0.13268	0.2993	0.24553	0.16303	0.20884	0.13223	0.16408	0.11107	0.17014	0.072412	0.15514	-4.8688	-4.9667	-4.7312	-5.0979	-4.5042	-4.7792	-5.2979	-4.7188	-5.0521	-4.9292	-4.6687	-5.1146	-4.625	-4.7292	-5.2521	-4.6312	40.368	178.335	-127.387	139.996	-42.836	-41.240	168.777	192.908	-32.163	199.826	148.996	151.077	-85.016	146.591	-137.331	150.438	0.00040337	0.00022072	9.2067e-05	1147.1	2.5312e-06	3.5033e-06	1219.3	236.85	4.863e-06	3.6659e-06	298.93	82.222	64.892	18.491	2.7946e-06	26.277	0.00019902	0.00015435	4.5708e-05	1128.6	1.9809e-06	1.6569e-06	1200	235.61	1.9308e-06	1.5946e-06	296.29	82.155	64.48	18.683	1.6707e-06	26.503	114.872	-11.508	-34.886	-127.449	-43.387	-5.450	-127.636	-120.683	-67.856	17.004	-120.661	-114.851	-114.157	-106.682	8.953	-107.325	-8191	255	
6872.113	1	1	0	0	0.18938	0.13681	0.1551	0.23576	0.074496	0.086143	0.25597	0.13384	0.22326	0.19606	0.23912	0.087153	0.17699	0.041733	0.13661	0.15561	-4.7688	-4.85	-4.4313	-5.2354	-4.825	-4.6417	-5.4167	-4.8083	-4.9792	-5.0167	-4.5125	-5.0271	-4.7042	-4.5333	-5.2	-4.8583	14.624	-56.135	-72.334	-81.658	-14.195	23.803	82.358	143.668	-71.940	213.299	135.696	13.717	78.866	-113.125	64.087	168.496	0.00039704	0.00024123	9.2057e-05	1146.9	4.6517e-06	3.5031e-06	1215.3	237.42	3.4395e-06	4.2537e-06	298.17	82.276	64.462	18.464	2.5433e-06	26.17	0.00021627	0.00016345	4.573e-05	1130.6	2.0195e-06	1.7006e-06	1202.9	235.97	1.9679e-06	1.806e-06	296.77	82.251	64.489	18.738	1.7736e-06	26.573	116.165	-58.800	-42.176	-127.460	-33.807	3.229	-127.765	-120.702	-56.732	15.414	-120.820	-114.811	-113.808	-107.013	7.450	-107.433	-8191	255	
6872.233	1	1	0	0	0.046543	0.32076	0.071319	0.39723	0.22243	0.15029	0.16231	0.26778	0.042004	0.21546	0.30497	0.13498	0.16828	0.1009	0.048149	0.12797	-4.5708	-4.9792	-4.6354	-5.1333	-4.7688	-4.5854	-5.2229	-4.5563	-4.9	-4.9521	-4.5854	-4.8292	-4.7208	-4.5354	-5.1062	-4.6167	24.453	-106.850	209.474	-125.246	-42.594	177.555	150.721	72.098	76.704	-54.431	154.364	6.622	186.126	-69.233	73.577	167.602	0.00043947	0.000425	0.00010167	1152.3	4.1583e-06	2.4254e-06	1224.9	239	5.6915e-06	4.1791e-06	298.34	82.27	65.187	18.597	3.1129e-06	26.132	0.00022356	0.00016446	5.0527e-05	1135	2.0593e-06	1.9933e-06	1208	236.84	2.2909e-06	1.8885e-06	297.43	82.415	64.964	18.75	1.863e-06	26.594	111.904	-63.871	-24.807	-127.576	-56.518	-1.200	-127.765	-120.607	-41.010	10.620	-120.830	-114.473	-114.321	-106.800	-15.614	-107.593	-8191	255	
6872.328	1	1	0	0	0.090518	0.030277	0.24959	0.24697	0.083228	0.17606	0.18938	0.098966	0.10605	0.20493	0.097059	0.063562	0.13577	0.23882	0.13115	0.18317	-4.4333	-5.2271	-4.6021	-5.175	-4.9313	-4.5417	-5.3646	-4.7312	-4.5896	-5.2833	-4.7812	-5.0667	-5.0208	-4.65	-4.9833	-4.7479	167.578	109.269	95.204	211.129	-14.615	-124.125	215.412	102.262	149.034	97.957	-93.249	-19.188	116.714	-95.747	101.925	88.065	0.00042404	0.00025952	0.0001182	1155.3	4.3836e-06	1.8484e-06	1224.6	239.01	5.1428e-06	4.4368e-06	298.71	82.482	64.786	18.564	2.8858e-06	26.318	0.00023184	0.00016665	4.6918e-05	1140.7	2.1685e-06	1.9452e-06	1209.8	237.41	2.204e-06	1.7931e-06	297.79	82.587	64.805	18.726	1.9548e-06	26.65	113.439	-43.132	-40.133	-127.744	-33.460	-13.599	-127.753	-120.497	-72.455	37.527	-120.672	-114.843	-114.633	-106.933	9.213	-107.687	-8191	255	
6872.424	1	1	0	0	0.077294	0.094848	0.2329	0.31069	0.030291	0.1995	0.19527	0.17474	0.17439	0.1977	0.18117	0.037922	0.23314	0.14328	0.19118	0.12346	-4.0417	-4.9583	-4.4771	-5.0479	-5.2	-4.6729	-5.35	-5.0563	-4.6083	-5.2917	-4.65	-4.9208	-5.0062	-4.5583	-4.875	-4.7354	153.060	-61.248	-132.199	180.907	7.589	33.466	125.584	138.402	126.456	219.323	144.578	-125.956	85.730	-130.160	-95.305	-124.144	0.00042978	0.00038848	0.00010678	1155.9	1.8291e-06	2.7638e-06	1224.4	238.86	3.3989e-06	5.027e-06	298.61	82.518	64.94	18.597	1.3532e-06	26.306	0.00023124	0.00016954	4.9208e-05	1141.7	2.1369e-06	2.0833e-06	1213.1	237.64	2.3981e-06	2.0251e-06	298.17	82.681	64.966	18.783	2.1529e-06	26.722	105.646	-40.621	-32.483	-127.704	-12.852	18.277	-127.790	-120.714	-51.531	10.871	-120.840	-115.015	-114.258	-107.094	-1.794	-107.324	-8191	255	
6872.520	1	1	0	0	0.065863	0.10322	0.16681	0.27457	0.11384	0.056604	0.17577	0.052607	0.089203	0.29759	0.066317	0.13844	0.14998	0.35022	0.17517	0.099762	-4.225	-5.0458	-4.5958	-4.85	-4.9333	-4.5	-5.1583	-4.9062	-4.6542	-5.1354	-4.6937	-4.85	-5.0729	-4.4458	-5.0271	-5.0333	-49.055	220.741	-117.235	193.987	79.034	-34.051	167.142	-99.491	13.876	-94.638	219.628	-131.777	178.648	-101.896	73.007	-57.184	0.00045817	0.00033552	0.00013946	1166.1	2.4249e-06	3.0493e-06	1233.6	241.11	2.2393e-06	4.5941e-06	303.66	83.513	65.258	18.604	2.7726e-06	26.407	0.00024635	0.00019105	5.6808e-05	1150.8	2.418e-06	2.1595e-06	1222.5	239.19	2.2635e-06	1.9572e-06	300.6	83.161	65.391	18.853	2.0734e-06	26.822	107.588	-45.834	-39.299	-127.443	-36.846	29.019	-127.853	-120.693	-14.484	33.927	-120.718	-114.508	-114.156	-107.099	-10.505	-107.476	-8191	255	
6872.616	1	1	0	0	0.13395	0.06079	0.053697	0.090908	0.14901	0.40868	0.1491	0.12799	0.053607	0.062075	0.069119	0.11571	0.18985	0.043038	0.16928	0.013927	-4.2896	-5.1875	-4.7771	-4.8333	-5.1417	-4.3958	-5.0458	-5.0458	-4.4667	-5.2417	-4.9792	-4.7292	-5.2792	-4.5437	-4.9708	-5.0396	50.488	-40.944	-109.821	112.865	6.004	25.205	135.279	190.139	-21.919	157.684	140.114	146.830	49.519	8.113	75.912	204.493	0.00042853	0.00029217	0.00010934	1173.1	8.1867e-07	1.8074e-06	1238.2	241.74	6.5193e-06	3.8987e-06	300.88	82.67	65.581	18.716	4.5814e-06	26.168	0.0002481	0.00019417	5.5053e-05	1155.1	2.2632e-06	2.1335e-06	1223	239.4	2.4482e-06	2.0753e-06	299.63	82.887	65.431	18.922	2.2185e-06	26.769	109.258	-59.626	-43.254	-127.458	-98.746	14.560	-127.640	-120.739	-23.593	2.377	-121.062	-115.161	-114.879	-107.342	-14.791	-107.434	-8191	255	
6872.712	1	1	0	0	0.11816	0.066088	0.35637	0.28533	0.18487	0.27404	0.18863	0.1336	0.25412	0.21936	0.24128	0.28178	0.24764	0.1209	0.11404	0.14032	-4.1979	-5.0896	-4.925	-4.7146	-5.2667	-4.6521	-4.9812	-5.1958	-4.4708	-5.0333	-5.1813	-4.7188	-5.1729	-4.8708	-4.7979	-5.3	79.282	-12.765	31.809	200.317	86.083	-46.971	214.657	140.740	68.374	79.014	216.971	192.821	184.032	204.385	-133.881	157.212	0.00040475	0.00032009	0.0001107	1167.6	2.551e-06	3.5943e-06	1235.4	240.68	7.2832e-06	4.3231e-06	300.61	82.961	65.19	18.644	3.127e-06	26.229	0.00024217	0.00018414	5.2501e-05	1150.5	2.3345e-06	2.0599e-06	1221.4	238.88	2.2873e-06	1.9022e-06	298.92	82.899	64.869	18.785	1.8396e-06	26.679	110.080	-29.305	-59.198	-127.564	-33.177	1.854	-127.526	-120.781	-37.920	-3.059	-121.068	-115.117	-114.287	-107.168	-3.419	-107.247	-8191	255	
6872.833	1	1	0	0	0.062539	0.041264	0.24371	0.12773	0.1193	0.20511	0.28058	0.044946	0.11968	0.040393	0.26916	0.19482	0.23049	0.010851	0.24774	0.12215	-4.1417	-5.0312	-4.925	-4.8667	-5.2604	-4.7708	-5.025	-5.3688	-4.6188	-4.9792	-5.1417	-4.5188	-5.2688	-4.95	-4.6104	-5.1937	8.087	56.469	-7.930	145.649	107.718	-45.327	200.346	0.944	-9.876	-91.529	106.715	148.366	70.396	20.521	179.301	-32.800	0.00040974	0.00015675	9.3981e-05	1153.3	2.438e-06	4.5026e-06	1224.7	239.77	5.1976e-06	3.3021e-06	298.81	82.404	64.884	18.57	5.0615e-06	26.416	0.00022561	0.00016985	4.7278e-05	1139.8	2.0363e-06	1.8253e-06	1211.1	237.6	2.0693e-06	1.9099e-06	297.64	82.555	64.754	18.784	2.1033e-06	26.72	113.949	-68.397	-18.306	-127.691	-79.159	13.725	-127.540	-120.584	-70.227	0.047	-120.794	-114.666	-114.392	-107.090	-2.803	-107.370	-8191	255	
6872.929	1	1	0	0	0.10772	0.064689	0.10524	0.12982	0.11983	0.12946	0.27904	0.25229	0.041325	0.09739	0.15151	0.33127	0.097337	0.01965	0.16589	0.026198	-4.1625	-4.9125	-4.9896	-4.7667	-5.175	-4.825	-4.925	-5.275	-4.6771	-4.9979	-5.2375	-4.5833	-5.2667	-4.9854	-4.6354	-5.1813	-65.168	-48.740	-62.462	113.796	199.205	-82.301	126.577	-87.225	-134.143	-5.493	165.442	136.461	206.629	129.665	177.869	-52.255	0.00044343	0.00016831	0.00011116	1157	3.256e-06	3.1607e-06	1225.2	239.33	5.2671e-06	4.1379e-06	298.26	82.148	64.957	18.622	2.2741e-06	26.425	0.00022712	0.00018074	4.9841e-05	1140.8	2.2219e-06	2.0586e-06	1212.8	237.77	2.3194e-06	1.8893e-06	297.37	82.511	64.941	18.804	1.9204e-06	26.715	108.546	-37.784	-39.888	-127.373	-12.651	-8.507	-127.741	-120.702	-60.163	21.869	-120.659	-114.746	-114.325	-107.540	-17.675	-107.331	-8191	255	
6873.025	1	1	0	0	0.1692	0.14346	0.12088	0.10861	0.094417	0.10161	0.23929	0.24374	0.34963	0.084101	0.31175	0.36373	0.04691	0.043696	0.1022	0.28771	-4.3646	-4.7021	-4.9958	-4.5292	-4.7771	-4.7708	-4.6937	-5.2667	-4.5771	-4.7708	-5.0896	-4.4229	-4.8812	-4.7729	-4.5458	-5.2562	40.142	-78.690	174.482	142.860	-5.876	-120.640	139.144	-134.586	70.083	-123.113	183.951	217.295	23.195	-69.134	146.188	-114.728	0.00041217	0.00031488	6.7373e-05	1157.1	2.6353e-06	2.6344e-06	1221.9	238.69	3.5712e-06	4.3013e-06	299.96	82.649	65.134	18.686	2.6687e-06	26.418	0.00022608	0.00018515	4.8608e-05	1141	2.1755e-06	1.6867e-06	1211.3	237.49	2.1472e-06	1.9473e-06	297.77	82.817	64.96	18.865	1.9311e-06	26.73	108.571	-42.938	-56.681	-127.609	-28.164	-5.518	-127.764	-120.667	-49.683	32.534	-121.168	-114.512	-114.414	-107.286	-31.061	-107.304	-8191	255	
6873.097	1	1	0	0	0.1521	0.086193	0.16764	0.13402	0.13742	0.20397	0.11006	0.20907	0.19123	0.14597	0.10559	0.12625	0.13148	0.12544	0.13108	0.11665	-4.5062	-4.8438	-5.2458	-4.6792	-5.0312	-5.2104	-4.8417	-5.5271	-4.9042	-4.8458	-5.2917	-4.4917	-4.8021	-4.9417	-4.4563	-5.1229	204.742	38.778	36.190	86.422	175.143	106.129	-106.585	192.366	165.122	134.067	-120.635	70.654	-44.676	150.885	-38.610	190.504	0.0004239	0.00031368	6.6695e-05	1156.9	3.0992e-06	2.7238e-06	1224.7	237.72	4.1601e-06	2.6495e-06	297.87	82.771	64.766	18.615	3.842e-06	26.405	0.00022138	0.00016719	4.5763e-05	1140.4	2.062e-06	1.6538e-06	1211.3	236.9	2.0345e-06	1.7699e-06	296.77	82.714	64.752	18.816	1.9261e-06	26.736	114.614	-49.706	-48.619	-127.726	-49.896	4.406	-127.732	-120.611	-57.031	25.840	-121.017	-114.361	-114.419	-106.735	-21.372	-107.640	-8191	255	
6873.216	1	1	0	0	0.13964	0.2228	0.17554	0.10408	0.21954	0.12789	0.096223	0.1957	0.27327	0.10912	0.14472	0.19454	0.18619	0.25314	0.25357	0.081391	-4.4437	-4.7104	-4.8958	-4.75	-4.925	-5.1646	-4.7625	-5.1896	-4.9979	-4.4437	-5.2708	-4.5917	-4.5667	-4.9854	-4.4917	-4.9917	-94.567	34.875	191.406	-104.405	210.430	107.720	170.922	32.824	44.495	-37.651	125.498	147.162	92.743	-133.928	-79.287	56.711	0.0004201	0.00032402	0.00011964	1156.9	2.5822e-06	2.3202e-06	1222.4	238	6.6384e-06	4.5974e-06	299.18	82.191	64.68	18.761	2.6635e-06	26.319	0.00021867	0.00016649	4.2819e-05	1139.6	2.0492e-06	1.704e-06	1209	236.74	1.912e-06	1.9778e-06	296.64	82.44	64.572	18.809	1.8568e-06	26.683	115.556	-43.165	-59.290	-127.626	-32.759	10.821	-127.689	-120.795	-42.605	-6.730	-120.796	-114.442	-114.267	-107.397	-9.616	-107.300	-8191	255	
6873.312	1	1	0	0	0.079137	0.16672	0.1051	0.23638	0.18286	0.05433	0.18944	0.15332	0.1635	0.12239	0.14711	0.079165	0.14034	0.09693	0.20798	0.12557	-4.5604	-4.6479	-4.9437	-4.8229	-4.6375	-5.25	-4.85	-4.9917	-4.9	-4.5396	-5.1062	-4.6188	-4.6625	-5.1875	-4.3646	-5.0813	8.726	-68.728	-114.168	77.414	61.649	71.366	-133.078	-129.862	-100.062	130.542	151.863	192.905	-89.640	76.519	163.656	122.305	0.00045448	0.00035224	6.5819e-05	1155.8	3.1736e-06	2.9034e-06	1221.4	238.63	3.8543e-06	2.4353e-06	298.42	81.958	64.336	18.642	4.123e-06	26.384	0.0002219	0.0001759	4.4759e-05	1137.9	2.1938e-06	1.7296e-06	1208.4	236.44	2.146e-06	1.9628e-06	297.22	82.388	64.691	18.842	2.0467e-06	26.717	112.141	-44.704	-20.070	-127.615	-24.316	33.377	-127.840	-120.538	-39.565	15.232	-120.824	-114.686	-113.915	-106.792	5.862	-107.440	-8191	255	
6873.408	1	1	0	0	0.23804	0.11458	0.13785	0.18298	0.094807	0.21782	0.065985	0.068578	0.10899	0.18728	0.040919	0.14183	0.079588	0.109	0.25237	0.20501	-4.6083	-4.4229	-5.0521	-4.9208	-4.5687	-5.2104	-4.75	-4.9583	-4.9187	-4.4146	-5.0604	-4.7396	-4.4854	-5.2063	-4.7271	-4.9229	-74.660	112.497	145.352	197.442	-39.883	73.018	133.362	-52.083	191.572	-84.598	197.148	-99.578	163.745	-74.312	-118.553	-42.672	0.00038347	0.00032877	0.00013356	1154.5	1.9112e-06	2.7619e-06	1225.2	239.15	6.4617e-06	2.8119e-06	298.75	82.514	64.864	18.458	2.5723e-06	26.318	0.00022364	0.00018695	4.9328e-05	1137.3	2.3642e-06	1.8309e-06	1209.6	237.07	2.1222e-06	2.0788e-06	297.4	82.578	64.868	18.734	2.059e-06	26.657	118.565	-60.306	-47.346	-127.648	-11.355	4.486	-127.768	-120.869	-34.565	29.004	-120.670	-114.982	-114.233	-106.970	-1.083	-107.397	-8191	255	
6873.504	1	1	0	0	0.10872	0.10687	0.27224	0.2559	0.060731	0.10511	0.18334	0.083301	0.068022	0.026098	0.048731	0.073203	0.083752	0.11667	0.12871	0.056184	-4.8229	-4.5583	-4.9396	-4.9729	-4.6792	-5.2729	-4.8271	-4.7229	-5.0875	-4.5667	-4.95	-4.8917	-4.5021	-5.2396	-4.7396	-4.8729	218.921	140.251	97.106	159.548	20.767	-125.368	148.864	79.665	113.196	-116.244	141.099	129.173	192.066	141.773	176.011	132.647	0.00042891	0.00028562	6.7403e-05	1154.5	1.4411e-06	2.6039e-06	1221.5	238.73	4.05e-06	4.004e-06	298.93	81.913	63.854	18.618	2.6013e-06	26.26	0.00023356	0.00019155	4.9513e-05	1137.3	2.2909e-06	1.7733e-06	1209	237	2.0662e-06	2.1797e-06	296.85	82.263	64.596	18.706	2.0865e-06	26.55	114.888	-34.450	-19.455	-127.491	-18.606	5.475	-127.728	-120.491	-52.705	5.483	-120.665	-115.058	-114.345	-107.004	8.789	-107.141	-8191	255	
6873.625	1	1	0	0	0.35653	0.25173	0.21467	0.27249	0.020574	0.24385	0.20895	0.078063	0.094534	0.24647	0.10757	0.13098	0.095674	0.25468	0.12414	0.16802	-4.8729	-4.6562	-5.0333	-4.9333	-4.4375	-5.1813	-4.9313	-4.9021	-5.0875	-4.6583	-5.0375	-5.2042	-4.6667	-5.1604	-4.9604	-4.85	50.083	195.545	150.161	199.081	220.121	-69.316	180.047	81.114	97.063	71.826	155.921	-67.640	-67.322	-113.229	211.525	-16.847	0.00042378	0.00041736	6.9106e-05	1154.1	3.9032e-06	2.447e-06	1223.4	238.94	6.2258e-06	2.9439e-06	297.94	81.828	64.56	18.439	2.2742e-06	26.155	0.00023173	0.00020178	5.2065e-05	1137.7	2.3404e-06	1.9309e-06	1208.7	237.06	2.2654e-06	2.1557e-06	296.72	82.16	64.583	18.61	2.0283e-06	26.403	109.481	-40.779	-9.884	-127.495	9.855	32.582	-127.851	-120.526	-49.900	22.446	-120.691	-114.614	-114.195	-106.998	-2.035	-107.317	-8191	255	
6873.696	1	1	0	0	0.14931	0.15133	0.26201	0.19089	0.035278	0.13955	0.21868	0.14222	0.072797	0.21644	0.13498	0.25421	0.17522	0.20751	0.033348	0.14719	-5.05	-4.7125	-5	-5.1792	-4.5833	-5.2396	-5.0375	-4.6979	-5.2917	-4.5792	-4.8896	-5.2125	-4.6958	-5.0417	-4.8354	-4.6062	116.334	-127.341	-71.212	177.959	180.724	-64.180	219.623	-133.455	51.169	-10.127	79.288	179.649	128.282	-113.518	88.744	-91.426	0.00045714	0.00053297	8.6569e-05	1153.3	3.8732e-06	2.0234e-06	1221.2	237.87	6.1096e-06	3.9576e-06	297.01	81.847	64.307	18.366	2.1633e-06	26.032	0.00022818	0.00019405	5.1138e-05	1135.4	2.4172e-06	2.079e-06	1207.2	236.12	2.1961e-06	2.0637e-06	297.08	82.081	64.267	18.56	2.0619e-06	26.419	112.536	-54.242	-52.817	-127.533	-52.620	21.376	-127.657	-120.527	-52.705	19.343	-120.693	-114.717	-114.264	-106.786	-22.185	-107.252	-8191	255	
6873.793	1	1	0	0	0.16701	0.065923	0.11182	0.29623	0.10224	0.048031	0.19874	0.11763	0.15344	0.075738	0.081336	0.15629	0.1037	0.13193	0.062579	0.19709	-4.9917	-4.7167	-4.7896	-5.3958	-4.5958	-4.9917	-5.1521	-4.5854	-5.1896	-4.8917	-4.8333	-5.2646	-4.6438	-4.9958	-4.9625	-4.6271	58.838	148.771	-74.986	149.805	92.640	-36.740	35.384	58.494	26.457	168.634	188.834	173.015	-25.448	-44.560	90.657	-107.522	0.00039026	0.00034898	8.1613e-05	1150.4	3.4308e-06	4.6203e-06	1225.8	237.75	4.192e-06	2.7225e-06	298.42	81.787	64.275	18.346	4.6207e-06	25.69	0.00024154	0.00018917	5.4191e-05	1137.6	2.4768e-06	2.1612e-06	1209.2	236.48	2.2263e-06	2.0169e-06	297.33	81.964	64.252	18.603	2.1119e-06	26.381	112.978	-64.912	-46.003	-127.518	-9.164	11.225	-127.810	-120.498	-65.825	8.861	-120.900	-114.668	-114.257	-106.722	-13.549	-107.639	-8191	255	
#DATA ENDS
