BOXY.EXE: ISS Imagent and Oximeter Data Acquisition Program Version 0.80
Ascii Record File

#ACQ INFORMATION
2  Detector Channels 
16  External MUX Channels 
1  Auxiliary Channels 
5000  Waveform (CCF) Frequency (Hz)
1  Waveforms Skipped 
30  Waveforms Averaged 
1  Cycles Averaged 
16  Acquisitions per Waveform 
10.0806  Updata Rate (Hz) 

#FILE INFORMATION
TRUE -- External MUX Channel results are PARSED.
FALSE -- AC DC and Phase are NOT grouped.
TRUE -- Companion Program Settings File CREATED.
FALSE -- AC data not excluded
FALSE -- DC data not excluded
FALSE -- Phase data not excluded
FALSE -- Auxillary Chn. data not excluded
Tab delimiters

#CALIBRATION STATE
TRUE -- Waveform Calibration Values APPLIED.


#AUX CALIBRATION VALUES
Val Type	aux-1	

Term	1.0000e+00	
Factor	0.0000e+00	


#WF CALIBRATION VALUES
A = Detector Channel
Val Type	A-AC1	A-AC2	A-AC3	A-AC4	A-AC5	A-AC6	A-AC7	A-AC8	A-AC9	A-AC10	A-AC11	A-AC12	A-AC13	A-AC14	A-AC15	A-AC16	A-DC1	A-DC2	A-DC3	A-DC4	A-DC5	A-DC6	A-DC7	A-DC8	A-DC9	A-DC10	A-DC11	A-DC12	A-DC13	A-DC14	A-DC15	A-DC16	A-Ph1	A-Ph2	A-Ph3	A-Ph4	A-Ph5	A-Ph6	A-Ph7	A-Ph8	A-Ph9	A-Ph10	A-Ph11	A-Ph12	A-Ph13	A-Ph14	A-Ph15	A-Ph16	

Term	0.00000e+00	0.00000e+00	0.00000e+00	0.00000e+00	0.00000e+00	0.00000e+00	0.00000e+00	0.00000e+00	0.00000e+00	0.00000e+00	0.00000e+00	0.00000e+00	0.00000e+00	0.00000e+00	0.00000e+00	0.00000e+00	0.00000e+00	0.00000e+00	0.00000e+00	0.00000e+00	0.00000e+00	0.00000e+00	0.00000e+00	0.00000e+00	0.00000e+00	0.00000e+00	0.00000e+00	0.00000e+00	0.00000e+00	0.00000e+00	0.00000e+00	0.00000e+00	0.00000e+00	0.00000e+00	0.00000e+00	0.00000e+00	0.00000e+00	0.00000e+00	0.00000e+00	0.00000e+00	0.00000e+00	0.00000e+00	0.00000e+00	0.00000e+00	0.00000e+00	0.00000e+00	0.00000e+00	0.00000e+00	
Factor	1.00000e+00	1.00000e+00	1.00000e+00	1.00000e+00	1.00000e+00	1.00000e+00	1.00000e+00	1.00000e+00	1.00000e+00	1.00000e+00	1.00000e+00	1.00000e+00	1.00000e+00	1.00000e+00	1.00000e+00	1.00000e+00	1.00000e+00	1.00000e+00	1.00000e+00	1.00000e+00	1.00000e+00	1.00000e+00	1.00000e+00	1.00000e+00	1.00000e+00	1.00000e+00	1.00000e+00	1.00000e+00	1.00000e+00	1.00000e+00	1.00000e+00	1.00000e+00	X	X	X	X	X	X	X	X	X	X	X	X	X	X	X	X	

B = Detector Channel
Val Type	B-AC1	B-AC2	B-AC3	B-AC4	B-AC5	B-AC6	B-AC7	B-AC8	B-AC9	B-AC10	B-AC11	B-AC12	B-AC13	B-AC14	B-AC15	B-AC16	B-DC1	B-DC2	B-DC3	B-DC4	B-DC5	B-DC6	B-DC7	B-DC8	B-DC9	B-DC10	B-DC11	B-DC12	B-DC13	B-DC14	B-DC15	B-DC16	B-Ph1	B-Ph2	B-Ph3	B-Ph4	B-Ph5	B-Ph6	B-Ph7	B-Ph8	B-Ph9	B-Ph10	B-Ph11	B-Ph12	B-Ph13	B-Ph14	B-Ph15	B-Ph16	

Term	0.00000e+00	0.00000e+00	0.00000e+00	0.00000e+00	0.00000e+00	0.00000e+00	0.00000e+00	0.00000e+00	0.00000e+00	0.00000e+00	0.00000e+00	0.00000e+00	0.00000e+00	0.00000e+00	0.00000e+00	0.00000e+00	0.00000e+00	0.00000e+00	0.00000e+00	0.00000e+00	0.00000e+00	0.00000e+00	0.00000e+00	0.00000e+00	0.00000e+00	0.00000e+00	0.00000e+00	0.00000e+00	0.00000e+00	0.00000e+00	0.00000e+00	0.00000e+00	-2.19236e+02	-1.31854e+02	-1.24135e+02	-1.81681e+02	-8.58735e+01	-6.72878e+01	-1.57568e+02	-1.62015e+02	-8.41279e+01	-6.72097e+01	-1.71278e+02	-1.72824e+02	-1.84035e+02	-1.76898e+02	-7.35276e+01	-1.49611e+02	
Factor	5.03203e-05	1.86684e-04	5.35002e-05	1.55221e-01	2.21823e-06	1.93863e-06	1.70040e-01	5.39350e-02	2.78813e-06	2.02691e-06	8.86941e-02	3.59107e-02	3.83696e-02	9.50516e-03	2.03926e-06	1.37819e-02	1.31170e-05	1.87377e-05	5.23375e-06	7.87103e-02	1.87137e-07	2.07811e-07	8.13289e-02	2.73734e-02	1.87871e-07	2.06201e-07	4.39296e-02	1.77345e-02	1.96596e-02	4.87883e-03	1.96838e-07	6.87861e-03	X	X	X	X	X	X	X	X	X	X	X	X	X	X	X	X	



#DISTANCE SETTINGS
A = Detector Channel
A-1	A-2	A-3	A-4	A-5	A-6	A-7	A-8	A-9	A-10	A-11	A-12	A-13	A-14	A-15	A-16	

2.5000e+00	3.0000e+00	2.5000e+00	3.0000e+00	2.0000e+00	3.0000e+00	1.5000e+00	3.0000e+00	3.0000e+00	3.0000e+00	3.0000e+00	3.0000e+00	3.0000e+00	3.0000e+00	1.5000e+00	3.0000e+00	

B = Detector Channel
B-1	B-2	B-3	B-4	B-5	B-6	B-7	B-8	B-9	B-10	B-11	B-12	B-13	B-14	B-15	B-16	

1.0000e+01	1.0000e+01	1.0000e+01	1.4400e+00	1.0000e+01	1.0000e+01	1.5100e+00	1.9400e+00	1.0000e+01	1.0000e+01	1.9900e+00	2.4900e+00	2.4100e+00	2.9000e+00	1.0000e+01	2.9800e+00	




#DATA BEGINS
time	group	step	mark	flag	A-AC1	A-AC2	A-AC3	A-AC4	A-AC5	A-AC6	A-AC7	A-AC8	A-AC9	A-AC10	A-AC11	A-AC12	A-AC13	A-AC14	A-AC15	A-AC16	A-DC1	A-DC2	A-DC3	A-DC4	A-DC5	A-DC6	A-DC7	A-DC8	A-DC9	A-DC10	A-DC11	A-DC12	A-DC13	A-DC14	A-DC15	A-DC16	A-Ph1	A-Ph2	A-Ph3	A-Ph4	A-Ph5	A-Ph6	A-Ph7	A-Ph8	A-Ph9	A-Ph10	A-Ph11	A-Ph12	A-Ph13	A-Ph14	A-Ph15	A-Ph16	B-AC1	B-AC2	B-AC3	B-AC4	B-AC5	B-AC6	B-AC7	B-AC8	B-AC9	B-AC10	B-AC11	B-AC12	B-AC13	B-AC14	B-AC15	B-AC16	B-DC1	B-DC2	B-DC3	B-DC4	B-DC5	B-DC6	B-DC7	B-DC8	B-DC9	B-DC10	B-DC11	B-DC12	B-DC13	B-DC14	B-DC15	B-DC16	B-Ph1	B-Ph2	B-Ph3	B-Ph4	B-Ph5	B-Ph6	B-Ph7	B-Ph8	B-Ph9	B-Ph10	B-Ph11	B-Ph12	B-Ph13	B-Ph14	B-Ph15	B-Ph16	aux-1	digaux	

6792.336	1	1	0	768	0.14041	0.0054944	0.063208	0.19775	0.087069	0.22545	0.15004	0.20072	0.19191	0.057694	0.18138	0.20184	0.075182	0.25619	0.061979	0.14077	-4.9938	-4.8479	-4.7979	-5.2438	-4.6417	-5.1646	-5.0125	-4.7125	-5.1792	-4.6229	-4.8229	-5.3458	-4.7438	-5.2146	-4.9542	-4.5813	0.393	4.657	80.362	172.688	-116.095	35.622	37.699	149.172	159.935	-119.512	146.995	103.610	129.181	94.878	-77.720	-60.606	0.0012861	0.00054545	0.00011903	1359.9	6.0709e-06	6.0237e-06	1358.2	368.28	1.2547e-05	6.8478e-06	419.73	141.87	122.66	42.018	5.539e-06	51.631	0.00070635	0.00067378	0.00018452	1385.2	7.0987e-06	7.2626e-06	1385	376.53	7.2503e-06	7.3906e-06	429.32	144.88	125.67	43.372	7.5975e-06	53.542	108.931	-76.377	-107.539	-163.128	-90.565	-4.490	-163.524	-158.536	-72.010	-46.075	-159.028	-155.304	-154.807	-149.601	-28.973	-150.416	-8191	255	
6792.432	1	1	0	0	0.23436	0.11543	0.10358	0.092505	0.061542	0.25614	0.23629	0.12097	0.063819	0.15037	0.19805	0.11312	0.31878	0.15367	0.13707	0.15602	-4.8792	-4.7375	-4.8354	-5.5563	-4.5479	-5.1396	-5.4563	-4.7125	-5.0958	-4.9333	-4.7	-5.3375	-4.7542	-4.8833	-4.9604	-4.6479	-27.898	-121.944	31.641	-153.644	-156.632	120.007	122.148	103.679	-42.883	30.570	-139.376	-175.459	139.837	-88.982	-50.049	179.228	0.0012339	0.00036839	9.4752e-05	1363.1	6.5359e-06	4.285e-06	1364.5	370.7	1.1814e-05	2.7076e-06	419.46	142.04	123.27	42.114	4.7742e-06	51.823	0.00071004	0.00067467	0.0001932	1389.7	7.1826e-06	7.3643e-06	1390.6	377.43	7.0553e-06	7.0525e-06	430.44	145.14	126.22	43.474	7.167e-06	53.713	108.036	-108.128	-79.190	-163.030	-79.312	-4.995	-163.292	-158.679	-64.178	-32.505	-159.079	-155.275	-154.770	-149.473	-10.051	-150.325	-8191	255	
6792.528	1	1	0	0	0.17179	0.039876	0.021409	0.05716	0.17619	0.039984	0.16017	0.22251	0.083763	0.17999	0.19695	0.36284	0.31485	0.12053	0.13193	0.095399	-4.6771	-5.0021	-4.9313	-5.4708	-4.6813	-4.8979	-5.2688	-4.8313	-5.1104	-4.9667	-4.7688	-5.1354	-4.8562	-4.8146	-5.1917	-4.8167	-62.427	107.140	110.129	-124.949	141.832	33.022	127.806	155.524	37.063	118.463	139.907	102.669	153.019	6.212	106.782	125.822	0.0013262	0.00061688	0.0001612	1369.4	4.6257e-06	3.2037e-06	1366.2	370	1.2191e-05	6.3556e-06	421.62	142.93	124.07	42.352	4.5628e-06	51.951	0.00070307	0.00066905	0.00019038	1391.3	7.2933e-06	7.4249e-06	1392.1	378.22	7.354e-06	7.6496e-06	431.76	145.7	126.74	43.653	7.2998e-06	53.796	108.289	-87.090	-83.924	-162.970	-67.166	5.465	-163.317	-158.741	-75.244	-39.769	-159.350	-155.310	-154.575	-149.854	-36.405	-150.553	-8191	255	
6792.624	1	1	0	0	0.11546	0.024497	0.043939	0.15104	0.24502	0.11044	0.20862	0.29931	0.19573	0.13489	0.057673	0.16733	0.12899	0.1787	0.10354	0.13283	-4.5042	-5.0938	-4.4187	-5.4125	-4.9812	-4.7479	-5.4167	-4.6125	-5.05	-5.2979	-4.7458	-5.2562	-5.1292	-4.7562	-5.3562	-4.6979	-70.775	-164.134	58.246	175.360	125.117	-123.782	100.777	-175.588	-167.778	-18.888	32.660	114.312	-67.581	162.764	142.574	114.596	0.0012974	0.0007346	0.00016916	1370.4	5.8173e-06	6.5158e-06	1371.4	370.09	1.026e-05	4.7625e-06	423.28	143.05	123.37	42.411	5.7333e-06	52.219	0.00070665	0.00066917	0.00018452	1394.4	7.0141e-06	6.9292e-06	1395.6	378.56	7.0201e-06	7.0697e-06	431.84	145.82	126.57	43.714	6.8733e-06	53.946	110.777	-96.014	-92.367	-163.029	-74.080	-19.152	-163.376	-158.735	-64.407	-2.818	-159.115	-155.118	-154.810	-149.721	-46.458	-150.416	-8191	255	
6792.719	1	1	0	0	0.075171	0.11026	0.13284	0.1831	0.034725	0.15795	0.29127	0.092149	0.20117	0.23429	0.12744	0.17288	0.19029	0.26316	0.14166	0.16214	-4.6312	-5.0833	-4.6021	-5.225	-4.9313	-4.7104	-5.4729	-4.9604	-4.9292	-5.2375	-4.5667	-5.1875	-4.95	-4.7875	-5.3042	-4.6125	21.897	109.096	60.847	73.956	50.358	18.823	169.212	103.613	71.428	-68.238	151.623	174.556	14.924	-65.094	-23.102	137.723	0.0012553	0.00055166	0.00010554	1370.9	4.2554e-06	6.2117e-06	1364	371.51	1.0335e-05	3.4977e-06	422.78	142.05	124.02	42.484	4.3178e-06	52.445	0.00068971	0.00063372	0.00017586	1395.6	6.719e-06	7.1478e-06	1394.6	378.93	7.1281e-06	6.9064e-06	432.34	146.23	127.05	43.813	7.1079e-06	54.146	110.236	-83.643	-92.921	-162.931	-62.874	-15.215	-163.660	-158.749	-71.798	-2.584	-159.119	-155.259	-154.509	-149.805	-32.115	-150.472	-8191	255	
6792.815	1	1	0	0	0.091226	0.19782	0.13774	0.14414	0.10097	0.27156	0.14987	0.35481	0.086538	0.15705	0.13307	0.1389	0.18004	0.18362	0.13198	0.25198	-4.6083	-5.1188	-4.6583	-5.5188	-4.8833	-4.7417	-5.45	-4.9083	-4.9563	-5.1562	-4.7729	-5.0938	-5.2479	-4.6958	-5.0833	-4.9417	-13.022	-85.147	160.764	109.531	-126.695	66.684	170.176	127.178	-95.164	-33.883	160.785	92.980	107.922	157.811	-162.376	115.588	0.0012703	0.00068247	0.0001082	1371.9	6.0607e-06	3.9169e-06	1376.9	372.48	8.4733e-06	5.6766e-06	424.27	142.91	124.28	42.428	4.6925e-06	52.086	0.00071012	0.00066936	0.00018402	1398.5	7.291e-06	7.3249e-06	1399.6	380.05	7.2741e-06	7.2853e-06	433.22	146.12	126.98	43.828	7.3179e-06	54.022	108.705	-85.376	-83.354	-163.045	-74.092	-22.311	-163.461	-158.843	-89.423	-26.588	-159.178	-155.223	-154.792	-149.765	-50.978	-150.527	-8191	255	
6792.935	1	1	0	0	0.13717	0.11602	0.13844	0.16369	0.12103	0.1474	0.26163	0.099249	0.096321	0.083594	0.086207	0.26545	0.058743	0.20096	0.25173	0.20073	-4.3042	-5.2021	-4.6292	-5.1229	-5.2042	-4.65	-5.3583	-4.8875	-4.6	-5.2833	-4.7917	-5.0938	-5.3125	-4.8521	-5.1708	-5.1146	-102.052	-51.800	161.092	-159.222	27.969	20.084	115.905	144.594	173.338	-136.347	26.970	130.227	-113.802	52.435	62.455	132.855	0.0013305	0.00046378	0.00015445	1373.3	5.4639e-06	6.3822e-06	1371.9	371.73	7.4254e-06	6.5624e-06	424.03	142.55	124.28	42.409	4.4145e-06	52.273	0.00074955	0.00069357	0.00019847	1398.7	7.4695e-06	7.7856e-06	1399.5	379.84	7.4792e-06	7.4713e-06	433.5	145.83	127.07	43.77	7.4926e-06	53.997	109.880	-81.011	-97.292	-162.973	-79.609	-9.780	-163.396	-158.565	-65.675	-18.843	-159.012	-155.388	-154.880	-149.612	-31.096	-150.703	-8191	255	
6793.032	1	1	0	0	0.17509	0.089243	0.19327	0.38545	0.012665	0.10587	0.25242	0.030533	0.040168	0.18302	0.091542	0.10452	0.12947	0.11645	0.1832	0.29452	-4.2354	-5.1979	-4.6792	-5.0292	-5.0833	-4.4729	-5.5104	-5.0167	-4.8083	-5.2521	-4.7937	-4.9812	-5.1542	-4.6271	-4.9396	-5.0458	-154.126	-72.998	-79.869	109.169	-132.486	72.743	138.372	101.518	-4.894	134.696	-31.337	181.936	116.396	177.982	132.736	100.561	0.001375	0.00058548	0.00016985	1373.3	7.6443e-06	5.7511e-06	1374.6	372.64	1.0348e-05	4.0443e-06	424.85	143.2	124.48	42.539	6.6366e-06	52.159	0.00075026	0.00066839	0.00019093	1401.4	7.3596e-06	7.5721e-06	1401.6	380.42	7.4847e-06	7.3781e-06	434.4	146.34	127.28	43.81	7.3802e-06	53.988	107.398	-80.099	-71.575	-163.070	-58.741	-20.052	-163.490	-158.826	-77.324	-37.064	-158.977	-155.311	-154.567	-149.488	-62.853	-150.579	-8191	255	
6793.128	1	1	0	0	0.13862	0.063367	0.13342	0.13703	0.11628	0.12781	0.32044	0.10373	0.20711	0.082142	0.17761	0.14487	0.16821	0.084852	0.095398	0.24296	-4.2812	-5.1833	-4.8604	-5.0271	-5.2146	-4.6062	-5.1333	-5.2917	-4.4313	-5.1438	-5.0479	-4.725	-5.1667	-4.8729	-4.8917	-5.0792	-174.733	-168.008	5.957	154.408	37.808	-52.593	104.392	154.826	-161.984	-77.636	69.473	155.015	89.016	-4.245	-120.434	-175.085	0.001247	0.00049047	0.00014514	1373.9	6.6685e-06	5.7186e-06	1370.1	372.03	9.0625e-06	4.6383e-06	422.51	142.25	123.44	42.255	3.4336e-06	51.957	0.0007439	0.00066167	0.00018614	1399.6	7.0941e-06	7.3188e-06	1397.3	379.8	7.0542e-06	6.9649e-06	433.03	145.51	126.45	43.655	6.7569e-06	53.741	108.396	-94.124	-71.710	-163.035	-61.789	-20.241	-163.139	-158.725	-66.323	-21.113	-159.256	-155.190	-154.795	-149.565	-70.838	-150.545	-8191	255	
6793.224	1	1	0	0	0.044977	0.17551	0.20962	0.29281	0.097616	0.029919	0.30062	0.41867	0.2288	0.18597	0.36237	0.15366	0.13888	0.11713	0.15874	0.0848	-4.2688	-5.1021	-4.8042	-4.8083	-5.1333	-4.8938	-5.05	-5.3458	-4.5854	-4.9875	-5.0708	-4.7396	-5.2708	-4.85	-4.7542	-5.3083	-32.942	-175.878	8.453	123.147	-74.707	20.379	149.335	110.693	-76.863	94.212	125.801	119.138	160.790	-153.418	70.481	-47.746	0.0012502	0.00047125	0.00021667	1371.2	8.1312e-06	4.8904e-06	1368.7	371.88	1.1618e-05	6.4015e-06	423.72	142.58	124.18	42.295	4.7209e-06	51.959	0.00068023	0.00059914	0.00017198	1396.8	6.6594e-06	6.6556e-06	1395.8	379.18	6.7865e-06	6.6019e-06	432.03	145.23	126.4	43.463	6.3177e-06	53.736	108.767	-77.447	-75.299	-163.136	-51.701	-45.387	-163.479	-158.741	-71.403	-14.898	-159.274	-155.452	-155.010	-149.648	-51.826	-150.394	-8191	255	
6793.320	1	1	0	0	0.069289	0.052837	0.16848	0.18381	0.16958	0.020904	0.16588	0.2424	0.21978	0.14193	0.27374	0.025419	0.24999	0.099765	0.049276	0.31822	-4.2688	-5.0646	-5.0417	-4.6229	-5.2375	-4.6604	-4.9625	-5.2646	-4.7021	-4.9292	-5.2125	-4.7854	-5.3708	-4.8542	-4.7021	-5.3479	140.515	-104.521	113.966	159.524	-107.913	29.686	119.762	95.521	102.368	159.115	153.879	-103.546	-92.426	180.759	87.454	153.212	0.001291	0.00054826	0.0001517	1372.8	2.688e-06	3.7987e-06	1370.3	370.74	9.7626e-06	5.2224e-06	421.31	141.38	123.67	42.182	6.2086e-06	52.038	0.00067399	0.00058809	0.00016437	1394	6.1697e-06	6.4694e-06	1396.6	378.28	6.3661e-06	6.2101e-06	431.74	145.03	126.01	43.382	6.1791e-06	53.64	104.555	-97.270	-85.423	-162.934	-64.083	-8.856	-163.451	-158.664	-58.339	-41.450	-159.137	-155.033	-154.846	-149.650	-40.617	-150.431	-8191	255	
6793.416	1	1	0	0	0.18251	0.33973	0.16539	0.32527	0.11348	0.21965	0.31067	0.13117	0.19529	0.1182	0.13241	0.13889	0.059939	0.18112	0.20793	0.1176	-4.3417	-4.8938	-5.075	-4.8646	-5.2208	-4.8562	-5.1021	-5.2958	-4.8146	-5	-5.25	-4.6208	-5.1896	-4.8667	-4.7979	-5.3604	103.817	162.564	128.822	155.161	-48.752	-78.762	125.460	111.356	36.166	-33.698	136.308	68.638	119.034	-81.167	-167.758	30.068	0.0013049	0.00039168	8.614e-05	1367.3	6.4286e-06	5.5703e-06	1366.8	369.57	1.3751e-05	5.6248e-06	421.63	141.78	123.31	42.077	7.0273e-06	51.832	0.00064538	0.00054706	0.00014961	1391.6	5.9771e-06	6.0235e-06	1391.6	377.66	6.1583e-06	6.1349e-06	431.07	145.11	126.01	43.337	6.0917e-06	53.681	105.509	-86.074	-55.042	-162.846	-59.647	-35.972	-163.381	-158.788	-86.707	-32.232	-159.123	-155.070	-154.598	-149.491	-48.589	-150.355	-8191	255	
6793.537	1	1	0	0	0.13589	0.18592	0.084948	0.12562	0.12746	0.059817	0.24343	0.30508	0.16126	0.051407	0.15849	0.27632	0.28174	0.11387	0.11035	0.2098	-4.25	-4.8375	-5.1292	-4.7625	-5.1479	-5.1104	-4.7229	-5.3667	-4.7104	-4.8458	-5.1438	-4.5125	-5.4583	-4.9521	-4.6146	-5.3896	-167.252	-99.692	-160.253	149.485	-165.776	113.910	89.886	154.959	20.351	-172.466	158.324	105.664	129.515	176.657	-139.484	0.143	0.0012947	0.00070129	0.00013772	1370.4	7.1514e-06	5.2067e-06	1366.2	370.95	1.0402e-05	6.3513e-06	422.53	141.62	123.31	42.039	7.0345e-06	51.841	0.00065727	0.0005674	0.00015611	1392.6	6.0929e-06	6.178e-06	1392	377.85	6.2498e-06	6.0971e-06	431.14	144.99	126.1	43.355	6.5555e-06	53.592	107.163	-88.727	-98.700	-162.893	-51.411	-27.040	-163.466	-158.594	-77.546	-11.553	-159.243	-155.116	-154.573	-149.607	-68.601	-150.398	-8191	255	
6793.631	1	1	0	0	0.075379	0.080454	0.15792	0.45902	0.12412	0.17832	0.15822	0.19257	0.11485	0.12619	0.20197	0.15806	0.1103	0.29896	0.058021	0.045501	-4.4833	-4.8479	-5.0542	-4.8271	-4.9625	-5.1979	-4.7021	-5.4688	-4.5708	-4.925	-5.5062	-4.5646	-4.8458	-5.1	-4.5437	-5.1708	31.712	108.819	-155.651	137.242	-125.428	171.572	79.031	102.377	-7.152	19.124	116.528	-165.406	167.044	-157.000	26.500	-126.256	0.0013225	0.00038963	0.0001415	1368.6	7.5398e-06	5.9618e-06	1364.5	370.3	8.597e-06	5.0002e-06	421.81	141.99	123.72	42.161	7.6069e-06	51.786	0.00066047	0.00059824	0.00016022	1392.7	6.3295e-06	6.3205e-06	1394	378.14	6.4444e-06	6.3402e-06	431.4	145.19	126.18	43.467	6.551e-06	53.714	107.743	-105.291	-90.619	-163.080	-78.254	-38.029	-163.565	-158.868	-85.854	-45.437	-159.127	-154.993	-154.450	-149.873	-62.629	-150.584	-8191	255	
6793.727	1	1	0	0	0.085615	0.03497	0.10036	0.25758	0.20762	0.12201	0.18082	0.26374	0.1217	0.12178	0.52662	0.15652	0.052995	0.15812	0.036678	0.13103	-4.7583	-4.5125	-5.3271	-4.6708	-4.7333	-5.1979	-4.7	-5.3604	-4.9	-4.6125	-5.3521	-4.6979	-4.85	-5.2479	-4.4812	-5.225	119.700	32.611	23.508	183.257	107.858	-151.223	94.890	-118.494	-121.761	160.939	179.406	84.915	28.489	-173.413	-49.946	148.444	0.00131	0.00054628	9.7178e-05	1370.2	8.8225e-06	4.1748e-06	1369.7	370.23	1.0586e-05	5.4257e-06	422.52	142.2	123.76	42.146	6.1132e-06	52.033	0.00066536	0.0005991	0.00015971	1394.2	6.3927e-06	6.4183e-06	1394.6	377.98	6.534e-06	6.6268e-06	431.77	145.21	126.14	43.455	6.6289e-06	53.771	107.348	-94.004	-77.318	-162.997	-52.632	-29.825	-163.596	-158.745	-86.657	-22.993	-159.081	-155.213	-154.841	-149.365	-60.236	-150.558	-8191	255	
6793.823	1	1	0	0	0.32053	0.23482	0.13649	0.2845	0.36229	0.11166	0.20112	0.13015	0.024925	0.10984	0.12509	0.10143	0.23305	0.036034	0.051049	0.026533	-4.5396	-4.4646	-5.1771	-4.8958	-4.9021	-5.2083	-4.7708	-5.1021	-4.8646	-4.4542	-5.3854	-4.6125	-4.8292	-5.2708	-4.5167	-5.1271	-170.635	29.349	8.917	112.452	68.301	-74.298	-133.848	96.629	-38.952	-114.430	46.581	65.922	-80.351	146.336	-169.967	-141.562	0.0013339	0.00055839	0.00016572	1370.8	6.8799e-06	6.0983e-06	1365.7	370.13	1.1547e-05	5.6281e-06	423.14	142.7	123.06	42.12	7.2914e-06	51.918	0.00067383	0.00060823	0.00015919	1393.8	6.6403e-06	6.304e-06	1393.9	378.49	6.5833e-06	6.4442e-06	431.93	145.39	126.06	43.479	6.46e-06	53.633	108.089	-98.954	-92.899	-162.971	-88.385	-33.008	-163.680	-158.524	-87.588	-20.632	-158.864	-155.284	-154.730	-149.760	-36.014	-150.377	-8191	255	
6793.897	1	1	0	0	0.077595	0.19735	0.25523	0.216	0.16358	0.16423	0.40224	0.17858	0.16571	0.14771	0.11723	0.12568	0.21717	0.27746	0.12834	0.16429	-4.7083	-4.6562	-5.0875	-4.9146	-4.7458	-5.1542	-5	-4.9021	-4.9604	-4.5021	-5.3083	-4.9729	-4.6021	-5.3917	-4.5375	-5.1062	129.268	177.067	36.435	170.669	141.330	119.687	115.554	111.126	120.020	119.712	-137.181	-39.986	-151.206	-158.119	116.094	163.273	0.0012321	0.0006152	0.0001584	1368.3	6.2954e-06	3.2513e-06	1367.2	369.24	1.1772e-05	6.6297e-06	422.11	142.42	123.54	42.223	6.0403e-06	52.087	0.00066126	0.0006071	0.00016651	1394	6.5615e-06	6.2573e-06	1394	378.06	6.5215e-06	6.4962e-06	431.91	145.26	126.28	43.542	6.6207e-06	53.74	108.521	-72.448	-76.871	-163.084	-69.169	-37.853	-163.522	-158.605	-61.081	-20.095	-159.105	-155.271	-154.642	-149.755	-47.187	-150.381	-8191	255	
6794.016	1	1	0	0	0.10431	0.28091	0.18284	0.28674	0.10863	0.18269	0.33649	0.30337	0.14634	0.15728	0.21996	0.23042	0.067112	0.33501	0.10467	0.1842	-4.8938	-4.5729	-5.1562	-5.0854	-4.6312	-5.1583	-4.9771	-5.1771	-5.3187	-4.7042	-5.2271	-4.9333	-4.7125	-5.3688	-4.7063	-5.0042	181.387	-119.292	-153.184	124.660	38.071	-148.091	102.310	100.794	-87.795	-122.905	153.226	142.664	78.597	-155.233	-156.478	45.716	0.0012803	0.00035632	0.00011462	1372.9	6.5325e-06	5.1472e-06	1368.3	371.03	1.1069e-05	4.8993e-06	422.27	142.39	123.14	42.32	5.9049e-06	51.892	0.0006688	0.00058637	0.00016383	1396.8	6.4414e-06	6.2581e-06	1396.4	378.51	6.2107e-06	6.3583e-06	431.69	145.42	126.18	43.544	6.3226e-06	53.785	108.342	-95.745	-76.889	-162.845	-80.290	-25.775	-163.346	-158.609	-66.654	-39.980	-159.007	-155.246	-154.705	-149.700	-29.950	-150.368	-8191	255	
6794.112	1	1	0	0	0.18991	0.31076	0.12452	0.24649	0.2026	0.19509	0.14382	0.15376	0.10941	0.084132	0.17096	0.11046	0.14842	0.12746	0.19917	0.20267	-4.925	-4.5854	-4.9771	-5.1875	-4.5938	-5.1292	-5.0146	-5.0563	-5.2667	-4.6583	-4.9313	-5.0792	-4.6583	-5.3354	-4.7458	-4.8854	-141.133	150.011	-58.268	139.803	-53.855	-169.890	-51.780	116.077	152.250	61.473	125.239	-171.617	161.961	152.661	159.769	-173.107	0.0013715	0.00068813	0.00014036	1369.9	7.8311e-06	5.9484e-06	1368.6	371.35	1.2258e-05	2.93e-06	421.72	143.13	124.21	42.159	4.2495e-06	51.928	0.0006603	0.0005852	0.00016129	1396.7	6.6247e-06	6.3296e-06	1395.5	378.66	6.3403e-06	6.5984e-06	431.82	145.75	126.69	43.509	6.4801e-06	53.754	104.850	-101.113	-102.234	-163.108	-54.994	-29.870	-163.568	-158.454	-54.547	0.527	-158.998	-155.272	-154.378	-149.512	-53.154	-150.517	-8191	255	
6794.208	1	1	0	0	0.090453	0.043547	0.045633	0.34356	0.18485	0.19168	0.13305	0.35569	0.049368	0.12916	0.15857	0.21472	0.17894	0.099878	0.14328	0.23396	-4.6667	-4.55	-4.9604	-5.2583	-4.6667	-4.975	-5.1729	-4.7125	-5.1458	-4.675	-4.9625	-5.1083	-4.5021	-5.2667	-4.8083	-4.6479	22.480	-42.837	87.701	116.858	53.146	-64.770	148.264	116.094	168.064	-16.655	-149.192	174.295	-2.791	-151.154	112.023	-122.280	0.0012491	0.00034495	0.00011267	1375.8	3.7311e-06	5.8489e-06	1367	371.64	7.7335e-06	3.9544e-06	421.82	142.3	123.39	42.2	6.1281e-06	51.894	0.00065779	0.00058969	0.00016354	1398	6.5061e-06	6.3278e-06	1395.6	379.16	6.4581e-06	6.1929e-06	431.63	145.31	126.36	43.523	6.3632e-06	53.744	107.849	-122.369	-80.899	-163.185	-41.502	-39.844	-163.454	-158.522	-86.997	-36.032	-159.248	-155.451	-154.580	-149.552	-51.825	-150.245	-8191	255	
6794.329	1	1	0	0	0.097609	0.22478	0.17809	0.24469	0.072098	0.2932	0.35202	0.20813	0.085959	0.1346	0.19791	0.17685	0.13489	0.27332	0.26255	0.16008	-4.9	-4.5292	-4.8187	-5.1958	-4.5417	-5.0958	-5.1479	-4.6292	-5.125	-4.6042	-4.9625	-5.325	-4.4667	-4.9938	-4.8625	-4.7792	156.421	177.464	-33.379	-162.489	-108.774	-80.959	74.913	-147.587	-164.579	-28.204	158.922	-162.377	-174.931	147.555	119.290	107.462	0.0012628	0.00086908	0.00012657	1375.1	8.2889e-06	4.6024e-06	1368.8	372.1	1.3533e-05	5.6758e-06	422.78	141.69	123.1	42.22	5.6259e-06	51.876	0.00065508	0.00058629	0.00016725	1398.6	6.5752e-06	6.4547e-06	1396.9	378.94	6.4667e-06	6.5778e-06	432.57	145.35	126.24	43.516	6.4305e-06	53.679	108.284	-72.234	-67.501	-163.085	-77.921	-6.510	-163.529	-158.783	-74.662	-17.190	-158.958	-155.054	-154.842	-149.870	-47.426	-150.548	-8191	255	
6794.423	1	1	0	0	0.22132	0.13814	0.13309	0.59328	0.11667	0.052148	0.15026	0.090483	0.22435	0.16224	0.11207	0.22958	0.084429	0.043631	0.063898	0.29766	-4.7625	-4.6625	-4.6896	-5.3083	-4.675	-5.2458	-5.1229	-4.7	-5.1458	-4.6604	-4.7562	-5.4021	-4.825	-4.9167	-4.9187	-4.7146	140.264	164.058	-52.892	156.402	2.776	-72.495	110.510	46.693	-81.652	-111.033	135.374	142.380	-86.643	29.756	-11.432	114.876	0.0013938	0.00063992	0.00017641	1373	5.8314e-06	5.9245e-06	1370.4	371.3	1.2395e-05	5.3055e-06	423.6	142.55	123.09	42.163	5.0961e-06	51.865	0.00066388	0.00060975	0.00017028	1397.2	6.6707e-06	6.6707e-06	1396.2	378.98	6.6373e-06	6.796e-06	432.98	145.22	126.07	43.45	6.736e-06	53.645	108.716	-99.953	-77.906	-162.863	-54.529	-18.035	-163.303	-158.644	-80.294	-10.691	-159.086	-155.454	-154.623	-149.468	-52.349	-150.329	-8191	255	
6794.497	1	1	0	0	0.28	0.028786	0.10009	0.16248	0.152	0.083937	0.29401	0.23775	0.23398	0.065631	0.20754	0.12819	0.10603	0.25908	0.19975	0.018026	-4.8	-4.8521	-4.6958	-5.4417	-4.5167	-4.8917	-5.3854	-4.4688	-4.925	-5.0854	-4.8292	-5.3625	-4.7688	-4.9125	-5.1792	-4.5437	144.730	-48.908	30.738	-161.767	-69.686	-110.900	135.744	-131.112	163.088	-12.625	78.785	175.428	-164.453	174.532	-175.850	-14.284	0.0012569	0.0007164	0.00013503	1373.5	4.7839e-06	6.0997e-06	1367.3	371.14	9.1274e-06	3.4539e-06	423.3	142.21	123.31	42.104	5.002e-06	52.152	0.00068031	0.00062275	0.0001737	1399	6.9116e-06	6.6235e-06	1397.6	378.73	6.6823e-06	6.497e-06	433.06	145.17	126.14	43.377	6.5416e-06	53.767	106.387	-108.095	-54.230	-163.079	-71.785	-44.876	-163.348	-158.738	-52.974	-30.098	-159.102	-155.280	-154.735	-149.716	-41.098	-150.245	-8191	255	
6794.617	1	1	0	0	0.21956	0.058131	0.23081	0.32817	0.076113	0.20075	0.087637	0.43558	0.15725	0.20544	0.22949	0.095697	0.058356	0.14431	0.14274	0.027624	-4.6458	-5.1125	-4.3833	-5.4208	-4.7354	-4.775	-5.3104	-4.7312	-5.0979	-5.0792	-4.7771	-5.1625	-4.7479	-4.7958	-5.1937	-4.7188	44.171	4.304	4.853	128.250	23.897	155.390	70.628	152.306	-66.887	-49.416	106.427	-174.427	-173.475	104.411	19.885	-144.915	0.0012498	0.00054666	0.00012086	1377.3	4.5632e-06	3.2188e-06	1370.8	371.98	1.0628e-05	5.5826e-06	423.54	142.08	123.3	42.214	6.0498e-06	51.838	0.00066853	0.00059949	0.0001656	1400	6.4403e-06	6.5136e-06	1398.5	379.15	6.4115e-06	6.3179e-06	432.94	144.97	126.08	43.424	6.1512e-06	53.594	106.707	-105.527	-82.859	-163.052	-66.634	-25.885	-163.337	-158.725	-79.246	-3.286	-159.114	-155.360	-154.613	-149.615	-55.941	-150.414	-8191	255	
6794.712	1	1	0	0	0.28988	0.18144	0.06867	0.2621	0.15432	0.023988	0.10656	0.19097	0.097484	0.16104	0.21445	0.015417	0.16904	0.13497	0.19143	0.12474	-4.6062	-5.0208	-4.4854	-5.3229	-4.8521	-4.65	-5.3958	-4.7229	-5.0687	-5.1271	-4.5979	-5.2354	-4.7458	-4.8917	-5.2188	-4.5833	-37.330	-159.613	64.993	138.341	-64.558	-152.094	129.188	109.709	-34.712	59.247	170.334	-134.799	148.918	-176.425	-145.137	115.350	0.0012728	0.00063856	0.00011649	1371.8	8.0446e-06	7.2495e-06	1372.1	372.05	8.4285e-06	6.5396e-06	422.83	142.66	123.38	42.167	5.5865e-06	51.803	0.00062975	0.00057454	0.0001512	1397.8	6.0824e-06	6.1391e-06	1398.8	379.71	6.1543e-06	6.1486e-06	433	145.17	126.14	43.421	5.9232e-06	53.68	106.334	-100.246	-84.534	-162.972	-60.341	-20.526	-163.482	-158.785	-77.099	-23.569	-159.025	-155.293	-154.560	-149.380	-60.886	-150.435	-8191	255	
6794.808	1	1	0	0	0.15644	0.062596	0.17202	0.093183	0.05277	0.20581	0.40992	0.19197	0.10869	0.16872	0.031063	0.19883	0.22962	0.15332	0.012589	0.11107	-4.6021	-5.0917	-4.6042	-5.1417	-4.8646	-4.6229	-5.3292	-4.9292	-4.8854	-5.1042	-4.7104	-5.0813	-4.8792	-4.7646	-5.2146	-4.8271	30.291	109.090	130.320	82.171	-4.864	52.077	126.006	118.199	75.988	98.154	-166.774	52.254	110.816	92.243	10.858	1.868	0.0013569	0.00045411	0.00018586	1379.3	7.7056e-06	4.9794e-06	1373.3	372.11	1.1702e-05	6.5703e-06	422.31	141.99	124.07	42.044	5.4147e-06	51.885	0.00065063	0.00054882	0.00015612	1402.1	5.9463e-06	6.2581e-06	1399.2	379.86	6.323e-06	6.0507e-06	433.47	145.13	126.38	43.402	6.1151e-06	53.589	106.627	-94.280	-88.167	-163.084	-97.194	-13.120	-163.430	-158.761	-76.482	-18.156	-159.287	-155.197	-154.589	-149.507	-23.716	-150.490	-8191	255	
6794.928	1	1	0	0	0.12734	0.091339	0.095178	0.16401	0.013174	0.12776	0.27433	0.30499	0.05603	0.29226	0.038611	0.17361	0.31508	0.094002	0.17123	0.13221	-4.5583	-5.1396	-4.5167	-5.1979	-5.0687	-4.6875	-5.45	-5.0083	-4.6	-5.2854	-4.4646	-5.0125	-5.0708	-4.5625	-5.0583	-5.1562	73.147	-83.652	173.817	158.800	-102.735	-65.526	91.824	106.586	-13.403	-74.242	103.212	146.810	-162.382	136.869	-74.035	87.321	0.0013164	0.00043684	0.00017167	1377.4	8.4379e-06	4.235e-06	1374.1	374.09	9.0257e-06	5.4059e-06	424.89	142.11	123.27	42.152	5.8906e-06	51.722	0.00064224	0.00056193	0.00015863	1401.9	5.9471e-06	6.1339e-06	1401.1	380.29	6.3618e-06	5.6877e-06	433.19	144.95	126	43.412	6.0938e-06	53.6	108.720	-87.682	-63.295	-163.077	-67.258	-37.571	-163.531	-158.722	-85.476	-19.598	-159.201	-155.316	-154.456	-149.662	-38.694	-150.558	-8191	255	
6795.024	1	1	0	0	0.082103	0.14946	0.045931	0.23324	0.16821	0.20616	0.14916	0.25392	0.25669	0.21449	0.056757	0.064976	0.2621	0.058866	0.19827	0.17776	-4.2292	-5.1542	-4.5062	-4.9479	-5.0542	-4.5104	-5.4146	-4.9896	-4.6687	-5.4021	-4.6042	-4.8313	-5.0354	-4.6292	-5.0917	-5.0208	-77.761	-142.867	-4.880	169.298	124.479	37.737	79.058	107.089	-173.530	140.934	49.327	-131.570	132.887	-38.772	147.238	-131.614	0.001341	0.00060611	0.00012462	1374.2	6.1462e-06	4.1059e-06	1375.3	373.01	1.1711e-05	3.2655e-06	422.79	142.02	123.04	42.115	7.5739e-06	51.544	0.0006374	0.00052926	0.00015359	1399.9	5.933e-06	5.9057e-06	1400.5	380.1	6.0428e-06	5.832e-06	432.99	144.95	126.01	43.33	5.7378e-06	53.493	108.925	-99.705	-72.693	-163.091	-45.332	-2.029	-163.424	-158.573	-85.224	-28.300	-159.093	-155.379	-154.475	-149.484	-39.907	-150.236	-8191	255	
6795.121	1	1	0	0	0.25356	0.19432	0.16195	0.23733	0.080463	0.049291	0.04484	0.14618	0.14324	0.058519	0.19578	0.1007	0.31159	0.23328	0.098695	0.12452	-4.2	-5.2875	-4.7271	-4.9563	-5.2167	-4.5333	-5.1104	-5.2354	-4.6917	-5.2063	-5.0062	-4.7833	-5.3	-4.7146	-4.8771	-5.0687	-77.893	-148.893	-140.503	101.092	-50.052	-128.958	-88.541	140.734	96.946	-49.258	139.552	97.277	175.772	52.195	99.833	173.674	0.0012599	0.00046772	0.00015476	1376.5	7.7573e-06	4.7262e-06	1367.2	372	1.2765e-05	4.85e-06	420.62	141.65	123.43	41.961	7.2859e-06	51.732	0.00061754	0.00050923	0.0001511	1397.3	5.6613e-06	5.8512e-06	1393.3	378.69	5.8076e-06	5.6843e-06	431.69	144.61	125.8	43.24	5.9043e-06	53.434	107.609	-99.396	-74.046	-162.926	-59.693	-37.690	-163.482	-158.791	-72.738	-30.238	-158.980	-155.486	-154.685	-149.664	-48.469	-150.346	-8191	255	
6795.192	1	1	0	0	0.20747	0.20339	0.32733	0.082077	0.21116	0.12343	0.20482	0.13424	0.23311	0.2093	0.16241	0.12426	0.18386	0.38334	0.17937	0.016706	-4.2167	-5.0125	-4.65	-4.9437	-5.0437	-4.5771	-5.2208	-5.1937	-4.4125	-5.0583	-4.9854	-4.7188	-5.3979	-5.025	-4.6479	-5.2708	-155.423	-55.845	-31.657	41.578	-79.591	-114.903	111.948	132.532	-25.593	-136.395	145.933	-137.619	174.340	177.459	-15.445	-136.285	0.0012693	0.00034134	0.0001611	1368.7	6.1338e-06	4.0684e-06	1369.8	369.98	1.4068e-05	4.8403e-06	422.51	141.34	123.19	41.961	6.5624e-06	51.559	0.00061931	0.00053504	0.00015158	1394.4	5.648e-06	5.8823e-06	1393.3	377.91	5.8369e-06	5.5524e-06	431.89	144.5	125.83	43.273	5.7456e-06	53.477	109.260	-90.481	-87.855	-163.020	-57.837	-13.219	-163.522	-158.584	-65.061	-27.385	-159.051	-155.197	-154.760	-149.452	-44.958	-150.365	-8191	255	
6795.313	1	1	0	0	0.071144	0.18596	0.18894	0.27962	0.21656	0.17692	0.19788	0.31701	0.30214	0.18164	0.21031	0.053508	0.23763	0.29032	0.021107	0.10819	-4.0167	-5.0917	-4.8417	-4.7021	-5.1771	-4.85	-4.9208	-5.2188	-4.4979	-5.0667	-5.1292	-4.5646	-5.2063	-4.7125	-4.8729	-5.3021	3.503	88.808	-121.134	116.342	-162.160	44.386	115.150	157.895	123.941	86.979	110.164	-140.730	180.954	133.230	126.773	47.441	0.0013576	0.00049136	0.00018565	1366	6.7956e-06	3.0438e-06	1367.4	370.62	1.0905e-05	4.7645e-06	422.44	142.01	123.32	41.928	6.2513e-06	51.838	0.00063596	0.00052411	0.00014288	1392.6	5.5334e-06	5.7109e-06	1392.3	378.04	5.8925e-06	5.5043e-06	431.57	144.55	125.78	43.27	5.76e-06	53.551	108.765	-94.973	-81.087	-163.127	-79.284	-44.725	-163.427	-158.620	-75.898	-15.236	-159.122	-155.154	-154.688	-149.553	-54.883	-150.366	-8191	255	
6795.409	1	1	0	0	0.17351	0.066784	0.077859	0.28556	0.05819	0.15846	0.068778	0.12077	0.14892	0.11998	0.095235	0.1964	0.16742	0.013857	0.15334	0.10012	-4.0896	-5.1521	-5.0396	-4.5292	-5.1229	-4.6479	-5.0646	-5.2958	-4.5625	-5.0729	-5.0229	-4.6937	-5.1104	-4.8938	-4.5833	-5.1208	-36.984	90.791	-16.449	119.063	127.080	-104.369	57.635	129.019	176.390	-68.071	-170.910	-165.819	29.853	121.060	50.293	164.993	0.0013407	0.00052278	0.00014064	1373.5	7.4969e-06	4.2657e-06	1369	372.42	1.254e-05	4.5703e-06	423.17	142.19	123.05	42.053	6.4655e-06	51.658	0.00063393	0.00052532	0.00015224	1397.5	5.8913e-06	6.1075e-06	1394.9	378.82	6.145e-06	5.869e-06	431.81	144.78	125.99	43.282	5.9326e-06	53.473	108.818	-82.399	-87.708	-163.069	-67.223	-11.646	-163.512	-158.826	-67.730	-42.495	-159.081	-155.337	-154.774	-149.625	-42.955	-150.365	-8191	255	
6795.505	1	1	0	0	0.22113	0.1108	0.096563	0.18206	0.10154	0.059979	0.1524	0.097013	0.08602	0.038302	0.18476	0.1966	0.42335	0.1379	0.17115	0.24323	-4.3812	-4.9229	-5.1229	-4.6062	-5.0312	-4.7021	-4.8979	-5.4375	-4.4104	-4.7542	-5.2104	-4.6208	-5.1458	-5.0813	-4.6375	-5.2375	-115.672	-103.569	91.436	-163.297	-147.470	95.614	21.959	148.793	86.803	108.717	134.357	158.887	145.953	-136.410	159.761	87.667	0.0012724	0.00045974	0.00014223	1369.3	6.4641e-06	3.8375e-06	1361.8	370.4	8.7343e-06	4.6866e-06	421.61	141.63	122.73	42.002	4.7004e-06	51.906	0.00063738	0.00054367	0.00014463	1392.8	5.8796e-06	5.817e-06	1390.6	377.88	6.0651e-06	5.8625e-06	431.02	144.44	125.47	43.244	6.0027e-06	53.466	106.536	-98.320	-75.724	-162.944	-80.217	-20.346	-163.533	-158.826	-73.883	-27.465	-158.953	-155.185	-154.562	-149.622	-23.511	-150.263	-8191	255	
6795.600	1	1	0	0	0.10653	0.094537	0.1443	0.26481	0.14567	0.010699	0.31646	0.0901	0.08381	0.22498	0.0059757	0.040984	0.27304	0.04596	0.36624	0.20034	-4.4604	-4.7521	-5.1562	-4.5958	-5.0771	-4.9604	-4.7625	-5.3667	-4.5417	-4.7167	-5.3625	-4.65	-4.9771	-5.0021	-4.425	-5.1771	89.471	152.145	-109.284	-175.915	-12.574	155.790	77.803	-72.367	-164.393	80.265	130.022	89.180	124.463	-124.366	-145.603	139.211	0.0013513	0.0004354	0.00010366	1372	5.5566e-06	6.7605e-06	1365	370.28	1.2319e-05	6.8853e-06	421.77	141.13	122.8	42.062	5.1105e-06	51.644	0.00063352	0.0005446	0.00014638	1392.7	5.8348e-06	5.7646e-06	1391.2	377.56	6.0628e-06	5.7191e-06	431.07	144.29	125.5	43.246	6.0265e-06	53.455	109.657	-99.830	-91.667	-163.109	-51.593	-12.616	-163.415	-158.632	-80.568	-31.983	-159.152	-155.385	-154.731	-149.636	-32.538	-150.442	-8191	255	
6795.720	1	1	0	0	0.073799	0.078742	0.13755	0.17185	0.21682	0.12184	0.20283	0.28616	0.17922	0.06555	0.27012	0.25612	0.093378	0.16743	0.019192	0.26765	-4.5021	-4.475	-5.0583	-4.7917	-4.7979	-5.0229	-4.6604	-5.1354	-5.0042	-4.6271	-5.1312	-4.7875	-4.8146	-5.2125	-4.3167	-5.2042	54.890	-95.821	51.385	132.768	-51.251	-84.191	89.228	137.800	0.411	-69.637	82.775	-150.201	-89.699	115.243	127.012	175.448	0.0013137	0.00060188	0.00010146	1365.6	4.9654e-06	7.4744e-06	1366.9	370.02	1.1792e-05	4.5189e-06	422.68	140.89	122.99	42.119	5.1315e-06	51.763	0.00064265	0.00055167	0.000147	1390.7	6.1124e-06	5.9867e-06	1392.2	377.65	6.1579e-06	6.0795e-06	431.36	144.36	125.65	43.23	6.0204e-06	53.563	110.898	-83.687	-83.806	-163.183	-76.715	-28.438	-163.508	-158.781	-87.979	-33.817	-159.051	-155.336	-154.747	-149.812	-56.633	-150.348	-8191	255	
6795.792	1	1	0	0	0.17364	0.041653	0.2996	0.30594	0.026322	0.16588	0.21915	0.35815	0.20895	0.35981	0.078799	0.14543	0.38993	0.18382	0.027399	0.095538	-4.7229	-4.7146	-5.1792	-4.9187	-4.7458	-5.1813	-4.5667	-5.1583	-5.0062	-4.5583	-5.2875	-4.6687	-4.8167	-5.175	-4.525	-4.9771	-31.354	-16.745	170.193	109.329	-114.495	108.553	108.793	105.043	81.089	-29.789	155.145	9.411	-163.735	-153.387	-115.606	-62.088	0.0012908	0.00047264	7.6671e-05	1366.5	7.0651e-06	5.4338e-06	1365.3	369.73	1.2707e-05	6.9301e-06	420.8	142.31	123.43	41.964	6.6369e-06	51.675	0.00063964	0.0005537	0.00015251	1392	5.8983e-06	5.8404e-06	1391.4	377.59	6.0784e-06	5.9506e-06	430.81	144.9	125.83	43.263	5.9855e-06	53.511	109.544	-78.806	-99.977	-163.035	-50.592	-40.880	-163.407	-158.716	-73.006	-16.943	-159.211	-155.166	-154.735	-149.735	-55.641	-150.561	-8191	255	
6795.888	1	1	0	0	0.29167	0.16367	0.07439	0.11725	0.15932	0.16908	0.30944	0.12388	0.20558	0.23848	0.22149	0.12877	0.19506	0.14722	0.35525	0.086611	-4.8083	-4.4167	-5.0437	-4.9354	-4.6188	-5.325	-4.7583	-5.0958	-5.1875	-4.4771	-5.1937	-4.8917	-4.7375	-5.2542	-4.7271	-5.1104	-142.859	-9.469	-97.832	-147.685	-95.434	-39.066	99.253	-118.282	-140.866	100.955	99.799	141.510	179.407	-112.825	-122.272	-58.120	0.0012915	0.00052555	0.0001543	1364.6	5.7617e-06	5.5026e-06	1365.8	370.61	1.0037e-05	5.2621e-06	422.6	141.67	123.25	41.982	6.5608e-06	51.596	0.00063063	0.00056443	0.00015034	1392.1	5.8835e-06	5.8681e-06	1392.6	377.94	6.0514e-06	6.2539e-06	432.16	144.45	125.84	43.199	6.307e-06	53.493	108.411	-90.737	-82.976	-163.035	-75.456	-24.018	-163.332	-158.747	-63.372	-7.446	-159.086	-155.338	-154.582	-149.486	-44.152	-150.163	-8191	255	
6796.009	1	1	0	0	0.039916	0.12082	0.03825	0.24356	0.087536	0.057576	0.2719	0.26783	0.09539	0.022052	0.17155	0.24513	0.058038	0.14579	0.23639	0.25061	-4.7562	-4.5854	-5.1333	-4.9479	-4.6417	-5.2729	-4.9667	-4.9604	-5.1458	-4.6188	-5.3458	-5.05	-4.5729	-5.3063	-4.6958	-4.9229	-87.552	34.582	179.424	159.343	-88.783	-94.885	148.781	154.409	-170.043	37.724	-128.873	-73.849	-149.383	79.288	123.760	181.033	0.0013457	0.00051173	0.00014494	1372.3	7.5006e-06	2.2922e-06	1369.9	371.03	9.2758e-06	6.0238e-06	422.76	141.73	123.82	41.988	6.1791e-06	51.869	0.00063612	0.00056744	0.00015134	1393.6	6.211e-06	6.0573e-06	1394.2	378.45	6.2459e-06	6.2586e-06	432.09	144.58	125.88	43.224	6.1586e-06	53.575	108.475	-105.123	-82.504	-163.034	-79.033	2.354	-163.407	-158.637	-81.493	-11.787	-159.194	-155.398	-154.441	-149.458	-37.710	-150.354	-8191	255	
6796.105	1	1	0	0	0.19285	0.019978	0.10973	0.088753	0.093078	0.16138	0.17715	0.31719	0.11027	0.075404	0.08913	0.034693	0.13527	0.082144	0.21931	0.19416	-4.7917	-4.7312	-4.9792	-5.1583	-4.4771	-5.2792	-4.7854	-5.0083	-4.9042	-4.5604	-4.85	-5.2125	-4.6917	-5.2896	-4.7167	-4.8396	134.461	-16.205	33.472	166.656	-132.349	67.103	123.789	122.447	14.639	155.539	98.608	113.527	61.923	122.696	-30.423	101.722	0.0012856	0.00047864	0.00015852	1372.5	6.3896e-06	6.1931e-06	1364.9	370.07	1.2688e-05	6.5315e-06	421.81	141.79	122.91	41.99	8.6442e-06	51.659	0.00064227	0.00058922	0.00015776	1396.2	6.3385e-06	6.3685e-06	1394.8	377.91	6.3962e-06	6.2036e-06	431.38	144.5	125.7	43.233	6.2808e-06	53.438	109.363	-108.270	-82.419	-163.018	-82.228	-7.397	-163.410	-158.546	-66.696	-21.479	-159.040	-154.976	-154.424	-149.557	-46.205	-150.534	-8191	255	
6796.201	1	1	0	0	0.069442	0.14323	0.10328	0.1443	0.14732	0.067164	0.15399	0.073282	0.24366	0.4259	0.17732	0.1195	0.17744	0.20658	0.18753	0.099093	-4.8208	-4.6854	-5.05	-5.1521	-4.6271	-5.0771	-5.0604	-4.8271	-5.2583	-4.6167	-5.0938	-5.0083	-4.6937	-5.2833	-4.725	-4.7875	38.374	162.364	-117.560	130.518	-5.625	-91.345	156.441	-149.992	115.972	175.975	54.441	27.157	-97.382	82.140	125.953	146.125	0.0012512	0.00068939	0.00011842	1367.1	6.4083e-06	4.8127e-06	1368.9	369.29	9.8239e-06	7.0751e-06	421.71	141.29	123.33	41.898	5.5619e-06	51.831	0.00064768	0.00059828	0.00016389	1393.6	6.6102e-06	6.3698e-06	1394.2	378.28	6.3911e-06	6.1723e-06	431.75	144.57	125.92	43.238	6.104e-06	53.515	107.378	-76.290	-109.628	-163.213	-68.594	-17.899	-163.411	-158.582	-89.219	-18.381	-159.119	-155.275	-154.629	-149.510	-66.208	-150.724	-8191	255	
6796.297	1	1	0	0	0.11992	0.062865	0.14523	0.16083	0.076233	0.24102	0.050394	0.23759	0.20917	0.13963	0.087086	0.063522	0.12958	0.10076	0.19605	0.27913	-4.7063	-4.5188	-4.9583	-5.1354	-4.575	-5.2125	-4.9625	-4.7375	-5.0458	-4.625	-5.0833	-4.9417	-4.6292	-5.0646	-4.7354	-4.675	-0.139	-127.946	50.305	120.533	71.811	-119.613	55.856	148.827	20.180	69.036	94.608	79.946	95.509	155.753	-27.193	142.803	0.0013142	0.00044828	0.00010975	1374.2	5.8747e-06	3.6908e-06	1367.8	370.26	1.1256e-05	5.5096e-06	423.21	141.53	122.96	41.975	5.5022e-06	51.88	0.00063735	0.00056838	0.00015063	1397.4	6.3288e-06	6.233e-06	1395.4	378.24	6.159e-06	6.2285e-06	432.46	144.76	125.69	43.139	6.3267e-06	53.464	108.922	-98.026	-83.416	-162.904	-47.840	-15.972	-163.425	-158.697	-88.143	0.012	-159.383	-155.273	-154.690	-149.542	-44.353	-150.344	-8191	255	
6796.393	1	1	0	0	0.15451	0.11352	0.044235	0.30286	0.11005	0.17574	0.16822	0.31316	0.055129	0.029801	0.2125	0.17186	0.15035	0.11957	0.22195	0.25823	-4.8417	-4.8229	-4.6458	-5.2979	-4.5292	-4.8792	-5.1458	-4.8438	-5.0604	-4.7229	-4.9271	-5.3438	-4.8	-5.0396	-4.9583	-4.7958	39.699	-44.929	-133.313	178.625	-154.250	-62.043	64.663	124.318	92.971	22.671	135.938	-134.393	172.613	47.440	-119.504	159.065	0.0012796	0.00042254	0.00016178	1368.8	7.0177e-06	5.7145e-06	1373.6	370.95	9.6507e-06	5.2254e-06	420.97	141.69	123.11	42.089	5.0794e-06	51.773	0.00065801	0.00057849	0.00015767	1394.3	6.5506e-06	6.3867e-06	1395	378.58	6.3524e-06	6.4979e-06	431.57	144.78	125.84	43.307	6.339e-06	53.572	107.171	-89.713	-107.723	-163.117	-49.692	-46.234	-163.355	-158.508	-68.861	-30.645	-159.203	-155.066	-154.591	-149.439	-57.359	-150.334	-8191	255	
6796.489	1	1	0	0	0.16929	0.19861	0.1538	0.29366	0.10508	0.27742	0.29253	0.059539	0.045279	0.17764	0.28207	0.10675	0.070792	0.10127	0.22195	0.15416	-4.7333	-4.8833	-4.5833	-5.2562	-4.5604	-4.7646	-5.2229	-4.5938	-5.1896	-4.7896	-4.7188	-5.3375	-4.4646	-4.9354	-5.1188	-4.675	116.325	-162.886	-115.480	-174.178	162.121	-144.637	154.108	103.577	144.819	-1.845	120.866	143.394	182.657	-29.415	-137.966	-138.946	0.0012218	0.00037588	0.0001275	1370.8	7.3511e-06	6.2996e-06	1370.8	370.47	1.1979e-05	4.4807e-06	422.41	141.73	122.86	41.816	5.283e-06	51.502	0.00063022	0.00057892	0.0001627	1393.9	6.3147e-06	6.3114e-06	1394.7	378.38	6.3187e-06	6.4528e-06	431.78	144.42	125.62	43.158	6.323e-06	53.429	108.767	-101.847	-81.313	-163.039	-80.626	-8.937	-163.501	-158.539	-59.343	-8.427	-158.983	-155.182	-154.545	-149.469	-39.896	-150.487	-8191	255	
6796.608	1	1	0	0	0.10572	0.11911	0.0068209	0.22382	0.11363	0.18066	0.074691	0.084267	0.1042	0.22622	0.19314	0.30047	0.12676	0.28862	0.082114	0.083235	-4.8688	-4.9229	-4.5792	-5.2354	-4.6271	-4.6937	-5.4708	-4.725	-5.0958	-5.1	-4.6646	-5.3833	-4.7875	-4.8521	-5.2667	-4.5563	-35.364	-172.337	27.572	158.964	-41.695	-66.253	125.368	19.925	-127.575	-48.744	146.848	175.397	153.092	34.250	122.286	-22.563	0.0012509	0.00076299	0.00014238	1371.3	7.3058e-06	5.1549e-06	1365.1	371.38	9.9657e-06	6.1088e-06	422.78	141.43	123.05	42.022	6.0648e-06	51.722	0.00065041	0.00058387	0.00016457	1394.5	6.4765e-06	6.3179e-06	1392.3	378.44	6.4757e-06	6.3475e-06	431.6	144.59	125.66	43.226	6.5252e-06	53.527	109.705	-87.866	-73.235	-163.214	-53.348	-22.626	-163.363	-158.905	-68.278	-22.179	-159.249	-155.205	-154.466	-149.564	-58.797	-150.424	-8191	255	
6796.705	1	1	0	0	0.081568	0.070399	0.14705	0.20356	0.040609	0.081476	0.040131	0.21088	0.13126	0.3105	0.31409	0.068596	0.28337	0.043839	0.047591	0.17286	-4.5229	-5.0646	-4.3667	-5.1604	-4.7771	-4.6396	-5.3979	-4.5979	-4.9375	-5.0271	-4.6792	-5.1562	-4.8833	-4.8104	-5.1438	-4.6729	181.660	-1.025	135.293	158.905	-21.591	-134.144	-115.438	166.623	-54.154	-109.410	125.343	-82.198	-158.085	86.884	17.596	161.971	0.0012923	0.00044793	0.00020477	1372.9	5.9758e-06	3.7211e-06	1371.6	371.4	1.2203e-05	5.4412e-06	422.2	141.63	123.45	42.028	6.9501e-06	51.711	0.00066771	0.00059145	0.00016408	1396	6.4679e-06	6.4685e-06	1395.3	378.45	6.3489e-06	6.1714e-06	432.2	144.66	125.82	43.264	6.2135e-06	53.431	108.455	-91.595	-52.290	-162.871	-54.912	-14.334	-163.405	-158.692	-83.858	-22.296	-159.010	-155.366	-154.765	-149.655	-62.920	-150.304	-8191	255	
6796.801	1	1	0	0	0.16082	0.32949	0.19587	0.14067	0.17757	0.21507	0.14177	0.18151	0.057585	0.11643	0.014581	0.16987	0.15194	0.086974	0.26942	0.14881	-4.4625	-5.0229	-4.5146	-5.2792	-4.9229	-4.6208	-5.4729	-4.7229	-4.7854	-5.1625	-4.6646	-5.0875	-5.0687	-4.7562	-5.1542	-4.7396	-12.143	26.343	99.045	161.812	-160.776	-93.691	158.434	86.061	104.968	-23.559	130.391	128.615	-143.285	59.282	-138.615	-122.505	0.0012496	0.00058897	0.00022322	1374.6	7.7431e-06	3.708e-06	1364.6	370.85	1.1177e-05	6.492e-06	422.86	141.94	123.39	41.833	6.5326e-06	51.645	0.00064588	0.00056115	0.00016417	1397	6.0707e-06	6.2387e-06	1393.5	378.34	6.2385e-06	6.0017e-06	431.71	144.47	125.54	43.249	6.1377e-06	53.496	104.372	-81.555	-71.797	-163.192	-67.878	-18.231	-163.257	-158.744	-63.692	-36.134	-159.126	-155.282	-154.724	-149.720	-64.751	-150.316	-8191	255	
6796.897	1	1	0	0	0.12823	0.14183	0.24409	0.0629	0.132	0.16101	0.29852	0.1257	0.091618	0.08488	0.10466	0.078291	0.087055	0.3402	0.050725	0.22036	-4.4604	-5.1042	-4.4062	-5.2771	-5.025	-4.4979	-5.4396	-4.9187	-4.7854	-5.325	-4.8021	-5.0604	-5.0938	-4.7063	-5.2354	-4.9667	-59.585	-59.391	-30.472	172.866	-164.589	123.544	117.122	103.545	-95.056	9.428	134.830	41.938	-152.203	51.608	89.734	-89.928	0.0013251	0.00072135	0.00012365	1372.2	7.9742e-06	6.0015e-06	1365.1	370.67	1.1682e-05	5.5334e-06	420.68	141.53	122.92	42.047	6.7891e-06	51.616	0.00065279	0.00058567	0.0001602	1395.3	6.2328e-06	6.501e-06	1392.6	378.01	6.2287e-06	6.0249e-06	431.42	144.51	125.78	43.247	6.0196e-06	53.481	108.233	-103.090	-75.272	-163.091	-64.088	-66.461	-163.426	-158.795	-90.566	-25.068	-159.053	-155.382	-154.755	-149.523	-57.822	-150.477	-8191	255	
6797.017	1	1	0	0	0.13727	0.2098	0.11151	0.40202	0.18786	0.2429	0.07784	0.24523	0.15236	0.12079	0.16677	0.19137	0.076867	0.25846	0.17328	0.068475	-4.1562	-5.3083	-4.6188	-5.0375	-5.0854	-4.5896	-5.0604	-5.1062	-4.65	-5.0021	-4.8938	-5.0521	-5.1104	-4.6958	-5.0854	-5.0062	108.167	-59.061	90.406	120.729	-150.523	-134.381	70.304	119.785	119.779	8.175	-161.321	-172.707	108.786	87.410	-39.370	-60.867	0.0013184	0.00090542	0.00015746	1372.1	6.8918e-06	3.9267e-06	1363.9	370.88	1.0235e-05	4.1427e-06	421.41	141.38	123.16	42.061	6.0729e-06	51.736	0.0006456	0.000551	0.00015476	1395.4	6.08e-06	5.9958e-06	1390.6	378.2	6.0279e-06	5.6916e-06	431.13	144.59	125.72	43.259	5.931e-06	53.471	106.359	-92.800	-73.913	-162.999	-73.295	-19.451	-163.522	-158.609	-64.951	-41.066	-159.054	-155.140	-154.834	-149.462	-25.650	-150.530	-8191	255	
6797.089	1	1	0	0	0.15755	0.16175	0.12408	0.026653	0.19079	0.14239	0.13572	0.25212	0.15207	0.033644	0.13128	0.10095	0.13858	0.079195	0.072942	0.35478	-4.0687	-5.3479	-4.8625	-4.8833	-5.0708	-4.7917	-5.0708	-5.0354	-4.5708	-5.1833	-4.7312	-4.8125	-5.25	-4.7604	-4.9229	-4.9271	142.821	173.524	86.486	180.540	-10.452	61.163	74.572	171.840	68.351	-94.345	162.926	99.519	174.322	-48.417	111.726	128.253	0.0013162	0.00043178	0.00013336	1370.8	6.2844e-06	4.9946e-06	1367	370.5	1.1052e-05	4.6476e-06	421.85	142.11	122.85	41.97	6.8909e-06	51.823	0.00061352	0.0005056	0.0001459	1395.2	5.7467e-06	5.6451e-06	1393.7	378.01	5.9038e-06	5.5537e-06	431.46	144.73	125.83	43.237	5.6882e-06	53.505	110.064	-84.307	-76.921	-163.152	-60.158	-29.950	-163.368	-158.598	-64.825	-12.311	-159.047	-155.432	-154.622	-149.625	-59.388	-150.278	-8191	255	
6797.185	1	1	0	0	0.071922	0.12678	0.16431	0.076985	0.14561	0.27248	0.18728	0.15938	0.039222	0.11746	0.14085	0.020382	0.20689	0.11159	0.14669	0.072346	-4.075	-5.1271	-4.6833	-5.0062	-5.1708	-4.7	-5.1958	-5.3229	-4.4979	-5.1208	-5.0146	-4.6229	-5.3	-4.7604	-4.8771	-5.0312	89.811	174.553	158.204	133.786	-105.791	135.807	68.271	156.098	139.864	24.468	156.187	146.667	-36.293	101.225	-167.695	85.178	0.0013238	0.00042313	0.0001609	1371.6	5.0172e-06	6.3857e-06	1364.4	370.08	1.1016e-05	4.5276e-06	419.26	141.87	123.05	42.17	6.148e-06	51.869	0.00061959	0.00051462	0.00014433	1395.2	5.8469e-06	5.7243e-06	1392.5	377.92	6.0029e-06	5.6907e-06	430.53	144.62	125.73	43.301	5.8449e-06	53.535	107.025	-131.018	-89.254	-163.129	-51.829	-9.157	-163.430	-158.771	-87.044	-24.595	-159.161	-155.392	-154.739	-149.378	-44.223	-150.542	-8191	255	
6797.281	1	1	0	0	0.17242	0.045465	0.08329	0.23755	0.12359	0.030794	0.10415	0.32246	0.076366	0.093972	0.12375	0.32863	0.15443	0.31338	0.20788	0.21608	-4.4479	-5.1771	-4.8771	-4.8562	-5.3625	-4.6937	-5.15	-5.1312	-4.7021	-5.2063	-5.1312	-4.7729	-5.2812	-4.9125	-4.7208	-5.1729	43.539	-120.141	-136.594	-150.349	-57.251	79.118	154.408	128.511	-163.243	162.481	181.356	182.653	-155.287	78.811	-51.003	84.566	0.0012666	0.00046387	0.00017865	1368.6	6.2704e-06	4.1392e-06	1365.5	370.19	1.0299e-05	3.5432e-06	422.73	142.37	123.45	41.823	7.9594e-06	51.527	0.00062216	0.00051462	0.00014578	1394.1	5.726e-06	5.7642e-06	1392.7	377.83	5.9493e-06	5.6009e-06	431.65	144.8	125.71	43.181	5.657e-06	53.486	108.058	-110.631	-67.459	-163.069	-42.805	-29.439	-163.420	-158.623	-90.374	-5.792	-159.020	-155.134	-154.667	-149.666	-57.995	-150.583	-8191	255	
6797.378	1	1	0	0	0.18821	0.11297	0.15632	0.19352	0.22635	0.14621	0.27297	0.15036	0.13626	0.071461	0.085997	0.29546	0.10853	0.1527	0.091761	0.26304	-4.3562	-5.0146	-4.8187	-4.8833	-5.2396	-4.5833	-5.0146	-5.25	-4.4792	-5.0375	-5.1979	-4.6167	-5.3313	-4.8063	-4.8042	-5.2188	148.690	-12.969	31.638	-170.954	-169.743	-71.180	128.222	137.112	130.312	-161.462	82.265	-168.738	-161.598	115.569	-24.922	174.904	0.0012609	0.00034599	0.00018779	1372.4	6.8857e-06	5.1951e-06	1367.7	370.11	1.0337e-05	5.177e-06	422.15	141.62	122.55	41.973	4.5434e-06	51.55	0.00062584	0.00050986	0.00014798	1395.3	5.9104e-06	5.7386e-06	1394.5	378.13	6.0123e-06	5.6598e-06	431.4	144.6	125.58	43.233	5.9548e-06	53.473	109.695	-66.134	-95.536	-163.008	-51.322	-28.239	-163.282	-158.651	-78.896	-26.287	-159.229	-155.344	-154.579	-149.529	-34.219	-150.375	-8191	255	
6797.496	1	1	0	0	0.14083	0.051257	0.26374	0.1592	0.20718	0.19301	0.066802	0.068157	0.24348	0.13059	0.1771	0.086369	0.022184	0.2537	0.1006	0.079349	-4.2125	-5.0104	-5.2396	-4.7042	-5.0604	-4.9542	-4.9	-5.2896	-4.8896	-5.0521	-5.2104	-4.6146	-5.1792	-4.9292	-4.8042	-5.3125	-156.996	70.922	0.140	93.913	-127.961	-13.143	109.294	160.711	83.005	-18.374	135.158	49.537	-73.721	74.969	-22.445	182.845	0.0013411	0.00056583	0.00015915	1367.6	6.3625e-06	4.7984e-06	1367.4	369.98	1.2429e-05	6.2881e-06	421.85	141.1	122.74	41.929	6.2423e-06	51.8	0.00063888	0.0005293	0.00015074	1394.6	5.7248e-06	5.7702e-06	1394.4	377.72	6.024e-06	5.7934e-06	431.61	144.5	125.55	43.169	6.054e-06	53.466	107.906	-100.738	-96.173	-163.097	-72.113	-10.731	-163.536	-158.813	-67.581	-3.671	-159.078	-155.296	-154.693	-149.574	-48.524	-150.366	-8191	255	
6797.593	1	1	0	0	0.12003	0.1596	0.070928	0.1998	0.062713	0.10545	0.1137	0.15547	0.10115	0.056958	0.21393	0.035923	0.014762	0.17656	0.29065	0.10785	-4.4167	-4.8542	-5.2708	-4.8083	-5.1479	-5.0104	-4.7375	-5.4042	-4.8333	-4.6583	-5.3042	-4.9229	-5.125	-5.0354	-4.7292	-5.1813	-110.555	55.265	-146.700	162.388	24.923	55.268	79.352	126.680	114.549	118.345	32.419	106.700	37.858	104.446	-87.925	65.618	0.001307	0.0004566	0.00012614	1371.6	5.6407e-06	3.3078e-06	1365.2	370.88	8.6702e-06	4.0052e-06	422.04	141.72	123.31	42.081	7.1996e-06	51.841	0.00063817	0.00055264	0.00015357	1394.7	5.8777e-06	5.8365e-06	1392.1	378.13	5.9739e-06	5.805e-06	431.56	144.45	125.51	43.181	5.9047e-06	53.487	106.514	-101.146	-78.771	-163.138	-87.978	-38.775	-163.200	-158.531	-74.449	-15.916	-159.218	-155.165	-154.678	-149.657	-54.108	-150.498	-8191	255	
6797.690	1	1	0	0	0.07976	0.28421	0.1127	0.2559	0.24766	0.066205	0.1805	0.099023	0.16678	0.12066	0.22131	0.17674	0.19597	0.13515	0.14851	0.087846	-4.5625	-4.8646	-5.0646	-4.9062	-5.0479	-4.9812	-4.8146	-5.3104	-4.7958	-4.7542	-5.4313	-4.6646	-5.0875	-5.1917	-4.5333	-5.3354	-91.243	-107.684	-111.975	122.517	31.937	72.646	145.731	89.665	-2.894	-100.992	159.070	91.439	116.136	165.768	88.094	-66.051	0.0013624	0.00046741	0.00016096	1365.7	8.5231e-06	4.584e-06	1363.6	371.68	9.7666e-06	6.6425e-06	420.18	141.26	122.68	41.791	7.3921e-06	51.551	0.00063139	0.00054253	0.00015043	1393.5	6.1026e-06	5.9222e-06	1391.4	378.42	5.9418e-06	5.9747e-06	430.94	144.33	125.42	43.114	6.1688e-06	53.431	106.430	-91.227	-92.156	-163.194	-62.934	-7.471	-163.496	-158.683	-74.827	-21.895	-159.087	-155.190	-154.658	-149.584	-48.575	-150.561	-8191	255	
6797.785	1	1	0	0	0.18591	0.30196	0.071893	0.36859	0.21029	0.26188	0.21379	0.23437	0.16106	0.11027	0.1399	0.10232	0.19603	0.23528	0.16183	0.1763	-4.3604	-4.5792	-5.3521	-4.6917	-4.9292	-5.1792	-4.8917	-5.3479	-4.8354	-4.5813	-5.3875	-4.7438	-4.95	-5.2917	-4.5563	-5.0312	15.698	-32.279	109.372	150.551	-39.536	20.348	149.782	85.178	-9.518	56.874	-149.784	69.398	-138.557	86.288	179.920	151.364	0.0012721	0.00043215	0.00019573	1371.5	8.6331e-06	5.4832e-06	1366	370.2	1.3405e-05	4.2699e-06	422.1	141.44	122.94	42.005	5.6309e-06	51.71	0.0006344	0.00056283	0.0001503	1392.8	5.9783e-06	5.8884e-06	1393	377.57	5.8502e-06	5.8428e-06	431.04	144.31	125.33	43.141	5.8317e-06	53.425	108.041	-120.998	-73.776	-163.087	-80.902	-3.674	-163.436	-158.621	-81.698	-30.746	-159.305	-155.328	-154.804	-149.451	-35.785	-150.319	-8191	255	
6797.881	1	1	0	0	0.21006	0.050522	0.015902	0.19148	0.27798	0.24097	0.25386	0.1549	0.17455	0.15491	0.10357	0.063463	0.053626	0.17437	0.099437	0.16992	-4.7479	-4.6042	-5.0625	-4.8896	-4.9062	-5.1438	-4.7958	-5.2979	-5.2354	-4.5875	-5.2812	-4.9021	-4.8271	-5.2896	-4.5854	-4.9958	-103.106	144.760	62.720	103.503	-168.855	-118.814	123.229	-133.171	-112.163	-88.362	68.342	100.760	46.518	155.673	-127.609	177.629	0.0013333	0.0004945	0.00011706	1368.8	4.6998e-06	4.6538e-06	1365.9	369.53	1.2218e-05	6.3027e-06	421.25	141.81	122.77	41.924	4.1558e-06	51.753	0.0006321	0.00054085	0.00015129	1392.5	5.8367e-06	5.8049e-06	1391.9	377.55	5.8851e-06	5.8436e-06	430.98	144.36	125.55	43.174	5.7546e-06	53.323	109.489	-84.344	-83.942	-163.017	-75.104	-40.813	-163.446	-158.704	-83.029	-24.664	-159.080	-155.460	-154.517	-149.615	-59.978	-150.306	-8191	255	
6797.977	1	1	0	0	0.092326	0.087766	0.10072	0.28178	0.20773	0.097735	0.18799	0.23686	0.11478	0.01163	0.17524	0.28464	0.13517	0.12404	0.249	0.19628	-4.6542	-4.5458	-5.1583	-5.0354	-4.7958	-5.2667	-4.7646	-4.9563	-4.9625	-4.5167	-5.1021	-4.9812	-4.7	-5.3063	-4.5583	-4.9396	-69.460	-144.362	-6.826	175.183	127.533	25.574	102.294	130.459	122.161	131.060	109.232	77.980	-134.989	94.761	40.918	182.516	0.0012798	0.00050989	0.00014186	1368.2	6.0219e-06	5.4466e-06	1370.9	369.3	1.1001e-05	6.5529e-06	420.54	141.58	123.2	41.887	4.8045e-06	51.445	0.00061844	0.00052329	0.00014612	1392.8	5.7685e-06	5.6737e-06	1392.5	377.54	5.8404e-06	5.8179e-06	430.56	144.39	125.4	43.113	5.7784e-06	53.313	107.528	-100.189	-76.977	-163.125	-49.542	-28.903	-163.249	-158.735	-70.402	-28.100	-159.188	-155.399	-154.523	-149.598	-42.332	-150.243	-8191	255	
6798.098	1	1	0	0	0.1032	0.092924	0.03467	0.15366	0.093313	0.17464	0.25325	0.27833	0.24347	0.11739	0.064177	0.090029	0.18914	0.25497	0.21523	0.064925	-4.7792	-4.575	-5.2146	-5.1542	-4.5646	-5.2958	-4.7167	-4.9958	-5.1813	-4.5312	-5.175	-5.0667	-4.675	-5.2521	-4.8542	-4.8167	58.580	126.572	-70.881	25.093	-40.421	109.497	143.029	181.449	-176.063	-14.033	5.280	160.001	180.199	-166.920	116.697	-138.875	0.0012877	0.00044178	0.00015056	1364.3	7.0619e-06	6.0838e-06	1363.3	369.6	1.1726e-05	3.0396e-06	420.5	141.05	122.91	41.852	5.996e-06	51.589	0.00061546	0.00054968	0.00014318	1389	5.6933e-06	5.5979e-06	1389.2	377.06	5.7316e-06	5.7478e-06	430.51	144.08	125.36	43.029	5.7932e-06	53.313	110.433	-82.123	-95.170	-163.203	-62.814	-44.713	-163.336	-158.653	-85.810	-7.836	-159.086	-155.520	-154.730	-149.280	-38.871	-150.499	-8191	255	
6798.194	1	1	0	0	0.20859	0.048142	0.16239	0.35407	0.1282	0.12099	0.35446	0.085313	0.086489	0.12214	0.28069	0.19788	0.055945	0.16967	0.13835	0.3116	-4.9271	-4.6312	-4.8625	-5.2292	-4.3917	-5.1208	-4.8792	-4.8625	-5.0938	-4.6604	-4.8604	-5.15	-4.6521	-5.1479	-4.8646	-4.7771	148.874	163.470	173.242	-142.851	-161.464	-127.418	119.555	59.363	173.873	-166.201	149.301	134.718	15.189	171.734	-91.075	92.019	0.0012844	0.00051574	0.00015659	1366.2	7.7158e-06	4.7153e-06	1361.7	369.25	1.0076e-05	5.9551e-06	419.81	141.06	122.56	41.849	6.4079e-06	51.494	0.00060426	0.00052512	0.00014487	1389.8	5.7806e-06	5.5156e-06	1388.2	376.97	5.6839e-06	5.5352e-06	430.01	143.99	125.21	43.038	5.5234e-06	53.274	108.306	-81.763	-64.056	-162.969	-73.493	-10.089	-163.351	-158.790	-60.459	-26.225	-159.212	-155.283	-154.755	-149.302	-39.613	-150.445	-8191	255	
6798.290	1	1	0	0	0.23558	0.13331	0.13354	0.19105	0.10397	0.090569	0.27634	0.14229	0.14654	0.1961	0.031962	0.12805	0.13753	0.029395	0.078383	0.28577	-4.825	-4.6146	-4.9437	-5.2729	-4.5271	-5.3854	-5.2375	-4.7	-5.4104	-4.6687	-5.1062	-5.1875	-4.6125	-5.1062	-5.1125	-4.6792	-171.254	-146.008	-47.328	140.582	162.878	-112.809	110.704	62.877	-73.550	88.022	-39.640	51.095	152.293	127.223	117.293	140.720	0.0013074	0.00042426	0.00015629	1366.1	6.6951e-06	5.1232e-06	1360.4	368.96	9.8234e-06	3.9123e-06	420.35	141.09	122.71	41.817	6.0091e-06	51.757	0.00060904	0.00052715	0.00014234	1387.7	5.5911e-06	5.491e-06	1386.8	376.51	5.4796e-06	5.6134e-06	429.79	143.95	125.15	43.078	5.4672e-06	53.312	109.623	-97.439	-75.100	-163.026	-55.888	-19.352	-163.235	-158.780	-71.014	-8.623	-159.067	-155.184	-154.774	-149.561	-45.849	-150.478	-8191	255	
6798.386	1	1	0	0	0.13334	0.061008	0.21277	0.19764	0.20623	0.15975	0.071481	0.22125	0.099204	0.21086	0.1245	0.099235	0.07449	0.26332	0.10582	0.034769	-4.8917	-4.7271	-4.7438	-5.4146	-4.5687	-5.0021	-5.2979	-4.8479	-5.1542	-4.7521	-4.9187	-5.4521	-4.7833	-4.9229	-5.0729	-4.6292	-42.176	-0.221	-14.957	130.313	121.797	-94.960	-15.340	-126.946	121.546	-118.922	17.586	68.564	-167.742	-125.319	72.632	25.105	0.0013046	0.00039243	0.00017862	1359.8	4.9365e-06	4.923e-06	1358.3	368.41	1.2427e-05	4.681e-06	421.5	140.99	123.32	41.84	6.1193e-06	51.488	0.00060352	0.00050978	0.0001376	1387.6	5.7015e-06	5.4879e-06	1387	376.32	5.5234e-06	5.4179e-06	430.1	143.94	125.16	43.025	5.4852e-06	53.249	106.599	-65.643	-107.788	-163.130	-56.355	-9.855	-163.423	-158.606	-77.382	-30.999	-159.094	-155.306	-154.534	-149.610	-42.317	-150.305	-8191	255	
6798.482	1	1	0	0	0.15089	0.098472	0.095066	0.24915	0.22146	0.16958	0.09333	0.20021	0.11391	0.19307	0.15125	0.15068	0.21839	0.041204	0.066497	0.10563	-4.9042	-4.7479	-4.6083	-5.5354	-4.5667	-4.7229	-5.0938	-4.6917	-5.0979	-4.7354	-4.7604	-5.4812	-4.6583	-4.8417	-5.2167	-4.8	161.251	32.026	-55.378	152.842	-143.465	122.696	70.116	141.691	-61.109	-142.490	124.700	89.870	-152.041	142.319	38.747	-9.150	0.0013116	0.00047556	0.00016326	1365.2	5.8686e-06	3.8991e-06	1363.3	368.95	8.8381e-06	6.0474e-06	421.07	141.22	122.63	41.839	5.9971e-06	51.44	0.00059707	0.00049104	0.00014388	1388.2	5.4738e-06	5.5139e-06	1386.2	376.47	5.5422e-06	5.3153e-06	429.88	143.84	125.02	43.118	5.4881e-06	53.206	105.649	-88.810	-86.955	-163.132	-72.373	-23.057	-163.366	-158.664	-75.470	-23.583	-158.920	-155.453	-154.396	-149.421	-51.038	-150.430	-8191	255	
6798.577	1	1	0	0	0.011326	0.077975	0.067451	0.32734	0.23175	0.14898	0.24957	0.27569	0.06047	0.13881	0.28709	0.11953	0.10541	0.21567	0.0047582	0.12051	-4.6542	-4.7917	-4.6062	-5.4292	-4.6312	-4.7458	-5.4938	-4.55	-5.0021	-5.0667	-4.7604	-5.2875	-4.8875	-4.9771	-5.2146	-4.7125	151.190	-62.235	-174.553	123.545	-23.209	-143.446	127.923	111.694	63.351	77.052	180.121	88.932	162.462	-155.359	-28.572	174.729	0.0013214	0.00051326	0.00017135	1362.1	7.2178e-06	7.4867e-06	1357.6	368.71	1.0486e-05	5.8773e-06	420.81	141.2	122.48	41.715	3.853e-06	51.717	0.00060202	0.00049909	0.00014316	1388.5	5.5911e-06	5.4278e-06	1387.5	376.43	5.6052e-06	5.4136e-06	429.65	143.96	125.17	43.038	5.2789e-06	53.319	107.398	-105.156	-68.080	-163.196	-56.259	-27.604	-163.367	-158.664	-51.422	-24.133	-159.095	-154.984	-155.055	-149.543	-29.420	-150.597	-8191	255	
6798.697	1	1	0	0	0.15355	0.065186	0.15623	0.38182	0.24334	0.10619	0.25254	0.1272	0.045509	0.141	0.14007	0.30994	0.22909	0.24182	0.24292	0.26101	-4.875	-4.9479	-4.6208	-5.2021	-4.8187	-4.8583	-5.3688	-4.6792	-4.9604	-5.1125	-4.5854	-5.2937	-4.8292	-4.625	-5.3042	-4.6	-66.783	-110.599	104.270	-170.347	-124.536	74.708	132.680	115.970	57.760	47.155	86.174	111.012	-162.779	76.971	-49.276	0.261	0.0012992	0.00039891	0.00017909	1362.8	5.5858e-06	3.9167e-06	1364.6	369.21	8.4766e-06	3.9142e-06	421.92	141.11	122.39	41.882	5.3687e-06	51.436	0.0005971	0.00049307	0.00013995	1388.7	5.4882e-06	5.568e-06	1389.4	377.39	5.4588e-06	5.3986e-06	430.39	144.15	125.07	43.11	5.2662e-06	53.32	107.594	-95.334	-92.580	-163.047	-49.174	-13.408	-163.580	-158.618	-81.776	-19.157	-159.207	-155.127	-154.699	-149.433	-42.170	-150.296	-8191	255	
6798.794	1	1	0	0	0.23757	0.15623	0.073181	0.24476	0.1871	0.14733	0.17271	0.16213	0.11077	0.40637	0.22127	0.12488	0.26909	0.13072	0.014661	0.22184	-4.5021	-5.0292	-4.4604	-5.3375	-4.6	-4.7958	-5.4021	-4.7167	-4.8396	-4.9854	-4.6687	-5.1062	-4.8938	-4.5604	-5.1146	-4.8458	-148.125	-51.804	-155.249	114.417	31.496	-82.475	155.780	142.236	-72.541	-19.192	125.932	135.986	-161.531	158.408	166.284	-174.463	0.0013546	0.00047335	0.00012474	1365.6	5.624e-06	4.199e-06	1362.3	369.3	1.1496e-05	5.9881e-06	420.85	140.92	122.49	41.715	5.6169e-06	51.496	0.00060294	0.00047797	0.00014076	1388.7	5.4133e-06	5.3459e-06	1387.6	376.04	5.4933e-06	5.1726e-06	430.23	143.97	124.97	42.964	5.4688e-06	53.248	105.571	-103.305	-76.570	-163.037	-77.059	-33.470	-163.445	-158.802	-78.107	-27.125	-159.177	-155.347	-154.675	-149.493	-31.358	-150.446	-8191	255	
6798.890	1	1	0	0	0.11679	0.19473	0.126	0.032305	0.22708	0.227	0.16596	0.22518	0.17839	0.11146	0.052565	0.16306	0.33263	0.24315	0.058553	0.21036	-4.4292	-5.1667	-4.5188	-5.1813	-4.9271	-4.6021	-5.3896	-5.0479	-4.75	-5.1396	-4.6625	-4.975	-5.0583	-4.7688	-5.0979	-4.9958	-19.388	-77.999	67.399	118.411	55.778	-143.905	70.847	106.877	95.076	98.433	-138.702	97.016	139.333	125.203	-5.030	22.647	0.0013584	0.00054493	0.00020224	1364.2	7.273e-06	5.8177e-06	1365.6	369.23	1.0166e-05	6.0073e-06	420.35	141.19	122.73	41.759	6.5075e-06	51.52	0.00060587	0.0004896	0.00013997	1388.2	5.4539e-06	5.6096e-06	1387.2	376.43	5.5375e-06	5.3681e-06	429.73	143.8	125	42.952	5.6275e-06	53.272	107.986	-89.241	-96.182	-163.126	-81.062	-30.085	-163.480	-158.652	-61.480	-34.250	-159.004	-155.270	-154.693	-149.487	-43.379	-150.553	-8191	255	
6798.961	1	1	0	0	0.19288	0.11094	0.097869	0.048603	0.058705	0.17173	0.21102	0.11846	0.11021	0.16381	0.12735	0.13972	0.20573	0.072857	0.22247	0.2676	-4.2708	-5.05	-4.6833	-4.9563	-5.1375	-4.4062	-5.3	-4.9792	-4.6542	-5.2333	-4.8542	-4.9479	-5.3396	-4.75	-4.9708	-4.8958	-9.299	-99.688	-125.764	62.779	-55.441	60.489	126.026	156.477	40.253	-35.066	108.780	103.305	71.611	131.402	-19.740	121.485	0.0012849	0.00050255	0.00018152	1365.1	6.5257e-06	7.8074e-06	1361.3	367.64	1.0738e-05	5.6874e-06	419.39	141.01	122.67	41.73	4.2895e-06	51.375	0.00058994	0.00049963	0.00013956	1388.1	5.473e-06	5.5685e-06	1387.2	376.06	5.5809e-06	5.259e-06	429.88	143.79	124.91	42.97	5.436e-06	53.131	106.911	-75.458	-76.772	-163.083	-49.153	-31.961	-163.449	-158.616	-74.208	-19.411	-159.037	-155.325	-154.276	-149.591	-51.999	-150.373	-8191	255	
6799.082	1	1	0	0	0.13775	0.18446	0.055896	0.29142	0.14195	0.18375	0.31806	0.23586	0.11851	0.13434	0.29358	0.08571	0.088435	0.088081	0.081774	0.14234	-4.1875	-5.075	-4.675	-4.9917	-5.2917	-4.5833	-5.2292	-5.1375	-4.5458	-5.2042	-4.7479	-4.6708	-5.2188	-4.8333	-5.075	-5.0042	73.877	170.652	-83.089	147.144	63.722	-40.216	66.788	121.476	11.272	104.473	177.835	-152.026	57.381	-175.144	-153.101	111.620	0.0013122	0.00045346	0.00015714	1369	5.4727e-06	5.4135e-06	1359.4	369.4	9.5302e-06	5.1964e-06	420.09	141.06	122	41.655	6.7654e-06	51.367	0.00060092	0.00048175	0.00013696	1388.5	5.5424e-06	5.3862e-06	1385.4	375.6	5.4937e-06	5.2796e-06	429.46	143.81	124.75	42.937	5.3204e-06	53.166	108.100	-120.949	-89.467	-163.148	-80.820	-19.024	-163.375	-158.756	-80.093	-37.713	-159.016	-154.903	-154.596	-149.614	-40.223	-150.430	-8191	255	
6799.178	1	1	0	0	0.08894	0.14155	0.14448	0.033891	0.15771	0.14248	0.2648	0.12787	0.067099	0.23199	0.11148	0.3082	0.032203	0.08053	0.24154	0.31397	-4.2771	-5.1208	-4.7729	-4.9583	-5.2229	-4.5938	-5.3542	-5.1708	-4.4958	-5.2771	-5.0375	-4.75	-5.0979	-4.8271	-4.8625	-5.0312	-9.439	164.625	-35.834	103.551	183.351	-6.514	94.066	80.825	98.332	-39.942	75.167	141.542	-53.908	149.877	-106.151	73.939	0.0012628	0.00045224	0.00017902	1361.6	6.4315e-06	3.432e-06	1357.7	368.04	1.0865e-05	5.8484e-06	420.77	140.99	121.57	41.625	4.2379e-06	51.343	0.00059674	0.00049362	0.00013784	1386.1	5.4816e-06	5.2931e-06	1385	375.81	5.6111e-06	5.2203e-06	429.01	143.45	124.61	42.924	5.5152e-06	53.153	107.133	-99.121	-72.447	-163.160	-68.306	-28.806	-163.460	-158.651	-78.793	-26.227	-159.033	-155.420	-154.771	-149.457	-36.891	-150.381	-8191	255	
6799.274	1	1	0	0	0.14681	0.069223	0.15166	0.23689	0.098285	0.12825	0.11355	0.22281	0.25929	0.12138	0.20313	0.11045	0.25864	0.33729	0.099208	0.18559	-4.3063	-5.1896	-4.7354	-4.6917	-5.3	-4.6854	-4.9458	-5.3792	-4.6521	-5.0125	-5.0271	-4.8187	-5.0979	-4.8521	-4.8521	-5.3292	8.941	-98.032	173.320	-156.176	-108.251	-38.552	123.667	163.416	-148.333	71.613	-173.804	-84.154	182.520	21.447	125.094	161.883	0.0013373	0.00054532	0.00016593	1359.2	8.1028e-06	5.0732e-06	1359.7	368.82	1.0194e-05	5.6874e-06	419.2	140.84	121.83	41.759	5.72e-06	51.329	0.00060773	0.00048808	0.00013586	1384.3	5.4223e-06	5.5473e-06	1385.5	375.53	5.6862e-06	5.3569e-06	429.24	143.74	124.63	42.914	5.3741e-06	53.025	106.160	-101.524	-77.387	-162.974	-73.869	-40.167	-163.276	-158.677	-82.280	-23.734	-159.226	-155.231	-154.600	-149.576	-26.497	-150.452	-8191	255	
6799.370	1	1	0	0	0.056134	0.13101	0.25203	0.31878	0.2293	0.085353	0.12621	0.081433	0.15344	0.11912	0.1306	0.30404	0.026702	0.27295	0.075819	0.12525	-4.1813	-5.2333	-4.8354	-4.6917	-5.2125	-4.7604	-4.9354	-5.1521	-4.5542	-5.0417	-5.1792	-4.7396	-5.1396	-4.8583	-4.7312	-5.3083	-161.467	-86.481	-102.177	166.064	-95.445	-37.965	121.443	110.504	-131.719	86.759	112.827	141.124	-115.881	177.724	-102.889	-144.645	0.0013126	0.00054424	0.00017856	1362	6.1634e-06	5.1719e-06	1362.7	366.66	1.2429e-05	4.0762e-06	419.72	140.49	121.94	41.596	6.4861e-06	51.568	0.00059786	0.00048862	0.00013439	1385.2	5.1989e-06	5.41e-06	1384.6	375.43	5.4064e-06	5.1958e-06	428.75	143.53	124.57	42.917	5.5631e-06	53.164	107.828	-83.500	-83.588	-162.957	-58.864	-17.519	-163.510	-158.632	-75.573	-31.701	-159.172	-155.492	-154.426	-149.500	-46.907	-150.479	-8191	255	
6799.489	1	1	0	0	0.16959	0.034198	0.16085	0.43858	0.21404	0.1055	0.15295	0.27393	0.17333	0.14257	0.25229	0.19449	0.12312	0.15017	0.063412	0.12541	-4.2521	-5.1062	-5.0208	-4.7854	-5.2708	-4.7979	-4.9375	-5.2	-4.6042	-4.9229	-5.1583	-4.5458	-5.2229	-4.9083	-4.6229	-5.3208	80.565	-148.412	64.747	162.267	-7.212	12.171	128.530	112.867	30.327	114.058	96.527	145.916	48.248	116.362	-37.161	37.585	0.0012823	0.00052836	0.00012029	1365.3	6.1142e-06	2.4523e-06	1357.8	367.85	1.1776e-05	4.9984e-06	419.77	141.11	122.38	41.786	4.5905e-06	51.567	0.00061016	0.00048347	0.00013168	1386.8	5.4044e-06	5.3308e-06	1385.9	375.76	5.525e-06	5.4415e-06	429.12	143.82	124.78	42.924	5.5373e-06	53.167	105.623	-106.254	-70.709	-163.005	-61.494	-21.442	-163.383	-158.786	-72.478	-30.107	-159.358	-155.472	-154.839	-149.678	-47.496	-150.221	-8191	255	
6799.563	1	1	0	0	0.05154	0.092572	0.081045	0.11481	0.21993	0.235	0.19572	0.17715	0.041238	0.041132	0.097365	0.15314	0.13627	0.070638	0.19918	0.065621	-4.4854	-4.7917	-5.0833	-4.7896	-5.1146	-4.9812	-4.7771	-5.2083	-4.6562	-4.675	-5.3208	-4.7688	-5.1167	-5.0354	-4.4042	-5.3812	-48.379	21.369	-73.537	151.767	-154.779	60.328	-169.285	5.438	160.690	116.955	18.609	153.025	-71.407	139.452	97.144	134.781	0.0012693	0.00044633	0.00017722	1362	7.0943e-06	5.0147e-06	1358.6	369.17	1.0769e-05	3.6758e-06	418.59	141.25	122.18	41.705	6.3351e-06	51.46	0.00058144	0.00048812	0.00013618	1385.4	5.3771e-06	5.3386e-06	1385.5	375.9	5.604e-06	5.4733e-06	429.1	143.72	124.6	42.98	5.6345e-06	53.142	109.024	-96.082	-76.834	-163.040	-58.471	-16.997	-163.275	-158.674	-63.009	-24.179	-159.007	-155.469	-154.560	-149.301	-47.820	-150.359	-8191	255	
6799.659	1	1	0	0	0.18001	0.047593	0.10521	0.41655	0.011761	0.050062	0.18176	0.10672	0.050107	0.095278	0.28292	0.13415	0.31152	0.28953	0.10973	0.12501	-4.3833	-4.6312	-5.2021	-4.8438	-4.9854	-4.9563	-4.7896	-5.3	-4.6792	-4.775	-5.275	-4.7896	-5.0604	-5.3167	-4.4083	-5.3979	92.857	149.372	-40.984	173.616	104.286	-152.687	118.184	174.191	-96.000	95.956	-175.502	-114.214	73.108	127.051	-120.572	85.380	0.0012659	0.0003303	0.00012946	1365.4	3.3651e-06	5.1641e-06	1361	369.9	1.1088e-05	4.7331e-06	419.79	141.12	122.67	41.591	5.452e-06	51.247	0.00057876	0.00050158	0.00013361	1387.8	5.4441e-06	5.5239e-06	1386.6	376.8	5.6181e-06	5.4579e-06	429.45	143.87	124.94	42.95	5.5357e-06	53.155	107.357	-87.882	-82.337	-162.988	-79.138	-27.339	-163.392	-158.652	-76.647	-13.589	-159.095	-155.237	-154.429	-149.450	-39.105	-150.580	-8191	255	
6799.778	1	1	0	0	0.17415	0.28175	0.06406	0.27467	0.057948	0.063881	0.1189	0.14917	0.10066	0.027436	0.052536	0.064486	0.24481	0.31839	0.20332	0.10071	-4.3521	-4.6771	-5.3646	-4.8417	-4.9604	-5.1188	-4.8146	-5.2708	-4.9167	-4.4854	-5.45	-4.8812	-4.7	-5.1958	-4.6396	-5.0271	0.153	-2.173	94.996	136.518	-96.208	52.443	63.832	133.722	45.328	141.508	-124.166	-142.474	171.600	141.910	157.264	28.329	0.0013239	0.00051585	0.00010765	1365.1	8.0707e-06	4.9487e-06	1359.5	369.69	1.1363e-05	4.3786e-06	421.76	140.86	122.32	41.76	6.1357e-06	51.152	0.00059256	0.00050084	0.00013547	1387.8	5.448e-06	5.3044e-06	1384.9	376.13	5.5038e-06	5.5472e-06	429.11	143.86	124.82	43.014	5.5262e-06	53.176	107.607	-80.508	-79.120	-162.934	-83.777	-55.644	-163.349	-158.638	-77.485	-18.357	-159.168	-155.253	-154.574	-149.538	-38.768	-150.346	-8191	255	
6799.874	1	1	0	0	0.11806	0.11035	0.29275	0.30317	0.10921	0.28159	0.27352	0.021209	0.19763	0.067044	0.1511	0.23101	0.064929	0.26416	0.19946	0.14565	-4.4583	-4.4833	-5.1875	-4.8833	-4.7354	-5.1771	-4.7063	-5.0646	-4.9125	-4.6833	-5.2458	-4.8375	-4.6396	-5.2333	-4.7937	-5.1771	-72.083	-121.499	1.719	113.556	-41.166	54.479	101.152	23.600	-76.451	-55.402	-170.896	-128.577	103.896	-175.911	-13.882	-35.298	0.0013128	0.00040711	0.00015169	1362.2	6.083e-06	6.1521e-06	1356.5	369.06	1.3639e-05	4.6199e-06	419.51	140.45	122.34	41.629	6.2383e-06	51.375	0.00059431	0.00048909	0.00013893	1386	5.503e-06	5.1901e-06	1386	376.31	5.6416e-06	5.5026e-06	428.92	143.62	124.88	42.929	5.5406e-06	53.182	105.712	-74.055	-87.107	-162.894	-94.984	-22.146	-163.249	-158.503	-71.946	-7.446	-159.179	-155.280	-154.466	-149.446	-40.735	-150.192	-8191	255	
6799.970	1	1	0	0	0.045658	0.16169	0.077036	0.17026	0.12611	0.25596	0.17422	0.25217	0.21164	0.096355	0.062049	0.15031	0.08003	0.18945	0.23244	0.38681	-4.5687	-4.6667	-5.1062	-4.8583	-4.7729	-5.1687	-4.6521	-5.1417	-5.0813	-4.6354	-5.45	-4.7438	-4.7979	-5.2396	-4.6354	-5.1292	25.647	111.170	-24.893	-156.369	2.141	-116.244	39.800	123.577	-10.266	-88.493	159.190	-19.247	43.685	-130.972	80.485	140.525	0.0012419	0.00062142	0.0001758	1363.7	5.5917e-06	4.8823e-06	1359.3	368.24	1.1573e-05	5.7209e-06	419.61	140.95	122.55	41.814	5.2076e-06	51.426	0.00058343	0.00051201	0.00013468	1388.5	5.5556e-06	5.4654e-06	1385.6	376.21	5.6878e-06	5.5279e-06	429.69	143.97	125.1	43.014	5.5016e-06	53.165	108.850	-100.677	-83.243	-162.955	-53.344	-14.220	-163.344	-158.588	-79.448	-11.416	-159.078	-155.133	-154.737	-149.349	-59.626	-150.602	-8191	255	
6800.091	1	1	0	0	0.14317	0.24132	0.12523	0.16047	0.034324	0.033519	0.28609	0.22873	0.11288	0.13561	0.2919	0.21424	0.1748	0.13606	0.27364	0.23905	-4.7646	-4.5125	-4.9521	-4.8979	-4.7375	-5.1958	-4.9833	-4.9083	-5.0479	-4.6687	-5.2042	-5.0958	-4.6333	-5.3812	-4.6708	-4.7896	-90.391	-140.198	34.354	79.707	-116.413	-97.873	131.112	99.921	-28.892	148.619	137.767	-101.607	108.095	-61.712	-60.831	101.521	0.0012337	0.00057924	0.00015142	1366.9	5.7897e-06	2.7692e-06	1363.6	369.59	1.2066e-05	5.8182e-06	420.32	140.93	122.4	41.743	6.6753e-06	51.424	0.00060256	0.00050428	0.00013661	1389.1	5.6079e-06	5.2286e-06	1387.1	376.44	5.5809e-06	5.6022e-06	429.28	143.74	124.86	43.006	5.5984e-06	53.141	108.175	-86.392	-54.975	-163.045	-80.808	-36.077	-163.380	-158.510	-67.501	-32.053	-159.101	-155.049	-154.567	-149.447	-38.069	-150.289	-8191	255	
6800.187	1	1	0	0	0.23694	0.16159	0.1287	0.18108	0.32269	0.03182	0.29756	0.12426	0.21137	0.19321	0.11257	0.17922	0.22712	0.19566	0.30544	0.18537	-4.6854	-4.3917	-5.0292	-5.2354	-4.6438	-5.25	-4.9708	-4.8562	-5.2958	-4.6354	-5.0792	-5.3187	-4.5604	-5.3854	-4.8896	-4.7542	125.325	179.219	30.332	153.977	-5.684	-23.602	128.412	-108.165	138.478	-57.005	144.471	127.022	169.263	-117.278	-124.827	117.155	0.0013147	0.00050002	0.00013609	1361.6	5.5797e-06	4.9297e-06	1362.3	369.12	9.5249e-06	3.9629e-06	419.57	140.94	122.6	41.615	6.7758e-06	51.294	0.00060245	0.00050592	0.00013678	1386.4	5.6126e-06	5.42e-06	1388.2	376.34	5.5175e-06	5.3788e-06	429.11	143.92	125.09	42.988	5.4237e-06	53.125	108.421	-112.041	-93.784	-163.028	-35.096	-27.215	-163.390	-158.574	-75.243	-19.682	-158.913	-155.408	-154.498	-149.398	-36.534	-150.147	-8191	255	
6800.259	1	1	0	0	0.14876	0.088917	0.068278	0.14005	0.18218	0.31693	0.080853	0.12319	0.13507	0.20253	0.28563	0.0691	0.024852	0.13417	0.10963	0.13035	-4.9	-4.7396	-4.6896	-5.1958	-4.4729	-4.9958	-5.1083	-4.6479	-5.1354	-4.6375	-4.8438	-5.2521	-4.6625	-5.0188	-4.8833	-4.5583	129.856	77.476	-16.562	76.607	163.081	-172.733	132.926	132.168	73.945	-160.647	164.539	-171.762	106.334	59.433	85.995	-69.352	0.0013427	0.0004448	0.000183	1365.5	4.6494e-06	6.9678e-06	1357.2	369.87	9.8728e-06	3.0774e-06	420.18	140.87	122.02	41.67	8.1388e-06	51.531	0.00059584	0.00048706	0.00013819	1387.2	5.5081e-06	5.368e-06	1384.3	376.7	5.444e-06	5.5429e-06	429.68	143.84	124.61	42.961	5.2666e-06	53.25	109.473	-112.758	-59.705	-163.030	-49.038	-23.114	-163.347	-158.792	-84.486	-44.168	-158.958	-155.150	-154.693	-149.267	-54.441	-150.315	-8191	255	
6800.379	1	1	0	0	0.24025	0.11131	0.13436	0.20023	0.14746	0.090707	0.034573	0.14883	0.12713	0.33011	0.17397	0.19538	0.11524	0.26342	0.14211	0.14125	-4.7146	-4.6979	-4.875	-5.2604	-4.4833	-5.1438	-5.1979	-4.575	-5.1937	-4.7688	-4.6667	-5.1833	-4.5708	-5.0042	-4.9708	-4.7083	95.142	-112.942	180.182	120.932	95.069	24.840	-171.873	174.540	-82.086	37.399	63.233	160.915	-8.514	134.648	-15.035	-157.616	0.001315	0.00037378	0.00018701	1365.7	5.7705e-06	4.9659e-06	1359	369.35	8.8086e-06	5.5612e-06	419.38	139.76	122.04	41.856	6.613e-06	51.534	0.00059007	0.00048609	0.00013634	1387.3	5.4126e-06	5.2091e-06	1385.3	376.06	5.2275e-06	5.1413e-06	429.15	143.47	124.78	43.018	5.0961e-06	53.231	108.036	-78.442	-98.280	-163.055	-77.572	-15.506	-163.389	-158.888	-74.524	-44.786	-159.101	-155.359	-154.456	-149.403	-34.426	-150.220	-8191	255	
6800.474	1	1	0	0	0.055167	0.14926	0.16678	0.1272	0.10806	0.19383	0.13955	0.26817	0.27735	0.048892	0.29778	0.062059	0.089149	0.15444	0.16899	0.12866	-4.7042	-4.8229	-4.6604	-5.1417	-4.5583	-5.0146	-5.1875	-4.5208	-5.1604	-4.8938	-4.6708	-5.1458	-4.7646	-4.9688	-5.0542	-4.7312	-25.344	39.442	-155.036	-149.090	53.745	-154.948	166.371	105.615	-25.525	-24.821	89.491	96.438	-152.852	-89.179	-175.156	109.836	0.001289	0.00039539	0.00017501	1360	7.3959e-06	4.9922e-06	1362.5	368.45	1.0822e-05	5.5127e-06	419.02	140.48	122.85	41.705	7.4007e-06	51.328	0.00058526	0.00047348	0.0001324	1384.8	5.2788e-06	5.2351e-06	1385.5	375.74	5.2976e-06	5.2955e-06	428.46	143.74	124.85	42.936	5.4409e-06	53.166	106.380	-99.264	-83.853	-163.058	-48.865	-54.864	-163.447	-158.721	-84.991	-27.738	-158.924	-155.441	-154.789	-149.562	-25.584	-150.370	-8191	255	
6800.570	1	1	0	0	0.15654	0.18649	0.024557	0.057028	0.092115	0.028	0.19427	0.11936	0.2178	0.15558	0.074163	0.11159	0.29837	0.081184	0.14318	0.10036	-4.9208	-4.7188	-4.3542	-5.4458	-4.4896	-4.825	-5.2708	-4.725	-5.1188	-5.0396	-4.6396	-5.2375	-4.9229	-4.9458	-5.075	-4.6083	-29.185	-146.082	-53.648	78.849	60.485	88.842	117.140	111.179	48.270	-32.594	-130.387	-36.754	157.647	73.245	3.454	169.301	0.0012691	0.00057936	0.00014677	1366.4	7.01e-06	4.2001e-06	1358.4	368.28	1.2057e-05	3.962e-06	418.98	140.94	122.04	41.854	6.5838e-06	51.545	0.00057376	0.00047067	0.00013571	1387.4	5.3404e-06	5.1238e-06	1386.4	375.82	5.368e-06	5.1469e-06	429.24	143.58	124.7	43.032	5.3064e-06	53.229	105.843	-65.055	-70.989	-163.058	-61.267	-29.065	-163.322	-158.753	-82.239	-12.995	-159.207	-155.055	-154.783	-149.599	-39.205	-150.428	-8191	255	
6800.666	1	1	0	0	0.14498	0.099634	0.27987	0.19137	0.12177	0.11468	0.16159	0.13368	0.016377	0.24784	0.12486	0.18847	0.085567	0.24268	0.17439	0.20828	-4.6708	-4.8313	-4.5062	-5.5333	-4.5771	-4.9104	-5.2458	-4.6833	-4.9708	-4.9771	-4.6417	-5.2979	-4.9375	-4.8667	-5.1958	-4.7604	12.733	63.284	69.526	162.650	152.119	-63.747	75.787	142.265	56.151	-172.085	63.326	145.116	-137.215	89.352	-51.343	119.751	0.0013375	0.00051034	0.00015047	1363.2	5.8011e-06	4.8678e-06	1362.5	368.56	1.2322e-05	6.5886e-06	419.27	140.72	122.43	41.885	5.2358e-06	51.511	0.00059169	0.00048534	0.00013654	1385.7	5.5299e-06	5.242e-06	1387	375.96	5.3978e-06	5.3118e-06	429.13	143.45	124.78	43.024	5.3675e-06	53.212	106.053	-97.405	-99.120	-163.048	-50.029	-17.881	-163.407	-158.635	-71.285	-31.260	-158.915	-155.668	-154.534	-149.442	-46.105	-150.303	-8191	255	
6800.787	1	1	0	0	0.072575	0.23137	0.14114	0.25679	0.1085	0.28218	0.1408	0.087122	0.18826	0.18288	0.23839	0.34483	0.030368	0.26825	0.31931	0.094252	-4.6104	-5.0104	-4.5542	-5.1562	-4.7333	-4.6771	-5.4	-4.6271	-4.9271	-5.1021	-4.6833	-5.0542	-4.9938	-4.825	-5.0792	-4.6875	-62.402	12.728	92.637	91.178	-110.617	-136.898	161.670	142.503	-111.961	-93.713	139.724	132.255	44.830	131.572	4.448	166.424	0.0012236	0.00047038	0.00015072	1363.9	7.673e-06	2.9835e-06	1360.3	368.2	1.1876e-05	5.0533e-06	418.9	141.19	121.85	41.635	4.3843e-06	51.299	0.00059163	0.00046989	0.00013675	1386.3	5.4114e-06	5.2451e-06	1384.9	375.71	5.4776e-06	5.326e-06	428.79	143.66	124.77	42.926	5.3962e-06	53.166	107.582	-87.048	-56.461	-162.977	-67.524	-38.972	-163.400	-158.741	-82.062	-34.015	-159.045	-155.192	-154.575	-149.620	-52.553	-150.251	-8191	255	
6800.858	1	1	0	0	0.1421	0.095127	0.20625	0.21551	0.12884	0.24324	0.29463	0.16254	0.15387	0.13379	0.18472	0.19906	0.096958	0.068854	0.12525	0.13074	-4.6042	-5.075	-4.5646	-5.3583	-5.0708	-4.4104	-5.4375	-5.0208	-4.6146	-5.1229	-4.65	-5.0479	-4.9333	-4.6875	-5.2042	-4.7646	126.694	1.521	-26.537	111.299	-12.422	25.506	93.809	125.116	53.322	34.765	-111.168	103.446	166.670	99.541	52.887	21.174	0.0012806	0.00043686	0.00014263	1357.6	4.1428e-06	5.1428e-06	1359.8	368.75	1.2372e-05	4.4719e-06	419.27	140.7	122.99	41.599	6.189e-06	51.46	0.00059434	0.00050666	0.00013915	1385.1	5.4387e-06	5.4719e-06	1385.8	376.1	5.4408e-06	5.2508e-06	428.78	143.72	125.05	42.972	5.2338e-06	53.173	108.132	-83.333	-67.438	-163.098	-67.061	-35.345	-163.430	-158.842	-70.356	-17.992	-158.977	-155.288	-154.806	-149.620	-42.735	-150.469	-8191	255	
6800.954	1	1	0	0	0.16566	0.080664	0.24909	0.22574	0.23241	0.15225	0.16454	0.22488	0.069553	0.28637	0.26572	0.20183	0.19963	0.21157	0.10441	0.16569	-4.5333	-4.9833	-4.5146	-5.1646	-5.0854	-4.5625	-5.2438	-4.9875	-4.5271	-4.9812	-4.7792	-4.8458	-5.1625	-4.5417	-4.8938	-5.0542	-41.399	32.960	168.968	-167.563	-122.869	-114.317	156.183	127.120	-140.342	-66.467	165.913	167.665	109.034	-151.117	-92.993	126.730	0.0012812	0.00042531	0.00011189	1361.3	6.6091e-06	5.495e-06	1361.9	367.93	1.5108e-05	5.6563e-06	418.66	140.83	122.44	41.8	5.3311e-06	51.587	0.00059584	0.00046672	0.00013545	1386.8	5.443e-06	5.3507e-06	1386.4	375.57	5.6534e-06	5.2744e-06	428.82	143.75	125.04	43.037	5.5754e-06	53.252	106.996	-79.243	-50.804	-162.943	-68.978	-29.493	-163.300	-158.610	-69.911	-6.966	-159.100	-155.267	-154.242	-149.449	-22.967	-150.349	-8191	255	
6801.050	1	1	0	0	0.1237	0.063216	0.10528	0.15206	0.12626	0.23846	0.22908	0.15227	0.053366	0.062034	0.39384	0.13706	0.01865	0.11094	0.1151	0.0977	-4.1458	-5.2	-4.525	-4.9521	-5.0542	-4.4521	-5.1687	-4.9479	-4.5312	-5.0437	-4.6229	-4.7354	-5.3938	-4.5792	-5.0437	-5.1	124.175	-101.094	-6.050	71.066	68.473	-69.658	145.644	180.349	-92.442	-145.690	-157.444	147.488	-93.969	73.337	-168.804	-79.039	0.0012643	0.00044765	0.00015749	1364.5	7.0757e-06	5.5881e-06	1359.8	368.34	1.1352e-05	5.4863e-06	419.38	140.68	122.59	41.823	5.8686e-06	51.512	0.00058909	0.00049772	0.00014085	1385.9	5.5299e-06	5.6035e-06	1387	375.89	5.7978e-06	5.2753e-06	429.08	143.62	124.84	43.042	5.5574e-06	53.216	105.480	-83.122	-90.233	-163.094	-71.629	-24.547	-163.431	-158.401	-76.549	-41.174	-158.860	-155.435	-154.733	-149.622	-33.225	-150.445	-8191	255	
6801.171	1	1	0	0	0.10116	0.1213	0.1063	0.21325	0.078651	0.19028	0.127	0.1212	0.095875	0.041116	0.13271	0.14957	0.05692	0.28481	0.15133	0.12576	-4.3604	-5.0833	-4.7438	-4.9771	-5.1042	-4.5708	-5.3604	-5.2458	-4.4396	-5.1833	-5.0188	-4.7646	-5.2271	-4.8187	-5.0188	-4.9604	-21.479	115.431	41.512	149.141	50.994	-49.403	89.126	166.806	136.621	-143.013	-170.463	163.983	-155.317	52.509	-46.023	110.561	0.0012921	0.00042181	0.00014303	1361.6	8.327e-06	4.7955e-06	1360.8	368.91	9.4669e-06	6.3654e-06	420.92	140.18	122.62	41.826	5.1445e-06	51.527	0.00060595	0.00050057	0.00014127	1387.4	5.5974e-06	5.5758e-06	1386.9	376.11	5.7958e-06	5.5275e-06	429.55	143.61	124.81	42.986	5.6624e-06	53.301	108.206	-88.477	-77.456	-163.077	-75.282	-27.800	-163.518	-158.689	-63.042	-24.911	-159.104	-155.331	-154.662	-149.635	-24.189	-150.586	-8191	255	
6801.267	1	1	0	0	0.22957	0.20035	0.17853	0.23919	0.098239	0.20805	0.29022	0.20405	0.064712	0.21437	0.19795	0.079737	0.1025	0.20844	0.10465	0.17988	-4.0938	-5.1479	-4.8958	-4.5833	-5.1292	-4.6708	-5.0854	-5.2583	-4.4521	-5.0958	-5.2292	-4.6458	-5.3167	-4.8667	-4.9292	-5.1292	115.831	-36.575	50.577	-172.961	64.355	24.028	165.331	37.792	29.547	58.188	141.793	-21.479	45.946	169.563	99.686	139.122	0.0013145	0.00045613	0.00015723	1364.7	6.9798e-06	5.6106e-06	1361.5	368.33	7.8553e-06	5.5744e-06	422.13	140.69	122.6	41.717	4.6123e-06	51.443	0.00061303	0.00050201	0.00013857	1388	5.6137e-06	5.4507e-06	1386	376.05	5.6252e-06	5.3994e-06	429.87	143.84	125.09	43.003	5.5972e-06	53.209	108.544	-82.754	-67.524	-163.010	-71.256	-38.219	-163.390	-158.819	-79.197	-9.769	-159.147	-155.311	-154.760	-149.523	-46.277	-150.616	-8191	255	
6801.363	1	1	0	0	0.10296	0.02969	0.19482	0.053167	0.10199	0.048986	0.095048	0.28899	0.051148	0.072264	0.22261	0.35009	0.23303	0.27036	0.15224	0.064143	-4.1958	-5.1375	-4.8562	-4.7875	-5.0229	-4.6937	-4.9583	-5.325	-4.5479	-5.1792	-5.0396	-4.5104	-5.2604	-4.9167	-4.7521	-5.1396	160.540	-7.835	153.755	127.994	39.366	136.563	65.971	-172.524	175.815	-18.054	164.838	-108.346	95.841	96.917	-50.514	157.393	0.001288	0.00047833	0.00019307	1362	6.1669e-06	5.6262e-06	1359.7	368.51	1.1904e-05	6.709e-06	420.14	141.48	122.78	41.756	6.9812e-06	51.51	0.00060983	0.00049889	0.00013983	1387.4	5.5638e-06	5.6854e-06	1385.5	375.77	5.5723e-06	5.4351e-06	429.25	143.89	125.12	43.034	5.6525e-06	53.16	109.429	-77.208	-91.381	-163.053	-63.516	-31.892	-163.307	-158.822	-51.855	-47.060	-159.122	-155.402	-154.593	-149.495	-59.031	-150.331	-8191	255	
6801.460	1	1	0	0	0.078902	0.16274	0.12893	0.10289	0.28436	0.32128	0.22124	0.14588	0.15212	0.24572	0.22882	0.16101	0.13395	0.1369	0.21729	0.031129	-4.1188	-5.0021	-4.9896	-4.8229	-5.2021	-4.4958	-4.7562	-5.5271	-4.6542	-4.9542	-5.2458	-4.5188	-5.25	-4.9229	-4.6937	-5.2312	-20.092	-160.026	104.379	-157.930	-78.660	181.937	56.474	123.574	52.124	137.252	-169.684	110.731	124.701	157.557	29.022	-176.573	0.0012511	0.00046049	8.8842e-05	1369.2	6.5733e-06	6.2813e-06	1364.3	367.89	1.1836e-05	7.1104e-06	419.79	141.08	122.46	41.839	4.2086e-06	51.344	0.00060409	0.00048925	0.00013474	1389.4	5.5377e-06	5.3325e-06	1387.6	375.67	5.7449e-06	5.4995e-06	429.19	143.85	125	43.007	5.3466e-06	53.166	106.225	-88.571	-80.231	-163.087	-78.643	-27.178	-163.414	-158.751	-65.243	-23.991	-159.068	-155.015	-154.313	-149.314	-41.293	-150.609	-8191	255	
6801.556	1	1	0	0	0.03129	0.1062	0.28726	0.083786	0.12053	0.10164	0.15416	0.22173	0.1359	0.087357	0.10562	0.10845	0.11325	0.12984	0.1452	0.27888	-4.3958	-5.0333	-4.9646	-4.8375	-5.075	-5.0271	-4.6771	-5.3104	-4.6854	-4.9333	-5.2458	-4.7729	-5.1792	-5.0479	-4.4187	-5.2812	129.922	14.114	-8.528	121.773	107.449	155.644	44.445	130.129	-110.858	-142.174	46.737	-111.887	73.185	-174.719	-70.399	-137.317	0.0012583	0.00069171	0.00013683	1362.1	5.3404e-06	5.4356e-06	1363.9	368.97	9.799e-06	5.4139e-06	419.65	140.85	122.32	41.705	4.3923e-06	51.452	0.00058674	0.00050822	0.00014012	1387.4	5.3681e-06	5.3901e-06	1386.2	376.14	5.5277e-06	5.4802e-06	429.47	143.71	125.03	43.022	5.5664e-06	53.221	108.596	-103.136	-69.867	-162.941	-58.083	-22.404	-163.400	-158.766	-76.772	-35.972	-159.206	-155.363	-154.750	-149.440	-56.270	-150.231	-8191	255	
6801.652	1	1	0	0	0.16944	0.14052	0.044661	0.12362	0.034685	0.21853	0.11024	0.24357	0.17527	0.16827	0.2667	0.076726	0.21582	0.41774	0.059943	0.11392	-4.5729	-4.8167	-5.0604	-4.9938	-5.0708	-4.9646	-4.7354	-5.1521	-4.8417	-4.8917	-5.125	-4.6917	-5.0208	-5.2833	-4.4146	-5.05	84.077	32.775	-153.011	83.330	-66.582	155.456	169.678	138.923	33.081	-21.243	-151.518	-42.525	79.769	-174.410	-48.504	-52.743	0.0013223	0.00059713	0.00021267	1367.1	7.0162e-06	6.4778e-06	1360.6	368.95	1.1629e-05	6.406e-06	420.18	140.63	122.47	41.802	5.9026e-06	51.324	0.00060488	0.00050838	0.00013848	1388	5.5295e-06	5.5221e-06	1386.1	376.29	5.6526e-06	5.378e-06	428.89	143.84	125.13	42.946	5.5894e-06	53.197	107.069	-85.397	-86.121	-162.848	-59.981	-14.441	-163.427	-158.726	-67.397	-20.258	-158.935	-155.239	-154.639	-149.616	-48.706	-150.321	-8191	255	
6801.771	1	1	0	0	0.20004	0.051438	0.096132	0.38276	0.21367	0.084429	0.32809	0.24962	0.17602	0.19664	0.1533	0.23508	0.1124	0.14565	0.1124	0.063046	-4.425	-4.7542	-5.0563	-4.5938	-4.9479	-5.1854	-4.5563	-5.0729	-4.9125	-4.7125	-5.3542	-4.7208	-4.7958	-5.0979	-4.5042	-5.1958	-23.873	14.277	14.916	173.401	7.021	-81.440	82.473	125.615	77.104	158.994	129.238	-127.732	172.372	-157.579	36.733	-107.405	0.0013138	0.00046046	0.0001502	1361.2	6.941e-06	4.7717e-06	1360.8	368.98	1.2521e-05	5.7003e-06	419.15	141.1	121.47	41.664	4.3511e-06	51.444	0.00060079	0.00048367	0.00013761	1386.3	5.4652e-06	5.4516e-06	1385.6	376.39	5.6017e-06	5.4175e-06	429.45	143.75	124.77	42.965	5.6788e-06	53.179	107.659	-95.922	-79.784	-163.085	-78.059	-33.569	-163.378	-158.816	-68.800	-16.642	-159.133	-155.042	-154.690	-149.461	-66.689	-150.432	-8191	255	
6801.867	1	1	0	0	0.14549	0.10606	0.11004	0.16371	0.072414	0.12405	0.17532	0.10287	0.027231	0.30154	0.15357	0.1321	0.15453	0.38047	0.17852	0.23215	-4.7646	-4.5458	-5.0917	-4.8063	-4.8792	-5.2375	-4.7021	-4.9958	-4.8854	-4.6667	-5.2854	-4.7792	-4.775	-5.1687	-4.7208	-5.2458	121.161	48.537	-107.261	-160.183	88.411	-152.207	134.444	120.704	-117.692	141.519	140.767	-150.655	132.501	147.983	117.958	180.814	0.0012719	0.0005704	0.00014575	1362.6	5.9657e-06	7.694e-06	1361.7	368.16	1.0935e-05	4.2511e-06	419.14	140.86	122.29	41.709	7.0703e-06	51.613	0.00059417	0.00051041	0.00013606	1387.1	5.6898e-06	5.426e-06	1386	375.47	5.7434e-06	5.4351e-06	429.27	143.86	125.13	42.974	5.5701e-06	53.234	107.957	-92.855	-91.567	-163.265	-68.370	-19.411	-163.402	-158.755	-64.149	-51.755	-159.019	-154.982	-154.771	-149.438	-22.161	-150.010	-8191	255	
6801.963	1	1	0	0	0.11571	0.15425	0.16275	0.19432	0.061321	0.11461	0.2474	0.040947	0.12311	0.10465	0.022972	0.21184	0.14436	0.095196	0.15023	0.098523	-4.6792	-4.4729	-5.1562	-5.0583	-4.7438	-5.1562	-4.7979	-5.1771	-5.0146	-4.6833	-5.2271	-5.0062	-4.4625	-5.3542	-4.5958	-4.8146	-63.854	-147.154	132.833	111.836	180.518	2.996	118.254	125.113	-75.830	-144.063	146.286	92.910	129.631	-159.369	-8.970	137.232	0.001327	0.00042107	0.00013022	1361.3	9.1561e-06	5.2636e-06	1363.6	369.21	1.0998e-05	6.7436e-06	419.61	141.49	122.35	41.82	5.4194e-06	51.488	0.00059199	0.00050533	0.00013163	1386.1	5.5069e-06	5.397e-06	1384.4	375.9	5.6526e-06	5.5799e-06	428.8	143.88	125.03	42.97	5.4844e-06	53.14	106.855	-105.438	-59.614	-163.128	-55.491	-25.500	-163.388	-158.678	-74.533	-14.606	-159.198	-155.350	-154.572	-149.577	-44.772	-150.491	-8191	255	
6802.059	1	1	0	0	0.072624	0.22231	0.10525	0.13925	0.059383	0.093211	0.20018	0.13877	0.13583	0.32848	0.17903	0.28879	0.053857	0.18445	0.058969	0.21769	-4.7646	-4.6646	-4.9979	-4.8875	-4.6521	-5.275	-4.7396	-4.9771	-5.2937	-4.65	-5.3604	-4.9354	-4.7625	-5.325	-4.6188	-4.8125	-62.261	-165.457	-26.789	-168.758	42.579	-1.210	104.610	-49.899	-33.872	-35.302	163.885	67.169	-106.089	-171.263	15.138	120.118	0.0013013	0.00071074	0.00014582	1358.9	6.5791e-06	3.0508e-06	1360.8	369.24	1.209e-05	6.6611e-06	418.14	140.38	122.17	41.735	4.2125e-06	51.465	0.00059379	0.00050744	0.0001398	1384.8	5.7428e-06	5.3304e-06	1386	376.1	5.5755e-06	5.5266e-06	428.4	143.53	124.82	42.921	5.7899e-06	53.149	107.805	-107.233	-90.084	-163.038	-61.558	-25.607	-163.441	-158.688	-73.319	-29.891	-159.093	-155.476	-154.668	-149.388	-52.621	-150.294	-8191	255	
6802.155	1	1	0	0	0.090213	0.1359	0.038614	0.21313	0.116	0.25847	0.087405	0.30232	0.14213	0.030895	0.069222	0.27894	0.12271	0.12315	0.21295	0.14225	-4.7771	-4.5312	-5.1521	-5.2542	-4.3979	-5.0625	-5.1125	-4.8854	-5.1604	-4.7875	-5.1312	-5.0354	-4.5625	-5.3083	-4.7333	-4.7958	-101.961	143.903	-129.950	147.107	-84.013	82.357	75.654	163.536	135.820	-10.184	122.507	146.761	156.534	-172.354	-145.448	48.930	0.0012333	0.00050165	0.0001315	1361.5	8.3902e-06	5.0924e-06	1359.5	368.76	1.1154e-05	4.8742e-06	419.28	140.81	122.56	41.56	5.951e-06	51.415	0.00059677	0.0005138	0.00014249	1385.3	5.6106e-06	5.3468e-06	1384.6	376.19	5.6213e-06	5.399e-06	429.67	143.55	124.88	42.885	5.705e-06	53.19	108.798	-95.712	-75.813	-162.966	-72.742	-18.195	-163.346	-158.748	-64.092	-40.081	-159.006	-155.410	-154.386	-149.545	-55.626	-150.367	-8191	255	
#DATA ENDS
