BOXY.EXE: ISS Imagent and Oximeter Data Acquisition Program Version 0.80
Ascii Record File

#ACQ INFORMATION
2  Detector Channels 
16  External MUX Channels 
1  Auxiliary Channels 
5000  Waveform (CCF) Frequency (Hz)
1  Waveforms Skipped 
30  Waveforms Averaged 
1  Cycles Averaged 
16  Acquisitions per Waveform 
10.0806  Updata Rate (Hz) 

#FILE INFORMATION
TRUE -- External MUX Channel results are PARSED.
FALSE -- AC DC and Phase are NOT grouped.
TRUE -- Companion Program Settings File CREATED.
FALSE -- AC data not excluded
FALSE -- DC data not excluded
FALSE -- Phase data not excluded
FALSE -- Auxillary Chn. data not excluded
Tab delimiters

#CALIBRATION STATE
TRUE -- Waveform Calibration Values APPLIED.


#AUX CALIBRATION VALUES
Val Type	aux-1	

Term	1.0000e+00	
Factor	0.0000e+00	


#WF CALIBRATION VALUES
A = Detector Channel
Val Type	A-AC1	A-AC2	A-AC3	A-AC4	A-AC5	A-AC6	A-AC7	A-AC8	A-AC9	A-AC10	A-AC11	A-AC12	A-AC13	A-AC14	A-AC15	A-AC16	A-DC1	A-DC2	A-DC3	A-DC4	A-DC5	A-DC6	A-DC7	A-DC8	A-DC9	A-DC10	A-DC11	A-DC12	A-DC13	A-DC14	A-DC15	A-DC16	A-Ph1	A-Ph2	A-Ph3	A-Ph4	A-Ph5	A-Ph6	A-Ph7	A-Ph8	A-Ph9	A-Ph10	A-Ph11	A-Ph12	A-Ph13	A-Ph14	A-Ph15	A-Ph16	

Term	0.00000e+00	0.00000e+00	0.00000e+00	0.00000e+00	0.00000e+00	0.00000e+00	0.00000e+00	0.00000e+00	0.00000e+00	0.00000e+00	0.00000e+00	0.00000e+00	0.00000e+00	0.00000e+00	0.00000e+00	0.00000e+00	0.00000e+00	0.00000e+00	0.00000e+00	0.00000e+00	0.00000e+00	0.00000e+00	0.00000e+00	0.00000e+00	0.00000e+00	0.00000e+00	0.00000e+00	0.00000e+00	0.00000e+00	0.00000e+00	0.00000e+00	0.00000e+00	0.00000e+00	0.00000e+00	0.00000e+00	0.00000e+00	0.00000e+00	0.00000e+00	0.00000e+00	0.00000e+00	0.00000e+00	0.00000e+00	0.00000e+00	0.00000e+00	0.00000e+00	0.00000e+00	0.00000e+00	0.00000e+00	
Factor	1.00000e+00	1.00000e+00	1.00000e+00	1.00000e+00	1.00000e+00	1.00000e+00	1.00000e+00	1.00000e+00	1.00000e+00	1.00000e+00	1.00000e+00	1.00000e+00	1.00000e+00	1.00000e+00	1.00000e+00	1.00000e+00	1.00000e+00	1.00000e+00	1.00000e+00	1.00000e+00	1.00000e+00	1.00000e+00	1.00000e+00	1.00000e+00	1.00000e+00	1.00000e+00	1.00000e+00	1.00000e+00	1.00000e+00	1.00000e+00	1.00000e+00	1.00000e+00	X	X	X	X	X	X	X	X	X	X	X	X	X	X	X	X	

B = Detector Channel
Val Type	B-AC1	B-AC2	B-AC3	B-AC4	B-AC5	B-AC6	B-AC7	B-AC8	B-AC9	B-AC10	B-AC11	B-AC12	B-AC13	B-AC14	B-AC15	B-AC16	B-DC1	B-DC2	B-DC3	B-DC4	B-DC5	B-DC6	B-DC7	B-DC8	B-DC9	B-DC10	B-DC11	B-DC12	B-DC13	B-DC14	B-DC15	B-DC16	B-Ph1	B-Ph2	B-Ph3	B-Ph4	B-Ph5	B-Ph6	B-Ph7	B-Ph8	B-Ph9	B-Ph10	B-Ph11	B-Ph12	B-Ph13	B-Ph14	B-Ph15	B-Ph16	

Term	0.00000e+00	0.00000e+00	0.00000e+00	0.00000e+00	0.00000e+00	0.00000e+00	0.00000e+00	0.00000e+00	0.00000e+00	0.00000e+00	0.00000e+00	0.00000e+00	0.00000e+00	0.00000e+00	0.00000e+00	0.00000e+00	0.00000e+00	0.00000e+00	0.00000e+00	0.00000e+00	0.00000e+00	0.00000e+00	0.00000e+00	0.00000e+00	0.00000e+00	0.00000e+00	0.00000e+00	0.00000e+00	0.00000e+00	0.00000e+00	0.00000e+00	0.00000e+00	-2.04314e+02	-1.42203e+02	-1.28168e+02	-1.83188e+02	-8.07192e+01	-9.55538e+01	-1.57235e+02	-1.62015e+02	-9.38696e+01	-7.87754e+01	-1.72586e+02	-1.73078e+02	-1.80462e+02	-1.78286e+02	-1.03677e+02	-1.51187e+02	
Factor	5.12228e-05	5.56067e-05	1.88345e-05	1.95333e-01	6.11813e-07	6.20629e-07	2.43410e-01	8.63391e-02	5.78950e-07	5.10576e-07	1.23214e-01	4.08652e-02	3.29490e-02	1.20693e-02	4.99769e-07	1.77148e-02	2.19044e-07	2.19549e-07	6.10483e-08	8.04949e-02	2.40446e-09	2.40050e-09	9.18355e-02	3.25942e-02	2.40413e-09	2.39780e-09	4.31712e-02	1.43532e-02	1.21673e-02	4.38651e-03	2.40139e-09	6.00466e-03	X	X	X	X	X	X	X	X	X	X	X	X	X	X	X	X	



#DISTANCE SETTINGS
A = Detector Channel
A-1	A-2	A-3	A-4	A-5	A-6	A-7	A-8	A-9	A-10	A-11	A-12	A-13	A-14	A-15	A-16	

2.5000e+00	3.0000e+00	2.5000e+00	3.0000e+00	2.0000e+00	3.0000e+00	1.5000e+00	3.0000e+00	3.0000e+00	3.0000e+00	3.0000e+00	3.0000e+00	3.0000e+00	3.0000e+00	1.5000e+00	3.0000e+00	

B = Detector Channel
B-1	B-2	B-3	B-4	B-5	B-6	B-7	B-8	B-9	B-10	B-11	B-12	B-13	B-14	B-15	B-16	

1.0000e+01	1.0000e+01	1.0000e+01	1.4400e+00	1.0000e+01	1.0000e+01	1.5100e+00	1.9400e+00	1.0000e+01	1.0000e+01	1.9900e+00	2.4900e+00	2.4100e+00	2.9000e+00	1.0000e+01	2.9800e+00	




#DATA BEGINS
time	group	step	mark	flag	A-AC1	A-AC2	A-AC3	A-AC4	A-AC5	A-AC6	A-AC7	A-AC8	A-AC9	A-AC10	A-AC11	A-AC12	A-AC13	A-AC14	A-AC15	A-AC16	A-DC1	A-DC2	A-DC3	A-DC4	A-DC5	A-DC6	A-DC7	A-DC8	A-DC9	A-DC10	A-DC11	A-DC12	A-DC13	A-DC14	A-DC15	A-DC16	A-Ph1	A-Ph2	A-Ph3	A-Ph4	A-Ph5	A-Ph6	A-Ph7	A-Ph8	A-Ph9	A-Ph10	A-Ph11	A-Ph12	A-Ph13	A-Ph14	A-Ph15	A-Ph16	B-AC1	B-AC2	B-AC3	B-AC4	B-AC5	B-AC6	B-AC7	B-AC8	B-AC9	B-AC10	B-AC11	B-AC12	B-AC13	B-AC14	B-AC15	B-AC16	B-DC1	B-DC2	B-DC3	B-DC4	B-DC5	B-DC6	B-DC7	B-DC8	B-DC9	B-DC10	B-DC11	B-DC12	B-DC13	B-DC14	B-DC15	B-DC16	B-Ph1	B-Ph2	B-Ph3	B-Ph4	B-Ph5	B-Ph6	B-Ph7	B-Ph8	B-Ph9	B-Ph10	B-Ph11	B-Ph12	B-Ph13	B-Ph14	B-Ph15	B-Ph16	aux-1	digaux	

730.765	1	1	0	768	0.041844	0.30786	0.17712	0.18809	0.08882	0.086099	0.05775	0.098004	0.28485	0.17318	0.10466	0.23567	0.090256	0.14964	0.093809	0.069974	-4.0229	-5.0792	-4.5167	-4.6167	-4.8688	-4.3229	-5.0479	-4.7125	-4.2792	-5.0437	-4.6917	-4.5833	-4.9771	-4.4542	-4.8875	-4.9792	534.147	393.862	428.926	535.228	523.179	448.120	376.677	534.019	352.395	295.606	406.610	445.856	436.968	254.801	199.799	363.140	0.00059997	6.8704e-05	3.1576e-05	1126.8	1.4488e-06	2.2138e-06	1189.6	246.36	1.502e-06	5.6217e-07	305.97	85.908	67.136	19.039	6.7782e-07	27.363	1.828e-05	1.7012e-05	5.4514e-06	951.54	1.8155e-07	1.9096e-07	982.94	191.63	1.8495e-07	1.9565e-07	229.35	64.879	51.296	14.609	2.1602e-07	20.159	482.170	322.661	283.981	188.439	311.754	276.617	188.089	195.373	270.060	200.737	194.792	201.170	201.520	209.189	322.810	208.466	-8191	255	
730.861	1	1	0	0	0.12266	0.055525	0.11091	0.16215	0.11201	0.15619	0.10209	0.082505	0.14077	0.13857	0.055456	0.048049	0.22245	0.11495	0.089271	0.19481	-3.9354	-4.9542	-4.7333	-4.5583	-5.0583	-4.4396	-4.8104	-5.0708	-4.3667	-4.7771	-4.75	-4.6125	-4.9354	-4.4542	-4.6917	-5.0521	522.764	240.374	219.806	500.024	412.585	489.797	247.735	223.945	444.357	425.863	285.536	272.863	201.243	476.830	324.444	388.620	0.00052215	5.9057e-05	2.3703e-05	1129.9	1.2272e-06	1.5736e-06	1195.4	244.49	1.0418e-06	5.956e-07	306.23	85.26	67.441	18.962	6.4751e-07	27.207	1.8451e-05	1.8552e-05	5.3204e-06	951.59	1.8566e-07	2.0906e-07	984.08	190.89	1.8888e-07	2.0971e-07	229.71	64.735	51.453	14.622	2.1091e-07	20.132	490.385	219.682	390.524	188.358	299.106	279.146	188.150	195.119	227.572	353.186	194.930	201.476	201.801	209.473	342.340	208.588	-8191	255	
730.957	1	1	0	0	0.14993	0.10596	0.15234	0.17204	0.15184	0.12841	0.077084	0.065181	0.18706	0.15256	0.12424	0.32452	0.13245	0.024715	0.1596	0.097779	-3.9833	-4.8542	-4.9458	-4.5375	-4.9958	-4.5542	-4.6958	-4.8521	-4.5021	-4.7854	-4.7917	-4.4604	-4.9771	-4.5792	-4.5896	-5.1083	222.370	506.992	496.606	449.937	310.753	361.941	321.687	436.466	375.154	258.104	359.729	357.408	422.288	320.722	405.227	203.829	0.0005682	0.0001459	1.5241e-05	1128.7	1.1362e-06	1.3514e-06	1196.1	245.51	2.6831e-06	7.8479e-07	305.69	85.998	67.12	19.101	1.797e-06	27.236	1.8844e-05	1.9714e-05	5.1062e-06	951.31	1.9302e-07	2.1998e-07	984.61	191.63	1.9909e-07	2.2148e-07	229.06	64.972	51.284	14.638	2.0456e-07	20.104	484.514	328.657	272.971	188.504	268.678	362.146	188.030	195.346	219.649	328.059	195.101	201.394	201.440	208.950	238.840	208.633	-8191	255	
731.053	1	1	0	0	0.22989	0.057561	0.12877	0.19941	0.09692	0.11393	0.147	0.17085	0.15965	0.141	0.086823	0.13396	0.046498	0.099264	0.15243	0.10552	-4.0771	-4.8979	-4.7146	-4.5521	-4.975	-4.6958	-4.6021	-5.0208	-4.2917	-4.7896	-4.8896	-4.4354	-4.8562	-4.5146	-4.5271	-5.1146	348.033	182.624	504.521	484.224	286.488	526.785	474.866	522.165	249.718	200.328	475.365	180.555	275.950	183.462	208.717	523.927	0.00059103	3.32e-05	6.8989e-05	1128.5	8.6131e-07	1.3077e-06	1193.9	244.58	1.3188e-06	1.0357e-06	305.5	85.447	67.777	18.904	4.7013e-07	27.159	2.0264e-05	2.0259e-05	4.9979e-06	952.1	2.0779e-07	2.1732e-07	983.49	191.55	2.1273e-07	2.1943e-07	229.33	64.863	51.464	14.587	1.9875e-07	20.099	485.080	233.195	258.086	188.646	293.117	319.514	188.291	195.008	299.246	344.072	194.759	201.323	201.768	209.239	480.368	208.378	-8191	255	
731.149	1	1	0	0	0.25317	0.17019	0.20107	0.15237	0.22348	0.16402	0.040296	0.085644	0.30111	0.052416	0.035315	0.15116	0.20604	0.19778	0.10966	0.16649	-4.1583	-4.7229	-4.75	-4.5437	-4.8875	-4.5188	-4.55	-4.975	-4.5687	-4.6937	-5.1	-4.4771	-4.925	-4.7667	-4.5271	-5.2042	367.717	223.452	230.649	211.384	355.660	526.308	463.752	494.261	517.282	290.335	334.951	536.622	179.268	536.331	227.103	357.672	0.00065484	0.00020481	2.1898e-05	1127.3	2.1228e-06	9.3702e-07	1195.3	247.08	2.1616e-06	1.0676e-06	306.73	85.998	67.429	19.107	1.753e-06	27.23	2.1472e-05	1.9809e-05	4.8727e-06	951.91	2.2079e-07	2.1145e-07	985.17	191.39	2.2479e-07	2.1223e-07	229.54	65.008	51.489	14.63	1.9467e-07	20.167	487.203	208.517	206.005	188.340	270.204	300.434	188.455	194.876	289.940	368.710	194.996	200.989	201.562	209.514	311.686	208.263	-8191	255	
731.245	1	1	0	0	0.25718	0.23626	0.19176	0.14932	0.071831	0.2019	0.16693	0.12405	0.12087	0.094978	0.23185	0.2176	0.092754	0.030028	0.1341	0.29619	-4.0958	-4.675	-5.0417	-4.5771	-4.875	-4.7604	-4.4729	-5.1229	-4.6729	-4.6479	-4.9812	-4.45	-4.9146	-4.8271	-4.3625	-5.0583	283.141	199.785	224.492	395.261	300.082	218.466	493.010	492.455	186.077	277.056	320.183	482.196	305.251	272.128	200.247	528.258	0.00057535	0.00010209	5.479e-05	1131.8	1.8256e-06	1.0444e-06	1196.4	245.41	2.1026e-06	2.5722e-07	302.69	85.538	67.353	19.097	3.6216e-07	27.028	2.252e-05	1.8729e-05	4.7883e-06	952.67	2.2848e-07	2.0104e-07	986.22	191.85	2.2619e-07	2.03e-07	228.82	64.923	51.497	14.604	1.9038e-07	20.177	477.118	251.678	285.272	188.553	302.404	365.111	188.086	195.160	303.072	436.935	194.742	201.116	201.825	209.222	406.801	208.181	-8191	255	
731.364	1	1	0	0	0.21818	0.022096	0.14535	0.21453	0.1379	0.0099997	0.2636	0.10559	0.10242	0.026551	0.1043	0.062034	0.28888	0.20458	0.2822	0.20603	-4.3458	-4.5917	-5.0229	-4.6875	-4.7375	-4.7312	-4.2812	-4.9521	-4.6521	-4.4437	-5.0813	-4.4688	-4.6458	-4.8083	-4.35	-4.725	283.948	190.437	477.209	487.048	315.052	191.792	496.367	186.030	323.075	413.121	444.116	274.255	472.957	507.725	459.230	256.431	0.00039711	8.355e-05	4.2134e-05	1132.4	1.6002e-06	9.7687e-07	1193.3	245.99	1.0784e-06	1.6293e-06	305.18	86.115	67.332	19.13	1.5523e-06	27.27	2.216e-05	1.8614e-05	4.7794e-06	953.75	2.2675e-07	1.9737e-07	985.22	192.15	2.185e-07	1.9483e-07	229.15	65.077	51.47	14.577	1.9039e-07	20.243	472.615	263.729	267.090	188.360	285.409	338.069	188.139	195.324	330.434	354.432	195.222	201.195	201.607	208.824	298.004	208.159	-8191	255	
731.460	1	1	0	0	0.063337	0.37337	0.066032	0.05863	0.11533	0.12789	0.10832	0.16182	0.24967	0.077689	0.21577	0.23305	0.12183	0.07363	0.25836	0.1055	-4.375	-4.5229	-4.95	-4.6833	-4.6167	-4.9292	-4.4979	-4.8667	-4.6813	-4.4083	-5.0583	-4.35	-4.6208	-4.8729	-4.4187	-4.7688	349.451	247.057	178.062	476.947	214.557	212.410	510.328	350.377	383.002	325.742	229.055	289.216	502.840	269.307	395.467	313.795	0.0006078	5.5761e-05	3.9478e-05	1130.9	1.7829e-06	8.9224e-07	1198.7	245.35	1.3183e-06	6.2082e-07	307.67	85.803	67.833	18.965	1.8029e-06	27.175	2.1328e-05	1.7743e-05	4.6885e-06	954.01	2.1772e-07	1.8946e-07	985.15	192.23	2.1397e-07	1.9404e-07	229.36	64.859	51.568	14.553	2.009e-07	20.223	483.165	288.634	276.022	188.501	316.931	266.320	188.361	195.393	291.726	243.139	195.091	201.235	201.487	209.152	233.035	208.956	-8191	255	
731.556	1	1	0	0	0.11652	0.13056	0.052306	0.28022	0.081241	0.24811	0.35144	0.13954	0.077361	0.12418	0.058796	0.1695	0.061959	0.17308	0.10688	0.14898	-4.5042	-4.4708	-5.0062	-4.7271	-4.4708	-4.9187	-4.6312	-4.8854	-4.8646	-4.1896	-5.0854	-4.5833	-4.5458	-4.9729	-4.4583	-4.8458	190.524	332.682	208.111	436.547	182.227	429.934	400.983	237.309	251.976	370.019	319.373	304.121	415.421	479.559	470.142	236.370	0.00057592	9.5949e-05	1.9939e-05	1124.9	8.7592e-07	1.4419e-06	1192.8	246.07	9.9552e-07	6.5266e-07	304.47	85.769	67.17	19.129	1.053e-06	27.16	2.041e-05	1.752e-05	5.0375e-06	952.97	2.0903e-07	1.8569e-07	984.96	192.06	2.0216e-07	1.9416e-07	228.93	65.089	51.346	14.573	2.1576e-07	20.224	486.633	232.254	505.975	188.321	289.414	264.084	187.901	195.388	278.314	375.392	195.032	201.143	201.884	209.460	189.161	208.246	-8191	255	
731.653	1	1	0	0	0.096922	0.14426	0.21648	0.043038	0.2215	0.2598	0.080936	0.10529	0.037386	0.16458	0.30311	0.16362	0.097874	0.2667	0.19493	0.27675	-4.5396	-4.4021	-4.8854	-4.7792	-4.4771	-4.9208	-4.5583	-4.75	-4.8604	-4.3958	-4.8771	-4.7229	-4.475	-5.0271	-4.4292	-4.6937	326.680	282.894	452.445	205.902	453.436	274.695	423.930	529.248	272.085	493.423	184.312	202.996	196.392	492.892	211.283	298.993	0.00049376	8.8476e-05	1.5234e-05	1127.2	8.3313e-07	5.6134e-07	1194.1	244.65	1.7171e-06	5.2194e-07	304.57	85.421	67.428	19.053	5.8735e-07	27.324	1.9681e-05	1.7271e-05	5.4417e-06	952.16	1.9947e-07	1.812e-07	986.74	191.94	1.9745e-07	1.8643e-07	229.78	64.889	51.396	14.555	2.2514e-07	20.212	481.295	248.127	313.296	188.423	273.943	369.011	188.087	195.237	280.776	345.908	195.135	201.466	201.606	209.159	215.603	208.817	-8191	255	
731.749	1	1	0	0	0.25757	0.10467	0.28714	0.2096	0.20037	0.1253	0.11666	0.12499	0.07768	0.089657	0.2053	0.14739	0.17045	0.14449	0.027137	0.17437	-4.4583	-4.2667	-4.7167	-4.8896	-4.3104	-4.9667	-4.5708	-4.5771	-4.9354	-4.3292	-4.8646	-4.7833	-4.4688	-4.8875	-4.7167	-4.4771	520.274	474.718	409.681	483.271	326.483	264.684	304.921	311.991	182.396	189.891	197.289	347.325	525.258	499.822	326.030	188.611	0.0006243	0.00010586	1.3102e-05	1127.4	1.732e-06	7.6481e-07	1194.8	246.57	8.2336e-07	7.7426e-07	305.63	85.744	67.28	19.078	1.9803e-06	27.31	1.93e-05	1.7592e-05	5.6638e-06	952.24	2.0015e-07	1.9052e-07	985.32	191.56	1.9282e-07	1.9402e-07	229.7	64.826	51.264	14.581	2.2493e-07	20.212	483.858	216.234	509.811	188.403	275.612	268.197	188.133	195.581	325.506	302.273	195.293	201.168	201.620	209.570	315.905	208.727	-8191	255	
731.845	1	1	0	0	0.21438	0.10706	0.14952	0.19208	0.19431	0.26783	0.25478	0.13824	0.076196	0.031502	0.010977	0.17907	0.068872	0.1164	0.18496	0.14064	-4.7458	-4.3896	-4.8646	-4.9729	-4.2979	-4.9167	-4.8354	-4.4083	-5.0708	-4.3812	-4.8438	-5.0375	-4.3542	-4.8438	-4.6333	-4.4958	244.230	434.187	320.133	178.599	469.359	377.773	521.869	405.630	289.574	217.864	243.016	530.260	400.766	211.810	365.586	208.204	0.00050767	0.00013501	4.1513e-05	1132	6.7365e-07	1.232e-06	1191.7	245.06	1.5032e-06	2.171e-06	307.23	85.707	67.487	19.035	1.0313e-06	27.232	1.8946e-05	1.889e-05	5.7364e-06	953.66	1.9652e-07	2.0076e-07	985.47	191.65	1.8858e-07	2.133e-07	229.78	64.943	51.426	14.614	2.1772e-07	20.189	482.850	189.763	320.982	188.513	277.221	265.333	188.052	195.242	326.174	277.639	194.996	201.355	201.154	209.313	307.047	208.877	-8191	255	
731.941	1	1	0	0	0.10472	0.11122	0.093421	0.16519	0.20122	0.082111	0.12239	0.18178	0.12282	0.036628	0.10617	0.078946	0.07739	0.12654	0.24443	0.085316	-4.4854	-4.3438	-4.6896	-5.0229	-4.3958	-4.8313	-4.7667	-4.4812	-4.9062	-4.4313	-4.6104	-4.9229	-4.3917	-5.0729	-4.6083	-4.3625	427.839	372.783	456.420	424.970	251.687	423.277	475.759	491.253	314.566	196.592	410.923	498.848	525.222	502.935	290.712	368.957	0.00046941	7.8498e-05	3.1785e-05	1130.5	2.314e-06	1.0364e-06	1196.9	245.27	1.1441e-06	1.971e-06	305.75	85.558	67.517	18.958	1.2749e-06	27.249	1.8452e-05	1.9693e-05	5.5071e-06	952.63	1.9369e-07	2.1147e-07	984.83	191.63	1.9074e-07	2.2222e-07	229.54	64.81	51.463	14.605	2.0943e-07	20.164	471.207	250.454	208.268	188.251	298.837	214.405	188.284	195.198	283.490	315.379	195.071	201.262	201.370	209.308	278.596	208.554	-8191	255	
732.062	1	1	0	0	0.0052149	0.16401	0.11355	0.33409	0.20562	0.13126	0.09384	0.11826	0.15861	0.18927	0.10508	0.071327	0.20182	0.082617	0.22349	0.12641	-4.5687	-4.5938	-4.55	-4.8875	-4.3771	-4.9021	-4.8438	-4.3625	-4.9375	-4.6229	-4.5479	-5.0771	-4.2271	-4.8396	-4.8021	-4.4313	496.225	534.370	320.769	444.199	504.444	330.547	466.006	369.918	440.441	410.944	355.277	485.995	503.018	317.585	339.838	530.121	0.00058047	0.00011403	7.1642e-05	1131.8	1.9023e-06	1.3287e-06	1192.4	246.26	7.6219e-07	6.0343e-07	304.37	86.101	67.341	19.018	2.9671e-07	27.208	1.9264e-05	2.0445e-05	5.2528e-06	952.85	2.012e-07	2.2131e-07	984.19	191.61	2.0271e-07	2.2441e-07	229.36	64.905	51.466	14.627	2.0153e-07	20.115	488.472	201.636	259.565	188.459	257.945	331.133	188.047	195.384	226.949	325.872	195.057	201.147	201.824	209.517	342.938	208.352	-8191	255	
732.158	1	1	0	0	0.1871	0.12733	0.057945	0.27481	0.16203	0.11942	0.13975	0.033965	0.14066	0.16031	0.20543	0.13373	0.15947	0.15539	0.14644	0.40872	-4.6375	-4.6396	-4.3667	-5.2312	-4.5104	-4.5625	-4.9958	-4.4854	-4.8729	-4.6813	-4.5417	-5.0125	-4.5646	-4.6438	-4.7396	-4.3187	312.197	255.591	401.932	511.849	413.056	411.199	470.336	515.011	507.814	495.886	412.283	213.508	440.839	523.679	285.312	453.793	0.00068	0.00013584	3.8417e-05	1128.4	1.1972e-06	9.031e-07	1194.9	245.26	1.2344e-06	8.4867e-07	306.85	85.672	67.423	19.178	2.0681e-06	27.193	2.0779e-05	2.0355e-05	5.1284e-06	952.37	2.1516e-07	2.168e-07	984.04	191.47	2.1425e-07	2.1283e-07	229.2	64.801	51.497	14.651	1.893e-07	20.155	479.343	236.947	320.027	188.280	292.688	350.070	188.309	195.380	265.234	418.774	194.979	201.204	201.528	209.381	315.985	208.343	-8191	255	
732.252	1	1	0	0	0.19362	0.21724	0.12076	0.17072	0.24338	0.071743	0.11116	0.12401	0.068257	0.060251	0.28391	0.26117	0.10334	0.15747	0.10639	0.16076	-4.5667	-4.7042	-4.5292	-5.0521	-4.3896	-4.6375	-5.0917	-4.4083	-4.7729	-4.7625	-4.3042	-4.9604	-4.6208	-4.7562	-4.8187	-4.4938	529.662	227.453	265.315	198.829	365.148	387.891	411.946	399.573	463.799	209.515	428.666	449.868	245.445	232.981	285.003	239.128	0.00057989	3.2016e-05	3.6797e-05	1130.1	1.3692e-06	1.0165e-06	1198.3	245.92	1.1417e-06	6.5511e-07	305.79	85.684	67.189	19.022	4.0474e-07	27.205	2.1389e-05	1.9409e-05	5.0634e-06	951.63	2.269e-07	2.1123e-07	985.01	192.02	2.2319e-07	2.0519e-07	229.31	64.896	51.53	14.59	1.8692e-07	20.176	489.446	518.115	294.810	188.392	290.083	315.066	188.254	195.191	297.012	260.576	194.859	201.479	201.857	209.306	254.446	208.698	-8191	255	
732.350	1	1	0	0	0.2591	0.12617	0.24515	0.16321	0.24082	0.11054	0.21816	0.040622	0.37576	0.15983	0.048414	0.22669	0.090388	0.18771	0.14473	0.14014	-4.4563	-4.7646	-4.3625	-5.1396	-4.5271	-4.4396	-4.9292	-4.5833	-4.7021	-4.9229	-4.3833	-4.7854	-4.7417	-4.5687	-4.9417	-4.4458	467.955	256.717	351.890	455.523	243.582	209.612	461.821	416.712	240.882	248.930	372.124	520.685	537.033	449.547	488.504	467.259	0.00055146	7.6629e-05	4.5381e-05	1130.1	1.2838e-06	1.1641e-06	1197.8	247.45	5.0087e-07	1.2847e-06	303.77	85.76	67.623	19.046	1.8628e-06	27.071	2.1753e-05	1.8056e-05	4.7256e-06	952.58	2.2744e-07	2.0129e-07	984.64	192.12	2.2474e-07	1.9688e-07	228.84	64.929	51.57	14.592	1.8456e-07	20.237	487.734	280.871	341.352	188.361	298.486	286.261	188.333	195.216	276.525	364.177	195.205	201.520	201.595	209.083	238.162	208.422	-8191	255	
732.445	1	1	0	0	0.14339	0.074085	0.13215	0.179	0.098284	0.026805	0.029022	0.22719	0.1455	0.16531	0.073962	0.16639	0.093799	0.15923	0.17095	0.19665	-4.4646	-4.8104	-4.3104	-4.9646	-4.5917	-4.4979	-5.125	-4.5188	-4.675	-4.8	-4.4021	-4.8625	-4.7146	-4.5208	-4.8542	-4.5271	329.982	198.726	490.558	479.752	493.061	289.237	375.092	469.414	289.016	196.028	267.090	369.349	204.393	191.656	230.568	274.708	0.00067094	9.458e-05	2.5116e-05	1127.4	1.2436e-06	1.2269e-06	1193.7	246.46	1.8544e-06	1.144e-06	305.8	85.752	67.269	19.059	4.6848e-07	27.221	2.1595e-05	1.7541e-05	4.7731e-06	953.73	2.1741e-07	1.9353e-07	984.43	192.05	2.1443e-07	1.8919e-07	229.11	65.039	51.368	14.591	1.8494e-07	20.262	489.093	205.896	292.362	188.606	278.973	298.415	188.119	195.264	255.520	352.351	194.987	201.220	201.550	209.220	519.258	208.381	-8191	255	
732.541	1	1	0	0	0.04713	0.10692	0.13211	0.28001	0.066934	0.35004	0.21566	0.077298	0.20854	0.18066	0.10807	0.064902	0.077303	0.10881	0.16808	0.082817	-4.225	-4.9125	-4.3875	-5.0813	-4.6271	-4.6042	-5.0354	-4.5583	-4.4375	-4.9333	-4.5417	-4.8812	-5.0104	-4.2625	-4.9688	-4.7	225.832	296.915	230.440	500.328	180.644	416.644	481.610	516.007	498.223	322.334	418.446	503.238	332.415	520.450	344.798	394.414	0.0005224	0.00010682	5.935e-05	1129.9	1.1078e-06	2.2001e-06	1198.6	245.87	1.6132e-06	1.0531e-06	305.03	85.839	67.601	19.119	4.8008e-07	27.216	2.0947e-05	1.7171e-05	4.8751e-06	953.11	2.0451e-07	1.9327e-07	985.38	191.94	2.0452e-07	1.8155e-07	228.8	65.068	51.508	14.604	1.9512e-07	20.25	480.107	230.580	275.568	188.451	276.765	329.300	188.193	195.356	324.331	345.409	195.138	201.389	201.665	209.183	201.078	208.735	-8191	255	
732.637	1	1	0	0	0.10581	0.063978	0.054956	0.12612	0.24266	0.04733	0.063724	0.23353	0.065874	0.21439	0.050291	0.12606	0.15002	0.035601	0.40393	0.21211	-4.1792	-5.0292	-4.4292	-4.9333	-4.7208	-4.3646	-4.9146	-4.6146	-4.4833	-5	-4.475	-4.8458	-4.7896	-4.375	-4.8896	-4.5625	485.882	201.195	205.387	489.599	435.879	439.700	182.672	483.332	259.816	433.806	242.918	284.340	277.400	178.972	306.143	484.092	0.00057197	7.8594e-05	1.8919e-05	1129.7	4.0565e-07	1.9931e-06	1191	245.05	7.8501e-07	2.0159e-07	303.71	85.377	67.267	18.999	7.3665e-07	27.037	1.9975e-05	1.6521e-05	5.155e-06	951.98	1.9784e-07	1.8502e-07	983	191.89	2.0276e-07	1.7869e-07	229.1	64.884	51.31	14.551	2.0948e-07	20.209	482.578	305.085	226.644	188.504	261.230	347.886	188.439	195.182	334.324	452.685	195.294	201.120	201.780	209.466	516.565	208.393	-8191	255	
732.733	1	1	0	0	0.051606	0.071926	0.20276	0.1278	0.20032	0.18641	0.12602	0.3	0.26451	0.17217	0.13784	0.06535	0.082245	0.10656	0.1391	0.17427	-4.1354	-4.9854	-4.4563	-4.5958	-4.8792	-4.2	-4.9062	-4.675	-4.4292	-4.7896	-4.4667	-4.5542	-4.8938	-4.3354	-4.7354	-4.8375	259.258	488.937	366.668	519.390	502.351	447.507	235.922	518.027	194.506	499.881	470.575	488.092	498.106	248.237	359.155	304.580	0.00059795	0.00011776	3.4841e-05	1128.5	5.6412e-07	7.135e-07	1191.4	245.82	1.1346e-06	4.8176e-07	306.31	85.808	67.477	18.973	2.9989e-07	27.203	1.9745e-05	1.665e-05	5.418e-06	952.67	1.9324e-07	1.8834e-07	985.85	192.06	1.9527e-07	1.7938e-07	229.6	64.901	51.341	14.566	2.2012e-07	20.169	473.758	263.042	267.115	188.492	283.016	232.495	188.125	195.550	293.685	387.541	195.026	200.872	201.455	209.305	367.887	208.381	-8191	255	
732.854	1	1	0	0	0.062676	0.098369	0.14553	0.42901	0.27094	0.33284	0.30938	0.053715	0.22917	0.060339	0.046618	0.10178	0.16699	0.11771	0.123	0.072578	-3.9792	-4.9729	-4.5	-4.6188	-4.9167	-4.2958	-4.8958	-4.6813	-4.3833	-4.8958	-4.6104	-4.5625	-4.9396	-4.4042	-4.6562	-4.9354	197.188	321.573	423.501	496.505	529.308	411.422	471.066	302.136	373.698	395.740	210.086	521.160	460.047	517.545	322.873	443.929	0.0006222	0.00016055	3.7478e-05	1126.7	2.109e-06	1.115e-06	1192.7	245.54	1.3793e-06	1.3422e-06	306.52	86.094	67.959	19.153	4.4199e-07	27.117	1.9356e-05	1.7107e-05	5.5527e-06	952.49	1.8512e-07	1.9068e-07	985.35	191.74	1.9014e-07	1.9394e-07	229.89	64.969	51.347	14.6	2.1966e-07	20.159	492.616	209.399	514.255	188.331	319.841	294.212	188.369	195.127	254.603	308.153	194.726	201.172	201.504	209.341	355.225	208.457	-8191	255	
732.925	1	1	0	0	0.10843	0.095706	0.069907	0.13111	0.1134	0.13259	0.30369	0.066823	0.15657	0.25527	0.15705	0.15948	0.20765	0.27846	0.11797	0.19021	-4.1667	-4.9896	-4.5708	-4.5188	-5.0333	-4.4187	-4.8812	-4.9437	-4.4167	-4.8812	-4.6667	-4.5208	-4.9938	-4.525	-4.6896	-4.9625	331.789	426.560	288.280	399.357	452.091	310.104	422.756	494.881	240.886	286.974	493.054	526.717	361.329	296.235	475.043	493.721	0.0005661	9.0224e-05	9.9835e-06	1126.4	1.065e-06	1.0673e-06	1199.3	245.61	1.6293e-06	6.8718e-07	304.96	85.792	67.538	19.08	1.3894e-06	27.057	1.8951e-05	1.8506e-05	5.6678e-06	952.35	1.8779e-07	2.138e-07	987.16	191.51	1.9086e-07	2.1193e-07	229.7	64.905	51.371	14.62	2.1332e-07	20.099	473.627	236.148	364.927	188.588	270.129	224.807	188.298	195.061	303.031	293.831	195.091	201.301	201.351	209.252	325.471	208.574	-8191	255	
733.046	1	1	0	0	0.026493	0.14097	0.11936	0.18695	0.17544	0.07295	0.030965	0.15421	0.054861	0.21962	0.24889	0.13695	0.15644	0.22583	0.029607	0.072367	-4.0354	-4.8792	-4.6	-4.5979	-5.0583	-4.4458	-4.6479	-4.9167	-4.4292	-4.775	-4.9271	-4.375	-5.0563	-4.6438	-4.5437	-4.9417	261.802	209.831	373.318	213.108	290.678	388.573	272.885	503.227	330.516	456.023	406.412	437.044	445.809	199.253	496.486	497.017	0.00056651	9.0783e-05	8.8865e-06	1127.1	5.3506e-07	3.0091e-07	1194	245.53	1.9181e-06	1.5255e-06	305.98	85.856	67.063	19.086	9.8031e-07	27.224	1.8998e-05	1.952e-05	5.2766e-06	952.66	1.8966e-07	2.2265e-07	985.74	191.6	1.9786e-07	2.2407e-07	229.33	64.881	51.369	14.649	2.0624e-07	20.14	485.560	219.322	317.966	188.631	276.637	184.456	188.226	195.036	286.274	292.216	195.067	201.166	201.803	209.422	264.869	208.404	-8191	255	
733.142	1	1	0	0	0.1331	0.13317	0.22184	0.23708	0.11645	0.026118	0.067714	0.1054	0.088768	0.19736	0.18458	0.12073	0.16001	0.14054	0.21372	0.076024	-4.1188	-4.7833	-4.7854	-4.45	-4.8708	-4.5708	-4.7333	-5.0917	-4.5625	-4.675	-4.875	-4.4104	-4.9479	-4.5458	-4.5396	-4.9146	419.167	517.821	223.497	519.440	346.727	317.769	358.427	340.149	423.723	325.137	314.385	525.084	522.623	337.422	449.810	535.445	0.0005671	8.0565e-05	5.2612e-05	1130.2	1.1719e-06	1.6907e-06	1193.2	246.92	1.5494e-06	2.1806e-07	305.49	85.877	67.418	19.113	9.6693e-07	27.381	2.0146e-05	2.055e-05	5.2033e-06	951.92	2.06e-07	2.237e-07	985.15	191.85	2.1262e-07	2.3063e-07	229.14	64.754	51.494	14.658	2.0912e-07	20.188	470.546	267.894	285.728	188.516	230.597	376.782	188.277	195.333	326.010	266.796	195.198	201.543	201.436	209.398	271.411	208.450	-8191	255	
733.236	1	1	0	0	0.17863	0.072675	0.16405	0.26517	0.11063	0.21767	0.16062	0.073957	0.17008	0.1795	0.26137	0.088747	0.11887	0.16796	0.12245	0.16509	-4.0875	-4.8021	-4.6917	-4.5375	-4.9792	-4.5938	-4.4896	-5.0208	-4.4146	-4.6042	-5.0854	-4.4187	-4.9437	-4.7688	-4.4	-4.9313	364.321	405.464	191.630	197.964	222.703	382.565	436.842	207.343	273.013	197.831	522.996	193.768	390.640	535.851	419.869	376.616	0.00054	5.0624e-05	2.6676e-05	1130.6	1.6575e-06	1.281e-06	1194.6	245.51	8.6592e-07	3.3989e-07	305.39	86.057	67.278	19.237	3.355e-07	27.228	2.1794e-05	2.0789e-05	5.2027e-06	953.43	2.2451e-07	2.2171e-07	986.25	191.53	2.2796e-07	2.2116e-07	228.77	65.098	51.49	14.659	1.9984e-07	20.191	478.981	288.792	362.339	188.324	238.042	266.554	188.232	195.091	287.601	337.785	195.523	201.270	201.987	209.401	231.157	208.678	-8191	255	
733.334	1	1	0	0	0.20223	0.15507	0.17144	0.10849	0.22068	0.16296	0.072154	0.14238	0.13577	0.10218	0.14513	0.17469	0.044775	0.18831	0.12768	0.13659	-4.2583	-4.4167	-4.9021	-4.4708	-4.7271	-4.8417	-4.6438	-4.9938	-4.5292	-4.4708	-4.8812	-4.6042	-4.8271	-4.7562	-4.3521	-4.9396	352.868	311.252	272.149	392.212	263.755	301.939	255.500	523.845	525.251	347.353	426.996	478.958	208.030	243.981	537.017	330.943	0.00059736	0.00010826	4.3346e-05	1133.9	1.6231e-06	1.0128e-06	1194.8	246.07	1.0845e-06	8.9511e-07	304.4	85.861	67.579	19.085	8.403e-07	27.583	2.2705e-05	1.9869e-05	4.931e-06	953.94	2.3185e-07	2.1012e-07	985.66	191.57	2.3054e-07	2.0744e-07	229.26	64.954	51.656	14.599	1.9601e-07	20.267	488.508	247.779	288.455	188.464	274.082	305.001	188.334	195.359	283.569	261.456	195.298	201.386	201.580	209.258	261.993	208.495	-8191	255	
733.453	1	1	0	0	0.12107	0.10423	0.14824	0.12792	0.080406	0.25417	0.076065	0.11772	0.20941	0.052938	0.10295	0.057392	0.21322	0.11324	0.074984	0.24585	-4.3896	-4.5958	-5.0146	-4.6417	-4.5583	-4.9354	-4.6125	-4.825	-4.6	-4.4875	-5.1	-4.3771	-4.7396	-4.8771	-4.3271	-5.0625	286.626	290.863	360.973	259.686	449.148	241.737	485.314	231.117	191.253	247.669	261.054	408.641	181.282	476.129	480.861	192.850	0.00057625	0.00013476	2.1758e-05	1129.2	5.7031e-07	1.1404e-06	1190.6	244.5	1.6456e-06	1.0494e-06	307.39	85.798	67.624	19.087	5.8597e-07	27.418	2.2723e-05	1.8688e-05	4.8097e-06	953.75	2.318e-07	2.0322e-07	984.14	191.93	2.3101e-07	2.081e-07	229.42	65.08	51.636	14.626	1.9677e-07	20.252	477.611	264.647	306.582	188.428	291.099	254.126	188.177	195.430	309.734	297.790	195.367	201.173	201.683	209.188	312.650	208.473	-8191	255	
733.549	1	1	0	0	0.21057	0.15309	0.10846	0.19587	0.14303	0.17371	0.021403	0.33049	0.047735	0.079481	0.17057	0.42029	0.10262	0.013501	0.19859	0.052061	-4.425	-4.4771	-4.9354	-4.7312	-4.5646	-5.0167	-4.45	-4.8938	-4.7458	-4.3542	-4.9125	-4.5271	-4.4208	-4.9313	-4.35	-4.9187	224.058	199.697	492.064	223.041	343.738	342.467	417.745	453.060	250.205	343.903	520.742	204.479	270.251	531.512	475.316	209.887	0.00055381	8.4881e-05	4.0734e-05	1128.9	9.2695e-07	2.8019e-07	1195.9	245.42	1.7458e-06	4.9581e-07	304.68	85.427	67.572	18.916	7.4551e-07	27.203	2.2274e-05	1.8577e-05	4.7915e-06	954.91	2.2737e-07	1.9773e-07	987.51	192.31	2.2346e-07	2.0343e-07	229.18	65.113	51.566	14.576	2.0244e-07	20.288	498.233	335.879	301.143	188.423	294.042	287.626	188.116	195.229	296.978	338.846	195.041	201.302	201.786	209.227	287.743	208.667	-8191	255	
733.646	1	1	0	0	0.36744	0.16744	0.16279	0.079344	0.11949	0.14759	0.17612	0.21055	0.10349	0.10826	0.28936	0.27282	0.18335	0.10643	0.18279	0.13375	-4.3875	-4.4437	-4.8396	-4.7354	-4.6229	-4.9083	-4.5896	-4.8438	-4.7937	-4.4563	-4.9208	-4.6188	-4.4208	-4.8792	-4.5875	-4.8521	459.855	404.942	381.915	245.204	317.378	429.738	452.539	311.414	522.765	437.157	425.279	479.245	500.745	527.908	322.796	494.243	0.00053773	1.194e-05	4.8339e-05	1128.3	6.1472e-07	1.3534e-06	1194.3	246.35	1.0584e-06	1.4846e-06	307.2	85.443	67.685	19.061	6.8884e-07	27.16	2.1273e-05	1.8341e-05	5.0558e-06	955.46	2.1872e-07	1.9353e-07	986.9	192.85	2.124e-07	1.9699e-07	229.88	65.136	51.579	14.585	2.1433e-07	20.256	494.826	460.370	265.381	188.384	346.071	284.410	188.284	195.194	254.129	353.272	195.051	201.274	201.393	209.382	252.170	208.409	-8191	255	
733.742	1	1	0	0	0.18665	0.20947	0.1346	0.17062	0.087872	0.30644	0.25555	0.047662	0.10273	0.25435	0.1443	0.11674	0.18575	0.064464	0.11464	0.10345	-4.3354	-4.4208	-4.9708	-4.7396	-4.4542	-5.1479	-4.5917	-4.7833	-4.8083	-4.3812	-5.0208	-4.7188	-4.4833	-4.9917	-4.425	-4.7188	454.155	220.786	269.769	202.981	267.127	472.948	429.818	520.285	475.838	343.193	230.456	348.284	489.713	201.197	192.693	311.805	0.00061026	0.00010422	2.7139e-05	1129.1	8.3615e-07	3.9651e-07	1197.5	246.27	1.4165e-06	7.7815e-07	304.33	85.787	68.177	19.224	7.7516e-07	27.217	2.028e-05	1.7708e-05	5.2797e-06	955.47	2.0768e-07	1.8718e-07	987.25	192.4	2.0076e-07	1.8824e-07	229.61	64.996	51.489	14.666	2.2225e-07	20.244	489.304	240.755	185.459	188.272	244.056	430.962	188.244	195.216	260.988	269.712	194.884	201.045	201.884	209.171	282.745	208.060	-8191	255	
733.838	1	1	0	0	0.23634	0.12317	0.23389	0.055765	0.14746	0.060226	0.20122	0.18407	0.13152	0.17794	0.16364	0.068135	0.11592	0.26115	0.10882	0.15785	-4.7229	-4.4271	-4.8104	-4.7271	-4.3208	-4.9479	-4.6562	-4.6875	-4.7167	-4.5125	-4.9604	-4.725	-4.3229	-4.9062	-4.5	-4.5813	405.970	254.865	304.308	213.803	519.994	447.571	396.529	514.108	341.024	295.996	287.199	320.694	485.567	444.009	235.633	367.770	0.0005609	8.7082e-05	4.5383e-05	1128.6	4.3185e-07	8.1207e-07	1194.9	246.22	1.5222e-06	8.255e-07	306.59	85.725	67.421	19.07	4.9088e-07	27.208	2.0046e-05	1.7888e-05	5.6682e-06	955.37	2.0462e-07	1.8885e-07	987.97	192.2	1.9562e-07	1.9333e-07	230.18	65.024	51.449	14.621	2.2685e-07	20.198	492.260	196.128	197.104	188.445	251.818	300.702	188.341	195.142	302.003	343.846	195.068	201.294	201.386	209.468	206.655	208.562	-8191	255	
733.934	1	1	0	0	0.24157	0.18852	0.016842	0.13115	0.059929	0.11875	0.050113	0.20786	0.24435	0.077295	0.11259	0.13641	0.2053	0.30793	0.08315	0.16591	-4.7208	-4.2771	-4.925	-4.9667	-4.45	-5.0437	-4.8	-4.675	-4.9417	-4.5479	-4.725	-4.8667	-4.4521	-4.9833	-4.5417	-4.4667	216.016	312.078	241.545	483.668	259.177	248.182	465.802	513.553	200.959	518.155	522.487	420.753	455.660	313.445	362.212	397.124	0.00061552	0.00018386	3.8668e-05	1130.3	9.295e-07	3.7583e-07	1198.7	245.5	1.4723e-06	1.019e-06	306.79	85.807	67.205	19.306	1.2706e-06	27.337	1.8819e-05	1.8126e-05	5.5789e-06	954.85	1.9333e-07	1.9663e-07	987.55	191.95	1.9144e-07	2.0557e-07	230.41	64.93	51.392	14.657	2.1904e-07	20.295	481.088	215.559	244.760	188.255	239.788	323.359	188.135	195.439	314.424	275.469	194.845	201.458	201.820	209.272	258.801	208.713	-8191	255	
734.030	1	1	0	0	0.14923	0.043227	0.074244	0.31265	0.044232	0.1874	0.1785	0.2001	0.096036	0.1612	0.084214	0.30251	0.25186	0.12238	0.16734	0.089082	-4.6021	-4.5396	-4.6062	-5.0437	-4.3958	-4.8333	-4.7354	-4.5188	-4.9229	-4.4771	-4.6875	-4.8542	-4.5333	-4.7896	-4.5542	-4.5687	377.030	188.697	514.707	536.837	385.752	335.681	320.565	454.110	289.025	442.410	177.624	504.428	482.684	470.258	295.658	296.442	0.00057711	7.1388e-05	3.4075e-05	1132.5	1.4824e-06	8.9344e-07	1195.4	245.78	7.9659e-07	7.2217e-07	306.08	85.557	67.641	19.093	1.3785e-06	27.221	1.8553e-05	1.9294e-05	5.5508e-06	954.02	1.9548e-07	2.185e-07	986.33	192.1	1.9021e-07	2.2119e-07	230.02	64.906	51.558	14.649	2.142e-07	20.223	485.799	532.325	251.601	188.396	300.815	244.303	188.151	195.248	235.397	348.007	195.007	201.273	201.785	209.184	339.217	208.394	-8191	255	
734.149	1	1	0	0	0.13061	0.19159	0.10878	0.20743	0.10226	0.22266	0.38547	0.097493	0.14124	0.17344	0.26672	0.2375	0.12867	0.11143	0.097164	0.033749	-4.5583	-4.5354	-4.6229	-4.9688	-4.4521	-4.9583	-4.8646	-4.5354	-4.8938	-4.6312	-4.6937	-4.9646	-4.2937	-4.7542	-4.8208	-4.4021	453.396	425.555	362.751	450.080	374.898	339.478	518.419	385.600	360.397	255.886	443.921	187.528	228.680	514.526	275.379	418.810	0.00050673	0.00011974	4.1499e-05	1131.5	1.6099e-06	5.2819e-07	1193.9	245.45	1.9073e-06	3.5582e-07	304.24	85.968	67.421	19.006	4.556e-07	27.264	1.915e-05	2.0245e-05	5.3636e-06	953.39	2.0389e-07	2.2404e-07	986.58	192.16	1.9869e-07	2.2841e-07	229.62	64.988	51.406	14.686	2.0384e-07	20.204	483.278	247.475	274.037	188.541	277.191	388.141	188.186	195.338	273.963	415.071	195.213	201.185	201.748	208.831	355.482	209.006	-8191	255	
734.222	1	1	0	0	0.23563	0.19089	0.1075	0.2803	0.11817	0.064785	0.12792	0.065427	0.10152	0.056173	0.14711	0.14277	0.092747	0.17349	0.078273	0.076679	-4.6687	-4.4333	-4.4479	-5.2083	-4.525	-4.8104	-4.7979	-4.2042	-4.8083	-4.6562	-4.5729	-4.925	-4.4292	-4.6875	-4.8438	-4.4854	521.578	463.208	537.113	472.578	369.663	381.931	400.334	465.092	448.317	474.845	184.275	235.862	527.568	212.850	382.360	508.121	0.00055366	0.000121	2.3047e-05	1134.2	1.3927e-06	1.4244e-06	1193.5	247.22	1.2627e-06	1.9495e-06	306.51	85.504	67.462	19.051	1.0704e-06	27.192	2.0316e-05	2.0743e-05	5.3473e-06	955.41	2.1492e-07	2.262e-07	986.09	192.1	2.1279e-07	2.2349e-07	230.2	64.889	51.59	14.682	1.98e-07	20.137	480.901	242.741	280.394	188.205	293.629	332.286	188.201	195.239	251.393	333.533	195.133	201.447	201.696	209.330	339.106	208.277	-8191	255	
734.319	1	1	0	0	0.31188	0.23702	0.18409	0.14748	0.093662	0.15995	0.13858	0.076263	0.089124	0.0087517	0.30162	0.055704	0.18931	0.061681	0.16752	0.26344	-4.6521	-4.5417	-4.3063	-5.1417	-4.5437	-4.7604	-5.0271	-4.525	-4.7979	-4.7979	-4.4292	-4.8771	-4.5417	-4.5521	-4.9146	-4.3542	264.195	345.889	397.681	483.069	295.274	379.822	482.412	209.530	286.310	515.026	182.716	300.957	208.535	472.980	226.505	522.694	0.00053635	0.00012489	4.4023e-05	1138.1	1.1603e-06	7.9311e-07	1198.1	246.43	2.0638e-06	6.57e-07	305.99	85.28	67.688	19.095	1.1624e-06	27.269	2.1279e-05	2.0108e-05	5.0512e-06	956.37	2.2162e-07	2.1491e-07	987.33	192.26	2.2447e-07	2.1789e-07	229.7	64.889	51.616	14.683	1.978e-07	20.199	479.454	282.881	274.600	188.485	298.359	302.364	188.246	195.421	272.377	328.297	195.285	201.181	201.595	209.149	377.901	208.687	-8191	255	
734.415	1	1	0	0	0.059491	0.1401	0.13861	0.10202	0.098464	0.18794	0.33494	0.17063	0.211	0.096246	0.13832	0.035224	0.12294	0.15548	0.17115	0.075518	-4.4896	-4.8	-4.3292	-5.0437	-4.5646	-4.7271	-5.0146	-4.5729	-4.7979	-4.8042	-4.4229	-4.8896	-4.5938	-4.6042	-4.9917	-4.3729	440.693	389.025	377.960	195.312	201.600	314.895	183.859	202.597	214.654	388.795	520.034	354.021	454.979	487.336	448.285	278.537	0.00062603	0.00015065	3.875e-05	1129.8	5.022e-07	8.3616e-07	1201.5	246.77	9.3586e-07	8.8833e-07	306.34	85.741	67.329	19.113	7.2951e-07	27.288	2.2503e-05	1.9114e-05	5.0711e-06	955.5	2.323e-07	2.1169e-07	988.91	192.24	2.319e-07	2.039e-07	229.63	65.125	51.627	14.655	1.9446e-07	20.316	485.790	248.220	299.003	188.605	259.996	336.863	188.042	195.217	278.427	339.731	195.104	201.418	201.804	209.393	259.904	208.640	-8191	255	
734.534	1	1	0	0	0.20442	0.10631	0.12988	0.49972	0.10425	0.10412	0.11298	0.063063	0.062761	0.1997	0.27171	0.10298	0.12623	0.14727	0.16985	0.11659	-4.3667	-4.7667	-4.4396	-5.1104	-4.4854	-4.4583	-5.0896	-4.525	-4.6521	-4.8979	-4.4521	-4.9313	-4.6583	-4.4042	-4.9604	-4.4854	488.567	427.787	385.234	178.221	299.887	481.898	424.300	389.100	392.839	461.674	260.681	380.134	198.633	368.919	314.964	479.873	0.00054245	0.00010316	2.939e-05	1134.1	1.0414e-06	1.0294e-06	1196	245.19	4.4166e-07	7.6372e-07	305.6	86.274	68.042	19.156	7.5976e-07	27.418	2.2602e-05	1.8382e-05	4.9622e-06	956.51	2.294e-07	1.9914e-07	987.46	192.19	2.2286e-07	1.9561e-07	229.32	65.201	51.753	14.663	1.8813e-07	20.279	482.380	307.569	266.751	188.281	250.009	316.185	188.314	195.256	232.293	293.429	194.946	201.367	202.018	209.382	293.932	208.281	-8191	255	
734.630	1	1	0	0	0.18287	0.21184	0.06083	0.24985	0.18872	0.049589	0.04045	0.18538	0.071532	0.15306	0.20764	0.26286	0.28888	0.11646	0.084825	0.14601	-4.2312	-4.9437	-4.3896	-5.0125	-4.5542	-4.3708	-4.8583	-4.5833	-4.4688	-5.0521	-4.4667	-4.8562	-4.6937	-4.6167	-4.8917	-4.5854	265.261	189.494	446.109	192.884	360.068	417.283	334.839	434.717	200.095	460.363	459.078	523.649	227.827	396.170	196.584	189.540	0.00060708	0.00010369	4.5574e-05	1131	2.7151e-07	7.7453e-07	1196.9	245.52	1.8754e-06	9.7227e-08	307.61	85.888	67.817	19.213	9.4282e-07	27.322	2.1873e-05	1.8131e-05	4.8668e-06	956.19	2.188e-07	1.9773e-07	986.68	192.36	2.1689e-07	1.8963e-07	229.9	65.205	51.65	14.659	1.9768e-07	20.285	496.748	269.760	269.327	188.348	324.303	310.454	188.313	195.327	278.105	403.527	195.309	201.252	201.617	209.149	271.904	208.314	-8191	255	
734.726	1	1	0	0	0.044532	0.13307	0.0088184	0.20147	0.20427	0.31258	0.06423	0.26029	0.27317	0.25406	0.20311	0.12631	0.23132	0.13378	0.11005	0.1132	-4.2917	-4.9125	-4.4604	-4.9208	-4.7979	-4.3812	-5.0646	-4.6104	-4.575	-5.0687	-4.3979	-4.7729	-4.825	-4.3771	-4.9292	-4.6667	321.228	472.439	441.232	520.218	405.207	500.762	513.703	475.892	246.222	255.211	513.193	531.424	502.774	354.479	247.079	330.993	0.00048711	9.7549e-05	1.9372e-05	1133.2	7.2526e-07	1.1022e-06	1202.1	246.29	1.606e-06	3.8068e-07	305	86.139	67.311	19.256	1.1398e-06	27.199	2.0925e-05	1.723e-05	5.1401e-06	956.72	2.0965e-07	1.9223e-07	988.72	192.52	2.0978e-07	1.8431e-07	229.51	65.119	51.544	14.667	2.0997e-07	20.285	484.555	263.069	504.665	188.531	380.714	303.456	188.174	195.141	303.299	233.889	195.243	201.175	201.281	209.215	242.181	209.061	-8191	255	
734.822	1	1	0	0	0.12888	0.11917	0.16187	0.39866	0.16997	0.065836	0.072274	0.18537	0.14959	0.057764	0.029655	0.15483	0.10489	0.13218	0.10101	0.22695	-4.0229	-5.0667	-4.2479	-4.675	-4.8604	-4.4208	-4.9729	-4.7063	-4.5854	-5.0646	-4.5604	-4.7625	-5.0271	-4.3729	-4.8938	-4.6438	456.908	418.244	407.533	460.629	397.951	363.605	283.361	476.699	445.584	219.307	487.332	404.730	281.693	339.454	325.452	313.374	0.00056936	0.00010306	2.4285e-05	1130.3	1.5198e-06	1.0178e-06	1193.6	246.87	1.0693e-06	1.3038e-06	305.32	85.892	67.85	19.107	8.3475e-07	27.338	2.0604e-05	1.7039e-05	5.4754e-06	955.35	2.0165e-07	1.8819e-07	987.22	192.48	2.0043e-07	1.883e-07	229.76	65.132	51.628	14.612	2.2549e-07	20.275	483.636	278.960	279.771	188.594	305.667	331.232	188.281	195.305	378.522	358.811	194.881	201.377	201.514	209.456	283.836	208.459	-8191	255	
734.918	1	1	0	0	0.095277	0.054179	0.0595	0.10855	0.25942	0.053474	0.17006	0.1009	0.19947	0.11642	0.09852	0.14548	0.29568	0.25044	0.060114	0.22843	-4.1521	-5.0125	-4.5229	-4.7812	-4.925	-4.4812	-4.9729	-4.8812	-4.4167	-5.0896	-4.6562	-4.6937	-5.175	-4.5062	-4.7979	-4.7708	208.005	204.117	508.090	372.619	269.069	399.786	479.089	274.245	270.112	207.549	537.221	308.412	535.262	193.264	507.710	414.812	0.00049113	7.2254e-05	4.9318e-06	1132.2	8.274e-07	5.7789e-07	1195.4	245.51	1.1342e-06	4.1493e-07	304.95	85.918	67.418	19.169	1.5494e-06	27.314	2.0304e-05	1.7894e-05	5.8321e-06	956.32	2.0044e-07	1.976e-07	987.38	192.08	2.0258e-07	1.9414e-07	229.96	65.14	51.421	14.655	2.2944e-07	20.28	486.415	257.091	393.755	188.469	229.176	263.093	188.189	195.393	273.863	194.858	194.951	201.486	201.885	209.526	294.449	208.413	-8191	255	
735.014	1	1	0	0	0.23248	0.068941	0.1013	0.14273	0.068809	0.17692	0.25634	0.19123	0.11602	0.10468	0.2387	0.080477	0.025654	0.16569	0.11224	0.1961	-4.0312	-4.7833	-4.5396	-4.6271	-4.9021	-4.4083	-4.9437	-4.8333	-4.3625	-4.7104	-4.5729	-4.4021	-4.9563	-4.5375	-4.8042	-5.0062	492.478	484.056	276.323	237.114	456.984	197.218	488.180	474.738	495.000	195.978	390.719	320.053	228.280	473.244	309.428	212.238	0.00057879	2.0019e-05	2.2851e-05	1131.6	3.695e-07	6.5333e-07	1200.2	246.89	1.0563e-06	5.62e-07	304.49	85.707	67.684	19.172	5.5643e-07	27.306	1.9725e-05	1.8462e-05	5.7576e-06	956.14	1.9772e-07	2.1352e-07	987.02	192.3	2.0081e-07	2.0758e-07	229.87	65.033	51.55	14.681	2.3036e-07	20.192	485.096	440.482	330.212	188.464	355.335	331.971	188.257	195.229	211.616	234.410	194.768	201.246	201.352	209.377	366.867	207.977	-8191	255	
735.135	1	1	0	0	0.31708	0.11771	0.26601	0.14022	0.1924	0.16778	0.17697	0.097867	0.14695	0.33441	0.12185	0.12609	0.19404	0.13297	0.18157	0.16991	-4.0396	-4.8042	-4.6771	-4.6292	-5.0938	-4.5062	-4.6167	-4.9833	-4.3958	-4.8167	-4.5792	-4.6229	-4.9146	-4.5104	-4.45	-4.9958	509.882	318.450	425.138	196.043	302.651	392.847	531.796	520.970	479.045	475.066	514.111	531.958	224.680	191.390	335.355	436.798	0.00049522	9.228e-05	9.2671e-06	1132.8	9.2716e-07	5.1263e-07	1199.8	245.46	8.2008e-07	1.2084e-06	306.63	85.838	67.434	19.295	1.3043e-06	27.259	1.9743e-05	2.0317e-05	5.6484e-06	956.52	1.9698e-07	2.2616e-07	989.87	191.68	2.0354e-07	2.2919e-07	230	65	51.574	14.714	2.1811e-07	20.257	490.269	185.394	295.873	188.411	270.247	293.386	188.084	195.132	283.252	315.756	194.962	201.131	201.709	209.296	251.458	208.319	-8191	255	
735.229	1	1	0	0	0.096047	0.065539	0.083444	0.11148	0.076481	0.14614	0.15305	0.21163	0.087936	0.070115	0.18022	0.20352	0.2459	0.10467	0.21191	0.2167	-4.1646	-4.9021	-4.9062	-4.4521	-4.8979	-4.525	-4.7229	-5.1208	-4.3938	-4.7625	-4.8375	-4.4542	-4.9708	-4.6354	-4.4396	-4.875	406.338	271.088	380.737	522.174	312.757	531.706	427.426	367.445	251.213	365.294	494.766	201.983	457.868	452.134	185.068	235.334	0.0005252	0.00015806	4.1746e-05	1136.5	1.1953e-06	7.8044e-07	1197.2	246.55	1.6153e-06	1.7369e-06	307.31	85.903	67.582	19.178	8.944e-07	27.369	1.9911e-05	2.0962e-05	5.357e-06	956.79	2.0421e-07	2.3015e-07	987.94	191.9	2.0745e-07	2.3039e-07	230.15	65.032	51.51	14.713	2.0899e-07	20.166	475.066	287.380	254.353	188.506	302.495	291.103	188.417	195.287	269.171	289.918	194.853	201.211	201.971	209.200	308.014	208.518	-8191	255	
735.326	1	1	0	0	0.13926	0.26813	0.11511	0.092405	0.090804	0.18915	0.023702	0.19527	0.15586	0.072486	0.055285	0.25863	0.16566	0.11401	0.21636	0.10713	-4.0792	-4.5771	-4.875	-4.375	-4.7833	-4.6062	-4.5042	-4.8646	-4.4896	-4.6	-4.925	-4.2875	-4.8854	-4.6354	-4.5146	-5.05	484.482	295.202	370.719	275.091	267.775	396.810	195.670	233.766	491.313	485.756	182.878	478.676	492.566	480.005	502.745	503.987	0.00062218	0.00014505	1.6789e-05	1131	4.5687e-07	5.8138e-07	1196.8	246.7	2.0753e-06	1.2961e-06	305.61	86.231	67.711	19.154	5.8026e-07	27.268	2.0963e-05	2.0435e-05	5.1005e-06	955.09	2.1439e-07	2.2215e-07	987.84	191.93	2.1603e-07	2.1604e-07	229.75	65.241	51.612	14.711	1.9923e-07	20.184	478.482	247.302	327.334	188.296	253.677	288.752	188.279	195.154	226.110	316.584	195.205	201.384	201.764	209.279	304.071	208.655	-8191	255	
735.446	1	1	0	0	0.28438	0.22325	0.10717	0.077832	0.11783	0.059008	0.17511	0.16725	0.029905	0.15998	0.23836	0.19038	0.16344	0.13934	0.2039	0.16132	-4.1937	-4.5854	-4.8187	-4.4083	-4.8375	-4.6583	-4.5188	-4.9812	-4.4708	-4.6708	-4.975	-4.3708	-4.8458	-4.7812	-4.2771	-4.9625	475.690	267.916	226.271	349.241	363.672	332.905	483.811	279.463	438.690	283.013	431.373	383.787	325.208	344.121	311.103	463.457	0.00062051	8.7047e-05	4.72e-05	1133.1	2.029e-06	1.5894e-06	1191.6	245.56	1.8424e-06	1.2032e-06	305.89	85.505	67.418	19.049	1.7593e-06	27.387	2.1655e-05	1.9631e-05	4.836e-06	955.81	2.2336e-07	2.0486e-07	986.26	191.84	2.2063e-07	2.0762e-07	229.3	64.841	51.623	14.611	1.9342e-07	20.226	483.900	209.948	310.461	188.556	288.076	293.770	188.068	195.296	269.287	279.390	195.201	201.251	201.456	209.195	333.430	208.609	-8191	255	
735.518	1	1	0	0	0.13606	0.03284	0.11075	0.20284	0.12436	0.13107	0.22917	0.058508	0.12808	0.16728	0.089732	0.081422	0.12169	0.11962	0.274	0.1624	-4.3542	-4.5437	-4.8583	-4.5208	-4.9187	-4.8458	-4.5146	-5.0458	-4.575	-4.4583	-5.0833	-4.4292	-4.8646	-4.7688	-4.3521	-4.9271	316.590	406.187	461.649	430.998	369.488	213.833	466.363	506.187	533.904	525.170	458.729	472.626	457.827	518.195	384.357	508.481	0.00051948	0.0002293	4.5468e-05	1127.7	1.2861e-06	1.7151e-06	1193.7	245.99	1.5755e-06	1.1381e-06	306.5	85.709	67.881	19.173	6.3892e-07	27.271	2.2372e-05	1.8969e-05	4.7801e-06	955.3	2.2939e-07	1.9894e-07	985.63	192.13	2.2527e-07	2.0368e-07	229.59	64.993	51.691	14.622	1.9295e-07	20.258	475.824	276.715	271.400	188.443	340.366	260.979	188.400	195.250	295.573	322.887	195.013	201.307	201.640	209.439	298.098	208.668	-8191	255	
735.614	1	1	0	0	0.11076	0.085919	0.21884	0.16361	0.22708	0.29783	0.071369	0.10456	0.11835	0.13217	0.079987	0.11867	0.13833	0.097335	0.13898	0.084801	-4.1771	-4.3542	-4.8479	-4.6229	-4.6125	-4.8229	-4.5021	-4.8604	-4.6708	-4.3792	-4.8875	-4.5104	-4.8042	-5.0375	-4.4104	-4.8063	487.665	442.183	463.379	202.375	212.736	192.360	477.402	344.538	421.221	430.130	391.490	264.770	448.602	477.191	321.432	476.986	0.00047926	4.1545e-05	5.7198e-05	1129.5	9.0346e-07	4.3616e-07	1194.3	246.13	8.2892e-07	1.0321e-06	306.9	86.062	67.995	19.177	3.9011e-07	27.282	2.1833e-05	1.8362e-05	4.669e-06	955.51	2.2224e-07	1.9117e-07	986.01	192.05	2.1439e-07	1.9452e-07	229.59	65.19	51.729	14.617	1.9665e-07	20.28	485.360	226.731	237.270	188.506	296.311	406.622	188.105	195.392	302.074	378.774	195.081	201.524	201.540	209.566	279.657	208.199	-8191	255	
735.710	1	1	0	0	0.092904	0.17395	0.064098	0.24489	0.043557	0.16015	0.26944	0.084589	0.072399	0.15383	0.1339	0.14253	0.24355	0.072546	0.019269	0.094906	-4.2729	-4.3938	-4.8125	-4.7896	-4.6875	-4.8063	-4.575	-4.8083	-4.6958	-4.425	-5.0042	-4.4833	-4.6208	-4.9396	-4.4875	-4.7438	400.340	305.261	184.615	488.941	343.256	241.097	431.849	427.029	347.296	360.573	364.561	214.371	496.484	254.351	285.639	457.320	0.0005438	8.8638e-05	2.7203e-05	1135.2	1.2365e-06	3.34e-07	1194	245.52	9.9111e-07	1.2333e-06	305.94	85.416	67.713	19.134	4.9865e-07	27.282	2.1223e-05	1.7706e-05	4.773e-06	956.57	2.1167e-07	1.8945e-07	985.45	192.38	2.0664e-07	1.9405e-07	229.31	65.117	51.572	14.64	2.0439e-07	20.316	481.853	228.444	236.619	188.396	353.136	285.753	188.295	195.426	241.814	308.986	194.861	201.595	201.992	208.931	298.232	208.484	-8191	255	
735.831	1	1	0	0	0.15995	0.19426	0.13767	0.10244	0.022468	0.23713	0.12535	0.019462	0.11569	0.19359	0.17234	0.066507	0.2013	0.027687	0.30082	0.17061	-4.3583	-4.4313	-4.8771	-4.6937	-4.525	-4.9062	-4.3542	-4.9646	-4.8167	-4.3646	-4.9542	-4.5437	-4.3875	-4.8583	-4.4271	-4.7604	179.834	479.488	197.843	455.296	440.464	446.893	456.223	427.736	444.559	317.727	436.910	196.090	423.798	228.370	414.485	211.005	0.00053749	9.0994e-05	8.7685e-06	1128.7	1.4295e-06	1.3902e-06	1196.9	247.16	1.8676e-06	7.8051e-07	305.22	86.24	67.456	19.223	3.7498e-07	27.279	2.0504e-05	1.8148e-05	5.2512e-06	955.31	2.1595e-07	1.9358e-07	988.23	192.7	2.1488e-07	2.033e-07	230.19	65.268	51.656	14.67	2.2744e-07	20.304	481.697	221.355	217.435	188.548	245.164	285.751	188.055	195.171	240.930	271.832	195.116	201.227	201.671	209.068	249.145	208.413	-8191	255	
735.927	1	1	0	0	0.17876	0.024782	0.18905	0.18898	0.10371	0.03117	0.17022	0.2196	0.18332	0.18167	0.089237	0.25567	0.066838	0.21878	0.17119	0.1567	-4.575	-4.4042	-4.7771	-4.7917	-4.4812	-4.8583	-4.4542	-4.8479	-4.8896	-4.6104	-4.9062	-4.7083	-4.4417	-4.9896	-4.5083	-4.55	386.704	408.955	421.448	498.777	288.967	288.701	464.058	504.541	440.368	193.306	183.342	253.733	363.468	491.940	240.282	516.200	0.00057183	9.3076e-05	3.8367e-05	1131.1	1.0306e-06	4.6933e-07	1195.8	245.59	5.7113e-07	1.4449e-06	305.27	86.198	67.803	19.069	9.767e-07	27.466	2.0427e-05	1.7786e-05	5.5852e-06	956	2.0845e-07	1.8943e-07	988.31	192.22	2.0426e-07	1.9947e-07	230.49	65.261	51.603	14.628	2.3239e-07	20.3	477.592	321.402	237.438	188.309	313.831	233.488	188.291	195.414	299.225	308.183	194.821	201.152	201.512	208.829	310.601	208.608	-8191	255	
736.023	1	1	0	0	0.1474	0.14462	0.21168	0.30486	0.046363	0.049315	0.18178	0.038144	0.15272	0.11006	0.18662	0.19716	0.11594	0.1425	0.13998	0.067306	-4.4563	-4.3333	-4.8792	-4.9479	-4.3938	-4.8396	-4.7333	-4.675	-5.0458	-4.4583	-4.9979	-4.7875	-4.4604	-4.7937	-4.7104	-4.5458	408.785	509.046	193.931	493.877	450.593	465.472	475.568	461.916	505.503	520.729	200.521	466.514	300.456	249.624	277.690	248.988	0.00057329	7.5599e-05	4.4102e-05	1131.7	1.6875e-06	1.4624e-06	1199.3	247.6	1.7648e-06	3.6825e-08	306.02	86.109	67.641	19.196	1.9165e-07	27.114	1.9688e-05	1.8496e-05	5.8325e-06	956.26	2.0788e-07	2.0076e-07	989.8	192.66	1.9842e-07	2.0616e-07	229.99	65.164	51.584	14.666	2.3831e-07	20.229	491.529	275.192	273.619	188.491	348.315	281.568	188.091	195.042	321.607	374.031	194.976	201.047	201.622	209.396	359.863	208.342	-8191	255	
736.095	1	1	0	0	0.13287	0.18831	0.16583	0.2669	0.12516	0.13571	0.15567	0.048185	0.079828	0.11612	0.12945	0.070566	0.052313	0.25675	0.13702	0.36137	-4.6875	-4.5146	-4.7208	-4.9167	-4.425	-4.7542	-4.7667	-4.6062	-4.8625	-4.4354	-4.8396	-4.8458	-4.3	-4.7375	-4.6271	-4.5417	528.560	370.287	338.528	483.933	469.024	358.696	443.863	426.910	382.973	455.372	499.936	488.582	420.916	195.318	433.352	410.105	0.00057539	0.00013375	9.9938e-06	1132.8	2.5552e-06	6.4241e-07	1198.2	245.03	7.5811e-07	7.0404e-07	305.69	86.014	67.452	19.121	1.1681e-06	27.446	1.9734e-05	1.9565e-05	5.979e-06	956.81	2.0959e-07	2.202e-07	990.21	192.25	2.0097e-07	2.3093e-07	230.27	65.05	51.508	14.689	2.3663e-07	20.32	480.358	216.209	186.416	188.427	258.883	349.426	188.361	195.168	253.133	297.573	195.203	201.147	201.771	209.585	282.056	208.644	-8191	255	
736.215	1	1	0	0	0.18434	0.14134	0.26522	0.1548	0.13323	0.15596	0.15194	0.17347	0.18968	0.11854	0.11603	0.091555	0.23935	0.20269	0.055999	0.1803	-4.5312	-4.3292	-4.7604	-4.9979	-4.4938	-4.8833	-4.8375	-4.4958	-4.9521	-4.6062	-4.7833	-5.0021	-4.325	-4.9167	-4.7562	-4.3917	391.579	536.212	218.599	526.318	381.692	387.797	498.480	243.374	295.731	381.459	384.995	445.267	439.065	521.389	403.490	187.270	0.00055588	1.2276e-05	1.754e-05	1132.4	2.1776e-06	6.5202e-07	1198.5	246.7	8.9025e-07	7.5071e-07	307.41	86.019	67.768	19.203	6.4239e-07	27.187	2.0458e-05	2.1434e-05	5.9303e-06	957.4	2.1488e-07	2.3578e-07	989.72	192.38	2.057e-07	2.4207e-07	230.54	65.119	51.703	14.73	2.1984e-07	20.239	481.627	270.510	330.655	188.400	266.265	224.471	188.266	195.245	207.159	189.257	194.894	201.098	201.679	209.287	396.344	208.535	-8191	255	
736.310	1	1	0	0	0.11612	0.36151	0.049341	0.22188	0.18577	0.31438	0.18976	0.25924	0.12979	0.18127	0.24995	0.1704	0.27769	0.061759	0.2367	0.026134	-4.5771	-4.6042	-4.4104	-4.9563	-4.3375	-4.9958	-4.8521	-4.3604	-4.9667	-4.6875	-4.6021	-5.0604	-4.325	-4.625	-4.8958	-4.4729	297.361	428.561	434.692	178.035	338.687	414.470	488.099	492.241	484.362	357.611	177.968	536.110	509.167	338.117	536.928	427.792	0.0006225	0.00015347	4.7396e-05	1132.7	1.1596e-06	9.4518e-07	1202.6	247.61	9.81e-08	3.8937e-07	306.31	86.276	67.985	19.161	1.163e-06	27.229	2.0783e-05	2.1758e-05	5.6013e-06	957.93	2.1765e-07	2.3794e-07	991.88	192.97	2.1776e-07	2.4002e-07	230.36	65.151	51.858	14.73	2.1592e-07	20.229	481.652	277.700	280.867	188.440	310.033	273.018	188.344	195.275	182.306	289.900	195.101	201.384	201.686	209.360	252.949	208.428	-8191	255	
736.408	1	1	0	0	0.068905	0.076281	0.10575	0.2123	0.031607	0.17083	0.18734	0.17046	0.061767	0.35353	0.22058	0.093472	0.11024	0.075099	0.2065	0.02117	-4.5521	-4.6167	-4.5083	-5.0583	-4.4083	-4.7688	-4.8812	-4.4563	-4.8938	-4.6792	-4.6188	-4.9896	-4.5854	-4.6	-4.9437	-4.5958	498.123	432.693	356.937	485.754	379.066	300.093	502.762	250.305	189.149	536.499	483.282	470.611	371.038	372.422	393.925	196.530	0.00056299	7.2819e-05	2.9549e-05	1135.5	1.0875e-06	2.3272e-07	1201.1	246.02	1.3881e-06	1.3161e-07	305.65	85.634	67.663	19.089	4.8407e-07	27.473	2.1973e-05	2.165e-05	5.4695e-06	958.91	2.2816e-07	2.2716e-07	990.27	192.5	2.2341e-07	2.2205e-07	230.4	65.133	51.749	14.685	1.9813e-07	20.285	481.094	289.927	312.384	188.411	250.639	326.526	188.324	195.201	256.375	234.772	195.126	201.003	201.466	209.094	197.604	208.304	-8191	255	
736.527	1	1	0	0	0.10515	0.23226	0.1177	0.34237	0.17097	0.11734	0.19937	0.10471	0.18099	0.13582	0.024937	0.21994	0.20329	0.28644	0.26023	0.19098	-4.5271	-4.6708	-4.4729	-5.0792	-4.4646	-4.5896	-4.9104	-4.3458	-4.825	-4.6104	-4.375	-4.925	-4.5854	-4.4667	-4.9104	-4.4187	412.268	336.947	232.782	486.986	266.809	446.623	467.391	225.854	310.816	185.300	318.003	487.949	464.758	207.802	390.083	275.064	0.00058439	0.0001736	3.4921e-05	1134.6	1.4322e-06	1.3979e-07	1197.7	248.31	4.3883e-07	1.1796e-06	306.5	85.954	68.066	19.253	7.2612e-07	27.525	2.2316e-05	2.0088e-05	5.1741e-06	958.7	2.3791e-07	2.2005e-07	990.53	192.96	2.4039e-07	2.1349e-07	230.38	65.123	51.996	14.732	1.9871e-07	20.339	482.223	330.029	248.145	188.307	229.393	401.075	188.104	195.212	342.679	345.803	195.291	201.061	201.701	209.467	304.495	208.402	-8191	255	
736.623	1	1	0	0	0.11746	0.12227	0.26397	0.12325	0.303	0.094371	0.14957	0.22248	0.079527	0.032294	0.2832	0.1972	0.12653	0.047742	0.12896	0.22613	-4.3125	-4.5813	-4.2583	-4.9729	-4.4542	-4.6188	-5.2271	-4.5792	-4.825	-4.9583	-4.5563	-4.9208	-4.6333	-4.7271	-5.0188	-4.6312	368.268	535.002	262.131	447.017	397.684	287.488	432.996	516.615	186.965	329.626	497.150	528.322	343.219	513.592	207.631	325.171	0.00061726	9.8513e-05	9.3556e-06	1135.7	1.4987e-06	1.5269e-06	1202	246.91	2.2232e-06	1.5578e-07	308.15	85.806	67.813	19.252	6.4443e-07	27.316	2.365e-05	1.9167e-05	5.1632e-06	960.74	2.3847e-07	2.1257e-07	990.67	192.8	2.397e-07	2.0845e-07	230.34	65.224	51.851	14.703	2.0003e-07	20.3	482.368	293.828	495.259	188.630	271.813	258.377	188.448	194.807	270.112	408.375	195.005	201.173	201.493	209.665	301.619	208.076	-8191	255	
736.719	1	1	0	0	0.2232	0.20084	0.064043	0.19425	0.21779	0.14651	0.19014	0.12521	0.09641	0.08602	0.066875	0.052606	0.12439	0.12415	0.14926	0.19687	-4.3625	-4.8688	-4.4167	-5.0563	-4.625	-4.5437	-5.0854	-4.6875	-4.6896	-4.8292	-4.2021	-4.9313	-4.8396	-4.4479	-5.0667	-4.5396	396.479	520.524	292.128	528.999	305.311	227.101	272.404	531.716	333.595	290.073	273.693	282.219	469.868	456.278	503.342	376.912	0.00058276	0.00013409	5.0702e-05	1136.5	4.1124e-07	1.1536e-06	1201.8	247.91	6.852e-07	9.561e-07	306.31	86.137	67.7	19.152	9.7235e-07	27.571	2.4001e-05	1.9546e-05	5.3927e-06	962	2.4588e-07	2.163e-07	992.15	193.38	2.3609e-07	2.0852e-07	230.43	65.361	51.748	14.709	2.0195e-07	20.427	479.763	271.636	266.810	188.529	226.625	291.483	188.460	195.237	317.827	361.348	195.011	201.188	201.207	209.385	303.921	208.453	-8191	255	
736.815	1	1	0	0	0.10021	0.052038	0.14537	0.096664	0.23981	0.22463	0.15497	0.25968	0.20337	0.16427	0.26541	0.079515	0.1534	0.075714	0.12254	0.084896	-4.2771	-4.9875	-4.2708	-5.1292	-4.6438	-4.3229	-5.0583	-4.4729	-4.5188	-5.0208	-4.4458	-4.7333	-4.7625	-4.3792	-4.8896	-4.5396	190.196	284.868	260.888	433.616	256.854	496.648	529.249	500.758	203.960	194.436	237.081	474.291	495.716	457.598	253.733	422.284	0.0005	0.00010653	4.4487e-05	1139.8	6.0089e-07	1.8618e-06	1206.5	247.86	1.5737e-06	1.4335e-06	308.13	86.25	68.065	19.143	1.3374e-06	27.266	2.2654e-05	1.8428e-05	5.3083e-06	963.21	2.2331e-07	2.0831e-07	993.3	193.65	2.2492e-07	2.0332e-07	230.65	65.576	51.948	14.697	2.2822e-07	20.43	487.140	280.465	267.134	188.567	225.600	300.930	188.187	195.144	281.454	363.586	195.266	201.724	201.715	209.679	260.569	208.002	-8191	255	
736.911	1	1	0	0	0.18421	0.13768	0.13371	0.142	0.085897	0.14214	0.19451	0.13901	0.03852	0.1257	0.12507	0.1181	0.094814	0.10004	0.12727	0.087987	-4.2125	-4.9812	-4.3646	-4.8833	-4.6542	-4.2875	-4.9313	-4.6188	-4.4521	-4.8812	-4.5396	-4.7604	-4.8771	-4.425	-4.9604	-4.7271	514.635	340.604	376.141	280.725	360.688	274.731	524.762	296.880	531.341	389.295	461.726	210.082	178.272	532.786	358.625	504.167	0.00053125	9.6698e-05	3.2278e-05	1143.3	3.8812e-07	5.4345e-07	1203.6	247.96	4.6858e-07	1.1129e-06	309.27	85.998	68.013	19.256	5.2934e-07	27.518	2.2304e-05	1.9193e-05	5.933e-06	966.63	2.2455e-07	2.1335e-07	996.57	193.86	2.2657e-07	2.0333e-07	231.69	65.526	51.986	14.701	2.3198e-07	20.373	487.085	228.480	225.863	188.434	396.304	281.302	188.105	195.218	256.401	337.544	195.056	201.270	201.326	209.432	241.234	208.613	-8191	255	
737.007	1	1	0	0	0.014177	0.094684	0.14171	0.15524	0.083281	0.087915	0.18991	0.30696	0.17556	0.28517	0.2239	0.13228	0.21178	0.20019	0.074444	0.21269	-4.2917	-5.0271	-4.3458	-4.8667	-4.8958	-4.3063	-4.9333	-4.7625	-4.4313	-4.9583	-4.5625	-4.7063	-4.9187	-4.2333	-4.9167	-4.7417	449.479	253.125	234.308	202.108	423.472	232.568	348.049	482.936	182.758	360.876	450.006	224.277	407.633	210.081	469.582	456.279	0.00049394	9.2069e-05	3.8121e-05	1140.9	2.5077e-07	4.7925e-07	1207.8	247.67	9.2206e-07	3.993e-07	307.96	86.235	67.904	19.129	1.0545e-06	27.503	2.0932e-05	1.8095e-05	5.919e-06	964.74	2.1307e-07	2.0464e-07	996.02	193.56	2.201e-07	2.0526e-07	231.47	65.483	51.839	14.759	2.4655e-07	20.367	485.568	278.130	248.409	188.371	296.145	204.283	188.029	195.106	319.220	239.245	194.697	201.074	201.498	209.315	292.100	208.344	-8191	255	
737.128	1	1	0	0	0.075603	0.18789	0.097233	0.054134	0.15574	0.12716	0.15244	0.11098	0.13255	0.23949	0.16246	0.14795	0.19574	0.028472	0.1801	0.14315	-4.0687	-5.0917	-4.5062	-4.6188	-5.0333	-4.4875	-4.8083	-4.6458	-4.3208	-4.8417	-4.5854	-4.4917	-4.9812	-4.4625	-4.6271	-4.8812	504.024	311.906	182.522	251.356	194.510	216.740	224.950	223.954	196.269	492.591	226.718	240.162	497.174	327.228	284.840	508.289	0.00055106	9.2429e-05	3.4844e-05	1142.2	1.3043e-06	5.0934e-07	1206.4	247.8	1.2014e-06	2.8929e-07	307.11	86.15	67.907	18.988	4.5003e-07	27.299	2.1242e-05	1.9373e-05	6.1766e-06	965.1	2.0809e-07	2.1677e-07	998.14	193.44	2.1257e-07	2.1935e-07	231.8	65.307	51.84	14.718	2.4365e-07	20.317	489.766	200.247	253.891	188.499	313.284	264.697	188.190	194.797	279.633	220.949	195.010	201.340	201.796	209.180	292.805	208.367	-8191	255	
737.222	1	1	0	0	0.19061	0.016625	0.10141	0.1025	0.23308	0.23887	0.22268	0.084585	0.28757	0.20462	0.22769	0.061023	0.12596	0.15294	0.075771	0.22793	-4.0708	-4.8708	-4.5521	-4.4812	-4.8354	-4.4688	-4.7812	-4.9646	-4.3646	-4.85	-4.8417	-4.4208	-5.0437	-4.5146	-4.7167	-4.8292	309.081	331.346	331.250	245.541	523.514	231.611	361.666	344.620	492.707	238.504	342.022	427.586	179.202	469.736	403.271	476.644	0.00047941	6.999e-05	3.6501e-05	1141.2	1.3348e-06	3.9428e-07	1208.7	246.49	1.1169e-06	1.3629e-06	306.73	85.963	67.896	19.192	1.1043e-06	27.547	2.0439e-05	2.0499e-05	6.0889e-06	963.81	2.0499e-07	2.2998e-07	996.61	193.16	2.0509e-07	2.2858e-07	231.39	65.335	51.803	14.775	2.3205e-07	20.324	486.359	282.521	252.751	188.472	317.252	298.152	188.055	195.489	253.978	315.756	194.993	201.645	201.605	209.046	222.859	208.482	-8191	255	
737.318	1	1	0	0	0.16756	0.035496	0.12975	0.040064	0.10967	0.18063	0.12128	0.15087	0.035036	0.26519	0.27948	0.11968	0.14834	0.15498	0.070577	0.2296	-3.9938	-4.8562	-4.6625	-4.4688	-4.8021	-4.3375	-4.4625	-4.7167	-4.0625	-4.7167	-4.6396	-4.1333	-4.6146	-4.225	-4.2604	-4.7583	418.005	399.412	486.003	381.044	295.195	360.746	483.796	502.272	391.314	330.495	520.834	347.124	515.828	447.377	275.266	526.565	0.00056254	4.8485e-05	2.6276e-05	1141.6	9.1538e-07	1.7066e-06	1209.6	247.69	1.6937e-06	9.0797e-07	306.96	86.23	68	19.177	1.1862e-06	27.437	2.0896e-05	2.1511e-05	5.7679e-06	964.35	2.0545e-07	2.379e-07	997.05	193.37	2.1181e-07	2.3921e-07	231.1	65.296	51.834	14.763	2.2466e-07	20.345	482.328	213.839	295.710	188.375	264.057	258.738	188.353	195.402	248.953	256.819	195.278	201.192	201.537	209.217	293.038	208.524	-8191	255	
737.392	1	1	0	0	0.10362	0.31444	0.41792	0.133	0.026257	0.025218	0.34689	0.1889	0.38734	0.13746	0.26291	0.16645	0.10159	0.040985	0.22979	0.02074	-3.8187	-4.5208	-4.4729	-4.1167	-4.6292	-4.5333	-4.3104	-4.6854	-4.0396	-4.7167	-4.6729	-4.1188	-4.6667	-4.3333	-4.0792	-4.8063	394.054	317.615	369.417	428.693	215.333	207.939	498.663	494.308	213.274	330.802	211.044	405.433	353.710	377.822	493.534	270.772	0.00059128	0.00018055	4.6784e-05	1143.4	1.5081e-06	6.8576e-07	1208.3	246.55	1.2957e-06	3.5259e-07	307.35	86.545	67.782	19.193	5.9067e-07	27.315	2.1062e-05	2.2058e-05	5.3689e-06	963.71	2.2008e-07	2.3885e-07	996.08	193.1	2.2938e-07	2.386e-07	231.44	65.376	51.877	14.748	2.1589e-07	20.287	482.197	324.939	281.984	188.341	243.517	299.458	188.147	195.114	282.389	463.118	195.246	201.251	201.635	209.328	301.201	208.395	-8191	255	
737.488	1	1	0	0	0.13107	0.13082	0.21043	0.074458	0.17828	0.046344	0.12398	0.040873	0.19629	0.23538	0.20029	0.17209	0.12565	0.13461	0.24409	0.077278	-3.7292	-4.4396	-4.5979	-4.1083	-4.6979	-4.2229	-4.25	-4.9229	-4.1312	-4.2875	-4.7271	-4.2188	-4.5667	-4.3583	-4.0979	-4.8729	435.890	466.776	290.536	198.251	221.445	280.813	452.175	516.061	385.311	439.980	494.475	194.859	293.050	456.292	287.054	223.262	0.00059685	8.0051e-05	2.0403e-05	1141	9.093e-07	2.0098e-06	1208.5	246.31	1.56e-06	1.4226e-06	309.47	86.249	68.302	19.149	3.144e-07	27.499	2.2459e-05	2.1107e-05	5.3061e-06	964.21	2.346e-07	2.3243e-07	996.03	193.13	2.4134e-07	2.3469e-07	231.2	65.294	51.935	14.751	2.1044e-07	20.299	480.272	329.690	529.823	188.243	320.472	294.931	188.328	195.472	261.831	307.407	194.814	201.155	201.540	209.263	335.055	208.670	-8191	255	
737.607	1	1	0	0	0.36878	0.075142	0.18243	0.21576	0.21322	0.17315	0.086693	0.11049	0.17429	0.34012	0.14983	0.36471	0.13955	0.18549	0.2034	0.15995	-3.975	-4.3979	-4.6771	-4.2667	-4.5042	-4.5646	-4.2771	-4.8333	-4.225	-4.2896	-4.8271	-4.1979	-4.5958	-4.6062	-4.1458	-4.7875	275.595	222.035	425.197	178.812	413.295	406.880	394.990	238.828	401.147	377.694	464.641	477.076	454.923	335.546	504.148	439.009	0.00052567	4.0586e-05	3.0966e-05	1143.4	1.2888e-06	7.8865e-07	1205.6	245.92	1.2001e-06	1.7184e-06	306.5	86.522	67.635	19.187	1.3108e-06	27.287	2.3325e-05	2.0609e-05	5.1808e-06	964.65	2.4671e-07	2.2567e-07	994.32	192.66	2.5796e-07	2.2851e-07	230.93	65.472	51.958	14.705	2.1341e-07	20.334	486.823	303.480	297.884	188.373	198.428	302.512	188.171	195.270	223.505	282.563	195.066	200.880	201.839	209.146	315.230	208.477	-8191	255	
737.703	1	1	0	0	0.17755	0.17942	0.11349	0.2656	0.1477	0.064217	0.13281	0.065573	0.062818	0.079327	0.15903	0.076172	0.15246	0.23948	0.22004	0.21029	-3.8063	-4.2271	-4.8604	-4.2854	-4.5396	-4.6062	-4.1312	-4.775	-4.3854	-4.3083	-4.8917	-4.2417	-4.5792	-4.5938	-4.1333	-4.6646	185.739	264.598	220.893	482.848	388.189	504.406	533.239	508.318	371.739	360.021	483.620	431.807	428.722	312.203	462.005	513.255	0.00054654	0.00010106	1.876e-05	1142.8	8.0743e-07	1.3608e-06	1206.6	247.22	7.8676e-07	2.8878e-07	306.31	86.121	68.032	19.094	1.0612e-06	27.329	2.4514e-05	2.0837e-05	5.2606e-06	964.23	2.5515e-07	2.2219e-07	995.21	193.29	2.5068e-07	2.2631e-07	230.61	65.466	51.954	14.668	2.1154e-07	20.369	488.567	274.796	315.308	188.193	302.370	257.602	188.283	195.402	346.779	229.368	194.976	201.100	201.917	209.309	277.286	208.399	-8191	255	
737.799	1	1	0	0	0.10862	0.09628	0.2175	0.10518	0.22176	0.2205	0.083939	0.055074	0.012237	0.32407	0.1037	0.13668	0.24566	0.067135	0.099329	0.04428	-4.0167	-4.0646	-4.7354	-4.3479	-4.4583	-4.7104	-4.25	-4.5583	-4.4812	-4.1667	-4.7167	-4.2312	-4.4187	-4.7104	-4.1333	-4.575	288.295	386.060	327.456	466.339	297.553	437.683	460.298	406.334	388.499	333.419	339.659	521.721	194.279	367.642	333.984	423.272	0.00057136	8.5628e-05	4.6549e-05	1141.3	1.5041e-07	1.8674e-06	1207.6	246.67	8.2951e-07	7.3657e-07	307.61	86.293	67.647	19.032	1.3626e-06	27.42	2.3406e-05	1.9583e-05	5.1101e-06	964.42	2.3101e-07	1.9955e-07	993.18	193.36	2.1827e-07	1.9771e-07	230.62	65.435	51.699	14.632	1.9996e-07	20.321	487.224	254.694	257.380	188.318	513.821	252.403	188.482	195.422	280.202	318.877	195.261	201.399	202.305	209.485	300.129	208.598	-8191	255	
737.895	1	1	0	0	0.09361	0.06618	0.014919	0.10277	0.096207	0.33552	0.066821	0.046524	0.165	0.079199	0.16337	0.03411	0.20862	0.13046	0.16592	0.29262	-4.2104	-4.1792	-4.6708	-4.4854	-4.1875	-4.6896	-4.2042	-4.4771	-4.2833	-3.9354	-4.6417	-4.2542	-4.2188	-4.8292	-4.1312	-4.4542	404.823	243.323	235.817	181.628	328.259	502.326	482.479	507.279	333.747	293.284	409.425	536.401	227.499	278.161	322.176	525.206	0.00049954	0.00012757	5.2645e-05	1140.8	1.7695e-06	1.0577e-06	1201.2	247.17	1.2295e-06	7.3347e-07	306.33	86.165	67.668	19.051	1.8207e-06	27.377	2.1323e-05	1.8642e-05	5.2678e-06	962.57	2.2478e-07	2.0248e-07	992.35	193.39	2.2441e-07	2.1064e-07	230.39	65.402	51.735	14.658	2.352e-07	20.428	476.964	195.845	205.244	188.378	292.027	286.366	188.230	195.381	301.819	286.587	195.070	201.350	201.881	209.134	268.541	208.388	-8191	255	
737.992	1	1	0	0	0.24169	0.26295	0.10597	0.35665	0.14587	0.091568	0.02494	0.11128	0.14461	0.099832	0.075698	0.15595	0.2014	0.093152	0.24999	0.1228	-4.1708	-3.9625	-4.5271	-4.3792	-4.1917	-4.7229	-4.3875	-4.5646	-4.5229	-4.1396	-4.6188	-4.3708	-4.2604	-4.8396	-4.2542	-4.4563	492.363	451.729	487.522	502.234	412.250	280.573	534.791	507.325	222.634	246.235	484.628	529.046	412.027	253.521	406.110	291.182	0.00059585	0.0001399	6.5477e-05	1140.1	9.8013e-07	9.525e-07	1205.5	247.79	5.5159e-07	1.4676e-06	307.59	86.176	67.774	19.212	8.7249e-07	27.439	2.2636e-05	1.9796e-05	5.9779e-06	963.33	2.3321e-07	2.1284e-07	994.95	193.79	2.2085e-07	2.1266e-07	231.36	65.347	51.818	14.702	2.5125e-07	20.387	484.131	289.629	244.037	188.509	280.304	330.624	188.359	195.015	259.643	352.691	195.022	201.136	201.795	209.181	304.834	208.620	-8191	255	
738.088	1	1	0	0	0.10656	0.1067	0.14133	0.22002	0.074908	0.10613	0.33737	0.12061	0.1293	0.1172	0.10202	0.13095	0.25	0.14584	0.15697	0.1724	-4.1729	-4.0021	-4.6417	-4.6062	-4.0938	-4.6396	-4.3458	-4.5729	-4.7646	-4.2479	-4.7479	-4.5875	-4.2375	-4.7771	-4.1	-4.3063	240.942	287.600	301.469	468.855	422.816	409.628	439.350	306.121	290.030	224.875	518.838	428.978	259.793	235.139	232.342	255.801	0.00054732	0.00012005	2.274e-05	1137.6	1.0977e-06	1.2321e-06	1207.8	245.69	1.8299e-06	6.5546e-07	308.12	86.192	67.423	19.182	1.0626e-06	27.327	2.1962e-05	2.0131e-05	6.3815e-06	963.84	2.2732e-07	2.1011e-07	996.38	193.37	2.159e-07	2.1233e-07	231.89	65.405	51.673	14.714	2.5477e-07	20.371	482.794	269.668	373.513	188.429	320.691	192.437	187.977	195.303	318.525	444.673	195.038	201.158	201.822	209.287	290.352	208.493	-8191	255	
738.208	1	1	0	0	0.22188	0.1606	0.090254	0.088781	0.20957	0.22141	0.07425	0.16037	0.08022	0.31017	0.21486	0.094779	0.11449	0.070785	0.066882	0.21395	-4.375	-4.1021	-4.6792	-4.725	-4.0229	-4.6833	-4.3438	-4.3604	-4.6854	-4.2625	-4.65	-4.6583	-4.1292	-4.6458	-4.4771	-4.2083	337.805	239.348	205.507	444.819	264.331	364.049	246.438	329.136	302.200	535.985	442.170	449.432	339.328	532.079	391.683	387.956	0.00060794	5.7125e-05	4.2927e-05	1140.2	1.0472e-06	1.2928e-06	1206.7	248.17	8.2686e-07	7.0272e-07	306.47	86.168	67.84	19.075	8.5786e-07	27.261	2.1315e-05	2.0685e-05	6.514e-06	964.63	2.2506e-07	2.2594e-07	998.19	193.3	2.1543e-07	2.3425e-07	231.54	65.27	51.659	14.739	2.4416e-07	20.303	482.061	531.805	251.605	188.562	303.781	264.977	188.129	195.297	347.791	289.582	195.351	201.349	201.419	209.357	264.576	208.490	-8191	255	
738.304	1	1	0	0	0.098913	0.19412	0.23703	0.29771	0.17402	0.22747	0.22718	0.25776	0.28529	0.19025	0.044615	0.09429	0.042633	0.0065137	0.091958	0.082754	-4.3812	-4.1438	-4.4437	-4.6833	-4.1625	-4.7042	-4.5563	-4.3771	-4.8021	-4.1271	-4.4792	-4.6958	-4.1875	-4.5188	-4.5854	-4.1687	487.765	511.568	213.868	476.602	495.290	207.052	522.600	255.537	464.669	335.464	304.233	443.053	215.669	395.958	273.148	532.705	0.00056157	0.00013888	3.2115e-05	1144.6	1.3448e-06	2.3776e-06	1204	247.05	1.5644e-06	7.0661e-07	305.86	85.76	67.589	19.129	4.2277e-07	27.181	2.065e-05	2.1851e-05	6.284e-06	964.17	2.1916e-07	2.4219e-07	995.59	193.17	2.1576e-07	2.5229e-07	231.17	65.134	51.752	14.743	2.5009e-07	20.292	480.240	304.359	300.332	188.484	290.340	257.494	188.225	195.355	277.105	298.866	194.910	201.385	201.492	209.588	307.871	208.683	-8191	255	
738.399	1	1	0	0	0.10634	0.16715	0.11194	0.087376	0.24452	0.21866	0.094545	0.20212	0.13847	0.12783	0.052068	0.30466	0.039792	0.01973	0.17691	0.060105	-4.4437	-4.1333	-4.4083	-4.5583	-4.175	-4.7438	-4.5792	-4.2167	-4.55	-4.2688	-4.4375	-4.65	-4.1312	-4.6729	-4.6396	-4.1396	320.590	519.448	255.048	518.415	257.365	319.005	229.311	531.688	266.614	390.171	328.827	449.687	375.244	476.082	326.038	234.130	0.00053299	1.9156e-05	2.1308e-05	1139.4	1.0237e-06	1.3168e-06	1207.5	247.43	3.9917e-07	1.0597e-06	307.44	85.836	67.772	19.032	1.2713e-06	27.488	2.2292e-05	2.4476e-05	6.4178e-06	963.26	2.4429e-07	2.6947e-07	996.15	193.67	2.4913e-07	2.8878e-07	231.94	65.382	51.99	14.836	2.7298e-07	20.449	475.910	404.609	410.497	188.407	229.975	278.740	188.237	195.242	294.622	324.117	195.058	201.490	201.642	209.361	265.530	208.525	-8191	255	
738.495	1	1	0	0	0.209	0.12495	0.078875	0.034135	0.33833	0.043882	0.155	0.042518	0.24886	0.091937	0.19953	0.14724	0.30998	0.049958	0.19606	0.06579	-4.4229	-4.4521	-4.2583	-5	-4.2333	-4.4354	-4.7188	-4.2417	-4.7417	-4.3958	-4.1937	-4.7854	-4.1458	-4.5292	-4.6771	-4.3125	292.698	434.035	192.333	230.061	306.423	302.280	479.829	272.720	536.771	384.565	471.119	422.516	533.232	331.940	449.443	461.116	0.00067597	5.216e-05	6.6105e-05	1144.5	4.5869e-07	8.5202e-07	1212.1	248.91	2.2208e-06	9.1922e-07	308	85.76	68.021	19.356	9.2703e-07	27.371	2.6314e-05	2.7364e-05	6.9951e-06	970.11	2.7208e-07	2.9584e-07	1002	194.59	2.7604e-07	2.8942e-07	232.26	65.452	52.133	14.921	2.608e-07	20.421	478.762	277.816	314.117	188.373	207.664	364.219	188.138	195.086	533.899	363.433	194.910	201.378	201.682	209.442	324.342	208.600	-8191	255	
738.616	1	1	0	0	0.19559	0.13157	0.055278	0.27303	0.23238	0.13102	0.19819	0.1096	0.20897	0.10878	0.15013	0.18124	0.086324	0.18307	0.061915	0.0926	-4.3187	-4.3771	-4.15	-4.9	-4.1479	-4.4437	-4.7583	-4.2104	-4.6854	-4.4042	-4.2854	-4.7562	-4.3313	-4.4667	-4.7688	-4.2	403.193	435.487	417.031	497.759	440.075	531.267	443.670	499.844	517.857	443.169	476.521	192.312	205.578	357.705	354.551	270.319	0.0006387	4.1299e-05	3.1692e-05	1148.8	6.7041e-07	1.4657e-06	1216.2	248.98	8.9976e-07	1.1007e-06	307.85	86.109	67.718	19.225	1.0991e-06	27.433	2.836e-05	2.6832e-05	6.8642e-06	974.33	3.0421e-07	2.905e-07	1005.9	194.83	2.8545e-07	2.7174e-07	232.8	65.594	52.139	14.824	2.3738e-07	20.419	484.856	330.280	269.582	188.275	266.542	321.896	188.337	195.160	536.934	309.903	195.093	201.329	201.421	209.159	225.645	208.564	-8191	255	
738.687	1	1	0	0	0.082722	0.060048	0.25606	0.25752	0.060066	0.14622	0.025697	0.17286	0.043814	0.16721	0.12022	0.144	0.1036	0.25694	0.15104	0.18729	-4.1687	-4.3917	-4.2812	-4.9521	-4.3292	-4.2667	-4.9229	-4.3771	-4.4604	-4.475	-4.1708	-4.7333	-4.3083	-4.2521	-4.6917	-4.2771	295.802	320.212	178.716	218.652	516.455	337.011	469.692	405.185	468.346	265.222	376.680	507.604	205.124	333.139	296.641	458.016	0.00056128	0.00016086	6.5726e-05	1146.7	1.6867e-06	1.8957e-06	1218.9	247.9	1.0736e-06	1.1168e-06	307.14	86.617	67.959	19.169	6.7485e-07	27.616	2.679e-05	2.3322e-05	6.1556e-06	972.07	2.8566e-07	2.6128e-07	1004.9	194.58	2.9135e-07	2.6074e-07	232.27	65.734	52.461	14.856	2.5369e-07	20.536	479.707	233.138	266.689	188.408	287.847	345.232	188.235	195.521	268.973	263.352	195.064	201.466	201.973	208.869	248.960	208.492	-8191	255	
738.808	1	1	0	0	0.1113	0.27866	0.17151	0.26209	0.22698	0.13714	0.10333	0.18677	0.16219	0.10685	0.09283	0.10101	0.11182	0.16478	0.093194	0.17757	-4.1896	-4.6042	-4	-4.9667	-4.425	-4.2396	-4.9042	-4.2688	-4.4125	-4.5646	-4.15	-4.6917	-4.4062	-4.2167	-4.8104	-4.3854	181.720	294.163	455.337	243.531	513.272	184.609	263.900	231.604	248.842	186.475	499.110	280.634	412.027	526.306	453.494	213.828	0.00065268	0.00012096	8.4885e-05	1158.4	6.8279e-07	8.4448e-07	1223.7	250.16	1.1079e-06	4.6027e-07	311.17	86.656	68.246	19.459	1.2161e-06	27.566	2.9987e-05	2.5203e-05	6.8369e-06	979.89	3.2046e-07	2.8954e-07	1010.2	196.43	3.297e-07	2.9881e-07	234.28	66.487	52.85	15.046	2.9145e-07	20.815	476.201	272.170	248.972	188.408	410.777	396.762	187.927	194.954	349.599	457.766	194.707	201.210	201.437	209.129	219.183	208.308	-8191	255	
738.904	1	1	0	0	0.30242	0.16762	0.15138	0.32017	0.15403	0.15373	0.25335	0.15025	0.0013211	0.19997	0.27085	0.16154	0.19706	0.11532	0.058437	0.056372	-4.1708	-4.6479	-4.2417	-4.7521	-4.4958	-4.1458	-4.7521	-4.5083	-4.3542	-4.6896	-3.9979	-4.6	-4.5208	-4.1479	-4.7833	-4.4104	448.973	467.948	340.032	483.890	515.004	340.455	476.713	451.141	180.000	320.161	503.930	446.464	487.272	426.564	230.695	252.394	0.00064082	0.00015599	1.1907e-05	1176.2	1.369e-06	9.6931e-07	1236	252.64	2.1261e-06	1.4325e-06	314.52	86.919	69.123	19.473	4.5503e-07	28.143	3.2431e-05	2.7387e-05	7.514e-06	997.55	3.3742e-07	3.0805e-07	1025.4	199.28	3.4517e-07	3.1742e-07	237.63	67.306	53.599	15.193	3.3192e-07	21.138	479.103	223.017	288.073	188.162	347.267	261.497	188.100	195.005	281.676	281.455	194.781	201.012	201.736	208.986	262.617	208.440	-8191	255	
739.000	1	1	0	0	0.14067	0.21822	0.11025	0.085582	0.083697	0.05442	0.21429	0.28253	0.012622	0.065728	0.26971	0.080373	0.13282	0.14357	0.14502	0.10102	-4.0979	-4.5312	-4.2063	-4.9125	-4.5188	-4.1271	-4.7729	-4.4271	-4.2875	-4.8979	-4.2604	-4.6479	-4.6271	-4.2521	-4.7708	-4.4083	344.482	512.492	207.497	448.732	421.461	507.655	465.265	188.443	537.386	229.234	433.045	359.825	295.417	253.696	466.101	471.451	0.00064314	0.00012896	1.4838e-05	1199.3	1.6567e-06	1.4103e-06	1259.1	255.55	1.2568e-06	5.9517e-07	316.33	88.312	70.098	19.721	4.4271e-07	28.228	3.3809e-05	2.9416e-05	8.6069e-06	1017.1	3.5425e-07	3.2809e-07	1042.4	201.75	3.5847e-07	3.301e-07	240.26	68.046	54.061	15.345	3.558e-07	21.243	475.340	254.604	228.954	188.311	342.065	320.568	188.100	195.424	264.496	479.180	195.030	201.025	201.448	208.771	347.531	208.050	-8191	255	
739.096	1	1	0	0	0.060312	0.062029	0.20855	0.25704	0.15015	0.024298	0.19331	0.079378	0.16971	0.09388	0.19353	0.15705	0.082921	0.28257	0.14154	0.13092	-3.8271	-4.8271	-4.075	-4.5542	-4.5708	-4.2167	-4.7771	-4.4396	-4.1521	-4.6583	-4.3063	-4.4875	-4.6667	-4.1208	-4.625	-4.5375	527.649	242.011	310.871	483.312	476.945	398.536	528.745	536.144	472.490	504.287	468.908	326.211	369.004	488.938	181.291	327.172	0.00052944	8.0737e-05	4.9317e-05	1212.6	9.2264e-07	6.6647e-07	1267.6	256.55	4.8348e-07	1.3212e-06	319.2	88.626	69.835	19.76	1.3408e-06	27.915	3.2467e-05	2.8014e-05	8.9064e-06	1027.5	3.2045e-07	3.0588e-07	1052.2	202.21	3.22e-07	2.9378e-07	240.76	67.805	53.858	15.26	3.3486e-07	21.089	482.201	255.010	326.829	188.193	193.153	223.429	187.906	194.856	211.654	209.462	194.796	201.147	201.511	208.589	281.655	208.072	-8191	255	
739.193	1	1	0	0	0.040107	0.076281	0.15558	0.1053	0.16118	0.081641	0.35789	0.25763	0.029806	0.28127	0.097503	0.086849	0.048056	0.1691	0.14573	0.076845	-3.8208	-4.7229	-4.3146	-4.4583	-4.75	-3.9292	-4.75	-4.4417	-4.1208	-4.8833	-4.2646	-4.3958	-4.9708	-4.2937	-4.5687	-4.5687	355.774	347.835	489.796	536.136	473.408	354.237	469.238	185.335	241.672	289.258	441.081	238.078	271.822	431.525	380.267	187.963	0.00057923	4.5792e-05	2.054e-05	1214.2	1.3282e-06	1.1072e-06	1265.1	256.3	1.3885e-06	5.3808e-07	317.7	88.277	70.218	19.704	7.1166e-07	28.087	2.9507e-05	2.615e-05	8.6705e-06	1026.9	2.9954e-07	2.9607e-07	1051.2	201.71	2.9534e-07	2.8595e-07	240.46	67.466	53.676	15.269	3.1658e-07	20.904	482.216	276.598	185.935	188.198	297.340	355.372	187.715	195.041	260.605	291.954	195.010	201.098	201.335	208.970	263.027	207.973	-8191	255	
739.287	1	1	0	0	0.13056	0.37817	0.12923	0.037406	0.19063	0.20897	0.24836	0.18754	0.16058	0.17635	0.12011	0.11753	0.13445	0.12216	0.18134	0.15482	-3.7646	-4.6625	-4.2896	-4.4646	-4.8063	-4.1875	-4.5625	-4.6771	-3.9875	-4.9437	-4.3562	-4.3208	-4.7688	-4.1667	-4.6875	-4.7604	280.231	381.052	508.254	363.284	223.934	332.564	442.915	501.780	345.409	469.823	464.902	425.123	519.030	446.452	492.953	246.078	0.00054661	0.0001598	1.7754e-05	1205.4	9.6306e-07	6.6956e-07	1263.4	256.05	1.5841e-06	1.113e-06	316.6	88.499	69.558	19.77	4.6634e-07	28.191	2.677e-05	2.5467e-05	8.224e-06	1020.8	2.7252e-07	3.0213e-07	1044.7	200.54	2.8637e-07	2.9957e-07	239.66	67.357	53.57	15.312	3.3126e-07	20.995	480.212	227.915	268.426	188.428	271.634	299.678	187.972	195.117	258.394	469.041	194.886	201.207	201.781	208.664	234.443	208.242	-8191	255	
739.385	1	1	0	0	0.23166	0.15727	0.052599	0.24398	0.13789	0.19118	0.42906	0.17998	0.20787	0.084119	0.1086	0.23351	0.24547	0.26401	0.076636	0.15842	-3.9146	-4.7396	-4.4812	-4.3604	-4.85	-4.2833	-4.5917	-4.5917	-4.2354	-4.6896	-4.5312	-4.1937	-4.825	-4.375	-4.4708	-4.7063	479.255	472.722	243.961	511.990	507.598	469.401	445.823	463.841	197.105	485.645	253.469	242.074	441.396	470.958	200.012	442.817	0.0005858	2.6489e-05	3.5987e-05	1204.9	4.811e-07	1.4771e-06	1262.8	256.72	1.5352e-06	2.0446e-06	317.63	88.14	69.486	19.667	1.9128e-06	28.087	2.7653e-05	2.8638e-05	8.0753e-06	1021	2.7485e-07	3.1266e-07	1046.3	200.81	2.7365e-07	3.0585e-07	239.3	67.296	53.436	15.256	2.9426e-07	20.894	487.105	288.466	244.894	188.289	265.265	261.054	188.124	194.986	246.144	314.980	194.714	201.113	201.593	208.744	296.266	208.456	-8191	255	
739.479	1	1	0	0	0.19279	0.045789	0.12978	0.11876	0.15449	0.11242	0.21727	0.10527	0.17698	0.11507	0.081766	0.083203	0.12961	0.1607	0.047421	0.16702	-3.8021	-4.6625	-4.5375	-4.2104	-4.7146	-4.4604	-4.5979	-4.7937	-4.05	-4.6479	-4.6479	-4.1979	-4.7167	-4.4313	-4.2896	-4.7833	296.929	216.202	427.598	241.889	519.804	285.294	517.554	497.938	215.166	284.297	226.741	333.859	478.111	348.854	285.717	432.855	0.00060177	0.00010516	1.5098e-05	1200.7	4.6353e-07	1.1026e-06	1258	254.67	1.3547e-06	1.2069e-06	315.74	88.008	69.599	19.701	1.0667e-06	27.819	2.5844e-05	2.763e-05	7.1184e-06	1014.5	2.6769e-07	3.0752e-07	1041.7	199.7	2.7763e-07	3.1235e-07	238.81	66.934	53.423	15.226	2.8119e-07	20.796	478.475	208.164	362.285	188.113	302.128	359.782	188.000	195.178	248.234	344.204	194.817	201.197	202.027	209.158	267.086	208.336	-8191	255	
739.577	1	1	0	0	0.098027	0.19478	0.065993	0.19523	0.14228	0.20885	0.20521	0.1568	0.21386	0.16713	0.041707	0.21292	0.094584	0.1676	0.10172	0.19289	-3.8479	-4.3771	-4.5104	-4.0792	-4.6	-4.4208	-4.3292	-4.7937	-4.2917	-4.6229	-4.6604	-4.2333	-4.7125	-4.2833	-4.3542	-4.825	404.862	221.564	387.814	526.104	251.902	311.066	183.308	507.723	357.330	361.009	407.352	518.640	293.305	490.006	240.251	310.472	0.00063971	7.1269e-05	1.1332e-05	1199.6	1.085e-06	1.2744e-06	1256.4	255.62	2.3513e-06	1.3774e-06	316.54	88.259	69.462	19.601	5.4421e-07	27.88	2.81e-05	2.781e-05	6.981e-06	1015.7	2.8701e-07	3.0767e-07	1041.4	199.62	2.9649e-07	3.0681e-07	238.16	66.948	53.637	15.213	2.774e-07	20.821	480.536	270.651	188.110	188.364	296.345	268.932	188.208	195.278	302.600	324.345	195.128	201.068	201.324	209.063	256.665	208.518	-8191	255	
739.696	1	1	0	0	0.16251	0.071559	0.085505	0.075363	0.16264	0.24668	0.14129	0.094178	0.18522	0.13535	0.20633	0.22887	0.14946	0.1437	0.12074	0.18293	-3.9833	-4.3292	-4.6521	-4.2625	-4.6813	-4.4062	-4.3417	-4.8542	-4.2958	-4.5292	-4.6604	-4.0583	-4.6375	-4.5917	-4.0854	-4.7042	432.853	345.159	255.920	478.250	214.526	436.882	455.716	500.094	278.150	500.778	248.805	277.668	514.471	206.628	255.678	319.019	0.00059445	0.00011151	1.843e-05	1195.2	1.1051e-06	6.4733e-07	1254.9	255.41	1.5942e-06	2.1098e-06	316.86	87.812	69.367	19.613	7.2518e-07	28.048	2.9428e-05	2.7532e-05	6.6375e-06	1013.9	3.0297e-07	2.8876e-07	1040.4	199.93	3.0485e-07	2.8938e-07	237.79	67.074	53.677	15.182	2.6957e-07	20.865	482.492	239.861	305.145	188.067	295.163	326.017	187.949	194.953	301.924	318.168	194.852	201.162	201.598	209.061	280.575	208.398	-8191	255	
739.792	1	1	0	0	0.1186	0.19003	0.14357	0.22335	0.17343	0.29923	0.10544	0.031847	0.12621	0.27922	0.10013	0.26262	0.20682	0.22484	0.11778	0.11074	-3.9813	-4.2562	-4.5833	-4.3083	-4.6104	-4.6979	-4.3396	-4.8042	-4.3708	-4.3688	-4.7438	-4.2542	-4.6521	-4.5396	-4.1687	-4.6667	442.108	365.357	224.921	499.336	270.921	342.401	410.260	534.158	206.204	298.173	194.032	312.835	275.484	180.534	248.231	368.448	0.00072034	0.00015072	1.0609e-05	1201.4	7.9895e-07	5.7682e-07	1258.6	254.25	1.6442e-06	1.2804e-06	316.3	87.878	69.548	19.7	2.0742e-06	28.1	3.009e-05	2.5755e-05	6.4522e-06	1015.3	3.048e-07	2.6982e-07	1039	199.44	3.0318e-07	2.6846e-07	237.53	67.105	53.584	15.171	2.66e-07	20.921	487.001	260.984	197.098	188.271	313.996	206.710	188.094	194.883	342.981	354.260	194.916	201.041	201.654	209.324	279.833	208.389	-8191	255	
739.888	1	1	0	0	0.21735	0.11519	0.085013	0.20872	0.037845	0.20084	0.44053	0.20726	0.30501	0.1169	0.1982	0.15542	0.10306	0.11427	0.16767	0.20397	-4.0875	-4.175	-4.6562	-4.2958	-4.4729	-4.5167	-4.1229	-4.6208	-4.3688	-4.2021	-4.675	-4.1646	-4.4354	-4.5417	-4.2063	-4.6208	355.989	427.861	236.086	499.296	351.013	509.071	437.313	479.602	239.241	246.554	495.178	507.102	293.300	524.409	364.212	510.680	0.00050382	4.5755e-05	1.4494e-05	1197.9	1.5027e-06	1.3498e-06	1257.7	254.5	1.801e-06	1.51e-06	314.64	88.164	69.445	19.6	5.3862e-07	28.277	2.9986e-05	2.5551e-05	6.4228e-06	1015.7	3.0615e-07	2.6735e-07	1039.3	199.77	2.9891e-07	2.7254e-07	237.53	67.33	53.572	15.129	2.6149e-07	20.967	482.209	452.907	294.186	188.356	339.121	303.337	188.057	195.356	273.974	268.503	194.849	201.042	201.357	209.206	190.716	208.280	-8191	255	
739.984	1	1	0	0	0.070683	0.034253	0.042415	0.16763	0.30026	0.13579	0.19363	0.11936	0.11027	0.019913	0.15598	0.21477	0.17085	0.14295	0.13156	0.35649	-4.1604	-4.1979	-4.6813	-4.3667	-4.3333	-4.5625	-4.2604	-4.5563	-4.4187	-4.2396	-4.8167	-4.3542	-4.4042	-4.8396	-4.1979	-4.5875	447.552	360.137	507.736	480.657	529.662	223.722	320.370	230.453	420.407	221.489	240.508	490.309	491.717	252.896	424.656	325.662	0.0004698	7.7668e-05	4.6222e-05	1199	8.8613e-07	1.3709e-06	1254.7	255.66	2.2311e-06	3.2239e-07	315.59	88.43	69.834	19.635	1.2893e-06	27.859	2.7979e-05	2.417e-05	6.3453e-06	1014.9	2.8263e-07	2.499e-07	1037	199.75	2.7907e-07	2.6051e-07	237.49	67.209	53.513	15.13	2.6976e-07	20.921	487.554	366.452	284.118	188.322	280.831	320.948	188.048	195.342	332.534	299.999	195.179	201.179	201.566	209.154	324.393	208.246	-8191	255	
740.081	1	1	0	0	0.34442	0.042185	0.12647	0.20251	0.31285	0.23608	0.29024	0.14553	0.036363	0.2216	0.16013	0.057436	0.056362	0.21225	0.1234	0.24213	-4.2979	-4.2125	-4.6104	-4.3604	-4.3063	-4.6167	-4.3667	-4.4375	-4.3792	-4.0563	-4.6521	-4.3417	-4.2208	-4.8021	-4.2708	-4.5583	375.820	405.617	411.671	479.074	388.338	399.742	534.977	397.352	406.233	306.258	224.070	493.389	453.094	426.506	304.760	408.569	0.00061263	0.00010293	3.8824e-05	1196.6	2.5759e-06	1.2675e-06	1259.1	253.8	1.0313e-06	5.3558e-07	314.09	88.471	70.003	19.557	9.8915e-07	27.939	2.6841e-05	2.411e-05	6.9157e-06	1014.4	2.8546e-07	2.5489e-07	1039.4	199.91	2.7597e-07	2.6414e-07	237.48	67.224	53.473	15.086	2.8877e-07	20.913	487.010	278.409	254.236	188.453	309.342	306.326	188.022	195.152	307.831	395.190	195.185	201.071	201.334	209.056	236.617	207.873	-8191	255	
740.177	1	1	0	0	0.082316	0.19612	0.14529	0.17297	0.14662	0.26703	0.16214	0.283	0.21831	0.21772	0.18491	0.19319	0.11314	0.14554	0.10964	0.17161	-4.1771	-4.0333	-4.6521	-4.65	-4.2771	-4.7854	-4.2667	-4.6833	-4.6146	-4.25	-4.7146	-4.5604	-4.1979	-4.9146	-4.2542	-4.2937	435.277	310.499	314.142	489.111	225.580	357.991	457.115	502.487	240.867	355.048	531.464	298.925	184.962	227.328	526.644	264.414	0.00055687	0.00012986	3.1572e-05	1197.2	1.6671e-06	9.8957e-07	1257.2	253.96	1.1549e-06	7.7195e-07	316.15	88.114	69.456	19.59	8.5456e-07	28.119	2.6456e-05	2.3548e-05	7.1939e-06	1014.2	2.7295e-07	2.4666e-07	1039.7	199.88	2.6258e-07	2.5612e-07	238.99	67.095	53.289	15.092	2.9565e-07	20.907	474.146	264.827	243.861	188.109	337.919	320.291	188.272	195.149	310.378	425.493	194.944	201.381	201.408	209.139	270.469	208.444	-8191	255	
740.297	1	1	0	0	0.16121	0.19523	0.063492	0.15434	0.1581	0.14628	0.3662	0.037476	0.23789	0.21731	0.099576	0.26498	0.16355	0.19484	0.030586	0.13679	-4.575	-3.9896	-4.5729	-4.5333	-4.1438	-4.9125	-4.2542	-4.325	-4.7333	-4.1312	-4.5917	-4.6583	-4.2771	-4.8	-4.2479	-4.3688	275.445	366.722	414.846	226.156	428.352	177.236	505.891	343.352	275.979	319.206	478.545	241.035	237.400	194.012	265.144	235.884	0.0005672	4.8396e-05	3.4942e-05	1200.2	8.1776e-07	1.5746e-06	1256.2	254.46	6.3199e-07	3.929e-07	314.66	87.674	69.194	19.566	1.0374e-06	27.802	2.4913e-05	2.3431e-05	7.5467e-06	1013.8	2.5892e-07	2.4863e-07	1039.4	199.24	2.4533e-07	2.4623e-07	237.46	66.726	53.145	15.1	2.8768e-07	20.733	483.346	236.280	255.490	188.219	246.228	218.898	188.176	195.111	292.881	296.208	194.953	201.261	201.315	209.263	315.011	208.541	-8191	255	
740.392	1	1	0	0	0.062914	0.19824	0.20491	0.21358	0.13034	0.11685	0.085509	0.13637	0.24715	0.085277	0.14061	0.14588	0.061982	0.0549	0.13105	0.18538	-4.4042	-4.1542	-4.3958	-4.6771	-4.1583	-4.8354	-4.5396	-4.175	-4.8771	-4.2208	-4.7854	-4.65	-4.1521	-4.6583	-4.3604	-4.3458	346.624	281.261	393.373	453.267	238.828	224.768	466.539	269.045	459.866	491.868	275.827	512.623	435.358	528.735	251.856	297.036	0.00057116	6.7224e-05	5.3359e-05	1190.5	9.219e-07	2.0402e-06	1248.6	253.54	1.4956e-06	7.2403e-07	314.21	87.938	68.98	19.406	1.3583e-06	27.776	2.3231e-05	2.3607e-05	7.2055e-06	1007.5	2.455e-07	2.5501e-07	1032.5	198.42	2.3197e-07	2.6225e-07	237.06	66.706	52.957	15.027	2.756e-07	20.737	482.710	219.648	255.038	188.245	348.925	198.040	188.093	195.019	319.429	246.008	194.826	201.166	201.436	209.132	303.916	208.086	-8191	255	
740.488	1	1	0	0	0.069964	0.13156	0.10288	0.15064	0.03117	0.16925	0.057125	0.090798	0.21241	0.22221	0.026708	0.11257	0.19143	0.098403	0.14383	0.17904	-4.5687	-4.1646	-4.3292	-4.7438	-4.2229	-4.6937	-4.7083	-4.1687	-4.7021	-4.3542	-4.4812	-4.6833	-4.1542	-4.5479	-4.4771	-4.1167	219.863	249.829	480.117	190.643	271.783	351.555	454.359	536.220	341.698	493.178	184.135	405.018	508.651	473.924	422.656	422.862	0.0006659	8.4632e-05	3.9252e-05	1189.7	1.4037e-06	1.0935e-06	1250.7	254.47	1.0927e-06	1.1395e-07	314.27	87.699	69.098	19.501	1.0004e-06	27.903	2.356e-05	2.5831e-05	7.0807e-06	1006.6	2.4678e-07	2.7853e-07	1033.9	198.41	2.4519e-07	2.8532e-07	236.94	66.654	53.081	15.095	2.6941e-07	20.715	474.625	229.429	337.098	188.321	231.243	194.474	187.945	195.178	246.824	333.720	194.873	200.676	201.802	209.227	298.145	208.388	-8191	255	
740.584	1	1	0	0	0.242	0.17929	0.032628	0.10987	0.097555	0.053417	0.12318	0.046255	0.24707	0.19431	0.12503	0.036135	0.099724	0.19023	0.22093	0.091548	-4.4208	-4.3917	-4.3583	-4.8375	-4.2208	-4.5396	-4.6958	-4.3	-4.7792	-4.4104	-4.3146	-4.7771	-4.1979	-4.5542	-4.6542	-4.1979	338.522	533.334	388.945	432.306	274.560	361.078	418.254	327.871	388.157	317.835	475.154	375.866	300.965	181.732	242.753	413.675	0.00050065	2.735e-05	5.1966e-05	1192.9	1.7225e-06	1.0766e-06	1250.7	252.75	2.2147e-06	1.1911e-06	313.8	87.682	69.326	19.459	8.0554e-07	27.899	2.4492e-05	2.6506e-05	6.8653e-06	1006.2	2.6532e-07	2.9067e-07	1032.4	198.12	2.6363e-07	2.9653e-07	237.14	66.715	53.133	15.108	2.6651e-07	20.806	475.038	290.438	327.153	188.342	274.933	249.161	188.053	195.073	247.078	338.027	195.013	201.072	201.334	209.460	236.287	208.397	-8191	255	
#DATA ENDS
