BOXY.EXE: ISS Imagent and Oximeter Data Acquisition Program Version 0.80
Ascii Record File

#ACQ INFORMATION
2  Detector Channels 
16  External MUX Channels 
1  Auxiliary Channels 
5000  Waveform (CCF) Frequency (Hz)
1  Waveforms Skipped 
30  Waveforms Averaged 
1  Cycles Averaged 
16  Acquisitions per Waveform 
10.0806  Updata Rate (Hz) 

#FILE INFORMATION
TRUE -- External MUX Channel results are PARSED.
FALSE -- AC DC and Phase are NOT grouped.
TRUE -- Companion Program Settings File CREATED.
FALSE -- AC data not excluded
FALSE -- DC data not excluded
FALSE -- Phase data not excluded
FALSE -- Auxillary Chn. data not excluded
Tab delimiters

#CALIBRATION STATE
TRUE -- Waveform Calibration Values APPLIED.


#AUX CALIBRATION VALUES
Val Type	aux-1	

Term	1.0000e+00	
Factor	0.0000e+00	


#WF CALIBRATION VALUES
A = Detector Channel
Val Type	A-AC1	A-AC2	A-AC3	A-AC4	A-AC5	A-AC6	A-AC7	A-AC8	A-AC9	A-AC10	A-AC11	A-AC12	A-AC13	A-AC14	A-AC15	A-AC16	A-DC1	A-DC2	A-DC3	A-DC4	A-DC5	A-DC6	A-DC7	A-DC8	A-DC9	A-DC10	A-DC11	A-DC12	A-DC13	A-DC14	A-DC15	A-DC16	A-Ph1	A-Ph2	A-Ph3	A-Ph4	A-Ph5	A-Ph6	A-Ph7	A-Ph8	A-Ph9	A-Ph10	A-Ph11	A-Ph12	A-Ph13	A-Ph14	A-Ph15	A-Ph16	

Term	0.00000e+00	0.00000e+00	0.00000e+00	0.00000e+00	0.00000e+00	0.00000e+00	0.00000e+00	0.00000e+00	0.00000e+00	0.00000e+00	0.00000e+00	0.00000e+00	0.00000e+00	0.00000e+00	0.00000e+00	0.00000e+00	0.00000e+00	0.00000e+00	0.00000e+00	0.00000e+00	0.00000e+00	0.00000e+00	0.00000e+00	0.00000e+00	0.00000e+00	0.00000e+00	0.00000e+00	0.00000e+00	0.00000e+00	0.00000e+00	0.00000e+00	0.00000e+00	0.00000e+00	0.00000e+00	0.00000e+00	0.00000e+00	0.00000e+00	0.00000e+00	0.00000e+00	0.00000e+00	0.00000e+00	0.00000e+00	0.00000e+00	0.00000e+00	0.00000e+00	0.00000e+00	0.00000e+00	0.00000e+00	
Factor	1.00000e+00	1.00000e+00	1.00000e+00	1.00000e+00	1.00000e+00	1.00000e+00	1.00000e+00	1.00000e+00	1.00000e+00	1.00000e+00	1.00000e+00	1.00000e+00	1.00000e+00	1.00000e+00	1.00000e+00	1.00000e+00	1.00000e+00	1.00000e+00	1.00000e+00	1.00000e+00	1.00000e+00	1.00000e+00	1.00000e+00	1.00000e+00	1.00000e+00	1.00000e+00	1.00000e+00	1.00000e+00	1.00000e+00	1.00000e+00	1.00000e+00	1.00000e+00	X	X	X	X	X	X	X	X	X	X	X	X	X	X	X	X	

B = Detector Channel
Val Type	B-AC1	B-AC2	B-AC3	B-AC4	B-AC5	B-AC6	B-AC7	B-AC8	B-AC9	B-AC10	B-AC11	B-AC12	B-AC13	B-AC14	B-AC15	B-AC16	B-DC1	B-DC2	B-DC3	B-DC4	B-DC5	B-DC6	B-DC7	B-DC8	B-DC9	B-DC10	B-DC11	B-DC12	B-DC13	B-DC14	B-DC15	B-DC16	B-Ph1	B-Ph2	B-Ph3	B-Ph4	B-Ph5	B-Ph6	B-Ph7	B-Ph8	B-Ph9	B-Ph10	B-Ph11	B-Ph12	B-Ph13	B-Ph14	B-Ph15	B-Ph16	

Term	0.00000e+00	0.00000e+00	0.00000e+00	0.00000e+00	0.00000e+00	0.00000e+00	0.00000e+00	0.00000e+00	0.00000e+00	0.00000e+00	0.00000e+00	0.00000e+00	0.00000e+00	0.00000e+00	0.00000e+00	0.00000e+00	0.00000e+00	0.00000e+00	0.00000e+00	0.00000e+00	0.00000e+00	0.00000e+00	0.00000e+00	0.00000e+00	0.00000e+00	0.00000e+00	0.00000e+00	0.00000e+00	0.00000e+00	0.00000e+00	0.00000e+00	0.00000e+00	-2.04314e+02	-1.42203e+02	-1.28168e+02	-1.83188e+02	-8.07192e+01	-9.55538e+01	-1.57235e+02	-1.62015e+02	-9.38696e+01	-7.87754e+01	-1.72586e+02	-1.73078e+02	-1.80462e+02	-1.78286e+02	-1.03677e+02	-1.51187e+02	
Factor	5.12228e-05	5.56067e-05	1.88345e-05	1.95333e-01	6.11813e-07	6.20629e-07	2.43410e-01	8.63391e-02	5.78950e-07	5.10576e-07	1.23214e-01	4.08652e-02	3.29490e-02	1.20693e-02	4.99769e-07	1.77148e-02	2.19044e-07	2.19549e-07	6.10483e-08	8.04949e-02	2.40446e-09	2.40050e-09	9.18355e-02	3.25942e-02	2.40413e-09	2.39780e-09	4.31712e-02	1.43532e-02	1.21673e-02	4.38651e-03	2.40139e-09	6.00466e-03	X	X	X	X	X	X	X	X	X	X	X	X	X	X	X	X	



#DISTANCE SETTINGS
A = Detector Channel
A-1	A-2	A-3	A-4	A-5	A-6	A-7	A-8	A-9	A-10	A-11	A-12	A-13	A-14	A-15	A-16	

2.5000e+00	3.0000e+00	2.5000e+00	3.0000e+00	2.0000e+00	3.0000e+00	1.5000e+00	3.0000e+00	3.0000e+00	3.0000e+00	3.0000e+00	3.0000e+00	3.0000e+00	3.0000e+00	1.5000e+00	3.0000e+00	

B = Detector Channel
B-1	B-2	B-3	B-4	B-5	B-6	B-7	B-8	B-9	B-10	B-11	B-12	B-13	B-14	B-15	B-16	

1.0000e+01	1.0000e+01	1.0000e+01	1.4400e+00	1.0000e+01	1.0000e+01	1.5100e+00	1.9400e+00	1.0000e+01	1.0000e+01	1.9900e+00	2.4900e+00	2.4100e+00	2.9000e+00	1.0000e+01	2.9800e+00	




#DATA BEGINS
time	group	step	mark	flag	A-AC1	A-AC2	A-AC3	A-AC4	A-AC5	A-AC6	A-AC7	A-AC8	A-AC9	A-AC10	A-AC11	A-AC12	A-AC13	A-AC14	A-AC15	A-AC16	A-DC1	A-DC2	A-DC3	A-DC4	A-DC5	A-DC6	A-DC7	A-DC8	A-DC9	A-DC10	A-DC11	A-DC12	A-DC13	A-DC14	A-DC15	A-DC16	A-Ph1	A-Ph2	A-Ph3	A-Ph4	A-Ph5	A-Ph6	A-Ph7	A-Ph8	A-Ph9	A-Ph10	A-Ph11	A-Ph12	A-Ph13	A-Ph14	A-Ph15	A-Ph16	B-AC1	B-AC2	B-AC3	B-AC4	B-AC5	B-AC6	B-AC7	B-AC8	B-AC9	B-AC10	B-AC11	B-AC12	B-AC13	B-AC14	B-AC15	B-AC16	B-DC1	B-DC2	B-DC3	B-DC4	B-DC5	B-DC6	B-DC7	B-DC8	B-DC9	B-DC10	B-DC11	B-DC12	B-DC13	B-DC14	B-DC15	B-DC16	B-Ph1	B-Ph2	B-Ph3	B-Ph4	B-Ph5	B-Ph6	B-Ph7	B-Ph8	B-Ph9	B-Ph10	B-Ph11	B-Ph12	B-Ph13	B-Ph14	B-Ph15	B-Ph16	aux-1	digaux	

640.104	1	1	0	768	0.030544	0.20475	0.057281	0.11678	0.12444	0.085731	0.077433	0.19206	0.11517	0.25356	0.12157	0.10938	0.26458	0.2484	0.12474	0.18555	-4.525	-4.4979	-5.0021	-4.7646	-4.525	-5.0604	-4.4563	-4.7854	-4.775	-4.4146	-4.9146	-4.7146	-4.6208	-5.1292	-4.4646	-4.8979	180.454	268.692	77.382	301.930	62.641	269.112	244.437	-1.719	170.255	258.034	86.794	-9.984	21.161	107.151	161.226	195.197	0.00034423	3.5539e-05	2.7706e-05	1179.6	1.1498e-06	1.4912e-06	1246.4	258.87	6.7178e-07	1.1089e-06	317.27	89.9	71.844	20.682	1.3976e-06	28.957	1.7596e-05	1.5325e-05	4.2144e-06	989.71	1.858e-07	1.6226e-07	1020.3	201.42	1.7739e-07	1.7041e-07	236.8	68.196	54.785	15.774	1.7871e-07	21.309	69.260	33.299	128.606	-10.037	200.853	86.265	-10.235	-3.058	130.398	152.172	-3.484	3.311	3.404	10.523	121.297	10.048	-8191	255	
640.200	1	1	0	0	0.080377	0.12149	0.044897	0.098188	0.18457	0.21888	0.28605	0.030532	0.080733	0.12365	0.041851	0.2806	0.082756	0.035102	0.069266	0.082374	-4.5333	-4.3896	-4.8896	-4.8146	-4.45	-5.0354	-4.6021	-4.7937	-4.7583	-4.5312	-4.8979	-4.7646	-4.5417	-4.9729	-4.5813	-4.6833	163.324	178.623	279.510	46.010	239.405	154.767	332.033	161.201	198.369	330.197	231.639	-7.294	266.184	306.161	334.951	251.996	0.00024146	2.6912e-05	1.6156e-05	1178.6	6.2705e-07	1.4816e-06	1246.4	257.79	1.0037e-06	9.7524e-07	318.57	90.431	72.269	20.793	9.7823e-07	29.158	1.7074e-05	1.5618e-05	4.6132e-06	991.41	1.7934e-07	1.5557e-07	1021.5	201.33	1.6691e-07	1.6141e-07	237.32	68.225	54.783	15.82	1.9351e-07	21.338	61.718	59.514	108.503	-10.109	105.359	83.026	-10.220	-2.925	91.794	110.059	-3.095	2.940	3.739	10.686	153.833	9.773	-8191	255	
640.296	1	1	0	0	0.09183	0.095078	0.10251	0.032138	0.14811	0.051594	0.21545	0.17629	0.06676	0.060087	0.1429	0.11101	0.04788	0.15707	0.096638	0.24723	-4.7188	-4.4688	-4.9688	-4.9313	-4.6396	-4.9792	-4.5917	-4.6479	-4.9062	-4.4146	-4.9021	-4.7521	-4.5104	-4.9958	-4.6292	-4.6188	221.435	83.746	54.984	13.694	261.936	148.104	260.293	217.439	160.224	313.211	185.954	213.346	284.118	78.011	265.037	255.629	0.00028288	0.00014529	3.9158e-05	1185.4	9.4648e-07	6.3757e-07	1253.1	258.05	9.6144e-07	1.2362e-06	317.93	90.273	72.142	20.677	1.0514e-06	29.166	1.6837e-05	1.5477e-05	4.8751e-06	992.93	1.8166e-07	1.6739e-07	1024.2	201.34	1.6817e-07	1.7391e-07	237.73	68.245	54.726	15.798	2.0361e-07	21.314	69.957	89.809	91.536	-10.245	131.711	73.796	-10.286	-2.899	105.963	77.769	-3.144	3.098	3.703	10.784	134.973	9.767	-8191	255	
640.392	1	1	0	0	0.19928	0.16219	0.028383	0.21393	0.14443	0.24903	0.12683	0.17581	0.032649	0.085028	0.21536	0.189	0.11673	0.15839	0.098235	0.095482	-4.5875	-4.3479	-4.7771	-4.9125	-4.3375	-5.0271	-4.7917	-4.4021	-5.2021	-4.3625	-4.7917	-4.8042	-4.3604	-4.9583	-4.6583	-4.6771	75.713	221.249	192.729	234.963	142.066	-16.853	-3.979	-0.922	8.073	95.974	253.493	268.624	301.871	285.426	283.178	289.526	0.00037735	0.00010925	3.2261e-05	1181	1.2881e-06	7.6214e-07	1250.2	256.65	1.214e-06	1.023e-06	317.46	89.924	72.088	20.814	1.5801e-07	28.987	1.6723e-05	1.6308e-05	5.1305e-06	991.91	1.7575e-07	1.7453e-07	1024.4	200.66	1.681e-07	1.8226e-07	237.06	68.132	54.814	15.784	1.9407e-07	21.26	68.301	52.657	71.729	-10.269	134.335	88.678	-10.207	-3.022	124.521	139.034	-3.540	3.306	4.000	10.094	-17.226	10.078	-8191	255	
640.488	1	1	0	0	0.27855	0.23635	0.13142	0.12853	0.12448	0.14169	0.12042	0.2432	0.063179	0.063896	0.11206	0.38924	0.12094	0.096639	0.10969	0.18294	-4.6312	-4.2708	-4.9083	-4.8917	-4.2771	-5.0229	-4.8125	-4.4208	-5.0479	-4.5312	-4.7271	-4.8896	-4.6021	-4.9521	-4.8083	-4.575	320.134	80.252	45.908	307.784	102.490	21.937	334.230	287.568	224.920	302.379	72.301	280.933	276.896	141.665	249.270	280.389	0.00029454	3.888e-05	3.2784e-05	1182.8	7.6781e-07	6.4673e-07	1252.7	258.39	1.1474e-07	3.5439e-07	318.8	89.494	71.88	20.615	1.5921e-06	29.021	1.6029e-05	1.7377e-05	4.9127e-06	993.25	1.7479e-07	1.9203e-07	1022.8	201.11	1.7189e-07	1.986e-07	237.36	67.927	54.778	15.776	1.8889e-07	21.203	60.696	2.629	68.263	-10.255	92.431	176.163	-10.178	-3.085	95.743	187.045	-3.148	3.182	3.567	10.743	111.285	9.833	-8191	255	
640.584	1	1	0	0	0.12098	0.33618	0.20293	0.06419	0.16963	0.058909	0.13465	0.26622	0.079675	0.26937	0.2212	0.12766	0.079514	0.23812	0.15985	0.054374	-4.6188	-4.6854	-4.6125	-5.2458	-4.3583	-4.9521	-4.9688	-4.525	-4.7854	-4.525	-4.7688	-5.0417	-4.4042	-4.725	-4.6479	-4.4437	187.462	-5.501	243.934	315.577	100.186	91.043	-4.579	-17.355	268.925	199.735	-11.468	95.579	263.323	259.283	34.502	260.147	0.00036839	0.00015524	4.5957e-05	1184.8	1.8869e-06	1.6009e-06	1247.2	256.67	1.1133e-06	3.7719e-07	316.82	90.177	71.555	20.687	1.04e-06	28.955	1.7034e-05	1.8088e-05	4.6366e-06	991.83	1.8293e-07	1.9549e-07	1021.5	200.49	1.7631e-07	2.0471e-07	236.88	68.025	54.65	15.778	1.901e-07	21.16	62.521	75.801	70.144	-10.038	134.587	194.800	-9.930	-3.061	104.456	155.170	-3.384	3.236	3.830	10.480	101.109	9.600	-8191	255	
640.705	1	1	0	0	0.053925	0.21728	0.078353	0.14849	0.15615	0.22244	0.26213	0.13266	0.20212	0.21573	0.13774	0.124	0.17038	0.27905	0.12596	0.090549	-4.5687	-4.65	-4.5271	-5.1208	-4.4313	-4.8375	-5.0583	-4.5062	-4.8458	-4.6854	-4.5896	-5.0646	-4.5312	-4.6854	-4.9146	-4.3833	201.105	-0.846	310.728	40.092	320.435	103.792	322.513	258.577	97.487	216.831	274.264	338.656	228.380	328.368	311.905	177.581	0.00031237	8.0746e-05	4.535e-06	1180.2	1.4657e-06	1.5606e-07	1245.3	257.33	1.8824e-06	3.6916e-07	317.52	89.483	71.82	20.634	1.4789e-06	28.771	1.9016e-05	1.8975e-05	4.8325e-06	990.07	2.0266e-07	2.0674e-07	1019.8	200.39	1.9626e-07	2.0426e-07	237.15	67.656	54.708	15.739	1.7909e-07	21.111	51.349	128.423	279.695	-10.163	140.108	120.102	-9.901	-3.030	147.034	71.091	-3.388	3.114	3.906	10.581	114.786	9.993	-8191	255	
640.801	1	1	0	0	0.21484	0.05618	0.15563	0.18811	0.080386	0.24755	0.24149	0.16306	0.11145	0.09044	0.13942	0.1056	0.11039	0.11767	0.36842	0.028932	-4.5271	-4.5917	-4.6312	-5.2042	-4.4958	-4.7271	-5.1646	-4.5333	-4.8833	-4.6125	-4.5312	-4.9396	-4.5938	-4.6646	-4.9396	-4.4104	90.415	78.363	34.681	285.559	90.240	27.353	298.582	-19.655	199.858	-13.951	40.507	-18.144	68.855	107.112	282.521	280.260	0.00033534	9.5373e-05	2.4326e-05	1179.9	8.4218e-07	3.9219e-08	1243.8	256.38	1.8967e-06	4.3779e-07	316.26	89.6	71.387	20.578	3.2177e-07	28.638	1.9878e-05	1.8213e-05	4.718e-06	990.19	2.112e-07	1.9919e-07	1019.4	200.04	2.0974e-07	1.9152e-07	236.24	67.839	54.571	15.683	1.7595e-07	21.158	52.908	42.062	53.839	-9.789	167.096	297.699	-10.143	-3.294	128.033	124.638	-3.333	3.214	3.788	10.466	139.940	9.946	-8191	255	
640.896	1	1	0	0	0.09647	0.14839	0.01958	0.32578	0.053982	0.048982	0.17825	0.071383	0.050824	0.1448	0.038176	0.22441	0.42716	0.11606	0.072367	0.048727	-4.6875	-4.8625	-4.5208	-5.0521	-4.5604	-4.5979	-5.1354	-4.4167	-4.9083	-4.8729	-4.475	-4.8333	-4.6354	-4.6021	-5.0437	-4.5083	180.808	0.898	6.779	308.687	173.567	322.326	308.488	293.537	146.994	142.988	15.959	290.819	19.443	101.325	283.937	271.386	0.00036711	7.4417e-05	4.5725e-05	1176.3	9.4162e-07	9.6627e-07	1242	256.69	1.0185e-06	7.2842e-07	315.83	89.089	71.474	20.565	3.3682e-07	28.49	2.0745e-05	1.741e-05	4.6973e-06	989.19	2.1811e-07	1.961e-07	1018	200.06	2.1862e-07	1.9107e-07	236.32	67.621	54.39	15.623	1.7675e-07	21.114	62.978	43.362	94.343	-9.969	91.453	86.143	-10.079	-3.152	192.166	65.037	-3.361	3.681	3.502	10.451	62.151	10.134	-8191	255	
640.993	1	1	0	0	0.084114	0.15617	0.14962	0.1472	0.098153	0.058074	0.17893	0.13648	0.15475	0.061183	0.16201	0.14777	0.15487	0.12791	0.21783	0.17444	-4.3646	-4.8917	-4.3	-5.0458	-4.7438	-4.5437	-5.1875	-4.5938	-4.6667	-5.0312	-4.3604	-4.9896	-4.7854	-4.5125	-5.0938	-4.6937	35.719	320.388	46.997	-20.162	211.195	107.181	286.640	181.118	75.252	274.061	252.335	214.537	169.247	8.164	326.416	25.099	0.00028002	0.00015828	5.4209e-05	1173.9	7.3208e-07	3.8493e-07	1234.7	255.72	1.2627e-06	1.0558e-06	315.86	88.83	71.272	20.725	4.5888e-07	28.789	2.0717e-05	1.708e-05	4.5729e-06	987.42	2.1044e-07	1.9337e-07	1014.4	199.71	2.0986e-07	1.8513e-07	235.66	67.503	54.286	15.651	1.7637e-07	21.137	44.308	58.775	114.806	-10.151	27.934	317.612	-10.051	-3.121	108.995	110.609	-3.433	3.454	3.864	11.092	68.591	10.125	-8191	255	
641.088	1	1	0	0	0.10664	0.28874	0.17857	0.10154	0.12179	0.07417	0.18471	0.28469	0.021942	0.095519	0.18124	0.028819	0.38936	0.11995	0.1664	0.15886	-4.3354	-4.9875	-4.5146	-4.8583	-4.8375	-4.5354	-5.0938	-4.6896	-4.6771	-5.0917	-4.5667	-4.8125	-4.8562	-4.4167	-5.0271	-4.5312	76.516	119.450	177.038	-14.770	4.107	36.119	265.922	285.474	135.459	108.918	-0.619	269.895	42.759	-5.187	106.565	191.986	0.00025021	7.0148e-05	1.3323e-05	1174.1	1.6818e-06	9.6406e-07	1234	256.25	1.0029e-06	4.4783e-07	315.88	89.042	71.083	20.487	2.3264e-07	28.594	1.9369e-05	1.5943e-05	4.6559e-06	984.71	1.9288e-07	1.7808e-07	1011.4	199.33	1.9756e-07	1.7252e-07	235.69	67.596	54.157	15.578	1.9256e-07	21.029	76.170	8.987	230.041	-9.992	252.099	125.303	-10.114	-3.172	65.226	250.856	-3.257	3.191	3.991	10.488	179.107	9.954	-8191	255	
641.184	1	1	0	0	0.14129	0.054061	0.12154	0.15474	0.10681	0.062763	0.23586	0.14215	0.20324	0.15136	0.1153	0.071496	0.062219	0.12	0.1772	0.11361	-4.1646	-4.9729	-4.4437	-4.9688	-4.7833	-4.4354	-5.1271	-4.7146	-4.4583	-5.1	-4.4458	-4.775	-4.9958	-4.5271	-4.8771	-4.7729	210.231	242.791	19.798	328.222	45.959	58.619	240.667	-13.533	87.927	55.270	324.726	71.028	-18.778	142.185	67.768	334.599	0.00030224	0.00014712	2.857e-05	1171.4	6.8937e-07	5.4157e-07	1235.8	254.85	4.8272e-07	2.1386e-07	314.54	88.821	70.787	20.368	1.1623e-06	28.29	1.9457e-05	1.6656e-05	5.2379e-06	983.29	2.0235e-07	1.9342e-07	1010.8	198.34	2.1065e-07	1.8897e-07	235.3	67.374	54.034	15.483	2.1898e-07	20.885	52.076	49.233	99.323	-9.847	218.129	126.770	-9.845	-2.918	76.488	192.126	-3.231	3.418	3.833	10.931	122.990	10.032	-8191	255	
641.305	1	1	0	0	0.15994	0.22339	0.25166	0.054647	0.12983	0.050317	0.17533	0.22215	0.029673	0.1056	0.11955	0.12669	0.097103	0.12583	0.087017	0.25995	-4.2271	-5.1229	-4.5437	-4.8063	-4.7937	-4.4958	-5.1333	-4.8063	-4.5104	-5.0813	-4.7271	-4.6896	-5.0208	-4.5729	-4.9375	-4.8979	180.282	337.961	96.474	93.020	226.135	318.254	279.915	338.819	242.904	108.889	77.655	193.860	319.682	146.454	247.769	310.871	0.00025508	0.00017996	3.0273e-05	1165.8	1.396e-06	1.3675e-06	1232.7	253.67	1.1937e-06	1.3617e-06	313.69	88.749	70.629	20.275	8.9915e-07	28.32	1.9979e-05	1.7077e-05	5.7899e-06	981.4	1.9586e-07	1.9502e-07	1008.9	197.88	1.9804e-07	1.8554e-07	235.47	67.221	53.886	15.508	2.233e-07	20.885	46.604	59.265	85.867	-10.112	57.497	79.723	-9.918	-3.186	123.942	171.897	-3.183	3.398	3.771	10.739	32.440	9.861	-8191	255	
641.401	1	1	0	0	0.13303	0.064456	0.12767	0.19477	0.066098	0.065879	0.22376	0.063153	0.15335	0.015483	0.18801	0.035284	0.090677	0.40538	0.042516	0.057387	-4.0958	-4.9271	-4.5292	-4.65	-4.9667	-4.5833	-4.9375	-4.7812	-4.3792	-5.0271	-4.7896	-4.6062	-5.1146	-4.4625	-4.8063	-4.7708	-5.538	308.383	145.479	283.893	264.985	261.996	323.170	40.813	12.198	193.856	27.758	212.252	335.792	67.954	328.384	98.748	0.00031875	0.00012874	3.3902e-05	1167.7	5.2567e-07	9.0375e-07	1230.4	252.99	1.5061e-06	8.0241e-07	313.26	89.126	70.65	20.396	1.0552e-07	28.409	1.895e-05	1.7434e-05	5.6958e-06	980.84	1.9059e-07	1.9799e-07	1010.5	197.93	1.9244e-07	1.9925e-07	234.8	67.23	53.827	15.48	2.2309e-07	20.875	41.856	78.827	66.114	-10.174	159.617	134.001	-9.884	-2.869	112.826	246.836	-3.443	3.162	3.873	10.839	153.470	9.725	-8191	255	
641.497	1	1	0	0	0.10031	0.1502	0.027773	0.36345	0.093956	0.044941	0.20396	0.12952	0.16842	0.23432	0.16049	0.12438	0.099005	0.087387	0.041445	0.038432	-4.0563	-4.9625	-4.6208	-4.6229	-5.1021	-4.5417	-4.7438	-4.8438	-4.5208	-4.7583	-4.8271	-4.425	-5.1271	-4.5667	-4.6958	-4.9875	31.871	328.263	280.133	-16.612	312.683	312.798	283.523	31.831	199.889	103.401	324.247	273.800	144.568	171.437	258.587	276.669	0.0002645	0.00011494	3.9091e-05	1170.7	2.1743e-07	1.1221e-06	1228.1	253.25	1.1433e-06	7.6103e-07	313.62	88.711	70.777	20.376	1.4568e-06	28.421	1.8804e-05	1.8796e-05	5.4562e-06	980.47	1.869e-07	2.1143e-07	1008	197.65	1.9193e-07	2.071e-07	234.73	67.206	53.974	15.557	2.0413e-07	20.853	72.570	90.077	71.295	-9.951	146.861	59.109	-10.076	-3.313	177.781	279.676	-3.123	3.382	3.484	10.849	94.904	9.743	-8191	255	
641.593	1	1	0	0	0.10929	0.17649	0.20538	0.040257	0.12344	0.21434	0.24595	0.15441	0.1602	0.12243	0.15161	0.17173	0.13748	0.14999	0.10001	0.06841	-4.1021	-4.9458	-4.7875	-4.5896	-5.0333	-4.4938	-4.8104	-4.9417	-4.3729	-5.0083	-5	-4.4979	-4.9958	-4.6438	-4.5938	-5.2063	198.497	192.121	291.694	12.476	141.389	6.713	220.384	159.870	265.711	168.316	83.296	332.073	323.158	295.254	267.763	-13.536	0.00038905	4.0455e-05	4.192e-05	1172.3	2.1533e-06	1.1339e-06	1236.7	253.73	1.4019e-06	1.289e-06	314.04	88.597	71.324	20.371	9.8845e-07	28.329	1.8583e-05	1.9291e-05	5.1232e-06	982.67	1.9043e-07	2.1737e-07	1009.8	198.03	1.9868e-07	2.2071e-07	234.81	67.189	54.064	15.532	2.0267e-07	20.804	63.859	149.968	76.828	-9.881	174.754	116.353	-9.953	-3.191	127.332	145.671	-2.879	3.399	3.744	10.569	134.684	10.045	-8191	255	
641.689	1	1	0	0	0.13281	0.14789	0.052193	0.30747	0.14682	0.15491	0.035386	0.11355	0.102	0.11936	0.15491	0.03582	0.33404	0.20163	0.035602	0.22788	-4.0042	-4.9271	-4.7042	-4.5729	-4.9187	-4.55	-4.5854	-4.9604	-4.5	-4.7396	-4.9313	-4.4812	-5	-4.7417	-4.4313	-5.1646	255.185	296.635	161.865	335.786	164.036	333.053	227.840	303.668	145.494	184.487	296.557	234.057	260.311	124.943	170.465	-6.573	0.00028656	9.0229e-05	1.8895e-05	1168.1	1.2305e-06	1.4112e-06	1231.3	254.35	1.26e-06	8.8204e-07	315.04	89.224	70.889	20.387	7.4115e-07	28.464	1.9615e-05	2.0287e-05	4.9424e-06	980.44	2.038e-07	2.1898e-07	1008.1	197.92	2.0573e-07	2.1385e-07	234.96	67.267	54.095	15.558	1.9416e-07	20.86	69.348	24.725	140.579	-9.983	166.618	131.106	-9.939	-3.296	135.686	143.282	-3.269	3.322	3.771	10.609	60.351	9.852	-8191	255	
641.785	1	1	0	0	0.11657	0.09297	0.18665	0.1561	0.058399	0.15211	0.20251	0.22997	0.13245	0.09417	0.14459	0.12478	0.27194	0.12962	0.29776	0.10226	-4.2167	-4.7667	-4.8875	-4.5375	-5.0646	-4.7562	-4.4812	-5.0354	-4.5021	-4.7333	-5.0521	-4.5646	-4.8979	-4.8229	-4.3979	-5.0542	190.333	-18.047	217.244	8.337	71.028	295.450	304.862	196.930	102.620	168.765	-18.148	224.806	255.351	256.465	303.829	254.802	0.0002861	3.5171e-05	1.4144e-05	1169.9	7.6921e-07	1.4981e-06	1231.9	254.51	9.3114e-07	6.3617e-07	313.67	89.162	70.494	20.281	8.9266e-07	28.442	2.0423e-05	1.8531e-05	4.6397e-06	981.42	2.0943e-07	1.9826e-07	1007.7	197.97	2.1262e-07	1.9912e-07	234.43	67.231	53.96	15.516	1.9181e-07	20.921	57.082	322.515	116.440	-9.939	124.247	31.325	-10.094	-3.067	141.552	114.137	-3.218	3.640	3.428	10.726	49.843	10.063	-8191	255	
641.881	1	1	0	0	0.15179	0.098758	0.14214	0.17863	0.09679	0.28543	0.069321	0.068162	0.174	0.14223	0.12564	0.14605	0.21298	0.11335	0.15879	0.020675	-4.1687	-4.7104	-4.8292	-4.6125	-4.7812	-4.7542	-4.4437	-5.0354	-4.575	-4.6208	-5.0354	-4.5604	-4.9042	-4.875	-4.5188	-4.9917	142.143	132.828	-1.213	311.619	191.848	86.512	68.909	-14.391	236.955	176.300	1.583	290.093	227.249	208.894	276.999	226.522	0.00035047	8.1303e-05	2.5043e-05	1169	8.304e-07	9.3302e-07	1228.3	253.99	5.9832e-07	8.5625e-07	314.41	88.457	70.933	20.38	5.6291e-07	28.306	2.1064e-05	1.8199e-05	4.7483e-06	982.26	2.3143e-07	1.9769e-07	1007.4	197.86	2.3091e-07	2.0457e-07	234.91	67.226	54.213	15.523	1.9338e-07	20.936	77.210	32.242	76.113	-10.175	165.337	126.351	-10.139	-3.116	208.243	68.647	-3.339	3.405	3.758	10.631	130.154	9.972	-8191	255	
641.976	1	1	0	0	0.24862	0.04082	0.063885	0.16366	0.083532	0.096358	0.29452	0.11761	0.040037	0.14626	0.084657	0.051285	0.17829	0.15934	0.050992	0.031141	-4.3979	-4.7042	-5.0854	-4.6979	-4.8396	-4.9854	-4.5771	-5.0146	-4.7333	-4.6646	-5.0188	-4.5917	-4.7771	-5.0083	-4.4437	-5.0104	116.227	4.388	56.018	262.394	169.772	147.342	232.202	209.166	302.663	272.194	102.095	329.819	262.635	305.395	136.866	58.880	0.00027877	0.00021154	1.8457e-05	1166.8	4.7538e-07	8.7204e-07	1230.6	253.23	1.67e-06	6.8535e-07	314.13	88.45	70.576	20.398	4.3967e-07	28.314	2.1945e-05	1.9207e-05	4.9017e-06	982.61	2.3765e-07	2.0411e-07	1008.3	198.01	2.3026e-07	2.1449e-07	234.73	67.306	54.094	15.526	2.0499e-07	20.951	59.988	73.026	52.720	-10.048	158.208	28.141	-10.202	-2.950	101.451	234.411	-3.159	3.402	3.710	10.692	59.431	10.145	-8191	255	
642.074	1	1	0	0	0.25064	0.22371	0.088769	0.28613	0.060503	0.097055	0.21495	0.15087	0.099914	0.21155	0.3298	0.17098	0.18425	0.18495	0.2703	0.2014	-4.3729	-4.4542	-4.8875	-4.6479	-4.6896	-5.0687	-4.5479	-4.7542	-4.7979	-4.5208	-5.1292	-4.6729	-4.6854	-5.0729	-4.6542	-5.0667	37.194	138.066	-5.309	245.866	190.727	45.729	238.142	311.816	237.549	38.403	199.577	-16.128	160.365	224.749	33.815	277.710	0.00029659	5.9122e-05	1.1678e-05	1168	1.5338e-06	4.9765e-07	1228.8	253.74	1.4069e-06	9.6666e-07	316.03	88.792	70.672	20.378	9.7443e-07	28.373	2.1554e-05	1.9087e-05	5.0231e-06	982.45	2.2503e-07	1.9927e-07	1008.6	198.49	2.1932e-07	2.0851e-07	235.21	67.418	54.078	15.488	2.1208e-07	20.933	56.263	22.924	190.037	-10.006	108.552	46.972	-10.132	-2.948	86.223	106.547	-3.417	3.371	3.854	10.646	147.075	10.088	-8191	255	
642.193	1	1	0	0	0.076722	0.11146	0.11076	0.25174	0.14868	0.18149	0.26658	0.20152	0.079464	0.11706	0.26851	0.0088664	0.053046	0.12457	0.097034	0.19804	-4.5708	-4.45	-5.125	-4.7375	-4.7042	-5.1271	-4.5708	-4.9042	-4.9604	-4.4354	-4.9792	-4.7604	-4.6312	-5.1021	-4.5917	-4.7125	129.375	66.987	19.491	337.666	275.098	330.036	308.755	338.925	167.528	268.997	-8.396	168.963	235.519	316.105	157.005	65.339	0.00028935	7.7357e-05	2.5829e-05	1168.2	1.4108e-06	4.2669e-07	1226	252.93	1.2065e-06	1.2476e-06	314.28	89.115	71.1	20.229	9.8891e-07	28.319	2.0137e-05	1.8471e-05	5.3113e-06	982.09	2.1257e-07	1.8745e-07	1008.2	198.4	2.0634e-07	1.9493e-07	235.41	67.497	54.077	15.45	2.2799e-07	20.937	51.598	65.369	101.708	-9.804	191.859	66.721	-10.075	-3.080	92.219	144.314	-3.537	3.149	3.964	10.484	108.754	10.176	-8191	255	
642.264	1	1	0	0	0.082972	0.13233	0.28049	0.10694	0.028255	0.11912	0.10377	0.22937	0.081543	0.085037	0.10448	0.19844	0.12501	0.12269	0.11045	0.091104	-4.5417	-4.4417	-4.8708	-4.9062	-4.3917	-4.9625	-4.6312	-4.6917	-4.9021	-4.4771	-4.9083	-4.8562	-4.5687	-5.0604	-4.5875	-4.6708	225.095	194.012	216.512	136.457	-5.702	119.469	317.285	296.084	187.622	332.932	261.143	6.074	103.353	272.027	278.822	303.709	0.00028465	0.00014073	1.3916e-05	1167.3	2.2196e-06	6.3035e-07	1230.4	252.71	1.4763e-06	4.9432e-07	314.42	88.629	70.976	20.301	9.5654e-07	28.226	2.0592e-05	1.8825e-05	5.9461e-06	982.4	2.2784e-07	2.0643e-07	1009.4	198.26	2.2026e-07	2.1898e-07	236.17	67.396	54.129	15.484	2.5219e-07	20.926	60.695	83.517	114.644	-9.959	144.657	166.752	-10.058	-3.088	168.511	152.982	-3.399	3.255	3.474	10.499	142.627	10.007	-8191	255	
642.385	1	1	0	0	0.072509	0.10383	0.045906	0.029616	0.16268	0.14951	0.19214	0.25351	0.15397	0.070442	0.11262	0.11436	0.1895	0.10452	0.069485	0.030277	-4.7458	-4.2854	-5.0083	-4.9625	-4.4979	-5.1104	-4.7417	-4.8313	-4.9688	-4.6687	-5.0188	-5.0167	-4.6292	-4.9042	-4.7083	-4.675	274.568	165.785	192.099	156.838	225.128	99.798	222.642	309.850	185.892	85.738	99.600	288.817	146.533	302.939	284.954	21.309	0.00023921	0.00010625	4.5578e-05	1174.8	1.0887e-06	1.3684e-06	1227.8	254.21	6.1073e-07	5.4798e-07	314.09	88.335	70.823	20.427	9.3597e-07	28.395	2.0151e-05	2.0079e-05	6.0971e-06	984.8	2.1468e-07	2.0729e-07	1010.3	198.26	2.0027e-07	2.2029e-07	235.52	67.196	54.045	15.499	2.3726e-07	20.932	59.099	117.721	94.974	-9.959	202.863	114.149	-9.881	-2.904	146.916	234.194	-3.273	3.493	3.957	10.838	79.992	9.966	-8191	255	
642.481	1	1	0	0	0.14042	0.31279	0.18128	0.14252	0.12476	0.22986	0.1136	0.13776	0.13154	0.06402	0.1731	0.11634	0.071623	0.20162	0.20846	0.15598	-4.7708	-4.3375	-4.7375	-4.9	-4.5667	-4.8333	-4.7833	-4.5542	-4.9458	-4.5833	-4.7979	-4.9062	-4.4125	-5.0188	-4.8688	-4.5229	132.655	73.601	321.919	230.250	219.194	271.000	320.357	192.643	323.020	328.996	95.455	245.110	217.746	319.634	37.716	196.610	0.00027748	0.00010334	6.1584e-05	1169.2	1.3304e-06	1.8349e-07	1231.4	254.5	7.9098e-07	9.0632e-07	314.72	88.137	70.749	20.261	1.304e-06	28.414	1.9375e-05	2.0559e-05	6.0463e-06	983.39	2.1387e-07	2.3017e-07	1011.1	198.41	2.1089e-07	2.433e-07	235.96	67.33	54.073	15.529	2.4672e-07	20.958	46.413	35.608	66.257	-10.131	140.803	180.849	-10.055	-3.009	215.469	154.971	-3.382	3.421	3.941	10.570	115.381	9.647	-8191	255	
642.577	1	1	0	0	0.081088	0.09866	0.12726	0.10256	0.18678	0.28288	0.3247	0.17362	0.10487	0.078104	0.16497	0.11481	0.27085	0.33148	0.18911	0.14488	-4.5458	-4.4021	-4.7063	-4.9167	-4.2104	-4.9146	-4.8833	-4.375	-5.1625	-4.6896	-4.7375	-4.9833	-4.6438	-4.725	-4.8229	-4.55	83.328	18.022	105.599	46.902	158.557	276.415	-20.332	304.006	34.122	160.099	220.230	131.466	-14.261	55.647	112.759	284.173	0.00032754	1.1211e-05	7.0829e-05	1169.9	9.2507e-07	4.2861e-07	1235.7	254.44	1.5381e-06	6.3452e-07	316.26	89.014	71.204	20.292	5.0544e-07	28.306	2.1525e-05	2.3564e-05	6.3638e-06	984.7	2.3455e-07	2.6454e-07	1012.9	198.65	2.3041e-07	2.6931e-07	236.48	67.289	54.325	15.6	2.4885e-07	20.905	65.917	204.508	37.054	-10.104	125.639	224.569	-10.121	-2.981	164.255	53.428	-3.191	3.681	3.970	10.742	10.262	9.921	-8191	255	
642.673	1	1	0	0	0.18833	0.16136	0.061475	0.017675	0.14432	0.20214	0.1348	0.073337	0.25201	0.10789	0.16753	0.089705	0.13498	0.12807	0.32499	0.1836	-4.65	-4.6188	-4.475	-5.0417	-4.4083	-4.6021	-4.7083	-4.4688	-5.1104	-4.6667	-4.6417	-5.0271	-4.5083	-5.0396	-5.0083	-4.5458	257.077	214.736	312.090	314.207	25.078	95.824	283.447	337.081	265.612	272.527	310.465	324.278	248.866	125.345	272.037	328.647	0.00027464	0.0001354	2.3331e-05	1172.6	1.7967e-06	1.3242e-06	1233.3	254.18	1.5991e-06	4.9046e-07	315.09	89.154	71.014	20.278	6.3583e-07	28.446	2.3686e-05	2.4994e-05	6.4182e-06	987.08	2.5929e-07	2.7518e-07	1014.2	199.12	2.6299e-07	2.7964e-07	236.35	67.628	54.454	15.613	2.4683e-07	20.996	61.636	26.708	63.217	-10.028	174.446	100.926	-10.002	-2.886	149.300	252.233	-3.277	3.426	3.873	10.552	93.046	9.967	-8191	255	
642.794	1	1	0	0	0.20678	0.066008	0.37558	0.058355	0.093785	0.18231	0.14318	0.17771	0.15949	0.080682	0.099898	0.16783	0.19576	0.1766	0.13634	0.11259	-4.8083	-4.8083	-4.5542	-5.1729	-4.5625	-4.8063	-5.0729	-4.6813	-4.9437	-4.8271	-4.5125	-5.0104	-4.6021	-4.6417	-4.8479	-4.4187	336.974	249.535	6.428	271.810	87.283	192.901	301.841	321.118	32.020	259.475	-12.319	301.876	285.509	156.047	167.594	113.549	0.00031011	7.9119e-05	2.0776e-05	1172.2	1.0082e-06	5.2085e-07	1234.9	254.27	8.4979e-07	6.7892e-07	316.97	88.786	71.423	20.241	8.193e-07	28.368	2.561e-05	2.482e-05	6.3605e-06	989.05	2.7614e-07	2.7046e-07	1016.6	199.2	2.7634e-07	2.5896e-07	237.01	67.529	54.572	15.587	2.3034e-07	21.025	61.106	61.372	7.661	-10.001	172.907	93.407	-9.899	-2.812	124.679	-9.293	-3.571	3.440	3.474	10.786	49.834	9.888	-8191	255	
642.888	1	1	0	0	0.093259	0.10049	0.047515	0.34063	0.29076	0.11639	0.31556	0.118	0.32023	0.12538	0.13745	0.13647	0.14243	0.13256	0.1294	0.1179	-4.6021	-4.8729	-4.3729	-4.9875	-4.7229	-4.5563	-5.1667	-4.5938	-4.8187	-4.8375	-4.4771	-4.9979	-4.6896	-4.4812	-4.7854	-4.5354	334.389	319.822	109.640	-11.660	153.826	192.673	326.557	209.114	8.296	132.398	148.269	-19.802	38.151	262.384	77.756	201.934	0.00029746	0.00017133	1.234e-05	1181.4	1.4571e-06	7.0234e-07	1238	254.72	2.1458e-06	1.3575e-06	315.34	89.537	71.21	20.451	8.4009e-07	28.444	2.6968e-05	2.3367e-05	6.2337e-06	992.12	2.8444e-07	2.5795e-07	1017.6	199.7	2.8151e-07	2.4594e-07	236.87	67.852	54.602	15.596	2.3551e-07	21.062	47.665	16.441	56.548	-10.067	157.624	45.526	-9.923	-3.015	87.869	118.324	-3.353	3.772	3.662	10.565	87.570	9.978	-8191	255	
642.962	1	1	0	0	0.004239	0.16375	0.037287	0.088842	0.20695	0.1799	0.042213	0.18458	0.25782	0.2275	0.063038	0.16303	0.22041	0.091048	0.11544	0.10991	-4.4833	-4.9854	-4.4021	-5.0979	-4.6813	-4.475	-5.2292	-4.6521	-4.7729	-4.9708	-4.6854	-4.9958	-4.6562	-4.6167	-5.1375	-4.4604	-10.632	195.218	148.118	241.964	81.183	39.405	59.337	130.452	-0.834	145.078	183.286	-13.652	196.707	-6.103	276.890	-6.576	0.00040002	0.00011716	2.2875e-05	1182	6.5126e-07	1.0206e-07	1243.7	255.08	1.2814e-06	9.4315e-07	314.65	89.393	70.923	20.382	1.1496e-06	28.658	2.7531e-05	2.2978e-05	6.2788e-06	994.46	2.8677e-07	2.6052e-07	1020	200.21	2.8451e-07	2.5074e-07	236.66	67.966	54.511	15.638	2.3739e-07	21.164	67.963	75.103	133.720	-10.003	95.062	34.301	-10.010	-2.966	53.466	88.043	-3.462	3.076	3.625	10.780	160.345	9.842	-8191	255	
643.081	1	1	0	0	0.11674	0.15831	0.22963	0.19269	0.26168	0.11254	0.18784	0.22805	0.086126	0.17503	0.16969	0.056169	0.20676	0.13834	0.13663	0.19662	-4.3771	-4.9	-4.475	-5.1062	-4.8125	-4.3854	-5.0292	-4.6646	-4.6937	-4.9938	-4.4917	-4.8458	-4.8354	-4.4812	-4.8812	-4.7854	315.184	294.582	210.853	217.950	32.546	175.407	17.796	249.555	232.648	225.090	52.271	308.169	329.188	207.767	103.970	101.420	0.00028262	0.00011429	2.762e-05	1180.3	1.0205e-06	1.039e-06	1237.4	256.28	1.488e-06	7.3434e-07	316.8	89.753	71.286	20.374	8.9912e-07	28.677	2.6803e-05	2.2765e-05	6.2983e-06	996.43	2.7636e-07	2.5505e-07	1020.8	200.56	2.7589e-07	2.3909e-07	237.3	68.174	54.657	15.613	2.4539e-07	21.2	63.625	-7.158	89.151	-10.007	214.724	190.296	-10.068	-3.340	132.341	164.596	-3.343	3.260	3.260	10.038	99.714	9.530	-8191	255	
643.177	1	1	0	0	0.22761	0.1854	0.024006	0.11421	0.12337	0.047649	0.10205	0.076743	0.10959	0.10124	0.040619	0.12737	0.25823	0.22219	0.29112	0.12885	-4.3833	-4.9958	-4.4271	-4.9688	-4.9104	-4.2958	-5.0729	-4.6312	-4.5938	-4.9229	-4.5083	-4.6646	-4.8875	-4.5354	-4.9083	-4.8292	92.523	43.866	116.364	10.929	205.319	186.285	26.440	199.999	337.479	183.587	127.985	319.753	7.972	316.204	287.979	199.750	0.00025917	5.1983e-05	1.8585e-05	1180.9	1.9336e-06	7.9751e-07	1244	255.98	1.2957e-06	7.1204e-07	317.43	89.319	71.104	20.332	1.2786e-06	28.338	2.4192e-05	2.0804e-05	6.3001e-06	995.58	2.4062e-07	2.278e-07	1021.6	200.32	2.4433e-07	2.1531e-07	237.68	67.995	54.46	15.593	2.3916e-07	21.034	62.405	7.622	-17.517	-10.099	154.024	154.464	-10.276	-2.958	139.588	195.283	-3.293	3.383	3.775	10.800	101.467	9.966	-8191	255	
643.273	1	1	0	0	0.084665	0.1733	0.02955	0.086919	0.22556	0.060141	0.25523	0.28575	0.11529	0.094782	0.072063	0.11658	0.091956	0.1369	0.20256	0.2172	-4.2479	-4.8604	-4.4646	-4.925	-4.8167	-4.4958	-5.0563	-4.9521	-4.4917	-4.8604	-4.7042	-4.6604	-5.0833	-4.4542	-4.9083	-4.7229	66.334	21.902	194.806	205.640	267.279	136.518	274.440	318.995	96.543	221.551	157.043	265.655	319.617	282.213	186.377	39.915	0.00036407	0.00010081	6.5535e-05	1183	3.5741e-07	3.4373e-07	1245.6	255.53	1.0385e-07	4.1728e-07	317.75	89.252	71.656	20.495	5.3787e-07	28.653	2.2282e-05	1.8995e-05	6.2786e-06	995.05	2.2477e-07	2.1996e-07	1021.4	199.85	2.3577e-07	2.1417e-07	238.21	68.045	54.597	15.649	2.6149e-07	21.077	50.093	-2.239	51.644	-10.038	103.079	32.376	-10.055	-2.992	273.647	170.587	-3.599	3.265	3.291	10.640	186.741	10.066	-8191	255	
643.369	1	1	0	0	0.17627	0.1643	0.28599	0.37514	0.24519	0.08716	0.1804	0.22867	0.13243	0.13853	0.21184	0.25176	0.060237	0.21446	0.37925	0.15308	-4.1375	-5.0521	-4.4458	-4.7875	-4.9583	-4.4604	-4.9479	-4.9062	-4.4146	-5.0417	-4.7979	-4.6604	-5.15	-4.3604	-4.65	-4.8479	97.522	217.935	241.611	251.284	263.273	259.578	314.771	184.415	299.615	224.721	8.288	75.809	-3.183	280.814	302.599	86.512	0.00033077	0.00013732	5.6036e-05	1183.5	1.1813e-06	7.6443e-07	1242.8	256.06	8.5318e-07	1.2199e-06	317.72	89.355	71.729	20.262	1.5782e-06	28.399	2.2705e-05	2.0604e-05	6.7973e-06	997.11	2.2874e-07	2.3421e-07	1021.9	200.12	2.1526e-07	2.099e-07	237.94	67.882	54.41	15.557	2.2544e-07	20.912	54.643	72.795	94.859	-10.128	145.880	110.303	-10.158	-2.881	65.209	140.906	-3.373	3.627	3.880	10.644	93.479	10.005	-8191	255	
643.490	1	1	0	0	0.08206	0.027744	0.064908	0.2146	0.095305	0.13654	0.1888	0.10203	0.16533	0.14258	0.23315	0.094757	0.12703	0.088208	0.27528	0.087975	-4.1813	-4.8521	-4.5083	-4.6646	-5.0104	-4.4917	-4.7	-4.9521	-4.4917	-5.0021	-4.5583	-4.5083	-4.9833	-4.5917	-4.8812	-4.9896	265.906	0.519	242.824	326.470	94.337	122.133	314.836	195.050	16.362	316.191	287.277	301.334	253.050	334.274	250.081	230.366	0.00035897	0.0001498	2.2236e-05	1179.9	1.8074e-06	1.4113e-06	1242.4	254.49	4.4609e-07	3.7848e-07	316.71	88.737	71.203	20.291	7.4522e-07	28.51	1.8808e-05	1.8951e-05	5.7493e-06	990.66	2.0119e-07	2.2896e-07	1018.8	199.2	2.194e-07	2.4098e-07	237.21	67.64	54.369	15.652	2.5158e-07	20.951	56.228	58.866	38.969	-10.194	154.512	117.309	-10.138	-3.117	122.444	137.872	-3.364	3.474	4.112	10.403	63.190	9.904	-8191	255	
643.561	1	1	0	0	0.16234	0.15159	0.043132	0.29343	0.059006	0.21349	0.11986	0.081336	0.08184	0.17401	0.062847	0.15653	0.071899	0.2292	0.073538	0.13491	-4.2562	-4.9833	-4.8229	-4.4292	-5.0687	-4.4896	-4.7333	-4.9313	-4.3146	-4.8146	-4.6208	-4.3854	-5.0542	-4.65	-4.6646	-4.9958	11.439	281.927	178.662	-14.437	52.272	233.078	70.151	138.221	25.299	196.109	130.351	225.607	266.150	121.548	281.476	208.208	0.00041399	6.0772e-05	2.7831e-05	1177.9	3.2813e-07	9.3895e-07	1242.8	255.15	9.3071e-07	5.9298e-07	318.02	89.049	71.252	20.424	7.2933e-07	28.608	2.1579e-05	2.2632e-05	6.0345e-06	993.38	2.1211e-07	2.4449e-07	1020	199.34	2.2294e-07	2.4772e-07	237.16	67.714	54.533	15.681	2.3164e-07	20.978	65.828	66.889	65.979	-10.017	218.879	135.271	-10.020	-3.057	121.942	83.880	-2.923	3.424	3.467	10.325	125.419	9.790	-8191	255	
643.658	1	1	0	0	0.18501	0.091775	0.21563	0.29072	0.041626	0.24117	0.14983	0.066047	0.22324	0.11789	0.31187	0.26764	0.19506	0.19662	0.24914	0.17395	-4.1625	-4.7375	-4.6896	-4.3458	-5.0958	-4.6021	-4.6604	-5.2375	-4.5396	-4.7479	-5.0083	-4.5896	-4.8896	-4.6417	-4.5958	-5.1125	45.096	103.970	284.256	327.407	33.627	302.958	266.915	294.456	249.304	277.081	253.210	248.628	311.160	183.304	291.331	15.484	0.00025583	0.00010747	2.3296e-05	1183.4	1.1113e-06	2.0545e-06	1246.2	256.54	8.9919e-07	4.4859e-07	316.48	89.507	71.472	20.547	8.4666e-08	28.779	2.1262e-05	2.2227e-05	5.5255e-06	994.13	2.1885e-07	2.3951e-07	1019.7	199.52	2.2282e-07	2.3756e-07	236.96	67.843	54.568	15.727	2.1095e-07	21.051	50.949	80.604	0.291	-10.129	173.360	78.110	-9.881	-3.086	123.974	162.378	-3.188	3.262	3.757	10.557	117.497	9.596	-8191	255	
643.754	1	1	0	0	0.29983	0.086841	0.11746	0.016726	0.07642	0.14008	0.21489	0.25312	0.31107	0.17492	0.23215	0.12262	0.20467	0.31844	0.051431	0.19527	-4.1854	-4.7	-5.0125	-4.4958	-4.8938	-4.7188	-4.4563	-4.9917	-4.5979	-4.7063	-5.0708	-4.4917	-5.0188	-4.8958	-4.5521	-5.0625	278.874	176.119	103.179	265.766	92.371	252.457	229.703	200.600	268.863	140.829	278.096	22.559	251.694	321.075	272.369	329.500	0.00033967	0.00015128	3.935e-05	1181.3	4.9146e-07	1.3308e-06	1239.1	255.18	3.4252e-07	4.6406e-07	316.05	89.268	71.577	20.537	8.2156e-07	28.7	2.2234e-05	2.0568e-05	5.0515e-06	992.12	2.2137e-07	2.131e-07	1017.5	198.79	2.2276e-07	2.147e-07	236.55	67.74	54.634	15.67	1.9368e-07	21.029	45.416	-0.847	89.256	-10.128	140.394	91.607	-10.050	-3.067	80.564	68.203	-3.160	3.145	3.752	10.378	92.698	9.748	-8191	255	
643.873	1	1	0	0	0.18999	0.19342	0.24931	0.14546	0.059478	0.04895	0.18361	0.11516	0.1255	0.15791	0.1452	0.10921	0.15535	0.25392	0.13791	0.17673	-4.3896	-4.6583	-5.1188	-4.3812	-4.7771	-4.8917	-4.4437	-5.1229	-4.5896	-4.5854	-5.1667	-4.5	-4.8438	-4.7937	-4.4833	-4.975	54.552	267.029	242.807	54.724	230.338	338.826	303.046	251.175	326.551	251.930	257.395	170.368	320.589	253.206	303.641	42.135	0.00030362	0.00013137	4.9085e-05	1181.1	1.0545e-06	1.6251e-06	1236	254.45	1.2906e-06	6.0216e-07	313.78	89.787	71.869	20.577	2.9708e-07	28.435	2.1304e-05	1.8809e-05	4.7853e-06	990.94	2.2562e-07	2.021e-07	1015.2	198.97	2.3429e-07	2.1161e-07	235.9	67.887	54.84	15.649	2.0515e-07	21.074	59.344	69.099	51.827	-10.269	106.867	67.886	-10.205	-3.103	118.096	73.439	-3.369	3.183	3.923	10.360	-9.659	10.037	-8191	255	
643.969	1	1	0	0	0.20522	0.10089	0.20954	0.13182	0.24085	0.1383	0.21047	0.22225	0.066407	0.23782	0.21271	0.084808	0.13603	0.25636	0.19168	0.28261	-4.3313	-4.6292	-5.0479	-4.5354	-4.7438	-4.8083	-4.4812	-5.0312	-4.6729	-4.4708	-5.0958	-4.3875	-4.7229	-4.9417	-4.4479	-4.9542	249.845	268.238	165.955	233.088	116.138	338.129	228.424	271.703	183.935	159.845	271.567	139.601	266.450	300.918	283.068	145.132	0.000304	0.00010158	4.1415e-05	1180.4	4.6468e-07	7.2135e-07	1240	255.44	6.1686e-07	1.3247e-06	316.35	89.279	71.438	20.556	1.2451e-06	28.78	2.297e-05	1.9616e-05	4.8804e-06	992.35	2.4101e-07	2.0964e-07	1018	199.43	2.4219e-07	2.2135e-07	236.84	67.955	54.752	15.675	2.1686e-07	21.156	58.886	26.165	120.576	-10.162	86.470	294.190	-10.079	-2.838	112.755	134.541	-3.544	3.271	3.603	10.473	144.898	10.105	-8191	255	
644.067	1	1	0	0	0.10267	0.16566	0.10072	0.056478	0.14563	0.095298	0.26078	0.18212	0.10504	0.024241	0.19461	0.15642	0.21506	0.050763	0.11135	0.10328	-4.2625	-4.3958	-4.9958	-4.5771	-4.7375	-5.0125	-4.5854	-4.8417	-4.7125	-4.4083	-5.0437	-4.7229	-4.6146	-5.0167	-4.3604	-5.0104	158.655	225.558	48.787	264.335	30.754	73.338	314.902	248.750	243.550	55.285	319.291	16.782	304.101	325.572	24.304	28.836	0.00031336	0.00010433	3.8347e-05	1181.5	3.4296e-07	1.9263e-06	1243	255.94	4.0017e-07	1.1322e-06	317.02	89.278	71.443	20.607	1.4311e-06	28.615	2.341e-05	2.0598e-05	5.2794e-06	995.34	2.4606e-07	2.185e-07	1020.9	200.28	2.3905e-07	2.2274e-07	237.22	67.912	54.712	15.689	2.3173e-07	21.217	58.580	27.981	116.580	-9.832	117.625	73.804	-10.010	-3.063	100.141	134.028	-3.619	3.376	3.750	10.556	119.584	9.772	-8191	255	
644.161	1	1	0	0	0.21632	0.27959	0.27588	0.11042	0.23443	0.1547	0.25786	0.26573	0.12028	0.1656	0.057394	0.071196	0.14477	0.28191	0.11287	0.13159	-4.5354	-4.5229	-4.9104	-4.9104	-4.4292	-4.9542	-4.4542	-4.7542	-4.7708	-4.5104	-4.9333	-4.7625	-4.6292	-4.9875	-4.4396	-4.8417	202.999	-9.775	-5.258	287.266	135.181	109.204	292.578	243.317	264.597	39.621	149.075	27.881	274.263	-14.160	58.899	87.163	0.00032456	0.00014318	6.7614e-05	1180.9	1.2716e-06	1.0305e-06	1248.3	256.38	8.4789e-07	1.1094e-06	317.2	89.33	71.91	20.495	1.9957e-07	28.647	2.2851e-05	2.0647e-05	5.6977e-06	995.95	2.3971e-07	2.1083e-07	1022.1	200.62	2.2452e-07	2.0925e-07	237.48	67.993	54.695	15.648	2.3307e-07	21.186	50.582	37.078	74.774	-10.232	143.831	169.088	-10.146	-2.719	77.608	163.492	-3.105	3.597	3.814	10.587	88.634	9.891	-8191	255	
644.257	1	1	0	0	0.14384	0.065397	0.14095	0.1164	0.11149	0.068645	0.3108	0.36836	0.13303	0.23002	0.23601	0.26971	0.26532	0.080187	0.22869	0.083065	-4.6479	-4.4292	-4.9792	-4.7542	-4.5104	-5.1833	-4.6021	-4.8938	-4.9313	-4.5062	-5	-4.8688	-4.5729	-5.1375	-4.4542	-4.7812	90.281	189.746	335.076	-1.977	160.676	228.881	297.997	273.669	298.273	150.558	307.404	316.864	-3.616	138.550	-4.160	317.973	0.00030588	8.7851e-05	1.0659e-05	1187.7	1.4849e-06	1.1828e-06	1244.6	255.73	1.0166e-06	4.6298e-07	316.06	89.601	71.067	20.633	1.2017e-06	28.561	2.0937e-05	1.906e-05	5.935e-06	997.35	2.2973e-07	2.0457e-07	1022.2	200.29	2.1715e-07	2.1096e-07	237.41	68.124	54.505	15.695	2.543e-07	21.148	67.799	45.325	230.982	-10.111	76.488	73.577	-9.812	-3.018	160.736	111.063	-3.340	3.360	3.792	10.707	50.079	9.794	-8191	255	
644.353	1	1	0	0	0.13923	0.18426	0.12739	0.065147	0.12617	0.18359	0.16957	0.20197	0.072571	0.1158	0.21801	0.1389	0.1391	0.18254	0.13941	0.1429	-4.5542	-4.3479	-4.8042	-4.9979	-4.4458	-5.0417	-4.6583	-4.6833	-4.8667	-4.4146	-4.8812	-4.9583	-4.4229	-4.9646	-4.7146	-4.5229	-10.869	181.514	193.271	329.823	181.412	152.201	221.902	323.215	265.260	291.441	336.678	259.032	287.632	227.165	41.145	267.954	0.00026991	0.00017944	4.2275e-05	1186.6	8.1825e-07	1.847e-06	1244.6	256.67	1.3899e-06	8.8425e-07	316.67	89.674	71.869	20.724	7.6795e-07	28.635	2.1096e-05	2.0073e-05	6.4476e-06	997.01	2.2638e-07	2.1434e-07	1021.8	200.53	2.0956e-07	2.1642e-07	237.63	67.85	54.689	15.69	2.3553e-07	21.137	60.630	45.093	20.024	-10.066	196.871	143.718	-10.034	-3.177	97.130	170.104	-3.624	3.408	3.798	10.207	67.841	9.783	-8191	255	
644.474	1	1	0	0	0.096007	0.18799	0.17336	0.24014	0.10121	0.27021	0.18415	0.15831	0.079784	0.1037	0.35126	0.12702	0.21785	0.099646	0.09555	0.26125	-4.7333	-4.3896	-4.8104	-4.9979	-4.4292	-4.8583	-4.7958	-4.575	-4.9208	-4.6625	-5.0104	-4.8875	-4.6833	-5.0333	-4.5708	-4.4917	214.787	86.163	224.845	331.117	70.002	109.050	227.522	244.485	332.436	34.155	314.258	151.322	327.581	208.858	231.584	232.896	0.00026634	0.0001299	5.1621e-05	1180	1.1312e-06	1.142e-06	1240.7	254.72	1.3078e-06	8.3653e-07	317.75	89.313	71.36	20.56	4.6428e-07	28.472	1.9371e-05	1.9784e-05	5.9383e-06	994.24	2.0911e-07	2.1524e-07	1020.9	199.79	1.9912e-07	2.2605e-07	238.13	67.895	54.622	15.758	2.3024e-07	21.099	45.804	41.752	68.224	-10.169	139.177	146.427	-10.335	-3.092	89.468	141.540	-3.486	3.433	3.517	11.082	224.331	10.160	-8191	255	
644.570	1	1	0	0	0.16321	0.15535	0.08436	0.13475	0.097078	0.13941	0.37855	0.12208	0.22711	0.17082	0.10242	0.079377	0.044889	0.18731	0.11836	0.22822	-4.75	-4.3938	-4.625	-5.0333	-4.3479	-4.9688	-4.8229	-4.4333	-5.1729	-4.6021	-4.7812	-5.0188	-4.5292	-4.7958	-4.6937	-4.4458	138.729	65.448	117.539	329.185	238.178	36.820	285.179	18.362	313.582	238.986	21.132	97.222	214.230	198.143	232.653	80.434	0.00031474	0.00017462	3.5239e-05	1185.1	1.3201e-06	3.9702e-07	1248.8	257.27	5.9922e-07	1.4749e-06	317.08	89.92	71.364	20.494	1.0587e-06	28.743	1.9343e-05	2.0887e-05	5.8295e-06	996.07	2.0803e-07	2.3198e-07	1022.8	200.3	2.0175e-07	2.3163e-07	237.08	67.882	54.567	15.724	2.12e-07	21.082	73.739	85.850	93.905	-10.111	140.261	121.790	-9.941	-2.859	176.106	151.439	-3.342	3.163	3.641	10.593	221.873	9.955	-8191	255	
644.666	1	1	0	0	0.22037	0.15335	0.18529	0.092095	0.11098	0.22848	0.29047	0.27575	0.060826	0.23861	0.044652	0.17329	0.10111	0.11175	0.17966	0.10146	-4.6646	-4.425	-4.4667	-5.0104	-4.4708	-4.7083	-4.8417	-4.5208	-4.9458	-4.8208	-4.7188	-5.0188	-4.5042	-4.7271	-4.8104	-4.4542	94.854	257.867	228.660	312.036	170.023	209.729	261.365	320.115	196.038	336.227	252.112	280.333	89.894	173.851	91.072	171.191	0.00033367	9.168e-05	4.1551e-05	1182.1	2.2825e-07	1.7196e-06	1239.8	256.08	2.1252e-06	1.3938e-06	316.74	89.031	71.281	20.57	7.7173e-07	28.585	1.9931e-05	2.1435e-05	5.4829e-06	992.85	2.1869e-07	2.3912e-07	1019.4	199.96	2.205e-07	2.408e-07	237.54	67.718	54.656	15.747	2.1041e-07	21.089	60.128	70.351	39.503	-10.055	139.447	64.603	-9.867	-2.964	148.627	148.007	-3.277	3.595	3.183	10.620	88.250	9.741	-8191	255	
644.787	1	1	0	0	0.18506	0.07315	0.21759	0.034407	0.094372	0.24966	0.057808	0.12943	0.13291	0.12986	0.27223	0.17288	0.089165	0.15922	0.16677	0.27506	-4.6333	-4.6958	-4.5521	-5.1833	-4.3917	-4.7021	-4.9917	-4.4833	-4.8125	-4.6667	-4.5458	-5.0229	-4.6062	-4.6229	-4.9062	-4.4313	211.938	58.902	112.266	116.870	298.928	202.406	198.475	219.736	293.004	99.118	256.557	186.341	100.140	293.852	294.134	320.298	0.0002623	4.2698e-05	3.1561e-05	1183.8	4.7333e-07	1.5398e-06	1240.9	255.69	1.8844e-06	5.767e-07	317.56	89.237	71.817	20.586	8.0117e-07	28.746	2.1113e-05	2.0767e-05	5.3298e-06	994.1	2.2542e-07	2.21e-07	1017	199.47	2.2002e-07	2.1358e-07	236.96	67.562	54.594	15.671	1.9102e-07	21.065	63.002	326.333	82.561	-10.055	230.167	108.735	-10.139	-3.093	121.980	148.366	-3.198	3.614	3.980	10.664	71.120	9.436	-8191	255	
644.859	1	1	0	0	0.18271	0.17709	0.1721	0.25958	0.18673	0.078407	0.1521	0.13443	0.18066	0.23027	0.22348	0.099803	0.28567	0.26458	0.095728	0.11906	-4.4104	-4.6604	-4.3396	-5.2729	-4.4833	-4.5521	-5.2312	-4.4021	-4.8125	-4.5792	-4.3896	-5.0583	-4.5167	-4.5729	-5.0271	-4.4792	319.425	7.900	183.904	227.678	105.964	238.200	332.601	298.437	195.588	234.147	-7.392	257.306	285.585	9.811	182.348	257.027	0.00022311	0.00010768	4.8691e-05	1181.2	4.3136e-07	1.3125e-06	1241.9	256.09	1.9859e-06	6.3372e-07	315.21	89.339	71.248	20.729	3.1677e-07	28.544	2.1717e-05	1.9036e-05	5.0296e-06	990.61	2.3568e-07	2.1946e-07	1015.8	199.47	2.3402e-07	2.1287e-07	236.17	67.706	54.57	15.714	1.9353e-07	21.068	77.203	58.649	86.606	-10.145	88.019	136.465	-9.802	-2.957	166.240	93.021	-3.445	3.236	4.070	10.302	26.227	10.011	-8191	255	
644.953	1	1	0	0	0.13613	0.12469	0.047464	0.38727	0.083793	0.087033	0.098644	0.28137	0.12182	0.13195	0.13659	0.1164	0.033252	0.11736	0.24399	0.14788	-4.4437	-4.8542	-4.4417	-5.0646	-4.5708	-4.6062	-5.0792	-4.4229	-4.6875	-4.9521	-4.3854	-5.0208	-4.7708	-4.6458	-5.0646	-4.6062	120.933	114.946	96.275	263.683	51.713	155.117	19.620	271.975	160.289	257.383	245.044	238.255	125.805	113.748	-7.805	-13.334	0.00036793	0.00015738	4.1043e-05	1178	1.5666e-06	1.02e-06	1238.6	257.65	1.1859e-06	1.1002e-06	316.36	89.098	70.868	20.623	5.9851e-07	28.651	2.2602e-05	1.9024e-05	5.1264e-06	990.93	2.3356e-07	2.0745e-07	1015.3	199.99	2.309e-07	2.0307e-07	236.6	67.584	54.386	15.646	1.8741e-07	21.101	52.663	25.145	-12.636	-10.166	137.488	103.309	-10.167	-2.957	165.398	161.752	-3.383	3.435	3.428	10.694	135.418	9.891	-8191	255	
645.049	1	1	0	0	0.15415	0.096807	0.12815	0.15476	0.12105	0.058476	0.16632	0.11743	0.038204	0.1637	0.10169	0.045351	0.096757	0.040028	0.04541	0.22532	-4.2812	-4.6687	-4.2958	-5.0104	-4.7146	-4.4354	-5.0771	-4.4354	-4.8229	-4.9521	-4.525	-4.9146	-4.8146	-4.4062	-5.1125	-4.6562	-7.335	60.857	17.868	10.996	28.893	217.776	184.834	238.442	97.030	137.407	285.203	291.731	314.145	200.634	196.871	196.709	0.00036617	0.00013094	1.364e-05	1175.4	1.0824e-06	4.7165e-07	1234.6	256.37	5.988e-07	8.5601e-07	316.19	89.817	71.405	20.578	6.4064e-07	28.681	2.1087e-05	1.7655e-05	4.8965e-06	989.26	2.1543e-07	1.9479e-07	1014.4	199.66	2.1416e-07	1.897e-07	235.99	67.828	54.362	15.656	1.9525e-07	21.09	48.326	8.832	267.494	-9.949	134.783	107.438	-10.046	-3.147	122.589	148.744	-3.449	3.293	3.747	11.106	163.078	9.711	-8191	255	
645.170	1	1	0	0	0.061447	0.094117	0.031663	0.23982	0.14693	0.067941	0.2234	0.039535	0.18389	0.16075	0.22527	0.10648	0.30948	0.073839	0.17059	0.095148	-4.1937	-4.8187	-4.3896	-4.8542	-4.7958	-4.4458	-5.2021	-4.6479	-4.5958	-5.0042	-4.5708	-4.9167	-4.8542	-4.3792	-4.8542	-4.85	252.804	108.848	333.661	267.961	189.069	87.637	332.168	104.458	93.707	129.160	299.458	270.946	301.816	209.319	23.603	336.298	0.00022847	0.00016905	4.3866e-05	1175.4	5.0526e-07	3.0721e-07	1237.2	255.09	9.9645e-07	5.0128e-07	315.95	89.261	71.614	20.551	9.5718e-07	28.577	2.0982e-05	1.795e-05	5.2612e-06	989.31	2.1872e-07	2.0343e-07	1015.4	199.59	2.1923e-07	2.0343e-07	236.48	67.789	54.439	15.63	2.1594e-07	21.11	60.847	88.249	80.783	-9.968	114.726	85.867	-9.952	-3.470	71.165	67.101	-3.327	3.346	3.643	10.793	89.625	9.995	-8191	255	
645.266	1	1	0	0	0.10004	0.16119	0.13095	0.27262	0.081305	0.16699	0.23207	0.12834	0.071927	0.12487	0.10726	0.14898	0.14501	0.2803	0.17349	0.0043649	-4.2542	-5.1167	-4.4437	-4.8104	-4.7208	-4.2188	-4.9458	-4.8667	-4.5167	-5.1271	-4.525	-4.7604	-4.9375	-4.4229	-4.7958	-4.7979	301.392	229.085	201.953	299.865	108.256	204.144	-13.200	243.043	31.200	112.546	246.624	-8.624	-20.335	-3.478	167.329	197.323	0.00030216	7.4397e-05	6.9375e-05	1174.3	1.1928e-06	1.9121e-06	1238.3	255.22	1.617e-07	1.3342e-06	316.04	88.895	71.428	20.506	7.8299e-07	28.564	2.0424e-05	1.7776e-05	5.6421e-06	988.27	2.0691e-07	1.9431e-07	1014.5	199.47	2.0494e-07	1.8813e-07	236.47	67.693	54.371	15.599	2.2217e-07	21.067	58.195	30.075	56.446	-10.085	125.213	105.903	-9.944	-3.060	325.926	134.694	-3.403	3.187	3.817	10.845	174.247	9.935	-8191	255	
645.362	1	1	0	0	0.014121	0.13302	0.16786	0.22302	0.13204	0.18595	0.39119	0.11696	0.083051	0.10415	0.19385	0.15273	0.15564	0.063683	0.09916	0.1519	-4.0042	-4.8854	-4.3625	-4.7188	-4.975	-4.4563	-4.9583	-4.675	-4.3125	-4.9771	-4.7042	-4.6771	-5.0146	-4.5062	-4.8708	-4.8917	25.578	101.203	91.485	296.966	244.654	212.204	259.625	210.927	31.026	177.831	284.270	186.651	22.766	55.511	-20.480	-16.631	0.00029317	6.296e-05	6.1719e-05	1179.7	5.83e-07	3.7456e-07	1234.8	253.7	1.7155e-06	3.9034e-07	315.69	89.509	71.515	20.515	1.1455e-06	28.504	1.9768e-05	1.7926e-05	5.8961e-06	990.02	2.0309e-07	2.011e-07	1015.3	199.07	2.0659e-07	2.0214e-07	236.79	67.647	54.379	15.668	2.3667e-07	21.074	48.669	113.741	41.222	-10.117	176.244	70.477	-9.970	-3.120	114.261	157.694	-3.469	3.382	3.584	10.976	114.630	9.752	-8191	255	
645.434	1	1	0	0	0.061691	0.18574	0.072196	0.17513	0.10278	0.17586	0.2335	0.33491	0.1817	0.19693	0.19956	0.13961	0.27119	0.11445	0.17142	0.16748	-4.1667	-4.95	-4.4396	-4.5938	-4.9042	-4.5396	-4.9563	-4.775	-4.3917	-4.9521	-4.7	-4.5625	-5.0229	-4.4833	-4.7625	-5.0563	227.723	106.846	313.484	217.371	307.626	35.393	296.593	93.412	289.918	107.986	333.528	203.041	232.340	237.044	170.470	196.972	0.00020691	0.00013795	1.9443e-05	1177.6	5.1159e-07	1.1815e-06	1235.6	254.49	8.1397e-07	9.0585e-07	316.3	89.271	71.148	20.553	9.5066e-07	28.773	1.9506e-05	1.9257e-05	5.8857e-06	989.9	1.9888e-07	2.1631e-07	1016.6	199.28	2.0268e-07	2.1374e-07	236.62	67.707	54.379	15.712	2.3178e-07	21.101	61.818	111.088	51.809	-10.190	273.286	109.586	-10.128	-2.961	154.090	195.571	-3.322	3.331	3.845	10.557	112.030	9.778	-8191	255	
645.554	1	1	0	0	0.17689	0.057863	0.061685	0.17647	0.034606	0.06702	0.22642	0.077787	0.13361	0.041051	0.022304	0.18571	0.048212	0.02253	0.16407	0.11044	-4.0229	-4.9729	-4.7479	-4.5875	-4.9667	-4.5229	-4.6417	-4.9062	-4.3104	-4.8083	-4.8625	-4.4854	-5.125	-4.6042	-4.6687	-4.7729	264.522	256.426	269.975	31.198	262.859	289.434	311.541	142.727	260.658	99.964	80.824	15.301	215.658	-4.684	166.761	273.523	0.00032839	7.4714e-05	3.1719e-05	1175	9.236e-07	1.1866e-07	1242.5	254.83	6.6113e-07	9.652e-07	314.94	89.176	71.336	20.403	1.1446e-06	28.71	1.9846e-05	2.0657e-05	5.812e-06	990.01	2.0053e-07	2.2946e-07	1019.5	199.11	2.0462e-07	2.3595e-07	236.88	67.66	54.393	15.739	2.3104e-07	21.091	63.627	97.246	19.042	-9.969	144.413	135.449	-10.237	-2.980	97.136	289.126	-3.558	3.316	3.859	10.444	105.639	9.789	-8191	255	
645.651	1	1	0	0	0.12914	0.06551	0.16671	0.16271	0.25714	0.13205	0.11218	0.15605	0.24192	0.21762	0.31159	0.1738	0.16745	0.14153	0.184	0.10916	-3.9938	-4.8792	-4.775	-4.6479	-4.9938	-4.6604	-4.7104	-5.0604	-4.4896	-5.0021	-4.7896	-4.5625	-4.9292	-4.6604	-4.625	-5.0938	158.099	308.329	24.118	274.958	326.778	40.173	284.319	9.885	72.515	227.527	252.434	63.852	241.633	246.133	31.244	279.493	0.00030074	0.00011208	3.8438e-05	1181.8	1.3792e-06	1.7083e-06	1241.8	255.79	1.6431e-06	9.8393e-07	316.91	89.569	71.499	20.722	7.6373e-07	28.621	2.1126e-05	2.2482e-05	5.8136e-06	992.88	2.2039e-07	2.4423e-07	1019.8	199.39	2.2228e-07	2.3894e-07	236.74	67.828	54.666	15.786	2.1517e-07	21.098	50.706	145.738	34.795	-10.067	145.705	162.669	-9.973	-3.116	88.702	69.257	-3.859	3.314	3.752	10.733	146.223	9.717	-8191	255	
645.747	1	1	0	0	0.13501	0.11897	0.15919	0.18035	0.064111	0.11376	0.20419	0.11626	0.24301	0.28175	0.15826	0.12436	0.26986	0.16414	0.14052	0.14789	-4.125	-4.7771	-4.8875	-4.3792	-4.9333	-4.7188	-4.7146	-5.1375	-4.6146	-4.8479	-4.95	-4.4333	-5.0312	-4.825	-4.5292	-4.9604	208.972	73.065	21.860	297.830	209.366	45.184	249.484	272.114	29.576	297.131	215.539	-6.795	27.989	75.431	9.150	235.229	0.00032101	9.6359e-05	2.6604e-05	1183.8	1.6195e-06	4.9873e-07	1239	254.7	8.4742e-07	9.2038e-07	318.61	89.611	71.604	20.708	9.4755e-08	28.732	2.1542e-05	2.1461e-05	5.3158e-06	992.33	2.1986e-07	2.2774e-07	1016.6	199.22	2.1635e-07	2.1368e-07	236.74	67.67	54.721	15.739	1.979e-07	21.065	63.603	44.631	73.868	-10.108	181.217	99.926	-9.948	-2.809	199.930	69.620	-3.251	3.586	3.671	10.362	218.468	10.073	-8191	255	
645.867	1	1	0	0	0.056198	0.31747	0.038758	0.080401	0.15076	0.12076	0.096268	0.12788	0.10954	0.21637	0.12446	0.15293	0.21793	0.17959	0.1898	0.3582	-4.1271	-4.6188	-4.8583	-4.4583	-4.8313	-4.6646	-4.7042	-5.0479	-4.5854	-4.6083	-5.0792	-4.4292	-4.9417	-4.7875	-4.4542	-4.8354	14.069	-18.371	17.677	108.296	19.400	161.028	258.802	7.248	28.270	246.810	281.257	310.998	151.698	5.104	311.791	70.268	0.00030432	0.00015073	3.9336e-05	1178.5	1.1254e-06	2.2085e-06	1239.5	255.57	9.7891e-07	1.1335e-06	316.88	89.311	71.775	20.573	3.1827e-07	28.56	2.1432e-05	1.9311e-05	4.7939e-06	991.83	2.2409e-07	2.0532e-07	1016.3	199.4	2.1299e-07	1.9444e-07	235.69	67.438	54.492	15.606	1.6739e-07	20.954	65.021	14.428	64.231	-10.316	162.732	67.893	-9.961	-2.876	141.558	95.683	-3.297	3.381	3.932	10.454	112.648	9.981	-8191	255	
645.962	1	1	0	0	0.26169	0.05811	0.10527	0.2288	0.025866	0.071078	0.20289	0.13844	0.070874	0.17045	0.031505	0.34167	0.098901	0.21039	0.23595	0.13585	-4.2833	-4.6396	-4.9521	-4.8083	-4.8479	-4.8208	-4.4958	-4.8458	-4.8187	-4.5979	-5.1917	-4.5813	-4.7188	-4.8688	-4.4667	-5.0354	281.221	300.659	111.509	310.741	303.603	84.137	-5.199	314.296	135.318	331.812	12.933	280.962	-8.141	283.748	-12.222	184.945	0.0003775	8.8425e-05	1.3885e-05	1166.1	1.8313e-06	4.7724e-07	1224.9	253.14	4.5119e-07	1.365e-06	313.93	89.037	70.932	20.396	1.4134e-06	28.487	1.878e-05	1.5553e-05	3.9489e-06	979.31	1.901e-07	1.6407e-07	1003.9	197.6	1.9058e-07	1.6856e-07	233.86	67.188	54.008	15.518	1.6552e-07	20.862	62.515	58.916	94.574	-10.104	164.137	179.223	-10.150	-2.674	85.967	174.986	-3.557	3.555	4.063	10.801	147.325	9.978	-8191	255	
646.058	1	1	0	0	0.13933	0.23071	0.04152	0.30282	0.37674	0.020724	0.087216	0.13861	0.12314	0.40859	0.18058	0.08548	0.18083	0.15987	0.12344	0.099798	-4.2979	-4.3875	-4.9563	-4.6521	-4.7188	-4.9896	-4.4958	-4.9271	-4.7312	-4.4521	-5.1562	-4.5958	-4.6396	-4.9833	-4.3292	-4.9563	102.722	-14.223	80.594	327.153	243.215	266.395	309.317	337.082	205.697	107.207	256.430	322.895	315.493	314.605	241.295	106.986	0.00037435	0.00018506	5.2721e-05	1165.4	7.3383e-07	9.8243e-07	1219.1	254.63	2.5079e-07	2.3626e-07	313.21	88.65	70.744	20.393	3.005e-07	28.585	1.8655e-05	1.5971e-05	4.0154e-06	979.05	1.9511e-07	1.705e-07	1002.9	197.76	1.9222e-07	1.7627e-07	233.8	67.298	53.912	15.514	1.8089e-07	20.928	52.359	6.152	32.747	-9.983	55.679	91.063	-10.121	-3.033	138.568	148.353	-3.507	3.192	3.768	10.685	93.080	10.130	-8191	255	
646.154	1	1	0	0	0.18602	0.061292	0.14579	0.10631	0.14191	0.29408	0.22195	0.064169	0.11711	0.28156	0.12083	0.038095	0.037184	0.098348	0.26849	0.15093	-4.5312	-4.5271	-4.9354	-4.6896	-4.6021	-4.9667	-4.6604	-4.8688	-4.8167	-4.4875	-4.7833	-4.5417	-4.5104	-5.0958	-4.6062	-4.8667	116.344	104.391	37.955	261.740	119.612	305.192	200.615	323.664	-13.082	125.687	163.301	103.076	304.882	48.461	172.620	267.823	0.00028604	6.4567e-05	3.225e-05	1164.2	1.5248e-06	6.0343e-07	1225	253.31	1.8347e-06	1.0308e-06	312.39	88.447	70.948	20.31	9.8973e-08	28.231	1.8882e-05	1.6602e-05	4.5632e-06	978.76	1.9417e-07	1.7255e-07	1003.9	197.7	1.8662e-07	1.7746e-07	233.97	67.235	54.011	15.476	1.9117e-07	20.902	63.233	58.522	104.758	-10.048	141.076	130.391	-9.983	-2.885	91.630	57.176	-3.125	3.480	3.784	10.903	292.750	10.107	-8191	255	
646.250	1	1	0	0	0.15351	0.38563	0.1576	0.14237	0.13055	0.23845	0.10918	0.21209	0.16004	0.14906	0.069337	0.22953	0.19001	0.07119	0.18214	0.32924	-4.3771	-4.3458	-4.8729	-4.7354	-4.3438	-4.8917	-4.5938	-4.7083	-4.9062	-4.4104	-4.9771	-4.5854	-4.5146	-5.0875	-4.4313	-4.8625	333.241	239.804	133.666	307.839	175.989	203.863	90.326	295.404	297.167	-6.788	10.579	321.453	277.247	28.266	63.231	302.883	0.00024453	0.00012619	2.0535e-05	1162.5	1.2414e-06	9.803e-07	1225	251.28	7.0768e-07	5.6811e-07	313.9	88.421	70.771	20.335	1.26e-06	28.435	1.8331e-05	1.5898e-05	4.868e-06	977.08	1.9e-07	1.707e-07	1004.1	197.4	1.8462e-07	1.7532e-07	234.35	67.049	53.846	15.482	2.0522e-07	20.939	47.240	57.067	94.846	-10.162	91.499	126.520	-10.003	-3.250	43.749	131.853	-3.171	3.067	3.617	10.657	124.328	10.123	-8191	255	
646.346	1	1	0	0	0.14473	0.13711	0.21409	0.094981	0.087975	0.13402	0.17908	0.088266	0.12758	0.23491	0.24817	0.25501	0.030442	0.29105	0.10393	0.19149	-4.5563	-4.4271	-4.85	-4.8187	-4.5125	-5.0229	-4.5792	-4.7063	-5.0292	-4.2937	-4.8896	-4.7521	-4.4646	-5.0813	-4.6521	-4.6458	34.998	47.896	56.858	232.014	53.413	156.990	258.517	8.936	1.857	59.139	-21.167	307.195	-8.021	97.971	35.144	203.213	0.00033669	0.00016887	2.2932e-05	1162.1	7.5898e-07	1.7298e-06	1224.1	253.22	1.3614e-06	1.0025e-06	313.79	89.096	70.963	20.402	2.6832e-07	28.423	1.7767e-05	1.6259e-05	5.1307e-06	978.69	1.9129e-07	1.769e-07	1004.5	197.45	1.8037e-07	1.8321e-07	234.79	67.104	53.913	15.498	2.1521e-07	20.898	67.398	73.007	136.383	-10.065	145.616	192.095	-10.058	-3.201	44.176	116.906	-3.244	3.135	3.899	10.433	202.293	9.628	-8191	255	
646.467	1	1	0	0	0.05738	0.085226	0.21504	0.19716	0.14914	0.16754	0.17185	0.20906	0.064366	0.22784	0.13077	0.055408	0.1787	0.17814	0.097709	0.14642	-4.7812	-4.5125	-4.7833	-4.8271	-4.4104	-5.0292	-4.7583	-4.5521	-5.0479	-4.5312	-4.8938	-4.7937	-4.4958	-5.0229	-4.5292	-4.525	105.458	266.891	237.900	338.570	30.317	178.662	326.007	302.661	170.191	237.913	314.890	215.760	261.070	3.232	210.935	8.915	0.0003356	0.00010008	2.0176e-05	1164	1.5918e-06	1.3923e-06	1227.4	252.95	2.8166e-07	2.5518e-07	312.57	89.127	70.908	20.577	1.1524e-06	28.425	1.7374e-05	1.7615e-05	5.378e-06	977.85	1.8871e-07	1.9247e-07	1005.8	197.43	1.8191e-07	1.9863e-07	234.44	67.209	54.031	15.607	2.1521e-07	20.957	62.858	110.736	82.696	-9.978	131.997	163.950	-10.032	-3.104	126.538	48.800	-3.355	3.289	3.854	10.644	187.407	9.887	-8191	255	
646.563	1	1	0	0	0.13904	0.13299	0.017939	0.17332	0.12405	0.097087	0.1204	0.070144	0.17596	0.20756	0.097753	0.11775	0.18145	0.14731	0.12274	0.11669	-4.6292	-4.4479	-4.5729	-5.0542	-4.3125	-4.8396	-4.7771	-4.475	-5.0771	-4.5437	-4.75	-4.8646	-4.4938	-4.9125	-4.7917	-4.3625	194.349	78.549	23.404	291.827	72.609	70.722	257.848	338.010	252.738	5.476	174.277	136.337	223.540	276.435	105.412	144.934	0.0004093	7.9026e-05	4.9421e-05	1167.7	3.9176e-07	4.9013e-07	1229.9	253.34	1.4726e-06	1.0581e-06	315.44	88.142	70.893	20.303	7.038e-07	28.289	1.7732e-05	1.9347e-05	5.46e-06	981.52	1.9218e-07	2.1415e-07	1007.7	197.95	1.8842e-07	2.2234e-07	234.8	67.043	54.11	15.622	2.2179e-07	20.922	47.368	180.160	42.612	-10.184	206.503	178.779	-9.979	-3.035	189.363	146.444	-3.447	3.309	3.842	10.790	66.589	9.737	-8191	255	
646.659	1	1	0	0	0.12303	0.16462	0.096709	0.16979	0.10864	0.3075	0.26647	0.14714	0.040581	0.28322	0.10109	0.16368	0.11771	0.1156	0.054552	0.36937	-4.7438	-4.5771	-4.5687	-5.2104	-4.4625	-4.9146	-4.8896	-4.4354	-4.9771	-4.6	-4.575	-4.9208	-4.4479	-4.775	-4.7792	-4.3125	171.993	224.114	-10.018	-15.442	270.142	8.612	297.247	283.070	337.337	254.679	284.005	229.405	311.503	288.531	69.099	316.136	0.0003179	0.00018728	6.6296e-05	1169.7	1.1449e-06	6.4265e-07	1222.7	254.25	1.0301e-06	4.3389e-07	314.38	89.01	70.901	20.513	7.7892e-07	28.491	1.9189e-05	2.0692e-05	5.3845e-06	981.32	2.0125e-07	2.2024e-07	1005.8	198.18	1.902e-07	2.1679e-07	234.99	67.163	54.051	15.643	2.0128e-07	20.928	57.070	35.912	-7.654	-10.021	160.629	49.575	-10.041	-2.982	125.897	149.810	-3.269	3.601	3.946	10.502	252.608	10.113	-8191	255	
646.731	1	1	0	0	0.092129	0.19299	0.064408	0.14557	0.082244	0.090724	0.38518	0.10693	0.14143	0.32924	0.11637	0.19435	0.20327	0.08303	0.093711	0.19659	-4.5396	-4.6979	-4.5813	-5.05	-4.4833	-4.8333	-4.7562	-4.4583	-4.8042	-4.7708	-4.6188	-5.0312	-4.5229	-4.7979	-4.8812	-4.4938	196.861	149.214	79.612	159.492	99.972	138.817	272.801	-0.551	112.368	-18.632	229.143	274.828	34.442	271.997	174.080	208.546	0.00027013	0.00016134	1.982e-05	1164.1	7.6916e-07	8.7533e-07	1229.3	253.46	1.5114e-06	9.525e-07	315.07	88.434	71.242	20.327	1.3768e-06	28.482	2.0028e-05	2.0567e-05	5.3155e-06	980.75	2.224e-07	2.2402e-07	1007.9	197.87	2.2487e-07	2.3177e-07	235.27	67.189	54.285	15.573	2.0822e-07	20.944	57.310	27.274	63.729	-10.047	166.292	115.658	-9.780	-2.861	143.776	110.497	-3.192	3.188	3.568	10.874	96.613	10.189	-8191	255	
646.850	1	1	0	0	0.056088	0.23073	0.29206	0.24664	0.035864	0.22445	0.22802	0.15341	0.20384	0.14599	0.14933	0.15833	0.075651	0.20797	0.1038	0.18079	-4.7125	-4.6479	-4.3708	-5.1354	-4.6208	-4.7729	-5.0813	-4.4042	-5.0521	-4.7333	-4.6542	-5.0271	-4.6813	-4.7604	-5.05	-4.4229	8.232	301.595	296.194	307.672	328.980	238.594	287.194	-14.704	270.183	147.726	302.243	335.542	132.744	312.962	235.496	-8.643	0.00023537	2.1541e-05	2.5485e-05	1170.2	1.443e-06	1.2567e-06	1235.3	253.99	3.9689e-07	7.0922e-07	314.74	89.178	70.949	20.212	1.4222e-07	28.429	2.2566e-05	2.0721e-05	5.3939e-06	982.85	2.4447e-07	2.2904e-07	1010.2	198.29	2.3955e-07	2.1888e-07	235.2	67.186	54.168	15.519	1.9599e-07	20.917	56.084	267.819	71.165	-9.970	129.813	200.817	-10.104	-2.998	31.791	154.882	-3.208	3.472	3.822	10.589	152.048	9.694	-8191	255	
646.946	1	1	0	0	0.20443	0.21533	0.20872	0.018649	0.10624	0.098799	0.19784	0.13868	0.20803	0.13316	0.021332	0.1363	0.18395	0.043092	0.26809	0.045288	-4.4313	-4.8083	-4.4896	-5.2208	-4.4812	-4.6937	-5.1854	-4.6354	-4.8688	-4.8187	-4.3292	-4.9271	-4.6854	-4.6083	-5.0396	-4.5312	150.658	198.241	295.717	80.380	139.220	216.920	-3.292	308.768	81.943	96.194	-13.246	278.160	269.667	111.540	326.235	186.052	0.00037915	0.00010312	5.2712e-05	1168.3	8.5664e-07	4.8627e-07	1231.9	253.89	9.1751e-07	1.6674e-06	314.28	88.57	70.966	20.38	7.1975e-07	28.285	2.2151e-05	1.9304e-05	5.0421e-06	983.38	2.4205e-07	2.1972e-07	1009.6	198.89	2.5942e-07	2.3018e-07	235.64	67.395	54.284	15.564	2.1134e-07	20.963	62.779	63.798	68.661	-10.086	283.974	73.744	-9.996	-3.092	160.330	147.874	-3.424	3.241	3.564	10.594	15.627	10.069	-8191	255	
647.042	1	1	0	0	0.12359	0.18616	0.14051	0.25265	0.059687	0.055107	0.23841	0.013902	0.072966	0.167	0.10505	0.11894	0.23632	0.18502	0.052954	0.15035	-4.4938	-4.9313	-4.4083	-5.0667	-4.8104	-4.5146	-5.0979	-4.7104	-4.7458	-5.0354	-4.4958	-4.8354	-4.7125	-4.5125	-4.825	-4.5604	174.326	180.315	15.975	305.290	115.442	169.763	218.697	4.813	93.202	217.554	305.257	103.883	164.841	154.887	216.652	-11.865	0.0001928	5.8024e-05	3.5408e-05	1170	1.43e-06	7.1974e-07	1233.6	254.99	5.6754e-07	7.0205e-07	314.38	88.934	70.872	20.275	7.721e-07	28.425	2.3744e-05	1.9424e-05	5.2392e-06	985.28	2.2685e-07	2.0407e-07	1009.2	198.91	2.2258e-07	1.925e-07	234.8	67.417	54.044	15.46	1.98e-07	20.917	60.293	56.078	32.230	-9.950	79.164	64.432	-10.001	-2.882	-1.718	145.225	-3.400	3.473	3.792	11.016	-8.834	9.929	-8191	255	
647.138	1	1	0	0	0.25209	0.0074352	0.19803	0.0755	0.17667	0.21958	0.24491	0.16506	0.11123	0.064779	0.0961	0.17469	0.26986	0.040335	0.06894	0.16355	-4.4229	-4.9854	-4.6229	-5.0062	-4.9375	-4.5208	-5.1667	-4.6833	-4.4854	-5.0437	-4.6146	-4.7396	-4.9021	-4.6521	-4.9417	-4.6771	271.936	182.794	77.088	0.405	28.193	205.386	278.045	312.913	299.457	314.357	179.292	234.150	48.977	161.402	174.305	332.092	0.00031889	0.00012512	1.7804e-05	1164.6	2.1804e-06	2.1197e-07	1226.2	253.58	1.0443e-06	6.716e-07	313.81	88.39	71.316	20.307	5.4408e-07	28.556	2.2078e-05	1.8398e-05	5.3108e-06	982.28	2.3126e-07	2.1781e-07	1006.3	198.59	2.3829e-07	2.1487e-07	235.23	67.556	54.201	15.522	2.2634e-07	20.993	58.132	67.369	68.552	-10.159	141.907	132.099	-10.052	-2.981	92.335	98.331	-3.138	3.433	3.621	10.932	291.021	9.926	-8191	255	
647.234	1	1	0	0	0.12095	0.03122	0.099832	0.29116	0.29499	0.08393	0.25376	0.21176	0.19978	0.16251	0.043302	0.045574	0.18449	0.18871	0.1199	0.056107	-4.1042	-5.0875	-4.3292	-4.85	-4.7937	-4.6021	-5.1021	-4.6625	-4.5292	-4.9396	-4.3958	-4.6479	-4.7833	-4.3333	-4.8458	-4.6729	206.065	308.878	249.856	309.336	333.066	112.087	287.581	297.116	-15.633	316.015	230.846	37.644	223.638	-4.218	153.348	316.461	0.00039148	6.1799e-05	5.4821e-05	1170.9	8.4756e-07	7.9791e-07	1232.8	254.34	1.3505e-06	6.9246e-07	314.31	88.801	70.987	20.359	8.9371e-07	28.392	2.2186e-05	1.8665e-05	5.7132e-06	985.87	2.1518e-07	2.0193e-07	1009.7	198.71	2.0766e-07	1.8716e-07	235.2	67.372	54.02	15.48	2.1548e-07	20.927	64.803	42.841	108.907	-10.104	145.431	84.834	-10.111	-3.126	161.052	39.433	-3.474	3.264	3.671	10.734	145.286	10.251	-8191	255	
647.331	1	1	0	0	0.11988	0.15363	0.11315	0.15883	0.35964	0.11975	0.074262	0.13177	0.047666	0.064749	0.099251	0.14118	0.1927	0.064798	0.07786	0.084589	-4.0938	-5	-4.4771	-4.7063	-5.0354	-4.2625	-4.9688	-4.775	-4.3979	-4.8688	-4.4917	-4.8667	-4.9521	-4.425	-4.775	-4.9146	103.815	324.250	336.937	-14.158	3.659	144.949	338.226	318.411	99.570	135.532	322.477	337.641	298.613	238.577	60.862	132.075	0.00029751	8.2945e-05	2.5879e-05	1173	1.1431e-06	1.2808e-06	1234.9	252.64	4.9733e-07	2.4511e-07	315.77	89.186	71.27	20.313	6.6331e-07	28.421	1.9915e-05	1.7918e-05	5.9115e-06	986.94	2.1304e-07	2.1291e-07	1013	198.66	2.2738e-07	2.1233e-07	236.65	67.631	54.365	15.582	2.6955e-07	21.01	47.312	76.384	95.450	-10.202	164.256	130.863	-9.964	-3.086	317.545	222.905	-3.320	3.467	3.480	10.681	83.289	10.196	-8191	255	
647.427	1	1	0	0	0.18873	0.25309	0.25281	0.25826	0.10977	0.090669	0.22348	0.074164	0.098797	0.17117	0.079412	0.14244	0.35551	0.13504	0.22885	0.1079	-4.0458	-4.95	-4.6062	-4.8396	-4.9854	-4.4104	-4.975	-4.85	-4.3042	-4.9896	-4.6562	-4.6292	-5.1583	-4.6146	-4.7833	-4.9354	251.270	116.719	334.249	264.484	320.783	250.479	268.933	302.080	196.414	292.739	312.314	191.223	244.001	229.891	140.997	315.997	0.00029981	6.4932e-05	5.1605e-05	1181.7	1.5375e-06	9.2767e-07	1240	255.6	1.898e-06	7.3144e-07	316.03	88.612	71.255	20.479	5.396e-07	28.427	2.2824e-05	2.1265e-05	6.9636e-06	993.27	2.3227e-07	2.4837e-07	1020.3	199.45	2.3484e-07	2.3939e-07	237.37	67.627	54.473	15.67	2.6184e-07	21.005	31.295	265.329	42.954	-10.006	113.809	94.758	-10.134	-3.030	91.492	180.427	-3.095	3.126	3.803	10.520	176.490	10.040	-8191	255	
647.547	1	1	0	0	0.043252	0.19437	0.2679	0.21305	0.20997	0.096009	0.16618	0.17278	0.12395	0.10006	0.19659	0.064311	0.10232	0.068051	0.17347	0.15686	-4.1896	-4.8688	-4.7063	-4.6521	-4.9771	-4.5833	-4.825	-4.9521	-4.5188	-4.9	-4.9625	-4.5938	-5.0375	-4.6646	-4.9083	-5.0333	274.870	36.079	258.434	279.361	180.270	73.218	7.489	109.163	29.748	88.429	292.772	15.121	257.278	305.709	298.944	101.243	0.00026827	8.2903e-05	3.5486e-05	1182.9	1.5031e-06	7.4778e-07	1243.4	254.32	3.8332e-07	1.2701e-06	314.23	88.983	71.209	20.475	1.1001e-06	28.458	2.1591e-05	2.2241e-05	6.5105e-06	993.1	2.1614e-07	2.43e-07	1019.6	199.66	2.2258e-07	2.4608e-07	236.78	67.669	54.466	15.691	2.4633e-07	20.975	60.130	27.140	16.027	-10.027	143.000	117.461	-9.974	-2.916	211.237	154.900	-3.219	3.179	3.829	10.671	125.067	9.706	-8191	255	
647.644	1	1	0	0	0.18315	0.22272	0.11114	0.36184	0.14845	0.1101	0.27523	0.021027	0.16476	0.09059	0.11661	0.11077	0.21338	0.20307	0.27527	0.12166	-4.1271	-4.7354	-4.6833	-4.4583	-4.8708	-4.425	-4.7146	-4.8812	-4.5042	-4.8479	-4.8354	-4.5062	-5.0417	-4.7021	-4.6188	-5.05	20.567	243.546	298.580	265.347	249.215	155.514	184.895	311.482	326.654	5.698	39.147	115.833	73.956	278.331	51.168	87.569	0.00035297	5.148e-05	3.1713e-05	1185.2	6.6411e-07	1.7105e-06	1243.5	255.98	1.142e-06	2.9792e-07	316.28	89.306	71.616	20.388	8.3142e-07	28.55	2.2222e-05	2.3725e-05	6.1885e-06	995.74	2.286e-07	2.6508e-07	1022.2	199.92	2.3711e-07	2.6746e-07	236.76	67.871	54.655	15.73	2.5994e-07	21.059	89.224	139.753	66.710	-9.985	143.414	88.346	-10.051	-3.103	131.419	139.854	-3.341	3.458	3.845	10.637	217.560	9.709	-8191	255	
647.740	1	1	0	0	0.087205	0.054693	0.25845	0.2376	0.18495	0.053682	0.4023	0.089631	0.22385	0.18463	0.21438	0.1684	0.14345	0.13152	0.062062	0.12993	-4.1083	-4.7542	-4.9208	-4.5687	-4.8583	-4.6312	-4.6604	-5.0417	-4.3396	-4.5479	-4.8792	-4.4771	-5.0542	-4.6146	-4.4542	-5.0146	18.748	300.212	313.380	319.094	49.443	105.215	271.507	61.385	106.178	116.494	299.023	327.268	211.529	189.302	297.769	219.680	0.00042772	0.00018107	1.8487e-05	1186.8	1.6542e-06	7.4872e-07	1248.7	255.3	9.7574e-07	8.4513e-07	318.15	89.578	71.43	20.329	6.9157e-07	28.56	2.5448e-05	2.664e-05	6.6503e-06	999.95	2.7578e-07	2.9769e-07	1026.5	200.35	2.7903e-07	2.8864e-07	238.18	68.107	54.923	15.771	2.5697e-07	21.081	68.629	66.516	23.748	-10.185	224.470	95.844	-9.997	-2.934	226.428	85.776	-3.570	3.282	4.056	10.740	75.719	10.125	-8191	255	
647.836	1	1	0	0	0.1238	0.087959	0.15196	0.162	0.098882	0.28179	0.091905	0.060164	0.13798	0.098756	0.083269	0.090981	0.19028	0.17495	0.073758	0.059906	-4.1062	-4.5229	-4.9104	-4.5979	-4.8292	-4.5479	-4.5771	-4.8562	-4.3917	-4.6521	-4.9187	-4.3146	-5.0229	-4.8229	-4.4917	-4.9771	319.673	235.798	-12.945	254.572	-9.773	269.510	277.577	288.191	183.567	24.145	268.530	191.492	172.139	284.237	137.606	272.997	0.00037993	7.2522e-05	2.9846e-05	1196.9	1.5459e-06	1.2201e-06	1252.1	255.95	6.8668e-07	9.8318e-07	318.28	89.004	71.496	20.489	8.8171e-07	28.415	2.6215e-05	2.5234e-05	6.0882e-06	1003.2	2.7656e-07	2.6627e-07	1029.1	200.72	2.8133e-07	2.66e-07	238.17	68.033	55.004	15.762	2.3763e-07	21.078	60.882	110.254	19.158	-10.095	170.987	108.329	-10.241	-3.091	118.368	109.915	-3.634	3.111	3.657	10.365	86.917	9.651	-8191	255	
647.955	1	1	0	0	0.05592	0.077747	0.059182	0.036181	0.11915	0.15436	0.08969	0.27465	0.13001	0.19202	0.11261	0.12555	0.19944	0.30258	0.29094	0.030103	-4.3167	-4.7104	-4.9167	-4.4812	-4.7521	-4.8	-4.3938	-5.0292	-4.5583	-4.5396	-5.2229	-4.4812	-4.8167	-4.9208	-4.3833	-4.9229	69.160	228.253	208.335	10.963	121.187	269.259	12.323	326.272	149.120	132.836	41.555	247.974	217.569	303.196	243.268	304.767	0.00025108	9.4927e-05	6.0605e-06	1189.8	5.7879e-07	9.9258e-07	1255.6	256.82	7.6085e-07	6.6616e-07	319.98	89.99	71.761	20.549	8.6566e-07	28.817	2.6885e-05	2.3468e-05	5.9091e-06	1003.7	2.8197e-07	2.5426e-07	1028.6	201.18	2.814e-07	2.5471e-07	238.45	68.378	55.033	15.746	2.4389e-07	21.219	39.591	68.596	53.420	-9.772	3.113	-3.002	-10.255	-3.296	112.893	31.915	-3.806	3.232	3.664	10.514	82.850	9.953	-8191	255	
648.026	1	1	0	0	0.083907	0.097869	0.072074	0.13344	0.051829	0.081623	0.22109	0.29449	0.1656	0.20277	0.034771	0.18571	0.031618	0.060952	0.037401	0.080396	-4.2229	-4.4604	-5.0354	-4.6021	-4.7458	-4.9417	-4.6188	-4.9396	-4.5833	-4.475	-4.9604	-4.4792	-4.7167	-4.8917	-4.3417	-4.8708	43.307	255.858	95.884	297.567	189.767	99.809	267.682	270.246	281.123	169.598	0.492	209.570	168.631	168.903	199.248	9.201	0.00027449	0.00024589	7.586e-05	1188.7	1.4567e-06	1.3889e-06	1253.3	255.74	3.0292e-07	9.7582e-07	318.61	89.577	71.659	20.692	8.8151e-07	28.563	2.6497e-05	2.3461e-05	5.8863e-06	1002.4	2.8167e-07	2.4521e-07	1029	201.08	2.7639e-07	2.5019e-07	238.07	68.239	54.941	15.76	2.4204e-07	21.231	49.694	37.323	48.486	-10.122	103.601	-13.698	-10.244	-2.809	90.962	190.246	-3.346	3.371	4.010	10.373	135.310	9.864	-8191	255	
648.147	1	1	0	0	0.25472	0.19915	0.062262	0.17492	0.21212	0.1527	0.17026	0.13107	0.12287	0.22886	0.051187	0.27479	0.071173	0.18503	0.12803	0.016811	-4.3667	-4.2896	-4.9729	-4.6479	-4.6083	-4.8708	-4.4771	-5.0021	-4.8229	-4.4583	-5.0354	-4.5188	-4.6396	-4.975	-4.4	-4.6521	256.085	171.754	241.651	15.746	191.122	77.968	46.731	139.377	-16.786	262.611	193.070	56.607	-14.896	14.032	96.600	54.445	0.00025951	7.232e-05	5.5989e-05	1192.5	9.9275e-07	3.6741e-07	1249.8	258.29	1.7919e-06	6.2592e-07	317.08	89.4	71.628	20.541	3.2412e-07	28.502	2.4673e-05	2.1633e-05	5.7221e-06	1004.8	2.5327e-07	2.1809e-07	1027	201.63	2.319e-07	2.1804e-07	237.57	68.055	54.768	15.683	2.1444e-07	21.109	45.547	33.348	118.714	-10.059	150.441	97.228	-10.217	-2.990	117.725	208.240	-3.369	3.551	3.889	10.706	106.515	10.033	-8191	255	
648.243	1	1	0	0	0.13736	0.27941	0.30656	0.19907	0.059149	0.31355	0.15364	0.17955	0.10156	0.10069	0.18136	0.071838	0.055402	0.17644	0.12989	0.035496	-4.5417	-4.3875	-4.9458	-4.7729	-4.7208	-4.9542	-4.5854	-4.7833	-4.9104	-4.4729	-4.9979	-4.5542	-4.5833	-4.925	-4.2146	-4.7958	19.747	27.358	311.885	290.419	325.949	106.797	169.846	288.600	201.772	225.299	337.310	172.006	316.966	228.604	1.187	123.820	0.00037446	0.00011706	2.9504e-05	1184.5	1.2048e-06	1.6056e-06	1246.1	255.95	1.6757e-06	8.3272e-07	318.08	89.309	71.512	20.654	9.7486e-07	28.444	2.0487e-05	1.8802e-05	5.2283e-06	997.6	2.189e-07	1.9224e-07	1021.2	200.09	2.1063e-07	2.0154e-07	237.54	67.796	54.599	15.659	2.37e-07	21.084	64.763	20.709	169.907	-10.171	121.878	95.321	-10.035	-3.034	133.217	186.435	-3.198	3.310	3.328	10.973	102.370	9.487	-8191	255	
648.339	1	1	0	0	0.21708	0.11028	0.069156	0.20944	0.1337	0.074042	0.24439	0.21452	0.060717	0.070791	0.37405	0.10361	0.20649	0.12201	0.084291	0.1523	-4.5271	-4.2958	-4.8042	-4.8729	-4.5021	-5.1333	-4.5167	-4.6854	-4.9	-4.3313	-5.0375	-4.725	-4.5208	-5.1312	-4.5125	-4.6146	213.475	122.692	118.497	311.705	128.788	321.840	166.016	338.753	164.028	334.379	-6.918	203.128	53.841	307.290	325.661	47.911	0.00037442	0.00012459	4.8749e-05	1187.8	7.3717e-07	2.1838e-06	1252.6	256.09	1.6774e-07	6.5045e-07	316.65	89.658	71.615	20.574	1.3234e-06	28.56	2.104e-05	1.988e-05	6.137e-06	997.72	2.3364e-07	2.0821e-07	1026.5	200.55	2.1823e-07	2.1978e-07	237.54	67.871	54.611	15.652	2.5605e-07	21.108	85.393	44.327	91.416	-10.115	117.157	120.487	-10.019	-3.090	225.400	101.048	-3.374	3.216	3.607	10.326	126.555	9.557	-8191	255	
648.435	1	1	0	0	0.27404	0.2615	0.25469	0.21589	0.16756	0.17279	0.12383	0.14884	0.20838	0.22564	0.05679	0.071179	0.087367	0.23357	0.13288	0.12337	-4.6312	-4.4333	-4.8771	-4.9771	-4.4396	-5.1417	-4.7792	-4.475	-4.9625	-4.5708	-4.9437	-4.8625	-4.475	-5.1271	-4.6646	-4.625	246.395	220.473	142.908	249.532	230.857	-1.410	313.190	60.498	122.570	-18.436	220.132	146.089	233.743	331.567	100.905	7.042	0.00034451	0.00017141	5.3694e-05	1189.9	9.0451e-07	7.4562e-07	1244.5	256.17	2.0671e-08	7.6071e-07	318.57	89.201	71.398	20.599	8.5154e-07	28.711	2.073e-05	2.0234e-05	6.3481e-06	998.37	2.2417e-07	2.211e-07	1023.1	200.4	2.1295e-07	2.3617e-07	238.53	67.737	54.549	15.703	2.6067e-07	21.153	55.928	65.492	86.143	-10.043	100.510	51.179	-9.981	-3.275	47.372	112.073	-3.348	3.442	3.807	10.815	75.680	9.709	-8191	255	
648.556	1	1	0	0	0.1885	0.29039	0.28625	0.06332	0.13772	0.15365	0.1878	0.13322	0.24999	0.14247	0.13702	0.23785	0.071391	0.24009	0.22674	0.22069	-4.6417	-4.3854	-4.7	-4.8625	-4.3583	-4.9833	-4.9187	-4.4854	-5.0563	-4.5167	-4.7688	-4.9375	-4.3396	-4.8729	-4.7146	-4.5521	161.567	48.450	167.710	3.742	164.013	71.697	318.853	309.311	293.357	263.916	202.537	-5.725	47.455	222.072	87.550	19.168	0.00038905	9.2258e-05	4.4307e-05	1186.7	1.688e-06	4.5893e-07	1246.6	255.96	1.0518e-06	8.0174e-07	317.61	89.642	71.787	20.517	8.5954e-07	28.517	2.1168e-05	2.2935e-05	6.6055e-06	998.32	2.3301e-07	2.4705e-07	1025.3	200.2	2.2167e-07	2.5919e-07	238.19	67.968	54.83	15.752	2.541e-07	21.101	66.045	33.185	71.493	-10.081	103.178	114.359	-9.941	-3.077	86.105	105.083	-3.448	3.447	3.920	10.790	45.413	10.115	-8191	255	
648.628	1	1	0	0	0.14408	0.091565	0.1851	0.23163	0.09956	0.14693	0.15748	0.12326	0.079552	0.070847	0.049389	0.13116	0.14488	0.27338	0.18596	0.058997	-4.5062	-4.4854	-4.6458	-5.0521	-4.3396	-4.9771	-4.8833	-4.4083	-4.9333	-4.5729	-4.5938	-5.1667	-4.5563	-4.7771	-4.7188	-4.4	221.893	125.267	64.395	-2.837	213.696	1.135	265.450	106.107	223.276	275.281	27.593	65.116	306.802	-8.205	73.377	274.475	0.00032714	7.8776e-05	2.6727e-05	1185.4	5.4085e-07	2.7187e-07	1250.4	256.3	1.7286e-06	9.9621e-07	318.48	88.821	71.379	20.458	3.0721e-07	28.596	2.091e-05	2.2947e-05	6.1551e-06	997.33	2.2424e-07	2.4807e-07	1024.6	200.27	2.1474e-07	2.4912e-07	237.92	67.673	54.629	15.751	2.2401e-07	21.102	60.949	90.348	116.174	-9.993	-9.623	178.303	-10.079	-2.749	101.606	101.856	-3.260	3.474	3.580	10.738	25.645	9.725	-8191	255	
648.724	1	1	0	0	0.0673	0.14997	0.077814	0.2911	0.03014	0.21151	0.081522	0.27583	0.10514	0.031913	0.16173	0.090371	0.14791	0.22491	0.15141	0.15379	-4.5708	-4.6375	-4.5396	-4.9812	-4.4167	-4.9396	-4.9563	-4.5396	-4.95	-4.6229	-4.7375	-5.0021	-4.5375	-4.8292	-4.85	-4.6917	-8.177	192.297	286.470	325.782	294.183	318.578	143.671	278.464	41.987	124.789	231.518	324.349	153.059	4.455	206.476	308.671	0.00035423	9.3905e-05	3.4871e-05	1191.4	1.0112e-06	1.0117e-06	1249.3	255.94	1.1225e-06	9.129e-07	317.59	89.083	71.5	20.623	4.6049e-07	28.714	2.1637e-05	2.2766e-05	5.7942e-06	998.54	2.3284e-07	2.4568e-07	1024.4	200.08	2.3173e-07	2.4431e-07	237.67	67.738	54.666	15.764	2.1635e-07	21.067	81.617	45.510	78.397	-10.074	137.535	90.476	-10.258	-3.096	125.623	150.903	-3.643	3.534	3.729	10.392	98.420	9.945	-8191	255	
648.820	1	1	0	0	0.10161	0.21399	0.11095	0.32187	0.075922	0.16691	0.17956	0.05367	0.40731	0.13692	0.1423	0.12806	0.23786	0.22039	0.15737	0.17286	-4.7125	-4.5896	-4.5542	-5.1562	-4.6417	-4.8042	-5.0563	-4.55	-4.8396	-4.6687	-4.5271	-4.9708	-4.6312	-4.6896	-4.9146	-4.5208	68.758	258.198	51.799	248.865	101.368	211.634	315.034	51.227	284.005	319.885	322.643	266.333	-1.113	250.035	53.563	135.231	0.00025044	6.4921e-05	3.9548e-05	1188.6	1.4058e-06	3.3415e-07	1252.9	256.45	1.0142e-06	5.7385e-07	316.44	89.821	71.732	20.492	8.3978e-07	28.49	2.284e-05	2.2055e-05	5.648e-06	997.72	2.4121e-07	2.333e-07	1025.1	200.15	2.3061e-07	2.152e-07	236.92	67.805	54.843	15.676	1.9541e-07	21.018	64.317	1.008	73.000	-10.139	172.115	85.539	-10.066	-2.913	109.070	159.460	-3.390	3.580	3.409	10.494	94.075	9.983	-8191	255	
648.916	1	1	0	0	0.11658	0.23566	0.10767	0.16937	0.18276	0.28671	0.077758	0.060143	0.10639	0.11679	0.23187	0.17502	0.082643	0.073975	0.059485	0.10979	-4.5167	-4.6896	-4.4854	-5.1792	-4.4333	-4.5396	-5.0771	-4.5896	-4.75	-4.7188	-4.4938	-4.9313	-4.6583	-4.5	-5.0437	-4.4667	51.397	227.377	270.262	308.353	213.766	119.853	103.846	27.657	305.314	14.377	52.468	25.023	84.034	59.966	92.174	183.604	0.00030902	0.00010154	5.5411e-05	1179.5	1.3468e-06	1.5793e-06	1241.5	254.99	1.3126e-06	1.0658e-06	316.37	89.104	71.66	20.488	4.5681e-07	28.626	2.1842e-05	1.8535e-05	4.9483e-06	991.93	2.2759e-07	2.0603e-07	1018.8	199.61	2.3153e-07	2.0375e-07	236.32	67.733	54.715	15.67	1.9648e-07	21.048	67.647	56.995	42.222	-10.058	161.206	51.648	-9.898	-2.898	237.873	134.832	-3.402	3.564	3.912	10.586	93.084	10.056	-8191	255	
649.035	1	1	0	0	0.044905	0.097072	0.12029	0.10207	0.085735	0.26546	0.10205	0.18623	0.21685	0.066351	0.1358	0.081748	0.033675	0.16772	0.23199	0.079997	-4.4354	-4.9688	-4.4833	-5.0854	-4.5771	-4.5667	-4.9083	-4.4812	-4.6417	-4.8875	-4.4083	-5.0104	-4.6646	-4.5563	-4.9792	-4.7417	36.918	279.326	70.512	332.462	35.830	67.869	195.400	173.160	225.977	225.560	26.601	95.484	-12.226	106.334	250.567	224.326	0.00023687	9.6348e-05	1.3403e-05	1185.7	8.6386e-07	7.4567e-07	1247	256.79	5.6316e-08	4.8555e-07	317.73	89.491	71.05	20.349	1.4153e-06	28.434	2.3326e-05	1.9303e-05	5.2789e-06	995.22	2.4138e-07	2.168e-07	1020.4	200.22	2.3375e-07	2.0549e-07	237.04	67.866	54.509	15.642	2.0105e-07	21.128	65.456	15.277	111.283	-10.150	88.843	22.144	-10.209	-2.817	123.078	22.157	-3.323	3.390	3.910	10.642	99.992	10.043	-8191	255	
649.131	1	1	0	0	0.087474	0.13937	0.10522	0.11017	0.093388	0.11704	0.13505	0.19932	0.10659	0.025853	0.12423	0.098938	0.11283	0.067033	0.23944	0.052386	-4.4083	-5.0167	-4.4854	-4.9521	-4.6479	-4.3979	-5.0667	-4.7188	-4.6813	-4.9958	-4.4042	-4.8708	-4.8708	-4.5396	-4.9833	-4.7125	19.799	251.369	69.795	311.763	212.374	224.687	299.560	-8.842	146.728	34.206	220.247	2.060	68.287	46.270	168.516	-16.298	0.00029437	2.5818e-05	4.2065e-05	1183.3	4.6436e-07	2.1735e-07	1244.5	255.22	7.4567e-07	1.0016e-06	316.35	89.048	71.614	20.379	7.0687e-07	28.543	2.2967e-05	1.9026e-05	5.3857e-06	996.59	2.355e-07	2.1495e-07	1020.3	199.89	2.2811e-07	2.0408e-07	236.43	67.862	54.62	15.66	2.2583e-07	21.144	59.933	109.118	111.836	-10.104	170.684	178.101	-10.191	-2.780	98.181	134.895	-3.201	3.648	3.736	10.854	132.001	9.744	-8191	255	
649.227	1	1	0	0	0.2373	0.23314	0.031579	0.14045	0.14721	0.065218	0.0176	0.09476	0.11188	0.094438	0.10186	0.24584	0.077339	0.26016	0.051226	0.26144	-4.3958	-4.9958	-4.3917	-5	-4.7146	-4.3438	-5.1687	-4.7125	-4.4583	-4.9896	-4.5521	-4.7167	-4.8208	-4.4146	-4.9	-4.625	256.346	232.224	23.813	289.194	51.676	252.108	2.664	-15.982	238.612	99.441	334.653	326.417	311.843	-14.335	228.989	116.853	0.00034439	4.1435e-05	3.412e-05	1182.2	1.2638e-06	1.9773e-06	1245.9	255.76	4.214e-07	1.5082e-06	317.6	89.799	71.645	20.568	1.0324e-06	28.578	2.2525e-05	1.9578e-05	5.94e-06	996.08	2.3323e-07	2.2245e-07	1022.3	199.98	2.3444e-07	2.0953e-07	237.45	68.05	54.6	15.712	2.3375e-07	21.115	59.738	131.285	97.398	-10.048	81.050	87.357	-9.965	-3.103	81.738	133.959	-3.348	3.745	3.751	10.618	131.794	10.270	-8191	255	
649.324	1	1	0	0	0.32621	0.22764	0.27996	0.074742	0.058606	0.0085942	0.10471	0.10941	0.020366	0.20925	0.073552	0.029652	0.12551	0.15997	0.068212	0.19294	-4.125	-5.15	-4.375	-4.7458	-4.9125	-4.3292	-4.8417	-4.7354	-4.4187	-5.0521	-4.7	-4.7271	-4.9146	-4.4354	-4.7479	-4.7271	319.024	124.910	249.356	236.446	307.751	-12.901	208.503	284.078	244.054	46.633	-13.531	0.421	183.939	-1.573	92.659	326.105	0.0003351	0.00015032	1.323e-05	1182.4	8.9898e-07	9.2152e-07	1244.2	255.47	1.1185e-06	1.5889e-06	316.24	89.231	71.289	20.395	2.8178e-07	28.566	2.1694e-05	1.8765e-05	6.0997e-06	994.56	2.1237e-07	2.0172e-07	1020	200.11	2.0636e-07	1.8834e-07	236.83	67.675	54.396	15.586	2.2549e-07	21.013	48.316	40.090	259.447	-9.938	153.325	89.804	-10.182	-3.400	121.295	156.779	-3.180	3.124	3.711	10.603	118.353	10.020	-8191	255	
649.420	1	1	0	0	0.1859	0.074312	0.11356	0.18799	0.062325	0.15107	0.19706	0.15445	0.12277	0.20442	0.10335	0.20048	0.098947	0.16941	0.17135	0.14224	-4.1708	-4.8083	-4.5938	-4.55	-4.8729	-4.5104	-4.9229	-4.8583	-4.4021	-5.0083	-4.6875	-4.5604	-4.9771	-4.5312	-4.8521	-4.625	288.950	195.629	324.550	303.913	257.886	246.025	331.925	137.663	-15.513	37.047	268.828	177.825	9.726	287.129	251.145	294.132	0.00025503	0.00013129	1.405e-05	1173.1	6.6291e-07	8.8294e-07	1234.5	254.96	1.3692e-06	1.5243e-06	314.91	88.899	71.134	20.308	5.5287e-07	28.584	1.9464e-05	1.7998e-05	5.8456e-06	987.96	1.9801e-07	2.0507e-07	1012.2	198.63	2.0449e-07	2.0722e-07	236.1	67.57	54.226	15.56	2.5003e-07	21.023	61.779	91.609	95.184	-10.019	226.585	113.165	-10.087	-2.840	159.640	178.312	-3.238	3.341	3.683	10.816	59.003	9.704	-8191	255	
649.516	1	1	0	0	0.087809	0.17472	0.077487	0.32113	0.019202	0.20372	0.18103	0.098046	0.089681	0.13144	0.050532	0.30023	0.15908	0.022153	0.13643	0.18159	-4.1354	-4.9042	-4.5792	-4.6333	-5.0333	-4.4417	-4.7	-4.9167	-4.3938	-4.8896	-4.6208	-4.5604	-5.0188	-4.3729	-4.7104	-4.9979	206.172	58.701	55.380	251.397	0.517	28.020	17.393	333.772	16.820	330.868	123.181	67.269	194.951	266.697	181.450	3.482	0.00032834	9.0025e-05	1.4398e-05	1178	7.6063e-07	1.8546e-06	1234.8	254.38	1.2401e-06	8.9289e-07	316.76	89.297	71.313	20.42	6.0226e-07	28.511	2.1008e-05	2.1641e-05	6.5049e-06	990.76	2.1167e-07	2.4015e-07	1015.9	199.11	2.0863e-07	2.198e-07	236.92	67.487	54.16	15.548	1.9691e-07	20.774	50.274	50.339	37.822	-9.968	201.511	130.141	-10.345	-3.040	159.827	161.321	-3.385	3.589	3.840	10.535	79.885	10.041	-8191	255	
649.636	1	1	0	0	0.31626	0.19488	0.27896	0.15752	0.10151	0.092179	0.10028	0.12459	0.14427	0.13589	0.21451	0.072856	0.039485	0.14789	0.20506	0.22184	-4	-4.8833	-4.5708	-4.6062	-5.0167	-4.6292	-4.8292	-4.9437	-4.3896	-4.8583	-4.7896	-4.4479	-4.9667	-4.4979	-4.5521	-5.1271	317.440	289.370	294.019	263.239	328.112	90.181	296.749	299.075	97.112	163.218	314.840	189.451	81.658	33.577	107.146	52.851	0.00030744	0.00015502	3.2934e-05	1162.5	7.3317e-07	1.2662e-06	1224.6	251.81	3.3486e-07	4.4942e-07	314.04	88.675	70.45	20.25	5.722e-07	28.145	1.7001e-05	1.7461e-05	4.5566e-06	973.54	1.6323e-07	1.8982e-07	1000.5	196.4	1.6722e-07	1.8667e-07	233.83	66.861	53.651	15.432	1.791e-07	20.675	62.854	80.882	6.583	-9.974	83.997	116.127	-10.113	-3.342	112.886	230.750	-3.561	3.652	4.004	10.766	94.941	10.174	-8191	255	
649.733	1	1	0	0	0.11714	0.21425	0.22717	0.11043	0.14699	0.26486	0.29666	0.10739	0.25513	0.29505	0.19224	0.13627	0.24727	0.050671	0.27689	0.069756	-4.2104	-4.9208	-4.9104	-4.5625	-4.9479	-4.6042	-4.7542	-5.0958	-4.6125	-4.8292	-4.9604	-4.4167	-5.1125	-4.6833	-4.5167	-4.9229	337.768	60.798	294.047	112.793	42.803	116.920	296.176	58.100	300.139	241.242	54.720	75.740	237.473	266.919	101.530	98.665	0.00036654	0.00018681	1.5903e-05	1159.7	1.4156e-06	3.753e-07	1221	251.97	8.1906e-07	7.4656e-07	311.29	89.279	70.654	20.167	1.1294e-06	28.389	1.6876e-05	1.751e-05	4.3803e-06	971.57	1.7209e-07	1.8781e-07	1000.1	196.15	1.74e-07	1.868e-07	233.12	66.978	53.664	15.457	1.6211e-07	20.655	40.665	7.652	336.558	-10.023	152.132	335.895	-10.001	-2.787	99.142	138.974	-3.012	3.343	3.876	10.676	127.892	9.829	-8191	255	
649.829	1	1	0	0	0.13846	0.13837	0.24744	0.087681	0.2236	0.044349	0.32497	0.050011	0.054032	0.14227	0.1349	0.2365	0.23275	0.086915	0.33102	0.14804	-4.1854	-4.575	-4.7479	-4.6292	-4.9104	-4.6875	-4.6625	-4.9938	-4.6813	-4.6958	-4.8708	-4.5292	-4.9	-4.8313	-4.3042	-5.0583	172.915	141.100	282.308	192.575	129.029	79.288	285.325	153.894	143.100	110.181	237.381	310.096	229.430	300.693	281.214	178.949	0.00026911	8.6384e-05	8.8999e-06	1153.6	1.5666e-06	4.5721e-07	1211.3	251.96	3.9397e-07	4.4975e-07	312.23	88.19	70.898	20.391	1.3008e-06	28.391	1.6626e-05	1.5733e-05	3.8245e-06	969.09	1.6876e-07	1.6729e-07	994.53	196.02	1.6722e-07	1.5884e-07	231.88	66.575	53.608	15.404	1.4816e-07	20.702	58.939	87.518	313.667	-9.930	140.193	120.553	-10.002	-2.874	129.021	100.482	-3.287	3.276	3.717	10.738	125.862	10.155	-8191	255	
649.925	1	1	0	0	0.22603	0.14389	0.17961	0.15385	0.2081	0.064685	0.18178	0.16947	0.011415	0.13487	0.11808	0.20576	0.020038	0.22101	0.088769	0.07052	-4.35	-4.8625	-4.8896	-4.5458	-5.0125	-4.8375	-4.4083	-5.0792	-4.6396	-4.6687	-5.05	-4.325	-4.7854	-4.8229	-4.35	-4.925	-7.855	1.776	19.703	251.761	202.214	291.604	316.445	37.875	34.443	230.053	292.855	298.570	297.590	158.839	106.552	-12.514	0.0002673	6.8398e-05	3.5969e-05	1154.2	1.9659e-06	3.5589e-07	1215.9	250.45	1.0191e-06	1.3387e-06	311.99	88.316	70.812	20.447	7.0149e-07	28.374	1.6808e-05	1.4793e-05	3.7784e-06	968.25	1.7498e-07	1.5811e-07	995.11	195.54	1.8342e-07	1.6484e-07	231.93	66.675	53.842	15.498	1.5714e-07	20.849	64.565	26.106	81.613	-9.933	169.368	74.705	-10.102	-3.339	99.289	101.593	-3.341	3.391	3.762	10.593	180.732	10.545	-8191	255	
#DATA ENDS
