BOXY.EXE: ISS Imagent and Oximeter Data Acquisition Program Version 0.80
Ascii Record File

#ACQ INFORMATION
2  Detector Channels 
16  External MUX Channels 
1  Auxiliary Channels 
5000  Waveform (CCF) Frequency (Hz)
1  Waveforms Skipped 
30  Waveforms Averaged 
1  Cycles Averaged 
16  Acquisitions per Waveform 
10.0806  Updata Rate (Hz) 

#FILE INFORMATION
TRUE -- External MUX Channel results are PARSED.
FALSE -- AC DC and Phase are NOT grouped.
TRUE -- Companion Program Settings File CREATED.
FALSE -- AC data not excluded
FALSE -- DC data not excluded
FALSE -- Phase data not excluded
FALSE -- Auxillary Chn. data not excluded
Tab delimiters

#CALIBRATION STATE
TRUE -- Waveform Calibration Values APPLIED.


#AUX CALIBRATION VALUES
Val Type	aux-1	

Term	1.0000e+00	
Factor	0.0000e+00	


#WF CALIBRATION VALUES
A = Detector Channel
Val Type	A-AC1	A-AC2	A-AC3	A-AC4	A-AC5	A-AC6	A-AC7	A-AC8	A-AC9	A-AC10	A-AC11	A-AC12	A-AC13	A-AC14	A-AC15	A-AC16	A-DC1	A-DC2	A-DC3	A-DC4	A-DC5	A-DC6	A-DC7	A-DC8	A-DC9	A-DC10	A-DC11	A-DC12	A-DC13	A-DC14	A-DC15	A-DC16	A-Ph1	A-Ph2	A-Ph3	A-Ph4	A-Ph5	A-Ph6	A-Ph7	A-Ph8	A-Ph9	A-Ph10	A-Ph11	A-Ph12	A-Ph13	A-Ph14	A-Ph15	A-Ph16	

Term	0.00000e+00	0.00000e+00	0.00000e+00	0.00000e+00	0.00000e+00	0.00000e+00	0.00000e+00	0.00000e+00	0.00000e+00	0.00000e+00	0.00000e+00	0.00000e+00	0.00000e+00	0.00000e+00	0.00000e+00	0.00000e+00	0.00000e+00	0.00000e+00	0.00000e+00	0.00000e+00	0.00000e+00	0.00000e+00	0.00000e+00	0.00000e+00	0.00000e+00	0.00000e+00	0.00000e+00	0.00000e+00	0.00000e+00	0.00000e+00	0.00000e+00	0.00000e+00	0.00000e+00	0.00000e+00	0.00000e+00	0.00000e+00	0.00000e+00	0.00000e+00	0.00000e+00	0.00000e+00	0.00000e+00	0.00000e+00	0.00000e+00	0.00000e+00	0.00000e+00	0.00000e+00	0.00000e+00	0.00000e+00	
Factor	1.00000e+00	1.00000e+00	1.00000e+00	1.00000e+00	1.00000e+00	1.00000e+00	1.00000e+00	1.00000e+00	1.00000e+00	1.00000e+00	1.00000e+00	1.00000e+00	1.00000e+00	1.00000e+00	1.00000e+00	1.00000e+00	1.00000e+00	1.00000e+00	1.00000e+00	1.00000e+00	1.00000e+00	1.00000e+00	1.00000e+00	1.00000e+00	1.00000e+00	1.00000e+00	1.00000e+00	1.00000e+00	1.00000e+00	1.00000e+00	1.00000e+00	1.00000e+00	X	X	X	X	X	X	X	X	X	X	X	X	X	X	X	X	

B = Detector Channel
Val Type	B-AC1	B-AC2	B-AC3	B-AC4	B-AC5	B-AC6	B-AC7	B-AC8	B-AC9	B-AC10	B-AC11	B-AC12	B-AC13	B-AC14	B-AC15	B-AC16	B-DC1	B-DC2	B-DC3	B-DC4	B-DC5	B-DC6	B-DC7	B-DC8	B-DC9	B-DC10	B-DC11	B-DC12	B-DC13	B-DC14	B-DC15	B-DC16	B-Ph1	B-Ph2	B-Ph3	B-Ph4	B-Ph5	B-Ph6	B-Ph7	B-Ph8	B-Ph9	B-Ph10	B-Ph11	B-Ph12	B-Ph13	B-Ph14	B-Ph15	B-Ph16	

Term	0.00000e+00	0.00000e+00	0.00000e+00	0.00000e+00	0.00000e+00	0.00000e+00	0.00000e+00	0.00000e+00	0.00000e+00	0.00000e+00	0.00000e+00	0.00000e+00	0.00000e+00	0.00000e+00	0.00000e+00	0.00000e+00	0.00000e+00	0.00000e+00	0.00000e+00	0.00000e+00	0.00000e+00	0.00000e+00	0.00000e+00	0.00000e+00	0.00000e+00	0.00000e+00	0.00000e+00	0.00000e+00	0.00000e+00	0.00000e+00	0.00000e+00	0.00000e+00	-7.26684e+01	-1.29267e+02	-1.24907e+02	-1.81870e+02	-5.07789e+01	-7.05107e+01	-1.57448e+02	-1.62015e+02	-4.62257e+01	-6.38428e+01	-1.71264e+02	-1.72441e+02	-1.82777e+02	-1.77174e+02	-5.93073e+01	-1.49710e+02	
Factor	1.61401e-05	1.59208e-04	4.37177e-05	1.47657e-01	1.35887e-06	1.73276e-06	1.65095e-01	4.93827e-02	1.11487e-06	1.79644e-06	7.99830e-02	3.23445e-02	3.45062e-02	8.62477e-03	1.51567e-06	1.23023e-02	1.56454e-05	4.14206e-05	1.16575e-05	7.63936e-02	3.74041e-07	4.77579e-07	8.05275e-02	2.56400e-02	3.72120e-07	4.73555e-07	4.04468e-02	1.64577e-02	1.81944e-02	4.52542e-03	4.11768e-07	6.25502e-03	X	X	X	X	X	X	X	X	X	X	X	X	X	X	X	X	



#DISTANCE SETTINGS
A = Detector Channel
A-1	A-2	A-3	A-4	A-5	A-6	A-7	A-8	A-9	A-10	A-11	A-12	A-13	A-14	A-15	A-16	

2.5000e+00	3.0000e+00	2.5000e+00	3.0000e+00	2.0000e+00	3.0000e+00	1.5000e+00	3.0000e+00	3.0000e+00	3.0000e+00	3.0000e+00	3.0000e+00	3.0000e+00	3.0000e+00	1.5000e+00	3.0000e+00	

B = Detector Channel
B-1	B-2	B-3	B-4	B-5	B-6	B-7	B-8	B-9	B-10	B-11	B-12	B-13	B-14	B-15	B-16	

1.0000e+01	1.0000e+01	1.0000e+01	1.4400e+00	1.0000e+01	1.0000e+01	1.5100e+00	1.9400e+00	1.0000e+01	1.0000e+01	1.9900e+00	2.4900e+00	2.4100e+00	2.9000e+00	1.0000e+01	2.9800e+00	




#DATA BEGINS
time	group	step	mark	flag	A-AC1	A-AC2	A-AC3	A-AC4	A-AC5	A-AC6	A-AC7	A-AC8	A-AC9	A-AC10	A-AC11	A-AC12	A-AC13	A-AC14	A-AC15	A-AC16	A-DC1	A-DC2	A-DC3	A-DC4	A-DC5	A-DC6	A-DC7	A-DC8	A-DC9	A-DC10	A-DC11	A-DC12	A-DC13	A-DC14	A-DC15	A-DC16	A-Ph1	A-Ph2	A-Ph3	A-Ph4	A-Ph5	A-Ph6	A-Ph7	A-Ph8	A-Ph9	A-Ph10	A-Ph11	A-Ph12	A-Ph13	A-Ph14	A-Ph15	A-Ph16	B-AC1	B-AC2	B-AC3	B-AC4	B-AC5	B-AC6	B-AC7	B-AC8	B-AC9	B-AC10	B-AC11	B-AC12	B-AC13	B-AC14	B-AC15	B-AC16	B-DC1	B-DC2	B-DC3	B-DC4	B-DC5	B-DC6	B-DC7	B-DC8	B-DC9	B-DC10	B-DC11	B-DC12	B-DC13	B-DC14	B-DC15	B-DC16	B-Ph1	B-Ph2	B-Ph3	B-Ph4	B-Ph5	B-Ph6	B-Ph7	B-Ph8	B-Ph9	B-Ph10	B-Ph11	B-Ph12	B-Ph13	B-Ph14	B-Ph15	B-Ph16	aux-1	digaux	

26111.871	1	1	0	256	0.19261	0.12859	0.16884	0.050402	0.050857	0.056939	0.11224	0.10321	0.1182	0.044588	0.037028	0.17987	0.066078	0.2125	0.19179	0.16609	-3.9542	-4.7479	-4.2562	-4.4375	-4.725	-4.0646	-4.7625	-4.6521	-4.0958	-4.7875	-4.3729	-4.3313	-4.7312	-4.1687	-4.4708	-4.6979	139.446	-132.477	-9.396	102.491	23.298	-90.205	145.068	136.995	-81.054	-15.780	155.781	158.204	46.561	163.334	-128.987	-170.689	0.0011227	0.0006158	0.00015988	687.9	4.7399e-06	4.3413e-06	700.95	278.82	4.8266e-06	5.3959e-06	326.66	149.39	119.79	55.288	4.1657e-06	75.986	0.01295	0.0026085	0.000742	727.52	2.2799e-05	2.9061e-05	785.13	297.26	2.5485e-05	3.0142e-05	348.69	171.8	128.67	59.464	2.9252e-05	81.543	-43.780	-77.859	-102.070	-159.635	-23.662	1.232	-161.280	-155.088	-20.549	-19.305	-156.899	-153.291	-151.203	-146.534	-11.750	-149.114	-8191	255	
26111.969	1	1	0	0	0.1706	0.039873	0.081369	0.11065	0.15168	0.23578	0.055567	0.25668	0.24824	0.13023	0.19112	0.11871	0.21478	0.35326	0.24812	0.24307	-3.6688	-4.6417	-4.5188	-4.325	-4.5771	-4.1896	-4.6604	-4.6792	-3.9979	-4.6312	-4.4854	-4.2021	-4.8167	-4.45	-4.4708	-4.8292	153.000	180.842	27.001	85.698	-123.571	109.466	48.134	95.349	168.236	94.231	124.016	-166.098	-144.068	119.935	122.277	180.009	0.00092519	0.00058829	0.00018717	688.17	3.8933e-06	6.4622e-06	694.39	278.84	6.3465e-06	4.3593e-06	328.03	150.01	119.24	55.39	3.8603e-06	76.091	0.0099378	0.0026447	0.000736	728.2	2.2574e-05	2.9937e-05	808.77	296.61	2.4522e-05	3.0514e-05	349.72	169.18	128.51	59.458	3.0158e-05	81.779	-47.360	-74.508	-89.307	-159.568	-0.820	-49.188	-160.892	-154.827	-25.385	-15.148	-157.166	-153.209	-151.084	-146.625	-52.421	-149.305	-8191	255	
26112.064	1	1	0	0	0.24356	0.15057	0.077622	0.059049	0.30792	0.25455	0.21222	0.23826	0.16237	0.10306	0.046144	0.13094	0.28074	0.27821	0.10774	0.023458	-3.6604	-4.5062	-4.3812	-4.2438	-4.7292	-4.2604	-4.4583	-4.8042	-3.9667	-4.7083	-4.6292	-4.325	-4.8417	-4.4604	-4.3562	-4.7792	-45.895	-56.584	-148.787	-29.891	-106.940	86.637	136.963	167.290	-74.047	98.327	-165.609	138.692	98.454	163.718	14.158	186.853	0.00095275	0.0010703	0.00017109	689.13	4.582e-06	5.0643e-06	697.99	279.51	4.1696e-06	6.2704e-06	327.3	150.17	119.74	55.286	2.4996e-06	75.924	0.0075378	0.012236	0.00071164	728.95	2.3219e-05	2.9604e-05	793.99	297.41	2.3829e-05	3.1611e-05	348.69	172.29	128.65	59.445	2.7989e-05	81.435	-31.171	-130.130	-80.101	-159.876	-31.998	-43.574	-160.758	-154.873	-5.173	-5.176	-156.950	-153.161	-151.125	-146.359	11.485	-149.256	-8191	255	
26112.160	1	1	0	0	0.16026	0.046384	0.12625	0.018924	0.27826	0.14007	0.12647	0.23817	0.068788	0.10506	0.25639	0.12653	0.10601	0.44647	0.17339	0.22243	-3.8604	-4.275	-4.5687	-4.1667	-4.7417	-4.3792	-4.4208	-4.9625	-4.1271	-4.3833	-4.5708	-4.2688	-4.6937	-4.5	-4.1896	-4.8375	-142.291	145.573	129.487	73.597	58.419	101.387	-150.527	139.347	-33.224	-136.400	-125.082	159.303	155.714	145.680	-109.928	132.862	0.00067636	0.00094203	0.00016638	684.51	5.2724e-06	3.7344e-06	693.78	277.93	4.4136e-06	9.5576e-06	326.32	148.51	118.86	55.115	2.7436e-06	75.439	0.0014212	0.023592	0.0006893	725.28	2.3311e-05	2.9076e-05	804.56	295.68	2.2978e-05	3.1603e-05	347.57	167.87	128.18	59.272	2.825e-05	81.246	-106.345	-128.813	-79.842	-159.818	-25.664	-43.850	-161.191	-154.858	-47.251	-27.245	-157.189	-153.102	-150.951	-146.452	-47.793	-149.079	-8191	255	
26112.258	1	1	0	0	0.1941	0.13131	0.2281	0.088394	0.18386	0.21432	0.14593	0.18125	0.14025	0.087832	0.075254	0.17367	0.066953	0.18851	0.1111	0.27513	-3.8521	-4.525	-4.6562	-4.1896	-4.5604	-4.3875	-4.3271	-4.9375	-4.1208	-4.4771	-4.8542	-4.2271	-4.7583	-4.6438	-4.0979	-4.85	30.155	175.112	-10.197	163.333	-63.335	69.458	124.160	72.446	-148.850	13.034	160.800	94.660	163.699	161.473	150.095	93.630	0.00067512	0.012082	0.00016345	684.89	4.2329e-06	6.5185e-06	693.91	276.59	4.9661e-06	4.7904e-06	326.28	148.03	119.06	54.924	5.5693e-06	75.476	0.0014224	0.033051	0.00067295	725.53	2.3458e-05	2.8537e-05	786.74	295.09	2.422e-05	3.3115e-05	347.86	164.5	132.96	59.141	2.8112e-05	81.193	-107.820	-41.053	-87.840	-159.531	-7.254	-27.521	-160.842	-155.095	-30.396	5.767	-156.942	-152.520	-151.919	-146.739	-31.403	-149.174	-8191	255	
26112.354	1	1	0	0	0.11958	0.20795	0.1346	0.31736	0.15326	0.082369	0.072668	0.066404	0.15796	0.17378	0.18636	0.19489	0.15309	0.079477	0.070928	0.18667	-3.9021	-4.3	-4.4625	-4.1146	-4.5958	-4.5854	-4.1354	-4.8792	-4.1854	-4.3708	-4.6562	-4.1687	-4.7083	-4.6188	-4.2625	-4.8438	-110.297	13.446	22.794	79.525	83.010	44.014	-82.279	63.698	-18.512	-144.313	-103.805	180.008	73.713	-122.983	185.127	122.420	0.00067977	0.0079698	0.00015365	682.18	5.3708e-06	5.2225e-06	697.37	278.61	4.0485e-06	7.4794e-06	327.11	147.23	119.29	54.767	4.094e-06	75.46	0.0014521	0.025158	0.0006918	723.5	2.7183e-05	2.9589e-05	805.58	296.38	2.4666e-05	3.2586e-05	348.52	158.53	137.69	58.913	2.8746e-05	81.455	-104.400	-37.641	-80.338	-159.677	-48.718	-36.030	-161.380	-154.940	-35.532	0.644	-156.834	-152.643	-151.732	-146.492	-30.745	-149.121	-8191	255	
26112.475	1	1	0	0	0.1628	0.22504	0.17292	0.49049	0.21062	0.19167	0.056866	0.13133	0.062728	0.15552	0.1549	0.21018	0.25141	0.083768	0.076342	0.18353	-3.875	-4.3083	-4.8542	-4.2479	-4.3417	-4.5625	-4.2354	-4.7146	-4.3104	-4.1042	-4.8771	-4.4021	-4.3729	-4.7125	-4.1521	-4.6937	100.153	-30.788	125.670	160.951	-94.222	76.271	-52.556	149.419	76.944	35.645	76.856	137.844	-70.144	-157.002	-170.978	45.072	0.00067285	0.010209	0.00013525	685.05	7.2604e-06	5.4647e-06	699.51	279.2	3.376e-06	5.703e-06	328.58	147.64	120.04	54.92	4.0308e-06	75.881	0.0014931	0.033338	0.00071203	724.97	2.6842e-05	2.9859e-05	792.41	297.69	2.5095e-05	3.2852e-05	350.02	158.96	141.53	58.972	2.8414e-05	81.624	-106.739	-32.082	-75.759	-159.321	-49.019	-26.520	-160.821	-155.000	-26.671	18.686	-156.945	-152.674	-151.807	-146.653	-39.706	-149.197	-8191	255	
26112.570	1	1	0	0	0.14323	0.085922	0.11712	0.30408	0.14353	0.25466	0.096553	0.078422	0.081052	0.1381	0.26072	0.028834	0.034262	0.38511	0.056759	0.14303	-4.0625	-4.1687	-4.6708	-4.1125	-4.2812	-4.5771	-4.1146	-4.7063	-4.4708	-4.0437	-4.7667	-4.3042	-4.2229	-4.8333	-4.2021	-4.6042	-102.036	-124.775	-145.944	113.326	51.626	118.613	-22.359	-50.628	-72.657	-14.407	133.452	108.330	-72.643	163.706	-1.006	133.066	0.00068058	0.0075669	0.00014674	684.22	4.1634e-06	4.5912e-06	699.02	278.69	3.2408e-06	4.5168e-06	325.63	147.99	119.97	54.652	4.1553e-06	75.635	0.0015168	0.025241	0.0007487	725.6	2.8154e-05	2.9307e-05	774.32	304.89	2.4483e-05	3.1888e-05	348.45	158.66	137.54	58.902	2.8012e-05	81.344	-107.764	-23.032	-84.418	-159.276	-36.658	-9.748	-160.412	-155.647	-28.566	-17.819	-156.738	-152.593	-151.402	-146.608	-24.340	-149.091	-8191	255	
26112.664	1	1	0	0	0.27739	0.18767	0.21275	0.14935	0.14745	0.35762	0.22499	0.093533	0.038104	0.2405	0.18417	0.14074	0.14678	0.099257	0.16372	0.24764	-4.15	-4.0271	-4.5708	-4.4583	-4.2896	-4.8917	-4.1813	-4.5604	-4.5875	-4.1229	-4.7896	-4.2562	-4.2979	-4.8396	-4.1042	-4.6354	-43.065	-19.119	5.219	-149.309	162.091	102.546	158.459	129.571	14.165	-112.548	91.457	129.682	185.302	158.550	131.945	180.562	0.00065776	0.0096366	0.00012491	682.58	5.8411e-06	3.4639e-06	698.38	276.83	5.9858e-06	6.1128e-06	325.24	146.46	119.67	54.802	5.8643e-06	75.71	0.0014849	0.033295	0.00076566	723.68	2.6116e-05	2.9176e-05	742.39	310.05	2.4194e-05	3.2186e-05	346.66	157.7	140.77	58.747	2.7889e-05	81.303	-106.124	-12.918	-86.275	-159.567	-25.282	-12.924	-160.797	-155.267	-37.904	-12.678	-156.925	-152.440	-151.446	-146.342	-45.572	-149.072	-8191	255	
26112.762	1	1	0	0	0.12687	0.14513	0.10614	0.09312	0.11741	0.17292	0.045295	0.26781	0.41247	0.17403	0.04687	0.27619	0.029772	0.2257	0.11143	0.094333	-4.0646	-3.75	-4.7917	-4.4667	-4.0875	-4.6542	-4.225	-4.5563	-4.5583	-4.0146	-4.575	-4.5542	-4.2979	-4.7854	-4.1854	-4.5896	170.794	-146.559	162.520	-161.284	-74.802	16.478	156.713	76.344	45.803	56.838	123.922	157.699	153.783	174.563	-165.752	140.592	0.00069359	0.007321	0.00012627	683.12	5.241e-06	2.8144e-06	701.17	274.78	4.3185e-06	5.7429e-06	324.1	146.7	119.72	54.835	3.9337e-06	75.883	0.0014617	0.025069	0.00078326	724.36	2.7138e-05	2.9577e-05	743.34	314.46	2.3386e-05	3.133e-05	345.78	157.59	137.07	58.901	2.7218e-05	81.557	-107.170	-10.202	-56.986	-159.456	-20.798	-38.137	-160.608	-155.454	-38.126	-15.940	-156.758	-152.541	-151.254	-146.547	-51.323	-149.104	-8191	255	
26112.857	1	1	0	0	0.11486	0.094207	0.17493	0.2843	0.12305	0.05437	0.072277	0.17353	0.21456	0.078286	0.25439	0.31927	0.11265	0.2522	0.086414	0.19354	-4.4083	-4.0188	-4.4771	-4.6271	-4.1625	-4.8417	-4.3354	-4.4833	-4.8	-4.2021	-4.6875	-4.4583	-4.2312	-4.8646	-4.3104	-4.3625	-42.682	-84.707	-107.583	-167.991	75.618	-18.092	-144.547	110.165	-28.388	-37.825	118.427	-133.220	166.904	-160.945	-136.500	65.752	0.00066275	0.01144	0.0010465	684.06	5.7597e-06	4.9489e-06	702.21	275.16	4.7436e-06	3.5178e-06	325.66	147.04	120.56	54.898	4.5453e-06	75.88	0.0014419	0.014925	0.0046572	724.89	2.4966e-05	3.0585e-05	744.09	308.83	2.3541e-05	2.9927e-05	346.75	158.18	141.1	59.058	2.7355e-05	81.662	-106.968	-24.398	100.300	-159.726	-22.807	-33.621	-160.501	-155.494	-34.005	-30.561	-157.078	-152.512	-151.553	-146.621	-39.284	-149.034	-8191	255	
26112.953	1	1	0	0	0.07995	0.22451	0.097697	0.33754	0.15608	0.087015	0.23356	0.11236	0.079272	0.12049	0.31752	0.12442	0.18222	0.10077	0.068764	0.26867	-4.4771	-4.0729	-4.4542	-4.6208	-4.075	-4.6667	-4.4333	-4.1875	-4.5854	-4.2146	-4.6333	-4.7937	-4.2146	-4.7438	-4.4729	-4.4187	-25.500	41.464	-41.360	140.219	174.663	24.435	83.857	156.648	16.438	-32.879	-134.285	173.734	55.184	-150.624	123.992	104.708	0.00067318	0.0005819	0.0021827	687.47	6.315e-06	6.0948e-06	705.9	275.47	4.0192e-06	6.5555e-06	326.77	148.18	119.5	55.1	4.9594e-06	76.412	0.0014394	0.0026828	0.0071422	726.98	2.6043e-05	3.1337e-05	747.61	314.25	2.302e-05	3.0132e-05	348.13	158.74	137.47	59.213	2.6557e-05	82.131	-107.923	-82.404	4.541	-159.551	-20.609	-31.370	-160.740	-155.610	-27.421	-5.586	-156.928	-152.469	-150.593	-146.401	-36.785	-149.127	-8191	255	
26113.049	1	1	0	0	0.25199	0.16084	0.19756	0.18906	0.038096	0.28224	0.16179	0.15076	0.13487	0.081023	0.072048	0.10348	0.091505	0.074651	0.25911	0.3146	-4.4646	-4.2188	-4.3896	-4.7083	-4.1229	-4.7167	-4.5292	-4.2521	-4.7708	-4.3542	-4.4729	-4.7188	-4.2604	-4.8104	-4.4604	-4.3542	123.298	115.789	183.532	-165.749	119.488	-90.186	30.657	164.057	141.894	161.899	174.916	-139.359	22.440	124.687	48.810	126.613	0.00064343	0.00031441	0.0028619	687.51	6.8865e-06	6.1394e-06	707.84	275.96	5.6559e-06	7.0785e-06	327.78	147.85	120.67	55.243	4.9233e-06	76.162	0.0014462	0.0026312	0.0094267	727.45	2.4496e-05	3.0526e-05	748.96	309.61	2.4178e-05	2.9414e-05	348.44	158.78	132.82	61.026	2.5535e-05	81.968	-106.873	-69.119	13.344	-159.603	-15.890	-41.482	-160.817	-155.224	-37.249	-12.291	-157.002	-152.584	-150.546	-146.865	-37.397	-149.082	-8191	255	
26113.170	1	1	0	0	0.10215	0.04542	0.085521	0.081281	0.13442	0.20263	0.078679	0.37624	0.17528	0.090901	0.18079	0.17954	0.29098	0.19886	0.23565	0.17547	-4.5208	-4.3667	-4.3542	-4.8	-4.0417	-4.625	-4.5417	-4.1979	-4.8083	-4.4333	-4.3688	-4.8812	-4.3083	-4.5146	-4.6542	-4.3792	68.715	-92.420	123.521	66.507	132.650	153.561	-43.427	108.338	99.331	153.343	157.876	178.516	159.319	138.949	123.032	96.058	0.00071515	0.00049738	0.0020051	685.53	3.9151e-06	6.2649e-06	702.31	276.07	3.447e-06	7.0119e-06	323.72	146.29	117.48	55.115	3.5385e-06	76.094	0.0014549	0.002594	0.007085	725.56	2.3938e-05	3.252e-05	745	313.77	2.5244e-05	2.9722e-05	345.49	157.41	126.65	61.602	2.5338e-05	81.706	-108.151	-65.643	13.745	-159.686	-1.754	-25.408	-160.847	-155.431	-47.515	-10.010	-156.855	-152.493	-151.021	-146.473	-7.938	-149.274	-8191	255	
26113.266	1	1	0	0	0.14171	0.032402	0.15194	0.11604	0.10277	0.082557	0.18115	0.27962	0.15608	0.16262	0.10562	0.25437	0.039356	0.21534	0.075507	0.1052	-4.4729	-4.3292	-4.1458	-4.8396	-4.1604	-4.3979	-4.8542	-4.1542	-4.6042	-4.6562	-4.2833	-4.7875	-4.3146	-4.4688	-4.7063	-4.3208	-78.475	-131.989	-168.274	103.701	-159.210	-135.953	110.956	114.776	63.324	-9.314	-55.882	128.403	-88.342	-168.375	-168.231	129.835	0.00069733	0.00060932	0.0029124	686.05	5.6471e-06	6.1917e-06	702.76	274.16	5.2536e-06	3.4465e-06	322.91	146.34	117.32	55.459	4.8021e-06	75.987	0.0015297	0.0026091	0.0094151	724.57	2.4218e-05	3.2719e-05	743.96	306.65	2.5405e-05	2.895e-05	345.14	157.56	126.62	62.474	2.4675e-05	81.802	-107.867	-84.397	28.032	-159.605	0.866	-24.046	-160.724	-154.833	-32.844	-13.259	-156.732	-152.398	-151.037	-146.534	-36.188	-149.156	-8191	255	
26113.338	1	1	0	0	0.21539	0.060296	0.24193	0.1061	0.38556	0.2409	0.19728	0.24107	0.16824	0.079255	0.21405	0.16148	0.34841	0.31781	0.074017	0.15889	-4.4229	-4.4354	-4.2562	-5.0708	-4.2125	-4.2979	-4.6833	-4.2042	-4.6167	-4.4958	-4.125	-4.8729	-4.5062	-4.4604	-4.7875	-4.2979	179.054	3.231	75.033	59.109	10.752	-129.027	100.948	123.692	79.791	163.018	136.727	111.797	-110.391	175.511	94.030	128.472	0.00069174	0.00068207	0.002006	684.01	4.3776e-06	7.527e-06	707.35	274.68	7.5664e-05	4.5484e-06	325.1	147.32	117.91	55.545	4.6243e-06	76.082	0.0015199	0.0025401	0.0070903	725.03	2.4446e-05	3.297e-05	747.15	299.32	0.00017476	2.7922e-05	346.98	158.25	127.03	61.804	2.5922e-05	82.013	-106.560	-75.854	30.875	-159.658	11.399	-32.947	-160.732	-154.923	-117.215	-18.453	-157.109	-152.622	-150.906	-146.420	-48.064	-149.022	-8191	255	
26113.434	1	1	0	0	0.025989	0.085076	0.2646	0.12654	0.079238	0.19595	0.04192	0.26032	0.17293	0.2238	0.26594	0.22376	0.31639	0.19393	0.083026	0.21342	-4.3938	-4.6	-4.1958	-4.8688	-4.3479	-4.3812	-4.8083	-4.2604	-4.6	-4.5896	-4.2292	-4.7854	-4.3979	-4.4292	-4.8	-4.3167	11.180	-0.193	30.112	178.993	-56.526	155.339	30.598	109.544	-61.847	115.930	15.561	-155.663	157.318	131.121	106.685	126.516	0.00068424	0.00036511	0.0027985	686.52	2.6435e-06	8.2577e-06	709.92	275.69	5.6973e-05	6.0429e-06	325.05	147.77	118.13	56.002	3.5724e-06	76.567	0.0015875	0.0024994	0.0093639	727.5	2.4073e-05	3.1718e-05	749.54	293.69	0.00023015	2.8245e-05	347.09	158.85	127.42	62.939	2.6305e-05	82.331	-106.986	-68.115	39.888	-159.698	21.077	-27.266	-160.508	-154.914	-116.508	-37.452	-156.891	-152.322	-151.025	-146.099	-34.347	-149.005	-8191	255	
26113.555	1	1	0	0	0.21184	0.12599	0.266	0.17347	0.12675	0.2168	0.055597	0.44943	0.042483	0.078905	0.20606	0.15394	0.21899	0.14729	0.15069	0.309	-4.275	-4.5854	-4.025	-4.7833	-4.4062	-4.3896	-4.8729	-4.3104	-4.5417	-4.7312	-4.0979	-4.7292	-4.5083	-4.3271	-4.7521	-4.3938	107.309	-110.059	155.655	46.011	136.335	-98.065	110.843	153.192	161.668	-167.833	115.410	142.720	-57.900	127.835	58.041	-171.782	0.00069411	0.00061591	0.0020849	687.98	4.9174e-06	6.0361e-06	709.66	275.7	7.1368e-05	6.7466e-06	324.95	147.22	117.89	55.57	5.417e-06	76.561	0.001554	0.002477	0.0064477	729.49	2.3478e-05	3.1984e-05	750.95	294.01	0.00030136	2.8002e-05	347.85	158.59	127.13	61.899	2.7821e-05	82.089	-106.713	-79.606	-0.922	-159.623	-3.735	-13.626	-160.854	-155.040	-107.462	-33.780	-156.792	-152.491	-150.859	-146.103	-30.055	-149.147	-8191	255	
26113.650	1	1	0	0	0.07593	0.066983	0.060271	0.098456	0.2521	0.082179	0.10368	0.099746	0.24221	0.16205	0.14517	0.065611	0.16152	0.2445	0.07075	0.11328	-4.0687	-4.6896	-3.9625	-4.6604	-4.5875	-4.1625	-4.8458	-4.3667	-4.3833	-4.7833	-4.3125	-4.6708	-4.5333	-4.2708	-4.7583	-4.4667	-87.052	-119.117	103.095	65.844	104.299	-61.411	55.551	-120.115	56.166	17.691	-128.412	108.369	-137.812	119.171	63.206	45.868	0.00069679	0.00066312	0.0026937	681.34	6.3398e-06	6.8363e-06	705.49	275.18	5.6211e-05	4.163e-06	324.46	146.99	118.13	55.493	7.4448e-06	76.134	0.001588	0.0025321	0.0030565	761.32	2.2999e-05	3.1472e-05	747.36	292.73	0.00022804	2.8928e-05	345.56	158.01	126.87	62.624	2.7501e-05	81.716	-106.955	-72.978	2.596	-160.020	-13.856	-29.091	-160.576	-155.065	-99.238	-20.181	-156.946	-152.495	-150.927	-146.077	-12.424	-149.169	-8191	255	
26113.746	1	1	0	0	0.029817	0.15722	0.13573	0.2282	0.19029	0.1382	0.21685	0.1958	0.058625	0.073901	0.17403	0.18395	0.020357	0.15594	0.065303	0.19331	-3.9833	-4.7937	-4.3438	-4.7479	-4.4896	-4.0417	-4.7854	-4.5667	-4.3271	-4.9354	-4.3167	-4.6917	-4.7167	-4.4187	-4.4146	-4.6438	-105.827	-115.753	157.866	78.943	18.610	-115.501	-170.101	-10.716	13.580	-133.781	-141.219	169.367	29.411	41.212	129.124	89.736	0.00070139	0.00052387	0.0001578	680.35	2.4579e-06	6.0682e-06	705.53	273.78	6.5702e-05	4.0344e-06	322.59	146.16	117.34	55.203	1.6602e-05	76.13	0.0015162	0.0025765	0.0007498	770.92	2.2905e-05	3.288e-05	747.6	292.15	0.00030142	2.9537e-05	344.62	157.28	126.67	61.224	2.976e-05	81.827	-107.341	-91.193	-78.219	-159.513	-23.401	-49.712	-160.696	-154.953	-93.936	-19.034	-157.124	-152.573	-150.924	-146.341	-58.251	-149.180	-8191	255	
26113.865	1	1	0	0	0.091904	0.31996	0.10485	0.059151	0.13491	0.13247	0.18753	0.22667	0.26444	0.10325	0.035592	0.18747	0.089082	0.15833	0.04831	0.066778	-3.8667	-4.5833	-4.1375	-4.4625	-4.5854	-4.1583	-4.7438	-4.65	-4.2438	-4.7104	-4.3229	-4.3979	-4.8917	-4.3083	-4.4646	-4.7396	141.413	-27.000	92.232	151.712	-104.676	-137.766	26.035	141.427	-55.462	176.709	29.872	140.403	86.948	72.665	-63.292	83.310	0.00072	0.00053151	0.0001746	677.5	3.7005e-06	3.5219e-06	704.28	273.79	5.4657e-05	6.7431e-06	321.6	145.78	117.78	55.091	1.7363e-05	75.658	0.0015617	0.0026789	0.00075062	785.63	2.3464e-05	3.1881e-05	745.97	291.01	0.00022883	3.1789e-05	343.42	156.96	126.3	59.628	0.00022108	81.588	-107.451	-93.540	-65.581	-159.446	-24.655	-24.527	-160.740	-154.900	-85.846	-40.822	-156.921	-152.383	-150.919	-145.876	-70.944	-149.184	-8191	255	
26113.961	1	1	0	0	0.10101	0.17418	0.16881	0.24202	0.27756	0.15778	0.16538	0.13302	0.18363	0.044277	0.27082	0.22745	0.081902	0.18492	0.11794	0.10284	-3.7083	-4.6729	-4.3562	-4.3167	-4.6813	-4.1667	-4.4979	-4.6521	-4.0771	-4.6771	-4.3354	-4.3396	-4.7125	-4.3125	-4.4667	-4.7771	-89.017	56.847	-169.172	110.406	-101.366	70.570	150.160	171.486	182.943	-135.626	58.876	142.344	-160.080	103.455	-2.357	146.138	0.00067812	0.00049888	0.00010638	679.53	4.7126e-06	5.9098e-06	704.92	272.55	7.2209e-05	4.927e-06	323.38	146.4	116.99	54.726	7.2692e-05	76.084	0.0015894	0.0027909	0.00075939	771.5	2.4574e-05	3.2247e-05	747.77	290.38	0.00030132	3.2511e-05	344.09	157.29	126.17	58.857	0.00025488	81.802	-104.930	-92.395	-84.578	-159.593	-13.063	6.641	-160.800	-154.890	-84.413	-41.520	-157.030	-152.543	-150.886	-146.445	22.051	-148.892	-8191	255	
26114.033	1	1	0	0	0.12358	0.046443	0.023082	0.12248	0.15803	0.19123	0.22127	0.070833	0.045892	0.096489	0.24024	0.12989	0.043304	0.12383	0.25393	0.23177	-3.6958	-4.7021	-4.475	-4.2104	-4.8479	-4.1562	-4.6167	-4.8292	-4.0813	-4.9021	-4.6021	-4.2271	-4.85	-4.2396	-4.4708	-4.7688	127.281	-156.878	171.822	-148.577	170.124	10.927	90.071	163.695	-169.284	-106.497	83.235	119.162	14.082	-137.177	-67.243	166.072	0.00071327	0.00068277	0.00011584	678.6	2.859e-06	5.5705e-06	709.09	270.9	1.5317e-05	8.0056e-05	322.02	145.67	116.47	54.34	0.00010524	75.701	0.0016475	0.0028814	0.0007429	785.12	2.5409e-05	3.2034e-05	748.32	288.83	0.00018917	4.6173e-05	342.09	156.35	125.14	58.469	0.00033413	81.391	-105.652	-110.571	-92.414	-159.659	-27.628	-13.554	-160.576	-154.886	-12.406	-107.792	-157.058	-152.309	-150.915	-146.518	29.985	-149.215	-8191	255	
26114.154	1	1	0	0	0.12616	0.29618	0.2274	0.19151	0.17935	0.10063	0.23403	0.4284	0.25462	0.164	0.21652	0.20325	0.080948	0.32343	0.32827	0.027029	-3.6708	-4.5458	-4.5104	-4.2479	-4.6854	-4.3604	-4.525	-4.8417	-4.2604	-4.5938	-4.8667	-4.2396	-4.75	-4.5375	-4.2083	-4.7521	133.116	79.312	-167.421	-167.000	154.098	94.738	154.173	101.185	99.062	-88.751	175.533	-6.559	-63.644	160.130	149.328	-34.163	0.0006942	0.00062023	7.8337e-05	676.66	2.1694e-06	4.6038e-06	700.35	269.48	3.0352e-05	9.8261e-05	317.85	144.17	116.13	54.294	7.6337e-05	75.376	0.0015753	0.0029495	0.00074963	767.1	2.5995e-05	3.2077e-05	743.6	287.02	7.4525e-05	0.00026779	339.02	155.23	124.95	58.311	0.00025217	81.066	-107.678	-110.477	-56.336	-159.677	-35.581	-19.856	-160.735	-154.756	-8.286	-107.630	-156.862	-152.444	-150.844	-146.599	30.978	-149.050	-8191	255	
26114.250	1	1	0	0	0.24568	0.16992	0.18625	0.097692	0.12241	0.057916	0.24439	0.12063	0.34395	0.18056	0.067853	0.020374	0.059917	0.082714	0.24581	0.046347	-3.8729	-4.4417	-4.5854	-4.2417	-4.725	-4.3792	-4.1917	-4.8542	-4.2667	-4.5292	-4.6667	-4.1771	-4.6937	-4.4437	-4.2979	-4.9458	56.299	42.697	-111.185	-5.679	-75.465	11.949	103.266	113.657	161.794	-71.400	-119.984	52.366	126.248	-166.211	34.895	133.614	0.00068806	0.00068747	0.00013311	675.96	3.8427e-06	5.6263e-06	700.37	267.69	5.1755e-06	8.8502e-05	317.66	143.63	115.48	54.126	0.00010127	75.293	0.0015568	0.0030398	0.00074363	782.3	2.6705e-05	3.0859e-05	741.69	285.12	2.6193e-05	0.00029158	337.49	154.91	124.56	58.254	0.00033331	81.077	-106.890	-117.450	-104.217	-159.813	10.039	7.278	-160.453	-154.859	-30.552	-81.870	-156.890	-152.456	-150.771	-146.511	42.593	-148.944	-8191	255	
26114.346	1	1	0	0	0.075863	0.19724	0.14791	0.1052	0.3015	0.13223	0.029831	0.14154	0.11258	0.18914	0.15686	0.22245	0.022903	0.19868	0.28339	0.16674	-3.8854	-4.4062	-4.7875	-4.2562	-4.6979	-4.4083	-4.2271	-5.0083	-4.2146	-4.4667	-4.8208	-4.0542	-4.8292	-4.6542	-4.2063	-4.7354	-36.553	174.378	-11.527	104.359	165.819	-5.587	134.396	110.955	176.589	-3.503	-144.564	142.244	11.124	-65.127	162.199	-20.001	0.00065575	0.0004853	0.0001714	678.11	6.3924e-05	4.2335e-06	698.62	267.01	3.9522e-06	0.00011751	316.4	144.16	115.61	54.144	7.3328e-05	75.757	0.0015408	0.0029671	0.00076148	753.73	4.6246e-05	3.0754e-05	741.38	284.79	2.5926e-05	0.00038534	337.66	154.99	124.62	58.292	0.00025584	81.249	-108.855	-87.432	-95.853	-159.078	-143.202	-33.872	-160.519	-154.790	-12.934	-73.150	-156.986	-152.287	-150.846	-146.230	49.192	-148.907	-8191	255	
26114.467	1	1	0	0	0.15247	0.07132	0.047676	0.19331	0.27861	0.16456	0.10846	0.085329	0.27093	0.10136	0.097683	0.19568	0.068759	0.12451	0.19846	0.096473	-4.0417	-4.2917	-4.6062	-4.2583	-4.6396	-4.6375	-4.1896	-4.7667	-4.2208	-4.2042	-4.9083	-4.3021	-4.6083	-4.7646	-4.0479	-4.8021	42.439	-109.946	86.845	-171.938	-43.389	166.216	-119.056	-79.745	-135.408	146.845	151.177	116.522	-170.498	-154.052	25.750	165.013	0.00069419	0.00066264	0.00011263	677.21	8.6083e-05	4.947e-06	696.81	266.31	5.2166e-06	9.3902e-05	317.51	144.57	115.62	54.101	9.9058e-05	75.454	0.0015362	0.0031124	0.00078584	730.2	0.00022578	3.1354e-05	742.87	284.5	2.5862e-05	0.00029269	338.48	155.32	124.86	58.264	0.00033622	81.286	-107.622	-92.989	-84.988	-158.981	-141.970	-38.006	-160.473	-154.988	-13.069	-63.107	-156.993	-152.297	-150.877	-146.503	51.039	-148.915	-8191	255	
26114.562	1	1	0	0	0.18788	0.10437	0.1414	0.065576	0.14837	0.077129	0.37399	0.12377	0.36073	0.064404	0.10785	0.20982	0.13715	0.096497	0.11739	0.15892	-4.1062	-4.0958	-4.6583	-4.2229	-4.4771	-4.5667	-4.2354	-4.8271	-4.2688	-4.1188	-4.9833	-4.2896	-4.4896	-4.8125	-4.2417	-4.7896	109.121	-114.128	142.516	108.665	77.799	154.505	98.798	-6.371	177.421	-5.117	-123.276	-103.193	144.550	56.532	-54.424	39.001	0.0006824	0.00060798	0.00021407	685.29	6.4808e-05	4.1068e-06	702.61	267.25	3.8297e-06	0.00012088	317.06	145.3	115.97	54.187	8.6887e-05	75.445	0.0015428	0.0030068	0.00081097	724.35	0.00023127	3.1609e-05	745.39	284.91	2.5814e-05	0.00038587	338.75	155.6	124.81	58.326	0.00019056	81.812	-105.080	-94.487	-86.740	-159.630	-168.351	-23.253	-160.927	-154.865	-29.782	-67.924	-156.916	-152.598	-150.862	-146.241	39.412	-149.202	-8191	255	
26114.635	1	1	0	0	0.18596	0.26407	0.12328	0.12137	0.24894	0.10953	0.12531	0.030083	0.062114	0.059502	0.074298	0.26721	0.086468	0.049798	0.14105	0.11727	-4.0979	-4.1979	-4.7312	-4.4	-4.3146	-4.7083	-4.2583	-4.6875	-4.6167	-4.0667	-4.825	-4.4458	-4.5458	-4.8292	-4.1312	-4.6083	-107.942	-40.129	-169.014	112.913	-97.010	-60.732	52.506	149.517	-55.365	93.247	-138.885	184.550	-21.521	171.123	-142.945	176.009	0.00067084	0.0006112	0.00012847	680.41	8.7651e-05	6.9382e-06	699.85	265.49	4.639e-06	9.4033e-05	314.97	143.37	115.58	54.027	0.00011032	74.981	0.0015228	0.0031177	0.00083665	720.65	0.00030456	3.2449e-05	742.66	283.32	2.5242e-05	0.00029386	336.67	154.44	124.27	58.083	5.5272e-05	84.568	-106.327	-82.018	-60.354	-159.579	-169.726	-37.993	-160.642	-154.730	-27.778	-55.220	-157.010	-152.321	-150.980	-146.378	44.418	-149.420	-8191	255	
26114.730	1	1	0	0	0.074068	0.16403	0.031245	0.13548	0.06646	0.10127	0.30092	0.10364	0.14006	0.077601	0.13332	0.16028	0.070824	0.21344	0.17739	0.25538	-4.3438	-4.1292	-4.8187	-4.5208	-4.3146	-4.7562	-4.475	-4.5854	-4.5396	-4.0437	-4.8292	-4.4646	-4.4208	-4.8729	-4.1062	-4.6229	-166.421	120.705	-17.789	177.133	-136.168	157.677	131.093	36.686	145.937	-5.336	-24.578	96.351	-40.104	166.694	-142.796	146.324	0.00069042	0.00056069	0.00011886	681.18	6.3996e-05	4.9493e-06	698.28	265.32	5.2207e-06	0.00012146	315.17	143.94	115.26	54.304	5.6815e-06	74.725	0.0015246	0.0030956	0.00082545	720.32	0.00023036	3.3325e-05	741.06	283.4	2.5569e-05	0.00038519	335.9	154.6	124.45	58.292	2.9878e-05	84.625	-107.733	-89.813	-67.493	-159.727	-152.916	-26.807	-160.720	-154.864	-1.577	-49.827	-157.018	-152.407	-151.150	-146.529	-47.216	-148.716	-8191	255	
26114.850	1	1	0	0	0.094626	0.2256	0.15015	0.16109	0.15965	0.26823	0.10859	0.036918	0.19627	0.050636	0.022422	0.19605	0.088652	0.24575	0.061778	0.076632	-4.1917	-4.1417	-4.8	-4.4333	-4.1271	-4.7792	-4.3979	-4.5958	-4.5792	-4.1833	-4.6562	-4.5208	-4.2354	-4.8729	-4.1854	-4.6	-136.573	57.000	-52.718	101.571	19.596	91.305	130.396	-162.266	-117.492	96.275	173.791	135.166	-166.236	39.553	-156.137	-153.575	0.00067953	0.00046402	0.00018986	681.46	8.1272e-05	3.9352e-06	700.95	265.75	5.1891e-06	5.9952e-05	316.75	143.98	115.74	54.343	2.3706e-06	75.174	0.0015449	0.0031851	0.00082895	722.76	0.00030613	3.3189e-05	741.86	283.61	2.6611e-05	0.00020636	340.92	154.71	124.7	58.348	2.918e-05	86.148	-106.216	-48.250	-65.082	-159.567	-153.822	-33.266	-160.482	-154.878	-44.866	-8.563	-157.155	-152.421	-151.021	-146.400	-19.388	-148.736	-8191	255	
26114.945	1	1	0	0	0.1444	0.22423	0.065635	0.18403	0.035449	0.24114	0.23479	0.2827	0.20726	0.20736	0.20686	0.02843	0.04454	0.32927	0.27175	0.28817	-4.3958	-4.1521	-4.6708	-4.5563	-4.2312	-4.8958	-4.5	-4.6396	-4.6854	-4.0479	-4.5042	-4.7688	-4.1979	-4.9	-4.4104	-4.3042	173.990	168.077	-63.169	132.972	161.135	-25.632	77.660	95.583	-91.039	86.474	157.425	146.079	-166.295	184.094	174.475	104.001	0.00068748	0.00053112	8.8039e-05	680.31	5.5725e-05	7.349e-06	698.97	265.25	4.2622e-06	9.3716e-05	317.35	143.62	115.7	54.24	6.88e-06	75.347	0.0015861	0.0030506	0.00084364	721.52	0.00023067	3.3806e-05	742.58	282.98	2.6804e-05	4.6741e-05	361.49	154.57	124.73	58.33	2.851e-05	85.013	-110.222	-83.463	-48.923	-159.741	-143.127	-58.677	-160.786	-154.676	-19.821	-6.063	-157.161	-152.505	-150.828	-146.506	-23.869	-148.773	-8191	255	
26115.043	1	1	0	0	0.14282	0.089177	0.11393	0.22426	0.13584	0.24404	0.1608	0.07454	0.012358	0.18548	0.18219	0.1092	0.31833	0.32688	0.15387	0.14749	-4.4104	-4.1333	-4.4938	-4.5854	-4.0729	-4.6292	-4.5396	-4.3729	-4.8271	-4.1354	-4.5958	-4.7	-4.1229	-4.7417	-4.5167	-4.4021	44.880	-101.963	120.748	92.515	-22.895	-33.051	-141.327	82.497	-60.823	-87.123	127.518	57.990	143.725	112.359	-139.348	55.908	0.00066978	0.00031176	0.00017654	681.68	8.9963e-05	4.6744e-06	700.58	265.32	4.2307e-06	4.6591e-06	319.94	144.1	115.36	54.147	5.4403e-06	74.802	0.0015774	0.0029351	0.00087577	722.32	0.00030619	3.3955e-05	743.74	282.86	2.7166e-05	3.2942e-05	360.35	155.1	124.6	58.32	2.8744e-05	86.173	-106.233	-106.549	-85.800	-159.557	-136.222	-41.737	-160.572	-154.724	-21.896	-26.325	-156.722	-152.641	-150.922	-146.365	-29.197	-148.766	-8191	255	
26115.139	1	1	0	0	0.066027	0.094339	0.061314	0.21164	0.25859	0.15003	0.26348	0.23823	0.07069	0.19161	0.17117	0.14503	0.021039	0.39287	0.17075	0.061747	-4.3896	-4.2667	-4.4354	-4.9187	-3.9146	-4.4917	-4.7271	-4.3	-4.7708	-4.2583	-4.4708	-4.9021	-4.2417	-4.6979	-4.6854	-4.1833	175.026	-67.326	-100.918	152.768	-78.044	-27.366	113.562	43.480	-48.459	44.602	107.349	115.352	157.563	124.834	40.192	35.023	0.00066819	0.00045961	0.0002046	678.19	8.4896e-06	8.3745e-05	693.13	264.15	4.4609e-06	4.6534e-06	319.79	143.31	115.27	53.935	5.9252e-06	74.642	0.0015825	0.0028994	0.00085452	719.89	0.00015451	9.2632e-05	739.27	282.09	2.7756e-05	3.1778e-05	366.61	154.13	124.11	58.125	2.8787e-05	84.471	-109.579	-110.040	-80.988	-159.772	72.145	-139.878	-160.574	-154.895	-30.940	-41.850	-156.613	-152.512	-150.820	-146.613	-38.930	-148.929	-8191	255	
26115.234	1	1	0	0	0.17485	0.039031	0.15155	0.15767	0.089876	0.11611	0.13235	0.10672	0.11429	0.10141	0.18272	0.10531	0.14243	0.11864	0.15579	0.18311	-4.3292	-4.4625	-4.375	-4.8979	-4.1917	-4.6042	-4.5479	-4.2042	-4.7729	-4.3375	-4.4062	-4.875	-4.3542	-4.6562	-4.6542	-4.2729	105.602	-123.885	32.671	95.350	-42.701	52.529	121.028	-87.617	179.027	136.559	168.531	-82.215	9.332	147.682	138.744	100.285	0.00068141	0.00046413	0.00022929	678.39	7.0043e-06	0.00012406	698	263.2	3.259e-06	5.3249e-06	315.84	143.15	114.89	54.091	5.1023e-06	74.63	0.0016055	0.0028464	0.00089646	720.6	2.7914e-05	0.00033481	739.23	281.05	2.7539e-05	3.1779e-05	356.86	153.89	124.02	58.191	2.9681e-05	85.776	-106.950	-105.963	-85.869	-159.496	-13.628	-139.827	-160.771	-154.917	-1.407	-34.920	-156.535	-152.506	-150.857	-146.423	-21.889	-148.685	-8191	255	
26115.330	1	1	0	0	0.14832	0.10409	0.11771	0.26352	0.098771	0.15604	0.19006	0.18181	0.20384	0.19456	0.23508	0.25267	0.1566	0.17236	0.12353	0.055533	-4.2646	-4.475	-4.3542	-4.8833	-4.3417	-4.6042	-4.7167	-4.2583	-4.6542	-4.5062	-4.2438	-4.825	-4.4	-4.7	-4.8042	-4.425	-62.748	155.763	38.398	162.727	8.827	59.259	32.953	136.864	176.329	-111.150	-126.237	175.606	77.839	124.347	-131.506	48.483	0.00069375	0.00056666	0.00017363	679.52	3.9172e-06	8.5738e-05	698.02	262.58	4.0742e-06	5.2566e-06	317.5	143.22	114.41	54.101	3.6821e-06	74.655	0.0016298	0.0028042	0.00088243	721.09	2.6511e-05	0.00029744	739.95	280.91	2.6696e-05	3.0905e-05	365.87	153.91	123.96	58.194	3.0702e-05	82.893	-107.653	-96.388	-82.505	-159.735	-32.055	-137.638	-160.579	-154.671	-18.001	-22.769	-156.332	-152.462	-150.955	-146.551	-38.133	-148.520	-8191	255	
26115.426	1	1	0	0	0.11528	0.10418	0.28625	0.2031	0.20535	0.10882	0.27861	0.08568	0.13884	0.19851	0.033802	0.047266	0.20118	0.16206	0.18303	0.16401	-4.3125	-4.4667	-4.1271	-5.0792	-4.3333	-4.425	-4.6979	-4.0188	-4.6354	-4.6771	-4.35	-4.9521	-4.4833	-4.4708	-4.7354	-4.4833	-24.100	-49.586	-104.590	-142.868	-114.068	118.161	99.746	124.523	159.724	11.848	73.074	-114.331	-73.438	73.448	119.276	161.318	0.00096959	0.00035043	0.00020214	678.86	4.2081e-06	0.00010014	698.57	263.22	1.8854e-06	4.9555e-06	315.29	143.3	114.59	54.084	6.6026e-06	75.229	0.0039575	0.0028571	0.00091084	720.91	2.6098e-05	0.00039193	740.91	280.96	2.7703e-05	3.275e-05	357.25	153.91	123.86	58.201	3.0623e-05	81.013	-146.805	-111.601	-59.410	-159.480	-14.606	-134.219	-160.804	-154.771	-38.810	-14.855	-156.318	-152.318	-150.923	-146.326	-9.787	-148.980	-8191	255	
26115.547	1	1	0	0	0.18926	0.30536	0.081259	0.37295	0.039566	0.11647	0.17338	0.14235	0.10875	0.13222	0.29646	0.2572	0.11835	0.20266	0.28307	0.1289	-4.3812	-4.5813	-4.0667	-4.7333	-4.3542	-4.2854	-4.8333	-4.3292	-4.4	-4.6208	-4.2833	-4.9083	-4.5479	-4.3375	-4.7812	-4.5813	23.881	54.313	-146.903	154.653	-15.859	-58.542	55.768	161.987	-68.275	-76.680	105.258	-114.441	-22.601	123.855	136.630	55.889	0.0011629	0.00070307	0.00015027	680.67	5.0629e-06	8.0903e-05	697.89	263.41	3.6677e-06	5.6549e-06	317.46	144.3	115.12	54.41	4.4724e-06	75.292	0.012046	0.0029755	0.00090717	721.9	2.5983e-05	0.00029886	741.55	280.74	2.9626e-05	3.3639e-05	366.02	154.53	124.21	58.42	3.0658e-05	81.15	-152.673	-96.922	-100.452	-159.596	-22.720	-119.054	-160.701	-154.704	-1.588	-12.739	-156.045	-152.507	-150.861	-146.301	-17.581	-148.936	-8191	255	
26115.641	1	1	0	0	0.35565	0.11232	0.17241	0.18231	0.12518	0.18299	0.089171	0.19449	0.17666	0.26671	0.22092	0.14133	0.17105	0.13055	0.065871	0.1361	-4.0542	-4.6958	-3.9958	-4.7729	-4.4396	-4.2521	-4.8979	-4.4313	-4.4	-4.7458	-4.0229	-4.7063	-4.5021	-4.3167	-4.7646	-4.5375	1.212	105.600	143.072	-145.638	44.061	-48.399	-71.099	81.825	165.526	-94.469	180.536	160.280	-68.239	-170.502	71.163	79.630	0.00059857	0.00046946	0.00013374	681.81	5.3017e-06	0.0001081	702.17	262.67	3.0245e-06	4.8319e-06	313.87	143.8	115.09	54.022	5.6898e-06	75.099	0.010204	0.0029485	0.00089564	723.8	2.6607e-05	0.00039332	743.55	280.15	2.875e-05	3.3384e-05	345.66	157.07	124.05	58.229	3.0925e-05	80.808	173.260	-68.046	-63.514	-159.480	-14.730	-116.536	-160.969	-154.888	-15.919	-8.246	-156.224	-152.733	-150.795	-146.268	-27.541	-149.102	-8191	255	
26115.738	1	1	0	0	0.102	0.11955	0.21546	0.064328	0.22723	0.19381	0.093444	0.18197	0.09819	0.14726	0.24001	0.17019	0.21347	0.10352	0.076506	0.17212	-4.0312	-4.7708	-4.0333	-4.7229	-4.7438	-4.1875	-4.7875	-4.45	-4.2854	-4.6771	-4.3167	-4.8146	-4.6813	-4.2125	-4.6583	-4.4313	143.409	-0.748	-102.257	8.187	132.731	-154.789	87.147	-117.419	112.761	-16.009	179.998	180.299	99.415	27.555	179.313	157.908	0.00072777	0.00079973	0.0001724	676.52	5.241e-06	7.9419e-05	695.69	261.14	2.9525e-06	5.3106e-06	312.07	142.79	114.6	53.858	4.8527e-06	75.283	0.013228	0.0029485	0.00083295	720.25	2.6121e-05	0.00029697	738.59	278.68	2.9929e-05	3.3258e-05	332.54	165.32	123.67	58.082	2.9991e-05	80.753	164.454	-100.767	-71.362	-159.576	-26.172	-113.820	-160.646	-154.873	-36.880	-18.131	-156.825	-152.657	-150.924	-146.453	-49.251	-148.792	-8191	255	
26115.834	1	1	0	0	0.28147	0.15748	0.080999	0.11045	0.24714	0.073988	0.10235	0.16881	0.071379	0.29757	0.15805	0.024293	0.19738	0.23635	0.29223	0.22931	-3.8625	-4.7	-4.0938	-4.6167	-4.7958	-4.1583	-4.85	-4.5646	-4.2396	-4.9292	-4.4583	-4.5479	-4.5979	-4.3896	-4.6188	-4.5729	-153.369	-32.796	156.980	62.584	-94.558	-37.068	68.992	-89.708	-86.674	-109.609	-95.437	-99.506	-150.527	166.680	16.944	-171.114	0.00072523	0.00041501	0.00010243	680.04	5.2195e-06	0.00011444	698.04	261.93	3.1869e-06	6.9877e-06	311.83	143.5	115.43	54.079	5.4438e-06	75.32	0.010151	0.0028735	0.00080388	719.82	2.6197e-05	0.00038872	738.44	279.09	2.8336e-05	3.237e-05	332.63	163.36	124.15	58.301	2.9115e-05	80.876	178.004	-77.380	-85.780	-159.381	-10.177	-103.966	-160.702	-155.100	12.830	-38.877	-156.861	-151.943	-150.859	-146.514	-22.742	-149.061	-8191	255	
26115.930	1	1	0	0	0.09769	0.036079	0.18095	0.15822	0.21468	0.28145	0.21336	0.060788	0.10698	0.096447	0.20402	0.11593	0.074397	0.071746	0.090607	0.079503	-3.8479	-4.7812	-4.2667	-4.4521	-4.5896	-4.1729	-4.6771	-4.5792	-4.0958	-4.6646	-4.4396	-4.6125	-4.8708	-4.4313	-4.5646	-4.8438	68.695	-147.818	90.030	-101.673	166.272	46.771	93.196	-142.386	-132.202	-142.645	105.732	-117.211	-156.184	-152.077	152.162	105.058	0.00089705	0.00057484	8.6413e-05	678.56	5.8817e-06	3.2123e-05	705.13	261.28	4.9977e-06	2.189e-06	311.61	144.25	114.75	54.043	3.3377e-06	75.441	0.013293	0.0028933	0.0007575	719.71	2.6263e-05	0.00015996	757.17	279.43	2.9036e-05	3.2968e-05	333.3	167.36	124.07	58.254	2.9233e-05	81.104	180.192	-102.754	-57.221	-159.377	-9.397	-35.965	-161.076	-154.729	-56.421	-29.527	-156.682	-151.715	-150.950	-146.524	-55.064	-149.162	-8191	255	
26116.025	1	1	0	0	0.14722	0.15293	0.13498	0.16965	0.051966	0.084652	0.083774	0.28846	0.13413	0.23857	0.12447	0.13931	0.049629	0.1302	0.23006	0.21412	-3.8292	-4.5667	-4.2208	-4.475	-4.7875	-4.3167	-4.6813	-4.6479	-4.1792	-4.5729	-4.5125	-4.5208	-4.6875	-4.4042	-4.5729	-4.7375	-47.563	132.404	-24.620	-18.444	136.571	2.344	-117.383	117.684	32.303	32.219	-44.038	156.079	-156.424	-145.204	-162.480	130.071	0.00088666	0.00054821	0.00012762	679.37	5.5417e-06	2.9075e-06	706.76	262.29	2.8513e-06	5.3967e-06	313.76	144.38	115.87	54.129	6.7965e-06	75.573	0.010166	0.0028258	0.00074875	719.41	2.5834e-05	3.1596e-05	803.59	279.79	2.8254e-05	3.1405e-05	334.31	164.24	124.26	58.228	3.1403e-05	81.322	-164.668	-122.812	-76.989	-159.419	-13.243	-17.344	-160.997	-154.738	-28.405	-23.782	-157.002	-151.749	-150.995	-146.424	-38.343	-148.968	-8191	255	
26116.146	1	1	0	0	0.21839	0.1951	0.034233	0.11746	0.20808	0.116	0.12954	0.11902	0.10086	0.18441	0.20979	0.19978	0.15839	0.17173	0.053511	0.15955	-3.8042	-4.6646	-4.4208	-4.1979	-4.7979	-4.2021	-4.6813	-4.7479	-4.1687	-4.6896	-4.6479	-4.3208	-4.8333	-4.6312	-4.5646	-4.875	-120.937	-26.591	-153.225	-87.895	55.959	-69.897	-142.189	-131.942	-171.286	-105.669	87.743	9.095	1.481	-143.386	-136.983	164.904	0.00099836	0.00050038	9.6092e-05	677.25	5.6796e-06	3.4976e-06	705.58	261.9	4.198e-06	4.8044e-06	311.21	144.51	114.86	53.979	6.6542e-06	75.24	0.013234	0.0027747	0.00075842	719.03	2.5695e-05	3.0496e-05	785.99	279.42	2.7544e-05	3.0903e-05	332.63	167.06	123.65	57.944	3.0636e-05	80.852	187.326	-76.357	-65.122	-159.729	1.032	-10.832	-160.651	-154.578	-8.593	-49.377	-156.897	-151.534	-150.802	-146.605	-41.339	-149.117	-8191	255	
26116.240	1	1	0	0	0.29468	0.082666	0.18786	0.21776	0.036597	0.18475	0.21074	0.18857	0.12694	0.15273	0.054957	0.15477	0.077371	0.036144	0.20025	0.14044	-3.8187	-4.6083	-4.4479	-4.4583	-4.775	-4.3583	-4.4583	-4.8771	-4.3438	-4.5875	-4.6792	-4.3521	-4.9563	-4.3479	-4.1708	-4.9021	160.882	19.184	-125.342	92.842	99.027	174.098	97.285	163.679	-11.696	-105.585	-165.476	136.046	-61.890	78.832	-155.115	145.160	0.00019135	0.0075376	7.6037e-05	675.75	4.6832e-06	5.9929e-06	708.22	260.58	4.3708e-06	4.775e-06	310.35	142.58	114.19	53.684	5.1043e-06	75.095	0.0053351	0.011889	0.00076041	716.34	2.5891e-05	3.0138e-05	801.11	278.22	2.5921e-05	3.2138e-05	331.63	162.87	123.23	57.803	3.1716e-05	80.756	-126.659	138.288	-74.849	-159.543	-1.294	-18.850	-160.632	-154.779	-9.415	-39.920	-156.580	-151.814	-151.147	-146.571	-30.006	-149.006	-8191	255	
26116.338	1	1	0	0	0.047058	0.22803	0.19454	0.1713	0.27355	0.086537	0.19094	0.12671	0.089975	0.31605	0.084459	0.19832	0.11203	0.23879	0.26943	0.0828	-3.8021	-4.625	-4.5896	-3.9979	-4.5792	-4.5104	-4.375	-4.8229	-4.1375	-4.5854	-4.5625	-4.1292	-4.7646	-4.4354	-4.1896	-4.9062	126.855	-26.401	128.781	-164.781	164.374	-62.604	109.589	130.304	-159.565	55.698	83.397	13.283	112.885	114.607	-88.125	-7.689	0.00067589	0.0098322	0.00011726	671.45	5.742e-06	3.9561e-06	701.69	259.12	3.9927e-06	2.7785e-06	310.68	143.04	114.61	53.574	6.6216e-06	75.257	0.0014943	0.033624	0.00077153	714.77	2.4598e-05	3.016e-05	782.39	276.97	2.4219e-05	3.3934e-05	331.69	166.5	123.17	57.874	3.024e-05	80.858	-107.103	107.094	-87.478	-159.680	-21.374	-25.712	-160.626	-154.872	-25.770	-17.741	-156.960	-151.487	-151.071	-146.331	-36.766	-149.233	-8191	255	
26116.434	1	1	0	0	0.088423	0.13524	0.21932	0.13209	0.2018	0.096498	0.099731	0.2406	0.098691	0.12892	0.096336	0.18199	0.13011	0.063828	0.19158	0.032411	-3.8208	-4.3979	-4.6417	-4.3333	-4.5646	-4.425	-4.3271	-4.9229	-4.3167	-4.3167	-4.8167	-4.1792	-4.45	-4.6583	-3.9188	-4.9771	84.419	176.468	108.960	141.388	158.591	102.441	167.367	-135.085	126.066	107.245	65.779	-161.144	-160.095	62.202	-12.152	-94.346	0.00067194	0.006675	0.00013483	674.47	2.8749e-06	3.8344e-06	707.53	260.43	5.296e-06	5.8201e-06	311.77	143.63	114.1	53.962	7.2444e-06	75.507	0.0014628	0.025696	0.00075553	715.2	2.4765e-05	3.0745e-05	800.76	277.5	2.3932e-05	3.3251e-05	332.22	157.8	128.26	58.023	3.0704e-05	81.149	-107.086	112.746	-106.961	-159.442	-36.109	-13.236	-160.459	-154.649	-25.656	-13.073	-156.788	-151.651	-150.885	-146.605	-26.967	-148.993	-8191	255	
26116.529	1	1	0	0	0.061097	0.12906	0.17151	0.16584	0.17464	0.056908	0.24018	0.12529	0.24523	0.19856	0.25801	0.1473	0.24849	0.16319	0.087739	0.089901	-3.9979	-4.1479	-4.6583	-4.1104	-4.4958	-4.5417	-4.1208	-4.7583	-4.425	-4.2312	-4.8333	-4.3729	-4.5	-4.9125	-4.0708	-4.6042	85.358	-20.000	1.144	-146.396	12.117	-151.698	123.690	125.927	123.148	-172.581	142.349	138.151	127.893	-125.436	-5.486	150.072	0.00070388	0.0098346	0.00013831	675.63	3.8137e-06	3.1877e-06	708.09	260.62	5.7452e-06	4.4554e-06	310.7	143.41	114.47	53.841	7.1871e-06	75.69	0.0014806	0.033698	0.00075769	715.73	2.5821e-05	3.1337e-05	787.47	278.21	2.4328e-05	3.5489e-05	333.18	154.3	137.27	57.891	3.0437e-05	81.15	-106.788	123.091	-90.248	-159.482	-26.650	6.747	-160.371	-154.841	-22.225	-48.379	-156.695	-152.270	-149.723	-146.519	-29.307	-149.008	-8191	255	
26116.627	1	1	0	0	0.26948	0.092323	0.13014	0.25276	0.26893	0.19857	0.24749	0.069073	0.037536	0.16224	0.16729	0.1521	0.11965	0.14018	0.24639	0.18459	-4.0563	-4.2729	-4.65	-4.2583	-4.4812	-4.5396	-4.1813	-4.8125	-4.5042	-4.1833	-4.9896	-4.4688	-4.3396	-4.8896	-4.0875	-4.7375	158.928	103.362	-74.062	142.699	-20.204	108.029	83.587	-157.408	100.295	41.554	14.544	143.467	118.048	131.629	2.233	75.953	0.00068336	0.0063519	0.00013111	678.02	4.6715e-06	2.6326e-06	700.99	260.66	4.285e-06	3.0287e-06	311.13	143.12	114.36	53.676	4.277e-06	75.093	0.0014986	0.025658	0.00076682	716.82	2.7739e-05	3.1193e-05	799.9	278.11	2.4728e-05	3.396e-05	332.6	153.95	133.65	57.754	2.9875e-05	80.824	-107.697	123.700	-108.866	-159.594	28.099	-11.965	-160.103	-154.941	-22.882	-31.933	-156.658	-152.379	-150.238	-146.595	5.752	-149.161	-8191	255	
26116.723	1	1	0	0	0.16077	0.0532	0.22051	0.16389	0.10006	0.047572	0.10128	0.14604	0.086788	0.19426	0.20503	0.25344	0.0086049	0.29539	0.15079	0.18406	-4.1708	-4.1271	-4.7333	-4.5229	-4.2188	-4.8	-4.2771	-4.7271	-4.6896	-4.3229	-4.925	-4.4104	-4.5188	-4.8271	-4.2083	-4.6875	182.852	169.724	-141.815	130.473	52.800	-33.444	141.822	106.808	95.245	-21.192	-161.886	105.945	100.953	152.713	74.091	-145.300	0.0006939	0.010012	0.00011504	672.42	4.8328e-06	7.7771e-06	695.45	261.39	3.7455e-06	7.7228e-06	311.29	142.15	113.23	53.36	2.2369e-06	74.926	0.0015357	0.033709	0.00079288	714.69	2.806e-05	3.19e-05	751.66	284.98	2.5548e-05	3.4964e-05	331.25	153.08	137.01	57.639	2.8181e-05	80.562	-106.512	128.691	-72.991	-159.747	-7.774	-16.380	-160.470	-154.985	0.702	-26.784	-156.771	-152.550	-149.792	-146.415	-4.914	-148.963	-8191	255	
26116.818	1	1	0	0	0.20201	0.1221	0.097328	0.16101	0.029685	0.16987	0.069951	0.076324	0.021464	0.20129	0.14552	0.1789	0.09396	0.16011	0.050252	0.10618	-4.3354	-4.0708	-4.6125	-4.5333	-4.3063	-4.9167	-4.1896	-4.6292	-4.85	-4.1021	-4.8104	-4.5437	-4.3333	-4.9146	-4.1479	-4.5271	11.882	65.605	-19.168	-158.825	168.833	-11.868	139.444	125.998	51.717	145.171	77.259	153.322	88.166	141.649	-84.969	98.153	0.00065672	0.0067574	0.00019102	676.14	2.5255e-06	5.1862e-06	694.94	264.16	4.6341e-06	5.737e-06	310.35	142.95	113.88	53.602	6.5547e-06	74.885	0.0015514	0.025576	0.00076655	714.98	2.8466e-05	3.1781e-05	736.65	298.08	2.6022e-05	3.4243e-05	331.43	153.52	133.61	57.732	2.7675e-05	80.705	-107.963	141.087	-68.302	-159.706	-10.917	-28.606	-160.592	-154.532	-16.931	-13.877	-156.913	-152.701	-150.161	-146.391	-57.119	-149.005	-8191	255	
26116.939	1	1	0	0	0.19023	0.076639	0.13724	0.24476	0.020309	0.33777	0.17929	0.27835	0.14952	0.099602	0.11649	0.16595	0.14408	0.10354	0.087671	0.18743	-4.4417	-4.1604	-4.5854	-4.7021	-4.3271	-4.8771	-4.3938	-4.625	-4.7312	-4.1917	-4.7167	-4.6125	-4.0833	-4.9625	-4.4167	-4.3333	105.257	78.200	-65.035	132.813	112.468	176.239	49.838	66.149	87.433	181.096	49.774	-129.665	-46.665	141.150	140.313	56.116	0.0006986	0.0015421	0.00018111	676.54	4.9911e-06	6.289e-06	695.77	262.89	5.3386e-06	2.909e-06	310.08	142.71	113.36	53.76	5.9539e-06	75.261	0.0015503	0.031251	0.00078747	715.96	2.8342e-05	3.1459e-05	737.71	292.99	2.6267e-05	3.2535e-05	331.67	153.52	137.15	57.762	2.7733e-05	80.921	-106.980	29.223	-57.572	-159.557	-10.273	-2.185	-160.643	-154.454	-28.154	-59.817	-156.581	-152.574	-149.818	-146.656	-21.712	-149.008	-8191	255	
26117.033	1	1	0	0	0.16794	0.060383	0.11458	0.17134	0.053858	0.25936	0.2742	0.052555	0.17283	0.16638	0.061108	0.098747	0.23191	0.1487	0.14637	0.15981	-4.4812	-4.1	-4.5	-4.5521	-3.9625	-4.6188	-4.6667	-4.3479	-4.6562	-4.2562	-4.7583	-4.6021	-4.075	-4.9625	-4.4437	-4.3333	-18.468	185.739	-36.514	118.247	-79.118	105.389	175.749	-65.600	-127.818	63.019	166.535	173.450	93.713	153.754	-104.011	109.468	0.00069804	0.0015752	0.0021683	674.73	6.5723e-06	5.1073e-06	699.74	264.64	3.446e-06	4.2985e-06	312.23	143.54	114.13	53.688	5.3039e-06	75.45	0.001552	0.0097636	0.0042312	716.72	2.8811e-05	3.1886e-05	739.84	299.2	2.6316e-05	3.0706e-05	333.57	154.17	133.98	57.867	2.8531e-05	81.218	-107.917	16.895	167.894	-159.689	-26.776	-20.040	-160.680	-154.474	-11.684	-12.764	-156.991	-152.496	-150.558	-146.562	-54.222	-149.040	-8191	255	
26117.129	1	1	0	0	0.27308	0.10099	0.12027	0.11464	0.11362	0.1911	0.26093	0.13828	0.10096	0.14271	0.13154	0.33628	0.067508	0.088661	0.079766	0.12362	-4.4	-4.1708	-4.6042	-4.7875	-4.1396	-4.7958	-4.5104	-4.3667	-4.7729	-4.2792	-4.5896	-4.7063	-4.1333	-4.6958	-4.3812	-4.4208	-125.207	-113.906	-41.513	170.673	-33.182	43.965	187.165	110.484	-98.568	91.185	-83.387	150.487	123.171	173.929	-71.199	27.499	0.00068428	0.0005247	0.0028133	674.33	3.4115e-06	5.5984e-06	697.29	262.22	4.6302e-06	5.9564e-06	312.18	142.76	114.13	53.451	5.1895e-06	75.165	0.0015318	0.0027697	0.0095177	716.6	2.7925e-05	3.1227e-05	740.12	293.2	2.5779e-05	3.1018e-05	332.99	153.63	135.22	57.71	2.9205e-05	80.853	-106.475	-91.052	163.595	-159.588	-33.689	-4.786	-160.752	-154.581	-35.423	7.990	-156.820	-152.548	-149.863	-146.516	-16.066	-148.914	-8191	255	
26117.225	1	1	0	0	0.13187	0.15122	0.080103	0.292	0.12465	0.12148	0.12294	0.14104	0.12084	0.27091	0.29116	0.14108	0.33845	0.31127	0.22813	0.15339	-4.4146	-4.4583	-4.3708	-4.8562	-4.3187	-4.7021	-4.7583	-4.3063	-4.675	-4.3542	-4.4437	-4.9083	-4.1083	-4.7	-4.5583	-4.3521	-9.687	-74.708	59.819	149.614	-150.498	7.062	81.892	-57.794	-41.499	135.027	102.499	84.880	186.335	99.422	-141.967	107.373	0.00068158	0.00044638	0.0019726	676.19	2.4726e-06	3.91e-06	694.48	262.42	3.6644e-06	5.5852e-06	309.81	141.8	113.47	53.482	3.7296e-06	74.836	0.0015191	0.0027515	0.0071978	714.18	2.6761e-05	3.2829e-05	737.05	297.04	2.6012e-05	3.106e-05	330.2	152.88	125.3	59.162	2.8887e-05	80.615	-105.910	-101.769	175.243	-159.676	-26.753	-35.089	-160.869	-154.328	-5.631	-13.593	-156.757	-152.487	-149.937	-146.784	-29.474	-149.120	-8191	255	
26117.320	1	1	0	0	0.089105	0.11967	0.13968	0.30519	0.13476	0.047076	0.31201	0.25091	0.059368	0.15599	0.17529	0.22681	0.1284	0.23443	0.056363	0.12576	-4.4958	-4.2188	-4.2083	-4.8729	-4.1208	-4.5104	-4.6833	-4.1937	-4.7521	-4.2812	-4.4313	-4.8625	-4.2646	-4.6937	-4.7646	-4.3333	-152.656	-60.150	50.888	132.939	-170.614	54.761	147.992	-10.945	178.466	34.189	-162.934	159.767	5.096	182.240	-52.167	121.284	0.00066332	0.00050193	0.002523	673.09	2.6296e-06	4.7261e-06	692.97	261.34	4.9109e-06	6.3003e-06	309.32	141.93	114.12	53.276	6.0162e-06	75.024	0.0015288	0.0027623	0.0094527	714.6	2.5062e-05	3.4487e-05	736.33	291.79	2.5508e-05	3.2028e-05	331.46	152.97	122.78	61.31	2.9585e-05	80.736	-105.807	-60.236	179.484	-159.636	-55.345	-40.661	-160.688	-154.449	-26.898	-33.759	-156.925	-152.540	-150.587	-146.216	-50.715	-149.132	-8191	255	
26117.418	1	1	0	0	0.13979	0.21483	0.059392	0.093857	0.09795	0.19279	0.15325	0.1621	0.14631	0.010022	0.12613	0.094931	0.099292	0.23843	0.13685	0.18004	-4.4729	-4.6062	-4.2042	-4.8438	-4.2833	-4.525	-4.7896	-4.1792	-4.6937	-4.7063	-4.4125	-4.8729	-4.325	-4.5813	-4.7021	-4.2542	-62.922	10.001	-54.078	-12.748	-25.534	16.088	66.000	148.046	-61.815	11.243	151.575	-136.935	-104.664	153.713	-76.341	-140.296	0.00067349	0.00048141	0.0020661	674.86	4.4505e-06	2.6771e-06	694.25	262.05	1.6603e-05	7.0979e-06	310.61	142.75	113.96	53.19	4.2928e-06	75.138	0.0015214	0.0028316	0.0072089	715.62	2.5188e-05	3.6578e-05	736.96	294.42	2.9132e-05	3.2776e-05	332.26	153.18	122.93	60.346	2.9223e-05	80.737	-108.596	-102.240	182.546	-159.645	-16.645	-40.192	-160.480	-154.030	-51.559	-18.209	-156.894	-152.448	-150.955	-146.199	-48.374	-149.056	-8191	255	
26117.514	1	1	0	0	0.14079	0.025242	0.055679	0.24916	0.14559	0.06568	0.25158	0.21058	0.21547	0.062319	0.14523	0.21702	0.32418	0.30048	0.13016	0.22497	-4.225	-4.5354	-4.1042	-4.8833	-4.3917	-4.4229	-4.9417	-4.3146	-4.4333	-4.7021	-4.1458	-4.8063	-4.4208	-4.3396	-4.8125	-4.3417	34.478	107.899	80.949	116.994	77.994	135.770	137.157	166.258	-94.918	139.021	-35.840	145.487	184.703	-145.482	50.147	131.399	0.00065864	0.00036819	0.0027588	676.73	4.6037e-06	1.3082e-06	696.83	261.26	9.3977e-06	4.9468e-06	311.25	142.5	113.75	53.484	6.8308e-06	75.417	0.0015924	0.0029153	0.0094969	717	2.5691e-05	3.6568e-05	739.46	281.38	0.00015511	3.3034e-05	333.15	153.32	123.15	61.447	2.95e-05	81.004	-106.377	-78.562	-165.959	-159.769	-38.696	25.438	-160.624	-154.436	-53.674	-3.475	-157.000	-152.425	-150.697	-146.446	-39.767	-148.939	-8191	255	
26117.635	1	1	0	0	0.14465	0.20925	0.15482	0.16282	0.12255	0.094115	0.222	0.25544	0.080581	0.14737	0.074854	0.060292	0.28449	0.2075	0.10283	0.20674	-4.2562	-4.5083	-4.2854	-4.7646	-4.2646	-4.3438	-4.7812	-4.3708	-4.4875	-4.6833	-4.3812	-4.7917	-4.5479	-4.3729	-4.7812	-4.3917	125.289	170.611	29.966	61.720	-72.609	-26.542	93.076	140.257	158.590	-42.075	-154.315	-157.463	-112.352	100.771	169.668	-82.485	0.00066662	0.00048075	0.0022433	676.32	6.0586e-06	3.7247e-06	698.94	261.77	7.5418e-05	4.7108e-06	312.42	142.45	113.82	53.345	6.9207e-06	75.297	0.001656	0.0029135	0.0072357	718.3	2.6419e-05	3.6678e-05	740.89	279.06	0.000303	3.2814e-05	333.38	153.51	123.16	60.446	2.8286e-05	80.74	-104.850	-65.882	-161.367	-159.763	-20.471	-19.572	-160.795	-154.748	35.163	-46.699	-156.807	-152.353	-150.835	-146.367	-25.544	-149.336	-8191	255	
26117.730	1	1	0	0	0.18128	0.14594	0.088139	0.36271	0.089956	0.038246	0.097884	0.02264	0.06446	0.14899	0.18413	0.17168	0.25493	0.10704	0.073397	0.1771	-4.1021	-4.6458	-4.1604	-4.6687	-4.5062	-4.0667	-4.8313	-4.5208	-4.4208	-4.6792	-4.1979	-4.7646	-4.8042	-4.2812	-4.7354	-4.6167	-73.017	-80.132	160.457	-144.997	154.749	-24.229	106.348	-29.471	-15.944	98.282	120.878	182.916	186.341	-53.810	131.433	15.396	0.0006801	0.00065221	0.000919	679.8	4.4865e-06	1.7204e-06	692.17	261.31	5.235e-05	5.0163e-06	310.2	141.42	113.85	53.136	6.3753e-06	74.759	0.0017159	0.0028893	0.0076694	721.38	2.6536e-05	3.5123e-05	737.64	278.62	0.00023049	3.2613e-05	331.9	152.61	122.83	61.197	2.9416e-05	80.454	-103.875	-93.128	-83.046	-160.455	9.598	-3.913	-160.582	-154.806	39.232	-16.647	-156.813	-152.717	-150.987	-146.457	-35.788	-149.146	-8191	255	
26117.803	1	1	0	0	0.23259	0.19002	0.14971	0.1213	0.11544	0.12974	0.14728	0.25245	0.19571	0.07996	0.22941	0.15712	0.074587	0.36585	0.1942	0.41486	-4.1896	-4.7896	-4.1458	-4.6146	-4.6083	-4.1583	-4.8396	-4.3729	-4.2667	-4.6604	-4.3313	-4.4729	-4.7604	-4.225	-4.5875	-4.5	113.934	60.288	-153.858	144.514	116.467	24.192	162.515	61.291	37.430	-27.368	146.380	174.580	-146.131	148.811	-156.043	144.129	0.00066455	0.0006121	0.00082162	678.34	4.2249e-06	4.1961e-06	694.87	260.9	7.1006e-05	4.3084e-06	310.89	142.43	114.22	53.244	5.0371e-06	74.937	0.0016854	0.0028301	0.0018827	745.74	2.6502e-05	3.5934e-05	736.78	278.32	0.00030243	3.2317e-05	331.67	153.23	123	60.333	2.8986e-05	80.434	-107.139	-90.577	-84.901	-160.245	-11.909	-12.145	-160.648	-154.783	48.383	0.496	-157.041	-152.469	-150.810	-146.484	-39.670	-149.134	-8191	255	
26117.924	1	1	0	0	0.10459	0.12852	0.054857	0.17859	0.15945	0.16136	0.15909	0.26106	0.079207	0.049976	0.2586	0.05633	0.18703	0.10765	0.14265	0.2333	-3.8312	-4.7208	-4.1896	-4.5083	-4.5833	-4.1667	-4.7333	-4.6	-4.2375	-4.8708	-4.25	-4.2958	-4.6896	-4.3583	-4.5875	-4.6458	-109.378	-138.765	5.395	-151.729	176.704	65.024	-6.922	61.447	63.614	100.888	88.791	-109.717	156.680	129.031	7.363	115.776	0.00065807	0.00043788	0.00017124	686.14	5.3e-06	5.4783e-06	695.06	260.67	5.1152e-05	7.4785e-06	311.64	142.18	114.29	53.681	9.4301e-05	75.166	0.0017189	0.0028434	0.00079014	776.37	2.6634e-05	3.4543e-05	737.75	278.24	0.00023125	3.1733e-05	331.9	153.23	123.02	60.511	6.0225e-05	80.743	-103.758	-74.126	-60.877	-160.045	-48.224	-18.073	-160.723	-154.999	52.872	-14.535	-156.654	-152.442	-150.881	-146.025	-155.831	-149.162	-8191	255	
26118.018	1	1	0	0	0.12205	0.24502	0.07764	0.050126	0.17231	0.2175	0.13979	0.35407	0.15934	0.20621	0.18178	0.41693	0.18177	0.12713	0.31824	0.23705	-3.7854	-4.7229	-4.3667	-4.4854	-4.7063	-4.0833	-4.7104	-4.5833	-4.0604	-4.825	-4.3187	-4.3771	-4.9417	-4.3104	-4.5146	-4.7396	-168.053	73.668	-155.618	36.134	13.534	86.889	83.068	71.214	-7.616	153.079	146.285	161.402	-168.704	175.259	-38.918	66.179	0.00068246	0.00065575	0.00019529	685.32	2.6512e-06	5.1859e-06	698.5	260.58	6.9041e-05	3.9079e-06	312.11	142.43	114.88	53.695	7.0717e-05	75.499	0.0016652	0.0027968	0.00079849	763.1	2.6097e-05	3.3689e-05	740.61	278.92	0.00030179	3.1996e-05	333.32	153.7	123.26	58.206	0.00019334	81.029	-105.976	-99.213	-72.706	-160.100	-15.364	-25.210	-160.938	-154.942	57.455	-49.858	-156.890	-152.605	-150.814	-146.190	-153.695	-149.110	-8191	255	
26118.113	1	1	0	0	0.21812	0.1535	0.14687	0.21823	0.26298	0.14105	0.33997	0.19842	0.064347	0.22013	0.032422	0.16074	0.095298	0.16788	0.19371	0.17104	-3.825	-4.8417	-4.4875	-4.3458	-4.8208	-4.1271	-4.4104	-4.7146	-4.1438	-4.7333	-4.4417	-4.2792	-4.6937	-4.2479	-4.3604	-4.8042	-17.363	64.667	-109.575	139.666	-34.072	-94.686	86.175	182.783	99.899	-141.748	18.857	-107.945	172.440	69.508	7.546	139.196	0.00063975	0.00033615	0.00020062	688.97	4.2422e-06	5.8864e-06	695.38	262.3	5.5446e-05	4.6032e-06	312.17	142.83	114	53.834	9.6155e-05	75.284	0.0016455	0.0028471	0.00081299	779.8	2.5772e-05	3.1591e-05	742.35	279.5	0.00023044	3.2219e-05	333.24	153.88	123.27	57.903	0.00033522	80.893	-106.670	-86.174	-92.050	-159.971	-34.151	-21.755	-160.700	-154.883	61.742	-35.587	-157.098	-152.407	-151.091	-146.601	176.040	-149.057	-8191	255	
26118.234	1	1	0	0	0.18082	0.37907	0.15383	0.20624	0.14758	0.094854	0.05613	0.17681	0.27811	0.12992	0.1409	0.2577	0.10416	0.18074	0.29768	0.33685	-3.5771	-4.6479	-4.5458	-4.3479	-4.6771	-4.3	-4.4083	-4.6146	-4.1312	-4.6917	-4.5042	-4.2188	-4.7688	-4.425	-4.3146	-4.8604	-76.999	77.807	-158.307	58.918	-143.377	-30.923	-74.445	153.595	-49.660	-60.304	-88.053	115.195	-33.984	-130.567	30.324	62.240	0.00069108	0.00031322	0.00020797	685.91	5.388e-06	5.6955e-06	696.11	261.56	8.3487e-05	3.4071e-05	311.32	142.55	114.76	53.764	6.7431e-05	74.784	0.0016332	0.002843	0.00081093	763.82	2.5196e-05	3.2343e-05	739.19	279.21	0.00022029	8.0924e-05	332.1	153.1	123.19	57.761	0.00025411	80.337	-108.133	-84.912	-62.177	-159.855	9.690	-22.057	-160.570	-154.812	55.631	159.540	-156.955	-152.537	-150.921	-146.511	185.612	-149.252	-8191	255	
26118.330	1	1	0	0	0.12392	0.16566	0.13794	0.26134	0.053141	0.14053	0.16575	0.25256	0.12369	0.03436	0.080897	0.071745	0.15248	0.15924	0.098203	0.035782	-3.8354	-4.6062	-4.4604	-4.2958	-4.7021	-4.5271	-4.5292	-4.7917	-4.2	-4.425	-4.7083	-4.1813	-4.8208	-4.3896	-4.3021	-4.9104	-162.656	123.237	-140.966	138.621	46.044	-46.623	30.397	167.330	-44.869	-88.249	84.295	-24.744	-140.264	134.032	-162.392	91.264	0.00066553	0.00036563	0.00020698	687.51	6.5937e-06	5.8438e-06	692.33	260.97	5.7748e-05	2.9349e-05	309.9	141.85	113.76	53.667	9.9816e-05	74.657	0.001583	0.0030549	0.00080408	776.51	2.6096e-05	3.333e-05	737.48	278.17	4.2194e-05	0.00023009	331.13	152.64	123.09	57.817	0.00033456	80.459	-105.444	-77.394	-92.768	-159.864	-23.710	-30.860	-160.741	-154.786	56.466	150.259	-157.148	-152.627	-150.990	-146.468	-169.336	-149.104	-8191	255	
26118.402	1	1	0	0	0.25782	0.23125	0.16012	0.32615	0.18268	0.28738	0.13059	0.23214	0.027728	0.10517	0.10523	0.35376	0.25062	0.12424	0.17281	0.19497	-3.8271	-4.3979	-4.7292	-4.3271	-4.7	-4.3479	-4.325	-4.9062	-4.2479	-4.4125	-4.7812	-4.1312	-4.5875	-4.7	-4.0729	-4.8187	121.714	63.446	62.731	178.280	-123.345	46.565	40.802	142.584	-14.756	138.736	142.760	90.286	-116.732	-131.155	43.887	171.798	0.00067416	0.00060259	0.00017264	685.22	3.9987e-06	5.8391e-06	697.79	260.76	4.2229e-06	0.00011341	311.51	142.23	114.39	53.699	7.6649e-05	74.791	0.0015339	0.0031696	0.00080104	761.72	2.5902e-05	3.3411e-05	739.97	278.71	2.633e-05	0.00038482	332.85	152.99	123.24	57.81	0.00025388	80.682	-104.345	-82.218	-83.713	-159.746	-16.075	-72.588	-160.884	-154.821	-24.164	72.131	-156.894	-152.378	-150.833	-146.472	-156.427	-149.171	-8191	255	
26118.498	1	1	0	0	0.28925	0.15626	0.10002	0.36231	0.16005	0.012186	0.094019	0.21299	0.30776	0.10817	0.066254	0.30018	0.082814	0.29007	0.11189	0.09668	-3.9521	-4.4292	-4.8354	-4.3	-4.625	-4.6146	-4.0729	-4.6875	-4.3771	-4.2521	-4.7042	-4.2333	-4.4854	-4.6708	-4.1771	-4.9062	1.219	-109.183	133.401	159.035	-59.021	-16.593	-12.233	137.665	-3.893	67.299	-110.236	-116.510	162.273	154.163	-148.687	182.304	0.00067708	0.00026007	0.00011223	683.45	5.7943e-05	5.713e-06	698	262.09	4.7333e-06	9.0993e-05	312.07	142.56	114.63	53.958	8.7987e-05	75.127	0.0015575	0.0032428	0.00079655	758.22	7.8058e-05	3.3182e-05	740.51	279.63	2.6518e-05	0.0002946	332.98	153.4	123.68	57.957	0.00033285	80.826	-107.038	-86.097	-72.787	-159.401	-75.317	-38.639	-160.682	-154.927	-17.150	74.936	-156.785	-152.613	-150.922	-146.563	-153.889	-149.010	-8191	255	
26118.594	1	1	0	0	0.087413	0.19783	0.16248	0.12186	0.15738	0.091325	0.21679	0.16241	0.064066	0.094396	0.16064	0.21608	0.13574	0.095401	0.12373	0.32513	-4.0229	-4.2479	-4.7792	-4.2458	-4.5292	-4.5521	-4.2583	-4.7688	-4.3562	-4.1438	-4.8812	-4.2854	-4.5458	-4.7542	-4.1146	-4.8313	-108.207	75.589	1.714	-126.373	69.462	-34.093	159.905	59.782	-16.482	-36.113	180.654	156.142	156.854	-131.250	110.311	149.858	0.00065364	0.00063698	0.00013528	682.04	4.0429e-05	5.086e-06	695.58	261.85	4.6543e-06	0.00011105	310.22	142.24	114.64	53.919	6.776e-05	74.889	0.0015715	0.0031486	0.00076942	720.49	0.00019245	3.3367e-05	740.47	279.02	2.7269e-05	0.00038619	332.06	153.23	123.33	57.774	0.00025442	80.691	-106.042	-56.613	-79.550	-159.340	-67.669	-13.647	-160.630	-154.915	4.420	85.390	-157.024	-152.280	-151.211	-146.281	-153.472	-148.929	-8191	255	
26118.715	1	1	0	0	0.25367	0.17554	0.052295	0.1217	0.19503	0.14147	0.050455	0.1362	0.21281	0.15915	0.11573	0.24928	0.33811	0.16318	0.24643	0.067289	-4.1042	-4.1354	-4.6979	-4.2937	-4.4083	-4.6417	-4.2521	-4.8938	-4.3625	-4.075	-4.9458	-4.3646	-4.4333	-4.7917	-4.1979	-4.7063	30.426	-56.665	-41.018	114.543	1.489	-71.584	-122.060	106.612	-83.675	139.245	17.006	152.773	-66.406	151.888	10.058	10.844	0.00071752	0.00070276	0.00011793	677.15	9.9505e-05	5.0222e-06	695.88	260.59	4.0951e-06	7.5838e-05	310.46	142.25	114.28	53.713	1.5556e-05	75.248	0.0015917	0.0031479	0.00077183	717.49	0.00030481	3.1656e-05	739.48	278.18	2.6673e-05	0.0002931	331.07	153.04	123.19	57.707	0.00021637	81.618	-107.070	-85.089	-73.864	-159.738	-21.568	-14.655	-160.589	-154.780	-16.222	84.738	-157.012	-152.237	-150.994	-146.616	96.253	-149.649	-8191	255	
26118.811	1	1	0	0	0.40139	0.16822	0.11121	0.080224	0.12939	0.15382	0.14201	0.10029	0.20353	0.10972	0.28038	0.077751	0.094751	0.21307	0.13139	0.11455	-4.175	-4.0292	-4.7542	-4.4938	-4.5021	-4.8729	-4.2333	-4.6312	-4.5771	-4.2042	-4.7937	-4.5729	-4.1896	-4.7833	-4.3083	-4.6188	-63.134	-134.447	87.216	12.187	134.648	12.193	135.238	-46.473	24.637	108.670	157.939	-119.453	20.951	155.197	-36.614	123.388	0.00065555	0.00051329	0.00012085	677.67	6.9975e-05	6.1273e-06	694.79	260.48	4.4971e-06	0.00010799	309.63	142.79	114.57	53.694	6.847e-06	75.038	0.0015631	0.0029586	0.00078074	716.89	0.0002323	3.0745e-05	737.11	278.1	2.6296e-05	0.00038057	330.8	153.12	123.34	57.877	2.8069e-05	83.771	-106.696	-71.686	-41.173	-159.513	-6.794	-50.542	-160.627	-155.030	-32.331	89.808	-156.986	-152.538	-150.692	-146.484	-36.019	-149.555	-8191	255	
26118.906	1	1	0	0	0.14988	0.027161	0.016799	0.1958	0.060543	0.18642	0.15418	0.11725	0.10999	0.043389	0.12602	0.053222	0.069331	0.23551	0.2067	0.22767	-4.4437	-4.1	-4.4958	-4.4208	-4.3417	-4.725	-4.3063	-4.5396	-4.7583	-4.2917	-4.6771	-4.6104	-4.3479	-4.9458	-4.25	-4.55	95.553	-55.573	-155.651	-112.669	51.548	127.766	163.615	18.773	-31.790	152.210	125.674	-134.691	4.587	178.931	-127.180	85.105	0.00066698	0.00039871	0.00015033	679.09	9.8202e-05	3.6778e-06	694.03	261.93	3.5528e-06	8.0368e-05	312.54	142.71	114.82	54.073	2.9119e-06	75.7	0.0014953	0.0029734	0.00078521	718.5	0.00030429	3.0331e-05	737.52	279.51	2.5486e-05	0.00029157	333.08	153.71	123.89	58.052	2.8668e-05	85.949	-107.133	-58.398	-102.264	-159.587	-5.909	-11.863	-160.573	-154.859	-17.152	101.896	-156.714	-152.415	-150.990	-146.537	-50.691	-149.651	-8191	255	
26119.027	1	1	0	0	0.15979	0.13092	0.091211	0.081226	0.13494	0.11194	0.14538	0.32903	0.26471	0.021333	0.13569	0.12903	0.1346	0.05152	0.14422	0.055312	-4.4792	-4.1	-4.5375	-4.7188	-4.1854	-4.8542	-4.3458	-4.3187	-4.7771	-4.0729	-4.6937	-4.5687	-4.1583	-4.8875	-4.4083	-4.4187	-117.538	-147.294	45.594	163.882	-113.572	-103.808	-110.431	182.648	-34.761	-31.154	-141.479	73.234	-40.279	-143.474	104.988	67.335	0.00069247	0.00059194	0.00011314	679.83	6.9913e-05	5.8594e-06	696.49	264.02	3.3958e-06	0.00011507	312.19	143.03	115.47	54.275	5.7303e-06	75.649	0.0015248	0.0029389	0.00080313	719.67	0.00023054	3.079e-05	741.06	281.43	2.5025e-05	0.00023418	344.12	154.22	124.32	58.218	2.887e-05	84.889	-107.283	-79.930	-89.822	-159.641	-2.479	-30.227	-160.775	-154.950	-2.994	60.177	-157.336	-152.146	-150.683	-146.505	-42.000	-149.524	-8191	255	
26119.100	1	1	0	0	0.13144	0.13606	0.16005	0.10821	0.085445	0.079079	0.18058	0.2631	0.077439	0.10056	0.18284	0.12688	0.068273	0.034255	0.16707	0.080427	-4.4229	-4.2354	-4.5646	-4.5896	-4.1125	-4.6646	-4.3396	-4.475	-4.6292	-4.2458	-4.5833	-4.6562	-4.2312	-4.7854	-4.6062	-4.3729	163.096	-28.450	166.738	130.306	-75.600	-123.679	114.002	83.518	5.935	-83.022	107.094	33.994	58.647	87.684	110.012	-103.546	0.0006718	0.00035575	7.9818e-05	681.5	8.3293e-05	6.8329e-06	701.57	264.63	4.3592e-06	4.6677e-06	313.84	143.51	115.69	54.114	5.4268e-06	76.369	0.0014974	0.0028221	0.00085204	721.21	0.00030443	3.263e-05	743.86	282.24	2.4704e-05	3.1598e-05	357.52	154.81	124.63	58.255	2.862e-05	86.286	-108.778	-57.347	-110.500	-159.787	6.644	-29.155	-160.697	-154.789	-21.560	-15.295	-157.409	-152.400	-151.107	-146.498	-26.986	-149.901	-8191	255	
26119.195	1	1	0	0	0.10147	0.19296	0.15109	0.12036	0.21846	0.20964	0.2042	0.25311	0.16331	0.13163	0.18919	0.17607	0.10402	0.37643	0.13569	0.27521	-4.4417	-4.2604	-4.45	-4.5458	-4.0521	-4.6042	-4.4625	-4.1646	-4.875	-4.2292	-4.4042	-4.7042	-4.0854	-4.5687	-4.4104	-4.3333	-18.604	106.535	107.666	107.462	-145.452	-81.483	119.520	130.893	-80.900	180.186	-151.781	178.048	61.298	166.109	49.094	81.375	0.00068297	0.00080677	0.00014848	682.51	6.5642e-05	2.1477e-06	696.58	264.2	4.8244e-06	3.8956e-06	309.81	143.4	115.05	54.066	4.4288e-06	75.728	0.0015019	0.0027571	0.00084862	721.08	0.00023099	3.2412e-05	740.86	281.34	2.462e-05	3.2207e-05	366.31	154.04	123.72	58.049	2.8855e-05	84.47	-106.665	-94.127	-57.101	-159.467	12.983	-76.609	-160.486	-154.862	-21.625	-32.194	-156.805	-152.595	-151.000	-146.604	-35.667	-149.362	-8191	255	
26119.314	1	1	0	0	0.29153	0.22744	0.037698	0.25387	0.17739	0.052263	0.19045	0.1281	0.068097	0.19227	0.096949	0.17944	0.13708	0.27597	0.098088	0.29869	-4.3458	-4.3854	-4.3438	-4.7083	-4.075	-4.6104	-4.6813	-4.1708	-4.7729	-4.5771	-4.3083	-4.8708	-4.2625	-4.7583	-4.5417	-4.2937	-167.331	21.010	-28.654	-136.717	-157.658	-42.091	-163.206	150.134	-108.104	18.306	101.356	76.311	143.930	-110.822	136.061	124.090	0.00072252	0.00050274	7.227e-05	677.18	9.2916e-05	1.3859e-05	695.29	261.56	5.2676e-06	6.3635e-06	308.87	142.8	114.31	53.923	5.8376e-06	75.887	0.0015162	0.002776	0.00088104	716.77	0.00017154	0.00014469	737.15	279.56	2.546e-05	3.1066e-05	356.82	153.4	123.61	58.018	2.7624e-05	85.846	-107.150	-110.654	-110.470	-159.954	24.468	-90.235	-160.797	-154.951	-9.244	-21.617	-156.799	-152.598	-150.926	-146.577	-7.015	-149.434	-8191	255	
26119.410	1	1	0	0	0.32254	0.18818	0.15611	0.1752	0.065589	0.0057143	0.17335	0.12443	0.087802	0.12012	0.051649	0.11683	0.15917	0.20484	0.12933	0.35213	-4.3729	-4.4917	-4.2229	-4.7312	-4.0938	-4.5813	-4.85	-4.1896	-4.6417	-4.5083	-4.3583	-4.8688	-4.1479	-4.6479	-4.7521	-4.2562	161.998	94.708	-160.163	29.586	80.639	84.457	23.779	135.687	46.752	12.264	72.152	172.491	22.103	-22.377	-61.101	149.344	0.00068476	0.00058835	0.00017727	676.42	5.3568e-06	1.0706e-05	696.65	263.22	5.0685e-06	6.4504e-06	307.43	143.37	114.39	53.968	3.202e-06	76.057	0.0015471	0.0028121	0.00083584	717.8	2.5251e-05	0.00028004	739.18	280.76	2.6416e-05	3.175e-05	365.41	154.02	123.76	58.155	2.6924e-05	84.835	-106.165	-80.506	-85.486	-159.672	-35.552	-114.159	-160.437	-154.983	-8.596	-41.450	-157.012	-152.591	-150.822	-146.511	-26.144	-149.442	-8191	255	
26119.508	1	1	0	0	0.24754	0.15673	0.274	0.036197	0.23547	0.057159	0.21113	0.18405	0.16237	0.19262	0.14314	0.14529	0.20772	0.071555	0.1272	0.017129	-4.3583	-4.5062	-4.0083	-4.7479	-4.3042	-4.3229	-4.8104	-4.2125	-4.6125	-4.3271	-4.2979	-4.8667	-4.3396	-4.4646	-4.7188	-4.3021	175.047	-5.122	-111.614	-148.350	-81.168	-91.039	110.258	73.410	135.333	-84.564	173.385	-141.227	14.266	127.043	17.985	154.226	0.00069088	0.00077762	6.4436e-05	677.53	2.9836e-06	0.00011706	697.49	262.97	6.4023e-06	4.3255e-06	309.74	143.73	114.89	54.035	3.6195e-06	76.1	0.0015606	0.0027461	0.00085814	719.57	2.5182e-05	0.00038931	741.58	281.43	2.647e-05	3.1326e-05	358.02	154.48	123.9	58.214	2.6654e-05	83.784	-107.866	-77.739	-67.012	-159.669	9.284	10.262	-160.537	-154.798	-34.156	-5.745	-157.124	-152.474	-151.029	-146.451	-38.839	-148.975	-8191	255	
26119.627	1	1	0	0	0.20191	0.1278	0.089565	0.20401	0.040422	0.11684	0.33823	0.31938	0.14085	0.11903	0.070418	0.10499	0.085853	0.24629	0.21065	0.28725	-4.2604	-4.6542	-4.1062	-4.925	-4.4833	-4.3167	-4.9354	-4.0667	-4.4125	-4.5542	-4.1937	-4.7375	-4.3854	-4.3917	-4.6438	-4.3375	118.545	13.995	-142.781	156.558	-170.658	29.577	75.587	133.834	-143.068	138.683	149.268	62.795	183.532	162.879	-32.487	167.510	0.0016911	0.00054535	0.00015492	681.54	3.256e-06	8.8392e-05	701.01	264.26	4.988e-06	6.6651e-06	310.86	144.05	115.02	54.183	3.5916e-06	75.858	0.0058161	0.0026722	0.00079232	721.33	2.546e-05	0.00029558	743.34	281.96	2.8125e-05	3.0971e-05	367.92	154.9	124.3	58.353	2.7376e-05	81.527	-114.078	-60.359	-79.725	-159.520	-23.991	17.852	-160.523	-154.814	-20.075	-17.425	-157.086	-152.432	-150.687	-146.302	-40.617	-148.979	-8191	255	
26119.699	1	1	0	0	0.19155	0.071663	0.14878	0.044764	0.04351	0.040216	0.013546	0.13935	0.18734	0.047027	0.25902	0.11053	0.14696	0.37149	0.079189	0.27511	-4.1292	-4.5979	-4.0458	-4.7958	-4.5062	-4.2063	-4.8667	-4.2792	-4.3542	-4.7896	-4.2125	-4.625	-4.6104	-4.1854	-4.5938	-4.375	85.183	152.399	52.203	-67.038	104.649	69.620	181.857	124.365	-92.343	128.674	134.731	-160.058	148.572	149.801	-13.434	136.689	0.0013721	0.00059031	8.4841e-05	680.98	5.7314e-06	0.00011679	698.17	263.48	5.163e-06	4.6793e-06	310.81	143.49	115.3	54.06	3.5196e-06	75.694	0.010109	0.0025879	0.00083317	721.51	2.5831e-05	0.00038946	742.17	281.07	2.7624e-05	2.9507e-05	358.37	154.18	124.15	58.22	2.6785e-05	81.232	-112.279	-79.225	-116.503	-159.566	-21.296	20.182	-160.845	-154.841	-7.843	-32.742	-156.928	-152.464	-150.887	-146.590	-34.713	-149.045	-8191	255	
26119.795	1	1	0	0	0.20298	0.090922	0.10907	0.21956	0.025297	0.19867	0.1194	0.086589	0.10874	0.1165	0.19288	0.16258	0.17993	0.28773	0.17239	0.31966	-3.8583	-4.5917	-4.1458	-4.5521	-4.4708	-4.0354	-4.7312	-4.3292	-4.1125	-4.6083	-4.2979	-4.5604	-4.6229	-4.2188	-4.6479	-4.6021	121.320	-47.288	9.432	177.056	-72.945	1.464	157.982	95.427	-78.893	-149.131	182.088	80.728	171.819	168.195	61.890	82.143	0.0017652	0.00040212	8.5589e-05	678.55	3.4767e-06	8.0928e-05	698.73	262.4	5.0712e-06	6.5325e-06	310.52	142.41	114.92	54.271	7.5116e-06	75.357	0.013189	0.0026023	0.00080396	719.25	2.4634e-05	0.0002937	739.39	279.78	2.7897e-05	2.979e-05	347.19	159.13	123.83	58.318	2.8335e-05	81.008	-97.561	-97.426	-85.217	-159.529	-25.134	24.700	-160.582	-154.780	-37.639	-23.390	-156.690	-153.251	-151.058	-146.292	-17.221	-148.979	-8191	255	
26119.891	1	1	0	0	0.094755	0.14785	0.22805	0.19293	0.12281	0.12963	0.073768	0.15222	0.25293	0.14016	0.16716	0.061213	0.060153	0.16782	0.1454	0.12916	-3.8917	-4.7292	-4.1542	-4.5021	-4.5146	-4.1521	-4.7646	-4.5625	-4.1021	-4.8354	-4.2562	-4.4292	-4.6583	-4.1083	-4.6792	-4.7063	174.349	-50.081	110.796	-19.457	-59.607	86.211	110.055	109.435	-161.273	90.540	35.448	-12.593	50.641	120.929	-117.022	20.609	0.0014017	0.00047186	0.00011594	679.15	4.3699e-06	0.00011485	698.46	261.8	4.5982e-06	5.1855e-06	312.85	142.33	115.29	54.13	2.0287e-06	75.32	0.010119	0.0026029	0.00076906	719.31	2.3967e-05	0.00038626	739.63	279.46	2.6303e-05	2.9599e-05	333.81	163.32	123.9	58.248	2.8885e-05	80.972	-92.543	-91.614	-51.990	-159.703	-7.744	37.005	-160.872	-154.871	-4.558	-34.136	-156.854	-152.975	-151.120	-146.542	-48.345	-149.062	-8191	255	
26120.012	1	1	0	0	0.24829	0.10631	0.06007	0.14574	0.10537	0.11984	0.068231	0.21103	0.11235	0.044975	0.26106	0.26766	0.2483	0.1568	0.1214	0.24337	-3.7375	-4.8667	-4.2417	-4.5083	-4.7104	-4.1375	-4.7708	-4.5813	-4.1979	-4.875	-4.4458	-4.4938	-4.7937	-4.2271	-4.6042	-4.7354	175.875	43.465	170.263	-110.836	-20.241	7.125	126.745	111.965	90.505	-152.827	68.624	49.948	107.221	-73.215	-75.232	146.960	0.0017437	0.00078414	0.00011083	678.58	1.9594e-06	7.6967e-05	698.93	262.79	6.0354e-06	6.498e-06	313.44	141.71	115.51	54.243	3.089e-06	75.659	0.013159	0.0025793	0.000771	719.69	2.34e-05	0.00029431	740.92	279.91	2.7069e-05	3.0343e-05	334.47	166.86	124.25	58.309	2.9169e-05	81.247	-89.496	-93.516	-82.663	-159.524	-28.075	44.735	-160.461	-154.881	-19.316	-44.303	-156.765	-152.928	-150.995	-146.602	-29.961	-148.977	-8191	255	
26120.105	1	1	0	0	0.089011	0.21581	0.10879	0.037447	0.20142	0.14462	0.196	0.22147	0.14634	0.056369	0.18567	0.0066687	0.22597	0.025095	0.24596	0.31479	-3.7167	-4.6792	-4.4104	-4.4271	-4.8229	-4.1542	-4.5792	-4.5729	-4.1833	-4.8896	-4.4708	-4.3146	-4.8208	-4.2312	-4.4896	-4.7083	-112.115	-151.099	-99.149	30.472	-33.113	-157.688	129.561	-150.699	-112.844	-128.794	154.602	10.006	-152.613	-55.150	-102.072	87.627	0.0013458	0.00050645	0.00012955	678.18	3.7182e-06	0.00012731	694.74	262.9	4.3189e-06	7.9834e-06	314.01	142.75	114.85	54.262	7.4912e-06	75.65	0.01008	0.002732	0.0007822	719.63	2.3554e-05	0.00017231	769.75	280.14	2.6222e-05	3.1749e-05	335	164.02	124.04	58.312	3.136e-05	81.322	-89.300	-103.990	-61.051	-159.617	-43.603	32.784	-160.882	-154.865	-32.794	-22.355	-156.884	-152.791	-150.961	-146.588	-32.191	-149.202	-8191	255	
26120.201	1	1	0	0	0.10076	0.22589	0.11107	0.19751	0.1198	0.1227	0.25406	0.30473	0.2759	0.161	0.095773	0.071227	0.0076117	0.090126	0.10408	0.2703	-3.6708	-4.7333	-4.1979	-4.3562	-4.7208	-4.1708	-4.5229	-4.7958	-4.2542	-4.6479	-4.5979	-4.2271	-4.7438	-4.5062	-4.475	-4.7812	-55.798	161.099	18.669	168.873	167.342	105.597	-166.752	154.839	95.834	160.329	-168.825	169.420	90.934	169.472	93.396	142.779	0.0015718	0.00037821	0.00018749	678.59	3.1669e-06	3.2058e-06	695.35	262.52	2.9329e-06	6.4097e-06	312.75	142.08	114.62	54.172	6.157e-06	75.203	0.013134	0.0028749	0.0007727	718.59	2.4273e-05	3.1449e-05	788.57	279.74	2.7363e-05	3.196e-05	333.84	166.84	123.66	58.104	2.9888e-05	80.853	-83.792	-62.228	-93.549	-159.611	-19.734	-24.620	-160.118	-154.787	-21.367	-25.882	-156.843	-152.874	-151.071	-146.428	-32.483	-149.146	-8191	255	
26120.299	1	1	0	0	0.098644	0.23853	0.091906	0.27406	0.09543	0.1348	0.11686	0.20151	0.15826	0.18903	0.21374	0.17696	0.17379	0.13102	0.14693	0.15708	-3.8146	-4.5333	-4.5667	-4.2937	-4.5208	-4.2958	-4.5042	-4.8938	-4.1833	-4.4729	-4.6562	-4.3458	-4.7729	-4.5167	-4.325	-4.9229	70.394	-154.825	-96.283	170.581	1.836	44.362	172.302	138.059	171.221	148.075	-148.554	-10.435	-127.439	137.914	-74.818	163.743	0.00078499	0.00055297	0.00014803	676.14	5.2294e-06	5.1421e-06	687.37	260.88	4.6494e-06	8.0446e-06	310.53	141.57	114.47	53.945	5.9028e-06	75.104	0.0098509	0.0028318	0.00075633	717.65	2.5112e-05	3.1371e-05	800.16	277.51	2.6476e-05	3.1859e-05	330.96	162.22	123.17	57.938	3.043e-05	80.606	-70.162	-83.503	-83.424	-159.566	-30.130	-49.466	-160.245	-155.157	-22.152	-10.500	-156.789	-153.167	-150.945	-146.595	-25.722	-149.209	-8191	255	
26120.395	1	1	0	0	0.12383	0.15948	0.211	0.13676	0.15689	0.21239	0.16525	0.066784	0.085332	0.13981	0.047942	0.17761	0.064249	0.28504	0.1085	0.087458	-4.0062	-4.4271	-4.6292	-4.3063	-4.6021	-4.3021	-4.3521	-4.8625	-4.1687	-4.5104	-4.7646	-4.2667	-4.7146	-4.5083	-4.2979	-4.9146	146.209	-166.584	-23.600	-6.020	-134.494	174.581	-158.003	-171.945	21.038	-53.553	84.211	-172.643	122.565	176.159	39.840	105.423	0.0010021	0.0061178	0.00010767	673.99	3.744e-06	4.1828e-06	689.07	259.24	3.7379e-06	8.2124e-06	309.36	141.23	113.99	53.882	5.2165e-06	75.267	0.0056013	0.017921	0.00072104	715.53	2.5492e-05	3.1201e-05	782.35	276.44	2.5754e-05	3.3598e-05	330	165.31	122.69	57.834	2.9265e-05	80.659	-57.943	-154.960	-87.756	-159.641	-17.856	-20.643	-160.473	-154.770	-35.347	-36.686	-156.890	-153.241	-150.907	-146.412	-27.050	-149.002	-8191	255	
26120.490	1	1	0	0	0.17622	0.016359	0.25192	0.20358	0.18921	0.15493	0.1464	0.091871	0.059669	0.040204	0.11754	0.2064	0.17614	0.044899	0.25893	0.12711	-3.9229	-4.525	-4.5729	-4.3667	-4.5563	-4.675	-4.2583	-4.9354	-4.3313	-4.4958	-4.7458	-4.2167	-4.7104	-4.7021	-4.1854	-4.9604	-138.653	174.559	113.768	86.959	17.131	74.279	58.264	31.039	-39.554	-53.628	100.135	180.349	87.143	-131.871	4.343	97.494	0.00068214	0.0079602	0.00011514	673.42	5.5351e-06	4.7559e-06	680.47	258.24	5.5279e-06	6.0417e-06	309.3	141.69	113.8	53.672	3.1491e-06	74.994	0.0015142	0.025553	0.00073034	714.17	2.6039e-05	3.0693e-05	796.78	275.55	2.5741e-05	3.3429e-05	329.97	160.93	122.41	57.699	3.0511e-05	80.694	-109.042	-101.497	-77.473	-159.703	-46.976	-33.115	-160.147	-154.786	-9.559	1.249	-157.112	-152.359	-150.679	-146.371	-13.806	-149.221	-8191	255	
26120.588	1	1	0	0	0.13853	0.19343	0.17992	0.24581	0.18051	0.19553	0.15728	0.36261	0.16138	0.28991	0.073372	0.1999	0.10679	0.099781	0.2188	0.20917	-4.1854	-4.2812	-4.6667	-4.2021	-4.6604	-4.5687	-4.375	-4.9708	-4.2562	-4.2562	-4.8333	-4.5229	-4.5958	-4.8125	-4.2083	-4.9563	142.418	-144.236	-35.148	133.893	123.788	92.630	-141.503	152.402	-97.078	-128.699	-159.441	97.105	-43.113	92.933	60.531	-119.963	0.00066326	0.010444	0.00018833	673.3	4.9327e-06	4.0905e-06	690.13	258.22	3.0436e-06	5.644e-06	309.8	141.37	113.34	53.646	3.0272e-06	75.166	0.0015344	0.033726	0.00074154	714.82	2.6329e-05	3.0269e-05	784.7	276.41	2.5483e-05	3.4059e-05	331.07	156.68	130.4	57.774	2.9642e-05	80.919	-107.952	-93.644	-89.718	-159.425	-45.950	0.387	-160.140	-154.838	13.707	-35.757	-156.866	-152.559	-151.976	-146.508	-20.199	-148.869	-8191	255	
26120.707	1	1	0	0	0.1175	0.169	0.24258	0.12609	0.029389	0.26755	0.16973	0.21545	0.15832	0.26094	0.11008	0.19108	0.04266	0.50727	0.10169	0.3461	-4.025	-4.3458	-4.875	-4.3042	-4.4604	-4.7417	-4.1042	-4.8187	-4.4583	-4.1042	-4.7458	-4.3583	-4.6125	-4.7812	-4.2271	-4.6458	7.215	154.232	64.227	71.933	67.677	169.475	120.292	76.785	-33.401	-29.253	-31.689	97.056	-32.046	143.283	85.489	116.132	0.00065623	0.0077098	0.00013219	673.68	3.1433e-06	3.5864e-06	686.8	258.73	2.9663e-06	8.1729e-06	311.07	141.84	113.39	53.601	2.2846e-06	75.02	0.0015448	0.025545	0.00076396	715.7	2.8125e-05	3.0305e-05	800.5	276.49	2.5922e-05	3.3424e-05	331.49	152.94	133.15	57.789	3.1918e-05	80.806	-107.815	-88.969	-102.224	-159.693	-34.049	-17.489	-160.362	-154.953	-41.270	-34.516	-157.049	-152.246	-151.763	-146.619	-73.155	-149.015	-8191	255	
26120.805	1	1	0	0	0.35917	0.087968	0.086211	0.15927	0.30187	0.13662	0.14786	0.088248	0.15311	0.055966	0.083783	0.12396	0.101	0.32952	0.086156	0.070715	-4.3063	-4.1333	-4.7646	-4.4979	-4.3229	-4.8146	-4.2604	-4.6479	-4.5604	-4.15	-4.8333	-4.4083	-4.4729	-4.9313	-4.3	-4.5813	129.503	-135.121	-18.070	104.767	110.385	-38.247	71.024	41.806	-112.781	-160.263	-147.297	-167.116	119.119	135.350	64.404	-163.133	0.0007003	0.010781	0.00013822	672.28	5.408e-06	6.0549e-06	690.44	258.7	5.3002e-06	6.6934e-06	309.67	141.45	113.6	53.865	5.3317e-06	75.047	0.00151	0.033677	0.00078472	713.67	2.6867e-05	3.0457e-05	776.25	276.41	2.5047e-05	3.3218e-05	330.06	152.24	136.68	57.875	3.0123e-05	80.538	-106.965	-81.630	-73.408	-159.633	-37.855	-29.439	-160.054	-155.017	-50.784	15.564	-156.875	-152.529	-151.833	-146.553	-39.535	-149.040	-8191	255	
26120.900	1	1	0	0	0.16774	0.19642	0.25413	0.14263	0.072572	0.13499	0.32885	0.13921	0.17939	0.22148	0.072785	0.29874	0.074859	0.27273	0.059303	0.18755	-4.2167	-4.0938	-4.6292	-4.5146	-4.2896	-4.8104	-4.3646	-4.6042	-4.6188	-4.0708	-4.8479	-4.5062	-4.3125	-4.7542	-4.1708	-4.6104	185.528	-116.696	-82.377	25.615	14.867	62.763	165.393	-151.871	113.989	100.913	25.768	159.630	-123.445	156.547	20.207	171.517	0.00067056	0.0085323	0.00017679	673.07	4.6342e-06	6.0243e-06	688.25	257.06	5.3703e-06	6.2185e-06	309.5	141.34	114.13	53.752	6.0918e-06	75.133	0.0014739	0.025476	0.00080349	713.64	2.6759e-05	3.066e-05	752.79	287.78	2.4294e-05	3.2764e-05	329.86	152.27	133.01	57.837	2.8493e-05	80.738	-107.733	-75.495	-96.114	-159.655	-47.835	-45.098	-159.982	-155.198	-31.141	-41.098	-156.847	-152.464	-151.796	-146.251	-15.802	-149.044	-8191	255	
26120.996	1	1	0	0	0.025332	0.096265	0.095469	0.19676	0.057093	0.24869	0.20024	0.097547	0.28739	0.2554	0.17064	0.11319	0.21163	0.22402	0.20576	0.35319	-4.5646	-4.2417	-4.7146	-4.5938	-4.2604	-4.8146	-4.4354	-4.5979	-4.7646	-4.2	-4.6937	-4.7042	-4.2792	-4.8083	-4.2583	-4.4354	116.290	-144.972	-41.955	111.245	150.073	-117.769	-149.261	72.487	169.855	-93.281	-156.728	61.269	152.112	-84.360	-4.121	133.079	0.00067615	0.01074	0.00012968	668.66	3.8942e-06	5.3289e-06	693.79	256.85	3.9271e-06	8.4855e-06	310.17	141.14	114.08	53.988	3.9144e-06	75.294	0.0014761	0.033814	0.00078768	712.92	2.6489e-05	3.118e-05	736.36	290.95	2.479e-05	3.4956e-05	330.62	152.28	136.8	57.983	2.8584e-05	80.909	-107.834	-73.385	-93.706	-159.778	-46.150	-55.366	-160.633	-154.700	-30.881	-12.154	-156.798	-152.454	-151.924	-146.695	-45.227	-149.104	-8191	255	
26121.092	1	1	0	0	0.062069	0.20261	0.14239	0.30935	0.22181	0.19541	0.27302	0.1227	0.14963	0.16428	0.30662	0.102	0.32105	0.075143	0.14544	0.12269	-4.4229	-4.1125	-4.5792	-4.7562	-4.0687	-4.8646	-4.3104	-4.3396	-4.7083	-4.0479	-4.6708	-4.5896	-4.2479	-4.8833	-4.4854	-4.5229	184.674	157.004	-164.852	83.579	152.098	-21.128	54.723	101.727	-145.460	-127.632	142.030	68.247	157.649	-130.033	-99.206	94.190	0.00066416	0.0074948	0.00051714	675.04	3.8771e-06	4.3713e-06	695.26	255.63	4.6298e-06	7.0863e-06	310.81	142.11	114.34	53.788	5.9298e-06	75.376	0.0014754	0.022052	0.00085561	715.27	2.7197e-05	3.1744e-05	738.38	296.63	2.4883e-05	3.2825e-05	331.75	152.95	133.37	57.976	2.8043e-05	81.158	-106.549	-62.042	-121.005	-159.591	-47.001	-16.692	-160.491	-155.048	-38.624	-10.065	-156.771	-152.579	-151.651	-146.355	-45.364	-149.010	-8191	255	
26121.188	1	1	0	0	0.14647	0.0848	0.1367	0.068402	0.1012	0.11389	0.10498	0.13172	0.19833	0.16553	0.18914	0.26189	0.12724	0.14648	0.30026	0.14091	-4.3458	-4.2438	-4.5188	-4.5854	-4.1208	-4.7896	-4.4792	-4.3521	-4.75	-4.1438	-4.5396	-4.6958	-4.0854	-4.7396	-4.3896	-4.2229	56.541	-58.292	12.037	149.891	-114.077	-0.161	-150.635	80.634	-7.849	-88.575	149.579	155.726	152.898	159.335	153.137	107.381	0.00069763	0.01087	0.00030258	675.35	5.5221e-06	6.0946e-06	696.6	257.21	4.8926e-06	6.2922e-06	310.49	142.77	114.41	53.813	2.8031e-06	75.11	0.0015337	0.0095403	0.0062478	715.66	2.7232e-05	3.2924e-05	739.27	291.95	2.5245e-05	3.1319e-05	331.94	153.26	137.23	57.94	2.7558e-05	81.018	-109.454	-53.517	-111.876	-159.434	-34.155	-7.378	-160.767	-155.010	-29.967	-47.251	-156.810	-152.395	-151.778	-146.494	-59.540	-149.077	-8191	255	
26121.307	1	1	0	0	0.15351	0.13443	0.17443	0.067279	0.10365	0.16995	0.15795	0.17138	0.13278	0.061296	0.051426	0.11676	0.25036	0.13268	0.092392	0.077025	-4.4812	-4.2792	-4.4042	-4.8271	-4.1792	-4.6708	-4.6625	-4.1542	-4.7979	-4.3187	-4.3063	-4.7438	-4.1396	-4.7583	-4.4896	-4.3854	-94.502	-59.201	-88.149	-129.672	-25.081	65.907	64.192	70.638	170.747	146.799	-56.354	143.407	-102.601	183.304	124.838	156.493	0.00068017	0.0004589	0.002078	673.06	3.7212e-06	5.8053e-06	691.32	255.89	5.444e-06	3.1742e-06	308.68	141.97	114.57	53.719	5.864e-06	75.11	0.001542	0.0027982	0.0072281	714.93	2.7922e-05	3.282e-05	736.57	296.34	2.5776e-05	3.1769e-05	329.57	152.48	131	58.051	2.684e-05	80.711	-107.184	-66.774	-49.595	-159.565	-18.716	-45.963	-160.480	-154.977	-19.529	10.048	-156.713	-152.437	-150.762	-146.803	-4.446	-148.961	-8191	255	
26121.402	1	1	0	0	0.11054	0.095838	0.19033	0.11902	0.039899	0.17184	0.10777	0.21798	0.10209	0.17758	0.053485	0.22184	0.26422	0.031942	0.13439	0.098793	-4.4167	-4.2167	-4.3396	-4.8417	-4.1458	-4.5396	-4.6188	-4.1583	-4.6208	-4.3292	-4.3146	-4.9604	-4.2771	-4.6354	-4.6875	-4.3958	-99.943	66.388	-60.654	185.521	169.943	174.220	163.760	182.299	65.086	14.260	146.018	76.851	-51.023	166.612	-65.392	-139.545	0.0006506	0.00063153	0.0032406	676.34	5.1086e-06	5.1986e-06	691.31	256.36	4.8066e-06	4.7643e-06	309.27	142.18	114.54	54.119	4.0574e-06	75.297	0.0015367	0.0027569	0.0095086	714.5	2.6421e-05	3.3147e-05	734.87	290.88	2.6518e-05	3.0273e-05	329.84	152.36	125.08	60.402	2.6921e-05	80.899	-108.396	-72.268	-42.255	-159.679	-36.642	-35.468	-160.530	-154.928	-25.713	-22.966	-156.562	-152.568	-150.817	-147.051	-42.727	-149.057	-8191	255	
26121.500	1	1	0	0	0.15213	0.12946	0.046547	0.27993	0.17783	0.23568	0.41996	0.13259	0.067872	0.037482	0.093444	0.13799	0.17946	0.18961	0.14734	0.097793	-4.2667	-4.3708	-4.2396	-4.6875	-4.0813	-4.5271	-4.8	-4.0729	-4.4917	-4.55	-4.1396	-4.7688	-4.4688	-4.4083	-4.6333	-4.15	-62.544	71.995	-153.661	166.257	135.584	-84.602	115.440	152.582	-20.579	43.465	158.406	26.437	129.822	112.292	141.323	177.062	0.00066382	0.00057355	0.002254	672.75	2.7586e-06	5.2139e-06	693.84	257.39	3.0555e-06	6.0919e-06	309.32	141.86	114.22	54.351	4.1467e-06	75.331	0.0015392	0.0026589	0.0072035	713.77	2.5966e-05	3.4665e-05	734.83	296.22	2.6355e-05	3.0519e-05	330.27	152.89	122.83	60.721	2.7529e-05	80.96	-111.813	-72.606	-40.071	-159.786	-6.289	-21.728	-160.509	-154.933	-28.234	-33.104	-156.588	-152.466	-150.802	-146.897	-7.697	-149.070	-8191	255	
26121.570	1	1	0	0	0.30238	0.096451	0.11594	0.15621	0.31007	0.089901	0.14303	0.24859	0.013151	0.075344	0.069536	0.12359	0.037374	0.28731	0.065562	0.20579	-4.3396	-4.5896	-4.2667	-4.6958	-4.125	-4.3896	-4.8583	-4.3063	-4.575	-4.525	-4.1979	-4.7271	-4.4104	-4.5042	-4.5813	-4.4083	99.865	-62.643	-2.933	101.666	112.864	-116.522	143.012	135.049	-80.641	98.656	3.358	162.013	30.504	-121.851	119.583	176.853	0.0006683	0.000523	0.0030544	672.37	5.5475e-06	3.1862e-06	693.78	258.53	5.4752e-05	7.8225e-06	310.74	141.49	114.09	54.366	3.3288e-06	75.454	0.0015713	0.002659	0.0095546	713.86	2.5398e-05	3.3093e-05	737.49	287.5	4.5933e-05	3.0414e-05	331.23	152.91	122.79	61.641	2.8267e-05	81.209	-107.393	-85.434	-32.499	-159.673	-31.715	-27.553	-160.582	-154.864	-141.414	-13.404	-156.665	-152.332	-150.911	-146.968	-33.140	-149.089	-8191	255	
26121.691	1	1	0	0	0.065871	0.16664	0.27301	0.12913	0.070638	0.021149	0.18221	0.19453	0.21322	0.15445	0.026618	0.093308	0.24137	0.099618	0.10256	0.21135	-4.3187	-4.3604	-4.1062	-4.7354	-4.425	-4.1729	-4.8104	-4.0833	-4.4917	-4.7438	-4.4167	-4.5375	-4.5	-4.0979	-4.7833	-4.3208	92.102	20.746	-28.545	-141.556	119.799	-74.135	133.738	-155.772	-14.837	-94.052	-93.722	-73.662	127.123	98.351	-69.518	-125.326	0.00067929	0.0008444	0.0019829	674.6	4.9328e-06	6.8428e-06	700.04	257.29	7.7414e-05	3.8956e-06	311.14	142.35	114.31	54.514	4.1891e-06	75.282	0.0015595	0.0026677	0.0072594	714.97	2.4712e-05	3.4235e-05	740.92	279.08	0.00022634	3.0255e-05	332.34	153.29	123.15	60.696	2.8861e-05	81.14	-108.758	-67.427	-23.490	-159.578	-10.297	-53.302	-160.619	-154.445	-136.592	-43.852	-156.680	-152.407	-151.090	-146.916	-45.801	-148.906	-8191	255	
#DATA ENDS
