BOXY.EXE: ISS Imagent and Oximeter Data Acquisition Program Version 0.80
Ascii Record File

#ACQ INFORMATION
2  Detector Channels 
16  External MUX Channels 
1  Auxiliary Channels 
5000  Waveform (CCF) Frequency (Hz)
1  Waveforms Skipped 
30  Waveforms Averaged 
1  Cycles Averaged 
16  Acquisitions per Waveform 
10.0806  Updata Rate (Hz) 

#FILE INFORMATION
TRUE -- External MUX Channel results are PARSED.
FALSE -- AC DC and Phase are NOT grouped.
TRUE -- Companion Program Settings File CREATED.
FALSE -- AC data not excluded
FALSE -- DC data not excluded
FALSE -- Phase data not excluded
FALSE -- Auxillary Chn. data not excluded
Tab delimiters

#CALIBRATION STATE
TRUE -- Waveform Calibration Values APPLIED.


#AUX CALIBRATION VALUES
Val Type	aux-1	

Term	1.0000e+00	
Factor	0.0000e+00	


#WF CALIBRATION VALUES
A = Detector Channel
Val Type	A-AC1	A-AC2	A-AC3	A-AC4	A-AC5	A-AC6	A-AC7	A-AC8	A-AC9	A-AC10	A-AC11	A-AC12	A-AC13	A-AC14	A-AC15	A-AC16	A-DC1	A-DC2	A-DC3	A-DC4	A-DC5	A-DC6	A-DC7	A-DC8	A-DC9	A-DC10	A-DC11	A-DC12	A-DC13	A-DC14	A-DC15	A-DC16	A-Ph1	A-Ph2	A-Ph3	A-Ph4	A-Ph5	A-Ph6	A-Ph7	A-Ph8	A-Ph9	A-Ph10	A-Ph11	A-Ph12	A-Ph13	A-Ph14	A-Ph15	A-Ph16	

Term	0.00000e+00	0.00000e+00	0.00000e+00	0.00000e+00	0.00000e+00	0.00000e+00	0.00000e+00	0.00000e+00	0.00000e+00	0.00000e+00	0.00000e+00	0.00000e+00	0.00000e+00	0.00000e+00	0.00000e+00	0.00000e+00	0.00000e+00	0.00000e+00	0.00000e+00	0.00000e+00	0.00000e+00	0.00000e+00	0.00000e+00	0.00000e+00	0.00000e+00	0.00000e+00	0.00000e+00	0.00000e+00	0.00000e+00	0.00000e+00	0.00000e+00	0.00000e+00	0.00000e+00	0.00000e+00	0.00000e+00	0.00000e+00	0.00000e+00	0.00000e+00	0.00000e+00	0.00000e+00	0.00000e+00	0.00000e+00	0.00000e+00	0.00000e+00	0.00000e+00	0.00000e+00	0.00000e+00	0.00000e+00	
Factor	1.00000e+00	1.00000e+00	1.00000e+00	1.00000e+00	1.00000e+00	1.00000e+00	1.00000e+00	1.00000e+00	1.00000e+00	1.00000e+00	1.00000e+00	1.00000e+00	1.00000e+00	1.00000e+00	1.00000e+00	1.00000e+00	1.00000e+00	1.00000e+00	1.00000e+00	1.00000e+00	1.00000e+00	1.00000e+00	1.00000e+00	1.00000e+00	1.00000e+00	1.00000e+00	1.00000e+00	1.00000e+00	1.00000e+00	1.00000e+00	1.00000e+00	1.00000e+00	X	X	X	X	X	X	X	X	X	X	X	X	X	X	X	X	

B = Detector Channel
Val Type	B-AC1	B-AC2	B-AC3	B-AC4	B-AC5	B-AC6	B-AC7	B-AC8	B-AC9	B-AC10	B-AC11	B-AC12	B-AC13	B-AC14	B-AC15	B-AC16	B-DC1	B-DC2	B-DC3	B-DC4	B-DC5	B-DC6	B-DC7	B-DC8	B-DC9	B-DC10	B-DC11	B-DC12	B-DC13	B-DC14	B-DC15	B-DC16	B-Ph1	B-Ph2	B-Ph3	B-Ph4	B-Ph5	B-Ph6	B-Ph7	B-Ph8	B-Ph9	B-Ph10	B-Ph11	B-Ph12	B-Ph13	B-Ph14	B-Ph15	B-Ph16	

Term	0.00000e+00	0.00000e+00	0.00000e+00	0.00000e+00	0.00000e+00	0.00000e+00	0.00000e+00	0.00000e+00	0.00000e+00	0.00000e+00	0.00000e+00	0.00000e+00	0.00000e+00	0.00000e+00	0.00000e+00	0.00000e+00	0.00000e+00	0.00000e+00	0.00000e+00	0.00000e+00	0.00000e+00	0.00000e+00	0.00000e+00	0.00000e+00	0.00000e+00	0.00000e+00	0.00000e+00	0.00000e+00	0.00000e+00	0.00000e+00	0.00000e+00	0.00000e+00	-2.04314e+02	-1.42203e+02	-1.28168e+02	-1.83188e+02	-8.07192e+01	-9.55538e+01	-1.57235e+02	-1.62015e+02	-9.38696e+01	-7.87754e+01	-1.72586e+02	-1.73078e+02	-1.80462e+02	-1.78286e+02	-1.03677e+02	-1.51187e+02	
Factor	5.12228e-05	5.56067e-05	1.88345e-05	1.95333e-01	6.11813e-07	6.20629e-07	2.43410e-01	8.63391e-02	5.78950e-07	5.10576e-07	1.23214e-01	4.08652e-02	3.29490e-02	1.20693e-02	4.99769e-07	1.77148e-02	2.19044e-07	2.19549e-07	6.10483e-08	8.04949e-02	2.40446e-09	2.40050e-09	9.18355e-02	3.25942e-02	2.40413e-09	2.39780e-09	4.31712e-02	1.43532e-02	1.21673e-02	4.38651e-03	2.40139e-09	6.00466e-03	X	X	X	X	X	X	X	X	X	X	X	X	X	X	X	X	



#DISTANCE SETTINGS
A = Detector Channel
A-1	A-2	A-3	A-4	A-5	A-6	A-7	A-8	A-9	A-10	A-11	A-12	A-13	A-14	A-15	A-16	

2.5000e+00	3.0000e+00	2.5000e+00	3.0000e+00	2.0000e+00	3.0000e+00	1.5000e+00	3.0000e+00	3.0000e+00	3.0000e+00	3.0000e+00	3.0000e+00	3.0000e+00	3.0000e+00	1.5000e+00	3.0000e+00	

B = Detector Channel
B-1	B-2	B-3	B-4	B-5	B-6	B-7	B-8	B-9	B-10	B-11	B-12	B-13	B-14	B-15	B-16	

1.0000e+01	1.0000e+01	1.0000e+01	1.4400e+00	1.0000e+01	1.0000e+01	1.5100e+00	1.9400e+00	1.0000e+01	1.0000e+01	1.9900e+00	2.4900e+00	2.4100e+00	2.9000e+00	1.0000e+01	2.9800e+00	




#DATA BEGINS
time	group	step	mark	flag	A-AC1	A-AC2	A-AC3	A-AC4	A-AC5	A-AC6	A-AC7	A-AC8	A-AC9	A-AC10	A-AC11	A-AC12	A-AC13	A-AC14	A-AC15	A-AC16	A-DC1	A-DC2	A-DC3	A-DC4	A-DC5	A-DC6	A-DC7	A-DC8	A-DC9	A-DC10	A-DC11	A-DC12	A-DC13	A-DC14	A-DC15	A-DC16	A-Ph1	A-Ph2	A-Ph3	A-Ph4	A-Ph5	A-Ph6	A-Ph7	A-Ph8	A-Ph9	A-Ph10	A-Ph11	A-Ph12	A-Ph13	A-Ph14	A-Ph15	A-Ph16	B-AC1	B-AC2	B-AC3	B-AC4	B-AC5	B-AC6	B-AC7	B-AC8	B-AC9	B-AC10	B-AC11	B-AC12	B-AC13	B-AC14	B-AC15	B-AC16	B-DC1	B-DC2	B-DC3	B-DC4	B-DC5	B-DC6	B-DC7	B-DC8	B-DC9	B-DC10	B-DC11	B-DC12	B-DC13	B-DC14	B-DC15	B-DC16	B-Ph1	B-Ph2	B-Ph3	B-Ph4	B-Ph5	B-Ph6	B-Ph7	B-Ph8	B-Ph9	B-Ph10	B-Ph11	B-Ph12	B-Ph13	B-Ph14	B-Ph15	B-Ph16	aux-1	digaux	

2729.051	1	1	0	768	0.11328	0.083228	0.062234	0.23535	0.13044	0.23109	0.11661	0.19595	0.087776	0.026043	0.18671	0.16725	0.14431	0.068236	0.045662	0.12777	-3.5417	-3.8667	-4.2125	-3.7583	-4.2146	-4.2271	-3.7604	-4.525	-3.8063	-3.8458	-4.3271	-3.8583	-4.1667	-4.2646	-3.6167	-4.4854	367.401	269.952	251.839	364.601	338.744	248.857	410.468	308.585	339.742	223.158	98.894	412.972	71.192	392.417	342.588	413.439	0.0023901	0.00019554	8.0929e-05	925.46	3.3131e-06	2.4454e-06	936.71	436.78	3.0507e-06	1.6936e-06	482.79	218.86	196.31	108.67	1.9097e-06	128.55	3.6204e-05	2.9486e-05	7.5945e-06	798.81	3.1592e-07	3.1534e-07	786.73	346.35	3.2446e-07	3.2196e-07	366.4	166.02	151.07	83.26	3.1187e-07	94.09	87.369	130.042	160.331	75.133	216.275	196.090	73.241	80.282	179.756	191.024	77.158	82.034	85.142	89.602	187.769	85.547	-8191	255	
2729.147	1	1	0	0	0.088584	0.22168	0.13526	0.16305	0.18754	0.085065	0.10046	0.18588	0.12158	0.051647	0.19177	0.23145	0.4642	0.42143	0.15998	0.57916	-3.5583	-3.8312	-4.1375	-3.6646	-3.8042	-4.2229	-3.4562	-4.1813	-3.8937	-3.9188	-4.2958	-3.7687	-4.1292	-4.2583	-3.7104	-4.3708	92.746	421.190	157.342	360.449	278.939	189.667	236.621	384.366	209.285	404.091	364.391	355.383	385.443	379.998	202.184	390.979	0.0023881	0.00026489	3.338e-05	922.14	2.1965e-06	1.4168e-06	930.79	434.18	2.1979e-06	2.627e-06	482.68	219.33	195.99	108.36	1.6912e-06	128.33	3.9448e-05	3.0191e-05	7.6182e-06	797.04	3.4983e-07	3.2952e-07	782.68	345.24	3.5849e-07	3.287e-07	365.74	166.22	150.85	82.797	3.126e-07	93.838	88.682	133.145	162.280	75.160	184.989	165.570	73.228	80.120	186.093	185.183	77.381	81.758	85.087	89.707	186.110	85.424	-8191	255	
2729.244	1	1	0	0	0.11853	0.19691	0.09569	0.2213	0.092566	0.34286	0.32953	0.09973	0.081374	0.13248	0.28938	0.20941	0.35768	0.27351	0.005619	0.16516	-3.7271	-3.6396	-4.3187	-3.8187	-3.9667	-4.3125	-3.7896	-4.1083	-3.7792	-3.675	-4.3854	-3.8125	-4.1354	-4.4583	-3.6396	-4.5042	233.295	386.615	163.358	372.894	112.757	246.747	339.040	327.300	337.546	200.934	409.069	342.373	383.244	65.986	201.622	369.100	0.0023623	0.00021674	7.3835e-05	916.17	3.639e-06	3.0396e-06	926.21	432	2.7771e-06	3.0727e-06	477.05	217.77	195.08	107.95	2.0681e-06	127.8	4.0289e-05	3.0077e-05	7.6186e-06	792.8	3.5439e-07	3.2081e-07	777.58	343.54	3.5429e-07	3.2136e-07	362.68	165.29	150.35	82.632	3.1095e-07	93.344	87.538	136.854	152.237	75.131	204.347	172.716	73.307	80.183	175.631	196.939	77.166	81.724	85.016	89.674	198.950	85.486	-8191	255	
2729.340	1	1	0	0	0.089794	0.12259	0.071776	0.15065	0.23496	0.13196	0.025031	0.15881	0.18948	0.17401	0.074028	0.2755	0.11188	0.2725	0.15637	0.22622	-3.6937	-3.5938	-4.3063	-3.9167	-3.5979	-4.325	-3.6417	-4.1229	-3.9854	-3.5771	-4.2146	-3.8792	-3.9375	-4.4563	-3.4875	-3.9625	270.462	291.456	345.798	174.647	284.284	182.064	273.037	419.816	246.482	142.345	80.326	413.658	70.446	93.856	261.063	419.248	0.0022674	0.00022388	8.0341e-05	912.44	4.1476e-06	2.028e-06	918.41	429.61	1.4725e-06	2.0169e-06	478.81	215.64	194.26	106.81	2.6533e-06	126.21	3.949e-05	2.9465e-05	7.6831e-06	790.39	3.4935e-07	3.2116e-07	773.37	343.04	3.4804e-07	3.1461e-07	362.36	163.88	149.28	81.728	3.1648e-07	92.308	88.193	125.088	140.180	75.070	206.018	222.868	73.155	80.136	212.624	202.047	77.232	81.727	85.118	89.435	178.988	85.430	-8191	255	
2729.434	1	1	0	0	0.079209	0.16154	0.18959	0.2899	0.026204	0.18352	0.073758	0.34765	0.076335	0.020995	0.037217	0.078402	0.1486	0.2406	0.20041	0.10415	-3.7854	-3.4833	-4.325	-3.8	-4.0125	-4.3604	-3.7042	-4.1438	-4.3021	-3.7042	-4.3125	-4.0521	-3.9271	-4.4688	-3.7812	-4.1271	244.552	380.203	193.773	347.259	413.255	151.560	382.067	323.972	352.536	164.094	388.281	387.514	112.135	416.559	243.245	307.176	0.002361	0.00019731	8.2335e-05	917.53	1.9995e-06	3.3043e-06	931.14	434.53	2.3539e-06	2.1454e-06	482.21	215.85	194.62	106.93	3.7301e-06	126.38	3.8205e-05	2.8101e-05	7.92e-06	793.69	3.2494e-07	2.9764e-07	780.39	345.19	3.1769e-07	2.9387e-07	364.65	164.04	149.59	81.694	3.2011e-07	92.517	87.810	157.956	151.044	75.064	219.829	202.755	73.213	79.936	196.801	194.601	77.403	81.646	85.059	89.588	171.689	85.416	-8191	255	
2729.532	1	1	0	0	0.028497	0.19839	0.19288	0.20144	0.34224	0.20738	0.17737	0.050696	0.19168	0.28581	0.059589	0.28107	0.36017	0.12446	0.13731	0.081857	-3.8	-3.3438	-4.225	-4.0083	-3.6583	-4.3812	-3.7188	-3.9688	-4.2604	-3.6958	-4.275	-4.1333	-3.7375	-4.4708	-4.0125	-4.0938	269.674	159.997	281.607	63.908	244.855	188.463	301.144	412.313	407.058	407.085	221.045	381.670	414.927	338.955	117.626	368.961	0.0023644	0.00032266	0.00010463	921.01	1.5475e-06	7.8311e-07	939.85	439.59	2.9931e-06	1.4483e-06	486.5	217.7	195.72	106.54	2.6922e-06	125.22	3.5688e-05	2.5701e-05	7.8649e-06	798.43	2.9329e-07	2.6535e-07	788.31	349.18	2.8173e-07	2.5565e-07	369.43	164.92	150.28	81.199	2.9753e-07	91.424	87.540	144.791	145.126	74.957	199.638	170.474	73.047	79.840	186.555	202.638	77.095	81.573	84.748	89.313	200.158	85.157	-8191	255	
2729.651	1	1	0	0	0.25042	0.10084	0.12064	0.077235	0.47908	0.04572	0.06682	0.28805	0.32408	0.27206	0.23988	0.24736	0.12887	0.085567	0.17786	0.10269	-3.7771	-3.5146	-4.0896	-4.1292	-3.5833	-4.2146	-3.8896	-3.8417	-4.3854	-3.6042	-4.1062	-4.2354	-3.6125	-4.5875	-3.9208	-4.0208	303.109	149.248	67.357	292.904	199.182	186.009	387.198	323.643	153.534	408.711	124.373	151.837	83.040	360.860	79.608	307.165	0.0023317	0.00032476	7.4152e-05	931.61	2.7447e-06	2.2078e-06	941.46	440.95	3.2575e-06	3.1952e-06	485.45	215.25	194.32	105.39	2.9687e-06	124.49	3.1849e-05	2.3215e-05	7.4612e-06	803.27	2.608e-07	2.5358e-07	788.1	349.72	2.5848e-07	2.5704e-07	367.39	163.05	149.23	80.613	3.0719e-07	90.777	87.292	136.756	148.876	75.095	192.834	210.546	73.315	79.827	191.616	212.801	77.132	81.513	84.823	89.244	198.833	85.173	-8191	255	
2729.747	1	1	0	0	0.13589	0.21264	0.1508	0.098973	0.10266	0.030673	0.096706	0.25239	0.060789	0.13091	0.094668	0.18911	0.32307	0.0081785	0.10964	0.16041	-4.0771	-3.7354	-4.0687	-4.3479	-3.4083	-4.1667	-3.9042	-3.6979	-4.1979	-3.6208	-3.9333	-4.1729	-3.6854	-4.3625	-3.8292	-3.7958	89.455	246.947	194.771	108.344	140.550	244.836	154.574	314.454	409.873	344.895	244.802	64.215	401.557	347.451	242.957	393.039	0.0022698	0.00029946	7.2658e-05	926.14	1.9133e-06	2.6559e-06	933.18	441.22	2.7074e-06	1.7068e-06	483.09	213.21	195.1	105.39	3.2213e-06	123.57	3.0839e-05	2.4881e-05	7.5556e-06	798.13	2.5826e-07	2.7147e-07	785.04	348.97	2.5476e-07	2.7989e-07	366.27	162.17	149.08	80.593	2.9667e-07	90.431	87.519	119.053	155.202	75.028	194.975	210.076	73.034	79.941	190.648	180.849	76.876	81.545	84.738	89.406	183.043	85.218	-8191	255	
2729.843	1	1	0	0	0.11375	0.19338	0.055219	0.22857	0.177	0.12061	0.050224	0.05215	0.06639	0.14041	0.40888	0.094032	0.14681	0.27292	0.32487	0.3719	-3.8583	-3.7875	-3.7229	-4.3229	-3.6792	-4.0083	-4.0813	-3.7646	-4.1375	-3.7104	-3.8625	-4.1646	-3.7562	-3.9875	-4.0479	-3.7896	414.643	400.068	195.843	410.846	117.977	331.721	107.294	186.323	282.137	209.669	359.064	365.686	84.904	398.167	233.260	345.202	0.0023196	0.00034611	7.5834e-05	925.35	1.2624e-06	2.3036e-06	939.32	442.86	2.7195e-06	2.4048e-06	484.19	212.31	193.3	103.65	2.1696e-06	121.88	3.0495e-05	2.5996e-05	7.3516e-06	799.46	2.5853e-07	2.8564e-07	788.25	350.89	2.5307e-07	2.8952e-07	367.65	160.96	148.18	79.236	2.8485e-07	89.147	87.135	133.104	152.713	74.897	177.860	164.663	73.106	79.898	187.805	187.897	76.947	81.653	84.682	89.311	162.058	85.118	-8191	255	
2729.939	1	1	0	0	0.14531	0.27115	0.058392	0.17711	0.37836	0.086166	0.12459	0.18344	0.15336	0.055657	0.33831	0.088398	0.097355	0.15103	0.18008	0.13365	-3.6854	-3.9125	-3.7958	-4.4125	-3.6542	-4.0146	-4.225	-3.6188	-4.1667	-3.9062	-3.8208	-4.4292	-3.7188	-4.1667	-4.15	-3.7062	279.739	287.076	63.130	393.084	99.642	187.665	269.308	241.572	248.444	145.717	402.613	327.170	324.099	403.446	210.192	347.984	0.0023581	0.00029971	0.00010441	927.25	3.2497e-06	3.0739e-06	939.36	442.46	3.0795e-06	1.4089e-06	485.05	212.07	192.48	103.55	1.9365e-06	122.32	3.1178e-05	2.7286e-05	7.0792e-06	799.21	2.6602e-07	2.9052e-07	787.18	350.1	2.6331e-07	2.8732e-07	367.41	160.25	147.76	79.085	2.7196e-07	89.218	85.978	147.941	148.773	75.061	209.684	195.585	73.057	79.726	186.419	255.632	76.914	81.515	84.917	89.309	178.044	85.182	-8191	255	
2730.036	1	1	0	0	0.093521	0.26401	0.018889	0.14089	0.15389	0.17386	0.16495	0.1139	0.11677	0.054639	0.085322	0.059122	0.17197	0.27634	0.22717	0.19248	-3.7042	-3.9958	-3.6688	-4.2438	-3.8271	-3.9875	-4.4583	-3.825	-4.0792	-3.9583	-3.5604	-4.4229	-3.8021	-4.2292	-4.2083	-3.8917	271.623	80.076	94.882	321.818	296.649	395.100	122.292	390.717	323.666	327.244	229.625	79.188	388.541	370.820	239.333	396.551	0.0023048	0.00012976	6.0251e-05	923.65	2.3803e-06	1.8997e-06	932.11	439.54	3.1481e-06	2.0649e-06	481.89	212.23	193.08	104.97	2.3398e-06	123.94	3.1762e-05	2.6408e-05	6.7514e-06	794.92	2.7474e-07	2.8306e-07	780.91	348.85	2.7702e-07	2.8053e-07	364.74	160.28	148.05	80.226	2.6695e-07	90.433	87.610	149.576	142.522	75.008	192.874	176.431	73.083	79.896	194.291	198.141	77.165	81.693	84.773	89.201	184.897	85.172	-8191	255	
2730.132	1	1	0	0	0.19052	0.081243	0.15392	0.27965	0.24128	0.13757	0.25974	0.033459	0.26037	0.1724	0.19797	0.23538	0.13028	0.42129	0.15023	0.10719	-3.7104	-4.0938	-3.5292	-4.3979	-3.9125	-3.6229	-4.4292	-3.6354	-4	-4.1083	-3.7375	-4.2854	-4.0375	-3.8729	-4.1833	-3.9771	129.770	262.676	413.561	330.263	288.258	116.333	371.163	356.767	95.619	254.249	292.071	371.712	123.337	358.962	71.551	301.529	0.00226	0.00030752	5.3843e-05	917.43	2.7999e-06	3.2165e-06	931.37	439.53	3.1753e-06	1.6651e-06	481.84	213.16	193.09	105.34	2.0367e-06	124.62	3.3504e-05	2.5681e-05	6.4612e-06	792.43	2.9296e-07	2.7615e-07	779.82	348.07	2.9149e-07	2.7637e-07	364.48	160.7	148.07	80.441	2.5859e-07	90.93	88.092	148.795	142.510	75.073	216.055	177.284	73.155	79.834	216.233	216.943	77.127	81.723	85.068	89.351	191.295	85.272	-8191	255	
2730.252	1	1	0	0	0.14281	0.12475	0.13117	0.16748	0.21963	0.24159	0.22785	0.25979	0.28657	0.20288	0.25471	0.086451	0.172	0.34708	0.17524	0.098233	-3.3896	-4.0333	-3.6708	-4.2104	-3.8688	-3.6833	-4.35	-3.85	-3.8021	-4.1021	-3.6042	-4.3187	-3.8771	-3.825	-4.3417	-4.0583	192.128	160.453	365.845	393.264	126.970	324.738	390.075	311.027	154.450	359.251	314.638	391.646	390.785	384.761	134.416	336.011	0.0022608	0.00032818	6.0126e-05	917.93	2.6028e-06	1.491e-06	932.17	438.75	2.2966e-06	2.2336e-06	481.75	215.08	194.18	107.32	2.5617e-06	127.47	3.4367e-05	2.4938e-05	6.5464e-06	791.34	3.0136e-07	2.751e-07	778.78	347.6	3.0283e-07	2.6998e-07	365.16	162.96	149.21	81.971	2.6038e-07	93.205	89.659	147.083	146.364	74.957	190.310	184.779	73.226	79.979	183.607	215.500	77.170	81.792	85.141	89.565	193.304	85.301	-8191	255	
2730.347	1	1	0	0	0.10067	0.074191	0.070464	0.11484	0.17695	0.16066	0.20069	0.13765	0.10054	0.12913	0.047208	0.13067	0.19965	0.23706	0.033783	0.11761	-3.6479	-4.125	-3.6542	-4.3042	-3.9792	-3.7208	-4.3438	-3.7313	-3.8438	-4.1125	-3.7021	-4.3167	-4.2104	-3.6667	-4.3083	-3.8625	375.931	118.551	392.911	250.405	71.639	199.290	368.520	263.808	304.075	113.533	421.636	417.409	409.251	396.958	327.166	320.979	0.0022546	0.00013239	6.109e-05	912.35	2.2322e-06	2.3058e-06	921.55	435.33	3.272e-06	1.2983e-06	478.43	214.76	194.5	107.99	2.4416e-06	127.56	3.5009e-05	2.4963e-05	6.6297e-06	788.37	3.0577e-07	2.8385e-07	773.95	345.33	3.0653e-07	2.8122e-07	362.92	162.91	149.24	82.474	2.7997e-07	93.18	85.477	121.928	168.671	75.367	203.243	164.421	73.207	80.096	173.293	206.065	77.103	81.673	85.082	89.491	176.795	85.406	-8191	255	
2730.443	1	1	0	0	0.075038	0.11304	0.33585	0.088272	0.22478	0.23338	0.067892	0.18081	0.096897	0.1729	0.29744	0.1452	0.10424	0.44111	0.1676	0.12129	-3.4104	-4.2208	-3.475	-4.1312	-4.2375	-3.4938	-4.5312	-4.0979	-3.8271	-4.3854	-3.5604	-4.1646	-4.1188	-3.975	-4.075	-3.9771	367.748	400.466	124.733	342.664	150.937	262.480	229.115	88.640	281.251	330.504	339.460	310.140	369.056	369.703	336.249	417.181	0.0022972	0.00017439	0.00010695	907.65	1.8882e-06	1.4894e-06	913.24	430.74	2.7778e-06	1.9696e-06	474.22	213.5	192.96	108.22	3.0493e-06	128.53	3.5935e-05	2.6246e-05	7.2618e-06	784.57	3.1952e-07	2.9781e-07	768.05	343.17	3.2842e-07	3.0457e-07	359.04	162.54	148.8	82.821	3.3852e-07	93.957	87.801	125.404	148.505	75.029	197.338	183.889	73.182	80.227	211.882	202.193	77.445	81.876	85.159	89.625	181.186	85.367	-8191	255	
2730.539	1	1	0	0	0.25603	0.18819	0.080838	0.085234	0.10221	0.13014	0.098369	0.07405	0.14534	0.13743	0.23694	0.19192	0.095837	0.42413	0.27289	0.36086	-3.3646	-4.4521	-3.7438	-3.9771	-4.0958	-3.7687	-4.1312	-4.0521	-3.8271	-4.3646	-3.8937	-3.9583	-4.3	-3.8292	-4.2312	-4.2646	186.786	132.745	86.495	194.209	127.612	363.521	355.217	179.200	286.548	226.293	254.832	335.487	247.464	310.500	99.103	373.660	0.0023243	0.00020837	8.8357e-05	890.93	2.0785e-06	3.3224e-06	899.69	423.28	3.7047e-06	1.5575e-06	465.76	217.75	194.63	111.81	2.76e-06	132.53	3.8599e-05	2.8589e-05	8.8084e-06	772.63	3.5532e-07	3.2886e-07	758.38	337.28	3.6873e-07	3.3963e-07	355.79	166.32	150.43	85.67	4.2361e-07	97.169	89.523	115.751	151.781	75.307	210.364	210.278	73.223	80.312	181.878	184.258	77.437	82.019	85.403	89.850	161.432	85.576	-8191	255	
2730.635	1	1	0	0	0.20755	0.14837	0.19827	0.18776	0.1487	0.26802	0.20432	0.34099	0.27467	0.045325	0.13003	0.2922	0.32818	0.10631	0.040501	0.11822	-3.4604	-4.2667	-3.8167	-4.0042	-4.2292	-3.6417	-4.1937	-4.1396	-3.6146	-4.3583	-3.8458	-3.9375	-4.5021	-3.8333	-3.8625	-4.2542	112.102	300.963	400.197	332.666	405.895	107.783	365.244	101.772	214.566	163.947	318.086	189.452	367.240	363.099	368.482	338.250	0.0023676	0.0002105	9.657e-05	871.83	2.5581e-06	2.2674e-06	886.31	414.58	1.3543e-06	1.683e-06	463.98	222.06	197.09	113.53	2.4096e-06	134.08	4.4358e-05	3.4107e-05	1.1163e-05	757.32	4.0193e-07	3.8568e-07	750.83	331.59	4.1775e-07	3.9905e-07	355.68	169.33	152.04	87.098	4.6714e-07	98.343	89.738	129.465	158.663	75.536	219.760	180.749	73.554	80.716	164.435	209.783	77.976	82.089	85.577	90.078	191.417	85.703	-8191	255	
2730.731	1	1	0	0	0.15785	0.15994	0.085787	0.17058	0.16519	0.040719	0.1542	0.2075	0.32833	0.12596	0.0080086	0.21231	0.20476	0.27726	0.045044	0.0028852	-3.1979	-4.0687	-3.7792	-3.7708	-4.2375	-3.6	-4.2771	-4.2021	-3.5938	-4.1396	-4.0437	-3.7667	-4.4604	-3.9958	-4.0208	-4.3979	286.264	201.341	234.282	87.063	389.140	260.987	125.464	88.295	275.023	108.158	355.442	405.115	143.889	380.944	99.564	382.700	0.0023957	0.00032325	6.103e-05	870.32	1.7481e-06	2.1965e-06	888.59	416.92	2.9455e-06	2.3743e-06	466.66	222.02	197.16	113.25	2.6077e-06	133.06	4.458e-05	3.6389e-05	1.1462e-05	756.42	3.7621e-07	3.9341e-07	753.78	333	3.6143e-07	3.7655e-07	356.65	168.96	151.87	86.659	4.0005e-07	97.278	86.573	126.818	166.912	75.443	218.702	198.139	73.253	80.740	162.702	196.446	77.439	81.985	85.499	89.986	179.822	85.414	-8191	255	
2730.827	1	1	0	0	0.19058	0.1554	0.18572	0.072841	0.067142	0.11118	0.29148	0.10685	0.16244	0.22365	0.042772	0.12261	0.196	0.38353	0.14287	0.20329	-3.2958	-4.0896	-3.9375	-3.6792	-4.3125	-3.8896	-4.025	-4.3521	-3.4917	-4.1896	-4.1438	-3.8563	-4.3104	-3.7833	-3.6979	-4.4458	295.274	317.844	327.136	388.286	308.531	151.832	367.420	119.723	374.095	415.512	85.779	362.339	90.234	385.491	86.542	404.005	0.0024377	0.0004181	6.5302e-05	904.3	3.1228e-06	2.9847e-06	913.83	429.39	2.4096e-06	2.8564e-06	477.04	218.29	195.54	108.94	2.8619e-06	128.62	3.8089e-05	3.2205e-05	9.2904e-06	780.7	3.0102e-07	3.3499e-07	772.71	342.11	2.9242e-07	3.1733e-07	362.94	165.77	150.14	83.307	3.1835e-07	94.055	88.568	142.735	156.208	75.360	210.549	183.524	72.987	80.172	188.228	212.155	77.351	81.730	85.153	89.576	185.760	85.282	-8191	255	
2730.924	1	1	0	0	0.12837	0.12011	0.094718	0.18626	0.075525	0.057752	0.26954	0.066925	0.099486	0.13826	0.38619	0.13073	0.061608	0.37677	0.14228	0.19125	-3.2021	-3.9604	-4.0813	-3.6229	-4.1729	-3.7542	-4.0188	-4.3021	-3.8604	-4.0583	-4.0958	-3.7208	-4.3771	-4.0625	-3.7625	-4.4917	196.093	188.716	240.362	326.905	397.328	349.238	234.345	190.152	231.492	362.533	293.141	371.481	345.100	72.537	132.910	329.611	0.0024148	0.00028544	5.1014e-05	920.18	3.0869e-06	2.109e-06	933.21	437.22	2.5273e-06	2.3103e-06	484.05	219.43	196.24	107.22	1.9397e-06	127.49	3.4053e-05	2.9375e-05	7.9613e-06	792.99	2.8315e-07	3.2259e-07	781.76	346.33	2.8358e-07	3.0772e-07	367.52	166.07	150.39	81.963	2.7886e-07	93.07	89.628	136.850	115.717	75.119	207.867	170.110	73.087	80.080	201.908	183.989	77.127	81.827	85.091	89.569	199.730	85.299	-8191	255	
2731.020	1	1	0	0	0.10904	0.21886	0.097768	0.15261	0.28215	0.34553	0.1963	0.17916	0.040651	0.11047	0.14291	0.16573	0.15178	0.31475	0.14637	0.017406	-3.2604	-3.9354	-4.1208	-3.5312	-4.1646	-4	-3.75	-4.2792	-3.7313	-3.8937	-4.0854	-3.8021	-4.2458	-4.3271	-3.6833	-4.4792	256.477	272.639	147.231	91.823	235.974	181.740	401.241	291.986	363.517	199.952	92.491	412.132	366.722	376.273	125.363	299.173	0.0023513	0.00029052	8.5434e-05	930.99	3.558e-06	1.8926e-06	946.56	443.24	2.7017e-06	2.5675e-06	495.11	220.62	196.44	105.29	1.8588e-06	125.43	3.2154e-05	2.6281e-05	6.7527e-06	801.7	2.5922e-07	2.7523e-07	795.23	351.02	2.5511e-07	2.568e-07	373.36	166.98	150.45	80.415	2.3816e-07	91.281	87.652	133.324	173.556	75.179	203.424	176.922	73.141	80.135	187.377	182.465	77.204	81.632	84.883	89.438	175.427	85.319	-8191	255	
2731.140	1	1	0	0	0.25238	0.15051	0.17436	0.2379	0.22827	0.20299	0.11101	0.17777	0.31708	0.13262	0.17344	0.042226	0.1333	0.14408	0.25515	0.087431	-3.4188	-3.7792	-4.1375	-3.7333	-4.1375	-4.1125	-3.5708	-4.4229	-3.8354	-3.8792	-4.425	-3.5354	-4.0854	-4.3354	-3.5833	-4.3854	189.945	181.627	220.899	414.092	211.122	166.039	404.731	340.512	212.484	343.399	375.993	129.483	75.651	340.320	397.032	292.198	0.0022929	0.00022411	7.8922e-05	944.49	3.6308e-06	1.3437e-06	963.71	448.66	3.1941e-06	1.3321e-06	501.02	216.58	196.06	103.65	2.7826e-06	122.79	2.9825e-05	2.2179e-05	5.5016e-06	813.09	2.3399e-07	2.2581e-07	805.67	356.12	2.268e-07	2.144e-07	376.59	163.74	149.87	79.174	2.0041e-07	89.551	86.491	148.332	140.971	75.095	212.716	160.388	73.052	79.874	176.561	212.524	77.031	81.553	84.605	89.104	169.593	85.148	-8191	255	
2731.212	1	1	0	0	0.11771	0.21249	0.032936	0.48462	0.18069	0.074187	0.28529	0.27556	0.08149	0.29341	0.19287	0.26898	0.15555	0.19258	0.25311	0.14487	-3.4333	-3.8354	-4.2188	-3.5792	-3.7583	-4.1083	-3.5854	-4.3208	-3.8271	-3.6479	-4.2333	-3.7417	-4.2125	-4.3833	-3.7167	-4.3021	272.501	185.883	95.851	83.938	97.410	372.034	78.245	338.266	210.703	345.013	82.498	397.435	364.525	377.882	387.112	316.598	0.0022687	0.00030424	7.5048e-05	960.02	3.1828e-06	1.5017e-06	979.08	455.8	2.2269e-06	1.4843e-06	505.55	216.28	195.52	102.14	2.6961e-06	121.91	2.6924e-05	1.8252e-05	4.569e-06	826.02	2.0747e-07	1.8772e-07	817.16	360.62	2.0623e-07	1.876e-07	379.34	163.03	149.47	77.913	1.7806e-07	88.569	88.304	124.364	160.019	74.713	222.093	172.066	72.931	79.519	190.607	203.481	76.952	81.173	84.533	89.116	180.160	84.940	-8191	255	
2731.333	1	1	0	0	0.097902	0.1881	0.12514	0.11675	0.17229	0.16716	0.1935	0.27303	0.19796	0.11553	0.09176	0.14264	0.17929	0.24353	0.064092	0.14007	-3.6042	-3.5896	-4.2854	-3.8042	-4.0792	-4.3417	-3.7667	-4.1729	-4.2063	-3.6458	-4.45	-4.0583	-3.9896	-4.3562	-3.7333	-4.2958	133.168	109.382	411.247	294.885	181.275	342.723	331.367	371.372	139.383	81.605	129.960	348.892	368.992	345.679	333.401	327.342	0.0021544	0.00025361	6.5027e-05	963.72	3.178e-06	2.775e-06	990.49	458.99	2.9794e-06	1.5917e-06	507.93	217.09	195.41	101.58	3.0454e-06	119.98	2.5405e-05	1.6792e-05	4.1564e-06	831.07	1.9451e-07	1.7697e-07	822.75	362.77	1.9358e-07	1.7737e-07	382.26	163.62	149.62	77.253	1.7548e-07	87.841	86.465	144.447	150.222	74.799	191.386	185.907	72.919	79.587	195.341	205.852	76.678	81.316	84.680	89.096	188.157	85.081	-8191	255	
2731.427	1	1	0	0	0.15271	0.0561	0.05002	0.3351	0.14006	0.16107	0.2598	0.18597	0.19602	0.1706	0.078572	0.12318	0.25367	0.29872	0.11876	0.16758	-3.7771	-3.5812	-4.1438	-4.05	-3.6833	-4.1833	-3.7125	-4.1917	-4.2146	-3.6521	-4.4708	-3.9708	-4.0042	-4.5125	-3.7583	-4.1542	333.459	156.254	281.495	377.162	80.119	214.504	367.631	417.880	226.513	279.942	173.642	352.627	73.153	412.197	216.525	325.868	0.0020996	0.00017542	8.0231e-05	968.86	2.5188e-06	2.4583e-06	988.73	460.88	2.6924e-06	1.7995e-06	506.47	214	193.95	99.532	2.9508e-06	118.49	2.4434e-05	1.6107e-05	4.2353e-06	833.36	1.8475e-07	1.6773e-07	824.95	363.43	1.8307e-07	1.6242e-07	381.35	161.74	148.28	75.904	1.7284e-07	86.327	89.110	128.466	159.018	74.698	209.260	176.157	72.748	79.596	201.802	180.186	76.873	81.367	84.528	88.983	183.042	84.995	-8191	255	
2731.523	1	1	0	0	0.070317	0.14695	0.2071	0.20917	0.074156	0.17764	0.10883	0.23173	0.11116	0.13496	0.3024	0.19384	0.15761	0.30848	0.17432	0.28232	-3.8833	-3.5438	-4.1667	-4.1146	-3.7854	-4.3292	-3.7958	-4.0813	-4.275	-3.4521	-4.1083	-4.1104	-3.8229	-4.5563	-3.7792	-4.0458	267.189	214.160	221.285	193.433	297.883	359.991	115.976	374.565	278.677	146.504	342.690	366.611	107.114	382.513	159.181	295.973	0.0022502	0.000205	9.1644e-05	972.2	2.9158e-06	2.6131e-06	987.83	459.81	1.6986e-06	2.0318e-06	503.31	212.12	193.01	98.424	2.8522e-06	116.6	2.2841e-05	1.4221e-05	4.1241e-06	835.23	1.7034e-07	1.496e-07	825.07	363.51	1.6787e-07	1.5457e-07	380.34	160.24	147.61	74.931	1.7685e-07	84.894	87.147	152.054	144.793	74.953	197.808	187.092	72.873	79.648	194.435	179.347	76.761	81.446	84.455	88.903	176.546	85.028	-8191	255	
2731.619	1	1	0	0	0.075977	0.14728	0.093232	0.20483	0.14027	0.027144	0.28054	0.31716	0.044968	0.11513	0.20039	0.24904	0.083133	0.23505	0.33532	0.20192	-3.6729	-3.5229	-4.1813	-4.1854	-3.5458	-4.5021	-3.6771	-3.9896	-4.1708	-3.6063	-4.175	-4.0854	-3.7792	-4.4208	-3.7792	-3.9458	274.217	141.840	264.728	81.113	177.285	401.111	399.654	319.933	304.093	98.367	134.996	395.085	170.325	380.714	376.810	370.451	0.0021123	0.0001952	7.1204e-05	970.1	1.1343e-06	1.6227e-06	998	459.66	1.8184e-06	2.0359e-06	507.26	212.46	193.59	97.135	2.3557e-06	115.33	2.182e-05	1.3518e-05	4.2556e-06	833.3	1.5968e-07	1.4132e-07	829.25	363.62	1.5494e-07	1.4721e-07	382.17	160.14	147.23	73.998	1.7566e-07	83.924	88.261	140.202	160.765	74.651	209.394	195.675	73.003	79.466	215.575	197.201	76.647	81.332	84.376	88.906	181.859	84.932	-8191	255	
2731.740	1	1	0	0	0.20729	0.163	0.025804	0.14634	0.059005	0.10596	0.094548	0.21732	0.1299	0.07947	0.22102	0.2864	0.079908	0.1041	0.12826	0.28601	-3.8375	-3.6792	-4.0792	-4.1479	-3.7146	-4.1542	-3.9062	-3.9062	-4.3354	-3.5687	-4.0333	-4.1375	-3.6688	-4.3208	-3.9896	-3.8479	247.718	185.664	390.479	283.065	190.065	237.851	270.645	314.998	243.637	312.006	363.813	418.462	105.740	401.411	321.134	337.731	0.0021775	0.00021717	0.00010467	968.93	2.4416e-06	2.009e-06	997.54	460.5	1.8386e-06	1.6287e-06	509.1	212.81	192.39	96.545	2.4382e-06	115.09	2.0713e-05	1.3562e-05	4.1626e-06	830.94	1.5031e-07	1.4322e-07	829.38	363.33	1.4378e-07	1.4715e-07	383.69	160.32	146.84	73.567	1.701e-07	83.655	88.037	135.515	148.534	74.550	201.787	188.159	72.765	79.390	179.256	192.765	76.701	81.214	84.308	88.814	194.810	85.005	-8191	255	
2731.836	1	1	0	0	0.05017	0.10962	0.073587	0.22253	0.15192	0.098114	0.11174	0.39375	0.24658	0.066954	0.24901	0.2314	0.17395	0.11004	0.040249	0.16498	-3.9292	-3.6667	-3.7521	-4.1521	-3.5187	-4.0854	-4.0875	-3.7667	-4.2438	-3.8146	-3.9375	-4.3229	-3.7729	-4.425	-3.9833	-3.8771	236.640	189.528	270.941	365.516	184.144	330.544	343.635	348.982	334.755	262.509	299.672	342.999	368.733	353.927	237.579	325.334	0.0020898	0.00016912	6.0646e-05	965.1	2.8532e-06	2.7942e-06	986.37	461.54	2.4627e-06	2.3473e-06	506.9	210.86	191.5	96.15	1.628e-06	113.65	1.9987e-05	1.4201e-05	4.1426e-06	828.34	1.4396e-07	1.4938e-07	824.04	361.91	1.4009e-07	1.5287e-07	381.31	158.89	146.04	73.035	1.5937e-07	82.584	86.757	143.424	189.638	74.643	217.529	184.262	72.783	79.215	186.022	200.505	76.574	81.301	84.346	88.581	179.773	84.805	-8191	255	
2731.908	1	1	0	0	0.064859	0.22034	0.15286	0.2763	0.16929	0.13601	0.23367	0.30047	0.10473	0.072491	0.092537	0.26798	0.23908	0.19225	0.096506	0.10373	-3.9146	-3.6542	-3.9458	-4.3771	-3.6625	-4.1438	-4.1937	-3.7208	-4.4375	-3.9375	-3.9	-4.2896	-3.7812	-4.2458	-4.0333	-3.7354	322.030	365.211	420.931	328.084	320.087	189.781	82.527	346.011	160.999	405.261	357.361	404.128	63.555	401.594	272.004	93.928	0.0021304	0.00024778	5.4766e-05	964.39	2.3482e-06	2.3805e-06	985.9	460.52	3.1591e-06	1.868e-06	504.09	210.76	191.45	95.636	1.794e-06	113.07	1.9263e-05	1.3996e-05	3.7482e-06	826.23	1.3613e-07	1.4794e-07	821.65	361.86	1.3404e-07	1.4912e-07	379.51	158.59	145.9	72.775	1.4549e-07	82.179	88.942	121.153	170.772	74.543	206.948	173.299	72.741	79.418	182.081	185.883	76.509	81.176	84.338	88.768	185.292	84.631	-8191	255	
2732.029	1	1	0	0	0.063878	0.16889	0.076001	0.20912	0.093838	0.084363	0.21509	0.2093	0.24127	0.081975	0.16216	0.14896	0.19405	0.27799	0.06978	0.39853	-3.8875	-3.9625	-3.6667	-4.3042	-3.6854	-4.1104	-4.0437	-3.6792	-4.1125	-3.7458	-3.8	-4.5062	-3.8125	-4.2812	-4.1333	-3.7271	180.823	115.108	127.482	413.354	81.621	288.256	77.000	312.491	334.541	214.228	89.576	368.162	330.881	125.795	157.741	314.534	0.0021204	0.00023633	7.3362e-05	957.94	2.107e-06	1.6957e-06	982.67	457.94	3.0625e-06	2.2988e-06	504.69	209.85	191.05	95.365	2.2733e-06	112.92	1.9306e-05	1.3865e-05	3.5992e-06	821.62	1.4165e-07	1.4827e-07	817.06	360.19	1.4416e-07	1.507e-07	379.41	158.32	145.64	72.521	1.4465e-07	82.055	87.537	145.757	161.700	74.535	212.421	179.327	72.784	79.366	185.122	197.009	76.639	81.084	84.212	88.870	200.129	84.945	-8191	255	
2732.125	1	1	0	0	0.067113	0.1783	0.11057	0.053484	0.17195	0.054349	0.16094	0.15667	0.28543	0.093647	0.10882	0.09591	0.21331	0.37833	0.097847	0.13545	-3.7021	-3.8917	-3.6417	-4.3938	-3.8229	-3.7375	-4.3979	-3.7	-4.1604	-3.9604	-3.7167	-4.3021	-3.9271	-3.8583	-4.0229	-3.6688	319.844	369.551	211.913	374.074	391.327	165.712	333.938	235.726	188.065	158.715	321.191	370.277	85.714	391.582	258.501	378.322	0.0021196	0.0001893	5.8701e-05	960.76	2.453e-06	1.9403e-06	982.52	456.25	3.3544e-06	1.6445e-06	506.3	211.22	191.01	95.266	2.0842e-06	112.66	2.0195e-05	1.3648e-05	3.517e-06	820.51	1.4717e-07	1.433e-07	818.05	359.25	1.4435e-07	1.3842e-07	380.26	158.81	145.71	72.393	1.3786e-07	81.957	86.339	148.558	154.835	74.474	210.301	164.867	72.929	79.354	194.817	183.172	76.849	81.283	84.070	88.800	169.082	84.712	-8191	255	
2732.221	1	1	0	0	0.22756	0.13514	0.063363	0.11147	0.26722	0.11043	0.061157	0.19608	0.15375	0.27704	0.17867	0.14659	0.25523	0.25875	0.146	0.12648	-3.5854	-4.0062	-3.6312	-4.2354	-3.8458	-3.7812	-4.3438	-3.6375	-3.9417	-4.0625	-3.6521	-4.2146	-4.0312	-3.8125	-4.3146	-3.9562	206.509	186.271	406.340	358.871	116.236	188.783	286.398	309.122	355.125	151.184	318.526	334.572	66.853	393.723	73.203	336.422	0.0020972	0.00023843	7.2045e-05	956.81	2.6714e-06	2.3932e-06	980.95	455.6	2.3101e-06	2.1398e-06	503.99	210.95	189.91	94.887	2.4679e-06	112.13	1.9995e-05	1.2403e-05	3.3092e-06	820.43	1.4655e-07	1.3459e-07	815.17	358.56	1.4336e-07	1.2835e-07	378.27	158.2	145.04	72.027	1.2471e-07	81.437	88.119	134.000	148.881	74.741	206.876	165.475	72.688	79.320	190.501	208.538	76.489	81.156	84.002	88.641	162.570	84.732	-8191	255	
2732.317	1	1	0	0	0.3979	0.030266	0.091833	0.25285	0.11318	0.12943	0.12083	0.25963	0.055244	0.055848	0.14766	0.44054	0.086843	0.1585	0.20734	0.29551	-3.4771	-4.0354	-3.525	-4.2917	-3.9562	-3.6958	-4.3542	-3.8479	-4.0729	-4.1021	-3.7375	-4.2458	-4.2583	-3.9375	-4.3458	-3.8167	305.028	324.290	368.168	293.616	194.230	252.231	348.477	361.368	141.117	411.612	173.675	378.805	285.868	68.515	275.197	373.219	0.001972	0.00017122	5.6752e-05	958.04	1.9559e-06	9.7558e-07	980.51	455.65	2.3722e-06	1.8961e-06	503.01	209.89	190.09	94.133	2.0404e-06	111.57	1.963e-05	1.196e-05	3.0959e-06	819.91	1.4137e-07	1.2551e-07	815.36	358.74	1.3758e-07	1.1798e-07	377.79	157.63	144.99	71.596	1.1778e-07	81.107	88.538	128.328	155.195	74.478	199.942	204.030	72.837	79.138	213.373	210.531	76.831	80.962	84.068	88.600	176.694	84.669	-8191	255	
2732.436	1	1	0	0	0.10891	0.18473	0.15551	0.27846	0.11105	0.14268	0.24269	0.19641	0.25846	0.065729	0.2077	0.30458	0.10964	0.012283	0.034006	0.061011	-3.5354	-4.1687	-3.6646	-3.9271	-4.1146	-3.5917	-4.4583	-3.9458	-3.8708	-4.2854	-3.7271	-4.15	-4.3333	-3.7479	-4.3375	-3.9729	241.249	228.322	247.236	368.232	112.463	348.406	400.282	382.404	163.552	380.253	391.562	64.017	64.030	380.252	377.248	398.739	0.0020185	0.0002359	6.8962e-05	958.07	2.3687e-06	2.0099e-06	980.41	455.91	2.5386e-06	1.7219e-06	504.94	210.3	190.08	94.457	2.5886e-06	112.26	1.832e-05	1.0793e-05	2.8648e-06	821.51	1.2804e-07	1.2095e-07	816.94	358.57	1.3217e-07	1.1462e-07	379.03	158.16	144.95	71.717	1.2329e-07	81.403	86.829	141.805	131.477	74.471	191.227	188.762	72.639	79.259	200.175	200.108	76.629	81.229	84.181	88.606	185.152	84.849	-8191	255	
2732.509	1	1	0	0	0.18855	0.22854	0.064414	0.05448	0.1763	0.13655	0.12123	0.21737	0.1753	0.044905	0.06461	0.21972	0.19289	0.24458	0.21651	0.28981	-3.4104	-4.1583	-3.5917	-4.0062	-4.0521	-3.5687	-4.3271	-4.0875	-3.7542	-4.3333	-3.7562	-4.1833	-4.3396	-3.6417	-4.1229	-4.1083	136.939	96.756	229.466	315.875	344.145	325.470	312.157	418.920	328.499	420.859	386.515	363.415	404.879	389.723	198.270	310.186	0.0020263	0.0001931	6.8798e-05	957.46	2.4971e-06	1.4118e-06	983.36	453.42	2.4069e-06	2.1267e-06	501.97	209.72	189.73	93.825	2.2596e-06	111.31	1.8515e-05	1.0587e-05	3.1758e-06	818.11	1.3283e-07	1.2121e-07	816.34	357.23	1.3626e-07	1.1782e-07	378.08	158.04	144.3	71.208	1.3515e-07	80.713	87.827	149.441	146.987	74.586	205.058	180.937	72.659	79.176	178.502	200.673	76.565	81.187	84.244	88.381	163.094	84.700	-8191	255	
2732.604	1	1	0	0	0.081106	0.094088	0.085033	0.19478	0.14092	0.29276	0.096652	0.09106	0.04884	0.13259	0.30671	0.10049	0.26664	0.15129	0.12592	0.1639	-3.2542	-4.1667	-3.7646	-3.9125	-4.3063	-3.6063	-4.3562	-4.0604	-3.65	-4.1146	-3.9021	-3.9	-4.4938	-3.8083	-4.2021	-4.1542	330.718	63.394	368.968	365.307	100.624	194.049	307.970	379.068	132.141	121.642	391.435	389.164	305.588	293.408	209.370	68.519	0.0020475	0.00018204	5.3852e-05	949.62	1.9843e-06	1.6736e-06	971.49	450.41	2.9714e-06	1.6006e-06	502.38	208.63	188.76	93.472	1.8812e-06	110.29	1.8488e-05	1.0453e-05	3.3269e-06	813.27	1.2685e-07	1.1401e-07	809.91	355.45	1.2943e-07	1.1364e-07	375.74	156.59	143.88	70.829	1.3766e-07	80.153	86.444	126.836	151.219	74.563	226.550	186.500	72.679	79.092	192.551	194.620	76.629	80.929	84.156	88.406	184.103	84.474	-8191	255	
2732.700	1	1	0	0	0.077286	0.15363	0.26927	0.14103	0.19465	0.14889	0.15248	0.21666	0.28913	0.044276	0.27835	0.15505	0.26863	0.22426	0.26856	0.28138	-3.2771	-4.2729	-3.875	-3.8917	-4.3771	-3.6229	-4.0833	-4.175	-3.5542	-4.2125	-4.025	-3.7562	-4.3042	-3.7979	-4.0542	-4.2562	384.272	127.861	163.601	412.280	62.952	176.094	302.651	358.848	132.994	125.970	389.297	411.184	401.463	386.909	241.226	391.864	0.0020435	0.000215	7.1273e-05	952.34	2.7931e-06	2.7474e-06	971.56	452.25	2.1676e-06	2.1056e-06	501.12	208.1	188.06	92.707	2.1123e-06	109.92	1.7912e-05	1.0636e-05	3.3594e-06	812.65	1.1751e-07	1.1781e-07	809.33	355.69	1.2055e-07	1.1358e-07	376.12	156.5	143.23	70.31	1.3552e-07	79.698	86.836	128.194	154.727	74.498	203.951	184.329	72.442	79.106	178.369	196.467	76.262	81.029	84.066	88.495	179.634	84.603	-8191	255	
2732.820	1	1	0	0	0.088512	0.10111	0.22743	0.14858	0.054153	0.03371	0.034628	0.041753	0.088029	0.15944	0.24479	0.12887	0.041109	0.31936	0.047491	0.13222	-3.1562	-4.1438	-4.0333	-3.6979	-4.2562	-3.6813	-3.9021	-4.2979	-3.3187	-4.1271	-3.9104	-3.7729	-4.3708	-3.825	-3.9104	-4.4396	194.250	318.636	154.978	326.668	403.493	233.132	115.257	282.371	407.068	138.432	103.555	84.221	293.749	62.402	284.124	370.687	0.0019852	0.00023642	6.9998e-05	945.15	2.4464e-06	3.0246e-06	976.16	451.14	2.4527e-06	1.5385e-06	499.77	208.1	188.04	92.093	2.0371e-06	109.18	1.6965e-05	1.0785e-05	3.298e-06	811.68	1.1245e-07	1.1924e-07	810.4	354.84	1.1594e-07	1.1753e-07	375.35	156.58	143.19	70.128	1.3242e-07	79.366	86.035	146.168	144.778	74.490	183.562	195.848	72.567	79.184	192.902	197.287	76.282	81.039	84.112	88.455	193.409	84.638	-8191	255	
2732.917	1	1	0	0	0.2235	0.14906	0.15087	0.12742	0.038004	0.091542	0.032628	0.25402	0.20126	0.086998	0.054548	0.23609	0.22892	0.31999	0.10501	0.066403	-3.1208	-4.0271	-3.9458	-3.8917	-4.3396	-3.7167	-3.8292	-4.2625	-3.6354	-4.0583	-4.2083	-3.4854	-4.3229	-3.9042	-3.8563	-4.2562	295.218	174.281	312.392	66.958	278.234	90.901	194.016	307.699	201.101	168.071	214.564	360.357	381.944	340.061	113.484	192.095	0.0020152	0.00013812	5.3574e-05	949.37	2.44e-06	2.5983e-06	979.63	450.52	2.4069e-06	1.8624e-06	500.12	208.23	188.12	92.182	2.1486e-06	109.36	1.6612e-05	1.1292e-05	3.146e-06	811	1.1271e-07	1.2312e-07	811.85	354.58	1.1467e-07	1.2564e-07	375.49	156.69	143.25	70.121	1.2697e-07	79.35	87.094	151.578	147.116	74.543	193.129	171.544	72.693	79.147	204.327	196.687	76.607	81.229	84.066	88.471	183.263	84.466	-8191	255	
2733.013	1	1	0	0	0.028541	0.1477	0.046293	0.26436	0.27457	0.22826	0.21354	0.026031	0.10961	0.16183	0.14276	0.034536	0.41154	0.20407	0.073232	0.045574	-3.2	-3.8563	-3.9479	-3.6521	-4.1479	-3.7417	-3.8438	-4.4521	-3.725	-3.9146	-4.1	-3.7354	-4.2937	-4.1979	-3.6646	-4.45	237.458	244.616	295.549	325.539	109.116	321.414	273.124	389.759	377.836	348.774	63.883	380.192	351.539	75.735	193.338	225.846	0.0020324	0.00016765	8.1174e-05	944.45	1.9864e-06	2.0593e-06	967.29	450.91	2.8502e-06	1.4621e-06	497.16	206.81	187.92	92.486	2.3154e-06	108.7	1.7213e-05	1.1654e-05	3.0836e-06	807.17	1.1298e-07	1.2698e-07	804.64	353.98	1.1957e-07	1.2103e-07	373.43	155.68	143	70.163	1.2076e-07	78.96	86.179	123.127	156.938	74.382	197.163	181.133	72.570	79.100	194.368	190.005	76.572	81.107	84.085	88.374	193.667	84.540	-8191	255	
2733.109	1	1	0	0	0.18459	0.23553	0.033044	0.21023	0.17277	0.10554	0.10201	0.33165	0.20418	0.15677	0.11991	0.18702	0.13777	0.084764	0.047723	0.17427	-3.225	-3.7396	-4.0792	-3.6688	-4.1083	-4.0062	-3.6396	-4.4792	-3.7188	-3.9604	-4.2958	-3.6542	-4.3104	-4.3875	-3.6813	-4.2479	83.077	385.976	285.226	397.351	312.303	268.469	349.624	365.499	138.167	413.497	304.733	374.918	384.098	360.337	404.165	365.518	0.0020941	0.00022228	7.4992e-05	940.45	2.3686e-06	1.9156e-06	970.09	448.37	3.359e-06	1.9483e-06	498.25	207.3	187.96	91.645	1.9564e-06	108.55	1.7289e-05	1.1217e-05	2.8157e-06	807.12	1.1829e-07	1.1836e-07	803.24	353.03	1.2091e-07	1.1602e-07	373.19	155.43	142.86	69.676	1.0876e-07	78.792	88.132	146.094	137.576	74.274	208.995	185.003	72.812	79.166	202.758	201.808	76.313	80.975	84.078	88.450	180.016	84.696	-8191	255	
2733.205	1	1	0	0	0.073885	0.058315	0.072787	0.23433	0.14884	0.22646	0.14716	0.11444	0.1922	0.011356	0.13153	0.067171	0.31118	0.21635	0.11368	0.39926	-3.3958	-3.7146	-4.2229	-3.75	-3.9583	-4.0563	-3.6604	-4.2771	-3.85	-3.7354	-4.4021	-3.7625	-4.1792	-4.1875	-3.5667	-4.5292	382.648	108.259	241.831	120.190	190.514	246.175	338.345	156.552	83.478	394.492	131.243	345.833	77.877	361.266	135.043	272.206	0.0020629	0.00021873	6.2328e-05	946.08	2.629e-06	2.0515e-06	973.54	451.32	2.1032e-06	1.4221e-06	499.96	208.78	187.97	92.076	2.5882e-06	109.11	1.7129e-05	1.0127e-05	2.5788e-06	808.8	1.1287e-07	1.0514e-07	808.02	354.78	1.1864e-07	1.057e-07	375.27	156.55	143.24	69.877	1.0498e-07	79.145	87.513	145.794	152.399	74.405	196.716	184.186	72.789	79.165	198.054	201.399	76.431	80.949	84.089	88.423	194.115	84.516	-8191	255	
2733.301	1	1	0	0	0.25652	0.11156	0.031159	0.16517	0.13891	0.15275	0.078697	0.30208	0.18652	0.1233	0.12479	0.35281	0.024753	0.29183	0.088101	0.28444	-3.4562	-3.7396	-4.1937	-3.9062	-3.8604	-4.2958	-3.7417	-4.3354	-3.8854	-3.6625	-4.4437	-3.7875	-4.1625	-4.3167	-3.4437	-4.1542	223.282	139.705	294.940	338.956	224.535	380.890	247.406	349.970	270.316	359.493	375.319	342.552	302.798	390.508	134.436	349.011	0.0020115	0.00021284	5.4834e-05	944.22	1.9713e-06	1.9869e-06	969.7	447.82	1.5164e-06	1.6949e-06	495.46	206.79	186.64	91.012	2.4277e-06	107.82	1.7216e-05	9.8623e-06	2.498e-06	807.71	1.1819e-07	1.0354e-07	805.85	352.24	1.2339e-07	1.0541e-07	371.33	155.44	142.16	69.295	1.0974e-07	78.318	88.479	121.237	161.447	74.438	199.238	166.113	72.675	79.302	191.827	192.099	76.477	80.950	83.933	88.384	190.160	84.695	-8191	255	
2733.422	1	1	0	0	0.19071	0.12103	0.16946	0.17282	0.11022	0.11694	0.19105	0.13989	0.019924	0.068121	0.097478	0.21317	0.22789	0.27997	0.12794	0.20999	-3.7542	-3.7146	-4.2708	-3.9354	-3.9854	-4.1917	-3.8812	-4.0792	-4.2063	-3.6625	-4.4708	-4.0792	-3.9646	-4.4458	-3.6896	-4.1979	119.374	380.655	267.818	346.215	400.274	336.221	234.720	276.254	390.997	293.504	146.243	264.265	67.599	409.882	333.646	371.110	0.001987	0.00016067	7.3202e-05	936.34	1.7384e-06	1.8776e-06	963.55	445.51	1.6109e-06	1.0196e-06	495.14	205.2	186.35	91.374	2.1287e-06	108.26	1.743e-05	1.0008e-05	2.5516e-06	802.12	1.2002e-07	1.0646e-07	800.18	350.95	1.158e-07	1.0348e-07	370.53	154.52	141.87	69.311	1.0643e-07	78.35	85.953	132.523	149.871	74.562	213.385	170.758	72.648	79.099	187.336	216.249	76.355	80.841	83.959	88.442	185.486	84.460	-8191	255	
2733.516	1	1	0	0	0.18549	0.14026	0.16755	0.15201	0.28037	0.080272	0.16106	0.10995	0.11658	0.21923	0.10952	0.3191	0.083113	0.29828	0.31433	0.092934	-3.9042	-3.5521	-4.2104	-4.0167	-3.7042	-4.3833	-3.7396	-4.0896	-4.1354	-3.4938	-4.2771	-4.0938	-3.925	-4.4313	-3.7313	-4.1396	322.247	88.140	135.736	407.904	257.364	193.605	360.587	326.480	132.212	123.376	362.408	395.072	106.880	415.133	146.598	359.470	0.0019044	0.00015884	4.3879e-05	947	2.4751e-06	2.4722e-06	973.65	449.32	2.0862e-06	1.64e-06	497.66	206.89	187.41	91.253	2.0161e-06	108.6	1.6384e-05	9.4507e-06	2.427e-06	807.4	1.0996e-07	9.4335e-08	807.38	352.97	1.0498e-07	9.4748e-08	372.93	155.81	142.49	69.398	1.0568e-07	78.65	87.713	143.042	129.573	74.261	206.748	186.603	72.538	79.214	192.115	200.172	76.376	81.073	84.206	88.412	173.993	84.436	-8191	255	
2733.612	1	1	0	0	0.11737	0.082549	0.1923	0.098213	0.15941	0.089407	0.0583	0.077102	0.17416	0.21183	0.05711	0.25762	0.26244	0.078567	0.21822	0.1119	-3.9604	-3.4958	-4.1083	-3.8417	-3.7167	-4.2188	-3.9708	-3.8688	-4.2646	-3.8042	-4.3208	-3.975	-3.8292	-4.2542	-3.8208	-3.825	205.041	290.143	244.264	392.494	125.667	73.974	261.057	370.614	309.561	124.576	289.434	349.554	352.820	163.571	162.285	336.773	0.0019681	0.00022557	7.9186e-05	948.66	2.6573e-06	2.5731e-06	971.24	449.45	2.2729e-06	1.8066e-06	500.06	207.98	188.17	92.106	1.8888e-06	109.14	1.6023e-05	8.6813e-06	2.5733e-06	810.56	1.0543e-07	9.3944e-08	807.93	353.86	1.0565e-07	9.3859e-08	374.48	156.26	143.07	69.759	1.166e-07	78.998	85.944	141.778	135.211	74.449	195.220	184.012	72.675	79.064	204.092	206.923	76.655	81.193	84.034	88.561	193.789	84.581	-8191	255	
2733.733	1	1	0	0	0.1359	0.11306	0.07401	0.066367	0.12758	0.080473	0.10252	0.20423	0.20172	0.048882	0.19055	0.28146	0.038314	0.23229	0.19253	0.23419	-3.9167	-3.5771	-4.0687	-4.1062	-3.5958	-4.3625	-3.8542	-3.8979	-4.3125	-3.4146	-4.2021	-4.2021	-3.6354	-4.4396	-3.8583	-3.9604	205.220	363.492	413.058	387.354	188.783	147.629	291.986	78.217	372.689	326.836	402.143	374.894	136.233	68.527	155.685	330.753	0.0020927	0.00017936	7.3581e-05	941.21	2.0579e-06	1.718e-06	973.14	448.52	2.3061e-06	1.7838e-06	496.91	207.35	188.21	91.805	2.3682e-06	108.19	1.6052e-05	8.9869e-06	2.8199e-06	805.93	1.0616e-07	9.576e-08	806.09	353.32	1.0536e-07	9.9789e-08	372.85	155.43	142.95	69.688	1.1831e-07	78.469	86.771	139.414	160.789	74.472	191.398	177.476	72.896	79.056	199.561	211.739	76.475	80.872	83.971	88.243	173.226	84.528	-8191	255	
2733.805	1	1	0	0	0.10593	0.090869	0.11571	0.24421	0.092451	0.16452	0.097128	0.25414	0.11839	0.28873	0.10081	0.063484	0.26868	0.29663	0.10237	0.028497	-3.9313	-3.575	-4.0188	-4.1208	-3.6083	-4.3521	-4.1188	-3.8125	-4.3083	-3.5729	-4.0667	-4.2125	-3.7229	-4.3417	-3.8667	-3.8521	340.302	405.270	170.904	373.936	122.380	162.252	98.890	392.001	364.238	131.794	125.479	333.567	413.659	92.094	403.188	407.672	0.0020125	0.00026782	6.6122e-05	943.79	2.4009e-06	2.1724e-06	966.49	451.02	2.1262e-06	1.854e-06	494.08	205.65	187.13	91.365	2.1307e-06	107.67	1.5647e-05	9.2828e-06	2.7871e-06	806.97	1.0027e-07	9.6825e-08	802.29	353.29	9.606e-08	9.8954e-08	371.05	154.45	142.29	69.282	1.123e-07	77.984	87.475	128.014	151.524	74.557	215.254	179.885	72.560	79.112	210.792	202.952	76.520	80.913	83.963	88.311	180.115	84.573	-8191	255	
2733.901	1	1	0	0	0.15424	0.11943	0.13835	0.05283	0.33067	0.27789	0.079647	0.23037	0.15263	0.10495	0.1485	0.078207	0.24763	0.092935	0.23498	0.26481	-3.9771	-3.7417	-3.9229	-4.1542	-3.8229	-4.0062	-4.2042	-3.4896	-4.3063	-3.7771	-4.05	-4.2583	-3.8354	-4.2708	-3.9479	-3.8729	320.034	288.542	230.922	362.493	389.174	231.866	359.559	334.917	207.803	65.489	378.257	376.631	404.889	83.966	119.821	401.840	0.0019352	0.00021404	7.6187e-05	944.87	2.4898e-06	2.494e-06	966.98	448.25	2.0431e-06	2.1869e-06	497.11	205.98	187.25	91.645	2.7542e-06	107.96	1.4815e-05	9.4644e-06	2.6452e-06	806.47	9.7801e-08	1.0225e-07	804.07	353.01	9.4232e-08	1.0458e-07	372.57	155.04	142.48	69.42	1.086e-07	78.143	87.850	136.467	160.710	74.243	196.038	181.117	72.623	79.112	189.182	189.847	76.540	81.013	83.962	88.419	184.131	84.451	-8191	255	
2733.997	1	1	0	0	0.18479	0.21056	0.078728	0.19446	0.086528	0.23561	0.26981	0.086795	0.11129	0.22129	0.30905	0.23065	0.11765	0.21458	0.14678	0.11002	-3.7979	-3.8229	-3.7208	-4.3229	-3.55	-4.0167	-4.1792	-3.4875	-4.3125	-3.7812	-3.9021	-4.2667	-3.7958	-4.2	-4.0062	-3.9437	181.388	231.159	219.152	408.377	410.886	321.376	367.650	270.277	177.935	101.001	388.362	368.258	133.053	336.953	325.157	366.802	0.0019935	0.00018567	4.5458e-05	944.46	2.9013e-06	2.0589e-06	969.94	450.15	2.4505e-06	1.7409e-06	498.25	206.71	187.55	91.346	1.88e-06	107.74	1.5316e-05	9.8747e-06	2.6029e-06	806.44	9.8077e-08	1.0538e-07	804.59	353.24	9.9065e-08	1.0877e-07	373.04	155.21	142.48	69.333	1.0948e-07	78.022	86.578	135.931	146.637	74.435	200.960	172.193	72.785	79.332	183.747	206.118	76.591	81.072	84.117	88.518	179.034	84.537	-8191	255	
2734.118	1	1	0	0	0.071155	0.17976	0.18015	0.25872	0.022549	0.25418	0.17656	0.27398	0.17056	0.26931	0.14895	0.11527	0.1577	0.23076	0.16936	0.14146	-3.7583	-3.9771	-3.5521	-4.3646	-3.725	-4.0167	-4.2125	-3.7667	-4.3271	-3.7417	-3.8958	-4.4083	-3.9521	-4.0167	-4.15	-3.8646	279.592	285.187	359.422	412.137	218.732	298.628	158.040	64.515	367.790	243.817	391.855	407.551	108.078	72.552	84.604	394.102	0.0019869	0.00022171	7.1322e-05	935.53	2.3013e-06	1.4658e-06	963.69	447.96	2.056e-06	1.5739e-06	493.76	205.91	187.58	91.977	2.0399e-06	108.39	1.5767e-05	1.0201e-05	2.548e-06	801.55	1.0628e-07	1.0748e-07	799.02	352.3	1.0606e-07	1.0423e-07	371.03	154.56	142.91	69.802	1.0257e-07	78.467	87.481	136.814	167.755	74.644	196.886	190.063	72.659	78.993	191.932	191.130	76.540	80.936	84.093	88.529	184.846	84.539	-8191	255	
2734.214	1	1	0	0	0.27875	0.11942	0.18287	0.21736	0.31578	0.15567	0.15709	0.30499	0.20395	0.08244	0.071283	0.089046	0.20092	0.10982	0.19158	0.16675	-3.675	-4.0667	-3.5812	-4.4417	-3.7458	-3.9083	-4.4167	-3.7104	-4.0375	-4.1146	-3.5979	-4.4938	-3.8604	-3.9938	-4.1479	-3.8979	95.233	130.221	420.146	411.358	395.063	368.068	350.817	358.562	337.520	214.672	361.858	412.692	78.595	71.366	202.124	368.445	0.002001	0.00018558	7.2374e-05	947.23	2.7663e-06	1.9427e-06	973.42	453.49	1.2425e-06	1.7342e-06	500.78	207.55	191.37	93.87	1.9259e-06	110.48	1.5803e-05	9.1049e-06	2.3819e-06	809.65	1.0411e-07	9.6375e-08	806.3	357.13	1.0226e-07	9.3474e-08	375.88	156.12	145.3	71.208	9.4335e-08	80.208	85.269	140.133	159.838	74.467	198.515	164.963	72.588	79.132	190.109	199.312	76.513	80.935	84.083	88.553	165.286	84.507	-8191	255	
2734.310	1	1	0	0	0.13826	0.070326	0.20299	0.19593	0.15342	0.063691	0.24172	0.26672	0.25515	0.09505	0.1414	0.085494	0.091347	0.28018	0.17424	0.096193	-3.5542	-4.1917	-3.5271	-4.2729	-3.9021	-3.5292	-4.4521	-3.6917	-3.9583	-4.1542	-3.7604	-4.4792	-4.0896	-3.8271	-4.3375	-3.9688	103.541	413.089	195.317	287.791	140.421	341.464	367.906	291.917	61.704	252.641	348.375	92.852	347.155	358.153	125.462	371.824	0.0020508	0.00017222	4.9883e-05	963.65	2.0277e-06	2.3406e-06	982.67	463.55	2.4005e-06	1.4198e-06	510.57	212.7	194.28	96.031	2.3611e-06	113.26	1.6043e-05	8.5647e-06	2.2195e-06	822.92	1.0549e-07	9.0884e-08	816.69	364.56	1.048e-07	9.0947e-08	382.66	159.56	147.73	72.908	9.2654e-08	82.174	88.946	151.401	157.548	74.363	201.302	204.559	72.758	79.212	194.702	204.952	76.314	81.274	84.269	88.697	176.984	84.522	-8191	255	
2734.382	1	1	0	0	0.17499	0.11322	0.15319	0.1237	0.1492	0.14882	0.19243	0.11952	0.14585	0.059647	0.20228	0.17427	0.20874	0.1811	0.1672	0.26714	-3.5125	-4.0958	-3.4542	-4.225	-3.9	-3.3937	-4.2625	-3.7438	-3.8458	-4.1958	-3.7625	-4.3521	-4.1521	-3.6458	-4.2292	-3.8833	147.157	359.293	364.469	343.129	301.179	189.590	384.498	411.000	242.512	318.763	94.017	327.941	399.632	397.912	171.685	336.882	0.0020697	0.00019047	5.0447e-05	966.12	2.2098e-06	2.0009e-06	996.94	467.59	2.4603e-06	1.7214e-06	515.43	215.39	195.02	96.658	1.9636e-06	113.52	1.6159e-05	8.5482e-06	2.2707e-06	828.93	1.0304e-07	9.2289e-08	824.7	367.45	1.0344e-07	9.1067e-08	386	161.94	148.73	73.409	9.2809e-08	82.524	87.140	123.074	162.717	74.693	216.707	183.081	72.620	79.377	191.207	204.105	76.771	81.048	84.074	88.595	192.737	84.693	-8191	255	
2734.500	1	1	0	0	0.27385	0.081436	0.14651	0.031659	0.052742	0.2286	0.17425	0.025461	0.13407	0.13103	0.11335	0.1596	0.25002	0.24594	0.2232	0.19072	-3.4021	-4.3875	-3.4042	-4.1333	-4.0625	-3.6021	-4.3938	-3.9938	-3.8458	-4.1521	-4.0396	-4.2021	-4.2104	-3.5917	-4.1188	-3.9333	264.376	136.763	148.631	106.684	402.292	148.870	64.439	91.539	199.923	324.233	373.679	348.919	391.638	61.292	115.729	400.592	0.0020346	0.00014593	8.3313e-05	972.51	3.1888e-06	2.0464e-06	993.43	468	2.6454e-06	2.0868e-06	512.04	212.66	194.98	96.971	2.1204e-06	113.5	1.5959e-05	8.2248e-06	2.3036e-06	830.94	1.0155e-07	9.1619e-08	822.59	366.94	1.0283e-07	8.8089e-08	383.47	159.87	148.51	73.515	1.0029e-07	82.281	86.887	147.385	154.759	74.470	199.602	170.534	72.688	79.047	176.521	213.282	76.626	81.214	84.003	88.515	180.793	84.598	-8191	255	
2734.597	1	1	0	0	0.29049	0.12322	0.11349	0.064326	0.10181	0.066267	0.02961	0.10102	0.16763	0.12649	0.28728	0.23434	0.25586	0.28971	0.18262	0.3499	-3.3104	-4.1917	-3.5667	-3.9542	-4.0188	-3.4854	-4.2292	-3.9667	-3.6021	-4.3917	-3.8646	-3.9208	-4.3812	-3.7	-4.3063	-4.1271	298.498	342.162	173.404	340.069	157.672	97.705	167.210	135.868	127.444	110.871	381.060	161.384	367.697	379.132	132.101	311.402	0.0020771	0.00020618	7.3772e-05	969.25	2.5049e-06	1.5118e-06	988.87	465.05	2.464e-06	1.9422e-06	509.3	210.91	194.14	96.142	2.146e-06	112.64	1.6051e-05	8.2889e-06	2.4604e-06	829.93	9.9489e-08	9.1789e-08	821.43	365.76	1.0382e-07	8.768e-08	382.17	158.62	147.65	73.053	1.0942e-07	81.694	86.406	147.892	155.496	74.563	186.440	200.588	72.512	79.202	196.682	193.911	76.552	81.187	84.109	88.576	171.725	84.628	-8191	255	
2734.693	1	1	0	0	0.28204	0.091224	0.19101	0.21979	0.064486	0.082348	0.11455	0.53127	0.16395	0.067005	0.098482	0.13199	0.31179	0.39262	0.2391	0.088151	-3.2896	-4.3688	-3.7604	-4.0667	-4.1396	-3.6229	-4.2125	-4.0333	-3.6937	-4.2458	-3.9292	-3.9833	-4.4396	-3.8812	-3.95	-4.3458	259.444	63.361	342.295	85.369	419.491	392.088	293.856	296.251	408.351	317.998	310.535	172.995	378.892	405.647	300.659	118.292	0.0021128	0.00022462	9.6294e-05	969.37	2.8942e-06	1.4478e-06	985.47	465.16	2.4377e-06	2.3294e-06	510.12	211.64	194.32	96.324	2.5962e-06	112.88	1.5951e-05	8.3849e-06	2.6668e-06	828.22	1.0168e-07	9.0614e-08	817.65	365.64	1.0354e-07	9.0942e-08	381.84	158.99	147.86	73.103	1.118e-07	81.968	87.489	150.684	148.693	74.222	188.650	180.716	72.801	79.227	197.406	206.733	76.703	81.113	84.216	88.653	173.289	84.664	-8191	255	
2734.813	1	1	0	0	0.16877	0.14882	0.20488	0.15399	0.20903	0.21567	0.11562	0.21121	0.3095	0.15942	0.08081	0.14616	0.20669	0.38012	0.19023	0.17559	-3.2188	-4.1667	-3.9375	-3.7812	-4.3521	-3.625	-4.1771	-4.2875	-3.3937	-4.1854	-4.025	-3.8167	-4.3833	-3.7646	-3.975	-4.275	134.679	79.891	106.681	408.373	284.760	392.277	291.920	368.481	177.802	98.639	351.908	109.632	352.018	420.481	280.995	331.032	0.0020445	0.00022516	6.7478e-05	966.24	1.9945e-06	1.6421e-06	986.71	465.71	2.8614e-06	1.7776e-06	509.51	211.77	193.04	95.416	2.3812e-06	111.08	1.5678e-05	8.5244e-06	2.6776e-06	826.42	9.3784e-08	9.4194e-08	819	365.78	9.7252e-08	9.295e-08	381.81	159.05	147.25	72.313	1.0997e-07	80.86	86.844	135.343	152.804	74.579	201.481	176.550	72.671	79.259	191.474	204.927	76.563	81.042	83.972	88.420	190.627	84.685	-8191	255	
2734.910	1	1	0	0	0.095936	0.018022	0.10266	0.26725	0.21517	0.014551	0.10434	0.056826	0.10088	0.10696	0.10044	0.16212	0.41458	0.083195	0.14164	0.3472	-3.2188	-4.1875	-3.8521	-3.7417	-4.3021	-3.5542	-3.9479	-4.3229	-3.5312	-4.2208	-4.1396	-3.7042	-4.3771	-3.8312	-3.8812	-4.3146	301.534	95.578	314.840	66.887	253.797	86.044	86.282	293.211	70.189	114.951	399.492	388.809	67.522	247.270	333.993	370.238	0.002044	0.00018068	5.3012e-05	962.55	2.4524e-06	2.412e-06	977.74	461.66	2.4466e-06	1.6387e-06	505.15	208.89	191.76	94.429	2.2407e-06	110	1.5182e-05	8.8826e-06	2.5713e-06	822.69	9.0743e-08	9.613e-08	812.62	362.97	9.3205e-08	9.8525e-08	378.48	156.8	146.06	71.596	1.066e-07	79.718	88.027	137.403	152.938	74.372	203.977	186.398	72.685	79.267	184.369	201.817	76.430	80.970	84.105	88.499	207.182	84.640	-8191	255	
2735.006	1	1	0	0	0.22161	0.2701	0.15367	0.22947	0.17805	0.2294	0.11099	0.18402	0.12506	0.18681	0.31389	0.41739	0.20483	0.10433	0.1679	0.17403	-3.25	-4.0687	-3.9938	-3.8083	-4.3229	-3.8021	-3.85	-4.325	-3.7521	-4.0896	-4.2542	-3.7833	-4.1833	-4.0396	-3.6729	-4.5208	192.837	246.839	329.017	367.710	352.785	104.020	326.920	390.841	307.432	71.604	406.134	359.324	419.631	369.758	336.308	160.214	0.0020224	0.00019915	6.4021e-05	955.55	3.0108e-06	1.8797e-06	969.84	457.02	2.5193e-06	2.1072e-06	500.74	207.63	190.16	92.876	2.5366e-06	108.55	1.5055e-05	9.3615e-06	2.495e-06	816.81	9.0633e-08	1.0084e-07	806.34	359.74	9.5679e-08	1.01e-07	374.91	155.92	144.69	70.602	1.0564e-07	78.606	88.867	134.430	166.207	74.384	196.730	171.410	72.505	79.199	193.171	214.784	76.547	81.002	84.086	88.386	184.638	84.611	-8191	255	
2735.102	1	1	0	0	0.09059	0.14203	0.064682	0.19185	0.16206	0.046674	0.27862	0.126	0.20404	0.096242	0.20348	0.21485	0.24902	0.24536	0.16196	0.18286	-3.2042	-4.0854	-4.0458	-3.7396	-4.0625	-3.9313	-3.6437	-4.4125	-3.5438	-3.7979	-4.1646	-3.9458	-4.225	-4.0687	-3.7958	-4.3875	200.884	236.283	286.221	185.679	219.986	377.901	360.351	316.651	246.505	336.423	395.923	390.310	350.547	367.908	284.624	275.360	0.0020034	0.00020808	6.8611e-05	948.75	3.3843e-06	2.6646e-06	971.38	455.24	2.6333e-06	1.368e-06	497.59	207.78	189.44	92.464	2.5039e-06	108.1	1.5579e-05	9.5659e-06	2.4717e-06	811.29	9.8964e-08	1.0235e-07	802.85	357.54	1.0152e-07	1.0021e-07	373.76	155.8	144.19	70.154	1.0268e-07	78.268	87.724	127.408	142.551	74.409	193.914	187.024	72.549	79.189	193.231	201.326	76.340	81.055	84.058	88.452	184.201	84.374	-8191	255	
2735.198	1	1	0	0	0.14351	0.10369	0.072043	0.11315	0.26218	0.17711	0.15604	0.11705	0.14037	0.068841	0.21144	0.11995	0.044154	0.4192	0.043954	0.10289	-3.3896	-3.7771	-4.2292	-3.625	-4.1604	-3.9667	-3.5833	-4.1854	-3.6937	-3.8083	-4.1021	-3.6208	-4.1417	-4.1396	-3.5146	-4.4167	323.426	411.291	177.674	79.529	130.711	81.840	136.055	373.333	262.924	166.417	374.376	383.891	294.015	403.131	245.277	61.801	0.0020083	0.00021593	5.7763e-05	947.35	2.619e-06	2.5843e-06	970.66	451.56	2.6152e-06	1.6957e-06	496.12	205.75	188.2	91.567	2.3948e-06	106.66	1.5641e-05	9.1634e-06	2.3619e-06	808.64	1.0142e-07	9.642e-08	803.07	355.69	1.0311e-07	9.3869e-08	372.11	154.92	143.56	69.486	9.7061e-08	77.434	87.605	155.270	162.878	74.240	198.036	171.189	72.423	79.071	199.044	198.434	76.443	80.839	83.918	88.423	189.562	84.506	-8191	255	
2735.294	1	1	0	0	0.11153	0.11525	0.13278	0.11535	0.064989	0.12317	0.26296	0.32126	0.12026	0.019419	0.19656	0.086776	0.22936	0.19839	0.38902	0.19965	-3.4125	-3.7687	-4.0583	-3.7667	-3.8354	-4.2396	-3.7917	-4.325	-3.975	-3.8229	-4.3562	-3.7188	-3.8979	-4.3063	-3.5375	-4.3458	195.091	187.465	269.359	81.575	334.859	252.715	351.294	398.701	115.428	387.399	385.314	224.184	367.098	77.126	188.251	308.424	0.0019425	0.00021433	6.7371e-05	944.15	2.7765e-06	2.0697e-06	959.08	451.8	2.7135e-06	1.517e-06	493.45	204.36	188.08	91.474	2.1997e-06	106	1.5709e-05	8.8798e-06	2.2856e-06	805.85	1.0663e-07	9.5365e-08	794.28	354.07	1.0943e-07	9.7236e-08	369.02	153.52	142.94	69.424	9.7842e-08	77.015	86.079	144.604	154.517	74.511	214.714	191.584	72.621	78.992	187.686	218.431	76.274	81.048	84.024	88.385	189.969	84.553	-8191	255	
2735.413	1	1	0	0	0.1893	0.21074	0.10884	0.20912	0.061137	0.069054	0.20005	0.066593	0.18303	0.060441	0.19104	0.10831	0.31812	0.21899	0.12312	0.15614	-3.6354	-3.4688	-4.1104	-3.9208	-3.9875	-4.2688	-3.6375	-4.0375	-3.9646	-3.5062	-4.4292	-3.7104	-4.0042	-4.3979	-3.4125	-4.2792	267.779	293.661	160.438	419.761	197.948	328.744	318.909	221.028	299.826	242.296	344.511	373.952	65.633	405.112	111.864	400.968	0.0019137	0.00015123	4.2998e-05	937.97	2.0051e-06	2.3807e-06	952.29	447.75	2.8436e-06	1.9851e-06	491.17	203.78	186.89	90.801	2.5946e-06	105.58	1.6087e-05	9.0239e-06	2.2421e-06	802.92	1.0863e-07	9.707e-08	789.95	352.08	1.1113e-07	1.0005e-07	367.31	153.1	142.3	68.913	9.7757e-08	76.653	88.074	123.610	167.508	74.406	189.043	196.729	72.679	79.195	182.040	198.154	76.595	80.766	83.964	88.359	173.304	84.531	-8191	255	
2735.509	1	1	0	0	0.18416	0.23125	0.19723	0.18285	0.10677	0.1969	0.3087	0.069786	0.11416	0.17863	0.11914	0.17076	0.41273	0.033006	0.13746	0.14614	-3.5208	-3.4854	-4.1417	-3.6542	-3.8854	-4.1917	-3.5812	-4.1479	-4.0188	-3.5	-4.3521	-3.8958	-3.7167	-4.3104	-3.6375	-4.0333	144.899	406.941	166.304	118.924	393.320	155.457	385.851	355.450	93.974	271.471	303.766	412.967	387.506	147.904	147.865	293.713	0.0019754	0.00016524	8.1473e-05	940.5	2.1044e-06	1.8545e-06	954.66	448.77	1.9695e-06	1.0825e-06	490.84	204.36	187.49	90.778	1.9744e-06	105.78	1.6012e-05	8.8135e-06	2.2901e-06	802.45	1.0365e-07	9.3799e-08	792.75	352.39	1.0646e-07	9.5782e-08	368.26	153.56	142.51	68.945	1.0053e-07	76.8	88.537	126.724	137.487	74.377	215.665	196.393	72.762	79.170	182.048	196.073	76.407	80.787	84.007	88.396	189.476	84.616	-8191	255	
2735.605	1	1	0	0	0.028037	0.10729	0.14705	0.13968	0.094097	0.11522	0.051742	0.29121	0.14943	0.21845	0.10577	0.057149	0.1153	0.22852	0.1881	0.2442	-3.6646	-3.4062	-4.1146	-3.9188	-3.7812	-4.3313	-3.7562	-4.1458	-4.0021	-3.75	-4.2479	-4.1021	-3.75	-4.45	-3.6	-4.1792	89.452	305.254	195.246	112.462	131.941	199.075	105.941	306.113	219.637	329.618	403.309	324.670	267.045	281.323	107.056	358.326	0.0019228	0.0002444	7.5463e-05	936.22	2.6917e-06	2.1981e-06	952.3	447.55	2.3485e-06	1.5518e-06	490.19	204	186.91	90.862	2.6791e-06	105.57	1.5362e-05	8.5578e-06	2.3733e-06	801.4	1.0221e-07	8.5883e-08	791.51	351.57	9.9501e-08	8.8674e-08	367.35	153.13	142.1	68.888	1.0365e-07	76.597	86.931	155.373	151.224	74.283	205.605	184.802	72.560	79.152	191.958	226.342	76.537	80.882	84.120	88.310	175.693	84.510	-8191	255	
2735.677	1	1	0	0	0.098384	0.12717	0.11653	0.38737	0.077466	0.060645	0.056751	0.10483	0.14087	0.1981	0.066187	0.25928	0.29314	0.1826	0.23936	0.24886	-3.7042	-3.4854	-4.1583	-4.1125	-3.6917	-4.275	-3.775	-3.8875	-4.1229	-3.5271	-4.1458	-4.0646	-3.7604	-4.325	-3.7542	-3.8812	337.170	185.308	331.289	365.468	92.194	111.738	232.669	323.436	289.362	307.598	196.691	160.066	380.710	410.805	223.190	378.910	0.0019287	0.00016935	8.56e-05	935.95	2.3157e-06	2.6561e-06	951.25	446.69	2.7921e-06	1.8083e-06	487.52	202.07	186.31	90.391	2.3346e-06	105	1.512e-05	8.3868e-06	2.4421e-06	801.17	9.9234e-08	8.5703e-08	789.57	350.85	9.7177e-08	8.9243e-08	365.83	152.15	141.81	68.589	1.1213e-07	76.261	87.530	148.489	152.913	74.442	203.051	180.292	72.551	79.169	199.804	209.298	76.286	80.778	83.972	88.309	195.782	84.273	-8191	255	
2735.798	1	1	0	0	0.19201	0.22346	0.044231	0.12794	0.077544	0.13405	0.17861	0.19767	0.19784	0.096637	0.23393	0.19399	0.3092	0.15393	0.017064	0.011335	-3.6833	-3.6	-4.0479	-4.1354	-3.5167	-4.1396	-3.9667	-3.7958	-4.2208	-3.8292	-4.15	-4.3167	-3.6562	-4.2896	-3.9313	-3.9271	325.165	169.598	136.232	175.850	149.931	386.330	287.740	343.182	323.032	228.434	413.942	158.951	327.585	399.659	87.215	235.104	0.0018748	0.00019351	8.1921e-05	940.18	1.489e-06	1.8374e-06	954.95	449.61	1.8805e-06	1.7774e-06	492.85	204.18	188.43	91.669	2.568e-06	106.57	1.4891e-05	8.4362e-06	2.6813e-06	804.02	9.9354e-08	9.1799e-08	792.43	353.37	9.6561e-08	9.238e-08	368.57	153.46	143.34	69.543	1.1305e-07	77.282	89.393	129.987	147.182	74.338	201.538	186.867	72.787	78.993	187.919	191.970	76.431	80.897	83.768	88.405	188.190	84.461	-8191	255	
2735.894	1	1	0	0	0.26711	0.1529	0.076186	0.2867	0.19433	0.12248	0.18979	0.14517	0.0076595	0.26168	0.22371	0.095729	0.14972	0.18772	0.049277	0.24988	-3.9625	-3.6896	-4.0146	-4.1958	-3.5375	-4.1438	-3.8563	-3.8958	-4.3479	-3.6208	-3.9	-4.3604	-3.7438	-4.375	-3.8604	-3.6813	321.937	324.509	395.740	349.712	236.058	315.627	375.285	121.610	86.037	237.617	262.293	342.338	75.475	399.582	62.682	405.647	0.0019998	0.00021609	6.9917e-05	941.05	2.2143e-06	2.2326e-06	956.29	452.52	1.8705e-06	2.0367e-06	493.64	205.09	188.51	92.29	1.9784e-06	107.39	1.4892e-05	9.1319e-06	2.6987e-06	805.01	9.4766e-08	9.5515e-08	794.22	355.28	9.011e-08	9.5333e-08	370.08	154.09	143.75	69.947	1.0692e-07	77.745	87.011	141.734	146.889	74.168	205.903	195.514	72.630	79.192	191.752	207.517	76.544	80.952	84.069	88.509	178.794	84.462	-8191	255	
2735.990	1	1	0	0	0.2664	0.16093	0.25268	0.082843	0.13731	0.09843	0.24083	0.1661	0.057673	0.10277	0.18779	0.053088	0.17813	0.11132	0.10331	0.39103	-3.9667	-3.8688	-3.7396	-4.3167	-3.6063	-3.9813	-3.9313	-3.6854	-4.3542	-3.7687	-3.7583	-4.3292	-3.7104	-4.2562	-3.8646	-3.6646	216.261	402.490	321.918	414.333	127.715	309.012	347.888	420.130	215.655	355.106	252.495	170.983	305.614	103.791	337.911	350.423	0.001947	0.0001979	6.8441e-05	944.11	2.4831e-06	2.0065e-06	957.17	453.25	2.6731e-06	1.7942e-06	492.21	204.6	188.75	92.135	2.1216e-06	106.5	1.4401e-05	9.0852e-06	2.5208e-06	808.34	9.2817e-08	9.776e-08	795.54	355.62	9.013e-08	9.9264e-08	368.95	153.7	143.5	69.811	9.7196e-08	77.129	87.437	136.243	137.201	74.598	206.912	191.295	72.418	79.124	188.299	197.360	76.427	80.710	84.054	88.485	198.897	84.594	-8191	255	
2736.086	1	1	0	0	0.13129	0.19963	0.045862	0.2261	0.15281	0.14684	0.14968	0.2131	0.075954	0.047495	0.27543	0.15232	0.077774	0.12985	0.32523	0.16976	-3.9417	-3.6146	-3.5521	-4.3708	-3.5687	-3.9896	-4.2375	-3.7604	-4.1854	-3.8333	-3.6229	-4.3375	-3.8917	-4.1333	-4.2042	-3.7833	237.463	195.076	210.849	415.617	297.301	407.952	72.405	107.722	152.931	171.484	353.528	280.755	101.668	78.419	416.083	284.010	0.0019573	0.00019724	4.7714e-05	945.36	2.0064e-06	2.2446e-06	955.11	453.5	2.9645e-06	1.7607e-06	492.64	204.8	189.51	92.557	2.2288e-06	108.03	1.4241e-05	8.9462e-06	2.306e-06	807.76	9.0373e-08	9.6975e-08	793.07	355.22	9.2754e-08	9.6082e-08	368.46	153.63	144.4	70.612	1.0008e-07	78.316	86.685	124.588	137.867	74.585	197.338	183.219	72.475	79.133	181.001	203.692	76.330	81.027	84.081	88.535	187.075	84.455	-8191	255	
2736.182	1	1	0	0	0.1481	0.28348	0.24974	0.31628	0.050982	0.3057	0.11965	0.14361	0.16574	0.085553	0.32856	0.079027	0.40428	0.20942	0.081728	0.19878	-3.7542	-3.8271	-3.3875	-4.3229	-3.8229	-3.9167	-4.3562	-3.7625	-4.075	-4.0458	-3.7458	-4.4083	-3.9833	-3.9688	-4.1729	-3.6271	361.628	386.798	285.599	374.452	85.867	131.897	297.605	65.389	302.101	141.515	328.456	103.299	377.740	66.991	134.130	372.004	0.0019549	0.0002164	8.2756e-05	952.3	2.8072e-06	2.1309e-06	961.92	457.55	2.2449e-06	1.9111e-06	497.74	206.54	192.58	95.017	2.7619e-06	109.95	1.5274e-05	9.2814e-06	2.4362e-06	815.17	1.0285e-07	9.9291e-08	798.92	359.87	1.0443e-07	1.0217e-07	373.28	155.42	146.34	72.188	1.021e-07	79.863	85.069	138.707	143.830	74.483	205.893	196.336	72.743	79.259	204.571	196.543	76.311	80.985	84.334	88.561	193.865	84.581	-8191	255	
2736.278	1	1	0	0	0.21598	0.11055	0.22223	0.037876	0.16197	0.17654	0.17087	0.14524	0.19605	0.10556	0.16001	0.27519	0.16563	0.085683	0.11274	0.15426	-3.6312	-3.9771	-3.4958	-4.3479	-3.7667	-3.7458	-4.2354	-3.6188	-3.9771	-4.0563	-3.7604	-4.4646	-4.0687	-3.7167	-4.3021	-3.6542	66.143	192.635	414.149	411.069	402.715	395.497	363.889	252.787	308.255	369.918	298.417	326.194	87.457	75.175	412.520	299.849	0.0019804	0.00011609	6.6477e-05	954.13	1.9503e-06	2.409e-06	965.25	460.73	2.5656e-06	1.5709e-06	499.57	208.77	192.5	95.273	2.7146e-06	110.46	1.6667e-05	9.5966e-06	2.4997e-06	816.1	1.1133e-07	1.0387e-07	800.21	361.75	1.1073e-07	1.0061e-07	374.3	156.36	146.87	72.487	9.8487e-08	80.116	86.276	150.716	136.159	74.661	179.614	192.053	72.814	79.366	190.455	212.242	76.494	81.023	84.189	88.610	175.283	84.511	-8191	255	
2736.374	1	1	0	0	0.042232	0.21826	0.16032	0.17622	0.21199	0.16026	0.26461	0.28301	0.25426	0.21092	0.27783	0.22211	0.063711	0.2448	0.09967	0.12363	-3.7271	-3.9167	-3.5271	-4.1687	-3.9146	-3.7729	-4.3792	-3.8688	-3.8312	-4.1771	-3.5708	-4.0104	-4.0792	-3.7729	-4.3625	-3.7917	294.525	123.929	321.937	354.388	220.399	307.664	315.994	122.072	278.890	388.214	315.782	393.812	350.800	370.021	153.529	200.090	0.0019562	0.00020748	6.9229e-05	953.69	2.1891e-06	2.4485e-06	963.11	460.1	1.6679e-06	1.8579e-06	498.69	206.19	191.88	94.557	2.0428e-06	109.07	1.5993e-05	8.9032e-06	2.3558e-06	815.45	1.0507e-07	9.436e-08	798.7	361.27	1.0669e-07	9.32e-08	373.49	155.17	146.14	71.744	8.9122e-08	79.031	88.607	134.855	155.102	74.370	202.033	198.134	72.740	79.199	204.370	217.467	76.449	81.016	83.917	88.703	182.706	84.328	-8191	255	
2736.493	1	1	0	0	0.077817	0.078789	0.1199	0.11549	0.29752	0.13967	0.16088	0.090575	0.14396	0.22886	0.16102	0.37218	0.2866	0.29413	0.062749	0.11922	-3.625	-4.0542	-3.6333	-4.1396	-3.8146	-3.6396	-4.2354	-3.7687	-3.85	-4.2	-3.6146	-4.025	-4.2229	-3.7083	-4.1604	-3.8354	214.980	344.498	86.009	61.442	76.855	230.744	372.855	393.512	417.489	61.665	361.515	372.550	82.499	370.792	153.978	340.515	0.0020489	0.00020037	6.898e-05	953.33	2.4725e-06	2.3672e-06	957.69	458.29	2.593e-06	2.4252e-06	499.49	205.82	191.42	93.605	2.1707e-06	108.4	1.5573e-05	8.0853e-06	2.1784e-06	815.72	9.7646e-08	8.7828e-08	796.99	360.72	9.7503e-08	8.4572e-08	372.53	154.74	145.58	71.066	8.8471e-08	78.423	88.123	139.704	148.716	74.474	199.981	165.255	72.586	79.168	192.340	205.702	76.339	81.142	84.304	88.632	187.133	84.293	-8191	255	
2736.590	1	1	0	0	0.12409	0.12939	0.25964	0.042939	0.37466	0.098378	0.043125	0.066292	0.063824	0.22766	0.29091	0.21296	0.19278	0.18963	0.22601	0.16934	-3.5333	-4.1813	-3.4813	-4.1333	-4.1	-3.6188	-4.3417	-3.9021	-3.7542	-4.3958	-3.7771	-4.1729	-4.3667	-3.7	-4.1438	-3.9437	62.233	230.942	407.853	235.968	348.233	355.527	344.852	110.342	152.663	321.573	340.142	331.048	388.710	395.943	381.602	383.334	0.0020557	0.00019657	8.7537e-05	953.74	2.256e-06	2.5965e-06	963.7	460.81	2.3102e-06	1.0874e-06	501.14	208.53	192.68	95.885	3.1572e-06	110.86	1.5122e-05	7.6934e-06	2.1513e-06	816.89	9.3308e-08	8.4112e-08	802.12	361.73	9.9216e-08	8.2819e-08	375.2	156.52	146.95	72.805	9.9368e-08	80.545	88.487	135.225	152.990	74.268	214.715	178.308	72.899	79.171	192.492	218.328	76.282	80.877	84.071	88.520	187.505	84.575	-8191	255	
2736.686	1	1	0	0	0.050687	0.21448	0.19505	0.026861	0.13874	0.020723	0.18435	0.24407	0.11824	0.14461	0.15415	0.1886	0.11447	0.088658	0.20043	0.26719	-3.3063	-4.2125	-3.6937	-3.8604	-4.1604	-3.7375	-4.3458	-4.0563	-3.7354	-4.0625	-3.9	-4.0188	-4.2958	-3.7333	-4.1062	-4.2854	355.301	116.532	400.969	407.301	125.192	351.280	342.071	317.598	395.168	214.810	264.271	357.851	67.977	89.881	192.449	388.696	0.00207	0.00015379	7.9698e-05	965.09	2.0515e-06	1.7549e-06	974	461.63	3.2132e-06	2.0731e-06	501.97	209.13	193.79	96.261	2.7743e-06	110.68	1.5629e-05	8.1196e-06	2.536e-06	823.77	1.0069e-07	8.9844e-08	805.7	363.87	1.0397e-07	9.0452e-08	376.8	157	147.31	72.828	1.0912e-07	80.292	89.074	154.208	136.116	74.547	207.666	176.347	72.843	79.328	195.065	211.961	76.573	80.939	84.199	88.490	193.714	84.503	-8191	255	
2736.782	1	1	0	0	0.061188	0.10867	0.11878	0.15864	0.09937	0.10188	0.2207	0.2603	0.042665	0.12002	0.17278	0.14017	0.20616	0.073676	0.042683	0.096698	-3.2979	-4.2562	-3.8417	-3.9813	-4.1021	-3.6396	-4.0542	-4.1354	-3.7125	-4.2604	-3.8542	-3.8042	-4.5104	-3.6292	-4.1396	-4.1396	114.770	354.878	377.717	325.394	126.861	249.059	361.088	320.796	65.076	151.132	390.380	343.807	409.457	405.331	123.782	410.186	0.0020081	0.00019927	5.2924e-05	962.78	2.4451e-06	2.2974e-06	970.64	461.35	2.029e-06	2.044e-06	497.26	206.31	192.79	94.943	2.091e-06	109.02	1.5623e-05	8.3859e-06	2.6341e-06	822.69	9.727e-08	8.8223e-08	804.67	362.59	9.7247e-08	8.7345e-08	373.07	155.18	146.42	72.004	1.0586e-07	79.025	86.532	137.121	168.591	74.655	192.344	177.318	72.568	79.211	198.949	201.015	76.549	80.790	84.019	88.594	188.098	84.648	-8191	255	
2736.902	1	1	0	0	0.09898	0.086711	0.080823	0.07683	0.094127	0.066414	0.05437	0.21514	0.26646	0.10306	0.023568	0.29579	0.20092	0.23658	0.22475	0.08225	-3.1875	-4.2479	-3.9354	-3.6437	-4.3604	-3.6937	-4.0646	-4.2875	-3.5083	-4.1333	-4.1521	-3.7875	-4.2833	-3.8333	-3.8479	-4.3104	302.648	69.546	288.954	120.168	132.599	249.912	331.391	334.911	318.245	261.404	99.971	328.297	339.807	402.063	277.789	82.917	0.0019749	0.00020109	5.4554e-05	957.64	2.2423e-06	1.5724e-06	965.25	458.49	2.4015e-06	1.399e-06	494.64	205.14	189.94	92.799	3.0104e-06	106.56	1.4947e-05	8.1841e-06	2.5139e-06	818.5	8.7367e-08	8.9158e-08	800	360.23	9.0045e-08	8.9413e-08	370.92	153.88	144.68	70.497	1.0329e-07	77.283	87.270	130.408	162.546	74.593	201.740	183.234	72.776	79.026	184.962	189.192	76.383	80.934	84.085	88.415	186.755	84.337	-8191	255	
2736.974	1	1	0	0	0.13377	0.098559	0.15574	0.078735	0.10231	0.20192	0.20832	0.12389	0.13175	0.033385	0.084811	0.14812	0.08738	0.26207	0.12047	0.08513	-3.3979	-4.0479	-3.9771	-3.7458	-4.1292	-3.7583	-3.7875	-4.3063	-3.5104	-4.1042	-4.1979	-3.5583	-4.4375	-3.9437	-3.7646	-4.4167	315.812	140.857	311.235	411.426	392.260	412.485	368.399	411.840	220.730	210.365	249.409	305.760	408.286	408.820	200.145	376.644	0.0019134	0.00020619	8.9932e-05	947.97	2.2446e-06	1.4561e-06	956.72	451.16	2.4675e-06	1.9461e-06	489.15	203.28	187.21	91.143	2.3531e-06	104.88	1.4173e-05	8.6639e-06	2.424e-06	810.52	8.5438e-08	9.3214e-08	794.4	355.13	8.8377e-08	8.9878e-08	367.07	152.69	142.59	69.084	9.7366e-08	75.93	87.339	143.180	142.337	74.462	206.670	217.081	72.849	79.210	201.462	206.684	76.589	80.669	83.857	88.532	184.726	84.396	-8191	255	
2737.095	1	1	0	0	0.10902	0.23526	0.074792	0.1831	0.27517	0.17603	0.14046	0.091685	0.074933	0.1603	0.10522	0.075512	0.13533	0.14591	0.13689	0.2326	-3.1437	-4.0667	-4.1104	-3.9625	-4.4625	-3.9437	-3.8104	-4.4187	-3.5563	-4.0979	-4.1583	-3.6375	-4.3562	-4.0437	-3.7583	-4.4292	201.021	363.868	185.095	401.443	388.743	261.501	63.887	210.231	317.243	147.093	375.602	384.342	90.487	74.538	134.223	395.291	0.0019309	0.00022285	5.4842e-05	941.81	2.2399e-06	1.8611e-06	955.64	448.2	2.6407e-06	1.4712e-06	489.69	203.2	186.07	90.509	1.823e-06	104.11	1.4235e-05	8.6868e-06	2.2981e-06	805.18	8.5398e-08	9.3409e-08	792.93	352.14	8.9389e-08	9.1776e-08	366.42	152.23	141.77	68.541	9.1333e-08	75.629	85.236	144.436	142.097	74.388	202.533	192.490	72.525	79.104	188.294	194.816	76.368	81.062	83.959	88.461	195.369	84.523	-8191	255	
2737.191	1	1	0	0	0.12171	0.21335	0.090486	0.24633	0.14036	0.20867	0.13504	0.1381	0.13976	0.15781	0.039212	0.16919	0.092369	0.029514	0.19048	0.40435	-3.2438	-4.1083	-3.9417	-3.6104	-4.2312	-3.9354	-3.7188	-4.2104	-3.7229	-3.8563	-4.0667	-3.7896	-4.2562	-4.0563	-3.6458	-4.3396	213.232	370.953	172.444	388.784	281.505	89.133	292.189	366.935	328.526	281.518	256.532	295.285	321.665	222.680	206.407	385.044	0.001949	0.00021487	8.83e-05	944.02	2.8728e-06	1.9868e-06	955.84	449.89	2.6559e-06	1.7093e-06	487.98	203.46	187.9	91.785	1.9413e-06	105.28	1.4422e-05	8.4284e-06	2.2003e-06	805.78	9.0698e-08	9.1854e-08	791.62	353.18	9.6135e-08	9.2006e-08	365.24	152.41	143.07	69.69	9.8012e-08	76.366	86.947	140.193	154.631	74.253	206.425	174.440	72.618	79.118	190.526	196.322	76.396	81.023	83.999	88.408	177.540	84.479	-8191	255	
2737.287	1	1	0	0	0.2213	0.1832	0.16289	0.24242	0.26718	0.1535	0.057714	0.16663	0.16053	0.072674	0.13168	0.21884	0.33671	0.44114	0.25137	0.20651	-3.4354	-3.8542	-4.1438	-3.5833	-4.175	-3.9292	-3.7708	-4.2438	-3.8146	-3.7271	-4.3396	-3.8417	-4.0083	-4.1813	-3.6833	-4.4083	238.633	97.429	158.731	414.892	312.985	399.333	90.927	303.203	299.443	289.990	306.437	376.037	365.460	410.444	163.325	404.038	0.0019422	0.00026374	7.9157e-05	942.74	2.4755e-06	1.689e-06	950.24	449.32	2.1659e-06	2.0037e-06	486.71	203.01	188.82	92.022	1.899e-06	105.97	1.5578e-05	9.3148e-06	2.3846e-06	806.29	1.0522e-07	9.9901e-08	787.88	354.04	1.076e-07	9.8265e-08	365.01	152.47	143.54	69.892	9.8532e-08	76.726	89.711	145.864	140.072	74.446	201.432	179.442	72.500	79.323	201.634	197.017	76.257	80.731	83.912	88.579	181.386	84.538	-8191	255	
2737.381	1	1	0	0	0.27679	0.1506	0.18024	0.15079	0.090582	0.090562	0.11769	0.17494	0.12832	0.17639	0.30398	0.1673	0.12774	0.06875	0.20629	0.23579	-3.4458	-3.95	-4.2375	-3.7062	-4.0437	-4.3021	-3.6625	-4.2104	-3.8833	-3.8104	-4.3438	-3.8688	-3.9437	-4.375	-3.5208	-4.3375	207.135	404.218	90.791	94.639	391.792	200.124	74.958	363.906	119.927	222.052	398.570	394.691	71.922	378.332	345.800	387.602	0.0019417	0.00022021	6.1047e-05	942.44	2.1498e-06	2.2995e-06	955.33	450.85	2.6459e-06	2.1209e-06	491.69	203.76	188.58	91.845	2.7058e-06	105.9	1.6289e-05	9.1131e-06	2.3023e-06	807.46	1.0794e-07	9.3429e-08	791.57	354.83	1.0818e-07	9.4294e-08	367.48	153.16	143.53	69.758	9.3289e-08	76.66	84.843	124.665	147.759	74.466	207.337	188.220	72.631	79.196	175.268	186.638	76.435	80.799	84.037	88.462	175.609	84.394	-8191	255	
2737.502	1	1	0	0	0.070972	0.16237	0.25113	0.3888	0.11724	0.1977	0.29653	0.14991	0.032847	0.1629	0.18002	0.20614	0.041706	0.209	0.22615	0.10095	-3.4813	-3.6125	-4.1813	-3.8396	-3.9229	-4.0833	-3.7583	-4.3	-3.9437	-3.6396	-4.575	-3.7583	-3.8771	-4.5354	-3.5125	-4.2354	123.899	66.409	261.178	387.460	122.909	299.890	376.049	394.432	137.288	227.078	362.769	386.273	118.379	416.898	356.990	188.331	0.0019052	0.00023175	8.648e-05	944.72	2.2669e-06	1.8671e-06	953.15	449.78	1.6805e-06	1.4996e-06	488.78	203.36	187.25	91.102	2.1383e-06	104.26	1.5424e-05	8.2939e-06	2.1085e-06	808	9.709e-08	8.7658e-08	791.91	353.56	9.8765e-08	8.8399e-08	365.4	152.35	142.65	69.151	9.2168e-08	75.807	84.962	145.756	165.710	74.368	203.635	187.886	72.519	79.155	184.184	197.680	76.481	80.852	84.104	88.461	186.747	84.606	-8191	255	
2737.574	1	1	0	0	0.094466	0.18811	0.12417	0.26595	0.041575	0.096022	0.31298	0.2257	0.18544	0.17465	0.016628	0.19113	0.36087	0.11878	0.12493	0.3284	-3.8042	-3.525	-4.1833	-4.0083	-3.7521	-4.2688	-3.8354	-4.0542	-4.2104	-3.5667	-4.2917	-3.875	-3.6208	-4.3167	-3.7417	-4.0417	188.127	260.444	278.279	383.302	328.746	334.401	307.341	74.193	118.161	403.006	307.840	409.352	375.912	346.829	354.661	332.417	0.0018346	0.00016177	6.7302e-05	936.15	3.2294e-06	1.7462e-06	940.2	446.37	2.3559e-06	1.4581e-06	480.78	201.4	186.29	90.594	2.5779e-06	103.58	1.5266e-05	8.2742e-06	2.1559e-06	800.31	1.0373e-07	8.6998e-08	781.05	350.98	1.006e-07	8.7105e-08	361.53	150.91	141.75	68.648	9.8467e-08	75.166	88.989	128.617	152.341	74.402	209.733	182.088	72.604	79.240	189.985	192.047	76.486	80.877	84.062	88.636	178.679	84.466	-8191	255	
2737.670	1	1	0	0	0.19922	0.23555	0.075983	0.04403	0.11454	0.11371	0.32376	0.27708	0.18014	0.27285	0.054886	0.10369	0.32969	0.16651	0.12723	0.11275	-3.4688	-3.6271	-4.1167	-3.8896	-3.55	-4.2521	-3.6021	-3.9521	-4.0208	-3.6688	-4.1687	-4.0938	-3.7938	-4.4021	-3.7438	-4.0354	358.668	87.824	198.390	364.347	323.495	171.175	410.767	344.714	236.110	215.961	385.809	410.802	408.075	125.859	413.363	419.612	0.001809	0.00024705	6.1293e-05	937.18	2.1404e-06	2.4847e-06	942.62	446.13	2.3577e-06	1.4915e-06	485.1	201.17	186.53	89.949	2.3341e-06	103.44	1.4811e-05	8.11e-06	2.2901e-06	801.26	9.3749e-08	8.2517e-08	783.87	350.41	9.4017e-08	8.3384e-08	363.66	151.23	141.52	68.305	9.8782e-08	75.166	87.006	139.753	152.548	74.433	203.821	195.511	72.508	79.096	182.842	211.441	76.482	80.812	84.045	88.460	178.327	84.598	-8191	255	
2737.766	1	1	0	0	0.046726	0.065539	0.1784	0.17029	0.30861	0.21071	0.17568	0.22077	0.055552	0.28587	0.23616	0.12374	0.25275	0.22893	0.20502	0.10629	-3.9083	-3.375	-4.0083	-3.9083	-3.4167	-4.2396	-3.7792	-3.925	-4.1167	-3.5604	-4.1438	-4.0875	-3.6813	-4.2042	-3.8667	-3.8979	115.805	368.330	317.521	386.010	255.447	162.912	160.992	372.043	129.541	110.714	387.128	145.584	77.787	248.590	324.376	102.351	0.0019075	0.00022964	6.7364e-05	939.31	2.4337e-06	2.5201e-06	951.75	448.06	2.3933e-06	1.7913e-06	490.79	202.86	187.8	91.218	2.3205e-06	105.48	1.4512e-05	7.6298e-06	2.3326e-06	805.19	8.9892e-08	7.9371e-08	791.79	352.25	8.8267e-08	7.9557e-08	366.81	152.49	142.91	69.207	1.0229e-07	76.493	86.785	138.111	169.436	74.326	211.481	178.849	72.575	79.132	196.260	210.501	76.507	80.955	84.091	88.440	173.369	84.547	-8191	255	
2737.862	1	1	0	0	0.16459	0.30834	0.20616	0.058749	0.13164	0.19398	0.29182	0.055578	0.13981	0.096626	0.15501	0.16298	0.044222	0.11026	0.32984	0.11824	-3.8125	-3.5812	-3.9958	-4.1833	-3.6833	-4.1958	-3.9354	-3.6813	-4.3792	-3.675	-4.0708	-4.2958	-3.5104	-4.3417	-3.8396	-3.8354	109.099	143.625	322.700	379.482	90.200	349.413	220.876	117.716	257.064	192.846	72.074	229.438	108.578	407.127	349.479	192.981	0.0019902	0.00023916	4.8707e-05	946.49	2.5727e-06	1.9085e-06	953.23	450.37	1.7768e-06	2.108e-06	484.64	201.51	187.12	91.054	1.9793e-06	104.63	1.4397e-05	8.0767e-06	2.4642e-06	809.95	9.3764e-08	9.0814e-08	792.06	352.67	9.3275e-08	9.5268e-08	363.14	151.53	142.17	69.148	1.1641e-07	75.722	87.343	145.921	148.902	74.446	217.790	191.816	72.739	79.197	181.373	201.486	76.485	80.969	84.127	88.322	181.303	84.283	-8191	255	
2737.983	1	1	0	0	0.25612	0.19854	0.062353	0.19246	0.019247	0.16498	0.33081	0.1242	0.1189	0.085212	0.053855	0.20723	0.075189	0.23545	0.23661	0.14308	-4.0875	-3.7062	-3.8229	-4.3333	-3.5208	-4.125	-4.0188	-3.6958	-4.1375	-3.6229	-4.0708	-4.2312	-3.7479	-4.3896	-4.075	-3.8542	98.520	274.373	327.248	359.478	334.821	72.287	333.726	62.385	254.054	353.442	346.363	324.022	406.935	373.699	167.038	388.160	0.0019198	0.00017999	6.8944e-05	938.67	2.1677e-06	2.439e-06	947.93	444.48	1.9157e-06	1.7736e-06	480.69	199.78	185.22	89.794	2.459e-06	102.39	1.4936e-05	9.7068e-06	2.7739e-06	802.49	9.9239e-08	1.05e-07	784.68	349.72	9.8519e-08	1.0675e-07	359.75	149.94	140.97	68.072	1.1034e-07	74.165	86.490	145.231	141.967	74.420	205.394	180.968	72.637	79.241	169.560	200.982	76.428	80.923	83.902	88.327	180.786	84.349	-8191	255	
2738.079	1	1	0	0	0.31841	0.084753	0.15065	0.076537	0.082356	0.19975	0.23322	0.066462	0.32161	0.048737	0.14387	0.27821	0.049572	0.06245	0.090067	0.23116	-4.0354	-3.7458	-3.7792	-4.5042	-3.575	-4.2708	-3.95	-3.8438	-4.3521	-3.8458	-3.9562	-4.2396	-3.7042	-4.0333	-4.1146	-3.8146	73.104	257.958	360.901	177.510	218.660	280.335	264.784	365.946	102.579	371.834	279.235	373.339	311.326	264.664	345.987	344.805	0.0018993	0.00022104	7.0556e-05	935.48	2.6762e-06	2.1463e-06	946.8	443.69	2.039e-06	2.0676e-06	482.78	200.47	186.01	89.878	2.4175e-06	102.62	1.4493e-05	9.6021e-06	2.5387e-06	801.73	9.445e-08	9.9271e-08	785.28	349.15	9.4442e-08	1.0274e-07	361.93	150.56	141.28	68.187	1.006e-07	74.438	87.620	141.025	149.398	74.268	203.303	203.328	72.495	79.319	180.429	197.454	76.390	80.937	84.066	88.328	189.721	84.323	-8191	255	
2738.175	1	1	0	0	0.11462	0.21181	0.12694	0.10059	0.23343	0.11292	0.10101	0.18271	0.10323	0.092594	0.24156	0.20581	0.12264	0.20786	0.12832	0.10057	-3.8312	-3.7229	-3.5146	-4.3208	-3.6479	-3.8958	-4.2063	-3.5292	-3.95	-3.9875	-3.7521	-4.3021	-3.7021	-4.2021	-4.0896	-3.7438	124.365	122.168	225.786	320.808	167.728	81.109	338.665	342.566	126.090	89.210	293.342	313.554	109.861	403.049	300.024	290.955	0.0018649	0.00021573	8.6306e-05	939.16	2.082e-06	1.3257e-06	943.86	441.76	2.9321e-06	1.3899e-06	477.33	198.16	183.19	87.636	1.7892e-06	99.352	1.4553e-05	9.5536e-06	2.4178e-06	800.68	9.5753e-08	9.7465e-08	782.91	347.2	9.7157e-08	9.8864e-08	358.24	149.21	139.08	66.389	1.0032e-07	71.995	87.231	144.405	152.406	74.292	205.481	185.173	72.624	79.111	183.129	207.564	76.351	80.919	83.954	88.398	179.819	84.421	-8191	255	
2738.271	1	1	0	0	0.081125	0.12343	0.12052	0.20729	0.072849	0.061343	0.23225	0.034789	0.12501	0.19911	0.16758	0.35549	0.058021	0.12329	0.25571	0.15544	-3.5896	-3.8063	-3.6188	-4.3875	-3.6646	-3.7812	-4.2792	-3.6312	-4.1042	-4.1	-3.6042	-4.2417	-3.975	-4.025	-4.2458	-3.725	245.303	223.419	153.789	242.910	123.621	322.772	384.432	267.793	372.128	310.313	418.828	390.200	398.188	397.584	128.976	72.704	0.0017958	0.00014277	7.2841e-05	930.12	1.7354e-06	1.9464e-06	937.15	435.22	2.1911e-06	1.6727e-06	471.24	195.94	180.62	85.78	1.6407e-06	97.547	1.5077e-05	9.1515e-06	2.3705e-06	793.4	9.9259e-08	9.643e-08	775.77	341.11	1.0062e-07	9.6052e-08	352.88	147.07	137.04	65.084	9.3184e-08	70.753	85.728	125.514	148.912	74.281	194.682	206.963	72.505	79.118	191.337	188.288	76.505	80.934	83.864	88.331	180.445	84.313	-8191	255	
2738.367	1	1	0	0	0.26148	0.13437	0.14788	0.073977	0.23118	0.061249	0.10266	0.20337	0.12088	0.15482	0.27092	0.17786	0.143	0.11623	0.1197	0.18537	-3.7333	-3.8417	-3.5333	-4.4604	-3.6917	-3.9437	-4.525	-3.8479	-3.9354	-4.1813	-3.7771	-4.2792	-3.9167	-3.7854	-4.1771	-3.8917	243.324	324.700	170.605	360.830	163.468	197.789	375.167	330.230	82.513	258.069	342.070	409.526	378.185	343.404	262.206	358.045	0.0018569	0.00020998	5.1166e-05	923.53	2.4734e-06	1.347e-06	932.35	428.87	2.1294e-06	1.3083e-06	468.58	194.58	178.86	85.226	2.6415e-06	97.362	1.5139e-05	8.6456e-06	2.1979e-06	788.89	9.9374e-08	8.7468e-08	773.59	337.58	9.9892e-08	8.7305e-08	351.33	146.43	136.2	64.499	8.7971e-08	70.409	88.337	124.737	153.166	74.255	207.524	180.906	72.482	78.829	202.526	203.116	76.381	80.841	83.882	88.279	184.528	84.312	-8191	255	
2738.464	1	1	0	0	0.20491	0.18289	0.18159	0.29963	0.19798	0.24153	0.16615	0.27306	0.16157	0.087844	0.30601	0.11057	0.05149	0.27909	0.12962	0.2908	-3.5042	-3.9333	-3.5438	-4.1813	-3.7729	-3.6542	-4.3375	-3.7375	-3.7542	-4.1896	-3.7771	-4.1708	-4.0542	-3.8354	-4.1417	-3.7562	148.929	289.659	318.146	384.547	328.247	298.813	389.866	345.499	206.373	195.352	317.082	406.981	71.216	316.486	249.427	306.665	0.0017786	0.0001625	6.7652e-05	929.53	2.068e-06	1.605e-06	933.54	435.91	2.2173e-06	1.4588e-06	475.55	198.08	181.88	86.912	2.4335e-06	99.377	1.4717e-05	8.153e-06	2.1823e-06	793.9	1.0002e-07	8.9494e-08	777.92	341.73	1.0102e-07	8.8444e-08	355.39	148.44	138.15	65.83	8.9297e-08	72.076	85.756	128.085	165.334	74.280	207.999	176.895	72.470	78.867	172.464	214.870	76.415	80.948	84.055	88.229	193.335	84.431	-8191	255	
2738.582	1	1	0	0	0.27747	0.11069	0.081129	0.15282	0.025646	0.099684	0.077679	0.19412	0.17529	0.22072	0.2439	0.094266	0.20505	0.040357	0.045529	0.092334	-3.4813	-4.0146	-3.6792	-4.1562	-4.0333	-3.5104	-4.2604	-3.7917	-3.7604	-4.3313	-3.8125	-4.1875	-4.2375	-3.6458	-4.2812	-3.9542	204.481	287.375	230.561	101.740	73.326	375.609	266.090	77.576	325.699	388.738	419.178	86.976	392.790	230.474	283.981	365.952	0.0018344	0.00017873	7.54e-05	928.46	1.8099e-06	1.6629e-06	944.43	437.84	1.4125e-06	1.2946e-06	477.98	199.35	182.35	87.168	2.1471e-06	100.31	1.5073e-05	8.3305e-06	2.2284e-06	796	1.0049e-07	8.9448e-08	782.58	343.8	1.0287e-07	9.0867e-08	357.72	149.56	138.65	66.11	9.7742e-08	72.613	88.765	140.943	155.709	74.408	186.525	177.271	72.611	78.969	183.000	197.576	76.514	80.913	83.796	88.270	173.796	84.319	-8191	255	
2738.679	1	1	0	0	0.36281	0.1345	0.126	0.10405	0.20047	0.18614	0.20163	0.16263	0.17908	0.058655	0.19379	0.10488	0.11273	0.16278	0.22165	0.14032	-3.3604	-4.3063	-3.5312	-4.1521	-4.1438	-3.6604	-4.2229	-4.0813	-3.6354	-4.3875	-3.9708	-3.9313	-4.2292	-3.8229	-4.1479	-4.1229	365.303	278.270	346.304	95.915	321.285	382.251	331.113	333.282	256.707	305.529	92.765	204.938	371.942	415.029	339.808	404.691	0.0018864	0.00013768	7.5598e-05	934.7	2.0988e-06	1.9844e-06	942.96	439.02	2.5248e-06	1.264e-06	478.56	198.97	184.82	88.82	2.2992e-06	101.52	1.5036e-05	8.2299e-06	2.3635e-06	799.49	1.0035e-07	9.2899e-08	781.43	345.05	1.0481e-07	8.9723e-08	358.19	149.67	140.53	67.389	1.0519e-07	73.668	88.368	118.021	134.221	74.241	187.574	196.400	72.349	79.228	186.593	217.342	76.506	80.984	83.989	88.452	197.471	84.307	-8191	255	
2738.775	1	1	0	0	0.19185	0.080301	0.20591	0.36322	0.19139	0.22784	0.1487	0.1316	0.13895	0.27493	0.17059	0.067829	0.17149	0.28941	0.080605	0.37984	-3.4437	-4.1542	-3.65	-4.0667	-4.0167	-3.5938	-4.1729	-4.1083	-3.6354	-4.3729	-3.9938	-4.0104	-4.3354	-3.7521	-4.0583	-4.2146	143.032	210.281	204.745	382.727	285.749	346.104	356.326	378.845	204.061	296.527	360.721	215.418	403.071	363.128	311.960	372.946	0.001856	0.00019376	7.5091e-05	941.28	1.9281e-06	2.0114e-06	941.48	445.11	2.9745e-06	1.186e-06	479.99	199.78	186.72	89.809	1.9756e-06	102.86	1.5455e-05	8.1631e-06	2.6298e-06	803.34	1.0357e-07	9.0604e-08	783.33	349.42	1.0522e-07	9.1656e-08	360.07	150.36	141.96	68.346	1.161e-07	74.607	89.366	153.008	164.700	74.377	188.769	160.452	72.515	79.169	187.817	213.010	76.315	80.887	83.979	88.447	189.696	84.238	-8191	255	
2738.871	1	1	0	0	0.15369	0.15256	0.16167	0.015784	0.067709	0.076893	0.10001	0.099633	0.14898	0.17405	0.20174	0.19279	0.11422	0.28651	0.17852	0.3115	-3.2146	-4.1521	-3.9583	-3.8271	-4.1312	-3.6396	-4.1792	-4.2521	-3.5062	-4.2396	-3.8958	-3.7583	-4.175	-3.7708	-3.9146	-4.2646	222.554	285.375	302.265	270.147	127.696	74.711	311.827	215.207	165.821	68.535	403.410	373.309	397.836	416.038	223.002	362.682	0.0018647	0.00024922	6.5287e-05	946.92	2.6599e-06	1.8226e-06	951.09	446.57	3.0264e-06	2.1904e-06	486.8	203.35	188.31	91.501	2.6793e-06	104.68	1.5512e-05	8.7079e-06	2.8431e-06	810.07	1.0341e-07	9.619e-08	790.37	352.09	1.0484e-07	1.0017e-07	364.5	152.11	143.53	69.538	1.2283e-07	76.036	87.342	134.674	154.980	74.286	217.415	175.957	72.616	79.339	191.296	197.974	76.486	80.841	84.121	88.518	186.893	84.429	-8191	255	
#DATA ENDS
