BOXY.EXE: ISS Imagent and Oximeter Data Acquisition Program Version 0.80
Ascii Record File

#ACQ INFORMATION
2  Detector Channels 
16  External MUX Channels 
1  Auxiliary Channels 
5000  Waveform (CCF) Frequency (Hz)
1  Waveforms Skipped 
30  Waveforms Averaged 
1  Cycles Averaged 
16  Acquisitions per Waveform 
10.0806  Updata Rate (Hz) 

#FILE INFORMATION
TRUE -- External MUX Channel results are PARSED.
FALSE -- AC DC and Phase are NOT grouped.
TRUE -- Companion Program Settings File CREATED.
FALSE -- AC data not excluded
FALSE -- DC data not excluded
FALSE -- Phase data not excluded
FALSE -- Auxillary Chn. data not excluded
Tab delimiters

#CALIBRATION STATE
TRUE -- Waveform Calibration Values APPLIED.


#AUX CALIBRATION VALUES
Val Type	aux-1	

Term	1.0000e+00	
Factor	0.0000e+00	


#WF CALIBRATION VALUES
A = Detector Channel
Val Type	A-AC1	A-AC2	A-AC3	A-AC4	A-AC5	A-AC6	A-AC7	A-AC8	A-AC9	A-AC10	A-AC11	A-AC12	A-AC13	A-AC14	A-AC15	A-AC16	A-DC1	A-DC2	A-DC3	A-DC4	A-DC5	A-DC6	A-DC7	A-DC8	A-DC9	A-DC10	A-DC11	A-DC12	A-DC13	A-DC14	A-DC15	A-DC16	A-Ph1	A-Ph2	A-Ph3	A-Ph4	A-Ph5	A-Ph6	A-Ph7	A-Ph8	A-Ph9	A-Ph10	A-Ph11	A-Ph12	A-Ph13	A-Ph14	A-Ph15	A-Ph16	

Term	0.00000e+00	0.00000e+00	0.00000e+00	0.00000e+00	0.00000e+00	0.00000e+00	0.00000e+00	0.00000e+00	0.00000e+00	0.00000e+00	0.00000e+00	0.00000e+00	0.00000e+00	0.00000e+00	0.00000e+00	0.00000e+00	0.00000e+00	0.00000e+00	0.00000e+00	0.00000e+00	0.00000e+00	0.00000e+00	0.00000e+00	0.00000e+00	0.00000e+00	0.00000e+00	0.00000e+00	0.00000e+00	0.00000e+00	0.00000e+00	0.00000e+00	0.00000e+00	0.00000e+00	0.00000e+00	0.00000e+00	0.00000e+00	0.00000e+00	0.00000e+00	0.00000e+00	0.00000e+00	0.00000e+00	0.00000e+00	0.00000e+00	0.00000e+00	0.00000e+00	0.00000e+00	0.00000e+00	0.00000e+00	
Factor	1.00000e+00	1.00000e+00	1.00000e+00	1.00000e+00	1.00000e+00	1.00000e+00	1.00000e+00	1.00000e+00	1.00000e+00	1.00000e+00	1.00000e+00	1.00000e+00	1.00000e+00	1.00000e+00	1.00000e+00	1.00000e+00	1.00000e+00	1.00000e+00	1.00000e+00	1.00000e+00	1.00000e+00	1.00000e+00	1.00000e+00	1.00000e+00	1.00000e+00	1.00000e+00	1.00000e+00	1.00000e+00	1.00000e+00	1.00000e+00	1.00000e+00	1.00000e+00	X	X	X	X	X	X	X	X	X	X	X	X	X	X	X	X	

B = Detector Channel
Val Type	B-AC1	B-AC2	B-AC3	B-AC4	B-AC5	B-AC6	B-AC7	B-AC8	B-AC9	B-AC10	B-AC11	B-AC12	B-AC13	B-AC14	B-AC15	B-AC16	B-DC1	B-DC2	B-DC3	B-DC4	B-DC5	B-DC6	B-DC7	B-DC8	B-DC9	B-DC10	B-DC11	B-DC12	B-DC13	B-DC14	B-DC15	B-DC16	B-Ph1	B-Ph2	B-Ph3	B-Ph4	B-Ph5	B-Ph6	B-Ph7	B-Ph8	B-Ph9	B-Ph10	B-Ph11	B-Ph12	B-Ph13	B-Ph14	B-Ph15	B-Ph16	

Term	0.00000e+00	0.00000e+00	0.00000e+00	0.00000e+00	0.00000e+00	0.00000e+00	0.00000e+00	0.00000e+00	0.00000e+00	0.00000e+00	0.00000e+00	0.00000e+00	0.00000e+00	0.00000e+00	0.00000e+00	0.00000e+00	0.00000e+00	0.00000e+00	0.00000e+00	0.00000e+00	0.00000e+00	0.00000e+00	0.00000e+00	0.00000e+00	0.00000e+00	0.00000e+00	0.00000e+00	0.00000e+00	0.00000e+00	0.00000e+00	0.00000e+00	0.00000e+00	-2.04314e+02	-1.42203e+02	-1.28168e+02	-1.83188e+02	-8.07192e+01	-9.55538e+01	-1.57235e+02	-1.62015e+02	-9.38696e+01	-7.87754e+01	-1.72586e+02	-1.73078e+02	-1.80462e+02	-1.78286e+02	-1.03677e+02	-1.51187e+02	
Factor	5.12228e-05	5.56067e-05	1.88345e-05	1.95333e-01	6.11813e-07	6.20629e-07	2.43410e-01	8.63391e-02	5.78950e-07	5.10576e-07	1.23214e-01	4.08652e-02	3.29490e-02	1.20693e-02	4.99769e-07	1.77148e-02	2.19044e-07	2.19549e-07	6.10483e-08	8.04949e-02	2.40446e-09	2.40050e-09	9.18355e-02	3.25942e-02	2.40413e-09	2.39780e-09	4.31712e-02	1.43532e-02	1.21673e-02	4.38651e-03	2.40139e-09	6.00466e-03	X	X	X	X	X	X	X	X	X	X	X	X	X	X	X	X	



#DISTANCE SETTINGS
A = Detector Channel
A-1	A-2	A-3	A-4	A-5	A-6	A-7	A-8	A-9	A-10	A-11	A-12	A-13	A-14	A-15	A-16	

2.5000e+00	3.0000e+00	2.5000e+00	3.0000e+00	2.0000e+00	3.0000e+00	1.5000e+00	3.0000e+00	3.0000e+00	3.0000e+00	3.0000e+00	3.0000e+00	3.0000e+00	3.0000e+00	1.5000e+00	3.0000e+00	

B = Detector Channel
B-1	B-2	B-3	B-4	B-5	B-6	B-7	B-8	B-9	B-10	B-11	B-12	B-13	B-14	B-15	B-16	

1.0000e+01	1.0000e+01	1.0000e+01	1.4400e+00	1.0000e+01	1.0000e+01	1.5100e+00	1.9400e+00	1.0000e+01	1.0000e+01	1.9900e+00	2.4900e+00	2.4100e+00	2.9000e+00	1.0000e+01	2.9800e+00	




#DATA BEGINS
time	group	step	mark	flag	A-AC1	A-AC2	A-AC3	A-AC4	A-AC5	A-AC6	A-AC7	A-AC8	A-AC9	A-AC10	A-AC11	A-AC12	A-AC13	A-AC14	A-AC15	A-AC16	A-DC1	A-DC2	A-DC3	A-DC4	A-DC5	A-DC6	A-DC7	A-DC8	A-DC9	A-DC10	A-DC11	A-DC12	A-DC13	A-DC14	A-DC15	A-DC16	A-Ph1	A-Ph2	A-Ph3	A-Ph4	A-Ph5	A-Ph6	A-Ph7	A-Ph8	A-Ph9	A-Ph10	A-Ph11	A-Ph12	A-Ph13	A-Ph14	A-Ph15	A-Ph16	B-AC1	B-AC2	B-AC3	B-AC4	B-AC5	B-AC6	B-AC7	B-AC8	B-AC9	B-AC10	B-AC11	B-AC12	B-AC13	B-AC14	B-AC15	B-AC16	B-DC1	B-DC2	B-DC3	B-DC4	B-DC5	B-DC6	B-DC7	B-DC8	B-DC9	B-DC10	B-DC11	B-DC12	B-DC13	B-DC14	B-DC15	B-DC16	B-Ph1	B-Ph2	B-Ph3	B-Ph4	B-Ph5	B-Ph6	B-Ph7	B-Ph8	B-Ph9	B-Ph10	B-Ph11	B-Ph12	B-Ph13	B-Ph14	B-Ph15	B-Ph16	aux-1	digaux	

2875.976	1	1	0	256	0.086367	0.051687	0.10637	0.20514	0.12056	0.1476	0.1216	0.11322	0.27252	0.061313	0.27675	0.096131	0.19788	0.23142	0.28187	0.20362	-3.3063	-4.1458	-3.7958	-3.6312	-4.225	-3.5979	-3.8937	-4.0833	-3.4292	-4.0208	-3.9562	-3.6729	-4.1875	-3.7833	-3.7167	-4.1604	230.916	410.158	467.599	397.066	292.614	301.872	186.027	288.007	327.577	372.063	507.839	326.384	198.779	197.100	361.141	187.062	0.0011029	0.0001819	4.7043e-05	502.9	1.3256e-06	1.6633e-06	516.15	186.51	2.5421e-06	1.7345e-06	228.44	97.263	82.047	37.407	1.5495e-06	49.87	5.3467e-05	5.1785e-05	1.6648e-05	446.01	5.439e-07	5.8986e-07	451.22	153.85	5.4416e-07	6.0166e-07	182.15	76.591	64.834	29.354	6.5678e-07	37.554	476.678	190.573	211.886	179.295	282.368	176.700	178.107	184.773	291.699	274.488	182.798	187.255	189.827	195.692	315.649	191.653	-8191	255	
2876.072	1	1	0	0	0.14661	0.20138	0.11249	0.040806	0.20284	0.083496	0.37323	0.16566	0.11617	0.24195	0.094457	0.052549	0.011596	0.14238	0.2609	0.2212	-3.1729	-3.9167	-3.6479	-3.4646	-4.1896	-3.7646	-3.8646	-4.1354	-3.3604	-3.8979	-4.1312	-3.4917	-4.0875	-3.7833	-3.6396	-4.2271	434.031	183.062	450.858	307.934	197.656	202.485	491.826	212.733	336.863	284.388	227.547	233.084	475.202	477.302	290.559	385.441	0.0010605	0.00017423	1.5777e-05	512.18	2.4477e-06	1.9501e-06	522.63	188.79	3.1419e-06	9.8788e-07	230.74	98.904	83.41	38.052	1.9912e-06	50.284	5.3266e-05	5.6919e-05	1.6446e-05	453.4	5.4087e-07	6.386e-07	455.51	155.17	5.5103e-07	6.3907e-07	182.94	77.134	65.594	29.846	6.1544e-07	37.798	473.700	174.089	238.801	179.273	238.947	228.103	178.166	184.970	266.398	466.354	182.888	187.060	189.790	195.603	297.744	191.581	-8191	255	
2876.193	1	1	0	0	0.1532	0.20857	0.07396	0.41867	0.33319	0.31215	0.17781	0.05988	0.10176	0.24217	0.16398	0.21183	0.14583	0.10163	0.12435	0.16897	-3.1354	-3.8542	-4.0938	-3.6146	-4.0979	-3.7542	-3.5542	-4.1167	-3.6125	-3.9188	-4.0604	-3.4333	-4.0104	-3.95	-3.5521	-4.3	436.611	517.467	480.930	475.868	444.113	409.890	414.751	500.922	195.087	253.752	300.410	447.033	220.857	526.563	309.336	429.272	0.0010501	0.00020834	7.3805e-05	506.55	1.3078e-06	2.3199e-06	522.36	187.52	1.6119e-06	6.9914e-07	229.13	98.537	82.234	37.597	4.7733e-07	50.216	5.3643e-05	5.919e-05	1.5259e-05	449.26	5.507e-07	6.4889e-07	452.16	153.94	5.5896e-07	6.4349e-07	181.79	76.777	65.086	29.576	5.8665e-07	37.637	476.656	241.483	238.947	179.549	243.305	228.707	177.842	184.960	239.939	372.261	183.377	187.206	189.649	195.727	347.927	191.407	-8191	255	
2876.264	1	1	0	0	0.075213	0.16883	0.078008	0.18044	0.065095	0.11915	0.08186	0.20246	0.1914	0.063999	0.19728	0.256	0.079082	0.21369	0.4173	0.097927	-3.3917	-3.7687	-3.9146	-3.5167	-4.125	-3.8417	-3.5687	-4.2458	-3.5479	-3.9083	-4.15	-3.4542	-4.0042	-3.7687	-3.5271	-4.1792	403.324	313.552	418.686	387.717	401.721	189.101	449.008	481.987	409.973	457.585	276.964	390.165	339.756	440.153	439.362	171.722	0.001136	0.000119	3.6526e-05	509.54	1.2781e-06	1.9077e-06	520.33	187.24	2.2473e-06	1.9121e-06	231.02	97.943	81.837	37.444	3.7576e-07	50.333	5.5991e-05	5.8211e-05	1.4682e-05	447.52	5.8767e-07	6.3575e-07	451.22	152.72	6.0453e-07	6.2329e-07	181	76.212	64.869	29.416	5.6311e-07	37.728	473.756	234.222	276.369	179.570	281.748	305.245	178.070	185.420	302.774	340.862	182.902	187.445	189.585	195.856	240.908	191.423	-8191	255	
2876.360	1	1	0	0	0.088069	0.062322	0.035186	0.38484	0.14005	0.16692	0.1849	0.27365	0.037512	0.0763	0.16332	0.14389	0.2169	0.17679	0.036913	0.11922	-3.1562	-3.7812	-4.1438	-3.4437	-3.9104	-3.9854	-3.5521	-4.0687	-3.6021	-3.6292	-4.1979	-3.4146	-3.8688	-3.9104	-3.4271	-4.1667	210.492	411.838	493.710	486.226	448.718	413.282	388.339	526.085	309.771	414.555	209.552	270.175	229.180	510.176	262.070	407.142	0.0010932	0.00018103	9.9715e-05	503.99	1.9982e-06	1.9664e-06	520.64	186.65	1.1687e-06	2.6131e-06	230.83	98.188	82.424	37.474	1.3502e-06	50.384	5.9609e-05	5.6554e-05	1.4065e-05	445.81	6.2892e-07	6.1197e-07	450.67	153.21	6.378e-07	6.038e-07	181.58	76.576	65.467	29.456	5.485e-07	37.856	483.290	283.477	272.094	179.205	277.704	387.024	177.972	184.913	217.862	284.200	183.467	187.397	189.730	195.562	310.351	191.561	-8191	255	
2876.481	1	1	0	0	0.12046	0.11994	0.12782	0.1628	0.17633	0.24111	0.16985	0.13211	0.23271	0.3459	0.16149	0.084585	0.24012	0.14922	0.14893	0.17262	-3.3792	-3.5896	-4.25	-3.5979	-3.9521	-4.0083	-3.6042	-4.3417	-3.9458	-3.6167	-4.1625	-3.4938	-3.8083	-4.05	-3.4521	-4.2896	515.475	193.801	309.400	322.896	478.101	195.157	357.001	428.274	391.927	348.762	417.255	194.690	482.525	410.513	369.574	310.074	0.0010715	0.00021078	2.8873e-05	518.73	1.7146e-06	1.933e-06	528.25	189.91	1.7338e-06	1.0334e-06	234.22	99.228	83.717	38.345	1.5358e-06	50.757	6.2067e-05	5.4054e-05	1.384e-05	458.34	6.5047e-07	5.8592e-07	457.1	156.2	6.5512e-07	5.7656e-07	183.49	77.765	66.575	30.006	5.2582e-07	38.27	474.059	340.538	287.345	179.409	276.780	284.268	177.768	184.935	310.620	366.226	183.166	187.208	189.868	195.692	230.808	191.778	-8191	255	
2876.577	1	1	0	0	0.18237	0.052285	0.16684	0.20687	0.039177	0.098907	0.20777	0.084845	0.1635	0.061468	0.19585	0.23281	0.17535	0.021279	0.075204	0.13873	-3.4542	-3.4271	-4.1417	-3.5938	-3.8521	-4.2896	-3.6021	-4.1687	-4.0604	-3.5438	-4.2812	-3.7396	-3.8	-4.35	-3.6	-4.0563	275.142	325.739	442.404	196.701	347.497	462.616	484.613	382.613	438.131	392.079	476.906	408.300	516.800	513.539	219.215	469.618	0.0011828	9.6186e-05	2.8863e-05	508.38	6.198e-07	5.7879e-07	521.53	189.43	1.446e-06	1.084e-06	230.38	98.819	82.883	37.588	9.0207e-07	49.973	6.0853e-05	5.1769e-05	1.3089e-05	451.75	6.2061e-07	5.588e-07	450.43	155.71	6.2249e-07	5.5549e-07	180.67	77.367	65.621	29.484	5.263e-07	37.817	484.431	297.533	349.707	179.499	432.016	323.167	178.066	185.324	304.719	283.454	183.033	187.072	189.801	195.705	268.194	191.675	-8191	255	
2876.673	1	1	0	0	0.31719	0.12392	0.085153	0.083486	0.16552	0.11115	0.138	0.1376	0.13518	0.13872	0.28206	0.09164	0.077913	0.14389	0.20457	0.23583	-3.7125	-3.5563	-4.1687	-3.6688	-3.65	-4.2521	-3.6271	-3.9104	-4.0625	-3.4167	-4.3042	-3.8521	-3.7292	-4.1771	-3.6875	-4.0917	445.946	266.574	470.221	435.066	487.299	463.095	414.639	456.471	173.603	279.368	519.414	298.593	353.651	351.752	481.868	395.329	0.00097093	0.00014856	3.1066e-05	502.57	2.1457e-06	8.0324e-07	512.03	185.88	1.7271e-06	1.877e-06	226.62	97.377	81.689	37.404	1.1359e-06	49.522	5.8809e-05	5.0772e-05	1.3385e-05	445.96	5.9468e-07	5.388e-07	444.95	153.65	5.8727e-07	5.245e-07	179.38	76.707	64.751	29.251	5.4579e-07	37.633	482.089	235.969	195.308	179.159	357.015	309.630	177.914	185.123	356.150	324.023	182.921	187.034	189.852	195.624	210.450	191.719	-8191	255	
2876.792	1	1	0	0	0.075099	0.09179	0.19757	0.30514	0.069388	0.029467	0.095967	0.25523	0.12763	0.099849	0.17653	0.097068	0.12879	0.065151	0.12944	0.10585	-3.6292	-3.5417	-3.9167	-3.8646	-3.5938	-4.2354	-3.7667	-4.0042	-4.0437	-3.4104	-4.1479	-3.8479	-3.6646	-4.2771	-3.7042	-3.9521	340.023	427.557	320.162	521.246	304.177	430.376	424.621	371.413	178.779	373.014	509.685	238.091	492.958	201.319	525.589	427.181	0.0011539	0.00023517	3.6561e-05	497.6	3.0843e-06	1.9779e-06	511.95	184.9	1.9439e-06	9.5679e-07	226.81	96.416	81.094	36.865	1.3173e-06	49.378	5.5089e-05	4.7602e-05	1.393e-05	442.89	5.642e-07	5.1559e-07	444.08	152.45	5.6755e-07	5.1903e-07	179.14	75.975	64.195	28.914	5.9689e-07	37.276	479.630	260.086	218.942	179.573	286.318	311.936	177.577	185.057	301.043	292.313	182.973	187.373	189.598	195.484	230.552	191.698	-8191	255	
2876.866	1	1	0	0	0.11529	0.12964	0.071968	0.1941	0.10795	0.13189	0.05785	0.22523	0.033504	0.21613	0.17461	0.066942	0.24258	0.10435	0.1448	0.2684	-3.6375	-3.4354	-3.9604	-4.0396	-3.3875	-4.2604	-3.6542	-3.8312	-4.1833	-3.5771	-4.1479	-3.9542	-3.5833	-4.35	-3.6667	-3.7875	305.628	380.005	260.125	481.663	177.459	451.916	430.007	419.567	303.219	398.529	454.482	451.788	485.284	195.894	275.112	443.146	0.0010683	0.00017641	5.5874e-05	504.42	1.4665e-06	5.0228e-07	519.29	187.92	1.5374e-06	9.6672e-07	229.36	98.161	83.227	37.933	9.3514e-07	50.208	5.4742e-05	4.7998e-05	1.5287e-05	449.35	5.5985e-07	5.1497e-07	452.23	154.57	5.5185e-07	5.149e-07	182.07	77.005	65.65	29.663	6.2353e-07	37.935	480.994	292.586	167.889	179.370	275.407	334.580	177.833	185.103	280.449	310.207	183.230	187.100	189.654	195.820	243.677	191.679	-8191	255	
2876.960	1	1	0	0	0.15719	0.066253	0.15016	0.30678	0.18617	0.095345	0.23593	0.13574	0.13995	0.23745	0.23466	0.13207	0.11857	0.21343	0.26569	0.042562	-3.8417	-3.5979	-4.1479	-4.0667	-3.4917	-4.3313	-3.7375	-3.6458	-4.1687	-3.5938	-3.9792	-4.0188	-3.4271	-4.1708	-3.775	-3.7979	203.864	382.732	441.715	275.856	395.131	393.174	380.634	466.604	522.283	470.684	311.677	423.590	177.099	458.480	211.822	442.906	0.001137	2.7548e-05	3.9672e-05	502.36	4.4385e-07	2.2527e-06	515.18	186.95	2.004e-06	1.7979e-06	228.76	97.298	81.829	37.408	1.2706e-06	50.091	5.2418e-05	4.8057e-05	1.5716e-05	445.21	5.3227e-07	5.2886e-07	449.94	153.52	5.2608e-07	5.3756e-07	181.71	76.105	64.51	29.396	6.3044e-07	37.591	483.214	398.392	238.608	179.312	365.539	267.341	177.835	184.884	257.626	221.116	183.194	187.314	189.893	195.618	233.385	191.377	-8191	255	
2877.056	1	1	0	0	0.096535	0.23951	0.078605	0.11918	0.1822	0.27703	0.22382	0.17254	0.1153	0.073522	0.29255	0.35884	0.28329	0.10666	0.16909	0.22742	-4.0146	-3.6104	-3.8646	-4.2188	-3.425	-4.0437	-3.7875	-3.675	-4.1583	-3.8125	-3.9354	-3.9646	-3.5062	-3.8292	-3.8458	-3.6813	233.828	301.065	312.276	189.520	175.278	391.448	489.424	423.555	407.414	196.060	514.401	447.070	216.272	501.169	445.221	169.289	0.00099988	0.0001687	5.2897e-05	504.89	2.0772e-06	1.5909e-06	516.69	185.72	4.428e-07	1.3333e-06	230.37	97.448	82.265	37.594	1.2523e-06	50.067	4.99e-05	5.1101e-05	1.5633e-05	444.22	5.0957e-07	5.6444e-07	450.29	152.61	5.1098e-07	5.8579e-07	181.64	76.131	64.626	29.512	6.0627e-07	37.674	477.367	230.805	500.462	179.533	367.028	209.370	177.821	184.747	329.073	268.170	183.175	187.182	189.858	195.822	345.098	191.499	-8191	255	
2877.175	1	1	0	0	0.25559	0.12771	0.10887	0.021902	0.099696	0.24748	0.17631	0.11277	0.13314	0.11138	0.30662	0.27588	0.072581	0.10232	0.19993	0.079566	-3.6875	-3.5542	-3.7	-4.0833	-3.6958	-4.0771	-4.0188	-3.6437	-4.1896	-3.5812	-3.6937	-4.2167	-3.5958	-3.8875	-4.1333	-3.5333	411.528	262.307	201.104	239.056	459.969	420.540	490.131	175.966	451.677	200.572	413.999	407.409	301.139	201.882	177.256	385.650	0.0011711	6.3377e-05	8.5493e-05	503.52	1.5977e-06	1.7562e-06	515.79	187.96	1.8491e-06	1.1784e-06	229.89	97.827	82.002	37.613	2.0052e-06	50.036	4.9857e-05	5.496e-05	1.511e-05	443.66	5.1643e-07	6.0371e-07	449.22	153.46	5.2025e-07	6.1689e-07	181.26	76.241	64.939	29.605	5.9137e-07	37.567	480.652	196.500	275.138	179.170	238.270	317.988	178.118	185.062	304.968	336.651	183.100	187.353	189.681	195.462	274.508	191.649	-8191	255	
2877.271	1	1	0	0	0.069909	0.22201	0.072494	0.20679	0.090633	0.16513	0.15766	0.1616	0.35997	0.15102	0.091574	0.16043	0.14895	0.22915	0.11869	0.17329	-3.5563	-3.7	-3.6813	-4.2	-3.55	-3.9417	-4.0646	-3.5979	-4.15	-3.8896	-3.7313	-4.325	-3.7292	-4.0208	-4.125	-3.4979	501.765	408.797	221.772	488.927	426.102	270.642	367.365	379.816	205.396	407.221	243.156	458.141	440.358	200.375	465.681	477.075	0.0011969	0.00014201	3.5506e-05	508.05	1.6348e-06	2.0237e-06	523.78	189.9	2.1478e-06	1.2624e-06	232.36	99.257	83.885	38.427	2.7938e-07	50.563	5.2449e-05	5.7862e-05	1.4687e-05	448.21	5.4856e-07	6.2548e-07	454.12	155.39	5.5255e-07	6.2777e-07	183.69	77.504	66.497	30.214	5.5295e-07	38.022	479.091	520.355	281.032	179.281	225.125	255.787	178.116	184.981	285.330	308.590	182.983	187.043	189.760	195.717	212.985	191.616	-8191	255	
2877.367	1	1	0	0	0.17367	0.1985	0.12374	0.36977	0.14071	0.35917	0.16666	0.0021656	0.055273	0.14717	0.037827	0.15627	0.10266	0.19623	0.15521	0.21516	-3.9125	-3.9	-3.5208	-4.2875	-3.6917	-3.9479	-4.1687	-3.4208	-4.0229	-3.8292	-3.6417	-4.2792	-3.7417	-3.8646	-4.1188	-3.6646	331.180	206.141	360.663	466.432	502.128	445.814	251.486	180.000	230.950	183.405	364.715	369.244	201.804	241.158	304.714	522.899	0.0014082	0.00016393	3.5852e-05	504.65	1.5799e-06	1.6817e-06	521.42	187.56	1.8447e-06	4.1041e-07	229.82	97.772	82.644	37.671	9.3478e-07	49.78	5.5605e-05	5.649e-05	1.4074e-05	445.69	5.9249e-07	6.147e-07	449.95	153.65	5.9682e-07	6.0484e-07	181.25	76.287	65.496	29.551	5.4615e-07	37.47	470.347	270.754	268.248	179.513	279.943	314.787	178.057	185.017	230.834	467.770	182.743	187.132	189.704	196.031	258.695	191.568	-8191	255	
2877.465	1	1	0	0	0.35935	0.05792	0.26564	0.080397	0.23208	0.043354	0.22183	0.059436	0.07355	0.070732	0.20815	0.26421	0.1509	0.12882	0.31673	0.082847	-3.7188	-3.7729	-3.5187	-4.225	-3.9542	-3.9458	-4.2104	-3.5646	-3.9208	-3.9479	-3.6583	-4.2417	-3.8438	-3.675	-4.1771	-3.4417	250.869	378.958	504.020	364.899	188.970	326.002	365.099	419.127	256.181	369.006	213.341	200.642	272.256	189.393	358.210	473.100	0.001039	0.0001017	6.9882e-05	501.32	7.2968e-07	1.5515e-06	515.84	186.65	1.1322e-06	1.967e-06	229.71	97.83	82.092	37.469	1.6682e-06	50.048	5.9341e-05	5.4304e-05	1.3705e-05	441.53	6.1843e-07	5.8369e-07	446.78	152.92	6.1891e-07	5.7754e-07	180.66	76.454	65.328	29.482	5.2947e-07	37.529	479.443	183.094	208.044	179.182	242.604	250.353	177.798	184.960	217.382	261.269	183.158	187.014	189.612	195.686	341.162	191.655	-8191	255	
2877.560	1	1	0	0	0.14345	0.049494	0.14878	0.10027	0.064334	0.11153	0.095083	0.2111	0.24256	0.13732	0.093545	0.10527	0.19865	0.093334	0.048586	0.2013	-3.5271	-4.0229	-3.4979	-4.1562	-3.8021	-3.725	-4.3208	-3.5104	-3.7354	-4.1167	-3.6667	-4.2042	-3.8271	-3.6312	-4.0917	-3.6229	217.599	415.451	314.321	261.237	353.866	388.300	333.323	169.648	279.487	302.002	314.348	337.652	218.895	485.546	309.100	463.351	0.0011232	0.00020513	5.9525e-05	503.17	6.8519e-07	2.2367e-06	514.45	185.7	1.2322e-06	2.2462e-06	228.32	96.878	81.893	37.371	1.4157e-06	49.451	6.0403e-05	5.1516e-05	1.3226e-05	442.66	6.2517e-07	5.6393e-07	445.19	152.41	6.2061e-07	5.5779e-07	179.16	76.021	65.026	29.306	5.1706e-07	37.351	484.581	265.756	273.190	179.519	409.577	314.571	178.110	185.188	335.904	308.892	182.805	187.301	189.824	195.456	329.550	191.442	-8191	255	
2877.656	1	1	0	0	0.13436	0.095744	0.10369	0.22427	0.14415	0.019211	0.084557	0.11745	0.047044	0.10293	0.18101	0.1648	0.17439	0.17554	0.08204	0.074791	-3.425	-4.0771	-3.3896	-3.9625	-3.8625	-3.5875	-4.2625	-3.7625	-3.7875	-4.1521	-3.4417	-4.0708	-3.9875	-3.4458	-4.2937	-3.8646	200.299	478.418	274.602	426.030	186.981	338.352	371.944	359.667	366.341	264.965	406.078	264.764	500.733	507.803	512.090	345.056	0.0010995	0.00015425	2.0375e-05	507.51	1.1192e-06	1.424e-06	517.67	188.82	1.228e-06	9.5311e-07	230.98	98.394	83.603	38.177	1.4242e-06	49.851	5.9359e-05	5.0794e-05	1.3243e-05	448.84	6.1175e-07	5.4598e-07	447.26	155.18	6.0002e-07	5.3846e-07	181.33	77.252	66.28	29.859	5.2128e-07	37.872	482.803	272.925	268.441	179.333	447.291	262.611	178.351	184.997	270.491	287.037	183.001	187.170	190.109	195.297	184.196	191.647	-8191	255	
2877.752	1	1	0	0	0.41993	0.15639	0.13508	0.16747	0.05092	0.15252	0.068273	0.24745	0.24525	0.13609	0.19017	0.18657	0.1961	0.13748	0.1678	0.19232	-3.2188	-4.2063	-3.4437	-3.9417	-4.0042	-3.575	-4.0896	-3.8479	-3.675	-4.2583	-3.6562	-3.8917	-4.0917	-3.6479	-4.0604	-3.7021	419.556	384.098	348.106	306.265	171.037	254.556	221.306	413.218	421.645	297.284	195.637	390.927	279.054	456.382	312.018	317.052	0.00097366	0.00011878	8.3516e-05	504.81	2.1679e-06	1.9056e-06	512.12	186.64	1.3061e-06	6.4997e-07	229.26	97.479	82.487	37.433	1.627e-06	49.581	5.6136e-05	4.8779e-05	1.3528e-05	447.71	5.8419e-07	5.3387e-07	445.05	154.59	5.7116e-07	5.1897e-07	180.19	76.606	65.049	29.282	5.5569e-07	37.408	474.177	244.489	186.139	179.452	326.417	358.976	178.048	185.298	317.374	391.392	182.919	187.033	189.650	195.493	226.189	191.685	-8191	255	
2877.873	1	1	0	0	0.012555	0.13387	0.047321	0.12399	0.12237	0.165	0.1517	0.053367	0.08131	0.24944	0.13039	0.097206	0.17532	0.22885	0.32347	0.062581	-3.4792	-4.1917	-3.5438	-3.8479	-4.1708	-3.6125	-4.125	-3.8333	-3.5042	-4.2875	-3.7229	-3.8625	-4.1833	-3.4229	-3.9708	-3.8375	313.513	325.816	280.792	167.173	389.312	249.313	364.895	444.433	256.083	378.152	328.038	451.931	367.683	172.815	284.413	277.513	0.0010864	0.00015764	5.5279e-05	500.09	6.4619e-07	3.4208e-07	516.09	186.22	2.4021e-06	8.2144e-07	229.85	98.073	82.618	37.628	1.604e-06	50.214	5.4924e-05	4.6676e-05	1.4376e-05	445.35	5.6219e-07	5.1704e-07	447.93	153.7	5.4901e-07	5.0347e-07	181.43	76.909	65.196	29.426	5.9211e-07	37.738	481.421	201.238	516.553	179.324	365.442	262.725	178.199	184.902	302.195	230.881	182.709	187.220	189.869	195.730	283.799	191.599	-8191	255	
2877.969	1	1	0	0	0.072897	0.1316	0.11882	0.077712	0.20708	0.090001	0.099795	0.11509	0.13903	0.24505	0.12929	0.19883	0.26012	0.15854	0.13989	0.19139	-3.2979	-4.2521	-3.6479	-3.8521	-4.2271	-3.5229	-4.1292	-3.8271	-3.7	-4.1583	-3.7229	-3.6729	-4.2646	-3.6646	-3.9104	-3.9604	337.895	296.983	401.601	369.524	424.673	299.405	521.228	358.347	302.614	419.510	488.448	469.115	466.143	180.449	476.097	390.247	0.0011714	9.7687e-05	4.3927e-05	502.47	1.5322e-06	2.3664e-06	520.15	188.15	1.0896e-06	2.3373e-06	232.23	98.335	83.542	38.198	4.1591e-07	50.142	5.22e-05	4.6299e-05	1.5163e-05	446.68	5.456e-07	5.1324e-07	453.65	155.11	5.4397e-07	5.2047e-07	184.08	77.177	65.962	29.769	6.3433e-07	37.815	478.505	199.943	242.176	179.325	361.750	249.860	177.837	185.064	280.700	297.932	183.003	186.999	189.736	195.506	524.100	191.407	-8191	255	
2878.065	1	1	0	0	0.24989	0.18805	0.13727	0.03617	0.20979	0.074302	0.12887	0.2832	0.10761	0.12484	0.21572	0.19768	0.30498	0.27815	0.082211	0.063537	-3.1604	-3.9979	-3.9208	-3.8979	-4.1292	-3.725	-3.8333	-4.2083	-3.3229	-4.1104	-3.8958	-3.8792	-4.25	-3.5771	-3.8104	-4.275	405.791	270.994	398.245	408.667	399.293	224.425	296.463	429.028	194.458	229.515	398.813	388.973	495.425	376.021	426.264	167.961	0.0010497	0.00027967	8.0455e-06	511.77	2.0083e-06	5.9324e-07	522.83	190.38	1.1196e-06	6.2524e-07	231.6	99.372	84.474	38.434	3.7389e-07	50.31	5.1912e-05	4.9114e-05	1.6196e-05	453.5	5.3417e-07	5.4948e-07	455.87	156.41	5.2359e-07	5.5646e-07	184.66	77.728	66.475	30.092	6.2417e-07	37.828	474.794	207.425	507.158	179.407	248.221	272.358	178.253	185.122	381.401	315.013	182.797	187.056	189.635	195.540	449.209	191.694	-8191	255	
2878.161	1	1	0	0	0.16088	0.12293	0.07897	0.10334	0.17588	0.11218	0.071726	0.035533	0.050489	0.031585	0.083144	0.26036	0.23529	0.14884	0.17869	0.14748	-3.2042	-4.1333	-3.9396	-3.6042	-4.2479	-3.6729	-3.8979	-4.1896	-3.5542	-3.9313	-3.9146	-3.6354	-4.0771	-3.8271	-3.7646	-4.3542	431.961	196.950	508.233	488.678	339.406	336.713	301.233	415.504	289.361	425.359	333.191	335.465	498.093	476.396	436.977	472.798	0.0011322	0.00020999	7.7561e-05	506.73	2.1105e-06	1.9019e-06	518.55	188.51	2.458e-06	1.5559e-06	229.53	97.995	82.666	37.801	1.394e-06	49.53	5.0335e-05	5.2896e-05	1.5804e-05	447.58	5.142e-07	5.9166e-07	451.7	154.32	5.1502e-07	5.9884e-07	182.28	76.452	65.073	29.649	5.945e-07	37.446	474.686	263.633	295.908	179.625	393.825	199.530	178.264	185.037	236.752	324.470	183.041	187.138	189.649	195.540	271.922	191.676	-8191	255	
2878.256	1	1	0	0	0.23097	0.18507	0.13528	0.15542	0.092861	0.17224	0.18706	0.23522	0.16397	0.19135	0.17562	0.16712	0.14578	0.13669	0.094127	0.16062	-3.1771	-3.9062	-3.9813	-3.3917	-3.9979	-3.7396	-3.7229	-4.2333	-3.4354	-3.9625	-4.1188	-3.6208	-4.2271	-3.8312	-3.6792	-4.1229	406.605	435.480	399.333	502.997	334.451	192.986	346.079	473.927	476.761	419.218	407.231	278.540	475.350	455.798	287.545	346.691	0.0010736	1.7594e-05	6.6266e-05	499.69	8.4069e-07	1.8971e-07	515.88	186.53	2.4897e-06	1.422e-06	228.67	97.563	82.612	37.715	4.7863e-07	49.762	4.9761e-05	5.5529e-05	1.4903e-05	443.05	5.1918e-07	6.1892e-07	449.23	152.88	5.3008e-07	6.2551e-07	181.18	76.241	65.089	29.659	5.7355e-07	37.327	481.562	220.255	278.630	179.442	350.860	223.290	177.778	184.979	216.262	266.139	182.968	187.112	189.714	195.598	273.346	191.370	-8191	255	
2878.352	1	1	0	0	0.16364	0.1245	0.15835	0.15455	0.094519	0.090936	0.18389	0.25589	0.049317	0.16722	0.1784	0.162	0.048333	0.10349	0.10957	0.18519	-3.2604	-3.9021	-3.975	-3.5521	-4.1792	-3.9333	-3.6896	-4.2458	-3.5312	-3.9104	-4.2229	-3.5208	-4.0167	-3.9125	-3.5917	-4.2458	325.777	273.544	174.609	219.752	487.954	372.899	229.844	491.891	177.209	341.172	460.661	453.770	255.735	401.105	208.467	497.674	0.0011491	6.7134e-05	7.1016e-05	500.76	2.5978e-06	1.0891e-06	512.5	185.27	6.5698e-07	1.252e-06	226.97	97.009	81.663	37.208	4.9549e-07	48.975	5.3599e-05	5.7269e-05	1.4546e-05	441.56	5.6551e-07	6.3008e-07	445.54	151.57	5.6957e-07	6.2259e-07	179.32	75.505	64.927	29.338	5.6036e-07	36.953	483.480	181.593	259.449	179.047	227.612	292.639	177.923	185.016	499.922	286.972	182.717	187.106	189.848	195.707	252.933	191.703	-8191	255	
2878.472	1	1	0	0	0.15512	0.23308	0.088705	0.3309	0.037257	0.23628	0.11852	0.11767	0.2562	0.14054	0.25915	0.023499	0.036177	0.19797	0.17953	0.083691	-3.1271	-3.8583	-4.0771	-3.4771	-4.1125	-3.9542	-3.6292	-4.2333	-3.5458	-3.6708	-4.2312	-3.5125	-3.9396	-3.9708	-3.5042	-4.0042	481.976	404.924	199.391	265.745	244.067	370.996	501.993	421.883	247.773	263.204	278.655	371.512	346.329	495.560	341.092	418.667	0.0010767	0.0001065	1.663e-05	502.86	1.069e-06	2.15e-06	512.67	187.76	3.2555e-06	9.8918e-07	231.02	97.759	83.565	38.038	1.5241e-06	49.811	5.7466e-05	5.6239e-05	1.4145e-05	444.09	6.0536e-07	6.0904e-07	444.69	153.82	6.1166e-07	5.9713e-07	180.85	76.432	66.175	29.755	5.3853e-07	37.275	485.959	223.005	251.247	179.279	254.968	267.824	177.938	184.857	208.488	287.611	182.834	187.088	189.536	195.672	308.114	191.739	-8191	255	
2878.568	1	1	0	0	0.087109	0.20038	0.081242	0.05428	0.14693	0.070672	0.12046	0.17085	0.12259	0.21331	0.067296	0.14902	0.25755	0.21283	0.27791	0.15638	-3.4062	-3.525	-4.0375	-3.5979	-3.8458	-4.125	-3.3979	-4.15	-3.8479	-3.4708	-4.1	-3.4604	-3.7854	-4.1	-3.4813	-4.1271	178.197	346.803	187.928	510.169	336.975	285.570	194.437	245.735	200.894	313.653	182.664	170.704	324.885	187.648	466.447	462.247	0.0011094	0.00011487	6.1961e-05	501.03	1.4579e-06	7.8577e-07	511.3	186.07	1.7375e-06	1.5691e-06	227.76	96.519	81.346	37.03	7.2692e-07	48.92	6.0114e-05	5.3285e-05	1.3608e-05	442.29	6.3017e-07	5.7829e-07	441.96	152.25	6.3225e-07	5.7485e-07	178.43	75.418	64.796	29.03	5.1813e-07	36.86	478.278	310.148	248.663	179.512	314.152	309.499	177.946	185.000	305.131	329.172	182.707	187.042	189.791	195.523	274.394	191.412	-8191	255	
2878.665	1	1	0	0	0.2253	0.32741	0.29795	0.21273	0.067685	0.072343	0.15766	0.043969	0.18192	0.20539	0.10265	0.085224	0.28376	0.12011	0.31564	0.12312	-3.4646	-3.4417	-4.2396	-3.5	-3.6833	-4.0667	-3.4292	-4.1229	-3.6833	-3.5229	-4.075	-3.5812	-3.6917	-4.0875	-3.4708	-4.0833	175.364	469.555	207.005	488.736	283.154	327.405	169.289	431.948	171.217	502.013	437.078	240.701	212.275	381.533	196.498	422.504	0.0010544	4.274e-05	9.377e-05	500.35	4.2074e-07	2.5846e-06	511	185.17	1.5105e-06	5.5576e-07	228.45	97.42	82.022	37.396	2.0359e-06	49.365	6.0627e-05	5.1521e-05	1.3164e-05	442.68	6.218e-07	5.5424e-07	441.34	152.14	6.2142e-07	5.491e-07	178.79	76.202	65.14	29.234	5.07e-07	37.288	480.006	494.647	289.493	179.645	283.374	358.026	177.880	185.265	275.936	347.267	182.970	186.740	189.735	195.539	236.542	191.339	-8191	255	
2878.761	1	1	0	0	0.2971	0.17571	0.12909	0.055182	0.082551	0.17387	0.31563	0.15685	0.10156	0.11092	0.063192	0.1752	0.018679	0.13321	0.063295	0.16052	-3.6667	-3.4917	-4.2125	-3.8187	-3.7479	-4.1146	-3.5	-3.95	-4.0146	-3.3438	-4.15	-3.6312	-3.6396	-4.2375	-3.3812	-3.9958	196.660	488.399	443.658	335.951	379.548	338.831	421.505	478.787	290.957	225.749	514.818	515.605	174.701	440.039	401.893	480.219	0.0010493	0.00016696	5.0091e-05	504.47	1.4068e-06	7.9733e-07	516.93	187.95	3.6487e-07	1.2554e-06	230.09	98.058	83.768	37.866	1.8167e-06	49.967	5.8175e-05	4.9585e-05	1.3162e-05	446.33	5.9567e-07	5.4039e-07	445.5	154.78	6.0057e-07	5.3132e-07	180.95	77.088	66.138	29.648	5.2994e-07	37.755	479.896	307.159	244.044	179.310	333.481	415.934	177.822	185.081	313.209	297.360	182.751	187.377	189.646	195.759	237.284	191.659	-8191	255	
2878.832	1	1	0	0	0.2343	0.16067	0.22349	0.21306	0.12007	0.20933	0.28078	0.087793	0.17518	0.061547	0.16926	0.06987	0.15189	0.39412	0.30406	0.11583	-3.5563	-3.4667	-4.1687	-3.7167	-3.5	-4.2271	-3.7229	-3.8875	-3.8917	-3.5833	-3.9146	-3.7583	-3.6479	-4.2937	-3.6021	-3.9896	231.685	314.015	176.741	464.832	285.202	471.803	418.599	273.101	354.843	394.466	440.837	456.506	505.585	505.515	414.414	441.887	0.0010308	0.00028014	3.6945e-05	506.39	1.6502e-06	1.1211e-06	517.97	190.83	1.2254e-06	2.233e-06	233.77	99.996	84.571	38.489	1.3048e-06	50.313	5.6146e-05	4.8046e-05	1.368e-05	450.74	5.6562e-07	5.1587e-07	447.96	157.53	5.5887e-07	5.0421e-07	183.59	78.29	66.827	30.049	5.5777e-07	38.026	475.528	285.773	186.627	179.191	274.738	344.458	177.997	184.878	300.127	329.117	182.773	187.239	189.659	195.706	227.647	191.282	-8191	255	
2878.953	1	1	0	0	0.08026	0.10522	0.057347	0.099955	0.23836	0.030444	0.18109	0.062117	0.21065	0.026848	0.33309	0.20569	0.20451	0.17559	0.09583	0.23453	-3.7833	-3.4583	-3.9792	-4.0333	-3.3646	-4.3271	-3.575	-3.7875	-4.2167	-3.4479	-4.0521	-3.9896	-3.4979	-4.1333	-3.525	-3.6125	284.338	178.333	428.302	433.466	250.557	365.213	413.334	489.402	465.027	221.789	438.926	267.036	461.691	220.806	251.957	253.385	0.0010365	6.3218e-05	3.5816e-05	504.54	1.0648e-06	3.0019e-07	514.62	189.48	2.7194e-06	7.463e-07	233.17	98.339	83.93	37.979	1.1308e-06	50.032	5.2602e-05	4.5297e-05	1.4325e-05	447.27	5.3781e-07	4.9285e-07	447.29	155.63	5.3138e-07	4.8739e-07	182.58	77.365	65.835	29.628	5.875e-07	37.745	476.181	177.213	313.897	179.397	369.184	326.390	177.908	184.827	280.543	319.454	182.676	187.228	189.677	195.829	203.652	191.685	-8191	255	
2879.049	1	1	0	0	0.14746	0.20757	0.096674	0.13095	0.13697	0.16432	0.039486	0.17826	0.24577	0.13778	0.052514	0.27067	0.063231	0.11458	0.082276	0.15474	-3.7	-3.5167	-3.8937	-4.0437	-3.4896	-4.2208	-3.7833	-3.6625	-4.275	-3.4146	-3.9271	-4.0625	-3.4396	-4.0021	-3.6229	-3.8083	283.411	211.455	277.295	526.818	296.900	512.370	494.809	495.741	210.363	355.755	316.554	446.457	403.152	422.310	346.849	264.582	0.0010775	0.00013522	3.1195e-05	499.3	2.2636e-06	1.9304e-06	512.63	188.23	5.1629e-07	1.472e-06	231.07	98.979	83.332	37.609	1.0898e-06	49.687	5.0705e-05	4.5766e-05	1.5024e-05	443.87	5.2467e-07	4.9772e-07	446.89	154.69	5.0969e-07	5.1182e-07	182.37	77.044	65.288	29.419	6.0391e-07	37.399	480.025	231.607	307.878	179.434	332.907	274.790	177.870	185.014	288.522	211.608	182.731	187.092	189.538	195.697	261.492	191.434	-8191	255	
2879.145	1	1	0	0	0.078771	0.073658	0.17569	0.052512	0.16886	0.10982	0.29039	0.1551	0.10911	0.046195	0.074048	0.25495	0.18739	0.15239	0.19003	0.16139	-3.9083	-3.4875	-3.9229	-4.0271	-3.5146	-4.2125	-3.8167	-3.6083	-4.2042	-3.6917	-3.7542	-4.0458	-3.4875	-3.9542	-4.0417	-3.7333	174.733	473.397	401.441	408.451	196.539	453.268	457.320	234.263	400.543	231.267	305.555	453.805	381.613	471.376	189.188	324.458	0.0009547	0.00027865	5.2445e-05	503.1	2.6434e-06	6.1008e-07	514.17	186.8	2.3334e-06	1.4275e-06	228.51	98.146	82.689	37.712	4.1619e-07	49.809	4.9165e-05	4.8568e-05	1.5375e-05	442.72	5.0745e-07	5.4013e-07	447.47	152.76	5.0306e-07	5.4906e-07	180.95	76.369	65.021	29.437	6.0104e-07	37.264	486.012	522.545	307.263	179.312	339.042	252.595	177.731	185.095	320.995	253.128	183.121	187.028	189.612	195.566	267.796	191.419	-8191	255	
2879.264	1	1	0	0	0.071256	0.16557	0.15325	0.24126	0.26918	0.3558	0.17978	0.2472	0.28576	0.27596	0.09083	0.2014	0.086231	0.076563	0.18424	0.38508	-3.7146	-3.7687	-3.7062	-4.0771	-3.4625	-3.9458	-3.8917	-3.5875	-4.1854	-3.6458	-3.8104	-4.0792	-3.5896	-4.1083	-3.8708	-3.6979	181.930	472.229	286.983	213.546	458.451	175.010	396.556	184.690	279.674	392.552	394.532	467.237	425.346	301.619	457.505	427.347	0.0011011	9.5288e-05	9.859e-05	503.9	1.6095e-06	2.27e-06	518.95	189.15	7.4191e-07	9.6643e-07	231.01	99.367	84.322	38.488	9.6325e-07	50.424	4.8798e-05	5.3035e-05	1.4971e-05	445.14	4.9637e-07	5.808e-07	449.05	154.98	4.9935e-07	5.885e-07	182.81	77.369	66.332	30.15	5.7396e-07	37.69	475.066	202.366	274.196	179.293	358.699	224.381	177.850	185.139	317.986	301.182	182.744	187.062	189.788	195.596	331.672	191.580	-8191	255	
2879.360	1	1	0	0	0.13162	0.026798	0.062553	0.21674	0.28794	0.019259	0.2625	0.11202	0.090782	0.089749	0.14954	0.23356	0.10219	0.19583	0.19949	0.36226	-3.6479	-3.7104	-3.6625	-4.2042	-3.6771	-3.9229	-3.9042	-3.6167	-4.0854	-3.8083	-3.6729	-4.0938	-3.4875	-3.8917	-4.0146	-3.4938	411.331	442.669	341.599	472.847	395.457	452.852	446.349	336.879	428.967	170.366	441.917	478.260	341.070	378.516	380.754	368.855	0.0011221	4.089e-05	6.6807e-05	500.8	1.7071e-06	4.0502e-07	512.56	186.54	2.1921e-06	1.8864e-06	229.55	98.139	82.902	37.802	9.3634e-07	50.215	5.0295e-05	5.5795e-05	1.4337e-05	442.39	5.2237e-07	6.1101e-07	446.65	152.92	5.2918e-07	6.1455e-07	180.61	76.424	65.37	29.697	5.5593e-07	37.537	482.767	366.449	255.318	179.050	266.196	249.663	177.830	185.018	248.297	325.175	183.113	187.196	189.569	195.859	273.865	191.306	-8191	255	
2879.434	1	1	0	0	0.018775	0.05068	0.13192	0.20741	0.11399	0.17451	0.079217	0.25754	0.14846	0.017779	0.036649	0.036607	0.064652	0.14517	0.0051755	0.13854	-3.7854	-3.5271	-3.55	-4.3104	-3.5271	-3.5729	-4.0958	-3.4958	-3.9792	-3.8396	-3.4896	-4.0583	-3.6937	-3.8542	-3.9979	-3.4833	309.770	488.050	204.781	222.944	211.615	396.001	288.802	219.893	219.249	426.506	230.282	193.407	252.538	211.418	471.124	482.349	0.0012267	0.00027187	2.4118e-05	503.5	1.8728e-06	2.5535e-06	519.81	188.07	1.8443e-06	2.1452e-06	231.52	99.205	84.006	38.374	1.3737e-06	50.557	5.3083e-05	5.5887e-05	1.3782e-05	443.25	5.6236e-07	6.0123e-07	448.04	153.36	5.6797e-07	5.9989e-07	182	77.295	66.487	30.138	5.3791e-07	37.884	481.275	252.287	250.078	179.200	261.677	355.495	177.918	185.131	291.313	329.373	183.048	186.955	189.847	195.608	314.139	191.678	-8191	255	
2879.553	1	1	0	0	0.10184	0.14404	0.30061	0.077092	0.072358	0.12816	0.07474	0.12164	0.1768	0.22326	0.062528	0.04763	0.35	0.073815	0.21959	0.13477	-3.7438	-3.8563	-3.4458	-4.2271	-3.7875	-3.7375	-4.0896	-3.6771	-4.0542	-3.9646	-3.7375	-4.2083	-3.8875	-3.8479	-4.0792	-3.6312	492.925	470.004	454.988	498.590	191.681	463.788	390.489	431.474	279.077	467.653	447.835	287.052	171.205	364.362	326.558	362.622	0.0010344	0.00023473	1.4913e-05	505.06	1.9701e-06	1.6368e-06	523.55	188.92	1.7737e-06	1.7678e-06	233.81	99.199	84.293	38.43	8.0149e-07	50.798	5.6369e-05	5.3707e-05	1.3453e-05	445.34	5.9067e-07	5.8515e-07	451.94	154.17	6.0266e-07	5.6877e-07	182.43	77.397	66.883	30.208	5.2944e-07	37.99	475.334	287.099	287.051	179.388	285.472	261.138	178.120	184.808	277.387	351.339	183.015	187.185	189.511	195.528	308.170	191.488	-8191	255	
2879.649	1	1	0	0	0.1063	0.18668	0.16305	0.13672	0.20074	0.27494	0.04172	0.14273	0.043381	0.2035	0.09063	0.035459	0.16937	0.16344	0.049097	0.12188	-3.5979	-4.025	-3.4604	-4.2292	-3.9792	-3.7167	-4.2458	-3.5042	-3.9042	-4.0896	-3.5729	-4.2208	-3.8187	-3.6396	-4.1354	-3.6208	332.835	413.745	390.190	292.512	499.372	287.777	443.611	469.317	516.899	370.159	340.934	231.106	225.294	485.145	227.741	494.468	0.001261	0.00025297	6.49e-05	509.13	2.1426e-06	1.7531e-06	522.44	192.74	1.267e-06	1.2327e-06	235.39	100.45	85.003	38.57	1.5351e-06	50.402	5.8671e-05	5.153e-05	1.3059e-05	449.83	6.1588e-07	5.5039e-07	450.61	156.77	6.082e-07	5.4724e-07	183.54	78.187	67.465	30.265	5.0297e-07	38.014	475.854	280.556	234.457	179.296	234.242	332.329	177.874	184.997	205.132	360.362	182.971	187.332	189.796	195.642	346.240	191.655	-8191	255	
2879.745	1	1	0	0	0.11766	0.048581	0.19568	0.134	0.11411	0.091639	0.088026	0.059057	0.12087	0.1307	0.061524	0.22961	0.045862	0.095223	0.1285	0.15087	-3.5062	-4.0104	-3.3292	-3.9833	-3.9167	-3.4625	-4.2958	-3.6437	-3.6917	-4.1708	-3.5521	-4.1229	-3.8417	-3.5167	-4.0563	-3.7729	341.127	347.091	283.914	296.559	515.182	282.165	343.055	198.743	169.285	217.785	175.136	435.496	357.194	484.587	222.247	416.408	0.0012431	0.00013193	2.4966e-05	504.12	1.6303e-06	1.3061e-06	521.65	188.4	2.7203e-06	9.5404e-07	230.44	98.36	83.385	38.017	7.3859e-07	50.032	5.759e-05	4.9093e-05	1.253e-05	446.75	6.0141e-07	5.3397e-07	447.95	154.66	5.8768e-07	5.3014e-07	180.37	77.111	65.897	29.628	4.9809e-07	37.697	485.910	251.728	219.760	179.227	341.975	372.598	178.076	185.155	257.202	361.517	182.935	187.186	189.737	195.651	240.784	191.396	-8191	255	
2879.866	1	1	0	0	0.30719	0.23236	0.048336	0.08143	0.04747	0.033904	0.065125	0.15229	0.14967	0.14707	0.3584	0.16032	0.017538	0.097495	0.20418	0.082786	-3.5938	-4.0458	-3.5021	-3.9333	-3.8625	-3.4792	-4.1479	-3.9125	-3.7333	-4.1333	-3.725	-4.0625	-4.0042	-3.6021	-4.1188	-3.8375	233.319	381.087	452.698	476.965	179.576	230.948	333.883	442.874	207.566	301.562	516.634	232.510	441.227	244.316	341.168	272.540	0.0012151	0.00011932	5.3666e-05	504.16	2.4353e-07	1.9086e-06	516.95	187.52	1.164e-06	1.2242e-06	229.31	98.207	83.146	37.789	1.4742e-06	49.915	5.4905e-05	4.6943e-05	1.2668e-05	446.28	5.6693e-07	5.1409e-07	446.31	154.64	5.6077e-07	5.0519e-07	180.48	77.271	65.693	29.53	5.151e-07	37.606	480.366	274.731	252.674	179.003	483.379	355.035	178.093	185.145	292.398	330.558	183.086	187.149	189.478	195.363	243.861	191.413	-8191	255	
2879.962	1	1	0	0	0.3333	0.1001	0.15923	0.11942	0.29607	0.16431	0.099251	0.22523	0.18954	0.14797	0.24887	0.080817	0.16814	0.20916	0.21438	0.15809	-3.175	-4.1354	-3.5521	-3.8458	-4.0667	-3.6083	-4.0646	-3.8354	-3.4396	-4.2146	-3.4792	-4.0417	-4.0667	-3.4813	-4.0771	-3.8854	310.195	168.205	202.621	447.627	494.173	395.431	232.699	436.132	335.405	477.626	323.122	420.605	515.278	423.789	280.176	261.366	0.00091597	4.4881e-05	5.7558e-05	504	1.1156e-06	6.2732e-07	522.93	186.99	2.1608e-06	1.1021e-06	229.68	97.772	83.113	37.633	6.2234e-07	49.715	5.2399e-05	4.5829e-05	1.3345e-05	446.86	5.4111e-07	4.9185e-07	449.05	153.85	5.4525e-07	4.93e-07	181.13	76.824	65.666	29.427	5.6941e-07	37.458	481.012	397.831	507.196	179.481	233.321	499.928	177.598	185.169	277.746	350.038	183.061	186.845	189.768	195.694	212.601	191.387	-8191	255	
2880.033	1	1	0	0	0.33132	0.037661	0.20802	0.25623	0.20092	0.11423	0.29339	0.24696	0.054515	0.10293	0.21715	0.29191	0.21562	0.274	0.17935	0.06807	-3.1667	-4.2854	-3.3812	-3.9125	-4.0333	-3.3333	-3.95	-3.8104	-3.5563	-4.1458	-3.6146	-3.7917	-4.3104	-3.475	-3.9813	-4.1396	268.246	285.460	425.622	526.177	476.675	512.531	423.150	442.325	381.690	171.371	400.075	483.794	496.247	169.527	464.431	255.978	0.0010592	8.3113e-05	3.8379e-05	505.17	1.3919e-06	1.1141e-06	518.26	189.53	9.7258e-07	1.4196e-06	232.56	99.893	85.124	38.367	2.3552e-06	50.071	5.1932e-05	4.5583e-05	1.4616e-05	448.77	5.2966e-07	4.9575e-07	449.95	156.06	5.2626e-07	4.9165e-07	183.58	77.976	66.822	29.983	5.9156e-07	37.724	480.496	257.617	189.629	179.486	363.650	215.427	177.995	184.949	322.883	272.532	182.917	187.117	189.654	195.540	207.939	191.342	-8191	255	
2880.154	1	1	0	0	0.22142	0.16163	0.13326	0.05519	0.17617	0.15872	0.25509	0.16474	0.085991	0.25635	0.14381	0.24726	0.049094	0.13102	0.17857	0.16077	-2.9958	-4.0354	-3.7313	-3.8542	-4.1813	-3.5938	-3.9125	-3.9271	-3.5667	-4.1917	-3.7313	-3.8542	-4.3187	-3.7	-3.9354	-4.3	280.208	247.570	331.526	371.700	509.457	485.934	440.203	457.908	257.528	229.094	199.693	387.830	274.799	175.007	185.314	347.576	0.0010048	0.00016944	7.43e-05	502.97	1.1094e-06	1.1062e-06	517.92	187.85	1.0122e-06	1.1245e-06	230.41	98.372	83.049	37.858	7.0006e-07	49.82	4.9753e-05	4.6368e-05	1.5171e-05	445.13	5.0854e-07	5.0796e-07	449.74	153.65	5.0866e-07	5.1905e-07	182.05	76.808	65.299	29.535	6.0643e-07	37.446	478.433	170.514	282.814	179.560	326.615	220.354	177.815	185.136	277.369	186.632	182.699	187.072	189.885	195.388	289.151	191.765	-8191	255	
2880.248	1	1	0	0	0.20134	0.18345	0.14442	0.094911	0.2454	0.11355	0.01049	0.064751	0.28782	0.25822	0.32513	0.40953	0.093354	0.13321	0.097101	0.048279	-3.1375	-4.0479	-3.625	-3.5583	-4.1708	-3.5375	-3.8896	-4.1625	-3.55	-4.0042	-3.8458	-3.5833	-4.2854	-3.6167	-3.8896	-4.2521	329.249	415.333	373.619	371.858	475.752	171.653	495.036	515.258	409.580	416.333	366.149	471.754	375.177	228.414	315.464	457.540	0.0011307	0.00014358	2.1341e-05	502.7	9.3573e-07	2.0253e-06	516.07	188	1.4954e-06	1.3027e-06	230.87	98.874	83.982	38.022	2.4124e-06	49.73	4.8437e-05	4.9514e-05	1.5303e-05	443.49	4.9951e-07	5.4723e-07	448.59	153.29	4.9287e-07	5.5885e-07	182.07	76.951	65.72	29.778	5.7891e-07	37.488	484.249	522.375	257.719	179.476	278.086	240.506	178.318	184.949	230.467	235.336	182.961	187.327	189.967	195.345	278.979	191.506	-8191	255	
2880.345	1	1	0	0	0.11395	0.12094	0.16714	0.26604	0.076319	0.18531	0.20462	0.18577	0.073225	0.092785	0.037703	0.11597	0.19346	0.071855	0.098476	0.0075959	-2.9958	-4.1583	-3.9958	-3.7479	-4.0375	-3.6896	-3.7479	-4.3083	-3.5146	-3.9688	-4.025	-3.7042	-4.2042	-3.7771	-3.7042	-4.3063	383.602	338.795	339.109	357.261	328.507	321.761	203.779	197.678	524.427	300.311	496.131	188.589	186.395	241.616	359.659	395.134	0.0011345	0.00035428	1.9125e-05	506.76	8.1508e-07	9.5402e-07	517.98	189.11	2.4499e-06	1.611e-06	231.51	98.743	84.089	38.304	1.2364e-06	50.036	4.8241e-05	5.2669e-05	1.4822e-05	446.4	4.984e-07	5.9468e-07	450.66	154.36	5.1056e-07	6.0584e-07	182.53	76.891	66.164	30.03	5.6912e-07	37.49	480.066	254.267	309.521	179.231	335.828	268.288	177.807	184.840	274.557	246.947	183.000	187.130	189.548	195.744	291.378	191.247	-8191	255	
2880.441	1	1	0	0	0.22235	0.11158	0.1218	0.11516	0.050443	0.20141	0.090596	0.27568	0.28806	0.16101	0.092615	0.15699	0.076604	0.084591	0.069583	0.11647	-3.1708	-3.9104	-4.0458	-3.45	-4.1438	-3.775	-3.5917	-4.1729	-3.5479	-3.8812	-4.0729	-3.3833	-4.075	-3.8063	-3.6312	-4.3396	261.318	307.867	212.985	467.721	271.484	411.733	192.493	476.755	309.351	465.212	280.648	205.391	388.356	505.362	497.706	504.218	0.0011509	3.471e-05	6.4363e-05	507.97	8.7572e-07	1.0142e-06	519.89	191.37	1.2245e-06	6.826e-07	230.85	99.11	84.271	38.335	9.8342e-07	49.895	5.1204e-05	5.5756e-05	1.4147e-05	446.97	5.2454e-07	6.0819e-07	449.28	155.63	5.4111e-07	6.0248e-07	182.38	77.147	66.5	30.045	5.4143e-07	37.44	481.217	524.570	307.423	179.394	211.398	257.595	177.915	185.028	323.301	391.592	183.000	187.106	189.688	195.599	333.238	191.597	-8191	255	
2880.561	1	1	0	0	0.20567	0.20082	0.10577	0.12135	0.076069	0.20672	0.15881	0.20035	0.06173	0.17632	0.19171	0.15092	0.23021	0.18104	0.26786	0.081768	-3.1896	-3.8625	-3.9854	-3.5375	-4.0354	-3.9104	-3.525	-4.2812	-3.7687	-3.8104	-4.1229	-3.4958	-4.2271	-3.9417	-3.4292	-4.1167	226.407	347.234	475.205	505.066	258.067	239.267	480.025	263.068	312.371	182.060	281.610	251.049	467.202	468.227	329.676	405.942	0.0012611	0.00012596	5.8103e-05	505.25	1.2094e-06	6.2325e-07	514.06	187.47	1.6662e-06	1.6835e-06	228.93	97.44	82.65	37.602	2.6603e-07	49.492	5.4379e-05	5.5123e-05	1.3881e-05	443.11	5.7151e-07	6.0037e-07	445.48	152.65	5.7507e-07	5.8765e-07	179.51	75.89	65.443	29.534	5.2994e-07	37.083	476.566	282.165	283.207	179.316	241.286	363.278	178.032	184.741	258.305	313.140	182.695	187.320	189.695	195.535	364.713	191.370	-8191	255	
2880.658	1	1	0	0	0.19406	0.32457	0.17744	0.21824	0.1322	0.1077	0.028176	0.17722	0.17116	0.13947	0.033177	0.085444	0.15333	0.20539	0.077888	0.24521	-3.2146	-3.6562	-4.0312	-3.5958	-3.9875	-3.9875	-3.5312	-4.0979	-3.8854	-3.7792	-4.1188	-3.6083	-4.0312	-4.1104	-3.3896	-4.425	348.092	275.848	521.542	267.386	266.411	279.567	307.372	525.146	308.391	267.760	466.197	473.890	443.418	468.407	189.110	415.152	0.0012183	0.00020734	3.9129e-05	500.11	1.5891e-06	5.3936e-07	511.48	185.97	1.1693e-06	1.0106e-06	228.27	97.184	82.424	37.331	8.9759e-07	48.957	5.777e-05	5.2383e-05	1.3337e-05	440.33	6.0418e-07	5.6794e-07	441.45	151.89	6.0928e-07	5.6153e-07	178.53	75.793	65.197	29.258	5.0988e-07	36.78	474.984	228.241	270.636	179.555	337.321	297.446	177.871	184.920	223.647	353.603	182.639	186.978	189.714	195.651	274.097	191.586	-8191	255	
2880.729	1	1	0	0	0.33217	0.074198	0.20361	0.19673	0.17006	0.083146	0.037059	0.20569	0.14907	0.17665	0.081246	0.085775	0.25519	0.11258	0.18214	0.32653	-3.2229	-3.5479	-4.2625	-3.6292	-3.9729	-4.2917	-3.5979	-4.2063	-3.9479	-3.6104	-4.3042	-3.5625	-3.8125	-4.2083	-3.4146	-4.2208	357.971	262.504	222.375	231.292	205.320	345.748	208.583	421.421	441.039	353.723	316.874	442.001	202.205	348.076	372.391	342.004	0.0010293	0.00014401	1.2239e-05	499.79	1.549e-06	5.8471e-07	515.44	185.23	1.8649e-06	2.2188e-06	225.28	96.543	82.102	37.498	1.2661e-06	49.1	5.8914e-05	5.0027e-05	1.2821e-05	442.41	6.1058e-07	5.4771e-07	442.75	151.38	6.1337e-07	5.4309e-07	177.31	75.539	65.122	29.279	5.0582e-07	37.041	477.183	277.655	172.371	179.042	372.294	274.058	177.831	184.787	292.023	325.529	182.717	186.902	189.589	195.536	265.480	191.588	-8191	255	
2880.825	1	1	0	0	0.22539	0.20922	0.13227	0.053829	0.080446	0.15492	0.1359	0.26572	0.10945	0.13555	0.09392	0.085573	0.23273	0.076334	0.30067	0.10549	-3.3875	-3.4146	-4.2625	-3.6708	-3.6917	-4.2125	-3.6667	-3.8792	-3.8854	-3.4146	-4.0417	-3.7938	-3.85	-4.2438	-3.5438	-4.1792	407.707	249.981	360.979	229.391	353.341	295.724	193.117	201.059	279.317	215.771	306.091	448.131	482.342	294.341	439.180	464.843	0.0009096	0.00017683	6.9498e-06	501.38	6.1725e-07	7.9891e-07	514.12	186.93	1.7451e-06	1.4783e-06	226.21	97.199	82.955	37.887	8.4443e-07	49.233	5.8171e-05	4.9445e-05	1.276e-05	445.35	5.9558e-07	5.3954e-07	443.08	153.88	5.9195e-07	5.2881e-07	178.4	76.2	65.539	29.548	5.1508e-07	37.177	476.969	241.653	319.561	179.665	279.958	398.076	177.754	184.810	289.073	321.009	182.823	187.285	189.777	195.514	294.717	191.542	-8191	255	
2880.946	1	1	0	0	0.15584	0.047517	0.17779	0.17426	0.31517	0.19893	0.075714	0.20059	0.26873	0.073848	0.21613	0.25408	0.11508	0.17846	0.046673	0.11616	-3.675	-3.5083	-4.1625	-3.8229	-3.8083	-4.2604	-3.6208	-4.0375	-4.1562	-3.6312	-4.3458	-3.9021	-3.6479	-4.3646	-3.7083	-3.9333	220.284	515.192	318.843	490.235	321.771	263.641	461.033	471.427	446.957	507.691	350.075	386.844	493.126	443.293	193.657	381.917	0.0010665	0.00030995	2.8891e-05	500.03	2.8515e-06	5.3331e-07	514.79	184.35	1.4598e-06	1.9361e-06	224.88	95.868	81.547	37.008	1.4655e-06	48.68	5.5735e-05	4.7856e-05	1.3205e-05	445.56	5.6725e-07	5.1875e-07	444.32	152.3	5.6138e-07	5.12e-07	177.15	75.432	64.222	28.943	5.4825e-07	36.907	487.775	280.037	221.131	179.305	292.458	248.520	177.915	185.015	313.967	336.688	182.960	187.152	189.908	195.751	189.049	191.862	-8191	255	
2881.042	1	1	0	0	0.16666	0.28394	0.16959	0.23633	0.16326	0.29963	0.19911	0.082921	0.12219	0.067369	0.11493	0.13489	0.10681	0.15517	0.16183	0.04548	-3.7458	-3.3125	-4.1167	-3.7979	-3.5667	-4.0938	-3.7292	-3.9896	-4.0333	-3.5458	-4.0021	-3.9125	-3.5792	-4.1354	-3.6646	-3.7375	263.469	493.417	259.356	502.095	474.376	337.852	460.661	501.545	391.913	292.373	487.345	238.971	272.055	198.018	412.572	510.297	0.00098364	0.00012198	4.5586e-05	501.69	1.9478e-07	1.3247e-06	510.48	184.78	1.1765e-06	1.1417e-06	226.34	96.288	81.835	37.33	1.7005e-06	48.782	5.3678e-05	4.6015e-05	1.4082e-05	444.81	5.4354e-07	5.0166e-07	443.96	152.26	5.4406e-07	5.0163e-07	178.69	75.608	64.627	29.198	5.8888e-07	36.944	481.812	247.435	187.680	179.290	412.547	231.650	177.628	185.133	337.650	308.626	183.113	187.222	189.692	195.470	234.407	191.599	-8191	255	
2881.138	1	1	0	0	0.1913	0.19235	0.13789	0.31216	0.18956	0.17813	0.11673	0.18558	0.17929	0.34609	0.1745	0.11884	0.20472	0.18663	0.069432	0.14897	-3.7167	-3.4458	-3.9771	-3.8542	-3.5792	-4.0333	-3.7521	-3.8708	-4.1854	-3.5312	-3.8896	-3.7687	-3.5104	-4.2583	-3.6875	-3.7542	241.436	479.921	323.257	521.372	247.063	292.010	341.625	358.923	245.966	192.721	457.459	178.463	474.448	523.090	224.872	333.411	0.00094001	4.4369e-05	7.572e-05	503.27	4.5457e-07	2.0026e-06	515.92	185.73	2.7119e-07	1.7528e-06	226.56	96.416	82.415	37.661	6.8601e-07	49.23	5.2347e-05	4.6178e-05	1.5123e-05	446.65	5.3588e-07	5.1064e-07	448.82	152.88	5.3757e-07	5.1852e-07	180.22	75.603	65.013	29.43	6.2445e-07	37.027	479.345	435.159	215.566	179.261	342.904	276.885	178.182	185.048	347.508	269.652	182.776	187.103	189.637	195.614	237.266	191.366	-8191	255	
2881.234	1	1	0	0	0.19245	0.13486	0.094423	0.19834	0.22292	0.24299	0.14206	0.12035	0.084159	0.2266	0.085272	0.11857	0.18972	0.20335	0.17735	0.081603	-3.9458	-3.4833	-3.8625	-3.9875	-3.575	-4.0729	-3.9167	-3.6604	-4.1583	-3.7438	-3.9771	-3.9917	-3.3667	-4.0375	-3.8563	-3.7354	442.839	189.052	239.769	517.742	210.252	413.276	442.404	424.741	467.397	219.357	302.746	350.104	378.956	482.297	256.358	397.420	0.00098222	6.4917e-05	2.6233e-05	503.36	2.4297e-06	2.1146e-07	512.84	186.88	4.6967e-07	1.88e-06	227.86	97.034	82.821	37.607	1.3446e-06	48.503	5.1124e-05	4.8094e-05	1.5677e-05	445.88	5.1509e-07	5.4286e-07	446.67	153.83	5.1532e-07	5.4507e-07	180.59	75.925	65.149	29.425	6.1754e-07	36.684	479.665	505.449	250.022	178.985	321.547	513.232	177.865	184.839	232.953	507.147	182.663	187.088	189.895	195.405	314.590	191.862	-8191	255	
2881.331	1	1	0	0	0.24678	0.13097	0.10577	0.26668	0.14676	0.23646	0.10632	0.058907	0.17156	0.14262	0.25694	0.14678	0.022844	0.13632	0.035602	0.20772	-3.8438	-3.4979	-3.9604	-3.9792	-3.5312	-4.2042	-4.0208	-3.6958	-4.125	-3.5146	-3.7458	-4.2083	-3.5	-4.15	-3.9208	-3.5042	456.871	382.395	331.187	379.031	339.046	427.012	375.647	305.801	433.130	249.570	460.068	429.161	326.903	452.672	361.544	393.696	0.0010942	0.00018801	5.9202e-05	499.46	9.8114e-07	1.3986e-06	506.33	184.16	1.6691e-06	8.6978e-07	223.88	94.973	81.096	36.712	9.2377e-07	48.138	4.992e-05	5.1923e-05	1.5533e-05	441.35	5.114e-07	5.814e-07	440.98	150.8	5.0513e-07	5.8615e-07	176.79	74.15	63.695	28.915	5.9133e-07	36.291	481.257	201.386	257.982	179.686	246.781	252.789	178.179	185.035	342.477	351.064	183.103	187.214	189.749	195.717	258.088	191.778	-8191	255	
2881.427	1	1	0	0	0.15845	0.063837	0.065488	0.29269	0.046401	0.13737	0.11452	0.13458	0.13736	0.24136	0.064542	0.26887	0.057983	0.045065	0.049403	0.16445	-3.7896	-3.7792	-3.8104	-4.3292	-3.6229	-4.0062	-4.0687	-3.4708	-4.0917	-3.7479	-3.7229	-4.225	-3.4875	-3.9313	-3.8438	-3.6146	351.374	362.640	349.977	174.645	462.047	467.631	483.780	360.299	239.842	495.086	359.241	175.079	402.308	436.380	271.062	200.611	0.0010513	0.0001576	7.177e-05	493.71	9.0624e-07	6.1926e-07	505.21	183.34	9.9758e-07	4.641e-07	223.07	95.131	80.865	36.755	7.7545e-07	48.35	4.9156e-05	5.4685e-05	1.4781e-05	435.82	5.1027e-07	6.0282e-07	438.85	149.9	5.1684e-07	6.1145e-07	176.17	74.132	63.651	28.966	5.6089e-07	36.269	479.191	171.082	285.111	179.430	282.581	371.389	177.871	184.673	232.042	167.063	183.062	187.219	189.913	195.375	361.587	191.631	-8191	255	
2881.546	1	1	0	0	0.10403	0.10494	0.23393	0.16865	0.23737	0.095248	0.12137	0.1908	0.12709	0.086614	0.28969	0.088849	0.2502	0.1296	0.17433	0.10422	-3.7167	-3.9	-3.5187	-3.9521	-3.4979	-3.9083	-4.175	-3.3937	-4.0563	-3.8312	-3.7854	-4.2708	-3.7896	-3.9292	-4	-3.5042	365.417	526.597	426.837	409.932	472.475	522.973	481.138	304.434	486.643	202.252	403.386	504.016	524.131	490.382	442.592	432.598	0.0010686	0.00012581	6.3712e-05	499.76	1.6385e-06	2.4364e-06	508.55	182.48	1.5411e-06	1.0643e-06	224.29	94.938	81.385	37.001	8.5228e-07	48.483	5.2008e-05	5.665e-05	1.4051e-05	439.68	5.5016e-07	6.1592e-07	441.94	149.6	5.6288e-07	6.2017e-07	176.5	74.192	64.456	29.111	5.5936e-07	36.303	481.227	178.035	281.100	179.469	273.645	310.503	177.937	184.874	229.984	301.298	182.956	187.147	189.403	195.548	284.440	191.627	-8191	255	
2881.642	1	1	0	0	0.081759	0.173	0.17661	0.059685	0.20248	0.11403	0.14424	0.12389	0.074928	0.10037	0.11345	0.27661	0.1087	0.083096	0.13589	0.24111	-3.7729	-3.9354	-3.5667	-4.3583	-3.6937	-3.7333	-4.1479	-3.725	-4.0458	-4.0062	-3.6021	-4.1375	-3.7417	-3.5604	-4.0854	-3.5062	252.956	521.013	340.541	315.188	279.861	366.639	501.745	390.553	497.814	420.084	325.889	238.449	460.400	364.478	171.831	438.847	0.0010782	7.6665e-05	4.7971e-05	496.47	2.8182e-06	2.1176e-06	507.23	186.83	1.4864e-06	1.4811e-06	224.46	97.078	82.221	37.431	1.6657e-06	48.701	5.6631e-05	5.5234e-05	1.3808e-05	438.97	5.907e-07	5.9359e-07	439.18	152.47	5.9452e-07	5.821e-07	177.45	75.197	65.395	29.371	5.2383e-07	36.552	477.554	242.511	294.832	179.339	518.182	283.834	178.081	184.742	267.421	316.282	183.161	187.047	189.806	195.384	304.203	191.527	-8191	255	
2881.738	1	1	0	0	0.095284	0.13627	0.23968	0.1318	0.093233	0.13146	0.16921	0.17316	0.008268	0.041745	0.24172	0.21053	0.074281	0.31437	0.12032	0.1895	-3.8354	-3.9417	-3.4833	-4.1417	-3.8792	-3.775	-4.1354	-3.6562	-3.8208	-3.8896	-3.5563	-4.1479	-3.8063	-3.6396	-4.1146	-3.4021	377.889	426.655	266.516	205.804	441.335	246.566	420.673	478.301	337.730	276.259	433.172	179.045	219.605	187.841	207.499	418.432	0.00095354	0.00017752	4.7157e-05	497.93	1.1544e-06	9.0869e-07	508.98	183.34	2.0362e-06	1.4765e-06	223.61	95.791	81.267	37.091	7.47e-07	48.877	5.833e-05	5.1806e-05	1.3164e-05	438.3	6.1262e-07	5.5951e-07	440.4	150.55	6.128e-07	5.6475e-07	176.46	74.686	64.682	29.129	5.0815e-07	36.708	474.309	283.205	220.291	179.306	345.423	330.341	177.975	184.850	291.396	416.081	182.670	186.841	189.804	195.705	255.908	191.579	-8191	255	
2881.834	1	1	0	0	0.054975	0.35158	0.14707	0.36595	0.26265	0.14782	0.11327	0.21563	0.041817	0.15397	0.062273	0.19293	0.069099	0.047396	0.044715	0.16859	-3.3021	-4.0312	-3.5271	-4.15	-3.9	-3.725	-4.3021	-3.6688	-4.0188	-4.0583	-3.4938	-4.0896	-3.9271	-3.6896	-4.1708	-3.7208	375.664	399.909	327.032	348.374	404.445	190.551	458.889	249.474	319.862	450.893	435.863	475.785	449.447	416.772	186.737	444.565	0.0011136	0.00018379	3.9856e-05	497.92	1.161e-06	1.001e-06	509.47	184.72	1.2064e-06	2.2874e-06	224.22	96.562	82.179	37.278	9.0238e-07	49.029	5.832e-05	5.0319e-05	1.2533e-05	440.78	6.0776e-07	5.4164e-07	439.32	151.91	6.0275e-07	5.3498e-07	176.46	75.487	65.022	29.287	4.9778e-07	36.957	481.257	498.005	251.397	179.185	195.024	347.613	177.886	184.804	292.717	282.679	182.713	187.460	189.817	195.704	277.012	191.540	-8191	255	
2881.955	1	1	0	0	0.12316	0.17047	0.037346	0.20247	0.020569	0.08002	0.13056	0.15221	0.13807	0.1448	0.047547	0.23443	0.13792	0.13404	0.10822	0.22548	-3.5375	-4.0208	-3.4625	-4.0104	-3.9396	-3.5146	-4.0708	-3.6854	-3.7646	-4.1292	-3.3875	-3.9792	-3.8854	-3.6375	-4.1813	-3.6937	446.394	317.953	345.100	367.785	368.097	448.079	482.827	447.956	374.489	296.418	256.035	446.076	256.371	499.797	266.316	440.163	0.0011279	0.00022758	4.1524e-05	501.95	6.6754e-07	1.182e-06	513.14	186.34	2.0575e-06	3.2023e-07	226.26	97.162	83.043	37.607	1.8469e-06	49.413	5.6807e-05	4.9047e-05	1.2938e-05	445.85	5.9437e-07	5.3208e-07	442.68	153.63	5.8766e-07	5.3032e-07	178.36	76.014	65.53	29.467	5.2043e-07	37.182	482.843	302.225	512.414	179.137	269.149	323.639	177.752	184.833	323.442	304.379	182.520	187.126	189.536	195.732	237.663	191.609	-8191	255	
2882.026	1	1	0	0	0.22019	0.10041	0.24154	0.055254	0.13956	0.065109	0.14415	0.091049	0.22377	0.21181	0.28456	0.19731	0.075827	0.16225	0.062526	0.14118	-3.2083	-4.1375	-3.5542	-3.9854	-3.9979	-3.5833	-4.1375	-3.7375	-3.5042	-4.2167	-3.7125	-3.8125	-4.0646	-3.4062	-4.1458	-3.7146	241.640	489.214	192.411	510.853	205.157	262.853	178.899	208.051	266.775	234.042	324.463	455.539	442.062	473.022	180.366	455.002	0.0010805	0.00019781	2.9502e-05	505.61	8.7717e-07	2.6985e-06	513.08	189.02	2.2554e-06	7.8923e-07	228.59	97.087	83.281	37.858	1.634e-06	48.918	5.4653e-05	4.728e-05	1.3424e-05	447.45	5.5858e-07	5.0702e-07	442.89	155.37	5.51e-07	5.0588e-07	179.61	76.248	65.667	29.452	5.5266e-07	37.074	480.518	251.768	230.053	179.144	326.889	334.577	178.190	184.989	324.121	330.278	182.898	187.193	189.614	195.499	222.144	191.687	-8191	255	
2882.123	1	1	0	0	0.026075	0.15537	0.17771	0.19123	0.13973	0.10608	0.10048	0.16033	0.075346	0.15039	0.22265	0.14709	0.067592	0.11262	0.14849	0.17524	-3.1792	-4.1729	-3.625	-3.8688	-4.0792	-3.3958	-4.0854	-3.9958	-3.6125	-4.2167	-3.6667	-3.6896	-4.1104	-3.4813	-3.8563	-4.0354	388.128	445.083	471.727	487.623	443.016	188.244	421.212	461.093	308.791	467.199	449.146	440.502	476.447	194.386	354.322	314.618	0.0010672	0.00012614	5.4765e-05	496.75	6.5449e-07	7.906e-07	507.64	185.4	1.2589e-06	8.1965e-07	224.95	96.064	81.502	37.188	1.4108e-06	48.817	5.2925e-05	4.5716e-05	1.4393e-05	441.98	5.4645e-07	4.9678e-07	440.08	152.11	5.3494e-07	4.9219e-07	177.46	75.353	64.46	29.022	5.8568e-07	36.726	486.316	246.045	185.885	179.317	432.726	184.144	178.388	184.974	301.389	297.300	182.776	186.821	189.675	195.612	168.359	191.468	-8191	255	
2882.219	1	1	0	0	0.24108	0.2729	0.26833	0.063082	0.0265	0.21132	0.058101	0.26799	0.17111	0.083227	0.26873	0.3829	0.035409	0.16252	0.19124	0.096257	-3.1333	-3.9396	-3.7646	-3.8104	-4.2271	-3.5833	-4.0521	-3.9229	-3.5146	-4.1167	-3.7479	-3.6417	-4.1625	-3.4542	-3.9958	-4.1146	301.336	412.489	356.413	191.734	286.969	275.901	478.662	510.918	229.778	329.676	462.118	426.173	485.881	255.720	300.896	178.320	0.001001	0.00014501	3.5215e-05	493.88	1.4792e-06	9.0053e-07	502.77	184.31	2.5198e-06	7.3749e-07	224.27	95.529	81.427	37.065	6.1748e-07	47.966	5.1067e-05	4.5485e-05	1.5083e-05	437.11	5.2202e-07	4.9901e-07	438.28	151.28	5.1108e-07	5.0708e-07	177.25	74.929	64.053	28.908	6.1035e-07	36.236	485.717	278.799	199.729	179.676	289.747	371.918	178.061	184.796	265.413	252.928	182.456	187.092	189.578	195.560	229.286	191.448	-8191	255	
2882.338	1	1	0	0	0.027178	0.14657	0.11952	0.21786	0.27271	0.11763	0.13141	0.17729	0.26308	0.21308	0.06233	0.20821	0.1295	0.40157	0.36709	0.15758	-3.1417	-4.1583	-3.7938	-3.7771	-4.1979	-3.6021	-3.9896	-4.1396	-3.3604	-4.0667	-3.9771	-3.7812	-4.2042	-3.6542	-3.9625	-4.0938	520.880	383.242	337.502	446.630	429.798	404.956	441.886	522.935	361.503	385.483	313.126	476.227	494.678	453.684	325.926	414.931	0.0010915	4.059e-05	3.6109e-05	494.9	1.6237e-06	1.7177e-06	504.18	183.39	8.4369e-07	1.7017e-06	224.97	96.054	82.416	37.473	3.6765e-07	48.932	4.9383e-05	4.8694e-05	1.5614e-05	438.4	5.1077e-07	5.4204e-07	441.05	150.98	5.0982e-07	5.5052e-07	178.35	75.008	64.723	29.315	5.9821e-07	36.661	478.972	169.899	518.929	179.368	334.555	261.344	177.681	184.950	341.533	196.806	182.650	187.020	189.627	195.782	296.765	191.300	-8191	255	
2882.434	1	1	0	0	0.20819	0.13902	0.071101	0.31872	0.15346	0.24292	0.13259	0.19474	0.181	0.19851	0.20912	0.18547	0.1185	0.18111	0.16854	0.1618	-3.0833	-3.8542	-3.9583	-3.4646	-4.2708	-3.7396	-3.8896	-4.2167	-3.4458	-4	-4.1625	-3.6063	-4.4604	-3.7812	-3.8375	-4.0271	366.151	187.452	267.831	419.829	321.248	471.747	363.039	405.593	189.134	333.760	399.026	467.709	270.666	269.868	328.631	453.574	0.0011191	8.0408e-05	2.7247e-05	498.59	5.479e-07	7.8551e-07	510.61	188.08	1.8137e-06	6.0309e-07	227.34	96.897	83.843	37.957	1.2744e-06	49.181	4.8965e-05	5.1795e-05	1.5093e-05	441.01	4.8903e-07	5.7595e-07	442.11	153.91	4.9548e-07	5.7706e-07	179.62	75.718	65.623	29.737	5.6452e-07	36.903	480.412	243.472	520.500	179.362	179.524	254.732	178.053	185.001	332.798	306.245	182.896	187.098	189.632	195.530	336.324	191.421	-8191	255	
2882.530	1	1	0	0	0.078199	0.1128	0.084219	0.1428	0.075963	0.11235	0.31066	0.10312	0.089563	0.29883	0.27728	0.24601	0.051382	0.27516	0.17069	0.28944	-3.1708	-3.9167	-3.7646	-3.4958	-4.0604	-4.0125	-3.6125	-4.1208	-3.5479	-4	-4.1062	-3.6333	-4.2312	-3.8438	-3.7021	-4.3167	482.070	356.072	427.776	526.358	219.856	196.325	189.266	512.375	338.862	431.065	497.306	325.525	428.935	362.929	373.460	407.520	0.0011555	0.00012786	3.2654e-05	503.17	2.0314e-06	7.9552e-07	513.68	186.27	1.2767e-06	1.789e-06	226.01	97.562	83.327	37.706	2.0533e-06	49.422	4.9093e-05	5.4476e-05	1.4243e-05	440.95	5.0884e-07	5.9794e-07	443.19	152.41	5.1688e-07	5.9404e-07	178.6	75.739	65.345	29.557	5.2704e-07	37.011	477.625	265.053	297.295	179.426	279.402	260.904	177.974	185.296	220.871	330.061	182.941	187.246	189.705	195.957	342.957	191.752	-8191	255	
2882.626	1	1	0	0	0.11116	0.25081	0.061887	0.16809	0.17258	0.10686	0.13627	0.098916	0.06165	0.25638	0.133	0.25835	0.16869	0.15932	0.26586	0.046919	-3.2125	-3.9167	-4.0375	-3.3521	-4.075	-3.8937	-3.7167	-4.1604	-3.7167	-3.7854	-4.2542	-3.5083	-4.075	-3.85	-3.5917	-4.2292	262.993	399.543	504.801	383.863	414.748	304.582	251.718	229.083	177.533	310.025	208.892	404.274	450.238	486.357	368.396	295.719	0.0011021	0.00017867	3.1772e-05	497.37	1.2189e-06	9.1471e-07	507.88	186.98	9.0072e-07	1.3838e-06	227.22	97.538	83.387	37.861	8.8491e-07	48.898	5.1009e-05	5.3456e-05	1.3437e-05	438.33	5.3393e-07	5.8178e-07	440.2	152.8	5.4593e-07	5.8138e-07	179.04	75.929	65.867	29.593	5.2394e-07	36.734	482.436	238.672	331.133	179.124	222.757	349.587	178.238	185.134	261.758	320.976	182.811	186.896	189.515	195.471	207.880	191.488	-8191	255	
2882.722	1	1	0	0	0.18135	0.081352	0.21879	0.072812	0.14783	0.14522	0.20636	0.053582	0.33989	0.3134	0.11208	0.11786	0.050158	0.19425	0.18836	0.076939	-3.2917	-3.8937	-4.1208	-3.4	-3.9479	-3.9625	-3.6354	-4.2812	-3.8021	-3.7438	-4.2646	-3.4	-3.9771	-3.9313	-3.475	-4.2271	340.723	437.389	211.173	224.551	213.625	450.828	433.545	391.504	211.513	298.314	481.869	202.519	170.128	436.230	381.825	281.570	0.0011017	0.00013181	5.6031e-05	500.01	1.4099e-06	7.5041e-07	510.96	186.94	1.1235e-06	2.0543e-06	228.38	97.521	83.983	37.812	1.1834e-06	49.411	5.4852e-05	5.2453e-05	1.3129e-05	440.65	5.7989e-07	5.6776e-07	441.12	152.77	5.9066e-07	5.6193e-07	179.04	76.077	66.433	29.726	5.1057e-07	36.989	473.479	265.515	311.026	179.312	269.707	313.693	177.944	185.005	246.275	354.685	182.857	187.040	189.911	195.531	344.291	191.299	-8191	255	
2882.818	1	1	0	0	0.17028	0.17528	0.13004	0.19034	0.1077	0.15737	0.20959	0.10028	0.033619	0.14666	0.19486	0.14189	0.13316	0.16293	0.14975	0.041805	-3.5042	-3.7833	-4.2333	-3.4437	-3.7958	-3.9771	-3.5521	-4.1917	-3.6312	-3.7625	-4.075	-3.55	-3.9354	-4.0479	-3.5833	-4.1708	449.247	423.398	250.506	332.773	514.423	297.226	285.661	421.214	426.121	356.986	493.834	435.467	373.353	457.943	328.495	294.211	0.00094837	8.3728e-05	4.3078e-05	498.4	1.759e-07	2.527e-06	508.23	188.26	7.7772e-07	6.5895e-07	227.73	97.599	83.069	37.674	5.9546e-07	48.971	5.7945e-05	5.015e-05	1.2728e-05	439.78	6.0087e-07	5.3887e-07	437.86	154.1	6.021e-07	5.3662e-07	177.74	76.139	66.137	29.519	4.9498e-07	36.73	477.844	416.736	319.731	179.121	221.528	330.795	178.133	184.894	302.717	260.959	182.757	187.056	189.770	195.256	205.697	191.391	-8191	255	
2882.914	1	1	0	0	0.096775	0.2407	0.2708	0.13005	0.133	0.088355	0.26218	0.25939	0.18719	0.17768	0.14044	0.055506	0.11177	0.076965	0.074608	0.15458	-3.4771	-3.5312	-4.1917	-3.5771	-3.8958	-4.1	-3.6292	-3.9854	-3.9083	-3.5938	-4.425	-3.7646	-3.7458	-4.1917	-3.3917	-4.0563	490.861	264.311	400.848	207.612	291.197	264.929	385.969	209.548	305.364	178.187	453.062	245.805	199.511	350.401	186.437	261.023	0.0011003	0.00015357	4.5901e-05	493.01	7.8685e-07	8.6371e-07	500.82	184.95	1.2039e-06	1.4084e-06	223.98	95.751	81.984	37.087	1.3964e-06	48.359	5.7218e-05	4.8658e-05	1.237e-05	436.71	5.9304e-07	5.307e-07	432.57	151.68	5.8531e-07	5.1446e-07	175.18	75.036	64.711	28.978	4.8075e-07	36.531	477.767	240.218	321.701	179.019	446.379	357.358	177.565	184.791	327.384	332.145	183.154	187.133	189.759	195.525	270.247	191.517	-8191	255	
2883.035	1	1	0	0	0.065755	0.05957	0.18351	0.18896	0.15445	0.10422	0.11048	0.10828	0.13775	0.033656	0.0049897	0.093093	0.21547	0.065902	0.10992	0.24866	-3.5125	-3.5	-4.2	-3.5917	-3.675	-4.1729	-3.5458	-3.9646	-3.8917	-3.6146	-4.1604	-3.625	-3.7604	-4.2333	-3.5542	-4.0104	236.852	324.570	355.875	341.123	397.840	364.638	307.210	361.653	392.361	378.238	489.795	282.637	189.938	375.880	362.653	309.042	0.00099683	5.5614e-05	3.8339e-05	491.45	1.0996e-06	2.4078e-06	503.83	183.06	1.0988e-06	1.6333e-06	226.07	96.726	82.771	37.312	1.8862e-06	48.848	5.4143e-05	4.5944e-05	1.2186e-05	435.99	5.4718e-07	4.9896e-07	433.23	151.57	5.5011e-07	4.9159e-07	176.31	75.617	65.036	29.143	5.0607e-07	36.811	480.387	295.571	284.236	179.275	295.703	208.125	177.644	185.082	276.392	357.946	182.878	187.041	189.615	195.459	216.421	191.296	-8191	255	
2883.131	1	1	0	0	0.2021	0.13052	0.12683	0.24287	0.084571	0.33721	0.096569	0.058586	0.071025	0.24967	0.10757	0.080965	0.17506	0.21522	0.12543	0.10698	-3.6104	-3.4	-4.0854	-3.9146	-3.725	-4.05	-3.6146	-3.7854	-3.9604	-3.1417	-4.1104	-3.9104	-3.6042	-4.35	-3.7042	-3.9396	359.866	198.787	170.863	231.583	312.392	491.455	264.465	248.904	274.044	185.179	453.797	329.296	267.402	500.558	367.503	420.109	0.0011124	2.2223e-05	3.5996e-05	499.41	1.4237e-06	1.3629e-06	516.61	188.46	1.7301e-06	2.2858e-06	230.85	98.438	85.408	38.64	8.5482e-07	49.809	5.2288e-05	4.4971e-05	1.3127e-05	443.69	5.3353e-07	4.8054e-07	445.08	155.39	5.32e-07	4.8979e-07	181.39	77.404	67.074	30.106	5.541e-07	37.624	485.638	215.182	482.182	179.359	343.016	337.586	177.800	185.093	301.824	300.340	182.891	186.667	189.591	195.229	174.389	191.441	-8191	255	
2883.227	1	1	0	0	0.13417	0.11672	0.088518	0.10585	0.11441	0.082488	0.12758	0.042425	0.29633	0.16481	0.094995	0.11176	0.1143	0.20492	0.11941	0.18437	-3.6437	-3.4375	-4.1146	-3.9667	-3.4771	-4.2125	-3.6104	-3.9125	-4.1813	-3.5292	-4.1188	-4.0958	-3.5771	-4.1333	-3.7979	-3.8417	485.099	329.200	413.447	230.002	394.633	241.496	489.239	516.152	261.154	223.358	365.238	204.130	504.876	415.796	363.063	438.242	0.0010323	0.00016164	2.0814e-05	503.6	2.2682e-06	2.705e-06	511.34	190.51	8.8551e-07	1.5635e-06	229.95	98.296	84.357	38.272	5.6333e-07	49.419	5.1113e-05	4.3951e-05	1.4125e-05	445.97	5.1839e-07	4.7454e-07	443.57	156.22	5.1727e-07	4.8233e-07	181.35	76.912	66.337	29.791	5.8767e-07	37.227	475.364	273.501	280.172	179.298	294.821	298.401	178.160	184.895	272.402	267.899	183.020	187.150	189.795	195.661	264.327	191.516	-8191	255	
2883.324	1	1	0	0	0.14934	0.086672	0.090517	0.09276	0.024245	0.052794	0.16817	0.23513	0.07082	0.017549	0.056452	0.1181	0.093256	0.14784	0.012173	0.22013	-3.85	-3.6396	-3.8979	-4.0125	-3.4	-4.1146	-3.7875	-3.6417	-3.9688	-3.5646	-3.8021	-4.3354	-3.5104	-3.9583	-3.7979	-3.7333	419.463	380.362	242.117	477.572	200.819	282.878	376.040	477.940	411.102	432.841	259.347	417.525	282.703	206.742	172.550	504.642	0.0010612	0.00014856	1.9559e-05	501.48	2.69e-06	1.2249e-06	511.17	186.63	2.0806e-06	5.536e-07	228.31	97.364	83.843	37.836	1.7874e-06	49.346	4.9459e-05	4.5509e-05	1.5006e-05	442.87	5.1073e-07	5.0266e-07	443.63	153.24	4.9662e-07	5.1418e-07	180.17	76.061	65.656	29.567	5.9559e-07	37.083	476.835	205.078	485.695	179.185	350.512	266.311	177.884	184.878	240.477	523.457	182.839	186.912	189.717	195.733	290.091	191.555	-8191	255	
2883.418	1	1	0	0	0.11884	0.12269	0.25462	0.18617	0.15136	0.077807	0.2209	0.19488	0.13964	0.21696	0.056617	0.1899	0.10615	0.19363	0.1006	0.30513	-3.8583	-3.525	-3.8125	-4.1458	-3.4521	-4.1729	-3.9792	-3.6771	-4.2833	-3.5271	-3.9271	-4.1687	-3.5812	-4.0854	-3.8146	-3.5792	365.169	249.448	479.485	477.390	324.355	341.305	460.856	230.367	366.087	428.883	320.626	359.475	407.644	507.827	501.518	459.964	0.0011399	0.0001632	3.3771e-05	497.44	2.0885e-06	8.3264e-07	505.25	185.15	2.2877e-06	1.0316e-06	225.87	96.302	82.479	37.417	1.2343e-06	48.77	4.8177e-05	4.8874e-05	1.5038e-05	438.86	4.9373e-07	5.4044e-07	439.45	152.15	4.8935e-07	5.5755e-07	178.46	75.432	65.015	29.387	5.8586e-07	36.564	480.372	211.767	304.318	179.396	314.642	316.256	178.076	185.009	303.870	256.202	182.923	187.210	189.536	195.471	330.200	191.597	-8191	255	
2883.514	1	1	0	0	0.060293	0.09932	0.084947	0.16857	0.15387	0.045871	0.13152	0.15128	0.16608	0.16001	0.24811	0.13358	0.022727	0.1657	0.19315	0.23663	-3.8979	-3.4771	-3.6688	-4.2104	-3.6083	-3.8146	-4.0042	-3.5354	-4.2417	-3.6562	-3.8604	-4.2958	-3.5979	-4.075	-3.9667	-3.5958	308.745	232.930	309.928	497.685	292.406	195.947	377.848	351.246	306.940	270.671	318.593	381.029	286.525	191.188	305.127	481.153	0.0011501	0.00015657	4.24e-05	497.9	1.0094e-06	1.1372e-06	507.56	185.8	8.5813e-07	1.236e-06	226.2	96.965	83.034	37.903	1.423e-06	48.885	4.7862e-05	5.3163e-05	1.4569e-05	439.43	5.0019e-07	5.8807e-07	440.32	152.47	5.0582e-07	6.0196e-07	178.72	75.617	65.703	29.749	5.6306e-07	36.671	477.864	188.505	262.868	179.378	509.746	345.798	177.818	185.156	277.440	219.203	183.097	186.882	189.501	195.724	271.458	191.309	-8191	255	
2883.635	1	1	0	0	0.04288	0.12544	0.11639	0.17311	0.15676	0.21501	0.082794	0.2613	0.064438	0.15311	0.14058	0.36546	0.26894	0.19848	0.20386	0.092159	-3.925	-3.8167	-3.7083	-4.1021	-3.6937	-3.9979	-4.1396	-3.7271	-4.1354	-3.7917	-3.5542	-4.3125	-3.6229	-3.8271	-4.1604	-3.6083	523.389	271.484	449.851	416.078	368.577	227.474	461.838	425.232	488.997	217.347	437.241	490.388	466.505	339.880	344.238	458.047	0.0011794	0.00012764	3.1755e-05	496.8	2.4279e-06	1.9385e-06	498.36	188.06	6.9836e-07	7.5088e-07	226.5	96.796	83.364	37.586	1.6348e-06	48.28	5.0475e-05	5.5376e-05	1.4176e-05	437.68	5.2666e-07	6.0186e-07	435.27	153.44	5.2764e-07	6.0056e-07	177.77	75.346	65.727	29.604	5.3801e-07	36.32	476.213	259.212	252.663	179.582	231.716	313.735	178.069	184.995	279.605	275.665	183.086	186.908	189.480	195.642	303.100	191.197	-8191	255	
2883.731	1	1	0	0	0.097398	0.25896	0.095436	0.12529	0.016611	0.1407	0.076524	0.057148	0.29771	0.13119	0.28006	0.042398	0.22217	0.17395	0.057574	0.078749	-3.775	-3.7188	-3.5021	-4.2688	-3.6729	-3.9	-4.1708	-3.5271	-4.175	-3.9125	-3.7917	-4.1438	-3.5521	-3.8979	-4.2417	-3.4917	348.859	429.420	503.873	475.326	427.960	263.443	461.079	244.434	305.997	344.041	289.233	202.563	479.129	212.695	205.217	192.903	0.001051	0.00011083	3.3486e-05	491.56	1.9685e-06	4.0609e-07	496.59	184.15	1.996e-06	1.3078e-06	221.93	95.008	81.712	37.134	1.3643e-06	48.279	5.3126e-05	5.4715e-05	1.3698e-05	432.77	5.6627e-07	5.8952e-07	431.63	150.21	5.7097e-07	5.8517e-07	174.85	74.194	64.678	29.058	5.2199e-07	36.213	470.394	297.623	274.021	179.448	215.947	360.785	177.994	185.013	212.539	326.967	182.751	186.988	189.634	195.412	275.855	191.322	-8191	255	
2883.827	1	1	0	0	0.1658	0.12772	0.074221	0.19661	0.070404	0.13986	0.05956	0.077616	0.18464	0.11262	0.14412	0.1735	0.14114	0.16038	0.14006	0.063538	-3.625	-4.0062	-3.5333	-4.2354	-3.7458	-3.7479	-4.1188	-3.4896	-3.9854	-4.0667	-3.5146	-4.15	-3.7792	-3.7708	-4.2625	-3.6167	243.328	475.513	313.546	517.462	211.170	245.655	266.023	522.117	486.789	424.411	526.387	440.812	512.637	257.149	488.744	322.709	0.0010926	0.00016521	2.9184e-05	490.62	1.3454e-06	9.7406e-07	494.87	185.45	1.1738e-06	1.2692e-06	222.97	95.794	82.26	37.023	7.3523e-07	48.16	5.7239e-05	5.2474e-05	1.329e-05	432.66	5.9814e-07	5.6395e-07	429.78	151.11	6.0554e-07	5.629e-07	175.31	74.508	65.29	29.141	5.0785e-07	36.257	477.798	293.612	345.216	179.259	232.057	285.384	177.893	185.032	388.182	295.163	182.806	186.850	189.618	195.489	469.812	191.323	-8191	255	
2883.899	1	1	0	0	0.060334	0.10426	0.032595	0.033498	0.09702	0.15117	0.19236	0.25499	0.10442	0.050057	0.20755	0.1262	0.20479	0.14524	0.15443	0.19084	-3.5917	-3.9417	-3.4875	-4.2604	-3.7521	-3.7771	-4.2271	-3.5458	-3.8292	-4.0167	-3.6146	-4.0854	-3.8604	-3.7708	-4.2896	-3.6188	461.051	337.315	518.282	388.595	217.590	230.358	443.303	474.815	216.620	326.707	470.209	402.505	368.102	439.608	219.888	491.473	0.00093844	0.00026115	2.8905e-05	500.67	2.2586e-06	1.4076e-06	507.8	187.38	2.5742e-06	6.4696e-07	227.37	97.484	84.285	38.151	1.4723e-06	49.067	5.869e-05	5.0414e-05	1.3114e-05	441.84	6.1823e-07	5.5131e-07	438.57	154.22	6.1148e-07	5.4373e-07	178.42	76.022	66.634	29.822	4.9582e-07	36.977	472.515	241.098	193.926	179.170	320.209	217.000	177.920	185.035	294.537	361.397	182.930	186.951	189.574	195.806	262.530	191.626	-8191	255	
2884.019	1	1	0	0	0.19263	0.3006	0.028585	0.058916	0.17249	0.19011	0.097708	0.13789	0.11093	0.087828	0.070262	0.038381	0.10705	0.061979	0.23423	0.22685	-3.5167	-4.1875	-3.6333	-4.1146	-3.9125	-3.4292	-4.2458	-3.6958	-3.7708	-4.2688	-3.5667	-4.0563	-4.0521	-3.5417	-4.0854	-3.8	337.480	512.937	388.253	290.231	300.599	484.197	455.764	455.906	479.196	314.183	185.409	449.092	512.792	451.254	357.128	469.231	0.0010643	0.0002056	3.7747e-05	499.62	2.9934e-06	9.8678e-07	506.16	186.84	1.7611e-06	1.0379e-06	225.62	96.659	83.425	37.665	7.3187e-07	48.519	5.7406e-05	4.8686e-05	1.2575e-05	441.53	5.9017e-07	5.3093e-07	435.16	154.28	5.8279e-07	5.2589e-07	177	75.848	65.801	29.481	5.0522e-07	36.779	485.002	282.327	248.857	179.432	285.340	333.671	177.892	184.982	314.656	336.980	182.818	187.193	189.640	195.614	256.397	191.448	-8191	255	
2884.115	1	1	0	0	0.040605	0.077488	0.23776	0.050706	0.19585	0.16743	0.12114	0.33078	0.17953	0.21487	0.20558	0.05941	0.086376	0.23943	0.085879	0.1001	-3.6042	-4.1312	-3.4188	-4.0479	-3.9562	-3.4854	-4.3063	-3.925	-3.7062	-4.2438	-3.675	-3.9979	-4.125	-3.7854	-4.2583	-3.9021	259.281	459.176	438.037	332.766	242.665	493.253	452.782	453.265	517.779	307.021	201.976	416.902	516.338	247.206	372.431	432.589	0.001113	0.00016438	8.0545e-05	495.1	1.5056e-06	2.4307e-07	504.48	184.65	2.1071e-07	1.3403e-06	222.17	95.47	82.06	37.515	7.9589e-07	48.744	5.5515e-05	4.6868e-05	1.3048e-05	440.47	5.6301e-07	5.1607e-07	434.41	152.19	5.5919e-07	5.0759e-07	175.64	75.219	64.955	29.214	5.3467e-07	36.756	475.778	283.165	248.029	179.358	347.346	334.524	177.686	185.251	290.706	357.572	182.846	187.105	189.719	195.531	257.648	191.726	-8191	255	
2884.212	1	1	0	0	0.064585	0.045169	0.16738	0.13509	0.17031	0.14239	0.19174	0.090886	0.20065	0.15328	0.1709	0.20327	0.17388	0.11761	0.053982	0.22318	-3.2021	-4.4187	-3.5458	-4.0312	-4.1937	-3.5583	-4.1542	-3.8979	-3.675	-4.2479	-3.5875	-3.7979	-4.0583	-3.5854	-4.0604	-3.9979	406.230	526.561	400.378	405.619	301.246	395.500	341.906	252.898	203.945	404.635	407.105	394.460	526.449	328.969	221.975	460.850	0.00097691	0.00013492	5.9984e-05	488.08	2.1842e-06	2.0636e-06	497.02	183.14	2.3358e-06	6.4498e-07	220.77	94.887	81.453	37.148	5.8949e-07	47.657	5.3444e-05	4.6032e-05	1.3911e-05	436.15	5.4482e-07	4.9692e-07	431	151.5	5.451e-07	4.9637e-07	175.29	74.611	64.417	28.897	5.8319e-07	36.184	480.970	246.306	220.368	179.191	286.155	357.342	177.850	185.217	272.762	321.430	182.892	187.054	189.570	195.525	187.357	191.530	-8191	255	
2884.308	1	1	0	0	0.15359	0.16715	0.15028	0.071419	0.094186	0.014062	0.068493	0.081796	0.18252	0.12905	0.35673	0.052752	0.09094	0.16116	0.18946	0.02381	-3.2313	-4.3667	-3.5729	-3.8563	-4.2458	-3.5583	-4.0521	-3.8792	-3.5458	-4.1813	-3.7979	-3.7188	-4.2979	-3.725	-4.0062	-4.1438	197.058	352.709	215.194	224.669	251.488	403.758	390.259	385.134	421.715	457.592	390.300	331.557	451.298	441.959	206.868	220.822	0.001033	4.9666e-05	6.107e-05	492.77	1.0152e-06	1.5022e-06	500.01	185.71	2.0968e-06	1.4333e-06	224.03	96.246	82.567	37.509	6.8509e-07	48.309	5.2372e-05	4.6169e-05	1.5198e-05	439.16	5.3961e-07	5.0782e-07	437	152.83	5.3369e-07	5.0664e-07	177.66	75.175	65.262	29.379	6.092e-07	36.492	483.054	323.093	197.529	179.387	265.984	263.539	177.668	185.023	302.741	235.767	182.866	186.939	189.717	195.566	248.848	191.492	-8191	255	
2884.427	1	1	0	0	0.24252	0.2038	0.36948	0.17366	0.13879	0.1724	0.072425	0.10348	0.032608	0.15375	0.062367	0.066849	0.18422	0.042327	0.19358	0.23412	-3.1063	-3.9437	-3.725	-3.6646	-4.2104	-3.6	-4.1229	-4.0188	-3.4688	-4.2521	-3.8063	-3.6813	-4.3604	-3.6729	-3.9646	-4.2271	431.603	207.428	459.598	409.551	296.540	212.115	370.504	398.664	260.482	461.660	435.152	306.326	195.596	226.244	321.057	434.499	0.0010529	2.5421e-05	8.8082e-05	494.41	1.3744e-06	1.2824e-06	500.92	186.54	1.8287e-06	1.0545e-07	224.04	96.208	82.962	37.377	1.2971e-06	48.395	5.0946e-05	4.7541e-05	1.5605e-05	438.97	5.1119e-07	5.3145e-07	436.45	153.16	5.1297e-07	5.3663e-07	177.73	74.949	65.105	29.253	6.0632e-07	36.336	479.316	478.241	250.300	179.397	323.576	239.480	178.097	185.220	286.683	391.185	183.001	186.833	189.610	195.981	306.724	191.543	-8191	255	
2884.498	1	1	0	0	0.023288	0.14406	0.034386	0.05314	0.21935	0.058173	0.14419	0.35663	0.26224	0.1528	0.2124	0.19514	0.19768	0.059574	0.038017	0.015692	-3.2521	-3.9708	-3.8312	-3.5958	-4.2125	-3.7083	-3.8333	-4.1708	-3.5604	-4.2063	-3.9771	-3.4792	-4.1083	-3.6958	-3.8458	-4.1937	372.024	172.597	249.472	454.623	484.275	310.987	177.523	393.487	420.960	196.466	375.773	181.177	424.550	377.762	250.510	197.963	0.0010779	0.00011113	5.7159e-05	490.01	4.6289e-07	3.0292e-06	500	185.23	2.0293e-06	1.9774e-06	221.44	95.172	82.128	37.411	1.5532e-06	48.172	4.9005e-05	5.066e-05	1.5352e-05	435.34	4.9648e-07	5.6795e-07	433.53	151.07	4.9978e-07	5.803e-07	175.52	74.51	64.585	29.245	5.8074e-07	36.342	476.810	235.362	300.341	179.432	381.576	213.021	178.207	185.060	299.803	276.579	182.812	186.803	189.549	195.446	269.838	191.606	-8191	255	
2884.596	1	1	0	0	0.17129	0.16023	0.09663	0.12331	0.26381	0.051418	0.079179	0.16165	0.20525	0.069284	0.11365	0.21785	0.13869	0.12385	0.13926	0.19996	-3.1792	-3.9354	-3.9542	-3.5896	-4.3417	-3.7167	-3.775	-4.125	-3.4729	-4.0104	-4.075	-3.4583	-4.2396	-3.8563	-3.5146	-4.2875	291.938	246.919	270.149	188.334	252.035	324.894	240.759	194.895	337.970	365.570	226.655	315.170	477.877	297.493	440.524	228.195	0.0011598	0.00014322	5.013e-05	491.73	1.7283e-06	7.4983e-07	498.71	183.17	1.4001e-06	8.6412e-07	222.51	95.823	82.383	37.48	3.2738e-07	48.607	4.8673e-05	5.4334e-05	1.4623e-05	433.56	5.0333e-07	5.9273e-07	432.92	150.82	5.0775e-07	5.981e-07	176.17	74.722	64.966	29.453	5.606e-07	36.523	480.467	197.505	271.732	179.171	278.180	207.282	177.735	185.011	270.312	243.943	183.039	186.854	189.664	195.475	375.053	191.494	-8191	255	
2884.715	1	1	0	0	0.13299	0.15742	0.15523	0.26742	0.093528	0.10513	0.21779	0.19679	0.17762	0.041224	0.10883	0.13985	0.12175	0.11501	0.30498	0.24801	-3.3167	-4.0854	-4.1042	-3.5917	-4.1375	-4	-3.5563	-4.2688	-3.7833	-3.8042	-4.1333	-3.5229	-4.0854	-4.0917	-3.5687	-4.1021	255.610	461.595	355.136	209.746	280.548	414.597	479.124	506.505	332.202	260.915	433.719	409.472	186.529	222.746	381.702	451.475	0.0012329	0.00014963	3.6963e-05	501	1.7108e-06	9.1331e-07	506.66	187.25	1.267e-06	1.9182e-06	224.59	96.546	83.89	37.939	4.5186e-07	48.941	5.1998e-05	5.5919e-05	1.4078e-05	441.91	5.4408e-07	6.1607e-07	439.92	152.53	5.5883e-07	6.0808e-07	177.27	75.311	65.916	29.838	5.4095e-07	36.76	477.623	223.077	265.194	179.386	218.519	471.729	178.101	184.891	279.684	328.715	182.673	186.818	189.576	195.519	225.183	191.262	-8191	255	
2884.811	1	1	0	0	0.10447	0.22459	0.1148	0.3143	0.15747	0.14335	0.18473	0.055337	0.19941	0.1194	0.10836	0.11498	0.16127	0.2101	0.18887	0.13649	-3.1354	-3.9167	-4.0729	-3.5521	-3.9958	-3.9062	-3.6625	-4.2333	-3.8229	-3.8583	-4.3146	-3.5792	-4.1375	-3.9979	-3.6125	-4.3021	446.006	263.502	297.468	518.445	176.760	454.183	432.538	265.348	484.481	390.300	387.539	436.190	186.073	465.779	413.632	327.025	0.0011985	0.00020242	1.7409e-05	497.68	6.863e-07	9.403e-07	502.89	186.31	6.8432e-07	7.0969e-07	223.86	96.307	82.8	37.542	1.088e-06	48.553	5.5601e-05	5.44e-05	1.361e-05	438.09	5.8455e-07	5.9014e-07	434.58	152.13	5.946e-07	5.8194e-07	176.02	74.863	65.56	29.47	5.225e-07	36.444	473.648	307.564	325.597	179.431	221.660	218.531	177.779	184.964	262.523	287.044	183.060	187.018	190.023	195.837	301.824	191.487	-8191	255	
2884.907	1	1	0	0	0.14987	0.11547	0.19168	0.2056	0.12626	0.13191	0.36548	0.11136	0.061983	0.26047	0.22773	0.14746	0.11859	0.16279	0.038857	0.092259	-3.4708	-3.6542	-4.0708	-3.5875	-3.9729	-4.0875	-3.6271	-4.0667	-3.7229	-3.8042	-4.5771	-3.7292	-4.0458	-4.2083	-3.55	-4.1833	408.204	430.927	217.914	476.341	446.122	478.240	420.308	336.587	312.996	269.236	250.722	188.151	176.790	425.193	423.755	271.205	0.0010359	0.00018404	7.1904e-05	494.47	1.4166e-06	8.7907e-07	497.08	183.68	1.4447e-06	1.9302e-06	221.81	95.207	81.703	37.257	1.057e-06	48.417	5.8335e-05	5.2243e-05	1.3171e-05	435.84	6.1162e-07	5.6137e-07	430.14	150.39	6.1445e-07	5.5176e-07	174.02	74.525	64.965	29.153	5.098e-07	36.33	477.680	243.047	276.885	179.542	277.526	287.830	177.861	185.089	167.519	384.890	183.032	187.146	189.578	195.819	473.085	190.992	-8191	255	
2885.028	1	1	0	0	0.29169	0.1261	0.21073	0.1006	0.10069	0.13643	0.18613	0.18884	0.067771	0.12867	0.045874	0.095487	0.24737	0.053736	0.22443	0.039502	-3.2729	-3.6625	-4.0333	-3.6021	-3.8604	-4.1625	-3.6125	-3.9562	-3.9146	-3.7854	-4.0708	-3.6875	-3.8563	-4.2792	-3.6437	-4.3958	450.495	192.618	199.567	455.631	273.689	290.168	411.935	439.370	283.481	455.273	348.222	493.180	525.489	277.375	281.601	210.387	0.00099985	0.00012961	3.4002e-05	491.09	9.494e-07	1.6957e-06	490.75	183.04	1.4656e-06	1.3224e-06	219.7	94.15	81.746	36.746	6.3442e-07	47.405	5.9513e-05	5.0509e-05	1.2755e-05	432.83	6.0977e-07	5.4605e-07	425.26	150.41	6.1628e-07	5.4998e-07	172.98	74.133	64.67	28.805	5.1312e-07	35.953	482.507	246.080	218.775	179.186	360.151	259.550	177.681	184.993	338.321	247.753	182.827	186.801	189.683	195.326	199.226	191.492	-8191	255	
2885.124	1	1	0	0	0.1619	0.075077	0.06048	0.23731	0.097481	0.019811	0.24613	0.074094	0.29522	0.13822	0.20202	0.15385	0.12081	0.15324	0.2844	0.054611	-3.5875	-3.4604	-4.1312	-3.7687	-3.7812	-4.1125	-3.6104	-4.0625	-3.8438	-3.6188	-4.0729	-3.7375	-3.6771	-4.2375	-3.5375	-4.0146	237.196	523.880	392.717	315.321	427.683	356.281	253.867	415.810	430.244	246.408	317.661	496.943	174.380	517.495	239.347	485.754	0.0010131	4.932e-05	4.6938e-05	489.66	1.7184e-06	4.2419e-07	494.44	184.83	2.0034e-06	1.4417e-06	222.39	95.158	82.55	37.489	1.2154e-06	48.318	5.8385e-05	4.9607e-05	1.3016e-05	436.61	6.033e-07	5.4434e-07	429.68	152.3	5.9942e-07	5.4148e-07	174.87	75.054	65.591	29.29	5.3277e-07	36.492	475.296	394.792	247.380	179.135	301.897	282.487	177.587	184.839	234.422	291.139	182.823	186.729	189.532	195.368	265.209	191.365	-8191	255	
2885.196	1	1	0	0	0.23123	0.23051	0.12626	0.14164	0.12646	0.12973	0.16164	0.18379	0.069083	0.01365	0.16183	0.15558	0.29365	0.17997	0.10321	0.20699	-3.5333	-3.3333	-4.2479	-3.7687	-3.7458	-4.125	-3.6063	-3.7271	-4.2708	-3.5146	-3.9917	-3.8375	-3.7875	-4.2458	-3.4854	-4.0083	374.481	251.198	355.801	377.418	369.134	358.781	458.351	182.444	210.712	368.337	463.727	467.832	497.503	245.504	196.235	417.579	0.00099418	0.00018497	1.5107e-05	491.26	6.878e-07	9.8017e-07	495.01	186.6	1.4889e-06	6.6298e-07	223.11	96.156	82.979	37.622	9.5574e-07	48.33	5.5945e-05	4.8135e-05	1.3573e-05	437.46	5.6584e-07	5.1636e-07	429.97	153.98	5.585e-07	5.1208e-07	175.7	75.579	65.478	29.326	5.618e-07	36.547	476.642	260.594	261.181	179.413	293.826	340.942	178.167	185.094	358.964	276.512	182.627	186.877	189.516	195.538	254.357	191.180	-8191	255	
2885.316	1	1	0	0	0.17962	0.19151	0.23746	0.27957	0.058062	0.18226	0.24958	0.056839	0.09013	0.069255	0.10891	0.21221	0.058892	0.12546	0.2002	0.077294	-3.6375	-3.3833	-4.1333	-3.8271	-3.3896	-4.1458	-3.6229	-3.6771	-3.9375	-3.5479	-4.0083	-3.9792	-3.4917	-4.4	-3.5271	-3.6958	215.675	363.079	269.431	190.712	285.612	182.588	455.080	239.767	496.422	347.804	203.287	360.361	279.729	213.503	175.277	399.256	0.001065	0.00012044	5.6859e-05	491.98	1.8849e-06	6.5226e-07	500.1	184.57	5.4592e-07	9.785e-07	222.1	95.509	82.064	37.35	1.6136e-06	48.52	5.3602e-05	4.6333e-05	1.4424e-05	437.93	5.5013e-07	5.0156e-07	434.55	151.93	5.4154e-07	5.0691e-07	175.91	74.881	64.77	29.154	5.9909e-07	36.566	485.286	202.929	198.776	179.552	349.690	257.402	178.113	184.744	199.589	302.922	182.700	186.781	189.786	195.442	267.706	191.628	-8191	255	
2885.411	1	1	0	0	0.13426	0.021097	0.18171	0.14416	0.14805	0.15805	0.075659	0.055552	0.15011	0.18767	0.089318	0.12979	0.02567	0.3468	0.16775	0.14113	-3.6312	-3.4375	-3.9354	-4.0563	-3.7583	-4.1396	-3.7333	-3.8063	-4.2833	-3.5979	-4.0146	-3.9708	-3.6271	-4.2333	-3.7	-3.7042	275.137	425.380	365.387	335.134	352.758	210.778	218.683	377.931	202.052	231.325	312.550	404.675	260.056	471.283	243.672	246.193	0.00099962	0.00026247	2.7371e-05	490.2	1.6899e-06	2.5699e-06	498.76	183.77	1.3966e-06	4.9514e-07	222.9	95.777	82.259	37.503	5.6769e-07	48.636	5.114e-05	4.5965e-05	1.5258e-05	435.71	5.2064e-07	5.02e-07	432.99	151.62	5.1716e-07	5.1405e-07	176.77	74.965	64.757	29.245	6.1442e-07	36.504	481.138	244.885	181.545	179.490	311.925	266.417	178.080	185.080	288.975	240.327	182.879	187.192	189.573	195.605	490.778	191.623	-8191	255	
2885.507	1	1	0	0	0.24996	0.17517	0.29491	0.052998	0.1373	0.17272	0.16285	0.093995	0.042679	0.17677	0.19235	0.27157	0.18608	0.04057	0.072985	0.1355	-3.7417	-3.575	-3.9417	-4.075	-3.3542	-4.1	-3.8312	-3.6937	-4.1792	-3.7313	-3.9083	-4.2104	-3.3854	-4.1479	-4.0479	-3.6042	323.874	519.464	405.509	278.289	396.297	252.076	223.624	395.853	283.659	412.186	485.332	464.248	335.474	496.928	447.792	413.378	0.00096543	0.00015026	4.6038e-05	497.58	2.7193e-06	1.0758e-06	501.92	185.64	1.5611e-06	7.5164e-07	224.31	96.721	83.519	37.918	1.0157e-06	48.647	4.9368e-05	4.9049e-05	1.5648e-05	439.45	5.1429e-07	5.4359e-07	438.1	152.62	5.0815e-07	5.5726e-07	177.85	75.452	65.641	29.679	6.1079e-07	36.713	474.632	522.551	203.101	179.532	308.843	250.939	177.850	185.002	303.217	259.541	182.571	187.067	189.615	195.616	209.192	191.372	-8191	255	
2885.603	1	1	0	0	0.10038	0.17955	0.16021	0.13711	0.15752	0.19932	0.19807	0.21497	0.16484	0.085844	0.082197	0.14011	0.41678	0.17368	0.17201	0.26107	-3.7771	-3.675	-3.8708	-4.0396	-3.4667	-4.1167	-3.9583	-3.7292	-4.2479	-3.8229	-3.7792	-4.1813	-3.7021	-4.0604	-4.0667	-3.5062	324.285	168.392	385.594	274.525	457.982	481.807	227.208	329.525	454.575	520.460	184.681	483.550	179.168	518.974	400.027	476.432	0.0010794	0.00017921	4.4493e-05	496.01	1.0722e-06	3.6788e-07	495.86	187.68	1.1012e-06	1.0354e-06	224.74	96.578	83.547	37.639	1.4298e-07	48.6	4.8772e-05	5.2866e-05	1.5095e-05	438.09	5.0455e-07	5.8578e-07	433.69	153.41	4.9799e-07	5.9616e-07	177.15	75.143	65.606	29.616	5.7828e-07	36.469	476.787	263.317	273.306	179.287	308.557	275.386	177.583	184.917	278.344	245.900	182.885	186.943	189.676	195.706	513.199	191.661	-8191	255	
2885.724	1	1	0	0	0.24299	0.021945	0.29397	0.24801	0.12555	0.1974	0.22749	0.11495	0.091296	0.24881	0.10445	0.050803	0.35014	0.2997	0.18793	0.24197	-3.8063	-3.8	-3.5396	-4.1792	-3.575	-4.1146	-4.0437	-3.5479	-4.2333	-3.7438	-3.8042	-4.2354	-3.4562	-3.8125	-4.1417	-3.7562	347.022	198.009	518.195	236.728	275.796	202.296	444.480	215.224	387.299	290.732	298.063	259.803	456.699	510.612	457.999	341.001	0.0011437	0.00021125	1.4637e-05	492.37	1.159e-06	7.6653e-07	495.43	184.65	1.6394e-06	1.2003e-06	221.29	95.586	82.393	37.237	8.6113e-07	48.456	5.0149e-05	5.5849e-05	1.4551e-05	434.92	5.2385e-07	6.1156e-07	430.37	150.83	5.2532e-07	6.1124e-07	174.8	74.436	64.913	29.315	5.517e-07	36.349	477.539	240.792	242.139	179.475	257.141	298.321	177.757	185.114	242.055	318.398	182.848	186.821	189.544	195.371	301.171	191.471	-8191	255	
2885.795	1	1	0	0	0.104	0.12449	0.11036	0.29027	0.21262	0.09226	0.21741	0.15393	0.1814	0.074751	0.10408	0.09663	0.27343	0.20207	0.030691	0.23743	-3.7708	-3.7667	-3.625	-4.2208	-3.65	-3.9958	-4.2729	-3.5729	-4.0479	-3.7792	-3.7125	-4.2583	-3.8271	-3.8167	-4.0938	-3.5458	404.715	503.165	300.484	499.788	366.628	381.131	418.989	390.574	403.449	189.960	171.821	373.089	392.664	472.741	454.029	494.747	0.0011836	0.00012803	5.9689e-05	485.52	1.4447e-06	2.1683e-06	491.64	183.45	1.0211e-06	1.4376e-06	219.54	95.326	81.862	36.985	5.1059e-07	47.878	5.2896e-05	5.5775e-05	1.3979e-05	430.01	5.5418e-07	6.0867e-07	427.71	149.94	5.659e-07	5.9963e-07	173.99	74.077	64.8	29.067	5.3189e-07	35.952	475.405	284.241	300.363	179.624	301.757	281.311	177.521	185.278	184.297	317.325	182.919	187.064	189.594	195.660	346.510	191.250	-8191	255	
#DATA ENDS
