BOXY.EXE: ISS Imagent and Oximeter Data Acquisition Program Version 0.80
Ascii Record File

#ACQ INFORMATION
2  Detector Channels 
16  External MUX Channels 
1  Auxiliary Channels 
5000  Waveform (CCF) Frequency (Hz)
1  Waveforms Skipped 
30  Waveforms Averaged 
1  Cycles Averaged 
16  Acquisitions per Waveform 
10.0806  Updata Rate (Hz) 

#FILE INFORMATION
TRUE -- External MUX Channel results are PARSED.
FALSE -- AC DC and Phase are NOT grouped.
TRUE -- Companion Program Settings File CREATED.
FALSE -- AC data not excluded
FALSE -- DC data not excluded
FALSE -- Phase data not excluded
FALSE -- Auxillary Chn. data not excluded
Tab delimiters

#CALIBRATION STATE
TRUE -- Waveform Calibration Values APPLIED.


#AUX CALIBRATION VALUES
Val Type	aux-1	

Term	1.0000e+00	
Factor	0.0000e+00	


#WF CALIBRATION VALUES
A = Detector Channel
Val Type	A-AC1	A-AC2	A-AC3	A-AC4	A-AC5	A-AC6	A-AC7	A-AC8	A-AC9	A-AC10	A-AC11	A-AC12	A-AC13	A-AC14	A-AC15	A-AC16	A-DC1	A-DC2	A-DC3	A-DC4	A-DC5	A-DC6	A-DC7	A-DC8	A-DC9	A-DC10	A-DC11	A-DC12	A-DC13	A-DC14	A-DC15	A-DC16	A-Ph1	A-Ph2	A-Ph3	A-Ph4	A-Ph5	A-Ph6	A-Ph7	A-Ph8	A-Ph9	A-Ph10	A-Ph11	A-Ph12	A-Ph13	A-Ph14	A-Ph15	A-Ph16	

Term	0.00000e+00	0.00000e+00	0.00000e+00	0.00000e+00	0.00000e+00	0.00000e+00	0.00000e+00	0.00000e+00	0.00000e+00	0.00000e+00	0.00000e+00	0.00000e+00	0.00000e+00	0.00000e+00	0.00000e+00	0.00000e+00	0.00000e+00	0.00000e+00	0.00000e+00	0.00000e+00	0.00000e+00	0.00000e+00	0.00000e+00	0.00000e+00	0.00000e+00	0.00000e+00	0.00000e+00	0.00000e+00	0.00000e+00	0.00000e+00	0.00000e+00	0.00000e+00	0.00000e+00	0.00000e+00	0.00000e+00	0.00000e+00	0.00000e+00	0.00000e+00	0.00000e+00	0.00000e+00	0.00000e+00	0.00000e+00	0.00000e+00	0.00000e+00	0.00000e+00	0.00000e+00	0.00000e+00	0.00000e+00	
Factor	1.00000e+00	1.00000e+00	1.00000e+00	1.00000e+00	1.00000e+00	1.00000e+00	1.00000e+00	1.00000e+00	1.00000e+00	1.00000e+00	1.00000e+00	1.00000e+00	1.00000e+00	1.00000e+00	1.00000e+00	1.00000e+00	1.00000e+00	1.00000e+00	1.00000e+00	1.00000e+00	1.00000e+00	1.00000e+00	1.00000e+00	1.00000e+00	1.00000e+00	1.00000e+00	1.00000e+00	1.00000e+00	1.00000e+00	1.00000e+00	1.00000e+00	1.00000e+00	X	X	X	X	X	X	X	X	X	X	X	X	X	X	X	X	

B = Detector Channel
Val Type	B-AC1	B-AC2	B-AC3	B-AC4	B-AC5	B-AC6	B-AC7	B-AC8	B-AC9	B-AC10	B-AC11	B-AC12	B-AC13	B-AC14	B-AC15	B-AC16	B-DC1	B-DC2	B-DC3	B-DC4	B-DC5	B-DC6	B-DC7	B-DC8	B-DC9	B-DC10	B-DC11	B-DC12	B-DC13	B-DC14	B-DC15	B-DC16	B-Ph1	B-Ph2	B-Ph3	B-Ph4	B-Ph5	B-Ph6	B-Ph7	B-Ph8	B-Ph9	B-Ph10	B-Ph11	B-Ph12	B-Ph13	B-Ph14	B-Ph15	B-Ph16	

Term	0.00000e+00	0.00000e+00	0.00000e+00	0.00000e+00	0.00000e+00	0.00000e+00	0.00000e+00	0.00000e+00	0.00000e+00	0.00000e+00	0.00000e+00	0.00000e+00	0.00000e+00	0.00000e+00	0.00000e+00	0.00000e+00	0.00000e+00	0.00000e+00	0.00000e+00	0.00000e+00	0.00000e+00	0.00000e+00	0.00000e+00	0.00000e+00	0.00000e+00	0.00000e+00	0.00000e+00	0.00000e+00	0.00000e+00	0.00000e+00	0.00000e+00	0.00000e+00	-7.26684e+01	-1.29267e+02	-1.24907e+02	-1.81870e+02	-5.07789e+01	-7.05107e+01	-1.57448e+02	-1.62015e+02	-4.62257e+01	-6.38428e+01	-1.71264e+02	-1.72441e+02	-1.82777e+02	-1.77174e+02	-5.93073e+01	-1.49710e+02	
Factor	1.61401e-05	1.59208e-04	4.37177e-05	1.47657e-01	1.35887e-06	1.73276e-06	1.65095e-01	4.93827e-02	1.11487e-06	1.79644e-06	7.99830e-02	3.23445e-02	3.45062e-02	8.62477e-03	1.51567e-06	1.23023e-02	1.56454e-05	4.14206e-05	1.16575e-05	7.63936e-02	3.74041e-07	4.77579e-07	8.05275e-02	2.56400e-02	3.72120e-07	4.73555e-07	4.04468e-02	1.64577e-02	1.81944e-02	4.52542e-03	4.11768e-07	6.25502e-03	X	X	X	X	X	X	X	X	X	X	X	X	X	X	X	X	



#DISTANCE SETTINGS
A = Detector Channel
A-1	A-2	A-3	A-4	A-5	A-6	A-7	A-8	A-9	A-10	A-11	A-12	A-13	A-14	A-15	A-16	

2.5000e+00	3.0000e+00	2.5000e+00	3.0000e+00	2.0000e+00	3.0000e+00	1.5000e+00	3.0000e+00	3.0000e+00	3.0000e+00	3.0000e+00	3.0000e+00	3.0000e+00	3.0000e+00	1.5000e+00	3.0000e+00	

B = Detector Channel
B-1	B-2	B-3	B-4	B-5	B-6	B-7	B-8	B-9	B-10	B-11	B-12	B-13	B-14	B-15	B-16	

1.0000e+01	1.0000e+01	1.0000e+01	1.4400e+00	1.0000e+01	1.0000e+01	1.5100e+00	1.9400e+00	1.0000e+01	1.0000e+01	1.9900e+00	2.4900e+00	2.4100e+00	2.9000e+00	1.0000e+01	2.9800e+00	




#DATA BEGINS
time	group	step	mark	flag	A-AC1	A-AC2	A-AC3	A-AC4	A-AC5	A-AC6	A-AC7	A-AC8	A-AC9	A-AC10	A-AC11	A-AC12	A-AC13	A-AC14	A-AC15	A-AC16	A-DC1	A-DC2	A-DC3	A-DC4	A-DC5	A-DC6	A-DC7	A-DC8	A-DC9	A-DC10	A-DC11	A-DC12	A-DC13	A-DC14	A-DC15	A-DC16	A-Ph1	A-Ph2	A-Ph3	A-Ph4	A-Ph5	A-Ph6	A-Ph7	A-Ph8	A-Ph9	A-Ph10	A-Ph11	A-Ph12	A-Ph13	A-Ph14	A-Ph15	A-Ph16	B-AC1	B-AC2	B-AC3	B-AC4	B-AC5	B-AC6	B-AC7	B-AC8	B-AC9	B-AC10	B-AC11	B-AC12	B-AC13	B-AC14	B-AC15	B-AC16	B-DC1	B-DC2	B-DC3	B-DC4	B-DC5	B-DC6	B-DC7	B-DC8	B-DC9	B-DC10	B-DC11	B-DC12	B-DC13	B-DC14	B-DC15	B-DC16	B-Ph1	B-Ph2	B-Ph3	B-Ph4	B-Ph5	B-Ph6	B-Ph7	B-Ph8	B-Ph9	B-Ph10	B-Ph11	B-Ph12	B-Ph13	B-Ph14	B-Ph15	B-Ph16	aux-1	digaux	

25108.791	1	1	0	256	0.15112	0.15313	0.098635	0.042715	0.13206	0.31554	0.17588	0.045004	0.11777	0.054926	0.12952	0.1055	0.20774	0.10325	0.19301	0.18561	-4.2771	-4.2208	-4.5771	-4.5979	-4.3125	-4.7562	-4.25	-4.5875	-4.5896	-3.975	-4.5875	-4.5938	-4.2104	-4.9083	-4.3562	-4.4104	260.757	99.979	228.125	235.036	96.126	110.731	198.366	211.817	71.743	111.761	184.982	-59.700	-48.412	44.480	101.122	181.479	6.0685e-05	0.00028046	6.3806e-05	1080.9	1.7739e-06	3.2578e-06	1158.9	221.62	2.9937e-07	3.0602e-06	277.6	79.036	61.822	17.937	1.8371e-06	25.555	0.00015626	0.00017992	4.2453e-05	1056.6	2.365e-06	1.5342e-06	1135.5	219.48	1.9195e-06	1.7847e-06	275.68	79.509	62.092	17.979	1.7697e-06	25.561	200.390	47.779	29.165	-51.811	123.573	101.308	-51.310	-44.277	197.593	99.396	-44.739	-37.771	-37.425	-31.028	91.674	-31.153	-8191	255	
25108.912	1	1	0	0	0.20929	0.31322	0.1216	0.046207	0.043102	0.19044	0.41258	0.064324	0.1557	0.19941	0.068676	0.14782	0.20249	0.24882	0.13865	0.13109	-4.3125	-4.0021	-4.6062	-4.65	-4.1937	-4.8938	-4.5042	-4.4292	-4.7375	-4.2479	-4.7937	-4.6208	-4.2542	-4.6667	-4.3104	-4.3688	6.196	50.493	143.636	246.117	-1.840	-60.908	199.443	77.238	167.297	284.411	288.738	245.551	294.048	36.671	-61.189	207.156	7.2597e-05	0.00033124	8.2354e-05	1075.8	2.1274e-06	2.6117e-06	1151.1	221.14	8.1829e-07	3.1954e-06	279.32	78.729	61.621	18.044	1.2236e-06	25.356	0.00015753	0.00015999	4.1943e-05	1052.5	2.0993e-06	1.4009e-06	1130.9	219.28	1.9676e-06	1.5775e-06	275.9	79.181	62.067	18.014	1.8967e-06	25.494	188.292	54.443	21.480	-51.854	146.280	95.666	-51.780	-44.405	72.047	78.294	-44.494	-37.861	-37.165	-30.863	96.098	-31.237	-8191	255	
25109.006	1	1	0	0	0.11735	0.17693	0.057436	0.099576	0.1429	0.13941	0.17941	0.19532	0.17583	0.13137	0.28243	0.21485	0.13838	0.23758	0.11357	0.23183	-4.4479	-3.9646	-4.4979	-4.7417	-4.0208	-4.7771	-4.5396	-4.3271	-4.7396	-4.1667	-4.475	-4.6917	-4.1562	-4.5188	-4.4729	-4.1583	231.729	79.421	223.572	-37.505	292.883	117.831	252.815	237.198	258.234	188.705	130.030	75.029	5.042	229.611	112.258	-61.705	6.2258e-05	0.000251	8.9965e-05	1069.8	1.1087e-06	3.7021e-06	1141.4	221.12	1.5203e-06	2.738e-06	277.7	78.232	61.74	17.855	2.4977e-06	25.294	0.00015538	0.00015628	3.9806e-05	1048.6	2.2552e-06	1.7412e-06	1125.6	218.59	1.8761e-06	1.6269e-06	274.08	78.938	61.875	17.921	1.6393e-06	25.409	194.011	26.768	29.586	-51.780	141.581	77.503	-51.254	-44.259	119.265	107.522	-44.546	-37.763	-37.315	-30.535	95.952	-30.948	-8191	255	
25109.102	1	1	0	0	0.12604	0.098737	0.098149	0.17602	0.12718	0.10908	0.26127	0.30034	0.19677	0.14787	0.13621	0.11692	0.20684	0.075492	0.18008	0.26365	-4.3479	-4.2083	-4.4417	-4.8438	-4.0396	-4.5958	-4.6896	-4.2083	-4.8104	-4.2625	-4.3896	-4.7792	-4.0542	-4.6	-4.625	-4.0375	72.643	-7.063	181.937	-35.713	20.732	179.741	211.292	-13.884	-56.509	184.092	196.386	198.750	-44.665	210.412	-34.898	259.676	6.4666e-05	0.00025213	0.00010816	1070.5	1.7015e-06	2.4765e-06	1138.5	220.02	1.7728e-06	4.401e-06	275.94	78.831	61.743	17.769	2.5044e-06	25.248	0.00014234	0.00013177	3.7256e-05	1044.7	2.1671e-06	1.4576e-06	1119.1	217.42	1.9792e-06	1.5834e-06	273.65	78.971	61.655	17.855	1.3992e-06	25.314	203.442	53.143	39.383	-51.668	129.153	77.929	-51.553	-44.178	122.309	91.623	-44.551	-37.512	-37.464	-30.913	90.777	-31.040	-8191	255	
25109.176	1	1	0	0	0.083974	0.09518	0.06367	0.19142	0.17386	0.031955	0.12245	0.065464	0.071822	0.14753	0.39963	0.16206	0.096229	0.33767	0.082895	0.30422	-4.4938	-4.3438	-4.2833	-4.8187	-4.0521	-4.5625	-4.7271	-4.1687	-4.7375	-4.4313	-4.3229	-4.8104	-4.1917	-4.3604	-4.5292	-4.175	-39.078	97.594	77.752	-59.794	160.303	228.925	139.760	12.193	235.790	240.168	274.153	3.142	10.892	235.423	138.906	230.927	6.9714e-05	0.00028165	0.0001014	1062.5	1.3246e-06	5.1546e-06	1137	218.76	1.2775e-06	3.8352e-06	277.59	77.929	61.039	17.822	1.7909e-06	25.272	0.00014791	0.00013764	3.6041e-05	1040.9	2.0705e-06	1.584e-06	1116.2	216.92	1.8087e-06	1.5716e-06	273.85	78.699	61.335	17.866	1.5879e-06	25.337	203.603	40.408	18.252	-51.630	109.115	88.220	-51.315	-43.981	134.620	105.371	-44.414	-37.568	-37.439	-30.366	88.385	-31.142	-8191	255	
25109.295	1	1	0	0	0.088458	0.074313	0.076253	0.32554	0.10176	0.099756	0.23588	0.1475	0.055978	0.055799	0.11389	0.17139	0.069168	0.21526	0.15479	0.11459	-4.3854	-4.4437	-4.2917	-4.8979	-4.2479	-4.4521	-4.8896	-4.2021	-4.5958	-4.4625	-4.2021	-4.8542	-4.3438	-4.5792	-4.6792	-4.1854	47.074	0.689	156.832	280.455	-29.659	-21.870	249.623	274.402	80.893	174.547	253.993	7.386	242.525	284.092	142.084	166.986	7.2672e-05	0.00038908	8.2287e-05	1065.1	2.0714e-06	1.7162e-06	1141.5	219.56	4.4443e-07	3.6893e-06	274.84	78.533	61.527	17.784	1.819e-06	25.034	0.00014553	0.00015093	3.5288e-05	1041.3	2.1562e-06	1.4268e-06	1119.7	217.19	1.6443e-06	1.3753e-06	273.36	78.663	61.616	17.839	1.2936e-06	25.306	205.727	23.455	15.281	-51.669	123.533	71.841	-51.473	-44.123	42.841	77.600	-44.621	-37.380	-37.881	-30.724	117.564	-30.829	-8191	255	
25109.391	1	1	0	0	0.11442	0.16685	0.27107	0.25688	0.063079	0.36786	0.1285	0.14701	0.22229	0.1776	0.15117	0.055764	0.24791	0.21701	0.050451	0.24793	-4.1542	-4.5062	-4.2271	-4.9917	-4.175	-4.325	-4.9292	-4.1562	-4.6333	-4.6521	-4.1917	-4.6937	-4.4792	-4.3229	-4.6562	-4.3792	210.624	254.083	-49.295	281.841	26.502	80.486	-43.214	260.484	0.445	-25.680	253.754	66.880	231.024	-47.665	-38.038	249.019	5.2613e-05	0.000284	7.8512e-05	1059.3	1.4536e-06	2.4233e-06	1132.7	218.6	1.7233e-07	2.8395e-06	276.23	78.777	61.021	17.867	1.8074e-06	24.879	0.00014736	0.00013013	3.949e-05	1038.6	2.3526e-06	1.1532e-06	1113.1	217.03	1.8164e-06	1.249e-06	272.72	78.618	61.312	17.832	1.2344e-06	25.186	213.142	34.516	25.324	-51.408	125.442	96.681	-51.397	-44.112	169.647	119.857	-44.718	-37.607	-37.557	-30.680	88.769	-31.042	-8191	255	
25109.486	1	1	0	0	0.26969	0.10912	0.17901	0.26425	0.053429	0.14316	0.29928	0.20554	0.074829	0.077808	0.19018	0.1498	0.070241	0.045771	0.088772	0.18615	-4.1562	-4.7604	-4.0896	-4.7562	-4.4021	-4.2833	-4.7667	-4.2063	-4.7042	-4.6833	-4.1458	-4.6104	-4.4396	-4.3521	-4.7854	-4.3667	128.175	160.573	279.648	276.210	-41.799	151.047	221.552	140.514	-14.992	248.180	227.867	220.887	91.604	196.533	-49.119	285.113	7.0022e-05	0.00018143	0.00011722	1059.3	2.3428e-06	3.9977e-06	1135.5	218.93	2.0084e-06	3.0976e-06	273.85	78.37	61.033	17.792	2.6254e-06	25.233	0.00014557	0.00012892	3.8834e-05	1037.7	2.3448e-06	1.5482e-06	1112.9	216.64	1.9265e-06	1.2697e-06	272.03	78.609	61.341	17.824	1.2499e-06	25.247	216.526	21.150	26.797	-51.408	133.758	74.216	-51.192	-44.370	93.402	94.932	-44.327	-37.540	-37.402	-30.594	101.228	-31.069	-8191	255	
25109.582	1	1	0	0	0.17431	0.1005	0.056279	0.069181	0.06344	0.12856	0.23144	0.1316	0.15511	0.19768	0.13572	0.036633	0.028521	0.30673	0.15712	0.21901	-4.0604	-4.6312	-4.0208	-4.7312	-4.4542	-4.2438	-4.9667	-4.3729	-4.2188	-4.7063	-4.2812	-4.5208	-4.625	-4.2438	-4.7646	-4.3104	169.245	177.864	72.780	186.394	103.797	203.388	145.298	-49.358	227.410	135.936	-13.105	51.382	171.877	72.381	237.690	244.509	6.0883e-05	0.00025509	8.2599e-05	1062.1	1.4375e-06	4.2251e-06	1130.6	218.34	1.757e-06	4.4573e-06	275.49	78.464	61.015	17.577	3.17e-06	25.056	0.0001428	0.00011874	3.422e-05	1036.8	2.0635e-06	1.388e-06	1112.2	216.34	1.9885e-06	1.03e-06	273.04	78.755	61.297	17.762	1.261e-06	25.219	206.942	38.920	27.065	-51.772	121.076	93.213	-51.368	-44.206	123.666	101.460	-44.748	-37.585	-37.167	-30.629	88.626	-30.878	-8191	255	
25109.703	1	1	0	0	0.08505	0.049464	0.031451	0.13241	0.097742	0.15765	0.18034	0.076717	0.048643	0.017289	0.093291	0.20691	0.05352	0.12713	0.029389	0.25871	-4.0896	-4.6917	-4.2708	-4.6417	-4.5208	-4.1167	-4.8917	-4.3625	-4.2208	-4.8917	-4.2896	-4.6146	-4.6729	-4.2208	-4.8104	-4.4688	195.392	230.959	133.016	252.528	198.444	117.251	269.475	138.640	155.764	-5.833	275.014	273.432	32.250	290.595	247.806	161.070	7.2425e-05	0.00024468	0.00011237	1057.7	1.6443e-06	2.6683e-06	1132.8	218.73	9.111e-07	3.3762e-06	276.78	77.453	61.067	17.697	1.9397e-06	25.034	0.00014938	9.6044e-05	3.8688e-05	1037.5	1.9637e-06	1.7551e-06	1112	216.33	1.9397e-06	1.394e-06	272.52	78.276	61.25	17.799	1.6582e-06	25.141	208.983	48.815	22.207	-51.451	100.715	94.409	-51.172	-44.460	127.939	90.889	-44.672	-37.368	-37.825	-30.672	82.861	-31.064	-8191	255	
25109.801	1	1	0	0	0.11158	0.093128	0.13345	0.20578	0.22758	0.17417	0.3723	0.1936	0.14115	0.30326	0.14263	0.23583	0.14753	0.29219	0.12057	0.04441	-3.9229	-4.8771	-4.1792	-4.6292	-4.6	-4.0458	-4.8729	-4.5125	-4.225	-4.7896	-4.3688	-4.4583	-4.7833	-4.0188	-4.7375	-4.6104	-41.772	242.973	33.767	283.384	-54.055	154.285	279.593	173.919	82.934	251.786	41.218	213.665	276.915	271.012	208.562	231.113	6.0136e-05	0.00023193	7.5522e-05	1057.1	2.5339e-06	2.2752e-06	1135	218.55	1.357e-06	3.9083e-06	274.64	77.726	60.788	17.856	2.6014e-06	25.303	0.00015443	0.00010804	3.949e-05	1035.8	2.0198e-06	1.5601e-06	1113.7	216.46	2.1319e-06	1.0783e-06	272.42	78.577	61.164	17.791	1.5716e-06	25.185	205.288	3.062	50.704	-51.787	129.135	87.235	-51.104	-44.508	95.231	85.727	-44.661	-37.369	-37.345	-30.845	115.001	-31.368	-8191	255	
25109.896	1	1	0	0	0.12213	0.064917	0.11419	0.060087	0.25983	0.23327	0.15224	0.091364	0.19747	0.097401	0.10756	0.192	0.11365	0.33303	0.030253	0.1842	-3.9042	-4.8104	-4.3229	-4.4938	-4.7021	-4.0417	-4.7771	-4.7	-4.0708	-4.9	-4.4396	-4.3771	-4.7063	-4.3646	-4.4938	-4.7562	187.457	124.291	69.672	197.655	40.783	54.023	261.145	244.600	17.571	213.045	194.684	-59.869	281.958	108.647	70.209	11.774	6.7581e-05	0.00019304	4.9665e-05	1056.4	1.1558e-06	1.993e-06	1132.9	218.48	1.1985e-06	2.4803e-06	275.68	77.696	61.482	17.612	2.4097e-06	25.104	0.00015971	0.00012487	3.9126e-05	1035.5	1.9154e-06	1.7412e-06	1112	216.32	1.9358e-06	9.0863e-07	272.38	78.575	61.357	17.702	1.509e-06	25.136	192.118	43.848	54.439	-51.702	144.308	90.665	-51.433	-44.201	121.508	110.142	-44.336	-37.592	-37.138	-30.499	103.408	-30.331	-8191	255	
25109.992	1	1	0	0	0.17493	0.35918	0.079878	0.22476	0.053318	0.086843	0.20341	0.33419	0.15859	0.24519	0.31663	0.04607	0.088021	0.21875	0.057937	0.0042443	-3.7667	-4.675	-4.3729	-4.3438	-4.8875	-4.2396	-4.6354	-4.825	-4.2375	-4.6438	-4.4417	-4.2667	-4.75	-4.1937	-4.4583	-4.8104	115.903	267.206	50.067	207.357	208.200	269.547	216.428	-45.517	100.377	121.253	273.404	262.307	-29.630	261.167	113.268	158.807	4.681e-05	0.00037993	8.2891e-05	1054.8	2.3076e-06	3.2238e-06	1134.9	218.09	1.1229e-06	2.3362e-06	274.39	77.88	61.041	17.74	1.7488e-06	25.23	0.00014498	0.00010942	2.8439e-05	1032.9	1.7923e-06	1.3123e-06	1109.8	216.21	1.8893e-06	8.2477e-07	271.72	78.426	61.097	17.769	1.5724e-06	25.239	205.435	34.401	22.895	-51.755	119.626	84.634	-51.316	-44.291	137.439	101.543	-44.468	-37.657	-37.142	-30.715	90.501	-30.875	-8191	255	
25110.088	1	1	0	0	0.011966	0.018576	0.11297	0.17233	0.10313	0.12835	0.13974	0.13738	0.080793	0.12101	0.19555	0.13224	0.097357	0.13475	0.048713	0.077735	-3.9542	-4.6333	-4.4375	-4.2583	-4.6167	-4.375	-4.6292	-4.7417	-4.2396	-4.8229	-4.5875	-4.3083	-4.7188	-4.4313	-4.3375	-4.7354	172.032	-39.924	-19.980	-15.293	153.467	234.023	218.635	249.036	99.534	221.427	22.742	204.115	205.585	23.128	117.842	216.937	6.8532e-05	0.00037265	9.387e-05	1057.7	9.4558e-07	1.902e-06	1130.2	217.01	6.0941e-07	3.5073e-06	273.96	77.3	61.4	17.684	1.7645e-06	25.129	0.00015316	0.00011089	3.3467e-05	1033.7	1.8203e-06	1.372e-06	1110.2	215.69	2.0157e-06	1.3733e-06	271.81	78.176	61.222	17.743	1.5235e-06	25.161	203.387	36.865	30.210	-51.581	125.741	68.525	-51.394	-44.229	129.778	98.032	-44.545	-37.552	-37.356	-30.896	117.031	-31.191	-8191	255	
25110.184	1	1	0	0	0.20134	0.12839	0.07106	0.20436	0.1678	0.093611	0.065086	0.10677	0.11728	0.07673	0.034003	0.25691	0.099404	0.14433	0.34705	0.14614	-3.8167	-4.4271	-4.5188	-4.3063	-4.8833	-4.4667	-4.5146	-4.9313	-4.0875	-4.6687	-4.6813	-4.1625	-4.8938	-4.3146	-4.1625	-4.8396	268.829	148.796	-2.567	249.652	20.991	91.664	101.862	205.391	220.190	72.540	207.539	75.427	-50.811	285.186	16.307	76.963	5.6498e-05	0.00030149	6.8396e-05	1055.3	2.4432e-06	2.8654e-06	1133.5	218.61	1.024e-06	3.3864e-06	275.5	77.657	61.316	17.737	2.5578e-06	25.221	0.0001632	0.00013436	3.2398e-05	1035.1	1.959e-06	1.4158e-06	1112.7	216.5	2.0567e-06	1.4739e-06	272.32	78.308	61.428	17.772	1.762e-06	25.252	200.676	40.433	10.195	-51.737	121.825	77.780	-51.383	-44.400	99.253	85.704	-44.680	-37.750	-37.379	-30.870	116.780	-31.097	-8191	255	
25110.303	1	1	0	0	0.15602	0.12894	0.11924	0.11953	0.10885	0.1136	0.32404	0.1614	0.1004	0.1932	0.17839	0.18417	0.16533	0.23521	0.1111	0.22644	-3.9854	-4.4792	-4.6542	-4.3646	-4.7292	-4.5229	-4.4521	-5.0667	-4.1229	-4.4625	-4.6396	-4.1813	-4.7167	-4.5312	-4.2625	-4.8125	284.837	286.248	6.916	277.670	263.064	203.767	268.914	224.288	-57.286	32.579	-59.937	192.248	202.644	-60.624	166.279	258.183	6.6364e-05	0.00030507	8.6226e-05	1059.3	2.9102e-06	1.9111e-06	1134.5	218.52	9.1476e-07	2.7928e-06	276.61	77.56	61.021	17.599	1.6813e-06	25.033	0.00016333	0.00016542	3.2811e-05	1037.6	2.1764e-06	1.378e-06	1114.7	216.48	1.9963e-06	1.618e-06	273.05	78.397	61.45	17.753	1.7174e-06	25.158	211.786	42.372	45.769	-51.510	113.289	88.401	-51.108	-44.335	106.073	107.098	-44.326	-37.931	-37.564	-31.016	112.683	-30.837	-8191	255	
25110.400	1	1	0	0	0.18984	0.10224	0.15893	0.12311	0.047803	0.12788	0.055255	0.25249	0.18248	0.11881	0.12498	0.19874	0.14069	0.040944	0.25376	0.079159	-4.05	-4.3229	-4.5708	-4.3979	-4.4313	-4.6229	-4.2792	-4.9521	-4.3271	-4.2521	-4.8875	-4.2188	-4.5104	-4.6292	-4.1021	-4.8021	181.458	204.787	215.471	-40.823	75.384	115.030	140.147	-35.268	190.144	70.134	77.578	137.068	265.052	157.386	4.120	-49.838	6.4118e-05	0.00026466	8.4719e-05	1057.5	2.2115e-06	2.1172e-06	1134.4	218.54	1.1871e-06	2.2647e-06	274.71	77.965	61.552	17.808	2.546e-06	25.1	0.00014769	0.0001391	3.286e-05	1037.4	2.0822e-06	1.0656e-06	1113.6	216.73	1.8443e-06	1.6101e-06	272.13	78.446	61.412	17.811	1.5947e-06	25.23	209.355	43.613	28.180	-51.369	104.399	85.126	-51.383	-44.415	101.874	96.309	-44.302	-37.381	-37.439	-31.283	89.855	-31.085	-8191	255	
25110.471	1	1	0	0	0.25231	0.12608	0.19666	0.099674	0.13167	0.079623	0.27015	0.039435	0.20178	0.17902	0.18393	0.22337	0.1351	0.029581	0.047305	0.09213	-4.2375	-4.1896	-4.6896	-4.3771	-4.5083	-4.7208	-4.2292	-4.7667	-4.4083	-4.325	-4.8646	-4.1562	-4.5271	-4.7	-4.0854	-4.7146	92.347	236.261	54.847	94.530	55.977	137.001	258.917	117.604	251.981	233.708	252.058	254.434	-15.279	97.884	-25.493	284.188	5.6823e-05	0.00033644	6.9573e-05	1065.3	1.6608e-06	2.7641e-06	1135.4	218.09	1.3008e-06	2.555e-06	275.18	77.739	61.181	17.69	2.3885e-06	25.07	0.00014759	0.00014169	2.4991e-05	1036.7	2.0323e-06	1.0964e-06	1114.2	216.25	1.835e-06	1.3812e-06	272.95	78.409	61.481	17.778	1.6291e-06	25.201	202.985	47.498	44.521	-51.677	143.060	61.718	-51.264	-44.155	123.219	93.920	-44.572	-37.634	-36.795	-30.782	95.990	-30.251	-8191	255	
25110.566	1	1	0	0	0.11691	0.13679	0.16168	0.011166	0.10684	0.016528	0.28453	0.21041	0.13019	0.10054	0.096673	0.08223	0.1335	0.047344	0.24182	0.070649	-4.1271	-4.1125	-4.9667	-4.3458	-4.5188	-4.8854	-4.2417	-4.6125	-4.5604	-4.1771	-4.9542	-4.3688	-4.4833	-4.6021	-4.25	-4.65	46.914	-31.352	225.494	165.564	204.056	-27.473	229.379	194.872	73.491	20.502	274.279	-2.720	269.028	198.779	206.898	131.780	6.15e-05	0.000333	6.9417e-05	1060.4	1.6891e-06	4.6305e-06	1139.9	218.27	1.2644e-06	3.4775e-06	274.66	78.097	61.376	17.69	1.9888e-06	25.031	0.00014521	0.00013255	2.8075e-05	1036.8	2.0042e-06	1.2775e-06	1115.1	216.56	1.7932e-06	1.9357e-06	272.32	78.638	61.422	17.758	1.605e-06	25.187	212.851	24.226	23.789	-51.611	131.393	99.086	-51.259	-43.811	93.555	108.592	-44.460	-37.624	-37.358	-30.689	113.654	-31.177	-8191	255	
25110.688	1	1	0	0	0.19306	0.20956	0.16003	0.097258	0.18541	0.078242	0.1351	0.14316	0.12687	0.13209	0.24942	0.054048	0.22527	0.14652	0.19431	0.038405	-4.3958	-4.1375	-4.775	-4.3604	-4.4104	-4.7917	-4.4396	-4.625	-4.5771	-4.1979	-4.9146	-4.3771	-4.375	-4.75	-4.2854	-4.3625	87.181	80.956	275.270	281.170	87.813	297.381	-58.877	145.514	209.643	-25.166	293.213	222.997	-4.980	227.051	18.468	288.873	5.3274e-05	0.00032954	8.9717e-05	1059.2	2.985e-06	2.951e-06	1135.8	217.97	1.4278e-06	3.2518e-06	276.14	78.203	61.376	17.75	1.2197e-06	25.068	0.00014954	0.00016499	3.0115e-05	1037.8	1.9559e-06	1.185e-06	1114.9	216.32	1.8497e-06	1.5173e-06	272.52	78.57	61.491	17.748	1.8118e-06	25.136	197.528	30.554	39.540	-51.648	113.977	80.044	-51.225	-44.027	96.716	96.437	-44.585	-37.582	-37.224	-30.719	135.261	-31.261	-8191	255	
25110.783	1	1	0	0	0.11789	0.11168	0.094406	0.17103	0.093225	0.1666	0.034504	0.18978	0.16095	0.29495	0.10243	0.2284	0.033264	0.26069	0.23855	0.21142	-4.4	-4.2562	-4.6771	-4.5396	-4.225	-4.6792	-4.2729	-4.3083	-4.5687	-4.1542	-4.6604	-4.5104	-4.1646	-4.8125	-4.2188	-4.5229	-23.108	177.551	-41.528	243.159	-53.342	42.988	141.754	231.048	-11.644	14.615	227.349	-35.941	-29.544	145.911	-44.790	296.125	6.7587e-05	0.00021078	7.6943e-05	1056.1	1.5426e-06	2.1854e-06	1142.4	219.13	1.344e-06	2.8603e-06	276.33	77.564	61.443	17.651	1.3952e-06	25.071	0.00014097	0.0001303	3.218e-05	1036	2.2887e-06	1.2845e-06	1117.2	216.93	1.8482e-06	1.6081e-06	273.18	78.319	61.54	17.741	1.7706e-06	25.208	207.804	18.671	21.686	-51.576	138.420	97.492	-51.221	-44.303	107.784	96.615	-44.803	-37.549	-37.191	-30.873	121.836	-31.216	-8191	255	
25110.881	1	1	0	0	0.19215	0.091484	0.15731	0.23757	0.27127	0.17374	0.17003	0.25421	0.13797	0.22379	0.12511	0.17249	0.13983	0.073119	0.27142	0.23721	-4.5167	-4.1396	-4.7521	-4.6312	-4.2333	-4.7479	-4.4708	-4.3417	-4.5833	-4.2146	-4.5083	-4.5938	-4.2646	-4.6146	-4.3688	-4.4333	-9.374	234.028	152.826	264.927	20.624	-61.397	293.585	223.444	49.712	-4.306	-32.260	21.990	269.306	44.104	243.974	0.102	7.6067e-05	0.00027335	6.8841e-05	1063.2	2.137e-06	2.1732e-06	1133.6	218.71	1.1042e-06	2.5717e-06	274.95	77.716	61.242	17.74	3.2857e-06	24.856	0.00013755	0.0001498	2.946e-05	1039.1	2.1928e-06	1.2646e-06	1115.1	216.74	1.7691e-06	1.614e-06	272.24	78.593	61.517	17.721	1.6574e-06	25.2	207.657	15.604	27.388	-51.623	100.641	98.458	-51.457	-44.752	122.961	104.617	-44.683	-37.609	-37.552	-30.644	96.508	-31.158	-8191	255	
25111.002	1	1	0	0	0.053294	0.28495	0.16045	0.12669	0.12192	0.099782	0.18772	0.23441	0.20976	0.11962	0.31822	0.10974	0.17185	0.13482	0.15024	0.14583	-4.5125	-4.075	-4.5312	-4.8854	-4.1479	-4.7812	-4.6354	-4.3729	-4.9	-4.2833	-4.6104	-4.7896	-4.125	-4.8708	-4.4292	-4.3292	50.931	71.403	277.290	193.018	123.052	18.180	213.018	17.030	88.690	-41.806	296.436	-60.257	221.043	286.374	138.809	166.893	5.0653e-05	0.00027042	7.5307e-05	1058.7	2.0136e-06	2.2918e-06	1133.6	218.78	1.0996e-06	3.1616e-06	274.8	77.795	61.495	17.739	1.5892e-06	25.122	0.00015127	0.0001536	3.8227e-05	1037.9	2.2746e-06	1.2009e-06	1113.4	216.41	1.6823e-06	1.321e-06	272.61	78.537	61.564	17.76	1.3786e-06	25.197	197.400	29.540	26.761	-51.443	124.928	94.705	-51.345	-44.129	67.589	82.172	-44.521	-37.477	-37.585	-30.688	111.334	-30.940	-8191	255	
25111.072	1	1	0	0	0.11756	0.068961	0.10147	0.24454	0.19159	0.10937	0.1738	0.12811	0.27283	0.097134	0.021444	0.12058	0.06732	0.14315	0.076585	0.20631	-4.4604	-4.1062	-4.4187	-4.775	-4.1542	-4.6021	-4.7333	-4.2646	-4.975	-4.3625	-4.4375	-4.6937	-4.3187	-4.5375	-4.5437	-4.2396	-41.911	70.819	124.581	249.000	66.121	202.162	170.368	-27.419	273.064	68.531	195.729	246.229	-51.118	260.559	234.295	258.981	6.2707e-05	0.0003461	8.304e-05	1062	2.0735e-06	3.424e-06	1131.3	217.13	1.4063e-06	3.1992e-06	275.69	77.853	61.221	17.684	1.9502e-06	25.228	0.00013742	0.00014359	3.2325e-05	1038.5	2.1461e-06	1.4526e-06	1113.9	216.15	1.6296e-06	1.247e-06	272.76	78.292	61.611	17.75	1.4137e-06	25.303	198.952	29.895	31.714	-51.170	138.399	77.744	-51.449	-44.207	98.910	96.192	-44.669	-37.574	-37.144	-31.005	92.060	-31.426	-8191	255	
25111.168	1	1	0	0	0.065594	0.2727	0.14212	0.11759	0.20059	0.13287	0.22114	0.14998	0.24153	0.11487	0.17554	0.28031	0.025188	0.15963	0.21361	0.30492	-4.3229	-4.3521	-4.4396	-4.925	-4.1458	-4.4958	-4.6438	-4.1729	-4.6583	-4.3583	-4.3021	-4.7458	-4.2229	-4.5292	-4.7	-4.1771	100.108	83.577	179.351	248.829	148.171	46.271	256.009	195.284	217.055	196.285	243.718	284.180	-55.513	213.263	82.434	271.967	5.1672e-05	0.00024506	7.735e-05	1058.6	1.7403e-06	3.6111e-06	1135.7	218.72	9.6191e-07	3.2412e-06	274.64	77.7	61.605	17.571	2.3722e-06	25.228	0.00013765	0.00013876	3.7984e-05	1036.7	2.1523e-06	1.0357e-06	1115.8	216.71	1.6575e-06	1.5469e-06	272.7	78.618	61.728	17.769	1.3322e-06	25.267	212.879	23.052	33.717	-51.536	133.169	100.292	-51.070	-44.411	99.123	101.435	-44.731	-37.703	-37.327	-30.846	128.025	-31.110	-8191	255	
25111.266	1	1	0	0	0.17555	0.14233	0.21562	0.11593	0.13849	0.19663	0.28476	0.19999	0.03391	0.070671	0.042137	0.11712	0.065237	0.26476	0.10879	0.071554	-4.25	-4.5354	-4.1208	-5.0188	-4.2521	-4.5437	-4.8271	-4.1958	-4.7208	-4.5021	-4.3375	-4.9833	-4.2688	-4.5354	-4.7625	-4.3604	-23.278	233.263	219.355	-32.350	-46.846	5.930	210.163	275.620	261.500	146.905	242.829	206.968	182.377	4.668	58.199	297.347	5.7498e-05	0.00025999	9.8838e-05	1055.8	1.1936e-06	2.2713e-06	1130.7	219.22	1.0865e-06	4.0542e-06	275.62	78.777	61.269	17.684	3.0101e-06	25.119	0.00014426	0.00012763	4.5513e-05	1037.7	2.0479e-06	1.1989e-06	1114.4	217.11	1.6125e-06	1.4325e-06	272.03	78.785	61.26	17.765	1.4987e-06	25.305	200.029	39.183	20.296	-51.631	90.952	70.107	-51.372	-44.313	121.606	82.467	-44.796	-37.497	-37.165	-30.935	106.710	-30.927	-8191	255	
25111.385	1	1	0	0	0.18604	0.0563	0.18434	0.26914	0.03096	0.043061	0.27114	0.16848	0.21607	0.15804	0.19704	0.093775	0.14095	0.1113	0.023366	0.19661	-4.3229	-4.5042	-4.1458	-5.0396	-4.3583	-4.4208	-4.8438	-4.25	-4.6979	-4.6062	-4.2375	-4.7312	-4.4125	-4.3667	-4.8	-4.4104	-41.076	99.450	103.392	176.720	27.841	93.933	221.992	274.471	-8.875	131.242	236.633	97.896	80.166	-12.566	80.776	260.881	6.4497e-05	0.00026689	6.9838e-05	1057.4	1.3006e-06	1.5671e-06	1134.6	219.15	6.9289e-07	2.5685e-06	276.37	78.357	61.368	17.759	2.3991e-06	25.13	0.00014257	0.00011486	4.1238e-05	1037	2.2357e-06	1.1352e-06	1115.5	216.74	1.9063e-06	1.25e-06	272.44	78.517	61.501	17.801	1.2851e-06	25.172	201.682	57.708	16.317	-51.525	128.827	85.752	-51.528	-44.390	50.869	76.602	-44.258	-37.239	-37.310	-30.809	94.621	-30.943	-8191	255	
25111.480	1	1	0	0	0.22921	0.092129	0.26566	0.12068	0.08841	0.034945	0.14824	0.079248	0.09138	0.1002	0.29304	0.16378	0.27308	0.16528	0.13061	0.13334	-4.2208	-4.5458	-4.1833	-4.8271	-4.4208	-4.3208	-4.875	-4.3271	-4.3604	-4.7146	-4.4542	-4.7354	-4.6229	-4.1979	-4.8729	-4.3333	232.246	98.642	184.502	240.108	190.552	-48.347	142.811	187.691	102.911	3.744	284.369	87.448	210.496	20.922	208.801	207.783	6.655e-05	0.00034119	6.1406e-05	1057	1.1194e-06	2.1118e-06	1140.7	218.87	1.4584e-06	3.0214e-06	277.24	78.347	61.247	17.645	2.956e-06	25.329	0.00014729	0.00012012	3.5288e-05	1038.8	2.0292e-06	1.4218e-06	1117.8	216.61	1.9443e-06	9.915e-07	272.72	78.677	61.471	17.77	1.3829e-06	25.28	194.955	51.676	21.849	-51.533	115.761	79.956	-51.394	-44.015	86.575	77.262	-44.539	-37.679	-37.463	-30.726	102.773	-31.150	-8191	255	
25111.576	1	1	0	0	0.3441	0.16458	0.21148	0.079662	0.14261	0.17974	0.05987	0.28927	0.17247	0.23291	0.11741	0.25834	0.067753	0.24021	0.074406	0.17078	-4.1771	-4.6271	-4.0083	-4.9333	-4.7292	-4.2125	-5.1479	-4.1438	-4.4354	-4.5792	-4.3146	-4.6417	-4.5042	-4.0833	-4.7812	-4.4375	231.277	85.850	143.261	-9.384	-2.291	279.328	136.543	261.712	163.393	148.244	186.021	217.981	80.942	169.797	156.706	280.018	6.3445e-05	0.00020363	8.133e-05	1062.4	2.236e-06	2.9567e-06	1135.2	218.41	1.6585e-06	3.0661e-06	274.78	78.204	61.554	17.711	2.7087e-06	25.114	0.0001457	0.00010674	3.5045e-05	1040.8	2.1094e-06	1.378e-06	1115.1	216.45	1.8234e-06	1.028e-06	272.63	78.753	61.692	17.828	1.4506e-06	25.234	207.030	57.696	34.106	-51.659	117.487	99.769	-51.337	-44.257	108.466	113.269	-44.960	-37.454	-37.491	-30.883	101.790	-31.141	-8191	255	
25111.697	1	1	0	0	0.074612	0.10865	0.065921	0.20635	0.041943	0.13299	0.13474	0.12952	0.19684	0.10716	0.13259	0.30605	0.14023	0.081978	0.10943	0.19636	-3.8833	-4.8229	-4.1458	-4.7458	-4.6333	-4.0833	-4.8917	-4.3646	-4.275	-4.8125	-4.3417	-4.4583	-4.7125	-4.2604	-4.7167	-4.4062	97.107	-19.527	-24.678	263.573	155.609	160.430	221.799	-55.099	260.507	-22.512	10.022	-60.254	159.868	243.041	144.491	260.848	6.5195e-05	0.00032724	6.7882e-05	1061.3	1.4711e-06	2.1224e-06	1137.2	219.59	8.5003e-07	3.5555e-06	276.28	78.182	61.582	17.621	1.996e-06	25.086	0.00015101	0.00010726	3.9708e-05	1039.8	1.9396e-06	1.5482e-06	1117.4	217.04	1.9366e-06	1.1868e-06	272.74	78.731	61.636	17.751	1.0723e-06	25.25	199.018	27.984	33.422	-51.622	114.830	79.160	-51.484	-44.409	115.365	85.777	-44.892	-37.550	-37.246	-30.685	76.556	-31.468	-8191	255	
25111.768	1	1	0	0	0.044075	0.14913	0.2403	0.081346	0.13615	0.080647	0.13166	0.1834	0.1583	0.12857	0.21281	0.23461	0.18005	0.10832	0.061999	0.14083	-3.8583	-4.7063	-4.2146	-4.5062	-4.6229	-4.3125	-5.0146	-4.5542	-4.1958	-4.75	-4.5521	-4.5062	-4.7542	-4.2979	-4.65	-4.4771	-42.268	251.724	73.025	250.010	48.278	203.061	-33.494	250.524	-30.115	28.327	-39.233	231.053	-56.901	94.156	273.203	127.587	6.9343e-05	0.00026713	0.00011432	1061.3	1.98e-06	2.7078e-06	1137.7	219.15	1.0868e-06	3.2006e-06	276.33	77.975	61.075	17.606	9.4674e-07	25.099	0.00015072	0.00012331	3.6235e-05	1040.7	1.9286e-06	1.5601e-06	1117.3	217.2	1.973e-06	1.102e-06	273.11	78.544	61.472	17.765	1.3648e-06	25.277	206.217	18.309	30.915	-51.475	98.781	76.181	-51.280	-44.467	102.669	103.062	-44.903	-37.634	-37.411	-30.998	92.145	-30.787	-8191	255	
25111.863	1	1	0	0	0.34301	0.18647	0.026427	0.079822	0.075058	0.088147	0.24335	0.2513	0.17434	0.12581	0.080262	0.16262	0.095339	0.13244	0.13231	0.13415	-3.8958	-4.8	-4.1792	-4.4187	-4.6333	-4.325	-4.7833	-4.6167	-4.1396	-4.8688	-4.4437	-4.4271	-4.7708	-4.3229	-4.6125	-4.6708	273.322	-26.300	25.909	264.043	82.677	67.176	256.501	283.916	43.570	188.389	90.937	278.451	214.108	-60.439	119.250	237.552	6.1702e-05	0.00019	6.3415e-05	1059.8	1.9175e-06	1.8826e-06	1132.3	221.05	1.4497e-06	2.3851e-06	275.5	78.37	61.331	17.714	3.3296e-06	25.071	0.00015085	0.00013298	3.2398e-05	1039.4	1.9886e-06	1.379e-06	1115.8	217.14	1.9815e-06	9.6191e-07	272.94	78.557	61.495	17.77	1.4935e-06	25.224	205.010	27.410	20.545	-51.581	115.290	112.319	-51.160	-44.287	123.837	120.049	-44.677	-37.080	-37.186	-31.156	97.887	-30.973	-8191	255	
25111.984	1	1	0	0	0.094138	0.18964	0.1491	0.22557	0.14287	0.24647	0.25426	0.087731	0.20778	0.17575	0.16787	0.033837	0.18825	0.060784	0.096332	0.20295	-3.7208	-4.625	-4.4042	-4.3646	-4.8438	-4.2917	-4.6792	-4.7417	-4.0146	-4.8271	-4.5437	-4.3375	-4.8271	-4.2396	-4.4542	-4.8438	197.245	44.908	51.031	183.800	295.504	-36.530	283.537	262.253	145.348	222.037	117.667	179.714	130.276	256.758	261.318	93.972	5.6631e-05	0.00034031	8.3585e-05	1061.3	1.5273e-06	2.684e-06	1137.2	219.34	9.7342e-07	2.9992e-06	274.96	78.198	61.877	17.621	2.6912e-06	25.326	0.00015453	0.00012625	3.4341e-05	1040.9	1.8024e-06	1.5452e-06	1115.9	217	2.0839e-06	1.1e-06	272.89	78.644	61.741	17.743	1.5295e-06	25.31	207.350	57.073	24.177	-51.362	124.072	84.519	-51.508	-44.218	138.446	85.772	-44.627	-37.521	-37.359	-30.954	114.984	-31.211	-8191	255	
25112.080	1	1	0	0	0.067081	0.14307	0.049191	0.12045	0.2437	0.17442	0.23155	0.13451	0.14462	0.18588	0.12699	0.168	0.15546	0.17572	0.13168	0.086753	-3.9167	-4.5958	-4.5312	-4.3979	-4.8042	-4.4604	-4.5083	-4.6687	-4.1896	-4.6958	-4.5375	-4.1667	-4.6792	-4.3833	-4.2542	-4.8063	94.114	156.476	85.258	172.996	141.174	237.662	280.873	-31.281	121.174	116.216	-13.990	98.799	246.551	190.737	244.727	184.436	6.5684e-05	0.00035269	8.4761e-05	1059.8	1.9742e-06	3.2493e-06	1139.1	219.59	1.5096e-06	3.2956e-06	275.68	78.021	61.642	17.632	1.607e-06	25.233	0.00015968	0.00010139	3.7498e-05	1039.5	2.1102e-06	1.3909e-06	1118.1	217.09	2.0381e-06	1.2796e-06	272.86	78.702	61.639	17.73	1.6256e-06	25.322	202.486	37.258	27.360	-51.748	114.126	77.280	-51.504	-44.287	118.147	84.147	-44.726	-37.424	-37.153	-30.937	101.555	-31.556	-8191	255	
25112.176	1	1	0	0	0.096454	0.11495	0.10609	0.16635	0.13246	0.12361	0.27349	0.05203	0.13639	0.055264	0.32787	0.066108	0.15328	0.17052	0.069156	0.14088	-3.8042	-4.4792	-4.5104	-4.3208	-4.7146	-4.2979	-4.3	-4.8438	-4.2063	-4.4958	-4.675	-4.2312	-4.8104	-4.2854	-4.2271	-4.9375	-46.216	13.483	87.161	281.859	171.176	-5.082	252.024	12.886	84.320	116.923	248.275	173.073	289.935	256.983	137.607	294.821	6.2043e-05	0.00029991	8.9628e-05	1066.1	2.168e-06	3.2706e-06	1136.3	218.22	8.3167e-07	3.3053e-06	276.39	78.194	61.057	17.647	1.9575e-06	25.228	0.00015228	0.00012625	3.2787e-05	1042.7	2.1063e-06	1.378e-06	1117.9	216.54	1.9017e-06	1.2816e-06	272.83	78.622	61.264	17.79	1.7303e-06	25.27	200.432	25.372	27.966	-51.707	126.435	77.439	-51.202	-44.347	63.551	73.702	-44.693	-37.746	-37.125	-30.567	106.527	-31.372	-8191	255	
25112.271	1	1	0	0	0.23561	0.17374	0.24758	0.059989	0.045105	0.23062	0.27119	0.13091	0.11931	0.18321	0.1121	0.14779	0.12306	0.10538	0.15164	0.26769	-3.9958	-4.5333	-4.6813	-4.2438	-4.8688	-4.4667	-4.2708	-4.8812	-4.1771	-4.4083	-4.8083	-4.2958	-4.7854	-4.5542	-4.0896	-4.7604	-29.712	210.058	-2.074	202.615	-36.415	114.914	213.449	255.427	169.993	18.160	185.748	210.953	-52.010	187.393	279.641	208.365	6.4253e-05	0.00033185	6.7061e-05	1063.4	1.51e-06	2.6391e-06	1139.7	218.74	9.1796e-07	2.496e-06	277.4	78.222	61.464	17.653	2.1294e-06	25.308	0.00015355	0.0001316	2.8852e-05	1040.9	1.7572e-06	1.6775e-06	1118.9	216.57	1.9986e-06	1.3408e-06	273.37	78.669	61.594	17.798	1.7054e-06	25.343	204.336	42.956	27.909	-51.612	118.836	76.016	-51.437	-44.405	173.911	71.027	-44.770	-37.282	-37.009	-31.302	111.603	-30.828	-8191	255	
25112.367	1	1	0	0	0.12337	0.057302	0.17336	0.2841	0.22413	0.14954	0.14607	0.11863	0.25433	0.15606	0.16225	0.20268	0.14739	0.25643	0.035598	0.29067	-3.95	-4.5042	-4.6646	-4.3583	-4.5687	-4.5854	-4.2271	-4.9833	-4.4458	-4.4062	-4.7458	-4.1854	-4.5667	-4.6062	-4.2417	-4.975	199.523	-2.075	152.532	285.878	-22.490	202.597	271.743	220.785	287.781	69.507	190.479	249.983	146.520	-15.963	-9.833	131.947	5.3268e-05	0.00038438	8.0056e-05	1063	1.304e-06	2.2181e-06	1140.7	219.27	6.291e-07	2.9253e-06	275.29	78.126	61.193	17.596	2.0435e-06	25.213	0.00014443	0.00014609	2.6642e-05	1042	2.0549e-06	1.4845e-06	1120	217.43	1.987e-06	1.5006e-06	273.05	78.701	61.629	17.788	1.6368e-06	25.304	200.731	24.816	14.666	-51.480	107.110	107.425	-51.389	-44.153	93.469	76.217	-44.733	-37.759	-37.299	-31.074	109.187	-31.431	-8191	255	
25112.465	1	1	0	0	0.24578	0.26165	0.14773	0.16406	0.26028	0.24637	0.29181	0.032327	0.075991	0.014404	0.077663	0.2626	0.20741	0.26542	0.17717	0.04849	-4.0583	-4.3417	-4.8958	-4.3604	-4.475	-4.6042	-4.3063	-4.7333	-4.3458	-4.4042	-4.9458	-4.225	-4.4792	-4.6521	-3.9688	-4.8208	17.207	275.432	163.053	179.782	123.857	-34.955	244.193	-18.908	209.488	82.017	54.510	261.239	-29.869	296.861	25.914	30.626	5.7087e-05	0.00022826	6.5927e-05	1065.8	1.5212e-06	3.2779e-06	1136.4	218.46	7.2566e-07	3.984e-06	275.77	77.464	60.842	17.798	1.3543e-06	25.279	0.00014808	0.00013781	2.9678e-05	1041.2	1.9193e-06	1.3044e-06	1120.2	217.19	1.8528e-06	1.3634e-06	272.95	78.607	61.418	17.839	1.7706e-06	25.362	195.582	7.087	38.824	-51.799	113.478	93.385	-51.155	-44.321	145.870	96.119	-44.804	-37.588	-37.580	-30.819	114.382	-31.156	-8191	255	
25112.561	1	1	0	0	0.1131	0.10665	0.1087	0.23633	0.14026	0.20125	0.33107	0.058619	0.13368	0.084104	0.18142	0.29123	0.18118	0.1425	0.31141	0.06161	-4.1708	-4.3021	-4.7083	-4.2792	-4.55	-4.75	-4.3042	-4.7854	-4.5375	-4.2375	-4.7583	-4.4938	-4.3542	-4.8313	-4.2771	-4.7542	14.781	231.856	273.882	162.754	144.986	239.808	209.763	214.523	132.981	-52.576	33.628	-17.955	6.248	279.219	-41.798	276.602	5.776e-05	0.00031713	8.2515e-05	1065.2	2.5126e-06	3.4364e-06	1138.6	218.82	7.6568e-07	2.9394e-06	274.67	78.108	61.526	17.52	2.3179e-06	25.196	0.00016486	0.00013755	3.252e-05	1043.8	1.9863e-06	1.3631e-06	1118.7	217.26	1.6676e-06	1.7739e-06	272.78	78.665	61.766	17.772	1.7423e-06	25.395	186.005	26.060	41.243	-51.560	134.048	77.664	-51.469	-44.281	138.339	95.184	-44.348	-37.707	-37.411	-30.607	120.740	-31.072	-8191	255	
25112.656	1	1	0	0	0.063699	0.18024	0.031483	0.2263	0.1999	0.076067	0.10515	0.12173	0.25115	0.20034	0.18182	0.20335	0.21569	0.065936	0.066189	0.0575	-4.1667	-4.0146	-4.7875	-4.4437	-4.3396	-4.7438	-4.3646	-4.6042	-4.6792	-4.1729	-4.8417	-4.525	-4.4167	-4.8146	-4.325	-4.6479	133.517	269.832	182.984	268.791	206.902	248.775	273.331	21.949	36.088	274.353	239.229	221.548	235.254	224.100	162.921	216.524	6.1518e-05	0.00028893	7.3081e-05	1065.5	2.3975e-06	3.5034e-06	1141.6	218.72	2.1318e-06	3.0867e-06	276.9	77.666	61.261	17.818	2.1907e-06	25.172	0.00014831	0.00015196	3.5288e-05	1043.2	2.3183e-06	1.2328e-06	1119.9	217.31	1.7428e-06	1.7443e-06	273.61	78.66	61.527	17.839	1.5887e-06	25.284	205.875	26.336	30.056	-51.600	112.859	87.303	-51.576	-44.164	90.093	86.052	-44.705	-37.709	-37.632	-30.578	81.730	-30.696	-8191	255	
25112.777	1	1	0	0	0.13964	0.088173	0.14018	0.19938	0.20577	0.11488	0.17571	0.11686	0.2366	0.070936	0.16942	0.11613	0.073275	0.23264	0.20437	0.12061	-4.3208	-4.225	-4.9104	-4.5292	-4.3833	-4.8708	-4.4583	-4.475	-4.7271	-4.0896	-4.8938	-4.5917	-4.2417	-4.8208	-4.3208	-4.3562	83.063	194.405	199.493	281.312	-27.961	254.398	213.260	165.389	85.641	-51.183	230.094	91.017	247.174	-17.364	33.896	39.884	6.046e-05	0.00034024	8.0023e-05	1066.5	1.62e-06	1.8639e-06	1139.5	219.99	1.6628e-06	2.7565e-06	275.94	77.907	61.893	17.694	3.1543e-06	25.229	0.00014081	0.000158	3.2544e-05	1042.6	2.1835e-06	1.3153e-06	1121.1	217.32	1.7792e-06	1.7206e-06	273.43	78.404	61.777	17.821	1.696e-06	25.326	202.806	30.553	28.702	-51.886	104.540	77.755	-51.339	-44.251	111.413	92.787	-44.537	-37.601	-37.394	-30.798	87.044	-31.548	-8191	255	
25112.873	1	1	0	0	0.17958	0.21017	0.16995	0.19881	0.076127	0.13655	0.20003	0.071097	0.15641	0.090374	0.16578	0.14389	0.35788	0.04102	0.15354	0.043958	-4.2937	-4.3646	-4.5375	-4.6229	-4.2958	-4.7958	-4.5417	-4.5	-4.7792	-4.225	-4.6854	-4.4583	-4.2375	-4.8438	-4.4979	-4.5104	3.164	33.201	42.795	266.796	138.888	73.607	196.358	-16.496	30.115	130.999	-5.680	-10.663	250.810	139.046	95.488	105.095	5.9351e-05	0.00018631	8.928e-05	1065	1.6618e-06	3.6803e-06	1143.2	220.33	1.4493e-06	1.9419e-06	278.33	78.271	61.889	17.736	2.1223e-06	25.254	0.00015277	0.00015446	3.5628e-05	1044.5	2.15e-06	1.4069e-06	1120.6	217.64	1.8373e-06	1.5677e-06	274.21	78.747	61.796	17.806	1.4463e-06	25.357	204.986	47.930	34.494	-51.800	123.977	116.241	-51.314	-44.283	94.237	48.585	-44.638	-37.783	-37.632	-30.753	94.482	-30.883	-8191	255	
25112.969	1	1	0	0	0.12716	0.18057	0.26297	0.33778	0.10393	0.013243	0.14935	0.23815	0.071722	0.079613	0.171	0.20825	0.1279	0.15022	0.16022	0.22951	-4.4208	-4.1854	-4.5687	-4.5854	-4.1729	-4.75	-4.6062	-4.2875	-4.8208	-4.2833	-4.6792	-4.6042	-4.1917	-4.8083	-4.675	-4.4229	161.139	106.641	-57.067	260.525	84.209	114.003	277.512	-16.047	178.713	-56.355	-54.875	228.778	125.755	255.698	-42.478	293.680	6.6701e-05	0.0002583	0.0001013	1071.1	1.2856e-06	2.859e-06	1143.1	220.1	1.0753e-06	3.2288e-06	278.28	78.149	61.901	17.806	2.5807e-06	25.322	0.00015554	0.00015533	3.5021e-05	1045.2	2.1726e-06	1.5093e-06	1121.8	217.65	1.7908e-06	1.3802e-06	274.42	78.767	61.785	17.839	1.5742e-06	25.407	199.189	30.677	17.584	-51.604	135.284	86.794	-51.520	-44.482	104.066	82.022	-44.532	-37.780	-37.798	-31.392	101.085	-31.201	-8191	255	
25113.064	1	1	0	0	0.15158	0.11939	0.18962	0.31417	0.19637	0.14783	0.12449	0.1891	0.17736	0.10775	0.12412	0.038206	0.1447	0.058746	0.15168	0.065383	-4.5667	-4.3792	-4.5958	-4.9375	-4.2208	-4.7521	-4.6271	-4.3979	-4.8063	-4.4292	-4.5333	-4.6542	-4.3562	-4.6104	-4.5396	-4.3271	257.827	292.091	190.545	267.993	-38.520	86.689	237.423	173.959	25.989	77.447	204.538	265.518	186.814	264.772	-2.670	-56.201	7.4802e-05	0.00029546	7.1889e-05	1063.4	2.3475e-06	2.4751e-06	1139.1	219.72	1.202e-06	1.9103e-06	277.39	78.69	61.244	17.69	2.1812e-06	25.258	0.00014694	0.00015654	3.541e-05	1044.6	2.457e-06	1.5362e-06	1120.7	217.61	1.9637e-06	1.3555e-06	273.64	78.928	61.599	17.829	1.7329e-06	25.349	202.453	47.990	38.508	-51.662	114.560	91.168	-51.372	-44.136	133.016	88.522	-44.834	-37.586	-37.767	-30.400	114.022	-31.264	-8191	255	
25113.160	1	1	0	0	0.16354	0.15621	0.14674	0.14557	0.031399	0.13033	0.32102	0.085019	0.25273	0.045035	0.05903	0.15218	0.060179	0.15943	0.082922	0.13549	-4.4313	-4.2937	-4.3229	-4.8354	-4.0896	-4.6729	-4.8771	-4.225	-4.7604	-4.3625	-4.3521	-4.7604	-4.275	-4.7833	-4.6521	-4.2729	143.924	17.279	-11.443	275.790	293.247	247.375	208.167	279.051	2.728	203.222	-7.170	-27.019	70.595	203.934	-46.995	295.789	7.3991e-05	0.00024083	6.7179e-05	1067.5	1.2354e-06	3.5575e-06	1138.6	219.67	1.5337e-06	2.8277e-06	276.76	78.278	61.852	17.823	2.4304e-06	25.206	0.00014909	0.00015412	3.8713e-05	1043.9	2.1726e-06	1.1989e-06	1120	217.48	1.8319e-06	1.4167e-06	274.08	78.825	61.733	17.838	1.4275e-06	25.317	206.376	37.421	36.327	-51.721	127.642	89.451	-51.295	-44.477	119.534	85.849	-44.637	-37.748	-37.249	-30.926	98.896	-30.957	-8191	255	
25113.256	1	1	0	0	0.34076	0.0409	0.11021	0.12963	0.076372	0.079996	0.25444	0.04603	0.024625	0.090371	0.25165	0.1452	0.083567	0.44419	0.16774	0.2128	-4.4125	-4.5104	-4.2708	-4.9875	-4.1375	-4.5583	-4.85	-4.1917	-4.6271	-4.6438	-4.3208	-4.6458	-4.1792	-4.4688	-4.5375	-4.2167	287.359	224.262	214.520	179.364	235.165	128.940	229.524	-29.544	58.246	127.785	182.478	211.771	268.808	-44.196	258.393	274.183	5.1445e-05	0.00028306	0.00010601	1064.5	2.1724e-06	2.2504e-06	1143.8	219.85	2.3863e-06	2.6558e-06	276.12	77.847	61.846	17.708	1.9762e-06	25.224	0.00014521	0.00014834	4.4371e-05	1046.1	2.1492e-06	1.3929e-06	1125.1	218.14	1.9722e-06	1.2835e-06	273.57	78.785	61.819	17.852	1.5253e-06	25.39	199.107	29.479	44.080	-51.440	116.139	94.954	-51.299	-44.259	111.322	94.120	-44.811	-37.711	-37.617	-30.509	110.610	-31.125	-8191	255	
25113.377	1	1	0	0	0.055873	0.034114	0.21799	0.28403	0.17361	0.09395	0.085029	0.24193	0.21823	0.078525	0.081785	0.14224	0.10486	0.16496	0.28257	0.25936	-4.2792	-4.4	-4.1896	-4.8542	-4.3104	-4.575	-4.9625	-4.2583	-4.5917	-4.5229	-4.3229	-4.9229	-4.3562	-4.4437	-4.7083	-4.2896	197.610	61.329	142.878	244.902	65.436	178.243	263.167	206.877	-61.980	80.530	267.716	57.188	169.384	3.710	283.532	228.647	7.4478e-05	0.00028212	9.2923e-05	1065.9	6.8789e-07	2.2077e-06	1151.9	219.93	1.328e-06	3.5272e-06	277.91	77.872	61.324	17.776	1.8073e-06	25.266	0.00014857	0.00013306	4.8816e-05	1046.2	2.2154e-06	1.3163e-06	1127	218.08	1.9172e-06	1.2983e-06	274.15	78.926	61.765	17.844	1.3451e-06	25.377	208.164	44.959	53.398	-51.500	152.789	78.955	-51.555	-44.032	141.782	95.805	-44.720	-37.675	-37.239	-30.782	134.343	-30.944	-8191	255	
25113.471	1	1	0	0	0.15957	0.19477	0.1937	0.32999	0.14949	0.0049782	0.061861	0.20456	0.27038	0.26502	0.064218	0.11595	0.091734	0.23286	0.12018	0.21239	-4.2354	-4.7708	-4.1604	-4.8208	-4.4958	-4.3146	-4.8667	-4.3812	-4.5708	-4.6375	-4.1292	-4.8229	-4.5437	-4.3417	-4.8812	-4.2958	11.853	108.586	78.032	247.297	133.538	188.748	0.017	-39.230	17.374	86.419	64.765	6.535	116.857	-61.969	97.591	250.805	7.1029e-05	0.00028772	9.596e-05	1072.3	1.7335e-06	2.1911e-06	1148.6	220.71	5.637e-07	3.4189e-06	279.26	78.846	61.374	17.901	1.8927e-06	25.28	0.00014175	0.00013703	4.6897e-05	1049.1	2.1531e-06	1.4845e-06	1125.6	218.05	2.0001e-06	1.3605e-06	274.35	79.132	61.776	17.905	1.6531e-06	25.409	207.987	33.464	43.647	-51.616	98.593	106.051	-51.523	-44.280	43.371	89.518	-44.884	-37.415	-37.482	-30.520	96.448	-31.458	-8191	255	
25113.566	1	1	0	0	0.05262	0.23349	0.1098	0.11868	0.14641	0.088441	0.20766	0.175	0.096961	0.035769	0.042537	0.13287	0.13136	0.13443	0.21473	0.095056	-4.15	-4.7792	-4.2	-4.9167	-4.4062	-4.0938	-5.0062	-4.175	-4.2375	-4.7521	-4.2354	-4.7417	-4.6917	-4.1937	-4.7958	-4.2729	117.797	145.543	-42.525	228.351	35.461	191.555	260.562	268.212	42.652	194.526	97.382	149.100	102.543	288.276	95.146	282.529	6.6364e-05	0.00030699	0.00011819	1072.3	1.4188e-06	2.6816e-06	1145.8	220.32	8.8812e-07	2.1981e-06	277	78.349	61.884	17.788	1.5965e-06	25.528	0.00015991	0.000153	4.6509e-05	1050.1	2.0136e-06	1.8347e-06	1126.4	218.03	2.2808e-06	1.1938e-06	274.22	79.106	61.993	17.898	1.6591e-06	25.465	201.285	19.461	25.676	-51.752	98.541	79.245	-51.218	-44.505	112.835	82.661	-44.676	-37.358	-37.203	-30.871	84.700	-31.080	-8191	255	
25113.662	1	1	0	0	0.25382	0.07483	0.063892	0.1649	0.067504	0.10377	0.39448	0.53141	0.027341	0.24953	0.27918	0.064453	0.20995	0.0637	0.15565	0.21518	-4.0458	-4.7146	-4.2208	-4.7896	-4.5958	-4.1917	-4.7312	-4.3146	-4.4563	-4.7896	-4.3854	-4.4187	-4.5875	-4.2	-4.6333	-4.4458	126.106	256.020	256.211	288.902	148.664	-22.505	232.628	278.985	169.751	-62.203	227.531	196.992	278.876	-0.208	116.855	-55.845	7.9698e-05	0.00030602	5.3096e-05	1068.6	2.0333e-06	2.9097e-06	1148.1	220.13	1.2507e-06	3.3179e-06	277.72	78.657	61.501	17.82	2.3635e-06	25.226	0.00016633	0.00014911	3.6405e-05	1050	2.0751e-06	1.4735e-06	1125.7	218.26	2.08e-06	1.3338e-06	274.58	79.22	61.873	17.891	1.6565e-06	25.37	193.350	32.405	24.937	-51.628	137.021	106.312	-51.478	-44.262	104.605	101.090	-44.575	-37.643	-37.720	-30.578	107.842	-31.150	-8191	255	
25113.760	1	1	0	0	0.16009	0.1791	0.086345	0.23061	0.084881	0.027133	0.12283	0.31012	0.14241	0.11957	0.24946	0.10198	0.063731	0.052356	0.1463	0.202	-3.9083	-4.725	-4.2562	-4.7562	-4.55	-4.1792	-4.8208	-4.4792	-4.1875	-4.8333	-4.2937	-4.2812	-4.7688	-4.1438	-4.7312	-4.5917	-32.858	228.629	95.472	178.323	222.351	68.104	285.555	-21.297	43.571	98.046	63.418	-36.653	220.158	30.290	-47.410	75.167	7.1415e-05	0.00019263	6.6573e-05	1072.9	1.9184e-06	2.8942e-06	1153.2	220.76	1.0858e-06	2.4571e-06	277.6	78.329	61.967	17.902	3.2554e-06	25.348	0.00016004	0.00014187	4.0364e-05	1051.5	2.2224e-06	1.8884e-06	1127.6	218.36	2.1653e-06	1.2796e-06	274.97	79.17	62.027	17.946	1.557e-06	25.503	206.608	18.863	41.134	-51.475	111.935	73.906	-51.356	-44.317	88.736	105.515	-44.690	-37.509	-37.131	-31.070	87.502	-31.367	-8191	255	
25113.855	1	1	0	0	0.046458	0.13091	0.11583	0.16944	0.2142	0.22578	0.10014	0.21167	0.21389	0.082591	0.21205	0.026622	0.30743	0.11178	0.11542	0.17265	-3.9292	-4.8542	-4.2458	-4.5125	-4.7937	-4.2063	-4.8958	-4.6354	-4.1104	-4.8063	-4.5437	-4.3875	-4.7646	-4.2292	-4.5458	-4.4521	-41.947	187.121	94.802	-56.014	39.032	25.132	-38.317	254.102	196.038	55.685	43.644	78.030	251.580	258.586	203.856	74.252	6.1684e-05	0.00027755	6.9541e-05	1074.2	1.7638e-06	2.8654e-06	1150.2	221.78	6.576e-07	2.4327e-06	276.55	78.759	62.073	17.809	2.758e-06	25.318	0.0001557	0.0001221	4.1263e-05	1053.3	2.079e-06	2.1053e-06	1129.7	219	2.1366e-06	1.399e-06	275.2	79.14	62.05	17.894	1.6728e-06	25.488	196.520	29.058	32.920	-51.730	151.867	96.130	-51.420	-44.407	94.646	75.601	-44.571	-37.842	-37.553	-30.852	124.623	-31.246	-8191	255	
25113.951	1	1	0	0	0.090093	0.077738	0.15858	0.19303	0.14081	0.14194	0.26693	0.081742	0.27396	0.13572	0.028312	0.086663	0.1338	0.048897	0.047718	0.095893	-3.8229	-4.6375	-4.4125	-4.3958	-4.7625	-4.1771	-4.7312	-4.7333	-4.0833	-4.7979	-4.45	-4.2729	-4.8	-4.55	-4.5333	-4.7708	75.046	182.374	244.310	241.594	260.912	35.877	241.097	222.547	88.564	230.000	19.772	239.713	21.619	189.405	-51.903	153.183	6.3508e-05	0.00027765	6.4117e-05	1075.1	1.9677e-06	2.5247e-06	1152.1	220.73	1.051e-06	2.2721e-06	278.25	79.116	62.31	17.948	2.3339e-06	25.322	0.00016656	0.00014998	3.4657e-05	1052.1	2.0229e-06	1.8198e-06	1129.9	218.63	2.1443e-06	1.4246e-06	275.13	79.5	62.265	17.933	1.5664e-06	25.47	203.748	38.762	38.698	-51.705	92.766	102.851	-51.429	-44.525	148.789	65.858	-44.696	-37.889	-37.692	-30.957	87.907	-31.134	-8191	255	
25114.072	1	1	0	0	0.21664	0.21729	0.074251	0.33575	0.18627	0.065751	0.053303	0.21187	0.12591	0.12042	0.083273	0.068125	0.1241	0.037973	0.11302	0.064727	-3.8917	-4.6083	-4.5563	-4.4042	-4.8292	-4.2979	-4.7167	-4.675	-4.2125	-4.7063	-4.5938	-4.3979	-4.675	-4.3479	-4.4521	-4.825	290.985	28.438	128.593	-54.763	46.894	158.646	103.818	184.435	204.272	29.978	289.477	262.640	269.512	197.921	100.773	-28.367	6.5903e-05	0.00040575	8.0337e-05	1074.8	1.9563e-06	2.4109e-06	1151.2	222.21	5.9171e-07	3.81e-06	278.79	78.561	62.455	17.799	2.1046e-06	25.527	0.00016529	0.00015999	4.2841e-05	1053.8	2.1881e-06	1.4506e-06	1129.8	219.63	2.2808e-06	1.6545e-06	276.16	79.205	62.153	17.874	1.7363e-06	25.587	202.561	22.576	37.373	-51.729	119.202	99.050	-51.534	-44.345	105.017	86.757	-44.806	-37.448	-37.173	-31.042	90.040	-31.540	-8191	255	
25114.170	1	1	0	0	0.018604	0.23906	0.16144	0.33691	0.068464	0.11052	0.28276	0.28647	0.21379	0.29681	0.22402	0.14455	0.11746	0.18414	0.23129	0.21818	-3.9396	-4.6188	-4.5479	-4.2667	-4.7104	-4.4812	-4.5646	-4.9521	-4.1562	-4.6396	-4.9	-4.2771	-4.725	-4.5625	-4.4375	-4.9604	106.508	58.360	171.669	262.750	17.469	181.948	210.188	220.340	71.092	266.854	225.651	253.276	232.943	49.751	280.098	21.744	8.1106e-05	0.0002651	6.0439e-05	1077	1.741e-06	3.0587e-06	1148.4	221.9	1.8895e-06	3.0825e-06	277.9	79.006	62.069	17.761	1.919e-06	25.633	0.00016848	0.00014031	4.3764e-05	1056.3	2.2559e-06	1.6476e-06	1131.4	219.22	2.1048e-06	1.6683e-06	275.89	79.428	62.203	17.959	1.8761e-06	25.553	214.071	3.565	26.137	-51.922	114.031	84.266	-51.534	-44.328	147.634	112.427	-44.303	-37.689	-37.075	-30.875	119.981	-31.321	-8191	255	
25114.240	1	1	0	0	0.11982	0.11731	0.081005	0.23587	0.14758	0.093992	0.33132	0.29248	0.14977	0.17393	0.30249	0.25105	0.11732	0.25426	0.14271	0.18007	-3.8229	-4.5958	-4.8042	-4.2375	-4.7042	-4.5083	-4.5021	-4.8938	-4.3854	-4.4708	-4.9396	-4.2646	-4.7229	-4.6417	-4.1604	-4.95	0.390	168.546	281.830	260.143	-40.893	186.150	245.661	256.208	272.697	205.988	80.511	254.830	167.721	55.077	152.679	-41.902	7.0675e-05	0.00036843	8.1812e-05	1073.3	1.354e-06	1.7647e-06	1154.3	221.4	1.0289e-06	1.9653e-06	277.06	78.948	61.91	17.909	2.4516e-06	25.413	0.00016261	0.0001599	3.9126e-05	1053.9	2.0619e-06	1.5661e-06	1132.5	219.28	2.1048e-06	1.8163e-06	275.11	79.414	62.276	17.972	1.9499e-06	25.596	202.497	28.665	47.023	-51.538	89.075	90.040	-51.326	-44.418	145.014	107.404	-44.886	-37.343	-37.596	-30.516	100.153	-31.545	-8191	255	
25114.336	1	1	0	0	0.13677	0.10152	0.27211	0.28411	0.095187	0.076714	0.15827	0.082317	0.15253	0.13211	0.12709	0.15283	0.097151	0.2322	0.022087	0.15155	-4.1292	-4.5896	-4.7188	-4.3979	-4.8417	-4.6875	-4.3896	-4.9375	-4.4771	-4.4104	-4.9375	-4.1646	-4.5646	-4.5125	-4.1833	-4.7583	236.818	269.059	3.506	214.376	23.568	123.858	124.788	31.553	-25.086	98.500	264.485	212.211	255.315	212.553	265.492	295.329	5.6761e-05	0.00029706	8.9929e-05	1075.9	1.6921e-06	3.0883e-06	1155.6	222.07	7.4281e-07	2.8684e-06	279.54	78.878	62.409	17.907	2.5456e-06	25.461	0.00015786	0.00016111	3.609e-05	1057	2.2606e-06	1.3939e-06	1133.4	219.27	1.9808e-06	1.6259e-06	275.94	79.369	62.305	17.98	1.9147e-06	25.519	207.672	29.110	21.754	-51.664	67.866	83.335	-51.322	-44.399	146.836	87.725	-44.797	-37.529	-37.556	-30.916	130.680	-31.129	-8191	255	
25114.455	1	1	0	0	0.045414	0.14138	0.11363	0.24946	0.18313	0.20006	0.3659	0.19997	0.065632	0.26129	0.26222	0.16218	0.086846	0.21001	0.35874	0.21934	-4.1229	-4.2604	-4.8187	-4.3187	-4.5542	-4.5979	-4.2771	-4.9375	-4.3792	-4.2937	-5.0021	-4.3688	-4.5083	-4.7667	-4.1292	-4.7417	223.726	206.155	70.380	272.724	281.391	216.756	239.058	191.403	171.159	285.280	0.503	225.702	-39.389	19.522	-40.333	290.237	7.5072e-05	0.00031067	8.9875e-05	1077.9	2.1608e-06	2.9251e-06	1154.5	221.55	1.3244e-06	1.1142e-06	278.73	78.745	62.04	17.823	2.0133e-06	25.397	0.00015786	0.0001731	3.5045e-05	1055.4	2.2037e-06	1.3263e-06	1133.1	219.1	1.8746e-06	1.5726e-06	275.4	79.35	62.086	17.949	1.8384e-06	25.526	200.141	38.183	39.222	-51.632	125.634	93.161	-51.227	-44.497	148.035	104.277	-44.501	-37.447	-37.705	-30.813	112.572	-31.257	-8191	255	
25114.551	1	1	0	0	0.2978	0.073854	0.077105	0.11332	0.10901	0.22005	0.34127	0.34027	0.089963	0.14469	0.041866	0.1496	0.075888	0.14046	0.024109	0.11164	-4.1375	-4.1292	-4.6625	-4.3667	-4.4708	-4.8271	-4.4563	-4.7875	-4.5125	-4.2604	-4.7583	-4.2229	-4.4958	-4.8979	-4.2667	-4.6167	291.192	56.488	101.829	196.815	175.133	227.926	266.526	230.728	25.872	160.535	-15.229	-37.112	273.361	290.037	93.507	-17.981	5.6684e-05	0.00034132	8.5468e-05	1076.8	1.6574e-06	2.3089e-06	1148.3	221.89	1.3715e-06	3.0418e-06	278.23	78.598	61.902	17.748	2.9021e-06	25.578	0.00014153	0.00013712	3.4463e-05	1053.1	2.1359e-06	1.4477e-06	1130.6	219.37	1.8893e-06	1.9149e-06	274.96	79.096	62.207	17.941	1.5656e-06	25.474	203.825	36.237	30.163	-51.586	144.255	75.746	-51.339	-44.157	116.431	98.253	-44.710	-37.526	-37.122	-30.791	89.081	-30.360	-8191	255	
25114.648	1	1	0	0	0.12941	0.056084	0.19025	0.36702	0.21031	0.086045	0.13933	0.36491	0.089933	0.11738	0.16476	0.072263	0.31687	0.06109	0.15961	0.19877	-4.1188	-4.1813	-4.8542	-4.4646	-4.3187	-4.6521	-4.3167	-4.7708	-4.7208	-4.1396	-4.7396	-4.4062	-4.2562	-4.9646	-4.2708	-4.6312	160.763	159.115	112.540	279.776	5.622	-29.522	200.793	243.365	52.000	136.387	29.162	234.154	223.530	270.750	259.927	210.733	5.4803e-05	0.0002372	7.2054e-05	1072.3	1.628e-06	3.0167e-06	1149.6	220.1	1.132e-06	3.3238e-06	278.22	78.84	61.811	18.053	2.7226e-06	25.298	0.00015492	0.00017129	3.4098e-05	1050.5	2.1694e-06	1.2039e-06	1126.9	218.37	1.8218e-06	1.4009e-06	275.34	79.277	62.165	17.932	1.9791e-06	25.475	203.045	39.245	18.508	-51.677	87.138	82.890	-51.580	-44.325	94.645	75.879	-44.484	-37.454	-37.482	-30.790	70.723	-31.592	-8191	255	
25114.744	1	1	0	0	0.067528	0.13253	0.088974	0.31519	0.22366	0.222	0.17593	0.10645	0.15263	0.28328	0.23901	0.25217	0.089213	0.17606	0.1792	0.12573	-4.2833	-4.3771	-4.5979	-4.6208	-4.3562	-5.0437	-4.4417	-4.65	-4.7771	-4.1833	-4.7729	-4.5667	-4.1	-4.6896	-4.3354	-4.4896	-19.283	-38.735	225.717	232.310	55.287	123.200	287.025	220.278	180.249	190.802	-14.259	226.276	-33.220	-2.057	80.686	71.391	6.148e-05	0.00033066	6.6964e-05	1067.3	1.9682e-06	2.3084e-06	1143	220.96	1.2152e-06	3.2135e-06	276.34	78.487	61.809	17.806	2.0911e-06	25.397	0.00015075	0.00015723	3.0067e-05	1047.5	2.2544e-06	8.2681e-07	1125.1	218.66	1.7094e-06	1.3388e-06	273.98	78.942	61.972	17.89	1.4489e-06	25.516	201.655	35.969	45.016	-51.657	129.370	80.114	-51.261	-44.497	133.895	77.223	-44.749	-37.686	-37.439	-30.557	81.896	-31.113	-8191	255	
25114.863	1	1	0	0	0.23597	0.37477	0.17134	0.2641	0.16539	0.048221	0.2354	0.029373	0.027627	0.077767	0.16776	0.34778	0.12988	0.087933	0.15792	0.11649	-4.4625	-4.0646	-4.4938	-4.6208	-4.1729	-4.8667	-4.6667	-4.5312	-4.8625	-4.1479	-4.6375	-4.5792	-4.1625	-4.7625	-4.4792	-4.4125	105.668	251.789	239.639	233.370	-37.669	173.686	295.261	-50.572	145.422	215.339	-47.050	255.385	1.589	-18.775	185.017	84.683	6.9388e-05	0.00026493	7.346e-05	1068.7	1.5058e-06	2.1615e-06	1147.1	220.64	1.0728e-06	4.1114e-06	276.98	77.923	61.956	17.826	2.9212e-06	25.335	0.0001382	0.00014851	2.9824e-05	1047	2.1445e-06	1.1561e-06	1125.9	218.31	1.8397e-06	1.3763e-06	273.93	78.843	62.008	17.882	1.5081e-06	25.466	208.608	32.702	48.672	-51.922	110.838	108.961	-51.211	-44.188	112.283	89.063	-44.853	-37.975	-37.465	-31.015	113.055	-31.015	-8191	255	
25114.936	1	1	0	0	0.18199	0.16694	0.23574	0.33635	0.058045	0.13349	0.10642	0.10643	0.12587	0.040987	0.055158	0.12996	0.10118	0.068885	0.37127	0.022065	-4.325	-4.4062	-4.4021	-4.9021	-4.3208	-4.8812	-4.7458	-4.3562	-4.9271	-4.2958	-4.5771	-4.625	-4.2604	-4.7146	-4.5104	-4.2771	97.834	-13.532	-58.570	241.627	164.775	233.834	281.396	232.606	219.485	113.733	203.604	46.351	243.162	-29.124	287.686	251.843	6.7395e-05	0.00015783	9.4054e-05	1065.1	1.0881e-06	3.192e-06	1142.5	220.08	1.0287e-06	3.7837e-06	276.02	78.684	61.701	17.803	2.6335e-06	25.342	0.00014058	0.00014066	3.5361e-05	1044.1	2.2583e-06	9.4919e-07	1122.2	218.03	1.6831e-06	1.4029e-06	274	79.128	61.978	17.888	1.4515e-06	25.527	195.063	48.002	38.170	-51.781	110.489	101.897	-51.431	-44.147	96.180	111.517	-44.577	-37.666	-37.568	-31.233	93.902	-30.816	-8191	255	
25115.057	1	1	0	0	0.17534	0.056494	0.049693	0.34031	0.1813	0.20575	0.25244	0.46947	0.27379	0.16896	0.19541	0.12088	0.13892	0.19775	0.045347	0.15782	-4.6146	-4.3521	-4.4708	-4.8208	-4.2271	-4.7021	-4.6875	-4.3417	-4.9292	-4.3979	-4.4563	-4.9604	-4.3271	-4.7688	-4.6646	-4.2667	122.710	111.753	231.583	254.049	-25.506	23.223	276.636	259.985	289.981	220.415	256.692	180.423	285.849	256.017	284.255	287.811	7.0576e-05	0.00031931	0.00010229	1067.4	1.6426e-06	2.2166e-06	1140.9	220.41	1.1305e-06	1.9907e-06	278.07	78.374	62.05	17.753	3.1408e-06	25.406	0.00013944	0.00012305	3.9077e-05	1046.3	2.0829e-06	1.1392e-06	1122.8	218.45	1.5854e-06	1.2135e-06	274.74	78.95	62.067	17.843	1.4558e-06	25.591	205.067	25.947	41.799	-51.595	123.720	91.463	-51.330	-44.429	120.599	94.539	-44.400	-37.234	-37.644	-30.981	102.973	-31.361	-8191	255	
25115.152	1	1	0	0	0.13957	0.18657	0.14297	0.040838	0.28353	0.12268	0.30778	0.30562	0.13221	0.025638	0.20046	0.32904	0.2034	0.14209	0.10484	0.24421	-4.4542	-4.425	-4.3667	-4.8896	-4.1708	-4.5396	-4.8063	-4.3562	-4.7292	-4.4292	-4.4542	-4.8208	-4.4062	-4.6	-4.7729	-4.1792	51.807	-16.678	85.230	-15.689	200.742	-2.188	257.755	237.707	59.107	269.890	264.897	263.412	88.817	171.633	-13.779	75.046	5.2752e-05	0.00032298	8.7184e-05	1069	1.1158e-06	2.5492e-06	1143.8	219.64	1.8462e-06	4.2585e-06	278.88	78.513	62.001	17.764	1.9375e-06	25.681	0.00013471	0.00011365	3.0965e-05	1046.9	1.9707e-06	1.3044e-06	1123.3	218.03	1.8265e-06	1.4542e-06	274.68	79.043	62.133	17.875	1.5527e-06	25.597	199.928	44.018	17.946	-51.668	128.468	106.095	-51.443	-44.127	125.810	96.067	-44.862	-37.193	-37.274	-30.798	109.323	-31.003	-8191	255	
25115.248	1	1	0	0	0.42411	0.073973	0.11524	0.32149	0.27927	0.2097	0.11504	0.038794	0.26253	0.079469	0.27265	0.10179	0.20001	0.055633	0.10367	0.40036	-4.5604	-4.4646	-4.3125	-5.0229	-4.1167	-4.5687	-4.7958	-4.2417	-4.6896	-4.4563	-4.3417	-4.8083	-4.3313	-4.5521	-4.6875	-4.2792	96.484	3.679	225.125	-29.839	41.596	70.794	224.082	154.681	136.518	-24.849	242.434	63.977	141.642	75.454	219.548	258.396	5.2844e-05	0.00024945	6.9689e-05	1068.1	1.5823e-06	2.9772e-06	1148.2	221.45	1.0351e-06	2.5122e-06	276.78	78.318	61.491	17.796	2.2447e-06	25.448	0.00014426	0.00015248	3.66e-05	1045.8	2.1398e-06	1.2208e-06	1125.8	218.23	1.8234e-06	1.5223e-06	274.29	79.077	61.828	17.931	1.4609e-06	25.598	206.315	33.900	47.834	-51.537	72.011	75.527	-51.289	-44.366	133.841	86.815	-44.635	-38.013	-37.099	-31.050	105.673	-31.113	-8191	255	
25115.346	1	1	0	0	0.061783	0.20763	0.056044	0.23942	0.062001	0.14901	0.24213	0.20597	0.038882	0.19065	0.12476	0.24971	0.14059	0.17819	0.19612	0.11709	-4.2333	-4.3771	-4.0375	-5.0437	-4.1521	-4.3375	-4.9146	-4.3063	-4.7417	-4.4917	-4.2354	-4.8917	-4.4563	-4.4583	-4.7188	-4.3292	17.033	-53.233	13.254	225.111	296.028	84.532	186.558	64.627	190.453	55.750	282.997	251.271	218.937	71.561	105.053	-28.377	6.6166e-05	0.00030266	6.7087e-05	1067	1.4015e-06	3.8696e-06	1145.4	221.15	1.4245e-06	4.1247e-06	277.65	78.348	61.828	17.807	2.6055e-06	25.647	0.00014133	0.00015352	4.1141e-05	1049.1	2.3237e-06	1.3352e-06	1128.3	218.81	2.1219e-06	1.2668e-06	274.61	79.206	62.093	17.912	1.3931e-06	25.647	209.307	35.741	31.904	-51.765	151.518	91.490	-51.350	-44.118	124.152	93.864	-44.931	-37.627	-37.253	-30.730	92.318	-31.028	-8191	255	
25115.467	1	1	0	0	0.23722	0.17681	0.23785	0.043503	0.11402	0.16341	0.11689	0.014438	0.098575	0.14303	0.32025	0.21211	0.10054	0.10868	0.18742	0.096831	-4.1896	-4.5271	-4.2812	-4.8125	-4.3167	-4.2792	-4.8604	-4.375	-4.5833	-4.65	-4.35	-4.8896	-4.4354	-4.3313	-4.6937	-4.3104	94.436	166.990	263.442	254.843	42.620	189.815	202.969	74.405	290.186	-4.622	212.811	-6.977	221.941	208.808	10.767	167.119	6.9802e-05	0.0002854	6.8975e-05	1073.4	1.8673e-06	2.9064e-06	1151.1	220.53	1.5878e-06	2.6777e-06	279.09	79.129	61.801	17.808	3.119e-06	25.534	0.00014821	0.00014109	3.7353e-05	1052.7	2.2209e-06	1.6039e-06	1128.6	218.54	2.1668e-06	1.3279e-06	275.42	79.296	62.323	17.936	1.4704e-06	25.706	204.624	40.239	30.389	-51.806	123.880	93.100	-51.482	-44.064	116.705	97.706	-44.748	-37.942	-36.947	-30.450	107.981	-31.254	-8191	255	
25115.537	1	1	0	0	0.33667	0.085553	0.11227	0.19055	0.25201	0.11011	0.070731	0.06625	0.16471	0.10366	0.16736	0.28863	0.12635	0.14879	0.1641	0.087258	-4.0292	-4.6687	-4.2125	-4.7771	-4.5062	-4.2896	-4.9646	-4.3938	-4.5854	-4.7875	-4.3208	-4.8063	-4.4875	-4.2438	-4.7979	-4.4271	176.634	124.964	290.726	247.469	118.995	147.490	-46.555	-6.368	136.619	108.028	96.650	237.044	275.111	-50.322	285.480	239.838	7.3166e-05	0.00026573	6.3653e-05	1077.4	2.0401e-06	3.8598e-06	1147.3	221.18	5.1378e-07	2.6106e-06	277.72	79.284	62.119	17.929	3.4461e-06	25.501	0.00015231	0.00015921	4.6339e-05	1054	2.1422e-06	1.782e-06	1130.4	219.34	1.928e-06	1.1296e-06	275.63	79.728	62.494	17.987	1.4541e-06	25.729	204.142	38.094	27.881	-51.580	128.382	77.766	-51.272	-44.317	103.848	84.917	-44.608	-37.547	-37.923	-30.986	88.332	-31.301	-8191	255	
25115.635	1	1	0	0	0.080699	0.19571	0.20149	0.14481	0.13983	0.11073	0.22026	0.27188	0.056226	0.096361	0.22069	0.11658	0.061441	0.099936	0.049255	0.16885	-4.15	-4.7146	-4.0167	-4.8354	-4.5396	-4.2771	-4.9417	-4.3917	-4.4708	-4.7375	-4.2	-4.575	-4.75	-4.1	-4.8021	-4.3979	84.888	239.769	288.552	296.448	-39.295	68.964	293.045	274.008	239.475	102.628	-51.762	242.741	-37.133	250.854	0.532	261.410	6.1342e-05	0.00034828	7.216e-05	1074.5	8.7309e-07	3.2158e-06	1149.6	219.82	8.6698e-07	2.3899e-06	278.03	79.127	62.649	17.946	1.8235e-06	25.609	0.00016216	0.00012064	3.9126e-05	1053.7	1.9723e-06	1.6059e-06	1130.7	218.92	1.9753e-06	1.2174e-06	275.25	79.505	62.327	17.975	1.4541e-06	25.767	200.355	41.635	29.104	-51.825	139.669	83.493	-51.292	-44.317	143.772	94.723	-44.540	-37.482	-37.483	-30.998	75.465	-31.001	-8191	255	
25115.752	1	1	0	0	0.042819	0.13793	0.15432	0.17012	0.073354	0.076363	0.040789	0.1284	0.13279	0.14791	0.22034	0.082009	0.16705	0.31055	0.1077	0.071713	-3.8563	-4.725	-4.2063	-4.7646	-4.5813	-4.0854	-4.7875	-4.4958	-4.3354	-4.7	-4.1833	-4.5542	-4.5479	-4.1271	-4.6479	-4.6438	57.492	118.989	51.860	-56.723	262.020	-41.127	250.445	192.350	105.806	163.993	241.215	-54.392	195.420	11.062	242.032	84.188	5.7327e-05	0.00028213	0.00011007	1076.9	9.427e-07	2.4972e-06	1153.4	220.43	7.5703e-07	3.54e-06	278.53	79.053	62.163	18.015	2.0903e-06	25.647	0.00016232	0.00012349	5.2775e-05	1053.4	2.0915e-06	1.569e-06	1133.2	218.9	2.0645e-06	1.2381e-06	275.7	79.537	62.3	18.049	1.6068e-06	25.743	210.957	30.989	24.320	-51.682	114.560	83.392	-51.343	-44.230	107.408	97.113	-44.895	-37.692	-37.231	-31.188	125.576	-31.082	-8191	255	
25115.850	1	1	0	0	0.10631	0.10921	0.12174	0.083405	0.12867	0.23925	0.11659	0.15191	0.097844	0.14984	0.23269	0.2971	0.072403	0.10293	0.29012	0.18405	-3.9417	-4.8396	-4.1104	-4.7646	-4.7438	-4.1438	-4.8833	-4.7438	-4.1146	-4.7312	-4.425	-4.3396	-4.7521	-4.1562	-4.5667	-4.6208	-35.223	110.156	188.062	-26.211	293.898	149.927	257.408	182.647	70.235	148.222	153.777	186.477	-38.721	23.077	12.172	-32.638	7.1824e-05	0.00038551	7.0378e-05	1076.8	1.7855e-06	3.2795e-06	1153.1	221.21	1.3845e-06	2.9806e-06	279.26	78.835	62.145	17.921	2.6277e-06	25.696	0.0001675	0.00014834	4.1068e-05	1055.4	2.0479e-06	1.6964e-06	1133	219.14	2.2459e-06	1.0201e-06	276.31	79.492	62.408	18.026	1.6514e-06	25.824	200.043	48.493	42.890	-51.515	109.351	82.463	-51.553	-44.462	116.120	88.342	-44.517	-37.586	-37.753	-30.506	119.599	-31.596	-8191	255	
25115.945	1	1	0	0	0.040321	0.081323	0.16137	0.060852	0.30882	0.16461	0.32212	0.0068676	0.36833	0.14288	0.072742	0.18126	0.058033	0.075039	0.080239	0.046376	-3.7667	-4.6479	-4.4333	-4.5042	-4.7875	-4.1438	-4.6646	-4.7625	-4.1646	-4.5687	-4.4417	-4.2229	-4.6896	-4.2229	-4.2792	-4.7812	104.197	112.629	116.516	201.095	46.191	116.449	266.948	81.989	148.278	297.395	-35.819	240.397	127.381	103.171	139.331	-4.898	6.3213e-05	0.00030123	0.00010038	1080.4	1.7056e-06	3.0582e-06	1153.2	222.36	1.4809e-06	3.3665e-06	277.25	78.708	62.242	17.845	3.1542e-06	25.906	0.00016108	0.00013341	3.9466e-05	1057.9	2.1203e-06	1.6685e-06	1132.5	219.73	2.0676e-06	1.4167e-06	275.49	79.54	62.368	17.967	1.6977e-06	25.827	193.209	40.086	18.212	-51.672	91.358	92.733	-51.420	-44.256	106.337	77.459	-44.249	-37.557	-37.639	-30.985	100.406	-31.226	-8191	255	
25116.041	1	1	0	0	0.081787	0.07054	0.16917	0.2198	0.19837	0.1409	0.20568	0.033003	0.12483	0.12704	0.15614	0.065048	0.11903	0.24847	0.26749	0.18123	-3.6875	-4.7646	-4.3562	-4.4229	-4.8521	-4.4375	-4.6979	-4.8313	-4.0938	-4.6417	-4.625	-4.3438	-4.825	-4.2104	-4.4729	-4.8833	98.578	186.796	97.149	185.028	37.097	159.296	223.323	100.542	239.343	4.946	271.025	263.110	-0.237	229.574	-20.144	202.465	5.7092e-05	0.00017293	5.764e-05	1076.3	1.522e-06	3.8694e-06	1152.4	221.06	1.4132e-06	3.0215e-06	278.37	79.165	62.458	17.876	2.8154e-06	25.862	0.00016558	0.00013272	4.2866e-05	1056.5	2.0385e-06	1.7362e-06	1133.6	219.7	2.4103e-06	1.2924e-06	275.77	79.658	62.506	18	1.8315e-06	25.835	207.933	57.695	36.752	-51.602	127.011	75.274	-51.329	-44.302	117.749	80.593	-44.504	-37.668	-37.342	-30.828	120.174	-31.033	-8191	255	
25116.162	1	1	0	0	0.18471	0.067524	0.14569	0.37067	0.10492	0.11903	0.23027	0.047522	0.11908	0.14645	0.26115	0.18604	0.05297	0.16809	0.13339	0.24828	-3.7625	-4.6292	-4.6042	-4.4021	-4.7208	-4.4021	-4.4313	-4.9417	-4.2	-4.6083	-4.5	-4.3146	-4.7542	-4.4708	-4.3479	-4.7792	92.006	197.007	-44.520	234.605	231.627	-19.400	276.967	283.818	153.144	-36.227	277.622	258.911	170.314	-19.792	-44.550	204.233	6.2106e-05	0.0003325	9.559e-05	1082.5	1.8373e-06	3.0599e-06	1154.5	222.58	1.867e-06	3.1886e-06	280.96	78.63	62.037	17.934	2.0297e-06	25.727	0.00016731	0.00014143	3.6915e-05	1058.1	1.9715e-06	1.5641e-06	1134.3	219.82	2.1265e-06	1.4956e-06	276.5	79.527	62.363	18.001	1.7594e-06	25.897	199.044	30.722	40.612	-51.670	163.863	97.177	-51.390	-44.038	92.489	104.776	-44.805	-37.575	-37.441	-30.872	112.342	-31.458	-8191	255	
25116.232	1	1	0	0	0.10141	0.24584	0.13528	0.092532	0.019678	0.04068	0.23918	0.11268	0.096337	0.13959	0.12446	0.14028	0.16547	0.13284	0.025923	0.16484	-3.9896	-4.6125	-4.6813	-4.2917	-4.7292	-4.4396	-4.4313	-4.8562	-4.2146	-4.2917	-4.6479	-4.1	-4.7896	-4.3896	-4.2167	-4.7771	135.520	148.167	26.909	-42.887	62.423	67.087	180.830	-46.774	18.216	38.424	96.709	163.568	-24.178	98.155	18.747	211.359	6.2801e-05	0.0001851	9.0039e-05	1076.3	3.0211e-06	2.7466e-06	1152.9	222.03	1.4892e-06	2.7058e-06	279.1	79.45	62.16	17.942	1.7975e-06	25.871	0.00016708	0.00015067	3.8664e-05	1057	2.0611e-06	1.4188e-06	1132.1	219.74	2.1257e-06	1.4345e-06	276.19	79.627	62.43	18.007	1.6908e-06	25.864	213.954	17.478	37.809	-51.541	143.818	74.016	-51.385	-44.210	116.274	98.527	-44.784	-37.595	-37.520	-31.116	83.285	-31.011	-8191	255	
25116.328	1	1	0	0	0.26481	0.092069	0.22724	0.16802	0.13738	0.16707	0.26843	0.1753	0.1484	0.27545	0.069363	0.14998	0.19417	0.25256	0.09676	0.22424	-3.8979	-4.4958	-4.9313	-4.2271	-4.6458	-4.6271	-4.4729	-4.8708	-4.3083	-4.4729	-4.7771	-4.2458	-4.6312	-4.6583	-4.0687	-4.7146	-29.045	20.668	55.544	231.315	97.012	136.183	182.625	292.271	155.984	-21.493	137.047	79.704	95.576	237.311	99.200	1.785	6.9538e-05	0.00025425	7.5617e-05	1076	1.5396e-06	3.0387e-06	1153.6	221.17	1.0157e-06	2.8374e-06	280.29	79.269	62.222	17.91	1.8179e-06	25.952	0.00015143	0.00014152	3.133e-05	1055.9	2.0954e-06	1.4964e-06	1131.5	219.62	1.9823e-06	1.3812e-06	277.11	79.648	62.463	18.037	1.4326e-06	25.893	203.262	47.315	47.289	-51.779	109.219	71.174	-51.366	-43.964	130.345	90.956	-44.377	-37.600	-37.202	-30.940	86.298	-31.483	-8191	255	
25116.426	1	1	0	0	0.11095	0.084817	0.31226	0.0856	0.28787	0.0094352	0.27099	0.25737	0.27309	0.17514	0.26301	0.1284	0.13677	0.21557	0.19293	0.06048	-4.0542	-4.3875	-4.8125	-4.3021	-4.4812	-4.5167	-4.2792	-4.9104	-4.3458	-4.4479	-4.9062	-4.3625	-4.4604	-4.5938	-4.1667	-4.8208	152.295	-10.296	25.954	181.302	114.939	-25.145	204.023	285.653	214.802	233.583	265.299	-3.036	160.507	266.414	-21.357	137.217	6.6032e-05	0.00021163	9.3304e-05	1078.5	1.7634e-06	3.218e-06	1154.7	221.55	7.8189e-07	4.2185e-06	277.88	79.015	62.464	17.943	2.3947e-06	25.792	0.00015068	0.00015308	2.6861e-05	1055.6	2.2692e-06	1.1333e-06	1132.4	219.57	1.9063e-06	1.6466e-06	275.6	79.586	62.406	18.023	1.7457e-06	25.886	210.705	26.035	23.067	-51.569	127.074	97.767	-51.323	-44.127	106.644	83.494	-44.412	-38.006	-37.567	-30.954	97.377	-31.187	-8191	255	
25116.545	1	1	0	0	0.1746	0.087614	0.1526	0.14181	0.096938	0.18126	0.3548	0.20867	0.15632	0.029931	0.19531	0.3574	0.064941	0.12136	0.18759	0.096716	-4.1188	-4.3938	-4.7146	-4.4125	-4.5083	-4.7312	-4.3396	-4.875	-4.4938	-4.1458	-4.8375	-4.4021	-4.7167	-4.7667	-4.2646	-4.6271	288.971	195.786	173.523	156.664	65.548	-20.723	245.910	143.824	122.657	-0.615	82.066	-47.143	86.812	150.559	216.595	262.421	7.4396e-05	0.00035629	0.00011193	1077.8	2.0612e-06	3.0564e-06	1151.9	221.11	8.483e-07	2.8553e-06	278.73	79.095	61.884	17.965	2.9663e-06	25.973	0.00015349	0.00014092	3.2058e-05	1054.7	2.1266e-06	1.2686e-06	1130.1	219.51	1.8141e-06	1.4364e-06	276.22	79.684	62.417	18	1.7543e-06	25.877	197.358	22.634	21.868	-51.691	108.975	93.224	-51.423	-44.470	121.669	84.021	-44.744	-37.876	-37.165	-31.070	105.870	-31.430	-8191	255	
25116.641	1	1	0	0	0.15054	0.13847	0.18419	0.14931	0.060474	0.11569	0.20171	0.094758	0.2099	0.14056	0.077146	0.25995	0.32906	0.14306	0.19281	0.11127	-4.2042	-4.2021	-4.7417	-4.425	-4.25	-4.6438	-4.3021	-4.6521	-4.5146	-4.1771	-4.7479	-4.2812	-4.2708	-4.8187	-4.05	-4.5458	124.317	110.694	124.729	177.282	189.994	211.386	276.157	193.222	83.668	71.570	-8.686	-47.070	151.891	270.316	285.507	-40.027	5.7626e-05	0.00017696	9.4439e-05	1078.4	1.3999e-06	3.3974e-06	1149.9	222.16	1.5067e-06	2.8918e-06	279.98	79.145	62.262	17.939	2.6505e-06	25.611	0.00014752	0.00015196	3.3054e-05	1054.7	2.2302e-06	1.2148e-06	1132.2	219.32	1.8482e-06	1.4276e-06	276.32	79.496	62.416	17.952	1.6925e-06	25.816	189.140	30.418	22.285	-51.725	129.335	97.357	-51.128	-44.172	109.282	110.721	-44.802	-37.717	-37.608	-30.797	112.130	-31.395	-8191	255	
25116.736	1	1	0	0	0.03851	0.16517	0.16953	0.20611	0.16669	0.364	0.1554	0.16917	0.056395	0.11902	0.23839	0.17805	0.066272	0.1288	0.093664	0.10008	-4.3187	-4.0437	-4.7542	-4.575	-4.2417	-4.7625	-4.2937	-4.4604	-4.6	-4.175	-4.6333	-4.4729	-4.2271	-4.8812	-4.1771	-4.4729	136.149	63.426	228.010	219.591	226.916	154.235	290.324	184.667	90.580	212.296	235.770	217.350	71.729	85.501	199.715	136.057	6.6074e-05	0.00023917	7.9344e-05	1077.6	1.4932e-06	2.8248e-06	1157.9	221.28	1.1233e-06	2.9594e-06	277.89	79.347	62.55	18.007	3.4184e-06	25.891	0.00014534	0.00014031	3.4244e-05	1056.4	2.0167e-06	1.2407e-06	1134	219.58	1.8722e-06	1.4404e-06	275.88	79.735	62.661	18.044	1.955e-06	25.964	204.182	29.227	24.764	-51.803	100.713	98.773	-51.417	-44.380	128.278	101.786	-44.697	-37.565	-37.583	-31.153	97.550	-31.062	-8191	255	
25116.832	1	1	0	0	0.32058	0.15902	0.11004	0.11105	0.10892	0.11908	0.13085	0.11063	0.1726	0.11812	0.10749	0.085832	0.082747	0.097004	0.054276	0.21791	-4.3875	-4.2896	-4.6646	-4.7458	-4.1917	-4.7542	-4.3833	-4.5062	-4.7771	-4.2229	-4.7	-4.5958	-4.1042	-4.7667	-4.2646	-4.3229	136.530	82.464	279.253	-38.907	90.077	254.857	210.164	291.310	157.733	126.335	41.769	-19.015	44.057	223.707	148.023	-19.911	6.1718e-05	0.00037371	8.1852e-05	1080.1	2.2806e-06	2.8503e-06	1148.8	223.22	1.1754e-06	3.1375e-06	277.95	78.636	62.444	18.04	2.4519e-06	25.916	0.00014775	0.00016663	2.5987e-05	1058.7	2.3292e-06	1.174e-06	1133.6	220.58	1.68e-06	1.2983e-06	276.44	79.613	62.756	18.055	1.732e-06	25.964	199.157	5.771	42.777	-51.761	117.529	100.667	-51.363	-44.279	83.783	98.371	-44.276	-37.445	-37.826	-30.904	103.802	-31.047	-8191	255	
25116.930	1	1	0	0	0.13693	0.096591	0.17234	0.12578	0.042814	0.19342	0.38202	0.30849	0.11903	0.18105	0.16667	0.18764	0.11034	0.18421	0.040399	0.080756	-4.5521	-4.1687	-4.5583	-4.7833	-4.2229	-4.6625	-4.4812	-4.4563	-4.8125	-4.1937	-4.65	-4.6958	-4.1333	-4.6479	-4.5312	-4.3083	131.912	-53.282	-19.065	-41.807	182.253	40.924	280.964	265.589	11.147	296.290	-39.109	227.319	196.968	232.751	217.774	243.827	7.2272e-05	0.00028873	9.5804e-05	1082.8	1.5985e-06	3.4102e-06	1157.3	220.96	1.5211e-06	3.4441e-06	280.4	79.498	62.613	18.072	1.8832e-06	25.874	0.00014756	0.00014903	3.3953e-05	1058.9	2.2068e-06	1.3173e-06	1135.2	220.03	1.8187e-06	1.5341e-06	276.64	79.907	62.824	18.124	1.2825e-06	25.957	199.155	21.872	42.622	-51.683	133.170	81.290	-51.376	-44.226	105.786	81.613	-44.514	-38.001	-37.746	-30.933	96.641	-31.100	-8191	255	
25117.025	1	1	0	0	0.10125	0.17151	0.19724	0.1653	0.18175	0.14419	0.4107	0.087023	0.091924	0.050489	0.1527	0.16338	0.11133	0.12635	0.28488	0.17972	-4.4083	-4.2417	-4.4521	-4.8729	-4.2812	-4.7875	-4.4688	-4.3438	-4.95	-4.3333	-4.5708	-4.5958	-4.2063	-4.8583	-4.5083	-4.2063	152.694	227.161	148.466	-52.362	213.589	58.702	185.662	223.233	23.392	76.789	246.885	266.162	241.802	259.952	196.670	236.064	5.2528e-05	0.00027518	6.6903e-05	1079	1.6979e-06	2.8364e-06	1157.7	223.14	7.8269e-07	2.6114e-06	280.1	79.025	62.87	18.016	2.2261e-06	25.912	0.0001442	0.00014126	3.6478e-05	1057.1	2.1694e-06	1.0915e-06	1136.4	220.19	1.7947e-06	1.3733e-06	276.67	79.895	62.956	18.089	1.5707e-06	26.044	207.763	38.052	29.896	-51.472	122.534	75.759	-51.350	-44.058	102.148	104.583	-44.808	-37.703	-37.759	-30.851	93.645	-31.338	-8191	255	
25117.146	1	1	0	0	0.031376	0.2733	0.12064	0.14649	0.029343	0.19908	0.34743	0.21726	0.11788	0.052707	0.11976	0.20801	0.16282	0.20356	0.13446	0.21199	-4.4167	-4.1813	-4.3958	-4.775	-4.1188	-4.7479	-4.6708	-4.2083	-4.7271	-4.375	-4.4563	-4.6729	-4.325	-4.6042	-4.5687	-4.1479	19.937	120.193	115.465	247.509	295.445	208.835	224.849	226.206	57.922	170.982	237.100	-28.793	253.631	-12.047	-28.165	263.232	6.236e-05	0.00024594	0.00010563	1085.4	1.7718e-06	3.5059e-06	1157.3	223.23	4.3094e-07	3.6393e-06	281.02	79.273	63.203	17.98	3.391e-06	25.996	0.00014286	0.00013936	3.7668e-05	1060	2.1071e-06	1.3372e-06	1136.9	220.8	1.8304e-06	1.6693e-06	276.89	79.981	62.977	18.089	1.4137e-06	26.064	211.257	28.945	35.795	-51.636	138.523	77.015	-51.346	-44.527	150.616	116.953	-44.511	-37.649	-37.122	-31.096	99.415	-31.662	-8191	255	
25117.242	1	1	0	0	0.24605	0.10539	0.13716	0.13147	0.27599	0.069208	0.089701	0.17001	0.070624	0.078523	0.12134	0.33883	0.070772	0.15041	0.15049	0.19583	-4.3354	-4.4354	-4.1875	-4.925	-4.1479	-4.5958	-4.8396	-4.0729	-4.8729	-4.6062	-4.3417	-4.8542	-4.2396	-4.4604	-4.7812	-4.1854	260.626	289.675	111.858	249.742	-48.064	243.832	-30.914	285.301	-41.098	118.258	281.659	18.663	43.484	-40.936	220.781	-31.939	6.6574e-05	0.00015248	8.9419e-05	1083	1.3431e-06	1.738e-06	1155.5	222.6	8.7261e-07	2.1742e-06	279.93	79.248	62.694	18.029	2.2123e-06	25.863	0.0001531	0.00012685	3.9466e-05	1060.8	2.3175e-06	1.4865e-06	1135	220.68	1.7908e-06	1.4611e-06	276.96	80.122	63.012	18.117	1.2988e-06	26.054	201.763	22.976	45.826	-51.689	137.520	90.733	-51.573	-44.187	98.201	84.526	-44.760	-37.579	-36.977	-31.168	105.247	-31.066	-8191	255	
25117.338	1	1	0	0	0.15479	0.067948	0.12491	0.13219	0.16958	0.1728	0.1762	0.10859	0.13982	0.13038	0.14284	0.10481	0.16666	0.051612	0.076467	0.20401	-4.2792	-4.5542	-4.1979	-4.8708	-4.3313	-4.4146	-4.8167	-4.2229	-4.6271	-4.5396	-4.3708	-4.7708	-4.4625	-4.6562	-4.6708	-4.2417	286.743	283.487	-33.971	285.147	154.808	195.178	119.078	283.836	50.277	-18.494	276.558	47.525	40.337	240.928	-21.714	184.544	6.4595e-05	0.00034464	7.3735e-05	1082.9	1.7895e-06	3.2204e-06	1158.3	222.33	1.8658e-06	2.2063e-06	280.03	79.62	62.793	18.052	1.3532e-06	25.735	0.00014853	0.00012167	3.3394e-05	1061.1	2.0479e-06	1.4089e-06	1136.5	220.58	1.7404e-06	1.6259e-06	277.09	80.186	62.969	18.117	1.0483e-06	26.005	196.553	26.627	48.992	-51.649	122.913	72.309	-51.362	-44.349	105.194	117.076	-44.544	-37.524	-37.649	-30.456	132.475	-31.643	-8191	255	
25117.434	1	1	0	0	0.029193	0.079249	0.13855	0.25904	0.11856	0.073139	0.29335	0.14159	0.12523	0.16427	0.071743	0.053654	0.082013	0.097584	0.27161	0.083305	-4.2792	-4.6188	-4.2646	-4.8854	-4.475	-4.2937	-4.9479	-4.2812	-4.7	-4.6417	-4.3083	-4.7958	-4.4646	-4.4187	-4.8688	-4.3083	129.252	25.372	-50.563	218.638	250.273	110.993	289.354	79.632	-9.474	211.573	132.764	110.311	-4.547	46.211	91.213	50.815	6.7743e-05	0.00031354	6.4182e-05	1084.3	1.6688e-06	3.586e-06	1159	222.14	1.4533e-06	3.2409e-06	281.29	80.549	63.535	18.14	1.8419e-06	26.193	0.00015222	0.00010217	3.5701e-05	1065.3	1.9411e-06	1.3939e-06	1140.2	221.71	1.9056e-06	1.1355e-06	278.31	80.455	63.414	18.279	1.1598e-06	26.238	201.137	19.851	23.659	-51.654	133.233	82.183	-51.353	-44.450	98.184	106.947	-44.913	-37.316	-37.822	-30.970	123.313	-31.504	-8191	255	
25117.529	1	1	0	0	0.062368	0.062466	0.164	0.1222	0.18117	0.16448	0.12636	0.13438	0.093813	0.14404	0.080458	0.22595	0.21323	0.162	0.057898	0.26152	-4.2479	-4.7958	-4.2542	-4.9146	-4.6146	-4.3292	-4.9604	-4.525	-4.5896	-4.8604	-4.2063	-4.7208	-4.6562	-4.1833	-4.8771	-4.35	69.656	152.288	7.760	-44.588	-31.853	290.712	207.834	239.453	140.832	275.916	108.710	194.970	247.045	-32.710	134.486	127.857	6.7181e-05	0.00025702	9.2869e-05	1088.8	1.9914e-06	2.8943e-06	1160.3	224.43	1.248e-06	3.3346e-06	282.23	80.167	63.081	18.262	2.7644e-06	26.137	0.00014987	0.00010994	4.3521e-05	1068.8	2.0229e-06	1.5661e-06	1141.3	222.17	1.704e-06	1.1484e-06	278.82	80.752	63.452	18.349	1.5193e-06	26.209	217.328	18.627	37.968	-51.717	99.267	95.192	-51.667	-44.274	91.555	81.345	-44.491	-37.765	-36.991	-31.019	115.367	-31.221	-8191	255	
25117.625	1	1	0	0	0.14957	0.12006	0.035314	0.19716	0.044325	0.11597	0.34142	0.23588	0.018824	0.03638	0.054324	0.11973	0.27712	0.10802	0.1894	0.23247	-4.2396	-4.7417	-4.225	-4.75	-4.6	-4.1917	-5.0188	-4.5604	-4.3	-4.7562	-4.3021	-4.6667	-4.475	-4.2979	-4.7792	-4.4563	-4.859	175.057	253.926	274.773	24.547	165.278	185.120	228.416	271.337	-3.242	-41.200	203.374	-20.054	231.247	133.307	132.496	6.3812e-05	0.00028185	9.1022e-05	1088.9	1.6884e-06	3.2992e-06	1164.3	223.52	1.1193e-06	3.6612e-06	280.75	79.329	62.92	18.233	2.1134e-06	25.992	0.00014364	0.00010174	4.1749e-05	1067.3	1.8492e-06	1.574e-06	1143.2	221.06	1.7056e-06	1.1306e-06	278.02	80.32	63.269	18.344	1.4918e-06	26.122	201.919	16.397	29.866	-51.386	149.424	71.228	-51.462	-44.395	96.894	91.510	-44.908	-37.356	-37.239	-31.194	95.434	-31.383	-8191	255	
25117.721	1	1	0	0	0.27168	0.11178	0.020391	0.19456	0.084628	0.14101	0.12521	0.24181	0.10049	0.14768	0.13002	0.14323	0.079897	0.12773	0.10531	0.25548	-3.9729	-4.7729	-4.0021	-4.6937	-4.5437	-4.3812	-4.9021	-4.5229	-4.3333	-4.7542	-4.3021	-4.6562	-4.775	-4.1146	-4.7917	-4.6917	-46.949	-13.059	286.460	221.997	62.569	145.364	143.639	263.206	288.672	118.544	269.270	224.434	-2.968	172.356	97.016	193.755	7.2025e-05	0.00031203	9.7392e-05	1086.3	1.983e-06	3.7405e-06	1160.5	222.24	1.6465e-06	3.7761e-06	281.04	80.095	63.263	18.241	2.2567e-06	25.961	0.00015277	9.544e-05	3.8858e-05	1067.4	1.7845e-06	1.6098e-06	1141.8	220.4	1.9187e-06	1.2233e-06	277.91	80.6	63.152	18.305	1.4172e-06	26.144	206.249	40.199	42.739	-51.668	110.434	73.531	-51.385	-44.398	102.956	86.828	-44.426	-37.983	-37.162	-30.740	84.013	-31.603	-8191	255	
25117.816	1	1	0	0	0.20949	0.047807	0.10108	0.18388	0.067598	0.11235	0.2162	0.11546	0.047332	0.17423	0.11918	0.14632	0.013893	0.035611	0.13808	0.084058	-3.9396	-4.7688	-4.1521	-4.5521	-4.6687	-4.225	-4.7479	-4.6042	-4.1208	-4.8	-4.3604	-4.4	-4.7333	-4.2771	-4.5292	-4.5938	223.933	76.471	132.923	-44.548	296.926	-29.861	278.710	-24.048	269.017	175.706	-19.860	297.391	290.017	18.080	175.790	272.084	6.0222e-05	0.00035351	7.5509e-05	1088.1	2.5159e-06	3.81e-06	1160.5	222.41	1.4374e-06	2.167e-06	281.06	79.962	62.747	18.092	2.4073e-06	26.036	0.00014919	0.00011719	3.6794e-05	1065.5	1.9224e-06	1.3661e-06	1139.8	220.9	2.1087e-06	9.0962e-07	277.55	80.54	63.107	18.294	1.5664e-06	26.12	211.257	31.415	37.472	-51.753	139.393	92.294	-51.307	-44.452	120.156	93.646	-44.706	-37.575	-37.594	-30.740	93.348	-31.568	-8191	255	
25117.938	1	1	0	0	0.03982	0.29847	0.16686	0.20824	0.13015	0.026897	0.29744	0.071617	0.027403	0.065545	0.16968	0.087117	0.13922	0.12679	0.25333	0.19221	-3.9417	-4.7729	-4.3667	-4.4208	-4.6771	-4.2271	-4.5396	-4.7	-4.2979	-4.7333	-4.5167	-4.2458	-4.9938	-4.4458	-4.4083	-4.8604	-26.652	146.349	50.006	246.857	249.508	286.923	246.877	109.036	136.085	250.353	20.532	75.891	262.707	-50.444	-16.159	-34.758	6.4462e-05	0.00025179	3.314e-05	1081.4	1.3189e-06	3.5773e-06	1155.7	222.86	1.2223e-06	3.6108e-06	280.63	79.748	62.349	18.231	1.4805e-06	26.19	0.00016278	0.00011822	3.3783e-05	1063.9	1.878e-06	1.4795e-06	1140.1	220.92	1.9467e-06	1.3901e-06	278.13	80.205	62.913	18.284	1.515e-06	26.163	191.404	13.215	42.132	-51.757	108.250	76.498	-51.297	-44.365	117.834	84.228	-44.731	-38.055	-37.210	-30.794	83.726	-30.960	-8191	255	
25118.033	1	1	0	0	0.072777	0.12966	0.11944	0.2347	0.033267	0.14435	0.28305	0.30037	0.092336	0.10486	0.14917	0.1544	0.14562	0.17211	0.083347	0.021496	-3.8937	-4.7312	-4.4625	-4.5792	-4.8625	-4.2729	-4.6021	-4.6917	-4.1083	-4.7229	-4.5896	-4.3167	-5.0104	-4.325	-4.3938	-4.6521	-10.284	214.139	127.440	254.101	203.249	34.387	237.470	193.924	182.298	105.758	249.516	259.612	-41.335	-59.541	256.258	29.896	7.6855e-05	0.0001892	7.0436e-05	1087.7	2.0566e-06	3.2469e-06	1162.3	222.65	1.2038e-06	3.2409e-06	282.74	79.564	63.018	18.101	1.4575e-06	26.054	0.00016574	0.00012133	3.286e-05	1064.6	1.857e-06	1.6019e-06	1139.2	220.66	2.0971e-06	1.5341e-06	277.89	80.213	62.992	18.248	1.6145e-06	26.096	213.357	55.086	39.574	-51.615	112.727	110.626	-51.475	-44.263	80.444	99.875	-44.913	-37.616	-37.635	-30.758	136.583	-30.812	-8191	255	
25118.105	1	1	0	0	0.089473	0.12769	0.09214	0.28896	0.0277	0.072314	0.16506	0.27898	0.057043	0.16149	0.044554	0.16987	0.10564	0.31848	0.082696	0.1093	-3.7729	-4.575	-4.4146	-4.3417	-4.7833	-4.4625	-4.5583	-4.7979	-4.3625	-4.6083	-4.6854	-4.3313	-4.7542	-4.3229	-4.2771	-4.8042	296.441	274.821	212.279	250.874	285.688	201.377	203.754	245.711	234.252	50.730	249.100	-51.047	19.477	98.177	284.935	-56.590	6.2459e-05	0.0002432	8.9415e-05	1081.1	1.2153e-06	3.2836e-06	1158.2	222.53	6.3048e-07	2.9284e-06	279.75	79.474	62.792	18.248	2.5676e-06	25.901	0.00016343	0.00012521	4.0777e-05	1061.8	1.8336e-06	1.5352e-06	1139.3	220.86	2.0668e-06	1.4286e-06	277.71	80.201	62.958	18.237	1.5742e-06	26.056	206.078	7.185	31.327	-51.527	139.741	88.228	-51.487	-44.104	106.280	83.025	-44.748	-37.763	-37.524	-31.308	89.441	-31.637	-8191	255	
25118.227	1	1	0	0	0.2128	0.14991	0.060979	0.1993	0.17349	0.13274	0.017889	0.28084	0.13696	0.097411	0.38209	0.198	0.010493	0.28632	0.23346	0.12268	-3.9146	-4.4688	-4.6687	-4.2937	-4.7375	-4.5437	-4.4812	-4.8438	-4.2562	-4.6062	-4.6271	-4.2625	-4.7917	-4.4833	-4.1542	-4.7542	286.605	243.331	-12.145	237.759	128.024	92.118	253.855	191.673	177.690	23.013	225.923	166.571	-55.559	237.703	40.081	255.481	6.6139e-05	0.00023431	9.016e-05	1082	1.9454e-06	3.4604e-06	1156.3	222.66	7.5609e-07	3.0749e-06	280.62	78.808	62.69	18.171	1.9588e-06	25.971	0.00015727	0.00016672	3.3467e-05	1061.4	1.8383e-06	1.4218e-06	1138	220.76	1.9947e-06	1.5075e-06	277.68	79.906	62.942	18.258	1.6145e-06	26.052	213.753	39.672	15.248	-51.701	122.104	86.867	-51.331	-44.221	97.397	74.804	-44.736	-37.610	-37.021	-30.607	109.188	-31.093	-8191	255	
25118.322	1	1	0	0	0.27321	0.13242	0.1242	0.26302	0.14687	0.13615	0.25832	0.078819	0.15443	0.089986	0.11088	0.19663	0.26502	0.03885	0.12498	0.058484	-4.0604	-4.6354	-4.6146	-4.2667	-4.5563	-4.5729	-4.575	-4.7937	-4.425	-4.5229	-4.7688	-4.2021	-4.7375	-4.6229	-4.2021	-4.8458	33.272	-13.609	110.406	265.890	199.025	274.335	258.514	182.202	208.472	-20.144	169.955	270.714	-44.321	173.963	130.290	79.752	5.252e-05	0.0002632	8.9682e-05	1091.5	2.0573e-06	4.2349e-06	1164.3	223.32	1.2587e-06	4.7222e-06	280.37	79.731	63.02	18.038	1.638e-06	25.752	0.00015463	0.00011244	3.0844e-05	1065.5	1.9754e-06	1.3392e-06	1140.7	220.99	1.9405e-06	1.3782e-06	277.47	80.219	63.027	18.124	1.8735e-06	25.995	201.488	26.103	31.780	-51.546	111.741	91.400	-51.449	-44.071	103.133	76.877	-44.797	-37.781	-37.560	-30.730	93.290	-31.153	-8191	255	
25118.418	1	1	0	0	0.137	0.18489	0.27185	0.1535	0.17941	0.16971	0.13127	0.18961	0.11469	0.3536	0.25772	0.087644	0.11896	0.097607	0.12091	0.16595	-3.9729	-4.2812	-4.7771	-4.2438	-4.6667	-4.6667	-4.5521	-4.8896	-4.2479	-4.4208	-4.8417	-4.2188	-4.525	-4.6667	-4.1771	-4.7646	51.148	-36.199	-30.857	191.667	287.171	159.379	261.079	243.064	77.879	-59.765	230.851	146.758	74.145	95.836	151.260	259.665	6.3383e-05	0.00029166	8.2832e-05	1080.4	1.56e-06	1.1183e-06	1160.9	222.73	1.5355e-06	3.3955e-06	281.73	79.72	62.647	18.079	2.1695e-06	25.887	0.00016538	0.00013436	3.3394e-05	1061.6	2.0666e-06	1.2934e-06	1136.7	220.63	2.0707e-06	1.7768e-06	277.71	80.021	62.873	18.151	1.9473e-06	26.049	197.949	18.566	23.931	-51.658	101.478	60.744	-51.416	-44.376	92.997	91.042	-44.599	-37.900	-37.204	-30.826	113.885	-31.081	-8191	255	
25118.539	1	1	0	0	0.21682	0.13415	0.13207	0.11888	0.072315	0.31157	0.11779	0.082393	0.16223	0.24564	0.18318	0.20556	0.043581	0.10048	0.13738	0.14253	-4.1333	-4.3167	-4.7688	-4.5896	-4.4729	-4.7854	-4.3688	-4.7396	-4.4688	-4.1146	-4.9042	-4.3646	-4.6167	-4.7646	-4.2375	-4.9396	-7.246	-22.092	207.583	235.836	281.306	68.767	-46.364	178.865	203.505	-27.076	220.984	226.468	-42.259	222.611	236.459	180.822	6.2267e-05	0.00032907	8.1179e-05	1082.2	3.1426e-06	3.1918e-06	1162.2	223.68	1.1981e-06	3.132e-06	279.91	79.466	62.798	18.129	1.7846e-06	25.983	0.00016134	0.00016033	3.0552e-05	1060.8	2.0074e-06	1.0905e-06	1136.5	221.12	2.0211e-06	1.5716e-06	277.35	80.138	62.764	18.146	1.8315e-06	26.078	205.495	30.483	21.192	-51.440	113.656	88.065	-51.363	-44.199	133.427	77.984	-44.807	-37.271	-37.313	-30.959	89.597	-31.439	-8191	255	
25118.633	1	1	0	0	0.15257	0.34918	0.101	0.18404	0.09115	0.13306	0.21942	0.19537	0.037488	0.042243	0.066026	0.15301	0.078665	0.13372	0.016151	0.069591	-4.3583	-4.1917	-4.85	-4.5854	-4.4479	-4.6562	-4.3938	-4.7438	-4.3958	-4.2104	-4.8542	-4.4708	-4.5958	-4.8333	-4.2875	-4.5646	291.191	0.208	223.749	200.983	-53.211	174.094	232.700	244.494	275.525	180.241	113.664	153.932	70.203	216.270	21.517	206.286	5.7507e-05	0.00028041	8.5473e-05	1080.3	1.5419e-06	4.0251e-06	1159.3	222.67	9.4349e-07	3.4831e-06	279.33	79.462	62.581	17.961	1.9622e-06	25.882	0.0001471	0.00013177	2.7079e-05	1061.1	2.2403e-06	1.2308e-06	1136.9	220.77	1.6102e-06	1.4601e-06	277.54	80.01	62.751	18.094	1.7646e-06	26.092	197.628	39.004	39.816	-51.589	93.562	86.841	-51.466	-44.227	111.018	102.027	-44.787	-37.778	-37.779	-30.919	128.921	-31.297	-8191	255	
#DATA ENDS
