BOXY.EXE: ISS Imagent and Oximeter Data Acquisition Program Version 0.80
Ascii Record File

#ACQ INFORMATION
2  Detector Channels 
16  External MUX Channels 
1  Auxiliary Channels 
5000  Waveform (CCF) Frequency (Hz)
1  Waveforms Skipped 
30  Waveforms Averaged 
1  Cycles Averaged 
16  Acquisitions per Waveform 
10.0806  Updata Rate (Hz) 

#FILE INFORMATION
TRUE -- External MUX Channel results are PARSED.
FALSE -- AC DC and Phase are NOT grouped.
TRUE -- Companion Program Settings File CREATED.
FALSE -- AC data not excluded
FALSE -- DC data not excluded
FALSE -- Phase data not excluded
FALSE -- Auxillary Chn. data not excluded
Tab delimiters

#CALIBRATION STATE
TRUE -- Waveform Calibration Values APPLIED.


#AUX CALIBRATION VALUES
Val Type	aux-1	

Term	1.0000e+00	
Factor	0.0000e+00	


#WF CALIBRATION VALUES
A = Detector Channel
Val Type	A-AC1	A-AC2	A-AC3	A-AC4	A-AC5	A-AC6	A-AC7	A-AC8	A-AC9	A-AC10	A-AC11	A-AC12	A-AC13	A-AC14	A-AC15	A-AC16	A-DC1	A-DC2	A-DC3	A-DC4	A-DC5	A-DC6	A-DC7	A-DC8	A-DC9	A-DC10	A-DC11	A-DC12	A-DC13	A-DC14	A-DC15	A-DC16	A-Ph1	A-Ph2	A-Ph3	A-Ph4	A-Ph5	A-Ph6	A-Ph7	A-Ph8	A-Ph9	A-Ph10	A-Ph11	A-Ph12	A-Ph13	A-Ph14	A-Ph15	A-Ph16	

Term	0.00000e+00	0.00000e+00	0.00000e+00	0.00000e+00	0.00000e+00	0.00000e+00	0.00000e+00	0.00000e+00	0.00000e+00	0.00000e+00	0.00000e+00	0.00000e+00	0.00000e+00	0.00000e+00	0.00000e+00	0.00000e+00	0.00000e+00	0.00000e+00	0.00000e+00	0.00000e+00	0.00000e+00	0.00000e+00	0.00000e+00	0.00000e+00	0.00000e+00	0.00000e+00	0.00000e+00	0.00000e+00	0.00000e+00	0.00000e+00	0.00000e+00	0.00000e+00	0.00000e+00	0.00000e+00	0.00000e+00	0.00000e+00	0.00000e+00	0.00000e+00	0.00000e+00	0.00000e+00	0.00000e+00	0.00000e+00	0.00000e+00	0.00000e+00	0.00000e+00	0.00000e+00	0.00000e+00	0.00000e+00	
Factor	1.00000e+00	1.00000e+00	1.00000e+00	1.00000e+00	1.00000e+00	1.00000e+00	1.00000e+00	1.00000e+00	1.00000e+00	1.00000e+00	1.00000e+00	1.00000e+00	1.00000e+00	1.00000e+00	1.00000e+00	1.00000e+00	1.00000e+00	1.00000e+00	1.00000e+00	1.00000e+00	1.00000e+00	1.00000e+00	1.00000e+00	1.00000e+00	1.00000e+00	1.00000e+00	1.00000e+00	1.00000e+00	1.00000e+00	1.00000e+00	1.00000e+00	1.00000e+00	X	X	X	X	X	X	X	X	X	X	X	X	X	X	X	X	

B = Detector Channel
Val Type	B-AC1	B-AC2	B-AC3	B-AC4	B-AC5	B-AC6	B-AC7	B-AC8	B-AC9	B-AC10	B-AC11	B-AC12	B-AC13	B-AC14	B-AC15	B-AC16	B-DC1	B-DC2	B-DC3	B-DC4	B-DC5	B-DC6	B-DC7	B-DC8	B-DC9	B-DC10	B-DC11	B-DC12	B-DC13	B-DC14	B-DC15	B-DC16	B-Ph1	B-Ph2	B-Ph3	B-Ph4	B-Ph5	B-Ph6	B-Ph7	B-Ph8	B-Ph9	B-Ph10	B-Ph11	B-Ph12	B-Ph13	B-Ph14	B-Ph15	B-Ph16	

Term	0.00000e+00	0.00000e+00	0.00000e+00	0.00000e+00	0.00000e+00	0.00000e+00	0.00000e+00	0.00000e+00	0.00000e+00	0.00000e+00	0.00000e+00	0.00000e+00	0.00000e+00	0.00000e+00	0.00000e+00	0.00000e+00	0.00000e+00	0.00000e+00	0.00000e+00	0.00000e+00	0.00000e+00	0.00000e+00	0.00000e+00	0.00000e+00	0.00000e+00	0.00000e+00	0.00000e+00	0.00000e+00	0.00000e+00	0.00000e+00	0.00000e+00	0.00000e+00	2.93131e+01	-1.38054e+02	-1.55137e+02	-1.83507e+02	-8.93409e+01	-7.38741e+01	-1.57185e+02	-1.62015e+02	-1.04756e+02	-8.47356e+01	-1.72626e+02	-1.72814e+02	-1.80483e+02	-1.78435e+02	-9.61728e+01	-1.51297e+02	
Factor	4.06815e-05	8.32167e-05	3.41537e-05	1.61071e-01	1.09079e-06	8.84274e-07	1.94396e-01	6.71829e-02	1.01989e-06	8.41751e-07	9.46126e-02	3.23926e-02	2.57595e-02	9.54239e-03	8.66236e-07	1.36832e-02	5.31991e-07	5.38450e-07	1.50082e-07	7.64884e-02	5.87831e-09	5.89810e-09	8.61984e-02	3.09803e-02	5.88643e-09	5.89619e-09	4.18274e-02	1.42647e-02	1.18748e-02	4.35937e-03	5.89889e-09	5.99575e-03	X	X	X	X	X	X	X	X	X	X	X	X	X	X	X	X	



#DISTANCE SETTINGS
A = Detector Channel
A-1	A-2	A-3	A-4	A-5	A-6	A-7	A-8	A-9	A-10	A-11	A-12	A-13	A-14	A-15	A-16	

2.5000e+00	3.0000e+00	2.5000e+00	3.0000e+00	2.0000e+00	3.0000e+00	1.5000e+00	3.0000e+00	3.0000e+00	3.0000e+00	3.0000e+00	3.0000e+00	3.0000e+00	3.0000e+00	1.5000e+00	3.0000e+00	

B = Detector Channel
B-1	B-2	B-3	B-4	B-5	B-6	B-7	B-8	B-9	B-10	B-11	B-12	B-13	B-14	B-15	B-16	

1.0000e+01	1.0000e+01	1.0000e+01	1.4400e+00	1.0000e+01	1.0000e+01	1.5100e+00	1.9400e+00	1.0000e+01	1.0000e+01	1.9900e+00	2.4900e+00	2.4100e+00	2.9000e+00	1.0000e+01	2.9800e+00	




#DATA BEGINS
time	group	step	mark	flag	A-AC1	A-AC2	A-AC3	A-AC4	A-AC5	A-AC6	A-AC7	A-AC8	A-AC9	A-AC10	A-AC11	A-AC12	A-AC13	A-AC14	A-AC15	A-AC16	A-DC1	A-DC2	A-DC3	A-DC4	A-DC5	A-DC6	A-DC7	A-DC8	A-DC9	A-DC10	A-DC11	A-DC12	A-DC13	A-DC14	A-DC15	A-DC16	A-Ph1	A-Ph2	A-Ph3	A-Ph4	A-Ph5	A-Ph6	A-Ph7	A-Ph8	A-Ph9	A-Ph10	A-Ph11	A-Ph12	A-Ph13	A-Ph14	A-Ph15	A-Ph16	B-AC1	B-AC2	B-AC3	B-AC4	B-AC5	B-AC6	B-AC7	B-AC8	B-AC9	B-AC10	B-AC11	B-AC12	B-AC13	B-AC14	B-AC15	B-AC16	B-DC1	B-DC2	B-DC3	B-DC4	B-DC5	B-DC6	B-DC7	B-DC8	B-DC9	B-DC10	B-DC11	B-DC12	B-DC13	B-DC14	B-DC15	B-DC16	B-Ph1	B-Ph2	B-Ph3	B-Ph4	B-Ph5	B-Ph6	B-Ph7	B-Ph8	B-Ph9	B-Ph10	B-Ph11	B-Ph12	B-Ph13	B-Ph14	B-Ph15	B-Ph16	aux-1	digaux	

7981.338	1	1	0	256	0.26162	0.12741	0.19308	0.067485	0.097117	0.012471	0.33241	0.18795	0.0084151	0.2417	0.1254	0.26767	0.17449	0.15329	0.10239	0.031835	-2.7646	-2.9625	-3.375	-3.1813	-3.2333	-3.3917	-3.0021	-3.5833	-3.0938	-2.9333	-3.4521	-3.1917	-3.1063	-3.3146	-2.8937	-3.3396	-116.233	36.982	76.990	-104.687	16.863	178.585	143.344	166.102	-72.871	-37.142	129.095	194.901	44.898	-105.815	183.349	-21.034	0.00068179	0.00027341	0.00015774	1555.3	5.9562e-06	2.5617e-06	1610	310.62	1.7417e-06	5.9141e-07	378.64	107.16	85.142	24.96	2.4011e-06	33.963	0.00011922	0.00010383	2.6449e-05	1463.5	1.2722e-06	1.1238e-06	1506.9	288.37	1.2527e-06	1.1365e-06	346.47	98.861	79.26	23.313	1.0358e-06	31.592	3.994	-74.539	-104.385	-150.139	-55.698	-36.516	-150.210	-143.401	-154.869	-28.480	-143.553	-137.252	-136.797	-130.197	158.050	-130.209	-8191	255	
7981.459	1	1	0	0	0.27423	0.12331	0.24309	0.26167	0.11594	0.10304	0.24631	0.14028	0.066538	0.10792	0.26763	0.08078	0.11981	0.22668	0.18737	0.2069	-2.8354	-3.0438	-3.3167	-3.2562	-3.1937	-3.3812	-3.1208	-3.425	-3.1458	-3.0583	-3.4229	-3.2375	-3.1417	-3.5104	-2.9021	-3.3208	-64.180	-80.154	104.067	154.157	152.567	72.137	162.320	-1.855	46.757	157.027	-64.884	156.471	180.116	40.264	165.870	-38.364	0.00061627	0.00011941	0.00012801	1540.6	2.2453e-06	1.2606e-06	1593.9	306.01	2.7661e-06	2.9102e-06	372.07	105.84	84.502	24.404	1.1801e-07	33.663	0.00010664	9.3437e-05	2.4141e-05	1447.1	1.1222e-06	1.0009e-06	1490.4	284.38	1.112e-06	1.0268e-06	341.49	97.662	78.311	22.895	1.0497e-06	31.287	1.112	-85.435	-90.648	-150.024	-32.151	2.068	-150.114	-143.465	-114.032	-28.418	-143.214	-137.127	-136.762	-129.815	-63.615	-130.327	-8191	255	
7981.531	1	1	0	0	0.085974	0.30143	0.14277	0.10218	0.13538	0.16064	0.13671	0.088325	0.21527	0.032913	0.15769	0.087206	0.23574	0.055873	0.057269	0.19676	-2.8937	-2.9396	-3.4062	-3.2208	-3.1021	-3.5167	-3.3667	-3.3063	-3.2646	-2.9208	-3.5062	-3.325	-3.0354	-3.3417	-2.9979	-3.1937	-88.006	32.512	-60.696	19.770	-146.402	-75.035	67.175	134.000	4.017	-143.126	-2.978	-3.488	-155.537	37.656	-33.805	131.937	0.00061353	0.00028711	0.00019602	1530.6	2.4939e-06	3.1084e-06	1587.6	304.75	2.9909e-06	2.2596e-06	370.13	104.82	83.767	24.104	2.6809e-06	33.389	0.00010459	9.6757e-05	2.7376e-05	1441.5	1.1647e-06	1.0673e-06	1486.3	282.93	1.1631e-06	1.1184e-06	340.23	97.331	77.84	22.675	1.1895e-06	31.098	5.966	-148.672	-75.068	-150.016	-33.066	3.911	-149.972	-143.531	-89.742	-11.589	-143.665	-137.159	-136.604	-129.927	-12.212	-130.247	-8191	255	
7981.627	1	1	0	0	0.20623	0.13742	0.092149	0.13107	0.25038	0.14868	0.19354	0.24135	0.094758	0.17527	0.16143	0.26693	0.099374	0.23104	0.107	0.14773	-2.8604	-2.9667	-3.3354	-3.3	-3.0917	-3.4333	-3.175	-3.2562	-3.3854	-3.1271	-3.4146	-3.3312	-3.1312	-3.2854	-3.2208	-3.2354	195.944	-60.570	64.875	113.062	-104.663	-150.887	178.679	-108.649	-54.162	-122.840	-36.720	48.119	178.198	-66.439	32.707	-78.916	0.0006059	5.2256e-05	4.6421e-05	1526.6	2.3908e-06	5.6239e-06	1585.5	303.59	2.6145e-06	9.7987e-07	371.37	104.24	83.444	24.103	3.4701e-06	33.01	0.00010684	9.68e-05	2.9916e-05	1439.6	1.1173e-06	1.0239e-06	1485.9	281.67	1.0689e-06	1.022e-06	340.01	96.675	77.186	22.545	1.1983e-06	30.874	11.082	-128.381	107.917	-150.166	5.311	-15.216	-150.205	-143.273	-54.626	8.934	-143.311	-137.235	-136.680	-129.658	-62.003	-130.037	-8191	255	
7981.723	1	1	0	0	0.048535	0.10211	0.060311	0.31658	0.17812	0.20189	0.26157	0.1495	0.069403	0.073627	0.17844	0.15918	0.24851	0.16361	0.19916	0.055287	-2.8646	-2.8125	-3.4333	-3.275	-2.975	-3.475	-3.2125	-3.125	-3.5146	-3.1104	-3.3417	-3.4146	-3.1021	-3.4313	-3.0771	-3.1333	71.470	52.653	-47.226	197.558	188.777	136.558	172.481	78.944	178.806	10.131	149.383	24.352	181.296	-139.185	84.250	-2.349	0.00047777	0.00018494	9.9971e-05	1525.6	2.5243e-06	1.3991e-06	1578.5	302.76	1.5001e-06	1.8926e-06	370.28	104.75	83.588	24.153	7.3221e-07	32.985	9.7379e-05	9.364e-05	2.9944e-05	1433.2	1.0524e-06	1.0165e-06	1481.8	280.31	1.0114e-06	1.0617e-06	339.83	96.668	77.394	22.639	1.2481e-06	30.8	8.725	-23.814	184.214	-150.107	-103.126	-99.218	-150.085	-143.331	89.492	-43.241	-143.045	-137.162	-136.649	-130.159	-98.199	-130.260	-8191	255	
7981.842	1	1	0	0	0.089646	0.058435	0.12594	0.30492	0.13632	0.26127	0.3917	0.22421	0.091806	0.081455	0.035803	0.30598	0.052942	0.17559	0.16811	0.15829	-3.0375	-3.1	-3.1542	-3.4833	-2.9625	-3.325	-3.4021	-3.2146	-3.475	-3.0979	-3.25	-3.4083	-3.1146	-3.2792	-3.2083	-3.1021	192.612	156.933	-71.921	129.224	100.561	13.563	81.895	166.149	172.674	-28.866	4.854	-143.594	190.011	-69.339	97.449	160.717	0.00052691	0.00016734	0.00014869	1527	1.194e-06	3.5336e-06	1580.8	302.51	4.4837e-06	1.4069e-06	370.57	104.58	82.832	23.901	3.2611e-06	33.215	0.00010042	0.00010419	3.2498e-05	1435.9	1.0992e-06	1.1506e-06	1483.1	280.7	1.0901e-06	1.2251e-06	339.54	96.466	77.095	22.602	1.2352e-06	30.848	5.670	-109.730	-55.606	-149.950	-63.990	-45.184	-150.074	-142.908	-35.956	197.911	-143.277	-137.074	-136.878	-129.955	24.965	-130.029	-8191	255	
7981.938	1	1	0	0	0.12051	0.21987	0.091622	0.18529	0.14803	0.2052	0.36318	0.045539	0.18647	0.12575	0.15887	0.072498	0.26267	0.12148	0.36086	0.17918	-2.95	-3.1875	-3.0312	-3.4417	-2.9313	-3.1688	-3.2313	-3.0625	-3.3083	-3.075	-3.1354	-3.4375	-2.9458	-3.1958	-3.2021	-3	7.519	-29.028	61.594	156.818	-109.156	32.353	124.637	-154.899	-71.168	-16.545	-112.728	112.543	21.529	185.829	13.465	66.341	0.00057192	0.00023425	9.8392e-05	1515.4	5.5931e-06	2.8439e-06	1569.4	300.25	2.288e-06	2.7885e-06	368.67	103.9	82.907	24.031	3.2823e-06	33.068	9.8305e-05	0.00010811	3.0084e-05	1425.2	1.0546e-06	1.1854e-06	1471.4	277.98	1.0344e-06	1.2137e-06	337.22	95.96	76.921	22.631	1.1442e-06	30.679	3.431	-113.219	-50.529	-150.251	-87.772	-41.944	-150.370	-143.262	181.089	-39.899	-143.332	-136.913	-136.665	-129.720	-28.961	-130.545	-8191	255	
7982.034	1	1	0	0	0.13686	0.068504	0.16676	0.3962	0.083145	0.38259	0.16485	0.24231	0.15007	0.050159	0.067852	0.059084	0.25887	0.34047	0.1456	0.25802	-2.8833	-3.0438	-3.0729	-3.5771	-3.0687	-3.0875	-3.4667	-3.0958	-3.2396	-3.225	-3.1083	-3.5854	-2.9625	-3.3542	-3.2667	-3.0604	-158.391	-132.687	-150.312	180.283	-100.908	-16.789	162.092	27.634	-29.329	29.374	144.271	-50.713	5.519	100.149	-94.327	108.375	0.00057459	0.0002147	0.00011077	1514.7	2.7137e-06	4.8381e-06	1573.8	299.09	3.0329e-06	4.2948e-06	365.27	103.8	82.948	24.023	3.9022e-06	33.03	0.00010205	0.00011383	2.9162e-05	1419.6	1.1098e-06	1.2371e-06	1469.5	277.67	1.0964e-06	1.2476e-06	336.56	95.801	76.945	22.634	1.1347e-06	30.588	4.404	-26.209	-52.945	-150.093	169.065	-70.989	-150.000	-143.271	-126.636	-45.745	-143.355	-137.270	-136.510	-129.768	-35.932	-130.129	-8191	255	
7982.130	1	1	0	0	0.27801	0.29192	0.16593	0.38867	0.11172	0.1698	0.08775	0.12729	0.14422	0.12652	0.26451	0.14086	0.21556	0.18735	0.20859	0.016891	-3.1104	-3.0271	-3.0458	-3.4479	-2.8604	-3.2771	-3.4271	-3.1083	-3.1958	-3.15	-3.0333	-3.3083	-3.0792	-3.3354	-3.1396	-3.0792	-92.769	97.478	-60.258	169.716	141.820	83.800	-160.223	173.987	-12.881	189.886	146.623	116.276	-102.816	-58.447	125.091	42.172	0.00043567	0.00027724	0.00014683	1507.1	9.8797e-07	1.6491e-06	1564.8	299.46	3.5531e-06	4.8244e-06	367.42	103.66	82.481	24.03	1.583e-06	32.849	0.00011035	0.00011309	2.8616e-05	1416.9	1.187e-06	1.2304e-06	1466.3	277.4	1.1961e-06	1.2107e-06	335.67	95.736	76.809	22.558	1.0625e-06	30.578	-4.904	-33.154	-88.696	-150.104	-113.769	-8.365	-150.089	-143.287	-112.782	-20.071	-143.078	-136.917	-136.655	-129.928	-34.349	-130.184	-8191	255	
7982.226	1	1	0	0	0.18734	0.11608	0.18484	0.15879	0.095934	0.14125	0.32047	0.083191	0.081146	0.22338	0.13728	0.092005	0.32067	0.27561	0.15036	0.21392	-2.8438	-3.2833	-2.8937	-3.5167	-3.0771	-3.1667	-3.45	-3.0333	-3.2208	-3.3583	-2.9875	-3.3229	-3.0687	-3.1458	-3.4021	-2.9354	182.200	151.593	155.903	140.164	-133.232	-138.849	98.688	141.138	148.164	127.671	78.090	-130.868	-141.880	-122.036	-17.438	117.108	0.00057675	0.00042731	0.00011196	1501	1.641e-06	3.4765e-06	1565	299.88	2.0091e-06	3.8624e-06	367.18	103.34	82.153	23.943	2.4669e-06	33.045	0.00011127	0.00010424	2.7243e-05	1412	1.1998e-06	1.1449e-06	1461.8	276.98	1.2112e-06	1.1077e-06	335.32	95.565	76.668	22.486	1.0119e-06	30.684	-3.177	-52.459	-95.964	-150.084	-116.085	-4.483	-150.017	-143.045	-142.147	0.616	-143.632	-136.873	-136.801	-129.879	-12.521	-130.127	-8191	255	
7982.323	1	1	0	0	0.13315	0.25095	0.24617	0.10428	0.32446	0.11193	0.19729	0.057399	0.044523	0.24639	0.22674	0.30657	0.064434	0.43255	0.11692	0.20893	-2.6792	-3.15	-2.75	-3.5062	-3.0667	-3.1375	-3.5958	-3.1	-2.9771	-3.1271	-3.0896	-3.3375	-3.2521	-2.9708	-3.4458	-3.2	54.311	28.455	66.540	169.134	57.976	6.723	84.668	156.468	113.483	0.142	103.453	181.659	145.978	181.247	72.814	-131.712	0.0006407	0.000138	0.00018851	1501.1	3.0602e-06	1.7253e-06	1562.9	297.93	1.5638e-06	3.5381e-06	365.86	103.34	82.859	23.961	2.2252e-06	33.142	0.00011406	9.9341e-05	2.6156e-05	1414.5	1.1996e-06	1.0902e-06	1459.4	276.43	1.224e-06	1.0951e-06	334.58	95.611	76.873	22.508	1.0131e-06	30.648	1.814	36.009	-56.981	-150.086	-73.402	129.739	-150.026	-143.056	147.130	19.848	-143.208	-137.168	-136.630	-129.732	-38.285	-130.249	-8191	255	
7982.419	1	1	0	0	0.1208	0.17429	0.19252	0.053641	0.40431	0.10826	0.34129	0.16265	0.14328	0.24309	0.14072	0.33656	0.079797	0.2816	0.3772	0.17399	-2.6646	-3.5312	-2.8521	-3.5125	-3.0625	-3.1583	-3.5208	-3.1167	-3.2042	-3.2229	-3.1604	-3.3667	-3.4208	-2.8708	-3.4333	-3.0229	-16.180	153.975	189.394	-77.964	125.768	157.949	149.781	-104.620	-108.396	-92.986	141.009	143.540	-86.063	39.603	-105.945	132.859	0.0004428	0.00030406	0.00011619	1502	5.5827e-06	3.1665e-06	1556.2	297.7	1.8766e-06	3.6224e-06	362.52	102.7	81.637	23.822	1.4927e-06	32.708	0.0001148	9.8302e-05	2.6571e-05	1412.3	1.2029e-06	1.0747e-06	1455.3	276.5	1.1792e-06	1.0418e-06	333.04	95.456	76.16	22.324	1.0248e-06	30.486	9.005	-62.610	-72.127	-150.152	-33.289	-4.522	-150.270	-143.177	-150.849	-22.994	-143.269	-136.790	-136.668	-129.739	-79.595	-130.277	-8191	255	
7982.539	1	1	0	0	0.1588	0.084239	0.029433	0.22212	0.14559	0.14038	0.22078	0.23258	0.095007	0.097638	0.045379	0.071866	0.15786	0.1121	0.31113	0.30525	-2.6708	-3.4479	-3.0312	-3.4417	-3.2521	-3.1979	-3.6063	-3.1604	-3.1042	-3.5438	-3.3583	-3.1396	-3.3458	-3.0104	-3.3333	-3.3063	115.137	110.094	118.257	169.802	-53.583	153.929	90.705	-127.363	-30.170	-15.846	-134.463	80.393	80.783	-112.786	46.363	72.076	0.00048197	0.00023749	9.8791e-05	1495.7	3.4486e-06	3.5299e-06	1553.9	294.54	3.87e-06	2.0426e-06	362.62	102.44	81.598	23.647	8.2975e-07	32.539	0.00010987	9.6393e-05	2.7648e-05	1406.9	1.1681e-06	1.0981e-06	1451.6	274.99	1.1723e-06	1.0375e-06	332.13	95.144	75.802	22.168	1.1014e-06	30.423	-10.963	-50.143	194.349	-149.960	-24.342	4.142	-149.960	-143.353	-33.731	21.664	-143.386	-136.971	-136.960	-129.600	141.536	-130.451	-8191	255	
7982.634	1	1	0	0	0.13989	0.31356	0.10716	0.50998	0.15887	0.18713	0.17431	0.16616	0.04385	0.10713	0.16502	0.17769	0.23237	0.11368	0.23276	0.14219	-2.6479	-3.4083	-3.1771	-3.1104	-3.475	-2.975	-3.4688	-3.2542	-2.9396	-3.5062	-3.0458	-3.0938	-3.5396	-3.0938	-3.3979	-3.3125	-112.695	59.651	144.151	151.928	83.979	-50.201	167.086	68.746	-158.554	-89.570	135.614	127.631	120.995	-100.117	-96.059	66.045	0.00049114	7.8996e-05	0.00011054	1491	2.9143e-06	1.9775e-07	1552.3	295.09	2.9921e-06	1.2924e-06	360.89	102.82	81.725	23.648	1.3517e-06	32.59	0.00010551	9.1771e-05	2.8669e-05	1404.3	1.059e-06	9.8273e-07	1450.1	273.29	1.0036e-06	9.1252e-07	330.24	94.447	75.335	22.004	1.0093e-06	30.187	6.360	-104.985	-74.669	-150.158	-41.868	-30.499	-150.070	-143.059	68.553	25.713	-143.125	-136.874	-136.702	-129.620	66.783	-130.161	-8191	255	
7982.730	1	1	0	0	0.15067	0.1405	0.14417	0.2793	0.03278	0.034087	0.14848	0.13703	0.075337	0.15504	0.12203	0.22115	0.17339	0.23752	0.19986	0.1451	-2.5375	-3.3604	-3.075	-3.3604	-3.2958	-3.0646	-3.4562	-3.2167	-2.8646	-3.3	-3.1312	-3.35	-3.3583	-3.0125	-3.1479	-3.3542	183.674	-154.898	6.946	136.835	120.714	-26.256	169.637	-139.995	-25.000	160.747	154.086	-20.238	152.232	-55.186	-151.098	-103.922	0.00054772	0.00038819	5.7649e-05	1491.4	4.3607e-06	2.2454e-06	1542.8	293.88	1.4356e-06	7.19e-07	358.64	101.69	81.425	23.408	3.7029e-06	32.519	8.9522e-05	7.8968e-05	2.6173e-05	1399.5	9.1291e-07	8.8599e-07	1444.3	271.69	9.2997e-07	8.8132e-07	328.96	93.735	74.939	21.919	1.0586e-06	30.01	-3.563	-93.061	-136.832	-150.052	-14.739	-41.216	-150.117	-143.195	-148.538	-50.181	-143.238	-136.688	-136.729	-129.610	-48.428	-130.214	-8191	255	
7982.828	1	1	0	0	0.08676	0.17582	0.11201	0.15142	0.035616	0.23099	0.25896	0.026771	0.072087	0.041585	0.20662	0.056797	0.23434	0.17103	0.22691	0.1948	-2.6646	-3.2354	-3.3146	-3.2771	-3.2167	-2.9625	-3.4958	-3.4292	-2.8187	-3.4458	-3.1417	-3.0792	-3.4521	-3.0125	-3.2979	-3.3958	141.193	29.549	131.094	152.230	88.735	-22.209	171.030	-124.608	87.891	168.494	-112.804	85.046	182.736	-79.573	129.546	141.759	0.00057939	0.00014945	6.578e-05	1491.4	1.3779e-06	1.6785e-06	1554.3	293.06	4.3044e-06	1.4395e-06	357.45	101.88	80.85	23.295	4.2656e-06	32.2	8.671e-05	8.2384e-05	2.6167e-05	1398.9	8.6047e-07	9.0849e-07	1448.4	270.52	8.8455e-07	8.9829e-07	327.73	93.469	74.74	21.9	9.8231e-07	29.76	-13.565	85.080	70.313	-150.153	-54.650	78.623	-150.040	-143.320	-67.454	176.375	-143.244	-137.067	-136.654	-129.688	-90.597	-130.275	-8191	255	
7982.922	1	1	0	0	0.099746	0.19542	0.15936	0.12698	0.43585	0.18657	0.17088	0.37962	0.015316	0.13362	0.20197	0.080126	0.08225	0.015017	0.13471	0.11069	-2.4875	-3.4271	-3.0938	-3.3417	-3.2458	-3.0812	-3.3375	-3.3729	-2.8333	-3.3604	-3.3312	-2.9188	-3.3271	-3.05	-3.2104	-3.2458	39.275	156.497	-17.840	185.252	16.941	69.948	148.606	58.470	-12.218	159.058	-71.769	123.341	-8.640	132.662	54.231	177.278	0.00049552	0.00013574	0.00012775	1493.4	2.883e-06	2.3839e-06	1543.6	292.35	1.1697e-06	2.1847e-06	356.99	101.56	81.01	23.368	1.6687e-06	32.315	7.9829e-05	8.0396e-05	2.3029e-05	1400.2	7.6558e-07	8.5288e-07	1443.3	269.12	7.6078e-07	8.4714e-07	325.52	92.985	74.316	21.807	8.1057e-07	29.7	5.606	-113.937	-58.327	-150.145	-125.816	-26.345	-150.030	-143.265	-159.969	-52.447	-142.974	-136.868	-136.666	-129.625	-60.633	-129.962	-8191	255	
7983.018	1	1	0	0	0.19204	0.32848	0.016923	0.27843	0.14417	0.1351	0.10135	0.22645	0.20667	0.1182	0.13616	0.041904	0.11008	0.088427	0.18062	0.063868	-2.4938	-3.2542	-3.0354	-3.2333	-3.3979	-2.9646	-3.4417	-3.4646	-2.9229	-3.3	-3.2438	-2.9188	-3.2292	-3.1333	-3.075	-3.4292	130.741	-104.272	192.374	138.181	74.431	67.658	-42.586	-159.466	-2.679	44.896	5.217	-16.001	32.289	33.041	8.440	131.327	0.00056139	0.00015397	0.00010322	1484.2	4.02e-06	1.7651e-06	1536.6	291.2	2.6585e-06	2.0186e-06	354.97	100.93	80.72	23.284	1.2718e-06	32	7.1105e-05	7.6058e-05	1.981e-05	1392	7.226e-07	8.1719e-07	1434.9	267.24	7.4033e-07	8.0424e-07	323.72	92.347	73.852	21.631	7.0202e-07	29.447	11.260	-112.785	-129.026	-149.946	-50.620	14.379	-150.002	-142.979	-127.057	-22.182	-143.332	-136.899	-136.452	-129.175	-103.313	-130.114	-8191	255	
7983.139	1	1	0	0	0.31682	0.24395	0.19178	0.23682	0.14609	0.15088	0.23781	0.073639	0.21062	0.25591	0.12685	0.093112	0.13225	0.083101	0.033059	0.17303	-2.6771	-3.2875	-3.1937	-3.2167	-3.3958	-3.1375	-3.1458	-3.4833	-2.8854	-3.1667	-3.5042	-2.9771	-3.2771	-3.2271	-3.225	-3.2896	-20.000	-96.447	187.441	188.803	178.456	160.764	165.297	-46.045	-68.842	-27.111	-119.942	-144.613	130.775	56.020	37.737	5.249	0.00065681	0.00030181	0.00012923	1474.6	2.533e-06	8.9559e-07	1532.4	287.08	1.3714e-06	1.8636e-06	354.24	100.35	80.15	23.251	2.1395e-06	32.008	6.7957e-05	6.8354e-05	1.6883e-05	1382.7	7.0189e-07	7.6017e-07	1425	264.41	7.0409e-07	7.3666e-07	321.18	91.687	73.407	21.474	6.4374e-07	29.256	3.423	-96.848	-96.288	-150.081	-157.781	-31.456	-150.075	-143.211	154.225	-32.727	-143.440	-137.047	-136.456	-129.138	-34.664	-129.858	-8191	255	
7983.235	1	1	0	0	0.035755	0.17258	0.15864	0.15874	0.17359	0.15591	0.2187	0.19661	0.11046	0.15684	0.14866	0.05451	0.38907	0.13201	0.21247	0.23063	-2.5854	-3.1125	-3.2333	-3.1937	-3.2479	-3.2521	-3.0604	-3.4271	-2.9625	-3.0563	-3.3479	-3.1229	-3.15	-3.4917	-2.9229	-3.2333	115.959	-101.368	45.278	181.270	-77.339	189.573	129.014	163.212	-131.533	75.971	187.617	-58.580	185.933	-40.634	-80.423	174.969	0.00050225	0.00019372	5.6415e-05	1466.2	9.3558e-07	4.3805e-06	1513.8	284.67	2.5224e-06	1.7628e-06	348.89	99.526	79.169	22.959	2.2654e-06	31.764	6.749e-05	6.2795e-05	1.5786e-05	1368.3	6.9642e-07	6.6766e-07	1409.7	261.45	6.8968e-07	6.5784e-07	317.2	90.811	72.704	21.233	5.9833e-07	29.078	0.323	-12.202	-37.545	-150.024	-13.025	-5.796	-150.135	-142.739	-113.265	34.792	-143.319	-136.906	-136.388	-129.182	-21.573	-129.821	-8191	255	
7983.331	1	1	0	0	0.075583	0.21393	0.091111	0.41083	0.15115	0.11636	0.13276	0.11036	0.048356	0.1149	0.17444	0.053456	0.42085	0.14411	0.050333	0.053531	-2.65	-2.9083	-3.3729	-3.1854	-3.2708	-3.15	-3.1688	-3.4188	-3.2771	-3.0146	-3.3167	-3.1104	-3.2333	-3.1521	-2.9333	-3.375	106.917	57.369	-152.711	59.948	168.869	-57.098	98.230	142.344	-22.021	106.916	144.940	-140.305	124.284	-115.316	-94.376	-139.146	0.00057943	0.00026557	0.00014029	1444.9	2.0658e-06	1.5398e-06	1510.2	283.54	1.4456e-06	2.258e-06	348.17	99.177	79.265	22.969	2.968e-06	31.427	6.6711e-05	5.868e-05	1.4788e-05	1356.6	6.9713e-07	6.1767e-07	1403	260.48	6.8001e-07	6.2132e-07	315.51	90.641	72.626	21.183	5.9805e-07	29.072	-1.273	-119.883	-107.923	-150.019	-97.434	-114.240	-150.089	-142.843	-1.771	-5.071	-143.112	-137.106	-136.577	-129.430	-39.068	-129.957	-8191	255	
7983.403	1	1	0	0	0.08561	0.082142	0.27649	0.31816	0.078415	0.089609	0.19828	0.19011	0.084173	0.020104	0.18213	0.18634	0.067832	0.27935	0.26018	0.098845	-2.5479	-2.8333	-3.2562	-3.0604	-3.2146	-3.225	-3.2458	-3.3646	-3.2375	-3.0604	-3.5521	-3.1208	-3.0958	-3.275	-2.9979	-3.3229	110.441	-131.141	147.122	107.829	185.108	-121.505	148.329	130.962	24.526	-86.447	146.938	170.088	22.362	-138.228	-63.624	175.492	0.00044626	0.00015729	5.2878e-05	1445.3	3.3815e-06	3.057e-06	1499.3	282.9	2.2033e-06	1.0229e-06	348.21	98.911	78.809	22.902	3.9563e-06	31.445	6.7628e-05	5.7851e-05	1.4743e-05	1356.1	6.9989e-07	6.171e-07	1397.4	260.2	6.7129e-07	6.1823e-07	315.89	90.568	72.504	21.129	5.9598e-07	28.988	1.676	-76.233	-80.645	-149.976	-56.786	29.504	-150.038	-143.229	-56.616	-29.254	-143.262	-136.865	-136.360	-129.451	-40.081	-129.884	-8191	255	
7983.524	1	1	0	0	0.06991	0.30942	0.30449	0.31359	0.13144	0.044332	0.23645	0.18803	0.1376	0.065282	0.013771	0.3161	0.18462	0.090725	0.062541	0.1564	-2.6792	-2.9646	-3.2812	-3.2125	-3.2771	-3.5312	-3.0604	-3.3167	-3.1375	-2.9667	-3.4396	-3.2125	-3.1354	-3.4667	-3.0187	-3.3438	-112.468	25.325	-112.023	157.750	-107.675	-129.348	82.753	-131.547	152.473	-108.943	160.837	178.809	91.164	-134.409	33.400	82.810	0.00058437	0.00014591	0.00010277	1442.4	3.1072e-06	3.1613e-06	1495.1	281.03	2.0513e-06	2.4393e-06	346.27	98.756	78.507	22.886	3.6599e-07	31.556	6.4383e-05	5.5431e-05	1.4603e-05	1352	6.671e-07	5.7782e-07	1390.4	259.02	6.2261e-07	5.6579e-07	313.68	90.329	71.88	21.069	5.8114e-07	28.966	4.076	-86.517	-132.033	-149.857	25.485	32.727	-149.904	-142.988	-88.517	4.866	-142.856	-136.879	-136.387	-129.352	-69.776	-129.799	-8191	255	
7983.620	1	1	0	0	0.11549	0.29795	0.070604	0.11095	0.073696	0.25148	0.1755	0.32104	0.082869	0.031145	0.31015	0.39142	0.082767	0.16965	0.063156	0.16146	-2.9813	-2.7	-3.3438	-3.3187	-3.0979	-3.5229	-3.1	-3.2229	-3.2625	-2.9188	-3.2792	-3.175	-3.1229	-3.3229	-2.9396	-2.975	-31.532	175.450	-45.009	18.197	-127.969	42.784	-145.557	9.658	111.152	-150.051	174.812	133.830	102.491	149.357	109.247	95.179	0.00052189	0.00026777	8.7011e-05	1427.4	1.4524e-06	2.0598e-06	1479.4	281.53	4.5221e-06	4.3758e-07	345.12	97.998	78.09	22.548	8.0494e-07	31.285	5.71e-05	4.9942e-05	1.3951e-05	1337.5	5.6664e-07	4.8609e-07	1378.7	257.71	5.2317e-07	4.9152e-07	311.49	89.597	71.455	20.908	5.2971e-07	28.752	-3.049	-41.123	-141.245	-149.935	-55.137	-0.459	-150.005	-142.873	-65.831	-39.078	-143.227	-136.708	-136.237	-129.499	76.182	-129.486	-8191	255	
7983.716	1	1	0	0	0.2135	0.068679	0.37256	0.095735	0.10791	0.15679	0.32678	0.26677	0.11182	0.10271	0.089806	0.071243	0.020796	0.13535	0.20152	0.22135	-3.0563	-2.825	-3.2438	-3.3833	-3.1292	-3.4188	-3.3271	-3.1063	-3.3292	-3.1333	-3.3396	-3.3771	-3.0271	-3.3021	-3.0312	-3.2062	-135.474	-146.266	-12.905	188.304	-113.562	-75.004	96.772	42.575	38.542	-51.065	148.663	169.965	-67.591	94.760	-79.604	175.025	0.00047315	9.2247e-05	6.5403e-05	1420.3	2.0564e-07	1.4976e-07	1468.1	278.55	1.241e-06	2.6175e-06	343.01	98.259	77.806	22.806	1.5347e-06	31.409	5.0807e-05	4.3447e-05	1.3581e-05	1327.8	5.1679e-07	4.6252e-07	1368.5	255.82	4.8044e-07	4.7779e-07	311.26	89.447	71.156	20.856	5.4092e-07	28.628	-0.454	-5.741	-97.152	-149.999	15.460	-41.154	-150.017	-142.762	-89.192	-42.363	-143.228	-136.828	-136.220	-129.733	-63.194	-129.557	-8191	255	
7983.810	1	1	0	0	0.2708	0.13279	0.10318	0.15489	0.19727	0.1727	0.36294	0.20204	0.089972	0.22142	0.026295	0.17468	0.2495	0.18902	0.26743	0.18891	-2.9854	-2.7167	-3.3	-3.5271	-2.8854	-3.275	-3.1583	-3.1354	-3.3458	-2.9562	-3.4167	-3.2417	-3.0625	-3.35	-2.925	-3.0208	92.694	46.199	-59.308	96.330	175.927	-89.956	147.116	100.716	-34.045	-23.335	178.644	166.044	83.547	-128.757	30.662	110.081	0.00047313	0.0001934	0.00010981	1412.9	1.9263e-06	4.2928e-06	1469.4	277.22	3.7986e-06	3.5593e-06	339.71	97.897	77.578	22.691	2.2401e-06	31.155	4.7804e-05	4.3205e-05	1.3461e-05	1321.6	4.8156e-07	4.6483e-07	1365.6	254.31	4.6016e-07	4.6612e-07	309.19	88.867	70.719	20.747	5.0749e-07	28.465	4.668	-88.107	-57.674	-149.838	-79.141	-37.524	-149.942	-142.978	-63.798	3.289	-143.020	-136.901	-136.675	-129.348	7.674	-129.684	-8191	255	
7983.931	1	1	0	0	0.20512	0.14771	0.11291	0.18592	0.22409	0.16016	0.089429	0.32483	0.044481	0.11035	0.21739	0.15244	0.10444	0.03361	0.072784	0.038838	-2.8417	-2.7896	-3.2313	-3.2854	-3.1396	-3.2333	-3.3312	-2.9688	-3.3083	-3.0792	-3.2854	-3.2938	-2.9896	-3.3187	-3.3688	-3.0729	97.598	-85.089	-1.796	120.577	59.625	-5.032	39.330	90.351	194.872	-17.578	-61.165	14.420	143.164	91.732	-38.240	-71.111	0.00047526	0.00030413	4.0897e-05	1408.7	9.7155e-07	1.3263e-06	1462.8	277.73	3.702e-06	2.1452e-06	340.83	97.605	77.496	22.595	3.632e-06	31.435	4.3945e-05	4.2868e-05	1.2755e-05	1315.6	4.5421e-07	4.5801e-07	1357.8	253.91	4.2472e-07	4.8219e-07	308.44	88.722	70.652	20.719	5.0871e-07	28.549	-4.471	-45.664	-86.329	-150.013	-11.875	-100.352	-150.114	-142.809	-104.000	-59.847	-142.906	-136.558	-136.417	-129.433	-23.267	-129.777	-8191	255	
7984.027	1	1	0	0	0.19158	0.2132	0.16958	0.31431	0.05471	0.081943	0.15005	0.24258	0.020833	0.1391	0.37722	0.18425	0.08622	0.12304	0.14484	0.13556	-2.9396	-2.9938	-2.9271	-3.6042	-2.8833	-3.2333	-3.2896	-2.9458	-3.3708	-3.0625	-3.2333	-3.1854	-2.9667	-3.3646	-3.1667	-3.0396	68.745	-126.173	-135.754	166.284	-53.751	88.314	157.515	168.304	186.153	173.492	77.020	162.368	102.230	-58.291	56.462	-45.257	0.00056694	0.00018222	3.6952e-05	1406.2	4.7814e-07	3.4802e-06	1462.7	276.15	1.1597e-06	3.142e-06	342.26	98.442	77.522	22.53	1.6412e-06	31.132	4.4267e-05	4.538e-05	1.2436e-05	1315.6	4.6128e-07	5.02e-07	1359.7	253.51	4.5118e-07	5.0807e-07	308.72	88.97	70.859	20.819	4.8733e-07	28.523	3.500	-152.576	-60.844	-150.015	-104.816	-24.515	-149.989	-142.556	23.038	-14.013	-143.066	-136.691	-136.395	-129.335	-70.307	-129.961	-8191	255	
7984.099	1	1	0	0	0.080933	0.14226	0.20476	0.28384	0.12307	0.10632	0.24371	0.18304	0.088943	0.27077	0.27267	0.19212	0.33988	0.1121	0.25185	0.16679	-2.8417	-2.9896	-3.1833	-3.525	-3.1458	-3.2729	-3.4437	-2.9313	-3.5167	-3.1333	-3.0021	-3.4542	-2.9396	-3.1896	-3.3479	-3.0271	91.587	-13.486	21.380	-152.869	18.007	-59.456	83.540	177.743	148.954	187.598	-134.287	85.888	177.008	165.101	-7.276	98.798	0.00054412	0.00018047	6.0975e-05	1403.2	1.2567e-06	1.2406e-06	1461.2	278.19	2.1237e-06	1.7999e-06	338.19	97.591	77.719	22.468	1.5666e-06	31.435	4.6125e-05	4.8053e-05	1.2554e-05	1313.1	4.9015e-07	5.1423e-07	1358	253.97	4.7321e-07	5.1676e-07	307.46	88.776	70.89	20.786	4.5697e-07	28.533	2.268	-45.760	-119.384	-150.004	-146.339	8.430	-150.112	-142.902	-86.042	5.956	-142.622	-136.937	-136.494	-129.082	-16.541	-130.114	-8191	255	
7984.219	1	1	0	0	0.15773	0.061675	0.18153	0.20213	0.20184	0.07874	0.17763	0.2112	0.16569	0.22673	0.25889	0.19567	0.17838	0.09179	0.17637	0.23031	-2.8104	-3.2354	-3.1292	-3.3812	-2.9646	-3.2938	-3.4188	-3.0563	-3.4104	-3.2812	-3.1854	-3.4604	-2.9542	-3.3333	-3.4458	-3.2042	168.483	-86.396	11.357	157.087	134.315	-57.505	152.392	-152.672	-124.476	-122.218	111.706	181.698	185.552	15.767	11.500	50.847	0.00054229	0.00039298	5.1621e-05	1402.6	1.7187e-06	2.0364e-06	1459.1	277.44	1.9825e-06	1.8717e-06	341.38	97.513	77.543	22.52	1.5541e-06	31.285	4.838e-05	4.6333e-05	1.1833e-05	1313	5.1396e-07	5.0639e-07	1356.4	253.65	5.0701e-07	4.9754e-07	309.21	88.859	70.94	20.782	4.589e-07	28.472	0.740	-93.170	-72.630	-150.045	-71.300	1.436	-149.770	-142.873	-80.957	-49.596	-143.039	-136.494	-136.336	-129.551	-102.429	-129.878	-8191	255	
7984.315	1	1	0	0	0.030012	0.022677	0.17676	0.18718	0.012407	0.2715	0.23259	0.22226	0.1819	0.19751	0.10909	0.073935	0.20729	0.20159	0.14676	0.10633	-2.8063	-3.0854	-2.7854	-3.3792	-3.0854	-3.1021	-3.5042	-2.9167	-2.9833	-3.1854	-3.1333	-3.3542	-3.1917	-3.0375	-3.3396	-3.0229	172.139	-18.343	61.453	50.765	-113.886	-29.351	151.060	154.742	77.256	16.020	-120.049	125.037	-151.674	62.623	57.999	188.626	0.00050561	0.00019111	8.4849e-05	1405.1	1.7721e-06	1.5936e-06	1461.4	276.45	2.616e-06	1.0468e-06	340.25	97.997	77.436	22.682	2.1861e-06	31.439	5.1626e-05	4.5275e-05	1.1782e-05	1313.2	5.2436e-07	4.9093e-07	1357.5	253.4	5.2313e-07	4.7091e-07	308.68	89.174	71.012	20.829	4.4158e-07	28.572	9.399	-81.773	-145.943	-149.783	-113.364	46.572	-150.022	-142.875	-101.202	-82.139	-142.989	-136.518	-136.350	-129.173	-77.968	-129.836	-8191	255	
7984.412	1	1	0	0	0.22927	0.27997	0.24962	0.1909	0.066024	0.1092	0.21239	0.27389	0.1411	0.19421	0.16353	0.12837	0.087177	0.02644	0.14697	0.12601	-2.8417	-3.2354	-2.9646	-3.4396	-2.9938	-3.1167	-3.575	-3.0208	-3.2604	-3.3354	-3.0125	-3.4125	-3.1937	-2.9208	-3.375	-3.2792	120.806	75.055	64.200	99.348	1.376	-15.394	168.088	147.016	-110.808	-87.856	172.437	43.404	166.008	-36.018	-39.535	-54.390	0.00054778	0.00015999	4.761e-05	1405.8	5.0568e-06	6.4201e-07	1462.3	276.81	2.4172e-06	1.109e-06	341.34	97.151	77.616	22.607	2.5451e-06	31.228	5.2233e-05	4.2708e-05	1.151e-05	1312	5.223e-07	4.6897e-07	1358	253.63	5.2977e-07	4.6209e-07	308.68	88.95	71.04	20.797	4.5244e-07	28.545	-9.128	-72.370	-64.829	-149.846	-48.751	25.341	-149.922	-142.951	-88.671	-38.574	-143.188	-136.853	-136.400	-129.260	-52.263	-129.855	-8191	255	
7984.508	1	1	0	0	0.25208	0.17743	0.019661	0.29745	0.11635	0.29246	0.085481	0.071265	0.14231	0.17304	0.20657	0.22806	0.25206	0.12793	0.12478	0.16437	-2.7667	-3.1854	-3.0312	-3.4313	-3.0958	-3.1375	-3.7062	-3.2062	-3.1354	-3.1854	-2.9771	-3.2875	-3.2458	-2.8167	-3.3646	-3.2458	-26.320	-64.804	193.095	155.326	-10.633	-41.480	135.405	108.918	54.955	-100.237	-82.346	153.550	134.776	166.487	19.780	-42.219	0.00057997	0.00023231	9.0649e-05	1406.2	3.9136e-06	2.0205e-06	1451.1	276.46	1.6967e-06	9.1338e-07	338.89	98.046	77.511	22.624	3.7205e-07	31.33	5.3808e-05	4.3658e-05	1.2053e-05	1316	5.4427e-07	4.9585e-07	1356.3	253.89	5.2863e-07	4.7593e-07	308.05	89.248	70.953	20.768	4.6704e-07	28.585	7.267	-72.053	-98.068	-149.730	-54.264	28.200	-150.033	-142.995	-89.483	-58.010	-142.992	-136.499	-136.386	-129.277	-89.082	-129.652	-8191	255	
7984.628	1	1	0	0	0.17167	0.17043	0.077022	0.25117	0.093481	0.1481	0.44191	0.061973	0.15629	0.22621	0.030761	0.12193	0.077883	0.25972	0.048073	0.10734	-2.4729	-3.325	-2.9062	-3.45	-3.2083	-2.9667	-3.6813	-3.1479	-3.1437	-3.45	-3.0104	-3.1625	-3.3625	-2.8979	-3.2375	-3.2604	149.571	167.225	76.640	143.947	144.029	52.776	98.769	-87.851	105.004	-138.752	61.586	47.596	-139.790	173.406	126.796	106.710	0.00056244	0.00016896	7.5668e-05	1407.7	1.2186e-06	1.3012e-06	1460.9	275.77	1.3053e-06	2.5332e-06	339.04	97.699	77.419	22.501	1.3315e-06	31.083	5.3773e-05	4.3551e-05	1.2616e-05	1317	5.2329e-07	4.8025e-07	1358.9	254	5.2774e-07	4.6546e-07	308.41	89.063	70.832	20.74	4.9776e-07	28.5	9.149	-64.477	-54.491	-149.805	78.957	55.323	-149.754	-142.955	-21.773	-56.335	-143.028	-136.982	-136.257	-129.132	-47.858	-129.722	-8191	255	
7984.700	1	1	0	0	0.060009	0.19872	0.22309	0.0454	0.11287	0.15213	0.20363	0.063323	0.16425	0.16558	0.14433	0.089598	0.30813	0.13182	0.0066485	0.23648	-2.6396	-3.2833	-3.0458	-3.2958	-3.35	-3.0167	-3.5125	-3.2354	-3.1104	-3.2875	-3.0333	-3.2812	-3.3833	-3.0125	-3.2438	-3.35	163.669	48.337	-118.260	-79.900	120.234	42.402	102.347	13.181	28.791	-157.149	58.462	122.752	183.234	142.052	94.656	63.341	0.00055042	0.00037381	3.6401e-05	1408	3.5306e-06	2.6024e-06	1460.4	276.97	1.4341e-06	1.3836e-06	340.42	97.653	77.517	22.495	2.0199e-06	31.324	5.0493e-05	4.1758e-05	1.31e-05	1317.3	4.923e-07	4.747e-07	1360.8	253.9	5.0751e-07	4.6145e-07	308.74	89.056	70.892	20.772	5.3942e-07	28.555	3.071	-61.302	-114.463	-149.922	-20.678	4.127	-149.975	-142.935	-96.518	-17.559	-142.847	-136.765	-136.342	-129.178	-46.955	-129.907	-8191	255	
7984.819	1	1	0	0	0.017738	0.08051	0.11252	0.29524	0.079408	0.29821	0.2403	0.08792	0.20821	0.17625	0.033539	0.078	0.18347	0.26655	0.066805	0.1314	-2.6792	-3.3979	-3.0646	-3.4146	-3.3063	-2.8646	-3.4333	-3.1583	-2.925	-3.2562	-3.2542	-3.1021	-3.3458	-2.9708	-3.1208	-3.3146	-67.858	98.708	88.799	-160.723	-126.300	18.597	86.496	50.854	187.825	184.410	120.101	112.309	135.894	194.298	-92.469	64.226	0.00049098	0.00020509	4.1438e-05	1407.3	3.396e-06	1.8469e-06	1463	276.3	1.0121e-06	3.3152e-07	340.84	97.628	77.575	22.567	2.6231e-06	31.27	5.0107e-05	4.1195e-05	1.3547e-05	1315.7	4.8118e-07	4.6993e-07	1359.7	253.79	4.9126e-07	4.5333e-07	308.89	89.024	70.842	20.779	5.3397e-07	28.525	4.280	-70.976	-151.982	-149.930	-51.185	24.819	-150.023	-142.972	-11.657	40.372	-143.261	-136.926	-136.683	-129.037	-79.948	-129.819	-8191	255	
7984.915	1	1	0	0	0.22151	0.4632	0.24117	0.45926	0.26517	0.033157	0.23088	0.23677	0.22133	0.15669	0.16225	0.21969	0.14549	0.24962	0.067685	0.1189	-2.5312	-3.3708	-3.1688	-3.0646	-3.3271	-2.8771	-3.2583	-3.3063	-2.8521	-3.3375	-3.0208	-3.0208	-3.4083	-2.9229	-3.0021	-3.4229	44.423	141.458	-99.867	122.945	-67.165	-41.942	133.516	37.691	160.629	50.508	184.478	-105.906	48.711	-158.968	38.605	34.337	0.00054683	0.00020935	0.00013757	1407.4	1.4986e-06	1.5042e-06	1456.5	277.23	2.9406e-06	1.903e-06	341.45	98.316	77.746	22.663	1.8541e-06	31.337	4.8645e-05	4.2802e-05	1.3543e-05	1316.6	4.5461e-07	4.8351e-07	1358	254.06	4.6544e-07	4.6491e-07	309.69	89.103	70.875	20.842	5.1675e-07	28.58	1.871	-91.143	-111.559	-149.799	-71.747	-59.457	-150.051	-142.691	-49.028	-92.300	-142.944	-136.947	-136.632	-129.557	-21.537	-130.113	-8191	255	
7985.011	1	1	0	0	0.064219	0.15119	0.10997	0.13759	0.05157	0.14807	0.27396	0.15232	0.096339	0.15688	0.27587	0.019426	0.17193	0.1615	0.15025	0.23812	-2.5167	-3.3333	-2.975	-2.8625	-3.3688	-2.9	-3.3	-3.3375	-3.0875	-3.3771	-3.1979	-2.9396	-3.2333	-2.9521	-3.0896	-3.35	138.600	-44.235	12.281	75.832	-100.909	-94.671	127.512	192.480	-81.113	36.731	140.406	162.618	-143.506	-110.676	122.782	153.715	0.00053741	0.00027359	5.1999e-05	1406.4	2.4382e-06	1.9575e-06	1457	276.65	3.7571e-06	6.0855e-07	338.7	98.303	77.96	22.742	1.5204e-06	31.451	4.6308e-05	4.4934e-05	1.2552e-05	1315.5	4.3895e-07	4.946e-07	1357.6	253.86	4.5246e-07	4.9975e-07	308.57	89.242	71.029	20.937	5.0546e-07	28.568	-2.959	-66.149	-63.565	-149.986	-41.542	38.649	-149.899	-142.808	-69.997	-47.394	-142.913	-136.648	-136.142	-129.316	0.903	-129.659	-8191	255	
7985.107	1	1	0	0	0.22016	0.15694	0.27458	0.12919	0.21209	0.037407	0.22761	0.033202	0.1492	0.13254	0.11374	0.12722	0.043651	0.17074	0.093272	0.2666	-2.5229	-3.1646	-3.1	-3.0729	-3.3875	-3.0896	-3.1854	-3.6	-2.9	-3.0604	-3.3542	-2.9437	-3.3271	-3.15	-3.025	-3.4562	-125.982	-75.256	145.343	123.870	-4.177	-57.064	101.061	123.866	-44.548	186.930	-139.141	141.163	83.040	-136.656	-124.047	156.936	0.00051335	0.00011871	4.3751e-05	1413.5	1.8416e-06	3.0685e-07	1459.1	276.25	2.3115e-06	1.2319e-06	341.74	98.217	77.795	22.731	1.6737e-06	31.458	4.6588e-05	4.7322e-05	1.2224e-05	1317	4.645e-07	5.2435e-07	1358.8	254.09	4.9039e-07	5.299e-07	309.42	89.286	71.104	20.906	4.9399e-07	28.591	-2.839	-101.779	-104.710	-149.858	-45.513	173.291	-150.017	-143.015	-93.355	-76.945	-142.824	-136.679	-136.294	-129.337	-79.825	-129.978	-8191	255	
7985.228	1	1	0	0	0.24898	0.11108	0.12527	0.15321	0.18253	0.18163	0.2818	0.17589	0.18459	0.24604	0.26151	0.11323	0.057098	0.14091	0.11965	0.079769	-2.6042	-3.0042	-3.2958	-3.1354	-3.3875	-3.1854	-2.9875	-3.4729	-2.9437	-3.1229	-3.5792	-2.9021	-3.5458	-3.1729	-2.9437	-3.5	-12.706	25.550	80.499	167.105	70.827	-5.231	70.137	135.700	-83.185	174.274	181.249	-136.326	191.992	-73.047	117.391	31.268	0.00052224	0.00023882	8.6878e-05	1402.4	1.9237e-06	4.4393e-06	1463.1	278.01	2.6881e-06	3.0732e-06	342.2	98.006	78.091	22.546	2.6509e-06	31.411	5.0662e-05	4.8871e-05	1.2113e-05	1314.5	5.0046e-07	5.2084e-07	1359.2	254.23	5.0866e-07	5.1964e-07	308.89	89.089	71.073	20.858	4.6782e-07	28.608	4.900	-43.458	-77.031	-149.936	-105.235	-29.079	-149.840	-142.890	-142.023	-4.463	-142.909	-136.620	-136.503	-129.346	-75.209	-129.555	-8191	255	
7985.324	1	1	0	0	0.12828	0.11374	0.055897	0.33107	0.046382	0.13273	0.2475	0.017927	0.07313	0.05369	0.19786	0.34288	0.43759	0.19858	0.19815	0.083507	-2.6625	-3.1208	-3.1542	-3.1083	-3.3021	-3.3208	-3.1583	-3.4979	-2.9771	-3.1146	-3.3708	-3.025	-3.225	-3.2479	-2.9167	-3.3958	-104.495	-65.812	-59.092	154.039	163.209	-16.805	110.637	76.473	44.346	102.439	70.739	118.847	154.450	8.245	103.815	91.631	0.00050991	0.00025957	8.6273e-05	1404.9	3.2552e-06	2.2337e-06	1460.5	278.1	1.6366e-06	3.4693e-06	341.28	97.87	77.722	22.651	9.4609e-07	31.458	5.1189e-05	4.6088e-05	1.1496e-05	1314.5	5.2786e-07	5.0413e-07	1358.1	254.63	5.3999e-07	5.0424e-07	309.31	89.087	71.206	20.861	4.8426e-07	28.653	0.105	-76.047	-130.066	-149.902	-108.794	25.346	-150.013	-143.049	-45.114	-22.929	-143.094	-136.885	-136.498	-129.658	-68.600	-129.934	-8191	255	
7985.396	1	1	0	0	0.033299	0.12452	0.062761	0.15226	0.25246	0.15334	0.22297	0.16332	0.046826	0.051242	0.15904	0.22484	0.15687	0.088486	0.15022	0.10777	-2.6792	-2.9167	-3.3125	-3.0521	-3.2313	-3.2979	-3.0875	-3.4771	-3.0354	-2.9188	-3.4646	-2.8917	-3.0312	-3.2667	-2.7958	-3.3771	-126.029	-59.837	-117.156	138.700	9.094	16.446	92.941	68.487	31.316	-71.535	162.003	167.464	0.504	32.823	86.709	101.492	0.00057149	0.00017483	8.971e-05	1402.2	2.2657e-06	2.761e-06	1462.2	278.09	1.5269e-06	1.6875e-06	342.32	98.357	78.115	22.713	2.2139e-06	31.205	5.3207e-05	4.6044e-05	1.1426e-05	1315.8	5.548e-07	4.6905e-07	1361.5	254.58	5.4345e-07	4.8394e-07	308.95	89.377	71.329	20.85	4.7447e-07	28.622	3.844	-72.033	-94.830	-149.837	-44.521	7.472	-149.930	-142.969	-57.765	-15.997	-143.118	-136.625	-136.303	-129.203	25.427	-129.685	-8191	255	
7985.492	1	1	0	0	0.25926	0.099551	0.087251	0.203	0.10711	0.19512	0.32219	0.24864	0.18531	0.16285	0.27756	0.1652	0.083615	0.08759	0.23792	0.29959	-2.6208	-2.8604	-3.4583	-2.9813	-3.2604	-3.2792	-3.0812	-3.2771	-3.1771	-2.9375	-3.3521	-2.8187	-3.2375	-3.4104	-2.9083	-3.2646	-116.091	19.023	192.310	171.028	62.075	-103.135	101.359	151.368	-0.735	135.124	152.765	99.431	-95.597	-75.133	61.330	-114.108	0.00051701	0.00022607	9.3468e-05	1410.6	2.802e-06	4.3604e-06	1460.7	277.96	2.4901e-06	2.0732e-06	341.52	97.962	77.811	22.69	8.5935e-07	31.416	5.2684e-05	4.3818e-05	1.1307e-05	1315	5.4136e-07	4.6785e-07	1358.1	254.41	5.1776e-07	4.6686e-07	309.25	89.296	71.242	20.874	4.6035e-07	28.707	-7.491	-93.310	-84.786	-150.009	19.581	-31.177	-149.877	-142.817	-67.749	-4.970	-143.116	-136.707	-136.939	-129.372	-29.759	-130.206	-8191	255	
7985.588	1	1	0	0	0.087665	0.10322	0.2927	0.065382	0.053239	0.095787	0.1608	0.062605	0.17455	0.10396	0.15191	0.16738	0.20327	0.13403	0.24543	0.1631	-2.7167	-3.0208	-3.2167	-3.25	-2.9792	-3.325	-3.0625	-3.2958	-3.1771	-2.9146	-3.3333	-3.0875	-3.0042	-3.5021	-2.8312	-3.2167	-103.376	-117.496	-116.124	183.558	193.746	-11.652	30.072	-77.669	171.702	11.641	80.708	136.815	53.373	-83.596	-32.656	3.098	0.00051241	6.6911e-05	0.00011843	1405.4	3.8859e-06	2.3347e-06	1464.3	277.42	5.5119e-07	2.3684e-06	344.11	97.915	77.899	22.727	1.1914e-06	31.519	5.0089e-05	4.2212e-05	1.1109e-05	1315.6	5.0949e-07	4.4388e-07	1359.5	254.47	4.9652e-07	4.6035e-07	309.47	89.245	71.135	20.851	4.7417e-07	28.73	3.645	-95.252	-100.925	-149.974	-42.734	-13.557	-149.881	-143.058	-66.547	-0.168	-143.199	-136.754	-136.339	-129.109	-78.034	-129.699	-8191	255	
7985.707	1	1	0	0	0.21023	0.090773	0.055443	0.26465	0.31158	0.094056	0.29663	0.14457	0.26929	0.10737	0.14626	0.19003	0.12591	0.27669	0.082483	0.16598	-2.7625	-2.8458	-3.2542	-3.4458	-3.1063	-3.3187	-3.175	-3.2104	-3.2562	-2.825	-3.4354	-3.3542	-3.0104	-3.2	-3.1333	-3.25	78.472	-50.680	-115.136	142.738	-133.419	-15.515	183.213	54.565	194.773	-145.806	72.793	-150.132	198.400	164.166	58.142	142.458	0.00048607	0.00013097	9.5427e-05	1413	4.1708e-06	1.2961e-06	1461.3	278.19	3.3384e-06	2.2078e-06	339.83	98.402	77.775	22.746	2.0804e-07	31.522	4.8162e-05	4.2121e-05	1.2209e-05	1318	5.0126e-07	4.4558e-07	1359.8	254.82	4.8205e-07	4.5407e-07	309.07	89.422	71.071	20.869	5.1079e-07	28.725	-2.416	-65.124	-116.434	-150.005	-17.435	1.957	-150.000	-143.056	-114.694	-44.780	-143.075	-136.733	-136.372	-129.385	12.941	-129.721	-8191	255	
7985.803	1	1	0	0	0.071061	0.24794	0.14295	0.18947	0.26265	0.17329	0.25934	0.30192	0.01755	0.17485	0.098876	0.070098	0.18217	0.11353	0.1569	0.1799	-2.8208	-2.8063	-3.2729	-3.2812	-2.9083	-3.2354	-3.2438	-3.1063	-3.2604	-2.9167	-3.3438	-3.3354	-3.0708	-3.3896	-3.0292	-3.1875	-22.672	-85.508	-31.106	-120.035	-111.311	-122.767	121.558	154.536	61.446	147.330	-125.182	-150.950	133.569	-139.424	-157.302	-55.577	0.00049577	0.00015566	7.7813e-05	1407.3	4.1948e-06	1.0431e-06	1461.7	277.71	1.7373e-06	1.3953e-06	341.7	98.048	77.96	22.585	1.0252e-06	31.362	4.6902e-05	4.0788e-05	1.2655e-05	1316.9	4.8085e-07	4.2777e-07	1358.4	254.26	4.6519e-07	4.5175e-07	309.87	89.277	71.202	20.876	5.1427e-07	28.674	-4.717	-53.069	-100.982	-149.762	-60.380	-110.618	-149.959	-142.856	-48.261	-37.439	-143.026	-136.909	-136.239	-129.361	-99.377	-130.015	-8191	255	
7985.901	1	1	0	0	0.12459	0.15664	0.18834	0.27364	0.085124	0.095732	0.24182	0.19428	0.23532	0.13491	0.24934	0.21615	0.13006	0.23453	0.31434	0.037096	-2.7438	-2.9333	-3.0187	-3.3375	-3.0646	-3.2687	-3.2146	-3.125	-3.4021	-2.8667	-3.2125	-3.3354	-2.9854	-3.3417	-3.0167	-3.0396	67.025	118.303	42.168	124.285	51.866	34.266	167.546	90.729	-36.077	-121.601	188.201	-69.708	-64.868	-141.545	-149.825	91.391	0.0004731	0.00017877	7.183e-05	1407.3	1.8915e-06	2.7779e-06	1461.7	277.28	8.0001e-07	1.0325e-06	342.15	98.049	78.213	22.8	1.664e-06	31.418	4.5031e-05	4.0935e-05	1.2892e-05	1315	4.6254e-07	4.463e-07	1360	254.15	4.3801e-07	4.5662e-07	310.08	89.281	71.196	20.906	5.0914e-07	28.732	2.453	-80.270	-127.479	-149.802	-32.385	23.226	-150.039	-142.867	-92.210	-25.582	-142.718	-137.075	-136.563	-129.503	-48.182	-129.540	-8191	255	
7985.995	1	1	0	0	0.12813	0.068757	0.33376	0.22055	0.149	0.10613	0.11502	0.12216	0.16832	0.20734	0.30331	0.073766	0.19957	0.10274	0.27889	0.12256	-2.9854	-2.8771	-3.0021	-3.4271	-2.8771	-3.3625	-3.3187	-3.0583	-3.4146	-3.0771	-3.1688	-3.2646	-2.9938	-3.2812	-3.1896	-2.9771	136.237	36.775	131.564	154.183	-143.857	-65.978	164.284	56.999	5.792	49.070	-134.278	-156.773	179.611	154.655	56.181	-127.366	0.00053071	2.8755e-05	0.00010945	1405.9	3.923e-06	1.7611e-06	1456.9	278.38	1.4428e-06	1.0878e-06	341.38	98.475	78.021	22.667	1.8688e-06	31.417	4.3583e-05	4.2892e-05	1.2982e-05	1314.5	4.5721e-07	4.7662e-07	1358.3	254.45	4.391e-07	4.8695e-07	308.99	89.517	71.111	20.921	4.8324e-07	28.708	2.455	-139.705	-145.537	-149.735	-54.260	-51.233	-149.877	-142.704	-21.318	-60.334	-143.016	-136.676	-136.342	-129.488	-40.111	-129.973	-8191	255	
7986.092	1	1	0	0	0.19149	0.20132	0.016642	0.33367	0.081277	0.29889	0.1539	0.23405	0.064847	0.4404	0.38034	0.22612	0.19797	0.18858	0.071557	0.15491	-2.9979	-2.9458	-2.9458	-3.4271	-3.0021	-3.2292	-3.4062	-2.9375	-3.3312	-3.1354	-3.1604	-3.2521	-2.9208	-3.2896	-3.1979	-2.8875	68.827	-63.014	65.232	116.449	144.615	115.623	143.924	104.542	-3.463	83.516	112.475	-99.393	34.252	191.085	42.047	-43.218	0.00058838	0.000206	0.00010317	1406.3	2.1232e-06	1.1485e-06	1460.1	276.31	2.9236e-06	1.9567e-06	342.32	98.296	77.72	22.845	1.2799e-06	31.423	4.2812e-05	4.5031e-05	1.2192e-05	1314	4.4769e-07	4.9309e-07	1358.8	254.04	4.3867e-07	5.0245e-07	309.51	89.243	70.984	20.963	4.6221e-07	28.664	-7.274	-84.795	-101.248	-149.921	-73.281	-8.863	-150.081	-143.079	-81.071	-46.644	-142.898	-136.956	-136.434	-129.690	10.282	-129.958	-8191	255	
7986.188	1	1	0	0	0.18799	0.11306	0.14704	0.38787	0.23182	0.13643	0.22856	0.24604	0.032921	0.082778	0.12735	0.24189	0.085929	0.28287	0.16405	0.29679	-2.9208	-3.1312	-2.8937	-3.4917	-2.8604	-3.2021	-3.5042	-3.0563	-3.3417	-3.1917	-2.9646	-3.55	-3	-3.275	-3.2104	-3.0021	-106.248	-118.335	-26.919	138.847	-41.664	-59.958	112.618	158.267	-43.107	-131.414	-69.696	-151.256	-112.078	182.790	-126.233	58.219	0.00055784	0.00011927	5.912e-05	1405.6	2.0388e-06	5.1283e-07	1461	276.82	3.2205e-06	1.9028e-06	340.51	99.15	77.874	22.652	8.6995e-07	31.595	4.5288e-05	4.7467e-05	1.2049e-05	1314.3	4.8296e-07	5.0831e-07	1356.7	254.13	4.599e-07	4.8787e-07	309.35	89.332	71.185	20.859	4.3948e-07	28.736	0.125	-23.893	-42.722	-149.832	-20.050	80.100	-150.036	-142.936	-80.662	-41.169	-143.201	-136.594	-136.279	-129.041	0.093	-130.055	-8191	255	
7986.308	1	1	0	0	0.12063	0.071543	0.31057	0.25854	0.24341	0.12033	0.08452	0.19706	0.12027	0.33816	0.17629	0.062962	0.094816	0.13967	0.20855	0.1779	-3.0146	-3.1208	-2.925	-3.5458	-3.0083	-3.1958	-3.5479	-3.0375	-3.3021	-3.0854	-3.0833	-3.4437	-3.1917	-3.2521	-3.3583	-2.9354	55.689	-99.317	-52.023	-150.311	126.604	97.888	176.302	195.247	116.800	-44.822	84.623	-109.049	-143.857	34.222	-37.470	-129.828	0.00052052	0.00011206	8.0207e-05	1406.9	2.6894e-06	1.6339e-06	1458.9	278.17	2.7588e-06	1.0781e-06	341.99	98.341	78.12	22.835	1.5177e-06	31.312	4.7854e-05	4.4669e-05	1.1416e-05	1313.4	4.9613e-07	4.845e-07	1357.1	253.74	4.8485e-07	4.65e-07	309.85	89.246	71.265	20.942	4.2761e-07	28.666	2.377	-14.888	-114.994	-149.967	-93.919	-3.092	-150.104	-142.962	-82.015	33.010	-142.988	-136.911	-136.246	-129.647	-28.384	-129.566	-8191	255	
7986.405	1	1	0	0	0.28832	0.2132	0.058443	0.37548	0.15004	0.26185	0.37299	0.172	0.18863	0.29869	0.18325	0.33391	0.22377	0.31702	0.20305	0.21096	-2.8479	-3.0938	-2.8438	-3.4833	-3.1312	-3.225	-3.4646	-3.0542	-3.1646	-3.3104	-2.9	-3.4604	-3.1625	-2.8854	-3.4229	-2.9979	-125.290	106.765	167.610	-147.610	-59.019	-68.113	106.666	151.012	155.055	-98.903	153.424	-107.261	167.476	-86.886	155.157	189.475	0.00060437	0.00017022	3.2027e-05	1403.6	1.8502e-06	2.2396e-06	1457.3	277.58	1.2209e-06	2.4657e-06	342.79	98.564	78.056	22.751	1.3373e-06	31.674	4.9947e-05	4.2197e-05	1.1233e-05	1311.7	5.1894e-07	4.5989e-07	1355.3	254.33	5.1492e-07	4.5874e-07	309.87	89.413	71.331	20.927	4.2662e-07	28.78	5.834	-91.936	-89.638	-149.944	-83.310	-80.405	-150.049	-142.883	-50.958	-2.694	-142.911	-136.666	-136.215	-129.571	-80.016	-129.708	-8191	255	
7986.501	1	1	0	0	0.17384	0.22308	0.076486	0.44769	0.095758	0.18871	0.05744	0.15834	0.096439	0.083666	0.33537	0.21668	0.11281	0.073229	0.15633	0.042274	-2.6604	-3.0958	-2.7917	-3.5229	-3.0458	-3.0812	-3.5792	-3.1521	-3.1625	-3.2562	-3.2062	-3.3292	-3.1208	-3.1396	-3.425	-3.0667	-33.139	65.468	-41.005	-157.098	115.629	-63.180	166.981	-125.117	-73.691	161.897	93.292	194.278	-78.915	-148.154	-151.789	-87.254	0.00048344	0.00021969	2.7935e-05	1403.2	3.0776e-06	2.3048e-06	1459.9	278.2	3.7266e-06	1.4487e-06	341.89	98.085	78.26	22.815	1.5241e-06	31.34	5.1927e-05	4.1631e-05	1.1221e-05	1313.9	5.0071e-07	4.4391e-07	1358.5	254.9	5.0118e-07	4.3247e-07	309.44	89.429	71.357	20.927	4.0899e-07	28.679	-5.858	-95.801	-28.487	-149.797	-68.410	-36.278	-150.090	-142.890	-62.263	-56.630	-143.334	-136.701	-136.551	-129.477	-93.032	-129.790	-8191	255	
7986.597	1	1	0	0	0.20355	0.15186	0.1528	0.52661	0.13883	0.17207	0.28831	0.16199	0.18134	0.29414	0.074774	0.0047465	0.19975	0.1356	0.025256	0.17013	-2.9	-3.2562	-2.9813	-3.3312	-3.1312	-2.8937	-3.3125	-2.9729	-2.9188	-3.3646	-3.0042	-3.1854	-3.1917	-3.0208	-3.3271	-3.0667	52.394	105.543	-156.684	-158.218	26.112	-44.195	94.056	-143.122	-116.081	-135.030	183.492	-85.593	127.698	144.704	82.783	182.868	0.00059235	9.6663e-05	7.9627e-05	1402.1	2.1173e-06	2.3301e-06	1464.9	277.9	2.7527e-06	2.8295e-06	342.3	99.046	77.945	22.775	2.3512e-06	31.401	4.9968e-05	3.9026e-05	1.0902e-05	1313.4	4.8511e-07	4.5256e-07	1356.3	254.98	4.865e-07	4.3266e-07	310.16	89.627	71.234	20.952	4.2794e-07	28.709	8.217	-54.865	-105.715	-149.818	-109.385	-33.302	-150.021	-142.885	-101.272	-9.053	-142.958	-136.845	-136.085	-129.453	-82.445	-130.226	-8191	255	
7986.693	1	1	0	0	0.1956	0.10078	0.30651	0.12128	0.06042	0.17422	0.12952	0.1619	0.088621	0.13361	0.19339	0.27749	0.042161	0.051516	0.21999	0.19284	-2.5854	-3.2458	-2.9083	-3.4104	-3.3583	-2.9167	-3.4417	-3.1312	-3.1458	-3.2833	-3.0542	-3.4104	-3.2625	-3.1437	-3.3271	-3.1188	-35.817	187.471	184.686	-145.914	-58.816	141.441	179.212	169.413	11.592	73.983	5.722	-16.709	195.521	82.865	71.958	41.609	0.00056454	0.00012712	8.0116e-05	1401.2	5.387e-07	1.3843e-06	1459.6	278.85	3.0612e-06	2.4474e-06	341.44	97.939	77.713	22.611	2.2673e-06	31.586	4.8089e-05	3.9576e-05	1.169e-05	1311.3	4.829e-07	4.6074e-07	1357.6	255.08	4.9058e-07	4.3779e-07	309.53	89.241	71.053	20.817	4.9135e-07	28.722	0.619	-82.619	-138.735	-149.860	-23.431	-59.811	-150.085	-142.764	-63.922	-27.818	-143.017	-136.596	-136.450	-129.151	-43.128	-129.760	-8191	255	
7986.787	1	1	0	0	0.084319	0.07617	0.1906	0.11463	0.10804	0.074064	0.21896	0.14392	0.1462	0.18423	0.16985	0.05766	0.21467	0.074533	0.057484	0.15732	-2.6396	-3.1625	-3.0479	-3.2833	-3.2333	-3.075	-3.3417	-3.3208	-3.0646	-3.2188	-3.0396	-3.3125	-3.3792	-2.9708	-3.4062	-3.0792	84.388	158.790	92.875	184.218	175.154	-120.190	169.795	136.590	-26.095	-44.069	143.747	152.167	64.533	145.867	-104.234	135.152	0.00054542	0.00012508	2.6973e-05	1407.2	1.736e-06	2.6e-06	1457.5	277.83	2.9517e-06	1.1855e-06	342.39	98.285	77.803	22.668	1.5361e-06	31.514	4.8549e-05	4.0003e-05	1.2661e-05	1312.7	4.8055e-07	4.5323e-07	1358.5	254.46	4.8194e-07	4.3538e-07	310.49	89.248	71.006	20.891	5.0691e-07	28.74	-4.612	-2.458	68.223	-149.862	-97.041	19.765	-150.001	-142.772	-47.184	35.418	-143.299	-136.794	-136.431	-129.604	-58.039	-129.872	-8191	255	
7986.885	1	1	0	0	0.15225	0.19724	0.047856	0.089856	0.16123	0.020828	0.27858	0.23892	0.19335	0.17317	0.066036	0.21631	0.075073	0.1304	0.1867	0.22301	-2.4917	-3.4354	-3.0917	-3.3521	-3.4771	-2.9729	-3.4813	-3.3312	-2.8688	-3.4688	-3.1479	-3.25	-3.3083	-2.9833	-3.2375	-3.1958	147.931	124.099	70.005	156.280	-46.730	189.152	139.046	164.772	104.094	104.706	41.786	133.377	150.874	187.484	-11.329	-121.670	0.00050185	0.00013437	3.9593e-05	1402.6	3.7302e-06	1.6301e-06	1456.9	277.54	3.3885e-06	1.0496e-06	342.35	97.984	77.917	22.832	1.065e-06	31.524	4.7497e-05	3.9584e-05	1.3144e-05	1313.9	4.5994e-07	4.566e-07	1356.6	254.38	4.7127e-07	4.4618e-07	310.52	89.248	71.121	20.902	5.2579e-07	28.662	-6.835	-3.128	187.587	-149.932	-39.763	-28.181	-150.231	-142.922	-114.466	-47.824	-142.943	-136.830	-136.529	-129.227	-43.623	-130.003	-8191	255	
7987.004	1	1	0	0	0.031018	0.10505	0.28321	0.28165	0.18525	0.19191	0.29594	0.21795	0.039562	0.14133	0.10734	0.13668	0.13104	0.26657	0.27126	0.20331	-2.45	-3.3646	-3.1271	-3.2354	-3.4875	-3.0354	-3.3521	-3.2417	-2.9958	-3.3833	-3.3396	-2.9396	-3.4667	-3.0042	-3.225	-3.3979	157.229	-131.515	76.309	197.284	157.067	76.615	159.792	-74.484	-13.548	145.418	6.942	-15.537	179.356	123.657	-108.241	195.720	0.00045583	0.00024598	3.1395e-05	1404.6	9.2208e-07	1.2909e-06	1454.3	279.53	4.9502e-06	1.7904e-06	341.73	97.949	77.783	22.743	7.4169e-07	31.513	4.568e-05	4.1781e-05	1.3121e-05	1313.8	4.4695e-07	4.7641e-07	1356.5	255.06	4.5598e-07	4.7375e-07	309.98	89.273	70.944	20.893	4.9651e-07	28.62	1.205	-138.038	-99.314	-149.911	-33.176	-52.553	-149.930	-143.117	-62.616	-78.692	-142.920	-136.549	-136.311	-129.472	-92.033	-129.634	-8191	255	
7987.100	1	1	0	0	0.17749	0.20973	0.12564	0.25618	0.15366	0.15915	0.2391	0.14506	0.25136	0.27056	0.17151	0.11626	0.40878	0.1361	0.14387	0.11869	-2.6354	-3.3	-3.1125	-3.0979	-3.4625	-2.9854	-3.4313	-3.3979	-3.0604	-3.1021	-3.2896	-2.8958	-3.35	-3.1937	-3.1583	-3.5542	174.743	43.937	111.421	166.039	-32.017	112.132	148.884	80.952	188.962	-114.232	144.473	167.366	194.284	-119.174	-79.939	30.987	0.00061294	0.00017543	9.8831e-05	1400	3.5073e-06	3.579e-06	1460.7	276.67	2.4592e-06	1.2287e-06	343.68	98.401	78.053	22.555	1.7887e-06	31.432	4.4932e-05	4.4525e-05	1.2477e-05	1311	4.3046e-07	5.0151e-07	1355.4	254.21	4.518e-07	4.9516e-07	310.84	89.314	71.146	20.873	4.8377e-07	28.609	-0.995	-89.065	-73.716	-149.807	-91.189	-65.414	-149.864	-142.911	-101.984	-64.748	-143.048	-136.808	-136.370	-129.481	-63.790	-129.875	-8191	255	
7987.197	1	1	0	0	0.19135	0.12997	0.23052	0.11937	0.22737	0.054018	0.21659	0.19061	0.027611	0.33185	0.011913	0.28303	0.17304	0.089665	0.14344	0.29746	-2.5625	-3.2708	-3.0729	-3.1521	-3.4	-3.15	-3.1312	-3.3604	-2.9667	-3.375	-3.4208	-2.9979	-3.1583	-3.1437	-3.1146	-3.4146	-121.453	59.698	-113.708	195.660	62.849	-54.649	125.514	-117.498	-110.118	-148.458	159.300	129.169	68.815	-141.321	-102.829	89.528	0.00059608	0.00031156	9.1127e-05	1404.2	1.3506e-06	1.5192e-06	1454.7	279.25	2.1916e-06	1.7592e-06	341.98	97.92	77.863	22.59	5.4722e-07	31.297	4.6812e-05	4.6679e-05	1.1867e-05	1311.7	4.5428e-07	5.1361e-07	1354.2	254.33	4.7381e-07	5.1764e-07	309.69	89.204	71.134	20.905	4.6857e-07	28.596	-3.185	-105.511	-87.228	-149.942	-86.833	-28.111	-150.095	-143.065	-93.715	30.959	-143.004	-136.545	-136.156	-128.967	-52.979	-129.855	-8191	255	
7987.268	1	1	0	0	0.29611	0.16748	0.12052	0.16602	0.11683	0.17979	0.10764	0.14657	0.072225	0.21972	0.13885	0.2897	0.091122	0.2205	0.13282	0.2098	-2.625	-3.1542	-3.1458	-2.9896	-3.4417	-3.025	-3.1771	-3.4667	-2.9646	-3.2271	-3.3333	-3.0708	-3.2875	-3.2375	-2.9958	-3.3021	41.519	-147.757	-61.360	-154.257	4.632	191.166	105.752	-119.501	-157.614	80.098	-140.874	136.662	-14.100	151.981	38.044	162.847	0.00063342	0.00026467	5.9891e-05	1399.5	1.9028e-06	2.0141e-07	1455.3	277.22	2.7778e-06	3.6355e-06	341.38	98.197	77.72	22.64	1.7705e-06	31.464	4.8851e-05	4.5433e-05	1.1362e-05	1309.9	4.9755e-07	4.9881e-07	1353.7	254.02	5.0076e-07	5.0282e-07	309.66	89.149	71.067	20.901	4.5584e-07	28.637	-2.524	-75.865	-72.835	-149.784	-106.099	-81.370	-149.870	-142.861	-81.202	15.273	-142.945	-136.890	-136.491	-129.252	-76.437	-129.855	-8191	255	
7987.389	1	1	0	0	0.18328	0.07194	0.33312	0.1545	0.28814	0.13943	0.16027	0.10505	0.13262	0.15608	0.10226	0.26892	0.074097	0.069386	0.011231	0.071493	-2.6937	-3.1229	-3.2896	-3.2104	-3.5312	-3.2792	-3.1646	-3.2792	-3.1688	-3.1833	-3.2958	-3.1063	-3.2292	-3.2917	-2.8458	-3.2771	54.754	66.284	-3.994	174.094	9.844	97.652	179.519	-121.678	161.958	-125.296	170.764	-134.363	62.418	-135.367	148.239	125.423	0.00062195	0.00028683	0.00010105	1400.5	3.1217e-06	2.9143e-06	1457.1	278.26	5.1652e-06	2.1597e-06	341.83	97.951	77.593	22.696	1.5894e-06	31.471	4.9662e-05	4.3442e-05	1.1068e-05	1309.3	5.102e-07	4.6456e-07	1356.5	254.51	5.0713e-07	4.7592e-07	310.38	89.144	71.169	20.867	4.5168e-07	28.648	-2.280	-62.031	-103.832	-149.923	-92.945	3.800	-149.855	-143.058	-76.130	-29.205	-142.745	-136.587	-136.480	-129.089	-36.717	-129.891	-8191	255	
7987.485	1	1	0	0	0.073053	0.19117	0.10147	0.24876	0.17431	0.03104	0.3303	0.23023	0.12775	0.15645	0.050719	0.23606	0.051885	0.42334	0.21302	0.10305	-2.7021	-3.0833	-3.25	-3.0292	-3.0771	-3.3708	-3.15	-3.4458	-3.1188	-3.0833	-3.5396	-3.1479	-3.3063	-3.3771	-3.0438	-3.3792	88.517	157.124	-92.640	184.612	142.992	113.788	131.649	21.164	100.631	-50.770	-148.155	172.545	143.066	-64.991	130.199	172.751	0.00045182	0.00029895	0.00011079	1395	1.6712e-06	1.1309e-06	1456.2	278.1	1.2706e-06	2.4471e-06	341.82	98.44	77.944	22.842	1.4129e-06	31.407	5.1268e-05	4.3391e-05	1.0948e-05	1309.4	5.2671e-07	4.5887e-07	1355.8	254.73	5.1707e-07	4.6748e-07	309.86	89.32	71.1	20.903	4.3651e-07	28.669	-0.241	-51.159	-98.039	-149.995	-68.372	-87.309	-150.123	-143.128	-24.283	-55.362	-143.176	-136.528	-136.263	-129.454	-129.606	-130.007	-8191	255	
7987.581	1	1	0	0	0.18727	0.057322	0.070466	0.20654	0.34279	0.068635	0.26824	0.092713	0.13609	0.18326	0.17903	0.25938	0.11428	0.11334	0.30562	0.11553	-2.8729	-3.0646	-3.0771	-3.2521	-3.1937	-3.2583	-2.9729	-3.45	-3.0687	-2.8625	-3.3271	-3.1437	-3.1188	-3.4104	-2.9062	-3.4521	12.125	-81.100	66.516	-134.681	-132.328	2.592	182.588	-155.240	114.240	21.909	103.963	123.438	6.736	39.450	-129.695	186.059	0.00053242	8.0314e-05	3.6283e-05	1398.7	2.7798e-06	2.54e-06	1458.5	277.59	3.6257e-06	2.141e-06	343.14	97.705	77.908	22.659	1.8651e-06	31.691	4.9943e-05	4.2118e-05	1.0691e-05	1309.7	5.0126e-07	4.3639e-07	1354.1	254.62	4.9793e-07	4.4221e-07	310.09	89.082	71.252	20.88	4.4717e-07	28.697	4.772	-79.532	-105.908	-149.789	-65.726	-23.976	-149.971	-142.889	-58.836	71.029	-143.224	-136.736	-136.518	-129.692	-67.011	-129.833	-8191	255	
7987.702	1	1	0	0	0.15219	0.2066	0.070524	0.0087145	0.16412	0.1726	0.14184	0.34345	0.1048	0.12367	0.21608	0.082458	0.061543	0.057604	0.20929	0.079932	-2.8875	-2.9292	-3.1354	-3.2979	-3.0771	-3.0604	-3.0396	-3.4208	-3.2812	-2.9333	-3.4917	-3.1458	-3.1521	-3.4667	-3.1354	-3.3187	91.415	36.122	-144.646	-9.787	95.637	131.600	95.796	-136.843	137.141	-152.098	178.234	-100.435	-104.891	-131.641	9.462	100.017	0.00046311	0.00019781	5.4425e-05	1397.8	1.1714e-06	1.2949e-06	1454	276.65	2.9523e-06	2.5032e-06	342.45	98.664	77.76	22.63	6.107e-07	31.496	4.7518e-05	4.1287e-05	1.0961e-05	1309.9	4.9766e-07	4.2813e-07	1353.2	254.53	4.7004e-07	4.4799e-07	309.7	89.276	70.987	20.819	4.8037e-07	28.725	0.709	-60.372	168.842	-149.936	117.183	7.156	-150.013	-142.919	-44.266	-12.434	-143.104	-136.740	-136.350	-129.273	-92.833	-129.655	-8191	255	
7987.796	1	1	0	0	0.16237	0.18792	0.12282	0.11603	0.28246	0.17622	0.16185	0.078904	0.057743	0.31529	0.19953	0.24489	0.15813	0.25726	0.10957	0.18219	-2.8229	-2.8354	-3.3667	-3.4583	-3.0208	-3.6292	-3.0458	-3.2833	-3.0875	-2.9146	-3.3063	-2.9854	-2.9313	-3.4708	-3.0438	-3.2771	81.384	97.802	103.237	144.487	5.471	175.044	91.236	-92.884	-79.533	171.358	104.181	14.890	175.639	83.613	42.732	15.431	0.00049709	0.00017995	4.7922e-05	1402.9	3.1435e-06	1.8295e-06	1456.1	278.05	2.0484e-06	1.7177e-06	343.08	98.391	77.837	22.622	3.4371e-06	31.588	4.672e-05	4.0623e-05	1.1858e-05	1311.2	4.9576e-07	4.31e-07	1353.4	254.87	4.7013e-07	4.3448e-07	310.68	89.3	71.101	20.842	4.9825e-07	28.72	1.906	-141.602	-146.799	-149.852	-42.741	20.886	-150.075	-142.898	-118.720	-26.001	-142.998	-136.903	-136.458	-129.324	-40.271	-129.696	-8191	255	
7987.870	1	1	0	0	0.17655	0.19929	0.16836	0.136	0.12821	0.031539	0.42081	0.12199	0.11869	0.16859	0.16274	0.11434	0.20481	0.07318	0.093236	0.22214	-2.9042	-2.7417	-3.2917	-3.6583	-2.8917	-3.3667	-3.2208	-3.2938	-3.2562	-2.9479	-3.3458	-3.3542	-2.975	-3.3937	-3.1562	-3.1688	-115.594	-25.726	47.835	-132.267	-88.891	1.945	129.896	189.727	98.456	79.293	-155.482	-114.722	-89.073	178.163	-11.421	177.411	0.00057989	0.00022105	5.709e-05	1402.9	9.9307e-07	2.061e-06	1452.9	277.98	3.0905e-06	1.6574e-06	342.15	98.557	77.776	22.57	1.7576e-06	31.412	4.585e-05	4.0098e-05	1.2763e-05	1310.8	4.8562e-07	4.2775e-07	1354.9	254.39	4.4863e-07	4.5164e-07	310.65	89.389	71.1	20.847	5.1714e-07	28.676	-1.719	-75.460	-46.516	-150.003	-26.075	-34.259	-149.903	-142.892	-31.733	70.167	-143.090	-136.910	-136.277	-129.561	-34.487	-129.603	-8191	255	
7987.988	1	1	0	0	0.1546	0.30366	0.20368	0.38019	0.22327	0.24741	0.30034	0.13585	0.34493	0.25714	0.21038	0.1433	0.20502	0.22861	0.074886	0.27667	-2.9833	-3.1083	-3.2521	-3.375	-2.8771	-3.4313	-3.2458	-3.1229	-3.4708	-2.9938	-3.3417	-3.1208	-2.95	-3.4729	-3.1479	-2.95	105.987	43.532	85.786	118.444	45.716	87.457	155.080	-70.678	76.324	-52.777	-159.540	-140.806	-98.727	-59.144	-118.242	159.983	0.00048739	0.00022661	0.00010257	1402.9	1.3949e-06	8.8523e-07	1459.7	277.57	1.2129e-06	1.9988e-06	341.86	97.766	77.722	22.635	1.4395e-06	31.396	4.5151e-05	4.2976e-05	1.3065e-05	1311.3	4.6816e-07	4.5488e-07	1356.2	254.86	4.4521e-07	4.8257e-07	310.25	89.222	71.005	20.871	5.1677e-07	28.645	6.910	-125.293	-0.680	-149.946	5.658	-14.363	-150.000	-142.749	-114.254	45.776	-143.198	-136.485	-136.329	-129.222	5.625	-130.415	-8191	255	
7988.085	1	1	0	0	0.2317	0.18469	0.24846	0.088848	0.043972	0.091048	0.19402	0.14983	0.055016	0.049991	0.10547	0.061171	0.24057	0.29147	0.31567	0.072118	-2.9792	-3.075	-3.0875	-3.4354	-2.9854	-3.2438	-3.3896	-3.0938	-3.4083	-3.0625	-3.1854	-3.3604	-2.9708	-3.2188	-3.2708	-2.8583	-82.082	157.894	5.609	31.460	22.313	175.906	112.023	110.519	62.126	-22.847	-138.102	179.874	-24.446	138.958	92.440	68.720	0.00053762	0.00022947	0.00014955	1404.1	2.2285e-06	2.8164e-06	1457.5	277.29	2.6955e-06	1.4952e-06	341.63	98.269	78.035	22.601	1.438e-06	31.364	4.4374e-05	4.5142e-05	1.3005e-05	1312	4.6549e-07	4.8378e-07	1354	254.28	4.4012e-07	5.0412e-07	309.85	89.092	71.019	20.903	4.9714e-07	28.702	0.706	-142.125	-92.359	-150.048	-86.762	-34.090	-150.205	-143.007	-91.928	-70.078	-143.159	-136.824	-136.383	-129.358	-69.635	-130.082	-8191	255	
7988.181	1	1	0	0	0.14324	0.30136	0.14564	0.30134	0.12907	0.32236	0.25887	0.19986	0.080018	0.25234	0.099066	0.055746	0.31947	0.066848	0.16581	0.15994	-3.1229	-2.9875	-3.1188	-3.4313	-2.8604	-3.3375	-3.3771	-3.0438	-3.3604	-3.2417	-3.0729	-3.4354	-3.0667	-3.2604	-3.2188	-3.0146	-45.681	133.177	139.087	177.783	-30.336	-109.243	96.556	158.251	-26.321	-42.709	178.084	-148.736	70.385	144.347	-49.355	85.348	0.00050601	0.0001474	5.5955e-05	1403.4	2.07e-06	2.2368e-06	1458.1	278.49	2.7182e-06	2.2119e-06	342.5	98.472	77.916	22.64	1.5676e-06	31.523	4.5515e-05	4.7462e-05	1.2581e-05	1312.3	4.7701e-07	5.1999e-07	1354.9	254.35	4.6838e-07	5.2276e-07	310.3	89.221	71.08	20.927	4.7712e-07	28.676	6.683	-112.106	-119.831	-149.886	-55.400	17.071	-149.843	-142.738	-98.563	-74.730	-142.846	-136.562	-136.412	-129.323	-72.139	-129.749	-8191	255	
7988.301	1	1	0	0	0.25266	0.076585	0.12386	0.073873	0.24508	0.045061	0.21694	0.234	0.22982	0.059209	0.18625	0.14549	0.26387	0.12958	0.17667	0.24217	-2.8229	-2.9938	-3.1042	-3.5583	-3.05	-3.2521	-3.4521	-3.0854	-3.2958	-3.1729	-2.8854	-3.4042	-3.0438	-3.1125	-3.2625	-2.8063	184.282	108.438	123.290	190.056	-27.396	190.114	-160.630	-61.578	119.684	110.652	105.798	-160.801	177.914	-94.976	73.772	157.562	0.0005557	0.00014411	1.7179e-05	1401.4	3.6892e-06	3.5301e-06	1463.4	278.23	1.1661e-06	2.4674e-06	342.94	98.188	78.058	22.642	1.3344e-06	31.327	4.7122e-05	4.8063e-05	1.2358e-05	1310.4	5.0431e-07	5.2095e-07	1356.4	254.52	4.9746e-07	5.1832e-07	310.33	89.084	71.312	20.905	4.6723e-07	28.624	-2.731	-84.191	-81.752	-150.021	-39.580	27.805	-150.069	-142.998	189.323	-28.359	-142.896	-136.842	-136.463	-129.523	-21.423	-130.069	-8191	255	
7988.398	1	1	0	0	0.32813	0.28785	0.087061	0.17624	0.13436	0.17556	0.31321	0.20891	0.0033525	0.22619	0.14352	0.025295	0.046627	0.23427	0.17339	0.089975	-2.9646	-3.1354	-2.7729	-3.5563	-3.1437	-3.2021	-3.5229	-2.9813	-3.1854	-3.2333	-3.2667	-3.2396	-3.0542	-3.1854	-3.4042	-3.0458	-12.460	125.398	94.996	191.863	99.815	127.597	106.157	21.507	126.020	82.663	-81.117	-150.179	151.350	59.320	131.868	112.819	0.000516	0.00023224	0.00011367	1405.5	2.7325e-06	2.5702e-06	1453.5	277.48	1.725e-06	3.1313e-06	341.63	97.584	77.783	22.611	1.3378e-06	31.344	5.085e-05	4.6806e-05	1.2028e-05	1311.4	5.2168e-07	5.0752e-07	1354.6	254.71	5.2839e-07	4.9561e-07	309.43	89.007	71.2	20.914	4.5988e-07	28.664	-2.427	-84.126	-89.343	-150.004	-43.359	-69.430	-149.984	-142.790	-25.102	-22.276	-143.250	-136.851	-136.380	-129.155	-37.759	-129.862	-8191	255	
7988.494	1	1	0	0	0.25033	0.11834	0.19364	0.19577	0.056015	0.35532	0.33709	0.12575	0.062553	0.26881	0.26906	0.070095	0.30002	0.14912	0.095395	0.24053	-2.9042	-3.2354	-2.9458	-3.4729	-3.075	-3.2417	-3.5208	-2.9813	-3.3167	-3.2396	-3.1	-3.2229	-3.1188	-3.2333	-3.5333	-3.0875	-151.299	113.855	167.089	177.814	148.310	-44.491	116.034	100.184	51.221	-142.444	180.916	-99.179	-133.746	179.321	-126.757	124.987	0.00056454	0.00027758	0.00014163	1403.8	3.8564e-06	3.6297e-06	1459.7	277.12	3.1732e-06	3.2539e-06	342.26	97.693	77.82	22.61	1.9901e-06	31.093	5.3532e-05	4.5019e-05	1.1947e-05	1311.2	5.5032e-07	5.0182e-07	1356.2	254.24	5.4413e-07	4.778e-07	309.62	89.186	71.168	20.846	4.4798e-07	28.541	-0.543	-66.494	-74.852	-150.107	-71.123	-2.313	-150.106	-142.997	-29.279	27.358	-143.281	-136.590	-136.337	-129.464	-39.332	-129.957	-8191	255	
7988.565	1	1	0	0	0.24921	0.058755	0.18033	0.17326	0.13204	0.15515	0.23829	0.26314	0.068216	0.1067	0.11272	0.089703	0.041951	0.24679	0.22579	0.052049	-2.6375	-3.0583	-3	-3.4917	-3.2313	-3.0042	-3.5875	-3.1125	-3.1521	-3.1708	-2.8167	-3.35	-3.3333	-2.8708	-3.4917	-3.1167	169.934	-113.064	-82.187	121.923	-117.859	181.109	75.796	196.089	51.078	-69.480	19.255	44.361	39.669	144.947	-112.819	191.940	0.00060042	0.00027229	9.2292e-05	1404.2	1.7157e-06	1.3176e-06	1455.8	277.4	1.1911e-06	1.7808e-06	342.12	98.087	78.242	22.624	1.7871e-06	31.438	5.2811e-05	4.3544e-05	1.175e-05	1312.3	5.4067e-07	4.8836e-07	1355.3	254.86	5.3703e-07	4.6633e-07	309.65	89.106	71.203	20.854	4.6027e-07	28.672	-1.081	-73.881	-135.369	-149.876	-30.983	-1.473	-149.982	-142.920	-62.265	-3.729	-142.827	-136.947	-136.527	-129.489	-63.786	-129.977	-8191	255	
7988.684	1	1	0	0	0.16957	0.26232	0.28671	0.32032	0.13726	0.26309	0.24281	0.13634	0.18162	0.12649	0.08456	0.23772	0.13859	0.19447	0.16841	0.043592	-2.6833	-3.3875	-2.7708	-3.5438	-3.25	-2.9958	-3.5771	-3.1	-2.9458	-3.4167	-2.7188	-3.2375	-3.3208	-2.9562	-3.2271	-3.2042	113.212	151.520	129.000	160.112	-0.947	32.613	102.295	91.148	-52.497	45.426	-92.643	-34.401	-48.032	172.680	75.913	49.267	0.00054665	0.00016806	9.9117e-05	1400.6	1.5803e-06	1.2953e-06	1455.9	277.52	3.2707e-06	1.7291e-06	341.22	98.487	77.665	22.764	2.1563e-06	31.349	5.2803e-05	4.195e-05	1.1982e-05	1311.9	5.2572e-07	4.6934e-07	1353.4	254.71	5.2507e-07	4.585e-07	309.82	89.327	71.055	20.851	4.7136e-07	28.65	6.697	-22.555	-57.223	-149.674	-87.932	5.757	-150.231	-143.102	-64.123	-22.424	-142.949	-136.584	-136.524	-129.335	-31.523	-129.659	-8191	255	
7988.780	1	1	0	0	0.19487	0.13292	0.14685	0.22246	0.22833	0.13772	0.30732	0.091084	0.033403	0.026547	0.11851	0.1734	0.16461	0.042315	0.12029	0.29236	-2.5187	-3.325	-3.1292	-3.4	-3.1958	-2.9437	-3.3583	-3.2104	-3.0208	-3.1521	-2.9521	-3.1104	-3.3563	-2.8771	-3.3167	-3.0833	-40.531	-0.338	-6.255	169.216	116.512	29.436	117.932	151.110	-18.631	-1.960	65.333	-117.429	55.961	-29.222	-139.714	-132.759	0.00055724	0.00023183	7.6053e-06	1397.1	3.8452e-06	4.1785e-06	1456.9	276.75	3.5482e-06	1.5538e-06	340.25	98.203	77.721	22.596	1.9742e-06	31.371	5.0592e-05	4.1677e-05	1.2207e-05	1311	4.9597e-07	4.6642e-07	1355.3	254.16	5.0133e-07	4.3895e-07	309.31	89.372	70.968	20.817	5.1293e-07	28.613	5.139	-70.797	117.926	-149.762	-45.238	-6.551	-149.991	-142.984	-70.747	-33.582	-143.212	-136.563	-136.542	-129.424	-20.785	-129.863	-8191	255	
7988.877	1	1	0	0	0.18797	0.19121	0.19335	0.22223	0.040284	0.21925	0.25021	0.21377	0.033262	0.050087	0.11452	0.16422	0.19247	0.22446	0.018262	0.18274	-2.7125	-3.3958	-2.9417	-3.2167	-3.3458	-2.9333	-3.475	-3.2062	-2.9	-3.4542	-3.2667	-3.0667	-3.4479	-2.8812	-3.3354	-3.1813	-123.589	-118.680	35.645	113.713	149.737	-43.725	148.505	111.161	-37.115	-3.909	159.493	-124.634	182.984	158.184	-11.118	-119.259	0.00046313	0.00013974	4.747e-05	1399.6	1.5265e-06	1.7807e-06	1458.8	277.11	2.8059e-06	1.3555e-06	339.82	97.936	78.311	22.602	1.1652e-06	31.476	4.9794e-05	4.0503e-05	1.3129e-05	1311.1	4.8806e-07	4.741e-07	1355.4	254.33	5.049e-07	4.4827e-07	309.77	89.204	71.014	20.805	5.4669e-07	28.622	1.370	-69.165	140.661	-149.759	-73.566	23.710	-149.879	-143.066	-72.553	-14.089	-143.218	-136.557	-136.523	-129.566	-124.179	-129.444	-8191	255	
7988.973	1	1	0	0	0.059564	0.23288	0.28737	0.28476	0.20507	0.055894	0.12646	0.18645	0.2408	0.088662	0.068689	0.2607	0.087036	0.27686	0.17721	0.14276	-2.5125	-3.1958	-3.1188	-3.2125	-3.2604	-3.1146	-3.4292	-3.2438	-3.0438	-3.2917	-3.1813	-3.075	-3.2417	-3.0938	-3.2458	-3.4854	106.456	-72.329	164.198	196.656	85.329	-146.460	105.130	137.353	69.791	-2.044	12.862	130.312	61.966	198.373	167.118	109.488	0.00050632	0.00023872	5.4877e-05	1402.5	4.4482e-06	1.8278e-06	1457.8	277.45	1.1558e-06	3.168e-07	342.38	97.796	77.942	22.546	1.2404e-06	31.182	5.0283e-05	4.263e-05	1.4064e-05	1311.7	4.8305e-07	4.9247e-07	1357.4	254.24	4.9809e-07	4.7899e-07	309.8	88.897	70.958	20.774	5.615e-07	28.515	1.800	-46.965	-65.571	-149.549	-41.713	35.623	-150.029	-142.971	-23.616	-14.492	-143.148	-136.551	-136.171	-129.478	-74.299	-129.931	-8191	255	
7989.093	1	1	0	0	0.094152	0.1109	0.097621	0.22586	0.10532	0.21845	0.18635	0.13042	0.18869	0.12599	0.2305	0.12778	0.090193	0.018221	0.11694	0.054834	-2.4396	-3.2313	-3.2208	-3.1958	-3.4979	-3.225	-3.3667	-3.5479	-3.0958	-3.3833	-3.2292	-3.1604	-3.3521	-2.9417	-3.2875	-3.3854	-129.019	-31.117	62.678	-109.354	-96.883	-44.805	123.292	-59.497	91.999	-122.853	15.171	-148.408	65.416	81.090	71.849	80.798	0.00061993	0.00017771	8.162e-05	1402.5	2.1353e-06	2.503e-06	1454.4	275.87	2.4738e-06	8.9373e-07	342.08	98.016	77.566	22.465	3.2766e-06	31.174	4.8621e-05	4.4492e-05	1.4111e-05	1312	4.692e-07	5.257e-07	1353.9	253.52	4.8607e-07	5.1772e-07	309.87	89.061	70.754	20.805	5.3817e-07	28.548	7.091	-64.943	-108.317	-149.786	-63.856	-30.018	-149.926	-142.915	-63.419	16.811	-143.050	-136.656	-136.417	-129.047	-24.598	-129.683	-8191	255	
7989.165	1	1	0	0	0.13906	0.14369	0.092272	0.20931	0.14794	0.18763	0.17863	0.12186	0.083168	0.095643	0.28113	0.099601	0.14011	0.12262	0.11301	0.13194	-2.5687	-3.1813	-2.9417	-3.0687	-3.2	-3.1979	-3.3708	-3.3708	-2.8104	-3.1854	-3.2667	-3.1646	-3.3125	-3.1188	-3.0083	-3.2062	25.876	-5.232	-74.765	191.054	-101.952	21.271	128.330	83.911	184.620	-10.546	-142.277	20.981	89.592	111.457	128.031	-17.644	0.00056592	0.0001428	6.3722e-05	1398.5	2.302e-06	1.4309e-06	1453.7	276.56	3.1733e-06	8.575e-07	342.48	97.348	77.872	22.574	1.2195e-06	31.267	4.8196e-05	4.9297e-05	1.3508e-05	1310.3	4.8382e-07	5.4957e-07	1355.3	253.65	5.0403e-07	5.4944e-07	310.06	88.828	70.975	20.875	5.161e-07	28.534	5.846	-83.135	178.361	-149.719	42.075	-48.925	-149.969	-142.924	-121.205	55.559	-143.203	-136.956	-136.721	-129.030	-32.945	-129.831	-8191	255	
7989.261	1	1	0	0	0.12061	0.028389	0.032494	0.17494	0.14032	0.22847	0.10329	0.17733	0.1068	0.086954	0.21895	0.083051	0.27092	0.1564	0.22262	0.25521	-2.6208	-3.0875	-3.0979	-3.1458	-3.375	-3.2271	-3.0417	-3.3896	-2.9375	-3.3458	-3.4354	-2.9479	-3.3354	-3.1646	-2.9875	-3.3979	42.379	-115.331	-137.654	146.962	-84.945	70.852	118.323	-143.973	-17.896	-129.013	189.794	-93.278	15.532	192.824	-0.691	119.782	0.00061425	0.00012196	0.00014457	1403.1	2.5266e-06	2.0599e-06	1461.1	277.95	3.9128e-06	2.3294e-06	341.66	97.328	77.665	22.603	1.8785e-06	31.243	4.8912e-05	4.9524e-05	1.2577e-05	1311	4.9706e-07	5.4561e-07	1356.4	254.19	5.1615e-07	5.4841e-07	309.43	88.756	70.973	20.835	4.9751e-07	28.482	-0.420	-62.154	-89.617	-149.985	-67.007	-24.664	-150.076	-143.123	-55.907	-21.867	-143.098	-137.047	-136.334	-129.305	-33.176	-129.938	-8191	255	
7989.382	1	1	0	0	0.11178	0.086926	0.23459	0.38056	0.071351	0.11426	0.16724	0.11749	0.30938	0.16139	0.080397	0.15639	0.16425	0.11311	0.098119	0.17578	-2.5521	-3.1229	-3.3979	-3.1667	-3.2104	-3.2583	-3.0708	-3.275	-2.7708	-3.1875	-3.3333	-2.9042	-3.4125	-3.2104	-2.9792	-3.5167	150.164	-128.240	153.514	142.662	-44.548	62.454	179.755	128.131	-138.954	-20.301	19.099	17.537	163.043	-122.121	-119.824	-69.145	0.00055607	0.00027895	8.8857e-05	1401.3	4.0037e-06	1.1455e-06	1451	276.05	5.4833e-06	2.464e-06	343.05	97.416	77.509	22.511	2.7105e-06	31.231	5.2529e-05	4.9505e-05	1.2363e-05	1311	5.3129e-07	5.4314e-07	1355.2	253.59	5.3807e-07	5.185e-07	309.57	88.839	70.925	20.811	4.8769e-07	28.53	-0.751	-81.222	-96.472	-149.736	-79.237	11.417	-150.055	-142.942	-85.592	-33.411	-143.100	-136.896	-136.527	-129.390	-22.436	-129.805	-8191	255	
7989.478	1	1	0	0	0.29343	0.31318	0.21734	0.14987	0.033106	0.083516	0.1253	0.11062	0.15995	0.041776	0.20185	0.038126	0.091915	0.25105	0.12262	0.14584	-2.5729	-3.0521	-3.2083	-3.2	-3.0563	-3.1729	-3.1417	-3.4229	-3.1937	-3.1583	-3.4521	-3.0896	-3.3792	-3.2438	-2.8542	-3.2062	153.568	-95.486	-65.626	162.816	-59.997	-66.768	14.831	91.109	31.109	-130.100	160.498	-117.415	129.328	-135.494	-4.641	109.404	0.00048667	0.00019983	0.00011796	1402.4	1.9629e-06	2.1156e-06	1459.3	278.41	8.9365e-07	8.2849e-07	342.78	97.815	77.765	22.616	1.4013e-06	31.475	5.3216e-05	4.7112e-05	1.1593e-05	1310.1	5.4989e-07	4.9438e-07	1355.6	254.25	5.4803e-07	5.0965e-07	309.46	88.942	70.985	20.845	4.8199e-07	28.622	10.994	-72.050	-44.372	-150.122	-45.535	-15.019	-149.756	-142.799	-2.048	-98.668	-143.071	-136.938	-136.405	-129.402	-20.927	-129.724	-8191	255	
7989.574	1	1	0	0	0.07501	0.11622	0.25245	0.28094	0.17076	0.18934	0.2875	0.069403	0.23358	0.054271	0.089623	0.091483	0.18993	0.22571	0.090355	0.18581	-2.6208	-3.0646	-3.3604	-3.2167	-3.0354	-3.3271	-3.0875	-3.4396	-2.8625	-2.9958	-3.4938	-3.0812	-3.2333	-3.1792	-3.1604	-3.2417	186.806	-144.103	-2.112	97.480	-125.632	-11.358	144.964	62.320	-99.393	193.162	84.443	35.302	112.575	-119.078	-89.741	-100.147	0.00062789	0.00035226	7.6816e-05	1401.5	1.6837e-06	2.9074e-06	1457.2	276.32	4.0797e-06	1.9291e-06	339.65	97.535	77.483	22.498	7.2615e-07	31.261	5.4834e-05	4.5673e-05	1.1663e-05	1311	5.6164e-07	4.8282e-07	1355	253.88	5.4908e-07	4.9655e-07	308.42	89.017	71.042	20.786	4.7798e-07	28.544	2.529	-29.711	-106.654	-150.024	-27.227	8.892	-149.855	-142.732	-84.951	-7.379	-143.124	-137.011	-136.419	-129.234	-38.652	-130.078	-8191	255	
7989.670	1	1	0	0	0.12336	0.081168	0.043446	0.18201	0.19415	0.21638	0.10885	0.080819	0.075321	0.29719	0.074935	0.27658	0.12444	0.090159	0.25465	0.11798	-2.7792	-2.7812	-3.2083	-3.1646	-3.225	-3.3563	-3.2313	-3.4208	-3.1604	-3	-3.5542	-3.2146	-3.0833	-3.3812	-2.8354	-3.4813	-25.985	-58.901	55.565	193.427	115.777	16.506	79.561	140.223	-32.131	112.507	133.820	-43.895	54.381	69.732	169.418	-99.152	0.00054395	0.00026072	7.5305e-05	1403.1	1.7465e-06	3.351e-06	1457.7	276.93	2.9476e-06	7.489e-07	340.41	97.936	77.53	22.68	1.0859e-06	31.141	5.2586e-05	4.4616e-05	1.1506e-05	1313.6	5.3003e-07	4.7302e-07	1355	254.21	5.176e-07	4.8367e-07	308.57	89.031	70.984	20.81	4.8618e-07	28.574	-8.376	-75.243	-100.709	-149.864	-113.392	-44.369	-149.971	-142.717	-1.967	-48.291	-143.093	-136.907	-136.447	-129.439	-53.533	-129.676	-8191	255	
7989.766	1	1	0	0	0.055705	0.21153	0.18099	0.2663	0.15259	0.16652	0.25321	0.25596	0.11562	0.1074	0.14065	0.18734	0.16618	0.075173	0.12171	0.27	-2.8417	-2.8583	-3.35	-3.4062	-3.2792	-3.5104	-3.1437	-3.2979	-3.1625	-2.9604	-3.5021	-3.1771	-3.0812	-3.3271	-2.8604	-3.2938	-150.363	89.838	-145.941	160.786	-62.567	-153.177	119.547	171.643	83.005	177.001	-110.397	194.634	128.433	81.047	-35.212	183.415	0.00051671	0.00019875	0.00010832	1403.4	3.863e-06	1.4346e-06	1454.7	276.65	2.3143e-06	1.4267e-06	341.63	97.293	77.484	22.692	9.9731e-07	31.318	5.1133e-05	4.4004e-05	1.2157e-05	1311	5.2879e-07	4.4953e-07	1353.6	254	4.9793e-07	4.741e-07	308.95	88.855	70.964	20.82	5.0466e-07	28.643	-1.465	-99.952	-113.891	-149.920	-46.480	0.171	-150.021	-143.014	-60.798	-16.544	-143.001	-136.830	-136.365	-129.668	17.384	-130.155	-8191	255	
7989.861	1	1	0	0	0.23283	0.10835	0.071795	0.085281	0.12234	0.087004	0.021155	0.19938	0.13787	0.060149	0.22272	0.053537	0.075977	0.15003	0.3792	0.2517	-2.6063	-2.8563	-3.2417	-3.3521	-3.0667	-3.3271	-3.0396	-3.1854	-3.1458	-2.9813	-3.1917	-3.2208	-3.0646	-3.3375	-3.05	-3.2208	76.747	-32.993	48.090	197.924	65.079	-8.350	152.816	69.271	60.490	16.681	174.767	-100.224	-122.460	199.067	-99.563	57.367	0.00051551	0.00021257	0.00015635	1395.5	2.335e-06	1.9892e-06	1452.9	276.53	3.0159e-06	1.3881e-06	341.5	97.607	77.627	22.494	8.694e-07	31.19	4.882e-05	4.241e-05	1.2789e-05	1308.7	5.0901e-07	4.4336e-07	1353.3	253.84	4.913e-07	4.6592e-07	309.11	88.994	70.832	20.741	5.4189e-07	28.588	6.493	-108.255	-94.531	-149.714	-50.000	-14.239	-149.903	-142.785	-65.571	-5.762	-143.350	-136.771	-136.413	-129.310	-101.402	-129.930	-8191	255	
7989.981	1	1	0	0	0.10075	0.3087	0.11947	0.18967	0.12154	0.15113	0.096349	0.071543	0.26268	0.23176	0.11957	0.17872	0.17503	0.21782	0.28463	0.2008	-2.8479	-2.9146	-3.2021	-3.3042	-2.8771	-3.3146	-3.1583	-3.2146	-3.2292	-2.8812	-3.2979	-3.2812	-2.8375	-3.3625	-2.9667	-2.9	86.249	182.517	190.052	93.986	144.290	-73.356	136.949	42.452	-88.996	147.199	92.266	91.675	-106.708	-102.809	-43.380	105.144	0.00051532	0.00016467	4.3614e-05	1396.1	5.0198e-06	2.0061e-06	1452.3	275.86	2.6664e-06	1.5719e-06	342.1	97.719	77.12	22.481	2.1932e-06	31.118	4.864e-05	4.2972e-05	1.3599e-05	1308.9	4.9885e-07	4.5946e-07	1352.7	253.89	4.7447e-07	4.8354e-07	309.42	88.972	70.756	20.768	5.5221e-07	28.535	7.865	-84.167	-20.296	-149.879	-76.842	3.980	-150.078	-142.743	-72.061	47.447	-142.745	-136.674	-136.087	-129.054	-40.971	-129.956	-8191	255	
7990.078	1	1	0	0	0.15637	0.068038	0.15668	0.28165	0.097043	0.28312	0.2254	0.19992	0.25642	0.098955	0.088313	0.20839	0.073591	0.15045	0.10176	0.37231	-2.975	-2.9437	-3.05	-3.4979	-2.9458	-3.2792	-3.2271	-3.0687	-3.3229	-3.0521	-3.35	-3.3396	-2.9875	-3.3583	-3.1458	-2.9833	-57.339	-60.342	-108.529	167.592	-11.319	64.575	157.188	190.683	46.108	181.218	194.701	-132.762	193.755	-137.221	120.794	-5.790	0.00053792	0.00014118	3.3601e-05	1400.5	2.0569e-06	1.0775e-06	1455.2	275.79	2.1621e-06	9.5754e-07	341.39	97.83	77.328	22.469	3.3593e-06	31.406	4.7279e-05	4.5524e-05	1.4138e-05	1309	4.9881e-07	4.8589e-07	1354.3	253.41	4.6238e-07	4.9655e-07	309.12	88.856	70.768	20.761	5.431e-07	28.578	5.646	-136.384	-34.131	-150.075	5.681	-68.067	-149.939	-142.965	-30.698	20.862	-143.203	-136.822	-136.276	-129.546	-33.341	-129.675	-8191	255	
7990.174	1	1	0	0	0.072175	0.23736	0.28982	0.2921	0.20832	0.050185	0.19583	0.11414	0.10198	0.14715	0.28654	0.18843	0.12639	0.034422	0.043956	0.22658	-2.7604	-2.9062	-2.9396	-3.5438	-2.9479	-3.4396	-3.35	-3.1542	-3.2313	-3.1021	-3.2771	-3.3354	-2.9271	-3.3292	-3.1292	-2.8708	36.516	65.917	-96.873	174.132	-117.625	-35.471	19.076	21.590	2.286	20.375	102.165	1.794	99.125	-60.154	115.065	143.789	0.00059392	0.0002208	3.2197e-05	1398	2.8143e-06	2.0238e-06	1457	276.11	3.3118e-06	1.4482e-06	339.87	97.993	77.221	22.509	2.1382e-06	31.242	4.6056e-05	4.8192e-05	1.3753e-05	1309.1	4.9017e-07	5.2364e-07	1352.5	253.7	4.7358e-07	5.4316e-07	309.27	88.98	70.826	20.811	5.1903e-07	28.543	4.538	-133.750	-130.550	-149.992	-45.436	-87.778	-150.140	-142.948	-114.168	-55.992	-142.928	-136.848	-136.350	-129.659	44.010	-129.607	-8191	255	
7990.270	1	1	0	0	0.13976	0.14508	0.062372	0.11867	0.058329	0.20764	0.2344	0.094587	0.11191	0.059879	0.47528	0.070325	0.21874	0.027912	0.28369	0.20034	-2.9292	-2.8937	-2.9625	-3.5271	-3.0563	-3.2458	-3.3708	-2.8812	-3.2792	-3.0854	-2.8146	-3.35	-3.0604	-3.2583	-3.3312	-3.0458	8.654	-3.905	-95.692	-116.636	87.821	-136.074	98.787	-140.992	21.090	-103.119	170.866	78.553	134.862	-72.999	-34.226	155.852	0.00056802	0.00020453	7.1834e-05	1400.9	3.3769e-06	2.49e-06	1455.2	276.28	1.761e-06	2.9858e-06	341.26	97.972	77.337	22.573	8.1416e-07	31.126	4.7477e-05	4.9859e-05	1.3289e-05	1308.9	5.0534e-07	5.4304e-07	1352.5	253.52	4.8134e-07	5.4173e-07	309.02	88.846	70.889	20.858	4.9275e-07	28.458	-1.748	-36.082	-72.618	-149.844	-78.050	-10.685	-150.075	-142.906	-96.394	-45.366	-142.835	-136.844	-136.330	-129.143	-45.198	-130.045	-8191	255	
7990.390	1	1	0	0	0.18573	0.15145	0.27431	0.3924	0.10691	0.17845	0.15235	0.19617	0.085839	0.08066	0.13937	0.1514	0.22279	0.16153	0.073266	0.11745	-3.0187	-3.0625	-2.8896	-3.5938	-3.0062	-3.2396	-3.3042	-2.9833	-3.4125	-3.1979	-3.075	-3.3604	-3.2042	-3.1583	-3.3312	-2.9208	-78.090	77.860	7.441	140.177	47.992	38.755	150.798	49.782	-8.000	-79.107	93.166	-138.038	75.971	195.046	-44.906	-37.667	0.00052623	9.5507e-05	0.00010628	1396.1	1.6456e-06	2.0165e-06	1452.6	277.25	3.7879e-06	1.8777e-06	339.56	98.04	77.434	22.649	2.9496e-06	31.269	4.9592e-05	4.9969e-05	1.2693e-05	1308.3	5.2551e-07	5.4299e-07	1350.4	253.78	5.1728e-07	5.3031e-07	308.43	88.733	70.898	20.845	4.7852e-07	28.48	10.279	-103.726	-114.868	-149.848	6.186	-41.982	-150.023	-142.748	-74.282	-19.975	-143.346	-136.682	-136.144	-129.429	-57.245	-129.510	-8191	255	
7990.462	1	1	0	0	0.2871	0.1284	0.10364	0.15027	0.253	0.25235	0.43564	0.30931	0.05587	0.051232	0.17189	0.12562	0.073436	0.29347	0.16727	0.15393	-2.9792	-3.0792	-2.9437	-3.6271	-3.0667	-3.0708	-3.5062	-2.9708	-3.2604	-3.1542	-2.8438	-3.4646	-3.1708	-3.15	-3.4271	-3.025	-25.873	7.734	35.283	35.972	-123.040	22.724	110.917	160.290	-144.738	101.729	60.993	-107.780	109.076	-114.778	155.594	41.838	0.00053807	0.00024273	5.8053e-05	1392.9	4.142e-06	2.393e-06	1454	275.72	3.3512e-06	1.9655e-06	341.76	98.112	77.034	22.469	1.2326e-06	31.29	5.3033e-05	4.7706e-05	1.2479e-05	1307.3	5.4439e-07	5.339e-07	1351.3	253.27	5.486e-07	5.076e-07	309.16	88.926	70.821	20.74	4.7159e-07	28.48	1.832	-91.103	-111.049	-149.853	-75.983	35.416	-150.024	-143.041	-101.147	2.088	-143.139	-136.755	-136.295	-129.619	-61.249	-129.866	-8191	255	
7990.558	1	1	0	0	0.17899	0.10055	0.23911	0.21559	0.10312	0.090807	0.26826	0.3813	0.31057	0.06847	0.091414	0.037135	0.063502	0.21768	0.19204	0.072192	-2.7062	-3.2083	-2.875	-3.475	-3.0938	-3.1375	-3.5854	-3.0875	-3.325	-3.2583	-3.1271	-3.4146	-3.1542	-2.9938	-3.2917	-3.15	152.144	0.701	-148.280	-141.494	-150.607	-134.123	116.580	70.456	119.899	-68.485	-120.187	110.745	-44.492	147.056	-81.208	108.770	0.00059307	6.7099e-05	3.8212e-05	1403.2	3.726e-06	2.0494e-06	1448.7	275.87	3.1076e-06	2.6122e-06	338.36	97.815	77.289	22.579	6.5588e-07	31.199	5.5398e-05	4.6658e-05	1.2506e-05	1310.3	5.5467e-07	5.2174e-07	1350	252.97	5.519e-07	4.9263e-07	307.5	88.896	70.784	20.767	4.5726e-07	28.52	9.493	189.192	166.035	-149.974	-10.469	-6.317	-149.988	-142.939	-35.383	14.644	-142.962	-136.802	-136.430	-129.405	77.913	-129.805	-8191	255	
7990.654	1	1	0	0	0.29577	0.22284	0.15	0.062995	0.093148	0.21504	0.19044	0.18751	0.13429	0.14489	0.21298	0.27329	0.10849	0.21805	0.13166	0.31612	-2.8	-3.3375	-2.9417	-3.525	-3.2229	-3.0563	-3.4292	-3.0604	-3.0167	-3.4688	-2.8854	-3.3229	-3.2208	-2.8646	-3.45	-3.0062	62.147	-119.785	20.595	132.258	-150.040	142.017	146.368	118.802	-149.424	92.800	-119.443	151.761	146.919	-29.564	-123.538	117.742	0.00051924	0.00023153	9.3318e-05	1396.8	3.5502e-06	9.2717e-07	1449.2	276.36	4.0794e-06	2.5644e-06	339.59	97.736	77.822	22.461	1.1111e-06	31.05	5.3975e-05	4.3978e-05	1.1892e-05	1307.9	5.5537e-07	5.0039e-07	1349.6	253.41	5.4848e-07	4.7689e-07	307.51	88.999	70.875	20.765	4.691e-07	28.492	3.492	-70.864	-89.048	-149.934	-51.648	-13.554	-149.777	-143.000	-64.570	-20.225	-143.207	-136.697	-136.387	-129.577	-119.812	-129.511	-8191	255	
7990.773	1	1	0	0	0.04624	0.14075	0.12067	0.3999	0.14709	0.12044	0.3424	0.099025	0.12187	0.16984	0.22932	0.10794	0.32625	0.36357	0.14835	0.13649	-2.6146	-3.25	-2.9792	-3.3083	-3.1667	-2.8937	-3.6063	-3.3417	-3.1521	-3.2229	-2.9875	-3.1604	-3.3229	-2.8688	-3.2917	-3.1063	198.847	-134.399	-15.629	174.409	40.550	100.649	128.472	-68.011	12.087	191.988	182.689	-123.793	132.345	-133.410	94.907	-98.330	0.00054478	0.00032553	2.0289e-05	1402.2	2.1467e-06	1.5416e-06	1450.5	275.29	2.3551e-06	2.4634e-06	340.13	97.655	77.133	22.509	2.5506e-06	31.137	5.1998e-05	4.3002e-05	1.2113e-05	1309.7	5.2111e-07	4.9139e-07	1352.1	253.32	5.176e-07	4.6014e-07	307.75	88.977	70.702	20.714	4.8735e-07	28.521	10.676	-44.800	-89.051	-149.753	-70.315	60.019	-149.868	-142.684	-29.820	-53.972	-143.156	-136.582	-136.444	-129.286	-63.500	-129.598	-8191	255	
7990.869	1	1	0	0	0.1334	0.13792	0.13292	0.14118	0.02802	0.046034	0.23062	0.02321	0.086136	0.12968	0.13194	0.13797	0.18396	0.26548	0.059416	0.33242	-2.6646	-3.4604	-2.8896	-3.225	-3.1583	-2.9021	-3.3917	-3.1354	-3.0875	-3.3292	-3.0833	-3.1562	-3.4021	-2.9479	-3.3312	-3.1521	-98.621	66.693	25.070	140.391	135.546	179.523	138.619	-98.307	-88.413	89.788	133.675	81.161	112.043	111.357	-66.204	91.927	0.00061623	0.00017781	0.00012234	1402.9	2.7658e-06	2.3124e-06	1455.4	275.7	2.7309e-06	1.3656e-06	339.93	97.855	77.201	22.459	1.5979e-06	31.15	5.1354e-05	4.179e-05	1.2936e-05	1310.7	5.0131e-07	4.6617e-07	1352	253.36	5.0675e-07	4.4882e-07	308.63	88.951	70.681	20.713	5.1748e-07	28.503	-5.733	-31.203	-122.933	-149.794	-76.227	12.947	-150.021	-143.108	-95.623	20.397	-143.111	-136.840	-136.356	-129.048	-51.121	-130.024	-8191	255	
7990.966	1	1	0	0	0.24088	0.20273	0.10722	0.28653	0.088612	0.21338	0.19898	0.13353	0.23395	0.23016	0.1994	0.30535	0.12747	0.34674	0.080107	0.033707	-2.6458	-3.3333	-3.1208	-3.1854	-3.2229	-2.9646	-3.5021	-3.1063	-2.9958	-3.3146	-2.9958	-3.075	-3.4375	-2.9021	-3.3771	-3.2208	-131.151	33.107	-137.531	177.104	32.187	132.805	117.342	79.084	140.191	-71.455	-8.405	194.846	176.220	195.233	22.834	183.635	0.00045826	6.97e-05	5.7076e-05	1397.6	3.1898e-06	5.3271e-07	1454.7	275.72	2.223e-06	2.5156e-06	340.39	98.147	77.428	22.441	2.0437e-06	31.152	4.9691e-05	4.1386e-05	1.3563e-05	1307.7	4.8697e-07	4.6978e-07	1352.3	253.76	4.9496e-07	4.62e-07	308.54	88.973	70.688	20.697	5.425e-07	28.441	4.466	-100.252	-90.326	-149.989	17.543	52.681	-150.115	-142.818	-46.605	-52.910	-143.288	-136.909	-136.401	-129.264	-43.810	-129.692	-8191	255	
7991.062	1	1	0	0	0.17673	0.078452	0.14052	0.35547	0.090423	0.10506	0.12456	0.058283	0.39116	0.12126	0.246	0.18174	0.36087	0.17504	0.13116	0.18947	-2.4375	-3.3833	-3.1896	-3.2083	-3.3208	-2.9667	-3.2875	-3.3458	-2.9313	-3.3688	-3.175	-3.0083	-3.5625	-3.0104	-3.1562	-3.1792	35.291	109.630	75.112	187.509	-17.637	46.685	56.243	-139.073	77.329	-142.989	81.092	-61.600	112.554	67.528	21.937	163.066	0.000594	0.00028594	4.1764e-05	1396.2	3.9889e-07	9.7972e-07	1452.7	275.59	1.238e-06	1.2216e-06	341.47	97.343	77.311	22.452	1.5707e-06	31.305	4.8327e-05	4.2152e-05	1.3566e-05	1309	4.757e-07	4.8341e-07	1350.9	253.16	4.8123e-07	4.7773e-07	308.92	88.705	70.678	20.754	5.423e-07	28.436	2.386	-105.756	-93.792	-149.957	-44.052	68.556	-150.268	-142.919	-74.785	-19.697	-143.274	-136.755	-136.408	-129.204	-98.978	-129.966	-8191	255	
7991.158	1	1	0	0	0.23389	0.031355	0.11149	0.14844	0.094734	0.20968	0.093022	0.19522	0.1651	0.13501	0.043626	0.19961	0.18352	0.11547	0.17549	0.14758	-2.4625	-3.2708	-3.2292	-3.2625	-3.3792	-3.0229	-3.3333	-3.2292	-3.0083	-3.3229	-3.2938	-2.9396	-3.3417	-2.9521	-3.0083	-3.2771	163.519	-14.167	108.569	78.045	-17.264	98.680	147.433	-143.623	4.580	-157.224	132.636	-137.751	158.876	173.833	-30.110	-16.604	0.00052381	0.00012113	9.2921e-05	1399.6	3.8498e-06	1.4145e-06	1450.5	276.45	1.9094e-06	5.4081e-07	341.14	97.477	77.883	22.486	2.1318e-06	31.279	4.794e-05	4.473e-05	1.3553e-05	1308.2	4.6353e-07	5.0161e-07	1351	253.16	4.7183e-07	5.0489e-07	308.36	88.951	70.66	20.796	5.3099e-07	28.526	6.928	185.920	-109.089	-149.899	-49.623	-83.179	-149.983	-142.953	-74.963	43.942	-143.205	-136.627	-136.322	-129.225	-57.517	-130.185	-8191	255	
#DATA ENDS
