BOXY.EXE: ISS Imagent and Oximeter Data Acquisition Program Version 0.80
Ascii Record File

#ACQ INFORMATION
2  Detector Channels 
16  External MUX Channels 
1  Auxiliary Channels 
5000  Waveform (CCF) Frequency (Hz)
1  Waveforms Skipped 
30  Waveforms Averaged 
1  Cycles Averaged 
16  Acquisitions per Waveform 
10.0806  Updata Rate (Hz) 

#FILE INFORMATION
TRUE -- External MUX Channel results are PARSED.
FALSE -- AC DC and Phase are NOT grouped.
TRUE -- Companion Program Settings File CREATED.
FALSE -- AC data not excluded
FALSE -- DC data not excluded
FALSE -- Phase data not excluded
FALSE -- Auxillary Chn. data not excluded
Tab delimiters

#CALIBRATION STATE
TRUE -- Waveform Calibration Values APPLIED.


#AUX CALIBRATION VALUES
Val Type	aux-1	

Term	1.0000e+00	
Factor	0.0000e+00	


#WF CALIBRATION VALUES
A = Detector Channel
Val Type	A-AC1	A-AC2	A-AC3	A-AC4	A-AC5	A-AC6	A-AC7	A-AC8	A-AC9	A-AC10	A-AC11	A-AC12	A-AC13	A-AC14	A-AC15	A-AC16	A-DC1	A-DC2	A-DC3	A-DC4	A-DC5	A-DC6	A-DC7	A-DC8	A-DC9	A-DC10	A-DC11	A-DC12	A-DC13	A-DC14	A-DC15	A-DC16	A-Ph1	A-Ph2	A-Ph3	A-Ph4	A-Ph5	A-Ph6	A-Ph7	A-Ph8	A-Ph9	A-Ph10	A-Ph11	A-Ph12	A-Ph13	A-Ph14	A-Ph15	A-Ph16	

Term	0.00000e+00	0.00000e+00	0.00000e+00	0.00000e+00	0.00000e+00	0.00000e+00	0.00000e+00	0.00000e+00	0.00000e+00	0.00000e+00	0.00000e+00	0.00000e+00	0.00000e+00	0.00000e+00	0.00000e+00	0.00000e+00	0.00000e+00	0.00000e+00	0.00000e+00	0.00000e+00	0.00000e+00	0.00000e+00	0.00000e+00	0.00000e+00	0.00000e+00	0.00000e+00	0.00000e+00	0.00000e+00	0.00000e+00	0.00000e+00	0.00000e+00	0.00000e+00	0.00000e+00	0.00000e+00	0.00000e+00	0.00000e+00	0.00000e+00	0.00000e+00	0.00000e+00	0.00000e+00	0.00000e+00	0.00000e+00	0.00000e+00	0.00000e+00	0.00000e+00	0.00000e+00	0.00000e+00	0.00000e+00	
Factor	1.00000e+00	1.00000e+00	1.00000e+00	1.00000e+00	1.00000e+00	1.00000e+00	1.00000e+00	1.00000e+00	1.00000e+00	1.00000e+00	1.00000e+00	1.00000e+00	1.00000e+00	1.00000e+00	1.00000e+00	1.00000e+00	1.00000e+00	1.00000e+00	1.00000e+00	1.00000e+00	1.00000e+00	1.00000e+00	1.00000e+00	1.00000e+00	1.00000e+00	1.00000e+00	1.00000e+00	1.00000e+00	1.00000e+00	1.00000e+00	1.00000e+00	1.00000e+00	X	X	X	X	X	X	X	X	X	X	X	X	X	X	X	X	

B = Detector Channel
Val Type	B-AC1	B-AC2	B-AC3	B-AC4	B-AC5	B-AC6	B-AC7	B-AC8	B-AC9	B-AC10	B-AC11	B-AC12	B-AC13	B-AC14	B-AC15	B-AC16	B-DC1	B-DC2	B-DC3	B-DC4	B-DC5	B-DC6	B-DC7	B-DC8	B-DC9	B-DC10	B-DC11	B-DC12	B-DC13	B-DC14	B-DC15	B-DC16	B-Ph1	B-Ph2	B-Ph3	B-Ph4	B-Ph5	B-Ph6	B-Ph7	B-Ph8	B-Ph9	B-Ph10	B-Ph11	B-Ph12	B-Ph13	B-Ph14	B-Ph15	B-Ph16	

Term	0.00000e+00	0.00000e+00	0.00000e+00	0.00000e+00	0.00000e+00	0.00000e+00	0.00000e+00	0.00000e+00	0.00000e+00	0.00000e+00	0.00000e+00	0.00000e+00	0.00000e+00	0.00000e+00	0.00000e+00	0.00000e+00	0.00000e+00	0.00000e+00	0.00000e+00	0.00000e+00	0.00000e+00	0.00000e+00	0.00000e+00	0.00000e+00	0.00000e+00	0.00000e+00	0.00000e+00	0.00000e+00	0.00000e+00	0.00000e+00	0.00000e+00	0.00000e+00	-2.15620e+02	-1.31657e+02	-1.25146e+02	-1.81704e+02	-8.15054e+01	-6.68657e+01	-1.57588e+02	-1.62015e+02	-8.60096e+01	-6.69782e+01	-1.71217e+02	-1.72824e+02	-1.83390e+02	-1.77011e+02	-7.37979e+01	-1.49785e+02	
Factor	4.58921e-05	1.65953e-04	4.60063e-05	1.49255e-01	1.93368e-06	1.78685e-06	1.64339e-01	5.03331e-02	2.24651e-06	1.77573e-06	8.09569e-02	3.27481e-02	3.51869e-02	8.81024e-03	1.97165e-06	1.24698e-02	2.73434e-05	7.93411e-05	2.24816e-05	7.78062e-02	6.25384e-07	9.38907e-07	8.07401e-02	2.62746e-02	6.23511e-07	9.41288e-07	4.12738e-02	1.66736e-02	1.85840e-02	4.65689e-03	7.32170e-07	6.40504e-03	X	X	X	X	X	X	X	X	X	X	X	X	X	X	X	X	



#DISTANCE SETTINGS
A = Detector Channel
A-1	A-2	A-3	A-4	A-5	A-6	A-7	A-8	A-9	A-10	A-11	A-12	A-13	A-14	A-15	A-16	

2.5000e+00	3.0000e+00	2.5000e+00	3.0000e+00	2.0000e+00	3.0000e+00	1.5000e+00	3.0000e+00	3.0000e+00	3.0000e+00	3.0000e+00	3.0000e+00	3.0000e+00	3.0000e+00	1.5000e+00	3.0000e+00	

B = Detector Channel
B-1	B-2	B-3	B-4	B-5	B-6	B-7	B-8	B-9	B-10	B-11	B-12	B-13	B-14	B-15	B-16	

1.0000e+01	1.0000e+01	1.0000e+01	1.4400e+00	1.0000e+01	1.0000e+01	1.5100e+00	1.9400e+00	1.0000e+01	1.0000e+01	1.9900e+00	2.4900e+00	2.4100e+00	2.9000e+00	1.0000e+01	2.9800e+00	




#DATA BEGINS
time	group	step	mark	flag	A-AC1	A-AC2	A-AC3	A-AC4	A-AC5	A-AC6	A-AC7	A-AC8	A-AC9	A-AC10	A-AC11	A-AC12	A-AC13	A-AC14	A-AC15	A-AC16	A-DC1	A-DC2	A-DC3	A-DC4	A-DC5	A-DC6	A-DC7	A-DC8	A-DC9	A-DC10	A-DC11	A-DC12	A-DC13	A-DC14	A-DC15	A-DC16	A-Ph1	A-Ph2	A-Ph3	A-Ph4	A-Ph5	A-Ph6	A-Ph7	A-Ph8	A-Ph9	A-Ph10	A-Ph11	A-Ph12	A-Ph13	A-Ph14	A-Ph15	A-Ph16	B-AC1	B-AC2	B-AC3	B-AC4	B-AC5	B-AC6	B-AC7	B-AC8	B-AC9	B-AC10	B-AC11	B-AC12	B-AC13	B-AC14	B-AC15	B-AC16	B-DC1	B-DC2	B-DC3	B-DC4	B-DC5	B-DC6	B-DC7	B-DC8	B-DC9	B-DC10	B-DC11	B-DC12	B-DC13	B-DC14	B-DC15	B-DC16	B-Ph1	B-Ph2	B-Ph3	B-Ph4	B-Ph5	B-Ph6	B-Ph7	B-Ph8	B-Ph9	B-Ph10	B-Ph11	B-Ph12	B-Ph13	B-Ph14	B-Ph15	B-Ph16	aux-1	digaux	

18544.617	1	1	0	256	0.10213	0.049513	0.29939	0.32759	0.27102	0.1956	0.11482	0.16657	0.085426	0.25087	0.13945	0.24396	0.087144	0.2499	0.11697	0.20286	-4.225	-4.0833	-4.5729	-4.4792	-4.2708	-4.9729	-4.4437	-4.5854	-4.6646	-4.1354	-4.5896	-4.7021	-4.3187	-4.8063	-4.3604	-4.3896	126.949	57.356	247.131	211.600	-21.986	42.087	71.061	141.002	-57.604	-11.983	253.370	-73.016	200.816	242.859	-26.648	213.187	0.00018019	0.00034588	7.7915e-05	1097.8	2.6637e-06	3.6261e-06	1171.6	226.32	4.6323e-07	3.3201e-06	282.34	79.752	62.695	18.095	3.5439e-06	25.811	0.00022678	0.00028993	4.0373e-05	1083.6	3.1999e-06	1.868e-06	1160.4	224.25	2.4434e-06	2.7199e-06	281.69	80.095	63.036	18.222	2.5397e-06	26.203	94.185	-3.910	2.176	-76.457	30.626	68.410	-76.874	-69.645	-50.044	58.310	-69.515	-63.456	-62.860	-55.950	66.587	-57.022	-8191	255	
18544.713	1	1	0	0	0.20311	0.12517	0.25433	0.095885	0.14088	0.11357	0.20849	0.19541	0.05902	0.22861	0.17122	0.075221	0.10546	0.53771	0.1558	0.20989	-4.4938	-4.2292	-4.5437	-4.8167	-4.1083	-4.7771	-4.5021	-4.4437	-4.9	-4.1229	-4.5292	-4.625	-4.2375	-4.7417	-4.3854	-4.4625	173.941	-85.750	268.340	263.456	146.504	-42.362	166.845	-78.786	-54.382	158.625	244.180	252.935	203.307	-67.579	188.784	223.458	0.00023249	0.00030389	6.9737e-05	1098.4	1.7188e-06	2.4745e-06	1171.7	225.63	4.2541e-06	2.8041e-06	283.92	79.737	62.934	18.055	2.5284e-06	25.717	0.00023988	0.00025984	6.3183e-05	1082.7	3.5517e-06	1.7292e-06	1160.4	224.38	3.0045e-06	2.8572e-06	281.6	80.079	62.946	18.263	2.3933e-06	26.165	93.703	7.174	-10.062	-76.704	34.351	49.603	-76.791	-69.647	23.787	65.766	-69.848	-63.497	-62.837	-55.795	76.373	-56.388	-8191	255	
18544.809	1	1	0	0	0.28806	0.16255	0.09422	0.29647	0.26681	0.056807	0.039523	0.21911	0.26677	0.13325	0.20036	0.20626	0.099939	0.1618	0.16412	0.15507	-4.4042	-4.2	-4.4292	-4.8042	-4.1354	-4.825	-4.5333	-4.1917	-4.8125	-4.2146	-4.3875	-4.7812	-4.0958	-4.7562	-4.5687	-4.2292	143.963	75.893	5.941	215.964	230.738	153.253	-12.286	264.215	140.176	91.101	248.958	79.872	105.670	114.129	68.375	195.302	0.00017808	0.00039543	0.00010296	1094.4	2.732e-06	2.6165e-06	1173.8	224.04	2.5668e-06	2.7541e-06	280.39	79.456	62.825	18.014	3.0455e-06	25.952	0.00023196	0.00020182	5.1942e-05	1081.3	3.2403e-06	1.5785e-06	1158.5	223.47	2.7071e-06	2.2964e-06	280.53	80.139	62.947	18.172	2.1553e-06	26.206	95.462	-6.829	-4.601	-76.730	32.940	64.145	-76.873	-69.490	25.131	42.288	-69.800	-63.530	-62.879	-55.550	49.185	-56.711	-8191	255	
18544.930	1	1	0	0	0.10926	0.17511	0.12978	0.077484	0.21859	0.15655	0.11141	0.080532	0.16465	0.13205	0.32596	0.1423	0.019585	0.30958	0.20962	0.088457	-4.4042	-4.3375	-4.4938	-4.9729	-4.2646	-4.6042	-4.6	-4.2875	-4.6604	-4.3896	-4.4271	-4.7	-4.2208	-4.5417	-4.5667	-4.3021	-52.052	18.061	0.924	196.387	45.389	206.607	206.845	207.995	219.426	93.943	-57.745	231.858	-18.347	203.445	162.208	63.888	0.00019876	0.00026955	6.6165e-05	1101.3	1.9298e-06	2.4711e-06	1165.7	225.12	1.6649e-06	3.7542e-06	282.59	79.101	62.49	17.911	3.4077e-06	25.881	0.00024939	0.00018893	6.2667e-05	1082.3	3.2715e-06	1.6353e-06	1156.6	223.71	2.4811e-06	2.4375e-06	280.97	79.766	62.849	18.197	1.9235e-06	26.23	91.189	16.486	10.940	-76.707	-2.572	40.833	-76.763	-69.608	27.942	71.417	-69.627	-63.383	-63.140	-55.486	49.784	-56.247	-8191	255	
18545.002	1	1	0	0	0.13981	0.065673	0.19518	0.11917	0.20106	0.21181	0.032333	0.22797	0.10211	0.17143	0.20359	0.19096	0.16129	0.1764	0.11265	0.26705	-4.5062	-4.3479	-4.3479	-5.0354	-4.3021	-4.4354	-4.7979	-4.0833	-4.6333	-4.3396	-4.3646	-4.8125	-4.3625	-4.4292	-4.6229	-4.2583	-52.149	-33.094	46.077	234.676	-83.719	-64.854	247.411	182.091	135.200	-74.584	227.024	115.476	-59.513	-59.596	100.079	176.564	0.00017024	0.00036314	5.3339e-05	1091	2.4642e-06	4.1808e-06	1166.9	224.98	2.7108e-06	2.6159e-06	280.93	79.252	62.507	18.021	2.4057e-06	25.739	0.0002421	0.00020513	5.3394e-05	1078.5	3.1764e-06	1.9756e-06	1155.7	223.99	2.2771e-06	1.914e-06	280.47	79.979	62.813	18.18	1.8945e-06	26.229	104.161	13.459	-10.680	-76.734	75.740	68.331	-76.697	-69.538	34.360	90.089	-69.542	-63.288	-63.186	-55.579	80.684	-56.564	-8191	255	
18545.098	1	1	0	0	0.16426	0.091874	0.049848	0.097589	0.092992	0.12758	0.1419	0.16265	0.11139	0.28552	0.29455	0.14848	0.18231	0.11526	0.19851	0.15088	-4.3479	-4.5	-4.2417	-4.8417	-4.2625	-4.5437	-4.8896	-4.2708	-4.7042	-4.5312	-4.3229	-4.8604	-4.4396	-4.35	-4.7562	-4.1354	207.812	20.720	196.411	190.704	256.029	109.318	188.658	-63.800	77.392	20.863	194.828	-72.145	21.662	-69.038	-55.713	-13.425	0.00017428	0.00026655	0.00010372	1095.5	2.1683e-06	3.3305e-06	1165	224.98	2.3255e-06	4.0886e-06	281.9	79.01	62.663	18.022	2.6385e-06	25.897	0.00024985	0.00016761	6.6602e-05	1079.4	3.0084e-06	2.1654e-06	1154.3	223.82	2.533e-06	2.0708e-06	280.53	79.788	63.057	18.221	1.9845e-06	26.141	89.180	5.938	6.320	-76.590	28.759	58.723	-76.938	-69.583	22.723	53.018	-69.595	-63.244	-63.270	-55.650	62.075	-56.168	-8191	255	
18545.193	1	1	0	0	0.053998	0.08196	0.099816	0.17118	0.07441	0.11488	0.13832	0.27509	0.16337	0.062235	0.18488	0.12608	0.082727	0.14571	0.067233	0.26085	-4.1854	-4.6917	-4.4146	-4.9208	-4.3792	-4.45	-5.0292	-4.1687	-4.525	-4.5604	-4.2583	-4.8521	-4.4521	-4.4292	-4.6979	-4.2479	49.919	240.388	222.961	257.090	-47.816	201.075	207.280	-68.605	162.964	118.582	243.412	-68.489	52.498	28.747	60.407	-69.975	0.00019431	0.00037706	9.238e-05	1095.7	1.3545e-06	2.924e-06	1171.6	224.72	9.338e-07	3.2436e-06	281.22	79.061	62.682	17.967	2.7146e-06	25.765	0.00023418	0.00022265	6.1403e-05	1078.6	3.0018e-06	2.1536e-06	1156.4	223.52	2.3875e-06	1.7924e-06	280.27	79.694	62.893	18.15	1.7282e-06	26.2	91.433	-4.786	11.392	-76.866	107.510	64.473	-76.532	-69.157	46.886	72.919	-69.667	-63.109	-62.787	-55.892	23.530	-56.660	-8191	255	
18545.314	1	1	0	0	0.12732	0.1328	0.1828	0.23823	0.15715	0.11498	0.22752	0.091613	0.2166	0.11065	0.23499	0.077045	0.12757	0.21478	0.19361	0.19166	-4.1708	-4.7125	-4.0604	-4.7562	-4.5167	-4.1792	-5.0229	-4.2229	-4.5125	-4.6687	-4.2833	-4.6021	-4.4792	-4.3271	-4.5833	-4.4563	232.509	58.476	-4.141	168.976	216.435	157.430	234.248	-47.630	7.840	90.377	-34.637	232.941	26.890	-80.291	82.651	263.590	0.0002026	0.00028276	7.765e-05	1095.9	2.2883e-06	3.9428e-06	1163.7	224.41	1.9867e-06	2.6998e-06	281.03	79.605	62.627	17.871	3.4838e-06	25.854	0.00024683	0.00017174	6.6789e-05	1079.5	2.9159e-06	2.2592e-06	1154.1	223.28	2.5278e-06	1.3668e-06	280.17	79.927	62.903	18.109	1.6077e-06	26.227	92.833	19.875	0.005	-76.627	56.389	73.647	-76.546	-69.412	39.625	75.807	-69.616	-63.188	-63.244	-55.488	62.871	-56.517	-8191	255	
18545.410	1	1	0	0	0.090331	0.062099	0.061056	0.13993	0.15395	0.11662	0.10309	0.050349	0.10849	0.1519	0.12107	0.21621	0.27465	0.2139	0.34136	0.052388	-3.8917	-4.7812	-4.2	-4.8313	-4.6354	-4.1771	-4.9646	-4.4854	-4.3771	-4.6979	-4.3083	-4.6	-4.7688	-4.3354	-4.7354	-4.3396	203.994	23.867	161.172	191.507	136.672	229.659	156.348	80.835	231.099	223.381	124.794	210.136	167.458	170.870	-33.390	-15.999	0.00016496	0.00045799	0.00010483	1091.9	9.7427e-07	2.8048e-06	1167.1	224.95	1.539e-06	3.3436e-06	281.67	78.844	62.679	17.877	3.0924e-06	25.841	0.00025258	0.00015571	5.0584e-05	1077.6	2.439e-06	2.1321e-06	1154	223.46	2.6356e-06	1.557e-06	280.15	79.711	63.034	18.155	1.8518e-06	26.245	85.703	-3.123	17.286	-76.596	42.193	54.066	-76.613	-69.792	37.422	63.226	-69.899	-63.151	-63.103	-55.627	64.686	-56.069	-8191	255	
18545.506	1	1	0	0	0.077689	0.06663	0.23912	0.26843	0.10233	0.14924	0.1099	0.22527	0.12732	0.087135	0.053408	0.045335	0.14318	0.28325	0.091392	0.20044	-3.975	-4.7604	-4.1542	-4.6687	-4.6083	-4.1417	-4.8313	-4.4354	-4.3313	-4.8646	-4.2438	-4.5229	-4.6604	-4.2333	-4.6958	-4.5188	187.617	46.391	195.655	195.570	44.911	245.049	145.220	210.203	180.998	208.083	-30.711	265.959	14.888	263.714	13.409	-78.113	0.00018112	0.00030372	6.2929e-05	1088.8	2.0679e-06	2.7682e-06	1164.8	224.75	2.6648e-06	3.9581e-06	281.32	78.889	62.413	18.006	2.2194e-06	25.868	0.00023424	0.00013224	5.6438e-05	1075.1	2.6318e-06	2.2084e-06	1151.9	223.33	2.837e-06	1.1354e-06	279.56	79.565	62.688	18.106	1.5925e-06	26.188	92.458	-0.858	-15.983	-76.676	46.715	77.149	-76.876	-69.289	43.929	78.398	-69.633	-63.348	-63.046	-56.092	65.071	-56.309	-8191	255	
18545.602	1	1	0	0	0.29175	0.21119	0.12594	0.18315	0.28543	0.055683	0.21777	0.2043	0.26887	0.13929	0.24216	0.18337	0.13368	0.2192	0.071538	0.053218	-3.9521	-4.6396	-4.2729	-4.6104	-4.7125	-4.1542	-4.8396	-4.5458	-4.2333	-4.6104	-4.3958	-4.5229	-4.7271	-4.1813	-4.7083	-4.65	-52.155	263.074	231.411	238.591	115.870	90.166	189.800	216.476	56.943	64.836	-14.823	247.093	196.764	257.874	181.061	237.564	0.00023246	0.00041448	9.316e-05	1087.4	1.7403e-06	4.0511e-06	1154.4	223.72	1.3634e-06	2.4036e-06	278.5	79.349	61.926	17.87	3.2902e-06	25.731	0.00024985	0.00014876	5.9201e-05	1070.4	2.71e-06	2.3375e-06	1146.3	221.99	3.0617e-06	1.2492e-06	278.22	79.392	62.478	18.053	1.9143e-06	26.018	98.267	8.975	26.132	-76.604	27.817	44.460	-76.748	-69.614	28.670	67.864	-69.753	-63.467	-62.844	-55.408	50.946	-56.611	-8191	255	
18545.699	1	1	0	0	0.16992	0.22202	0.04552	0.24539	0.043971	0.071278	0.13134	0.18936	0.094788	0.037493	0.29488	0.14034	0.11955	0.13686	0.13762	0.030602	-3.7417	-4.8187	-4.1479	-4.4292	-4.7333	-4.1312	-4.7562	-4.6667	-4.2521	-4.7021	-4.4375	-4.3229	-4.7292	-4.2146	-4.5333	-4.8271	257.228	28.971	164.664	226.929	-37.572	26.119	186.514	253.091	-77.091	117.059	190.451	253.290	233.267	-62.113	140.236	270.890	0.00018418	0.00038471	7.8572e-05	1080.7	1.6783e-06	3.3696e-06	1155.7	222.99	1.3859e-06	2.6024e-06	280.01	78.282	62.144	17.894	2.5891e-06	25.538	0.00024689	0.00017967	5.1005e-05	1066.1	2.6735e-06	2.0988e-06	1144.7	221.71	2.7824e-06	1.4021e-06	278.28	79.227	62.375	18.034	2.047e-06	25.982	87.144	3.086	9.577	-76.692	57.472	48.272	-76.721	-69.505	22.218	81.078	-69.819	-63.538	-63.021	-56.082	48.406	-56.438	-8191	255	
18545.793	1	1	0	0	0.23122	0.072526	0.10264	0.069009	0.13337	0.073652	0.33351	0.03323	0.19062	0.26368	0.23538	0.15502	0.23851	0.074708	0.1055	0.094252	-3.725	-4.8	-4.6125	-4.3854	-4.8417	-4.25	-4.7208	-4.6687	-4.0708	-4.575	-4.475	-4.1229	-4.8125	-4.2667	-4.4708	-4.9271	254.144	119.455	-74.559	218.745	164.726	33.597	240.348	197.488	113.758	240.404	-46.702	4.886	267.516	-51.665	142.080	228.553	0.00014693	0.0003008	9.2818e-05	1080	1.5052e-06	3.4726e-06	1156	222.06	2.4733e-06	1.9072e-06	279.01	78.486	62.151	17.622	4.111e-06	25.54	0.00023054	0.00012199	3.8547e-05	1065.4	2.5732e-06	1.8602e-06	1144.5	221.65	2.4265e-06	1.6531e-06	278.62	79.21	62.235	17.984	1.9982e-06	25.957	94.751	-0.002	13.065	-76.731	42.455	59.005	-76.595	-69.880	53.383	72.395	-69.796	-63.499	-63.276	-55.617	60.542	-56.504	-8191	255	
18545.891	1	1	0	0	0.19304	0.09216	0.049389	0.16783	0.17321	0.12242	0.14757	0.16008	0.11634	0.12757	0.28478	0.12617	0.10598	0.19592	0.19505	0.057811	-3.7958	-4.5813	-4.4146	-4.3479	-4.7417	-4.2	-4.5417	-4.9	-4.1667	-4.55	-4.5104	-4.1875	-4.6479	-4.4229	-4.5417	-4.7562	106.264	-29.121	224.043	255.665	98.095	136.679	268.155	224.675	-52.473	-81.985	-73.643	156.947	-67.648	-79.719	201.372	162.842	0.00014252	0.00032147	0.00011089	1088.1	2.0932e-06	2.4628e-06	1158.2	222.8	1.5123e-06	2.7539e-06	277.5	78.639	62.128	17.907	2.636e-06	25.634	0.00024444	0.00011769	4.5713e-05	1067	2.4885e-06	1.8074e-06	1143	221.94	2.8409e-06	1.7649e-06	277.72	79.125	62.267	18.08	2.3475e-06	26.03	87.591	0.247	16.259	-76.678	21.912	76.702	-76.829	-69.315	34.719	76.350	-69.742	-63.497	-63.004	-55.982	67.228	-56.030	-8191	255	
18546.010	1	1	0	0	0.19142	0.048052	0.15049	0.18799	0.14753	0.12306	0.15827	0.082101	0.15226	0.083775	0.42685	0.060421	0.062295	0.2306	0.096752	0.22997	-3.9375	-4.5312	-4.6125	-4.25	-4.7479	-4.3438	-4.4187	-4.8646	-4.4167	-4.6396	-4.6542	-4.1646	-4.8917	-4.4354	-4.175	-4.7937	138.627	243.954	-73.974	-83.680	-3.240	83.593	163.702	-0.527	74.715	204.342	218.221	-23.332	-50.923	-64.318	55.393	159.160	0.00017277	0.00031284	8.2571e-05	1082.1	2.028e-06	3.3556e-06	1151.3	222.57	3.4904e-06	3.9107e-06	279.24	78.577	62.344	17.815	2.9251e-06	25.565	0.00024603	0.00014	4.8148e-05	1065	2.6722e-06	1.7565e-06	1142.8	221.02	2.5525e-06	1.7983e-06	278.13	79.206	62.348	17.995	2.0302e-06	25.976	94.532	-12.254	11.065	-76.724	50.626	53.419	-76.732	-69.497	5.032	62.483	-69.212	-63.426	-62.626	-55.662	62.132	-56.434	-8191	255	
18546.105	1	1	0	0	0.098858	0.096737	0.21307	0.051841	0.15595	0.081628	0.076844	0.174	0.1023	0.060874	0.24168	0.18313	0.022463	0.10286	0.1809	0.12897	-3.8896	-4.5458	-4.7833	-4.3438	-4.6021	-4.5604	-4.3875	-4.8333	-4.3562	-4.3958	-4.9354	-4.1292	-4.5771	-4.5979	-4.1521	-4.8313	-14.332	-27.784	146.594	245.375	96.003	-34.973	221.575	158.480	163.831	33.406	249.147	-30.153	-13.076	81.255	5.381	99.456	0.00015061	0.00030755	6.9539e-05	1083.3	2.2053e-06	3.0735e-06	1155.9	222.81	2.0659e-06	3.5038e-06	279.19	77.993	62.022	17.829	1.7884e-06	25.612	0.00023305	0.00014794	3.7329e-05	1065.5	2.5224e-06	1.4964e-06	1142.3	221.46	2.7811e-06	1.7433e-06	277.62	78.978	62.275	18.035	2.1096e-06	25.956	99.090	-4.103	5.031	-76.452	79.877	41.889	-76.515	-69.562	19.340	57.729	-69.636	-63.367	-62.984	-55.785	54.990	-56.499	-8191	255	
18546.201	1	1	0	0	0.11719	0.049857	0.09993	0.16267	0.082573	0.023812	0.14717	0.042206	0.083452	0.12435	0.17193	0.1758	0.12807	0.060978	0.062749	0.19725	-4.0604	-4.3812	-4.7625	-4.3958	-4.6292	-4.5125	-4.3292	-4.8708	-4.3896	-4.1937	-4.8479	-4.3104	-4.5563	-4.6479	-4.2292	-4.8313	172.149	192.288	221.291	188.543	-6.485	134.763	254.355	84.839	258.149	37.777	244.538	173.295	244.787	-66.936	149.402	51.734	0.00016591	0.00035937	8.384e-05	1081.3	2.9735e-06	3.4012e-06	1157.3	221.96	2.4902e-06	3.3098e-06	279.32	78.257	62.047	17.844	3.4502e-06	25.576	0.00023493	0.00017257	3.3207e-05	1065.2	2.7882e-06	1.4416e-06	1144.1	220.88	2.5044e-06	2.012e-06	277.88	78.941	62.42	17.965	2.4131e-06	25.937	96.036	2.802	14.680	-76.710	43.270	60.454	-76.447	-69.243	68.057	71.327	-69.678	-63.030	-62.386	-56.089	54.741	-56.744	-8191	255	
18546.299	1	1	0	0	0.15015	0.15513	0.091972	0.042346	0.22277	0.11397	0.26187	0.12941	0.21422	0.2742	0.23258	0.23518	0.043483	0.20099	0.25511	0.063768	-4.1875	-4.1958	-4.7354	-4.4979	-4.5396	-4.65	-4.1583	-4.7396	-4.5125	-4.2708	-4.7562	-4.4062	-4.5	-4.8	-4.0771	-4.6479	208.798	116.473	188.538	233.591	128.233	118.098	143.079	200.999	47.355	5.939	-55.305	243.658	130.417	52.054	20.786	-19.493	0.00020088	0.00037968	8.2263e-05	1081.3	2.4865e-06	2.7181e-06	1156.5	221.67	2.0893e-06	3.95e-06	279.5	78.245	62.617	17.813	2.7687e-06	25.49	0.00023584	0.00018496	3.1849e-05	1065.8	2.68e-06	1.3477e-06	1144	221.05	2.4811e-06	1.6727e-06	277.94	79.083	62.426	18.011	2.134e-06	25.969	93.481	8.142	10.243	-76.569	58.497	65.409	-76.486	-69.455	52.278	70.818	-69.658	-63.607	-63.273	-55.461	28.973	-56.724	-8191	255	
18546.395	1	1	0	0	0.081822	0.082254	0.054742	0.063535	0.026388	0.12726	0.16506	0.11175	0.1159	0.28011	0.13974	0.079169	0.14888	0.12848	0.13601	0.13884	-4.15	-4.1458	-4.6479	-4.55	-4.3729	-4.7958	-4.3667	-4.7833	-4.6208	-4.2042	-4.975	-4.3812	-4.4417	-4.7646	-4.1896	-4.6229	-61.512	128.493	77.668	197.050	-29.392	-5.363	243.469	-85.024	220.211	13.173	-74.994	89.255	259.952	-1.806	266.567	22.249	0.00016408	0.00026411	9.6298e-05	1078.5	2.6202e-06	3.2329e-06	1157	224.33	2.3109e-06	3.2673e-06	279.49	78.984	61.814	17.777	2.05e-06	25.796	0.00022074	0.00019554	2.665e-05	1065.4	2.74e-06	9.7803e-07	1143.6	221.8	2.5239e-06	2.3277e-06	278.69	79.308	62.026	17.966	1.8136e-06	26.02	99.129	5.153	25.967	-76.931	63.529	48.884	-76.579	-69.448	32.979	58.314	-69.561	-63.138	-63.118	-55.568	75.950	-56.260	-8191	255	
18546.490	1	1	0	0	0.14117	0.07966	0.1546	0.23698	0.25115	0.11858	0.14365	0.16753	0.087337	0.21656	0.12834	0.052263	0.097796	0.1646	0.14749	0.19815	-4.2688	-4.15	-4.9	-4.5292	-4.3917	-4.8688	-4.3604	-4.4646	-4.5375	-4.2271	-4.7792	-4.5146	-4.1521	-5.0208	-4.2667	-4.5729	144.780	101.418	247.265	255.569	247.262	118.456	151.286	196.368	206.878	164.418	90.367	-76.125	23.545	104.098	217.537	179.355	0.00017692	0.00029706	9.3184e-05	1078.9	2.6364e-06	2.9338e-06	1156.1	222.24	1.5906e-06	3.0357e-06	278.13	78.595	61.865	17.758	3.3367e-06	25.567	0.0002306	0.00022629	4.6228e-05	1067.1	3.1986e-06	5.3792e-07	1144.7	221.39	2.3473e-06	2.314e-06	277.98	79.356	62.341	17.977	1.7969e-06	25.932	84.347	15.462	36.162	-76.451	50.543	44.002	-76.612	-69.611	-2.133	89.400	-69.849	-63.239	-63.070	-55.971	56.115	-56.231	-8191	255	
18546.588	1	1	0	0	0.18685	0.15277	0.18684	0.040999	0.19082	0.09794	0.097563	0.081768	0.02877	0.027282	0.25522	0.093008	0.16078	0.086958	0.19258	0.13306	-4.3	-4.1667	-4.8812	-4.5125	-4.1188	-4.8479	-4.5062	-4.5417	-4.5813	-4.3417	-4.6813	-4.4729	-4.1062	-4.85	-4.4229	-4.6292	-5.287	90.921	231.054	249.351	133.996	87.875	200.683	265.320	-79.783	170.474	211.471	-17.901	-45.698	144.892	207.757	44.695	0.00018964	0.00029125	8.1688e-05	1079	1.6752e-06	3.8067e-06	1153.1	222.55	2.1616e-06	2.3146e-06	279.2	78.526	61.947	17.837	4.383e-06	25.769	0.00022131	0.00018563	3.3816e-05	1063	2.5862e-06	1.1404e-06	1141.7	221.12	2.1563e-06	1.8198e-06	277.65	79.004	62.331	18.014	1.6169e-06	26.005	93.621	8.884	-0.362	-76.582	101.566	39.560	-76.672	-69.402	36.951	37.095	-69.731	-63.436	-63.103	-55.838	63.656	-56.296	-8191	255	
18546.705	1	1	0	0	0.15583	0.086387	0.039076	0.24904	0.073763	0.15483	0.45203	0.15059	0.20188	0.278	0.22916	0.12174	0.386	0.20351	0.11313	0.13996	-4.4521	-4.1583	-4.5667	-4.8	-4.3063	-4.7979	-4.5771	-4.4437	-4.6917	-4.1896	-4.6417	-4.6125	-4.1	-4.6687	-4.6771	-4.3958	164.816	149.189	41.979	190.670	258.736	228.764	178.648	-36.223	78.341	-63.045	-55.738	156.699	237.448	197.905	140.184	105.094	0.00017033	0.00036285	7.2686e-05	1080.4	1.8866e-06	3.7784e-06	1150.6	222.87	2.0792e-06	2.8588e-06	279.14	78.954	62.281	17.761	3.2667e-06	25.72	0.0002139	0.00017918	3.0865e-05	1062	2.6696e-06	8.548e-07	1139.1	220.98	1.8238e-06	1.6473e-06	277.62	79.157	62.235	17.942	1.4094e-06	26.042	88.253	6.942	15.037	-76.826	67.487	66.988	-76.696	-69.426	60.091	71.445	-69.565	-63.325	-63.496	-55.380	57.478	-56.318	-8191	255	
18546.803	1	1	0	0	0.07447	0.049035	0.059822	0.22672	0.093177	0.11005	0.31216	0.14909	0.060151	0.096436	0.089889	0.068861	0.14715	0.022226	0.3077	0.14607	-4.4917	-4.3812	-4.6229	-4.7729	-4.1542	-4.9125	-4.7292	-4.3562	-4.8187	-4.2208	-4.6937	-4.8438	-4.2167	-4.7167	-4.7125	-4.3354	-72.429	161.261	72.062	157.057	123.149	79.923	-81.234	-79.795	209.093	270.004	179.240	148.514	-54.514	207.502	-6.662	-60.290	0.00018292	0.00029913	6.6699e-05	1076.8	1.8105e-06	3.3541e-06	1153.7	221.89	2.1243e-06	2.7252e-06	280.62	78.646	62.257	17.78	2.103e-06	25.512	0.00020302	0.00015819	3.405e-05	1061.6	2.7895e-06	8.5871e-07	1139.8	221.07	2.0667e-06	1.3531e-06	278.31	79.192	62.308	18	1.3347e-06	25.944	104.664	11.758	-0.756	-76.670	71.528	70.624	-76.559	-69.329	24.753	79.092	-69.979	-63.289	-63.210	-55.709	40.599	-56.437	-8191	255	
18546.875	1	1	0	0	0.23911	0.16452	0.18725	0.28601	0.10664	0.17745	0.071732	0.2078	0.13837	0.015026	0.030636	0.16226	0.10278	0.26886	0.15873	0.15122	-4.4542	-4.2458	-4.6062	-4.8229	-4.0771	-4.8063	-4.7708	-4.2167	-4.8104	-4.575	-4.5813	-4.7917	-4.3562	-4.5958	-4.5479	-4.2	67.817	-8.561	-65.431	227.434	35.180	204.579	11.605	271.259	-24.108	23.701	246.609	126.040	63.586	165.037	81.271	136.216	0.00021235	0.0003005	6.5205e-05	1073	2.1183e-06	3.7749e-06	1151.7	222.51	1.4866e-06	3.9533e-06	279.25	78.944	61.9	17.787	4.2295e-06	25.583	0.00020302	0.00013571	4.1872e-05	1061.9	2.6214e-06	1.4377e-06	1141.7	221.41	2.1498e-06	1.6414e-06	277.67	78.929	62.268	17.975	1.5894e-06	25.924	88.526	-14.182	6.190	-76.690	56.382	73.542	-76.680	-69.286	-15.185	67.178	-69.805	-63.554	-63.198	-55.533	64.647	-56.579	-8191	255	
18546.971	1	1	0	0	0.11422	0.013551	0.13412	0.30396	0.15736	0.14612	0.2859	0.14365	0.16717	0.1159	0.23586	0.095082	0.13161	0.3222	0.033934	0.14778	-4.4479	-4.4896	-4.2271	-4.9812	-4.0687	-4.6083	-4.7396	-4.1375	-4.7771	-4.4187	-4.3396	-4.8146	-4.3583	-4.5417	-4.6438	-4.3875	227.293	37.957	87.501	224.259	175.822	232.466	225.397	272.373	-30.799	21.772	265.438	-72.015	111.520	214.273	141.712	161.197	0.00014543	0.00036528	7.7113e-05	1084.2	1.9949e-06	3.9452e-06	1148	221.93	2.6007e-06	2.1934e-06	278.66	78.337	62.254	17.79	1.742e-06	25.555	0.00022251	0.00015521	4.2012e-05	1064.1	2.8286e-06	1.3125e-06	1141.3	221.27	1.8173e-06	1.1511e-06	278.32	79.003	62.329	18.005	1.4811e-06	25.946	83.211	12.784	14.385	-76.795	68.945	64.918	-76.781	-69.243	12.179	69.222	-70.006	-63.502	-63.044	-55.446	73.588	-56.276	-8191	255	
18547.090	1	1	0	0	0.31754	0.048757	0.11159	0.20528	0.044717	0.20114	0.23721	0.09441	0.21245	0.13854	0.076137	0.15849	0.14191	0.090662	0.042512	0.21108	-4.4167	-4.5979	-4.2958	-4.9313	-4.3	-4.4938	-4.7958	-4.2771	-4.6104	-4.5229	-4.3521	-4.8729	-4.4042	-4.4854	-4.8229	-4.1292	178.359	155.322	170.790	216.144	122.654	-59.102	193.695	240.281	229.288	7.877	-51.377	213.771	230.679	200.476	142.212	239.013	0.00016415	0.00030249	6.3408e-05	1077.9	2.5726e-06	2.8109e-06	1157.9	222.11	2.8947e-06	2.8273e-06	280.22	78.603	61.954	17.966	3.0198e-06	25.718	0.00020633	0.00016199	3.7001e-05	1064.8	2.3999e-06	9.8976e-07	1144.9	221.32	2.2213e-06	1.1943e-06	278.19	79.135	62.357	18.035	1.4216e-06	26.074	103.722	2.536	-2.966	-76.589	45.741	75.445	-76.634	-69.409	22.682	51.237	-69.632	-63.302	-63.024	-55.398	50.936	-56.472	-8191	255	
18547.186	1	1	0	0	0.11893	0.088969	0.022766	0.22448	0.1315	0.13981	0.28902	0.15269	0.052711	0.17296	0.056277	0.1861	0.31334	0.18788	0.12296	0.11076	-4.2271	-4.5354	-4.1333	-4.975	-4.4667	-4.4396	-5.1125	-4.3021	-4.6542	-4.8479	-4.2562	-4.8583	-4.4604	-4.4208	-4.7854	-4.2458	238.626	7.228	95.433	-87.289	115.720	194.968	242.289	262.150	-43.843	29.810	261.667	177.676	-19.747	149.630	137.381	163.501	0.00017013	0.00023396	6.4496e-05	1083.5	1.7171e-06	1.7225e-06	1156.5	223.32	2.2388e-06	3.6243e-06	280.38	78.943	61.791	17.761	2.9759e-06	25.643	0.0002028	0.00011686	4.1263e-05	1066.6	2.5993e-06	1.4181e-06	1143.7	221.5	2.2732e-06	1.1472e-06	278.35	79.187	62.328	18.008	1.5345e-06	26.077	93.256	1.636	11.670	-76.639	64.353	71.366	-76.654	-69.368	21.888	59.054	-69.638	-63.454	-62.971	-55.570	51.000	-56.068	-8191	255	
18547.281	1	1	0	0	0.35483	0.23023	0.083311	0.29619	0.0075759	0.33247	0.3234	0.26128	0.048131	0.056257	0.25624	0.10573	0.17703	0.22728	0.13857	0.05909	-4.2854	-4.6146	-4.2167	-5.0188	-4.4958	-4.2854	-4.9458	-4.2208	-4.5625	-4.7729	-4.2521	-4.8229	-4.5542	-4.3146	-4.9271	-4.2729	259.641	236.930	16.784	209.735	28.016	166.277	205.656	35.971	-79.185	183.190	173.099	69.275	173.538	203.897	-68.105	152.048	0.00017873	0.00029045	7.7818e-05	1080.9	2.6374e-06	2.2217e-06	1160.2	222.85	3.0822e-06	2.9197e-06	279.31	78.66	61.892	17.763	4.0177e-06	25.718	0.00022792	0.00014116	4.4401e-05	1066	2.5797e-06	1.604e-06	1143.9	221.61	2.3589e-06	1.1492e-06	277.69	79.26	62.299	17.982	1.6489e-06	26.021	87.129	16.767	12.230	-76.829	46.105	74.072	-76.647	-69.570	16.794	73.109	-69.883	-63.279	-62.746	-55.809	52.445	-56.268	-8191	255	
18547.379	1	1	0	0	0.10621	0.025503	0.19392	0.14306	0.1031	0.057527	0.18275	0.15126	0.20758	0.082809	0.13612	0.020492	0.045704	0.11436	0.097078	0.080055	-4.0375	-4.7458	-4.0146	-4.7479	-4.6125	-4.2438	-5.1458	-4.5771	-4.5188	-4.8542	-4.1833	-4.7292	-4.6458	-4.2229	-4.7979	-4.4271	10.878	230.318	120.429	223.571	-51.919	200.874	109.981	190.085	80.930	206.336	168.330	-3.767	210.439	-82.420	256.499	34.796	0.00018877	0.00032982	7.4226e-05	1082.8	1.7019e-06	2.7368e-06	1153.3	222.53	2.4292e-06	2.9451e-06	278.99	78.759	61.669	17.894	3.0038e-06	25.573	0.00025783	0.00014199	4.2434e-05	1067.2	2.4325e-06	1.8074e-06	1143.8	221.45	2.5109e-06	8.5304e-07	278.08	79.168	62.344	18.03	1.3743e-06	26.018	90.462	-1.082	2.171	-76.699	37.717	52.904	-76.918	-69.574	21.958	83.492	-69.589	-63.448	-63.229	-56.022	34.470	-56.289	-8191	255	
18547.498	1	1	0	0	0.098096	0.1424	0.23563	0.31611	0.074395	0.22039	0.33482	0.13876	0.12478	0.23546	0.034041	0.13092	0.21895	0.1336	0.080544	0.08676	-4.0146	-4.8167	-4.1958	-4.725	-4.5813	-4.2083	-4.8583	-4.5417	-4.3625	-4.6542	-4.2875	-4.5833	-4.7083	-4.2208	-4.7271	-4.4333	232.490	20.096	-4.684	177.294	251.566	50.270	198.665	233.398	19.378	81.019	13.363	217.021	235.490	-53.027	-9.716	199.558	0.00019215	0.00028324	9.801e-05	1081	2.771e-06	4.9889e-06	1158.1	222.79	1.2069e-06	3.1408e-06	278.58	79.434	62.486	17.883	1.8065e-06	25.534	0.00022319	0.00012166	4.7961e-05	1067.4	2.6084e-06	2.0226e-06	1145.1	221.74	2.633e-06	1.0825e-06	277.95	79.348	62.639	18.05	1.3667e-06	26.03	88.021	-5.352	-12.806	-76.766	69.703	77.713	-76.575	-69.311	28.214	58.532	-69.619	-63.117	-62.869	-55.725	65.238	-56.403	-8191	255	
18547.570	1	1	0	0	0.051163	0.32325	0.1141	0.063931	0.19557	0.14377	0.23691	0.055972	0.098246	0.10445	0.064397	0.22145	0.24421	0.020309	0.022477	0.11748	-3.8125	-4.8521	-3.9917	-4.625	-4.6104	-4.1188	-4.8333	-4.5896	-4.3187	-4.8792	-4.4396	-4.3938	-4.7083	-4.2292	-4.6646	-4.6667	-52.087	12.634	-22.753	-83.766	45.986	151.800	180.161	-43.022	260.877	152.108	202.708	224.439	256.771	54.200	-31.965	-28.502	0.00015405	0.00030942	8.5908e-05	1081.1	2.1092e-06	2.5395e-06	1163.5	222.51	2.6379e-06	3.0204e-06	280.24	78.626	62.132	17.855	3.1602e-06	25.626	0.00023777	0.0001043	3.5783e-05	1068.4	2.31e-06	1.9424e-06	1148.2	221.7	2.5824e-06	1.2982e-06	279.1	79.452	62.638	18.002	1.7175e-06	26.005	88.671	-15.970	6.207	-76.726	50.329	64.235	-76.625	-69.392	40.631	67.563	-69.909	-63.098	-63.123	-56.080	67.260	-56.327	-8191	255	
18547.691	1	1	0	0	0.14355	0.17162	0.13251	0.062441	0.13009	0.31461	0.054967	0.11258	0.11093	0.11101	0.16691	0.10444	0.11952	0.053098	0.22386	0.13016	-3.9521	-4.7729	-4.4083	-4.4437	-4.8083	-4.25	-4.6729	-4.6937	-4.1937	-4.8354	-4.5521	-4.3854	-4.7979	-4.3375	-4.7646	-4.5917	99.402	180.875	216.538	-37.121	234.607	34.293	-40.715	258.823	4.024	-10.049	201.544	-41.801	245.781	19.012	80.346	230.204	0.0001797	0.00037676	7.4172e-05	1081.7	4.5889e-06	2.655e-06	1160.7	222.47	2.4263e-06	2.4909e-06	279.41	78.911	62.4	17.817	1.5588e-06	25.83	0.00023669	0.00015042	3.3582e-05	1069	2.8781e-06	1.5062e-06	1146.7	221.69	2.5304e-06	1.2805e-06	278.47	79.384	62.647	18.015	1.4537e-06	26.092	91.121	-9.085	-4.858	-76.535	63.763	77.564	-76.833	-69.585	34.927	36.580	-69.872	-63.566	-62.939	-55.555	73.218	-56.343	-8191	255	
18547.785	1	1	0	0	0.14662	0.18944	0.1733	0.15534	0.12112	0.27311	0.14628	0.12587	0.073289	0.16134	0.023239	0.1694	0.23087	0.15959	0.19816	0.14722	-3.825	-4.7229	-4.4	-4.4396	-4.8688	-4.2812	-4.475	-4.6417	-4.0208	-4.6771	-4.5708	-4.1562	-4.9437	-4.525	-4.4	-4.7125	72.463	-36.542	146.353	259.915	180.721	16.537	128.800	150.383	169.878	157.060	235.656	156.307	231.513	250.050	0.988	-15.461	0.00018479	0.00023313	7.4375e-05	1085.8	3.0153e-06	2.4526e-06	1157.5	221.35	1.4586e-06	3.4665e-06	279.9	79.283	62.239	17.866	2.7109e-06	25.723	0.00026221	9.2399e-05	3.9155e-05	1068.2	2.2331e-06	1.381e-06	1147.1	221.46	2.6058e-06	8.7854e-07	278.79	79.408	62.652	18.059	2.0241e-06	26.093	85.581	-2.314	5.442	-76.721	36.222	69.768	-76.554	-69.436	-2.064	61.661	-69.773	-63.253	-63.167	-55.739	69.643	-56.301	-8191	255	
18547.883	1	1	0	0	0.097449	0.065231	0.30002	0.22339	0.14761	0.092578	0.257	0.2274	0.20925	0.16211	0.085827	0.39392	0.082566	0.054526	0.19836	0.18486	-3.8229	-4.6917	-4.4917	-4.45	-4.8125	-4.3771	-4.6104	-4.7729	-4.2604	-4.7229	-4.5479	-4.2021	-4.7604	-4.3729	-4.2542	-4.7917	138.526	97.679	18.999	253.247	-81.167	187.720	218.754	220.734	139.150	-71.768	112.188	-43.832	-30.941	112.695	195.852	155.185	0.00016316	0.0003521	9.6471e-05	1080.9	3.2148e-06	3.6093e-06	1162	221.8	2.9249e-06	3.1307e-06	279.41	78.458	62.338	17.792	2.6791e-06	25.696	0.00025276	0.00014033	4.5713e-05	1068.6	2.5107e-06	2.1008e-06	1146.8	221.45	2.811e-06	1.3747e-06	278.15	79.365	62.614	18.025	2.073e-06	26.085	87.071	-2.956	-5.536	-76.562	50.294	68.351	-76.703	-69.494	13.603	73.538	-69.674	-64.182	-63.259	-55.700	45.671	-56.394	-8191	255	
18547.980	1	1	0	0	0.15867	0.12324	0.1353	0.046244	0.081827	0.081191	0.2067	0.11493	0.08825	0.13225	0.0499	0.2571	0.14243	0.13188	0.21444	0.2717	-3.8063	-4.5625	-4.6167	-4.1771	-4.9125	-4.3771	-4.5625	-4.8875	-4.1875	-4.5479	-4.6979	-4.1458	-4.9125	-4.4062	-4.3	-4.9521	240.863	-15.774	-11.780	52.735	35.073	258.104	220.507	-85.807	172.191	184.663	-21.930	205.824	-72.652	244.573	180.853	191.605	0.00017297	0.00031624	8.3837e-05	1083.1	1.5274e-06	3.8675e-06	1164.2	222.81	2.5684e-06	3.0962e-06	279.71	78.921	62.27	18.04	2.6168e-06	25.59	0.00022592	0.00016331	3.7141e-05	1068.4	2.1615e-06	1.4631e-06	1147	221.87	2.5356e-06	1.3394e-06	278.63	79.35	62.61	18.126	2.1568e-06	26.044	95.843	-19.451	20.588	-76.577	31.382	54.905	-76.735	-69.266	12.389	65.013	-69.799	-63.281	-62.758	-55.629	54.922	-56.462	-8191	255	
18548.100	1	1	0	0	0.01822	0.20217	0.26272	0.2886	0.064054	0.077768	0.036878	0.12878	0.066642	0.26181	0.10222	0.11617	0.10621	0.12106	0.051448	0.029736	-4.0563	-4.5917	-4.6687	-4.3396	-4.8708	-4.5729	-4.4354	-5.0542	-4.4437	-4.5667	-4.75	-4.1937	-4.8104	-4.5792	-4.0792	-4.7854	231.438	-12.383	256.900	228.048	222.666	86.479	54.402	241.676	59.403	149.396	230.003	-54.382	151.713	242.098	70.461	222.848	0.00019684	0.00038636	6.9779e-05	1078.1	2.7428e-06	2.3575e-06	1160.9	222.5	1.4173e-06	3.6436e-06	278.74	78.708	61.881	17.863	4.1717e-06	25.669	0.00023908	0.00021042	3.4097e-05	1068.5	2.8781e-06	1.0113e-06	1147.2	222	2.4824e-06	1.5472e-06	278.57	79.32	62.33	18.101	1.8701e-06	26.07	91.550	-24.842	7.616	-76.477	63.102	54.775	-76.576	-69.292	17.233	64.900	-70.007	-62.997	-62.936	-55.729	34.024	-56.098	-8191	255	
18548.170	1	1	0	0	0.077106	0.14038	0.12144	0.15346	0.074857	0.2364	0.18934	0.12939	0.13113	0.14829	0.33102	0.25664	0.20673	0.11035	0.067132	0.19244	-4.0979	-4.5188	-4.7458	-4.3479	-4.625	-4.4458	-4.2688	-4.9187	-4.4896	-4.3354	-4.6583	-4.1896	-4.5667	-4.725	-4.3042	-4.9479	113.472	253.055	184.404	-39.867	-26.033	90.233	173.816	-75.180	-51.129	-75.305	192.833	262.352	46.126	270.305	219.017	26.128	0.00017746	0.00031179	8.4687e-05	1081.5	2.081e-06	3.1319e-06	1160.1	222.5	1.7369e-06	2.7597e-06	277.9	78.9	62.768	17.871	1.069e-06	25.624	0.00021789	0.00020232	3.2317e-05	1067.7	2.4885e-06	1.6372e-06	1146.7	222.02	2.0914e-06	1.8296e-06	278.52	79.47	62.693	18.075	1.8762e-06	26.018	93.323	11.141	4.514	-76.431	66.550	77.835	-76.766	-69.523	-12.848	55.551	-69.469	-63.063	-63.305	-55.782	86.719	-56.291	-8191	255	
18548.268	1	1	0	0	0.075151	0.046837	0.03417	0.29775	0.21377	0.11992	0.32548	0.12037	0.17769	0.083832	0.083213	0.090968	0.11691	0.012872	0.2334	0.029804	-4.2229	-4.2854	-4.7521	-4.3646	-4.4854	-4.6562	-4.2604	-4.8583	-4.5875	-4.1687	-4.8333	-4.3625	-4.5854	-4.7479	-4.1146	-4.6917	244.310	-55.297	244.837	213.979	-84.632	-31.442	138.414	187.234	-37.839	-8.621	43.001	254.882	122.848	74.383	169.742	65.934	0.00017468	0.00031353	0.00012354	1084.8	2.1064e-06	3.2849e-06	1161.8	223.18	2.8073e-06	2.9041e-06	279.71	79.45	62.189	17.948	3.5976e-06	25.682	0.00023965	0.00017339	3.6533e-05	1069	2.5263e-06	1.2636e-06	1146	221.73	2.2888e-06	2.4434e-06	278.17	79.397	62.543	18.081	1.9143e-06	25.999	92.969	10.734	-10.373	-76.508	68.780	62.671	-76.559	-69.391	57.055	55.437	-69.529	-63.448	-63.135	-55.697	37.719	-56.608	-8191	255	
18548.387	1	1	0	0	0.12174	0.18711	0.049376	0.024557	0.10881	0.18516	0.45097	0.22057	0.19571	0.097493	0.17799	0.2111	0.11373	0.19166	0.11893	0.19824	-4.1354	-4.2792	-4.7833	-4.4396	-4.375	-4.7396	-4.3542	-4.6896	-4.625	-4.2521	-4.8583	-4.2562	-4.275	-4.7271	-4.1021	-4.7812	216.618	270.374	128.975	39.443	220.669	101.475	207.291	184.792	215.383	102.146	197.108	-77.652	-46.476	-74.930	89.866	-24.854	0.00018747	0.00027809	6.9372e-05	1084.4	1.534e-06	2.8402e-06	1153.6	221.78	1.9615e-06	3.5818e-06	279.24	77.996	62.376	17.946	2.9947e-06	25.614	0.0002237	0.00020199	2.4168e-05	1069.4	2.8846e-06	9.4478e-07	1144.1	221.37	2.0901e-06	1.7786e-06	278.14	79.278	62.515	18.097	1.8213e-06	26.056	93.386	-10.022	-16.711	-76.613	42.746	59.061	-76.722	-69.459	-21.868	66.047	-69.866	-63.401	-63.078	-56.003	50.792	-56.331	-8191	255	
18548.482	1	1	0	0	0.26052	0.1041	0.066662	0.10142	0.10397	0.020407	0.35511	0.13193	0.22472	0.081754	0.21503	0.14192	0.08155	0.3355	0.28829	0.092163	-4.4542	-4.2354	-4.6479	-4.6125	-4.3146	-4.8187	-4.4083	-4.6167	-4.5375	-4.2208	-4.6854	-4.2833	-4.2396	-4.8812	-4.3562	-4.5667	130.647	117.706	-47.712	-64.309	182.627	120.292	237.369	-24.167	55.484	197.583	201.259	-50.129	180.811	-59.211	166.978	121.573	0.00018594	0.00036193	7.1168e-05	1083.4	2.0103e-06	3.2005e-06	1158.7	223.43	2.0625e-06	3.3387e-06	279.33	78.709	62.818	17.864	1.8455e-06	25.689	0.00022524	0.00022926	2.946e-05	1066.9	2.7895e-06	8.4502e-07	1146.7	221.81	2.3797e-06	1.8708e-06	278.4	79.218	62.672	18.05	1.8777e-06	26.101	90.725	-15.351	31.697	-76.687	59.427	54.214	-76.778	-69.395	24.817	73.181	-69.967	-63.497	-62.945	-55.471	61.788	-56.286	-8191	255	
18548.580	1	1	0	0	0.037406	0.1505	0.20072	0.23261	0.061374	0.092448	0.30921	0.14802	0.096727	0.094208	0.22827	0.04581	0.49117	0.15092	0.047719	0.21732	-4.2354	-4.1708	-4.6104	-4.5083	-4.25	-4.8896	-4.4458	-4.4417	-4.725	-4.2875	-4.9313	-4.4667	-4.2542	-4.8833	-4.3354	-4.425	70.235	-14.147	271.510	198.552	197.543	10.837	170.640	272.057	250.636	130.081	270.183	142.698	260.260	254.051	-83.921	193.289	0.00018611	0.00029936	9.082e-05	1080.4	1.4786e-06	1.9337e-06	1158.7	222.14	2.2079e-06	3.1243e-06	279.88	78.583	62.512	18.038	3.6811e-06	25.777	0.00022131	0.00017224	3.7563e-05	1067.6	2.9654e-06	1.2108e-06	1146.2	221.78	2.0186e-06	2.2003e-06	278.64	79.205	62.652	18.133	2.0806e-06	26.09	91.524	-19.774	14.682	-76.635	68.268	72.573	-76.621	-69.408	17.722	67.043	-69.472	-63.069	-62.845	-55.937	54.653	-56.391	-8191	255	
18548.676	1	1	0	0	0.18197	0.12054	0.097391	0.38937	0.19374	0.19363	0.14932	0.098546	0.069778	0.053122	0.10929	0.19326	0.097575	0.1027	0.11633	0.12885	-4.3688	-4.1917	-4.6792	-4.6188	-4.0854	-4.7188	-4.5458	-4.5833	-4.8854	-4.1729	-4.5563	-4.6813	-4.2042	-4.9938	-4.5208	-4.5042	95.757	-43.217	199.876	241.844	219.056	-15.044	-85.283	169.375	180.201	257.675	267.360	253.165	87.944	234.182	-42.426	241.377	0.00016487	0.00030087	8.4013e-05	1083.4	2.5615e-06	2.7656e-06	1159.4	222.42	2.2694e-06	4.0535e-06	280.06	79.252	62.521	17.955	2.4047e-06	26.002	0.00021408	0.0001767	3.9296e-05	1069	3.0331e-06	7.9807e-07	1144.8	221.49	2.0667e-06	2.0826e-06	278.4	79.345	62.595	18.082	1.7831e-06	26.117	96.556	1.510	6.765	-76.656	60.302	57.873	-76.683	-69.483	14.616	71.626	-69.597	-63.574	-63.234	-55.906	59.204	-56.425	-8191	255	
18548.795	1	1	0	0	0.097795	0.11638	0.13142	0.34311	0.049994	0.24694	0.37688	0.14549	0.040992	0.1486	0.17158	0.35458	0.23525	0.16505	0.055686	0.12963	-4.4625	-4.2479	-4.5729	-4.6646	-4.3875	-4.8	-4.6667	-4.4437	-4.8271	-4.4146	-4.6208	-4.6833	-4.0979	-4.5667	-4.4854	-4.475	262.515	-81.355	-31.030	221.023	1.448	45.749	204.376	225.375	167.844	-1.779	125.084	248.337	229.721	131.967	38.386	4.119	0.00016235	0.00034927	0.00010289	1083.3	3.8788e-06	1.9954e-06	1156.6	224.05	2.4505e-06	3.2072e-06	278.45	78.491	62.548	17.862	3.2326e-06	25.608	0.00020166	0.0001691	4.96e-05	1068.1	3.2064e-06	1.5081e-06	1145.2	222.39	2.2654e-06	1.9022e-06	278.24	79.178	62.719	18.077	1.7496e-06	26.067	92.988	4.584	-0.508	-76.713	46.914	68.208	-76.707	-69.628	26.372	46.238	-69.736	-63.608	-63.163	-55.675	67.336	-56.127	-8191	255	
18548.867	1	1	0	0	0.13763	0.070964	0.040122	0.19586	0.29148	0.11182	0.12657	0.27528	0.1332	0.13205	0.226	0.096893	0.2277	0.14361	0.19575	0.34769	-4.4042	-4.4896	-4.4563	-4.9646	-4.2042	-4.7979	-4.9479	-4.4	-4.7833	-4.2937	-4.4479	-4.9187	-4.3375	-4.7438	-4.6021	-4.2625	112.084	-2.168	263.454	109.964	93.258	-59.370	223.093	209.116	90.845	145.050	217.629	172.876	256.467	149.451	91.510	171.573	0.00017501	0.00029924	9.6867e-05	1081.9	1.7128e-06	2.785e-06	1155	222.82	9.8807e-07	3.7383e-06	280.47	79.046	62.241	17.893	3.9615e-06	25.806	0.0002196	0.00018695	5.7234e-05	1066.6	3.0123e-06	1.3027e-06	1145	222.19	2.3421e-06	1.708e-06	279.09	79.518	62.67	18.093	1.6489e-06	26.096	97.907	0.278	-9.419	-76.648	67.229	56.996	-76.657	-69.777	-17.953	61.954	-69.819	-63.490	-63.402	-55.683	65.030	-56.392	-8191	255	
18548.963	1	1	0	0	0.037987	0.11549	0.19421	0.1501	0.15448	0.13261	0.15999	0.27967	0.26761	0.078321	0.067753	0.14309	0.19396	0.15836	0.022152	0.43999	-4.3417	-4.3917	-4.2229	-4.8375	-4.275	-4.5375	-4.6	-4.2063	-4.775	-4.4563	-4.4833	-4.8771	-4.1188	-4.4083	-4.6146	-4.2083	230.253	-63.291	48.765	268.160	4.382	223.879	182.114	171.391	205.616	172.483	252.620	120.547	-24.973	162.804	142.807	209.668	0.00017339	0.00018383	5.6971e-05	1083.1	2.0218e-06	2.5408e-06	1156.7	223.03	2.1064e-06	4.5659e-06	280.82	78.325	61.837	17.938	3.7674e-06	25.799	0.00021225	0.00012628	4.5713e-05	1067.3	2.7791e-06	1.1032e-06	1146.7	221.42	1.864e-06	1.7708e-06	279.05	79.109	62.559	18.117	1.7633e-06	26.117	92.355	-7.072	12.390	-76.513	53.259	53.690	-76.899	-69.407	21.617	78.191	-69.253	-63.498	-62.974	-55.299	43.851	-56.155	-8191	255	
18549.061	1	1	0	0	0.15999	0.18901	0.083827	0.38102	0.14226	0.14693	0.19042	0.32687	0.052316	0.21811	0.16271	0.17591	0.12359	0.061371	0.11963	0.12902	-4.3375	-4.4313	-4.2021	-4.9604	-4.2167	-4.55	-4.8083	-4.2188	-4.7542	-4.5479	-4.2479	-4.9229	-4.2063	-4.4979	-4.7021	-4.0875	250.043	-32.265	242.356	246.962	83.804	25.987	163.834	145.686	-73.891	23.626	229.516	203.102	-35.144	190.676	210.238	2.112	0.00016997	0.00032538	8.4527e-05	1082.8	2.0513e-06	2.8365e-06	1156.4	223.53	2.3793e-06	3.7531e-06	279.25	78.925	61.955	17.908	2.8573e-06	25.736	0.00022496	0.00018116	4.1591e-05	1068.2	3.0983e-06	1.8113e-06	1145.3	221.99	2.4317e-06	1.5237e-06	278.89	79.245	62.453	18.172	1.7343e-06	26.05	88.290	4.777	-9.893	-76.753	15.452	68.553	-76.713	-69.588	8.921	56.377	-69.504	-63.339	-63.198	-55.663	68.036	-55.845	-8191	255	
18549.180	1	1	0	0	0.073994	0.17297	0.34477	0.10746	0.20358	0.23711	0.068633	0.13884	0.27141	0.10243	0.28451	0.044516	0.27858	0.2076	0.19437	0.22287	-4.2667	-4.5354	-4.1875	-5.0042	-4.2896	-4.4938	-4.975	-4.35	-4.6354	-4.5542	-4.1229	-4.7396	-4.175	-4.3104	-4.7271	-4.2292	256.210	257.591	-27.692	198.362	216.102	-14.213	-64.210	210.702	213.303	-77.694	263.320	205.353	194.570	215.804	182.105	218.142	0.00018544	0.00038319	9.1605e-05	1080.8	1.7131e-06	3.3806e-06	1153.9	222.08	1.0251e-06	2.1861e-06	279.66	78.747	62.139	17.792	2.9994e-06	25.813	0.00022763	0.00016381	4.9506e-05	1067.3	2.8142e-06	1.6255e-06	1143.8	221.68	2.3914e-06	1.0844e-06	278.58	79.333	62.491	18.068	1.2569e-06	26.076	84.553	-0.901	7.694	-76.585	46.099	59.354	-76.725	-69.387	21.125	72.681	-69.423	-63.606	-62.929	-55.389	80.891	-56.542	-8191	255	
18549.275	1	1	0	0	0.17959	0.20671	0.083733	0.142	0.054695	0.016536	0.20071	0.17565	0.19027	0.11552	0.17403	0.18587	0.08402	0.20076	0.1744	0.054138	-4.175	-4.9042	-4.2271	-4.8688	-4.5354	-4.3229	-4.9187	-4.2979	-4.5458	-4.7479	-4.1958	-4.7042	-4.4458	-4.3771	-4.65	-4.1417	128.755	158.741	-86.885	193.265	200.416	85.011	238.901	262.626	263.367	36.041	204.355	30.207	20.842	-58.426	87.447	31.202	0.00021077	0.0002166	6.209e-05	1081.4	1.5876e-06	2.128e-06	1158.3	222.69	1.31e-06	1.9795e-06	281.19	78.407	61.684	17.963	1.7461e-06	25.624	0.00023407	0.00014943	3.8125e-05	1067.4	2.5849e-06	1.3575e-06	1144.8	221.62	2.0849e-06	1.4139e-06	279.11	79.37	62.423	18.089	1.4323e-06	26.088	97.387	8.174	29.835	-76.830	65.479	70.135	-76.528	-69.634	-2.185	53.460	-69.518	-63.399	-63.040	-55.914	66.664	-56.225	-8191	255	
18549.371	1	1	0	0	0.027718	0.07614	0.10729	0.40883	0.061473	0.18659	0.090708	0.10882	0.052697	0.10181	0.047052	0.15431	0.064592	0.25102	0.23439	0.15262	-4.1833	-4.7708	-4.1417	-4.8521	-4.4187	-4.1667	-4.9042	-4.4792	-4.525	-4.7708	-4.1604	-4.6667	-4.6229	-4.2292	-4.7646	-4.3958	-26.473	37.075	7.726	254.493	170.842	264.925	246.295	209.089	35.484	143.923	-87.526	241.601	170.933	-69.407	-51.079	-32.438	0.00015023	0.00026845	8.5779e-05	1082.5	2.3171e-06	2.2756e-06	1157.7	223.94	1.2363e-06	3.37e-06	279.48	79.413	62.379	17.907	2.7204e-06	25.83	0.00023407	0.00012992	4.5525e-05	1067.9	2.68e-06	1.5257e-06	1146.3	222.27	2.4824e-06	1.0138e-06	278.5	79.642	62.625	18.131	1.5772e-06	26.083	94.105	-16.208	-2.673	-76.706	60.524	63.214	-76.610	-69.714	70.511	55.852	-69.597	-63.352	-63.201	-55.842	72.876	-56.586	-8191	255	
18549.469	1	1	0	0	0.066751	0.17247	0.10454	0.15639	0.15905	0.30597	0.30547	0.22437	0.11086	0.19377	0.10807	0.077479	0.068827	0.22118	0.26072	0.1684	-4.0062	-4.7604	-4.1813	-4.7458	-4.6333	-4.1979	-4.9625	-4.2729	-4.45	-4.6667	-4.3917	-4.5875	-4.6854	-4.2104	-4.8729	-4.5813	51.472	70.230	209.342	234.674	198.242	92.306	209.569	74.257	-15.071	-44.397	93.059	88.262	213.349	-47.745	84.055	-46.941	0.00018609	0.00031889	9.5448e-05	1082.2	3.0324e-06	2.9001e-06	1161	221.93	3.1967e-06	1.987e-06	277.41	78.585	62.245	17.89	2.8753e-06	25.629	0.00023908	0.00013471	4.7024e-05	1066.5	2.4299e-06	1.649e-06	1147.1	221.44	2.4291e-06	1.0982e-06	277.7	79.279	62.573	18.161	2.0623e-06	26.026	87.286	-14.145	-4.851	-76.458	33.436	51.781	-76.742	-69.238	53.880	76.220	-69.889	-63.216	-62.842	-55.557	53.175	-56.389	-8191	255	
18549.564	1	1	0	0	0.19156	0.12777	0.14256	0.13298	0.073002	0.31664	0.11472	0.206	0.10791	0.22563	0.25748	0.21096	0.28528	0.25698	0.1005	0.027891	-3.8854	-4.8271	-4.2604	-4.6542	-4.725	-4.3375	-4.8917	-4.6021	-4.3167	-4.9417	-4.2854	-4.4917	-4.6396	-4.0396	-4.6229	-4.6521	-33.750	72.905	95.096	-80.913	204.750	60.976	239.014	170.596	120.504	198.022	201.783	271.089	219.026	5.004	-7.628	219.740	0.000168	0.00030008	9.0034e-05	1085.1	2.2954e-06	3.1906e-06	1155.6	222.58	7.7251e-07	2.6603e-06	279.2	78.201	62.272	17.875	2.9585e-06	25.739	0.00025253	0.00013025	4.9413e-05	1068.4	2.6514e-06	2.2045e-06	1144.9	221.54	2.7876e-06	1.3296e-06	278.54	79.225	62.657	18.121	1.8197e-06	26.064	89.678	17.979	1.537	-76.441	51.136	54.053	-76.662	-69.462	13.452	69.072	-69.843	-63.628	-62.638	-55.507	59.319	-55.946	-8191	255	
18549.660	1	1	0	0	0.075382	0.13846	0.157	0.15963	0.12286	0.078976	0.35408	0.10301	0.078206	0.19537	0.23443	0.27382	0.11758	0.068788	0.10503	0.039956	-3.9417	-4.675	-4.2146	-4.5771	-4.9167	-4.1937	-4.8187	-4.6208	-4.1083	-4.8854	-4.4396	-4.2229	-4.6708	-4.2063	-4.5729	-4.7	-53.759	25.446	-64.428	206.175	28.889	-74.885	183.792	252.425	182.516	-74.168	-51.138	-61.893	-76.973	-8.294	111.488	74.958	0.00016021	0.00034006	0.0001157	1085.8	1.6286e-06	2.6798e-06	1158	223.66	1.584e-06	3.1313e-06	277.92	79.145	62.391	17.969	3.6941e-06	25.773	0.00024005	0.00013554	4.2996e-05	1070.8	2.6683e-06	1.9697e-06	1149	222.03	2.6006e-06	8.9618e-07	279.03	79.564	62.735	18.163	2.1401e-06	26.071	102.186	9.130	12.863	-76.886	27.022	60.711	-76.642	-69.737	-13.906	51.933	-69.529	-63.457	-62.785	-55.974	62.500	-56.259	-8191	255	
18549.781	1	1	0	0	0.17733	0.20589	0.12628	0.14021	0.18337	0.13922	0.16194	0.085306	0.13437	0.1659	0.0084898	0.13054	0.11381	0.088585	0.12467	0.1668	-3.8688	-4.7292	-4.5083	-4.4979	-4.7729	-4.2438	-4.7417	-4.7833	-4.1771	-4.7083	-4.6438	-4.3229	-4.6813	-4.2854	-4.5292	-4.7292	-26.115	144.597	25.296	-79.611	18.517	190.631	214.403	73.056	120.446	236.595	44.997	125.994	-9.387	240.093	12.473	254.729	0.0001735	0.00030353	9.7411e-05	1082.1	9.8521e-07	2.1831e-06	1159.5	223.26	1.5144e-06	2.7164e-06	280.82	78.552	62.379	17.822	3.0389e-06	25.65	0.00023931	0.00014265	5.3394e-05	1070.7	2.3243e-06	1.7272e-06	1148.3	222.15	2.3434e-06	1.1492e-06	279.18	79.359	62.641	18.072	2.2224e-06	26.04	81.498	-12.218	22.142	-76.528	36.464	82.496	-76.821	-69.363	-12.117	76.904	-69.756	-63.695	-63.051	-55.449	67.604	-56.278	-8191	255	
18549.875	1	1	0	0	0.090844	0.09334	0.18459	0.31648	0.11749	0.2181	0.055028	0.041702	0.13163	0.053629	0.12926	0.064925	0.06454	0.1092	0.050445	0.0781	-3.8292	-4.8271	-4.4625	-4.5333	-4.8438	-4.3958	-4.6042	-4.6708	-4.2646	-4.6042	-4.7792	-4.4354	-5.0312	-4.5188	-4.5229	-4.9167	28.064	163.072	158.030	222.093	236.328	216.244	21.097	208.565	133.546	171.320	85.268	-80.333	26.745	-16.304	261.131	179.478	0.00017093	0.00027418	7.0555e-05	1090.8	2.6098e-06	3.1713e-06	1163.2	223.23	1.6633e-06	3.6267e-06	281.21	78.996	62.935	17.905	3.1576e-06	25.855	0.00024125	0.00014298	5.1567e-05	1073.7	2.5628e-06	2.848e-06	1151.1	222.14	2.9305e-06	2.4121e-06	279.96	79.431	62.804	18.146	2.2774e-06	26.12	80.805	-17.642	3.636	-76.360	71.371	59.484	-76.538	-69.734	28.604	66.135	-69.712	-63.118	-63.266	-55.651	31.454	-55.929	-8191	255	
18549.971	1	1	0	0	0.061143	0.16069	0.05069	0.18851	0.11684	0.243	0.14081	0.17543	0.14765	0.082036	0.19874	0.15899	0.2014	0.05583	0.24776	0.1226	-3.9958	-4.5979	-4.5146	-4.3375	-4.8292	-4.225	-4.5229	-4.9667	-4.3792	-4.5208	-4.7063	-4.2188	-4.6292	-4.3354	-4.3479	-4.7958	105.696	119.259	198.478	175.786	257.928	40.163	269.448	138.908	98.140	-37.568	199.561	176.459	204.495	-21.047	55.215	-68.487	0.00015992	0.00025366	8.628e-05	1089.2	2.3966e-06	1.9672e-06	1163	224.35	1.0812e-06	4.2926e-06	283.4	78.983	62.353	17.999	1.7652e-06	25.83	0.00025714	0.0001329	4.7399e-05	1075	2.8312e-06	1.5961e-06	1152.4	222.94	2.7447e-06	1.7414e-06	280.93	79.639	62.783	18.198	2.0226e-06	26.163	100.042	18.559	14.635	-76.700	60.742	37.578	-76.517	-69.830	59.213	63.523	-69.865	-63.555	-63.080	-55.573	49.024	-56.359	-8191	255	
18550.066	1	1	0	0	0.10872	0.19206	0.021831	0.18049	0.21292	0.070449	0.10597	0.21649	0.048016	0.23472	0.23363	0.19382	0.072812	0.12989	0.18583	0.14485	-3.7687	-4.4542	-4.6417	-4.3271	-4.6813	-4.3604	-4.4271	-4.8688	-4.2292	-4.5333	-4.6312	-4.1562	-4.6271	-4.6021	-4.2458	-4.8729	71.143	264.260	126.763	212.540	145.283	-36.973	201.382	151.534	53.514	133.053	203.244	-79.273	147.706	269.175	90.405	-34.575	0.00017552	0.00037984	7.0669e-05	1089.6	2.8925e-06	2.9992e-06	1162.9	222.72	2.4183e-06	3.7861e-06	280.7	79.333	62.565	17.906	3.8747e-06	25.856	0.00024034	0.0001562	4.7071e-05	1076.4	2.7243e-06	1.868e-06	1153.4	222.61	2.998e-06	1.659e-06	279.5	79.555	63.071	18.136	2.5107e-06	26.17	86.816	14.811	10.400	-76.609	62.629	70.742	-76.927	-69.663	33.706	75.417	-69.866	-63.738	-63.290	-55.537	41.612	-56.876	-8191	255	
18550.162	1	1	0	0	0.12889	0.054359	0.075207	0.24032	0.089164	0.16858	0.3019	0.19403	0.015551	0.2369	0.22075	0.23936	0.12971	0.22158	0.06938	0.081757	-4.0729	-4.2854	-4.8125	-4.3688	-4.5875	-4.5792	-4.2583	-4.8271	-4.3313	-4.2979	-4.6917	-4.2417	-4.675	-4.7417	-4.1312	-4.7375	25.621	225.519	133.704	195.278	264.412	15.297	172.573	271.195	235.015	50.803	237.093	247.807	175.117	211.208	80.248	35.627	0.00017733	0.00036387	8.0923e-05	1093.3	8.7449e-07	3.2881e-06	1167.6	224.75	3.261e-06	3.7744e-06	282.36	79.067	62.768	18.017	4.0598e-06	25.525	0.00024694	0.00023373	3.9109e-05	1078.9	2.8729e-06	2.2534e-06	1155.3	223.23	3.0721e-06	1.7355e-06	280.74	79.668	63.041	18.25	2.2011e-06	26.09	95.299	4.011	-0.477	-76.613	57.380	59.827	-76.992	-69.389	32.735	52.517	-69.422	-63.318	-63.376	-55.731	55.257	-56.363	-8191	255	
18550.260	1	1	0	0	0.15872	0.065287	0.13253	0.053704	0.13144	0.035122	0.24355	0.11479	0.073112	0.19949	0.19443	0.055678	0.10166	0.13427	0.080657	0.022265	-4.1083	-4.4458	-4.7833	-4.4042	-4.4396	-4.5771	-4.3542	-4.6813	-4.4625	-4.4333	-4.9667	-4.3542	-4.5271	-4.7292	-3.9979	-4.8208	69.144	-67.480	228.555	-34.684	120.051	-24.879	-40.401	-47.838	-62.757	105.429	113.538	-61.659	138.523	-64.076	22.918	-17.591	0.00017322	0.00035255	8.7113e-05	1092.6	1.0944e-06	3.673e-06	1161.3	224.15	1.3603e-06	3.026e-06	281.57	79.046	63.192	18.013	3.6127e-06	25.743	0.00023379	0.00021637	3.5034e-05	1077.8	2.7556e-06	1.8876e-06	1153.3	223.16	2.5785e-06	1.8277e-06	280.27	79.616	63.108	18.191	2.1843e-06	26.115	89.042	3.327	21.986	-76.657	10.856	65.146	-76.924	-69.661	33.369	64.135	-69.631	-63.584	-62.908	-55.819	72.890	-56.430	-8191	255	
18550.355	1	1	0	0	0.14441	0.13524	0.17097	0.074938	0.09234	0.29017	0.047966	0.13509	0.085833	0.10918	0.16915	0.22127	0.079786	0.11951	0.11992	0.092276	-4.1562	-4.3187	-4.8396	-4.4729	-4.4396	-4.7979	-4.2146	-4.6208	-4.6312	-4.2021	-4.75	-4.4146	-4.5667	-4.8688	-4.1687	-4.6687	135.600	78.612	94.019	254.697	231.472	9.161	79.539	58.065	54.543	8.997	228.649	203.761	43.153	238.456	269.014	-69.692	0.00015914	0.00041984	0.00010008	1093.3	2.9852e-06	2.9617e-06	1169	224.76	2.049e-06	3.6064e-06	282.23	79.412	62.8	17.901	2.8183e-06	25.841	0.00023151	0.00022182	4.2481e-05	1078.6	3.0005e-06	1.8328e-06	1156.1	223.06	2.4668e-06	2.0591e-06	280.48	79.83	62.958	18.16	2.3872e-06	26.116	93.483	-0.875	7.761	-76.669	43.983	57.694	-76.618	-69.422	2.489	46.793	-69.616	-63.839	-62.946	-55.959	74.179	-56.601	-8191	255	
18550.477	1	1	0	0	0.041071	0.13543	0.17815	0.25826	0.11841	0.12167	0.13365	0.15561	0.27968	0.079779	0.11804	0.083708	0.15056	0.16993	0.097479	0.11589	-4.2208	-4.1417	-4.7667	-4.4875	-4.4187	-4.7396	-4.3104	-4.675	-4.4688	-4.0687	-5.0458	-4.5271	-4.3917	-4.9375	-4.3292	-4.6208	204.773	27.991	239.591	232.182	133.103	209.061	26.747	241.115	171.076	78.862	233.144	242.574	241.107	182.631	233.408	60.692	0.00021864	0.00038521	8.1932e-05	1093.8	1.7758e-06	2.1934e-06	1171.3	223.75	3.056e-06	3.3373e-06	280.35	78.59	62.387	18.034	2.5827e-06	25.816	0.00024193	0.00024001	3.124e-05	1079.8	2.6214e-06	1.3849e-06	1154.7	222.69	2.3291e-06	2.0787e-06	279.46	79.669	62.848	18.174	2.1904e-06	26.176	78.598	0.889	25.585	-76.594	44.131	79.680	-76.907	-69.397	36.686	58.952	-69.681	-63.045	-62.953	-55.636	31.164	-56.421	-8191	255	
18550.570	1	1	0	0	0.052251	0.21434	0.12281	0.11064	0.10234	0.14556	0.21319	0.19365	0.085942	0.13075	0.097634	0.17699	0.22538	0.10054	0.16614	0.15179	-4.375	-4.0188	-4.7021	-4.5208	-4.1208	-4.8396	-4.3125	-4.6479	-4.7625	-4.1042	-4.6833	-4.5083	-4.1229	-4.9542	-4.4083	-4.475	81.727	-28.049	-43.373	106.392	238.506	168.774	233.753	133.023	18.116	-70.552	8.744	-76.765	-51.224	67.671	263.505	15.628	0.0001854	0.00024652	8.1293e-05	1096.6	1.9194e-06	3.7641e-06	1168.2	224.88	3.5963e-06	2.387e-06	281.91	78.993	63.176	18.12	3.0132e-06	25.682	0.00023629	0.00020463	5.1661e-05	1078.7	2.9328e-06	1.3321e-06	1155.6	223.2	2.559e-06	2.5179e-06	279.95	79.616	63.099	18.238	2.3689e-06	26.119	87.707	-5.383	3.101	-76.668	59.069	81.408	-76.830	-69.459	35.153	40.836	-69.518	-63.565	-63.348	-55.677	46.663	-56.532	-8191	255	
18550.668	1	1	0	0	0.1597	0.18703	0.045733	0.30228	0.22859	0.15004	0.18718	0.080046	0.23431	0.13649	0.21188	0.13112	0.24057	0.16637	0.073053	0.08839	-4.3417	-4.1875	-4.6125	-4.7083	-4.0521	-4.75	-4.5062	-4.4208	-4.7146	-4.2917	-4.7229	-4.6188	-4.2312	-4.8271	-4.3771	-4.4729	-21.351	50.061	140.415	192.144	212.841	177.556	171.721	227.265	204.496	156.786	251.460	253.175	67.101	175.237	162.151	254.064	0.00018372	0.00023355	0.00013711	1092.8	2.6523e-06	3.0658e-06	1168.2	225.17	2.9498e-06	2.7998e-06	281.27	79.311	62.598	18.046	3.0926e-06	25.718	0.00023407	0.00022298	5.227e-05	1078.6	2.8807e-06	1.2382e-06	1154.8	223.76	2.3901e-06	1.7277e-06	280.37	79.813	62.966	18.269	1.9662e-06	26.174	94.801	13.910	6.972	-76.606	51.492	42.964	-76.546	-69.511	28.568	42.107	-69.781	-63.258	-63.259	-55.767	62.544	-56.545	-8191	255	
18550.764	1	1	0	0	0.095947	0.10938	0.0517	0.044802	0.22363	0.14617	0.33054	0.073006	0.098855	0.21602	0.14287	0.27608	0.1483	0.10941	0.28215	0.046301	-4.4458	-4.0854	-4.5479	-4.6208	-4.0958	-4.7083	-4.6875	-4.3042	-4.8229	-4.3271	-4.5312	-4.6937	-4.3562	-4.7438	-4.5125	-4.3292	127.555	136.397	246.768	194.240	-78.925	174.604	226.375	241.099	222.072	269.952	224.832	211.151	227.083	-35.607	-35.660	-51.988	0.00018125	0.00025287	6.4054e-05	1095.4	1.4331e-06	3.3121e-06	1170.5	224.62	2.2182e-06	4.508e-06	281.95	79.001	62.533	17.949	2.6303e-06	25.895	0.00023527	0.00020149	4.4073e-05	1078.4	2.938e-06	1.6548e-06	1155.1	223.29	2.2083e-06	2.0846e-06	280.83	79.659	63.031	18.182	1.9586e-06	26.162	89.582	22.367	19.445	-76.690	46.907	76.411	-77.006	-69.587	-7.639	81.227	-69.664	-63.251	-63.473	-55.706	70.636	-56.997	-8191	255	
18550.859	1	1	0	0	0.18039	0.14296	0.052225	0.19151	0.22618	0.15185	0.37586	0.43116	0.24878	0.10985	0.13242	0.10008	0.14684	0.13943	0.13195	0.36819	-4.5312	-4.2708	-4.5146	-4.8271	-4.1708	-4.7896	-4.6729	-4.2875	-4.8458	-4.4646	-4.6771	-4.7188	-4.3208	-4.7	-4.5062	-4.1917	-38.990	173.083	-28.455	247.343	-10.693	266.135	237.169	257.463	87.551	3.127	-48.875	150.936	212.613	148.227	17.665	160.258	0.0001639	0.00025944	0.00010387	1093.6	2.1026e-06	2.7829e-06	1168.5	223.59	1.9604e-06	3.1183e-06	280.78	79	62.838	18.195	3.4532e-06	25.686	0.00020126	0.0002005	4.3137e-05	1077.2	3.1882e-06	1.3458e-06	1154.4	222.9	2.2771e-06	2.0375e-06	279.97	79.681	63.122	18.25	1.896e-06	26.155	84.367	-2.126	2.202	-76.986	66.958	85.445	-76.723	-69.455	11.992	88.117	-69.786	-63.416	-62.951	-56.028	70.154	-55.853	-8191	255	
18550.955	1	1	0	0	0.084279	0.12079	0.16544	0.18605	0.029	0.20169	0.090791	0.1404	0.11339	0.0181	0.12157	0.04927	0.12461	0.060287	0.12213	0.06393	-4.3958	-4.4812	-4.5563	-4.9625	-4.1021	-4.6687	-4.7042	-4.1479	-4.7896	-4.3958	-4.3417	-4.9229	-4.1813	-4.6458	-4.6792	-4.2042	197.741	39.052	109.628	-35.924	146.760	-47.151	-73.826	228.483	23.555	26.650	243.930	125.031	141.082	-68.261	-14.682	221.696	0.00017006	0.00030422	6.9908e-05	1091.6	1.8363e-06	2.634e-06	1167.7	223.85	2.5776e-06	3.5049e-06	281.55	78.691	62.386	17.984	3.1577e-06	25.863	0.00023737	0.0001691	4.8897e-05	1077.2	3.0631e-06	1.6235e-06	1154.3	222.66	2.242e-06	1.5708e-06	280.35	79.595	62.9	18.212	1.6047e-06	26.168	99.238	-21.748	0.979	-76.512	68.172	40.068	-76.731	-69.530	34.025	44.276	-69.706	-63.407	-63.266	-55.473	53.203	-56.018	-8191	255	
18551.051	1	1	0	0	0.069414	0.080615	0.081033	0.028538	0.007239	0.23837	0.13023	0.058772	0.11543	0.26682	0.22537	0.25489	0.14979	0.15196	0.15657	0.081612	-4.4896	-4.5188	-4.2542	-4.9875	-4.3625	-4.7646	-4.9667	-4.4313	-4.7646	-4.6479	-4.4729	-4.7063	-4.3083	-4.4083	-4.6937	-4.3396	256.206	247.340	21.234	-27.973	226.403	211.454	114.168	137.269	175.237	165.723	183.063	-66.853	194.729	247.780	244.850	126.074	0.00015983	0.00031968	5.7067e-05	1091.4	2.9237e-06	2.3795e-06	1160.6	224.97	2.6732e-06	2.9923e-06	281.38	79.474	63.224	18.071	3.4448e-06	25.636	0.00023373	0.00017356	4.1357e-05	1076.8	3.1569e-06	1.8798e-06	1153.5	223.44	2.2576e-06	1.6022e-06	280.69	80.084	63.075	18.254	1.6947e-06	26.148	88.376	-5.610	22.340	-76.844	63.867	53.759	-76.666	-69.448	56.440	54.437	-69.688	-63.506	-62.824	-55.880	55.805	-56.153	-8191	255	
18551.172	1	1	0	0	0.18318	0.0814	0.081733	0.040831	0.13875	0.28987	0.029392	0.15253	0.23345	0.21127	0.098801	0.2043	0.18098	0.29626	0.046493	0.18512	-4.3917	-4.5188	-4.2042	-4.9833	-4.3812	-4.3708	-4.85	-4.2125	-4.6479	-4.6104	-4.1896	-4.9958	-4.4792	-4.4833	-4.7312	-4.4021	28.689	-84.951	-79.328	189.939	74.969	2.923	-48.500	235.366	105.438	130.363	228.232	35.977	247.539	258.707	261.741	229.603	0.00015292	0.00027168	6.7498e-05	1090.8	1.0025e-06	2.0604e-06	1169.5	224.49	2.3491e-06	3.0713e-06	281.51	78.943	62.259	18.144	3.4331e-06	25.666	0.00023749	0.00020249	4.8429e-05	1078.8	2.8729e-06	1.7194e-06	1154	223.38	2.1654e-06	1.2198e-06	280.71	79.935	62.993	18.277	1.4369e-06	26.19	90.272	-14.658	16.261	-76.560	97.210	72.950	-76.792	-69.421	27.424	72.761	-69.651	-63.154	-63.236	-55.717	45.773	-56.555	-8191	255	
18551.266	1	1	0	0	0.069594	0.023529	0.1606	0.34484	0.077069	0.085849	0.43448	0.32975	0.075695	0.12013	0.064783	0.2188	0.1929	0.1033	0.055897	0.041647	-4.2792	-4.5604	-4.2271	-4.7292	-4.4042	-4.3729	-5.1708	-4.3042	-4.65	-4.7021	-4.2312	-4.8042	-4.4938	-4.2125	-4.7688	-4.3271	-17.562	253.314	75.553	224.803	44.455	77.048	176.986	243.222	134.350	-33.084	252.606	206.546	-50.586	227.865	66.851	203.617	0.00018435	0.00020492	0.00011095	1090.8	1.0876e-06	2.7718e-06	1168	223.36	2.9444e-06	3.4726e-06	281.32	79.079	62.409	18.018	3.3836e-06	25.851	0.00022775	0.00012976	6.1356e-05	1079.6	2.8676e-06	1.958e-06	1155	223.06	2.6434e-06	1.3296e-06	280.19	79.867	63.12	18.27	1.8548e-06	26.139	97.065	-29.051	4.832	-76.791	56.544	73.631	-76.812	-69.582	31.972	45.666	-69.662	-63.533	-63.226	-56.170	43.695	-56.341	-8191	255	
18551.363	1	1	0	0	0.2276	0.24368	0.056032	0.19894	0.13035	0.14439	0.2953	0.20687	0.057778	0.14314	0.2218	0.067308	0.037665	0.060286	0.12131	0.094291	-4.2458	-4.6937	-4.1583	-4.9062	-4.425	-4.2063	-4.9458	-4.4062	-4.4187	-4.8646	-4.2646	-4.6458	-4.6667	-4.1562	-4.7625	-4.4229	13.421	175.595	-9.537	214.941	-52.442	-14.995	261.664	165.339	182.422	34.660	238.259	59.336	171.532	261.146	-63.627	110.152	0.00017179	0.00023024	8.4348e-05	1093.2	2.8537e-06	2.5069e-06	1168	224.02	8.2858e-07	3.4595e-06	279.6	79.146	63.126	18.055	3.609e-06	25.901	0.00025093	0.00016513	5.0818e-05	1078.1	2.7243e-06	1.9169e-06	1154.2	223.1	2.5148e-06	1.1943e-06	280.3	80.068	63.221	18.296	1.8243e-06	26.198	85.089	1.322	14.862	-76.668	55.951	74.202	-76.598	-69.375	17.486	59.065	-69.997	-63.084	-63.106	-55.843	43.830	-56.677	-8191	255	
18551.459	1	1	0	0	0.13581	0.16629	0.13129	0.10344	0.16092	0.10697	0.25489	0.14583	0.13855	0.38845	0.053899	0.059858	0.14752	0.15877	0.15819	0.11458	-4.0604	-4.7458	-4.0375	-4.7188	-4.5854	-4.1521	-4.8896	-4.5354	-4.5271	-4.9354	-4.3812	-4.6375	-4.8042	-4.4083	-4.7375	-4.4708	168.321	106.194	-76.888	-85.139	148.663	257.906	142.279	222.169	-49.925	127.287	-72.949	123.740	269.007	0.373	230.177	220.625	0.00019842	0.00026718	9.2785e-05	1093.9	1.8113e-06	2.6344e-06	1166.1	223.95	2.8775e-06	2.6556e-06	282.01	78.993	63.553	18.124	2.7146e-06	25.869	0.00023048	0.00013075	5.8874e-05	1080.4	2.4885e-06	2.3707e-06	1155.2	223.13	2.7383e-06	1.3413e-06	281.25	79.959	63.346	18.301	1.6672e-06	26.213	90.597	-13.141	19.689	-76.669	61.048	57.114	-76.629	-69.621	21.098	81.956	-69.673	-63.345	-63.723	-55.981	57.187	-56.650	-8191	255	
18551.555	1	1	0	0	0.1517	0.1409	0.15481	0.21947	0.1359	0.12034	0.073333	0.10699	0.043716	0.29338	0.083323	0.13095	0.23658	0.21291	0.26021	0.085015	-4.1083	-4.7771	-4.4	-4.8354	-4.6438	-4.3042	-4.8708	-4.6146	-4.3729	-4.8667	-4.4021	-4.4313	-4.9625	-4.0771	-4.725	-4.5833	140.005	96.213	233.610	229.449	64.471	132.799	174.955	99.559	-5.453	45.558	71.723	67.740	20.837	224.105	-85.583	12.870	0.00020097	0.00034827	6.9744e-05	1092.9	1.8675e-06	4.3656e-06	1166.5	224.97	2.3556e-06	3.5622e-06	281.4	78.829	62.906	18.209	3.9601e-06	25.715	0.00024102	0.000141	5.0209e-05	1077.5	2.3986e-06	1.8504e-06	1155.1	223.82	2.7889e-06	1.1119e-06	280.45	79.813	63.108	18.344	1.893e-06	26.158	93.785	15.118	12.635	-76.766	38.908	59.898	-76.733	-69.647	28.659	59.181	-69.564	-63.655	-63.331	-55.825	38.637	-56.269	-8191	255	
18551.650	1	1	0	0	0.15403	0.044077	0.061197	0.31398	0.097725	0.11537	0.26816	0.073367	0.24224	0.043955	0.16983	0.23463	0.14575	0.25702	0.22372	0.0488	-3.9062	-4.8271	-4.3417	-4.5062	-4.7625	-4.2604	-4.7771	-4.7458	-4.1813	-4.8875	-4.5854	-4.3833	-4.8833	-4.2604	-4.6458	-4.6375	-49.354	30.280	6.557	179.808	252.956	153.173	150.400	93.802	-37.293	-86.428	145.097	254.156	-64.815	97.968	227.856	142.848	0.00018229	0.000331	9.915e-05	1095	1.7193e-06	3.1322e-06	1164.4	223.17	2.6476e-06	3.1823e-06	282.04	79.73	62.852	18.22	3.6304e-06	25.984	0.00024022	0.00015554	4.1544e-05	1079	2.4103e-06	2.2338e-06	1155.9	223.2	2.5343e-06	8.6677e-07	280.72	79.92	63.153	18.331	1.774e-06	26.307	90.479	11.029	8.009	-76.615	92.382	71.654	-76.936	-69.655	12.544	68.448	-69.332	-63.221	-63.235	-55.788	68.640	-56.735	-8191	255	
18551.771	1	1	0	0	0.13959	0.31063	0.14059	0.17728	0.1116	0.18265	0.095214	0.23959	0.12492	0.13796	0.20977	0.11166	0.14562	0.074751	0.17622	0.24771	-3.9521	-4.7396	-4.4042	-4.4771	-4.8021	-4.35	-4.7333	-4.725	-4.1438	-4.8729	-4.5625	-4.4187	-4.7167	-4.425	-4.625	-4.7042	-32.788	-40.732	-32.615	246.479	187.156	196.479	269.947	267.643	-21.363	-41.195	-66.620	139.310	139.822	-23.469	102.163	244.902	0.0001491	0.00024294	0.00010105	1092.1	1.8675e-06	3.2051e-06	1170.2	225.18	1.3745e-06	3.2494e-06	281.03	79.595	62.744	18.043	2.0181e-06	26.01	0.00025697	0.00015405	5.4565e-05	1078	2.3256e-06	1.5433e-06	1157.2	223.68	2.9708e-06	1.2139e-06	281.06	79.958	63.181	18.319	2.0516e-06	26.236	80.451	10.405	3.346	-76.482	84.408	50.081	-76.693	-69.576	29.538	50.079	-69.711	-63.413	-62.892	-55.802	61.645	-56.148	-8191	255	
18551.867	1	1	0	0	0.037899	0.11841	0.063937	0.10978	0.096067	0.18824	0.25768	0.15724	0.039576	0.052538	0.2953	0.10886	0.084779	0.24861	0.30867	0.22546	-3.7375	-4.575	-4.6208	-4.3646	-4.7562	-4.3479	-4.5542	-4.8063	-4.1958	-4.6917	-4.6917	-4.3146	-4.8938	-4.2375	-4.4729	-4.7375	16.662	252.169	-86.040	149.517	23.071	-12.704	-47.641	214.834	246.854	134.948	228.104	-59.704	-10.417	108.481	180.626	95.489	0.00018789	0.00038583	9.4085e-05	1091	1.9321e-06	3.2954e-06	1168.2	224.53	1.313e-06	2.5092e-06	282.28	79.252	63.063	18.053	2.6782e-06	25.88	0.00027264	0.00017967	4.0701e-05	1077.6	2.4924e-06	1.6959e-06	1154.4	223.71	2.8383e-06	9.1187e-07	281.35	79.996	63.303	18.282	1.9708e-06	26.194	93.525	-3.886	2.776	-76.644	69.876	53.571	-76.771	-69.385	53.228	57.376	-69.816	-63.201	-63.483	-55.851	78.603	-56.525	-8191	255	
18551.965	1	1	0	0	0.16863	0.20878	0.030915	0.10533	0.20537	0.21352	0.18114	0.36267	0.088779	0.19179	0.027193	0.024092	0.08823	0.25001	0.20259	0.23302	-3.9146	-4.7583	-4.7	-4.4208	-4.7875	-4.4292	-4.7146	-4.9062	-4.3833	-4.7896	-4.7438	-4.3271	-4.8167	-4.4708	-4.2979	-4.9583	145.792	-52.126	-66.845	194.903	225.328	235.683	260.351	187.650	218.304	80.488	61.216	99.994	222.845	-9.418	223.777	177.666	0.00016093	0.00027853	9.4441e-05	1098.4	3.0209e-06	3.9086e-06	1167.9	224.73	2.114e-06	1.6846e-06	283.6	79.691	62.92	18.199	2.9366e-06	25.576	0.00024558	0.00020265	4.2012e-05	1081.9	2.6383e-06	2.0304e-06	1156	223.81	2.5759e-06	1.5061e-06	281.32	80.071	63.329	18.391	2.3567e-06	26.154	89.628	7.682	-0.573	-76.728	41.354	69.126	-76.613	-69.628	-34.322	91.191	-69.590	-63.883	-63.564	-55.623	50.854	-56.506	-8191	255	
18552.035	1	1	0	0	0.094474	0.25675	0.021018	0.11948	0.12636	0.089532	0.14323	0.055046	0.08926	0.14446	0.25389	0.14059	0.13156	0.30866	0.085075	0.14107	-3.9771	-4.6333	-4.6771	-4.2438	-4.6625	-4.5021	-4.5583	-4.8854	-4.4354	-4.3854	-4.8146	-4.2646	-4.5938	-4.6188	-4.4604	-4.8313	-68.371	26.789	209.772	120.809	-1.309	47.832	209.027	108.450	104.321	30.858	-87.150	-46.467	-79.011	248.715	77.083	140.083	0.00017817	0.0002834	6.4048e-05	1095.4	2.5894e-06	3.4538e-06	1172.1	223.96	1.6962e-06	3.1893e-06	283.29	78.714	62.97	18.114	2.1089e-06	25.728	0.00024774	0.0001605	3.6298e-05	1082	2.6396e-06	1.6118e-06	1158.1	223.35	2.6343e-06	1.5923e-06	280.71	79.945	63.343	18.305	2.2407e-06	26.137	96.103	13.485	1.046	-76.717	62.683	35.367	-76.852	-69.426	61.629	53.153	-69.453	-63.461	-63.287	-55.747	58.606	-56.311	-8191	255	
18552.133	1	1	0	0	0.18995	0.28954	0.12873	0.22458	0.17077	0.19516	0.10433	0.14012	0.042861	0.18995	0.071565	0.14525	0.078154	0.1747	0.086348	0.1295	-3.9708	-4.45	-4.7125	-4.4271	-4.6833	-4.7646	-4.4479	-4.9083	-4.3979	-4.3479	-4.9125	-4.2333	-4.6667	-4.5188	-4.3396	-4.8417	206.572	213.976	240.591	26.436	166.445	67.746	180.594	251.461	197.174	200.298	-7.247	245.260	253.144	-53.285	101.202	242.956	0.00017534	0.00032781	8.3072e-05	1098.6	2.1828e-06	3.3645e-06	1170.2	224.85	1.8584e-06	3.4124e-06	283.92	79.199	62.994	18.178	3.7544e-06	26.009	0.00023071	0.00018844	4.3324e-05	1080.9	2.6462e-06	1.3966e-06	1157	223.89	2.7681e-06	1.9218e-06	281.69	80.162	63.386	18.394	2.5016e-06	26.179	94.225	10.208	13.372	-76.646	67.423	51.606	-76.874	-69.621	42.298	59.196	-69.535	-63.649	-62.962	-55.647	59.212	-56.441	-8191	255	
18552.252	1	1	0	0	0.14374	0.22089	0.098262	0.38123	0.14797	0.072097	0.18481	0.33802	0.041179	0.087405	0.20171	0.13437	0.093095	0.12241	0.049066	0.19701	-4.1625	-4.3063	-4.7792	-4.25	-4.6896	-4.6937	-4.3729	-4.8958	-4.4708	-4.3833	-4.8833	-4.1083	-4.6542	-4.8333	-4.0771	-4.8354	-83.807	73.076	46.374	200.021	118.829	225.380	203.357	240.580	217.419	-42.472	-36.069	197.227	263.254	30.441	-4.279	220.990	0.00018055	0.00035594	8.4546e-05	1098.1	2.0621e-06	2.2001e-06	1168.1	224.22	1.7917e-06	3.7749e-06	282.37	79.415	63.111	18.225	2.5805e-06	25.874	0.00024808	0.00017224	3.2224e-05	1082.4	2.7817e-06	1.3771e-06	1155.3	223.6	2.4122e-06	2.1807e-06	281.5	80.072	63.422	18.382	2.1401e-06	26.228	82.476	-2.833	10.416	-76.796	51.861	49.720	-76.683	-69.389	32.378	69.187	-69.618	-63.306	-63.685	-55.858	48.881	-56.277	-8191	255	
18552.348	1	1	0	0	0.10871	0.24389	0.050618	0.15797	0.23498	0.19545	0.21508	0.15303	0.15655	0.077093	0.23321	0.067465	0.082271	0.091551	0.30727	0.064958	-4.2021	-4.2125	-4.9417	-4.5542	-4.5583	-4.8125	-4.3604	-4.8771	-4.5417	-4.5083	-4.9146	-4.4875	-4.4875	-4.7833	-4.1	-4.7417	268.037	246.835	83.883	252.420	-43.273	149.126	183.857	244.657	197.285	77.468	240.375	51.933	-15.198	24.473	85.576	236.273	0.00017801	0.00037333	8.1954e-05	1095.8	3.0644e-06	3.9056e-06	1172.3	225.82	1.3172e-06	1.8839e-06	281.54	79.362	62.786	18.274	2.4685e-06	25.894	0.00023606	0.00020397	3.4659e-05	1080.8	2.7074e-06	1.0445e-06	1158.2	223.83	2.407e-06	1.8081e-06	281.35	80.052	63.208	18.378	2.0653e-06	26.204	84.065	8.354	11.072	-76.554	71.704	70.472	-76.721	-69.602	40.742	62.735	-69.701	-63.267	-63.190	-55.832	60.107	-56.223	-8191	255	
18552.443	1	1	0	0	0.1862	0.20832	0.219	0.25254	0.44636	0.11375	0.35978	0.21529	0.10528	0.16751	0.20152	0.19227	0.079774	0.17438	0.18239	0.1027	-4.3187	-4.2917	-4.9083	-4.5771	-4.5938	-4.8438	-4.3021	-4.7104	-4.6979	-4.2667	-5.0458	-4.45	-4.3	-4.8083	-4.2396	-4.6729	227.316	-45.882	171.871	258.883	197.320	-29.551	228.646	230.718	223.490	75.401	-81.806	128.672	11.312	263.459	86.417	254.181	0.00016747	0.00027941	7.4645e-05	1095.3	3.0067e-06	3.0145e-06	1168	224.74	1.4315e-06	2.7445e-06	282.84	79.041	62.939	18.162	3.1756e-06	25.805	0.00022051	0.00019389	2.6228e-05	1081.8	2.7856e-06	1.0465e-06	1155.2	224.36	2.2213e-06	2.2061e-06	281.22	79.931	63.145	18.35	2.3796e-06	26.229	92.256	3.294	-13.253	-76.777	62.208	44.697	-76.886	-69.566	-40.803	78.705	-69.579	-63.101	-63.038	-55.779	60.691	-56.756	-8191	255	
18552.564	1	1	0	0	0.20525	0.11427	0.11619	0.12946	0.17201	0.096597	0.2504	0.29155	0.25386	0.020015	0.19127	0.20664	0.10007	0.23651	0.22551	0.096034	-4.4563	-4.1458	-4.8688	-4.7063	-4.4479	-4.8875	-4.4833	-4.6625	-4.9167	-4.1958	-4.7521	-4.6729	-4.3458	-4.8521	-4.2792	-4.5854	-44.764	254.753	15.967	-20.399	1.232	95.297	192.726	239.658	-61.955	6.312	-64.692	219.968	143.594	-3.087	139.198	165.484	0.0001688	0.00036614	0.00011034	1096.7	1.6719e-06	3.6688e-06	1170.1	224.8	2.7979e-06	2.8611e-06	281.57	80.115	63.035	18.124	2.5919e-06	25.815	0.00023082	0.00025505	4.4729e-05	1082.1	2.6931e-06	1.3223e-06	1157.4	223.76	2.381e-06	1.8512e-06	280.99	80.346	63.238	18.289	2.1691e-06	26.271	96.582	1.260	10.174	-76.802	61.225	68.045	-76.468	-69.356	50.685	95.219	-69.716	-63.540	-62.929	-55.702	51.728	-56.229	-8191	255	
18552.635	1	1	0	0	0.04845	0.059872	0.17717	0.17197	0.14373	0.083429	0.27623	0.051378	0.19166	0.20383	0.13731	0.077128	0.20871	0.19183	0.11507	0.36929	-4.4854	-4.1917	-4.6979	-4.7479	-4.2688	-4.8417	-4.3812	-4.4875	-4.7458	-4.2875	-4.7354	-4.5396	-4.2562	-4.6958	-4.4375	-4.3562	194.629	144.781	89.957	266.510	99.123	186.932	237.271	234.568	81.927	-43.543	-32.130	144.183	-43.303	178.772	46.321	165.068	0.00019504	0.00034318	7.2997e-05	1094.7	2.2856e-06	3.3037e-06	1173.3	225.27	1.4743e-06	2.7945e-06	282.49	79.402	63.105	18.057	3.3196e-06	25.996	0.00021806	0.00024662	4.22e-05	1081.1	2.9875e-06	1.1815e-06	1158.1	223.93	2.5148e-06	2.0473e-06	281.45	80.092	63.504	18.344	2.2377e-06	26.235	94.568	12.741	-17.007	-76.692	92.226	62.150	-76.673	-69.640	63.493	48.477	-69.476	-63.376	-62.730	-55.604	82.557	-56.602	-8191	255	
18552.730	1	1	0	0	0.13236	0.22776	0.11132	0.069153	0.037513	0.083608	0.31479	0.12887	0.27742	0.11075	0.15458	0.15199	0.28012	0.11684	0.094416	0.17779	-4.5771	-4.2958	-4.5563	-4.9292	-4.0792	-4.7937	-4.5542	-4.3375	-4.8625	-4.3271	-4.675	-4.5854	-4.3271	-4.8125	-4.4771	-4.325	204.638	261.490	226.985	196.645	233.922	224.140	236.996	-56.334	181.114	111.359	256.855	245.631	225.529	-86.833	-29.447	189.819	0.00015263	0.00038349	9.623e-05	1092.7	1.3854e-06	3.1633e-06	1177	224.86	2.3881e-06	3.1949e-06	282.38	79.125	63.32	18.168	2.4285e-06	26.009	0.00023988	0.00026546	5.611e-05	1080	3.1243e-06	1.1502e-06	1161	223.78	2.3823e-06	1.8041e-06	281.29	79.995	63.466	18.389	2.2438e-06	26.256	81.807	-5.254	3.843	-76.751	61.352	62.029	-77.017	-69.343	21.571	69.013	-69.595	-62.652	-63.301	-55.938	40.083	-56.400	-8191	255	
18552.852	1	1	0	0	0.15725	0.098303	0.051048	0.16658	0.15289	0.020832	0.23198	0.23016	0.084154	0.06374	0.095636	0.15782	0.15857	0.0915	0.12349	0.026085	-4.5417	-4.2667	-4.5437	-4.875	-4.1958	-4.8521	-4.7979	-4.3333	-4.7917	-4.4667	-4.6417	-4.9896	-4.2542	-4.7125	-4.5813	-4.2542	98.510	-41.623	10.666	264.903	237.895	233.791	186.187	245.347	-81.375	-42.232	17.700	259.315	-48.679	18.036	197.567	250.007	0.00024599	0.00036182	6.9103e-05	1095.7	2.5447e-06	2.9353e-06	1172.2	224.02	1.5402e-06	3.2071e-06	283.22	79.646	62.979	18.22	2.1656e-06	25.86	0.00023749	0.00018315	4.1638e-05	1081.7	3.011e-06	1.6137e-06	1157.9	223.8	2.3784e-06	1.8865e-06	281.88	79.968	63.324	18.353	1.9631e-06	26.22	98.508	3.899	5.936	-76.823	66.158	62.200	-76.829	-69.450	-13.837	74.998	-69.739	-63.411	-63.248	-55.774	61.284	-56.209	-8191	255	
18552.947	1	1	0	0	0.19093	0.038477	0.21603	0.15897	0.12241	0.26019	0.15527	0.13574	0.084149	0.028684	0.068996	0.048927	0.11372	0.043589	0.052125	0.0891	-4.4896	-4.3562	-4.4062	-4.9333	-4.2083	-4.6125	-4.8104	-4.225	-4.8083	-4.4688	-4.625	-4.8187	-4.3292	-4.7208	-4.6687	-4.3896	188.754	-78.510	154.225	244.615	-54.390	71.487	145.363	194.605	201.960	170.059	-25.653	-62.513	-29.906	167.754	52.911	62.427	0.00015394	0.00031879	0.00010325	1098.3	1.9903e-06	3.2715e-06	1171.5	224.47	2.5498e-06	2.9323e-06	284.53	79.495	63.134	18.337	3.6817e-06	25.756	0.00023031	0.00015984	5.6625e-05	1083.5	3.097e-06	1.9091e-06	1157.7	223.84	2.3213e-06	1.7806e-06	281.99	80.017	63.299	18.401	1.5254e-06	26.26	91.930	0.981	12.357	-76.860	62.976	59.192	-76.632	-69.526	33.573	73.315	-69.533	-63.608	-63.309	-55.826	81.068	-56.319	-8191	255	
18553.045	1	1	0	0	0.20994	0.26624	0.054365	0.203	0.15382	0.18647	0.13594	0.25618	0.15	0.11657	0.077714	0.23863	0.24161	0.015133	0.21131	0.15779	-4.4875	-4.3646	-4.3375	-4.9	-4.2479	-4.5042	-4.7021	-4.2604	-4.7312	-4.5917	-4.2937	-4.8646	-4.4062	-4.5	-4.8104	-4.3063	-26.805	129.464	188.673	244.160	200.965	100.550	212.100	229.504	141.911	81.339	90.312	155.591	-80.344	251.786	89.564	-61.683	0.00020609	0.00026313	5.2433e-05	1098.4	2.3418e-06	2.8556e-06	1178.5	226.23	2.7909e-06	3.3265e-06	281.78	79.347	63.273	18.159	2.4357e-06	25.74	0.00023156	0.00014248	4.8242e-05	1082.1	2.994e-06	1.604e-06	1158.9	224.45	2.4161e-06	1.8316e-06	281.37	80.202	63.363	18.379	1.5193e-06	26.193	83.608	-5.197	-8.208	-76.772	61.630	49.528	-76.794	-69.652	18.208	75.730	-69.800	-63.643	-62.909	-55.842	72.743	-56.641	-8191	255	
18553.162	1	1	0	0	0.11985	0.14016	0.12319	0.14698	0.14216	0.161	0.28817	0.046829	0.15057	0.12284	0.17328	0.069135	0.15008	0.04457	0.0505	0.072098	-4.425	-4.4146	-4.3417	-4.9604	-4.2979	-4.5458	-4.9104	-4.3771	-4.6792	-4.65	-4.3313	-4.8458	-4.3938	-4.4792	-4.7021	-4.1813	133.591	68.197	76.232	33.318	227.755	180.577	134.695	3.432	95.883	209.459	230.443	-52.817	-77.093	183.275	104.557	152.372	0.00020218	0.00027317	5.8954e-05	1099.4	1.8596e-06	3.8442e-06	1171.3	224.89	1.8677e-06	1.6743e-06	280.73	80.316	63.006	18.221	3.838e-06	25.959	0.0002216	0.00013339	5.4377e-05	1084.3	2.9002e-06	1.7683e-06	1158.2	223.95	2.394e-06	1.5276e-06	280.85	80.593	63.247	18.411	1.7908e-06	26.287	83.315	18.220	1.979	-76.981	23.230	74.555	-76.794	-69.477	6.468	64.984	-69.640	-63.513	-63.345	-55.897	64.261	-56.698	-8191	255	
18553.234	1	1	0	0	0.094084	0.050354	0.2779	0.28954	0.15594	0.15015	0.22067	0.052929	0.15826	0.072967	0.22815	0.12367	0.11601	0.10071	0.068187	0.13695	-4.3271	-4.6687	-4.225	-4.9313	-4.5188	-4.525	-4.9896	-4.2854	-4.6083	-4.7979	-4.3229	-4.7125	-4.5146	-4.4	-4.9729	-4.5	11.202	172.159	143.613	237.798	192.103	-37.050	225.235	148.683	263.920	-74.010	-51.956	172.923	-26.491	-57.205	-50.239	223.630	0.00016671	0.00032742	7.5198e-05	1099.1	2.7894e-06	2.7317e-06	1169.9	225.04	2.527e-06	3.6991e-06	283.31	79.431	63.357	18.078	2.5257e-06	25.88	0.00023698	0.00018265	5.9108e-05	1084.1	2.809e-06	1.8328e-06	1157.8	224.11	2.6512e-06	1.4963e-06	282.17	80.136	63.415	18.399	1.9433e-06	26.241	95.216	-11.558	25.519	-76.746	62.891	41.751	-76.697	-69.427	23.244	81.848	-69.717	-63.171	-63.394	-55.903	26.489	-56.583	-8191	255	
18553.330	1	1	0	0	0.026559	0.095163	0.038451	0.1682	0.077098	0.082934	0.22051	0.1121	0.19915	0.12856	0.12018	0.053818	0.13597	0.074679	0.026941	0.16348	-4.1917	-4.5521	-4.1667	-4.7896	-4.6917	-4.3438	-4.9688	-4.3104	-4.5312	-4.7792	-4.1667	-4.8396	-4.7521	-4.2063	-4.8125	-4.4729	-14.135	56.600	188.030	250.501	19.083	231.679	205.531	133.994	240.239	102.540	-87.006	21.027	128.006	-38.398	-67.107	200.923	0.00016159	0.00035036	7.9099e-05	1101.7	1.2847e-06	3.2278e-06	1173.4	225.74	6.8268e-07	2.5995e-06	282.48	79.329	63.024	18.142	3.5496e-06	25.879	0.00025686	0.00018959	5.6157e-05	1085.9	2.7113e-06	2.1556e-06	1160.2	224.59	2.5044e-06	1.2649e-06	281.67	80.159	63.54	18.403	1.7191e-06	26.261	90.355	-6.234	15.723	-76.874	5.861	73.614	-76.836	-69.356	10.615	50.648	-69.896	-63.494	-63.062	-55.562	46.937	-56.102	-8191	255	
18553.451	1	1	0	0	0.25458	0.16384	0.029742	0.25553	0.036541	0.096297	0.32247	0.074844	0.13731	0.080227	0.067746	0.031892	0.13134	0.099265	0.068526	0.1358	-4.0667	-4.8542	-4.1479	-4.6937	-4.6833	-4.1229	-4.8646	-4.4688	-4.4396	-4.7562	-4.35	-4.6167	-4.8354	-4.1521	-4.7375	-4.5396	54.117	131.557	240.132	271.636	-0.337	42.857	224.062	222.779	171.546	208.626	35.396	-76.111	116.105	190.676	68.337	148.621	0.00018973	0.00023672	7.7238e-05	1102.7	1.5567e-06	3.6791e-06	1175.1	225.38	1.2589e-06	5.1166e-06	283.04	79.528	62.973	18.302	3.3712e-06	25.801	0.00024489	0.00011819	5.0303e-05	1087.5	3.0071e-06	2.2769e-06	1161.5	224.39	2.7603e-06	1.5688e-06	282.1	80.28	63.451	18.413	1.742e-06	26.25	91.474	0.393	-5.780	-76.714	60.383	68.205	-76.569	-69.630	7.750	53.978	-69.795	-63.961	-63.320	-55.867	43.973	-56.862	-8191	255	
18553.549	1	1	0	0	0.06111	0.097823	0.24257	0.18294	0.1779	0.17506	0.043069	0.36454	0.066608	0.14241	0.24524	0.066519	0.13598	0.066401	0.23158	0.2749	-3.9479	-4.9229	-4.3021	-4.7063	-4.7479	-4.3979	-4.9271	-4.4958	-4.2479	-4.9917	-4.5458	-4.5938	-4.9563	-4.2854	-4.7188	-4.5979	23.809	-66.024	195.042	-78.998	191.995	228.649	98.795	-56.217	-20.803	-18.285	170.227	175.577	232.083	133.739	185.158	159.441	0.00017669	0.00027676	9.4127e-05	1100.1	1.5956e-06	3.6386e-06	1178.8	226.28	2.2906e-06	2.6276e-06	282.44	79.526	63.323	18.273	3.7887e-06	25.905	0.00026164	0.00016662	5.0209e-05	1085.4	2.9185e-06	2.3668e-06	1161	224.58	2.7473e-06	1.3825e-06	281.99	80.145	63.44	18.397	1.7343e-06	26.271	83.283	-0.586	9.693	-76.865	103.199	74.827	-76.737	-69.520	15.114	77.830	-69.845	-63.266	-63.104	-55.842	87.108	-56.680	-8191	255	
18553.645	1	1	0	0	0.10369	0.093178	0.14788	0.10963	0.18821	0.034955	0.13284	0.27236	0.081389	0.14254	0.12961	0.19936	0.15676	0.17402	0.058756	0.079884	-3.7771	-4.7729	-4.2729	-4.6208	-4.6604	-4.1604	-4.8917	-4.7167	-4.1271	-4.95	-4.6771	-4.3375	-4.8	-4.3417	-4.5312	-4.7438	-27.376	164.412	109.106	211.480	248.281	-8.010	233.452	216.868	-67.007	113.035	247.911	184.842	76.393	-83.156	98.848	261.985	0.00017566	0.00022653	8.4776e-05	1102.3	2.3076e-06	3.3836e-06	1173.6	226.39	3.2297e-06	3.2287e-06	282.68	79.92	63.157	18.283	2.6109e-06	25.92	0.00023766	0.00015885	5.2879e-05	1086.3	2.6944e-06	2.5859e-06	1160.9	224.69	3.0253e-06	1.4413e-06	281.9	80.424	63.557	18.437	1.9265e-06	26.296	99.635	-1.880	-13.063	-76.705	68.560	67.230	-76.708	-69.499	26.931	73.076	-69.768	-63.435	-63.334	-55.757	52.168	-56.645	-8191	255	
18553.740	1	1	0	0	0.1432	0.13474	0.1189	0.28205	0.26157	0.10691	0.18017	0.15472	0.21642	0.16445	0.20646	0.02423	0.26574	0.11776	0.13753	0.18996	-3.8438	-4.7208	-4.2917	-4.4854	-5.0146	-4.3313	-4.7271	-4.7729	-4.2979	-4.8833	-4.5437	-4.55	-4.8792	-4.3313	-4.5125	-4.7458	0.751	47.281	222.925	244.658	-47.226	46.457	161.976	197.838	261.145	95.946	252.463	37.145	-47.564	241.413	21.970	138.338	0.0001547	0.00033717	6.9157e-05	1102	2.0697e-06	3.3006e-06	1170	226.63	8.6145e-07	2.8002e-06	283.28	79.688	62.645	18.181	1.7209e-06	25.926	0.00025572	0.00013802	4.8195e-05	1087.6	3.1269e-06	1.9678e-06	1159.6	225.11	2.3797e-06	1.3237e-06	281.89	80.184	63.288	18.421	2.0638e-06	26.218	91.893	-0.869	23.641	-76.778	47.971	72.785	-76.877	-69.624	3.840	59.138	-69.849	-63.507	-63.115	-55.700	84.749	-56.273	-8191	255	
18553.836	1	1	0	0	0.083447	0.17421	0.249	0.10436	0.22888	0.10096	0.20475	0.079917	0.096678	0.28068	0.087322	0.12289	0.043899	0.1393	0.060182	0.18246	-4.0958	-4.7708	-4.4417	-4.4875	-4.8333	-4.5729	-4.7604	-4.8458	-4.1542	-4.9062	-4.6937	-4.4458	-4.9437	-4.3375	-4.3438	-4.7688	198.665	-10.591	201.471	228.031	272.292	-61.163	240.651	104.558	77.668	-3.012	-24.929	-45.800	-74.609	235.685	169.277	-54.461	0.00016403	0.00029868	6.814e-05	1098.7	3.345e-06	2.8802e-06	1176.1	225.08	3.2679e-06	4.1216e-06	282.16	79.885	62.89	18.143	2.0701e-06	25.806	0.00026426	0.00018067	4.7399e-05	1085.3	2.6709e-06	1.5492e-06	1160.2	224.17	2.8785e-06	1.6178e-06	281.76	80.19	63.398	18.371	2.2301e-06	26.268	89.550	3.512	13.279	-76.876	37.133	69.159	-76.568	-69.604	26.728	65.702	-69.623	-63.380	-62.938	-55.543	50.494	-56.668	-8191	255	
18553.932	1	1	0	0	0.28956	0.18145	0.17094	0.41628	0.049287	0.15685	0.075921	0.15892	0.070374	0.072112	0.19849	0.27849	0.14808	0.036516	0.059181	0.18111	-3.9854	-4.8417	-4.6583	-4.4771	-4.7958	-4.4271	-4.5875	-4.9625	-4.1646	-4.6667	-4.6813	-4.2333	-4.8521	-4.5792	-4.3292	-5.0271	-12.867	188.440	107.103	232.915	126.821	-58.907	46.673	215.059	209.420	193.274	239.214	-65.892	9.244	47.987	166.330	66.183	0.00018494	0.00030316	7.9204e-05	1098.3	5.472e-07	1.6989e-06	1172	226.29	1.6191e-06	4.0328e-06	282.58	79.551	63.485	18.181	2.8407e-06	25.845	0.00025657	0.00016397	4.2293e-05	1086	2.5133e-06	1.6783e-06	1161.7	224.63	2.7837e-06	1.8257e-06	281.99	80.293	63.5	18.416	2.0119e-06	26.224	82.758	-5.111	5.723	-76.787	48.889	84.129	-76.860	-69.535	2.373	79.877	-69.756	-63.592	-63.282	-55.579	54.467	-56.464	-8191	255	
18554.029	1	1	0	0	0.04081	0.067483	0.12454	0.18891	0.052284	0.18506	0.16798	0.10318	0.11466	0.25454	0.14959	0.14015	0.087518	0.084365	0.089534	0.080865	-3.8292	-4.4667	-4.7375	-4.3313	-4.55	-4.5167	-4.4354	-4.9979	-4.3625	-4.5437	-4.9271	-4.2458	-4.9042	-4.6479	-4.2937	-4.95	164.785	174.815	98.033	235.410	149.257	238.527	171.500	194.451	28.724	78.619	80.156	9.638	27.956	268.307	122.921	242.836	0.00018654	0.00034645	7.3787e-05	1101.9	6.6887e-07	4.5535e-06	1170.3	223.91	1.9137e-06	3.0609e-06	283.56	80.216	63.179	18.198	3.8436e-06	25.945	0.00026295	0.0001767	3.8453e-05	1087.3	2.7387e-06	1.737e-06	1160	224.5	2.5265e-06	1.561e-06	282.66	80.479	63.451	18.44	2.1401e-06	26.298	95.312	-3.504	15.174	-76.905	39.024	58.034	-76.616	-69.584	19.259	76.891	-69.905	-63.363	-62.648	-55.636	63.051	-56.582	-8191	255	
18554.125	1	1	0	0	0.14076	0.091508	0.057468	0.33451	0.03568	0.16213	0.26145	0.28144	0.18725	0.11373	0.092258	0.02652	0.12321	0.045782	0.18841	0.16356	-3.9229	-4.7167	-4.9396	-4.2667	-4.7188	-4.5104	-4.2917	-4.9479	-4.4854	-4.3854	-5.0292	-4.2646	-4.7729	-4.6	-4.1708	-4.9958	258.090	-15.261	108.673	260.616	224.131	262.491	218.107	162.397	2.708	172.360	134.696	105.000	254.578	127.852	176.987	48.493	0.00019726	0.00023342	6.1282e-05	1103	2.7529e-06	2.2016e-06	1173.6	224.84	3.0007e-06	3.253e-06	282.13	79.274	63.121	18.209	2.7376e-06	25.962	0.00023379	0.00020629	3.8687e-05	1086.3	2.8572e-06	1.5003e-06	1159.9	224.2	2.7032e-06	2.161e-06	282.32	80.186	63.41	18.418	2.3597e-06	26.278	96.143	-4.215	5.241	-76.641	53.893	64.920	-76.814	-69.356	40.016	50.551	-69.832	-63.374	-63.003	-55.251	40.025	-56.526	-8191	255	
18554.244	1	1	0	0	0.16329	0.20358	0.087838	0.3382	0.12059	0.14151	0.11276	0.2564	0.24646	0.20149	0.21071	0.11446	0.16265	0.12226	0.11631	0.16855	-4.2729	-4.4375	-4.9625	-4.5292	-4.5	-4.6	-4.5396	-4.8271	-4.4167	-4.3229	-4.7792	-4.2562	-4.6	-4.7917	-4.075	-4.8896	186.438	159.390	66.694	196.936	119.452	255.874	-45.500	266.384	175.335	67.442	-49.298	2.830	214.893	-57.266	257.118	56.916	0.00017894	0.00025335	0.00010324	1101.6	2.2809e-06	2.5632e-06	1173.2	225.65	1.3638e-06	3.7205e-06	283.18	80.033	63.452	18.292	2.48e-06	25.838	0.00024216	0.00016943	4.9881e-05	1086	2.6175e-06	1.3712e-06	1160.1	224.84	2.5239e-06	2.3081e-06	282.49	80.377	63.519	18.431	2.0958e-06	26.263	92.912	5.983	-1.097	-76.809	45.937	54.412	-76.940	-69.652	0.554	75.677	-69.616	-63.298	-62.964	-55.755	37.072	-56.429	-8191	255	
18554.340	1	1	0	0	0.047162	0.14983	0.14127	0.13534	0.086916	0.10463	0.19949	0.079748	0.063192	0.018433	0.32428	0.064041	0.2796	0.15787	0.090043	0.13911	-4.25	-4.3854	-4.8833	-4.3833	-4.4271	-4.8333	-4.3375	-4.8604	-4.5771	-4.2708	-4.9771	-4.4167	-4.3729	-4.7188	-4.2271	-4.7542	-83.580	-46.448	18.917	123.728	-66.610	264.906	265.639	16.970	79.836	164.725	165.401	44.522	181.454	-51.747	71.074	226.379	0.00016566	0.00041507	9.4862e-05	1096.1	2.2036e-06	1.4598e-06	1171.4	226.2	7.0383e-07	3.2203e-06	283.17	79.57	62.61	18.166	2.6777e-06	25.808	0.00024518	0.0001886	4.2106e-05	1085.6	2.7452e-06	1.5375e-06	1158.3	224.51	2.2368e-06	2.0022e-06	281.86	80.166	63.269	18.375	2.2957e-06	26.238	84.739	7.663	1.283	-76.481	70.631	57.073	-76.863	-69.413	0.021	73.819	-69.683	-63.131	-63.294	-56.203	70.851	-56.538	-8191	255	
18554.436	1	1	0	0	0.38354	0.24208	0.031688	0.29155	0.086617	0.19169	0.20215	0.2517	0.15525	0.10238	0.17861	0.052893	0.23314	0.085748	0.31391	0.089608	-4.3063	-4.1854	-4.6396	-4.5229	-4.4646	-4.9292	-4.4083	-4.8521	-4.6271	-4.2396	-4.8271	-4.6396	-4.4313	-4.8417	-4.275	-4.8229	2.248	-11.740	-60.413	230.842	260.164	78.040	212.161	158.248	117.074	232.901	-67.251	14.177	-11.652	234.884	72.740	22.125	0.00019841	0.00034239	7.4758e-05	1098.7	1.1007e-06	2.5214e-06	1169.3	225.18	2.3514e-06	3.4065e-06	282.8	79.296	63.716	18.045	3.1229e-06	25.819	0.00024216	0.00019406	3.85e-05	1085.6	2.7869e-06	7.746e-07	1158	224.43	2.3654e-06	2.2356e-06	282.25	79.961	63.339	18.287	2.3902e-06	26.207	100.115	-5.468	-2.720	-76.589	10.815	65.720	-76.573	-69.651	1.807	68.558	-69.965	-63.450	-63.325	-56.186	36.729	-56.228	-8191	255	
#DATA ENDS
