BOXY.EXE: ISS Imagent and Oximeter Data Acquisition Program Version 0.80
Ascii Record File

#ACQ INFORMATION
2  Detector Channels 
16  External MUX Channels 
1  Auxiliary Channels 
5000  Waveform (CCF) Frequency (Hz)
1  Waveforms Skipped 
30  Waveforms Averaged 
1  Cycles Averaged 
16  Acquisitions per Waveform 
10.0806  Updata Rate (Hz) 

#FILE INFORMATION
TRUE -- External MUX Channel results are PARSED.
FALSE -- AC DC and Phase are NOT grouped.
TRUE -- Companion Program Settings File CREATED.
FALSE -- AC data not excluded
FALSE -- DC data not excluded
FALSE -- Phase data not excluded
FALSE -- Auxillary Chn. data not excluded
Tab delimiters

#CALIBRATION STATE
TRUE -- Waveform Calibration Values APPLIED.


#AUX CALIBRATION VALUES
Val Type	aux-1	

Term	1.0000e+00	
Factor	0.0000e+00	


#WF CALIBRATION VALUES
A = Detector Channel
Val Type	A-AC1	A-AC2	A-AC3	A-AC4	A-AC5	A-AC6	A-AC7	A-AC8	A-AC9	A-AC10	A-AC11	A-AC12	A-AC13	A-AC14	A-AC15	A-AC16	A-DC1	A-DC2	A-DC3	A-DC4	A-DC5	A-DC6	A-DC7	A-DC8	A-DC9	A-DC10	A-DC11	A-DC12	A-DC13	A-DC14	A-DC15	A-DC16	A-Ph1	A-Ph2	A-Ph3	A-Ph4	A-Ph5	A-Ph6	A-Ph7	A-Ph8	A-Ph9	A-Ph10	A-Ph11	A-Ph12	A-Ph13	A-Ph14	A-Ph15	A-Ph16	

Term	0.00000e+00	0.00000e+00	0.00000e+00	0.00000e+00	0.00000e+00	0.00000e+00	0.00000e+00	0.00000e+00	0.00000e+00	0.00000e+00	0.00000e+00	0.00000e+00	0.00000e+00	0.00000e+00	0.00000e+00	0.00000e+00	0.00000e+00	0.00000e+00	0.00000e+00	0.00000e+00	0.00000e+00	0.00000e+00	0.00000e+00	0.00000e+00	0.00000e+00	0.00000e+00	0.00000e+00	0.00000e+00	0.00000e+00	0.00000e+00	0.00000e+00	0.00000e+00	0.00000e+00	0.00000e+00	0.00000e+00	0.00000e+00	0.00000e+00	0.00000e+00	0.00000e+00	0.00000e+00	0.00000e+00	0.00000e+00	0.00000e+00	0.00000e+00	0.00000e+00	0.00000e+00	0.00000e+00	0.00000e+00	
Factor	1.00000e+00	1.00000e+00	1.00000e+00	1.00000e+00	1.00000e+00	1.00000e+00	1.00000e+00	1.00000e+00	1.00000e+00	1.00000e+00	1.00000e+00	1.00000e+00	1.00000e+00	1.00000e+00	1.00000e+00	1.00000e+00	1.00000e+00	1.00000e+00	1.00000e+00	1.00000e+00	1.00000e+00	1.00000e+00	1.00000e+00	1.00000e+00	1.00000e+00	1.00000e+00	1.00000e+00	1.00000e+00	1.00000e+00	1.00000e+00	1.00000e+00	1.00000e+00	X	X	X	X	X	X	X	X	X	X	X	X	X	X	X	X	

B = Detector Channel
Val Type	B-AC1	B-AC2	B-AC3	B-AC4	B-AC5	B-AC6	B-AC7	B-AC8	B-AC9	B-AC10	B-AC11	B-AC12	B-AC13	B-AC14	B-AC15	B-AC16	B-DC1	B-DC2	B-DC3	B-DC4	B-DC5	B-DC6	B-DC7	B-DC8	B-DC9	B-DC10	B-DC11	B-DC12	B-DC13	B-DC14	B-DC15	B-DC16	B-Ph1	B-Ph2	B-Ph3	B-Ph4	B-Ph5	B-Ph6	B-Ph7	B-Ph8	B-Ph9	B-Ph10	B-Ph11	B-Ph12	B-Ph13	B-Ph14	B-Ph15	B-Ph16	

Term	0.00000e+00	0.00000e+00	0.00000e+00	0.00000e+00	0.00000e+00	0.00000e+00	0.00000e+00	0.00000e+00	0.00000e+00	0.00000e+00	0.00000e+00	0.00000e+00	0.00000e+00	0.00000e+00	0.00000e+00	0.00000e+00	0.00000e+00	0.00000e+00	0.00000e+00	0.00000e+00	0.00000e+00	0.00000e+00	0.00000e+00	0.00000e+00	0.00000e+00	0.00000e+00	0.00000e+00	0.00000e+00	0.00000e+00	0.00000e+00	0.00000e+00	0.00000e+00	-2.04314e+02	-1.42203e+02	-1.28168e+02	-1.83188e+02	-8.07192e+01	-9.55538e+01	-1.57235e+02	-1.62015e+02	-9.38696e+01	-7.87754e+01	-1.72586e+02	-1.73078e+02	-1.80462e+02	-1.78286e+02	-1.03677e+02	-1.51187e+02	
Factor	5.12228e-05	5.56067e-05	1.88345e-05	1.95333e-01	6.11813e-07	6.20629e-07	2.43410e-01	8.63391e-02	5.78950e-07	5.10576e-07	1.23214e-01	4.08652e-02	3.29490e-02	1.20693e-02	4.99769e-07	1.77148e-02	2.19044e-07	2.19549e-07	6.10483e-08	8.04949e-02	2.40446e-09	2.40050e-09	9.18355e-02	3.25942e-02	2.40413e-09	2.39780e-09	4.31712e-02	1.43532e-02	1.21673e-02	4.38651e-03	2.40139e-09	6.00466e-03	X	X	X	X	X	X	X	X	X	X	X	X	X	X	X	X	



#DISTANCE SETTINGS
A = Detector Channel
A-1	A-2	A-3	A-4	A-5	A-6	A-7	A-8	A-9	A-10	A-11	A-12	A-13	A-14	A-15	A-16	

2.5000e+00	3.0000e+00	2.5000e+00	3.0000e+00	2.0000e+00	3.0000e+00	1.5000e+00	3.0000e+00	3.0000e+00	3.0000e+00	3.0000e+00	3.0000e+00	3.0000e+00	3.0000e+00	1.5000e+00	3.0000e+00	

B = Detector Channel
B-1	B-2	B-3	B-4	B-5	B-6	B-7	B-8	B-9	B-10	B-11	B-12	B-13	B-14	B-15	B-16	

1.0000e+01	1.0000e+01	1.0000e+01	1.4400e+00	1.0000e+01	1.0000e+01	1.5100e+00	1.9400e+00	1.0000e+01	1.0000e+01	1.9900e+00	2.4900e+00	2.4100e+00	2.9000e+00	1.0000e+01	2.9800e+00	




#DATA BEGINS
time	group	step	mark	flag	A-AC1	A-AC2	A-AC3	A-AC4	A-AC5	A-AC6	A-AC7	A-AC8	A-AC9	A-AC10	A-AC11	A-AC12	A-AC13	A-AC14	A-AC15	A-AC16	A-DC1	A-DC2	A-DC3	A-DC4	A-DC5	A-DC6	A-DC7	A-DC8	A-DC9	A-DC10	A-DC11	A-DC12	A-DC13	A-DC14	A-DC15	A-DC16	A-Ph1	A-Ph2	A-Ph3	A-Ph4	A-Ph5	A-Ph6	A-Ph7	A-Ph8	A-Ph9	A-Ph10	A-Ph11	A-Ph12	A-Ph13	A-Ph14	A-Ph15	A-Ph16	B-AC1	B-AC2	B-AC3	B-AC4	B-AC5	B-AC6	B-AC7	B-AC8	B-AC9	B-AC10	B-AC11	B-AC12	B-AC13	B-AC14	B-AC15	B-AC16	B-DC1	B-DC2	B-DC3	B-DC4	B-DC5	B-DC6	B-DC7	B-DC8	B-DC9	B-DC10	B-DC11	B-DC12	B-DC13	B-DC14	B-DC15	B-DC16	B-Ph1	B-Ph2	B-Ph3	B-Ph4	B-Ph5	B-Ph6	B-Ph7	B-Ph8	B-Ph9	B-Ph10	B-Ph11	B-Ph12	B-Ph13	B-Ph14	B-Ph15	B-Ph16	aux-1	digaux	

2688.492	1	1	0	256	0.1815	0.19682	0.17937	0.23103	0.063925	0.23251	0.16337	0.059212	0.095198	0.15572	0.29009	0.25693	0.17193	0.096594	0.17794	0.11614	-3.4854	-4.2042	-3.7396	-4.2396	-4.2396	-3.7375	-4.4833	-4.1062	-3.875	-4.5	-3.875	-4.1833	-4.1854	-3.85	-4.2188	-4.1604	206.345	205.964	276.405	-43.831	107.923	-47.232	-40.969	295.130	81.137	125.027	250.372	241.415	261.487	264.036	195.402	290.108	0.00067844	0.00025314	9.1006e-05	942.42	2.8315e-06	2.2995e-06	1083	554.18	1.5087e-06	2.8036e-06	647.43	270.07	256.22	71.115	1.843e-06	92.979	2.5248e-05	1.8865e-05	5.3967e-06	805.34	2.2592e-07	2.1081e-07	901.09	436.56	2.2505e-07	1.929e-07	484.4	204.48	195.62	53.997	2.1655e-07	67.774	76.149	19.866	43.134	-43.795	72.104	45.312	-45.545	-38.705	40.615	77.804	-41.631	-38.067	-34.939	-29.731	77.995	-33.381	-8191	255	
2688.563	1	1	0	0	0.07723	0.076093	0.028413	0.18202	0.26012	0.1668	0.16947	0.079929	0.068575	0.12894	0.10126	0.11721	0.086952	0.25761	0.20395	0.16244	-3.4188	-4.3438	-3.7062	-4.1604	-4.0417	-3.6167	-4.3521	-4.2125	-3.8083	-4.3354	-4.0167	-4.2417	-4.5875	-3.6188	-4.3313	-4.0938	-8.000	242.135	240.804	214.651	101.580	54.843	290.969	149.819	203.758	53.104	197.371	284.165	271.988	240.333	44.013	236.146	0.00063509	0.00026601	5.2376e-05	1005.2	2.1707e-06	2.3862e-06	1184.2	603	1.498e-06	2.1269e-06	696.15	274.97	263.34	64.82	1.202e-06	86.464	2.3385e-05	1.7812e-05	5.5643e-06	860.37	2.1487e-07	1.9924e-07	984.95	475.39	2.2061e-07	1.9098e-07	521.4	207.84	201.35	49.166	2.2529e-07	62.656	74.783	24.397	30.370	-43.916	63.106	71.639	-45.878	-39.034	60.295	54.161	-42.030	-38.391	-35.391	-29.884	47.637	-33.518	-8191	255	
2688.684	1	1	0	0	0.12679	0.27055	0.19054	0.15077	0.15373	0.14709	0.14812	0.030177	0.10462	0.045391	0.1406	0.16615	0.084388	0.2912	0.090304	0.07182	-3.3146	-4.1896	-3.9042	-3.9729	-4.4396	-3.7292	-4.2583	-4.1771	-3.5604	-4.3542	-4.0521	-4.1312	-4.3979	-3.8875	-4.1229	-4.2417	159.792	271.561	76.305	245.270	251.756	120.287	216.828	268.627	194.435	45.366	205.497	52.304	223.345	-41.270	45.859	123.239	0.00063601	0.00026429	7.5946e-05	1172.1	2.5364e-06	2.6492e-06	1365.7	665.75	1.2336e-06	2.5309e-06	740.69	280.76	267.67	62.934	8.2766e-07	84.887	2.2384e-05	1.7585e-05	5.9102e-06	1005.7	2.0869e-07	2.0071e-07	1131	523.16	2.1296e-07	1.9988e-07	555.93	211.42	204.35	47.873	2.4489e-07	61.778	74.555	19.780	49.296	-44.027	82.945	82.559	-46.191	-39.783	85.416	109.524	-42.411	-38.711	-35.735	-29.946	89.129	-33.790	-8191	255	
2688.780	1	1	0	0	0.23518	0.18587	0.14096	0.19179	0.20385	0.095239	0.18475	0.21863	0.11783	0.086075	0.39751	0.24536	0.1699	0.17287	0.20511	0.20329	-3.2938	-4.1083	-3.7625	-3.8917	-4.2958	-3.5729	-4.2396	-4.2729	-3.3958	-4.2667	-4.0396	-4.0958	-4.5333	-3.8812	-4.05	-4.2604	235.216	244.669	157.043	290.168	124.860	-17.718	261.605	201.844	-10.476	257.991	268.992	277.278	-14.400	235.380	52.604	184.658	0.00055285	0.00020662	9.1774e-05	1247.6	2.4436e-06	1.6827e-06	1419.6	687.94	2.3839e-06	2.016e-06	759.39	283.22	272.39	62.769	2.0304e-06	85.645	2.2373e-05	1.9529e-05	6.2464e-06	1065.6	2.1415e-07	2.2428e-07	1180.1	540.59	2.228e-07	2.2389e-07	568.74	213.67	207.18	47.616	2.4961e-07	62.193	65.912	38.024	51.241	-44.302	65.086	44.910	-46.167	-39.926	54.185	72.933	-42.670	-39.012	-35.820	-30.310	43.507	-33.551	-8191	255	
2688.876	1	1	0	0	0.028293	0.13552	0.07967	0.036453	0.10202	0.20351	0.19654	0.0087569	0.051922	0.063689	0.32682	0.13186	0.066908	0.19792	0.11871	0.17797	-3.4917	-4.0729	-3.9437	-3.9333	-4.1583	-3.9333	-3.9875	-4.4646	-3.5708	-4.0188	-4.2146	-3.8271	-4.4812	-3.8625	-3.7167	-4.5146	51.067	46.945	130.377	285.026	140.068	-51.747	5.016	185.294	104.632	237.096	280.751	209.141	-46.375	-14.369	101.940	94.673	0.00055049	0.00025528	7.5139e-05	1258.3	2.5971e-06	2.1484e-06	1418.5	689.92	1.4562e-06	2.2451e-06	763.22	285.12	273	63.341	1.4454e-06	86.671	2.274e-05	2.0991e-05	6.0164e-06	1072.2	2.0457e-07	2.3315e-07	1178.4	542.38	2.0779e-07	2.2915e-07	571.06	214.91	208.01	47.973	2.14e-07	62.835	83.556	17.142	36.118	-44.292	110.513	69.170	-46.368	-39.992	56.871	92.294	-42.622	-39.124	-35.970	-30.195	48.013	-33.627	-8191	255	
2688.972	1	1	0	0	0.26527	0.053361	0.074536	0.047658	0.066484	0.20044	0.24638	0.15644	0.24677	0.20514	0.12753	0.33958	0.092181	0.28879	0.039976	0.022821	-3.0542	-4.1792	-4.1375	-3.8896	-4.25	-3.9146	-3.9062	-4.4229	-3.9083	-4.1208	-4.3208	-3.7771	-4.3979	-4.1167	-3.7333	-4.4	1.344	182.438	-7.993	208.738	70.557	131.872	278.674	286.078	95.814	280.577	276.653	239.235	262.724	284.378	49.613	-30.049	0.00057109	0.00017818	8.2532e-05	1245.4	2.1194e-06	3.3398e-06	1407.3	690.37	1.1869e-06	2.1185e-06	765.38	285.04	272.19	63.306	1.4283e-06	86.9	2.0967e-05	2.0277e-05	5.2109e-06	1062.9	1.9029e-07	2.2094e-07	1168	541.62	2.0055e-07	2.1504e-07	572.11	215.13	208.04	48.184	2.0276e-07	63.105	70.197	29.779	30.748	-44.332	103.312	94.669	-46.345	-40.019	82.820	67.064	-42.553	-38.680	-36.041	-30.273	67.868	-33.527	-8191	255	
2689.093	1	1	0	0	0.067873	0.031735	0.10305	0.26651	0.084625	0.19386	0.18532	0.21495	0.13812	0.091976	0.20089	0.044233	0.22488	0.24244	0.20391	0.35386	-3.4708	-3.8375	-4.1875	-3.6125	-4.1813	-3.8708	-3.8917	-4.3729	-3.7667	-3.8542	-4.4146	-3.7521	-4.4333	-4.0771	-3.5292	-4.3021	200.603	-15.983	131.053	254.163	56.332	119.669	227.072	272.821	-54.554	-29.076	-37.981	98.657	294.618	218.399	227.580	225.001	0.00054874	0.00024953	6.8397e-05	1221.2	1.6864e-06	2.6036e-06	1388.1	682.12	1.2829e-06	1.6595e-06	761.27	284.32	272.26	63.652	1.6775e-06	86.704	2.1731e-05	1.9546e-05	4.9307e-06	1042.7	2.0197e-07	2.0582e-07	1151.5	537.11	2.0507e-07	1.9804e-07	568.21	214.15	207.8	48.337	1.8427e-07	62.785	78.990	20.309	30.967	-44.376	83.515	76.909	-46.238	-40.117	84.418	73.268	-42.507	-38.823	-35.911	-30.295	62.119	-33.565	-8191	255	
2689.189	1	1	0	0	0.030472	0.038378	0.096378	0.25576	0.11612	0.15354	0.15593	0.26488	0.17615	0.16113	0.27686	0.32292	0.3573	0.26386	0.24458	0.069183	-3.5	-3.9	-4.1458	-3.6771	-4.1792	-4	-3.7062	-4.4896	-3.85	-3.8667	-4.3458	-3.7104	-4.3292	-4.1021	-3.5229	-4.3104	-50.192	60.192	-56.661	258.617	195.915	234.132	104.007	-52.380	140.565	201.103	205.645	259.555	-17.694	269.762	75.047	274.386	0.0005679	0.00025153	0.00010106	1215.6	2.728e-06	2.6221e-06	1374.4	681.13	1.2762e-06	2.4662e-06	754.8	282.78	270.39	63.003	1.8056e-06	86.458	2.1158e-05	1.7245e-05	4.4054e-06	1036	1.9652e-07	1.8365e-07	1140.1	533.9	1.9956e-07	1.8048e-07	564.75	212.6	206.37	47.793	1.7873e-07	62.652	85.878	24.383	37.986	-44.012	106.472	47.708	-46.318	-39.937	97.946	85.528	-42.652	-38.952	-35.579	-30.112	70.558	-33.602	-8191	255	
2689.261	1	1	0	0	0.08962	0.18334	0.23054	0.065836	0.077508	0.12355	0.26105	0.11907	0.1187	0.17934	0.10013	0.083978	0.094484	0.13357	0.30438	0.23526	-3.4688	-3.6667	-4.1917	-3.8375	-4.0938	-4.2208	-3.6063	-4.3562	-3.8333	-3.6833	-4.5875	-3.9833	-4.1458	-4.2708	-3.4583	-4.2542	113.942	191.441	-43.488	268.099	209.970	300.828	212.296	222.433	61.775	56.898	30.063	-55.943	175.972	-9.353	190.775	204.058	0.0006614	0.00017631	8.4987e-05	1204.4	2.6328e-06	3.6106e-06	1362.1	675.18	8.7866e-07	1.7826e-06	743.73	274.49	263.97	61.615	1.8507e-06	85.094	2.1945e-05	1.7026e-05	4.3419e-06	1029.6	2.0812e-07	1.894e-07	1130.3	530.13	2.1269e-07	1.9092e-07	554.46	207.17	201.08	46.88	1.8411e-07	61.817	78.896	31.368	17.153	-44.308	86.144	61.041	-46.393	-39.831	98.237	74.160	-42.485	-38.559	-35.589	-30.212	86.109	-33.539	-8191	255	
2689.357	1	1	0	0	0.33641	0.18953	0.036413	0.046321	0.17097	0.21806	0.17982	0.25883	0.25143	0.10071	0.23153	0.26558	0.12943	0.18269	0.226	0.19898	-3.5271	-3.5458	-4.4333	-3.8021	-3.9083	-4.2188	-3.6417	-4.2917	-3.9646	-3.7208	-4.3958	-3.9729	-3.9146	-4.5396	-3.6625	-4.1687	95.491	210.502	156.734	247.480	160.181	179.514	235.630	230.906	-15.299	225.532	266.380	-43.618	92.463	-51.280	23.682	269.224	0.00059146	0.00020326	6.0801e-05	1154.5	1.4264e-06	2.1226e-06	1299.7	648.78	1.4461e-06	1.8322e-06	710.01	262.58	252.83	62.046	2.1687e-06	85.233	2.1982e-05	1.7047e-05	4.3487e-06	985.25	2.0826e-07	1.8659e-07	1078.5	509.59	2.1187e-07	1.9135e-07	530.82	198.63	192.4	47.188	1.8899e-07	61.899	73.599	22.057	39.448	-43.916	75.138	72.872	-46.195	-39.536	77.992	62.364	-42.233	-38.445	-35.333	-29.717	61.442	-33.150	-8191	255	
2689.476	1	1	0	0	0.16712	0.14024	0.04163	0.2574	0.17237	0.06591	0.25734	0.1748	0.10813	0.02063	0.11329	0.12452	0.39386	0.15628	0.11827	0.148	-3.7646	-3.6042	-4.3063	-4.0604	-3.5917	-4.2688	-3.7188	-4.2167	-4.1229	-3.4646	-4.6167	-3.9208	-3.8771	-4.5979	-3.6396	-4.1125	-4.486	55.190	61.302	-50.308	170.306	173.805	236.363	252.040	23.537	212.748	262.396	181.640	-49.191	280.275	60.278	255.617	0.00051343	0.00018414	6.8016e-05	1082.9	3.0706e-06	2.0054e-06	1228.7	615.19	2.29e-06	2.1988e-06	683.67	257.67	246.53	63.471	1.6573e-06	86.125	2.2689e-05	1.8039e-05	4.8357e-06	928.17	2.184e-07	1.917e-07	1021.7	484.65	2.1611e-07	1.9637e-07	511.84	194.16	188.3	48.211	2.0858e-07	62.723	74.637	23.204	28.131	-43.852	88.815	71.784	-45.996	-39.374	60.810	82.916	-42.157	-38.401	-35.026	-29.613	65.425	-33.378	-8191	255	
2689.572	1	1	0	0	0.11891	0.11261	0.12604	0.19918	0.22417	0.097021	0.14194	0.14719	0.20633	0.099929	0.12924	0.43487	0.31066	0.087818	0.25609	0.22952	-3.775	-3.7104	-4.1167	-4.0354	-3.6958	-4.2458	-3.8708	-3.9625	-4.3854	-3.5542	-4.3187	-4.2333	-3.7729	-4.3938	-3.9083	-3.8375	192.550	-49.371	117.253	8.495	177.854	16.523	251.164	78.361	119.315	21.278	291.110	251.060	240.485	208.964	58.351	259.823	0.00059333	0.00013264	8.3579e-05	1046	2.5144e-06	2.2178e-06	1182.6	591.72	2.761e-06	2.0205e-06	662.55	252.44	241.26	64.819	2.0509e-06	87.578	2.2088e-05	1.7506e-05	5.2018e-06	893.91	2.075e-07	1.8224e-07	982.23	466.74	2.0623e-07	1.8704e-07	496.06	190.79	184.34	49.165	2.1841e-07	63.588	77.997	42.203	21.919	-43.629	91.248	79.545	-45.898	-39.243	50.683	82.892	-41.963	-38.272	-34.696	-29.485	65.016	-33.243	-8191	255	
2689.668	1	1	0	0	0.14185	0.22455	0.15314	0.067274	0.10241	0.28803	0.18598	0.20688	0.19898	0.22649	0.09223	0.1248	0.16893	0.15857	0.15464	0.17008	-4.025	-3.5604	-3.9917	-3.95	-3.6354	-4.1937	-3.9104	-3.9667	-4.2729	-3.6146	-4.2021	-4.1479	-3.7833	-4.3812	-3.8854	-3.9125	211.300	150.173	-27.107	206.234	283.437	25.011	216.914	212.993	208.670	120.410	28.884	233.176	212.338	9.131	191.252	-27.551	0.00057038	0.00027059	5.5676e-05	1022.4	2.3089e-06	1.5223e-06	1151.2	576.58	1.3903e-06	1.3372e-06	644.09	250.21	237.75	67.28	2.1725e-06	90.707	2.1447e-05	1.7258e-05	5.5621e-06	876.75	2.0384e-07	1.8814e-07	958.87	453.02	2.0669e-07	1.9811e-07	484.29	189.11	181.72	51.213	2.4714e-07	66.002	73.421	22.006	58.952	-43.635	84.532	59.935	-45.753	-38.820	35.824	87.435	-41.824	-38.001	-34.734	-29.331	52.036	-33.069	-8191	255	
2689.789	1	1	0	0	0.028051	0.15713	0.098973	0.1327	0.15509	0.088558	0.2501	0.37711	0.14296	0.078349	0.06626	0.26137	0.30087	0.43322	0.21055	0.1946	-3.725	-3.65	-4.025	-4.2312	-3.6562	-4.1042	-3.9896	-3.8417	-4.3938	-3.7854	-4.2354	-4.2542	-3.8167	-4.1667	-3.8542	-3.7417	226.026	298.292	197.990	65.336	120.910	161.430	273.892	250.310	181.960	120.545	235.904	273.882	246.761	269.710	1.621	287.877	0.00059166	0.00025599	8.1694e-05	1022.5	7.4346e-07	2.3203e-06	1157.9	575.19	1.7376e-06	1.9584e-06	646.24	250.01	237.38	67.105	1.5568e-06	90.663	2.1785e-05	1.8797e-05	6.106e-06	875.39	2.063e-07	2.0669e-07	965.73	454.08	2.0094e-07	2.1515e-07	485.48	188.73	181.04	51.125	2.388e-07	65.64	79.744	24.694	43.148	-43.760	89.792	81.996	-45.631	-38.758	74.691	103.158	-41.796	-38.075	-34.643	-29.440	84.471	-33.135	-8191	255	
2689.861	1	1	0	0	0.083415	0.10356	0.09452	0.13125	0.12033	0.22045	0.13158	0.25574	0.055047	0.14069	0.31867	0.10027	0.21986	0.18348	0.073278	0.13669	-3.9562	-3.7417	-3.7979	-4.4646	-3.4375	-4.2021	-4.1125	-3.5563	-4.2458	-3.7646	-4.125	-4.45	-3.7917	-4.3396	-3.8333	-3.8042	262.947	112.022	210.296	234.125	115.751	194.365	246.479	256.246	117.077	-27.295	-56.352	-3.806	260.521	238.614	206.867	268.946	0.00064608	0.00023112	7.5937e-05	1025.1	2.7729e-06	2.0524e-06	1164.2	578.76	1.7388e-06	1.1541e-06	645.69	248.04	235.96	65.981	1.7086e-06	88.857	2.1403e-05	2.0554e-05	5.9149e-06	879.52	2.0095e-07	2.2184e-07	969.63	455.57	1.9609e-07	2.3038e-07	485.26	187.38	180.39	50.283	2.2842e-07	64.528	74.814	31.988	39.130	-43.769	83.121	62.547	-45.807	-38.822	53.458	79.352	-41.608	-37.998	-34.452	-29.342	61.481	-33.270	-8191	255	
2689.957	1	1	0	0	0.2655	0.012749	0.070613	0.045338	0.13642	0.085241	0.27893	0.28788	0.16563	0.091587	0.025175	0.086665	0.11298	0.13306	0.18915	0.11538	-3.7938	-3.9771	-3.7958	-4.4396	-3.5354	-4.1125	-4.0333	-3.7	-4.1604	-3.7229	-3.7792	-4.4	-3.8521	-3.9708	-4.1458	-3.7354	-47.363	174.445	22.319	45.581	295.403	274.445	238.160	206.760	-35.828	254.182	-42.220	291.996	249.574	280.788	301.943	289.888	0.00062015	0.00017568	7.1778e-05	1025.4	9.6464e-07	2.0721e-06	1154.5	574.21	1.1435e-06	1.3348e-06	642.37	246.34	233.73	66.867	1.6238e-06	90.23	2.1765e-05	2.1638e-05	5.7258e-06	877.93	2.0978e-07	2.331e-07	962.09	451	2.109e-07	2.3504e-07	481.34	185.66	178.63	50.927	2.2416e-07	65.565	80.650	22.398	24.545	-43.487	108.078	68.033	-45.590	-38.829	105.934	90.148	-41.556	-38.033	-34.517	-29.158	80.614	-33.091	-8191	255	
2690.077	1	1	0	0	0.053684	0.085974	0.068448	0.18791	0.080579	0.26677	0.24178	0.1518	0.089223	0.23938	0.13159	0.3682	0.248	0.12021	0.16957	0.26583	-3.625	-3.9979	-3.4896	-4.4271	-3.7979	-3.8688	-4.3146	-3.7542	-4.2354	-4.0208	-4.025	-4.4396	-4.1021	-3.9208	-4.3313	-3.7417	128.871	-24.197	301.869	223.704	173.092	206.760	240.516	197.416	114.828	-14.009	260.345	249.684	299.547	295.594	278.368	244.021	0.0005992	0.00027321	7.5194e-05	1009	1.7153e-06	3.0622e-06	1137.2	562.26	1.7982e-06	1.9e-06	634.31	244.86	231.57	68.82	1.7568e-06	92.534	2.367e-05	2.2576e-05	5.6799e-06	863.11	2.2432e-07	2.4078e-07	945.87	442.63	2.3308e-07	2.394e-07	475.19	184.82	176.88	52.415	2.1955e-07	67.277	75.819	31.288	69.009	-43.719	92.322	55.981	-45.773	-38.671	109.447	68.184	-41.551	-37.735	-34.349	-29.258	53.458	-32.980	-8191	255	
2690.173	1	1	0	0	0.1362	0.22012	0.1413	0.27788	0.069752	0.16037	0.12014	0.28799	0.13199	0.17158	0.07552	0.12941	0.26255	0.33394	0.2202	0.1602	-3.8187	-3.9208	-3.6583	-4.4	-3.7792	-3.8875	-4.2792	-3.6833	-4.1813	-4.1146	-3.6958	-4.2354	-3.9146	-3.9208	-4.1083	-3.8604	130.056	-51.958	42.251	274.199	30.406	202.925	4.168	195.175	91.331	156.590	14.046	292.319	296.041	282.405	302.069	279.332	0.00057373	0.00015253	9.1382e-05	990.92	2.2183e-06	2.9087e-06	1116.3	551.58	1.5343e-06	1.878e-06	621.47	244.22	229.44	70.59	8.9933e-07	94.202	2.552e-05	2.1791e-05	5.5988e-06	847.36	2.4663e-07	2.3329e-07	926.91	434.37	2.4627e-07	2.2877e-07	466.42	184.55	175.94	53.746	2.1414e-07	68.622	89.558	15.259	46.074	-43.398	94.152	55.540	-45.699	-38.857	81.629	75.773	-41.645	-37.678	-34.254	-29.097	54.714	-33.002	-8191	255	
2690.270	1	1	0	0	0.18695	0.12203	0.16073	0.10631	0.25997	0.09567	0.27963	0.070752	0.33428	0.057939	0.3167	0.36758	0.20178	0.060889	0.18443	0.071619	-3.6604	-4.0875	-3.5917	-4.4437	-3.8167	-3.8063	-4.3229	-4.0208	-3.9125	-4.1854	-3.7125	-4.3667	-3.9375	-3.8563	-4.3187	-4.075	36.963	265.073	218.493	12.418	83.920	31.636	-13.054	167.826	23.318	70.768	23.889	296.521	-32.570	5.017	-26.446	149.664	0.00066856	0.00027058	7.0049e-05	981.41	2.4934e-06	3.1293e-06	1101.6	545.91	1.7414e-06	1.6918e-06	615.71	245.23	230.36	71.856	1.9886e-06	95.385	2.6157e-05	2.0823e-05	5.3549e-06	838.96	2.4696e-07	2.2055e-07	916.17	428.01	2.439e-07	2.1198e-07	461.31	185.28	176.21	54.663	1.9267e-07	69.166	80.664	10.696	16.458	-43.561	71.217	59.195	-45.749	-38.444	65.179	73.130	-41.604	-37.807	-34.299	-29.162	74.486	-33.164	-8191	255	
2690.388	1	1	0	0	0.11322	0.2114	0.20188	0.10133	0.033197	0.26225	0.2914	0.19357	0.11461	0.10702	0.18586	0.22533	0.20563	0.31507	0.25815	0.08821	-3.4417	-4.2208	-3.4208	-4.325	-3.9521	-3.6396	-4.2583	-3.9521	-3.8958	-4.3458	-3.5833	-4.2104	-4.0875	-3.7687	-4.1271	-3.875	81.571	1.877	146.878	283.180	184.055	287.550	212.065	214.703	264.954	8.421	180.498	301.390	280.509	267.792	222.203	259.287	0.00069167	0.00023659	7.754e-05	977.99	2.3086e-06	3.2684e-06	1093.7	537.64	1.5858e-06	1.3353e-06	605.35	241.9	225.13	73.254	1.7176e-06	97.7	2.4273e-05	1.8491e-05	4.7909e-06	836.93	2.231e-07	2.0003e-07	910.04	423.95	2.2595e-07	1.9898e-07	454.72	182.83	172.49	55.896	1.9263e-07	70.934	81.703	8.773	40.514	-43.600	81.497	66.668	-45.772	-38.456	54.736	126.368	-41.394	-37.663	-34.015	-28.962	65.611	-32.984	-8191	255	
2690.460	1	1	0	0	0.12255	0.099643	0.1663	0.15754	0.19683	0.19227	0.11641	0.17004	0.15639	0.20729	0.17418	0.13149	0.076644	0.1228	0.10066	0.39156	-3.2896	-4.1646	-3.4083	-4.1958	-3.9688	-3.4833	-4.4708	-4.0437	-3.7458	-4.1917	-3.7229	-4.1583	-4.1438	-3.7646	-4.1229	-4.0167	96.966	6.980	252.077	61.282	172.592	-21.919	262.748	272.670	-1.783	63.597	228.917	242.568	276.146	287.080	-43.257	260.635	0.00060604	0.00025516	8.5986e-05	959.59	2.5135e-06	2.7635e-06	1075.7	517.04	1.7701e-06	1.4258e-06	583.43	240.42	223.81	84.114	1.134e-06	109.14	2.3341e-05	1.7867e-05	4.8831e-06	824.49	2.1048e-07	1.9127e-07	893.59	406.78	2.0231e-07	1.7793e-07	437.1	182.05	170.97	63.698	1.8288e-07	79.148	83.743	13.714	22.728	-43.476	69.220	76.917	-45.491	-38.256	75.358	90.811	-41.017	-37.154	-33.708	-28.630	87.977	-32.794	-8191	255	
2690.556	1	1	0	0	0.066821	0.11726	0.10109	0.029117	0.10126	0.18483	0.13417	0.18631	0.17227	0.18099	0.065745	0.085261	0.26065	0.24844	0.085091	0.092086	-3.3208	-4.2271	-3.775	-4	-4.0229	-3.6	-4.3375	-3.9958	-3.8063	-4.3896	-3.8875	-4.2229	-4.2458	-3.7146	-4.2042	-4.1521	172.869	262.232	46.405	81.755	290.582	57.904	225.185	237.099	233.788	51.444	190.440	-43.926	219.108	281.262	-31.935	267.078	0.0008221	0.00025233	8.9602e-05	975.9	1.445e-06	3.0055e-06	1092.9	509.65	1.7052e-06	2.029e-06	579.18	241.77	224.09	91.748	1.742e-06	112.22	2.0742e-05	1.504e-05	4.5233e-06	835.22	1.7453e-07	1.5765e-07	907.92	401.21	1.7407e-07	1.5204e-07	434.3	182.41	171.51	69.584	1.7801e-07	81.523	80.525	22.869	44.600	-43.264	102.926	65.622	-45.594	-38.090	69.613	74.299	-41.030	-37.033	-33.458	-28.609	57.785	-32.775	-8191	255	
2690.652	1	1	0	0	0.12981	0.052578	0.20267	0.12283	0.16791	0.044598	0.33004	0.24001	0.20436	0.068865	0.36039	0.093369	0.25525	0.25411	0.21673	0.11296	-3.3187	-4.1979	-3.8	-3.8208	-4.1042	-3.5875	-4.2479	-4.1958	-3.5292	-4.1458	-3.8896	-3.9813	-4.3938	-3.7562	-3.9854	-3.9896	-55.624	221.255	274.756	221.000	244.779	167.621	234.501	131.848	14.869	259.870	222.245	212.702	127.979	212.520	147.108	52.986	0.00079429	0.00031213	7.7226e-05	1008.7	1.8104e-06	1.7937e-06	1118.4	518.77	2.091e-06	2.3317e-06	588.79	242.94	228.19	92.382	1.9692e-06	112.23	1.945e-05	1.3727e-05	4.3352e-06	861.12	1.6123e-07	1.4644e-07	928.95	408.36	1.5933e-07	1.418e-07	441.65	183.53	174.09	70.076	1.6836e-07	81.522	85.137	0.726	27.997	-43.536	76.181	66.019	-45.716	-38.090	64.638	90.804	-41.040	-36.955	-33.279	-28.818	69.221	-32.567	-8191	255	
2690.771	1	1	0	0	0.23292	0.091863	0.2701	0.10413	0.097003	0.22064	0.0060858	0.14136	0.10482	0.095407	0.095229	0.11312	0.083506	0.07011	0.19439	0.30918	-3.2792	-4.1083	-3.9125	-3.975	-4.2646	-3.5479	-4.1625	-4.2625	-3.6042	-4.1021	-4.1229	-3.7938	-4.4292	-3.7958	-3.7604	-4.45	-6.688	-2.733	131.619	10.170	78.533	160.972	-8.431	280.093	-55.968	109.524	-8.531	255.309	54.696	28.133	-52.569	255.485	0.00083532	0.00030321	9.6166e-05	1050.1	2.8094e-06	2.2674e-06	1175.3	544.19	1.5874e-06	1.713e-06	618.32	250.19	235.98	94.289	1.7457e-06	112.64	1.7673e-05	1.2823e-05	4.1687e-06	895.04	1.407e-07	1.3995e-07	974.43	427.43	1.3768e-07	1.3557e-07	463	188.89	179.83	71.481	1.523e-07	81.863	82.437	21.423	30.122	-43.323	91.694	69.441	-45.614	-38.536	65.337	95.151	-41.266	-37.115	-33.586	-28.731	72.057	-32.585	-8191	255	
2690.867	1	1	0	0	0.11341	0.12407	0.24624	0.15705	0.048722	0.11679	0.1559	0.18176	0.094939	0.17122	0.32823	0.35067	0.16847	0.062437	0.09171	0.068165	-3.1937	-4.0479	-3.9604	-3.7458	-4.3625	-3.8083	-3.9479	-4.2917	-3.6354	-4.0604	-4.0792	-3.5896	-4.4062	-4.1104	-3.7146	-4.4229	60.933	208.189	42.943	58.377	74.246	-2.011	256.265	201.147	128.228	69.746	239.453	-47.696	242.693	131.432	195.139	196.698	0.00074012	0.00025593	8.8737e-05	1165.3	2.3506e-06	2.1595e-06	1290.2	589.1	1.927e-06	1.9613e-06	667.9	269.73	254.58	94.138	1.5037e-06	108.55	1.5705e-05	1.219e-05	3.6331e-06	992.88	1.2288e-07	1.3541e-07	1070.5	463.14	1.2712e-07	1.3566e-07	499.19	202.49	194.82	71.355	1.3314e-07	78.482	79.722	33.139	29.067	-43.661	92.707	76.429	-45.841	-38.554	95.370	80.951	-41.349	-36.917	-33.430	-28.778	62.684	-32.476	-8191	255	
2690.964	1	1	0	0	0.22642	0.058271	0.14714	0.2309	0.020439	0.094333	0.10128	0.17528	0.18031	0.23185	0.19138	0.3209	0.15335	0.16512	0.092156	0.23887	-3.2292	-4.0542	-3.8854	-3.7604	-4.3688	-3.95	-4	-4.3917	-3.8396	-4.0292	-4.1813	-3.7687	-4.3167	-4.1396	-3.7417	-4.4563	55.185	94.196	219.808	282.156	52.258	123.142	212.018	216.834	223.312	36.156	157.134	290.212	276.502	-46.857	-38.691	252.794	0.00076611	0.00027677	6.0504e-05	1172.5	2.0049e-06	1.8132e-06	1294.7	584.51	1.3605e-06	2.1385e-06	652.76	272.81	258.56	102.09	1.6293e-06	114.39	1.4641e-05	1.1503e-05	3.11e-06	999.34	1.0974e-07	1.2497e-07	1070.9	457.81	1.1801e-07	1.2393e-07	487.39	205.39	197.32	77.403	1.1662e-07	82.618	76.241	8.742	39.463	-43.766	77.158	62.676	-45.743	-38.612	61.803	83.657	-41.390	-37.229	-33.560	-28.657	52.159	-32.659	-8191	255	
2691.060	1	1	0	0	0.23423	0.20035	0.27336	0.14009	0.091243	0.18941	0.089387	0.09923	0.20964	0.1946	0.17534	0.51515	0.21917	0.34025	0.2279	0.18646	-3.3042	-4.1687	-4.0729	-3.975	-4.2583	-4.0167	-3.6854	-4.575	-3.8875	-4.1875	-4.2208	-3.7354	-4.2896	-4.0813	-3.7125	-4.5021	83.419	139.317	135.355	199.953	248.272	150.567	247.542	93.740	216.298	276.916	294.431	237.480	-33.673	245.548	50.607	191.939	0.00079702	0.00018194	7.781e-05	1148.8	2.7271e-06	3.3644e-06	1232.8	561.12	1.8524e-06	2.1967e-06	628.39	258.84	245.6	103.41	1.7855e-06	115.77	1.4273e-05	1.0467e-05	2.5714e-06	977.08	1.0266e-07	1.0595e-07	1021.2	440.54	1.0323e-07	1.0294e-07	468.41	194.82	187.29	78.375	1.0312e-07	83.847	85.646	30.113	33.655	-43.664	96.654	78.862	-45.611	-38.538	85.983	81.583	-41.237	-37.020	-33.239	-28.851	79.339	-32.666	-8191	255	
2691.156	1	1	0	0	0.14412	0.16782	0.13398	0.044322	0.055281	0.11103	0.23763	0.14868	0.08879	0.24939	0.095827	0.15325	0.3033	0.15088	0.15486	0.054576	-3.4521	-3.7979	-4.0938	-3.7396	-3.9042	-4.0396	-3.8354	-4.5146	-3.9208	-3.9938	-4.5208	-3.7021	-4.3479	-4.1542	-3.6375	-4.3771	-54.932	125.384	103.645	283.003	71.972	167.430	182.646	206.170	-27.021	60.150	187.074	123.129	206.523	-12.526	286.824	274.107	0.00086169	0.0002206	8.298e-05	1124.7	2.0979e-06	1.6714e-06	1205.8	543.1	2.3191e-06	2.3265e-06	614.37	258.94	242.31	114.11	2.0295e-06	128.64	1.3836e-05	9.5444e-06	2.3596e-06	957.51	1.0503e-07	1.0037e-07	995.4	425.37	1.0674e-07	9.86e-08	459.16	194.98	184.71	86.305	1.0391e-07	93.266	82.323	21.922	27.633	-43.562	96.841	71.963	-45.859	-38.333	64.986	78.354	-41.390	-36.849	-33.111	-28.699	69.429	-32.814	-8191	255	
2691.252	1	1	0	0	0.09933	0.021613	0.12627	0.16165	0.032155	0.17143	0.035745	0.094579	0.12925	0.11682	0.049065	0.22611	0.221	0.22765	0.19937	0.01421	-3.3625	-3.8812	-4.1854	-3.8896	-4.0437	-4.1	-3.6542	-4.2854	-4.0542	-3.6875	-4.5188	-3.8125	-4.3271	-4.2688	-3.7771	-4.3688	-20.176	139.022	28.981	283.217	32.339	15.772	69.057	153.918	58.367	-20.271	16.463	273.618	-38.969	292.934	140.443	52.012	0.00096347	0.00028139	9.4946e-05	1102.2	2.5235e-06	3.2058e-06	1184.1	536	2.47e-06	1.7506e-06	607.22	259.68	239.58	119.05	1.4735e-06	134.83	1.5512e-05	9.6913e-06	2.4036e-06	940.2	1.1419e-07	1.0072e-07	979.6	421	1.1751e-07	9.9754e-08	453.88	195.02	183.74	90.15	1.0178e-07	97.422	80.059	17.305	39.302	-43.556	98.161	44.561	-45.944	-38.215	68.170	88.792	-41.261	-36.981	-33.162	-28.927	64.248	-32.840	-8191	255	
2691.348	1	1	0	0	0.067661	0.2561	0.21421	0.053629	0.1628	0.10958	0.12538	0.21304	0.21678	0.23778	0.2212	0.11369	0.18653	0.13014	0.31727	0.20933	-3.6021	-3.7146	-4.3313	-3.8292	-4.0208	-4.1896	-3.6979	-4.2708	-4.1687	-3.5792	-4.5271	-3.9125	-4.125	-4.5604	-3.6333	-4.3187	82.989	123.304	166.158	74.193	13.753	-39.337	-14.805	260.305	56.236	284.053	-51.352	224.940	-31.999	274.773	-8.370	233.461	0.0009537	0.00021168	9.0913e-05	1090	2.1676e-06	2.9489e-06	1167.8	530.94	2.5541e-06	1.5136e-06	601.95	262.73	243.73	123.26	1.0943e-06	139.59	1.5449e-05	9.517e-06	2.3562e-06	929.5	1.1283e-07	9.9266e-08	966.17	417.35	1.1918e-07	1.0366e-07	451.27	197.56	186.31	93.406	1.0853e-07	101.25	85.971	8.097	9.405	-43.510	95.081	65.243	-45.739	-38.371	52.976	92.509	-41.280	-37.074	-33.208	-28.862	70.958	-32.767	-8191	255	
2691.469	1	1	0	131072	0.18517	0.086374	0.081345	0.1857	0.044245	0.41119	0.18403	0.095817	0.27038	0.20159	0.14264	0.17845	0.26946	0.18551	0.15113	0.24744	-3.65	-3.475	-4.3375	-3.8875	-3.9271	-4.2521	-3.6729	-4.2937	-4.0604	-3.7938	-4.525	-4.0625	-3.9542	-4.6604	-3.4729	-4.2104	297.071	166.664	231.847	242.246	176.215	162.064	200.706	261.746	5.605	203.368	174.349	270.713	177.717	254.791	152.010	283.012	0.00099504	0.00033928	9.5009e-05	1084.1	1.9706e-06	2.3052e-06	1157.9	534.28	2.0916e-06	2.0134e-06	605.8	268.35	248.31	127.19	1.818e-06	145.04	1.5844e-05	9.8513e-06	2.5247e-06	925.4	1.1759e-07	1.0351e-07	958.78	418.25	1.1797e-07	1.063e-07	452.69	201.85	189.68	96.8	1.2218e-07	104.99	84.256	11.734	28.465	-43.450	86.321	74.217	-45.780	-38.363	56.740	78.332	-41.458	-37.075	-33.246	-29.029	54.249	-32.970	-8191	255	
2691.565	1	1	0	131072	0.098953	0.082252	0.12311	0.33434	0.22338	0.21199	0.22035	0.17346	0.016944	0.049592	0.11613	0.21664	0.16943	0.27583	0.12079	0.27054	-3.7708	-3.5167	-4.0604	-3.9604	-3.6396	-4.3479	-3.8792	-4.0625	-4.1	-3.5083	-4.2292	-4	-3.9562	-4.2875	-3.7208	-3.9979	110.124	183.195	-14.265	227.314	145.725	266.307	185.821	257.316	-37.582	251.732	141.526	209.463	250.953	-55.999	116.719	230.955	0.001113	0.00026913	7.9235e-05	1084.6	2.0466e-06	3.2484e-06	1149.8	532.71	2.3644e-06	2.2678e-06	609.86	271.72	251.7	127.86	1.8483e-06	147.55	1.6355e-05	1.0328e-05	2.8925e-06	924.2	1.2158e-07	1.1025e-07	951.7	419.85	1.2502e-07	1.1064e-07	455.56	205.05	192.26	98.42	1.3616e-07	106.89	80.363	9.030	32.147	-43.656	78.791	79.270	-45.810	-38.215	67.836	72.971	-41.493	-37.019	-33.307	-28.912	71.463	-32.956	-8191	255	
2691.661	1	1	0	131072	0.24608	0.17143	0.1281	0.14475	0.17296	0.18502	0.17093	0.21413	0.20267	0.20109	0.216	0.21645	0.13083	0.4202	0.26705	0.1819	-3.8479	-3.5687	-4.0792	-4.2292	-3.5917	-4.3021	-3.9479	-4.0604	-4.1813	-3.4625	-4.1958	-4.1104	-3.7458	-4.3938	-3.7125	-3.9917	56.892	-35.884	142.648	280.570	258.317	202.129	200.296	184.926	67.370	45.883	-43.204	-50.358	0.465	292.938	270.704	267.903	0.00097669	0.0002835	8.991e-05	1081.8	2.3977e-06	2.6493e-06	1145.2	536.45	2.2763e-06	1.768e-06	607.03	269.7	250.32	127.86	1.5686e-06	146.01	1.6954e-05	1.0708e-05	3.2256e-06	920.95	1.2434e-07	1.13e-07	949.03	421.11	1.2301e-07	1.1228e-07	454.76	203.73	191.52	98.001	1.4025e-07	105.81	84.627	13.033	35.529	-43.651	70.303	81.715	-45.694	-38.380	54.538	74.969	-41.281	-37.008	-33.299	-29.060	72.683	-32.962	-8191	255	
2691.757	1	1	0	131072	0.15051	0.093322	0.076517	0.27782	0.053221	0.21914	0.26325	0.10917	0.18756	0.11869	0.21709	0.16401	0.24578	0.2818	0.2154	0.13143	-3.9688	-3.5396	-4.0896	-4.0188	-3.7333	-4.2292	-3.8958	-3.8125	-4.1438	-3.5146	-4.1646	-4.3063	-3.6542	-4.3063	-3.8271	-3.95	100.818	119.282	236.175	271.304	-55.992	-14.066	282.260	266.243	221.232	-13.976	263.435	283.345	-35.002	-43.646	-54.888	183.877	0.0010519	0.00021865	8.9563e-05	1072.1	2.9319e-06	2.9201e-06	1139	534.85	1.2481e-06	2.1688e-06	603.19	266.77	248.5	126.41	1.958e-06	142.09	1.6597e-05	1.0669e-05	3.3138e-06	915.93	1.2087e-07	1.1435e-07	945.28	420.56	1.1755e-07	1.1842e-07	451.45	200.78	189.59	95.941	1.3748e-07	102.62	84.052	28.545	37.021	-43.658	73.057	73.841	-45.773	-38.415	76.096	95.117	-41.342	-37.020	-33.257	-29.057	84.993	-32.933	-8191	255	
2691.853	1	1	0	131072	0.24671	0.13391	0.088614	0.20605	0.28801	0.19171	0.13684	0.10935	0.032469	0.083135	0.092151	0.1553	0.08663	0.33175	0.15839	0.15801	-3.8229	-3.675	-3.9437	-4.35	-3.3583	-4.1542	-3.9146	-3.5	-4.2562	-3.7	-4.0938	-4.3042	-3.8438	-4.2875	-3.6896	-3.7958	106.656	182.854	174.478	-23.788	35.848	204.672	60.042	271.699	209.119	152.357	172.102	-5.190	250.825	291.783	169.468	216.709	0.00092714	0.00028661	7.6253e-05	1067.3	2.26e-06	1.5971e-06	1138.9	534.35	1.938e-06	1.9318e-06	605.19	265.76	248.33	126.3	1.8582e-06	143.01	1.5834e-05	1.1029e-05	3.2939e-06	908.64	1.1594e-07	1.1882e-07	942.99	419.93	1.1439e-07	1.2087e-07	453.3	200.36	189.63	95.784	1.3621e-07	103.53	81.405	17.377	16.066	-43.446	97.536	63.912	-45.767	-38.399	91.383	79.607	-41.202	-37.231	-33.189	-28.720	68.109	-32.747	-8191	255	
2691.948	1	1	0	131072	0.18109	0.058482	0.15424	0.12081	0.1419	0.087154	0.13612	0.26789	0.23938	0.062547	0.15514	0.2039	0.27437	0.25642	0.075508	0.29007	-3.8625	-3.6208	-3.7583	-4.4875	-3.4396	-4.1521	-3.9896	-3.6417	-4.0437	-3.9208	-3.8854	-4.4521	-3.675	-4.3375	-4.1417	-3.675	248.490	228.452	204.301	239.587	73.168	-45.578	216.382	232.077	262.571	-11.964	99.775	272.598	-48.126	281.999	165.268	254.760	0.00098383	0.00029236	0.00010074	1067.2	2.6103e-06	2.8063e-06	1134.6	535.82	1.5978e-06	2.5664e-06	607.46	269.7	249.49	127.8	1.3753e-06	145.8	1.5929e-05	1.169e-05	3.2811e-06	909.01	1.2043e-07	1.2807e-07	941.64	421.07	1.1799e-07	1.327e-07	454.1	203.47	190.82	97.686	1.3325e-07	105.51	83.570	36.631	32.779	-43.746	99.629	62.163	-45.566	-38.343	67.137	80.998	-41.421	-36.842	-33.373	-28.859	39.639	-33.009	-8191	255	
2692.068	1	1	0	131072	0.14167	0.11544	0.18983	0.16313	0.090971	0.10156	0.21625	0.08112	0.14724	0.14789	0.081458	0.10546	0.22362	0.27083	0.035284	0.4828	-3.925	-3.9167	-3.8125	-4.4792	-3.6229	-4.0771	-4.0563	-3.525	-4.1896	-3.8208	-3.8958	-4.2604	-3.75	-4.1125	-4.1229	-3.8	149.474	259.752	-34.500	-11.406	161.218	20.573	274.543	189.678	59.501	156.949	-22.510	34.535	280.704	296.217	73.976	276.226	0.0010174	0.00027595	9.7993e-05	1060.4	2.3073e-06	3.0123e-06	1127.5	533.77	1.6654e-06	1.9439e-06	601.1	270.94	252.15	128.38	1.9005e-06	149.44	1.6646e-05	1.2387e-05	3.136e-06	906.22	1.2355e-07	1.2952e-07	933.74	419.57	1.2567e-07	1.3116e-07	450.92	204.26	192.76	99.539	1.2925e-07	108.1	80.311	17.807	35.630	-43.486	83.259	66.912	-45.751	-38.417	90.862	92.784	-41.294	-37.085	-33.356	-28.790	59.425	-33.034	-8191	255	
2692.165	1	1	0	131072	0.23087	0.089708	0.2004	0.28353	0.062883	0.19094	0.23929	0.3398	0.071123	0.072384	0.25955	0.12359	0.084634	0.080635	0.082714	0.12516	-3.6771	-3.8187	-3.7333	-4.3708	-3.6958	-3.9396	-4.2688	-3.8104	-4.0396	-3.8625	-3.7083	-4.4896	-3.9562	-4.0771	-4.0604	-3.8833	47.754	125.515	-5.507	295.989	-47.784	114.031	254.180	224.157	59.036	57.956	-47.167	277.121	218.552	-44.134	170.855	-53.184	0.0010851	0.00031254	7.9654e-05	1061.3	2.8707e-06	2.6365e-06	1118.6	532.82	2.6415e-06	2.5065e-06	601.57	273.34	253.51	128.87	2.0262e-06	152.18	1.7376e-05	1.2153e-05	3.1137e-06	905.73	1.355e-07	1.3123e-07	926.42	418.37	1.3919e-07	1.3592e-07	450.17	206.13	194.13	100.8	1.5009e-07	110.13	85.790	13.009	45.422	-43.510	70.676	65.279	-45.839	-38.313	75.358	63.762	-41.359	-37.050	-33.407	-29.004	80.297	-33.089	-8191	255	
2692.261	1	1	0	131072	0.12281	0.02493	0.080851	0.19652	0.037743	0.10918	0.2103	0.30834	0.094992	0.14529	0.17458	0.24673	0.22934	0.061591	0.093431	0.26929	-3.6333	-3.9083	-3.4437	-4.2229	-3.6646	-3.725	-4.3083	-3.6167	-4.0917	-4.1125	-3.4958	-4.45	-3.9792	-3.9396	-4.2917	-3.7604	-40.654	-47.707	7.417	298.441	8.942	48.730	180.216	212.382	-0.568	271.814	251.906	250.215	-51.361	218.117	92.866	236.014	0.0010835	0.00029686	8.8654e-05	1070.5	2.7625e-06	2.3113e-06	1130.2	537.3	2.2044e-06	2.2218e-06	609.74	277.25	257.64	127.59	1.9034e-06	157.17	2.1381e-05	1.4607e-05	3.7658e-06	912.09	1.7825e-07	1.6636e-07	935.89	421.97	1.9245e-07	1.7659e-07	455.88	209.28	196.76	102.94	1.8419e-07	113.76	84.191	9.426	29.088	-43.594	83.007	51.908	-45.900	-38.398	71.133	82.508	-41.672	-36.998	-33.488	-29.054	66.518	-33.089	-8191	255	
2692.357	1	1	0	131072	0.073765	0.069706	0.22736	0.011415	0.10807	0.21596	0.076047	0.065578	0.18911	0.186	0.31693	0.05188	0.1217	0.20023	0.22121	0.17055	-3.625	-4.0333	-3.6708	-4.2562	-3.9896	-3.5938	-4.5708	-3.7	-3.9146	-4.1438	-3.5979	-4.2896	-4.2063	-3.8125	-4.2521	-3.9521	11.399	300.557	36.573	280.809	276.734	69.204	266.569	288.673	278.267	85.532	256.446	167.983	263.079	280.797	208.003	301.852	0.0011332	0.00026671	0.00011349	1079.9	1.962e-06	2.3504e-06	1137.7	540.69	2.2979e-06	2.6379e-06	611.19	276.53	256.59	127.24	1.5032e-06	157.08	2.5219e-05	1.7643e-05	4.7117e-06	920.04	2.1778e-07	1.9982e-07	945.61	427.08	2.2187e-07	1.9994e-07	457.95	209.01	196.17	103.41	1.871e-07	113.96	81.786	-0.658	44.671	-43.716	119.725	61.938	-45.910	-38.618	71.218	92.220	-41.818	-37.243	-33.491	-29.133	91.287	-33.252	-8191	255	
2692.453	1	1	0	131072	0.035541	0.15971	0.067692	0.18734	0.1859	0.20911	0.10594	0.3486	0.089165	0.063927	0.19269	0.15402	0.27498	0.20225	0.11849	0.1172	-3.6937	-4.1292	-3.5146	-4.225	-3.9188	-3.8667	-4.4271	-3.9042	-4.025	-4.2667	-3.6667	-4.0875	-4.2625	-3.8229	-4.0208	-3.9896	285.048	-53.711	-43.909	286.959	76.300	140.229	270.413	261.813	285.341	257.801	-20.456	-52.370	257.826	250.593	146.882	246.657	0.0011544	0.00030796	7.9054e-05	1085.4	2.6748e-06	2.4534e-06	1156.2	540.7	2.9457e-06	2.1837e-06	604.85	269.3	251.22	127.78	1.3624e-06	156.99	2.4951e-05	1.7217e-05	4.5514e-06	928.12	2.04e-07	1.8309e-07	959.08	426.23	1.9531e-07	1.724e-07	454.55	203.58	192.04	102.74	1.7088e-07	113.68	81.807	39.067	34.615	-43.694	74.873	71.363	-45.866	-38.648	58.096	80.682	-41.738	-37.334	-33.680	-29.209	108.867	-33.500	-8191	255	
2692.549	1	1	0	131072	0.078144	0.070465	0.15043	0.069196	0.21215	0.079222	0.23743	0.29896	0.095779	0.33155	0.1887	0.25635	0.082825	0.22038	0.26077	0.22839	-3.3375	-4.2438	-3.6958	-4.2042	-4.0583	-3.6917	-4.2042	-3.9271	-3.6813	-4.3167	-3.7604	-4.0333	-4.4042	-3.7313	-3.9958	-4.1792	118.181	24.841	182.085	278.063	-31.028	144.767	183.788	185.706	190.897	222.663	189.522	295.792	300.727	284.471	199.990	200.668	0.0010596	0.00033368	6.0901e-05	1101	2.4457e-06	2.5643e-06	1165.9	542.63	2.2741e-06	2.1208e-06	613.46	271.06	250.57	126.1	1.6877e-06	163.93	2.219e-05	1.4654e-05	4.1513e-06	938.61	1.7031e-07	1.5423e-07	967.39	426.97	1.6841e-07	1.4985e-07	459.69	204.69	191.96	104.97	1.7305e-07	118.73	82.862	19.072	30.873	-43.830	85.182	71.882	-45.906	-38.804	56.096	75.071	-41.883	-37.530	-34.033	-29.327	60.136	-33.569	-8191	255	
2692.645	1	1	0	131072	0.068864	0.0064581	0.2138	0.07732	0.26229	0.30599	0.15937	0.32566	0.24412	0.20132	0.25467	0.17681	0.37158	0.38002	0.14492	0.39153	-3.1333	-4.2292	-3.6479	-4.1479	-4.1021	-3.8646	-4.0125	-4.1146	-3.6125	-4.3458	-4.0292	-4.0625	-4.2604	-3.9125	-3.9625	-4.2188	137.624	195.694	251.677	-54.550	160.350	272.727	214.160	164.836	284.629	250.696	289.247	283.437	-52.803	277.841	43.281	212.193	0.0011689	0.00034837	8.2617e-05	1105.8	2.2433e-06	2.8e-06	1155.2	550.32	1.4024e-06	2.0962e-06	630.62	278.88	253.64	125.5	2.1711e-06	166.27	2.1697e-05	1.3991e-05	4.3265e-06	944.13	1.7046e-07	1.5529e-07	961.14	432.56	1.8203e-07	1.6063e-07	471.69	210.45	193.72	105.91	2.0041e-07	120.61	84.110	33.887	40.552	-44.124	77.841	66.016	-45.861	-38.996	55.969	71.349	-42.002	-37.611	-34.241	-29.259	67.923	-33.706	-8191	255	
2692.742	1	1	0	131072	0.084579	0.15484	0.41154	0.12051	0.18817	0.14392	0.22769	0.27944	0.30669	0.17256	0.16191	0.073726	0.37902	0.078709	0.094585	0.19714	-3.175	-4.2375	-3.8354	-3.75	-4.3479	-3.6937	-4.2312	-4.1917	-3.7708	-4.2375	-4.0312	-3.9583	-4.4688	-3.8521	-4.075	-4.3104	61.316	68.428	276.138	214.395	67.918	121.023	234.864	246.921	63.656	3.553	259.736	161.644	222.264	228.470	235.915	279.583	0.0011863	0.00022104	7.2136e-05	1079.7	3.0737e-06	2.5542e-06	1124.5	561.94	1.7231e-06	2.2309e-06	640.81	281.68	256.66	124.67	1.5261e-06	168.12	2.3027e-05	1.5157e-05	4.8923e-06	924.04	1.7325e-07	1.6457e-07	933.89	441.37	1.7204e-07	1.6188e-07	480.25	212.52	195.69	107.11	1.8676e-07	121.79	84.111	13.953	40.582	-44.030	87.320	70.429	-46.003	-38.900	39.836	90.139	-42.261	-37.720	-34.147	-29.371	96.542	-33.773	-8191	255	
2692.860	1	1	0	131072	0.22395	0.25024	0.018563	0.2342	0.14265	0.10398	0.040458	0.18975	0.16102	0.28958	0.054509	0.14366	0.14267	0.24986	0.064957	0.33487	-2.9646	-4.275	-3.8854	-3.9083	-4.2312	-3.7375	-4.0667	-4.0813	-3.6	-4.0021	-4.1438	-3.7854	-4.525	-3.9917	-3.7562	-4.4583	73.799	280.233	230.137	-10.696	23.809	297.616	266.268	185.625	157.264	-42.055	167.986	274.914	290.954	205.511	-17.789	201.714	0.0012045	0.00034954	8.8372e-05	1060.5	2.9015e-06	2.6297e-06	1106	564.18	2.0345e-06	2.1733e-06	642.98	278.46	252.76	125.4	1.8697e-06	167.21	2.0575e-05	1.3856e-05	4.2123e-06	904.39	1.385e-07	1.4818e-07	917.08	443.15	1.4439e-07	1.4669e-07	480.53	209.69	192.99	106.12	1.6e-07	120.94	85.426	-2.317	22.082	-44.015	78.663	68.595	-45.951	-38.744	80.497	79.367	-42.062	-37.760	-34.172	-29.431	54.935	-33.670	-8191	255	
2692.957	1	1	0	131072	0.14066	0.04216	0.067237	0.23946	0.059751	0.14816	0.14098	0.37984	0.13385	0.051715	0.07666	0.19504	0.19476	0.40198	0.33117	0.14045	-3.3438	-4.1667	-3.9938	-3.8125	-4.1667	-3.8625	-3.8604	-4.4104	-3.5625	-4.0062	-4.1729	-3.8521	-4.2208	-4.2104	-3.8146	-4.4021	277.671	21.196	239.996	-24.835	285.439	289.718	-39.846	236.630	125.332	298.409	7.357	274.520	-35.879	292.071	149.433	242.527	0.0012434	0.00030619	0.00010666	1032.5	2.8024e-06	2.9123e-06	1085.5	567.37	2.4928e-06	2.5638e-06	646.77	280.13	253.02	124.53	2.7202e-06	169.87	1.8647e-05	1.2743e-05	3.639e-06	879.38	1.2907e-07	1.4243e-07	900.24	445.63	1.3921e-07	1.4982e-07	483.04	211.12	193.4	107.27	1.6433e-07	122.75	85.057	7.999	29.364	-43.839	73.941	65.805	-45.993	-39.057	65.186	78.973	-42.074	-37.651	-34.124	-29.458	63.741	-33.792	-8191	255	
2693.030	1	1	0	131072	0.054902	0.16637	0.15161	0.45046	0.10086	0.099185	0.28761	0.20844	0.06098	0.13774	0.14742	0.092498	0.098754	0.20279	0.26119	0.088226	-3.2667	-3.9917	-3.9542	-3.7021	-4.2896	-3.9104	-3.9188	-4.2583	-3.7917	-4.0292	-4.325	-3.9375	-4.3271	-4.1708	-3.6833	-4.5479	-51.604	7.460	75.874	243.215	26.650	243.160	196.595	176.693	273.895	-31.691	263.158	220.446	232.053	279.753	172.670	102.465	0.0012711	0.00029087	0.0001069	1012.5	2.334e-06	2.4665e-06	1088.2	567.78	1.7025e-06	2.8768e-06	648.31	284.86	255.42	122.84	2.145e-06	172.86	2.0048e-05	1.4947e-05	3.9016e-06	864.73	1.4551e-07	1.6144e-07	901.85	445.94	1.5494e-07	1.5908e-07	484.25	214.52	195.56	108.77	1.6839e-07	124.87	84.970	25.760	23.473	-43.667	78.239	60.042	-45.985	-38.836	81.415	77.899	-42.011	-37.650	-34.146	-29.568	74.282	-33.817	-8191	255	
2693.149	1	1	0	131072	0.050328	0.073458	0.054873	0.071755	0.14735	0.13146	0.12296	0.18028	0.167	0.1312	0.080921	0.16358	0.14451	0.30294	0.2216	0.32787	-3.3458	-3.9167	-4.2708	-3.5896	-4.0854	-3.8625	-3.7583	-4.4458	-3.7875	-3.8958	-4.3167	-3.8458	-4.3708	-4.3458	-3.5583	-4.6687	11.429	257.134	144.119	4.652	-23.770	272.286	79.468	267.267	229.643	40.163	99.747	286.955	261.058	-55.484	101.878	229.023	0.001245	0.00032236	7.9766e-05	1008.5	1.9644e-06	3.4369e-06	1088.6	566.38	1.6137e-06	3.3629e-06	644.72	286.95	258.82	121.66	1.2459e-06	172.53	2.1501e-05	1.5625e-05	4.0278e-06	859.5	1.6316e-07	1.6941e-07	905.31	444.88	1.7264e-07	1.6457e-07	482.82	216.55	197.88	109.54	1.7264e-07	125.04	87.489	0.805	36.994	-43.716	87.789	65.300	-46.192	-38.758	91.410	85.112	-41.842	-37.669	-33.880	-29.640	69.440	-33.929	-8191	255	
2693.245	1	1	0	131072	0.13256	0.16298	0.20993	0.18749	0.09534	0.17171	0.18254	0.29298	0.090172	0.040144	0.23285	0.1901	0.29304	0.25372	0.17067	0.17521	-3.4313	-3.7333	-4.1583	-3.7271	-4.1833	-3.9688	-3.7292	-4.4417	-3.8625	-3.7667	-4.4708	-3.8021	-4.1937	-4.3146	-3.5104	-4.2354	80.079	184.880	-55.752	280.942	146.321	132.626	-40.289	229.399	235.127	-4.987	229.274	208.141	300.220	-46.930	213.386	267.483	0.0012574	0.00025971	9.7624e-05	1007.6	2.8612e-06	3.1378e-06	1092.5	566.05	2.7842e-06	2.5231e-06	645.46	289.07	260.83	120.96	1.3929e-06	172.81	2.3409e-05	1.5982e-05	4.1962e-06	858.71	1.8729e-07	1.7783e-07	904.25	445.24	1.9534e-07	1.8222e-07	483.52	218.08	199.92	109.87	1.8943e-07	125.14	87.937	10.947	44.456	-43.761	91.903	66.733	-45.985	-38.912	67.066	73.873	-42.044	-37.729	-33.860	-29.623	81.933	-33.817	-8191	255	
2693.341	1	1	0	131072	0.23571	0.098791	0.10141	0.18847	0.12465	0.11003	0.024462	0.1432	0.25233	0.26315	0.11511	0.34401	0.10719	0.30897	0.085805	0.093049	-3.5583	-3.5479	-4.275	-3.9042	-3.8479	-4.1646	-3.6917	-4.3229	-3.95	-3.5917	-4.3292	-3.7021	-4.2208	-4.3271	-3.475	-4.2708	-53.313	84.434	68.025	48.126	143.375	50.072	-51.279	267.895	120.820	-49.738	-8.969	236.346	165.958	275.802	24.687	188.888	0.0012134	0.00030647	7.1498e-05	1005.2	3.6184e-06	3.2501e-06	1093.3	562.33	2.7974e-06	2.115e-06	646.89	292.48	262.69	120.09	1.5748e-06	173.65	2.5629e-05	1.7434e-05	4.624e-06	860.63	2.1555e-07	1.9793e-07	910.17	443.68	2.1981e-07	1.966e-07	483.92	220.48	201.26	110.29	1.9471e-07	125.79	81.068	21.942	37.361	-43.646	79.596	43.209	-45.825	-38.681	54.530	105.724	-41.812	-37.490	-33.888	-29.568	72.269	-33.886	-8191	255	
2693.462	1	1	0	131072	0.11318	0.11519	0.075215	0.10926	0.11156	0.27835	0.31746	0.26476	0.36337	0.16292	0.11476	0.16982	0.11077	0.37075	0.21726	0.18095	-3.6375	-3.6292	-4.1208	-3.8521	-3.9583	-4.2063	-3.8667	-4.1771	-4.0813	-3.6708	-4.2688	-3.8896	-4.0167	-4.6667	-3.5438	-4.2333	238.362	148.004	284.780	262.630	-49.564	300.493	234.000	-44.738	196.522	-2.726	238.053	228.893	274.486	289.040	37.648	263.691	0.0012752	0.00028303	0.00013291	1012.8	3.1975e-06	3.7306e-06	1107.2	560.81	2.1772e-06	2.3567e-06	648.13	294.85	264.85	120.48	1.8554e-06	172.89	2.5961e-05	1.8293e-05	4.6495e-06	865.16	2.1739e-07	1.9353e-07	919.36	442.34	2.1543e-07	1.947e-07	485.78	222.5	202.63	110.12	1.9316e-07	125.05	84.146	25.849	19.253	-43.552	90.583	55.917	-45.851	-38.602	72.962	84.503	-41.796	-37.593	-33.966	-29.673	67.701	-33.918	-8191	255	
2693.558	1	1	0	131072	0.25223	0.15212	0.13425	0.24891	0.22193	0.30172	0.17177	0.03541	0.22766	0.15364	0.1214	0.2097	0.41943	0.22787	0.081186	0.28889	-3.5979	-3.6437	-4.225	-3.7229	-3.8	-4.3708	-3.8167	-4.2188	-4.0521	-3.5542	-4.2542	-4.05	-3.8646	-4.6021	-3.7979	-4.0125	174.428	109.449	266.199	-55.489	271.782	249.891	211.966	-38.351	225.091	168.208	287.693	168.644	273.886	-46.716	290.785	264.362	0.0011877	0.00023489	9.4712e-05	1013	1.6905e-06	2.7232e-06	1101.8	559.72	3.6537e-06	2.2937e-06	644.18	289.6	263.52	121.76	1.5765e-06	169.6	2.5165e-05	1.721e-05	4.7241e-06	866.86	2.0296e-07	1.8137e-07	914.71	440.21	2.0476e-07	1.8724e-07	482.03	218.81	201.14	109.5	2.0609e-07	123.08	90.932	18.704	46.656	-43.588	108.112	72.079	-45.801	-38.639	75.786	71.936	-41.745	-37.700	-34.031	-29.678	61.572	-33.795	-8191	255	
2693.630	1	1	0	131072	0.1217	0.0041426	0.066797	0.26355	0.10225	0.21956	0.15125	0.1556	0.2151	0.252	0.15258	0.3116	0.13361	0.40758	0.32144	0.21867	-3.8458	-3.6396	-4.2021	-3.9188	-3.6125	-4.2458	-3.8042	-4.1458	-4.0833	-3.4542	-4.2583	-4.1917	-3.6729	-4.5854	-3.7562	-4.0646	86.412	237.626	141.725	-12.867	30.547	67.442	178.244	224.712	2.560	24.574	280.276	251.452	257.547	264.468	218.192	274.122	0.0012077	0.00034811	7.9343e-05	1008.9	2.4653e-06	2.3431e-06	1095.8	555.31	2.4688e-06	1.656e-06	642.2	289.37	263.26	121.92	1.3513e-06	170.18	2.4434e-05	1.6512e-05	4.8967e-06	862.78	1.9283e-07	1.719e-07	912.16	437.06	1.932e-07	1.7342e-07	480.32	218.42	201.11	109.34	2.0933e-07	122.85	88.437	33.131	31.550	-43.645	89.875	67.255	-45.751	-38.526	53.573	69.934	-41.828	-37.645	-33.931	-29.551	46.836	-33.790	-8191	255	
2693.750	1	1	0	131072	0.37299	0.082003	0.20084	0.089046	0.20739	0.16772	0.093739	0.21844	0.15244	0.092649	0.11772	0.14949	0.13043	0.39937	0.062967	0.22491	-3.7604	-3.4792	-3.9604	-4.2271	-3.4646	-4.2271	-3.6813	-3.8458	-4.3646	-3.4771	-4.1729	-4.1896	-3.7396	-4.3771	-3.9521	-4.0271	83.009	149.538	-47.023	298.675	262.612	151.156	188.420	-17.019	138.164	35.677	250.532	224.795	-49.973	285.684	95.742	211.862	0.0011419	0.00034565	0.00010203	1005.3	3.0387e-06	3.3455e-06	1092.3	553.94	1.9973e-06	2.342e-06	640.44	292.64	264.5	122.34	2.0018e-06	168.86	2.3148e-05	1.6279e-05	5.0982e-06	862	1.8565e-07	1.6998e-07	910.25	434.94	1.8594e-07	1.7834e-07	481.11	220.61	202.16	109.13	2.2408e-07	122.26	86.170	32.028	21.060	-43.732	89.378	79.239	-45.784	-38.637	54.034	69.610	-41.819	-37.698	-33.929	-29.662	75.456	-33.688	-8191	255	
2693.845	1	1	0	131072	0.11178	0.12971	0.21393	0.18778	0.22504	0.041888	0.14871	0.087512	0.11715	0.14832	0.052101	0.081417	0.1424	0.26488	0.095931	0.23137	-3.9083	-3.5542	-3.8417	-4.3333	-3.6562	-4.05	-4.05	-3.6583	-4.2146	-3.8146	-3.9646	-4.225	-3.9333	-4.3208	-4.0354	-3.9833	124.345	236.262	8.007	170.821	243.520	226.758	270.516	60.493	298.079	146.685	297.546	285.297	-6.955	-27.467	38.861	303.086	0.0012115	0.00026385	8.7492e-05	1013.7	2.9443e-06	2.2109e-06	1101.5	548.79	2.1552e-06	2.2691e-06	639.98	291.7	264.2	123.47	2.2146e-06	165.04	2.3978e-05	1.7801e-05	5.4922e-06	866.13	1.9311e-07	1.9883e-07	917.75	431.94	1.9484e-07	2.0784e-07	480.94	220.53	202.12	108.26	2.4689e-07	119.82	84.542	24.965	40.587	-43.554	71.924	61.140	-45.961	-38.316	54.042	91.535	-41.909	-37.689	-33.869	-29.400	66.922	-33.715	-8191	255	
2693.941	1	1	0	131072	0.14097	0.11226	0.087065	0.20824	0.12036	0.1567	0.13975	0.38174	0.16637	0.24297	0.095476	0.19111	0.14623	0.22068	0.2829	0.29107	-3.9042	-3.4813	-3.9021	-4.2375	-3.6125	-4.1188	-4.2167	-3.4479	-4.2042	-3.5854	-3.9188	-4.3917	-3.7229	-4.35	-3.9354	-3.7875	-56.236	72.189	-55.064	274.518	291.368	123.544	91.963	246.364	87.708	253.885	194.360	245.348	188.302	297.237	182.207	229.156	0.0011955	0.00035283	9.2103e-05	1050.2	2.7541e-06	3.2127e-06	1132.4	546.55	1.8091e-06	1.8579e-06	637.98	289.41	263.71	124.3	1.9368e-06	161.52	2.5229e-05	2.1527e-05	6.2697e-06	897.84	2.2022e-07	2.3916e-07	943.09	431.83	2.1977e-07	2.5059e-07	479.22	218.59	202.35	107.31	2.6365e-07	117.2	82.564	38.515	26.866	-43.732	91.821	78.922	-45.898	-38.373	77.243	81.353	-41.671	-37.453	-33.749	-29.275	63.079	-33.445	-8191	255	
2694.037	1	1	0	131072	0.16615	0.07784	0.15235	0.16929	0.14077	0.18444	0.1421	0.12847	0.18286	0.19283	0.22658	0.21157	0.25044	0.31756	0.24328	0.19885	-3.7667	-3.7854	-3.6	-4.2729	-3.5125	-4.1167	-4.0833	-3.6667	-4.1479	-3.8083	-3.7604	-4.3875	-3.7771	-4.2604	-4.0833	-3.5854	-5.739	163.531	208.113	246.482	174.515	-7.870	227.159	-25.585	126.017	-23.500	273.428	261.741	291.303	275.772	-36.910	264.273	0.0011342	0.00027807	0.00013257	1048.7	2.6153e-06	3.789e-06	1121.5	544.97	1.3179e-06	7.9925e-07	635.18	289.1	264.76	125.19	8.8681e-07	159.39	2.7372e-05	2.4986e-05	6.7058e-06	899	2.5003e-07	2.828e-07	934.57	429.62	2.5847e-07	2.8886e-07	477.84	218.34	203.04	106	2.7397e-07	115.48	84.760	25.366	30.929	-43.689	70.192	66.683	-45.713	-38.128	82.871	110.145	-41.702	-37.457	-33.782	-29.137	64.206	-33.308	-8191	255	
2694.158	1	1	0	131072	0.13578	0.13046	0.12165	0.13931	0.059566	0.13965	0.092449	0.22808	0.14506	0.038069	0.21555	0.018948	0.46773	0.24474	0.14438	0.25977	-3.7667	-3.9479	-3.5917	-4.2562	-3.6333	-3.7687	-4.3229	-3.6646	-4.0437	-3.9625	-3.8292	-4.3875	-3.8229	-4.1125	-4.2229	-3.9875	28.723	50.210	74.016	232.600	117.794	52.028	172.741	212.837	88.770	52.163	251.187	31.886	217.957	266.157	126.867	211.739	0.0011179	0.00022894	6.7255e-05	1051.4	1.4913e-06	3.8098e-06	1122.9	544.33	2.223e-06	2.7462e-06	638.55	290.9	265.21	125.19	2.2894e-06	158.78	3.0532e-05	2.6636e-05	6.8606e-06	900.02	2.7983e-07	2.9305e-07	938.15	430.51	2.8453e-07	2.8987e-07	479.76	219.47	203.78	106.05	2.6865e-07	115.33	86.501	7.035	22.517	-43.445	87.141	47.906	-45.689	-38.129	78.834	88.216	-41.421	-37.487	-33.773	-29.079	69.222	-33.314	-8191	255	
2694.254	1	1	0	131072	0.088443	0.21202	0.097255	0.31239	0.085675	0.095373	0.086004	0.21236	0.044469	0.18899	0.15711	0.21189	0.14845	0.28924	0.19734	0.20087	-3.8104	-3.9854	-3.6229	-4.1271	-3.6958	-3.75	-4.4354	-3.6896	-3.8771	-3.875	-3.5896	-4.2667	-3.9437	-3.9938	-4.3042	-3.8604	-54.546	162.277	280.895	253.652	40.441	77.793	275.277	-50.526	36.482	93.909	-39.962	284.721	266.702	295.511	79.623	202.141	0.0011142	0.00031518	0.00012739	1049.4	2.7147e-06	2.9775e-06	1120.7	544.73	2.1163e-06	1.9445e-06	637.96	288.56	265.05	125.59	1.8966e-06	156.53	3.2258e-05	2.6046e-05	6.6985e-06	899.1	2.9043e-07	2.7824e-07	933.92	430.57	2.9204e-07	2.7689e-07	479.22	218.19	203.53	105.41	2.6293e-07	113.55	83.331	35.472	30.802	-43.172	83.745	65.673	-45.700	-38.117	54.692	79.051	-41.435	-37.416	-33.563	-29.111	69.794	-33.399	-8191	255	
2694.325	1	1	0	131072	0.020825	0.18013	0.098767	0.15675	0.11468	0.065979	0.26051	0.2451	0.19467	0.17499	0.16776	0.090606	0.25593	0.017851	0.03171	0.28682	-3.4896	-4.075	-3.3229	-4.1521	-3.9271	-3.6688	-4.4896	-3.7208	-4.075	-4.0854	-3.7646	-4.225	-4.1125	-3.8854	-4.2667	-3.8771	273.269	72.347	237.235	-35.501	263.743	-37.386	10.743	255.629	105.461	193.794	200.580	264.414	293.699	216.803	123.755	252.995	0.0011541	0.00033591	9.6995e-05	1032.9	1.9976e-06	3.7209e-06	1095.8	540.91	1.7257e-06	1.6736e-06	634.94	288.06	266.3	126.37	2.8001e-06	153.56	3.3483e-05	2.533e-05	6.5501e-06	886.89	3.079e-07	2.7501e-07	914.3	428.44	3.1288e-07	2.7755e-07	476.09	217.71	204.38	104.47	2.7014e-07	111.84	83.845	4.331	36.963	-43.416	98.321	55.764	-45.569	-37.923	79.439	77.936	-41.350	-37.286	-33.596	-29.025	83.211	-33.148	-8191	255	
2694.422	1	1	0	131072	0.30876	0.24864	0.17427	0.13065	0.15269	0.063783	0.18461	0.087759	0.16147	0.30203	0.16544	0.035916	0.28998	0.29549	0.13336	0.055157	-3.675	-4.0146	-3.5354	-4.1125	-4.1979	-3.7729	-4.1958	-3.8708	-3.7104	-4.175	-3.6937	-4.2167	-4.2	-3.8667	-4.2167	-3.7667	283.334	172.026	183.256	-11.948	286.570	95.118	246.707	189.418	184.062	41.239	36.515	8.579	237.737	263.034	196.042	143.791	0.0010129	0.00031143	0.00010024	1016.7	2.5237e-06	2.4646e-06	1080.8	540.88	2.9708e-06	3.8984e-06	633.25	287.38	266.58	127.93	2.6183e-06	138.49	3.4613e-05	2.6503e-05	6.9475e-06	873.74	3.2341e-07	2.916e-07	901.87	428.76	3.1663e-07	2.875e-07	476.18	217.99	204.84	99.104	2.8004e-07	100.82	84.948	12.166	37.929	-43.241	73.988	67.092	-45.486	-37.915	66.203	78.337	-41.263	-37.477	-33.539	-29.109	71.933	-32.958	-8191	255	
2694.542	1	1	0	0	0.099656	0.12945	0.24285	0.094159	0.25729	0.24972	0.054866	0.1382	0.064637	0.12046	0.15229	0.344	0.30102	0.36653	0.31642	0.10533	-3.35	-4.0917	-3.5312	-4.1875	-3.9146	-3.5229	-4.1854	-4.05	-3.6229	-4.2979	-3.7667	-4.2708	-4.2438	-3.8667	-4.15	-4.0875	84.571	13.898	11.891	101.608	181.293	64.006	3.378	254.134	-31.323	-40.268	176.015	239.855	298.198	285.746	263.273	208.560	0.00098462	0.00020279	5.5605e-05	975.84	2.506e-06	2.0971e-06	1051.1	552.94	3.4997e-06	2.3177e-06	665.9	296.66	284.75	116.1	1.8281e-06	122.8	3.4133e-05	2.6504e-05	7.3879e-06	841.83	3.2169e-07	2.9694e-07	878.93	437.38	3.3586e-07	3.0479e-07	500.77	224.52	218.63	88.29	3.3046e-07	89.632	86.670	12.088	26.827	-43.195	71.323	45.549	-45.479	-37.784	60.797	71.118	-41.183	-37.452	-34.098	-29.122	85.443	-32.908	-8191	255	
2694.638	1	1	0	0	0.12672	0.16739	0.11757	0.2678	0.20134	0.20595	0.32077	0.017979	0.25202	0.22827	0.089619	0.38935	0.40227	0.075708	0.13772	0.20293	-3.2979	-4.2729	-3.6208	-3.8854	-4.1354	-3.5312	-4.3875	-4.2229	-3.6771	-4.45	-3.9208	-4.15	-4.2667	-3.8417	-4.1188	-4.2396	163.337	102.537	-42.727	235.713	86.879	14.241	287.505	25.028	36.879	296.825	174.260	235.859	283.411	-3.082	197.511	197.294	0.00084791	0.00026324	9.8836e-05	976.25	2.3967e-06	2.9675e-06	1084.7	596.88	3.0966e-06	2.8629e-06	706.62	301.05	298.79	106.58	8.2554e-07	115.17	3.606e-05	2.8377e-05	8.7761e-06	841.25	3.4503e-07	3.2273e-07	910.36	471.59	3.6117e-07	3.2927e-07	533.41	228.62	228.92	81.038	4.176e-07	84.168	83.404	24.862	60.929	-43.208	65.880	58.034	-45.356	-38.195	47.434	81.623	-41.694	-37.825	-34.513	-29.618	42.422	-33.436	-8191	255	
2694.734	1	1	0	0	0.095266	0.21971	0.037732	0.17496	0.051139	0.12342	0.15078	0.46908	0.26135	0.18572	0.22296	0.32527	0.20032	0.28742	0.12469	0.1806	-3.1875	-4.2479	-3.7667	-3.9333	-4.15	-3.5292	-4.0667	-4.2917	-3.6125	-4.3042	-3.7333	-4.0396	-4.275	-3.7979	-4.075	-4.175	47.021	-47.392	68.400	276.905	126.057	-5.165	291.225	255.378	144.880	3.335	296.244	239.130	285.910	221.214	129.771	-30.458	0.00073039	0.0001104	0.0001062	1092.2	3.0364e-06	1.6779e-06	1284.6	721.3	1.6659e-06	2.6314e-06	813.37	323.61	321.19	105.37	2.2434e-06	114.27	4.1588e-05	3.4518e-05	1.1515e-05	943.19	4.2546e-07	4.1241e-07	1076.4	571.68	4.5607e-07	4.306e-07	613.87	246.04	246.84	80.399	5.5578e-07	83.494	72.600	34.955	40.709	-43.293	58.726	77.815	-45.888	-39.532	11.954	90.165	-42.611	-38.787	-35.600	-30.652	81.412	-34.139	-8191	255	
2694.831	1	1	0	0	0.24625	0.077563	0.22389	0.24886	0.27772	0.2704	0.30146	0.24919	0.11102	0.11473	0.29812	0.10652	0.28306	0.13881	0.051253	0.15098	-3.0896	-4.2562	-3.7146	-3.8312	-4.1771	-3.5583	-4.0396	-4.2333	-3.375	-4.0271	-4.0042	-3.7313	-4.4313	-3.7125	-3.9125	-4.2667	70.715	134.026	165.070	33.129	216.342	18.365	196.476	-56.712	155.476	149.275	272.450	-52.464	239.849	-54.333	113.781	191.672	0.00071548	0.00030763	0.00011983	1186.8	1.7132e-06	1.4696e-06	1392.8	748.88	2.2173e-06	3.0092e-06	820.51	323.7	315.17	95.229	1.9774e-06	105.71	4.9933e-05	4.5945e-05	1.491e-05	1024.3	5.0838e-07	5.2908e-07	1172.7	590.89	5.1061e-07	5.3147e-07	618.71	245.64	241.86	72.803	5.9589e-07	77.362	71.133	31.742	39.920	-43.990	70.359	72.521	-46.349	-39.968	49.928	97.690	-42.943	-39.250	-36.076	-31.247	20.352	-34.489	-8191	255	
2694.925	1	1	0	0	0.089751	0.11684	0.10848	0.27399	0.17691	0.072742	0.10106	0.15401	0.017948	0.037099	0.053354	0.1352	0.2259	0.12288	0.092905	0.052601	-3.1521	-4.0896	-3.9958	-3.8063	-4.3063	-3.7875	-4.0604	-4.3229	-3.6021	-4.125	-4.2208	-3.8021	-4.2771	-3.8458	-3.8083	-4.3917	68.365	200.269	30.112	-33.884	105.771	265.465	234.774	218.093	134.291	100.598	236.829	-1.728	268.282	-32.083	223.287	240.640	0.00061357	0.0001984	0.00016196	1291	1.0649e-06	2.0716e-06	1429.4	694.12	1.9969e-06	1.5208e-06	762.34	296.16	282.78	75.246	2.3606e-06	84.686	4.996e-05	5.0491e-05	1.4969e-05	1111.8	4.9936e-07	5.6731e-07	1204.3	549.07	5.0218e-07	5.6586e-07	575.28	225.31	217.18	57.745	5.7659e-07	62.451	82.325	39.821	49.296	-44.100	80.688	93.999	-46.381	-39.819	48.909	90.501	-42.738	-38.969	-36.083	-31.166	69.368	-34.584	-8191	255	
2695.023	1	1	0	0	0.21192	0.23135	0.094447	0.21542	0.054052	0.23106	0.37993	0.31092	0.012684	0.088864	0.014576	0.15432	0.18205	0.25955	0.18799	0.17461	-3.2167	-4.0312	-4.0583	-3.7604	-4.4083	-3.8375	-3.9292	-4.45	-3.7313	-3.9604	-4.1188	-3.6	-4.3875	-4.1562	-3.8979	-4.3229	175.503	-33.984	283.615	254.758	183.567	9.604	245.730	206.220	232.891	-45.174	98.428	242.003	184.175	-37.699	-27.897	255.855	0.00064783	0.00015118	9.9463e-05	1288.9	1.5933e-06	3.0095e-06	1409	652.49	1.553e-06	1.8316e-06	725.05	277.31	269.31	68.656	2.101e-06	80.072	4.9943e-05	5.4967e-05	1.4638e-05	1111.1	5.1702e-07	6.0579e-07	1181.4	516.06	5.3752e-07	6.0955e-07	550	210.97	207.13	52.805	5.5585e-07	58.862	78.654	6.844	29.467	-44.547	86.892	95.541	-46.426	-40.005	108.134	83.907	-43.126	-38.850	-36.233	-31.243	92.105	-34.596	-8191	255	
2695.142	1	1	0	0	0.078318	0.13567	0.19085	0.10001	0.063044	0.19242	0.13153	0.1468	0.25632	0.042875	0.065067	0.17442	0.28331	0.063985	0.075556	0.046951	-3.4167	-3.8333	-4.2104	-3.4708	-4.2208	-4.0354	-3.6979	-4.3729	-3.7979	-4.0167	-4.3375	-3.8458	-4.325	-4.0687	-3.6604	-4.3771	264.497	37.911	152.684	-36.021	44.363	264.136	230.827	242.062	93.009	184.949	35.138	272.620	278.727	295.207	134.767	109.945	0.00062739	0.00027192	7.3743e-05	1268.7	2.4577e-06	2.7354e-07	1391.7	661.51	1.9805e-06	1.8953e-06	741.02	287.38	280.96	73.155	1.8798e-06	85.722	5.1718e-05	5.4681e-05	1.3854e-05	1093.3	5.3561e-07	5.8499e-07	1166.6	522.22	5.5083e-07	5.7606e-07	559.41	218.13	215.73	56.145	5.2288e-07	62.946	71.248	2.258	12.286	-44.457	108.235	5.061	-46.570	-40.048	110.550	93.253	-42.779	-39.193	-36.111	-31.281	79.718	-34.711	-8191	255	
2695.238	1	1	0	0	0.25623	0.26756	0.1713	0.37897	0.057457	0.17255	0.26856	0.11821	0.15663	0.18955	0.060216	0.23099	0.18049	0.24958	0.18271	0.24174	-3.4729	-4.0208	-4.0458	-3.7229	-4.0917	-4	-3.6958	-4.4292	-3.7438	-3.9167	-4.475	-3.8	-4.3396	-4.1854	-3.4813	-4.4208	210.985	12.025	153.600	285.375	296.736	248.645	198.319	256.271	214.021	83.955	-26.328	179.311	-57.304	-11.328	-34.623	248.456	0.00055529	0.00027331	0.00011851	1248.2	8.3884e-07	3.1382e-06	1390.6	694.6	1.4899e-06	2.7508e-06	790.25	306.55	300.28	79.98	1.5189e-06	93.871	5.4055e-05	5.1513e-05	1.2831e-05	1073.2	5.5906e-07	5.5984e-07	1165.4	549.05	5.9067e-07	5.6379e-07	594.6	232.82	231.2	61.35	5.1564e-07	68.858	74.167	10.845	56.633	-44.507	96.045	28.981	-46.450	-39.904	50.156	82.767	-42.897	-39.223	-36.029	-31.095	44.941	-34.573	-8191	255	
2695.334	1	1	0	0	0.090085	0.11874	0.036157	0.19348	0.051213	0.10773	0.14528	0.19488	0.026866	0.065979	0.11971	0.29711	0.23971	0.35761	0.18713	0.12568	-3.3688	-3.8688	-4.1604	-3.75	-4.1438	-4.0792	-3.8542	-4.4	-3.95	-3.7021	-4.4437	-3.7896	-4.0896	-4.2771	-3.7042	-4.2688	151.816	47.650	251.118	-47.652	206.146	232.054	220.258	235.542	78.564	210.321	202.865	163.374	-24.356	260.232	-43.592	1.913	0.00072744	0.00030109	0.00010665	1204	2.4096e-06	4.4508e-06	1352.6	720.89	8.9168e-07	1.9259e-06	821.96	316.02	309.12	83.941	2.5312e-06	97.328	5.7127e-05	4.9114e-05	1.2426e-05	1038.1	5.599e-07	5.0658e-07	1129.6	570.43	5.5082e-07	4.9452e-07	617.99	239.58	237.46	64.137	4.4994e-07	71.366	68.823	19.297	-0.022	-43.863	120.242	50.809	-46.198	-39.912	74.590	94.254	-42.736	-39.254	-35.891	-30.557	72.536	-34.229	-8191	255	
2695.430	1	1	0	0	0.13793	0.02937	0.10613	0.19557	0.087407	0.2291	0.1004	0.25685	0.23446	0.10056	0.26731	0.17637	0.24526	0.40826	0.13088	0.018843	-3.7229	-3.6333	-4.0938	-3.8229	-3.875	-4.2479	-3.6333	-4.2812	-3.9042	-3.7542	-4.3812	-3.8229	-3.9979	-4.4187	-3.4979	-4.35	272.438	243.116	192.537	254.958	236.249	100.138	267.084	238.356	276.655	221.806	226.765	-46.111	222.050	250.303	187.612	237.450	0.0004712	0.00039746	0.00013121	1124.1	3.3326e-06	3.0378e-06	1280.5	702.59	2.8292e-06	3.2069e-06	802.28	309.21	303.54	83.204	2.4711e-06	96.07	5.1494e-05	4.3547e-05	1.0992e-05	969.88	5.0684e-07	4.5679e-07	1070.1	556.17	4.9926e-07	4.5216e-07	603.93	235.56	233.15	63.614	4.3107e-07	70.482	78.656	18.155	36.105	-43.840	79.198	60.406	-46.000	-39.576	36.934	97.554	-42.799	-38.986	-35.627	-30.495	81.680	-34.039	-8191	255	
2695.551	1	1	0	0	0.30035	0.05999	0.09021	0.11651	0.15248	0.13355	0.14763	0.35315	0.022889	0.07485	0.1732	0.20378	0.36228	0.34255	0.087795	0.079575	-3.6979	-3.7667	-4.2021	-3.95	-3.9458	-4.2479	-3.6958	-4.1583	-4.1604	-3.5812	-4.3875	-3.7917	-4.0375	-4.2729	-3.6292	-4.0229	220.013	228.766	-5.678	-47.466	175.925	223.671	219.239	299.836	-4.742	65.696	274.441	269.024	-10.777	287.704	102.703	295.058	0.00058023	0.00027294	9.2061e-05	1025.3	2.8462e-06	2.9927e-06	1149	622.68	1.1363e-06	2.4331e-06	711.63	290.22	283.24	81.751	1.8265e-06	94.166	4.7149e-05	3.9619e-05	1.0504e-05	885.05	4.5635e-07	4.0945e-07	961.45	493.53	4.2621e-07	3.8496e-07	536.45	220.27	217.54	62.31	3.7642e-07	68.945	73.416	16.480	53.822	-43.542	68.165	61.614	-45.553	-39.247	28.773	74.132	-42.260	-38.358	-35.212	-29.940	94.025	-33.450	-8191	255	
2695.623	1	1	0	0	0.070071	0.1226	0.030309	0.25223	0.13662	0.036669	0.11787	0.33182	0.16692	0.17113	0.049234	0.22533	0.19492	0.24413	0.10534	0.15176	-3.8333	-3.3583	-4.1708	-4.0875	-3.6729	-4.1271	-3.7083	-4.1312	-4.2542	-3.3708	-4.3	-3.9833	-3.7188	-4.4771	-3.8292	-4.05	148.627	-8.278	141.899	209.802	-20.804	89.093	234.788	205.001	76.281	128.966	237.090	270.862	271.046	-48.297	58.815	289.044	0.00061662	0.00024669	9.583e-05	967.45	4.604e-07	2.4411e-06	1063.5	531.05	1.2275e-06	2.1788e-06	614.02	269.03	260.11	82.59	2.0119e-06	96.544	3.7039e-05	3.0748e-05	8.8581e-06	834.4	3.484e-07	3.0561e-07	893.49	420.85	3.1916e-07	2.8604e-07	463.35	203.98	199.42	62.929	2.9927e-07	70.253	70.444	8.145	38.487	-43.101	70.016	57.593	-45.434	-38.248	27.552	73.796	-41.286	-37.919	-34.305	-29.190	100.719	-33.297	-8191	255	
2695.719	1	1	0	0	0.282	0.081974	0.10489	0.070241	0.21335	0.16275	0.17081	0.16191	0.15561	0.025321	0.23101	0.082692	0.24778	0.12039	0.12382	0.16181	-3.7375	-3.6146	-3.9771	-4.0521	-3.6896	-4.075	-3.8104	-3.8771	-4.1792	-3.5604	-4.225	-4.2396	-3.7708	-4.4	-3.7479	-3.8208	212.670	180.868	156.574	269.384	98.896	179.614	-48.670	273.317	164.283	242.874	246.367	273.866	274.628	26.160	253.327	295.634	0.00064282	0.00021086	8.3544e-05	968.17	2.9168e-06	3.3936e-06	1051.5	507.74	1.1676e-06	1.8202e-06	590.71	264.09	251.95	89.632	1.0743e-06	103.06	2.7933e-05	2.2585e-05	6.9291e-06	833.22	2.5123e-07	2.2313e-07	879.76	401.69	2.3826e-07	2.2015e-07	443.98	199.58	192.66	68.16	2.6109e-07	75.045	73.203	17.572	33.912	-42.986	93.480	55.240	-45.345	-37.869	67.051	82.171	-41.179	-37.548	-33.897	-29.274	43.520	-33.163	-8191	255	
2695.815	1	1	0	0	0.12541	0.2245	0.11363	0.076896	0.058901	0.20878	0.20669	0.30006	0.15379	0.15426	0.27986	0.27184	0.10054	0.092369	0.19493	0.33861	-3.7146	-3.5896	-3.9813	-4.2667	-3.5375	-4.375	-3.8375	-3.8083	-4.2833	-3.6	-4.0646	-4.3646	-3.7979	-4.2063	-3.7958	-3.7354	85.197	-38.291	131.970	-10.351	67.288	38.706	102.503	295.829	257.063	120.046	206.862	223.283	47.785	14.189	60.958	257.948	0.00074716	0.00022577	7.1642e-05	978.8	2.2324e-06	1.9147e-06	1057.8	505.8	1.6127e-06	3.3744e-06	585.84	266.18	251.94	93.801	1.6479e-06	106.72	2.4267e-05	2.0497e-05	6.42e-06	840.48	2.2066e-07	2.1643e-07	882.61	398.65	2.128e-07	2.1755e-07	440.37	200.83	192.52	71.259	2.481e-07	77.641	85.632	11.799	57.702	-43.242	96.455	75.301	-45.403	-37.889	85.064	89.605	-41.248	-37.595	-34.044	-29.257	55.585	-33.358	-8191	255	
2695.934	1	1	0	0	0.21589	0.2006	0.010187	0.19382	0.21418	0.072887	0.16843	0.28921	0.10738	0.089387	0.14716	0.22713	0.1358	0.1129	0.30093	0.3522	-3.7958	-3.6625	-3.7417	-4.3896	-3.6146	-4.1604	-4.1917	-3.7812	-4.2542	-3.7167	-3.8625	-4.3729	-3.7979	-4.1292	-3.85	-3.7771	102.011	186.457	246.035	157.399	114.777	253.827	186.927	231.049	195.470	148.033	291.890	-26.117	-29.869	300.340	156.199	208.418	0.00079813	0.00024548	7.8265e-05	977.4	1.3673e-06	2.6506e-06	1058.7	506.65	9.8213e-07	2.0457e-06	589.03	268.59	252.75	99.799	1.2413e-06	115.7	2.3299e-05	2.1027e-05	6.2395e-06	839.03	2.1059e-07	2.3093e-07	882.73	399.77	2.0567e-07	2.3086e-07	443.4	202.86	193.78	75.943	2.3605e-07	84.239	75.832	30.823	39.144	-43.145	78.234	68.040	-45.340	-37.963	72.433	110.696	-41.279	-37.475	-33.897	-29.249	95.338	-33.134	-8191	255	
2696.030	1	1	0	0	0.017438	0.021241	0.085231	0.25184	0.051735	0.25682	0.14816	0.044132	0.2409	0.21691	0.080548	0.14547	0.19942	0.23744	0.01657	0.28228	-3.7333	-3.7979	-3.7479	-4.5146	-3.5333	-4.1562	-4.0458	-3.7167	-4.3167	-3.8375	-3.9604	-4.3812	-3.8646	-4.1333	-4.2521	-3.7375	286.461	155.526	303.726	223.708	-38.607	259.924	276.558	79.065	89.656	190.591	133.802	262.673	299.387	252.023	183.360	237.180	0.00082196	0.00021227	8.4449e-05	1002.9	2.3074e-06	3.1834e-06	1082.3	515.28	8.194e-07	1.9843e-06	600.86	272.95	256.07	108.66	1.8832e-06	127.32	2.3227e-05	2.1908e-05	5.9316e-06	858.75	2.0884e-07	2.3511e-07	900.94	406.12	2.0799e-07	2.3445e-07	450.09	206.2	196.29	82.688	2.308e-07	92.537	77.778	24.417	11.567	-43.142	113.739	102.577	-45.569	-37.825	121.044	102.941	-41.082	-37.454	-33.887	-29.036	75.556	-33.286	-8191	255	
2696.126	1	1	0	0	0.1432	0.16697	0.14028	0.12269	0.092375	0.1901	0.13991	0.145	0.1247	0.073717	0.1733	0.14613	0.16012	0.3399	0.16965	0.14523	-3.6979	-3.8583	-3.7188	-4.4062	-3.8021	-3.9917	-4.3125	-3.6375	-4.3	-3.8375	-3.975	-4.5667	-3.9625	-4.2104	-4.1708	-3.675	73.665	1.901	118.330	-12.684	13.486	96.923	-46.726	59.465	255.259	182.825	182.911	209.945	37.340	246.341	261.213	279.649	0.0008774	0.00031691	9.9089e-05	1007.6	2.4589e-06	3.3352e-06	1078.1	514.86	2.4621e-06	2.6116e-06	598.72	272.25	256.07	111.62	9.8135e-07	128.7	2.4538e-05	2.2311e-05	5.7586e-06	860.1	2.2701e-07	2.4674e-07	900.5	406.69	2.3194e-07	2.4703e-07	450.02	206.04	196.36	84.675	2.2877e-07	93.446	76.631	11.821	16.402	-43.186	96.824	60.628	-45.411	-37.714	77.420	82.949	-41.416	-37.490	-33.772	-29.084	99.404	-33.168	-8191	255	
2696.222	1	1	0	0	0.2098	0.09198	0.19974	0.13353	0.1135	0.15828	0.22925	0.26776	0.12643	0.12275	0.35968	0.16263	0.17639	0.27477	0.085025	0.31511	-3.8167	-3.9333	-3.4958	-4.3479	-3.6542	-3.8146	-4.3042	-3.8354	-4.0188	-3.9417	-3.6562	-4.3667	-4.1604	-4.0229	-4.2417	-3.6896	197.071	190.906	-19.786	-55.611	126.820	5.061	-3.092	265.081	258.028	52.467	276.146	177.450	254.761	-22.938	92.341	218.942	0.0010081	0.00018877	9.9112e-05	1000.2	1.6616e-06	2.9229e-06	1079.7	515.25	2.2078e-06	2.8112e-06	597.3	272.91	255.59	111.74	1.9962e-06	127.25	2.6776e-05	2.2271e-05	5.7436e-06	856.78	2.4448e-07	2.4239e-07	898.91	406.35	2.5127e-07	2.3992e-07	448.66	206.14	196.12	85.112	2.2686e-07	92.612	81.627	27.237	47.242	-43.200	122.193	72.065	-45.546	-37.758	74.147	77.413	-41.365	-37.450	-33.737	-29.126	56.666	-33.235	-8191	255	
2696.318	1	1	0	0	0.072104	0.025484	0.18015	0.30498	0.12536	0.20024	0.052424	0.32542	0.30987	0.091469	0.055581	0.059172	0.40479	0.20823	0.22003	0.32757	-3.7771	-4.0479	-3.5417	-4.3583	-3.925	-3.7896	-4.4229	-3.7417	-4.0083	-4.0917	-3.7104	-4.4167	-3.9354	-3.8875	-4.1979	-3.9958	145.739	143.853	119.663	-22.988	158.588	30.050	129.698	270.045	122.898	48.977	184.796	159.325	-48.080	215.996	134.982	295.293	0.0009689	0.00026672	9.5858e-05	993.97	2.5701e-06	2.0776e-06	1076.3	512.76	2.5332e-06	2.1258e-06	600.62	273.43	256.46	111.98	1.6139e-06	127.2	2.8431e-05	2.2205e-05	5.6964e-06	849.84	2.5535e-07	2.3607e-07	896.97	405.81	2.5958e-07	2.3473e-07	449.59	206.65	196.27	85.086	2.2451e-07	92.47	85.259	37.985	11.572	-42.900	113.490	56.469	-45.505	-37.896	58.449	76.546	-41.218	-37.263	-33.834	-29.069	66.440	-33.273	-8191	255	
2696.414	1	1	0	0	0.14815	0.22054	0.12018	0.20329	0.174	0.18063	0.097731	0.15632	0.2354	0.042315	0.097753	0.33586	0.16832	0.25448	0.18723	0.20912	-3.4188	-4.1979	-3.4375	-4.3521	-4.0042	-3.7854	-4.3146	-3.7229	-3.9583	-4.1229	-3.8146	-4.1833	-4.1312	-3.7687	-4.2417	-3.9333	174.669	249.111	26.958	-9.956	234.415	225.377	170.335	-36.793	-19.727	47.973	289.153	296.080	-41.721	12.795	181.413	221.302	0.00086476	0.00026792	7.9162e-05	984.45	3.0777e-06	2.6092e-06	1074.6	515.43	2.1106e-06	2.6397e-06	595.82	272.18	255.27	110.67	2.1835e-06	127.08	2.8646e-05	2.1448e-05	5.6012e-06	844.44	2.5915e-07	2.3284e-07	894.79	405.57	2.57e-07	2.3078e-07	448.49	206.06	195.65	84.161	2.2279e-07	92.5	88.065	12.059	26.543	-43.196	88.088	66.195	-45.198	-37.814	59.744	96.256	-41.049	-37.363	-33.844	-28.967	79.436	-33.251	-8191	255	
2696.511	1	1	0	0	0.16883	0.20677	0.043923	0.099231	0.19268	0.071561	0.16269	0.16912	0.25241	0.14512	0.13921	0.17481	0.17116	0.084182	0.2934	0.098735	-3.6688	-4.2646	-3.6771	-4.1354	-3.975	-3.7229	-4.4625	-3.7958	-3.7729	-4.1979	-3.8208	-4.2854	-4.3771	-3.8146	-4.2167	-4.075	-15.854	288.810	270.564	8.765	115.386	102.537	2.528	135.371	-3.130	228.397	282.218	219.939	215.750	62.672	213.339	132.115	0.00083651	0.0003053	7.5548e-05	984.86	2.3987e-06	3.7812e-06	1073	513.88	1.75e-06	2.2492e-06	595.2	271.26	254.29	113.54	1.6668e-06	132.44	2.7892e-05	2.102e-05	5.563e-06	847.36	2.5064e-07	2.2434e-07	893.35	405.62	2.4554e-07	2.2124e-07	447.04	205.31	194.91	86.331	2.2858e-07	96.222	85.662	25.147	9.584	-43.063	69.284	65.961	-45.394	-37.821	71.277	98.351	-41.140	-37.445	-33.856	-29.008	61.747	-33.102	-8191	255	
2696.631	1	1	0	0	0.13626	0.19366	0.25705	0.15175	0.041416	0.12858	0.054457	0.19284	0.14332	0.066474	0.035189	0.27879	0.20936	0.17393	0.15167	0.19003	-3.3333	-4.1104	-3.7146	-4.2854	-4.075	-3.6354	-4.3729	-4.1208	-3.8542	-4.3229	-3.9979	-4.0271	-4.3396	-3.9	-4.2667	-4.0167	126.649	-51.130	86.699	242.760	190.595	-19.649	-48.487	161.736	197.598	0.682	213.353	248.455	263.053	269.252	160.075	209.245	0.00093853	0.00035869	0.00010445	997.25	3.8201e-06	1.8954e-06	1076.1	513.59	2.1929e-06	1.9512e-06	595	272.11	254.35	114.56	1.7066e-06	132.92	2.6926e-05	1.9893e-05	5.8062e-06	853.49	2.3816e-07	2.1828e-07	896	405.01	2.3463e-07	2.0867e-07	446.97	205.47	194.96	87.015	2.3361e-07	96.531	88.522	3.771	41.430	-43.125	84.033	60.169	-45.639	-37.977	41.529	89.006	-41.110	-37.400	-33.911	-29.059	80.349	-33.194	-8191	255	
2696.726	1	1	0	0	0.12045	0.19968	0.12716	0.17545	0.22985	0.14864	0.052972	0.30027	0.12736	0.11424	0.14633	0.17277	0.072265	0.033714	0.16402	0.065459	-3.2667	-4.2521	-3.45	-4.0479	-4.1208	-3.7146	-4.2208	-4.0104	-3.7271	-4.3125	-3.7354	-4.125	-4.2937	-3.7667	-3.9604	-4.3229	132.478	153.246	57.307	285.561	197.239	147.845	191.646	175.647	114.080	84.122	-35.006	285.279	-8.132	24.471	184.135	216.782	0.00085995	0.00029293	0.000102	1004.2	1.8188e-06	2.3674e-06	1086.2	513.42	1.8322e-06	2.1561e-06	596.68	273.47	254.59	119.43	1.6244e-06	138.17	2.6109e-05	1.8863e-05	6.045e-06	862.49	2.2761e-07	2.0867e-07	906.36	405.84	2.3071e-07	2.087e-07	448.67	206.9	195.27	90.599	2.5193e-07	100.42	84.249	20.057	45.160	-43.076	72.482	68.988	-45.516	-37.829	66.988	77.528	-41.271	-37.236	-33.710	-28.954	69.110	-33.195	-8191	255	
2696.824	1	1	0	0	0.055485	0.0889	0.06724	0.15144	0.22565	0.019472	0.092072	0.048384	0.2493	0.082676	0.094691	0.1722	0.1884	0.25549	0.093585	0.03349	-3.25	-4.0771	-3.7042	-4.0292	-4.1167	-3.6771	-4.0875	-4.2917	-3.4396	-4.075	-4.0146	-3.8542	-4.4292	-3.8625	-3.9813	-4.3521	25.824	147.032	102.599	50.450	144.099	-11.590	83.338	204.166	127.879	190.850	1.541	301.206	249.434	302.967	80.403	203.977	0.0010134	0.0002235	0.00010295	1009	2.3822e-06	2.8223e-06	1093.5	514.6	2.2386e-06	2.2535e-06	596.05	273.1	255.27	120.91	1.5129e-06	139.42	2.5649e-05	1.9226e-05	6.2747e-06	865.27	2.1797e-07	2.1387e-07	910.09	406	2.1915e-07	2.1301e-07	448.58	206.49	195.31	91.887	2.4982e-07	101.39	85.211	38.045	28.694	-43.119	79.494	75.932	-45.579	-37.909	81.227	63.606	-41.106	-37.281	-33.722	-28.800	73.669	-33.179	-8191	255	
2696.920	1	1	0	0	0.13069	0.05394	0.11764	0.12564	0.1973	0.26112	0.054902	0.25339	0.20065	0.20247	0.049119	0.036433	0.21135	0.38346	0.10681	0.11164	-3.3312	-4.1604	-3.8729	-3.7229	-4.2063	-3.7708	-3.8729	-4.3458	-3.5833	-4.1354	-3.9646	-3.8729	-4.4667	-3.9667	-3.8937	-4.3229	249.191	48.784	39.743	68.797	298.118	224.238	237.632	242.916	276.965	76.625	181.623	261.038	291.334	280.614	131.994	-44.802	0.0010047	0.00022739	0.00012418	1012.9	2.0021e-06	2.6705e-06	1088.9	514.23	2.5542e-06	2.668e-06	594.08	272.71	254.46	122.18	2.2218e-06	140.94	2.441e-05	1.9506e-05	6.1126e-06	866.59	2.0314e-07	2.1889e-07	907.36	405.67	2.0988e-07	2.2238e-07	446.43	206.05	195.16	92.793	2.3748e-07	102.33	81.319	26.040	39.050	-43.422	104.004	69.941	-45.355	-37.828	91.159	97.502	-41.139	-37.349	-33.703	-28.990	49.358	-33.299	-8191	255	
2697.014	1	1	0	0	0.011484	0.21672	0.10748	0.098418	0.050638	0.089105	0.091975	0.28244	0.058646	0.206	0.18371	0.25131	0.12914	0.28911	0.13844	0.039438	-3.4229	-4.0146	-3.9917	-3.5729	-4.4021	-3.7583	-3.8812	-4.4646	-3.5438	-4.1687	-4.0771	-3.6333	-4.5208	-4.0813	-3.6708	-4.4604	88.802	124.513	62.804	250.130	249.131	254.422	216.243	274.023	279.849	-47.882	208.899	236.301	-55.738	-23.269	273.748	66.056	0.00095383	0.00033473	0.00010408	1018.2	2.7331e-06	2.1661e-06	1097.7	514.96	1.5309e-06	2.701e-06	592.68	271.4	254.59	123.76	1.5645e-06	143.45	2.402e-05	2.0993e-05	5.76e-06	870.06	1.989e-07	2.3374e-07	912.01	405	2.0807e-07	2.3099e-07	445.51	205.81	194.95	94.091	2.3476e-07	103.9	81.799	52.939	41.319	-43.189	74.752	49.480	-45.530	-37.776	91.954	84.863	-41.204	-37.371	-33.792	-29.064	50.606	-33.219	-8191	255	
2697.110	1	1	0	131072	0.015366	0.16543	0.058318	0.20902	0.16845	0.069729	0.25487	0.11033	0.15879	0.20992	0.10388	0.20535	0.17601	0.16868	0.26149	0.12576	-3.1854	-3.9354	-4	-3.5792	-4.0125	-3.7396	-3.8229	-4.4021	-3.8187	-3.6396	-4.2688	-3.6188	-4.3729	-4.1167	-3.5208	-4.4083	98.368	233.327	297.018	-50.745	281.065	61.066	282.123	266.271	154.597	280.791	-10.345	-25.450	209.246	224.404	110.252	273.476	0.0010914	0.00025095	0.00010365	1025.4	1.8635e-06	4.116e-06	1102.1	514.79	2.5072e-06	1.627e-06	595.56	273.83	254.26	125.28	1.6149e-06	144.63	2.5128e-05	2.2021e-05	5.6607e-06	877.24	2.1479e-07	2.3816e-07	917.62	405.99	2.2424e-07	2.3774e-07	447.31	206.51	194.96	95.181	2.3025e-07	105.09	80.780	-0.227	28.012	-43.275	91.621	71.477	-45.541	-37.998	90.702	98.659	-41.240	-37.310	-33.696	-28.861	66.332	-33.165	-8191	255	
2697.231	1	1	0	131072	0.1381	0.28968	0.077612	0.22487	0.079794	0.21367	0.23107	0.21519	0.13306	0.055912	0.19059	0.22066	0.099449	0.18358	0.14297	0.26997	-3.3729	-3.7708	-4.1042	-3.5792	-4.0021	-4.1125	-3.4938	-4.0979	-3.7062	-3.9188	-4.2521	-3.6646	-4.3854	-4.4958	-3.5292	-4.3104	256.170	5.615	69.462	-23.485	88.307	97.216	176.693	225.084	144.574	-44.006	-26.990	221.817	52.742	182.153	216.112	167.456	0.0011861	0.0002323	8.4185e-05	1031.2	2.4348e-06	2.9073e-06	1104.2	515.17	1.8689e-06	1.4734e-06	595.7	272.69	254.93	126.14	5.9002e-07	145.08	2.6682e-05	2.1458e-05	5.4393e-06	882.47	2.2443e-07	2.2985e-07	921.06	405.7	2.2902e-07	2.2152e-07	446.82	206.02	194.93	95.876	2.1751e-07	105.51	82.011	17.686	36.892	-43.278	84.994	60.216	-45.482	-38.089	95.293	81.632	-41.382	-37.351	-33.613	-28.992	60.009	-33.229	-8191	255	
2697.327	1	1	0	131072	0.058386	0.16503	0.069311	0.25796	0.1849	0.17486	0.15516	0.14205	0.18052	0.33914	0.045824	0.17039	0.41823	0.2478	0.039372	0.36314	-3.4354	-3.6375	-4.1083	-3.6729	-4.0625	-4.0146	-3.6292	-4.2708	-3.7188	-3.6646	-4.4104	-3.7771	-4.1625	-4.2937	-3.2854	-4.3396	56.126	227.057	221.457	270.123	108.471	-51.911	218.981	283.162	1.355	241.455	83.654	175.746	255.769	259.906	215.803	248.909	0.0010385	0.00025385	0.00010393	1033.9	2.1977e-06	2.2771e-06	1111.3	514.34	1.6499e-06	3.6058e-06	595.38	273.44	253.81	126.94	1.5514e-06	147.73	2.6598e-05	2.0455e-05	5.1731e-06	887.19	2.3113e-07	2.1644e-07	922.86	405.89	2.3275e-07	2.0759e-07	446.73	206.4	194.61	96.681	1.9972e-07	107.16	83.367	29.403	16.321	-43.177	103.329	50.093	-45.439	-38.026	48.257	74.017	-41.415	-37.296	-33.774	-29.062	49.899	-33.243	-8191	255	
2697.423	1	1	0	131072	0.046452	0.095179	0.1328	0.057724	0.23553	0.20418	0.35223	0.24656	0.24224	0.12016	0.28083	0.16585	0.04891	0.33651	0.093818	0.031645	-3.5187	-3.7417	-4.1979	-3.8375	-3.8375	-4.1375	-3.7438	-4.1687	-3.825	-3.6479	-4.4187	-3.8458	-4.1188	-4.1792	-3.5354	-4.1146	22.079	-25.989	204.782	186.979	189.751	159.930	11.802	233.176	54.538	-36.558	278.087	-25.021	3.325	273.135	234.580	86.022	0.0010268	0.00024648	9.3087e-05	1048	2.5399e-06	2.1793e-06	1120.8	517.32	2.7962e-06	1.7995e-06	599.01	274.99	254.79	127.77	1.0556e-06	151.97	2.6525e-05	1.9125e-05	4.8284e-06	897.27	2.2984e-07	2.0291e-07	933.17	408.59	2.3011e-07	2.0361e-07	449.06	207.5	195.24	98.496	1.9433e-07	110.2	85.652	29.650	34.814	-43.174	94.598	62.477	-45.548	-37.972	67.924	63.929	-41.430	-37.405	-33.752	-29.077	61.683	-33.247	-8191	255	
2697.495	1	1	0	131072	0.073163	0.111	0.20168	0.037483	0.050574	0.16653	0.076244	0.13929	0.14382	0.10955	0.097764	0.18561	0.34008	0.18615	0.15538	0.26927	-3.2875	-3.5875	-4.0062	-3.8812	-3.675	-4.2708	-3.7625	-4.2417	-3.9708	-3.5125	-4.5062	-4.0813	-3.85	-4.5687	-3.4958	-4.2979	115.803	139.992	68.285	297.486	-56.028	198.106	-18.748	211.384	150.590	210.850	-42.677	224.991	-34.939	-43.057	160.705	185.675	0.0010358	0.00036143	6.5598e-05	1074	3.4767e-06	3.178e-06	1155	533.7	1.8177e-06	2.7657e-06	607.11	276.81	254.78	128.59	1.2073e-06	155.89	2.5452e-05	1.8318e-05	4.7203e-06	920.07	2.1817e-07	1.9465e-07	958.03	419.87	2.1828e-07	1.9994e-07	454.77	208.86	195.1	101.51	2.0536e-07	112.98	87.964	25.862	28.306	-43.439	90.243	68.077	-45.885	-38.268	58.793	77.206	-41.354	-37.312	-33.667	-29.233	80.143	-33.366	-8191	255	
2697.615	1	1	0	131072	0.30424	0.072516	0.20189	0.082462	0.30185	0.11411	0.030585	0.24982	0.11774	0.16326	0.18509	0.20475	0.020477	0.16433	0.094779	0.12402	-3.6813	-3.5396	-4.2	-3.775	-3.7896	-4.1583	-3.95	-4.0792	-4.125	-3.4479	-4.1583	-4.1083	-3.6104	-4.4542	-3.75	-4.1083	115.616	131.313	72.193	183.625	149.025	-10.119	112.337	250.805	84.568	126.704	200.800	285.677	-28.183	248.145	224.108	251.878	0.001119	0.00030881	9.6913e-05	1073.4	3.202e-06	3.0227e-06	1126.7	522.81	2.7923e-06	1.7736e-06	590.92	272.35	251.44	128.56	1.6427e-06	151.17	2.5444e-05	1.8513e-05	5.0437e-06	916.97	2.2289e-07	2.0034e-07	934.34	412.95	2.241e-07	2.0033e-07	442.43	205.6	192.8	100.25	2.2132e-07	109.58	85.705	21.371	35.565	-43.378	82.246	56.232	-45.782	-37.931	73.075	70.325	-41.520	-37.432	-33.667	-29.100	81.998	-33.265	-8191	255	
2697.712	1	1	0	0	0.071873	0.30061	0.13244	0.15104	0.16229	0.19533	0.31608	0.13181	0.1713	0.052744	0.085378	0.15706	0.22878	0.33709	0.041489	0.22233	-3.7104	-3.5604	-3.9646	-4.1604	-3.6417	-4.1	-3.7833	-4.1417	-3.9917	-3.5687	-4.2188	-3.9813	-3.7042	-4.4333	-3.7542	-3.8521	205.394	102.752	220.634	189.654	198.690	37.092	160.924	237.935	89.470	83.736	-23.878	303.989	275.734	270.845	217.483	214.199	0.001111	0.00028445	9.7522e-05	971.51	2.4495e-06	3.0931e-06	1013.3	482.38	1.0705e-06	1.6453e-06	558.51	260.92	242.5	115.92	1.2633e-06	127.43	2.5071e-05	1.7866e-05	5.3167e-06	831.04	2.1197e-07	1.8624e-07	844.93	381.02	2.0729e-07	1.9456e-07	418.79	197.68	185.63	87.918	2.5871e-07	92.697	83.608	20.331	35.967	-43.422	88.995	69.133	-45.390	-37.999	37.942	74.040	-41.230	-37.330	-33.831	-29.203	84.948	-33.261	-8191	255	
2697.808	1	1	0	0	0.15878	0.21072	0.25792	0.07923	0.063542	0.15552	0.082615	0.11345	0.18323	0.1304	0.42921	0.32772	0.31055	0.053856	0.10583	0.23278	-3.8271	-3.5792	-3.9021	-4.3146	-3.6396	-4.0896	-3.7812	-3.9062	-4.1917	-3.5354	-4.05	-4.1708	-3.6646	-4.4625	-3.7458	-3.9042	-23.424	229.599	197.208	136.204	18.424	146.169	231.116	70.604	86.191	189.598	-42.796	222.463	282.501	32.981	-0.677	208.222	0.00082082	0.00018146	7.1717e-05	928.26	1.7344e-06	2.611e-06	990.33	468.44	3.0709e-06	2.8512e-06	539.12	244.18	230.5	115.59	1.4228e-06	128	2.6608e-05	2.089e-05	6.8553e-06	796.28	2.5029e-07	2.4281e-07	829.49	370.24	2.6796e-07	2.6413e-07	406.06	185.17	176.6	87.64	3.407e-07	93.105	83.946	23.179	46.075	-43.322	90.950	70.039	-45.605	-38.040	68.499	69.463	-41.382	-37.324	-33.826	-29.211	64.904	-33.389	-8191	255	
2697.904	1	1	0	0	0.1194	0.070685	0.1412	0.20118	0.20132	0.057859	0.097191	0.26722	0.042199	0.21394	0.098597	0.14297	0.34555	0.22929	0.18193	0.20649	-3.975	-3.5667	-4.1042	-4.35	-3.3375	-4.2229	-3.9875	-3.6396	-4.3708	-3.7188	-4.1958	-4.2625	-3.6417	-4.4437	-3.8604	-3.7583	63.229	205.797	283.855	267.382	60.055	253.778	97.538	286.386	260.726	270.261	194.749	287.709	199.693	276.809	123.669	245.747	0.0008402	0.00023057	0.00011204	969	9.46e-07	2.7132e-06	1000.4	456.72	2.6518e-06	3.7586e-06	507.67	230.66	220.57	112.6	1.0527e-05	122.35	3.4487e-05	3.3626e-05	1.1548e-05	837.59	5.4436e-07	6.9111e-07	860.06	371.97	1.255e-06	1.6642e-06	419.14	189.52	184.46	93.555	6.2547e-06	107.03	83.527	69.073	42.334	-43.794	62.204	99.885	-46.042	-38.659	-0.402	144.818	-41.868	-37.843	-34.484	-29.907	0.642	-33.928	-8191	255	
2698.023	1	1	0	131072	0.013621	0.11812	0.11626	0.14506	0.20131	0.084372	0.24156	0.10764	0.12984	0.13403	0.2065	0.34588	0.27653	0.26789	0.14448	0.22749	-3.9938	-3.825	-3.9292	-4.2375	-3.7854	-4.1438	-4.1438	-3.8667	-4.2625	-4.0542	-4.1833	-4.3708	-3.925	-4.3542	-4.1021	-3.9	227.692	247.995	-26.674	-35.665	159.448	78.828	182.301	217.455	293.391	59.569	-12.443	-42.321	256.454	293.836	137.087	8.124	0.00041068	0.00087219	0.00065091	1192.5	4.1742e-06	2.1297e-05	1183.9	496.23	5.1778e-06	1.4877e-05	532.41	228.22	219.08	58.678	1.6337e-05	102.82	0.00076996	0.0010352	0.00034052	1478.8	1.4541e-05	1.8275e-05	1787	685.43	2.1952e-05	2.7155e-05	921.19	343.02	320.51	128.77	3.2495e-05	155.95	26.755	150.385	-17.663	-44.813	52.806	169.863	-47.170	-40.060	269.750	230.793	-43.317	-39.184	-36.223	-30.635	-1.774	-35.125	-8191	255	
2698.094	1	1	0	131072	0.18531	0.30898	0.12797	0.18571	0.10949	0.12432	0.22395	0.21758	0.062265	0.06719	0.2415	0.066163	0.25803	0.17987	0.21016	0.19512	-3.9604	-3.9938	-3.8521	-4.5146	-3.7979	-4.0708	-4.3583	-3.7854	-4.2042	-3.9938	-3.9917	-4.4333	-3.9	-4.3458	-4.2417	-3.725	-19.928	214.739	283.669	265.820	174.557	125.306	290.587	-3.281	-58.161	117.427	297.881	259.839	-28.130	-43.452	-6.030	236.884	0.0029045	0.0016784	0.00094281	1175.4	2.949e-05	4.9366e-06	1133.8	480.57	2.6125e-05	9.9053e-06	496.17	217.37	217.8	88.138	3.7964e-06	101.78	0.0026816	0.0030504	0.00078689	1966	2.7271e-05	3.0373e-05	2019.3	729.67	2.5055e-05	2.7369e-05	814.28	295.86	280.9	114.34	2.0829e-05	121.68	68.909	136.904	-38.082	-45.516	198.252	23.884	-47.077	-40.264	178.294	12.792	-42.956	-39.044	-35.403	-30.835	115.947	-34.607	-8191	255	
2698.191	1	1	0	0	0.17976	0.20615	0.14422	0.29245	0.14557	0.10484	0.11123	0.23613	0.090081	0.077803	0.31076	0.35854	0.18812	0.24504	0.16183	0.18052	-4.0042	-4.0146	-3.7604	-4.4604	-3.6167	-3.8917	-4.4583	-3.7562	-3.9104	-4.0479	-3.9104	-4.3792	-3.7938	-3.9521	-4.3812	-3.7583	55.341	145.841	7.386	268.798	211.065	21.315	260.298	145.595	51.370	188.284	-43.772	12.794	291.645	226.653	184.945	187.409	0.0031321	0.00096801	0.0003584	1035.8	2.8886e-05	9.562e-06	969	436.83	1.5716e-05	2.8873e-06	466.97	215.28	216.06	93.283	1.9577e-06	101.34	0.0017735	0.0018868	0.00047	1442.2	1.7337e-05	1.7458e-05	1374	514.17	1.1768e-05	1.0226e-05	493.12	200.34	197.04	80.753	4.7153e-06	83.549	74.487	14.828	-35.362	-44.900	183.224	31.615	-46.306	-39.215	161.774	215.070	-42.172	-38.283	-34.652	-30.276	58.367	-33.711	-8191	255	
2698.311	1	1	0	0	0.14388	0.21094	0.027823	0.212	0.10771	0.17001	0.11642	0.21849	0.070395	0.15914	0.14207	0.31422	0.15912	0.27727	0.18408	0.30857	-3.8542	-3.9708	-3.6125	-4.4167	-3.7604	-3.9188	-4.3104	-3.6771	-4.2688	-4.2604	-3.3937	-4.5042	-3.9708	-3.9667	-4.3729	-3.85	83.378	190.245	270.258	267.958	-21.566	164.685	-15.864	99.924	192.982	-41.619	9.622	254.257	288.892	-35.515	218.250	186.465	0.0012665	0.00064913	0.0001776	993.25	5.0595e-06	5.0396e-06	946.62	438.64	2.2232e-06	3.39e-06	467.91	217.67	216.13	91.296	1.7812e-06	98.752	0.00039645	0.00035471	8.4499e-05	939.4	2.9555e-06	2.4828e-06	856.1	364.71	1.45e-06	1.1201e-06	363.91	167.65	168.56	70.054	6.7399e-07	72.853	85.509	-25.378	13.498	-44.217	208.817	46.168	-45.908	-38.941	181.183	31.118	-41.751	-37.829	-34.536	-29.693	38.308	-33.366	-8191	255	
#DATA ENDS
