BOXY.EXE: ISS Imagent and Oximeter Data Acquisition Program Version 0.80
Ascii Record File

#ACQ INFORMATION
2  Detector Channels 
16  External MUX Channels 
1  Auxiliary Channels 
5000  Waveform (CCF) Frequency (Hz)
1  Waveforms Skipped 
30  Waveforms Averaged 
1  Cycles Averaged 
16  Acquisitions per Waveform 
10.0806  Updata Rate (Hz) 

#FILE INFORMATION
TRUE -- External MUX Channel results are PARSED.
FALSE -- AC DC and Phase are NOT grouped.
TRUE -- Companion Program Settings File CREATED.
FALSE -- AC data not excluded
FALSE -- DC data not excluded
FALSE -- Phase data not excluded
FALSE -- Auxillary Chn. data not excluded
Tab delimiters

#CALIBRATION STATE
TRUE -- Waveform Calibration Values APPLIED.


#AUX CALIBRATION VALUES
Val Type	aux-1	

Term	1.0000e+00	
Factor	0.0000e+00	


#WF CALIBRATION VALUES
A = Detector Channel
Val Type	A-AC1	A-AC2	A-AC3	A-AC4	A-AC5	A-AC6	A-AC7	A-AC8	A-AC9	A-AC10	A-AC11	A-AC12	A-AC13	A-AC14	A-AC15	A-AC16	A-DC1	A-DC2	A-DC3	A-DC4	A-DC5	A-DC6	A-DC7	A-DC8	A-DC9	A-DC10	A-DC11	A-DC12	A-DC13	A-DC14	A-DC15	A-DC16	A-Ph1	A-Ph2	A-Ph3	A-Ph4	A-Ph5	A-Ph6	A-Ph7	A-Ph8	A-Ph9	A-Ph10	A-Ph11	A-Ph12	A-Ph13	A-Ph14	A-Ph15	A-Ph16	

Term	0.00000e+00	0.00000e+00	0.00000e+00	0.00000e+00	0.00000e+00	0.00000e+00	0.00000e+00	0.00000e+00	0.00000e+00	0.00000e+00	0.00000e+00	0.00000e+00	0.00000e+00	0.00000e+00	0.00000e+00	0.00000e+00	0.00000e+00	0.00000e+00	0.00000e+00	0.00000e+00	0.00000e+00	0.00000e+00	0.00000e+00	0.00000e+00	0.00000e+00	0.00000e+00	0.00000e+00	0.00000e+00	0.00000e+00	0.00000e+00	0.00000e+00	0.00000e+00	0.00000e+00	0.00000e+00	0.00000e+00	0.00000e+00	0.00000e+00	0.00000e+00	0.00000e+00	0.00000e+00	0.00000e+00	0.00000e+00	0.00000e+00	0.00000e+00	0.00000e+00	0.00000e+00	0.00000e+00	0.00000e+00	
Factor	1.00000e+00	1.00000e+00	1.00000e+00	1.00000e+00	1.00000e+00	1.00000e+00	1.00000e+00	1.00000e+00	1.00000e+00	1.00000e+00	1.00000e+00	1.00000e+00	1.00000e+00	1.00000e+00	1.00000e+00	1.00000e+00	1.00000e+00	1.00000e+00	1.00000e+00	1.00000e+00	1.00000e+00	1.00000e+00	1.00000e+00	1.00000e+00	1.00000e+00	1.00000e+00	1.00000e+00	1.00000e+00	1.00000e+00	1.00000e+00	1.00000e+00	1.00000e+00	X	X	X	X	X	X	X	X	X	X	X	X	X	X	X	X	

B = Detector Channel
Val Type	B-AC1	B-AC2	B-AC3	B-AC4	B-AC5	B-AC6	B-AC7	B-AC8	B-AC9	B-AC10	B-AC11	B-AC12	B-AC13	B-AC14	B-AC15	B-AC16	B-DC1	B-DC2	B-DC3	B-DC4	B-DC5	B-DC6	B-DC7	B-DC8	B-DC9	B-DC10	B-DC11	B-DC12	B-DC13	B-DC14	B-DC15	B-DC16	B-Ph1	B-Ph2	B-Ph3	B-Ph4	B-Ph5	B-Ph6	B-Ph7	B-Ph8	B-Ph9	B-Ph10	B-Ph11	B-Ph12	B-Ph13	B-Ph14	B-Ph15	B-Ph16	

Term	0.00000e+00	0.00000e+00	0.00000e+00	0.00000e+00	0.00000e+00	0.00000e+00	0.00000e+00	0.00000e+00	0.00000e+00	0.00000e+00	0.00000e+00	0.00000e+00	0.00000e+00	0.00000e+00	0.00000e+00	0.00000e+00	0.00000e+00	0.00000e+00	0.00000e+00	0.00000e+00	0.00000e+00	0.00000e+00	0.00000e+00	0.00000e+00	0.00000e+00	0.00000e+00	0.00000e+00	0.00000e+00	0.00000e+00	0.00000e+00	0.00000e+00	0.00000e+00	8.08205e+01	-1.29234e+02	-1.26031e+02	-1.81587e+02	-8.04158e+01	-6.70324e+01	-1.57320e+02	-1.62015e+02	-6.06783e+01	-6.54006e+01	-1.71053e+02	-1.72518e+02	-1.82789e+02	-1.76934e+02	-6.95614e+01	-1.49544e+02	
Factor	6.67383e-05	1.91415e-04	4.93186e-05	1.58798e-01	2.57486e-06	2.00385e-06	1.78873e-01	5.50616e-02	3.22509e-06	1.97440e-06	8.99765e-02	3.70833e-02	3.90633e-02	9.87122e-03	2.25571e-06	1.39431e-02	2.65282e-05	5.58230e-05	1.57463e-05	8.19480e-02	4.79595e-07	6.43249e-07	8.68198e-02	2.84307e-02	4.90733e-07	6.41705e-07	4.53190e-02	1.86095e-02	2.03683e-02	5.15739e-03	5.46992e-07	7.08478e-03	X	X	X	X	X	X	X	X	X	X	X	X	X	X	X	X	



#DISTANCE SETTINGS
A = Detector Channel
A-1	A-2	A-3	A-4	A-5	A-6	A-7	A-8	A-9	A-10	A-11	A-12	A-13	A-14	A-15	A-16	

2.5000e+00	3.0000e+00	2.5000e+00	3.0000e+00	2.0000e+00	3.0000e+00	1.5000e+00	3.0000e+00	3.0000e+00	3.0000e+00	3.0000e+00	3.0000e+00	3.0000e+00	3.0000e+00	1.5000e+00	3.0000e+00	

B = Detector Channel
B-1	B-2	B-3	B-4	B-5	B-6	B-7	B-8	B-9	B-10	B-11	B-12	B-13	B-14	B-15	B-16	

1.0000e+01	1.0000e+01	1.0000e+01	1.4400e+00	1.0000e+01	1.0000e+01	1.5100e+00	1.9400e+00	1.0000e+01	1.0000e+01	1.9900e+00	2.4900e+00	2.4100e+00	2.9000e+00	1.0000e+01	2.9800e+00	




#DATA BEGINS
time	group	step	mark	flag	A-AC1	A-AC2	A-AC3	A-AC4	A-AC5	A-AC6	A-AC7	A-AC8	A-AC9	A-AC10	A-AC11	A-AC12	A-AC13	A-AC14	A-AC15	A-AC16	A-DC1	A-DC2	A-DC3	A-DC4	A-DC5	A-DC6	A-DC7	A-DC8	A-DC9	A-DC10	A-DC11	A-DC12	A-DC13	A-DC14	A-DC15	A-DC16	A-Ph1	A-Ph2	A-Ph3	A-Ph4	A-Ph5	A-Ph6	A-Ph7	A-Ph8	A-Ph9	A-Ph10	A-Ph11	A-Ph12	A-Ph13	A-Ph14	A-Ph15	A-Ph16	B-AC1	B-AC2	B-AC3	B-AC4	B-AC5	B-AC6	B-AC7	B-AC8	B-AC9	B-AC10	B-AC11	B-AC12	B-AC13	B-AC14	B-AC15	B-AC16	B-DC1	B-DC2	B-DC3	B-DC4	B-DC5	B-DC6	B-DC7	B-DC8	B-DC9	B-DC10	B-DC11	B-DC12	B-DC13	B-DC14	B-DC15	B-DC16	B-Ph1	B-Ph2	B-Ph3	B-Ph4	B-Ph5	B-Ph6	B-Ph7	B-Ph8	B-Ph9	B-Ph10	B-Ph11	B-Ph12	B-Ph13	B-Ph14	B-Ph15	B-Ph16	aux-1	digaux	

33100.629	1	1	0	256	0.24347	0.11711	0.10644	0.21481	0.12388	0.0962	0.059243	0.25708	0.17381	0.19112	0.11901	0.45478	0.075236	0.083546	0.069475	0.26754	-4.2875	-4.6521	-4.1813	-4.8479	-4.3479	-4.2792	-4.9229	-4.2833	-4.4104	-4.6979	-4.1979	-4.7167	-4.525	-4.4125	-4.7312	-4.5188	-45.601	248.125	227.480	261.426	41.530	68.007	260.284	195.045	245.461	170.874	242.375	256.651	-31.020	-28.186	252.020	137.315	0.00075488	0.00061672	0.00031401	1110	5.3902e-06	9.7379e-06	1217	389.58	4.0345e-05	1.2741e-05	543.33	207.83	147.06	55.804	2.0881e-05	86.952	0.0019774	0.0031226	0.00086782	1009.7	2.7854e-05	3.678e-05	1094	351.53	7.0347e-05	4.2815e-05	489.69	188.65	133.61	51.127	9.1218e-05	79.421	31.323	49.458	-16.883	-72.696	-27.842	95.006	-73.604	-66.788	73.132	172.844	-68.701	-64.160	-62.295	-57.466	-76.377	-60.141	-8191	255	
33100.723	1	1	0	0	0.20273	0.12356	0.14457	0.14128	0.25796	0.056326	0.21205	0.20791	0.18818	0.087279	0.14035	0.079758	0.17847	0.20318	0.22108	0.091032	-4.1375	-4.8021	-4.0437	-4.6542	-4.4854	-4.2333	-4.8604	-4.5396	-4.3792	-4.8313	-4.3021	-4.8187	-4.7479	-4.1167	-4.8021	-4.7167	-55.933	93.293	-60.754	-58.258	112.099	69.945	140.394	180.749	47.717	237.997	193.680	-54.839	-44.609	265.046	-72.891	-64.195	0.00078433	0.00086998	0.00027663	1109.4	9.8844e-06	8.4024e-06	1202.9	386.45	1.8383e-05	1.3076e-05	541.99	207.45	146.19	55.921	2.2369e-05	87.094	0.0019653	0.0030968	0.00090761	1005.2	2.6967e-05	3.5383e-05	1083.8	350.03	3.4117e-05	8.401e-05	488.41	188.37	133.34	51.205	9.2991e-05	79.342	40.547	24.729	-23.873	-72.720	20.637	50.286	-73.772	-66.694	74.957	190.914	-68.696	-64.017	-62.390	-57.465	-36.021	-60.224	-8191	255	
33100.820	1	1	0	0	0.064113	0.15168	0.18374	0.27525	0.23375	0.12435	0.16465	0.20915	0.047972	0.20805	0.13152	0.1065	0.13232	0.13514	0.20641	0.24168	-3.9771	-4.675	-4.0917	-4.7021	-4.6479	-4.2292	-4.8042	-4.4875	-4.3292	-4.8604	-4.4062	-4.5771	-4.5563	-4.2479	-4.6687	-4.7333	-66.857	88.805	137.496	194.376	238.944	4.979	207.325	170.832	272.373	135.089	252.103	-40.085	31.141	122.852	25.607	177.029	0.00075817	0.00065891	0.00032149	1114	5.0582e-06	4.7515e-06	1205	389.05	9.4303e-06	2.0931e-05	543.65	208.94	146.72	56.168	6.8775e-06	86.756	0.0019232	0.0032933	0.00090745	1007.1	2.7448e-05	3.5064e-05	1086.3	352.03	2.784e-05	0.00010964	490.88	189.29	134.15	51.46	9.0673e-05	79.658	47.072	-20.734	18.560	-72.387	78.220	59.723	-73.725	-66.681	62.626	152.120	-68.590	-64.323	-62.427	-57.125	-2.930	-59.855	-8191	255	
33100.914	1	1	0	0	0.079893	0.16459	0.15036	0.10606	0.2618	0.14148	0.11771	0.18713	0.1315	0.2261	0.2142	0.21477	0.19419	0.031736	0.18285	0.037692	-3.95	-4.8104	-4.275	-4.5813	-4.6833	-4.0896	-4.8812	-4.525	-4.1396	-4.8604	-4.4604	-4.5396	-4.8313	-4.2229	-4.45	-4.8354	77.252	255.203	161.742	241.148	252.349	1.115	154.022	-83.871	259.305	209.951	60.785	224.916	231.543	177.346	-26.090	240.406	0.00077532	0.00080756	0.00015733	1116	1.2216e-05	9.9042e-06	1221.9	391.82	7.9838e-06	1.2729e-05	545.01	210.41	147.92	56.425	1.7053e-05	87.635	0.0019082	0.0032352	0.00090574	1008.8	3.3681e-05	3.7725e-05	1096.3	354.5	2.9046e-05	0.00010671	495.32	191.22	135.02	51.676	9.4701e-05	80.29	27.293	22.132	-15.534	-72.580	80.277	56.182	-73.537	-66.561	109.749	190.642	-68.606	-64.248	-62.426	-57.396	-31.751	-60.283	-8191	255	
33101.012	1	1	0	0	0.17373	0.1769	0.076285	0.14627	0.19742	0.079395	0.063591	0.2448	0.088196	0.23321	0.1375	0.18044	0.20219	0.20662	0.046916	0.23927	-3.8542	-4.7812	-4.3063	-4.4146	-4.8292	-4.1667	-4.7792	-4.8313	-4.1417	-4.6583	-4.4604	-4.3604	-4.8479	-4.1813	-4.5083	-4.7542	35.280	54.489	165.646	181.207	-13.335	29.681	177.807	222.082	76.632	9.159	209.173	-70.648	-31.798	232.980	212.427	197.657	0.00071463	0.00053642	0.00023547	1122.7	1.9282e-05	9.4988e-06	1222.6	392.3	1.2776e-05	1.2519e-05	544.05	210.31	147.4	56.324	1.1696e-05	87.253	0.0019334	0.0032753	0.00088648	1007.6	6.7939e-05	3.6888e-05	1098.3	354.39	2.9102e-05	0.00010849	492.5	190.12	134.5	51.518	9.1039e-05	79.576	42.733	-8.114	17.871	-72.809	115.310	61.737	-73.454	-66.963	40.824	195.536	-68.482	-64.263	-62.460	-57.255	-13.277	-60.293	-8191	255	
33101.109	1	1	0	0	0.14627	0.089303	0.035401	0.21193	0.023395	0.12343	0.14602	0.023152	0.11167	0.14282	0.23075	0.24023	0.0076516	0.069303	0.17048	0.21894	-3.6917	-4.7583	-4.4	-4.4667	-4.8313	-4.2542	-4.6604	-4.7229	-4.1083	-4.8354	-4.5583	-4.4146	-4.8083	-4.4583	-4.3938	-4.8958	100.659	149.501	253.826	228.960	130.855	-44.996	167.923	206.560	108.228	-67.798	195.373	205.364	196.528	232.228	135.309	241.913	0.00070992	0.00085819	0.00015117	1111.1	2.5792e-05	8.9509e-06	1208.7	390.76	1.1176e-05	2.2563e-05	541.04	207.8	148.03	55.641	2.0057e-05	86.142	0.0019441	0.0032995	0.00087254	999.57	7.9741e-05	3.5355e-05	1085.1	351.93	2.8725e-05	0.00010348	489.71	188.32	134.41	51.106	7.203e-05	79.242	40.928	15.291	48.883	-72.852	71.299	14.007	-73.393	-66.802	80.479	179.460	-68.588	-64.110	-62.601	-57.125	27.912	-60.309	-8191	255	
33101.203	1	1	0	0	0.31099	0.094653	0.022517	0.13934	0.019356	0.064748	0.074634	0.27218	0.28847	0.17021	0.11176	0.19938	0.082332	0.17427	0.029163	0.03146	-3.8667	-4.4854	-4.6167	-4.4333	-4.8146	-4.4396	-4.5167	-4.8083	-4.2458	-4.7146	-4.5312	-4.2875	-4.7917	-4.3958	-4.3187	-4.9375	-72.994	150.801	35.956	85.685	215.301	86.505	116.457	248.629	139.990	18.071	186.391	247.338	55.810	225.943	24.993	-57.214	0.00085141	0.0014816	0.00013291	1107.5	3.19e-05	4.3787e-06	1214.9	388.73	9.6691e-06	4.7614e-06	542.88	209.26	145.18	55.437	2.0064e-05	86.679	0.0018766	0.003221	0.00087622	998.35	7.9887e-05	3.5077e-05	1089.6	351.84	2.9092e-05	0.00010653	490.38	188.76	133.42	51.048	3.2577e-05	79.759	43.101	-15.833	30.403	-72.602	84.788	73.231	-73.520	-67.171	107.357	230.612	-68.260	-64.245	-62.063	-57.481	12.776	-60.392	-8191	255	
33101.324	1	1	0	0	0.22563	0.094083	0.14555	0.28442	0.03675	0.27117	0.19006	0.22183	0.058938	0.29417	0.22138	0.13851	0.089946	0.25014	0.21622	0.19546	-3.8417	-4.5458	-4.6417	-4.2542	-4.725	-4.4625	-4.3812	-4.8042	-4.2521	-4.5792	-4.9292	-4.2292	-4.775	-4.6104	-4.1146	-5.1	240.024	250.457	44.018	271.340	-15.673	-47.064	161.019	147.830	147.407	-31.121	148.564	101.475	246.689	174.109	235.032	131.248	0.00069496	0.0011774	0.00030234	1106.8	3.1543e-05	4.573e-06	1217.8	392.54	5.7065e-06	7.435e-06	543.92	210.19	146.54	55.683	4.2497e-06	86.97	0.0018848	0.0031547	0.00085122	996.6	8.2353e-05	3.452e-05	1095.9	353.41	2.9208e-05	0.00010398	491.42	189.69	134.11	51.076	3.0719e-05	80.353	35.496	-13.192	9.764	-72.732	61.748	39.093	-73.555	-66.774	27.198	197.566	-68.686	-64.191	-62.573	-57.429	72.770	-60.269	-8191	255	
33101.418	1	1	0	0	0.23756	0.093937	0.054301	0.12344	0.08572	0.048692	0.14262	0.25083	0.024255	0.073727	0.015308	0.092257	0.14872	0.15805	0.071345	0.12759	-3.6479	-4.3771	-4.6937	-4.2854	-4.7625	-4.5833	-4.3292	-4.9542	-4.2792	-4.4729	-4.7312	-4.2375	-4.8125	-4.6875	-4.2	-4.8667	2.087	131.567	-75.853	235.488	-72.350	66.650	264.468	151.601	203.264	248.483	7.461	205.495	14.938	267.227	127.847	275.238	0.00072743	0.0004701	0.00016579	1107	3.599e-05	6.9388e-06	1213.1	389.45	8.6606e-06	1.9112e-06	538.43	206.45	146.05	55.591	1.1608e-05	85.805	0.0018456	0.0031638	0.00083272	997.54	7.8323e-05	3.4272e-05	1088.9	351.14	2.8132e-05	7.9276e-05	489.74	187.72	133.27	50.844	3.0793e-05	79.366	47.337	8.254	-19.496	-72.553	87.451	27.823	-73.483	-66.744	62.387	189.608	-68.617	-64.338	-62.709	-57.547	40.315	-60.487	-8191	255	
33101.516	1	1	0	0	0.13203	0.075771	0.17069	0.19577	0.066065	0.098755	0.057366	0.27016	0.15631	0.16831	0.16842	0.062666	0.065655	0.02576	0.25265	0.33923	-3.9896	-4.2479	-4.6271	-4.3271	-4.6167	-4.4417	-4.4604	-4.9583	-4.3313	-4.3771	-4.9792	-4.3625	-4.6729	-4.675	-4.2042	-4.85	144.833	33.179	87.997	242.349	138.409	-66.163	-33.727	257.612	221.266	60.985	250.174	-68.934	252.886	260.138	-12.370	260.975	0.00081377	0.00089144	0.00030903	1102.3	2.0293e-05	6.3747e-06	1200	386.64	9.2684e-06	5.3141e-06	535.56	206.51	145.72	55.65	3.8574e-06	85.35	0.001877	0.0029933	0.000904	992.17	8.1191e-05	3.4195e-05	1079.2	349.78	2.6966e-05	3.478e-05	490.27	187.28	133.07	50.809	3.0538e-05	79.164	36.976	-3.905	24.364	-72.439	85.696	87.709	-73.515	-66.510	80.357	47.821	-68.777	-64.282	-62.468	-57.118	97.528	-60.387	-8191	255	
33101.613	1	1	0	0	0.18661	0.1964	0.091819	0.21056	0.21098	0.09532	0.30038	0.16831	0.10518	0.065963	0.19092	0.36971	0.26145	0.19359	0.14541	0.064793	-4.0917	-4.2229	-4.9062	-4.4417	-4.6438	-4.7917	-4.4	-4.9979	-4.5583	-4.2688	-4.8979	-4.3667	-4.6125	-4.7896	-4.0708	-4.6813	248.268	146.772	38.321	259.910	226.980	167.383	176.396	178.615	219.365	189.857	246.744	237.375	255.978	-25.715	50.865	-19.487	0.00068932	0.00066029	0.00027381	1100.5	3.0024e-05	7.955e-06	1206.3	390.59	6.4561e-06	8.1148e-06	539.55	206.72	146.56	55.692	1.2108e-05	86.417	0.0018372	0.0030214	0.00086473	992.73	7.8953e-05	3.4195e-05	1083	351.39	2.7941e-05	3.4597e-05	492.38	187.55	133.28	50.896	3.1324e-05	79.589	43.424	16.428	13.493	-72.952	84.554	87.534	-73.719	-67.125	81.146	69.202	-68.521	-64.290	-62.310	-57.439	57.020	-60.339	-8191	255	
33101.707	1	1	0	0	0.25096	0.0187	0.11615	0.21404	0.13805	0.16446	0.20114	0.14903	0.064531	0.090273	0.396	0.33308	0.10491	0.032283	0.026379	0.063304	-4.0958	-4.175	-4.7146	-4.5125	-4.3875	-4.6479	-4.3729	-4.8042	-4.6687	-4.3083	-4.9479	-4.5417	-4.4917	-4.7917	-4.0896	-4.6917	79.331	139.746	241.009	230.949	162.068	245.553	238.526	229.477	109.547	58.165	239.043	246.861	215.372	66.521	99.557	137.884	0.00073687	0.0011377	0.00017077	1108.8	3.1583e-05	1.0743e-05	1213.1	387.47	4.0097e-06	4.9438e-06	540.2	208.7	147.69	55.769	7.2155e-06	87.062	0.0018198	0.0030665	0.00088219	996.04	5.8958e-05	5.4545e-05	1088.8	350.44	2.7066e-05	3.4387e-05	494.85	188.79	134.28	51.116	3.1528e-05	80.187	34.879	25.161	34.991	-72.334	45.725	151.183	-73.787	-66.700	51.184	9.845	-68.612	-64.261	-62.327	-57.586	65.729	-60.297	-8191	255	
33101.805	1	1	0	0	0.1063	0.081669	0.20222	0.36946	0.058442	0.11664	0.22626	0.076929	0.11062	0.12962	0.19767	0.081697	0.24485	0.14648	0.14373	0.21512	-4.35	-4.5	-4.7396	-4.4375	-4.2063	-4.9104	-4.5479	-4.6312	-4.6583	-4.2104	-4.95	-4.5354	-4.3521	-4.9667	-4.2375	-4.7125	-15.664	-83.318	112.305	-78.329	30.179	24.368	120.105	262.995	156.329	108.176	216.071	206.605	238.064	91.844	121.569	206.600	0.00064098	0.00084109	0.00020919	1118.8	1.2339e-05	6.5098e-06	1221.2	391.13	2.7263e-06	9.0718e-06	545.63	208.11	147.64	56.093	4.2035e-06	86.643	0.0019325	0.0031935	0.00088517	1002.8	2.6429e-05	9.4927e-05	1097.7	353.9	2.7903e-05	3.6387e-05	497.56	189.43	134.25	51.216	3.1544e-05	79.996	30.419	10.362	7.082	-72.886	46.720	162.370	-73.615	-66.929	-34.198	72.072	-68.696	-64.586	-62.631	-57.621	41.469	-60.310	-8191	255	
33101.898	1	1	0	0	0.17321	0.1144	0.12651	0.2181	0.21358	0.092026	0.090421	0.081365	0.17498	0.12292	0.14403	0.13925	0.04005	0.092311	0.086609	0.1519	-4.2396	-4.1937	-4.7458	-4.6417	-4.1687	-4.7646	-4.4208	-4.6375	-4.8271	-4.3333	-4.75	-4.5104	-4.25	-4.9042	-4.1583	-4.6125	67.698	128.374	93.070	-76.841	-29.679	198.193	251.368	257.572	-82.538	247.906	270.647	243.804	55.412	190.361	63.619	207.093	0.00077267	0.0011133	0.00017965	1116.4	6.5257e-06	3.5938e-05	1214.7	389.2	1.3473e-06	8.699e-06	540.79	208.57	147.7	56.186	7.372e-06	86.395	0.0018975	0.003216	0.00094655	1001.7	2.8583e-05	0.00010601	1091	352.65	2.7168e-05	3.6445e-05	494.48	188.82	134.44	51.377	3.1069e-05	79.546	30.495	18.880	25.156	-72.690	78.312	112.845	-73.315	-66.588	42.957	95.850	-68.719	-64.271	-62.383	-57.669	62.915	-60.069	-8191	255	
33101.996	1	1	0	0	0.16648	0.21045	0.24021	0.29296	0.29831	0.18925	0.027026	0.27832	0.17342	0.084453	0.14278	0.19749	0.10238	0.28779	0.23768	0.13465	-4.5354	-4.1937	-4.5625	-4.6479	-4.2208	-4.7917	-4.5062	-4.5229	-4.7333	-4.2188	-4.6479	-4.8417	-4.3729	-4.925	-4.3917	-4.4667	-31.948	120.490	-14.226	171.867	164.068	-55.667	207.436	248.994	-24.620	-36.675	236.398	-49.545	-49.401	204.112	-53.260	-20.772	0.00091007	0.00096558	0.00023416	1108	1.0989e-05	2.1798e-05	1212.4	390.7	1.4491e-05	4.5834e-06	541.87	209.71	147.49	56.2	6.7851e-06	87.009	0.0028355	0.0032081	0.00089222	998.32	2.8146e-05	0.00010382	1088.6	352.6	2.8659e-05	3.5973e-05	495.33	189.61	134.66	51.297	3.0675e-05	79.498	27.291	-4.220	51.263	-72.589	57.000	130.626	-73.531	-66.726	60.980	22.632	-68.900	-64.123	-62.671	-57.426	94.507	-60.003	-8191	255	
33102.117	1	1	0	0	0.07402	0.22047	0.14692	0.25344	0.03567	0.40067	0.19073	0.25344	0.14039	0.065751	0.27173	0.16389	0.25527	0.12551	0.1637	0.18173	-4.6167	-4.0563	-4.5833	-4.7729	-4.1521	-4.6917	-4.4896	-4.3833	-4.9354	-4.1792	-4.5604	-4.875	-4.0271	-4.7854	-4.5104	-4.5062	177.829	109.599	266.666	243.501	171.656	220.681	240.424	179.088	79.425	87.303	192.633	176.808	-56.068	264.718	38.253	221.644	0.00085258	0.00098068	0.00015849	1108.1	9.3257e-06	2.9171e-05	1216.7	392.12	1.2674e-05	2.5902e-06	543.59	209.69	147.35	56.284	8.5764e-06	87.106	0.0046107	0.0030988	0.00089144	998.97	2.7218e-05	0.00010876	1091.2	353	2.9072e-05	3.5516e-05	496.16	189.63	134.7	51.517	2.9622e-05	79.597	15.330	22.767	-28.601	-72.829	43.941	128.786	-73.284	-66.801	87.010	48.673	-68.778	-63.995	-62.569	-57.141	38.288	-60.234	-8191	255	
33102.211	1	1	0	0	0.068356	0.26993	0.33255	0.27288	0.13099	0.081655	0.26392	0.039675	0.36076	0.18208	0.18615	0.32226	0.23625	0.089705	0.14017	0.3943	-4.5042	-4.35	-4.5625	-4.8229	-4.2583	-4.6937	-4.5188	-4.3604	-4.9167	-4.2521	-4.6167	-4.7333	-4.2396	-4.6708	-4.5437	-4.3688	91.997	81.009	-5.506	-80.579	181.319	176.594	249.102	141.624	80.579	4.382	125.742	201.252	-43.199	2.553	25.876	182.820	0.00033807	0.00092302	0.00020836	1104.4	5.4634e-06	1.8199e-05	1211	388.31	9.7159e-06	1.037e-05	540.4	207.23	147.12	55.934	7.6772e-06	86.31	0.0049597	0.0030785	0.00083117	995.56	2.718e-05	0.00010372	1089.5	351.51	2.8779e-05	3.4012e-05	490.95	188.84	134.07	51.261	2.9891e-05	79.132	63.615	13.455	17.811	-72.643	81.588	126.100	-73.821	-66.660	27.159	51.202	-68.457	-64.214	-62.293	-57.519	105.202	-60.154	-8191	255	
33102.309	1	1	0	0	0.21104	0.18608	0.10768	0.19314	0.058025	0.27954	0.18046	0.067341	0.1666	0.079827	0.20078	0.2472	0.1216	0.2582	0.23331	0.16603	-4.2646	-4.2667	-4.2646	-4.9146	-4.2333	-4.7021	-4.6979	-4.4354	-4.7979	-4.4667	-4.4167	-5.0062	-4.3438	-4.7792	-4.7042	-4.2188	106.054	24.482	38.510	163.453	9.838	83.491	249.556	3.772	121.939	-77.712	227.507	212.976	59.946	-6.364	241.557	259.787	0.00065515	0.00046232	0.00022179	1105.7	3.3804e-06	1.1181e-05	1203.6	388.94	9.3303e-06	9.951e-06	541.18	207.22	146.93	56.144	1.2773e-05	86.069	0.0046323	0.0029878	0.00081628	997.33	2.7471e-05	0.00010694	1079.3	351.49	2.8245e-05	3.5196e-05	487.12	189.86	134.13	51.294	2.9179e-05	78.941	83.768	22.313	13.732	-72.723	60.171	142.179	-73.325	-66.810	66.657	52.557	-68.807	-64.081	-62.591	-57.613	53.024	-60.322	-8191	255	
33102.402	1	1	0	0	0.1947	0.10168	0.16807	0.24132	0.075352	0.27709	0.15914	0.12824	0.11632	0.10983	0.25638	0.12572	0.21336	0.10838	0.11461	0.19769	-4.4875	-4.5021	-4.3396	-4.9646	-4.2208	-4.5667	-4.8542	-4.4333	-4.8604	-4.3792	-4.5104	-4.9792	-4.3979	-4.6083	-4.8021	-4.4229	266.377	216.335	194.108	243.223	25.837	-84.297	226.966	137.228	-40.457	-11.286	212.131	150.942	251.912	-67.108	93.880	254.740	0.00038928	0.0006112	0.00022414	1101.7	1.6685e-05	2.1647e-05	1199.9	390.64	4.82e-06	1.1122e-05	540.69	207.75	148.66	55.877	8.9269e-06	86.202	0.0048057	0.0028879	0.00084938	991.5	2.6799e-05	0.00010426	1078.5	352.24	2.7456e-05	3.4242e-05	488.23	190.38	134.32	51.223	3.0143e-05	79.012	55.018	2.259	7.116	-72.865	61.645	117.819	-73.182	-66.882	18.790	56.823	-68.703	-64.299	-62.349	-57.336	70.538	-60.810	-8191	255	
33102.500	1	1	0	0	0.2127	0.2216	0.1515	0.34056	0.083123	0.018671	0.018083	0.13179	0.10736	0.19996	0.10848	0.19655	0.13017	0.17465	0.060248	0.19908	-4.3458	-4.6354	-4.2562	-4.9729	-4.4437	-4.4042	-4.8875	-4.3313	-4.825	-4.5896	-4.2063	-4.9229	-4.3667	-4.4167	-4.7083	-4.2521	97.188	-43.084	-2.231	-62.528	-38.111	202.920	-24.785	80.270	-57.590	211.416	268.584	261.529	-33.420	137.653	41.075	239.436	0.00014048	0.00083035	0.00017453	1105	1.2698e-05	1.5655e-05	1200.2	390.42	8.7178e-06	5.1988e-06	540.98	208.59	147.95	56.057	1.2011e-05	86.511	0.0047003	0.0029527	0.00086772	994.81	2.6149e-05	6.6135e-05	1086.7	352.78	2.7762e-05	3.4988e-05	489.61	191.12	134.67	51.291	3.0356e-05	79.506	42.029	12.307	-31.718	-72.725	75.713	94.253	-73.649	-66.943	51.551	59.470	-68.827	-64.529	-62.527	-57.331	52.866	-60.088	-8191	255	
33102.598	1	1	0	0	0.090496	0.25356	0.13624	0.11109	0.21042	0.1145	0.11194	0.054759	0.17514	0.43044	0.24463	0.28496	0.1812	0.06243	0.16851	0.12423	-4.2021	-4.6	-4.1479	-4.7354	-4.3875	-4.3271	-4.9688	-4.3958	-4.45	-4.7646	-4.2438	-4.7417	-4.4958	-4.2479	-4.8208	-4.4875	27.086	-5.011	-3.989	46.544	203.073	-73.329	205.963	-11.921	261.266	67.475	222.511	200.752	-18.622	84.442	150.383	206.596	0.00030915	0.00057056	0.00028463	1104.9	1.1908e-05	5.3418e-06	1215.8	391.59	8.2739e-06	6.7026e-06	543.97	210.18	149.87	56.596	7.4886e-06	87.075	0.004865	0.002932	0.00088609	997.79	2.6122e-05	3.3363e-05	1102.6	354.96	2.7774e-05	3.3716e-05	493.01	193.02	135.9	51.787	3.0742e-05	79.692	50.271	21.606	6.335	-72.877	74.936	73.996	-73.559	-66.850	73.923	73.949	-68.512	-64.563	-62.525	-57.542	83.961	-60.243	-8191	255	
33102.715	1	1	0	0	0.11522	0.28414	0.052635	0.19709	0.047232	0.10067	0.36768	0.26094	0.033248	0.14968	0.042908	0.10154	0.1217	0.10353	0.11841	0.056437	-4.1792	-4.7646	-4.2625	-4.7292	-4.5833	-4.3729	-4.9958	-4.4417	-4.4583	-4.7542	-4.3375	-4.7979	-4.4896	-4.2729	-4.85	-4.3667	85.498	111.935	230.550	264.963	20.669	12.016	234.404	240.671	-56.179	172.461	10.125	70.289	273.798	-32.126	-63.123	63.621	7.9549e-05	0.00064769	0.00012567	1114.1	7.2657e-06	1.1054e-05	1217.5	392.89	9.7175e-06	6.8109e-06	545.04	208.94	148.78	56.702	8.3899e-06	86.489	0.0046549	0.0030418	0.00088694	1001.6	2.6085e-05	3.4859e-05	1098.7	355.42	2.7224e-05	3.4512e-05	491.56	191.66	135.68	51.871	3.0997e-05	79.396	-33.712	26.146	-4.537	-72.798	90.426	63.877	-73.593	-66.814	47.049	39.415	-68.722	-64.417	-62.264	-57.371	62.437	-60.303	-8191	255	
33102.812	1	1	0	0	0.15707	0.085018	0.1506	0.22027	0.098503	0.10871	0.13223	0.039798	0.12537	0.054566	0.29756	0.20214	0.093338	0.088096	0.15293	0.10616	-4.0146	-4.5042	-4.2417	-4.5875	-4.5583	-4.2354	-4.8229	-4.5021	-4.3854	-4.8667	-4.2875	-4.6937	-4.7333	-4.1208	-4.75	-4.5854	15.540	-36.432	60.177	-80.433	189.007	224.957	200.924	107.117	-6.740	158.324	273.180	272.880	70.171	165.718	256.324	13.525	0.00021997	0.00096668	0.00016822	1109.8	2.1476e-06	5.9518e-06	1215	392.72	9.5677e-06	9.0797e-06	540.85	210.82	149.63	56.628	7.7075e-06	87.323	0.0030013	0.0058348	0.00085834	999.97	2.6892e-05	3.6358e-05	1098.3	354.58	2.7312e-05	3.4981e-05	490.7	192.19	136.19	51.843	3.1291e-05	79.863	70.960	3.094	5.995	-72.696	57.904	83.262	-73.489	-66.771	30.105	54.524	-68.319	-64.239	-62.477	-57.436	44.160	-59.972	-8191	255	
33102.910	1	1	0	0	0.10516	0.1645	0.012701	0.044003	0.088165	0.0060326	0.10405	0.28315	0.099548	0.17046	0.30033	0.27042	0.1612	0.25319	0.36819	0.16934	-3.9958	-4.8333	-4.2208	-4.7688	-4.6479	-4.0271	-4.9146	-4.6542	-4.3708	-4.875	-4.4	-4.625	-4.7208	-4.2375	-4.8688	-4.5771	135.648	51.387	-50.564	255.069	55.532	192.530	239.318	226.413	77.447	70.071	260.183	231.749	209.725	251.374	-76.867	144.001	0.00075554	0.0026694	0.00024893	1111.4	1.0563e-05	3.5172e-06	1210.1	392.32	7.6772e-06	1.2359e-05	545.9	210.53	150.04	56.583	7.1635e-06	87.617	0.001835	0.009037	0.00084033	1001.2	2.653e-05	3.4703e-05	1100.6	355.28	2.7309e-05	3.5164e-05	491.51	192.65	135.91	51.967	3.0589e-05	80.242	31.771	-2.697	-4.746	-72.587	88.362	85.042	-73.155	-66.768	-36.340	64.963	-68.500	-64.206	-62.586	-57.222	83.075	-60.070	-8191	255	
33102.980	1	1	0	0	0.081918	0.25281	0.096019	0.42582	0.15451	0.13994	0.22497	0.12958	0.35907	0.24039	0.075393	0.092035	0.084851	0.19213	0.17146	0.14947	-3.8729	-4.7875	-4.3875	-4.5312	-4.7167	-4.1292	-4.7729	-4.6438	-4.1438	-4.7333	-4.4771	-4.4833	-4.8167	-4.1625	-4.6729	-4.5896	247.031	145.544	45.675	252.284	-40.803	-55.756	242.358	171.874	94.883	179.050	-81.443	195.108	37.837	265.178	33.668	222.332	0.0007684	0.0016176	0.00025919	1113.2	1.0034e-05	7.0398e-06	1214.5	390.55	1.2479e-05	1.0035e-05	543.77	210.73	149.9	56.527	1.0599e-05	87.038	0.0018481	0.0093494	0.00088005	1001.3	2.6018e-05	3.547e-05	1101.1	353.82	2.8221e-05	3.5402e-05	491	190.79	136.88	51.621	3.0429e-05	79.604	38.570	-20.904	-3.008	-72.693	44.696	91.153	-73.623	-66.527	57.651	67.740	-68.636	-64.428	-62.553	-57.590	49.925	-60.394	-8191	255	
33103.102	1	1	0	0	0.063625	0.21349	0.29961	0.10009	0.08932	0.23069	0.33903	0.14515	0.057628	0.25586	0.29052	0.063668	0.20854	0.078672	0.15786	0.23161	-3.9688	-4.7604	-4.2875	-4.5125	-4.9104	-4.1458	-4.7792	-4.7729	-4.1521	-4.8604	-4.4854	-4.4479	-4.7896	-4.4625	-4.5917	-4.9021	-24.447	70.278	178.875	-79.561	91.746	105.520	211.502	192.667	212.495	189.775	231.689	192.216	232.183	247.783	-31.093	-81.658	0.00083597	0.0025795	0.00014249	1112.2	8.096e-06	1.2209e-05	1199.3	390.8	6.4652e-06	7.1603e-06	539.36	207.69	148.54	56.034	6.3947e-06	86.406	0.001882	0.0089619	0.00083268	998.83	2.765e-05	3.4292e-05	1091.4	353.35	2.8626e-05	3.4457e-05	488.42	188.77	137.39	51.462	3.0339e-05	79.258	35.965	3.153	-14.007	-72.586	39.043	66.963	-73.340	-67.038	41.789	47.267	-68.873	-64.314	-62.885	-57.275	59.647	-59.921	-8191	255	
33103.195	1	1	0	0	0.17297	0.18237	0.2003	0.12296	0.15894	0.078632	0.16179	0.25942	0.25213	0.13135	0.18674	0.13906	0.21938	0.13438	0.12198	0.016877	-3.9583	-4.7458	-4.4167	-4.3396	-4.7542	-4.2833	-4.8333	-4.8083	-4.1646	-4.6583	-4.6625	-4.4354	-5.0042	-4.2708	-4.4479	-4.8875	63.485	29.982	-26.894	-64.237	173.288	152.649	238.719	216.140	-19.091	20.938	-80.049	-80.143	252.230	-77.727	178.413	22.630	0.00071452	0.0024774	0.00018932	1113.5	1.032e-05	7.5812e-06	1204.1	389.16	6.3719e-06	8.3313e-06	540.54	208.21	148.25	56.426	6.5614e-06	86.353	0.0019024	0.0090908	0.00078689	998.55	2.7166e-05	3.3793e-05	1089.3	352.97	2.8165e-05	3.5315e-05	487.38	189	137.48	51.525	3.0233e-05	79.23	40.834	30.164	-2.960	-72.790	74.677	82.935	-73.570	-66.750	53.937	51.938	-68.316	-64.476	-62.604	-57.531	100.090	-59.853	-8191	255	
33103.293	1	1	0	0	0.20587	0.17532	0.13128	0.095089	0.26825	0.16444	0.13259	0.16695	0.028581	0.1537	0.16306	0.13789	0.18149	0.23739	0.092874	0.29896	-3.8979	-4.3833	-4.4354	-4.2063	-4.8021	-4.3812	-4.6687	-4.9146	-4.1396	-4.5083	-4.6042	-4.3208	-4.7042	-4.4958	-4.2646	-4.9042	-14.279	-19.700	-6.895	-28.593	44.715	31.237	186.684	-29.475	52.792	-72.074	242.009	-79.142	262.410	228.661	16.002	178.273	0.00084684	0.0024843	0.00012593	1113.2	5.2174e-06	8.0124e-06	1212.9	391.32	1.5558e-05	6.6494e-06	543.32	209.53	148.37	56.603	7.092e-06	87.301	0.0018755	0.0090276	0.00083222	997.93	2.6718e-05	3.3334e-05	1091.9	355.49	2.8378e-05	3.4684e-05	490.59	189.89	137.76	51.624	3.0984e-05	79.706	26.824	16.825	14.346	-72.737	30.072	48.067	-73.631	-66.578	72.587	78.431	-68.722	-64.254	-63.149	-57.359	98.744	-60.061	-8191	255	
33103.391	1	1	0	0	0.10617	0.10208	0.25593	0.14612	0.20509	0.31565	0.38428	0.22066	0.10443	0.11347	0.23423	0.15199	0.21334	0.21463	0.12277	0.30258	-3.7604	-4.6479	-4.5687	-4.3083	-4.8313	-4.5208	-4.4625	-4.7833	-4.3271	-4.6021	-4.8646	-4.1813	-4.825	-4.575	-4.2604	-4.9437	-46.518	-31.811	98.660	260.572	270.213	176.982	226.510	259.103	202.342	123.368	228.894	-42.385	261.263	248.586	-18.333	-63.428	0.0010215	0.0024801	8.6694e-05	1109.7	6.4801e-06	7.2081e-06	1217.1	393.22	1.0519e-05	9.6651e-06	545.57	209.26	149.46	56.483	7.247e-06	87.342	0.0018913	0.0092292	0.0008629	1001.7	2.8258e-05	3.4616e-05	1095.8	358.63	2.7336e-05	3.4014e-05	492.38	190.5	138.34	51.843	3.1035e-05	79.888	24.878	29.477	-67.839	-72.375	65.642	64.151	-73.360	-66.644	29.947	61.610	-68.384	-63.951	-62.976	-57.323	12.188	-60.053	-8191	255	
33103.508	1	1	0	0	0.13321	0.088082	0.085578	0.28231	0.15641	0.1737	0.24487	0.26516	0.18644	0.20818	0.16152	0.16536	0.24773	0.26942	0.11917	0.08369	-3.825	-4.4292	-4.5917	-4.1833	-4.7292	-4.5104	-4.3729	-4.8812	-4.3688	-4.4917	-4.8292	-4.3313	-4.7146	-4.5417	-4.2396	-4.7667	201.794	221.823	105.088	223.436	69.706	-21.446	-71.936	220.027	154.044	-8.612	221.846	-79.599	-42.781	221.906	108.214	265.512	0.00079172	0.0025579	0.00012022	1123.7	3.771e-06	4.4597e-06	1212	391.75	8.2375e-06	1.0314e-05	542.64	208.21	148.31	56.076	9.3585e-06	86.469	0.0018781	0.0083723	0.00087756	1004.6	2.7513e-05	3.4592e-05	1087.9	357.68	2.8113e-05	3.5028e-05	489.67	189.26	137.54	51.63	3.0592e-05	79.417	28.809	-2.023	25.817	-72.756	25.858	66.073	-73.565	-66.847	40.618	63.349	-68.366	-64.070	-62.453	-57.112	46.144	-60.258	-8191	255	
33103.578	1	1	0	0	0.087409	0.12656	0.093387	0.13293	0.076237	0.15275	0.15068	0.17499	0.18389	0.22434	0.16808	0.41422	0.018802	0.22582	0.032664	0.038884	-4.0854	-4.2667	-4.6854	-4.3875	-4.5625	-4.55	-4.3354	-4.9229	-4.4417	-4.4583	-5.0229	-4.2333	-4.7125	-4.5979	-4.1146	-4.6667	24.325	137.045	53.185	224.890	247.602	-56.692	211.674	152.364	112.484	192.139	260.120	262.497	131.208	-31.688	-30.642	115.703	0.00085994	0.0023916	0.00041121	1106.3	7.3406e-06	6.9085e-06	1205.4	391.33	8.0944e-06	5.2702e-06	540.86	210.32	148.97	56.531	2.822e-06	86.577	0.0018828	0.0046111	0.0018873	997.04	2.7773e-05	3.401e-05	1084.6	356.76	2.6777e-05	3.3923e-05	488.49	189.88	137.49	51.737	3.0821e-05	79.449	36.371	-4.333	91.869	-72.495	56.200	45.053	-73.325	-66.816	62.621	140.347	-68.705	-63.964	-62.828	-57.286	133.297	-60.076	-8191	255	
33103.676	1	1	0	0	0.19094	0.2678	0.027356	0.15457	0.2944	0.043305	0.061498	0.17341	0.14417	0.094685	0.16519	0.11742	0.11511	0.20311	0.03524	0.30921	-4.0167	-4.2312	-4.675	-4.2833	-4.4479	-4.775	-4.4125	-4.8146	-4.3917	-4.3292	-5.0792	-4.4125	-4.6312	-4.6562	-4.2792	-4.7708	80.056	-5.554	46.732	205.544	215.069	271.106	-80.872	-79.122	-64.869	-4.545	244.163	164.843	50.141	213.109	-14.601	177.347	0.00063768	0.00046918	0.00055341	1113.3	8.6157e-06	1.1476e-05	1218.2	392.29	1.6715e-05	7.8399e-06	540.86	210.5	149.91	56.496	2.1394e-06	87.607	0.0018799	0.0031018	0.0025632	999.59	2.7184e-05	3.5557e-05	1091.5	358.18	2.8034e-05	3.5022e-05	490.21	189.89	137.63	51.714	3.1714e-05	79.957	33.952	-17.392	55.469	-72.965	87.741	37.452	-73.334	-66.513	71.305	93.573	-68.385	-64.141	-62.455	-57.153	87.001	-60.351	-8191	255	
33103.797	1	1	0	0	0.11552	0.028081	0.016995	0.16852	0.021695	0.030253	0.0054597	0.25243	0.19304	0.065799	0.087621	0.17231	0.044646	0.13128	0.13817	0.22694	-4.0771	-4.0542	-4.7292	-4.4333	-4.3375	-4.8063	-4.35	-4.6958	-4.7438	-4.2729	-4.9437	-4.4479	-4.4542	-4.8542	-4.275	-4.6958	259.781	-45.896	144.932	102.145	151.550	153.239	51.346	-73.952	269.689	-25.981	148.248	239.874	264.129	-82.273	-22.258	204.070	0.00078083	0.0009138	0.00073825	1118.7	9.5789e-06	8.3079e-06	1222.8	393.54	5.602e-06	6.3841e-06	543.21	210.78	149.05	56.602	8.8791e-06	87.575	0.0019214	0.0031569	0.0026732	1004.9	2.7134e-05	3.5259e-05	1096.5	358.35	2.898e-05	3.6684e-05	492.27	190.84	136.59	52.257	3.0939e-05	80.044	25.464	-2.139	50.335	-72.671	68.244	81.012	-73.534	-66.561	50.184	43.143	-68.562	-64.117	-62.639	-57.211	50.942	-59.884	-8191	255	
33103.895	1	1	0	0	0.18055	0.22916	0.17174	0.087711	0.084531	0.081011	0.15775	0.049453	0.1349	0.098183	0.050265	0.124	0.27501	0.14388	0.18256	0.067907	-4.3375	-4.1417	-4.6979	-4.5021	-4.4187	-4.7896	-4.3333	-4.75	-4.4229	-4.1833	-4.9146	-4.525	-4.4292	-4.8562	-4.3292	-4.5833	50.227	1.142	-69.710	157.806	2.147	46.047	211.536	190.867	122.320	53.048	12.279	203.940	171.209	264.059	104.688	-21.719	0.00085597	0.00025771	0.0006156	1115.9	9.3978e-06	1.1494e-05	1228.2	392.86	1.0014e-05	6.0566e-06	542.64	209.36	148.61	56.388	8.5925e-06	86.677	0.0019652	0.0031433	0.0025896	1003.8	2.7408e-05	3.6562e-05	1093.6	358.12	2.8595e-05	3.6667e-05	490.27	189.39	135.16	52.26	3.0896e-05	79.572	46.215	3.323	66.551	-72.837	79.312	53.133	-73.189	-66.839	83.323	114.027	-68.465	-64.110	-62.185	-57.302	54.421	-60.195	-8191	255	
33103.988	1	1	0	0	0.061024	0.34174	0.2056	0.19914	0.17789	0.19092	0.014927	0.22246	0.22208	0.11008	0.041497	0.24	0.10444	0.32265	0.2153	0.3906	-4.2625	-4.2167	-4.6854	-4.5687	-4.1896	-4.8375	-4.3938	-4.525	-4.8042	-3.8979	-4.7104	-4.4958	-4.2104	-4.9187	-4.3042	-4.5146	76.368	59.556	-63.524	216.542	257.404	-62.722	138.159	178.716	-42.206	94.358	187.961	209.044	61.123	257.503	222.702	192.271	0.0007747	0.00060352	0.00062375	1112.6	3.7115e-06	7.2929e-06	1210.4	391.8	2.3079e-05	7.0933e-06	541.56	209.02	148.31	56.555	8.1051e-06	86.926	0.0018951	0.0031761	0.0026566	1000.3	2.7722e-05	3.5415e-05	1089.2	355.91	3.1167e-05	3.5577e-05	488.32	189.15	135.22	52.385	3.1349e-05	79.697	46.567	11.822	59.453	-72.956	17.350	111.840	-73.445	-66.549	254.281	54.223	-68.491	-64.164	-62.160	-57.429	50.502	-59.974	-8191	255	
33104.109	1	1	0	0	0.18167	0.12304	0.071507	0.14399	0.074482	0.11084	0.37024	0.095395	0.099126	0.15829	0.27213	0.20868	0.34895	0.34559	0.18773	0.06855	-4.3667	-4.1083	-4.4958	-4.6562	-4.1708	-4.8104	-4.3292	-4.3729	-4.7063	-4.1625	-4.6125	-4.7146	-4.0375	-4.9208	-4.3167	-4.3688	163.387	122.705	270.461	264.751	17.707	21.141	264.529	203.584	43.901	-45.706	255.591	222.306	269.055	266.434	79.127	155.210	0.00076858	0.0005611	0.00065119	1118.2	8.7881e-06	8.289e-06	1214.9	392.77	1.364e-05	9.5714e-06	545.96	210.3	149.81	56.825	1.1879e-05	87.798	0.0018739	0.0029918	0.0025691	1003.7	2.7462e-05	3.4863e-05	1093.4	356.16	6.4672e-05	3.4382e-05	494.28	190.62	136.18	52.633	3.158e-05	80.396	40.609	-23.509	73.911	-72.716	55.255	82.833	-73.450	-66.381	-65.313	90.625	-68.275	-64.443	-62.303	-57.427	65.771	-60.099	-8191	255	
33104.180	1	1	0	0	0.14353	0.096729	0.09782	0.098075	0.11207	0.21874	0.20603	0.17468	0.16714	0.16117	0.1973	0.12077	0.089344	0.21282	0.21189	0.059153	-4.3521	-4.1667	-4.6208	-4.7021	-4.0875	-4.7729	-4.725	-4.45	-4.6458	-4.175	-4.6062	-4.7562	-4.2667	-4.8208	-4.4292	-4.4812	214.294	30.424	57.961	219.843	27.406	266.803	-52.676	238.466	19.124	143.083	163.962	224.536	-74.055	246.223	-20.355	-56.639	0.0008905	0.0012794	0.00046136	1117.5	1.0853e-05	5.4136e-06	1223.4	394.63	3.2649e-05	7.241e-06	543.98	210.68	150.18	57.007	6.6196e-06	87.341	0.0019483	0.0030782	0.0026055	1008.2	2.7091e-05	3.559e-05	1100.6	357.21	8.263e-05	3.5946e-05	494.16	191.04	136.35	52.748	3.173e-05	80.295	34.635	-7.329	84.525	-72.678	35.279	4.954	-73.409	-66.701	-56.664	53.630	-68.642	-64.292	-62.425	-57.319	75.908	-60.144	-8191	255	
33104.277	1	1	0	0	0.15771	0.18443	0.14132	0.20543	0.12215	0.14546	0.057063	0.083547	0.17976	0.18966	0.17916	0.19116	0.073065	0.091772	0.10495	0.21248	-4.4688	-4.325	-4.4938	-4.8375	-4.1271	-4.7271	-4.6896	-4.3771	-4.8562	-4.1937	-4.4646	-4.8125	-4.1354	-4.6604	-4.6083	-4.3042	140.050	212.575	104.277	217.507	138.906	214.295	89.012	210.352	214.966	75.564	-75.428	211.877	188.249	214.905	231.820	-83.082	0.0009034	0.00067979	0.00047089	1115.9	9.1304e-06	6.577e-06	1221.6	393.7	3.1966e-05	5.209e-06	547.34	209.94	148.66	57.224	1.074e-05	87.374	0.0019268	0.0030851	0.002134	1008.7	2.6946e-05	3.5635e-05	1097	356.34	8.3265e-05	3.4577e-05	492.63	189.8	135.86	52.728	3.0919e-05	79.962	29.693	12.186	34.729	-72.846	32.113	85.341	-73.127	-66.778	-50.208	84.895	-68.687	-63.666	-62.273	-57.548	57.714	-60.053	-8191	255	
33104.395	1	1	0	0	0.076809	0.050695	0.047563	0.19459	0.11171	0.045269	0.26392	0.24209	0.048832	0.25574	0.37132	0.049136	0.073497	0.069601	0.15422	0.25026	-4.5813	-4.3833	-4.5604	-4.8708	-4.1937	-4.6125	-4.7375	-4.2792	-4.65	-4.5083	-4.4458	-4.8313	-4.1458	-4.6	-4.7208	-4.3313	-76.498	200.335	-42.993	227.904	10.612	15.106	165.460	230.671	241.644	-75.460	262.938	198.992	145.865	125.416	82.870	227.590	0.0007195	0.00040631	0.00046849	1119.3	1.0731e-05	7.5631e-06	1212.6	394.63	2.4228e-05	6.2118e-06	545.47	208.27	149.19	56.825	7.4226e-06	87.359	0.0018872	0.0031317	0.0010988	1012.1	2.8287e-05	3.5505e-05	1091.4	356.35	7.9328e-05	3.4738e-05	491.73	189.55	136.1	52.649	3.1367e-05	79.779	47.094	-23.193	22.569	-72.784	65.562	100.809	-73.533	-66.692	-52.670	52.324	-68.601	-64.354	-62.130	-57.257	43.384	-60.014	-8191	255	
33104.492	1	1	0	0	0.27214	0.13489	0.1325	0.10179	0.16101	0.12705	0.20812	0.053749	0.095487	0.19015	0.14707	0.016934	0.13097	0.16667	0.1748	0.25458	-4.5229	-4.3917	-4.2104	-4.8604	-4.3292	-4.5625	-4.6729	-4.3292	-4.7688	-4.4521	-4.2333	-4.7875	-4.3917	-4.4563	-4.6896	-4.3438	-38.955	-21.849	-17.892	241.385	42.060	175.502	210.931	-33.277	-61.961	-29.571	206.487	235.338	270.789	-72.205	177.683	197.313	0.00074479	0.00069515	6.2245e-05	1118.8	4.8605e-06	8.1103e-06	1219	394.93	3.6182e-05	7.7145e-06	544.84	210.74	149.66	57.244	9.5108e-06	88.294	0.0019194	0.00305	0.00090131	1014.3	2.6365e-05	3.7697e-05	1096.1	356.42	8.4766e-05	3.5171e-05	494.21	190.67	136.89	52.765	3.8338e-05	80.547	40.509	-12.261	59.590	-72.492	104.386	81.164	-73.601	-66.618	-43.917	75.564	-68.658	-64.187	-62.461	-57.233	99.379	-60.054	-8191	255	
33104.590	1	1	0	0	0.076116	0.15153	0.090085	0.26202	0.041094	0.024124	0.12347	0.14854	0.13437	0.093067	0.064111	0.22194	0.032379	0.10622	0.15839	0.17276	-4.2354	-4.4958	-4.2417	-4.8438	-4.4021	-4.5021	-4.9229	-4.2	-4.5542	-4.4021	-4.2146	-4.9271	-4.4146	-4.3271	-4.7125	-4.4167	26.667	200.252	64.449	209.881	145.816	35.585	265.954	155.861	198.793	-6.352	-15.058	266.410	-54.656	-53.074	272.817	-76.703	0.00089748	0.00096711	0.00028682	1123.3	6.3376e-06	7.0745e-06	1225.8	395.95	3.432e-05	4.9947e-06	546.95	212.6	149.03	57.381	9.7163e-06	88.187	0.0018936	0.0031357	0.00087185	1021.9	2.7344e-05	3.5379e-05	1105.2	358.07	8.2131e-05	3.7307e-05	497.17	192.55	136.98	52.615	7.9659e-05	80.897	31.681	-6.754	13.832	-72.515	43.823	61.376	-73.476	-66.865	-17.064	38.816	-68.552	-64.149	-62.380	-57.081	149.623	-60.154	-8191	255	
33104.711	1	1	0	0	0.13106	0.26871	0.051414	0.12548	0.10421	0.20921	0.23884	0.083216	0.13658	0.15708	0.19452	0.075201	0.27145	0.066668	0.11474	0.22337	-4.1583	-4.7042	-4.3083	-4.8583	-4.5292	-4.3333	-4.8979	-4.375	-4.7292	-4.6229	-4.325	-4.9083	-4.6146	-4.3187	-4.925	-4.4375	44.247	31.750	129.726	266.401	-29.258	45.255	247.401	91.563	178.258	8.108	-31.590	159.211	-28.163	250.902	59.932	261.665	0.0010348	0.0010418	0.00018532	1122.6	1.8805e-05	2.9262e-06	1223.1	394.94	1.4935e-05	7.3854e-06	545.49	211.11	150.42	57.327	2.5443e-05	88.179	0.0018682	0.0030914	0.00087494	1021	2.7376e-05	3.5726e-05	1101.2	358.78	8.3552e-05	3.5292e-05	493.54	191.74	137.2	52.643	8.8609e-05	80.679	34.785	-6.700	-0.675	-72.437	39.190	103.359	-73.354	-67.038	-44.397	62.201	-68.569	-63.809	-62.047	-57.244	79.434	-60.141	-8191	255	
33104.805	1	1	0	0	0.09973	0.16008	0.056484	0.19487	0.24378	0.28217	0.093305	0.38544	0.1302	0.065363	0.14131	0.14031	0.15161	0.19425	0.18903	0.02464	-4.0375	-4.675	-4.0729	-4.5208	-4.4583	-4.2979	-4.9583	-4.4021	-4.3187	-4.6771	-4.1583	-4.7208	-4.4646	-4.2396	-4.875	-4.3458	176.146	-64.892	179.258	217.341	56.061	145.281	-40.732	203.291	-43.143	-17.855	231.542	258.391	240.311	-59.095	14.937	241.215	0.0007431	0.00064184	8.4598e-05	1123.5	7.6384e-06	6.7325e-06	1218.8	397.04	2.9237e-05	3.6336e-06	546.44	211.23	150.73	57.4	2.8693e-05	88.06	0.0019583	0.003075	0.0008668	1021.2	2.6509e-05	3.3796e-05	1095.7	358.89	6.3104e-05	4.7304e-05	494.19	191.4	137.36	52.556	9.0241e-05	80.679	38.097	7.949	7.330	-72.562	29.991	140.926	-73.562	-66.668	18.854	-80.022	-68.475	-64.286	-62.556	-57.016	72.323	-59.868	-8191	255	
33104.879	1	1	0	0	0.056241	0.14523	0.15619	0.29664	0.10899	0.071555	0.14609	0.079293	0.17035	0.16755	0.29051	0.33162	0.18363	0.045989	0.058593	0.18216	-4.1229	-4.7104	-4.075	-4.6521	-4.6042	-4.0771	-4.7979	-4.2917	-4.1083	-4.8167	-4.3542	-4.6917	-4.6229	-4.3708	-4.6896	-4.4771	197.102	-84.165	112.946	246.096	-54.661	-23.543	-76.330	195.986	4.836	220.031	253.276	-77.860	212.968	165.276	198.809	-33.372	0.00077038	0.0013914	0.00017486	1122.1	1.3824e-05	5.7594e-06	1217.6	399.06	2.8494e-05	6.7949e-06	548.91	210.82	151.37	57.637	3.075e-05	88.663	0.0018536	0.0029762	0.0008771	1019.7	2.7687e-05	3.4979e-05	1096.8	359.73	3.0287e-05	9.3099e-05	497.03	191.43	138.03	52.92	8.9347e-05	81.061	30.104	-3.215	-17.664	-72.502	47.356	67.221	-73.691	-66.602	-2.852	-70.650	-68.594	-64.136	-62.505	-57.196	65.580	-60.133	-8191	255	
33104.973	1	1	0	0	0.074401	0.015962	0.14721	0.4301	0.17018	0.11874	0.13868	0.25817	0.02819	0.27045	0.12471	0.084577	0.073544	0.1773	0.11042	0.043839	-4.0104	-4.7604	-4.2271	-4.6687	-4.5896	-4.1458	-4.9271	-4.4708	-4.2979	-4.8958	-4.35	-4.6896	-4.7354	-4.2396	-4.6354	-4.6271	95.077	13.294	-22.510	-78.356	102.605	70.040	174.893	228.149	22.242	60.406	257.319	27.784	60.597	271.888	-8.229	200.664	0.00091832	0.0010133	0.00012244	1126.4	1.0497e-05	9.7698e-06	1226.3	400.63	9.5814e-06	2.1281e-05	554.66	213.55	152.87	58.176	2.8059e-05	88.94	0.0019385	0.0031336	0.00080263	1024.8	2.7212e-05	3.5391e-05	1105.2	361.26	2.8222e-05	0.00010321	500.86	193.9	138.95	53.091	9.2774e-05	81.366	33.331	-17.541	1.103	-72.163	39.200	60.718	-73.274	-66.764	71.897	-7.958	-68.375	-64.147	-62.373	-57.281	72.985	-60.020	-8191	255	
33105.070	1	1	0	0	0.13569	0.1646	0.19751	0.11564	0.16093	0.077514	0.22139	0.15774	0.10435	0.17338	0.20305	0.22077	0.15991	0.24733	0.064096	0.085644	-3.8458	-4.7917	-4.3167	-4.4417	-4.7708	-4.275	-4.5708	-4.5896	-4.1438	-4.7625	-4.4229	-4.3333	-4.7854	-4.3771	-4.4896	-4.7333	181.594	-13.177	94.368	255.126	133.305	267.582	220.494	205.309	85.622	145.803	227.371	173.780	-77.455	256.256	227.113	248.279	0.00087165	0.0012188	0.00020983	1138	1.7134e-05	3.3997e-06	1226	399.04	1.3277e-05	2.2645e-05	550.94	212.26	151.98	57.862	3.0833e-05	88.819	0.0018685	0.0031356	0.00085755	1024.6	3.9386e-05	3.4461e-05	1100.6	361.24	2.9433e-05	0.00010618	497.8	192.68	138.04	53.13	8.9597e-05	81.195	33.074	3.796	8.478	-72.755	185.973	137.821	-73.396	-66.574	69.615	-8.114	-68.877	-64.132	-62.572	-57.421	95.799	-60.046	-8191	255	
33105.188	1	1	0	0	0.24978	0.14758	0.098136	0.23252	0.035011	0.13534	0.023347	0.29761	0.2794	0.16911	0.1374	0.29419	0.1608	0.35724	0.088403	0.21531	-3.6667	-4.6937	-4.4646	-4.3208	-4.8479	-4.25	-4.4667	-4.6937	-4.2604	-4.7354	-4.4313	-4.6292	-4.8292	-4.2958	-4.4917	-4.675	93.244	-60.665	95.960	246.965	32.561	-3.934	-74.720	243.993	136.442	-16.310	-77.300	-67.965	213.850	240.463	271.470	176.879	0.00095401	0.00089542	0.00016363	1128.1	2.8618e-05	6.5913e-06	1218.4	399.12	5.8311e-06	2.3228e-05	551.33	211.23	151.51	57.633	2.9542e-05	88.648	0.0019076	0.0030329	0.00087431	1014.9	7.093e-05	3.3765e-05	1096.9	361.02	2.8088e-05	0.00010364	496.91	191.89	137.94	52.82	9.2428e-05	80.961	51.684	-14.313	22.597	-72.511	208.047	57.975	-73.448	-66.696	76.772	-0.777	-68.342	-64.253	-62.420	-57.414	80.580	-60.099	-8191	255	
33105.285	1	1	0	0	0.20167	0.19336	0.1294	0.19981	0.20322	0.14753	0.21874	0.20345	0.15249	0.077448	0.065707	0.15996	0.057233	0.030909	0.1402	0.19082	-3.8667	-4.6937	-4.3	-4.3771	-4.7479	-4.2604	-4.6208	-4.7125	-4.1604	-4.7729	-4.6604	-4.4208	-4.9021	-4.5146	-4.4458	-4.7833	169.328	42.311	-84.132	148.827	146.153	96.206	242.178	273.231	-29.662	104.942	-27.196	219.899	259.756	2.795	54.400	265.879	0.00088141	0.00065964	0.00018632	1123.6	1.9292e-05	1.0185e-05	1219.9	398.53	1.5049e-05	2.2155e-05	548	213.5	151.37	57.798	2.427e-05	88.371	0.0019	0.0030556	0.00085834	1011.8	7.7684e-05	3.5136e-05	1100.1	360.65	2.7725e-05	0.00010667	496.47	192.99	137.83	52.96	6.4811e-05	81.404	33.623	5.331	19.976	-72.392	207.707	56.591	-73.270	-66.434	53.461	13.022	-68.574	-63.855	-62.375	-57.336	47.575	-59.742	-8191	255	
33105.383	1	1	0	0	0.05999	0.093731	0.14397	0.14532	0.078014	0.13092	0.11688	0.089689	0.19032	0.07446	0.26958	0.078203	0.24735	0.24709	0.1475	0.2816	-3.8937	-4.5479	-4.5979	-4.3688	-4.6958	-4.2854	-4.6042	-4.775	-4.0917	-4.5583	-4.6125	-4.2479	-4.7458	-4.4812	-4.2688	-5.0479	96.559	28.268	129.811	-50.452	119.677	89.131	195.915	231.049	99.678	165.135	220.099	183.887	-38.703	262.163	88.613	215.526	0.00079348	0.00039125	0.00015915	1123.5	8.5962e-06	5.6135e-06	1240.5	401.36	1.4843e-05	2.793e-05	554.1	213.17	151.34	58.021	6.0412e-06	89.476	0.001869	0.0031075	0.00089583	1016	8.1648e-05	3.564e-05	1110.5	362.08	2.9405e-05	0.00010415	499.74	193.61	138.46	53.102	2.9738e-05	82.435	22.429	-37.886	1.198	-72.569	251.610	37.328	-73.629	-66.951	34.574	11.821	-68.334	-64.079	-62.193	-57.305	54.367	-59.966	-8191	255	
33105.480	1	1	0	0	0.10686	0.13317	0.1498	0.13976	0.17937	0.20588	0.29899	0.20064	0.1383	0.13696	0.04844	0.085278	0.072114	0.12535	0.14706	0.10239	-3.8917	-4.4583	-4.6208	-4.3021	-4.7312	-4.4896	-4.3625	-4.8313	-4.1792	-4.5792	-4.8313	-4.1542	-4.7312	-4.4479	-4.2292	-4.9104	-37.437	-80.618	193.873	266.924	-48.322	254.115	211.046	253.499	37.079	-74.695	215.610	153.722	0.123	261.274	261.592	258.217	0.00076745	0.00083508	0.00014621	1137.4	1.7358e-05	7.9648e-06	1232.2	400.24	8.631e-06	3.0512e-05	551.44	211.78	151.1	57.734	7.4835e-06	88.893	0.0019052	0.0032035	0.00084997	1023.9	7.9264e-05	3.5932e-05	1109.7	362.94	2.7732e-05	0.00010888	499.1	192.53	137.97	52.996	2.9695e-05	82.022	38.928	-4.254	-29.001	-72.895	194.836	44.628	-73.469	-66.744	72.158	16.308	-68.362	-64.282	-62.597	-57.320	95.719	-60.303	-8191	255	
33105.574	1	1	0	0	0.20031	0.086028	0.22397	0.24484	0.20686	0.093081	0.21762	0.39508	0.078954	0.19877	0.11329	0.059066	0.18034	0.11992	0.23232	0.16739	-3.925	-4.3562	-4.5375	-4.3042	-4.65	-4.3979	-4.2833	-4.9583	-4.3333	-4.4875	-4.8938	-4.3646	-4.6854	-4.6854	-4.2771	-4.8792	174.051	20.932	163.325	-45.626	-49.642	141.866	-56.863	199.638	-81.120	240.108	197.406	198.517	210.953	251.155	30.503	199.767	0.00067608	0.00069335	0.00032757	1135.2	1.6225e-05	8.8154e-06	1226.4	399.76	5.1111e-06	2.5327e-05	547.39	212.57	151.36	57.889	1.1578e-05	87.957	0.0018996	0.0032311	0.00087208	1018.2	8.1883e-05	3.4489e-05	1101.4	360.82	2.7721e-05	7.2126e-05	497.46	192.33	137.78	52.896	3.199e-05	81.571	31.815	-29.085	29.614	-72.834	221.797	100.532	-73.350	-66.457	20.134	29.201	-68.419	-63.749	-62.138	-57.136	80.200	-59.848	-8191	255	
33105.668	1	1	0	0	0.069281	0.14798	0.23617	0.213	0.1416	0.22366	0.19574	0.16642	0.1041	0.23149	0.18256	0.16322	0.14951	0.16425	0.061671	0.12201	-4.1	-4.375	-4.6646	-4.1896	-4.4771	-4.6479	-4.2854	-4.825	-4.3854	-4.3396	-5.0437	-4.4375	-4.4812	-4.8688	-4.0583	-4.7667	17.269	189.175	192.400	128.394	259.854	-23.590	186.665	212.859	7.560	14.305	-34.174	266.019	-12.992	-35.113	253.700	263.290	0.00076934	0.0009207	0.00014988	1126.3	1.4234e-05	6.7538e-06	1222.3	398.2	1.14e-05	9.449e-06	551.27	211.56	152.09	57.82	7.3383e-06	88.654	0.0018994	0.0031754	0.00085968	1011.9	7.9492e-05	3.621e-05	1104.5	359.81	2.8638e-05	3.5961e-05	502.82	192.71	138.01	52.985	3.1526e-05	82.328	33.460	2.963	1.577	-72.495	228.273	48.708	-73.415	-66.611	86.080	83.724	-68.680	-64.283	-62.408	-57.124	41.297	-59.881	-8191	255	
33105.789	1	1	0	0	0.088211	0.106	0.27432	0.12688	0.073384	0.064843	0.17939	0.21429	0.26111	0.16855	0.12931	0.20619	0.19517	0.13041	0.17968	0.37455	-4.2375	-4.2896	-4.6875	-4.3229	-4.625	-4.7729	-4.1854	-4.7396	-4.4542	-4.0354	-4.8458	-4.4167	-4.4958	-4.7521	-4.0125	-4.7625	106.487	32.757	-22.301	269.567	110.614	195.671	-76.931	183.530	85.753	94.963	97.213	-61.094	-65.208	225.186	-83.148	228.720	0.00071646	0.00083064	0.00018066	1131.3	1.2008e-05	9.8538e-06	1234.9	401.38	5.1813e-06	7.12e-06	557.33	213.49	151.9	58.275	6.0155e-06	89.2	0.0019703	0.0030653	0.00086585	1018.2	8.0374e-05	3.4928e-05	1112.8	362.55	2.8521e-05	3.472e-05	507.64	193.63	138.69	53.171	3.0932e-05	82.587	28.804	2.762	37.486	-72.752	235.465	54.954	-73.350	-66.416	8.267	117.640	-68.464	-63.838	-62.628	-57.462	16.414	-60.085	-8191	255	
33105.887	1	1	0	0	0.15017	0.11566	0.19847	0.28217	0.065508	0.18913	0.079961	0.24486	0.2333	0.18559	0.31287	0.26082	0.17606	0.062098	0.31592	0.14135	-4.1458	-4.3271	-4.6396	-4.3917	-4.4437	-4.8417	-4.1813	-4.6271	-4.625	-4.1458	-4.85	-4.5542	-4.4729	-4.9187	-4.2479	-4.6979	-26.655	53.380	205.243	267.261	-60.314	106.915	-74.496	-30.442	-19.516	129.310	254.862	-42.088	186.479	51.687	111.612	236.469	0.00075257	0.00077899	5.9554e-05	1142.2	1.1872e-05	7.677e-06	1238.9	402.43	4.5307e-06	8.689e-06	555.71	213.02	152.8	58.373	4.1818e-06	89.288	0.001967	0.00317	0.00088589	1025.2	5.4122e-05	6.2769e-05	1111.8	363.61	2.8647e-05	3.5185e-05	506.71	193.55	139.47	53.456	3.0629e-05	82.638	31.885	-2.196	33.075	-72.714	15.262	-73.671	-73.457	-66.618	52.392	65.180	-68.551	-64.124	-62.161	-57.506	49.970	-60.031	-8191	255	
33105.980	1	1	0	0	0.15888	0.012509	0.091989	0.30231	0.081243	0.082782	0.26627	0.071998	0.36915	0.14656	0.15048	0.48464	0.21391	0.17498	0.14171	0.12348	-4.1875	-4.1708	-4.6083	-4.7021	-4.425	-4.7375	-4.4292	-4.6542	-4.6417	-4.1854	-4.8271	-4.5896	-4.3667	-4.9292	-4.2937	-4.7021	149.032	-50.863	36.553	257.442	222.828	167.207	106.716	194.714	-44.438	232.691	-60.333	254.479	-44.500	219.360	217.663	-76.844	0.00083857	0.00082493	0.00010453	1138.3	3.2196e-06	9.3716e-06	1231.6	400.79	4.1521e-06	5.932e-06	550.56	212.93	152.34	57.978	7.1044e-06	88.869	0.0019137	0.0030668	0.00085958	1022.7	2.7108e-05	0.00010452	1105.7	362.48	2.8345e-05	3.5762e-05	504.38	192.82	138.77	53.129	3.0542e-05	82.345	22.109	0.454	34.260	-72.747	-61.219	218.257	-73.382	-66.508	109.376	64.555	-68.662	-64.173	-62.148	-57.448	30.649	-59.852	-8191	255	
33106.078	1	1	0	0	0.16331	0.20305	0.10694	0.2253	0.24607	0.19625	0.13146	0.10371	0.12008	0.069689	0.29331	0.10705	0.18268	0.20212	0.047942	0.16204	-4.3562	-4.3	-4.6083	-4.65	-4.2792	-4.7688	-4.5458	-4.6417	-4.7438	-4.1542	-4.7438	-4.6479	-4.2688	-4.9667	-4.3104	-4.5854	144.662	82.421	228.243	232.624	-36.238	-28.053	-72.941	249.481	-26.262	30.790	272.916	255.398	-79.743	265.367	-14.540	247.119	0.00071492	0.00072585	0.00026907	1140.2	4.7899e-06	1.2414e-05	1226.6	399.85	5.4724e-06	9.1928e-06	555.1	212.8	152.45	58.2	7.3155e-06	90.202	0.0019242	0.003031	0.00090577	1023.4	2.6919e-05	0.00010517	1105.6	362.61	2.8812e-05	3.5394e-05	505.96	193.75	139.3	53.535	3.1429e-05	82.61	34.081	8.949	-5.622	-72.818	9.522	-81.505	-73.298	-66.620	48.194	58.559	-68.617	-64.105	-62.505	-57.466	98.379	-60.187	-8191	255	
33106.176	1	1	0	0	0.13146	0.18901	0.11191	0.24847	0.10493	0.080821	0.29131	0.45011	0.12232	0.13892	0.058404	0.21246	0.23505	0.30166	0.21249	0.1679	-4.5333	-4.1604	-4.525	-4.6479	-4.1562	-4.85	-4.5771	-4.4625	-4.7917	-4.1687	-4.7917	-4.6979	-4.1896	-4.9854	-4.4083	-4.4938	-75.532	239.051	-5.720	223.473	169.341	43.774	200.251	232.190	157.759	-10.705	240.633	98.331	-67.353	203.160	265.333	267.566	0.0013265	0.00074151	0.00026269	1135.5	5.4141e-06	1.3932e-05	1245.5	404.49	4.9484e-06	8.1316e-06	560.17	215.89	152.16	58.472	9.1738e-06	90.306	0.0030476	0.0031195	0.00088288	1022.6	2.6577e-05	0.00010634	1116.6	365.29	2.6855e-05	3.521e-05	509.08	195.75	139.96	53.75	3.0547e-05	82.803	11.108	24.257	12.531	-72.635	50.126	-81.013	-73.602	-66.764	85.397	70.254	-68.513	-63.964	-62.259	-57.075	63.607	-60.007	-8191	255	
33106.270	1	1	0	0	0.15257	0.16985	0.13003	0.21928	0.18874	0.10455	0.20534	0.072256	0.10773	0.18933	0.18848	0.36463	0.17558	0.15817	0.13371	0.059674	-4.3521	-4.2167	-4.6583	-4.8708	-4.3021	-4.7854	-4.5792	-4.4167	-4.775	-4.2521	-4.7354	-4.8521	-4.1958	-4.7292	-4.3396	-4.2979	101.284	196.948	-35.744	-64.702	1.023	218.016	189.789	192.824	-81.082	-18.260	270.392	217.574	227.030	186.051	33.608	100.712	0.00082461	0.00070638	0.00015086	1147.5	1.2353e-05	1.2606e-05	1243.1	406.08	2.9816e-06	6.9911e-06	558.99	215.61	154.05	58.894	6.2591e-06	89.835	0.0048168	0.0030382	0.00086434	1031	2.6983e-05	0.00010375	1119.8	367.16	2.7591e-05	3.6399e-05	510.36	196.09	140.42	53.966	3.1051e-05	82.49	3.956	-5.419	-3.409	-72.717	68.802	-82.173	-73.095	-66.835	38.409	76.821	-68.409	-64.066	-62.252	-57.447	26.563	-59.914	-8191	255	
33106.367	1	1	0	0	0.081618	0.27766	0.13972	0.18642	0.12879	0.06579	0.16806	0.28844	0.16057	0.21325	0.25593	0.1298	0.081121	0.22297	0.2326	0.26366	-4.2833	-4.2937	-4.3812	-4.8313	-4.2583	-4.5792	-4.6625	-4.2188	-4.7604	-4.425	-4.4979	-4.825	-4.3646	-4.6375	-4.4542	-4.2917	155.486	109.932	112.197	246.177	-79.188	198.298	2.294	216.670	33.794	168.303	270.395	182.192	220.818	-47.778	155.663	136.916	0.0012908	0.00094892	0.00015867	1147	1.4873e-05	1.8053e-05	1225.8	403.5	6.1513e-06	1.0263e-05	556.91	214.05	154.32	58.609	9.0005e-06	90.034	0.0046125	0.0030848	0.00089055	1027.4	2.7598e-05	0.00010651	1106.9	364.31	2.7437e-05	3.6054e-05	504.14	195.46	139.84	53.7	3.1066e-05	82.094	14.141	-5.360	-9.415	-72.357	56.404	-54.557	-73.315	-66.647	-23.229	93.656	-68.572	-64.159	-62.173	-57.234	58.955	-60.029	-8191	255	
33106.484	1	1	0	0	0.030277	0.36077	0.10794	0.043604	0.06492	0.16938	0.099199	0.12954	0.087909	0.15604	0.22103	0.31045	0.36986	0.13342	0.082438	0.19006	-4.3083	-4.3313	-4.2104	-4.8562	-4.2083	-4.5604	-4.8271	-4.2333	-4.7125	-4.3104	-4.3729	-4.8146	-4.1875	-4.6854	-4.7604	-4.3125	110.684	-51.170	257.066	145.402	271.973	257.979	175.464	226.502	254.469	-44.203	273.419	189.184	186.343	266.667	252.077	233.007	0.0011692	0.00060683	0.00032583	1138.5	7.1103e-06	1.7943e-05	1238.4	400.58	1.1508e-05	7.7081e-06	557.09	215.12	152.41	58.447	8.8873e-06	89.197	0.0048857	0.0029625	0.00084994	1023.4	2.728e-05	0.00010362	1107.9	363.51	2.7619e-05	3.5064e-05	501.3	196.28	139.68	53.736	3.0326e-05	82.094	-0.641	-9.673	7.654	-72.654	29.709	-27.780	-73.603	-66.514	44.608	5.569	-68.497	-64.148	-62.137	-57.142	75.787	-60.033	-8191	255	
33106.582	1	1	0	0	0.064115	0.028799	0.18779	0.16776	0.04405	0.26573	0.21791	0.23831	0.20285	0.072584	0.30715	0.14122	0.055115	0.21748	0.13923	0.038373	-4.3625	-4.4958	-4.2229	-4.9771	-4.2708	-4.5271	-4.7583	-4.1771	-4.6062	-4.5083	-4.3375	-4.7542	-4.3354	-4.3604	-4.6417	-4.2208	82.839	-81.169	-25.008	-79.718	53.175	208.579	192.046	223.167	-12.765	-25.559	243.895	197.342	253.913	213.633	87.013	-5.543	0.0011969	0.00068827	0.00019234	1137.1	1.2675e-05	1.6427e-05	1236.4	401.54	5.098e-06	6.6082e-06	556.32	214.96	154	58.853	8.3458e-06	90.409	0.0047089	0.0029894	0.00088908	1022.1	2.7826e-05	0.00010509	1112.8	363.4	2.8832e-05	3.6508e-05	503.22	197.23	140.25	53.795	2.9616e-05	82.656	19.091	22.990	5.315	-72.440	77.687	11.709	-73.452	-66.511	-2.419	26.999	-68.461	-64.283	-62.761	-57.124	99.062	-59.904	-8191	255	
33106.680	1	1	0	0	0.12602	0.24861	0.26534	0.048176	0.26148	0.16107	0.1954	0.33518	0.10648	0.053094	0.30919	0.031856	0.26335	0.20198	0.064646	0.32241	-4.2833	-4.4479	-4.0271	-4.8271	-4.3063	-4.4146	-4.9062	-4.2396	-4.6229	-4.625	-4.4875	-4.9417	-4.5125	-4.4896	-4.8979	-4.5021	64.019	-74.894	191.714	131.344	-10.073	181.447	241.006	193.108	-50.294	70.821	214.682	146.993	-50.037	194.025	159.740	238.200	0.0012706	0.0005152	0.00021519	1138	1.1263e-05	1.2916e-05	1246.6	402.98	1.2525e-05	3.7963e-06	552.33	214.99	153.99	58.704	1.0219e-05	89.406	0.0049376	0.0030674	0.00083518	1026.6	2.7669e-05	5.8694e-05	1124.2	364.43	2.836e-05	3.4826e-05	502.09	196.68	139.84	53.627	3.1416e-05	82.001	13.258	-29.893	-4.041	-73.029	55.350	14.535	-73.444	-66.562	75.766	36.317	-68.457	-64.325	-62.144	-57.480	53.845	-60.343	-8191	255	
33106.750	1	1	0	0	0.18634	0.12521	0.12288	0.20091	0.12691	0.020226	0.14608	0.35465	0.042713	0.11607	0.051314	0.16803	0.19401	0.037894	0.081694	0.4114	-4.3354	-4.525	-4.1021	-4.8438	-4.425	-4.1875	-4.8708	-4.35	-4.4521	-4.625	-4.2708	-4.6208	-4.5396	-4.1792	-4.8354	-4.4313	141.957	134.480	59.830	-46.004	-80.044	-76.741	229.908	145.378	214.373	165.461	141.340	-65.012	263.510	129.909	153.044	186.399	0.0012778	0.00061904	0.00032711	1140.9	8.4306e-06	8.3424e-06	1228.5	401.81	9.6999e-06	7.1632e-06	552.96	213.99	151.91	58.124	7.9829e-06	89.293	0.004719	0.0031261	0.00089885	1023.8	2.6758e-05	3.6504e-05	1116.9	363.12	2.8765e-05	3.5513e-05	499.64	195.54	138.78	53.381	3.0879e-05	81.729	4.170	0.455	-0.092	-72.787	-19.954	34.283	-73.389	-66.576	122.666	55.552	-68.145	-64.129	-62.245	-57.202	76.472	-59.734	-8191	255	
33106.871	1	1	0	0	0.24478	0.20132	0.16278	0.15012	0.15908	0.18453	0.2346	0.085325	0.20824	0.43945	0.25137	0.14048	0.078729	0.1925	0.10885	0.066406	-4.1667	-4.5479	-4.1417	-4.6813	-4.4333	-4.2937	-5.0333	-4.575	-4.2083	-4.7438	-4.2146	-4.7542	-4.5646	-4.3542	-4.7771	-4.3854	59.346	-25.046	94.927	258.848	45.224	-53.597	238.427	139.664	152.476	-52.653	236.583	223.502	22.220	-46.898	212.438	-75.619	0.00053891	0.00065701	0.00028389	1131.4	7.6105e-06	4.9929e-06	1230.5	401.53	1.3985e-05	5.3262e-06	555.14	213.91	151.7	58.191	5.8174e-06	89.805	0.0047326	0.003004	0.00089528	1016.9	2.715e-05	3.4656e-05	1118	361.67	2.9186e-05	3.4125e-05	500.9	195.75	138.74	53.442	3.201e-05	82.119	22.627	-12.083	-8.008	-72.586	87.961	76.856	-73.514	-66.614	44.037	43.288	-68.512	-64.196	-62.233	-57.473	62.567	-59.856	-8191	255	
33106.965	1	1	0	0	0.10837	0.13414	0.081274	0.3153	0.095891	0.050778	0.37681	0.1713	0.1087	0.26137	0.18133	0.4171	0.27503	0.053254	0.054934	0.049442	-4.0208	-4.8167	-4.2604	-4.7729	-4.5604	-4.1937	-4.9146	-4.4667	-4.3375	-4.8104	-4.4833	-4.7063	-4.8562	-4.3875	-4.6708	-4.575	93.838	214.569	184.873	256.425	-42.584	257.520	226.544	243.256	32.726	33.991	-50.042	245.942	251.869	-31.148	229.531	-48.569	0.00058245	0.0014325	0.00016663	1134.3	1.0039e-05	5.0331e-06	1237.5	402.51	1.2474e-05	1.6095e-06	554.9	214.06	153.18	58.188	5.0983e-06	89.647	0.0027444	0.0063228	0.00086913	1020.5	2.6326e-05	3.3511e-05	1121.5	362.76	2.8071e-05	3.6083e-05	501.83	196.16	139.47	53.552	3.2371e-05	82.369	24.453	169.145	24.985	-72.748	91.492	36.474	-73.772	-66.647	68.936	52.468	-68.416	-63.977	-62.139	-57.391	52.403	-60.046	-8191	255	
33107.062	1	1	0	0	0.10984	0.23497	0.13039	0.24681	0.23909	0.13201	0.18009	0.27145	0.098401	0.069534	0.26987	0.13074	0.05326	0.18732	0.091784	0.19614	-4.1062	-4.8042	-4.0958	-4.5563	-4.6312	-4.05	-4.7375	-4.3583	-4.2208	-4.6604	-4.4854	-4.5125	-4.8042	-4.3083	-4.6813	-4.7104	82.302	6.261	11.341	201.065	86.602	146.932	-67.800	253.037	114.374	130.013	209.757	266.038	214.319	198.126	-22.675	184.231	0.00063649	0.0017343	0.0002373	1138.6	7.3419e-06	6.9971e-06	1245.2	402.08	4.8504e-06	6.6851e-06	557.18	214.92	153.18	58.671	5.2959e-06	89.992	0.0019259	0.0095965	0.0008874	1023.9	2.6277e-05	3.4837e-05	1129.7	364.24	2.8517e-05	3.4771e-05	502.14	196.99	139.94	53.743	3.2035e-05	82.373	45.949	164.997	3.362	-72.843	12.460	46.992	-73.610	-66.885	152.839	36.948	-68.356	-64.251	-62.747	-57.268	102.564	-60.280	-8191	255	
33107.160	1	1	0	0	0.098855	0.19254	0.022033	0.17513	0.16214	0.10622	0.20722	0.20532	0.10917	0.24166	0.11	0.093696	0.19228	0.44184	0.050658	0.18802	-3.7687	-4.7104	-4.3042	-4.6167	-4.6792	-4.1604	-4.5813	-4.6479	-4.2042	-4.7271	-4.4979	-4.3479	-4.7042	-4.2292	-4.6937	-4.8104	109.907	-80.246	85.254	201.268	71.774	-29.874	205.169	217.153	231.290	238.795	101.909	60.379	212.230	-36.625	121.143	181.673	0.00084421	0.00065162	8.5616e-05	1136.2	7.0297e-06	2.1621e-06	1228.1	402	4.1758e-06	8.0163e-06	552.66	214.03	153.15	58.069	8.9177e-06	89.708	0.001871	0.008931	0.00088976	1020.8	2.6462e-05	3.4762e-05	1117.4	362.56	2.827e-05	3.5534e-05	498.69	194.19	140.56	53.491	3.0815e-05	81.924	34.848	152.680	36.022	-72.524	44.647	84.827	-73.310	-66.605	91.674	86.946	-68.542	-63.821	-62.589	-57.358	47.576	-59.919	-8191	255	
33107.277	1	1	0	0	0.097084	0.20691	0.073031	0.24625	0.25639	0.19413	0.1119	0.060143	0.21711	0.027404	0.15448	0.083819	0.12782	0.21247	0.093206	0.14688	-3.8229	-4.8458	-4.4792	-4.3646	-4.6438	-4.2271	-4.6937	-4.6292	-4.0938	-4.5312	-4.6917	-4.3938	-4.8063	-4.5208	-4.4167	-4.7771	-1.858	138.174	171.482	243.743	-39.379	170.126	-76.152	165.725	-9.168	189.764	243.164	-33.510	99.582	-26.105	262.829	168.847	0.00086389	0.00137	0.00028109	1133.2	9.884e-06	5.5151e-06	1230.4	400.25	1.3154e-05	6.5894e-06	551.96	213.12	152.08	58.235	1.1603e-05	88.952	0.0019081	0.0092452	0.00088481	1016.6	2.6715e-05	3.6033e-05	1113.7	361.85	2.798e-05	3.5907e-05	498	193.46	141.2	53.496	3.1719e-05	81.752	40.086	165.152	4.300	-72.582	50.232	58.569	-73.498	-66.577	68.466	69.731	-68.727	-64.163	-62.306	-57.397	40.657	-60.072	-8191	255	
33107.352	1	1	0	0	0.16527	0.086159	0.13053	0.33209	0.1501	0.10715	0.29798	0.21982	0.094117	0.099246	0.1002	0.14308	0.19321	0.20743	0.092034	0.19956	-3.7292	-4.6188	-4.5229	-4.3167	-4.9604	-4.4	-4.5875	-4.8063	-4.1167	-4.55	-4.6729	-4.3854	-4.6729	-4.4812	-4.3083	-4.9688	162.654	218.271	90.530	178.855	64.383	180.164	234.973	233.275	220.421	38.893	-42.533	-62.989	83.302	-70.876	130.977	190.984	0.00094679	0.0011278	0.00023711	1131.9	8.2099e-06	5.9177e-06	1237.8	399.71	1.2772e-05	2.8233e-06	552.2	213.58	153.11	58.245	1.3062e-05	89.08	0.0019075	0.0090011	0.00087087	1016.8	2.8191e-05	3.5943e-05	1112.6	361.13	2.939e-05	3.4584e-05	499.22	193.84	141.19	53.436	3.153e-05	81.7	36.810	209.267	25.447	-72.651	64.219	112.208	-73.586	-66.967	69.552	101.275	-68.432	-63.859	-62.076	-57.023	63.097	-59.955	-8191	255	
33107.469	1	1	0	0	0.30634	0.23	0.093765	0.19833	0.12337	0.038562	0.18941	0.055403	0.035	0.16526	0.15323	0.16028	0.27942	0.13232	0.088955	0.23612	-3.8937	-4.5542	-4.5604	-4.2583	-4.7854	-4.4229	-4.4667	-4.8792	-4.2812	-4.6229	-4.5646	-4.25	-4.7021	-4.4729	-4.4771	-4.9125	153.665	51.860	53.756	198.475	-68.723	-44.461	230.775	4.746	172.951	171.967	200.275	-73.032	-84.222	159.191	124.003	239.270	0.00084889	0.0015204	0.00028555	1130.5	1.1279e-05	7.5275e-06	1231.4	400.24	1.3641e-05	1.3257e-05	550.76	213.65	152.93	57.842	1.2619e-05	89.249	0.0019327	0.0093619	0.00083698	1016	2.6798e-05	3.5112e-05	1108.9	363.09	2.7963e-05	3.4232e-05	498.26	193.35	141.04	53.226	3.0587e-05	81.574	29.640	162.139	12.117	-72.698	66.320	71.067	-73.176	-66.695	76.730	111.045	-68.337	-64.131	-62.222	-57.480	66.792	-60.000	-8191	255	
33107.566	1	1	0	0	0.067134	0.19299	0.29701	0.13281	0.08047	0.19062	0.20407	0.13248	0.014836	0.21103	0.049588	0.11899	0.20362	0.031189	0.25237	0.21613	-3.7188	-4.5	-4.6208	-4.2208	-4.6417	-4.3896	-4.225	-4.9917	-4.125	-4.4292	-4.75	-4.0958	-4.7229	-4.6396	-4.3146	-4.9646	114.595	-54.091	-44.134	205.518	6.507	261.635	231.308	-76.152	130.104	14.216	221.615	231.255	200.617	-72.828	156.081	197.609	0.00080633	0.00099991	0.0001249	1126.4	6.2931e-06	8.035e-06	1214.7	397.09	1.1064e-05	4.5526e-06	544.84	211.74	151.01	57.583	1.0544e-05	88.4	0.0018969	0.0091239	0.00083823	1012.7	2.8007e-05	3.4415e-05	1096	362.31	2.9099e-05	3.3869e-05	493.72	191.52	140.12	52.828	2.9395e-05	80.729	45.706	156.455	44.523	-72.508	1.350	51.034	-73.363	-66.572	59.466	70.628	-68.456	-64.315	-62.124	-57.587	44.306	-60.142	-8191	255	
33107.660	1	1	0	0	0.15456	0.019298	0.042538	0.063721	0.2249	0.098991	0.046826	0.13688	0.20916	0.22894	0.19781	0.35407	0.40924	0.12922	0.10105	0.18631	-3.875	-4.4479	-4.7125	-4.3313	-4.5021	-4.4896	-4.2458	-4.8063	-4.3438	-4.3187	-4.875	-4.3896	-4.725	-4.7188	-4.2729	-4.9083	171.512	200.780	265.710	132.907	-58.891	-49.101	239.684	180.273	53.581	60.509	184.841	251.073	212.429	221.521	55.377	271.234	0.000783	0.0011433	0.00026643	1118.4	9.1365e-06	7.7139e-06	1215.7	395.58	1.3787e-05	6.643e-06	547.22	210.38	149.85	57.51	8.9878e-06	88.138	0.0018641	0.0078753	0.00091509	1006.2	2.7412e-05	3.3921e-05	1090.9	360.82	2.8328e-05	3.328e-05	494.24	191.32	139.81	52.842	3.0421e-05	80.761	24.524	-49.969	220.631	-72.434	73.338	67.070	-73.558	-66.569	88.444	122.465	-68.398	-64.302	-61.977	-57.160	30.924	-60.005	-8191	255	
33107.758	1	1	0	0	0.09272	0.42114	0.037857	0.1061	0.12715	0.044638	0.39425	0.10653	0.20685	0.13513	0.18694	0.2401	0.2258	0.17579	0.10345	0.1784	-4.1271	-4.3167	-4.7333	-4.3604	-4.8229	-4.6271	-4.3938	-4.7208	-4.4833	-4.3729	-5.0708	-4.2333	-4.4917	-4.975	-4.1729	-4.7271	-18.203	-26.145	49.447	262.090	-30.247	-17.723	180.525	114.338	-69.092	110.694	163.867	211.640	153.411	266.690	-38.825	145.395	0.00082525	0.0011104	0.00015923	1111.1	1.0909e-05	1.2612e-06	1217.8	397.01	8.1215e-06	7.0285e-06	546.91	211.62	152.68	57.558	4.8497e-06	88.379	0.0018658	0.0038548	0.0019588	1004.2	2.7025e-05	3.3216e-05	1093	361.9	2.748e-05	3.3349e-05	494.15	191.62	140.28	52.814	3.0579e-05	80.827	37.743	-45.492	178.835	-72.836	92.491	69.081	-73.555	-66.882	55.517	31.869	-68.070	-64.259	-61.978	-57.509	34.682	-60.275	-8191	255	
33107.879	1	1	0	0	0.10028	0.083054	0.18648	0.3452	0.13284	0.1661	0.19177	0.11261	0.099158	0.19509	0.20266	0.069186	0.2358	0.13167	0.1445	0.0058027	-4.0917	-4.2146	-4.9208	-4.3667	-4.525	-4.6917	-4.2812	-4.8354	-4.2646	-4.275	-5.0708	-4.3625	-4.4354	-4.775	-4.1813	-4.8229	225.934	157.857	9.453	252.219	-19.649	-37.279	252.066	158.364	10.172	270.165	-8.383	-58.179	-18.611	268.461	205.664	-17.665	0.00064236	0.0015009	0.0003694	1124	7.8034e-06	8.3401e-06	1218.3	396.49	1.3436e-05	7.9035e-06	546.69	211.58	152.16	57.671	6.3974e-06	88.166	0.0018148	0.0030384	0.0025934	1007.6	2.6158e-05	3.3606e-05	1095.3	361.52	2.75e-05	3.326e-05	494.92	191.8	139.74	52.875	3.0758e-05	80.688	43.379	-6.925	191.586	-72.604	58.015	54.901	-73.284	-66.653	33.532	54.023	-68.597	-64.173	-62.154	-57.138	77.446	-60.034	-8191	255	
33107.977	1	1	0	0	0.014993	0.068896	0.11382	0.40458	0.061706	0.28266	0.21008	0.28012	0.13179	0.11757	0.13003	0.16502	0.062065	0.20736	0.12825	0.21799	-4.3104	-4.1667	-4.8354	-4.4437	-4.2417	-4.7979	-4.175	-4.6458	-4.5542	-4.1396	-4.8208	-4.4417	-4.3958	-4.7958	-4.2771	-4.7208	163.665	88.484	250.742	235.932	205.687	196.027	232.566	227.128	261.477	205.909	247.672	-27.626	237.799	92.376	-70.108	-84.518	0.00076016	0.00096276	0.00027029	1118.9	5.0659e-06	4.0229e-06	1214.4	394.61	7.9885e-06	9.2349e-06	543.81	209.71	151.06	56.893	5.4967e-06	87.308	0.0018593	0.0029547	0.0025051	1005.4	2.6454e-05	3.4285e-05	1089	360.41	2.6918e-05	3.5163e-05	490.99	190.03	137.16	52.756	2.974e-05	79.993	28.159	13.329	226.868	-72.614	53.904	93.915	-73.391	-66.586	72.901	54.068	-68.452	-64.021	-62.211	-57.417	69.395	-59.792	-8191	255	
33108.047	1	1	0	0	0.23867	0.10956	0.084886	0.08602	0.13174	0.19489	0.29587	0.38142	0.16918	0.19752	0.17764	0.14004	0.068815	0.36495	0.11376	0.14732	-4.3125	-4.1042	-4.7083	-4.4271	-4.1708	-4.7979	-4.2646	-4.6333	-4.7375	-4.2458	-4.7979	-4.5729	-4.3771	-5.0042	-4.2875	-4.4271	111.610	87.072	62.811	230.438	200.053	165.883	174.234	242.429	142.091	-49.109	-45.500	206.338	194.387	-74.236	115.496	167.139	0.00075467	0.00061251	0.00033908	1111.4	1.6411e-05	5.8117e-06	1209.4	395.57	3.4835e-06	7.9966e-06	543.44	209.45	150.8	57.285	6.8354e-06	87.446	0.0018307	0.0029837	0.0025664	1002.1	2.6565e-05	3.4957e-05	1084.9	358.69	2.7152e-05	3.4243e-05	490.38	189.73	137.3	53.122	3.1775e-05	80.013	17.150	0.878	246.077	-72.737	38.733	48.041	-73.630	-66.874	14.709	63.534	-68.515	-64.277	-62.363	-57.315	62.768	-59.852	-8191	255	
33108.145	1	1	0	0	0.1049	0.087355	0.045084	0.17677	0.068856	0.16533	0.16379	0.40357	0.24583	0.32336	0.28404	0.23927	0.22304	0.10993	0.097783	0.10143	-4.3063	-4.0792	-4.6167	-4.5833	-4.2729	-4.9167	-4.5146	-4.4792	-4.6375	-4.1417	-4.7917	-4.7	-4.3167	-4.9083	-4.3646	-4.3542	213.365	127.235	40.460	224.534	8.675	212.391	209.752	209.187	29.014	173.632	-83.445	12.417	250.279	40.921	238.488	239.837	0.00077615	0.0013999	0.00032963	1118.9	1.3534e-05	9.0712e-06	1208.3	397.74	1.0497e-05	6.9804e-06	543.75	210.78	151.13	57.283	7.3687e-06	88.167	0.0018314	0.0031769	0.0025422	1006	2.734e-05	3.6334e-05	1087.3	359.5	3.5399e-05	3.4962e-05	492.82	191.13	137.54	53.059	3.0878e-05	80.636	25.761	-12.258	262.644	-72.639	64.041	49.598	-73.583	-66.675	127.329	56.089	-68.726	-64.350	-62.707	-57.082	64.331	-59.998	-8191	255	
33108.262	1	1	0	0	0.17918	0.14563	0.022959	0.098822	0.1594	0.2246	0.19567	0.11061	0.11354	0.16816	0.11852	0.13841	0.28167	0.12526	0.088383	0.33244	-4.5542	-4.3021	-4.5292	-4.6229	-4.1438	-4.8833	-4.4104	-4.5125	-4.6521	-4.1312	-4.7438	-4.6562	-4.2042	-4.8313	-4.5479	-4.4208	65.062	86.617	-11.896	243.978	60.686	-68.418	170.803	119.168	-1.909	151.310	156.229	245.512	-19.062	109.027	271.771	221.875	0.00088139	0.00090449	0.00033412	1123.3	6.9103e-06	8.9939e-06	1220.4	396.51	1.4892e-05	6.2241e-06	548.17	213.85	151.25	58.064	6.3482e-06	88.563	0.0018481	0.0031513	0.0026147	1008.4	2.6663e-05	3.4676e-05	1097.7	359.2	6.6851e-05	3.4425e-05	497.49	193.08	138.27	53.645	2.9597e-05	81.315	28.522	3.476	209.452	-72.732	48.071	40.615	-73.581	-66.537	65.788	41.859	-68.613	-64.211	-62.107	-57.394	17.254	-60.161	-8191	255	
33108.359	1	1	0	0	0.12342	0.086049	0.049263	0.24262	0.1193	0.084754	0.088442	0.23162	0.10031	0.26054	0.2544	0.036903	0.23668	0.2062	0.162	0.39436	-4.425	-4.2917	-4.5062	-4.7937	-4.2	-4.7229	-4.7979	-4.3646	-4.7229	-4.2979	-4.4958	-4.8688	-4.3292	-4.7229	-4.6021	-4.3021	150.957	214.118	149.331	232.540	192.676	-43.924	127.011	214.667	59.253	259.402	-64.809	231.338	154.808	260.473	-0.557	191.795	0.00068777	0.00080582	0.00037825	1130.5	6.0664e-06	6.2574e-06	1220.7	399.55	4.0489e-05	6.9139e-06	545.1	211.11	152.58	57.741	6.3704e-06	88.687	0.0019018	0.003125	0.0025388	1015.4	2.7048e-05	3.4797e-05	1098.7	360.12	8.1205e-05	3.405e-05	494.07	191.95	138.58	53.631	2.9239e-05	80.806	28.609	8.117	-69.521	-72.700	21.333	93.353	-73.381	-66.706	64.165	105.982	-68.175	-64.160	-62.481	-56.981	66.761	-60.028	-8191	255	
33108.453	1	1	0	0	0.11103	0.11274	0.11909	0.16753	0.072171	0.19372	0.14478	0.43111	0.071217	0.17818	0.17462	0.066035	0.22742	0.1887	0.10344	0.184	-4.4167	-4.2458	-4.2688	-4.8229	-4.2604	-4.6646	-4.6292	-4.3729	-4.775	-4.2646	-4.6687	-4.7583	-4.2521	-4.6833	-4.5792	-4.1708	233.543	159.519	97.495	250.556	47.320	-79.364	252.079	187.166	120.382	254.906	255.622	24.487	173.634	223.234	153.373	209.187	0.00085223	0.0010335	0.00033216	1121.6	4.2533e-06	8.7182e-06	1215	396.9	3.1981e-05	8.3583e-06	546.13	211.35	150.97	57.458	6.7471e-06	87.663	0.0019384	0.0030699	0.0019627	1011.1	2.7827e-05	3.5103e-05	1092.8	358.8	7.9579e-05	3.4873e-05	494.32	191.23	138.08	53.294	3.0569e-05	80.355	38.766	-3.175	-24.458	-72.645	91.774	82.897	-73.330	-66.590	84.148	76.329	-68.234	-64.062	-61.783	-57.357	55.364	-60.139	-8191	255	
33108.574	1	1	0	0	0.19669	0.1804	0.099739	0.47878	0.13986	0.10419	0.4027	0.18549	0.2829	0.12917	0.14603	0.086335	0.14896	0.22379	0.21767	0.012547	-4.4021	-4.4083	-4.2688	-4.8854	-4.2812	-4.5979	-4.9958	-4.2312	-4.6438	-4.4396	-4.3104	-4.9354	-4.3333	-4.5437	-4.7375	-4.1958	218.476	250.993	205.076	270.836	156.959	242.523	208.262	-66.925	260.328	3.260	242.875	158.780	-63.239	264.971	-36.373	-73.049	0.00088289	0.0003704	0.00037204	1127.2	9.2986e-06	6.7066e-06	1212.5	399.41	3.9669e-05	6.5935e-06	546.81	211.91	152.45	57.918	5.4357e-06	88.475	0.001945	0.0030397	0.00088271	1018	2.7012e-05	3.4623e-05	1093.6	361.12	8.3405e-05	3.3589e-05	496.59	192.28	138.98	53.651	2.9356e-05	81.067	34.573	-38.272	-30.522	-72.854	24.182	108.521	-73.355	-66.591	95.558	85.298	-68.453	-63.990	-62.232	-57.370	54.969	-60.003	-8191	255	
33108.645	1	1	0	0	0.26207	0.19665	0.14064	0.23014	0.053602	0.18814	0.15569	0.043934	0.22495	0.058805	0.24314	0.068165	0.12237	0.13265	0.069078	0.16019	-4.4021	-4.5021	-4.2792	-4.9792	-4.3125	-4.5729	-4.7937	-4.3021	-4.5792	-4.6792	-4.3417	-4.8688	-4.3875	-4.4708	-4.8688	-4.225	-1.276	-27.507	164.600	187.843	139.902	187.602	202.337	88.139	8.523	177.400	190.827	120.415	136.650	-34.221	210.831	268.867	0.00076557	0.00078503	0.00014491	1123.7	5.2772e-06	8.8801e-06	1226.6	402.28	3.9565e-05	1.8097e-06	552.74	214.55	154.66	58.6	2.018e-05	89.571	0.0019053	0.0029081	0.00082048	1023.3	2.6059e-05	3.5397e-05	1104.3	363.3	7.9624e-05	3.3521e-05	499.57	194.09	140.31	53.962	4.2524e-05	82.027	39.139	-18.076	-22.620	-72.781	87.733	63.661	-73.662	-66.627	78.317	53.352	-68.472	-64.367	-62.387	-57.045	200.990	-59.919	-8191	255	
33108.742	1	1	0	0	0.088648	0.079894	0.13336	0.37213	0.075307	0.077451	0.06494	0.1231	0.10877	0.22798	0.2219	0.047284	0.27153	0.2723	0.12673	0.13575	-4.3229	-4.7417	-4.2042	-4.9333	-4.3313	-4.3812	-4.9375	-4.3958	-4.7937	-4.5896	-4.4458	-4.975	-4.2917	-4.3271	-4.7604	-4.2521	39.052	67.908	87.758	244.994	210.751	261.604	-38.209	70.174	250.372	193.371	50.492	-11.274	178.467	240.977	-30.574	172.732	0.00080253	0.00075619	0.00030927	1134.1	9.5095e-06	5.4209e-06	1232.3	405.16	3.7631e-05	6.2966e-06	554.36	214.7	153.39	58.463	1.8149e-05	89.16	0.0018292	0.0028985	0.00085204	1031.5	2.6886e-05	3.3838e-05	1107.9	365.34	8.1159e-05	3.2429e-05	500.68	194.42	139.62	53.532	7.931e-05	81.441	33.692	-0.441	-10.597	-72.737	41.098	86.516	-73.599	-66.696	95.875	111.188	-68.975	-64.182	-62.122	-57.209	206.072	-60.183	-8191	255	
33108.840	1	1	0	0	0.062894	0.064699	0.12124	0.23952	0.06215	0.11868	0.2474	0.096301	0.17338	0.089933	0.2315	0.1102	0.16345	0.13587	0.097264	0.28394	-4.1125	-4.7625	-4.1062	-4.85	-4.5938	-4.3167	-4.8542	-4.5625	-4.5229	-4.7083	-4.2771	-4.6833	-4.5229	-4.1854	-4.6562	-4.2958	-16.364	108.143	264.983	213.898	155.333	-20.195	197.793	132.166	-20.254	-71.758	196.666	85.144	67.795	229.293	196.122	209.922	0.00074755	0.00065485	0.00018045	1137.3	1.2132e-05	1.4755e-05	1229.4	399.69	3.1483e-05	5.1657e-06	549.42	213.17	152.46	58.086	1.9618e-05	88.646	0.0018609	0.0030492	0.00085125	1029.3	2.6285e-05	3.5065e-05	1101	362.16	7.8835e-05	3.423e-05	497.14	193.12	139.06	53.263	9.1772e-05	81.124	50.873	27.055	62.487	-73.080	37.118	62.456	-73.652	-66.627	81.159	31.436	-68.479	-64.454	-62.435	-57.632	198.420	-60.347	-8191	255	
33108.961	1	1	0	0	0.16184	0.039475	0.25191	0.32242	0.29308	0.17788	0.31659	0.27722	0.094015	0.045689	0.28704	0.091419	0.22292	0.21034	0.081757	0.33761	-4.1604	-4.4667	-4.1896	-4.7021	-4.6104	-4.3167	-4.9688	-4.4917	-4.2188	-4.7438	-4.3208	-4.7771	-4.775	-4.1625	-4.7208	-4.3917	144.635	172.498	270.525	242.001	12.543	11.208	253.921	-49.452	96.430	150.904	221.189	161.704	-74.878	220.592	-2.671	208.407	0.0008377	0.0010115	0.00024898	1130	6.7986e-06	8.3555e-06	1218.8	399.04	3.8695e-05	1.1859e-05	549.17	214.08	152.35	58.062	1.8549e-05	88.904	0.001854	0.0030482	0.00088704	1025.6	2.5723e-05	3.4615e-05	1095.3	361.13	5.7376e-05	5.4405e-05	497.35	193.41	139	53.368	8.8075e-05	81.361	38.148	21.882	7.593	-72.851	76.439	89.388	-73.829	-66.431	60.192	144.076	-68.733	-64.230	-62.338	-57.652	230.160	-60.017	-8191	255	
33109.055	1	1	0	0	0.18619	0.14507	0.16101	0.2222	0.16797	0.06498	0.20389	0.098823	0.29672	0.15217	0.081857	0.21797	0.23503	0.23005	0.1212	0.24749	-3.8375	-4.8187	-4.0729	-4.7729	-4.5312	-4.3521	-4.9812	-4.4021	-4.3542	-4.7688	-4.4333	-4.7146	-4.6021	-4.2083	-4.8646	-4.4396	52.989	138.970	180.011	246.641	204.948	-63.079	208.729	32.297	57.837	114.120	229.003	256.711	245.601	253.315	-1.071	174.582	0.00091506	0.0010895	0.0001062	1123.4	1.1295e-05	1.5926e-05	1220.4	398.1	1.3358e-05	2.202e-05	552.29	212.49	154.02	58.007	1.4724e-05	89.051	0.0018341	0.0029829	0.00084643	1023.5	2.6113e-05	3.4841e-05	1101	361.37	2.7896e-05	9.623e-05	499.36	193.38	139.72	53.194	9.0789e-05	81.456	33.782	10.152	-1.085	-72.576	80.127	64.519	-73.327	-66.625	51.323	147.990	-68.460	-64.052	-62.634	-57.134	235.386	-59.954	-8191	255	
33109.152	1	1	0	0	0.092929	0.038838	0.21736	0.045991	0.23183	0.086954	0.17939	0.18213	0.20899	0.27187	0.060794	0.15367	0.085677	0.18635	0.15353	0.13096	-3.9729	-4.8021	-4.2458	-4.5729	-4.8063	-4.2812	-5.0083	-4.675	-4.2875	-4.8313	-4.4875	-4.5542	-4.8562	-4.3562	-4.6562	-4.6813	74.340	-40.556	261.720	137.927	107.814	40.831	166.583	209.361	89.007	210.983	64.773	252.668	254.542	264.381	95.991	121.733	0.00084469	0.00083147	0.00010718	1136.5	8.7178e-06	1.1058e-05	1224.5	399.86	8.9196e-06	1.7707e-05	548.23	212.05	152.59	57.654	1.191e-05	88.337	0.0018888	0.0031095	0.00090663	1028.3	2.7792e-05	3.5716e-05	1107.6	361.7	2.8412e-05	0.00010764	497.45	192.67	138.84	53.047	8.9527e-05	80.885	38.325	-29.428	53.555	-72.677	41.076	61.846	-73.303	-66.529	83.687	134.955	-68.463	-64.269	-62.409	-57.198	256.857	-60.055	-8191	255	
33109.270	1	1	0	0	0.080196	0.28355	0.076576	0.2328	0.17444	0.054451	0.17939	0.16516	0.081918	0.069611	0.14304	0.10764	0.10927	0.10983	0.12069	0.16756	-3.9396	-4.8333	-4.4104	-4.4604	-4.8438	-4.1979	-4.6104	-4.6104	-4.1562	-4.775	-4.5229	-4.5437	-4.9167	-4.3521	-4.7	-4.7042	-65.069	267.286	24.229	-21.327	74.238	-37.610	114.261	-78.960	135.811	117.427	153.866	38.300	240.580	205.502	248.273	165.515	0.0007122	0.00048306	5.6593e-05	1128.1	7.025e-06	1.1819e-05	1216.4	399.83	1.4642e-05	3.395e-05	545.13	210.88	152.27	57.669	9.5486e-06	87.775	0.0019325	0.0031569	0.0008525	1019.1	4.4903e-05	3.6961e-05	1094.9	359.55	2.9176e-05	0.00010327	494.08	191.38	138.18	52.974	9.2742e-05	80.707	29.027	-1.777	-13.667	-72.443	72.651	64.198	-73.411	-66.850	36.013	107.868	-68.473	-64.099	-62.347	-57.544	243.281	-60.343	-8191	255	
33109.344	1	1	0	0	0.15311	0.27318	0.064949	0.17596	0.13695	0.0015546	0.22333	0.23029	0.051149	0.10591	0.29829	0.040288	0.047718	0.23573	0.12506	0.13667	-3.7729	-4.7292	-4.4042	-4.4333	-4.8438	-4.3521	-4.7375	-4.6896	-3.9854	-4.75	-4.6375	-4.4604	-4.7646	-4.3729	-4.4771	-4.8146	138.011	19.663	217.430	265.842	114.954	180.000	238.908	-58.454	90.532	-58.954	221.248	239.623	166.584	245.088	105.827	241.976	0.00073802	0.00060309	0.0002388	1116.4	7.7731e-06	8.0097e-06	1227.7	397.86	6.8379e-06	3.1042e-05	548.38	210.52	151.73	57.951	1.328e-05	88.377	0.0019341	0.0031307	0.00086477	1009.3	7.6744e-05	3.6361e-05	1097.9	358.98	2.8167e-05	0.00010699	494.68	191.93	138.58	53.037	9.0209e-05	81.072	29.638	-22.544	42.296	-72.570	7.696	80.172	-73.522	-66.650	31.245	106.167	-68.451	-64.201	-62.516	-57.170	209.852	-60.106	-8191	255	
33109.438	1	1	0	0	0.10438	0.12626	0.24628	0.26283	0.15346	0.20293	0.28508	0.080259	0.077378	0.17007	0.19214	0.12646	0.20386	0.089375	0.15066	0.31878	-3.7521	-4.7333	-4.6708	-4.4125	-4.5667	-4.2312	-4.5667	-4.8542	-4.1979	-4.55	-4.6521	-4.2854	-4.8271	-4.5208	-4.4437	-5.0146	6.102	95.334	225.357	211.941	37.816	163.764	-77.637	36.320	74.499	-10.667	217.049	265.751	218.825	202.543	152.754	158.277	0.00082112	0.00056531	0.00023715	1126.2	3.6941e-05	7.2161e-06	1226.6	398.35	4.839e-06	1.9885e-05	552.46	214.15	152.57	58.058	7.6753e-06	89.134	0.0019138	0.0030793	0.00084102	1014.1	8.0798e-05	3.4697e-05	1101.5	360.29	2.8521e-05	0.00010521	498.71	193.35	139.02	53.285	6.0394e-05	81.973	36.974	5.665	19.180	-72.560	-1.549	47.893	-73.476	-66.597	22.294	113.598	-68.727	-64.194	-62.239	-57.204	-0.902	-60.223	-8191	255	
33109.559	1	1	0	0	0.19608	0.11114	0.027231	0.12779	0.28398	0.2285	0.11737	0.28476	0.19701	0.15231	0.15862	0.32162	0.093501	0.39654	0.14469	0.28497	-3.9958	-4.5458	-4.4708	-4.3354	-4.7354	-4.4458	-4.5604	-5.0042	-4.1771	-4.5292	-4.7896	-4.1854	-4.7812	-4.5458	-4.3167	-4.9542	47.265	244.375	-49.360	216.931	238.173	76.282	177.377	236.963	-7.586	239.137	221.972	-75.954	154.519	247.016	-14.118	262.441	0.00081354	0.00045047	0.00017147	1130.1	3.1694e-05	6.3681e-06	1238.1	397.51	1.2123e-05	1.8594e-05	550.93	212.2	152.76	57.702	5.7739e-06	88.253	0.0018787	0.0031313	0.00085479	1018.3	7.9775e-05	3.5068e-05	1109.2	360.31	2.8319e-05	0.00010924	498.16	192.49	138.88	53.066	2.9993e-05	81.856	30.409	-10.731	25.027	-72.766	11.417	76.954	-73.275	-66.451	57.998	128.444	-68.417	-64.190	-62.262	-57.397	35.170	-59.908	-8191	255	
33109.656	1	1	0	0	0.18819	0.21025	0.18708	0.14361	0.14228	0.20487	0.25913	0.24961	0.12409	0.038199	0.083352	0.11809	0.20871	0.25993	0.11629	0.16407	-3.8979	-4.5771	-4.8187	-4.2292	-4.5667	-4.5437	-4.3646	-5.0604	-4.2375	-4.525	-4.8042	-4.2958	-4.6542	-4.5312	-4.1979	-4.8063	105.287	31.007	28.730	213.924	179.285	36.378	220.428	268.712	50.315	221.347	274.963	170.245	-2.560	205.357	186.686	248.351	0.00075071	0.00067282	0.0003298	1126.5	3.2865e-05	7.4574e-06	1225.4	397.57	8.0479e-06	2.0193e-05	549.15	211.41	150.9	57.687	1.0328e-05	87.879	0.0018679	0.0030782	0.00088747	1013.6	8.3875e-05	3.4421e-05	1098.7	359.52	2.819e-05	0.00010517	495.35	191.76	137.99	52.913	3.1851e-05	81.487	47.636	29.473	-36.144	-72.507	21.478	116.426	-73.602	-66.538	40.066	127.675	-68.498	-64.107	-62.624	-57.390	74.341	-60.149	-8191	255	
33109.750	1	1	0	0	0.20574	0.12811	0.15181	0.29468	0.23459	0.078334	0.18907	0.22503	0.21808	0.09861	0.27011	0.32053	0.21399	0.19645	0.15727	0.10783	-3.95	-4.3479	-4.6583	-4.3542	-4.6208	-4.4729	-4.2583	-4.9208	-4.3729	-4.3812	-4.9396	-4.2646	-4.7354	-4.7688	-4.3146	-4.8979	175.535	241.267	-22.171	199.235	263.264	205.751	263.201	172.898	-60.083	119.734	247.369	246.337	273.659	229.597	184.170	202.729	0.0007978	0.0011667	0.00025642	1127.6	3.9436e-05	7.965e-06	1212.5	396.62	1.3438e-05	2.3507e-05	544.52	211.97	151.24	58.104	5.6279e-06	88.168	0.0019026	0.0030933	0.0009018	1010	7.9974e-05	3.4295e-05	1092.8	359.12	2.8116e-05	6.7229e-05	495.73	191.93	137.9	53.046	3.0818e-05	81.689	34.363	30.369	50.950	-72.395	40.477	51.061	-73.589	-66.681	47.216	84.447	-68.789	-64.135	-62.262	-57.080	31.720	-59.778	-8191	255	
33109.848	1	1	0	0	0.043895	0.12856	0.23137	0.21416	0.068749	0.11412	0.32055	0.22134	0.0093448	0.10605	0.16529	0.09297	0.18804	0.25858	0.13622	0.16136	-4.1208	-4.4062	-4.6792	-4.3063	-4.5188	-4.7396	-4.3063	-4.7417	-4.3979	-4.3458	-4.8583	-4.45	-4.7083	-4.6979	-4.0542	-4.9042	25.968	-78.234	60.150	208.084	237.577	61.194	249.828	224.030	219.992	113.276	272.231	233.908	236.852	253.248	-58.121	222.606	0.00077703	0.00084487	0.00029024	1125.3	3.3685e-05	2.4442e-06	1225.6	397.68	5.8859e-06	8.8405e-06	552.05	212.46	152.04	58.601	8.7967e-06	89.404	0.0018971	0.0031028	0.00089012	1009.9	8.1399e-05	3.4983e-05	1101.2	360.26	2.6817e-05	3.5639e-05	502.54	192.9	138.85	53.479	3.1714e-05	82.472	29.600	-9.791	16.602	-72.623	27.285	83.830	-73.334	-66.541	52.108	80.746	-68.479	-64.158	-62.403	-57.144	101.780	-60.394	-8191	255	
33109.941	1	1	0	0	0.1762	0.028386	0.12888	0.44329	0.20549	0.068762	0.24986	0.20246	0.064451	0.30393	0.15148	0.1247	0.22491	0.2751	0.1407	0.26904	-4.0208	-4.3833	-4.8438	-4.5854	-4.3375	-4.7833	-4.2625	-4.7812	-4.3167	-4.3396	-4.7896	-4.3771	-4.4938	-4.6021	-4.1396	-4.8292	17.083	208.703	74.873	257.255	165.947	222.179	184.837	118.920	-56.480	194.031	-81.442	228.747	254.390	-46.797	20.912	269.853	0.00078689	0.0011715	0.0001759	1125.3	3.8602e-05	8.3909e-06	1237.1	398.85	1.68e-05	8.1463e-06	551.6	214.33	152.74	58.244	5.6933e-06	89.068	0.0018803	0.0029223	0.0008626	1014.7	7.9275e-05	3.5154e-05	1110.8	361.4	2.75e-05	3.4923e-05	505.39	194.01	139.43	53.384	3.1253e-05	82.618	27.719	11.381	8.631	-72.601	41.382	54.108	-73.125	-66.667	62.043	70.425	-68.598	-64.052	-62.678	-57.271	86.372	-59.750	-8191	255	
33110.039	1	1	0	0	0.22351	0.24763	0.16006	0.11078	0.34718	0.26876	0.05862	0.21091	0.018142	0.15162	0.18778	0.1567	0.16282	0.14908	0.15314	0.08232	-4.1146	-4.1687	-4.8333	-4.4583	-4.3583	-4.6562	-4.3625	-4.6896	-4.5042	-4.175	-4.7542	-4.5958	-4.3521	-4.9708	-4.1792	-4.8125	-26.739	191.815	114.855	204.636	222.735	137.273	191.635	250.921	156.550	207.386	228.489	-82.603	17.463	13.509	-36.851	-3.791	0.00071524	0.0004635	0.00020411	1135.3	3.3215e-05	1.5618e-05	1227.1	397.41	5.2331e-06	9.035e-06	548.33	211.87	153.61	58.012	8.1633e-06	88.757	0.0018925	0.003236	0.00088602	1014	4.8697e-05	6.8574e-05	1101.7	360.86	2.8015e-05	3.585e-05	500.88	192.8	139.64	53.315	3.2554e-05	82.072	40.370	-3.495	9.231	-72.450	17.827	122.897	-73.456	-66.698	102.981	66.298	-68.403	-64.063	-62.007	-57.184	55.013	-60.151	-8191	255	
33110.137	1	1	0	0	0.18594	0.32338	0.023156	0.072304	0.16506	0.11266	0.1081	0.1846	0.26882	0.18905	0.054246	0.13407	0.31104	0.0788	0.091202	0.13404	-4.2688	-4.2208	-4.65	-4.5854	-4.3833	-4.8854	-4.5271	-4.6729	-4.8021	-4.2438	-4.8354	-4.6083	-4.2208	-5.0437	-4.4688	-4.6583	229.221	86.068	23.114	-82.400	270.120	154.103	222.707	183.272	-44.809	155.415	-53.552	-1.477	174.622	64.312	252.803	-16.644	0.00077649	0.00033998	0.00019352	1119.1	5.8799e-06	2.5423e-05	1220	400.49	9.2171e-06	4.4835e-06	548.56	211.86	152.99	58.304	5.526e-06	89.272	0.0019517	0.0031218	0.00084361	1010.5	2.6856e-05	0.00010469	1096.4	360.91	2.8268e-05	3.5669e-05	501.08	192.71	139.2	53.482	3.0483e-05	82.374	24.245	32.929	-27.259	-72.584	33.234	35.232	-73.594	-66.625	28.701	29.073	-68.419	-63.860	-62.108	-57.205	50.122	-59.781	-8191	255	
33110.230	1	1	0	0	0.095661	0.10327	0.23137	0.161	0.043417	0.24113	0.2028	0.34438	0.23588	0.20997	0.029533	0.16701	0.46796	0.16739	0.16426	0.08609	-4.3625	-4.1521	-4.6458	-4.4729	-4.1479	-4.6979	-4.4583	-4.6125	-4.6521	-4.125	-4.65	-4.6813	-4.3354	-4.8333	-4.2854	-4.5854	219.185	87.519	150.910	46.804	0.535	19.531	248.229	215.920	243.417	140.050	228.911	238.684	250.963	-63.674	-56.912	199.899	0.00084437	0.00078929	0.00032326	1126.5	1.3241e-05	2.5155e-05	1218.4	402.33	1.4234e-05	9.5074e-06	553.95	212.8	152.23	58.453	8.0025e-06	88.991	0.0018657	0.0031569	0.00085509	1013.3	2.6605e-05	0.00010776	1099.3	362.54	2.8597e-05	3.495e-05	502.78	193.3	139.42	53.483	2.9482e-05	82.015	31.566	-9.637	10.258	-72.696	42.910	64.172	-73.470	-66.661	53.881	70.567	-68.412	-64.313	-62.398	-57.164	32.910	-60.178	-8191	255	
33110.352	1	1	0	0	0.12958	0.14833	0.20848	0.39771	0.078055	0.10717	0.14877	0.18241	0.144	0.070983	0.037724	0.071108	0.066958	0.21053	0.1841	0.27112	-4.3083	-4.2125	-4.6771	-4.575	-4.1958	-4.7875	-4.5167	-4.4958	-4.6458	-4.1104	-4.6417	-4.6562	-4.1146	-4.7333	-4.4229	-4.4354	-71.267	-64.588	99.500	257.487	66.880	60.281	-66.184	214.269	147.042	259.797	153.163	133.655	236.222	244.107	230.129	242.476	0.0013944	0.0013296	0.00026806	1132.6	9.4104e-06	2.4381e-05	1230.4	400.89	7.7838e-06	5.6465e-06	550.39	213.68	154.16	58.667	5.5782e-06	89.49	0.00338	0.0030462	0.00085952	1016.8	2.6611e-05	0.00010293	1105.5	361.98	2.7295e-05	3.5477e-05	504.63	193.91	139.9	53.61	3.0274e-05	81.916	41.603	-13.615	-5.546	-72.617	29.650	49.923	-73.321	-66.504	68.390	63.292	-68.325	-64.197	-62.581	-57.215	68.276	-60.399	-8191	255	
33110.445	1	1	0	0	0.12903	0.3443	0.11466	0.30886	0.041199	0.18178	0.35685	0.40857	0.16794	0.29847	0.18451	0.17014	0.25166	0.11006	0.21805	0.12531	-4.525	-4.2375	-4.4708	-4.7896	-4.1833	-4.8396	-4.6042	-4.3771	-4.7896	-4.3438	-4.5896	-4.8	-4.2625	-4.7417	-4.5625	-4.3021	132.308	-14.997	153.095	173.074	41.156	179.932	192.965	264.278	42.344	-5.628	184.317	210.397	251.603	227.824	136.772	-20.056	0.0011392	0.0011794	0.00024181	1133.4	1.9363e-06	2.4232e-05	1215.1	399.89	7.6463e-06	1.0233e-05	547.62	213.34	152.18	58.158	8.5493e-06	88.516	0.0047669	0.0030843	0.00085365	1019.9	2.7495e-05	0.00010686	1097.5	361.65	2.8167e-05	3.4923e-05	500.57	192.65	138.69	53.278	3.0193e-05	81.041	67.047	-7.416	14.465	-72.484	-0.736	68.738	-73.539	-66.455	59.907	82.800	-68.432	-63.925	-62.597	-57.183	45.005	-59.880	-8191	255	
#DATA ENDS
