BOXY.EXE: ISS Imagent and Oximeter Data Acquisition Program Version 0.80
Ascii Record File

#ACQ INFORMATION
2  Detector Channels 
16  External MUX Channels 
1  Auxiliary Channels 
5000  Waveform (CCF) Frequency (Hz)
1  Waveforms Skipped 
30  Waveforms Averaged 
1  Cycles Averaged 
16  Acquisitions per Waveform 
10.0806  Updata Rate (Hz) 

#FILE INFORMATION
TRUE -- External MUX Channel results are PARSED.
FALSE -- AC DC and Phase are NOT grouped.
TRUE -- Companion Program Settings File CREATED.
FALSE -- AC data not excluded
FALSE -- DC data not excluded
FALSE -- Phase data not excluded
FALSE -- Auxillary Chn. data not excluded
Tab delimiters

#CALIBRATION STATE
TRUE -- Waveform Calibration Values APPLIED.


#AUX CALIBRATION VALUES
Val Type	aux-1	

Term	1.0000e+00	
Factor	0.0000e+00	


#WF CALIBRATION VALUES
A = Detector Channel
Val Type	A-AC1	A-AC2	A-AC3	A-AC4	A-AC5	A-AC6	A-AC7	A-AC8	A-AC9	A-AC10	A-AC11	A-AC12	A-AC13	A-AC14	A-AC15	A-AC16	A-DC1	A-DC2	A-DC3	A-DC4	A-DC5	A-DC6	A-DC7	A-DC8	A-DC9	A-DC10	A-DC11	A-DC12	A-DC13	A-DC14	A-DC15	A-DC16	A-Ph1	A-Ph2	A-Ph3	A-Ph4	A-Ph5	A-Ph6	A-Ph7	A-Ph8	A-Ph9	A-Ph10	A-Ph11	A-Ph12	A-Ph13	A-Ph14	A-Ph15	A-Ph16	

Term	0.00000e+00	0.00000e+00	0.00000e+00	0.00000e+00	0.00000e+00	0.00000e+00	0.00000e+00	0.00000e+00	0.00000e+00	0.00000e+00	0.00000e+00	0.00000e+00	0.00000e+00	0.00000e+00	0.00000e+00	0.00000e+00	0.00000e+00	0.00000e+00	0.00000e+00	0.00000e+00	0.00000e+00	0.00000e+00	0.00000e+00	0.00000e+00	0.00000e+00	0.00000e+00	0.00000e+00	0.00000e+00	0.00000e+00	0.00000e+00	0.00000e+00	0.00000e+00	0.00000e+00	0.00000e+00	0.00000e+00	0.00000e+00	0.00000e+00	0.00000e+00	0.00000e+00	0.00000e+00	0.00000e+00	0.00000e+00	0.00000e+00	0.00000e+00	0.00000e+00	0.00000e+00	0.00000e+00	0.00000e+00	
Factor	1.00000e+00	1.00000e+00	1.00000e+00	1.00000e+00	1.00000e+00	1.00000e+00	1.00000e+00	1.00000e+00	1.00000e+00	1.00000e+00	1.00000e+00	1.00000e+00	1.00000e+00	1.00000e+00	1.00000e+00	1.00000e+00	1.00000e+00	1.00000e+00	1.00000e+00	1.00000e+00	1.00000e+00	1.00000e+00	1.00000e+00	1.00000e+00	1.00000e+00	1.00000e+00	1.00000e+00	1.00000e+00	1.00000e+00	1.00000e+00	1.00000e+00	1.00000e+00	X	X	X	X	X	X	X	X	X	X	X	X	X	X	X	X	

B = Detector Channel
Val Type	B-AC1	B-AC2	B-AC3	B-AC4	B-AC5	B-AC6	B-AC7	B-AC8	B-AC9	B-AC10	B-AC11	B-AC12	B-AC13	B-AC14	B-AC15	B-AC16	B-DC1	B-DC2	B-DC3	B-DC4	B-DC5	B-DC6	B-DC7	B-DC8	B-DC9	B-DC10	B-DC11	B-DC12	B-DC13	B-DC14	B-DC15	B-DC16	B-Ph1	B-Ph2	B-Ph3	B-Ph4	B-Ph5	B-Ph6	B-Ph7	B-Ph8	B-Ph9	B-Ph10	B-Ph11	B-Ph12	B-Ph13	B-Ph14	B-Ph15	B-Ph16	

Term	0.00000e+00	0.00000e+00	0.00000e+00	0.00000e+00	0.00000e+00	0.00000e+00	0.00000e+00	0.00000e+00	0.00000e+00	0.00000e+00	0.00000e+00	0.00000e+00	0.00000e+00	0.00000e+00	0.00000e+00	0.00000e+00	0.00000e+00	0.00000e+00	0.00000e+00	0.00000e+00	0.00000e+00	0.00000e+00	0.00000e+00	0.00000e+00	0.00000e+00	0.00000e+00	0.00000e+00	0.00000e+00	0.00000e+00	0.00000e+00	0.00000e+00	0.00000e+00	-1.84242e+02	-1.31288e+02	-1.21626e+02	-1.81577e+02	-7.85704e+01	-6.40695e+01	-1.57418e+02	-1.62015e+02	-9.27530e+01	-5.43537e+01	-1.71140e+02	-1.72811e+02	-1.83937e+02	-1.76769e+02	-8.70099e+01	-1.49549e+02	
Factor	3.59974e-05	1.57676e-04	5.33321e-05	1.56162e-01	1.60835e-06	2.14125e-06	1.73087e-01	5.61743e-02	1.99634e-06	1.80400e-06	9.22686e-02	3.72187e-02	3.89265e-02	9.91070e-03	1.84539e-06	1.43689e-02	3.91198e-06	4.30745e-06	1.20086e-06	7.79773e-02	4.62936e-08	4.73652e-08	8.15129e-02	2.80165e-02	4.65171e-08	4.73618e-08	4.47915e-02	1.80050e-02	1.94850e-02	4.98058e-03	4.68586e-08	6.99640e-03	X	X	X	X	X	X	X	X	X	X	X	X	X	X	X	X	



#DISTANCE SETTINGS
A = Detector Channel
A-1	A-2	A-3	A-4	A-5	A-6	A-7	A-8	A-9	A-10	A-11	A-12	A-13	A-14	A-15	A-16	

2.5000e+00	3.0000e+00	2.5000e+00	3.0000e+00	2.0000e+00	3.0000e+00	1.5000e+00	3.0000e+00	3.0000e+00	3.0000e+00	3.0000e+00	3.0000e+00	3.0000e+00	3.0000e+00	1.5000e+00	3.0000e+00	

B = Detector Channel
B-1	B-2	B-3	B-4	B-5	B-6	B-7	B-8	B-9	B-10	B-11	B-12	B-13	B-14	B-15	B-16	

1.0000e+01	1.0000e+01	1.0000e+01	1.4400e+00	1.0000e+01	1.0000e+01	1.5100e+00	1.9400e+00	1.0000e+01	1.0000e+01	1.9900e+00	2.4900e+00	2.4100e+00	2.9000e+00	1.0000e+01	2.9800e+00	




#DATA BEGINS
time	group	step	mark	flag	A-AC1	A-AC2	A-AC3	A-AC4	A-AC5	A-AC6	A-AC7	A-AC8	A-AC9	A-AC10	A-AC11	A-AC12	A-AC13	A-AC14	A-AC15	A-AC16	A-DC1	A-DC2	A-DC3	A-DC4	A-DC5	A-DC6	A-DC7	A-DC8	A-DC9	A-DC10	A-DC11	A-DC12	A-DC13	A-DC14	A-DC15	A-DC16	A-Ph1	A-Ph2	A-Ph3	A-Ph4	A-Ph5	A-Ph6	A-Ph7	A-Ph8	A-Ph9	A-Ph10	A-Ph11	A-Ph12	A-Ph13	A-Ph14	A-Ph15	A-Ph16	B-AC1	B-AC2	B-AC3	B-AC4	B-AC5	B-AC6	B-AC7	B-AC8	B-AC9	B-AC10	B-AC11	B-AC12	B-AC13	B-AC14	B-AC15	B-AC16	B-DC1	B-DC2	B-DC3	B-DC4	B-DC5	B-DC6	B-DC7	B-DC8	B-DC9	B-DC10	B-DC11	B-DC12	B-DC13	B-DC14	B-DC15	B-DC16	B-Ph1	B-Ph2	B-Ph3	B-Ph4	B-Ph5	B-Ph6	B-Ph7	B-Ph8	B-Ph9	B-Ph10	B-Ph11	B-Ph12	B-Ph13	B-Ph14	B-Ph15	B-Ph16	aux-1	digaux	

11347.259	1	1	0	256	0.084317	0.16561	0.13249	0.18858	0.018821	0.04918	0.17768	0.17593	0.077344	0.081141	0.17238	0.20311	0.12764	0.18904	0.078721	0.15238	-4.2375	-4.9479	-4.2229	-4.8146	-4.6813	-4.2354	-5.0917	-4.5792	-4.6542	-4.8417	-4.2167	-4.6646	-4.6833	-4.3042	-4.9437	-4.3708	87.719	281.718	134.724	426.088	394.745	339.905	347.012	412.097	133.207	207.028	404.824	97.265	108.513	146.538	271.282	363.817	0.00054806	0.00038552	0.00010502	1226.3	3.2644e-06	6.0844e-06	1304.7	260.29	3.8583e-06	2.635e-06	321.1	90.187	71.358	20.514	5.8659e-06	28.74	0.00014252	0.00010825	3.1405e-05	1209.7	1.2517e-06	1.2601e-06	1283.5	257.21	1.2861e-06	1.2293e-06	319.12	89.205	70.364	20.683	1.2227e-06	28.929	116.280	163.386	181.749	93.555	214.939	243.820	93.586	100.560	219.030	227.190	100.453	106.584	106.964	113.718	206.924	113.502	-8191	255	
11347.331	1	1	0	0	0.20454	0.043122	0.29202	0.2451	0.15903	0.21561	0.32168	0.23776	0.077998	0.10804	0.20759	0.051399	0.15656	0.18884	0.1281	0.1346	-4.1104	-4.975	-4.3708	-4.6667	-4.725	-4.2	-4.8896	-4.7125	-4.3146	-4.9979	-4.475	-4.6687	-4.7375	-4.3458	-4.7104	-4.6208	139.534	192.772	437.031	409.128	189.747	428.512	386.246	388.790	164.574	404.432	89.621	226.574	148.769	292.916	321.851	172.022	0.00053798	0.00023387	8.3982e-05	1227.9	4.5462e-06	2.5642e-06	1307.2	260.63	4.0765e-06	3.6617e-06	321	89.895	71.764	20.513	3.0697e-06	28.873	0.00014256	0.00011073	3.093e-05	1210.8	1.2833e-06	1.2128e-06	1284.4	257.16	1.2724e-06	1.1859e-06	318.72	89.001	70.562	20.657	1.2211e-06	29.082	117.477	160.287	211.311	93.553	216.720	228.193	93.556	100.436	198.481	199.499	100.239	106.596	107.077	113.519	273.166	113.045	-8191	255	
11347.451	1	1	0	0	0.22185	0.10602	0.066621	0.28742	0.051588	0.10479	0.27897	0.2661	0.05826	0.036117	0.051389	0.037554	0.27104	0.078431	0.10591	0.11948	-4.0708	-4.8292	-4.3042	-4.7	-4.8854	-4.1958	-4.9062	-4.6792	-4.0854	-4.8167	-4.5042	-4.6583	-4.8979	-4.3104	-4.5583	-4.6458	249.981	169.281	376.264	362.837	370.850	209.662	381.276	333.724	195.083	394.229	359.937	368.708	237.877	390.876	259.442	240.254	0.0005634	0.00025087	7.8266e-05	1231.4	4.4707e-06	3.6095e-06	1310	260.38	6.6765e-06	3.8824e-06	320.89	90.018	71.894	20.56	2.6423e-06	28.785	0.00014844	0.00011084	3.0544e-05	1211.5	1.2954e-06	1.2111e-06	1286.8	257.72	1.3161e-06	1.1639e-06	318.87	89.265	70.812	20.702	1.2259e-06	29.002	117.324	166.331	157.344	93.631	226.745	173.235	93.426	100.719	205.147	217.301	100.504	106.521	106.787	113.537	246.524	113.198	-8191	255	
11347.548	1	1	0	0	0.17803	0.21383	0.076871	0.29276	0.074111	0.22828	0.13077	0.2104	0.11018	0.022161	0.28193	0.013559	0.11333	0.15804	0.085147	0.10622	-3.9854	-4.7667	-4.3333	-4.6604	-4.9354	-4.3958	-4.8688	-4.7958	-4.0708	-4.725	-4.6292	-4.3667	-4.9104	-4.3646	-4.6708	-4.8604	378.900	285.172	377.474	403.165	88.324	88.825	363.778	369.303	400.166	235.740	421.755	255.940	95.433	315.905	189.536	432.790	0.00049697	0.00021987	6.4235e-05	1227.3	4.1051e-06	3.5385e-06	1308.8	260.67	3.2078e-06	2.3871e-06	322.71	90.403	71.932	20.601	3.9849e-06	28.95	0.00014428	0.00011176	3.1045e-05	1210.9	1.3431e-06	1.2553e-06	1286.2	257.24	1.3504e-06	1.2367e-06	319.51	89.464	70.674	20.716	1.2899e-06	29.053	117.864	197.654	209.423	93.511	226.506	174.622	93.491	100.700	211.414	199.703	100.404	106.961	107.299	113.737	204.398	113.649	-8191	255	
11347.644	1	1	0	0	0.047861	0.066343	0.21926	0.13106	0.21173	0.30992	0.266	0.08476	0.079924	0.1615	0.11097	0.018836	0.16188	0.15225	0.13467	0.11536	-3.75	-4.7458	-4.4563	-4.675	-4.9292	-4.3375	-4.725	-4.8375	-4.2438	-4.7438	-4.7021	-4.275	-4.975	-4.4938	-4.5333	-4.8	314.559	343.714	83.228	384.491	158.170	133.012	375.845	329.419	372.731	131.109	315.594	143.149	425.537	438.199	356.158	130.525	0.00055357	0.00017987	9.3238e-05	1232.4	3.683e-06	3.6418e-06	1304.2	261.07	3.2525e-06	2.1955e-06	321.85	89.785	71.806	20.481	4.2323e-06	28.648	0.000151	0.00011514	3.181e-05	1212.7	1.3718e-06	1.2834e-06	1285.5	257.71	1.3315e-06	1.2845e-06	318.94	89.139	70.769	20.653	1.3175e-06	29.044	112.747	192.240	150.399	93.563	220.512	262.660	93.353	100.512	214.124	253.616	100.517	106.515	107.095	113.780	210.578	113.215	-8191	255	
11347.740	1	1	0	0	0.14056	0.34527	0.069192	0.15605	0.074416	0.060034	0.25842	0.23266	0.062952	0.11652	0.27977	0.15347	0.15982	0.14283	0.07291	0.13488	-3.8646	-4.6521	-4.6521	-4.5208	-4.9229	-4.4479	-4.6708	-4.8271	-4.3562	-4.5625	-4.7479	-4.3771	-4.9167	-4.5271	-4.5229	-4.8396	437.563	232.127	274.859	437.314	424.829	273.796	372.952	385.556	313.304	264.609	346.247	397.777	368.831	200.573	392.065	292.169	0.00051395	0.00025249	0.00010547	1227.8	5.6296e-06	2.6369e-06	1308.2	260.95	4.4503e-06	3.1819e-06	321.82	90.114	71.522	20.627	3.3785e-06	28.856	0.00014829	0.00011719	3.2844e-05	1211.4	1.4334e-06	1.3299e-06	1286.8	257.58	1.3784e-06	1.2923e-06	319.21	89.092	70.484	20.707	1.3312e-06	28.976	115.825	155.802	192.383	93.516	214.727	261.393	93.564	100.677	223.748	222.662	100.368	106.789	107.465	113.546	206.442	113.372	-8191	255	
11347.860	1	1	0	0	0.039355	0.085731	0.074347	0.08462	0.14958	0.25465	0.23754	0.028009	0.11849	0.19698	0.18375	0.2207	0.064832	0.24123	0.030071	0.056813	-3.8083	-4.6833	-4.7125	-4.35	-4.8479	-4.4479	-4.6125	-4.9479	-4.3479	-4.7208	-4.8479	-4.2896	-4.8708	-4.6521	-4.3875	-4.8521	170.816	301.326	231.092	434.659	302.318	162.869	364.928	423.518	133.583	141.928	331.987	365.058	378.911	85.099	164.393	312.049	0.00051428	0.00030949	0.00011756	1224.6	2.9743e-06	4.3763e-06	1305.8	259.27	6.4595e-06	3.2537e-06	322.99	90.179	71.422	20.539	4.5423e-06	28.87	0.0001529	0.00011967	3.2151e-05	1209.2	1.3811e-06	1.2814e-06	1284.6	256.81	1.372e-06	1.297e-06	319.56	89.086	70.583	20.608	1.3101e-06	29.016	115.387	143.450	161.816	93.579	239.949	196.912	93.556	100.857	203.441	258.897	100.497	106.782	107.034	113.848	203.530	113.523	-8191	255	
11347.957	1	1	0	0	0.22529	0.094607	0.24944	0.14981	0.27338	0.068118	0.17693	0.069451	0.13052	0.17809	0.25019	0.16172	0.11719	0.23313	0.13548	0.094294	-3.9771	-4.4958	-4.9	-4.4146	-4.7146	-4.4292	-4.5833	-4.9104	-4.4938	-4.5188	-4.7542	-4.1042	-4.8792	-4.5542	-4.3729	-4.9979	440.703	377.970	253.551	376.002	440.921	104.545	350.229	400.577	277.651	278.632	123.278	352.137	167.271	138.606	287.956	344.861	0.00051712	0.00026915	7.8398e-05	1228.5	4.1356e-06	3.4678e-06	1299.4	260.34	5.3995e-06	1.7623e-06	322.32	89.698	71.269	20.414	3.8153e-06	28.737	0.00014999	0.00011904	3.2183e-05	1209.5	1.3868e-06	1.2638e-06	1282.7	257.19	1.3441e-06	1.2625e-06	319.13	88.962	70.519	20.638	1.3119e-06	28.936	120.505	169.828	144.584	93.831	236.119	281.229	93.483	100.674	228.740	221.921	100.549	106.604	107.080	113.902	227.924	113.654	-8191	255	
11348.028	1	1	0	0	0.094569	0.050328	0.16338	0.049317	0.10131	0.17662	0.37259	0.13394	0.16847	0.022759	0.15472	0.22515	0.081359	0.11188	0.13538	0.16717	-3.8875	-4.4062	-4.8063	-4.5583	-4.7792	-4.7146	-4.5	-4.9979	-4.4688	-4.3417	-4.9833	-4.4688	-4.6167	-4.7708	-4.1833	-4.8625	111.410	417.433	428.218	413.320	190.433	84.384	326.125	364.452	382.822	243.614	391.635	405.277	114.877	300.050	413.501	217.400	0.00054814	0.00028766	9.2389e-05	1230.1	2.7628e-06	2.619e-06	1300.6	260.81	7.5658e-06	2.5726e-06	321.59	89.614	71.589	20.458	4.1931e-06	28.731	0.00014804	0.00011856	3.1758e-05	1209.9	1.3891e-06	1.2506e-06	1283.4	257.17	1.3395e-06	1.2695e-06	318.86	88.789	70.441	20.568	1.3001e-06	28.913	119.579	160.380	174.323	93.524	214.476	226.684	93.445	100.454	229.574	272.858	100.300	106.381	106.984	113.640	207.417	113.081	-8191	255	
11348.149	1	1	0	0	0.10686	0.29534	0.17576	0.16845	0.098326	0.055026	0.3234	0.10193	0.11557	0.19093	0.15644	0.26396	0.11551	0.40535	0.078926	0.20267	-4.0979	-4.2667	-4.7604	-4.5083	-4.5792	-4.8	-4.3729	-4.8917	-4.6667	-4.35	-5.0479	-4.3146	-4.5563	-4.7625	-4.1813	-4.8104	302.808	286.588	202.739	426.572	236.316	393.462	409.097	95.859	251.064	441.878	368.466	403.753	425.822	435.724	225.765	403.654	0.00055962	0.00026142	9.1406e-05	1229.9	4.5842e-06	3.2293e-06	1304.7	260.87	4.2732e-06	1.2766e-06	322.41	89.669	71.919	20.497	3.8689e-06	28.655	0.00015178	0.00011915	3.1415e-05	1209.6	1.3872e-06	1.2217e-06	1282.1	257.47	1.3298e-06	1.2844e-06	318.99	89.016	70.495	20.646	1.3488e-06	28.947	116.856	186.862	167.420	93.646	220.612	223.776	93.631	100.615	210.186	307.084	100.440	106.521	107.510	113.336	203.922	113.650	-8191	255	
11348.243	1	1	0	0	0.14675	0.191	0.11474	0.2872	0.070561	0.22626	0.11097	0.27935	0.05701	0.17516	0.048366	0.096183	0.23856	0.092408	0.031784	0.17494	-4.0958	-4.1625	-4.9667	-4.5938	-4.4479	-4.9	-4.5208	-4.8833	-4.6813	-4.5167	-4.8875	-4.5938	-4.5625	-5.0021	-4.4292	-4.7083	380.372	224.011	91.509	382.818	231.855	257.647	396.991	397.619	162.404	171.764	137.311	279.208	140.663	354.317	274.420	395.130	0.0005644	0.00043071	0.00012378	1227	2.7498e-06	3.4419e-06	1299.3	259.77	4.886e-06	2.9444e-06	322.18	90.005	71.029	20.386	3.1987e-06	28.806	0.00014977	0.00011999	3.3174e-05	1209.4	1.4215e-06	1.2677e-06	1281.6	256.84	1.3621e-06	1.2839e-06	318.43	88.939	70.207	20.584	1.3337e-06	28.981	120.943	183.848	162.542	93.766	204.700	237.151	93.553	100.871	218.110	211.650	100.622	106.623	106.937	113.412	231.442	113.116	-8191	255	
11348.339	1	1	0	0	0.083251	0.10819	0.148	0.41716	0.058919	0.14879	0.13507	0.18831	0.19136	0.072732	0.088754	0.16396	0.063396	0.25823	0.10365	0.21166	-4.3	-4.1937	-4.8646	-4.575	-4.3562	-4.9458	-4.4146	-4.7188	-4.6729	-4.3542	-4.9521	-4.5979	-4.1708	-4.7542	-4.4042	-4.6896	397.673	107.737	261.643	402.980	348.896	425.694	313.473	387.260	294.111	229.636	314.759	387.329	363.595	409.412	181.503	386.847	0.0005354	0.00023554	8.8299e-05	1229.3	4.6432e-06	3.6136e-06	1307.3	260.11	2.9837e-06	3.2071e-06	320.71	89.762	71.466	20.475	4.8341e-06	28.653	0.00014791	0.00011859	3.3154e-05	1209.6	1.3856e-06	1.2637e-06	1282.4	257.07	1.3669e-06	1.3158e-06	318.1	88.736	70.44	20.548	1.3295e-06	28.883	121.596	157.499	171.372	93.540	224.773	268.065	93.477	100.670	199.149	293.513	100.039	106.870	107.457	113.790	204.425	113.284	-8191	255	
11348.436	1	1	0	0	0.017026	0.12725	0.085002	0.11801	0.04039	0.078537	0.17062	0.10942	0.22448	0.055881	0.13545	0.069903	0.048828	0.11425	0.23999	0.17171	-4.4729	-4.2625	-4.7479	-4.8708	-4.3292	-4.9458	-4.7375	-4.6583	-4.6854	-4.3938	-4.7458	-4.6438	-4.3313	-4.85	-4.3042	-4.4583	125.179	209.434	407.549	414.921	428.567	284.425	141.437	389.148	392.960	262.477	298.108	401.956	202.957	88.752	250.022	253.946	0.00052138	0.0004135	0.00014578	1224.6	5.4949e-06	4.7425e-06	1301.5	260.1	5.4358e-06	1.1657e-06	321.62	89.675	71.497	20.359	3.3378e-06	28.746	0.00014763	0.00011487	3.2471e-05	1207.5	1.4094e-06	1.2929e-06	1280.9	257.22	1.3883e-06	1.2918e-06	318.86	88.958	70.442	20.534	1.3311e-06	28.881	111.489	156.067	185.773	93.646	221.555	235.985	93.482	100.732	218.521	247.389	100.333	106.778	107.331	113.514	209.685	113.468	-8191	255	
11348.556	1	1	0	0	0.28197	0.13307	0.081186	0.22777	0.066846	0.19832	0.2287	0.055796	0.073882	0.092048	0.15342	0.095772	0.18452	0.064183	0.071211	0.14649	-4.3771	-4.3354	-4.6875	-4.6979	-4.2375	-5.0167	-4.6167	-4.5813	-4.7875	-4.3208	-4.8146	-4.7917	-4.2771	-4.6562	-4.3979	-4.325	122.211	410.986	199.566	323.675	147.492	245.770	397.087	207.044	284.015	300.425	300.046	224.528	421.195	440.137	388.244	383.867	0.0005728	0.00024502	0.00013221	1224.3	4.1915e-06	2.0708e-06	1303.7	260.02	3.0581e-06	1.9761e-06	321.67	89.718	71.389	20.585	4.7135e-06	28.511	0.00015182	0.00012127	3.2483e-05	1210.3	1.428e-06	1.254e-06	1282.8	257.11	1.3993e-06	1.3112e-06	318.52	88.967	70.418	20.63	1.3377e-06	28.825	116.314	177.479	174.719	93.518	243.824	218.004	93.525	100.788	223.705	243.201	100.278	107.293	107.111	113.995	215.187	113.545	-8191	255	
11348.628	1	1	0	0	0.11323	0.1551	0.17909	0.28818	0.14014	0.18925	0.057709	0.13104	0.12715	0.29257	0.1769	0.13417	0.18925	0.22148	0.30711	0.13252	-4.5396	-4.2771	-4.4667	-4.9458	-4.2771	-4.8896	-4.6458	-4.4646	-4.9521	-4.3854	-4.8167	-4.8729	-4.3583	-4.7271	-4.6458	-4.3187	403.464	93.823	407.057	414.696	222.683	99.206	374.569	422.891	319.915	339.317	361.041	438.541	346.574	216.395	360.182	420.031	0.00054509	0.00037356	9.0644e-05	1232.3	4.5655e-06	4.0251e-06	1302.8	259.76	5.8317e-06	3.3102e-06	322.46	89.97	71.369	20.489	5.3072e-06	28.667	0.00015099	0.0001219	3.2471e-05	1210.2	1.4277e-06	1.2796e-06	1283.7	257.05	1.3857e-06	1.3138e-06	319.14	88.954	70.36	20.607	1.3357e-06	28.876	110.903	161.385	156.773	93.629	205.135	245.176	93.550	100.474	204.663	254.509	100.222	106.890	107.115	113.801	223.070	112.945	-8191	255	
11348.749	1	1	0	0	0.35287	0.059693	0.073595	0.25738	0.28849	0.051862	0.08166	0.02766	0.2804	0.1643	0.21756	0.16377	0.26704	0.13766	0.049555	0.21819	-4.4292	-4.4375	-4.4604	-5.0479	-4.2667	-4.6125	-4.8812	-4.4437	-4.7792	-4.2771	-4.6792	-4.9521	-4.3917	-4.7312	-4.7917	-4.3792	350.787	199.375	325.990	364.783	381.111	429.743	390.349	351.065	93.984	313.468	101.144	135.636	212.749	180.393	224.485	130.114	0.00051397	0.00014089	7.6082e-05	1226.8	4.5059e-06	3.0706e-06	1299	260.37	4.8381e-06	3.6263e-06	321.3	89.654	71.085	20.378	2.7553e-06	28.815	0.00014969	0.00011898	3.3652e-05	1210	1.4297e-06	1.3628e-06	1283	256.75	1.3783e-06	1.3194e-06	318.07	89.075	70.41	20.596	1.3892e-06	28.945	114.734	175.144	203.170	93.585	222.914	256.211	93.496	100.474	215.854	229.932	100.154	106.578	106.904	113.863	204.498	113.187	-8191	255	
11348.845	1	1	0	0	0.092036	0.10996	0.20951	0.17593	0.24726	0.14118	0.25684	0.22073	0.061264	0.14679	0.13425	0.080242	0.16714	0.30306	0.02861	0.10662	-4.5687	-4.4021	-4.4062	-5.0813	-4.4437	-4.5021	-4.8917	-4.4479	-4.7625	-4.4708	-4.4917	-5.0167	-4.5563	-4.6542	-4.875	-4.4833	321.237	167.365	96.870	408.463	377.488	340.238	389.094	425.773	390.375	141.168	399.597	388.503	370.505	353.369	214.205	416.483	0.00054239	0.00032099	0.00011156	1231	4.5504e-06	5.331e-06	1300.5	260.11	3.1773e-06	2.0118e-06	321.59	90.322	71.433	20.631	4.2234e-06	28.68	0.00015652	0.00012475	3.4692e-05	1210.6	1.4642e-06	1.3025e-06	1282.6	257.09	1.4117e-06	1.3531e-06	318.48	89.178	70.509	20.658	1.4038e-06	28.888	113.021	175.978	179.415	93.510	231.777	203.941	93.630	100.717	197.286	257.603	100.110	106.753	107.467	114.108	205.307	112.934	-8191	255	
11348.941	1	1	0	0	0.088751	0.12387	0.087254	0.45281	0.10511	0.079569	0.34087	0.11946	0.17632	0.14906	0.27604	0.082827	0.16766	0.2063	0.11166	0.21814	-4.5479	-4.6521	-4.3458	-5.0396	-4.3688	-4.55	-5.0542	-4.2229	-4.6792	-4.6417	-4.5083	-4.8708	-4.6375	-4.5479	-4.8562	-4.3146	335.911	297.200	407.241	406.668	430.052	425.597	361.349	105.278	198.018	410.725	362.054	314.786	407.037	380.676	394.897	423.170	0.00056727	0.00020595	0.0001749	1231.3	4.2156e-06	3.7629e-06	1300.9	260.08	3.1794e-06	3.7869e-06	322.8	89.839	71.927	20.505	3.9503e-06	28.869	0.00015368	0.00012648	3.442e-05	1210.5	1.4204e-06	1.3598e-06	1283.4	256.86	1.4617e-06	1.3114e-06	318.81	88.894	70.584	20.578	1.3556e-06	28.917	110.745	109.620	174.188	93.696	236.880	261.549	93.363	100.447	245.835	243.830	100.215	106.732	106.910	113.623	226.717	113.287	-8191	255	
11349.037	1	1	0	0	0.22881	0.12249	0.19473	0.066646	0.088914	0.1882	0.25026	0.18249	0.1301	0.059571	0.084852	0.22877	0.21052	0.47667	0.14552	0.13557	-4.5208	-4.7542	-4.2667	-4.9187	-4.5146	-4.4	-5.225	-4.4646	-4.5604	-4.7417	-4.3021	-4.9333	-4.6687	-4.4437	-5.0292	-4.4417	413.901	107.178	421.881	442.193	90.353	115.559	341.441	289.278	327.733	365.551	261.668	256.146	389.433	423.223	333.266	89.961	0.00055333	0.00034341	7.0308e-05	1231.3	2.9147e-06	2.0587e-06	1305	260.26	4.7503e-06	3.0537e-06	321.38	90.139	71.471	20.342	3.1646e-06	28.751	0.00015431	0.00012054	3.4667e-05	1211.6	1.4492e-06	1.3852e-06	1284.9	257.16	1.4331e-06	1.3172e-06	318.99	89.05	70.48	20.589	1.3953e-06	28.974	119.520	154.736	177.384	93.665	225.809	212.863	93.550	100.585	213.098	238.321	100.362	106.388	106.579	113.876	208.343	113.092	-8191	255	
11349.156	1	1	0	0	0.065171	0.14357	0.18404	0.31489	0.17989	0.033149	0.2271	0.10324	0.18757	0.11803	0.16096	0.15562	0.11798	0.070033	0.045729	0.055257	-4.225	-4.7562	-4.2333	-4.75	-4.6354	-4.3458	-5.025	-4.3104	-4.4187	-4.9167	-4.2896	-4.8479	-4.6667	-4.3271	-4.9583	-4.3438	441.220	124.327	372.294	371.786	187.781	376.576	415.001	190.669	311.167	422.504	120.875	349.948	119.823	386.604	406.332	201.275	0.00048865	0.00027016	7.3497e-05	1230.1	1.5998e-06	6.5168e-06	1302.6	259.73	4.0738e-06	5.7483e-06	320.47	90.14	71.207	20.208	3.5742e-06	28.782	0.00015614	0.00012571	3.5103e-05	1212.6	1.4741e-06	1.3627e-06	1283.9	257.04	1.4346e-06	1.3416e-06	318.87	89.008	70.169	20.588	1.3714e-06	28.926	116.513	160.744	183.819	93.440	211.631	244.885	93.265	100.882	206.861	270.113	100.569	106.904	106.957	113.973	224.219	113.078	-8191	255	
11349.228	1	1	0	0	0.097048	0.23902	0.11162	0.10862	0.18873	0.18506	0.18677	0.12869	0.081932	0.029828	0.19272	0.1954	0.0693	0.27534	0.10592	0.19339	-4.1771	-4.8313	-4.3021	-4.8354	-4.5833	-4.2271	-4.9958	-4.4521	-4.4292	-4.8396	-4.3688	-4.7229	-4.7604	-4.3083	-4.7875	-4.5333	136.431	139.425	170.410	83.868	88.972	297.225	383.458	345.309	391.632	258.187	428.275	435.775	150.088	414.667	366.256	404.850	0.00046934	0.00050599	0.00010214	1232.7	5.0758e-06	4.6962e-06	1305.2	259.71	4.7799e-06	4.0534e-06	321.61	89.933	71.591	20.49	3.5829e-06	28.637	0.00015756	0.0001227	3.4174e-05	1213.6	1.4654e-06	1.3971e-06	1286.7	257.29	1.4389e-06	1.3675e-06	318.76	88.919	70.622	20.615	1.3672e-06	28.917	115.665	184.154	179.550	93.573	234.829	225.821	93.668	100.843	183.791	245.649	100.320	106.781	107.295	113.505	225.140	113.163	-8191	255	
11349.324	1	1	0	0	0.042224	0.056165	0.074563	0.1436	0.12783	0.35547	0.35026	0.16238	0.080889	0.018226	0.09821	0.36253	0.17485	0.22609	0.12877	0.15189	-4.1667	-4.9229	-4.4667	-4.8396	-4.5563	-4.1792	-5.0563	-4.6708	-4.5458	-4.95	-4.6687	-4.7083	-4.9875	-4.4583	-4.7521	-4.5396	172.484	336.304	436.299	411.304	314.932	324.665	404.304	330.880	304.218	271.697	434.448	403.919	85.610	382.643	361.289	133.582	0.000494	0.00026827	4.1198e-05	1231.3	4.5926e-06	2.4099e-06	1306.2	260.77	4.3608e-06	1.9476e-06	321.66	89.646	71.192	20.308	1.4114e-06	28.729	0.00015469	0.0001287	3.5493e-05	1214.5	1.5295e-06	1.4238e-06	1287.7	257.92	1.4605e-06	1.3605e-06	319.26	88.862	70.733	20.558	1.4589e-06	28.894	119.668	112.338	159.079	93.462	200.575	266.410	93.340	100.532	205.459	243.460	100.133	106.871	107.221	113.969	258.804	113.277	-8191	255	
11349.420	1	1	0	0	0.13108	0.056795	0.065921	0.071735	0.24512	0.20719	0.24624	0.25787	0.2515	0.099151	0.15939	0.1037	0.16091	0.15113	0.03728	0.0829	-4.225	-4.9042	-4.3333	-4.8063	-4.9667	-4.4958	-4.925	-4.5375	-4.2333	-4.8125	-4.5396	-4.6875	-4.9021	-4.3729	-4.5583	-4.7896	396.300	306.280	166.402	249.284	108.964	315.557	375.641	426.756	95.475	236.348	106.607	238.958	340.472	166.483	420.388	416.455	0.00051667	0.00011288	0.00016627	1231.1	2.5932e-06	3.2189e-06	1310.4	260.61	2.8268e-06	2.5827e-06	322.49	89.965	71.297	20.48	2.8983e-06	28.571	0.00015974	0.00012969	3.5273e-05	1214.2	1.4961e-06	1.4533e-06	1287.8	257.63	1.5201e-06	1.4408e-06	319.13	88.959	70.522	20.598	1.4254e-06	28.86	117.296	145.297	166.764	93.703	264.040	237.744	93.470	100.476	208.771	239.492	100.358	106.839	106.713	113.647	206.364	112.938	-8191	255	
11349.540	1	1	0	0	0.18912	0.16632	0.1422	0.31099	0.15079	0.14011	0.38788	0.23852	0.003549	0.092538	0.29938	0.10122	0.24305	0.10369	0.056551	0.10795	-3.9708	-4.9021	-4.2458	-4.7375	-4.9187	-4.3604	-4.9167	-4.9646	-4.2771	-4.8771	-4.5312	-4.3333	-4.8083	-4.3146	-4.4917	-4.7562	92.975	413.447	291.169	96.846	357.535	402.755	360.507	437.670	421.172	247.471	412.767	430.135	350.197	400.958	118.164	177.287	0.00052761	0.00024088	7.733e-05	1231.9	4.3513e-06	4.0579e-06	1303.9	260.22	6.6855e-06	2.0512e-06	321.43	89.948	71.088	20.31	3.1126e-06	28.629	0.00016167	0.00013532	3.6036e-05	1214.1	1.5599e-06	1.4739e-06	1286	257.67	1.5484e-06	1.4513e-06	318.76	88.849	70.438	20.499	1.4398e-06	28.818	117.805	223.735	226.558	93.440	217.281	244.987	93.341	100.786	202.039	263.308	100.566	106.832	107.071	113.531	219.140	113.275	-8191	255	
11349.637	1	1	0	0	0.033274	0.088803	0.18689	0.18874	0.10896	0.099915	0.21277	0.094169	0.19919	0.02598	0.15399	0.14769	0.1008	0.097592	0.024893	0.11041	-3.975	-4.8667	-4.6167	-4.6104	-4.8854	-4.4521	-4.725	-4.8063	-4.2854	-4.9146	-4.6667	-4.3729	-4.9146	-4.2312	-4.4479	-4.8104	293.223	211.715	364.650	93.621	286.634	169.490	405.616	90.951	298.062	197.296	323.393	376.162	341.270	412.990	390.530	225.542	0.00055745	0.00026592	8.9245e-05	1229.6	3.1747e-06	3.7025e-06	1300.6	258.25	4.3044e-06	2.6383e-06	319.06	89.633	70.864	20.192	1.2375e-06	28.429	0.00016069	0.0001272	3.7014e-05	1209.8	1.4954e-06	1.3906e-06	1283.1	256.27	1.464e-06	1.2944e-06	317.14	88.609	69.982	20.412	1.3197e-06	28.659	117.704	162.876	159.297	93.580	248.947	256.996	93.551	100.654	212.342	221.934	100.297	106.660	107.124	114.182	233.372	113.413	-8191	255	
11349.733	1	1	0	0	0.08113	0.20618	0.30944	0.1386	0.24083	0.20455	0.34394	0.1255	0.1322	0.20508	0.081564	0.31739	0.22592	0.13248	0.091566	0.17138	-3.9313	-4.7104	-4.6479	-4.4854	-4.7396	-4.3833	-4.5833	-4.8438	-4.3458	-4.8146	-4.7792	-4.2396	-4.7417	-4.4896	-4.3229	-5.0271	259.854	411.613	111.853	306.132	268.057	222.549	414.776	354.823	241.809	173.473	339.576	243.823	395.533	128.733	236.153	382.025	0.00047772	5.4851e-05	9.4647e-05	1219.7	5.7825e-06	1.1333e-06	1297	258.78	5.6092e-06	3.4425e-06	320.88	89.287	70.777	20.278	2.4736e-06	28.35	0.00014873	0.00011998	3.2703e-05	1202.9	1.378e-06	1.2965e-06	1278.2	255.49	1.3754e-06	1.3178e-06	316.92	88.209	69.824	20.373	1.3449e-06	28.593	112.808	188.621	229.427	93.646	239.349	177.389	93.516	100.679	220.130	238.898	100.315	106.280	107.208	113.983	222.124	113.277	-8191	255	
11349.829	1	1	0	0	0.10116	0.20167	0.10141	0.2272	0.10065	0.092975	0.15864	0.03737	0.062033	0.099764	0.068009	0.20583	0.072479	0.0212	0.041604	0.12965	-4.1	-4.6208	-4.8417	-4.275	-4.8313	-4.6062	-4.6875	-5.0375	-4.0583	-4.5875	-5.0125	-4.2562	-4.7354	-4.7417	-4.2937	-4.7562	426.123	118.072	361.683	404.125	358.837	304.732	349.734	390.324	145.982	133.324	406.218	217.047	416.613	386.710	425.893	142.941	0.00049826	0.00033233	9.0224e-05	1216.9	5.4898e-06	2.0427e-06	1292.2	256.64	4.1981e-06	2.4396e-06	316.88	88.533	70.495	20.147	3.7531e-06	28.514	0.00015055	0.00011577	3.3206e-05	1201.9	1.4213e-06	1.3343e-06	1274.1	254.55	1.3808e-06	1.2764e-06	314.98	87.888	69.691	20.308	1.3133e-06	28.55	113.046	189.558	232.389	93.633	223.313	260.078	93.618	100.738	205.517	218.498	100.474	106.639	106.858	113.992	195.959	113.360	-8191	255	
11349.925	1	1	0	0	0.31074	0.22295	0.19363	0.13188	0.097974	0.13929	0.1447	0.10827	0.11743	0.28465	0.12124	0.19437	0.10442	0.15912	0.14609	0.20157	-3.9875	-4.5667	-4.7542	-4.4146	-4.65	-4.5958	-4.4708	-5.0792	-4.4667	-4.5167	-4.9646	-4.3438	-4.7125	-4.5604	-4.2854	-4.8583	126.703	199.381	174.663	91.740	177.990	257.498	374.167	237.088	218.117	233.816	426.441	155.363	275.967	145.547	301.072	109.518	0.00051799	0.00027639	0.00010141	1219	3.9988e-06	3.8444e-06	1292.9	255.04	5.3242e-06	1.6383e-06	317.88	88.487	70.156	20.153	3.1647e-06	28.227	0.0001477	0.00011766	3.2276e-05	1199.9	1.3706e-06	1.2935e-06	1272.9	253.54	1.3457e-06	1.2853e-06	314.55	87.641	69.272	20.248	1.2844e-06	28.443	114.802	165.249	210.608	93.559	229.316	240.300	93.500	100.639	216.753	269.555	100.284	106.669	107.183	114.125	230.431	112.924	-8191	255	
11350.021	1	1	0	0	0.16994	0.16942	0.012998	0.2449	0.095808	0.088168	0.28737	0.18566	0.066884	0.15258	0.14617	0.20184	0.12642	0.08599	0.22017	0.11239	-4.1333	-4.3417	-4.8542	-4.3083	-4.6479	-4.7708	-4.4604	-4.875	-4.4604	-4.5208	-4.8979	-4.4292	-4.8042	-4.7688	-4.1438	-4.9125	209.747	324.843	218.766	413.182	348.511	174.369	383.198	100.441	165.651	217.379	178.959	325.600	154.621	397.891	185.319	315.512	0.0005283	0.00026468	8.7455e-05	1218.2	5.8831e-06	3.0656e-06	1288.9	256.29	4.1349e-06	5.079e-06	317.34	88.103	69.99	20.019	1.6121e-06	28.293	0.00014631	0.00011989	3.3414e-05	1198.1	1.3823e-06	1.2354e-06	1272.1	253.66	1.3779e-06	1.3023e-06	314.7	87.62	69.339	20.193	1.3132e-06	28.436	116.405	144.958	190.907	93.504	224.586	236.660	93.520	100.745	219.435	246.851	100.487	106.945	107.224	114.454	247.051	113.356	-8191	255	
11350.117	1	1	0	0	0.20315	0.2184	0.23001	0.35792	0.10957	0.16052	0.19243	0.16276	0.1777	0.065711	0.18268	0.13974	0.088729	0.12903	0.17578	0.031269	-4.1167	-4.2771	-4.9854	-4.4354	-4.5583	-4.7583	-4.3458	-4.8521	-4.5333	-4.3625	-4.9917	-4.3313	-4.5042	-4.8875	-4.2542	-4.7396	423.228	322.009	175.812	403.292	87.388	342.854	363.763	359.353	83.164	312.182	437.081	390.828	205.204	214.110	403.395	128.956	0.00049057	0.00028167	8.8589e-05	1216.2	3.5015e-06	1.2546e-06	1286	255.72	6.006e-06	1.7938e-06	317.34	89.099	69.979	19.935	2.309e-06	28.277	0.00014593	0.00011108	3.15e-05	1196.3	1.3813e-06	1.2695e-06	1267.6	252.72	1.3009e-06	1.2731e-06	313.64	87.663	69.082	20.133	1.2335e-06	28.37	116.882	154.032	198.939	93.761	275.775	271.333	93.516	100.790	227.689	306.908	100.311	107.049	107.203	113.584	201.159	113.536	-8191	255	
11350.236	1	1	0	0	0.065278	0.15651	0.034823	0.229	0.17346	0.060944	0.043524	0.062163	0.14875	0.11778	0.062688	0.058791	0.23809	0.097985	0.2767	0.23169	-4.2917	-4.2396	-4.8938	-4.6354	-4.4521	-4.8021	-4.3875	-4.7667	-4.5875	-4.4187	-4.8958	-4.6188	-4.4771	-4.8688	-4.1583	-4.6375	183.507	342.668	242.116	330.484	293.788	226.884	94.417	357.936	247.432	305.848	299.496	241.270	379.020	303.763	111.662	389.434	0.00051679	0.0001212	0.00010315	1205.5	2.7075e-06	2.7434e-06	1280.1	254.12	6.2786e-06	3.207e-06	314.53	88.004	69.802	19.822	2.0964e-06	27.961	0.00013921	0.00010843	3.0802e-05	1190.8	1.2995e-06	1.1637e-06	1260.9	250.91	1.2278e-06	1.1788e-06	310.91	86.886	68.748	20.001	1.2138e-06	28.154	115.726	175.210	193.760	93.676	193.733	234.153	93.532	100.587	211.113	246.404	100.401	106.548	107.313	114.269	196.243	113.459	-8191	255	
11350.332	1	1	0	0	0.15419	0.098812	0.057426	0.068286	0.20468	0.1622	0.1065	0.1021	0.11749	0.2331	0.095228	0.020221	0.20815	0.24851	0.11477	0.13299	-4.4563	-4.1896	-4.8979	-4.7271	-4.3146	-4.9958	-4.5625	-4.7229	-4.9375	-4.3562	-4.8458	-4.7583	-4.3771	-4.9521	-4.5083	-4.5729	142.245	183.082	146.727	263.943	288.468	124.340	84.205	428.104	144.924	113.009	414.733	90.577	380.954	427.890	423.217	386.349	0.00050992	0.00018452	8.7524e-05	1201.7	5.2535e-06	2.5083e-06	1273.3	251.18	4.7087e-06	2.5333e-06	312.99	87.566	69.091	19.851	4.1811e-06	27.775	0.00013967	0.00011132	2.9894e-05	1183	1.2973e-06	1.2283e-06	1254.2	249.13	1.2619e-06	1.2436e-06	309.31	86.451	68.225	19.936	1.2968e-06	27.997	116.957	219.403	151.607	93.697	223.055	203.858	93.457	100.903	212.726	210.551	100.474	106.989	107.506	114.057	219.999	113.161	-8191	255	
11350.429	1	1	0	0	0.1642	0.23701	0.20095	0.22486	0.17046	0.092498	0.17098	0.096423	0.16023	0.078257	0.071186	0.27995	0.21384	0.2313	0.062245	0.21122	-4.4313	-4.2521	-4.6813	-4.9146	-4.3646	-4.8083	-4.5333	-4.5542	-4.8271	-4.2438	-4.8021	-4.6958	-4.3271	-4.8125	-4.3708	-4.4333	441.423	87.866	235.941	375.430	261.889	216.463	109.878	409.658	406.856	384.647	263.157	96.590	291.479	86.799	415.235	308.661	0.00050719	0.0002767	9.9152e-05	1192.9	4.0467e-06	3.3554e-06	1268.9	250.37	3.4574e-06	3.3401e-06	310.38	87.048	68.511	19.683	2.2597e-06	27.523	0.00014548	0.00011529	3.132e-05	1177.1	1.3769e-06	1.2208e-06	1250.3	247.82	1.2761e-06	1.2051e-06	308.83	86.322	67.871	19.817	1.2057e-06	27.949	113.997	183.387	152.935	93.753	222.176	245.450	93.444	100.950	189.208	262.066	100.413	106.804	107.430	113.795	195.577	113.660	-8191	255	
11350.525	1	1	0	0	0.14956	0.12696	0.14499	0.31172	0.15166	0.21903	0.14557	0.088389	0.061565	0.13097	0.22585	0.11013	0.19745	0.13864	0.19803	0.053009	-4.6833	-4.1958	-4.6062	-4.7625	-4.3583	-5.025	-4.8	-4.5479	-5.0771	-4.5208	-4.9208	-4.8812	-4.3792	-4.9646	-4.5917	-4.4542	337.510	258.203	275.148	420.681	105.075	344.633	357.440	336.768	409.580	410.760	432.873	389.720	393.245	438.311	127.882	124.391	0.00050186	0.00016001	8.1574e-05	1194.4	4.5384e-06	5.8095e-06	1268.7	250.72	5.5237e-06	2.1647e-06	314.35	87.321	68.229	19.727	4.7193e-06	27.806	0.00013799	0.00010999	3.0554e-05	1176.9	1.2793e-06	1.1978e-06	1247.5	248.14	1.2739e-06	1.2016e-06	310.09	86.274	68.1	19.908	1.254e-06	28.064	120.868	183.208	197.483	93.796	233.666	230.818	93.346	100.850	217.634	261.584	100.299	106.983	107.290	113.969	228.728	113.088	-8191	255	
11350.621	1	1	0	0	0.1879	0.18726	0.12135	0.19897	0.18949	0.076314	0.084072	0.25669	0.1315	0.13742	0.05424	0.19276	0.28338	0.23604	0.19275	0.05658	-4.6188	-4.3396	-4.5875	-4.9875	-4.3729	-4.6729	-4.8063	-4.4479	-4.9667	-4.2396	-4.575	-4.6312	-4.1813	-4.9167	-4.7271	-4.4833	380.968	270.657	272.168	408.982	173.990	141.619	431.462	403.858	329.422	156.076	360.958	191.418	411.504	354.466	136.241	191.299	0.00049593	0.00031183	5.0819e-05	1196.9	5.2932e-06	3.7157e-06	1277.3	251.45	6.7616e-06	2.8216e-06	312.45	87.719	69.163	19.816	3.508e-06	28.008	0.00014394	0.00011577	3.2128e-05	1181.9	1.4033e-06	1.3424e-06	1255.3	249.22	1.3984e-06	1.3005e-06	310.51	86.719	68.427	20.022	1.3915e-06	28.264	112.359	182.263	190.781	93.704	211.843	247.062	93.698	100.755	238.425	286.594	100.109	106.750	107.089	113.797	242.108	113.314	-8191	255	
11350.717	1	1	0	0	0.16649	0.073546	0.073351	0.28058	0.059749	0.19384	0.15338	0.2231	0.18345	0.13235	0.067718	0.04268	0.10507	0.25776	0.1848	0.29288	-4.5604	-4.3479	-4.4271	-4.8896	-4.2521	-4.6	-4.7229	-4.5	-4.9021	-4.4187	-4.525	-4.9417	-4.3958	-4.7042	-4.6458	-4.2937	85.155	184.027	276.995	386.684	316.515	184.029	338.100	318.980	163.193	333.416	262.270	434.342	415.317	103.147	219.778	120.249	0.0005593	0.00032969	0.00013361	1205.1	3.9731e-06	4.5736e-06	1279.1	253.9	4.7536e-06	1.0051e-06	314.98	87.95	69.972	20.086	2.6847e-06	27.981	0.00015554	0.00013054	3.5993e-05	1189.3	1.5331e-06	1.4284e-06	1263.3	251.2	1.4685e-06	1.4536e-06	312.2	87.332	69.162	20.209	1.4193e-06	28.399	113.939	188.049	187.969	93.643	252.934	250.487	93.768	100.543	203.304	237.526	100.369	106.852	106.846	114.110	241.793	113.270	-8191	255	
11350.838	1	1	0	0	0.23403	0.18141	0.054944	0.2375	0.23228	0.21397	0.095638	0.27117	0.10131	0.057434	0.14059	0.17582	0.078113	0.34306	0.25314	0.23806	-4.6625	-4.4437	-4.2688	-4.9042	-4.3	-4.5	-4.9083	-4.3458	-4.8562	-4.5396	-4.3667	-4.9938	-4.5687	-4.6375	-4.8542	-4.1625	375.342	426.063	312.810	431.248	114.277	296.750	365.382	296.662	273.648	262.426	324.012	401.785	179.726	409.401	342.607	133.965	0.00052169	0.00018255	6.3517e-05	1216.4	5.5123e-06	5.4873e-06	1293.4	255.68	4.2604e-06	2.3495e-06	316.85	89.27	70.277	20.202	4.6534e-06	28.331	0.00015973	0.0001299	3.5335e-05	1201.1	1.5384e-06	1.3694e-06	1275.5	253.77	1.4532e-06	1.428e-06	315	88.148	69.655	20.432	1.5061e-06	28.678	114.899	201.828	154.459	93.660	235.461	262.842	93.361	100.527	218.331	293.166	100.373	106.691	106.696	114.034	209.794	113.303	-8191	255	
11350.934	1	1	0	0	0.22608	0.09283	0.1991	0.1428	0.14384	0.18303	0.36801	0.1082	0.11139	0.19379	0.19903	0.16043	0.16045	0.085659	0.013933	0.25265	-4.3479	-4.5542	-4.3167	-5.0917	-4.4917	-4.5479	-4.8979	-4.3896	-4.7271	-4.6562	-4.5396	-5.1	-4.4667	-4.6771	-4.7812	-4.2417	85.241	311.899	403.687	88.185	402.940	143.277	399.735	388.856	354.197	261.293	338.331	103.514	281.930	199.862	246.421	298.198	0.00051818	0.00028132	0.00013848	1224.5	5.4237e-06	4.1938e-06	1295.8	257.45	3.0616e-06	2.0966e-06	318.98	89.077	70.895	20.19	2.8843e-06	28.399	0.0001639	0.00013353	3.7547e-05	1206.4	1.5566e-06	1.4856e-06	1279.7	254.6	1.583e-06	1.4883e-06	316.18	88.36	69.969	20.434	1.4461e-06	28.618	112.547	151.537	147.441	93.442	223.827	267.364	93.354	100.704	192.825	336.068	100.421	106.678	106.975	113.442	198.135	113.064	-8191	255	
11351.030	1	1	0	0	0.23416	0.18869	0.058995	0.17072	0.087706	0.13891	0.22127	0.25029	0.0044625	0.13274	0.085422	0.062331	0.054136	0.099506	0.16513	0.13905	-4.3542	-4.7604	-4.2125	-5.0625	-4.6229	-4.3417	-4.9417	-4.525	-4.6833	-4.9104	-4.3208	-4.7771	-4.6729	-4.4771	-5.0792	-4.5	109.057	89.802	207.280	428.452	429.783	235.783	398.113	343.575	431.059	371.385	308.335	140.309	370.035	158.758	193.868	166.281	0.00050433	0.00040288	0.00010005	1223.2	4.0937e-06	2.6443e-06	1295.3	255.89	6.9662e-06	3.9903e-06	316.57	88.996	70.572	20.168	2.3394e-06	28.116	0.00016375	0.00013799	3.8315e-05	1204.2	1.528e-06	1.4493e-06	1275.9	254.29	1.5213e-06	1.4422e-06	315.04	87.878	69.649	20.302	1.4353e-06	28.502	114.298	198.100	189.215	93.651	230.724	237.374	93.679	100.548	219.615	236.708	100.292	106.646	107.185	113.956	287.436	113.283	-8191	255	
11351.126	1	1	0	0	0.10734	0.10483	0.072524	0.21225	0.056566	0.10278	0.22065	0.13091	0.039476	0.1679	0.044483	0.097179	0.1104	0.13376	0.078937	0.1353	-4.2896	-4.8896	-4.2292	-4.9271	-4.5854	-4.4938	-5.0938	-4.5	-4.3896	-4.6896	-4.5	-4.7396	-4.6333	-4.3167	-4.8812	-4.5979	360.851	359.697	327.457	402.928	440.887	190.787	318.878	381.568	406.321	262.478	435.392	307.889	153.850	144.716	258.425	324.152	0.00053194	0.00030044	8.0069e-05	1214.9	5.5292e-06	3.9694e-06	1284.4	255.03	3.0538e-06	4.506e-06	316.4	88.998	70.215	19.991	3.2277e-06	28.246	0.00016369	0.00013332	3.6006e-05	1198.5	1.4962e-06	1.4446e-06	1269.3	253.07	1.5166e-06	1.4171e-06	314.19	87.851	69.466	20.245	1.4676e-06	28.482	115.323	187.946	160.862	93.446	219.851	227.672	93.625	100.918	201.373	250.974	100.189	106.762	107.047	113.766	218.978	113.152	-8191	255	
11351.198	1	1	0	0	0.11494	0.082419	0.1445	0.36299	0.10048	0.1248	0.21268	0.095189	0.26592	0.20478	0.087876	0.20914	0.13215	0.064849	0.022951	0.11689	-4.25	-4.7833	-4.2979	-4.8063	-4.5521	-4.1667	-5.0396	-4.7312	-4.3958	-4.9354	-4.4354	-4.8187	-4.6708	-4.3271	-4.8375	-4.5667	174.252	232.333	221.415	418.152	149.412	232.797	374.116	263.395	233.569	428.473	400.429	177.186	174.756	232.284	354.847	177.196	0.00051383	0.0003095	9.9442e-05	1213.3	4.4802e-06	3.3916e-06	1286.7	256.06	5.2748e-06	3.4297e-06	314.81	88.891	70.417	19.965	6.9146e-06	28.33	0.00016235	0.00012621	3.6118e-05	1196.2	1.4977e-06	1.4461e-06	1271.5	253.13	1.4457e-06	1.3643e-06	313.96	87.927	69.328	20.2	1.386e-06	28.488	118.157	156.303	163.301	93.533	225.837	274.647	93.606	100.552	209.509	254.087	100.317	106.983	106.986	114.054	219.139	113.250	-8191	255	
11351.317	1	1	0	0	0.39219	0.23735	0.18506	0.22897	0.056497	0.18002	0.19751	0.1653	0.11169	0.24534	0.14017	0.051826	0.28038	0.18394	0.12314	0.16722	-4.2021	-4.9333	-4.1937	-4.7292	-4.7792	-4.3125	-5.0271	-4.5708	-4.4292	-4.9708	-4.3833	-4.5687	-4.8146	-4.2146	-4.7667	-4.5312	319.970	334.882	102.069	85.337	118.964	304.762	361.778	433.393	186.300	339.623	185.493	121.908	290.248	354.717	208.585	351.123	0.00049137	0.00016193	9.9669e-05	1212.3	6.6661e-06	2.3684e-06	1283.4	255.67	7.2134e-06	3.1629e-06	316.64	88.459	69.712	19.899	2.0761e-06	28.047	0.00015326	0.00012178	3.3391e-05	1196.2	1.425e-06	1.2849e-06	1268.1	252.95	1.413e-06	1.3154e-06	313.98	87.437	69.103	20.108	1.3459e-06	28.33	118.933	163.970	189.232	93.652	229.303	264.599	93.376	100.521	214.538	255.832	100.170	106.652	106.986	113.621	208.710	113.397	-8191	255	
11351.413	1	1	0	0	0.11528	0.11699	0.02867	0.10166	0.24719	0.1104	0.18901	0.13664	0.16927	0.2156	0.17197	0.059888	0.20696	0.037871	0.22379	0.10493	-4.0687	-4.7688	-4.4896	-4.7417	-4.7937	-4.2854	-4.7562	-4.7542	-4.3021	-4.8833	-4.5583	-4.4042	-4.8438	-4.2396	-4.6896	-4.6042	286.750	353.740	231.776	370.354	383.175	110.973	439.105	440.108	301.860	87.513	433.283	374.021	266.572	397.806	368.122	271.564	0.00052641	0.00015967	9.9746e-05	1209.3	3.5391e-06	2.7006e-06	1285	254.32	7.2445e-06	2.6327e-06	314.89	87.896	69.063	19.784	2.8797e-06	28.032	0.0001518	0.00011933	3.3039e-05	1194.4	1.4271e-06	1.2983e-06	1266.7	252.22	1.3993e-06	1.2947e-06	312.85	87.28	68.777	20.079	1.3972e-06	28.268	116.261	154.514	189.118	93.596	220.123	274.214	93.391	100.532	228.629	233.923	100.336	107.014	106.907	114.069	171.829	113.474	-8191	255	
11351.509	1	1	0	0	0.095871	0.09867	0.029042	0.07587	0.032734	0.23933	0.14969	0.15545	0.064852	0.15351	0.20683	0.0445	0.043452	0.32582	0.12057	0.19054	-3.9458	-4.8771	-4.5667	-4.6188	-4.8812	-4.4667	-4.8708	-4.8625	-4.3958	-4.8333	-4.6167	-4.3917	-4.8292	-4.2792	-4.7375	-4.8667	102.794	199.669	357.595	188.211	391.274	353.117	367.375	102.091	394.707	165.731	147.677	306.070	425.430	279.113	295.733	195.302	0.0004988	6.2456e-05	0.00011247	1207.8	3.8955e-06	4.4397e-06	1280.3	253.57	6.4783e-06	4.5714e-06	313.63	88.254	69.489	19.666	2.552e-06	27.913	0.00015247	0.00012531	3.4757e-05	1192.5	1.4175e-06	1.3714e-06	1263.7	250.95	1.5089e-06	1.3667e-06	311.86	87.317	68.687	19.987	1.4046e-06	28.228	113.760	206.162	173.857	93.520	230.647	199.171	93.582	100.509	214.733	217.275	100.176	106.898	107.035	114.078	211.993	113.718	-8191	255	
11351.630	1	1	0	0	0.097981	0.060261	0.20664	0.11358	0.26879	0.14455	0.089064	0.17651	0.067327	0.28583	0.080614	0.19138	0.047226	0.12836	0.052234	0.17114	-3.8417	-4.8646	-4.5292	-4.5417	-4.9313	-4.4521	-4.6687	-4.7708	-4.3625	-4.8375	-4.5917	-4.3187	-4.9646	-4.4542	-4.5333	-4.9479	411.362	124.089	243.255	429.402	98.110	317.963	433.548	321.729	287.208	229.075	326.327	199.328	333.156	153.610	375.403	344.490	0.00049771	0.00025988	0.00014771	1204.5	3.0515e-06	3.7851e-06	1278.6	253.86	3.4131e-06	2.8117e-06	313.41	87.651	69.409	19.722	4.7409e-06	27.933	0.00015732	0.00012339	3.5183e-05	1190.2	1.4721e-06	1.3895e-06	1262.1	250.66	1.4511e-06	1.3524e-06	311.43	86.944	68.734	19.935	1.3948e-06	28.087	117.590	139.988	160.237	93.663	205.728	198.723	93.596	100.750	207.093	288.078	100.373	106.722	107.192	114.183	215.037	113.489	-8191	255	
11351.726	1	1	0	0	0.13564	0.2715	0.12364	0.10479	0.071797	0.086589	0.36091	0.26015	0.074483	0.24578	0.21914	0.23632	0.11269	0.21812	0.17008	0.11629	-3.9479	-4.7	-4.7312	-4.45	-4.8021	-4.475	-4.6146	-4.9479	-4.3688	-4.5875	-4.8417	-4.2688	-4.8083	-4.5188	-4.4771	-4.8833	294.115	162.804	122.788	142.185	116.974	403.233	375.861	291.285	195.559	277.412	434.938	397.730	96.048	353.127	403.240	366.563	0.00049164	0.00020046	0.00010793	1204.4	4.6675e-06	6.1741e-06	1280.5	252.06	6.105e-06	1.6869e-06	311.22	87.096	68.747	19.687	4.898e-06	27.709	0.00015584	0.00012426	3.4097e-05	1191.2	1.4699e-06	1.3456e-06	1261.4	250.08	1.4978e-06	1.4215e-06	310.39	86.726	68.162	19.89	1.413e-06	28.044	110.984	129.800	197.019	93.554	251.637	248.232	93.515	100.716	210.266	265.449	100.494	107.140	107.236	113.808	219.111	113.398	-8191	255	
11351.797	1	1	0	0	0.095694	0.071028	0.1117	0.064599	0.16022	0.23638	0.045323	0.32909	0.22931	0.13633	0.23039	0.02449	0.25371	0.17687	0.20688	0.14636	-4.0042	-4.5354	-4.7667	-4.2958	-4.8208	-4.4875	-4.525	-4.9812	-4.2833	-4.5292	-4.9167	-4.3146	-4.7292	-4.6042	-4.1979	-4.9667	145.070	292.637	215.392	103.983	427.600	360.030	308.448	345.562	285.871	353.724	366.696	402.791	89.237	214.239	377.140	113.658	0.00054588	0.00022686	0.00012829	1207.9	6.6606e-06	3.8207e-06	1280.7	251.53	1.8319e-06	2.9893e-06	312.53	87.393	68.84	19.609	4.6336e-06	27.603	0.00015636	0.00013388	3.5878e-05	1188.7	1.539e-06	1.4379e-06	1263	249.44	1.4899e-06	1.4239e-06	310.08	86.464	68.14	19.812	1.4631e-06	27.898	115.047	200.218	142.046	93.509	228.910	252.000	93.616	100.693	211.118	222.929	100.461	106.739	107.734	114.547	208.302	113.304	-8191	255	
11351.918	1	1	0	0	0.24095	0.093609	0.13976	0.14551	0.15072	0.13848	0.13084	0.13762	0.075764	0.066387	0.20388	0.04426	0.10558	0.19026	0.15688	0.23288	-4.1104	-4.5292	-4.7625	-4.4354	-4.7396	-4.7667	-4.3479	-4.9	-4.3562	-4.3812	-5.0542	-4.2667	-4.7042	-4.825	-4.2312	-4.9062	263.295	273.365	372.456	145.238	423.138	259.267	397.732	325.019	191.973	179.266	366.939	98.903	326.306	224.628	161.765	321.836	0.0005147	0.00010641	9.3265e-05	1201.6	3.3912e-06	4.9418e-06	1272.3	250.18	4.2391e-06	5.4788e-06	311.78	87.079	69.149	19.558	2.7765e-06	27.764	0.0001567	0.00013217	3.5708e-05	1185.6	1.4901e-06	1.3418e-06	1256.1	248.35	1.4617e-06	1.4144e-06	309.4	86.378	68.023	19.737	1.3817e-06	27.944	114.922	190.942	193.206	93.603	206.831	231.593	93.605	100.734	187.873	238.702	100.674	106.934	107.099	114.051	243.956	113.142	-8191	255	
11352.014	1	1	0	0	0.25221	0.098051	0.073996	0.040491	0.057758	0.23868	0.088113	0.028659	0.16246	0.16568	0.2895	0.16805	0.080962	0.15629	0.11778	0.044853	-4.1771	-4.5229	-4.7896	-4.5583	-4.8958	-4.7875	-4.3313	-4.9187	-4.4792	-4.2667	-4.9229	-4.4146	-4.5917	-4.7979	-4.3729	-4.8292	422.520	283.315	89.477	237.002	214.609	419.946	378.943	145.837	369.088	130.543	291.372	83.581	204.443	360.437	329.078	103.444	0.00048022	0.00018347	8.2426e-05	1198.1	4.7694e-06	1.4316e-06	1276.7	250.79	6.0878e-06	3.0561e-06	309.19	86.577	69.084	19.461	2.9144e-06	27.528	0.00015178	0.00012598	3.3484e-05	1183.3	1.4784e-06	1.3533e-06	1255.7	248.47	1.4058e-06	1.3606e-06	308.6	85.953	68.019	19.721	1.3327e-06	27.891	112.176	158.309	211.716	93.528	203.507	213.024	93.747	100.821	223.584	247.054	100.217	107.063	107.369	114.249	218.566	113.540	-8191	255	
11352.110	1	1	0	0	0.084672	0.14871	0.17541	0.077713	0.064705	0.02681	0.18555	0.14623	0.056208	0.16584	0.064514	0.14619	0.039645	0.18468	0.25889	0.20482	-4.375	-4.2625	-4.925	-4.6062	-4.45	-4.8896	-4.4437	-4.9833	-4.4021	-4.3354	-4.9271	-4.3625	-4.6021	-5.0542	-4.35	-4.9021	430.432	302.132	96.135	409.660	378.557	397.054	398.057	291.373	135.122	251.507	338.102	150.501	377.591	376.743	145.312	397.354	0.00050645	0.00030465	9.7446e-05	1198.9	3.1378e-06	3.6071e-06	1266.9	248.65	3.997e-06	4.0152e-06	311.41	86.299	69.256	19.619	2.8445e-06	27.648	0.00014959	0.00012189	3.3659e-05	1183	1.4659e-06	1.3119e-06	1253.8	247.72	1.3613e-06	1.3253e-06	308.72	86.088	68.136	19.771	1.403e-06	27.907	114.463	138.900	186.584	93.484	199.192	248.756	93.604	100.798	215.384	239.557	100.530	107.018	106.992	113.967	222.125	113.312	-8191	255	
11352.229	1	1	0	0	0.087787	0.072515	0.18491	0.26112	0.079359	0.091336	0.20485	0.22379	0.21299	0.14572	0.22258	0.25449	0.049794	0.079967	0.1486	0.096041	-4.2354	-4.3104	-4.8	-4.6188	-4.5542	-4.9042	-4.4938	-4.95	-4.7562	-4.2917	-4.9083	-4.4688	-4.45	-4.9667	-4.3521	-4.6562	301.875	339.245	354.345	368.011	416.928	345.431	402.636	390.615	157.683	271.958	198.370	420.363	254.459	374.715	118.177	418.565	0.00048088	0.00012684	0.00010986	1200.6	4.9731e-06	2.5906e-06	1271.8	251.06	5.5598e-06	3.4565e-06	310.8	86.91	68.721	19.624	2.9513e-06	27.606	0.00015388	0.00012539	3.473e-05	1184.1	1.4462e-06	1.3359e-06	1255.3	248.62	1.4346e-06	1.2968e-06	308.18	86.028	67.856	19.82	1.407e-06	27.904	118.943	122.638	147.301	93.404	217.214	253.226	93.500	100.823	207.996	237.426	100.309	106.515	107.002	113.929	169.822	113.741	-8191	255	
11352.325	1	1	0	0	0.25459	0.15055	0.18309	0.081623	0.052522	0.34756	0.19348	0.22229	0.044821	0.18156	0.056317	0.095948	0.020207	0.12792	0.14388	0.054535	-4.4083	-4.3375	-4.9333	-4.6833	-4.5	-5.0708	-4.5771	-4.6312	-4.7208	-4.2458	-4.9667	-4.6479	-4.4958	-4.925	-4.4	-4.6104	303.303	370.473	124.007	312.462	390.935	425.951	360.334	197.329	332.341	197.003	338.385	378.148	230.995	141.021	238.329	125.435	0.00052636	0.0003227	0.00012692	1193.8	2.3918e-06	4.2794e-06	1271.7	250.48	5.2244e-06	2.2933e-06	311.43	87.134	68.075	19.544	9.6721e-07	27.508	0.00015241	0.0001262	3.4277e-05	1182.6	1.4627e-06	1.3318e-06	1254.5	247.96	1.4384e-06	1.3663e-06	309.07	86.246	67.859	19.772	1.3042e-06	27.884	114.606	142.314	189.103	93.583	253.617	243.675	93.349	101.048	211.311	260.870	100.546	106.977	107.321	114.020	174.561	113.566	-8191	255	
11352.397	1	1	0	0	0.032891	0.079734	0.13854	0.064695	0.32436	0.077005	0.10384	0.14847	0.15098	0.12809	0.37194	0.21145	0.062084	0.04464	0.20831	0.034055	-4.4917	-4.3417	-4.7583	-4.8646	-4.3583	-4.8208	-4.4479	-4.6062	-4.9375	-4.1167	-4.7292	-4.6458	-4.3396	-4.8708	-4.3396	-4.5417	334.370	128.410	221.967	144.875	284.860	156.069	346.990	412.175	391.012	312.814	428.215	414.446	343.314	296.073	161.197	280.025	0.00053396	0.00047081	5.5207e-05	1194	4.2926e-06	5.1904e-06	1268	250.43	4.4913e-06	2.7508e-06	309.72	86.891	68.19	19.42	3.8051e-06	27.493	0.00014826	0.00011991	3.5525e-05	1182.4	1.4685e-06	1.3992e-06	1253.1	248.31	1.4028e-06	1.305e-06	308.48	86.238	68	19.739	1.3726e-06	27.884	114.544	174.067	190.450	93.592	224.438	265.003	93.505	100.669	244.868	217.766	100.360	107.105	107.215	114.136	242.476	113.535	-8191	255	
11352.518	1	1	0	0	0.29543	0.171	0.17708	0.1297	0.16186	0.1397	0.064153	0.13747	0.13903	0.13136	0.15697	0.098694	0.22655	0.19201	0.15939	0.15297	-4.5354	-4.3792	-4.8083	-4.9083	-4.1604	-4.8792	-4.7583	-4.4458	-4.8521	-4.2708	-4.7125	-4.8146	-4.3063	-4.8063	-4.6292	-4.3333	429.899	373.625	332.210	390.258	351.278	174.541	341.713	349.787	100.369	213.012	347.019	404.779	128.106	380.026	237.142	189.943	0.00050282	0.00037082	0.00010977	1189.6	3.9378e-06	2.1051e-06	1269.3	249.68	5.2218e-06	2.8789e-06	307.71	85.928	68.117	19.391	1.6689e-06	27.207	0.00014612	0.00012535	3.475e-05	1180.5	1.4396e-06	1.3468e-06	1254.6	247.94	1.3322e-06	1.3319e-06	308.22	86.039	67.828	19.71	1.2895e-06	27.8	116.303	157.153	160.351	93.621	222.247	147.562	93.134	100.669	222.844	263.404	100.295	106.622	107.183	113.993	221.360	113.200	-8191	255	
11352.614	1	1	0	0	0.17251	0.062206	0.08002	0.17346	0.23271	0.10481	0.23819	0.19995	0.22858	0.19025	0.19225	0.024985	0.12053	0.23615	0.073165	0.15858	-4.5938	-4.3729	-4.4417	-4.975	-4.0771	-4.825	-4.5625	-4.3125	-4.7771	-4.3458	-4.6604	-4.925	-4.4604	-4.75	-4.6375	-4.3146	240.457	343.801	223.645	366.730	317.881	314.687	441.131	256.864	207.523	411.877	339.281	148.660	165.066	437.462	114.603	269.047	0.00052087	0.00038391	9.4693e-05	1185.4	2.5343e-06	2.8433e-06	1257.2	247.23	2.8627e-06	2.7285e-06	307.06	85.528	68.45	19.134	3.201e-06	26.982	0.00015011	0.00012194	3.3564e-05	1179.1	1.4228e-06	1.2937e-06	1250.2	247.45	1.3446e-06	1.3248e-06	308.07	85.822	67.975	19.669	1.368e-06	27.728	116.126	186.389	214.850	93.437	197.525	234.522	93.553	100.406	212.046	238.556	100.463	106.551	107.129	113.973	263.746	113.154	-8191	255	
11352.710	1	1	0	0	0.15984	0.10566	0.13193	0.17687	0.099844	0.096303	0.087939	0.13121	0.024782	0.16277	0.12557	0.14755	0.17575	0.045879	0.16977	0.07738	-4.3917	-4.3562	-4.4708	-4.9313	-4.1917	-4.8375	-4.7312	-4.3083	-4.7729	-4.3729	-4.5125	-4.9229	-4.2792	-4.8354	-4.825	-4.3396	134.701	379.330	155.279	360.247	328.160	232.163	103.100	352.880	119.640	172.700	188.855	190.968	370.306	288.518	287.967	205.733	0.00050941	0.00029468	0.00010351	1183.8	4.2023e-06	4.5526e-06	1255.8	245.73	6.0887e-06	4.8137e-06	310.07	86.397	68.465	19.482	2.4878e-06	27.61	0.00015037	0.0001185	3.4537e-05	1179.3	1.4841e-06	1.2899e-06	1250.1	246.89	1.394e-06	1.3137e-06	307.84	85.903	67.833	19.765	1.3476e-06	27.854	112.710	164.449	187.424	93.448	237.870	254.082	93.300	100.553	194.316	241.940	100.557	106.767	107.021	114.260	208.386	113.517	-8191	255	
11352.806	1	1	0	0	0.077449	0.13294	0.18579	0.15356	0.14835	0.17833	0.2377	0.092854	0.16948	0.22727	0.068737	0.035153	0.20106	0.039116	0.031529	0.31419	-4.6458	-4.5396	-4.275	-4.8938	-4.2646	-4.6604	-4.9938	-4.2083	-4.7312	-4.6604	-4.4396	-4.9625	-4.4083	-4.525	-4.7438	-4.2417	266.642	407.689	350.983	411.278	228.816	354.981	390.355	125.147	281.915	266.474	337.189	426.908	421.664	129.251	368.704	112.637	0.00047985	0.00020208	7.1163e-05	1197.5	5.1533e-06	4.6823e-06	1259.3	249.25	5.6825e-06	2.2477e-06	307.95	86.37	68.265	19.485	2.6278e-06	27.536	0.00014694	0.00011609	3.4104e-05	1179.9	1.3789e-06	1.3319e-06	1248.8	247.42	1.3821e-06	1.2738e-06	307.16	86.122	67.667	19.741	1.2936e-06	27.885	121.539	176.151	168.024	93.626	218.293	226.423	93.204	100.950	224.695	133.947	100.468	107.013	107.218	114.418	217.320	113.949	-8191	255	
11352.902	1	1	0	0	0.34458	0.11745	0.14473	0.2812	0.20772	0.070032	0.18772	0.14553	0.21342	0.18171	0.1528	0.070484	0.188	0.17562	0.30363	0.035595	-4.4854	-4.5687	-4.1188	-5.0646	-4.4625	-4.5417	-5.0062	-4.2708	-4.6708	-4.5938	-4.3167	-4.8979	-4.4271	-4.4417	-4.8229	-4.3354	231.294	312.516	93.572	427.568	121.846	348.242	412.573	433.904	277.771	317.143	380.812	278.170	394.485	438.938	344.591	267.541	0.00052063	0.00013077	7.4434e-05	1189.8	3.7372e-06	4.4279e-06	1263.9	249.05	6.6846e-06	3.1436e-06	309.28	85.333	68.123	19.466	1.2263e-06	27.48	0.00014667	0.00011666	3.2506e-05	1178.6	1.3735e-06	1.2903e-06	1250.7	247.26	1.3739e-06	1.3312e-06	307.49	85.658	67.746	19.75	1.3002e-06	27.862	108.229	213.611	169.366	93.393	241.647	234.876	93.407	100.688	238.351	268.951	99.923	106.196	107.263	113.797	194.622	113.113	-8191	255	
11353.021	1	1	0	0	0.23227	0.056986	0.18378	0.17447	0.02744	0.088822	0.22469	0.24665	0.15808	0.18474	0.16423	0.13673	0.024267	0.13719	0.14587	0.054666	-4.3604	-4.7333	-4.2625	-4.9125	-4.3313	-4.25	-5.1042	-4.4729	-4.5708	-4.6917	-4.2167	-4.7625	-4.525	-4.4167	-4.8479	-4.4167	163.877	205.099	310.120	408.152	359.673	331.193	361.518	323.327	430.010	172.000	265.833	142.346	434.135	151.917	439.026	358.643	0.00047887	0.00034408	0.00013446	1192.7	4.1494e-06	2.9975e-06	1268.7	248.44	3.7975e-06	2.7124e-06	310.35	86.784	68.465	19.434	2.2309e-06	27.522	0.00014737	0.00011816	3.1973e-05	1180.4	1.3164e-06	1.3018e-06	1252.3	247.45	1.3314e-06	1.2304e-06	307.78	86.067	67.882	19.727	1.2947e-06	27.894	114.461	164.515	162.030	93.752	211.166	212.155	93.631	100.891	219.699	258.655	100.427	107.056	106.846	114.573	181.131	113.259	-8191	255	
11353.095	1	1	0	0	0.22743	0.24245	0.12139	0.28138	0.15836	0.22962	0.18145	0.31481	0.11717	0.21776	0.088385	0.12519	0.11313	0.1582	0.12075	0.036891	-4.3417	-4.8167	-4.1104	-4.9229	-4.5687	-4.3646	-5.0229	-4.5458	-4.5437	-4.8875	-4.3729	-4.6896	-4.5958	-4.1479	-4.7208	-4.3938	132.589	138.870	170.411	407.073	416.637	318.366	245.753	339.682	165.611	141.113	376.241	425.888	86.621	167.217	125.808	437.798	0.00046644	0.00024794	0.00011907	1189.5	3.5314e-06	2.0282e-06	1255.1	245.77	4.7773e-06	3.3059e-06	306.05	86.282	68.164	19.519	3.5017e-06	27.829	0.00014315	0.00011723	3.2553e-05	1178.1	1.3752e-06	1.2658e-06	1249.1	246.64	1.3484e-06	1.2445e-06	306.97	85.914	67.806	19.747	1.2449e-06	27.914	112.870	199.670	165.421	93.574	229.073	136.033	93.384	100.578	223.477	251.926	100.186	106.799	107.153	114.035	236.407	113.325	-8191	255	
11353.191	1	1	0	0	0.29482	0.12316	0.047903	0.43301	0.061667	0.15895	0.28258	0.10011	0.060455	0.03286	0.1153	0.32013	0.32137	0.22903	0.091676	0.079048	-4.0625	-4.7312	-4.2833	-4.75	-4.5333	-4.0917	-4.9854	-4.3896	-4.5208	-4.7479	-4.3958	-4.6146	-4.6208	-4.1562	-4.7521	-4.6937	307.553	117.789	373.982	399.014	372.993	319.323	381.167	146.626	196.107	436.364	316.577	436.485	103.783	438.929	121.187	282.514	0.00053311	0.00034236	7.7509e-05	1192	3.6989e-06	4.0589e-06	1264	248.91	5.3687e-06	3.0722e-06	310.09	87.238	68.606	19.505	5.8731e-06	27.528	0.00014624	0.0001143	3.3547e-05	1179.7	1.371e-06	1.2864e-06	1251	247.45	1.3929e-06	1.2278e-06	307.44	86.211	67.964	19.733	1.2994e-06	27.98	116.734	170.176	197.151	93.516	243.890	250.698	93.408	100.651	208.391	269.694	100.294	106.671	107.413	113.854	225.104	113.578	-8191	255	
11353.310	1	1	0	0	0.036101	0.11386	0.12146	0.2747	0.14253	0.051973	0.32759	0.21621	0.13202	0.25488	0.15787	0.1444	0.08568	0.072789	0.11013	0.067636	-4.0229	-4.8271	-4.2063	-4.7125	-4.6083	-4.0917	-5.0125	-4.7542	-4.4437	-4.8187	-4.3542	-4.475	-4.7729	-4.2354	-4.7333	-4.7229	325.848	215.568	100.531	385.919	384.204	342.159	411.921	204.425	109.989	352.930	424.936	319.044	417.499	156.846	170.100	275.596	0.00049684	9.7406e-05	0.00014033	1185.6	3.8687e-06	2.4934e-06	1259.8	248.3	4.7852e-06	4.657e-06	309.13	85.956	68.205	19.481	3.0449e-06	27.599	0.00014724	0.00011774	3.3324e-05	1178.1	1.3576e-06	1.3043e-06	1248.8	247.38	1.3372e-06	1.259e-06	308.05	85.909	67.858	19.757	1.2745e-06	27.89	122.879	429.810	198.411	93.592	210.679	268.607	93.447	100.554	238.544	246.181	100.267	106.709	107.080	113.865	197.154	113.310	-8191	255	
11353.406	1	1	0	0	0.25495	0.20354	0.20454	0.037491	0.024283	0.27097	0.11209	0.27022	0.085733	0.19183	0.22885	0.14319	0.061459	0.17569	0.01739	0.020819	-3.8521	-4.8417	-4.5292	-4.7167	-4.7	-4.1583	-4.9688	-4.7562	-4.1167	-4.9146	-4.4812	-4.4479	-4.8938	-4.4	-4.6458	-4.6979	252.155	433.177	139.054	141.356	361.478	262.634	311.631	378.876	282.548	277.720	398.479	418.299	263.453	92.013	170.846	363.500	0.00052085	0.00013617	0.0001002	1191.7	3.4851e-06	2.9326e-06	1260.3	248.36	4.7961e-06	2.6294e-06	310.3	85.945	68.357	19.664	4.6529e-06	27.497	0.00014358	0.00011385	3.1953e-05	1177.9	1.3659e-06	1.2675e-06	1249.3	247.03	1.3253e-06	1.2656e-06	307.94	85.958	67.804	19.746	1.3058e-06	27.844	116.661	96.893	195.696	93.489	167.868	223.877	93.393	100.447	223.446	218.898	100.309	106.742	106.902	113.870	231.104	113.365	-8191	255	
11353.502	1	1	0	0	0.12464	0.066381	0.04005	0.1543	0.17981	0.27308	0.37453	0.15673	0.21998	0.088513	0.20325	0.11507	0.065523	0.41512	0.23628	0.14891	-3.8792	-4.8375	-4.5208	-4.3063	-4.8729	-4.2292	-4.6312	-4.8438	-4.2875	-4.8229	-4.6	-4.3958	-4.7188	-4.4417	-4.5292	-4.7292	152.879	311.737	142.256	377.476	308.779	142.863	414.833	169.126	328.258	184.334	364.424	205.448	273.159	100.104	117.470	308.130	0.00051464	0.00031401	6.2912e-05	1184.6	5.0792e-06	3.0781e-06	1255	247.27	7.2138e-06	1.0136e-06	307.12	85.861	68.298	19.469	4.8463e-06	27.655	0.00014692	0.00011664	3.1795e-05	1176.3	1.3405e-06	1.2701e-06	1247.2	246.84	1.357e-06	1.2611e-06	307.37	85.896	67.717	19.717	1.2614e-06	27.949	118.067	165.384	219.972	93.470	232.002	203.417	93.460	100.889	215.587	297.627	100.159	106.976	107.195	113.719	211.663	113.623	-8191	255	
11353.598	1	1	0	0	0.06768	0.18464	0.030567	0.39591	0.063297	0.17097	0.14958	0.0605	0.2829	0.18253	0.096606	0.1398	0.14397	0.13122	0.16039	0.10202	-3.9271	-4.7021	-4.4833	-4.4083	-4.7833	-4.3125	-4.5667	-4.7875	-4.2	-4.8125	-4.5896	-4.3021	-4.8542	-4.4479	-4.5271	-4.7292	250.413	313.210	117.978	85.955	226.425	256.538	225.485	247.067	356.444	102.155	347.469	192.196	333.921	93.956	86.948	212.069	0.00052381	0.00052664	5.3991e-05	1191.9	3.4927e-06	3.4361e-06	1270.2	248.82	4.9825e-06	2.0583e-06	310.81	87.141	68.642	19.5	4.3819e-06	27.656	0.0001471	0.00011443	3.2261e-05	1179.2	1.3573e-06	1.2932e-06	1251	247.29	1.3009e-06	1.247e-06	308.11	86.059	67.917	19.758	1.2815e-06	27.875	114.744	204.222	193.117	93.605	169.254	260.864	93.576	100.717	213.934	211.714	100.172	106.776	107.118	114.130	185.835	113.234	-8191	255	
11353.694	1	1	0	0	0.18501	0.1546	0.20362	0.17435	0.19739	0.10047	0.23837	0.2021	0.057596	0.083169	0.31271	0.11269	0.084454	0.098678	0.15994	0.063172	-3.9375	-4.7354	-4.6521	-4.3917	-4.975	-4.2604	-4.6354	-4.8979	-4.1875	-4.6708	-4.7396	-4.1271	-4.8979	-4.4917	-4.4646	-4.9854	266.646	100.875	320.737	426.661	352.870	193.758	390.309	401.031	246.329	331.267	106.034	355.252	119.148	183.261	274.190	390.430	0.00047623	0.00018876	4.9903e-05	1194.8	3.9895e-06	4.6463e-06	1267	248.59	4.0923e-06	2.62e-06	308.88	87.069	68.39	19.678	1.0966e-06	27.693	0.00014218	0.00011759	3.1623e-05	1179.7	1.3248e-06	1.24e-06	1249.7	247.32	1.3505e-06	1.2395e-06	308	86.283	67.981	19.82	1.273e-06	27.911	121.729	178.778	205.165	93.733	239.249	265.063	93.461	100.737	194.074	248.661	100.492	106.767	107.174	113.928	235.847	113.828	-8191	255	
11353.790	1	1	0	0	0.31302	0.16633	0.14033	0.059805	0.10202	0.059556	0.27853	0.10961	0.18832	0.12871	0.20468	0.085926	0.080904	0.14506	0.20105	0.15799	-4.0354	-4.5208	-4.7021	-4.3938	-4.6979	-4.4708	-4.7354	-5.0375	-4.2417	-4.5813	-4.8771	-4.4313	-4.7979	-4.5271	-4.2771	-4.8542	241.024	274.759	214.050	257.046	226.837	411.977	405.425	251.659	165.729	320.708	355.360	112.166	432.156	381.861	193.860	100.063	0.00053178	0.0003436	0.00010949	1193.8	3.5354e-06	2.4823e-06	1264	250.35	5.5765e-06	1.8214e-06	309.24	87.11	68.763	19.607	3.8033e-06	27.648	0.00014606	0.00010955	3.1025e-05	1178.6	1.3755e-06	1.1805e-06	1251	247.06	1.3065e-06	1.2246e-06	307.52	86.241	67.907	19.768	1.2594e-06	27.858	118.530	173.520	153.318	93.632	201.201	201.495	93.357	100.609	219.946	262.888	100.504	106.800	107.378	113.376	198.359	113.216	-8191	255	
11353.911	1	1	0	0	0.12937	0.14373	0.049624	0.22634	0.10458	0.28303	0.27964	0.25527	0.15919	0.13646	0.043604	0.063129	0.14454	0.19789	0.24852	0.065084	-4.0729	-4.3625	-4.7	-4.325	-4.5833	-4.6438	-4.5375	-4.9271	-4.5125	-4.5854	-5.0354	-4.3667	-4.7167	-4.7375	-4.2792	-4.9625	107.782	372.493	142.979	401.112	361.286	352.399	343.203	388.398	314.762	393.224	272.522	329.149	261.897	322.294	141.798	173.519	0.00054812	0.00021809	9.1754e-05	1195.8	3.5512e-06	4.8838e-06	1262.7	248.94	3.9242e-06	3.5273e-06	310.97	86.6	68.76	19.631	4.4561e-06	27.524	0.00014195	0.00010827	2.9964e-05	1176.9	1.3161e-06	1.2133e-06	1247	247.26	1.306e-06	1.1895e-06	307.56	85.851	67.93	19.787	1.2466e-06	27.871	117.024	178.489	164.018	93.830	211.749	233.595	93.525	100.578	203.735	239.961	100.227	106.889	107.294	113.722	223.060	113.329	-8191	255	
11354.007	1	1	0	0	0.13857	0.10724	0.061317	0.20364	0.18882	0.16951	0.19237	0.041673	0.0801	0.072549	0.15051	0.21539	0.045523	0.12148	0.18494	0.21646	-4.0417	-4.3125	-4.95	-4.4437	-4.7146	-4.6875	-4.4521	-4.7542	-4.4062	-4.4187	-4.8167	-4.3938	-4.5729	-4.7417	-4.4271	-4.8042	365.299	262.265	278.160	403.745	434.878	147.777	378.454	307.747	395.221	201.761	86.663	163.088	264.826	218.916	436.996	343.347	0.00052657	0.00030484	0.00014425	1188.2	3.2249e-06	5.1551e-06	1262.6	249	3.5453e-06	4.3431e-06	310.38	85.864	68.591	19.574	3.8299e-06	27.623	0.00014164	0.00010859	3.0479e-05	1176	1.2885e-06	1.2094e-06	1247.6	246.91	1.2574e-06	1.1893e-06	307.34	85.794	67.838	19.787	1.2154e-06	27.87	114.209	179.049	162.284	93.579	192.669	215.897	93.242	100.740	200.998	240.273	100.377	107.167	106.869	113.922	227.218	113.512	-8191	255	
11354.103	1	1	0	0	0.30877	0.082413	0.20645	0.087513	0.1699	0.02758	0.084886	0.099476	0.13491	0.16642	0.09609	0.15287	0.072598	0.17311	0.060273	0.1255	-4.2063	-4.2958	-4.6271	-4.5958	-4.5188	-4.7771	-4.3521	-4.7	-4.575	-4.3187	-4.9229	-4.45	-4.5083	-4.8958	-4.1208	-4.8792	112.107	126.725	207.069	85.031	360.163	346.115	369.723	426.078	381.603	113.289	288.837	324.116	188.818	382.604	228.988	314.245	0.00055265	0.0004581	7.2437e-05	1190.9	5.0743e-06	4.7501e-06	1264.5	249.2	4.908e-06	1.2665e-06	308.99	86.824	68.961	19.484	2.8721e-06	27.686	0.00014073	0.00010955	2.9001e-05	1176.1	1.2924e-06	1.1645e-06	1247.5	246.78	1.2853e-06	1.1946e-06	307.26	85.917	67.768	19.752	1.2161e-06	27.883	117.214	152.515	178.013	93.574	223.525	205.692	93.450	100.782	205.134	233.477	100.329	106.896	107.319	113.883	251.779	113.208	-8191	255	
11354.198	1	1	0	0	0.045356	0.19189	0.10339	0.30074	0.12621	0.17404	0.27284	0.065326	0.1913	0.43796	0.12469	0.12041	0.12655	0.11915	0.2013	0.35522	-4.2833	-4.35	-4.8896	-4.6354	-4.3938	-4.8896	-4.3229	-4.7208	-4.8812	-4.3083	-5.0229	-4.6604	-4.4458	-4.7917	-4.3729	-4.5854	440.525	158.433	142.189	422.054	181.453	371.191	391.500	315.736	439.323	247.508	381.408	171.726	232.308	146.306	376.767	396.272	0.00049676	0.00029719	6.0525e-05	1188.3	3.0856e-06	3.2407e-06	1261.5	249.84	5.3718e-06	2.9991e-06	309.22	86.813	68.761	19.547	2.4076e-06	27.589	0.00013721	0.00010995	3.0374e-05	1173.4	1.3186e-06	1.1828e-06	1244.7	247.01	1.2524e-06	1.1893e-06	306.9	85.988	67.705	19.744	1.2056e-06	27.846	112.727	159.933	179.457	93.650	235.510	220.590	93.680	100.844	196.610	260.177	100.266	106.880	107.310	114.303	255.138	113.394	-8191	255	
11354.318	1	1	0	0	0.18862	0.22535	0.18442	0.37099	0.081837	0.092319	0.068334	0.14927	0.21968	0.18559	0.24537	0.15755	0.24389	0.10522	0.17922	0.13592	-4.4208	-4.2937	-4.8812	-4.8063	-4.225	-4.8771	-4.4271	-4.5646	-4.7104	-4.2208	-4.7625	-4.5729	-4.2438	-4.8625	-4.4042	-4.6625	391.494	434.430	384.721	411.302	173.385	141.757	392.602	340.488	102.053	122.382	391.882	395.463	272.964	98.092	432.807	425.717	0.00054585	0.00013699	5.4198e-05	1182.8	3.4526e-06	2.6998e-06	1260.9	249.57	6.2078e-06	7.4193e-07	309.19	86.71	68.667	19.679	3.0921e-06	27.649	0.00013954	0.00010925	3.0474e-05	1170.6	1.2881e-06	1.1688e-06	1245.9	246.72	1.216e-06	1.1293e-06	306.8	85.944	67.884	19.768	1.1484e-06	27.839	121.560	231.898	167.460	93.776	243.737	230.656	93.463	100.790	201.452	260.933	100.461	107.190	107.280	113.845	194.756	113.884	-8191	255	
11354.390	1	1	0	0	0.12138	0.24938	0.097879	0.25016	0.028629	0.15999	0.15808	0.30831	0.15382	0.16215	0.078469	0.083942	0.11448	0.062419	0.14037	0.18349	-4.4604	-4.3229	-4.8063	-4.7125	-4.2771	-4.8854	-4.5917	-4.5583	-4.9938	-4.4333	-4.7583	-4.7271	-4.2417	-4.7312	-4.4708	-4.4833	351.504	199.313	113.596	365.529	124.531	239.426	335.949	321.614	116.535	149.388	348.037	145.222	361.512	118.525	341.973	333.034	0.0005333	0.00038815	8.7391e-05	1190.4	4.0855e-06	4.1403e-06	1261.5	249.5	6.7012e-06	4.2812e-06	309	86.24	68.666	19.561	2.3693e-06	27.536	0.00013725	0.00010383	3.0069e-05	1171.5	1.2449e-06	1.1056e-06	1242.3	246.65	1.1977e-06	1.1899e-06	306.9	85.797	67.772	19.679	1.2137e-06	27.847	114.330	182.857	126.847	93.658	241.587	238.295	93.622	100.911	212.754	258.539	100.479	106.454	107.050	114.184	225.656	113.492	-8191	255	
11354.486	1	1	0	0	0.19005	0.0975	0.14334	0.26104	0.14459	0.16083	0.24684	0.089414	0.18155	0.07386	0.19632	0.16975	0.20018	0.079797	0.33324	0.0382	-4.4958	-4.1333	-4.7104	-4.8146	-4.3104	-4.8708	-4.5979	-4.4875	-4.7292	-4.3521	-4.8187	-4.7271	-4.1083	-4.6771	-4.4958	-4.2292	121.506	170.174	271.909	381.149	118.138	256.397	95.205	85.893	137.518	126.123	431.781	318.135	335.915	132.430	308.629	128.455	0.00048855	0.0002856	5.9553e-05	1184.6	4.3466e-06	3.9239e-06	1258.9	249.18	3.1225e-06	4.2142e-06	308.65	86.86	68.566	19.525	4.5547e-06	27.705	0.00013455	0.00010989	2.9574e-05	1170.2	1.2965e-06	1.1701e-06	1241.2	246.46	1.2307e-06	1.1748e-06	306.46	85.842	67.731	19.718	1.204e-06	27.819	113.104	145.574	212.593	93.727	200.841	265.278	93.433	100.925	204.693	273.896	100.547	107.071	107.286	114.012	200.237	113.443	-8191	255	
11354.582	1	1	0	0	0.18735	0.12961	0.13707	0.24658	0.13773	0.20058	0.28868	0.17492	0.083309	0.14668	0.07807	0.058594	0.12126	0.16739	0.088356	0.10393	-4.5771	-4.2229	-4.45	-4.9	-4.2354	-4.7667	-4.8542	-4.3708	-4.8396	-4.4896	-4.5625	-4.9792	-4.2771	-4.9208	-4.5542	-4.3458	106.323	441.174	240.747	364.428	286.239	148.427	400.867	208.279	239.121	183.288	318.911	400.203	111.820	402.487	138.179	108.402	0.00051675	0.00033103	0.00012065	1188.6	4.6246e-06	2.9075e-06	1260.8	248.63	3.4325e-06	2.9541e-06	308.05	87.207	68.668	19.609	5.0005e-06	27.553	0.00013456	0.00010901	2.9859e-05	1169.9	1.2578e-06	1.1735e-06	1242	246.51	1.2218e-06	1.1943e-06	306.6	85.857	67.788	19.727	1.1829e-06	27.842	117.312	146.432	180.274	93.633	230.384	220.182	93.727	100.797	200.993	240.663	100.246	106.858	106.765	113.615	228.513	113.847	-8191	255	
11354.703	1	1	0	0	0.28564	0.16368	0.090448	0.17647	0.05719	0.2239	0.23566	0.16646	0.081598	0.2	0.11645	0.11001	0.13824	0.068911	0.096825	0.18294	-4.4125	-4.4167	-4.4042	-5.0208	-4.2271	-4.5958	-4.8896	-4.2	-4.6687	-4.4646	-4.5125	-4.9375	-4.1958	-4.7333	-4.8458	-4.2583	190.446	227.099	259.793	436.974	238.858	154.651	358.221	393.541	309.508	167.537	372.685	231.360	199.336	256.690	170.555	389.347	0.00046743	0.00035103	0.00010176	1187.5	3.9579e-06	2.1974e-06	1255.8	250.13	7.4816e-06	2.3417e-06	309.76	86.435	68.663	19.632	2.6158e-06	27.599	0.00013773	0.0001112	2.9431e-05	1171.8	1.3418e-06	1.1786e-06	1241.4	246.79	1.2601e-06	1.1492e-06	307.2	85.761	67.792	19.761	1.2149e-06	27.819	116.932	174.757	194.831	93.586	240.176	257.672	93.557	100.710	212.006	205.119	100.511	106.714	107.273	113.942	276.559	113.324	-8191	255	
11354.799	1	1	0	0	0.10758	0.10771	0.029738	0.25077	0.26469	0.13895	0.056833	0.26918	0.1065	0.055069	0.063414	0.046437	0.059579	0.067528	0.15365	0.12443	-4.3958	-4.6917	-4.2812	-5.0646	-4.4021	-4.5521	-4.925	-4.3708	-4.7333	-4.6417	-4.4271	-4.8792	-4.4146	-4.5125	-4.6542	-4.3521	373.084	337.288	384.265	392.172	194.781	287.840	190.415	344.736	268.142	103.083	149.630	391.196	343.260	106.756	189.407	119.303	0.00050873	0.0003596	9.2032e-05	1188.2	3.8105e-06	5.4528e-06	1260.6	249.52	5.6677e-06	7.2832e-07	306.65	86.813	68.827	19.518	4.0691e-06	27.471	0.00014129	0.00010948	2.9941e-05	1172.3	1.2689e-06	1.1981e-06	1243.6	246.58	1.2803e-06	1.1759e-06	306.07	85.831	67.837	19.713	1.1975e-06	27.824	116.855	177.650	185.087	93.606	215.255	215.171	93.386	100.764	232.456	170.327	100.338	106.945	106.834	113.926	211.825	113.723	-8191	255	
11354.895	1	1	0	0	0.03593	0.15945	0.1576	0.19471	0.21724	0.12821	0.24909	0.11182	0.22347	0.15494	0.17803	0.11522	0.20748	0.16677	0.12036	0.068507	-4.3646	-4.6	-4.3458	-4.9542	-4.5333	-4.525	-4.9208	-4.2646	-4.7562	-4.8042	-4.2167	-4.9646	-4.2708	-4.5	-4.7708	-4.2333	103.179	261.953	262.693	436.183	348.455	412.854	425.832	107.731	350.760	342.599	136.523	416.999	352.839	422.151	230.784	368.013	0.00050668	0.00026036	0.0001384	1185.6	2.0177e-06	3.2167e-06	1258	248.05	6.1639e-06	1.9814e-06	307.91	86.594	68.34	19.386	2.4053e-06	27.512	0.00013834	0.00010822	3.0992e-05	1173.5	1.3008e-06	1.2059e-06	1242.8	246.16	1.3111e-06	1.1619e-06	306.57	85.752	67.579	19.71	1.2556e-06	27.806	117.755	157.914	205.233	93.780	204.973	219.039	93.683	100.844	214.581	264.325	100.154	106.706	106.939	114.367	234.752	113.501	-8191	255	
11354.991	1	1	0	0	0.19646	0.12885	0.10914	0.17265	0.10127	0.069995	0.20834	0.17149	0.042123	0.25554	0.14631	0.14077	0.29106	0.11876	0.13916	0.053127	-4.3979	-4.7854	-4.3	-5.1646	-4.725	-4.3417	-5.1021	-4.3812	-4.5813	-4.6646	-4.2896	-4.8146	-4.5854	-4.3042	-4.8854	-4.2875	143.019	207.854	203.035	84.006	109.708	249.308	86.952	228.257	434.179	360.031	396.871	118.203	89.153	129.283	180.355	377.765	0.00049703	0.000314	0.00011445	1188.1	4.4242e-06	1.3901e-06	1257.7	248.15	4.2489e-06	2.1986e-06	309.91	86.409	68.46	19.416	3.2975e-06	27.764	0.00014012	0.00011272	3.114e-05	1173.3	1.3476e-06	1.1897e-06	1242.2	246.59	1.2814e-06	1.1754e-06	306.93	85.857	67.662	19.715	1.2216e-06	27.9	114.454	194.644	166.097	93.600	234.924	222.101	93.534	100.920	191.605	265.728	100.358	106.772	107.471	113.824	215.133	113.226	-8191	255	
11355.087	1	1	0	0	0.19837	0.036006	0.14769	0.17565	0.066267	0.20329	0.06234	0.19906	0.043305	0.027881	0.11213	0.10939	0.29054	0.13321	0.16816	0.1417	-4.1667	-4.7812	-4.2229	-5.0708	-4.5229	-4.2833	-5.0563	-4.55	-4.475	-4.8167	-4.2458	-4.7333	-4.5667	-4.3458	-4.8562	-4.4708	332.628	391.229	415.787	96.412	427.935	242.296	353.987	434.232	383.836	230.924	431.291	409.592	391.246	103.910	101.360	380.132	0.00047484	0.0002415	0.00012671	1188.4	4.7264e-06	1.9897e-06	1262.4	247.99	4.8662e-06	1.5754e-06	309.42	86.241	68.576	19.591	6.656e-06	27.567	0.00014186	0.00011305	3.1425e-05	1174.6	1.3339e-06	1.1979e-06	1242.8	246.54	1.2969e-06	1.1857e-06	307.06	85.901	67.824	19.729	1.2193e-06	27.841	118.758	200.906	165.261	93.599	248.549	202.480	93.491	100.778	191.521	231.446	100.462	106.747	107.309	113.855	207.751	113.354	-8191	255	
11355.184	1	1	0	0	0.1162	0.34971	0.16017	0.27536	0.16101	0.063215	0.18148	0.08923	0.12275	0.1357	0.12523	0.15654	0.2777	0.10191	0.28783	0.064938	-4.3396	-4.925	-4.2729	-4.8812	-4.4875	-4.0417	-5.0479	-4.6167	-4.3875	-4.7417	-4.3208	-4.6625	-4.7042	-4.1562	-4.7646	-4.3542	236.941	92.464	298.146	427.580	334.309	239.904	296.899	333.994	283.622	416.947	110.357	431.472	414.693	173.511	315.397	423.043	0.00044449	0.00034562	0.00013599	1189.9	3.8933e-06	1.3927e-06	1260.3	248.14	5.1027e-06	2.3161e-06	308.4	86.445	68.449	19.559	1.3277e-06	27.561	0.00014416	0.00010929	3.2673e-05	1173.9	1.3024e-06	1.1997e-06	1244.3	246.39	1.2626e-06	1.1597e-06	306.43	85.893	67.768	19.675	1.2186e-06	27.78	118.295	143.225	189.459	93.719	219.990	297.734	93.748	100.687	206.831	225.120	100.467	106.934	107.081	114.255	208.506	113.704	-8191	255	
11355.280	1	1	0	0	0.15566	0.13493	0.091338	0.16078	0.14116	0.18201	0.12134	0.079504	0.21116	0.018212	0.068954	0.13875	0.16425	0.12601	0.096235	0.18666	-3.9729	-4.9292	-4.2042	-4.6417	-4.7021	-4.1042	-5.0375	-4.5437	-4.4458	-4.8792	-4.4229	-4.4896	-4.8083	-4.1979	-4.7438	-4.7333	226.846	304.188	343.910	386.066	415.063	388.254	380.525	348.039	261.948	227.202	425.284	363.082	207.931	171.107	324.203	128.403	0.00055505	0.0001359	0.00011886	1187.2	4.6408e-06	4.7235e-06	1263.1	249.03	3.6847e-06	1.7813e-06	309.74	85.913	68.382	19.641	3.458e-06	27.551	0.00014244	0.00010761	3.1438e-05	1171	1.2638e-06	1.1937e-06	1242.8	246.59	1.2566e-06	1.144e-06	307.07	85.427	67.591	19.757	1.1571e-06	27.729	117.612	175.115	169.355	93.684	240.469	225.432	93.617	100.720	227.263	246.867	100.204	106.833	107.367	114.186	176.581	113.348	-8191	255	
11355.399	1	1	0	0	0.08692	0.24262	0.051094	0.29439	0.062201	0.16607	0.10728	0.24031	0.20726	0.16684	0.10859	0.081693	0.20543	0.29946	0.28736	0.26595	-3.9062	-4.9583	-4.3187	-4.5896	-4.6833	-4.1917	-4.9396	-4.7667	-4.1937	-4.8979	-4.3708	-4.5563	-4.8438	-4.2354	-4.7167	-4.7667	269.926	306.748	300.506	85.255	102.788	117.583	366.772	218.585	343.121	118.427	411.294	246.684	425.085	415.700	209.045	428.163	0.00054534	0.00019578	3.1107e-05	1188	4.5951e-06	2.1633e-06	1258.9	248.46	6.0472e-06	1.6692e-06	310.45	86.743	68.815	19.581	3.9877e-06	27.514	0.00013529	0.00011175	2.9519e-05	1171.5	1.2844e-06	1.1641e-06	1242	246.58	1.2792e-06	1.1436e-06	307.21	85.991	67.816	19.716	1.1728e-06	27.831	119.893	192.122	166.895	93.556	222.851	252.201	93.558	100.924	210.549	267.136	100.486	106.700	107.155	114.012	206.032	113.388	-8191	255	
11355.495	1	1	0	0	0.052796	0.11578	0.15585	0.13904	0.092443	0.020108	0.1462	0.2372	0.1039	0.044806	0.22152	0.11109	0.22003	0.18162	0.10446	0.23674	-3.9729	-4.8708	-4.4021	-4.5417	-4.9104	-4.2167	-4.8	-4.8229	-4.1729	-4.7771	-4.6417	-4.3521	-4.9563	-4.3917	-4.5271	-4.8146	104.805	121.600	258.364	409.452	220.860	374.249	366.518	373.808	242.471	260.622	97.533	166.125	408.869	371.419	233.576	317.228	0.00053954	0.00023265	3.8473e-05	1189.5	3.9319e-06	1.3233e-06	1259.6	249.13	4.3457e-06	7.7373e-07	309.4	86.514	68.778	19.615	2.5149e-06	27.64	0.0001404	0.00010535	3.0179e-05	1172.8	1.2874e-06	1.1791e-06	1241.3	246.84	1.27e-06	1.1426e-06	307.04	85.779	67.719	19.772	1.1603e-06	27.857	112.027	186.552	142.192	93.760	230.728	257.186	93.442	100.627	235.190	272.996	100.506	106.819	107.199	113.937	208.891	113.329	-8191	255	
11355.591	1	1	0	0	0.11151	0.18301	0.10365	0.23005	0.14022	0.05905	0.33338	0.14063	0.31722	0.20402	0.24149	0.19312	0.15169	0.20766	0.24637	0.17878	-3.9604	-4.7667	-4.4958	-4.4042	-4.8229	-4.4563	-4.7875	-4.8604	-4.2708	-4.6375	-4.6771	-4.3708	-4.7542	-4.4	-4.4521	-4.8792	408.112	270.348	251.887	384.424	309.540	408.305	149.904	427.332	379.417	129.226	413.379	407.687	92.784	99.436	266.701	321.146	0.00046842	0.00027165	0.00012196	1182	3.8231e-06	2.8045e-06	1259	249.52	5.5664e-06	2.3677e-06	309.99	87.136	68.978	19.694	2.3617e-06	27.757	0.00013922	0.00010959	3.0382e-05	1170.7	1.2369e-06	1.2141e-06	1243	247.2	1.2843e-06	1.1531e-06	307.42	86.057	67.902	19.773	1.2112e-06	27.887	114.675	190.664	177.820	93.661	227.020	232.613	93.527	100.847	217.630	283.694	100.580	106.711	107.495	114.208	212.162	113.376	-8191	255	
11355.687	1	1	0	0	0.071068	0.19418	0.29112	0.080191	0.17238	0.10777	0.26309	0.27424	0.10595	0.23347	0.085436	0.072613	0.053751	0.24534	0.12258	0.053451	-3.9	-4.8271	-4.4854	-4.3792	-4.6667	-4.5125	-4.7146	-4.9292	-4.3875	-4.6104	-4.9271	-4.3646	-4.8771	-4.3854	-4.3562	-4.9271	376.744	123.646	217.097	432.077	304.056	328.862	389.502	426.101	169.612	189.976	432.405	119.212	301.441	344.556	198.008	349.230	0.00051481	0.00023203	0.0001243	1193.6	2.822e-06	1.8656e-06	1265.7	251.27	4.4264e-06	3.8121e-06	310.63	86.882	68.788	19.715	3.3296e-06	27.985	0.00014078	0.00010669	2.9296e-05	1174.4	1.2609e-06	1.2173e-06	1245.8	247.73	1.2494e-06	1.1703e-06	307.4	86.056	67.932	19.832	1.2154e-06	28.019	118.716	162.290	230.579	93.950	250.195	246.126	93.602	100.657	230.266	213.517	100.397	107.075	107.630	114.382	225.503	113.705	-8191	255	
11355.783	1	1	0	0	0.15246	0.1335	0.1586	0.30026	0.21967	0.14077	0.16713	0.256	0.16349	0.077212	0.17974	0.34306	0.1036	0.13922	0.12205	0.20062	-3.9625	-4.6521	-4.7292	-4.2229	-4.7562	-4.5125	-4.6771	-4.9688	-4.3458	-4.5188	-5.0667	-4.1854	-4.7688	-4.4833	-4.25	-4.9542	295.822	363.729	207.495	94.586	147.135	299.005	352.952	385.763	99.162	137.312	357.376	393.261	155.379	408.654	184.976	320.812	0.00047376	0.0003184	8.8593e-05	1188.8	4.9545e-06	2.6223e-06	1265.9	250.02	5.3485e-06	3.4374e-06	311.18	87.439	68.943	19.693	4.4911e-06	27.768	0.00013867	0.00010614	3.0122e-05	1172.6	1.2938e-06	1.1946e-06	1246.3	247.62	1.2631e-06	1.2126e-06	308.27	86.258	67.99	19.823	1.2132e-06	27.945	114.770	183.553	186.562	93.742	224.386	255.728	93.588	100.600	228.842	259.923	100.250	106.965	107.075	113.658	224.117	113.511	-8191	255	
11355.879	1	1	0	0	0.17418	0.095845	0.094086	0.15282	0.063217	0.22509	0.37623	0.25353	0.1263	0.24194	0.061552	0.29113	0.27855	0.084649	0.078791	0.15643	-4.1	-4.575	-4.7708	-4.3521	-4.6813	-4.6208	-4.4375	-4.9792	-4.4271	-4.3396	-4.925	-4.375	-4.6146	-4.6646	-4.1042	-4.8521	276.470	109.409	441.120	382.639	340.489	93.071	389.472	426.808	334.880	272.464	348.470	366.221	276.984	289.070	255.034	428.742	0.00050415	0.00039998	9.2386e-05	1194	3.6954e-06	2.0024e-06	1266.7	250.78	5.0074e-06	2.3819e-06	310.81	86.993	68.457	19.638	4.2963e-06	27.929	0.00014082	0.00011352	3.0539e-05	1175.6	1.2753e-06	1.1986e-06	1247.3	247.85	1.265e-06	1.2218e-06	308.26	86.144	68.03	19.845	1.2e-06	27.991	118.435	167.381	174.764	93.738	251.509	280.286	93.586	100.741	223.093	252.638	100.529	106.810	107.120	114.115	230.534	113.320	-8191	255	
11356.000	1	1	0	0	0.1345	0.22532	0.17492	0.11717	0.14845	0.17813	0.095503	0.2579	0.15258	0.15722	0.15663	0.063131	0.24105	0.10898	0.084834	0.10309	-4.1625	-4.3021	-4.7917	-4.3938	-4.6208	-4.6458	-4.3896	-4.85	-4.4437	-4.4792	-4.9896	-4.2688	-4.5354	-4.7604	-4.2208	-4.7396	222.912	87.655	151.683	102.302	205.114	379.558	385.070	417.535	263.956	309.266	332.641	362.012	91.816	303.078	261.586	197.078	0.00052321	0.00037483	0.00010396	1197	3.9441e-06	4.6321e-06	1269.1	251.28	4.6052e-06	3.8599e-06	311.43	87.104	69.065	19.95	2.2625e-06	27.79	0.00013875	0.00011019	3.0027e-05	1178.5	1.3035e-06	1.1751e-06	1250.2	248.36	1.2563e-06	1.207e-06	308.66	86.391	68.18	20.003	1.2951e-06	28.075	113.477	187.892	201.781	93.696	236.577	241.358	93.658	100.470	228.758	239.571	100.603	106.745	107.276	113.918	223.162	113.510	-8191	255	
11356.094	1	1	0	0	0.14098	0.016058	0.037207	0.55004	0.24911	0.17493	0.077275	0.23726	0.066735	0.075187	0.095364	0.14352	0.078915	0.23503	0.25471	0.23772	-4.2271	-4.3604	-4.7771	-4.2292	-4.5687	-4.8104	-4.3979	-4.8875	-4.3521	-4.0188	-4.9646	-4.3646	-4.4979	-4.6875	-4.1687	-4.8354	159.506	94.361	230.500	414.121	207.085	93.064	356.951	406.297	267.519	261.980	313.952	419.076	248.021	378.281	246.857	249.141	0.00047251	0.00026226	8.5147e-05	1199	3.7845e-06	6.7147e-06	1272.9	251.59	3.3153e-06	9.923e-07	310.94	87.557	69.184	19.831	4.7319e-06	27.958	0.00014148	0.00011229	3.0622e-05	1181.3	1.3597e-06	1.2371e-06	1252.3	249.52	1.298e-06	1.2802e-06	309.29	86.662	68.28	19.937	1.2897e-06	28.122	113.043	196.847	208.102	93.740	198.469	222.382	93.613	100.799	225.581	254.626	100.808	107.028	107.166	114.002	220.556	113.492	-8191	255	
11356.191	1	1	0	0	0.29792	0.19817	0.10114	0.11978	0.13921	0.18312	0.21062	0.22807	0.026795	0.12228	0.21989	0.1484	0.17782	0.079228	0.30496	0.19127	-4.2042	-4.1438	-4.8583	-4.625	-4.2667	-4.7562	-4.6396	-4.6687	-4.5917	-4.15	-4.7937	-4.5563	-4.4917	-4.7875	-4.3375	-4.7417	365.821	335.425	204.972	384.777	310.894	291.047	129.113	353.793	92.556	301.672	335.948	441.002	190.899	89.137	257.711	392.930	0.00051569	6.5233e-05	8.8119e-05	1197.1	3.2384e-06	2.8603e-06	1270.5	252.09	4.6414e-06	1.6485e-06	312.1	87.242	69.548	19.753	1.7012e-06	27.872	0.00013659	0.00011182	3.0379e-05	1181.4	1.3175e-06	1.2106e-06	1251.4	248.7	1.2865e-06	1.2574e-06	309.43	86.6	68.422	19.972	1.2622e-06	28.13	118.780	196.610	179.117	93.651	235.635	212.670	93.586	100.892	205.686	226.788	100.443	106.769	107.185	114.093	191.617	113.688	-8191	255	
11356.264	1	1	0	0	0.1121	0.30723	0.11758	0.072685	0.12409	0.17497	0.18529	0.056143	0.087566	0.025503	0.088828	0.038215	0.21862	0.085523	0.03061	0.10943	-4.4417	-4.2479	-4.7771	-4.8187	-4.4375	-4.95	-4.7	-4.5646	-4.8	-4.2583	-4.775	-4.5104	-4.3292	-4.9563	-4.3187	-4.5458	313.223	347.285	410.919	316.993	323.935	396.195	428.321	339.350	163.233	236.035	157.157	360.917	416.047	143.711	87.792	282.739	0.00051768	0.00036928	0.00011229	1200.5	3.14e-06	3.4266e-06	1271.7	252.53	5.7182e-06	7.5496e-07	311.7	86.818	69.178	19.786	6.6263e-06	27.918	0.00013835	0.00011353	3.2151e-05	1181.8	1.3549e-06	1.209e-06	1251.3	249.25	1.2706e-06	1.256e-06	309.6	86.272	68.364	20.024	1.2307e-06	28.08	116.363	166.860	157.274	93.605	210.424	247.261	93.585	100.508	211.942	260.691	100.492	106.915	107.179	113.825	215.441	113.114	-8191	255	
11356.383	1	1	0	0	0.1466	0.099167	0.22427	0.25721	0.26978	0.037374	0.18909	0.2531	0.07857	0.17459	0.196	0.21853	0.37877	0.081108	0.068961	0.052677	-4.3979	-4.1417	-4.7063	-4.8229	-4.2896	-4.8021	-4.7021	-4.6479	-4.8479	-4.2167	-4.6417	-4.7125	-4.2167	-4.9521	-4.3604	-4.3958	136.692	314.745	155.832	384.195	157.406	199.787	428.617	375.692	364.599	358.663	347.801	142.912	90.511	386.374	227.453	206.085	0.00047057	0.00022409	9.333e-05	1200.7	5.2106e-06	1.9735e-06	1275.2	252.11	5.5967e-06	3.4616e-06	313.27	87.082	69.286	19.836	3.1194e-06	27.839	0.00013874	0.0001118	3.1167e-05	1182.9	1.314e-06	1.18e-06	1254.1	248.83	1.2801e-06	1.2211e-06	309.54	86.488	68.55	19.951	1.2155e-06	28.083	118.169	206.414	182.332	93.759	230.025	285.593	93.581	100.730	217.623	264.110	100.386	106.876	107.116	114.108	220.448	113.477	-8191	255	
11356.479	1	1	0	0	0.14979	0.13074	0.22039	0.18378	0.16426	0.13003	0.11551	0.51609	0.089747	0.048743	0.093994	0.10249	0.1598	0.21522	0.30596	0.10055	-4.4896	-4.3396	-4.7937	-4.8562	-4.2271	-4.7417	-4.5229	-4.5854	-4.9146	-4.1979	-4.6958	-4.7937	-4.1583	-4.675	-4.7083	-4.3229	209.594	166.193	247.255	347.968	361.764	152.101	361.881	108.281	294.293	184.106	93.652	354.023	111.249	383.835	127.902	223.590	0.00049773	0.00028698	0.0001234	1201.9	3.1265e-06	2.5513e-06	1272.7	252.78	5.6573e-06	2.9273e-06	311.6	87.913	69.569	19.851	4.4243e-06	27.729	0.00013786	0.00011397	3.0927e-05	1182.9	1.3222e-06	1.2311e-06	1252.6	249.29	1.3102e-06	1.2504e-06	309.1	86.692	68.563	19.977	1.1971e-06	28.074	118.476	121.452	177.145	93.721	227.499	241.335	93.671	100.588	223.333	233.809	100.455	106.422	107.388	113.978	209.555	113.543	-8191	255	
11356.575	1	1	0	0	0.1954	0.051874	0.14447	0.09085	0.124	0.15707	0.12797	0.27913	0.092175	0.19457	0.15794	0.27893	0.084735	0.13791	0.10777	0.041157	-4.425	-4.4688	-4.5833	-4.9021	-4.0354	-4.6188	-4.55	-4.3354	-4.7667	-4.2375	-4.4854	-4.8667	-4.0771	-4.6854	-4.6854	-4.2979	195.770	127.163	409.631	147.147	114.935	155.384	369.884	406.686	350.452	435.989	423.434	380.433	340.087	155.982	219.834	115.436	0.00050667	0.00028883	8.3386e-05	1199.5	3.6512e-06	3.0437e-06	1271.5	252.69	5.0912e-06	3.5169e-06	312.03	87.301	68.867	19.755	2.6519e-06	27.872	0.00014091	0.00010916	3.1165e-05	1181.3	1.3324e-06	1.2369e-06	1252.1	249.48	1.2814e-06	1.2284e-06	309.56	86.449	68.238	19.92	1.1859e-06	28.056	115.768	180.282	165.101	93.571	226.294	202.569	93.362	100.961	205.162	267.966	100.207	107.199	107.168	113.858	227.181	113.523	-8191	255	
11356.671	1	1	0	0	0.11072	0.097262	0.23385	0.16362	0.028839	0.097498	0.24589	0.20143	0.083417	0.19094	0.25399	0.062033	0.051266	0.085018	0.11372	0.11435	-4.35	-4.175	-4.4688	-4.9708	-4.3646	-4.7167	-4.7625	-4.3458	-4.8292	-4.5604	-4.4521	-4.9375	-4.3938	-4.7646	-4.8458	-4.1354	150.661	87.109	157.281	352.888	153.284	111.052	359.128	376.413	418.819	240.065	226.412	385.545	442.698	85.130	309.687	194.445	0.00053329	0.00027162	0.00012454	1199.5	5.2293e-06	5.3181e-06	1268.8	253.1	5.5723e-06	3.1949e-06	311.7	87.374	69.319	19.865	5.8282e-06	27.723	0.00013655	0.00011514	3.0825e-05	1179.7	1.3255e-06	1.2092e-06	1250.9	249.23	1.2974e-06	1.1649e-06	309.33	86.686	68.413	19.905	1.2383e-06	28.055	112.704	173.041	216.254	93.625	220.028	263.687	93.478	100.713	208.328	256.683	100.496	106.622	106.662	113.952	239.974	113.474	-8191	255	
11356.792	1	1	0	0	0.095313	0.12629	0.14604	0.31844	0.16822	0.046924	0.19417	0.24978	0.10891	0.083324	0.12594	0.20879	0.11715	0.13418	0.08825	0.034828	-4.3063	-4.5396	-4.1271	-5.1104	-4.375	-4.475	-4.8979	-4.3063	-4.5896	-4.3458	-4.3646	-4.9771	-4.2812	-4.2854	-4.7937	-4.2708	175.001	87.466	326.047	423.687	87.877	229.796	395.868	402.380	417.612	369.435	104.472	329.659	325.733	129.338	181.651	376.438	0.00050954	0.00028731	0.00010971	1198	4.484e-06	3.1825e-06	1268.9	252.81	5.1268e-06	2.9988e-06	313.4	87.888	69.622	19.877	2.9095e-06	27.744	0.00014171	0.00011088	3.2238e-05	1181.1	1.3714e-06	1.2173e-06	1251.7	249.23	1.3093e-06	1.2203e-06	309.81	86.66	68.43	19.989	1.2798e-06	28.017	119.194	156.190	150.050	93.812	247.810	221.630	93.507	100.587	198.105	244.435	100.511	106.931	107.257	114.242	172.419	113.481	-8191	255	
11356.864	1	1	0	0	0.10501	0.17675	0.087175	0.28549	0.18758	0.15899	0.25304	0.11475	0.067821	0.18827	0.10644	0.12917	0.09249	0.098174	0.081105	0.074473	-4.3104	-4.5375	-4.1687	-4.9313	-4.3375	-4.5	-4.9146	-4.3333	-4.6438	-4.7354	-4.4271	-4.8688	-4.4479	-4.3875	-4.7312	-4.4417	171.285	117.821	94.096	367.988	204.303	409.799	406.577	367.364	118.763	385.272	395.343	175.380	395.598	277.961	393.595	382.106	0.00053559	0.00036787	0.00012366	1200.4	2.3406e-06	4.8687e-06	1269.6	252.05	5.0091e-06	3.6221e-06	311.63	87.466	69.437	19.809	3.8111e-06	27.972	0.0001465	0.00011341	3.1713e-05	1180.9	1.3317e-06	1.2696e-06	1251.5	249.45	1.3193e-06	1.2508e-06	309.66	86.487	68.482	19.959	1.2401e-06	28.084	111.487	176.246	194.291	93.785	211.329	256.671	93.444	100.632	206.982	223.431	100.345	106.887	107.280	113.684	199.449	113.639	-8191	255	
11356.960	1	1	0	0	0.27363	0.22027	0.08512	0.17494	0.30519	0.10641	0.29892	0.29211	0.075511	0.15754	0.099418	0.26489	0.38979	0.1642	0.15253	0.26104	-4.2042	-4.7667	-4.1208	-4.8396	-4.4917	-4.3646	-4.95	-4.4021	-4.5563	-4.6729	-4.3438	-4.7729	-4.3729	-4.4833	-4.8021	-4.4437	218.669	294.455	228.346	99.762	131.819	175.448	105.892	437.952	386.406	290.434	171.089	378.625	431.784	292.294	398.676	318.610	0.00048971	0.00040707	7.557e-05	1202.9	5.4434e-06	3.7287e-06	1275.4	252.75	7.331e-06	3.8142e-06	313.44	87.871	68.902	19.706	4.0395e-06	28.04	0.00013993	0.0001145	3.0664e-05	1181.3	1.3223e-06	1.2716e-06	1252.6	249.64	1.3723e-06	1.2225e-06	309.54	86.743	68.178	19.944	1.2881e-06	28.198	119.662	149.472	189.555	93.781	216.774	221.090	93.530	100.880	223.521	255.197	100.325	106.625	107.166	113.919	208.253	113.501	-8191	255	
11357.080	1	1	0	0	0.19195	0.16572	0.16259	0.017775	0.1213	0.13342	0.006262	0.22749	0.3219	0.11671	0.065474	0.11589	0.13676	0.2061	0.13965	0.11215	-4.275	-4.8042	-4.2104	-4.8729	-4.4917	-4.2167	-4.9271	-4.575	-4.5542	-4.7229	-4.3604	-4.8104	-4.5229	-4.3167	-4.7646	-4.4563	113.178	156.632	161.035	437.386	248.389	304.331	319.513	394.310	126.211	229.895	442.133	361.846	372.844	341.440	249.678	428.392	0.00050185	0.0004835	4.9879e-05	1199.8	5.4293e-06	4.3594e-06	1268.7	251.75	4.9083e-06	3.238e-06	313.59	87.842	69.208	19.704	3.5368e-06	27.835	0.00014313	0.00011639	3.2648e-05	1181.6	1.3774e-06	1.2633e-06	1252.4	249.26	1.3722e-06	1.2109e-06	309.87	86.635	68.472	19.928	1.2606e-06	28.125	117.536	139.143	177.390	93.557	227.856	215.728	93.695	100.729	221.920	223.830	100.569	107.102	106.865	114.226	178.960	113.284	-8191	255	
#DATA ENDS
