BOXY.EXE: ISS Imagent and Oximeter Data Acquisition Program Version 0.80
Ascii Record File

#ACQ INFORMATION
2  Detector Channels 
16  External MUX Channels 
1  Auxiliary Channels 
5000  Waveform (CCF) Frequency (Hz)
1  Waveforms Skipped 
30  Waveforms Averaged 
1  Cycles Averaged 
16  Acquisitions per Waveform 
10.0806  Updata Rate (Hz) 

#FILE INFORMATION
TRUE -- External MUX Channel results are PARSED.
FALSE -- AC DC and Phase are NOT grouped.
TRUE -- Companion Program Settings File CREATED.
FALSE -- AC data not excluded
FALSE -- DC data not excluded
FALSE -- Phase data not excluded
FALSE -- Auxillary Chn. data not excluded
Tab delimiters

#CALIBRATION STATE
TRUE -- Waveform Calibration Values APPLIED.


#AUX CALIBRATION VALUES
Val Type	aux-1	

Term	1.0000e+00	
Factor	0.0000e+00	


#WF CALIBRATION VALUES
A = Detector Channel
Val Type	A-AC1	A-AC2	A-AC3	A-AC4	A-AC5	A-AC6	A-AC7	A-AC8	A-AC9	A-AC10	A-AC11	A-AC12	A-AC13	A-AC14	A-AC15	A-AC16	A-DC1	A-DC2	A-DC3	A-DC4	A-DC5	A-DC6	A-DC7	A-DC8	A-DC9	A-DC10	A-DC11	A-DC12	A-DC13	A-DC14	A-DC15	A-DC16	A-Ph1	A-Ph2	A-Ph3	A-Ph4	A-Ph5	A-Ph6	A-Ph7	A-Ph8	A-Ph9	A-Ph10	A-Ph11	A-Ph12	A-Ph13	A-Ph14	A-Ph15	A-Ph16	

Term	0.00000e+00	0.00000e+00	0.00000e+00	0.00000e+00	0.00000e+00	0.00000e+00	0.00000e+00	0.00000e+00	0.00000e+00	0.00000e+00	0.00000e+00	0.00000e+00	0.00000e+00	0.00000e+00	0.00000e+00	0.00000e+00	0.00000e+00	0.00000e+00	0.00000e+00	0.00000e+00	0.00000e+00	0.00000e+00	0.00000e+00	0.00000e+00	0.00000e+00	0.00000e+00	0.00000e+00	0.00000e+00	0.00000e+00	0.00000e+00	0.00000e+00	0.00000e+00	0.00000e+00	0.00000e+00	0.00000e+00	0.00000e+00	0.00000e+00	0.00000e+00	0.00000e+00	0.00000e+00	0.00000e+00	0.00000e+00	0.00000e+00	0.00000e+00	0.00000e+00	0.00000e+00	0.00000e+00	0.00000e+00	
Factor	1.00000e+00	1.00000e+00	1.00000e+00	1.00000e+00	1.00000e+00	1.00000e+00	1.00000e+00	1.00000e+00	1.00000e+00	1.00000e+00	1.00000e+00	1.00000e+00	1.00000e+00	1.00000e+00	1.00000e+00	1.00000e+00	1.00000e+00	1.00000e+00	1.00000e+00	1.00000e+00	1.00000e+00	1.00000e+00	1.00000e+00	1.00000e+00	1.00000e+00	1.00000e+00	1.00000e+00	1.00000e+00	1.00000e+00	1.00000e+00	1.00000e+00	1.00000e+00	X	X	X	X	X	X	X	X	X	X	X	X	X	X	X	X	

B = Detector Channel
Val Type	B-AC1	B-AC2	B-AC3	B-AC4	B-AC5	B-AC6	B-AC7	B-AC8	B-AC9	B-AC10	B-AC11	B-AC12	B-AC13	B-AC14	B-AC15	B-AC16	B-DC1	B-DC2	B-DC3	B-DC4	B-DC5	B-DC6	B-DC7	B-DC8	B-DC9	B-DC10	B-DC11	B-DC12	B-DC13	B-DC14	B-DC15	B-DC16	B-Ph1	B-Ph2	B-Ph3	B-Ph4	B-Ph5	B-Ph6	B-Ph7	B-Ph8	B-Ph9	B-Ph10	B-Ph11	B-Ph12	B-Ph13	B-Ph14	B-Ph15	B-Ph16	

Term	0.00000e+00	0.00000e+00	0.00000e+00	0.00000e+00	0.00000e+00	0.00000e+00	0.00000e+00	0.00000e+00	0.00000e+00	0.00000e+00	0.00000e+00	0.00000e+00	0.00000e+00	0.00000e+00	0.00000e+00	0.00000e+00	0.00000e+00	0.00000e+00	0.00000e+00	0.00000e+00	0.00000e+00	0.00000e+00	0.00000e+00	0.00000e+00	0.00000e+00	0.00000e+00	0.00000e+00	0.00000e+00	0.00000e+00	0.00000e+00	0.00000e+00	0.00000e+00	-2.15620e+02	-1.31657e+02	-1.25146e+02	-1.81704e+02	-8.15054e+01	-6.68657e+01	-1.57588e+02	-1.62015e+02	-8.60096e+01	-6.69782e+01	-1.71217e+02	-1.72824e+02	-1.83390e+02	-1.77011e+02	-7.37979e+01	-1.49785e+02	
Factor	4.58921e-05	1.65953e-04	4.60063e-05	1.49255e-01	1.93368e-06	1.78685e-06	1.64339e-01	5.03331e-02	2.24651e-06	1.77573e-06	8.09569e-02	3.27481e-02	3.51869e-02	8.81024e-03	1.97165e-06	1.24698e-02	2.73434e-05	7.93411e-05	2.24816e-05	7.78062e-02	6.25384e-07	9.38907e-07	8.07401e-02	2.62746e-02	6.23511e-07	9.41288e-07	4.12738e-02	1.66736e-02	1.85840e-02	4.65689e-03	7.32170e-07	6.40504e-03	X	X	X	X	X	X	X	X	X	X	X	X	X	X	X	X	



#DISTANCE SETTINGS
A = Detector Channel
A-1	A-2	A-3	A-4	A-5	A-6	A-7	A-8	A-9	A-10	A-11	A-12	A-13	A-14	A-15	A-16	

2.5000e+00	3.0000e+00	2.5000e+00	3.0000e+00	2.0000e+00	3.0000e+00	1.5000e+00	3.0000e+00	3.0000e+00	3.0000e+00	3.0000e+00	3.0000e+00	3.0000e+00	3.0000e+00	1.5000e+00	3.0000e+00	

B = Detector Channel
B-1	B-2	B-3	B-4	B-5	B-6	B-7	B-8	B-9	B-10	B-11	B-12	B-13	B-14	B-15	B-16	

1.0000e+01	1.0000e+01	1.0000e+01	1.4400e+00	1.0000e+01	1.0000e+01	1.5100e+00	1.9400e+00	1.0000e+01	1.0000e+01	1.9900e+00	2.4900e+00	2.4100e+00	2.9000e+00	1.0000e+01	2.9800e+00	




#DATA BEGINS
time	group	step	mark	flag	A-AC1	A-AC2	A-AC3	A-AC4	A-AC5	A-AC6	A-AC7	A-AC8	A-AC9	A-AC10	A-AC11	A-AC12	A-AC13	A-AC14	A-AC15	A-AC16	A-DC1	A-DC2	A-DC3	A-DC4	A-DC5	A-DC6	A-DC7	A-DC8	A-DC9	A-DC10	A-DC11	A-DC12	A-DC13	A-DC14	A-DC15	A-DC16	A-Ph1	A-Ph2	A-Ph3	A-Ph4	A-Ph5	A-Ph6	A-Ph7	A-Ph8	A-Ph9	A-Ph10	A-Ph11	A-Ph12	A-Ph13	A-Ph14	A-Ph15	A-Ph16	B-AC1	B-AC2	B-AC3	B-AC4	B-AC5	B-AC6	B-AC7	B-AC8	B-AC9	B-AC10	B-AC11	B-AC12	B-AC13	B-AC14	B-AC15	B-AC16	B-DC1	B-DC2	B-DC3	B-DC4	B-DC5	B-DC6	B-DC7	B-DC8	B-DC9	B-DC10	B-DC11	B-DC12	B-DC13	B-DC14	B-DC15	B-DC16	B-Ph1	B-Ph2	B-Ph3	B-Ph4	B-Ph5	B-Ph6	B-Ph7	B-Ph8	B-Ph9	B-Ph10	B-Ph11	B-Ph12	B-Ph13	B-Ph14	B-Ph15	B-Ph16	aux-1	digaux	

18771.953	1	1	0	256	0.17871	0.18868	0.2004	0.074841	0.017931	0.11676	0.18364	0.13036	0.14522	0.16541	0.10411	0.15316	0.21701	0.19152	0.044624	0.023091	-4.0104	-4.3562	-4.6208	-4.5646	-4.3729	-4.7792	-4.3417	-4.8021	-4.5292	-4.3354	-4.9146	-4.6312	-4.4167	-5.0167	-4.2	-4.6708	158.594	81.199	-46.280	-80.430	153.650	48.641	145.682	104.208	-49.934	-9.541	189.848	99.402	128.720	225.799	58.658	239.291	0.0010486	0.00065174	0.00019517	1102.3	7.0565e-06	1.5479e-05	969.28	391.79	6.2653e-06	5.085e-06	372.46	147.16	142.71	65.193	4.9998e-06	74.019	0.0026985	0.0016906	0.0005063	1122.8	1.5556e-05	0.0001239	989.94	402.73	1.6809e-05	2.0177e-05	385.43	152.55	147.64	67.558	1.8205e-05	76.496	112.674	-22.809	-25.694	-101.650	21.593	94.346	-102.984	-96.642	1.125	36.025	-98.344	-93.910	-91.937	-87.606	21.644	-90.209	-8191	255	
18772.051	1	1	0	0	0.15206	0.13962	0.13475	0.13452	0.11622	0.056653	0.14368	0.11202	0.14325	0.027995	0.25722	0.32886	0.21757	0.27289	0.034435	0.058753	-4.2271	-4.2438	-4.8521	-4.8542	-4.3187	-4.8146	-4.4563	-4.9021	-4.8063	-4.1271	-5.0042	-4.5208	-4.5188	-5.1292	-4.35	-4.5437	154.807	0.782	-72.597	-80.936	242.234	211.611	197.222	180.364	-72.993	45.987	-101.605	211.532	155.989	206.629	191.431	221.044	0.0010803	0.00058395	0.00015265	1101.9	4.3422e-06	1.7392e-05	966.71	394.56	2.9984e-06	5.5473e-06	371.63	147	142.67	65.2	4.2543e-06	73.609	0.0043015	0.0018285	0.00050635	1122.4	1.5354e-05	0.00010336	983.96	404.01	1.6436e-05	2.0344e-05	383.77	152.33	147.6	67.793	1.6626e-05	76.337	140.080	-28.697	-31.047	-101.682	0.128	105.612	-102.948	-96.392	-20.821	34.614	-98.187	-94.115	-92.304	-87.609	2.392	-90.246	-8191	255	
18772.146	1	1	0	0	0.096418	0.19507	0.14038	0.18594	0.2609	0.15172	0.094836	0.11092	0.13263	0.28633	0.081052	0.073336	0.14276	0.26993	0.21972	0.077149	-4.2021	-4.3104	-4.7771	-4.5938	-4.2146	-4.8146	-4.4458	-4.6083	-4.9021	-4.3042	-4.6667	-4.6583	-4.3812	-4.9812	-4.2854	-4.6479	-24.773	33.328	114.294	232.496	-92.956	164.960	74.127	108.270	55.397	170.728	188.707	148.456	225.230	236.420	71.780	23.004	0.0008602	0.00067788	0.00011486	1095.9	5.3628e-06	1.7122e-05	959.76	390.38	6.6126e-06	6.5046e-06	367.18	146.13	143	65.252	5.5653e-06	73.623	0.0035476	0.0015981	0.00043483	1117.3	1.3873e-05	0.00012284	979.99	400.03	1.4529e-05	1.7967e-05	376.53	152.1	147.08	67.744	1.5635e-05	76.243	128.106	-33.720	-4.323	-101.714	17.339	116.343	-102.842	-96.593	-32.549	46.036	-98.272	-94.384	-92.144	-87.578	29.050	-90.321	-8191	255	
18772.242	1	1	0	0	0.11478	0.16278	0.046404	0.099769	0.063519	0.3037	0.2699	0.16914	0.38518	0.092301	0.25114	0.15973	0.27804	0.25393	0.10178	0.11604	-4.4458	-4.2208	-4.6292	-4.6146	-4.2458	-4.7354	-4.3833	-4.6	-4.8271	-4.2833	-4.7083	-4.5979	-4.3208	-4.8313	-4.5521	-4.3562	82.441	244.510	-11.648	206.221	-20.034	223.638	205.141	-95.387	140.356	135.693	147.922	-90.610	194.904	183.058	-63.888	-0.143	0.0007202	0.00073303	0.00014263	1094.6	4.7047e-06	1.2903e-05	961.06	389.56	5.4039e-06	6.0133e-06	366	145.94	142.28	65.211	5.091e-06	73.765	0.0041148	0.0015305	0.00044115	1115.3	1.3838e-05	9.7609e-05	980.26	400.05	1.453e-05	1.7608e-05	376.64	153.18	147.03	67.789	1.6533e-05	76.367	147.968	-26.952	-30.888	-101.747	14.973	134.109	-102.879	-96.622	-16.450	26.567	-98.419	-94.372	-92.204	-87.570	4.773	-90.431	-8191	255	
18772.314	1	1	0	0	0.12685	0.084364	0.19801	0.14311	0.035989	0.18664	0.13329	0.19985	0.0699	0.19806	0.18559	0.067877	0.1998	0.13022	0.17668	0.063044	-4.4771	-4.0854	-4.5687	-4.9854	-4.1729	-4.6687	-4.6896	-4.3938	-4.9146	-4.3729	-4.7708	-4.8125	-4.3083	-4.9271	-4.5813	-4.475	173.290	54.253	-101.543	214.217	40.598	-21.687	134.770	-107.194	-8.508	209.142	241.840	-113.013	150.089	113.067	125.505	143.784	0.00068197	0.00057781	0.0002406	1095.9	6.3963e-06	1.4165e-05	961.13	389.64	3.6849e-06	6.1325e-06	366.89	147.13	143.11	65.307	5.1767e-06	73.5	0.0035042	0.0016202	0.000439	1115.7	1.4144e-05	9.5546e-05	983.24	399.87	1.4403e-05	1.8067e-05	376.06	152.99	147.17	67.683	1.6841e-05	76.164	129.001	-37.250	-23.422	-101.631	31.219	61.567	-102.734	-96.604	-21.264	41.181	-98.249	-94.615	-92.050	-87.673	31.263	-90.225	-8191	255	
18772.436	1	1	0	0	0.10149	0.077401	0.12596	0.064383	0.17838	0.16226	0.20432	0.14183	0.16874	0.1029	0.28725	0.21756	0.12705	0.22912	0.15636	0.12933	-4.525	-4.3021	-4.3979	-4.8396	-4.2146	-4.7583	-4.7604	-4.3729	-4.85	-4.2354	-4.4146	-4.7333	-4.2042	-4.8438	-4.6917	-4.3958	119.740	188.454	97.988	-109.401	65.475	174.200	142.183	-38.230	187.759	124.735	206.702	-105.271	211.915	183.312	178.846	232.160	0.00064162	0.00071419	0.00012479	1093.3	6.1088e-06	1.2123e-05	956.86	388.61	6.358e-06	5.0548e-06	365.3	146.19	141.3	65.013	3.1968e-06	73.162	0.004064	0.0016019	0.00044045	1112.7	1.351e-05	2.6436e-05	983.52	398	1.3733e-05	1.6859e-05	373.46	152.45	145.98	67.403	1.5974e-05	75.78	137.130	-18.802	-42.740	-101.732	6.309	65.379	-102.834	-96.825	-30.127	12.927	-98.149	-94.246	-92.023	-87.599	13.775	-90.432	-8191	255	
18772.531	1	1	0	0	0.24362	0.1279	0.15256	0.21645	0.043983	0.09672	0.076078	0.13372	0.082646	0.13968	0.30872	0.24773	0.1666	0.35676	0.14058	0.050558	-4.4187	-4.4125	-4.5	-4.8667	-4.2375	-4.4563	-4.9917	-4.3521	-4.8833	-4.4771	-4.3896	-4.8292	-4.3125	-4.8583	-4.7979	-4.2542	0.949	230.341	156.894	191.073	108.173	187.920	-11.802	129.381	-73.268	194.048	-108.464	197.119	135.088	195.417	-45.936	217.647	0.0007558	0.00063303	0.00015348	1085.8	5.1709e-06	6.6849e-06	949.84	385.05	6.6996e-06	5.7399e-06	360.42	144.29	140.59	64.503	5.205e-06	72.347	0.0033823	0.0013642	0.00040265	1108.3	1.3061e-05	1.6288e-05	979.61	394.08	1.2796e-05	1.6247e-05	369.36	150.25	145.11	66.9	1.6002e-05	74.935	129.363	-40.386	-33.844	-101.723	9.825	26.324	-102.732	-96.533	-37.463	34.558	-98.253	-94.395	-91.812	-87.723	18.878	-90.317	-8191	255	
18772.627	1	1	0	0	0.29824	0.018258	0.12552	0.19932	0.090118	0.096217	0.10704	0.082279	0.14456	0.20516	0.16444	0.015239	0.078433	0.19866	0.081741	0.14955	-4.5833	-4.6417	-4.2937	-4.8271	-4.3187	-4.6333	-4.8542	-4.4979	-4.675	-4.5417	-4.3938	-4.8812	-4.3708	-4.6875	-4.6271	-4.2688	3.370	26.539	-10.792	152.080	206.356	197.668	147.898	214.911	210.740	211.013	204.720	201.705	31.028	168.082	218.555	-33.318	0.0007302	0.0004501	0.00011805	1083.4	5.0042e-06	5.6361e-06	949.51	382.32	8.3352e-06	5.246e-06	358.66	143.93	140	64.044	3.1303e-06	71.978	0.0030741	0.0026174	0.00039895	1104	1.2342e-05	1.6186e-05	974.39	392.64	1.2831e-05	1.6784e-05	368.66	150.03	144.45	66.547	1.5768e-05	74.789	149.908	18.473	-13.038	-101.543	4.670	44.270	-102.824	-96.701	-22.919	41.422	-98.423	-94.232	-92.145	-87.814	-9.240	-90.178	-8191	255	
18772.746	1	1	0	0	0.072938	0.19228	0.1541	0.31814	0.15155	0.16054	0.32964	0.2086	0.1676	0.1214	0.11553	0.25619	0.14856	0.43542	0.074365	0.13	-4.3479	-4.6687	-4.1083	-4.9417	-4.4354	-4.5417	-4.7771	-4.4875	-4.6104	-4.6	-4.3479	-4.8812	-4.525	-4.5542	-4.9437	-4.4333	-81.147	98.060	-84.731	204.323	-84.623	46.558	198.895	229.431	46.331	166.770	89.101	200.411	243.506	-114.012	-104.721	-95.147	0.0007632	0.00040547	0.00017663	1083.1	7.476e-06	6.0666e-06	950.27	383.08	6.7842e-06	7.0723e-06	361.41	145.06	141.02	64.657	5.26e-06	72.716	0.001254	0.0063784	0.00041291	1104.4	1.3343e-05	1.7634e-05	979.34	393.6	1.3839e-05	1.8116e-05	370.83	150.95	145.31	66.939	1.6759e-05	75.322	130.472	26.556	-22.658	-101.809	-6.910	29.878	-102.980	-96.642	-46.753	48.200	-98.337	-94.268	-92.407	-87.554	7.516	-90.342	-8191	255	
18772.842	1	1	0	0	0.077797	0.11594	0.05914	0.27801	0.12058	0.20454	0.07116	0.20656	0.092718	0.13722	0.35046	0.11606	0.22724	0.22473	0.061781	0.24881	-4.2833	-4.7146	-4.0979	-4.9563	-4.3562	-4.3042	-5.0062	-4.5417	-4.5458	-4.8229	-4.3562	-4.7438	-4.6208	-4.4125	-4.9333	-4.4229	180.399	-44.584	197.894	153.888	-1.222	-96.658	-111.630	205.962	159.589	-109.107	-60.573	-80.966	166.080	204.270	4.076	202.090	0.0010454	0.0017366	0.00017807	1084.8	5.7705e-06	6.0711e-06	949.47	385.72	8.6448e-06	7.6841e-06	361.03	145.9	140.67	64.28	4.6964e-06	73.034	0.0011284	0.010065	0.00043581	1105.4	1.4207e-05	1.8573e-05	977.58	395.38	1.3891e-05	1.9122e-05	372.28	151.15	146.01	66.854	1.6521e-05	75.599	111.123	-5.426	-22.733	-101.507	33.878	30.176	-102.855	-96.384	-29.285	25.404	-98.264	-94.195	-92.092	-87.565	29.251	-90.606	-8191	255	
18772.916	1	1	0	0	0.28221	0.066456	0.057333	0.081628	0.12884	0.27388	0.40988	0.11968	0.073098	0.17967	0.19107	0.17181	0.26069	0.11003	0.20375	0.22222	-4.2396	-4.8917	-4.0417	-4.8125	-4.5708	-4.2542	-4.9354	-4.5083	-4.3375	-4.8875	-4.3083	-4.6438	-4.6417	-4.3063	-4.7396	-4.5604	22.574	43.370	7.860	240.952	235.982	160.976	165.636	173.109	-6.949	174.741	-76.933	155.200	228.295	194.302	193.952	168.947	0.001004	0.001208	0.00012038	1085.6	5.4638e-06	7.4175e-06	947	383.41	4.5111e-06	4.6335e-06	362.74	145.21	140.02	64.617	5.6427e-06	72.49	0.0011419	0.0082103	0.00044289	1104.5	1.3786e-05	1.762e-05	979.44	394.48	1.3712e-05	1.8641e-05	371.03	149.51	146.4	66.877	1.5992e-05	75.227	112.304	3.659	-37.312	-101.487	28.009	17.409	-102.858	-96.450	-16.483	47.667	-98.349	-94.228	-92.045	-87.558	16.705	-90.240	-8191	255	
18773.033	1	1	0	0	0.11746	0.15464	0.22151	0.18295	0.020114	0.17681	0.28481	0.14897	0.16858	0.07658	0.095071	0.2644	0.087908	0.29965	0.13169	0.15605	-4.0521	-4.6896	-4.3063	-4.6875	-4.5708	-4.2562	-4.8938	-4.5729	-4.2417	-4.8771	-4.3271	-4.6271	-4.6854	-4.4354	-4.8604	-4.5188	201.601	119.831	-50.728	-91.331	221.620	-43.259	204.303	156.689	216.849	146.989	232.353	240.162	168.588	226.954	202.298	191.414	0.00092843	0.0021563	0.00019178	1081.8	5.6223e-06	7.6872e-06	948.98	384.59	5.5216e-06	4.7533e-06	361.28	145.4	140.78	64.844	5.8664e-06	73.056	0.0011115	0.010177	0.00043001	1103.6	1.4037e-05	1.7874e-05	975.47	394.03	1.4406e-05	1.7761e-05	370.34	149.44	147.52	67.156	1.6515e-05	75.545	112.424	1.762	-21.494	-101.750	9.530	40.186	-102.894	-96.510	-24.111	51.596	-98.430	-94.287	-92.196	-87.645	15.887	-90.530	-8191	255	
18773.131	1	1	0	0	0.23473	0.064514	0.051281	0.12505	0.28712	0.19006	0.048491	0.104	0.11688	0.040182	0.086004	0.060863	0.14909	0.13426	0.046298	0.048579	-4.0333	-4.9229	-4.2104	-4.7125	-4.7479	-4.2875	-4.8729	-4.8771	-4.1333	-4.8771	-4.4854	-4.6042	-4.8458	-4.35	-4.6667	-4.8083	108.613	-6.631	203.479	237.507	-67.969	-12.083	-7.959	-6.227	126.172	139.223	-106.566	171.789	238.678	10.994	-59.515	88.681	0.00096816	0.0015933	0.00014572	1083.1	4.2943e-06	4.7471e-06	947.34	386.12	6.4155e-06	4.6812e-06	359.54	145.28	140.79	64.334	4.2502e-06	72.814	0.0011193	0.0083792	0.00045258	1103.9	1.387e-05	1.7657e-05	971.71	396.02	1.416e-05	1.7775e-05	369.63	149.34	146.96	66.891	1.5006e-05	75.298	109.948	-0.693	-23.367	-101.820	-17.427	25.191	-102.878	-96.717	-15.627	22.091	-98.171	-94.301	-92.213	-87.513	15.861	-90.320	-8191	255	
18773.227	1	1	0	0	0.1266	0.14916	0.056947	0.18872	0.1088	0.099503	0.11804	0.15736	0.072884	0.23999	0.1666	0.21851	0.22876	0.24103	0.25914	0.27093	-3.8396	-4.8042	-4.3729	-4.6083	-4.8521	-4.2896	-4.8292	-4.7146	-4.3458	-4.7479	-4.6354	-4.4354	-4.9146	-4.3375	-4.8083	-4.7083	15.333	-44.134	94.538	-17.559	19.839	76.166	192.697	193.695	87.865	-27.544	181.519	203.483	-88.659	138.292	-95.073	168.252	0.0009245	0.0018233	0.00017441	1081.4	3.3473e-06	7.2464e-06	948.87	380.79	4.2946e-06	6.1178e-06	359.17	143.57	140.69	64.376	3.513e-06	72.44	0.0011116	0.01018	0.00043581	1102.8	1.2972e-05	1.6229e-05	966.41	393.19	1.3063e-05	1.6273e-05	367.79	148.65	146.73	66.701	1.4364e-05	75.02	112.144	10.297	-16.015	-101.790	36.734	30.427	-102.903	-96.507	-3.250	30.750	-98.483	-94.059	-92.035	-87.770	9.883	-90.425	-8191	255	
18773.348	1	1	0	0	0.081139	0.14638	0.13626	0.19097	0.059126	0.13819	0.095721	0.34195	0.22008	0.10626	0.21704	0.058404	0.14297	0.18269	0.24364	0.14062	-3.8083	-4.8708	-4.3979	-4.4583	-4.7979	-4.2083	-4.8	-4.7104	-4.2021	-4.7688	-4.5333	-4.3479	-5.0625	-4.5208	-4.3833	-4.8896	-90.254	24.980	-40.368	232.988	-8.769	41.754	223.918	181.770	-5.423	37.078	-87.957	131.073	213.264	242.355	158.398	145.979	0.00097792	0.0013746	0.00017152	1082.2	5.1239e-06	6.8217e-06	953.57	379.79	4.5501e-06	4.373e-06	359.03	143.26	140.24	64.627	4.8112e-06	72.812	0.0010521	0.008214	0.00039652	1105.3	1.2659e-05	1.6693e-05	971.8	393.89	1.2623e-05	1.6412e-05	368.68	148.7	146.44	67.063	1.5325e-05	75.644	113.843	19.359	-16.366	-101.675	44.620	32.090	-102.920	-96.513	6.715	43.294	-98.274	-94.159	-91.948	-87.739	6.043	-90.542	-8191	255	
18773.443	1	1	0	0	0.29442	0.077076	0.063844	0.21402	0.29517	0.055109	0.2081	0.19634	0.21498	0.092684	0.15712	0.28489	0.23042	0.099169	0.06136	0.023939	-3.8937	-4.75	-4.4854	-4.2438	-4.9979	-4.3438	-4.7188	-4.9187	-4.1646	-4.7958	-4.6562	-4.3938	-5.0229	-4.6042	-4.3812	-4.8187	-108.456	-17.572	-46.788	118.066	-65.939	-82.227	103.676	159.102	137.842	-14.139	152.574	196.642	162.079	179.787	108.331	-79.796	0.0009858	0.0019688	0.00024818	1084.5	3.6219e-06	5.6047e-06	954.24	382.41	5.2451e-06	6.1972e-06	360.77	144.86	140.21	64.538	4.0815e-06	72.813	0.0010786	0.0065361	0.0010744	1107.9	1.2927e-05	1.7096e-05	973.94	394.59	1.3806e-05	1.7614e-05	369.44	148.97	146.86	67.151	1.6799e-05	75.367	112.944	-16.918	93.010	-101.664	11.634	30.661	-102.946	-96.742	-17.306	41.787	-98.261	-94.202	-92.193	-87.571	21.261	-90.458	-8191	255	
18773.516	1	1	0	0	0.20684	0.086527	0.090834	0.10766	0.054995	0.21003	0.13919	0.12361	0.19344	0.22577	0.27294	0.13442	0.074386	0.060309	0.29496	0.1215	-3.9896	-4.7271	-4.6062	-4.3938	-4.8208	-4.3708	-4.6062	-4.9854	-4.3396	-4.5479	-4.7562	-4.3146	-4.8375	-4.625	-4.2854	-5.1021	62.857	-65.661	84.704	-102.300	122.825	28.838	-113.535	5.113	150.952	225.747	190.870	155.084	90.218	221.657	77.977	-55.379	0.00095983	0.00050444	0.00029012	1092.3	7.0011e-06	5.554e-06	956.38	383.08	4.5504e-06	8.0961e-06	361.98	144.39	140.87	64.818	5.2629e-06	72.7	0.0011455	0.0016412	0.0022677	1112	1.5125e-05	2.1033e-05	976.25	396.75	1.6226e-05	2.1687e-05	371.29	149.01	147.31	67.134	1.9836e-05	75.33	111.145	-26.025	61.218	-101.516	10.862	33.336	-102.800	-96.553	-43.340	36.421	-98.347	-94.418	-92.233	-87.582	12.018	-90.409	-8191	255	
18773.637	1	1	0	0	0.13095	0.21803	0.16229	0.04602	0.24615	0.14149	0.16321	0.37451	0.11119	0.10643	0.070875	0.26353	0.11227	0.24318	0.044388	0.13724	-3.85	-4.5188	-4.6146	-4.3708	-4.7312	-4.5021	-4.2937	-4.9625	-4.2562	-4.55	-4.8208	-4.1771	-4.7271	-4.7167	-4.2292	-4.9854	133.814	109.966	0.638	58.203	-79.193	-53.623	191.536	189.609	111.219	-81.597	124.939	-86.036	20.924	202.245	161.804	188.358	0.0010009	0.00059576	0.00057198	1092	7.653e-06	3.9725e-06	960.23	387.1	5.2104e-06	7.7686e-06	365.08	144.94	141.55	64.868	4.3984e-06	72.495	0.0012636	0.0020052	0.0031067	1115.5	1.7207e-05	2.3512e-05	980.1	399.1	1.783e-05	2.3342e-05	373.75	149.61	147.38	67.33	2.0769e-05	75.318	113.066	-23.858	41.173	-101.721	11.302	28.519	-102.908	-96.738	-15.398	19.049	-98.162	-93.986	-91.806	-87.520	32.548	-90.274	-8191	255	
18773.730	1	1	0	0	0.13694	0.2508	0.11958	0.11579	0.17514	0.04927	0.22287	0.19921	0.064123	0.37523	0.065809	0.26359	0.097019	0.14119	0.10152	0.15869	-4.0417	-4.3562	-4.7208	-4.3583	-4.5729	-4.6083	-4.475	-4.8313	-4.3208	-4.3396	-4.7708	-4.2	-4.6917	-4.7979	-4.1479	-5.0813	138.117	-83.887	187.753	-102.030	-54.588	-28.977	172.136	159.705	219.414	175.506	-99.439	134.502	94.585	-98.258	-113.454	113.937	0.00090779	0.00054573	0.00045994	1098.8	5.3057e-06	7.3466e-06	964.02	387.15	5.7516e-06	8.1627e-06	365.3	145.62	141.17	64.466	3.6321e-06	72.649	0.0012904	0.0021049	0.0025807	1118	1.7795e-05	2.5816e-05	983.43	400.6	1.8946e-05	2.5921e-05	375.78	150.45	145.87	67.382	2.2476e-05	75.282	110.106	-34.943	43.259	-101.538	18.911	43.006	-102.870	-96.477	-24.384	36.891	-98.583	-94.002	-91.857	-87.590	25.539	-90.390	-8191	255	
18773.826	1	1	0	0	0.24401	0.11349	0.042482	0.090671	0.080331	0.13551	0.16403	0.16078	0.080302	0.064552	0.1532	0.12398	0.16547	0.14224	0.31605	0.18023	-4.1104	-4.3479	-4.7125	-4.2417	-4.7708	-4.5229	-4.3167	-4.975	-4.6354	-4.4917	-4.9437	-4.5625	-4.7312	-4.7542	-4.1917	-4.95	200.725	40.262	212.820	222.452	-52.462	-33.966	199.302	189.203	61.331	-94.693	-72.680	193.831	-10.476	245.092	52.642	224.231	0.00099869	0.00067784	0.00041111	1102.4	6.1293e-06	7.4995e-06	970.18	392.16	4.0292e-06	5.4847e-06	370.23	147.11	143.47	65.254	5.8458e-06	73.327	0.0013822	0.0023427	0.0031434	1124.2	1.9804e-05	2.7584e-05	989.18	405.15	2.011e-05	2.6768e-05	379.57	151.84	147.82	68.207	2.1823e-05	76.04	112.557	-18.560	57.228	-101.650	26.125	31.834	-102.953	-96.559	-31.609	33.294	-98.368	-94.243	-92.080	-87.536	34.198	-90.324	-8191	255	
18773.922	1	1	0	0	0.072988	0.17962	0.1717	0.088782	0.037721	0.30244	0.1322	0.30054	0.16173	0.14706	0.18323	0.27188	0.19374	0.13268	0.088253	0.2903	-4.2458	-4.3167	-5.1438	-4.5521	-4.5146	-4.7708	-4.4604	-4.8625	-4.3521	-4.2792	-4.9313	-4.5146	-4.4917	-4.925	-4.2396	-4.9417	-2.403	114.255	3.936	169.183	-101.343	-22.798	206.333	152.621	192.378	182.056	-76.835	155.205	-99.095	-86.638	-36.951	208.600	0.00094688	0.00069405	0.00031744	1100	3.5828e-06	7.2865e-06	960.29	394.13	1.9065e-05	5.5409e-06	369.57	147.73	143.55	65.562	6.6496e-06	73.203	0.0013667	0.0021568	0.0026234	1119.1	1.8457e-05	2.5548e-05	982.51	405.51	4.4306e-05	2.5683e-05	379.91	152.1	148.49	68.176	2.2566e-05	75.959	113.499	-19.947	64.539	-101.567	8.932	39.931	-102.786	-96.523	-106.572	43.928	-98.337	-94.256	-91.643	-87.603	8.054	-90.305	-8191	255	
18774.020	1	1	0	0	0.14411	0.059703	0.17559	0.22448	0.05779	0.11514	0.090114	0.078846	0.027202	0.18036	0.13059	0.096583	0.15696	0.20603	0.071777	0.11249	-4.3396	-4.0312	-4.7042	-4.525	-4.3792	-4.7896	-4.5208	-4.9521	-4.5333	-4.0771	-5.0375	-4.5854	-4.5	-5.0604	-4.2021	-4.6792	-15.149	190.918	231.032	199.920	-19.957	33.186	207.857	159.635	-89.320	66.776	-78.012	-88.796	111.656	189.233	-22.004	-95.881	0.00099102	0.0006688	0.00034024	1092.9	5.6932e-06	6.4256e-06	952.9	392.85	1.6582e-05	6.3295e-06	370.27	147.32	142.51	65.411	7.2649e-06	72.737	0.0014135	0.0023563	0.0031183	1115.4	2.0042e-05	2.687e-05	978.1	404.32	7.4437e-05	2.636e-05	380.75	152.1	148.2	68.142	2.3097e-05	75.667	111.319	-39.223	46.370	-101.634	21.542	19.248	-102.781	-96.605	-112.339	21.865	-98.175	-94.282	-91.994	-87.714	17.899	-90.375	-8191	255	
18774.139	1	1	0	0	0.18651	0.23	0.26782	0.29611	0.11017	0.24098	0.12585	0.067014	0.15536	0.22804	0.16868	0.093905	0.095054	0.15146	0.15883	0.12129	-4.2875	-4.2188	-4.8313	-4.5896	-4.4167	-4.7646	-4.5917	-4.5938	-4.875	-4.2458	-4.85	-4.6729	-4.1396	-4.9396	-4.2292	-4.7188	204.050	157.591	-48.059	-66.807	-101.021	104.991	113.142	138.633	63.354	81.155	103.460	244.908	244.901	172.512	-95.371	143.400	0.00093503	0.00043141	0.00019298	1094.3	4.8535e-06	7.8085e-06	959.25	394.42	3.1044e-05	5.1139e-06	372.8	148.31	144.28	65.55	3.8914e-06	74.104	0.0013832	0.0023055	0.0025812	1113.8	1.9388e-05	2.7974e-05	977.83	404.61	8.8785e-05	2.8749e-05	383.25	153.24	149.51	68.463	2.7829e-05	76.884	111.391	-34.021	58.601	-101.667	-4.171	38.839	-102.718	-96.496	-91.912	38.160	-98.324	-94.443	-91.733	-87.526	-13.656	-90.353	-8191	255	
18774.211	1	1	0	0	0.02901	0.19449	0.096426	0.26554	0.22077	0.16551	0.17891	0.14465	0.19033	0.25042	0.077259	0.14129	0.16933	0.26147	0.016103	0.13985	-4.2812	-4.2104	-4.5792	-4.825	-4.1937	-4.9563	-4.5958	-4.6396	-4.9437	-4.4292	-4.8938	-4.85	-4.4708	-4.9979	-4.2812	-4.6625	39.911	131.296	-20.263	168.027	176.159	-84.414	136.007	164.289	8.924	207.914	-79.164	-92.759	-80.138	214.193	-18.692	220.305	0.00093561	0.00068104	0.00046743	1087.6	6.7897e-06	5.7163e-06	948.65	401.81	1.9576e-05	4.4104e-06	381.06	153.45	148.25	66.991	4.1045e-06	75.992	0.0016347	0.0029024	0.0019385	1112.8	2.58e-05	3.7494e-05	971.83	413.51	8.5779e-05	4.2595e-05	391.79	158.59	154.06	70.229	3.918e-05	78.958	111.906	-44.416	9.507	-101.251	-1.392	39.643	-102.637	-96.675	-87.371	2.815	-98.343	-94.019	-92.069	-87.560	19.125	-90.290	-8191	255	
18774.307	1	1	0	0	0.18675	0.099536	0.16745	0.35366	0.19116	0.10097	0.26717	0.034992	0.12067	0.17518	0.19542	0.10617	0.045112	0.10026	0.18534	0.17622	-4.5958	-4.2104	-4.7312	-4.9229	-4.2937	-4.7333	-4.7021	-4.3896	-4.8625	-4.1875	-4.7854	-4.8125	-4.3833	-5.0667	-4.6104	-4.6833	7.395	-3.881	147.558	210.400	180.685	-20.828	179.169	-54.760	156.567	-43.473	-100.216	-105.884	3.016	213.119	-35.676	128.482	0.00097228	0.00081526	0.00019813	1071.1	5.7811e-06	8.7758e-06	943.68	405.74	2.3228e-05	8.228e-06	381.63	154.51	149.31	67.74	5.3885e-06	75.999	0.0020426	0.0042223	0.0011979	1102.6	3.4021e-05	4.9553e-05	964.83	416.37	0.00010197	4.9235e-05	393.28	159.94	154.69	70.587	3.7795e-05	79.073	110.974	-28.972	-29.315	-101.254	8.483	28.468	-102.606	-96.599	-77.686	20.308	-98.205	-94.116	-91.800	-87.716	26.251	-90.456	-8191	255	
18774.428	1	1	0	0	0.21471	0.10459	0.13376	0.14775	0.2041	0.18552	0.27191	0.16598	0.082538	0.11477	0.1581	0.33563	0.24901	0.23383	0.16783	0.095094	-4.5396	-4.3708	-4.3875	-4.9333	-4.1625	-4.6917	-4.7167	-4.4958	-4.9437	-4.4979	-4.7	-4.8708	-4.3625	-5.0417	-4.6729	-4.5146	6.841	13.286	94.381	-85.973	102.263	37.621	140.156	214.895	-68.028	88.398	233.275	-106.377	187.574	200.352	58.670	184.586	0.0009384	0.00084543	0.00018612	1076.5	5.7706e-06	5.2536e-06	941.38	402.46	1.9835e-05	7.112e-06	377.76	152.19	146.8	66.9	5.3242e-06	74.88	0.0018957	0.0037988	0.0010488	1107.5	2.8387e-05	4.0631e-05	963.31	413.08	8.0637e-05	3.5775e-05	388.02	157.28	152.4	69.548	6.5429e-05	77.835	112.929	-33.332	-46.410	-101.303	-0.825	6.129	-102.694	-96.684	-65.564	27.487	-98.256	-94.237	-91.938	-87.611	102.444	-90.219	-8191	255	
18774.523	1	1	0	0	0.12674	0.13154	0.11503	0.20072	0.14321	0.13896	0.15683	0.26769	0.062613	0.21422	0.033823	0.20588	0.1556	0.31583	0.23849	0.059678	-4.6042	-4.3542	-4.3938	-4.9375	-4.3792	-4.6396	-4.6979	-4.4583	-4.8562	-4.45	-4.5479	-5.0292	-4.3229	-4.8667	-4.825	-4.325	120.780	-77.853	150.849	196.313	-48.954	86.558	184.977	168.437	122.502	156.159	113.298	154.553	147.398	-106.060	45.356	-20.161	0.0010402	0.00059921	0.00014093	1079	6.6836e-06	4.5537e-06	941.61	401.24	2.4435e-05	5.9358e-06	375.91	150.99	146.5	66.106	1.9104e-05	74.553	0.0015969	0.0030181	0.00083172	1111.1	2.4532e-05	3.5107e-05	966.73	411	9.3567e-05	3.4226e-05	386.16	156.12	151.67	68.656	9.3201e-05	77.528	112.164	-26.708	-7.449	-101.357	0.101	60.644	-102.549	-96.607	-81.769	34.790	-98.046	-94.192	-92.002	-87.701	44.533	-90.318	-8191	255	
18774.619	1	1	0	0	0.18008	0.20492	0.17303	0.2563	0.23316	0.088317	0.23871	0.15779	0.10762	0.18066	0.091131	0.084361	0.17972	0.19519	0.17591	0.14099	-4.4458	-4.3896	-4.3958	-4.8875	-4.3083	-4.5625	-4.9667	-4.4812	-4.825	-4.5292	-4.4	-5.0875	-4.5125	-4.8812	-4.8521	-4.4313	-60.404	-21.173	38.923	55.069	-55.322	72.125	176.589	229.483	219.040	113.300	65.853	227.908	162.569	188.152	-68.811	-107.647	0.00098429	0.00072031	0.00019535	1078.9	9.2054e-06	5.4128e-06	950.84	401.92	1.747e-05	6.0095e-06	378.91	152.62	149	66.883	2.5452e-05	75.538	0.001628	0.0029184	0.00081894	1114	2.4383e-05	3.4569e-05	970.94	413.05	7.9231e-05	3.6889e-05	390.25	158.16	153.61	69.392	0.00011321	78.486	112.380	-21.389	-36.681	-101.479	7.144	39.169	-102.549	-96.622	-38.596	47.494	-98.284	-94.378	-92.288	-87.659	44.619	-90.340	-8191	255	
18774.717	1	1	0	0	0.075106	0.20835	0.031545	0.16591	0.0454	0.092769	0.27168	0.22633	0.18265	0.15049	0.196	0.1712	0.041871	0.075111	0.045304	0.24605	-4.4229	-4.5292	-4.2417	-5.0563	-4.4375	-4.4771	-4.9583	-4.3083	-4.8521	-4.7271	-4.3167	-4.9563	-4.6125	-4.7104	-4.8792	-4.4688	83.340	10.059	91.975	240.242	99.317	34.915	240.280	-106.795	187.795	163.353	149.372	-97.149	-108.950	-101.126	-76.449	-105.156	0.00098259	0.00065026	0.00014665	1077	7.5275e-06	6.8895e-06	951.06	402.64	2.7021e-05	6.8245e-06	381.72	154.55	148.38	67.208	2.3668e-05	76.226	0.001669	0.0031146	0.00086072	1110.8	2.5697e-05	3.6105e-05	969.92	414.59	5.1638e-05	8.8361e-05	391.56	159.66	153.9	69.821	9.5016e-05	79.161	112.242	-40.655	-45.987	-101.245	29.261	40.503	-102.622	-96.628	-32.700	-29.476	-98.188	-94.342	-91.946	-87.817	50.532	-90.392	-8191	255	
18774.811	1	1	0	0	0.14011	0.15373	0.14435	0.36229	0.11971	0.1575	0.25603	0.16326	0.091852	0.29604	0.20179	0.22198	0.26622	0.16076	0.28215	0.27389	-4.3083	-4.6333	-4.2042	-5.1458	-4.3917	-4.3875	-5.0312	-4.3708	-4.6354	-4.6438	-4.3729	-4.7729	-4.4375	-4.575	-4.9396	-4.5354	82.715	113.996	233.185	203.453	30.314	-60.985	170.778	184.699	40.666	35.190	128.409	231.243	-54.677	234.141	83.502	237.817	0.00094831	0.00075454	9.4051e-05	1083.2	6.163e-06	6.4305e-06	945.79	402.99	6.3394e-06	1.7296e-05	379.87	152.66	148.14	66.553	2.3788e-05	75.071	0.0017076	0.0032394	0.00086784	1114.4	2.6364e-05	3.7511e-05	968.39	414.23	2.7029e-05	0.0001218	389.82	158.32	153.25	69.304	0.0001128	78.071	112.920	-42.194	-11.612	-101.332	13.946	38.128	-102.613	-96.535	-22.074	-20.614	-98.548	-94.092	-92.340	-87.510	61.086	-90.248	-8191	255	
18774.906	1	1	0	0	0.16576	0.086863	0.10679	0.32104	0.078418	0.098699	0.28653	0.32053	0.03681	0.20959	0.18539	0.14694	0.18073	0.29151	0.043349	0.15237	-4.2021	-4.8479	-4.1792	-4.8896	-4.7812	-4.4187	-5.1312	-4.4583	-4.4938	-4.8542	-4.2479	-4.8438	-4.6021	-4.6229	-4.8958	-4.5312	224.095	72.514	-69.197	230.933	85.026	42.484	146.594	229.881	54.473	189.150	-76.208	199.582	207.611	227.320	194.759	181.026	0.00097273	0.00066477	0.00018794	1082.1	6.2388e-06	4.7631e-06	947.39	400.57	8.8759e-06	2.0601e-05	375.97	152.18	147.05	66.829	1.5472e-05	75.213	0.0017386	0.0033409	0.00095102	1110.3	2.723e-05	3.8251e-05	968.33	411.87	2.7381e-05	0.00014535	387.03	157.38	152.44	69.316	9.5542e-05	78.08	111.191	-24.396	-35.088	-101.452	1.332	20.757	-102.809	-96.659	-8.208	-15.003	-98.434	-94.162	-91.912	-87.513	65.417	-90.314	-8191	255	
18775.027	1	1	0	0	0.09459	0.050156	0.23272	0.11112	0.030125	0.089466	0.095591	0.28631	0.19495	0.074867	0.060237	0.17531	0.061199	0.15084	0.049566	0.066603	-4.1937	-4.7688	-4.3354	-4.7917	-4.7979	-4.3667	-5.0938	-4.7208	-4.3125	-4.9583	-4.4313	-4.9146	-4.625	-4.3979	-4.8667	-4.4458	64.691	200.978	201.154	94.060	-44.302	101.423	-67.329	168.463	131.297	186.242	-47.205	228.363	-105.485	239.999	122.081	59.326	0.00098191	0.0007114	0.00017704	1083.5	1.4538e-05	6.6572e-06	948.79	399.12	4.6322e-06	1.6849e-05	374.19	151.89	146.41	66.809	1.6431e-05	74.851	0.0017182	0.0031713	0.00088596	1107.3	6.3991e-05	3.5545e-05	968.18	410.08	2.5477e-05	0.00011963	385.04	156.44	151.76	69.186	0.00011216	77.752	113.068	-29.523	-3.632	-101.576	204.118	41.321	-102.637	-96.606	-54.416	-12.649	-98.163	-94.217	-92.058	-87.692	76.529	-90.385	-8191	255	
18775.123	1	1	0	0	0.18538	0.30131	0.13402	0.1469	0.050736	0.11513	0.11246	0.02671	0.19683	0.15717	0.1235	0.11304	0.1449	0.36834	0.17401	0.23634	-4.1188	-4.7854	-4.1312	-4.5896	-4.6625	-4.1833	-4.9896	-4.5708	-4.4229	-4.7688	-4.4062	-4.7146	-4.8583	-4.35	-4.8167	-4.6479	114.021	89.542	-63.136	196.578	129.966	162.881	236.102	223.973	-26.049	26.049	229.768	175.978	149.942	-113.936	-97.618	115.555	0.0009743	0.00040152	0.00015554	1085	1.273e-05	7.1961e-06	949.32	397.66	6.3435e-06	2.3891e-05	373.78	151.29	146.85	66.493	2.1683e-05	75.547	0.00159	0.0029237	0.0008032	1106.4	7.8944e-05	3.153e-05	971.43	408.51	2.2937e-05	0.00013824	384.85	156.16	151.22	68.982	8.4378e-05	78.135	112.159	-23.120	-25.844	-101.341	201.090	26.878	-102.807	-96.409	-10.365	-4.047	-98.457	-93.847	-91.888	-87.690	40.687	-90.062	-8191	255	
18775.221	1	1	0	0	0.093305	0.23958	0.19468	0.23324	0.13536	0.10471	0.23109	0.15761	0.1455	0.099922	0.34611	0.051241	0.20121	0.32307	0.10825	0.007022	-4.0917	-4.6833	-4.1813	-4.8729	-4.8167	-4.225	-4.9875	-4.8521	-4.3417	-4.8833	-4.2562	-4.5437	-4.8229	-4.4042	-4.725	-4.6521	236.314	-76.856	96.082	188.976	149.781	-61.377	244.440	172.552	-40.745	-61.987	183.594	122.526	232.048	166.109	-71.577	108.587	0.00096533	0.000508	0.00019065	1091.5	1.0848e-05	5.0756e-06	954.17	399.73	5.533e-06	1.8683e-05	377.33	152.51	147.4	67.214	1.9195e-05	75.937	0.0015316	0.0028297	0.00077557	1112.4	9.4733e-05	3.2733e-05	976.02	410.77	2.4308e-05	0.00011905	388.93	158.24	152.81	69.804	4.9871e-05	79.538	110.307	-19.249	-32.207	-101.506	229.792	19.250	-102.649	-96.517	-17.484	2.212	-98.355	-93.982	-91.962	-87.681	34.812	-90.354	-8191	255	
18775.316	1	1	0	0	0.0047085	0.31553	0.084914	0.22074	0.14423	0.11902	0.10435	0.20675	0.13113	0.16159	0.3217	0.22476	0.05141	0.17528	0.1439	0.28286	-3.9562	-4.7812	-4.4958	-4.5792	-4.8938	-4.3104	-4.725	-4.8833	-4.2625	-4.7479	-4.7208	-4.5125	-5.0958	-4.4417	-4.6813	-4.8583	183.979	-68.483	29.968	242.298	67.410	7.920	126.234	184.513	42.772	14.907	192.936	-102.807	64.193	112.574	-97.901	174.583	0.0010011	0.00049387	0.0002044	1086.7	9.0626e-06	5.1781e-06	951.12	400.06	7.5077e-06	2.0746e-05	376.14	152.61	147.33	66.906	4.1269e-06	75.613	0.0015982	0.0029512	0.00083734	1109.7	8.1381e-05	3.4808e-05	971.62	411.04	2.5212e-05	0.00014633	386.1	157.27	152.54	69.486	2.9575e-05	78.957	109.256	-14.193	-33.602	-101.405	219.338	18.942	-102.830	-96.454	-48.563	-2.351	-98.455	-94.115	-91.919	-87.473	14.375	-90.102	-8191	255	
18775.436	1	1	0	0	0.028092	0.21176	0.010438	0.17638	0.13288	0.063602	0.1069	0.088064	0.14703	0.063886	0.14831	0.15057	0.11896	0.22537	0.037556	0.1319	-3.9708	-4.6729	-4.5396	-4.3896	-4.8167	-4.4	-4.8	-4.9125	-4.125	-4.7812	-4.6167	-4.6	-4.9396	-4.7396	-4.5042	-4.9708	211.935	90.557	186.720	227.100	176.780	81.448	216.808	150.397	18.175	74.433	186.805	-113.439	1.942	-111.709	12.507	177.094	0.00096602	0.00056799	0.00017913	1082.1	1.6995e-05	6.8214e-06	945.7	398.02	6.9316e-06	1.877e-05	373.05	151.75	146.35	66.701	3.2973e-06	75.132	0.0015991	0.0030566	0.0008291	1104.3	9.605e-05	3.4679e-05	966.32	408.96	2.5192e-05	0.00010591	383.89	156.9	152.01	69.375	3.0107e-05	78.948	111.207	-17.523	-31.358	-101.414	219.721	28.040	-102.466	-96.539	23.209	20.175	-98.410	-94.177	-92.013	-87.644	-0.673	-90.368	-8191	255	
18775.508	1	1	0	0	0.18356	0.16825	0.084172	0.0682	0.25624	0.28487	0.16948	0.11375	0.12823	0.057143	0.15878	0.029816	0.06863	0.15317	0.092877	0.1201	-4.0292	-4.5708	-4.7125	-4.4854	-4.9479	-4.3479	-4.6271	-4.9875	-4.4	-4.6208	-4.8479	-4.4229	-4.8396	-4.6562	-4.4958	-5.1937	233.223	232.681	224.012	-80.627	218.581	24.911	146.897	90.587	48.860	-22.455	228.787	-56.056	214.010	223.311	164.817	226.381	0.00102	0.00074249	0.00015334	1080.2	1.3587e-05	4.9344e-06	946.43	398.85	7.3841e-06	2.5948e-05	374.31	151.67	145.81	66.512	4.374e-06	74.869	0.0016836	0.0032118	0.00090043	1102.4	8.2456e-05	3.9197e-05	966.15	410.62	2.8198e-05	6.4229e-05	388.5	156.75	151.88	69.046	3.3701e-05	78.438	113.793	-38.303	-16.034	-101.326	-100.791	24.062	-102.673	-96.536	-36.439	24.035	-98.016	-94.251	-91.990	-87.599	52.923	-90.064	-8191	255	
18775.604	1	1	0	0	0.14906	0.16254	0.17148	0.26565	0.14595	0.07921	0.24597	0.16052	0.1306	0.065829	0.073104	0.37875	0.14305	0.084774	0.090039	0.30401	-3.9271	-4.5979	-4.5896	-4.5938	-4.8167	-4.5687	-4.6312	-4.9333	-4.3042	-4.5896	-4.8604	-4.3979	-4.7854	-4.6896	-4.1979	-4.9604	232.787	-107.916	21.669	208.275	141.997	-21.948	159.551	191.101	-3.924	45.193	-48.427	215.384	234.000	171.311	150.410	170.426	0.00095441	0.00066356	0.00013005	1078.1	1.3785e-05	6.1434e-06	947.38	401.14	7.5187e-06	6.0125e-06	377.51	152.57	147.58	66.585	3.0676e-06	75.033	0.0018259	0.0035584	0.00096807	1100.7	9.9106e-05	4.2574e-05	967.3	411.12	2.9597e-05	4.1399e-05	391.22	157.78	152.61	69.133	3.5217e-05	79.115	111.849	-41.385	-15.687	-101.269	-86.190	12.855	-102.524	-96.457	-14.316	18.702	-98.183	-94.334	-92.003	-87.472	3.673	-90.218	-8191	255	
18775.699	1	1	0	0	0.29661	0.075607	0.15132	0.098315	0.18718	0.069891	0.12493	0.1532	0.2988	0.076769	0.17732	0.23014	0.21524	0.22402	0.0519	0.13226	-4.0167	-4.5417	-4.9854	-4.4854	-4.6083	-4.6417	-4.6792	-5.0333	-4.3104	-4.45	-4.8792	-4.1667	-4.7688	-4.8	-4.2562	-4.8229	178.580	70.389	-10.685	245.598	162.738	-55.291	144.228	142.059	-2.632	-30.492	217.560	42.097	227.224	-96.463	180.853	207.342	0.0010143	0.00049841	0.00017101	1076.8	7.0436e-06	7.7514e-06	940.02	400.98	3.6996e-06	5.9139e-06	378.87	153.25	147.96	66.663	4.2535e-06	75.003	0.0019527	0.0038431	0.0011075	1098.3	7.7433e-05	5.2454e-05	961.68	412.84	3.6178e-05	5.0775e-05	394.39	158.58	153.69	69.305	4.2129e-05	78.723	111.705	-24.368	-23.801	-101.390	-8.757	-94.729	-102.578	-96.399	-36.016	45.965	-98.362	-94.124	-91.970	-87.424	26.439	-90.246	-8191	255	
18775.818	1	1	0	0	0.12495	0.14335	0.28212	0.30028	0.021342	0.025298	0.20192	0.24771	0.12399	0.17057	0.2418	0.2094	0.029128	0.18401	0.053429	0.37783	-4.0833	-4.3812	-4.8021	-4.4104	-4.7583	-4.6458	-4.3167	-5.0708	-4.3104	-4.3063	-5.2125	-4.4417	-4.6833	-4.9437	-4.2417	-4.8729	229.622	2.784	-94.452	-113.972	48.516	-15.258	217.765	166.748	201.742	189.902	207.801	186.799	106.122	213.453	145.483	208.385	0.00099277	0.00052217	0.00013599	1064.3	1.1524e-05	6.4558e-06	930.63	398.49	5.7231e-06	5.1858e-06	374.66	151.13	146.63	65.882	6.3692e-06	74.043	0.00212	0.0043557	0.0013027	1087.6	4.9194e-05	0.00012019	952.91	410.35	3.7031e-05	5.1873e-05	389.21	156.57	152.1	68.571	4.2663e-05	77.895	109.240	11.874	-16.990	-101.351	-21.162	220.220	-102.710	-96.293	-6.211	26.692	-98.274	-94.371	-92.092	-87.542	28.071	-90.400	-8191	255	
18775.914	1	1	0	0	0.26421	0.16122	0.10077	0.12158	0.20681	0.050987	0.20773	0.1523	0.14877	0.068876	0.097918	0.21713	0.055257	0.15835	0.096689	0.16135	-4.1792	-4.4292	-4.6708	-4.5104	-4.525	-4.8208	-4.2521	-4.7958	-4.4958	-4.3583	-5.0083	-4.5271	-4.6208	-4.8917	-4.2562	-4.7542	198.420	-89.875	133.424	95.486	181.144	128.678	168.272	69.761	-9.429	175.758	218.578	243.400	143.401	195.173	-89.939	186.341	0.00095814	0.00082489	0.0001522	1064.4	4.5583e-06	9.8069e-06	926.09	396.48	5.379e-06	6.4946e-06	375.67	150.99	146.52	65.555	5.527e-06	74.041	0.0021087	0.0044193	0.0012474	1086.1	3.5835e-05	0.00012983	950	408.59	3.51e-05	4.9396e-05	388.87	156.42	151.73	68.222	3.9958e-05	77.455	108.857	-21.148	-21.504	-101.204	-9.229	-72.499	-102.652	-96.446	-11.091	39.032	-98.210	-93.828	-92.163	-87.591	14.881	-90.223	-8191	255	
18776.012	1	1	0	0	0.18709	0.088229	0.17228	0.15765	0.034208	0.11676	0.18397	0.093193	0.12736	0.13438	0.084479	0.12899	0.21096	0.17051	0.088738	0.23405	-4.3396	-4.3083	-4.925	-4.5333	-4.4417	-4.7333	-4.2917	-4.7667	-4.6167	-4.1687	-5.0833	-4.5521	-4.5833	-5.2188	-4.2396	-4.8479	106.043	191.532	245.320	184.973	-109.673	72.057	98.569	124.231	184.255	13.639	194.902	134.271	-84.086	-77.229	4.133	-104.533	0.001161	0.00047407	0.00015469	1061.3	8.7164e-06	1.3892e-05	923.15	397.84	8.0701e-06	6.0753e-06	373.14	151.59	146.22	65.652	3.3253e-06	74.745	0.0021881	0.0038986	0.0011585	1084.5	3.1611e-05	0.00014545	946.34	408.62	3.187e-05	4.55e-05	387.89	156.75	151.69	68.31	3.7589e-05	77.278	95.449	-10.090	-22.142	-101.389	-9.611	-71.579	-102.587	-96.458	-23.712	47.017	-98.255	-94.138	-91.718	-87.551	6.026	-90.173	-8191	255	
18776.107	1	1	0	0	0.10714	0.13283	0.13592	0.31508	0.011739	0.34906	0.20235	0.28245	0.068339	0.11647	0.22472	0.21278	0.053685	0.099756	0.24877	0.13359	-4.3146	-4.2292	-4.9104	-4.5687	-4.3938	-4.6833	-4.2979	-4.75	-4.6729	-4.1396	-4.8854	-4.6167	-4.5375	-4.9875	-4.2604	-4.6562	131.381	167.506	140.468	233.736	6.562	130.226	204.200	148.841	142.230	-19.749	-103.648	233.211	36.277	240.021	81.125	213.156	0.0013013	0.00059111	0.00024193	1060.6	3.8456e-06	9.1313e-06	926.81	398.32	5.1253e-06	4.2359e-06	372.8	151.23	145.79	65.363	5.9498e-06	74.251	0.0040389	0.0039206	0.0010775	1083.4	3.0814e-05	0.0001259	949.44	408.68	3.2126e-05	4.5641e-05	389.68	156.62	151.42	68.108	3.6813e-05	77.17	91.933	-21.544	-15.137	-101.256	44.901	-60.814	-102.508	-96.416	4.102	21.970	-97.987	-94.219	-92.162	-87.532	35.242	-90.364	-8191	255	
18776.203	1	1	0	0	0.09275	0.068311	0.2992	0.30663	0.16054	0.088637	0.042526	0.20685	0.15539	0.13794	0.18388	0.13511	0.20411	0.1352	0.0287	0.18146	-4.3938	-4.2708	-4.8	-4.8125	-4.4667	-4.8771	-4.5729	-4.6438	-4.7208	-4.4417	-5.0437	-4.725	-4.4292	-5.1604	-4.4625	-4.7625	-57.296	-24.017	-16.725	195.872	101.599	152.794	219.059	159.895	98.962	239.530	205.307	-106.465	-109.311	211.946	114.719	122.572	0.00099169	0.00051259	0.00020612	1060.9	7.1621e-06	1.6522e-05	924.86	397.2	5.1778e-06	7.2943e-06	372.22	151.04	145.64	65.756	7.7902e-06	74.048	0.0041907	0.0036968	0.0011007	1083.6	3.009e-05	0.00014613	947.25	407.57	2.9982e-05	4.2499e-05	385.3	156.01	150.89	68.154	3.4528e-05	76.823	91.296	-52.841	-22.109	-101.324	40.091	-64.144	-102.516	-96.466	-2.823	29.086	-98.145	-94.093	-91.826	-87.305	-4.571	-90.088	-8191	255	
18776.301	1	1	0	0	0.19786	0.090775	0.15438	0.12729	0.12272	0.073741	0.13392	0.42932	0.10306	0.062339	0.21244	0.074506	0.13046	0.16279	0.27084	0.41939	-4.2458	-4.3	-4.6333	-4.7729	-4.1271	-4.925	-4.4688	-4.4021	-4.8646	-4.3063	-4.8354	-4.8583	-4.3875	-4.925	-4.4146	-4.6271	169.493	69.638	-76.982	-78.416	-49.518	42.203	119.789	218.975	187.295	-41.163	-85.002	-63.917	225.738	-109.775	95.584	-65.204	0.0011571	0.00072866	0.0001879	1060.4	4.4758e-06	1.1922e-05	921.89	396.22	6.7745e-06	3.8648e-06	372.49	150.21	145.94	65.855	6.8042e-06	74.271	0.0048537	0.0035373	0.0010204	1083.3	2.9213e-05	0.00012387	945.5	407.16	2.9427e-05	4.0917e-05	382.34	157.07	151.43	68.487	3.3446e-05	77.244	84.119	-34.558	-29.756	-101.222	3.876	-21.816	-102.624	-96.397	-7.855	22.021	-98.144	-94.281	-92.049	-87.532	21.260	-90.227	-8191	255	
18776.396	1	1	0	0	0.1723	0.027565	0.070314	0.11155	0.095184	0.21432	0.18478	0.26885	0.090731	0.16019	0.15086	0.31463	0.15977	0.23842	0.16011	0.50389	-4.5708	-4.2937	-4.5	-4.8688	-4.275	-4.7917	-4.7604	-4.5792	-4.7479	-4.4167	-4.6375	-4.8875	-4.3167	-4.9604	-4.4417	-4.35	-73.764	231.715	27.024	219.790	-6.948	102.413	164.478	189.331	11.720	50.877	139.441	-68.103	152.630	165.704	-78.276	191.435	0.0009127	0.00042173	0.00021927	1060.5	4.8483e-06	1.9515e-05	926.95	397.48	8.8278e-06	7.2833e-06	374.71	152.29	147.11	66.204	6.2671e-06	74.641	0.0041612	0.0034712	0.000992	1084.8	2.9407e-05	0.00014395	946.05	408.58	3.1941e-05	4.4193e-05	384.4	158.44	152.58	68.792	3.7077e-05	77.684	95.604	-49.946	-20.505	-101.323	15.668	-43.649	-102.478	-96.370	-11.151	38.727	-98.231	-94.042	-91.972	-87.700	-1.943	-90.271	-8191	255	
18776.518	1	1	0	0	0.12601	0.15756	0.15409	0.19574	0.15254	0.13416	0.38319	0.13947	0.052111	0.091855	0.17722	0.18068	0.38309	0.38593	0.12265	0.18177	-4.5062	-4.4187	-4.5229	-4.9563	-4.1625	-4.8104	-4.6333	-4.2521	-4.9437	-4.3396	-4.7063	-4.8833	-4.3896	-4.9833	-4.8104	-4.4417	99.832	-24.275	151.374	240.742	188.336	25.044	199.501	189.920	229.342	-40.332	-81.870	174.605	186.950	214.398	35.269	-104.600	0.0012246	0.00071022	0.00020081	1056	4.5071e-06	1.9536e-05	920.34	400.13	8.3404e-06	7.9623e-06	376.41	153.39	148.25	66.497	5.6996e-06	75.268	0.0050375	0.0041033	0.0011383	1079.8	3.4665e-05	0.00010413	944.5	411.14	3.5986e-05	4.9847e-05	386.85	160.72	153.46	69.107	4.0195e-05	78.117	86.531	-25.321	-26.259	-101.222	23.540	0.670	-102.790	-96.309	-23.101	40.996	-98.363	-94.126	-92.147	-87.530	-20.793	-90.406	-8191	255	
18776.611	1	1	0	0	0.1971	0.18009	0.083821	0.094974	0.21573	0.23735	0.15259	0.26802	0.13328	0.1146	0.03883	0.14383	0.24501	0.10168	0.23258	0.31847	-4.5312	-4.3812	-4.3708	-4.9354	-4.2792	-4.6625	-4.7812	-4.35	-4.8521	-4.4375	-4.5667	-4.9979	-4.4896	-4.7812	-4.6958	-4.3812	93.485	-74.634	-65.676	132.355	203.417	133.242	205.558	165.917	100.511	108.646	240.451	233.654	227.177	243.822	-114.029	114.561	0.0011393	0.00062988	0.00017897	1062.5	1.049e-05	1.4619e-05	926.07	400.03	8.8154e-06	4.4411e-06	376.26	153.12	146.57	66.292	6.3949e-06	74.729	0.0045177	0.0041775	0.0011585	1082.4	3.4503e-05	5.2229e-05	954.13	411.43	3.6356e-05	4.9033e-05	387.42	159.69	152.57	68.802	4.1316e-05	77.712	101.160	-26.603	13.725	-101.393	33.183	4.662	-102.433	-96.565	-16.899	25.073	-98.387	-94.076	-91.908	-87.472	24.302	-90.211	-8191	255	
18776.709	1	1	0	0	0.053387	0.054631	0.069126	0.33224	0.08176	0.077535	0.14413	0.032467	0.10071	0.043082	0.13808	0.1465	0.090726	0.18449	0.06953	0.12301	-4.4979	-4.4667	-4.3938	-4.8187	-4.4292	-4.6021	-4.9167	-4.5708	-4.7021	-4.6083	-4.3646	-5.0938	-4.4208	-4.6854	-4.95	-4.4792	85.335	19.264	151.524	220.822	-86.795	62.764	-13.431	154.441	40.153	54.106	194.123	174.721	127.468	182.229	121.892	173.561	0.0012742	0.00053934	0.00012721	1059.5	3.9154e-06	5.3861e-06	919.35	398.19	6.4598e-06	8.0495e-06	374.76	151.91	146.8	66.339	6.6814e-06	74.745	0.0051014	0.0040914	0.0011779	1082.6	3.3255e-05	4.683e-05	951.26	409.47	3.4493e-05	4.8239e-05	384.74	159.07	152.42	68.815	4.073e-05	77.583	99.777	-48.039	-13.372	-101.293	4.962	43.021	-102.512	-96.538	-43.640	43.937	-98.395	-94.061	-91.842	-87.679	17.274	-90.110	-8191	255	
18776.803	1	1	0	0	0.20128	0.31073	0.027291	0.20456	0.22134	0.23833	0.11913	0.31601	0.15403	0.085365	0.14476	0.19001	0.071588	0.23374	0.16615	0.089192	-4.3708	-4.6479	-4.2833	-5.1937	-4.3063	-4.5271	-4.9083	-4.3208	-4.7292	-4.625	-4.5	-4.8125	-4.6375	-4.6583	-4.8396	-4.3146	154.368	-72.476	36.405	214.007	-53.776	-103.006	236.257	-114.121	-23.874	-19.206	204.625	134.248	49.806	-97.615	-39.256	32.528	0.00095734	0.00092324	0.00015737	1060.1	3.1902e-06	5.7701e-06	921.59	398.24	8.4227e-06	5.8187e-06	372.47	152.15	147.23	66.176	4.4835e-06	74.908	0.0036177	0.0057931	0.0012114	1083	3.4242e-05	4.8127e-05	953.85	408.96	3.5141e-05	4.93e-05	384.55	158.64	152.57	68.693	4.1258e-05	77.72	109.709	143.607	-27.931	-101.391	31.313	30.555	-102.484	-96.342	-18.587	20.011	-98.299	-93.886	-92.083	-87.368	-13.143	-90.353	-8191	255	
18776.900	1	1	0	0	0.051039	0.18784	0.074914	0.11253	0.13665	0.14465	0.099331	0.072623	0.098707	0.044238	0.17027	0.28708	0.026782	0.1539	0.19099	0.23488	-4.3438	-4.7438	-4.3292	-4.9958	-4.4958	-4.4271	-4.9771	-4.4625	-4.6188	-4.8229	-4.4646	-5.0437	-4.5271	-4.4417	-4.7354	-4.7188	151.584	67.499	-47.995	-96.284	202.297	-24.262	-28.075	43.364	176.669	200.231	73.282	234.413	-80.435	159.760	-54.475	-86.696	0.00099762	0.001177	0.0001755	1060.4	5.8311e-06	6.7218e-06	926.25	400.63	8.1161e-06	7.1954e-06	373.82	153.19	147.87	66.209	5.0818e-06	74.773	0.0020583	0.011884	0.0011977	1085.4	3.362e-05	4.8015e-05	955	411.06	3.5235e-05	5.0302e-05	386.51	160.28	153.23	69.026	4.2852e-05	77.97	109.634	151.297	-19.831	-101.284	21.262	37.124	-102.590	-96.493	-16.833	45.442	-98.103	-94.065	-91.924	-87.450	25.523	-90.387	-8191	255	
18776.996	1	1	0	0	0.19676	0.15861	0.058384	0.049092	0.28245	0.11225	0.06887	0.1298	0.042248	0.15121	0.10062	0.11158	0.12169	0.13146	0.1014	0.22227	-4.0042	-4.7833	-4.1562	-5.0104	-4.4521	-4.4146	-4.9521	-4.6375	-4.4667	-4.9604	-4.1854	-4.8542	-4.5687	-4.5938	-4.8833	-4.4563	54.845	44.979	26.696	-101.030	86.793	-66.405	78.486	226.469	-47.868	155.673	141.125	133.509	176.403	168.182	34.321	223.635	0.0010377	0.00082282	0.00017538	1061.5	4.9729e-06	4.6135e-06	924.71	400.37	7.3991e-06	4.8079e-06	377.36	153.36	147.65	66.492	7.0436e-06	75.258	0.0021162	0.011569	0.0012502	1084.4	3.5475e-05	5.1006e-05	956.45	411.54	3.5191e-05	5.123e-05	388.06	159.67	153.93	69.296	4.1969e-05	78.206	114.014	159.621	-24.491	-101.146	25.331	58.817	-102.764	-96.533	-11.586	67.345	-98.339	-93.997	-91.870	-87.579	46.620	-90.322	-8191	255	
18777.115	1	1	0	0	0.1535	0.19018	0.074922	0.22797	0.16865	0.14824	0.11939	0.12897	0.12581	0.18236	0.12702	0.24637	0.16951	0.13768	0.20069	0.090397	-4.1354	-4.8542	-4.2333	-4.7292	-4.6625	-4.3688	-4.9792	-4.6604	-4.3625	-4.9396	-4.3458	-4.8063	-4.9625	-4.2958	-4.8125	-4.5875	95.889	231.238	-13.422	-105.718	-111.121	37.252	181.101	119.470	15.299	-113.598	159.356	132.578	-38.113	218.968	133.564	74.997	0.0010224	0.0006445	0.00014208	1067.9	5.4424e-06	7.8677e-06	932.76	399.79	5.7986e-06	4.966e-06	375.13	152.34	147.15	66.69	4.8918e-06	75.027	0.002074	0.013322	0.0012016	1089	3.3463e-05	4.8884e-05	958.63	410.54	3.2906e-05	4.8004e-05	386.23	157.92	154.71	69.239	3.9536e-05	78.161	112.979	154.497	-13.455	-101.093	3.776	36.076	-102.687	-96.363	8.622	25.681	-98.345	-94.087	-92.005	-87.419	1.035	-90.292	-8191	255	
18777.213	1	1	0	0	0.049962	0.085436	0.21249	0.18825	0.2639	0.13574	0.38555	0.23651	0.17975	0.1077	0.089521	0.1674	0.077233	0.41733	0.29056	0.10783	-4.0521	-4.7958	-4.2333	-4.575	-4.6833	-4.2063	-4.8042	-4.7646	-4.2937	-4.95	-4.55	-4.7458	-4.8917	-4.2562	-4.7208	-4.8396	-112.545	-38.771	-107.903	-86.227	157.506	70.702	135.713	204.409	240.295	92.810	139.991	-91.083	185.008	227.801	-97.807	186.320	0.00089807	0.00055678	0.00010957	1062.6	3.959e-06	5.184e-06	926.57	399.02	6.9041e-06	3.6236e-06	374.7	153.01	148.8	67.123	5.2801e-06	75.295	0.0020619	0.011484	0.0012406	1082	3.7016e-05	5.3226e-05	954.39	410.44	3.882e-05	5.5828e-05	386.12	158.63	155.72	69.696	4.533e-05	78.616	101.721	177.685	-8.908	-101.252	-29.536	44.216	-102.688	-96.514	-57.333	2.127	-98.068	-94.139	-91.812	-87.356	18.175	-90.376	-8191	255	
18777.309	1	1	0	0	0.054839	0.087646	0.12632	0.36282	0.078723	0.23534	0.082826	0.47339	0.2042	0.15625	0.29488	0.10874	0.34576	0.36796	0.08189	0.17257	-3.8958	-4.6083	-4.4208	-4.5833	-4.8771	-4.4271	-5.0042	-4.8458	-4.225	-4.9917	-4.4604	-4.5896	-4.9333	-4.4229	-4.7333	-4.7688	149.901	-26.224	231.911	-24.274	-9.264	12.815	207.456	225.891	176.620	102.954	223.688	110.170	-96.563	152.408	-15.571	151.625	0.0010862	0.00099761	0.00017926	1053.3	3.8391e-06	6.4958e-06	920.75	401.37	4.6352e-06	4.866e-06	372.75	152.39	147.32	66.184	7.6702e-06	74.609	0.0022577	0.013473	0.0013614	1076.9	3.955e-05	5.7461e-05	944.23	412.68	4.0567e-05	5.9962e-05	385.18	157.76	155.17	68.873	4.6273e-05	77.647	113.226	200.536	-17.322	-101.182	15.684	41.333	-102.310	-96.266	-10.448	29.320	-98.202	-94.155	-91.818	-87.634	1.891	-90.202	-8191	255	
18777.381	1	1	0	0	0.067684	0.14105	0.15437	0.076828	0.078457	0.075388	0.097288	0.35129	0.14063	0.10302	0.06011	0.10898	0.10506	0.38801	0.12021	0.063607	-4.0687	-4.8396	-4.4521	-4.5188	-4.8187	-4.3146	-4.7917	-4.8875	-4.3438	-4.6604	-4.725	-4.3479	-5.1729	-4.3979	-4.4729	-4.9688	67.002	-14.013	175.010	108.270	82.988	-46.997	225.638	-92.430	-99.050	69.008	30.866	13.293	145.527	212.423	4.733	166.253	0.001016	0.00083895	0.00019466	1059.7	6.1113e-06	6.2704e-06	921.2	394.23	8.38e-06	4.9652e-06	373.75	153.15	148.03	66.415	5.685e-06	75.004	0.0022031	0.011589	0.0012441	1081.1	3.5304e-05	4.9469e-05	942.28	410.75	3.4659e-05	5.0165e-05	384.49	158.09	155.35	68.999	4.2983e-05	78.202	112.030	210.273	-0.243	-101.222	23.586	35.901	-102.577	-96.387	-27.994	40.646	-98.476	-94.026	-91.786	-87.617	27.682	-90.217	-8191	255	
18777.502	1	1	0	0	0.34381	0.025395	0.24858	0.077048	0.075284	0.14692	0.057656	0.24438	0.14303	0.11975	0.23225	0.21699	0.10257	0.056705	0.24931	0.093924	-3.8937	-4.7292	-4.4958	-4.4938	-4.9	-4.3125	-4.5667	-4.7771	-4.2604	-4.6562	-4.6771	-4.4146	-4.9583	-4.5042	-4.4417	-5.0521	7.025	-55.491	12.701	40.160	111.331	196.879	206.635	173.718	129.240	29.325	109.852	145.395	181.007	148.080	160.227	24.797	0.0010288	0.00085028	0.00020125	1051.6	4.0377e-06	6.2369e-06	921.54	399.39	2.9629e-06	6.9859e-06	376.51	154.21	148.18	66.578	6.7869e-06	75.857	0.0022622	0.013789	0.0014114	1077.1	4.3514e-05	6.1921e-05	942.08	413.36	4.397e-05	6.381e-05	387.84	159.88	156.45	69.344	4.8865e-05	78.835	113.445	195.953	-6.035	-101.154	-11.095	25.491	-102.264	-96.148	-38.309	59.069	-98.319	-94.329	-91.847	-87.586	-0.798	-90.090	-8191	255	
18777.598	1	1	0	0	0.052462	0.1443	0.15861	0.15566	0.042852	0.19227	0.10909	0.099579	0.13073	0.075014	0.15584	0.22482	0.092134	0.34154	0.015424	0.034246	-4.0271	-4.6438	-4.6062	-4.325	-4.7875	-4.2333	-4.6604	-4.8688	-4.2521	-4.5563	-4.8292	-4.1667	-4.8417	-4.5125	-4.3875	-4.9646	211.635	191.755	98.353	202.545	50.282	-24.173	174.653	112.587	29.189	214.124	222.061	213.688	-105.160	220.173	23.215	231.927	0.00096619	0.0008813	0.00016534	1049.5	6.7162e-06	8.8051e-06	920.74	397.98	5.8097e-06	4.0031e-06	373.2	152.14	146.57	66.262	4.6122e-06	74.884	0.0023359	0.0084535	0.0021086	1077.4	3.8214e-05	5.3582e-05	945.17	412.58	3.6356e-05	4.9943e-05	384.89	157.64	154.14	68.92	3.9713e-05	77.944	111.766	-43.413	194.845	-101.205	24.093	32.778	-102.302	-96.478	-35.741	69.016	-98.112	-94.026	-91.997	-87.421	10.398	-90.149	-8191	255	
18777.693	1	1	0	0	0.12537	0.10271	0.10417	0.34313	0.26178	0.27467	0.088859	0.24406	0.17167	0.034398	0.106	0.24034	0.079714	0.24307	0.20822	0.14183	-3.9021	-4.6958	-4.7542	-4.2729	-4.8688	-4.4729	-4.5062	-5.025	-4.3396	-4.5021	-4.7458	-4.2542	-4.6292	-4.6667	-4.125	-5.0563	103.654	98.093	172.462	164.756	-0.452	106.526	-85.289	159.943	113.158	-66.421	224.038	171.030	-30.628	205.251	214.428	150.954	0.0010026	0.00064017	0.0002004	1061	4.122e-06	7.0465e-06	927.78	395.73	7.2383e-06	9.4549e-06	371.98	149.92	145.58	65.808	5.8844e-06	74.54	0.0019675	0.0037532	0.0035784	1083.8	3.1583e-05	4.5005e-05	945.55	408.81	3.2855e-05	4.6692e-05	382.45	155.97	153.79	68.454	4.064e-05	77.516	115.897	-49.678	191.609	-101.338	15.151	45.917	-102.348	-96.429	-27.269	36.008	-98.478	-94.100	-91.609	-87.440	40.101	-90.224	-8191	255	
18777.789	1	1	0	0	0.0044173	0.23004	0.094592	0.16377	0.10997	0.092322	0.14755	0.019533	0.14685	0.2247	0.17514	0.099756	0.057166	0.39418	0.11776	0.11445	-3.9354	-4.3792	-4.5125	-4.3688	-4.65	-4.5563	-4.4458	-5.1708	-4.3958	-4.175	-4.8521	-4.2729	-4.5167	-4.7375	-4.1667	-4.9563	150.377	-36.089	97.823	142.909	103.232	47.560	83.582	100.247	-85.968	125.789	-7.446	78.966	146.421	203.608	-19.314	188.923	0.0010404	0.00061524	0.00028834	1060.1	7.5179e-06	6.2341e-06	920.23	399.27	1.1143e-05	7.3776e-06	374.86	152.89	148.44	66.767	2.6497e-06	75.222	0.002035	0.004319	0.0032681	1083.3	3.7321e-05	5.2761e-05	942.6	413.86	4.0396e-05	5.898e-05	385.91	159.09	154.72	69.553	5.4286e-05	78.443	109.408	-35.966	-106.098	-101.206	-4.585	40.188	-102.800	-96.291	-16.669	27.499	-98.312	-94.126	-91.937	-87.592	-5.350	-90.252	-8191	255	
18777.908	1	1	0	0	0.15455	0.19898	0.27675	0.029354	0.14613	0.097729	0.14865	0.22856	0.051111	0.10362	0.12103	0.21439	0.26679	0.22705	0.21156	0.18098	-4.0604	-4.4021	-4.7625	-4.4021	-4.6354	-4.6312	-4.2479	-5.0667	-4.4458	-4.2167	-4.9688	-4.4146	-4.6833	-4.7708	-4.2542	-4.6854	42.264	-83.018	243.329	168.301	166.996	116.727	-85.314	186.120	239.939	-16.425	-57.684	-100.680	178.612	150.208	21.726	189.602	0.0010041	0.00073884	0.00036196	1043.2	4.1094e-06	6.3324e-06	907.05	400.36	7.5081e-06	3.4671e-06	376.27	154.74	149.32	66.89	7.8843e-06	75.893	0.0025923	0.0059874	0.0042956	1068.6	4.8539e-05	7.2959e-05	933.5	413.75	4.8562e-05	6.8394e-05	388.08	160.5	155.23	70.219	5.3676e-05	79.102	112.696	-12.706	241.147	-101.273	6.864	39.263	-102.537	-96.468	-65.787	9.522	-98.339	-93.947	-92.088	-87.380	28.357	-90.381	-8191	255	
18777.980	1	1	0	0	0.16184	0.18325	0.099076	0.35413	0.19081	0.20268	0.056433	0.14507	0.057104	0.079837	0.082636	0.28229	0.49378	0.28267	0.09636	0.050152	-4.1708	-4.1875	-4.9042	-4.5333	-4.5625	-4.8104	-4.4333	-4.8792	-4.6312	-4.3104	-4.9062	-4.5062	-4.5896	-4.9917	-4.2021	-4.8875	33.190	-80.989	228.512	211.021	213.690	-105.672	243.334	234.628	144.627	10.499	-82.708	-60.026	-103.795	-99.450	168.075	2.116	0.0010199	0.00083382	0.00021779	1046.9	5.8911e-06	7.0732e-06	917.16	400.86	4.222e-06	7.9162e-06	375.17	154.22	147.98	66.855	8.8861e-06	75.708	0.0025018	0.0057294	0.0036368	1072.1	4.4024e-05	6.59e-05	940.26	415.51	4.3865e-05	6.1594e-05	388.08	159.97	153.99	69.932	4.5594e-05	78.862	113.984	-39.950	-113.114	-101.121	14.667	56.675	-102.511	-96.313	-8.969	49.373	-98.236	-93.898	-91.844	-87.250	19.879	-89.949	-8191	255	
18778.076	1	1	0	0	0.19335	0.067831	0.16807	0.22937	0.097843	0.23509	0.029736	0.28924	0.13258	0.057207	0.13831	0.17627	0.14734	0.38553	0.076849	0.24688	-4.2167	-4.1396	-4.8229	-4.4708	-4.4938	-4.7063	-4.3479	-4.9583	-4.6188	-4.4354	-4.9583	-4.5813	-4.4708	-4.9854	-4.1604	-4.8229	42.954	177.713	-71.426	186.097	40.747	65.200	240.432	161.254	-2.226	-101.570	223.103	-107.403	-64.320	185.021	100.511	174.546	0.00098692	0.00054006	0.00053382	1056.9	4.8481e-06	6.051e-06	922.71	397.33	3.9298e-06	6.751e-06	373.82	151.84	146.93	66.025	3.1891e-06	74.838	0.0022223	0.0047775	0.0038968	1079.6	3.7096e-05	5.5757e-05	943.8	409.79	6.2537e-05	5.3224e-05	383.63	157.34	152.33	69.383	4.1664e-05	77.779	109.281	-30.615	-100.475	-101.092	-7.371	76.209	-102.626	-96.377	23.252	26.440	-98.183	-94.406	-92.092	-87.466	-13.147	-90.155	-8191	255	
18778.197	1	1	0	0	0.20392	0.16346	0.15337	0.16931	0.076108	0.19577	0.19129	0.19263	0.099045	0.18467	0.099215	0.030243	0.079571	0.28624	0.17331	0.12919	-4.3146	-4.1333	-4.8646	-4.5854	-4.2958	-5.0687	-4.4354	-4.7354	-4.8042	-4.425	-4.95	-4.7979	-4.4917	-5.1562	-4.3562	-4.8375	39.512	23.829	-108.891	180.004	-100.488	131.317	139.719	244.611	138.130	69.160	210.869	113.522	149.482	188.900	177.461	149.632	0.0010354	0.0007031	0.00038021	1058.5	7.3228e-06	6.1192e-06	925.44	394.67	2.3041e-05	8.7701e-06	368.07	149.37	145.06	65.797	6.8621e-06	74.391	0.0021017	0.0043965	0.0032943	1083.3	3.4603e-05	5.1405e-05	947.89	405.38	0.00010806	4.7976e-05	379.56	155.22	150.4	68.816	3.5233e-05	77.168	109.165	-43.750	-105.675	-101.364	-29.126	60.384	-102.324	-96.376	19.603	43.894	-98.381	-94.309	-92.148	-87.589	24.489	-90.187	-8191	255	
18778.293	1	1	0	0	0.15343	0.074619	0.090506	0.13667	0.12011	0.18875	0.087205	0.22825	0.11767	0.086127	0.20776	0.19869	0.083791	0.13602	0.21799	0.13495	-4.4812	-4.275	-4.6625	-4.6979	-4.2458	-5.0708	-4.4167	-4.6917	-4.7354	-4.3958	-4.8167	-4.8396	-4.2271	-5.2229	-4.2646	-4.5188	-111.103	-38.598	66.856	219.770	56.495	-30.265	192.260	215.038	64.739	16.739	213.245	-37.777	-90.632	238.451	210.721	205.718	0.00091965	0.000592	0.00042853	1063.9	3.9735e-06	5.7184e-06	930.64	390.48	1.5892e-05	7.0664e-06	368.45	148.48	144.38	65.387	5.4038e-06	73.674	0.001812	0.0035999	0.0034411	1087.2	2.7034e-05	3.811e-05	950.57	402.06	8.2665e-05	3.701e-05	378.12	153.92	149.51	68.489	3.1177e-05	76.882	107.764	-33.147	-70.181	-101.463	-11.615	47.426	-102.692	-96.464	33.794	34.038	-98.289	-94.339	-92.196	-87.576	2.965	-90.188	-8191	255	
18778.389	1	1	0	0	0.41864	0.075425	0.14928	0.19308	0.23237	0.12934	0.065754	0.086784	0.1479	0.094512	0.23583	0.026984	0.19376	0.088405	0.091114	0.09939	-4.5104	-4.1708	-4.625	-4.8708	-4.4208	-4.8458	-4.5396	-4.4812	-4.8479	-4.2917	-4.7146	-4.6917	-4.2937	-5.1312	-4.425	-4.6125	-96.791	-61.217	-100.370	226.796	-67.103	147.848	70.169	171.418	8.416	170.768	178.597	8.914	210.043	-51.764	159.638	179.650	0.00098324	0.00038683	0.00043695	1074	4.8386e-06	4.7439e-06	940.35	391.61	2.6327e-05	2.9015e-06	369.57	149.43	144.7	65.447	4.0719e-06	74.161	0.0017152	0.0033869	0.0016324	1100.3	2.8546e-05	4.0803e-05	960.09	402.23	0.00010168	4.1597e-05	380.68	154.75	149.88	68.445	3.8357e-05	77.098	109.974	-15.821	-59.157	-101.357	20.995	20.951	-102.645	-96.335	40.413	37.326	-98.211	-93.872	-91.881	-87.439	24.026	-90.252	-8191	255	
18778.510	1	1	0	0	0.028494	0.049145	0.11611	0.11774	0.16818	0.19409	0.071583	0.26845	0.056235	0.066195	0.12872	0.22937	0.19175	0.019288	0.030793	0.24085	-4.425	-4.2354	-4.65	-5.0667	-4.2896	-4.8562	-4.6917	-4.3333	-4.875	-4.2875	-4.6	-4.9292	-4.4604	-4.8229	-4.6604	-4.4833	166.107	153.029	72.629	119.292	-112.928	87.557	157.223	236.874	175.727	-96.150	162.348	194.699	226.923	-3.048	49.327	201.736	0.00098944	0.00063732	0.00016605	1071.2	4.8215e-06	4.4622e-06	935.63	389.58	2.0479e-05	3.9758e-06	368.52	149.2	144.01	65.019	5.3649e-06	73.877	0.0021123	0.0044051	0.0012602	1106.1	3.8391e-05	5.51e-05	961.98	401.7	9.9064e-05	5.8077e-05	381.24	154.55	149.7	68.282	5.0352e-05	76.784	108.949	-17.184	-25.553	-101.498	-0.613	40.374	-102.654	-96.275	50.341	23.894	-98.197	-94.358	-91.827	-87.318	31.462	-90.269	-8191	255	
18778.605	1	1	0	0	0.12029	0.23362	0.27389	0.15041	0.074115	0.085767	0.070716	0.047324	0.066625	0.20724	0.13977	0.16883	0.048212	0.33886	0.11937	0.28991	-4.6687	-4.3542	-4.3854	-4.9646	-4.2792	-4.7646	-4.7354	-4.5062	-4.8375	-4.3417	-4.6	-4.8542	-4.2208	-4.9375	-4.7271	-4.4021	-85.646	85.999	-80.520	198.963	130.520	-45.165	46.984	-86.530	18.634	1.890	-27.336	-109.285	-23.289	195.020	-30.031	189.807	0.00094297	0.00061886	0.00010808	1071.5	6.6941e-06	6.053e-06	933.5	393.7	2.5571e-05	6.586e-06	369.27	147.95	143.8	65.474	1.5896e-05	73.639	0.0024543	0.0053856	0.0015768	1105.4	4.6547e-05	6.7337e-05	960.59	404.69	0.00012159	6.5133e-05	381.12	154.06	149.73	68.159	8.6622e-05	76.766	107.844	-10.667	-11.715	-101.399	5.992	37.381	-102.525	-96.635	59.241	59.492	-97.989	-94.028	-91.621	-87.431	220.308	-89.875	-8191	255	
18778.678	1	1	0	0	0.1551	0.28084	0.065187	0.16031	0.11842	0.1769	0.092004	0.1005	0.13771	0.18938	0.078335	0.22953	0.26022	0.13935	0.092382	0.061627	-4.5312	-4.4542	-4.4563	-5.0208	-4.2354	-4.5125	-4.9	-4.4	-4.6458	-4.4917	-4.4979	-4.8792	-4.4792	-4.6896	-4.6479	-4.3292	-29.941	214.144	204.892	-106.888	150.304	213.287	182.004	223.457	20.363	-67.479	129.133	195.608	175.258	-112.057	9.233	-14.676	0.00090841	0.00023504	0.000152	1078.6	5.1314e-06	4.431e-06	941.75	388.61	1.712e-05	6.1574e-06	364.73	146.47	141.32	64.545	1.3405e-05	72.878	0.002383	0.0050768	0.0014132	1111.2	3.7834e-05	5.3383e-05	962.73	400.08	9.2804e-05	4.8849e-05	375.82	151.36	146.83	67.073	0.00012323	75.663	112.285	-18.974	-12.749	-101.504	20.354	42.262	-102.688	-96.305	61.648	26.785	-98.088	-94.259	-91.873	-87.238	223.032	-90.194	-8191	255	
18778.797	1	1	0	0	0.12521	0.040763	0.15613	0.11459	0.14332	0.11093	0.13755	0.28755	0.17762	0.14991	0.18898	0.23129	0.052322	0.22424	0.083566	0.20716	-4.5167	-4.4708	-4.325	-4.8375	-4.1917	-4.45	-4.9021	-4.4542	-4.7083	-4.5896	-4.3979	-4.9	-4.4354	-4.6104	-4.9271	-4.525	191.794	76.035	-71.077	129.879	-3.654	3.621	-110.708	177.992	184.049	127.877	100.890	-109.745	155.897	-113.726	201.489	49.998	0.00093833	0.00048925	0.0001403	1078.8	2.7583e-06	6.088e-06	941.76	390.79	2.2878e-05	7.6051e-06	372.59	150.35	145.3	65.701	1.1181e-05	74.347	0.0019366	0.0037381	0.0010619	1107.8	3.0921e-05	4.5531e-05	962.65	402.71	9.9091e-05	5.254e-05	382.85	155.39	150.93	68.501	0.00011572	77.658	112.460	-30.717	-29.453	-101.283	33.766	32.843	-102.735	-96.325	29.371	62.542	-98.287	-93.765	-91.872	-87.491	209.383	-90.379	-8191	255	
18778.893	1	1	0	0	0.085411	0.22446	0.05163	0.15636	0.19362	0.20998	0.19023	0.21068	0.068431	0.093184	0.078263	0.12643	0.34008	0.10282	0.18533	0.26492	-4.3792	-4.6458	-4.1521	-5.1083	-4.6146	-4.4104	-4.9979	-4.375	-4.65	-4.5958	-4.3854	-4.9667	-4.5062	-4.5042	-5.0146	-4.4688	14.636	125.183	140.194	243.060	215.010	-79.964	-104.197	229.033	-64.331	99.196	196.315	204.658	-97.780	158.114	153.836	122.525	0.0009297	0.00093218	0.00023597	1070.7	6.6081e-06	1.0353e-05	933.12	400.64	2.2885e-05	6.07e-06	378.39	153.38	148.4	67.142	8.979e-06	76.397	0.0023662	0.0053263	0.0015497	1102.7	4.4005e-05	6.6101e-05	956.51	412.03	5.9891e-05	0.00011721	389.97	159.42	154.29	69.823	0.00014032	79.282	112.218	-8.721	-39.490	-101.338	31.627	30.098	-102.710	-96.303	28.647	136.705	-98.365	-94.262	-92.000	-87.379	224.923	-90.066	-8191	255	
18778.988	1	1	0	0	0.27855	0.14366	0.15029	0.27228	0.11476	0.15202	0.32483	0.20659	0.24291	0.046629	0.40864	0.35602	0.14408	0.24805	0.11094	0.11125	-4.3896	-4.7312	-4.2167	-4.9021	-4.4917	-4.4229	-5.0729	-4.5125	-4.5083	-4.7125	-4.5583	-4.7438	-4.6896	-4.5	-4.8271	-4.6	92.233	78.588	206.985	226.786	69.001	152.860	212.242	183.520	-90.522	123.306	213.197	222.722	81.028	-105.853	-102.969	-108.243	0.00097943	0.00047255	0.00022086	1062.9	9.1436e-06	9.4437e-06	926.67	401.2	4.7614e-06	2.2117e-05	378.11	154.13	149.29	67.737	1.0223e-05	76.302	0.00245	0.0054841	0.0015167	1094.7	4.2698e-05	6.2981e-05	951.34	413.06	4.2943e-05	0.00017271	389.07	159.48	154.84	70.378	0.00011634	79.323	111.551	-32.157	-46.340	-101.110	9.964	39.991	-102.485	-96.496	25.173	90.006	-98.220	-94.030	-91.900	-87.302	228.551	-90.302	-8191	255	
18779.086	1	1	0	0	0.078489	0.131	0.19184	0.34502	0.22974	0.26895	0.10141	0.14868	0.062078	0.10409	0.20975	0.042923	0.078392	0.082196	0.12936	0.075485	-4.0979	-4.6708	-4.2688	-4.7896	-4.5104	-4.3646	-5.0396	-4.4021	-4.4688	-4.7708	-4.1937	-4.6937	-4.6438	-4.4646	-4.7021	-4.5792	30.044	140.072	-103.804	217.232	167.593	183.143	56.292	151.631	96.509	139.105	220.017	191.864	-108.707	-60.107	-79.471	70.599	0.0011125	0.00076854	0.0001919	1065	5.2867e-06	6.3203e-06	924.94	398.7	7.0711e-06	1.895e-05	374.01	152.16	147.21	66.883	1.4503e-05	75.316	0.0023835	0.0054849	0.0015006	1095.8	4.603e-05	6.5602e-05	951.11	410.7	4.831e-05	0.0001576	385.94	157.84	153.44	69.756	0.00014579	78.436	112.073	-25.796	-31.953	-101.072	-52.218	37.587	-102.663	-96.266	-6.059	107.124	-98.094	-94.176	-91.833	-87.459	-109.220	-90.264	-8191	255	
18779.205	1	1	0	0	0.091922	0.3084	0.077238	0.19497	0.24748	0.15338	0.27533	0.27816	0.13392	0.080299	0.084324	0.045876	0.24139	0.05614	0.17912	0.2196	-4.0146	-4.6604	-4.2083	-4.7042	-4.7375	-4.0875	-4.7438	-4.6521	-4.2312	-4.8438	-4.5437	-4.5958	-4.7667	-4.4542	-4.6583	-4.7208	-49.869	145.513	15.791	189.992	38.831	1.205	235.723	200.410	126.810	120.234	182.326	-94.870	-23.230	163.288	11.921	181.990	0.0010017	0.00055463	0.00024625	1059.4	8.8088e-06	8.9602e-06	929.12	400.06	5.2563e-06	1.6595e-05	374.66	151.99	147.84	67.142	1.0069e-05	75.374	0.0027526	0.0062389	0.0017356	1087.8	8.7706e-05	7.427e-05	950.17	411.08	5.1532e-05	0.00018544	386.5	158.09	153.7	69.848	0.00012678	78.547	113.554	19.586	-27.798	-101.194	23.452	62.362	-102.644	-96.229	-11.605	104.829	-98.121	-93.663	-92.198	-87.545	243.091	-90.393	-8191	255	
18779.277	1	1	0	0	0.085015	0.14363	0.031039	0.1294	0.1776	0.075572	0.095529	0.24836	0.17445	0.30004	0.23321	0.29335	0.023383	0.16317	0.053166	0.16793	-4.0521	-4.7104	-4.3542	-4.625	-4.7271	-4.1708	-4.7021	-4.5708	-4.2229	-4.8562	-4.2937	-4.3875	-4.95	-4.4187	-4.475	-4.5896	120.393	163.767	-9.969	178.727	-57.343	104.453	-87.258	241.678	197.344	26.518	182.325	141.455	119.374	236.146	-69.532	189.165	0.00093217	0.00061669	0.00024622	1060.1	2.835e-05	4.1132e-06	928.46	398.7	7.2146e-06	1.8954e-05	373.74	152.26	147.87	67.2	1.2817e-05	75.844	0.0026941	0.0061488	0.0016936	1087.1	0.00012218	6.6436e-05	951.81	410.89	4.5499e-05	0.00015139	385.99	158.25	153.81	69.802	0.00011713	78.933	111.637	-41.845	-32.101	-101.330	4.138	40.399	-102.525	-96.377	-14.757	123.705	-98.099	-94.070	-91.695	-87.499	7.011	-90.248	-8191	255	
18779.373	1	1	0	0	0.072363	0.069047	0.063944	0.32506	0.10318	0.1543	0.15523	0.19043	0.16413	0.08399	0.17095	0.14666	0.18806	0.17879	0.14431	0.19341	-3.9813	-4.7958	-4.3917	-4.5229	-4.8729	-4.1521	-4.8333	-4.7979	-4.1542	-4.8104	-4.4521	-4.4167	-4.9062	-4.2854	-4.8375	-4.7271	-30.194	82.820	218.245	215.604	201.553	-99.396	184.193	-93.608	139.114	236.289	-64.717	240.870	-70.253	197.519	-87.420	206.438	0.00094561	0.00077109	0.00017413	1070.5	2.4421e-05	6.6514e-06	929.57	400.01	6.6194e-06	1.2673e-05	375.31	152.07	147.75	66.868	9.6409e-06	75.565	0.0024031	0.005214	0.0014413	1092.6	0.00010137	6.143e-05	953.31	411.72	4.403e-05	0.0001748	386.79	158.34	153.58	69.633	6.0389e-05	78.896	111.587	-40.519	-9.917	-101.283	18.416	31.037	-102.556	-96.452	-40.764	118.942	-98.177	-94.014	-91.946	-87.546	-16.243	-90.185	-8191	255	
18779.469	1	1	0	0	0.27454	0.23149	0.19195	0.051085	0.12087	0.08534	0.16562	0.19471	0.16712	0.080555	0.18824	0.21075	0.099257	0.37197	0.16779	0.35296	-3.8458	-4.7937	-4.4	-4.5938	-4.8438	-4.3354	-4.5833	-4.8083	-4.2042	-4.675	-4.6667	-4.3854	-4.8875	-4.5646	-4.5604	-4.8521	242.174	113.172	147.172	-0.847	201.344	-72.222	213.102	206.373	-14.287	176.226	154.692	245.727	194.708	229.001	233.182	155.923	0.00094683	0.00080629	0.00015237	1070.7	3.1139e-05	5.9702e-06	930.2	393.08	5.7353e-06	1.4573e-05	368.43	149.24	145.44	65.942	4.0574e-06	74.053	0.0023836	0.0050418	0.0014484	1092.2	0.00011389	5.6289e-05	951.22	405.36	3.9744e-05	0.00014547	380.1	154.77	150.62	68.513	4.4254e-05	77.835	109.357	-25.864	-17.831	-101.454	17.245	32.828	-102.516	-96.174	-22.220	126.466	-98.102	-94.212	-92.061	-87.400	8.891	-90.131	-8191	255	
18779.590	1	1	0	0	0.22618	0.21792	0.19171	0.093434	0.16294	0.10308	0.3032	0.12901	0.068169	0.09279	0.25487	0.12225	0.13416	0.159	0.085216	0.1963	-3.8729	-4.6625	-4.5979	-4.3875	-4.8396	-4.4083	-4.7271	-4.7458	-4.1979	-4.5875	-4.6708	-4.3292	-4.975	-4.5833	-4.5396	-4.85	-66.487	-93.917	111.007	-86.904	-35.050	132.519	220.180	-112.664	164.859	170.513	184.110	156.744	-24.724	-92.926	182.253	142.306	0.00095521	0.00058386	0.00015979	1065.8	1.7257e-05	4.5677e-06	928.9	395.44	4.5367e-06	1.9708e-05	368.07	149.48	144.95	66.016	3.0762e-06	74.341	0.0022148	0.0047213	0.0013081	1091	9.6204e-05	5.5677e-05	951.24	406.03	4.1802e-05	0.00014512	381.49	155.36	151.36	68.822	5.1955e-05	77.945	115.265	-44.443	-9.056	-101.244	10.445	30.399	-102.271	-96.369	-12.881	68.484	-98.236	-93.890	-91.971	-87.319	23.260	-90.313	-8191	255	
18779.686	1	1	0	0	0.056102	0.53865	0.20956	0.34812	0.07321	0.098187	0.02221	0.18549	0.32946	0.23365	0.10033	0.065105	0.17926	0.16703	0.10225	0.006822	-3.95	-4.7312	-4.5417	-4.2667	-4.6896	-4.4375	-4.4563	-4.9958	-4.225	-4.525	-4.8313	-4.1229	-4.8875	-4.675	-4.3229	-5.0625	-66.202	4.270	-58.925	182.241	173.327	204.601	237.233	-9.151	118.995	126.526	-1.906	219.758	-86.213	207.973	99.507	-17.080	0.0010009	0.00045913	7.9224e-05	1065.8	2.7308e-05	5.0569e-06	927.71	396.44	7.345e-06	1.5559e-05	373.17	151.94	148.15	66.924	5.016e-06	74.936	0.0024387	0.0054117	0.001518	1089.7	0.00011696	6.1831e-05	949.92	408.84	4.2412e-05	7.2303e-05	387.31	157.31	153.11	69.545	5.1214e-05	78.933	114.236	-40.675	43.641	-101.006	11.066	35.103	-102.613	-96.440	-37.049	65.760	-98.161	-94.239	-92.208	-87.487	-5.646	-90.114	-8191	255	
18779.781	1	1	0	0	0.12236	0.21581	0.10688	0.084005	0.089908	0.23503	0.13136	0.078477	0.036042	0.27291	0.18274	0.11903	0.18896	0.17224	0.11885	0.18799	-3.9354	-4.4125	-4.6979	-4.3104	-4.7792	-4.5646	-4.6	-4.8938	-4.2583	-4.4688	-4.8625	-4.2688	-4.9271	-4.7521	-4.1687	-5.1354	-9.626	35.931	162.266	144.789	-78.360	-95.595	-4.567	109.117	112.490	-56.385	242.115	99.825	150.734	168.387	124.028	132.651	0.0009962	0.00066456	0.00016994	1065.2	2.0247e-05	2.9576e-06	927.46	396.78	6.666e-06	6.2613e-06	370.88	151.56	145.6	66.242	5.8477e-06	74.735	0.0024064	0.0054121	0.0015435	1091.8	0.00010087	6.2666e-05	952.4	408.72	4.2872e-05	6.1931e-05	389.23	156.66	151.92	68.916	4.9595e-05	78.377	110.088	-16.067	-31.175	-101.302	28.707	22.600	-102.274	-96.413	-32.207	34.054	-98.120	-94.141	-91.969	-87.284	-8.119	-90.234	-8191	255	
18779.879	1	1	0	0	0.11314	0.12306	0.36708	0.1323	0.15747	0.025268	0.21679	0.16839	0.21923	0.058605	0.15778	0.2594	0.086602	0.36134	0.052435	0.15867	-3.9708	-4.5854	-4.7104	-4.4458	-4.5188	-4.5542	-4.3979	-5.0167	-4.5542	-4.3521	-4.9417	-4.3646	-4.9042	-4.6917	-4.3167	-4.8562	139.547	191.049	151.094	154.514	239.182	241.468	179.436	-56.326	-78.149	212.584	205.357	231.651	196.643	-110.247	-49.219	182.832	0.0010233	0.00043078	0.00021655	1070.4	2.3611e-05	6.483e-06	935.26	394.69	6.3374e-06	6.3559e-06	370.46	149.17	144.55	65.869	3.5528e-06	74.204	0.0023387	0.0051677	0.0014734	1096.4	9.4997e-05	7.4841e-05	959.57	405.98	4.0587e-05	5.9476e-05	385.49	154.57	150.54	68.489	4.363e-05	77.814	112.267	-67.654	13.193	-101.328	30.274	106.309	-102.413	-96.234	-38.763	41.549	-98.228	-93.935	-91.770	-87.257	14.030	-90.379	-8191	255	
18779.973	1	1	0	0	0.09973	0.15699	0.021101	0.067596	0.020994	0.094624	0.2664	0.25452	0.15454	0.17746	0.19358	0.084588	0.14127	0.1405	0.10361	0.25791	-4.2937	-4.4333	-4.7604	-4.4896	-4.5229	-4.8042	-4.3833	-4.9062	-4.6438	-4.2688	-4.9542	-4.35	-4.6208	-5.1042	-4.0938	-4.9062	243.550	34.301	66.027	154.636	-111.391	198.170	157.975	141.048	146.019	-48.753	169.159	103.869	129.281	-73.024	-112.079	214.683	0.00095595	0.000776	0.00014932	1074.6	2.2451e-05	5.9034e-06	934.36	391.94	8.1033e-06	6.6964e-06	367.24	148.14	144.55	65.981	5.7008e-06	74.094	0.0021185	0.0045221	0.0013022	1096.7	4.115e-05	0.00011997	956.59	404.02	3.9137e-05	5.6371e-05	384.42	154.05	150.42	68.612	5.0756e-05	77.716	108.046	-31.810	-14.414	-101.451	17.810	21.575	-102.583	-96.638	-29.335	36.193	-98.067	-93.995	-91.680	-87.338	3.171	-90.279	-8191	255	
18780.068	1	1	0	0	0.13607	0.17298	0.1462	0.23802	0.37941	0.11982	0.36471	0.05982	0.085482	0.20077	0.2218	0.0040626	0.12733	0.20482	0.080447	0.16814	-4.0625	-4.3479	-4.7458	-4.6167	-4.4521	-4.8063	-4.4417	-4.7438	-4.6542	-4.1438	-5.05	-4.4833	-4.5208	-5.1271	-4.1167	-4.7083	138.993	-113.048	224.466	171.095	-95.457	166.897	161.245	207.922	-31.565	61.744	169.585	59.105	163.353	183.805	121.749	-30.549	0.001009	0.00064594	0.00015651	1067.1	2.6822e-06	2.0562e-05	930.65	396.13	2.4673e-06	7.0151e-06	369.57	149.77	146.2	66.363	8.101e-06	74.613	0.0025225	0.0056177	0.0016317	1092.7	4.7117e-05	0.00018036	951.85	407.83	4.7979e-05	6.8122e-05	386.48	155.49	152.24	69.061	5.2346e-05	78.014	116.896	-4.762	-35.204	-101.253	27.483	56.660	-102.690	-96.295	-36.839	37.746	-97.771	-94.202	-91.818	-87.577	0.104	-90.139	-8191	255	
18780.189	1	1	0	0	0.1516	0.030042	0.025339	0.15161	0.075755	0.24168	0.13344	0.23326	0.20382	0.13375	0.29428	0.18331	0.20967	0.17744	0.11009	0.10816	-4.4646	-4.1021	-4.7583	-4.5229	-4.4333	-4.8375	-4.5167	-4.9	-4.6396	-4.3042	-4.8271	-4.4958	-4.4625	-5.0979	-4.325	-4.8562	98.362	224.139	208.572	221.926	-105.232	-95.226	190.364	176.072	19.232	215.327	-74.535	-82.989	142.916	206.963	125.180	172.778	0.0012161	0.00061828	0.00010626	1068.6	5.8596e-06	1.8071e-05	928.55	396.92	6.2636e-06	7.596e-06	368.39	150.22	146.65	66.453	6.4134e-06	74.305	0.0031155	0.0053653	0.0015074	1093.3	4.2922e-05	0.00014731	952.64	408.21	4.4263e-05	6.0892e-05	387.6	155.73	152.19	69.09	5.1311e-05	77.503	112.060	-29.611	7.044	-101.358	-0.881	62.457	-102.605	-96.148	-21.282	26.588	-98.375	-94.160	-92.097	-87.350	-12.392	-90.265	-8191	255	
18780.285	1	1	0	0	0.19538	0.13885	0.10183	0.06848	0.21009	0.235	0.12366	0.25729	0.14625	0.03185	0.10521	0.090611	0.12485	0.32776	0.12182	0.090314	-4.3583	-4.2875	-4.8417	-4.7229	-4.1937	-4.9167	-4.5604	-4.7958	-4.7312	-4.1917	-4.9313	-4.6229	-4.3771	-4.9479	-4.2396	-4.8125	-66.936	127.580	218.836	165.771	-110.164	-88.905	150.924	138.333	141.935	-25.515	151.331	-47.303	222.321	196.779	97.932	-53.467	0.0012734	0.00048632	0.00016877	1069.5	8.0566e-06	2.8811e-05	929.71	395.81	4.6362e-06	6.9486e-06	371.25	151	147.17	66.451	4.5145e-06	74.603	0.0045146	0.0053767	0.0015409	1093.1	4.4727e-05	0.00017385	953.58	408.36	4.556e-05	6.2884e-05	387.78	156.49	152.47	69.143	5.3911e-05	77.751	113.937	-52.638	-22.864	-101.367	13.950	49.016	-102.474	-96.255	-3.750	19.021	-98.110	-93.764	-91.588	-87.438	7.482	-90.271	-8191	255	
18780.383	1	1	0	0	0.0623	0.17061	0.4077	0.23284	0.23771	0.20298	0.17206	0.33558	0.22143	0.1065	0.35012	0.27729	0.19731	0.023348	0.23004	0.21375	-4.3583	-4.2812	-4.5604	-4.7729	-4.2167	-4.8938	-4.5646	-4.65	-4.7875	-4.3979	-4.8938	-4.8708	-4.1813	-4.9521	-4.3438	-4.6562	82.688	-58.622	181.411	208.892	123.739	-55.880	176.378	223.270	-12.373	121.519	210.585	127.399	174.873	-61.775	-9.895	193.211	0.0014138	0.00070468	0.00015883	1072.5	4.2386e-06	1.9704e-05	929.62	396.24	6.1811e-06	6.4506e-06	372.3	149.31	145.88	66.227	5.1052e-06	74.045	0.0057984	0.0057139	0.0016378	1094.8	4.7557e-05	0.00015635	954.12	407.63	4.7497e-05	6.6916e-05	386.32	155.72	151.76	68.836	5.0858e-05	77.13	133.778	-58.110	-32.337	-101.472	11.842	72.868	-102.627	-96.305	-1.820	27.739	-97.973	-94.031	-92.036	-87.334	-34.471	-89.972	-8191	255	
18780.479	1	1	0	0	0.16459	0.094519	0.067111	0.19892	0.29516	0.23303	0.13797	0.21776	0.12762	0.10496	0.31493	0.062927	0.16486	0.12717	0.19047	0.39054	-4.3583	-4.3625	-4.5813	-4.9917	-4.3625	-4.7896	-4.7708	-4.4104	-4.875	-4.4083	-4.6542	-4.9688	-4.3917	-4.8812	-4.7146	-4.4667	-82.052	149.778	157.348	177.292	-76.385	18.157	106.300	222.368	236.410	-37.996	234.216	-92.247	215.033	239.779	-78.627	135.403	0.0011748	0.00075154	0.00018497	1067.4	5.5885e-06	2.1637e-05	926.23	394.93	6.3992e-06	4.6459e-06	367.76	149.07	145.8	66.43	5.1344e-06	74.186	0.0048726	0.0050664	0.0014838	1091.9	4.2207e-05	0.00017	950.91	406.09	4.0717e-05	5.7524e-05	380.66	156.11	151.54	69.016	4.7335e-05	77.262	125.612	-22.711	-14.634	-101.413	31.529	65.210	-102.637	-96.525	-51.295	52.152	-98.172	-94.285	-91.687	-87.452	-9.343	-90.082	-8191	255	
18780.574	1	1	0	0	0.090385	0.047911	0.1402	0.26693	0.064799	0.021943	0.20421	0.2352	0.142	0.17169	0.13112	0.034695	0.11511	0.12386	0.22159	0.10068	-4.7333	-4.3854	-4.4479	-5.025	-4.2063	-4.8688	-4.7438	-4.45	-4.9729	-4.2812	-4.6458	-4.9833	-4.3208	-4.8146	-4.5104	-4.4479	-89.849	-4.279	28.629	-104.698	25.230	-48.245	196.484	241.633	-114.295	69.410	203.775	126.785	75.630	243.745	-55.824	46.754	0.0013854	0.00035909	0.00021779	1068.2	3.0643e-06	1.6647e-05	926.12	398.01	3.6973e-06	6.5449e-06	371.56	150.58	147.31	67.082	5.5683e-06	74.553	0.0054942	0.0050238	0.0014438	1093.3	4.256e-05	0.00014668	949.08	409.27	4.526e-05	6.5006e-05	382.92	158.45	152.86	69.669	5.4896e-05	77.795	136.935	-39.467	-37.989	-101.330	-8.115	68.491	-102.480	-96.468	-60.554	39.057	-98.305	-93.935	-92.183	-87.465	-25.281	-90.403	-8191	255	
18780.670	1	1	0	0	0.029329	0.060506	0.10876	0.26674	0.13775	0.21649	0.20459	0.21754	0.081211	0.19822	0.21664	0.14214	0.1708	0.21991	0.17729	0.1276	-4.4292	-4.325	-4.3896	-4.9396	-4.2771	-4.5062	-4.7271	-4.4417	-4.6229	-4.5042	-4.4708	-4.8229	-4.1333	-4.7021	-4.7833	-4.4604	-78.005	-45.970	102.868	219.017	40.254	71.047	83.344	228.508	232.885	127.290	181.753	235.414	245.022	243.223	76.272	237.799	0.0010491	0.00037091	0.00017472	1063	4.8095e-06	2.483e-05	920.15	398.1	9.0898e-06	8.8164e-06	371.15	150.42	147.76	66.563	5.1057e-06	74.844	0.0050987	0.0057479	0.0016948	1086.7	4.8216e-05	0.00013545	948.85	409.36	4.9252e-05	7.2507e-05	383.4	157.92	153.38	69.378	5.8845e-05	77.781	133.552	-57.516	-41.877	-101.268	28.620	52.105	-102.451	-96.113	2.048	39.352	-98.063	-94.171	-91.767	-87.484	-2.466	-90.236	-8191	255	
18780.768	1	1	0	0	0.19926	0.12916	0.20966	0.10646	0.059197	0.1938	0.14659	0.21054	0.29403	0.14736	0.16075	0.16978	0.11326	0.16949	0.12581	0.13076	-4.4938	-4.3792	-4.4437	-5.0583	-4.2042	-4.4062	-4.8625	-4.2667	-4.8562	-4.6937	-4.3438	-4.85	-4.3187	-4.7875	-4.7833	-4.3583	-90.292	126.810	119.326	224.923	134.522	214.764	135.091	154.039	202.162	44.560	245.440	11.350	-8.069	143.823	179.287	124.149	0.0012671	0.00026702	0.00014195	1065.2	4.4577e-06	4.5325e-06	922.16	397.79	7.1841e-06	3.9885e-06	371.4	149.93	145.91	66.03	6.7352e-06	73.932	0.0058392	0.0060341	0.0017362	1087.8	4.8037e-05	6.881e-05	955.42	409.2	4.8186e-05	7.0691e-05	382.55	157.56	151.88	68.801	5.8563e-05	77.132	131.746	-18.387	-53.801	-101.232	24.794	35.486	-102.474	-96.359	20.397	31.663	-97.953	-94.058	-92.048	-87.438	20.758	-90.173	-8191	255	
18780.885	1	1	0	0	0.12117	0.14567	0.29978	0.19953	0.0097069	0.036603	0.26143	0.24503	0.23585	0.13001	0.19074	0.10879	0.15249	0.19543	0.081592	0.090115	-4.6188	-4.6	-4.2	-5.0687	-4.3688	-4.3146	-5.0604	-4.4646	-4.7042	-4.5854	-4.4458	-4.8979	-4.4583	-4.5375	-4.7917	-4.4271	-66.112	240.040	231.818	237.022	192.448	149.453	132.373	232.396	226.341	-85.164	4.456	-95.041	97.721	191.798	-106.221	175.333	0.0010005	0.00040325	0.00013687	1065	4.6896e-06	7.537e-06	915.85	395.05	7.69e-06	6.9207e-06	368.73	148.87	145.49	66.181	6.9506e-06	73.449	0.0052052	0.0061511	0.0017675	1088.5	4.8766e-05	7.2683e-05	953.34	407.04	5.1773e-05	7.6121e-05	381.16	156.22	151.74	68.798	6.2422e-05	76.564	131.802	-86.535	-32.675	-101.191	14.258	50.484	-102.496	-96.370	-12.983	25.869	-97.886	-94.024	-91.883	-87.437	46.974	-90.162	-8191	255	
18780.982	1	1	0	0	0.18474	0.21152	0.15572	0.026964	0.12932	0.19136	0.19233	0.084704	0.2236	0.23996	0.081615	0.17881	0.23691	0.26189	0.086225	0.054764	-4.3458	-4.575	-4.2104	-5.0104	-4.5062	-4.4646	-4.9667	-4.5125	-4.6562	-4.6667	-4.3771	-4.9417	-4.6188	-4.4437	-4.9854	-4.5062	-51.534	-44.221	162.280	-79.249	172.957	174.529	200.987	-89.928	62.457	20.620	-44.602	118.195	-60.009	217.934	-42.315	112.489	0.0010286	0.00088376	0.00017241	1056	7.0109e-06	6.0515e-06	914.31	393.07	7.9496e-06	6.7725e-06	366.88	147.33	145.45	65.487	4.9456e-06	72.915	0.0044469	0.0094265	0.0018383	1082.5	5.2165e-05	7.5328e-05	944.44	405.24	5.1655e-05	7.4958e-05	378.69	155.71	151.02	68.168	6.178e-05	76.055	135.433	-84.438	-68.608	-101.299	35.757	56.629	-102.370	-96.515	-40.079	1.740	-98.375	-94.261	-91.865	-87.333	8.891	-90.188	-8191	255	
18781.078	1	1	0	0	0.10775	0.26824	0.19826	0.28563	0.16314	0.10835	0.12781	0.21461	0.080532	0.08813	0.1586	0.053956	0.2589	0.14848	0.090033	0.27188	-4.0958	-4.7146	-4.2083	-4.8396	-4.4833	-4.3521	-5.0813	-4.5417	-4.4979	-4.8521	-4.375	-4.6896	-4.6229	-4.2479	-4.6792	-4.5125	76.693	241.658	-61.648	226.101	147.721	169.534	195.463	173.928	-103.758	234.775	222.125	81.088	198.503	236.102	58.252	218.391	0.00099293	0.00043215	0.00012883	1054.7	3.4306e-06	4.2699e-06	910.49	394.91	6.1547e-06	7.5087e-06	367.01	148.91	145.64	65.442	6.723e-06	73.605	0.0028429	0.013162	0.0018047	1077.4	5.3382e-05	7.7286e-05	944.65	406.46	5.4288e-05	7.7474e-05	379.93	156.24	151.78	68.412	6.2071e-05	76.578	117.421	-59.500	-32.060	-101.058	56.226	42.458	-102.614	-96.352	-39.977	67.412	-98.268	-94.117	-91.955	-87.337	17.694	-90.451	-8191	255	
18781.148	1	1	0	0	0.052799	0.17045	0.23885	0.086811	0.064125	0.050849	0.1392	0.17451	0.25824	0.15306	0.072413	0.18403	0.13225	0.37325	0.21831	0.17843	-4.0646	-4.7792	-4.1333	-4.9521	-4.6042	-4.1125	-4.8438	-4.4208	-4.4229	-4.8708	-4.3375	-4.7	-4.7542	-4.2688	-4.825	-4.4812	-96.568	67.224	-0.371	232.825	83.576	160.854	207.089	35.060	173.993	146.717	38.427	-53.992	-103.512	185.161	24.190	202.472	0.00094162	0.0020707	0.00016272	1050.6	6.57e-06	5.1632e-06	910.93	394.44	5.8425e-06	8.8921e-06	368.63	149.27	145.82	65.605	9.3087e-06	73.688	0.0028355	0.015417	0.0017819	1073.8	5.079e-05	7.3724e-05	939.37	405.97	5.1399e-05	7.4385e-05	379.7	156.13	152.7	68.382	5.8226e-05	76.657	110.107	-45.274	-18.114	-100.984	20.396	27.839	-102.490	-96.374	-14.929	30.146	-97.921	-94.142	-91.912	-87.365	17.518	-90.523	-8191	255	
18781.270	1	1	0	0	0.12861	0.17747	0.090239	0.51559	0.13864	0.01313	0.22933	0.1217	0.045114	0.053286	0.26529	0.13188	0.13853	0.023463	0.15095	0.38889	-3.9771	-4.9354	-4.2125	-4.8479	-4.9396	-4.1312	-4.9146	-4.5646	-4.3708	-4.9729	-4.4833	-4.6771	-4.9313	-4.3146	-4.8646	-4.6062	-112.798	57.989	205.157	169.817	38.629	173.514	130.695	157.633	99.005	-9.430	243.113	15.101	60.812	-7.768	44.027	188.336	0.00091805	0.0018713	0.00013832	1049	3.2228e-06	7.5885e-06	906.21	392.79	7.8342e-06	4.2287e-06	368.41	149.29	144.74	64.942	2.8577e-06	73.034	0.0026545	0.013008	0.001732	1073.7	4.8815e-05	6.9154e-05	942.59	404.92	4.9565e-05	6.9557e-05	379.59	154.61	152.34	67.856	5.7105e-05	76.118	112.405	-55.381	14.401	-101.145	6.084	48.382	-102.662	-96.321	-17.762	12.294	-98.066	-94.056	-92.098	-87.386	16.648	-90.192	-8191	255	
18781.365	1	1	0	0	0.10892	0.16806	0.24719	0.20756	0.077012	0.14565	0.092157	0.043862	0.245	0.17986	0.14897	0.12345	0.31872	0.034575	0.061545	0.16223	-4.0229	-4.8646	-4.3313	-4.6979	-4.6833	-4.325	-4.8771	-4.7542	-4.3125	-4.8646	-4.5437	-4.6542	-4.7833	-4.4417	-4.8667	-4.6104	-100.746	146.756	109.618	221.067	8.076	42.963	-83.896	-104.680	65.431	32.589	222.298	-94.737	-99.024	-96.566	75.654	-110.476	0.00093453	0.0023943	0.00015772	1046.8	3.443e-06	5.0175e-06	904.06	392.74	5.7014e-06	6.2182e-06	364.61	148.11	145.96	65.611	8.032e-06	73.047	0.0026175	0.014757	0.0017078	1071.3	4.7787e-05	6.8276e-05	934.46	404.73	4.9325e-05	6.9355e-05	377.47	154.14	153.81	68.222	5.8462e-05	76.041	104.566	-44.180	-47.185	-101.323	1.065	62.108	-102.491	-96.280	-11.725	29.904	-98.128	-94.044	-92.042	-87.487	1.725	-90.189	-8191	255	
18781.463	1	1	0	0	0.21988	0.091835	0.238	0.38533	0.059665	0.098158	0.08583	0.24945	0.10226	0.099676	0.075824	0.31585	0.14579	0.11009	0.13907	0.20853	-3.8812	-4.7812	-4.4396	-4.5625	-4.9292	-4.3938	-4.6937	-4.7708	-4.3292	-4.6604	-4.8417	-4.4938	-4.8771	-4.5687	-4.5104	-4.8875	207.479	-74.659	-31.257	237.115	14.165	-72.968	-44.339	80.266	108.831	-12.646	-0.517	230.879	180.462	180.578	171.408	182.374	0.00099456	0.0016668	0.00012284	1040.6	6.6151e-06	6.1745e-06	895.12	392.98	5.8485e-06	6.0305e-06	365.26	149.67	147.17	66.024	8.1414e-06	73.453	0.0026827	0.013091	0.0018091	1065.6	5.057e-05	7.435e-05	922.71	406.57	5.1637e-05	7.5564e-05	378.45	155.6	154.74	68.715	6.1125e-05	76.665	108.667	-33.083	-9.391	-101.013	5.650	53.710	-102.416	-96.468	-18.041	58.781	-98.237	-93.914	-91.854	-87.484	17.758	-90.443	-8191	255	
18781.559	1	1	0	0	0.081267	0.086337	0.16024	0.28004	0.10315	0.20556	0.26417	0.087193	0.1631	0.11381	0.11084	0.14899	0.11128	0.14759	0.16511	0.37552	-3.7875	-4.6562	-4.5833	-4.4583	-4.7312	-4.2979	-4.5292	-4.8958	-4.2021	-4.8208	-4.4688	-4.3521	-4.9146	-4.35	-4.5917	-4.9771	175.188	143.280	-76.014	191.652	170.345	-8.725	218.122	148.439	65.464	-20.043	221.641	147.924	-5.531	177.866	-40.627	123.067	0.00093266	0.0024332	0.00024692	1036.7	5.1782e-06	9.1072e-06	902.04	393.54	5.0627e-06	4.2737e-06	366.17	149.75	146.51	66.195	6.6066e-06	73.789	0.0027585	0.015254	0.0018152	1062.7	5.0412e-05	7.2773e-05	921.43	407.95	4.8475e-05	7.2452e-05	378.11	155.3	154.59	68.768	5.2224e-05	76.864	106.333	-20.967	-40.264	-101.199	39.442	33.748	-102.450	-96.544	-36.243	-8.337	-98.064	-93.903	-92.022	-87.460	13.396	-90.149	-8191	255	
18781.680	1	1	0	0	0.12031	0.13797	0.2174	0.19197	0.082937	0.082935	0.12457	0.24841	0.082163	0.11242	0.36253	0.26486	0.186	0.12049	0.20858	0.11103	-3.8854	-4.7646	-4.5146	-4.4729	-4.8792	-4.5917	-4.6104	-4.9833	-4.2167	-4.8021	-4.8896	-4.2896	-5.0188	-4.7646	-4.3833	-5.0167	-48.238	187.782	202.398	223.953	-48.974	178.041	181.351	150.980	219.045	-52.136	212.288	-108.464	112.679	157.716	99.107	203.724	0.00099009	0.0017643	0.00025076	1049.6	6.7673e-06	7.2986e-06	909.37	394.41	5.1026e-06	6.7454e-06	364.46	148.87	145.04	65.559	8.6416e-06	73.314	0.0023537	0.012062	0.0014114	1073.5	3.8818e-05	5.5589e-05	929.51	408.96	3.8458e-05	5.5495e-05	376.5	154.16	152.55	68.131	4.4075e-05	76.223	114.180	-19.418	-19.911	-101.091	-1.124	33.256	-102.352	-96.361	-1.249	16.850	-98.172	-93.866	-92.186	-87.358	-20.863	-90.117	-8191	255	
18781.773	1	1	0	0	0.13651	0.25494	0.11403	0.094005	0.058347	0.12372	0.22523	0.13759	0.059314	0.15685	0.15936	0.28226	0.32702	0.15691	0.088	0.029046	-3.9417	-4.6833	-4.6833	-4.3958	-4.9	-4.4729	-4.65	-5.0729	-4.1979	-4.7083	-4.8688	-4.4604	-4.8479	-4.6458	-4.3521	-4.9667	178.277	8.585	83.528	243.616	-59.114	-80.899	-103.056	213.050	146.137	61.814	172.738	164.604	-73.390	-48.895	143.290	177.483	0.00091846	0.0025256	0.00019888	1058.4	6.2459e-06	6.9711e-06	912.04	393.71	4.8066e-06	5.6781e-06	365.4	148.96	145.96	66.269	4.8086e-06	73.682	0.0021038	0.0079582	0.002356	1080.9	3.3132e-05	4.6063e-05	934.9	406.99	3.0825e-05	4.3564e-05	376.59	154.5	153.8	68.953	3.4966e-05	76.844	113.250	-34.963	3.438	-101.136	-6.726	26.003	-102.500	-96.235	-24.565	29.581	-98.071	-94.121	-92.121	-87.489	25.045	-90.508	-8191	255	
#DATA ENDS
