BOXY.EXE: ISS Imagent and Oximeter Data Acquisition Program Version 0.80
Ascii Record File

#ACQ INFORMATION
2  Detector Channels 
16  External MUX Channels 
1  Auxiliary Channels 
5000  Waveform (CCF) Frequency (Hz)
1  Waveforms Skipped 
30  Waveforms Averaged 
1  Cycles Averaged 
16  Acquisitions per Waveform 
10.0806  Updata Rate (Hz) 

#FILE INFORMATION
TRUE -- External MUX Channel results are PARSED.
FALSE -- AC DC and Phase are NOT grouped.
TRUE -- Companion Program Settings File CREATED.
FALSE -- AC data not excluded
FALSE -- DC data not excluded
FALSE -- Phase data not excluded
FALSE -- Auxillary Chn. data not excluded
Tab delimiters

#CALIBRATION STATE
TRUE -- Waveform Calibration Values APPLIED.


#AUX CALIBRATION VALUES
Val Type	aux-1	

Term	1.0000e+00	
Factor	0.0000e+00	


#WF CALIBRATION VALUES
A = Detector Channel
Val Type	A-AC1	A-AC2	A-AC3	A-AC4	A-AC5	A-AC6	A-AC7	A-AC8	A-AC9	A-AC10	A-AC11	A-AC12	A-AC13	A-AC14	A-AC15	A-AC16	A-DC1	A-DC2	A-DC3	A-DC4	A-DC5	A-DC6	A-DC7	A-DC8	A-DC9	A-DC10	A-DC11	A-DC12	A-DC13	A-DC14	A-DC15	A-DC16	A-Ph1	A-Ph2	A-Ph3	A-Ph4	A-Ph5	A-Ph6	A-Ph7	A-Ph8	A-Ph9	A-Ph10	A-Ph11	A-Ph12	A-Ph13	A-Ph14	A-Ph15	A-Ph16	

Term	0.00000e+00	0.00000e+00	0.00000e+00	0.00000e+00	0.00000e+00	0.00000e+00	0.00000e+00	0.00000e+00	0.00000e+00	0.00000e+00	0.00000e+00	0.00000e+00	0.00000e+00	0.00000e+00	0.00000e+00	0.00000e+00	0.00000e+00	0.00000e+00	0.00000e+00	0.00000e+00	0.00000e+00	0.00000e+00	0.00000e+00	0.00000e+00	0.00000e+00	0.00000e+00	0.00000e+00	0.00000e+00	0.00000e+00	0.00000e+00	0.00000e+00	0.00000e+00	0.00000e+00	0.00000e+00	0.00000e+00	0.00000e+00	0.00000e+00	0.00000e+00	0.00000e+00	0.00000e+00	0.00000e+00	0.00000e+00	0.00000e+00	0.00000e+00	0.00000e+00	0.00000e+00	0.00000e+00	0.00000e+00	
Factor	1.00000e+00	1.00000e+00	1.00000e+00	1.00000e+00	1.00000e+00	1.00000e+00	1.00000e+00	1.00000e+00	1.00000e+00	1.00000e+00	1.00000e+00	1.00000e+00	1.00000e+00	1.00000e+00	1.00000e+00	1.00000e+00	1.00000e+00	1.00000e+00	1.00000e+00	1.00000e+00	1.00000e+00	1.00000e+00	1.00000e+00	1.00000e+00	1.00000e+00	1.00000e+00	1.00000e+00	1.00000e+00	1.00000e+00	1.00000e+00	1.00000e+00	1.00000e+00	X	X	X	X	X	X	X	X	X	X	X	X	X	X	X	X	

B = Detector Channel
Val Type	B-AC1	B-AC2	B-AC3	B-AC4	B-AC5	B-AC6	B-AC7	B-AC8	B-AC9	B-AC10	B-AC11	B-AC12	B-AC13	B-AC14	B-AC15	B-AC16	B-DC1	B-DC2	B-DC3	B-DC4	B-DC5	B-DC6	B-DC7	B-DC8	B-DC9	B-DC10	B-DC11	B-DC12	B-DC13	B-DC14	B-DC15	B-DC16	B-Ph1	B-Ph2	B-Ph3	B-Ph4	B-Ph5	B-Ph6	B-Ph7	B-Ph8	B-Ph9	B-Ph10	B-Ph11	B-Ph12	B-Ph13	B-Ph14	B-Ph15	B-Ph16	

Term	0.00000e+00	0.00000e+00	0.00000e+00	0.00000e+00	0.00000e+00	0.00000e+00	0.00000e+00	0.00000e+00	0.00000e+00	0.00000e+00	0.00000e+00	0.00000e+00	0.00000e+00	0.00000e+00	0.00000e+00	0.00000e+00	0.00000e+00	0.00000e+00	0.00000e+00	0.00000e+00	0.00000e+00	0.00000e+00	0.00000e+00	0.00000e+00	0.00000e+00	0.00000e+00	0.00000e+00	0.00000e+00	0.00000e+00	0.00000e+00	0.00000e+00	0.00000e+00	-7.26684e+01	-1.29267e+02	-1.24907e+02	-1.81870e+02	-5.07789e+01	-7.05107e+01	-1.57448e+02	-1.62015e+02	-4.62257e+01	-6.38428e+01	-1.71264e+02	-1.72441e+02	-1.82777e+02	-1.77174e+02	-5.93073e+01	-1.49710e+02	
Factor	1.61401e-05	1.59208e-04	4.37177e-05	1.47657e-01	1.35887e-06	1.73276e-06	1.65095e-01	4.93827e-02	1.11487e-06	1.79644e-06	7.99830e-02	3.23445e-02	3.45062e-02	8.62477e-03	1.51567e-06	1.23023e-02	1.56454e-05	4.14206e-05	1.16575e-05	7.63936e-02	3.74041e-07	4.77579e-07	8.05275e-02	2.56400e-02	3.72120e-07	4.73555e-07	4.04468e-02	1.64577e-02	1.81944e-02	4.52542e-03	4.11768e-07	6.25502e-03	X	X	X	X	X	X	X	X	X	X	X	X	X	X	X	X	



#DISTANCE SETTINGS
A = Detector Channel
A-1	A-2	A-3	A-4	A-5	A-6	A-7	A-8	A-9	A-10	A-11	A-12	A-13	A-14	A-15	A-16	

2.5000e+00	3.0000e+00	2.5000e+00	3.0000e+00	2.0000e+00	3.0000e+00	1.5000e+00	3.0000e+00	3.0000e+00	3.0000e+00	3.0000e+00	3.0000e+00	3.0000e+00	3.0000e+00	1.5000e+00	3.0000e+00	

B = Detector Channel
B-1	B-2	B-3	B-4	B-5	B-6	B-7	B-8	B-9	B-10	B-11	B-12	B-13	B-14	B-15	B-16	

1.0000e+01	1.0000e+01	1.0000e+01	1.4400e+00	1.0000e+01	1.0000e+01	1.5100e+00	1.9400e+00	1.0000e+01	1.0000e+01	1.9900e+00	2.4900e+00	2.4100e+00	2.9000e+00	1.0000e+01	2.9800e+00	




#DATA BEGINS
time	group	step	mark	flag	A-AC1	A-AC2	A-AC3	A-AC4	A-AC5	A-AC6	A-AC7	A-AC8	A-AC9	A-AC10	A-AC11	A-AC12	A-AC13	A-AC14	A-AC15	A-AC16	A-DC1	A-DC2	A-DC3	A-DC4	A-DC5	A-DC6	A-DC7	A-DC8	A-DC9	A-DC10	A-DC11	A-DC12	A-DC13	A-DC14	A-DC15	A-DC16	A-Ph1	A-Ph2	A-Ph3	A-Ph4	A-Ph5	A-Ph6	A-Ph7	A-Ph8	A-Ph9	A-Ph10	A-Ph11	A-Ph12	A-Ph13	A-Ph14	A-Ph15	A-Ph16	B-AC1	B-AC2	B-AC3	B-AC4	B-AC5	B-AC6	B-AC7	B-AC8	B-AC9	B-AC10	B-AC11	B-AC12	B-AC13	B-AC14	B-AC15	B-AC16	B-DC1	B-DC2	B-DC3	B-DC4	B-DC5	B-DC6	B-DC7	B-DC8	B-DC9	B-DC10	B-DC11	B-DC12	B-DC13	B-DC14	B-DC15	B-DC16	B-Ph1	B-Ph2	B-Ph3	B-Ph4	B-Ph5	B-Ph6	B-Ph7	B-Ph8	B-Ph9	B-Ph10	B-Ph11	B-Ph12	B-Ph13	B-Ph14	B-Ph15	B-Ph16	aux-1	digaux	

26080.494	1	1	0	256	0.060422	0.097388	0.12277	0.16326	0.25373	0.13506	0.2269	0.10338	0.14426	0.05604	0.22609	0.17888	0.06001	0.23237	0.14445	0.1135	-4.3917	-4.3063	-4.2125	-4.7708	-4.2188	-4.4771	-4.625	-4.1438	-4.5354	-4.2854	-4.2729	-4.7104	-4.3187	-4.4833	-4.5687	-4.2979	132.684	39.913	175.997	77.606	85.931	36.906	74.584	143.277	72.833	77.066	-94.215	-141.716	-141.463	180.763	152.635	141.751	0.00071478	0.00064778	0.00014707	839.17	4.6036e-06	5.2578e-06	790.7	334.3	5.1378e-05	7.1805e-06	370.52	167.5	143.46	65.604	6.5083e-06	82.85	0.00095971	0.0007983	0.0002186	941.39	7.512e-06	1.1278e-05	835.82	355.6	0.00023192	8.8387e-06	393.82	178.31	153.1	74.003	9.7289e-06	88.747	-106.874	-88.570	-86.671	-159.919	-18.074	-32.708	-161.512	-155.923	129.757	-25.539	-157.720	-153.711	-151.892	-147.370	-43.921	-149.953	-8191	255	
26080.613	1	1	0	0	0.11315	0.30102	0.1006	0.21634	0.019722	0.10976	0.13572	0.043161	0.20384	0.097836	0.11026	0.20135	0.17734	0.17003	0.068639	0.20362	-4.3958	-4.2917	-4.3625	-4.9187	-4.0062	-4.4417	-4.4604	-4.125	-4.6979	-4.4938	-4.1646	-4.9313	-4.2292	-4.4729	-4.7333	-4.3438	-148.405	-164.729	-78.051	110.885	-139.547	97.195	38.403	-100.518	-119.163	33.255	109.771	-159.074	167.402	173.859	163.595	129.775	0.00076092	0.00052524	0.00021379	839.75	5.1606e-06	5.449e-06	795.66	336.84	7.9093e-05	4.0695e-06	374.22	166.7	143.76	65.859	8.269e-05	83.324	0.00091773	0.0008033	0.00022191	927.91	7.4645e-06	1.0837e-05	838.92	358.09	0.00031979	9.4218e-06	395.53	178.89	153.99	71.539	0.00014108	89.295	-106.713	-89.386	-77.653	-160.055	-19.182	-20.940	-161.504	-155.820	133.803	-30.968	-157.981	-153.792	-151.876	-147.458	-117.946	-150.056	-8191	255	
26080.709	1	1	0	0	0.16603	0.17414	0.2373	0.065603	0.1805	0.097016	0.17895	0.12736	0.11742	0.1593	0.072741	0.20513	0.03566	0.12103	0.29294	0.12446	-4.4437	-4.3979	-4.2083	-4.7646	-4.5125	-4.3542	-4.5396	-4.2625	-4.4021	-4.4187	-4.2125	-4.75	-4.4167	-4.4146	-4.6708	-4.3	103.854	56.831	-99.227	1.464	107.048	-106.628	87.245	61.791	127.081	67.410	152.469	99.667	-154.700	143.106	7.712	79.285	0.00074678	0.00043494	0.00018138	845.39	4.2515e-06	5.5066e-06	792.07	336.78	4.6366e-05	5.2055e-06	372	167.23	143.7	65.973	0.00010812	82.929	0.0009529	0.00087251	0.00021661	947.41	7.512e-06	8.5208e-06	837.12	357.41	0.00023208	8.7608e-06	393.99	178.73	153.7	70.601	0.00035599	88.847	-108.336	-77.226	-88.346	-159.803	-20.724	-22.907	-161.598	-155.866	144.161	-40.710	-157.889	-153.632	-151.915	-147.492	-104.100	-149.994	-8191	255	
26080.805	1	1	0	0	0.16536	0.20865	0.1278	0.14053	0.12694	0.044648	0.22802	0.21554	0.11573	0.11503	0.17851	0.16165	0.15809	0.23947	0.23284	0.11306	-4.0188	-4.5625	-3.9646	-4.825	-4.2708	-4.1229	-4.8521	-4.2521	-4.5312	-4.3438	-4.1167	-4.8646	-4.4896	-4.2875	-4.6625	-4.2292	152.205	87.085	28.233	167.236	11.987	92.288	-151.751	180.462	-147.720	144.582	144.403	96.783	133.461	149.018	128.357	140.574	0.00072703	0.00059125	0.00017905	835.59	4.7501e-06	6.2501e-06	788.41	334.34	6.4906e-05	5.6354e-06	368.48	166.06	143.31	65.663	7.7295e-05	82.831	0.00089638	0.00081814	0.00020498	923.33	7.2922e-06	8.2442e-06	832.39	354.68	0.00028698	9.3547e-06	391.17	177.56	153.18	70.294	0.00025589	88.703	-107.058	-78.079	-90.410	-159.891	-19.628	-21.164	-161.508	-155.756	84.511	-23.699	-157.661	-153.542	-151.803	-147.621	-100.490	-149.992	-8191	255	
26080.902	1	1	0	0	0.19057	0.061144	0.28864	0.18606	0.21264	0.18154	0.11079	0.17251	0.048214	0.16478	0.11565	0.22424	0.12371	0.097893	0.074855	0.34451	-4.1083	-4.575	-4.1813	-4.7354	-4.5229	-4.2375	-4.9104	-4.3542	-4.4208	-4.6625	-4.0479	-4.6104	-4.4458	-4.1708	-4.8021	-4.2896	145.955	179.074	-117.286	-144.000	22.000	181.705	122.039	115.476	-127.459	102.642	138.671	171.698	124.427	-123.966	151.073	123.580	0.00075852	0.00050647	0.00014953	836.72	4.5596e-06	6.084e-06	792.6	334.84	4.4377e-05	8.4447e-05	370.38	166.57	144.33	66.257	0.00010887	83.553	0.00090479	0.00086586	0.00020869	942.6	7.9538e-06	7.9487e-06	834.28	355.35	6.9089e-05	0.0001721	391.64	178.29	154.26	70.896	0.00035477	89.385	-107.408	-108.487	-88.055	-159.860	-0.056	-27.531	-161.461	-155.782	91.120	-170.546	-157.864	-153.640	-152.002	-147.341	-93.639	-149.954	-8191	255	
26080.998	1	1	0	0	0.14497	0.14926	0.084943	0.20374	0.29074	0.17654	0.13966	0.10951	0.17159	0.21549	0.24001	0.24816	0.26251	0.10573	0.17326	0.087941	-4.0583	-4.5625	-4.1438	-4.65	-4.4917	-4.1771	-4.8917	-4.3458	-4.075	-4.65	-4.3771	-4.6917	-4.5667	-4.3458	-4.7188	-4.6083	-73.288	167.481	177.873	97.146	150.881	-166.204	142.735	-12.079	173.980	-31.026	184.590	112.050	-114.770	-163.748	-83.155	-113.450	0.0007733	0.00048651	0.00014221	841.94	4.7743e-06	6.2535e-06	796.18	337.17	5.8446e-06	0.00011651	372.73	167.34	144.59	66.494	8.0274e-05	83.881	0.00083044	0.00095509	0.00020709	931.02	7.8089e-06	7.6592e-06	839.86	357.75	7.6494e-06	0.00040817	394.25	178.43	154.25	71.197	0.00025809	89.64	-107.531	-109.790	-82.600	-159.847	-12.684	-26.068	-161.364	-155.800	-28.619	148.634	-157.944	-153.470	-152.035	-147.353	-87.064	-150.093	-8191	255	
26081.094	1	1	0	0	0.084228	0.071925	0.13477	0.17158	0.13637	0.022316	0.11374	0.11332	0.12829	0.13074	0.063672	0.10649	0.20969	0.37425	0.1646	0.14695	-3.8625	-4.5896	-4.1438	-4.5042	-4.6083	-4.0417	-4.8542	-4.5458	-4.2812	-4.7667	-4.35	-4.725	-4.7917	-4.2375	-4.5729	-4.6354	179.470	-79.803	165.686	59.572	-142.142	102.977	60.079	120.973	159.759	-149.799	39.239	143.196	154.872	103.151	82.595	88.037	0.00077879	0.00027142	0.0002031	842.08	1.1352e-05	5.6623e-06	795.87	337.62	5.4532e-06	9.4362e-05	372.5	166.93	143.76	66.58	0.00011101	83.719	0.00083579	0.0010831	0.00021705	941.04	8.9614e-06	8.5138e-06	841.87	358.46	7.6913e-06	0.00029779	395.31	178.27	153.81	71.112	0.00035782	89.753	-106.425	-64.586	-74.742	-159.461	-43.872	-36.746	-161.574	-155.872	-36.807	150.446	-157.698	-153.623	-151.803	-147.439	-75.616	-149.993	-8191	255	
26081.189	1	1	0	0	0.123	0.11512	0.17142	0.16874	0.17318	0.080996	0.15401	0.25288	0.16001	0.027559	0.26949	0.22007	0.094916	0.2248	0.086013	0.21514	-3.825	-4.8438	-4.3958	-4.4708	-4.575	-4.0833	-4.7063	-4.5875	-4.1292	-4.7	-4.5083	-4.5667	-4.8854	-4.3063	-4.6375	-4.6479	-73.165	-101.759	-109.986	122.604	-84.105	-43.652	17.678	117.290	-154.001	-53.734	156.932	95.395	100.111	154.872	77.026	87.964	0.00077038	0.00043239	0.00017756	842.39	8.9346e-06	5.837e-06	797.12	336.23	4.9694e-06	0.00012646	369.95	166.11	143.81	66.412	8.2207e-05	83.266	0.00082751	0.0010014	0.00021552	894.53	0.00015026	8.1547e-06	841.01	357.77	7.5913e-06	0.00041261	392.21	177.3	153.62	71.151	0.00025919	89.262	-107.646	-89.523	-81.021	-159.606	-131.743	-27.394	-161.425	-155.781	-26.883	156.883	-157.971	-153.488	-152.202	-147.365	-74.104	-150.075	-8191	255	
26081.309	1	1	0	0	0.23192	0.12453	0.10804	0.26622	0.1995	0.17641	0.16774	0.044987	0.086015	0.023444	0.082483	0.23756	0.16625	0.19875	0.13275	0.44553	-3.8792	-4.5375	-4.4167	-4.3417	-4.6896	-4.1333	-4.7333	-4.6021	-3.9938	-4.8896	-4.4917	-4.4521	-4.7292	-4.3417	-4.55	-4.7271	33.274	84.590	-127.513	134.033	-125.067	62.593	52.857	-74.395	-9.823	-73.419	44.331	142.500	-31.814	75.491	-153.298	135.395	0.00074174	0.00049275	0.00017554	835.37	0.00010663	4.8896e-06	791.22	334.81	4.5405e-06	8.7835e-05	366.86	163.85	142.63	65.904	5.4946e-05	83.328	0.0008043	0.0011193	0.00020364	881.6	0.00032681	8.4531e-06	835.71	356.38	7.8029e-06	0.00029847	389.54	175.39	152.67	70.826	0.00028929	88.786	-107.287	-94.525	-84.051	-160.066	50.233	-26.130	-161.555	-155.738	-23.300	166.067	-157.730	-153.742	-151.775	-147.429	-17.203	-150.295	-8191	255	
26081.404	1	1	0	0	0.054859	0.068382	0.11828	0.23792	0.099046	0.13289	0.14378	0.065723	0.27041	0.11179	0.29946	0.15595	0.19953	0.21954	0.15705	0.17642	-3.6813	-4.6062	-4.4792	-4.3229	-4.6188	-4.2208	-4.35	-4.7896	-4.0354	-4.5208	-4.4688	-4.1813	-4.6854	-4.5188	-4.3812	-4.8958	-169.762	13.013	24.725	163.484	-135.571	81.700	124.777	-120.271	56.046	-142.139	156.189	133.842	-99.339	178.502	-84.789	103.622	0.00072313	0.00050991	0.00018834	837.84	6.8645e-05	6.8649e-06	793.34	337.72	5.5819e-06	0.0001217	370.59	164.91	143.45	66.12	5.168e-05	83.549	0.0008073	0.00094258	0.00022033	883.23	0.00023428	8.2154e-06	837.45	358.49	7.7091e-06	0.00041509	392.67	176.49	153.17	70.867	5.4939e-05	91.606	-107.173	-105.623	-91.511	-160.286	60.697	-24.060	-161.244	-155.792	-28.375	173.956	-158.078	-153.669	-152.027	-147.405	-12.983	-150.335	-8191	255	
26081.502	1	1	0	0	0.05067	0.053266	0.12964	0.039147	0.011306	0.18446	0.17076	0.21482	0.12481	0.031519	0.14527	0.28738	0.089375	0.23366	0.16511	0.19126	-3.8708	-4.4896	-4.4229	-4.1687	-4.9187	-4.3854	-4.6146	-4.9563	-4.3167	-4.5646	-4.5583	-4.1833	-4.75	-4.5104	-4.1813	-4.8104	4.314	83.603	153.806	-7.856	163.704	29.029	79.743	146.894	-7.335	42.178	118.671	178.120	168.668	-165.288	-125.392	105.355	0.00076242	0.00061881	0.0001477	834.9	0.00010368	6.726e-06	793.51	336.69	5.0141e-06	8.2694e-05	370.24	165.48	143.32	66.24	5.6287e-06	84.502	0.00081333	0.0010508	0.00023779	880.93	0.00032661	8.3308e-06	836.97	358.12	7.9355e-06	0.00030071	393.23	176.76	153.29	70.878	8.3237e-06	94.897	-107.661	-85.823	-83.331	-160.293	69.070	-29.647	-161.424	-155.782	-32.725	176.839	-157.781	-153.711	-152.095	-147.305	-33.243	-150.021	-8191	255	
26081.598	1	1	0	0	0.033087	0.10167	0.26466	0.13421	0.078151	0.1151	0.19179	0.077623	0.14268	0.24321	0.22558	0.066369	0.062898	0.11687	0.29758	0.12672	-3.825	-4.5354	-4.575	-4.0188	-4.6562	-4.425	-4.3917	-4.9437	-4.1104	-4.4646	-4.8021	-4.325	-4.7917	-4.5667	-4.2625	-4.9208	22.384	-30.665	-70.389	66.292	-40.460	-72.192	179.584	103.857	-159.867	25.459	61.462	-55.336	-8.368	160.283	-6.862	103.213	0.00075798	0.00048503	0.00018524	834.01	7.4824e-05	6.6788e-06	794.25	337.11	5.6052e-06	6.5778e-05	372.81	165.95	143.98	66.011	6.4395e-06	84.311	0.00083204	0.00096208	0.00022249	880.44	0.00023832	8.5347e-06	839.17	358.43	8.1711e-06	0.00031809	398.23	177.47	153.61	70.914	8.8324e-06	93.584	-106.844	-90.486	-70.347	-160.294	74.646	-2.264	-161.405	-155.731	-32.177	99.709	-158.754	-153.586	-151.785	-147.395	-29.730	-149.846	-8191	255	
26081.693	1	1	0	0	0.12931	0.059931	0.14666	0.083643	0.1918	0.13202	0.035492	0.22426	0.054754	0.19215	0.16255	0.1306	0.074713	0.18942	0.3158	0.14551	-4.0104	-4.2917	-4.6146	-4.2229	-4.7271	-4.4354	-4.3792	-4.9083	-4.3104	-4.4354	-4.9104	-4.2292	-4.6312	-4.6104	-4.1271	-4.8333	-148.458	27.116	-36.578	-140.549	-152.535	13.000	92.107	147.015	-172.948	-30.580	89.945	-11.775	131.262	9.030	124.070	172.271	0.00074646	0.00043681	0.00015009	837.45	9.3236e-05	4.9179e-06	797.16	337.42	4.6522e-06	3.6655e-05	370.35	164.98	143.37	66.165	5.2744e-06	84.102	0.00083501	0.00089978	0.00025991	881.71	0.000329	9.4799e-06	838.28	358.5	8.1045e-06	4.9474e-05	411.74	176.31	153.18	70.903	8.4773e-06	94.612	-105.083	-69.214	-101.749	-160.288	78.966	-11.834	-161.414	-155.820	-22.846	95.712	-158.573	-153.727	-151.931	-147.350	-29.167	-149.789	-8191	255	
26081.789	1	1	0	0	0.17728	0.058984	0.09463	0.1274	0.091878	0.058074	0.32456	0.22791	0.13894	0.10033	0.15948	0.022509	0.13973	0.080757	0.076056	0.13759	-4.0125	-4.3625	-4.7375	-4.3625	-4.5625	-4.6417	-4.2771	-4.8542	-4.2542	-4.3354	-4.9729	-4.3458	-4.6125	-4.7271	-4.2771	-5.0125	173.055	-122.158	82.630	34.704	176.841	178.447	173.301	145.233	20.050	0.084	122.750	-140.984	177.937	135.324	-37.488	84.166	0.0007247	0.00062169	0.00010586	836.46	6.9019e-05	4.8996e-06	793.1	335.64	4.9213e-06	6.5588e-06	368.06	164.36	142.59	66.01	4.59e-06	83.211	0.00082979	0.000741	0.00027337	880.23	0.00023588	8.8591e-06	834.23	357.48	8.0611e-06	8.4628e-06	427.78	175.73	152.54	70.744	8.3949e-06	92.494	-107.981	-78.984	-103.251	-160.230	89.228	-9.922	-161.248	-155.682	-29.252	-17.632	-158.703	-153.716	-151.805	-147.419	-34.805	-149.928	-8191	255	
26081.910	1	1	0	0	0.1087	0.16743	0.16083	0.14842	0.10194	0.20462	0.18803	0.28223	0.09429	0.1775	0.18704	0.15202	0.13058	0.29589	0.082702	0.19492	-4.0542	-4.2771	-4.7396	-4.4583	-4.4333	-4.6917	-4.2708	-4.8271	-4.5104	-4.2583	-4.9458	-4.4479	-4.3438	-5.0021	-4.1312	-4.7979	-53.194	-149.422	-41.592	168.665	44.736	-136.138	157.588	141.620	89.395	-142.448	157.251	4.734	-5.816	137.364	-129.217	113.721	0.00076606	0.00069315	0.00016567	837.79	0.00010149	6.2507e-05	789.96	336.89	5.5513e-06	6.2635e-06	368.91	164.36	142.53	66.084	5.7499e-06	83.765	0.00081868	0.00075127	0.00031259	882.1	0.00023638	6.0529e-05	834.45	358.09	8.2006e-06	8.1984e-06	418.3	175.69	152.63	70.826	8.4876e-06	94.277	-106.724	-88.891	-90.704	-160.393	60.672	156.435	-161.429	-155.722	-32.800	-21.448	-158.545	-153.441	-151.849	-147.358	-30.066	-149.811	-8191	255	
26082.006	1	1	0	0	0.2843	0.15659	0.15431	0.42475	0.20469	0.23196	0.078099	0.099836	0.20109	0.13324	0.129	0.28442	0.070938	0.32786	0.080842	0.070181	-4.1146	-4.1396	-4.725	-4.4667	-4.3646	-4.7188	-4.1813	-4.6521	-4.5542	-4.1896	-4.9125	-4.5625	-4.4125	-4.9021	-4.2458	-4.7167	170.873	176.942	-114.074	122.177	162.191	176.492	131.229	177.917	43.576	165.944	-64.208	163.939	132.575	-149.762	72.198	-160.297	0.00076908	0.00057591	0.00012841	839.13	7.7303e-05	5.3184e-05	793.96	337.2	5.3943e-06	7.1129e-06	369.79	165.03	143.19	66.256	6.4225e-06	84.31	0.0008677	0.00074756	0.00028799	883.58	2.8861e-05	0.00022786	836.35	358.44	8.5944e-06	8.2734e-06	429.8	176.35	152.97	70.976	9.1764e-06	93.288	-106.702	-79.559	-86.206	-160.300	63.296	167.189	-161.458	-155.830	-27.064	-35.883	-158.614	-153.764	-151.618	-147.575	-39.806	-149.714	-8191	255	
26082.102	1	1	0	0	0.10436	0.17113	0.068139	0.060237	0.13574	0.19313	0.17705	0.1351	0.18571	0.093322	0.23368	0.25313	0.21676	0.15922	0.14263	0.17577	-4.4	-4.1125	-4.7771	-4.3875	-4.3354	-4.6104	-4.2792	-4.4979	-4.7542	-4.1292	-4.8667	-4.4583	-4.3417	-4.8958	-4.2583	-4.6604	-60.160	168.267	-111.949	-83.195	14.588	124.932	70.510	-139.642	-147.469	116.545	-171.461	156.831	-110.073	-172.649	-45.648	-169.364	0.00073607	0.00064503	0.00016281	839.42	5.1744e-06	0.00012772	794.52	339.36	5.4153e-06	6.8508e-06	373.59	166.38	144	66.628	5.3769e-06	84.005	0.00082712	0.00074833	0.00031504	884.14	7.1941e-06	0.00041972	839.33	359.9	7.9742e-06	8.4599e-06	421.39	177.34	153.64	71.417	8.7543e-06	93.292	-107.066	-89.934	-102.689	-160.088	-20.166	81.171	-161.293	-155.874	-32.916	-21.190	-158.433	-153.627	-151.836	-147.414	-47.521	-149.487	-8191	255	
26082.197	1	1	0	0	0.076163	0.17887	0.062203	0.11351	0.024937	0.0742	0.23222	0.17526	0.23744	0.18322	0.11968	0.23228	0.10745	0.35155	0.099598	0.11806	-4.375	-4.1292	-4.4875	-4.5437	-4.1083	-4.7167	-4.3333	-4.5292	-4.5646	-4.0563	-4.7708	-4.5833	-4.0875	-4.8729	-4.2896	-4.5208	130.796	-150.201	-89.156	67.612	124.645	10.699	116.500	-119.760	111.296	-2.871	121.354	183.287	-98.141	-168.695	-142.566	61.910	0.0012104	0.00060605	0.00016095	838.87	5.2259e-06	8.3776e-05	797.88	338.56	5.762e-06	6.4744e-06	372.61	165.92	143.93	66.454	6.0222e-06	83.459	0.0032409	0.00075938	0.00027665	885.12	7.3203e-06	0.000302	840.29	359.68	9.6201e-06	8.5773e-06	430.18	176.61	153.53	71.254	8.7509e-06	89.082	-101.538	-78.704	-96.326	-160.377	-21.570	87.587	-161.374	-155.833	-21.542	-17.513	-158.969	-153.541	-151.897	-147.368	-32.957	-149.657	-8191	255	
26082.293	1	1	0	0	0.039008	0.12198	0.21456	0.18197	0.2339	0.129	0.27989	0.20788	0.15085	0.067586	0.06146	0.23383	0.27442	0.19705	0.12786	0.029673	-4.4396	-4.0938	-4.4604	-4.6646	-4.1687	-4.8354	-4.4583	-4.3958	-4.6854	-4.1979	-4.7354	-4.7438	-4.2896	-4.7937	-4.2854	-4.4417	-155.366	162.590	-6.968	-165.694	62.532	-32.593	147.813	-167.301	-36.413	-9.644	-68.667	92.090	-171.567	128.762	-73.128	6.543	0.0010545	0.00057445	0.00011965	837.61	5.3967e-06	0.0001232	792.11	336.86	6.4353e-06	6.6192e-06	371.05	164.16	143.57	66.454	6.4344e-06	82.839	0.0084495	0.00078112	0.00029445	884	7.2073e-06	0.00041713	834.5	358.17	9.9116e-06	8.7391e-06	417.74	175.67	153.42	71.2	8.6454e-06	88.668	-101.355	-79.228	-99.654	-160.358	-20.004	101.157	-161.500	-155.835	-25.518	-5.397	-158.200	-153.651	-152.068	-147.657	-36.244	-150.034	-8191	255	
26082.389	1	1	0	0	0.15097	0.071716	0.19042	0.14771	0.16669	0.063022	0.33822	0.23651	0.081906	0.1537	0.17417	0.15851	0.31444	0.054509	0.13483	0.095969	-4.5042	-4.2271	-4.5396	-4.8104	-4.1271	-4.7646	-4.4437	-4.2562	-4.5833	-4.1833	-4.7	-4.7438	-4.1937	-4.725	-4.4875	-4.1937	173.690	9.178	149.084	151.519	-22.727	123.478	138.514	123.106	14.491	34.162	175.896	97.931	-155.977	95.273	18.770	169.942	0.0014012	0.00060345	0.00016374	834.41	4.2676e-06	8.4137e-05	788.88	338.09	5.9753e-06	6.2931e-06	370.34	165.77	143.76	66.343	5.5894e-06	83.181	0.014245	0.00079182	0.00026591	883.22	7.5338e-06	0.00030256	834.24	358.8	1.1226e-05	8.3938e-06	415.31	179.23	153.38	71.213	8.8393e-06	88.941	-49.039	-88.408	-72.315	-160.425	-17.829	101.253	-161.560	-155.845	-22.568	-14.028	-157.687	-154.573	-151.881	-147.389	-27.225	-150.125	-8191	255	
26082.484	1	1	0	0	0.35311	0.038495	0.027451	0.15927	0.24033	0.067054	0.321	0.091535	0.19622	0.16913	0.15943	0.22942	0.23975	0.21822	0.17453	0.14547	-4.4333	-4.275	-4.4375	-4.8958	-4.05	-4.6562	-4.5875	-4.3729	-4.7229	-4.3229	-4.5667	-4.8375	-4.1667	-4.8521	-4.7354	-4.3208	-167.624	133.438	-20.298	-153.952	132.973	34.361	141.131	109.947	-46.516	66.730	-169.198	127.872	-158.803	140.052	-40.897	130.229	0.0010762	0.00057785	0.00018325	840.67	3.8531e-06	0.00012771	793.43	337.55	5.4348e-06	6.8442e-06	372.64	165.76	143.11	66.478	5.2082e-06	83.576	0.010405	0.00076671	0.00023145	883.9	7.4863e-06	0.0004163	836.21	359.45	1.0416e-05	8.3178e-06	394.94	185.52	153.6	71.452	9.0246e-06	89.415	-54.355	-79.788	-79.409	-160.342	-27.466	113.613	-161.660	-155.811	-31.633	-19.176	-157.838	-154.225	-151.818	-147.567	-34.153	-150.058	-8191	255	
26082.582	1	1	0	0	0.24645	0.18692	0.13657	0.034898	0.18689	0.06011	0.054174	0.28805	0.14172	0.036617	0.11014	0.078827	0.17996	0.16411	0.15281	0.11488	-4.3854	-4.6167	-4.3208	-4.8229	-4.2521	-4.6083	-4.8458	-4.2583	-4.6813	-4.3854	-4.425	-4.8104	-4.2604	-4.6729	-4.6729	-4.2521	-163.455	-60.780	-172.097	-154.602	61.260	-8.405	171.353	134.779	13.262	-64.164	-123.504	67.953	162.671	-158.603	111.077	127.095	0.0012307	0.00057373	0.00014324	839.71	5.0295e-06	7.8782e-05	796.4	339.36	5.1813e-06	5.9514e-06	372.83	167.18	144.42	66.945	4.8386e-06	83.698	0.014169	0.00076481	0.00020461	885.77	7.7769e-06	0.00030154	839.6	360.72	1.1376e-05	8.2527e-06	395.5	192.29	154.39	71.741	9.1155e-06	89.645	-38.001	-86.078	-80.394	-160.240	-8.366	120.350	-161.508	-155.675	-9.868	-15.366	-158.061	-154.423	-151.795	-147.298	-32.139	-150.063	-8191	255	
26082.701	1	1	0	0	0.23484	0.090248	0.15838	0.13667	0.20528	0.11056	0.22079	0.1876	0.20638	0.16742	0.17263	0.07048	0.13428	0.40322	0.2226	0.12134	-4.4812	-4.4187	-4.2958	-4.8187	-4.2188	-4.3438	-4.8438	-4.0312	-4.7458	-4.5229	-4.3979	-4.9333	-4.3688	-4.6188	-4.8083	-4.3438	-11.043	-7.392	-51.126	159.374	-158.816	62.434	76.403	176.276	-167.594	-133.968	105.238	92.958	-125.276	178.536	-76.252	122.288	0.00087948	0.00067374	0.00012521	841.54	4.6915e-06	0.00010696	793.11	339.14	5.5072e-06	5.1459e-06	373.27	166.1	143.76	66.911	5.2805e-06	83.532	0.010354	0.00075075	0.00020775	889.06	7.4676e-06	0.00024796	859.23	360.99	9.917e-06	8.4895e-06	395.16	187.38	153.95	71.672	1.0775e-05	89.297	-48.196	-84.889	-80.031	-160.273	-26.271	66.641	-162.132	-155.800	-18.966	-16.833	-157.901	-154.275	-151.902	-147.517	-37.716	-150.166	-8191	255	
26082.799	1	1	0	0	0.10348	0.20215	0.18236	0.13478	0.073506	0.074344	0.29138	0.083347	0.21446	0.24297	0.098616	0.10038	0.061507	0.24601	0.15688	0.083856	-4.3938	-4.6208	-4.0979	-4.8604	-4.35	-4.4458	-4.7833	-4.4146	-4.5	-4.5125	-4.2625	-4.8104	-4.2937	-4.3375	-4.7833	-4.4167	-153.365	-142.286	-88.588	-132.636	-36.841	-66.700	80.184	73.907	-10.354	132.717	155.997	164.837	-165.013	139.247	-166.943	-99.255	0.0011326	0.00072378	0.00013659	836.51	5.0214e-06	6.4229e-06	792.5	337.93	5.8157e-06	7.1689e-06	370.67	167.05	143.28	66.822	4.3536e-06	83.085	0.014155	0.00080192	0.0002033	884.21	7.4185e-06	8.2591e-06	881.08	359.11	1.0583e-05	9.0005e-06	393.34	190.72	153.39	71.536	1.0872e-05	88.868	-35.308	-78.544	-73.832	-160.280	-7.704	-33.878	-162.241	-155.866	-19.375	-9.802	-157.951	-154.340	-152.011	-147.255	-50.464	-150.022	-8191	255	
26082.869	1	1	0	0	0.15698	0.13143	0.15206	0.19114	0.070332	0.20203	0.12674	0.12829	0.15825	0.25428	0.09885	0.26791	0.079835	0.27086	0.17164	0.11129	-4.3396	-4.6312	-4.0687	-4.8417	-4.3917	-4.3146	-4.8604	-4.4	-4.3875	-4.5979	-4.0958	-4.9396	-4.5813	-4.2771	-4.6875	-4.3438	183.601	-130.475	-42.018	94.444	177.060	35.926	-161.459	-160.613	-99.368	153.369	55.342	91.486	-126.684	-100.177	12.980	78.075	0.00074746	0.00072265	0.00012257	836.31	5.1893e-06	5.3923e-06	782.9	338.86	5.6219e-06	5.3186e-06	370.6	166.17	143.36	66.537	4.3379e-06	83.057	0.010361	0.00078285	0.00021141	883.59	7.307e-06	7.9646e-06	907.04	359.23	9.4271e-06	8.1274e-06	392.85	186.86	153.48	71.468	1.2178e-05	89.049	-38.909	-80.495	-81.216	-160.170	-19.486	-36.533	-162.080	-155.648	-20.443	-11.866	-157.800	-153.972	-151.995	-147.522	-36.555	-150.315	-8191	255	
26082.990	1	1	0	0	0.16412	0.14133	0.064629	0.019389	0.13203	0.2336	0.10928	0.19017	0.19808	0.27893	0.19488	0.18317	0.37519	0.16928	0.24708	0.10946	-4.0542	-4.5771	-4.1583	-4.7354	-4.4604	-4.1604	-4.9437	-4.4313	-4.25	-4.7417	-4.2917	-4.7604	-4.6333	-4.1979	-4.8938	-4.5354	-149.110	86.470	43.244	149.831	-47.077	145.435	157.606	84.273	-19.853	103.078	-146.672	95.775	138.637	109.227	-21.637	168.889	0.001065	0.00030232	0.00015815	839	5.0374e-06	5.0434e-06	788.56	338.2	4.8788e-06	4.4992e-06	372.57	167.66	144.33	67.012	5.9951e-06	83.682	0.0080189	0.011454	0.00021035	883.07	7.5276e-06	8.0184e-06	888.09	359.36	8.1835e-06	1.0854e-05	394.45	191.78	154.2	71.733	1.1653e-05	89.663	-21.564	129.368	-83.209	-160.336	-20.005	-33.047	-161.819	-155.688	-17.600	-38.286	-157.938	-154.218	-152.036	-147.512	-50.832	-150.182	-8191	255	
26083.086	1	1	0	0	0.058098	0.1175	0.24512	0.22621	0.11225	0.11986	0.19969	0.13473	0.12215	0.087002	0.11112	0.1503	0.2987	0.27328	0.30046	0.13101	-3.9875	-4.6479	-4.1917	-4.7438	-4.4583	-4.1562	-4.7667	-4.5375	-4.1771	-4.6917	-4.3187	-4.5312	-4.6167	-4.225	-4.6979	-4.6042	-140.137	17.059	-49.737	174.761	141.601	-63.934	83.495	-26.158	173.595	-55.105	102.799	-109.236	82.394	179.492	50.507	-11.836	0.00077347	0.0012099	0.0001583	838.4	7.4115e-06	4.589e-06	787.98	338.79	4.8641e-06	8.1641e-06	373.15	168.06	143.91	66.968	5.2052e-06	84.363	0.00083286	0.024526	0.00021343	884.13	8.024e-06	8.3039e-06	910.57	360.12	7.7254e-06	1.0988e-05	395.59	188.33	154.14	71.763	1.2456e-05	90.229	-107.385	116.466	-87.155	-160.229	-25.542	-46.305	-162.403	-155.785	-29.023	-14.204	-157.847	-154.192	-152.096	-147.535	-63.815	-150.132	-8191	255	
26083.184	1	1	0	0	0.1696	0.19863	0.065008	0.11724	0.055516	0.067028	0.25105	0.22701	0.27368	0.13891	0.15797	0.0335	0.12065	0.18002	0.096491	0.024934	-4.0271	-4.6042	-4.1479	-4.4563	-4.8375	-4.4	-4.7542	-4.6708	-4.3146	-4.7271	-4.4479	-4.3979	-4.7604	-4.2771	-4.65	-4.725	155.855	-21.271	-119.616	-164.758	101.876	-30.195	-166.449	-170.936	32.685	-45.818	-168.715	140.592	106.088	-118.000	-146.687	115.159	0.00073882	0.011099	0.00020373	838.88	5.5378e-06	5.2953e-06	792.24	341.11	5.7722e-06	6.3206e-06	372.81	167.66	145.85	66.963	5.6178e-06	84.05	0.00080466	0.036528	0.00022472	884.16	7.6593e-06	8.7427e-06	892.45	361.1	7.6719e-06	1.2405e-05	395.69	185.09	160.4	71.915	1.0754e-05	90.039	-106.378	-26.678	-76.740	-160.206	-29.831	-28.465	-161.996	-155.987	-44.750	-4.935	-157.958	-153.556	-152.719	-147.514	-34.019	-150.125	-8191	255	
26083.303	1	1	0	0	0.087039	0.085512	0.063055	0.12826	0.25951	0.073537	0.082046	0.24151	0.14304	0.076623	0.1498	0.035022	0.077682	0.20951	0.12056	0.15557	-3.8229	-4.85	-4.3042	-4.3396	-4.6167	-4.0583	-4.6062	-4.8333	-4.0646	-4.6917	-4.3979	-4.3167	-4.7979	-4.3896	-4.4979	-4.6417	139.201	-145.409	148.027	105.449	140.529	98.344	101.075	122.545	-94.232	175.208	178.083	-78.672	152.186	171.848	139.704	79.199	0.0007702	0.008487	0.00016316	833.36	6.2145e-06	4.859e-06	783.93	339.71	5.2195e-06	5.2417e-06	371.26	165.9	144.07	66.887	6.2269e-06	83.439	0.00082849	0.026345	0.0002085	881.55	1.0134e-05	8.6193e-06	907.37	359.63	7.8262e-06	1.1468e-05	393.22	176.86	164.95	71.675	1.1169e-05	89.448	-107.480	-17.692	-76.313	-160.281	-39.338	-16.258	-162.077	-155.950	-34.444	-9.607	-157.875	-153.637	-152.501	-147.389	-31.664	-150.033	-8191	255	
26083.398	1	1	0	0	0.065499	0.18078	0.27414	0.23226	0.092494	0.34292	0.091941	0.11107	0.20641	0.20285	0.12986	0.12266	0.13239	0.26691	0.15181	0.026623	-3.7396	-4.5896	-4.2958	-4.3562	-4.8313	-4.1312	-4.5813	-4.7208	-4.2417	-4.8375	-4.6458	-4.4688	-4.8125	-4.3104	-4.475	-4.8812	183.154	31.082	-10.203	124.673	-171.451	148.945	105.383	-133.881	-145.715	-118.213	-145.422	-169.795	125.651	88.781	-98.500	-103.501	0.00077168	0.011285	0.00018239	834.76	6.0613e-06	7.103e-06	789.07	337.6	4.9168e-06	5.6175e-06	370.56	165.33	146.86	66.947	6.6288e-06	83.649	0.00083064	0.0363	0.00021664	881.52	9.7219e-06	8.3964e-06	885.84	359.02	7.8378e-06	1.2667e-05	393.63	176.49	170.27	71.741	9.9425e-06	89.616	-107.605	-7.453	-83.965	-160.319	-21.211	-29.343	-162.025	-155.869	-26.058	-3.597	-157.856	-153.556	-152.510	-147.400	-42.042	-150.197	-8191	255	
26083.471	1	1	0	0	0.093518	0.18273	0.12476	0.034494	0.026615	0.16764	0.12967	0.26595	0.32897	0.24601	0.36284	0.057766	0.11544	0.30097	0.12485	0.2366	-3.6437	-4.7854	-4.3625	-4.3417	-4.85	-4.1604	-4.5375	-4.925	-4.2375	-4.6	-4.5146	-4.2604	-4.7562	-4.5188	-4.3417	-4.9125	-31.588	-77.059	-22.439	-95.281	31.835	-149.904	134.901	140.635	142.258	-118.449	121.442	-171.396	-168.725	165.662	-22.117	98.882	0.00076856	0.0082558	0.00014906	837.83	6.1409e-06	6.2014e-06	787.29	338.84	5.3369e-06	6.5286e-06	372.58	165.94	147.13	67.173	6.3156e-06	83.838	0.00083149	0.026163	0.00020738	882.13	1.0862e-05	8.5089e-06	867.89	368.73	8.1595e-06	1.1063e-05	394.26	177.3	166.26	71.975	8.7346e-06	90.016	-107.359	-5.254	-80.170	-160.045	-24.909	-28.121	-161.409	-156.482	-16.516	-22.508	-157.795	-153.829	-152.067	-147.449	-31.658	-150.113	-8191	255	
26083.590	1	1	0	0	0.14049	0.056021	0.23443	0.25849	0.052668	0.14683	0.20888	0.12536	0.088397	0.26956	0.15646	0.17633	0.19859	0.070257	0.19118	0.078138	-3.6854	-4.5979	-4.4417	-4.1292	-4.6896	-4.3083	-4.3417	-4.9729	-4.2521	-4.4479	-4.6188	-4.3229	-4.8625	-4.5312	-4.2479	-4.8979	-122.952	-52.518	34.973	142.169	150.889	67.687	89.176	181.458	-32.325	119.105	-150.847	184.936	125.701	47.170	-137.200	-82.758	0.00075072	0.011567	0.00016425	841.28	6.3144e-06	5.2476e-06	796.27	337.25	5.0015e-06	7.6482e-06	374.45	166.55	147.19	67.22	7.1179e-06	84.68	0.00083716	0.036171	0.00021496	884.5	9.9253e-06	8.0323e-06	838.84	377.11	8.0083e-06	1.1531e-05	396.17	178.2	170.76	72.09	8.7869e-06	90.665	-108.072	3.676	-66.360	-160.251	-17.365	-22.079	-161.322	-156.294	-21.441	-4.989	-157.897	-153.605	-152.292	-147.590	-38.577	-150.148	-8191	255	
26083.686	1	1	0	0	0.18387	0.1239	0.064494	0.31948	0.05137	0.034081	0.11321	0.2144	0.094978	0.19338	0.17668	0.33259	0.14092	0.15269	0.17959	0.44291	-3.8229	-4.5437	-4.5479	-4.3229	-4.5958	-4.4313	-4.3458	-4.7312	-4.3604	-4.4167	-4.7479	-4.1562	-4.6958	-4.6479	-4.2417	-4.8375	57.710	21.799	116.682	130.286	93.141	-112.439	30.829	172.223	86.151	52.775	144.231	174.493	158.249	183.828	93.386	107.979	0.00077023	0.0089037	0.00014655	840.64	5.115e-06	5.9593e-06	795.57	339.88	4.6194e-06	5.7781e-06	374.43	167.03	146.48	67.065	5.8923e-06	84.531	0.00085434	0.026421	0.0002214	885.34	1.0881e-05	7.9268e-06	839.8	383.92	7.8448e-06	9.6082e-06	396.82	178.65	166.3	72.119	8.4979e-06	90.572	-107.612	8.389	-82.927	-160.153	-13.198	-25.903	-161.490	-156.184	-30.114	-35.246	-157.799	-153.711	-152.178	-147.483	-32.145	-150.133	-8191	255	
26083.783	1	1	0	0	0.22398	0.16459	0.13316	0.22324	0.24849	0.16235	0.072994	0.32688	0.083483	0.13743	0.08812	0.39824	0.26648	0.20584	0.018361	0.071362	-3.9854	-4.2417	-4.7021	-4.4083	-4.5875	-4.5271	-4.3313	-4.8708	-4.3938	-4.4	-4.9417	-4.3125	-4.6979	-4.7542	-4.1229	-4.9125	76.845	102.158	-123.934	100.572	-103.214	-139.957	-116.518	45.237	122.587	-45.827	110.839	140.767	-130.002	106.452	75.675	23.672	0.00076554	0.013333	0.0015053	835.54	4.9272e-06	6.8125e-06	791.38	338.41	6.4964e-06	7.1678e-06	372.21	165.69	146.64	67.023	6.058e-06	83.944	0.00082832	0.015212	0.0045969	881.46	9.2521e-06	8.6661e-06	835.74	376.1	7.7696e-06	8.1619e-06	394.42	177.19	170.24	71.914	8.4936e-06	89.967	-107.901	-16.095	101.412	-160.507	-21.976	-24.952	-161.692	-156.355	-27.373	-7.051	-157.734	-153.609	-151.867	-147.624	-46.956	-150.123	-8191	255	
26083.879	1	1	0	0	0.10014	0.1026	0.1932	0.19945	0.10927	0.17695	0.28473	0.18268	0.19393	0.15846	0.096307	0.22829	0.16079	0.071579	0.048917	0.08496	-4.0625	-4.2438	-4.6583	-4.1667	-4.5083	-4.5646	-4.2958	-4.725	-4.4146	-4.2188	-4.8146	-4.2937	-4.6896	-4.8833	-3.9271	-4.7937	32.004	-58.967	50.927	132.086	77.351	44.460	110.218	170.067	117.216	-68.097	44.671	154.901	-149.353	79.409	137.896	55.939	0.00076872	0.00058456	0.0023105	830.76	4.8929e-06	8.1222e-06	791.59	338.39	5.0734e-06	6.7175e-06	372.03	165.17	145.55	66.97	6.1606e-06	84.021	0.00081965	0.00072339	0.0074194	878	9.6767e-06	8.6581e-06	834.54	381.67	7.3238e-06	7.9962e-06	394	176.97	165.28	71.819	8.7655e-06	90.014	-105.819	-102.029	30.068	-160.196	-11.689	-28.454	-161.373	-156.511	-22.604	-21.195	-157.919	-153.416	-151.777	-147.548	-45.341	-150.166	-8191	255	
26083.998	1	1	0	0	0.079651	0.10385	0.029708	0.27279	0.17982	0.084989	0.11396	0.38498	0.15482	0.15596	0.052152	0.1896	0.23391	0.3285	0.095477	0.15588	-4.1708	-4.2396	-4.7958	-4.4479	-4.3917	-4.8354	-4.1958	-4.6625	-4.3521	-4.1917	-4.8083	-4.2854	-4.4646	-4.8771	-4.1792	-4.7354	-24.308	-158.621	-13.454	114.844	-6.545	182.070	40.912	152.349	-66.928	93.180	-171.287	165.148	159.228	152.015	80.531	107.221	0.00075914	0.00059756	0.0034419	832.35	5.0625e-06	7.2737e-06	792.08	337.58	4.5616e-06	6.7341e-06	371.84	165.96	145.91	67.444	6.9131e-06	84.7	0.00081405	0.00072331	0.010223	877.96	8.465e-06	9.2392e-06	835.67	374.76	7.5641e-06	8.3247e-06	394.97	177.42	159.87	74.05	8.6883e-06	90.631	-107.792	-84.679	34.350	-160.309	-22.268	-26.351	-161.451	-156.335	-25.324	-24.975	-158.003	-153.633	-151.209	-147.661	-41.507	-150.273	-8191	255	
26084.094	1	1	0	0	0.036532	0.17674	0.067702	0.29215	0.081797	0.032735	0.11229	0.16304	0.13834	0.12101	0.18473	0.062231	0.14832	0.18973	0.20077	0.059016	-4.1312	-4.1458	-4.7396	-4.3708	-4.2292	-4.6521	-4.3187	-4.6542	-4.6042	-4.2479	-4.6896	-4.4437	-4.4688	-4.8854	-4.1958	-4.7208	34.877	57.935	-47.845	106.783	12.443	59.630	79.482	-165.099	122.697	135.413	98.438	-152.777	136.343	-165.238	115.780	-86.203	0.00075301	0.00061846	0.0022703	832.27	5.3427e-06	6.7762e-06	790.66	338.39	5.0942e-06	4.6923e-06	372.47	166.48	144.19	67.874	6.5447e-06	84.823	0.00083543	0.00077008	0.0074482	878.29	7.3078e-06	1.207e-05	837.02	381.84	8.0363e-06	8.3868e-06	395.35	178.14	154.27	75.212	8.7809e-06	90.912	-107.945	-85.365	41.286	-160.374	-15.561	-30.869	-161.634	-156.491	-27.046	-25.444	-157.797	-153.793	-151.789	-147.389	-40.427	-150.204	-8191	255	
26084.168	1	1	0	0	0.064801	0.17061	0.16481	0.11613	0.18797	0.046325	0.10085	0.21146	0.091629	0.059285	0.12814	0.2203	0.11174	0.5253	0.067271	0.056436	-4.25	-4.0792	-4.7333	-4.5312	-4.0875	-4.8229	-4.3896	-4.6104	-4.6917	-3.9188	-4.8187	-4.4125	-4.325	-5.0708	-4.2208	-4.6125	155.408	-27.416	186.074	-150.809	28.003	7.600	3.781	164.936	93.913	104.315	88.142	134.854	-40.609	167.133	-71.015	32.479	0.00077062	0.00053748	0.0029919	833.56	4.5244e-06	6.6804e-06	796.26	338.15	5.4725e-06	6.4225e-06	373.03	167.07	143.64	68.049	7.1576e-06	84.895	0.0008469	0.00076827	0.010236	879.93	7.3686e-06	1.1466e-05	839.06	374.69	8.2696e-06	8.5329e-06	395.97	178.56	154.27	76.416	8.4601e-06	90.962	-106.784	-97.765	48.410	-160.362	-31.346	-29.173	-161.529	-155.825	-28.316	-25.757	-157.849	-153.764	-151.952	-147.250	-30.070	-150.250	-8191	255	
26084.264	1	1	0	0	0.070536	0.30944	0.13233	0.074456	0.19922	0.10312	0.1838	0.19563	0.10074	0.07902	0.15336	0.23112	0.14322	0.17866	0.18987	0.040119	-4.5271	-4.3271	-4.5958	-4.7	-4.1667	-4.9521	-4.5125	-4.6167	-4.6375	-4.1	-4.8229	-4.8688	-4.1896	-4.8229	-4.3896	-4.5771	39.330	162.433	-109.546	110.792	-148.578	127.282	169.623	120.846	-143.515	-79.530	-113.361	184.045	139.617	-127.007	-17.663	100.946	0.00078994	0.00048421	0.0022252	835.07	5.5033e-06	6.2267e-06	793.2	335.54	8.3268e-05	6.5561e-06	369.8	166.1	143.57	67.409	4.9799e-06	84.218	0.00086216	0.0007599	0.0073381	879.16	7.3912e-06	1.2482e-05	835.47	364.56	0.00017615	8.4243e-06	392.84	177.35	153.6	74.752	7.984e-06	90.06	-108.194	-103.101	49.647	-160.310	-22.857	-26.993	-161.427	-155.818	-102.958	-18.244	-157.890	-153.598	-152.003	-147.225	-38.684	-150.009	-8191	255	
26084.383	1	1	0	0	0.18033	0.18299	0.19963	0.23785	0.056104	0.013441	0.32097	0.03042	0.11052	0.024196	0.12995	0.21212	0.18167	0.28007	0.17956	0.25906	-4.5271	-4.1125	-4.5708	-4.7354	-4.0938	-4.65	-4.5521	-4.4771	-4.8396	-4.1604	-4.6208	-4.9604	-4.0917	-4.8833	-4.4021	-4.4521	184.244	124.030	85.026	-152.176	-31.728	42.770	177.478	-75.793	20.536	78.255	-52.144	165.954	129.020	90.087	-95.565	178.471	0.00077262	0.0004858	0.0029639	830.19	5.7818e-06	6.3418e-06	789.07	335.59	6.0246e-05	6.4775e-06	370.83	165.02	143.26	67.412	6.8413e-06	84.268	0.00094987	0.00074514	0.010149	875.44	7.4255e-06	1.1347e-05	832.18	356.58	0.00023743	8.4322e-06	393.01	176.89	153.62	75.984	7.8853e-06	90.156	-107.000	-85.730	61.362	-160.386	-26.071	-26.503	-161.415	-155.813	-94.488	-29.722	-158.050	-153.547	-151.939	-147.140	-25.068	-150.223	-8191	255	
26084.479	1	1	0	0	0.18181	0.050547	0.092596	0.17683	0.10941	0.14696	0.2383	0.27959	0.15541	0.12963	0.14978	0.19128	0.2595	0.27613	0.23352	0.07254	-4.5729	-4.1896	-4.5083	-4.9208	-4.0583	-4.4979	-4.5437	-4.4854	-4.6854	-4.2042	-4.4521	-4.9083	-4.2521	-4.6833	-4.4437	-4.2729	64.596	162.954	-139.417	66.431	-45.462	24.314	-1.626	146.902	131.607	-71.383	-30.244	58.062	-143.141	136.334	6.443	182.759	0.00076341	0.00076545	0.0018677	830.39	5.1342e-06	6.0026e-06	787.98	336.62	9.0221e-05	5.5625e-06	371.83	165.61	144.1	67.583	5.6874e-06	84.387	0.00093279	0.00073642	0.006605	875.87	7.3522e-06	1.1868e-05	833.15	357.4	0.00032451	8.0396e-06	393.23	177.38	153.87	75.038	8.7758e-06	90.396	-107.097	-80.124	7.440	-160.260	-28.918	-33.993	-161.380	-155.757	-88.835	-17.729	-158.065	-153.619	-151.857	-147.360	-33.949	-150.167	-8191	255	
26084.574	1	1	0	0	0.24847	0.14378	0.074231	0.2688	0.14273	0.16801	0.12398	0.15373	0.056387	0.021022	0.039727	0.37392	0.24634	0.3154	0.15177	0.45781	-4.5333	-4.1271	-4.3042	-4.8042	-4.3375	-4.7	-4.7229	-4.275	-4.5646	-4.2625	-4.5312	-4.9396	-4.1438	-4.7604	-4.6458	-4.4667	-105.728	19.947	49.358	-122.989	-92.353	6.462	87.846	172.230	-132.192	153.842	-79.438	121.048	135.834	170.460	-163.956	125.014	0.00078097	0.00060504	0.0026218	827.53	5.3839e-06	6.0224e-06	790.67	337.57	5.9184e-05	5.7757e-06	371.55	165.79	143.56	67.875	5.7957e-06	84.692	0.00097656	0.00074031	0.0029076	916.6	7.3335e-06	1.0619e-05	834.55	358.17	0.00023558	8.1215e-06	394.47	177.66	153.87	76.337	9.0108e-06	90.61	-107.349	-79.539	11.801	-160.755	-13.159	-24.032	-161.517	-155.868	-78.018	-14.100	-157.812	-153.723	-151.908	-146.957	-33.575	-150.268	-8191	255	
26084.672	1	1	0	0	0.10977	0.04283	0.07137	0.1783	0.11252	0.23223	0.080414	0.17107	0.089863	0.094506	0.1949	0.2562	0.19928	0.3476	0.13391	0.14533	-4.3833	-4.2396	-4.2229	-4.9667	-4.2271	-4.3812	-4.6583	-4.4167	-4.5604	-4.3229	-4.3438	-4.8042	-4.3667	-4.5625	-4.675	-4.2125	11.467	71.745	-116.955	113.186	-160.633	152.942	116.311	168.466	-142.990	56.515	124.854	126.490	71.790	182.493	166.546	162.066	0.0007931	0.00067316	0.00021099	828.03	5.4836e-06	5.8149e-06	795.4	337.68	8.8976e-05	6.3374e-06	371.42	166.68	144.64	68.014	1.1338e-05	84.833	0.00095469	0.00072702	0.00021299	928.94	7.5167e-06	1.1303e-05	839.02	358.44	0.0003222	8.0356e-06	394.53	178.28	154.18	74.946	1.0061e-05	90.988	-107.696	-78.857	-81.527	-160.232	-23.451	-13.113	-161.525	-155.848	-73.862	-20.706	-157.714	-153.572	-151.946	-147.001	-51.515	-150.242	-8191	255	
26084.768	1	1	0	0	0.18205	0.051637	0.16143	0.20278	0.20429	0.10638	0.019301	0.16506	0.1524	0.12744	0.042165	0.27651	0.2028	0.259	0.25509	0.14968	-4.3729	-4.5396	-4.0542	-5.0354	-4.1833	-4.4187	-4.8896	-4.3625	-4.6292	-4.5271	-4.3021	-4.8562	-4.3313	-4.4792	-4.6354	-4.3542	-35.980	167.601	-113.825	45.785	107.278	-114.264	-33.214	135.038	139.250	170.235	-145.328	176.094	167.925	-99.469	-39.153	94.873	0.00078848	0.00046657	0.00016053	824.15	4.5628e-06	7.0613e-06	790.71	336.22	6.0404e-05	6.646e-06	369.55	165.79	143.6	67.611	1.3217e-05	84.563	0.00096173	0.00076231	0.00021654	944.54	6.8153e-06	9.6232e-06	836.48	357.33	0.00023185	8.4756e-06	391.81	177.44	153.45	73.118	0.00022178	90.392	-105.080	-118.623	-79.840	-160.552	-10.186	-28.489	-161.704	-155.831	-67.358	-29.404	-157.800	-153.495	-151.959	-146.777	-164.072	-150.101	-8191	255	
26084.863	1	1	0	0	0.1237	0.13391	0.2285	0.083135	0.062837	0.056932	0.21956	0.12426	0.34161	0.19577	0.18008	0.17987	0.10781	0.27321	0.10623	0.23705	-4.125	-4.4354	-4.1125	-4.7792	-4.3438	-4.2354	-4.9292	-4.3521	-4.5896	-4.5792	-4.2583	-4.7021	-4.4208	-4.3875	-4.8146	-4.3708	113.767	-166.020	-99.299	-151.062	111.602	-71.345	169.719	165.700	162.722	152.544	78.247	180.669	95.266	151.810	-137.547	89.185	0.00077428	0.00068033	0.00017724	823.4	5.6489e-06	7.1188e-06	788.57	336.23	8.2235e-05	7.4271e-06	367.27	165.63	143.16	67.197	9.1731e-05	84.55	0.00090189	0.00078829	0.00021904	922.69	7.0904e-06	8.2333e-06	833.87	356.24	0.00031598	8.819e-06	390.47	176.87	153.08	72.025	0.00025706	90.422	-107.276	-86.007	-81.375	-160.456	-10.361	-22.535	-161.598	-155.771	-64.158	-22.772	-157.851	-153.802	-151.984	-147.530	42.003	-150.235	-8191	255	
26084.984	1	1	0	0	0.11556	0.16887	0.19931	0.024387	0.11688	0.10993	0.29067	0.14081	0.2153	0.19221	0.26188	0.066701	0.32822	0.1428	0.13912	0.15436	-4.3958	-4.7042	-3.9646	-4.8604	-4.2354	-4.175	-4.9042	-4.4167	-4.4688	-4.6562	-4.2771	-4.8417	-4.4938	-4.35	-4.6875	-4.4313	45.986	61.683	-142.179	-82.029	47.137	-112.546	144.662	111.096	-70.624	123.800	109.222	28.879	128.178	162.165	-90.640	119.339	0.00076497	0.00067505	0.00016998	818.75	5.9929e-06	6.3441e-06	786.74	335.14	3.2404e-05	7.8573e-05	368.3	165.6	142.4	67.218	0.00010299	84.566	0.00093439	0.00079907	0.0002162	940.58	6.8777e-06	8.4571e-06	833.09	355.81	0.00018915	2.1202e-05	390.89	176.91	153.02	72.024	0.00035101	90.388	-107.289	-82.718	-78.141	-160.577	-18.607	-33.254	-161.321	-155.748	-9.881	-96.807	-157.899	-153.507	-151.955	-147.616	47.814	-150.225	-8191	255	
26085.078	1	1	0	0	0.092557	0.20264	0.11977	0.19847	0.21117	0.22599	0.12285	0.16029	0.11125	0.11132	0.14905	0.23802	0.073457	0.05073	0.14034	0.24513	-4.1229	-4.5521	-4.0563	-4.8271	-4.5917	-4.2104	-4.7979	-4.5083	-4.4563	-4.875	-4.3833	-4.6625	-4.85	-4.3917	-4.7146	-4.6396	-165.456	22.728	-119.684	9.463	-85.559	31.509	175.881	132.237	-84.266	64.702	-159.846	-168.589	71.080	185.282	-22.766	35.969	0.00076374	0.00068451	0.0001547	823.38	4.7112e-06	6.2473e-06	789.9	336.08	4.8934e-05	9.8126e-05	370.44	165.37	143.96	67.389	7.2138e-05	84.599	0.00086708	0.00086267	0.00021338	923.78	7.8097e-06	8.9735e-06	834.4	356.88	6.5229e-05	0.00027045	392.35	177.18	153.68	72.322	0.00025594	90.658	-107.752	-90.425	-77.652	-160.457	-27.162	-28.298	-161.642	-155.967	-1.084	-100.862	-157.913	-153.621	-151.980	-147.650	56.706	-150.147	-8191	255	
26085.174	1	1	0	0	0.10998	0.24108	0.093171	0.18725	0.33301	0.095088	0.16912	0.31755	0.20726	0.14134	0.20892	0.20153	0.090671	0.15205	0.0074839	0.014849	-3.7896	-4.5396	-4.1479	-4.6458	-4.6646	-4.1792	-4.8542	-4.6396	-4.3167	-4.7562	-4.4792	-4.475	-4.675	-4.2125	-4.8021	-4.6854	-86.531	-168.204	119.699	99.952	62.524	-169.025	-99.320	157.793	167.403	-163.417	57.243	-171.332	-144.159	-155.507	119.746	164.430	0.00073977	0.00079855	0.00015425	823.03	5.0206e-06	6.1465e-06	792.81	335.66	5.7135e-06	8.954e-05	368.88	165.93	143.14	67.222	0.00011219	84.397	0.00082076	0.0011635	0.00020282	944.12	8.2538e-06	8.7467e-06	837.37	356.49	7.8789e-06	0.00029686	391.83	177.21	153.12	72.056	0.00035203	90.521	-107.251	-95.756	-80.546	-160.880	-32.101	-32.327	-161.510	-155.807	-30.907	-64.408	-157.936	-153.700	-152.043	-147.437	59.635	-150.128	-8191	255	
26085.270	1	1	0	0	0.24404	0.054177	0.12068	0.17028	0.15	0.062171	0.18561	0.13136	0.17395	0.1284	0.29644	0.27757	0.19967	0.15341	0.12301	0.13767	-3.7438	-4.7292	-4.1604	-4.6583	-4.65	-4.1917	-4.7063	-4.7063	-4.2146	-4.8562	-4.3396	-4.3979	-4.7063	-4.3125	-4.5646	-4.9604	84.346	-24.084	-28.013	-159.314	142.105	38.443	162.801	167.383	-119.805	94.481	123.731	149.843	83.744	-164.211	-149.044	153.180	0.00077297	0.0005253	0.0001237	828.43	7.3868e-05	5.728e-06	789.26	333.2	6.5039e-06	0.00013354	365.65	164.44	142.2	66.937	7.7715e-05	83.98	0.00084198	0.001049	0.0002	911.42	2.7413e-05	8.3576e-06	835.41	354.26	7.8835e-06	0.00040577	388.43	175.69	152.21	71.714	0.00025613	89.874	-107.431	-72.176	-70.391	-160.160	-134.741	-24.683	-161.213	-155.888	-32.244	-53.024	-157.932	-153.689	-152.090	-147.676	68.380	-150.141	-8191	255	
26085.391	1	1	0	0	0.017248	0.164	0.045551	0.10119	0.10417	0.021661	0.21328	0.31204	0.11614	0.18144	0.16467	0.25378	0.31928	0.22604	0.13598	0.17589	-3.825	-4.8354	-4.3438	-4.4146	-4.5979	-4.2333	-4.5687	-4.7083	-4.1625	-4.775	-4.5958	-4.275	-4.8833	-4.3292	-4.4292	-4.8042	-42.961	82.055	-170.094	140.610	0.639	-11.627	159.599	111.640	-53.948	-0.252	111.049	152.358	-140.614	-160.757	-24.229	28.107	0.00076199	0.0006348	0.00015682	825.87	0.00011244	6.0501e-06	790.57	332.19	4.6087e-06	8.9465e-05	364.93	164.11	142.02	66.681	0.00010452	84.004	0.00083628	0.0011151	0.00020814	883.32	0.00022968	8.2532e-06	834.35	353.1	8.0068e-06	0.00029389	387.09	175.25	152.07	71.54	0.00035289	89.781	-107.734	-78.192	-80.706	-159.934	-130.997	-35.854	-161.294	-156.025	-22.913	-44.897	-157.805	-153.636	-152.197	-147.513	74.130	-150.096	-8191	255	
26085.463	1	1	0	0	0.13205	0.33227	0.17301	0.061842	0.19412	0.099516	0.19118	0.22264	0.12385	0.027813	0.17189	0.16218	0.24214	0.35335	0.17996	0.14572	-3.7646	-4.5979	-4.3938	-4.3229	-4.7792	-4.3146	-4.4542	-4.675	-3.95	-4.6729	-4.5437	-4.1625	-4.8604	-4.3917	-4.3812	-4.9104	85.374	-164.764	25.715	-81.035	57.741	103.650	171.131	-166.444	161.159	-82.839	57.682	157.122	86.045	174.036	102.588	159.960	0.00076507	0.00078535	0.00016287	830.12	5.8887e-05	5.2659e-06	790.91	331.97	4.0469e-06	0.00013935	365.35	163.88	141.48	66.585	9.0627e-05	83.314	0.00084837	0.00098987	0.00020012	874.51	0.00023302	8.2959e-06	835.17	352.25	7.7037e-06	0.000406	387.14	175.11	151.59	71.381	0.00018706	90.12	-106.280	-83.430	-89.401	-160.135	-152.484	-28.383	-161.527	-155.651	-29.033	-42.713	-157.711	-153.639	-151.832	-147.558	49.939	-150.546	-8191	255	
26085.559	1	1	0	0	0.051377	0.17973	0.15137	0.16466	0.15998	0.15109	0.079349	0.17946	0.17166	0.085726	0.189	0.18036	0.15438	0.29443	0.16818	0.19956	-3.7875	-4.4771	-4.45	-4.2458	-4.9	-4.4042	-4.5208	-4.9187	-4.2229	-4.4812	-4.6875	-4.1875	-4.6979	-4.475	-4.2417	-5.1125	-123.338	-160.625	9.271	157.455	13.357	-173.335	-15.936	123.027	123.367	-46.709	122.542	128.734	-101.247	119.185	-14.109	137.723	0.00075627	0.00061242	0.0002054	831.29	9.6826e-05	4.3726e-06	796.11	331.12	3.8348e-06	9.7101e-05	364.21	163.62	141.85	66.754	0.00011745	83.587	0.00082934	0.0010208	0.00021977	877.15	0.00032091	7.8044e-06	839.93	352.06	7.7773e-06	0.00029456	386.32	175.15	151.68	71.578	4.0846e-05	93.97	-107.208	-92.559	-78.838	-160.230	-147.514	-21.218	-161.498	-155.761	-33.499	-38.878	-157.876	-153.681	-152.068	-147.372	53.300	-150.504	-8191	255	
26085.654	1	1	0	0	0.093521	0.24101	0.24366	0.1998	0.032627	0.018993	0.077977	0.45271	0.2254	0.24551	0.13879	0.07812	0.18972	0.12933	0.23146	0.11148	-3.8917	-4.4104	-4.5458	-4.3708	-4.6542	-4.3604	-4.1521	-4.7688	-4.2937	-4.4729	-4.575	-4.2125	-4.7646	-4.4771	-4.1312	-4.8646	111.964	144.480	107.958	-3.641	121.576	-100.286	46.084	139.150	81.019	-87.099	126.248	-8.324	166.104	102.629	-69.596	-131.517	0.00074472	0.00068591	0.00017713	835.76	6.7091e-05	6.1536e-06	796.08	330.75	4.8046e-06	0.00014191	363.98	163.77	141.25	66.504	5.4861e-06	83.114	0.00080825	0.00094292	0.00022108	880.49	0.00023152	7.9636e-06	842.38	351.91	7.613e-06	0.00040414	386.38	175.12	151.13	71.275	8.8907e-06	93.768	-107.272	-87.866	-86.837	-160.331	-132.675	-37.899	-161.571	-155.862	-24.163	-30.253	-158.156	-153.548	-151.999	-147.538	-32.116	-149.851	-8191	255	
26085.775	1	1	0	0	0.14364	0.18429	0.10011	0.23921	0.25002	0.16972	0.18111	0.29655	0.071809	0.13912	0.2597	0.1078	0.013525	0.088754	0.25583	0.16802	-3.9896	-4.425	-4.6542	-4.1167	-4.6937	-4.4563	-4.2854	-4.8208	-4.1479	-4.4417	-4.7146	-4.275	-4.6729	-4.6542	-4.0563	-4.8958	-8.787	-82.968	-77.123	111.866	-141.383	-53.836	82.994	56.963	73.450	-133.280	161.667	-52.481	92.149	83.386	12.224	138.507	0.00074729	0.00066038	0.00015939	833.46	9.9518e-05	6.2923e-06	797	329.98	5.062e-06	8.8937e-05	364.34	162.79	140.6	65.947	6.5101e-06	82.414	0.00081584	0.0010132	0.00023184	879.89	0.00032016	8.1129e-06	840.43	350.76	7.3044e-06	0.00020191	389.3	174.11	150.36	70.651	8.539e-06	94.491	-107.809	-86.403	-73.762	-160.230	-132.702	-23.246	-161.554	-155.957	-34.123	-2.759	-157.902	-153.668	-151.919	-147.548	-37.730	-149.734	-8191	255	
26085.871	1	1	0	0	0.20465	0.062962	0.067901	0.18077	0.2128	0.14817	0.081004	0.030372	0.068166	0.15947	0.072335	0.29738	0.036165	0.22675	0.18443	0.16894	-3.9417	-4.3271	-4.85	-4.3688	-4.4458	-4.5833	-4.2688	-4.7271	-4.4771	-4.2896	-4.9021	-4.2896	-4.5479	-4.9521	-4.0437	-4.8229	-16.433	-150.692	-85.712	-73.634	-138.516	-34.736	-117.690	-136.872	97.929	123.477	70.647	175.128	-16.198	169.883	-103.375	156.506	0.00076006	0.00062064	0.00020836	831.74	7.5268e-05	5.3792e-06	792.4	329.53	4.5299e-06	0.00012564	365.88	161.94	140	65.78	7.2857e-06	82.195	0.00080789	0.0008279	0.00025059	876.58	0.00023407	8.7357e-06	837.57	350.8	7.5277e-06	2.7761e-05	413.16	173.12	150.01	70.584	8.5562e-06	92.773	-106.999	-79.431	-81.655	-160.148	-122.783	-49.537	-161.582	-156.056	-27.038	3.594	-158.056	-153.555	-152.059	-147.460	-25.306	-150.114	-8191	255	
26085.969	1	1	0	0	0.1346	0.10734	0.1565	0.1053	0.1586	0.13162	0.22089	0.33733	0.1729	0.14594	0.1317	0.25824	0.24714	0.13908	0.15027	0.1678	-4.0104	-4.3417	-4.7646	-4.4479	-4.3479	-4.7167	-4.2812	-4.7833	-4.5333	-4.0188	-4.9271	-4.4521	-4.3875	-4.7833	-4.1042	-4.7562	38.330	64.860	163.695	162.993	84.315	60.246	159.175	161.278	-94.798	66.335	62.870	180.525	-152.388	159.913	-143.858	91.881	0.00074613	0.000556	0.00016769	831.37	0.00010125	5.4422e-06	796.97	330.05	5.2751e-06	5.6313e-06	368.3	162.05	139.66	65.798	5.0049e-06	82.011	0.00079729	0.00075222	0.0003107	878.23	0.00032117	9.074e-06	840.47	351.14	7.6541e-06	8.3661e-06	410.98	173.66	150.09	70.552	8.3323e-06	94.222	-107.042	-86.297	-74.510	-160.467	-119.701	-35.623	-161.502	-155.922	-26.041	-21.430	-157.348	-153.529	-151.832	-147.378	-42.440	-150.032	-8191	255	
26086.064	1	1	0	0	0.15717	0.29425	0.099167	0.10172	0.21034	0.14793	0.11191	0.10682	0.08069	0.051211	0.029329	0.088923	0.1404	0.11411	0.20542	0.19967	-4.1583	-4.1813	-4.5563	-4.4021	-4.3396	-4.5625	-4.1292	-4.5021	-4.4875	-4.0167	-4.8708	-4.3229	-4.5146	-4.7625	-4.2021	-4.8396	-62.109	-145.885	13.057	13.148	70.100	-56.235	137.559	8.569	-42.394	-152.113	144.363	134.658	184.404	128.060	90.769	68.366	0.00075758	0.00070181	0.00018253	836.21	8.8718e-06	9.0929e-05	796.33	329.47	4.5542e-06	6.3217e-06	367.01	162.2	139.68	65.519	5.8559e-06	82.23	0.00081988	0.00075644	0.00026606	881.04	0.00014984	7.2025e-05	844.16	350.49	8.2681e-06	8.0859e-06	420.25	173.32	149.66	70.345	8.2731e-06	92.811	-107.694	-89.946	-77.542	-160.519	-6.044	-129.033	-161.571	-155.925	-26.976	-12.987	-157.128	-153.762	-151.869	-147.434	-32.675	-150.090	-8191	255	
26086.158	1	1	0	0	0.11292	0.14256	0.16036	0.16554	0.2216	0.21042	0.067843	0.16603	0.12454	0.14232	0.089336	0.091315	0.036484	0.13824	0.1286	0.10277	-4.2	-4.1083	-4.6896	-4.3646	-4.1729	-4.7458	-4.3583	-4.6646	-4.5667	-4.1354	-4.8063	-4.575	-4.2646	-4.85	-4.1021	-4.5396	-133.363	185.659	24.228	-25.625	97.348	72.755	96.811	85.782	-6.914	139.883	-77.103	-155.143	-31.866	164.271	-129.491	136.568	0.0007701	0.00051303	0.00014282	835.62	2.0205e-05	0.00013328	801.78	329.74	4.5786e-06	6.0273e-06	366.16	162.67	139.73	66.08	5.2979e-06	82.315	0.00086542	0.00074298	0.00030103	882.03	9.5404e-06	0.000349	847.65	350.22	8.0773e-06	8.156e-06	411.07	173.82	149.59	70.626	8.1461e-06	94.722	-107.572	-74.236	-78.244	-160.454	-22.642	-128.130	-161.548	-155.812	-25.226	-15.173	-157.198	-153.689	-151.893	-147.443	-47.870	-150.202	-8191	255	
26086.254	1	1	0	0	0.074053	0.10987	0.015206	0.29488	0.012285	0.10972	0.32666	0.28201	0.068467	0.16711	0.35794	0.2139	0.20233	0.21515	0.11488	0.2611	-4.3125	-4.0146	-4.6042	-4.5229	-4.3229	-4.8146	-4.2438	-4.5271	-4.6625	-4.2125	-4.9062	-4.7208	-4.2208	-5	-4.4563	-4.6312	150.802	44.300	-89.914	142.891	-79.175	10.285	120.338	-165.924	3.827	117.805	96.437	131.509	43.507	-153.906	-0.435	101.559	0.00074048	0.00058947	0.00017838	834.99	4.5007e-06	9.6989e-05	801.7	329.06	4.6103e-06	6.7265e-06	364.46	161.51	139.51	65.633	6.7706e-06	82.064	0.00085218	0.00075929	0.0002716	882.13	7.3959e-06	0.00030371	847.18	349.77	8.2595e-06	8.0435e-06	419.12	172.89	149.12	70.255	7.8871e-06	90.699	-108.397	-81.937	-78.778	-160.299	-21.684	-115.618	-161.624	-155.856	-27.990	-37.865	-157.188	-153.732	-151.980	-147.496	-37.915	-149.844	-8191	255	
26086.352	1	1	0	0	0.12995	0.062143	0.019818	0.18751	0.25654	0.15563	0.19188	0.17608	0.18245	0.056205	0.11861	0.27746	0.3472	0.22298	0.2278	0.12789	-4.4062	-4.1146	-4.4646	-4.6646	-4.2146	-4.7458	-4.4292	-4.5625	-4.7354	-4.0813	-4.6292	-4.6521	-4.2396	-4.9146	-4.475	-4.6292	93.759	-172.723	123.469	-163.860	122.354	39.644	-144.369	-159.580	88.765	-118.627	148.801	-126.201	130.222	138.073	32.201	108.928	0.0011983	0.00066087	0.00018549	839.48	3.9478e-06	0.0001185	799.85	326.6	4.8355e-06	6.5181e-06	363.82	160.79	139.05	65.091	5.4289e-06	82.233	0.003418	0.00072072	0.00028386	883.27	7.3577e-06	0.00041183	844.55	347.81	9.2611e-06	7.6706e-06	408.09	172.32	148.73	70.002	8.1907e-06	88.113	-147.260	-88.861	-69.779	-160.456	-27.827	-113.214	-161.548	-155.662	-40.332	-22.119	-157.286	-153.665	-151.871	-147.511	-30.170	-150.121	-8191	255	
26086.471	1	1	0	0	0.049414	0.14592	0.30593	0.052301	0.063588	0.22209	0.12314	0.22819	0.064043	0.10769	0.13282	0.15319	0.044006	0.06437	0.12641	0.16162	-4.5042	-4.3063	-4.4688	-4.7167	-4.1896	-4.9021	-4.4979	-4.4875	-4.9	-4.25	-4.5604	-4.8708	-4.2229	-4.8833	-4.6354	-4.4708	132.040	115.659	-67.018	-10.567	-149.762	142.317	-33.581	87.741	139.093	18.181	-4.635	133.386	90.591	-24.996	156.974	68.045	0.0015538	0.00059693	0.0001691	833.41	4.9263e-06	9.1061e-05	802.89	327.15	4.2321e-06	5.3465e-06	363.79	161.14	139.5	65.394	5.7041e-06	82.444	0.012632	0.00071045	0.00025911	879.33	7.3507e-06	0.00030068	844.64	347.73	1.0915e-05	8.0544e-06	418.24	172.42	149.04	70.167	8.1882e-06	88.362	-152.391	-91.999	-61.908	-160.279	-25.774	-102.032	-161.292	-155.874	-29.055	-15.936	-156.921	-153.580	-151.756	-147.370	-40.214	-150.022	-8191	255	
26086.566	1	1	0	0	0.079642	0.054722	0.07376	0.096794	0.062886	0.10019	0.17883	0.099205	0.12603	0.069203	0.059748	0.12901	0.20216	0.11748	0.15094	0.17554	-4.3583	-4.3333	-4.3833	-4.7562	-4.2771	-4.6813	-4.6813	-4.3958	-4.5875	-4.3833	-4.2875	-4.7979	-4.1937	-4.6312	-4.6312	-4.2646	-68.138	51.975	-120.353	31.358	-17.705	-26.939	101.888	125.611	31.131	132.977	-93.110	-44.309	41.348	-155.374	-41.076	62.153	0.00085525	0.0005092	0.00016408	832.74	4.5754e-06	0.00012477	803.35	328.71	4.7467e-06	6.0936e-06	363.08	161.95	140.31	65.761	6.7029e-06	82.637	0.010367	0.00072555	0.00027524	880.66	7.0709e-06	0.00041371	847.12	348.97	9.7759e-06	8.1303e-06	398.32	176.54	149.56	70.396	9.0872e-06	88.679	183.271	-90.113	-75.012	-160.303	-4.423	-96.975	-161.557	-155.861	-30.390	-17.536	-157.142	-153.805	-151.968	-147.537	-29.822	-150.267	-8191	255	
26086.664	1	1	0	0	0.090231	0.095014	0.078063	0.16811	0.10117	0.19014	0.1649	0.33914	0.32971	0.084983	0.082295	0.10752	0.34754	0.30623	0.18671	0.13547	-4.4833	-4.3917	-4.3438	-4.9125	-4.1021	-4.4563	-4.775	-4.1687	-4.9417	-4.3667	-4.3917	-4.7833	-4.2896	-4.5646	-4.5979	-4.2438	-115.666	182.595	121.091	176.842	121.398	93.751	76.820	137.088	-48.905	-59.554	119.682	155.491	109.174	130.308	-166.290	135.618	0.0011999	0.0005912	0.00016135	836.58	5.3193e-06	9.9644e-05	803.86	327.98	4.0285e-06	6.8962e-06	364.94	163.21	140.21	65.743	5.0012e-06	83.579	0.014078	0.00072391	0.0002188	883.31	7.1107e-06	0.00030183	849.84	349.42	1.0946e-05	7.6893e-06	385.73	188.11	150	70.65	8.5725e-06	89.323	179.001	-70.502	-72.091	-160.270	-27.122	-91.846	-161.420	-155.628	-47.074	-32.074	-157.850	-153.866	-152.038	-147.610	-33.908	-150.033	-8191	255	
26086.760	1	1	0	0	0.11523	0.14994	0.21771	0.1608	0.10861	0.17913	0.27477	0.098686	0.16636	0.077395	0.31821	0.11909	0.16986	0.14519	0.17819	0.20773	-4.25	-4.4854	-4.1	-4.8021	-4.1146	-4.6458	-4.7312	-4.1896	-4.6583	-4.4563	-4.3375	-4.8729	-4.2833	-4.7104	-4.7625	-4.4146	-84.471	66.576	104.523	93.336	-62.171	-84.913	89.164	137.247	-16.605	-4.913	179.136	96.277	-118.240	-133.023	-118.851	157.756	0.0010522	0.00059348	0.00016589	837.05	4.2003e-06	0.00013604	802.75	329.81	4.5686e-06	5.9128e-06	362.76	162.75	139.56	65.848	6.5966e-06	82.814	0.010446	0.00072029	0.00020471	884.06	6.8792e-06	0.00041335	849.49	350.06	9.9286e-06	7.8442e-06	385.19	184.5	149.69	70.533	9.2502e-06	88.692	-162.352	-87.864	-86.597	-160.400	-16.520	-84.432	-161.510	-155.820	-42.694	-32.821	-157.725	-152.877	-151.944	-147.468	-45.776	-150.176	-8191	255	
26086.855	1	1	0	0	0.24063	0.14932	0.16783	0.081153	0.082955	0.15052	0.11427	0.20457	0.12142	0.15249	0.25438	0.12673	0.20952	0.10833	0.22872	0.21152	-4.2917	-4.5625	-4.1729	-4.8771	-4.3958	-4.4083	-4.8583	-4.4042	-4.5375	-4.7042	-4.3396	-4.8771	-4.5125	-4.6229	-4.7937	-4.3458	149.536	84.145	-159.272	175.003	28.568	86.733	-112.426	151.181	21.342	112.615	114.228	150.907	124.724	-65.121	-160.858	85.706	0.001329	0.00055688	0.0001244	833.59	4.0146e-06	5.445e-05	805.51	328.3	4.2999e-06	3.6901e-06	362.58	162.96	139.96	65.62	5.5916e-06	82.517	0.014007	0.00074971	0.00020867	880.77	7.0678e-06	0.00015305	862.27	348.79	1.0278e-05	8.7312e-06	384.18	188.47	149.79	70.305	9.8593e-06	88.428	-169.639	-97.428	-84.601	-160.378	-33.125	-24.144	-161.671	-155.696	-33.048	-25.957	-157.757	-152.847	-152.140	-147.379	-47.650	-150.006	-8191	255	
26086.951	1	1	0	0	0.12723	0.17608	0.28565	0.17877	0.078374	0.17276	0.24515	0.33536	0.075073	0.24185	0.122	0.3451	0.058704	0.14648	0.21746	0.22149	-4.1562	-4.5271	-4.2875	-4.8021	-4.3833	-4.1771	-4.8917	-4.5083	-4.325	-4.6458	-4.3208	-4.8667	-4.6854	-4.3542	-4.7646	-4.4104	-164.612	-81.725	-39.899	-107.144	76.313	-2.407	52.123	-164.617	111.271	-11.502	170.654	132.109	46.533	-154.600	-171.050	149.720	0.0010926	0.00056313	0.00016497	833.63	4.9499e-06	5.4892e-06	809.7	328.23	4.0353e-06	6.4519e-06	363.08	163	140.26	65.745	7.1703e-06	83.045	0.01035	0.0007819	0.00020117	878.95	7.0756e-06	8.4143e-06	913.44	348.75	9.403e-06	8.8831e-06	385.25	185.17	150.08	70.492	1.2343e-05	88.991	-155.553	-83.881	-70.503	-160.247	-28.038	-22.451	-162.046	-155.999	-52.850	-28.601	-157.831	-153.171	-151.884	-147.449	-29.963	-150.036	-8191	255	
26087.072	1	1	0	0	0.1252	0.08222	0.22978	0.27659	0.33715	0.11597	0.090466	0.16477	0.18024	0.23378	0.095066	0.10523	0.16205	0.046141	0.070995	0.22121	-4.1042	-4.6813	-4.2438	-4.7312	-4.5583	-4.2229	-5.0333	-4.4792	-4.3354	-4.7188	-4.2417	-4.7354	-4.6396	-4.3875	-4.7229	-4.4396	-6.454	-68.695	111.185	153.374	-122.403	69.468	79.952	-146.446	94.267	127.376	60.169	-132.634	-101.028	71.749	61.762	167.733	0.001402	0.00053726	0.00019248	828.39	5.4494e-06	6.248e-06	812.71	329.8	4.4685e-06	6.1636e-06	364.75	164.79	141.04	66.096	7.0196e-06	83.761	0.01404	0.00078673	0.00020177	877.08	6.8909e-06	8.0432e-06	897.53	350.38	9.5906e-06	8.9117e-06	387.26	190.74	150.89	70.974	1.0667e-05	89.727	-163.124	-88.841	-83.700	-160.233	-19.382	-33.316	-161.238	-155.861	-35.404	-42.378	-157.637	-152.914	-151.886	-147.508	-28.378	-149.950	-8191	255	
26087.168	1	1	0	0	0.14387	0.25922	0.061942	0.13219	0.10039	0.039002	0.090345	0.26162	0.035663	0.047606	0.16018	0.044989	0.16769	0.2921	0.16951	0.37379	-3.9667	-4.6562	-4.0938	-4.6562	-4.6167	-4.2063	-4.7521	-4.5354	-4.2958	-4.8854	-4.3021	-4.5875	-4.7833	-4.2875	-4.6167	-4.6042	84.294	-99.497	-77.346	16.187	-170.312	88.037	143.106	56.938	71.780	-9.822	157.420	182.015	123.698	113.112	53.027	149.643	0.00040888	0.0088687	0.00017779	831.2	4.5341e-06	5.8163e-06	816.41	331.24	3.7947e-06	5.0798e-06	367.75	165.15	142.25	66.726	7.1621e-06	84.612	0.0051704	0.01084	0.00019422	879.02	7.9398e-06	8.081e-06	919.9	352.24	7.9828e-06	1.0414e-05	390.14	187.78	152.19	71.539	1.1753e-05	90.558	-126.152	147.806	-83.566	-160.040	-25.193	-23.438	-161.159	-155.885	-23.729	-37.259	-157.801	-153.116	-151.877	-147.313	-28.541	-149.910	-8191	255	
26087.264	1	1	0	0	0.13903	0.1322	0.055705	0.12976	0.11667	0.15986	0.16323	0.12198	0.17773	0.11533	0.17303	0.12987	0.29102	0.24085	0.16173	0.27377	-3.8458	-4.7354	-4.3542	-4.6458	-4.7646	-4.2958	-4.5375	-4.5604	-4.175	-4.8438	-4.3333	-4.5854	-4.7562	-4.1833	-4.5687	-4.7833	167.469	-73.959	36.357	90.513	-89.789	16.914	108.545	97.208	-166.148	-119.184	-167.243	37.529	135.285	185.353	-23.670	142.114	0.00078279	0.010192	0.00017012	833.83	4.0081e-06	5.8715e-06	815.4	332.77	5.3763e-06	5.5651e-06	367.79	165.1	141.57	66.599	6.5689e-06	84.294	0.00084531	0.036197	0.00020272	881.34	7.8307e-06	7.9378e-06	902.84	353.66	7.8424e-06	1.1892e-05	391.45	191.93	151.97	71.473	1.0672e-05	90.481	-107.002	128.210	-82.935	-160.348	-12.293	-27.498	-160.860	-155.808	-31.818	-39.699	-157.817	-153.010	-152.194	-147.441	-20.418	-150.146	-8191	255	
26087.336	1	1	0	0	0.14968	0.14637	0.11905	0.28053	0.27542	0.15934	0.17276	0.18653	0.25816	0.13782	0.24158	0.11379	0.1489	0.10824	0.10418	0.065901	-3.6813	-4.6937	-4.2292	-4.3938	-4.7521	-4.2438	-4.725	-4.9062	-4.2271	-4.6229	-4.4812	-4.4083	-4.9187	-4.3542	-4.55	-4.6458	156.505	-88.257	31.401	135.134	127.906	-101.056	103.528	108.352	-86.676	-109.292	124.320	-93.884	169.701	176.656	24.190	126.825	0.00075663	0.0086116	0.00017876	833.87	3.6998e-06	7.3886e-06	815.94	332.27	4.9284e-06	5.4676e-06	368.48	164.75	140.82	66.447	6.7233e-06	84.1	0.00082536	0.026566	0.00020423	879.72	7.8821e-06	7.6721e-06	919.22	353.21	7.6091e-06	1.0644e-05	390.02	180.87	156.82	71.207	1.115e-05	90.028	-105.702	132.291	-84.277	-160.299	-32.823	-33.135	-161.365	-155.835	-22.077	-42.041	-157.784	-152.962	-152.098	-147.469	-29.045	-150.136	-8191	255	
26087.455	1	1	0	0	0.056074	0.028405	0.083675	0.062036	0.083194	0.20558	0.18674	0.056813	0.12267	0.17236	0.16649	0.12581	0.29785	0.15484	0.23603	0.20262	-3.775	-4.7021	-4.3958	-4.3854	-4.7562	-4.1708	-4.5625	-4.7688	-4.1188	-4.725	-4.6687	-4.1396	-4.8833	-4.3729	-4.3917	-4.95	140.713	-108.097	-160.364	-173.309	156.805	-170.304	175.435	177.988	-65.070	164.449	-150.179	72.131	166.955	11.677	-168.196	133.327	0.00074662	0.011535	0.00015733	827.98	4.2529e-06	4.7684e-06	810.66	332.8	5.3764e-06	5.6941e-06	369.95	165.3	141.15	66.089	5.8519e-06	84.293	0.00081894	0.036384	0.00020743	875.44	8.7362e-06	7.3298e-06	897.54	353.17	7.2292e-06	1.2075e-05	391.55	176.97	168.21	71.178	1.0619e-05	90.28	-108.209	139.856	-93.598	-160.320	-17.853	-20.996	-161.076	-155.960	-31.738	-43.781	-158.020	-153.583	-151.189	-147.532	-25.526	-150.187	-8191	255	
26087.553	1	1	0	0	0.12895	0.045932	0.0064853	0.059462	0.081926	0.058241	0.08541	0.20988	0.11038	0.15825	0.21748	0.11611	0.073228	0.23347	0.21059	0.28332	-3.8292	-4.6562	-4.3854	-4.3646	-4.7396	-4.25	-4.4958	-4.9042	-4.1625	-4.6	-4.5583	-4.1854	-4.7854	-4.4875	-4.25	-4.8896	96.850	78.888	-70.877	176.793	88.550	-92.082	43.022	62.830	11.262	183.290	113.941	44.882	100.504	176.383	182.759	135.290	0.0007707	0.0075561	0.00019288	828.26	4.7871e-06	6.6224e-06	808.47	333	5.4323e-06	6.3001e-06	369.19	166.67	141.71	66.588	6.5518e-06	84.555	0.00080939	0.026696	0.00020206	874.85	1.0255e-05	8.1875e-06	917.07	353.94	7.5773e-06	1.0889e-05	392.81	177.76	163.9	71.416	1.0329e-05	90.7	-107.330	150.010	-82.961	-160.382	-3.507	-34.445	-160.609	-155.886	-22.860	-41.734	-158.159	-153.578	-151.491	-147.583	-28.220	-150.114	-8191	255	
26087.648	1	1	0	0	0.054459	0.41471	0.11027	0.031936	0.10576	0.054247	0.12849	0.010581	0.1243	0.045113	0.17314	0.28114	0.10892	0.29306	0.20206	0.29277	-3.8688	-4.5958	-4.4146	-4.1125	-4.7917	-4.3875	-4.3958	-5.0188	-3.9437	-4.5792	-4.6	-4.3208	-4.8042	-4.4563	-4.3313	-5.0458	-60.651	63.897	140.509	-160.869	-42.807	153.264	73.745	88.822	136.147	-98.553	175.772	116.865	161.053	139.797	69.176	115.341	0.00075501	0.011536	0.00017011	831.57	4.5064e-06	4.559e-06	804.5	336.09	5.3492e-06	4.3424e-06	371.6	166.75	141.55	66.837	6.9217e-06	85.193	0.0008146	0.0365	0.00023507	876.68	9.4282e-06	8.3228e-06	866.66	363.7	7.8572e-06	1.214e-05	395.99	178.84	169.11	71.767	9.0374e-06	91.307	-107.016	148.647	-82.197	-160.405	-1.523	-24.505	-160.925	-156.141	-26.953	-37.645	-157.810	-153.526	-151.158	-147.601	-38.592	-150.196	-8191	255	
26087.744	1	1	0	0	0.15878	0.10566	0.10777	0.12924	0.14577	0.24232	0.17457	0.13068	0.16217	0.096669	0.18428	0.089981	0.083425	0.24164	0.18561	0.2316	-3.9021	-4.5458	-4.5604	-4.3271	-4.7167	-4.5938	-4.4125	-4.9875	-4.2167	-4.4458	-4.8562	-4.1937	-4.6208	-4.5646	-4.1937	-4.7625	114.924	-151.699	-162.835	-168.770	-84.641	-107.852	84.763	154.089	-71.422	177.661	137.246	178.520	71.339	132.496	-23.361	185.362	0.00077218	0.0085748	0.00018809	834.45	2.5171e-06	5.2174e-06	808.03	339.15	5.799e-06	5.5738e-06	375.51	167.47	141.44	66.729	4.3459e-06	85.061	0.0008531	0.026792	0.00024022	879.79	1.1058e-05	8.7158e-06	852.37	380.72	8.3285e-06	1.1648e-05	398.27	179.41	164.91	71.695	9.0563e-06	91.278	-106.511	161.584	-83.887	-160.531	-21.836	-32.923	-161.562	-155.681	-31.709	-12.798	-157.969	-153.742	-151.325	-147.548	-28.202	-150.056	-8191	255	
26087.865	1	1	0	0	0.10982	0.14066	0.11293	0.098882	0.21902	0.021439	0.17612	0.25589	0.12528	0.17691	0.14231	0.065989	0.0476	0.36141	0.20572	0.1368	-4.0062	-4.3542	-4.6792	-4.2375	-4.7021	-4.475	-4.1687	-4.8688	-4.4208	-4.2354	-4.7937	-4.3708	-4.5188	-4.7833	-4.0354	-4.9146	-161.031	-77.894	-36.598	83.329	-61.835	6.936	19.964	171.265	-96.233	99.568	137.386	111.442	157.423	160.158	-156.907	-77.958	0.00075816	0.0011361	0.00020595	829.9	4.4922e-06	6.5816e-06	800.06	336.45	5.0697e-06	6.5001e-06	373.37	166.39	140.79	66.803	5.6867e-06	84.665	0.00086767	0.034326	0.00025365	876.21	1.0385e-05	9.4242e-06	847.59	373.11	8.5471e-06	1.1354e-05	396.68	178.57	169.17	71.668	9.0366e-06	90.804	-105.651	-49.612	-92.394	-160.429	-19.485	-19.602	-161.505	-155.575	-28.866	-23.838	-157.948	-153.597	-151.452	-147.622	-39.102	-150.246	-8191	255	
26087.936	1	1	0	0	0.16568	0.29246	0.21934	0.022817	0.18824	0.16701	0.18672	0.21519	0.15172	0.065109	0.12984	0.03209	0.18735	0.32812	0.19702	0.076578	-3.9271	-4.3604	-4.9354	-4.2583	-4.4042	-4.7792	-4.2583	-4.7937	-4.4833	-4.2104	-4.8854	-4.2958	-4.5292	-4.8771	-4.1937	-4.7271	-32.370	185.002	34.331	-167.461	67.387	-133.896	126.211	130.255	-131.582	-19.441	82.301	183.398	142.797	153.804	-95.470	152.555	0.00077018	0.0012215	0.0024747	825.31	5.4833e-06	4.3117e-06	796.13	335.69	5.0741e-06	7.9781e-06	372.19	166.76	140.9	66.647	6.0227e-06	84.69	0.00086613	0.0089142	0.0040799	873.75	1.0874e-05	9.8043e-06	844.22	378.75	8.6278e-06	9.2373e-06	395.86	178.94	164.58	71.646	9.3042e-06	90.92	-107.348	-60.252	175.179	-160.416	-11.794	-5.123	-161.488	-155.543	-28.369	-12.951	-157.826	-153.905	-151.751	-147.755	-32.938	-149.964	-8191	255	
26088.031	1	1	0	0	0.20808	0.075065	0.13544	0.15621	0.095651	0.22977	0.14306	0.12663	0.17139	0.016163	0.079846	0.12517	0.14859	0.39258	0.089892	0.2097	-4.025	-4.1583	-4.6167	-4.4021	-4.4062	-4.6438	-4.3063	-4.6896	-4.5771	-4.1875	-4.8958	-4.5396	-4.5938	-5	-4.1708	-4.7354	77.620	183.392	-148.426	62.017	144.672	49.889	-168.418	158.100	44.251	55.978	101.054	185.075	99.436	164.358	-153.856	129.707	0.00076301	0.00059498	0.0029333	828.75	4.0634e-06	6.143e-06	801.31	336.48	4.6636e-06	4.7449e-06	372.66	166.48	142.28	66.872	6.2235e-06	85.156	0.00085632	0.00083885	0.010174	875.02	1.0287e-05	9.864e-06	846.71	372.9	8.3564e-06	9.408e-06	396.79	178.91	167.56	71.81	9.2699e-06	91.344	-107.577	-83.711	-172.099	-160.466	-16.497	-18.268	-161.542	-155.625	-40.868	-21.025	-157.882	-153.495	-151.102	-147.466	-45.994	-150.215	-8191	255	
26088.152	1	1	0	0	0.14389	0.077915	0.13568	0.065218	0.29438	0.11977	0.27674	0.097313	0.075212	0.21183	0.21044	0.24955	0.2213	0.24575	0.17611	0.20286	-4.3583	-4.0854	-4.8083	-4.4938	-4.3396	-4.7	-4.3438	-4.7604	-4.5687	-4.2063	-4.9021	-4.5521	-4.4688	-4.9313	-4.2896	-4.7167	-2.907	13.988	85.039	-138.600	-127.088	-87.047	144.128	-18.546	-45.838	-83.351	89.589	129.469	122.101	-155.091	139.253	-153.832	0.00078572	0.00075102	0.0022162	829.73	5.8485e-06	5.5959e-06	800.01	335.86	3.999e-06	6.6602e-06	374.03	167.71	141.66	66.504	4.8042e-06	85.477	0.00088237	0.00083765	0.0074215	876.67	1.0014e-05	1.1041e-05	847.6	378.85	9.4666e-06	9.3843e-06	397.76	179.98	156.46	73.56	9.6045e-06	91.688	-106.423	-96.116	-163.717	-160.448	-15.877	-44.054	-161.400	-155.408	-24.440	-29.769	-157.898	-153.738	-151.478	-147.888	-19.904	-150.088	-8191	255	
26088.246	1	1	0	0	0.1464	0.21784	0.12257	0.11582	0.41201	0.30511	0.093613	0.2529	0.050767	0.1955	0.049422	0.041862	0.13221	0.17917	0.1272	0.054551	-4.3938	-4.2375	-4.7167	-4.5292	-4.1875	-4.6771	-4.4021	-4.65	-4.7167	-4.0583	-4.7375	-4.7417	-4.3354	-4.8833	-4.0917	-4.6438	93.799	7.142	41.978	101.967	-99.986	-150.670	-163.956	108.482	105.350	40.009	61.888	153.591	106.018	179.652	79.098	147.177	0.00077175	0.00058924	0.0031225	828.96	4.8906e-06	6.9979e-06	801.54	335.76	4.7488e-06	6.5626e-06	375.78	168.44	142.63	66.604	5.4819e-06	85.474	0.00090515	0.00085654	0.010227	876.44	8.4237e-06	1.2478e-05	849.01	373.42	9.3301e-06	9.4741e-06	399.04	180.36	153.22	76.129	9.7615e-06	91.774	-108.568	-90.362	-160.480	-160.531	-13.198	-38.680	-161.351	-155.735	-24.599	-6.285	-158.073	-153.674	-152.195	-147.494	-32.749	-150.183	-8191	255	
26088.344	1	1	0	0	0.10986	0.065625	0.1172	0.26103	0.19718	0.27649	0.37173	0.19918	0.20236	0.36353	0.45239	0.054982	0.22425	0.11482	0.15307	0.20211	-4.5333	-4.2271	-4.6583	-4.5813	-4.2562	-4.8229	-4.4417	-4.4792	-4.6625	-4.0854	-4.7583	-4.6167	-4.15	-4.9146	-4.2937	-4.5708	-125.275	0.667	-62.614	115.840	-170.985	-9.792	115.993	151.958	6.062	60.223	157.201	-130.273	-42.564	-169.608	119.665	177.851	0.00076692	0.00049101	0.0022486	828.76	5.5645e-06	5.5099e-06	800.52	335.8	1.1312e-05	7.0754e-06	372.8	167.02	142.84	66.369	5.8483e-06	84.25	0.00090456	0.00085775	0.0074976	875.77	8.5289e-06	1.4094e-05	847.29	375.95	1.0995e-05	9.6329e-06	396.58	178.78	152.82	74.509	9.8224e-06	90.642	-105.934	-83.932	-156.280	-160.410	-7.996	-11.291	-161.350	-155.230	-46.421	-29.837	-158.019	-153.849	-152.198	-147.586	-28.179	-150.178	-8191	255	
26088.465	1	1	0	0	0.080366	0.031663	0.050141	0.064624	0.11223	0.09377	0.22761	0.14507	0.12835	0.11851	0.10606	0.26652	0.19423	0.174	0.15801	0.056458	-4.3167	-4.2146	-4.6375	-4.7583	-3.9792	-4.6687	-4.6646	-4.3042	-4.7562	-4.1146	-4.6604	-4.7875	-4.2021	-4.975	-4.3063	-4.4792	-40.064	-14.026	82.556	167.982	-83.937	35.957	76.677	27.153	-82.595	-141.028	90.074	164.564	154.563	128.125	149.166	62.258	0.00075256	0.00057309	0.0033774	823.17	4.4506e-06	3.1986e-06	800.67	332.74	3.6029e-06	4.9075e-06	372.84	166.15	142.25	65.891	6.3128e-06	84.37	0.00092611	0.00087285	0.010125	870.98	8.4003e-06	1.2568e-05	843.77	357.77	0.00015081	9.8184e-06	395.24	178.01	152.35	75.299	9.8567e-06	90.39	-107.429	-79.588	-148.693	-160.183	-31.612	-39.095	-161.497	-155.348	-98.207	-18.659	-157.822	-153.779	-151.992	-147.676	-36.444	-150.142	-8191	255	
26088.561	1	1	0	0	0.2304	0.18016	0.19339	0.089951	0.099092	0.02636	0.055335	0.28323	0.19679	0.046648	0.10404	0.082324	0.17628	0.092734	0.11925	0.071996	-4.3208	-4.2104	-4.3313	-4.6292	-4.0729	-4.5146	-4.5292	-4.2104	-4.6417	-4.2979	-4.6271	-4.6896	-4.1583	-4.6667	-4.5687	-4.3917	-65.686	-56.941	145.762	96.892	-166.338	127.368	60.486	158.683	74.946	73.027	-6.031	177.367	-154.779	-37.568	-54.220	-138.104	0.00076169	0.00061612	0.0022864	823.42	5.3574e-06	4.0195e-06	796.11	332.92	8.3094e-05	7.3075e-06	371.71	166.44	141.81	65.699	7.0007e-06	84.31	0.00097738	0.00089589	0.0074441	870.65	8.4564e-06	1.424e-05	843.95	354.28	0.00032438	9.8263e-06	395.8	178.33	152.25	74.192	1.002e-05	90.648	-108.102	-72.460	-143.297	-160.356	-30.047	-33.433	-161.498	-155.851	51.569	-24.653	-157.808	-153.768	-152.212	-147.603	-43.671	-150.181	-8191	255	
26088.633	1	1	0	0	0.088206	0.25161	0.037722	0.067312	0.11816	0.123	0.030522	0.0076098	0.1771	0.23859	0.024926	0.12262	0.23019	0.23776	0.1152	0.18368	-4.5333	-4.1771	-4.25	-4.9375	-4.1417	-4.6687	-4.6542	-4.2083	-4.6854	-4.3083	-4.3917	-4.7646	-4.2688	-4.7333	-4.5167	-4.3771	-172.639	-95.987	-102.740	132.272	154.120	-133.369	61.375	171.793	-140.518	76.327	-0.756	138.013	137.761	-170.704	96.869	128.105	0.00076012	0.00064684	0.0013679	830.12	4.2918e-06	5.605e-06	799.52	332.16	6.0883e-05	5.7761e-06	372.3	166.53	141.73	65.861	6.8969e-06	84.553	0.0010179	0.0009059	0.0082405	875.65	8.811e-06	1.2476e-05	845.68	354.42	0.00023835	1.0155e-05	396.61	178.74	152.28	75.49	1.0342e-05	90.902	-107.254	-84.782	-88.575	-160.957	-11.589	-35.535	-161.570	-155.863	52.288	-25.652	-157.837	-153.748	-151.850	-147.881	-45.534	-150.178	-8191	255	
26088.754	1	1	0	0	0.19738	0.14723	0.055279	0.11837	0.097011	0.17691	0.21638	0.19253	0.065985	0.23605	0.20801	0.070517	0.12447	0.1175	0.060051	0.32235	-4.3	-4.5354	-4.3792	-4.8854	-4.2479	-4.5333	-4.875	-4.3396	-4.65	-4.5188	-4.2604	-4.8167	-4.2042	-4.4708	-4.5479	-4.2271	165.771	-131.065	-87.944	113.916	-90.501	-25.709	84.655	102.353	89.554	-84.580	130.313	-148.482	98.623	-120.901	162.782	165.975	0.00075426	0.00061168	0.0013647	831.59	3.7975e-06	5.7958e-06	800	333.11	8.3118e-05	7.5187e-06	372.63	167.47	141.96	65.936	6.7682e-06	84.906	0.00097927	0.00091859	0.001572	905.47	8.479e-06	1.3977e-05	846.83	354.73	0.00032528	9.9654e-06	396.74	179.11	152.27	74.413	1.0438e-05	91.126	-107.068	-89.858	-81.086	-160.779	-18.472	-21.492	-161.420	-155.910	63.466	-21.648	-157.886	-153.880	-152.056	-147.857	-31.307	-150.124	-8191	255	
26088.850	1	1	0	0	0.088601	0.12011	0.080876	0.098415	0.03661	0.27414	0.31089	0.33305	0.22792	0.11604	0.21817	0.08991	0.058714	0.22932	0.27182	0.42152	-4.4958	-4.4729	-4.1292	-4.875	-4.2896	-4.3729	-4.9271	-4.2708	-4.5458	-4.4854	-4.3104	-4.8438	-4.3938	-4.4313	-4.5875	-4.2771	71.253	-27.233	-147.085	174.672	155.749	13.624	155.267	139.043	-77.299	-56.844	178.638	-149.462	-33.976	123.463	35.329	139.894	0.00074515	0.00068823	0.00016834	835.93	4.2954e-06	6.5102e-06	800.47	330.64	5.8171e-05	6.6776e-06	370.03	165.84	141.31	65.654	0.00011836	83.535	0.0010375	0.00090996	0.00023895	939.47	8.8102e-06	1.2741e-05	846.1	353.08	0.00023934	9.8539e-06	393.74	177.89	151.32	73.904	4.1808e-05	90.136	-107.985	-92.854	-86.578	-160.581	-5.304	-48.002	-161.468	-155.822	67.701	-18.741	-157.985	-153.819	-152.207	-147.494	-145.671	-150.144	-8191	255	
26088.945	1	1	0	0	0.10081	0.1379	0.22582	0.05003	0.18065	0.17913	0.12162	0.10281	0.095471	0.22581	0.25428	0.1906	0.098543	0.40896	0.31483	0.13836	-4.1687	-4.6417	-3.9667	-4.8875	-4.4563	-4.3917	-5.1021	-4.4729	-4.6375	-4.6292	-4.25	-4.7729	-4.5062	-4.3521	-4.8542	-4.2333	71.399	181.756	183.704	-118.794	-168.690	-75.002	119.477	-130.318	137.179	162.118	93.864	-147.986	122.088	145.623	148.718	116.999	0.00077384	0.00061432	0.00015666	826.88	4.8634e-06	4.6894e-06	795.14	328.28	8.022e-05	6.32e-06	368.67	164.5	140.5	65.461	8.8011e-05	83.516	0.00098383	0.00089494	0.00024321	916.57	8.599e-06	1.1341e-05	839.95	350.68	0.00032546	1.0223e-05	392.13	176.73	150.41	70.972	0.00019122	89.658	-106.264	-90.908	-82.251	-160.471	-21.661	0.169	-161.361	-155.666	82.713	-29.541	-157.949	-153.496	-152.126	-147.421	-140.113	-150.221	-8191	255	
26089.041	1	1	0	0	0.21187	0.18167	0.082484	0.2139	0.18896	0.11858	0.16069	0.31157	0.15195	0.11792	0.2153	0.22234	0.127	0.049443	0.096718	0.15285	-4.0938	-4.6875	-4.0333	-4.8167	-4.4521	-4.3167	-4.5146	-4.3479	-4.1937	-4.7458	-4.4333	-4.8354	-4.5479	-4.275	-4.5875	-4.5625	47.434	124.834	90.518	119.665	-119.568	-130.017	94.611	99.058	-33.127	156.256	126.604	27.736	114.390	135.851	-47.455	40.443	0.00072616	0.00065051	0.0001405	829.92	4.2396e-06	5.2906e-06	793.17	328.33	5.1663e-05	6.5002e-06	368.62	164.73	140.03	65.411	0.00011119	83.597	0.00098918	0.00096484	0.00023864	934.82	8.5757e-06	9.7386e-06	840.66	350.43	0.00024059	1.0239e-05	391.63	177.01	150.32	70.36	0.00036181	89.653	-107.007	-80.230	-89.249	-160.570	-18.163	-22.463	-161.334	-155.892	79.645	-22.826	-157.745	-153.487	-151.843	-147.674	-158.821	-150.079	-8191	255	
26089.160	1	1	0	0	0.1168	0.069937	0.066191	0.033424	0.2264	0.13185	0.15574	0.13625	0.10923	0.25729	0.078081	0.061323	0.11022	0.20973	0.2057	0.088927	-4.0833	-4.7937	-4.1042	-4.6458	-4.5042	-4.125	-4.9146	-4.5062	-4.3771	-4.7625	-4.2333	-4.675	-4.6542	-4.3104	-4.6042	-4.4688	49.910	37.847	-117.110	-38.353	184.527	104.039	6.452	128.023	-68.036	183.243	-141.401	-160.539	-75.751	63.320	-96.565	24.245	0.00073267	0.0005403	0.00015882	825.53	4.4912e-06	6.691e-06	794.8	329.27	8.5761e-05	6.261e-05	369.64	165.21	140.07	65.42	7.4955e-05	83.958	0.00095583	0.0009374	0.00024738	916.18	8.8165e-06	1.0008e-05	842.98	350.83	0.00023819	6.4003e-05	393.22	177.19	150.48	70.362	0.00026594	90.013	-106.522	-87.470	-80.605	-160.337	-10.262	-17.256	-161.522	-155.989	60.355	158.604	-157.784	-153.486	-151.684	-147.553	-148.291	-150.141	-8191	255	
26089.232	1	1	0	0	0.05045	0.15017	0.11012	0.16255	0.059527	0.15572	0.14207	0.20416	0.028488	0.231	0.077656	0.050276	0.30304	0.28138	0.088553	0.11344	-4.0333	-4.8938	-4.1687	-4.6604	-4.7688	-4.1167	-4.8708	-4.6875	-4.2375	-4.6333	-4.4333	-4.7	-4.7312	-4.2896	-4.6229	-4.6125	-90.565	10.700	-51.677	-122.764	131.153	159.670	-155.918	63.204	-104.937	-64.876	-144.065	-170.672	53.167	111.878	-118.116	166.509	0.00074851	0.00052447	0.00012909	830.65	4.9612e-06	6.3906e-06	799.18	329.6	6.5293e-05	4.5518e-05	370.63	166.17	140.79	65.255	0.00010294	84.403	0.00092353	0.0010768	0.00025938	936.27	9.1063e-06	9.8063e-06	845.68	351.14	3.0419e-05	0.00023202	394.94	178.28	151.02	70.461	0.00036246	90.415	-106.407	-96.943	-86.089	-160.320	-20.413	-30.429	-161.381	-155.977	64.263	167.796	-157.918	-153.650	-152.050	-147.550	-148.417	-150.157	-8191	255	
26089.328	1	1	0	0	0.081493	0.041673	0.11929	0.22369	0.067883	0.28569	0.080722	0.075483	0.0845	0.27231	0.27162	0.19339	0.1478	0.19136	0.10569	0.20611	-3.6646	-4.6583	-4.3771	-4.6167	-4.8771	-4.1062	-4.7875	-4.65	-4.1583	-4.8833	-4.55	-4.4333	-4.8917	-4.4062	-4.5875	-4.7042	-75.852	-146.729	157.977	110.840	166.522	162.785	-160.664	181.687	-21.005	-161.346	136.786	-163.921	158.813	113.536	1.572	169.906	0.00076191	0.00051907	0.0001909	829.57	5.1965e-06	6.963e-06	794.34	329.24	5.9859e-06	0.00012306	370.94	165.08	140.38	65.278	7.9508e-05	83.431	0.00087797	0.001126	0.00025943	917.63	8.5242e-06	9.7774e-06	842.89	350.5	9.0836e-06	0.000416	393.99	177.48	150.73	70.289	0.00026301	89.708	-106.982	-96.272	-74.969	-160.254	-6.779	-30.788	-161.561	-155.882	-18.175	89.184	-157.896	-153.747	-152.172	-147.755	-139.866	-150.280	-8191	255	
26089.424	1	1	0	0	0.026564	0.20825	0.33782	0.19545	0.14462	0.16449	0.098437	0.095222	0.17569	0.17096	0.085414	0.21647	0.19171	0.21237	0.10467	0.050216	-3.8583	-4.6708	-4.3187	-4.3521	-4.8271	-4.1958	-4.725	-4.8583	-4.0625	-4.6604	-4.5896	-4.1375	-4.9229	-4.4604	-4.3979	-4.7167	-42.719	182.588	77.802	130.590	34.521	76.825	-8.905	141.778	148.841	25.491	120.824	87.295	-164.110	167.487	-6.374	156.569	0.00077837	0.00055046	0.00013442	822.56	4.6344e-05	5.4393e-06	792.98	327.26	4.2166e-06	8.7225e-05	367.38	164.18	139.72	65.144	0.00010821	83.015	0.00087366	0.0012773	0.00025083	910.94	6.48e-05	1.0056e-05	840.6	349.48	8.9231e-06	0.00030458	391.58	176.54	150.18	70.132	0.0003614	89.415	-106.958	-84.800	-90.470	-159.760	-65.200	-27.356	-161.684	-156.031	-21.055	93.002	-157.869	-153.566	-152.186	-147.707	-131.767	-150.225	-8191	255	
26089.545	1	1	0	0	0.25997	0.086099	0.19946	0.28933	0.10233	0.057165	0.2186	0.15092	0.15875	0.18305	0.25803	0.10543	0.19867	0.19249	0.1988	0.068721	-3.7208	-4.6375	-4.5813	-4.3	-4.8729	-4.3354	-4.6062	-4.8521	-4.1667	-4.6646	-4.5917	-4.3313	-4.8375	-4.5708	-4.3208	-4.7562	111.663	-35.285	82.208	150.429	124.020	-87.037	134.101	54.658	141.501	154.283	132.676	172.715	-82.805	139.274	-49.901	82.703	0.00077367	0.00035369	0.00015344	817.36	2.901e-05	6.899e-06	791.92	327.38	4.1399e-06	0.00013121	368.52	164.4	139.5	65.216	8.481e-05	83.031	0.00088667	0.0011755	0.00024231	866.38	0.00019367	1.0614e-05	841.08	349.96	8.9069e-06	0.0004168	391.95	176.68	150.35	70.266	0.00026524	89.63	-108.487	-91.839	-84.643	-159.872	-57.747	-30.410	-161.533	-155.963	-24.904	103.467	-157.905	-153.658	-152.086	-147.482	-125.792	-150.181	-8191	255	
26089.641	1	1	0	0	0.060871	0.23821	0.21309	0.11356	0.094089	0.046671	0.26122	0.25123	0.11558	0.079104	0.22179	0.082	0.15819	0.40279	0.20266	0.089738	-3.7479	-4.5729	-4.5708	-4.3375	-4.725	-4.4354	-4.5208	-4.8	-4.3229	-4.5521	-4.7542	-4.1771	-4.9313	-4.5312	-4.4187	-5.0021	121.762	159.760	86.813	139.928	91.548	92.360	-168.817	-166.721	39.734	-23.847	-8.739	182.271	-102.885	104.015	-5.659	57.763	0.0007636	0.00053711	0.00016917	815.56	0.00010546	5.9478e-06	791.77	327.57	5.2953e-06	8.2628e-05	369.99	164.38	140.19	65.299	1.2478e-05	84.008	0.00090231	0.0012844	0.00023908	864.86	0.00032883	1.0189e-05	842.26	350.02	9.0774e-06	0.00030655	393.51	177.05	150.73	70.435	0.00023097	91.23	-107.023	-82.437	-89.625	-160.371	-1.865	-27.068	-161.702	-155.987	-23.907	108.249	-157.735	-153.393	-151.948	-147.681	12.846	-150.881	-8191	255	
26089.736	1	1	0	0	0.10726	0.07369	0.10069	0.23045	0.11711	0.32309	0.36832	0.12301	0.041488	0.040909	0.25451	0.1305	0.10407	0.12873	0.22043	0.25144	-3.8063	-4.5667	-4.5021	-4.3333	-4.9021	-4.4375	-4.5354	-4.8604	-4.2042	-4.4812	-4.8375	-4.3417	-4.8146	-4.4292	-4.125	-4.9958	151.766	-34.164	66.633	155.811	-151.507	-46.083	133.598	88.648	-30.375	-87.564	149.290	74.831	60.716	19.629	106.812	-159.053	0.0007612	0.00042176	0.00014921	818.53	7.8347e-05	5.6693e-06	793.58	328.4	4.7101e-06	0.00013235	368.91	165.13	140.58	65.229	1.5367e-05	84.17	0.00087839	0.0011268	0.00026562	866.38	0.00024161	9.857e-06	843.67	351.42	9.1456e-06	0.00041796	393.99	177.76	151	70.489	1.1281e-05	93.659	-106.286	-74.988	-84.217	-160.361	2.768	-35.253	-161.589	-155.918	-24.015	118.367	-158.007	-153.886	-152.127	-147.559	-34.693	-150.588	-8191	255	
26089.832	1	1	0	0	0.32185	0.1617	0.019442	0.12127	0.18959	0.33998	0.31934	0.22192	0.18595	0.059694	0.056046	0.19994	0.10889	0.098168	0.11481	0.27458	-4.0083	-4.4271	-4.5958	-4.1583	-4.6312	-4.6208	-4.3583	-4.9646	-4.3625	-4.3958	-4.8688	-4.1813	-4.7521	-4.5792	-4.1375	-5.0125	103.837	145.710	142.636	-99.674	185.810	-141.687	140.258	-136.987	81.674	-25.091	118.577	133.285	160.331	-160.705	-3.186	80.713	0.00076045	0.00051315	0.00013273	818	0.000103	5.0686e-06	795.91	328.53	4.5353e-06	9.0617e-05	367.44	164.47	139.64	64.939	4.6215e-06	84	0.00088713	0.0011902	0.00025921	866.42	0.0003295	1.0101e-05	844.41	350.92	9.4697e-06	0.0003053	393.6	177.03	150.45	70.109	9.5959e-06	95.414	-108.174	-77.900	-75.518	-160.425	12.778	-6.701	-161.671	-155.999	-27.225	121.898	-158.234	-153.866	-152.084	-147.687	-14.920	-150.695	-8191	255	
26089.930	1	1	0	0	0.1863	0.15286	0.24488	0.17336	0.24521	0.1823	0.17631	0.34162	0.080631	0.1487	0.24858	0.12224	0.060459	0.11294	0.18326	0.19194	-4.0604	-4.2583	-4.7333	-4.2146	-4.5146	-4.5625	-4.2188	-4.9417	-4.4146	-4.2146	-4.8146	-4.2812	-4.4896	-4.8187	-4.1979	-4.975	-24.401	167.887	163.703	69.066	-3.047	40.781	59.966	83.940	-73.636	54.053	155.666	133.742	117.544	-156.192	-158.352	128.472	0.00073498	0.00052992	0.00014127	814.91	7.9472e-05	6.3157e-06	789.79	327.31	4.6368e-06	0.00011481	365.05	163.36	138.66	64.762	6.7239e-06	83.553	0.00086538	0.0010723	0.00025605	863.65	0.00024136	9.9744e-06	838.79	349.43	9.227e-06	0.00024695	401.65	176.09	149.87	69.862	9.8112e-06	93.573	-107.047	-65.629	-72.884	-160.440	21.083	-23.634	-161.492	-156.048	-26.377	71.128	-158.562	-153.719	-152.214	-147.622	-33.619	-150.399	-8191	255	
26090.025	1	1	0	0	0.14203	0.17192	0.090116	0.19958	0.10004	0.097138	0.042123	0.24517	0.33585	0.18344	0.24207	0.28994	0.19691	0.22312	0.077532	0.40365	-4.125	-4.3771	-4.7417	-4.3812	-4.6646	-4.7979	-4.1479	-4.7833	-4.35	-4.3438	-4.9104	-4.3271	-4.575	-4.9417	-4.0417	-4.8438	-20.677	-13.630	49.698	85.310	-89.677	-53.823	41.026	151.125	185.786	-158.037	116.478	155.353	-76.230	173.365	-83.899	102.335	0.00075396	0.00050396	0.00011516	813.69	0.00010499	6.3808e-06	788.61	326.51	5.4415e-06	5.7908e-06	367.21	163.76	139.11	64.971	5.2802e-06	84.024	0.00088041	0.00093697	0.00031691	861.7	0.00032961	1.0112e-05	840.13	348.81	8.9053e-06	9.844e-06	415.65	176.32	149.94	70.088	1.0147e-05	95.412	-106.612	-70.879	-107.368	-160.380	22.978	-20.326	-161.411	-155.956	-30.594	-21.552	-158.278	-153.704	-152.221	-147.660	-17.060	-150.472	-8191	255	
26090.146	1	1	0	0	0.10345	0.127	0.12447	0.09926	0.20981	0.083779	0.18163	0.068426	0.13761	0.15243	0.12626	0.067969	0.095882	0.36718	0.31776	0.31129	-4.2958	-4.1333	-4.7063	-4.4229	-4.4083	-4.9333	-4.2708	-4.7729	-4.5917	-4.05	-4.9604	-4.425	-4.1604	-4.8396	-4.1479	-4.7167	3.831	-124.696	183.795	-157.040	-41.703	-81.597	178.831	-166.719	-94.406	178.489	94.593	102.497	-128.009	144.588	-37.044	123.920	0.00076553	0.00061023	0.00014701	813.51	7.3452e-05	6.8071e-06	793.37	325.98	4.7907e-06	7.6311e-06	364.33	165.04	139.37	65.161	6.1299e-06	84.026	0.00087396	0.0008833	0.00032532	863.59	0.0002418	1.0099e-05	840.74	349.18	8.8224e-06	9.6329e-06	430.21	177.22	150.29	70.266	1.0118e-05	94.296	-106.905	-91.028	-99.762	-160.498	33.219	-28.856	-161.487	-156.047	-25.933	-6.971	-158.232	-153.771	-151.939	-147.627	-26.625	-150.361	-8191	255	
26090.240	1	1	0	0	0.080924	0.12451	0.079195	0.21495	0.2004	0.18405	0.078175	0.11381	0.32102	0.14372	0.13139	0.17113	0.21103	0.24826	0.053255	0.13746	-4.2229	-4.2292	-4.6062	-4.5	-4.2896	-4.7708	-4.3042	-4.4958	-4.5167	-4.1417	-4.6937	-4.6479	-4.3125	-4.7354	-4.1458	-4.7125	-102.214	29.455	-4.241	138.546	115.966	28.120	75.730	161.738	-121.826	-34.149	178.081	-164.263	103.246	-165.683	-10.557	123.761	0.00076305	0.00044435	8.539e-05	813.37	0.00011726	1.3113e-05	800.24	329.14	4.6547e-06	7.7792e-06	367.22	165.89	140.6	65.48	6.1256e-06	85.028	0.00087823	0.000882	0.00035429	863.36	0.00018214	0.0001368	845.33	350.38	8.8317e-06	1.0054e-05	421.68	178.27	150.78	70.465	1.0023e-05	96.255	-107.533	-85.987	-106.473	-160.254	35.968	-166.693	-161.273	-155.875	-25.376	-17.837	-158.024	-153.674	-151.977	-147.489	-34.673	-150.302	-8191	255	
26090.336	1	1	0	0	0.19043	0.19613	0.082719	0.17574	0.063237	0.06193	0.076481	0.28117	0.21719	0.12118	0.085448	0.24681	0.11391	0.41163	0.019372	0.11646	-4.3187	-4.2167	-4.6396	-4.6708	-4.3	-4.5917	-4.525	-4.5042	-4.7125	-4.0646	-4.6667	-4.6667	-4.0813	-4.7646	-4.2625	-4.4333	-14.810	108.082	-122.176	-159.296	157.542	124.126	156.819	144.236	-167.681	-7.852	-168.722	90.292	125.317	108.090	-39.988	174.418	0.00078278	0.00054642	0.00011114	815.49	4.2136e-06	3.0116e-06	795.23	326.76	5.7766e-06	6.1142e-06	363.78	164.66	140.06	65.161	6.2792e-06	84.498	0.00091219	0.00091402	0.00033139	864.44	8.4105e-06	0.00029052	843.77	349.72	9.2348e-06	1.026e-05	430.85	177.49	150.35	70.174	9.8919e-06	94.202	-106.539	-90.172	-85.196	-160.413	-31.410	165.874	-161.623	-155.987	-35.311	-18.534	-158.473	-153.641	-152.120	-147.651	-28.382	-150.242	-8191	255	
#DATA ENDS
