BOXY.EXE: ISS Imagent and Oximeter Data Acquisition Program Version 0.80
Ascii Record File

#ACQ INFORMATION
2  Detector Channels 
16  External MUX Channels 
1  Auxiliary Channels 
5000  Waveform (CCF) Frequency (Hz)
1  Waveforms Skipped 
30  Waveforms Averaged 
1  Cycles Averaged 
16  Acquisitions per Waveform 
10.0806  Updata Rate (Hz) 

#FILE INFORMATION
TRUE -- External MUX Channel results are PARSED.
FALSE -- AC DC and Phase are NOT grouped.
TRUE -- Companion Program Settings File CREATED.
FALSE -- AC data not excluded
FALSE -- DC data not excluded
FALSE -- Phase data not excluded
FALSE -- Auxillary Chn. data not excluded
Tab delimiters

#CALIBRATION STATE
TRUE -- Waveform Calibration Values APPLIED.


#AUX CALIBRATION VALUES
Val Type	aux-1	

Term	1.0000e+00	
Factor	0.0000e+00	


#WF CALIBRATION VALUES
A = Detector Channel
Val Type	A-AC1	A-AC2	A-AC3	A-AC4	A-AC5	A-AC6	A-AC7	A-AC8	A-AC9	A-AC10	A-AC11	A-AC12	A-AC13	A-AC14	A-AC15	A-AC16	A-DC1	A-DC2	A-DC3	A-DC4	A-DC5	A-DC6	A-DC7	A-DC8	A-DC9	A-DC10	A-DC11	A-DC12	A-DC13	A-DC14	A-DC15	A-DC16	A-Ph1	A-Ph2	A-Ph3	A-Ph4	A-Ph5	A-Ph6	A-Ph7	A-Ph8	A-Ph9	A-Ph10	A-Ph11	A-Ph12	A-Ph13	A-Ph14	A-Ph15	A-Ph16	

Term	0.00000e+00	0.00000e+00	0.00000e+00	0.00000e+00	0.00000e+00	0.00000e+00	0.00000e+00	0.00000e+00	0.00000e+00	0.00000e+00	0.00000e+00	0.00000e+00	0.00000e+00	0.00000e+00	0.00000e+00	0.00000e+00	0.00000e+00	0.00000e+00	0.00000e+00	0.00000e+00	0.00000e+00	0.00000e+00	0.00000e+00	0.00000e+00	0.00000e+00	0.00000e+00	0.00000e+00	0.00000e+00	0.00000e+00	0.00000e+00	0.00000e+00	0.00000e+00	0.00000e+00	0.00000e+00	0.00000e+00	0.00000e+00	0.00000e+00	0.00000e+00	0.00000e+00	0.00000e+00	0.00000e+00	0.00000e+00	0.00000e+00	0.00000e+00	0.00000e+00	0.00000e+00	0.00000e+00	0.00000e+00	
Factor	1.00000e+00	1.00000e+00	1.00000e+00	1.00000e+00	1.00000e+00	1.00000e+00	1.00000e+00	1.00000e+00	1.00000e+00	1.00000e+00	1.00000e+00	1.00000e+00	1.00000e+00	1.00000e+00	1.00000e+00	1.00000e+00	1.00000e+00	1.00000e+00	1.00000e+00	1.00000e+00	1.00000e+00	1.00000e+00	1.00000e+00	1.00000e+00	1.00000e+00	1.00000e+00	1.00000e+00	1.00000e+00	1.00000e+00	1.00000e+00	1.00000e+00	1.00000e+00	X	X	X	X	X	X	X	X	X	X	X	X	X	X	X	X	

B = Detector Channel
Val Type	B-AC1	B-AC2	B-AC3	B-AC4	B-AC5	B-AC6	B-AC7	B-AC8	B-AC9	B-AC10	B-AC11	B-AC12	B-AC13	B-AC14	B-AC15	B-AC16	B-DC1	B-DC2	B-DC3	B-DC4	B-DC5	B-DC6	B-DC7	B-DC8	B-DC9	B-DC10	B-DC11	B-DC12	B-DC13	B-DC14	B-DC15	B-DC16	B-Ph1	B-Ph2	B-Ph3	B-Ph4	B-Ph5	B-Ph6	B-Ph7	B-Ph8	B-Ph9	B-Ph10	B-Ph11	B-Ph12	B-Ph13	B-Ph14	B-Ph15	B-Ph16	

Term	0.00000e+00	0.00000e+00	0.00000e+00	0.00000e+00	0.00000e+00	0.00000e+00	0.00000e+00	0.00000e+00	0.00000e+00	0.00000e+00	0.00000e+00	0.00000e+00	0.00000e+00	0.00000e+00	0.00000e+00	0.00000e+00	0.00000e+00	0.00000e+00	0.00000e+00	0.00000e+00	0.00000e+00	0.00000e+00	0.00000e+00	0.00000e+00	0.00000e+00	0.00000e+00	0.00000e+00	0.00000e+00	0.00000e+00	0.00000e+00	0.00000e+00	0.00000e+00	-2.04314e+02	-1.42203e+02	-1.28168e+02	-1.83188e+02	-8.07192e+01	-9.55538e+01	-1.57235e+02	-1.62015e+02	-9.38696e+01	-7.87754e+01	-1.72586e+02	-1.73078e+02	-1.80462e+02	-1.78286e+02	-1.03677e+02	-1.51187e+02	
Factor	5.12228e-05	5.56067e-05	1.88345e-05	1.95333e-01	6.11813e-07	6.20629e-07	2.43410e-01	8.63391e-02	5.78950e-07	5.10576e-07	1.23214e-01	4.08652e-02	3.29490e-02	1.20693e-02	4.99769e-07	1.77148e-02	2.19044e-07	2.19549e-07	6.10483e-08	8.04949e-02	2.40446e-09	2.40050e-09	9.18355e-02	3.25942e-02	2.40413e-09	2.39780e-09	4.31712e-02	1.43532e-02	1.21673e-02	4.38651e-03	2.40139e-09	6.00466e-03	X	X	X	X	X	X	X	X	X	X	X	X	X	X	X	X	



#DISTANCE SETTINGS
A = Detector Channel
A-1	A-2	A-3	A-4	A-5	A-6	A-7	A-8	A-9	A-10	A-11	A-12	A-13	A-14	A-15	A-16	

2.5000e+00	3.0000e+00	2.5000e+00	3.0000e+00	2.0000e+00	3.0000e+00	1.5000e+00	3.0000e+00	3.0000e+00	3.0000e+00	3.0000e+00	3.0000e+00	3.0000e+00	3.0000e+00	1.5000e+00	3.0000e+00	

B = Detector Channel
B-1	B-2	B-3	B-4	B-5	B-6	B-7	B-8	B-9	B-10	B-11	B-12	B-13	B-14	B-15	B-16	

1.0000e+01	1.0000e+01	1.0000e+01	1.4400e+00	1.0000e+01	1.0000e+01	1.5100e+00	1.9400e+00	1.0000e+01	1.0000e+01	1.9900e+00	2.4900e+00	2.4100e+00	2.9000e+00	1.0000e+01	2.9800e+00	




#DATA BEGINS
time	group	step	mark	flag	A-AC1	A-AC2	A-AC3	A-AC4	A-AC5	A-AC6	A-AC7	A-AC8	A-AC9	A-AC10	A-AC11	A-AC12	A-AC13	A-AC14	A-AC15	A-AC16	A-DC1	A-DC2	A-DC3	A-DC4	A-DC5	A-DC6	A-DC7	A-DC8	A-DC9	A-DC10	A-DC11	A-DC12	A-DC13	A-DC14	A-DC15	A-DC16	A-Ph1	A-Ph2	A-Ph3	A-Ph4	A-Ph5	A-Ph6	A-Ph7	A-Ph8	A-Ph9	A-Ph10	A-Ph11	A-Ph12	A-Ph13	A-Ph14	A-Ph15	A-Ph16	B-AC1	B-AC2	B-AC3	B-AC4	B-AC5	B-AC6	B-AC7	B-AC8	B-AC9	B-AC10	B-AC11	B-AC12	B-AC13	B-AC14	B-AC15	B-AC16	B-DC1	B-DC2	B-DC3	B-DC4	B-DC5	B-DC6	B-DC7	B-DC8	B-DC9	B-DC10	B-DC11	B-DC12	B-DC13	B-DC14	B-DC15	B-DC16	B-Ph1	B-Ph2	B-Ph3	B-Ph4	B-Ph5	B-Ph6	B-Ph7	B-Ph8	B-Ph9	B-Ph10	B-Ph11	B-Ph12	B-Ph13	B-Ph14	B-Ph15	B-Ph16	aux-1	digaux	

2707.507	1	1	0	768	0.10545	0.053505	0.10548	0.27606	0.069033	0.028936	0.10516	0.32977	0.10248	0.20723	0.247	0.062241	0.073699	0.025524	0.29294	0.13934	-3.5854	-3.7417	-4.2875	-3.8	-4.0792	-4.2875	-3.6583	-4.5083	-4.0312	-3.8417	-4.3229	-4.0833	-4.0563	-4.5417	-3.55	-4.4417	160.012	113.828	104.707	295.966	329.770	289.831	24.985	337.998	296.075	262.228	34.172	186.621	233.550	53.214	28.894	306.162	0.0010681	0.00017515	8.7982e-05	1042	3.1532e-06	2.0998e-06	1033.1	471.12	1.6806e-06	1.8489e-06	513.77	214.17	197.18	95.551	2.0309e-06	112.75	1.7085e-05	1.1356e-05	2.891e-06	886.26	1.3667e-07	1.2132e-07	853.78	369.18	1.3503e-07	1.1999e-07	384.13	161.25	150.06	72.183	1.2342e-07	81.737	69.513	62.642	69.463	-6.547	112.920	101.079	-8.127	-1.639	122.034	106.401	-4.239	0.209	3.266	7.934	116.717	4.173	-8191	255	
2707.603	1	1	0	0	0.11594	0.031861	0.057833	0.19987	0.19727	0.19496	0.1583	0.17845	0.042561	0.05815	0.09771	0.16241	0.24462	0.18587	0.08271	0.37746	-3.6208	-3.9417	-4.2979	-3.8521	-3.7646	-4.3854	-3.7354	-4.2583	-4.1167	-3.8	-4.2604	-4.0521	-3.9146	-4.5729	-3.575	-4.2375	15.183	128.929	-9.112	274.315	233.486	142.829	313.387	-7.030	193.597	122.783	226.299	299.339	11.717	339.654	-17.602	250.459	0.0010771	0.00019084	5.3292e-05	1041.6	2.047e-06	2.0435e-06	1028.3	469.24	1.4248e-06	1.8242e-06	515.71	214.76	198.04	95.9	1.4668e-06	113.77	1.696e-05	1.1679e-05	2.9692e-06	886.2	1.3713e-07	1.2225e-07	850.47	368.73	1.3817e-07	1.2297e-07	384.34	161.79	150.46	72.597	1.2672e-07	82.47	66.261	58.973	41.913	-6.543	132.331	97.981	-8.364	-1.404	120.406	124.495	-4.280	0.161	3.187	7.898	134.762	4.126	-8191	255	
2707.699	1	1	0	0	0.086125	0.20613	0.16947	0.10686	0.11234	0.22002	0.043348	0.044995	0.12311	0.019775	0.17872	0.23156	0.20984	0.26037	0.097417	0.11978	-3.8917	-3.6729	-4.1521	-4.1208	-3.8146	-4.3854	-3.7354	-4.1625	-4.3333	-3.7104	-4.3812	-4.1292	-3.8312	-4.3833	-3.75	-4.0771	193.494	113.971	298.953	299.791	181.553	264.642	113.954	256.090	39.987	216.689	16.728	333.832	317.161	19.651	16.365	316.304	0.0010486	0.00026446	3.8219e-05	1034.9	1.9452e-06	1.8418e-06	1030	472.37	1.4623e-06	1.5236e-06	512.5	215.04	197.08	95.561	2.078e-06	113.27	1.6521e-05	1.112e-05	3.0963e-06	883.07	1.3262e-07	1.1839e-07	850.7	370.23	1.325e-07	1.1631e-07	384.16	161.43	149.89	72.304	1.336e-07	81.757	68.564	62.059	73.890	-6.454	113.897	88.794	-8.315	-1.721	116.164	125.457	-4.465	0.027	3.307	7.822	105.299	4.266	-8191	255	
2707.795	1	1	0	0	0.24058	0.16016	0.2492	0.075839	0.15445	0.036702	0.3017	0.27163	0.066154	0.22108	0.26297	0.30352	0.036118	0.22707	0.27108	0.20113	-3.8146	-3.6437	-4.4021	-4.2021	-3.6917	-4.2896	-3.8771	-3.9104	-4.2812	-3.5792	-4.3292	-4.1208	-3.7812	-4.4896	-3.7146	-3.9042	226.913	318.288	-4.763	2.949	241.058	260.799	264.417	246.933	64.947	75.814	254.727	292.536	229.343	322.107	326.398	292.182	0.0010949	0.00020019	6.8173e-05	1034.4	3.0388e-06	2.6567e-06	1022.8	470.02	1.3718e-06	1.1578e-06	510.42	213.07	196.71	94.908	1.9716e-06	112.07	1.5924e-05	1.0506e-05	3.1175e-06	880.91	1.243e-07	1.0739e-07	845.23	368.67	1.1976e-07	1.0929e-07	382.49	160.46	149.47	71.775	1.2938e-07	80.982	67.944	60.390	61.048	-6.731	123.958	92.154	-8.218	-1.601	102.689	128.418	-4.510	0.095	3.023	7.940	117.362	4.020	-8191	255	
2707.891	1	1	0	0	0.23053	0.089075	0.19846	0.21148	0.10165	0.14817	0.057659	0.40577	0.26739	0.14622	0.07793	0.47635	0.28817	0.29702	0.038125	0.17604	-3.7646	-3.6396	-4.0563	-4.2146	-3.5667	-4.3146	-3.9854	-4.1396	-4.275	-3.8646	-4.0292	-4.3042	-3.8187	-4.3271	-4.0583	-3.7	10.855	158.687	-13.619	103.286	151.424	73.483	198.731	248.039	284.656	241.672	301.027	-3.912	308.566	282.217	193.261	15.353	0.0010899	0.00023221	6.0213e-05	1036.5	1.0629e-06	1.52e-06	1024.3	469.56	1.7157e-06	1.283e-06	515.52	213.69	196.38	94.888	1.8336e-06	112.58	1.5114e-05	9.8065e-06	3.1445e-06	882.54	1.1416e-07	1.0496e-07	849.81	368.39	1.1152e-07	1.1008e-07	384.24	160.55	149.32	71.672	1.3401e-07	81.249	66.275	58.608	74.890	-6.403	135.250	96.761	-8.255	-1.822	104.907	119.932	-4.418	0.207	3.037	7.831	112.951	4.084	-8191	255	
2707.987	1	1	0	0	0.28792	0.088565	0.052265	0.09533	0.1483	0.15769	0.048637	0.31977	0.11119	0.16254	0.33138	0.23601	0.095454	0.27227	0.15037	0.053761	-4	-3.6083	-4.0604	-4.225	-3.6208	-4.1833	-4.0083	-3.6688	-4.2917	-3.6708	-3.9813	-4.2208	-3.8771	-4.2042	-4.0333	-3.8167	22.328	165.769	76.211	45.433	238.469	63.002	212.107	30.928	264.940	303.713	-10.564	250.042	327.618	21.130	68.624	295.455	0.0011047	0.00020803	8.8063e-05	1035.6	1.5958e-06	2.4568e-06	1023.7	468.88	1.7481e-06	1.9245e-06	515.62	214.66	196.42	94.788	1.4091e-06	112.89	1.4825e-05	1.0752e-05	3.2303e-06	881.72	1.1305e-07	1.1699e-07	851.46	368.27	1.1251e-07	1.1977e-07	385.45	161.1	149.5	71.669	1.2846e-07	81.556	68.923	66.519	72.163	-6.660	115.023	127.921	-8.518	-1.943	133.540	121.739	-4.282	0.056	3.203	7.804	99.049	4.108	-8191	255	
2708.108	1	1	0	0	0.13464	0.1535	0.10809	0.06922	0.15962	0.077189	0.17516	0.15243	0.075862	0.15318	0.18356	0.086807	0.061182	0.15949	0.12692	0.093769	-3.8021	-3.6625	-4.0083	-4.1104	-3.8063	-4.0729	-4.2208	-3.5917	-4.3063	-3.7354	-3.8396	-4.1917	-3.7	-4.2125	-4.0667	-3.8333	174.168	326.671	206.083	41.492	28.024	261.118	229.588	-4.120	124.851	195.676	26.157	338.244	-17.322	266.308	41.367	71.538	0.0011176	0.00021926	7.486e-05	1033	2.1583e-06	2.1584e-06	1030.1	467.56	2.0291e-06	1.8121e-06	513.75	214.31	195.74	94.496	1.7647e-06	112.29	1.4989e-05	1.1712e-05	3.2019e-06	879.86	1.1572e-07	1.2313e-07	851.91	367.1	1.1251e-07	1.2452e-07	383.86	160.83	149.09	71.385	1.2393e-07	81.042	65.992	57.349	57.592	-6.552	147.488	110.239	-8.251	-1.727	137.559	124.600	-4.398	0.026	3.323	7.863	103.432	3.922	-8191	255	
2708.204	1	1	0	0	0.096758	0.20824	0.12925	0.099482	0.045924	0.068833	0.20353	0.086741	0.056038	0.12805	0.25922	0.05275	0.24709	0.28171	0.10242	0.27885	-3.9042	-3.8563	-3.8542	-4.4479	-3.7083	-4.025	-4.3042	-3.6771	-4.3667	-3.8771	-3.8083	-4.4604	-3.8583	-4.0667	-4.2542	-3.6458	11.269	233.076	173.153	58.578	-12.509	241.873	309.272	53.759	119.804	46.622	228.339	239.283	286.907	316.691	171.816	311.203	0.001108	0.00020645	7.5737e-05	1036.9	2.6998e-06	2.6442e-06	1030.2	470.89	1.8434e-06	2.0862e-06	516.36	213.71	195.77	94.667	1.4718e-06	112.23	1.4712e-05	1.1149e-05	2.9125e-06	883.86	1.1383e-07	1.2426e-07	854.47	368.48	1.1762e-07	1.2232e-07	385.4	160.85	149.19	71.426	1.1931e-07	80.985	68.849	43.904	66.206	-6.627	141.225	116.026	-8.381	-1.728	110.272	110.398	-4.354	0.188	3.132	7.779	106.382	4.104	-8191	255	
2708.299	1	1	0	0	0.24451	0.28426	0.13677	0.16842	0.1334	0.22753	0.19596	0.12561	0.31014	0.13395	0.11751	0.46133	0.20132	0.23301	0.089047	0.33042	-3.9292	-3.8479	-3.7062	-4.3812	-3.5583	-3.975	-4.2562	-3.5479	-4.0833	-3.9437	-3.725	-4.3771	-3.8458	-4.0563	-4.1625	-3.6813	-13.976	339.861	-16.597	325.380	267.449	211.506	313.006	119.716	97.782	290.993	312.160	292.086	232.335	235.145	132.378	305.233	0.0011236	0.00017514	8.7044e-05	1039.9	1.8534e-06	2.806e-06	1032.1	470.67	2.1801e-06	1.2612e-06	515.24	213.64	195.25	94.561	2.4094e-06	112	1.5304e-05	1.1048e-05	2.8763e-06	885.31	1.2164e-07	1.2131e-07	853.75	368.14	1.2541e-07	1.2085e-07	384.49	160.7	148.94	71.389	1.1863e-07	80.9	72.650	51.620	65.298	-6.586	114.933	102.854	-8.345	-1.859	123.358	131.219	-4.241	0.052	3.289	7.770	112.615	4.086	-8191	255	
2708.395	1	1	0	0	0.14884	0.10172	0.10128	0.31686	0.21076	0.024214	0.089615	0.27639	0.25469	0.19605	0.13941	0.09759	0.3023	0.26378	0.12462	0.27126	-3.7708	-4.0271	-3.5687	-4.3479	-3.8729	-3.9125	-4.4187	-3.8375	-3.9583	-4.1979	-3.8229	-4.4667	-3.9125	-3.9813	-4.3125	-3.85	184.637	233.558	90.047	332.487	314.881	143.721	280.996	325.233	240.640	9.598	240.507	289.833	295.736	297.284	160.385	298.091	0.0011065	0.00016569	6.7485e-05	1034.1	2.5976e-06	2.6241e-06	1025.8	467.85	2.1147e-06	1.5714e-06	513.61	213.05	194.92	93.776	1.8435e-06	111.61	1.594e-05	1.0939e-05	2.8286e-06	880.45	1.2696e-07	1.1734e-07	850.22	366.05	1.2779e-07	1.1371e-07	383.21	160.32	148.2	70.893	1.1318e-07	80.705	69.889	47.202	61.786	-6.632	135.497	100.703	-8.200	-1.842	108.711	103.393	-4.513	0.028	3.185	7.913	93.331	4.093	-8191	255	
2708.491	1	1	0	0	0.21384	0.096443	0.28311	0.11257	0.02919	0.1139	0.24941	0.16735	0.077056	0.14418	0.076412	0.21939	0.20396	0.10523	0.14039	0.22044	-3.6667	-4.0958	-3.4292	-4.4896	-3.7938	-3.75	-4.5542	-3.8375	-3.925	-4.3063	-3.6229	-4.2917	-4.0771	-3.6604	-4.4417	-3.9771	18.717	306.484	87.904	300.936	241.446	253.820	7.771	336.893	60.450	34.975	257.742	308.715	300.666	14.433	331.334	190.475	0.0011135	0.00017443	6.3007e-05	1032.3	2.3367e-06	2.6005e-06	1025.2	468.24	1.6539e-06	1.7302e-06	511.86	212.95	194.49	93.482	1.9294e-06	110.63	1.6e-05	9.8966e-06	2.6096e-06	879.33	1.2055e-07	1.0698e-07	848.55	366	1.2132e-07	1.0793e-07	381.84	159.64	147.84	70.611	1.0329e-07	79.954	67.381	70.554	79.669	-6.496	123.549	112.131	-8.354	-1.694	111.136	117.293	-4.520	0.067	2.875	7.748	124.965	4.108	-8191	255	
2708.587	1	1	0	0	0.045369	0.087731	0.15859	0.24393	0.12962	0.25821	0.27021	0.21615	0.13871	0.13181	0.20991	0.13909	0.14476	0.10746	0.11802	0.27711	-3.4521	-4.1854	-3.6833	-4.0229	-4.0396	-3.5729	-4.3854	-3.9417	-3.8292	-4.3229	-3.8187	-4.175	-4.2063	-3.7625	-4.3104	-3.8937	-18.754	211.723	170.700	326.446	1.948	125.447	286.356	289.103	14.538	121.581	299.509	304.371	60.823	270.589	143.602	267.465	0.0010202	0.00019846	5.4532e-05	1028.3	2.6285e-06	2.3838e-06	1021.3	465.2	1.7098e-06	2.0348e-06	508.23	210.36	193.25	92.914	1.6639e-06	109.47	1.5277e-05	9.7946e-06	2.5386e-06	876.36	1.1667e-07	1.0351e-07	842.19	364.57	1.1489e-07	1.0506e-07	379.23	158.28	146.99	70.056	1.1e-07	79.13	67.807	67.987	94.992	-6.552	112.280	108.532	-8.723	-1.706	129.983	116.192	-4.286	0.019	3.166	7.688	132.999	4.082	-8191	255	
2708.683	1	1	0	0	0.16282	0.069935	0.14866	0.21629	0.13627	0.082818	0.057034	0.25934	0.12752	0.073126	0.27683	0.22338	0.23372	0.1112	0.14448	0.11849	-3.5146	-4.3521	-3.6208	-3.9917	-4.25	-3.6875	-4.25	-4.0687	-3.8688	-4.4354	-3.8521	-4.0792	-4.4271	-3.8146	-4.2104	-4.1417	109.452	92.278	94.592	249.539	112.955	119.047	193.292	280.285	111.905	147.185	334.845	58.606	311.184	-0.531	213.041	297.199	0.0010692	0.00020368	8.5049e-05	1021.3	2.6278e-06	2.5058e-06	1007.6	464.22	1.781e-06	2.2923e-06	505.08	210.19	192.73	92.672	1.7088e-06	110.25	1.5146e-05	9.7365e-06	2.7398e-06	869.51	1.1621e-07	1.051e-07	835.21	362.5	1.1808e-07	9.9244e-08	377.2	157.94	146.59	70.04	1.1622e-07	79.466	69.345	47.750	82.884	-6.615	104.758	99.430	-8.297	-1.710	119.960	115.908	-4.364	-0.106	3.195	7.806	103.639	4.040	-8191	255	
2708.804	1	1	0	0	0.01334	0.17108	0.28445	0.065765	0.058578	0.27409	0.19085	0.1846	0.16933	0.08639	0.10141	0.19493	0.27603	0.21748	0.118	0.30227	-3.2792	-4.1771	-3.7583	-4.0333	-4.2104	-3.6646	-4.2063	-4.225	-3.7812	-4.4854	-3.8396	-4.0708	-4.3604	-3.9375	-4.2208	-4.1687	232.413	313.117	32.959	211.647	154.789	86.467	256.736	320.679	271.414	74.336	56.321	-12.578	337.431	253.382	196.156	275.181	0.0010418	0.00023898	5.8453e-05	1019.7	2.2832e-06	2.5789e-06	1010	464.51	1.9011e-06	2.3689e-06	510.76	211.54	193.77	93.262	1.3764e-06	110.46	1.4929e-05	9.1817e-06	2.8447e-06	869.22	1.124e-07	9.9266e-08	837.74	363.63	1.132e-07	9.6197e-08	380.74	159.16	147.54	70.495	1.2065e-07	79.823	65.371	51.169	61.752	-6.698	122.588	92.864	-8.363	-1.720	121.090	129.640	-4.586	0.175	3.014	7.697	91.601	4.046	-8191	255	
2708.900	1	1	0	0	0.28568	0.18974	0.23587	0.28023	0.26611	0.11014	0.14293	0.082767	0.066516	0.29788	0.066465	0.29118	0.19597	0.081815	0.28578	0.13957	-3.2896	-4.3604	-3.9083	-3.9292	-4.4	-3.7271	-4.3313	-4.1729	-3.8333	-4.2583	-3.9479	-3.8563	-4.4896	-3.9792	-4.0625	-4.1687	339.568	3.394	111.455	74.032	-8.200	183.425	-16.371	274.835	57.467	6.023	21.941	322.412	229.968	96.735	94.046	282.487	0.0010736	0.00020738	7.4828e-05	1024.9	2.2933e-06	2.0497e-06	1011	464.91	2.36e-06	1.994e-06	507.83	211	193.4	93.409	1.9847e-06	110.38	1.4239e-05	8.8739e-06	2.8827e-06	870.75	1.0651e-07	9.7065e-08	837.71	363.83	1.05e-07	9.8819e-08	379.22	158.4	147.41	70.457	1.1892e-07	79.606	68.947	58.806	79.470	-6.506	114.863	117.322	-8.316	-1.776	122.727	137.776	-4.535	0.131	3.010	7.855	111.661	3.904	-8191	255	
2708.996	1	1	0	0	0.077666	0.12209	0.093788	0.13944	0.14482	0.32506	0.15963	0.13174	0.25378	0.072872	0.17104	0.046596	0.14628	0.033654	0.062136	0.045278	-3.3937	-4.15	-3.9271	-3.8958	-4.4437	-3.8917	-4.1	-4.3083	-3.5625	-4.425	-4.1604	-3.9354	-4.3812	-3.9188	-4.0125	-4.3187	216.621	-12.926	74.156	73.739	69.286	219.813	327.074	105.678	140.207	79.304	79.777	309.832	295.713	249.471	48.756	153.044	0.0010371	0.00022371	5.8162e-05	1023.1	2.1477e-06	2.7185e-06	1007.8	463.8	1.4494e-06	1.7946e-06	507.13	210.11	193.38	93.203	1.6044e-06	109.78	1.3823e-05	9.2146e-06	2.8773e-06	868.62	1.0149e-07	1.0413e-07	833.39	363.54	1.0406e-07	9.9559e-08	378.36	157.77	147.22	70.366	1.1978e-07	79.459	65.611	58.756	78.127	-6.535	111.420	120.526	-8.414	-1.671	101.768	134.039	-4.556	0.030	3.137	7.838	82.067	3.997	-8191	255	
2709.068	1	1	0	0	0.052974	0.052382	0.014775	0.30226	0.094115	0.086264	0.14835	0.11713	0.19761	0.097583	0.18595	0.037478	0.29365	0.23659	0.053325	0.18012	-3.2417	-4.2417	-4.0292	-3.7375	-4.2125	-3.725	-3.9271	-4.1292	-3.7062	-4.1167	-4.2	-3.75	-4.2375	-3.8917	-3.8812	-4.2812	38.220	62.909	57.939	284.344	-2.694	280.833	332.345	243.662	204.919	102.827	12.515	327.460	320.810	273.285	12.827	241.482	0.0011007	0.0002489	5.9836e-05	1025.4	2.1694e-06	2.1314e-06	1009.3	464.64	2.0712e-06	8.5127e-07	510.09	210.64	194.79	93.872	1.676e-06	111.29	1.3693e-05	9.9991e-06	2.8165e-06	870.22	9.8648e-08	1.0827e-07	837.42	364.21	1.0093e-07	1.0586e-07	380.91	158.88	148.02	70.922	1.1415e-07	80.524	65.944	64.448	44.756	-6.578	120.959	120.651	-8.593	-1.694	95.001	142.309	-4.271	0.180	3.120	7.767	102.922	4.029	-8191	255	
2709.188	1	1	0	0	0.29855	0.020385	0.18454	0.28046	0.11901	0.14741	0.085128	0.049483	0.40085	0.31399	0.055117	0.051865	0.41781	0.23114	0.39105	0.13507	-3.1813	-4.1729	-4.0375	-3.7854	-4.3896	-3.8729	-3.8521	-4.3979	-3.7333	-3.9208	-4.3083	-3.8042	-4.4979	-3.9792	-3.7396	-4.5875	127.332	27.951	283.129	70.655	277.180	49.542	42.291	307.652	331.052	72.667	-14.318	289.249	316.653	22.963	205.426	36.600	0.0010425	0.00021402	9.8343e-05	1032.7	2.3677e-06	2.2561e-06	1033.8	468.63	1.9259e-06	1.4139e-06	518.38	214.52	196.91	95.042	1.4524e-06	113.11	1.3694e-05	1.0086e-05	2.6594e-06	876.56	9.8798e-08	1.1135e-07	852.13	367.82	1.0274e-07	1.0752e-07	387.02	161.61	149.64	71.722	1.0957e-07	81.597	69.154	64.113	71.207	-6.587	124.098	138.513	-8.303	-1.627	124.052	111.875	-4.398	0.136	3.108	7.577	120.612	4.094	-8191	255	
2709.285	1	1	0	0	0.065374	0.19423	0.15431	0.2031	0.068268	0.19712	0.28168	0.13112	0.057579	0.21836	0.23878	0.27019	0.28666	0.057213	0.20708	0.16919	-3.3417	-3.9854	-4.1604	-3.6771	-4.1208	-4.0979	-3.6208	-4.4583	-3.7313	-3.9729	-4.2729	-3.6833	-4.1729	-4.1146	-3.6583	-4.2625	80.675	65.559	45.880	308.033	101.571	136.788	278.397	306.149	174.008	180.467	283.763	19.898	-19.084	42.196	26.390	248.520	0.0010594	0.00023565	6.06e-05	1039.5	1.6128e-06	2.1712e-06	1033.9	474.27	2.0434e-06	1.5725e-06	518.46	214.56	197.62	95.262	1.7997e-06	113.32	1.4143e-05	1.0094e-05	2.5321e-06	883.45	1.049e-07	1.0902e-07	855.47	370.32	1.0819e-07	1.0866e-07	387.57	161.52	150.33	72.034	1.0754e-07	81.791	68.122	62.677	66.998	-6.698	139.834	117.486	-8.502	-1.673	123.534	111.678	-4.701	0.015	3.042	7.624	121.913	4.059	-8191	255	
2709.379	1	1	0	0	0.074955	0.24364	0.12059	0.22615	0.2193	0.19458	0.082527	0.2611	0.065964	0.091778	0.0013243	0.078004	0.24245	0.20379	0.12882	0.23659	-3.325	-3.8063	-4.3396	-3.5542	-4.1021	-4.0146	-3.6562	-4.4563	-3.6542	-3.8729	-4.35	-3.6688	-4.0563	-4.4646	-3.45	-4.3167	137.387	70.273	64.030	316.419	4.889	55.162	277.383	224.504	276.556	138.916	180.000	273.001	324.101	298.491	337.897	9.611	0.0010755	0.00017426	7.0999e-05	1045.7	2.1817e-06	1.9546e-06	1039.9	478.26	1.3615e-06	1.8786e-06	524.52	217.03	199.17	96.365	1.7653e-06	114.93	1.4909e-05	9.9401e-06	2.5087e-06	887.56	1.1265e-07	1.0614e-07	860.33	373.05	1.1605e-07	1.0424e-07	391.67	163.25	151.39	72.854	1.0146e-07	82.964	68.507	54.185	89.998	-6.328	118.492	110.033	-8.210	-1.661	122.604	122.411	-4.721	-0.114	3.195	7.590	99.373	3.929	-8191	255	
2709.477	1	1	0	0	0.2802	0.25357	0.083826	0.097777	0.28032	0.087756	0.16328	0.10194	0.22071	0.061279	0.14775	0.16579	0.12725	0.2193	0.24649	0.29605	-3.4208	-3.8688	-4.3979	-3.9458	-3.9667	-4.1521	-3.5792	-4.3979	-3.9083	-3.9083	-4.425	-4.0354	-4.1583	-4.2542	-3.7062	-4.2771	271.486	-7.494	195.023	296.057	39.754	203.746	37.578	243.052	60.662	183.385	6.069	-1.246	320.059	305.887	208.220	250.897	0.0010791	0.0002508	6.1402e-05	1050.9	2.0157e-06	2.3567e-06	1055.1	478.87	1.8292e-06	1.4393e-06	530.43	220.84	201.28	96.906	2.1225e-06	116.03	1.5239e-05	9.5819e-06	2.483e-06	892.74	1.1244e-07	1.0131e-07	868.42	375.16	1.1032e-07	9.7261e-08	396.36	166.06	153.09	73.208	9.7872e-08	83.781	68.847	53.151	57.042	-6.536	115.707	104.919	-8.486	-1.799	109.728	137.445	-4.462	-0.023	3.105	7.819	110.522	3.970	-8191	255	
2709.596	1	1	0	0	0.014357	0.1827	0.089469	0.14877	0.17116	0.064784	0.4709	0.22846	0.21264	0.019464	0.16516	0.087549	0.073757	0.24232	0.1715	0.18411	-3.5563	-3.7	-4.3021	-3.8542	-4.1646	-4.2375	-3.7792	-4.2375	-3.8833	-3.5833	-4.0917	-3.9771	-4.0271	-4.3562	-3.6792	-4.0125	156.871	217.694	334.132	-6.417	290.335	314.368	284.400	291.659	118.095	-16.742	188.641	139.983	287.749	45.907	332.798	259.002	0.0011534	0.00021095	6.2723e-05	1054.3	1.7355e-06	2.4557e-06	1061.9	480.5	1.7121e-06	1.4177e-06	531.97	221.4	199.83	96.926	1.2384e-06	115.7	1.4583e-05	8.824e-06	2.307e-06	897.98	1.0848e-07	9.837e-08	876.77	376.97	1.0806e-07	9.3809e-08	397.74	166.7	152.76	73.179	9.3994e-08	83.497	66.644	57.572	55.094	-6.341	109.309	93.526	-8.501	-1.718	112.600	100.438	-4.493	0.285	3.233	7.879	121.121	4.139	-8191	255	
2709.667	1	1	0	0	0.011983	0.11763	0.15495	0.25842	0.11912	0.22445	0.18658	0.032868	0.20024	0.18887	0.21732	0.19399	0.084317	0.20854	0.023879	0.2106	-3.5896	-3.4292	-4.1417	-3.9771	-3.7438	-4.1458	-3.8667	-4.0521	-4.1479	-3.725	-4.2229	-3.9542	-3.7708	-4.3438	-3.5875	-4.1937	-10.844	120.845	71.601	296.964	129.187	243.380	218.418	300.905	156.151	293.202	332.973	271.223	30.958	311.170	33.215	7.678	0.0011348	0.00023313	5.7678e-05	1058.8	1.6636e-06	2.815e-06	1050.2	478.17	2.5353e-06	1.9717e-06	527.99	217.93	199.03	95.834	2.0256e-06	113.76	1.4058e-05	8.4997e-06	2.2431e-06	896.8	1.0344e-07	9.1114e-08	867.96	374.75	1.052e-07	9.3644e-08	392.78	163.55	151.31	72.441	1.0073e-07	82.149	67.782	60.827	78.276	-6.633	131.347	97.811	-8.643	-1.650	109.784	111.192	-4.603	-0.169	3.103	7.708	99.689	3.973	-8191	255	
2709.788	1	1	0	0	0.16622	0.17861	0.37804	0.17379	0.18837	0.1206	0.1623	0.17257	0.034731	0.32227	0.15044	0.14239	0.084023	0.29473	0.15871	0.068709	-3.6896	-3.6375	-4.2812	-4.0583	-3.7021	-4.2	-3.8042	-3.9146	-4.0896	-3.7104	-4.1625	-4.1312	-3.7458	-4.5854	-3.7417	-4.0292	272.192	308.721	274.329	244.760	72.953	110.397	-9.584	231.054	168.170	53.559	255.051	272.318	-8.864	303.693	119.861	236.821	0.0009952	0.00017468	6.8297e-05	1045.7	1.8185e-06	2.9092e-06	1040.7	475.61	1.9552e-06	2.4447e-06	522.36	215.77	197.5	95.032	1.5547e-06	112.95	1.3424e-05	8.1581e-06	2.3993e-06	890.33	9.8833e-08	8.7563e-08	861.66	371.94	9.8635e-08	8.9208e-08	390.15	162.41	150.29	71.714	1.0643e-07	81.438	71.371	54.607	60.693	-6.577	114.100	91.299	-8.370	-1.844	124.207	106.610	-4.484	-0.010	3.076	7.612	104.169	3.940	-8191	255	
2709.884	1	1	0	0	0.093019	0.096163	0.13101	0.068571	0.18635	0.14243	0.1187	0.18753	0.44933	0.14297	0.11278	0.06725	0.16149	0.28433	0.18243	0.29139	-3.9417	-3.4458	-4.0208	-4.2042	-3.75	-4.3438	-3.95	-3.8542	-4.1583	-3.7229	-4.05	-4.2333	-3.6729	-4.3417	-3.8021	-3.9313	89.331	324.611	51.537	246.015	170.291	236.232	266.326	271.178	153.273	181.592	15.873	-14.065	253.719	303.343	315.711	197.283	0.0010792	0.00019858	9.1608e-05	1049.4	1.9647e-06	1.8185e-06	1038.3	473.49	1.8991e-06	1.8117e-06	519.56	215.86	197.04	94.561	1.6194e-06	112.33	1.33e-05	8.0922e-06	2.5522e-06	889.16	9.442e-08	8.2577e-08	860.32	369.89	9.6761e-08	8.8004e-08	388.69	161.98	149.68	71.377	1.1121e-07	81.057	69.353	41.900	59.393	-6.546	127.596	103.835	-8.455	-1.770	111.295	101.152	-4.530	-0.003	3.038	7.463	113.637	3.986	-8191	255	
2709.980	1	1	0	0	0.18552	0.15468	0.084052	0.09618	0.25559	0.24725	0.17285	0.14723	0.035744	0.27788	0.11255	0.29931	0.26145	0.079333	0.089013	0.31537	-3.8833	-3.5312	-3.9042	-4.1917	-3.4938	-4.2312	-4.2458	-3.8979	-4.2083	-3.9125	-4.0042	-4.2354	-3.7729	-4.3854	-4.0437	-3.6937	107.362	281.750	132.087	259.163	85.307	58.675	200.079	314.782	49.451	-5.308	-1.896	266.891	320.200	248.006	273.199	279.516	0.0010559	0.00017005	7.2032e-05	1037.6	2.2102e-06	2.3356e-06	1039.2	472.01	1.3114e-06	1.5911e-06	518.94	214.58	196.32	93.963	1.9811e-06	111.45	1.3241e-05	8.4444e-06	2.6164e-06	882.12	9.2637e-08	8.7673e-08	856.21	369.16	9.0966e-08	9.249e-08	386.39	160.98	149.06	71.005	1.0742e-07	80.468	68.434	57.074	74.019	-6.673	127.917	102.571	-8.527	-1.895	105.399	119.414	-4.560	-0.153	2.906	7.542	108.903	3.874	-8191	255	
2710.077	1	1	0	0	0.14849	0.14909	0.24075	0.29879	0.070112	0.058485	0.074158	0.13579	0.27603	0.15483	0.12131	0.056256	0.15626	0.11495	0.072334	0.20608	-4.0167	-3.5667	-3.8271	-4.2312	-3.55	-4.1521	-3.8771	-3.8104	-4.3271	-3.7333	-4.05	-4.1479	-3.8979	-4.2479	-4.1229	-3.7687	246.408	109.933	321.085	255.786	155.151	309.075	285.461	4.184	153.495	107.575	297.987	321.978	281.155	323.606	137.945	227.576	0.0011165	0.00018284	6.9475e-05	1029.5	2.3058e-06	2.7706e-06	1019.2	470.24	1.8436e-06	2.4954e-06	514.56	211.92	195.84	94.326	2.0569e-06	111.53	1.2755e-05	8.958e-06	2.5526e-06	875.73	9.1925e-08	9.4214e-08	844.44	367.48	9.1302e-08	9.9759e-08	383.13	159.37	148.96	71.207	1.0588e-07	80.295	67.375	56.720	69.285	-6.791	132.390	105.864	-8.464	-1.934	111.596	113.109	-4.675	-0.110	3.061	7.444	103.920	4.170	-8191	255	
2710.197	1	1	0	0	0.030977	0.18239	0.017659	0.22429	0.18292	0.098634	0.23775	0.31433	0.12613	0.17326	0.016531	0.052008	0.097009	0.19242	0.1632	0.17923	-3.9458	-3.7979	-3.9146	-4.3396	-3.6708	-4.0188	-4.3083	-3.6437	-4.275	-3.825	-3.8542	-4.2833	-3.8479	-4.4688	-4.0583	-3.8771	41.674	232.564	332.780	323.523	207.864	292.419	334.279	290.153	59.143	-4.998	132.373	57.391	227.709	296.273	32.236	37.506	0.0010838	0.00018989	7.0132e-05	1025.9	2.3771e-06	2.5116e-06	1013.1	469.83	1.4841e-06	1.7813e-06	513.8	213.56	196.5	94.567	1.2368e-06	111.22	1.318e-05	9.5595e-06	2.5498e-06	872.52	9.5978e-08	1.013e-07	838.55	367.95	9.3561e-08	1.0019e-07	383.5	159.88	149.38	71.437	1.0395e-07	80.457	65.151	39.797	68.167	-6.798	140.234	101.483	-8.522	-1.868	110.351	117.293	-4.458	-0.053	2.947	7.683	105.098	3.987	-8191	255	
2710.292	1	1	0	0	0.14005	0.24987	0.20846	0.066973	0.21182	0.13813	0.22091	0.1531	0.10226	0.155	0.0060364	0.12234	0.05321	0.11047	0.18804	0.13776	-3.8	-3.7729	-3.6437	-4.3104	-3.8146	-4.0188	-4.2292	-3.6208	-4.2292	-3.8563	-3.725	-4.4271	-3.9062	-4.0958	-4.075	-3.6792	55.570	256.305	125.593	329.793	32.028	156.513	335.969	212.940	273.885	315.429	6.262	304.218	332.210	104.761	207.697	323.129	0.0010844	0.00023261	7.1076e-05	1026.2	2.6515e-06	2.6922e-06	1018.4	472.89	2.1429e-06	1.7939e-06	521.18	215.61	198.32	95.353	1.8003e-06	113.46	1.3161e-05	9.3089e-06	2.4148e-06	872.06	9.7426e-08	9.7765e-08	842.46	370.13	9.5109e-08	9.6472e-08	388.19	162.25	150.99	72.12	9.5475e-08	81.872	67.415	57.930	94.212	-6.776	131.236	111.135	-8.576	-1.734	131.872	119.345	-4.790	-0.129	2.951	7.619	100.754	3.917	-8191	255	
2710.365	1	1	0	0	0.23586	0.14007	0.054821	0.18185	0.11232	0.022081	0.19944	0.088505	0.21175	0.17186	0.034086	0.047245	0.086693	0.10898	0.238	0.27227	-3.7333	-3.8083	-3.6437	-4.1917	-3.6958	-3.9646	-4.3292	-3.9104	-4.0833	-4.0792	-3.6833	-4.3812	-3.925	-4.0521	-4.1375	-3.75	171.701	206.617	244.537	330.371	61.716	303.092	321.901	278.164	-12.860	105.325	268.428	272.600	305.881	-13.336	-2.717	281.940	0.0011075	0.00026742	8.1987e-05	1036.3	1.7884e-06	2.2492e-06	1027.6	475.14	1.8821e-06	1.4657e-06	523.39	216.9	199.84	96.167	1.1608e-06	114.16	1.354e-05	8.7865e-06	2.2407e-06	879.34	9.6614e-08	9.0229e-08	850.01	373.15	9.913e-08	9.0592e-08	390.68	163.04	151.84	72.664	8.8021e-08	82.269	68.322	61.607	73.824	-6.602	128.479	116.071	-8.229	-1.611	112.581	96.901	-4.583	0.052	2.995	7.547	105.715	3.894	-8191	255	
2710.484	1	1	0	0	0.1247	0.07293	0.12588	0.064321	0.20012	0.11923	0.13584	0.19152	0.21028	0.099624	0.12639	0.082713	0.2057	0.20906	0.083287	0.21666	-3.7354	-3.9125	-3.5687	-4.2125	-3.9542	-3.6708	-4.4542	-3.9417	-3.8792	-4.1479	-3.8375	-4.25	-4.0458	-3.7875	-4.3438	-3.7687	214.005	149.632	212.092	-16.495	90.419	14.383	317.575	249.886	166.731	56.252	291.727	276.088	289.935	335.494	23.476	224.489	0.0011238	0.00017875	7.9651e-05	1036.4	1.7579e-06	2.0563e-06	1028.6	477.51	1.825e-06	1.6905e-06	525.79	217.77	200.03	96.829	1.7335e-06	114.61	1.3524e-05	8.2088e-06	2.1621e-06	882.8	9.8638e-08	8.6928e-08	852.95	374.61	9.8049e-08	8.755e-08	391.7	163.28	152.53	73.119	8.8892e-08	82.618	67.846	45.028	72.635	-6.582	130.973	97.621	-8.220	-1.632	136.368	132.475	-4.487	-0.053	3.119	7.529	112.460	4.052	-8191	255	
2710.580	1	1	0	0	0.12023	0.10519	0.06987	0.15502	0.05052	0.26389	0.038409	0.1264	0.17154	0.10118	0.47326	0.10791	0.14634	0.30931	0.18043	0.35194	-3.6063	-4.0938	-3.3875	-4.2708	-3.9562	-3.5729	-4.2208	-3.6917	-3.9604	-4.1146	-3.7208	-4.3333	-4.0979	-3.7604	-4.1458	-3.9667	29.871	44.622	132.338	230.230	116.822	-3.095	248.190	39.819	164.237	175.817	274.970	310.004	230.938	291.897	141.947	218.785	0.0011005	0.00023089	8.3355e-05	1043.3	2.0738e-06	2.5751e-06	1035.9	480.48	2.0319e-06	1.6961e-06	526.65	218.77	200.34	97.438	1.9069e-06	115.37	1.3746e-05	8.1078e-06	2.1034e-06	887.02	1.0048e-07	8.8853e-08	855.95	376.04	1.0186e-07	8.8464e-08	392.5	163.91	152.49	73.537	9.3149e-08	83.24	69.171	42.796	60.998	-6.469	124.346	99.667	-8.081	-1.663	115.208	112.661	-4.580	0.121	3.095	7.647	141.332	3.968	-8191	255	
2710.676	1	1	0	0	0.11558	0.25596	0.34419	0.10354	0.24197	0.15789	0.12078	0.20022	0.081135	0.21893	0.028646	0.19736	0.27984	0.23998	0.09762	0.16912	-3.2438	-4.0625	-3.5479	-4.1937	-4	-3.6792	-4.175	-4.0312	-3.675	-4.2979	-3.6042	-4.1646	-4.1375	-3.8	-4.0667	-4.1667	105.093	84.829	69.550	308.886	134.225	22.720	240.670	-12.284	310.095	71.278	52.596	285.816	299.143	314.827	142.110	248.877	0.0011178	0.00023178	0.00010179	1044	2.1925e-06	2.613e-06	1042.6	482.42	1.5046e-06	1.5883e-06	532.51	221.6	201.91	98.024	1.7716e-06	116.39	1.3719e-05	8.0908e-06	2.2575e-06	888.66	9.8458e-08	8.8913e-08	861.65	377.66	9.9651e-08	8.5032e-08	396.7	166.16	153.62	73.782	9.2789e-08	83.963	68.637	56.124	74.548	-6.502	127.954	96.671	-8.579	-1.964	130.821	124.613	-4.362	0.069	3.051	7.643	118.974	4.066	-8191	255	
2710.797	1	1	0	0	0.071937	0.12392	0.045829	0.30394	0.16776	0.13607	0.092237	0.20864	0.27754	0.14095	0.012884	0.25824	0.20831	0.20316	0.10016	0.065096	-3.3521	-4.2979	-3.5604	-4.0708	-4.2229	-3.5312	-4.2833	-3.9521	-3.7583	-4.3438	-3.8292	-4.1583	-4.1875	-3.7646	-4.1833	-4.1333	110.435	293.881	294.700	255.779	213.054	12.059	43.018	313.984	74.121	-15.216	285.022	257.760	265.838	296.820	25.570	224.563	0.0011536	0.00019107	8.2295e-05	1052.4	1.9529e-06	2.0902e-06	1051.6	482.03	1.787e-06	2.0212e-06	528.29	219.69	201.53	97.162	2.5941e-06	114.97	1.3402e-05	7.7007e-06	2.323e-06	891.95	9.453e-08	8.5338e-08	867.2	377.39	9.5013e-08	8.2939e-08	395.59	164.93	152.85	73.261	9.8867e-08	83.028	68.007	59.633	68.262	-6.404	120.158	86.637	-8.452	-1.957	94.660	144.399	-4.467	-0.040	3.021	7.630	112.289	4.000	-8191	255	
2710.893	1	1	0	0	0.034069	0.25468	0.36923	0.37431	0.090238	0.12622	0.18639	0.091107	0.044722	0.22686	0.16221	0.10313	0.13425	0.34897	0.32433	0.21062	-3.2875	-4.2937	-3.7729	-3.8146	-4.2667	-3.6708	-4.3146	-4.1104	-3.5375	-4.1417	-3.9437	-3.9	-4.2208	-3.7833	-4.1854	-4.2208	130.597	316.558	31.469	337.689	100.325	308.806	276.286	237.813	152.961	145.379	189.871	294.950	284.863	283.177	81.932	270.844	0.0010711	0.00021825	7.2753e-05	1043.8	1.9124e-06	2.2422e-06	1034.3	477.93	1.948e-06	1.3178e-06	523.56	216.05	198.48	95.565	1.3294e-06	112.98	1.3643e-05	7.7386e-06	2.4592e-06	886.76	9.3904e-08	8.5663e-08	856.82	373.66	9.4783e-08	8.3723e-08	390.18	162.23	150.74	72.178	1.0572e-07	81.395	65.094	59.221	74.814	-6.725	107.619	110.018	-8.277	-1.855	100.766	111.166	-4.570	0.203	3.022	7.547	112.761	4.028	-8191	255	
2710.965	1	1	0	0	0.11351	0.21207	0.099378	0.35609	0.17659	0.068472	0.26246	0.4673	0.13133	0.20351	0.17195	0.19348	0.38246	0.12318	0.087406	0.077888	-3.2896	-4.3292	-3.7729	-3.7896	-4.4458	-3.5771	-4.1917	-4.3208	-3.6104	-4.3104	-4.0521	-3.8167	-4.5042	-4.0271	-3.9875	-4.6146	215.054	142.968	49.264	300.820	12.770	328.324	283.492	227.053	8.490	179.468	46.448	54.655	255.089	265.341	93.225	6.733	0.0010657	0.00026244	6.3397e-05	1036.4	1.7759e-06	2.3575e-06	1028.3	473.39	2.0999e-06	2.2779e-06	518.17	214.29	197.12	94.65	1.6127e-06	112.48	1.2969e-05	7.8832e-06	2.5043e-06	880.64	9.0222e-08	8.7478e-08	849.15	370.21	9.3506e-08	8.6391e-08	387.44	161.3	149.87	71.602	1.0471e-07	81.013	70.781	60.137	60.305	-6.631	115.939	119.346	-8.495	-1.877	120.641	111.909	-4.582	-0.056	2.924	7.627	97.598	3.871	-8191	255	
2711.061	1	1	0	0	0.056632	0.12386	0.25835	0.3102	0.098452	0.15755	0.022707	0.15881	0.29699	0.096111	0.1894	0.25696	0.21015	0.022742	0.055261	0.44544	-3.1	-4.2	-3.9021	-3.9479	-4.2354	-3.6312	-4.1167	-4.1958	-3.6813	-4.1937	-4.1792	-3.8438	-4.4875	-3.9771	-3.8979	-4.5062	326.766	60.378	152.472	277.491	322.536	-16.496	50.717	187.564	7.179	320.979	263.057	286.188	-5.218	2.329	255.136	-12.422	0.001053	0.00019766	7.4356e-05	1032.7	2.4365e-06	2.1369e-06	1027.1	473.11	1.6237e-06	1.4483e-06	516.21	214.59	197.04	95.144	1.6834e-06	112.02	1.2696e-05	8.3772e-06	2.5112e-06	876.07	8.6761e-08	9.2999e-08	847.42	370.28	9.0551e-08	9.2375e-08	386.51	161.52	149.85	71.753	1.0679e-07	80.937	68.180	43.438	59.299	-6.630	120.774	99.852	-8.578	-1.767	111.671	118.105	-4.697	-0.025	2.960	7.784	86.991	3.935	-8191	255	
2711.157	1	1	0	0	0.25964	0.15507	0.13996	0.20995	0.06942	0.17376	0.13063	0.059319	0.086184	0.028515	0.25243	0.25744	0.16526	0.16662	0.14972	0.094986	-3.4979	-4.2146	-4.0292	-3.8063	-4.4583	-3.8458	-3.6875	-4.3875	-3.9354	-4.1604	-4.1312	-3.6354	-4.3562	-4.0896	-3.8396	-4.5437	145.631	119.436	88.542	300.295	289.218	274.900	284.771	57.731	40.716	119.682	282.261	-1.731	263.048	15.977	-13.283	22.676	0.0010552	0.0002404	5.4109e-05	1021	2.373e-06	2.3916e-06	1007.5	468.13	2.1335e-06	1.2912e-06	511.85	211.8	195.42	93.694	1.4172e-06	110.28	1.2885e-05	9.0541e-06	2.4e-06	870.11	8.8254e-08	9.893e-08	834.62	366.28	9.4292e-08	1.0001e-07	381.42	159.04	148.39	70.849	1.0693e-07	79.584	68.034	73.715	84.335	-6.642	124.621	108.888	-8.347	-1.802	131.666	112.481	-4.471	-0.153	3.066	7.600	121.900	4.088	-8191	255	
2711.276	1	1	0	0	0.19045	0.14265	0.14816	0.2011	0.41627	0.15276	0.2206	0.11923	0.15857	0.21017	0.033198	0.024138	0.3031	0.22902	0.16767	0.35419	-3.1708	-4.0687	-4.1104	-3.8229	-4.2479	-3.8646	-3.9083	-4.2583	-3.7875	-3.9188	-4.4729	-3.7271	-4.3917	-4.0417	-3.8417	-4.4938	61.625	230.971	163.617	252.405	60.472	288.933	329.400	313.491	210.757	302.952	-11.283	309.975	317.007	-1.111	123.253	296.410	0.0011237	0.00019744	5.857e-05	1011.1	1.973e-06	2.3167e-06	991.84	465.65	2.4611e-06	1.7244e-06	506.32	209.77	194.83	93.979	1.434e-06	110.49	1.3537e-05	9.7411e-06	2.5308e-06	858.99	9.7992e-08	1.0396e-07	820.18	363.67	1.0028e-07	1.042e-07	377.27	157.6	148.18	70.947	1.0428e-07	79.547	67.501	86.769	75.539	-6.580	131.298	101.285	-8.415	-1.758	125.423	129.023	-4.578	0.021	2.859	7.669	121.899	3.984	-8191	255	
2711.372	1	1	0	0	0.12177	0.23505	0.034566	0.058415	0.15546	0.16965	0.064959	0.17154	0.10937	0.26037	0.025381	0.20236	0.1231	0.14285	0.19946	0.26006	-3.5104	-3.8167	-4.1271	-3.7313	-4.1438	-4.0625	-3.7958	-4.4062	-3.8354	-3.9188	-4.5021	-3.6146	-4.3021	-4.1792	-3.6729	-4.3438	254.778	295.294	49.944	43.548	194.810	291.171	196.377	267.912	151.558	157.845	-1.799	237.609	253.585	0.805	243.462	224.717	0.0010258	0.00029493	7.7283e-05	1006	2.1837e-06	2.3398e-06	989.75	466.82	2.2606e-06	8.252e-07	509.51	211.39	196.19	94.324	2.149e-06	111.12	1.3912e-05	9.6135e-06	2.4394e-06	855.12	1.0117e-07	9.9186e-08	819.02	364.99	1.0209e-07	9.2875e-08	379.63	158.96	149.03	71.228	9.6061e-08	80.185	66.576	57.650	67.783	-6.544	122.977	103.565	-8.512	-1.896	100.044	121.823	-4.578	-0.037	3.073	7.708	117.507	3.934	-8191	255	
2711.468	1	1	0	0	0.25371	0.054293	0.066288	0.26687	0.050396	0.11229	0.2014	0.057595	0.29193	0.054848	0.054094	0.10793	0.2443	0.29325	0.26623	0.30729	-3.3604	-3.875	-4.2396	-3.8	-3.9458	-4.1521	-3.7062	-4.2604	-4.0729	-3.9229	-4.4	-3.9833	-4.1708	-4.3562	-3.6375	-4.3417	231.976	91.331	196.643	265.842	43.997	-12.236	301.933	332.767	274.976	305.003	281.467	305.635	297.111	334.589	75.937	255.540	0.001048	0.0002302	6.9039e-05	1017	2.0341e-06	2.3803e-06	1002.8	469.32	1.306e-06	1.9458e-06	514.77	212.92	197.12	94.608	1.7442e-06	111.5	1.3986e-05	8.5638e-06	2.1831e-06	861.93	1.02e-07	8.9849e-08	828.39	367.45	9.9371e-08	8.8494e-08	383.17	159.99	149.57	71.315	8.9522e-08	80.242	65.432	70.811	81.348	-6.591	127.114	97.501	-8.392	-1.745	134.171	110.818	-4.518	0.065	3.072	7.636	94.542	3.904	-8191	255	
2711.564	1	1	0	0	0.19837	0.20114	0.31136	0.082652	0.21759	0.15976	0.20682	0.25025	0.082835	0.2819	0.24819	0.14485	0.21789	0.21187	0.23154	0.20311	-3.5104	-3.6771	-4.3438	-3.8021	-3.8688	-4.2646	-3.7438	-4.375	-4.0437	-3.8083	-4.3	-3.8688	-4.1354	-4.4708	-3.5187	-4.2042	-2.953	303.716	190.109	-19.035	12.341	236.210	-6.960	275.699	329.840	118.072	271.170	216.578	227.553	20.348	97.752	267.623	0.0010377	0.00018354	6.5357e-05	1008.9	2.1568e-06	1.8127e-06	998.96	464.77	2.0794e-06	1.5803e-06	507.99	209.93	195.48	94.177	1.7094e-06	110.36	1.3598e-05	8.2413e-06	2.089e-06	858.64	9.8488e-08	8.6423e-08	823.97	365.1	1.0059e-07	8.6301e-08	378.55	157.95	148.41	71.021	8.8771e-08	79.446	68.253	45.014	54.927	-6.598	133.702	96.039	-8.374	-1.865	114.378	117.742	-4.596	-0.097	2.969	7.698	98.072	3.751	-8191	255	
2711.660	1	1	0	0	0.038378	0.11704	0.07916	0.12123	0.15226	0.12977	0.11007	0.13658	0.060199	0.056021	0.084742	0.28268	0.24012	0.20491	0.011032	0.11539	-3.6396	-3.7188	-4.3333	-3.7479	-3.9333	-4.2229	-3.7562	-4.2021	-4.2042	-3.6646	-4.3583	-4.0333	-3.9771	-4.4625	-3.7854	-4.1604	82.927	269.994	327.252	-19.782	-0.416	29.953	-8.905	324.388	310.175	149.374	-16.373	336.092	246.079	323.568	102.752	238.333	0.0010146	0.00020866	6.9487e-05	1009.5	2.0929e-06	2.4117e-06	992.72	466.18	2.1114e-06	1.4236e-06	506.64	209.73	195.69	94.15	1.4179e-06	110.39	1.3222e-05	8.0986e-06	1.9871e-06	857.47	9.426e-08	8.4843e-08	819.88	365.12	9.5529e-08	8.5836e-08	377.67	157.78	148.53	70.99	8.8962e-08	79.582	69.413	60.572	73.518	-6.723	109.939	101.793	-8.518	-1.883	101.225	110.456	-4.419	-0.000	3.085	7.402	116.113	3.844	-8191	255	
2711.757	1	1	0	0	0.18549	0.24925	0.32662	0.30066	0.17488	0.19446	0.24701	0.15039	0.22671	0.11669	0.080315	0.14485	0.26395	0.46643	0.17052	0.18554	-3.8375	-3.525	-3.9708	-3.9708	-3.8167	-4.2438	-3.8792	-4.0271	-4.2333	-3.6479	-4.3354	-4.0521	-3.8625	-4.4583	-3.6604	-4.2042	95.925	209.628	290.140	301.957	263.753	321.489	241.037	310.392	202.746	102.964	159.550	298.898	292.131	-14.200	126.695	266.764	0.001019	0.00019897	6.9958e-05	1011.6	2.8062e-06	2.1926e-06	1000.6	469.92	1.8463e-06	1.7828e-06	513.74	213.01	197.4	95.193	1.9971e-06	112.34	1.2621e-05	7.4409e-06	2.0681e-06	860.6	9.2011e-08	8.0292e-08	826.37	367.57	9.0691e-08	8.0506e-08	382.6	159.82	149.81	71.859	9.3929e-08	80.953	66.509	63.463	74.133	-6.386	123.347	99.937	-8.316	-1.711	131.253	114.265	-4.742	-0.177	2.920	7.559	122.528	4.020	-8191	255	
2711.877	1	1	0	0	0.1387	0.29358	0.17856	0.20059	0.25594	0.033887	0.23607	0.12496	0.27153	0.21086	0.04924	0.1855	0.28442	0.16611	0.17963	0.23363	-3.825	-3.6604	-4.2021	-4.0563	-3.725	-4.2583	-3.7104	-3.9083	-4.1396	-3.4521	-4.2667	-4.0396	-3.875	-4.3771	-3.8292	-4.0292	283.091	83.314	71.626	13.474	83.256	141.002	37.379	278.109	322.806	292.517	-8.036	0.046	3.527	-0.855	196.561	331.957	0.0011529	0.00019059	6.2171e-05	1017.4	2.1988e-06	2.6785e-06	1009.7	474.12	2.2273e-06	1.5213e-06	519.67	215.57	199	96.089	1.7538e-06	113.07	1.2931e-05	7.5612e-06	2.1765e-06	866.35	8.9601e-08	7.9281e-08	836.52	370.94	9.3526e-08	8.0406e-08	386.99	161.91	151.1	72.498	1.0448e-07	81.765	68.259	66.712	67.427	-6.606	134.313	104.511	-8.244	-1.691	117.788	119.026	-4.620	-0.139	3.042	7.813	114.817	4.018	-8191	255	
2711.973	1	1	0	0	0.060424	0.12705	0.1428	0.20255	0.11705	0.16891	0.10474	0.17506	0.075679	0.21389	0.04572	0.23191	0.18961	0.28938	0.11491	0.087313	-3.9167	-3.8125	-4.0292	-4.2312	-3.6042	-4.2667	-4.0188	-4.1292	-4.1167	-3.75	-4.05	-4.2417	-3.5896	-4.5646	-3.7979	-3.8375	66.651	294.606	43.956	213.462	157.040	329.776	337.908	148.198	22.016	60.059	308.717	279.287	253.699	312.629	153.800	181.498	0.0011021	0.00022455	6.2768e-05	1023.4	2.6818e-06	1.5774e-06	1012.3	475.24	2.3525e-06	1.8246e-06	518.83	215.01	200.05	96.318	1.8093e-06	113.19	1.2989e-05	7.8942e-06	2.3705e-06	869.79	8.877e-08	7.9506e-08	837.33	371.21	8.9273e-08	8.4533e-08	386.66	161.78	151.54	72.65	1.0477e-07	81.757	68.362	54.133	74.707	-6.592	107.576	85.109	-8.482	-2.028	123.010	125.573	-4.569	-0.047	3.068	7.541	102.367	4.025	-8191	255	
2712.069	1	1	0	0	0.055337	0.13084	0.20898	0.1422	0.075042	0.15944	0.19345	0.40581	0.13368	0.041075	0.076085	0.24805	0.31578	0.15507	0.10854	0.18048	-3.9625	-3.7792	-3.7875	-4.3271	-3.5042	-4.1062	-3.9646	-3.8229	-4.2354	-3.7979	-4.1146	-4.2354	-3.6958	-4.2667	-3.9729	-3.8146	15.842	-19.201	-19.565	239.709	91.202	321.339	131.698	313.847	316.119	159.687	304.269	327.039	318.854	333.771	224.734	236.372	0.0011571	0.00022935	8.4994e-05	1028.3	2.3673e-06	1.7941e-06	1019.8	476.08	1.5849e-06	1.7441e-06	520.89	215.81	199.64	96.391	1.8432e-06	113.72	1.271e-05	8.2582e-06	2.4555e-06	874.11	8.7041e-08	8.5538e-08	843.91	372.45	8.4766e-08	8.8274e-08	389.35	162.45	151.49	72.734	9.7046e-08	82.1	65.130	57.222	73.912	-6.466	129.481	108.772	-8.388	-1.678	112.963	113.254	-4.556	-0.119	2.884	7.526	105.961	3.955	-8191	255	
2712.190	1	1	0	0	0.23673	0.11412	0.053823	0.18724	0.13307	0.17755	0.16175	0.28007	0.17966	0.23834	0.2459	0.28061	0.075831	0.13436	0.1174	0.10579	-3.7833	-3.9188	-3.85	-4.3479	-3.4604	-4.1521	-3.9958	-3.8917	-4.1979	-3.85	-3.8104	-4.3812	-3.6625	-4.2979	-3.9875	-3.8563	-12.956	-16.318	151.267	32.490	51.933	163.307	236.357	256.955	336.324	96.887	314.265	296.879	21.393	263.205	134.373	282.605	0.0010932	0.00015774	6.147e-05	1035.2	2.0661e-06	1.6704e-06	1023.7	477.4	1.8562e-06	2.1406e-06	524.84	218.2	200.42	96.884	2.133e-06	114.59	1.2117e-05	8.2418e-06	2.2959e-06	878.98	8.6726e-08	9.1414e-08	850.33	373.89	8.4941e-08	9.2895e-08	391.67	163.8	152.27	73.24	9.5155e-08	82.685	66.754	67.418	55.175	-6.461	124.379	103.276	-8.544	-1.718	128.031	118.687	-4.562	-0.032	3.136	7.618	119.738	3.910	-8191	255	
2712.260	1	1	0	0	0.29637	0.092571	0.31951	0.084164	0.049143	0.15291	0.067363	0.19735	0.14155	0.12593	0.20602	0.18042	0.18619	0.39782	0.13621	0.022844	-4.0042	-3.8688	-3.8875	-4.5938	-3.8167	-3.9875	-4.1333	-3.8	-4.2958	-3.825	-3.875	-4.4313	-3.7188	-4.1854	-4.1792	-3.7	306.515	327.939	244.896	209.836	240.757	257.317	41.721	306.524	272.390	78.617	282.329	34.050	277.830	339.697	56.159	126.421	0.0010888	0.00015737	7.7929e-05	1032.7	2.2803e-06	1.5896e-06	1029.9	476.79	1.5197e-06	2.1044e-06	523.89	217.06	200.02	96.485	2.0156e-06	113.47	1.2663e-05	8.8524e-06	2.3137e-06	879.24	9.0628e-08	9.4525e-08	851.8	373.88	9.1457e-08	9.6492e-08	390.66	163.09	151.9	72.773	9.4415e-08	81.968	66.184	51.474	68.246	-6.516	142.853	109.077	-8.305	-1.700	116.244	113.644	-4.435	-0.047	2.990	7.519	104.360	3.789	-8191	255	
2712.356	1	1	0	0	0.049202	0.24023	0.21112	0.11365	0.21162	0.22836	0.21026	0.12773	0.25462	0.10468	0.24801	0.20737	0.15642	0.20917	0.020392	0.34022	-3.8292	-4.0667	-3.5542	-4.4604	-3.8708	-3.9646	-4.1833	-3.6104	-4.0958	-4.05	-3.8292	-4.3771	-3.8667	-4.2333	-4.0646	-3.8417	304.600	10.764	132.643	19.363	-19.767	76.319	250.643	181.860	76.943	-0.015	339.648	318.715	-19.272	-6.527	311.510	160.321	0.0011211	0.00024688	6.1136e-05	1029.7	2.1037e-06	2.4294e-06	1019	473.38	2.173e-06	1.6592e-06	518.14	214.73	197.37	95.251	1.3066e-06	111.81	1.294e-05	8.857e-06	2.2677e-06	873.86	9.4019e-08	9.3084e-08	841.78	370.62	9.6045e-08	9.2285e-08	386.1	160.79	150.33	71.909	9.1318e-08	80.697	68.149	54.187	76.097	-6.511	136.640	104.975	-8.400	-1.824	121.668	120.158	-4.597	-0.085	3.001	7.637	126.020	3.983	-8191	255	
2712.452	1	1	0	0	0.32377	0.11784	0.11061	0.07741	0.20947	0.22828	0.15897	0.10011	0.023514	0.16229	0.20444	0.2185	0.16657	0.13078	0.16839	0.14278	-3.6375	-4.15	-3.5771	-4.5375	-3.7917	-4.0229	-4.3313	-3.8167	-4.2583	-4.1813	-3.8521	-4.3	-3.9542	-3.9771	-4.3167	-4.0292	135.196	241.959	132.343	205.567	317.031	322.599	239.230	-18.892	187.698	245.129	288.286	268.112	285.544	285.906	17.886	267.366	0.0010248	0.00023795	8.1756e-05	1023	2.2154e-06	2.1227e-06	1010.9	467.95	1.6642e-06	1.7254e-06	513.36	212.07	195.75	94.311	1.6817e-06	110.69	1.3226e-05	8.3365e-06	2.2364e-06	866.81	9.8177e-08	9.0984e-08	834.74	367.72	1.0032e-07	8.9028e-08	382.57	159.08	148.92	71.083	9.0372e-08	79.818	64.978	55.479	64.594	-6.521	107.956	95.347	-8.298	-1.842	101.464	112.016	-4.642	-0.257	2.852	7.693	132.744	3.932	-8191	255	
2712.573	1	1	0	0	0.21034	0.13214	0.12236	0.18629	0.044385	0.26281	0.15821	0.2277	0.1639	0.072806	0.11222	0.12484	0.11104	0.2008	0.084453	0.06902	-3.7	-4.1708	-3.6083	-4.3	-4.0083	-3.7604	-4.5021	-3.8625	-3.8521	-4.3271	-3.6729	-4.3167	-4.1542	-3.8854	-4.3417	-3.7875	306.384	45.137	88.877	335.700	48.907	61.843	204.740	289.542	6.136	265.020	323.591	336.415	13.995	299.156	-17.352	46.905	0.0011392	0.00023616	4.5817e-05	1016.1	2.3565e-06	2.1561e-06	999.22	466.86	2.2914e-06	2.0125e-06	511.6	212.14	195.5	93.715	1.8172e-06	110.46	1.374e-05	8.1434e-06	2.1008e-06	863	9.9645e-08	8.7073e-08	828.4	365.53	9.908e-08	8.3943e-08	381.13	159.1	148.36	70.723	8.5224e-08	79.736	68.880	38.815	72.019	-6.795	120.256	97.911	-8.632	-1.855	118.224	127.847	-4.549	-0.018	3.033	7.615	117.795	3.830	-8191	255	
2712.669	1	1	0	0	0.16364	0.19632	0.044242	0.15982	0.11298	0.18944	0.10967	0.13793	0.029023	0.026513	0.25587	0.21312	0.10922	0.17489	0.23653	0.098496	-3.5271	-4.2354	-3.6271	-4.3083	-4.0458	-3.6729	-4.3375	-3.9021	-3.9354	-4.2292	-3.625	-4.2646	-4.1104	-3.8021	-4.3292	-3.9083	271.568	-2.115	-10.429	-18.350	2.606	265.518	122.751	230.409	29.779	265.352	-8.321	264.125	272.190	273.623	194.121	261.568	0.0010617	0.00019136	7.5473e-05	1012.9	1.8708e-06	2.3353e-06	1004.8	465.5	2.0202e-06	1.6907e-06	510.73	211.25	193.93	92.686	1.3702e-06	108.67	1.3238e-05	7.6408e-06	2.0407e-06	860.52	9.3323e-08	8.4072e-08	830.7	364.77	9.1753e-08	7.8103e-08	381.16	158.69	147.64	70.005	8.0592e-08	78.653	68.860	53.749	64.450	-6.531	129.928	103.371	-8.435	-1.798	94.371	99.729	-4.703	0.085	3.051	7.542	123.973	3.744	-8191	255	
2712.765	1	1	0	0	0.20712	0.20298	0.17299	0.18482	0.24701	0.11587	0.15416	0.37811	0.15156	0.16895	0.17326	0.025493	0.2426	0.20026	0.27562	0.04357	-3.3708	-4.2812	-3.7375	-4.0792	-4.05	-3.5875	-4.3812	-4.0563	-3.8	-4.5229	-3.7729	-4.15	-4.3792	-3.7667	-4.3833	-4.1375	-5.611	189.775	62.387	279.909	25.310	258.123	-1.990	274.215	120.113	200.966	61.290	20.611	6.533	303.454	100.670	231.009	0.0010508	0.00021774	6.7603e-05	1006.7	2.1198e-06	2.045e-06	999.57	461.17	1.8034e-06	1.9018e-06	505.95	208.71	192.68	91.655	1.7597e-06	107.85	1.2266e-05	7.0905e-06	1.9913e-06	857.97	8.5764e-08	7.6671e-08	827.39	361.27	8.6985e-08	7.5751e-08	377.08	156.61	146.23	69.261	8.575e-08	77.823	69.808	58.433	63.345	-6.826	123.658	111.553	-8.552	-1.828	116.802	128.400	-4.765	-0.032	2.814	7.436	109.244	3.733	-8191	255	
2712.837	1	1	0	0	0.066284	0.16936	0.12618	0.16065	0.052647	0.1009	0.26701	0.19567	0.25457	0.26918	0.24344	0.29468	0.1313	0.2734	0.22697	0.14185	-3.4833	-4.3562	-3.6625	-4.1146	-4.2063	-3.6625	-4.2562	-4.1188	-3.7208	-4.2729	-3.8521	-4.0458	-4.4	-3.6937	-4.1229	-4.1833	-14.190	140.079	129.103	16.703	228.381	318.438	304.417	232.453	244.979	198.888	300.391	243.873	114.694	324.428	144.861	262.930	0.0010297	0.00023341	8.5622e-05	1009.3	1.7106e-06	2.6562e-06	998.11	463.06	1.653e-06	2.0452e-06	506.53	208.26	192.31	91.72	1.707e-06	107.71	1.2061e-05	6.9089e-06	2.1175e-06	857.29	8.38e-08	7.492e-08	824.2	361.6	8.6163e-08	7.3747e-08	377.11	156.77	146.12	69.231	9.1863e-08	77.866	66.202	41.595	76.744	-6.612	114.881	106.841	-8.481	-1.768	102.043	120.498	-4.495	-0.178	2.883	7.345	103.663	3.973	-8191	255	
2712.958	1	1	0	0	0.18657	0.11428	0.097409	0.14182	0.09108	0.10709	0.14479	0.18268	0.066372	0.068858	0.18255	0.2242	0.031141	0.13346	0.16429	0.33866	-3.0854	-4.2396	-3.8333	-3.8833	-4.175	-3.7417	-4.0146	-4.1417	-3.5938	-4.2208	-4.0104	-3.9854	-4.3063	-3.7875	-4.1	-4.2188	90.046	209.008	-7.700	12.585	24.644	336.981	300.243	334.813	159.715	3.350	69.407	290.692	272.927	281.152	240.634	285.933	0.0010018	0.00020766	6.8809e-05	1006	2.1288e-06	2.4197e-06	994.07	461.2	1.6971e-06	1.9436e-06	506.31	209.71	192.09	91.88	1.5422e-06	109.17	1.2404e-05	6.94e-06	2.2973e-06	856.56	8.3575e-08	7.7546e-08	825.13	361.03	8.6594e-08	7.6974e-08	378.23	157.47	146.28	69.409	9.2839e-08	78.644	70.392	56.294	68.628	-6.811	115.102	99.977	-8.555	-1.808	106.929	115.218	-4.470	0.081	3.076	7.470	115.718	3.881	-8191	255	
2713.054	1	1	0	0	0.15174	0.13119	0.087271	0.14858	0.026711	0.21987	0.34326	0.32938	0.19089	0.20404	0.13579	0.14977	0.27706	0.11393	0.25004	0.17635	-3.1937	-4.0917	-3.7188	-3.9021	-4.2625	-3.8854	-4.0437	-4.2562	-3.4333	-4.1542	-4.1333	-3.6917	-4.425	-4.0125	-3.95	-4.4604	176.176	124.389	111.413	260.884	172.729	121.302	296.202	326.516	42.696	171.422	215.338	316.934	270.444	23.922	192.978	113.125	0.0010248	0.0002226	8.1736e-05	1013.8	1.8912e-06	2.0704e-06	1014.3	466.53	1.7483e-06	1.8283e-06	513.45	211.47	193.85	92.438	1.5796e-06	109.79	1.203e-05	6.9656e-06	2.2037e-06	862.33	7.8916e-08	7.9331e-08	836.71	364.33	7.9191e-08	7.7019e-08	383.21	158.97	147.42	69.805	9.0267e-08	79.042	64.223	60.583	56.942	-6.611	127.271	100.992	-8.502	-2.037	110.904	133.205	-4.607	-0.201	2.977	7.628	93.758	3.847	-8191	255	
2713.150	1	1	0	0	0.051259	0.092205	0.12383	0.087349	0.11772	0.21108	0.042951	0.36471	0.25911	0.16205	0.18314	0.11362	0.36734	0.25904	0.017023	0.15904	-3.1208	-4.1271	-4.1104	-3.7562	-4.3625	-3.7375	-4.0167	-4.4625	-3.5604	-4.0875	-4.1	-3.8208	-4.1896	-3.8896	-3.8917	-4.3729	23.621	323.842	303.262	259.402	141.908	146.001	261.540	295.133	114.335	257.761	45.292	289.916	312.774	320.077	259.268	240.579	0.001065	0.00019651	5.8154e-05	1024.2	1.9728e-06	1.7261e-06	1022.6	466.7	1.8561e-06	1.6243e-06	514.59	211.85	194.12	92.463	1.3052e-06	108.87	1.16e-05	7.3938e-06	2.1244e-06	870.23	7.3346e-08	8.1517e-08	844.26	366.12	7.4738e-08	7.8213e-08	383.33	158.65	147.45	69.786	8.7171e-08	78.461	65.864	60.875	70.294	-6.731	120.557	113.566	-8.315	-1.766	131.945	125.852	-4.468	0.011	2.716	7.546	156.029	3.688	-8191	255	
2713.270	1	1	0	0	0.065936	0.16974	0.19523	0.16949	0.21264	0.043438	0.12189	0.19423	0.23467	0.099485	0.0451	0.20501	0.098117	0.32516	0.12381	0.067723	-3.4021	-4.1312	-3.9667	-3.7	-4.1042	-3.9583	-3.9375	-4.45	-3.5875	-3.9604	-4.2792	-3.7271	-4.2562	-4.0958	-3.7771	-4.4229	131.405	236.694	149.470	301.905	253.971	190.348	145.948	336.694	91.007	110.357	298.075	96.899	0.012	299.187	16.028	4.765	0.0010452	0.00017019	6.1843e-05	1022.2	2.0786e-06	2.3938e-06	1016.8	465.81	1.9584e-06	2.1567e-06	514.21	211.09	194.08	92.349	1.2043e-06	109.1	1.161e-05	7.7784e-06	2.0316e-06	866.97	7.6893e-08	8.4432e-08	839.51	364.09	7.9432e-08	8.0067e-08	382.57	158.43	147.32	69.636	8.3493e-08	78.724	67.566	54.680	76.231	-6.513	136.221	110.826	-8.502	-1.932	96.221	126.534	-4.836	-0.096	2.963	7.451	118.533	3.749	-8191	255	
2713.365	1	1	0	0	0.17517	0.27131	0.1896	0.27033	0.10265	0.21783	0.1875	0.06163	0.12771	0.11533	0.36103	0.13709	0.12225	0.31114	0.046269	0.12948	-3.0938	-3.9292	-4.2208	-3.675	-4.2312	-3.9958	-3.8333	-4.4417	-3.7625	-3.8771	-4.4521	-3.7646	-4.2562	-4.2875	-3.5146	-4.4625	136.409	119.424	58.080	276.294	189.030	-8.178	290.710	44.030	126.778	55.336	308.478	234.818	320.100	-7.367	257.921	233.173	0.0011078	0.00022082	7.1291e-05	1028.9	2.1536e-06	1.9273e-06	1027.3	468.52	2.2405e-06	1.9809e-06	521.15	214.11	195.57	93.051	1.7278e-06	110.34	1.1785e-05	7.4852e-06	1.9116e-06	872.03	7.7604e-08	8.0502e-08	847.02	367.24	8.1525e-08	7.9942e-08	387.31	160.52	148.45	70.126	7.9446e-08	79.516	65.422	55.239	72.959	-6.797	142.088	118.612	-8.484	-1.780	115.288	117.009	-4.645	-0.074	2.747	7.533	98.045	3.825	-8191	255	
2713.461	1	1	0	0	0.076685	0.088746	0.051222	0.10542	0.20743	0.12592	0.17563	0.027263	0.050732	0.25514	0.19713	0.13277	0.10243	0.14587	0.23918	0.35362	-3.4583	-3.7646	-4.2896	-3.6229	-4.0646	-4.1271	-3.6937	-4.3896	-3.8187	-3.8292	-4.4062	-3.7083	-4.3083	-4.2729	-3.5667	-4.4062	89.187	148.920	150.752	150.884	60.094	70.256	39.976	0.812	105.986	43.902	281.470	275.158	303.488	332.718	241.610	292.255	0.0010295	0.00023131	5.2886e-05	1029.8	2.2151e-06	2.4015e-06	1030.7	471.76	1.6004e-06	1.727e-06	522.02	214.26	195.82	93.171	1.6563e-06	109.98	1.1852e-05	7.0343e-06	1.7607e-06	875.67	8.1922e-08	7.5711e-08	850.48	368.63	8.5497e-08	7.673e-08	388	160.51	148.75	70.328	7.6249e-08	79.352	66.771	59.702	71.136	-7.016	136.444	95.710	-8.548	-1.852	124.308	118.321	-4.757	-0.122	2.971	7.410	124.703	3.683	-8191	255	
2713.557	1	1	0	0	0.090889	0.15251	0.09714	0.11216	0.15148	0.16455	0.20953	0.081103	0.11262	0.36651	0.24044	0.20419	0.049722	0.24839	0.12734	0.030965	-3.5896	-3.7938	-4.2688	-3.7375	-4.1729	-4.0167	-3.6208	-4.3375	-4.0188	-3.6375	-4.3562	-3.8604	-3.9771	-4.4354	-3.5146	-4.3729	143.631	81.057	290.659	254.164	204.969	179.236	333.711	299.888	278.276	73.387	307.492	172.411	68.500	-0.845	207.847	-16.896	0.0010322	0.00021409	7.3257e-05	1026.3	1.9284e-06	1.7414e-06	1025.3	470.39	1.8193e-06	1.346e-06	516.14	212.05	195.04	92.72	1.8161e-06	109.32	1.2021e-05	6.7996e-06	1.7665e-06	873.5	8.1902e-08	6.9789e-08	845.72	367.9	8.6238e-08	7.2534e-08	384.69	159.05	147.99	69.895	7.3167e-08	78.678	65.310	58.715	79.184	-6.596	130.482	97.558	-8.514	-1.945	94.043	132.454	-4.827	-0.146	2.919	7.438	99.690	3.720	-8191	255	
2713.653	1	1	0	0	0.25112	0.29583	0.21653	0.27512	0.079715	0.038634	0.12809	0.42839	0.0937	0.14878	0.24077	0.19529	0.17551	0.34455	0.18705	0.1267	-3.6604	-3.7667	-4.275	-3.8667	-3.9646	-4.2229	-3.8521	-4.3896	-3.9208	-3.7021	-4.3271	-3.9813	-4.0479	-4.3771	-3.5958	-4.3688	183.927	330.485	183.171	289.385	158.805	145.649	266.194	325.066	28.670	169.687	227.236	221.252	241.648	286.021	200.059	214.964	0.0010687	0.00017353	6.8255e-05	1027.1	2.2295e-06	2.6174e-06	1023.1	471.3	2.1478e-06	1.3316e-06	518.59	213.16	195.77	92.947	1.3632e-06	110.22	1.1832e-05	6.5439e-06	1.65e-06	873.42	8.0479e-08	7.177e-08	845.65	368.39	8.2317e-08	7.3862e-08	386.18	159.83	148.47	70.272	7.6179e-08	79.357	66.377	58.924	66.814	-6.696	120.324	113.632	-8.536	-1.965	121.362	108.335	-4.687	-0.193	2.834	7.375	123.115	3.852	-8191	255	
2713.749	1	1	0	0	0.093849	0.1404	0.1257	0.037651	0.12591	0.15537	0.20292	0.068914	0.16897	0.11604	0.14352	0.032231	0.19762	0.24942	0.11931	0.34999	-3.6688	-3.6833	-4.2729	-3.7521	-3.8479	-4.1917	-3.7938	-4.1229	-4.1125	-3.5479	-4.4542	-3.9125	-3.7438	-4.3333	-3.6604	-4.0917	252.737	184.930	59.031	69.305	165.967	246.231	238.311	41.198	-7.027	78.517	291.595	10.660	208.932	312.284	230.802	308.931	0.0010486	0.00023262	8.0678e-05	1029	2.5215e-06	2.2236e-06	1033.7	473.76	1.8232e-06	1.3111e-06	525.29	215.6	196.96	93.885	1.6021e-06	110.98	1.1891e-05	6.9222e-06	1.8004e-06	875.53	8.2433e-08	6.9579e-08	853.53	370.02	8.0839e-08	7.1514e-08	390.52	161.7	149.54	70.671	8.0927e-08	80.22	69.342	48.910	70.267	-6.688	138.932	73.526	-8.381	-1.902	114.667	110.778	-4.820	-0.212	3.000	7.326	110.080	3.777	-8191	255	
2713.870	1	1	0	0	0.16319	0.24003	0.07693	0.21171	0.083724	0.14336	0.21051	0.1418	0.11376	0.11975	0.16128	0.078682	0.186	0.28101	0.065452	0.035804	-3.7354	-3.4	-4.1625	-4.1208	-3.6479	-4.4458	-3.8417	-4.0125	-4.2354	-3.5625	-4.4208	-4.0417	-3.8812	-4.3438	-3.7792	-3.9771	96.062	238.177	108.999	217.235	68.508	42.145	-6.420	3.612	-13.837	113.469	305.187	47.516	305.828	-6.672	299.499	310.733	0.001046	0.00024094	6.0677e-05	1039	2.1485e-06	2.4374e-06	1042.5	475.64	1.879e-06	2.1427e-06	529.1	215.47	197.32	94.343	1.7637e-06	111.99	1.1954e-05	6.7214e-06	1.8738e-06	881.47	8.093e-08	6.7414e-08	859.74	371.87	7.9361e-08	6.9751e-08	392.84	161.84	149.93	71.185	8.602e-08	80.585	67.119	60.093	82.352	-6.951	121.731	101.168	-8.609	-1.979	113.411	121.593	-4.634	0.016	3.045	7.457	100.118	3.745	-8191	255	
2713.966	1	1	0	0	0.1033	0.32657	0.1167	0.1111	0.074652	0.16546	0.18608	0.049721	0.09251	0.070993	0.15317	0.15562	0.10288	0.26501	0.1062	0.20457	-3.8625	-3.3937	-4.1292	-4.0979	-3.7354	-4.3167	-3.9271	-4.0437	-4.2229	-3.5854	-4.0583	-4.1333	-3.7542	-4.5208	-3.7313	-3.8896	180.567	269.407	172.991	309.019	290.032	15.080	239.770	321.830	165.886	248.965	244.116	251.976	230.516	264.665	241.631	338.064	0.0010601	0.00017599	8.6243e-05	1035	1.9851e-06	2.3274e-06	1042.6	477.92	1.721e-06	1.5181e-06	528.42	215.5	198.45	94.565	1.4503e-06	111.88	1.1618e-05	6.7804e-06	2.0807e-06	881.86	8.0955e-08	7.119e-08	858.78	373.13	8.1165e-08	7.0575e-08	392.82	162.02	150.57	71.404	8.9227e-08	80.708	73.302	51.119	74.881	-6.666	109.600	85.948	-8.375	-1.876	123.396	129.112	-4.721	-0.297	2.958	7.421	122.801	3.732	-8191	255	
2714.062	1	1	0	0	0.047513	0.089573	0.12151	0.2214	0.11944	0.092209	0.10509	0.15821	0.083604	0.098151	0.11199	0.10727	0.061677	0.13196	0.18829	0.31043	-3.8604	-3.7062	-4.0563	-4.1396	-3.4771	-4.2042	-4.0521	-3.8292	-4.3271	-3.6688	-4.0667	-4.4583	-3.5875	-4.4667	-3.8854	-3.9458	113.132	137.907	297.771	306.591	74.265	26.529	-15.916	111.565	254.130	312.624	-14.151	315.470	227.501	304.511	292.373	288.465	0.0010752	0.00020998	7.6019e-05	1042.6	1.6114e-06	2.094e-06	1042.1	479.57	2.3742e-06	1.4733e-06	530.68	217.93	198.81	95.065	1.2493e-06	112.73	1.1527e-05	6.8344e-06	2.0927e-06	884.84	7.8155e-08	7.1845e-08	860.42	374.83	7.4568e-08	7.2648e-08	395.21	163.32	151.3	71.787	8.7376e-08	81.38	67.444	73.145	73.205	-6.654	124.604	106.535	-8.526	-2.057	111.904	129.206	-4.793	-0.097	2.952	7.519	110.682	3.784	-8191	255	
2714.134	1	1	0	0	0.2299	0.23274	0.2015	0.078459	0.18817	0.18196	0.1264	0.31707	0.18817	0.23709	0.17889	0.049599	0.20916	0.16223	0.25976	0.31337	-3.8521	-3.6104	-3.8333	-4.2792	-3.6083	-4.1896	-4.0646	-3.7333	-4.3417	-3.6437	-3.9875	-4.3812	-3.7854	-4.1854	-3.9792	-3.7146	272.908	8.838	68.421	317.026	298.413	152.587	87.512	178.531	202.208	147.427	206.040	86.288	70.081	322.717	195.714	320.654	0.0010892	0.00017535	7.1298e-05	1045.5	1.9028e-06	2.0606e-06	1043.5	482.64	1.8114e-06	1.5567e-06	533.17	219.69	199.83	95.559	1.7972e-06	113.26	1.1065e-05	7.0384e-06	2.0183e-06	888.27	7.3862e-08	7.458e-08	864.48	377.43	7.3707e-08	7.7844e-08	397.55	164.57	152.1	72.179	8.607e-08	81.663	67.789	60.459	73.343	-6.536	111.460	99.869	-8.375	-1.718	118.392	127.415	-4.612	0.055	2.838	7.312	110.461	3.796	-8191	255	
2714.253	1	1	0	0	0.10198	0.012008	0.27206	0.30997	0.13806	0.18141	0.14148	0.21046	0.13499	0.058717	0.26138	0.10052	0.067805	0.083524	0.34122	0.11851	-3.925	-3.6542	-3.7562	-4.4	-3.5979	-4.0833	-4.0687	-3.7583	-4.0938	-4.0813	-3.8438	-4.4104	-3.6021	-4.2146	-4.0771	-3.6708	226.771	256.358	-3.438	336.208	125.508	78.542	337.384	211.909	67.287	285.099	-3.106	287.317	334.527	296.727	154.520	255.585	0.001135	0.00023055	8.1277e-05	1038.6	2.7336e-06	2.64e-06	1034.1	478.23	1.8552e-06	1.859e-06	527.62	215.06	197.17	94.312	1.4969e-06	111.05	1.1455e-05	7.4226e-06	2.0297e-06	884.43	7.6332e-08	8.2527e-08	857.53	374.18	7.7002e-08	8.4877e-08	392.25	161.49	150.18	71.122	8.4734e-08	79.972	70.583	59.015	71.442	-6.693	114.758	97.500	-8.269	-2.028	120.965	111.159	-4.576	-0.208	2.846	7.458	103.036	3.728	-8191	255	
2714.349	1	1	0	0	0.11447	0.28801	0.1023	0.022483	0.21988	0.045693	0.2443	0.12929	0.24755	0.27647	0.080104	0.20618	0.1133	0.15961	0.076242	0.29078	-3.9458	-3.8583	-3.6021	-4.525	-3.6604	-3.9875	-4.2688	-3.7521	-4.2042	-4.1375	-3.5958	-4.2667	-3.7812	-3.9667	-4.0354	-3.6354	268.959	308.525	48.211	52.052	-6.502	169.876	311.580	252.502	149.546	254.470	178.072	223.826	299.381	277.102	227.883	333.386	0.0010428	0.00016908	6.5575e-05	1031.5	1.9851e-06	2.6912e-06	1019.5	472.91	1.3817e-06	1.6791e-06	520.62	212.1	195.88	93.054	1.7946e-06	109.38	1.1605e-05	7.5836e-06	1.9925e-06	874.95	8.0785e-08	8.0367e-08	843.34	369.81	8.119e-08	8.0726e-08	386.46	159.12	148.87	70.382	8.2438e-08	78.726	66.369	45.896	60.584	-6.735	122.279	103.482	-8.429	-2.053	121.009	127.235	-4.590	-0.213	2.973	7.483	94.956	3.610	-8191	255	
2714.445	1	1	0	0	0.08029	0.2362	0.20623	0.10242	0.22441	0.18531	0.12053	0.052436	0.16338	0.095012	0.16352	0.3113	0.04669	0.27077	0.24255	0.23152	-3.7083	-3.9958	-3.4292	-4.5479	-3.6813	-3.8125	-4.2771	-3.8083	-4.0083	-4.0646	-3.5792	-4.3438	-3.9167	-3.9021	-4.2479	-3.7646	283.984	66.164	333.048	210.811	13.019	306.543	184.886	74.595	76.710	23.985	228.069	308.944	307.895	296.796	148.660	319.108	0.0010575	0.00021124	7.5286e-05	1016.8	2.2552e-06	2.0115e-06	1011.3	471.62	1.8838e-06	1.3658e-06	516.05	211.52	195.96	92.574	2.0274e-06	108.47	1.199e-05	7.4464e-06	1.927e-06	867.18	8.5413e-08	8.0142e-08	834.87	368.66	8.3914e-08	7.656e-08	384.93	158.94	148.64	69.873	7.9241e-08	78.384	68.411	56.142	81.421	-6.785	135.059	110.155	-8.439	-1.808	132.173	136.421	-4.583	-0.159	3.012	7.184	118.473	3.813	-8191	255	
2714.541	1	1	0	0	0.09494	0.064373	0.15183	0.086033	0.10168	0.042312	0.15868	0.15844	0.049082	0.21078	0.20604	0.31878	0.036941	0.34344	0.015197	0.069971	-3.7271	-4.1375	-3.4708	-4.4854	-3.875	-3.8771	-4.2271	-3.7938	-4.0625	-4.1062	-3.6458	-4.2167	-3.9313	-3.8688	-4.3063	-3.8167	273.817	46.994	21.819	278.766	58.110	64.034	33.290	321.210	105.167	126.109	2.391	329.731	11.378	323.810	113.418	46.583	0.0010299	0.00019428	7.1816e-05	1015.1	1.8916e-06	2.0298e-06	1008.9	474.64	2.1483e-06	1.4745e-06	519.96	213.36	196.61	93.189	1.324e-06	109.46	1.2019e-05	7.0407e-06	1.9099e-06	862.58	8.5479e-08	7.5266e-08	831.96	368.41	8.7335e-08	7.5636e-08	387.1	160.19	149.25	70.261	7.685e-08	78.895	67.060	57.549	56.018	-6.748	124.640	98.879	-8.440	-1.828	110.660	120.283	-4.789	-0.172	2.899	7.386	105.837	3.563	-8191	255	
2714.638	1	1	0	0	0.12076	0.13882	0.25425	0.12642	0.18018	0.12539	0.25201	0.26193	0.013592	0.054456	0.13136	0.39477	0.13219	0.24119	0.24531	0.11995	-3.5938	-4.1438	-3.5521	-4.2271	-3.9625	-3.6937	-4.3125	-3.8396	-3.8896	-4.1125	-3.5958	-4.05	-4.1292	-3.8792	-4.2521	-3.825	141.455	194.739	184.956	297.901	107.430	41.369	225.019	338.219	174.254	332.904	338.607	-7.881	313.062	316.220	46.568	272.915	0.0010197	0.00020459	7.5584e-05	1018	2.6357e-06	2.1051e-06	1008.1	469.59	2.4613e-06	2.2429e-06	516.46	212.07	194.65	91.925	1.674e-06	108.07	1.2421e-05	7.1655e-06	1.8672e-06	864.29	8.4627e-08	7.342e-08	833.09	366.96	8.3744e-08	7.0191e-08	384.91	159.17	147.92	69.352	7.3773e-08	78.015	71.038	66.199	72.293	-6.882	124.932	102.678	-8.399	-1.955	127.924	122.404	-4.777	-0.285	2.738	7.261	124.831	3.606	-8191	255	
2714.734	1	1	0	0	0.11748	0.094621	0.22568	0.2575	0.2166	0.24531	0.13993	0.15024	0.1625	0.08026	0.086798	0.17407	0.093767	0.45426	0.23926	0.2857	-3.4062	-4.3438	-3.5875	-4.1479	-4.0583	-3.5917	-4.4042	-3.8896	-3.7375	-4.1208	-3.8083	-4.0646	-4.1854	-3.6583	-4.2625	-3.95	23.369	-7.719	261.717	323.909	213.774	188.789	1.252	291.479	145.003	94.325	250.190	303.341	83.580	294.197	298.860	273.691	0.0010245	0.00023433	7.2597e-05	1016.5	2.6563e-06	2.0046e-06	998.15	470.1	2.0889e-06	1.8481e-06	514.51	211.61	195.53	92.722	1.4012e-06	108.84	1.1931e-05	6.5897e-06	1.7719e-06	862.07	8.2543e-08	7.1945e-08	826.1	367.37	8.429e-08	7.1165e-08	383.41	158.89	148.25	69.926	7.7255e-08	78.488	69.997	61.310	72.517	-6.610	126.296	105.473	-8.387	-1.977	123.833	114.511	-4.876	-0.210	2.883	7.485	105.435	3.574	-8191	255	
2714.830	1	1	0	0	0.27777	0.059034	0.23771	0.17818	0.20116	0.091974	0.10728	0.12815	0.16568	0.14665	0.069886	0.11151	0.23371	0.2766	0.14563	0.084684	-3.3333	-4.3604	-3.6063	-4.0146	-4.175	-3.6458	-4.2479	-3.9437	-3.5417	-4.2812	-3.5938	-3.9667	-4.2417	-3.6979	-4.1	-4.125	89.366	54.031	250.909	335.595	168.863	296.250	310.406	311.832	324.938	15.808	37.426	96.761	305.658	23.339	90.834	41.698	0.0010367	0.00019794	6.0815e-05	1012.5	2.0984e-06	2.0327e-06	991.79	470.04	1.8957e-06	1.8052e-06	515.71	211.62	195.46	92.59	1.5238e-06	108.91	1.1398e-05	6.5028e-06	1.8473e-06	859.93	7.9968e-08	7.095e-08	822.71	367.39	7.9847e-08	7.101e-08	383.58	158.82	148.19	69.728	7.9841e-08	78.313	69.439	46.714	88.251	-6.845	127.198	98.546	-8.575	-1.907	125.271	114.640	-4.957	-0.260	2.831	7.321	121.806	3.618	-8191	255	
2714.950	1	1	0	0	0.055736	0.060323	0.11226	0.094718	0.20512	0.23631	0.057688	0.12471	0.14074	0.075905	0.16274	0.38134	0.12005	0.13314	0.17391	0.10786	-3.3271	-4.1042	-3.6875	-3.8625	-4.2271	-3.4938	-4.2208	-4.0292	-3.4333	-4.4604	-3.8167	-3.9083	-4.3604	-3.7458	-4.0563	-4.3125	61.034	15.439	29.673	57.936	13.694	6.044	82.103	331.411	194.702	12.038	23.945	238.106	23.001	5.135	121.420	117.526	0.0010181	0.00020603	6.1254e-05	1011.1	1.9015e-06	1.9157e-06	994.58	467.88	2.0808e-06	2.0766e-06	515.55	211.87	194.26	91.97	1.9276e-06	108.54	1.1447e-05	5.9031e-06	1.9463e-06	857.55	7.4719e-08	6.7879e-08	823.67	365.81	7.9006e-08	6.6074e-08	384.15	159.34	147.65	69.38	8.1907e-08	78.141	71.201	62.680	78.176	-6.959	124.428	108.062	-8.390	-1.966	108.099	119.424	-4.623	-0.335	2.806	7.341	105.779	3.706	-8191	255	
2715.047	1	1	0	0	0.032499	0.082957	0.18328	0.022221	0.15207	0.10517	0.17458	0.22527	0.16154	0.16223	0.1928	0.13784	0.09336	0.1472	0.20843	0.12956	-3.0979	-4.2125	-3.6688	-4.0646	-4.2104	-3.6146	-4.1396	-4.4	-3.5708	-4.2312	-3.7854	-3.8896	-4.2917	-3.7625	-3.8542	-4.1896	274.152	177.415	234.743	213.515	227.853	54.292	-15.878	288.289	209.185	182.356	100.959	317.257	-17.673	319.000	24.328	12.680	0.0010289	0.0002307	6.6407e-05	1011.4	2.3027e-06	2.915e-06	994.27	467.17	1.9124e-06	1.2755e-06	513.48	210.45	192.56	90.966	1.6301e-06	106.53	1.1155e-05	5.7819e-06	1.9805e-06	858.16	7.1788e-08	6.8064e-08	824.95	364.84	7.533e-08	6.7813e-08	382.24	157.99	146.46	68.579	8.4754e-08	76.763	67.884	54.992	54.644	-6.827	108.203	104.842	-8.595	-1.847	119.557	117.654	-4.938	-0.144	2.655	7.234	113.350	3.795	-8191	255	
2715.143	1	1	0	0	0.22791	0.17494	0.017118	0.10783	0.18197	0.13692	0.12668	0.12509	0.17621	0.23641	0.1459	0.10501	0.14348	0.31746	0.14953	0.16155	-3.2792	-4.1	-3.8542	-3.7875	-4.3292	-3.6521	-3.8229	-4.0062	-3.4979	-4.0479	-4.2354	-3.6729	-4.3917	-3.95	-3.6937	-4.3958	270.794	157.089	261.982	87.737	35.303	267.951	10.598	129.398	33.776	165.058	250.521	317.721	248.148	230.420	180.254	254.904	0.00098462	0.00018326	7.0652e-05	1002.6	1.6082e-06	1.9073e-06	989.06	458.54	1.6732e-06	2.2632e-06	506.87	208.45	191.22	90.21	1.1687e-06	105.13	1.0841e-05	6.489e-06	1.9909e-06	850	7.033e-08	7.2395e-08	815.67	359.09	7.4258e-08	7.5106e-08	377.26	156.31	145.35	67.959	8.9897e-08	75.889	65.412	58.007	58.587	-6.653	124.186	104.123	-8.637	-1.960	124.871	107.099	-4.921	-0.144	2.747	7.354	101.576	3.629	-8191	255	
2715.239	1	1	0	0	0.18923	0.16483	0.17893	0.093147	0.034062	0.2026	0.17241	0.14585	0.18469	0.079551	0.1601	0.19284	0.19138	0.078089	0.080182	0.067389	-3.2583	-4.0708	-4.2438	-3.7062	-4.1167	-4.0021	-3.9437	-4.2125	-3.6917	-3.9417	-4.1854	-3.5438	-4.4104	-3.9125	-3.6437	-4.4354	229.801	-9.595	291.513	-7.450	36.113	161.897	324.432	333.141	283.111	280.616	269.267	315.515	-5.370	236.958	243.883	257.331	0.0010284	0.00019096	5.8095e-05	996.56	2.1995e-06	1.8718e-06	978.51	459.02	1.5882e-06	1.2484e-06	503.34	207.48	190.56	89.946	1.491e-06	104.91	1.1418e-05	7.6106e-06	2.1442e-06	845.92	7.5059e-08	8.2817e-08	806.94	358.83	7.828e-08	8.0666e-08	375.14	155.84	145.02	67.669	8.596e-08	75.564	69.472	63.754	63.886	-6.639	137.408	105.791	-8.655	-1.996	127.653	110.199	-4.802	-0.096	2.920	7.352	115.643	3.632	-8191	255	
2715.358	1	1	0	0	0.21704	0.075184	0.13348	0.27522	0.12994	0.048878	0.1538	0.014402	0.27999	0.063645	0.12375	0.10053	0.31377	0.17555	0.18088	0.1011	-3.0521	-4.0021	-3.9688	-3.6979	-4.2042	-4.0813	-3.6583	-4.3854	-3.7375	-4.0583	-4.1937	-3.3792	-4.5062	-4.0583	-3.65	-4.3979	132.157	59.238	126.769	289.943	44.482	327.040	195.042	38.567	99.039	217.495	5.305	10.777	18.330	274.194	308.765	27.834	0.0010365	0.00022849	6.5979e-05	990.35	1.9329e-06	1.9341e-06	970.25	456.06	2.122e-06	2.2206e-06	501.31	207.12	189.95	88.41	1.7254e-06	103.89	1.1595e-05	7.6984e-06	1.986e-06	840.99	7.6787e-08	8.3142e-08	802.28	356.69	8.0393e-08	7.9442e-08	373.3	155.53	144.1	66.776	7.9026e-08	74.697	70.122	53.414	90.246	-6.820	149.915	87.718	-8.290	-2.145	120.841	111.590	-4.685	-0.214	2.688	7.245	101.438	3.588	-8191	255	
2715.429	1	1	0	0	0.17166	0.15433	0.12536	0.24479	0.097759	0.042104	0.071219	0.2785	0.16238	0.29358	0.1538	0.24044	0.12282	0.16133	0.10184	0.35851	-3.275	-3.8104	-4.175	-3.6708	-4.0667	-3.9208	-3.8458	-4.2896	-3.725	-4.0229	-4.3208	-3.6042	-4.3021	-4.1792	-3.4271	-4.4125	66.641	182.750	305.477	219.250	189.260	83.321	121.437	-10.692	247.328	232.568	-0.273	286.841	-10.940	315.241	146.500	337.566	0.00098729	0.0001444	7.8543e-05	986.01	2.3294e-06	1.909e-06	961.06	452.91	1.6505e-06	1.3334e-06	493.5	204.25	187.88	87.63	1.5624e-06	101.93	1.1516e-05	7.074e-06	1.8197e-06	837.79	7.8811e-08	7.7006e-08	794.94	354.14	8.2672e-08	7.7804e-08	368	153.22	142.77	66.205	8.0712e-08	73.631	65.153	76.197	78.749	-6.871	132.835	88.482	-8.507	-1.934	138.510	122.313	-4.732	-0.164	2.993	7.252	92.818	3.651	-8191	255	
2715.550	1	1	0	0	0.10462	0.14702	0.097739	0.071021	0.15853	0.12443	0.14419	0.17158	0.1937	0.15379	0.076007	0.15188	0.094584	0.13036	0.039127	0.34911	-3.4854	-3.7396	-4.1583	-3.6146	-4.1479	-3.8979	-3.6875	-4.4688	-3.6479	-3.7958	-4.1979	-3.6708	-4.1604	-4.2271	-3.4125	-4.3625	225.183	264.998	210.048	291.173	119.172	57.288	301.389	183.858	298.910	131.291	320.117	330.944	250.641	304.113	163.463	305.886	0.00095273	0.00019692	7.973e-05	980.72	2.3338e-06	2.2667e-06	951.52	449.95	1.8531e-06	1.2542e-06	491.38	202.87	187.04	87.56	1.96e-06	101.79	1.1527e-05	6.9496e-06	1.7849e-06	832.79	8.2207e-08	7.373e-08	786.37	351.23	8.5071e-08	7.635e-08	365.84	152.55	142.24	66.06	7.9736e-08	73.377	68.442	45.150	73.520	-6.794	114.076	99.304	-8.672	-1.869	115.265	116.829	-4.752	-0.438	2.824	7.328	125.660	3.558	-8191	255	
2715.646	1	1	0	0	0.18753	0.21568	0.12577	0.072587	0.11027	0.13203	0.13688	0.19864	0.092559	0.25819	0.20219	0.27798	0.31286	0.30858	0.084369	0.18014	-3.5563	-3.6188	-4.4313	-3.7625	-3.7292	-4.1146	-3.6292	-4.3083	-3.9396	-3.7125	-4.3542	-3.8563	-4.1562	-4.2104	-3.4104	-4.3396	70.390	245.150	271.639	106.088	88.789	320.723	282.497	-7.187	138.986	267.315	266.442	295.843	-1.096	295.558	0.683	337.532	0.00094686	0.00019221	6.895e-05	975.48	2.3346e-06	1.8409e-06	950.64	446.11	1.5945e-06	1.215e-06	489.43	202.51	184.52	86.243	1.8613e-06	100.88	1.2012e-05	7.515e-06	1.8082e-06	830.28	8.7557e-08	7.8371e-08	786.53	348.7	8.7726e-08	7.9063e-08	364.45	152	140.54	64.984	8.1007e-08	72.559	68.006	47.317	64.925	-6.846	125.959	97.866	-8.539	-1.970	121.141	123.763	-4.840	-0.347	2.750	7.251	100.494	3.519	-8191	255	
2715.742	1	1	0	0	0.14711	0.10249	0.073323	0.13921	0.17625	0.1514	0.17978	0.27416	0.042994	0.10218	0.17006	0.11908	0.22832	0.10303	0.14599	0.23806	-3.6437	-3.525	-4.2312	-3.8104	-3.8604	-4.1646	-3.7	-4.0896	-4.0938	-3.5792	-4.4833	-3.9542	-3.8729	-4.2917	-3.5875	-4.2312	-10.112	-3.708	90.382	300.960	-1.067	91.499	210.208	273.079	182.329	296.940	327.657	252.350	121.209	208.766	62.694	232.625	0.00097495	0.00027639	5.4462e-05	974.87	2.1726e-06	2.4247e-06	949.43	443.84	2.1552e-06	1.9591e-06	487.18	203.4	186.46	86.407	1.845e-06	100.9	1.1855e-05	7.193e-06	1.8149e-06	828.98	8.5979e-08	7.6666e-08	785.19	348.01	8.725e-08	8.0886e-08	363.32	152.38	141.35	65.279	8.8496e-08	72.647	68.727	46.869	65.373	-6.870	126.673	96.425	-8.538	-2.003	112.305	102.676	-4.696	-0.100	2.782	7.140	111.528	3.776	-8191	255	
2715.839	1	1	0	0	0.14453	0.25345	0.24948	0.1225	0.13865	0.11694	0.17881	0.10674	0.1943	0.10129	0.12288	0.14708	0.17877	0.092893	0.21689	0.35596	-3.5958	-3.6104	-4.1521	-4.0292	-3.775	-4.0229	-3.8583	-4.2167	-4.2646	-3.5792	-4.3083	-4.0417	-3.8146	-4.2396	-3.6896	-4.0104	68.582	196.452	266.241	102.542	94.917	12.971	85.502	316.824	135.497	79.634	34.633	297.194	110.709	249.006	82.267	257.161	0.00093897	0.0002545	8.9604e-05	982.02	1.9124e-06	1.361e-06	939.98	442.09	1.3649e-06	1.5543e-06	481.47	200.78	184.35	86.141	1.6437e-06	99.946	1.2441e-05	7.5301e-06	1.9904e-06	832.29	8.9055e-08	7.4275e-08	776.69	346.08	8.5462e-08	7.5121e-08	358.88	150.73	140.15	65.014	8.6205e-08	72.011	67.767	49.772	74.384	-6.883	124.571	96.746	-8.737	-1.840	110.462	119.729	-4.705	-0.136	3.003	7.325	115.577	3.757	-8191	255	
2715.935	1	1	0	0	0.16092	0.19116	0.12998	0.28928	0.27882	0.016505	0.098723	0.065543	0.10152	0.13879	0.099546	0.14599	0.046096	0.25084	0.17885	0.17343	-3.8812	-3.4729	-4.0542	-3.8979	-3.6312	-4.2146	-3.5625	-3.9604	-4.125	-3.5979	-4.1958	-4.1188	-3.6729	-4.2417	-3.7667	-3.9792	132.436	6.506	307.151	299.133	209.665	283.050	66.212	279.841	111.867	180.390	212.134	337.679	69.671	310.432	190.909	304.380	0.00095747	0.0001967	8.6362e-05	971.3	1.9885e-06	1.729e-06	932.04	435.53	1.6296e-06	2.1911e-06	478.4	197.93	181.36	84.366	1.7188e-06	98.633	1.1426e-05	6.7292e-06	2.0224e-06	826.91	8.2909e-08	6.7684e-08	769.45	340.38	8.0483e-08	7.0186e-08	355.24	148.68	137.86	63.618	8.5079e-08	71.068	66.587	53.361	78.568	-6.886	128.948	103.064	-8.420	-1.762	102.988	133.359	-4.662	-0.390	2.678	7.244	106.603	3.695	-8191	255	
2716.031	1	1	0	0	0.25073	0.11191	0.1737	0.13119	0.21763	0.08381	0.054634	0.25445	0.38927	0.16315	0.22441	0.079768	0.20954	0.25417	0.10954	0.26731	-3.8396	-3.4896	-4.0104	-4.0188	-3.625	-4.2354	-3.9813	-3.7958	-4.2646	-3.8104	-4.2083	-4.1687	-3.775	-4.1771	-3.8271	-3.8312	142.114	132.723	128.172	296.367	259.534	146.413	281.138	284.225	171.516	38.328	304.223	4.136	338.401	-6.656	129.244	284.116	0.00089816	0.00021394	5.2475e-05	977.67	2.0186e-06	2.003e-06	939.29	437.79	1.5059e-06	1.4813e-06	479.11	199.46	182.4	84.729	2.1246e-06	99.11	1.1032e-05	6.6391e-06	2.0213e-06	830.17	7.816e-08	6.8349e-08	776.3	341.68	7.5189e-08	6.9606e-08	357.48	149.86	138.34	63.896	8.7406e-08	71.596	64.668	66.418	66.561	-6.829	135.092	90.013	-8.464	-1.833	121.472	137.534	-4.684	0.028	2.828	7.149	120.227	3.402	-8191	255	
2716.127	1	1	0	0	0.24438	0.20436	0.10918	0.15501	0.20663	0.16972	0.15246	0.20162	0.097295	0.16925	0.35203	0.16314	0.23038	0.17936	0.083551	0.083763	-3.9562	-3.5854	-4.1792	-4.1354	-3.5333	-4.1229	-4.0062	-3.6375	-4.2396	-3.6104	-4.1625	-4.175	-3.55	-4.2354	-4.0292	-3.8958	128.651	134.716	301.617	83.967	142.235	122.401	262.232	262.482	103.776	266.738	238.163	328.775	338.743	268.000	-13.010	103.700	0.00097172	0.00022828	6.392e-05	983.86	2.202e-06	2.7327e-06	952.25	440.47	1.6681e-06	1.5598e-06	486.01	201.93	184.31	86.052	1.4127e-06	100.46	1.0575e-05	6.7694e-06	2.026e-06	833.21	7.3752e-08	7.092e-08	785.91	343.9	7.1994e-08	7.3048e-08	361.84	151.35	139.75	64.752	8.1792e-08	72.555	67.036	55.896	63.253	-6.891	122.251	114.332	-8.484	-1.832	109.263	119.758	-4.469	-0.300	2.571	7.216	124.352	3.717	-8191	255	
2716.223	1	1	0	0	0.17969	0.22641	0.1521	0.034928	0.099001	0.21447	0.26266	0.12279	0.13349	0.27532	0.06747	0.10716	0.22549	0.079383	0.18396	0.28147	-3.8042	-3.7896	-3.8542	-4.4146	-3.7417	-4.0646	-4.1021	-3.5708	-4.125	-3.8	-3.7604	-4.2479	-3.5583	-4.2208	-3.9521	-3.7938	99.940	311.952	13.611	319.003	5.655	127.970	68.147	310.399	84.837	60.945	263.585	168.235	297.006	258.966	216.801	-9.858	0.00098259	0.00018669	6.5942e-05	984.4	2.5447e-06	1.7963e-06	949.14	442.71	2.1806e-06	1.6371e-06	485.43	201.45	185.36	86.761	1.5452e-06	100.89	1.0453e-05	7.0965e-06	1.9074e-06	833.95	7.2825e-08	7.391e-08	783.72	345.96	7.2129e-08	7.7454e-08	361.5	151.3	140.47	65.441	8.3008e-08	72.784	69.482	48.518	71.581	-6.865	112.829	106.991	-8.451	-2.044	104.426	126.206	-4.741	-0.147	2.813	7.176	99.526	3.786	-8191	255	
2716.319	1	1	0	0	0.12539	0.15162	0.18067	0.023141	0.048321	0.1043	0.092367	0.24512	0.16019	0.11806	0.11262	0.20669	0.20639	0.14771	0.048484	0.18091	-3.8917	-3.6813	-3.7208	-4.4021	-3.6063	-4.075	-4.2021	-3.6625	-4.3125	-3.8708	-3.8625	-4.4729	-3.7438	-3.9917	-4.2562	-3.7583	90.919	24.271	184.690	299.576	78.443	213.587	175.930	10.780	288.272	220.774	257.021	282.775	-15.887	61.407	156.282	312.570	0.0010303	0.00021106	7.6374e-05	979.61	1.9444e-06	2.7355e-06	951.73	445.15	1.8807e-06	1.5742e-06	487.79	202.19	185.69	86.465	1.646e-06	101.23	1.0605e-05	7.3256e-06	1.9038e-06	832.95	7.4077e-08	7.4986e-08	784.02	346.91	7.3021e-08	7.632e-08	363.31	151.73	140.92	65.278	7.798e-08	72.989	68.815	56.573	53.664	-6.621	117.636	105.083	-8.580	-1.966	125.970	125.827	-4.756	-0.115	2.583	7.322	108.760	3.541	-8191	255	
2716.438	1	1	0	0	0.2452	0.15956	0.11657	0.18048	0.11106	0.26723	0.30167	0.17596	0.040107	0.24103	0.08946	0.12731	0.15085	0.12776	0.081681	0.22426	-3.7396	-3.9979	-3.7875	-4.2833	-3.9	-3.8937	-4.2833	-3.6979	-4.0292	-4.0958	-3.8583	-4.3125	-3.9979	-3.9813	-4.2063	-3.7188	242.824	325.206	176.281	295.428	289.013	226.012	274.127	290.712	58.913	280.376	42.359	17.340	280.427	333.138	28.038	274.776	0.00096861	0.00023204	6.4294e-05	980.56	2.2689e-06	2.0081e-06	956.9	444.94	1.991e-06	1.4507e-06	490.69	203.13	185.69	86.614	1.4367e-06	101.37	1.0683e-05	7.0384e-06	1.7967e-06	832.59	7.3276e-08	7.299e-08	788.47	347.42	7.6532e-08	7.2818e-08	365.32	152.28	140.95	65.31	7.4618e-08	73.157	70.684	43.165	59.491	-6.748	132.471	109.953	-8.496	-2.003	121.159	114.123	-4.553	-0.114	2.781	7.282	97.508	3.634	-8191	255	
2716.534	1	1	0	0	0.056241	0.18854	0.067207	0.20281	0.15304	0.16249	0.1752	0.092123	0.10809	0.2508	0.075503	0.17194	0.20005	0.30033	0.13727	0.10246	-3.7354	-3.9521	-3.4917	-4.4292	-3.7104	-3.9396	-4.3771	-3.7625	-4.125	-4.1125	-3.6792	-4.3042	-3.9396	-3.9062	-4.3417	-3.7521	-16.805	324.420	273.487	277.384	256.229	179.000	313.229	236.057	263.773	329.723	20.152	254.737	308.699	291.637	60.843	309.368	0.00097655	0.00020979	6.4959e-05	980.62	1.9048e-06	1.9029e-06	954.08	442.5	2.0725e-06	1.549e-06	485.46	201.45	184.73	85.982	2.2665e-06	100.94	1.1446e-05	6.7909e-06	1.8136e-06	832.45	8.0319e-08	7.4245e-08	787.96	346.09	8.1841e-08	7.096e-08	362.24	151.42	140.1	64.883	7.2797e-08	72.528	65.707	72.403	70.281	-6.874	149.994	104.604	-8.640	-1.994	123.299	110.804	-4.894	-0.137	2.862	7.293	107.854	3.748	-8191	255	
2716.630	1	1	0	0	0.20651	0.20329	0.053503	0.04124	0.2029	0.14688	0.086685	0.13802	0.11389	0.12394	0.30453	0.1817	0.11281	0.2225	0.048944	0.20415	-3.6	-4.175	-3.5583	-4.2375	-3.8146	-3.7375	-4.2521	-3.6604	-3.9167	-4.0333	-3.6458	-4.4313	-4.1188	-3.7458	-4.2542	-3.7458	224.204	148.457	212.912	10.871	173.339	222.389	107.825	337.993	-12.922	83.743	255.645	290.848	339.908	309.753	79.794	248.950	0.00094998	0.00018243	6.611e-05	975.64	2.2561e-06	1.802e-06	946.61	441.5	2.0248e-06	1.1284e-06	483.55	200.92	184.25	86.093	1.8948e-06	100.56	1.1549e-05	6.7539e-06	1.7854e-06	828.72	8.1822e-08	7.1995e-08	779.41	345.09	8.1405e-08	6.9366e-08	359.64	150.5	140.02	64.906	6.8705e-08	72.288	70.172	64.926	62.018	-6.761	136.062	98.675	-8.376	-1.968	109.683	131.641	-4.622	-0.119	2.976	7.285	120.713	3.513	-8191	255	
2716.727	1	1	0	0	0.017732	0.35102	0.10297	0.20652	0.16078	0.040604	0.1287	0.22505	0.16629	0.14036	0.18726	0.077396	0.13301	0.16261	0.049937	0.15063	-3.4729	-4.1375	-3.6188	-4.2438	-3.9813	-3.5125	-4.3458	-3.7917	-3.8479	-4.1292	-3.6063	-4.2688	-4.1104	-3.6146	-4.1542	-3.7021	24.465	167.718	242.834	292.985	97.931	-5.246	312.176	15.545	207.636	217.405	236.927	191.240	312.587	-9.958	221.131	277.131	0.00093013	0.00015505	6.4855e-05	979.6	2.2992e-06	1.8606e-06	951.77	444.86	2.03e-06	1.749e-06	488.27	201.06	186.69	86.838	1.1463e-06	101.65	1.1128e-05	6.1757e-06	1.6818e-06	830.66	7.7218e-08	6.7164e-08	783.74	347.43	7.9226e-08	6.7308e-08	362.97	151.48	141.45	65.566	6.821e-08	73.231	66.778	60.281	72.935	-6.799	135.885	91.413	-8.407	-1.792	121.655	117.477	-4.725	-0.271	2.773	7.299	96.383	3.438	-8191	255	
2716.823	1	1	0	0	0.04518	0.33065	0.064303	0.18737	0.23979	0.13689	0.062841	0.11838	0.11315	0.053824	0.13297	0.085669	0.16283	0.13869	0.21828	0.14593	-3.5938	-4.2792	-3.5271	-4.1854	-4.1667	-3.6375	-4.2979	-3.8917	-3.6646	-4.2937	-3.7417	-4.1396	-4.2042	-3.6729	-4.1312	-4.2333	93.706	266.890	286.754	280.944	242.977	327.373	292.884	319.149	183.442	59.229	280.449	302.593	-4.329	254.336	145.903	208.064	0.00098151	0.00022415	7.5066e-05	981.37	2.1795e-06	2.2148e-06	962.59	448.29	1.5318e-06	1.6737e-06	495.62	204.55	187.59	87.96	1.484e-06	103.08	1.0948e-05	5.9017e-06	1.6674e-06	833.93	7.2735e-08	6.4743e-08	794.09	351.14	7.5405e-08	6.2543e-08	368.31	153.6	142.56	66.408	7.1381e-08	74.335	66.952	49.653	74.569	-6.680	108.699	96.455	-8.435	-2.012	101.685	110.239	-4.725	-0.113	2.842	7.411	121.371	3.579	-8191	255	
2716.919	1	1	0	0	0.14666	0.049436	0.11792	0.073106	0.075891	0.12018	0.0097851	0.20255	0.10728	0.29613	0.060646	0.26175	0.048175	0.3033	0.18518	0.14662	-3.4229	-4.3104	-3.6875	-3.9833	-3.9875	-3.6292	-4.1167	-3.9625	-3.825	-4.3208	-3.7521	-4.2063	-4.2833	-3.7917	-4.0771	-4.05	220.771	149.172	136.907	317.540	299.193	208.197	-11.865	19.544	297.338	156.407	129.336	309.165	237.220	12.621	199.617	-6.534	0.00095881	0.00018101	7.1616e-05	983.34	2.4489e-06	2.2008e-06	968.26	449.14	1.4104e-06	1.7557e-06	496.85	205.55	188.63	89.15	1.89e-06	104.24	1.0785e-05	5.7673e-06	1.7452e-06	835.01	6.986e-08	6.1158e-08	798.05	351.44	6.9635e-08	5.8426e-08	370.11	153.98	143.24	67.059	7.3287e-08	75.219	69.053	56.498	66.726	-6.720	132.445	102.828	-8.589	-1.745	119.473	104.739	-4.843	-0.052	2.873	7.372	110.828	3.598	-8191	255	
2717.040	1	1	0	0	0.25687	0.109	0.10986	0.1622	0.06645	0.05968	0.13298	0.11298	0.18204	0.076718	0.13956	0.12035	0.065906	0.3247	0.065985	0.14749	-3.2833	-4.0646	-3.4938	-3.8833	-4.0833	-3.6083	-4.0292	-4.1667	-3.6104	-4.3063	-3.9125	-4.0875	-4.3625	-3.6542	-4.0437	-4.2063	255.786	271.464	322.444	251.454	169.645	76.206	283.691	-0.862	176.467	190.722	273.876	238.991	211.704	314.947	-4.321	304.146	0.0010182	0.0001937	7.9731e-05	992.35	2.3955e-06	2.7373e-06	977.71	455.74	1.8131e-06	1.7655e-06	501.55	207.14	189.51	89.796	1.8749e-06	105.39	1.035e-05	5.3881e-06	1.7208e-06	841.68	6.4735e-08	6.0392e-08	808.08	355.53	6.8167e-08	5.6783e-08	374.38	155.17	144.18	67.731	7.4203e-08	75.992	68.565	52.882	77.217	-6.780	130.816	115.051	-8.515	-2.078	114.893	106.293	-4.849	-0.126	2.883	7.485	106.478	3.750	-8191	255	
2717.136	1	1	0	0	0.03651	0.12677	0.16779	0.18494	0.30175	0.14407	0.22653	0.2315	0.21136	0.123	0.24132	0.15824	0.082108	0.41578	0.15284	0.23415	-3.1292	-4.2271	-3.6208	-3.8083	-4.1792	-3.7167	-4	-4.1438	-3.5167	-4.2979	-3.9562	-3.7167	-4.3833	-3.7021	-3.8937	-4.2917	228.932	168.657	256.475	22.552	218.920	222.754	214.063	8.408	114.838	212.943	316.217	287.314	240.128	323.072	-16.736	285.275	0.0010158	0.00023628	7.8951e-05	999.31	1.5912e-06	2.5315e-06	989.26	457.49	1.7602e-06	1.5755e-06	508.65	209.41	191.26	90.677	1.3891e-06	106.77	1.0275e-05	5.5381e-06	1.7404e-06	848.14	6.4029e-08	6.3448e-08	816.21	358.77	6.5963e-08	5.998e-08	378.32	156.71	145.29	68.31	7.4078e-08	76.793	69.888	69.672	75.182	-6.733	111.689	93.635	-8.500	-1.818	103.455	124.807	-4.616	-0.210	2.962	7.410	90.339	3.583	-8191	255	
2717.230	1	1	0	0	0.11755	0.16885	0.055267	0.2509	0.21345	0.24916	0.028069	0.1706	0.13947	0.092961	0.13227	0.15939	0.082847	0.25432	0.070611	0.28079	-3.1229	-4.0938	-3.8625	-3.7208	-4.1042	-3.65	-4.1062	-4.1083	-3.6396	-4.1542	-4.1312	-3.6958	-4.3146	-4.0188	-3.8729	-4.4396	316.002	-10.050	327.914	-15.580	298.514	132.485	258.712	259.383	55.252	320.082	41.828	186.883	160.395	337.351	158.604	323.869	0.00096106	0.00017006	8.1821e-05	996.48	2.1057e-06	1.3911e-06	994.68	458.19	1.386e-06	1.7492e-06	507.24	208.36	191.45	90.239	1.3497e-06	106.03	1.0427e-05	5.915e-06	1.7949e-06	849.27	6.2401e-08	6.6979e-08	818.88	358.18	6.7276e-08	6.6469e-08	378.3	156.64	144.98	68.081	7.4108e-08	76.367	70.090	52.094	71.357	-6.688	127.128	98.458	-8.388	-1.837	108.963	109.538	-4.551	0.053	2.756	7.339	100.715	3.630	-8191	255	
2717.326	1	1	0	0	0.089236	0.029092	0.028028	0.18973	0.21061	0.29264	0.093629	0.065513	0.064586	0.11459	0.14161	0.20132	0.24871	0.20549	0.16256	0.13376	-3.2854	-4.2	-4.0479	-3.7646	-4.1875	-3.9125	-4.0146	-4.1562	-3.5875	-3.9333	-4.2	-3.6083	-4.3875	-3.9875	-3.7729	-4.4417	148.296	222.580	152.172	274.719	298.733	211.387	319.515	235.791	239.140	210.502	229.047	216.305	316.678	322.861	-8.369	-8.895	0.00097928	0.00017922	7.474e-05	997.2	1.938e-06	1.6896e-06	987.35	454.45	1.8316e-06	1.629e-06	503.26	206.4	189.32	89.563	1.7473e-06	104.95	1.0105e-05	6.3715e-06	1.6703e-06	846.92	6.3979e-08	6.8279e-08	814.91	356.16	6.5753e-08	6.8927e-08	375.3	155.24	143.91	67.544	6.9225e-08	75.535	65.820	54.042	64.734	-6.606	120.681	95.634	-8.537	-2.007	122.125	130.201	-4.640	-0.306	2.834	7.266	107.119	3.562	-8191	255	
#DATA ENDS
