BOXY.EXE: ISS Imagent and Oximeter Data Acquisition Program Version 0.80
Ascii Record File

#ACQ INFORMATION
2  Detector Channels 
16  External MUX Channels 
1  Auxiliary Channels 
5000  Waveform (CCF) Frequency (Hz)
1  Waveforms Skipped 
30  Waveforms Averaged 
1  Cycles Averaged 
16  Acquisitions per Waveform 
10.0806  Updata Rate (Hz) 

#FILE INFORMATION
TRUE -- External MUX Channel results are PARSED.
FALSE -- AC DC and Phase are NOT grouped.
TRUE -- Companion Program Settings File CREATED.
FALSE -- AC data not excluded
FALSE -- DC data not excluded
FALSE -- Phase data not excluded
FALSE -- Auxillary Chn. data not excluded
Tab delimiters

#CALIBRATION STATE
TRUE -- Waveform Calibration Values APPLIED.


#AUX CALIBRATION VALUES
Val Type	aux-1	

Term	1.0000e+00	
Factor	0.0000e+00	


#WF CALIBRATION VALUES
A = Detector Channel
Val Type	A-AC1	A-AC2	A-AC3	A-AC4	A-AC5	A-AC6	A-AC7	A-AC8	A-AC9	A-AC10	A-AC11	A-AC12	A-AC13	A-AC14	A-AC15	A-AC16	A-DC1	A-DC2	A-DC3	A-DC4	A-DC5	A-DC6	A-DC7	A-DC8	A-DC9	A-DC10	A-DC11	A-DC12	A-DC13	A-DC14	A-DC15	A-DC16	A-Ph1	A-Ph2	A-Ph3	A-Ph4	A-Ph5	A-Ph6	A-Ph7	A-Ph8	A-Ph9	A-Ph10	A-Ph11	A-Ph12	A-Ph13	A-Ph14	A-Ph15	A-Ph16	

Term	0.00000e+00	0.00000e+00	0.00000e+00	0.00000e+00	0.00000e+00	0.00000e+00	0.00000e+00	0.00000e+00	0.00000e+00	0.00000e+00	0.00000e+00	0.00000e+00	0.00000e+00	0.00000e+00	0.00000e+00	0.00000e+00	0.00000e+00	0.00000e+00	0.00000e+00	0.00000e+00	0.00000e+00	0.00000e+00	0.00000e+00	0.00000e+00	0.00000e+00	0.00000e+00	0.00000e+00	0.00000e+00	0.00000e+00	0.00000e+00	0.00000e+00	0.00000e+00	0.00000e+00	0.00000e+00	0.00000e+00	0.00000e+00	0.00000e+00	0.00000e+00	0.00000e+00	0.00000e+00	0.00000e+00	0.00000e+00	0.00000e+00	0.00000e+00	0.00000e+00	0.00000e+00	0.00000e+00	0.00000e+00	
Factor	1.00000e+00	1.00000e+00	1.00000e+00	1.00000e+00	1.00000e+00	1.00000e+00	1.00000e+00	1.00000e+00	1.00000e+00	1.00000e+00	1.00000e+00	1.00000e+00	1.00000e+00	1.00000e+00	1.00000e+00	1.00000e+00	1.00000e+00	1.00000e+00	1.00000e+00	1.00000e+00	1.00000e+00	1.00000e+00	1.00000e+00	1.00000e+00	1.00000e+00	1.00000e+00	1.00000e+00	1.00000e+00	1.00000e+00	1.00000e+00	1.00000e+00	1.00000e+00	X	X	X	X	X	X	X	X	X	X	X	X	X	X	X	X	

B = Detector Channel
Val Type	B-AC1	B-AC2	B-AC3	B-AC4	B-AC5	B-AC6	B-AC7	B-AC8	B-AC9	B-AC10	B-AC11	B-AC12	B-AC13	B-AC14	B-AC15	B-AC16	B-DC1	B-DC2	B-DC3	B-DC4	B-DC5	B-DC6	B-DC7	B-DC8	B-DC9	B-DC10	B-DC11	B-DC12	B-DC13	B-DC14	B-DC15	B-DC16	B-Ph1	B-Ph2	B-Ph3	B-Ph4	B-Ph5	B-Ph6	B-Ph7	B-Ph8	B-Ph9	B-Ph10	B-Ph11	B-Ph12	B-Ph13	B-Ph14	B-Ph15	B-Ph16	

Term	0.00000e+00	0.00000e+00	0.00000e+00	0.00000e+00	0.00000e+00	0.00000e+00	0.00000e+00	0.00000e+00	0.00000e+00	0.00000e+00	0.00000e+00	0.00000e+00	0.00000e+00	0.00000e+00	0.00000e+00	0.00000e+00	0.00000e+00	0.00000e+00	0.00000e+00	0.00000e+00	0.00000e+00	0.00000e+00	0.00000e+00	0.00000e+00	0.00000e+00	0.00000e+00	0.00000e+00	0.00000e+00	0.00000e+00	0.00000e+00	0.00000e+00	0.00000e+00	-7.26684e+01	-1.29267e+02	-1.24907e+02	-1.81870e+02	-5.07789e+01	-7.05107e+01	-1.57448e+02	-1.62015e+02	-4.62257e+01	-6.38428e+01	-1.71264e+02	-1.72441e+02	-1.82777e+02	-1.77174e+02	-5.93073e+01	-1.49710e+02	
Factor	1.61401e-05	1.59208e-04	4.37177e-05	1.47657e-01	1.35887e-06	1.73276e-06	1.65095e-01	4.93827e-02	1.11487e-06	1.79644e-06	7.99830e-02	3.23445e-02	3.45062e-02	8.62477e-03	1.51567e-06	1.23023e-02	1.56454e-05	4.14206e-05	1.16575e-05	7.63936e-02	3.74041e-07	4.77579e-07	8.05275e-02	2.56400e-02	3.72120e-07	4.73555e-07	4.04468e-02	1.64577e-02	1.81944e-02	4.52542e-03	4.11768e-07	6.25502e-03	X	X	X	X	X	X	X	X	X	X	X	X	X	X	X	X	



#DISTANCE SETTINGS
A = Detector Channel
A-1	A-2	A-3	A-4	A-5	A-6	A-7	A-8	A-9	A-10	A-11	A-12	A-13	A-14	A-15	A-16	

2.5000e+00	3.0000e+00	2.5000e+00	3.0000e+00	2.0000e+00	3.0000e+00	1.5000e+00	3.0000e+00	3.0000e+00	3.0000e+00	3.0000e+00	3.0000e+00	3.0000e+00	3.0000e+00	1.5000e+00	3.0000e+00	

B = Detector Channel
B-1	B-2	B-3	B-4	B-5	B-6	B-7	B-8	B-9	B-10	B-11	B-12	B-13	B-14	B-15	B-16	

1.0000e+01	1.0000e+01	1.0000e+01	1.4400e+00	1.0000e+01	1.0000e+01	1.5100e+00	1.9400e+00	1.0000e+01	1.0000e+01	1.9900e+00	2.4900e+00	2.4100e+00	2.9000e+00	1.0000e+01	2.9800e+00	




#DATA BEGINS
time	group	step	mark	flag	A-AC1	A-AC2	A-AC3	A-AC4	A-AC5	A-AC6	A-AC7	A-AC8	A-AC9	A-AC10	A-AC11	A-AC12	A-AC13	A-AC14	A-AC15	A-AC16	A-DC1	A-DC2	A-DC3	A-DC4	A-DC5	A-DC6	A-DC7	A-DC8	A-DC9	A-DC10	A-DC11	A-DC12	A-DC13	A-DC14	A-DC15	A-DC16	A-Ph1	A-Ph2	A-Ph3	A-Ph4	A-Ph5	A-Ph6	A-Ph7	A-Ph8	A-Ph9	A-Ph10	A-Ph11	A-Ph12	A-Ph13	A-Ph14	A-Ph15	A-Ph16	B-AC1	B-AC2	B-AC3	B-AC4	B-AC5	B-AC6	B-AC7	B-AC8	B-AC9	B-AC10	B-AC11	B-AC12	B-AC13	B-AC14	B-AC15	B-AC16	B-DC1	B-DC2	B-DC3	B-DC4	B-DC5	B-DC6	B-DC7	B-DC8	B-DC9	B-DC10	B-DC11	B-DC12	B-DC13	B-DC14	B-DC15	B-DC16	B-Ph1	B-Ph2	B-Ph3	B-Ph4	B-Ph5	B-Ph6	B-Ph7	B-Ph8	B-Ph9	B-Ph10	B-Ph11	B-Ph12	B-Ph13	B-Ph14	B-Ph15	B-Ph16	aux-1	digaux	

25003.803	1	1	0	256	0.13981	0.096797	0.058315	0.053536	0.13626	0.2888	0.22144	0.20902	0.15507	0.17019	0.064141	0.15441	0.17598	0.25343	0.22004	0.17078	-4.5563	-4.5208	-4.4	-5.2562	-4.2229	-4.7188	-4.9146	-4.3521	-4.7	-4.5417	-4.325	-4.7854	-4.3708	-4.4604	-4.7042	-4.2521	187.377	-26.898	-12.274	112.825	246.513	84.240	240.452	273.790	61.274	174.855	-53.692	264.736	226.483	177.231	51.794	251.466	7.9069e-05	0.00028491	6.5141e-05	1234.8	1.4916e-06	3.1727e-06	1287.1	245.31	9.3753e-07	3.7012e-06	306.25	87.595	69.644	20.467	2.1849e-06	28.561	0.00022047	0.00027096	7.8664e-05	1209.3	3.6017e-06	3.0167e-06	1267.5	243.49	2.9095e-06	2.7555e-06	303.24	87.979	69.586	20.452	2.5204e-06	28.693	208.463	26.523	32.952	-51.868	122.649	93.380	-51.822	-44.680	97.445	96.982	-44.849	-38.511	-37.663	-30.836	94.964	-31.445	-8191	255	
25003.898	1	1	0	0	0.15799	0.15824	0.048077	0.23195	0.12582	0.091066	0.30419	0.2944	0.1629	0.10383	0.20242	0.096884	0.14801	0.1373	0.088041	0.29227	-4.325	-4.4292	-4.2146	-4.8958	-4.1396	-4.4792	-4.9604	-4.35	-4.6271	-4.7833	-4.35	-4.7854	-4.3875	-4.6125	-4.9	-4.3125	-23.463	231.081	65.350	217.281	-26.201	7.462	235.650	224.052	196.573	168.540	9.136	166.505	175.243	250.350	131.213	228.330	7.2618e-05	0.0002641	5.0683e-05	1235.6	2.3036e-06	2.6899e-06	1281.2	246.34	9.7889e-07	3.6274e-06	305.22	87.44	68.789	20.223	2.783e-06	28.524	0.00020577	0.00025862	6.7128e-05	1207.5	3.2658e-06	2.8744e-06	1263	243.69	3.1537e-06	2.8413e-06	303.01	87.951	69.171	20.352	2.6808e-06	28.647	200.935	19.205	38.029	-51.758	109.698	89.784	-51.576	-44.607	174.919	111.131	-44.921	-37.992	-37.894	-31.360	102.348	-31.184	-8191	255	
25003.994	1	1	0	0	0.092338	0.049187	0.16042	0.13445	0.12447	0.16149	0.12737	0.10851	0.11558	0.050505	0.1181	0.083411	0.15357	0.079834	0.17605	0.088429	-4.3	-4.6062	-4.1875	-4.9083	-4.4563	-4.1562	-5.0062	-4.3875	-4.575	-4.8292	-4.3583	-4.6833	-4.4729	-4.3833	-4.8292	-4.275	135.749	142.449	-13.452	220.603	258.499	43.343	185.345	78.106	50.186	-21.724	59.537	288.648	224.875	295.581	22.615	157.456	5.3518e-05	0.00029542	9.7517e-05	1226.9	1.6309e-06	2.7549e-06	1285.2	245.35	8.1779e-07	4.1207e-06	305.37	86.836	68.667	20.139	3.1745e-06	28.687	0.00021125	0.00026207	7.5677e-05	1202.6	3.4513e-06	3.1779e-06	1262.2	243.32	3.1731e-06	2.7525e-06	302.05	87.591	68.918	20.256	2.9759e-06	28.605	204.207	37.522	28.520	-52.214	93.061	127.112	-51.817	-44.790	118.271	90.024	-45.139	-37.754	-37.697	-31.112	100.157	-31.408	-8191	255	
25004.113	1	1	0	0	0.16976	0.024604	0.072619	0.15703	0.061699	0.2002	0.15173	0.1617	0.20973	0.20858	0.13262	0.15513	0.17995	0.27522	0.10061	0.15121	-4.175	-4.5292	-4.0646	-4.7063	-4.5375	-4.1167	-4.9979	-4.4104	-4.3938	-4.7458	-4.2708	-4.6979	-4.6687	-4.2188	-4.7438	-4.35	148.478	-41.607	12.144	190.305	272.732	5.844	227.524	235.758	31.442	250.459	36.164	274.771	107.312	281.531	258.352	52.286	7.5225e-05	0.00038825	8.1854e-05	1223.4	2.4941e-06	3.5034e-06	1282.4	245.12	8.6702e-07	2.3257e-06	304.54	86.676	68.59	20.295	1.8913e-06	28.369	0.00020955	0.00025664	7.9465e-05	1198	3.5269e-06	3.344e-06	1257.8	242.39	2.9545e-06	2.5473e-06	301.59	87.498	68.934	20.302	2.8849e-06	28.548	196.153	38.292	19.461	-51.927	116.666	84.359	-51.585	-44.472	121.872	95.352	-44.881	-37.938	-37.574	-31.320	98.674	-31.748	-8191	255	
25004.209	1	1	0	0	0.13528	0.029509	0.04863	0.28536	0.19263	0.11514	0.38813	0.33777	0.12102	0.19796	0.016937	0.05776	0.11342	0.37283	0.19689	0.21496	-4.1813	-4.6708	-4.1438	-4.7833	-4.5583	-4.2167	-4.8562	-4.425	-4.4	-4.825	-4.4313	-4.8167	-4.7229	-4.2271	-4.7854	-4.4458	10.898	51.975	41.972	-18.373	175.234	-11.272	192.411	220.763	64.213	217.400	-6.002	287.831	194.452	220.483	-37.624	250.820	7.7149e-05	0.00023511	0.00011863	1221.2	2.3558e-06	3.7647e-06	1278.3	245.01	1.3583e-06	3.1928e-06	303.56	86.521	68.842	20.041	2.7436e-06	28.511	0.00021059	0.00026423	7.8397e-05	1196.4	3.1926e-06	3.2635e-06	1255.2	242.51	3.2971e-06	2.8236e-06	301.02	87.329	68.968	20.245	2.4534e-06	28.582	203.792	58.647	30.525	-51.946	131.195	72.465	-51.663	-44.774	128.303	109.916	-44.877	-37.898	-37.849	-31.154	120.273	-31.899	-8191	255	
25004.307	1	1	0	0	0.14086	0.077577	0.049625	0.20002	0.097143	0.011894	0.17479	0.16379	0.059139	0.21816	0.16751	0.16758	0.17184	0.061709	0.19714	0.20228	-4.0188	-4.8063	-4.1896	-4.7333	-4.6167	-4.2417	-5	-4.5208	-4.2521	-4.7667	-4.2229	-4.5833	-4.6729	-4.1771	-4.65	-4.5521	78.351	-61.880	151.377	-59.893	263.801	-2.256	192.783	-58.174	88.390	275.842	221.320	47.352	-35.537	187.221	279.333	276.307	7.1285e-05	0.00035878	5.9409e-05	1216.6	1.5595e-06	2.8298e-06	1277.3	243.72	9.4398e-07	2.7191e-06	304.23	86.752	69.068	20.319	2.8845e-06	28.381	0.00021108	0.00021634	7.7595e-05	1193.3	3.0141e-06	2.8336e-06	1252.7	241.71	2.8669e-06	2.3382e-06	300.76	87.324	68.876	20.272	2.7237e-06	28.536	203.209	26.095	34.163	-52.058	136.152	78.926	-51.573	-44.221	122.435	67.024	-44.865	-38.053	-38.048	-31.384	99.912	-31.704	-8191	255	
25004.402	1	1	0	0	0.10468	0.046189	0.06248	0.10563	0.10419	0.20202	0.50325	0.10372	0.023922	0.014215	0.08092	0.071171	0.20105	0.12437	0.17086	0.13467	-3.8854	-4.75	-4.3375	-4.7833	-4.8063	-4.2458	-4.9021	-4.6229	-4.3187	-4.7792	-4.4083	-4.5813	-4.8562	-4.2417	-4.6479	-4.7667	143.328	162.179	235.714	288.088	159.077	141.276	230.014	257.830	24.071	215.162	-49.917	214.272	90.889	293.424	101.653	254.071	7.157e-05	0.00020401	6.1362e-05	1217.4	1.4892e-06	3.1018e-06	1266.7	244.28	2.0167e-06	2.6325e-06	301.01	86.765	68.34	20.089	1.814e-06	28.062	0.00020561	0.00021642	7.1038e-05	1189	2.8856e-06	2.9401e-06	1246.2	241.62	3.0281e-06	2.3569e-06	299.63	87.138	68.867	20.192	2.1858e-06	28.372	201.750	28.403	34.554	-51.987	114.841	96.163	-51.559	-44.573	119.176	92.622	-44.735	-38.059	-37.664	-31.018	97.162	-31.441	-8191	255	
25004.498	1	1	0	0	0.11064	0.21632	0.1583	0.22689	0.097283	0.19244	0.20703	0.12206	0.085255	0.14465	0.15687	0.17611	0.075713	0.15439	0.15147	0.23353	-3.6667	-4.5167	-4.5	-4.4896	-4.7312	-4.3167	-4.7896	-4.7688	-4.0563	-4.6354	-4.4979	-4.375	-4.9417	-4.4062	-4.5333	-4.8104	192.217	33.307	164.790	285.810	72.945	-26.019	235.828	282.604	-12.181	52.985	210.629	168.007	177.184	234.639	271.245	296.409	7.2009e-05	0.00031426	0.00010182	1206	2.2671e-06	2.4095e-06	1265.1	242.23	5.0369e-07	2.3465e-06	301.75	86.47	68.006	20.195	1.8858e-06	28.141	0.00020121	0.0002065	6.2708e-05	1182.2	2.8053e-06	2.6108e-06	1238.3	240.19	2.87e-06	2.0886e-06	298.91	86.769	68.503	20.202	2.3634e-06	28.352	206.421	33.581	30.835	-52.011	94.984	92.344	-51.483	-44.678	96.898	60.214	-44.675	-37.565	-37.584	-30.775	113.539	-31.433	-8191	255	
25004.594	1	1	0	0	0.32459	0.12601	0.11917	0.22002	0.18203	0.1794	0.16631	0.11191	0.073283	0.2362	0.10595	0.24505	0.15804	0.14628	0.36692	0.049772	-4.1271	-4.75	-4.4375	-4.4771	-4.8458	-4.1792	-4.8417	-5.0687	-4.2104	-4.6708	-4.7792	-4.3396	-4.8396	-4.3354	-4.5292	-4.8604	124.759	224.018	-3.775	199.835	179.199	50.368	180.543	206.989	185.013	295.185	155.489	218.113	86.644	115.065	170.120	31.333	7.1282e-05	0.00024897	0.00010632	1198.5	2.3752e-06	3.62e-06	1252.1	241.05	1.3369e-06	3.2387e-06	301.01	85.937	67.66	19.973	2.9651e-06	28.246	0.00020088	0.00020426	5.5568e-05	1173.7	2.524e-06	2.3023e-06	1230.4	239.12	2.9134e-06	1.9879e-06	297.99	86.627	68.101	20.099	2.3351e-06	28.331	205.109	5.429	31.156	-51.945	130.960	71.039	-51.628	-44.570	110.827	79.822	-45.204	-38.139	-37.627	-31.230	111.498	-31.377	-8191	255	
25004.689	1	1	0	0	0.1869	0.10039	0.13231	0.11594	0.17358	0.087225	0.070333	0.060591	0.13809	0.16389	0.43696	0.12966	0.41582	0.25598	0.13645	0.11971	-3.8896	-4.6146	-4.5292	-4.3042	-4.7083	-4.5771	-4.5188	-4.7917	-4.1917	-4.7958	-4.7583	-4.3958	-4.8958	-4.5896	-4.3729	-5.0146	193.497	90.834	278.844	-51.186	85.216	174.030	244.413	78.185	254.779	103.678	245.490	-29.008	-28.483	0.139	-44.498	6.467	6.3989e-05	0.00016849	9.0541e-05	1194.4	1.7765e-06	2.781e-06	1247.1	241.2	1.0684e-06	2.3592e-06	302.14	85.919	67.791	20.051	1.2754e-06	28.002	0.00019462	0.00022367	5.1512e-05	1168.6	2.7936e-06	2.3302e-06	1226.1	238.58	2.8173e-06	2.5029e-06	297.74	86.499	68.15	20.062	2.5512e-06	28.184	219.839	31.690	45.227	-51.904	97.565	49.330	-51.516	-44.459	145.214	123.109	-44.917	-37.826	-37.510	-31.156	95.229	-31.345	-8191	255	
25004.811	1	1	0	0	0.067183	0.21798	0.14809	0.1726	0.059853	0.27139	0.11398	0.027402	0.26488	0.37472	0.20034	0.094493	0.16514	0.12143	0.074489	0.19348	-3.8979	-4.5167	-4.7063	-4.3604	-4.6521	-4.6104	-4.725	-5.0792	-4.1729	-4.5729	-4.8208	-4.25	-4.7146	-4.4792	-4.2479	-4.8417	99.032	108.192	224.545	230.714	296.846	34.875	233.663	-47.452	-9.394	287.406	-26.100	209.993	247.271	219.929	63.816	208.752	6.7408e-05	0.00035816	0.00010156	1195	1.4828e-06	2.6031e-06	1251.9	240.52	1.3772e-06	4.4652e-06	299.7	85.518	67.828	19.836	1.8202e-06	28.207	0.00020639	0.00024619	5.7365e-05	1168	2.81e-06	2.6466e-06	1227.7	238.35	3.1103e-06	2.5888e-06	296.6	86.232	68.043	19.992	2.782e-06	28.232	208.242	41.264	59.340	-52.051	134.578	78.238	-51.727	-44.219	119.860	102.400	-44.621	-38.052	-37.795	-31.053	104.244	-31.590	-8191	255	
25004.904	1	1	0	0	0.081672	0.077697	0.13858	0.11519	0.06531	0.19431	0.15669	0.3067	0.10469	0.195	0.049696	0.12509	0.11381	0.074255	0.06076	0.16428	-3.9729	-4.5271	-4.8292	-4.2646	-4.6062	-4.5479	-4.3875	-4.9708	-4.3354	-4.2708	-4.9667	-4.3792	-4.4958	-4.6521	-4.2542	-4.8375	194.241	150.717	128.328	-43.302	65.036	242.779	150.903	229.059	126.142	76.942	164.259	278.798	74.142	135.062	-38.937	202.500	6.4417e-05	0.00038923	9.1787e-05	1189.4	1.5965e-06	2.6858e-06	1248.5	240.2	9.738e-07	4.2367e-06	302.17	85.074	67.47	19.848	2.0269e-06	27.935	0.00019143	0.00025569	6.6594e-05	1166.8	2.9705e-06	2.6466e-06	1227.2	238.49	2.8653e-06	2.862e-06	297.12	85.867	67.871	19.988	3.0111e-06	28.123	211.963	23.662	26.341	-51.810	141.280	93.954	-51.579	-44.620	126.417	95.657	-44.938	-38.321	-37.498	-31.263	107.691	-31.963	-8191	255	
25005.004	1	1	0	0	0.10481	0.1943	0.23794	0.26328	0.12221	0.04397	0.16789	0.26516	0.058444	0.049628	0.22759	0.28424	0.16626	0.20977	0.058357	0.24548	-4.0125	-4.5042	-4.6646	-4.3562	-4.4708	-4.6875	-4.3812	-4.7708	-4.3646	-4.3521	-4.7917	-4.4917	-4.6667	-4.7917	-4.2167	-4.9208	107.783	248.999	142.868	261.382	-47.838	229.282	256.369	203.300	290.351	67.372	160.751	-32.296	41.409	230.621	42.032	-17.827	8.1459e-05	0.00026293	4.6924e-05	1193.1	2.8514e-06	2.3815e-06	1247.9	241.2	1.0943e-06	3.9269e-06	299.09	85.596	67.718	19.963	2.4319e-06	28.026	0.00019351	0.00021901	5.3892e-05	1168.7	3.1396e-06	2.1083e-06	1225.3	238.63	2.7521e-06	2.6914e-06	296.42	86.151	67.994	20.013	2.6379e-06	28.17	208.234	17.208	31.493	-51.861	136.265	102.713	-51.689	-44.443	145.541	89.887	-44.657	-38.116	-37.520	-31.110	94.262	-31.598	-8191	255	
25005.098	1	1	0	0	0.20953	0.17445	0.16687	0.14827	0.027028	0.19414	0.39956	0.062736	0.16688	0.099483	0.28161	0.26336	0.15625	0.2561	0.063307	0.032909	-4.1104	-4.3375	-4.8833	-4.5625	-4.5312	-4.8854	-4.2937	-4.9	-4.4042	-4.3562	-4.9812	-4.1958	-4.4229	-4.8417	-4.2979	-4.8042	72.514	52.694	-47.671	8.748	159.458	172.997	252.507	201.376	226.216	272.348	250.559	288.141	282.045	259.152	29.726	98.673	5.3219e-05	0.00037446	9.1398e-05	1193.3	2.1256e-06	4.0562e-06	1247	240.69	7.7367e-07	2.6971e-06	299.99	85.616	67.744	19.882	2.7009e-06	27.993	0.00019182	0.00023696	5.6855e-05	1168	3.2152e-06	2.2546e-06	1225.2	238.61	2.6816e-06	2.5532e-06	297.27	85.984	67.932	19.959	2.7245e-06	28.142	197.256	16.899	35.964	-51.820	144.981	82.250	-51.650	-44.761	84.168	87.117	-45.014	-37.923	-37.918	-31.242	89.425	-31.362	-8191	255	
25005.193	1	1	0	0	0.089494	0.10247	0.21423	0.11258	0.17186	0.082165	0.22403	0.18775	0.11284	0.050404	0.10469	0.056473	0.35039	0.29748	0.092994	0.25053	-4.3583	-4.3	-4.7917	-4.5146	-4.3792	-4.7937	-4.2458	-4.7125	-4.6	-4.3146	-4.9542	-4.5813	-4.3708	-4.8479	-4.1937	-4.7188	142.145	124.787	85.682	244.159	276.497	287.647	198.820	289.178	222.027	-10.282	205.192	169.305	-43.442	227.409	281.602	-14.716	7.0554e-05	0.000198	0.0001134	1196.1	2.2517e-06	2.6833e-06	1243.6	240.24	1.1261e-06	3.1107e-06	299.84	85.386	67.46	19.98	2.3466e-06	27.896	0.00018814	0.00023023	6.1323e-05	1167.2	2.8996e-06	2.3809e-06	1223.4	238.12	2.632e-06	2.3244e-06	297	86.126	67.963	19.946	2.6242e-06	28.061	209.061	4.602	33.610	-51.936	102.174	68.973	-51.435	-44.273	111.835	103.566	-45.038	-37.998	-37.503	-31.159	115.171	-31.817	-8191	255	
25005.289	1	1	0	0	0.14017	0.21416	0.1478	0.30029	0.037204	0.033275	0.43074	0.17599	0.057376	0.079907	0.25897	0.29983	0.19804	0.23436	0.064436	0.14882	-4.2042	-4.2146	-4.6792	-4.6417	-4.3292	-4.8833	-4.3521	-4.6375	-4.7958	-4.3167	-4.8896	-4.5	-4.2292	-4.9771	-4.4646	-4.3729	217.476	44.533	76.147	254.510	-1.711	223.112	241.997	253.331	68.948	40.702	200.486	134.775	62.527	218.908	291.744	49.194	6.8702e-05	0.00028827	8.9135e-05	1188.7	1.4762e-06	4.3995e-06	1240.3	239.38	1.1257e-06	3.8733e-06	299.7	85.439	68.147	19.899	2.6843e-06	28.005	0.0001928	0.00023152	5.887e-05	1163.9	2.8645e-06	2.2277e-06	1221.2	238.06	2.6374e-06	2.7259e-06	296.33	86.184	67.944	19.958	2.5246e-06	28.065	212.974	31.611	49.006	-51.852	114.302	86.816	-51.451	-44.440	123.133	107.626	-44.864	-38.008	-37.766	-31.095	98.322	-31.747	-8191	255	
25005.410	1	1	0	0	0.090651	0.13996	0.19366	0.30995	0.22956	0.13995	0.14732	0.14293	0.11329	0.1378	0.023261	0.1324	0.19711	0.078092	0.044644	0.15497	-4.4646	-4.1292	-4.7521	-4.7208	-4.1625	-4.9083	-4.4479	-4.5833	-4.7521	-4.1729	-4.7667	-4.525	-4.2958	-4.8812	-4.4729	-4.4	242.514	-31.021	-59.870	-45.939	268.021	187.409	250.452	-35.254	11.041	132.175	-1.830	97.397	12.846	207.659	127.646	200.277	6.4306e-05	0.00032807	9.5524e-05	1186.2	1.6577e-06	2.4918e-06	1241.4	240.71	1.5121e-06	3.8004e-06	297.47	84.882	67.003	19.82	2.79e-06	27.84	0.00018651	0.00026043	5.9429e-05	1161.3	3.0141e-06	2.6167e-06	1218.6	237.62	2.8459e-06	2.5967e-06	295.84	85.783	67.742	19.861	2.6319e-06	28.058	207.344	42.086	32.256	-51.867	120.905	59.210	-51.544	-44.416	125.266	103.996	-44.872	-37.837	-37.828	-31.273	106.723	-31.440	-8191	255	
25005.508	1	1	0	0	0.24759	0.12489	0.051678	0.13076	0.18993	0.09188	0.14098	0.090791	0.063132	0.12361	0.14383	0.075596	0.09833	0.13682	0.13545	0.22802	-4.4688	-4.2312	-4.6271	-4.725	-4.0479	-4.9021	-4.6062	-4.3688	-4.7083	-4.3125	-4.5792	-4.7208	-4.2729	-4.825	-4.4708	-4.4688	-37.062	92.822	37.298	243.843	159.608	220.939	75.504	218.812	82.238	122.107	-53.792	-16.803	179.069	179.281	20.510	237.516	7.339e-05	0.00029582	9.3226e-05	1184.6	2.4711e-06	2.7127e-06	1240.1	238.77	1.5633e-06	3.3916e-06	298.04	84.789	67.639	19.659	1.7672e-06	27.864	0.00019661	0.00023713	5.9065e-05	1158.5	3.4677e-06	2.4426e-06	1216.5	236.82	2.9142e-06	2.4309e-06	294.95	85.57	67.532	19.779	2.1764e-06	27.959	201.190	39.651	34.376	-51.807	148.539	84.302	-51.461	-44.139	99.334	114.035	-44.821	-38.124	-37.523	-31.118	116.877	-31.210	-8191	255	
25005.604	1	1	0	0	0.039764	0.13494	0.14797	0.36627	0.16614	0.094379	0.13718	0.26548	0.17326	0.14836	0.10523	0.016579	0.17461	0.069453	0.08081	0.13816	-4.4667	-4.1667	-4.7042	-4.8771	-4.2542	-4.9688	-4.7708	-4.5021	-4.7354	-4.475	-4.6125	-4.7854	-4.2146	-4.85	-4.5625	-4.3354	275.611	123.255	-40.899	226.711	198.924	98.862	265.403	211.896	118.443	290.182	70.163	16.542	150.022	42.796	151.150	-7.124	7.9547e-05	0.00026983	8.3354e-05	1177.8	2.0733e-06	3.3398e-06	1233.2	239.39	9.4859e-07	2.1482e-06	296.92	84.501	67.312	19.642	2.5775e-06	27.798	0.00018374	0.00024335	6.5136e-05	1154.5	3.1295e-06	2.5471e-06	1211.2	236.63	2.6211e-06	2.2948e-06	294.42	85.399	67.353	19.766	2.5452e-06	27.914	207.210	24.757	16.902	-51.898	103.629	95.879	-51.467	-44.518	87.796	68.059	-44.684	-37.876	-37.270	-31.308	96.417	-31.205	-8191	255	
25005.674	1	1	0	0	0.13387	0.18244	0.32142	0.098997	0.023402	0.071389	0.19446	0.085979	0.13974	0.22147	0.10577	0.15029	0.14976	0.07322	0.27967	0.043536	-4.4917	-4.4208	-4.3708	-4.7562	-4.2333	-4.7292	-4.7875	-4.2688	-4.8146	-4.3542	-4.6104	-4.9313	-4.3	-4.7438	-4.7875	-4.4271	-4.164	188.990	26.664	273.920	138.880	216.730	119.574	205.651	-41.320	-40.639	169.927	-27.167	-49.148	21.176	256.643	53.968	7.3753e-05	0.00022673	8.2358e-05	1173.7	2.2994e-06	3.2336e-06	1223.3	238.42	1.0778e-06	3.2625e-06	298.5	84.885	66.819	19.667	2.203e-06	27.593	0.00019166	0.00021625	5.0977e-05	1149.4	3.0484e-06	2.4366e-06	1205.2	235.85	2.4041e-06	2.1961e-06	294.41	85.234	67.195	19.731	2.1506e-06	27.77	208.816	32.550	27.600	-51.546	130.581	81.071	-51.669	-44.171	89.084	86.965	-44.759	-37.822	-37.550	-31.358	107.561	-31.456	-8191	255	
25005.795	1	1	0	0	0.066253	0.072332	0.15503	0.23221	0.22482	0.3416	0.16491	0.13342	0.099264	0.16324	0.11382	0.12505	0.21801	0.26765	0.17296	0.18596	-4.5792	-4.4229	-4.4333	-5.0417	-4.25	-4.675	-4.8187	-4.1667	-4.8646	-4.5104	-4.4313	-4.8375	-4.3313	-4.5104	-4.6958	-4.1521	171.678	124.377	210.851	229.106	98.314	103.367	273.356	279.922	275.273	160.224	-14.208	173.822	18.282	236.484	178.690	64.481	7.4372e-05	0.00033461	6.4797e-05	1167.8	2.7904e-06	3.0661e-06	1222.2	238.21	1.6525e-06	2.7974e-06	295.84	83.853	66.425	19.624	3.125e-06	27.685	0.00018315	0.00019502	5.9356e-05	1142	2.8489e-06	1.967e-06	1199	235.2	2.3971e-06	2.0136e-06	292.62	84.9	66.715	19.699	2.1043e-06	27.691	212.072	18.843	45.928	-51.742	103.141	81.282	-51.404	-44.175	91.785	97.193	-44.827	-37.879	-37.420	-31.212	103.016	-31.433	-8191	255	
25005.891	1	1	0	0	0.14884	0.068945	0.23133	0.15327	0.13677	0.098239	0.30104	0.090581	0.12468	0.13808	0.12726	0.21881	0.1163	0.16769	0.15852	0.023595	-4.4083	-4.5604	-4.2167	-5.0583	-4.4333	-4.6708	-4.8958	-4.4	-4.5958	-4.5333	-4.3063	-4.9042	-4.4729	-4.2875	-4.7708	-4.2292	-7.319	154.669	218.546	89.810	84.702	286.872	204.960	-32.103	94.377	-46.663	108.256	-61.085	60.685	149.287	-21.191	-31.655	7.4062e-05	0.00032938	4.6116e-05	1161.8	2.4549e-06	2.4232e-06	1212.8	236.4	8.6199e-07	4.1772e-06	296.27	84.06	65.671	19.452	2.9286e-06	27.596	0.00017927	0.0001725	5.7073e-05	1135.1	2.6791e-06	2.0397e-06	1190.4	233.65	2.2079e-06	1.9248e-06	292.33	84.484	66.498	19.574	2.1532e-06	27.707	206.350	38.547	39.809	-51.703	99.522	82.316	-51.506	-44.446	124.878	102.505	-45.018	-38.397	-37.700	-30.948	82.529	-31.844	-8191	255	
25005.986	1	1	0	0	0.16544	0.08852	0.17121	0.44472	0.0069774	0.19499	0.21949	0.18673	0.23327	0.065942	0.13439	0.16998	0.12935	0.13964	0.13798	0.055675	-4.4	-4.5417	-4.0792	-4.9083	-4.3354	-4.675	-5.0396	-4.3104	-4.6667	-4.5542	-4.2896	-4.9021	-4.6167	-4.4417	-4.7167	-4.3729	-40.741	134.804	91.521	257.252	-1.606	220.381	254.123	266.717	10.623	13.161	263.074	199.641	-26.045	31.275	-12.035	-34.282	7.1431e-05	0.00036932	0.00011123	1157.6	2.423e-06	2.9789e-06	1206.6	234.47	1.0512e-06	3.2681e-06	294.42	83.24	65.962	19.234	1.7965e-06	27.436	0.00018585	0.00020227	6.1032e-05	1133.7	2.757e-06	1.963e-06	1186.6	232.88	2.5994e-06	2.0363e-06	291.71	84.114	66.359	19.491	1.8615e-06	27.536	208.535	22.285	29.696	-52.015	117.045	103.790	-51.552	-44.339	160.025	62.965	-44.606	-38.156	-37.546	-31.373	94.580	-31.244	-8191	255	
25006.082	1	1	0	0	0.24602	0.10525	0.28608	0.20518	0.079799	0.027446	0.2158	0.093951	0.15114	0.07913	0.070402	0.17138	0.12148	0.24165	0.11352	0.16697	-4.2375	-4.5729	-4.1312	-4.8875	-4.4396	-4.3146	-5.0646	-4.4583	-4.5396	-4.7646	-4.2792	-4.8125	-4.5687	-4.3646	-4.6312	-4.4313	9.203	103.213	57.081	204.787	259.393	150.309	283.381	222.369	147.527	84.049	231.126	165.955	134.669	202.062	186.650	40.279	6.357e-05	0.00019343	0.00010475	1150	1.6529e-06	2.593e-06	1203.8	234.8	5.571e-07	3.2261e-06	294.72	83.162	66.101	19.448	2.3923e-06	27.307	0.00017999	0.0001744	5.2653e-05	1126.2	2.5201e-06	2.2695e-06	1181.2	232.07	2.4149e-06	2.1507e-06	290.69	83.897	66.037	19.49	1.8993e-06	27.469	208.423	-0.686	32.558	-51.869	126.460	118.418	-51.505	-44.465	92.114	101.643	-44.529	-37.542	-37.504	-31.151	94.694	-31.379	-8191	255	
25006.201	1	1	0	0	0.067026	0.092692	0.29161	0.2214	0.16627	0.074866	0.15453	0.27033	0.19842	0.15006	0.25772	0.071503	0.16852	0.31682	0.18945	0.10298	-4.2229	-4.775	-4.2125	-4.7979	-4.5	-4.2396	-5.0208	-4.4667	-4.3146	-4.8125	-4.1896	-4.6875	-4.6312	-4.275	-4.8688	-4.4812	-55.064	-33.270	-10.307	269.553	20.070	-61.215	198.045	-31.164	216.477	70.328	172.782	-19.965	287.763	63.148	201.240	16.308	6.9339e-05	0.00025308	9.7407e-05	1142.2	1.7556e-06	2.7038e-06	1195.5	231.4	1.3319e-06	2.914e-06	293.84	83.5	65.685	19.34	2.6289e-06	27.325	0.00017106	0.00015981	5.7559e-05	1116.7	2.5427e-06	2.17e-06	1175.2	230.03	2.2312e-06	1.6397e-06	289.5	83.8	65.867	19.428	2.1292e-06	27.395	206.362	29.648	14.816	-51.788	109.355	98.320	-51.359	-44.380	90.594	88.681	-44.633	-37.815	-37.701	-31.285	100.446	-31.782	-8191	255	
25006.273	1	1	0	0	0.2621	0.060952	0.028869	0.080598	0.17803	0.20395	0.16351	0.23007	0.29832	0.26712	0.12896	0.013457	0.19105	0.15319	0.08838	0.23987	-4.0583	-4.7479	-4.4292	-4.7646	-4.7146	-4.4042	-4.95	-4.5333	-4.4042	-4.925	-4.4812	-4.6458	-4.8542	-4.2333	-4.6521	-4.6625	231.135	127.605	179.266	-39.097	189.990	163.359	220.928	210.888	184.951	3.616	151.829	49.323	57.916	272.585	241.952	5.112	8.3388e-05	0.00029912	7.7555e-05	1130.8	1.9301e-06	3.9566e-06	1186.2	231.83	1.6906e-06	2.4375e-06	290.58	83.287	65.318	19.366	2.3135e-06	27.327	0.00017989	0.00015524	4.8549e-05	1108.5	2.291e-06	2.1382e-06	1168.2	229.09	2.4157e-06	1.7344e-06	287.59	83.266	65.581	19.359	1.895e-06	27.287	210.475	21.269	18.962	-51.729	108.440	84.686	-51.539	-44.213	126.255	90.249	-44.670	-37.693	-37.333	-31.237	85.519	-31.272	-8191	255	
25006.369	1	1	0	0	0.26011	0.19478	0.16669	0.43161	0.12257	0.21575	0.30531	0.19162	0.10699	0.14298	0.065453	0.21097	0.062791	0.32437	0.16823	0.072516	-4.0583	-4.8271	-4.3417	-4.7229	-4.8208	-4.225	-4.9417	-4.6458	-4.3646	-4.8375	-4.3688	-4.5062	-4.8313	-4.3271	-4.6208	-4.7333	150.490	287.925	167.912	230.927	234.723	270.997	198.380	290.291	-53.063	294.582	254.740	-16.778	87.606	288.173	220.606	53.548	6.786e-05	0.0002121	7.3511e-05	1121.3	2.7015e-06	3.2152e-06	1187.2	231.37	9.8998e-07	2.7835e-06	290.21	82.621	65.416	19.257	1.7912e-06	26.953	0.00017862	0.00012279	4.8184e-05	1099.5	2.0915e-06	1.975e-06	1164.9	228.26	2.235e-06	1.7689e-06	287.04	82.92	65.277	19.283	1.6136e-06	27.221	205.102	13.938	27.330	-51.662	128.002	68.853	-51.464	-44.570	96.255	111.421	-44.768	-37.831	-37.780	-31.120	85.131	-31.367	-8191	255	
25006.490	1	1	0	0	0.11636	0.20516	0.056363	0.063083	0.12835	0.10233	0.163	0.29597	0.22431	0.11144	0.16038	0.34049	0.066918	0.14653	0.095663	0.16085	-4.0292	-4.7917	-4.3146	-4.5292	-4.7542	-4.2688	-4.9646	-4.6813	-4.0521	-4.9042	-4.5458	-4.3417	-4.9021	-4.2708	-4.6188	-4.675	-45.873	67.365	82.194	-39.306	41.846	159.166	280.773	270.439	176.354	85.958	264.602	211.113	-41.267	195.266	37.289	233.663	7.171e-05	0.00024055	0.00011174	1119.7	1.6943e-06	3.2572e-06	1177.7	230.27	1.7109e-06	3.8172e-06	288.4	81.849	65.156	19.195	2.9472e-06	27.028	0.00016565	0.00014376	4.6703e-05	1097.4	2.3409e-06	1.776e-06	1159.2	227.43	2.387e-06	1.5302e-06	285.55	82.736	65.183	19.293	2.0211e-06	27.152	211.286	26.800	31.864	-51.663	148.563	78.148	-51.330	-44.518	98.427	91.962	-44.752	-37.709	-37.569	-30.957	99.011	-31.475	-8191	255	
25006.588	1	1	0	0	0.1943	0.050398	0.093095	0.15535	0.08151	0.15988	0.080807	0.17698	0.13617	0.06276	0.077165	0.11886	0.22829	0.17512	0.21728	0.042077	-3.8521	-4.7063	-4.4958	-4.5979	-4.8208	-4.4125	-4.8646	-4.8375	-4.1438	-4.8208	-4.4812	-4.3375	-4.7625	-4.3646	-4.4708	-4.8083	280.116	94.089	142.062	226.885	-47.688	203.130	229.651	290.684	-48.754	67.605	262.086	289.522	175.760	262.540	-54.685	135.406	7.5161e-05	0.00029988	0.00010597	1111.1	1.929e-06	3.162e-06	1175.6	227.73	1.2008e-06	3.1292e-06	286.62	81.294	64.719	18.995	2.7037e-06	27.009	0.00018484	0.00016447	5.4499e-05	1086.8	2.5778e-06	1.8257e-06	1151.7	226.16	2.494e-06	1.7058e-06	283.76	82.346	64.84	19.126	1.8212e-06	27.039	187.141	46.614	27.153	-51.663	123.975	88.055	-51.414	-44.304	111.277	102.694	-44.676	-37.959	-37.511	-31.006	116.267	-31.600	-8191	255	
25006.684	1	1	0	0	0.21044	0.035258	0.076484	0.030299	0.059524	0.18979	0.25343	0.18748	0.17257	0.20839	0.18851	0.22565	0.13375	0.14261	0.21018	0.10459	-3.8375	-4.7583	-4.5979	-4.5021	-4.8458	-4.3375	-4.65	-4.9375	-4.2521	-4.7354	-4.6042	-4.3229	-4.8417	-4.4688	-4.4521	-4.8208	-8.030	223.675	173.904	54.838	-41.290	0.146	178.585	155.338	177.776	157.881	175.627	244.647	264.097	94.179	48.846	236.278	7.6206e-05	0.00027576	9.4315e-05	1096.3	2.0463e-06	3.3295e-06	1165.1	225.56	1.0896e-06	3.7173e-06	285.8	81.429	64.423	19.112	2.0077e-06	26.847	0.00017161	0.00012185	5.1827e-05	1075.5	2.0385e-06	1.7611e-06	1142.7	224.31	1.9668e-06	1.5647e-06	282.29	82.126	64.565	19.154	1.6454e-06	27.012	205.405	20.282	50.011	-51.642	137.621	92.689	-51.560	-44.236	123.969	105.480	-44.405	-37.353	-37.686	-30.566	101.691	-31.641	-8191	255	
25006.805	1	1	0	0	0.11627	0.24979	0.11382	0.018792	0.078111	0.29705	0.092741	0.038142	0.16638	0.11346	0.36366	0.18113	0.0732	0.091135	0.051578	0.24833	-3.8229	-4.675	-4.6167	-4.35	-4.7937	-4.4479	-4.6167	-4.9313	-4.3063	-4.7438	-4.9062	-4.3375	-4.7875	-4.4667	-4.3875	-4.9125	82.895	126.167	257.374	279.942	37.405	255.347	255.896	238.716	236.913	177.636	248.990	278.813	-17.081	-55.060	-16.817	233.387	6.595e-05	0.00037197	7.1918e-05	1088	1.4962e-06	2.199e-06	1157.1	225.58	8.248e-07	3.2328e-06	282.97	81.542	63.778	19.079	3.0606e-06	26.797	0.00016014	0.00014299	2.5598e-05	1066	1.8585e-06	1.0298e-06	1135.1	223.55	1.7994e-06	1.1148e-06	280.78	82.056	64.365	19.102	1.4189e-06	26.972	200.734	24.809	38.950	-51.695	139.365	88.912	-51.159	-44.297	97.321	97.428	-44.519	-37.589	-36.997	-30.433	110.325	-31.646	-8191	255	
25006.900	1	1	0	0	0.14394	0.21758	0.051603	0.14898	0.217	0.074382	0.20646	0.076818	0.25734	0.18982	0.040059	0.27892	0.26981	0.42322	0.11392	0.13286	-3.9875	-4.4792	-4.6521	-4.2854	-4.6438	-4.5521	-4.4604	-4.95	-4.4062	-4.5646	-4.8417	-4.1354	-4.8167	-4.6875	-4.3042	-4.8583	222.413	223.273	220.495	276.861	-1.340	176.139	276.995	280.098	105.116	181.626	174.023	265.487	114.813	-39.267	77.607	294.952	6.6396e-05	0.00025699	7.5713e-05	1086.4	1.7091e-06	2.9044e-06	1147.3	224.35	1.3543e-06	2.3203e-06	281.83	80.958	63.388	18.837	2.6091e-06	26.665	0.00014583	8.2755e-05	2.4068e-05	1059.3	1.5928e-06	9.2829e-07	1124.8	222.12	1.7575e-06	1.0221e-06	279.24	81.424	63.654	18.963	1.1753e-06	26.724	207.657	-0.076	54.776	-51.724	114.707	52.886	-51.592	-44.413	147.851	92.769	-44.863	-37.508	-37.375	-30.985	109.972	-31.142	-8191	255	
25006.973	1	1	0	0	0.060943	0.038489	0.14786	0.34426	0.14463	0.15931	0.23339	0.11074	0.12072	0.097717	0.28916	0.15226	0.2564	0.12831	0.33178	0.079316	-3.9583	-4.4646	-4.7521	-4.4354	-4.7021	-4.6729	-4.4375	-4.8729	-4.3229	-4.4542	-4.9458	-4.3854	-4.575	-4.7521	-4.2271	-4.7208	87.513	3.131	289.488	236.717	70.742	172.794	19.904	-54.121	9.218	157.392	234.060	282.763	281.639	198.469	246.545	261.006	6.6132e-05	0.00026672	8.1229e-05	1053.1	1.7978e-06	2.6195e-06	1113.5	219.44	1.2038e-06	3.7652e-06	276.07	78.905	61.614	18.368	1.9958e-06	26.166	0.00014364	7.6197e-05	1.8992e-05	1032	1.246e-06	7.0343e-07	1093.1	216.67	1.4513e-06	9.6783e-07	272.58	79.417	62.312	18.474	1.183e-06	26.178	192.609	17.047	17.443	-51.386	145.338	77.589	-51.280	-44.127	114.754	82.733	-44.428	-37.729	-37.043	-30.872	90.217	-31.460	-8191	255	
25007.090	1	1	0	0	0.10098	0.17252	0.11526	0.07401	0.040615	0.072647	0.087756	0.18311	0.12895	0.15795	0.12896	0.11728	0.13246	0.12159	0.23485	0.16334	-3.9708	-4.3167	-4.8187	-4.4563	-4.5479	-4.6792	-4.2833	-4.8146	-4.3292	-4.2896	-4.9187	-4.4771	-4.5563	-4.6208	-4.2042	-4.9333	255.831	106.759	154.655	257.722	-36.457	233.096	101.369	209.441	85.582	125.023	267.617	57.765	183.136	34.855	208.452	294.712	6.3154e-05	0.00029632	9.0752e-05	1042.3	1.6079e-06	2.056e-06	1104.8	216.84	1.3537e-06	4.596e-06	272.56	79.052	61.643	18.268	2.1961e-06	26.028	0.00014351	9.9237e-05	1.9016e-05	1018.1	1.6645e-06	6.517e-07	1083.2	214.49	1.4164e-06	1.1444e-06	270.41	79.107	61.881	18.353	9.6937e-07	26.06	215.092	21.835	20.529	-51.721	123.783	99.409	-51.258	-44.015	89.574	107.205	-44.602	-37.611	-37.217	-30.676	86.055	-31.371	-8191	255	
25007.188	1	1	0	0	0.085526	0.17032	0.22381	0.21298	0.13592	0.10349	0.026918	0.1246	0.095764	0.19658	0.18236	0.017026	0.099567	0.17477	0.070654	0.050666	-4.1583	-4.1958	-4.8354	-4.4521	-4.3479	-4.6292	-4.2542	-4.7625	-4.5188	-4.2937	-5.0083	-4.6208	-4.625	-4.8938	-4.3104	-4.8917	-59.781	34.220	244.101	-45.589	3.286	231.322	218.586	238.614	208.418	96.226	122.210	125.130	-26.558	250.678	53.380	52.275	6.9379e-05	0.00024246	7.8218e-05	1042.1	1.7355e-06	2.6624e-06	1104.9	217.77	7.4454e-07	2.5425e-06	274.87	78.523	61.891	18.302	2.2621e-06	26.08	0.00012846	0.00010562	1.5519e-05	1019.2	1.5414e-06	7.5418e-07	1083.1	215.29	1.4141e-06	8.2181e-07	270.91	79.035	62.011	18.394	1.3794e-06	26.121	199.924	29.555	36.913	-51.448	155.957	117.602	-51.253	-44.056	105.105	79.050	-44.637	-37.946	-37.006	-30.596	107.211	-30.998	-8191	255	
25007.283	1	1	0	0	0.15936	0.035044	0.099995	0.2486	0.092932	0.078443	0.047388	0.074168	0.080678	0.043624	0.19459	0.17807	0.10614	0.16414	0.10439	0.22075	-4.0729	-4.2729	-4.7542	-4.5375	-4.4833	-4.8146	-4.2833	-4.7354	-4.8	-4.4083	-4.8917	-4.6396	-4.5646	-4.7979	-4.1792	-4.7854	-58.047	138.799	-42.401	216.050	-25.465	-37.156	249.590	190.812	-47.690	87.304	255.092	-19.504	-29.070	-15.592	237.074	179.379	7.0325e-05	0.00036016	0.00011074	1048.8	1.861e-06	3.0449e-06	1116.5	218	8.9983e-07	4.0165e-06	274.59	79.053	62.527	18.609	2.458e-06	26.147	0.00013507	0.00012297	2.3436e-05	1026.7	1.8079e-06	1.0039e-06	1093.1	216.06	1.2985e-06	1.1454e-06	271.97	79.571	62.575	18.574	1.2233e-06	26.214	206.742	20.799	24.035	-51.701	130.075	73.954	-51.216	-44.326	69.808	84.632	-44.579	-37.747	-37.496	-30.736	122.664	-31.086	-8191	255	
25007.402	1	1	0	0	0.094376	0.17318	0.09385	0.35401	0.18339	0.072265	0.11958	0.17904	0.19696	0.17916	0.18182	0.21669	0.026846	0.078045	0.26131	0.14531	-4.3667	-4.1146	-4.7979	-4.5729	-4.1667	-4.9313	-4.5208	-4.6875	-4.8479	-4.0771	-4.7208	-4.6333	-4.3375	-4.8833	-4.2812	-4.4625	19.966	149.321	73.032	278.077	136.124	-19.271	265.363	-15.514	22.442	131.705	258.675	251.944	159.894	-45.594	238.365	241.984	6.6739e-05	0.00018703	8.7479e-05	1059.5	1.8239e-06	3.1093e-06	1124.2	219.24	3.5773e-07	2.9189e-06	275.5	79.427	62.297	18.518	2.4458e-06	26.162	0.00014648	0.0001058	2.0522e-05	1035.3	1.7907e-06	8.5467e-07	1100.9	217.22	1.5381e-06	1.5726e-06	273.18	79.969	62.765	18.62	1.418e-06	26.413	200.200	45.019	37.553	-51.673	138.480	107.522	-51.417	-44.309	90.520	82.139	-44.610	-37.865	-37.411	-30.736	115.943	-31.103	-8191	255	
25007.500	1	1	0	0	0.12	0.058684	0.2226	0.17203	0.1781	0.17396	0.17037	0.16749	0.188	0.17855	0.15374	0.051931	0.12405	0.12627	0.05895	0.070741	-4.4062	-4.275	-4.5062	-4.7583	-4.1708	-4.7479	-4.4875	-4.2958	-4.7854	-4.2146	-4.8104	-4.4812	-4.1729	-4.8729	-4.425	-4.4021	80.498	3.048	-36.936	164.951	104.442	45.830	164.053	220.246	224.803	90.722	229.110	196.728	126.469	168.067	6.736	216.505	6.54e-05	0.00034692	6.5004e-05	1061	1.356e-06	2.7563e-06	1128	219.89	1.6757e-06	4.0421e-06	278.23	79.554	63.53	18.48	2.0578e-06	26.181	0.00015359	0.00013591	3.1402e-05	1039.3	2.0409e-06	8.6362e-07	1107.1	217.66	1.7203e-06	1.3723e-06	274.79	79.943	63.315	18.682	1.527e-06	26.344	194.979	36.960	29.047	-51.641	144.386	93.494	-51.169	-44.135	97.701	87.077	-44.722	-37.972	-37.384	-30.939	80.549	-31.448	-8191	255	
25007.570	1	1	0	0	0.17711	0.15019	0.11065	0.0911	0.044395	0.22763	0.2199	0.31999	0.18508	0.10463	0.063617	0.1147	0.0061529	0.25502	0.13422	0.20719	-4.5813	-4.1583	-4.4771	-4.8583	-4.2104	-4.8313	-4.6917	-4.5958	-4.7396	-4.3229	-4.7479	-4.6937	-4.325	-4.9479	-4.4083	-4.2125	31.778	119.605	-11.924	-15.368	-13.768	156.545	197.581	17.209	42.878	188.816	29.697	-11.359	67.142	227.235	72.044	253.850	6.9247e-05	0.00022723	8.6357e-05	1066.8	1.2994e-06	3.3784e-06	1130.5	221.9	1.1623e-06	2.8098e-06	278.49	79.939	63.031	18.626	2.1125e-06	26.11	0.00014485	0.00015067	3.6988e-05	1045.2	2.2216e-06	1.3452e-06	1112.1	218.54	1.7342e-06	1.6328e-06	275.58	80.439	63.076	18.698	1.7269e-06	26.409	207.439	28.901	31.681	-51.917	130.831	106.867	-51.196	-44.356	156.205	68.367	-44.827	-37.680	-37.129	-30.737	112.682	-31.085	-8191	255	
25007.668	1	1	0	0	0.11659	0.18266	0.077717	0.12296	0.10101	0.076045	0.27331	0.24204	0.12654	0.19207	0.32364	0.13707	0.12882	0.093667	0.234	0.28309	-4.2396	-4.275	-4.5687	-4.7708	-4.0896	-4.7667	-4.5062	-4.4354	-4.8458	-4.2958	-4.6021	-4.9938	-4.2562	-4.7479	-4.6896	-4.2104	297.897	70.036	7.191	-8.961	94.858	187.300	261.396	137.596	-56.637	263.585	282.314	145.059	176.590	-18.526	-9.107	198.095	6.9576e-05	0.00030623	0.0001001	1067	1.8959e-06	2.5473e-06	1139.3	220.51	8.7648e-07	4.0267e-06	278.4	79.78	63.119	18.677	1.9027e-06	26.225	0.00014876	0.00014143	4.0558e-05	1047.5	2.1289e-06	1.2457e-06	1117.1	218.75	1.7738e-06	1.3723e-06	275.14	80.352	63.304	18.721	1.5896e-06	26.438	197.293	25.228	32.314	-51.564	109.034	92.036	-51.537	-44.099	106.990	106.661	-44.945	-37.669	-37.406	-30.964	108.163	-31.501	-8191	255	
25007.764	1	1	0	0	0.14692	0.19323	0.090339	0.10267	0.18967	0.14647	0.088373	0.16365	0.024233	0.22497	0.22309	0.16299	0.13462	0.28576	0.11032	0.075969	-4.5146	-4.4146	-4.4542	-4.9	-4.1792	-4.6375	-4.7458	-4.1417	-4.7896	-4.5854	-4.3417	-4.8063	-4.2688	-4.6188	-4.5375	-4.2646	132.096	117.735	272.828	20.114	171.368	-43.151	197.359	200.243	140.694	280.062	76.907	103.866	33.818	249.286	123.828	150.222	6.6871e-05	0.0002887	0.00010786	1071.1	1.5052e-06	4.2178e-06	1139.5	221.85	1.1981e-06	4.2296e-06	278.95	80.059	62.946	18.642	2.5753e-06	26.465	0.00015075	0.00015188	3.4633e-05	1050.1	2.2216e-06	1.5312e-06	1118.4	219.6	1.7955e-06	1.6446e-06	275.99	80.399	63.139	18.701	1.3202e-06	26.506	197.006	31.269	41.379	-51.735	127.573	75.048	-51.394	-44.159	123.918	91.952	-44.306	-37.764	-37.174	-30.979	92.641	-31.613	-8191	255	
25007.883	1	1	0	0	0.15973	0.2539	0.17393	0.1757	0.14607	0.051903	0.098788	0.056632	0.056402	0.020086	0.18994	0.0766	0.061404	0.01697	0.076729	0.20637	-4.4396	-4.5625	-4.3354	-4.7604	-4.1687	-4.5625	-4.7375	-4.1562	-4.6813	-4.5312	-4.35	-4.8438	-4.2688	-4.5229	-4.7354	-4.3083	122.081	112.442	12.822	274.234	-4.893	138.280	237.157	148.212	148.673	-37.600	248.168	277.289	-57.805	290.875	23.361	-26.180	6.7492e-05	0.00031892	8.4371e-05	1070.5	1.8042e-06	3.5138e-06	1132.6	221.33	2.0054e-06	3.84e-06	279.72	79.618	62.473	18.588	3.0843e-06	26.293	0.00014671	0.00013263	4.085e-05	1047.6	2.1803e-06	1.4228e-06	1117	219.46	1.7187e-06	1.2628e-06	276.43	80.262	63.193	18.709	1.5132e-06	26.447	204.816	20.945	58.580	-51.625	127.438	89.308	-51.513	-44.330	127.921	93.935	-44.458	-38.041	-37.325	-31.326	103.826	-31.207	-8191	255	
25007.979	1	1	0	0	0.21083	0.13952	0.12223	0.15747	0.17651	0.19008	0.059566	0.12643	0.03847	0.10867	0.18713	0.31843	0.24075	0.22344	0.10091	0.0236	-4.3896	-4.5667	-4.2771	-4.9729	-4.5062	-4.3562	-4.8896	-4.3417	-4.5	-4.7771	-4.3771	-4.8521	-4.3063	-4.3208	-4.9125	-4.225	-6.304	260.277	105.455	190.664	84.745	48.006	19.522	221.563	79.481	155.127	132.340	76.755	271.617	-58.160	30.150	-59.445	7.0587e-05	0.00030333	8.1545e-05	1075.2	1.2368e-06	2.4255e-06	1138.7	219.31	9.0952e-07	1.667e-06	276.78	80.023	63.053	18.576	1.4281e-06	26.384	0.00014808	0.00013488	3.5701e-05	1048.8	2.0455e-06	1.6198e-06	1117.8	218.66	1.759e-06	1.2697e-06	275.16	80.428	63.269	18.653	1.3837e-06	26.489	216.025	40.830	49.327	-51.703	71.790	99.034	-51.539	-44.151	112.828	75.727	-44.589	-37.447	-38.138	-30.527	84.090	-31.141	-8191	255	
25008.074	1	1	0	0	0.078769	0.2597	0.05271	0.087429	0.032767	0.025955	0.14445	0.058788	0.091326	0.033832	0.3002	0.16855	0.12322	0.25209	0.23821	0.40132	-4.2562	-4.675	-4.0896	-4.8292	-4.3229	-4.4354	-5.1667	-4.3604	-4.4854	-4.8	-4.4042	-4.9458	-4.6312	-4.3562	-4.8729	-4.2271	116.804	-25.921	-43.578	279.483	126.102	-15.223	81.921	-23.600	0.172	271.366	212.088	6.373	-45.221	263.590	131.756	252.281	7.211e-05	0.00028469	6.9095e-05	1065.2	1.0706e-06	2.8353e-06	1141.8	221.54	1.777e-06	4.1746e-06	280.05	79.77	62.674	18.58	3.2034e-06	26.299	0.00014648	0.00011555	4.0267e-05	1047.4	1.8227e-06	1.2138e-06	1117.9	219.33	1.8195e-06	1.2322e-06	275.96	80.434	63.087	18.658	1.2585e-06	26.467	213.076	12.064	36.499	-51.814	129.734	72.013	-51.332	-44.118	104.716	103.860	-44.843	-37.608	-37.310	-30.901	94.362	-31.058	-8191	255	
25008.172	1	1	0	0	0.067111	0.046164	0.037393	0.23834	0.012327	0.055654	0.23752	0.21992	0.15208	0.072465	0.19686	0.11221	0.19716	0.24696	0.11248	0.24253	-4.1792	-4.6021	-4.125	-4.7438	-4.6292	-4.2688	-4.9396	-4.4042	-4.6375	-4.925	-4.475	-4.7063	-4.5729	-4.1708	-4.6937	-4.3917	98.031	258.201	147.761	292.757	18.292	87.142	270.401	160.585	31.667	10.057	226.047	-39.104	56.311	-44.129	-43.008	-28.026	7.2361e-05	0.00028091	8.8855e-05	1069.3	1.4235e-06	3.173e-06	1136	221.09	1.5802e-06	3.162e-06	277.3	79.922	63.171	18.661	2.3917e-06	26.283	0.00014863	0.00011166	3.8348e-05	1046.9	1.9006e-06	1.5462e-06	1116.9	218.96	1.8482e-06	1.179e-06	275.43	80.318	63.388	18.73	1.3889e-06	26.451	213.453	14.154	22.788	-51.454	87.523	72.092	-51.246	-43.963	121.026	89.576	-44.814	-37.970	-37.115	-30.981	94.357	-31.606	-8191	255	
25008.268	1	1	0	0	0.18568	0.10024	0.18221	0.2521	0.16567	0.21416	0.22807	0.13504	0.1152	0.19637	0.11992	0.15158	0.15511	0.093768	0.17332	0.3893	-4.1083	-4.7917	-4.2208	-4.8417	-4.6167	-4.1958	-5.0354	-4.6208	-4.3771	-4.825	-4.3229	-4.6979	-4.775	-4.2833	-4.8167	-4.4042	34.357	262.864	139.534	202.637	117.569	87.677	225.285	8.285	116.701	269.989	-6.266	226.281	-60.755	178.591	36.200	263.616	6.4717e-05	0.0003832	6.4848e-05	1068.3	1.6343e-06	2.8655e-06	1136.7	221.64	1.5953e-06	3.7399e-06	280.22	80.035	63.041	18.628	2.4855e-06	26.312	0.00015453	0.0001278	3.15e-05	1047.5	1.9123e-06	1.6616e-06	1116.3	219.09	1.9381e-06	1.396e-06	276.14	80.347	63.047	18.694	1.2996e-06	26.46	204.446	7.377	27.889	-51.662	124.495	86.266	-51.250	-43.980	136.301	106.455	-44.511	-37.897	-37.761	-30.982	99.408	-31.162	-8191	255	
25008.363	1	1	0	0	0.22821	0.10148	0.11691	0.23313	0.095035	0.037857	0.20395	0.16732	0.12338	0.097359	0.22729	0.38157	0.3084	0.046102	0.15877	0.12852	-3.8937	-4.8479	-4.175	-4.6833	-4.6396	-4.2083	-4.8562	-4.5312	-4.3333	-4.8958	-4.2854	-4.6188	-4.7833	-4.2979	-4.875	-4.5083	52.108	248.525	59.695	229.700	-42.906	-17.412	249.521	-61.509	194.314	295.018	188.930	284.134	296.522	285.149	-53.001	250.538	6.3685e-05	0.00042338	6.4665e-05	1067.3	1.6354e-06	2.7952e-06	1138.8	219.62	1.2415e-06	3.0519e-06	278.1	79.405	62.969	18.57	2.7981e-06	26.27	0.00015036	0.00012029	3.7401e-05	1046.8	1.9325e-06	1.5093e-06	1116.6	218.49	2.004e-06	1.1237e-06	275.15	80.156	62.999	18.689	1.3846e-06	26.367	198.910	29.072	29.528	-51.658	131.701	80.077	-51.286	-44.079	105.641	71.018	-44.746	-37.332	-37.548	-30.797	98.607	-31.099	-8191	255	
25008.482	1	1	0	0	0.13364	0.28514	0.14694	0.10501	0.21255	0.21245	0.17439	0.2027	0.027632	0.10481	0.011965	0.16486	0.20317	0.14964	0.14651	0.21393	-3.85	-4.9375	-4.4125	-4.5604	-4.8583	-4.3229	-4.6271	-4.5792	-4.225	-4.8333	-4.5271	-4.375	-4.7396	-4.2937	-4.575	-4.7188	227.752	285.336	19.756	249.220	162.377	267.207	283.829	231.475	235.993	179.546	133.077	258.445	116.348	270.451	62.415	225.367	6.4263e-05	0.00025377	0.00011847	1070.9	2.0379e-06	3.7855e-06	1133.9	221.52	1.3155e-06	3.007e-06	279.17	79.088	62.037	18.572	3.5013e-06	26.208	0.0001546	9.2334e-05	3.7498e-05	1047.4	1.9902e-06	1.6248e-06	1113.5	218.89	2.042e-06	1.105e-06	275.5	80.058	62.614	18.61	1.4412e-06	26.339	217.599	31.653	20.121	-51.664	104.609	101.780	-51.292	-44.389	99.297	99.877	-44.705	-37.733	-37.271	-31.249	75.757	-31.673	-8191	255	
25008.578	1	1	0	0	0.052316	0.069315	0.2224	0.089945	0.051405	0.15302	0.069907	0.17019	0.042487	0.21014	0.15139	0.066181	0.059427	0.13761	0.31009	0.30206	-3.8396	-4.8187	-4.475	-4.5563	-4.7104	-4.2562	-4.8438	-4.7438	-4.2438	-4.9062	-4.5	-4.3792	-4.8646	-4.3125	-4.4667	-4.5979	256.652	232.818	34.558	249.273	-43.293	271.788	-61.667	279.768	-32.135	204.961	164.568	130.042	42.822	29.152	76.721	69.526	7.2939e-05	0.00029385	7.2203e-05	1066.1	1.3121e-06	2.9615e-06	1136.2	220.95	9.2793e-07	2.9628e-06	277.16	79.77	62.134	18.404	2.2782e-06	26.033	0.00015072	0.00010234	3.4293e-05	1044.5	1.8351e-06	1.2397e-06	1113.7	218.22	1.973e-06	1.1336e-06	274.34	79.819	62.387	18.519	1.4618e-06	26.228	208.512	3.412	53.750	-51.581	131.791	80.428	-51.274	-44.207	104.048	77.249	-44.867	-37.414	-37.300	-30.983	100.531	-31.562	-8191	255	
25008.674	1	1	0	0	0.066142	0.14166	0.15334	0.36464	0.090585	0.10321	0.13808	0.026252	0.13113	0.097408	0.011425	0.067147	0.078168	0.22183	0.029735	0.037021	-3.8083	-4.8333	-4.4729	-4.225	-4.7583	-4.3021	-4.6479	-4.7375	-4.2208	-4.6708	-4.5771	-4.3271	-4.9833	-4.5333	-4.4417	-4.6813	155.454	77.018	36.561	207.959	52.090	185.200	204.697	186.164	-14.327	211.566	124.085	196.898	194.003	268.459	-41.571	246.227	7.0462e-05	0.00030789	9.0668e-05	1065.1	1.5921e-06	1.338e-06	1134.7	220.17	7.2165e-07	2.5916e-06	276.48	78.924	62.375	18.462	2.3034e-06	25.965	0.00014726	0.00013237	3.9757e-05	1043.2	2.1749e-06	1.6317e-06	1111.2	218.68	1.9707e-06	1.4019e-06	274.08	79.721	62.625	18.477	1.684e-06	26.214	199.130	41.166	40.408	-51.779	119.742	68.001	-51.584	-44.280	63.715	94.430	-44.628	-37.532	-37.236	-31.098	104.380	-31.308	-8191	255	
25008.770	1	1	0	0	0.26856	0.13212	0.072247	0.046008	0.11396	0.12045	0.24778	0.11954	0.034461	0.14995	0.13232	0.071034	0.1306	0.17792	0.11217	0.10986	-3.8917	-4.6813	-4.5708	-4.3042	-4.8812	-4.3417	-4.4812	-4.8417	-4.2333	-4.4896	-4.5458	-4.2958	-4.7896	-4.5167	-4.2083	-4.8875	164.274	63.979	185.531	272.786	221.406	-5.463	249.842	285.839	-10.588	155.207	75.833	201.038	122.859	281.485	95.241	-0.419	7.7252e-05	0.00019645	8.1284e-05	1065.4	2.668e-06	3.1382e-06	1137.8	220.37	8.3196e-07	2.3726e-06	277.7	79.073	62.378	18.55	2.116e-06	26.005	0.00016516	0.00013125	3.4341e-05	1043.7	1.7697e-06	1.8526e-06	1116.2	218.26	1.8684e-06	1.4256e-06	274.11	79.662	62.654	18.523	1.4438e-06	26.116	200.994	36.139	42.038	-51.502	115.074	76.014	-51.500	-44.317	120.290	109.364	-44.523	-37.374	-37.099	-30.719	99.369	-31.313	-8191	255	
25008.867	1	1	0	0	0.29958	0.12638	0.086272	0.279	0.1014	0.084671	0.078161	0.090206	0.15923	0.090825	0.082914	0.071862	0.29784	0.17314	0.18415	0.058443	-3.9125	-4.4167	-4.4896	-4.2771	-4.8375	-4.4896	-4.4729	-4.875	-4.2375	-4.6292	-4.7646	-4.2583	-4.7729	-4.4667	-4.1417	-4.9958	39.823	142.909	245.764	292.439	133.527	243.487	20.159	-27.131	194.835	92.015	46.167	233.352	280.449	153.463	24.693	231.447	7.4693e-05	0.00026531	5.4951e-05	1064.2	7.7125e-07	3.1098e-06	1130.7	219.71	8.0072e-07	3.6654e-06	277.11	78.813	62.065	18.338	2.3504e-06	25.948	0.00014032	0.00012409	3.0018e-05	1042.6	1.9302e-06	1.4516e-06	1111.9	217.74	1.6784e-06	1.3782e-06	273.86	79.483	62.432	18.41	1.503e-06	26.087	207.376	40.617	36.161	-51.701	139.386	87.338	-51.494	-44.392	65.873	82.107	-44.735	-37.671	-37.432	-30.417	103.096	-31.175	-8191	255	
25008.963	1	1	0	0	0.21621	0.071625	0.1977	0.15592	0.2226	0.15765	0.28893	0.23519	0.1799	0.11218	0.19705	0.26348	0.29084	0.15631	0.090286	0.18505	-3.9146	-4.4	-4.6583	-4.375	-4.5604	-4.6083	-4.3875	-4.8896	-4.2542	-4.525	-4.9125	-4.275	-4.6854	-4.6604	-4.0979	-4.8229	278.840	11.424	280.683	174.706	266.937	96.885	214.021	71.530	208.938	140.665	-17.434	41.572	265.979	159.950	98.603	144.647	7.532e-05	0.00025152	7.9769e-05	1061	7.9077e-07	3.0835e-06	1124.8	218.24	8.7468e-07	3.7151e-06	275.32	78.464	62.395	18.166	2.4556e-06	25.784	0.00014993	0.00013358	2.5768e-05	1038.7	1.7954e-06	1.3422e-06	1105.7	216.21	1.5513e-06	1.1987e-06	272.73	79.166	62.231	18.247	1.9447e-06	25.899	205.955	15.586	33.883	-51.745	139.988	101.056	-51.193	-44.284	142.515	99.389	-44.384	-37.573	-37.286	-31.080	118.568	-30.934	-8191	255	
25009.059	1	1	0	0	0.14026	0.040856	0.11708	0.20729	0.19372	0.30274	0.13592	0.077704	0.11801	0.24949	0.26981	0.24648	0.11752	0.10339	0.095281	0.053596	-4.0771	-4.2438	-4.6958	-4.4396	-4.6208	-4.7542	-4.3812	-4.8021	-4.3708	-4.2646	-4.9229	-4.1687	-4.4333	-4.6271	-4.1917	-4.8792	172.299	-46.700	22.768	-47.058	-29.526	-4.459	269.776	251.946	-30.889	281.362	269.920	-36.485	144.160	-35.875	219.016	105.609	6.2984e-05	0.00027127	0.00013472	1062	1.5025e-06	1.7636e-06	1130	220.28	1.7172e-06	2.5556e-06	277.1	79.158	61.821	18.218	1.6475e-06	25.8	0.00016079	0.00016007	4.0486e-05	1042.2	2.0783e-06	1.2745e-06	1110.5	217.35	2.1025e-06	1.7926e-06	273.65	79.149	62.062	18.32	1.7826e-06	25.942	198.113	26.971	38.579	-51.950	149.099	87.080	-51.444	-44.390	116.812	92.375	-44.515	-37.723	-37.728	-30.863	79.506	-31.047	-8191	255	
25009.180	1	1	0	0	0.26601	0.03736	0.15011	0.10887	0.10224	0.1982	0.058482	0.14993	0.11135	0.12865	0.41429	0.21501	0.27557	0.061124	0.14321	0.1081	-4.0208	-4.0979	-4.7854	-4.4042	-4.5542	-4.6417	-4.4062	-4.6042	-4.5854	-4.2917	-4.6333	-4.425	-4.5458	-4.7521	-4.1104	-4.7125	245.566	124.128	60.595	290.628	245.906	263.165	290.039	254.390	91.625	89.596	271.005	264.852	265.256	197.357	128.415	255.061	6.8111e-05	0.00032637	8.6996e-05	1069.1	5.5606e-07	2.0508e-06	1139.4	220.13	9.7245e-07	3.2552e-06	277.68	79.054	62.342	18.347	2.1277e-06	25.992	0.00016278	0.00019571	4.0898e-05	1045.7	2.139e-06	1.5989e-06	1115.8	217.78	2.1653e-06	2.2198e-06	274.1	79.416	62.573	18.395	2.2287e-06	25.974	209.628	39.829	6.975	-51.583	117.525	75.765	-51.464	-44.175	139.552	95.520	-44.667	-37.689	-37.635	-30.677	115.989	-31.455	-8191	255	
25009.273	1	1	0	0	0.29028	0.12979	0.17464	0.045636	0.097784	0.11267	0.19669	0.27101	0.15015	0.14126	0.16833	0.01908	0.10706	0.24785	0.046794	0.080965	-4.1188	-4.1625	-4.8479	-4.4313	-4.4354	-4.575	-4.2771	-4.6271	-4.5729	-4.2917	-4.8292	-4.3812	-4.4792	-4.625	-4.1646	-4.6979	0.454	224.426	213.856	164.896	73.799	55.991	225.735	-51.810	60.373	246.423	12.895	-32.908	238.718	190.260	76.056	-40.424	7.086e-05	0.00036428	5.6312e-05	1071	7.6204e-07	3.1335e-06	1139.7	221.16	1.1995e-06	2.8314e-06	278.49	79.078	62.411	18.42	1.7199e-06	25.956	0.00015763	0.00019364	3.983e-05	1050	2.5107e-06	1.569e-06	1119.2	218.88	2.1583e-06	2.0353e-06	275.94	79.572	62.845	18.467	2.0365e-06	26.146	205.414	30.052	19.634	-51.740	103.861	74.159	-51.205	-44.292	121.558	115.298	-44.492	-37.763	-37.645	-31.068	95.575	-31.310	-8191	255	
25009.369	1	1	0	0	0.2426	0.25068	0.14059	0.17226	0.097897	0.23423	0.36094	0.017066	0.20739	0.29395	0.19774	0.10438	0.14833	0.17711	0.20672	0.22566	-4.2833	-3.9562	-4.8771	-4.5917	-4.3375	-4.8646	-4.4042	-4.6042	-4.7792	-4.0021	-4.7521	-4.4854	-4.3	-4.675	-4.1792	-4.5229	44.564	277.492	40.713	251.382	290.702	146.343	248.407	-5.130	210.051	235.794	28.149	259.003	-34.565	214.937	95.249	78.279	6.1796e-05	0.00032763	7.5089e-05	1078.4	1.2535e-06	2.218e-06	1148.9	222.64	1.4776e-06	2.4004e-06	277.22	79.622	62.982	18.528	2.2535e-06	26.07	0.00017141	0.00018933	4.578e-05	1057.7	2.5224e-06	1.6994e-06	1127.5	219.79	2.118e-06	1.9337e-06	275.63	80.046	62.972	18.584	2.3171e-06	26.202	197.605	29.333	27.135	-51.608	134.464	126.530	-51.757	-44.369	94.534	96.275	-44.913	-38.045	-37.566	-30.740	121.063	-31.468	-8191	255	
25009.443	1	1	0	0	0.10086	0.15532	0.13016	0.28273	0.070709	0.058054	0.17168	0.22597	0.089419	0.23393	0.12026	0.16032	0.092437	0.24697	0.14745	0.16894	-4.3104	-4.0062	-4.6333	-4.5875	-4.3063	-4.7937	-4.3542	-4.5062	-4.6458	-4.2646	-4.8875	-4.5396	-4.125	-4.625	-4.3604	-4.4417	122.431	59.970	134.456	262.302	102.531	121.717	241.392	70.588	58.734	264.702	296.391	122.170	217.409	-28.126	99.817	13.769	7.8026e-05	0.00050897	6.0231e-05	1080.6	1.6256e-06	3.0962e-06	1151.8	222.16	1.1356e-06	3.5328e-06	280.35	79.709	62.781	18.531	2.4269e-06	26.108	0.0001631	0.00021081	4.6339e-05	1058.9	2.5645e-06	1.6974e-06	1130.9	219.8	2.111e-06	2.2662e-06	276.61	80.284	63.059	18.531	2.0588e-06	26.225	210.335	38.464	37.569	-51.836	108.704	74.244	-51.560	-44.255	134.315	102.318	-44.648	-37.795	-37.315	-31.177	117.019	-31.447	-8191	255	
25009.562	1	1	0	0	0.1255	0.36012	0.13088	0.11641	0.039955	0.07119	0.25164	0.044757	0.10829	0.1633	0.029483	0.20781	0.2379	0.12878	0.094547	0.080712	-4.5208	-4.2063	-4.4458	-4.6937	-4.1083	-4.6458	-4.5917	-4.3271	-4.7542	-4.3958	-4.6958	-4.7271	-4.1542	-4.8313	-4.3979	-4.3792	161.162	237.159	165.767	228.413	186.166	250.950	247.796	-53.512	58.094	290.374	113.028	78.388	-57.894	286.693	280.248	99.652	7.6739e-05	0.00031	6.706e-05	1087.7	1.8776e-06	2.5052e-06	1153.3	221.91	7.2796e-07	2.1582e-06	280.2	79.615	63.312	18.544	2.8679e-06	26.232	0.00017767	0.00019882	4.4736e-05	1064	2.7087e-06	1.6586e-06	1133.6	220.18	2.2102e-06	2.1606e-06	277.77	80.407	63.519	18.615	2.0237e-06	26.295	208.381	15.604	35.563	-51.747	107.539	78.564	-51.540	-44.325	86.744	95.994	-44.778	-37.425	-37.760	-31.124	109.132	-31.432	-8191	255	
25009.658	1	1	0	0	0.061424	0.16203	0.23144	0.092594	0.081656	0.18939	0.27069	0.12318	0.17434	0.18276	0.1332	0.12339	0.22174	0.14743	0.090657	0.39354	-4.525	-4.2875	-4.4646	-4.7812	-4.1896	-4.6937	-4.8313	-4.3021	-4.8479	-4.2042	-4.5917	-4.7979	-4.2042	-4.7229	-4.4979	-4.3688	191.883	51.072	96.837	246.716	197.809	74.886	163.243	164.939	80.319	212.148	246.059	-54.567	-44.828	-0.717	115.896	57.448	6.6466e-05	0.00022649	7.1806e-05	1089.7	1.2504e-06	2.4981e-06	1161.4	224.25	1.4535e-06	3.7284e-06	279.93	79.579	63.399	18.47	3.0668e-06	26.297	0.000156	0.00017569	4.0996e-05	1067	2.5856e-06	1.3531e-06	1139.7	221.61	2.049e-06	1.9593e-06	278.37	80.558	63.309	18.661	1.931e-06	26.341	209.032	45.019	21.222	-51.644	93.541	61.040	-51.276	-44.077	113.689	98.911	-44.961	-37.540	-37.503	-30.825	92.636	-31.550	-8191	255	
25009.756	1	1	0	0	0.16453	0.081212	0.10424	0.32858	0.20664	0.18014	0.2828	0.25019	0.11089	0.033466	0.07749	0.12308	0.081632	0.073238	0.084328	0.050731	-4.4583	-4.4042	-4.4375	-4.7375	-4.1271	-4.6542	-4.7833	-4.375	-4.8938	-4.4688	-4.4417	-4.9479	-4.1813	-4.7146	-4.7083	-4.2833	104.487	77.199	-2.508	252.290	220.411	239.830	225.994	198.000	173.108	124.806	-35.003	289.148	200.283	283.190	143.038	-37.526	6.8982e-05	0.00028802	6.1471e-05	1089.6	2.2292e-06	2.6684e-06	1161.6	224.27	1.2309e-06	3.235e-06	281.18	80.34	63.671	18.666	2.1571e-06	26.429	0.00015407	0.00022031	5.2993e-05	1069.9	2.6331e-06	1.9143e-06	1140.2	221.85	2.0947e-06	1.7985e-06	278.51	80.516	63.634	18.685	1.9911e-06	26.457	199.643	23.697	1.415	-51.729	155.016	93.360	-51.274	-44.336	113.480	85.735	-44.841	-37.953	-37.404	-30.995	89.751	-31.241	-8191	255	
25009.852	1	1	0	0	0.35028	0.17529	0.16961	0.17631	0.060223	0.16871	0.090818	0.16261	0.12209	0.16641	0.22287	0.20732	0.21635	0.10081	0.071633	0.21415	-4.3792	-4.4917	-4.3125	-4.8167	-4.3521	-4.65	-4.7896	-4.1792	-4.7333	-4.5	-4.575	-4.9313	-4.3292	-4.4187	-4.6604	-4.3375	-5.608	297.082	205.714	286.235	118.606	-31.013	160.126	237.260	-0.636	143.018	263.101	38.227	260.786	258.377	245.742	10.205	6.6603e-05	0.00029056	8.5427e-05	1093.4	8.5094e-07	3.25e-06	1160.4	223.59	1.3809e-06	3.1503e-06	281.2	79.97	63.441	18.811	2.2927e-06	26.293	0.00016825	0.00018277	4.9229e-05	1070.1	2.6954e-06	2.0178e-06	1141.5	222.06	2.2071e-06	1.8863e-06	278.78	80.701	63.689	18.715	1.9096e-06	26.432	202.759	26.372	10.506	-51.925	126.790	105.421	-51.345	-44.541	116.926	121.472	-44.370	-37.438	-37.640	-31.260	98.941	-31.107	-8191	255	
25009.971	1	1	0	0	0.086136	0.059162	0.067809	0.28277	0.18043	0.2192	0.15754	0.071411	0.088133	0.12275	0.092839	0.15048	0.26988	0.084121	0.1013	0.14307	-4.5104	-4.55	-4.3104	-5.0271	-4.2937	-4.5896	-4.9104	-4.3458	-4.6604	-4.7312	-4.2792	-4.8229	-4.35	-4.5458	-4.8771	-4.3521	201.482	45.363	136.052	251.040	10.198	194.141	237.693	60.081	-9.981	57.741	225.155	-45.908	8.039	295.013	-0.258	-55.085	7.4086e-05	0.00028331	7.6924e-05	1097.3	9.2309e-07	2.5653e-06	1158.8	224.31	5.1146e-07	2.9462e-06	280.57	80.487	63.197	18.606	2.5979e-06	26.122	0.00016754	0.00019597	5.4329e-05	1072.1	2.5637e-06	1.9939e-06	1140.4	221.88	2.4583e-06	2.0994e-06	278.32	80.638	63.487	18.681	1.6771e-06	26.394	201.612	23.718	29.536	-51.812	178.443	114.841	-51.393	-44.442	119.631	87.409	-44.657	-37.828	-37.636	-30.666	94.826	-31.074	-8191	255	
25010.068	1	1	0	0	0.077101	0.14894	0.11185	0.28019	0.10803	0.057517	0.16179	0.14418	0.091367	0.10884	0.28542	0.19402	0.31177	0.034819	0.12334	0.16466	-4.2354	-4.5687	-4.2188	-4.9792	-4.2917	-4.2521	-5.0292	-4.2542	-4.675	-4.725	-4.3083	-4.8292	-4.4104	-4.3542	-4.8	-4.2833	103.336	38.251	106.533	244.728	70.694	-37.860	265.313	272.825	198.856	180.945	256.203	262.491	289.358	-44.456	206.861	214.156	7.1083e-05	0.00039751	7.8198e-05	1100.4	1.5301e-06	2.0742e-06	1160.1	224.36	8.0473e-07	2.7782e-06	282.8	80.284	63.158	18.642	2.539e-06	26.19	0.00017298	0.00014635	4.9593e-05	1074.4	2.3354e-06	1.8944e-06	1140.7	222.33	2.4901e-06	1.9386e-06	279.2	80.814	63.506	18.663	1.7946e-06	26.403	203.446	39.070	20.003	-51.909	142.730	87.721	-51.442	-44.453	67.195	85.823	-45.018	-37.647	-37.510	-30.832	102.722	-31.165	-8191	255	
25010.164	1	1	0	0	0.1106	0.20689	0.19028	0.16159	0.020199	0.2245	0.22234	0.19129	0.067371	0.15395	0.096983	0.15061	0.13689	0.088968	0.077023	0.14211	-4.1479	-4.5792	-4.1813	-4.8792	-4.3646	-4.1229	-4.9917	-4.3792	-4.5437	-4.7333	-4.25	-4.8854	-4.7063	-4.2979	-4.8396	-4.3562	240.666	257.884	269.989	254.187	23.514	21.197	281.826	112.519	133.302	91.608	237.840	-56.642	165.249	293.064	149.515	84.672	6.1913e-05	0.00027821	9.6188e-05	1095.7	2.1872e-06	3.1495e-06	1155.9	223.78	1.2452e-06	3.8715e-06	281.8	79.951	63.561	18.715	3.1073e-06	26.302	0.00016682	0.0001857	5.6393e-05	1074.5	2.6588e-06	2.0436e-06	1141.2	221.58	2.3909e-06	1.7097e-06	278.82	80.734	63.546	18.709	1.7166e-06	26.411	207.484	31.793	36.774	-51.452	150.005	97.566	-51.521	-44.529	109.500	81.405	-44.840	-37.612	-37.484	-31.123	112.889	-31.374	-8191	255	
25010.260	1	1	0	0	0.27353	0.09693	0.049713	0.1184	0.21651	0.12878	0.11386	0.14264	0.12904	0.34138	0.2407	0.098644	0.11275	0.25551	0.043461	0.19035	-4.075	-4.7562	-4.2792	-4.7208	-4.5458	-4.1854	-4.8875	-4.5813	-4.4083	-4.8271	-4.3083	-4.7	-4.7729	-4.2271	-4.9271	-4.4187	162.762	188.730	108.971	250.794	24.616	5.494	258.539	281.440	76.871	180.820	173.104	19.929	-51.118	6.722	284.198	-59.239	6.6801e-05	0.00041638	6.328e-05	1095.8	2.4494e-06	3.4732e-06	1169	223.93	8.6197e-07	3.5271e-06	281.11	80.034	63.571	18.537	3.4861e-06	26.341	0.00017539	0.00017578	4.7067e-05	1073.6	2.5193e-06	2.1919e-06	1145.5	221.76	2.3413e-06	1.7334e-06	279.14	80.71	63.452	18.621	2.1815e-06	26.412	203.521	25.758	24.768	-51.622	116.657	85.720	-51.410	-44.247	121.043	107.465	-44.483	-37.978	-37.700	-30.712	97.456	-31.018	-8191	255	
25010.354	1	1	0	0	0.038147	0.23872	0.21523	0.14125	0.18866	0.18165	0.089632	0.14085	0.19144	0.26857	0.18433	0.26767	0.2126	0.14783	0.12401	0.17722	-4.1729	-4.9354	-4.1896	-4.7583	-4.7146	-4.275	-5.0354	-4.475	-4.4042	-4.9021	-4.4167	-4.5458	-4.6333	-4.2625	-4.7979	-4.6771	237.274	250.393	86.143	-30.323	89.585	132.605	176.362	231.325	69.081	95.348	275.587	271.657	11.688	-2.561	254.133	193.326	7.9932e-05	0.00024615	8.2212e-05	1095.9	1.312e-06	2.9715e-06	1164.7	223.97	4.1083e-07	3.1588e-06	281.99	80.202	63.062	18.581	2.2617e-06	26.108	0.00016333	0.0001555	5.3795e-05	1073.3	2.3915e-06	2.2138e-06	1142.4	221.96	2.3591e-06	1.6515e-06	278.98	80.542	63.476	18.683	2.0451e-06	26.285	208.517	64.517	32.254	-51.740	117.506	75.348	-51.576	-44.397	125.241	85.222	-44.723	-37.932	-37.867	-31.166	72.601	-31.463	-8191	255	
25010.451	1	1	0	0	0.090117	0.12962	0.19356	0.2413	0.056714	0.22	0.074581	0.12114	0.14917	0.1535	0.062905	0.10595	0.19308	0.083035	0.26095	0.19874	-3.9875	-4.7979	-4.3625	-4.7312	-4.6854	-4.1813	-4.9729	-4.5938	-4.3917	-4.8187	-4.4917	-4.4917	-4.6833	-4.2375	-4.7875	-4.5792	109.865	147.834	275.304	-40.630	204.972	-12.227	218.304	264.789	191.025	-48.587	193.415	100.472	295.093	198.542	79.021	5.216	6.8363e-05	0.00028322	7.9041e-05	1095.6	2.3455e-06	2.3677e-06	1162.5	223.62	1.5352e-06	3.1604e-06	282.53	79.807	63.385	18.602	2.4823e-06	26.091	0.00017412	0.00015757	4.8403e-05	1073.1	2.351e-06	1.9591e-06	1143.3	221.66	2.3816e-06	1.6505e-06	278.95	80.651	63.414	18.668	1.792e-06	26.307	203.133	26.475	34.311	-51.613	113.664	88.574	-51.428	-44.260	139.163	107.645	-44.941	-37.746	-37.630	-31.104	108.838	-31.610	-8191	255	
25010.570	1	1	0	0	0.19074	0.10982	0.20747	0.083653	0.26841	0.14349	0.21875	0.21166	0.039296	0.29193	0.33209	0.18592	0.12188	0.084898	0.016013	0.092613	-3.9167	-4.7667	-4.3104	-4.6292	-4.7125	-4.3396	-4.9688	-4.7271	-4.1396	-4.8458	-4.475	-4.3604	-4.9458	-4.2479	-4.5583	-4.7688	-13.854	289.543	218.607	265.758	180.706	-22.059	265.641	297.185	174.055	98.134	157.989	255.874	162.931	44.376	-15.558	200.713	5.9316e-05	0.00038319	7.0249e-05	1091.3	2.0104e-06	3.23e-06	1161.3	225.17	1.1277e-06	2.8785e-06	282.5	80.804	63.673	18.531	2.7086e-06	26.475	0.00018123	0.00016525	5.4207e-05	1071.3	2.2598e-06	1.9869e-06	1143.4	222.5	2.3351e-06	1.763e-06	279.32	80.881	63.453	18.651	1.9379e-06	26.409	206.314	18.693	34.191	-51.695	128.375	82.770	-51.300	-44.547	98.502	86.259	-44.251	-37.843	-37.442	-30.987	120.877	-31.334	-8191	255	
25010.668	1	1	0	0	0.10479	0.3652	0.18929	0.075096	0.31947	0.12526	0.32053	0.17411	0.26741	0.10695	0.14978	0.049033	0.082003	0.18675	0.10052	0.11039	-3.7854	-4.6687	-4.5042	-4.3438	-4.8729	-4.3833	-4.8667	-4.7479	-4.1729	-4.6188	-4.6188	-4.3479	-4.9187	-4.2958	-4.4458	-4.75	179.996	14.402	297.177	235.352	229.073	-39.852	256.873	158.355	186.129	9.929	250.321	228.168	27.565	-36.536	158.257	191.722	6.4016e-05	0.00027889	8.8233e-05	1097.3	2.3775e-06	2.7417e-06	1170.6	224.69	4.5856e-07	4.2689e-06	282.7	80.153	63.675	18.599	1.96e-06	26.091	0.00016728	0.00014359	5.105e-05	1074.4	2.2965e-06	1.8148e-06	1146.2	222.1	2.2374e-06	1.7117e-06	279.2	80.738	63.421	18.686	1.8727e-06	26.385	197.894	21.511	22.821	-51.697	131.066	93.206	-51.595	-44.396	153.738	95.215	-44.696	-37.747	-37.852	-31.031	101.498	-31.438	-8191	255	
25010.738	1	1	0	0	0.30131	0.23995	0.23806	0.091444	0.094686	0.14603	0.21365	0.28035	0.077901	0.14209	0.10555	0.061642	0.30725	0.20839	0.052447	0.17076	-4.0563	-4.7042	-4.4542	-4.3729	-4.875	-4.375	-4.625	-4.8187	-4.2063	-4.5771	-4.6479	-4.2	-4.8042	-4.6083	-4.3208	-4.9542	164.075	-31.868	296.021	185.775	291.677	103.830	240.847	289.194	151.398	131.568	36.323	-35.929	229.805	-31.136	295.879	114.980	6.6169e-05	0.00039563	9.8514e-05	1092.6	2.4739e-06	3.043e-06	1163.5	224.69	8.0203e-07	3.3156e-06	282.65	79.874	63.166	18.691	1.4557e-06	26.322	0.00017291	0.00017509	4.6217e-05	1074.1	2.2653e-06	2.0546e-06	1144.9	222.32	2.3537e-06	1.8123e-06	278.87	80.747	63.551	18.739	1.8118e-06	26.435	200.778	20.175	13.564	-51.746	101.898	42.771	-51.359	-44.476	109.960	90.691	-44.903	-37.829	-37.218	-31.181	109.348	-31.102	-8191	255	
25010.859	1	1	0	0	0.15079	0.091423	0.034316	0.065402	0.037517	0.11644	0.376	0.14756	0.20224	0.10764	0.13102	0.051282	0.17474	0.10199	0.049546	0.11197	-3.8063	-4.5604	-4.5938	-4.2792	-4.7729	-4.3875	-4.3063	-4.6792	-4.1979	-4.6562	-4.6708	-4.3271	-4.7667	-4.3958	-4.3583	-4.9896	266.444	257.863	93.580	-56.655	145.827	-30.707	203.158	144.749	183.327	30.545	102.962	81.948	100.735	118.648	277.875	-29.235	8.103e-05	0.00026908	8.1059e-05	1098.7	1.9416e-06	3.6963e-06	1164.7	225.37	8.2235e-07	1.9666e-06	283.11	80.792	63.253	18.625	2.826e-06	26.583	0.00017894	0.0001637	4.4347e-05	1074.3	2.1952e-06	1.9143e-06	1144.3	222.51	2.5227e-06	1.6821e-06	279.45	80.888	63.554	18.694	2.0022e-06	26.457	213.219	31.325	32.914	-51.656	98.933	77.094	-51.559	-44.191	138.907	95.186	-44.788	-37.628	-37.334	-31.096	83.966	-31.081	-8191	255	
25010.955	1	1	0	0	0.20405	0.2068	0.17877	0.12377	0.09047	0.26371	0.23958	0.12954	0.16166	0.097998	0.057943	0.29855	0.18748	0.07063	0.19651	0.12356	-3.9646	-4.475	-4.7458	-4.2521	-4.6875	-4.5854	-4.4479	-4.8042	-4.3875	-4.4708	-4.8063	-4.3833	-4.7896	-4.5917	-4.3917	-4.7979	87.363	-47.934	63.339	130.628	59.184	121.181	263.653	148.134	271.828	-22.234	291.305	138.458	238.835	73.983	270.599	276.715	6.4193e-05	0.00027355	5.8709e-05	1092.3	2.0553e-06	3.2062e-06	1170.3	224.85	1.3986e-06	3.2538e-06	281.76	80.309	63.913	18.478	3.6408e-06	26.35	0.00017643	0.00017638	4.2574e-05	1071.8	2.3354e-06	1.8825e-06	1147.3	222.16	2.594e-06	2.0136e-06	279.19	80.852	63.771	18.639	2.0588e-06	26.385	200.943	30.206	37.554	-51.608	124.867	82.502	-51.404	-44.621	101.269	95.032	-45.051	-37.818	-37.093	-30.634	102.475	-31.734	-8191	255	
25011.053	1	1	0	0	0.11286	0.17041	0.10213	0.27096	0.26566	0.034037	0.16989	0.20744	0.12398	0.068232	0.23512	0.076796	0.099556	0.1502	0.077726	0.22247	-4.0062	-4.4708	-4.7312	-4.2604	-4.5479	-4.5833	-4.2104	-4.7625	-4.4437	-4.4292	-4.9	-4.2771	-4.5833	-4.725	-4.1438	-4.9104	113.605	285.363	92.676	-53.635	77.382	187.642	291.215	253.902	113.987	160.198	265.932	84.049	217.387	184.617	50.742	-10.114	5.9241e-05	0.00034435	7.5327e-05	1095.3	1.5922e-06	2.9094e-06	1164.2	224.74	1.8997e-06	3.2374e-06	282.47	80.694	62.954	18.804	2.3377e-06	26.198	0.00015965	0.00017388	4.6266e-05	1072.5	2.4749e-06	1.7253e-06	1144.9	222.24	2.4451e-06	2.2247e-06	279.39	81.017	63.468	18.755	2.1884e-06	26.335	204.136	20.698	44.939	-51.765	70.197	97.550	-51.490	-44.230	94.737	112.226	-44.715	-37.734	-37.304	-31.094	116.718	-31.312	-8191	255	
25011.148	1	1	0	0	0.011898	0.088801	0.11129	0.30127	0.074471	0.16222	0.13942	0.21176	0.06913	0.27352	0.096597	0.2184	0.16076	0.11201	0.22105	0.27688	-3.9521	-4.3458	-4.8771	-4.5	-4.6375	-4.6604	-4.4104	-4.8042	-4.4792	-4.5667	-4.9625	-4.3125	-4.6333	-4.7875	-4.2979	-4.7688	143.539	192.985	69.568	246.687	-16.226	138.547	113.953	269.040	123.033	141.891	213.383	-61.284	-32.968	279.260	162.334	188.168	4.1401e-05	0.00030194	5.8584e-05	1101.9	2.484e-06	3.8169e-06	1168.5	224.66	1.0134e-06	3.1932e-06	282.81	79.846	63.378	18.664	2.0741e-06	26.342	0.00017709	0.00019088	3.9126e-05	1076	2.6339e-06	1.8456e-06	1147.9	222.29	2.2413e-06	1.7719e-06	279.75	80.83	63.693	18.732	2.2338e-06	26.428	196.750	20.220	30.083	-51.658	115.897	94.984	-51.596	-44.582	125.490	85.273	-44.635	-37.835	-37.443	-31.042	113.248	-31.267	-8191	255	
25011.244	1	1	0	0	0.087045	0.31295	0.20383	0.14432	0.1126	0.069141	0.20234	0.30921	0.13973	0.21523	0.053371	0.19528	0.010256	0.090254	0.22751	0.14978	-4.1667	-4.3	-4.7521	-4.5479	-4.4187	-4.8104	-4.4563	-4.8	-4.4875	-4.1438	-4.8521	-4.2917	-4.3792	-4.8625	-4.2146	-4.6708	75.191	137.395	50.268	-40.431	90.897	52.358	285.874	203.215	-6.920	227.316	255.224	184.266	40.650	31.339	166.658	-2.978	7.5415e-05	0.00027872	0.00012789	1100	2.4269e-06	3.4744e-06	1170.9	224.85	6.8153e-07	2.1935e-06	284.95	80.622	63.958	18.645	3.0035e-06	26.309	0.00017037	0.00020564	4.8136e-05	1076.7	2.6596e-06	1.8367e-06	1149.5	222.41	2.2622e-06	2.3638e-06	280.16	81.163	63.855	18.726	2.1944e-06	26.489	219.197	18.224	24.520	-51.622	133.005	85.590	-51.567	-44.312	129.921	97.211	-44.686	-37.896	-37.346	-31.198	123.912	-31.111	-8191	255	
25011.363	1	1	0	0	0.12934	0.18281	0.22924	0.15298	0.30244	0.214	0.25462	0.085846	0.079073	0.14225	0.050281	0.045501	0.18862	0.11433	0.02735	0.16682	-4.2396	-4.0125	-4.7625	-4.4688	-4.3667	-4.7646	-4.3521	-4.75	-4.8167	-4.1667	-4.8562	-4.3708	-4.4771	-4.8792	-4.3063	-4.4583	100.393	126.144	29.221	29.340	54.782	225.439	235.878	285.092	68.182	88.674	-8.371	217.939	150.100	295.883	286.680	236.519	6.7416e-05	0.00026406	9.6228e-05	1098	1.5725e-06	3.4827e-06	1168.1	224.33	2.0129e-06	3.6871e-06	283.63	80.498	63.782	18.728	2.7114e-06	26.208	0.00016454	0.00018113	4.6727e-05	1077.7	2.6074e-06	1.6656e-06	1147.8	222.98	2.1257e-06	2.2523e-06	280	80.96	63.971	18.757	2.0408e-06	26.47	197.479	36.029	53.041	-51.967	112.430	81.027	-51.604	-44.336	146.393	78.990	-44.504	-37.914	-37.372	-30.646	70.847	-31.366	-8191	255	
25011.436	1	1	0	0	0.21826	0.42769	0.06445	0.21352	0.06468	0.23967	0.28035	0.031977	0.21911	0.065298	0.25227	0.17683	0.063527	0.098886	0.040305	0.22856	-4.3187	-4.2042	-4.6271	-4.6917	-4.2708	-4.6979	-4.4021	-4.6417	-4.8021	-4.0979	-4.7979	-4.4542	-4.2312	-4.9292	-4.3083	-4.5333	168.711	-25.344	45.931	236.001	-40.440	114.288	255.055	263.648	-55.507	29.284	238.489	-5.940	-22.810	219.919	49.098	168.105	6.1976e-05	0.00028661	7.5202e-05	1102.5	1.8896e-06	2.841e-06	1173	225.92	8.2297e-07	2.8119e-06	284.58	80.606	64.211	18.712	2.1121e-06	26.308	0.00016701	0.00018812	4.6144e-05	1080.1	2.5411e-06	1.6467e-06	1152.2	223.15	2.0668e-06	1.9347e-06	280.91	80.983	64.167	18.767	2.1978e-06	26.518	186.900	29.980	28.055	-51.930	150.286	82.503	-51.549	-44.495	125.712	114.212	-44.690	-38.175	-37.457	-31.067	98.546	-31.559	-8191	255	
25011.533	1	1	0	0	0.2431	0.099872	0.32535	0.13967	0.039149	0.15079	0.33268	0.079519	0.069084	0.15082	0.0367	0.075994	0.28293	0.23286	0.07921	0.1391	-4.3958	-4.1875	-4.5896	-4.5458	-4.1521	-4.6312	-4.6479	-4.5229	-4.6646	-4.1562	-4.6375	-4.6854	-4.1354	-4.6208	-4.3625	-4.5312	216.540	261.000	163.208	267.035	152.976	39.028	240.891	250.124	-59.441	-58.877	263.228	176.283	-32.782	254.052	217.270	232.907	6.496e-05	0.00022998	6.8965e-05	1107.5	2.1033e-06	1.3741e-06	1175.5	225.15	1.0324e-06	3.247e-06	286.38	80.782	63.567	18.729	3.4584e-06	26.247	0.00017229	0.00018829	5.0759e-05	1082.2	2.7414e-06	1.7899e-06	1152.4	223.06	2.0971e-06	2.2287e-06	281.6	81.119	63.809	18.792	2.2862e-06	26.523	208.458	46.889	40.811	-51.834	110.418	63.249	-51.322	-44.395	103.512	100.863	-44.648	-37.614	-37.515	-30.967	95.846	-31.209	-8191	255	
25011.650	1	1	0	0	0.20467	0.11727	0.09616	0.18666	0.13545	0.06372	0.12031	0.14008	0.18156	0.19019	0.054627	0.10818	0.1167	0.16887	0.29296	0.040841	-4.3187	-4.2312	-4.4125	-4.7542	-4.0667	-4.8375	-4.5729	-4.4417	-4.5813	-4.2417	-4.5792	-4.6417	-4.3417	-4.7146	-4.5375	-4.2875	188.178	-51.275	-61.426	235.596	169.998	155.948	245.941	-45.667	243.467	157.055	184.399	230.420	218.929	-53.954	286.312	122.190	6.7533e-05	0.00028213	0.00011221	1103.3	1.52e-06	2.8389e-06	1175.9	225.94	1.3702e-06	2.8156e-06	284.96	80.787	63.579	18.648	2.5384e-06	26.525	0.00016493	0.00019002	4.7043e-05	1082.1	2.7188e-06	2.0058e-06	1153.7	223.51	2.235e-06	2.0679e-06	281.48	81.36	64.039	18.79	1.8281e-06	26.562	204.800	33.760	32.031	-51.729	100.637	71.953	-51.635	-44.219	153.315	84.352	-44.765	-37.841	-37.590	-30.958	105.264	-31.445	-8191	255	
25011.748	1	1	0	0	0.20615	0.13587	0.22488	0.069151	0.19751	0.27976	0.21488	0.082855	0.20207	0.10955	0.075676	0.17575	0.18952	0.33659	0.089347	0.21465	-4.4104	-4.2896	-4.4146	-4.8833	-4.0479	-4.675	-4.8688	-4.3708	-4.775	-4.2229	-4.5792	-4.7312	-4.0958	-4.8396	-4.5083	-4.2	243.015	88.495	142.260	164.051	149.099	43.724	263.888	82.882	110.259	-17.873	174.841	258.216	165.845	3.001	176.516	175.508	6.4025e-05	0.00028679	6.0399e-05	1111.7	2.1591e-06	3.0361e-06	1179	226.24	6.2917e-07	3.4661e-06	283.48	80.569	63.751	18.774	1.6563e-06	26.539	0.00016493	0.00020037	4.9836e-05	1086.4	2.531e-06	1.785e-06	1157.8	223.98	2.1397e-06	2.2662e-06	281.23	81.447	64.062	18.851	1.9996e-06	26.602	203.774	31.647	31.392	-51.951	141.295	73.351	-51.694	-44.344	139.461	86.986	-44.610	-37.921	-37.719	-30.826	63.374	-31.274	-8191	255	
25011.844	1	1	0	0	0.089295	0.14314	0.2153	0.13272	0.14196	0.23844	0.30377	0.1681	0.084407	0.095422	0.23097	0.11286	0.011965	0.19811	0.06513	0.053025	-4.5354	-4.3021	-4.4563	-4.9708	-4.1271	-4.7146	-4.7625	-4.25	-4.7312	-4.4292	-4.4292	-5	-4.2646	-4.4563	-4.5708	-4.35	261.585	196.994	293.976	-36.567	49.297	292.613	219.883	252.124	-0.531	53.635	208.472	5.753	247.907	-52.246	139.812	24.493	6.8226e-05	0.00022895	9.6067e-05	1108.8	1.8842e-06	3.0886e-06	1176.9	226.44	1.11e-06	3.0823e-06	283.94	81.462	63.91	18.846	2.5793e-06	26.478	0.00015932	0.00020728	5.1876e-05	1086.6	2.5466e-06	1.8526e-06	1157.9	224.35	2.3777e-06	1.8321e-06	281.55	81.805	64.222	18.865	1.7191e-06	26.669	205.031	19.483	35.014	-51.955	133.295	86.195	-51.604	-44.216	117.207	95.005	-44.787	-37.533	-37.620	-31.215	101.512	-30.947	-8191	255	
25011.965	1	1	0	0	0.12318	0.17446	0.027576	0.19784	0.058682	0.1643	0.15084	0.19241	0.08141	0.076231	0.15784	0.21669	0.12992	0.089133	0.052015	0.10646	-4.4146	-4.5563	-4.4167	-4.8958	-4.2417	-4.5229	-4.8208	-4.3646	-4.7375	-4.5813	-4.2688	-4.9229	-4.2396	-4.5854	-4.6271	-4.2312	238.976	280.874	-29.279	198.679	163.785	49.608	219.942	216.868	201.093	154.874	-47.217	-38.375	75.525	248.221	292.852	224.733	5.1017e-05	0.00032666	9.4717e-05	1110.9	1.6775e-06	3.0197e-06	1180.2	226.94	1.3271e-06	3.5789e-06	284.54	80.972	64.148	18.702	2.6917e-06	26.429	0.00017119	0.0001983	5.3867e-05	1089.7	2.6596e-06	1.7272e-06	1159.5	224.56	2.2234e-06	1.8666e-06	282.21	81.607	64.186	18.826	1.853e-06	26.617	202.256	56.626	18.719	-51.724	148.605	80.574	-51.421	-44.222	137.298	101.259	-44.917	-37.798	-37.132	-30.978	94.074	-31.161	-8191	255	
25012.035	1	1	0	0	0.034385	0.10914	0.22078	0.1905	0.092187	0.12335	0.19415	0.1085	0.044714	0.065665	0.17633	0.152	0.06121	0.068842	0.24084	0.033848	-4.2063	-4.6708	-4.2667	-4.9667	-4.4021	-4.3938	-4.9083	-4.4708	-4.5	-4.6188	-4.2417	-4.8125	-4.3396	-4.3417	-4.675	-4.2063	18.856	77.270	1.339	227.182	272.375	162.635	261.180	175.900	-52.884	-60.298	-37.943	282.569	-39.863	164.015	49.124	163.368	7.9375e-05	0.00026603	5.2453e-05	1111.1	1.199e-06	1.4296e-06	1182.7	227.25	7.3714e-07	3.3711e-06	285.86	80.711	64.308	18.881	3.3435e-06	26.539	0.00018308	0.00017259	4.3716e-05	1087.9	2.6448e-06	1.7889e-06	1160.1	224.92	2.2746e-06	1.8084e-06	282.49	81.527	64.268	18.878	2.1009e-06	26.678	202.983	34.667	4.977	-51.942	153.300	101.578	-51.478	-44.402	58.817	75.986	-44.758	-37.532	-37.700	-30.968	98.224	-31.715	-8191	255	
25012.133	1	1	0	0	0.14841	0.11243	0.11448	0.17304	0.31419	0.049119	0.071518	0.17725	0.093727	0.087393	0.14943	0.20305	0.11408	0.26108	0.17603	0.17925	-4.2792	-4.5833	-4.1583	-4.8833	-4.4792	-4.2854	-4.925	-4.325	-4.4875	-4.9062	-4.3917	-4.8208	-4.5437	-4.2729	-4.7833	-4.3125	282.296	168.112	127.037	256.140	88.106	241.189	269.159	226.030	111.478	31.032	294.854	104.021	-40.477	-59.016	196.386	112.893	6.8414e-05	0.00030573	5.1856e-05	1116.7	1.1999e-06	2.7591e-06	1180.6	227.2	1.93e-06	3.7336e-06	285.49	81.271	64.033	18.857	1.8895e-06	26.334	0.00017637	0.00017077	4.7213e-05	1090.5	2.6495e-06	1.8267e-06	1160.9	224.47	2.5289e-06	1.8143e-06	282.33	81.702	64.285	18.848	1.8881e-06	26.62	201.417	26.080	20.735	-51.829	93.410	96.287	-51.565	-44.091	124.795	79.965	-44.849	-37.738	-37.754	-31.083	97.235	-31.326	-8191	255	
25012.254	1	1	0	0	0.13753	0.1981	0.1095	0.11184	0.18529	0.069644	0.33588	0.098495	0.26787	0.049798	0.17967	0.19928	0.044754	0.28844	0.15295	0.12224	-4.1479	-4.6396	-4.2604	-4.9354	-4.725	-4.2354	-4.8562	-4.4688	-4.4667	-4.7979	-4.3604	-4.8667	-4.625	-4.1687	-4.7458	-4.4625	226.903	207.332	186.832	255.820	111.492	101.696	252.459	246.402	63.203	96.675	228.605	122.786	-31.596	190.214	142.938	83.852	5.7221e-05	0.00028351	8.2865e-05	1117	3.2043e-06	3.0002e-06	1183.3	227.38	8.4504e-07	1.5602e-06	288.14	81.016	64.197	18.788	2.2995e-06	26.535	0.00017366	0.00015205	5.8069e-05	1090.6	2.6362e-06	2.0337e-06	1161.5	224.84	2.3916e-06	1.7275e-06	282.83	81.65	64.193	18.894	1.6668e-06	26.686	191.683	20.016	14.480	-51.736	116.106	99.858	-51.497	-44.380	120.270	103.894	-44.686	-37.833	-37.212	-31.201	130.845	-31.251	-8191	255	
25012.348	1	1	0	0	0.17845	0.16285	0.27134	0.18348	0.14411	0.0943	0.18721	0.12845	0.068328	0.039173	0.15944	0.24109	0.070697	0.083619	0.12984	0.096154	-4.0208	-4.8187	-4.1104	-4.7875	-4.6104	-4.2104	-5.025	-4.5729	-4.3542	-4.8646	-4.2646	-4.625	-4.6521	-4.1813	-4.6208	-4.5396	-3.827	237.570	270.729	251.349	84.132	203.530	-56.194	25.584	52.558	21.978	238.745	40.712	137.781	92.967	123.714	253.895	6.7719e-05	0.00025972	8.0424e-05	1114.3	1.1862e-06	1.5851e-06	1184	226.36	9.9866e-07	3.7238e-06	283.55	80.896	64.047	18.852	2.045e-06	26.388	0.00017321	0.00016637	5.5252e-05	1090.9	2.3845e-06	2.0745e-06	1160.1	224.45	2.1692e-06	1.7541e-06	281.86	81.537	64.008	18.88	2.0614e-06	26.536	212.129	34.417	39.291	-51.635	98.534	51.226	-51.484	-44.611	141.463	83.470	-44.758	-37.727	-37.804	-30.698	106.454	-31.375	-8191	255	
25012.443	1	1	0	0	0.18631	0.30548	0.13582	0.40388	0.02965	0.15369	0.24831	0.21995	0.28201	0.029826	0.27066	0.10448	0.22867	0.11033	0.15504	0.23717	-3.9896	-4.7792	-4.2792	-4.7333	-4.5958	-4.0354	-4.75	-4.575	-4.2104	-4.7667	-4.2312	-4.5104	-4.7625	-4.1937	-4.6021	-4.4167	228.765	16.838	175.104	256.863	262.008	-46.550	231.052	255.870	106.539	46.709	153.449	296.557	-51.151	201.115	278.887	155.700	6.688e-05	0.00021742	6.8676e-05	1111	2.1e-06	3.3221e-06	1183.1	226.05	1.5198e-06	3.308e-06	284.26	81.252	64.153	18.739	2.6651e-06	26.476	0.00017839	0.00015481	5.4596e-05	1090	2.5887e-06	2.2705e-06	1162.6	224.46	2.4374e-06	1.6811e-06	282.66	81.806	64.437	18.869	2.0906e-06	26.648	220.451	-1.630	7.603	-51.575	128.804	90.937	-51.310	-44.436	138.797	106.239	-44.816	-37.899	-37.602	-31.446	125.100	-31.504	-8191	255	
25012.539	1	1	0	0	0.1178	0.093457	0.080608	0.15249	0.18753	0.19174	0.18202	0.077801	0.22337	0.15193	0.24362	0.019041	0.12103	0.077125	0.22665	0.091313	-3.8917	-4.8958	-4.2792	-4.5021	-4.5938	-4.1562	-4.8	-4.6458	-4.2479	-4.6771	-4.3792	-4.3917	-4.6146	-4.3417	-4.6458	-4.7958	270.970	-58.564	79.280	249.088	255.056	198.483	251.027	263.020	-6.532	69.897	-49.217	-17.128	242.368	36.286	233.002	70.247	7.2846e-05	0.00030428	6.0451e-05	1113.5	1.303e-06	2.7754e-06	1184.2	226.4	8.9554e-07	3.3487e-06	286.26	81.131	63.965	18.796	2.0888e-06	26.436	0.00017435	0.00018078	5.0492e-05	1092.1	2.3432e-06	2.3789e-06	1161.7	224.25	2.525e-06	1.8725e-06	282.59	81.801	64.295	18.871	2.1746e-06	26.647	216.897	32.373	30.418	-51.830	135.956	104.157	-51.611	-44.313	104.074	79.863	-44.499	-37.988	-37.649	-31.050	113.799	-31.504	-8191	255	
25012.637	1	1	0	0	0.13281	0.23396	0.076822	0.28015	0.25293	0.13651	0.2269	0.35133	0.24823	0.08482	0.24762	0.2321	0.041602	0.046215	0.20041	0.082228	-3.85	-4.8438	-4.2229	-4.5375	-4.8667	-4.1188	-4.775	-4.6146	-4.3625	-4.6354	-4.5167	-4.2812	-4.8375	-4.2708	-4.5062	-4.7375	107.101	268.883	289.182	-50.327	226.786	93.542	245.347	262.452	164.821	89.528	258.182	35.356	33.251	58.049	176.679	258.697	6.8736e-05	0.00026542	8.8145e-05	1117.6	2.6867e-06	3.6837e-06	1184.7	226.89	8.6561e-07	4.1167e-06	287.4	81.586	64.422	18.782	2.3907e-06	26.62	0.00017767	0.0001788	5.7073e-05	1095.6	2.4172e-06	2.0964e-06	1161.7	225.33	2.594e-06	1.9988e-06	284.15	81.883	64.342	18.921	2.1755e-06	26.692	197.173	18.990	19.430	-51.897	139.974	73.319	-51.481	-44.376	139.718	80.190	-44.493	-38.336	-37.699	-30.753	117.052	-31.432	-8191	255	
25012.732	1	1	0	0	0.065781	0.063215	0.12766	0.17803	0.15947	0.17691	0.25117	0.28897	0.16258	0.1259	0.33645	0.17283	0.19274	0.12978	0.19278	0.17771	-3.6458	-4.575	-4.4542	-4.3187	-4.8146	-4.4292	-4.65	-4.8354	-4.2	-4.8479	-4.4396	-4.2333	-4.9292	-4.3146	-4.4833	-4.7583	251.033	-42.828	268.996	219.513	43.433	54.969	202.972	280.865	206.025	76.097	263.509	165.148	148.672	288.964	172.152	-30.922	6.9628e-05	0.00032575	7.2476e-05	1114.2	1.6696e-06	4.0625e-06	1183.4	227.9	3.0299e-07	3.0492e-06	285.6	81.114	63.676	18.796	2.9843e-06	26.709	0.00017797	0.00018027	5.0467e-05	1093.9	2.3837e-06	2.1203e-06	1162.3	225.71	2.4839e-06	1.9682e-06	282.41	81.681	64.416	18.911	2.2699e-06	26.72	211.883	31.720	50.972	-51.882	114.549	78.636	-51.421	-44.264	56.846	82.113	-44.702	-37.915	-37.568	-30.889	71.207	-31.255	-8191	255	
25012.828	1	1	0	0	0.1292	0.18181	0.12141	0.13062	0.25005	0.34476	0.30241	0.21806	0.15671	0.069292	0.075583	0.10445	0.076541	0.043256	0.14125	0.11619	-3.7333	-4.6417	-4.5042	-4.4396	-4.8271	-4.4333	-4.5687	-4.6208	-4.2104	-4.5167	-4.5896	-4.2354	-4.7521	-4.5125	-4.2625	-4.8979	76.928	116.837	-37.151	243.291	76.397	255.649	262.370	-36.739	24.382	79.570	296.814	109.554	100.287	179.004	181.064	255.210	5.4228e-05	0.00017863	9.5173e-05	1116.2	1.2478e-06	3.4437e-06	1183.8	227.23	9.5467e-07	2.7426e-06	285.65	81.224	64.187	18.876	2.2146e-06	26.546	0.00018279	0.00019476	4.833e-05	1095.3	2.4726e-06	2.0675e-06	1163.9	225.49	2.5917e-06	2.0856e-06	283.18	81.895	64.637	18.957	2.2201e-06	26.739	197.326	16.859	32.863	-51.966	120.733	95.804	-51.557	-44.326	118.713	94.024	-44.661	-37.715	-37.470	-31.241	108.867	-31.381	-8191	255	
25012.924	1	1	0	0	0.08585	0.20945	0.11123	0.14187	0.24534	0.17685	0.040363	0.2917	0.20772	0.070443	0.038334	0.17313	0.1949	0.09657	0.29816	0.15117	-3.8958	-4.5333	-4.7729	-4.3438	-4.8792	-4.425	-4.5521	-4.9208	-4.2604	-4.5125	-4.9146	-4.2167	-4.8458	-4.3833	-4.1312	-4.8229	-31.081	75.593	55.224	234.788	-56.198	-6.958	125.231	199.143	173.731	73.548	207.526	276.898	277.472	283.287	243.174	162.877	5.7916e-05	0.00030254	8.054e-05	1119.1	2.4716e-06	1.9906e-06	1184.3	226.98	1.1103e-06	2.1702e-06	286.65	81.211	64.272	18.837	2.1138e-06	26.524	0.00016949	0.00016266	4.6169e-05	1096.3	2.2957e-06	1.9999e-06	1164.4	225.25	2.6932e-06	1.7985e-06	283.61	81.833	64.648	18.928	2.1746e-06	26.702	192.524	30.686	41.842	-51.728	144.160	45.852	-51.451	-44.440	110.355	95.703	-45.030	-38.216	-37.544	-30.903	105.885	-31.218	-8191	255	
25013.045	1	1	0	0	0.24493	0.092714	0.28443	0.27777	0.28666	0.24967	0.21008	0.054296	0.13482	0.1099	0.24111	0.076252	0.17343	0.11251	0.1135	0.13862	-3.95	-4.5521	-4.6167	-4.4062	-4.85	-4.7	-4.4146	-4.8812	-4.4	-4.6375	-4.7438	-4.3458	-4.6625	-4.6312	-4.2063	-4.9333	-24.308	33.048	-10.279	222.633	196.010	57.956	215.907	65.236	11.656	182.279	244.390	227.296	241.568	191.689	128.726	262.821	6.3795e-05	0.00034698	7.8452e-05	1117	1.8281e-06	3.1421e-06	1186.6	228.97	1.0356e-06	4.9211e-06	287.18	81.723	64.32	18.899	2.8256e-06	26.65	0.0001764	0.00019545	4.4299e-05	1095.2	2.5193e-06	1.963e-06	1165.2	226.28	2.7142e-06	1.9455e-06	283.69	82.183	64.744	18.977	2.2827e-06	26.756	198.427	23.957	26.138	-51.826	132.282	91.913	-51.662	-44.561	121.445	106.643	-44.844	-37.582	-37.567	-31.117	102.535	-31.483	-8191	255	
25013.141	1	1	0	0	0.13411	0.16138	0.17001	0.16037	0.065175	0.096468	0.12738	0.083567	0.17057	0.21868	0.0793	0.19902	0.0014332	0.18604	0.27529	0.27443	-3.9833	-4.5521	-4.6708	-4.3271	-4.4812	-4.6042	-4.3938	-4.8896	-4.3354	-4.3083	-4.9833	-4.3125	-4.6854	-4.6771	-4.2375	-4.9458	120.932	-61.052	247.577	232.020	-18.573	129.645	284.908	86.468	161.857	186.555	-48.418	-9.460	180.000	-55.989	98.614	253.118	6.9261e-05	0.00028986	7.4386e-05	1120.8	1.6569e-06	2.6574e-06	1185.7	228.2	1.4873e-06	2.7236e-06	286.72	81.627	64.28	19.065	1.8614e-06	26.732	0.00017392	0.00018846	4.646e-05	1097.9	2.5801e-06	1.7173e-06	1165.3	225.56	2.4684e-06	2.058e-06	283.72	81.962	64.482	19.013	2.2441e-06	26.73	206.035	32.363	16.205	-51.946	118.779	63.396	-51.721	-44.588	153.946	118.044	-44.757	-37.751	-37.580	-31.156	93.269	-31.042	-8191	255	
25013.236	1	1	0	0	0.032391	0.11256	0.19129	0.22457	0.04173	0.19662	0.13698	0.12415	0.030299	0.16879	0.19705	0.12539	0.19907	0.065746	0.023602	0.11236	-4.0375	-4.2771	-4.7688	-4.4875	-4.5563	-4.7521	-4.4375	-4.8313	-4.4104	-4.1312	-4.9062	-4.3833	-4.45	-4.75	-4.1792	-4.875	241.662	-3.039	32.494	275.689	160.835	199.737	210.046	248.943	5.341	-54.017	9.342	21.752	241.374	33.665	68.541	295.174	6.6423e-05	0.00031411	9.0079e-05	1121.1	1.6248e-06	2.5673e-06	1185.1	227.66	6.517e-07	2.8496e-06	286.37	81.218	63.513	18.988	1.9612e-06	26.663	0.00016851	0.00018933	4.986e-05	1098.7	2.5879e-06	1.776e-06	1164.3	225.71	2.349e-06	1.7965e-06	284.27	81.952	64.401	19.011	1.7852e-06	26.765	197.208	19.677	31.836	-51.738	129.864	105.727	-51.448	-44.528	70.866	66.166	-44.282	-38.300	-37.527	-31.129	116.022	-32.042	-8191	255	
25013.332	1	1	0	0	0.13856	0.14851	0.23702	0.20817	0.21264	0.065699	0.25471	0.24013	0.057726	0.098415	0.12222	0.15302	0.21275	0.18024	0.03253	0.20863	-4.3688	-4.2521	-4.8396	-4.4604	-4.3292	-4.9354	-4.3667	-4.6708	-4.6375	-4.3313	-4.8271	-4.4854	-4.4583	-4.9396	-4.2021	-4.5938	123.976	51.271	55.725	263.415	-1.478	-18.803	245.258	-58.945	-32.502	163.370	159.290	-46.981	-57.165	-33.688	272.262	271.459	7.225e-05	0.00036553	6.2423e-05	1120.5	1.4865e-06	3.8396e-06	1183	228.58	5.5272e-07	3.2066e-06	285.09	81.401	64.451	18.875	1.4082e-06	26.48	0.00017132	0.00020495	5.3236e-05	1096.7	2.6456e-06	1.8785e-06	1164.1	225.79	2.3351e-06	2.2257e-06	283.57	82.133	64.773	18.925	2.0322e-06	26.674	214.431	19.448	16.410	-51.709	142.666	99.692	-51.400	-44.257	125.276	94.177	-44.583	-37.521	-37.367	-31.058	143.979	-31.113	-8191	255	
25013.428	1	1	0	0	0.11967	0.083791	0.14907	0.44286	0.13118	0.11118	0.13738	0.19401	0.11784	0.32282	0.15916	0.040163	0.11823	0.053103	0.14264	0.25028	-4.4583	-4.2479	-4.8958	-4.5708	-4.5354	-4.6687	-4.425	-4.6062	-4.6562	-4.1687	-4.7771	-4.4042	-4.3792	-4.8396	-4.1896	-4.5792	253.027	-17.947	59.194	260.179	214.091	282.526	243.049	-48.358	179.085	202.602	9.013	189.025	-12.241	-19.368	168.353	9.183	6.4408e-05	0.00020586	9.051e-05	1120.8	2.1667e-06	3.6282e-06	1185.8	228.16	9.1713e-07	2.9858e-06	285.51	81.967	64.542	18.86	3.018e-06	26.624	0.00015994	0.00018959	4.6047e-05	1097.9	2.7593e-06	1.9501e-06	1163.9	225.36	2.1389e-06	2.3648e-06	283.93	82.025	64.79	18.909	2.4003e-06	26.787	221.986	24.183	25.271	-51.801	150.412	89.642	-51.416	-44.349	93.644	89.660	-44.985	-37.609	-37.727	-31.316	85.781	-31.546	-8191	255	
25013.525	1	1	0	0	0.07258	0.13639	0.15721	0.2383	0.35184	0.15069	0.12481	0.21102	0.089923	0.127	0.076443	0.12095	0.27307	0.23463	0.045006	0.18519	-4.4083	-4.0563	-4.6396	-4.6771	-4.2292	-4.8979	-4.5062	-4.6646	-4.85	-4.1062	-4.6896	-4.6146	-4.1625	-4.8667	-4.4187	-4.4688	274.135	90.296	92.175	240.195	30.907	215.283	-36.775	245.375	76.170	-29.005	-28.946	165.315	-45.951	169.810	192.287	267.392	7.1494e-05	0.00017389	0.00011624	1123.7	1.9388e-06	2.1036e-06	1191.5	228.66	1.232e-06	3.0474e-06	287.93	81.535	64.732	19.003	2.317e-06	26.709	0.00018165	0.00019709	5.1366e-05	1099	2.6323e-06	1.7183e-06	1167.8	226	2.035e-06	2.3175e-06	283.89	82.132	64.682	18.985	2.112e-06	26.822	194.546	25.801	40.028	-51.968	128.664	71.597	-51.467	-44.512	88.844	80.147	-44.955	-37.706	-37.843	-30.701	141.669	-31.099	-8191	255	
25013.645	1	1	0	0	0.12493	0.048341	0.21157	0.33504	0.16573	0.20882	0.081283	0.23147	0.026502	0.075658	0.14937	0.22438	0.055206	0.016036	0.1758	0.14172	-4.5583	-4.2417	-4.4688	-4.7542	-4.3458	-4.7562	-4.4604	-4.3063	-4.7271	-4.3812	-4.7646	-4.7021	-4.2896	-4.7583	-4.3542	-4.3292	287.517	-54.192	22.723	-53.346	278.869	-43.935	131.248	-55.482	246.470	255.492	22.456	-6.022	105.866	71.316	-24.525	62.101	6.6197e-05	0.0002586	5.7899e-05	1120.3	2.5568e-06	4.1149e-06	1187.5	226.85	2.095e-06	3.0095e-06	287.17	81.763	64.797	18.863	2.3002e-06	26.527	0.00017135	0.00018734	4.6582e-05	1097.1	2.5653e-06	2.0645e-06	1166.5	225.74	2.1397e-06	2.1073e-06	284.27	81.982	64.809	18.967	2.082e-06	26.73	210.053	19.560	56.532	-51.761	144.335	82.891	-51.582	-44.354	128.854	89.020	-44.584	-37.713	-37.596	-30.692	104.162	-31.417	-8191	255	
#DATA ENDS
