BOXY.EXE: ISS Imagent and Oximeter Data Acquisition Program Version 0.80
Ascii Record File

#ACQ INFORMATION
2  Detector Channels 
16  External MUX Channels 
1  Auxiliary Channels 
5000  Waveform (CCF) Frequency (Hz)
1  Waveforms Skipped 
30  Waveforms Averaged 
1  Cycles Averaged 
16  Acquisitions per Waveform 
10.0806  Updata Rate (Hz) 

#FILE INFORMATION
TRUE -- External MUX Channel results are PARSED.
FALSE -- AC DC and Phase are NOT grouped.
TRUE -- Companion Program Settings File CREATED.
FALSE -- AC data not excluded
FALSE -- DC data not excluded
FALSE -- Phase data not excluded
FALSE -- Auxillary Chn. data not excluded
Tab delimiters

#CALIBRATION STATE
TRUE -- Waveform Calibration Values APPLIED.


#AUX CALIBRATION VALUES
Val Type	aux-1	

Term	1.0000e+00	
Factor	0.0000e+00	


#WF CALIBRATION VALUES
A = Detector Channel
Val Type	A-AC1	A-AC2	A-AC3	A-AC4	A-AC5	A-AC6	A-AC7	A-AC8	A-AC9	A-AC10	A-AC11	A-AC12	A-AC13	A-AC14	A-AC15	A-AC16	A-DC1	A-DC2	A-DC3	A-DC4	A-DC5	A-DC6	A-DC7	A-DC8	A-DC9	A-DC10	A-DC11	A-DC12	A-DC13	A-DC14	A-DC15	A-DC16	A-Ph1	A-Ph2	A-Ph3	A-Ph4	A-Ph5	A-Ph6	A-Ph7	A-Ph8	A-Ph9	A-Ph10	A-Ph11	A-Ph12	A-Ph13	A-Ph14	A-Ph15	A-Ph16	

Term	0.00000e+00	0.00000e+00	0.00000e+00	0.00000e+00	0.00000e+00	0.00000e+00	0.00000e+00	0.00000e+00	0.00000e+00	0.00000e+00	0.00000e+00	0.00000e+00	0.00000e+00	0.00000e+00	0.00000e+00	0.00000e+00	0.00000e+00	0.00000e+00	0.00000e+00	0.00000e+00	0.00000e+00	0.00000e+00	0.00000e+00	0.00000e+00	0.00000e+00	0.00000e+00	0.00000e+00	0.00000e+00	0.00000e+00	0.00000e+00	0.00000e+00	0.00000e+00	0.00000e+00	0.00000e+00	0.00000e+00	0.00000e+00	0.00000e+00	0.00000e+00	0.00000e+00	0.00000e+00	0.00000e+00	0.00000e+00	0.00000e+00	0.00000e+00	0.00000e+00	0.00000e+00	0.00000e+00	0.00000e+00	
Factor	1.00000e+00	1.00000e+00	1.00000e+00	1.00000e+00	1.00000e+00	1.00000e+00	1.00000e+00	1.00000e+00	1.00000e+00	1.00000e+00	1.00000e+00	1.00000e+00	1.00000e+00	1.00000e+00	1.00000e+00	1.00000e+00	1.00000e+00	1.00000e+00	1.00000e+00	1.00000e+00	1.00000e+00	1.00000e+00	1.00000e+00	1.00000e+00	1.00000e+00	1.00000e+00	1.00000e+00	1.00000e+00	1.00000e+00	1.00000e+00	1.00000e+00	1.00000e+00	X	X	X	X	X	X	X	X	X	X	X	X	X	X	X	X	

B = Detector Channel
Val Type	B-AC1	B-AC2	B-AC3	B-AC4	B-AC5	B-AC6	B-AC7	B-AC8	B-AC9	B-AC10	B-AC11	B-AC12	B-AC13	B-AC14	B-AC15	B-AC16	B-DC1	B-DC2	B-DC3	B-DC4	B-DC5	B-DC6	B-DC7	B-DC8	B-DC9	B-DC10	B-DC11	B-DC12	B-DC13	B-DC14	B-DC15	B-DC16	B-Ph1	B-Ph2	B-Ph3	B-Ph4	B-Ph5	B-Ph6	B-Ph7	B-Ph8	B-Ph9	B-Ph10	B-Ph11	B-Ph12	B-Ph13	B-Ph14	B-Ph15	B-Ph16	

Term	0.00000e+00	0.00000e+00	0.00000e+00	0.00000e+00	0.00000e+00	0.00000e+00	0.00000e+00	0.00000e+00	0.00000e+00	0.00000e+00	0.00000e+00	0.00000e+00	0.00000e+00	0.00000e+00	0.00000e+00	0.00000e+00	0.00000e+00	0.00000e+00	0.00000e+00	0.00000e+00	0.00000e+00	0.00000e+00	0.00000e+00	0.00000e+00	0.00000e+00	0.00000e+00	0.00000e+00	0.00000e+00	0.00000e+00	0.00000e+00	0.00000e+00	0.00000e+00	8.08205e+01	-1.29234e+02	-1.26031e+02	-1.81587e+02	-8.04158e+01	-6.70324e+01	-1.57320e+02	-1.62015e+02	-6.06783e+01	-6.54006e+01	-1.71053e+02	-1.72518e+02	-1.82789e+02	-1.76934e+02	-6.95614e+01	-1.49544e+02	
Factor	6.67383e-05	1.91415e-04	4.93186e-05	1.58798e-01	2.57486e-06	2.00385e-06	1.78873e-01	5.50616e-02	3.22509e-06	1.97440e-06	8.99765e-02	3.70833e-02	3.90633e-02	9.87122e-03	2.25571e-06	1.39431e-02	2.65282e-05	5.58230e-05	1.57463e-05	8.19480e-02	4.79595e-07	6.43249e-07	8.68198e-02	2.84307e-02	4.90733e-07	6.41705e-07	4.53190e-02	1.86095e-02	2.03683e-02	5.15739e-03	5.46992e-07	7.08478e-03	X	X	X	X	X	X	X	X	X	X	X	X	X	X	X	X	



#DISTANCE SETTINGS
A = Detector Channel
A-1	A-2	A-3	A-4	A-5	A-6	A-7	A-8	A-9	A-10	A-11	A-12	A-13	A-14	A-15	A-16	

2.5000e+00	3.0000e+00	2.5000e+00	3.0000e+00	2.0000e+00	3.0000e+00	1.5000e+00	3.0000e+00	3.0000e+00	3.0000e+00	3.0000e+00	3.0000e+00	3.0000e+00	3.0000e+00	1.5000e+00	3.0000e+00	

B = Detector Channel
B-1	B-2	B-3	B-4	B-5	B-6	B-7	B-8	B-9	B-10	B-11	B-12	B-13	B-14	B-15	B-16	

1.0000e+01	1.0000e+01	1.0000e+01	1.4400e+00	1.0000e+01	1.0000e+01	1.5100e+00	1.9400e+00	1.0000e+01	1.0000e+01	1.9900e+00	2.4900e+00	2.4100e+00	2.9000e+00	1.0000e+01	2.9800e+00	




#DATA BEGINS
time	group	step	mark	flag	A-AC1	A-AC2	A-AC3	A-AC4	A-AC5	A-AC6	A-AC7	A-AC8	A-AC9	A-AC10	A-AC11	A-AC12	A-AC13	A-AC14	A-AC15	A-AC16	A-DC1	A-DC2	A-DC3	A-DC4	A-DC5	A-DC6	A-DC7	A-DC8	A-DC9	A-DC10	A-DC11	A-DC12	A-DC13	A-DC14	A-DC15	A-DC16	A-Ph1	A-Ph2	A-Ph3	A-Ph4	A-Ph5	A-Ph6	A-Ph7	A-Ph8	A-Ph9	A-Ph10	A-Ph11	A-Ph12	A-Ph13	A-Ph14	A-Ph15	A-Ph16	B-AC1	B-AC2	B-AC3	B-AC4	B-AC5	B-AC6	B-AC7	B-AC8	B-AC9	B-AC10	B-AC11	B-AC12	B-AC13	B-AC14	B-AC15	B-AC16	B-DC1	B-DC2	B-DC3	B-DC4	B-DC5	B-DC6	B-DC7	B-DC8	B-DC9	B-DC10	B-DC11	B-DC12	B-DC13	B-DC14	B-DC15	B-DC16	B-Ph1	B-Ph2	B-Ph3	B-Ph4	B-Ph5	B-Ph6	B-Ph7	B-Ph8	B-Ph9	B-Ph10	B-Ph11	B-Ph12	B-Ph13	B-Ph14	B-Ph15	B-Ph16	aux-1	digaux	

32231.553	1	1	0	256	0.18754	0.11065	0.22699	0.12386	0.14223	0.28434	0.086645	0.26925	0.098988	0.19034	0.059627	0.099442	0.33295	0.036416	0.1367	0.16482	-4.1521	-4.0625	-4.5833	-4.4479	-4.1333	-4.7125	-4.3125	-4.3833	-4.575	-4.0333	-4.5792	-4.4812	-4.1271	-4.6917	-4.3083	-4.4354	10.620	68.969	-18.189	246.654	101.797	-8.586	171.184	191.566	107.689	156.428	143.000	212.330	216.147	-84.892	205.597	18.989	0.00033579	0.00013499	6.287e-05	1168.9	3.1922e-06	3.9787e-06	1237	237.62	3.5877e-06	2.6716e-06	300.09	84.303	66.04	18.932	4.0755e-06	26.576	0.00057417	0.00091143	0.00023127	1151.6	8.8685e-06	9.8176e-06	1221.3	235.89	8.5889e-06	1.0008e-05	298.49	84.703	66.589	19.28	8.81e-06	27.15	43.941	-17.796	8.638	-89.625	93.451	62.724	-89.802	-82.596	9.893	82.075	-82.909	-76.230	-75.813	-68.933	26.909	-69.721	-8191	255	
32231.650	1	1	0	0	0.092974	0.10249	0.18199	0.16501	0.073719	0.17388	0.23149	0.11859	0.14038	0.1442	0.29326	0.11036	0.10155	0.13634	0.20641	0.057248	-4.4479	-3.9708	-4.3896	-4.6417	-4.2	-4.8187	-4.5104	-4.2771	-4.7854	-4.1604	-4.6167	-4.6	-4.1687	-4.6979	-4.4458	-4.3229	-86.406	-52.313	83.760	230.110	8.349	48.336	205.198	197.134	-80.341	-60.103	218.269	132.547	9.344	-92.735	14.552	-65.136	0.00031638	0.00019304	8.8128e-05	1165.9	1.612e-06	2.4679e-06	1232.4	237.06	3.1892e-06	2.7677e-06	296.98	84.252	66.011	19.077	4.3682e-06	26.566	0.00056864	0.00093852	0.00024367	1153.2	8.6277e-06	9.9288e-06	1222.3	235.76	8.6001e-06	9.9103e-06	297.25	84.355	66.449	19.302	9.0368e-06	27.087	48.101	15.283	-18.831	-89.648	32.851	35.906	-89.733	-82.571	16.671	62.666	-82.785	-76.014	-76.081	-68.507	74.878	-69.701	-8191	255	
32231.746	1	1	0	0	0.31628	0.18162	0.15764	0.22492	0.057668	0.17039	0.36362	0.086515	0.1258	0.13547	0.18786	0.14008	0.10884	0.16359	0.12342	0.18779	-4.45	-4.3	-4.45	-4.8271	-4.0333	-4.7208	-4.4979	-4.2688	-4.7458	-4.2167	-4.5021	-4.6687	-4.0062	-4.7063	-4.4167	-4.1833	19.435	-89.889	6.232	166.923	-85.761	163.138	152.432	-100.249	179.538	213.939	221.620	99.193	246.335	215.615	135.372	234.777	0.00022649	0.00018874	4.2306e-05	1166.6	5.0962e-06	3.1323e-06	1235.4	236.68	4.9563e-06	3.4436e-06	298.16	84.017	66.567	19.087	4.1419e-06	26.904	0.00055245	0.00090433	0.00024587	1154.7	9.0574e-06	1.0914e-05	1224.8	235.71	9.2912e-06	1.1327e-05	297.71	84.643	67.013	19.311	9.8652e-06	27.316	55.173	-3.259	-25.415	-89.484	-0.054	27.632	-89.819	-82.636	12.922	52.296	-82.903	-76.280	-76.147	-68.969	35.601	-69.464	-8191	255	
32231.842	1	1	0	0	0.019623	0.050126	0.16368	0.13398	0.30345	0.16128	0.25419	0.11418	0.20795	0.12452	0.32097	0.045772	0.092841	0.040796	0.11752	0.08964	-4.4688	-4.2146	-4.3583	-4.7812	-4.0792	-4.7188	-4.5708	-4.3208	-4.5667	-4.4062	-4.5	-4.7438	-4.1896	-4.5208	-4.8	-4.2542	144.862	36.231	115.112	160.465	250.365	172.423	180.508	-95.119	70.814	-31.958	-22.564	-36.395	-10.991	182.890	41.956	-32.090	0.0002487	0.00028976	5.239e-05	1182.3	2.9626e-06	4.0657e-06	1247.2	238.19	4.7143e-06	2.4361e-06	300.09	84.453	66.696	19.086	1.0258e-06	27.001	0.00062286	0.00094004	0.00027963	1167.4	9.7927e-06	1.1158e-05	1235.4	237.65	9.3628e-06	1.1305e-05	299.96	85.107	67.198	19.345	1.0155e-05	27.406	40.904	-15.558	-49.359	-89.618	1.528	63.692	-89.734	-82.519	27.347	105.029	-82.604	-76.520	-75.918	-68.908	50.771	-69.501	-8191	255	
32231.936	1	1	0	0	0.053917	0.14437	0.12869	0.11933	0.19859	0.07551	0.23491	0.020895	0.087779	0.093336	0.028251	0.096292	0.20796	0.081236	0.2481	0.046007	-4.2646	-4.4479	-4.2458	-4.8042	-4.1083	-4.6188	-4.7104	-4.2583	-4.775	-4.3542	-4.3562	-4.7688	-4.3021	-4.4938	-4.5021	-3.9958	-39.099	-97.134	-2.738	224.384	201.913	70.001	193.496	235.318	-17.468	151.169	96.451	160.335	-42.808	25.109	-24.084	12.190	0.00031906	0.00017657	0.00010107	1187.3	3.808e-06	2.3561e-06	1253.7	239.1	2.3517e-06	5.2865e-06	302.02	84.27	66.784	19.272	2.4944e-06	26.962	0.00064364	0.0010242	0.0002939	1172.8	1.0367e-05	1.1616e-05	1241.1	238.12	1.007e-05	1.1266e-05	301.2	85.2	67.263	19.438	1.0322e-05	27.431	33.972	6.731	-11.706	-89.553	9.692	39.323	-89.555	-82.729	-10.251	59.974	-82.850	-76.276	-75.868	-69.122	48.196	-69.314	-8191	255	
32232.031	1	1	0	0	0.31316	0.03172	0.14959	0.35703	0.039071	0.090149	0.27125	0.17241	0.21887	0.10428	0.15516	0.22353	0.1423	0.13798	0.10485	0.1752	-4.1979	-4.4187	-4.1146	-4.9083	-4.2312	-4.4062	-4.85	-4.0458	-4.7146	-4.3354	-4.2208	-4.6625	-4.2542	-4.3583	-4.5646	-4.2792	-96.767	126.706	48.655	246.120	236.148	-71.424	176.142	95.805	-70.723	-61.695	185.176	-72.700	256.585	198.537	64.528	214.002	0.00032788	0.00027786	8.1433e-05	1192.7	8.7309e-07	2.1517e-06	1259	241.24	4.45e-06	3.3788e-06	301.02	84.972	67.61	19.233	3.337e-06	26.944	0.00064795	0.0010147	0.00028064	1174.8	9.9726e-06	1.0812e-05	1245	239.63	9.4067e-06	1.1216e-05	300.58	85.39	67.67	19.439	9.7478e-06	27.482	49.009	31.222	43.045	-89.634	0.809	34.363	-89.860	-82.732	19.045	72.302	-82.914	-76.436	-76.241	-68.803	8.461	-69.478	-8191	255	
32232.129	1	1	0	0	0.10392	0.11216	0.15915	0.087354	0.12903	0.039828	0.20888	0.15612	0.12677	0.070808	0.1694	0.2424	0.026053	0.21196	0.12683	0.057896	-4.2167	-4.4708	-4.2229	-4.8729	-4.0583	-4.3042	-4.8896	-4.1271	-4.5437	-4.6188	-4.2188	-4.8104	-4.3521	-4.2875	-4.5354	-4.1917	179.812	255.597	252.153	-74.360	177.468	201.961	129.397	224.094	-59.521	-34.285	107.385	134.241	-22.483	181.517	-46.443	-40.802	0.00023899	0.0002644	8.496e-05	1190.2	8.8845e-07	2.0534e-06	1256.9	240.63	2.0975e-06	2.3972e-06	303.13	84.253	66.941	18.999	4.0464e-06	27.022	0.00063187	0.00096923	0.00028583	1177.2	9.7977e-06	1.115e-05	1243.2	238.91	9.6388e-06	1.1047e-05	301.88	85.246	67.525	19.449	1.0131e-05	27.434	40.023	-11.978	-12.023	-89.641	53.837	64.654	-89.777	-82.456	57.061	64.403	-83.067	-76.376	-75.779	-68.786	38.977	-69.677	-8191	255	
32232.248	1	1	0	0	0.086851	0.070573	0.14197	0.16871	0.11041	0.15199	0.12784	0.10637	0.14817	0.11474	0.13953	0.058955	0.1436	0.149	0.16939	0.16786	-4.3271	-4.6292	-4.1062	-4.7375	-4.3229	-4.3104	-4.9979	-4.275	-4.3354	-4.4833	-4.1917	-4.5792	-4.3042	-4.2958	-4.8458	-4.3	-86.896	191.634	163.864	209.479	187.692	80.725	143.515	160.426	-62.140	76.374	127.473	72.583	-33.102	-50.435	227.175	-64.573	0.00023682	0.00026733	6.6965e-05	1192.5	3.5051e-06	2.4593e-06	1261.1	240.53	3.0314e-06	2.5412e-06	300.92	84.429	66.984	19.221	3.1656e-06	26.912	0.00063397	0.0010126	0.00029465	1178	9.51e-06	1.1316e-05	1246.7	239.04	9.7901e-06	1.121e-05	301.22	85.396	67.489	19.49	9.9188e-06	27.492	45.536	-17.092	-10.902	-89.768	43.673	20.825	-89.681	-82.677	21.468	66.201	-82.839	-76.700	-75.929	-68.835	61.617	-69.872	-8191	255	
32232.346	1	1	0	0	0.092222	0.25394	0.06633	0.2347	0.093315	0.21169	0.22203	0.10777	0.045844	0.17614	0.17854	0.12119	0.17677	0.11706	0.19841	0.23798	-4.1062	-4.5792	-4.0146	-4.7979	-4.5417	-4.1646	-4.8583	-4.1771	-4.425	-4.5542	-4.1333	-4.7667	-4.5104	-4.1625	-4.6646	-4.3542	18.786	-21.831	244.281	185.275	49.198	126.045	210.249	189.922	91.312	215.077	58.685	54.397	-78.437	-72.581	-70.373	121.830	0.00026708	0.00042522	6.5578e-05	1194.7	4.0272e-06	4.4059e-06	1261.5	239.37	2.4672e-06	1.4401e-06	301.81	84.821	67.331	19.162	2.2598e-06	27.037	0.0006464	0.00099493	0.00028291	1179	9.9636e-06	1.1371e-05	1247.1	239.18	9.7697e-06	1.1616e-05	301.3	85.511	67.537	19.463	9.3444e-06	27.425	65.706	-22.432	7.485	-89.551	68.058	52.054	-89.666	-82.472	42.554	115.212	-82.855	-76.255	-76.037	-68.600	45.280	-69.278	-8191	255	
32232.441	1	1	0	0	0.086622	0.33192	0.048139	0.29558	0.078821	0.091101	0.12965	0.22945	0.030593	0.017338	0.091572	0.25063	0.11215	0.1105	0.071069	0.056039	-3.9833	-4.7438	-4.1396	-4.5854	-4.4979	-4.1312	-4.8375	-4.4354	-4.1937	-4.6417	-4.4021	-4.6083	-4.6	-4.1417	-4.7583	-4.3938	66.749	-24.787	81.467	212.922	-21.884	-14.621	-95.602	211.614	165.496	7.804	-91.076	-13.445	170.813	32.015	62.751	-24.229	0.00031067	0.0003226	9.7039e-05	1184.7	3.7214e-06	4.6596e-06	1254.2	238.93	1.8372e-06	2.0189e-06	300.76	84.366	66.568	19.156	3.5894e-06	26.756	0.00062441	0.00096783	0.00027694	1171.5	9.2392e-06	1.0967e-05	1238.3	238.11	9.4139e-06	1.037e-05	300.56	84.929	67.128	19.373	9.3228e-06	27.272	49.868	-7.936	-6.659	-89.516	30.422	53.520	-89.678	-82.374	9.885	50.651	-82.655	-76.582	-76.284	-69.035	91.540	-69.373	-8191	255	
32232.537	1	1	0	0	0.22321	0.15422	0.072033	0.1834	0.11317	0.19538	0.21705	0.026917	0.11499	0.075745	0.11348	0.053636	0.1246	0.088438	0.028707	0.18196	-3.9417	-4.7458	-4.2396	-4.725	-4.5875	-4.1417	-4.7417	-4.5479	-4.1208	-4.9021	-4.3375	-4.4979	-4.7167	-4.1937	-4.6833	-4.6708	201.839	229.342	177.878	190.288	222.325	17.423	193.373	-54.685	1.343	-11.453	209.747	46.328	132.415	75.681	-19.263	70.028	0.00031816	0.00026853	9.8898e-05	1175.6	9.7857e-07	3.3886e-06	1247.5	238.3	2.0672e-06	1.1822e-06	299.54	84.534	66.727	19.009	3.7799e-06	26.774	0.00057881	0.00090259	0.00026185	1162.4	8.8405e-06	1.0706e-05	1232.2	237.05	8.78e-06	9.7392e-06	298.81	85	66.908	19.322	8.6254e-06	27.278	51.654	-5.816	7.144	-89.462	13.187	35.117	-89.689	-82.428	17.995	34.615	-82.940	-75.873	-75.853	-68.527	82.136	-69.122	-8191	255	
32232.635	1	1	0	0	0.083968	0.1385	0.21242	0.26286	0.096457	0.30395	0.33802	0.09245	0.086851	0.17419	0.2755	0.026331	0.13532	0.2007	0.15028	0.10572	-3.8792	-4.6271	-4.2208	-4.6917	-4.5979	-4.1646	-4.7562	-4.6542	-4.2917	-4.7896	-4.4875	-4.3292	-4.6333	-4.2875	-4.5896	-4.6875	80.567	85.182	68.285	-95.675	206.388	256.163	183.877	-53.102	194.924	-91.196	241.092	40.126	120.391	199.502	82.155	-74.091	0.00029892	0.00042675	0.00010076	1172.7	3.4442e-06	4.0223e-06	1243.2	238.46	4.4917e-06	2.9407e-06	299.76	83.952	66.223	19.041	2.1502e-06	26.54	0.00059677	0.00088119	0.00024403	1158.4	8.7196e-06	1.0118e-05	1228.4	236.72	9.008e-06	9.4451e-06	298.22	84.747	66.72	19.363	8.8909e-06	27.188	43.274	-33.064	-18.360	-89.609	17.933	37.412	-89.382	-82.563	48.568	32.250	-82.805	-76.416	-76.020	-69.193	41.691	-69.331	-8191	255	
32232.730	1	1	0	0	0.134	0.25193	0.05427	0.12921	0.13128	0.13163	0.11468	0.18192	0.081708	0.15785	0.12152	0.25006	0.24761	0.082168	0.17736	0.21916	-3.8479	-4.6479	-4.4104	-4.2646	-4.7729	-4.175	-4.6354	-4.6479	-3.9104	-4.6438	-4.4333	-4.2562	-4.8146	-4.2021	-4.5854	-4.5667	197.948	257.513	-70.590	188.066	46.362	170.473	99.323	215.818	-44.740	204.277	205.285	226.507	132.741	110.262	11.811	50.789	0.00030614	0.00033774	8.2558e-05	1173.1	2.6643e-06	3.9805e-06	1237.5	237.02	4.7248e-06	4.635e-06	298.81	84.38	66.601	19.151	1.6666e-06	26.675	0.00058108	0.00079687	0.00025499	1157.3	8.6877e-06	9.9275e-06	1224.3	236.39	8.7269e-06	9.8435e-06	298.08	84.828	66.931	19.35	8.5456e-06	27.186	46.472	13.558	-11.569	-89.568	-2.211	62.262	-89.642	-82.342	40.233	50.724	-82.772	-76.638	-75.872	-68.924	49.968	-70.138	-8191	255	
32232.826	1	1	0	0	0.075826	0.12681	0.20426	0.049962	0.13307	0.16613	0.37426	0.26636	0.14685	0.13788	0.17338	0.13576	0.13397	0.11347	0.22435	0.12957	-3.8104	-4.5396	-4.3396	-4.3479	-4.7375	-4.2104	-4.4729	-4.7562	-4.1813	-4.6625	-4.6167	-4.1167	-4.6854	-4.3146	-4.3667	-4.5792	12.933	2.049	80.419	15.442	69.707	118.117	247.474	138.611	203.829	226.451	185.616	236.911	26.387	184.682	159.497	87.005	0.00031296	0.00033875	0.00010786	1174.4	2.2389e-06	3.5485e-06	1243.1	239.01	2.5935e-06	3.083e-06	297.95	84.24	66.109	19.116	5.4313e-06	26.701	0.00058528	0.00083083	0.0002402	1158.4	8.267e-06	9.5576e-06	1225.5	236.72	8.3956e-06	9.0761e-06	297.59	84.586	66.582	19.298	8.7154e-06	27.17	46.635	0.031	-2.055	-89.726	91.183	33.694	-89.563	-82.677	30.218	37.195	-82.637	-76.420	-75.984	-68.788	37.040	-69.437	-8191	255	
32232.922	1	1	0	0	0.19936	0.089739	0.1389	0.18536	0.1443	0.12901	0.076154	0.15837	0.10213	0.13615	0.0749	0.095412	0.083027	0.24027	0.044509	0.2481	-3.8312	-4.5729	-4.4667	-4.2104	-4.6562	-4.4021	-4.5146	-4.7438	-3.9729	-4.4437	-4.5875	-4.0396	-4.6125	-4.4062	-4.2042	-4.7625	132.928	-84.403	81.684	-80.508	218.302	-49.712	128.040	256.695	78.643	-57.481	122.233	144.647	-82.242	248.813	-92.524	214.589	0.0003728	0.0004368	6.6972e-05	1172.1	4.2298e-06	2.3359e-06	1237.5	236.27	2.8447e-06	4.5991e-06	296.29	83.699	65.781	18.835	1.3971e-06	26.612	0.00057693	0.00079664	0.00023528	1154.5	8.1691e-06	9.6099e-06	1223.1	235.4	8.5449e-06	9.5467e-06	296.67	84.463	66.348	19.19	8.2072e-06	27.124	50.273	-15.363	-35.125	-89.520	27.647	52.975	-89.718	-82.446	-16.753	72.173	-82.925	-76.209	-76.250	-68.458	74.120	-69.410	-8191	255	
32233.041	1	1	0	0	0.1654	0.088829	0.05938	0.23885	0.16456	0.16886	0.32987	0.26566	0.023372	0.058643	0.12845	0.13989	0.18415	0.19017	0.081216	0.16679	-3.7792	-4.5542	-4.7146	-4.1833	-4.8125	-4.2104	-4.3458	-4.9229	-4.2375	-4.65	-4.7792	-4.1917	-4.7292	-4.5667	-4.1604	-4.6021	22.428	-82.071	22.069	137.017	43.822	84.254	154.665	172.617	233.655	11.823	248.537	259.167	22.641	-75.646	-37.986	-27.017	0.00031243	0.00019167	0.00010397	1171.4	3.3109e-06	1.2264e-06	1229.1	236.59	1.9169e-06	3.8893e-06	297.62	83.466	66.028	18.925	3.9476e-06	26.733	0.00058472	0.00085351	0.0002403	1154.2	7.7295e-06	8.8634e-06	1220	235.61	7.8558e-06	9.3916e-06	297.31	84.232	66.685	19.246	8.3963e-06	27.168	35.897	-14.504	-16.800	-89.674	14.039	98.656	-89.624	-82.626	27.733	68.767	-82.746	-76.416	-76.438	-68.644	45.040	-69.233	-8191	255	
32233.137	1	1	0	0	0.049671	0.15577	0.080397	0.13702	0.054504	0.032165	0.17845	0.18905	0.12233	0.096218	0.27477	0.26085	0.11004	0.13783	0.07356	0.16504	-3.7667	-4.3021	-4.725	-4.2771	-4.5312	-4.4417	-4.2042	-4.6417	-4.2417	-4.2917	-4.7125	-4.2396	-4.6396	-4.6708	-4.0687	-4.7208	120.692	197.168	11.914	219.773	100.296	147.054	126.124	-70.568	-82.132	16.518	191.924	234.644	251.949	72.588	163.324	158.186	0.00027776	0.00016683	0.00010602	1166.7	5.5728e-06	5.5309e-06	1233.1	235.88	1.1775e-06	3.3807e-06	297.86	84.161	65.794	19.068	3.7922e-06	26.76	0.00053852	0.00076722	0.00021087	1152.2	7.5207e-06	8.9331e-06	1219.7	235.24	7.8906e-06	8.7365e-06	297.05	84.667	66.447	19.335	8.5217e-06	27.125	54.234	-10.261	-10.373	-89.609	19.540	33.468	-89.594	-82.240	36.328	39.261	-82.854	-76.287	-75.796	-68.622	67.526	-69.081	-8191	255	
32233.232	1	1	0	0	0.21434	0.12611	0.21038	0.26294	0.072949	0.10949	0.20237	0.25423	0.12099	0.0071127	0.097005	0.16282	0.14093	0.19963	0.147	0.088173	-3.9042	-4.1708	-4.5125	-4.2312	-4.5	-4.3354	-4.1146	-4.7417	-4.2583	-4.2562	-4.8604	-4.1271	-4.4729	-4.5479	-4.0813	-4.8229	1.020	-86.838	236.051	217.557	33.692	204.717	204.145	127.684	9.744	178.808	0.680	188.057	225.200	26.449	127.130	224.125	0.00021694	0.00021071	8.5653e-05	1165.8	2.8144e-06	3.1402e-06	1236.2	236.66	4.6347e-06	3.6087e-06	297.21	84.402	66.351	19.182	3.0997e-06	26.775	0.0005561	0.00084897	0.00022931	1151.7	7.9493e-06	9.0135e-06	1221.4	236.02	7.9356e-06	9.7887e-06	296.97	84.784	66.633	19.343	8.263e-06	27.174	43.578	10.289	-10.063	-89.546	41.014	67.022	-89.683	-82.384	14.904	66.113	-82.630	-76.359	-75.991	-69.129	64.074	-69.653	-8191	255	
32233.330	1	1	0	0	0.21414	0.078413	0.02587	0.021653	0.21447	0.14884	0.046623	0.35133	0.088787	0.12976	0.14878	0.20253	0.14948	0.059129	0.10815	0.075981	-3.9458	-4.1542	-4.7792	-4.2604	-4.4646	-4.7542	-4.0312	-4.6604	-4.2792	-4.1937	-4.7375	-4.2833	-4.1708	-4.5125	-4.0208	-4.5229	85.934	3.156	88.524	89.632	250.568	94.428	228.037	217.471	-72.831	115.418	251.835	235.855	168.647	26.127	11.272	34.387	0.00036442	0.00022044	0.00012159	1171.7	2.2758e-06	1.8898e-06	1233.2	237.67	3.1963e-06	2.9983e-06	297.98	84.112	66.852	19.216	2.4442e-06	26.746	0.00055096	0.00080827	0.00022379	1155.6	8.1911e-06	9.11e-06	1221.2	236.03	7.5839e-06	8.9932e-06	296.82	84.634	67.078	19.439	8.1319e-06	27.211	46.054	2.890	-21.616	-89.518	64.168	38.789	-89.657	-82.619	49.482	108.723	-82.702	-76.516	-75.984	-68.525	42.097	-69.063	-8191	255	
32233.426	1	1	0	0	0.14457	0.054435	0.071917	0.17072	0.19749	0.25261	0.33566	0.17609	0.13336	0.29063	0.15672	0.17539	0.070999	0.091962	0.10933	0.17522	-3.9792	-3.9729	-4.6625	-4.3562	-4.3021	-4.775	-4.1542	-4.5375	-4.4604	-4.2625	-4.7375	-4.35	-4.3896	-4.6979	-4.1146	-4.4542	184.117	80.638	-54.646	206.433	-76.216	229.657	202.329	166.755	196.225	253.846	168.672	176.930	-63.920	-14.469	204.534	55.798	0.00032441	0.00035257	0.00014522	1167.9	3.5893e-06	1.5226e-06	1231.4	236.25	6.3865e-06	1.9239e-06	296.26	84.133	67.046	19.236	2.3299e-06	26.999	0.00054648	0.0007514	0.00021136	1150.9	7.7345e-06	8.8809e-06	1219.8	235.24	7.6248e-06	8.643e-06	296.34	84.481	67.036	19.415	7.7559e-06	27.38	46.937	-24.815	8.598	-89.564	38.103	13.958	-89.520	-82.681	7.747	-8.792	-82.670	-76.470	-76.036	-69.000	88.884	-68.816	-8191	255	
32233.521	1	1	0	0	0.0084362	0.21972	0.17361	0.29229	0.25916	0.12525	0.28661	0.32931	0.099176	0.1305	0.16178	0.052135	0.16053	0.10836	0.10102	0.17226	-4.3187	-3.9938	-4.6	-4.4854	-4.2354	-4.7229	-4.1854	-4.5188	-4.475	-4.0667	-4.5958	-4.4437	-4.3333	-4.6625	-4.2438	-4.525	-64.413	227.323	-87.046	137.275	182.344	3.363	178.714	-61.913	147.874	-43.851	203.231	226.114	47.584	227.355	230.599	183.115	0.00024143	0.0002214	4.0618e-05	1163.9	4.264e-06	4.8273e-06	1231.5	235.04	1.7286e-06	3.8679e-06	298.08	83.916	66.337	19.223	2.8719e-06	26.781	0.00050779	0.00074884	0.0001967	1150.4	7.5576e-06	8.2081e-06	1217.6	234.75	6.7742e-06	7.6804e-06	296.61	84.46	66.608	19.431	6.7736e-06	27.247	30.744	-10.758	9.125	-89.748	28.741	47.425	-89.680	-82.423	43.176	63.903	-82.746	-76.354	-75.893	-68.979	25.552	-69.534	-8191	255	
32233.643	1	1	0	0	0.10409	0.1553	0.057952	0.029518	0.10776	0.14963	0.26112	0.14206	0.12523	0.19152	0.15738	0.072217	0.097058	0.19942	0.20874	0.19261	-4.2854	-3.9646	-4.7438	-4.4667	-4.0125	-4.6937	-4.3333	-4.5146	-4.6188	-4.1333	-4.6813	-4.5938	-4.0188	-4.6771	-4.2729	-4.3562	-73.865	-94.000	201.744	-82.087	71.266	226.992	186.933	86.603	93.431	147.659	68.358	140.918	142.688	245.586	183.688	191.375	0.00034896	0.00036979	7.2393e-05	1154	1.8957e-06	2.1824e-06	1231.7	235.94	1.6715e-06	1.7995e-06	298.62	83.923	66.381	19.251	4.3382e-06	26.713	0.00049735	0.00070884	0.00018722	1143.7	7.3118e-06	7.8811e-06	1214.7	234.92	6.7813e-06	7.7526e-06	296.96	84.437	66.581	19.389	7.2864e-06	27.312	42.367	4.772	-39.662	-89.451	40.490	40.172	-89.744	-82.362	48.432	51.796	-82.877	-76.012	-75.991	-68.535	84.840	-69.590	-8191	255	
32233.736	1	1	0	0	0.16785	0.098054	0.10421	0.33763	0.014609	0.11744	0.1759	0.042648	0.096256	0.12562	0.17625	0.17426	0.10084	0.18017	0.071552	0.097585	-4.4167	-4.1958	-4.4708	-4.5125	-4.0917	-4.7021	-4.4062	-4.2562	-4.8021	-4.1687	-4.5271	-4.7708	-4.1542	-4.7812	-4.3042	-4.2875	218.518	115.966	254.083	219.882	62.974	77.585	202.217	121.395	153.865	-44.940	248.736	89.800	-61.004	215.273	122.682	227.620	0.00026681	0.00024644	6.9869e-05	1158.1	3.6661e-06	3.4773e-06	1228.7	235.47	3.764e-06	3.2967e-06	298.28	83.896	66.461	19.101	4.0319e-06	26.761	0.00049856	0.00073791	0.00019319	1143.8	7.5746e-06	7.6761e-06	1214	234.43	6.9623e-06	8.0708e-06	296.53	84.578	66.672	19.377	7.2898e-06	27.341	50.486	-4.687	-0.096	-89.369	2.897	55.810	-89.691	-82.436	41.095	41.887	-82.564	-76.514	-76.386	-68.816	72.262	-69.272	-8191	255	
32233.832	1	1	0	0	0.17572	0.20241	0.064439	0.11169	0.3367	0.19096	0.13532	0.10739	0.11025	0.15178	0.053986	0.14947	0.11884	0.24518	0.17537	0.13191	-4.3417	-4.1542	-4.3583	-4.6312	-4.0042	-4.7646	-4.5917	-4.1813	-4.6896	-3.9646	-4.3167	-4.7917	-4.1333	-4.6062	-4.4313	-4.1167	67.591	-74.874	143.073	171.299	18.223	188.081	167.815	-71.998	-69.735	-43.272	167.471	184.271	165.899	255.614	166.131	4.853	0.00029491	0.00035048	0.00015187	1160.9	2.5054e-06	3.0801e-06	1228.3	235.59	1.8456e-06	2.4636e-06	297.34	83.756	66.544	19.218	4.5528e-06	26.658	0.00048524	0.00072314	0.00019397	1145.4	7.4157e-06	7.7967e-06	1213.9	234.72	7.086e-06	8.1403e-06	296.8	84.441	66.687	19.408	7.1303e-06	27.274	36.592	-32.328	-18.075	-89.557	17.396	70.137	-89.983	-82.591	16.205	79.211	-83.022	-76.208	-76.200	-68.885	34.738	-69.217	-8191	255	
32233.906	1	1	0	0	0.20229	0.15315	0.084604	0.28606	0.1657	0.054969	0.075119	0.025084	0.10282	0.17789	0.078062	0.15581	0.1409	0.091688	0.04045	0.12169	-4.3438	-4.2125	-4.3771	-4.7646	-4.1646	-4.5917	-4.7083	-4.3104	-4.7354	-4.3354	-4.4292	-4.8208	-4.1854	-4.5104	-4.5375	-4.1458	134.918	-61.082	-29.202	178.254	213.476	-86.621	174.811	71.263	58.881	69.559	-8.379	-86.366	171.917	171.303	131.789	225.231	0.00039777	0.00026421	9.5927e-05	1158.3	2.5568e-06	2.9168e-06	1226.8	235.36	4.3959e-06	2.999e-06	297.4	84.214	66.173	19.207	2.9188e-06	26.721	0.00049475	0.00068616	0.00018715	1144.2	6.8662e-06	7.7927e-06	1212.3	234.89	6.3642e-06	7.6657e-06	296.24	84.622	66.696	19.432	6.7246e-06	27.369	36.322	-28.050	-34.919	-89.555	24.005	67.235	-89.561	-82.344	66.936	59.476	-83.006	-76.233	-76.051	-68.839	38.400	-69.199	-8191	255	
32234.025	1	1	0	0	0.2173	0.10191	0.24693	0.18264	0.35063	0.09981	0.2984	0.16636	0.15094	0.084237	0.1804	0.13994	0.14186	0.099841	0.15088	0.32316	-4.2479	-4.3229	-4.1958	-4.9167	-4.1125	-4.3646	-4.9	-4.2208	-4.5479	-4.3812	-4.2958	-4.7979	-4.1438	-4.3646	-4.7063	-4.1167	230.778	42.512	255.050	226.314	14.298	10.346	138.405	125.676	257.453	123.076	238.231	-42.678	216.877	-8.309	247.221	-83.545	0.00033663	0.00024606	7.7805e-05	1154.7	2.1722e-06	4.7586e-06	1220.5	236.05	4.2205e-06	2.6115e-06	299.74	83.87	66.37	19.11	3.0844e-06	26.655	0.00045905	0.00065859	0.00018997	1142.1	6.9052e-06	7.4952e-06	1208.6	234.99	6.63e-06	7.8315e-06	297.48	84.56	66.51	19.452	6.369e-06	27.361	49.410	11.010	9.744	-89.402	29.733	68.628	-89.559	-82.574	51.255	75.280	-82.915	-76.649	-75.979	-68.786	41.081	-69.380	-8191	255	
32234.121	1	1	0	0	0.15636	0.10775	0.15878	0.094047	0.18689	0.15639	0.19903	0.25575	0.22617	0.16563	0.10028	0.067377	0.24709	0.070421	0.082225	0.17497	-4.2271	-4.25	-4.1167	-4.8417	-4.2021	-4.3854	-4.8729	-4.25	-4.6438	-4.3958	-4.1958	-4.7937	-4.3229	-4.3938	-4.7396	-4.1083	26.648	123.288	54.853	-52.167	9.745	41.922	201.567	124.843	140.595	251.622	245.978	-18.591	-50.597	-94.369	-89.556	215.394	0.00036167	0.0001698	7.3197e-05	1154	4.9658e-06	4.0054e-06	1226.2	234.73	4.7231e-06	2.7702e-06	297.46	84.096	66.432	19.128	1.9764e-06	26.982	0.000478	0.00066767	0.00018689	1140.5	6.9751e-06	7.396e-06	1211.5	234.3	6.4807e-06	7.921e-06	296.28	84.693	66.672	19.405	6.9422e-06	27.337	44.263	-20.660	25.924	-89.421	43.992	70.659	-89.694	-82.312	44.145	15.162	-82.424	-76.094	-75.779	-69.192	-39.250	-69.378	-8191	255	
32234.219	1	1	0	0	0.11683	0.23082	0.23948	0.054357	0.013446	0.2495	0.027608	0.071881	0.096613	0.053422	0.081213	0.28694	0.1034	0.025924	0.14094	0.12105	-4.3354	-4.5646	-4.1188	-4.7979	-4.1354	-4.3229	-4.8417	-4.15	-4.6167	-4.5708	-4.1458	-4.8417	-4.3063	-4.2229	-4.8479	-4.275	-75.737	-38.429	2.519	80.800	77.617	237.492	158.955	-92.334	185.608	-89.310	-100.292	221.037	-47.841	-42.909	-21.321	133.856	0.0002759	0.0001747	8.0719e-05	1159.8	5.4158e-06	3.3273e-06	1219.5	235.22	3.434e-06	3.2756e-06	298.25	84.615	66.058	19.212	3.1921e-06	26.907	0.00047231	0.00073291	0.00018974	1142	7.134e-06	8.1398e-06	1207.9	234.69	6.904e-06	7.2366e-06	296.61	84.53	66.714	19.439	6.6482e-06	27.303	34.853	-0.636	-18.259	-89.513	17.399	24.147	-89.417	-82.645	41.797	37.528	-82.770	-76.739	-75.977	-68.920	43.674	-69.548	-8191	255	
32234.314	1	1	0	0	0.12507	0.25614	0.19147	0.19708	0.23687	0.054472	0.37401	0.063772	0.11072	0.12681	0.13604	0.12234	0.11823	0.13739	0.13081	0.089602	-4.2292	-4.575	-3.9729	-4.8708	-4.4083	-4.2604	-4.8854	-4.3	-4.4167	-4.7042	-4.2854	-4.8729	-4.4146	-4.2042	-4.8271	-4.1562	29.243	214.062	33.084	-59.204	107.263	130.509	207.707	184.312	19.609	87.842	217.829	235.437	-37.227	256.559	161.920	230.328	0.00031755	0.00036814	6.9877e-05	1156.7	4.3578e-06	1.6017e-06	1221.5	236.51	4.5401e-06	4.1295e-06	296.86	83.945	66.617	19.256	5.2349e-06	26.904	0.00048414	0.00066988	0.00019312	1139.2	6.8792e-06	7.2942e-06	1209.2	235	6.7445e-06	7.9531e-06	296.1	84.659	66.66	19.438	6.6676e-06	27.354	48.330	-4.661	-3.897	-89.691	57.607	47.690	-89.377	-82.692	-48.828	58.428	-82.656	-76.038	-75.828	-68.906	35.610	-69.031	-8191	255	
32234.434	1	1	0	0	0.24625	0.36779	0.15234	0.12828	0.11192	0.10511	0.15631	0.21407	0.13565	0.18498	0.34242	0.14479	0.12517	0.073278	0.078753	0.2536	-4.0583	-4.675	-4.1021	-4.8167	-4.4313	-4.2354	-4.9458	-4.3458	-4.3854	-4.7937	-4.1125	-4.5479	-4.5062	-4.1687	-4.8167	-4.3917	189.675	-42.033	-89.575	208.885	100.272	-76.032	207.255	224.207	-89.223	168.052	168.384	-13.056	158.165	-95.409	16.935	150.091	0.00029928	0.00044801	6.2828e-05	1156.7	1.959e-06	3.8362e-06	1225.2	236.07	3.8086e-06	3.6545e-06	296.78	84.479	66.106	19.356	3.8179e-06	26.909	0.0005016	0.00066197	0.00019197	1140.3	6.8602e-06	7.8798e-06	1210.1	234.98	6.3979e-06	7.1858e-06	296.25	84.803	66.635	19.479	6.6403e-06	27.351	43.489	-10.327	-17.953	-89.276	-7.169	90.425	-89.410	-82.445	27.696	73.662	-82.810	-76.167	-76.269	-68.860	39.221	-69.139	-8191	255	
32234.506	1	1	0	0	0.16929	0.16545	0.098774	0.022744	0.27177	0.18133	0.16448	0.31749	0.18934	0.1885	0.11568	0.046362	0.049634	0.19666	0.25948	0.083699	-3.9646	-4.6979	-3.9792	-4.6146	-4.6458	-4.1542	-4.9062	-4.4292	-4.3292	-4.8063	-4.4271	-4.6708	-4.65	-4.15	-4.7479	-4.3417	40.437	37.442	4.150	199.220	133.109	149.009	214.791	176.845	-60.778	119.891	-89.108	129.020	233.093	87.395	202.816	-60.784	0.00024656	0.0003028	0.0001312	1152.9	3.0023e-06	3.4755e-06	1223.2	235.49	4.6694e-06	3.1164e-06	298.79	85.048	66.629	19.285	3.0798e-06	26.909	0.00048447	0.0006144	0.00018863	1141.3	6.5125e-06	7.4188e-06	1209.7	235	6.5094e-06	7.2606e-06	297.36	84.958	66.861	19.47	6.663e-06	27.413	37.483	-22.657	2.101	-89.656	31.232	64.590	-89.903	-82.280	-13.958	98.733	-82.830	-76.572	-75.897	-68.647	62.570	-69.724	-8191	255	
32234.602	1	1	0	0	0.18366	0.082689	0.18243	0.24445	0.10814	0.15944	0.15829	0.19858	0.16806	0.096237	0.16051	0.1343	0.12143	0.22663	0.14816	0.24177	-3.9313	-4.625	-4.05	-4.5021	-4.5333	-4.2	-4.7188	-4.4458	-4.1729	-4.6813	-4.3521	-4.3187	-4.6208	-4.0667	-4.6229	-4.525	226.453	238.468	-27.682	-85.009	249.041	7.776	200.347	213.227	38.272	-24.798	-86.330	77.294	85.409	-65.412	56.847	140.510	0.00034462	0.00034373	7.0201e-05	1158.8	2.6355e-06	2.3054e-06	1222.6	236.15	5.2651e-06	3.2665e-06	297.34	84.344	66.686	19.329	3.3511e-06	27.049	0.00052084	0.00064452	0.00019007	1143.3	6.8502e-06	7.4483e-06	1209.4	235.13	6.7854e-06	6.9906e-06	297.67	84.869	66.817	19.528	6.9639e-06	27.45	50.418	-14.867	21.071	-89.333	47.287	66.904	-89.698	-82.382	48.121	67.878	-82.925	-76.350	-76.089	-68.834	69.986	-69.336	-8191	255	
32234.723	1	1	0	0	0.1555	0.17713	0.25573	0.39974	0.10128	0.12687	0.061492	0.30633	0.25297	0.14466	0.23695	0.11362	0.16998	0.044912	0.19265	0.037888	-3.7542	-4.7458	-4.1083	-4.5583	-4.6958	-4.0354	-4.5479	-4.4792	-4.1375	-4.6979	-4.3208	-4.2875	-4.775	-4.1458	-4.6979	-4.4792	-96.525	112.078	235.550	207.185	-24.336	-61.931	246.128	161.727	139.911	60.755	197.419	8.087	-75.788	105.791	71.267	-49.143	0.00031499	0.00041652	7.5522e-05	1152.6	1.2351e-06	3.1745e-06	1221.8	236.14	3.8809e-06	2.4169e-06	297.16	84.036	66.896	19.263	3.1663e-06	26.885	0.00051304	0.00063301	0.00018853	1140.8	6.5974e-06	7.9843e-06	1209.2	235.51	7.0707e-06	7.5681e-06	296.42	84.765	66.791	19.458	6.5673e-06	27.415	43.593	-20.793	-0.033	-89.338	191.472	42.502	-89.387	-82.244	55.974	37.543	-82.523	-76.094	-76.178	-68.847	16.794	-69.249	-8191	255	
32234.818	1	1	0	0	0.23795	0.027329	0.069485	0.36346	0.032154	0.17634	0.27932	0.14618	0.066762	0.26604	0.29547	0.16933	0.04269	0.11761	0.2319	0.15749	-3.7958	-4.6292	-4.275	-4.25	-4.7729	-4.2042	-4.7021	-4.6104	-4.0542	-4.6687	-4.2521	-4.0958	-4.6146	-4.1417	-4.3146	-4.6625	-25.370	194.872	252.644	178.957	14.436	-80.423	241.170	202.482	130.630	163.477	191.500	202.077	-92.653	-93.176	-53.053	180.925	0.00031533	0.00042939	0.00013946	1153.9	2.527e-06	3.5998e-06	1218.9	237.19	4.7379e-06	3.657e-06	298.33	84.603	66.7	19.314	4.2273e-06	26.711	0.00048408	0.00066185	0.00018518	1140.7	6.6454e-06	7.7672e-06	1207.9	235.39	7.0338e-06	7.9799e-06	296.62	84.817	66.914	19.484	6.9741e-06	27.334	36.872	-30.949	15.171	-89.509	-34.189	44.456	-89.653	-82.629	27.130	77.037	-82.717	-76.275	-75.889	-68.958	49.351	-69.413	-8191	255	
32234.914	1	1	0	0	0.095296	0.17311	0.049267	0.13672	0.045988	0.16459	0.11275	0.11514	0.39567	0.11434	0.043616	0.22094	0.17551	0.18137	0.037977	0.13674	-3.6667	-4.7021	-4.3562	-4.2167	-4.7417	-4.1021	-4.5208	-4.6375	-4.1562	-4.55	-4.5437	-4.1208	-4.7854	-4.3771	-4.475	-4.6875	112.589	-83.791	27.092	257.998	-18.241	182.706	144.299	214.643	153.207	3.867	162.919	-91.622	179.971	215.274	171.009	93.195	0.00028226	0.00033564	8.2907e-05	1160.2	3.8791e-06	2.8118e-06	1222.9	235.91	2.0124e-06	3.2883e-06	298.3	84.364	66.276	19.289	3.1521e-06	26.797	0.00048591	0.00066639	0.00018892	1142.8	6.9591e-06	7.731e-06	1209.1	235.42	7.1044e-06	7.7539e-06	297.13	84.958	66.639	19.504	7.3935e-06	27.339	47.239	-7.416	27.667	-89.712	62.260	64.851	-89.560	-82.547	34.675	34.333	-82.799	-76.189	-75.837	-69.002	70.108	-69.577	-8191	255	
32235.033	1	1	0	0	0.25699	0.28864	0.14193	0.30054	0.13447	0.1624	0.33496	0.11026	0.18748	0.1365	0.13526	0.078133	0.13836	0.083985	0.19385	0.047059	-3.6458	-4.6458	-4.5	-4.2375	-4.5271	-4.0521	-4.3125	-4.8354	-3.9271	-4.3542	-4.6937	-4.1667	-4.7333	-4.4208	-4.2396	-4.8979	173.795	91.810	-19.703	257.135	-35.891	-45.072	186.288	111.264	-79.157	220.169	-32.505	-13.381	226.549	177.821	122.712	228.313	0.00031264	0.0003817	0.00011621	1154.2	2.0738e-06	2.3853e-06	1226.2	235.45	2.8069e-06	2.0097e-06	298.8	84.683	66.425	19.128	3.9315e-06	26.869	0.0004858	0.00071419	0.00018928	1140.8	7.0261e-06	8.0205e-06	1208.6	235.06	7.1678e-06	7.7646e-06	296.82	84.992	66.845	19.48	7.2887e-06	27.338	48.813	11.362	-8.247	-89.607	-10.855	27.135	-89.648	-82.505	47.876	71.958	-82.841	-76.382	-75.964	-68.622	59.921	-69.452	-8191	255	
32235.105	1	1	0	0	0.058882	0.045916	0.12979	0.26262	0.14576	0.093397	0.21241	0.14395	0.048325	0.23875	0.17461	0.20406	0.048032	0.24673	0.15517	0.064673	-3.8042	-4.4917	-4.5396	-4.2229	-4.8458	-4.4604	-4.3458	-4.8083	-4.2	-4.5604	-4.7271	-4.2979	-4.6125	-4.425	-4.3063	-4.9313	93.311	18.788	-8.830	253.804	241.989	-63.033	180.980	-64.503	80.300	232.699	229.487	-69.582	184.858	-70.291	22.798	-30.987	0.00030937	0.00032818	7.2119e-05	1154.8	3.5243e-06	2.7665e-06	1220.1	237.73	3.074e-06	3.4718e-06	297.74	84.275	66.551	19.185	1.3698e-06	26.756	0.00048668	0.00064499	0.00019102	1140.3	6.6834e-06	7.526e-06	1208.7	235.51	7.0369e-06	7.5253e-06	296.97	84.715	66.896	19.433	6.932e-06	27.3	48.398	-47.974	12.903	-89.525	68.270	57.986	-89.741	-82.340	87.117	61.714	-83.055	-76.103	-75.893	-68.929	21.702	-69.450	-8191	255	
32235.201	1	1	0	0	0.055202	0.12831	0.14403	0.10434	0.21543	0.10556	0.25931	0.077587	0.21695	0.10411	0.18447	0.086989	0.36876	0.07842	0.17003	0.12842	-3.8688	-4.3208	-4.7167	-4.2458	-4.6521	-4.4604	-4.3375	-4.725	-4.275	-4.2125	-4.8271	-4.1687	-4.65	-4.4646	-4.0354	-4.8271	117.308	-81.783	104.557	243.222	64.714	127.172	190.998	219.706	-23.993	76.921	214.813	194.294	198.632	198.128	136.462	69.487	0.0002763	0.00037967	7.4125e-05	1158.9	1.7161e-06	4.7914e-06	1224	236.29	4.9032e-06	1.8764e-06	298.29	84.802	65.993	19.3	3.4983e-06	26.825	0.00048176	0.00069953	0.00018892	1139.9	6.9331e-06	7.5622e-06	1208.1	235.49	6.5544e-06	7.1951e-06	297.5	85.17	66.694	19.509	6.8363e-06	27.382	46.142	5.796	-37.659	-89.426	28.886	31.296	-89.536	-82.579	-1.528	57.640	-82.923	-76.338	-76.066	-68.550	32.000	-69.634	-8191	255	
32235.322	1	1	0	0	0.10372	0.23071	0.27208	0.35118	0.059652	0.14085	0.15841	0.074262	0.069552	0.14204	0.17277	0.15587	0.080682	0.077018	0.20969	0.306	-3.9083	-4.2688	-4.5646	-4.2667	-4.4	-4.4771	-4.2458	-4.7792	-4.2854	-4.3083	-4.7542	-4.2875	-4.5917	-4.4812	-4.0979	-4.7042	115.658	197.140	115.695	-63.377	192.480	13.411	244.809	103.216	91.480	254.502	134.865	204.890	78.927	138.881	57.055	231.918	0.00030446	0.00026098	9.6016e-05	1153.6	2.0141e-06	2.2116e-06	1226.5	237.48	1.5482e-06	1.119e-06	297.25	84.344	66.259	19.279	2.7935e-06	27.002	0.00049138	0.0006665	0.00017475	1140.1	6.8862e-06	7.2727e-06	1208.3	236.36	6.7864e-06	7.4812e-06	297.23	84.868	66.886	19.476	7.1884e-06	27.428	38.256	-2.183	-36.403	-89.504	15.668	78.284	-89.583	-82.320	4.609	74.510	-82.995	-75.770	-75.687	-68.696	43.406	-69.578	-8191	255	
32235.420	1	1	0	0	0.31159	0.15878	0.20183	0.13231	0.15329	0.055192	0.08299	0.10812	0.34967	0.018389	0.19042	0.18171	0.20389	0.06574	0.1412	0.1556	-4.0708	-4.2979	-4.7063	-4.2354	-4.4104	-4.6792	-4.0312	-4.6813	-4.5188	-4.1458	-4.6625	-4.175	-4.4542	-4.6146	-4.0667	-4.6937	71.826	-18.050	-33.886	176.384	-47.709	121.206	125.248	-24.552	-77.306	64.998	-58.850	201.277	-59.560	254.075	-1.030	198.144	0.00031345	0.00041701	4.1066e-05	1152.9	4.9206e-06	4.0487e-06	1221.3	236.57	4.2343e-06	3.7852e-06	296.15	84.869	67.147	19.129	1.505e-06	26.817	0.00049204	0.0006522	0.00018289	1141.2	7.127e-06	7.262e-06	1209.4	235.74	6.5032e-06	7.4384e-06	296.43	85.105	67.039	19.457	7.3821e-06	27.366	34.618	-4.130	-36.817	-89.555	54.517	27.180	-89.630	-82.476	30.056	61.436	-82.638	-76.120	-76.053	-69.274	41.624	-69.315	-8191	255	
32235.516	1	1	0	0	0.29527	0.13512	0.1541	0.14485	0.1454	0.063387	0.22108	0.13265	0.15258	0.16848	0.10216	0.024593	0.36085	0.069764	0.13242	0.22905	-4.1479	-4.05	-4.5979	-4.4375	-4.2063	-4.7604	-4.2729	-4.5021	-4.4583	-4.2208	-4.6896	-4.2792	-4.2083	-4.8458	-4.1229	-4.6771	-46.971	-71.443	-34.355	-20.129	-13.351	30.200	115.680	-78.361	-80.865	101.251	31.803	-83.869	-33.876	-6.320	246.352	-84.771	0.00033346	0.00031153	6.9477e-05	1151.2	2.7232e-06	2.477e-06	1225	236.69	5.4684e-06	3.0876e-06	297.54	84.317	66.32	19.274	1.9345e-06	27.18	0.00049248	0.00069244	0.0001799	1138.6	6.8922e-06	7.0034e-06	1209.9	235.71	6.9837e-06	7.6777e-06	297.11	84.888	66.818	19.444	7.3354e-06	27.435	33.335	-16.687	10.123	-89.408	31.315	65.866	-89.499	-82.519	18.555	55.183	-82.548	-76.373	-76.503	-69.073	53.129	-69.349	-8191	255	
32235.611	1	1	0	0	0.022872	0.095876	0.11117	0.069624	0.12133	0.15124	0.081092	0.10178	0.13552	0.18215	0.25877	0.12008	0.12442	0.18435	0.30658	0.24341	-4.4458	-4.1125	-4.5229	-4.3458	-4.0479	-4.6896	-4.2208	-4.7833	-4.5917	-4.0792	-4.6125	-4.4542	-4.2646	-4.725	-4.2312	-4.4771	203.696	160.066	135.744	-94.034	246.783	62.695	115.950	-56.155	133.308	-82.167	-17.094	68.867	-38.713	-13.086	-80.833	207.590	0.0002724	0.00034155	5.2406e-05	1155.1	2.1171e-06	4.1738e-06	1223.8	236.58	1.2244e-06	3.082e-06	299.21	84.848	66.615	19.206	2.3043e-06	26.853	0.00048287	0.00070628	0.00018659	1140.8	6.6794e-06	7.4898e-06	1209.4	235.63	6.6341e-06	7.897e-06	297.06	84.863	66.814	19.435	6.32e-06	27.412	40.340	-14.691	-5.870	-89.359	20.724	50.462	-89.390	-82.478	4.393	65.446	-82.650	-76.495	-76.313	-68.746	21.129	-69.114	-8191	255	
32235.730	1	1	0	0	0.21153	0.24917	0.037521	0.15852	0.050489	0.15592	0.14563	0.20668	0.061825	0.084874	0.14087	0.036971	0.25983	0.15441	0.22173	0.2018	-4.2792	-3.9333	-4.6646	-4.5062	-4.1708	-4.7396	-4.2583	-4.4917	-4.6271	-4.0583	-4.6854	-4.5958	-4.1792	-4.5813	-4.2292	-4.3688	247.150	165.369	-50.051	16.299	199.580	17.747	189.439	222.881	44.493	71.324	47.734	190.714	247.283	227.291	75.080	-0.377	0.00027445	0.00011314	0.00010902	1155.9	3.0802e-06	2.1173e-06	1222.8	237.21	1.1833e-06	2.7305e-06	298.23	84.016	66.404	19.279	2.8317e-06	26.888	0.00047911	0.00066173	0.00019561	1140.6	6.7543e-06	7.455e-06	1206.5	235.48	6.723e-06	7.6416e-06	297.11	84.628	66.834	19.488	7.406e-06	27.291	42.324	-8.258	37.684	-89.546	5.879	70.974	-89.304	-82.411	39.431	25.050	-82.938	-76.099	-76.142	-68.651	90.208	-69.527	-8191	255	
32235.803	1	1	0	0	0.12698	0.092397	0.082295	0.21666	0.18312	0.079805	0.35644	0.29625	0.084767	0.020121	0.038896	0.21501	0.038998	0.1313	0.14036	0.08373	-4.2979	-4.0042	-4.5333	-4.5479	-4.1	-4.7021	-4.5104	-4.4104	-4.6354	-4.1479	-4.5417	-4.4688	-4.2104	-4.6021	-4.3562	-4.2375	153.368	127.931	227.418	249.379	240.332	119.486	162.198	256.201	245.373	-14.875	114.733	180.843	107.779	184.690	-43.220	63.229	0.00040443	0.00027837	0.0001222	1154.3	1.6553e-06	3.0247e-06	1220.2	236.39	3.9321e-06	2.8535e-06	298.47	84.012	67.022	19.167	3.2311e-06	27.083	0.00049635	0.0007193	0.00018981	1138.9	6.8732e-06	7.5823e-06	1208.6	235.34	6.4368e-06	7.9932e-06	297.62	84.698	66.941	19.495	6.916e-06	27.47	45.822	-16.745	0.238	-89.506	2.305	38.019	-89.576	-82.690	39.194	54.070	-82.579	-76.504	-76.094	-68.879	80.113	-69.428	-8191	255	
32235.898	1	1	0	0	0.20914	0.12609	0.12821	0.18467	0.24028	0.12068	0.26292	0.18618	0.17433	0.21494	0.16312	0.053524	0.13911	0.18084	0.13571	0.12486	-4.35	-4.2917	-4.4625	-4.6188	-4.05	-4.7833	-4.5458	-4.1042	-4.8958	-4.1188	-4.6396	-4.5792	-4.125	-4.5021	-4.4646	-4.1542	38.951	241.808	194.200	-99.685	161.993	138.391	193.889	185.278	-81.031	109.710	56.231	98.523	168.966	250.758	-41.862	180.838	0.00031244	0.00031435	0.00012814	1151.6	3.4372e-06	4.1281e-06	1222.7	237.67	2.262e-06	3.2019e-06	298.2	84.859	66.537	19.275	2.014e-06	26.983	0.0004533	0.00064685	0.00018594	1138.7	6.5255e-06	7.4456e-06	1208.1	235.76	6.3898e-06	8.175e-06	297.53	85.096	66.856	19.47	6.7679e-06	27.437	54.694	11.261	-6.508	-89.449	44.669	39.356	-89.536	-82.807	-37.139	52.218	-82.739	-76.300	-76.389	-68.586	77.665	-68.994	-8191	255	
32235.996	1	1	0	0	0.058474	0.13228	0.081133	0.06272	0.16329	0.092912	0.11897	0.1166	0.13041	0.36909	0.067214	0.043977	0.059051	0.21499	0.23784	0.17376	-4.3438	-4.15	-4.3021	-4.8146	-3.9917	-4.3875	-4.5437	-4.0667	-4.6208	-4.0396	-4.3833	-4.7792	-4.2333	-4.5667	-4.6062	-4.1625	146.702	-59.799	-87.761	161.068	186.257	51.495	198.264	-44.688	241.599	29.346	191.024	246.877	152.418	222.404	-16.886	38.897	0.0003016	0.00036871	9.8502e-05	1153.2	2.4797e-06	4.2713e-06	1220.9	236.99	4.4003e-06	5.7346e-06	297.22	84.796	66.71	19.187	4.9869e-06	26.906	0.00047972	0.00070186	0.00019312	1139.5	6.7503e-06	7.6426e-06	1207.6	236.04	6.5349e-06	8.147e-06	297.47	85.027	67.009	19.453	6.6904e-06	27.373	41.772	6.373	9.223	-89.525	49.308	40.010	-89.672	-82.675	10.029	50.010	-82.848	-76.742	-76.002	-68.854	51.988	-69.515	-8191	255	
32236.113	1	1	0	0	0.15221	0.1672	0.21323	0.16581	0.17122	0.13653	0.25934	0.17571	0.10159	0.12064	0.10376	0.080028	0.085737	0.13262	0.060555	0.071517	-4.2229	-4.2937	-4.2063	-4.7667	-4.1292	-4.5875	-4.6771	-4.075	-4.5417	-4.1438	-4.3083	-4.7812	-4.1937	-4.3542	-4.6125	-4.1312	96.773	8.953	172.511	183.292	-52.960	-4.119	190.563	159.882	205.165	6.318	234.347	-54.723	5.855	178.728	33.248	204.875	0.00030972	0.00037542	5.524e-05	1159.3	8.7773e-07	9.3623e-07	1216.8	237.16	3.8424e-07	3.0633e-06	298.22	84.106	66.719	19.136	4.3512e-06	26.906	0.00048303	0.00064603	0.00019342	1140.3	7.1749e-06	7.396e-06	1204.4	236.02	6.7169e-06	7.6443e-06	297.05	84.931	66.755	19.42	7.1086e-06	27.337	36.119	8.106	-11.423	-89.419	-82.580	-0.414	-89.449	-82.404	-14.331	70.379	-82.758	-76.286	-76.595	-68.566	38.775	-69.198	-8191	255	
32236.211	1	1	0	0	0.10093	0.16451	0.14853	0.16378	0.043329	0.1552	0.40441	0.08809	0.14691	0.25448	0.2183	0.31109	0.33075	0.32543	0.12024	0.22826	-4.1917	-4.2917	-4.1354	-4.7979	-4.2229	-4.3167	-4.8167	-4.1937	-4.5813	-4.5479	-4.125	-4.6104	-4.075	-4.3021	-4.5833	-4.0646	-25.390	101.540	213.116	243.761	-16.330	-56.078	221.383	93.020	160.977	144.277	178.724	185.060	-51.469	181.730	170.755	153.264	0.00037013	0.00032409	9.4954e-05	1153.5	3.9189e-06	4.8574e-06	1220.2	236.7	5.8205e-06	2.8486e-06	296.67	84.196	66.438	19.289	4.1786e-06	26.884	0.00048701	0.0006636	0.00020585	1138.4	7.3678e-06	7.9575e-06	1208.7	235.62	6.7619e-06	8.0347e-06	297.02	84.909	66.753	19.483	6.7975e-06	27.366	57.256	-13.930	-4.964	-89.541	20.138	33.535	-89.527	-82.463	25.612	57.966	-82.848	-76.377	-75.838	-69.168	30.797	-69.311	-8191	255	
32236.307	1	1	0	0	0.029932	0.074435	0.069419	0.088067	0.16552	0.064316	0.055518	0.41019	0.27856	0.06044	0.01425	0.13916	0.1485	0.062259	0.087339	0.11575	-4.15	-4.4521	-4.1583	-4.6917	-4.2292	-4.35	-4.8521	-4.1542	-4.2521	-4.3625	-4.1125	-4.6583	-4.2812	-4.2438	-4.6833	-4.3396	101.269	44.861	117.094	131.963	244.471	42.515	173.564	233.432	131.395	108.023	-60.869	-48.345	141.296	-42.015	178.054	-41.200	0.00035665	0.0002392	7.9956e-05	1154.5	2.8602e-06	3.7748e-06	1216.4	237.6	2.3264e-06	2.869e-06	299.78	84.861	66.258	19.328	2.6623e-06	26.961	0.00047701	0.00067685	0.00019781	1139.8	7.1729e-06	8.0607e-06	1206.4	236.29	6.7578e-06	7.3128e-06	297.71	85.159	66.785	19.552	6.3371e-06	27.418	44.818	-25.952	1.710	-89.560	81.375	30.333	-89.216	-82.407	22.710	58.636	-82.982	-76.180	-75.837	-68.844	49.088	-69.576	-8191	255	
32236.402	1	1	0	0	0.18126	0.19918	0.21225	0.047787	0.13578	0.19885	0.2647	0.037402	0.1439	0.11814	0.22408	0.1393	0.10155	0.10057	0.061293	0.041469	-4.2021	-4.6667	-4.0687	-4.9125	-4.3063	-4.2438	-4.9979	-4.3854	-4.5	-4.6979	-4.1271	-4.675	-4.3292	-4.0896	-4.6083	-4.2042	66.694	-94.675	69.391	114.508	139.507	97.461	188.526	-51.099	176.941	241.097	119.987	124.300	-0.865	238.227	213.786	-21.839	0.000326	0.00044531	0.00010175	1153.4	2.7392e-06	5.1621e-06	1223.4	238.43	1.5025e-06	2.6103e-06	299.01	84.477	67.091	19.364	3.4422e-06	27.122	0.0005021	0.00068802	0.00019384	1141.5	6.4925e-06	7.5046e-06	1209.7	236.52	6.7036e-06	6.7098e-06	297.97	85.012	67.131	19.572	5.8859e-06	27.53	55.511	-27.195	10.524	-89.478	2.781	54.099	-89.473	-82.678	-11.414	53.747	-82.850	-76.241	-75.782	-68.836	30.512	-68.919	-8191	255	
32236.498	1	1	0	0	0.26048	0.17044	0.071212	0.23567	0.081258	0.050566	0.36287	0.069803	0.072585	0.20176	0.094271	0.25813	0.17664	0.15026	0.2262	0.16153	-4.1125	-4.5604	-4.0521	-4.7458	-4.3396	-4.1188	-4.8771	-4.1937	-4.2688	-4.7646	-4.1604	-4.3938	-4.3958	-4.0604	-4.6542	-4.3417	150.127	256.277	99.242	193.719	208.343	92.806	176.639	251.143	136.953	162.477	-89.770	-13.190	-50.267	-34.203	135.801	125.710	0.00028987	0.00041656	6.712e-05	1158.2	6.6126e-07	3.4703e-06	1223.7	238.21	2.0763e-06	2.8971e-06	297.78	84.654	66.787	19.326	2.8032e-06	27.024	0.00045087	0.00057253	0.00017583	1140.7	6.1428e-06	7.2553e-06	1207.9	236.55	6.0033e-06	6.3596e-06	297.48	85.328	67.135	19.616	6.3291e-06	27.487	31.336	-6.427	-16.804	-89.522	147.081	63.451	-89.662	-82.130	39.259	31.264	-82.493	-76.401	-75.732	-68.475	32.738	-69.819	-8191	255	
32236.596	1	1	0	0	0.11253	0.2072	0.16725	0.25237	0.21349	0.091401	0.3278	0.099904	0.14346	0.059842	0.35603	0.34966	0.10649	0.17938	0.090503	0.099861	-3.975	-4.8396	-3.8875	-4.5813	-4.3708	-3.9729	-4.8479	-4.3063	-4.2771	-4.6167	-4.1333	-4.5646	-4.5	-4.1833	-4.5813	-4.6104	230.990	83.157	66.870	251.382	156.769	229.623	245.811	183.130	71.928	159.388	176.835	-79.815	150.360	173.675	146.479	-27.238	0.00029129	0.00031495	9.2963e-05	1156.2	3.6111e-06	2.7663e-06	1224.2	236.88	4.5068e-06	2.1965e-06	298.63	85.063	66.736	19.445	3.5482e-06	26.945	0.00046054	0.00057114	0.0001699	1139.6	6.5045e-06	7.4992e-06	1209	235.94	6.31e-06	7.024e-06	297.24	85.179	67.104	19.576	6.4294e-06	27.519	35.344	-7.708	-22.774	-89.436	22.754	46.747	-89.648	-82.391	35.622	90.028	-82.556	-76.119	-75.741	-68.585	52.293	-69.102	-8191	255	
32236.717	1	1	0	0	0.17992	0.0067449	0.16055	0.20387	0.19467	0.056275	0.10805	0.19388	0.17876	0.072282	0.35741	0.17174	0.17994	0.15058	0.10996	0.20851	-3.9354	-4.6625	-4.0833	-4.5292	-4.4187	-4.0792	-4.6229	-4.3292	-4.0708	-4.7729	-4.3125	-4.5229	-4.7729	-4.0479	-4.575	-4.3042	2.379	215.141	167.918	199.501	-41.476	167.744	91.152	227.803	56.729	-24.540	213.140	-60.691	-56.298	-89.487	96.345	239.534	0.00028926	0.00020677	7.4252e-05	1154	2.8708e-06	2.7837e-06	1218.7	237.45	5.4435e-06	2.438e-06	298.73	84.583	66.752	19.247	2.4097e-06	27.13	0.00046883	0.00062638	0.0001925	1139.5	6.4935e-06	7.1655e-06	1207.9	236.04	6.6791e-06	7.3007e-06	297.42	85.213	66.841	19.52	6.6038e-06	27.569	35.045	-15.896	-8.710	-89.459	16.689	37.228	-89.551	-82.127	57.885	46.428	-82.591	-76.244	-76.263	-68.788	18.196	-69.231	-8191	255	
32236.812	1	1	0	0	0.34213	0.099521	0.28821	0.13967	0.1972	0.22602	0.12447	0.17155	0.11498	0.081033	0.21439	0.24902	0.14374	0.24412	0.083515	0.052955	-3.8854	-4.6604	-4.2937	-4.4271	-4.5958	-4.1333	-4.6083	-4.5583	-4.2521	-4.8771	-4.4583	-4.3729	-4.6875	-4.2042	-4.5229	-4.6708	-96.928	136.623	172.318	244.324	112.074	11.077	199.376	182.304	139.813	100.338	176.257	127.840	131.045	166.474	182.194	108.603	0.00031897	0.00013794	0.00010997	1154.8	1.7553e-06	2.6294e-06	1224	237.42	1.5254e-06	5.1473e-06	298.93	84.857	66.898	19.324	2.6034e-06	26.922	0.00048215	0.00062545	0.00019384	1140.8	6.4735e-06	7.4925e-06	1208.1	236.37	6.8641e-06	7.2967e-06	297.31	85.174	67.081	19.533	6.8739e-06	27.432	43.327	-17.290	-8.279	-89.588	21.278	50.780	-89.449	-82.615	47.261	61.363	-82.840	-76.318	-76.452	-68.801	24.199	-69.459	-8191	255	
32236.906	1	1	0	0	0.20102	0.16348	0.17641	0.18953	0.010499	0.10025	0.31619	0.18678	0.22723	0.17164	0.20373	0.1307	0.14012	0.083677	0.14401	0.15241	-3.7896	-4.7188	-4.2396	-4.4271	-4.5979	-4.2083	-4.5354	-4.6104	-4.1104	-4.7583	-4.4062	-4.2646	-4.6208	-4.2104	-4.4292	-4.6	-7.246	219.624	48.252	242.382	-75.482	-66.985	238.020	169.362	161.075	253.803	161.114	157.714	228.045	259.158	250.067	212.363	0.00027849	0.00020128	8.4899e-05	1152.3	1.5705e-06	3.9244e-06	1223.1	238.39	4.7423e-06	3.6773e-06	297.31	84.236	66.704	19.39	1.6446e-06	27.177	0.00051266	0.00062766	0.00018807	1139.2	6.3656e-06	7.5139e-06	1208.1	236.64	6.8948e-06	7.2994e-06	297.13	85.026	67.044	19.578	6.475e-06	27.565	54.524	-9.112	-15.672	-89.558	55.546	57.449	-89.537	-82.540	44.046	47.303	-82.625	-76.158	-76.379	-68.950	100.979	-69.474	-8191	255	
32237.004	1	1	0	0	0.29109	0.080004	0.15753	0.1719	0.19756	0.041307	0.2145	0.062807	0.22295	0.078472	0.084376	0.227	0.11815	0.19335	0.10425	0.19892	-3.7208	-4.5563	-4.3771	-4.0458	-4.6083	-4.1896	-4.5208	-4.75	-4.0312	-4.7083	-4.5813	-4.2833	-4.6042	-4.2688	-4.3688	-4.7667	193.238	-27.297	135.206	228.303	134.025	71.077	258.395	142.980	224.856	-64.022	-12.332	-95.913	166.737	-76.556	229.978	208.382	0.00034815	0.0002541	9.2251e-05	1152.6	2.4629e-06	4.8407e-06	1227.9	237.4	1.8532e-06	2.8471e-06	299.31	85.271	67.061	19.478	2.4787e-06	27.354	0.00048967	0.00065883	0.00018256	1140.5	6.3846e-06	7.4429e-06	1211.5	236.58	6.7527e-06	7.3208e-06	298.51	85.498	67.342	19.688	6.736e-06	27.585	47.024	-12.459	-15.540	-89.540	56.882	62.716	-89.594	-82.548	21.979	43.375	-82.517	-76.287	-76.189	-68.623	60.412	-69.400	-8191	255	
32237.100	1	1	0	0	0.053467	0.16245	0.12255	0.23686	0.12938	0.21439	0.34512	0.10122	0.12086	0.12434	0.2832	0.19944	0.093063	0.15973	0.019332	0.08055	-3.6333	-4.6125	-4.45	-4.2854	-4.7812	-4.275	-4.4729	-4.7292	-4.1625	-4.5938	-4.7396	-4.0375	-4.75	-4.5375	-4.2812	-4.8458	85.500	139.775	222.443	207.113	126.032	22.209	-20.098	72.752	49.498	-42.250	257.043	-46.344	-67.592	-8.853	5.883	224.296	0.00029843	0.00035878	7.2895e-05	1160.8	1.0125e-06	2.7828e-06	1222.1	239.6	4.7803e-06	1.3353e-06	298.98	85.259	67.414	19.418	1.5372e-06	27.094	0.00047596	0.00058056	0.00017114	1143.8	6.1028e-06	7.203e-06	1211.3	237.77	6.3008e-06	6.5654e-06	298.19	85.809	67.501	19.704	6.5479e-06	27.715	41.216	-25.493	-4.760	-89.652	28.997	47.284	-89.557	-82.388	16.737	76.881	-82.693	-76.355	-75.931	-69.011	92.253	-69.479	-8191	255	
32237.195	1	1	0	0	0.052314	0.19479	0.19599	0.29287	0.19127	0.084767	0.24139	0.073211	0.0076279	0.095183	0.14491	0.27591	0.1448	0.21248	0.32536	0.13514	-3.8979	-4.4729	-4.4646	-4.1646	-4.55	-4.3271	-4.2625	-4.6417	-4.1188	-4.4542	-4.5792	-4.0917	-4.6458	-4.4271	-4.1896	-4.7063	105.867	111.269	-2.768	208.395	212.335	40.388	241.355	176.307	-46.564	49.488	127.051	-94.001	198.935	112.118	181.071	1.771	0.00031864	0.00035398	8.0995e-05	1154.1	1.1525e-06	2.0951e-06	1224.7	238.96	3.9485e-06	2.2283e-06	298.55	84.876	66.831	19.452	3.3213e-06	27.056	0.00047264	0.0006358	0.00017301	1142.9	6.0179e-06	6.9792e-06	1212.1	237.9	6.7956e-06	7.036e-06	297.89	85.668	67.279	19.742	6.532e-06	27.657	50.972	-10.020	-13.490	-89.631	-4.432	43.441	-89.151	-82.495	31.020	44.446	-82.932	-76.494	-76.209	-69.152	64.288	-69.671	-8191	255	
32237.291	1	1	0	0	0.053641	0.16299	0.064447	0.064519	0.14327	0.086548	0.22738	0.16396	0.13512	0.18115	0.077319	0.05723	0.22061	0.11265	0.19243	0.11745	-3.9188	-4.3458	-4.6958	-4.2583	-4.5312	-4.6687	-4.3021	-4.8042	-4.1583	-4.3146	-4.6813	-4.0625	-4.6083	-4.5333	-3.8187	-4.7937	206.796	-92.065	136.569	-8.800	209.465	137.434	159.187	124.969	-39.253	43.283	11.464	75.564	199.900	-63.979	1.638	-31.971	0.0003184	0.00025455	0.00010105	1153.2	2.7889e-06	2.7482e-06	1222.2	239.03	1.4324e-06	1.6513e-06	298.66	85.212	67.454	19.299	2.2529e-06	27.123	0.00047784	0.00061475	0.00015563	1140.4	6.3307e-06	7.4309e-06	1207	237.67	6.3468e-06	7.3395e-06	297.46	85.586	67.371	19.61	6.5081e-06	27.564	46.879	-27.519	-5.227	-89.425	-3.156	63.525	-89.545	-82.403	19.962	77.050	-82.939	-76.089	-75.940	-68.786	47.575	-69.463	-8191	255	
32237.412	1	1	0	0	0.076483	0.12591	0.17112	0.096231	0.063724	0.16506	0.17127	0.21362	0.18167	0.074669	0.27962	0.02255	0.15732	0.12259	0.12157	0.11221	-3.8833	-4.325	-4.7167	-4.2542	-4.5875	-4.5542	-4.125	-4.8042	-4.3604	-4.3333	-4.6542	-4.2021	-4.4688	-4.5333	-3.9271	-4.7125	-32.519	-54.581	219.411	228.980	-90.747	-59.889	222.360	-80.520	-62.941	23.182	-91.360	215.270	147.456	86.656	87.065	198.324	0.00029947	0.00031193	3.5062e-05	1158.6	2.2632e-06	2.2934e-06	1223.5	238.12	5.8316e-06	3.2335e-06	298.5	84.694	66.332	19.356	3.186e-06	27.153	0.00047983	0.00064929	0.00016901	1142.1	6.6694e-06	6.8037e-06	1208.9	237.42	6.6361e-06	7.6162e-06	297.39	85.289	66.976	19.557	7.5963e-06	27.536	46.105	-30.000	29.242	-89.314	-3.607	84.467	-89.783	-82.446	20.070	53.659	-82.806	-76.298	-76.059	-68.621	20.503	-69.338	-8191	255	
32237.508	1	1	0	0	0.18639	0.15288	0.1222	0.34805	0.071457	0.13954	0.13524	0.40734	0.20811	0.026757	0.029595	0.050282	0.085677	0.15424	0.067752	0.18973	-3.8708	-4.1417	-4.7146	-4.4854	-4.4875	-4.5708	-4.2146	-4.7458	-4.5125	-4.1208	-4.875	-4.2542	-4.4646	-4.5271	-4.0875	-4.55	129.814	2.712	55.243	-95.932	49.916	133.712	217.969	229.792	230.053	-61.183	-15.581	131.292	14.541	199.479	-24.150	230.650	0.00029248	0.00025474	0.00010273	1152.4	2.6906e-06	3.7051e-06	1225.1	237.31	2.3917e-06	2.9343e-06	297.31	84.06	66.138	19.364	2.1214e-06	27.266	0.00047408	0.00066208	0.0001782	1138.8	6.8742e-06	7.4831e-06	1209	236.97	6.857e-06	8.1496e-06	296.8	84.956	66.944	19.572	7.4562e-06	27.513	42.816	0.372	-2.754	-89.436	58.671	43.169	-89.259	-82.637	4.950	50.506	-82.764	-76.226	-76.194	-69.053	40.835	-69.516	-8191	255	
32237.604	1	1	0	0	0.17943	0.24492	0.13004	0.34335	0.028547	0.093132	0.032203	0.067046	0.091502	0.16119	0.23139	0.12121	0.027552	0.093037	0.2458	0.067666	-3.9208	-4.2375	-4.5687	-4.3063	-4.3521	-4.6083	-4.2292	-4.6438	-4.6292	-4.125	-4.6229	-4.3479	-4.2396	-4.6708	-4.1479	-4.5042	157.226	105.290	-16.727	212.856	212.089	193.052	-23.081	146.913	136.632	42.388	171.334	44.555	186.474	31.664	254.840	100.225	0.00026544	0.00034829	6.4453e-05	1153.8	2.2688e-06	4.9442e-06	1220.6	237.83	3.865e-06	3.9731e-06	297.33	85.354	66.685	19.465	2.2878e-06	27.071	0.0004916	0.00071209	0.00019401	1140.5	7.157e-06	7.4175e-06	1208.7	237.01	6.8099e-06	7.3569e-06	297.03	85.407	66.928	19.591	7.2955e-06	27.51	40.572	-9.772	12.145	-89.607	119.620	46.607	-89.733	-82.373	-24.698	30.454	-82.850	-76.448	-75.763	-68.998	69.403	-69.637	-8191	255	
32237.676	1	1	0	0	0.25023	0.057949	0.051802	0.094301	0.15029	0.078053	0.16688	0.12375	0.058822	0.064986	0.088931	0.053322	0.16035	0.11209	0.14482	0.13601	-4.0813	-4.1021	-4.575	-4.4354	-4.4229	-4.7146	-4.3583	-4.6667	-4.6479	-4.1521	-4.8	-4.3667	-4.2521	-4.7333	-4.2667	-4.5354	-40.450	244.949	235.972	-32.968	-3.552	-88.123	240.350	183.849	217.231	-86.898	70.418	190.192	18.567	250.290	-95.276	209.082	0.00030025	0.00045881	8.4547e-05	1155.5	1.771e-06	2.6971e-06	1219.8	238.63	4.3436e-06	2.6364e-06	298.54	85.211	66.983	19.333	2.7746e-06	27.075	0.00048082	0.00074372	0.0001884	1141.9	6.9481e-06	7.6761e-06	1210.4	237.39	6.8335e-06	7.9424e-06	297.49	85.267	67.185	19.547	7.1291e-06	27.501	35.524	-17.782	5.028	-89.571	25.935	47.747	-89.598	-82.689	4.813	42.025	-82.873	-76.167	-76.018	-68.590	20.181	-69.318	-8191	255	
32237.797	1	1	0	0	0.056809	0.34466	0.083631	0.031826	0.12632	0.16632	0.054024	0.17369	0.22963	0.062145	0.23088	0.2652	0.072836	0.1813	0.13062	0.21652	-4.0646	-4.1646	-4.5	-4.6125	-4.1604	-4.7729	-4.4708	-4.2896	-4.6438	-4.1396	-4.6979	-4.2979	-4.2146	-4.725	-4.3021	-4.2688	179.615	229.892	-61.778	96.838	-16.065	166.867	161.972	177.218	114.083	-88.013	-27.133	237.564	113.215	234.900	238.587	215.125	0.00032176	0.00015861	6.1464e-05	1154	1.7844e-06	3.6043e-06	1226	238.35	1.7017e-06	4.3904e-06	297.69	84.793	66.495	19.371	4.6188e-06	27.126	0.00047331	0.00073919	0.0001943	1140.1	7.4147e-06	7.3022e-06	1209.8	237.64	6.6137e-06	8.0922e-06	297.12	85.222	67.063	19.583	7.0004e-06	27.469	44.842	-11.554	-15.088	-89.559	28.174	61.661	-89.533	-82.392	-23.349	64.439	-82.831	-76.413	-76.043	-68.650	37.378	-69.670	-8191	255	
32237.893	1	1	0	0	0.06703	0.2315	0.11695	0.14472	0.12869	0.16522	0.13378	0.14647	0.33889	0.1231	0.13607	0.060503	0.16082	0.16179	0.060682	0.24817	-4.3375	-4.1917	-4.6188	-4.4542	-4.0938	-4.7646	-4.3583	-4.2438	-4.6917	-4.175	-4.5625	-4.6021	-4.1354	-4.6667	-4.2937	-4.2042	49.693	-97.210	-29.548	218.183	-31.677	-11.179	166.023	10.656	209.956	212.057	-71.920	-75.586	145.148	149.900	173.940	209.122	0.00028057	0.00028955	6.1829e-05	1155.6	3.9451e-06	2.6603e-06	1217.7	237.89	1.5644e-06	2.3676e-06	296.69	84.597	67.082	19.493	3.0201e-06	27.007	0.00047624	0.00070744	0.00018161	1140.4	7.4497e-06	7.6104e-06	1208.3	237.02	6.4756e-06	7.8716e-06	297.03	85.182	67.153	19.604	7.2761e-06	27.484	47.461	2.859	-9.569	-89.698	2.890	61.556	-89.460	-82.595	-56.992	19.706	-82.857	-76.625	-76.431	-69.056	90.161	-69.820	-8191	255	
32237.986	1	1	0	0	0.10444	0.14523	0.1877	0.058658	0.092514	0.23381	0.097337	0.1866	0.35706	0.15976	0.23409	0.041812	0.22657	0.10742	0.15749	0.068771	-4.3729	-4.2792	-4.4187	-4.7854	-3.9667	-4.7937	-4.5229	-4.2312	-4.8708	-4.3208	-4.3625	-4.7562	-4.2167	-4.7521	-4.4479	-4.1229	68.218	-39.870	-68.013	229.037	81.590	116.791	162.516	184.000	220.335	-68.544	230.210	-88.436	-0.455	221.924	118.440	38.003	0.00020766	0.00025507	9.0987e-05	1151.7	2.1678e-06	3.2522e-06	1224.4	237.33	3.6416e-06	3.4382e-06	298.19	84.376	66.365	19.376	1.707e-06	26.92	0.00049713	0.00072686	0.00019811	1137.7	7.0121e-06	8.0701e-06	1210.5	236.8	6.7067e-06	8.4772e-06	296.5	84.947	66.806	19.537	6.9457e-06	27.353	49.938	-21.604	-16.100	-89.624	46.274	33.084	-89.418	-82.428	19.331	42.691	-83.072	-76.465	-76.264	-69.217	74.012	-69.225	-8191	255	
32238.086	1	1	0	0	0.062702	0.29265	0.19437	0.1681	0.19027	0.036682	0.26307	0.18258	0.048913	0.25255	0.13419	0.15162	0.13207	0.1328	0.060747	0.10262	-4.4271	-4.2333	-4.3938	-4.7958	-4.1354	-4.6292	-4.6438	-4.2917	-4.6875	-4.3521	-4.3292	-4.7229	-4.15	-4.6687	-4.5708	-4.0646	236.575	200.591	98.697	148.993	232.889	-93.821	153.923	205.278	62.074	-41.839	220.380	-5.375	37.654	237.273	90.628	134.543	0.00031359	0.00034269	4.1595e-05	1155.7	3.5348e-06	4.3692e-06	1215.3	236.27	3.0597e-06	2.0895e-06	295.32	83.883	66.409	19.271	2.9429e-06	27.023	0.00049613	0.00071256	0.00020129	1138.8	7.5736e-06	7.9294e-06	1205.5	236.12	6.8938e-06	8.4237e-06	296	84.772	66.729	19.478	7.2602e-06	27.418	35.340	-22.449	33.489	-89.465	38.925	39.367	-89.597	-82.430	13.144	82.037	-82.939	-76.569	-76.159	-68.503	81.425	-69.510	-8191	255	
32238.203	1	1	0	0	0.1203	0.27052	0.14801	0.11011	0.16733	0.19027	0.27313	0.23186	0.28842	0.078915	0.29229	0.16609	0.17505	0.2519	0.10238	0.15086	-4.3604	-4.3292	-4.2438	-4.7688	-4.1625	-4.5542	-4.6771	-4.0792	-4.7667	-4.4812	-4.2854	-4.8583	-4.1625	-4.5375	-4.575	-4.1562	77.118	79.145	1.979	164.973	-48.974	23.656	223.160	129.091	227.412	234.523	0.162	85.734	153.458	94.851	157.091	123.249	0.00029214	0.00045681	5.995e-05	1154.2	5.7328e-07	2.6725e-06	1223.1	236.17	2.4031e-06	3.8611e-06	297.48	84.277	66.303	19.229	1.5511e-07	26.97	0.00050619	0.00067767	0.00020506	1138.3	7.3958e-06	8.2108e-06	1209.9	236.06	7.2455e-06	8.4197e-06	296.96	84.657	66.715	19.418	7.0858e-06	27.391	29.995	-21.024	-5.881	-89.541	121.327	23.078	-89.296	-82.501	-6.128	49.024	-82.829	-76.576	-76.042	-68.981	52.114	-68.953	-8191	255	
32238.275	1	1	0	0	0.21401	0.08613	0.033144	0.21203	0.35987	0.052479	0.053636	0.036114	0.11835	0.27379	0.088161	0.20679	0.20329	0.18249	0.11198	0.17177	-4.3167	-4.5917	-4.1604	-4.8	-4.2312	-4.4062	-4.8438	-4.1479	-4.6396	-4.2917	-4.2	-4.825	-4.2708	-4.5292	-4.675	-4.2104	-8.666	12.406	37.914	166.265	-31.615	122.796	173.793	256.297	169.613	168.404	209.973	-70.915	-22.398	255.836	128.014	168.499	0.00033995	0.00031593	8.6167e-05	1152.8	3.6705e-06	2.498e-06	1220.7	236.69	3.3974e-06	3.4486e-06	296.95	83.655	65.871	19.256	3.434e-06	26.739	0.00050945	0.00073535	0.00019355	1138.6	7.4957e-06	8.2215e-06	1206.4	235.97	7.0461e-06	8.3502e-06	297.07	84.492	66.648	19.473	7.5052e-06	27.342	38.786	-3.651	4.741	-89.527	39.492	51.669	-89.719	-82.514	-19.093	56.263	-82.739	-76.262	-76.026	-68.944	44.555	-69.595	-8191	255	
32238.396	1	1	0	0	0.086391	0.13925	0.18795	0.30648	0.22434	0.049932	0.077668	0.22551	0.18101	0.16977	0.10326	0.14286	0.10631	0.15924	0.13343	0.091749	-4.2958	-4.4042	-4.1833	-4.8104	-4.2292	-4.4125	-4.8	-4.3042	-4.5479	-4.5271	-4.2042	-4.7667	-4.2583	-4.3313	-4.6562	-4.2	24.580	79.697	125.057	219.312	-47.738	147.586	204.482	190.244	123.969	16.092	14.673	226.207	-99.789	238.571	191.803	103.344	0.0002978	0.00030302	2.6352e-05	1154.5	3.6659e-07	2.8892e-06	1216.7	235.83	3.4019e-06	2.042e-06	297.03	83.758	66.325	19.073	5.1984e-06	26.882	0.00051581	0.00069151	0.00021366	1139.2	7.6805e-06	8.5485e-06	1205.8	235.6	7.1207e-06	7.9371e-06	296.17	84.591	66.571	19.405	7.4231e-06	27.3	56.570	-50.307	-8.158	-89.454	-52.191	34.175	-89.488	-82.429	-7.165	65.889	-83.021	-76.697	-75.981	-68.717	26.599	-69.580	-8191	255	
32238.492	1	1	0	0	0.12528	0.0754	0.13069	0.29072	0.1678	0.036568	0.10198	0.052035	0.17687	0.2131	0.091896	0.059709	0.26975	0.030091	0.039798	0.18956	-4.1771	-4.3917	-4.0875	-4.8042	-4.3938	-4.2896	-4.9	-4.1521	-4.3083	-4.525	-4.2188	-4.8104	-4.4521	-4.2958	-4.7063	-4.3313	259.023	247.349	90.252	226.722	101.806	-92.365	-51.388	95.523	101.530	56.839	186.225	-77.079	-92.153	100.541	19.466	22.593	0.00035112	0.00029668	9.5168e-05	1156.7	6.6557e-07	3.546e-06	1216.4	236.67	4.2756e-06	3.1935e-06	298.1	83.873	66.262	19.193	7.3545e-07	26.688	0.00052095	0.00077617	0.00021782	1140	7.161e-06	8.2336e-06	1206.6	235.89	7.315e-06	8.8234e-06	297.35	84.519	66.682	19.447	7.4117e-06	27.226	50.017	8.547	-17.024	-89.490	196.903	37.849	-89.841	-82.208	28.633	71.499	-82.627	-76.605	-76.111	-68.352	189.867	-69.661	-8191	255	
32238.588	1	1	0	0	0.11328	0.13477	0.045389	0.042983	0.16687	0.14239	0.1065	0.17496	0.14729	0.12588	0.23884	0.2606	0.21414	0.077183	0.089827	0.27719	-4.0771	-4.5667	-4.1271	-4.7604	-4.4729	-4.175	-4.95	-4.3688	-4.3896	-4.5771	-4.0813	-4.7396	-4.5583	-4.1833	-4.675	-4.2083	194.674	86.754	94.106	171.930	133.908	38.880	192.431	164.895	85.101	149.637	236.429	-61.779	61.264	99.050	-43.287	-51.032	0.00038314	0.00040579	6.1149e-05	1155.6	3.7368e-06	2.9698e-06	1220.4	237.49	1.9206e-06	3.4017e-06	298.31	83.996	66.462	19.283	2.0873e-06	26.781	0.00050873	0.00074268	0.00021441	1139.6	7.6186e-06	8.8661e-06	1208	235.72	7.68e-06	8.4758e-06	297.29	84.683	66.61	19.435	7.7502e-06	27.309	43.230	26.452	12.994	-89.538	35.277	60.136	-89.402	-82.395	-9.564	76.592	-82.617	-76.273	-75.843	-68.591	114.694	-69.544	-8191	255	
32238.684	1	1	0	0	0.12927	0.1979	0.24054	0.13299	0.19271	0.050934	0.15769	0.23142	0.090573	0.13544	0.22722	0.084661	0.20763	0.25162	0.13002	0.12842	-3.9896	-4.5875	-4.0292	-4.5396	-4.4854	-4.1479	-4.9167	-4.4583	-4.25	-4.8271	-4.1042	-4.4792	-4.4542	-4.0229	-4.6417	-4.4167	68.339	155.328	60.045	-93.530	174.043	72.105	181.577	195.015	219.850	162.649	186.696	-13.070	-92.823	157.098	161.526	149.089	0.0003148	0.00034428	6.1215e-05	1151.1	2.9055e-06	3.0521e-06	1221	235.25	4.0827e-06	1.9648e-06	296.9	84.466	66.404	19.312	2.547e-06	26.519	0.00052194	0.00074803	0.00021809	1136.5	7.6565e-06	8.6517e-06	1207.6	235.77	7.7178e-06	8.5079e-06	296.25	84.7	66.59	19.414	7.9998e-06	27.193	47.351	1.668	-22.865	-89.393	-15.191	42.092	-89.565	-82.484	67.926	49.813	-82.770	-75.988	-75.684	-68.991	21.533	-69.507	-8191	255	
32238.805	1	1	0	0	0.12014	0.091016	0.27643	0.089381	0.1773	0.074327	0.17698	0.2399	0.03699	0.036459	0.17311	0.3735	0.097584	0.20502	0.04416	0.13606	-3.8625	-4.6458	-4.2896	-4.7625	-4.4313	-4.1792	-4.7208	-4.6	-4.1167	-4.5708	-4.2521	-4.4375	-4.6438	-4.0083	-4.5854	-4.5	-0.976	-26.467	244.327	241.942	67.027	65.371	176.503	242.908	73.791	219.483	253.969	190.934	-37.171	219.217	94.496	-90.910	0.00022735	0.00047744	7.7807e-05	1157.7	2.0707e-06	3.59e-06	1223.8	235.81	2.4684e-06	3.1409e-06	298.62	83.825	66.778	19.129	3.2211e-06	26.905	0.00053399	0.00077129	0.00022422	1140.6	7.7834e-06	9.3418e-06	1209	236.09	8.1523e-06	8.3408e-06	296.92	84.43	66.534	19.413	8.0351e-06	27.276	42.252	-26.954	-5.518	-89.467	65.063	33.525	-89.637	-82.716	-3.136	56.288	-82.846	-76.346	-75.832	-68.684	79.503	-69.609	-8191	255	
32238.898	1	1	0	0	0.070758	0.18114	0.1827	0.15018	0.093085	0.080203	0.17323	0.14676	0.083083	0.25534	0.16952	0.11161	0.15481	0.16105	0.16466	0.079643	-3.9083	-4.825	-4.3562	-4.5208	-4.7604	-4.0979	-4.6896	-4.4646	-4.0979	-4.6104	-4.325	-4.4229	-4.4875	-4.1792	-4.4833	-4.5042	-49.915	146.456	-97.644	133.625	161.646	-84.279	237.170	91.316	160.867	138.521	124.818	154.220	235.737	250.463	206.678	246.255	0.00030588	0.00021286	9.0717e-05	1153.2	4.34e-06	4.5312e-06	1220.7	236.19	5.0864e-06	2.2767e-06	297.93	83.699	65.949	19.203	3.6801e-06	26.892	0.00054869	0.00077978	0.0002213	1139.6	7.9313e-06	9.4303e-06	1208.5	235.89	7.8967e-06	8.4932e-06	297.26	84.499	66.466	19.391	7.6043e-06	27.333	50.162	20.770	5.995	-89.522	59.445	59.623	-89.746	-82.349	15.124	81.812	-82.882	-76.302	-76.050	-69.152	36.890	-69.200	-8191	255	
32238.973	1	1	0	0	0.17155	0.17056	0.15759	0.29445	0.19202	0.059718	0.10449	0.26823	0.074149	0.11686	0.16511	0.15673	0.14766	0.26736	0.1136	0.21867	-3.7521	-4.6458	-4.3646	-4.4167	-4.6729	-4.2479	-4.4979	-4.4437	-3.9104	-4.5896	-4.45	-4.325	-4.8812	-4.1708	-4.3979	-4.6583	224.695	103.629	244.392	211.092	240.482	6.151	202.829	204.209	233.489	-2.527	133.492	249.481	140.714	-63.650	193.195	104.596	0.00034609	0.00033717	0.00010444	1157	3.6563e-06	3.5583e-06	1222.5	237.89	2.7795e-06	3.9301e-06	297.31	84.288	65.835	19.193	1.3437e-06	26.863	0.00056135	0.00078071	0.00022996	1141.6	7.9103e-06	9.4089e-06	1209.3	236.28	8.3537e-06	9.1376e-06	296.95	84.491	66.482	19.398	8.2413e-06	27.23	34.362	-31.820	-15.822	-89.522	21.143	39.726	-89.752	-82.594	49.849	68.851	-83.127	-76.391	-76.112	-68.826	53.690	-69.691	-8191	255	
32239.092	1	1	0	0	0.13189	0.040795	0.1674	0.15962	0.26066	0.11377	0.23122	0.30601	0.28642	0.2514	0.10987	0.031877	0.15696	0.21613	0.33732	0.1511	-3.7854	-4.6583	-4.4542	-4.4167	-4.7917	-4.1125	-4.5625	-4.5667	-4.0979	-4.5771	-4.4688	-4.2708	-4.7417	-4.2438	-4.3333	-4.7458	-43.397	132.024	42.409	225.964	-68.490	218.135	-40.506	160.182	96.037	189.988	-86.919	-30.735	131.096	245.158	178.614	227.990	0.00030586	0.00023836	7.9888e-05	1156.1	1.6206e-06	3.3341e-06	1223.9	236	2.8728e-06	4.8591e-06	297.1	83.715	65.945	19.078	1.7815e-06	26.868	0.00055427	0.00081269	0.00022261	1141.6	7.9173e-06	8.8688e-06	1208.9	235.92	7.9621e-06	8.7967e-06	296.98	84.315	66.453	19.346	8.418e-06	27.321	45.787	-7.879	3.431	-89.587	-48.973	28.565	-89.546	-82.571	-14.003	46.524	-82.665	-76.215	-76.140	-68.844	140.779	-69.447	-8191	255	
32239.188	1	1	0	0	0.09474	0.33124	0.19769	0.022475	0.19785	0.12635	0.11235	0.30365	0.0050469	0.18488	0.083464	0.042294	0.047781	0.077388	0.067712	0.16957	-3.6292	-4.6458	-4.5229	-4.275	-4.675	-4.3229	-4.4792	-4.7438	-4.1771	-4.6562	-4.5146	-4.2292	-4.7458	-4.4271	-4.3646	-4.8146	42.193	-20.771	196.297	-24.002	252.403	22.625	69.081	197.688	-21.686	220.091	228.963	145.918	95.434	240.141	205.224	116.602	0.00031481	0.00034947	9.8385e-05	1157.9	2.7577e-06	3.9431e-06	1227.5	236.59	4.0927e-06	2.5194e-06	296.93	83.536	66.469	19.121	2.9677e-06	26.818	0.00057931	0.00082211	0.0002317	1142.1	8.1581e-06	9.8069e-06	1212.4	235.63	8.4641e-06	8.9651e-06	297.2	84.473	66.683	19.366	8.6698e-06	27.272	36.512	-3.401	-23.475	-89.682	3.620	39.756	-89.690	-82.516	62.966	53.059	-82.821	-76.358	-75.929	-68.825	0.569	-69.413	-8191	255	
32239.283	1	1	0	0	0.033391	0.12866	0.16585	0.12661	0.18029	0.12458	0.23673	0.15186	0.10305	0.10446	0.068509	0.1329	0.16326	0.044575	0.11664	0.14847	-3.9125	-4.3729	-4.6333	-4.1333	-4.7792	-4.3187	-4.4333	-4.8917	-4.1	-4.5062	-4.7188	-4.1937	-4.6542	-4.4729	-4.2271	-4.6458	-49.561	4.534	-92.481	208.751	113.618	-92.033	241.762	-98.415	237.547	81.875	177.341	-37.478	200.222	112.419	58.575	209.265	0.00036491	0.00038437	6.8884e-05	1159.3	3.7479e-06	2.6217e-06	1223.9	235.61	5.5688e-06	2.5261e-06	297.53	84.493	66.36	19.04	4.1167e-06	26.686	0.00057953	0.00083409	0.0002317	1143.3	8.28e-06	8.901e-06	1211.4	235.83	8.138e-06	9.3181e-06	297.15	84.784	66.69	19.346	9.0151e-06	27.204	47.665	-16.362	13.800	-89.622	60.532	90.800	-89.495	-82.738	8.722	69.987	-82.793	-76.402	-76.376	-68.875	29.681	-69.332	-8191	255	
32239.381	1	1	0	0	0.046453	0.10119	0.10967	0.15413	0.18763	0.09342	0.054162	0.17393	0.085937	0.075672	0.13131	0.17197	0.019359	0.061195	0.058798	0.18395	-3.925	-4.5354	-4.7354	-4.2208	-4.7333	-4.4875	-4.2104	-4.7521	-4.2688	-4.4979	-4.6729	-4.2979	-4.5625	-4.4708	-4.1917	-4.6979	-90.897	74.177	36.825	221.583	243.198	229.579	162.052	198.059	135.867	84.682	161.936	72.215	79.749	217.794	-27.034	-31.023	0.00029743	0.00033057	5.6464e-05	1159.3	4.8289e-06	3.2212e-06	1223.6	237.99	3.0322e-06	2.9855e-06	297.41	83.575	66.655	19.07	2.7719e-06	26.654	0.00056549	0.00082141	0.00024738	1143.7	8.5228e-06	1.0057e-05	1211.1	236.69	8.4897e-06	1.013e-05	297.11	84.606	66.629	19.336	9.0094e-06	27.169	43.969	-12.754	-6.212	-89.494	64.922	32.948	-89.600	-82.613	-0.344	64.814	-83.005	-76.464	-76.018	-68.833	68.820	-69.574	-8191	255	
32239.477	1	1	0	0	0.087904	0.17126	0.094582	0.030236	0.11433	0.052946	0.13302	0.060918	0.083675	0.21637	0.19957	0.052466	0.16572	0.11833	0.224	0.023194	-3.875	-4.2375	-4.75	-4.225	-4.4292	-4.4583	-4.2292	-4.7146	-4.3208	-4.3771	-4.7458	-4.125	-4.5729	-4.5833	-4.2792	-4.675	-26.253	231.235	158.999	-92.302	143.338	-33.765	209.033	-100.176	93.324	220.235	-90.239	103.516	214.293	-74.064	122.556	123.780	0.00023948	0.00040856	8.5395e-05	1163.3	9.1068e-07	4.0415e-06	1227.4	237.76	4.6726e-06	1.6067e-06	298.22	83.734	66.396	19.104	2.7678e-06	26.856	0.00058788	0.0009077	0.00024502	1146.5	8.6907e-06	9.7626e-06	1215.2	236.58	8.7892e-06	1.0045e-05	297.85	84.494	66.635	19.399	9.2339e-06	27.209	40.624	-13.312	26.939	-89.739	5.718	41.345	-89.628	-82.495	32.468	82.851	-82.863	-76.242	-76.111	-68.800	-1.906	-69.123	-8191	255	
32239.572	1	1	0	0	0.040148	0.12361	0.079503	0.23296	0.17099	0.22652	0.22874	0.10251	0.23219	0.15531	0.12176	0.11038	0.28796	0.27087	0.076232	0.086853	-4.1042	-4.175	-4.6208	-4.4854	-4.5396	-4.6521	-4.2792	-4.6958	-4.5229	-4.2604	-4.8792	-4.3	-4.3646	-4.6875	-4.2479	-4.5917	-54.451	-51.982	161.385	218.928	155.430	60.440	234.570	147.659	181.327	-80.102	133.242	191.769	221.030	175.631	122.473	126.564	0.00023703	0.00064607	9.9607e-05	1159.3	3.5321e-06	1.544e-06	1229.4	238.06	3.0954e-06	1.6335e-06	299.8	83.915	65.728	19.112	2.1468e-06	26.816	0.00058257	0.00089782	0.00024128	1146.8	8.5478e-06	1.0068e-05	1216.2	236.95	8.3946e-06	1.0398e-05	298.67	84.49	66.485	19.382	8.892e-06	27.271	59.806	-6.178	-5.464	-89.486	-2.708	19.357	-89.753	-82.273	-0.862	23.865	-82.907	-76.465	-75.823	-69.242	43.742	-69.532	-8191	255	
32239.668	1	1	0	0	0.091048	0.084885	0.093725	0.1562	0.25988	0.048022	0.18048	0.13412	0.21938	0.054098	0.10948	0.082101	0.23026	0.10347	0.12774	0.15745	-4.1667	-4.1875	-4.7229	-4.4104	-4.3292	-4.7583	-4.2063	-4.8917	-4.4854	-4.1	-4.8	-4.4521	-4.35	-4.7042	-4.2396	-4.6521	180.278	-72.523	11.707	-39.696	-91.979	99.801	125.681	-37.559	7.721	-70.608	174.805	-84.248	-85.128	-63.193	-33.475	-42.720	0.00028287	0.00041552	6.6446e-05	1168	3.3409e-06	1.983e-06	1235	237.41	6.6221e-06	2.7651e-06	298.26	83.86	65.691	19.216	4.115e-06	26.786	0.00059147	0.00095143	0.0002506	1151	9.2552e-06	9.843e-06	1217.7	236.86	8.3506e-06	1.0552e-05	298.26	84.511	66.437	19.364	9.4994e-06	27.273	37.478	30.599	-2.927	-89.627	44.222	-13.463	-89.585	-82.418	10.555	21.586	-82.780	-76.625	-75.915	-68.984	40.097	-69.437	-8191	255	
32239.766	1	1	0	0	0.077235	0.14772	0.11877	0.12363	0.26671	0.094099	0.1652	0.051892	0.13682	0.22987	0.13557	0.2049	0.21956	0.30238	0.19331	0.26318	-4.3625	-4.0708	-4.8125	-4.3604	-4.3646	-4.7979	-4.4333	-4.4812	-4.6417	-4.1583	-4.9125	-4.6125	-4.3042	-4.8063	-4.0458	-4.4667	0.944	-73.115	172.252	193.965	-39.482	257.256	241.310	183.782	82.258	158.217	-44.179	208.558	258.802	-73.280	10.133	-69.413	0.0003292	0.00038805	0.00010604	1163.5	2.3715e-06	1.4245e-06	1226.6	238.02	4.0195e-06	4.1688e-06	300.2	83.935	66.61	19.13	2.4319e-06	26.804	0.00059147	0.00093096	0.00024702	1149.2	8.7196e-06	9.7868e-06	1216.1	237.1	8.5572e-06	1.0664e-05	298.63	84.636	66.802	19.399	9.2157e-06	27.234	31.991	-33.066	-30.194	-89.436	29.790	84.998	-89.615	-82.757	17.954	46.366	-82.872	-76.407	-76.177	-69.101	51.956	-69.058	-8191	255	
32239.883	1	1	0	0	0.14094	0.08945	0.12924	0.13857	0.224	0.29433	0.32416	0.2516	0.17219	0.071978	0.055027	0.13694	0.10932	0.099418	0.29491	0.17568	-4.3125	-4.075	-4.6104	-4.725	-4.2375	-4.8125	-4.3896	-4.5208	-4.6438	-4.1958	-4.6458	-4.5104	-4.3063	-4.7375	-4.2562	-4.3417	48.236	65.135	64.038	203.725	-2.255	198.242	196.990	-74.168	-74.924	141.678	147.418	202.590	193.107	197.946	-97.199	186.948	0.0003619	0.00031899	8.1867e-05	1165.8	2.1269e-06	2.8751e-06	1236.2	238.52	2.0733e-06	3.3919e-06	300	83.416	66.748	19.174	3.4206e-06	26.551	0.00056809	0.00088189	0.0002439	1148.9	9.1463e-06	9.9516e-06	1218.1	237.33	8.7003e-06	1.0267e-05	298.53	84.463	66.812	19.37	9.4641e-06	27.243	41.362	16.077	0.814	-89.529	-35.597	22.809	-89.975	-82.620	-13.552	19.812	-82.621	-76.442	-76.016	-68.750	22.185	-69.335	-8191	255	
32239.980	1	1	0	0	0.17392	0.098357	0.080099	0.2147	0.10429	0.21374	0.33701	0.15065	0.12997	0.07759	0.16497	0.085548	0.30171	0.079961	0.17174	0.096329	-4.3604	-4.1542	-4.5729	-4.5396	-4.0604	-4.7646	-4.4167	-4.2917	-4.7646	-4.2417	-4.5708	-4.6167	-4.2333	-4.7896	-4.3187	-4.2833	177.093	169.232	-1.464	154.129	-52.018	147.279	227.603	-83.788	-12.313	-47.248	209.128	-87.293	135.721	-68.238	-42.347	54.486	0.00026857	0.00038206	8.6945e-05	1160.9	4.0868e-06	2.1061e-06	1226	237.48	5.1402e-06	2.6926e-06	299.91	84.19	66.335	19.225	2.6007e-06	26.917	0.00055985	0.00089038	0.0002501	1148.6	8.8585e-06	1.0163e-05	1216.5	237.21	8.2821e-06	1.0274e-05	298.56	84.648	66.739	19.43	9.1895e-06	27.319	43.542	-26.197	7.852	-89.649	62.203	113.241	-89.649	-82.351	47.338	73.108	-82.671	-76.382	-76.347	-68.663	33.616	-69.755	-8191	255	
32240.078	1	1	0	0	0.052913	0.17963	0.090622	0.20693	0.16259	0.16347	0.089658	0.1918	0.13259	0.10393	0.33218	0.11	0.076203	0.14225	0.20612	0.096034	-4.4833	-3.9896	-4.4354	-4.7021	-4.1062	-4.6896	-4.5958	-4.3125	-4.8375	-4.125	-4.4208	-4.6646	-4.2521	-4.7792	-4.4958	-4.3125	128.676	208.874	-49.861	177.684	103.238	248.717	-27.780	182.729	66.479	-18.370	246.767	60.210	164.052	139.312	140.533	-51.685	0.00026945	0.00019034	0.00010912	1162.3	2.2619e-06	2.3992e-06	1233.2	237.55	3.8505e-06	2.8935e-06	299.27	84.609	66.44	19.129	3.9252e-06	26.83	0.00055643	0.00091608	0.00025391	1148.9	8.6237e-06	9.7492e-06	1219.1	237.11	8.6032e-06	1.0242e-05	298.49	84.799	66.706	19.365	9.6362e-06	27.265	38.289	-17.958	-21.024	-89.497	55.200	49.956	-89.627	-82.763	-2.214	4.696	-82.408	-76.525	-76.035	-68.991	54.281	-69.826	-8191	255	
32240.195	1	1	0	0	0.21632	0.054637	0.26979	0.27781	0.077583	0.1639	0.22107	0.1345	0.13737	0.069451	0.1947	0.088008	0.087283	0.12754	0.12873	0.10163	-4.4604	-4.2021	-4.3979	-4.8	-4.2354	-4.7458	-4.6062	-4.3042	-4.6875	-4.2208	-4.4625	-4.6229	-4.1125	-4.4875	-4.3688	-4.3708	169.271	154.945	-14.515	255.681	222.357	88.821	225.285	38.941	-65.641	202.960	177.355	-7.729	-40.038	38.659	-31.214	188.941	0.00029616	0.00039907	0.00012788	1159.3	2.9222e-06	4.2342e-06	1227.7	238.19	2.7721e-06	3.2407e-06	298.49	84.594	66.201	19.14	4.0601e-06	26.694	0.00059141	0.00089166	0.00024269	1148.3	9.0833e-06	1.0553e-05	1215.6	237.14	8.3578e-06	1.0632e-05	298.57	84.653	66.689	19.391	9.0823e-06	27.156	37.244	-11.828	-12.843	-89.570	52.860	57.898	-89.685	-82.773	-38.980	70.640	-82.685	-76.455	-75.868	-68.865	28.249	-69.916	-8191	255	
32240.268	1	1	0	0	0.1366	0.085595	0.15963	0.23277	0.23048	0.064644	0.11669	0.056918	0.20531	0.2703	0.059601	0.11626	0.021101	0.22921	0.067688	0.10222	-4.3021	-4.3292	-4.0875	-4.7812	-4.0583	-4.5354	-4.825	-3.9979	-4.7937	-4.3646	-4.3625	-4.7688	-4.1958	-4.5958	-4.6354	-4.2	166.844	31.226	34.523	206.632	182.127	207.229	170.382	-68.014	36.357	223.543	70.347	251.212	195.873	157.577	21.569	216.101	0.0003234	0.00026989	7.0004e-05	1167.9	2.4632e-06	3.5782e-06	1230.4	236.81	4.4255e-06	2.8643e-06	299.77	84.368	66.313	19.043	3.3102e-06	26.74	0.0005908	0.00093876	0.00025174	1151.5	8.8615e-06	1.0572e-05	1219.1	236.95	9.0612e-06	1.0155e-05	299.1	84.472	66.731	19.362	9.063e-06	27.182	42.671	-26.981	14.248	-89.654	-10.445	51.854	-89.548	-82.536	-13.826	51.709	-82.994	-76.748	-76.170	-69.032	102.158	-69.081	-8191	255	
32240.363	1	1	0	0	0.13108	0.10032	0.18906	0.067233	0.064395	0.094218	0.41508	0.05195	0.031502	0.069201	0.049806	0.12863	0.065499	0.28077	0.16092	0.11576	-4.4208	-4.5083	-4.3667	-4.8562	-4.1813	-4.5542	-4.725	-4.2521	-4.7333	-4.4938	-4.3187	-4.7854	-4.3083	-4.3938	-4.6562	-4.1813	190.414	198.362	-77.161	246.983	-76.069	14.688	214.733	-84.517	-1.279	-36.834	185.679	238.273	180.521	213.747	113.502	162.712	0.00033382	0.00026941	0.00011983	1167.3	4.6359e-06	3.4752e-06	1234	238.66	5.8715e-06	5.3263e-06	299.48	84.115	66.262	19.179	3.5648e-06	26.648	0.00059219	0.00088224	0.00025781	1150.9	9.3351e-06	1.0671e-05	1217.6	237.52	8.8485e-06	9.9437e-06	298.77	84.684	66.756	19.376	9.3752e-06	27.297	47.105	-15.809	-16.954	-89.394	26.394	13.385	-89.718	-82.869	37.794	54.756	-82.892	-76.466	-76.139	-68.934	78.070	-69.486	-8191	255	
32240.484	1	1	0	0	0.25682	0.10986	0.14973	0.19437	0.17278	0.13463	0.18106	0.040067	0.12999	0.11757	0.19209	0.073258	0.23384	0.17748	0.20475	0.15069	-4.1771	-4.5667	-4.0542	-4.8667	-4.1542	-4.2688	-4.7667	-4.2729	-4.6396	-4.4812	-4.1729	-4.7604	-4.5104	-4.3104	-4.7125	-4.2688	44.842	106.097	81.438	-94.306	57.398	65.379	-46.864	233.191	244.023	43.672	99.021	199.460	144.253	256.172	131.733	220.611	0.00032439	0.00061484	6.6824e-05	1166.2	3.1342e-06	2.9116e-06	1236.9	239.01	3.3079e-06	5.138e-06	300.36	84.191	66.52	19.016	3.1895e-06	26.686	0.00059766	0.00091026	0.00027021	1151.9	9.1832e-06	1.0458e-05	1220.8	237.77	8.9089e-06	1.0817e-05	299.48	84.808	66.807	19.359	9.2829e-06	27.206	52.923	-19.342	-48.174	-89.514	-0.196	7.046	-89.385	-82.499	24.504	36.420	-82.822	-76.374	-76.269	-69.112	-16.505	-69.436	-8191	255	
32240.580	1	1	0	0	0.15935	0.089952	0.1032	0.012517	0.20407	0.067455	0.14309	0.21033	0.25029	0.073717	0.25462	0.035437	0.14002	0.18019	0.23366	0.15294	-4.2063	-4.4792	-4.0958	-4.8292	-4.3	-4.2688	-4.7708	-4.2708	-4.6708	-4.5437	-4.3104	-4.7271	-4.4729	-4.3021	-4.7458	-4.4167	142.151	-58.885	-28.207	155.422	234.762	135.417	200.356	197.544	-14.040	234.007	206.253	-64.140	144.558	86.540	162.932	155.513	0.00029098	0.00039396	3.0435e-05	1166.7	1.8366e-06	2.5453e-06	1232.5	238.84	9.581e-07	2.5528e-06	299.55	84.668	66.38	19.174	2.6666e-06	26.762	0.0006128	0.00095341	0.00027851	1152.9	9.1133e-06	1.0737e-05	1219.5	237.6	9.0285e-06	1.0259e-05	299.22	84.595	66.876	19.414	9.4652e-06	27.188	53.941	22.837	-36.731	-89.465	139.086	61.861	-89.823	-82.748	33.514	25.037	-82.601	-76.306	-76.119	-68.880	69.092	-69.664	-8191	255	
32240.678	1	1	0	0	0.041124	0.18137	0.12811	0.24208	0.12819	0.14736	0.08238	0.29216	0.12117	0.043134	0.16688	0.20967	0.17796	0.11418	0.17753	0.12432	-4.1438	-4.5792	-4.1521	-4.8125	-4.4292	-4.225	-4.9271	-4.425	-4.3625	-4.6188	-4.1292	-4.5771	-4.5188	-4.1979	-4.6604	-4.275	15.115	91.156	186.893	193.974	209.458	23.762	161.940	234.298	44.665	-77.476	150.563	15.544	-1.514	216.967	84.087	225.904	0.00027313	0.00026374	0.00011039	1170.8	2.5501e-06	1.6233e-06	1236.2	239.01	1.8732e-06	2.697e-06	300.01	84.276	66.084	19.19	4.716e-06	26.647	0.0006154	0.00091364	0.00026929	1155.5	9.445e-06	1.0987e-05	1222.9	237.69	9.7114e-06	1.0172e-05	299.11	84.824	66.498	19.432	9.4516e-06	27.24	35.499	-20.337	5.564	-89.610	103.910	124.985	-89.612	-82.702	-45.184	31.032	-82.904	-76.931	-76.122	-68.813	44.078	-69.689	-8191	255	
32240.799	1	1	0	0	0.17868	0.086141	0.27157	0.091378	0.056227	0.21944	0.25873	0.11586	0.22799	0.064381	0.12644	0.16093	0.13108	0.02718	0.14578	0.25714	-3.9396	-4.6104	-3.9688	-4.6188	-4.4396	-4.0646	-4.8042	-4.2125	-4.4021	-4.7562	-4.3396	-4.4917	-4.7104	-4.0813	-4.6021	-4.4708	-44.259	96.681	-17.815	189.232	226.207	102.442	131.677	241.928	203.568	197.636	100.554	-50.368	251.633	-34.229	63.185	222.613	0.00030938	0.00019306	0.00010948	1171.6	4.8083e-06	3.7452e-06	1234.7	238.3	2.7766e-06	2.0352e-06	299.88	83.615	66.729	19.061	2.8113e-06	26.763	0.00061496	0.00093015	0.00026037	1154.1	9.0534e-06	1.1201e-05	1221.4	237.79	9.0499e-06	1.0766e-05	299.66	84.795	66.845	19.446	9.7422e-06	27.291	53.702	6.741	-11.483	-89.801	48.298	21.787	-89.427	-82.517	20.553	43.488	-82.866	-76.470	-75.773	-69.102	37.507	-69.192	-8191	255	
32240.869	1	1	0	0	0.12995	0.27741	0.098161	0.087315	0.0032422	0.16955	0.077821	0.22821	0.21988	0.11489	0.24184	0.12736	0.10603	0.20002	0.031288	0.22934	-3.8833	-4.6521	-4.075	-4.6708	-4.5479	-4.1896	-4.7958	-4.5979	-4.1604	-4.8521	-4.2812	-4.5083	-4.8	-4.1729	-4.5667	-4.3875	98.654	220.995	214.900	105.785	44.915	136.927	183.714	166.154	108.171	-71.408	254.632	101.954	-1.115	-40.776	43.667	-98.936	0.00036404	0.00032448	0.00010189	1171	9.8762e-07	3.9602e-06	1244	239.2	1.8533e-06	1.9111e-06	300.45	84.04	66.345	19.137	1.5257e-06	26.854	0.00061562	0.00092736	0.00027615	1158.4	9.479e-06	1.1341e-05	1224	237.78	9.5928e-06	1.002e-05	299.69	84.622	66.809	19.431	9.9085e-06	27.255	39.079	-20.533	16.377	-89.444	-48.216	31.095	-89.681	-82.588	96.638	72.422	-82.696	-76.474	-76.227	-68.883	22.055	-69.675	-8191	255	
32240.965	1	1	0	0	0.27068	0.037123	0.058713	0.23561	0.095733	0.16636	0.18832	0.085178	0.095951	0.26705	0.17899	0.19098	0.15597	0.12459	0.10548	0.18606	-3.875	-4.575	-4.2396	-4.3896	-4.5625	-4.0938	-4.7438	-4.5021	-4.3146	-4.8646	-4.2271	-4.4792	-4.6833	-4.3104	-4.4792	-4.7063	159.177	257.102	70.739	249.174	212.644	192.523	223.923	250.864	188.545	130.700	16.413	154.629	-52.159	144.235	167.399	208.669	0.0003138	0.00021477	0.00012991	1173.2	1.1268e-06	2.9479e-06	1234.8	239.86	6.2313e-06	2.5959e-06	301.16	83.658	66.416	19.267	2.4797e-06	26.889	0.00062474	0.00089735	0.00027231	1156.9	9.2552e-06	1.0821e-05	1222.9	238.6	9.5632e-06	1.0631e-05	300.29	84.756	66.939	19.459	9.7763e-06	27.316	42.266	36.187	24.317	-89.516	-58.221	50.835	-89.800	-82.607	50.482	43.295	-82.713	-76.112	-75.797	-68.794	31.754	-69.719	-8191	255	
32241.061	1	1	0	0	0.067939	0.17173	0.15553	0.1484	0.25676	0.15736	0.23832	0.078747	0.091206	0.22029	0.33004	0.24094	0.057338	0.11501	0.20326	0.15748	-3.8458	-4.6646	-4.3646	-4.3604	-4.7125	-4.1458	-4.8208	-4.7854	-4.1625	-4.6583	-4.475	-4.2188	-4.8458	-4.0479	-4.4208	-4.7625	-80.608	-2.851	36.259	-60.618	128.785	59.198	117.229	184.917	139.109	-2.452	248.210	189.018	18.538	152.041	207.633	92.542	0.00030711	0.00027317	0.00010476	1167.8	3.7492e-06	4.3449e-06	1235.2	237.79	2.2527e-06	2.9196e-06	299.77	84.453	66.831	19.138	1.405e-06	26.866	0.00059943	0.00096423	0.00028055	1156	9.5559e-06	1.0965e-05	1224.2	237.65	9.3076e-06	1.1075e-05	299.65	84.841	67.105	19.445	9.5108e-06	27.33	44.247	-14.061	14.144	-89.714	-23.658	10.359	-89.685	-82.565	23.392	60.942	-83.277	-76.053	-76.248	-68.833	23.271	-69.418	-8191	255	
32241.158	1	1	0	0	0.10198	0.062034	0.20859	0.12249	0.13613	0.18835	0.37533	0.22098	0.01384	0.22531	0.12975	0.15958	0.33133	0.1758	0.15078	0.26549	-3.8417	-4.6729	-4.3708	-4.2688	-4.7708	-4.2	-4.5333	-4.8417	-4.0917	-4.6792	-4.4917	-4.2021	-4.6729	-4.1208	-4.3125	-4.7667	135.594	-35.093	175.914	216.336	139.138	254.809	234.128	150.397	112.037	153.366	77.147	-86.821	254.652	184.070	-17.202	80.870	0.00028775	0.00035898	8.3083e-05	1173.9	3.2622e-06	3.897e-06	1233.9	239.36	3.0295e-06	2.4836e-06	300.65	84.439	66.507	19.208	4.5575e-06	26.713	0.00062269	0.0009612	0.00026388	1159.5	8.8755e-06	1.0732e-05	1223.6	238.26	9.3188e-06	1.0706e-05	300.17	84.958	66.984	19.423	9.7889e-06	27.308	55.485	12.158	-19.748	-89.584	-28.312	74.504	-89.678	-82.660	48.174	29.799	-82.845	-76.871	-76.028	-69.078	37.238	-69.658	-8191	255	
32241.277	1	1	0	0	0.25715	0.28605	0.17903	0.19437	0.096013	0.2199	0.30325	0.17234	0.31814	0.13674	0.05097	0.04143	0.16265	0.15052	0.089899	0.14402	-3.9	-4.5146	-4.5729	-4.1667	-4.6458	-4.3583	-4.4979	-4.7375	-3.9479	-4.4563	-4.5062	-4.2125	-4.7167	-4.2562	-4.3104	-4.8833	152.754	69.559	121.697	216.561	168.492	185.362	185.617	130.809	-85.586	43.315	178.380	3.966	189.262	190.345	204.897	-31.851	0.00031412	0.00033207	7.0567e-05	1180.6	2.367e-06	4.2472e-06	1242.6	239.07	4.4489e-06	2.6699e-06	300.37	84.317	66.453	19.199	5.4345e-07	26.723	0.0006275	0.000979	0.00025486	1161	9.0594e-06	1.0786e-05	1227.6	238.18	8.9958e-06	1.0651e-05	299.9	84.97	66.871	19.48	9.8094e-06	27.306	45.629	-8.062	-30.900	-89.618	55.677	31.703	-89.676	-82.828	7.091	80.461	-82.870	-76.307	-76.049	-69.044	-74.981	-69.499	-8191	255	
32241.373	1	1	0	0	0.10912	0.11701	0.086806	0.20003	0.057794	0.098132	0.23661	0.12616	0.085241	0.22358	0.12874	0.085287	0.099942	0.11608	0.20029	0.15687	-3.7479	-4.6479	-4.5875	-4.2729	-4.8042	-4.4729	-4.3583	-4.8583	-4.1375	-4.375	-4.55	-4.0208	-4.6896	-4.5354	-4.1396	-4.875	-94.800	-4.291	72.566	253.038	-33.413	19.267	179.845	218.594	164.847	178.717	133.501	133.566	72.813	-25.988	112.270	38.976	0.00028522	0.0003405	3.2352e-05	1176.8	1.9068e-06	3.1561e-06	1240.8	238.44	5.5174e-06	3.5415e-06	301.2	84.429	66.643	19.191	3.7757e-06	26.879	0.00062297	0.0009205	0.00028471	1161.4	9.466e-06	1.0902e-05	1225.3	238.56	9.9772e-06	1.0968e-05	300.48	85.1	67.113	19.461	1.0058e-05	27.32	37.069	-11.291	8.513	-89.383	7.074	60.061	-89.633	-82.600	30.438	85.860	-82.772	-76.185	-76.163	-68.725	67.021	-69.628	-8191	255	
#DATA ENDS
