BOXY.EXE: ISS Imagent and Oximeter Data Acquisition Program Version 0.80
Ascii Record File

#ACQ INFORMATION
2  Detector Channels 
16  External MUX Channels 
1  Auxiliary Channels 
5000  Waveform (CCF) Frequency (Hz)
1  Waveforms Skipped 
30  Waveforms Averaged 
1  Cycles Averaged 
16  Acquisitions per Waveform 
10.0806  Updata Rate (Hz) 

#FILE INFORMATION
TRUE -- External MUX Channel results are PARSED.
FALSE -- AC DC and Phase are NOT grouped.
TRUE -- Companion Program Settings File CREATED.
FALSE -- AC data not excluded
FALSE -- DC data not excluded
FALSE -- Phase data not excluded
FALSE -- Auxillary Chn. data not excluded
Tab delimiters

#CALIBRATION STATE
TRUE -- Waveform Calibration Values APPLIED.


#AUX CALIBRATION VALUES
Val Type	aux-1	

Term	1.0000e+00	
Factor	0.0000e+00	


#WF CALIBRATION VALUES
A = Detector Channel
Val Type	A-AC1	A-AC2	A-AC3	A-AC4	A-AC5	A-AC6	A-AC7	A-AC8	A-AC9	A-AC10	A-AC11	A-AC12	A-AC13	A-AC14	A-AC15	A-AC16	A-DC1	A-DC2	A-DC3	A-DC4	A-DC5	A-DC6	A-DC7	A-DC8	A-DC9	A-DC10	A-DC11	A-DC12	A-DC13	A-DC14	A-DC15	A-DC16	A-Ph1	A-Ph2	A-Ph3	A-Ph4	A-Ph5	A-Ph6	A-Ph7	A-Ph8	A-Ph9	A-Ph10	A-Ph11	A-Ph12	A-Ph13	A-Ph14	A-Ph15	A-Ph16	

Term	0.00000e+00	0.00000e+00	0.00000e+00	0.00000e+00	0.00000e+00	0.00000e+00	0.00000e+00	0.00000e+00	0.00000e+00	0.00000e+00	0.00000e+00	0.00000e+00	0.00000e+00	0.00000e+00	0.00000e+00	0.00000e+00	0.00000e+00	0.00000e+00	0.00000e+00	0.00000e+00	0.00000e+00	0.00000e+00	0.00000e+00	0.00000e+00	0.00000e+00	0.00000e+00	0.00000e+00	0.00000e+00	0.00000e+00	0.00000e+00	0.00000e+00	0.00000e+00	0.00000e+00	0.00000e+00	0.00000e+00	0.00000e+00	0.00000e+00	0.00000e+00	0.00000e+00	0.00000e+00	0.00000e+00	0.00000e+00	0.00000e+00	0.00000e+00	0.00000e+00	0.00000e+00	0.00000e+00	0.00000e+00	
Factor	1.00000e+00	1.00000e+00	1.00000e+00	1.00000e+00	1.00000e+00	1.00000e+00	1.00000e+00	1.00000e+00	1.00000e+00	1.00000e+00	1.00000e+00	1.00000e+00	1.00000e+00	1.00000e+00	1.00000e+00	1.00000e+00	1.00000e+00	1.00000e+00	1.00000e+00	1.00000e+00	1.00000e+00	1.00000e+00	1.00000e+00	1.00000e+00	1.00000e+00	1.00000e+00	1.00000e+00	1.00000e+00	1.00000e+00	1.00000e+00	1.00000e+00	1.00000e+00	X	X	X	X	X	X	X	X	X	X	X	X	X	X	X	X	

B = Detector Channel
Val Type	B-AC1	B-AC2	B-AC3	B-AC4	B-AC5	B-AC6	B-AC7	B-AC8	B-AC9	B-AC10	B-AC11	B-AC12	B-AC13	B-AC14	B-AC15	B-AC16	B-DC1	B-DC2	B-DC3	B-DC4	B-DC5	B-DC6	B-DC7	B-DC8	B-DC9	B-DC10	B-DC11	B-DC12	B-DC13	B-DC14	B-DC15	B-DC16	B-Ph1	B-Ph2	B-Ph3	B-Ph4	B-Ph5	B-Ph6	B-Ph7	B-Ph8	B-Ph9	B-Ph10	B-Ph11	B-Ph12	B-Ph13	B-Ph14	B-Ph15	B-Ph16	

Term	0.00000e+00	0.00000e+00	0.00000e+00	0.00000e+00	0.00000e+00	0.00000e+00	0.00000e+00	0.00000e+00	0.00000e+00	0.00000e+00	0.00000e+00	0.00000e+00	0.00000e+00	0.00000e+00	0.00000e+00	0.00000e+00	0.00000e+00	0.00000e+00	0.00000e+00	0.00000e+00	0.00000e+00	0.00000e+00	0.00000e+00	0.00000e+00	0.00000e+00	0.00000e+00	0.00000e+00	0.00000e+00	0.00000e+00	0.00000e+00	0.00000e+00	0.00000e+00	2.93131e+01	-1.38054e+02	-1.55137e+02	-1.83507e+02	-8.93409e+01	-7.38741e+01	-1.57185e+02	-1.62015e+02	-1.04756e+02	-8.47356e+01	-1.72626e+02	-1.72814e+02	-1.80483e+02	-1.78435e+02	-9.61728e+01	-1.51297e+02	
Factor	4.06815e-05	8.32167e-05	3.41537e-05	1.61071e-01	1.09079e-06	8.84274e-07	1.94396e-01	6.71829e-02	1.01989e-06	8.41751e-07	9.46126e-02	3.23926e-02	2.57595e-02	9.54239e-03	8.66236e-07	1.36832e-02	5.31991e-07	5.38450e-07	1.50082e-07	7.64884e-02	5.87831e-09	5.89810e-09	8.61984e-02	3.09803e-02	5.88643e-09	5.89619e-09	4.18274e-02	1.42647e-02	1.18748e-02	4.35937e-03	5.89889e-09	5.99575e-03	X	X	X	X	X	X	X	X	X	X	X	X	X	X	X	X	



#DISTANCE SETTINGS
A = Detector Channel
A-1	A-2	A-3	A-4	A-5	A-6	A-7	A-8	A-9	A-10	A-11	A-12	A-13	A-14	A-15	A-16	

2.5000e+00	3.0000e+00	2.5000e+00	3.0000e+00	2.0000e+00	3.0000e+00	1.5000e+00	3.0000e+00	3.0000e+00	3.0000e+00	3.0000e+00	3.0000e+00	3.0000e+00	3.0000e+00	1.5000e+00	3.0000e+00	

B = Detector Channel
B-1	B-2	B-3	B-4	B-5	B-6	B-7	B-8	B-9	B-10	B-11	B-12	B-13	B-14	B-15	B-16	

1.0000e+01	1.0000e+01	1.0000e+01	1.4400e+00	1.0000e+01	1.0000e+01	1.5100e+00	1.9400e+00	1.0000e+01	1.0000e+01	1.9900e+00	2.4900e+00	2.4100e+00	2.9000e+00	1.0000e+01	2.9800e+00	




#DATA BEGINS
time	group	step	mark	flag	A-AC1	A-AC2	A-AC3	A-AC4	A-AC5	A-AC6	A-AC7	A-AC8	A-AC9	A-AC10	A-AC11	A-AC12	A-AC13	A-AC14	A-AC15	A-AC16	A-DC1	A-DC2	A-DC3	A-DC4	A-DC5	A-DC6	A-DC7	A-DC8	A-DC9	A-DC10	A-DC11	A-DC12	A-DC13	A-DC14	A-DC15	A-DC16	A-Ph1	A-Ph2	A-Ph3	A-Ph4	A-Ph5	A-Ph6	A-Ph7	A-Ph8	A-Ph9	A-Ph10	A-Ph11	A-Ph12	A-Ph13	A-Ph14	A-Ph15	A-Ph16	B-AC1	B-AC2	B-AC3	B-AC4	B-AC5	B-AC6	B-AC7	B-AC8	B-AC9	B-AC10	B-AC11	B-AC12	B-AC13	B-AC14	B-AC15	B-AC16	B-DC1	B-DC2	B-DC3	B-DC4	B-DC5	B-DC6	B-DC7	B-DC8	B-DC9	B-DC10	B-DC11	B-DC12	B-DC13	B-DC14	B-DC15	B-DC16	B-Ph1	B-Ph2	B-Ph3	B-Ph4	B-Ph5	B-Ph6	B-Ph7	B-Ph8	B-Ph9	B-Ph10	B-Ph11	B-Ph12	B-Ph13	B-Ph14	B-Ph15	B-Ph16	aux-1	digaux	

7925.374	1	1	0	768	0.37394	0.16975	0.21482	0.19429	0.23331	0.082785	0.38708	0.082562	0.25016	0.14232	0.099366	0.040828	0.15912	0.15331	0.17878	0.20054	-2.9479	-3.1312	-3.3875	-3.4313	-3.1688	-3.475	-3.2292	-3.5458	-3.3021	-3.0125	-3.3646	-3.3271	-3.1021	-3.3896	-3.2188	-3.2375	34.519	90.008	-78.410	149.728	115.416	168.782	168.633	-94.748	140.709	137.388	40.074	-4.030	160.761	191.358	37.550	96.304	0.00076516	0.00065451	0.00018794	1353.3	1.1148e-05	3.1187e-06	1347	366.8	6.0675e-06	5.5468e-06	417.59	140.16	122.37	41.788	4.1579e-06	51.513	0.00056546	0.00053737	0.00015845	1389.4	6.2077e-06	5.7607e-06	1382.9	378.45	6.0811e-06	5.853e-06	431.01	145.09	124.78	42.729	6.6426e-06	54.057	7.318	-66.273	82.899	-151.143	6.723	-88.542	-151.624	-146.635	-60.167	-2.469	-147.617	-142.941	-142.651	-137.672	-113.774	-138.524	-8191	255	
7925.470	1	1	0	0	0.11396	0.14038	0.129	0.29478	0.13643	0.14501	0.16234	0.21557	0.13361	0.15105	0.10432	0.17578	0.34589	0.2237	0.11119	0.098076	-2.9083	-2.8479	-3.3	-3.3833	-3.2313	-3.5354	-3.3792	-3.4604	-3.5042	-3.075	-3.5896	-3.5042	-3.0896	-3.6542	-3.1417	-3.1292	18.844	64.932	144.060	182.071	44.074	81.564	171.051	-163.933	108.560	46.016	22.273	168.536	-155.464	132.051	-17.742	-57.351	0.00097457	0.00038105	0.0002527	1357.3	4.2769e-06	1.7527e-06	1356.4	368.56	2.8284e-06	5.7743e-06	419.38	140.32	122.05	41.78	3.4129e-06	51.654	0.00055569	0.00053839	0.00017302	1390	6.1704e-06	5.8821e-06	1393.2	378.53	6.0928e-06	6.0948e-06	435.81	144.98	124.97	43.129	7.1946e-06	53.978	12.952	-55.956	-128.564	-151.291	-43.969	-162.496	-151.689	-146.667	178.647	-118.414	-147.342	-142.838	-142.419	-137.720	-30.782	-138.351	-8191	255	
7925.566	1	1	0	0	0.12904	0.25859	0.24075	0.24108	0.05295	0.083454	0.24494	0.22587	0.18649	0.22693	0.31987	0.19217	0.2186	0.044947	0.091892	0.38302	-2.9208	-2.8729	-3.1188	-3.3583	-2.9604	-3.4354	-3.3271	-3.1583	-3.4229	-3.2167	-3.2854	-3.4917	-3.1208	-3.2833	-3.1917	-3.075	-155.186	-6.322	138.203	122.691	-141.976	-55.079	152.834	96.705	-94.382	63.584	131.471	131.392	108.964	-28.308	128.402	-164.615	0.00090651	0.00042404	0.00029527	1358.4	2.7582e-06	4.4232e-06	1358.8	367.75	8.6878e-06	4.8176e-06	419.8	140.43	121.99	41.89	7.1788e-06	51.564	0.00056339	0.00057837	0.00018578	1390.1	6.2584e-06	6.4419e-06	1402.3	378.83	6.1629e-06	6.6437e-06	438.45	144.84	124.96	43.585	7.3521e-06	53.856	-2.140	95.003	-108.525	-151.304	20.892	-145.303	-151.413	-146.641	-73.419	-137.583	-147.246	-142.959	-142.496	-137.902	-72.223	-138.752	-8191	255	
7925.662	1	1	0	0	0.10193	0.22235	0.17337	0.13009	0.16023	0.074951	0.39106	0.21218	0.32064	0.25889	0.0077673	0.081645	0.21445	0.19739	0.10211	0.20486	-3.075	-2.9104	-3.3354	-3.4292	-2.9146	-3.3792	-3.5604	-3.1583	-3.4958	-3.0875	-3.2792	-3.4271	-3.1125	-3.4958	-3.3604	-3.3083	119.180	97.928	-56.911	-149.121	129.000	-103.861	192.575	-163.226	-89.933	108.765	167.437	176.591	50.744	179.299	-32.410	123.755	0.0011939	0.00052189	0.00015661	1362.4	7.8023e-06	6.1545e-06	1355.2	368.9	3.3326e-06	6.3405e-06	421.55	140.52	121.84	41.696	8.8159e-06	51.481	0.00056186	0.00062815	0.00018664	1389.9	6.2038e-06	6.9319e-06	1400.4	377.96	6.0679e-06	7.0832e-06	436.33	144.12	124.95	43.883	7.0105e-06	53.695	-1.375	168.991	-10.297	-151.191	-90.109	-140.720	-151.508	-146.756	158.441	-103.042	-146.879	-142.928	-142.496	-137.925	-24.067	-138.552	-8191	255	
7925.758	1	1	0	0	0.15244	0.090546	0.10101	0.23949	0.074506	0.14256	0.23801	0.098782	0.37663	0.14212	0.13771	0.061441	0.38426	0.10426	0.089994	0.14371	-2.9771	-3.2917	-2.9979	-3.5042	-2.9792	-3.3	-3.2979	-3.1604	-3.4583	-3.1542	-3.3229	-3.5208	-3.1208	-3.3583	-3.2229	-3.0792	190.526	134.035	193.389	105.641	11.704	10.110	143.387	18.707	42.917	-56.013	-138.257	95.480	165.676	41.245	-70.776	157.438	0.00086437	0.00054714	0.00032748	1359.1	9.4362e-06	6.0001e-06	1357.9	367.49	4.1416e-06	4.525e-06	420.57	140.89	121.73	41.796	1.1357e-06	51.848	0.00056421	0.00066224	0.00017917	1385.7	6.2853e-06	7.3372e-06	1394.2	376.35	6.2365e-06	7.3399e-06	433.65	143.87	125.42	44.052	6.6282e-06	53.578	-0.533	-145.201	-56.898	-151.490	-102.333	-125.164	-151.463	-146.674	-135.475	7.239	-147.255	-142.921	-142.697	-137.711	105.059	-138.666	-8191	255	
7925.854	1	1	0	0	0.073012	0.054416	0.26643	0.20268	0.12356	0.35076	0.12725	0.29826	0.22062	0.18858	0.19902	0.14099	0.35115	0.090913	0.11957	0.27874	-3.0021	-3.1896	-3.0667	-3.5104	-2.8708	-3.2687	-3.4042	-3.0062	-3.2708	-3.1708	-3.1167	-3.4292	-3.0104	-3.3958	-3.3	-3.0792	-120.266	-84.378	-19.219	108.420	150.619	-121.187	60.704	157.377	32.930	139.009	143.924	-107.660	172.739	178.764	52.284	137.206	0.00088271	0.00057653	0.00011289	1360.9	8.6969e-06	3.2556e-06	1355.7	369.8	2.6559e-06	9.1122e-06	418.41	140.64	121.3	41.712	1.6602e-06	51.677	0.00059394	0.0006729	0.00016927	1384.7	6.6477e-06	7.3566e-06	1389.1	376.37	6.7479e-06	7.3454e-06	431.32	143.52	126.23	43.93	6.4781e-06	53.415	-24.743	-78.739	-89.392	-151.259	-101.800	-39.151	-151.632	-146.839	152.125	6.414	-147.160	-142.972	-142.475	-137.488	-9.974	-138.463	-8191	255	
7925.975	1	1	0	0	0.060133	0.13618	0.06639	0.27802	0.19696	0.24094	0.43388	0.45429	0.12401	0.11762	0.17207	0.32994	0.24663	0.065567	0.18966	0.17701	-2.9708	-3.2146	-2.9417	-3.5042	-3.0667	-3.1604	-3.5542	-3.0583	-3.2292	-3.275	-3.0667	-3.5438	-3.2833	-3.1917	-3.375	-3.075	165.617	35.339	-87.975	128.376	-2.116	109.471	145.486	145.729	50.676	-25.175	-79.464	144.071	120.756	-158.145	97.512	137.925	0.0013324	0.00072566	0.00012593	1356.1	9.5195e-06	4.1091e-06	1355.2	368.28	9.006e-06	9.152e-06	418.82	140.46	121.31	41.911	2.9174e-06	51.439	0.00063888	0.00065749	0.00016561	1380.7	7.1048e-06	7.1377e-06	1384.4	375.8	7.1948e-06	7.0366e-06	430.95	143.88	127.16	43.825	6.3433e-06	53.612	-11.901	-32.935	-82.325	-151.181	-161.142	25.442	-151.636	-146.701	-122.896	-29.450	-147.244	-143.200	-142.611	-137.816	1.864	-138.803	-8191	255	
7926.071	1	1	0	0	0.20964	0.17684	0.14746	0.082573	0.074672	0.085639	0.15752	0.30836	0.59588	0.10726	0.18168	0.14831	0.04997	0.32437	0.035014	0.010973	-2.875	-3.1625	-3.0604	-3.4125	-3.1104	-3.0396	-3.4583	-3.1104	-3.2708	-3.4062	-3.0062	-3.4333	-3.3458	-3.0687	-3.55	-2.9458	-137.370	97.392	33.561	141.832	-135.191	80.019	119.686	129.624	158.164	-50.727	109.624	177.605	-52.445	89.373	137.398	195.267	0.0010679	0.00034554	0.00028404	1361.4	2.9305e-06	3.0026e-06	1356.8	365.18	3.5508e-06	1.1415e-05	417.51	139.53	121.9	41.7	4.4168e-06	51.452	0.00067825	0.00062642	0.00016415	1385.1	7.4088e-06	6.8318e-06	1383.2	376.52	7.4549e-06	6.6938e-06	430.22	144.68	127.45	43.513	6.2409e-06	54.011	-13.570	-41.794	-66.305	-151.365	-63.054	-21.228	-151.617	-146.740	-121.755	-7.348	-147.049	-142.965	-142.415	-137.687	-34.235	-138.767	-8191	255	
7926.166	1	1	0	0	0.13679	0.25358	0.23598	0.11668	0.22913	0.24433	0.17115	0.13916	0.19012	0.20415	0.11463	0.22695	0.22454	0.13204	0.2749	0.15984	-3.1125	-3.35	-2.9875	-3.5979	-3.1417	-3.125	-3.4792	-3.0708	-3.1146	-3.5479	-2.9979	-3.5292	-3.125	-3.0542	-3.4167	-3.2167	144.554	114.493	-162.522	164.252	-60.727	45.351	153.147	33.147	127.357	-77.283	145.677	184.342	152.137	188.486	24.395	-6.500	0.00091252	0.00068483	0.00018429	1357.2	6.3512e-06	3.5133e-06	1354	366.83	2.1028e-06	7.8049e-06	418.6	140.29	121.81	41.694	4.3494e-07	51.371	0.00068204	0.00060548	0.00016214	1391.2	7.3795e-06	6.6937e-06	1382.5	379.63	7.4045e-06	6.5862e-06	429.39	145.85	126.8	43.411	6.2417e-06	54.447	5.614	-51.952	-141.685	-151.431	61.955	111.550	-151.527	-146.787	-11.006	2.090	-147.240	-143.188	-142.703	-137.594	4.717	-138.694	-8191	255	
7926.263	1	1	0	0	0.13929	0.12637	0.13604	0.17865	0.13636	0.2248	0.047077	0.20866	0.11472	0.16831	0.11233	0.22248	0.22573	0.093784	0.19273	0.34497	-2.8271	-3.4271	-2.9708	-3.4833	-3.225	-3.125	-3.575	-3.2646	-2.9958	-3.4562	-3.2396	-3.5	-3.2375	-3.1396	-3.4688	-3.2542	-81.262	187.756	-71.671	139.839	-74.768	4.814	83.038	84.397	52.099	180.565	173.331	175.659	-115.276	25.441	4.897	179.190	0.00090156	0.0003291	9.0204e-05	1356.9	1.2658e-05	9.4695e-06	1356	367.23	9.1596e-06	3.8489e-06	416.82	139.98	121.36	41.668	4.4387e-06	51.317	0.00066405	0.00059612	0.00016407	1397.6	7.1247e-06	6.644e-06	1383.9	382.23	7.1112e-06	6.4673e-06	430.95	146.91	126.11	43.333	6.5493e-06	54.695	20.156	-99.528	-144.738	-151.289	-15.474	38.018	-151.659	-146.910	-40.095	-76.334	-147.286	-143.102	-142.263	-137.907	178.764	-138.377	-8191	255	
7926.358	1	1	0	0	0.14772	0.20517	0.099869	0.17616	0.23221	0.17182	0.17623	0.22373	0.21416	0.22145	0.18107	0.046276	0.15098	0.15049	0.28062	0.22072	-2.5271	-3.2979	-3.0104	-3.3937	-3.2438	-2.8833	-3.5208	-3.3063	-3	-3.3271	-3.2896	-3.2479	-3.3688	-2.9271	-3.3396	-3.2	-76.084	66.000	-55.590	-125.264	65.048	-73.719	141.021	34.795	62.996	114.181	149.976	-98.578	165.333	-114.783	-157.625	89.894	0.00081905	0.00074962	0.00023506	1357.4	8.2804e-06	2.4733e-06	1359.1	367.92	2.9627e-06	8.1991e-06	418.25	140.17	121.43	41.648	6.3229e-06	51.419	0.000638	0.00058727	0.00017258	1403	6.8539e-06	6.5323e-06	1392.4	383.5	6.8575e-06	6.3498e-06	434.47	146.87	125.67	43.17	6.9896e-06	54.533	10.930	-32.276	64.053	-151.271	-34.423	-79.079	-151.512	-146.778	-57.227	-36.663	-147.494	-142.993	-142.473	-137.638	-96.745	-138.541	-8191	255	
7926.454	1	1	0	0	0.12732	0.09825	0.025035	0.28738	0.10511	0.098652	0.097987	0.27765	0.20027	0.21643	0.11808	0.24778	0.18832	0.081375	0.039256	0.092969	-2.6542	-3.4417	-3.0021	-3.4708	-3.2542	-3.0167	-3.3396	-3.2938	-3.125	-3.4083	-3.0625	-3.2313	-3.4646	-3.0333	-3.1375	-3.4333	-114.809	-87.444	-147.197	146.076	30.845	-164.736	166.696	-152.421	60.875	76.679	184.270	-128.719	-137.874	-144.857	-84.478	129.470	0.00088639	0.00033926	0.00014563	1357.8	5.8432e-06	7.4178e-06	1357.2	365.79	1.275e-05	3.4215e-06	418.04	140.33	121.59	41.869	2.3578e-06	51.372	0.00061409	0.00056934	0.00018306	1398.8	6.5342e-06	6.3556e-06	1398.3	380.27	6.605e-06	6.2293e-06	436.81	145.77	125.05	43.265	7.3087e-06	54.123	11.148	145.294	145.501	-151.287	-14.932	15.581	-151.546	-146.758	-52.169	8.545	-147.324	-143.053	-142.356	-137.706	131.726	-138.664	-8191	255	
7926.575	1	1	0	0	0.085671	0.26636	0.38137	0.16609	0.11157	0.14361	0.29763	0.10863	0.23697	0.13781	0.12371	0.22155	0.17392	0.10995	0.1679	0.20137	-2.6562	-3.3771	-3.1208	-3.475	-3.2938	-2.9771	-3.4062	-3.475	-2.9562	-3.2146	-3.2708	-3.1188	-3.4917	-2.9875	-3.3396	-3.3604	-33.620	-135.473	48.427	159.261	188.877	40.889	120.573	118.219	78.642	184.559	-122.064	-153.832	-130.524	-58.723	154.964	-147.259	0.00093968	0.00026541	0.00016358	1357.3	6.7977e-06	1.9786e-06	1358.9	366.15	4.0481e-06	5.0868e-06	415.79	139.96	121.43	41.665	2.6198e-06	51.518	0.00059607	0.00057535	0.00018954	1392.9	6.283e-06	6.512e-06	1404.3	378.23	6.4215e-06	6.4953e-06	437.81	145.07	124.72	43.381	7.4193e-06	53.724	-11.368	-6.219	-97.510	-151.379	-60.545	-163.258	-151.374	-146.744	-108.247	179.800	-147.026	-143.161	-142.262	-137.751	-73.412	-138.809	-8191	255	
7926.671	1	1	0	0	0.074224	0.055812	0.30532	0.25421	0.17793	0.17925	0.20946	0.2076	0.19348	0.10739	0.28044	0.053431	0.11448	0.25389	0.13055	0.2172	-2.5042	-3.3583	-3.0521	-3.0521	-3.5083	-2.9292	-3.4667	-3.4896	-3.0479	-3.2792	-3.1437	-3.0542	-3.5125	-3.0396	-3.1625	-3.4229	-164.593	-149.554	127.280	168.993	88.992	82.611	128.475	143.762	56.150	-35.845	-163.972	165.071	-159.419	-163.984	-142.334	-79.580	0.00073536	0.00057809	0.00033579	1356.2	2.0933e-06	4.829e-06	1350.7	365.53	5.0276e-06	6.8424e-06	417.81	140.43	121.56	41.703	6.904e-06	51.491	0.00057835	0.00060884	0.00018744	1388.1	6.1254e-06	6.8289e-06	1397	376.05	6.1931e-06	6.8174e-06	435.25	144.18	124.19	43.682	7.1113e-06	53.433	-4.236	152.281	-96.808	-151.386	19.131	-124.993	-151.663	-146.783	-77.935	-155.884	-147.347	-143.273	-142.385	-137.951	-20.432	-138.475	-8191	255	
7926.767	1	1	0	0	0.29669	0.22869	0.16283	0.14009	0.043451	0.21636	0.22121	0.092525	0.13592	0.24413	0.078485	0.2389	0.2079	0.31478	0.1555	0.17999	-2.5708	-3.0854	-3.2271	-3.0604	-3.3042	-3.1271	-3.3708	-3.4646	-3.0042	-3.3563	-3.3375	-3.0771	-3.4479	-3.1729	-3.1354	-3.4979	87.588	-70.978	177.500	127.650	192.796	-2.215	135.287	82.061	157.559	68.600	84.141	-113.783	154.602	167.852	101.041	-117.535	0.0010367	0.00069586	0.00017073	1353.8	1.2667e-05	7.9364e-06	1351.3	367.54	9.0612e-06	6.5737e-06	416.12	140.34	121.29	41.8	3.634e-06	51.375	0.00056443	0.0006375	0.00017686	1381.6	6.0258e-06	7.112e-06	1391.9	374.94	6.1885e-06	7.1464e-06	431.77	143.7	124.25	43.846	6.7448e-06	53.107	-0.765	113.448	-46.208	-151.240	-107.101	193.328	-151.459	-146.838	-85.093	-60.944	-147.005	-142.816	-142.719	-137.830	-7.977	-138.483	-8191	255	
7926.863	1	1	0	0	0.07412	0.15744	0.18772	0.24122	0.10056	0.25191	0.10284	0.096941	0.32677	0.29715	0.2392	0.26969	0.18808	0.25558	0.093919	0.1013	-2.5604	-3.0896	-3.1479	-3.0896	-3.4021	-3.175	-3.4062	-3.5521	-3.0083	-3.1979	-3.35	-3.2167	-3.4646	-3.0875	-2.95	-3.6125	144.138	-80.773	-142.183	134.303	-69.379	-125.277	103.152	176.016	-127.152	42.297	-126.963	145.246	117.147	-157.518	-31.338	143.724	0.0010367	0.00024494	0.00047016	1347.8	1.0094e-05	2.1121e-06	1351.6	364.91	3.8147e-06	3.8135e-06	417.25	139.8	120.62	41.681	6.1458e-06	51.444	0.00057834	0.00066223	0.000166	1374.4	6.2159e-06	7.0975e-06	1381.6	372.42	6.4116e-06	7.1649e-06	428.67	142.99	124.92	43.762	6.4838e-06	53.094	-18.976	-50.330	-98.192	-151.340	-136.139	54.921	-151.532	-146.593	-147.109	-35.945	-147.322	-142.936	-142.457	-137.418	50.965	-138.833	-8191	255	
7926.935	1	1	0	0	0.079409	0.082184	0.069539	0.1216	0.16337	0.10076	0.18652	0.060226	0.038317	0.16399	0.10914	0.092243	0.10175	0.39193	0.072586	0.11716	-2.5417	-3.0646	-3.2375	-3.2646	-3.3063	-3.1625	-3.2438	-3.6083	-3.0229	-3.15	-3.4958	-3.2479	-3.6042	-3.4813	-2.9896	-3.6167	145.892	-69.678	17.858	169.601	37.349	-53.118	193.581	-21.649	-131.122	-89.236	191.164	86.394	134.883	-155.762	-44.007	78.393	0.0012102	0.00021549	0.00028684	1350.2	4.9402e-06	9.4566e-06	1348.3	366.45	4.4647e-06	7.4435e-06	417.84	139.95	121.4	41.81	6.3574e-06	51.609	0.000618	0.0006612	0.00016326	1377.3	6.81e-06	7.1261e-06	1382	373.53	7.0005e-06	7.0681e-06	429.03	143.17	126.22	43.678	6.3687e-06	53.253	-6.265	-97.483	-97.008	-151.236	-142.976	-6.682	-151.428	-146.749	-152.957	-9.171	-147.171	-142.916	-142.527	-137.529	-14.807	-138.685	-8191	255	
7927.055	1	1	0	0	0.33014	0.10527	0.10547	0.26958	0.1772	0.29858	0.31333	0.20768	0.073417	0.23833	0.1169	0.013157	0.081312	0.20166	0.054645	0.34793	-2.5375	-3.1833	-3.0729	-3.1271	-3.2583	-3.4646	-3.1542	-3.5229	-3.2375	-3.0938	-3.4854	-3.0625	-3.2354	-3.425	-2.8979	-3.4313	90.188	-97.091	-123.449	-114.031	-41.468	-12.969	137.279	-109.900	-160.438	-33.633	-139.985	-91.919	-88.492	-152.055	119.546	125.874	0.0010441	0.0002686	0.00015106	1354.1	3.1836e-06	7.7212e-06	1353.4	367.69	3.9259e-06	5.2733e-06	419.14	139.67	121.57	41.578	5.4914e-06	51.297	0.00065681	0.00063368	0.00016008	1379.3	7.2689e-06	6.8208e-06	1383.2	375	7.3519e-06	6.8473e-06	428.74	144.1	126.99	43.38	6.303e-06	53.553	-13.913	-21.979	-78.970	-151.542	44.825	18.718	-151.605	-146.932	-15.059	26.063	-147.157	-143.206	-142.654	-137.802	-8.976	-138.770	-8191	255	
7927.152	1	1	0	0	0.085643	0.084075	0.3035	0.1087	0.044625	0.12767	0.16321	0.24017	0.25197	0.15807	0.1015	0.020066	0.17602	0.025536	0.24818	0.076098	-2.8937	-2.9229	-3.3458	-3.15	-3.4292	-3.4375	-2.9708	-3.3042	-3.1667	-3.2313	-3.5771	-3.1375	-3.4542	-3.4104	-3.0438	-3.5812	88.787	-96.589	77.670	-126.221	-28.602	-89.508	48.126	155.525	-110.800	60.365	138.594	29.621	145.950	-13.065	163.796	171.088	0.00090752	0.0011271	9.5021e-05	1354.2	1.4109e-06	3.5175e-06	1356.5	366.92	8.2454e-06	1.9343e-06	419.03	139.58	121.38	41.864	4.032e-06	51.62	0.00067239	0.00061085	0.00015572	1386.4	7.3513e-06	6.532e-06	1380.9	377.6	7.2822e-06	6.5954e-06	427.55	145.26	126.65	43.368	6.2399e-06	54.154	-3.819	-54.386	-85.072	-151.488	-84.605	-5.470	-151.612	-146.767	11.818	-49.575	-147.275	-143.211	-142.462	-137.843	-74.633	-138.477	-8191	255	
7927.246	1	1	0	0	0.1713	0.10796	0.28624	0.1825	0.30548	0.2678	0.61588	0.075748	0.34661	0.19102	0.049868	0.14592	0.13711	0.24145	0.15962	0.029258	-2.9167	-2.9729	-3.5042	-3.2292	-3.1917	-3.4729	-3.225	-3.4417	-3.1917	-2.9167	-3.6146	-3.0833	-3.2021	-3.4104	-2.8937	-3.2271	104.427	154.888	-86.057	171.959	-47.033	125.957	109.369	-92.005	-35.226	-101.407	185.326	-102.343	-6.286	-83.714	-59.756	77.595	0.00091808	0.00079825	0.00014267	1357.1	1.104e-05	4.9509e-06	1352.5	366.86	1.128e-05	5.4076e-06	417.25	140.07	121.55	41.725	2.2372e-06	51.59	0.00065496	0.0005942	0.00015508	1393.6	7.0979e-06	6.3454e-06	1382.2	380.12	6.9453e-06	6.4155e-06	427.67	146.06	126.23	43.137	6.3482e-06	54.578	15.386	-105.102	-135.193	-151.381	37.795	-9.603	-151.582	-146.727	-58.165	-24.051	-147.171	-142.797	-142.407	-137.772	-70.079	-138.523	-8191	255	
7927.344	1	1	0	0	0.18154	0.11823	0.11251	0.48721	0.17509	0.26766	0.20866	0.16453	0.18322	0.1166	0.072415	0.15192	0.25654	0.13256	0.19426	0.17604	-2.9458	-2.9813	-3.125	-3.3583	-3.2292	-3.3812	-3.0521	-3.3708	-3.3396	-3.0583	-3.5229	-3.25	-3.2729	-3.6542	-3.0979	-3.3375	21.076	-130.094	-155.291	168.565	188.345	-103.396	187.487	107.074	69.571	158.998	10.848	-75.712	187.325	-159.391	68.176	66.209	0.00072575	0.00064045	5.8333e-05	1354.5	1.2588e-05	5.9007e-06	1352.1	366.83	6.8812e-06	6.9695e-06	418.1	140.3	121.5	41.759	4.1284e-06	51.425	0.00062639	0.00058874	0.00016255	1400.4	6.8905e-06	6.3187e-06	1387.9	382.16	6.6961e-06	6.3935e-06	431.29	146.84	125.99	43.15	6.8197e-06	54.721	14.779	9.422	48.502	-151.316	-23.008	-36.553	-151.503	-146.814	7.703	9.939	-147.121	-142.978	-142.492	-137.916	-136.075	-138.513	-8191	255	
7927.463	1	1	0	0	0.06565	0.4932	0.18116	0.022797	0.14878	0.17878	0.4374	0.12505	0.11117	0.26462	0.056889	0.2067	0.084912	0.21778	0.096036	0.075359	-2.9479	-2.9521	-3.3271	-3.2625	-3.05	-3.3646	-3.0833	-3.3875	-3.6646	-2.9708	-3.5271	-3.1792	-3.2313	-3.3917	-3.3146	-3.175	-45.320	12.644	16.447	-59.692	55.843	122.007	171.266	73.807	192.427	114.500	193.747	100.574	-122.038	-150.773	-97.720	92.202	0.00078547	0.0010399	0.00022444	1357	5.9335e-06	6.0145e-06	1354.5	367.06	9.3135e-06	7.5827e-06	416.37	139.77	121.45	41.619	3.2382e-06	51.563	0.00060724	0.00058049	0.00017451	1396.7	6.6334e-06	6.1478e-06	1393.3	381.06	6.4405e-06	6.2563e-06	434.69	145.73	125.37	43.004	7.217e-06	54.313	5.612	-85.256	145.175	-151.401	-21.764	-51.255	-151.675	-146.774	-64.327	-58.595	-147.360	-142.853	-142.595	-137.829	100.189	-138.790	-8191	255	
7927.534	1	1	0	0	0.14202	0.34614	0.10264	0.14407	0.15629	0.19455	0.14894	0.21781	0.20271	0.16196	0.23463	0.075271	0.35593	0.28173	0.19251	0.25862	-2.9396	-2.8271	-3.2979	-3.5125	-2.9375	-3.5667	-3.3208	-3.375	-3.3875	-2.9188	-3.4417	-3.325	-3.0646	-3.4833	-3.2958	-3.1833	108.849	161.311	-60.524	125.430	153.828	-74.907	73.634	-160.307	-139.682	61.080	-59.400	135.058	-139.497	-158.416	115.464	150.248	0.0011605	0.00034758	0.00031059	1357	3.4971e-06	3.2661e-06	1354.9	367.21	7.064e-06	4.223e-06	418.07	140.5	121.55	41.587	4.7089e-06	51.846	0.00058795	0.00058079	0.00018669	1394.5	6.504e-06	6.2977e-06	1400.8	379.24	6.3576e-06	6.4998e-06	437.54	145.28	125.14	43.295	7.4687e-06	54.029	6.226	-65.801	182.047	-151.251	-76.230	65.737	-151.492	-146.751	-22.966	-106.648	-147.257	-143.115	-142.384	-137.591	-82.034	-138.403	-8191	255	
7927.655	1	1	0	0	0.12522	0.16431	0.1191	0.10924	0.08315	0.23334	0.1726	0.2344	0.067146	0.079704	0.22609	0.17313	0.19817	0.15047	0.19367	0.079175	-2.9729	-3.0438	-3.2458	-3.4854	-2.9792	-3.2958	-3.4521	-3.05	-3.5312	-2.9208	-3.3646	-3.4396	-2.9458	-3.3271	-3.1583	-3.2042	44.270	95.521	-154.488	-103.581	-72.035	124.032	153.577	153.765	-88.641	146.455	-113.510	67.877	151.428	147.534	177.834	112.657	0.00091831	0.00022069	0.00016631	1353.8	2.6532e-06	6.8626e-06	1351.3	367.72	2.4941e-06	2.3573e-06	419.06	140.01	121.76	41.93	1.1665e-05	51.581	0.00057403	0.00060559	0.00019081	1388.2	6.3677e-06	6.7071e-06	1402.9	378.31	6.2624e-06	6.9465e-06	438.58	144.65	124.94	43.658	7.407e-06	53.893	-9.310	194.203	-119.336	-151.368	135.032	-115.587	-151.614	-146.679	-54.377	176.035	-147.391	-142.994	-142.503	-137.851	-9.372	-138.470	-8191	255	
7927.751	1	1	0	0	0.20318	0.18716	0.19976	0.20559	0.095192	0.18649	0.34171	0.16037	0.21588	0.3509	0.41759	0.049769	0.19857	0.31776	0.1672	0.285	-3.0625	-3.1312	-3.2042	-3.575	-2.8875	-3.3438	-3.3625	-3.1813	-3.4396	-3.1188	-3.2	-3.5854	-3.2792	-3.4333	-3.2083	-3.3187	9.665	-120.052	-153.781	157.123	39.463	-135.717	125.243	-120.502	73.620	53.066	161.888	-100.305	171.494	159.371	54.682	158.603	0.00095873	0.00026966	0.00014226	1354.4	4.1832e-06	4.5536e-06	1354.2	367.33	4.8891e-06	7.8841e-06	418.7	139.88	121.4	41.855	8.5366e-06	51.899	0.0005705	0.00065354	0.00018702	1384.9	6.3215e-06	7.199e-06	1398	377.9	6.2371e-06	7.3377e-06	435.9	144.12	125.09	44.101	6.993e-06	53.796	7.645	128.940	-30.176	-151.318	-124.092	-120.668	-151.529	-146.774	168.199	-163.820	-146.972	-143.034	-142.522	-138.018	27.254	-138.326	-8191	255	
7927.847	1	1	0	0	0.22786	0.038209	0.18874	0.19543	0.19708	0.20287	0.35618	0.15217	0.005234	0.042389	0.07992	0.17318	0.20041	0.11734	0.1863	0.15314	-3.0771	-3.0583	-3.1729	-3.5896	-3.0208	-3.3896	-3.4521	-3.0958	-3.3479	-3.2375	-3.3146	-3.3458	-3.1667	-3.4646	-3.3063	-2.9917	122.308	17.081	-81.291	158.645	71.242	21.358	168.226	117.363	-146.525	152.910	-10.093	82.906	-149.182	103.118	92.010	73.336	0.0010866	0.00032191	0.00015237	1357.3	1.608e-06	3.3808e-06	1354.2	365.84	5.2221e-06	4.0166e-06	418.71	140.05	121.32	41.754	3.7043e-06	51.341	0.00058146	0.00067838	0.00017784	1384.1	6.4741e-06	7.4683e-06	1391.6	376.35	6.4847e-06	7.4843e-06	433.61	143.35	125.5	44.029	6.6575e-06	53.388	-9.988	172.821	-9.207	-151.325	-138.486	-87.872	-151.687	-146.662	-101.754	28.064	-147.381	-143.208	-142.630	-137.650	-88.401	-138.634	-8191	255	
7927.943	1	1	0	0	0.17511	0.047992	0.12181	0.49749	0.22791	0.060664	0.10844	0.38202	0.11649	0.19611	0.095528	0.027236	0.13906	0.080927	0.15552	0.25964	-2.9875	-3.1604	-3.1	-3.5312	-3.1771	-3.2938	-3.5479	-3.1792	-3.3937	-3.15	-3.1958	-3.4583	-3.325	-3.4292	-3.4417	-3.0583	168.609	-111.789	106.846	186.683	22.127	194.222	165.108	130.801	158.456	-2.029	94.637	-52.728	109.494	-23.986	63.271	115.369	0.0013056	0.00025784	0.0003311	1350.4	1.565e-05	2.8475e-06	1351.8	366.73	7.7047e-06	3.7079e-06	419.61	139.84	120.97	41.752	8.9032e-06	51.484	0.00061364	0.00067743	0.00017013	1377.9	6.8286e-06	7.341e-06	1386.4	375.3	6.9345e-06	7.2577e-06	430.66	143.32	126.43	43.895	6.4662e-06	53.406	-9.537	-47.023	-128.471	-151.268	-120.651	-4.585	-151.496	-146.682	-156.794	-9.653	-147.346	-143.002	-142.274	-137.740	-11.694	-138.550	-8191	255	
7928.064	1	1	0	0	0.12089	0.22717	0.17343	0.30307	0.16272	0.12443	0.19895	0.22452	0.086376	0.059877	0.18349	0.099204	0.31776	0.17932	0.34567	0.15172	-2.925	-3.0958	-2.825	-3.4729	-3.0792	-3.0312	-3.6208	-3.2208	-3.3542	-3.3646	-3.0292	-3.6167	-3.2021	-3.0938	-3.2896	-3.0146	-162.199	-116.899	-55.085	181.921	-56.528	122.459	138.306	181.069	79.820	164.441	125.006	9.507	177.056	-160.065	7.450	138.153	0.0011446	0.0010101	0.00017977	1355.8	4.5511e-06	8.8233e-06	1351.6	367.14	2.5827e-06	3.2219e-06	418.46	139.78	122.06	41.817	7.0099e-06	51.717	0.00065652	0.00065089	0.00016717	1382.6	7.2993e-06	7.1103e-06	1383.3	376.01	7.3472e-06	6.9431e-06	430.57	143.77	127.35	43.641	6.3338e-06	53.791	-6.360	-3.435	-123.266	-151.182	172.128	1.324	-151.646	-146.688	164.213	-62.778	-147.304	-143.029	-142.570	-137.666	-28.440	-138.872	-8191	255	
7928.159	1	1	0	0	0.095807	0.14038	0.25856	0.12694	0.47622	0.22571	0.15235	0.27377	0.07915	0.061238	0.18439	0.072823	0.039491	0.072885	0.054297	0.15224	-2.8542	-3.2521	-3.025	-3.6	-3.2042	-3.0708	-3.6917	-3.0229	-3.1667	-3.3896	-3.0521	-3.5208	-3.2479	-3.2896	-3.4333	-2.9771	44.794	82.115	153.041	183.816	159.162	85.796	100.185	-164.342	51.867	65.851	77.897	168.631	117.965	74.443	146.082	137.394	0.0012008	0.00041426	0.00019778	1355.8	4.2406e-06	5.793e-06	1354.4	366.19	9.3981e-06	4.8695e-06	416.76	139.28	122.21	41.89	2.3969e-06	51.518	0.00069003	0.00062754	0.00016485	1386.9	7.59e-06	6.8941e-06	1384.6	378.47	7.5717e-06	6.7409e-06	430.13	145.11	127.53	43.548	6.3339e-06	54.255	-2.209	-31.072	-128.457	-151.394	-26.957	12.805	-151.781	-146.828	-49.687	20.406	-147.278	-143.103	-142.291	-137.924	55.137	-138.720	-8191	255	
7928.232	1	1	0	0	0.10894	0.29632	0.19041	0.16157	0.094596	0.15149	0.074461	0.086739	0.28756	0.35481	0.17315	0.19779	0.12398	0.38056	0.2506	0.036999	-2.8479	-3.3125	-2.9896	-3.5458	-3.1917	-3.2271	-3.5271	-3.2812	-3.2625	-3.4271	-3.2229	-3.5	-3.4583	-3.1146	-3.5104	-3.2354	-72.641	43.253	175.960	76.720	-49.032	-38.418	106.314	144.031	-20.745	-106.039	146.096	141.860	-103.252	176.927	-82.590	180.073	0.0010339	0.00097046	6.6602e-05	1356.9	9.3072e-06	4.0953e-06	1350.8	365.37	3.175e-06	2.9296e-06	416.84	139.89	121.63	41.738	4.8295e-06	51.383	0.00068552	0.00060526	0.00016375	1395.3	7.3932e-06	6.704e-06	1382.5	380.73	7.367e-06	6.5986e-06	429.55	146.34	126.59	43.449	6.338e-06	54.602	10.481	-66.514	50.203	-151.358	-2.643	18.398	-151.510	-146.790	50.668	46.352	-147.108	-143.225	-142.571	-137.778	-37.724	-138.554	-8191	255	
7928.351	1	1	0	0	0.02278	0.12963	0.27685	0.22202	0.11104	0.13461	0.2208	0.17786	0.26002	0.22436	0.040996	0.121	0.21233	0.12725	0.18045	0.13228	-2.6063	-3.1813	-2.9104	-3.4604	-3.3271	-3.1583	-3.6063	-3.225	-2.9875	-3.3625	-3.2062	-3.3937	-3.2583	-3.1917	-3.3042	-3.2438	-63.777	-106.708	70.047	129.578	43.445	11.604	116.672	-144.194	82.446	103.127	-2.202	169.615	148.515	-108.747	-62.155	172.772	0.0007129	0.00064121	8.1231e-05	1356.8	1.174e-05	4.1465e-06	1356.5	368.4	2.848e-06	5.7723e-06	417.49	139.99	121.35	41.658	1.0802e-05	51.653	0.00065861	0.00059004	0.00016534	1400.7	6.9511e-06	6.5619e-06	1386.6	382.71	6.9446e-06	6.3387e-06	431.17	146.65	125.66	43.154	6.6391e-06	54.801	2.977	-31.593	-125.026	-151.348	0.393	-17.330	-151.673	-146.721	-94.146	-37.511	-147.165	-142.906	-142.509	-137.565	170.604	-138.646	-8191	255	
7928.447	1	1	0	0	0.11331	0.032786	0.15249	0.17692	0.1378	0.14285	0.40731	0.29078	0.25728	0.21526	0.11152	0.11221	0.36505	0.08341	0.0067876	0.11297	-2.6979	-3.4396	-3.0646	-3.5167	-3.3208	-2.8854	-3.3875	-3.3438	-3.0667	-3.5083	-3.3688	-3.2146	-3.3937	-3.0854	-3.4771	-3.25	-34.872	-163.324	-15.816	126.481	-13.997	178.196	134.653	-148.353	192.577	109.368	143.788	120.889	150.166	-47.587	136.401	-91.622	0.0010848	0.00066642	6.6941e-05	1359.7	7.3511e-06	1.0545e-05	1357.9	366.1	6.548e-06	6.3454e-06	417.59	140.56	121.63	41.473	2.8686e-06	51.487	0.00062487	0.00057573	0.00017549	1401.4	6.7121e-06	6.5015e-06	1395.3	382.08	6.8462e-06	6.3307e-06	436.07	147.05	125.68	43.244	7.2827e-06	54.653	7.274	-17.420	95.087	-151.182	-50.544	24.147	-151.811	-146.776	-24.483	-67.415	-147.154	-143.077	-142.583	-137.897	-130.435	-138.730	-8191	255	
7928.543	1	1	0	0	0.26755	0.095314	0.26545	0.38602	0.22548	0.032601	0.18911	0.32183	0.29	0.13392	0.077505	0.061095	0.20505	0.1429	0.13543	0.1137	-2.6063	-3.2458	-3.0667	-3.4437	-3.2042	-2.8854	-3.4417	-3.2125	-3.0604	-3.5042	-3.2458	-3.4042	-3.3688	-3.1813	-3.2604	-3.3229	149.270	42.716	103.380	150.450	-51.896	186.815	-13.613	90.716	-7.085	-93.859	0.249	-60.850	78.949	79.133	19.714	32.336	0.00081182	0.00031671	0.00013119	1357	3.4267e-06	2.1854e-06	1356.2	366.22	8.182e-06	4.3843e-06	417.62	139.88	121.19	41.727	4.7323e-06	51.39	0.00062119	0.00058023	0.00018977	1398.6	6.6316e-06	6.5297e-06	1402.3	380.88	6.7358e-06	6.4549e-06	438.66	146.13	125.07	43.36	7.6237e-06	54.254	16.342	-43.058	122.079	-151.295	59.412	-16.334	-151.641	-146.797	-15.450	-1.003	-147.487	-142.904	-142.312	-137.881	-158.307	-138.264	-8191	255	
7928.639	1	1	0	0	0.29597	0.20074	0.15131	0.32465	0.20313	0.13909	0.17502	0.26599	0.1292	0.11965	0.17553	0.30397	0.3347	0.15479	0.1288	0.046389	-2.65	-3.3292	-3.275	-3.1312	-3.4313	-2.9313	-3.5083	-3.3479	-2.8792	-3.4479	-3.2458	-3.2833	-3.5146	-3.2167	-3.2687	-3.2083	-118.145	172.161	3.663	121.072	169.584	131.134	107.736	168.468	-80.711	28.382	130.359	-111.520	124.317	-100.467	-123.714	122.438	0.0010609	0.00033229	0.00035248	1352.5	2.5329e-06	5.5631e-06	1357.6	367.93	7.0802e-06	3.8743e-06	418.21	139.98	120.99	41.89	8.7679e-06	51.335	0.00060079	0.00060073	0.00019577	1392.8	6.4109e-06	6.7879e-06	1404.8	378.94	6.5456e-06	6.8187e-06	438.98	145.18	124.69	43.667	7.608e-06	53.86	2.430	110.746	-145.606	-151.471	-33.840	-104.071	-151.624	-146.637	-34.767	-148.561	-147.253	-143.013	-142.647	-137.888	6.926	-138.714	-8191	255	
7928.760	1	1	0	0	0.18598	0.15222	0.1533	0.12409	0.081103	0.015479	0.41332	0.28068	0.14167	0.12018	0.059096	0.26319	0.045535	0.19167	0.067905	0.38773	-2.7812	-3.4396	-3.2188	-3.2625	-3.4188	-3.1958	-3.3729	-3.4667	-2.9875	-3.3146	-3.3729	-3.1271	-3.6312	-3.1937	-3.2792	-3.5604	-23.286	-146.698	184.664	145.217	-153.376	158.043	155.531	122.882	84.255	68.762	40.607	132.744	-125.624	107.759	158.140	188.615	0.0010781	0.00086256	0.00022039	1352.9	7.7209e-06	4.7759e-06	1354.2	366.31	5.1545e-06	4.3776e-06	418.54	139.85	121.33	41.847	4.1911e-06	51.33	0.00059607	0.00064445	0.00019239	1387.7	6.3199e-06	7.2923e-06	1401.5	377.02	6.4763e-06	7.3063e-06	437.01	144.74	124.79	44.016	7.3727e-06	53.66	-4.711	149.616	-103.617	-151.375	-64.813	-35.689	-151.599	-146.803	49.639	-131.891	-147.228	-143.025	-142.534	-137.689	-17.364	-138.425	-8191	255	
7928.832	1	1	0	0	0.17944	0.10441	0.12524	0.25317	0.033054	0.12253	0.45254	0.20065	0.16714	0.41667	0.16505	0.19116	0.056001	0.27591	0.037475	0.25504	-2.7333	-3.3563	-3.3312	-3.2354	-3.3958	-3.1937	-3.325	-3.3917	-2.9604	-3.3146	-3.2958	-3.075	-3.4771	-3.1229	-3.2125	-3.5938	-157.276	30.984	84.811	193.934	-8.390	161.670	141.533	115.860	154.356	122.809	191.296	-122.080	147.369	-140.300	128.120	118.951	0.0010355	0.00039906	0.00032068	1354.3	3.9284e-06	3.0999e-06	1353.3	365.52	1.2642e-05	1.6716e-06	416.92	139.46	121.23	41.673	1.2308e-05	51.473	0.00059496	0.00068502	0.00018463	1385.6	6.4253e-06	7.6131e-06	1395.3	375.76	6.6416e-06	7.6796e-06	434.18	144.29	125.36	44.168	7.0823e-06	53.511	-11.163	157.000	-48.678	-151.372	144.952	20.715	-151.507	-146.978	-152.583	179.242	-147.203	-142.814	-142.586	-137.580	-18.488	-138.595	-8191	255	
7928.928	1	1	0	0	0.21281	0.02457	0.23481	0.21767	0.16259	0.20818	0.31368	0.19764	0.19571	0.090191	0.10618	0.099197	0.28907	0.16134	0.16628	0.22772	-2.7146	-3.2375	-3.2729	-3.1125	-3.5312	-3.0667	-3.4833	-3.6042	-3.125	-3.3854	-3.5625	-2.9604	-3.3729	-3.375	-3.1396	-3.5167	-101.269	1.589	158.784	137.587	165.858	94.517	86.406	175.673	32.221	-159.626	173.780	167.698	134.012	164.509	160.816	1.249	0.00097352	0.00052347	0.00029766	1355.7	8.7023e-06	5.1192e-06	1352.4	367.25	1.107e-05	2.2157e-06	417.25	139.86	121.09	41.646	5.0844e-06	51.372	0.00062808	0.00070685	0.00017695	1384.5	6.8781e-06	7.7372e-06	1392.2	375.26	7.0889e-06	7.6811e-06	432.32	144.1	126.39	44.043	6.919e-06	53.466	-27.555	-29.878	-21.578	-151.304	-142.497	76.050	-151.522	-146.948	-136.345	-37.033	-147.160	-142.915	-142.582	-137.588	-91.458	-138.879	-8191	255	
7929.024	1	1	0	0	0.10726	0.20185	0.099565	0.21972	0.16867	0.14754	0.13804	0.12978	0.10624	0.1039	0.10411	0.44596	0.037879	0.29046	0.056897	0.19863	-2.85	-3.2354	-3.4167	-3.3438	-3.4854	-3.3646	-3.2479	-3.5271	-3.2146	-3.1854	-3.5125	-3.2208	-3.4729	-3.3958	-3.0312	-3.6146	43.320	-143.452	-71.708	-89.669	-3.712	-51.545	93.783	133.816	31.997	181.300	101.695	104.056	11.220	-72.028	-83.840	-150.937	0.0010876	0.0008253	0.00020124	1353.3	4.1933e-06	6.699e-06	1352.8	366.67	7.9681e-06	4.159e-06	417	139.3	121.35	41.768	4.6166e-07	51.295	0.00067252	0.00069234	0.00017176	1383.8	7.4143e-06	7.4316e-06	1390.1	375.9	7.5518e-06	7.4251e-06	431.24	144.3	127.49	43.867	6.7918e-06	53.69	-5.540	-105.426	-117.371	-151.238	193.056	34.883	-151.441	-146.869	151.224	-18.958	-147.141	-143.307	-142.592	-137.585	168.711	-139.049	-8191	255	
7929.143	1	1	0	0	0.051721	0.23775	0.047532	0.17021	0.12791	0.14076	0.25003	0.14893	0.10553	0.1644	0.14129	0.02967	0.12007	0.29467	0.085385	0.10174	-2.8542	-3.1354	-3.2438	-3.1813	-3.1875	-3.3729	-2.9813	-3.5583	-3.0979	-3.1833	-3.6937	-3.1958	-3.4062	-3.4229	-2.9354	-3.4437	65.474	88.482	82.142	140.158	-28.801	153.961	-125.169	175.004	164.423	-152.127	-30.619	127.219	-115.487	139.983	-115.147	193.112	0.00087875	0.00068232	0.00038462	1350.1	2.7014e-06	5.8641e-06	1347.5	365.88	7.9212e-06	4.8286e-06	416.97	139.8	120.7	41.669	6.9541e-06	51.29	0.00070729	0.00066798	0.00016856	1386.9	7.7428e-06	7.1472e-06	1386.1	377.44	7.7726e-06	7.1052e-06	429.82	145.09	127.43	43.57	6.6304e-06	54.082	-15.216	-43.497	-73.958	-151.346	139.475	1.742	-151.603	-146.734	-45.051	17.709	-147.348	-143.171	-142.501	-137.715	-63.597	-138.403	-8191	255	
7929.239	1	1	0	0	0.24236	0.14068	0.13365	0.14104	0.15107	0.17713	0.40161	0.15113	0.16077	0.15566	0.14011	0.21731	0.26665	0.11432	0.16368	0.051546	-2.9354	-2.9479	-3.4396	-3.275	-3.3896	-3.3	-3.1583	-3.3542	-3.1417	-3.0917	-3.4604	-3.2042	-3.1875	-3.5187	-3.0229	-3.4208	140.405	-144.063	-142.611	-126.900	-76.162	31.945	110.112	152.388	111.129	-33.025	80.494	-163.243	-156.707	-15.231	185.483	18.157	0.00070541	0.00023726	7.9007e-05	1354.8	7.1148e-06	3.6733e-06	1347.4	366.19	6.7162e-06	1.862e-06	417.35	139.89	121.52	41.38	1.668e-06	51.485	0.00070771	0.00063959	0.00016408	1392.3	7.7101e-06	6.822e-06	1383.9	379.98	7.55e-06	6.9153e-06	428.92	146.41	127.11	43.321	6.5949e-06	54.633	-5.098	44.667	180.861	-151.305	-97.560	-4.819	-151.493	-146.763	-10.272	45.487	-147.357	-143.315	-142.293	-137.632	-124.360	-138.598	-8191	255	
7929.337	1	1	0	0	0.1388	0.40469	0.12219	0.2018	0.10949	0.11183	0.23478	0.22062	0.15574	0.17616	0.19028	0.12655	0.11088	0.29506	0.25875	0.21465	-2.8229	-2.9229	-3.3979	-3.3583	-3.1937	-3.4938	-3.3458	-3.3604	-3.2938	-2.9688	-3.4333	-3.2208	-3.2188	-3.4667	-2.9625	-3.4042	163.174	12.915	-91.133	165.645	-37.158	-14.012	-93.184	118.961	5.219	-31.943	94.159	79.507	-109.336	178.058	4.496	120.469	0.00092443	0.00071716	7.3782e-05	1350.6	7.6251e-06	9.4699e-06	1355.3	365.92	1.2244e-05	5.7766e-07	416.13	139.82	120.61	41.729	2.3774e-06	51.552	0.00068111	0.00062568	0.00016523	1397.5	7.404e-06	6.664e-06	1386.9	382.51	7.2086e-06	6.7777e-06	430.25	147.16	126.16	43.262	6.822e-06	54.887	-5.005	-70.826	52.788	-151.379	-31.609	4.716	-151.650	-146.805	-8.639	78.979	-147.114	-142.811	-142.425	-137.769	20.503	-138.538	-8191	255	
7929.431	1	1	0	0	0.10617	0.072	0.057068	0.26419	0.20708	0.1585	0.10787	0.24381	0.094032	0.11145	0.034052	0.31475	0.21124	0.26139	0.2415	0.24591	-2.7229	-2.8271	-3.2917	-3.3542	-3.1979	-3.4625	-3.2771	-3.4375	-3.3021	-3.0333	-3.4625	-3.0229	-3.0583	-3.3833	-3.1667	-3.3438	-111.808	-43.843	-97.925	138.235	133.429	185.347	87.488	-115.022	-135.221	166.392	31.734	-163.134	-122.374	71.629	-15.625	-154.899	0.00091707	0.00078161	0.00021768	1351.4	1.1235e-05	1.2794e-05	1347.5	365.04	4.2966e-06	1.6563e-06	418.63	139.66	121.02	41.487	1.3017e-05	51.206	0.00064937	0.00061522	0.00017435	1399.7	7.1172e-06	6.5665e-06	1390.5	382.52	6.9449e-06	6.6554e-06	434.37	147.02	125.98	43.119	7.3464e-06	54.681	25.681	-61.929	107.489	-151.365	18.514	28.163	-151.597	-146.792	-28.263	164.425	-147.362	-143.123	-142.127	-137.634	-151.060	-138.729	-8191	255	
7929.527	1	1	0	0	0.099999	0.29944	0.13199	0.089744	0.17528	0.19506	0.30127	0.09113	0.11345	0.1369	0.085334	0.30869	0.1785	0.17176	0.10082	0.10379	-2.8812	-3.0167	-3.2604	-3.3563	-2.9562	-3.475	-3.2917	-3.3292	-3.2292	-3.0354	-3.5521	-3.4979	-3.2479	-3.55	-3.0854	-3.2812	-75.054	-81.206	-63.928	117.661	39.985	-50.138	137.165	148.389	14.418	-99.495	149.639	160.713	128.401	177.725	11.626	-1.120	0.00084362	0.00031507	7.8672e-05	1349.6	7.9539e-06	6.2167e-06	1350.1	365.43	1.2163e-05	1.988e-06	415.63	139.49	120.79	41.369	1.9948e-06	51.148	0.00062917	0.00060747	0.00018774	1395.9	6.9693e-06	6.4714e-06	1397.7	381.58	6.7893e-06	6.6781e-06	436.92	145.99	125.54	43.103	7.7542e-06	54.391	-6.384	-145.738	168.869	-151.115	17.674	-17.017	-151.561	-146.652	-33.402	14.006	-147.103	-142.882	-142.271	-137.814	-111.735	-138.621	-8191	255	
7929.623	1	1	0	0	0.19389	0.25754	0.32053	0.18425	0.13574	0.1476	0.10174	0.21202	0.086821	0.18206	0.11931	0.20211	0.38068	0.32422	0.37161	0.17136	-2.9646	-3.0312	-3.3688	-3.6063	-3.025	-3.4083	-3.3729	-3.1792	-3.5917	-3.0125	-3.4854	-3.2958	-3.0625	-3.4625	-3.1312	-3.1396	-85.544	6.830	-71.267	145.906	165.500	-145.186	-90.162	145.236	6.536	76.727	90.881	170.224	132.708	185.082	76.364	114.649	0.0010278	0.00067117	0.00020117	1347.8	5.1285e-06	4.7303e-06	1351	364.06	2.27e-06	6.6852e-06	416.47	139.58	120.94	41.58	5.3431e-06	51.137	0.00061659	0.00061814	0.00020006	1388.5	6.8501e-06	6.7596e-06	1402.2	379.54	6.6382e-06	6.9684e-06	439.94	145.14	125.12	43.447	7.8954e-06	53.96	-0.656	146.512	37.760	-151.312	-19.041	-146.642	-151.469	-146.639	-30.206	-115.808	-147.494	-142.980	-142.598	-137.924	59.082	-138.477	-8191	255	
7929.744	1	1	0	0	0.22348	0.095063	0.040066	0.29171	0.16877	0.040595	0.03473	0.088652	0.19517	0.045861	0.098154	0.11888	0.30285	0.34511	0.1144	0.064815	-3.0604	-3.0479	-3.1729	-3.3646	-3.1042	-3.3646	-3.3042	-3.0458	-3.4271	-3.2021	-3.3979	-3.4562	-3.1	-3.5021	-3.1833	-3.4437	-105.486	116.936	167.215	159.987	-21.890	-39.953	170.616	110.281	-151.120	180.035	-70.950	151.038	167.627	69.541	36.906	63.233	0.00093449	0.00047753	0.000221	1349.3	9.0907e-07	3.6019e-06	1348.1	364.59	3.8839e-06	4.6209e-06	415.51	139.29	121.15	41.476	6.586e-06	51.146	0.0005997	0.00064882	0.00020001	1382.1	6.6423e-06	7.1395e-06	1400	378.01	6.4664e-06	7.3717e-06	437.65	144.45	124.95	43.792	7.6043e-06	53.867	6.344	161.271	-86.125	-151.289	-155.455	-115.382	-151.506	-146.486	124.104	-158.472	-146.938	-142.929	-142.563	-137.833	-46.348	-138.688	-8191	255	
7929.840	1	1	0	0	0.20884	0.12523	0.10452	0.33574	0.11159	0.17568	0.16881	0.4292	0.19602	0.17929	0.13447	0.14625	0.22416	0.19184	0.057383	0.1523	-2.9437	-2.9813	-3.2542	-3.5854	-3.1167	-3.3187	-3.2	-3.0354	-3.4479	-3.1667	-3.3521	-3.5729	-3.0312	-3.4125	-3.3625	-3.1562	10.566	-112.946	-36.526	194.193	109.501	61.761	147.475	141.756	-156.822	128.890	75.431	96.472	-161.046	49.456	190.795	29.446	0.00094171	0.00040082	0.00026187	1344.8	4.1598e-06	7.5672e-06	1348.3	365.89	1.1474e-05	3.5382e-06	418.25	139.27	120.89	41.681	8.5669e-06	51.209	0.0005931	0.00069093	0.00019248	1381.9	6.6061e-06	7.5892e-06	1394.2	377.16	6.5302e-06	7.7344e-06	436.31	144.1	125.23	44.177	7.2581e-06	53.761	-10.351	149.637	-77.146	-151.311	-48.695	-149.970	-151.692	-146.909	-118.368	-114.556	-147.208	-142.934	-142.682	-137.775	-4.643	-138.505	-8191	255	
7929.936	1	1	0	0	0.039553	0.10506	0.1235	0.13644	0.20538	0.2535	0.058155	0.26329	0.15803	0.30169	0.23186	0.088433	0.062737	0.065566	0.077302	0.16395	-2.9292	-3.0146	-2.9208	-3.5708	-2.8042	-3.3063	-3.5354	-3.0062	-3.5563	-3.1646	-3.1708	-3.6562	-3.0521	-3.1917	-3.0979	-3.2938	-72.778	-138.486	-12.490	158.793	-132.267	165.872	-134.876	159.662	37.743	-86.031	127.444	26.298	-150.759	108.943	-89.924	167.138	0.0011168	0.00017815	0.00020867	1347.1	3.9297e-06	2.2315e-06	1350.6	366.37	5.6135e-06	1.011e-06	416.41	139.44	120.93	41.685	4.3332e-06	51.255	0.00061587	0.00071718	0.00018497	1380.4	6.9098e-06	7.89e-06	1391.3	377.1	6.9621e-06	7.8178e-06	433.07	143.69	125.98	44.173	6.8904e-06	53.575	-16.654	-76.870	-84.619	-151.325	-154.193	179.315	-151.703	-146.761	172.834	40.679	-147.231	-143.118	-142.679	-137.583	14.959	-138.678	-8191	255	
7930.057	1	1	0	0	0.085682	0.10009	0.35161	0.44564	0.25495	0.041176	0.2724	0.13021	0.3249	0.053121	0.1735	0.1352	0.1799	0.22726	0.19181	0.25668	-2.8458	-3.2125	-2.9208	-3.5604	-3.2	-3.2271	-3.4604	-3.0917	-3.4667	-3.1625	-3.1917	-3.4896	-3.2604	-3.3229	-3.5042	-3.1708	-157.888	161.693	-151.259	174.707	-72.757	-36.410	118.746	-88.773	19.732	-66.869	-134.659	57.838	38.959	-120.955	98.617	-137.639	0.0012916	0.00039913	0.00039354	1352.9	9.6391e-06	4.527e-06	1349.9	365.39	8.6481e-06	4.6212e-06	416.39	139.36	120.69	41.67	3.8837e-06	51.187	0.00065732	0.00070888	0.00017886	1379.9	7.4355e-06	7.7564e-06	1386.9	376.45	7.5022e-06	7.6211e-06	432.71	143.78	126.99	44.035	6.7667e-06	53.668	-13.084	-59.204	-45.679	-151.272	-123.508	57.571	-151.542	-146.904	-144.514	-26.632	-147.238	-143.056	-142.596	-137.689	-77.838	-138.664	-8191	255	
7930.129	1	1	0	0	0.045893	0.088398	0.10244	0.3051	0.15499	0.25496	0.16459	0.052573	0.050204	0.17947	0.066883	0.061232	0.18858	0.23719	0.15142	0.10464	-3.0771	-3.2812	-2.9792	-3.5687	-3.2354	-3.0563	-3.6	-2.9437	-3.3063	-3.2458	-3.0062	-3.3688	-3.1917	-2.95	-3.4167	-3.0958	96.510	-11.248	-50.736	-154.590	-105.584	-72.200	141.693	-136.619	-104.943	-54.915	48.452	-39.991	144.891	85.824	-60.197	-0.342	0.0011992	0.00072575	0.00020116	1350.3	3.4828e-06	7.9877e-06	1346.7	365.84	8.6876e-06	9.1236e-06	416.61	139.35	120.59	41.648	2.8117e-06	51.407	0.00070456	0.00067706	0.00017559	1381.9	7.7822e-06	7.4392e-06	1383.5	377.07	7.802e-06	7.21e-06	431.36	144.41	127.34	43.668	6.5091e-06	53.896	-16.843	-38.793	-49.347	-151.407	-58.945	25.917	-151.447	-146.803	168.771	-5.146	-147.275	-142.963	-142.307	-137.396	-67.521	-138.729	-8191	255	
7930.223	1	1	0	0	0.10735	0.15719	0.063374	0.36384	0.018355	0.096492	0.37736	0.16256	0.34119	0.059806	0.36448	0.30844	0.15189	0.10099	0.15692	0.1435	-2.75	-3.075	-2.7188	-3.4562	-3.2021	-3.0333	-3.5167	-2.9896	-3.3271	-3.2938	-3.0604	-3.4167	-3.2271	-3.1625	-3.4646	-3.1417	-51.666	174.294	75.288	-163.945	189.804	130.751	118.456	91.560	-113.340	-130.538	155.251	186.239	96.812	172.961	71.040	24.949	0.0012207	0.0004685	0.00019906	1349.6	6.4584e-06	8.5091e-06	1351.4	365.22	8.1419e-06	3.0315e-06	416.89	139.76	120.66	41.62	7.6917e-06	51.365	0.00070783	0.00063193	0.00016746	1384.3	7.6475e-06	6.9371e-06	1379	378.34	7.6623e-06	6.7725e-06	428.83	145.62	126.83	43.39	6.389e-06	54.314	-8.254	-78.058	-57.546	-151.485	25.119	-15.388	-151.601	-146.847	-5.067	21.453	-147.200	-143.039	-142.238	-137.697	-88.953	-138.521	-8191	255	
7930.319	1	1	0	0	0.10064	0.15974	0.11879	0.10151	0.1692	0.21329	0.058923	0.26113	0.082482	0.11564	0.093184	0.20399	0.10248	0.19011	0.094795	0.21222	-2.7938	-3.3521	-3.0062	-3.475	-3.1542	-2.9562	-3.6042	-3.1875	-3.2708	-3.4917	-3.0875	-3.3792	-3.4042	-3.1813	-3.5312	-3.2396	116.610	-84.731	-73.814	110.842	-162.568	176.635	156.380	148.469	-123.110	125.973	-135.671	-44.437	-160.144	183.146	-71.386	122.800	0.00069073	0.00038805	0.00027368	1349	1.3272e-05	2.7654e-06	1348.8	366.02	3.0948e-06	5.5704e-06	415.87	139.57	121.62	41.722	5.6314e-06	51.491	0.0006899	0.00061579	0.00016702	1392.6	7.4014e-06	6.8617e-06	1379.4	381.29	7.4171e-06	6.6118e-06	430.04	146.48	126.3	43.347	6.4874e-06	54.685	-2.158	-134.805	-80.216	-151.330	-26.144	-52.283	-151.649	-146.809	-35.843	-31.418	-147.359	-142.893	-142.305	-137.859	-122.800	-138.788	-8191	255	
7930.440	1	1	0	0	0.091562	0.14386	0.039939	0.12014	0.05632	0.15331	0.072627	0.14931	0.10837	0.074734	0.23876	0.022147	0.043569	0.094937	0.17117	0.081663	-2.7396	-3.2667	-3.0042	-3.4021	-3.225	-3.0729	-3.4125	-3.1354	-3.0687	-3.4458	-3.3292	-3.2833	-3.3292	-3.0625	-3.3021	-3.2771	-3.114	-143.634	-70.059	192.126	31.187	-71.733	-48.960	122.230	-31.883	-118.909	-18.378	-99.148	181.228	-156.253	28.027	44.966	0.00084618	0.0003423	0.00015614	1351.2	3.6557e-06	7.3136e-06	1351.3	366.96	3.7019e-06	1.4397e-06	416.8	139.59	120.69	41.571	1.094e-05	51.338	0.00066034	0.00059608	0.00017057	1396.8	6.9843e-06	6.6441e-06	1384.5	381.86	6.9847e-06	6.4009e-06	432.07	146.59	125.2	43.11	6.896e-06	54.665	10.085	-57.515	173.287	-151.464	-21.504	0.125	-151.747	-146.731	17.399	163.754	-147.360	-142.886	-142.542	-137.705	171.888	-138.665	-8191	255	
7930.536	1	1	0	0	0.098519	0.25625	0.11425	0.32013	0.094163	0.14136	0.058326	0.29718	0.22221	0.094731	0.12403	0.097141	0.19072	0.027782	0.13754	0.24893	-2.6354	-3.2313	-2.9771	-3.4125	-3.3333	-3.0708	-3.4437	-3.3688	-3.0604	-3.6021	-3.1771	-3.4104	-3.4854	-3.1063	-3.4729	-3.2125	-125.570	4.139	-29.121	147.361	-95.125	142.858	-39.025	-141.579	188.502	134.671	100.229	165.754	157.554	58.945	-10.509	-149.010	0.0010752	0.00027177	0.00024886	1347.9	6.4608e-06	1.132e-06	1349.2	365.63	6.0716e-06	4.4307e-06	417.16	139.38	120.72	41.731	6.6676e-06	51.434	0.00063185	0.00058119	0.00018048	1394.2	6.7067e-06	6.5029e-06	1391.9	381.14	6.8162e-06	6.3529e-06	435.41	146.15	124.87	43.13	7.3682e-06	54.339	12.532	-61.233	129.359	-151.223	47.629	51.660	-151.714	-146.843	-11.540	-37.421	-147.424	-143.069	-142.242	-137.764	-123.744	-138.410	-8191	255	
7930.632	1	1	0	0	0.20306	0.081209	0.14364	0.29082	0.20954	0.0073656	0.15496	0.36471	0.19402	0.18518	0.26661	0.18094	0.062411	0.10204	0.18565	0.18291	-2.5979	-3.3438	-3.1562	-3.3021	-3.2438	-3.0271	-3.5583	-3.3146	-2.9396	-3.3438	-3.3688	-3.0146	-3.5625	-2.9771	-3.275	-3.4104	-49.170	-90.768	149.094	-124.630	104.521	79.807	-44.736	120.943	156.109	89.300	161.651	127.115	-74.849	-67.935	42.390	110.262	0.00081936	8.7125e-05	0.00028164	1349	3.7394e-06	6.4574e-06	1354.9	365.98	7.5219e-06	5.5849e-06	416.64	139.35	120.85	41.711	6.058e-06	51.437	0.0006135	0.00058015	0.00019101	1389.7	6.4925e-06	6.5144e-06	1397.5	378.52	6.6364e-06	6.485e-06	437.85	145.13	124.4	43.31	7.6517e-06	53.903	13.037	-89.489	156.937	-151.160	-19.452	-68.637	-151.876	-146.826	-95.403	-114.043	-147.001	-143.034	-142.628	-137.915	65.785	-138.595	-8191	255	
7930.704	1	1	0	0	0.086157	0.12952	0.18433	0.10447	0.20751	0.09124	0.14518	0.078258	0.15594	0.28595	0.075655	0.30063	0.14504	0.18848	0.10215	0.14996	-2.6083	-3.3542	-3.0708	-3.1917	-3.3729	-2.8521	-3.3271	-3.3146	-2.8937	-3.4625	-3.25	-3.1813	-3.5333	-3.0792	-3.1271	-3.3688	144.132	9.288	96.011	136.420	-63.456	118.987	129.411	46.599	135.470	-75.762	143.054	118.349	188.431	48.006	-79.847	122.839	0.00084013	0.00070325	0.00011736	1346.9	1.1234e-05	1.9803e-06	1347.1	364.37	7.3862e-07	3.8012e-06	418.13	140.29	120.99	41.555	5.2216e-06	51.384	0.00060248	0.00060995	0.00019518	1385.4	6.3482e-06	6.8573e-06	1397.3	376.37	6.4809e-06	6.8883e-06	437.03	144.59	124.19	43.64	7.5536e-06	53.569	16.880	-139.957	-117.010	-151.215	-9.010	-69.431	-151.571	-146.749	75.308	-89.304	-147.289	-143.257	-142.542	-138.031	-34.447	-138.776	-8191	255	
7930.824	1	1	0	0	0.29866	0.096772	0.11014	0.1644	0.39596	0.23575	0.2193	0.19208	0.10157	0.16085	0.087368	0.17564	0.22496	0.37888	0.059981	0.29917	-2.7104	-3.4062	-2.9896	-3.2062	-3.4083	-3.1	-3.4292	-3.5104	-2.9917	-3.2333	-3.325	-2.9875	-3.3979	-2.9667	-3.0917	-3.4688	38.335	132.673	-38.071	73.408	-96.472	164.768	155.791	60.041	15.337	17.647	148.962	143.369	-103.449	96.371	86.623	-70.983	0.0010469	0.00039139	0.00026832	1351.3	3.8242e-06	1.1545e-06	1350.3	365.19	7.4283e-06	4.9065e-06	415.24	139.58	120.97	41.529	4.2558e-06	51.218	0.0005909	0.00064951	0.00018848	1382.5	6.2253e-06	7.2837e-06	1393.2	375.39	6.4213e-06	7.3524e-06	433.6	144.07	124.21	43.941	7.2532e-06	53.456	0.068	103.801	-25.700	-151.302	15.918	-38.423	-151.702	-146.758	-65.688	109.941	-147.145	-143.028	-142.315	-137.487	-3.956	-138.237	-8191	255	
7930.921	1	1	0	0	0.33685	0.042764	0.30245	0.25785	0.126	0.11129	0.078284	0.12275	0.17008	0.021578	0.058469	0.10748	0.21748	0.17951	0.021667	0.19974	-2.5875	-3.2917	-3.1792	-3.0896	-3.1479	-2.9813	-3.1125	-3.5042	-2.9188	-3.2521	-3.4208	-2.9896	-3.3125	-3.1542	-3.0083	-3.2833	111.230	178.285	190.362	111.877	-147.368	-89.265	-112.338	94.949	123.529	61.110	144.575	59.213	132.492	183.713	90.172	166.379	0.0011406	0.00042597	0.00011076	1345.2	7.462e-06	5.8064e-06	1352.5	364.67	2.4602e-06	5.6504e-06	416	139.16	121.23	41.578	4.7625e-06	51.351	0.00059965	0.00068997	0.00018017	1379.9	6.4642e-06	7.6166e-06	1391.4	374.94	6.7081e-06	7.6832e-06	432.59	143.82	125.24	44.048	6.934e-06	53.328	-7.290	-63.760	-29.081	-151.302	-147.683	-48.260	-151.532	-146.766	120.680	-71.118	-147.115	-143.019	-142.310	-137.872	-67.875	-138.514	-8191	255	
7931.017	1	1	0	0	0.18867	0.12041	0.02557	0.26625	0.13007	0.24559	0.28914	0.3579	0.27209	0.1646	0.38076	0.20072	0.076215	0.13111	0.089698	0.18118	-2.8	-3.2313	-3.3292	-2.8937	-3.4333	-3.2417	-3.2042	-3.3771	-3.05	-3.1417	-3.4271	-3.1479	-3.4292	-3.2	-3.0292	-3.3583	92.624	27.159	-51.612	170.456	-157.972	37.762	69.284	177.589	86.773	91.213	159.746	-29.856	162.368	80.574	-75.387	-43.968	0.00098693	0.00018324	0.00029853	1349	6.6231e-06	1.0065e-05	1348.4	366.29	9.6521e-06	5.5128e-06	414.19	139.66	121.08	41.655	6.0754e-06	51.363	0.0006343	0.00069678	0.00017303	1378.5	6.9266e-06	7.5679e-06	1386.8	374.52	7.158e-06	7.5529e-06	430.38	143.57	126.21	43.851	6.8081e-06	53.197	-6.357	-105.013	-101.034	-151.341	-145.253	12.649	-151.448	-146.607	193.433	-18.486	-147.115	-143.008	-142.511	-137.695	-39.922	-138.820	-8191	255	
7931.136	1	1	0	0	0.32977	0.13051	0.076704	0.35582	0.12847	0.063174	0.17351	0.094971	0.14198	0.1802	0.30514	0.35189	0.20172	0.42652	0.07666	0.31571	-2.45	-3.0417	-3.3646	-3.2917	-3.3	-3.1333	-3.3312	-3.6375	-3.1562	-3.175	-3.6229	-3.1125	-3.3854	-3.3396	-3.0729	-3.3333	19.687	147.892	-15.252	151.532	-96.019	90.551	155.930	144.119	100.729	138.442	51.946	190.401	-157.155	-152.040	79.789	115.316	0.00098805	0.00040007	0.00025638	1346.2	1.7503e-06	5.0247e-06	1350.2	366.11	1.0268e-05	5.6219e-06	417.55	140.01	120.52	41.603	7.3153e-06	51.338	0.0006745	0.00067642	0.0001675	1377.5	7.3795e-06	7.1857e-06	1383.7	374.8	7.464e-06	7.1786e-06	428.9	143.83	126.69	43.537	6.5738e-06	53.437	-3.562	-58.905	-124.576	-151.497	174.038	-83.111	-151.520	-147.131	-148.569	-30.872	-147.510	-142.925	-142.798	-137.446	-90.166	-138.609	-8191	255	
7931.232	1	1	0	0	0.22803	0.1695	0.21331	0.23621	0.28062	0.10959	0.20901	0.053777	0.12417	0.10822	0.10478	0.022516	0.11213	0.16227	0.18721	0.086303	-2.7208	-2.9479	-3.4062	-3.0458	-3.2396	-3.2167	-3.0271	-3.2438	-3.2	-2.9938	-3.5583	-2.9042	-3.3563	-3.3375	-3.0271	-3.7062	61.618	-127.826	119.720	135.032	155.239	-7.361	141.544	75.971	-11.684	-74.474	121.454	-122.954	-133.572	115.532	146.506	84.781	0.00083948	0.00043655	0.00014649	1343.6	6.1672e-06	5.2535e-06	1342.6	365.87	5.411e-06	3.4408e-06	416.87	139.64	120.97	41.736	1.3387e-06	51.244	0.00069603	0.00064166	0.00016337	1379.2	7.5936e-06	6.8817e-06	1380.3	376.64	7.6405e-06	6.9277e-06	428.19	145	127.22	43.42	6.5009e-06	54.032	-11.871	-31.209	40.926	-151.248	-31.305	15.581	-151.611	-146.948	-130.723	-38.209	-147.086	-142.957	-142.607	-137.673	-134.025	-138.592	-8191	255	
7931.328	1	1	0	0	0.19044	0.049729	0.24587	0.39909	0.14922	0.076752	0.097525	0.16881	0.13413	0.13818	0.19922	0.18258	0.16143	0.046791	0.079624	0.16629	-2.7208	-2.8417	-3.3104	-3.225	-3.2146	-3.2938	-3.1271	-3.3354	-3.2167	-3.0875	-3.4521	-3.2562	-3.2979	-3.3771	-3.0917	-3.5	-109.078	77.801	64.430	152.555	-112.833	158.434	-155.439	-132.222	139.786	59.362	179.862	-157.589	-127.465	172.700	-83.851	157.811	0.00073677	0.00079746	0.00014856	1343.8	2.8284e-06	3.6933e-06	1344.8	365.62	8.8727e-06	5.7433e-06	416.36	139.07	121	41.563	7.5123e-06	51.247	0.00068891	0.00062652	0.00016098	1388.2	7.505e-06	6.6437e-06	1379.1	379.41	7.376e-06	6.7828e-06	427.78	145.83	126.4	43.197	6.4923e-06	54.359	10.791	-80.005	183.279	-151.444	-50.319	-111.903	-151.756	-146.795	-36.122	33.693	-147.247	-143.258	-142.432	-137.756	-125.130	-138.737	-8191	255	
7931.424	1	1	0	0	0.14279	0.14403	0.24246	0.19905	0.23964	0.12793	0.35493	0.14347	0.17219	0.29917	0.37188	0.15944	0.056288	0.10578	0.16613	0.15843	-2.6896	-3.0583	-3.4062	-3.3604	-3.1354	-3.4062	-3.0917	-3.525	-3.4125	-2.8479	-3.375	-3.1667	-3.0938	-3.3729	-2.9667	-3.3187	27.687	-138.934	-17.963	-114.487	60.026	153.274	79.247	183.358	60.624	85.917	140.034	152.570	174.221	103.625	132.260	-143.329	0.0006137	0.0005201	0.00013026	1346.1	5.3023e-06	9.9449e-06	1345.1	365.26	7.8517e-06	1.2954e-06	414.84	139.25	120.63	41.681	1.014e-05	51.387	0.00065951	0.00060866	0.00016315	1392.9	7.1689e-06	6.4753e-06	1381.5	381.22	6.9831e-06	6.5872e-06	429.39	146.69	125.74	43.109	6.7618e-06	54.664	12.725	66.477	84.957	-151.513	-35.275	14.954	-151.553	-146.827	-29.767	14.790	-147.111	-143.011	-142.345	-137.632	-88.293	-138.593	-8191	255	
7931.520	1	1	0	0	0.13368	0.36218	0.32024	0.24563	0.27312	0.20701	0.12822	0.094112	0.087849	0.11189	0.11501	0.20744	0.037194	0.3077	0.21278	0.16103	-2.9875	-2.8333	-3.3875	-3.2667	-3.0667	-3.3958	-3.2604	-3.3312	-3.3333	-3.0375	-3.3917	-3.3896	-3.1771	-3.55	-3.0125	-3.3854	119.281	-94.072	-127.099	-143.463	-78.468	40.068	-102.103	-83.948	-154.027	161.742	88.675	-141.504	82.976	89.628	-75.081	28.912	0.00093945	0.00036772	0.00027875	1344.5	6.6907e-06	2.9891e-06	1346.8	366.93	4.0554e-06	1.2848e-06	417.57	139.52	121.44	41.548	9.5676e-06	51.134	0.00062384	0.00059905	0.00017242	1393.6	6.8789e-06	6.3162e-06	1389.1	381.84	6.6898e-06	6.4921e-06	433.41	146.3	125.27	43.008	7.2474e-06	54.442	17.116	-105.915	133.317	-151.272	25.440	124.124	-151.567	-146.959	-3.462	-118.727	-147.503	-142.880	-142.398	-137.623	-123.307	-138.757	-8191	255	
7931.616	1	1	0	0	0.27567	0.097651	0.14076	0.23386	0.16257	0.11564	0.21339	0.16945	0.1707	0.24172	0.034568	0.23927	0.022154	0.048513	0.12453	0.24903	-2.8563	-2.8979	-3.25	-3.2667	-3.0354	-3.3396	-3.2292	-3.325	-3.2396	-2.8667	-3.3	-3.3583	-3.2104	-3.5458	-3.0292	-3.0854	38.947	-1.979	15.310	-104.299	-77.476	20.839	192.221	38.799	185.642	21.007	-160.642	-70.099	162.290	172.334	-53.063	185.494	0.00089042	0.00069725	0.00032989	1346.7	8.7089e-06	5.3287e-06	1349.5	366.38	5.0349e-06	1.6867e-06	415.53	139.18	121.16	41.568	9.9573e-06	51.202	0.0006049	0.00058851	0.00018408	1388.8	6.6899e-06	6.2539e-06	1394.5	379.99	6.5081e-06	6.4722e-06	435.54	145.3	124.83	43.092	7.5195e-06	54.111	2.932	-96.289	137.717	-151.329	6.758	-57.672	-151.636	-146.635	-116.500	-16.576	-147.396	-142.827	-142.568	-137.820	-147.056	-138.533	-8191	255	
7931.737	1	1	0	0	0.12	0.13351	0.13634	0.40142	0.055967	0.034919	0.10438	0.16639	0.10145	0.1661	0.25975	0.27022	0.40222	0.25822	0.13927	0.11197	-2.8979	-2.8917	-3.2708	-3.4479	-2.9958	-3.3542	-3.4417	-3.1646	-3.5062	-3.1479	-3.4875	-3.2438	-3.0438	-3.3167	-3.1104	-3.3	-70.438	192.703	-62.292	152.101	157.970	105.171	99.395	165.092	100.567	184.478	189.219	142.419	174.413	-127.787	159.986	-86.256	0.0009902	0.00033795	6.8105e-05	1348.7	9.127e-06	2.439e-06	1351.6	364.91	1.1361e-05	4.3337e-06	416.82	140.11	120.61	41.637	4.814e-06	51.317	0.00058636	0.00060329	0.00019309	1385.6	6.5246e-06	6.5748e-06	1399.3	377.77	6.3308e-06	6.7946e-06	437.41	144.6	124.44	43.413	7.5728e-06	53.881	6.410	83.274	-155.485	-151.201	-29.633	-149.978	-151.372	-146.766	-87.658	129.032	-147.052	-143.089	-142.510	-137.690	-44.039	-138.417	-8191	255	
7931.833	1	1	0	0	0.058725	0.087932	0.27793	0.26411	0.39395	0.30929	0.25395	0.14674	0.29226	0.15756	0.19038	0.13913	0.26667	0.15241	0.10817	0.11846	-3.2062	-3.0396	-3.2729	-3.5812	-3.0917	-3.3563	-3.1104	-3.0708	-3.3812	-2.9604	-3.4146	-3.2646	-3.0917	-3.3333	-3.2271	-3.1479	184.929	142.767	9.092	132.550	-111.498	-121.838	175.475	84.019	3.970	-101.945	2.730	-159.820	190.358	-41.705	165.894	15.006	0.00089562	0.00032843	0.00017497	1345.4	9.3348e-06	7.976e-06	1347	364.38	5.2042e-06	7.5106e-07	416.22	139.05	120.98	41.582	2.6876e-06	51.41	0.00057563	0.00063968	0.00019162	1379.2	6.3931e-06	7.0203e-06	1393.5	376.34	6.1901e-06	7.1595e-06	435.34	143.75	124.23	43.704	7.1941e-06	53.55	-7.193	160.523	-146.879	-151.319	-103.048	-135.604	-151.477	-146.813	-152.434	-122.155	-147.232	-143.173	-142.468	-137.778	-22.445	-138.813	-8191	255	
7931.929	1	1	0	0	0.21143	0.30134	0.20899	0.17193	0.16888	0.1004	0.22728	0.28459	0.08044	0.20648	0.081428	0.03717	0.38121	0.19022	0.12024	0.22638	-2.9646	-2.9458	-3.0563	-3.6417	-2.8958	-3.325	-3.3604	-3.0792	-3.4479	-3.1208	-3.1854	-3.5187	-2.9979	-3.2667	-3.2896	-3.0312	-137.475	-135.211	177.175	-153.701	-65.581	183.090	20.880	162.330	-48.178	121.852	-38.658	130.259	-164.666	-152.566	-15.485	-115.764	0.0011133	0.00076139	0.00030668	1345.6	4.6891e-06	6.6072e-06	1344.6	363.93	3.3488e-06	3.0979e-06	417.43	139.59	121.08	41.452	4.8283e-06	51.168	0.00057757	0.00067794	0.00018477	1375.9	6.4466e-06	7.456e-06	1388.3	374.79	6.4214e-06	7.5887e-06	433.09	143.49	124.82	43.98	6.9177e-06	53.451	8.669	135.151	-83.755	-151.260	-88.375	179.649	-151.478	-147.041	-135.527	-83.223	-147.209	-143.081	-142.565	-137.968	-60.980	-138.458	-8191	255	
7932.001	1	1	0	0	0.27216	0.086568	0.10437	0.084922	0.10523	0.042156	0.18326	0.19307	0.029113	0.13481	0.16333	0.048988	0.25986	0.15312	0.15782	0.22559	-2.9083	-3.1813	-2.9208	-3.4208	-3.0417	-3.0938	-3.3812	-2.9146	-3.3375	-3	-3.0896	-3.5938	-2.9813	-3.3417	-3.3083	-3.1063	-27.541	-139.026	74.043	-164.534	187.215	-54.265	177.895	123.559	115.185	29.257	132.568	70.826	139.072	173.190	-164.039	103.776	0.0011042	0.00026834	0.00034195	1346.4	1.0638e-05	4.5588e-06	1351.6	364.07	4.9104e-06	8.0759e-06	418.01	139.56	121.09	41.558	5.155e-06	51.086	0.00060785	0.00069899	0.00017698	1372.3	6.8247e-06	7.652e-06	1385.9	374.49	6.8608e-06	7.5238e-06	431.97	143.18	125.83	43.93	6.6495e-06	53.238	-19.646	-62.931	-102.415	-151.087	-150.280	52.449	-151.822	-146.739	-127.306	9.269	-147.129	-143.066	-142.597	-137.698	-85.245	-138.654	-8191	255	
7932.097	1	1	0	0	0.24175	0.14826	0.13604	0.037914	0.1901	0.1	0.043213	0.099763	0.079591	0.2784	0.32956	0.19886	0.097009	0.20704	0.026344	0.14219	-2.9521	-3.1312	-2.9813	-3.6958	-3.2854	-3.2687	-3.4458	-3.0583	-3.3958	-3.125	-3.125	-3.6	-3.0667	-3.2958	-3.3708	-3.0854	-129.459	126.743	-96.861	137.733	-64.789	26.159	191.919	-7.294	168.598	-136.688	-72.982	-133.710	-65.695	192.737	16.761	78.805	0.0010854	0.00046005	0.00030227	1347.1	5.025e-06	1.1949e-05	1348.5	365.52	1.0109e-05	8.1539e-06	417.67	140.08	120.9	41.65	4.462e-06	51.384	0.00065051	0.00068033	0.00017258	1375.1	7.2798e-06	7.4354e-06	1382.3	374.94	7.3505e-06	7.3122e-06	430.54	143.31	126.95	43.82	6.5927e-06	53.598	-12.476	41.699	-62.992	-151.277	-85.996	34.000	-151.483	-147.017	-141.759	0.792	-147.525	-143.026	-142.579	-137.702	-40.448	-138.812	-8191	255	
7932.216	1	1	0	0	0.34651	0.0028902	0.16773	0.36742	0.13271	0.055018	0.15772	0.13636	0.147	0.08755	0.17308	0.094735	0.29763	0.20368	0.22274	0.030377	-2.8375	-3.3771	-2.8792	-3.5354	-2.9979	-3.2583	-3.6396	-2.9729	-3.3	-3.3563	-3.05	-3.2417	-3.3833	-3.1458	-3.5271	-3.1312	179.096	-148.075	5.668	153.145	78.900	168.262	142.906	-104.146	48.711	-19.652	92.145	-108.136	158.341	75.836	-127.833	136.883	0.0010869	0.00022772	0.0003027	1348.9	2.5707e-06	2.8798e-06	1348.6	367.3	9.1046e-06	1.0846e-05	418.11	139.65	120.86	41.715	5.2563e-06	51.303	0.00069706	0.00065502	0.00017221	1380.2	7.6794e-06	7.1793e-06	1380.6	377.13	7.7172e-06	7.0045e-06	430.87	144.27	127.2	43.564	6.4125e-06	53.924	-3.442	-8.482	-85.971	-151.437	-121.523	-70.061	-151.499	-146.708	-110.305	-8.586	-147.105	-143.050	-142.544	-137.686	-25.067	-138.772	-8191	255	
7932.312	1	1	0	0	0.069535	0.15056	0.25225	0.19445	0.32143	0.30615	0.19058	0.10627	0.19578	0.13455	0.079668	0.12402	0.32914	0.16787	0.18677	0.11458	-2.9437	-3.3521	-2.7292	-3.3833	-3.1583	-2.9	-3.3812	-3.125	-3.1208	-3.3146	-3.1521	-3.4562	-3.3771	-3.1917	-3.45	-3.1333	-46.996	-76.503	-59.711	149.380	-6.983	153.902	160.389	-131.357	46.987	41.567	93.816	172.439	-106.374	178.647	-91.555	116.082	0.00082661	0.00062497	0.00013916	1345.3	5.4817e-06	3.441e-06	1345.8	366.74	3.1725e-06	3.1072e-06	416.09	139.88	120.66	41.488	7.6018e-06	51.226	0.00070319	0.00062415	0.000168	1385.3	7.6187e-06	6.9319e-06	1376.2	379.91	7.5999e-06	6.6892e-06	429.15	145.44	126.42	43.373	6.3244e-06	54.325	2.425	-89.067	149.890	-151.334	18.190	72.371	-151.634	-146.811	61.491	173.587	-147.447	-142.963	-142.527	-137.782	-85.355	-138.872	-8191	255	
7932.408	1	1	0	0	0.16584	0.24327	0.075297	0.20934	0.12859	0.19674	0.14888	0.052286	0.2283	0.06966	0.26528	0.040706	0.15517	0.087481	0.085681	0.29903	-2.925	-3.4562	-2.9875	-3.5312	-3.125	-3.1083	-3.4167	-3.1562	-3.0438	-3.2708	-3.0083	-3.4125	-3.3667	-2.9521	-3.3792	-3.2167	-34.896	-40.662	104.405	163.337	61.882	116.197	121.721	88.651	-53.539	-133.711	-153.837	57.325	-156.546	148.975	75.601	151.942	0.0007026	0.00075372	0.00028711	1349.4	1.1814e-06	9.196e-06	1346.9	366.04	5.334e-06	5.5433e-06	416.25	139.75	121.24	41.583	3.5538e-06	51.149	0.00067929	0.00060556	0.00016631	1391.8	7.2658e-06	6.7392e-06	1377.1	380.7	7.2905e-06	6.5706e-06	430.04	146.55	125.89	43.295	6.548e-06	54.677	15.700	-1.425	149.522	-151.206	188.599	-36.367	-151.570	-146.778	-27.305	27.378	-147.076	-142.900	-142.186	-137.804	-112.489	-138.818	-8191	255	
7932.529	1	1	0	0	0.2457	0.092472	0.12053	0.2932	0.13577	0.20855	0.24805	0.057464	0.098393	0.19812	0.11745	0.24706	0.042974	0.27289	0.28666	0.05467	-2.5938	-3.3396	-3.0542	-3.4375	-3.2667	-3.0187	-3.2396	-3.2208	-3.1083	-3.3708	-3.0875	-3.3021	-3.2938	-2.9375	-3.3146	-3.25	-66.486	158.595	-23.994	149.697	-67.554	3.343	97.193	57.507	-70.634	79.997	-88.242	73.497	-113.153	141.847	1.727	-145.187	0.00086448	0.00071339	0.00015525	1351.8	7.5582e-06	4.3559e-06	1353.5	364.13	1.0705e-05	5.2756e-06	417.19	139.57	120.84	41.766	5.1603e-06	51.26	0.00065032	0.0005887	0.00017208	1396.1	6.8728e-06	6.5896e-06	1384.6	382.07	6.97e-06	6.3938e-06	433.37	146.58	125.28	43.209	7.0473e-06	54.637	6.251	-19.013	98.154	-151.217	1.066	87.559	-151.550	-146.988	-11.402	149.396	-147.433	-142.896	-142.459	-137.652	189.226	-138.472	-8191	255	
7932.601	1	1	0	0	0.19946	0.12122	0.16403	0.18826	0.15245	0.17592	0.31266	0.15314	0.099385	0.17793	0.11736	0.23486	0.32358	0.13245	0.18738	0.019643	-2.5333	-3.4021	-3.0104	-3.35	-3.2625	-3.0062	-3.4375	-3.2104	-3.0417	-3.4208	-3.0687	-3.2896	-3.3937	-3.0417	-3.3625	-3.3167	13.272	168.329	44.770	87.793	-96.421	164.255	106.271	87.080	-124.044	178.895	125.807	186.945	112.337	156.036	-40.213	66.831	0.00087696	0.00027659	0.00010106	1346.3	8.1081e-06	5.8137e-07	1348.6	364.04	1.3921e-06	8.1285e-06	415.84	139.51	120.6	41.602	6.6521e-06	51.206	0.00063088	0.00058131	0.00018497	1392.3	6.7184e-06	6.5061e-06	1391.9	380.6	6.8443e-06	6.3702e-06	436.85	146.05	124.85	43.216	7.5663e-06	54.283	-9.017	-5.057	155.790	-151.315	7.331	164.249	-151.534	-146.499	-122.509	-132.038	-147.412	-142.775	-142.242	-137.659	-129.902	-138.486	-8191	255	
7932.697	1	1	0	0	0.16448	0.18006	0.20689	0.084365	0.11462	0.21487	0.20569	0.18445	0.24548	0.16159	0.23449	0.10365	0.13356	0.13818	0.249	0.15585	-2.4646	-3.35	-3.0083	-3.1354	-3.2917	-2.8625	-3.3646	-3.5	-3.0396	-3.4062	-3.25	-3.1063	-3.5604	-2.9333	-3.3042	-3.2979	-122.551	-139.851	-108.531	-86.753	130.838	50.196	188.345	112.638	49.737	11.886	-47.315	99.455	-40.023	193.309	-107.626	76.159	0.0010156	0.0001112	0.00021433	1345.7	8.2125e-06	1.138e-06	1346.5	366.25	5.5829e-06	5.3181e-06	416.08	139.25	121.1	41.481	2.3691e-06	51.256	0.00062338	0.00059199	0.00019478	1389.4	6.5742e-06	6.6561e-06	1398.4	378.56	6.7346e-06	6.6534e-06	438.75	145.22	124.56	43.384	7.7844e-06	53.891	-2.701	97.400	-161.882	-151.322	-55.622	23.081	-151.545	-146.719	-66.013	-123.558	-147.362	-142.920	-142.480	-137.695	72.531	-138.524	-8191	255	
7932.817	1	1	0	0	0.090369	0.28518	0.17778	0.082019	0.11789	0.17246	0.19882	0.36176	0.22366	0.13973	0.083701	0.24196	0.25412	0.14165	0.17381	0.22086	-2.5167	-3.3312	-2.9896	-3.2438	-3.2438	-3.0729	-3.3083	-3.3458	-2.9979	-3.3292	-3.0104	-3.1979	-3.3875	-3.0229	-3.4813	-3.5229	-84.871	-3.178	21.750	-147.491	108.724	138.651	139.535	159.227	104.147	-2.654	189.769	-1.803	139.817	113.643	30.119	62.423	0.00099702	0.00044411	0.00012677	1344.7	6.6512e-06	6.7454e-06	1342.9	363.13	2.9882e-06	6.043e-06	415.17	139.47	120.72	41.44	5.7205e-06	51.426	0.00060795	0.00062493	0.00019616	1381.6	6.3682e-06	7.0591e-06	1398.1	376.08	6.5478e-06	7.0819e-06	436.45	144.83	124.03	43.71	7.6166e-06	53.592	7.371	158.745	-95.462	-151.321	-41.865	-139.624	-151.497	-146.884	-8.682	-139.461	-147.248	-142.871	-142.430	-137.817	-58.830	-138.589	-8191	255	
7932.914	1	1	0	0	0.2463	0.34688	0.15577	0.25859	0.14398	0.2253	0.37685	0.026386	0.19969	0.14501	0.18915	0.18994	0.29185	0.15268	0.2461	0.28893	-2.4688	-3.5146	-3.2292	-3.0229	-3.3479	-2.9375	-3.4917	-3.3438	-2.9625	-3.3	-3.3187	-3.1042	-3.4792	-3.2021	-3.1312	-3.3729	156.345	-71.242	-119.430	148.770	-7.465	26.629	151.921	91.508	39.371	46.561	-127.545	62.900	170.189	155.237	-106.892	87.279	0.00089693	0.00090142	0.00033733	1343.6	6.7546e-06	6.4738e-06	1344.1	365.54	9.9613e-07	4.2922e-06	416.25	139.25	120.71	41.488	4.6706e-06	51.078	0.0006	0.00067147	0.00019097	1379.8	6.3602e-06	7.4854e-06	1392.4	375.16	6.5484e-06	7.516e-06	434.25	144.19	124.21	44.01	7.2276e-06	53.367	3.842	166.698	-109.363	-151.135	-91.178	-113.549	-151.528	-146.816	87.923	-107.805	-146.962	-142.780	-142.480	-137.917	-27.979	-138.811	-8191	255	
7933.010	1	1	0	0	0.2107	0.13271	0.1556	0.46768	0.045507	0.12536	0.16455	0.28354	0.09461	0.16589	0.21803	0.21202	0.16441	0.063307	0.14661	0.14918	-2.5354	-3.1417	-3.2188	-3.0917	-3.2917	-3.2062	-3.2438	-3.4958	-2.9667	-3.1667	-3.2583	-3.0021	-3.3729	-3.2729	-3.0083	-3.6292	27.124	-16.027	92.353	176.727	-90.168	-97.829	-77.158	175.300	-12.151	-77.894	161.431	-100.475	-151.475	-45.872	82.284	144.804	0.0012329	0.00069191	0.00044699	1347	1.1181e-05	1.9843e-06	1345.7	364.66	1.1059e-05	3.8481e-06	417.18	139.81	120.68	41.586	4.0831e-06	51.462	0.00061283	0.00070257	0.00017993	1378.3	6.6158e-06	7.7384e-06	1387.3	374.6	6.8345e-06	7.7107e-06	431.69	143.68	125.12	44.002	6.9246e-06	53.224	-14.994	-151.207	-76.134	-151.224	-101.620	-152.607	-151.581	-146.813	-77.847	-7.097	-147.104	-142.973	-142.480	-137.852	-56.940	-138.607	-8191	255	
7933.106	1	1	0	0	0.28868	0.20921	0.14759	0.15997	0.169	0.087482	0.089483	0.19561	0.084555	0.11171	0.19167	0.13634	0.18033	0.24369	0.30104	0.13158	-2.5354	-3.1729	-3.2479	-3.1875	-3.3792	-3.2333	-3.3292	-3.4583	-3.1937	-3.2708	-3.3354	-3.1104	-3.3688	-3.2708	-2.8479	-3.3521	22.979	64.709	-53.537	136.401	190.781	191.381	-94.020	158.527	-45.128	-16.616	132.998	-147.859	148.534	-129.890	191.988	-113.886	0.0012396	0.00043378	0.00015851	1346.7	7.5014e-06	6.0815e-06	1347	365.86	7.5778e-06	6.439e-06	417.28	138.81	120.52	41.694	2.0686e-06	51.103	0.00064628	0.00069794	0.00017171	1376.1	7.0648e-06	7.5222e-06	1383.3	373.95	7.2614e-06	7.4874e-06	429.33	143.28	126.09	43.695	6.6902e-06	53.047	1.964	-104.744	-35.278	-151.277	-117.312	61.345	-151.579	-146.624	-108.060	-0.132	-147.382	-143.262	-142.679	-137.788	-50.051	-138.484	-8191	255	
7933.225	1	1	0	0	0.32454	0.26208	0.22542	0.31504	0.21981	0.12804	0.22637	0.35002	0.12247	0.071141	0.20509	0.10551	0.077091	0.076362	0.34364	0.15131	-2.4521	-3.0979	-3.2354	-3.1042	-3.3729	-3.2521	-3.0542	-3.2958	-3.1667	-3.2021	-3.2646	-2.9854	-3.275	-3.3021	-3.1354	-3.5312	-108.821	71.019	-83.194	171.016	31.547	57.696	128.382	-63.894	-20.142	-75.582	-162.812	139.834	-128.943	-117.346	136.265	-164.121	0.0012937	0.00068846	9.5696e-05	1348.5	7.7331e-06	7.2391e-06	1340.4	364.61	5.8212e-06	8.6606e-06	416.34	139.17	120.61	41.648	7.8299e-06	51.248	0.00067394	0.00066107	0.00016486	1373.4	7.3576e-06	7.0676e-06	1377	373.54	7.4746e-06	7.0827e-06	427.39	143.42	126.43	43.405	6.5132e-06	53.385	-15.746	-74.952	-29.151	-151.356	-153.165	10.382	-151.503	-146.670	-108.358	18.340	-147.212	-142.864	-142.547	-137.627	-2.840	-138.641	-8191	255	
7933.296	1	1	0	0	0.29091	0.13579	0.28639	0.11113	0.34008	0.088403	0.33024	0.21737	0.34225	0.17697	0.016735	0.10619	0.1876	0.36936	0.029503	0.21312	-2.8208	-2.9104	-3.3396	-2.9104	-3.2167	-3.3125	-3.2438	-3.4125	-3.1479	-3.0062	-3.45	-3.1042	-3.2604	-3.3896	-2.8021	-3.3375	-60.228	-64.079	-119.646	152.517	47.463	-60.161	149.326	162.558	86.676	-113.221	-128.416	86.678	-73.274	-61.246	-147.060	154.854	0.00078967	0.00064501	0.0002096	1340.2	1.0312e-05	1.5384e-06	1343	364.95	8.7137e-06	7.6415e-06	415.34	139.32	120.12	41.611	2.5367e-06	51.181	0.00069138	0.00063249	0.00016132	1377.3	7.5457e-06	6.7406e-06	1376.5	376.13	7.4942e-06	6.8475e-06	426.37	144.61	126.58	43.213	6.4364e-06	53.946	-22.891	-87.894	-102.668	-151.341	-102.820	-55.153	-151.581	-147.058	-72.090	12.815	-147.212	-143.114	-142.188	-138.016	123.424	-138.686	-8191	255	
7933.417	1	1	0	0	0.24933	0.12417	0.21929	0.34886	0.070562	0.18967	0.11395	0.17985	0.18523	0.10219	0.097152	0.13309	0.06441	0.35062	0.15548	0.15836	-2.6792	-2.8604	-3.2188	-3.1042	-3.2208	-3.3583	-3.0667	-3.4583	-3.0146	-2.8958	-3.5021	-3.1083	-2.975	-3.4333	-2.8083	-3.6125	-89.991	106.861	8.720	169.489	17.100	-66.799	60.741	-137.182	19.218	-150.056	-14.660	24.653	120.331	191.419	-45.418	90.720	0.00078468	0.00039371	0.00015664	1344.9	9.432e-06	8.9391e-06	1346.7	364.8	7.8859e-06	5.5857e-06	414.7	138.81	121.05	41.45	6.3197e-06	51.35	0.00067981	0.00062031	0.00015992	1385.4	7.4235e-06	6.5774e-06	1376.2	379.09	7.2467e-06	6.7123e-06	426.6	145.92	126.07	43.051	6.5703e-06	54.507	24.463	-88.453	191.185	-151.367	-11.787	-11.199	-151.697	-147.015	-48.033	-27.298	-147.294	-143.349	-142.594	-137.747	-66.370	-138.650	-8191	255	
7933.513	1	1	0	0	0.13583	0.20034	0.052297	0.16232	0.083221	0.33831	0.26558	0.090809	0.10066	0.18239	0.2119	0.04222	0.20225	0.30085	0.2328	0.057268	-2.9667	-2.9708	-3.1875	-3.3292	-3.1042	-3.3208	-3.0812	-3.375	-3.1958	-3.15	-3.4333	-3.1083	-3.0438	-3.35	-3.0167	-3.0625	49.854	-105.921	5.558	4.067	-122.118	-100.865	135.251	99.232	-85.295	-47.302	163.669	-8.254	-66.896	187.082	112.872	-43.998	0.00087294	0.00035028	0.00022244	1346.5	6.2198e-06	4.9279e-06	1338.8	364.88	4.5179e-06	2.1381e-06	414.96	139.31	120.83	41.462	9.7545e-06	51.07	0.0006555	0.00061012	0.00016526	1389.4	7.1128e-06	6.4416e-06	1378.9	381.16	6.9241e-06	6.6337e-06	429.33	146.22	125.49	42.963	6.918e-06	54.519	18.365	-12.903	192.743	-151.379	44.291	12.251	-151.613	-146.740	-92.013	-72.953	-147.563	-142.966	-142.427	-137.693	-146.923	-138.638	-8191	255	
7933.609	1	1	0	0	0.3081	0.25892	0.18624	0.1178	0.11801	0.032123	0.27055	0.43281	0.22451	0.13336	0.34867	0.33997	0.22767	0.18515	0.079826	0.12919	-2.8917	-2.975	-3.3104	-3.2729	-3.1854	-3.4875	-3.1708	-3.225	-3.2521	-3.0375	-3.3208	-3.2229	-3.0354	-3.5312	-2.9813	-3.2729	-61.011	65.461	177.393	184.153	-79.126	-87.673	136.234	114.276	-116.806	-72.187	138.488	187.604	180.649	172.293	-116.967	-115.313	0.0012053	0.00050144	7.8005e-05	1346.5	7.6985e-06	3.7608e-06	1344.1	366.43	1.3948e-05	4.7899e-06	415.99	139.41	120.68	41.484	5.008e-06	51.416	0.00062231	0.00059837	0.00017669	1390.5	6.8701e-06	6.3675e-06	1387.1	380.96	6.6893e-06	6.5028e-06	433.53	146.04	124.99	42.888	7.344e-06	54.407	11.428	-85.414	105.798	-151.288	-56.137	-2.245	-151.566	-146.599	-64.893	-40.633	-147.443	-143.093	-142.471	-137.688	-141.050	-138.390	-8191	255	
7933.706	1	1	0	0	0.078144	0.11737	0.10392	0.096216	0.24339	0.20615	0.22746	0.095868	0.28506	0.17211	0.22407	0.29349	0.065202	0.14751	0.21226	0.060568	-2.8854	-2.95	-3.1437	-3.4	-2.8688	-3.2938	-3.2021	-3.1646	-3.2604	-2.9979	-3.3333	-3.4375	-3.0521	-3.4188	-3.1063	-3.1875	97.124	111.629	179.751	171.583	-119.913	56.256	-160.779	101.275	33.202	-75.735	-164.133	-106.518	-71.622	74.133	-112.770	71.285	0.00092467	6.7033e-05	0.00031409	1345.1	5.3838e-06	3.0708e-06	1348.3	364.73	1.2758e-06	4.0495e-06	415.25	139.22	120.38	41.558	2.4213e-06	51.103	0.00060479	0.00059257	0.0001878	1384.3	6.7335e-06	6.3543e-06	1392.6	378.86	6.5098e-06	6.5816e-06	436.66	144.67	124.57	43.042	7.6163e-06	53.981	1.234	-64.348	-126.911	-151.227	-56.711	177.448	-151.604	-146.740	-7.907	-113.225	-147.226	-143.278	-142.422	-137.840	-124.249	-138.650	-8191	255	
7933.802	1	1	0	0	0.11439	0.21415	0.10299	0.11284	0.35182	0.13074	0.15111	0.23608	0.22631	0.043499	0.11661	0.18491	0.088889	0.10022	0.29788	0.3029	-2.7896	-2.8333	-3.0958	-3.3167	-2.8479	-3.3354	-3.2979	-3.3354	-3.3146	-3.0438	-3.1333	-3.3021	-3.0042	-3.4646	-3.1042	-3.1042	177.751	150.001	-105.972	44.117	90.819	-12.304	-72.784	-160.959	-109.754	-91.370	72.144	123.058	121.322	75.205	-19.050	161.230	0.00075293	0.00010556	7.4064e-05	1347.1	5.2643e-06	2.791e-06	1346.6	364.81	5.1637e-06	2.2352e-06	413.1	139.03	120.33	41.404	1.2165e-05	50.99	0.00058593	0.00061206	0.00019503	1380.1	6.5093e-06	6.6732e-06	1392.3	376.08	6.2878e-06	6.8413e-06	435.51	143.68	123.97	43.293	7.4587e-06	53.534	8.866	185.906	37.337	-151.191	-36.529	180.796	-151.591	-146.636	-76.248	-65.881	-147.129	-143.119	-142.519	-137.833	-37.285	-138.596	-8191	255	
7933.898	1	1	0	0	0.16028	0.19632	0.075045	0.32786	0.19034	0.14501	0.13753	0.14943	0.34922	0.37787	0.24746	0.28264	0.060392	0.26545	0.095661	0.21559	-2.9562	-2.8375	-3.2375	-3.3833	-2.8729	-3.3812	-3.3208	-2.9625	-3.3375	-2.9875	-3.2125	-3.4021	-3.1146	-3.5396	-3.2083	-3.0271	-22.394	74.865	-125.211	129.319	148.509	74.382	165.255	153.410	49.862	180.931	100.077	126.597	146.123	50.026	98.781	138.599	0.00085102	0.00053721	0.00024854	1343.2	2.0448e-06	4.632e-06	1345.5	363.54	1.4099e-06	4.7857e-06	416.82	138.84	120.45	41.538	7.7066e-06	51.242	0.00057149	0.00064352	0.00019031	1373.1	6.369e-06	7.1089e-06	1386.7	375.07	6.1921e-06	7.2384e-06	434.7	143.25	124	43.667	7.1214e-06	53.37	-14.333	-148.424	-61.152	-151.217	-35.854	191.326	-151.676	-146.764	-85.830	-96.064	-147.128	-142.985	-142.550	-137.948	10.027	-138.606	-8191	255	
7933.994	1	1	0	0	0.17789	0.31929	0.12574	0.17867	0.26653	0.14394	0.06483	0.38642	0.26052	0.2011	0.027451	0.16146	0.19955	0.16135	0.36717	0.12775	-3	-3.0854	-3.1292	-3.6271	-2.9542	-3.2687	-3.35	-3.0687	-3.2667	-3.2562	-3.1625	-3.3771	-3.1146	-3.2604	-3.1688	-3.0667	-40.795	103.674	127.197	91.900	114.803	114.094	73.212	178.076	-137.551	-72.622	-107.388	-159.372	-161.535	-136.859	14.163	55.287	0.00076102	0.00017688	0.00023554	1342	2.9946e-06	3.1185e-06	1343.9	364.85	5.0594e-06	3.7884e-06	416.27	138.78	120.73	41.547	3.7147e-06	51.2	0.00057273	0.00067347	0.00018166	1370	6.4544e-06	7.435e-06	1381.3	374.75	6.3839e-06	7.4977e-06	431.84	142.95	124.61	43.876	6.7595e-06	53.298	-2.619	-136.785	-91.044	-151.207	-121.116	-119.736	-151.601	-146.766	-137.927	-73.150	-147.200	-142.914	-142.353	-137.576	4.236	-138.743	-8191	255	
7934.090	1	1	0	0	0.15019	0.044348	0.10754	0.2141	0.14073	0.046543	0.14768	0.1138	0.19465	0.19413	0.16415	0.18476	0.087837	0.15686	0.086225	0.16547	-2.9646	-3.0521	-3.1542	-3.6208	-3.0292	-3.2729	-3.3396	-3.0854	-3.1979	-3.05	-3.025	-3.3854	-2.9875	-3.2771	-3.4083	-3.1583	24.282	162.232	-100.387	127.143	94.886	173.605	103.564	-156.342	-109.901	-89.288	99.112	155.165	74.301	153.303	54.177	29.138	0.001139	0.00035944	0.00026127	1339.6	5.3903e-06	9.6096e-06	1341.8	365.6	5.4405e-06	3.7049e-06	417.07	138.71	120.36	41.396	5.3077e-06	51	0.00060242	0.00068574	0.00017358	1367.8	6.7763e-06	7.51e-06	1376.7	373.63	6.8208e-06	7.3748e-06	430.16	142.42	125.29	43.693	6.5469e-06	53.156	-23.068	13.842	-86.768	-151.448	-91.947	14.089	-151.587	-146.773	-92.042	2.178	-147.251	-142.909	-142.696	-137.497	-13.039	-138.544	-8191	255	
7934.186	1	1	0	0	0.21667	0.26284	0.25707	0.26836	0.1678	0.15629	0.12712	0.23968	0.10146	0.019855	0.058348	0.17808	0.046225	0.068098	0.11407	0.19206	-2.825	-3.1583	-3.0687	-3.4771	-3.0417	-2.9792	-3.65	-3.0792	-3.2896	-3.3042	-3.125	-3.2458	-3.2396	-3.0438	-3.4208	-3.1542	91.757	-53.062	-34.183	168.777	101.338	-34.284	89.820	155.548	-121.202	8.633	54.090	-30.190	105.292	157.899	90.355	183.574	0.0012497	0.00078998	0.00019589	1340.6	9.8167e-06	7.0834e-06	1341.2	365.51	1.1183e-05	3.5472e-06	417.31	139.14	120.61	41.502	5.0897e-06	51.413	0.00065011	0.0006627	0.00017004	1368.5	7.2523e-06	7.2431e-06	1373.9	373.58	7.3072e-06	7.0627e-06	429.65	142.81	126.13	43.554	6.3938e-06	53.342	-17.425	-17.032	187.643	-151.174	-118.910	19.015	-151.704	-146.696	-148.613	27.390	-147.348	-143.276	-142.443	-137.817	-90.886	-138.533	-8191	255	
7934.305	1	1	0	0	0.25169	0.24321	0.01003	0.35561	0.19157	0.12089	0.034897	0.093937	0.071626	0.16008	0.082876	0.10183	0.16882	0.13679	0.083044	0.22053	-2.7438	-3.0875	-2.7896	-3.4875	-2.9833	-2.9396	-3.6125	-3.0208	-3.2167	-3.1771	-3.0792	-3.4313	-3.1437	-3.1375	-3.4375	-2.9167	96.233	-15.209	91.277	125.667	35.879	21.083	175.955	-158.755	-70.480	-4.748	96.001	192.620	150.392	-152.495	118.417	104.488	0.0012025	0.00046654	0.00028536	1342.7	5.9041e-06	6.1508e-06	1347.6	363.64	5.6097e-06	4.015e-06	413.43	138.99	120.51	41.598	1.182e-06	51.125	0.00068651	0.00063347	0.00016667	1373.7	7.5003e-06	6.9603e-06	1373.8	375.18	7.5362e-06	6.7528e-06	427.41	143.8	126.42	43.331	6.2456e-06	53.812	-19.333	-40.012	-69.798	-151.342	-122.310	22.536	-151.457	-146.726	-131.088	40.669	-147.221	-143.233	-142.567	-137.741	-30.718	-138.591	-8191	255	
7934.401	1	1	0	0	0.1356	0.15637	0.12354	0.32004	0.080555	0.15031	0.021361	0.093985	0.17603	0.24014	0.13977	0.16157	0.22839	0.060036	0.28921	0.3168	-2.7208	-3.0896	-2.9188	-3.4896	-3.2208	-2.9604	-3.5083	-3.0083	-3.2604	-3.275	-3.05	-3.2229	-3.2208	-2.9521	-3.3083	-3.0646	30.292	81.434	97.588	148.207	125.102	-126.886	152.164	99.968	-151.874	-20.719	-128.734	186.944	133.877	102.692	-56.240	103.624	0.00069276	0.00059326	0.00025546	1341.7	6.9224e-06	8.0823e-06	1343.9	363.73	7.4138e-06	6.6109e-06	415.56	139.26	120.8	41.494	5.2505e-06	51.166	0.00068547	0.0006082	0.0001629	1379.3	7.3623e-06	6.756e-06	1373.1	377.56	7.4157e-06	6.5948e-06	427.55	145.32	126.05	43.234	6.2421e-06	54.236	19.948	-81.960	-60.799	-151.327	-112.872	2.810	-151.658	-146.830	-38.638	-26.118	-147.226	-143.161	-142.382	-137.834	-110.848	-138.496	-8191	255	
7934.497	1	1	0	0	0.16566	0.17973	0.013763	0.22127	0.042143	0.30649	0.15544	0.19235	0.092953	0.16428	0.24355	0.13609	0.28209	0.084992	0.18793	0.088652	-2.8729	-3.2375	-2.9667	-3.35	-3.1896	-2.8396	-3.4979	-3.1188	-3.1125	-3.4521	-2.9562	-3.3438	-3.2542	-3.1479	-3.3479	-3.0458	-110.982	22.652	-116.404	91.787	179.717	-121.219	93.454	192.895	160.594	-22.576	146.836	79.948	147.827	68.608	-76.838	182.453	0.00099069	0.00035597	0.00012039	1345.8	1.1702e-05	5.3112e-06	1339.4	364.51	3.6262e-07	1.8898e-06	416.87	139.54	121.13	41.425	6.0847e-06	51.215	0.00066544	0.00059003	0.00016347	1386.1	7.0346e-06	6.6004e-06	1372.3	379.57	7.0633e-06	6.3697e-06	429.24	145.93	125.13	43.074	6.4256e-06	54.408	0.515	-103.452	-105.423	-151.328	-60.522	73.491	-151.551	-146.962	-15.186	-66.957	-147.326	-143.124	-142.285	-137.815	-116.891	-138.585	-8191	255	
7934.594	1	1	0	0	0.064599	0.090388	0.14892	0.21334	0.10184	0.21723	0.12571	0.15968	0.15683	0.28577	0.08998	0.11137	0.26342	0.070665	0.2533	0.031598	-2.6333	-3.1125	-2.9833	-3.3438	-3.1188	-2.9604	-3.475	-3.1729	-2.9146	-3.2125	-3.0875	-3.1896	-3.4	-2.9396	-3.1521	-3.2687	43.364	-42.662	166.835	167.431	-158.615	91.958	-152.672	52.709	178.069	158.447	64.045	87.575	138.861	40.425	-26.959	-145.039	0.00083142	0.00045773	0.00016726	1342.1	6.4793e-06	9.7955e-06	1344.8	363.1	5.1244e-06	1.4833e-06	414.84	139.37	120.36	41.519	5.2069e-06	50.879	0.00063103	0.00057157	0.00016976	1386.6	6.622e-06	6.3742e-06	1377.7	378.88	6.7075e-06	6.1552e-06	430.99	145.85	124.42	42.971	6.8913e-06	54.124	10.177	-84.975	125.040	-151.112	-62.737	-5.752	-151.634	-146.812	-61.354	-102.165	-147.142	-143.164	-142.358	-137.833	-142.229	-138.448	-8191	255	
7934.690	1	1	0	0	0.099443	0.34616	0.079714	0.091523	0.088472	0.35539	0.14571	0.22571	0.40617	0.11339	0.057567	0.30768	0.29986	0.19267	0.072816	0.15424	-2.4604	-3.1833	-2.9875	-3.3688	-3.3521	-2.9167	-3.5062	-3.2979	-2.9688	-3.3833	-3.1771	-3.1896	-3.2396	-2.9292	-3.1729	-3.2917	-20.288	-43.444	41.897	146.258	-77.373	-147.720	123.167	130.067	-140.109	-42.606	-130.854	126.962	70.599	166.206	-79.033	-115.526	0.00086664	0.00031387	0.00013661	1344.4	9.0855e-06	2.8005e-06	1346.3	365.08	5.1332e-06	4.2779e-06	416.84	139.31	121.03	41.499	1.4558e-06	51.216	0.00060821	0.00055953	0.00018015	1384	6.4204e-06	6.3091e-06	1386.7	377.65	6.5514e-06	6.1911e-06	434.04	145.02	124.04	42.983	7.2806e-06	53.809	2.121	-90.548	142.662	-151.254	-36.976	142.803	-151.675	-146.623	-161.260	-83.799	-147.131	-143.135	-142.516	-137.632	159.788	-138.723	-8191	255	
7934.786	1	1	0	0	0.10505	0.27636	0.14075	0.22433	0.10922	0.153	0.28816	0.08217	0.056668	0.065954	0.2038	0.19502	0.11621	0.16035	0.10679	0.022276	-2.5	-3.2458	-3.0375	-3.3688	-3.4104	-2.9938	-3.3479	-3.3229	-2.9562	-3.3292	-3.3375	-3.2583	-3.3187	-3.1771	-3.2458	-3.2042	-115.657	116.646	-55.383	146.754	5.742	171.473	138.738	118.655	112.037	97.331	-159.128	-82.505	-52.398	173.469	-31.578	166.305	0.00098107	0.00032912	0.00022578	1336.1	6.4577e-06	5.8869e-06	1344.4	364.23	6.4391e-06	4.5907e-06	415.31	139.07	120.7	41.491	2.4358e-06	51.306	0.00059804	0.00057318	0.000188	1377.1	6.2667e-06	6.4762e-06	1390.3	375.43	6.4109e-06	6.3951e-06	434.58	143.97	123.41	43.172	7.3609e-06	53.332	-0.832	-144.399	-140.397	-151.300	-10.592	-125.514	-151.556	-146.726	-50.028	-132.927	-147.165	-143.099	-142.389	-137.817	-27.917	-138.659	-8191	255	
7934.907	1	1	0	0	0.090496	0.3473	0.11355	0.19516	0.15936	0.039167	0.3581	0.18341	0.2178	0.15959	0.028783	0.28502	0.393	0.25307	0.26954	0.048826	-2.4917	-3.1708	-2.9938	-3.0208	-3.2812	-3.0771	-3.3625	-3.4146	-2.825	-3.4	-3.2562	-3.0458	-3.4896	-3.125	-3.1688	-3.3396	53.645	160.645	52.500	182.496	-114.699	-12.133	-86.210	80.458	175.744	-152.995	-151.035	46.491	157.667	140.614	-129.851	165.966	0.00076728	0.00025418	0.00026556	1343.6	2.7245e-06	5.4799e-06	1343	364.9	4.3452e-06	1.7085e-06	413.9	139.07	120.12	41.307	9.2703e-06	51.131	0.0005754	0.00059827	0.00018471	1373.1	5.9904e-06	6.7422e-06	1387.3	373.55	6.2199e-06	6.8407e-06	433.29	143.55	123.21	43.455	7.241e-06	53.223	8.253	-135.573	-38.269	-151.245	-57.604	-74.363	-151.527	-146.525	-138.533	144.722	-147.135	-142.993	-142.520	-137.746	-17.173	-138.589	-8191	255	
7935.003	1	1	0	0	0.039239	0.093524	0.13528	0.17731	0.12635	0.026251	0.19952	0.094941	0.163	0.23551	0.089479	0.17017	0.19574	0.090877	0.06691	0.32909	-2.6667	-3.2188	-3.175	-3.3521	-3.4583	-3.1583	-3.1542	-3.3854	-2.9938	-3.1896	-3.5333	-2.9354	-3.4688	-3.3542	-3.0021	-3.3625	-63.936	106.613	3.848	130.295	63.603	112.114	93.702	166.851	-49.550	-42.045	-116.332	-134.469	157.359	188.752	-74.625	143.426	0.00085656	0.00031254	0.00035164	1342.7	3.7471e-06	6.0297e-06	1342.4	364.6	3.4182e-06	3.5398e-06	416.38	138.94	119.78	41.615	5.4159e-06	51.014	0.00057651	0.00064918	0.00018049	1372.9	6.1504e-06	7.3165e-06	1385.4	373.31	6.379e-06	7.3738e-06	430.97	143.38	123.77	43.855	7.0138e-06	53.109	-6.948	-137.468	-64.384	-151.387	190.410	-140.378	-151.613	-146.822	-35.695	71.833	-147.084	-142.953	-142.568	-137.861	-25.534	-138.455	-8191	255	
7935.099	1	1	0	0	0.24874	0.14572	0.11313	0.15401	0.12738	0.042791	0.017562	0.20017	0.28244	0.22834	0.087861	0.045406	0.14744	0.19647	0.098168	0.13407	-2.7833	-3.1104	-3.0354	-3.0021	-3.3937	-3.1188	-3.2562	-3.4125	-3.0896	-3.2333	-3.4562	-3.1562	-3.3063	-3.3021	-3.0292	-3.5479	182.933	-10.328	-72.041	106.110	61.339	45.566	-123.954	-164.443	-68.361	-4.239	109.537	114.576	172.623	187.786	-75.840	-70.662	0.0010841	0.00056905	0.00034147	1341.1	8.3981e-06	2.8447e-06	1342.3	363.29	1.1431e-05	7.7196e-06	415.52	138.86	120.63	41.387	1.0025e-06	51.295	0.00060153	0.00068631	0.00017326	1371.4	6.5063e-06	7.5466e-06	1380.5	372.66	6.7729e-06	7.5574e-06	429.58	142.9	125.01	43.827	6.8818e-06	53.213	-20.799	-139.503	-35.764	-151.188	-142.489	0.858	-151.606	-146.949	166.879	8.252	-147.059	-143.071	-142.518	-137.585	-101.110	-138.802	-8191	255	
7935.193	1	1	0	0	0.18116	0.089271	0.021178	0.31923	0.1332	0.14893	0.10642	0.16497	0.065418	0.14535	0.24508	0.088656	0.30495	0.11015	0.034621	0.096121	-2.7708	-3.2625	-3.4667	-3.1125	-3.3563	-3.2771	-3.1646	-3.4792	-3.2521	-3.1125	-3.4208	-3.0687	-3.3063	-3.4354	-3.0208	-3.3812	82.825	58.334	-123.274	156.513	9.966	-99.116	89.704	177.139	-80.146	-22.497	178.835	62.573	174.984	-100.264	116.170	103.227	0.0011637	0.00063888	0.00033744	1341.7	5.6708e-06	1.2543e-05	1340.7	364.92	8.4657e-06	2.5236e-06	416.2	139.52	121.15	41.664	4.506e-06	51.32	0.00065541	0.00069938	0.00017162	1374.5	7.2011e-06	7.5785e-06	1382.5	373.7	7.4105e-06	7.5421e-06	429.79	143.6	126.49	43.812	6.8475e-06	53.358	-14.904	-54.480	-78.499	-151.538	-99.062	18.778	-151.530	-146.606	-109.357	-111.954	-147.201	-142.972	-142.620	-137.602	-79.309	-138.628	-8191	255	
#DATA ENDS
