BOXY.EXE: ISS Imagent and Oximeter Data Acquisition Program Version 0.80
Ascii Record File

#ACQ INFORMATION
2  Detector Channels 
16  External MUX Channels 
1  Auxiliary Channels 
5000  Waveform (CCF) Frequency (Hz)
1  Waveforms Skipped 
30  Waveforms Averaged 
1  Cycles Averaged 
16  Acquisitions per Waveform 
10.0806  Updata Rate (Hz) 

#FILE INFORMATION
TRUE -- External MUX Channel results are PARSED.
FALSE -- AC DC and Phase are NOT grouped.
TRUE -- Companion Program Settings File CREATED.
FALSE -- AC data not excluded
FALSE -- DC data not excluded
FALSE -- Phase data not excluded
FALSE -- Auxillary Chn. data not excluded
Tab delimiters

#CALIBRATION STATE
TRUE -- Waveform Calibration Values APPLIED.


#AUX CALIBRATION VALUES
Val Type	aux-1	

Term	1.0000e+00	
Factor	0.0000e+00	


#WF CALIBRATION VALUES
A = Detector Channel
Val Type	A-AC1	A-AC2	A-AC3	A-AC4	A-AC5	A-AC6	A-AC7	A-AC8	A-AC9	A-AC10	A-AC11	A-AC12	A-AC13	A-AC14	A-AC15	A-AC16	A-DC1	A-DC2	A-DC3	A-DC4	A-DC5	A-DC6	A-DC7	A-DC8	A-DC9	A-DC10	A-DC11	A-DC12	A-DC13	A-DC14	A-DC15	A-DC16	A-Ph1	A-Ph2	A-Ph3	A-Ph4	A-Ph5	A-Ph6	A-Ph7	A-Ph8	A-Ph9	A-Ph10	A-Ph11	A-Ph12	A-Ph13	A-Ph14	A-Ph15	A-Ph16	

Term	0.00000e+00	0.00000e+00	0.00000e+00	0.00000e+00	0.00000e+00	0.00000e+00	0.00000e+00	0.00000e+00	0.00000e+00	0.00000e+00	0.00000e+00	0.00000e+00	0.00000e+00	0.00000e+00	0.00000e+00	0.00000e+00	0.00000e+00	0.00000e+00	0.00000e+00	0.00000e+00	0.00000e+00	0.00000e+00	0.00000e+00	0.00000e+00	0.00000e+00	0.00000e+00	0.00000e+00	0.00000e+00	0.00000e+00	0.00000e+00	0.00000e+00	0.00000e+00	0.00000e+00	0.00000e+00	0.00000e+00	0.00000e+00	0.00000e+00	0.00000e+00	0.00000e+00	0.00000e+00	0.00000e+00	0.00000e+00	0.00000e+00	0.00000e+00	0.00000e+00	0.00000e+00	0.00000e+00	0.00000e+00	
Factor	1.00000e+00	1.00000e+00	1.00000e+00	1.00000e+00	1.00000e+00	1.00000e+00	1.00000e+00	1.00000e+00	1.00000e+00	1.00000e+00	1.00000e+00	1.00000e+00	1.00000e+00	1.00000e+00	1.00000e+00	1.00000e+00	1.00000e+00	1.00000e+00	1.00000e+00	1.00000e+00	1.00000e+00	1.00000e+00	1.00000e+00	1.00000e+00	1.00000e+00	1.00000e+00	1.00000e+00	1.00000e+00	1.00000e+00	1.00000e+00	1.00000e+00	1.00000e+00	X	X	X	X	X	X	X	X	X	X	X	X	X	X	X	X	

B = Detector Channel
Val Type	B-AC1	B-AC2	B-AC3	B-AC4	B-AC5	B-AC6	B-AC7	B-AC8	B-AC9	B-AC10	B-AC11	B-AC12	B-AC13	B-AC14	B-AC15	B-AC16	B-DC1	B-DC2	B-DC3	B-DC4	B-DC5	B-DC6	B-DC7	B-DC8	B-DC9	B-DC10	B-DC11	B-DC12	B-DC13	B-DC14	B-DC15	B-DC16	B-Ph1	B-Ph2	B-Ph3	B-Ph4	B-Ph5	B-Ph6	B-Ph7	B-Ph8	B-Ph9	B-Ph10	B-Ph11	B-Ph12	B-Ph13	B-Ph14	B-Ph15	B-Ph16	

Term	0.00000e+00	0.00000e+00	0.00000e+00	0.00000e+00	0.00000e+00	0.00000e+00	0.00000e+00	0.00000e+00	0.00000e+00	0.00000e+00	0.00000e+00	0.00000e+00	0.00000e+00	0.00000e+00	0.00000e+00	0.00000e+00	0.00000e+00	0.00000e+00	0.00000e+00	0.00000e+00	0.00000e+00	0.00000e+00	0.00000e+00	0.00000e+00	0.00000e+00	0.00000e+00	0.00000e+00	0.00000e+00	0.00000e+00	0.00000e+00	0.00000e+00	0.00000e+00	-1.84242e+02	-1.31288e+02	-1.21626e+02	-1.81577e+02	-7.85704e+01	-6.40695e+01	-1.57418e+02	-1.62015e+02	-9.27530e+01	-5.43537e+01	-1.71140e+02	-1.72811e+02	-1.83937e+02	-1.76769e+02	-8.70099e+01	-1.49549e+02	
Factor	3.59974e-05	1.57676e-04	5.33321e-05	1.56162e-01	1.60835e-06	2.14125e-06	1.73087e-01	5.61743e-02	1.99634e-06	1.80400e-06	9.22686e-02	3.72187e-02	3.89265e-02	9.91070e-03	1.84539e-06	1.43689e-02	3.91198e-06	4.30745e-06	1.20086e-06	7.79773e-02	4.62936e-08	4.73652e-08	8.15129e-02	2.80165e-02	4.65171e-08	4.73618e-08	4.47915e-02	1.80050e-02	1.94850e-02	4.98058e-03	4.68586e-08	6.99640e-03	X	X	X	X	X	X	X	X	X	X	X	X	X	X	X	X	



#DISTANCE SETTINGS
A = Detector Channel
A-1	A-2	A-3	A-4	A-5	A-6	A-7	A-8	A-9	A-10	A-11	A-12	A-13	A-14	A-15	A-16	

2.5000e+00	3.0000e+00	2.5000e+00	3.0000e+00	2.0000e+00	3.0000e+00	1.5000e+00	3.0000e+00	3.0000e+00	3.0000e+00	3.0000e+00	3.0000e+00	3.0000e+00	3.0000e+00	1.5000e+00	3.0000e+00	

B = Detector Channel
B-1	B-2	B-3	B-4	B-5	B-6	B-7	B-8	B-9	B-10	B-11	B-12	B-13	B-14	B-15	B-16	

1.0000e+01	1.0000e+01	1.0000e+01	1.4400e+00	1.0000e+01	1.0000e+01	1.5100e+00	1.9400e+00	1.0000e+01	1.0000e+01	1.9900e+00	2.4900e+00	2.4100e+00	2.9000e+00	1.0000e+01	2.9800e+00	




#DATA BEGINS
time	group	step	mark	flag	A-AC1	A-AC2	A-AC3	A-AC4	A-AC5	A-AC6	A-AC7	A-AC8	A-AC9	A-AC10	A-AC11	A-AC12	A-AC13	A-AC14	A-AC15	A-AC16	A-DC1	A-DC2	A-DC3	A-DC4	A-DC5	A-DC6	A-DC7	A-DC8	A-DC9	A-DC10	A-DC11	A-DC12	A-DC13	A-DC14	A-DC15	A-DC16	A-Ph1	A-Ph2	A-Ph3	A-Ph4	A-Ph5	A-Ph6	A-Ph7	A-Ph8	A-Ph9	A-Ph10	A-Ph11	A-Ph12	A-Ph13	A-Ph14	A-Ph15	A-Ph16	B-AC1	B-AC2	B-AC3	B-AC4	B-AC5	B-AC6	B-AC7	B-AC8	B-AC9	B-AC10	B-AC11	B-AC12	B-AC13	B-AC14	B-AC15	B-AC16	B-DC1	B-DC2	B-DC3	B-DC4	B-DC5	B-DC6	B-DC7	B-DC8	B-DC9	B-DC10	B-DC11	B-DC12	B-DC13	B-DC14	B-DC15	B-DC16	B-Ph1	B-Ph2	B-Ph3	B-Ph4	B-Ph5	B-Ph6	B-Ph7	B-Ph8	B-Ph9	B-Ph10	B-Ph11	B-Ph12	B-Ph13	B-Ph14	B-Ph15	B-Ph16	aux-1	digaux	

11325.531	1	1	0	256	0.3	0.13192	0.13159	0.25497	0.29646	0.16362	0.17815	0.1857	0.11686	0.13216	0.24376	0.08722	0.14368	0.26168	0.23405	0.10942	-4.0604	-4.875	-4.1687	-4.8521	-4.6021	-4.2854	-5.1104	-4.5	-4.4021	-4.7708	-4.3583	-4.6146	-4.8104	-4.2917	-4.8958	-4.6458	223.720	409.765	361.862	422.002	230.079	131.754	432.788	418.620	362.002	338.951	376.512	435.857	415.546	359.215	426.028	94.993	0.00087324	0.00053865	3.1709e-05	1343.1	4.0143e-06	4.7739e-06	1350.4	370.32	1.2359e-05	5.7918e-06	423.89	141.16	122.17	41.233	6.107e-06	51.699	0.0006856	0.00067071	0.00018455	1370.4	7.1833e-06	7.2231e-06	1375.6	378.05	7.1376e-06	7.1325e-06	434.15	144.38	125.58	42.745	7.0287e-06	53.338	114.159	203.623	333.609	91.658	217.060	318.415	91.362	96.237	215.516	251.826	95.600	99.943	100.651	105.304	199.749	104.357	-8191	255	
11325.627	1	1	0	0	0.21009	0.16934	0.26246	0.062623	0.02929	0.2439	0.19311	0.19385	0.32649	0.22443	0.035016	0.1471	0.048263	0.23436	0.12802	0.044096	-4.0687	-4.8396	-4.2583	-4.8333	-4.7063	-4.1625	-4.8792	-4.7583	-4.3333	-4.8917	-4.3979	-4.4667	-4.975	-4.3083	-4.6979	-4.6479	347.179	240.599	268.461	347.410	400.033	185.577	390.434	370.786	326.647	178.144	392.121	381.152	172.536	345.045	267.227	421.162	0.00089609	0.00056364	0.00011852	1332.5	5.6474e-06	6.819e-06	1334.1	367.98	8.0407e-06	7.3723e-06	422.18	139.87	122.02	41.193	5.431e-06	51.351	0.00065245	0.00062716	0.00017515	1361.5	6.8422e-06	6.9149e-06	1364.4	375.99	6.8522e-06	6.9367e-06	432.2	143.61	124.98	42.642	7.1569e-06	53.149	111.066	129.145	147.891	91.778	228.457	285.059	91.591	96.440	213.265	230.609	95.636	99.913	100.371	105.358	200.171	104.263	-8191	255	
11325.723	1	1	0	0	0.12316	0.26936	0.19698	0.26501	0.20944	0.12335	0.17834	0.27786	0.10351	0.20535	0.13585	0.067023	0.065809	0.15415	0.073859	0.12685	-3.8187	-4.7667	-4.4667	-4.6917	-4.7521	-4.0792	-4.8958	-4.675	-4.2458	-4.8313	-4.5292	-4.5167	-4.8812	-4.2562	-4.5229	-4.7	231.158	218.494	138.434	387.378	210.387	200.624	308.767	357.398	236.615	273.104	152.281	152.208	329.510	195.104	389.127	280.270	0.00096974	0.00068198	0.0001313	1331.5	4.3036e-06	3.5477e-06	1331.3	367.54	9.6211e-06	7.481e-06	421.79	140.64	121.68	41.334	4.3854e-06	51.609	0.00066628	0.00066424	0.00018356	1360.5	7.2688e-06	7.3801e-06	1363.9	376.8	7.4034e-06	7.5531e-06	433.45	143.98	124.95	42.826	7.5314e-06	53.416	113.352	156.885	218.240	91.678	259.849	205.088	91.487	96.234	194.316	227.422	95.545	100.086	100.835	105.156	202.679	104.322	-8191	255	
11325.819	1	1	0	0	0.042555	0.2185	0.18951	0.24116	0.037745	0.20318	0.32381	0.049665	0.11307	0.21217	0.060106	0.094123	0.095353	0.10633	0.05115	0.16642	-3.925	-4.65	-4.4708	-4.4792	-4.7667	-4.2896	-4.7021	-5.0375	-4.2083	-4.7167	-4.6021	-4.6083	-4.8438	-4.3146	-4.6396	-4.8354	153.572	237.223	258.829	357.403	332.744	435.735	407.603	315.016	351.448	205.752	246.269	148.098	362.039	112.516	412.969	427.483	0.00091895	0.0001657	8.6962e-05	1334.7	4.5405e-06	2.4776e-06	1342.5	368.87	6.2478e-06	9.117e-06	421.46	140.59	121.76	41.184	4.9753e-06	51.471	0.00068784	0.00068266	0.00018774	1364.7	7.3102e-06	7.3973e-06	1368	377.73	7.3498e-06	7.3594e-06	433.16	143.83	124.95	42.66	7.3365e-06	53.294	109.113	182.935	163.427	91.639	250.718	295.124	91.629	96.355	227.718	257.192	95.560	100.159	100.519	105.372	205.304	104.214	-8191	255	
11325.916	1	1	0	0	0.056585	0.10466	0.10415	0.32698	0.28599	0.14304	0.12954	0.16628	0.15291	0.1102	0.15272	0.21388	0.11144	0.14023	0.046808	0.1506	-4.0521	-4.6917	-4.6229	-4.425	-4.8187	-4.4104	-4.6354	-4.8438	-4.3042	-4.4875	-4.6708	-4.4271	-4.8958	-4.3812	-4.3646	-4.8313	357.935	127.468	280.044	433.532	184.696	353.643	384.631	118.881	206.463	216.275	107.825	222.932	96.308	85.893	171.403	397.120	0.00088092	0.00036106	0.00021065	1332.1	7.5116e-06	5.1779e-06	1341.4	366.9	9.9395e-06	4.5852e-06	421.11	140.44	121.85	41.243	6.4701e-06	51.16	0.00067015	0.00066495	0.00018322	1361.6	7.0776e-06	7.1004e-06	1365.1	375.65	6.9565e-06	7.0091e-06	431.78	143.44	124.72	42.581	6.9719e-06	53.031	113.896	164.719	163.904	91.703	225.022	245.460	91.630	96.351	242.123	258.289	95.652	99.986	100.643	105.165	223.261	104.386	-8191	255	
11326.012	1	1	0	0	0.057101	0.17409	0.077164	0.15421	0.35628	0.18501	0.09725	0.28009	0.036962	0.16413	0.19791	0.092657	0.11567	0.12588	0.16114	0.033132	-3.8625	-4.5938	-4.5875	-4.5312	-4.8646	-4.4437	-4.4875	-5.0208	-4.125	-4.5854	-4.9042	-4.2646	-4.7917	-4.5896	-4.2688	-4.8313	329.941	377.731	195.748	123.674	92.891	271.529	408.662	390.355	322.487	124.732	437.869	148.023	377.254	83.940	340.029	379.855	0.00097197	0.00031789	0.00024605	1329.7	6.1676e-06	5.2584e-06	1339.8	367.42	1.0765e-05	2.4303e-06	419.71	140.52	121.64	41.139	1.0086e-05	51.171	0.00065722	0.00064003	0.00017704	1358.4	7.0522e-06	6.9999e-06	1363.9	376.07	7.04e-06	7.1926e-06	431.72	143.5	124.8	42.507	7.1019e-06	53.074	113.515	212.601	197.582	91.560	210.829	273.594	91.446	96.379	204.735	186.522	96.005	100.045	100.544	105.098	202.199	104.220	-8191	255	
11326.108	1	1	0	0	0.15124	0.20333	0.0076886	0.13927	0.17681	0.14988	0.16449	0.21864	0.024916	0.050586	0.13286	0.28162	0.34407	0.28444	0.079062	0.060094	-3.7	-4.5604	-4.7188	-4.5229	-4.6813	-4.5188	-4.525	-5.0396	-4.2458	-4.5312	-4.8375	-4.1937	-4.775	-4.5542	-4.2417	-4.9021	371.318	414.916	265.815	436.438	160.539	99.732	420.769	350.974	405.450	357.453	145.532	422.038	149.020	425.233	124.073	417.027	0.00084578	0.00052337	0.0001028	1332.4	5.3661e-06	1.0189e-05	1337.8	367.75	8.5271e-06	2.6487e-06	421.47	139.32	121.41	40.961	5.5494e-06	51.301	0.00065215	0.00064461	0.00017649	1359.4	7.0348e-06	6.9304e-06	1364.3	375.81	6.9746e-06	7.0173e-06	431.7	143.16	124.52	42.454	6.9419e-06	53.098	114.804	175.139	130.440	91.814	204.184	192.902	91.574	96.304	204.064	274.582	95.702	100.068	100.771	105.471	232.658	104.220	-8191	255	
11326.228	1	1	0	0	0.085615	0.15179	0.15817	0.25345	0.16728	0.10173	0.38846	0.085737	0.087723	0.17599	0.031466	0.20876	0.039208	0.047462	0.093034	0.14987	-4.0417	-4.55	-4.6375	-4.2833	-4.6312	-4.5792	-4.4917	-4.9062	-4.4313	-4.2604	-4.8167	-4.1896	-4.5979	-4.7333	-4.0833	-4.9167	145.573	294.354	260.933	392.100	240.347	269.446	375.085	261.865	373.170	373.897	279.510	103.357	355.508	80.507	139.710	367.705	0.0010241	0.00045069	0.00013121	1329.1	2.5891e-06	3.4407e-06	1337.3	367.89	4.378e-06	5.7879e-06	419.29	140	121.87	40.938	4.8447e-06	51.188	0.00065575	0.00064299	0.00017784	1356.4	7.0567e-06	6.9652e-06	1364.1	375.67	7.1034e-06	7.1256e-06	430.88	143.41	124.76	42.444	7.103e-06	53.041	112.204	151.947	159.792	91.658	249.658	218.405	91.502	96.209	208.056	220.423	95.470	100.218	100.597	105.110	220.798	104.342	-8191	255	
11326.325	1	1	0	0	0.025132	0.15974	0.11799	0.061565	0.13696	0.12814	0.16257	0.20207	0.18017	0.14448	0.12173	0.10919	0.14798	0.1677	0.27918	0.15214	-4.0646	-4.3292	-4.8646	-4.3187	-4.5542	-4.6125	-4.3354	-4.8625	-4.5042	-4.275	-5.0687	-4.4	-4.6417	-4.7333	-4.0292	-4.7604	134.854	118.412	404.143	406.276	142.874	152.930	433.470	90.900	253.064	292.382	332.748	125.853	406.070	240.912	284.864	339.581	0.00090448	0.00043848	0.00013698	1329.3	6.6197e-06	4.48e-06	1338.5	367.4	9.2833e-06	5.4957e-06	421.15	139.67	121.91	41.037	4.0004e-06	51.231	0.00066946	0.00065785	0.00018288	1360.4	7.2336e-06	7.1599e-06	1366.8	376.34	7.1714e-06	7.2287e-06	432.24	143.16	125.02	42.598	7.3726e-06	53.179	117.975	174.286	156.216	91.591	267.149	253.625	91.401	96.308	224.059	276.266	95.662	100.052	100.458	105.210	168.015	104.306	-8191	255	
11326.421	1	1	0	0	0.05081	0.036886	0.21525	0.25179	0.11613	0.22496	0.28667	0.15288	0.1641	0.07619	0.090877	0.13921	0.16384	0.38406	0.148	0.15297	-4.2354	-4.1375	-4.7312	-4.4313	-4.5333	-4.6604	-4.4	-4.8833	-4.5417	-4.2104	-4.8854	-4.4437	-4.5208	-4.9583	-4.2646	-4.7083	95.183	212.349	435.743	388.173	114.335	391.333	345.194	97.164	223.756	216.803	412.793	215.651	87.562	430.929	392.088	181.495	0.00096475	0.00021087	0.00027248	1334.8	6.275e-06	4.5459e-06	1342.1	367.44	8.217e-06	2.7822e-06	422.08	139.72	121.97	41.181	4.9231e-06	51.14	0.0006781	0.00067701	0.00018861	1364.1	7.2661e-06	7.3329e-06	1369.2	376.52	7.2419e-06	7.2348e-06	432.8	143.69	124.99	42.654	7.3763e-06	53.117	110.216	178.233	143.825	91.633	211.894	236.226	91.445	96.225	222.026	250.821	95.618	100.127	100.619	105.205	258.579	104.306	-8191	255	
11326.517	1	1	0	0	0.11671	0.17101	0.052072	0.36026	0.15953	0.17136	0.24521	0.23636	0.24652	0.19884	0.0096541	0.18875	0.15829	0.19256	0.16824	0.19058	-4.3333	-4.1667	-4.6792	-4.4313	-4.3187	-4.6896	-4.1729	-4.7271	-4.6792	-4.2292	-4.7521	-4.5167	-4.3833	-4.8021	-4.2604	-4.4833	169.525	153.352	395.573	349.614	135.717	121.393	406.330	345.874	204.185	410.518	356.621	429.570	418.617	164.260	311.029	368.906	0.00084654	0.00022557	0.00010877	1335.2	5.7235e-06	4.7111e-06	1343.2	367.74	7.8199e-06	2.2397e-06	420.89	140.58	121.85	40.855	3.8333e-06	51.241	0.00067961	0.00066957	0.00018559	1363.9	7.2974e-06	7.1844e-06	1368.1	376.37	7.2258e-06	7.1435e-06	431.9	143.35	124.99	42.492	7.1665e-06	53.058	112.404	198.777	145.657	91.801	239.764	259.888	91.487	96.333	225.756	299.552	95.900	100.090	100.536	105.337	197.541	104.409	-8191	255	
11326.611	1	1	0	0	0.18049	0.32684	0.04352	0.3297	0.27948	0.032001	0.25142	0.25691	0.041868	0.18448	0.045061	0.21417	0.23288	0.36654	0.13961	0.26119	-4.1708	-4.0271	-4.7771	-4.6479	-4.1937	-4.8208	-4.4729	-4.5437	-4.6396	-4.2188	-4.9187	-4.5875	-4.3604	-4.8833	-4.2688	-4.375	202.901	365.646	194.708	365.758	262.169	394.978	368.109	408.863	268.230	429.769	307.244	368.571	366.313	373.040	344.432	385.145	0.00090715	0.00024812	0.00016138	1335.5	9.991e-06	7.3187e-06	1339	368.59	6.5172e-06	5.0233e-06	419.56	139.61	121.68	40.922	8.3641e-06	51.357	0.00066334	0.00065585	0.00018307	1364.4	7.1781e-06	7.2335e-06	1367.6	376.46	7.2674e-06	7.2517e-06	432.41	143.2	124.87	42.587	7.28e-06	53.17	111.232	147.091	188.208	91.901	193.902	191.070	91.424	96.302	224.384	219.000	95.616	100.081	100.670	105.221	217.112	104.519	-8191	255	
11326.707	1	1	0	0	0.19536	0.064594	0.10729	0.27457	0.072429	0.08138	0.096933	0.16219	0.17239	0.15278	0.11474	0.045272	0.17741	0.17225	0.22102	0.14903	-4.3167	-4.175	-4.6188	-4.7521	-4.2604	-4.8375	-4.5062	-4.5729	-4.6813	-4.1792	-4.6896	-4.65	-4.2458	-4.8521	-4.3729	-4.3854	424.918	174.049	249.923	416.002	281.980	412.451	352.171	433.123	179.896	256.885	283.522	159.146	139.305	85.486	152.503	344.764	0.00080496	0.00022656	0.00011687	1331.9	6.2773e-06	4.9592e-06	1340.1	367.71	7.5853e-06	3.6541e-06	421.15	139.41	121.22	40.967	1.1816e-05	51.234	0.00067694	0.00065761	0.00018564	1363.7	7.2367e-06	7.1826e-06	1367.6	376.23	7.1266e-06	7.1143e-06	432.16	143.17	124.6	42.466	7.0388e-06	53.029	113.524	161.990	233.860	91.756	215.268	215.387	91.499	96.177	210.121	254.985	95.808	100.036	100.706	105.331	200.204	104.378	-8191	255	
11326.828	1	1	0	0	0.09219	0.31594	0.10836	0.20248	0.10766	0.14853	0.30334	0.0078022	0.31321	0.13358	0.064654	0.22181	0.10648	0.13234	0.24351	0.35173	-4.4146	-4.1438	-4.6083	-4.8458	-4.1542	-4.7229	-4.7438	-4.4208	-4.8125	-4.45	-4.7417	-4.7271	-4.1729	-4.7479	-4.5312	-4.3646	153.498	424.409	235.677	86.129	79.478	186.986	374.902	391.175	173.874	196.389	238.402	414.559	209.760	321.051	113.110	304.049	0.000851	0.00040094	9.8911e-05	1334.1	3.7454e-06	1.1498e-05	1342.5	367.5	9.8544e-06	2.4649e-06	420.73	139.69	121.13	40.919	8.8433e-06	51.247	0.00065741	0.00063928	0.0001796	1362.2	7.0269e-06	7.09e-06	1367.6	376.03	7.1692e-06	7.1244e-06	432.06	143.29	124.65	42.472	7.0986e-06	53.026	105.164	160.833	162.845	91.802	266.179	212.622	91.335	96.364	223.001	240.854	95.662	99.812	100.739	105.007	217.327	104.467	-8191	255	
11326.924	1	1	0	0	0.087098	0.10374	0.10883	0.12192	0.1302	0.042967	0.2799	0.16412	0.23277	0.16347	0.11868	0.21005	0.13656	0.11671	0.20729	0.21457	-4.4792	-4.3271	-4.5771	-4.8375	-4.1562	-4.7896	-4.6438	-4.2646	-4.9229	-4.4021	-4.6458	-4.7688	-4.1937	-4.6292	-4.4125	-4.3917	431.209	129.092	244.998	406.759	319.551	294.028	355.620	305.859	179.976	392.721	360.009	127.202	435.772	328.950	301.385	370.212	0.00092045	0.00068391	0.00013985	1333.9	9.4196e-06	6.2205e-06	1337.3	368.21	1.0041e-05	1.0474e-05	420.13	139.91	121.3	40.906	7.4145e-06	51.287	0.00066526	0.00064554	0.00018011	1362.2	7.0756e-06	7.2353e-06	1364.7	375.72	7.0652e-06	7.0713e-06	431.63	143.25	124.48	42.415	7.0552e-06	52.984	113.279	188.764	148.736	91.684	204.807	221.890	91.493	96.392	230.462	234.335	95.655	99.924	100.793	105.388	203.040	104.616	-8191	255	
11326.996	1	1	0	0	0.18388	0.2663	0.033389	0.11155	0.29622	0.094091	0.058663	0.046658	0.1323	0.21754	0.13034	0.11258	0.33763	0.1539	0.078789	0.10471	-4.3854	-4.1958	-4.3396	-4.8479	-4.1792	-4.5437	-4.8271	-4.3021	-4.8458	-4.4167	-4.4458	-4.7854	-4.2812	-4.5625	-4.7708	-4.2625	436.008	108.833	102.938	418.029	258.671	238.614	119.890	224.328	113.144	162.232	395.624	264.652	251.554	404.462	248.271	174.899	0.00092644	0.00075071	0.00022245	1333.3	5.9196e-06	6.8745e-06	1336.5	367.47	1.2019e-05	4.2714e-06	419	139.52	121.03	40.986	5.7187e-06	51.247	0.00065487	0.00062646	0.0001774	1360.5	6.7207e-06	6.8129e-06	1363	375.39	6.7357e-06	6.588e-06	430.73	142.87	124.06	42.378	6.4552e-06	52.839	111.454	164.507	189.805	91.733	207.069	218.911	91.445	96.113	221.449	224.808	95.752	100.035	100.646	105.088	202.520	104.048	-8191	255	
11327.092	1	1	0	0	0.10798	0.11167	0.21556	0.23221	0.16384	0.082471	0.17074	0.08787	0.17286	0.23051	0.17281	0.043519	0.17276	0.18429	0.28853	0.12502	-4.4375	-4.2875	-4.1813	-4.9417	-4.1792	-4.5792	-4.8042	-4.375	-4.5875	-4.3917	-4.2937	-4.9875	-4.3812	-4.5167	-4.6979	-4.3729	216.749	264.352	368.614	351.168	303.389	361.329	382.631	362.315	413.660	420.743	120.832	206.924	362.612	370.738	330.121	379.527	0.00091197	0.00056702	0.00018377	1331.6	4.2753e-06	1.8112e-06	1338.7	366.48	5.8697e-06	3.0023e-06	417.81	139.59	120.69	40.928	6.8736e-06	50.887	0.000605	0.00058453	0.00016286	1357.6	6.2993e-06	6.3092e-06	1362.8	374.59	6.5038e-06	6.3949e-06	430.23	142.9	123.99	42.339	6.5042e-06	52.761	119.520	136.451	163.014	91.634	205.861	244.115	91.602	96.378	215.486	232.388	95.731	100.173	100.675	105.380	230.334	104.451	-8191	255	
11327.188	1	1	0	0	0.088662	0.063706	0.12758	0.07582	0.092197	0.08709	0.092761	0.37612	0.29336	0.1313	0.14057	0.12779	0.1375	0.10654	0.046103	0.15021	-4.4	-4.4833	-4.2333	-4.9375	-4.3917	-4.4854	-4.8521	-4.2854	-4.6208	-4.6125	-4.2479	-4.8667	-4.4417	-4.4563	-4.6708	-4.3771	419.309	436.326	410.698	214.716	305.176	395.109	434.729	423.233	169.055	437.056	363.725	411.417	83.850	118.740	369.348	432.822	0.00089301	0.00060112	0.00021861	1327.1	9.3242e-06	5.2565e-06	1334.4	366.84	6.7433e-06	3.414e-06	420.57	139	121.29	40.935	7.1138e-06	50.947	0.00061051	0.00059253	0.00016384	1355.9	6.3735e-06	6.3438e-06	1359.5	374.53	6.3575e-06	6.2737e-06	429.8	142.37	123.73	42.257	6.1105e-06	52.698	113.338	179.270	135.435	91.744	221.597	242.906	91.384	96.421	212.559	203.202	95.797	100.117	100.857	105.259	241.981	104.403	-8191	255	
11327.309	1	1	0	0	0.12545	0.14315	0.091368	0.14235	0.27345	0.11891	0.3192	0.35069	0.090618	0.22136	0.092288	0.021017	0.15142	0.063906	0.081453	0.16755	-4.2458	-4.5167	-4.2021	-4.9375	-4.4187	-4.2729	-4.9729	-4.3604	-4.4542	-4.6479	-4.3063	-4.9167	-4.5396	-4.3708	-4.825	-4.2375	269.868	198.536	386.731	409.914	231.083	223.887	340.194	360.541	335.077	394.227	359.046	437.552	363.493	399.636	169.410	385.213	0.00092623	0.00067701	0.00023921	1328.8	4.3363e-06	3.6193e-06	1331.3	364.44	1.289e-05	4.9873e-06	417.86	139.14	120.66	40.96	6.2663e-06	50.903	0.00057976	0.00055105	0.00015386	1353.1	6.004e-06	6.0053e-06	1354.7	372.88	5.9156e-06	5.9495e-06	427.68	142.14	123.29	42.165	5.9678e-06	52.525	110.009	187.266	202.773	91.641	205.589	194.968	91.637	96.233	200.530	256.279	95.764	99.954	100.607	105.360	238.265	104.362	-8191	255	
11327.405	1	1	0	0	0.051401	0.10287	0.078334	0.20301	0.053751	0.055728	0.15584	0.058824	0.15453	0.042128	0.25736	0.11423	0.33938	0.036342	0.13492	0.050158	-4.3354	-4.7333	-3.9729	-4.7812	-4.5271	-4.175	-4.9417	-4.4896	-4.4875	-4.7583	-4.1625	-4.7438	-4.4854	-4.3438	-4.6354	-4.3292	360.586	210.148	155.442	376.021	312.553	379.034	375.210	216.082	358.495	190.927	398.249	376.938	86.398	284.414	234.740	200.685	0.00095289	0.00038275	8.1475e-05	1320.5	4.0195e-06	5.3003e-06	1323	363.38	6.3112e-06	4.1776e-06	417.2	139.06	120.11	40.606	4.4911e-06	50.97	0.00056345	0.00054308	0.00015092	1346.7	5.88e-06	5.9273e-06	1350.8	372.17	5.9155e-06	5.8936e-06	427.34	141.71	123.05	41.959	6.0005e-06	52.407	112.914	176.173	103.616	91.810	225.422	248.361	91.475	96.140	205.886	213.714	95.958	100.272	100.678	105.333	210.708	104.375	-8191	255	
11327.501	1	1	0	0	0.24813	0.16135	0.11007	0.052274	0.094501	0.068589	0.083373	0.14935	0.041365	0.11423	0.14735	0.058706	0.026865	0.083985	0.051557	0.20046	-4.0396	-4.6687	-4.15	-4.9354	-4.6729	-4.175	-4.8729	-4.5437	-4.2542	-4.7417	-4.3792	-4.5979	-4.6917	-4.3229	-4.6312	-4.5896	95.495	224.869	371.960	95.493	270.541	261.431	324.044	361.524	176.767	225.614	387.034	124.683	369.470	231.973	392.941	134.589	0.00088748	0.00046989	0.000217	1321	6.1147e-06	5.8195e-06	1330.8	363.45	7.86e-06	7.1013e-06	416.47	138.65	120.61	40.695	4.898e-06	51.064	0.00056937	0.00054445	0.00015219	1346.4	6.0405e-06	5.9832e-06	1352	371.3	6.1709e-06	6.1686e-06	426.84	141.8	123.35	42.068	6.3706e-06	52.539	114.480	180.934	165.271	91.734	234.359	250.996	91.368	96.489	202.523	237.006	95.813	100.233	100.505	105.325	163.643	104.349	-8191	255	
11327.620	1	1	0	0	0.081021	0.13439	0.21978	0.14587	0.21493	0.066791	0.33844	0.21315	0.16152	0.13218	0.052335	0.13929	0.33984	0.050007	0.090251	0.21424	-4.0437	-4.8479	-4.1958	-4.7896	-4.7708	-4.4396	-4.8938	-4.6875	-4.2688	-4.8187	-4.45	-4.6354	-4.6667	-4.3292	-4.6458	-4.6521	249.017	170.367	325.477	390.861	376.798	210.218	358.552	296.602	152.289	435.565	396.079	272.330	342.822	433.327	150.583	92.436	0.00078711	0.00073386	0.0001672	1314.8	6.4732e-06	5.5452e-06	1326.6	364.21	8.5805e-06	1.055e-05	417.67	138.72	120.58	40.517	5.8918e-06	50.826	0.00059456	0.00057444	0.00016027	1345.9	6.34e-06	6.3511e-06	1351.7	372.48	6.4139e-06	6.3336e-06	427.72	141.75	123.34	41.942	6.3682e-06	52.549	116.601	169.200	186.656	91.853	238.231	232.488	91.369	96.381	223.825	238.540	95.788	100.042	100.551	105.298	261.329	104.453	-8191	255	
11327.692	1	1	0	0	0.067087	0.11416	0.19975	0.23549	0.14124	0.067563	0.14826	0.057136	0.10508	0.15873	0.10997	0.19793	0.24571	0.042655	0.18646	0.17574	-4.0208	-4.6729	-4.2646	-4.7625	-4.7292	-4.3729	-4.7688	-4.7667	-4.2396	-4.825	-4.5687	-4.375	-4.8625	-4.2562	-4.4604	-4.6792	146.172	390.628	106.494	356.456	286.547	335.706	327.229	235.461	254.651	129.624	340.417	433.581	360.120	180.435	346.414	287.819	0.00090279	0.00057147	0.00016278	1320.6	8.4806e-06	7.7152e-06	1324.5	364.43	7.2209e-06	2.3935e-06	416.65	138.4	120.85	40.449	3.6866e-06	50.754	0.0005976	0.00057073	0.00015883	1346.5	6.3456e-06	6.1788e-06	1351.3	372.37	6.2501e-06	6.2406e-06	427.52	141.42	123.25	41.921	6.2308e-06	52.452	109.792	159.543	172.825	91.837	211.838	227.042	91.634	96.344	201.942	239.629	95.909	100.452	100.663	105.139	233.620	104.440	-8191	255	
11327.790	1	1	0	0	0.049558	0.20137	0.095621	0.24337	0.099459	0.393	0.14905	0.20744	0.34028	0.068946	0.26528	0.34987	0.23014	0.12325	0.11161	0.15735	-3.7938	-4.6833	-4.4271	-4.5167	-4.8292	-4.3187	-4.6583	-4.7104	-4.3	-4.6083	-4.6958	-4.3479	-4.9375	-4.3646	-4.4729	-4.6687	350.203	78.773	338.469	97.022	159.110	102.309	323.683	87.921	204.414	99.084	382.831	392.110	410.227	83.858	337.855	356.945	0.00090397	0.00037248	0.00029807	1318.8	4.9011e-06	4.8252e-06	1331.5	363.86	9.0757e-06	3.8486e-06	418.52	139.66	120.26	40.638	6.2555e-06	50.58	0.0005893	0.00057539	0.00015969	1345.5	6.277e-06	6.3013e-06	1353.5	372.16	6.4093e-06	6.3274e-06	428.09	142.19	123.29	41.976	6.343e-06	52.446	112.568	186.426	186.703	91.762	212.077	222.195	91.545	96.254	244.264	241.733	95.605	99.969	100.500	105.433	218.398	104.390	-8191	255	
11327.908	1	1	0	0	0.19537	0.16745	0.2578	0.18242	0.10665	0.21986	0.12485	0.10464	0.20629	0.27457	0.23359	0.18719	0.1939	0.20619	0.32433	0.11871	-3.9271	-4.7729	-4.4625	-4.4333	-4.7875	-4.3292	-4.6646	-4.7854	-4.0417	-4.7458	-4.7146	-4.1958	-4.9479	-4.4646	-4.3958	-4.8042	370.646	197.021	146.533	137.287	402.757	192.236	323.320	386.541	114.024	119.748	371.806	374.914	86.118	102.637	147.971	400.936	0.0008775	0.00057123	0.00019917	1321.9	4.2214e-06	6.4261e-06	1327.8	364.28	7.0009e-06	2.0963e-06	417.95	138.88	120.69	40.558	5.9422e-06	50.664	0.00059503	0.00057644	0.00015983	1348.2	6.3357e-06	6.2432e-06	1352.2	372.56	6.2242e-06	6.3373e-06	428.02	141.76	123.3	41.922	6.2703e-06	52.431	113.318	116.269	162.896	91.733	218.502	270.925	91.571	96.320	228.953	275.146	95.728	100.043	100.716	105.429	210.658	104.232	-8191	255	
11328.005	1	1	0	0	0.17669	0.17522	0.068492	0.10887	0.15041	0.1567	0.22726	0.32669	0.26526	0.074123	0.11325	0.1657	0.079871	0.03998	0.064115	0.11332	-3.7583	-4.6625	-4.6646	-4.275	-4.8604	-4.3938	-4.55	-4.8979	-4.1479	-4.6312	-4.8625	-4.2375	-4.925	-4.5292	-4.2188	-4.9187	260.915	139.594	172.586	422.300	96.953	158.106	384.350	371.641	323.018	173.830	402.731	311.143	384.044	290.887	126.298	138.158	0.00095963	0.00054063	0.00015146	1318.7	5.9607e-06	2.7785e-06	1323.4	363.29	6.5772e-06	3.1224e-06	417.97	138.56	119.5	40.616	6.68e-06	50.461	0.0005863	0.00057719	0.00015825	1345.4	6.2617e-06	6.1501e-06	1348.9	371.69	6.1545e-06	6.1935e-06	427.59	141.39	122.89	41.946	6.1241e-06	52.304	112.802	132.428	183.603	91.726	209.463	167.663	91.431	96.306	199.271	267.659	95.793	100.178	100.628	105.378	222.218	104.648	-8191	255	
11328.101	1	1	0	0	0.13791	0.12152	0.085605	0.29856	0.031758	0.20574	0.31861	0.19549	0.26483	0.20704	0.24075	0.18281	0.24224	0.29289	0.074914	0.20334	-3.9521	-4.6062	-4.5708	-4.3458	-4.8021	-4.4313	-4.4792	-4.8479	-4.1917	-4.4333	-5.0521	-4.3229	-4.8896	-4.6292	-4.2458	-5.0354	245.762	347.037	432.138	407.192	406.342	171.054	404.068	325.268	290.705	196.663	325.730	407.060	371.116	379.751	145.576	317.113	0.00094723	0.00068357	0.00024967	1317.5	2.9878e-06	7.9557e-06	1323.4	363.71	7.4654e-06	3.9965e-06	416.62	138.23	120.06	40.663	5.4671e-06	50.612	0.00057672	0.00055675	0.000152	1344.7	6.0779e-06	6.1241e-06	1349.9	371.72	6.1421e-06	6.1414e-06	427.23	141.4	122.98	41.969	6.1519e-06	52.283	115.083	183.946	178.871	91.702	187.243	244.430	91.369	96.359	202.139	218.028	95.559	100.140	100.717	105.359	224.643	104.333	-8191	255	
11328.221	1	1	0	0	0.020642	0.3061	0.076527	0.25673	0.14807	0.043617	0.34244	0.15161	0.10777	0.077418	0.32426	0.072363	0.11228	0.23007	0.1383	0.24055	-4.05	-4.5583	-4.7271	-4.3229	-4.6833	-4.5479	-4.4688	-4.9	-4.4208	-4.3604	-4.8875	-4.4042	-4.7063	-4.7542	-4.1875	-5.0125	146.706	255.138	407.678	416.058	91.770	341.007	373.844	408.620	188.695	280.066	305.745	205.899	354.476	82.955	156.727	312.696	0.00090969	0.00084712	0.00027177	1316.4	4.2116e-06	5.9764e-06	1327.7	362.77	3.3789e-06	5.5937e-06	415.62	138.4	120.16	40.381	6.1148e-06	50.847	0.00057528	0.0005505	0.00015411	1344.1	6.0537e-06	6.0164e-06	1349.6	371.88	6.0148e-06	6.0636e-06	426.79	141.4	123.13	41.875	6.0284e-06	52.399	115.028	180.671	162.272	91.686	213.620	184.250	91.452	96.352	193.855	249.269	95.658	100.029	100.536	105.312	187.063	104.623	-8191	255	
11328.293	1	1	0	0	0.19752	0.0054162	0.13467	0.20949	0.053977	0.049688	0.12571	0.1359	0.23097	0.15916	0.087072	0.1618	0.062096	0.16367	0.12221	0.092148	-3.8667	-4.2438	-4.7271	-4.4417	-4.5667	-4.5042	-4.225	-4.8083	-4.4125	-4.3396	-4.9854	-4.4062	-4.6188	-4.6667	-4.2292	-4.8521	314.361	123.291	272.897	406.819	92.000	180.710	402.314	424.888	423.175	284.695	388.750	85.622	104.999	391.178	281.104	360.334	0.00091643	0.00067354	3.7384e-05	1318	3.644e-06	1.0169e-05	1327.3	363.6	8.7564e-06	4.9032e-06	415.95	138.78	120.27	40.532	8.4974e-06	50.765	0.0005721	0.00055545	0.00015175	1345.4	5.931e-06	5.9051e-06	1350.5	371.63	5.9362e-06	5.8876e-06	425.5	141.26	123	41.818	5.8778e-06	52.369	114.990	167.411	310.407	91.632	212.056	199.359	91.526	96.295	205.426	252.047	95.853	100.157	100.878	105.316	231.149	104.391	-8191	255	
11328.389	1	1	0	0	0.063442	0.074861	0.11556	0.17436	0.12782	0.15466	0.21339	0.023042	0.32355	0.22696	0.25336	0.23179	0.084456	0.10219	0.25208	0.08948	-4.2417	-4.2125	-4.7667	-4.4458	-4.5458	-4.8479	-4.1979	-4.6833	-4.5	-4.2896	-4.8292	-4.3688	-4.4479	-4.8729	-4.2562	-4.7208	229.417	423.055	82.890	400.399	138.302	90.618	107.592	423.962	357.104	303.069	397.246	125.194	276.678	425.116	214.045	339.021	0.00086834	0.00034835	0.00012666	1318.5	3.7062e-06	2.1165e-07	1323.5	363.6	4.0501e-06	5.0009e-06	416.59	138.14	120.59	40.509	9.0174e-06	50.767	0.00055798	0.0005299	0.00014922	1342.4	5.7881e-06	5.8151e-06	1347.8	371.23	5.9252e-06	5.904e-06	425.94	141.25	122.87	41.885	5.8297e-06	52.213	114.939	143.068	221.096	91.597	201.825	346.948	91.429	96.299	188.607	251.501	95.727	100.232	100.706	105.400	199.740	104.498	-8191	255	
11328.485	1	1	0	0	0.13318	0.26073	0.1022	0.24201	0.24833	0.12352	0.37268	0.24221	0.075162	0.27243	0.20195	0.23514	0.15988	0.2489	0.11761	0.035366	-4.2063	-4.1646	-4.7625	-4.5729	-4.3688	-4.8229	-4.5229	-4.7063	-4.5833	-4.1875	-5.0021	-4.375	-4.3771	-4.7937	-4.2208	-4.6042	211.861	383.769	431.270	392.141	416.800	90.137	397.192	101.151	126.134	382.627	372.623	95.668	104.923	414.680	169.242	237.461	0.00088756	0.00053434	0.00019333	1317	6.974e-06	7.7022e-06	1323	363.39	9.2409e-06	3.7832e-06	415.39	138.72	120.62	40.601	5.9282e-06	50.757	0.00055013	0.00053116	0.00014897	1342.5	5.8394e-06	5.8308e-06	1347.6	371.55	5.9045e-06	5.8823e-06	425.68	141.22	123.12	41.912	5.8401e-06	52.279	113.163	145.809	193.553	91.640	227.611	223.530	91.442	96.261	196.248	260.463	95.825	100.072	100.698	105.243	226.328	104.347	-8191	255	
11328.604	1	1	0	0	0.16511	0.1326	0.14637	0.27163	0.096101	0.08438	0.18914	0.29197	0.21958	0.0393	0.17013	0.22234	0.015616	0.32259	0.05851	0.081542	-4.3833	-4.2042	-4.6646	-4.6708	-4.225	-4.85	-4.5271	-4.5437	-4.7104	-4.1583	-4.9521	-4.6042	-4.1917	-4.9938	-4.2854	-4.5208	364.887	385.478	164.204	413.704	416.927	202.932	356.333	371.363	134.251	297.378	247.633	366.565	396.382	403.954	266.596	417.658	0.0008604	0.00056545	0.00010514	1316.5	3.3241e-06	3.0981e-06	1322.4	362.19	7.1215e-06	3.6955e-06	414.11	138.54	120.14	40.434	4.423e-06	50.631	0.00055474	0.00053695	0.00014894	1343.2	5.8076e-06	5.791e-06	1347.8	370.96	5.778e-06	5.8295e-06	425.86	141.33	122.9	41.899	5.7847e-06	52.271	109.427	131.552	184.681	91.814	219.726	304.071	91.471	96.378	210.641	244.362	95.701	100.170	100.845	105.296	236.756	104.317	-8191	255	
11328.700	1	1	0	0	0.10937	0.039517	0.13391	0.3012	0.15222	0.16195	0.32884	0.31695	0.1385	0.28452	0.26865	0.16894	0.18492	0.13903	0.16786	0.053481	-4.4313	-4.2104	-4.7792	-4.8146	-4.3438	-4.7875	-4.5854	-4.4896	-4.7771	-4.2854	-4.8021	-4.5563	-4.1188	-4.9167	-4.4083	-4.4875	289.564	320.051	333.068	330.702	426.791	387.094	392.914	373.534	420.012	259.590	383.623	287.424	110.476	370.071	101.680	200.733	0.00080531	0.00053938	0.00010044	1318.1	6.3043e-06	7.4293e-06	1322.4	363.56	4.6991e-06	6.7125e-06	416.03	137.98	119.98	40.537	6.3254e-06	50.638	0.00054892	0.00052876	0.00014791	1344.1	5.7911e-06	5.859e-06	1348.9	371.19	5.7695e-06	5.7177e-06	425.99	141.24	122.73	41.888	5.7108e-06	52.261	114.486	137.434	172.585	91.584	214.520	182.703	91.369	96.298	165.826	239.345	95.853	99.874	100.719	105.113	192.031	104.535	-8191	255	
11328.797	1	1	0	0	0.24416	0.30872	0.083429	0.32367	0.15775	0.068181	0.34162	0.043879	0.054556	0.15148	0.15031	0.19265	0.29996	0.038863	0.19415	0.17607	-4.2688	-4.1813	-4.5604	-4.9	-4.1604	-4.9771	-4.5583	-4.6125	-4.7875	-4.2042	-4.7792	-4.6958	-4.1083	-4.8875	-4.525	-4.3667	336.469	342.782	311.377	427.733	433.948	181.227	334.814	352.315	303.508	149.029	102.319	105.973	430.561	341.280	185.808	267.310	0.00081775	0.0005545	8.9957e-05	1316.6	7.8255e-06	2.1381e-06	1326.1	365.23	9.8407e-06	4.7613e-06	415.13	138.07	120.18	40.624	5.6985e-06	50.765	0.00055046	0.00052837	0.00014602	1343.9	5.7337e-06	5.7923e-06	1349.3	371.68	5.7318e-06	5.6617e-06	426.14	141.28	122.82	41.913	5.7261e-06	52.295	115.295	174.141	199.607	91.758	204.212	268.004	91.547	96.470	192.800	242.040	95.597	99.865	100.794	105.414	229.846	104.173	-8191	255	
11328.893	1	1	0	0	0.16261	0.1109	0.17782	0.28984	0.18445	0.044159	0.079209	0.1126	0.16137	0.25397	0.12591	0.35392	0.11518	0.083884	0.25381	0.095793	-4.5417	-4.2792	-4.4479	-5.0188	-4.1229	-4.7146	-4.7104	-4.3833	-4.7688	-4.4021	-4.4812	-4.7458	-4.0875	-4.6521	-4.4875	-4.3729	256.970	170.392	309.273	433.814	220.061	80.616	285.101	303.028	234.697	113.618	390.993	425.472	204.966	218.407	135.428	385.625	0.0009061	0.00035816	0.00010542	1316.2	5.3074e-06	6.7148e-06	1325.8	363.67	7.2379e-06	2.885e-06	416.53	138.17	120.4	40.55	7.5405e-06	50.632	0.0005519	0.00053129	0.00014785	1343.7	5.7742e-06	5.7383e-06	1347.6	371.28	5.8263e-06	5.8009e-06	426.04	141.32	123.11	41.854	5.8551e-06	52.292	107.042	126.293	184.781	91.787	243.850	239.773	91.486	96.204	180.154	339.314	95.817	100.103	100.698	105.412	240.231	104.417	-8191	255	
11328.989	1	1	0	0	0.1218	0.16211	0.13219	0.28409	0.14435	0.086806	0.20139	0.35382	0.034094	0.18914	0.17873	0.19509	0.080437	0.082331	0.094032	0.12198	-4.5354	-4.1854	-4.3271	-4.8146	-4.2146	-4.425	-4.7167	-4.2812	-4.8833	-4.3812	-4.4125	-4.9646	-4.175	-4.625	-4.6396	-4.3167	152.152	147.773	335.025	419.959	181.221	435.797	390.360	373.627	275.750	215.538	416.249	417.414	375.854	406.842	429.445	414.806	0.00092039	0.00037251	9.4814e-05	1317.2	7.4031e-06	6.1125e-06	1326.1	362.51	4.1733e-06	6.6648e-06	416.08	138.09	120.48	40.587	7.4167e-06	51.049	0.00055288	0.00051991	0.00014505	1345.2	5.752e-06	5.8504e-06	1348.7	371.01	5.8311e-06	5.6967e-06	426.82	141.11	123.02	41.957	5.6973e-06	52.358	114.448	185.865	198.958	91.713	203.446	231.891	91.491	96.384	207.785	243.290	95.777	100.087	100.620	105.411	216.448	104.211	-8191	255	
11329.085	1	1	0	0	0.15568	0.11788	0.074783	0.10552	0.14672	0.010901	0.22318	0.29117	0.091604	0.061766	0.26649	0.18497	0.057799	0.16008	0.081224	0.17082	-4.3438	-4.3229	-4.1771	-4.9083	-4.2562	-4.6125	-4.85	-4.3208	-4.6229	-4.3313	-4.2438	-4.7688	-4.2271	-4.5708	-4.8313	-4.3979	271.967	96.082	305.007	346.014	167.820	243.066	354.348	385.479	358.724	400.713	376.235	288.850	97.275	333.531	202.553	397.461	0.00088715	0.00066963	0.00014854	1316.1	8.8832e-06	2.1429e-06	1325	363.61	5.1174e-06	4.9895e-06	417.56	138.3	120.84	40.766	3.2975e-06	50.621	0.0005523	0.00051844	0.00014482	1345.4	5.7437e-06	5.6856e-06	1350.1	371.4	5.7104e-06	5.576e-06	427.4	141.3	123.21	41.996	5.6298e-06	52.368	109.349	148.116	166.255	91.804	227.912	267.141	91.357	96.377	187.301	248.978	95.876	100.302	100.630	105.105	236.586	104.359	-8191	255	
11329.181	1	1	0	0	0.065762	0.078812	0.20772	0.26582	0.088544	0.23857	0.38022	0.18624	0.087218	0.065885	0.42249	0.088306	0.20389	0.19559	0.12903	0.073121	-4.5396	-4.6146	-4.2625	-4.95	-4.2667	-4.5833	-4.9	-4.1937	-4.7917	-4.5687	-4.3542	-4.8792	-4.4042	-4.4062	-4.675	-4.2667	99.206	199.659	295.590	338.719	224.880	235.306	356.954	86.346	252.009	89.925	367.997	95.389	424.259	171.630	152.513	349.066	0.00090401	0.00059135	0.00014922	1317.6	6.8804e-06	4.6014e-06	1330.2	364.72	1.0545e-05	4.7555e-06	416.58	138.96	120.71	40.504	5.4114e-06	50.748	0.0005376	0.00050836	0.00014304	1344.8	5.5456e-06	5.6033e-06	1350.9	371.66	5.6705e-06	5.6165e-06	426.56	141.28	123.12	42.028	5.5624e-06	52.281	109.373	143.203	166.870	91.742	225.411	239.037	91.583	96.318	197.576	218.072	95.633	99.867	100.681	105.330	202.105	104.249	-8191	255	
11329.302	1	1	0	0	0.37939	0.15312	0.079746	0.15385	0.11109	0.22966	0.25417	0.36257	0.19433	0.12919	0.10235	0.19961	0.23207	0.12815	0.026825	0.11981	-4.1896	-4.5646	-4.0875	-4.8979	-4.3396	-4.3	-5.0521	-4.3187	-4.5375	-4.8	-4.2229	-4.8167	-4.5646	-4.2854	-4.9021	-4.3646	295.096	292.189	118.475	361.015	222.386	90.218	335.109	383.776	91.268	163.689	404.211	103.842	417.149	152.642	438.178	164.283	0.00081976	0.00059206	0.00022319	1317.8	2.4882e-06	1.7016e-06	1323.2	364.05	6.4859e-06	3.9954e-06	415.34	138.32	120.44	40.647	6.25e-06	50.713	0.00053474	0.00051108	0.00014116	1343.1	5.5311e-06	5.5873e-06	1348.7	371.81	5.6557e-06	5.6375e-06	426.12	141.29	123.01	41.985	5.7082e-06	52.283	111.808	163.555	200.592	91.617	188.439	179.383	91.474	96.321	196.519	183.016	95.908	100.213	100.550	105.514	200.020	104.335	-8191	255	
11329.398	1	1	0	0	0.2462	0.17134	0.10731	0.053436	0.0087741	0.077179	0.11562	0.14261	0.15794	0.090471	0.1726	0.10552	0.12487	0.1004	0.38487	0.15598	-4.0875	-4.5125	-4.2146	-4.8938	-4.5854	-4.1687	-4.9604	-4.5333	-4.3063	-4.8229	-4.3729	-4.6167	-4.5083	-4.2125	-4.8333	-4.5417	408.112	193.402	183.633	347.969	230.566	395.492	236.249	421.660	394.354	349.045	395.228	333.004	285.738	414.649	278.125	406.152	0.00091387	0.00032767	0.00018603	1318.9	8.7026e-06	5.0337e-06	1330.4	365.09	7.1788e-06	4.4772e-06	417.05	138.38	120.74	40.925	4.7426e-06	50.846	0.00054697	0.00051849	0.00014538	1346	5.7264e-06	5.7048e-06	1352.1	372.04	5.8177e-06	5.7101e-06	427.38	141.48	123.22	42.09	5.7351e-06	52.369	115.443	214.164	151.222	91.776	219.962	223.567	91.499	96.210	189.530	238.190	95.931	100.106	100.735	105.364	203.673	104.241	-8191	255	
11329.494	1	1	0	0	0.10266	0.04056	0.17215	0.22299	0.026769	0.16438	0.24728	0.15321	0.12398	0.087724	0.0062791	0.26117	0.082945	0.1276	0.028708	0.050697	-3.9917	-4.8458	-4.2229	-4.9	-4.6667	-4.2167	-4.8375	-4.4792	-4.4042	-4.6917	-4.2896	-4.6854	-4.7167	-4.2792	-4.8438	-4.4396	338.497	346.449	138.652	385.633	122.762	101.451	387.913	391.758	282.540	93.436	366.114	84.993	423.902	297.421	257.297	111.288	0.00090763	0.00053786	0.00023563	1318.8	3.8363e-06	4.6116e-06	1331	364.14	1.1039e-05	4.3601e-06	417.55	139.46	119.68	40.643	6.172e-06	50.498	0.00055383	0.00052307	0.00014525	1346.7	5.7857e-06	5.702e-06	1351.6	372.09	5.715e-06	5.6759e-06	426.73	141.63	122.83	41.978	5.6004e-06	52.277	111.627	126.162	122.429	91.690	233.868	227.836	91.571	96.234	204.802	228.192	95.627	100.065	100.687	105.385	221.011	104.374	-8191	255	
11329.590	1	1	0	0	0.058848	0.066987	0.11966	0.30683	0.15851	0.13482	0.17103	0.12799	0.15979	0.060803	0.20525	0.26263	0.15009	0.17081	0.13575	0.27796	-4.0687	-4.8354	-4.1229	-4.5563	-4.6479	-4.2	-4.9604	-4.7292	-4.2771	-4.8417	-4.5563	-4.7792	-4.6479	-4.3708	-4.725	-4.7833	123.780	266.395	413.181	408.055	330.801	217.500	375.736	399.440	286.648	133.767	101.909	421.922	119.112	354.065	397.599	354.747	0.00085214	0.00079376	0.00010285	1323.9	7.5602e-06	6.5643e-06	1331	364.62	7.2068e-06	4.9528e-06	418.01	138.64	121	40.549	7.0851e-06	50.642	0.00053271	0.00050906	0.00014204	1347.5	5.5869e-06	5.5589e-06	1352.4	371.92	5.5689e-06	5.5472e-06	426.58	141.43	123.17	41.915	5.4564e-06	52.228	109.970	159.320	203.464	91.827	197.293	239.286	91.347	96.361	236.401	201.314	95.516	100.201	100.848	105.415	196.675	104.238	-8191	255	
11329.685	1	1	0	0	0.16614	0.072297	0.073413	0.19372	0.11256	0.15856	0.24377	0.2462	0.048512	0.057355	0.11992	0.20398	0.067382	0.015702	0.10481	0.32081	-3.7625	-4.8354	-4.3146	-4.5687	-4.7479	-4.1792	-4.8042	-4.6312	-4.1625	-4.6854	-4.4104	-4.5	-4.6292	-4.3979	-4.6521	-4.6562	194.295	171.369	119.187	404.487	332.219	292.357	345.727	414.570	319.107	376.035	332.499	391.848	298.888	246.442	108.298	430.545	0.00090055	0.00044061	0.00025768	1318.8	7.5213e-06	7.4559e-06	1325.5	363.01	8.3071e-06	4.7459e-06	416.55	137.82	120.17	40.448	8.4476e-06	50.504	0.00052124	0.00048386	0.00013394	1345.1	5.2731e-06	5.2528e-06	1347.8	370.39	5.3059e-06	5.3221e-06	425.11	140.85	122.56	41.827	5.4647e-06	52.157	113.127	176.318	175.996	91.722	221.521	250.418	91.450	96.311	212.570	206.535	95.665	100.199	100.766	105.401	238.881	104.327	-8191	255	
11329.781	1	1	0	0	0.15217	0.053869	0.028726	0.25707	0.099006	0.17259	0.32097	0.096258	0.1517	0.20533	0.0064527	0.080609	0.14299	0.27449	0.049454	0.069005	-3.7167	-4.7958	-4.4938	-4.5312	-4.8271	-4.2354	-4.7812	-4.6854	-4.0729	-4.7063	-4.5542	-4.3187	-4.6979	-4.275	-4.5354	-4.775	200.561	236.396	391.029	416.299	166.842	321.432	371.752	376.140	287.509	124.855	338.492	407.605	343.406	336.554	346.310	286.169	0.0008414	0.0001512	0.00023489	1321.4	5.6051e-06	5.4996e-06	1326.5	363.51	1.1948e-05	5.2571e-06	417.85	138.3	120.58	40.879	3.5839e-06	50.913	0.00051729	0.00050671	0.00013955	1346.9	5.5526e-06	5.6552e-06	1352.7	371.8	5.661e-06	5.7012e-06	427.01	141.24	123.15	42.045	5.6594e-06	52.374	113.355	125.160	195.266	91.581	221.453	300.868	91.283	96.380	216.783	237.491	95.688	100.199	100.638	105.462	251.238	104.189	-8191	255	
11329.901	1	1	0	0	0.040397	0.16276	0.067614	0.15181	0.31628	0.20185	0.22795	0.11995	0.0996	0.062862	0.10381	0.046271	0.13744	0.15891	0.25169	0.088321	-3.7521	-4.6771	-4.4708	-4.4104	-4.7562	-4.2479	-4.7604	-4.7917	-4.1813	-4.6937	-4.5625	-4.2667	-4.8438	-4.4979	-4.4958	-4.7271	165.640	304.325	353.955	431.304	395.671	168.489	408.531	153.606	417.408	180.450	406.651	377.536	436.202	365.681	435.703	217.971	0.00090335	0.00051258	0.00013252	1327.2	5.8396e-06	3.0671e-06	1331.9	364.12	5.106e-06	2.9677e-06	416.65	138.83	120.36	40.876	7.6863e-06	50.867	0.00053678	0.00051811	0.00014415	1351.5	5.683e-06	5.6638e-06	1354.4	372.57	5.6935e-06	5.6566e-06	426.95	141.55	123.02	42.063	5.7715e-06	52.43	115.547	189.072	165.705	91.590	227.500	246.081	91.429	96.289	160.685	283.249	95.605	100.131	100.613	105.290	215.234	104.201	-8191	255	
11329.998	1	1	0	0	0.12219	0.10877	0.18348	0.32597	0.066188	0.22597	0.050258	0.13689	0.18914	0.05823	0.14204	0.12043	0.19485	0.19795	0.14901	0.24917	-3.9	-4.7042	-4.4729	-4.3354	-4.7146	-4.475	-4.6417	-5.1021	-4.1583	-4.5958	-4.7292	-4.1854	-4.7688	-4.3896	-4.1708	-4.8792	84.325	330.224	175.814	373.734	399.791	303.554	356.935	366.765	200.491	311.341	112.342	214.714	437.759	430.258	372.595	95.111	0.0009039	0.00065684	0.00023005	1326.7	4.234e-06	5.9612e-06	1333	365.73	1.1912e-05	2.5625e-06	418.17	139.13	121.28	40.667	7.0062e-06	50.568	0.00054783	0.00054014	0.00014697	1351.4	5.7833e-06	5.8054e-06	1355.9	372.9	5.8722e-06	5.9175e-06	427.36	141.7	123.66	42.054	5.9427e-06	52.435	111.639	182.016	167.369	91.635	232.955	230.603	91.360	96.099	202.809	198.686	95.686	100.090	100.891	105.446	226.479	104.054	-8191	255	
11330.094	1	1	0	0	0.16069	0.13808	0.036814	0.27912	0.14803	0.11063	0.16088	0.15415	0.1831	0.21222	0.032539	0.16408	0.16722	0.075541	0.098463	0.11287	-4.0104	-4.6562	-4.575	-4.2854	-4.7583	-4.4896	-4.5062	-4.8875	-4.1687	-4.5854	-4.8583	-4.1271	-4.8625	-4.6312	-4.3021	-4.9083	411.859	206.285	323.169	351.802	367.680	81.742	394.142	353.487	385.909	391.461	306.879	182.523	264.661	349.606	174.284	432.216	0.00088289	0.00052213	0.00024271	1326.2	4.2971e-06	3.8098e-06	1331.4	366.11	4.2319e-06	4.2615e-06	418.88	139.36	120.67	40.645	3.482e-06	50.833	0.00055645	0.00054477	0.00015093	1353.5	5.8955e-06	5.8974e-06	1357.7	373.46	5.8754e-06	5.8681e-06	428.1	141.99	123.29	41.993	5.8282e-06	52.446	114.301	164.593	192.135	91.661	270.226	214.596	91.482	96.353	211.673	255.728	95.724	100.171	100.692	105.398	195.415	104.433	-8191	255	
11330.165	1	1	0	0	0.26166	0.18736	0.17588	0.14517	0.19348	0.14123	0.13682	0.23836	0.15876	0.08239	0.21709	0.13275	0.040848	0.032017	0.052175	0.088944	-3.8833	-4.5	-4.6875	-4.3604	-4.6333	-4.4146	-4.3646	-4.7312	-4.2896	-4.4979	-4.9437	-4.325	-4.6083	-4.6021	-4.1146	-4.775	166.050	236.999	315.224	297.854	362.608	284.562	347.109	380.419	302.729	316.368	402.372	113.689	397.422	406.867	235.855	434.429	0.00087724	0.00052158	0.00013035	1320.4	5.986e-06	5.0002e-06	1335.6	365.02	6.4297e-06	9.0144e-07	418.49	138.73	120.75	40.598	9.1282e-06	50.479	0.00054672	0.0005261	0.00014508	1350.6	5.7125e-06	5.6692e-06	1355.8	372.87	5.6887e-06	5.6458e-06	427.8	141.74	123.27	41.937	5.5544e-06	52.207	115.525	184.617	131.696	91.802	211.037	249.665	91.601	96.222	218.442	186.286	95.703	100.108	100.961	105.147	242.583	104.292	-8191	255	
11330.286	1	1	0	0	0.20915	0.091735	0.052049	0.21543	0.097928	0.1192	0.21765	0.26351	0.096233	0.11205	0.069156	0.1365	0.27026	0.12622	0.10792	0.098946	-4.0479	-4.3625	-4.5521	-4.4396	-4.6583	-4.6333	-4.3938	-4.8854	-4.3542	-4.0917	-4.8604	-4.3688	-4.6875	-4.7292	-4.0813	-4.8125	233.714	294.508	173.080	405.972	228.566	385.832	382.241	393.435	182.547	254.193	431.030	318.145	256.177	81.834	297.380	334.755	0.0008206	0.00077227	0.00018025	1326.8	3.0153e-06	3.9374e-06	1329.5	365.02	4.4434e-06	1.1235e-05	418.38	138.35	120.92	40.562	7.9302e-06	50.486	0.00053069	0.00051341	0.00014166	1349.5	5.63e-06	5.5299e-06	1353.9	372.41	5.645e-06	5.5868e-06	427.34	141.37	123.17	41.907	5.5601e-06	52.3	117.621	193.786	152.418	91.737	236.986	179.959	91.560	96.318	248.512	242.473	95.783	100.252	100.743	105.389	201.423	104.377	-8191	255	
11330.382	1	1	0	0	0.098999	0.18804	0.085163	0.064727	0.13773	0.0321	0.090091	0.03596	0.21247	0.24518	0.23144	0.26511	0.24934	0.30837	0.10702	0.21383	-4.0667	-4.1042	-4.7375	-4.2312	-4.5542	-4.6542	-4.2792	-4.7937	-4.4583	-4.2354	-4.9708	-4.4125	-4.5	-4.8167	-4.25	-4.7542	308.306	246.406	413.839	147.662	343.447	151.756	364.583	240.655	423.161	308.889	393.479	438.290	103.297	285.210	279.525	345.345	0.00087966	0.00048741	0.00019744	1323.6	6.9594e-06	6.803e-06	1330.2	364.67	5.3085e-06	3.5389e-06	416.6	137.98	120.98	40.459	9.5151e-06	50.795	0.00052679	0.00050094	0.00014158	1348.2	5.4881e-06	5.464e-06	1352.9	372.02	5.4329e-06	5.4158e-06	426.33	141.13	123.04	41.878	5.5057e-06	52.211	109.650	148.735	191.273	91.795	239.776	230.032	91.472	96.321	229.636	233.412	95.770	100.100	100.967	105.276	224.297	104.216	-8191	255	
11330.478	1	1	0	0	0.23791	0.14673	0.16312	0.18183	0.040037	0.063375	0.31575	0.1484	0.13196	0.041202	0.22033	0.18086	0.16286	0.093907	0.13365	0.051696	-4.2396	-4.1167	-4.7354	-4.3625	-4.3688	-4.8771	-4.5229	-4.6708	-4.4938	-4.2208	-4.8812	-4.4437	-4.4979	-4.9	-4.2729	-4.7292	374.764	430.797	256.113	327.619	107.292	426.378	360.182	372.489	197.272	126.061	309.943	393.458	90.866	354.361	254.937	169.297	0.00087957	0.00043162	0.00020584	1322.8	3.9455e-06	4.8089e-06	1324.8	362.9	7.4247e-06	3.8637e-06	416.55	138.75	120.11	40.691	3.7237e-06	50.719	0.00052323	0.00049519	0.00014007	1348.3	5.5029e-06	5.4167e-06	1350.5	371.41	5.4367e-06	5.5336e-06	426.53	141.17	122.77	41.933	5.5713e-06	52.199	108.893	183.463	167.008	91.832	217.913	269.351	91.449	96.462	234.188	232.828	95.722	100.001	100.459	105.251	169.609	104.262	-8191	255	
11330.574	1	1	0	0	0.067722	0.11805	0.12166	0.23104	0.13177	0.13654	0.11906	0.11861	0.06196	0.15473	0.1487	0.15505	0.28748	0.22813	0.035182	0.18246	-4.3917	-3.9958	-4.6771	-4.5729	-4.3479	-4.8958	-4.3625	-4.6792	-4.725	-4.0854	-4.9062	-4.5521	-4.1875	-4.9583	-4.3479	-4.4958	170.343	385.203	81.264	411.412	146.714	126.319	360.547	407.819	187.767	148.558	145.727	425.234	375.127	89.359	406.560	303.557	0.00093709	0.00064495	0.00016486	1321.4	7.4854e-06	2.9148e-06	1324.3	363.94	9.0248e-06	4.0949e-06	418.11	138.56	120.66	40.433	5.5317e-06	50.598	0.00053186	0.0005088	0.0001439	1348.5	5.6189e-06	5.634e-06	1351.1	371.99	5.6399e-06	5.6101e-06	427.25	141.15	123.18	41.915	5.6595e-06	52.265	109.348	144.981	202.638	91.771	237.584	184.406	91.531	96.418	219.904	211.234	95.728	100.064	100.605	105.333	211.630	104.329	-8191	255	
11330.693	1	1	0	0	0.23765	0.031874	0.18319	0.16872	0.057809	0.16378	0.080766	0.088053	0.11714	0.20368	0.15469	0.18222	0.1218	0.080224	0.043623	0.090726	-4.3833	-4.1917	-4.6438	-4.8	-4.1708	-4.8354	-4.5813	-4.6896	-4.8292	-4.3104	-4.8083	-4.5604	-4.3625	-4.8354	-4.3271	-4.425	171.950	89.293	125.666	378.314	232.182	294.627	383.058	407.448	386.325	252.395	346.882	226.122	402.125	353.021	89.597	291.943	0.00092071	0.00053021	0.00025474	1321.3	7.1124e-06	4.6596e-06	1328.9	364.37	6.418e-06	7.5981e-06	415.89	138.21	120.5	40.557	5.2853e-06	50.652	0.00054002	0.00051863	0.00014688	1349.7	5.6528e-06	5.7138e-06	1353.1	372.15	5.642e-06	5.453e-06	426.47	141.04	123.01	41.89	5.5567e-06	52.204	112.997	155.179	162.005	91.797	200.506	238.037	91.651	96.203	192.980	219.392	95.680	99.933	100.661	105.422	199.018	104.339	-8191	255	
11330.789	1	1	0	0	0.14284	0.14691	0.16341	0.15398	0.034382	0.11637	0.11557	0.092091	0.24196	0.21117	0.16241	0.093149	0.019805	0.052297	0.12622	0.1407	-4.4292	-4.0792	-4.5563	-4.6979	-4.1687	-4.8542	-4.7896	-4.5396	-4.8792	-4.2021	-4.6104	-4.6708	-4.1146	-4.8646	-4.3854	-4.4688	253.769	423.202	372.048	408.564	179.589	407.919	337.647	371.121	419.022	383.255	399.088	417.825	205.100	173.807	316.506	417.212	0.0009222	0.00052668	0.00017777	1324.7	7.6199e-06	9.4899e-06	1327.1	364.25	7.1595e-06	5.237e-06	417.2	138.55	120.43	40.482	7.0408e-06	50.434	0.00052304	0.00050164	0.0001441	1349.1	5.5897e-06	5.5481e-06	1352	372.21	5.6247e-06	5.5913e-06	427.21	141.3	123.02	41.918	5.6032e-06	52.129	112.161	185.622	146.414	91.798	228.028	232.739	91.413	96.261	226.947	239.323	95.793	100.207	100.647	105.141	200.193	104.616	-8191	255	
11330.863	1	1	0	0	0.079823	0.086416	0.13798	0.299	0.070709	0.012952	0.16343	0.27568	0.086884	0.03935	0.18707	0.028938	0.18087	0.37409	0.050766	0.16575	-4.3729	-4.2208	-4.4062	-4.7958	-4.0958	-4.7583	-4.65	-4.3396	-4.7458	-4.2604	-4.5729	-4.7688	-4.325	-4.825	-4.5542	-4.4229	223.037	197.467	201.820	338.922	137.029	368.121	222.153	357.861	307.320	182.358	418.150	437.848	344.580	126.605	323.158	386.956	0.00088978	0.00032875	2.9622e-05	1323.8	6.4017e-06	8.8234e-06	1328	364.06	9.1371e-06	2.7398e-06	416.36	138.46	120.03	40.434	8.0853e-06	50.495	0.0005254	0.00051358	0.00014181	1347.9	5.6142e-06	5.4899e-06	1352	371.86	5.5936e-06	5.5702e-06	426.14	140.93	122.78	41.83	5.5223e-06	52.14	115.225	154.716	227.158	91.558	251.075	243.794	91.421	96.269	202.461	225.654	95.589	99.992	100.591	105.343	202.304	104.295	-8191	255	
11330.982	1	1	0	0	0.03317	0.0092351	0.071707	0.28152	0.042799	0.27052	0.1349	0.12785	0.20225	0.15653	0.016668	0.11545	0.27479	0.12754	0.17715	0.29639	-4.4604	-4.3292	-4.4563	-4.975	-4.2771	-4.7375	-4.7312	-4.4396	-4.8229	-4.2812	-4.4271	-5.0188	-4.3958	-4.6292	-4.7042	-4.1833	247.845	243.383	402.962	119.947	161.146	329.487	383.213	355.945	82.952	182.277	371.929	420.382	413.147	87.503	240.911	396.550	0.00082207	0.0005517	0.00012578	1321.4	5.5084e-06	8.3457e-06	1327.8	364.14	1.2e-05	5.8819e-06	417.94	138.26	120.59	40.505	4.6638e-06	50.499	0.00053632	0.00050022	0.00014198	1347.8	5.5629e-06	5.6163e-06	1352.7	371.96	5.5655e-06	5.5886e-06	426.71	141.08	122.94	41.867	5.5907e-06	52.135	112.350	159.583	150.072	91.701	253.248	225.844	91.305	96.233	217.020	260.984	95.781	99.932	100.684	105.342	202.923	104.294	-8191	255	
11331.078	1	1	0	0	0.23179	0.074355	0.079498	0.14913	0.13255	0.095617	0.43195	0.23226	0.11695	0.15214	0.026086	0.12318	0.16938	0.19633	0.074303	0.11166	-4.3979	-4.4938	-4.2271	-4.9646	-4.2396	-4.6479	-4.8479	-4.3354	-4.7542	-4.6229	-4.3187	-4.9333	-4.2688	-4.5667	-4.6271	-4.2458	294.499	353.958	144.697	80.921	91.975	352.235	383.749	378.205	381.802	274.776	333.848	364.767	80.355	375.943	352.943	436.203	0.00087885	0.00025277	0.00013138	1323.9	6.5971e-06	6.1457e-06	1329.2	363.27	6.747e-06	7.4981e-06	415.29	138.62	119.99	40.675	3.0415e-06	50.595	0.00053382	0.00050162	0.00014223	1349.5	5.4816e-06	5.6018e-06	1353.3	371.51	5.6099e-06	5.5097e-06	426.18	141.08	122.77	41.876	5.5468e-06	52.166	108.601	166.363	200.435	91.645	209.931	215.466	91.586	96.145	195.246	257.738	95.645	100.170	100.770	105.220	212.587	104.003	-8191	255	
11331.174	1	1	0	0	0.1244	0.17264	0.19452	0.24932	0.043508	0.19537	0.069983	0.24442	0.075387	0.087298	0.23929	0.069655	0.11415	0.2739	0.021244	0.11286	-4.2396	-4.5958	-4.0417	-4.9521	-4.3083	-4.3646	-4.8458	-4.3	-4.65	-4.6062	-4.4812	-4.8167	-4.3708	-4.3938	-4.7188	-4.1167	315.278	300.516	355.847	410.490	368.161	182.557	279.330	389.000	364.337	165.577	364.368	113.538	136.756	171.558	106.001	169.537	0.00089793	0.00070746	0.0001929	1322.9	4.9612e-06	5.7807e-06	1326.6	363.95	9.8617e-06	3.3125e-06	416.49	137.97	119.99	40.661	6.4006e-06	50.774	0.00052594	0.0005019	0.00013876	1347.8	5.4843e-06	5.5611e-06	1350.8	371.8	5.4892e-06	5.4821e-06	426.26	140.99	122.91	41.865	5.4415e-06	52.202	114.337	203.860	129.870	91.698	202.560	241.711	91.393	96.147	215.886	219.341	95.589	100.071	100.645	105.252	175.354	104.456	-8191	255	
11331.270	1	1	0	0	0.28592	0.12527	0.11761	0.15248	0.10553	0.2807	0.27244	0.35181	0.16866	0.14033	0.088392	0.19828	0.035256	0.029092	0.44126	0.25451	-4.3729	-4.475	-4.2646	-4.8771	-4.375	-4.3458	-4.9354	-4.4125	-4.7167	-4.7083	-4.3333	-4.7479	-4.5083	-4.3562	-4.8562	-4.3562	227.605	391.077	81.705	87.949	343.214	350.547	373.706	358.970	310.572	346.473	403.016	380.115	213.921	388.262	345.810	351.437	0.00092859	0.00046081	0.00015815	1319.7	4.915e-06	3.6008e-06	1326.6	363.42	6.3147e-06	3.9218e-06	416.85	138.38	120.47	40.521	4.2351e-06	50.34	0.00052663	0.00049919	0.00013875	1346.1	5.4786e-06	5.4291e-06	1349.9	371.06	5.4058e-06	5.3686e-06	426.06	141.19	123.02	41.815	5.4366e-06	52.04	112.314	135.308	181.190	91.871	209.507	156.975	91.502	96.190	214.650	210.525	95.792	99.997	100.514	105.455	156.706	104.324	-8191	255	
11331.391	1	1	0	0	0.16262	0.16584	0.034336	0.22679	0.17966	0.02593	0.2447	0.16558	0.041383	0.10573	0.1175	0.13004	0.13962	0.062262	0.019498	0.1468	-4.2125	-4.6833	-4.2354	-4.8917	-4.5333	-4.3458	-5.0021	-4.325	-4.3792	-4.7646	-4.2729	-4.7312	-4.4417	-4.1375	-4.7542	-4.5896	237.069	123.623	415.324	388.255	316.353	171.997	434.587	377.732	377.140	279.282	394.047	411.144	120.017	302.347	348.626	383.764	0.00084804	0.00049083	0.00013143	1322.5	6.6901e-06	3.6948e-06	1324.3	363.93	6.8811e-06	6.021e-06	416.18	138.29	120.6	40.543	7.9676e-06	50.524	0.00052111	0.0004957	0.00013718	1346.9	5.3884e-06	5.3528e-06	1350.2	371.5	5.4734e-06	5.3631e-06	425.8	141.07	122.76	41.915	5.3758e-06	52.042	108.470	165.234	159.659	91.762	237.182	267.103	91.528	96.288	198.649	254.309	95.708	100.226	100.599	105.289	184.727	104.125	-8191	255	
11331.463	1	1	0	0	0.10692	0.10225	0.15708	0.28598	0.073435	0.080107	0.28556	0.19797	0.23157	0.10417	0.13096	0.1277	0.15961	0.41963	0.12328	0.074079	-4.0958	-4.7146	-4.3646	-4.7854	-4.5208	-4.3208	-4.7896	-4.4187	-4.2083	-4.8333	-4.3562	-4.6146	-4.7021	-4.2771	-4.6062	-4.4875	153.848	414.606	257.260	405.776	116.203	102.373	377.186	95.874	431.858	201.589	389.999	403.803	371.048	341.893	156.254	225.502	0.00087666	0.00043232	0.00019667	1323.5	5.375e-06	3.0069e-06	1326.5	364.78	1.1649e-05	6.4063e-06	416.61	138.52	120.39	40.681	6.7771e-06	50.573	0.00050782	0.00048511	0.00013453	1346.8	5.297e-06	5.259e-06	1349.5	371.79	5.2718e-06	5.2814e-06	425.68	141.16	122.62	41.843	5.2742e-06	52.112	113.116	161.477	207.597	91.716	202.706	238.373	91.488	96.127	202.855	260.129	95.582	100.020	100.539	105.195	192.690	104.294	-8191	255	
11331.583	1	1	0	0	0.147	0.12086	0.26945	0.26183	0.24681	0.22357	0.22855	0.35553	0.22857	0.3049	0.18982	0.16292	0.17397	0.093741	0.16274	0.20304	-3.9	-4.8021	-4.1896	-4.7646	-4.7604	-4.2167	-4.8875	-4.5458	-4.4604	-4.7833	-4.3125	-4.5458	-4.8187	-4.2292	-4.6604	-4.5354	180.127	205.389	113.801	335.027	431.757	313.016	387.637	367.287	186.716	180.350	406.746	399.667	111.612	377.451	284.769	378.548	0.00091332	0.00037901	0.00022542	1320.2	3.883e-06	1.2051e-05	1326.9	363.46	9.5672e-06	7.0334e-06	415.65	138.37	120.07	40.508	1.1494e-05	50.38	0.00051129	0.00046954	0.00013173	1345.2	5.2197e-06	5.1926e-06	1349.3	371.35	5.1965e-06	5.2087e-06	425.7	141.09	122.6	41.791	5.1051e-06	52.036	111.943	145.788	152.880	91.657	199.038	239.026	91.480	96.196	226.459	205.082	95.591	100.059	100.680	105.374	210.973	104.513	-8191	255	
11331.679	1	1	0	0	0.20612	0.018676	0.13044	0.12523	0.23093	0.11076	0.35879	0.21876	0.17664	0.30772	0.069339	0.13585	0.324	0.2311	0.05379	0.11266	-3.9625	-4.8396	-4.2292	-4.7063	-4.6604	-4.1979	-4.8833	-4.7167	-4.2667	-4.7708	-4.4417	-4.6375	-4.8313	-4.1604	-4.4854	-4.5479	94.942	92.286	332.085	421.813	175.646	435.485	381.143	396.231	132.354	112.263	270.873	366.018	359.233	374.473	333.726	331.537	0.00086258	0.00044146	0.0001642	1317.3	6.4127e-06	5.6173e-06	1320.3	364.34	9.425e-06	5.9091e-06	416.07	138.21	120.29	40.415	3.5848e-06	50.666	0.00049554	0.00046198	0.0001283	1342.2	4.9717e-06	5.032e-06	1345.3	370.7	5.0429e-06	4.9578e-06	424.94	140.73	122.49	41.694	5.0413e-06	52.096	113.179	155.396	183.345	91.571	200.903	237.042	91.471	96.322	209.913	216.695	95.838	99.938	100.534	105.331	224.234	104.192	-8191	255	
11331.774	1	1	0	0	0.13961	0.053946	0.15533	0.1339	0.2608	0.29115	0.19182	0.17485	0.072827	0.076085	0.10702	0.26291	0.17484	0.11356	0.14026	0.052224	-3.75	-4.7417	-4.3938	-4.6604	-4.7375	-4.1667	-4.7208	-4.7625	-4.1792	-4.7083	-4.6375	-4.3542	-4.8792	-4.3896	-4.4333	-4.7937	209.389	175.791	146.311	398.350	198.995	289.486	383.216	241.162	437.265	129.190	393.003	299.103	386.896	283.327	109.060	393.660	0.00084547	0.00043099	0.00010775	1314.2	7.3649e-06	7.8226e-06	1328.8	362.56	9.1233e-06	5.3056e-06	415.79	137.86	119.97	40.411	6.9592e-06	50.564	0.00048212	0.00045572	0.00012561	1340	5.0532e-06	5.031e-06	1347	370.43	5.0704e-06	5.0585e-06	425	140.74	122.34	41.782	5.0674e-06	52.013	110.813	130.352	202.883	91.757	198.934	239.250	91.326	96.153	214.578	238.342	95.686	100.011	100.614	105.299	215.988	104.184	-8191	255	
11331.870	1	1	0	0	0.24042	0.091545	0.15785	0.23682	0.022815	0.15396	0.30212	0.22917	0.23558	0.15738	0.264	0.25325	0.14664	0.26769	0.40978	0.11009	-3.7604	-4.7521	-4.4458	-4.3833	-4.7937	-4.3146	-4.6813	-4.8333	-4.2375	-4.8583	-4.6062	-4.4875	-4.8458	-4.3146	-4.4062	-4.7125	154.539	363.346	341.507	390.859	402.972	362.690	425.857	78.484	165.238	331.522	399.039	91.778	99.879	91.032	421.640	206.010	0.0008467	0.00042843	0.00017874	1315.3	8.4056e-06	5.3042e-06	1322.9	364.19	9.7355e-06	1.7377e-06	415.46	138.41	120.13	40.544	7.7253e-06	50.226	0.00048736	0.00046314	0.00012961	1342.1	5.1172e-06	5.0628e-06	1346.3	371.19	5.0758e-06	5.1234e-06	425.16	140.74	122.54	41.788	5.1271e-06	51.95	111.771	141.633	171.381	91.810	219.351	250.549	91.491	96.168	214.739	170.737	95.737	100.121	100.908	105.221	212.608	104.407	-8191	255	
11331.990	1	1	0	0	0.062727	0.16089	0.18369	0.17357	0.25989	0.14035	0.4919	0.17028	0.19072	0.15534	0.14846	0.20733	0.12497	0.10175	0.21332	0.18288	-3.9604	-4.7104	-4.45	-4.4708	-4.7812	-4.3458	-4.5729	-4.9167	-3.9854	-4.6167	-4.7937	-4.175	-4.8375	-4.5104	-4.3646	-4.8354	103.696	319.404	290.437	367.553	256.770	373.039	372.671	435.816	113.846	266.875	348.438	368.545	112.882	363.733	219.024	392.846	0.0009061	0.00029629	7.0603e-05	1318.9	5.5717e-06	9.2629e-06	1321.9	362.75	7.0416e-06	4.2049e-06	413.8	138.62	119.42	40.561	4.0369e-06	50.511	0.00048723	0.00046389	0.00012771	1342	5.0642e-06	5.0441e-06	1346.2	370.42	5.0281e-06	5.0249e-06	424.27	141.03	122.22	41.811	5.0189e-06	52.009	109.664	201.239	202.441	91.703	227.181	214.329	91.680	96.307	213.311	279.704	95.821	100.014	100.710	105.334	200.166	104.282	-8191	255	
11332.087	1	1	0	0	0.27957	0.16263	0.15726	0.14319	0.073801	0.19761	0.15399	0.33685	0.1551	0.13372	0.3186	0.19585	0.12496	0.17165	0.077547	0.18786	-3.8104	-4.5125	-4.6062	-4.4146	-4.7562	-4.4771	-4.5271	-4.9125	-4.3208	-4.5417	-4.8729	-4.35	-4.8875	-4.5479	-4.0771	-5.0646	170.644	314.675	413.062	396.754	183.061	430.082	390.960	393.230	409.665	371.449	426.888	303.122	200.521	313.586	357.982	404.362	0.00096406	0.00035231	0.00014172	1318.8	3.6371e-06	7.2476e-06	1318	362.89	8.8623e-06	4.8758e-06	415.93	137.64	120.74	40.671	3.9217e-06	50.534	0.00047932	0.00046244	0.00012466	1340.9	4.9726e-06	4.9119e-06	1344.4	370.63	4.957e-06	4.92e-06	425.07	140.6	122.65	41.849	4.9628e-06	52.044	110.424	167.699	180.547	91.622	229.306	255.296	91.494	96.374	211.613	244.265	95.602	100.287	100.561	105.467	216.552	104.233	-8191	255	
11332.158	1	1	0	0	0.065952	0.093289	0.19659	0.16517	0.16987	0.1067	0.11219	0.26305	0.12157	0.25541	0.30906	0.13812	0.13183	0.33279	0.061643	0.13048	-3.9396	-4.3938	-4.75	-4.4896	-4.6958	-4.5938	-4.3792	-5.0146	-4.2042	-4.2396	-4.9021	-4.4292	-4.4979	-4.7188	-4.2604	-4.9271	110.028	380.611	91.956	430.687	433.253	338.199	435.100	436.454	328.420	347.304	375.777	366.194	80.171	426.474	147.437	362.087	0.00093049	0.0005575	0.00016544	1315.1	7.2328e-06	9.7157e-06	1321.9	363.56	8.1743e-06	3.7222e-06	416.73	137.43	119.48	40.467	5.3017e-06	50.67	0.00047925	0.00045733	0.00012554	1341.9	4.9279e-06	4.869e-06	1345.6	370.58	4.9676e-06	4.9023e-06	424.6	140.49	122.33	41.752	4.8654e-06	52.079	116.698	180.410	193.253	91.746	208.912	214.937	91.603	96.376	222.816	274.082	95.566	100.002	100.703	105.227	228.792	104.288	-8191	255	
11332.254	1	1	0	0	0.074511	0.18164	0.30249	0.27535	0.0693	0.061583	0.18327	0.067036	0.18342	0.11885	0.093891	0.096128	0.078748	0.30022	0.085245	0.21951	-4.0687	-4.4333	-4.8292	-4.5354	-4.7083	-4.6646	-4.4563	-4.8333	-4.5104	-4.425	-4.8875	-4.2729	-4.7354	-4.6875	-4.1542	-4.8146	290.986	242.489	336.760	419.686	341.121	194.515	80.813	341.106	380.276	302.917	425.675	333.225	157.332	96.213	275.852	331.862	0.00085576	0.00016455	0.00016782	1315.6	4.7256e-06	3.5026e-06	1323.7	362.82	8.3813e-06	3.5525e-06	414.32	137.5	120	40.294	7.7001e-06	50.428	0.00048036	0.00045458	0.00012438	1340.9	4.9943e-06	4.8672e-06	1343.9	370	5.0003e-06	4.9727e-06	424.72	140.46	122.34	41.786	4.8909e-06	52.048	111.149	172.027	189.050	91.659	234.158	254.242	91.582	96.338	210.045	274.873	95.640	100.078	100.680	105.126	218.889	103.963	-8191	255	
11332.351	1	1	0	0	0.033208	0.10244	0.23883	0.40004	0.14273	0.12324	0.21462	0.082066	0.11759	0.047926	0.1482	0.14169	0.14832	0.18321	0.12167	0.15059	-4.1292	-4.2375	-4.7625	-4.3146	-4.4479	-4.6146	-4.2083	-4.9833	-4.6458	-4.0229	-5.0667	-4.3812	-4.6021	-4.9271	-4.2312	-4.7875	337.744	148.441	427.682	420.950	320.913	347.779	387.437	322.309	384.427	310.553	95.044	352.643	437.790	99.489	315.220	404.097	0.00089662	0.0004522	0.00016489	1314.3	6.7073e-06	7.6796e-06	1320.1	363.46	5.6985e-06	3.4056e-06	415.74	138.91	120.29	40.421	5.5774e-06	50.558	0.00047571	0.00044755	0.00012393	1340.9	4.9338e-06	4.863e-06	1344	370.44	4.9704e-06	4.8817e-06	425.18	140.84	122.43	41.749	4.8706e-06	52.094	116.259	164.541	153.818	91.767	205.909	245.536	91.338	96.350	174.215	256.109	95.573	100.031	100.609	105.283	244.640	104.219	-8191	255	
11332.471	1	1	0	0	0.31215	0.24563	0.20571	0.33666	0.31359	0.20652	0.12233	0.18772	0.096214	0.11351	0.20683	0.17725	0.097974	0.13053	0.2564	0.066184	-4.25	-4.2104	-4.8604	-4.4938	-4.5104	-4.7396	-4.3625	-4.8875	-4.5188	-4.1875	-4.9958	-4.5271	-4.5021	-4.9375	-4.3063	-4.6104	186.778	154.731	283.495	426.603	382.126	133.282	358.873	365.850	90.856	210.315	398.138	150.281	143.082	395.090	423.170	127.059	0.00084713	0.0003486	0.00013289	1317	5.076e-06	3.5814e-06	1319.4	363.9	3.528e-06	1.1971e-06	415.16	138.01	120.02	40.507	6.8113e-06	50.517	0.00047302	0.0004414	0.00012222	1339	4.8948e-06	4.8183e-06	1343.4	370.46	4.9223e-06	4.7963e-06	424.89	140.41	122.35	41.718	4.7599e-06	52.056	110.771	168.512	174.668	91.832	210.163	259.018	91.479	96.304	272.926	232.453	95.796	100.177	100.621	105.162	193.577	104.281	-8191	255	
11332.567	1	1	0	0	0.21607	0.31908	0.24917	0.10657	0.073429	0.10861	0.33744	0.028818	0.12099	0.23707	0.087346	0.21458	0.14938	0.1619	0.14591	0.26032	-4.3292	-4.2583	-4.6021	-4.6229	-4.2937	-4.8438	-4.4083	-4.6083	-4.6062	-4.2167	-4.7438	-4.6375	-4.2792	-4.9292	-4.2458	-4.6104	109.648	388.910	255.588	374.153	200.137	284.485	398.681	201.239	85.458	82.628	111.818	394.853	362.320	341.631	291.766	434.107	0.00080226	0.00060776	0.00011829	1310.6	8.6541e-06	6.0691e-06	1320.9	362.81	1.0636e-05	5.4064e-06	416.43	137.19	119.81	40.456	8.9641e-06	50.637	0.00046761	0.00043507	0.00012221	1338.5	4.8901e-06	4.8536e-06	1343	370.56	4.8044e-06	4.7934e-06	424.4	140.13	122.2	41.678	4.8536e-06	52.062	115.810	147.313	203.248	91.494	238.832	162.666	91.256	96.260	216.511	260.471	95.661	99.960	100.577	105.356	183.883	104.311	-8191	255	
11332.664	1	1	0	0	0.13964	0.19996	0.15106	0.089108	0.28865	0.24671	0.17387	0.41094	0.13555	0.32484	0.16215	0.25963	0.026927	0.1617	0.18027	0.1019	-4.5542	-4.2917	-4.6167	-4.6438	-4.1646	-4.8292	-4.6146	-4.6312	-4.8042	-4.0604	-4.7208	-4.5125	-4.3333	-4.9167	-4.5271	-4.3771	174.831	211.843	379.308	236.787	169.208	168.207	337.364	341.211	156.286	194.673	84.455	415.014	307.609	110.319	358.951	288.000	0.0009146	0.00058647	0.00014482	1318.5	7.5231e-06	5.3565e-06	1319.2	363.36	8.8586e-06	5.0327e-06	414.63	137.7	120.25	40.51	7.8191e-06	50.531	0.0004699	0.000446	0.00012543	1342.3	4.906e-06	4.8655e-06	1342.8	370.55	4.9167e-06	4.8902e-06	424.11	140.57	122.32	41.802	4.8748e-06	52.058	111.459	156.991	179.751	91.695	209.644	210.652	91.515	96.368	224.319	231.621	95.725	100.023	100.629	105.104	195.852	104.364	-8191	255	
11332.760	1	1	0	0	0.10382	0.27334	0.059569	0.23651	0.13971	0.033954	0.2688	0.16581	0.027983	0.10417	0.19673	0.22965	0.36034	0.18466	0.10353	0.21004	-4.5458	-4.2167	-4.6667	-4.8667	-4.3708	-4.8562	-4.6542	-4.5125	-4.7208	-4.2604	-4.8104	-4.7312	-4.1979	-4.8896	-4.3958	-4.4229	381.626	137.917	296.816	431.452	145.218	227.836	434.989	392.827	219.594	180.042	335.354	364.495	149.284	211.003	379.962	112.521	0.00085629	0.00030546	0.00012069	1314.9	4.4061e-06	7.2739e-06	1325.2	364.46	1.0811e-05	2.6539e-06	415.71	138.42	120.2	40.484	5.2208e-06	50.646	0.00047678	0.00044345	0.00012342	1339.7	4.8877e-06	4.9098e-06	1345.2	370.52	4.8942e-06	4.8819e-06	424.13	140.89	122.45	41.759	4.8674e-06	52.029	109.988	190.097	200.333	91.699	214.527	237.611	91.517	96.239	229.868	321.401	95.579	99.965	100.674	105.133	214.883	104.159	-8191	255	
11332.854	1	1	0	0	0.08544	0.10621	0.20025	0.44401	0.2496	0.10047	0.24204	0.32211	0.2344	0.12723	0.079641	0.089306	0.22296	0.16986	0.087656	0.1742	-4.4958	-4.275	-4.4583	-4.8063	-4.2438	-4.8104	-4.5479	-4.3604	-4.8438	-4.2896	-4.6667	-4.8146	-4.2	-4.7188	-4.4708	-4.4021	149.270	370.392	312.802	408.460	352.228	141.119	370.277	394.878	140.245	209.447	205.691	123.456	153.017	147.895	226.006	409.975	0.00089426	0.00048136	0.000169	1320.1	5.0988e-06	5.3602e-06	1322.9	363.75	5.7366e-06	3.1633e-06	414.13	137.8	120.3	40.481	5.2572e-06	50.725	0.00047439	0.00044594	0.00012739	1342.9	4.8927e-06	4.9048e-06	1347.4	370.69	4.9329e-06	4.8878e-06	424.49	140.67	122.61	41.805	4.9583e-06	52.135	110.354	167.877	157.988	91.661	218.750	282.900	91.351	96.183	202.679	253.663	95.650	100.009	100.593	105.163	201.293	104.218	-8191	255	
11332.950	1	1	0	0	0.10996	0.27739	0.26603	0.22866	0.20056	0.20362	0.32602	0.060428	0.09975	0.1095	0.098554	0.1266	0.039869	0.23815	0.25092	0.054833	-4.6042	-4.5083	-4.3646	-4.925	-4.1208	-4.4708	-4.8792	-4.325	-4.8083	-4.2458	-4.5875	-5.0042	-4.4021	-4.7833	-4.6833	-4.3375	234.380	152.864	87.728	386.485	367.326	334.294	326.437	306.286	356.397	203.533	234.380	385.370	361.396	321.237	239.707	334.390	0.00090249	0.00019467	0.00012586	1315.5	6.5116e-06	6.6835e-06	1323.2	363.31	4.6231e-06	5.4335e-06	415.65	138.23	120.46	40.471	6.8641e-06	50.586	0.00048172	0.00044901	0.00012483	1340.8	4.8568e-06	4.9474e-06	1346.3	370.56	5.0288e-06	4.8843e-06	424.77	140.74	122.4	41.736	4.9117e-06	52.096	112.486	418.966	225.302	91.517	231.272	225.259	91.453	96.583	182.878	260.569	95.772	100.288	100.712	105.156	234.460	104.439	-8191	255	
11333.071	1	1	0	0	0.17238	0.10952	0.032431	0.42676	0.20276	0.16635	0.10559	0.17758	0.091432	0.17836	0.057299	0.20145	0.068517	0.21996	0.20093	0.064797	-4.3938	-4.3875	-4.3396	-4.9708	-4.2625	-4.6854	-4.9688	-4.325	-4.8104	-4.5667	-4.5292	-4.9792	-4.45	-4.6687	-4.625	-4.1604	112.708	386.905	152.075	377.859	284.512	380.205	302.607	374.661	153.708	261.545	405.806	428.388	149.309	369.843	265.514	109.755	0.00088563	0.00041603	0.00022071	1315.2	5.8417e-06	5.3751e-06	1327.3	363.24	8.3345e-06	4.001e-06	415.91	137.92	120.37	40.352	8.945e-06	50.436	0.00047276	0.00044419	0.00012326	1342.4	4.8681e-06	4.8532e-06	1345.3	370.67	4.9267e-06	4.7938e-06	424.3	140.66	122.46	41.709	4.7685e-06	52.009	111.857	180.921	175.879	91.770	204.529	226.751	91.450	96.494	219.984	218.703	95.679	100.066	100.636	105.272	211.672	104.546	-8191	255	
11333.167	1	1	0	0	0.22131	0.16689	0.09366	0.27148	0.25261	0.066323	0.095863	0.18518	0.24865	0.28658	0.16238	0.03455	0.19837	0.23525	0.26999	0.13089	-4.325	-4.625	-4.2479	-4.9979	-4.4208	-4.5646	-4.9458	-4.2688	-4.7271	-4.6333	-4.375	-4.8083	-4.2875	-4.575	-4.8208	-4.2396	376.446	183.510	268.964	415.171	254.470	239.414	421.778	375.057	305.042	165.581	342.845	240.330	339.660	370.994	267.177	368.601	0.00089534	0.00064962	0.0002825	1315.8	6.4002e-06	6.8586e-06	1317.8	362.84	1.0409e-05	5.3483e-06	414.65	138.17	119.77	40.536	3.1786e-06	50.4	0.00046895	0.00043901	0.00012519	1340.3	4.948e-06	4.8837e-06	1344.3	370.9	5.0181e-06	4.9784e-06	425.11	140.87	122.58	41.795	5.0852e-06	52.026	113.786	159.754	168.384	91.666	242.595	234.833	91.426	96.368	217.496	233.597	95.793	100.019	100.607	105.242	174.493	104.350	-8191	255	
11333.263	1	1	0	0	0.156	0.062238	0.15988	0.24031	0.074138	0.11959	0.10845	0.11376	0.10972	0.17782	0.17772	0.15993	0.12349	0.12912	0.19144	0.14451	-4.2292	-4.5667	-4.1125	-4.8396	-4.475	-4.3542	-4.9688	-4.3479	-4.4521	-4.5021	-4.2438	-4.6875	-4.4229	-4.4625	-4.7979	-4.4146	112.923	384.913	245.903	116.947	432.189	406.334	331.807	341.261	265.027	235.259	411.261	384.485	167.512	80.228	424.830	238.873	0.00096853	0.00046425	0.00013783	1322.1	6.664e-06	5.124e-06	1324.8	365.15	7.3487e-06	6.1988e-06	416.18	139.59	120.56	40.674	4.9455e-06	50.562	0.00049764	0.00046537	0.00013074	1346.1	5.2606e-06	5.3717e-06	1350.1	372.17	5.421e-06	5.332e-06	427.21	141.97	123.42	42.084	5.5059e-06	52.321	105.542	131.214	168.391	91.497	239.952	204.061	91.443	96.363	217.769	231.186	95.862	100.079	100.635	105.099	198.868	104.328	-8191	255	
11333.359	1	1	0	0	0.22585	0.037015	0.15481	0.24086	0.037361	0.11169	0.10631	0.18156	0.21702	0.10218	0.085451	0.10817	0.25804	0.16427	0.012792	0.12477	-4.225	-4.6208	-4.1562	-4.8958	-4.3167	-4.3333	-4.9708	-4.4062	-4.4958	-4.7312	-4.3104	-4.8333	-4.4521	-4.25	-4.7521	-4.4271	306.065	366.514	206.394	414.495	392.225	433.323	305.910	305.286	82.061	334.072	79.218	384.224	429.648	417.586	325.876	106.911	0.00090018	0.00049545	4.0584e-05	1325.3	7.3747e-06	8.0821e-06	1330.8	365.38	7.3538e-06	6.4489e-06	417.93	139.22	121.18	40.893	5.0943e-06	50.769	0.00052645	0.00049583	0.00013667	1351.6	5.3979e-06	5.3656e-06	1357.8	373.87	5.3421e-06	5.2704e-06	428.41	142.18	123.61	42.234	5.327e-06	52.496	111.109	158.042	174.293	91.683	227.674	224.151	91.570	96.315	194.338	215.922	95.606	100.052	100.805	105.186	190.963	104.113	-8191	255	
11333.455	1	1	0	0	0.24154	0.070152	0.18594	0.13063	0.11862	0.022158	0.16108	0.19757	0.29819	0.2647	0.25861	0.020237	0.10476	0.18284	0.16707	0.097722	-4.1083	-4.6417	-4.2208	-4.7875	-4.5938	-4.3167	-5.125	-4.4688	-4.2354	-4.7042	-4.2271	-4.6188	-4.5437	-4.2438	-4.75	-4.5208	319.726	430.510	180.082	295.479	113.318	279.537	422.998	345.153	161.168	210.290	409.285	317.206	386.977	416.723	408.561	97.313	0.00090463	0.00036769	0.00016132	1329.5	5.5886e-06	3.2546e-06	1332.9	366.44	1.1608e-05	6.4709e-06	418.87	139.78	121.72	40.896	8.0168e-06	51.006	0.00050823	0.0004862	0.00013426	1359.2	5.3805e-06	5.2977e-06	1361.6	374.54	5.3938e-06	5.2482e-06	429.09	142.48	123.96	42.405	5.4899e-06	52.61	109.260	184.139	173.579	91.636	208.941	230.585	91.482	96.111	207.199	226.336	95.452	100.197	100.645	105.319	193.433	104.627	-8191	255	
11333.552	1	1	0	0	0.15201	0.053514	0.14827	0.12941	0.17242	0.16596	0.22167	0.18678	0.10273	0.11337	0.19632	0.20129	0.068347	0.049726	0.13281	0.22033	-4.0437	-4.7979	-4.1417	-4.7146	-4.6479	-4.2188	-5.0354	-4.5375	-4.2708	-4.8958	-4.5042	-4.675	-4.6979	-4.2104	-4.7438	-4.3625	160.529	148.324	334.268	111.823	409.086	331.274	367.433	402.009	418.928	216.618	323.440	239.195	219.615	363.427	156.904	326.609	0.00093449	0.00032049	0.00023076	1331.7	6.6999e-06	6.8727e-06	1336.5	366.5	9.087e-06	5.4279e-06	417.73	139.68	121.71	40.937	5.9714e-06	51.04	0.00051327	0.0004784	0.00013425	1361.1	5.2991e-06	5.3708e-06	1365.8	375.78	5.4635e-06	5.4193e-06	429.92	142.8	124.47	42.488	5.7398e-06	52.758	111.332	242.857	176.006	91.743	211.216	211.326	91.344	96.064	192.657	210.181	95.761	100.041	100.601	105.168	180.974	104.221	-8191	255	
11333.648	1	1	0	0	0.11514	0.01068	0.16935	0.14171	0.044059	0.18654	0.26963	0.22647	0.098072	0.079982	0.23274	0.086311	0.042525	0.1847	0.24188	0.27873	-3.8083	-4.8667	-4.2229	-4.6167	-4.6021	-4.2312	-4.9021	-4.8625	-4.1729	-4.9187	-4.3979	-4.6792	-4.8292	-4.3688	-4.6708	-4.6521	116.637	327.454	266.184	324.878	139.057	173.493	302.812	400.728	128.105	204.634	391.420	130.360	118.092	325.539	283.477	413.697	0.00090888	0.00065354	0.00012727	1336.8	8.0274e-06	2.7298e-06	1342.6	369.3	6.3433e-06	3.676e-06	421.13	140.2	121.79	41.179	7.1986e-06	51.232	0.00054672	0.00053034	0.00014835	1369.3	6.0154e-06	6.0632e-06	1375.3	378.27	6.0872e-06	6.1042e-06	432.9	143.97	125.22	42.768	6.2774e-06	53.111	110.577	178.829	181.577	91.794	221.748	249.613	91.172	96.149	225.146	214.712	95.672	99.980	100.743	105.236	190.366	104.310	-8191	255	
11333.767	1	1	0	0	0.17549	0.058583	0.25667	0.33861	0.21081	0.1408	0.081142	0.20692	0.053261	0.28967	0.029199	0.1356	0.0893	0.21063	0.14137	0.22494	-3.8854	-4.8375	-4.1771	-4.4146	-4.8583	-4.2458	-4.7125	-4.6479	-4.2583	-4.8313	-4.4313	-4.4167	-4.8292	-4.2312	-4.5958	-4.725	273.592	230.465	227.952	405.303	262.477	374.507	379.714	304.270	257.682	347.448	113.215	253.603	413.923	370.327	140.607	371.732	0.00093479	0.00059179	0.0001491	1341.8	4.0013e-06	4.869e-06	1347.5	369.48	9.1599e-06	4.7104e-06	422.5	140.43	122.26	41.155	4.4039e-06	51.168	0.00059381	0.00057411	0.00016205	1373.2	6.4588e-06	6.3978e-06	1379.2	378.59	6.4177e-06	6.502e-06	433.19	143.96	125.54	42.759	6.4386e-06	53.091	108.964	155.268	141.494	91.528	198.224	233.505	91.287	96.151	216.584	237.972	95.663	99.881	100.405	104.917	169.332	104.136	-8191	255	
11333.863	1	1	0	0	0.097741	0.080584	0.034333	0.12463	0.10648	0.22517	0.30554	0.20212	0.12015	0.10838	0.15194	0.049519	0.22259	0.092527	0.1556	0.10097	-3.6958	-4.6604	-4.4333	-4.6146	-4.8708	-4.3042	-4.7229	-4.975	-4.175	-4.7063	-4.5563	-4.3521	-4.9771	-4.3083	-4.3146	-4.7438	304.184	362.946	84.700	88.920	96.513	104.949	419.397	385.825	432.510	424.629	397.187	324.916	373.508	366.208	182.109	412.064	0.00088819	0.00018842	0.00019151	1344.1	5.7746e-06	6.3443e-06	1347	368.93	8.4034e-06	4.5432e-06	420.22	140.44	122.43	41.23	5.2248e-06	50.815	0.00060337	0.00059303	0.00016282	1373.7	6.4684e-06	6.4e-06	1377.7	378.96	6.5336e-06	6.5079e-06	433.14	143.82	125.37	42.79	6.425e-06	52.968	112.787	164.804	153.989	91.604	213.772	231.849	91.488	96.044	223.829	231.368	95.718	100.019	100.519	105.130	185.469	104.118	-8191	255	
11333.959	1	1	0	0	0.087709	0.21587	0.08276	0.037929	0.081296	0.22148	0.18694	0.2232	0.1443	0.099329	0.11065	0.16272	0.0303	0.15287	0.0092452	0.24038	-3.6854	-4.6229	-4.6021	-4.5125	-4.8708	-4.3833	-4.7312	-4.9042	-4.0813	-4.5938	-4.8333	-4.3521	-4.8167	-4.3896	-4.2667	-4.95	380.806	388.058	322.058	417.350	289.165	392.837	417.267	413.862	251.324	285.590	412.554	261.418	279.405	366.585	129.051	396.483	0.00084627	0.00058226	9.9612e-05	1342.5	5.9038e-06	6.8994e-06	1344.4	369.38	5.1282e-06	4.0156e-06	419.54	139.56	122.2	41.121	7.4525e-06	51.343	0.00059399	0.00058164	0.00015786	1373.8	6.3324e-06	6.2259e-06	1376.2	378.3	6.2086e-06	6.1718e-06	432.09	143.5	125.25	42.705	6.1738e-06	53.004	108.326	145.085	143.780	91.694	205.318	231.384	91.404	96.101	225.621	251.385	95.611	99.810	100.313	105.143	185.039	104.259	-8191	255	
11334.031	1	1	0	0	0.079729	0.27227	0.15714	0.15064	0.075187	0.24474	0.32452	0.18821	0.2706	0.21073	0.12283	0.04556	0.16774	0.095094	0.17402	0.27421	-3.9875	-4.5583	-4.5292	-4.3562	-4.6854	-4.7104	-4.4229	-4.9313	-4.2146	-4.4583	-4.7646	-4.2875	-4.825	-4.1792	-4.1979	-4.9042	433.602	334.756	203.431	95.293	310.483	265.833	404.220	393.186	211.353	368.222	83.720	105.847	370.686	138.957	147.580	113.053	0.0009247	0.00020017	0.00015408	1343.5	8.4043e-06	6.708e-06	1348.9	369.6	8.405e-06	7.0183e-06	420.5	139.84	121.88	41.322	4.0056e-06	51.234	0.00058933	0.00056844	0.00015782	1375.4	6.3574e-06	6.2248e-06	1378.6	378.74	6.3349e-06	6.4014e-06	432.83	143.93	125.57	42.864	6.3706e-06	53.193	115.020	128.365	164.126	91.442	197.688	229.837	91.527	95.954	222.939	236.408	95.322	100.195	100.702	104.977	211.319	104.079	-8191	255	
11334.151	1	1	0	0	0.1444	0.22181	0.13367	0.19299	0.179	0.067061	0.22914	0.31066	0.10189	0.15718	0.3062	0.040124	0.18303	0.18516	0.18151	0.11882	-3.8583	-4.3229	-4.6438	-4.15	-4.7	-4.4604	-4.2021	-4.9812	-4.2458	-4.4812	-4.8146	-4.1604	-4.7167	-4.6542	-4.2208	-4.6917	387.502	141.955	100.020	424.002	253.919	206.297	349.097	435.219	117.097	381.402	384.236	390.818	124.954	421.843	100.453	367.675	0.00089539	0.00052984	0.00012443	1343.3	7.1205e-06	6.9388e-06	1344	370.76	1.0012e-05	9.0142e-06	420.35	140.86	122.35	41.132	7.9976e-06	51.276	0.00060141	0.00058708	0.00016133	1377.2	6.4798e-06	6.4682e-06	1380.1	379.81	6.621e-06	6.6559e-06	433.64	144.49	126.01	42.962	6.6321e-06	53.359	116.747	160.220	203.978	91.560	233.586	235.868	91.258	96.021	239.650	212.947	95.683	100.034	100.632	104.931	202.057	104.080	-8191	255	
11334.247	1	1	0	0	0.19473	0.062719	0.16574	0.17688	0.18304	0.083987	0.18554	0.42413	0.047135	0.21606	0.07101	0.19566	0.077984	0.2599	0.179	0.15502	-4.0229	-4.3604	-4.7	-4.1479	-4.5646	-4.6438	-4.4354	-4.975	-4.6292	-4.4187	-4.85	-4.3896	-4.6792	-4.7792	-4.2125	-4.9688	322.945	422.745	87.814	397.751	287.625	203.208	101.111	384.809	427.388	348.489	114.678	418.703	311.409	428.005	391.040	381.345	0.0009638	0.00050941	0.00012633	1344.8	5.3734e-06	6.5022e-06	1342.2	368.44	7.6908e-06	4.7522e-06	419.92	139.59	121.27	40.895	9.0459e-06	51.304	0.00062007	0.0006111	0.00016877	1378.4	6.7072e-06	6.5582e-06	1381.9	379.58	6.6281e-06	6.6434e-06	433.71	144.44	126.01	43.053	6.5618e-06	53.357	110.020	162.380	120.362	91.369	218.437	226.523	91.280	96.013	208.347	293.905	95.421	99.403	100.241	104.758	217.500	103.883	-8191	255	
11334.344	1	1	0	0	0.14943	0.13972	0.20117	0.35277	0.01964	0.17565	0.15498	0.092522	0.24816	0.14744	0.049095	0.10366	0.12052	0.20446	0.065631	0.22076	-4.0625	-4.3187	-4.7417	-4.5229	-4.425	-4.5667	-4.3292	-4.975	-4.6354	-4.2521	-4.8104	-4.3458	-4.4313	-4.8562	-4.1729	-4.7271	146.209	336.546	214.593	419.941	374.256	128.372	230.478	89.228	132.829	178.367	146.461	389.786	412.488	398.327	129.353	170.919	0.00086779	0.00022107	0.00014426	1331.9	4.5532e-06	9.1813e-06	1339.6	369.34	6.5669e-06	8.1733e-06	418.78	140.76	121.94	41.098	4.8715e-06	51.585	0.00061535	0.00059683	0.00016684	1378.4	6.5635e-06	6.556e-06	1382.9	379.65	6.5167e-06	6.4266e-06	433.78	144.88	126.19	43.1	6.3778e-06	53.556	109.377	116.899	181.468	91.460	234.442	244.450	91.092	96.120	212.970	234.694	95.648	99.579	100.474	104.867	182.320	104.298	-8191	255	
11334.464	1	1	0	0	0.074042	0.11109	0.1121	0.37509	0.20048	0.11991	0.36989	0.0080121	0.078387	0.13156	0.16765	0.25146	0.067167	0.12766	0.11097	0.19564	-4.2792	-4.0854	-4.6458	-4.625	-4.325	-4.8125	-4.3458	-4.7604	-4.7021	-4.3187	-4.9958	-4.3938	-4.4479	-4.9917	-4.2	-4.7812	162.105	235.899	346.394	363.848	346.352	309.161	392.123	408.235	395.367	191.374	360.676	364.968	330.426	379.029	316.611	338.087	0.00089427	0.00047245	0.00016766	1330.1	7.3791e-06	8.9149e-06	1351.3	370.88	6.4982e-06	3.3624e-06	419.3	140.75	122.12	41.058	6.023e-06	51.296	0.00059833	0.0005805	0.00016322	1377.9	6.3525e-06	6.2876e-06	1383.5	379.98	6.2534e-06	6.2765e-06	433.74	144.72	126.11	43.04	6.2705e-06	53.384	113.037	218.406	140.480	91.445	235.028	215.354	91.192	96.025	224.539	251.420	95.499	99.617	100.285	105.098	234.462	104.134	-8191	255	
11334.559	1	1	0	0	0.16425	0.15574	0.14699	0.18635	0.028914	0.24161	0.16452	0.077722	0.18209	0.12099	0.12639	0.14593	0.22797	0.12554	0.26437	0.13631	-4.3708	-4.2583	-4.7521	-4.5833	-4.1438	-4.5062	-4.4104	-4.6917	-4.7604	-4.2792	-4.7917	-4.575	-4.2729	-4.8917	-4.1354	-4.5208	408.728	274.311	332.561	358.080	123.824	260.537	387.201	387.638	116.826	423.365	328.364	418.162	190.972	288.292	392.971	336.968	0.00093001	0.00028303	0.00018688	1350	5.0844e-06	3.9114e-06	1354.6	369.5	1.5564e-06	3.6534e-06	419.84	140.59	122.35	41.518	4.7002e-06	51.193	0.00058787	0.00056517	0.00015961	1379.8	6.2172e-06	6.2304e-06	1384.3	379.51	6.1545e-06	6.2092e-06	433.48	144.35	125.98	43.154	6.327e-06	53.414	114.797	217.833	191.859	91.499	186.691	255.494	91.317	96.092	217.601	230.361	95.632	99.765	100.392	104.871	205.780	104.076	-8191	255	
11334.632	1	1	0	0	0.096868	0.1851	0.066642	0.14382	0.18915	0.1659	0.11022	0.25763	0.13804	0.39039	0.096095	0.069897	0.013323	0.066066	0.083216	0.086736	-4.4208	-4.1813	-4.5771	-4.8292	-4.2812	-4.7729	-4.4979	-4.45	-4.7667	-4.0896	-4.7771	-4.5396	-4.2479	-4.85	-4.3271	-4.4104	404.977	179.897	205.946	355.721	210.975	95.959	411.861	367.856	211.418	411.547	201.609	380.837	115.538	89.336	221.809	118.825	0.00091505	0.00031104	0.00013208	1338.2	6.6233e-06	5.7793e-06	1343.6	367.88	7.9068e-06	6.5843e-06	418.92	140.79	122.66	41.313	6.6254e-06	51.288	0.00060209	0.00058744	0.00016655	1379.2	6.5097e-06	6.5903e-06	1382.1	379.28	6.6149e-06	6.6682e-06	433.09	144.89	126.16	43.128	6.7775e-06	53.424	110.849	219.204	150.054	91.463	245.387	196.339	91.278	95.927	221.770	233.085	95.405	99.756	100.466	104.843	200.389	104.012	-8191	255	
11334.751	1	1	0	0	0.050795	0.15776	0.2176	0.1591	0.26253	0.074253	0.38376	0.27869	0.014767	0.23911	0.083362	0.078889	0.079051	0.21823	0.038327	0.075334	-4.5167	-4.3896	-4.5062	-4.9021	-4.1667	-4.9083	-4.6292	-4.5667	-4.7167	-4.2562	-4.6062	-4.6104	-4.2	-4.7917	-4.4729	-4.3938	105.650	232.221	434.032	324.757	350.826	215.482	435.724	388.232	254.342	80.629	405.007	427.373	227.969	349.020	427.123	152.144	0.0008466	0.0006868	0.00016228	1340	5.8051e-06	6.0437e-06	1346.3	366.94	1.0884e-05	4.6172e-06	419.71	141.07	122.35	41.274	6.7437e-06	51.252	0.00064031	0.00063401	0.00017704	1379.1	6.8714e-06	7.0498e-06	1384.1	379.4	6.9876e-06	6.8782e-06	434.13	144.81	126.34	43.187	6.6922e-06	53.459	113.309	173.170	169.907	91.513	236.663	246.212	91.240	96.066	188.087	220.692	95.397	99.711	100.542	104.855	197.098	104.293	-8191	255	
11334.847	1	1	0	0	0.12482	0.14625	0.28468	0.11627	0.07664	0.074019	0.18306	0.095877	0.15481	0.082352	0.069595	0.071586	0.06252	0.18395	0.12699	0.041772	-4.475	-4.1521	-4.4875	-4.8396	-4.1208	-4.7833	-4.6583	-4.5125	-4.75	-4.1937	-4.6438	-4.9396	-4.3542	-4.7792	-4.4646	-4.3479	354.918	393.664	406.196	99.996	234.236	400.669	348.801	397.603	320.936	375.842	378.317	326.078	339.224	84.148	96.716	396.280	0.00093832	0.00072138	6.4169e-05	1342.7	6.862e-06	8.8063e-06	1349.3	368.58	5.295e-06	6.7466e-06	420.83	140.54	123.22	41.539	6.4596e-06	51.726	0.00062342	0.00060924	0.00016815	1379.1	6.5983e-06	6.6535e-06	1384.8	379.38	6.7209e-06	6.7128e-06	434	144.42	126.23	43.134	6.9369e-06	53.494	114.547	170.928	164.158	91.398	218.208	264.288	91.222	95.937	242.933	228.636	95.542	99.638	100.644	105.130	196.728	103.866	-8191	255	
11334.943	1	1	0	0	0.18195	0.11949	0.16295	0.28507	0.15712	0.05077	0.23686	0.079732	0.2243	0.2168	0.19759	0.2393	0.18445	0.095749	0.12529	0.078898	-4.3688	-4.3063	-4.3646	-4.9292	-4.0104	-4.7229	-4.7583	-4.2937	-4.8938	-4.3625	-4.4417	-4.7333	-4.25	-4.7104	-4.5125	-4.375	154.890	391.104	262.329	366.619	169.473	379.650	167.986	362.928	237.085	378.909	367.799	437.802	115.034	187.001	81.191	96.946	0.00094246	0.00030123	0.00016178	1347.6	6.5084e-06	1.8577e-06	1355	369.32	6.6607e-06	7.3086e-06	418.58	140.52	121.81	41.34	1.1328e-05	51.385	0.0006515	0.00063617	0.00017942	1381.2	6.9795e-06	7.0995e-06	1385.5	379.45	7.1078e-06	7.101e-06	433.57	144.67	126.12	43.141	6.994e-06	53.39	109.084	146.197	167.686	91.530	225.125	270.904	91.391	95.990	223.922	260.594	95.567	99.570	100.194	104.951	222.517	104.185	-8191	255	
11335.064	1	1	0	0	0.045747	0.10467	0.21914	0.14494	0.14511	0.18327	0.14669	0.24333	0.10573	0.34717	0.040804	0.055021	0.085665	0.15027	0.094285	0.21689	-4.3271	-4.4292	-4.2125	-4.9437	-4.2729	-4.6813	-4.8167	-4.4125	-4.7937	-4.5396	-4.3354	-4.7708	-4.4187	-4.4979	-4.7208	-4.2604	388.247	308.315	274.228	417.977	183.699	202.345	366.173	360.619	378.697	101.670	284.870	399.415	96.440	114.377	100.566	225.282	0.00090807	0.00017526	0.00010853	1351.3	7.4125e-06	6.4861e-06	1357.1	369.84	7.5581e-06	6.3087e-06	423.6	140.95	122.8	41.539	5.2031e-06	51.512	0.00065108	0.00063923	0.00017723	1380.7	6.8867e-06	6.9453e-06	1386.3	379.21	6.8731e-06	6.8008e-06	434.64	144.66	126.32	43.105	6.7546e-06	53.352	110.083	180.676	164.395	91.594	225.005	233.202	91.222	96.182	212.133	269.208	95.519	99.818	100.501	105.086	221.451	104.462	-8191	255	
11335.160	1	1	0	0	0.11102	0.05775	0.28331	0.057513	0.12736	0.086397	0.25612	0.12488	0.10855	0.078572	0.20943	0.10074	0.22631	0.092052	0.050983	0.18332	-4.3458	-4.4812	-4.2583	-4.9792	-4.1771	-4.4646	-5.0417	-4.3396	-4.5687	-4.5854	-4.3458	-4.9729	-4.4208	-4.5917	-4.6875	-4.3667	181.721	355.958	397.586	206.078	437.955	268.649	423.881	393.401	178.126	377.386	421.218	432.115	93.656	375.094	102.418	298.187	0.00090259	0.00021654	0.00019425	1347.7	6.77e-06	2.0364e-06	1357.1	370.91	7.627e-06	4.9238e-06	421	140.91	122.96	41.574	9.4754e-06	51.392	0.00063664	0.00061276	0.00017483	1381.6	6.862e-06	6.8427e-06	1385.8	379.97	6.9951e-06	6.9454e-06	434.42	144.61	126.37	43.155	6.7818e-06	53.443	107.996	121.956	191.852	91.642	223.734	208.125	91.264	96.051	182.345	211.494	95.470	99.889	100.331	104.900	226.638	104.358	-8191	255	
11335.256	1	1	0	0	0.17451	0.099039	0.20596	0.29111	0.069243	0.023712	0.28299	0.13372	0.17397	0.073044	0.10572	0.11458	0.1985	0.24235	0.10658	0.15883	-4.3396	-4.4208	-4.2688	-5.0146	-4.3854	-4.4104	-4.8625	-4.6229	-4.6958	-4.7708	-4.2646	-4.7667	-4.6062	-4.4583	-4.7771	-4.3729	297.389	384.179	169.471	394.622	354.235	411.271	407.868	267.656	263.882	141.523	193.908	312.569	244.650	431.284	340.044	385.800	0.00087088	0.00068676	0.00011943	1350.1	6.9729e-06	6.3409e-06	1358.6	370.85	6.327e-06	6.4375e-06	422.61	140.87	122.83	41.661	8.9025e-06	51.506	0.00063797	0.00061451	0.00017211	1383.2	6.7496e-06	6.7987e-06	1387.5	379.99	6.7613e-06	6.6936e-06	434.11	144.66	126.01	43.111	6.5981e-06	53.39	110.624	159.313	193.793	91.476	213.556	265.953	91.384	96.107	210.156	255.360	95.501	99.764	100.581	105.145	211.890	104.259	-8191	255	
11335.328	1	1	0	0	0.10628	0.16181	0.18552	0.27157	0.18018	0.12433	0.33552	0.10016	0.053892	0.077162	0.10915	0.46773	0.19701	0.037636	0.16954	0.16469	-4.0563	-4.6771	-4.2271	-4.8479	-4.4812	-4.3958	-5.0479	-4.5146	-4.4187	-4.6479	-4.3187	-4.8292	-4.6542	-4.2771	-4.8375	-4.2917	106.438	121.667	331.715	428.525	256.563	245.756	298.357	252.131	236.067	431.606	433.877	422.584	424.737	369.439	140.967	397.897	0.00091919	0.00043861	0.00013722	1353.5	6.9311e-06	3.2386e-06	1355.5	369.67	4.527e-06	6.9019e-06	424.04	141.03	122.97	41.57	7.296e-06	51.326	0.00062297	0.00059815	0.0001685	1384	6.553e-06	6.5994e-06	1387.2	379.91	6.591e-06	6.5695e-06	434.62	144.72	126.18	43.088	6.6847e-06	53.408	110.899	188.182	143.657	91.686	220.163	153.783	91.347	96.191	233.636	250.972	95.554	100.025	100.421	105.161	211.023	104.128	-8191	255	
#DATA ENDS
