BOXY.EXE: ISS Imagent and Oximeter Data Acquisition Program Version 0.80
Ascii Record File

#ACQ INFORMATION
2  Detector Channels 
16  External MUX Channels 
1  Auxiliary Channels 
5000  Waveform (CCF) Frequency (Hz)
1  Waveforms Skipped 
30  Waveforms Averaged 
1  Cycles Averaged 
16  Acquisitions per Waveform 
10.0806  Updata Rate (Hz) 

#FILE INFORMATION
TRUE -- External MUX Channel results are PARSED.
FALSE -- AC DC and Phase are NOT grouped.
TRUE -- Companion Program Settings File CREATED.
FALSE -- AC data not excluded
FALSE -- DC data not excluded
FALSE -- Phase data not excluded
FALSE -- Auxillary Chn. data not excluded
Tab delimiters

#CALIBRATION STATE
TRUE -- Waveform Calibration Values APPLIED.


#AUX CALIBRATION VALUES
Val Type	aux-1	

Term	1.0000e+00	
Factor	0.0000e+00	


#WF CALIBRATION VALUES
A = Detector Channel
Val Type	A-AC1	A-AC2	A-AC3	A-AC4	A-AC5	A-AC6	A-AC7	A-AC8	A-AC9	A-AC10	A-AC11	A-AC12	A-AC13	A-AC14	A-AC15	A-AC16	A-DC1	A-DC2	A-DC3	A-DC4	A-DC5	A-DC6	A-DC7	A-DC8	A-DC9	A-DC10	A-DC11	A-DC12	A-DC13	A-DC14	A-DC15	A-DC16	A-Ph1	A-Ph2	A-Ph3	A-Ph4	A-Ph5	A-Ph6	A-Ph7	A-Ph8	A-Ph9	A-Ph10	A-Ph11	A-Ph12	A-Ph13	A-Ph14	A-Ph15	A-Ph16	

Term	0.00000e+00	0.00000e+00	0.00000e+00	0.00000e+00	0.00000e+00	0.00000e+00	0.00000e+00	0.00000e+00	0.00000e+00	0.00000e+00	0.00000e+00	0.00000e+00	0.00000e+00	0.00000e+00	0.00000e+00	0.00000e+00	0.00000e+00	0.00000e+00	0.00000e+00	0.00000e+00	0.00000e+00	0.00000e+00	0.00000e+00	0.00000e+00	0.00000e+00	0.00000e+00	0.00000e+00	0.00000e+00	0.00000e+00	0.00000e+00	0.00000e+00	0.00000e+00	0.00000e+00	0.00000e+00	0.00000e+00	0.00000e+00	0.00000e+00	0.00000e+00	0.00000e+00	0.00000e+00	0.00000e+00	0.00000e+00	0.00000e+00	0.00000e+00	0.00000e+00	0.00000e+00	0.00000e+00	0.00000e+00	
Factor	1.00000e+00	1.00000e+00	1.00000e+00	1.00000e+00	1.00000e+00	1.00000e+00	1.00000e+00	1.00000e+00	1.00000e+00	1.00000e+00	1.00000e+00	1.00000e+00	1.00000e+00	1.00000e+00	1.00000e+00	1.00000e+00	1.00000e+00	1.00000e+00	1.00000e+00	1.00000e+00	1.00000e+00	1.00000e+00	1.00000e+00	1.00000e+00	1.00000e+00	1.00000e+00	1.00000e+00	1.00000e+00	1.00000e+00	1.00000e+00	1.00000e+00	1.00000e+00	X	X	X	X	X	X	X	X	X	X	X	X	X	X	X	X	

B = Detector Channel
Val Type	B-AC1	B-AC2	B-AC3	B-AC4	B-AC5	B-AC6	B-AC7	B-AC8	B-AC9	B-AC10	B-AC11	B-AC12	B-AC13	B-AC14	B-AC15	B-AC16	B-DC1	B-DC2	B-DC3	B-DC4	B-DC5	B-DC6	B-DC7	B-DC8	B-DC9	B-DC10	B-DC11	B-DC12	B-DC13	B-DC14	B-DC15	B-DC16	B-Ph1	B-Ph2	B-Ph3	B-Ph4	B-Ph5	B-Ph6	B-Ph7	B-Ph8	B-Ph9	B-Ph10	B-Ph11	B-Ph12	B-Ph13	B-Ph14	B-Ph15	B-Ph16	

Term	0.00000e+00	0.00000e+00	0.00000e+00	0.00000e+00	0.00000e+00	0.00000e+00	0.00000e+00	0.00000e+00	0.00000e+00	0.00000e+00	0.00000e+00	0.00000e+00	0.00000e+00	0.00000e+00	0.00000e+00	0.00000e+00	0.00000e+00	0.00000e+00	0.00000e+00	0.00000e+00	0.00000e+00	0.00000e+00	0.00000e+00	0.00000e+00	0.00000e+00	0.00000e+00	0.00000e+00	0.00000e+00	0.00000e+00	0.00000e+00	0.00000e+00	0.00000e+00	-1.76971e+02	-1.26231e+02	-1.22654e+02	-1.81614e+02	-8.27724e+01	-7.88091e+01	-1.57570e+02	-1.62015e+02	-8.57950e+01	-7.03981e+01	-1.71199e+02	-1.72854e+02	-1.84169e+02	-1.76777e+02	-8.06855e+01	-1.49602e+02	
Factor	3.07816e-05	1.62578e-04	4.72384e-05	1.51029e-01	1.31753e-06	1.41732e-06	1.65794e-01	5.23204e-02	1.70557e-06	1.74508e-06	8.62220e-02	3.50286e-02	3.70922e-02	9.34852e-03	1.66101e-06	1.36017e-02	2.42273e-06	2.59562e-06	7.22291e-07	7.56502e-02	2.81075e-08	2.84093e-08	7.83351e-02	2.61589e-02	2.80967e-08	2.83958e-08	4.18652e-02	1.69423e-02	1.85081e-02	4.69075e-03	2.82755e-08	6.61081e-03	X	X	X	X	X	X	X	X	X	X	X	X	X	X	X	X	



#DISTANCE SETTINGS
A = Detector Channel
A-1	A-2	A-3	A-4	A-5	A-6	A-7	A-8	A-9	A-10	A-11	A-12	A-13	A-14	A-15	A-16	

2.5000e+00	3.0000e+00	2.5000e+00	3.0000e+00	2.0000e+00	3.0000e+00	1.5000e+00	3.0000e+00	3.0000e+00	3.0000e+00	3.0000e+00	3.0000e+00	3.0000e+00	3.0000e+00	1.5000e+00	3.0000e+00	

B = Detector Channel
B-1	B-2	B-3	B-4	B-5	B-6	B-7	B-8	B-9	B-10	B-11	B-12	B-13	B-14	B-15	B-16	

1.0000e+01	1.0000e+01	1.0000e+01	1.4400e+00	1.0000e+01	1.0000e+01	1.5100e+00	1.9400e+00	1.0000e+01	1.0000e+01	1.9900e+00	2.4900e+00	2.4100e+00	2.9000e+00	1.0000e+01	2.9800e+00	




#DATA BEGINS
time	group	step	mark	flag	A-AC1	A-AC2	A-AC3	A-AC4	A-AC5	A-AC6	A-AC7	A-AC8	A-AC9	A-AC10	A-AC11	A-AC12	A-AC13	A-AC14	A-AC15	A-AC16	A-DC1	A-DC2	A-DC3	A-DC4	A-DC5	A-DC6	A-DC7	A-DC8	A-DC9	A-DC10	A-DC11	A-DC12	A-DC13	A-DC14	A-DC15	A-DC16	A-Ph1	A-Ph2	A-Ph3	A-Ph4	A-Ph5	A-Ph6	A-Ph7	A-Ph8	A-Ph9	A-Ph10	A-Ph11	A-Ph12	A-Ph13	A-Ph14	A-Ph15	A-Ph16	B-AC1	B-AC2	B-AC3	B-AC4	B-AC5	B-AC6	B-AC7	B-AC8	B-AC9	B-AC10	B-AC11	B-AC12	B-AC13	B-AC14	B-AC15	B-AC16	B-DC1	B-DC2	B-DC3	B-DC4	B-DC5	B-DC6	B-DC7	B-DC8	B-DC9	B-DC10	B-DC11	B-DC12	B-DC13	B-DC14	B-DC15	B-DC16	B-Ph1	B-Ph2	B-Ph3	B-Ph4	B-Ph5	B-Ph6	B-Ph7	B-Ph8	B-Ph9	B-Ph10	B-Ph11	B-Ph12	B-Ph13	B-Ph14	B-Ph15	B-Ph16	aux-1	digaux	

8643.308	1	1	0	512	0.020214	0.094302	0.12993	0.14795	0.09075	0.19519	0.3328	0.017683	0.060601	0.10516	0.33795	0.37893	0.16576	0.31695	0.19865	0.20864	-4.4917	-4.1438	-4.6479	-4.575	-4.2125	-4.9313	-4.4646	-4.6104	-4.675	-4.2063	-4.7792	-4.7688	-4.4896	-4.9292	-4.3104	-4.7438	83.866	-87.113	176.014	-71.160	-59.697	-43.989	147.763	-15.635	252.831	139.736	206.891	249.195	146.365	242.507	11.766	213.903	0.00090272	0.00060879	0.00018653	1010.3	7.1553e-06	5.7613e-06	1205.9	393.97	5.7607e-06	8.597e-06	572.02	247.47	170.02	87.061	8.721e-06	135.48	0.00036842	0.00030697	8.6077e-05	927.91	3.4292e-06	3.4021e-06	1112.4	360.37	3.4677e-06	3.3176e-06	524.45	226.98	156.58	80.083	3.4584e-06	124.4	142.970	11.323	3.996	-92.509	10.681	49.443	-93.240	-87.035	2.573	37.307	-88.940	-85.119	-83.405	-78.430	11.265	-80.642	-8191	255	
8643.404	1	1	0	0	0.19153	0.16992	0.11927	0.1478	0.17592	0.13568	0.26309	0.27944	0.03031	0.18845	0.15073	0.19979	0.17811	0.077207	0.14616	0.26413	-4.3688	-4.0792	-4.8083	-4.6396	-4.2312	-4.9771	-4.6625	-4.4646	-4.7208	-4.1813	-4.8313	-4.5458	-4.2167	-4.925	-4.4187	-4.4458	114.692	-100.893	69.238	212.715	144.339	172.585	204.479	202.832	-85.253	145.465	211.460	232.170	240.407	-80.012	112.381	181.259	0.00088947	0.0006563	0.00023626	1000.9	6.2153e-06	5.9595e-06	1202.2	391.1	2.1215e-06	1.0205e-05	569.17	246.8	169.69	86.279	8.4264e-06	134.9	0.00036451	0.00030843	8.849e-05	920.91	3.3782e-06	3.4034e-06	1107.3	358.92	3.4513e-06	3.3656e-06	521.77	226.04	155.53	79.546	3.4246e-06	123.81	143.721	-3.062	-10.180	-92.134	38.623	70.348	-93.598	-87.513	-44.660	58.451	-88.983	-85.071	-83.168	-78.336	52.463	-80.680	-8191	255	
8643.501	1	1	0	0	0.069969	0.28765	0.11475	0.32215	0.15259	0.092485	0.15262	0.15415	0.087156	0.074373	0.079252	0.16965	0.078894	0.31562	0.19049	0.26397	-4.4625	-4.0542	-4.6375	-4.7146	-4.1646	-4.8354	-4.6646	-4.4458	-4.8313	-4.3167	-4.6479	-4.9333	-4.3292	-4.8958	-4.5958	-4.5104	81.392	227.796	-78.306	205.063	-48.875	201.718	175.503	140.609	26.118	-20.671	151.145	229.747	186.343	219.790	141.842	204.950	0.001002	0.00044192	0.00034715	1001.4	5.0968e-06	5.3947e-06	1196.9	387.24	6.1747e-06	8.4744e-06	564.41	245.01	167.64	85.841	5.5934e-06	134.39	0.00035875	0.00030237	8.6585e-05	918.43	3.3233e-06	3.3223e-06	1103.2	355.84	3.4341e-06	3.3499e-06	518.41	225.49	154.16	79.025	3.3455e-06	123.49	150.549	-24.443	-11.036	-92.285	-23.003	55.852	-93.403	-87.295	39.885	4.406	-88.869	-85.098	-83.091	-78.258	28.301	-80.856	-8191	255	
8643.621	1	1	0	0	0.11679	0.16866	0.33931	0.264	0.19046	0.082224	0.18563	0.20441	0.25583	0.036943	0.020909	0.12524	0.12544	0.42642	0.2107	0.17638	-4.3896	-4.3229	-4.4958	-5.0542	-4.1937	-4.6792	-4.7688	-4.3479	-4.7875	-4.5208	-4.6354	-4.9833	-4.2188	-4.775	-4.6396	-4.5771	-62.237	167.830	187.258	254.426	-53.214	18.389	218.329	-100.845	-92.690	22.425	111.812	254.092	35.795	208.681	90.561	227.958	0.00093098	0.0006073	0.00014294	995.18	5.5831e-06	9.254e-06	1199.1	385.46	7.6673e-06	5.5004e-06	563.23	244.6	166.99	85.302	1.2574e-05	134.09	0.00036109	0.00030895	8.6016e-05	914.66	3.4043e-06	3.4357e-06	1103.3	353.94	3.4353e-06	3.4032e-06	517.48	224.56	153.21	78.651	3.4225e-06	123.24	141.132	27.700	-27.412	-92.580	27.736	42.340	-93.652	-87.445	6.399	4.279	-88.901	-85.063	-83.425	-78.347	22.091	-80.739	-8191	255	
8643.693	1	1	0	0	0.24156	0.08946	0.066703	0.20464	0.22169	0.10333	0.059307	0.21357	0.11196	0.18195	0.099058	0.19738	0.14144	0.23781	0.11521	0.18729	-4.6354	-4.5042	-4.4229	-4.8583	-4.3021	-4.75	-4.8063	-4.3229	-4.8979	-4.5271	-4.5437	-4.9208	-4.5417	-4.6062	-4.7958	-4.3729	-94.746	247.037	-20.876	204.681	23.504	68.867	250.373	159.819	180.315	96.976	143.373	209.260	172.808	239.117	169.810	217.607	0.00085331	0.0011654	0.0001478	998.92	9.8338e-06	7.5551e-06	1208.9	385.73	8.7095e-06	7.7883e-06	566.26	246.44	167.1	85.355	5.1349e-06	135.49	0.00036612	0.0003087	8.5542e-05	915.56	3.2704e-06	3.3979e-06	1107.5	352.94	3.4145e-06	3.3386e-06	519.34	225.69	153.64	78.525	3.4362e-06	124.03	141.285	19.502	-6.029	-92.256	20.183	7.321	-93.527	-87.261	28.531	43.830	-89.087	-85.068	-83.440	-78.253	27.427	-80.847	-8191	255	
8643.789	1	1	0	0	0.156	0.19727	0.13329	0.12872	0.034706	0.051024	0.11137	0.20645	0.11211	0.074184	0.14603	0.20427	0.074565	0.17963	0.05172	0.23469	-4.4396	-4.6083	-4.4396	-4.8875	-4.4792	-4.4833	-4.8417	-4.3562	-4.8354	-4.4729	-4.5271	-5.0312	-4.4771	-4.6062	-4.8896	-4.4417	88.287	43.076	184.042	-89.190	180.464	55.905	172.669	184.261	65.251	12.103	245.688	-91.720	158.840	-50.690	154.183	225.887	0.00085761	0.0010286	0.00036901	995.82	6.9287e-06	1.0054e-05	1204.9	384.94	3.9968e-06	6.7834e-06	567.22	245.69	167.5	85.365	6.8736e-06	134.05	0.00036445	0.00030549	8.6052e-05	914.33	3.3314e-06	3.3994e-06	1109	353.4	3.4538e-06	3.3407e-06	520.42	225.15	153.5	78.472	3.4324e-06	123.11	148.933	-19.736	5.605	-92.578	9.358	43.247	-93.483	-87.304	14.504	26.459	-88.870	-85.203	-83.627	-78.432	27.080	-80.744	-8191	255	
8643.910	1	1	0	0	0.099336	0.12242	0.11551	0.15944	0.065519	0.17424	0.087362	0.17113	0.17136	0.083221	0.28926	0.24198	0.14929	0.20599	0.1827	0.293	-4.4313	-4.6979	-4.2458	-4.9625	-4.4271	-4.4854	-5.0625	-4.4792	-4.6958	-4.5542	-4.4688	-4.9229	-4.4563	-4.625	-4.8479	-4.4042	145.407	34.885	-102.210	242.779	226.603	230.249	122.787	214.761	103.778	36.583	189.521	235.611	-80.520	216.905	228.374	-80.649	0.0009423	0.00072059	0.00016497	994.79	5.4919e-06	7.749e-06	1200	384.25	8.9146e-06	9.503e-06	564.72	244.27	166.76	84.725	5.8101e-06	133.73	0.00036512	0.00030563	8.485e-05	913.33	3.3828e-06	3.2981e-06	1102.7	352.58	3.3649e-06	3.2159e-06	515.84	223.45	152.45	77.923	3.3139e-06	122.38	151.971	-1.385	6.446	-92.150	-5.730	18.709	-93.748	-87.233	20.245	50.006	-89.115	-85.223	-83.474	-78.484	67.135	-80.668	-8191	255	
8644.006	1	1	0	0	0.27968	0.10492	0.17645	0.17325	0.17829	0.087565	0.24003	0.24347	0.18354	0.074752	0.08742	0.20399	0.134	0.31361	0.1629	0.17714	-4.3938	-4.6042	-4.2417	-5.0083	-4.5208	-4.2583	-5.05	-4.5021	-4.5271	-4.7792	-4.2146	-4.8333	-4.6	-4.4104	-4.8792	-4.4437	8.058	2.024	181.304	-99.960	-79.702	-15.912	243.545	214.196	242.632	65.917	212.633	249.448	230.367	-82.659	187.538	207.233	0.00096116	0.00035324	0.000311	992.48	4.0259e-06	1.0642e-05	1192.5	384.11	5.2625e-06	1.0656e-05	562.15	242.72	166.15	84.707	8.7246e-06	133.07	0.00035575	0.00029644	8.1185e-05	909.78	3.275e-06	3.2569e-06	1097.7	352.79	3.3266e-06	3.1729e-06	515.71	222.81	152.27	77.697	3.2229e-06	121.99	147.329	-37.628	-31.485	-92.104	20.812	35.308	-93.327	-87.315	13.557	29.465	-89.087	-85.044	-83.204	-78.583	31.377	-80.695	-8191	255	
8644.102	1	1	0	0	0.15165	0.059623	0.024561	0.12841	0.099926	0.017154	0.098072	0.3037	0.20009	0.18999	0.086441	0.22921	0.058001	0.13931	0.18586	0.30589	-4.1458	-4.7229	-4.1417	-4.8083	-4.6292	-4.3812	-4.9187	-4.5125	-4.3146	-4.6604	-4.5271	-4.7937	-4.7479	-4.5375	-4.8042	-4.5896	62.600	42.085	12.637	164.721	254.060	15.234	250.252	230.786	174.715	-8.041	166.771	219.223	149.565	201.699	-14.101	209.929	0.00086131	0.00083285	0.00031564	990.88	7.7796e-06	4.7167e-06	1195.6	381.26	6.8751e-06	5.0322e-06	561.87	243.74	166.67	84.587	8.9299e-06	133.21	0.00034929	0.00029101	7.9631e-05	908.98	3.1441e-06	3.1891e-06	1098.7	351.8	3.2673e-06	3.1793e-06	515.32	223.64	152.64	77.87	3.3169e-06	122.29	150.486	-12.866	-12.189	-92.392	47.332	83.264	-93.442	-87.590	-28.523	13.871	-88.971	-85.134	-83.521	-78.497	41.648	-80.666	-8191	255	
8644.221	1	1	0	0	0.108	0.20898	0.16361	0.12439	0.18324	0.25049	0.18332	0.059929	0.11672	0.031032	0.16354	0.064777	0.16796	0.36865	0.070908	0.27997	-3.9896	-4.7771	-4.1208	-4.6125	-4.5417	-4.2083	-4.9875	-4.5979	-4.3063	-4.8958	-4.3	-4.8083	-4.7271	-4.2792	-4.8125	-4.8333	188.068	115.494	-86.321	184.079	228.273	-8.593	52.650	239.232	175.037	105.328	191.304	42.614	139.034	237.100	-97.817	157.230	0.0009002	0.0010718	6.9507e-05	999.14	5.1698e-06	4.7363e-06	1203.2	385.76	4.6193e-06	1.0281e-05	569.98	245.11	168.27	85.638	3.3413e-06	134.28	0.00034755	0.00029727	8.004e-05	915.19	3.2198e-06	3.1843e-06	1105	354.82	3.2833e-06	3.164e-06	521.14	225.32	154.44	78.669	3.4076e-06	123.53	145.903	-28.963	-78.658	-92.277	34.514	45.317	-93.513	-87.680	-33.545	40.639	-88.804	-85.017	-83.364	-78.409	19.845	-80.751	-8191	255	
8644.292	1	1	0	0	0.083329	0.14523	0.14185	0.18566	0.14002	0.066528	0.22499	0.24479	0.11473	0.20559	0.26471	0.13227	0.18291	0.18448	0.1025	0.44972	-4.0583	-4.9229	-4.2875	-4.6375	-4.8208	-4.1979	-4.9021	-4.6604	-4.2375	-4.8271	-4.3625	-4.6875	-4.7125	-4.3063	-4.7104	-4.7063	118.520	248.014	-9.649	196.014	-80.008	249.162	214.370	230.875	196.837	-42.571	161.125	143.900	-99.181	243.686	-35.169	219.340	0.00093758	0.00079489	0.00018306	1001.4	7.9691e-06	3.864e-06	1213.8	390.03	5.5821e-06	9.2192e-06	572.22	248.93	169.56	86.517	3.183e-06	135.55	0.00034593	0.00029968	8.2164e-05	920.17	3.2564e-06	3.254e-06	1113.6	358.02	3.3242e-06	3.2469e-06	523.83	227.44	155.71	79.448	3.3943e-06	124.02	148.776	11.203	27.646	-92.201	30.940	49.109	-93.284	-87.326	0.374	34.101	-88.886	-84.913	-83.274	-78.568	1.369	-80.681	-8191	255	
8644.389	1	1	0	0	0.23199	0.09636	0.16755	0.16463	0.13022	0.12762	0.061271	0.19743	0.22624	0.044181	0.21208	0.050692	0.21075	0.3239	0.11746	0.20706	-3.9979	-4.8438	-4.3292	-4.5354	-4.9125	-4.3542	-4.6521	-4.6562	-4.425	-4.7958	-4.4479	-4.5437	-4.9375	-4.2875	-4.6146	-4.9542	-67.060	80.834	-75.878	23.122	133.246	-18.074	106.261	246.829	73.407	-35.836	202.456	77.137	-45.094	207.906	-28.985	225.357	0.00091456	0.00073546	0.00023656	1004.9	5.8124e-06	8.8779e-06	1203.4	388.99	6.9745e-06	7.6698e-06	571.25	246.2	169.96	86.294	6.1318e-06	134.69	0.0003602	0.00030283	8.5e-05	920.91	3.3082e-06	3.2408e-06	1106.6	358.1	3.2067e-06	3.212e-06	521.77	226.19	156.17	79.405	3.2881e-06	123.6	148.380	-41.537	-21.250	-92.186	7.289	45.976	-93.595	-87.421	8.682	30.012	-89.193	-84.926	-83.207	-78.409	26.420	-80.648	-8191	255	
8644.485	1	1	0	0	0.11033	0.2408	0.2477	0.17449	0.17683	0.20976	0.24122	0.22596	0.11321	0.097644	0.096511	0.16777	0.094594	0.45127	0.12904	0.079746	-3.8667	-4.7604	-4.4625	-4.35	-4.7646	-4.3208	-4.7271	-4.7271	-4.3313	-4.7958	-4.4812	-4.4187	-4.875	-4.5271	-4.5021	-5.0896	207.079	126.418	5.872	-54.990	123.145	-94.570	215.845	-101.413	-13.166	-84.250	194.597	147.337	88.918	204.975	135.482	151.031	0.00081194	0.0003846	0.00026211	1001.4	7.3044e-06	1.3336e-06	1201.5	390.56	1.0303e-05	5.9691e-06	567.7	244.92	169.28	86.221	1.1303e-05	134.46	0.00034722	0.00029175	8.2135e-05	919.37	3.2086e-06	3.116e-06	1103.4	358.07	3.173e-06	3.1208e-06	520.49	225.63	155.38	79.136	3.2045e-06	123.21	142.791	-54.929	-16.297	-92.298	-2.245	58.946	-93.563	-87.399	-2.107	-16.656	-88.815	-85.037	-83.530	-78.384	20.561	-80.809	-8191	255	
8644.604	1	1	0	0	0.27652	0.32694	0.090497	0.19612	0.086463	0.13761	0.12228	0.28488	0.025772	0.092342	0.13583	0.24793	0.06683	0.10832	0.11642	0.26267	-3.9229	-4.8625	-4.6062	-4.3479	-4.8729	-4.3812	-4.8042	-4.9021	-4.0646	-4.8146	-4.7833	-4.2875	-4.9708	-4.5708	-4.3938	-4.9938	-20.566	174.387	192.428	-74.493	14.382	-3.231	101.837	187.450	44.375	-6.680	112.273	228.610	225.346	156.814	-90.885	209.007	0.00083293	0.001013	0.00017041	1002.4	8.4164e-06	9.8623e-06	1201.7	390.26	3.7239e-06	4.0023e-07	569.57	245.57	168.76	85.83	4.3297e-06	134.06	0.00033921	0.00029266	8.0578e-05	918.82	3.1832e-06	3.0658e-06	1104.1	358.59	3.1224e-06	3.1541e-06	521.36	225.38	154.91	78.801	3.1869e-06	123	142.717	4.287	-28.332	-92.466	6.066	23.192	-93.527	-87.213	-6.539	127.155	-88.837	-84.913	-83.277	-78.285	-17.468	-80.691	-8191	255	
8644.700	1	1	0	0	0.1464	0.016889	0.12864	0.083001	0.15638	0.24168	0.17731	0.15384	0.20602	0.096901	0.2472	0.32648	0.09342	0.25327	0.11841	0.20966	-3.8937	-4.4854	-4.6333	-4.4417	-4.8021	-4.3146	-4.5813	-4.9125	-4.2083	-4.5896	-4.7417	-4.3333	-4.8542	-4.4708	-4.425	-4.9812	29.802	223.186	237.890	190.029	-18.315	18.180	232.942	-84.409	173.453	14.581	188.294	186.258	247.207	190.346	-88.936	215.910	0.00089008	0.00068249	0.00027572	1001.5	5.223e-06	8.3153e-06	1211	394.41	5.546e-06	9.4425e-06	573.74	248.84	170.77	85.942	6.7694e-06	135.26	0.00033644	0.00028164	7.8372e-05	920.2	3.0916e-06	3.0548e-06	1112.4	361.38	3.0779e-06	3.0317e-06	526.46	227.74	156.43	79.21	3.2061e-06	124.01	145.140	-22.378	-15.161	-92.390	21.512	33.889	-93.481	-87.323	-44.443	61.781	-88.987	-85.243	-83.281	-78.724	-0.907	-80.745	-8191	255	
8644.796	1	1	0	0	0.14335	0.16977	0.08672	0.1151	0.14673	0.089272	0.19166	0.14584	0.15374	0.13078	0.29751	0.11948	0.34236	0.087854	0.079636	0.19961	-3.9333	-4.5354	-4.7854	-4.2312	-4.8417	-4.4792	-4.4187	-4.9604	-4.1562	-4.5813	-4.7333	-4.375	-4.9292	-4.7312	-4.2479	-5.0146	201.793	-85.535	180.337	-38.484	-87.201	214.615	189.823	213.762	68.529	254.202	213.915	208.613	225.431	49.837	95.008	145.688	0.00087607	0.0011539	0.00022031	1008.9	7.5767e-06	4.7745e-06	1215.1	396.5	2.7599e-06	1.3229e-05	581.95	250.42	173.21	86.93	5.4773e-06	135.96	0.00033908	0.00029261	7.9106e-05	927.33	3.1253e-06	3.0596e-06	1119.1	364.18	3.1937e-06	3.1951e-06	530.93	229.63	158.4	79.927	3.2177e-06	124.67	146.588	-1.307	-29.681	-92.533	16.486	10.751	-93.568	-87.320	72.216	35.993	-88.891	-84.875	-83.254	-78.506	46.765	-80.713	-8191	255	
8644.892	1	1	0	0	0.034387	0.14638	0.14224	0.22124	0.23052	0.29831	0.11883	0.17394	0.07592	0.18821	0.24693	0.26614	0.14484	0.15809	0.19739	0.18667	-4.0813	-4.5333	-4.6292	-4.3021	-4.7771	-4.6417	-4.4125	-4.9542	-4.3354	-4.4812	-4.9583	-4.4563	-4.7729	-4.8	-4.2188	-5.1521	-3.592	-17.309	94.728	225.661	39.797	60.065	117.897	-83.146	131.809	-22.438	221.275	201.281	-87.120	178.365	55.589	196.441	0.0008285	0.0013111	0.0001579	1019.5	6.7534e-06	8.7763e-06	1218.2	394.34	7.3532e-06	8.4155e-06	574.84	251.35	171.77	86.73	5.677e-06	134.82	0.0003436	0.00029302	8.0565e-05	929.13	3.2314e-06	3.1895e-06	1116.4	363.19	3.1971e-06	3.266e-06	528.01	229.18	157.94	79.79	3.2628e-06	123.82	148.353	-30.488	-14.074	-92.084	59.328	20.467	-93.489	-87.236	13.267	18.153	-89.224	-85.045	-83.691	-78.578	12.705	-80.831	-8191	255	
8644.988	1	1	0	0	0.13388	0.2067	0.091571	0.3419	0.12711	0.11762	0.46431	0.25741	0.02203	0.21059	0.10644	0.39878	0.38695	0.027185	0.22258	0.18048	-4.1083	-4.4042	-4.9021	-4.2562	-4.5188	-4.5938	-4.3396	-4.8812	-4.3521	-4.4708	-4.8812	-4.2396	-4.7125	-5.0083	-4.2396	-5.0021	-103.585	250.352	-94.382	164.731	226.264	112.549	201.991	178.631	242.128	-45.553	129.552	229.810	195.416	252.785	-41.863	133.355	0.00087773	0.0010214	0.00019525	1009.9	4.941e-06	1.0068e-05	1212.1	396.11	4.6778e-06	6.0017e-06	575.01	248.17	172.6	85.652	4.0555e-06	133.29	0.00034927	0.00029863	8.1726e-05	926.48	3.2949e-06	3.1414e-06	1113.2	363.48	3.2448e-06	3.243e-06	526.24	227.64	157.97	78.967	3.2577e-06	122.57	148.109	-43.338	-15.278	-92.381	-10.273	36.390	-93.538	-87.122	-9.068	33.121	-89.043	-85.191	-83.181	-78.370	-10.856	-80.840	-8191	255	
8645.084	1	1	0	0	0.27441	0.10294	0.18379	0.37486	0.045107	0.12858	0.31052	0.23882	0.14402	0.26794	0.17463	0.32069	0.27064	0.053199	0.35165	0.28078	-4.1646	-4.2	-4.7208	-4.3812	-4.6208	-4.5563	-4.2958	-4.9125	-4.3562	-4.2542	-5	-4.2083	-4.5813	-4.9167	-4.0563	-5.0813	224.840	200.825	184.049	239.081	73.144	28.962	179.623	-93.848	91.625	187.263	194.917	213.003	186.386	199.494	184.300	172.620	0.00082549	0.0007078	0.00027413	1006.5	7.7179e-06	5.2235e-06	1204.6	390.8	4.3257e-06	1.5764e-05	570.55	247.84	170.48	85.726	5.7868e-06	133.85	0.00035356	0.00029741	8.344e-05	923.89	3.2937e-06	3.202e-06	1109	360.36	3.225e-06	3.2031e-06	523.69	226.98	156.25	78.669	3.2917e-06	122.62	151.100	27.084	-10.065	-92.239	30.635	-18.139	-93.579	-87.250	-3.362	48.193	-88.966	-85.156	-83.436	-78.349	21.798	-80.714	-8191	255	
8645.181	1	1	0	0	0.21173	0.11862	0.24147	0.11972	0.15466	0.082811	0.18785	0.16908	0.10973	0.05848	0.31791	0.15414	0.21732	0.19196	0.14975	0.42523	-4.2646	-4.1396	-4.9021	-4.5083	-4.4646	-4.7875	-4.4938	-4.7229	-4.6646	-4.1042	-5.0292	-4.5417	-4.4583	-5.0229	-4.3562	-4.9042	111.219	50.357	-69.693	238.977	242.770	-86.141	164.665	194.341	-26.397	138.296	200.138	183.406	-101.090	210.652	-78.750	188.361	0.00080818	0.00078871	0.000288	1002.4	5.9244e-06	1.0123e-05	1210.7	390.44	5.8404e-06	8.5864e-06	569.62	247.03	170.56	86.043	4.2223e-06	135.08	0.00034929	0.00029368	8.3608e-05	920.83	3.328e-06	3.2719e-06	1108.2	358.94	3.3159e-06	3.1307e-06	523.38	226.81	156.44	79.072	3.2379e-06	123.61	151.106	-46.425	-26.417	-92.198	3.087	49.571	-93.308	-87.346	-15.479	18.497	-88.925	-85.093	-83.751	-78.550	79.890	-80.851	-8191	255	
8645.301	1	1	0	0	0.12402	0.036297	0.060394	0.18828	0.10445	0.091341	0.22739	0.076296	0.079589	0.078497	0.32386	0.2346	0.087072	0.20596	0.062853	0.3818	-4.3063	-4.2271	-4.8313	-4.5458	-4.3333	-4.7354	-4.4583	-4.6417	-4.7042	-4.3167	-4.9167	-4.7	-4.4542	-4.9917	-4.2375	-4.7979	-72.968	128.891	20.542	209.495	31.177	91.424	179.903	197.577	101.026	204.022	-103.568	165.582	-92.108	239.321	144.367	186.384	0.00097824	0.00070038	7.3226e-05	1004.8	8.0633e-06	5.284e-06	1207.5	392.31	6.3398e-06	9.9523e-06	574.48	248.38	171.6	87.114	9.2367e-06	135.52	0.00035165	0.00029878	8.328e-05	922.47	3.3473e-06	3.2925e-06	1113.2	361.22	3.3402e-06	3.2723e-06	526.71	228.48	157.3	79.796	3.3458e-06	124.28	146.554	-11.781	-52.546	-92.325	26.628	67.392	-93.298	-87.346	-19.597	40.174	-88.922	-84.955	-83.338	-78.467	49.408	-80.600	-8191	255	
8645.397	1	1	0	0	0.0074229	0.26545	0.10949	0.055584	0.01749	0.078546	0.24197	0.18728	0.23061	0.29698	0.34349	0.17687	0.10547	0.23255	0.064023	0.23833	-4.1792	-4.2438	-4.7917	-4.7542	-4.1729	-4.8042	-4.5667	-4.5958	-4.6417	-4.2417	-4.8604	-4.675	-4.2937	-5.0104	-4.4375	-4.6354	-85.234	156.487	131.986	223.933	53.377	171.811	206.200	90.791	158.106	142.230	219.813	-101.219	145.083	212.995	150.983	231.915	0.00082542	0.0015364	0.00026867	1011.4	6.2631e-06	6.5574e-06	1204.5	392.54	2.8716e-06	1.2169e-05	573.08	247.61	172.22	87.305	9.0467e-06	135.21	0.00036334	0.00030223	8.512e-05	924.94	3.3676e-06	3.3402e-06	1108.6	361.17	3.4204e-06	3.2711e-06	525.3	227.74	157.46	80.116	3.2996e-06	124.29	146.255	-9.417	-36.779	-92.174	31.147	48.744	-93.594	-87.360	110.012	17.442	-88.805	-85.204	-83.325	-78.465	31.804	-80.867	-8191	255	
8645.493	1	1	0	0	0.18945	0.14356	0.062048	0.274	0.13603	0.12983	0.096327	0.24219	0.053389	0.13133	0.089411	0.2226	0.27454	0.3208	0.17622	0.20332	-4.5146	-4.2271	-4.5229	-4.7896	-4.2229	-4.8583	-4.6833	-4.5375	-4.7479	-4.2354	-4.6833	-4.7417	-4.2937	-4.825	-4.4062	-4.6438	21.841	170.888	89.550	217.484	23.647	112.858	205.495	109.091	102.085	-77.133	159.309	243.179	-37.014	199.562	29.604	220.664	0.0008767	0.00073928	0.00043815	1000.7	3.4059e-06	2.4949e-06	1197.5	391.75	5.4753e-06	7.3338e-06	571.43	246.87	170.61	86.726	4.9472e-06	135.19	0.00035661	0.00029468	8.4294e-05	918.76	3.2159e-06	3.2596e-06	1100.8	360.54	3.2582e-06	3.1816e-06	523.35	226.38	156.47	79.843	3.251e-06	124.18	147.917	-40.875	-18.517	-92.287	74.255	11.913	-93.310	-87.053	-0.711	38.700	-88.905	-84.818	-83.235	-78.640	2.904	-80.755	-8191	255	
8645.590	1	1	0	0	0.13542	0.085657	0.040815	0.20008	0.16591	0.14894	0.16602	0.16986	0.31845	0.20215	0.29807	0.23419	0.35533	0.29072	0.04987	0.12984	-4.4771	-4.1312	-4.5188	-4.7896	-4.125	-4.9208	-4.7188	-4.4271	-4.8667	-4.2875	-4.7125	-4.8979	-4.2063	-4.9792	-4.6729	-4.5042	-25.403	200.736	26.255	173.641	121.316	1.013	173.895	224.137	56.773	106.966	209.241	216.001	170.614	232.008	164.753	-79.562	0.00088302	0.00075012	0.00020989	1002.9	3.1836e-06	5.7155e-06	1196.5	392.23	1.1781e-05	4.9168e-06	572.31	246.15	169.38	86.4	8.3416e-06	134.81	0.00034704	0.00029123	8.2328e-05	920.49	3.1309e-06	3.2738e-06	1103.7	359.99	3.2337e-06	3.1588e-06	523.67	226.1	155.66	79.437	3.2784e-06	123.68	143.774	-6.779	-44.574	-92.177	96.463	43.493	-93.309	-87.446	18.663	99.961	-89.010	-85.192	-83.220	-78.324	19.633	-80.788	-8191	255	
8645.684	1	1	0	0	0.055737	0.10922	0.22338	0.042813	0.24981	0.29645	0.09366	0.18898	0.056433	0.032384	0.23923	0.3502	0.021931	0.20453	0.021728	0.24148	-4.6146	-4.3021	-4.5167	-4.8958	-4.1188	-4.7792	-4.8042	-4.4458	-4.9187	-4.3812	-4.6604	-4.8583	-4.2625	-4.8375	-4.5375	-4.4313	165.604	135.993	220.847	-99.142	41.610	-7.552	200.158	186.257	-82.384	52.394	214.307	234.492	228.784	198.288	-10.957	226.164	0.00087148	0.0012947	0.00018529	1000.1	5.3796e-06	1.0347e-05	1198.4	387.88	7.2566e-06	6.6597e-06	570.37	246.76	169.5	86.462	1.1781e-05	135.7	0.00034843	0.0002926	8.2322e-05	917.82	3.1861e-06	3.2261e-06	1101.5	358.14	3.2946e-06	3.1199e-06	524.04	226.6	155.81	79.653	3.2161e-06	124.37	144.578	-32.635	-22.546	-92.331	26.146	55.870	-93.317	-87.470	-21.639	49.178	-89.035	-85.006	-83.451	-78.153	36.927	-80.661	-8191	255	
8645.780	1	1	0	0	0.10719	0.097172	0.055419	0.23914	0.13947	0.17692	0.21118	0.1552	0.25786	0.10373	0.11124	0.11155	0.32088	0.45762	0.16987	0.071964	-4.4583	-4.4021	-4.2292	-4.8708	-4.3354	-4.6458	-4.6896	-4.3729	-4.6562	-4.3542	-4.4375	-5.0062	-4.3917	-4.6708	-4.7521	-4.2979	-70.893	204.387	112.273	-73.171	210.422	162.425	117.056	195.902	206.735	234.660	210.833	192.547	224.067	245.605	-43.290	-35.294	0.00090958	0.00077595	0.00018844	1004.6	8.7232e-06	6.6082e-06	1200.9	393.75	5.1391e-06	7.3965e-06	575.25	247.93	170.39	87.682	8.0214e-06	137.29	0.00035303	0.00028314	8.2684e-05	920.92	3.2052e-06	3.1998e-06	1105.5	361.14	3.248e-06	3.1579e-06	527.02	228.23	157.1	80.458	3.2858e-06	125.64	144.373	-19.599	-15.792	-92.386	40.606	26.897	-93.362	-87.194	-22.082	51.703	-88.940	-84.986	-83.533	-78.265	35.893	-80.783	-8191	255	
8645.901	1	1	0	0	0.10097	0.18773	0.14689	0.1887	0.18203	0.061602	0.30702	0.12808	0.094662	0.076683	0.20383	0.067351	0.16856	0.22568	0.12572	0.31612	-4.4125	-4.5771	-4.3667	-4.9354	-4.3729	-4.4437	-4.8229	-4.4729	-4.7771	-4.5083	-4.4875	-4.9125	-4.5125	-4.6708	-4.6354	-4.4125	32.660	-82.129	166.265	202.229	107.386	204.835	184.137	188.537	240.990	130.418	228.654	106.530	148.722	244.705	89.636	182.549	0.00088687	0.00087834	0.00026978	1009.1	5.3223e-06	5.8049e-06	1208.4	395.3	2.8758e-06	8.3592e-06	577.77	249.41	171.61	88.024	7.4733e-06	136.45	0.00034447	0.00029487	8.1384e-05	926.43	3.2116e-06	3.1727e-06	1109.8	363.37	3.2415e-06	3.1492e-06	528.71	228.72	157.68	80.832	3.2395e-06	125.39	145.976	30.349	-21.928	-92.220	24.885	51.699	-93.534	-87.338	73.369	26.300	-89.075	-85.008	-83.125	-78.449	22.073	-80.779	-8191	255	
8645.997	1	1	0	0	0.14352	0.0334	0.17764	0.11143	0.15335	0.15779	0.2419	0.44923	0.1082	0.17453	0.27242	0.11594	0.25719	0.19117	0.21448	0.16122	-4.4104	-4.575	-4.0667	-4.9938	-4.4771	-4.3521	-4.7688	-4.4271	-4.6604	-4.6104	-4.3479	-4.9021	-4.4125	-4.5625	-4.9604	-4.4667	148.264	33.813	160.253	176.689	-76.929	70.247	131.184	208.511	226.265	-55.818	203.582	209.352	-68.746	-100.385	90.750	190.577	0.00093078	0.001082	0.00027277	1007.8	4.0542e-06	4.0601e-06	1197.6	395.11	1.0687e-05	1.091e-05	573.01	247.09	170.71	87.808	9.3812e-06	136.09	0.00035374	0.00029326	8.0469e-05	923.79	3.2236e-06	3.1614e-06	1104.3	363	3.2453e-06	3.0928e-06	526.12	227.62	156.74	80.481	3.2081e-06	124.73	147.885	-33.043	-8.050	-92.213	85.360	4.033	-93.485	-87.155	10.955	18.899	-88.882	-85.068	-83.559	-78.228	0.449	-80.567	-8191	255	
8646.093	1	1	0	0	0.15414	0.17773	0.047341	0.17589	0.051087	0.16826	0.30753	0.41273	0.12119	0.14589	0.20976	0.098395	0.063254	0.18849	0.14713	0.092987	-4.2646	-4.6979	-4.0792	-4.8187	-4.5375	-4.2854	-4.9125	-4.35	-4.6542	-4.575	-4.1896	-5.0437	-4.7104	-4.4375	-4.7708	-4.5125	17.049	235.086	-81.602	206.446	221.200	49.522	218.178	188.593	179.474	193.296	150.311	31.480	148.285	-38.228	25.864	220.647	0.00089638	0.00075356	0.00019777	1004.1	1.1207e-05	7.2501e-06	1198.5	392.78	3.3676e-06	8.5517e-06	575.09	247.31	170.82	86.791	5.4191e-06	135.71	0.00034824	0.00028635	7.7272e-05	921.33	3.1e-06	3.0171e-06	1102.3	362.18	3.1434e-06	3.0272e-06	525.72	227.25	156.36	79.929	3.1373e-06	124.3	141.050	-60.097	-2.189	-92.345	41.575	33.522	-93.375	-87.327	-0.747	65.202	-88.678	-84.852	-83.179	-78.387	31.840	-80.689	-8191	255	
8646.189	1	1	0	0	0.10169	0.047686	0.12844	0.094139	0.27694	0.064641	0.18224	0.26184	0.1789	0.054512	0.062971	0.27908	0.22692	0.39629	0.125	0.19647	-4.1354	-4.7458	-4.2688	-4.6708	-4.6083	-4.3292	-4.9417	-4.6458	-4.5458	-4.6646	-4.4062	-4.8187	-4.5229	-4.3771	-4.9208	-4.6813	-17.452	148.718	78.319	193.437	207.258	28.008	186.540	174.434	-76.907	-35.257	184.212	239.489	169.040	239.062	169.129	191.275	0.00079528	0.00091058	0.0002087	1000.5	4.6432e-06	8.8541e-06	1202.5	394.67	7.9642e-06	7.3824e-06	573.9	246.37	170.82	86.722	1.041e-05	136.44	0.00033812	0.00028281	7.7613e-05	918.89	3.0548e-06	3.0568e-06	1103.1	362.05	3.0995e-06	3.034e-06	525.5	226.95	156.18	79.645	3.1418e-06	124.85	158.318	3.047	3.674	-91.993	34.179	45.267	-93.255	-87.406	8.183	53.503	-88.922	-85.046	-83.328	-78.400	17.894	-80.842	-8191	255	
8646.285	1	1	0	0	0.21373	0.33311	0.13684	0.028715	0.1384	0.27859	0.15401	0.18932	0.077295	0.11579	0.13573	0.10446	0.11129	0.29508	0.081593	0.031664	-3.9479	-4.7958	-4.3	-4.7604	-4.4917	-4.3313	-5.0667	-4.4854	-4.3521	-4.8854	-4.4146	-4.7208	-4.7125	-4.3271	-4.8396	-4.6687	190.729	218.962	128.856	83.310	167.592	12.866	59.708	174.163	201.689	37.400	143.796	221.640	175.067	206.793	-103.800	56.256	0.00087484	0.00095552	1.5951e-05	1002.5	7.1289e-06	5.4777e-06	1200.5	394.68	6.4957e-06	1.2182e-05	575.45	250.05	171.4	87.683	4.0708e-06	136.89	0.00034284	0.00028929	8.0111e-05	920.3	3.1061e-06	3.1145e-06	1105.3	362.49	3.1211e-06	3.1386e-06	527.27	228.96	157.33	80.627	3.2423e-06	125.67	148.030	4.332	94.619	-92.212	22.054	14.775	-93.626	-87.237	16.364	40.707	-89.101	-84.992	-83.516	-78.361	-13.711	-80.565	-8191	255	
8646.382	1	1	0	0	0.19532	0.19457	0.12747	0.21092	0.069895	0.138	0.10887	0.12758	0.076626	0.18806	0.13278	0.11097	0.23834	0.069634	0.26912	0.17219	-3.9958	-4.8667	-4.4688	-4.8229	-4.6958	-4.225	-4.9437	-4.7708	-4.2229	-4.9042	-4.5458	-4.6396	-4.9437	-4.4812	-4.6542	-4.7479	-60.685	-97.097	139.613	218.880	141.432	2.959	-82.292	210.692	-44.384	137.587	175.858	224.917	238.349	-57.985	-9.822	249.212	0.00089879	0.00077136	0.00022265	1007.2	5.9318e-06	9.7649e-06	1202.9	395.76	1.026e-05	9.4677e-06	578.94	250.19	172.06	87.743	6.9295e-06	136.68	0.00034848	0.00029513	7.8847e-05	924.87	3.2023e-06	3.1157e-06	1108.8	363.39	3.184e-06	3.1662e-06	528.81	229.6	157.64	80.771	3.2492e-06	125.32	148.300	-31.828	16.182	-92.228	26.577	8.520	-93.485	-87.252	-2.701	79.686	-88.719	-84.937	-83.213	-78.363	-17.795	-80.675	-8191	255	
8646.478	1	1	0	0	0.13147	0.060994	0.13716	0.043015	0.16657	0.06141	0.16941	0.1947	0.11586	0.2586	0.29303	0.12549	0.10529	0.28082	0.051794	0.34758	-3.975	-4.8875	-4.4667	-4.5125	-4.8438	-4.1646	-4.9062	-4.6375	-4.2875	-4.9292	-4.5396	-4.6188	-4.9542	-4.4021	-4.7562	-4.8104	74.141	-48.798	89.194	-80.678	212.893	123.015	147.461	201.199	226.345	244.080	195.187	-91.637	-37.013	233.139	-49.788	214.484	0.00091047	0.00059356	0.00021124	1004.1	6.5555e-06	9.646e-06	1195.6	393.27	4.2885e-06	9.1811e-06	573.18	246.69	171.48	86.745	5.9845e-06	135.89	0.00034556	0.00028844	7.8812e-05	920.54	3.1583e-06	3.1224e-06	1102.8	361.93	3.1251e-06	3.0892e-06	524.79	226.92	156.57	79.729	3.1694e-06	124.18	146.868	3.653	7.910	-92.012	27.487	47.889	-93.411	-87.679	14.348	55.285	-88.943	-84.911	-83.817	-78.426	43.726	-80.729	-8191	255	
8646.574	1	1	0	0	0.16575	0.1879	0.18918	0.014009	0.18467	0.16395	0.19148	0.19356	0.042709	0.043313	0.42924	0.17072	0.31198	0.27924	0.27241	0.23591	-4.0646	-4.9146	-4.4646	-4.5354	-4.8521	-4.2479	-4.7333	-4.8771	-4.0687	-4.7854	-4.7354	-4.4167	-4.9062	-4.3917	-4.5146	-4.8646	-102.657	209.478	-89.741	218.798	215.797	100.983	-30.755	188.784	89.855	108.393	220.150	217.718	-98.737	221.244	166.277	-100.284	0.00092907	0.0014575	0.0002262	998.58	9.405e-06	2.0462e-06	1193.9	389.93	9.1389e-06	1.0463e-05	569.17	246.63	168.52	86.34	7.4801e-06	135.04	0.00033808	0.00028802	7.8424e-05	916.6	3.1539e-06	3.0561e-06	1096.9	358.82	3.0711e-06	3.1153e-06	520.9	225.73	154.98	79.362	3.2086e-06	123.83	146.168	-25.319	-28.395	-92.319	19.890	11.574	-93.287	-87.422	9.391	19.245	-89.085	-85.200	-83.282	-78.456	21.371	-80.543	-8191	255	
8646.693	1	1	0	0	0.059983	0.1519	0.12395	0.05733	0.23038	0.20621	0.36033	0.11952	0.053051	0.078511	0.13838	0.34099	0.046229	0.3615	0.12715	0.23329	-4.0208	-4.7396	-4.4646	-4.3458	-4.7375	-4.3458	-4.6271	-5.0146	-4.1104	-4.8375	-4.6958	-4.4604	-4.9375	-4.3958	-4.3917	-4.9563	42.680	141.086	119.548	-17.594	-34.678	-42.801	233.995	192.177	-87.029	213.850	-92.110	-90.043	-3.823	245.887	35.431	221.620	0.00086386	0.00075609	0.00022466	994.64	6.7342e-06	1.07e-05	1190	389.7	6.5147e-06	6.8943e-06	568.69	245.44	167.78	85.826	5.919e-06	135.26	0.00032891	0.00028167	7.5109e-05	912.73	2.9918e-06	2.9164e-06	1095.4	357.59	3.0083e-06	3.0513e-06	521.35	225.66	154.13	78.746	3.0747e-06	124.01	148.726	-18.502	-2.093	-92.184	30.455	41.817	-93.311	-87.371	-6.655	16.523	-88.766	-85.211	-83.377	-78.275	-11.899	-80.585	-8191	255	
8646.789	1	1	0	0	0.25421	0.079358	0.17527	0.21497	0.25543	0.22484	0.12383	0.21907	0.10865	0.24395	0.32132	0.14279	0.206	0.165	0.03715	0.19913	-3.7604	-4.6417	-4.6188	-4.3833	-4.9083	-4.6417	-4.5938	-4.8458	-4.2188	-4.6188	-4.7771	-4.3167	-4.9104	-4.5917	-4.3417	-5.0521	198.313	-55.483	-55.157	184.803	151.450	143.019	107.192	175.863	151.537	167.362	187.449	-53.736	-61.468	-89.795	214.244	157.265	0.00089244	0.00073774	0.00024338	994.3	4.6516e-06	6.5143e-06	1198.9	391.53	1.15e-05	3.178e-06	570.98	246.92	168.03	86.261	5.3057e-06	135.4	0.0003265	0.00027744	7.5385e-05	912.13	3.0177e-06	2.9418e-06	1101.3	358.77	3.0358e-06	2.9898e-06	523.28	226.65	154.38	79.217	3.0402e-06	124.54	144.531	-44.104	-10.121	-92.104	34.036	32.292	-93.399	-87.321	-7.232	90.532	-88.953	-84.967	-83.336	-78.474	47.083	-80.638	-8191	255	
8646.862	1	1	0	0	0.10308	0.28459	0.1006	0.25833	0.076603	0.07069	0.32965	0.058318	0.031631	0.099069	0.1104	0.16712	0.17477	0.23942	0.20761	0.3104	-3.9104	-4.7354	-4.7562	-4.2562	-4.7271	-4.4021	-4.4396	-4.9667	-4.2958	-4.575	-4.7958	-4.2854	-4.8417	-4.6979	-4.2042	-5.1792	75.201	178.951	109.337	188.953	41.340	189.425	170.920	158.179	190.147	239.091	-82.930	218.255	187.532	251.102	226.637	207.992	0.00089495	0.00064873	0.00022631	999.09	1.1219e-05	4.3668e-06	1204.2	391.16	6.2012e-06	9.2259e-06	573.03	247.23	168.59	86.547	8.2322e-06	135.72	0.00032571	0.00028023	7.5085e-05	916.71	3.0617e-06	2.9227e-06	1104	359.12	2.9175e-06	2.9351e-06	525.43	226.59	154.36	79.253	2.9444e-06	124.53	144.953	-25.608	-25.988	-92.241	39.673	36.382	-93.569	-87.271	-4.206	32.993	-88.926	-85.053	-83.241	-78.588	-4.688	-80.730	-8191	255	
8646.981	1	1	0	0	0.14076	0.12642	0.089926	0.08261	0.051746	0.047172	0.10682	0.11226	0.086089	0.14545	0.079689	0.067543	0.18243	0.1761	0.070848	0.34428	-3.9688	-4.4271	-4.6792	-4.3313	-4.7562	-4.5458	-4.4	-4.9521	-4.2688	-4.5292	-5.0167	-4.3271	-4.7271	-4.7042	-4.1667	-4.9729	55.728	30.733	98.803	217.876	215.822	68.946	-69.257	240.109	-40.014	66.629	-87.964	-80.953	137.660	-92.726	75.683	164.250	0.00089353	0.0011297	0.00028374	1000.7	9.5679e-06	4.6097e-06	1192.5	389.62	5.0364e-06	6.6752e-06	569.16	244.96	167.56	85.758	1.2153e-05	134.35	0.00031624	0.00026848	7.2316e-05	914.62	2.8712e-06	2.8772e-06	1093.6	358.84	2.8746e-06	2.9062e-06	521.19	224.83	153.98	78.871	2.9291e-06	123.38	153.357	1.052	-7.613	-92.163	25.057	40.219	-93.276	-87.379	33.936	56.225	-88.995	-84.992	-83.282	-78.521	41.207	-80.653	-8191	255	
8647.077	1	1	0	0	0.19823	0.025607	0.26589	0.35122	0.14202	0.18974	0.23186	0.24246	0.10262	0.20625	0.10977	0.24014	0.20817	0.09864	0.071733	0.17967	-4.0188	-4.2292	-4.8125	-4.3208	-4.5229	-4.7771	-4.3958	-4.9646	-4.6854	-4.225	-5.0333	-4.2521	-4.6	-4.8333	-4.2125	-4.9021	105.890	164.775	-26.549	250.292	223.143	237.378	123.749	251.076	179.362	224.861	195.833	-48.828	175.870	148.398	52.661	84.746	0.00084325	0.00046642	0.00023592	991.84	5.2985e-06	7.0491e-06	1186	393.37	3.8981e-06	1.3747e-05	569.32	245.65	168.33	85.961	4.3065e-06	134.25	0.00031075	0.00026246	7.2191e-05	910.16	2.9021e-06	2.7181e-06	1091.4	360.07	2.8094e-06	2.8637e-06	522.38	224.85	154.36	78.789	2.7886e-06	123.3	145.839	-37.199	16.295	-92.504	34.032	30.737	-93.414	-87.255	-8.098	41.832	-89.078	-85.220	-83.466	-78.436	24.472	-80.730	-8191	255	
8647.173	1	1	0	0	0.12182	0.32026	0.081937	0.26752	0.17158	0.20172	0.17672	0.21184	0.15391	0.02661	0.070603	0.016812	0.1562	0.21878	0.2069	0.38532	-4.15	-4.2937	-4.7979	-4.4458	-4.625	-4.7354	-4.3708	-4.7833	-4.4938	-4.4604	-4.8812	-4.4333	-4.6021	-5.0104	-4.2604	-4.8979	248.674	-82.080	253.008	178.357	69.080	-29.151	-15.347	158.729	-67.623	-55.201	-14.172	75.544	197.247	229.681	193.981	178.671	0.00079591	0.0006438	0.00032436	997.13	4.5667e-06	7.7246e-06	1187.5	393.43	5.4836e-06	5.7484e-06	573.67	246.13	168.43	86.033	6.7004e-06	134.9	0.00032151	0.0002541	7.1066e-05	913.48	2.8612e-06	2.7886e-06	1093.9	361.84	2.89e-06	2.7662e-06	524.61	225.75	155.19	79.076	2.9087e-06	123.82	147.524	-25.565	15.091	-92.226	82.833	31.578	-93.210	-87.468	45.811	55.964	-89.081	-85.008	-83.224	-78.603	24.671	-80.635	-8191	255	
8647.294	1	1	0	0	0.10758	0.13989	0.12511	0.10701	0.094131	0.19288	0.18202	0.13683	0.12393	0.30198	0.19288	0.29391	0.060179	0.19442	0.086513	0.16183	-4.1875	-4.2604	-4.9458	-4.3583	-4.575	-4.8271	-4.4854	-4.8792	-4.7083	-4.2937	-5.1167	-4.4521	-4.4333	-4.8771	-4.2333	-4.7958	221.525	-54.093	-1.321	171.975	42.689	-19.374	77.410	201.220	15.262	130.667	221.363	209.761	234.912	160.120	-83.268	192.954	0.0009064	0.00058095	0.00039792	1001.1	6.6146e-06	7.5246e-06	1200.3	396.72	4.6556e-06	5.819e-06	575.76	248.81	170.79	87.152	6.9637e-06	136.17	0.00031848	0.00026621	7.1863e-05	917.27	2.8719e-06	2.7738e-06	1099.9	364.36	2.8868e-06	2.8109e-06	528.96	228.15	156.43	80.082	2.8192e-06	125.05	145.803	-41.475	-14.507	-92.040	32.562	37.602	-93.489	-87.382	-1.759	18.368	-89.157	-85.041	-83.207	-78.320	-5.195	-80.494	-8191	255	
8647.390	1	1	0	0	0.13819	0.095841	0.08212	0.10158	0.064979	0.2672	0.087448	0.14986	0.19988	0.10686	0.28648	0.059997	0.05604	0.29687	0.26535	0.33338	-4.2708	-4.1687	-4.6958	-4.475	-4.4958	-4.8979	-4.3667	-4.675	-4.8938	-4.1958	-4.8	-4.5938	-4.3208	-5	-4.2979	-4.875	39.882	49.630	126.543	-105.134	101.994	90.350	232.014	175.983	138.445	107.268	224.236	140.396	66.546	224.772	131.534	219.826	0.00085662	0.00076708	0.00030548	1007.7	5.1051e-06	6.3109e-06	1203.6	398.9	4.4898e-06	1.0205e-05	577.77	248.5	171.71	87.657	7.2503e-06	136.41	0.00031832	0.00026047	7.3294e-05	924.31	2.8958e-06	2.8371e-06	1104	365.58	2.8786e-06	2.8593e-06	529.46	228.9	157.18	80.437	2.9276e-06	125.12	153.430	11.681	-19.182	-92.577	36.294	58.464	-93.205	-87.350	33.716	41.485	-89.055	-84.871	-83.682	-78.364	6.529	-80.691	-8191	255	
8647.462	1	1	0	0	0.022316	0.18597	0.081167	0.23852	0.08232	0.11381	0.32111	0.089801	0.054117	0.13601	0.051049	0.27153	0.1037	0.11707	0.034216	0.31424	-4.4938	-4.15	-4.6562	-4.7271	-4.3354	-4.95	-4.3604	-4.5646	-4.8583	-4.2542	-4.825	-4.7354	-4.3396	-4.9688	-4.4417	-4.6937	-102.352	-55.420	-92.647	194.382	-52.530	75.369	217.240	-30.607	-84.516	61.397	-37.223	159.379	108.499	201.054	68.633	199.003	0.00088309	0.00060926	0.00027889	1007.3	5.1694e-06	7.2774e-06	1197	396.66	5.9404e-06	1.2772e-05	578.66	247.14	172.03	87.351	3.1105e-06	135.75	0.00031866	0.00026092	7.5488e-05	922.23	2.875e-06	2.8656e-06	1099.8	365.23	2.8964e-06	2.869e-06	529.09	227.43	157.12	80.28	2.9305e-06	124.77	152.653	-8.388	-17.795	-92.254	11.059	53.321	-93.225	-87.172	39.546	61.185	-88.885	-85.190	-83.568	-78.430	3.760	-80.810	-8191	255	
8647.583	1	1	0	0	0.16629	0.18548	0.13083	0.24768	0.15929	0.1127	0.24351	0.04635	0.08907	0.13509	0.09108	0.031771	0.056996	0.39042	0.066681	0.34838	-4.6417	-4.1792	-4.7167	-4.8896	-4.2125	-5.0042	-4.7167	-4.4812	-4.775	-4.2625	-4.725	-4.7	-4.2625	-4.8729	-4.4437	-4.5167	228.103	98.046	-12.604	202.628	131.699	4.270	128.084	229.829	128.616	-20.913	47.291	136.071	253.093	-101.474	131.284	227.463	0.00082404	0.00076466	0.00023331	1004.5	8.37e-06	6.3017e-06	1188.7	394.67	4.9861e-06	5.8573e-06	573.98	247.98	171.17	87.044	9.0925e-06	135.48	0.00031793	0.00026185	7.4522e-05	918.33	2.8796e-06	2.865e-06	1093	363.77	2.8868e-06	2.8266e-06	525.83	227.13	156.66	79.816	2.9334e-06	124.23	151.617	-2.300	-22.205	-92.289	23.938	40.616	-93.536	-87.244	-38.419	15.219	-88.756	-85.039	-83.453	-78.410	12.555	-80.560	-8191	255	
8647.677	1	1	0	0	0.25274	0.094653	0.19221	0.034998	0.36606	0.16231	0.11373	0.073986	0.18818	0.040867	0.20338	0.30792	0.090206	0.060955	0.063625	0.13362	-4.3208	-4.1896	-4.3417	-4.8833	-4.1333	-4.9333	-4.6458	-4.275	-4.8812	-4.2229	-4.6979	-4.9875	-4.1021	-4.9021	-4.4604	-4.6229	161.155	231.964	111.186	137.818	168.141	-14.393	117.555	182.010	-45.948	-82.081	198.922	223.783	180.980	-83.179	-21.447	161.850	0.00088728	0.0010437	0.00024841	999.9	3.2292e-06	5.9293e-06	1196.9	395.42	2.7811e-06	9.5773e-06	573.19	246.43	170.54	86.253	6.0272e-06	135.52	0.00032036	0.00025984	7.56e-05	916.48	2.804e-06	2.8757e-06	1096	362.42	2.8676e-06	2.8135e-06	524.94	226.09	155.87	79.338	2.9895e-06	124.01	147.852	-9.761	-26.440	-91.980	82.623	39.691	-93.064	-87.297	65.047	39.619	-88.883	-85.217	-83.349	-78.530	13.610	-80.743	-8191	255	
8647.773	1	1	0	0	0.11221	0.088597	0.1844	0.037718	0.10331	0.10264	0.074776	0.18332	0.038765	0.17234	0.14597	0.050452	0.25018	0.41601	0.18036	0.33422	-4.5104	-4.4125	-4.2917	-4.9417	-4.2688	-4.8	-4.7458	-4.5271	-4.7479	-4.5583	-4.6375	-4.8583	-4.3771	-4.8292	-4.6562	-4.5667	-18.616	-8.205	32.502	-67.575	157.570	41.140	130.769	107.477	-101.976	-11.879	213.370	225.804	-19.787	-78.085	-7.316	206.711	0.00084194	0.00088014	0.00034641	999.43	2.755e-06	8.5253e-06	1191.1	393.96	7.0383e-06	5.9857e-06	575.84	247.45	170.35	86.96	9.0345e-06	136.38	0.00032089	0.00026662	7.434e-05	915.75	2.9424e-06	2.8884e-06	1095.1	362.66	2.9736e-06	2.8409e-06	527.21	227.52	156.02	80.033	3.0007e-06	125.06	144.445	-2.234	-21.819	-92.370	-14.245	-2.189	-93.226	-87.354	-3.580	46.117	-88.760	-84.942	-83.241	-78.309	14.309	-80.540	-8191	255	
8647.869	1	1	0	0	0.094275	0.044467	0.15306	0.29178	0.087408	0.1858	0.07368	0.13057	0.31897	0.10474	0.113	0.15707	0.1811	0.28672	0.12364	0.13619	-4.5667	-4.4583	-4.3854	-5.1646	-4.2146	-4.6479	-4.8167	-4.3396	-4.75	-4.525	-4.525	-4.9313	-4.3354	-4.8	-4.5229	-4.3958	222.940	116.180	186.683	215.998	-75.948	-51.415	206.276	-93.358	-66.680	93.986	137.838	196.201	196.793	250.499	95.644	203.024	0.00083921	0.00075147	0.00027887	1002.6	6.2966e-06	6.7637e-06	1199.3	396.85	4.9367e-06	7.4887e-06	578.03	249.79	171.6	88.135	3.8829e-06	137.15	0.00032961	0.000269	7.5606e-05	920.34	2.9057e-06	3.0124e-06	1101.8	364.45	3.0098e-06	2.8436e-06	529.92	229	157.25	80.671	3.0161e-06	125.71	149.310	-0.981	12.816	-92.331	14.315	16.843	-93.281	-87.196	11.215	51.395	-89.045	-84.986	-83.099	-78.374	15.098	-80.505	-8191	255	
8647.990	1	1	0	0	0.23751	0.24871	0.17236	0.097649	0.10973	0.07439	0.1686	0.32989	0.087232	0.13588	0.18012	0.17851	0.24441	0.1988	0.15519	0.06102	-4.3792	-4.3125	-4.2875	-4.9917	-4.3063	-4.6542	-4.8125	-4.3583	-4.7	-4.5271	-4.3229	-5.0312	-4.6021	-4.5771	-4.8896	-4.4812	-49.358	-60.665	-40.246	2.938	-17.270	129.818	-91.772	169.721	213.926	-81.723	-77.003	223.691	122.340	163.650	197.996	163.047	0.00081241	0.00087829	0.0001768	1006.8	4.5859e-06	5.3842e-06	1196.9	396.09	6.5417e-06	6.3272e-06	575.83	247.74	171.02	87.617	7.2455e-06	136.16	0.00033961	0.00027334	7.5156e-05	921.16	2.9143e-06	3.0074e-06	1098.2	364.74	2.9914e-06	2.8942e-06	528.49	227.82	157.27	80.546	2.9879e-06	124.98	145.199	-29.754	-21.457	-92.350	76.045	28.596	-93.519	-87.097	44.867	25.379	-89.075	-84.998	-83.206	-78.375	14.979	-80.604	-8191	255	
8648.086	1	1	0	0	0.21319	0.23137	0.14979	0.14523	0.036413	0.22044	0.29676	0.041464	0.034356	0.11813	0.16058	0.094133	0.14148	0.20348	0.20102	0.26764	-4.4542	-4.4146	-4.2875	-4.8938	-4.2708	-4.5354	-5.1458	-4.3271	-4.6083	-4.6417	-4.3187	-4.8438	-4.5417	-4.7	-4.8354	-4.2188	15.063	42.603	68.160	-104.710	102.591	185.518	220.952	88.022	-90.237	-9.449	186.526	237.173	234.434	228.571	223.721	213.860	0.00090206	0.00089358	0.00032407	997.08	7.9331e-06	7.2558e-06	1194.5	397.63	9.1684e-06	5.2482e-06	575.13	248.02	171.7	87.301	6.2483e-06	135.43	0.00033098	0.00027237	7.5839e-05	916.99	2.9536e-06	2.8954e-06	1094.8	364.41	2.9943e-06	2.8926e-06	527.09	227.1	156.92	80.12	2.9379e-06	124.29	149.655	-41.840	-36.094	-92.142	48.233	39.398	-93.341	-87.181	8.690	58.263	-89.078	-85.157	-83.293	-78.504	28.131	-80.566	-8191	255	
8648.158	1	1	0	0	0.31725	0.047742	0.10086	0.13532	0.05993	0.098676	0.10399	0.10047	0.048074	0.014878	0.16216	0.26092	0.24316	0.18076	0.148	0.24554	-4.1854	-4.7438	-4.1708	-4.8187	-4.3979	-4.3542	-4.9313	-4.4271	-4.4313	-4.7354	-4.3833	-4.65	-4.5396	-4.4854	-4.9417	-4.5375	-61.288	88.453	201.423	190.442	33.725	26.966	75.189	204.939	216.963	-94.459	-87.829	157.826	196.211	228.144	-30.536	178.945	0.00090452	0.00081606	0.0003537	997.2	1.5139e-06	4.3882e-06	1186.6	394.47	7.6049e-06	1.0504e-05	572.77	247.05	169.41	86.652	9.7956e-06	135.89	0.00032522	0.00026875	7.3294e-05	915.73	2.8766e-06	2.8908e-06	1092.4	362	2.9269e-06	2.825e-06	524.97	226.6	155.19	79.596	2.9018e-06	124.65	149.817	3.273	14.847	-92.395	-23.261	71.595	-93.339	-87.446	-2.735	19.006	-88.785	-84.908	-83.033	-78.628	37.155	-80.715	-8191	255	
8648.254	1	1	0	0	0.12634	0.087651	0.18016	0.15294	0.30596	0.2902	0.12736	0.31078	0.10355	0.055148	0.27658	0.11189	0.31119	0.2703	0.12884	0.42823	-4.175	-4.7646	-4.4146	-4.8604	-4.5667	-4.2396	-4.8708	-4.3792	-4.5687	-4.7479	-4.3625	-4.7792	-4.6562	-4.2542	-4.7771	-4.4104	200.994	198.150	75.709	-104.701	-57.615	195.957	131.293	214.630	-43.560	-45.695	186.974	-75.612	235.973	197.517	48.305	169.325	0.00091073	0.00081835	0.00023515	998.55	4.7805e-06	6.139e-06	1190.2	395.15	7.2208e-06	7.1992e-06	574.75	248.83	170.11	87.001	5.7502e-06	136.72	0.0003262	0.00026298	7.1702e-05	914.66	2.9038e-06	2.875e-06	1096.6	362.14	2.9352e-06	2.8577e-06	526.08	227.69	156.06	80.052	2.9893e-06	125.4	144.945	13.219	9.094	-92.113	49.624	19.551	-93.066	-87.346	41.195	60.443	-88.932	-84.783	-83.431	-78.352	24.715	-80.746	-8191	255	
8648.374	1	1	0	0	0.16198	0.13148	0.074534	0.12248	0.17959	0.20007	0.11991	0.083597	0.2688	0.22245	0.1886	0.30562	0.063809	0.14766	0.11371	0.48793	-4.0813	-4.8042	-4.2458	-4.7521	-4.5833	-4.5042	-4.8271	-4.5687	-4.4875	-4.8083	-4.4375	-4.5917	-4.7396	-4.3625	-4.8063	-4.5583	111.633	44.429	4.471	238.327	75.801	152.652	232.369	228.434	188.764	72.823	205.613	167.487	42.775	198.218	158.380	184.067	0.00084721	0.001378	0.00033268	1002.4	4.9023e-06	6.0714e-06	1195.3	397.31	4.9522e-06	4.9335e-06	578.71	248.83	171.54	87.902	4.9391e-06	136.98	0.00032555	0.00026115	7.2918e-05	918.56	2.9917e-06	2.9116e-06	1101.7	364.15	2.9925e-06	2.8876e-06	529.22	228.83	156.69	80.608	2.9883e-06	126	144.146	-25.462	-17.381	-92.237	27.967	64.357	-93.319	-87.214	41.435	56.766	-89.116	-85.069	-83.147	-78.158	56.666	-80.791	-8191	255	
8648.471	1	1	0	0	0.21449	0.26582	0.088766	0.086196	0.13234	0.22411	0.3026	0.13502	0.21855	0.052794	0.34589	0.068893	0.11025	0.1422	0.10551	0.18104	-3.9792	-4.8583	-4.3333	-4.5354	-4.8875	-4.1625	-4.8958	-4.6271	-4.2521	-4.9958	-4.5583	-4.7229	-4.7833	-4.4625	-4.6542	-4.9437	198.991	227.082	107.353	-74.076	101.260	135.683	206.279	125.679	36.127	170.195	163.402	196.572	-42.867	196.052	-50.954	248.565	0.00089667	0.00066818	0.00028926	1002.6	6.8257e-06	7.4756e-06	1198.7	396.27	6.4234e-06	7.6052e-06	576.65	248.65	170.51	87.319	6.5203e-06	136.4	0.00032254	0.00027594	7.3737e-05	919.49	2.9188e-06	2.9009e-06	1098.4	363.68	2.9246e-06	2.8596e-06	528.14	228.29	156.74	80.498	2.9874e-06	125.27	144.819	45.415	-14.860	-92.403	42.000	4.759	-93.170	-87.209	-5.847	1.650	-88.898	-84.717	-83.474	-78.178	-4.054	-80.727	-8191	255	
8648.567	1	1	0	0	0.25404	0.30988	0.043687	0.35615	0.073556	0.075123	0.12983	0.33333	0.13142	0.031112	0.21696	0.1451	0.29311	0.35256	0.010972	0.24449	-3.7896	-4.8229	-4.1375	-4.6333	-4.7	-4.3	-4.7729	-4.7833	-4.0938	-4.8271	-4.5437	-4.45	-5.0854	-4.3604	-4.6708	-4.8521	-76.225	-65.346	-65.766	247.407	88.643	-44.612	163.256	229.985	129.572	-59.850	221.721	-72.893	243.781	224.192	50.838	167.383	0.00094235	0.000778	0.00025304	1003.7	3.3278e-06	1.0185e-05	1189.4	395.72	5.6477e-06	1.0259e-05	574.68	246.43	170.55	87.307	5.2221e-06	135.42	0.00031827	0.00026884	7.1577e-05	918.55	2.9149e-06	2.8886e-06	1093.5	363.99	2.8767e-06	2.8684e-06	526.45	226.72	156.11	80.253	2.9814e-06	124.51	148.194	-9.449	-14.879	-92.006	1.555	39.728	-93.268	-87.247	-3.356	38.943	-89.041	-85.037	-83.515	-78.350	40.698	-80.670	-8191	255	
8648.663	1	1	0	0	0.079881	0.15078	0.15358	0.2087	0.068577	0.16296	0.31048	0.15396	0.16212	0.18938	0.18937	0.063483	0.10155	0.2584	0.028708	0.39104	-3.5646	-4.6354	-4.3875	-4.5188	-4.6958	-4.2583	-4.7625	-4.9896	-4.1917	-4.7063	-4.6062	-4.4812	-4.8229	-4.3688	-4.5729	-4.7063	-91.847	84.556	68.910	-80.981	25.052	-1.016	218.149	225.480	230.947	216.724	-2.338	160.826	-94.847	238.649	244.003	185.483	0.00085293	0.0010342	0.00025794	1002.2	6.2026e-06	5.5121e-06	1191.3	394.46	9.4783e-06	7.6271e-06	576.26	246.22	169.21	86.563	8.335e-06	135.92	0.0003125	0.00026661	7.3309e-05	915.7	2.8877e-06	2.8132e-06	1094.3	362.79	2.8392e-06	2.9244e-06	526.15	226.3	155.44	79.617	2.9061e-06	124.6	143.598	-32.850	-4.870	-92.077	75.612	32.759	-93.326	-87.397	44.132	27.839	-89.021	-84.947	-83.296	-78.577	8.759	-80.591	-8191	255	
8648.757	1	1	0	0	0.26009	0.18937	0.25751	0.12545	0.046564	0.19642	0.32035	0.39611	0.17869	0.1802	0.091479	0.21802	0.090297	0.090485	0.11346	0.065059	-3.7521	-4.5958	-4.425	-4.2729	-4.9542	-4.1833	-4.5979	-4.7667	-4.2083	-4.7396	-4.5896	-4.6	-5.0396	-4.4688	-4.2875	-5.075	-75.962	58.223	236.083	252.934	62.830	176.440	218.899	195.649	197.094	183.175	183.604	221.761	60.120	-79.898	240.341	-74.303	0.00093561	0.0011567	0.00046189	998.55	8.0126e-06	5.8292e-06	1191.1	393.11	2.2624e-06	1.4918e-05	575.7	248.04	169.21	86.749	7.1383e-06	136.82	0.00031947	0.00026941	7.2795e-05	914.27	2.9278e-06	2.8303e-06	1092.6	361.45	2.876e-06	2.9183e-06	526.28	226.95	155.4	79.756	2.9628e-06	125.23	145.019	-9.499	-21.820	-91.940	35.476	37.196	-93.470	-87.133	-25.345	35.480	-88.831	-84.943	-83.408	-78.437	11.302	-80.574	-8191	255	
8648.855	1	1	0	0	0.021121	0.054175	0.11907	0.39537	0.062164	0.13111	0.31122	0.31784	0.32036	0.074107	0.11952	0.23195	0.17955	0.21911	0.14977	0.25815	-3.8438	-4.5583	-4.6729	-4.2521	-4.8229	-4.4271	-4.6396	-5.0396	-4.1458	-4.7188	-4.825	-4.2438	-5.0458	-4.5146	-4.4104	-5.0396	168.950	35.671	182.757	178.039	33.557	217.676	201.919	192.998	-103.357	11.943	159.583	189.025	173.356	-67.215	194.834	214.163	0.00097492	0.00092952	0.00033175	999.42	4.3085e-06	8.2341e-06	1196.6	396.24	7.2818e-06	8.5239e-06	580.09	249.23	171.65	87.372	4.5558e-06	137.47	0.00031819	0.00026411	7.4361e-05	916.49	2.9528e-06	2.8784e-06	1101.7	363.06	2.9366e-06	2.868e-06	530.68	229.42	156.98	80.569	2.9619e-06	126.2	146.068	-8.393	6.033	-92.280	45.865	33.083	-93.291	-87.420	-9.295	52.091	-89.030	-84.986	-83.228	-78.570	9.284	-80.498	-8191	255	
8648.974	1	1	0	0	0.10032	0.058751	0.21335	0.33097	0.056564	0.047313	0.18749	0.18404	0.14998	0.088596	0.046108	0.083884	0.1429	0.25945	0.15969	0.46322	-3.8688	-4.5458	-4.5896	-4.2125	-4.7896	-4.4375	-4.4375	-5.1062	-4.3604	-4.5375	-4.9542	-4.3875	-4.7646	-4.7688	-4.2479	-4.9875	44.999	208.222	96.966	227.633	-20.833	216.385	199.780	222.083	53.966	50.241	212.800	-16.116	227.777	173.343	35.248	185.934	0.00085062	0.0011452	0.0002201	1000.4	4.5606e-06	8.6769e-06	1194.9	397.36	8.9057e-06	5.1154e-06	580.27	248.58	171.49	87.963	4.5536e-06	137.6	0.00032237	0.00026588	7.3979e-05	919.41	2.936e-06	2.879e-06	1101.1	365.34	3.0277e-06	2.9343e-06	529.99	228.54	157.39	80.805	2.9513e-06	125.84	146.885	-20.881	-5.245	-92.136	21.566	42.479	-93.369	-87.278	5.833	33.043	-89.094	-84.885	-83.103	-78.227	28.266	-80.713	-8191	255	
8649.070	1	1	0	0	0.1155	0.11139	0.16636	0.17123	0.23375	0.11838	0.41112	0.19806	0.24314	0.1746	0.14771	0.27738	0.20439	0.34643	0.057526	0.12587	-4.0167	-4.6021	-4.7688	-4.2958	-4.8875	-4.6646	-4.325	-4.9062	-4.4271	-4.4271	-4.9771	-4.2937	-4.9167	-4.7375	-4.2854	-4.8521	146.896	-97.566	-99.213	2.239	95.603	-10.264	206.657	222.196	254.523	141.447	207.454	-85.810	241.943	220.286	249.364	72.361	0.00083653	0.0010357	0.0002302	1000.2	6.6004e-06	8.7636e-06	1190.3	396.4	7.6008e-06	8.4008e-06	576.82	247.5	170.09	87.823	4.5185e-06	136.02	0.00032376	0.0002701	7.2369e-05	916.46	2.9887e-06	2.9246e-06	1095.5	364.32	2.8828e-06	2.8825e-06	527.46	227.24	156.31	80.56	2.915e-06	125.18	151.253	-6.514	4.997	-92.124	-1.490	59.986	-93.403	-87.188	-4.512	49.082	-88.828	-85.015	-83.167	-78.317	36.561	-80.587	-8191	255	
8649.166	1	1	0	0	0.11669	0.11306	0.13291	0.18287	0.096985	0.058213	0.23368	0.18412	0.18786	0.17344	0.14768	0.18644	0.127	0.1797	0.044251	0.15852	-4.1771	-4.3	-4.8708	-4.3958	-4.6104	-4.6833	-4.4979	-4.8396	-4.5604	-4.2833	-4.9	-4.4187	-4.4229	-4.8854	-4.15	-5.05	234.553	43.906	-46.265	148.669	-50.155	-57.472	182.417	181.352	66.538	-86.090	-48.772	104.624	215.109	174.518	-75.108	177.946	0.00088571	0.00060767	0.00011943	1001.6	3.3824e-06	8.4472e-06	1187	396.12	7.7213e-06	9.3726e-06	574.79	247.49	170.44	87.636	1.0805e-05	136.54	0.00032216	0.00026136	7.3555e-05	916.72	2.9543e-06	2.7848e-06	1093.5	363.85	2.8647e-06	2.8441e-06	526.78	227.01	156	80.092	2.8913e-06	124.94	149.689	8.669	11.151	-92.062	26.599	18.275	-93.314	-87.329	-3.889	43.012	-88.920	-84.841	-83.282	-78.334	10.452	-80.468	-8191	255	
8649.263	1	1	0	0	0.15094	0.16898	0.14714	0.25355	0.084947	0.086597	0.24674	0.1678	0.24218	0.097059	0.073468	0.24154	0.25785	0.17125	0.35822	0.33698	-4.2208	-4.1208	-4.7646	-4.2688	-4.4938	-4.75	-4.3479	-4.9688	-4.4563	-4.3833	-4.9229	-4.4708	-4.6583	-4.8042	-4.4563	-4.7792	-92.168	71.473	194.768	33.383	109.376	112.971	132.836	235.076	222.698	12.149	163.139	221.841	240.170	248.872	165.700	206.094	0.00091127	0.0010294	0.00025693	995.45	6.7878e-06	4.8919e-06	1194.6	393.99	6.6965e-06	8.2589e-06	575.38	247.93	169.54	86.949	8.6286e-06	136.39	0.00032039	0.00025883	7.163e-05	913.83	2.8957e-06	2.847e-06	1097.2	362.31	2.8956e-06	2.8674e-06	526.65	227.43	155.65	79.863	2.9301e-06	125.16	146.136	-10.488	-37.299	-92.394	33.254	37.943	-93.236	-87.316	43.768	53.966	-88.861	-84.966	-83.552	-78.586	32.946	-80.420	-8191	255	
8649.383	1	1	0	0	0.24387	0.11616	0.26518	0.15862	0.084631	0.18301	0.15546	0.38634	0.067712	0.0088004	0.19311	0.22582	0.15747	0.097756	0.05856	0.31268	-4.3292	-4.3083	-4.7812	-4.4042	-4.4667	-4.7583	-4.3187	-4.7896	-4.6479	-4.2104	-5.0583	-4.5563	-4.5125	-4.9917	-4.2354	-4.8271	213.904	183.157	-27.830	250.147	231.271	171.368	251.356	130.727	250.113	-6.930	184.663	-102.120	-35.823	-79.544	77.475	212.610	0.00093365	0.00063928	0.00039524	996.96	5.4679e-06	5.6943e-06	1196.4	396.6	7.3556e-06	5.4585e-06	579.44	250.06	171.2	87.706	5.7036e-06	137.48	0.00032524	0.00026762	7.4874e-05	916.11	2.9429e-06	2.8505e-06	1100.8	363.56	2.9682e-06	2.8426e-06	529.34	228.91	156.78	80.488	2.9403e-06	126.28	153.617	-8.981	-3.296	-92.383	35.767	13.254	-93.297	-87.319	3.559	44.956	-88.860	-84.838	-83.142	-78.575	41.024	-80.564	-8191	255	
8649.455	1	1	0	0	0.17968	0.045767	0.14391	0.064782	0.050656	0.051073	0.2559	0.13841	0.056545	0.049631	0.078231	0.14408	0.1446	0.19987	0.097985	0.17798	-4.1167	-4.3271	-4.7542	-4.4	-4.4021	-4.9187	-4.5083	-4.6208	-4.5479	-4.0938	-4.8167	-4.5958	-4.3187	-5.1083	-4.2354	-4.7896	-22.085	-86.039	-11.357	245.364	91.977	93.356	166.180	239.931	181.779	129.231	234.100	199.263	-77.946	242.830	-47.748	233.255	0.0009103	0.00089631	0.0001604	1007.2	7.4967e-06	5.2844e-06	1195.5	397.59	4.7067e-06	5.6446e-06	579.38	249.53	171.45	87.519	6.4205e-06	137.32	0.00032452	0.0002565	7.6047e-05	920.55	2.8725e-06	2.8682e-06	1102.3	365.55	2.8513e-06	2.7925e-06	529.75	228.7	156.45	80.501	2.9617e-06	125.83	147.782	-10.538	33.124	-92.181	36.796	46.901	-93.261	-87.246	-8.119	61.384	-88.732	-84.882	-83.399	-78.259	28.101	-80.621	-8191	255	
8649.551	1	1	0	0	0.041	0.10354	0.18358	0.19452	0.13047	0.20774	0.29509	0.38295	0.24523	0.10887	0.13673	0.099011	0.078578	0.31477	0.12169	0.21763	-4.3521	-4.2854	-4.5062	-4.7875	-4.2521	-4.8854	-4.4313	-4.6146	-4.6896	-4.3792	-4.5979	-4.7958	-4.1687	-4.9646	-4.3938	-4.6583	-88.455	-26.347	50.395	78.564	182.284	75.309	220.168	232.881	136.670	145.975	-87.612	34.335	137.748	203.512	-16.864	207.400	0.0008573	0.00084033	0.00021195	997.89	3.0981e-06	9.0444e-06	1195.7	395.24	8.2052e-06	9.5175e-06	572.22	246.91	169.22	87.054	8.9172e-06	135.98	0.00030857	0.00025461	7.3452e-05	914.66	2.8329e-06	2.8252e-06	1095.1	362.49	2.8672e-06	2.7421e-06	526.65	226.36	154.97	79.869	2.8301e-06	124.61	152.549	-14.503	2.822	-92.147	57.297	21.008	-93.335	-87.290	-6.725	64.956	-88.843	-84.910	-83.388	-78.560	2.971	-80.717	-8191	255	
8649.647	1	1	0	0	0.024071	0.040337	0.08999	0.20049	0.21749	0.17817	0.20664	0.15485	0.12132	0.039816	0.094113	0.12357	0.068606	0.086377	0.26365	0.23299	-4.5917	-4.0875	-4.6125	-4.6312	-4.0792	-4.7479	-4.625	-4.425	-4.7667	-4.2208	-4.7521	-4.6833	-4.2104	-4.8604	-4.6354	-4.5625	-65.911	200.528	218.547	117.513	216.294	167.076	172.707	189.207	109.033	-99.576	138.877	225.384	79.298	241.476	34.678	242.174	0.00095843	0.00048373	0.00031911	993.1	2.8758e-06	7.8251e-06	1186.8	390.74	4.3934e-06	9.381e-06	574.57	246.49	168.29	86.125	5.6114e-06	135.5	0.00031461	0.00025871	7.4477e-05	909.62	2.7679e-06	2.7218e-06	1089.4	359.72	2.8006e-06	2.7598e-06	525.54	225.4	154.01	78.979	2.8536e-06	124.2	150.411	-5.679	-5.937	-92.294	54.949	7.937	-93.281	-87.194	-3.777	58.292	-88.998	-85.157	-83.557	-78.222	27.238	-80.598	-8191	255	
8649.766	1	1	0	0	0.096896	0.078475	0.11309	0.073927	0.10737	0.14897	0.13957	0.15106	0.0594	0.18816	0.33132	0.2759	0.046296	0.20598	0.046486	0.076674	-4.4563	-4.2438	-4.4792	-4.9625	-4.1687	-4.6354	-4.6396	-4.3604	-4.9708	-4.3396	-4.5229	-4.9	-4.2542	-5.0646	-4.6813	-4.3896	-88.655	1.943	38.977	-92.849	-3.233	211.671	119.038	137.541	131.817	56.447	52.908	206.489	-42.693	-70.541	223.550	239.681	0.00089659	0.00095734	0.00017384	993.19	6.1919e-06	9.3092e-06	1192.9	389.16	2.6314e-06	5.8368e-06	573.27	245.35	168.42	85.367	7.6412e-06	135.98	0.0003127	0.00025097	7.3102e-05	907.98	2.7942e-06	2.8047e-06	1093.4	358.54	2.8293e-06	2.7758e-06	525.02	225.59	153.61	78.607	2.8166e-06	124.33	148.455	-21.405	-12.644	-92.135	28.314	51.080	-93.347	-87.281	-58.829	58.907	-88.846	-84.948	-83.233	-78.527	-4.421	-80.633	-8191	255	
8649.862	1	1	0	0	0.074637	0.16167	0.19171	0.065156	0.070072	0.018134	0.081098	0.12577	0.037239	0.042409	0.12782	0.26546	0.23235	0.31749	0.23177	0.31969	-4.5583	-4.4771	-4.4417	-4.9396	-4.125	-4.6458	-4.6333	-4.3229	-4.8833	-4.3542	-4.6104	-5.0208	-4.2021	-4.9083	-4.6604	-4.3542	124.225	-21.017	-89.721	166.359	24.402	152.687	95.715	233.871	230.663	46.703	175.527	156.203	5.476	210.691	45.587	204.746	0.00090483	0.00044554	0.00036218	986.08	2.6084e-06	6.3595e-06	1189.9	389.71	1.3555e-06	1.0091e-05	576.07	246.98	169.51	85.842	3.1587e-06	136.16	0.00031701	0.00026456	7.2203e-05	906.62	2.7604e-06	2.8705e-06	1094.6	357.46	2.9272e-06	2.7929e-06	526.85	226.75	154.19	78.867	2.8608e-06	124.86	151.931	-41.588	-6.825	-92.134	3.511	9.784	-93.394	-87.255	-76.794	32.630	-88.790	-85.019	-83.318	-78.278	147.056	-80.535	-8191	255	
8649.958	1	1	0	0	0.15731	0.124	0.21072	0.12095	0.3035	0.16375	0.28704	0.24481	0.20038	0.054339	0.19498	0.1576	0.1149	0.54625	0.16182	0.1652	-4.4958	-4.3	-4.3938	-4.7417	-4.1625	-4.6917	-4.6625	-4.3271	-4.7583	-4.4187	-4.4292	-4.9833	-4.4667	-4.6042	-4.675	-4.4021	52.199	233.317	187.796	131.379	-38.342	72.092	219.357	162.302	13.933	14.545	-91.673	236.736	136.183	250.302	108.734	222.775	0.00081094	0.0006787	0.00031305	992.39	6.8964e-06	8.3986e-06	1195.6	391.68	4.4464e-06	9.4621e-06	572.88	245.95	167.17	85.354	6.6449e-06	134.8	0.00031997	0.00026569	7.27e-05	908.32	2.8456e-06	2.8598e-06	1097.4	359.18	2.8868e-06	2.7668e-06	524.59	225.93	153.31	78.785	2.888e-06	123.82	153.458	-11.242	-12.225	-92.303	-2.985	32.289	-93.488	-87.413	5.379	14.755	-88.913	-84.785	-83.457	-78.492	13.559	-80.819	-8191	255	
8650.054	1	1	0	0	0.41068	0.19986	0.14955	0.14175	0.10904	0.21843	0.10809	0.26681	0.28021	0.098891	0.2657	0.14419	0.10948	0.17982	0.10543	0.47124	-4.4875	-4.65	-4.2625	-4.9229	-4.1438	-4.5813	-4.75	-4.4	-4.6604	-4.7125	-4.2542	-5.0333	-4.3104	-4.6833	-4.7792	-4.4417	44.386	79.783	214.674	-44.389	-58.417	211.513	-81.026	167.035	44.199	16.251	197.503	212.729	80.822	244.228	147.330	193.041	0.00094621	0.00086763	0.00025887	990.29	8.2967e-06	7.2283e-06	1189.3	390.24	6.7141e-06	1.0457e-05	571.75	243.53	167.42	85.044	7.3005e-06	133.78	0.00031744	0.00025574	7.0471e-05	905.2	2.8124e-06	2.7825e-06	1089.7	357.57	2.8488e-06	2.8045e-06	521.63	223.8	152.84	78.035	2.8391e-06	122.97	157.336	-14.345	-20.684	-92.106	6.570	43.440	-93.560	-87.411	-9.721	13.150	-89.066	-84.838	-83.336	-78.254	29.970	-80.814	-8191	255	
8650.151	1	1	0	0	0.17578	0.19211	0.23608	0.22293	0.19431	0.057047	0.062273	0.22185	0.10158	0.17305	0.092668	0.20222	0.23789	0.21284	0.11898	0.31114	-4.4229	-4.7333	-4.2562	-4.8458	-4.5062	-4.3729	-4.8875	-4.4167	-4.6083	-4.7562	-4.4771	-4.9792	-4.5833	-4.6208	-4.8729	-4.3229	-14.584	55.076	-21.684	233.250	-100.398	173.557	58.131	183.785	250.058	-62.077	229.922	-90.718	149.276	251.308	102.024	236.934	0.00090202	0.00092161	0.00029657	988.23	6.9943e-06	6.0044e-06	1177.8	387.75	2.7543e-06	5.4298e-06	569.53	243.27	166.79	85.103	3.3753e-06	134.19	0.00031631	0.00025466	6.9871e-05	903.21	2.8056e-06	2.8315e-06	1085.5	356.81	2.9228e-06	2.7927e-06	521.13	223.52	152.57	78.09	2.8865e-06	123.05	144.824	2.683	-11.943	-92.564	32.592	36.007	-93.603	-87.345	169.773	10.131	-88.886	-85.102	-83.341	-78.478	-38.497	-80.840	-8191	255	
8650.247	1	1	0	0	0.19406	0.25929	0.084542	0.22753	0.13177	0.052911	0.31079	0.3532	0.21487	0.11925	0.22737	0.24145	0.037551	0.24009	0.18917	0.34915	-4.2438	-4.6	-4.1687	-4.9812	-4.5813	-4.3708	-5.1146	-4.3042	-4.6312	-4.7708	-4.3833	-4.8542	-4.6687	-4.3354	-4.825	-4.5458	-75.467	127.496	186.883	196.902	118.140	26.287	186.196	231.363	137.353	187.151	198.862	-48.123	-102.705	-63.494	203.725	177.581	0.00079158	0.0010158	0.00025699	989.4	7.0522e-06	6.5985e-06	1185	389.75	7.9724e-06	6.6849e-06	571.83	246.06	168.15	85.492	8.237e-06	134.81	0.00031918	0.00025521	6.9293e-05	905.11	2.76e-06	2.779e-06	1089.2	358.29	2.8632e-06	2.766e-06	523.94	225.26	153.91	78.449	2.8503e-06	123.6	145.159	-3.323	-24.576	-92.384	10.292	26.320	-93.515	-87.327	-30.660	36.995	-88.951	-85.090	-83.453	-78.234	-36.554	-80.652	-8191	255	
8650.343	1	1	0	0	0.30427	0.1007	0.067429	0.036581	0.090869	0.034204	0.2122	0.2295	0.055866	0.073121	0.10746	0.21612	0.13259	0.16592	0.17816	0.20743	-4.0292	-4.925	-4.1708	-4.9021	-4.7125	-4.2396	-4.9979	-4.4979	-4.55	-4.8979	-4.2937	-4.875	-4.6833	-4.5229	-4.7188	-4.6583	2.481	88.501	181.104	221.852	183.507	-9.541	218.175	238.119	-73.633	246.648	119.865	247.087	55.868	250.877	-65.292	222.032	0.00082579	0.00065074	0.0001979	990.57	3.1264e-06	6.9595e-06	1181.6	392.02	1.0116e-05	9.4985e-06	576.34	247.77	169.02	86.147	8.1559e-06	135.68	0.00032005	0.00025378	7.0583e-05	907.23	2.8336e-06	2.8501e-06	1091.6	360.92	2.8972e-06	2.7614e-06	526.93	226.86	154.87	79.147	2.9652e-06	124.39	146.560	-10.591	24.211	-92.198	34.424	31.008	-93.430	-87.367	-13.824	26.792	-89.127	-85.112	-83.260	-78.309	33.892	-80.760	-8191	255	
8650.464	1	1	0	0	0.15455	0.085224	0.21266	0.10412	0.14248	0.022672	0.39649	0.11465	0.083242	0.18406	0.19759	0.14776	0.10081	0.27797	0.13554	0.20489	-4.0646	-4.8083	-4.2875	-4.9667	-4.5771	-4.2688	-4.9833	-4.5292	-4.3896	-4.8688	-4.4229	-4.7312	-4.6042	-4.5104	-4.6458	-4.6583	-33.141	123.196	-57.636	160.479	137.651	-53.637	143.585	127.190	123.043	58.697	142.951	43.680	9.956	210.843	55.959	216.740	0.00092325	0.00066915	0.00037134	997.89	6.7354e-06	6.2504e-06	1197.9	395.69	3.4209e-06	7.7317e-06	577.87	248.7	170.31	86.732	6.8741e-06	136.5	0.00032057	0.0002597	7.1702e-05	912.84	2.8214e-06	2.757e-06	1098.9	363.33	2.9089e-06	2.8668e-06	529.24	228.06	155.91	79.749	2.8961e-06	124.83	151.056	-38.592	-2.646	-91.753	28.748	39.797	-93.188	-87.446	-18.821	27.388	-88.927	-85.097	-83.389	-78.449	14.169	-80.519	-8191	255	
8650.560	1	1	0	0	0.12518	0.20454	0.17451	0.26398	0.25214	0.19684	0.032513	0.10544	0.072151	0.0077667	0.11091	0.12389	0.13946	0.39059	0.1267	0.10837	-3.9083	-4.7937	-4.4167	-4.7583	-4.6813	-4.375	-4.8812	-4.7021	-4.4708	-4.8083	-4.4938	-4.5917	-4.8854	-4.4354	-4.7417	-4.8792	177.061	-89.272	105.420	201.071	-97.913	245.083	13.639	182.235	219.417	1.219	-57.054	223.449	93.683	211.852	155.890	194.415	0.00093439	0.00090922	0.00029137	994.7	1.7785e-06	8.4467e-06	1186.2	396.05	5.9174e-06	4.3156e-06	573.06	245.74	168.86	86.264	2.9124e-06	136.07	0.00031589	0.00025871	7.2101e-05	913.03	2.8514e-06	2.7659e-06	1091.6	362.53	2.8561e-06	2.8354e-06	525.59	226.24	154.75	79.426	2.9586e-06	124.33	151.452	-41.275	-26.432	-91.954	43.178	22.730	-93.537	-87.375	-0.612	10.044	-88.892	-84.972	-83.392	-78.423	78.344	-80.773	-8191	255	
8650.656	1	1	0	0	0.094428	0.12986	0.16061	0.10957	0.24502	0.12613	0.34326	0.11169	0.21683	0.071618	0.080818	0.16936	0.18913	0.25053	0.13972	0.13307	-3.975	-4.8729	-4.4917	-4.7146	-4.7292	-4.3688	-4.8812	-4.7167	-4.2354	-4.9021	-4.6562	-4.4667	-4.9771	-4.3938	-4.6729	-5.0938	186.125	178.173	106.087	16.936	165.173	138.577	151.429	181.471	-44.268	59.918	155.570	181.498	244.026	232.473	-31.342	170.653	0.0008135	0.00083168	0.00020283	993.6	8.6391e-06	8.6191e-06	1183.5	393.11	8.8048e-06	9.9675e-06	574.39	245.89	169.4	86.159	8.0968e-06	135.45	0.00031008	0.00025399	7.1141e-05	911.45	2.7809e-06	2.7535e-06	1089	361.85	2.8171e-06	2.8365e-06	524.78	225.76	154.74	79.249	2.8839e-06	124.11	149.571	-2.360	-19.808	-92.363	26.271	20.792	-93.336	-87.256	25.803	55.425	-89.150	-84.973	-83.351	-78.243	-12.854	-80.676	-8191	255	
8650.752	1	1	0	0	0.11345	0.1995	0.091463	0.31346	0.0098074	0.021071	0.2532	0.071275	0.18858	0.11359	0.08751	0.39644	0.073504	0.29875	0.058844	0.081457	-3.9479	-4.8417	-4.5604	-4.4875	-4.9521	-4.2146	-4.9688	-4.8792	-4.1771	-4.7854	-4.5479	-4.5479	-4.9625	-4.4979	-4.4646	-4.8458	26.830	214.994	88.188	201.508	237.321	73.694	174.502	-26.492	247.662	146.928	-32.684	-89.822	-104.419	222.420	4.016	202.254	0.0008927	0.00099044	0.00029531	992.7	4.9157e-06	4.9859e-06	1179.7	393.23	4.8552e-06	5.4353e-06	574.83	246.03	168.1	86.004	5.8213e-06	135.05	0.0003131	0.00025863	7.0177e-05	908.7	2.7432e-06	2.7844e-06	1089.3	360.98	2.7915e-06	2.7986e-06	525.45	225.68	154.15	78.999	2.8892e-06	123.93	145.436	-6.360	-8.191	-92.095	41.918	71.551	-93.250	-87.554	41.829	40.342	-88.964	-84.874	-83.420	-78.364	-0.177	-80.687	-8191	255	
8650.846	1	1	0	0	0.17231	0.21524	0.14582	0.22441	0.11331	0.16772	0.19558	0.026551	0.075577	0.10647	0.015747	0.119	0.11509	0.17962	0.14421	0.25705	-3.8937	-4.7333	-4.4979	-4.4812	-4.8521	-4.4417	-4.7521	-4.9708	-4.3438	-4.6312	-4.6667	-4.575	-4.8938	-4.6292	-4.3771	-5.1125	234.223	254.690	-103.958	-87.205	-93.485	21.640	191.152	231.655	181.730	61.738	-10.198	210.563	216.545	-52.053	233.145	224.828	0.00087508	0.00058418	0.00016074	989.4	3.1449e-06	7.1098e-06	1182.3	393.83	4.0989e-06	4.6349e-06	576.04	246.88	168.89	86.493	4.9255e-06	135.79	0.00031236	0.00025957	6.9855e-05	906.58	2.7764e-06	2.7145e-06	1089.2	361.58	2.7916e-06	2.7892e-06	528.06	226.61	155.42	79.341	2.9183e-06	124.73	148.908	-57.135	18.474	-92.051	70.526	47.845	-93.230	-87.132	59.985	33.031	-88.950	-85.004	-83.270	-78.748	40.203	-80.814	-8191	255	
8650.943	1	1	0	0	0.12917	0.091499	0.10926	0.23675	0.13132	0.14745	0.082745	0.12096	0.089151	0.10239	0.30907	0.077221	0.25689	0.10642	0.040958	0.26942	-4.0583	-4.6896	-4.6062	-4.4479	-4.825	-4.3375	-4.5979	-5.0292	-4.2521	-4.7646	-5.0479	-4.2521	-4.8729	-4.7229	-4.4375	-4.8875	64.193	15.521	12.707	203.280	82.624	-30.611	59.421	156.452	-85.645	-57.907	210.278	171.918	246.811	-40.779	212.881	169.690	0.00088016	0.00048755	0.00031812	996.81	2.4079e-06	7.0267e-06	1187.6	396.18	8.9637e-06	1.3196e-05	578.65	249.09	170.25	87.38	7.4282e-06	137.04	0.00031986	0.00026326	7.0923e-05	912.36	2.8377e-06	2.7221e-06	1095.6	364.26	2.8965e-06	2.9199e-06	529.85	228.42	156.6	80.262	2.876e-06	125.73	147.125	17.316	-4.255	-92.200	-1.056	6.263	-93.396	-87.281	4.247	29.956	-89.052	-84.842	-83.492	-78.316	44.798	-80.700	-8191	255	
8651.063	1	1	0	0	0.13127	0.04937	0.11368	0.045247	0.21408	0.099841	0.4063	0.10123	0.075817	0.15291	0.10438	0.11069	0.19461	0.13403	0.075832	0.30626	-4.0521	-4.5563	-4.5938	-4.3938	-4.925	-4.5042	-4.4229	-5.1271	-4.2375	-4.5708	-4.7729	-4.5	-4.7625	-4.7583	-4.4604	-5.15	20.257	76.201	152.289	-90.318	242.769	240.865	232.642	170.082	-48.511	186.792	-46.368	184.045	248.919	246.665	237.275	208.209	0.00091519	0.0003519	0.00017149	998.82	9.7063e-06	7.1991e-06	1193.4	397.28	7.1799e-06	5.6881e-06	578.28	247.79	171.28	87.043	1.0176e-05	135.9	0.00032018	0.00026018	7.1645e-05	914.53	2.8556e-06	2.7503e-06	1094	364.87	2.7928e-06	2.7851e-06	529.44	227.72	156.7	80.07	2.8562e-06	124.73	147.307	-20.452	-8.709	-92.217	52.977	53.708	-93.421	-87.250	3.103	29.975	-89.042	-85.006	-83.558	-78.419	22.726	-80.774	-8191	255	
8651.159	1	1	0	0	0.14627	0.12442	0.061904	0.28077	0.097369	0.12776	0.24212	0.2842	0.18681	0.11367	0.099098	0.15264	0.17423	0.21684	0.079575	0.16817	-4.0125	-4.3938	-5.0062	-4.5146	-4.7979	-4.8187	-4.3729	-4.9563	-4.3354	-4.3354	-5.0792	-4.4	-4.7562	-4.6083	-4.3	-4.9354	136.883	175.033	152.099	149.414	95.055	-103.659	202.260	199.196	46.216	203.965	140.828	221.787	203.853	188.602	44.068	186.881	0.00093114	0.00087006	0.00024474	992.09	3.9805e-06	1.1716e-05	1183.4	398.97	8.4865e-06	1.1358e-05	577.63	248.18	171.37	86.707	2.9332e-06	135.44	0.00030754	0.00026225	7.19e-05	910.05	2.8606e-06	2.8466e-06	1090.2	365.56	2.7538e-06	2.8153e-06	529.29	227.25	156.59	79.678	2.8745e-06	124.13	148.683	-24.280	3.531	-92.399	10.999	27.945	-93.440	-87.158	34.411	39.619	-88.921	-85.067	-83.680	-78.419	93.136	-80.562	-8191	255	
8651.255	1	1	0	0	0.12799	0.1172	0.19538	0.13128	0.19167	0.2749	0.28785	0.22572	0.10365	0.15281	0.13189	0.12736	0.16549	0.2997	0.20132	0.13675	-4.0958	-4.5271	-4.7854	-4.3333	-4.5917	-4.8104	-4.3375	-5.1458	-4.4979	-4.5917	-5.1021	-4.475	-4.7167	-4.9812	-4.1646	-4.8854	102.883	59.526	136.697	-93.125	-45.755	213.887	127.263	204.127	44.986	179.980	195.224	171.015	143.849	-84.151	149.252	209.950	0.00077162	0.0013026	0.00031018	989.33	5.408e-06	2.6537e-06	1188.4	395.2	2.5348e-06	1.0297e-05	574.23	246.15	169.37	86.218	6.9037e-06	135.66	0.0003087	0.00025832	7.0065e-05	906.85	2.7931e-06	2.7661e-06	1088.8	362.32	2.7964e-06	2.8499e-06	525.02	225.84	155.07	79.222	2.7695e-06	124.07	147.227	-23.505	-19.086	-92.246	-3.591	5.278	-93.495	-87.279	29.967	42.063	-88.911	-85.227	-83.333	-78.366	13.486	-80.613	-8191	255	
8651.327	1	1	0	0	0.035049	0.15134	0.12242	0.20865	0.15763	0.083379	0.14446	0.24859	0.13472	0.18172	0.059891	0.21201	0.30212	0.25317	0.14273	0.25572	-4.075	-4.3354	-4.9021	-4.5437	-4.3979	-4.8396	-4.3417	-4.9187	-4.5396	-4.4167	-5.1021	-4.5292	-4.5458	-4.9479	-4.2146	-4.9354	-12.968	43.571	48.280	230.663	-89.655	166.530	173.614	207.536	156.928	-14.330	-88.456	197.567	216.477	249.948	163.998	210.510	0.00086758	0.0010349	0.0003259	993.37	4.9111e-06	7.7286e-06	1187.3	394.48	6.423e-06	9.9605e-06	573.66	246.46	168.95	86.464	2.2826e-06	135.97	0.00030488	0.00025335	7.0032e-05	908.54	2.8341e-06	2.7928e-06	1090.3	362.79	2.8481e-06	2.825e-06	526.54	226.57	155.06	79.444	2.8548e-06	124.89	148.492	-3.731	-11.101	-92.411	-4.023	10.089	-93.162	-87.364	38.496	20.580	-89.281	-84.970	-83.338	-78.505	11.707	-80.745	-8191	255	
8651.448	1	1	0	0	0.048628	0.090874	0.022666	0.23097	0.133	0.076344	0.14628	0.12673	0.25728	0.15298	0.18108	0.4213	0.24563	0.17572	0.14827	0.29467	-4.1958	-4.2125	-4.9479	-4.4563	-4.2812	-4.85	-4.3854	-4.8229	-4.6917	-4.4333	-4.8875	-4.7188	-4.5229	-4.9708	-4.1646	-4.9667	55.381	203.661	231.230	198.034	16.641	-10.795	234.044	185.350	21.499	217.802	202.734	208.601	223.370	154.169	-36.572	157.592	0.00088204	0.00062735	0.00031912	993.23	6.6256e-06	8.9508e-06	1196.6	398.01	6.1095e-06	8.0415e-06	578.56	248.46	170.7	87.449	7.0438e-06	136.62	0.00031575	0.00025714	7.2431e-05	909.6	2.9115e-06	2.7897e-06	1096.1	365.05	2.8691e-06	2.7782e-06	529.46	228.76	156.6	80.329	2.8256e-06	125.48	148.106	3.159	-17.831	-91.987	29.865	49.477	-93.214	-87.177	-5.775	82.430	-88.977	-84.981	-83.306	-78.381	53.476	-80.604	-8191	255	
8651.544	1	1	0	0	0.17078	0.23819	0.14901	0.34925	0.060867	0.25427	0.17579	0.22842	0.13506	0.038632	0.27179	0.12256	0.043003	0.30243	0.23613	0.26257	-4.5687	-4.1854	-4.6521	-4.6917	-4.1562	-5.0417	-4.4437	-4.6188	-4.8187	-4.2333	-4.9271	-4.6687	-4.3854	-5	-4.4396	-4.5896	-62.908	221.496	243.432	210.264	224.760	156.458	86.150	204.695	237.701	-12.643	146.587	217.692	100.231	192.934	240.414	197.871	0.00083683	0.0012162	0.00029988	997.99	8.3749e-06	6.6377e-06	1187.3	398.94	6.518e-06	7.5189e-06	579.84	249.09	170.63	87.15	8.3401e-06	136.65	0.00031854	0.00026042	7.2623e-05	911.84	2.8456e-06	2.7761e-06	1092.2	365.69	2.8855e-06	2.7693e-06	530.4	227.92	156.33	80.245	2.8971e-06	125.24	140.169	-4.991	-36.437	-92.347	5.996	46.664	-93.241	-87.118	30.366	38.065	-89.142	-85.050	-83.314	-78.408	27.214	-80.482	-8191	255	
8651.640	1	1	0	0	0.15222	0.055938	0.16996	0.15084	0.07167	0.026871	0.29726	0.28108	0.045906	0.064315	0.056479	0.3791	0.15761	0.36807	0.088815	0.1079	-4.4313	-4.2688	-4.6708	-4.8604	-4.3292	-5.0625	-4.575	-4.5271	-5.0104	-4.2375	-4.8292	-4.6937	-4.4187	-5.025	-4.3625	-4.6792	3.050	201.535	0.333	228.610	208.406	-71.703	240.838	175.640	-6.516	56.398	190.465	157.631	230.806	225.956	50.207	66.974	0.00094953	0.0011991	0.00019791	992.25	6.0243e-06	6.503e-06	1197	397.05	1.0821e-05	1.1575e-05	576.12	248.1	170.82	87.583	8.4306e-06	135.64	0.0003241	0.00025533	7.1893e-05	909.21	2.8073e-06	2.7421e-06	1092.5	364.7	2.8336e-06	2.8132e-06	527.61	226.76	156.52	80.055	2.8061e-06	124.45	148.227	-21.973	23.319	-92.273	43.384	38.068	-93.141	-87.268	-10.920	53.641	-88.929	-84.934	-83.119	-78.360	24.558	-80.596	-8191	255	
8651.736	1	1	0	0	0.031589	0.12598	0.09961	0.23374	0.16141	0.047922	0.24939	0.15089	0.080291	0.14121	0.10624	0.14783	0.19152	0.11805	0.10219	0.23156	-4.5604	-4.1521	-4.4313	-4.7146	-4.1708	-4.5979	-4.5521	-4.4458	-4.9917	-4.3313	-4.8083	-4.8375	-4.2458	-4.975	-4.6	-4.65	223.615	-35.260	156.564	196.540	75.931	71.344	234.081	181.309	-33.017	193.693	238.369	159.951	2.193	179.729	-87.196	111.487	0.00081995	0.00071277	0.00021768	994.42	6.0312e-06	3.2073e-06	1186.3	397.63	6.8307e-06	6.5516e-06	576.78	247.06	169.68	86.492	5.4848e-06	135.99	0.00031268	0.00025227	7.2685e-05	908.93	2.7782e-06	2.7335e-06	1088.4	364.6	2.7843e-06	2.812e-06	527.49	226.88	155.28	79.498	2.8431e-06	124.33	146.382	-28.359	-28.531	-91.898	4.679	58.459	-93.195	-87.120	3.225	13.310	-89.283	-85.189	-83.330	-78.364	19.490	-80.805	-8191	255	
8651.855	1	1	0	0	0.088201	0.19692	0.036957	0.1748	0.085914	0.086997	0.12263	0.22374	0.15598	0.18086	0.15829	0.12598	0.097374	0.27625	0.1505	0.30174	-4.4771	-4.2542	-4.5271	-4.8521	-4.125	-5.0479	-4.6625	-4.4313	-4.8208	-4.2292	-4.6708	-4.8708	-4.3354	-4.9146	-4.7063	-4.4396	136.117	-73.600	88.980	244.320	-81.741	65.515	-84.876	241.254	-0.310	-60.154	-102.630	173.440	210.214	-100.393	52.239	239.577	0.0008525	0.001465	0.00023946	993.66	2.9588e-06	7.7573e-06	1184.9	393.65	7.1206e-06	1.3043e-05	579.42	248.23	168.35	86.433	8.0697e-06	136.64	0.00030962	0.00025136	7.3141e-05	907.69	2.7667e-06	2.7803e-06	1089.3	362.01	2.9121e-06	2.8424e-06	528.08	227.2	155	79.673	2.908e-06	125.07	143.767	-7.720	6.817	-91.961	84.994	7.537	-93.385	-87.129	42.538	43.553	-89.194	-84.838	-83.429	-78.562	16.933	-80.744	-8191	255	
8651.927	1	1	0	0	0.18895	0.071296	0.29678	0.20172	0.10781	0.15352	0.35005	0.11368	0.13951	0.19053	0.34674	0.16505	0.25409	0.2239	0.092568	0.27666	-4.5146	-4.3729	-4.3854	-4.9542	-4.0083	-4.7833	-4.7625	-4.2979	-4.8771	-4.3875	-4.4854	-4.8917	-4.325	-4.8625	-4.7708	-4.3875	100.737	212.213	190.674	250.019	-49.101	178.334	221.096	206.164	-51.563	-97.513	230.222	-0.520	204.948	179.265	200.077	197.001	0.00086167	0.0013485	0.00030031	994.04	6.5154e-06	5.8152e-06	1194.3	396.18	5.6945e-06	1.2919e-05	581.94	249.69	170.76	87.901	3.9884e-07	137.3	0.00032021	0.00025597	7.1872e-05	909.21	2.7798e-06	2.8682e-06	1096	364.72	2.9069e-06	2.8324e-06	532.34	229.29	156.88	80.438	2.845e-06	125.77	147.595	-15.535	9.683	-92.520	-0.857	46.345	-93.294	-87.328	30.203	53.206	-89.256	-85.072	-83.353	-78.556	-40.692	-80.610	-8191	255	
8652.023	1	1	0	0	0.1218	0.1691	0.1189	0.41318	0.071441	0.12539	0.32574	0.13684	0.1187	0.1595	0.17617	0.062207	0.084008	0.16672	0.1781	0.31286	-4.4938	-4.3375	-4.2854	-5.1687	-4.2833	-4.6875	-4.9062	-4.3583	-4.7771	-4.5292	-4.4688	-5.1292	-4.2042	-4.8146	-4.7729	-4.525	43.628	99.655	4.240	197.665	-22.303	65.484	-98.751	-96.671	58.089	149.698	233.075	-68.840	250.246	235.596	173.158	235.632	0.00079803	0.0010571	0.00026421	999.74	9.2126e-06	7.139e-06	1194.5	398.74	6.0852e-06	8.2263e-06	583.06	249.38	172.08	88.075	9.5571e-06	137.03	0.000318	0.00025399	7.0649e-05	914.2	2.7941e-06	2.8165e-06	1097	366.6	2.8756e-06	2.7324e-06	531.65	228.86	157.53	80.77	2.8307e-06	125.58	146.163	-32.758	-18.616	-92.287	27.972	19.329	-93.497	-87.254	-12.381	28.919	-88.994	-84.799	-83.368	-78.231	-3.660	-80.713	-8191	255	
8652.144	1	1	0	0	0.09332	0.1527	0.2704	0.19948	0.14963	0.088712	0.37848	0.13911	0.039786	0.04827	0.090388	0.24558	0.023785	0.26792	0.1151	0.24936	-4.5333	-4.55	-4.2063	-5.0021	-4.2917	-4.4646	-4.9667	-4.3875	-4.7104	-4.4958	-4.4708	-5.1396	-4.4417	-4.4917	-4.9208	-4.4729	-79.192	219.074	233.362	-88.702	-11.954	218.496	214.757	224.782	-43.411	-67.095	2.677	-94.463	91.483	205.526	-36.628	236.559	0.00091142	0.00069326	0.00027648	995.5	8.304e-06	7.324e-06	1189.9	398.74	7.7478e-06	1.0768e-05	578.52	247.94	170.92	87.542	7.4676e-06	136.37	0.00032383	0.00025283	6.9931e-05	912.81	2.734e-06	2.7335e-06	1091.2	366.53	2.8094e-06	2.7464e-06	528.95	227.43	156.29	80.366	2.7443e-06	124.99	148.552	-29.845	-14.113	-92.238	23.030	40.891	-93.147	-87.166	24.003	79.065	-88.886	-85.161	-83.280	-78.435	17.014	-80.805	-8191	255	
8652.240	1	1	0	0	0.089205	0.22372	0.18743	0.2831	0.064801	0.096903	0.22622	0.13118	0.055922	0.21621	0.19914	0.2367	0.27307	0.27185	0.064037	0.12719	-4.4417	-4.6062	-4.1375	-4.9521	-4.5625	-4.3792	-4.9479	-4.3292	-4.6771	-4.6312	-4.2667	-4.9667	-4.6458	-4.5333	-4.9021	-4.5208	74.177	166.296	76.635	205.126	-45.360	-57.761	40.916	195.566	62.748	-9.574	189.409	239.597	149.537	200.432	183.906	228.252	0.00090268	0.00067853	0.00023563	993.52	5.646e-06	8.3068e-06	1191.2	397.97	7.1528e-06	9.608e-06	577.66	248.39	169.72	86.877	8.2252e-06	135.99	0.00031432	0.00025297	6.8675e-05	908.58	2.7738e-06	2.809e-06	1093.1	364.59	2.8186e-06	2.74e-06	529.81	227.33	155.72	79.856	2.784e-06	124.99	146.245	-16.462	-11.336	-92.113	20.396	16.864	-93.209	-87.371	-12.009	25.459	-89.148	-84.845	-83.469	-78.499	13.664	-80.530	-8191	255	
8652.336	1	1	0	0	0.21616	0.12395	0.13598	0.043348	0.1288	0.17725	0.11794	0.16062	0.28907	0.11057	0.13144	0.26652	0.29146	0.32067	0.32884	0.37074	-4.3938	-4.6792	-4.1562	-4.6771	-4.4021	-4.3	-4.975	-4.5646	-4.5896	-4.6417	-4.5375	-4.9333	-4.6583	-4.5583	-4.8688	-4.4771	-79.389	8.951	121.301	109.322	129.007	-86.436	-78.487	194.709	142.400	150.641	190.413	214.636	198.914	253.597	195.849	219.342	0.00087392	0.00040724	0.00024035	993.54	7.5933e-06	5.9973e-06	1191	397.17	8.7518e-06	1.1406e-05	580.99	247.6	169.49	86.688	6.2721e-06	136.52	0.0003184	0.00025232	6.8767e-05	908.36	2.7248e-06	2.7491e-06	1092.7	364.26	2.8056e-06	2.6807e-06	529.73	227.19	155.87	79.807	2.8714e-06	125.08	147.408	-43.653	-23.894	-92.141	24.388	25.846	-93.326	-87.344	6.500	49.147	-89.224	-84.894	-83.161	-78.490	-12.587	-80.710	-8191	255	
8652.456	1	1	0	0	0.048623	0.19228	0.14598	0.093715	0.074318	0.036389	0.16945	0.10282	0.21763	0.24447	0.17363	0.20906	0.19939	0.15027	0.25467	0.37638	-4.3125	-4.8979	-4.2354	-4.875	-4.5604	-4.3542	-4.8771	-4.5542	-4.4646	-4.9437	-4.5062	-4.9729	-4.8667	-4.5125	-4.7646	-4.55	-16.508	-95.184	217.490	197.958	68.509	178.507	161.487	201.854	174.340	6.704	226.998	-67.108	46.037	167.093	156.208	201.297	0.00089311	0.0011712	0.00042147	992.74	7.2766e-06	1.0241e-05	1188.3	397.19	4.195e-06	4.4715e-06	580.91	250.16	171.35	87.19	8.0064e-06	137.45	0.00031025	0.00025273	7.1147e-05	909.05	2.7611e-06	2.6908e-06	1094.5	364.79	2.8049e-06	2.6959e-06	532.18	229.24	156.67	80.314	2.8709e-06	126.12	148.490	-24.987	-16.399	-92.043	24.703	48.325	-93.416	-87.086	-0.880	16.929	-88.972	-85.167	-83.293	-78.189	-22.518	-80.606	-8191	255	
8652.553	1	1	0	0	0.2239	0.075514	0.16793	0.2489	0.13835	0.089579	0.20693	0.29363	0.17509	0.16296	0.32098	0.25473	0.11984	0.151	0.13547	0.17119	-4.1542	-4.9292	-4.2417	-4.7229	-4.6917	-4.1896	-5.0417	-4.5292	-4.3542	-5.0167	-4.3208	-4.7792	-4.9146	-4.4375	-4.7729	-4.8146	52.403	201.111	-98.441	244.166	-101.397	153.189	198.306	200.826	143.710	118.236	-85.477	186.414	247.921	214.633	33.938	194.128	0.00088003	0.0011068	0.00026421	992.44	3.8428e-06	9.1243e-06	1191.9	396.57	4.336e-06	8.9238e-06	579.44	247.62	170.16	87.071	6.1221e-06	136.01	0.00030935	0.00025529	7.0356e-05	912.48	2.7246e-06	2.7221e-06	1096.9	365.27	2.7511e-06	2.729e-06	529.62	227.24	155.87	80.067	2.8352e-06	125.1	148.542	-36.538	-12.648	-92.134	7.468	16.780	-93.324	-87.088	-8.742	21.793	-88.653	-84.972	-83.421	-78.451	5.100	-80.682	-8191	255	
8652.624	1	1	0	0	0.079401	0.14784	0.057926	0.25131	0.047611	0.0058927	0.2881	0.17071	0.0079481	0.26795	0.22627	0.18182	0.026171	0.25382	0.17836	0.25191	-3.9542	-4.9812	-4.2667	-4.6896	-4.7646	-4.4521	-4.9104	-4.5729	-4.3187	-4.85	-4.5667	-4.5167	-4.875	-4.3938	-4.8229	-4.8417	148.461	176.249	35.427	245.818	-43.317	162.888	-103.341	161.405	235.109	-23.096	200.768	-97.625	138.440	-72.318	55.983	198.487	0.00085181	0.00086967	0.00031213	993.24	4.2603e-06	1.0587e-05	1183.4	394.18	5.8833e-06	9.2293e-06	576.42	245.47	168.56	86.6	3.6554e-06	135.2	0.00031189	0.0002491	6.9669e-05	907.21	2.738e-06	2.6125e-06	1085.4	361.94	2.7641e-06	2.6839e-06	525.67	224.7	154.31	79.333	2.7966e-06	123.95	139.911	-21.149	18.429	-92.180	30.278	29.127	-93.337	-87.320	-47.819	17.475	-88.796	-84.964	-83.479	-78.427	28.556	-80.836	-8191	255	
8652.743	1	1	0	0	0.20842	0.16029	0.095861	0.15218	0.099581	0.10726	0.19521	0.18378	0.089914	0.16234	0.18927	0.29594	0.18398	0.40436	0.12532	0.19002	-3.9021	-4.9646	-4.1833	-4.6375	-4.8417	-4.2396	-4.9	-4.8167	-4.2458	-4.8833	-4.5771	-4.5229	-4.8833	-4.2146	-4.4667	-4.7958	-8.024	205.111	183.331	178.332	231.603	152.284	203.440	166.891	-25.565	78.155	212.459	195.822	172.731	235.184	227.425	186.878	0.00088254	0.00076981	0.0002281	985.7	1.0822e-05	6.0386e-06	1179.9	393.43	6.6522e-06	8.9677e-06	573.14	244.97	168.41	85.812	6.9889e-06	134.86	0.00030337	0.00024872	6.8776e-05	902.06	2.7743e-06	2.6956e-06	1083.1	360.04	2.7687e-06	2.7536e-06	524.44	224.86	153.62	78.806	2.7398e-06	123.77	149.991	-19.075	-22.183	-92.394	22.051	52.637	-93.178	-87.276	47.122	54.153	-88.889	-84.954	-83.324	-78.261	-6.001	-80.634	-8191	255	
8652.839	1	1	0	0	0.22696	0.22446	0.017716	0.046403	0.23496	0.11832	0.08424	0.19328	0.35196	0.11932	0.20932	0.25057	0.14273	0.26421	0.043075	0.11725	-3.7708	-4.7396	-4.5813	-4.2979	-4.8333	-4.3458	-4.6813	-4.75	-4.3271	-4.8979	-4.6667	-4.3708	-4.8417	-4.4396	-4.4688	-4.8292	248.321	24.649	-71.050	162.063	133.106	68.441	-96.089	240.025	-55.542	-70.571	-104.701	187.817	117.881	242.803	-47.240	180.867	0.00085703	0.0010973	0.00019596	977.87	4.6853e-06	1.1115e-05	1181.8	392.97	7.022e-06	1.0508e-05	571.87	243.8	166.97	85.517	9.8595e-06	135.15	0.00030293	0.00024826	6.9065e-05	899.5	2.7591e-06	2.7221e-06	1083.7	359.5	2.7522e-06	2.7139e-06	524.48	224.43	153.18	78.413	2.7973e-06	123.81	147.755	-27.120	-89.715	-92.095	6.411	49.134	-93.436	-87.303	2.438	57.685	-88.924	-85.007	-83.295	-78.428	10.994	-80.697	-8191	255	
8652.935	1	1	0	0	0.092598	0.12184	0.11745	0.25103	0.045451	0.097598	0.25502	0.15059	0.09754	0.076172	0.20246	0.34362	0.036611	0.19897	0.032062	0.25462	-4	-4.6542	-4.6375	-4.3479	-4.8208	-4.3917	-4.5479	-4.8979	-4.2146	-4.7167	-4.6667	-4.2812	-4.7708	-4.6125	-4.3958	-4.9833	218.272	129.910	88.622	189.855	13.407	-6.087	235.089	252.823	-67.235	120.898	138.605	229.174	61.636	167.840	-15.058	208.136	0.0008839	0.00098968	0.00018299	983.71	7.2115e-06	5.3616e-06	1180.6	390.37	8.5561e-06	1.3529e-05	573.64	247.78	167.63	85.566	5.2989e-06	135.89	0.00030387	0.00024869	6.7996e-05	900.6	2.7638e-06	2.692e-06	1086.6	358.35	2.7458e-06	2.7364e-06	526.11	226.08	153.48	78.578	2.7993e-06	124.57	148.744	-11.268	-22.233	-92.217	4.631	17.622	-93.432	-87.482	-27.498	27.467	-89.026	-84.878	-83.272	-78.525	16.659	-80.697	-8191	255	
8653.032	1	1	0	0	0.15841	0.12344	0.21468	0.29204	0.15796	0.064226	0.21149	0.24612	0.2162	0.17123	0.35234	0.12433	0.061907	0.23167	0.027171	0.18436	-3.8646	-4.8021	-4.6062	-4.2104	-4.7812	-4.3646	-4.6188	-4.8292	-4.075	-4.6813	-4.8	-4.2021	-4.6833	-4.8979	-4.4938	-5.0729	148.502	12.409	-36.297	212.679	-26.571	117.639	176.370	131.088	73.224	-56.415	164.088	220.045	189.727	208.539	55.182	179.022	0.00088036	0.00047925	0.00011113	983.57	9.6838e-06	7.6202e-06	1187.1	391.87	8.421e-06	5.7628e-06	576.92	246.47	166.8	85.615	3.0307e-06	135.44	0.00030796	0.00025338	6.9162e-05	901.5	2.7454e-06	2.7668e-06	1089.8	359.37	2.7539e-06	2.768e-06	525.57	225.71	153.33	78.599	2.7582e-06	123.95	147.512	-15.582	2.428	-92.198	0.754	36.372	-93.195	-87.188	-29.324	-4.769	-88.775	-84.970	-83.388	-78.296	26.659	-80.854	-8191	255	
8653.152	1	1	0	0	0.1357	0.076987	0.14696	0.1823	0.17045	0.083084	0.32615	0.038898	0.078723	0.13496	0.094795	0.13261	0.065399	0.23545	0.17636	0.14593	-3.9562	-4.5062	-4.6833	-4.3083	-4.8438	-4.5	-4.5708	-5	-4.1875	-4.6104	-4.9646	-4.2417	-4.7917	-4.6188	-4.4437	-4.9062	47.553	-39.995	237.363	159.488	232.879	220.438	201.947	250.058	-83.217	-62.371	-36.493	120.687	166.663	188.236	-92.768	195.838	0.00091202	0.00081364	0.00026585	984.16	6.0852e-06	6.5128e-06	1175.9	390.72	6.0437e-06	8.2501e-06	573.19	244.33	167.25	85.241	7.1455e-06	133.83	0.00030968	0.00025296	6.9131e-05	898.09	2.7527e-06	2.6891e-06	1081.7	358.75	2.7635e-06	2.7784e-06	522.89	223.88	153.1	78.338	2.7913e-06	122.97	148.743	-12.690	-29.314	-92.428	35.374	50.136	-93.207	-87.315	-36.352	29.440	-88.990	-85.144	-83.527	-78.498	3.147	-80.762	-8191	255	
#DATA ENDS
