BOXY.EXE: ISS Imagent and Oximeter Data Acquisition Program Version 0.80
Ascii Record File

#ACQ INFORMATION
2  Detector Channels 
16  External MUX Channels 
1  Auxiliary Channels 
5000  Waveform (CCF) Frequency (Hz)
1  Waveforms Skipped 
30  Waveforms Averaged 
1  Cycles Averaged 
16  Acquisitions per Waveform 
10.0806  Updata Rate (Hz) 

#FILE INFORMATION
TRUE -- External MUX Channel results are PARSED.
FALSE -- AC DC and Phase are NOT grouped.
TRUE -- Companion Program Settings File CREATED.
FALSE -- AC data not excluded
FALSE -- DC data not excluded
FALSE -- Phase data not excluded
FALSE -- Auxillary Chn. data not excluded
Tab delimiters

#CALIBRATION STATE
TRUE -- Waveform Calibration Values APPLIED.


#AUX CALIBRATION VALUES
Val Type	aux-1	

Term	1.0000e+00	
Factor	0.0000e+00	


#WF CALIBRATION VALUES
A = Detector Channel
Val Type	A-AC1	A-AC2	A-AC3	A-AC4	A-AC5	A-AC6	A-AC7	A-AC8	A-AC9	A-AC10	A-AC11	A-AC12	A-AC13	A-AC14	A-AC15	A-AC16	A-DC1	A-DC2	A-DC3	A-DC4	A-DC5	A-DC6	A-DC7	A-DC8	A-DC9	A-DC10	A-DC11	A-DC12	A-DC13	A-DC14	A-DC15	A-DC16	A-Ph1	A-Ph2	A-Ph3	A-Ph4	A-Ph5	A-Ph6	A-Ph7	A-Ph8	A-Ph9	A-Ph10	A-Ph11	A-Ph12	A-Ph13	A-Ph14	A-Ph15	A-Ph16	

Term	0.00000e+00	0.00000e+00	0.00000e+00	0.00000e+00	0.00000e+00	0.00000e+00	0.00000e+00	0.00000e+00	0.00000e+00	0.00000e+00	0.00000e+00	0.00000e+00	0.00000e+00	0.00000e+00	0.00000e+00	0.00000e+00	0.00000e+00	0.00000e+00	0.00000e+00	0.00000e+00	0.00000e+00	0.00000e+00	0.00000e+00	0.00000e+00	0.00000e+00	0.00000e+00	0.00000e+00	0.00000e+00	0.00000e+00	0.00000e+00	0.00000e+00	0.00000e+00	0.00000e+00	0.00000e+00	0.00000e+00	0.00000e+00	0.00000e+00	0.00000e+00	0.00000e+00	0.00000e+00	0.00000e+00	0.00000e+00	0.00000e+00	0.00000e+00	0.00000e+00	0.00000e+00	0.00000e+00	0.00000e+00	
Factor	1.00000e+00	1.00000e+00	1.00000e+00	1.00000e+00	1.00000e+00	1.00000e+00	1.00000e+00	1.00000e+00	1.00000e+00	1.00000e+00	1.00000e+00	1.00000e+00	1.00000e+00	1.00000e+00	1.00000e+00	1.00000e+00	1.00000e+00	1.00000e+00	1.00000e+00	1.00000e+00	1.00000e+00	1.00000e+00	1.00000e+00	1.00000e+00	1.00000e+00	1.00000e+00	1.00000e+00	1.00000e+00	1.00000e+00	1.00000e+00	1.00000e+00	1.00000e+00	X	X	X	X	X	X	X	X	X	X	X	X	X	X	X	X	

B = Detector Channel
Val Type	B-AC1	B-AC2	B-AC3	B-AC4	B-AC5	B-AC6	B-AC7	B-AC8	B-AC9	B-AC10	B-AC11	B-AC12	B-AC13	B-AC14	B-AC15	B-AC16	B-DC1	B-DC2	B-DC3	B-DC4	B-DC5	B-DC6	B-DC7	B-DC8	B-DC9	B-DC10	B-DC11	B-DC12	B-DC13	B-DC14	B-DC15	B-DC16	B-Ph1	B-Ph2	B-Ph3	B-Ph4	B-Ph5	B-Ph6	B-Ph7	B-Ph8	B-Ph9	B-Ph10	B-Ph11	B-Ph12	B-Ph13	B-Ph14	B-Ph15	B-Ph16	

Term	0.00000e+00	0.00000e+00	0.00000e+00	0.00000e+00	0.00000e+00	0.00000e+00	0.00000e+00	0.00000e+00	0.00000e+00	0.00000e+00	0.00000e+00	0.00000e+00	0.00000e+00	0.00000e+00	0.00000e+00	0.00000e+00	0.00000e+00	0.00000e+00	0.00000e+00	0.00000e+00	0.00000e+00	0.00000e+00	0.00000e+00	0.00000e+00	0.00000e+00	0.00000e+00	0.00000e+00	0.00000e+00	0.00000e+00	0.00000e+00	0.00000e+00	0.00000e+00	-1.76971e+02	-1.26231e+02	-1.22654e+02	-1.81614e+02	-8.27724e+01	-7.88091e+01	-1.57570e+02	-1.62015e+02	-8.57950e+01	-7.03981e+01	-1.71199e+02	-1.72854e+02	-1.84169e+02	-1.76777e+02	-8.06855e+01	-1.49602e+02	
Factor	3.07816e-05	1.62578e-04	4.72384e-05	1.51029e-01	1.31753e-06	1.41732e-06	1.65794e-01	5.23204e-02	1.70557e-06	1.74508e-06	8.62220e-02	3.50286e-02	3.70922e-02	9.34852e-03	1.66101e-06	1.36017e-02	2.42273e-06	2.59562e-06	7.22291e-07	7.56502e-02	2.81075e-08	2.84093e-08	7.83351e-02	2.61589e-02	2.80967e-08	2.83958e-08	4.18652e-02	1.69423e-02	1.85081e-02	4.69075e-03	2.82755e-08	6.61081e-03	X	X	X	X	X	X	X	X	X	X	X	X	X	X	X	X	



#DISTANCE SETTINGS
A = Detector Channel
A-1	A-2	A-3	A-4	A-5	A-6	A-7	A-8	A-9	A-10	A-11	A-12	A-13	A-14	A-15	A-16	

2.5000e+00	3.0000e+00	2.5000e+00	3.0000e+00	2.0000e+00	3.0000e+00	1.5000e+00	3.0000e+00	3.0000e+00	3.0000e+00	3.0000e+00	3.0000e+00	3.0000e+00	3.0000e+00	1.5000e+00	3.0000e+00	

B = Detector Channel
B-1	B-2	B-3	B-4	B-5	B-6	B-7	B-8	B-9	B-10	B-11	B-12	B-13	B-14	B-15	B-16	

1.0000e+01	1.0000e+01	1.0000e+01	1.4400e+00	1.0000e+01	1.0000e+01	1.5100e+00	1.9400e+00	1.0000e+01	1.0000e+01	1.9900e+00	2.4900e+00	2.4100e+00	2.9000e+00	1.0000e+01	2.9800e+00	




#DATA BEGINS
time	group	step	mark	flag	A-AC1	A-AC2	A-AC3	A-AC4	A-AC5	A-AC6	A-AC7	A-AC8	A-AC9	A-AC10	A-AC11	A-AC12	A-AC13	A-AC14	A-AC15	A-AC16	A-DC1	A-DC2	A-DC3	A-DC4	A-DC5	A-DC6	A-DC7	A-DC8	A-DC9	A-DC10	A-DC11	A-DC12	A-DC13	A-DC14	A-DC15	A-DC16	A-Ph1	A-Ph2	A-Ph3	A-Ph4	A-Ph5	A-Ph6	A-Ph7	A-Ph8	A-Ph9	A-Ph10	A-Ph11	A-Ph12	A-Ph13	A-Ph14	A-Ph15	A-Ph16	B-AC1	B-AC2	B-AC3	B-AC4	B-AC5	B-AC6	B-AC7	B-AC8	B-AC9	B-AC10	B-AC11	B-AC12	B-AC13	B-AC14	B-AC15	B-AC16	B-DC1	B-DC2	B-DC3	B-DC4	B-DC5	B-DC6	B-DC7	B-DC8	B-DC9	B-DC10	B-DC11	B-DC12	B-DC13	B-DC14	B-DC15	B-DC16	B-Ph1	B-Ph2	B-Ph3	B-Ph4	B-Ph5	B-Ph6	B-Ph7	B-Ph8	B-Ph9	B-Ph10	B-Ph11	B-Ph12	B-Ph13	B-Ph14	B-Ph15	B-Ph16	aux-1	digaux	

8345.860	1	1	0	512	0.066029	0.048376	0.18608	0.13934	0.10473	0.17179	0.15677	0.36302	0.28845	0.084653	0.21118	0.20876	0.36215	0.31781	0.21085	0.20956	-4.1708	-4.7063	-4.2438	-4.7438	-4.4979	-4.3167	-4.9708	-4.2542	-4.5958	-4.6687	-4.4375	-4.7542	-4.6458	-4.3292	-4.6813	-4.4833	373.858	451.185	437.228	464.217	456.325	381.779	484.668	466.574	152.294	427.804	485.240	369.677	468.960	167.989	173.613	416.084	0.0010505	0.00064794	0.00010286	506.65	3.3464e-06	4.6271e-06	529.88	197.76	3.1765e-06	4.5038e-06	257.26	120.28	87.586	41.787	5.6335e-06	62.073	0.00030576	0.00025842	7.2643e-05	491.27	2.868e-06	2.8183e-06	511.76	190.88	2.867e-06	2.8091e-06	248.44	115.41	83.92	40.31	2.8597e-06	59.935	500.378	183.649	262.604	161.974	211.375	272.706	160.977	166.057	237.387	295.659	164.463	167.207	168.453	171.919	289.479	169.910	-8191	255	
8345.956	1	1	0	0	0.11843	0.20458	0.28345	0.20409	0.22944	0.051181	0.14547	0.31646	0.1073	0.17358	0.17341	0.067983	0.098085	0.024149	0.009804	0.19504	-3.9604	-4.7917	-4.2354	-4.4479	-4.5979	-4.3521	-4.7708	-4.3958	-4.2812	-4.8021	-4.3896	-4.6958	-4.8	-4.1146	-4.7354	-4.6167	245.936	470.528	220.458	442.537	310.278	413.366	503.581	385.560	377.614	394.202	366.167	395.258	488.344	408.945	367.933	153.319	0.0011042	0.00015988	0.00021475	512.17	2.646e-06	4.3295e-06	531.31	197.52	8.9572e-06	5.2179e-06	257.72	120.19	87.499	41.765	6.0138e-06	61.903	0.00030752	0.00025392	7.1534e-05	494.37	2.8447e-06	2.8441e-06	512.86	190.74	2.8482e-06	2.842e-06	247.97	115.02	83.496	40.19	2.9396e-06	59.75	496.420	303.493	285.711	161.578	281.605	270.652	160.791	166.076	245.542	335.884	164.634	166.969	168.572	171.903	277.337	169.853	-8191	255	
8346.052	1	1	0	0	0.15918	0.11806	0.063058	0.15768	0.12655	0.12837	0.017083	0.084091	0.19095	0.33877	0.21498	0.37246	0.12185	0.034094	0.19492	0.07575	-3.75	-4.8979	-4.1854	-4.6479	-4.7875	-4.0125	-4.7458	-4.4458	-4.1354	-4.8896	-4.2438	-4.4375	-4.7271	-4.1604	-4.6375	-4.5708	158.274	166.868	206.489	442.947	476.533	275.657	222.211	377.606	267.133	204.249	471.585	379.197	167.661	404.429	442.279	413.638	0.0010367	0.00044244	0.00016109	511.52	5.1186e-06	5.8005e-06	526.38	197.67	3.7321e-06	5.8369e-06	256.2	119	86.935	41.566	4.8905e-06	61.318	0.00030577	0.00026077	7.2575e-05	494.07	2.8551e-06	2.8556e-06	510.84	190.16	2.917e-06	2.8513e-06	246.78	114.49	83.073	40.029	2.9332e-06	59.191	507.508	277.674	232.202	162.039	293.817	257.202	161.117	165.795	247.720	285.710	164.306	167.060	168.783	171.979	214.017	169.978	-8191	255	
8346.148	1	1	0	0	0.12797	0.22164	0.049941	0.22885	0.030202	0.27975	0.10213	0.095859	0.14097	0.15289	0.21622	0.15231	0.151	0.13595	0.041981	0.045581	-3.8187	-4.7958	-4.1854	-4.4167	-4.85	-4.0792	-4.5563	-4.7167	-4.1146	-4.5938	-4.5958	-4.4062	-4.7333	-4.3208	-4.5354	-4.7438	380.485	503.158	196.840	503.060	458.704	410.414	282.303	203.234	195.808	250.458	195.990	159.708	469.668	173.269	181.802	225.609	0.0010576	0.00038605	0.00014775	507.15	5.0822e-06	2.2393e-06	523.24	196.5	6.107e-06	7.7742e-06	252.96	118.37	86.522	41.28	3.4089e-06	60.766	0.00030719	0.00026084	7.369e-05	492.55	2.9281e-06	2.8845e-06	507.79	189.58	2.9048e-06	2.8957e-06	244.8	113.3	83.114	39.832	2.9225e-06	58.552	499.914	280.353	254.228	161.954	259.634	287.938	161.064	166.069	262.739	290.885	164.340	167.142	168.503	172.146	257.925	169.835	-8191	255	
8346.267	1	1	0	0	0.1685	0.11205	0.091493	0.075002	0.25961	0.19104	0.10512	0.10147	0.18369	0.13533	0.10904	0.17142	0.11007	0.29582	0.069487	0.19205	-3.7792	-4.5	-4.5375	-4.4458	-4.7417	-4.1521	-4.4896	-4.7479	-4.275	-4.5938	-4.5896	-4.3083	-4.8146	-4.3146	-4.2167	-4.9563	248.816	279.988	396.566	435.902	380.688	487.544	153.265	421.896	502.023	431.331	380.979	222.633	256.236	347.663	467.679	492.859	0.001069	0.00042979	0.00013888	516.5	5.3267e-06	3.7168e-06	525.01	197.9	2.6953e-06	8.3723e-06	251.16	116.74	86.249	41.133	4.4938e-06	60.553	0.00030593	0.00026956	7.4127e-05	498.57	2.9458e-06	2.899e-06	508.01	190.32	2.9383e-06	2.9387e-06	243.85	112.12	82.649	39.628	2.9676e-06	58.334	501.350	238.812	251.740	162.011	283.455	275.043	160.982	165.860	199.462	258.270	164.154	167.007	168.476	171.943	235.823	169.946	-8191	255	
8346.363	1	1	0	0	0.084866	0.12251	0.1492	0.22779	0.061058	0.081593	0.11218	0.21679	0.31664	0.079942	0.072422	0.12601	0.15333	0.15266	0.044916	0.41936	-3.7792	-4.45	-4.5188	-4.1354	-4.875	-4.2292	-4.4458	-4.7896	-4.175	-4.7375	-4.5208	-4.2229	-4.8958	-4.2604	-4.4646	-4.8896	237.222	286.041	159.635	324.123	207.908	274.313	372.850	180.469	503.667	316.088	310.163	342.143	148.287	475.932	500.642	493.420	0.001099	0.00049141	0.00015452	513.63	5.4464e-06	7.6377e-07	524.2	196.21	5.209e-06	1.9467e-06	252.34	116.41	85.694	40.544	5.2185e-06	59.693	0.00030661	0.00027479	7.4006e-05	497.41	2.9639e-06	2.9733e-06	509.3	190.17	3.0285e-06	3.0289e-06	243.92	111.81	82.382	39.173	3.0889e-06	57.787	504.933	238.815	237.604	161.955	257.459	424.524	161.050	166.105	276.135	297.298	164.426	166.893	168.413	172.168	292.878	170.031	-8191	255	
8346.459	1	1	0	0	0.19657	0.092914	0.26157	0.13522	0.081954	0.071432	0.14229	0.17365	0.167	0.28236	0.2269	0.1833	0.13829	0.029023	0.12347	0.090389	-3.8583	-4.7417	-4.7354	-4.3479	-4.7771	-4.5167	-4.4396	-4.9521	-4.2958	-4.5604	-4.8208	-4.1646	-4.6396	-4.4083	-4.3458	-4.9	184.458	407.796	221.937	340.001	274.058	278.384	375.078	426.916	332.691	189.934	393.792	390.088	204.370	505.983	391.518	428.764	0.001027	0.00079027	8.663e-05	514.36	4.0836e-06	4.8961e-06	521.71	197.04	2.0112e-06	5.8297e-06	252.29	116.3	85.121	40.393	8.0901e-06	59.907	0.00031598	0.00027895	7.4831e-05	499.9	3.0167e-06	3.033e-06	508.58	189.95	3.0051e-06	3.0592e-06	243.12	111.37	81.867	38.985	3.04e-06	57.712	499.642	187.791	253.699	162.100	248.592	215.906	160.926	165.750	306.378	320.045	164.041	167.300	168.551	171.999	259.029	169.869	-8191	255	
8346.555	1	1	0	0	0.13022	0.24933	0.075284	0.15118	0.1348	0.10803	0.064193	0.40436	0.20983	0.18309	0.18442	0.14636	0.038965	0.084317	0.24244	0.097755	-3.8104	-4.5229	-4.7	-4.2188	-4.8271	-4.4479	-4.4208	-4.8542	-4.1458	-4.425	-4.8396	-4.025	-4.725	-4.5125	-4.1188	-4.9437	389.220	285.723	414.416	427.700	292.665	212.294	392.106	318.392	301.071	235.499	473.620	487.553	464.493	444.437	210.400	426.729	0.00096245	0.00037287	9.1265e-05	512.72	5.4369e-06	3.8582e-06	524.25	196.33	8.544e-06	5.1478e-06	250.85	115.92	85.557	40.817	5.6758e-06	60.681	0.00030884	0.00027836	7.6778e-05	497.3	3.0649e-06	2.9925e-06	506.82	189.32	3.026e-06	3.0902e-06	243.51	111.86	82.143	39.44	3.0833e-06	58.403	507.070	245.555	266.654	162.114	275.707	286.530	161.011	166.217	268.787	269.472	164.417	167.431	168.647	171.981	276.683	169.972	-8191	255	
8346.652	1	1	0	0	0.053423	0.17025	0.22957	0.081506	0.13688	0.20662	0.1556	0.11532	0.1031	0.020582	0.081835	0.27047	0.12882	0.11292	0.11463	0.051268	-3.9854	-4.3125	-4.8208	-4.2417	-4.6438	-4.4792	-4.2312	-4.8208	-4.3458	-4.3187	-4.775	-4.1396	-4.7229	-4.6083	-4.2333	-4.9354	280.378	361.652	427.250	263.789	447.718	448.304	278.785	455.830	286.206	210.961	324.731	466.220	439.515	439.948	495.844	428.578	0.0010002	0.00036437	0.0001936	506.77	2.2526e-06	6.0136e-06	517.08	192.34	7.9795e-06	2.2435e-07	249.82	115.47	85.001	40.235	5.1159e-06	59.583	0.00031539	0.00027848	7.7013e-05	490.87	3.0921e-06	3.0716e-06	502.81	187.3	3.0699e-06	3.094e-06	241.28	110.68	81.341	38.866	3.0486e-06	57.565	501.921	237.223	246.747	161.946	273.656	324.067	160.871	166.105	287.975	450.112	164.413	167.162	168.635	172.186	298.654	170.070	-8191	255	
8346.748	1	1	0	0	0.031056	0.21201	0.10119	0.26883	0.16465	0.1759	0.13703	0.21778	0.13559	0.24991	0.063942	0.018749	0.31008	0.17106	0.09134	0.10844	-4.0417	-4.2417	-4.8063	-4.3083	-4.6271	-4.7958	-4.2833	-4.7833	-4.4083	-4.375	-4.8271	-4.1854	-4.4688	-4.8896	-4.0708	-4.8896	217.469	277.650	185.010	388.892	369.527	247.850	297.810	473.307	434.632	350.068	288.522	187.648	206.709	487.078	176.022	289.375	0.0010455	0.00054875	0.00014807	506.92	1.5587e-06	1.6722e-06	518.73	194.2	2.7683e-06	4.0411e-06	249.16	114.69	85.018	40.112	2.247e-06	59.584	0.00031434	0.00028029	7.612e-05	491.33	3.054e-06	2.9417e-06	502.68	187.4	2.9983e-06	2.9848e-06	241.11	110.36	81.317	38.739	3.0067e-06	57.572	500.465	228.227	241.014	162.009	317.780	373.473	161.205	165.939	210.117	277.085	164.670	167.119	168.701	172.200	253.421	169.887	-8191	255	
8346.868	1	1	0	0	0.22081	0.078521	0.24125	0.26129	0.12173	0.19633	0.24226	0.20363	0.16208	0.070024	0.11893	0.1182	0.10156	0.23367	0.12155	0.065963	-4.0188	-4.3042	-4.8521	-4.4521	-4.4521	-4.6833	-4.4187	-4.625	-4.4729	-4.1667	-4.775	-4.4646	-4.6	-4.8521	-4.3438	-4.8458	303.991	251.893	399.788	459.709	318.017	163.968	492.926	489.067	161.911	220.613	458.604	260.865	400.008	441.575	174.208	502.993	0.0010373	0.00050853	0.00021954	508.54	6.3537e-06	3.2196e-07	520.6	194.77	4.8643e-06	2.049e-06	251.5	117.48	86.173	40.83	6.4091e-06	60.938	0.0003127	0.00027507	7.6307e-05	492.58	2.9956e-06	2.9289e-06	505.23	188.72	3.0264e-06	2.9213e-06	243.91	112.6	82.333	39.422	3.0148e-06	58.828	498.659	212.342	237.097	161.872	291.928	280.043	160.820	166.301	272.472	269.789	164.545	167.283	168.359	172.086	280.345	169.759	-8191	255	
8346.964	1	1	0	0	0.2232	0.086658	0.11268	0.27923	0.17007	0.13563	0.28979	0.26867	0.19513	0.15982	0.070893	0.075954	0.27452	0.20532	0.042332	0.12251	-4.2479	-4.3063	-4.6896	-4.2708	-4.3063	-4.7812	-4.3229	-4.5813	-4.4938	-4.0437	-4.6708	-4.5625	-4.2625	-4.725	-4.2271	-4.5521	446.172	171.956	471.376	188.122	492.523	502.977	469.534	152.887	490.845	497.711	282.921	493.700	485.047	426.723	431.033	280.761	0.0010031	0.00052482	0.00013486	508.32	5.1587e-06	6.4513e-06	519.19	195.95	5.2844e-06	4.1199e-06	255.39	117.93	86.129	41.029	3.3548e-06	61.382	0.00031991	0.00027355	7.725e-05	492.48	3.0633e-06	3.0415e-06	506.29	189.42	3.1073e-06	3.0276e-06	246.07	113.33	82.81	39.696	3.1031e-06	59.056	499.998	277.628	217.911	162.200	287.911	310.610	160.924	165.822	292.747	255.565	164.084	166.913	168.316	171.901	250.736	170.180	-8191	255	
8347.059	1	1	0	0	0.030653	0.097513	0.11377	0.13329	0.19431	0.12542	0.17806	0.17141	0.11302	0.31201	0.1556	0.18952	0.25115	0.26708	0.12004	0.12706	-4.5062	-3.9271	-4.7854	-4.4792	-4.2521	-4.8708	-4.35	-4.3896	-4.8021	-4.1813	-4.7979	-4.6083	-4.3333	-4.9021	-4.3271	-4.6521	182.073	329.436	330.434	410.057	281.456	171.106	359.180	483.679	241.837	167.405	485.694	480.480	170.916	227.487	330.339	458.720	0.00098517	0.00046038	0.00016469	508.67	4.0501e-06	2.8739e-06	523.96	195.18	6.099e-06	3.2418e-06	252.27	117.34	86.182	41.243	5.8489e-06	61.019	0.00032302	0.00027722	8.1086e-05	492.95	3.0576e-06	3.0728e-06	507.8	189.36	3.0506e-06	3.0185e-06	244.98	112.38	82.62	39.684	3.0553e-06	58.972	502.465	271.758	262.991	162.057	316.246	359.111	161.058	165.830	269.339	260.874	164.190	166.923	168.572	172.205	260.292	169.939	-8191	255	
8347.155	1	1	0	0	0.13443	0.095683	0.027222	0.28592	0.0912	0.26015	0.095172	0.13917	0.090428	0.16072	0.29688	0.12953	0.20427	0.13051	0.17914	0.098161	-4.2937	-3.9958	-4.4333	-4.6979	-4.4021	-4.6667	-4.5354	-4.3646	-4.6937	-4.1604	-4.9146	-4.5854	-4.2021	-4.8292	-4.2479	-4.2188	338.445	191.212	159.886	444.312	503.519	447.988	462.420	224.147	222.606	496.377	225.080	236.015	507.394	329.109	295.369	318.232	0.0010971	0.0006092	0.00014229	509.01	3.5093e-06	4.05e-06	518.85	197.04	6.3557e-06	4.5892e-06	251.77	116.33	85.302	40.626	6.6815e-06	60.261	0.00031955	0.0002751	7.78e-05	491.9	2.9697e-06	2.9624e-06	504.86	189.56	2.9817e-06	2.9904e-06	243.62	111.73	81.758	39.174	3.0092e-06	58.163	499.931	253.915	243.450	161.899	292.039	259.955	161.120	165.727	228.109	276.886	164.427	167.163	168.514	172.323	267.385	170.086	-8191	255	
8347.251	1	1	0	0	0.072513	0.2024	0.12866	0.17899	0.030385	0.31835	0.12251	0.1352	0.19619	0.1055	0.20001	0.026795	0.16714	0.22261	0.21966	0.14816	-4.4542	-4.3708	-4.4458	-4.8375	-4.3229	-4.7688	-4.4896	-4.2667	-4.7854	-4.2646	-4.5813	-4.6354	-4.1896	-4.8479	-4.3438	-4.2396	380.017	181.846	490.925	446.592	504.202	408.189	265.536	499.022	250.988	233.571	446.133	323.919	365.244	187.857	173.794	159.246	0.001016	0.00032833	0.00010615	509.64	4.1971e-06	3.7157e-06	522.75	196.6	7.9252e-06	3.5175e-06	251.5	116.03	85.681	40.592	7.0454e-06	60.516	0.00030941	0.00026891	7.5168e-05	494.03	2.8863e-06	2.99e-06	506.29	189.85	2.9141e-06	2.9511e-06	243.87	111.43	82.241	39.216	3.0447e-06	58.327	501.909	208.504	235.507	161.975	250.609	292.070	160.799	166.090	220.416	240.271	164.741	167.072	168.808	172.243	291.297	169.859	-8191	255	
8347.347	1	1	0	0	0.15876	0.066462	0.1662	0.15041	0.17111	0.089558	0.17097	0.070062	0.22524	0.061408	0.12836	0.26	0.24006	0.34431	0.15232	0.17614	-4.6292	-4.2854	-4.5	-4.7812	-4.2375	-4.8125	-4.5188	-4.3688	-4.8333	-4.325	-4.5604	-4.9375	-4.1625	-4.6042	-4.5042	-4.4688	375.533	222.246	211.719	319.302	444.260	467.232	366.711	325.086	419.896	271.052	234.168	404.665	173.255	226.964	369.220	180.826	0.0011177	0.00047905	4.371e-05	506.51	4.2323e-06	2.3933e-06	524.32	195.88	3.9394e-06	1.0396e-05	255.78	118.57	86.133	41.217	3.0967e-06	61.32	0.00031118	0.00027556	7.7533e-05	492.08	3.0287e-06	3.0354e-06	508.51	189.87	2.9991e-06	2.9535e-06	247.12	113.78	82.881	39.778	3.045e-06	59.168	502.677	258.860	248.366	162.049	278.490	315.073	160.954	165.985	253.394	265.285	164.459	167.002	168.250	171.914	288.243	170.115	-8191	255	
8347.443	1	1	0	0	0.18883	0.22099	0.077979	0.23609	0.072325	0.2074	0.15808	0.048086	0.16516	0.21225	0.26625	0.21503	0.20517	0.07914	0.21067	0.14052	-4.3729	-4.4521	-4.4187	-4.8167	-4.1375	-4.7396	-4.5917	-4.2396	-4.5771	-4.3667	-4.35	-4.9396	-4.3333	-4.5979	-4.6375	-4.3187	398.077	259.917	493.473	474.821	148.272	291.262	163.249	347.751	383.156	171.867	501.193	151.147	451.731	258.613	456.066	449.787	0.0011314	0.00013585	0.00011898	507.38	6.5614e-06	2.1527e-06	525.2	197.33	8.3301e-06	6.5208e-06	256.86	119.75	87.109	41.373	1.3879e-06	62.225	0.00031616	0.00027332	7.8812e-05	492.5	3.0103e-06	3.0865e-06	509.85	190.44	3.0745e-06	3.0423e-06	247.9	114.35	83.576	40.098	3.0066e-06	59.881	499.838	299.283	315.529	161.501	261.851	246.759	160.950	165.871	292.324	302.519	164.645	167.243	168.425	172.091	467.241	170.053	-8191	255	
8347.540	1	1	0	0	0.18886	0.23126	0.065938	0.15006	0.12659	0.099	0.10736	0.11734	0.14353	0.042235	0.094325	0.2011	0.243	0.23699	0.16173	0.13084	-4.375	-4.4771	-4.3354	-4.5958	-4.1813	-4.5521	-4.6167	-4.4	-4.6958	-4.3	-4.2708	-4.8667	-4.2312	-4.5896	-4.6167	-4.25	494.038	220.315	380.858	488.085	148.494	344.749	379.861	380.864	461.759	223.663	501.217	453.799	359.298	179.981	176.032	311.883	0.0010595	0.00016449	0.00010476	510.41	1.3411e-06	3.9092e-06	531.13	199.6	2.6603e-06	3.6572e-06	256.35	120	86.957	41.788	5.355e-06	62.301	0.00031829	0.00027096	7.5537e-05	495.12	3.0216e-06	3.0062e-06	513.11	192.49	3.0754e-06	2.9776e-06	248.83	115.03	83.644	40.375	2.9682e-06	60.076	500.701	239.974	224.317	162.295	300.596	272.940	160.872	165.909	303.864	251.533	164.367	167.194	168.160	172.210	291.416	169.951	-8191	255	
8347.660	1	1	0	0	0.14009	0.15635	0.14449	0.092059	0.2306	0.19022	0.19916	0.24584	0.24754	0.34698	0.14985	0.1006	0.087051	0.10102	0.14642	0.039085	-4.3417	-4.4271	-4.3646	-4.7438	-4.1771	-4.4896	-4.8313	-4.1667	-4.5563	-4.7229	-4.3667	-5.0292	-4.4708	-4.5354	-4.9062	-4.2937	204.251	359.422	364.568	200.097	239.723	491.224	250.822	167.198	499.480	486.789	331.592	158.467	195.886	461.598	431.041	475.668	0.001063	0.00041599	0.00015649	510.17	3.8738e-06	2.6249e-06	528.58	197.45	2.6871e-06	6.4513e-06	255.33	118.06	86.676	41.154	5.8581e-06	61.238	0.00031438	0.00027178	7.4795e-05	494.06	2.92e-06	2.9679e-06	511.54	191.47	3.0488e-06	2.9393e-06	246.39	113.17	82.824	39.705	2.9591e-06	58.966	503.594	263.326	214.506	162.202	297.698	376.114	160.998	165.898	270.584	258.274	164.198	167.355	168.229	172.129	260.752	169.971	-8191	255	
8347.756	1	1	0	0	0.1998	0.1102	0.14441	0.069407	0.17651	0.30343	0.12098	0.094692	0.10553	0.1988	0.10743	0.071937	0.095872	0.097379	0.097791	0.12579	-4.45	-4.6875	-4.125	-4.8792	-4.3375	-4.5375	-5.0083	-4.2104	-4.675	-4.6646	-4.1896	-4.9229	-4.4271	-4.5042	-4.9354	-4.2021	436.810	204.324	503.084	353.746	214.704	243.928	403.954	317.790	174.328	506.038	439.759	219.637	408.854	197.589	342.637	432.880	0.0010921	0.00031943	6.8627e-05	506.88	7.5138e-06	4.9854e-06	524.35	196.92	4.7729e-06	5.4227e-06	255.19	118.66	86.326	41.552	4.3158e-06	61.762	0.00031695	0.00027061	7.5816e-05	492.19	2.9027e-06	2.9341e-06	508.86	190.27	2.9616e-06	2.915e-06	246.54	113.76	82.799	39.979	2.9613e-06	59.62	506.600	211.742	162.242	162.208	248.972	303.257	160.914	165.754	246.780	240.726	164.325	167.451	168.229	172.361	294.605	169.926	-8191	255	
8347.828	1	1	0	0	0.11751	0.17168	0.11972	0.17384	0.28627	0.048905	0.078659	0.12954	0.11865	0.23166	0.13604	0.085583	0.19313	0.12626	0.17843	0.037602	-4.1979	-4.6417	-4.0125	-4.8271	-4.4563	-4.2208	-4.8896	-4.3229	-4.5979	-4.6521	-4.3854	-4.7792	-4.5729	-4.5042	-4.7562	-4.4104	209.520	442.806	303.402	409.915	378.928	243.468	399.155	195.604	240.524	211.151	377.228	362.819	436.362	424.922	414.438	431.477	0.001132	0.00016469	0.00017316	509.33	2.5626e-06	3.5815e-06	525.06	198.5	7.561e-06	5.2155e-06	259.55	120.67	87.352	42.13	5.5378e-06	62.784	0.00031311	0.00026721	7.3642e-05	493.57	2.9106e-06	2.9307e-06	511.57	191.98	2.9152e-06	2.8741e-06	249.42	115.7	84.04	40.556	2.9276e-06	60.342	500.351	275.381	255.774	162.242	277.544	258.592	161.174	165.958	275.135	296.379	164.346	167.156	168.422	172.193	272.405	169.973	-8191	255	
8347.949	1	1	0	0	0.034987	0.20763	0.10297	0.088888	0.23677	0.27411	0.17028	0.1076	0.063519	0.35225	0.31131	0.29707	0.089991	0.19344	0.25109	0.11328	-4.2188	-4.7458	-4.1937	-5.0146	-4.5396	-4.3938	-4.975	-4.4187	-4.575	-4.8688	-4.2812	-4.7729	-4.7354	-4.3042	-4.8896	-4.7271	415.289	366.644	212.420	437.002	342.041	250.309	405.489	438.843	462.650	361.285	377.453	471.769	204.472	486.192	357.420	191.417	0.0010417	0.00093998	0.00022661	513.73	4.1242e-06	2.8053e-06	532.17	200.58	3.0036e-06	4.4693e-06	261.36	121.49	88.725	42.235	8.2092e-06	62.68	0.00030695	0.00025975	7.2387e-05	497.74	2.9095e-06	2.8426e-06	516.69	193.42	2.8958e-06	2.9294e-06	252.07	116.28	84.693	40.656	2.9518e-06	60.412	499.522	231.448	271.538	162.027	241.468	286.380	160.988	165.860	309.567	314.625	164.276	167.362	168.905	172.244	278.462	169.787	-8191	255	
8348.045	1	1	0	0	0.16568	0.071902	0.11164	0.20648	0.12472	0.21683	0.10988	0.25222	0.026952	0.10606	0.18383	0.020952	0.1023	0.096629	0.14128	0.25378	-3.9854	-4.9854	-4.3396	-4.5458	-4.7625	-4.1979	-4.8729	-4.7375	-4.3125	-4.825	-4.3438	-4.7375	-4.7354	-4.275	-4.8812	-4.7562	251.039	212.866	382.437	467.690	434.034	187.429	425.010	461.821	246.904	197.914	449.933	291.248	229.280	332.561	203.089	173.138	0.0010839	0.00039399	0.00011572	515.54	5.1299e-06	3.4574e-06	532.93	200.03	1.1893e-05	4.6682e-06	258.95	120.51	88.256	42.048	3.6894e-06	63.056	0.00031079	0.00026818	7.4071e-05	499.95	2.9116e-06	2.9101e-06	516.98	193.08	3.0123e-06	2.9075e-06	250.68	115.54	84.48	40.628	2.9577e-06	60.803	501.382	155.582	242.000	162.107	253.364	291.710	160.836	165.963	251.044	296.803	164.361	167.060	168.575	172.147	295.370	169.899	-8191	255	
8348.141	1	1	0	0	0.12987	0.30899	0.13521	0.20961	0.16655	0.14259	0.26825	0.15099	0.31838	0.10629	0.19304	0.050988	0.22927	0.28354	0.098299	0.29112	-3.8521	-5.1021	-4.3583	-4.7083	-4.8812	-4.4729	-4.7271	-4.7854	-4.4313	-4.8812	-4.3583	-4.5396	-4.7646	-4.2604	-4.6417	-4.6042	204.413	280.976	288.837	203.880	284.737	214.088	387.569	450.159	449.815	158.972	397.960	152.567	422.602	492.689	428.116	425.345	0.001054	0.00042173	0.00020374	507.98	4.4766e-06	3.7158e-06	527.77	198.23	6.3235e-06	6.9633e-06	260.71	121.49	87.943	42.339	5.3587e-06	63.07	0.00030703	0.00026641	7.5082e-05	492.33	2.8763e-06	2.8654e-06	512.84	192.07	2.9517e-06	2.9071e-06	250.75	116.44	84.151	40.861	3.0433e-06	60.75	500.646	235.879	215.936	161.856	313.385	261.731	161.232	166.178	262.891	261.677	164.434	167.211	168.507	172.027	297.216	169.874	-8191	255	
8348.260	1	1	0	0	0.053205	0.057868	0.32172	0.07416	0.098924	0.088987	0.015222	0.12697	0.082283	0.11919	0.19786	0.25101	0.21645	0.18134	0.2352	0.092055	-3.9313	-4.8896	-4.3521	-4.5771	-4.8292	-4.2604	-4.7708	-4.8333	-4.0271	-4.9167	-4.5854	-4.2854	-5	-4.3354	-4.5667	-4.7312	417.984	454.803	442.086	208.748	363.374	451.008	298.449	440.095	426.541	455.244	426.905	396.490	296.501	492.893	351.406	155.778	0.0010585	0.00051351	0.00019981	507.33	2.0939e-06	5.4075e-06	525.99	197.35	9.642e-06	3.3955e-06	256.26	119.19	85.988	41.386	2.4093e-06	61.661	0.00031468	0.00026795	7.4844e-05	490.94	2.88e-06	2.9861e-06	510.05	190.63	2.9525e-06	2.9278e-06	248.27	114.07	82.992	39.964	2.9927e-06	59.53	502.237	237.826	193.371	162.076	302.181	259.368	161.053	166.040	262.469	375.036	164.565	167.051	168.317	171.915	318.231	169.906	-8191	255	
8348.356	1	1	0	0	0.14253	0.056702	0.04252	0.20398	0.034184	0.28895	0.10816	0.24498	0.1	0.026285	0.2924	0.022207	0.097735	0.031257	0.19292	0.29013	-3.9458	-4.8812	-4.1792	-4.2812	-4.9146	-4.1521	-4.7375	-4.7375	-4.2479	-4.7021	-4.5458	-4.275	-4.8875	-4.3792	-4.6396	-4.9604	452.861	451.219	396.378	361.364	210.043	160.051	322.437	465.468	239.475	409.299	447.450	195.162	397.073	505.120	340.939	406.024	0.0010974	0.0005497	0.00015572	507.98	2.2e-06	1.903e-06	528.69	198.36	5.3651e-06	7.0441e-06	257.35	120.87	87.983	41.957	5.2598e-06	62.694	0.00030969	0.00027179	7.4843e-05	493.73	2.9334e-06	2.9529e-06	512.53	191.53	2.941e-06	2.9863e-06	249.42	115.73	84.132	40.529	3.0204e-06	60.38	497.584	217.694	214.883	161.722	306.058	237.300	161.049	166.352	261.377	326.238	164.448	166.978	168.687	172.102	294.263	169.817	-8191	255	
8348.428	1	1	0	0	0.21041	0.065176	0.1821	0.20218	0.22656	0.12512	0.10888	0.046453	0.14849	0.095931	0.12609	0.015433	0.20659	0.19091	0.19824	0.27743	-3.9396	-4.9333	-4.6271	-4.4479	-4.85	-4.3708	-4.625	-4.7875	-4.2417	-4.5979	-4.7479	-4.3396	-4.6188	-4.475	-4.3604	-4.8896	212.191	193.395	150.236	219.267	271.554	148.748	307.486	382.077	210.025	467.343	487.813	183.833	151.357	402.198	348.865	414.481	0.0011534	0.00040908	9.3126e-05	510.77	3.6572e-06	5.0203e-06	533.92	198.06	7.8847e-06	5.5061e-06	260.36	120.46	87.215	41.709	7.1547e-06	62.562	0.00031264	0.00027682	7.5541e-05	493.07	2.9421e-06	2.9584e-06	514.68	191.86	2.9936e-06	3.0242e-06	250.42	115.71	83.897	40.332	3.0817e-06	60.239	502.188	273.121	248.633	162.104	291.551	289.231	161.086	165.939	277.785	217.383	164.558	167.150	168.729	172.098	247.557	170.075	-8191	255	
8348.548	1	1	0	0	0.26268	0.032237	0.066772	0.098275	0.13663	0.18851	0.13336	0.20822	0.086961	0.050901	0.088986	0.25273	0.12471	0.16447	0.074205	0.10524	-3.9542	-4.5625	-4.6583	-4.0042	-4.8375	-4.6042	-4.5292	-4.8042	-4.1917	-4.5917	-5.0083	-4.3417	-4.8063	-4.7562	-4.4125	-5.1042	490.985	359.824	437.384	404.060	351.284	476.202	305.845	478.766	230.744	409.684	160.502	467.927	451.953	149.785	353.777	429.206	0.0011409	0.00042359	0.00015235	509.03	3.398e-06	3.4755e-06	527.79	197.36	7.2263e-06	4.0264e-06	257.18	118.51	86.143	41.164	4.1287e-06	61.644	0.00031697	0.00027957	7.6372e-05	492.72	3.0446e-06	3.0233e-06	512.61	190.61	3.0301e-06	3.0457e-06	248.16	114.18	82.744	39.832	3.1043e-06	59.455	501.418	258.962	250.920	162.064	257.350	254.144	160.952	165.692	238.872	279.077	164.319	166.904	168.631	172.394	229.968	170.092	-8191	255	
8348.644	1	1	0	0	0.049434	0.15263	0.33192	0.19385	0.14858	0.13011	0.12039	0.070099	0.031266	0.20058	0.13566	0.25848	0.1211	0.16891	0.14359	0.11299	-4.075	-4.4354	-4.6667	-4.2688	-4.6646	-4.4104	-4.4563	-4.9104	-4.2042	-4.6271	-4.6083	-4.2667	-4.8063	-4.5667	-4.2875	-4.9708	203.797	166.570	163.834	451.521	461.638	150.238	173.766	491.265	393.172	329.947	331.797	456.045	363.196	168.660	180.087	446.089	0.0010516	0.00039774	0.00015655	503.61	3.9712e-06	4.5559e-06	522.91	196.36	4.1647e-06	5.2139e-06	255	118.04	85.659	41.008	6.0936e-06	61.75	0.00031912	0.00028135	7.8155e-05	488.84	3.0295e-06	3.0551e-06	507.29	189.33	3.0078e-06	3.0344e-06	246.69	113.44	82.525	39.644	3.0185e-06	59.351	499.560	232.244	223.076	161.672	233.895	286.053	160.786	166.066	283.806	263.179	164.454	167.050	168.373	172.013	260.486	169.988	-8191	255	
8348.741	1	1	0	0	0.22856	0.27895	0.08927	0.07105	0.12803	0.15108	0.27528	0.21311	0.084968	0.11125	0.010766	0.10842	0.09229	0.082809	0.057945	0.019749	-4.0958	-4.4896	-4.8917	-4.3	-4.7083	-4.6813	-4.425	-4.9729	-4.6396	-4.3333	-4.7833	-4.4062	-4.7896	-4.6188	-4.1792	-5.0062	279.171	361.519	167.204	155.462	341.068	325.476	217.430	421.168	426.132	338.399	472.051	471.361	157.879	255.204	432.564	423.919	0.0010363	0.00059177	0.00017512	500.5	2.2236e-06	2.3683e-06	524.15	195.94	9.0066e-06	4.9061e-06	256.61	120.12	86.805	41.428	6.8719e-06	61.367	0.00031074	0.00026893	7.4906e-05	487.1	2.9808e-06	2.9059e-06	507.99	189.52	2.9525e-06	2.9421e-06	247.92	114.8	83.037	39.978	2.9216e-06	59.372	505.567	248.804	241.252	162.222	253.433	298.580	161.196	165.949	303.828	297.797	164.130	167.014	168.384	171.915	280.562	169.801	-8191	255	
8348.837	1	1	0	0	0.38448	0.091295	0.21801	0.32273	0.039965	0.079569	0.14979	0.094508	0.11954	0.14493	0.20298	0.11963	0.22198	0.23835	0.14711	0.25754	-4.3063	-4.2792	-4.8542	-4.4042	-4.55	-4.6729	-4.2688	-5.0062	-4.5188	-4.3542	-4.9437	-4.3333	-4.6125	-4.7396	-4.2958	-4.8396	413.872	398.111	448.796	466.327	179.648	194.882	155.543	473.934	158.595	262.908	209.032	344.051	424.729	432.628	227.733	448.237	0.0011234	0.0002777	9.3248e-05	505.52	5.7566e-06	2.003e-06	529.39	196.14	4.4712e-06	3.7804e-06	253.95	117.73	85.484	40.893	3.958e-06	60.839	0.00031276	0.00026634	7.445e-05	489.37	2.9641e-06	2.8948e-06	511.38	189.4	2.9895e-06	2.8924e-06	245.61	113.14	82.221	39.384	3.0002e-06	58.529	502.481	248.216	225.453	161.957	278.187	284.927	161.158	165.900	251.051	360.847	164.357	167.200	168.874	172.037	294.700	169.733	-8191	255	
8348.957	1	1	0	0	0.083822	0.22132	0.23237	0.10313	0.17531	0.19217	0.20085	0.061278	0.25968	0.21779	0.15018	0.22673	0.25751	0.058503	0.25095	0.16915	-4.1312	-4.275	-4.5521	-4.2771	-4.5146	-4.75	-4.2375	-4.6708	-4.6396	-4.2667	-4.7396	-4.5375	-4.3333	-4.8875	-4.1771	-4.6438	365.670	462.017	449.488	448.870	409.926	464.877	402.911	386.747	197.787	231.370	397.875	441.312	506.610	401.029	267.034	501.830	0.0010286	0.00076271	3.2318e-05	506.43	3.5106e-06	6.8783e-06	527.03	196.45	6.7753e-06	1.4678e-06	254.35	118.33	85.967	40.909	4.5609e-06	60.966	0.00031184	0.00026775	7.4858e-05	492.62	2.9859e-06	2.9243e-06	510.5	189.69	2.9041e-06	2.9029e-06	246.86	113.25	82.522	39.43	2.988e-06	58.839	496.436	248.106	368.510	162.221	300.840	279.032	161.046	165.835	270.349	311.720	164.273	167.095	168.851	172.097	248.662	170.035	-8191	255	
8349.052	1	1	0	0	0.095628	0.096118	0.010988	0.084372	0.28087	0.056947	0.23952	0.16657	0.20387	0.087419	0.10497	0.20179	0.13978	0.1954	0.13543	0.18339	-4.3292	-4.0938	-4.625	-4.2708	-4.3458	-4.8562	-4.2104	-4.775	-4.5958	-4.2354	-4.85	-4.5333	-4.4354	-4.8208	-4.3583	-4.6792	286.096	275.742	474.602	437.023	404.498	252.403	404.574	404.945	181.354	275.033	388.721	424.826	497.683	388.892	469.709	362.840	0.0010651	0.00037874	0.00015779	507.32	4.4257e-06	3.7171e-06	528.01	196.16	6.1676e-06	3.7932e-06	255.75	117.81	86.414	41.18	6.0911e-06	61.136	0.00031574	0.00026884	7.7032e-05	490.27	2.9571e-06	2.9565e-06	510.17	189.48	3.0158e-06	2.89e-06	247.19	113.63	82.645	39.711	3.0735e-06	58.94	504.128	256.139	221.005	162.060	319.188	256.115	161.080	166.115	266.621	318.858	164.571	167.022	168.423	172.025	264.425	169.985	-8191	255	
8349.125	1	1	0	0	0.15813	0.20053	0.15574	0.063978	0.055956	0.12229	0.017041	0.10692	0.15513	0.084404	0.080607	0.14926	0.25043	0.16099	0.055675	0.0786	-4.3375	-4.1438	-4.6062	-4.3792	-4.4229	-4.8667	-4.3125	-4.5792	-4.5271	-4.0938	-4.8375	-4.5813	-4.175	-4.9437	-4.175	-4.6021	493.310	415.230	365.286	486.746	211.945	282.628	356.016	480.948	388.089	189.541	341.479	243.790	217.552	250.945	231.715	480.279	0.0010517	0.00011257	0.00013732	504.1	1.3918e-06	1.3497e-06	525.18	195.87	8.0636e-06	1.8324e-06	253	118.09	86.793	41.122	3.5984e-06	60.71	0.00031826	0.00027278	7.6205e-05	489.69	2.9635e-06	3.0487e-06	508.31	189.08	3.0185e-06	2.9332e-06	245.68	113.43	82.948	39.643	3.0098e-06	58.489	501.349	504.695	254.778	162.117	341.510	236.313	160.781	166.307	239.666	409.081	163.905	167.079	168.153	172.066	259.494	169.851	-8191	255	
8349.221	1	1	0	0	0.20594	0.10964	0.017393	0.12557	0.15403	0.20553	0.081276	0.15307	0.2446	0.13724	0.063319	0.10598	0.33011	0.057415	0.037318	0.086565	-4.3396	-3.9521	-4.6	-4.6542	-3.9833	-4.9521	-4.3146	-4.4542	-4.7875	-4.0687	-4.7312	-4.6188	-4.3417	-4.9833	-4.3313	-4.5708	306.693	436.441	245.971	464.254	392.557	385.713	243.054	339.724	227.520	478.856	281.361	490.712	309.277	183.439	360.268	332.005	0.0011253	0.00048319	0.00018494	506.73	6.5487e-06	2.1617e-06	524.36	195.66	3.777e-06	7.2242e-06	253.34	117.18	86.878	40.855	3.3289e-06	60.81	0.0003145	0.00027457	7.7782e-05	491.63	3.0248e-06	2.9908e-06	507.16	189.51	2.9908e-06	2.9933e-06	245.54	112.9	82.779	39.505	3.0597e-06	58.54	499.593	233.642	222.061	162.024	288.152	312.474	160.890	166.040	273.942	284.653	164.217	167.238	168.040	171.938	280.358	169.709	-8191	255	
8349.340	1	1	0	0	0.13093	0.051133	0.12464	0.16654	0.11697	0.28595	0.11795	0.071581	0.15621	0.14126	0.031666	0.09689	0.22552	0.13091	0.10758	0.091381	-4.5917	-4.2312	-4.5375	-4.8896	-4.0875	-4.7208	-4.4167	-4.2708	-4.7875	-4.2375	-4.6646	-4.7771	-4.1604	-4.6479	-4.5479	-4.3	397.744	288.866	300.394	157.243	309.528	390.283	336.859	507.085	253.484	173.460	415.607	491.979	410.046	471.514	154.804	205.129	0.0011065	0.00040863	0.00012435	503.59	4.4823e-06	4.1958e-06	524.99	195.91	4.0544e-06	6.4095e-06	254.57	118.69	86.065	41.34	5.6047e-06	61.307	0.00031221	0.00026691	7.7613e-05	490.09	3.007e-06	3.0132e-06	507.86	189.55	2.9886e-06	3.0457e-06	246.25	113.75	82.903	39.921	3.0523e-06	59.151	501.044	186.994	244.494	162.013	236.391	246.724	160.624	165.956	277.288	255.203	164.575	167.088	168.658	172.190	249.099	169.767	-8191	255	
8349.436	1	1	0	0	0.18407	0.19879	0.069355	0.26952	0.064196	0.024456	0.13935	0.030367	0.18697	0.077948	0.090476	0.12537	0.30539	0.10278	0.27006	0.22443	-4.5542	-4.2083	-4.5312	-4.7	-4.2083	-4.6188	-4.8021	-4.45	-4.5938	-4.4979	-4.5563	-4.9104	-4.1229	-4.7771	-4.6042	-4.3	490.514	171.641	493.177	470.478	210.708	267.831	433.588	504.846	296.265	418.045	484.050	356.963	426.774	399.421	505.925	158.160	0.0010685	0.00038573	0.00011953	505.62	3.6867e-06	4.1748e-06	524.39	195.89	6.3145e-06	4.9716e-06	256.83	119.46	86.693	41.604	6.9847e-06	61.844	0.00031979	0.0002769	7.8543e-05	490.42	3.0166e-06	3.1e-06	509.4	189.8	3.113e-06	3.0782e-06	247.99	114.28	83.426	40.054	3.1191e-06	59.765	500.438	276.305	273.323	161.966	304.898	276.569	161.351	166.255	264.246	307.073	164.053	166.942	168.452	171.935	300.900	169.983	-8191	255	
8349.533	1	1	0	0	0.046847	0.069327	0.12929	0.19615	0.12383	0.0474	0.096047	0.060227	0.13088	0.077954	0.12832	0.041468	0.05493	0.098281	0.29596	0.16443	-4.6417	-4.4812	-4.3729	-4.8125	-4.3125	-4.7167	-4.625	-4.2021	-4.8417	-4.2208	-4.5667	-4.8854	-4.1167	-4.7229	-4.5563	-4.2854	415.026	228.979	174.272	189.236	468.871	393.769	500.879	394.270	380.991	243.907	439.714	459.330	407.785	393.610	232.895	414.514	0.0010571	0.00063527	0.00028558	506.34	1.648e-06	6.2251e-06	526.68	198.12	5.5571e-06	1.7348e-06	259.44	120.54	87.738	41.814	7.3138e-06	62.327	0.00032088	0.00028135	7.7744e-05	492.09	3.0394e-06	3.1417e-06	512.72	191.79	3.0261e-06	3.0744e-06	250.32	115.71	84.169	40.452	3.015e-06	60.163	499.510	239.460	254.876	161.909	319.675	302.043	161.304	166.008	247.024	251.991	164.335	167.015	168.511	171.898	257.375	170.030	-8191	255	
8349.629	1	1	0	0	0.10349	0.16371	0.065106	0.022292	0.078584	0.25969	0.049597	0.20273	0.17585	0.13706	0.2677	0.1658	0.22015	0.1922	0.16056	0.1055	-4.3917	-4.3375	-4.2375	-4.7271	-4.35	-4.6062	-4.6521	-4.1979	-4.5271	-4.6562	-4.4833	-4.6604	-4.2292	-4.7333	-4.6	-4.3063	229.283	384.227	365.121	249.054	258.443	439.025	345.372	466.374	245.338	352.424	462.769	361.223	424.428	468.500	386.370	244.965	0.0010209	0.00088401	0.00015125	508.69	3.3754e-06	5.2497e-06	526.67	197.25	4.298e-06	5.1135e-06	256.94	120.67	87.505	41.863	1.513e-06	61.903	0.00031937	0.00028061	7.7207e-05	492.1	3.0223e-06	3.0728e-06	510.1	191.27	3.0785e-06	3.0583e-06	249.22	115.62	83.978	40.459	3.0224e-06	59.756	499.164	222.214	259.421	162.051	361.707	294.404	160.764	165.855	228.592	325.394	164.511	167.220	168.285	171.796	308.967	169.768	-8191	255	
8349.725	1	1	0	0	0.18174	0.11297	0.04418	0.10977	0.23561	0.046266	0.11137	0.038039	0.14347	0.1244	0.11135	0.17658	0.2391	0.23488	0.20723	0.12243	-4.2354	-4.6	-4.3729	-4.8333	-4.2354	-4.5021	-4.9437	-3.9583	-4.6854	-4.6375	-4.1542	-4.8729	-4.4563	-4.3979	-4.7229	-4.4271	436.501	384.616	503.326	317.998	182.711	490.027	475.151	430.732	395.461	396.083	206.117	413.070	200.946	221.240	271.468	370.335	0.001011	0.00046664	0.00015785	502.79	1.8032e-06	3.9027e-06	521.87	196.89	3.2575e-06	4.8484e-07	256.39	119.78	86.953	41.824	5.364e-06	62.575	0.00031777	0.00027594	7.5567e-05	487.43	3.0406e-06	2.9787e-06	507.73	189.78	3.0449e-06	2.9872e-06	248.12	115.29	83.423	40.403	3.0473e-06	60.162	496.743	197.567	225.379	162.029	252.835	345.907	161.320	165.860	311.862	414.859	164.362	166.895	168.446	171.950	253.697	169.648	-8191	255	
8349.821	1	1	0	0	0.17782	0.19006	0.19218	0.16388	0.22996	0.1331	0.11154	0.14782	0.09277	0.19031	0.16274	0.083079	0.21818	0.22528	0.1332	0.15693	-4.2646	-4.4979	-4.0875	-4.8812	-4.3292	-4.2542	-4.8479	-4.2688	-4.6083	-4.7771	-4.2646	-4.8396	-4.4938	-4.3542	-4.95	-4.4521	347.935	404.176	446.789	427.392	391.973	344.241	313.030	438.462	327.499	388.448	194.859	157.266	346.392	472.021	190.247	453.966	0.0010709	0.000386	5.3676e-05	500.66	6.7977e-06	1.932e-06	524.57	196.45	8.1166e-06	5.7459e-06	258.48	120.65	87.328	41.969	3.4686e-06	63.019	0.00032192	0.00027256	7.6233e-05	484.52	2.9877e-06	2.9993e-06	509.87	189.88	3.0625e-06	2.9777e-06	249.27	115.63	83.814	40.476	3.0155e-06	60.76	503.720	231.859	341.224	162.084	248.912	321.071	160.927	165.902	279.907	296.552	164.340	166.860	167.997	171.699	272.896	169.722	-8191	255	
8349.942	1	1	0	0	0.048303	0.22672	0.24952	0.14354	0.14691	0.029635	0.11139	0.17277	0.038839	0.16442	0.022077	0.14758	0.28264	0.13446	0.15482	0.15533	-4.0437	-4.7958	-4.1188	-4.8833	-4.4667	-4.2125	-5.0083	-4.4042	-4.2833	-4.6833	-4.1438	-4.7063	-4.65	-4.2042	-4.9375	-4.4	186.467	421.524	326.647	227.081	331.898	221.471	199.610	205.702	251.980	453.661	346.872	361.654	486.407	419.604	448.351	439.400	0.0010644	0.00058712	0.00016388	497.42	4.6009e-06	1.572e-06	529.61	197.48	8.7523e-06	2.2853e-06	260.63	122.28	87.645	42.165	4.5725e-06	63.166	0.00031472	0.00027126	7.5165e-05	484.79	3.057e-06	2.9942e-06	512.34	190.63	3.0374e-06	2.9274e-06	252.3	117.16	84.037	40.693	3.0685e-06	60.715	499.095	195.358	251.566	161.866	284.423	286.822	161.020	166.133	283.415	244.203	164.782	167.071	168.387	171.871	258.552	169.806	-8191	255	
8350.038	1	1	0	0	0.013246	0.04038	0.14896	0.11818	0.2529	0.29648	0.18457	0.30563	0.22187	0.098666	0.056639	0.0085567	0.18162	0.18833	0.13015	0.1138	-4.0729	-4.9021	-4.0437	-4.6729	-4.5354	-4.0813	-4.8313	-4.3958	-4.2875	-4.6854	-4.4938	-4.9042	-4.6167	-4.225	-4.7417	-4.6167	247.330	165.571	390.630	492.681	320.615	161.123	430.124	498.031	401.766	461.054	304.016	211.866	238.514	415.779	237.990	410.845	0.0010411	0.00047389	0.00016164	504.68	2.7204e-06	2.2673e-06	529.61	197.81	5.1976e-06	4.4665e-06	258.41	119.81	87.074	41.444	3.8961e-06	62.095	0.00031756	0.00027022	7.5485e-05	489.39	2.9793e-06	2.9678e-06	514.16	191.3	2.9727e-06	2.9189e-06	250.09	115.02	83.179	39.99	2.9842e-06	59.982	501.182	234.177	227.760	161.953	223.834	191.023	161.119	165.846	236.567	288.805	164.069	166.920	168.353	172.139	303.325	169.995	-8191	255	
8350.132	1	1	0	0	0.063844	0.065441	0.0026275	0.054744	0.063402	0.14358	0.19776	0.17454	0.017105	0.088233	0.19437	0.12237	0.11672	0.11909	0.16226	0.063855	-4.0687	-4.7292	-4.2625	-4.6417	-4.7688	-4	-4.9396	-4.5625	-4.3187	-4.6854	-4.4458	-4.3792	-4.5604	-4.2375	-4.6438	-4.5938	350.876	192.775	350.964	466.045	397.186	210.899	481.056	490.988	286.887	192.681	500.609	448.004	430.533	307.741	200.576	375.317	0.0010536	0.0006456	5.2615e-05	509.2	7.56e-06	2.3492e-06	528.37	197.59	6.9296e-06	4.789e-06	257.89	120.03	87.168	41.834	3.2997e-06	62.276	0.00030455	0.00026419	7.3786e-05	491.45	2.9076e-06	2.8832e-06	512.28	191.15	2.9336e-06	2.9002e-06	249.36	115.36	83.273	40.312	3.0003e-06	60.192	502.934	252.867	290.077	162.319	314.616	315.780	160.713	166.140	256.611	298.864	164.274	167.199	168.336	172.139	243.729	169.987	-8191	255	
8350.230	1	1	0	0	0.28902	0.13431	0.083257	0.17747	0.12258	0.16967	0.055886	0.23081	0.10075	0.10988	0.0512	0.14229	0.17819	0.29844	0.014923	0.10628	-4.0896	-4.8021	-4.2958	-4.6021	-4.775	-4.0167	-4.9208	-4.7479	-4.1	-4.8313	-4.4437	-4.4042	-4.7083	-4.2417	-4.7188	-4.5813	498.953	374.848	210.132	296.419	196.960	288.980	399.163	464.667	201.209	148.348	360.273	501.648	428.827	209.448	204.342	214.079	0.0011459	0.00023682	8.3976e-05	504.39	5.176e-06	3.3482e-06	524.7	196.47	1.1353e-05	3.8167e-06	259.46	121.03	86.497	41.685	6.7083e-06	62.305	0.00031262	0.00026989	7.3222e-05	488.54	2.9078e-06	2.9365e-06	509.75	190.54	2.9558e-06	2.9377e-06	250.02	115.57	83.342	40.297	3.0011e-06	60.149	503.118	215.434	262.301	161.991	259.264	295.537	161.095	166.119	276.908	255.653	164.363	167.091	168.098	172.106	290.361	169.785	-8191	255	
8350.349	1	1	0	0	0.1462	0.062882	0.20165	0.21291	0.099578	0.14605	0.28403	0.12215	0.1628	0.10557	0.15743	0.15665	0.19542	0.17936	0.17734	0.19203	-3.875	-4.8063	-4.2083	-4.3583	-4.9354	-4.1625	-4.5271	-4.7417	-4.3771	-4.6687	-4.3604	-4.4146	-4.8208	-4.0854	-4.6917	-4.8667	376.645	505.636	294.208	149.459	209.128	381.104	471.136	310.007	212.458	295.356	436.033	461.334	427.789	441.642	431.877	477.372	0.0010784	0.00056351	5.9154e-05	501.05	3.6527e-06	4.2328e-07	528.96	197.28	5.1948e-06	7.039e-06	257.58	121.27	86.917	41.672	5.272e-06	62.87	0.00031537	0.00026755	7.4784e-05	487.59	2.9353e-06	2.9116e-06	511.71	190.26	2.9513e-06	2.9427e-06	250.01	115.8	83.566	40.359	3.0199e-06	60.299	501.328	250.777	222.492	161.998	318.023	266.217	161.052	166.087	267.280	276.982	164.250	166.963	168.441	172.211	268.149	169.727	-8191	255	
8350.421	1	1	0	0	0.1598	0.036838	0.13059	0.049607	0.053957	0.12385	0.11025	0.19094	0.054945	0.1961	0.10603	0.36777	0.18074	0.066636	0.14355	0.016623	-3.65	-4.7271	-4.3729	-4.0687	-4.9417	-4.4167	-4.4563	-4.8333	-4.275	-4.6042	-4.65	-4.3333	-4.7604	-4.3583	-4.5021	-4.8	288.401	214.906	494.359	337.742	189.627	235.223	215.739	420.342	214.187	499.906	372.956	490.300	429.695	402.989	483.457	166.737	0.0011088	0.00018936	3.736e-05	508.09	3.7568e-06	5.9099e-06	530.63	198.47	5.5251e-06	6.081e-06	258.73	121.3	87.891	42.19	7.8601e-06	63.187	0.00031407	0.00028103	7.5297e-05	492.43	2.9207e-06	3.0082e-06	515.86	192.35	2.9932e-06	2.9503e-06	252.11	116.57	84.335	40.776	3.0146e-06	61.041	498.876	285.193	285.752	161.865	287.413	305.012	161.037	165.754	294.788	204.548	164.247	167.173	168.211	172.121	257.437	169.766	-8191	255	
8350.517	1	1	0	0	0.20745	0.070747	0.098533	0.14332	0.30494	0.079102	0.16844	0.14269	0.119	0.22365	0.19456	0.14918	0.12414	0.10922	0.095024	0.16098	-3.8042	-4.75	-4.5667	-4.075	-4.5521	-4.2729	-4.4875	-4.8583	-4.1479	-4.6479	-4.7375	-4.1312	-4.9292	-4.4042	-4.2667	-4.8083	333.587	437.976	315.708	150.991	203.220	244.207	462.696	382.214	313.905	211.762	179.340	436.055	423.502	301.437	263.908	452.448	0.0011124	0.00067861	0.00013324	506.98	6.0173e-06	3.6192e-06	536.79	199.48	5.1413e-06	2.8179e-06	262.49	122.04	88.558	42.346	6.9794e-06	63.242	0.00031087	0.00027727	7.4826e-05	492.67	2.9492e-06	3.015e-06	520.56	193.34	3.0086e-06	2.9832e-06	254.14	117.36	84.665	40.902	2.9934e-06	60.95	497.155	257.639	277.663	162.182	240.223	298.114	160.919	165.842	306.513	214.530	164.239	167.360	168.422	172.134	293.876	169.852	-8191	255	
8350.613	1	1	0	0	0.38395	0.12044	0.063593	0.18073	0.08261	0.075967	0.23696	0.051684	0.20059	0.14151	0.14327	0.31559	0.13076	0.085654	0.077071	0.17794	-3.8729	-4.6646	-4.5417	-4.2167	-4.8125	-4.2937	-4.4917	-5.0042	-4.1208	-4.3542	-4.7042	-4.2333	-4.5708	-4.6896	-4.2479	-4.8083	501.094	227.456	414.829	403.821	235.180	298.765	451.399	243.000	404.179	374.733	154.994	440.092	155.494	361.356	202.155	474.044	0.0010427	0.00043709	9.4917e-05	509.45	3.9304e-06	3.3869e-06	530.68	199.43	2.9288e-06	6.6118e-06	260.31	120.95	87.218	41.679	4.9862e-06	62.389	0.00031372	0.00027114	7.5067e-05	493.41	2.9532e-06	2.9774e-06	515.74	192.62	2.9475e-06	2.9142e-06	250.88	115.56	83.511	40.288	2.9259e-06	60.12	498.842	229.610	279.947	161.879	241.212	281.326	160.935	166.242	183.454	233.752	164.731	167.191	168.501	171.851	252.155	169.947	-8191	255	
8350.734	1	1	0	0	0.11266	0.18462	0.10338	0.037616	0.16185	0.16239	0.17459	0.10068	0.12433	0.081942	0.12669	0.23082	0.032134	0.074285	0.060697	0.11645	-3.9708	-4.3958	-4.6979	-4.1729	-4.6646	-4.5	-4.2812	-4.8583	-4.3	-4.5542	-4.6792	-4.2	-4.7042	-4.5021	-4.225	-4.9979	206.450	278.646	496.745	253.642	451.083	477.699	205.086	296.964	198.713	365.918	164.708	462.178	217.023	376.569	496.861	457.114	0.0010817	0.00040757	0.00016276	506.36	5.5295e-06	3.1331e-06	531.07	197.44	3.8687e-06	2.6567e-06	260.23	120.55	87.257	41.688	4.2774e-06	62.398	0.00031255	0.00027112	7.3743e-05	490.35	2.9738e-06	2.9434e-06	514.41	190.96	2.9472e-06	2.9682e-06	250.01	115.42	83.72	40.291	2.9742e-06	60.068	501.938	217.371	250.388	162.032	309.769	167.200	161.125	165.635	251.244	219.095	164.263	167.099	168.255	171.973	278.146	169.605	-8191	255	
8350.830	1	1	0	0	0.17713	0.20526	0.25622	0.20309	0.16254	0.093976	0.22437	0.15902	0.12534	0.051	0.0080962	0.17386	0.10587	0.31071	0.2207	0.078521	-3.95	-4.2833	-4.9125	-4.0813	-4.6646	-4.7042	-4.2146	-4.9458	-4.3396	-4.2771	-4.8938	-4.3354	-4.675	-4.7292	-4.0938	-4.9021	500.859	472.896	457.598	507.740	314.253	419.058	415.659	344.777	245.544	388.261	239.149	205.805	191.962	425.184	308.198	211.105	0.00099723	0.00066357	1.9353e-05	505.78	3.5626e-06	6.0227e-06	528.78	197.73	6.1092e-06	3.724e-07	259.69	120.26	87.451	41.756	9.2105e-06	62.499	0.00032021	0.00027416	7.3391e-05	489.66	2.9643e-06	2.914e-06	514.1	191.31	2.9605e-06	2.9744e-06	251.1	115.65	83.626	40.381	2.9689e-06	60.516	500.832	243.094	436.718	161.865	288.981	300.392	161.318	166.072	277.346	440.786	164.470	167.014	168.449	171.951	240.409	169.953	-8191	255	
8350.926	1	1	0	0	0.19896	0.19059	0.042924	0.045345	0.058102	0.086762	0.10003	0.25506	0.074651	0.088129	0.16806	0.30486	0.12893	0.38862	0.042348	0.065832	-4.1333	-4.2917	-4.7667	-4.3104	-4.675	-4.7875	-4.1583	-4.7042	-4.5375	-4.2646	-4.7167	-4.3417	-4.5938	-4.7396	-4.1562	-4.8	309.864	165.998	246.052	440.074	478.602	459.047	375.717	461.443	401.631	262.014	274.169	486.701	439.518	202.962	360.369	329.068	0.0010893	0.00062212	0.00014057	503.64	6.3294e-06	2.6656e-06	533.92	197.83	4.5661e-06	5.3267e-06	260.53	120.82	87.961	41.955	3.992e-06	63.014	0.00031087	0.00026585	7.4048e-05	489.48	2.9582e-06	2.902e-06	517.78	192.07	2.8971e-06	2.9185e-06	252.64	116.24	84.144	40.505	2.8791e-06	60.804	501.148	217.856	255.110	162.037	243.832	300.337	160.892	166.044	233.541	263.313	164.663	167.298	168.437	172.381	251.873	169.773	-8191	255	
8351.022	1	1	0	0	0.1932	0.14085	0.21602	0.23864	0.28358	0.019534	0.18131	0.11616	0.11285	0.16125	0.23374	0.20305	0.13627	0.24323	0.085619	0.15848	-4.0833	-4.1771	-4.8812	-4.2083	-4.4812	-4.775	-4.3438	-4.5292	-4.6271	-4.2708	-4.8792	-4.6271	-4.5125	-4.7771	-4.1354	-4.6438	191.567	301.387	416.821	485.261	298.747	173.164	466.480	350.589	421.171	434.451	282.823	150.536	462.538	463.124	311.376	440.383	0.0010529	0.00060247	0.00019222	513.09	4.509e-06	3.0527e-06	541.66	201.06	5.553e-06	3.3298e-06	264.54	122.75	88.438	42.585	2.5919e-06	64.503	0.0003116	0.00026878	7.4622e-05	496.44	2.8857e-06	2.9104e-06	521.65	194.46	2.9336e-06	2.9135e-06	255.2	117.79	84.889	41.128	2.8968e-06	62.046	500.296	216.450	246.502	161.946	264.101	221.483	161.074	165.844	265.944	309.053	164.161	167.021	168.050	172.305	237.885	169.876	-8191	255	
8351.116	1	1	0	0	0.24274	0.048777	0.1333	0.16973	0.097991	0.16686	0.17394	0.23469	0.084769	0.12402	0.17258	0.15775	0.097591	0.33715	0.092808	0.11484	-4.3354	-4.1479	-4.7854	-4.5875	-4.2958	-4.6875	-4.3063	-4.6833	-4.7063	-3.9833	-4.8708	-4.6083	-4.2312	-4.9083	-4.3979	-4.7458	169.757	172.713	425.864	158.406	225.369	445.164	350.903	474.180	452.203	476.874	253.025	428.595	167.087	152.418	173.468	394.101	0.001149	0.00041542	0.00014295	507.29	6.6998e-06	3.4055e-06	539.7	199.78	6.0676e-06	3.3859e-06	262.67	123.6	89.036	42.795	4.6004e-06	63.857	0.00031391	0.00026337	7.495e-05	492.99	2.8914e-06	2.8894e-06	520.51	193.34	2.8744e-06	2.8172e-06	254.78	118.18	85.127	41.188	2.8713e-06	61.519	502.965	223.614	235.199	162.027	279.573	289.089	161.049	165.960	277.057	229.905	164.707	167.004	168.498	172.413	276.464	169.673	-8191	255	
8351.213	1	1	0	0	0.038146	0.13766	0.29009	0.18461	0.15175	0.147	0.021887	0.25586	0.17345	0.18882	0.023256	0.066697	0.076144	0.20443	0.17375	0.093559	-4.2833	-3.9896	-4.8042	-4.6312	-4.2417	-4.5771	-4.4167	-4.6167	-4.7125	-4.1771	-4.7125	-4.6292	-4.1104	-5.0188	-4.175	-4.4021	444.671	359.143	416.546	442.148	148.772	355.174	199.322	440.903	175.671	479.099	186.443	497.554	150.359	464.233	317.126	230.255	0.001133	0.00051898	9.9054e-05	507.81	4.538e-06	5.9798e-06	535.65	200.7	7.8143e-06	4.7241e-06	263.05	121.93	88.034	42.095	5.7018e-06	63.695	0.00030325	0.00026634	7.3392e-05	492.42	2.8371e-06	2.8511e-06	518.58	193.54	2.8245e-06	2.8109e-06	253.39	117.09	84.443	40.821	2.865e-06	61.236	501.278	260.473	300.282	161.948	282.339	299.519	161.113	166.181	282.657	287.318	164.314	167.264	168.648	172.149	253.091	169.833	-8191	255	
8351.310	1	1	0	0	0.14104	0.084727	0.16128	0.076482	0.14362	0.15125	0.10292	0.20647	0.13773	0.15509	0.12807	0.31635	0.20212	0.18206	0.26692	0.073395	-4.3854	-3.9354	-4.8042	-4.6979	-4.0938	-4.8021	-4.3583	-4.4208	-4.8146	-4.1542	-4.7104	-4.6062	-4.0188	-5.0167	-4.3854	-4.3	284.825	412.137	186.231	453.638	212.960	247.774	288.298	389.613	491.352	357.757	222.191	444.531	483.449	368.867	163.968	170.352	0.001169	0.00029534	0.00012331	506.19	2.0074e-06	4.9968e-06	534.71	200.25	3.6773e-06	4.8646e-06	263.03	122.65	88.049	42.285	3.1914e-06	63.665	0.00030119	0.00026043	7.2538e-05	491.48	2.7916e-06	2.8329e-06	518.49	192.88	2.8722e-06	2.8523e-06	254.09	117.45	84.462	40.796	2.8776e-06	61.398	499.252	206.991	224.678	161.800	277.535	295.876	161.036	165.877	234.530	311.351	164.445	167.059	168.695	172.388	353.849	169.970	-8191	255	
8351.429	1	1	0	0	0.22987	0.081695	0.20901	0.19167	0.11069	0.13541	0.092567	0.16831	0.025694	0.11759	0.03143	0.029179	0.094991	0.15392	0.088545	0.076091	-4.725	-4.2896	-4.6438	-4.6979	-4	-4.9146	-4.3979	-4.4896	-4.8313	-4.2604	-4.6687	-4.8521	-4.1521	-4.8812	-4.3562	-4.3083	181.192	233.288	355.980	483.800	462.721	481.489	379.102	196.107	392.862	451.507	349.596	411.721	272.923	168.306	336.082	480.515	0.0011592	0.00047927	0.00024282	509.24	3.542e-06	2.1689e-06	538.04	200.74	5.348e-06	5.0233e-06	265.27	122.45	88.683	42.225	7.796e-06	64.002	0.00031004	0.00025822	7.4337e-05	492.27	2.866e-06	2.8873e-06	521.18	193.67	2.8333e-06	2.854e-06	255.06	117.41	84.611	40.805	2.9362e-06	61.452	501.920	248.656	238.591	161.958	299.461	282.858	161.124	165.933	260.803	324.371	164.503	167.131	168.567	172.124	243.502	169.952	-8191	255	
8351.525	1	1	0	0	0.25705	0.15367	0.13349	0.055824	0.081371	0.085758	0.26195	0.30893	0.17516	0.17229	0.10117	0.054408	0.078091	0.094546	0.23137	0.22884	-4.6208	-4.3146	-4.4062	-4.8458	-4.0583	-4.5604	-4.5833	-4.4833	-4.6958	-4.3708	-4.4667	-4.8313	-4.3146	-4.7271	-4.525	-4.3292	294.213	182.930	427.543	263.946	488.766	219.079	443.876	353.234	497.576	395.243	391.084	373.863	423.859	359.012	335.299	186.604	0.0010479	0.00016816	0.00013549	507.86	2.7779e-06	2.4347e-06	540.94	201.34	6.8663e-06	4.8448e-06	262.31	122.07	87.592	41.851	6.4509e-06	62.517	0.00031009	0.00026504	7.4489e-05	493.48	2.9123e-06	2.9228e-06	522.87	194.01	2.8706e-06	2.828e-06	254.24	116.93	84.246	40.424	2.8906e-06	60.21	502.173	234.002	220.595	162.171	228.538	297.367	161.192	165.727	255.764	286.182	164.514	167.029	168.690	172.353	238.507	169.910	-8191	255	
8351.622	1	1	0	0	0.21633	0.12421	0.24911	0.096265	0.12653	0.27246	0.27545	0.23561	0.20846	0.16535	0.16546	0.37656	0.20603	0.42174	0.057475	0.25469	-4.4729	-4.1917	-4.525	-4.5792	-4.2646	-4.5542	-4.6062	-4.05	-4.7312	-4.3792	-4.3146	-5.0958	-4.4396	-4.5458	-4.65	-4.3667	346.490	498.760	212.501	421.093	330.650	217.766	150.964	490.352	259.936	218.459	382.338	438.138	477.092	489.994	453.487	493.451	0.0011292	0.00028723	8.0182e-05	513.4	2.3807e-06	6.6492e-06	535.12	199.66	8.417e-06	4.2082e-06	258.84	119.71	87.358	41.431	4.4068e-06	61.987	0.00031115	0.0002622	7.203e-05	497.25	2.8579e-06	2.9171e-06	518.51	192.56	2.9409e-06	2.8651e-06	250.33	114.82	83.285	39.978	2.9027e-06	59.825	500.747	229.897	264.382	162.037	254.059	310.496	160.895	165.902	263.806	303.329	164.136	167.045	168.292	172.170	269.889	170.204	-8191	255	
8351.718	1	1	0	0	0.094709	0.11438	0.051248	0.25166	0.1215	0.074257	0.24792	0.25867	0.12299	0.28101	0.25199	0.15019	0.082995	0.10616	0.10598	0.093172	-4.4333	-4.4146	-4.0833	-4.9854	-4.2833	-4.4187	-4.8396	-4.2271	-4.4896	-4.5896	-4.4521	-4.7979	-4.1583	-4.7	-4.7875	-4.4229	254.958	316.310	418.942	436.213	219.969	369.262	411.729	483.337	253.950	168.550	398.266	452.564	312.421	216.278	507.545	263.460	0.0010046	0.00029707	0.00015656	509.09	4.566e-06	2.0261e-06	529.02	198.53	6.5228e-06	2.3841e-06	257.7	118.22	86.569	40.954	9.1507e-06	60.617	0.00030433	0.00026494	7.3415e-05	492.37	2.8876e-06	2.9268e-06	514.38	191.28	2.9093e-06	2.8783e-06	248.71	113.73	82.831	39.583	2.9e-06	58.671	498.981	224.914	236.730	162.167	271.219	299.926	160.744	166.233	270.806	290.406	164.418	167.221	168.363	172.206	282.099	169.975	-8191	255	
8351.814	1	1	0	0	0.088087	0.11932	0.038958	0.091463	0.074752	0.17391	0.20143	0.05732	0.077538	0.10105	0.20589	0.054171	0.22004	0.039775	0.30012	0.13312	-4.4375	-4.7521	-4.1937	-4.8833	-4.3292	-4.2375	-4.6646	-4.3083	-4.8667	-4.6104	-4.2146	-4.9292	-4.4563	-4.4708	-4.6708	-4.325	249.681	277.146	298.092	151.559	502.220	276.020	168.709	380.142	438.098	265.279	504.958	217.497	416.413	222.703	196.188	388.924	0.00096973	0.00034712	0.00014509	511.38	6.4843e-06	1.3825e-06	527.51	197.16	5.2724e-06	5.9711e-06	254.53	116.93	85.028	40.038	3.5199e-06	59.974	0.00030656	0.0002626	7.3954e-05	495.04	2.8887e-06	2.8912e-06	513.32	190.82	2.9511e-06	2.8739e-06	246.99	111.84	81.667	38.762	2.9494e-06	57.693	499.749	495.233	221.780	161.936	268.510	295.880	161.136	165.840	282.283	297.214	164.495	166.970	168.534	172.506	303.009	170.207	-8191	255	
8351.910	1	1	0	0	0.12321	0.091527	0.34498	0.045897	0.12682	0.10904	0.13703	0.12081	0.21021	0.076886	0.2505	0.11646	0.048228	0.12021	0.14479	0.11886	-4.2167	-4.5625	-4.0354	-4.8688	-4.3542	-4.1396	-4.9604	-4.4563	-4.2812	-4.7979	-4.5062	-4.6292	-4.4729	-4.4958	-5.0479	-4.2146	220.975	381.254	270.131	377.187	377.051	184.018	449.839	432.649	386.728	207.805	441.734	364.010	246.507	488.488	450.318	383.368	0.00096815	0.00026193	0.00011048	513.34	4.5906e-06	1.6017e-06	533.45	196.91	4.8973e-06	5.7584e-06	255.2	115.55	85.502	39.811	6.9461e-06	59.003	0.00030201	0.00026486	7.2197e-05	497.92	2.8751e-06	2.8624e-06	515.7	191.04	2.9511e-06	2.9769e-06	246.7	111.34	81.798	38.506	2.9428e-06	56.958	505.895	201.310	248.572	162.122	246.443	351.300	161.121	166.083	258.449	317.658	164.457	167.039	168.532	172.475	281.254	169.921	-8191	255	
8352.031	1	1	0	0	0.13566	0.12391	0.08795	0.10071	0.17974	0.1992	0.24811	0.37107	0.09526	0.20634	0.017774	0.097475	0.23285	0.16823	0.051515	0.22243	-4.3313	-4.6167	-4.1271	-4.6271	-4.4083	-4.225	-4.9521	-4.3354	-4.5062	-4.7583	-4.2542	-4.7167	-4.5583	-4.2229	-4.9	-4.4021	440.354	479.409	407.007	376.025	433.597	418.438	428.279	434.111	362.823	295.526	286.276	471.941	491.752	171.135	380.133	394.137	0.0010314	0.00030913	6.9837e-05	515.32	5.683e-06	5.4407e-06	532.15	196.84	5.7781e-06	1.3998e-06	251.78	115.44	83.953	39.242	6.4125e-06	58.526	0.00030991	0.0002664	7.3869e-05	499.11	2.938e-06	2.9255e-06	514.94	190.51	2.9689e-06	2.9311e-06	244.79	110.66	80.939	38.15	3.0406e-06	56.499	500.120	242.549	290.389	162.236	249.361	285.161	160.913	165.855	286.487	399.892	164.378	167.342	168.579	172.356	285.154	170.158	-8191	255	
8352.125	1	1	0	0	0.15119	0.062204	0.10227	0.40732	0.28631	0.19338	0.28146	0.28032	0.16395	0.199	0.28542	0.20823	0.18106	0.14965	0.16503	0.058869	-4.2562	-4.6917	-4.1021	-4.7625	-4.4292	-4.275	-4.9875	-4.425	-4.3104	-4.75	-4.3875	-4.7958	-4.6083	-4.3104	-5.0125	-4.5312	260.867	181.818	375.642	459.940	184.062	494.283	428.889	418.274	238.365	386.006	491.087	455.755	431.738	501.219	158.665	173.765	0.0010616	0.00034004	0.00010453	511.68	4.7444e-06	4.1247e-06	527.22	195.29	5.2564e-06	1.7594e-06	249.7	113.58	83.814	39.066	9.0113e-06	57.54	0.00031755	0.00027382	7.5692e-05	495.92	2.9475e-06	2.978e-06	509.52	188.61	3.03e-06	2.9933e-06	241.65	109.12	80.351	37.775	3.0804e-06	55.673	503.833	246.825	235.378	162.224	292.397	324.264	161.256	165.985	249.020	459.950	164.416	167.172	168.237	172.172	268.654	169.967	-8191	255	
8352.221	1	1	0	0	0.15097	0.094086	0.1218	0.11717	0.091298	0.087791	0.11776	0.32721	0.089105	0.08545	0.10406	0.17297	0.0055714	0.15201	0.16863	0.08821	-4.0021	-4.7958	-4.1292	-4.5333	-4.8562	-4.1896	-4.6562	-4.725	-4.1771	-4.9062	-4.1979	-4.6229	-4.7625	-4.2229	-4.5271	-4.5333	482.371	311.458	468.810	151.749	159.243	479.683	456.810	179.838	430.352	398.933	436.104	393.056	176.708	187.570	350.107	458.861	0.0009956	0.00023536	0.00017851	510.23	1.818e-06	1.442e-06	520.42	194.25	5.8349e-06	4.1031e-06	249.5	113.67	83.689	39.226	7.1861e-06	58.526	0.00031812	0.00028134	7.7828e-05	494.71	3.0614e-06	2.9969e-06	506.2	187.75	2.9941e-06	2.9911e-06	240.86	108.87	80.251	38.029	3.0442e-06	56.519	500.943	248.672	214.271	162.124	274.147	319.709	161.229	166.062	270.763	341.196	164.524	167.128	168.624	172.458	296.036	170.315	-8191	255	
8352.293	1	1	0	0	0.16303	0.39526	0.083958	0.031685	0.043053	0.11536	0.067537	0.3158	0.037737	0.029287	0.14748	0.16851	0.36197	0.15536	0.12317	0.10296	-3.95	-4.8812	-4.0938	-4.5208	-4.5042	-4.2583	-4.5333	-4.6167	-4.3042	-4.8375	-4.3063	-4.4479	-4.7042	-4.2729	-4.6708	-4.6229	432.412	342.607	369.541	241.254	215.018	184.223	471.639	149.983	293.571	419.883	350.599	355.374	297.738	221.485	323.112	417.919	0.0010842	0.0007448	3.0112e-05	507.51	7.512e-06	3.3152e-06	525.29	195.3	1.0108e-05	7.7101e-06	250.92	114.12	83.971	39.574	2.4809e-06	58.203	0.00031031	0.000278	7.6059e-05	493.67	2.9333e-06	2.945e-06	509.73	188.74	2.9991e-06	2.9952e-06	242.65	109.36	80.444	38.021	3.0917e-06	56.301	506.801	242.458	267.044	161.944	254.675	294.475	161.255	165.968	246.651	280.148	164.512	166.934	168.750	172.363	269.394	170.027	-8191	255	
8352.414	1	1	0	0	0.28655	0.2595	0.1693	0.20343	0.025094	0.23888	0.10963	0.28692	0.25588	0.10345	0.052789	0.12093	0.068565	0.2093	0.053162	0.080237	-3.8896	-4.8792	-4.4313	-4.325	-4.9604	-4.2125	-4.5021	-4.8375	-4.1687	-4.8562	-4.5833	-4.3438	-4.8104	-4.4417	-4.4396	-4.7271	330.438	460.901	189.386	465.025	445.767	488.716	156.191	177.221	202.776	459.477	284.942	474.779	269.878	461.854	450.677	448.724	0.0010015	0.00068691	0.00010438	513.28	3.7932e-06	3.783e-06	527.04	197.14	6.1658e-06	4.823e-06	252.71	114.56	84.827	39.676	2.6283e-06	58.702	0.00031044	0.00027838	7.7497e-05	497.8	3.0037e-06	3.0048e-06	511.5	190.07	3.0387e-06	2.9951e-06	244.74	109.95	81.341	38.281	3.0495e-06	56.704	496.594	236.292	205.259	161.926	254.947	286.294	161.088	166.165	296.941	269.209	164.350	167.195	168.473	172.485	311.626	170.282	-8191	255	
8352.510	1	1	0	0	0.13572	0.16755	0.28972	0.067864	0.046852	0.14272	0.19307	0.11596	0.14037	0.058023	0.23581	0.045132	0.11351	0.063887	0.088853	0.15593	-3.8667	-4.7479	-4.3208	-4.325	-4.8958	-4.1667	-4.5188	-4.6833	-4.1687	-4.7354	-4.5188	-4.3562	-4.9854	-4.4	-4.3042	-5.0229	483.493	285.710	288.144	330.795	318.501	436.897	431.269	153.461	163.650	260.211	381.293	303.042	435.628	438.815	481.602	150.826	0.0010067	0.00082095	0.00014884	515.37	3.2081e-06	4.2471e-06	528.87	198.2	9.9485e-06	6.0883e-06	254.39	116.07	84.96	39.872	3.8141e-06	59.501	0.00031374	0.00028187	7.6614e-05	498.6	3.0407e-06	3.0406e-06	513.43	191.15	2.9874e-06	3.0788e-06	245.6	110.99	81.624	38.616	3.0755e-06	57.278	499.965	234.575	246.462	162.112	291.566	317.027	160.944	166.057	255.458	328.429	164.216	167.260	168.218	172.247	302.408	169.931	-8191	255	
8352.606	1	1	0	0	0.29527	0.15729	0.22764	0.28129	0.19263	0.38074	0.16814	0.10066	0.15069	0.2406	0.054091	0.14658	0.18738	0.14675	0.11228	0.03715	-4.0042	-4.5792	-4.3688	-4.2229	-4.5917	-4.4896	-4.4229	-4.7646	-4.2646	-4.6979	-4.6958	-4.1146	-4.8125	-4.4521	-4.4083	-4.825	464.468	205.001	184.648	404.084	269.885	389.764	365.548	388.806	253.652	426.966	435.395	235.944	223.301	408.482	433.851	329.412	0.0010852	0.00072082	9.3266e-05	511.39	1.4403e-06	3.3795e-06	533.52	198.87	4.6318e-06	9.2452e-06	254.73	116.53	86.29	40.515	4.0639e-06	59.952	0.00030948	0.00027953	7.6339e-05	497.95	2.9705e-06	2.9121e-06	515.43	191.61	2.9262e-06	2.933e-06	246.46	112.13	82.414	39.08	2.9663e-06	57.983	502.896	234.864	207.013	162.379	242.721	252.405	161.130	166.045	303.574	266.088	164.333	167.052	168.270	172.377	289.533	170.019	-8191	255	
8352.702	1	1	0	0	0.087302	0.12737	0.15695	0.22338	0.1071	0.12932	0.11282	0.21154	0.030275	0.10948	0.073096	0.28268	0.12803	0.17322	0.26806	0.092608	-4.0021	-4.6958	-4.6479	-4.2292	-4.6687	-4.5854	-4.3292	-4.8896	-4.1229	-4.575	-4.725	-4.275	-4.6562	-4.7604	-4.2021	-5.0167	419.382	203.268	198.144	184.718	411.113	160.375	223.022	476.002	288.388	355.297	453.825	451.380	221.715	366.073	266.601	388.952	0.0011436	0.00060499	4.8626e-05	512.12	4.4957e-06	6.16e-06	529.14	198.27	2.7776e-06	7.4933e-06	255.76	117.01	85.214	40.474	7.9261e-06	60.116	0.00030776	0.00027362	7.4118e-05	496.07	2.9239e-06	2.8895e-06	513.24	191.46	2.8955e-06	2.9507e-06	246.84	112.27	82.343	39.138	2.9328e-06	58.031	501.994	244.336	495.729	161.874	248.583	314.991	161.087	165.968	297.482	270.819	164.343	167.415	168.594	172.290	268.442	170.136	-8191	255	
8352.823	1	1	0	0	0.16189	0.22448	0.031544	0.34898	0.031135	0.12932	0.23383	0.16198	0.16325	0.019898	0.35283	0.35915	0.10696	0.20321	0.069215	0.20898	-3.875	-4.4958	-4.6792	-4.2167	-4.7792	-4.5563	-4.2896	-4.9313	-4.35	-4.5583	-4.9062	-4.2438	-4.8292	-4.6	-4.3333	-4.8167	502.657	472.053	235.654	467.868	468.177	252.842	378.450	381.410	184.223	189.458	170.262	383.487	207.401	180.056	313.715	159.075	0.0010593	0.00089072	0.00016199	508.65	3.7619e-06	2.2441e-06	528.58	195.96	8.5951e-06	4.6835e-06	255.33	117.62	85.834	40.548	6.2655e-06	61.005	0.00031268	0.00027109	7.5215e-05	493.35	2.9892e-06	2.9249e-06	511.56	190.07	2.9406e-06	2.9734e-06	246.88	112.61	82.318	39.211	3.0013e-06	58.626	499.929	208.205	277.490	161.880	233.448	242.014	161.150	166.107	273.828	289.840	164.568	167.231	168.224	172.217	276.777	169.820	-8191	255	
8352.894	1	1	0	0	0.044954	0.014225	0.1402	0.19499	0.20509	0.079749	0.12784	0.17015	0.042676	0.10112	0.18913	0.075426	0.04048	0.12636	0.18014	0.32696	-4.1271	-4.3521	-4.9479	-4.2708	-4.6937	-4.6771	-4.3375	-4.8521	-4.4313	-4.3708	-4.9896	-4.275	-4.6479	-4.8333	-4.15	-4.8771	203.927	339.115	325.985	423.766	196.533	187.323	188.997	463.631	251.629	268.993	454.133	155.047	347.490	206.943	197.691	405.327	0.0010675	0.00076538	9.3286e-05	509.83	4.2441e-06	3.1592e-06	528.15	197.67	6.6921e-06	5.973e-06	255.33	117.06	85.166	40.029	2.0453e-06	59.976	0.00031223	0.0002739	7.4649e-05	492.64	3.012e-06	2.9315e-06	512.68	190.21	3.061e-06	2.99e-06	247.03	112.26	81.6	38.742	3.0271e-06	57.941	503.121	217.297	207.444	162.003	294.094	293.995	161.051	166.011	263.848	307.769	164.282	167.096	168.475	172.377	207.939	170.220	-8191	255	
8352.990	1	1	0	0	0.19156	0.18888	0.13106	0.099588	0.16252	0.070971	0.30206	0.18772	0.22407	0.09776	0.12829	0.18679	0.25422	0.1992	0.20805	0.15027	-4.3167	-4.275	-4.8063	-4.2812	-4.3833	-4.5979	-4.3187	-4.8146	-4.5271	-4.2625	-5.0833	-4.2396	-4.4792	-4.6292	-4.2021	-4.7562	389.984	184.651	239.478	207.708	329.397	197.065	357.286	428.643	407.711	178.091	233.026	446.397	454.088	470.315	240.409	426.632	0.0010625	0.00038501	0.00019481	512.24	6.9937e-06	2.8755e-06	529.84	197.75	7.1187e-06	3.9409e-06	255.78	117.09	85.021	40.301	6.173e-06	60.629	0.0003147	0.00027885	7.7225e-05	494.67	3.0184e-06	3.038e-06	513.48	190.58	3.0289e-06	3.0556e-06	248.02	112.45	81.742	38.97	3.0262e-06	58.413	502.611	214.843	230.503	161.852	288.425	310.849	160.837	166.263	233.091	256.654	164.188	167.091	168.709	172.588	263.344	169.963	-8191	255	
8353.111	1	1	0	0	0.051235	0.27572	0.19274	0.18088	0.12553	0.11004	0.2597	0.0045105	0.18558	0.20737	0.043964	0.11108	0.036173	0.078618	0.065908	0.19492	-4.1042	-4.3063	-4.7354	-4.2833	-4.3812	-4.7208	-4.2604	-4.6021	-4.5896	-4.1937	-4.9667	-4.2542	-4.2917	-4.8417	-4.1979	-4.6021	346.925	166.599	503.315	400.653	237.316	171.032	149.365	262.684	156.482	399.426	368.769	459.121	173.916	347.565	417.764	450.974	0.0010009	0.00048155	5.897e-05	508.45	4.3148e-06	2.0441e-06	528.98	196.94	7.1322e-06	4.4433e-06	256.83	117.42	85.221	40.307	2.3175e-06	60.426	0.00031694	0.00027695	7.8009e-05	493.82	3.0719e-06	2.9562e-06	512.76	190.66	3.0438e-06	3.0168e-06	247.33	112.5	81.817	39.053	3.0312e-06	58.209	500.735	210.477	242.605	162.083	232.315	371.954	161.009	166.022	264.388	234.361	164.533	167.424	168.523	172.437	254.789	169.959	-8191	255	
8353.205	1	1	0	0	0.18478	0.13314	0.158	0.14765	0.13661	0.051947	0.064961	0.059795	0.32758	0.12069	0.095713	0.14411	0.071661	0.15287	0.27077	0.015007	-4.25	-4.2146	-4.6833	-4.4667	-4.3917	-4.8396	-4.4104	-4.5896	-4.775	-3.9437	-4.8125	-4.3771	-4.275	-4.9792	-4.3	-4.7979	195.215	331.369	161.675	226.377	222.407	257.870	497.264	193.198	468.235	399.906	497.214	157.039	275.527	178.570	478.421	212.278	0.0009459	0.00059842	0.00016801	508.38	6.0736e-06	2.824e-06	526.83	195.8	8.2266e-06	2.4446e-06	253.29	116.64	84.761	40.293	4.5225e-06	60.017	0.00031094	0.00027018	7.6203e-05	491.53	3.01e-06	2.9122e-06	510.87	189.33	3.0257e-06	3.0081e-06	245.66	111.89	81.527	38.866	3.0258e-06	57.873	503.327	248.718	263.367	161.913	293.182	253.439	161.257	166.385	259.045	488.203	164.691	166.933	168.865	172.327	248.969	170.159	-8191	255	
8353.303	1	1	0	0	0.26827	0.063781	0.051246	0.18263	0.10643	0.017819	0.13822	0.17097	0.18626	0.15473	0.22132	0.14713	0.11061	0.18847	0.14515	0.20862	-4.2688	-4.2271	-4.5479	-4.4583	-4.2312	-4.8125	-4.3667	-4.5542	-4.9479	-4.1438	-4.8	-4.4354	-4.3917	-4.7438	-4.3917	-4.5396	449.693	437.524	323.120	208.340	153.037	410.338	487.182	436.552	208.463	459.607	458.361	491.679	504.503	467.974	418.836	471.454	0.00099627	0.00040542	0.00012965	505.26	3.7448e-06	4.166e-06	526.35	196.09	1.1397e-05	2.1427e-06	252.37	114.16	83.574	39.274	2.0657e-06	59.226	0.00030866	0.00027105	7.5443e-05	491.56	2.9677e-06	2.9533e-06	510.08	189.34	2.9188e-06	3.016e-06	243.6	109.83	80.326	38.032	3.0235e-06	57.057	500.861	235.637	226.835	162.030	280.103	273.070	160.987	166.241	251.147	298.734	164.343	167.343	168.630	172.629	270.564	170.296	-8191	255	
8353.422	1	1	0	0	0.20259	0.066299	0.12896	0.087584	0.12968	0.28998	0.26059	0.22315	0.19821	0.02953	0.21197	0.27695	0.1443	0.23711	0.13183	0.065318	-4.3604	-4.3042	-4.6813	-4.6146	-4.3438	-4.7063	-4.6292	-4.4333	-4.6833	-4.2375	-4.7208	-4.6083	-4.1271	-4.6292	-4.4646	-4.5	172.242	434.248	503.620	276.212	356.603	471.399	473.312	485.436	487.027	363.084	501.580	360.889	488.585	446.552	507.079	476.362	0.0010053	0.00041734	0.00018046	510.71	2.7291e-06	6.4989e-06	526.82	194.7	3.8889e-06	5.2853e-06	254.35	115.48	85.144	40.19	4.5102e-06	60.498	0.0003125	0.00026916	7.7488e-05	494.32	2.9731e-06	3.01e-06	510.57	188.92	3.0151e-06	3.0479e-06	245.57	111.71	81.401	38.845	3.1118e-06	58.316	500.149	239.507	292.157	162.245	255.655	238.241	160.921	166.166	245.767	310.825	164.623	167.541	168.678	172.356	271.794	169.878	-8191	255	
8353.518	1	1	0	0	0.15161	0.1857	0.14531	0.10746	0.25333	0.18086	0.14302	0.060191	0.21011	0.087758	0.19575	0.16876	0.16006	0.14531	0.018245	0.08788	-4.4917	-4.3125	-4.4521	-4.8458	-4.0417	-4.7208	-4.4083	-4.2438	-4.8708	-4.2292	-4.5333	-4.7354	-4.3021	-4.7792	-4.3542	-4.4646	209.404	338.840	222.182	483.167	506.486	459.038	282.674	165.961	421.198	360.927	406.072	348.284	497.692	488.376	454.933	437.198	0.0010415	0.00052898	0.00013545	510.64	2.8539e-06	4.0874e-06	528.44	197.28	9.216e-06	7.7882e-06	255.91	116.35	84.683	39.826	5.0576e-06	59.945	0.00031861	0.0002797	7.9106e-05	493.71	3.0316e-06	3.1452e-06	512.79	190.51	3.0738e-06	3.0039e-06	247.37	111.77	81.393	38.555	3.0674e-06	57.851	504.189	218.316	213.182	161.770	273.839	315.001	160.868	165.930	264.678	338.320	164.458	167.361	168.805	172.307	279.177	170.136	-8191	255	
8353.590	1	1	0	0	0.094349	0.12718	0.21491	0.22238	0.20358	0.15218	0.086573	0.17063	0.13074	0.30155	0.086507	0.1452	0.11076	0.25083	0.12519	0.28332	-4.2771	-4.3667	-4.4042	-5.0021	-4.2708	-4.6813	-4.6208	-4.3833	-4.6792	-4.4125	-4.3271	-4.9437	-4.2833	-4.6771	-4.5396	-4.4583	376.015	334.882	415.671	381.820	363.794	378.226	503.690	337.569	159.591	453.217	171.945	441.998	259.514	401.964	507.410	481.309	0.0010746	0.00071531	6.399e-05	509.92	3.1139e-06	4.3195e-06	531.81	197.82	4.8326e-06	4.033e-06	255.32	116.2	84.158	40.082	2.2873e-06	60.001	0.00031739	0.00027837	7.8832e-05	494.63	3.0224e-06	3.0448e-06	513.71	190.3	3.0414e-06	3.001e-06	246.21	111.44	81.201	38.778	2.9839e-06	57.855	498.206	250.284	227.329	161.663	289.067	272.815	161.205	165.945	272.500	301.602	164.906	167.422	168.751	172.149	326.674	170.188	-8191	255	
8353.711	1	1	0	0	0.011701	0.027681	0.074936	0.067067	0.05184	0.1388	0.17034	0.067163	0.20213	0.13338	0.075776	0.24085	0.04978	0.30866	0.22212	0.20656	-4.3625	-4.2708	-4.4646	-5.0521	-4.1375	-4.7146	-4.7979	-4.1375	-4.5563	-4.5917	-4.4062	-4.8063	-4.1333	-4.6	-4.7688	-4.3208	176.575	227.073	436.542	323.740	299.879	269.376	435.746	435.548	317.453	387.658	330.621	483.072	459.368	155.398	161.527	388.988	0.0010398	0.00034243	0.00012839	507.15	2.9477e-06	3.991e-06	523.96	195.27	1.936e-06	2.6475e-06	252.56	115.12	83.948	39.671	8.1024e-06	59.18	0.00031126	0.00027863	7.814e-05	491.62	3.0235e-06	3.1332e-06	508.23	188.75	3.0601e-06	3.0092e-06	243.75	110.81	80.586	38.387	3.0455e-06	57.324	497.656	193.038	273.619	162.176	234.899	291.927	160.993	166.029	294.515	355.178	164.319	167.026	168.718	172.508	305.757	170.526	-8191	255	
8353.807	1	1	0	0	0.26316	0.13307	0.28701	0.12291	0.25916	0.19853	0.30379	0.22255	0.24842	0.036767	0.1665	0.21434	0.21707	0.044971	0.078237	0.18462	-4.2104	-4.325	-4.275	-4.9625	-4.2208	-4.4729	-4.9229	-4.1917	-4.6625	-4.6479	-4.4229	-4.8583	-4.4875	-4.4458	-4.875	-4.2812	395.732	501.945	482.554	488.983	460.572	297.585	383.839	435.519	436.845	244.837	421.315	396.644	294.496	422.224	231.413	268.329	0.0010657	0.00035447	4.2891e-05	508.64	3.1351e-06	1.0753e-06	521.23	194.4	6.884e-06	5.7573e-06	250	114.83	83.261	39.546	4.2158e-06	58.771	0.00031985	0.00027934	7.7061e-05	491.12	2.9997e-06	3.0556e-06	506.7	188.21	3.1039e-06	3.091e-06	242.96	110.13	80.17	38.197	3.0756e-06	57.112	503.255	284.986	466.339	162.129	278.110	348.306	160.931	166.058	235.662	249.744	164.437	167.253	168.526	172.398	287.001	170.189	-8191	255	
8353.903	1	1	0	0	0.10044	0.24109	0.13559	0.087481	0.085866	0.095659	0.16735	0.22728	0.064856	0.069502	0.25798	0.2164	0.062104	0.29554	0.18618	0.11343	-4.3021	-4.6417	-4.1438	-4.9437	-4.3458	-4.4917	-4.7458	-4.1542	-4.5208	-4.5354	-4.2875	-4.6771	-4.6562	-4.275	-4.7458	-4.5125	363.503	429.174	448.216	195.939	385.157	296.920	396.305	356.830	506.179	450.752	457.574	461.407	392.632	227.312	300.407	182.791	0.00098748	0.00051948	9.8073e-05	506.37	5.5583e-06	4.562e-06	521.19	194.58	8.9272e-06	6.5565e-07	252.18	114.82	83.555	39.649	1.2288e-05	59.738	0.00032657	0.00028526	8.0427e-05	491.01	3.0779e-06	3.1044e-06	507.56	188.4	3.1541e-06	3.1016e-06	243.42	110.06	80.493	38.248	3.1955e-06	57.588	497.392	271.793	262.859	161.930	280.141	254.883	161.088	166.221	280.640	349.090	164.291	167.371	168.463	172.178	259.808	170.218	-8191	255	
8353.999	1	1	0	0	0.25267	0.034266	0.080445	0.041428	0.38504	0.15721	0.18075	0.089675	0.27067	0.059134	0.1888	0.30398	0.21655	0.21845	0.29038	0.1016	-4.2083	-4.7188	-4.0083	-4.7771	-4.35	-4.1813	-4.9958	-4.3292	-4.475	-4.6167	-4.2729	-4.7292	-4.6312	-4.4	-4.9062	-4.4646	224.457	246.962	385.387	314.888	337.535	313.287	465.587	502.669	421.003	153.935	482.742	411.549	158.525	277.646	161.369	475.013	0.001046	0.00053996	9.1622e-05	508.9	4.9711e-06	4.3367e-06	525.91	194.55	4.1688e-06	1.501e-06	254.62	116.71	84.852	40.095	5.2832e-06	60.414	0.00033178	0.00028619	7.916e-05	492.91	3.1484e-06	3.1317e-06	510.46	188.68	3.1577e-06	3.0817e-06	246.43	112.02	81.307	38.844	3.1389e-06	58.254	499.889	236.399	231.802	162.038	278.128	250.295	160.928	166.021	277.153	302.286	164.542	167.488	168.694	172.414	260.843	170.119	-8191	255	
8354.118	1	1	0	0	0.081635	0.21823	0.29779	0.1166	0.040233	0.12362	0.20339	0.2496	0.12093	0.046679	0.16781	0.048047	0.15611	0.092197	0.16666	0.042374	-4.1604	-4.7604	-4.2812	-4.6854	-4.7292	-4.4542	-4.8833	-4.2479	-4.4458	-4.7396	-4.4083	-4.7396	-4.5625	-4.0917	-4.8083	-4.4938	413.839	185.613	288.838	432.807	479.715	463.992	458.158	421.176	428.441	417.212	390.328	252.938	447.293	349.512	178.797	204.568	0.0010245	0.00026026	7.3827e-05	505.4	2.6039e-06	4.1903e-06	528.51	195.13	1.7179e-06	2.4673e-06	251.76	114.99	84.1	39.957	7.0293e-06	59.89	0.00032867	0.0002839	7.8531e-05	493.17	3.0661e-06	3.0774e-06	511.31	189.21	3.1213e-06	3.0366e-06	244.28	110.85	80.824	38.609	3.1254e-06	57.678	500.497	220.005	201.858	162.088	338.511	279.769	161.349	166.042	253.146	311.403	164.305	167.316	168.909	172.654	235.797	170.061	-8191	255	
8354.190	1	1	0	0	0.19135	0.1192	0.063514	0.11998	0.051022	0.2726	0.29325	0.11355	0.1684	0.092768	0.17699	0.19827	0.11088	0.19658	0.23347	0.13465	-3.9479	-4.7396	-4.3521	-4.5312	-4.5854	-4.1458	-4.7958	-4.4896	-4.2208	-4.7562	-4.2729	-4.6125	-4.6417	-4.3812	-4.6021	-4.65	406.740	394.149	180.464	436.523	278.218	377.895	462.158	361.986	345.291	400.736	154.826	162.356	191.463	436.452	170.832	463.092	0.0010009	0.0005321	2.6126e-05	506.09	4.1286e-06	3.949e-06	521.2	195.33	8.328e-06	2.3346e-06	251.2	115.55	84.54	40.393	4.2173e-06	60.01	0.00032362	0.00027948	7.7595e-05	491.25	3.0706e-06	3.0686e-06	507.97	188.95	3.071e-06	3.0636e-06	243.54	111.28	81.1	38.955	3.0857e-06	57.954	500.143	166.544	251.628	162.418	247.042	252.656	161.015	166.252	251.785	262.468	164.431	167.285	168.110	172.282	266.839	170.218	-8191	255	
8354.286	1	1	0	0	0.1333	0.17938	0.095054	0.12305	0.097568	0.15608	0.069255	0.25144	0.19159	0.023808	0.19103	0.13465	0.30257	0.18331	0.065409	0.23168	-3.9458	-4.8271	-4.3938	-4.4333	-4.8583	-4.0687	-4.875	-4.6521	-4.2208	-4.6958	-4.4083	-4.5437	-4.725	-4.3042	-4.5708	-4.5208	315.264	390.621	320.982	444.608	427.764	461.272	153.002	422.696	416.131	460.192	411.767	474.482	471.178	496.921	325.168	485.111	0.0010843	0.00047379	0.00011336	505.68	6.115e-06	2.4563e-06	523.58	195.8	7.1288e-06	4.6147e-06	251.09	115.68	83.853	39.945	4.4343e-06	59.466	0.00032114	0.00027642	7.8554e-05	491.27	3.0614e-06	3.0746e-06	507.8	188.78	3.0793e-06	3.098e-06	243.13	110.9	80.581	38.508	3.1621e-06	57.42	500.506	253.373	296.607	162.286	275.825	251.023	161.003	165.965	280.753	313.647	164.310	167.292	169.106	172.200	282.988	169.748	-8191	255	
8354.384	1	1	0	0	0.19603	0.03755	0.10956	0.18269	0.19107	0.24614	0.059818	0.069927	0.13669	0.18506	0.18638	0.12163	0.086491	0.091081	0.17044	0.3383	-4.0188	-4.8333	-4.3708	-4.5125	-4.5792	-4.3396	-4.65	-4.6042	-4.1625	-4.8688	-4.4875	-4.4833	-4.7542	-4.2917	-4.6396	-4.675	361.518	155.645	472.711	397.679	497.357	493.411	368.571	424.542	334.930	282.370	463.551	470.441	384.374	452.831	267.969	470.953	0.0011094	0.00021049	0.00011331	506.5	3.3728e-06	1.8304e-06	522.79	194.8	2.6558e-06	4.5838e-06	252.45	114.38	83.778	39.683	3.5665e-06	59.422	0.00032445	0.00028443	7.9636e-05	492.52	3.1186e-06	3.1135e-06	507.66	188.39	3.1063e-06	3.1045e-06	244.08	110.14	80.558	38.398	3.2127e-06	57.374	502.497	275.940	239.143	161.862	222.005	272.942	161.117	166.257	250.683	271.910	164.600	167.428	168.483	172.540	256.906	169.880	-8191	255	
8354.503	1	1	0	0	0.17312	0.18984	0.24635	0.11585	0.092646	0.10362	0.14834	0.17742	0.058191	0.14028	0.17602	0.18018	0.07412	0.072037	0.1999	0.22231	-3.8563	-4.7396	-4.4688	-4.4292	-4.9292	-4.1354	-4.575	-4.6229	-4.1729	-4.6979	-4.4938	-4.3292	-4.8833	-4.3125	-4.4646	-4.7333	196.172	340.824	186.939	503.784	478.402	254.667	278.671	435.266	216.125	453.087	343.092	349.817	276.631	202.085	409.054	389.106	0.0010531	0.00032967	0.00010784	510.58	3.9071e-06	2.9836e-06	528.51	196.56	1.9878e-06	3.4883e-06	254.08	115.13	84.142	39.571	9.757e-06	59.443	0.00032059	0.00028251	7.9586e-05	495.01	3.0711e-06	3.0755e-06	511.27	189.77	3.0905e-06	3.0625e-06	244.77	110.55	81.076	38.396	3.1391e-06	57.506	504.179	245.586	234.416	162.282	208.965	266.890	161.100	166.016	248.181	322.443	164.664	167.144	168.734	172.580	273.247	170.135	-8191	255	
8354.599	1	1	0	0	0.21437	0.33482	0.084016	0.29851	0.12624	0.075984	0.10468	0.043694	0.085977	0.080514	0.067306	0.10964	0.14119	0.11545	0.047907	0.22141	-3.9104	-4.6542	-4.3896	-4.2542	-4.7375	-4.4583	-4.4375	-4.7792	-4.1979	-4.7812	-4.5979	-4.3375	-4.7104	-4.4146	-4.4917	-4.8354	429.801	276.413	227.699	431.195	316.674	148.399	375.815	473.504	157.225	465.168	454.901	150.208	445.594	461.981	420.804	354.840	0.0010062	0.00080707	7.9381e-05	507.36	1.7846e-06	2.2297e-06	528.7	197.36	1.2303e-05	5.0187e-06	254.5	116.53	84.398	40.036	7.7087e-06	59.851	0.00031927	0.00028145	7.8122e-05	493.62	3.0336e-06	3.0522e-06	511.23	190.01	2.9899e-06	3.0366e-06	245.45	111.6	81.276	38.773	3.0151e-06	57.575	498.270	222.229	232.976	162.252	223.397	171.248	161.320	166.082	259.079	335.128	164.753	167.239	168.427	172.100	260.378	170.045	-8191	255	
8354.695	1	1	0	0	0.16393	0.18254	0.080134	0.040108	0.21728	0.0047818	0.27736	0.057648	0.10319	0.20423	0.031917	0.1466	0.18063	0.11098	0.088345	0.16634	-3.8937	-4.7083	-4.7292	-4.2125	-4.9333	-4.2542	-4.3542	-4.9812	-4.2479	-4.7208	-4.7417	-4.1021	-4.8833	-4.4875	-4.3271	-4.9208	256.206	183.814	387.970	469.303	197.552	285.771	340.955	340.617	177.323	387.433	504.109	202.138	408.992	403.047	167.210	267.216	0.0010553	0.0007612	0.0001758	508.14	2.194e-06	5.5906e-06	526.2	195.37	5.8495e-06	3.3236e-06	250.03	115.65	83.478	39.549	5.4148e-06	58.816	0.00030944	0.00028001	7.591e-05	491.22	3.0202e-06	2.9788e-06	509.72	188.67	2.916e-06	3.034e-06	242.31	110.27	80.214	38.205	2.9773e-06	56.926	499.660	219.061	223.642	162.022	242.785	321.862	160.981	166.125	239.298	332.911	164.736	167.392	168.628	172.430	266.025	170.110	-8191	255	
8354.791	1	1	0	0	0.024068	0.011471	0.17605	0.057269	0.19964	0.022357	0.089414	0.15591	0.096195	0.12694	0.14425	0.077126	0.19208	0.28021	0.17712	0.18702	-4.0813	-4.4979	-4.7646	-4.1896	-4.8333	-4.4271	-4.3938	-4.9167	-4.1937	-4.5333	-4.7479	-4	-4.8167	-4.5917	-4.0062	-4.9604	236.902	342.925	307.994	198.955	437.287	205.812	207.504	426.729	158.962	280.703	199.841	155.014	394.029	498.007	180.085	413.580	0.00096171	0.00045096	0.00018404	505.79	3.2519e-06	3.6747e-06	526.77	194.87	5.9491e-06	6.4087e-06	250.96	114.71	83.842	39.509	4.5576e-06	59.043	0.00030687	0.00027216	7.4626e-05	490.72	3.0105e-06	2.9064e-06	508.58	188.12	2.9421e-06	2.955e-06	242.75	109.8	80.239	38.119	2.9987e-06	56.822	501.098	242.025	219.366	161.938	247.129	316.697	160.859	166.035	318.046	275.946	164.284	167.251	168.625	172.290	326.072	170.320	-8191	255	
8354.887	1	1	0	0	0.25392	0.12274	0.10002	0.22169	0.3133	0.12685	0.23027	0.071548	0.22965	0.028618	0.14533	0.083476	0.15177	0.098202	0.026188	0.11386	-3.7875	-4.5188	-4.6562	-4.2792	-4.7042	-4.6542	-4.5104	-4.7833	-4.225	-4.2792	-4.7979	-4.0792	-4.6979	-4.7354	-4.0417	-4.8292	217.326	394.177	494.893	182.748	160.077	158.627	414.563	313.043	380.392	476.218	434.771	153.540	152.568	470.685	149.285	196.736	0.0010558	6.2242e-05	8.7445e-05	506.36	3.5017e-06	3.0245e-06	520.48	193.76	6.0958e-06	4.9056e-06	249.15	113.37	82.385	38.977	6.1682e-06	58.469	0.0003116	0.00027681	7.5734e-05	489.61	3.0619e-06	3.0453e-06	505.03	187.39	3.0778e-06	3.045e-06	241.26	108.79	79.477	37.649	3.0376e-06	56.289	503.754	299.306	206.922	161.943	292.059	280.497	161.100	165.913	256.738	270.887	164.375	167.487	168.926	172.153	224.354	170.258	-8191	255	
8354.983	1	1	0	0	0.10618	0.10848	0.085866	0.3106	0.096812	0.047629	0.27055	0.080009	0.17814	0.1184	0.18101	0.26635	0.057981	0.32441	0.12198	0.12448	-3.8958	-4.2083	-4.8604	-4.2458	-4.475	-4.6354	-4.325	-4.7604	-4.4208	-4.2	-4.95	-4.3958	-4.5312	-4.6583	-4.2042	-4.7458	461.584	217.507	270.591	475.337	500.271	330.625	384.847	331.727	468.714	408.603	382.649	445.319	268.460	178.150	343.145	370.735	0.00098899	0.0003691	8.6503e-05	503.61	3.4493e-06	2.0732e-06	521.78	193.73	4.8619e-06	3.5128e-06	250.49	114.12	83.431	39.094	7.6051e-06	58.528	0.00031538	0.00027509	7.6411e-05	488.29	3.0769e-06	3.0642e-06	505.58	187.47	3.028e-06	3.0254e-06	241.78	109.32	79.911	37.884	2.952e-06	56.564	497.011	208.648	207.123	162.070	277.865	312.365	160.652	166.110	274.527	260.643	164.461	167.127	168.854	172.349	263.947	170.287	-8191	255	
8355.104	1	1	0	0	0.24953	0.17993	0.12588	0.15337	0.13038	0.04697	0.11268	0.14949	0.10043	0.050542	0.19487	0.19116	0.076448	0.14308	0.129	0.19547	-4.325	-4.3021	-4.8229	-4.275	-4.3917	-4.8875	-4.0104	-4.7125	-4.4812	-4.3521	-4.8833	-4.45	-4.4667	-4.7542	-4.2458	-5.0062	148.795	368.026	197.481	462.665	484.860	376.832	456.094	503.181	155.398	279.745	254.495	474.953	209.325	417.678	159.161	507.888	0.0010584	0.00032711	9.8389e-05	504.78	3.7705e-06	2.2822e-06	527.08	194.39	7.7777e-06	5.464e-06	249.94	114.78	83.478	39.422	5.5772e-06	58.763	0.00031512	0.00026758	7.4992e-05	491.33	3.0025e-06	2.9465e-06	509.21	188.45	2.9355e-06	2.9303e-06	242.87	110.09	80.446	38.115	2.9477e-06	56.839	498.412	198.940	272.004	162.145	289.217	304.001	160.976	165.892	248.390	271.950	164.521	167.007	168.525	172.387	270.938	170.074	-8191	255	
8355.200	1	1	0	0	0.026078	0.21075	0.15329	0.12714	0.17583	0.066075	0.057829	0.065693	0.20696	0.077049	0.10209	0.029257	0.16133	0.19755	0.19659	0.16384	-4.1479	-4.2896	-4.8708	-4.2729	-4.4	-4.7271	-4.2562	-4.4792	-4.5167	-4.1146	-4.8479	-4.4021	-4.3854	-4.7562	-4.1667	-4.6417	451.433	320.516	473.871	297.478	335.364	409.365	255.150	264.675	408.168	261.280	504.256	465.169	435.124	175.436	208.152	396.854	0.0010516	0.00075251	0.00012386	507.49	5.559e-06	2.4751e-06	524.09	194.66	1.0903e-05	1.5188e-07	250.57	115.12	83.5	39.478	3.9275e-06	58.722	0.00030604	0.00026838	7.4297e-05	491.78	2.9044e-06	2.8937e-06	509.54	188.95	2.9108e-06	2.8362e-06	243.34	110.34	80.499	38.184	2.9341e-06	56.64	502.649	206.823	245.459	161.882	298.845	272.391	161.127	165.877	262.431	344.838	164.252	166.975	168.463	172.155	245.160	170.175	-8191	255	
8355.295	1	1	0	0	0.23956	0.12919	0.17733	0.15676	0.14042	0.10092	0.21125	0.27109	0.036669	0.17781	0.21635	0.34374	0.22612	0.089305	0.20956	0.24324	-4.4229	-4.0167	-4.7229	-4.4792	-4.3792	-4.9375	-4.3771	-4.5792	-4.5542	-4.2875	-4.7125	-4.5479	-4.1833	-4.9021	-4.2792	-4.4187	379.749	284.386	258.662	428.454	262.419	445.646	456.340	505.047	208.695	295.917	389.190	426.646	483.610	450.466	319.436	164.846	0.00090696	0.00028446	9.8739e-05	503.38	4.8949e-06	6.3001e-06	524.09	193.92	7.1062e-06	4.3434e-06	250.63	113.87	83.451	39.276	2.9211e-06	58.737	0.00031277	0.00027507	7.699e-05	489.2	3.0142e-06	2.9998e-06	506.69	187.62	3.0195e-06	2.9871e-06	242.02	109.28	80.076	37.97	3.0436e-06	56.541	498.338	252.346	236.288	162.082	289.524	316.203	161.157	166.094	236.962	235.230	164.399	167.158	168.473	172.380	283.904	170.129	-8191	255	
8355.391	1	1	0	0	0.28853	0.18314	0.23809	0.19462	0.082205	0.05549	0.22019	0.17578	0.15028	0.099834	0.2166	0.25885	0.076879	0.28227	0.21512	0.22501	-4.2937	-4.1896	-4.4521	-4.4792	-4.1167	-4.6375	-4.2208	-4.5896	-4.7167	-4.1646	-4.55	-4.5042	-4.1417	-4.7833	-4.3021	-4.4812	317.008	279.624	447.285	484.609	443.255	399.684	449.055	493.224	450.715	201.196	268.731	475.370	437.514	498.416	394.836	449.982	0.0010355	0.00050689	0.00019621	503.91	3.2874e-06	2.2242e-06	521.33	192.76	4.1209e-06	6.3895e-07	247.26	113.85	82.826	39.182	3.9572e-06	58.637	0.00031499	0.00028054	7.839e-05	489.08	3.0485e-06	3.0736e-06	505.01	186.6	3.1025e-06	3.1458e-06	240.08	108.99	79.538	37.891	3.2311e-06	56.591	500.352	209.802	224.615	161.792	257.623	302.275	160.892	166.067	298.846	417.588	164.556	166.890	168.237	172.457	273.101	170.000	-8191	255	
8355.487	1	1	0	0	0.07979	0.16189	0.068944	0.094748	0.16742	0.1912	0.24715	0.29336	0.28053	0.22054	0.057814	0.17837	0.19137	0.06164	0.15159	0.19354	-4.4062	-4.1104	-4.5354	-4.5854	-4.1646	-4.8292	-4.4729	-4.4375	-4.7104	-4.2021	-4.5729	-4.7688	-4.1833	-4.9667	-4.4667	-4.4	459.732	491.863	206.657	226.041	388.089	302.768	164.397	499.773	178.634	455.349	280.863	231.861	148.985	178.343	174.197	456.483	0.00097474	0.00074136	0.00016392	502.54	5.3961e-06	5.4228e-06	518.81	192.06	2.8261e-06	9.211e-06	250.7	113.49	82.569	39.314	6.4221e-06	58.997	0.00032586	0.0002869	8.0751e-05	487.21	3.1523e-06	3.1491e-06	504.35	186.04	3.1365e-06	3.2345e-06	241.78	109.1	79.524	37.943	3.1672e-06	56.8	501.395	203.676	217.567	162.133	216.937	268.187	161.362	166.348	311.315	283.063	164.758	167.453	168.910	172.510	278.244	170.370	-8191	255	
8355.583	1	1	0	0	0.11529	0.14564	0.062233	0.26831	0.15677	0.18108	0.058753	0.12379	0.051539	0.14927	0.26376	0.11161	0.10991	0.1071	0.24322	0.081539	-4.675	-4.1312	-4.4833	-4.9292	-3.9354	-4.7708	-4.5896	-4.0687	-4.9396	-4.3729	-4.3458	-4.8396	-4.2396	-4.7458	-4.6312	-4.2229	391.948	427.268	494.667	262.938	480.652	201.257	293.869	276.285	505.042	245.593	396.338	161.500	478.225	387.252	371.824	374.486	0.00098377	0.0005117	0.00014271	499.64	4.1824e-06	4.39e-06	520.94	192.78	7.3468e-06	5.0213e-06	246.46	113.11	82.957	39.206	6.5161e-06	58.115	0.00032731	0.00029444	8.3014e-05	486.54	3.1358e-06	3.1756e-06	504.7	186.55	3.1692e-06	3.2581e-06	239.89	108.96	79.633	37.88	3.1712e-06	56.262	500.585	256.188	274.518	161.832	301.457	231.107	161.129	166.156	266.023	274.924	164.295	167.493	168.566	172.387	252.687	170.047	-8191	255	
8355.679	1	1	0	0	0.15162	0.20467	0.051638	0.18124	0.1325	0.10486	0.30152	0.15781	0.11181	0.14868	0.28766	0.010515	0.20128	0.040822	0.072766	0.23231	-4.5875	-4.2167	-4.3792	-4.7562	-4.3938	-4.4896	-4.6167	-4.1854	-4.825	-4.4396	-4.575	-4.8104	-4.2792	-4.6208	-4.6813	-4.2521	362.868	422.392	255.534	182.032	304.844	226.254	411.065	162.291	178.067	471.638	421.186	382.609	447.873	170.039	270.695	491.615	0.0010519	0.00038778	0.000155	502.25	3.0303e-06	6.3514e-06	517.51	192.53	7.1688e-06	2.5283e-06	247.32	112.87	82.023	38.843	4.7428e-06	58.411	0.00032845	0.00029144	8.0987e-05	487.38	3.1857e-06	3.206e-06	502.9	185.75	3.1616e-06	3.0987e-06	239.59	108.44	79.001	37.655	3.1607e-06	56.494	498.258	193.446	243.369	161.890	260.946	275.428	161.091	166.134	276.488	314.382	164.326	167.383	168.344	172.550	260.762	170.315	-8191	255	
#DATA ENDS
