BOXY.EXE: ISS Imagent and Oximeter Data Acquisition Program Version 0.80
Ascii Record File

#ACQ INFORMATION
2  Detector Channels 
16  External MUX Channels 
1  Auxiliary Channels 
5000  Waveform (CCF) Frequency (Hz)
1  Waveforms Skipped 
30  Waveforms Averaged 
1  Cycles Averaged 
16  Acquisitions per Waveform 
10.0806  Updata Rate (Hz) 

#FILE INFORMATION
TRUE -- External MUX Channel results are PARSED.
FALSE -- AC DC and Phase are NOT grouped.
TRUE -- Companion Program Settings File CREATED.
FALSE -- AC data not excluded
FALSE -- DC data not excluded
FALSE -- Phase data not excluded
FALSE -- Auxillary Chn. data not excluded
Tab delimiters

#CALIBRATION STATE
TRUE -- Waveform Calibration Values APPLIED.


#AUX CALIBRATION VALUES
Val Type	aux-1	

Term	1.0000e+00	
Factor	0.0000e+00	


#WF CALIBRATION VALUES
A = Detector Channel
Val Type	A-AC1	A-AC2	A-AC3	A-AC4	A-AC5	A-AC6	A-AC7	A-AC8	A-AC9	A-AC10	A-AC11	A-AC12	A-AC13	A-AC14	A-AC15	A-AC16	A-DC1	A-DC2	A-DC3	A-DC4	A-DC5	A-DC6	A-DC7	A-DC8	A-DC9	A-DC10	A-DC11	A-DC12	A-DC13	A-DC14	A-DC15	A-DC16	A-Ph1	A-Ph2	A-Ph3	A-Ph4	A-Ph5	A-Ph6	A-Ph7	A-Ph8	A-Ph9	A-Ph10	A-Ph11	A-Ph12	A-Ph13	A-Ph14	A-Ph15	A-Ph16	

Term	0.00000e+00	0.00000e+00	0.00000e+00	0.00000e+00	0.00000e+00	0.00000e+00	0.00000e+00	0.00000e+00	0.00000e+00	0.00000e+00	0.00000e+00	0.00000e+00	0.00000e+00	0.00000e+00	0.00000e+00	0.00000e+00	0.00000e+00	0.00000e+00	0.00000e+00	0.00000e+00	0.00000e+00	0.00000e+00	0.00000e+00	0.00000e+00	0.00000e+00	0.00000e+00	0.00000e+00	0.00000e+00	0.00000e+00	0.00000e+00	0.00000e+00	0.00000e+00	0.00000e+00	0.00000e+00	0.00000e+00	0.00000e+00	0.00000e+00	0.00000e+00	0.00000e+00	0.00000e+00	0.00000e+00	0.00000e+00	0.00000e+00	0.00000e+00	0.00000e+00	0.00000e+00	0.00000e+00	0.00000e+00	
Factor	1.00000e+00	1.00000e+00	1.00000e+00	1.00000e+00	1.00000e+00	1.00000e+00	1.00000e+00	1.00000e+00	1.00000e+00	1.00000e+00	1.00000e+00	1.00000e+00	1.00000e+00	1.00000e+00	1.00000e+00	1.00000e+00	1.00000e+00	1.00000e+00	1.00000e+00	1.00000e+00	1.00000e+00	1.00000e+00	1.00000e+00	1.00000e+00	1.00000e+00	1.00000e+00	1.00000e+00	1.00000e+00	1.00000e+00	1.00000e+00	1.00000e+00	1.00000e+00	X	X	X	X	X	X	X	X	X	X	X	X	X	X	X	X	

B = Detector Channel
Val Type	B-AC1	B-AC2	B-AC3	B-AC4	B-AC5	B-AC6	B-AC7	B-AC8	B-AC9	B-AC10	B-AC11	B-AC12	B-AC13	B-AC14	B-AC15	B-AC16	B-DC1	B-DC2	B-DC3	B-DC4	B-DC5	B-DC6	B-DC7	B-DC8	B-DC9	B-DC10	B-DC11	B-DC12	B-DC13	B-DC14	B-DC15	B-DC16	B-Ph1	B-Ph2	B-Ph3	B-Ph4	B-Ph5	B-Ph6	B-Ph7	B-Ph8	B-Ph9	B-Ph10	B-Ph11	B-Ph12	B-Ph13	B-Ph14	B-Ph15	B-Ph16	

Term	0.00000e+00	0.00000e+00	0.00000e+00	0.00000e+00	0.00000e+00	0.00000e+00	0.00000e+00	0.00000e+00	0.00000e+00	0.00000e+00	0.00000e+00	0.00000e+00	0.00000e+00	0.00000e+00	0.00000e+00	0.00000e+00	0.00000e+00	0.00000e+00	0.00000e+00	0.00000e+00	0.00000e+00	0.00000e+00	0.00000e+00	0.00000e+00	0.00000e+00	0.00000e+00	0.00000e+00	0.00000e+00	0.00000e+00	0.00000e+00	0.00000e+00	0.00000e+00	-1.76971e+02	-1.26231e+02	-1.22654e+02	-1.81614e+02	-8.27724e+01	-7.88091e+01	-1.57570e+02	-1.62015e+02	-8.57950e+01	-7.03981e+01	-1.71199e+02	-1.72854e+02	-1.84169e+02	-1.76777e+02	-8.06855e+01	-1.49602e+02	
Factor	3.07816e-05	1.62578e-04	4.72384e-05	1.51029e-01	1.31753e-06	1.41732e-06	1.65794e-01	5.23204e-02	1.70557e-06	1.74508e-06	8.62220e-02	3.50286e-02	3.70922e-02	9.34852e-03	1.66101e-06	1.36017e-02	2.42273e-06	2.59562e-06	7.22291e-07	7.56502e-02	2.81075e-08	2.84093e-08	7.83351e-02	2.61589e-02	2.80967e-08	2.83958e-08	4.18652e-02	1.69423e-02	1.85081e-02	4.69075e-03	2.82755e-08	6.61081e-03	X	X	X	X	X	X	X	X	X	X	X	X	X	X	X	X	



#DISTANCE SETTINGS
A = Detector Channel
A-1	A-2	A-3	A-4	A-5	A-6	A-7	A-8	A-9	A-10	A-11	A-12	A-13	A-14	A-15	A-16	

2.5000e+00	3.0000e+00	2.5000e+00	3.0000e+00	2.0000e+00	3.0000e+00	1.5000e+00	3.0000e+00	3.0000e+00	3.0000e+00	3.0000e+00	3.0000e+00	3.0000e+00	3.0000e+00	1.5000e+00	3.0000e+00	

B = Detector Channel
B-1	B-2	B-3	B-4	B-5	B-6	B-7	B-8	B-9	B-10	B-11	B-12	B-13	B-14	B-15	B-16	

1.0000e+01	1.0000e+01	1.0000e+01	1.4400e+00	1.0000e+01	1.0000e+01	1.5100e+00	1.9400e+00	1.0000e+01	1.0000e+01	1.9900e+00	2.4900e+00	2.4100e+00	2.9000e+00	1.0000e+01	2.9800e+00	




#DATA BEGINS
time	group	step	mark	flag	A-AC1	A-AC2	A-AC3	A-AC4	A-AC5	A-AC6	A-AC7	A-AC8	A-AC9	A-AC10	A-AC11	A-AC12	A-AC13	A-AC14	A-AC15	A-AC16	A-DC1	A-DC2	A-DC3	A-DC4	A-DC5	A-DC6	A-DC7	A-DC8	A-DC9	A-DC10	A-DC11	A-DC12	A-DC13	A-DC14	A-DC15	A-DC16	A-Ph1	A-Ph2	A-Ph3	A-Ph4	A-Ph5	A-Ph6	A-Ph7	A-Ph8	A-Ph9	A-Ph10	A-Ph11	A-Ph12	A-Ph13	A-Ph14	A-Ph15	A-Ph16	B-AC1	B-AC2	B-AC3	B-AC4	B-AC5	B-AC6	B-AC7	B-AC8	B-AC9	B-AC10	B-AC11	B-AC12	B-AC13	B-AC14	B-AC15	B-AC16	B-DC1	B-DC2	B-DC3	B-DC4	B-DC5	B-DC6	B-DC7	B-DC8	B-DC9	B-DC10	B-DC11	B-DC12	B-DC13	B-DC14	B-DC15	B-DC16	B-Ph1	B-Ph2	B-Ph3	B-Ph4	B-Ph5	B-Ph6	B-Ph7	B-Ph8	B-Ph9	B-Ph10	B-Ph11	B-Ph12	B-Ph13	B-Ph14	B-Ph15	B-Ph16	aux-1	digaux	

8550.630	1	1	0	512	0.14013	0.30397	0.11371	0.11123	0.082337	0.22681	0.091924	0.1057	0.18304	0.15086	0.064029	0.13844	0.19977	0.1427	0.13252	0.32279	-4.2167	-3.9938	-4.6042	-4.4583	-4.225	-4.9688	-4.4708	-4.3896	-4.7	-4.1562	-4.9521	-4.4604	-4.3812	-5.0625	-4.3292	-4.4	241.185	-17.696	121.144	-60.716	-78.572	-23.237	244.136	162.409	151.216	186.422	169.996	223.306	226.784	170.333	31.672	233.988	0.00059444	0.0012155	0.00018012	608.3	6.0021e-06	3.6477e-06	806.81	232.5	9.1102e-06	6.2241e-06	379.6	159.14	96.792	45.789	4.3537e-06	77.805	0.00087507	0.00088541	0.0002473	597.01	9.5977e-06	9.5968e-06	785.06	228.09	9.5438e-06	9.4356e-06	369.79	155.06	96.591	44.598	9.6105e-06	75.466	137.795	-36.463	18.734	-78.791	22.816	109.273	-79.938	-73.562	-64.835	33.970	-75.456	-70.746	-69.169	-63.754	90.480	-66.313	-8191	255	
8550.726	1	1	0	0	0.12651	0.075627	0.14993	0.035509	0.017129	0.1529	0.10108	0.14176	0.08452	0.18512	0.12416	0.10964	0.30058	0.19929	0.10959	0.21545	-4.3708	-4.25	-4.7375	-4.4792	-4.1104	-4.6833	-4.4729	-4.4583	-4.8958	-4.0292	-4.5875	-4.7229	-4.075	-4.7208	-4.3333	-4.4167	137.006	-34.293	14.597	130.953	-1.848	37.022	4.151	144.478	-40.641	136.306	245.576	-67.195	166.104	-77.536	236.663	181.115	0.00028658	0.0010557	0.00023549	604.24	7.588e-07	6.0956e-06	800.99	231.97	3.4207e-06	4.4137e-06	379.81	159	97.514	45.832	5.4388e-06	77.264	0.00087725	0.00089328	0.00025351	593.34	9.7626e-06	9.8677e-06	779.82	227.96	9.7979e-06	9.889e-06	369.86	155.29	97.821	44.835	9.9072e-06	74.839	123.352	-15.125	47.700	-79.119	256.538	39.101	-79.701	-73.593	254.132	84.716	-75.261	-70.956	-69.030	-63.646	59.746	-66.701	-8191	255	
8550.822	1	1	0	0	0.051663	0.32966	0.23453	0.078228	0.049416	0.055252	0.19269	0.28755	0.097638	0.084602	0.19275	0.22315	0.24828	0.07236	0.083651	0.24134	-4.3708	-4.1292	-4.4437	-4.5167	-4.1083	-4.5396	-4.5021	-4.2771	-4.8375	-4.3042	-4.5458	-4.6833	-4.3292	-5.0333	-4.4458	-4.2417	-91.269	202.011	52.089	122.026	150.926	249.785	-9.531	241.505	44.077	253.262	207.305	185.885	169.066	-28.755	42.267	218.413	0.00040338	0.00068322	0.00026711	607.48	4.7077e-06	8.6399e-06	800.37	234.24	5.6302e-06	6.4822e-06	378.21	158.06	97.999	45.691	9.6739e-06	77.326	0.00088957	0.00090309	0.00025386	595.46	9.6406e-06	9.9136e-06	777.89	229.19	9.6913e-06	9.8354e-06	369.14	154.67	97.842	44.774	9.7786e-06	74.895	137.493	-9.871	40.876	-79.325	-6.680	50.805	-79.934	-73.793	218.313	63.143	-75.657	-70.786	-69.477	-63.744	70.071	-66.318	-8191	255	
8550.918	1	1	0	0	0.20065	0.21711	0.21089	0.11914	0.087267	0.30629	0.090808	0.23098	0.099634	0.069853	0.16297	0.28102	0.12527	0.31138	0.060537	0.20649	-4.5646	-4.3521	-4.4146	-4.7	-4.0646	-4.6646	-4.4708	-4.2562	-4.8187	-4.3375	-4.5146	-4.6396	-4.2667	-4.7562	-4.5354	-4.1708	266.759	246.249	-81.509	198.770	156.438	259.847	89.529	218.912	-74.376	149.776	167.921	215.024	-40.460	243.545	186.417	-33.201	0.00053067	0.00022241	0.00012655	615.27	3.6045e-06	9.6471e-06	801.6	234.87	4.2795e-06	5.3161e-06	378.11	158.1	96.548	45.573	2.8442e-06	77.536	0.00087597	0.00089002	0.00024657	602.35	9.4633e-06	9.5827e-06	783.9	229.49	9.4109e-06	9.3705e-06	368.34	154.29	96.677	44.587	9.5363e-06	75.107	130.991	25.932	-0.515	-79.458	124.509	62.417	-80.043	-73.578	56.759	121.912	-75.382	-70.960	-69.262	-63.831	235.760	-66.435	-8191	255	
8551.037	1	1	0	0	0.037595	0.11854	0.039336	0.28925	0.11444	0.12652	0.15305	0.19629	0.19542	0.13	0.25125	0.090491	0.12498	0.12079	0.12719	0.10045	-4.225	-4.2583	-4.4271	-4.7125	-4.1146	-4.7167	-4.7125	-4.3125	-4.8833	-4.3354	-4.4875	-4.8021	-4.2562	-4.7146	-4.6	-4.4104	-64.583	-6.298	-34.649	227.885	219.546	126.423	209.367	236.925	-56.133	239.845	-62.191	147.420	203.631	56.027	96.118	122.781	0.00052644	0.00018983	5.1104e-05	617.11	6.3677e-06	9.5464e-06	805.1	232.9	4.9229e-06	9.2449e-06	376.53	157.66	96.078	45.543	3.9307e-06	77.885	0.00086623	0.00087023	0.0002428	604.87	9.3627e-06	9.61e-06	784.83	228.01	9.2934e-06	9.4963e-06	367.76	153.68	96.123	44.53	9.3383e-06	75.446	126.626	-14.627	70.005	-79.033	-11.372	9.896	-79.954	-73.554	89.091	28.572	-75.511	-71.024	-69.419	-63.827	-5.305	-66.289	-8191	255	
8551.133	1	1	0	0	0.16865	0.07254	0.10044	0.34543	0.092918	0.092497	0.21952	0.33319	0.17169	0.11535	0.1606	0.1452	0.21532	0.06851	0.1142	0.18953	-4.4917	-4.6979	-4.3375	-4.8479	-4.3021	-4.6312	-4.9333	-4.1813	-4.6396	-4.45	-4.3167	-4.9521	-4.3562	-4.6792	-4.8604	-4.4187	-13.035	217.402	65.445	214.192	178.230	-22.322	226.499	-69.759	63.273	85.374	42.927	160.715	98.128	162.717	136.781	231.506	0.00044338	0.0010519	0.0002018	617.29	6.1781e-06	1.9191e-06	807.25	231.1	6.8013e-06	7.4784e-06	377.72	157.28	95.449	45.508	1.5424e-06	77.601	0.00085976	0.00087076	0.00024016	603.48	9.5493e-06	9.8317e-06	783.78	227.19	9.7149e-06	9.6868e-06	366.5	153.77	95.823	44.598	9.5993e-06	75.144	141.442	21.086	214.572	-79.082	-2.482	11.016	-79.983	-73.344	112.942	3.288	-75.049	-70.834	-68.970	-63.630	-5.429	-66.538	-8191	255	
8551.230	1	1	0	0	0.042683	0.34212	0.083544	0.075319	0.026132	0.09097	0.3051	0.10069	0.094197	0.23014	0.19853	0.15718	0.10963	0.18536	0.14084	0.24311	-4.3646	-4.5687	-4.1958	-4.9375	-4.3333	-4.4313	-4.9083	-4.2792	-4.5333	-4.5042	-4.2417	-5.0354	-4.4167	-4.5042	-4.875	-4.4812	-36.055	-56.870	-89.579	-41.928	-87.070	134.655	205.152	245.184	121.526	74.142	261.262	231.156	-70.532	214.179	42.928	202.011	0.0004349	0.00027954	0.00013121	607.55	6.5783e-06	3.4182e-06	791.19	229.88	4.3165e-06	3.6335e-06	369.19	154.48	95.002	45.306	1.1662e-05	76.244	0.00087264	0.00087969	0.00024108	593.03	9.554e-06	9.7658e-06	768.3	224.87	9.7258e-06	9.5609e-06	359.99	151.09	95.083	44.204	9.7017e-06	73.903	130.940	-84.268	-15.681	-78.976	99.865	62.793	-79.975	-73.326	-89.533	153.499	-75.307	-70.867	-68.913	-63.812	64.743	-66.320	-8191	255	
8551.326	1	1	0	0	0.13057	0.15133	0.081194	0.12511	0.10927	0.049466	0.18198	0.23595	0.087268	0.29867	0.31337	0.25219	0.039884	0.071721	0.1786	0.085055	-4.3333	-4.725	-4.2458	-4.775	-4.3729	-4.3583	-4.9292	-4.375	-4.5792	-4.7229	-4.2479	-4.9417	-4.3271	-4.5542	-4.6292	-4.4521	57.427	211.006	-75.661	242.697	-63.832	109.564	44.636	-78.411	-26.258	33.549	219.565	194.681	190.176	260.798	104.548	197.586	0.0003644	0.00095464	0.00029182	590.89	3.4231e-06	5.8233e-06	773.32	225.3	9.3071e-06	9.984e-06	363.59	152.59	93.727	44.701	5.8866e-06	75.188	0.00087891	0.00089826	0.00024482	579.61	9.6838e-06	9.8035e-06	753.18	220.72	9.7891e-06	9.6968e-06	354.14	149.51	94.334	43.596	9.778e-06	73.134	151.917	-29.388	-46.808	-79.128	165.265	-26.473	-79.928	-73.571	24.035	24.542	-75.137	-70.928	-68.972	-64.011	-15.469	-66.469	-8191	255	
8551.422	1	1	0	0	0.13364	0.24375	0.19191	0.21851	0.12857	0.034507	0.19088	0.29724	0.13121	0.11133	0.11609	0.085737	0.094543	0.16267	0.10351	0.079889	-4.1917	-4.5167	-4.2188	-4.8792	-4.5375	-4.2688	-4.9333	-4.3021	-4.4396	-4.7125	-4.3146	-4.8625	-4.4208	-4.3875	-4.8	-4.4208	-30.800	86.496	145.161	-85.284	104.682	30.595	142.840	261.598	-74.829	-38.553	158.673	55.706	59.157	-87.626	139.559	234.360	0.00056621	0.00044273	0.00026077	581.07	2.5465e-06	5.2597e-06	761.79	222.88	7.3622e-06	1.4758e-05	362.33	152.77	92.256	43.962	6.4285e-06	75.317	0.00089774	0.0009049	0.00024901	570.1	9.777e-06	9.8196e-06	744.01	218.69	9.8456e-06	9.747e-06	353.53	148.66	92.777	42.953	9.9034e-06	72.906	138.852	2.993	-4.014	-79.107	-56.855	-40.500	-79.908	-73.739	225.057	55.305	-75.392	-70.735	-69.186	-63.700	78.134	-66.512	-8191	255	
8551.518	1	1	0	0	0.24736	0.16308	0.09322	0.15336	0.17699	0.27368	0.20938	0.069508	0.21251	0.28877	0.085635	0.075905	0.2005	0.2543	0.088862	0.086999	-4.075	-4.7688	-4.2271	-4.6271	-4.5229	-4.3167	-4.9042	-4.4583	-4.3042	-4.8521	-4.4354	-4.7125	-4.4688	-4.1854	-4.7312	-4.6167	-78.363	-9.630	127.520	185.654	-13.435	221.307	227.294	125.333	243.875	19.858	129.307	206.219	48.494	204.130	-70.257	11.481	0.00031136	0.00070927	4.7934e-05	580.73	5.7673e-06	1.0117e-05	768.65	223.91	4.5457e-06	5.949e-06	363.5	153.76	92.837	44.388	5.91e-06	75.974	0.00088771	0.00089207	0.00024894	571.19	9.6681e-06	9.8146e-06	750.61	219.83	9.7156e-06	9.7889e-06	355.33	149.82	92.96	43.264	9.7778e-06	73.684	149.450	26.000	5.958	-78.807	81.361	-4.483	-80.061	-73.485	-37.380	110.049	-75.443	-70.820	-68.925	-63.598	57.187	-66.316	-8191	255	
8551.614	1	1	0	0	0.2487	0.070175	0.10965	0.20417	0.051443	0.25649	0.04302	0.079871	0.16495	0.097403	0.1204	0.34547	0.047238	0.087292	0.1496	0.21919	-4.0938	-4.8938	-4.1521	-4.5563	-4.6167	-4.1708	-4.9083	-4.4542	-4.1833	-4.8417	-4.3729	-4.5042	-4.675	-4.2396	-4.5333	-4.6271	-25.056	39.035	186.545	264.883	144.197	31.952	248.837	-8.244	139.758	-26.662	-50.053	233.891	-44.167	-44.947	-18.069	243.956	0.00043344	0.00020785	0.00029115	583.51	5.4323e-06	6.9363e-06	775.1	223.74	7.6993e-06	1.3782e-05	366.61	153.58	93.798	44.595	1.4651e-06	76.972	0.00087114	0.00088904	0.00024935	574.98	9.683e-06	9.7596e-06	755.13	220.28	9.8351e-06	9.8795e-06	358.53	150.83	94.059	43.647	1.0082e-05	74.545	128.911	-23.714	-21.270	-79.111	12.607	91.685	-80.260	-73.659	47.493	28.926	-75.248	-70.983	-68.868	-63.776	2.286	-66.586	-8191	255	
8551.735	1	1	0	0	0.21507	0.092327	0.20179	0.086041	0.065271	0.098168	0.10543	0.11788	0.13081	0.14398	0.22902	0.028448	0.14045	0.21303	0.17453	0.24088	-4.0083	-4.7937	-4.3063	-4.6458	-4.7083	-4.2271	-4.8438	-4.5604	-4.1958	-4.9042	-4.4729	-4.4271	-4.8729	-4.2896	-4.5792	-4.7688	239.214	-29.989	220.076	-25.741	-31.378	234.724	229.923	135.868	9.539	94.129	148.364	261.323	62.112	251.800	-66.141	189.075	0.00038459	0.00077086	0.00020901	585.91	7.0407e-06	2.2458e-06	778.68	226.12	1.9075e-06	8.0639e-06	365.99	155.11	93.575	44.845	2.3243e-06	76.283	0.00088081	0.00090939	0.00025054	574.54	9.7438e-06	9.7744e-06	758.01	221.52	9.6171e-06	9.9137e-06	358.78	150.85	94.142	43.914	9.8223e-06	74.159	139.127	59.743	73.137	-78.984	-9.347	68.490	-79.664	-73.772	148.181	75.732	-75.198	-71.119	-68.992	-63.896	-67.738	-66.617	-8191	255	
8551.831	1	1	0	0	0.2085	0.20131	0.071767	0.0746	0.072126	0.26519	0.19596	0.055877	0.13699	0.084538	0.10032	0.091075	0.17197	0.25831	0.14246	0.23462	-3.9604	-4.7937	-4.3438	-4.5292	-4.7583	-4.4042	-4.6646	-4.8458	-4.1167	-4.9354	-4.3854	-4.4833	-5.05	-4.4563	-4.4563	-4.6813	-13.341	201.941	1.365	-67.176	-88.104	148.669	197.813	-86.531	208.258	167.908	259.163	237.473	259.537	226.442	161.226	177.430	0.00051555	0.00084739	0.00020197	583.93	8.1909e-06	6.3913e-06	768.96	225.25	8.455e-06	3.6235e-06	364.07	154.01	93.951	44.952	7.4418e-06	76.109	0.00087483	0.00090057	0.00024909	574.61	9.6173e-06	9.7732e-06	751.83	221.45	9.5532e-06	9.8714e-06	356.26	150.26	94.355	43.899	9.8611e-06	73.775	136.758	96.846	3.302	-79.195	13.376	74.798	-80.078	-73.820	136.814	61.952	-75.327	-70.521	-69.130	-63.657	-8.108	-66.397	-8191	255	
8551.927	1	1	0	0	0.16202	0.075955	0.084188	0.19874	0.15516	0.039399	0.12882	0.18671	0.16849	0.14348	0.22186	0.088282	0.18792	0.18812	0.21335	0.12944	-3.8646	-4.7292	-4.4417	-4.4417	-4.7729	-4.4292	-4.7292	-4.7792	-4.1979	-4.6375	-4.5833	-4.2854	-4.7958	-4.4792	-4.6062	-4.8604	-15.113	87.378	233.317	248.546	153.646	3.292	232.424	190.825	126.605	251.386	130.465	37.917	-74.656	255.101	-30.957	208.919	0.00040673	0.0012053	9.0045e-05	585.3	6.3059e-06	1.2978e-06	773.04	224.84	7.7488e-06	7.754e-06	365.23	153.91	93.052	44.287	5.9673e-06	75.975	0.00085685	0.00090764	0.00024867	574.81	9.6166e-06	9.8484e-06	751.52	220.77	9.6833e-06	9.9312e-06	356.04	149.86	93.446	43.42	9.8883e-06	73.597	154.674	-13.521	13.219	-78.988	18.496	145.235	-79.845	-73.544	29.854	30.168	-75.160	-71.048	-69.268	-64.048	-49.174	-66.459	-8191	255	
8552.023	1	1	0	0	0.1962	0.081811	0.28516	0.1446	0.083646	0.17243	0.056966	0.096528	0.18835	0.35155	0.18067	0.32653	0.20231	0.12944	0.24346	0.075641	-3.6396	-4.6208	-4.4833	-4.2896	-4.8917	-4.1562	-4.5771	-4.9771	-4.2104	-4.4354	-4.7417	-4.3333	-4.7375	-4.4563	-4.4396	-4.8542	115.590	62.746	201.032	222.137	233.459	211.241	-45.816	186.005	155.423	-60.483	-46.398	268.190	221.963	195.300	184.205	47.549	0.00046779	0.00082254	0.00021193	583.72	5.6052e-06	4.236e-06	772.24	224.58	4.7514e-06	1.5083e-05	364.59	153.15	93.254	44.172	1.1356e-07	75.894	0.00087168	0.00090289	0.0002469	571.72	9.7182e-06	9.7948e-06	750.67	219.94	9.5396e-06	9.7787e-06	356	149.81	93.515	43.459	9.7566e-06	73.691	139.165	-33.159	-49.984	-79.482	66.104	220.197	-80.025	-73.532	15.094	20.883	-75.399	-70.937	-68.733	-63.831	65.868	-66.574	-8191	255	
8552.118	1	1	0	0	0.15802	0.15118	0.14	0.24996	0.052575	0.10498	0.23367	0.29605	0.12939	0.0051129	0.14355	0.042927	0.20023	0.20142	0.23517	0.10213	-3.925	-4.5958	-4.6146	-4.1875	-4.8313	-4.575	-4.5521	-4.8646	-4.1188	-4.6937	-4.8083	-4.1625	-4.6792	-4.575	-4.3083	-4.9854	236.845	92.806	-81.796	-71.902	211.455	-43.707	223.989	238.410	93.609	-26.824	161.880	238.798	265.631	148.051	90.525	-64.187	0.00031723	0.00094487	0.00013343	585.24	1.7265e-06	2.7768e-06	771.14	223.93	9.4667e-06	1.1335e-05	363.94	152.06	91.587	44.269	1.0218e-05	76.127	0.00087407	0.00090828	0.00024824	570.87	9.8079e-06	9.7637e-06	750.54	219.55	9.7408e-06	9.9733e-06	355.87	149.59	93.056	43.423	9.6923e-06	73.825	136.035	253.682	121.979	-79.035	-74.997	41.793	-79.873	-73.388	27.001	49.296	-75.027	-70.811	-69.262	-63.813	-2.354	-66.346	-8191	255	
8552.214	1	1	0	0	0.16775	0.18488	0.032968	0.15672	0.089525	0.12489	0.33726	0.18811	0.082584	0.096589	0.1956	0.025414	0.072932	0.08603	0.23181	0.039239	-3.9292	-4.4521	-4.725	-4.2979	-4.5167	-4.5292	-4.3479	-4.7271	-4.3688	-4.4125	-4.7875	-4.2896	-4.6833	-4.6229	-4.2167	-4.7625	96.525	-48.997	217.434	264.202	-87.520	40.943	222.481	-90.676	83.952	116.211	-42.052	27.226	212.729	-88.457	-11.786	126.990	0.00046286	0.00045836	0.00013856	580.64	6.8031e-06	5.8772e-06	763.97	224	1.3451e-06	8.4579e-06	363.73	152.04	92.682	44.543	1.0099e-05	75.655	0.00087654	0.00090762	0.00024856	568.86	9.8082e-06	9.7986e-06	744.7	219.25	9.7291e-06	9.7654e-06	354.46	148.86	93.24	43.562	9.7238e-06	73.428	138.428	227.092	-25.638	-79.040	89.499	48.223	-79.713	-73.657	59.593	165.224	-75.321	-70.790	-69.264	-64.040	-2.429	-66.563	-8191	255	
8552.310	1	1	0	0	0.20853	0.055271	0.075497	0.091028	0.14301	0.097024	0.17042	0.18129	0.11934	0.053276	0.070588	0.14644	0.30771	0.028869	0.069384	0.18206	-3.9354	-4.4125	-4.9812	-4.3042	-4.6021	-4.5104	-4.3	-4.6833	-4.3729	-4.4604	-4.8604	-4.4187	-4.6896	-4.7312	-3.9938	-4.9917	201.464	-30.459	57.961	256.006	-6.556	64.515	237.986	235.022	-38.191	115.230	186.306	0.463	240.549	-17.573	-21.586	249.728	0.00027786	0.0013236	0.00036206	578.27	1.8472e-06	3.8482e-06	755.2	221.9	1.1485e-05	7.8929e-06	358.37	150.94	91.362	43.865	8.2615e-06	74.548	0.00088339	0.00090317	0.00024936	566.34	9.9064e-06	9.7816e-06	737.89	217.58	9.8476e-06	9.9305e-06	350.62	147.26	92.316	42.924	9.9772e-06	72.568	143.122	17.432	8.798	-78.990	190.732	17.589	-79.899	-73.611	60.812	15.463	-75.401	-70.839	-69.082	-63.656	26.777	-66.488	-8191	255	
8552.431	1	1	0	0	0.078492	0.32455	0.095037	0.21085	0.052785	0.19145	0.1381	0.12288	0.067292	0.10115	0.14473	0.090789	0.15664	0.10093	0.20691	0.19551	-3.9458	-4.0938	-4.8521	-4.1479	-4.5667	-4.525	-4.0896	-4.7833	-4.425	-4.1771	-4.8688	-4.3187	-4.4688	-4.5979	-4.1875	-4.7708	-89.376	-60.662	78.641	249.475	147.058	45.392	200.260	234.743	-44.149	-22.116	244.761	256.006	261.011	1.579	-71.127	-6.577	0.00050793	0.00081197	0.00013009	569.04	5.2393e-06	5.4576e-06	749.33	218.18	7.8703e-06	3.8444e-06	355.28	148.86	90.136	43.156	5.5989e-06	74.383	0.00090271	0.00092323	0.00025427	559.61	1.0041e-05	9.9944e-06	733.02	215.17	1.0035e-05	1.0058e-05	348.54	146.03	91.082	42.3	1.0141e-05	72.22	144.538	40.655	29.096	-79.018	136.004	51.152	-79.807	-73.584	262.629	42.618	-75.148	-70.728	-69.363	-63.991	110.644	-66.362	-8191	255	
8552.502	1	1	0	0	0.22671	0.16485	0.12793	0.14303	0.020297	0.038478	0.1546	0.20456	0.14688	0.086866	0.22497	0.27715	0.14287	0.2041	0.21322	0.19691	-4.2688	-4.2708	-4.8354	-4.4708	-4.4708	-4.725	-4.175	-4.6583	-4.5583	-4.3292	-4.7146	-4.4833	-4.4333	-4.7375	-4.1271	-4.8271	181.665	49.259	-54.747	91.249	262.301	204.781	-70.385	243.593	-44.680	52.460	-63.661	210.947	157.234	256.353	-27.471	-39.556	0.00030708	0.00076206	0.00019956	564.44	5.3724e-06	8.7922e-06	746.13	217.62	1.3354e-06	9.0428e-06	356.17	149.33	89.62	43.387	8.836e-06	74.425	0.00091067	0.00091866	0.0002594	555.17	1.0164e-05	9.9236e-06	730.87	214.04	9.9381e-06	9.9992e-06	348.98	146.55	90.721	42.471	9.9642e-06	72.523	159.454	38.095	-45.289	-78.856	-42.541	111.055	-80.035	-73.613	37.591	123.852	-75.495	-71.106	-68.997	-63.883	22.942	-66.450	-8191	255	
8552.598	1	1	0	0	0.1149	0.11071	0.079293	0.090549	0.17429	0.16221	0.16148	0.14085	0.045123	0.14959	0.13073	0.041622	0.13405	0.068606	0.34149	0.081011	-4.3562	-4.1917	-4.7729	-4.3979	-4.2729	-4.8208	-4.3625	-4.7271	-4.7312	-4.1125	-4.9479	-4.5417	-4.3292	-4.8833	-4.4125	-4.6625	155.520	104.299	152.417	61.368	64.689	266.329	55.697	26.512	148.745	-59.117	135.402	131.865	126.072	218.720	-76.254	255.283	0.00049427	0.00059638	4.4646e-05	568.31	3.3755e-06	8.2529e-06	752.17	219.47	1.9785e-06	5.2611e-06	360.88	150.46	90.864	43.684	1.2417e-06	74.726	0.00089251	0.00091951	0.00025876	558.17	1.0096e-05	9.9737e-06	734.04	215.69	9.9631e-06	1.0008e-05	351.76	147.34	91.611	42.824	1.0174e-05	72.936	148.939	-14.233	-10.099	-79.195	47.682	42.324	-80.215	-73.681	262.503	66.724	-75.392	-70.967	-68.556	-63.532	154.463	-66.420	-8191	255	
8552.694	1	1	0	0	0.069655	0.080755	0.06715	0.044029	0.19906	0.2117	0.27342	0.26135	0.023628	0.083413	0.082964	0.27993	0.15919	0.20358	0.22172	0.15053	-4.4875	-4.2354	-4.6417	-4.6729	-4.1521	-4.7104	-4.3771	-4.5146	-4.8146	-4.2562	-4.7562	-4.5042	-4.3917	-4.825	-4.4812	-4.5979	59.895	-47.842	38.707	-11.902	73.691	5.715	122.003	207.578	-81.878	78.831	215.321	231.273	15.141	231.561	-39.979	208.058	0.00035369	0.00042823	0.00030495	565.97	8.6228e-06	5.6964e-06	745.48	220.25	5.9247e-06	3.5902e-06	357.13	150.55	91.088	43.503	1.5343e-06	75.108	0.00090433	0.00092501	0.0002615	557.3	9.9306e-06	1.0266e-05	730.19	216.3	1.0081e-05	1.0163e-05	349.32	147.16	91.956	42.83	1.0156e-05	72.706	147.815	6.157	18.019	-79.084	-60.950	105.534	-79.977	-73.556	31.671	63.992	-75.528	-71.369	-69.009	-63.673	78.065	-66.479	-8191	255	
8552.815	1	1	0	0	0.25633	0.24336	0.16985	0.024402	0.13109	0.097424	0.16512	0.26422	0.087665	0.17667	0.22366	0.12338	0.10515	0.15811	0.19732	0.28157	-4.3875	-4.2708	-4.5792	-4.5458	-4.1292	-4.7896	-4.4313	-4.4375	-4.7042	-4.2646	-4.5646	-4.7771	-4.2104	-4.6875	-4.3604	-4.2917	118.232	-40.236	2.293	75.071	2.724	112.323	228.730	185.484	111.749	-6.253	226.739	84.820	-13.954	204.700	21.176	175.354	0.00039491	0.00037884	0.00012725	569.08	3.2432e-06	4.8137e-06	745.61	220.2	3.5294e-06	1.028e-05	353.72	150.04	90.931	43.709	7.2366e-06	74.33	0.00090737	0.00093109	0.00026401	558.01	9.9669e-06	1.0155e-05	728.48	216.08	9.9886e-06	1.003e-05	348.84	147.14	91.956	42.961	1.0122e-05	72.34	115.708	189.768	-28.244	-78.932	-3.955	180.872	-79.982	-73.275	170.038	187.974	-75.344	-70.891	-68.824	-63.667	-25.191	-66.566	-8191	255	
8552.911	1	1	0	0	0.10283	0.067363	0.22958	0.1414	0.066127	0.15234	0.23906	0.10641	0.065153	0.11187	0.084339	0.1725	0.012571	0.29116	0.18374	0.28405	-4.5312	-4.1875	-4.5979	-4.7042	-4.1083	-4.7875	-4.5042	-4.4313	-4.7438	-4.3125	-4.6375	-4.7562	-4.1875	-4.7188	-4.4292	-4.2521	48.363	226.749	8.786	-27.553	-12.948	153.941	162.910	166.721	124.614	105.921	100.859	-67.870	168.755	261.043	-86.799	264.309	0.00037777	0.001152	1.7696e-05	566.86	4.2504e-06	2.2266e-06	746.13	219.08	8.9321e-06	6.296e-06	356.24	149.45	90.655	43.633	5.4089e-06	74.237	0.00090115	0.00091772	0.00026329	556.89	9.9246e-06	1.0213e-05	730.3	215.84	1.0059e-05	1.0113e-05	348.76	146.69	91.621	42.669	1.0311e-05	72.318	131.695	6.746	-23.973	-79.046	52.606	74.271	-79.808	-73.512	92.218	103.776	-75.543	-70.829	-68.681	-63.823	80.625	-66.519	-8191	255	
8553.007	1	1	0	0	0.097937	0.20458	0.099351	0.16081	0.14409	0.26359	0.030867	0.26997	0.015522	0.16572	0.30487	0.078689	0.24686	0.19542	0.043284	0.31511	-4.4437	-4.175	-4.5292	-4.9125	-4.0833	-4.6125	-4.6792	-4.2708	-4.8167	-4.3271	-4.5188	-4.9521	-4.3063	-4.6813	-4.5917	-4.2708	-58.199	-89.733	163.757	263.311	203.539	107.259	126.104	165.880	36.096	189.890	123.671	162.106	-43.738	-11.479	-6.784	251.622	0.0003427	0.00074048	0.00013902	560.97	5.1206e-07	5.3504e-06	746.89	217.76	6.5916e-06	1.0483e-05	354.64	149.31	90.369	43.237	7.4803e-06	74.549	0.00090701	0.00093543	0.00026252	553.56	1.0044e-05	1.0411e-05	729.59	214.78	1.032e-05	1.0308e-05	349.31	146.83	91.528	42.538	1.0245e-05	72.452	126.993	-56.584	75.884	-78.809	-12.771	90.726	-79.855	-73.271	70.148	57.952	-75.476	-70.611	-69.494	-63.715	6.064	-66.507	-8191	255	
8553.126	1	1	0	0	0.16079	0.25212	0.067436	0.099594	0.12482	0.10643	0.036856	0.097029	0.2246	0.31095	0.033913	0.14246	0.060836	0.087239	0.2311	0.092706	-4.6375	-4.3562	-4.3792	-4.7479	-4.1542	-4.55	-4.6937	-4.2708	-4.6542	-4.3125	-4.5188	-4.8271	-4.3146	-4.7375	-4.6833	-4.3771	253.685	86.582	97.114	243.958	160.995	140.300	104.430	246.810	263.310	-61.158	143.175	-6.881	185.982	-77.507	145.516	67.758	0.00040591	0.00034482	0.00018377	560.64	2.5891e-06	8.7549e-06	745.9	218.06	1.0651e-05	1.253e-05	357.54	150.51	90.661	43.71	1.1443e-05	75.07	0.00092272	0.00093222	0.00026519	552.79	1.0154e-05	1.0414e-05	732.22	214.95	1.0337e-05	1.0279e-05	351.35	147.66	91.648	42.725	1.0063e-05	72.812	149.357	-42.643	141.106	-78.999	221.892	30.984	-79.899	-73.380	-10.490	-15.620	-75.575	-70.757	-69.240	-63.853	82.083	-66.499	-8191	255	
8553.198	1	1	0	0	0.053942	0.091296	0.10353	0.26575	0.084331	0.027308	0.22268	0.019083	0.1071	0.12117	0.14914	0.1945	0.25324	0.1732	0.25017	0.17024	-4.5292	-4.5333	-4.2917	-4.9625	-4.3229	-4.4979	-4.9604	-4.4354	-4.6271	-4.4958	-4.4396	-4.95	-4.3146	-4.6292	-4.975	-4.4021	23.409	88.193	160.928	-53.663	130.462	179.690	171.478	-56.136	41.200	-26.236	227.008	204.104	140.752	-90.639	159.503	152.550	0.00035459	0.001172	0.00018574	569.96	1.6863e-06	5.9411e-06	748.21	220.89	6.4978e-06	4.6309e-06	356.75	150.02	91.261	43.315	3.2491e-06	74.239	0.00090744	0.0009231	0.00025568	558.65	9.9381e-06	1.0038e-05	733.7	215.92	9.886e-06	9.8731e-06	349.61	146.54	91.155	42.504	9.7335e-06	72.056	138.331	-33.893	-65.186	-79.126	87.718	6.113	-80.056	-73.610	-48.156	158.650	-75.363	-70.793	-68.898	-63.645	230.178	-66.239	-8191	255	
8553.296	1	1	0	0	0.11939	0.029144	0.20509	0.18663	0.25163	0.2412	0.081191	0.14984	0.080414	0.24783	0.28577	0.13148	0.24588	0.28694	0.23931	0.10789	-4.1792	-4.5646	-4.1292	-4.9313	-4.3854	-4.475	-4.9	-4.2854	-4.6417	-4.6583	-4.3021	-4.8917	-4.5021	-4.4958	-4.7021	-4.3313	73.853	-73.645	149.663	227.129	144.794	253.709	212.266	204.068	109.236	128.886	179.525	26.394	-61.555	-27.892	166.364	200.215	0.00048419	0.00074011	0.00017403	571.51	7.2176e-06	4.2826e-06	748.06	217.43	6.3847e-06	5.1391e-06	358.61	148.18	89.962	43.073	5.4909e-06	73.796	0.00088791	0.00089133	0.00024933	561.13	9.8035e-06	9.9733e-06	729.97	214.22	9.8502e-06	9.8066e-06	347.78	145.33	90.48	42.23	9.7472e-06	71.693	124.818	81.650	27.054	-79.136	66.621	85.185	-79.945	-73.359	19.139	68.300	-75.454	-70.803	-69.429	-63.605	101.285	-66.419	-8191	255	
8553.415	1	1	0	0	0.1636	0.061282	0.14439	0.05041	0.11021	0.1794	0.059321	0.21811	0.19658	0.084546	0.11434	0.075621	0.19782	0.28329	0.22548	0.017397	-4.2021	-4.6562	-4.2646	-4.8646	-4.4354	-4.2958	-4.8375	-4.4417	-4.5104	-4.5708	-4.2646	-4.8292	-4.5083	-4.4354	-4.6833	-4.3729	-3.351	-71.739	-18.259	231.377	189.265	-51.108	-22.276	191.253	241.767	-15.825	-71.462	240.398	212.559	207.462	-17.085	-73.293	0.00039692	0.00092062	3.8508e-05	567.78	1.0247e-06	1.018e-05	748.96	216.3	2.7116e-06	6.1286e-06	352.98	148.08	89.401	42.606	3.9789e-06	73.447	0.00087467	0.00088456	0.00025023	558.44	9.7596e-06	9.7604e-06	730.52	213.34	9.7505e-06	9.7046e-06	345.37	145.06	89.961	41.838	9.7983e-06	71.389	135.692	6.500	121.130	-79.092	0.756	34.523	-80.071	-73.360	84.677	6.316	-75.200	-70.839	-69.291	-63.757	-30.910	-66.423	-8191	255	
8553.511	1	1	0	0	0.12718	0.066786	0.099071	0.27628	0.10657	0.014314	0.082899	0.12788	0.25418	0.17762	0.23507	0.14713	0.077123	0.20028	0.2114	0.039759	-4.2667	-4.6729	-4.1854	-4.7229	-4.5708	-4.1042	-4.8	-4.3479	-4.6438	-4.7667	-4.0563	-4.6687	-4.9271	-4.1625	-4.8125	-4.5188	189.914	30.751	247.799	258.280	-31.970	-13.149	33.865	-34.492	248.687	121.874	131.239	119.801	194.526	180.292	217.089	141.866	0.0004621	0.00027184	0.00011356	565.64	4.2452e-06	1.0748e-05	748.69	216.52	5.9602e-06	3.7771e-06	353.42	147.67	88.884	42.699	9.4394e-06	73.754	0.00088234	0.00088367	0.00024561	557.82	9.6689e-06	9.7813e-06	731	213.32	9.7824e-06	9.753e-06	346.3	144.94	89.617	41.831	9.8163e-06	71.41	144.483	-91.320	175.816	-78.987	-35.105	62.183	-80.042	-73.539	72.366	98.153	-75.133	-70.774	-69.155	-63.735	8.930	-66.492	-8191	255	
8553.607	1	1	0	0	0.24944	0.12078	0.13605	0.2084	0.056346	0.065543	0.14794	0.154	0.04847	0.021842	0.15966	0.25163	0.099246	0.13866	0.22636	0.1499	-3.9958	-4.7542	-4.1854	-4.7312	-4.5958	-4.2417	-4.9396	-4.5396	-4.3583	-4.9604	-4.2771	-4.625	-4.6562	-4.225	-4.7917	-4.5604	-37.923	256.220	220.691	150.537	38.446	-53.028	176.554	204.562	-81.776	251.787	-74.723	94.998	21.281	-90.024	80.915	246.300	0.00047161	0.00074579	9.9998e-05	568.59	2.878e-06	9.088e-06	752.79	217.12	9.6579e-06	1.0021e-05	355.94	149.65	89.585	42.648	7.0149e-06	74.162	0.00086907	0.00088307	0.00024676	557.78	9.7195e-06	9.6306e-06	734.61	212.72	9.5583e-06	9.621e-06	347.98	145.47	89.726	41.767	9.6672e-06	71.73	138.315	-35.145	4.515	-78.988	-76.703	22.784	-79.982	-73.505	0.355	18.200	-75.303	-70.842	-68.813	-63.629	60.041	-66.190	-8191	255	
8553.728	1	1	0	0	0.09884	0.10499	0.15579	0.11368	0.16848	0.091462	0.35082	0.15374	0.073778	0.1744	0.1144	0.10892	0.14882	0.18736	0.1631	0.24788	-3.9146	-4.725	-4.2833	-4.6813	-4.6	-4.1896	-4.8146	-4.6813	-4.2396	-4.8208	-4.4521	-4.5958	-4.8417	-4.4396	-4.6042	-4.5896	211.822	145.632	188.691	235.517	99.831	191.719	259.772	-56.496	129.999	166.868	16.171	-28.121	197.771	154.513	182.213	234.885	0.00024937	0.00028517	0.00026325	577.5	4.3878e-06	5.5585e-06	759.65	217.19	4.7433e-06	1.4964e-05	356.84	148.38	88.941	43.059	3.0247e-06	73.799	0.00085839	0.00086862	0.00023991	567.27	9.3462e-06	9.4316e-06	740.94	213.89	9.2192e-06	9.4266e-06	347.85	144.9	89.074	41.954	9.4273e-06	71.56	124.917	249.663	33.183	-79.229	26.788	-2.913	-79.984	-73.618	21.987	15.316	-75.366	-70.885	-68.732	-63.617	182.010	-66.202	-8191	255	
8553.799	1	1	0	0	0.24824	0.15269	0.050345	0.24477	0.11812	0.22881	0.12817	0.18572	0.2313	0.1469	0.15437	0.2204	0.04189	0.23134	0.23455	0.10807	-4.0062	-4.9208	-4.3604	-4.4646	-4.7937	-4.2479	-4.85	-4.7354	-4.2375	-4.875	-4.5708	-4.4625	-4.8208	-4.3688	-4.5563	-4.7896	-89.826	7.147	-28.309	192.955	129.422	122.496	55.169	161.273	118.139	-85.203	-72.453	229.987	34.792	249.803	169.824	-51.714	0.00045793	2.5096e-05	5.7775e-05	579.92	6.982e-06	8.506e-06	763.78	217.87	5.5276e-06	1.4144e-05	354.75	145.69	88.781	42.669	3.6525e-06	73.802	0.00083584	0.00085097	0.00023878	568.61	9.2631e-06	9.326e-06	741.36	213.76	9.1582e-06	9.3109e-06	346.54	143.68	89.203	41.874	9.3956e-06	71.512	152.401	-1.402	-44.613	-79.270	40.475	45.691	-79.842	-73.379	-8.350	96.755	-75.631	-70.863	-68.940	-63.638	136.566	-66.252	-8191	255	
8553.895	1	1	0	0	0.041768	0.24763	0.14109	0.2081	0.035382	0.05014	0.13239	0.071165	0.15726	0.11079	0.088159	0.18122	0.13542	0.079679	0.062399	0.13469	-3.9583	-4.8021	-4.3708	-4.3896	-4.8146	-4.2771	-4.8063	-4.8729	-4.1917	-4.8542	-4.6208	-4.3063	-4.9083	-4.45	-4.5167	-4.8667	45.641	-48.078	257.255	242.472	136.718	-26.549	214.146	65.683	101.727	192.578	-90.101	113.387	114.045	149.840	-39.612	220.914	0.00052217	0.00051195	0.00022398	577.14	7.7662e-06	3.2926e-06	758.16	218.96	6.6611e-06	6.1272e-06	356.69	148.13	89.332	43.261	1.8303e-06	74.575	0.00083813	0.00087085	0.00024106	569.47	9.3437e-06	9.3951e-06	741.83	214.42	9.3284e-06	9.4938e-06	348.34	145.51	89.766	42.318	9.4736e-06	72.327	133.154	-34.762	-11.368	-78.808	18.732	64.200	-79.834	-73.677	-37.396	50.699	-75.403	-70.742	-69.306	-63.913	254.672	-66.379	-8191	255	
8553.992	1	1	0	0	0.15758	0.29101	0.11619	0.060356	0.13339	0.019252	0.038019	0.18234	0.14563	0.10253	0.15098	0.064895	0.14223	0.035851	0.15015	0.2035	-3.9167	-4.7917	-4.4458	-4.3708	-4.7167	-4.3063	-4.6354	-4.8167	-4.1229	-4.8604	-4.6042	-4.2375	-4.9021	-4.4125	-4.3833	-4.8875	123.784	28.499	136.769	151.244	148.913	63.058	130.189	-71.920	194.005	240.145	194.426	229.999	35.777	233.538	-55.012	259.466	0.0005445	0.00035858	0.00020899	582.22	9.3315e-07	4.4262e-06	765.19	219.46	8.7669e-06	4.8888e-06	360.73	150.02	90.612	43.524	8.2463e-07	75.001	0.00084318	0.0008911	0.0002424	570.13	9.5852e-06	9.5942e-06	745.28	215.86	9.5648e-06	9.8246e-06	351.53	147.01	91.141	42.707	9.7218e-06	72.789	146.345	99.407	52.362	-79.115	45.802	115.531	-79.800	-73.597	22.947	84.755	-75.301	-71.023	-68.642	-63.929	132.630	-66.308	-8191	255	
8554.111	1	1	0	0	0.19444	0.23931	0.21042	0.19644	0.14722	0.15187	0.090611	0.24959	0.17435	0.098179	0.14381	0.077723	0.09422	0.21423	0.024273	0.12379	-3.8042	-4.6896	-4.5708	-4.1833	-4.9125	-4.3271	-4.4771	-4.6937	-4.1271	-4.5938	-4.6854	-4.3792	-4.7792	-4.3833	-4.3771	-4.8333	212.412	-4.028	-54.870	228.048	148.360	243.177	51.630	202.150	110.805	71.509	226.444	3.599	-7.536	259.577	-73.456	162.740	0.00047287	0.00054089	0.00028566	580.13	8.5012e-06	1.6756e-06	765.84	221.56	4.3352e-06	2.4997e-06	362.35	152.01	90.652	44.033	3.3364e-06	75.476	0.00085256	0.00089328	0.00024642	570.34	9.6412e-06	9.5939e-06	748.78	217.81	9.6295e-06	9.7279e-06	353.78	147.87	91.624	43.069	9.6008e-06	73.31	132.439	20.845	-12.797	-79.077	19.813	-8.624	-79.958	-73.593	10.752	158.768	-75.489	-70.838	-68.937	-63.795	-70.540	-66.400	-8191	255	
8554.207	1	1	0	0	0.27082	0.13798	0.07796	0.24835	0.19534	0.10421	0.24869	0.25682	0.058216	0.03003	0.11429	0.21814	0.13114	0.23045	0.19872	0.2511	-3.8667	-4.7	-4.7021	-4.2083	-4.6062	-4.4646	-4.4313	-4.9104	-4.3812	-4.5583	-4.7583	-4.1771	-4.6708	-4.7375	-4.2417	-4.8021	262.131	-38.633	240.036	26.512	112.449	70.755	253.291	216.899	172.273	-64.284	209.110	185.311	141.835	258.083	179.603	197.701	0.00037873	0.00082696	0.00026955	586.03	4.0156e-06	2.5546e-06	768.98	221.92	4.3316e-06	1.1696e-05	363.22	151.03	90.781	44.274	5.268e-06	75.548	0.00085988	0.00088554	0.00024296	575.01	9.5387e-06	9.5325e-06	749.66	217.84	9.3844e-06	9.4563e-06	352.68	147.3	91.356	43.116	9.3757e-06	73.056	128.735	-22.971	-32.715	-78.983	96.674	-2.317	-79.682	-73.538	239.133	41.338	-75.228	-70.857	-68.947	-63.584	45.840	-66.184	-8191	255	
8554.303	1	1	0	0	0.15795	0.087735	0.14307	0.11401	0.14206	0.17421	0.20298	0.071733	0.12749	0.097768	0.19936	0.16	0.15829	0.26876	0.20443	0.28501	-4.0188	-4.4479	-4.8792	-4.2833	-4.5458	-4.5938	-4.2188	-4.9688	-4.2979	-4.4187	-5.0021	-4.2479	-4.5979	-4.7771	-4.2542	-4.95	154.354	246.789	-19.744	-71.980	215.426	-61.786	169.036	187.925	37.531	202.134	-8.159	199.287	199.333	218.386	-76.047	-59.767	0.00047409	0.0003695	0.00013373	584.55	2.9435e-06	4.315e-06	761.46	220.59	9.4785e-06	2.2472e-06	360.82	150.09	90.956	43.83	6.8637e-06	74.941	0.00084278	0.00087238	0.00024351	574.97	9.4602e-06	9.5561e-06	743.78	217.14	9.5658e-06	9.5841e-06	350.44	146.52	91.294	42.831	9.5334e-06	72.765	145.216	-3.946	-68.866	-79.270	54.550	72.612	-80.044	-73.482	79.017	-22.630	-75.214	-70.744	-69.051	-63.932	128.585	-66.209	-8191	255	
8554.399	1	1	0	0	0.15907	0.090135	0.19815	0.16649	0.185	0.47106	0.20256	0.036581	0.19638	0.096075	0.1427	0.16028	0.047658	0.25489	0.21599	0.041528	-4.075	-4.4187	-4.8521	-4.2917	-4.7125	-4.6833	-4.3688	-5	-4.5542	-4.2583	-4.8667	-4.3729	-4.6125	-4.7458	-4.175	-4.825	13.550	58.161	-22.971	-72.587	216.791	64.314	247.248	216.458	240.272	48.211	-68.508	107.134	85.726	165.546	100.876	190.395	0.00044694	0.00045214	0.00025399	581.62	7.5782e-06	1.0147e-05	760.28	221.14	3.8415e-06	1.1791e-05	359.27	149.36	90.46	43.571	7.3583e-06	74.48	0.00086742	0.000874	0.00024598	570.43	9.6999e-06	9.6748e-06	741	216.2	9.7236e-06	9.7542e-06	349.98	146.81	91.106	42.613	9.6428e-06	72.569	144.690	169.487	-33.641	-79.285	50.907	59.137	-80.092	-73.276	21.401	45.795	-75.430	-70.978	-69.099	-63.597	39.534	-66.446	-8191	255	
8554.495	1	1	0	0	0.062049	0.16456	0.16757	0.06429	0.1813	0.083566	0.024216	0.16728	0.16179	0.16922	0.085496	0.082826	0.090134	0.08555	0.15706	0.17061	-4.1542	-4.3562	-4.8313	-4.4229	-4.5479	-4.8083	-4.2729	-4.7792	-4.5292	-4.4521	-4.925	-4.3125	-4.4563	-4.9146	-4.2958	-4.7896	120.243	-51.341	194.962	195.711	59.434	-68.846	-15.924	256.722	-0.363	187.049	65.206	262.662	-31.442	-55.411	-65.534	163.184	0.00039977	0.0005446	0.00040175	577.97	3.2519e-06	6.1325e-06	754.5	219.04	4.3852e-06	9.3079e-06	356.38	149.48	89.935	43.436	2.2042e-06	74.559	0.00086858	0.00087817	0.00024854	566.98	9.7253e-06	9.7453e-06	737.47	214.8	9.6986e-06	9.7645e-06	348.86	146.12	90.742	42.484	9.8319e-06	72.485	113.319	-17.029	8.577	-79.160	29.836	123.532	-79.793	-73.371	55.338	16.691	-75.237	-70.827	-69.011	-63.614	-29.572	-66.364	-8191	255	
8554.591	1	1	0	0	0.25904	0.10743	0.25156	0.29021	0.10472	0.14677	0.08426	0.1917	0.11923	0.038352	0.13937	0.27151	0.13629	0.095837	0.013686	0.10167	-4.1062	-4.1438	-4.8583	-4.4	-4.4896	-4.7167	-4.275	-4.675	-4.6083	-4.2812	-4.9104	-4.5708	-4.4792	-4.8271	-4.4	-4.675	-30.262	91.293	176.627	253.150	230.632	221.109	-60.674	198.158	-6.243	224.959	245.201	203.787	-66.491	50.707	132.704	-63.143	0.00039884	0.00028643	0.00020165	573.78	5.9327e-06	5.5468e-06	759.91	219.67	5.1556e-06	1.2285e-05	358.43	149.32	89.94	43.53	3.1845e-06	75.354	0.00088905	0.00089202	0.00024823	565.91	9.75e-06	9.7909e-06	738.74	215.81	9.7148e-06	9.721e-06	349.92	146.57	90.797	42.67	9.5958e-06	72.959	139.643	-22.791	-12.283	-78.953	25.592	35.103	-79.969	-73.446	-47.817	66.634	-75.501	-70.742	-68.915	-63.550	-0.750	-66.357	-8191	255	
8554.687	1	1	0	0	0.042086	0.24834	0.13115	0.053292	0.089631	0.11293	0.069527	0.11967	0.39112	0.083018	0.055058	0.08123	0.19746	0.17191	0.18734	0.20794	-4.4708	-4.2375	-4.7458	-4.4083	-4.3688	-4.7958	-4.5104	-4.6958	-4.5521	-4.0542	-4.7625	-4.5687	-4.0813	-4.8875	-4.2604	-4.6896	112.770	18.319	-39.108	-89.487	-49.227	254.537	241.741	246.634	87.975	-70.621	235.484	129.210	236.034	-76.224	-13.880	199.042	0.0005091	0.00052769	0.00030273	580.22	7.4248e-06	9.7128e-06	761.14	220.73	5.2766e-06	7.7337e-06	359.11	150.27	90.146	43.634	1.9226e-06	75.103	0.00087813	0.00089386	0.00024698	569.62	9.5831e-06	9.7312e-06	742.16	216.77	9.6352e-06	9.5791e-06	350.78	146.64	90.916	42.826	9.6421e-06	72.846	156.317	-52.979	24.424	-78.717	-30.671	79.253	-79.759	-73.570	-2.908	34.542	-75.671	-71.060	-69.041	-63.817	200.198	-66.176	-8191	255	
8554.808	1	1	0	0	0.11685	0.048435	0.10684	0.15975	0.19567	0.091219	0.070545	0.11159	0.21518	0.15319	0.29056	0.17519	0.10545	0.16466	0.027653	0.071842	-4.3125	-4.1229	-4.6167	-4.6104	-4.375	-4.8771	-4.4292	-4.3688	-4.8042	-4.1083	-4.6354	-4.5958	-4.2625	-5.0188	-4.2583	-4.4729	201.025	129.527	266.881	171.332	-37.335	112.949	224.531	213.592	68.129	21.742	163.952	98.348	-5.642	86.092	14.252	135.693	0.0004232	0.00087334	2.4193e-05	579.68	4.0779e-06	7.361e-06	756.13	220.68	7.848e-06	5.2667e-06	358.79	148.3	89.675	43.454	8.2609e-06	74.675	0.00085951	0.00087316	0.00025009	570.15	9.5796e-06	9.6414e-06	740.16	216.26	9.567e-06	9.521e-06	349.2	145.85	90.639	42.635	9.7371e-06	72.536	148.485	-17.181	182.111	-78.933	-80.294	-43.536	-79.779	-73.545	64.028	46.428	-75.243	-70.863	-68.979	-63.743	5.462	-66.220	-8191	255	
8554.902	1	1	0	0	0.22163	0.092835	0.087794	0.16416	0.16852	0.052753	0.43105	0.11156	0.13372	0.10366	0.23953	0.077903	0.17047	0.093255	0.15012	0.15371	-4.4187	-4.2917	-4.4896	-4.7312	-4.0396	-4.5729	-4.4646	-4.3458	-4.6542	-4.1813	-4.7146	-4.8417	-4.1375	-4.8583	-4.5	-4.4104	-22.147	-6.300	64.923	103.892	265.485	192.156	205.340	115.359	-81.026	11.737	224.810	238.119	80.665	161.424	121.673	122.140	0.00050215	0.00079653	0.00031596	583.14	3.1208e-06	2.9057e-06	761.43	219.91	7.9937e-06	1.4047e-06	357.03	149.06	89.33	43.299	6.0005e-06	74.63	0.00086704	0.00088687	0.00025317	570.2	9.4644e-06	9.7871e-06	738.79	215.74	9.6516e-06	9.6877e-06	348.46	145.54	90.164	42.43	9.7927e-06	72.311	127.121	4.693	-5.758	-78.828	53.901	22.948	-79.760	-73.530	-2.635	111.994	-75.425	-70.728	-69.127	-63.648	3.512	-66.374	-8191	255	
8554.999	1	1	0	0	0.11978	0.12682	0.20922	0.081183	0.15664	0.067261	0.070174	0.18644	0.29684	0.15313	0.17545	0.079164	0.10292	0.11347	0.35895	0.16181	-4.5958	-4.3562	-4.4604	-4.775	-4.1125	-4.85	-4.4958	-4.4083	-4.6333	-4.3854	-4.5625	-4.7083	-3.9729	-4.8708	-4.4729	-4.5042	8.065	25.513	230.581	-84.648	201.405	59.394	168.622	223.459	208.312	74.695	237.899	-16.950	228.127	124.453	68.846	228.986	0.00049922	0.00095128	0.00028948	573.81	7.1782e-06	3.6456e-06	756.1	217.63	2.8308e-06	4.4223e-06	355.04	147.3	88.448	42.878	5.3209e-06	74.581	0.00087669	0.00089019	0.00024903	565.27	9.5564e-06	9.7872e-06	736.56	213.54	9.6841e-06	9.8035e-06	346.74	144.32	89.14	42.064	9.7427e-06	72.008	147.250	36.395	37.687	-78.999	41.868	262.602	-80.080	-73.440	173.345	117.780	-75.475	-70.867	-69.242	-63.730	168.585	-66.452	-8191	255	
8555.097	1	1	0	0	0.12674	0.18573	0.078624	0.16923	0.066024	0.070708	0.039644	0.32325	0.21167	0.22003	0.096834	0.11535	0.20961	0.21305	0.18119	0.11519	-4.4396	-4.4021	-4.3125	-4.9104	-4.3208	-4.6375	-4.7375	-4.1146	-4.7562	-4.4229	-4.4083	-5.0292	-4.1646	-4.6917	-4.6833	-4.2562	28.447	218.639	-16.364	161.415	73.026	-67.458	262.945	209.079	227.217	4.851	250.505	113.806	54.742	220.064	102.337	202.518	0.00049559	0.00040183	0.0002346	574.73	7.3879e-07	3.8851e-06	747.12	217.64	5.0527e-06	3.1722e-06	353.47	148.12	88.475	43.414	4.6676e-06	74.608	0.00085883	0.00087938	0.00024761	564.2	9.4706e-06	9.7122e-06	730.33	212.67	9.565e-06	9.6156e-06	344.94	144.53	89.196	42.244	9.4882e-06	72.272	125.975	-11.158	41.368	-78.743	123.856	25.031	-80.062	-73.698	-88.127	67.644	-75.148	-70.609	-69.229	-63.711	44.880	-66.245	-8191	255	
8555.191	1	1	0	0	0.19007	0.21904	0.14427	0.18218	0.073371	0.13936	0.16872	0.22507	0.33095	0.065896	0.11168	0.24839	0.25262	0.16941	0.078902	0.3672	-4.5125	-4.425	-4.3583	-4.8104	-4.3271	-4.5104	-4.7833	-4.3271	-4.7792	-4.4271	-4.3521	-4.9396	-4.1708	-4.6146	-4.7104	-4.1896	-39.519	-10.105	81.870	-72.842	199.734	253.047	247.061	234.156	122.681	243.079	237.243	-44.707	221.157	251.079	12.620	197.937	0.00043068	4.5574e-05	0.00014226	568.09	9.2724e-06	3.8072e-06	747.54	217.3	5.0221e-06	4.9627e-06	356.23	147.56	89.384	43.575	3.2049e-06	75.131	0.00086654	0.0008899	0.00024497	558.5	9.4831e-06	9.6876e-06	729.14	213.38	9.6975e-06	9.6604e-06	347.15	145.02	89.804	42.483	9.578e-06	72.611	139.062	-80.022	-11.692	-78.940	-15.051	153.035	-79.925	-73.494	-2.951	87.698	-75.331	-70.903	-69.136	-63.819	190.491	-66.512	-8191	255	
8555.287	1	1	0	0	0.33312	0.17629	0.14056	0.093004	0.21232	0.084388	0.1249	0.16462	0.203	0.20254	0.1923	0.028349	0.20516	0.06877	0.11334	0.087832	-4.4938	-4.4854	-4.1896	-4.8562	-4.3625	-4.5229	-4.6813	-4.3187	-4.6521	-4.4563	-4.4313	-4.8396	-4.2688	-4.4125	-4.8375	-4.2646	98.332	44.686	-38.263	146.816	-39.067	162.456	161.008	132.709	-60.727	-64.150	215.960	-53.946	-71.225	-41.824	208.884	-76.456	0.00030977	0.0009178	0.00014271	566.46	5.6242e-06	5.7579e-06	747.22	217.29	4.3907e-06	3.615e-06	355.54	148.54	88.412	43.171	1.2916e-05	74.25	0.00086039	0.0008841	0.00024557	557.91	9.5168e-06	9.6571e-06	729.29	213.58	9.5037e-06	9.3944e-06	346.7	144.88	89.431	42.322	9.4173e-06	71.945	131.166	12.979	-47.378	-79.153	91.318	-22.650	-79.833	-73.580	43.669	131.199	-75.060	-70.710	-69.048	-63.820	4.313	-66.314	-8191	255	
8555.408	1	1	0	0	0.15695	0.023103	0.1644	0.13699	0.067244	0.11269	0.11889	0.21862	0.19835	0.20372	0.097068	0.025916	0.11643	0.28634	0.13175	0.039493	-4.3688	-4.5417	-4.0813	-5.0042	-4.2708	-4.1875	-4.8417	-4.2292	-4.5854	-4.8229	-4.1521	-4.8604	-4.5417	-4.1042	-4.6833	-4.4187	-14.077	58.320	-30.602	256.451	184.888	85.927	220.603	248.861	110.867	244.692	-27.210	-90.698	-56.153	254.272	226.078	49.832	0.00047718	0.00071204	0.00022298	564.46	4.2139e-07	2.3808e-06	742.82	216.78	1.1894e-05	1.1336e-05	352.14	147.72	88.768	42.847	6.6959e-06	73.738	0.00086618	0.00087712	0.00024438	555.93	9.622e-06	9.6954e-06	726.35	212.4	9.7161e-06	9.6757e-06	344.34	144.24	89.156	42.09	9.6636e-06	71.791	137.275	43.209	254.628	-78.716	19.221	176.273	-80.007	-73.657	-15.386	111.702	-75.408	-70.700	-69.221	-63.659	42.901	-66.208	-8191	255	
8555.504	1	1	0	0	0.17601	0.20289	0.097735	0.076081	0.24322	0.091182	0.11301	0.16968	0.13051	0.10558	0.05822	0.25926	0.1503	0.18118	0.2843	0.14262	-4.2354	-4.6208	-4.3104	-4.7354	-4.3625	-4.2083	-4.8833	-4.2646	-4.4042	-4.6208	-4.2542	-4.95	-4.6	-4.3688	-4.6021	-4.2479	-50.355	167.973	6.544	43.968	124.763	43.697	113.485	228.367	220.843	189.213	94.177	-84.119	45.217	203.922	68.892	-40.785	0.00050335	0.00050633	0.00038739	562.8	2.2009e-06	1.9223e-06	735.55	213.33	5.4188e-06	5.2745e-06	346.58	145.72	87.319	42.477	1.065e-05	73.231	0.00086898	0.00087534	0.00024588	554.04	9.5417e-06	9.6506e-06	717.62	210.16	9.7402e-06	9.9465e-06	340.02	142.65	88.365	41.537	9.8637e-06	71.111	128.416	-74.585	-24.360	-79.161	4.547	-17.206	-79.921	-73.404	-11.292	37.090	-75.409	-70.679	-68.974	-63.717	40.000	-66.629	-8191	255	
8555.600	1	1	0	0	0.060579	0.046159	0.28187	0.18636	0.10404	0.16391	0.099158	0.16787	0.025439	0.17258	0.1477	0.069103	0.023257	0.11101	0.14879	0.10392	-4.1062	-4.5625	-3.9042	-4.5813	-4.5583	-4.0833	-4.9125	-4.5729	-4.3375	-4.8583	-4.1729	-4.6958	-4.6583	-4.1667	-4.7792	-4.6	58.593	74.154	40.951	166.621	255.040	169.519	187.956	-35.609	230.344	220.256	-79.214	-31.623	-62.497	250.676	201.776	249.410	0.00043273	0.00068249	1.8614e-05	555.24	6.2799e-06	8.369e-07	725.6	213.59	3.8718e-06	6.6025e-06	346.55	145.55	87.861	42.7	3.5931e-06	73.2	0.00087077	0.00088308	0.00024346	544.95	9.5787e-06	9.5706e-06	712.05	209.58	9.5786e-06	9.7305e-06	339.26	143.1	88.854	41.822	1.0038e-05	71.216	135.994	8.860	89.630	-79.219	106.602	-13.622	-79.993	-73.389	27.606	33.188	-75.339	-70.759	-69.193	-63.873	14.442	-66.270	-8191	255	
8555.672	1	1	0	0	0.17227	0.2206	0.051799	0.15572	0.1198	0.11763	0.2656	0.048721	0.22914	0.21315	0.15256	0.22342	0.13792	0.28853	0.15992	0.057581	-3.7958	-4.6271	-4.2063	-4.6271	-4.6271	-4.1875	-4.8854	-4.4437	-4.3667	-4.8229	-4.2312	-4.5771	-4.7854	-4.0896	-4.7583	-4.5104	-57.937	33.674	173.147	148.141	147.262	-49.426	-25.617	232.142	97.169	58.575	-74.183	-82.599	203.461	251.196	189.698	176.036	0.00034537	0.0012424	0.00020039	535.5	3.309e-06	2.1331e-06	713.53	211.61	2.0092e-06	5.8766e-06	346.31	145.12	87.01	41.748	4.6635e-06	72.176	0.00090591	0.00093498	0.00026172	530.72	1.0324e-05	1.0413e-05	700.42	208.36	1.0309e-05	1.0257e-05	339.22	142.79	88.223	40.986	1.0162e-05	70.276	121.106	41.401	-54.219	-79.024	87.212	-62.266	-79.855	-73.655	65.383	102.924	-75.365	-70.984	-68.979	-63.529	97.476	-66.302	-8191	255	
8555.792	1	1	0	0	0.12097	0.11909	0.072526	0.040333	0.11823	0.14288	0.18094	0.067825	0.051819	0.028744	0.20877	0.24807	0.14511	0.20814	0.1751	0.3178	-3.6375	-4.8271	-4.3167	-4.3083	-4.7646	-4.3313	-4.8208	-4.65	-4.2312	-4.8146	-4.4417	-4.5854	-4.5563	-4.25	-4.7208	-4.7021	186.563	266.810	146.004	251.092	68.514	102.785	195.207	218.564	61.362	127.215	77.975	250.269	-36.691	180.503	245.811	204.248	0.00032003	0.00091454	0.00013927	542.34	4.0433e-06	2.6393e-06	719.31	211.02	5.8482e-06	4.9725e-06	346.08	145.25	87.658	41.569	1.705e-06	72.037	0.00090335	0.00093053	0.00025522	536.5	9.9992e-06	1.0007e-05	705.84	207.63	1.0099e-05	1.0197e-05	338.87	142.42	88.046	40.88	1.0205e-05	70.094	146.497	-41.769	-0.866	-78.960	54.388	71.131	-79.997	-73.509	50.251	215.083	-75.418	-70.806	-69.293	-63.635	206.341	-66.151	-8191	255	
8555.888	1	1	0	0	0.099859	0.070041	0.024627	0.11854	0.1343	0.18215	0.23062	0.23514	0.19918	0.14649	0.23601	0.19507	0.064702	0.12956	0.10823	0.14245	-3.9437	-4.7729	-4.3667	-4.3958	-4.7458	-4.0854	-4.9062	-4.7208	-4.1417	-4.8854	-4.4417	-4.4958	-4.975	-4.2833	-4.5229	-4.725	101.312	130.037	105.060	215.410	-24.809	158.460	178.911	236.892	-47.628	33.332	252.307	174.268	-25.461	151.101	-81.191	189.046	0.00039023	0.00048897	9.5531e-05	544.5	5.9946e-06	6.2926e-06	719.7	209.42	5.1565e-06	7.161e-06	344.15	144.25	84.507	41.185	4.6675e-06	71.932	0.00089411	0.00091589	0.00025575	535.88	9.8735e-06	9.8913e-06	704.69	205.68	9.8811e-06	1.0077e-05	337.27	141.49	86.399	40.381	1.0302e-05	69.97	144.610	94.789	-25.650	-79.294	3.024	167.989	-79.677	-73.603	143.252	-10.283	-75.543	-70.581	-68.898	-63.592	178.703	-66.294	-8191	255	
8555.985	1	1	0	0	0.16255	0.11156	0.15809	0.16947	0.095372	0.15764	0.09616	0.021506	0.17249	0.17878	0.12981	0.11599	0.048614	0.096364	0.04949	0.24588	-3.9333	-4.7708	-4.6583	-4.4042	-4.8063	-4.1875	-4.6625	-4.6417	-4.2271	-4.8042	-4.5354	-4.3125	-4.825	-4.4083	-4.4521	-4.9583	-6.657	-66.723	41.833	133.248	135.822	117.724	183.061	33.556	36.361	253.092	240.853	222.085	150.055	195.833	120.778	212.546	0.00036603	0.00065772	0.0001788	540.21	3.6525e-06	1.5623e-06	724.69	209.3	1.0191e-05	2.0098e-06	346.82	143.38	84.585	41.089	9.6083e-06	72.594	0.00089822	0.00094108	0.00025887	533.84	1.004e-05	1.0161e-05	707.07	206.15	9.9779e-06	1.0211e-05	339.66	141.27	86.184	40.299	1.0425e-05	70.338	148.129	-81.851	9.245	-79.091	-88.949	151.952	-80.085	-73.328	29.473	167.844	-75.425	-70.933	-69.074	-63.553	54.900	-66.580	-8191	255	
8556.081	1	1	0	0	0.081435	0.22053	0.059393	0.3353	0.15428	0.058621	0.0050216	0.23599	0.17328	0.17421	0.36676	0.13882	0.083459	0.10774	0.10746	0.091229	-3.9188	-4.6917	-4.6354	-4.1604	-4.6583	-4.425	-4.5708	-4.9083	-4.3125	-4.4729	-4.7729	-4.2792	-4.9375	-4.375	-4.5813	-5.0354	240.607	234.388	21.176	263.774	172.786	201.170	88.182	-89.616	256.779	98.837	181.182	214.394	91.188	-58.014	-35.579	219.659	0.00041775	0.00051704	0.00037015	541.01	3.6034e-06	2.5984e-06	722.05	210.84	6.5682e-06	7.8878e-06	351.27	145.14	86.141	41.289	3.5464e-06	73.232	0.00091534	0.0009441	0.00026204	533.27	1.0297e-05	1.0308e-05	709.69	207.54	1.0151e-05	1.0466e-05	344.24	142.57	87.188	40.667	1.0402e-05	71.061	129.399	41.156	-64.993	-79.304	50.398	64.368	-79.945	-73.771	-78.642	18.710	-75.326	-70.821	-69.012	-63.899	1.814	-66.325	-8191	255	
8556.200	1	1	0	0	0.016291	0.26336	0.15701	0.20774	0.11718	0.22225	0.046632	0.14821	0.095907	0.19883	0.076103	0.17902	0.032328	0.086283	0.064225	0.081849	-3.9208	-4.6146	-4.5917	-4.2604	-4.6937	-4.3562	-4.575	-4.9542	-4.2562	-4.7396	-4.8458	-4.3125	-4.8583	-4.4646	-4.3313	-4.9958	19.394	-68.062	98.505	137.624	3.129	29.649	234.971	234.372	-7.144	260.159	147.307	264.957	148.373	204.573	18.998	116.392	0.00032452	0.00012662	0.00014796	543.19	2.3875e-06	3.3924e-06	730.23	213	3.5784e-06	1.2023e-05	356.27	145.81	85.823	41.413	5.5221e-06	72.527	0.00093557	0.00097196	0.00026858	535.75	1.0471e-05	1.0534e-05	715.31	210.04	1.0444e-05	1.0732e-05	348.22	143.47	87.552	40.719	1.0629e-05	70.756	147.628	150.654	12.338	-78.873	83.717	-10.137	-79.678	-73.623	-6.507	59.783	-75.318	-70.942	-68.922	-63.802	45.749	-66.487	-8191	255	
8556.296	1	1	0	0	0.088867	0.031584	0.19441	0.062681	0.094764	0.11904	0.099795	0.0805	0.14014	0.25347	0.1839	0.1861	0.21883	0.042068	0.27785	0.1589	-3.925	-4.5938	-4.8104	-4.1687	-4.55	-4.5563	-4.2417	-4.8063	-4.4146	-4.4917	-4.8063	-4.2417	-4.5896	-4.4979	-4.2146	-4.8854	70.270	-1.434	249.075	30.468	165.034	109.761	52.650	217.214	-13.405	248.987	-13.269	212.481	189.827	-69.914	131.367	261.853	0.00041495	0.0010718	0.00027292	535.22	4.9339e-06	6.5501e-06	717.08	209.55	6.7385e-06	9.5896e-06	347.97	145.29	86.208	41.072	1.141e-05	71.406	0.00094283	0.0009871	0.00027168	532.18	1.0716e-05	1.0935e-05	705.25	206.78	1.07e-05	1.0918e-05	341.4	142.36	87.539	40.436	1.0577e-05	69.835	141.104	31.343	-40.178	-79.113	137.728	63.829	-79.898	-73.939	52.014	63.240	-75.607	-70.872	-69.020	-63.648	-40.271	-66.589	-8191	255	
8556.367	1	1	0	0	0.23804	0.16969	0.096172	0.28263	0.09216	0.069419	0.13277	0.067422	0.11977	0.060039	0.19516	0.066957	0.045402	0.43729	0.13174	0.23953	-3.8833	-4.4417	-4.8604	-4.125	-4.5625	-4.5896	-4.2604	-4.8333	-4.3208	-4.3708	-4.9729	-4.3375	-4.6458	-4.8333	-4.2396	-4.9354	117.250	60.544	125.369	262.458	201.088	9.408	258.567	132.461	13.275	140.191	172.947	-52.143	20.358	-64.787	29.458	211.519	0.0004185	0.00067559	0.00019651	532.97	5.545e-06	4.1671e-06	717.14	205.97	1.0704e-05	1.1454e-05	346.88	143.68	84.93	40.509	5.2312e-06	70.858	0.00095392	0.00099031	0.00027457	526.93	1.0912e-05	1.1e-05	698.34	204.55	1.0941e-05	1.0994e-05	338.05	141.39	86.79	39.999	1.0703e-05	69.086	145.860	78.642	-5.375	-79.045	49.739	143.371	-79.720	-73.404	41.606	57.014	-75.627	-70.879	-69.310	-63.682	-39.865	-66.425	-8191	255	
8556.488	1	1	0	0	0.16123	0.075139	0.053572	0.31349	0.13908	0.021046	0.12252	0.091347	0.069022	0.11238	0.14725	0.28028	0.26414	0.12584	0.16885	0.42527	-4.2312	-4.2	-4.8333	-4.4667	-4.6771	-4.6792	-4.4458	-4.6937	-4.4854	-4.3646	-4.8833	-4.3021	-4.4542	-4.7146	-4.1354	-4.8604	159.060	138.047	27.193	206.467	31.392	204.996	211.373	132.611	-50.633	-41.565	144.274	128.552	165.391	-85.410	199.462	256.645	0.00042845	0.00067978	0.00023012	529.01	5.878e-06	2.1086e-06	709.25	205.42	8.6959e-06	1.196e-05	342.87	142.78	84.491	39.991	7.2931e-06	70.557	0.0009575	0.00098259	0.00028015	522.29	1.0862e-05	1.0955e-05	696.48	203.17	1.0727e-05	1.0679e-05	336.41	140.4	85.946	39.487	1.0634e-05	68.925	118.231	-90.402	17.497	-79.107	43.806	-60.576	-79.746	-73.742	24.467	104.234	-75.748	-71.032	-68.672	-63.692	-18.579	-66.447	-8191	255	
8556.584	1	1	0	0	0.1088	0.16892	0.12568	0.036556	0.15152	0.12374	0.22888	0.25123	0.109	0.26483	0.13876	0.11043	0.13864	0.12079	0.089816	0.10355	-4.3313	-4.2792	-4.8917	-4.2958	-4.4667	-4.7146	-4.225	-4.8313	-4.5771	-4.4333	-4.9042	-4.5125	-4.525	-4.7917	-4.1792	-4.7896	170.917	-64.658	-39.528	-21.362	173.774	50.773	268.534	-85.620	47.611	91.031	-82.077	208.070	264.225	265.613	-21.231	244.350	0.00036861	7.2143e-05	0.00014784	525.9	1.0086e-05	8.2571e-06	709.27	205.3	1.882e-06	1.1569e-05	344.74	141.95	83.909	39.96	6.2181e-06	70.941	0.00096808	0.00099027	0.00027438	521.76	1.0726e-05	1.0634e-05	697.52	203.43	1.052e-05	1.0615e-05	337.95	140.08	85.513	39.485	1.0522e-05	69.055	155.689	235.923	94.534	-79.082	-43.575	44.699	-79.898	-73.467	7.381	37.226	-75.660	-70.886	-69.040	-63.824	92.910	-66.347	-8191	255	
8556.680	1	1	0	0	0.16812	0.12607	0.22966	0.11672	0.097616	0.050456	0.19243	0.19205	0.092535	0.19657	0.10187	0.10075	0.096778	0.12881	0.025764	0.26704	-4.4812	-4.1687	-4.8	-4.7375	-4.4958	-4.9729	-4.5042	-4.6771	-4.7729	-4.2	-4.9583	-4.5875	-4.6042	-4.9688	-4.3438	-4.6729	164.064	92.625	-19.372	132.220	34.874	155.158	135.683	229.002	164.629	29.801	210.926	-78.063	116.415	159.774	-1.194	218.772	0.00036291	0.0010646	0.00019309	527.02	8.7138e-06	3.8506e-06	707.19	205.03	9.9509e-07	1.3029e-05	342.59	142.2	83.726	40.017	6.9409e-06	70.952	0.00094954	0.00096588	0.00027315	522.03	1.0507e-05	1.0517e-05	695.74	202.53	1.0436e-05	1.0346e-05	336.46	139.71	85.422	39.485	1.0366e-05	68.99	124.833	-18.583	-25.929	-79.193	112.298	67.648	-79.743	-73.748	51.878	57.759	-75.580	-70.762	-69.210	-63.973	72.704	-66.490	-8191	255	
8556.777	1	1	0	0	0.082986	0.099129	0.079884	0.016728	0.19377	0.10764	0.16176	0.0083836	0.082034	0.11062	0.16221	0.20034	0.019375	0.13237	0.131	0.1677	-4.3688	-4.3292	-4.775	-4.6104	-4.2875	-4.9292	-4.5583	-4.7188	-4.6771	-4.1521	-4.7396	-4.525	-4.1833	-4.8292	-4.4	-4.7792	216.673	-64.491	208.859	-64.518	60.074	1.366	-66.778	-66.132	-14.447	-87.490	230.680	236.003	70.412	-91.469	265.679	122.085	0.0004018	0.0007719	0.00015016	527.59	7.9548e-06	8.5704e-06	711.3	204.55	9.8064e-06	1.4057e-06	343.63	141.76	84.741	40.298	7.8587e-06	70.732	0.00092277	0.0009503	0.00026763	524.66	1.0394e-05	1.0542e-05	697.06	202.45	1.0464e-05	1.053e-05	336.6	139.67	85.433	39.509	1.0509e-05	68.843	151.259	236.125	-58.704	-79.413	74.604	-52.336	-80.280	-73.692	19.175	2.307	-75.397	-70.603	-68.910	-63.617	139.908	-66.490	-8191	255	
8556.897	1	1	0	0	0.089851	0.043801	0.10454	0.11715	0.1279	0.12702	0.18817	0.076491	0.041203	0.03858	0.21875	0.14198	0.31497	0.093463	0.24659	0.22396	-4.375	-4.2958	-4.7562	-4.7146	-4.2771	-4.9479	-4.3938	-4.4729	-4.7063	-4.3146	-4.7833	-4.7792	-4.3396	-4.9729	-4.3979	-4.5771	-28.369	64.486	12.232	137.322	163.650	-27.040	196.296	188.549	137.092	236.135	196.726	229.439	253.723	148.279	-41.595	-67.472	0.00046196	0.001146	0.00018688	531.11	6.496e-06	8.0809e-06	707.25	205.24	5.2181e-06	4.0531e-06	341.81	142.06	84.08	40.244	6.6273e-06	70.811	0.00093638	0.00094409	0.00026736	524.69	1.0316e-05	1.0524e-05	696.53	202.58	1.0415e-05	1.0413e-05	336.69	140.33	85.641	39.659	1.0658e-05	69.058	136.193	-10.002	-41.376	-79.152	79.334	66.273	-79.945	-73.691	87.299	126.966	-75.120	-70.852	-68.972	-63.796	21.373	-66.690	-8191	255	
8556.969	1	1	0	0	0.13296	0.088515	0.17651	0.2654	0.16331	0.1507	0.12787	0.17216	0.15101	0.14795	0.23924	0.18768	0.16402	0.17098	0.12977	0.13152	-4.5542	-4.2083	-4.4938	-4.8083	-4.2375	-4.8521	-4.4146	-4.3812	-4.7729	-4.2958	-4.6125	-4.75	-4.2167	-4.8479	-4.5542	-4.4875	-3.054	193.491	13.625	-70.329	-61.617	173.252	259.156	212.222	138.642	4.385	178.648	-41.452	-78.734	-1.377	-15.597	108.674	0.00042392	6.8101e-05	0.00016106	524.92	8.0401e-06	1.0244e-05	708.94	204.23	1.6185e-05	1.0314e-05	344.21	142.89	84.517	40.14	2.8789e-06	71.28	0.00095105	0.0009779	0.00027478	521.37	1.0533e-05	1.0831e-05	696.92	202.4	1.062e-05	1.064e-05	338.35	140.53	85.552	39.645	1.0692e-05	69.468	123.397	-53.484	130.638	-79.557	39.723	16.419	-80.270	-73.512	44.618	73.064	-75.656	-70.857	-68.976	-63.638	-35.071	-66.373	-8191	255	
8557.089	1	1	0	0	0.20369	0.27054	0.14629	0.22813	0.065535	0.11976	0.085081	0.12322	0.075096	0.14957	0.11215	0.24168	0.1044	0.14429	0.11035	0.2953	-4.6729	-4.2021	-4.5	-4.8729	-4.3417	-4.7021	-4.6708	-4.2979	-4.9396	-4.4146	-4.6813	-4.8063	-4.2188	-4.8229	-4.6188	-4.4583	208.020	265.384	-15.188	263.997	222.798	135.206	62.016	189.295	81.282	17.325	229.694	206.193	196.271	160.852	22.390	202.096	0.00035959	0.0010835	0.00012098	536.14	5.1055e-06	6.1424e-06	725.04	209.48	4.5986e-06	3.3198e-06	356.05	145.96	84.986	40.986	5.1637e-06	73.089	0.00094244	0.00096654	0.00027363	530.73	1.0366e-05	1.0533e-05	711.22	206.66	1.037e-05	1.0418e-05	348.57	142.99	86.165	40.21	1.038e-05	71.163	148.137	-23.449	63.369	-78.948	14.200	101.959	-79.508	-73.915	83.528	112.377	-75.491	-70.980	-68.683	-63.824	-5.330	-66.496	-8191	255	
8557.184	1	1	0	0	0.10368	0.11164	0.15732	0.18793	0.11294	0.13358	0.10786	0.15965	0.13308	0.26262	0.22927	0.2613	0.19886	0.062413	0.052359	0.14882	-4.4521	-4.3063	-4.3458	-4.7625	-4.0563	-4.4708	-4.6771	-4.2729	-4.8458	-4.5604	-4.5938	-5.0271	-4.3708	-4.8187	-4.7646	-4.4437	102.046	131.103	-8.773	-41.778	45.632	-20.393	99.923	184.699	189.387	64.409	197.176	189.433	-50.922	76.658	16.872	179.183	0.00039522	0.00067824	0.00014792	547.16	1.6159e-06	1.9887e-06	741.99	214.16	1.7146e-06	3.1124e-06	362.6	146.42	85.488	41.361	4.2396e-06	73.909	0.00093555	0.00095312	0.00026824	542.63	1.0292e-05	1.0557e-05	727.74	210.92	1.0317e-05	1.0334e-05	354.21	143.98	86.978	40.796	1.0261e-05	72.006	148.375	-44.290	55.882	-79.475	-87.625	92.382	-79.975	-73.527	229.928	98.732	-75.626	-70.775	-69.581	-63.571	-28.245	-66.328	-8191	255	
8557.280	1	1	0	0	0.071857	0.095488	0.24544	0.044231	0.1472	0.25759	0.24043	0.13831	0.047152	0.17683	0.27996	0.2577	0.043868	0.16765	0.11718	0.2484	-4.4104	-4.3583	-4.35	-4.9521	-4.2771	-4.7854	-4.7312	-4.3	-4.8292	-4.5312	-4.4146	-4.9958	-4.1854	-4.4646	-4.8313	-4.3833	245.808	9.540	82.597	166.277	-82.890	91.553	226.128	31.226	215.087	163.993	265.481	171.703	-87.628	239.118	-67.563	149.295	0.00041925	0.00055221	9.8383e-05	555.67	4.4916e-06	5.5271e-06	753.41	217.44	1.6029e-05	1.2291e-05	366.35	149.09	85.886	41.778	4.4236e-06	74.613	0.00092508	0.00093755	0.00026335	550.18	1.022e-05	1.045e-05	735.3	213.48	1.041e-05	1.0379e-05	357.76	145.65	87.525	41.127	1.051e-05	72.397	126.793	-62.312	66.160	-78.887	22.458	58.172	-80.189	-73.682	80.688	71.859	-75.146	-70.879	-69.468	-63.879	57.904	-66.469	-8191	255	
8557.376	1	1	0	0	0.15815	0.15567	0.30005	0.14971	0.15114	0.13867	0.2384	0.10286	0.16478	0.16923	0.072685	0.057579	0.17599	0.10851	0.17957	0.099737	-4.325	-4.6083	-4.1646	-4.9625	-4.3083	-4.4812	-4.8625	-4.3521	-4.6146	-4.5167	-4.4167	-4.7833	-4.3458	-4.6	-4.8771	-4.4104	133.716	-31.980	98.594	254.492	96.239	-6.128	168.128	147.150	79.933	-38.452	66.863	114.909	190.216	234.614	173.960	187.332	0.00045229	0.00075216	0.00019945	562.19	3.0094e-06	8.8569e-06	756.61	217.4	8.58e-06	2.7679e-06	368.4	147.5	85.681	41.777	5.7681e-06	74.813	0.00094899	0.00096221	0.00026711	554.26	1.0492e-05	1.0604e-05	742.28	214.43	1.0548e-05	1.044e-05	360.17	145.24	87.396	41.064	1.0397e-05	72.693	130.696	23.931	25.791	-79.347	24.030	51.864	-79.913	-73.646	10.954	121.430	-75.699	-70.817	-69.151	-63.733	57.304	-66.451	-8191	255	
8557.497	1	1	0	0	0.15173	0.24682	0.083628	0.19104	0.048285	0.31685	0.28015	0.23933	0.20876	0.21473	0.12141	0.092553	0.072248	0.24462	0.18041	0.098049	-4.2854	-4.5229	-4.3125	-4.8208	-4.4333	-4.2812	-5.1375	-4.4208	-4.5375	-4.6771	-4.4104	-5.05	-4.4688	-4.3958	-4.8646	-4.4792	153.944	84.820	-23.924	-27.806	-42.223	57.667	219.105	261.242	-35.128	-70.267	243.199	110.390	102.327	237.810	-29.726	199.216	0.0003493	0.00071729	0.00018947	569.65	4.9355e-06	9.053e-06	753.14	217.07	8.9512e-06	5.6531e-06	363.33	147.33	85.682	41.093	5.7988e-06	73.624	0.00092786	0.00094448	0.00026022	559.39	1.0235e-05	1.0289e-05	739.57	212.98	1.0292e-05	1.0266e-05	356.52	144.52	86.541	40.474	1.0402e-05	71.715	136.356	61.484	77.594	-79.091	68.807	61.739	-79.681	-73.560	35.232	-5.359	-75.364	-70.817	-69.197	-63.735	8.334	-66.819	-8191	255	
8557.593	1	1	0	0	0.16927	0.096684	0.035518	0.12626	0.098422	0.14394	0.16569	0.12629	0.19464	0.099834	0.33684	0.13416	0.11042	0.043486	0.087486	0.089019	-4.2479	-4.6604	-4.2021	-4.8292	-4.4917	-4.2708	-4.8	-4.4333	-4.4396	-4.725	-4.325	-4.7646	-4.5958	-4.1958	-4.8708	-4.4313	-84.741	-8.570	258.539	-91.435	8.389	-25.696	-72.364	205.088	206.336	-42.303	228.880	-84.121	216.790	-87.355	-17.462	266.773	0.00053083	0.00076599	0.00022023	555.59	9.7028e-06	5.9089e-06	748.17	214.3	2.0174e-06	1.1501e-05	363.4	145.98	84.962	41.175	9.9606e-06	73.725	0.00094381	0.00096994	0.00026899	549.29	1.069e-05	1.0748e-05	731.6	211.91	1.0705e-05	1.0659e-05	356.11	143.94	86.355	40.549	1.0641e-05	71.821	122.773	180.850	247.632	-79.008	74.229	59.792	-80.188	-73.728	62.512	71.388	-75.551	-70.741	-69.182	-63.599	39.316	-66.386	-8191	255	
8557.665	1	1	0	0	0.12575	0.11022	0.053842	0.28618	0.063306	0.032029	0.10951	0.12675	0.10295	0.16287	0.28352	0.34971	0.10593	0.060575	0.15879	0.088847	-4.1458	-4.6771	-4.2875	-4.6271	-4.5375	-4.2833	-4.9938	-4.5	-4.2354	-4.8583	-4.1875	-4.6771	-4.5833	-4.1875	-4.7917	-4.5271	-79.382	202.098	147.500	228.968	137.018	-84.499	-74.124	244.396	259.864	205.286	-7.985	215.802	-40.906	-13.522	-72.946	22.657	0.00038901	7.4088e-05	3.0391e-05	559.69	4.5088e-06	1.0478e-05	740.33	214.38	6.7247e-06	1.397e-05	360.41	148.51	86.114	41.392	5.544e-06	73.928	0.00095732	0.00096855	0.00026932	552.59	1.0587e-05	1.0603e-05	725.78	211.58	1.0701e-05	1.0642e-05	353.25	144.77	87.129	40.651	1.0611e-05	71.897	127.424	-35.600	11.318	-79.135	136.900	31.348	-79.945	-73.830	77.796	82.848	-75.610	-70.733	-68.957	-64.160	30.183	-66.555	-8191	255	
8557.761	1	1	0	0	0.11023	0.14415	0.16162	0.22692	0.28649	0.12913	0.07457	0.2202	0.16961	0.15971	0.1229	0.080892	0.2365	0.11456	0.30666	0.25142	-3.9396	-4.7729	-4.3625	-4.5958	-4.5563	-4.1167	-4.8083	-4.2937	-4.2042	-4.8021	-4.4313	-4.5979	-4.6813	-4.3333	-4.8042	-4.5979	64.300	117.823	95.626	-63.403	94.017	-41.707	164.022	201.464	214.535	97.852	-2.666	6.230	-49.790	250.300	237.370	-29.900	0.00039765	0.00057979	0.00022246	554.68	6.1775e-06	5.8819e-06	743.23	216.46	8.2436e-06	5.1472e-06	365.17	146.81	85.18	41.351	5.1663e-06	74.794	0.00094865	0.00096456	0.00026617	547.97	1.0548e-05	1.0603e-05	728.64	213.4	1.0536e-05	1.0505e-05	356.99	144.35	86.694	40.777	1.0508e-05	72.472	151.614	6.297	7.763	-79.230	4.933	8.670	-79.870	-73.727	31.111	-73.894	-75.432	-70.912	-69.119	-63.647	82.983	-66.519	-8191	255	
8557.857	1	1	0	0	0.13162	0.21932	0.19679	0.12712	0.1875	0.28401	0.079968	0.084738	0.16397	0.33058	0.034545	0.056483	0.13318	0.065524	0.20004	0.083175	-4.0062	-4.875	-4.225	-4.525	-4.7063	-4.1438	-4.6854	-4.5167	-4.3208	-4.7854	-4.5188	-4.4	-4.7438	-4.2583	-4.5458	-4.6833	51.259	114.278	187.101	-35.234	28.591	261.016	-66.196	247.751	56.365	-34.018	114.524	-28.145	-82.055	75.628	-27.930	133.184	0.0005162	0.00062437	2.962e-05	571.49	5.66e-06	1.6377e-06	753.9	218.08	7.4464e-06	8.2091e-06	365.93	146.99	85.856	41.413	2.4565e-06	74.438	0.00091812	0.00095504	0.00026763	562.69	1.0426e-05	1.0506e-05	738.07	214.68	1.0218e-05	1.0449e-05	357.58	144.33	86.993	40.768	1.0377e-05	72.244	142.507	239.763	81.559	-79.202	65.251	201.706	-79.768	-73.617	81.381	100.962	-75.705	-70.695	-69.334	-63.784	192.435	-66.590	-8191	255	
8557.978	1	1	0	0	0.086199	0.16306	0.14368	0.043821	0.26182	0.27534	0.114	0.1885	0.085598	0.086378	0.2091	0.19913	0.086175	0.28775	0.067525	0.0916	-3.8729	-4.6417	-4.3458	-4.3938	-4.7708	-4.1542	-4.5375	-4.7667	-4.2104	-4.6417	-4.5521	-4.375	-4.7333	-4.3938	-4.3875	-4.8604	122.183	15.957	34.899	127.866	238.243	-11.195	237.119	88.315	60.833	83.708	190.224	224.192	86.021	237.330	207.420	-43.628	0.00048854	0.00048352	0.00024691	573.1	8.3522e-06	6.7223e-06	753.58	218.32	3.1358e-06	3.8893e-06	365.55	147.03	85.119	42.118	2.0883e-06	75.715	0.0009046	0.00092858	0.00025799	561.6	9.9298e-06	1.0023e-05	740.37	213.98	9.8265e-06	9.9825e-06	356.53	144.46	86.457	41.22	9.9904e-06	73.214	146.752	59.080	44.415	-79.257	39.871	102.947	-80.124	-74.215	-81.040	114.909	-75.619	-71.000	-68.871	-63.898	-49.920	-66.622	-8191	255	
8558.072	1	1	0	0	0.044662	0.077587	0.062017	0.25331	0.17707	0.26375	0.26418	0.19806	0.15009	0.063714	0.093142	0.43501	0.16699	0.083065	0.091344	0.30961	-3.7583	-4.7333	-4.5062	-4.4083	-4.8042	-4.2479	-4.5813	-4.7896	-4.0771	-4.6813	-4.6917	-4.1354	-4.825	-4.3875	-4.425	-4.8833	134.709	17.952	187.093	160.946	10.160	157.398	199.211	210.656	149.486	-9.495	77.368	196.842	128.646	201.125	111.264	195.629	0.00038174	0.00028013	3.126e-05	574.11	6.8596e-06	6.2206e-06	763.67	219.1	1.5805e-05	8.788e-06	366.76	148.33	85.936	42.256	1.5606e-05	75.888	0.00087413	0.00091052	0.00025138	566	9.8356e-06	9.8746e-06	748.05	215.33	9.8525e-06	1.0201e-05	359.54	145.42	87.239	41.374	1.0161e-05	73.714	151.603	248.214	-70.195	-79.041	96.849	75.017	-79.933	-73.852	-23.988	-84.737	-75.762	-70.885	-69.442	-63.736	55.280	-66.494	-8191	255	
8558.170	1	1	0	0	0.066989	0.14476	0.42315	0.22641	0.092207	0.28495	0.13333	0.1689	0.17618	0.17342	0.073186	0.047625	0.087653	0.10826	0.12279	0.22287	-4.0437	-4.7646	-4.5625	-4.2833	-4.8708	-4.3104	-4.6208	-4.8688	-4.2104	-4.5521	-4.6937	-4.1792	-4.7979	-4.3771	-4.2417	-4.8708	260.751	184.642	-1.801	129.014	76.538	102.227	166.711	-36.203	-50.424	26.732	128.353	209.698	218.548	170.951	141.116	185.401	0.00046964	0.00083054	3.7214e-05	584.83	5.6219e-06	3.4027e-06	766.42	219.26	7.186e-07	4.5496e-06	367.58	149.15	87.515	42.718	5.9621e-06	76.407	0.00088202	0.00091832	0.00025207	574.78	9.8547e-06	9.8853e-06	749.68	216.36	9.7435e-06	9.995e-06	358.43	145.88	88.116	42.046	9.7727e-06	74.086	140.540	-27.306	-89.236	-79.193	149.626	13.512	-80.254	-73.866	76.450	3.786	-75.540	-70.974	-69.063	-63.857	-13.815	-66.405	-8191	255	
8558.266	1	1	0	0	0.064124	0.17851	0.1833	0.16278	0.20919	0.39834	0.093421	0.23109	0.080799	0.14591	0.17544	0.081317	0.37802	0.19513	0.18812	0.13153	-3.8667	-4.6146	-4.6438	-4.1	-4.7521	-4.4563	-4.2146	-4.9396	-4.2438	-4.3646	-4.8021	-4.2688	-4.7583	-4.6188	-4.3396	-4.9625	262.367	261.426	172.962	15.665	19.633	209.967	258.974	215.591	185.214	69.261	187.360	149.885	209.060	208.209	179.459	182.168	0.00036233	0.00062663	0.00020253	586.91	3.9626e-06	6.3119e-06	759.6	220.2	2.1e-06	1.6797e-06	354.56	146.56	87.253	42.988	1.9003e-06	75.281	0.00087056	0.0009076	0.00024578	575.98	9.4944e-06	9.4791e-06	743.46	215.04	9.4194e-06	9.6309e-06	346.64	143.63	87.96	42.131	9.5022e-06	73.246	146.229	-4.095	63.297	-79.199	249.866	51.996	-79.734	-73.660	-51.319	257.580	-75.391	-70.866	-69.341	-63.995	236.145	-66.502	-8191	255	
8558.360	1	1	0	0	0.070048	0.062403	0.12851	0.40285	0.188	0.31175	0.15664	0.1902	0.13428	0.24793	0.28541	0.10971	0.060634	0.17532	0.40913	0.13807	-3.8396	-4.5292	-4.6813	-4.2542	-4.5229	-4.3917	-4.4292	-4.8917	-4.4187	-4.425	-4.7396	-4.1	-4.7708	-4.5167	-4.25	-4.8792	1.134	29.317	20.128	226.130	123.656	79.147	196.603	252.872	227.952	253.559	-86.777	18.682	122.784	85.107	64.187	82.705	0.0003119	0.0010015	0.00019995	574.6	1.6506e-06	4.2473e-06	747.55	216.76	3.2184e-06	6.1308e-06	354.2	145.55	85.909	42.225	1.0206e-05	74.862	0.00085546	0.00088063	0.00024025	565.51	9.5286e-06	9.585e-06	730.88	212.28	9.2433e-06	9.4365e-06	344.59	141.88	86.149	41.467	9.2375e-06	72.644	126.944	29.413	-66.708	-79.050	-24.467	97.936	-80.007	-73.640	256.160	2.579	-75.340	-70.764	-69.186	-63.868	70.564	-66.566	-8191	255	
8558.457	1	1	0	0	0.2484	0.069404	0.21753	0.14726	0.267	0.20236	0.036825	0.094468	0.11517	0.33207	0.18211	0.088049	0.16505	0.10119	0.054002	0.15394	-3.8146	-4.4	-4.6604	-4.2896	-4.4667	-4.6042	-4.4042	-4.6542	-4.4333	-4.3271	-4.9938	-4.2125	-4.6583	-4.5604	-4.125	-4.9208	178.269	190.790	132.342	150.905	45.863	257.387	181.630	202.965	102.876	-64.988	231.154	-39.335	-67.160	2.093	127.853	220.150	0.00040083	0.00029139	0.00015291	598.25	6.0676e-06	1.2429e-06	772.51	219.44	1.5653e-06	1.7219e-06	359.41	146.31	86.174	42.699	3.6293e-06	75.866	0.00084853	0.00085204	0.00023647	585.1	9.2912e-06	9.3783e-06	752.46	214.91	9.3594e-06	9.2209e-06	350.02	143.38	86.564	41.789	9.0616e-06	73.819	127.579	-25.501	178.071	-79.136	-39.822	198.727	-79.996	-73.595	257.418	226.406	-75.634	-70.993	-69.101	-63.962	145.974	-66.520	-8191	255	
8558.577	1	1	0	0	0.064141	0.13157	0.091399	0.057193	0.13808	0.21009	0.21214	0.054043	0.34261	0.45226	0.1074	0.34045	0.069675	0.32475	0.096112	0.10824	-4.2104	-4.2458	-4.8646	-4.4875	-4.5021	-4.6729	-4.2312	-4.8917	-4.4604	-4.4271	-4.8979	-4.2979	-4.6062	-4.7917	-4.1125	-4.8375	17.570	188.999	182.546	-14.875	62.489	122.447	175.427	78.032	100.708	189.201	261.651	-57.260	239.979	-67.866	151.316	-85.366	0.00039012	0.00067989	0.00021035	593.58	4.0446e-06	7.0334e-06	773.58	218.94	4.5134e-06	3.7242e-06	362.8	148.37	86.516	43.141	5.8516e-06	77.052	0.00082786	0.000841	0.00023359	580.83	9.2891e-06	9.2731e-06	751.27	214.65	9.3141e-06	9.3582e-06	353.36	144.81	87.176	42.119	9.2623e-06	74.783	140.205	42.712	14.759	-79.374	10.600	79.725	-79.707	-73.881	-5.751	-10.588	-75.721	-70.947	-68.975	-63.848	59.566	-66.441	-8191	255	
8558.673	1	1	0	0	0.13894	0.045972	0.058582	0.065598	0.037004	0.076128	0.12503	0.076997	0.095746	0.019198	0.24685	0.12109	0.055109	0.12448	0.10361	0.2039	-4.2146	-4.3021	-4.7229	-4.3125	-4.4875	-4.7063	-4.2979	-4.7438	-4.6521	-4.2604	-4.7188	-4.6083	-4.3708	-4.9313	-4.325	-4.7438	-35.702	158.189	226.325	5.471	127.335	115.117	264.306	229.074	147.839	-80.128	148.757	-78.595	241.728	173.006	16.380	201.320	0.00042745	0.00030601	0.00026669	598.85	6.5388e-06	1.3924e-06	785.5	223.41	6.6049e-06	1.2262e-05	369.83	148.62	87.139	43.223	4.8805e-06	77.509	0.00084034	0.00084688	0.00023774	582.92	9.2321e-06	9.1973e-06	763.27	218.33	9.2879e-06	9.2334e-06	359.99	145.85	87.747	42.324	9.2995e-06	75.15	134.073	-7.310	-55.459	-79.118	5.408	236.187	-80.222	-73.512	78.164	80.283	-75.835	-70.909	-69.107	-63.700	-23.262	-66.488	-8191	255	
8558.769	1	1	0	0	0.10088	0.11794	0.09533	0.042016	0.11797	0.19939	0.029758	0.33584	0.092894	0.05308	0.1918	0.29844	0.29074	0.21775	0.17594	0.20652	-4.4	-4.1937	-4.7875	-4.4563	-4.2979	-4.8729	-4.3354	-4.6	-4.6687	-4.2021	-4.8271	-4.7208	-4.1625	-4.9271	-4.2979	-4.6438	119.625	32.790	242.044	218.525	93.120	10.240	176.172	156.168	-45.057	266.696	171.793	-62.558	-87.555	201.555	236.448	140.668	0.00052998	0.00012003	0.00028402	619.53	2.536e-06	5.7489e-06	798.01	225.24	8.2119e-07	1.0278e-05	371.64	149.33	87.501	43.75	1.9462e-06	77.273	0.00083565	0.0008397	0.00023733	603.61	9.0402e-06	9.1303e-06	777.25	220.85	8.8321e-06	9.096e-06	360.92	145.1	87.716	42.518	9.0352e-06	74.792	130.907	-11.022	-25.474	-79.333	32.189	122.702	-80.020	-73.894	16.973	87.325	-75.436	-70.840	-69.230	-63.950	78.338	-66.358	-8191	255	
8558.866	1	1	0	0	0.043369	0.17367	0.10296	0.13396	0.20847	0.20923	0.24559	0.14054	0.36515	0.1384	0.12188	0.11255	0.11306	0.026866	0.075674	0.11038	-4.3896	-4.1188	-4.6792	-4.5	-4.2479	-4.9187	-4.4833	-4.5062	-4.6583	-4.1854	-4.9062	-4.6167	-4.2208	-4.9583	-4.3375	-4.4146	145.001	-5.038	-21.323	9.525	227.864	213.048	192.091	47.751	-22.894	6.221	114.113	110.034	231.987	205.946	60.179	201.170	0.00055754	0.00046049	0.00034058	610.6	4.9824e-06	7.0951e-06	790.48	222.8	7.5484e-06	3.2789e-06	365.47	147.55	87.171	43.363	4.4639e-06	77.508	0.00080266	0.00080178	0.00022922	595.29	8.6719e-06	8.6621e-06	766.31	218.36	8.533e-06	8.5733e-06	356.38	144.1	87.097	42.148	6.8564e-06	73.836	137.569	-45.916	4.147	-79.280	101.200	27.447	-80.049	-73.554	3.765	-25.074	-75.871	-70.920	-68.996	-63.786	166.541	-66.411	-8191	255	
8558.962	1	1	0	0	0.026989	0.11177	0.18478	0.056804	0.090728	0.13535	0.080012	0.22629	0.22399	0.14698	0.19914	0.13616	0.12563	0.052021	0.03248	0.16833	-4.4979	-4.1583	-4.6354	-4.4979	-4.2562	-4.6875	-4.5437	-4.425	-4.6271	-4.1646	-4.5437	-4.6208	-4.1042	-4.7417	-4.1896	-4.4396	189.557	-37.694	73.075	20.974	150.460	142.473	146.584	163.845	108.748	-25.305	129.338	175.988	-28.726	-80.111	132.547	138.396	0.00046096	0.00048605	0.00010013	607.6	2.4583e-06	4.101e-06	787.25	223.7	3.0948e-07	3.9911e-06	365.3	147.37	85.887	42.766	1.0174e-05	76.295	0.00053002	0.00051833	0.00014634	585.92	5.6286e-06	5.6958e-06	756.5	215.6	5.7342e-06	5.7238e-06	351.13	141.6	84.488	41.194	5.9155e-06	73.064	152.072	65.045	21.677	-78.832	34.526	64.078	-80.016	-73.736	-83.031	123.639	-75.496	-70.973	-69.200	-63.668	26.609	-66.387	-8191	255	
8559.058	1	1	0	0	0.13986	0.14549	0.15903	0.11913	0.078607	0.093311	0.062997	0.18979	0.095901	0.1045	0.15317	0.1188	0.14302	0.09116	0.13461	0.12582	-4.3854	-4.2688	-4.6813	-4.6958	-4.1521	-4.6958	-4.4333	-4.3667	-4.8833	-4.4083	-4.5625	-4.7333	-4.1042	-4.7625	-4.45	-4.2583	-84.046	215.979	-31.706	155.085	107.789	151.311	-1.004	242.246	66.841	231.196	20.667	173.079	107.483	-75.221	231.380	-51.041	0.00045108	0.00049552	0.00018597	597.13	5.4255e-06	1.026e-05	776.77	221.18	3.9438e-06	7.0717e-06	362.77	146.45	85.566	42.096	4.6288e-06	75.608	0.00053908	0.00053861	0.00015454	575.9	6.155e-06	6.7027e-06	755.5	217.02	9.4359e-06	9.5174e-06	354.96	143.11	86.299	41.325	9.4928e-06	73.408	140.398	-53.052	-62.328	-79.180	4.636	79.439	-80.028	-73.874	98.064	-1.089	-75.451	-70.947	-69.258	-63.884	265.359	-66.379	-8191	255	
8559.152	1	1	0	0	0.043342	0.059236	0.20435	0.14054	0.07284	0.096745	0.18059	0.14362	0.19078	0.14025	0.2221	0.14397	0.10532	0.21029	0.087192	0.047645	-4.4625	-4.2875	-4.4354	-4.7479	-4.2188	-4.6062	-4.6062	-4.2667	-4.7562	-4.4375	-4.4396	-4.8583	-4.225	-4.6458	-4.4583	-4.3646	34.106	22.803	61.816	-25.345	136.349	155.877	157.191	199.335	175.273	-43.007	-81.155	181.876	29.674	-42.824	-59.905	-31.063	0.0003625	0.00053902	0.00019512	592.38	3.2755e-06	3.9918e-06	772.63	222.33	9.304e-06	7.2764e-06	367.88	146.86	85.931	42.068	5.3652e-06	75.794	0.00085778	0.00087555	0.0002461	580.96	9.6871e-06	9.8064e-06	755.38	218.41	9.7582e-06	9.8338e-06	358.74	143.9	86.948	41.322	9.7479e-06	73.44	141.154	-1.300	-11.269	-79.370	190.652	95.412	-79.736	-73.935	-5.465	19.371	-75.623	-71.103	-69.209	-64.160	67.137	-66.536	-8191	255	
8559.273	1	1	0	0	0.052289	0.097598	0.081706	0.037498	0.15291	0.24488	0.20928	0.01017	0.13851	0.080457	0.10442	0.1089	0.24907	0.083613	0.16929	0.19913	-4.5813	-4.3271	-4.3812	-4.9938	-4.2667	-4.5813	-4.7375	-3.9688	-4.7063	-4.4229	-4.5125	-4.875	-4.3938	-4.5646	-4.6625	-4.3146	121.671	127.054	4.006	67.409	183.956	59.019	263.148	-83.524	-45.316	13.729	-77.624	188.355	212.143	225.750	133.469	215.819	0.00036546	0.00052745	0.00021678	593.17	7.6503e-06	3.1027e-06	766.98	221.96	6.2608e-06	3.5615e-06	363.53	145.68	85.553	41.199	4.8897e-06	73.175	0.0008918	0.00091218	0.00025334	583.16	9.9411e-06	1.0179e-05	749.29	217.96	1.0125e-05	1.0254e-05	355.41	143.1	86.55	40.462	1.0307e-05	71.121	161.908	-12.266	-4.626	-78.911	55.851	-76.931	-80.005	-73.519	-5.594	0.378	-75.348	-70.987	-69.255	-63.801	-37.203	-66.492	-8191	255	
8559.369	1	1	0	0	0.030505	0.16324	0.17021	0.25379	0.18687	0.077336	0.070703	0.14589	0.27717	0.1957	0.053228	0.017128	0.19686	0.10468	0.21345	0.36152	-4.2688	-4.4729	-4.1562	-4.9167	-4.2104	-4.4979	-4.675	-4.4563	-4.7438	-4.4563	-4.4271	-4.8187	-4.3562	-4.4167	-4.6229	-4.3479	-85.249	-63.170	54.152	-60.762	154.315	121.723	81.338	255.463	184.091	8.433	100.336	-23.727	28.668	238.011	92.270	235.566	0.00031735	0.00023541	0.0001113	578.62	4.0627e-06	9.3347e-06	754.89	218.5	6.4221e-06	1.411e-06	364.62	144.95	85.203	40.902	1.8384e-06	74.22	0.00092961	0.00096164	0.00026598	570.13	1.0307e-05	1.0478e-05	738.28	215.89	1.0332e-05	1.0156e-05	355.38	142.31	86.113	40.293	9.9986e-06	71.806	150.640	-64.207	253.118	-79.221	6.732	42.358	-80.038	-73.948	181.575	52.320	-75.587	-70.958	-69.295	-63.969	-1.236	-66.916	-8191	255	
8559.465	1	1	0	0	0.26861	0.056162	0.038778	0.097686	0.030893	0.2733	0.21378	0.11526	0.098357	0.082489	0.17964	0.14235	0.1823	0.17565	0.088675	0.22169	-4.3125	-4.3979	-4.1021	-4.825	-4.475	-4.3167	-4.9479	-4.35	-4.6333	-4.5563	-4.0521	-4.7042	-4.5333	-4.3646	-4.7	-4.2771	152.457	10.433	192.968	263.631	228.699	-3.271	225.500	106.414	169.920	6.779	-36.487	139.084	267.235	166.689	-70.557	85.053	0.000356	0.00022616	0.00024661	593.11	2.5807e-06	6.3494e-06	777.96	223.22	1.0897e-05	3.6203e-06	369.81	146.84	85.459	41.198	5.7269e-06	74.598	0.00089894	0.00090549	0.00024744	583.36	9.5668e-06	9.6711e-06	757.34	218.57	9.4152e-06	9.3137e-06	358.68	142.84	85.767	40.376	9.1052e-06	72.303	129.764	11.134	6.400	-79.077	247.647	48.049	-80.235	-73.931	-91.868	62.087	-75.773	-71.325	-69.917	-63.997	-15.597	-66.467	-8191	255	
8559.537	1	1	0	0	0.12677	0.14741	0.26862	0.14333	0.14698	0.081583	0.039665	0.12777	0.062735	0.056937	0.074517	0.091115	0.079275	0.20807	0.32774	0.15431	-4.3167	-4.5208	-4.1708	-4.8313	-4.4854	-4.2688	-4.7917	-4.2375	-4.5271	-4.6583	-4.2063	-4.7479	-4.5646	-4.3479	-4.7188	-4.3313	231.827	-10.360	-28.376	203.197	-57.881	-90.141	-17.347	193.054	163.910	206.927	17.411	123.846	113.635	244.562	212.714	234.487	0.00042662	0.00096587	0.000143	600.47	2.8852e-06	9.0515e-06	780.28	223.64	3.5516e-06	1.0294e-05	364.34	145.21	84.861	41.331	4.6204e-06	74.692	0.00082973	0.0008251	0.00022664	587.49	8.9296e-06	8.9991e-06	757.99	217.68	8.7843e-06	8.5748e-06	355.29	141.74	85.086	40.401	8.5541e-06	72.466	121.552	13.579	22.327	-79.052	201.200	88.363	-80.221	-73.952	176.618	75.595	-75.815	-71.145	-69.283	-63.841	50.727	-66.400	-8191	255	
8559.658	1	1	0	0	0.094514	0.13877	0.16743	0.24236	0.1397	0.18754	0.089942	0.11752	0.12703	0.33938	0.098431	0.25048	0.13232	0.23267	0.085004	0.055518	-4.0479	-4.6458	-4.2083	-4.8583	-4.5417	-4.2063	-4.8667	-4.425	-4.3667	-4.7292	-4.3333	-4.6521	-4.7208	-4.2167	-4.7854	-4.4417	-8.607	196.431	49.033	224.571	-28.529	144.012	259.363	-86.248	251.679	138.653	231.754	-85.782	-71.502	170.775	58.421	89.112	0.00044058	0.0012804	0.00020706	598.81	5.2921e-06	6.2885e-06	782.33	221.31	5.7097e-06	4.1909e-06	367.38	146.64	85.493	41.769	9.9063e-06	75.551	0.00078099	0.00078015	0.00021352	584.06	8.5251e-06	8.5429e-06	758.74	216.82	8.5565e-06	8.509e-06	356.91	142.74	85.491	40.761	8.6571e-06	72.851	141.141	-1.813	-5.384	-79.312	58.655	50.281	-80.087	-73.964	-21.120	115.436	-75.526	-70.845	-68.918	-64.198	56.353	-66.620	-8191	255	
8559.754	1	1	0	0	0.13194	0.23869	0.053738	0.10352	0.030355	0.10614	0.13146	0.18005	0.1311	0.023852	0.2158	0.18811	0.15635	0.058916	0.15364	0.098197	-4.0479	-4.7167	-4.1167	-4.6438	-4.7208	-4.1354	-4.8604	-4.3812	-4.2438	-4.9688	-4.3854	-4.6229	-4.6562	-4.1667	-4.6021	-4.6375	236.638	-26.096	-80.066	62.641	72.408	-28.675	245.535	-63.500	217.155	248.173	195.731	261.212	78.185	160.722	80.026	19.530	0.00039616	0.0012075	0.00018474	599.45	3.0401e-06	4.3703e-06	774.48	221.89	5.3e-06	1.6076e-06	363.18	145.16	84.765	41.513	6.6207e-06	74.689	0.00077706	0.00079321	0.00021791	583.26	8.5094e-06	8.5081e-06	753.09	216.27	8.5372e-06	8.6428e-06	352.42	141.73	85.174	40.583	8.8126e-06	72.067	122.462	-30.930	-5.359	-79.347	-30.895	56.498	-80.245	-73.643	135.890	157.780	-75.862	-71.090	-69.590	-63.973	187.221	-66.626	-8191	255	
8559.850	1	1	0	0	0.21818	0.15213	0.080454	0.30458	0.24563	0.29521	0.2107	0.36838	0.14847	0.12871	0.18349	0.21707	0.1434	0.22658	0.10535	0.13959	-3.8896	-4.7083	-4.2354	-4.5542	-4.6375	-4.2875	-4.825	-4.4979	-4.3583	-4.7208	-4.2979	-4.4271	-4.8271	-4.15	-4.7271	-4.7312	122.983	213.440	67.708	266.891	-78.168	195.479	231.726	225.430	189.966	186.557	151.913	188.634	234.221	-83.375	233.266	218.162	0.00036569	0.000845	0.00020239	584.75	8.5019e-06	4.8348e-06	760.91	217.26	7.2242e-06	1.0564e-05	353.34	143.67	84.235	41.487	3.3106e-06	74.725	0.00078383	0.00080244	0.00022041	573.26	8.4729e-06	8.4202e-06	738.81	212.21	8.3619e-06	8.4728e-06	343.06	139.81	84.469	40.666	8.263e-06	72.024	136.267	4.751	30.315	-79.215	34.317	255.951	-80.136	-73.769	41.123	129.042	-75.542	-71.093	-69.420	-63.977	96.993	-66.548	-8191	255	
8559.970	1	1	0	0	0.036413	0.15403	0.12448	0.1219	0.22799	0.21605	0.15913	0.14144	0.21582	0.08269	0.045291	0.092916	0.12166	0.027746	0.067354	0.16358	-3.7875	-4.5604	-4.2604	-4.4146	-5.0167	-4.25	-4.6958	-4.6167	-4.2667	-4.7708	-4.4812	-4.3771	-4.8146	-4.3104	-4.6125	-4.7438	-76.176	127.841	-33.668	224.919	142.085	175.449	-87.029	144.893	-9.425	-17.289	221.381	-10.269	21.200	-88.694	-40.160	84.368	0.00045851	0.00063291	8.949e-05	593.72	2.1538e-06	8.0507e-06	766.93	218.74	1.4111e-06	8.5908e-06	354.94	144.58	85.004	42.279	2.8277e-06	75.738	0.00072768	0.00074183	0.0002045	580.33	7.9314e-06	8.0341e-06	746.33	212.98	8.0088e-06	8.1822e-06	344.08	140.54	84.719	41.223	8.1152e-06	73.015	145.424	34.762	-34.931	-79.217	128.667	33.587	-80.027	-73.724	62.953	53.613	-75.673	-71.154	-69.149	-64.036	-39.391	-66.587	-8191	255	
8560.065	1	1	0	0	0.056796	0.082508	0.20965	0.014462	0.062213	0.26496	0.042607	0.22245	0.093467	0.161	0.089241	0.31536	0.097472	0.11592	0.16898	0.19736	-3.9042	-4.9208	-4.2979	-4.425	-4.7417	-4.2063	-4.55	-4.6583	-4.0583	-4.7521	-4.4563	-4.3583	-4.8812	-4.3521	-4.4958	-4.7562	69.249	0.131	151.899	140.398	217.912	8.177	-9.512	232.632	31.266	-55.399	245.762	-66.733	190.319	70.546	53.847	174.631	0.00043623	0.00046847	0.00014366	601.91	4.1155e-06	2.3808e-06	776.77	219.41	5.0797e-06	3.3514e-06	356.72	145.42	86.105	42.779	5.5204e-06	76.581	0.00070392	0.00072381	0.00019719	584.15	7.6147e-06	7.6555e-06	751.48	213.69	7.7173e-06	7.99e-06	346.76	141.51	85.353	41.626	7.9722e-06	73.893	135.700	152.445	-36.554	-79.003	14.499	128.487	-80.025	-73.811	70.262	61.786	-75.668	-70.906	-69.420	-63.749	2.033	-66.606	-8191	255	
8560.138	1	1	0	0	0.095939	0.19337	0.10687	0.16357	0.23357	0.11026	0.056765	0.2022	0.24237	0.20949	0.024818	0.037082	0.19129	0.099071	0.099105	0.061173	-3.9208	-4.675	-4.4729	-4.3313	-4.7667	-4.3021	-4.6271	-4.7688	-4.1292	-4.6083	-4.6833	-4.2917	-4.6813	-4.4146	-4.2833	-4.825	195.625	-33.701	185.636	261.543	134.587	48.524	-38.728	93.833	153.089	-15.317	202.065	186.809	177.997	265.410	66.807	-23.816	0.00040951	0.00063762	0.00040373	609.2	4.1943e-06	5.5354e-06	788.25	221.54	5.6022e-06	5.793e-06	362.93	145.99	86.241	43.485	3.3237e-06	76.702	0.00071552	0.00074008	0.00020388	591.13	8.1038e-06	8.2188e-06	762.17	216.58	8.175e-06	8.3827e-06	351.22	142.8	86.325	42.234	8.1842e-06	74.311	132.534	-14.524	37.445	-78.994	-41.223	70.747	-80.057	-73.628	67.267	110.672	-75.730	-70.737	-69.363	-63.803	21.488	-66.311	-8191	255	
8560.257	1	1	0	0	0.15061	0.15917	0.12006	0.069375	0.12518	0.1297	0.17459	0.18607	0.15272	0.18233	0.050049	0.19387	0.058558	0.2493	0.045974	0.18675	-3.8333	-4.6562	-4.8417	-4.3146	-4.7562	-4.5	-4.4104	-4.9104	-4.3021	-4.4542	-4.6021	-4.3688	-4.7625	-4.5521	-4.3812	-4.8313	187.638	125.565	20.671	226.794	-30.503	178.328	252.417	-75.556	-2.380	245.271	76.870	181.170	-75.049	196.716	209.545	193.912	0.00030207	0.00043457	0.00013163	605.35	4.042e-06	4.5716e-06	784.59	222.35	9.502e-06	1.1101e-05	362.98	147.76	87.027	43.749	6.426e-06	77.34	0.00073576	0.00076341	0.00021055	589.64	8.3348e-06	8.2533e-06	759.95	216.79	8.2396e-06	8.3866e-06	352.19	143.99	86.94	42.45	8.301e-06	74.492	113.968	-34.090	10.172	-79.120	54.631	18.937	-80.149	-73.767	-16.319	36.479	-75.545	-70.638	-69.658	-63.899	61.918	-66.719	-8191	255	
8560.353	1	1	0	0	0.12481	0.096552	0.051799	0.032376	0.1158	0.15674	0.033457	0.18394	0.052321	0.3233	0.10389	0.14598	0.13023	0.21117	0.14504	0.052319	-3.9688	-4.575	-4.6854	-4.2417	-4.7354	-4.5583	-4.2646	-4.7958	-4.1792	-4.4313	-4.8479	-4.2438	-4.6333	-4.6104	-4.2896	-4.9854	44.935	64.525	110.443	-4.809	109.872	256.051	126.280	201.628	125.798	31.976	-4.913	-23.849	256.690	263.171	107.989	33.390	0.00046406	0.00038599	0.00035445	594.76	4.7045e-06	2.2413e-06	776.55	221.99	2.528e-06	9.6219e-06	360.11	146.59	86.452	43.195	4.4153e-06	76.926	0.00075378	0.00079145	0.00021792	581.26	8.6955e-06	8.7098e-06	753.79	216.12	8.6588e-06	8.7833e-06	349.74	142.73	86.621	42.071	8.505e-06	74.301	140.702	87.699	-19.701	-79.126	30.833	259.942	-80.427	-73.710	-89.830	102.466	-75.617	-71.002	-69.175	-63.515	42.306	-66.664	-8191	255	
8560.449	1	1	0	0	0.1437	0.23479	0.085401	0.20918	0.12691	0.088995	0.099827	0.073308	0.25379	0.18044	0.26343	0.22251	0.055767	0.3141	0.15929	0.048559	-3.9604	-4.5833	-4.8063	-4.3375	-4.775	-4.4771	-4.3479	-4.9104	-4.3	-4.3958	-4.8562	-4.3604	-4.6687	-4.625	-4.2937	-4.9271	121.978	81.573	44.444	256.217	-47.743	249.227	257.957	-75.347	265.409	221.095	178.398	190.533	-41.950	-70.800	201.903	-80.687	0.00042048	0.00082687	0.00015118	625.45	3.2559e-06	3.2672e-06	797.96	223.23	8.5523e-06	6.6237e-06	362.64	146.65	86.362	43.015	1.7385e-06	76.515	0.00076712	0.00078422	0.00021531	609.53	8.7498e-06	8.6786e-06	776.36	218.6	8.8244e-06	8.9894e-06	351.68	142.92	86.756	42.116	9.1821e-06	74.102	134.100	14.614	-2.198	-79.147	238.779	50.411	-79.958	-73.871	109.598	-1.441	-75.563	-71.123	-69.283	-63.824	-56.533	-66.482	-8191	255	
#DATA ENDS
