BOXY.EXE: ISS Imagent and Oximeter Data Acquisition Program Version 0.80
Ascii Record File

#ACQ INFORMATION
2  Detector Channels 
16  External MUX Channels 
1  Auxiliary Channels 
5000  Waveform (CCF) Frequency (Hz)
1  Waveforms Skipped 
30  Waveforms Averaged 
1  Cycles Averaged 
16  Acquisitions per Waveform 
10.0806  Updata Rate (Hz) 

#FILE INFORMATION
TRUE -- External MUX Channel results are PARSED.
FALSE -- AC DC and Phase are NOT grouped.
TRUE -- Companion Program Settings File CREATED.
FALSE -- AC data not excluded
FALSE -- DC data not excluded
FALSE -- Phase data not excluded
FALSE -- Auxillary Chn. data not excluded
Tab delimiters

#CALIBRATION STATE
TRUE -- Waveform Calibration Values APPLIED.


#AUX CALIBRATION VALUES
Val Type	aux-1	

Term	1.0000e+00	
Factor	0.0000e+00	


#WF CALIBRATION VALUES
A = Detector Channel
Val Type	A-AC1	A-AC2	A-AC3	A-AC4	A-AC5	A-AC6	A-AC7	A-AC8	A-AC9	A-AC10	A-AC11	A-AC12	A-AC13	A-AC14	A-AC15	A-AC16	A-DC1	A-DC2	A-DC3	A-DC4	A-DC5	A-DC6	A-DC7	A-DC8	A-DC9	A-DC10	A-DC11	A-DC12	A-DC13	A-DC14	A-DC15	A-DC16	A-Ph1	A-Ph2	A-Ph3	A-Ph4	A-Ph5	A-Ph6	A-Ph7	A-Ph8	A-Ph9	A-Ph10	A-Ph11	A-Ph12	A-Ph13	A-Ph14	A-Ph15	A-Ph16	

Term	0.00000e+00	0.00000e+00	0.00000e+00	0.00000e+00	0.00000e+00	0.00000e+00	0.00000e+00	0.00000e+00	0.00000e+00	0.00000e+00	0.00000e+00	0.00000e+00	0.00000e+00	0.00000e+00	0.00000e+00	0.00000e+00	0.00000e+00	0.00000e+00	0.00000e+00	0.00000e+00	0.00000e+00	0.00000e+00	0.00000e+00	0.00000e+00	0.00000e+00	0.00000e+00	0.00000e+00	0.00000e+00	0.00000e+00	0.00000e+00	0.00000e+00	0.00000e+00	0.00000e+00	0.00000e+00	0.00000e+00	0.00000e+00	0.00000e+00	0.00000e+00	0.00000e+00	0.00000e+00	0.00000e+00	0.00000e+00	0.00000e+00	0.00000e+00	0.00000e+00	0.00000e+00	0.00000e+00	0.00000e+00	
Factor	1.00000e+00	1.00000e+00	1.00000e+00	1.00000e+00	1.00000e+00	1.00000e+00	1.00000e+00	1.00000e+00	1.00000e+00	1.00000e+00	1.00000e+00	1.00000e+00	1.00000e+00	1.00000e+00	1.00000e+00	1.00000e+00	1.00000e+00	1.00000e+00	1.00000e+00	1.00000e+00	1.00000e+00	1.00000e+00	1.00000e+00	1.00000e+00	1.00000e+00	1.00000e+00	1.00000e+00	1.00000e+00	1.00000e+00	1.00000e+00	1.00000e+00	1.00000e+00	X	X	X	X	X	X	X	X	X	X	X	X	X	X	X	X	

B = Detector Channel
Val Type	B-AC1	B-AC2	B-AC3	B-AC4	B-AC5	B-AC6	B-AC7	B-AC8	B-AC9	B-AC10	B-AC11	B-AC12	B-AC13	B-AC14	B-AC15	B-AC16	B-DC1	B-DC2	B-DC3	B-DC4	B-DC5	B-DC6	B-DC7	B-DC8	B-DC9	B-DC10	B-DC11	B-DC12	B-DC13	B-DC14	B-DC15	B-DC16	B-Ph1	B-Ph2	B-Ph3	B-Ph4	B-Ph5	B-Ph6	B-Ph7	B-Ph8	B-Ph9	B-Ph10	B-Ph11	B-Ph12	B-Ph13	B-Ph14	B-Ph15	B-Ph16	

Term	0.00000e+00	0.00000e+00	0.00000e+00	0.00000e+00	0.00000e+00	0.00000e+00	0.00000e+00	0.00000e+00	0.00000e+00	0.00000e+00	0.00000e+00	0.00000e+00	0.00000e+00	0.00000e+00	0.00000e+00	0.00000e+00	0.00000e+00	0.00000e+00	0.00000e+00	0.00000e+00	0.00000e+00	0.00000e+00	0.00000e+00	0.00000e+00	0.00000e+00	0.00000e+00	0.00000e+00	0.00000e+00	0.00000e+00	0.00000e+00	0.00000e+00	0.00000e+00	-1.76971e+02	-1.26231e+02	-1.22654e+02	-1.81614e+02	-8.27724e+01	-7.88091e+01	-1.57570e+02	-1.62015e+02	-8.57950e+01	-7.03981e+01	-1.71199e+02	-1.72854e+02	-1.84169e+02	-1.76777e+02	-8.06855e+01	-1.49602e+02	
Factor	3.07816e-05	1.62578e-04	4.72384e-05	1.51029e-01	1.31753e-06	1.41732e-06	1.65794e-01	5.23204e-02	1.70557e-06	1.74508e-06	8.62220e-02	3.50286e-02	3.70922e-02	9.34852e-03	1.66101e-06	1.36017e-02	2.42273e-06	2.59562e-06	7.22291e-07	7.56502e-02	2.81075e-08	2.84093e-08	7.83351e-02	2.61589e-02	2.80967e-08	2.83958e-08	4.18652e-02	1.69423e-02	1.85081e-02	4.69075e-03	2.82755e-08	6.61081e-03	X	X	X	X	X	X	X	X	X	X	X	X	X	X	X	X	



#DISTANCE SETTINGS
A = Detector Channel
A-1	A-2	A-3	A-4	A-5	A-6	A-7	A-8	A-9	A-10	A-11	A-12	A-13	A-14	A-15	A-16	

2.5000e+00	3.0000e+00	2.5000e+00	3.0000e+00	2.0000e+00	3.0000e+00	1.5000e+00	3.0000e+00	3.0000e+00	3.0000e+00	3.0000e+00	3.0000e+00	3.0000e+00	3.0000e+00	1.5000e+00	3.0000e+00	

B = Detector Channel
B-1	B-2	B-3	B-4	B-5	B-6	B-7	B-8	B-9	B-10	B-11	B-12	B-13	B-14	B-15	B-16	

1.0000e+01	1.0000e+01	1.0000e+01	1.4400e+00	1.0000e+01	1.0000e+01	1.5100e+00	1.9400e+00	1.0000e+01	1.0000e+01	1.9900e+00	2.4900e+00	2.4100e+00	2.9000e+00	1.0000e+01	2.9800e+00	




#DATA BEGINS
time	group	step	mark	flag	A-AC1	A-AC2	A-AC3	A-AC4	A-AC5	A-AC6	A-AC7	A-AC8	A-AC9	A-AC10	A-AC11	A-AC12	A-AC13	A-AC14	A-AC15	A-AC16	A-DC1	A-DC2	A-DC3	A-DC4	A-DC5	A-DC6	A-DC7	A-DC8	A-DC9	A-DC10	A-DC11	A-DC12	A-DC13	A-DC14	A-DC15	A-DC16	A-Ph1	A-Ph2	A-Ph3	A-Ph4	A-Ph5	A-Ph6	A-Ph7	A-Ph8	A-Ph9	A-Ph10	A-Ph11	A-Ph12	A-Ph13	A-Ph14	A-Ph15	A-Ph16	B-AC1	B-AC2	B-AC3	B-AC4	B-AC5	B-AC6	B-AC7	B-AC8	B-AC9	B-AC10	B-AC11	B-AC12	B-AC13	B-AC14	B-AC15	B-AC16	B-DC1	B-DC2	B-DC3	B-DC4	B-DC5	B-DC6	B-DC7	B-DC8	B-DC9	B-DC10	B-DC11	B-DC12	B-DC13	B-DC14	B-DC15	B-DC16	B-Ph1	B-Ph2	B-Ph3	B-Ph4	B-Ph5	B-Ph6	B-Ph7	B-Ph8	B-Ph9	B-Ph10	B-Ph11	B-Ph12	B-Ph13	B-Ph14	B-Ph15	B-Ph16	aux-1	digaux	

8459.476	1	1	0	512	0.15073	0.11877	0.078742	0.29301	0.17371	0.37048	0.22461	0.15236	0.042365	0.013521	0.32097	0.01597	0.21044	0.17316	0.18183	0.14099	-4.3104	-4.8708	-4.1438	-5.0958	-4.6458	-4.5271	-5.0292	-4.5604	-4.4979	-4.9583	-4.4437	-4.9458	-4.6813	-4.5771	-4.9083	-4.7146	30.604	77.935	-32.209	153.497	-74.764	-71.206	-124.887	147.039	-91.776	-77.358	134.148	-137.014	34.118	5.801	-99.499	130.587	0.00070562	0.001426	0.00056675	1359.1	1.1009e-05	1.0308e-05	1213.1	411.79	1.8372e-05	1.8468e-05	472.45	149.87	125.71	37.904	2.1291e-05	56.876	0.0049195	0.0051311	0.0014174	1348.8	5.5854e-05	5.6369e-05	1226.5	415.25	5.6091e-05	5.5936e-05	496.21	165.02	145.73	42.349	5.4878e-05	62.953	143.712	81.133	-56.170	-130.587	113.640	-16.304	-131.791	-126.563	-17.745	-101.533	-127.692	-124.683	-123.052	-117.603	-3.237	-119.940	-8191	255	
8459.570	1	1	0	0	0.095476	0.25809	0.04592	0.30688	0.058498	0.16676	0.16307	0.24867	0.20662	0.27135	0.19582	0.05384	0.16338	0.19699	0.21066	0.12837	-4.35	-4.8604	-4.3729	-4.7583	-4.5979	-4.2792	-5.0979	-4.5479	-4.6792	-4.9521	-4.5208	-4.9458	-4.775	-4.5813	-4.9042	-4.6083	-81.642	-95.123	86.463	178.661	-135.554	92.281	113.453	140.986	173.081	-17.818	143.967	43.058	213.475	-133.198	41.451	186.126	0.00063043	0.0015138	0.00026286	1355	1.962e-05	2.8326e-05	1209.6	413.37	5.3179e-06	1.4898e-05	470.73	151.19	126.07	38.064	1.7787e-05	57.565	0.0047352	0.0049945	0.0013859	1341	5.3865e-05	5.3717e-05	1219.6	413.32	5.3727e-05	5.3823e-05	492.64	164.39	144.41	42.266	5.3881e-05	63.071	162.588	21.627	-70.843	-130.813	-18.518	8.883	-131.605	-126.607	121.859	173.207	-128.245	-124.053	-122.736	-118.125	-103.789	-120.096	-8191	255	
8459.691	1	1	0	0	0.068344	0.18941	0.099426	0.13691	0.17169	0.28739	0.18295	0.22681	0.066052	0.14082	0.097494	0.16824	0.074431	0.078473	0.089044	0.24343	-4.0625	-4.8562	-4.3146	-4.9812	-4.6771	-4.3479	-5.0917	-4.6438	-4.5188	-4.8979	-4.4896	-4.6729	-4.8896	-4.3604	-4.8583	-4.6854	138.283	-83.391	11.724	92.473	19.963	-64.707	152.257	146.761	92.615	52.830	78.167	199.595	197.450	192.224	128.906	105.906	0.0009018	0.001803	0.00034252	1347.5	1.3895e-05	2.0059e-05	1209.8	415.09	2.3322e-05	8.607e-06	475.77	150.64	127.02	38.393	3.2888e-06	58.126	0.0045843	0.0048992	0.0013554	1337.1	5.2487e-05	5.3007e-05	1218.2	414.1	5.2517e-05	5.275e-05	494.97	164.48	145.04	42.411	5.3996e-05	63.587	142.924	-108.227	-70.584	-130.688	-52.245	-28.857	-131.834	-126.503	4.324	-39.280	-127.863	-124.352	-122.776	-117.701	120.866	-119.915	-8191	255	
8459.787	1	1	0	0	0.15456	0.27176	0.15237	0.053284	0.2976	0.088709	0.10873	0.15271	0.080432	0.09785	0.26213	0.060763	0.16809	0.17047	0.15589	0.12893	-4.2021	-4.7771	-4.5708	-4.7354	-4.7937	-4.3417	-5.1646	-4.725	-4.6083	-4.9167	-4.5917	-4.6083	-5.1458	-4.3417	-4.6771	-4.7208	-104.034	85.527	102.348	145.985	2.945	-74.489	-95.617	186.830	65.890	64.703	-136.136	154.352	163.971	209.654	157.153	129.054	0.00019911	0.0018816	0.00017268	1356	2.0498e-05	8.3202e-06	1216.9	415.77	2.2918e-05	1.1612e-05	476.78	151.26	127.11	38.671	1.4247e-05	58.193	0.0045632	0.0048764	0.0013662	1341.8	5.2905e-05	5.2854e-05	1224.3	415.67	5.2313e-05	5.3323e-05	496.53	164.58	145.35	42.572	5.3921e-05	63.39	114.436	21.685	-66.215	-130.999	-31.750	-14.021	-131.696	-126.450	115.188	139.916	-127.688	-124.332	-122.183	-117.423	159.948	-119.886	-8191	255	
8459.883	1	1	0	0	0.11502	0.16644	0.027636	0.24076	0.31097	0.22204	0.14657	0.26255	0.1554	0.314	0.030109	0.091626	0.23712	0.091067	0.20946	0.095281	-4.0938	-4.9458	-4.4125	-4.7292	-4.8833	-4.4146	-4.9604	-4.775	-4.5729	-4.8292	-4.6833	-4.5167	-5.0729	-4.3917	-4.8375	-4.7937	71.297	-92.203	22.654	194.471	147.341	-34.000	149.279	-139.718	122.738	29.361	11.397	83.898	165.111	112.623	-94.084	-85.514	0.00095994	0.0016926	0.00047518	1363	1.3875e-05	6.8434e-06	1217.8	415.89	3.3319e-05	7.1973e-06	471.05	150.19	125.95	38.193	1.1189e-05	57.472	0.0045782	0.0049176	0.0013643	1343.8	5.2743e-05	5.2867e-05	1224	414.72	5.2034e-05	5.3794e-05	492.47	163.67	144.2	42.311	5.3939e-05	62.973	173.264	-69.728	105.322	-130.843	-95.332	-4.044	-131.893	-126.578	-17.850	121.363	-127.721	-124.463	-122.412	-117.619	67.782	-119.955	-8191	255	
8459.979	1	1	0	0	0.19776	0.19286	0.13491	0.032203	0.086116	0.1139	0.18349	0.28109	0.16288	0.085465	0.20284	0.10263	0.095634	0.10739	0.26042	0.15713	-3.9979	-4.9625	-4.5708	-4.7729	-5.0354	-4.4396	-4.8917	-4.9729	-4.2562	-5.0708	-4.6333	-4.4979	-4.9875	-4.4896	-4.5854	-4.8292	112.734	196.328	209.846	-115.351	24.644	65.649	134.126	93.150	30.421	-0.621	88.208	-103.465	-130.438	-118.719	200.445	171.677	0.00068236	0.0016682	0.00029591	1356.6	2.0182e-06	3.2838e-06	1215	416.95	2.2071e-05	1.7955e-05	473.17	149.36	125.7	37.989	2.8726e-05	57.001	0.0045195	0.0049067	0.0013541	1337.2	5.2681e-05	5.2712e-05	1219.7	413.56	5.2109e-05	5.3761e-05	494.14	162.82	144.01	42.166	5.3946e-05	62.698	148.571	-5.249	-38.002	-130.600	-56.752	-91.496	-131.617	-126.442	-6.710	111.883	-127.465	-124.369	-122.859	-117.510	80.807	-119.766	-8191	255	
8460.076	1	1	0	0	0.068477	0.15778	0.2048	0.2139	0.041417	0.13459	0.23825	0.55736	0.040456	0.2435	0.14248	0.12869	0.097272	0.085628	0.049334	0.23129	-3.9729	-4.6146	-4.6937	-4.5687	-4.925	-4.5687	-4.8083	-5.05	-4.2708	-4.95	-4.8562	-4.5875	-5.2021	-4.7625	-4.6146	-5.0292	45.224	102.461	-70.033	157.798	132.764	125.061	126.787	198.936	-126.370	64.875	178.971	-19.002	50.207	3.887	-8.914	-75.176	0.00080784	0.0028478	0.00078432	1358	1.1325e-06	7.5978e-06	1209.5	411.08	3.3337e-05	2.3555e-05	471.8	149.16	125.6	37.756	1.8779e-05	57.321	0.0045365	0.0049389	0.0013455	1332.7	5.2757e-05	5.293e-05	1218.2	411.23	5.2092e-05	5.3432e-05	491.94	162.05	143.37	41.962	5.2718e-05	62.397	139.143	-105.479	-75.449	-130.675	-55.741	-84.521	-131.772	-126.503	-49.316	38.953	-127.728	-124.008	-122.739	-117.668	51.890	-119.610	-8191	255	
8460.172	1	1	0	0	0.25193	0.18403	0.19615	0.097084	0.18289	0.21472	0.069548	0.19967	0.053586	0.19021	0.18853	0.10262	0.15805	0.14932	0.089848	0.15294	-4.0687	-4.9646	-4.7188	-4.6188	-5.0667	-4.5708	-4.775	-5.1125	-4.4792	-4.8146	-4.8812	-4.4187	-5.0646	-4.6833	-4.5813	-4.9542	187.834	-87.241	104.015	-119.479	79.803	38.860	138.389	179.364	-58.667	205.812	-40.246	-117.311	181.402	208.368	-131.449	74.437	0.00089895	0.0016452	0.00016397	1352.8	1.7848e-05	9.9776e-06	1208.9	409.11	3.5228e-05	1.8677e-05	473.38	149.98	124.62	37.919	8.6639e-06	57.684	0.0044481	0.0048199	0.0013226	1325.7	5.1758e-05	5.1749e-05	1209.5	408.74	5.0803e-05	5.2151e-05	489.57	161.47	142.57	41.856	5.166e-05	62.782	175.599	75.328	198.793	-130.846	-95.412	-18.828	-131.927	-126.248	88.510	17.431	-127.891	-124.178	-123.269	-117.968	21.394	-119.406	-8191	255	
8460.268	1	1	0	0	0.17109	0.17427	0.19146	0.20132	0.18951	0.29605	0.10619	0.21095	0.13906	0.38879	0.036042	0.02537	0.096591	0.098292	0.085003	0.11335	-4.0542	-4.5417	-4.7458	-4.5938	-5.1062	-4.5125	-4.6583	-4.9042	-4.4563	-4.7396	-5.0188	-4.4187	-4.9729	-4.6521	-4.2562	-5.0354	99.654	136.406	106.080	121.059	-9.717	152.606	124.245	101.646	45.547	-11.336	136.194	-141.809	-64.820	-137.723	116.873	207.074	0.00033387	0.002022	0.00062392	1350.8	1.4183e-05	5.9419e-06	1211	410.81	9.4699e-06	5.9173e-06	472.13	149.48	124.99	37.861	1.4523e-05	57.44	0.0043829	0.0047629	0.0013165	1326.5	5.1636e-05	5.1212e-05	1210.4	410.01	5.0279e-05	5.1884e-05	488.75	161.1	142.72	41.789	5.1089e-05	62.573	159.366	-35.809	-50.048	-130.746	-63.135	118.271	-131.589	-126.234	-29.548	108.548	-127.744	-124.405	-122.716	-117.434	-81.299	-120.010	-8191	255	
8460.364	1	1	0	0	0.1435	0.021958	0.23311	0.34739	0.16837	0.12388	0.20345	0.18394	0.15112	0.17417	0.2465	0.11564	0.27437	0.12508	0.043443	0.19571	-4.2396	-4.6771	-4.8021	-4.5396	-4.8917	-4.6146	-4.4979	-5.1292	-4.5125	-4.4458	-5.1667	-4.3438	-4.9958	-4.7958	-4.3646	-4.9542	-12.929	13.525	77.294	162.216	-93.319	-36.946	149.557	178.438	-64.392	204.050	130.328	105.673	150.597	116.030	-124.776	101.630	0.00057875	0.0013857	0.00021053	1343.6	1.592e-05	6.0933e-06	1213.2	409.14	2.2945e-05	1.7837e-05	468.37	147.61	124.36	37.785	1.8897e-05	57.022	0.0044162	0.0047747	0.0013106	1324.5	5.2046e-05	5.179e-05	1209	408.13	5.0349e-05	5.1414e-05	486.46	160.42	142.11	41.637	5.0144e-05	62.275	117.369	19.320	-91.780	-130.824	-77.008	97.244	-131.653	-126.408	-117.108	-37.793	-127.860	-124.487	-122.863	-117.768	-50.909	-119.898	-8191	255	
8460.483	1	1	0	0	0.17643	0.12055	0.046271	0.25073	0.13631	0.09338	0.18953	0.36573	0.092445	0.084143	0.35632	0.20813	0.030855	0.1549	0.26038	0.24296	-4.1937	-4.4187	-4.8938	-4.3313	-4.6667	-4.9292	-4.2958	-5.2042	-4.3354	-4.5146	-4.8729	-4.3979	-4.7438	-4.825	-4.425	-4.975	-10.389	110.109	-142.888	192.242	-128.180	148.294	34.579	168.256	144.710	154.341	123.162	90.480	-31.668	162.030	17.826	-100.084	0.00080121	0.0023746	0.00033019	1345	1.444e-05	9.851e-06	1202	408.87	2.1537e-05	7.1495e-06	467	148.45	124.51	37.739	1.4582e-05	56.779	0.004327	0.0046801	0.0012833	1316	5.0906e-05	5.0441e-05	1198.5	405.83	4.9658e-05	5.0337e-05	484.29	159.47	141.43	41.421	4.9793e-05	61.955	117.334	197.952	-5.423	-130.931	-37.463	-83.195	-131.917	-126.625	-87.297	75.646	-127.751	-124.264	-122.758	-117.451	12.505	-119.721	-8191	255	
8460.579	1	1	0	0	0.10774	0.17621	0.19411	0.043749	0.18686	0.17233	0.018371	0.11612	0.094017	0.11728	0.17964	0.17989	0.095334	0.1177	0.16127	0.25149	-4.3417	-4.4729	-4.8521	-4.55	-4.7688	-4.8958	-4.2271	-5.1292	-4.4833	-4.525	-5.0292	-4.5437	-4.8042	-5.0396	-4.3396	-4.9854	-22.311	-29.277	132.426	87.684	132.238	172.995	196.433	100.632	-29.491	205.434	-134.412	86.577	57.161	-115.343	58.337	101.811	0.00073643	0.0015311	0.00052241	1346.2	3.415e-05	1.6922e-05	1209.2	407.84	2.0514e-05	2.0174e-05	469.83	147.78	125.5	37.442	1.0825e-05	56.711	0.0043129	0.0045958	0.001286	1317	5.0598e-05	5.032e-05	1203.4	407.23	5.0451e-05	5.0897e-05	486.25	160.26	142.32	41.595	5.0764e-05	62.387	138.545	-62.026	-135.142	-130.914	-36.998	20.298	-131.814	-126.097	-126.760	-75.981	-127.605	-124.129	-122.753	-117.837	-24.365	-119.634	-8191	255	
8460.652	1	1	0	0	0.14559	0.066947	0.19682	0.20714	0.13379	0.076835	0.35782	0.13008	0.25338	0.11355	0.1961	0.18497	0.081084	0.12441	0.31725	0.20187	-4.1937	-4.5604	-4.8604	-4.8042	-4.4833	-5.0813	-4.4896	-5.0396	-4.7521	-4.2708	-5.05	-4.75	-4.5396	-5.0542	-4.1979	-4.8417	-108.387	-42.936	-3.487	175.070	-79.147	112.341	134.161	126.072	114.296	53.930	168.510	214.162	-131.960	208.564	164.458	109.214	0.00063844	0.0028894	0.00030584	1343.4	7.139e-06	7.0869e-06	1205.3	408.47	7.8694e-06	1.7278e-05	470.39	148.99	124.52	37.904	1.1984e-05	57.57	0.0044037	0.0046419	0.0013128	1320.2	5.0451e-05	5.0686e-05	1204.9	408.46	5.0321e-05	5.0226e-05	487.63	160.93	142.04	41.811	5.0398e-05	62.792	159.547	-104.411	3.864	-130.778	47.333	-90.546	-131.759	-126.465	17.107	12.246	-127.837	-124.186	-122.786	-117.710	-116.164	-119.835	-8191	255	
8460.771	1	1	0	0	0.094227	0.091698	0.14753	0.38379	0.12727	0.14332	0.17979	0.16731	0.15285	0.15336	0.16998	0.21011	0.14609	0.24716	0.089594	0.31497	-4.4187	-4.3583	-5.0667	-4.5958	-4.3771	-4.9333	-4.4875	-4.8562	-4.8646	-4.4542	-5.0125	-4.7354	-4.5583	-4.95	-4.4292	-4.6625	48.020	-135.697	-53.738	139.233	-76.131	102.862	-82.795	195.668	-55.030	55.748	182.765	119.315	86.261	123.243	20.453	183.100	0.00067017	0.0014053	0.00033431	1354.4	1.1221e-05	6.9644e-06	1202	410.14	1.7142e-05	6.0906e-06	472.68	149.89	126.56	38.362	1.8926e-05	57.798	0.0043766	0.0046447	0.0013168	1324.6	5.0239e-05	5.0895e-05	1206.6	408.62	4.9741e-05	5.0127e-05	489.42	161.31	142.46	42.016	5.0257e-05	62.793	147.415	-13.302	34.416	-130.755	-126.076	62.847	-131.739	-126.292	-90.413	-54.752	-127.961	-124.233	-122.508	-117.721	211.353	-119.467	-8191	255	
8460.868	1	1	0	0	0.017476	0.1088	0.086576	0.26979	0.082295	0.027107	0.14002	0.22467	0.099325	0.1098	0.15624	0.22726	0.20504	0.1331	0.059907	0.081648	-4.4854	-4.4292	-4.8292	-4.9896	-4.4167	-5.1521	-4.5708	-4.8	-4.7875	-4.2271	-4.8562	-4.7562	-4.2104	-5.0354	-4.3479	-4.6729	2.186	165.227	-138.191	187.834	2.055	121.631	91.697	174.956	117.505	53.576	211.467	-37.643	120.041	137.601	-89.760	138.601	0.00038021	0.0011344	0.0011166	1350.9	2.0407e-05	1.0863e-05	1203	411.48	1.0503e-05	1.6202e-06	470.57	149.18	125.86	38.058	6.3253e-06	57.422	0.0043675	0.0045931	0.0013086	1324.4	4.987e-05	5.0614e-05	1205.7	408.98	4.9775e-05	4.9972e-05	488.73	160.81	141.85	41.957	5.0146e-05	62.597	104.532	53.282	-69.770	-130.687	-2.876	66.940	-131.710	-126.239	86.977	152.096	-127.506	-124.671	-122.662	-117.670	144.394	-119.463	-8191	255	
8460.964	1	1	0	0	0.11713	0.28396	0.1372	0.15268	0.19133	0.030135	0.3384	0.21829	0.27953	0.078487	0.36313	0.22214	0.12769	0.083904	0.005758	0.16289	-4.5958	-4.3229	-4.7021	-5.0854	-4.3646	-4.9729	-4.6479	-4.7083	-4.9437	-4.2896	-4.9521	-4.8688	-4.2812	-4.9292	-4.6083	-4.4812	83.971	-54.303	-78.343	90.999	-116.338	83.135	112.195	-133.050	-77.878	-102.680	161.988	-123.051	73.129	-68.140	143.837	-43.692	0.00033319	0.0005009	0.00026323	1345.3	7.0133e-06	2.1192e-05	1206	410.28	7.6347e-06	2.2568e-05	468.57	149.09	124.9	37.937	7.7693e-06	57.509	0.0043547	0.0045877	0.0012994	1319.9	4.9385e-05	5.0678e-05	1206.6	407.44	4.9377e-05	4.9463e-05	487.97	160.15	141.12	41.767	4.9709e-05	62.334	149.716	-76.829	187.513	-130.627	81.639	122.903	-131.679	-126.161	171.774	147.587	-127.509	-124.062	-122.824	-117.869	93.474	-119.737	-8191	255	
8461.084	1	1	0	0	0.065532	0.15087	0.059956	0.16551	0.2128	0.074516	0.42403	0.29606	0.071071	0.23364	0.077753	0.11914	0.20887	0.08889	0.12082	0.031528	-4.5958	-4.4958	-4.7104	-4.8917	-4.2708	-4.9792	-4.7646	-4.6729	-5.1208	-4.2958	-4.9708	-4.8229	-4.3688	-4.8917	-4.6792	-4.4667	70.598	57.059	80.846	14.586	117.165	108.816	109.450	178.640	171.825	196.536	183.335	104.706	186.980	1.427	143.701	80.419	0.00038921	0.00014889	6.2439e-05	1348.5	1.5519e-05	1.3473e-05	1201.3	413.05	7.9349e-06	1.3085e-05	472.53	149.1	125.73	37.76	1.4896e-05	57.775	0.0043032	0.0045468	0.0012926	1318.6	4.8962e-05	5.0299e-05	1203.8	406.85	4.9411e-05	4.9579e-05	488.51	160.5	141.45	41.766	4.9869e-05	62.341	140.449	95.670	-88.913	-130.610	206.122	1.102	-131.934	-126.160	55.188	151.632	-127.461	-124.243	-123.257	-117.710	-40.169	-120.152	-8191	255	
8461.180	1	1	0	0	0.11871	0.063183	0.1507	0.12927	0.18177	0.16492	0.15459	0.11651	0.096013	0.1002	0.050153	0.093447	0.091205	0.091303	0.21074	0.41776	-4.7646	-4.3896	-4.6271	-5.1375	-4.2583	-4.9458	-4.7667	-4.4958	-5	-4.4667	-4.7979	-4.9875	-4.5375	-4.8479	-4.6875	-4.4854	68.360	-106.663	-38.802	-112.761	-47.899	146.526	150.234	118.113	-62.685	181.746	-89.717	154.947	206.078	41.671	-46.586	179.290	0.00080852	0.0020908	0.0003597	1345.5	1.6451e-05	1.4192e-05	1208	409.18	9.6664e-06	1.7574e-05	469.38	148.77	124.97	38.213	2.687e-05	57.963	0.0043078	0.0045749	0.001291	1320.9	4.9017e-05	5.0957e-05	1205.6	407.83	5.0186e-05	5.0255e-05	488.45	160.98	141.74	42.086	5.0807e-05	62.625	134.901	-46.464	-109.556	-130.882	-50.689	15.180	-131.651	-126.342	-19.368	137.945	-127.536	-124.075	-122.548	-117.370	49.245	-119.426	-8191	255	
8461.275	1	1	0	0	0.19495	0.21813	0.20625	0.086213	0.098114	0.01287	0.12307	0.10727	0.16344	0.21848	0.12682	0.18176	0.088278	0.023272	0.1426	0.056455	-4.6229	-4.4938	-4.4208	-5.0354	-4.175	-4.9938	-4.65	-4.4292	-4.8354	-4.5708	-4.675	-4.9917	-4.5396	-4.6479	-4.9396	-4.4771	18.251	189.120	-67.777	192.448	35.389	29.755	86.114	24.015	-18.283	25.280	-22.487	177.177	121.681	-66.734	36.464	86.595	0.00094947	0.0013099	0.00033488	1354.2	1.68e-05	2.209e-05	1211.3	411.5	2.8113e-05	2.7325e-05	469.93	149.79	125.67	38.393	1.4345e-05	58.134	0.0043967	0.0046483	0.0013002	1324.3	5.0068e-05	5.144e-05	1211.8	409.32	5.08e-05	5.0968e-05	489.64	161.45	142.36	42.294	5.0469e-05	62.814	152.049	-127.984	-111.864	-130.542	72.390	130.421	-131.963	-126.171	-39.207	-2.818	-128.005	-124.262	-123.510	-117.662	34.805	-119.771	-8191	255	
8461.373	1	1	0	0	0.031951	0.23089	0.075651	0.1538	0.24842	0.16823	0.083655	0.17238	0.086608	0.24905	0.27496	0.27734	0.07589	0.1331	0.035568	0.302	-4.5896	-4.5167	-4.5646	-4.9729	-4.4021	-4.6438	-5.0354	-4.4583	-4.9708	-4.5604	-4.7604	-4.9875	-4.55	-4.5208	-4.9083	-4.45	185.635	106.589	-121.697	166.691	-98.673	-78.984	104.638	109.017	-20.321	28.860	-106.620	-114.663	-78.809	151.443	47.181	144.467	0.00035275	0.00095796	0.00045183	1346.3	1.6538e-05	2.2781e-05	1213.7	410.1	1.6111e-05	1.5835e-05	472.79	150.26	126.08	38.118	2.0265e-05	57.806	0.0043615	0.0045872	0.0012865	1321.3	4.9486e-05	5.1238e-05	1208.5	407.66	5.0157e-05	5.0212e-05	489.03	161.32	142.13	42.088	5.0384e-05	62.676	102.812	192.904	-55.454	-130.782	-3.186	10.014	-131.946	-126.373	-95.284	84.229	-127.536	-124.550	-122.526	-118.065	19.432	-119.811	-8191	255	
8461.467	1	1	0	0	0.25273	0.14919	0.095534	0.248	0.14728	0.045432	0.31567	0.30133	0.19388	0.06272	0.083691	0.066085	0.12895	0.30245	0.15524	0.16596	-4.5521	-4.5417	-4.4604	-5.1646	-4.3042	-4.5271	-4.9854	-4.45	-4.7729	-4.6479	-4.5125	-5.0104	-4.6333	-4.6604	-4.7792	-4.4708	165.505	62.346	-64.451	159.165	76.807	79.882	136.927	196.337	199.583	-53.930	-27.830	-136.456	93.117	212.410	95.735	130.061	0.0011638	0.0014677	0.000239	1348.9	7.0791e-06	1.0607e-05	1209.9	410.21	2.0049e-05	2.277e-05	470.51	148.21	125.84	38.543	1.7062e-05	57.542	0.0044535	0.0046811	0.0012937	1326.5	5.0643e-05	5.1646e-05	1208.8	407.94	5.1283e-05	5.1055e-05	488.53	161.18	142.54	42.172	5.0565e-05	62.467	151.783	-27.696	213.390	-130.925	54.365	2.589	-131.840	-126.313	-125.098	34.179	-127.473	-124.567	-123.068	-117.874	130.567	-120.145	-8191	255	
8461.563	1	1	0	0	0.17967	0.28452	0.089002	0.43722	0.10586	0.17241	0.25674	0.44192	0.17789	0.25079	0.017209	0.14796	0.13718	0.11617	0.088683	0.066372	-4.225	-4.7646	-4.2333	-5.1792	-4.3583	-4.5021	-4.9313	-4.5229	-4.6333	-4.8021	-4.5104	-4.9187	-4.6979	-4.4354	-5.0604	-4.4521	135.164	7.768	61.774	193.095	-86.720	-56.908	129.453	174.041	81.463	57.658	-129.647	149.268	86.778	128.924	166.897	-50.627	0.0014067	0.002331	0.00040998	1350.4	1.7229e-05	6.3314e-06	1215.6	409.09	1.7228e-05	9.6495e-06	468.67	149.06	125.88	38.185	1.6212e-05	57.431	0.0044606	0.0046567	0.0012887	1326.6	5.0222e-05	5.0889e-05	1211.5	406.91	5.045e-05	4.9963e-05	485.8	160.44	141.37	41.779	4.9327e-05	62.307	148.973	200.730	99.494	-130.755	55.395	187.641	-131.818	-126.194	109.602	49.699	-127.943	-124.416	-122.958	-117.654	117.730	-119.545	-8191	255	
8461.659	1	1	0	0	0.12661	0.11683	0.042327	0.14012	0.1824	0.089108	0.071261	0.11144	0.15716	0.13674	0.064784	0.15467	0.20882	0.11616	0.080388	0.23818	-4.4458	-4.525	-4.4437	-5.1083	-4.7521	-4.4042	-5.1	-4.4812	-4.7104	-4.7958	-4.1917	-4.9979	-4.7771	-4.4	-5.0958	-4.7312	-142.109	17.167	153.027	-107.501	93.804	58.561	157.284	123.580	101.647	191.346	133.017	175.881	175.852	74.553	141.545	146.249	0.00064732	0.0018525	0.00024331	1345.9	8.1125e-06	6.7733e-06	1210.2	409.67	2.1881e-05	2.7596e-05	472.84	149.03	124	37.921	1.6292e-05	57.923	0.0043533	0.0045414	0.0012494	1321.6	4.9217e-05	4.996e-05	1206.6	407.08	5.0134e-05	4.9822e-05	487.39	160.63	141.94	41.864	5.0661e-05	62.669	166.089	55.330	212.257	-130.857	116.590	6.058	-131.812	-126.225	14.782	-132.322	-127.307	-124.153	-122.793	-117.611	-85.599	-119.506	-8191	255	
8461.756	1	1	0	0	0.033407	0.12178	0.081999	0.035145	0.10086	0.13812	0.26035	0.32763	0.22067	0.27195	0.33525	0.31879	0.034211	0.06658	0.12425	0.20628	-4.2708	-5.0021	-4.2667	-5.0687	-4.7083	-4.4187	-5.0708	-4.5833	-4.6542	-4.9479	-4.5625	-4.7854	-4.8125	-4.4604	-4.8896	-4.7021	31.540	-54.307	-103.091	72.757	144.317	-5.635	85.759	159.260	183.185	85.026	214.537	179.563	-5.610	-26.283	-9.597	1.600	0.00050719	0.001789	0.00054033	1357.3	7.2953e-06	1.9327e-05	1210	412.06	1.833e-05	2.561e-05	474	148.55	125.92	38.436	2.2648e-05	58.099	0.0043864	0.0045819	0.0012634	1327.3	4.9037e-05	4.9477e-05	1210.9	408.3	4.879e-05	4.8837e-05	486.15	160.66	141.02	41.651	4.8505e-05	62.502	160.890	89.803	21.485	-130.691	91.511	-23.080	-131.832	-126.384	-17.246	-2.255	-127.569	-124.301	-122.643	-117.540	31.371	-119.505	-8191	255	
8461.876	1	1	0	0	0.22663	0.13261	0.15188	0.28852	0.14648	0.1027	0.12789	0.25827	0.23412	0.053547	0.18577	0.064973	0.14969	0.17558	0.18154	0.16344	-4.1396	-4.9812	-4.4437	-4.8083	-4.9833	-4.2104	-5.1687	-4.5458	-4.5646	-4.8	-4.725	-4.7812	-4.9437	-4.2792	-4.85	-4.6875	52.149	80.892	-94.069	195.602	71.608	156.548	150.875	132.660	193.538	-83.533	98.818	195.181	169.600	125.802	59.945	61.066	0.00019148	0.00050122	0.00032474	1354.6	7.499e-06	1.0897e-05	1216.3	410.6	2.7935e-06	2.7238e-05	471.14	150.48	125.54	38.414	1.5521e-05	58.428	0.004132	0.0043951	0.0012027	1318	4.6625e-05	4.6337e-05	1201.5	404.84	4.5631e-05	4.5733e-05	482.27	159.01	139.03	41.322	4.6007e-05	62.12	96.774	107.091	-76.860	-130.653	57.542	-29.753	-131.675	-126.423	-133.645	-137.515	-127.849	-124.529	-122.690	-117.519	19.634	-119.800	-8191	255	
8461.948	1	1	0	0	0.1469	0.14031	0.14023	0.070549	0.11335	0.14129	0.24111	0.30377	0.079435	0.13737	0.15375	0.24962	0.02971	0.062148	0.23074	0.14436	-4.0458	-4.9625	-4.4146	-4.8896	-4.8417	-4.4354	-4.9896	-4.8271	-4.3479	-4.9458	-4.6583	-4.6771	-5.0604	-4.2562	-4.8646	-4.6937	-63.081	123.281	197.946	175.205	-108.268	148.311	197.814	162.222	170.755	-101.743	111.744	-116.118	-101.112	170.636	89.481	143.289	0.00031019	0.0011588	0.0004794	1350.6	7.8406e-06	3.7947e-06	1212.6	409.45	1.7366e-05	2.306e-05	472.6	148.81	125.45	38.405	9.9605e-06	58.246	0.0039294	0.0041796	0.001158	1312	4.4842e-05	4.4955e-05	1197.4	404.01	4.3852e-05	4.4479e-05	477.82	156.33	136.65	40.639	4.2124e-05	60.898	159.103	-140.632	31.890	-130.789	-3.105	-88.412	-131.965	-126.238	-63.406	39.267	-127.825	-124.164	-122.930	-117.393	-133.944	-119.652	-8191	255	
8462.044	1	1	0	0	0.12551	0.16566	0.14611	0.18926	0.20014	0.14401	0.24589	0.07546	0.16201	0.071282	0.069567	0.12404	0.15201	0.11908	0.13479	0.043596	-4.0604	-4.9521	-4.4896	-4.6729	-4.9313	-4.2125	-4.9437	-4.7312	-4.3333	-4.9542	-4.6458	-4.6312	-5.0229	-4.4479	-4.5875	-4.9313	183.191	155.797	133.751	130.538	54.436	-143.694	127.097	188.686	180.418	111.333	188.909	149.626	115.878	-122.059	-40.263	85.995	0.0004216	0.00096247	0.00025398	1351	9.1754e-06	3.294e-06	1209.7	409.14	8.1579e-06	1.2711e-05	468.22	148.91	125	38.333	2.7912e-05	57.926	0.0035298	0.0038083	0.0010469	1297.3	3.9362e-05	3.8603e-05	1175.3	395.88	3.6494e-05	3.7535e-05	466.89	152.96	132.74	39.723	3.8056e-05	59.938	139.870	-76.584	137.815	-130.579	135.230	141.826	-131.742	-126.371	-117.150	-38.304	-127.340	-124.043	-122.566	-117.518	46.846	-119.957	-8191	255	
8462.165	1	1	0	0	0.22045	0.070774	0.16258	0.24221	0.12425	0.15309	0.08925	0.36185	0.13937	0.20439	0.086608	0.28626	0.17884	0.26097	0.11459	0.077058	-4.1	-4.9521	-4.5479	-4.5625	-4.8604	-4.4271	-4.7833	-4.9042	-4.2625	-4.7562	-4.8146	-4.5125	-4.9437	-4.4917	-4.5083	-4.9521	33.713	52.045	-32.196	162.086	191.431	97.320	138.856	186.863	-108.578	-56.778	18.988	192.411	-29.229	212.589	109.157	124.167	0.00071499	0.0021973	0.00049037	1348.9	4.5647e-06	5.6884e-06	1210.3	410.09	1.4219e-05	6.9925e-06	470.6	149.4	125.45	38.429	1.1007e-05	58.096	0.0033391	0.0036598	0.0010138	1294.3	3.9221e-05	3.944e-05	1178.2	396.87	3.7489e-05	3.9334e-05	471.76	154.33	134.37	40.262	4.0666e-05	60.713	148.350	-31.830	-33.746	-130.722	188.084	20.553	-131.777	-126.530	-11.685	41.778	-128.021	-123.921	-123.076	-117.463	-108.954	-119.969	-8191	255	
8462.261	1	1	0	0	0.10373	0.10582	0.10634	0.064481	0.060367	0.15852	0.15454	0.13581	0.093411	0.20878	0.080677	0.20341	0.12174	0.12866	0.13323	0.084339	-3.9083	-4.9167	-4.525	-4.5729	-5.1479	-4.4563	-4.8167	-4.9042	-4.3396	-4.8187	-4.8292	-4.3375	-4.8812	-4.6125	-4.5312	-4.8458	141.949	191.608	-1.474	126.628	119.264	65.071	-56.296	151.614	87.380	207.786	121.254	-142.512	110.460	-63.056	9.733	193.869	0.00058994	0.0020812	0.00049849	1346.2	1.2419e-05	1.4234e-05	1209.9	410.64	1.0794e-05	1.9964e-05	473.86	149.84	125.07	38.55	3.4854e-06	59.039	0.003456	0.0037642	0.0010337	1291.7	4.0449e-05	4.0729e-05	1182.5	399.06	3.9733e-05	4.1195e-05	475.01	155.34	135.52	40.633	4.0613e-05	61.334	163.414	185.835	-86.526	-130.599	96.317	-21.997	-131.663	-126.311	-62.526	37.516	-127.755	-124.051	-122.884	-117.560	43.299	-119.536	-8191	255	
8462.357	1	1	0	0	0.17099	0.16441	0.13423	0.089992	0.23525	0.12242	0.49903	0.17664	0.32962	0.17729	0.32585	0.071738	0.088728	0.089183	0.15222	0.15489	-3.9875	-4.7146	-4.8625	-4.3354	-5.05	-4.2458	-4.65	-5.0917	-4.4042	-4.7083	-4.8562	-4.2979	-4.9354	-4.775	-4.6813	-4.9875	85.006	89.516	-19.741	108.207	-12.064	-91.434	127.175	-126.863	-35.196	128.366	116.443	49.502	-93.936	-73.038	180.339	128.489	0.00078205	0.0012037	0.00045093	1356.3	1.3213e-05	1.1145e-05	1215.6	411.77	6.5589e-06	1.3639e-05	471.97	150.19	126.2	38.748	1.1733e-05	58.573	0.0034643	0.0037952	0.0010393	1297.8	4.125e-05	4.135e-05	1188.9	400.69	4.0978e-05	4.2375e-05	478.76	156.71	137.32	41.061	4.1946e-05	61.643	169.312	-135.109	154.049	-130.694	21.875	-48.289	-131.522	-126.601	53.137	16.040	-127.520	-124.450	-122.679	-117.517	14.734	-119.712	-8191	255	
8462.453	1	1	0	0	0.19549	0.069715	0.16918	0.25097	0.061683	0.097476	0.25579	0.20025	0.12231	0.33024	0.15701	0.11299	0.032854	0.073041	0.042325	0.24504	-4.0625	-4.5292	-4.9167	-4.4688	-4.7833	-4.7208	-4.5312	-5.2396	-4.5396	-4.4125	-5.0396	-4.3625	-4.9292	-4.7396	-4.2854	-5.0542	7.001	28.628	67.846	192.061	117.935	-54.943	110.469	65.279	128.837	-91.218	96.260	167.752	37.446	5.248	-96.583	165.333	0.00090024	0.0027955	0.00011141	1357.5	1.0006e-05	1.2104e-05	1211.6	411.21	2.2125e-05	2.0226e-05	472.48	149.01	125.13	38.341	1.5724e-05	58.04	0.003609	0.0039535	0.0010884	1304.7	4.3236e-05	4.3962e-05	1191.3	403.25	4.3867e-05	4.5363e-05	481.34	157.62	139.03	41.365	4.5268e-05	61.782	164.661	-59.933	181.363	-130.655	194.528	35.231	-131.596	-126.355	-6.471	-33.339	-127.961	-124.133	-122.819	-117.582	-81.892	-120.012	-8191	255	
8462.572	1	1	0	0	0.23566	0.25859	0.084326	0.11315	0.2877	0.21253	0.12581	0.15851	0.20394	0.10565	0.20467	0.26416	0.20582	0.1367	0.093621	0.14373	-4.0771	-4.6833	-4.7833	-4.3896	-4.9083	-4.7875	-4.4187	-5.1667	-4.4604	-4.7333	-5.0833	-4.2812	-4.9792	-4.7833	-4.2875	-5.0625	165.101	-24.316	52.764	93.986	188.077	126.663	199.515	197.883	-47.745	-105.586	144.761	132.087	21.583	72.469	-50.330	87.844	0.0007064	0.0018953	0.00014805	1357.8	4.6018e-06	4.8826e-06	1216.4	409.94	1.2646e-05	1.5713e-05	474.14	149.6	124.79	38.387	4.9169e-06	58.058	0.0039466	0.0042394	0.0011669	1311.5	4.6163e-05	4.5982e-05	1195	403.16	4.5318e-05	4.6695e-05	481.86	157.58	139.32	41.194	4.5301e-05	61.749	167.846	71.012	81.796	-131.009	-103.931	153.244	-131.663	-126.406	129.414	139.990	-127.281	-123.914	-123.160	-118.039	-128.218	-119.770	-8191	255	
8462.645	1	1	0	0	0.19619	0.17952	0.070874	0.36387	0.054751	0.16665	0.27398	0.13873	0.13041	0.11073	0.13426	0.22751	0.17157	0.20259	0.06172	0.13197	-4.1813	-4.6104	-4.8271	-4.5062	-4.8479	-4.7958	-4.5062	-5.1146	-4.5917	-4.4313	-4.8833	-4.5458	-4.7979	-4.8521	-4.4542	-5.0208	149.258	-136.851	173.425	175.041	-4.555	-84.934	178.018	190.320	112.119	72.967	176.212	-103.738	81.511	97.353	35.018	-58.769	0.0010323	0.0014507	0.00033103	1343.6	2.0196e-05	6.5211e-06	1208.3	404.66	2.7841e-06	1.8041e-05	471.59	148.4	124.24	37.751	1.4713e-05	57.962	0.0039533	0.0042089	0.0011658	1304.4	4.5798e-05	4.5628e-05	1189.7	400.27	4.4796e-05	4.543e-05	479.1	156.81	137.67	40.834	4.4033e-05	61.644	146.061	104.608	-13.576	-130.896	85.953	-96.524	-131.764	-126.412	205.637	18.275	-127.551	-124.393	-122.626	-117.671	70.590	-120.031	-8191	255	
8462.764	1	1	0	0	0.12366	0.037164	0.05376	0.29975	0.12145	0.1654	0.1309	0.24558	0.17849	0.18573	0.13735	0.34425	0.14511	0.033903	0.074155	0.16555	-4.1438	-4.3521	-4.9625	-4.5083	-4.5792	-4.9458	-4.3375	-5.0396	-4.8417	-4.3771	-5.1	-4.5917	-4.5833	-4.8917	-4.5458	-5.0188	111.546	76.659	46.355	153.450	-76.770	168.152	-127.333	-130.565	1.058	62.562	194.289	204.737	50.941	-24.895	209.470	208.010	0.00052402	0.0021897	0.00069114	1344.3	2.5565e-06	2.1742e-05	1209.6	407.66	2.0953e-05	3.2656e-05	470.66	148.53	124.51	38.41	1.3465e-05	58.536	0.00385	0.0040727	0.0011418	1301.9	4.4798e-05	4.4759e-05	1191.6	402.02	4.4155e-05	4.4359e-05	478.96	157.14	138.04	41.043	4.3361e-05	61.988	100.643	-54.369	-94.762	-130.794	125.007	-88.206	-131.647	-126.483	212.562	31.655	-127.755	-124.246	-122.705	-117.850	198.325	-120.019	-8191	255	
8462.860	1	1	0	0	0.14429	0.072712	0.047452	0.25379	0.24763	0.011431	0.12728	0.31089	0.14279	0.13819	0.31298	0.20349	0.20539	0.3134	0.035044	0.024288	-4.3354	-4.3313	-4.7521	-4.7979	-4.4125	-4.9646	-4.5042	-4.7708	-4.6625	-4.3896	-5.1083	-4.55	-4.6312	-4.9062	-4.2729	-4.7	-94.957	-51.015	155.853	177.204	-111.845	-14.145	136.726	155.392	-28.314	141.818	177.952	56.508	-135.769	179.642	-126.699	-89.011	0.00059782	0.0018734	0.00038634	1338.4	1.4093e-05	7.1244e-06	1209	409.35	1.0605e-05	1.1485e-05	473.48	148.08	125.14	38.65	2.1183e-05	58.821	0.0038172	0.0039656	0.0011204	1297.8	4.3533e-05	4.3347e-05	1184.6	400.64	4.3148e-05	4.3369e-05	479.9	157.13	137.14	41.156	4.3894e-05	62.355	95.817	-24.167	32.222	-130.769	37.729	107.237	-131.862	-126.011	-21.972	73.990	-127.712	-124.112	-122.950	-117.825	71.806	-119.906	-8191	255	
8462.957	1	1	0	0	0.15903	0.19619	0.1655	0.037425	0.15592	0.22001	0.1411	0.30923	0.17726	0.17604	0.2581	0.045362	0.2686	0.19796	0.080845	0.11596	-4.5417	-4.3917	-4.7646	-4.7833	-4.4437	-5.0708	-4.5125	-4.7688	-4.9875	-4.2417	-5.0396	-4.7646	-4.4187	-5.0229	-4.2667	-4.7917	212.716	-122.888	-28.385	121.964	115.125	135.634	124.061	-136.806	28.913	167.218	97.626	-136.349	153.223	204.537	197.450	7.513	0.0007127	0.001036	0.0001289	1339.8	6.6316e-06	1.7857e-05	1214.8	406.72	1.3997e-05	7.8205e-06	469.96	149.05	123.76	38.485	1.7866e-05	58.06	0.0038256	0.0040211	0.001154	1299.5	4.4201e-05	4.4921e-05	1191.4	400.28	4.3956e-05	4.4091e-05	480.6	157.03	137.06	41.165	4.4644e-05	61.894	194.360	24.838	97.238	-130.776	179.425	-95.336	-131.981	-126.180	164.308	-144.153	-127.778	-124.594	-122.050	-117.568	3.714	-119.753	-8191	255	
8463.053	1	1	0	0	0.23081	0.17667	0.079757	0.16848	0.097664	0.0088734	0.47949	0.1638	0.24007	0.20169	0.40545	0.033035	0.22353	0.28415	0.17127	0.1512	-4.6562	-4.3583	-4.875	-4.7188	-4.325	-4.9271	-4.7417	-4.65	-4.8812	-4.2937	-4.8917	-4.625	-4.5146	-4.9333	-4.5479	-4.5604	135.340	117.462	-132.129	194.242	152.688	-88.979	148.813	-131.088	113.665	199.032	203.329	190.961	-134.922	81.777	40.219	138.133	0.00050126	0.0010732	0.00058366	1344.1	9.6087e-06	2.6859e-05	1201.2	405.57	3.1592e-05	1.9506e-05	467.59	147.8	124.79	38.244	1.4566e-05	58.006	0.0038824	0.0040761	0.0011649	1301.8	4.4216e-05	4.5126e-05	1186.7	399.26	4.4282e-05	4.4251e-05	478.43	156.48	136.68	40.99	4.4639e-05	61.509	163.748	27.566	176.969	-130.796	-32.795	-61.842	-131.965	-126.167	-14.464	21.686	-127.818	-124.301	-122.609	-117.840	-109.473	-119.586	-8191	255	
8463.173	1	1	0	0	0.088938	0.093507	0.098988	0.22753	0.13179	0.064012	0.18484	0.29416	0.058362	0.15534	0.084815	0.097046	0.11708	0.096995	0.18782	0.16115	-4.6542	-4.3771	-4.8271	-5.0021	-4.4729	-4.9229	-4.7229	-4.4708	-4.9125	-4.3313	-4.9729	-4.9333	-4.525	-4.8396	-4.6854	-4.5208	-53.700	137.616	85.585	207.990	-16.616	179.073	91.301	142.865	-130.518	-116.733	65.536	60.637	159.763	-125.438	-88.675	148.428	0.0005078	0.0014379	0.00065672	1336.2	6.8812e-06	1.3586e-05	1205.5	404.49	1.7405e-05	2.0211e-05	465.96	147.49	122.42	37.722	6.0834e-06	58.323	0.0038312	0.0040509	0.0011534	1296.4	4.3471e-05	4.4865e-05	1183.8	397.17	4.3874e-05	4.4188e-05	476.52	155.78	135.42	40.712	4.4083e-05	61.487	126.953	197.916	41.314	-130.757	-64.855	201.285	-132.154	-126.259	12.732	132.818	-127.695	-124.226	-122.759	-117.901	-41.211	-119.940	-8191	255	
8463.245	1	1	0	0	0.16481	0.15202	0.12836	0.22282	0.032337	0.045962	0.25993	0.071873	0.064519	0.093352	0.098426	0.17266	0.30321	0.20427	0.057009	0.021565	-4.6354	-4.3917	-4.7854	-4.9229	-4.425	-4.8583	-4.8542	-4.4271	-5.0437	-4.3271	-4.8792	-4.9583	-4.4083	-4.9271	-4.6854	-4.5271	78.698	61.680	143.395	170.843	156.141	81.818	130.111	92.546	33.103	-36.293	-95.622	-109.150	159.441	168.789	-56.203	-57.937	0.00083513	0.00065664	0.00045143	1335.2	1.1383e-05	1.0435e-05	1202.8	403.72	2.0888e-05	4.1845e-06	468.21	146.84	123.29	37.897	1.9196e-05	58.27	0.0038114	0.0040447	0.001149	1293.9	4.3409e-05	4.5402e-05	1184.2	396.76	4.405e-05	4.4967e-05	477.17	155.98	136.26	41.044	4.5209e-05	61.737	153.244	51.665	-78.696	-130.760	-17.986	141.393	-131.334	-126.526	-33.512	-93.877	-127.931	-124.056	-122.683	-117.535	-82.967	-119.732	-8191	255	
8463.341	1	1	0	0	0.11293	0.2529	0.06794	0.22254	0.065954	0.26665	0.27048	0.13936	0.2038	0.053976	0.16552	0.062217	0.17398	0.041246	0.10354	0.14655	-4.6312	-4.4667	-4.6021	-4.9542	-4.2604	-4.9833	-4.8854	-4.525	-4.8396	-4.3792	-4.7688	-4.8938	-4.4146	-4.7583	-4.6	-4.3875	-136.780	-52.731	51.918	205.295	144.437	112.850	141.983	-139.537	205.507	200.204	133.724	102.839	-104.029	-24.318	54.535	-14.930	0.00062835	0.0013342	0.00081751	1333.7	7.0449e-06	1.3018e-05	1197.3	403.89	1.5848e-05	2.5352e-05	469.74	148.62	123.97	38.124	1.2869e-05	58.352	0.0039468	0.0041607	0.0011728	1295.5	4.4313e-05	4.6423e-05	1186	398.12	4.4968e-05	4.5193e-05	478.63	156.55	136.18	41.14	4.4692e-05	61.864	161.182	-0.250	-123.834	-130.564	211.422	187.802	-131.896	-126.720	16.377	18.605	-127.791	-124.745	-122.697	-117.537	-121.963	-119.594	-8191	255	
8463.437	1	1	0	0	0.1152	0.20753	0.10491	0.19491	0.064093	0.1716	0.25065	0.25042	0.059812	0.15938	0.20658	0.069481	0.23163	0.14515	0.054501	0.072906	-4.4812	-4.35	-4.5687	-5.0646	-4.3667	-4.7417	-4.8313	-4.5	-4.9417	-4.2812	-4.5042	-4.9333	-4.3438	-4.6354	-4.8708	-4.4563	173.902	-136.707	137.100	164.946	52.341	50.420	183.926	95.592	53.584	31.284	197.787	14.374	-84.177	200.062	-27.953	-109.721	0.00089293	0.00129	0.00032484	1327.1	5.8341e-06	1.5532e-05	1197.1	403.39	9.9547e-06	1.0712e-05	467.89	147.76	122.98	38.063	2.1156e-05	57.996	0.0038875	0.0040626	0.0011479	1289.3	4.3735e-05	4.5132e-05	1180.3	395.92	4.4172e-05	4.4207e-05	476.47	156.19	135.91	40.966	4.4299e-05	61.721	149.631	-114.164	18.694	-130.557	98.829	-3.067	-131.898	-126.188	37.885	48.050	-127.711	-124.254	-122.448	-117.609	-15.006	-119.791	-8191	255	
8463.556	1	1	0	0	0.16146	0.32291	0.19821	0.269	0.31327	0.25657	0.13857	0.1036	0.10427	0.13551	0.20967	0.15988	0.24584	0.15142	0.12109	0.48055	-4.6062	-4.5083	-4.5333	-5.0708	-4.2917	-4.6333	-4.9229	-4.3646	-4.8938	-4.5083	-4.4479	-4.8667	-4.4979	-4.45	-4.8	-4.2146	179.643	-101.060	-127.658	194.458	157.715	156.529	131.312	88.445	-85.701	192.432	-133.436	123.235	179.956	-49.264	154.131	170.237	0.00023505	0.0019319	0.000667	1331.9	4.304e-06	1.3676e-05	1199.3	405.75	8.2907e-06	1.7288e-05	470.72	147.16	122.86	37.922	1.2778e-05	58.495	0.0038959	0.0041422	0.0011497	1294.7	4.4269e-05	4.6029e-05	1187.8	398.81	4.5621e-05	4.572e-05	478.92	156.64	137.41	41.117	4.5707e-05	61.867	-71.019	210.892	-57.861	-130.796	-5.241	190.892	-131.912	-126.439	-24.748	43.705	-127.872	-123.642	-122.366	-117.324	-71.431	-119.981	-8191	255	
8463.652	1	1	0	0	0.067261	0.16945	0.178	0.15306	0.18346	0.10722	0.16432	0.22894	0.16043	0.13984	0.17171	0.1842	0.13417	0.10495	0.11057	0.22192	-4.4062	-4.6521	-4.3021	-4.9771	-4.5479	-4.4729	-4.9396	-4.5417	-4.7667	-4.7917	-4.3792	-4.9271	-4.6333	-4.6396	-4.9833	-4.4396	-24.148	-84.629	178.906	192.200	-77.632	-16.482	89.821	171.258	104.067	145.905	-107.851	66.834	36.502	176.248	118.666	-58.674	0.00064836	0.001058	0.00056829	1334.3	1.1907e-05	1.0146e-05	1204.3	403.05	1.0283e-05	8.1764e-06	467.54	148.64	124.02	38.126	1.3404e-05	58.407	0.0040519	0.0042606	0.0011738	1301	4.6278e-05	4.7e-05	1189.7	398.74	4.7159e-05	4.6448e-05	478.68	157.95	137.96	41.25	4.6038e-05	62.157	143.057	-72.414	59.686	-130.787	-128.044	209.981	-131.799	-126.092	95.559	-12.436	-127.593	-124.155	-122.061	-117.578	-110.507	-119.609	-8191	255	
8463.749	1	1	0	0	0.17586	0.16564	0.063232	0.4113	0.10638	0.09656	0.22891	0.12955	0.10462	0.13352	0.13141	0.2144	0.17122	0.099362	0.10195	0.052584	-4.3771	-4.6271	-4.4062	-5.1167	-4.7083	-4.3	-5.1062	-4.4479	-4.6292	-4.8812	-4.4375	-4.9625	-4.6458	-4.4604	-4.8396	-4.5833	109.995	-44.623	14.053	183.386	211.866	130.895	164.910	196.082	-136.625	-86.222	92.689	171.137	147.650	127.466	147.824	-140.529	0.00054652	0.00064615	0.00070475	1326.6	9.8132e-06	3.3275e-06	1200.2	406.95	2.1152e-05	6.9234e-06	468.85	148.43	122.89	38.589	5.3119e-06	58.969	0.0040707	0.0042717	0.0011681	1296.3	4.5786e-05	4.6288e-05	1188.2	397.81	4.6079e-05	4.5807e-05	478.17	157.84	136.99	41.307	4.5573e-05	62.469	198.065	183.308	-87.913	-130.957	95.461	203.930	-131.929	-126.340	16.216	167.616	-127.431	-124.348	-122.336	-117.604	-101.217	-120.082	-8191	255	
8463.845	1	1	0	0	0.12439	0.18398	0.099711	0.23038	0.091557	0.099352	0.22399	0.36585	0.1037	0.057246	0.10054	0.084341	0.32926	0.24452	0.12531	0.072899	-4.4729	-4.9333	-4.1396	-5.0813	-4.4208	-4.3438	-5.0979	-4.5792	-4.5021	-4.85	-4.5167	-4.7896	-4.7292	-4.3333	-5.0396	-4.6937	180.827	30.998	164.968	-138.597	42.640	208.762	135.952	183.198	214.331	43.127	41.511	-96.270	-108.710	177.034	-56.243	109.332	0.00095269	0.0016945	0.00021672	1330.3	1.6048e-05	8.2934e-06	1197.1	404.53	2.034e-05	5.4443e-06	472.66	149.11	123.59	38.686	2.2575e-05	59.145	0.003995	0.0041669	0.0011509	1296.3	4.515e-05	4.5573e-05	1186.9	398.92	4.5507e-05	4.5719e-05	481.08	158.75	137.55	41.433	4.6054e-05	62.683	154.968	-35.467	60.026	-130.872	173.818	-42.066	-131.710	-126.163	22.823	-29.812	-127.627	-124.315	-122.914	-117.153	-38.690	-119.966	-8191	255	
8463.941	1	1	0	0	0.15155	0.11306	0.1432	0.22458	0.089767	0.14671	0.057478	0.28002	0.097471	0.22853	0.28172	0.084501	0.13946	0.13704	0.27449	0.42017	-4.3979	-4.7771	-4.425	-4.8917	-4.7542	-4.3021	-5.0875	-4.7583	-4.6062	-5.0042	-4.4208	-4.8479	-4.6917	-4.5167	-4.8688	-4.5792	105.360	142.548	207.182	136.160	-60.567	211.851	172.704	165.529	-88.812	-1.280	171.296	129.683	25.024	-61.154	-29.589	135.956	0.00083758	0.00092054	0.0004861	1345.7	2.5839e-06	1.3635e-05	1209.6	409.07	2.838e-05	5.0063e-06	473.15	149.44	123.85	38.495	3.0236e-06	59.203	0.0040167	0.0042374	0.0011692	1306.6	4.5747e-05	4.622e-05	1197.3	401.46	4.6109e-05	4.6254e-05	482.24	159.15	138.19	41.408	4.6494e-05	62.74	150.143	-47.814	33.564	-130.803	181.333	77.681	-131.875	-126.355	-29.794	57.071	-127.462	-124.285	-122.623	-117.330	-16.469	-119.923	-8191	255	
8464.037	1	1	0	0	0.35429	0.083387	0.17475	0.11726	0.1866	0.16214	0.16005	0.3049	0.095688	0.063202	0.2002	0.0722	0.088542	0.18863	0.11715	0.10669	-4.1271	-4.9167	-4.4771	-4.9792	-4.7583	-4.2646	-5.0125	-4.6958	-4.5479	-4.8688	-4.4458	-4.575	-4.9229	-4.3521	-4.6583	-4.7438	103.904	209.115	-109.842	-143.311	45.881	42.433	153.802	165.169	117.548	104.314	165.978	215.682	136.408	177.971	58.911	172.558	0.0009748	0.0023664	0.00032198	1331.6	2.2165e-05	1.0709e-05	1207.4	405.03	1.4863e-05	2.6144e-05	469.01	149.99	122.16	38.312	7.3173e-06	58.671	0.0039618	0.0042069	0.0011617	1298.7	4.5302e-05	4.5723e-05	1189.7	398.37	4.47e-05	4.598e-05	478.89	158.56	136.96	41.194	4.6335e-05	62.627	169.032	-119.184	19.481	-130.870	4.362	-13.802	-131.863	-126.214	-94.637	102.097	-127.467	-124.589	-123.123	-117.688	211.776	-119.599	-8191	255	
8464.133	1	1	0	0	0.35475	0.096885	0.21639	0.22716	0.10335	0.20627	0.37703	0.15987	0.14602	0.19796	0.35497	0.25811	0.35208	0.19025	0.11633	0.17304	-4.0292	-5.075	-4.2667	-4.6917	-4.8146	-4.3125	-4.9083	-4.7583	-4.3896	-4.9667	-4.5396	-4.6312	-4.9021	-4.275	-4.6542	-4.8167	6.379	161.798	-0.733	172.155	-85.318	-85.613	163.886	136.812	161.639	127.160	141.623	209.357	186.064	-60.226	65.430	104.208	0.00088068	0.0019202	0.00027052	1334	1.2067e-05	3.4738e-05	1203.4	404.59	1.4283e-05	4.3134e-06	471.76	149.75	123.39	38.363	1.6969e-05	58.652	0.0039258	0.0042442	0.0011653	1297.4	4.5338e-05	4.5921e-05	1191.2	399.36	4.5567e-05	4.7109e-05	483.16	159.02	138.06	41.42	4.8005e-05	62.848	144.820	-96.088	-30.550	-130.879	7.458	-105.885	-131.744	-126.348	-89.977	-140.822	-127.539	-123.968	-122.121	-117.406	-49.088	-119.530	-8191	255	
8464.254	1	1	0	0	0.16826	0.094959	0.19298	0.17993	0.05996	0.17849	0.13982	0.18988	0.18195	0.1436	0.1955	0.10215	0.046174	0.17375	0.28294	0.068856	-4.0292	-5.0083	-4.4083	-4.6583	-4.9812	-4.4021	-4.9417	-4.8333	-4.1729	-4.8583	-4.3313	-4.5042	-5.0062	-4.4062	-4.7667	-4.8625	162.802	35.181	-130.190	183.827	-72.831	130.174	157.214	122.011	-108.764	214.332	137.384	188.166	10.111	175.623	-130.633	183.456	0.00096696	0.0012856	0.00059995	1330.6	3.7205e-06	3.1408e-05	1213.1	405.43	6.6058e-06	3.5971e-06	472.19	149.42	124.28	38.308	1.0601e-05	59.145	0.004065	0.0043803	0.0012104	1300.4	4.6786e-05	4.743e-05	1200.4	401.18	4.6932e-05	4.8288e-05	484.12	159.47	138.9	41.761	4.8904e-05	63.149	189.575	-15.510	-103.496	-130.800	-51.645	-23.444	-131.931	-126.189	-48.482	-63.013	-127.861	-124.210	-122.688	-117.796	-4.551	-119.640	-8191	255	
8464.348	1	1	0	0	0.2096	0.19834	0.15869	0.17522	0.16156	0.051353	0.2441	0.26798	0.15687	0.08888	0.14215	0.27091	0.14623	0.14802	0.11661	0.22779	-4.0458	-4.825	-4.6021	-4.6583	-4.9042	-4.4396	-4.8167	-4.9604	-4.4146	-4.8854	-4.6375	-4.4521	-4.975	-4.2896	-4.6188	-4.8125	-102.608	12.121	150.556	107.148	201.928	-72.907	163.112	-79.791	4.208	-82.768	158.788	153.509	-100.750	213.005	54.490	94.581	0.00077654	0.0027558	0.00064686	1342.1	1.7765e-06	1.285e-05	1214.2	406.82	1.6228e-05	4.7843e-06	472.65	150.25	123.67	38.442	1.3135e-05	59.355	0.0041558	0.0044861	0.0012317	1309.2	4.8266e-05	4.8327e-05	1203.7	402.9	4.7111e-05	4.8637e-05	485.55	159.57	139.63	41.814	4.8277e-05	63.348	197.016	-75.727	-30.216	-130.813	26.363	5.851	-131.566	-126.340	196.125	129.702	-127.892	-124.109	-122.332	-117.770	168.404	-119.864	-8191	255	
8464.446	1	1	0	0	0.14024	0.11481	0.10179	0.25898	0.046518	0.20643	0.27837	0.088012	0.073644	0.27644	0.077988	0.12406	0.25383	0.22118	0.25221	0.13099	-4.0792	-4.8104	-4.575	-4.5833	-4.9938	-4.65	-4.5771	-5.1021	-4.2375	-4.7708	-4.8542	-4.3	-5.0312	-4.4896	-4.6146	-5.0083	182.594	-95.327	-18.768	202.638	188.868	-8.304	150.197	190.092	96.710	54.359	82.120	205.948	-88.644	120.784	49.532	206.065	0.00068531	0.0012157	0.00046305	1336.1	3.25e-06	1.5498e-05	1207.5	406.7	1.3189e-05	1.0291e-05	474.69	149.7	124.89	38.817	1.7802e-05	59.144	0.0040914	0.0044588	0.0012267	1305.6	4.7964e-05	4.7867e-05	1201.3	403.45	4.6939e-05	4.8809e-05	487.2	159.91	139.78	41.881	4.7978e-05	63.357	146.032	-98.583	-69.869	-130.833	-60.090	45.868	-131.593	-126.046	-119.427	62.487	-127.585	-124.273	-122.695	-117.600	6.772	-120.234	-8191	255	
8464.542	1	1	0	0	0.19933	0.033418	0.0949	0.20023	0.048985	0.25725	0.2376	0.075136	0.069854	0.089194	0.02835	0.2147	0.10348	0.12141	0.10026	0.033498	-3.8521	-4.7562	-4.6062	-4.3604	-4.8104	-4.5687	-4.6125	-5.0854	-4.2417	-4.5125	-5.0521	-4.3417	-4.8938	-4.5875	-4.3646	-5.025	-70.570	55.863	-68.077	162.810	-94.219	-142.809	81.387	60.636	-23.704	-4.878	-84.841	60.217	213.604	194.221	-0.580	149.943	0.00041132	0.0015327	0.00028934	1343.7	4.819e-06	3.8682e-06	1217.9	409.6	7.5616e-07	1.2122e-05	474.64	150.26	124.59	38.46	1.954e-05	58.819	0.004134	0.0045337	0.0012372	1313.6	4.9176e-05	4.9272e-05	1209.2	405.49	4.8843e-05	5.0498e-05	488.29	160.27	141.12	42.04	4.9117e-05	63.359	170.362	206.631	99.597	-130.744	11.649	-108.831	-131.729	-126.339	133.448	2.551	-127.792	-124.399	-122.493	-117.362	-87.503	-119.770	-8191	255	
8464.637	1	1	0	0	0.035281	0.06774	0.15695	0.33563	0.021552	0.06103	0.33195	0.44013	0.26956	0.16497	0.29974	0.27706	0.34019	0.22318	0.16803	0.35377	-3.975	-4.7312	-4.6771	-4.5729	-4.7354	-4.6333	-4.4729	-5.0042	-4.2958	-4.5167	-4.8688	-4.0771	-4.8979	-4.8187	-4.2521	-5.1042	79.017	-22.657	-32.907	195.184	30.817	-39.789	206.975	195.579	49.601	144.634	110.427	182.048	-140.726	203.113	-109.676	153.810	0.0010094	0.00063697	0.00043107	1337.4	1.5976e-05	2.3477e-05	1215.8	406.97	2.1645e-05	1.528e-05	472.83	149.59	123.84	38.023	3.0598e-06	57.965	0.0042558	0.004607	0.001268	1312.1	5.0331e-05	5.0539e-05	1209.8	405.35	4.9856e-05	5.1409e-05	490.29	160.69	141.5	41.922	5.0673e-05	63.304	144.068	-129.550	-144.359	-130.720	97.436	-40.863	-131.628	-126.494	-21.928	-7.009	-127.887	-124.234	-122.339	-117.623	-112.013	-119.964	-8191	255	
8464.733	1	1	0	0	0.22689	0.16803	0.098215	0.18067	0.12691	0.090751	0.19423	0.10102	0.2071	0.19846	0.11732	0.10132	0.024679	0.066328	0.17569	0.16118	-4.0437	-4.6292	-4.8187	-4.3313	-4.7812	-4.8042	-4.4208	-5.1375	-4.4375	-4.4271	-4.9	-4.4437	-4.7771	-4.8479	-4.4104	-5.0437	39.533	4.051	34.665	172.945	-123.899	5.896	160.494	174.364	-115.251	22.033	-108.863	182.415	109.641	30.025	21.349	128.759	0.00063751	0.0018789	0.0004394	1348.7	1.3847e-05	5.3954e-06	1215	407.61	8.7287e-06	2.1313e-05	470.56	148.25	124.99	38.315	7.6568e-06	58.341	0.0044106	0.0047256	0.0012996	1319.3	5.2026e-05	5.163e-05	1215.1	406.93	5.1177e-05	5.2086e-05	489.84	161.08	142.2	42.118	5.1007e-05	63.578	162.927	-139.079	89.732	-130.800	-53.817	24.257	-131.944	-126.484	-62.202	-76.107	-127.696	-124.216	-123.177	-117.563	-4.629	-119.464	-8191	255	
8464.853	1	1	0	0	0.099864	0.17863	0.10999	0.18866	0.06316	0.1479	0.19608	0.20044	0.1386	0.25595	0.061679	0.21524	0.099975	0.20284	0.096745	0.24649	-4.3938	-4.2458	-5.0875	-4.5354	-4.6312	-4.8313	-4.3646	-4.8896	-4.4458	-4.3146	-5.0583	-4.5083	-4.6875	-4.8354	-4.4083	-4.8688	73.430	-88.041	135.038	-139.523	192.952	8.095	144.101	-139.548	-131.199	6.035	127.714	136.047	207.842	126.618	32.891	133.101	0.0010813	0.0028008	0.0001582	1340.1	1.9442e-05	1.3594e-05	1210.2	408.1	7.7304e-06	2.4722e-05	471.68	146.7	125.23	38.2	8.4483e-07	58.16	0.0044687	0.004798	0.0013344	1318.7	5.232e-05	5.2078e-05	1213.5	407.08	5.1762e-05	5.2399e-05	490.33	160.87	142.94	42.174	5.1607e-05	63.711	153.161	-28.165	165.551	-130.568	41.843	-55.726	-131.916	-125.970	119.140	56.565	-127.767	-124.379	-122.578	-117.911	113.129	-119.786	-8191	255	
8464.950	1	1	0	0	0.11444	0.094306	0.19707	0.2077	0.10786	0.1831	0.18106	0.15737	0.052555	0.058585	0.14569	0.097623	0.096089	0.16745	0.066251	0.11515	-4.3313	-4.3	-4.9167	-4.5625	-4.6667	-4.9563	-4.2917	-4.9812	-4.6729	-4.3812	-5.0292	-4.4729	-4.6792	-4.9354	-4.3667	-4.7438	141.811	-44.337	74.985	150.794	-114.920	-6.921	163.260	-130.288	70.713	-47.378	188.848	198.750	12.014	207.137	-30.813	139.024	0.00012401	0.00055757	0.00083776	1341.5	8.2777e-06	2.1289e-05	1209.4	407.19	2.0644e-05	1.0837e-05	471.56	148.35	125.27	38.317	8.7816e-06	58.437	0.0044953	0.0047872	0.0013433	1319.7	5.2542e-05	5.2273e-05	1212.6	407.63	5.1728e-05	5.227e-05	491.4	161.86	142.69	42.287	5.1124e-05	63.864	184.593	-138.599	91.337	-130.675	166.068	107.991	-131.732	-126.061	25.982	164.046	-127.885	-123.576	-122.625	-117.633	-104.682	-119.558	-8191	255	
8465.046	1	1	0	0	0.15366	0.18975	0.05099	0.29567	0.21979	0.28286	0.097192	0.23144	0.15358	0.17106	0.21993	0.19929	0.18756	0.1587	0.15407	0.21705	-4.2354	-4.2708	-4.9146	-4.8812	-4.6625	-4.9354	-4.4062	-4.6646	-4.8625	-4.2	-4.9667	-4.5417	-4.4354	-5.0375	-4.2562	-4.8479	-54.859	-77.392	-139.925	196.223	126.867	-62.751	146.605	196.064	182.232	25.557	-135.941	-19.956	155.581	19.779	-60.051	-135.655	0.00078431	0.0027188	0.00012895	1341.8	7.2545e-06	2.9156e-05	1206.8	406.18	2.4447e-05	3.1889e-05	470.33	147.79	124.46	38.288	1.0725e-05	58.336	0.0044362	0.0047064	0.0013223	1316.8	5.125e-05	5.1303e-05	1208.4	405.92	5.0476e-05	5.0773e-05	489.54	160.19	140.9	42.034	5.0138e-05	63.398	179.264	-13.751	208.239	-130.766	61.895	-89.657	-131.788	-126.310	-20.647	44.590	-127.693	-124.418	-122.815	-117.335	115.011	-119.418	-8191	255	
8465.117	1	1	0	0	0.14687	0.13507	0.046587	0.089067	0.15984	0.13487	0.1379	0.022681	0.11737	0.13458	0.15723	0.26065	0.074193	0.12826	0.11093	0.046142	-4.6042	-4.4333	-5.0667	-4.8375	-4.4979	-5.0771	-4.4604	-4.7375	-4.6125	-4.3104	-4.7958	-4.6813	-4.3396	-4.9479	-4.4667	-4.7604	144.581	-122.785	103.788	174.873	80.655	18.393	-136.239	-28.412	-39.216	72.253	157.904	171.484	-117.758	180.404	-83.401	204.991	0.00096201	0.0012331	0.0011688	1336.6	7.4071e-06	1.8373e-05	1206.8	409.15	1.4917e-05	3.0657e-05	468.69	148.29	123.97	38.145	2.3374e-05	58.211	0.0043501	0.0045584	0.0013009	1314.1	4.9788e-05	5.0718e-05	1206.8	406.23	4.9703e-05	5.0013e-05	488.74	160.37	140.91	41.902	5.027e-05	63.22	147.843	-76.887	-36.809	-131.000	133.995	-65.758	-131.746	-126.222	199.525	27.730	-127.707	-124.971	-122.684	-117.425	-9.737	-119.704	-8191	255	
8465.238	1	1	0	0	0.12736	0.36166	0.10383	0.22735	0.15535	0.091737	0.17406	0.14355	0.13296	0.078855	0.18419	0.14831	0.10847	0.087632	0.043775	0.277	-4.6188	-4.3354	-4.8812	-4.7042	-4.3833	-4.8542	-4.5833	-4.7854	-4.7729	-4.3833	-4.8396	-4.5938	-4.4229	-4.9375	-4.5167	-4.6042	-106.184	-125.034	-47.548	157.538	-50.884	-72.941	82.854	163.368	208.400	-101.287	39.082	118.032	-144.221	-72.297	34.583	150.141	0.00068935	0.0006634	0.00066417	1333	8.4657e-06	4.9746e-06	1201.5	405.19	1.2292e-05	1.0814e-05	469.02	148.14	124.22	37.93	1.3817e-05	58.058	0.0043353	0.0046209	0.0013097	1311	5.0109e-05	5.1051e-05	1205.4	404.59	5.0093e-05	5.0256e-05	489.58	160.74	141.06	42.012	5.0869e-05	63.353	146.884	-35.244	-5.648	-130.870	8.991	-36.365	-131.794	-126.275	-97.930	9.550	-127.636	-124.161	-122.508	-118.135	185.103	-119.931	-8191	255	
8465.334	1	1	0	0	0.17289	0.029423	0.047602	0.32551	0.1593	0.044437	0.19457	0.15768	0.36112	0.12308	0.27297	0.15742	0.24607	0.18875	0.31891	0.028392	-4.5104	-4.4958	-4.7063	-4.9667	-4.3667	-4.9896	-4.7188	-4.6292	-4.9688	-4.4521	-4.8229	-5.0125	-4.4542	-4.9208	-4.4271	-4.4958	-47.977	-34.147	133.444	193.798	-19.895	137.827	-4.646	-137.349	-141.159	-127.111	158.254	-132.548	32.089	-109.850	-50.688	-126.088	0.00075452	0.001531	8.1655e-05	1340.5	1.4621e-05	2.2947e-05	1214	406.7	2.1718e-05	1.6658e-05	473.21	148.57	124.31	38.612	1.623e-05	58.804	0.0044333	0.0047204	0.0013397	1318.4	5.112e-05	5.2456e-05	1214.2	406.31	5.1265e-05	5.1264e-05	492.39	161.26	141.48	42.458	5.1547e-05	63.74	148.244	-81.595	182.903	-130.755	-56.331	-27.149	-131.752	-126.219	-94.570	56.936	-127.408	-124.196	-122.500	-117.536	-81.447	-119.642	-8191	255	
8465.429	1	1	0	0	0.11156	0.26583	0.20285	0.26921	0.16424	0.30068	0.075128	0.25233	0.29512	0.04125	0.14723	0.042623	0.28513	0.12588	0.15882	0.21949	-4.5521	-4.2229	-4.6354	-5.0042	-4.3438	-4.9187	-4.85	-4.5771	-4.8187	-4.3375	-4.5875	-5.0521	-4.3333	-4.7896	-4.6375	-4.4083	41.671	103.509	89.692	167.963	96.018	-87.860	153.754	199.762	-45.115	-101.585	-136.321	-131.468	-95.623	153.528	190.971	146.880	0.00073586	0.0010902	0.00057309	1343.9	1.3583e-05	1.0989e-05	1206.5	408.12	2.9375e-05	2.1094e-05	474.08	150.08	123.54	38.183	1.6031e-05	58.81	0.0044695	0.004753	0.0013374	1317.3	5.0575e-05	5.2438e-05	1210.6	405.63	5.0951e-05	5.108e-05	491.46	161.28	141.3	42.315	5.0956e-05	63.774	179.349	214.038	-44.443	-130.838	-4.257	-111.684	-132.039	-126.223	131.904	-3.492	-127.626	-124.037	-122.322	-117.140	69.030	-119.632	-8191	255	
8465.526	1	1	0	0	0.10995	0.19427	0.18451	0.19327	0.13913	0.25375	0.081979	0.1647	0.2013	0.18466	0.10192	0.14215	0.094059	0.19328	0.20429	0.1516	-4.625	-4.4021	-4.6375	-5.1	-4.2458	-4.6813	-4.7417	-4.5479	-4.8	-4.5042	-4.6208	-5.15	-4.3146	-4.6937	-4.6521	-4.4104	-144.237	87.349	-131.564	144.266	127.581	-102.913	102.351	22.301	6.350	108.090	132.497	185.767	169.842	-138.792	29.292	140.440	0.0010441	0.0016629	0.00024938	1330.5	2.4594e-05	8.7127e-06	1210.1	404.9	1.2955e-05	1.7393e-05	472.5	148.67	124.88	38.256	2.5421e-05	58.449	0.0044452	0.0046837	0.0013214	1312.2	5.0039e-05	5.1638e-05	1209.5	402.75	5.0287e-05	5.0556e-05	488.81	160.26	141.17	42.18	5.0606e-05	63.427	191.765	154.451	15.254	-130.966	-63.017	48.117	-131.827	-126.255	188.676	-139.648	-127.682	-124.193	-122.759	-117.551	-20.890	-119.536	-8191	255	
8465.645	1	1	0	0	0.17691	0.050133	0.17502	0.14032	0.21048	0.19336	0.17728	0.23129	0.15354	0.10844	0.27623	0.27365	0.098906	0.26301	0.10404	0.047582	-4.5188	-4.4792	-4.6813	-5.0646	-4.4062	-4.5104	-5.2104	-4.4729	-5.0646	-4.6188	-4.7104	-5.1021	-4.3812	-4.7	-4.9333	-4.3167	-115.242	114.128	-8.494	170.519	135.422	-55.699	171.207	83.094	-57.938	215.703	201.062	196.304	121.092	-100.391	-13.690	-78.185	0.0011223	0.00054052	0.00017325	1331.7	1.9582e-05	5.0713e-06	1207.6	407.26	1.2872e-05	2.2765e-05	473.48	149.11	123.44	38.053	1.1083e-05	58.762	0.0044375	0.0046592	0.0013092	1313.1	5.0307e-05	5.2007e-05	1209.5	403.95	5.1815e-05	5.1889e-05	489.11	160.96	141.35	42.072	5.0774e-05	63.203	132.164	-121.523	-27.636	-130.646	42.512	200.191	-131.815	-126.283	102.500	-14.769	-128.015	-124.003	-122.687	-117.529	-139.229	-119.818	-8191	255	
8465.741	1	1	0	0	0.14467	0.2547	0.25841	0.17885	0.033664	0.10968	0.14373	0.26405	0.23525	0.097772	0.1226	0.25865	0.055738	0.10983	0.058633	0.1779	-4.5708	-4.4354	-4.3396	-5.0417	-4.4333	-4.6562	-4.9854	-4.6229	-4.6958	-4.6146	-4.4563	-4.9792	-4.3938	-4.7104	-5.0042	-4.2771	-70.521	128.860	-72.209	175.220	31.470	-86.043	142.997	131.159	-58.028	54.902	-101.170	155.886	121.458	164.626	52.699	43.114	0.00046657	0.0016746	0.00059826	1340.3	8.1317e-06	1.0446e-05	1210.9	406.5	4.7631e-06	1.1629e-05	470.22	148.54	123.73	37.958	2.855e-05	58.43	0.0044539	0.004682	0.0012993	1313.9	5.0649e-05	5.2009e-05	1210.9	404.58	5.1691e-05	5.1854e-05	488.31	160.91	141.35	42.042	5.1159e-05	63.31	125.452	75.059	-113.284	-130.578	-101.360	16.382	-131.602	-126.314	-66.395	36.228	-127.629	-124.151	-122.674	-117.610	-49.476	-119.622	-8191	255	
8465.813	1	1	0	0	0.1917	0.01981	0.28662	0.29504	0.15665	0.065189	0.27097	0.33529	0.14272	0.11868	0.090282	0.23811	0.057664	0.27764	0.15018	0.1055	-4.5167	-4.6458	-4.3104	-5.0271	-4.5896	-4.6438	-4.9604	-4.4458	-4.8438	-4.8583	-4.5062	-5.1833	-4.7208	-4.6562	-4.9208	-4.4979	135.693	129.917	120.427	180.376	123.629	17.953	198.967	145.672	-30.271	148.971	20.541	200.730	92.074	170.164	-121.911	156.894	0.00063929	0.0022258	0.00030886	1335.7	7.4043e-06	5.0779e-07	1201.8	404.28	2.6211e-05	1.0473e-05	472.21	148.95	124.25	38.035	3.2554e-05	58.433	0.0044792	0.0046841	0.0012944	1311.2	5.0473e-05	5.1216e-05	1205	402.56	5.1627e-05	5.1678e-05	488.28	161.1	141.57	42.147	5.165e-05	63.469	153.021	-20.236	-104.505	-130.473	165.705	162.895	-131.796	-126.459	-142.046	-49.024	-127.620	-124.392	-122.521	-117.551	16.507	-119.850	-8191	255	
8465.934	1	1	0	0	0.24731	0.046831	0.05271	0.26469	0.13571	0.091451	0.25263	0.2358	0.15025	0.28426	0.14103	0.26838	0.1658	0.071548	0.21397	0.13136	-4.3167	-4.7521	-4.35	-4.9396	-4.6687	-4.3938	-5.1708	-4.5458	-4.6042	-4.8229	-4.3417	-4.9958	-4.5208	-4.5625	-4.8292	-4.6312	-36.101	-131.459	11.170	160.646	-105.453	155.333	193.765	-124.977	-84.153	137.364	-118.795	192.325	-58.636	156.180	146.165	129.223	0.00074115	0.0016303	0.00055621	1335.2	7.0451e-06	2.1961e-05	1207.1	404.87	1.3044e-05	1.7265e-05	469.23	149.34	122.95	38.049	2.2938e-05	58.234	0.004475	0.0047135	0.0012894	1314.8	5.0295e-05	5.1127e-05	1207.5	402.5	5.0972e-05	5.0914e-05	486.99	161.55	141.22	42.047	5.1198e-05	63.328	154.372	174.495	-112.854	-130.571	106.503	33.250	-132.040	-126.236	5.411	30.233	-127.971	-124.319	-122.782	-117.592	-48.642	-119.711	-8191	255	
8466.030	1	1	0	0	0.20736	0.23562	0.018404	0.15265	0.14499	0.087808	0.26216	0.21642	0.21318	0.085736	0.089991	0.31974	0.12876	0.081852	0.079927	0.030028	-4.1833	-4.8417	-4.3229	-5.1813	-4.7958	-4.3042	-4.8583	-4.6042	-4.4958	-4.9688	-4.4833	-4.775	-4.7167	-4.5604	-4.925	-4.6167	-75.621	205.032	-30.534	147.177	176.903	-96.097	-127.825	68.978	1.983	-84.488	168.227	160.124	-144.160	-102.960	138.991	161.504	0.00092819	0.0021653	0.00043571	1340.6	9.4319e-06	1.6506e-05	1211.1	402.26	1.9932e-05	1.4786e-05	470.42	147.52	123.42	37.834	9.5713e-06	58.042	0.0044675	0.0047401	0.0013107	1317.8	5.1337e-05	5.1696e-05	1212.6	403.75	5.191e-05	5.1555e-05	488.34	160.94	140.85	41.752	5.1752e-05	63.08	159.157	-9.284	-5.683	-130.774	-42.029	9.639	-131.811	-126.451	-4.871	-9.289	-127.865	-124.216	-122.874	-117.804	124.899	-120.015	-8191	255	
8466.126	1	1	0	0	0.053397	0.20674	0.34231	0.17727	0.2468	0.11659	0.18985	0.056943	0.082851	0.13015	0.19532	0.29046	0.066943	0.24242	0.26143	0.019522	-4.1521	-4.8063	-4.2125	-4.9688	-4.7375	-4.3417	-4.9417	-4.6625	-4.5625	-4.9354	-4.6458	-4.8521	-4.8208	-4.3979	-4.875	-4.6208	-25.746	11.098	50.451	176.936	-64.512	98.953	161.023	-8.188	-129.631	21.924	162.454	177.734	196.844	206.832	47.356	-47.239	0.00083033	0.00041104	0.00036707	1338.9	8.4406e-06	1.2365e-05	1208.8	402.32	1.4385e-05	9.9759e-07	466.78	145.98	121.85	37.428	3.528e-05	57.31	0.004496	0.0047285	0.0013078	1316.6	5.1585e-05	5.155e-05	1211	402.08	5.1899e-05	5.2888e-05	485.05	159.79	140.32	41.583	5.3122e-05	62.919	173.477	-134.043	-39.425	-130.518	27.829	-126.259	-131.780	-126.353	-81.142	-72.017	-127.689	-124.205	-122.780	-117.890	-8.708	-119.464	-8191	255	
8466.247	1	1	0	0	0.17141	0.15181	0.16567	0.26543	0.048282	0.081247	0.095836	0.20895	0.088939	0.23184	0.11678	0.16188	0.050607	0.22946	0.20844	0.26049	-3.9229	-5.0312	-4.2583	-4.9021	-5.0396	-4.3417	-5.0896	-4.7458	-4.3104	-5.0854	-4.6062	-4.9854	-4.8542	-4.4437	-4.7063	-4.7937	65.114	-39.515	100.563	194.765	-81.804	28.133	43.081	174.563	-131.045	-19.217	195.246	100.360	107.808	214.412	-103.316	179.889	0.00046197	0.00083132	0.00018906	1324.2	1.4756e-05	4.4148e-06	1190.9	395.28	4.3563e-06	1.2059e-05	458.87	144.67	120.49	37.033	2.0801e-05	56.516	0.0045667	0.0048308	0.0013462	1309.7	5.2482e-05	5.2912e-05	1204.9	398.7	5.3267e-05	5.4489e-05	483.18	160.01	140.68	41.593	5.5696e-05	62.969	177.217	-108.278	-83.776	-130.810	-60.083	-111.251	-131.799	-126.161	-106.251	121.856	-127.599	-123.721	-122.666	-117.800	35.222	-119.676	-8191	255	
8466.343	1	1	0	0	0.012047	0.13894	0.31435	0.25235	0.17399	0.075593	0.2414	0.27749	0.16592	0.16003	0.15285	0.28501	0.054924	0.16156	0.12588	0.10012	-4.0958	-5.1312	-4.3729	-4.7896	-4.9396	-4.4917	-4.9979	-4.8229	-4.4375	-4.9083	-4.5583	-4.6375	-5.0833	-4.4042	-4.7146	-4.9375	-129.787	96.201	23.159	151.735	-11.102	-23.341	107.995	128.134	-67.030	-108.115	202.460	-129.940	133.272	147.064	125.460	-128.283	0.00074026	0.001523	0.00023453	1319.8	3.4563e-06	1.2187e-05	1190	395.72	1.292e-05	2.9772e-05	457.77	142.58	120.07	36.718	1.6062e-05	56.371	0.0047068	0.0051361	0.0014176	1311.5	5.5065e-05	5.5882e-05	1209.1	399.78	5.5617e-05	5.7172e-05	486.43	159.99	141.79	41.677	5.7581e-05	62.865	163.593	-125.554	112.895	-130.737	157.462	-24.975	-131.765	-126.542	-27.160	92.274	-127.497	-124.078	-122.980	-118.011	-71.977	-120.256	-8191	255	
8466.415	1	1	0	0	0.18116	0.085725	0.082863	0.21466	0.10407	0.25086	0.17308	0.14601	0.19818	0.18072	0.14773	0.14302	0.13709	0.18259	0.052483	0.25354	-4.0417	-4.9396	-4.5417	-4.5979	-4.9479	-4.425	-4.8083	-4.9917	-4.2167	-4.9354	-4.5729	-4.5917	-4.9437	-4.5042	-4.6146	-4.9187	44.417	62.774	57.275	210.606	73.576	122.866	113.441	8.690	-69.191	211.181	150.123	208.803	-139.437	157.987	97.142	186.539	0.00066612	0.00082271	0.00061377	1321.5	4.734e-06	7.3838e-06	1194.9	392.52	3.2468e-05	9.6511e-06	456.57	144.16	120.68	36.699	8.355e-06	56.254	0.0048873	0.0053239	0.001454	1313.3	5.6642e-05	5.6947e-05	1214.1	398.57	5.6053e-05	5.7985e-05	484.49	159.94	141.51	41.672	5.6605e-05	62.648	149.598	-25.375	156.820	-130.770	-72.939	130.592	-131.674	-126.533	24.860	-48.663	-127.566	-124.418	-122.716	-117.930	207.752	-119.907	-8191	255	
8466.533	1	1	0	0	0.13055	0.13244	0.11614	0.21748	0.094552	0.03976	0.21691	0.16573	0.042963	0.047128	0.16053	0.10501	0.26225	0.19049	0.15006	0.06873	-3.975	-4.7083	-4.6646	-4.4771	-4.8271	-4.4375	-4.6979	-4.9688	-4.3458	-4.8958	-4.6937	-4.6021	-4.8583	-4.6167	-4.5125	-5.1771	195.847	141.305	-135.301	89.823	90.132	-99.441	130.749	153.167	108.005	-143.442	164.275	186.636	180.121	144.380	-87.084	176.838	0.00065312	0.0022406	0.00042346	1318.9	1.7003e-05	8.952e-06	1184.1	394.26	2.1128e-05	1.5107e-05	454.6	143.32	118.92	37.003	1.9431e-05	56.528	0.0047921	0.005186	0.0014352	1308.5	5.5503e-05	5.5783e-05	1203.4	397.39	5.4772e-05	5.694e-05	480.99	158.53	140.68	41.466	5.5067e-05	62.394	154.840	-54.374	-140.341	-130.846	23.583	-69.947	-131.775	-126.642	-84.390	-44.427	-127.450	-123.974	-122.796	-117.463	-36.323	-119.940	-8191	255	
8466.630	1	1	0	0	0.11179	0.21348	0.15399	0.077906	0.14375	0.18385	0.15486	0.15703	0.16901	0.09998	0.17472	0.16264	0.20478	0.10599	0.045491	0.061884	-3.875	-4.7104	-4.7667	-4.5	-4.775	-4.5167	-4.7167	-5.0021	-4.2229	-4.6708	-4.7792	-4.3646	-4.8667	-4.5687	-4.3604	-4.9229	130.005	27.934	-85.425	189.079	-29.163	-63.212	171.120	93.826	17.037	64.759	162.009	165.134	-82.867	-137.338	194.710	-17.654	0.00071058	0.0021873	0.00040157	1312	6.765e-06	9.0218e-06	1176.8	393.95	7.6814e-06	4.4828e-05	455.62	143.61	120.2	36.772	1.5797e-05	56.591	0.0046749	0.0050566	0.0013913	1300.7	5.419e-05	5.3908e-05	1193.8	395.52	5.3288e-05	5.529e-05	479.71	158.11	140.13	41.323	5.3379e-05	62.225	165.063	-38.246	-10.580	-130.832	-28.642	104.893	-131.788	-126.470	-22.742	81.559	-127.887	-123.942	-123.043	-117.170	-119.342	-119.958	-8191	255	
8466.726	1	1	0	0	0.3294	0.15559	0.090875	0.28183	0.28031	0.065873	0.38674	0.14876	0.16294	0.23198	0.24379	0.21964	0.24109	0.068747	0.096827	0.18	-3.9958	-4.6312	-4.9396	-4.3333	-4.7021	-4.5667	-4.5708	-5.1958	-4.2667	-4.7375	-4.9979	-4.4187	-4.8917	-4.7812	-4.3646	-5.1167	-75.130	-129.312	30.393	181.028	-75.166	207.279	114.762	118.090	-87.111	131.706	154.089	-131.380	172.251	106.766	-108.092	-129.677	0.0003442	0.0025417	0.00017858	1306.2	6.4097e-06	1.3438e-05	1187.3	391.7	1.2026e-05	1.8533e-05	454.82	143.69	119.41	36.921	7.1144e-06	56.506	0.0045611	0.0049573	0.0013459	1291.9	5.2609e-05	5.2588e-05	1191.1	394.4	5.1992e-05	5.3517e-05	477.46	157.15	139.19	41.111	5.2118e-05	62.131	138.844	-1.682	24.770	-130.747	-126.867	-90.208	-131.601	-126.205	117.534	-29.690	-127.801	-124.721	-122.618	-117.675	168.147	-119.705	-8191	255	
8466.822	1	1	0	0	0.22138	0.20121	0.20334	0.22889	0.11362	0.1926	0.10943	0.2187	0.33277	0.1272	0.09934	0.081266	0.13293	0.20931	0.31011	0.33753	-3.9854	-4.6542	-4.8667	-4.5521	-4.7458	-4.7458	-4.3792	-5.1208	-4.6271	-4.5458	-4.8167	-4.3063	-4.8208	-4.7354	-4.2979	-4.8354	83.944	80.498	137.114	-77.621	-68.107	36.498	175.461	-108.650	-139.548	-134.099	199.526	141.720	109.042	179.588	-16.778	-135.183	0.00068139	0.00018183	0.00045952	1313	1.9361e-05	1.1569e-05	1186	394.29	1.3094e-05	1.3115e-05	456.23	144.52	120.63	37.021	1.5539e-05	57.247	0.0044967	0.0048689	0.0013367	1294.7	5.2649e-05	5.2813e-05	1190.7	395.16	5.2077e-05	5.3626e-05	480.33	158.05	140.79	41.509	5.3194e-05	62.898	139.194	77.424	97.079	-130.857	-99.096	101.344	-131.647	-126.331	-61.561	34.386	-127.773	-123.739	-122.617	-117.392	-19.810	-120.030	-8191	255	
8466.942	1	1	0	0	0.23488	0.16702	0.28311	0.15522	0.19039	0.1566	0.17999	0.23426	0.14113	0.15449	0.15796	0.20186	0.094919	0.2811	0.023276	0.09288	-4.1021	-4.5396	-4.9979	-4.4042	-4.7854	-4.6167	-4.5208	-5.1458	-4.7	-4.6271	-5.1208	-4.4708	-4.8625	-4.6708	-4.2458	-5.0167	212.887	82.535	17.773	-129.811	53.626	20.865	96.056	194.705	-71.665	-71.390	-116.220	138.609	151.629	-70.843	-0.064	141.883	0.0005746	0.0015533	0.00042772	1322.9	1.3787e-05	2.5548e-05	1188.8	396.08	2.1242e-05	1.6237e-05	460.77	145.73	120.78	37.266	1.6054e-05	57.02	0.0046059	0.0049383	0.0013574	1301.7	5.3584e-05	5.328e-05	1199.1	398.86	5.2884e-05	5.396e-05	483.35	159.24	140.91	41.655	5.2467e-05	62.823	129.730	8.275	36.638	-130.979	-10.951	4.472	-131.930	-126.278	-140.885	36.993	-127.592	-124.571	-122.804	-117.547	-26.320	-120.056	-8191	255	
8467.014	1	1	0	0	0.21634	0.17017	0.22737	0.071935	0.10534	0.19276	0.04818	0.35351	0.12369	0.22803	0.20356	0.10017	0.18138	0.2026	0.12303	0.072689	-4.3438	-4.2792	-4.9688	-4.4646	-4.8708	-4.9354	-4.4042	-4.8875	-4.5312	-4.4583	-5.1458	-4.2625	-4.4958	-5.1292	-4.2833	-4.7229	159.824	-116.990	40.176	213.142	48.000	171.878	60.164	163.558	204.498	-64.846	91.083	141.501	-72.524	190.737	166.954	-137.143	0.00073154	0.0027294	0.00040345	1310.8	1.471e-05	3.6713e-06	1183.1	392.41	1.1684e-05	8.7646e-06	456.9	144.39	121.18	37.485	2.0442e-05	57.374	0.0045703	0.0048421	0.001342	1295.2	5.2394e-05	5.2024e-05	1189.3	395.04	5.0864e-05	5.1347e-05	478.12	157.51	138.89	41.342	5.0211e-05	62.626	147.532	-13.669	-13.578	-130.650	91.628	5.429	-131.631	-126.251	176.294	156.731	-127.463	-124.314	-122.733	-117.366	-51.685	-119.496	-8191	255	
8467.110	1	1	0	0	0.051348	0.118	0.094674	0.2123	0.034447	0.27724	0.20306	0.21347	0.2915	0.10467	0.18109	0.31298	0.14898	0.048792	0.031467	0.15903	-4.2375	-4.3521	-5.0542	-4.4354	-4.5854	-4.9917	-4.4104	-4.9521	-4.7271	-4.4583	-5.1771	-4.7917	-4.5188	-4.9771	-4.4417	-4.8708	-122.747	-80.071	39.217	186.758	190.878	-12.136	135.808	-105.045	103.645	-18.985	215.709	183.037	201.957	173.980	208.928	95.971	0.00065298	0.00037434	0.00063617	1313	1.3446e-05	1.232e-05	1184.7	392.55	1.6793e-05	7.5119e-06	460.37	144.4	120.42	37.02	1.7873e-05	56.753	0.0044176	0.0046794	0.0013211	1293.2	5.1278e-05	5.1571e-05	1191.9	394.96	5.1049e-05	5.1317e-05	481.08	157.22	139.28	41.282	5.1691e-05	62.579	165.491	14.005	108.794	-130.685	-28.265	-118.904	-131.775	-126.014	-129.083	-58.454	-128.089	-123.902	-122.926	-117.447	-79.222	-119.733	-8191	255	
8467.206	1	1	0	0	0.11811	0.10789	0.13588	0.074632	0.057619	0.13182	0.2503	0.15829	0.026336	0.050671	0.084853	0.10933	0.11693	0.15384	0.15499	0.20825	-4.2812	-4.4646	-4.8875	-4.6542	-4.4479	-4.9729	-4.4729	-5.0917	-4.65	-4.3125	-5.2521	-4.3771	-4.4208	-5.0396	-4.3375	-4.6167	-115.048	109.042	-118.601	66.552	201.970	155.816	147.359	147.923	-19.907	70.517	24.830	18.282	-122.772	199.325	130.261	112.622	0.0006639	0.001665	0.00072661	1309	3.4679e-06	2.8487e-05	1186.2	393.56	3.1839e-05	2.7093e-05	458.25	144.03	121.5	37.095	1.3374e-05	56.64	0.0045285	0.0047792	0.0013552	1297.1	5.2643e-05	5.3354e-05	1194.9	396.6	5.3149e-05	5.268e-05	479.97	158.34	139.75	41.474	5.2931e-05	62.622	151.994	-35.946	-92.383	-130.819	-97.162	-99.743	-131.920	-126.159	51.783	110.681	-127.831	-124.192	-123.138	-117.476	177.091	-119.545	-8191	255	
8467.327	1	1	0	0	0.22644	0.18852	0.15793	0.22857	0.064177	0.11312	0.32882	0.066003	0.15248	0.053456	0.19263	0.14356	0.097696	0.081332	0.053867	0.13903	-4.4229	-4.3	-4.7521	-4.8688	-4.6167	-4.8479	-4.4313	-4.8729	-4.9146	-4.2688	-5.0042	-4.8583	-4.25	-5.1937	-4.3458	-4.6979	-86.063	188.980	46.279	123.424	201.418	59.923	139.271	202.926	61.949	115.353	184.445	111.655	210.963	204.538	-133.788	39.631	0.00035636	0.0022401	0.00021293	1311.9	2.1173e-05	1.056e-05	1187.1	393.9	2.3076e-05	1.5991e-05	460.17	145.62	120.78	37.033	1.5725e-05	56.884	0.0045912	0.0048188	0.0013732	1298.2	5.2368e-05	5.2858e-05	1193.6	397.09	5.2271e-05	5.2662e-05	481.37	158.51	139.44	41.455	5.2846e-05	62.682	173.313	-49.033	75.845	-130.914	26.325	-137.955	-131.834	-126.239	82.741	-18.828	-127.635	-123.998	-122.530	-117.374	-25.257	-119.946	-8191	255	
8467.421	1	1	0	0	0.26232	0.14359	0.071788	0.076421	0.18999	0.19114	0.28035	0.091794	0.038535	0.18669	0.25245	0.17301	0.096726	0.13492	0.0319	0.098972	-4.5771	-4.2271	-4.725	-4.9125	-4.3729	-5.0292	-4.7167	-4.6958	-4.825	-4.2625	-4.8708	-4.9313	-4.3938	-5.1625	-4.5229	-4.6292	-122.546	171.716	9.260	103.231	-76.525	79.305	132.904	180.173	-14.968	-57.678	141.820	142.745	163.796	-91.160	-62.950	-127.927	0.0010794	0.00067513	0.00054686	1318.4	9.5805e-06	1.7518e-05	1192.8	395.32	1.3491e-05	2.1929e-05	460.26	145.21	122.01	37.448	1.2018e-05	57.37	0.0045656	0.0047939	0.0013716	1299.8	5.2408e-05	5.3199e-05	1200.8	397.18	5.2619e-05	5.2662e-05	484.03	159.4	140.18	41.803	5.2993e-05	62.889	136.908	-93.356	50.279	-130.951	45.057	65.977	-131.841	-126.121	162.209	-32.772	-127.828	-123.972	-123.109	-117.520	15.172	-119.330	-8191	255	
8467.518	1	1	0	0	0.026865	0.087077	0.17299	0.29113	0.086949	0.063277	0.25505	0.11379	0.22521	0.093622	0.060823	0.21499	0.25227	0.12514	0.087833	0.26247	-4.6479	-4.3229	-4.8146	-4.975	-4.2562	-5.0938	-4.8417	-4.5271	-5.0083	-4.4479	-4.7854	-4.9125	-4.3688	-5.0542	-4.5583	-4.5208	79.822	215.054	-46.609	172.843	-124.725	57.753	155.353	184.673	215.425	172.831	199.706	-105.392	5.223	142.915	114.790	182.272	0.0005506	0.0010223	0.00043869	1322.6	2.2394e-05	2.6047e-05	1199.8	397.94	1.6473e-05	5.9471e-06	462.48	146.43	120.42	37.806	2.5752e-05	57.565	0.0045722	0.0048778	0.0013828	1306.5	5.2958e-05	5.4712e-05	1206.6	399.31	5.2885e-05	5.3068e-05	485.11	159.28	139.67	41.929	5.2304e-05	62.937	161.311	-118.526	-18.524	-130.779	-1.840	95.946	-131.634	-126.366	-29.176	-78.286	-127.569	-124.379	-122.414	-117.397	-56.598	-119.792	-8191	255	
8467.616	1	1	0	0	0.20706	0.1945	0.10598	0.18492	0.22781	0.13641	0.1556	0.27824	0.047188	0.2441	0.096312	0.22225	0.2011	0.091884	0.16715	0.22948	-4.6104	-4.4646	-4.7312	-4.9979	-4.2917	-4.8583	-4.7771	-4.5271	-4.8104	-4.625	-4.5271	-4.9396	-4.4437	-4.8938	-4.7	-4.4542	103.803	-67.796	190.874	138.679	67.112	-40.997	145.366	181.497	-75.569	14.297	-69.507	199.182	206.636	-123.586	140.448	195.330	0.00096281	0.0020993	0.00032283	1315.5	4.8976e-06	4.4954e-06	1194.7	394.93	6.6437e-06	1.4187e-05	465.76	145.3	120.75	37.458	2.3407e-05	57.833	0.0044969	0.0047648	0.0013471	1296.9	5.1512e-05	5.3314e-05	1200.2	396.84	5.1842e-05	5.2205e-05	483.84	158.51	139.06	41.82	5.1422e-05	62.823	192.223	-125.489	-87.347	-130.888	185.911	24.475	-131.943	-126.201	37.078	-125.187	-127.586	-124.007	-122.980	-117.759	28.012	-119.545	-8191	255	
8467.710	1	1	0	0	0.21677	0.21498	0.045803	0.17186	0.12425	0.14585	0.17635	0.025405	0.11399	0.055054	0.03419	0.13969	0.19089	0.17334	0.1336	0.26654	-4.675	-4.4958	-4.375	-5.3729	-4.2354	-4.7	-4.9667	-4.3292	-4.8938	-4.5667	-4.5896	-4.9479	-4.3688	-4.8333	-4.7312	-4.2063	158.556	13.825	-50.029	197.493	101.997	-134.516	176.528	-105.899	-8.284	25.319	42.300	-76.777	-20.705	-66.228	-94.379	168.872	0.00076358	0.00052229	0.00062702	1315	1.2457e-05	2.1152e-05	1191.2	396.91	1.1409e-05	8.3458e-06	462.51	145.2	120.96	37.344	7.2513e-06	57.147	0.0044637	0.00475	0.0013306	1297.4	5.0836e-05	5.3299e-05	1199.1	397.92	5.2593e-05	5.3004e-05	483.66	159.18	139.96	41.824	5.308e-05	62.73	107.477	-42.306	-49.573	-130.655	1.692	212.313	-131.841	-126.392	40.887	41.983	-127.616	-124.265	-123.352	-117.727	-123.805	-119.689	-8191	255	
8467.806	1	1	0	0	0.05223	0.10473	0.094989	0.32078	0.068438	0.11993	0.20046	0.11028	0.081558	0.14865	0.26662	0.10077	0.068881	0.10917	0.13726	0.18108	-4.4938	-4.5229	-4.4958	-5.1604	-4.4042	-4.6813	-4.8958	-4.3479	-5.0021	-4.6479	-4.4854	-5.1354	-4.5	-4.7479	-4.8458	-4.3333	2.667	121.016	-26.471	170.143	-8.046	19.479	114.921	-133.460	-132.471	3.371	163.341	-137.569	5.949	25.730	142.878	113.923	0.0009025	0.001068	0.0003264	1321.3	6.4528e-06	4.3473e-05	1190.6	395.67	3.0093e-05	5.8315e-06	461.46	146.33	120.77	37.182	8.389e-06	57.345	0.0046297	0.0049426	0.0013687	1303.4	5.25e-05	5.402e-05	1202	397.73	5.3601e-05	5.3758e-05	485.03	159.63	140.42	41.902	5.3748e-05	62.898	159.684	-114.924	73.630	-130.835	-21.895	-27.360	-132.110	-126.346	-112.583	-84.370	-127.987	-124.287	-122.629	-117.234	-9.572	-119.679	-8191	255	
8467.927	1	1	0	0	0.1246	0.0085359	0.18212	0.25081	0.17121	0.055058	0.16357	0.1715	0.1573	0.23305	0.12749	0.14842	0.23734	0.10375	0.088381	0.11836	-4.3812	-4.6062	-4.3229	-5.15	-4.3375	-4.6375	-5.0833	-4.5708	-4.9417	-4.6208	-4.425	-4.8458	-4.6792	-4.6333	-4.9479	-4.4417	152.856	-89.844	-8.880	202.724	-47.194	62.134	204.143	132.829	-136.092	180.981	178.128	156.774	211.452	106.376	-54.894	170.075	0.00046622	0.0016794	0.00037285	1316.2	1.134e-05	4.3758e-06	1186.9	396.62	1.1962e-05	8.4003e-06	461.76	145.62	121.57	37.599	2.1384e-06	58.15	0.004686	0.0049382	0.0013609	1302.3	5.2734e-05	5.4015e-05	1199.1	397.77	5.3312e-05	5.3042e-05	483.35	159.95	140.46	41.926	5.2867e-05	63.269	206.865	-134.679	-41.808	-130.880	180.499	-51.704	-131.848	-126.412	-73.429	21.660	-127.895	-123.644	-122.625	-117.784	13.493	-119.686	-8191	255	
8468.023	1	1	0	0	0.18549	0.063699	0.16261	0.10394	0.057627	0.23037	0.23506	0.302	0.13542	0.28824	0.19817	0.058924	0.21209	0.11883	0.22513	0.24052	-4.4688	-4.7875	-4.3083	-5.125	-4.5375	-4.5875	-5.0938	-4.4208	-4.6208	-4.7958	-4.4646	-5.0979	-4.8083	-4.5167	-4.8917	-4.5312	69.705	-92.316	66.573	199.197	-36.621	136.277	178.647	195.903	41.115	46.232	191.991	-91.835	204.780	157.559	175.343	128.666	0.00067421	0.00042085	0.0010086	1327.7	1.096e-05	2.4256e-05	1198.4	395.01	1.533e-05	8.0047e-06	461.73	146.57	121.63	37.845	1.112e-05	57.843	0.0046369	0.0048875	0.0013469	1307.5	5.3258e-05	5.4022e-05	1207.8	399.04	5.3675e-05	5.3639e-05	484.59	160.71	140.31	42.036	5.3442e-05	63.35	142.844	137.986	21.295	-130.753	35.670	-18.215	-131.772	-126.212	-95.350	122.265	-127.695	-124.249	-122.182	-117.076	115.109	-119.934	-8191	255	
8468.119	1	1	0	0	0.095925	0.1194	0.057759	0.15833	0.12774	0.17289	0.31473	0.080889	0.041631	0.24321	0.11033	0.071499	0.060101	0.15542	0.13032	0.15314	-4.4104	-4.8125	-4.2271	-5.1271	-4.7	-4.4229	-4.925	-4.5333	-4.6896	-4.8521	-4.3896	-4.9563	-4.7146	-4.3042	-5.1583	-4.4062	-30.656	152.618	106.849	155.511	172.001	-72.069	184.714	117.433	123.698	23.083	46.098	5.156	209.840	-81.750	-57.727	72.445	0.00075479	0.0021495	0.00048889	1325.2	9.6955e-06	9.3647e-06	1200.8	398.05	3.5729e-05	1.1179e-05	465.12	145.8	121.87	37.57	1.094e-05	57.601	0.0046437	0.0049409	0.0013545	1312.3	5.3875e-05	5.4041e-05	1208.9	399.9	5.4037e-05	5.3853e-05	484.89	160.47	140.71	41.924	5.2933e-05	63.089	145.516	30.547	-25.995	-130.781	132.230	61.006	-131.806	-126.247	-12.947	-127.901	-127.633	-123.671	-122.861	-117.810	-27.171	-119.581	-8191	255	
8468.215	1	1	0	0	0.17583	0.13177	0.13988	0.15372	0.092016	0.036684	0.11924	0.14551	0.10395	0.073712	0.19579	0.16602	0.10482	0.14457	0.11321	0.28153	-4.3854	-4.9688	-4.4062	-4.8729	-4.6917	-4.5271	-4.8979	-4.725	-4.5938	-4.7854	-4.5	-4.9938	-4.7	-4.4688	-4.9458	-4.6229	131.936	-95.643	79.368	172.928	-28.760	-8.611	157.667	170.758	23.378	204.357	210.935	-114.232	-103.298	-76.347	-25.375	201.493	0.00051928	0.0017117	0.00054421	1309.2	1.0601e-05	1.4865e-05	1191.5	396.54	1.4483e-05	2.3291e-05	460.81	144.98	120.85	37.341	1.2091e-05	57.494	0.0045979	0.0048466	0.0013351	1298.3	5.2293e-05	5.2623e-05	1200.1	396.4	5.2409e-05	5.2495e-05	480.71	159.5	139.37	41.521	5.2716e-05	63.034	196.883	-41.952	-96.593	-130.802	-52.510	-8.491	-131.325	-126.373	25.699	-41.364	-127.644	-123.529	-122.479	-117.743	33.826	-119.798	-8191	255	
8468.311	1	1	0	0	0.27354	0.071101	0.050071	0.2501	0.064592	0.26771	0.21221	0.052625	0.17267	0.11114	0.23738	0.1727	0.24284	0.20668	0.087353	0.015192	-4.3542	-5.15	-4.2271	-4.7667	-4.9563	-4.4854	-5.0229	-4.6813	-4.5958	-4.7896	-4.4792	-4.9354	-4.875	-4.45	-4.7729	-4.6708	-91.200	-57.242	214.301	203.387	-104.778	-65.376	110.995	8.458	181.275	38.960	153.629	152.315	205.689	-108.653	-61.459	168.847	0.00076338	0.001764	5.2777e-05	1314	6.5199e-06	1.8879e-05	1195.4	393.48	1.7572e-05	4.8865e-06	463.28	144.96	121.13	37.641	2.1996e-05	57.171	0.0045229	0.0047965	0.001334	1300.7	5.2269e-05	5.2807e-05	1203	396.53	5.2697e-05	5.3505e-05	483.88	160.1	140.48	41.804	5.4822e-05	63.236	172.591	6.381	126.935	-130.785	127.467	56.702	-131.654	-126.488	-103.747	101.441	-127.874	-124.042	-122.585	-117.349	-19.244	-120.023	-8191	255	
8468.407	1	1	0	0	0.083386	0.088771	0.067305	0.29118	0.17913	0.066414	0.063397	0.27666	0.14392	0.2536	0.13958	0.21866	0.21747	0.14704	0.22258	0.31468	-4.0333	-5.0458	-4.4917	-4.7458	-4.8583	-4.3646	-4.9979	-4.9479	-4.4542	-4.8521	-4.5687	-4.6875	-5.1104	-4.2937	-4.8292	-4.8521	-39.482	-50.154	182.455	180.093	93.515	-125.448	136.294	124.497	166.267	-141.191	143.783	137.272	90.398	80.646	118.689	147.836	0.00047934	0.0029068	0.00024678	1323.5	9.4488e-06	1.1689e-05	1198.3	393.87	8.6367e-06	2.3064e-05	461.78	146.34	121.42	37.371	1.827e-05	57.741	0.0046841	0.005013	0.0013844	1309.8	5.3896e-05	5.3989e-05	1211.2	399.06	5.4177e-05	5.5484e-05	487.64	161.73	142.41	42.214	5.6958e-05	64.083	152.726	-142.846	-100.908	-131.139	112.226	80.937	-131.669	-126.687	-14.649	46.992	-127.838	-124.011	-122.987	-117.937	29.922	-119.623	-8191	255	
8468.504	1	1	0	0	0.028771	0.27674	0.23002	0.25636	0.1693	0.27919	0.22075	0.29524	0.2663	0.05807	0.099407	0.20487	0.2843	0.038874	0.10426	0.252	-3.8312	-4.9563	-4.6458	-4.7708	-4.9458	-4.3958	-4.9521	-4.7979	-4.3542	-4.7562	-4.4479	-4.7667	-4.9062	-4.375	-4.7146	-4.8542	124.012	174.857	-33.959	198.452	51.199	-140.427	141.165	166.629	209.454	-100.232	174.201	-135.024	193.996	53.165	-2.522	124.931	0.0007292	0.0013767	0.00079295	1322.6	8.3749e-06	1.5278e-05	1203	395.98	2.1821e-05	6.8706e-06	463.2	146	121.8	37.607	2.1209e-05	57.543	0.0048487	0.0052499	0.0014566	1319.9	5.6415e-05	5.6639e-05	1225	402.11	5.5757e-05	5.6883e-05	491.85	162.28	142.61	42.341	5.6855e-05	63.795	134.683	192.654	-22.291	-130.939	96.313	84.758	-131.975	-126.165	11.823	-110.858	-127.725	-123.978	-122.895	-117.612	172.995	-119.832	-8191	255	
8468.622	1	1	0	0	0.20647	0.15287	0.3065	0.26503	0.11876	0.15527	0.11317	0.30592	0.29925	0.13766	0.18861	0.080081	0.13515	0.17806	0.13427	0.16203	-4.075	-4.7937	-4.5437	-4.5771	-4.9021	-4.3896	-4.9667	-4.975	-4.2292	-4.9292	-4.7146	-4.6583	-5.0312	-4.4437	-4.5604	-5.0146	-109.249	68.859	215.023	208.855	-81.104	168.809	-141.931	172.740	178.399	200.972	158.793	138.480	195.577	-102.885	-17.461	214.818	0.00056714	0.0014066	0.00044923	1328	1.7111e-05	1.3476e-05	1202.7	397.22	2.0742e-05	4.7126e-05	462.14	145.6	121.51	37.618	1.7301e-05	57.74	0.0047712	0.0051488	0.0014214	1314.1	5.4744e-05	5.5145e-05	1215.6	399.8	5.376e-05	5.5361e-05	486.41	160.29	140.85	41.927	5.4317e-05	63.361	203.537	-111.953	33.606	-130.774	-30.774	-90.606	-131.652	-126.355	-82.334	-3.591	-127.737	-124.034	-122.536	-117.641	26.722	-119.905	-8191	255	
8468.719	1	1	0	0	0.075876	0.050393	0.16096	0.22843	0.12824	0.14643	0.054591	0.35135	0.20382	0.2782	0.16767	0.17792	0.15117	0.061036	0.18833	0.19068	-4.0437	-4.9521	-4.6125	-4.5958	-4.9062	-4.4646	-4.6125	-5.075	-4.3542	-4.8313	-4.8729	-4.2688	-4.9917	-4.4083	-4.5062	-4.8729	-105.287	80.881	-42.518	211.659	-3.284	166.950	-91.787	157.594	118.371	-124.444	160.622	81.508	-62.380	5.854	-89.900	187.003	0.0003846	0.0011191	0.0010609	1319.4	3.052e-05	1.0814e-05	1196.2	396.16	1.5147e-05	1.8983e-05	464.34	146.85	122.14	37.665	1.0531e-05	57.587	0.0045295	0.0049579	0.0013694	1300.3	5.3053e-05	5.3049e-05	1208.5	398.42	5.2564e-05	5.4307e-05	486.02	159.93	140.75	41.976	5.3882e-05	63.051	122.774	215.543	101.328	-130.680	-86.924	134.296	-131.835	-126.082	-85.728	44.489	-127.449	-123.822	-122.634	-117.659	-104.459	-119.490	-8191	255	
8468.815	1	1	0	0	0.1797	0.15476	0.12377	0.29778	0.034862	0.14932	0.082995	0.13117	0.17234	0.20178	0.14468	0.19813	0.11529	0.14145	0.11526	0.18322	-4	-4.9021	-4.5333	-4.5146	-4.8521	-4.6833	-4.8729	-4.9396	-4.4667	-4.8333	-4.8583	-4.5021	-4.8167	-4.6375	-4.3875	-5.0979	-30.629	-22.495	156.239	167.809	-49.041	103.786	140.055	151.665	176.516	-58.009	124.600	-21.223	51.464	174.164	96.822	-129.127	0.0006096	0.0025773	0.00089471	1313.4	2.1127e-05	7.0502e-06	1203	395.71	1.0774e-05	1.1539e-05	461.08	145.96	120.95	37.538	2.0013e-05	57.698	0.0045426	0.0049698	0.0013606	1300.1	5.3414e-05	5.3534e-05	1207.4	397.17	5.2716e-05	5.4494e-05	484.39	159.21	141.41	41.978	5.4447e-05	63.453	148.074	-104.587	89.425	-130.724	-130.887	-136.550	-131.981	-126.083	-116.477	105.057	-127.737	-123.858	-122.661	-117.711	-100.673	-119.566	-8191	255	
8468.911	1	1	0	0	0.17277	0.15085	0.073576	0.070478	0.12489	0.1341	0.40106	0.15097	0.090497	0.11491	0.12613	0.20942	0.21057	0.29252	0.20225	0.30296	-3.9646	-4.5813	-4.7896	-4.3688	-4.7583	-4.7729	-4.7833	-5.1271	-4.3187	-4.7583	-5.0771	-4.5792	-4.9	-4.6292	-4.5458	-5.2771	30.574	-104.925	9.163	-137.170	-116.393	-16.303	201.661	201.892	166.945	7.485	160.402	137.144	-134.597	126.265	208.723	164.233	0.0006057	0.0018812	0.00039782	1320.8	6.9783e-06	2.0801e-05	1200.2	396.62	1.1977e-05	1.2187e-05	464.06	145.59	121.24	37.496	1.8437e-05	57.574	0.0046795	0.0050829	0.0013927	1305.8	5.4696e-05	5.4852e-05	1212.1	399.95	5.4012e-05	5.5355e-05	486.77	160.38	142.14	42	5.4355e-05	63.498	201.890	-112.156	-117.488	-130.937	-110.389	-115.123	-131.924	-126.230	-93.173	-138.002	-128.009	-124.361	-122.594	-117.924	37.070	-119.516	-8191	255	
8469.007	1	1	0	0	0.087129	0.032176	0.2059	0.24944	0.16691	0.16814	0.062554	0.095421	0.077275	0.16064	0.22314	0.2705	0.24007	0.28901	0.08424	0.056076	-4.2458	-4.6271	-4.9292	-4.4333	-4.7479	-4.8167	-4.6396	-5.025	-4.6042	-4.5375	-5.0479	-4.4729	-4.825	-4.9208	-4.3125	-5.1167	142.600	-139.997	172.669	-139.263	-69.642	162.903	-9.573	-125.888	-84.215	187.109	202.699	204.173	-88.943	171.245	12.465	41.752	0.00021931	0.0016656	0.00075716	1316.5	2.3806e-05	1.3447e-05	1202.9	396.69	9.9711e-06	1.1518e-05	465.75	146.07	121.83	37.316	2.9123e-05	58.092	0.0047242	0.0050896	0.0014009	1308.5	5.5073e-05	5.526e-05	1212.7	399.99	5.4124e-05	5.5383e-05	487.37	160.29	141.76	41.843	5.4376e-05	63.583	156.024	-67.837	96.697	-130.642	62.848	75.374	-131.614	-126.142	13.983	47.313	-127.717	-123.937	-122.587	-117.033	-65.981	-119.707	-8191	255	
8469.103	1	1	0	0	0.19199	0.12927	0.059489	0.10362	0.18999	0.070774	0.14209	0.1751	0.17105	0.21346	0.08381	0.22628	0.053417	0.14519	0.16856	0.26191	-4.1729	-4.55	-4.925	-4.3208	-4.8708	-4.7333	-4.3917	-5.1854	-4.3708	-4.525	-5.175	-4.4938	-4.8167	-5.0563	-4.2479	-5.2	115.193	80.989	96.210	0.685	-114.881	195.087	94.654	196.229	101.821	-109.106	171.709	133.673	-102.911	176.833	-16.503	131.178	0.00065033	0.0003216	0.00088964	1320.6	1.4795e-05	1.0139e-05	1198.9	394.09	1.056e-05	1.1628e-05	461.79	144.6	120.88	37.429	1.4246e-05	57.836	0.0047123	0.0049776	0.001377	1304.4	5.4402e-05	5.4557e-05	1208.1	399	5.3791e-05	5.4181e-05	484.98	159.69	140.55	41.719	5.294e-05	63.205	163.534	-125.906	-87.143	-130.711	18.904	-5.464	-131.850	-126.170	212.856	-103.438	-127.835	-124.147	-122.636	-116.899	-108.563	-119.749	-8191	255	
8469.199	1	1	0	0	0.14862	0.12133	0.02445	0.29389	0.15258	0.26987	0.22394	0.17541	0.10537	0.28729	0.27647	0.047643	0.1812	0.0929	0.10558	0.20237	-4.2312	-4.3083	-5.0271	-4.4458	-4.5792	-5.1104	-4.3354	-4.9688	-4.7104	-4.6438	-5.1562	-4.6333	-4.7042	-4.9437	-4.3208	-5.0354	-44.691	183.783	-140.310	175.514	55.183	-0.508	101.580	130.405	-106.331	-74.750	-135.838	44.831	-134.338	32.261	200.856	153.102	0.00079854	0.002547	0.00078295	1310.6	1.3984e-05	2.284e-05	1199	394.99	1.9845e-05	3.4335e-06	458.18	144.09	120.41	37.066	2.0253e-05	57.195	0.0046153	0.0049153	0.0013709	1299.8	5.3326e-05	5.3242e-05	1202	397.59	5.2892e-05	5.2916e-05	483.11	158.63	140.15	41.513	5.2785e-05	62.809	153.730	-68.769	-3.038	-130.915	-1.839	81.129	-131.568	-126.015	191.523	40.705	-127.696	-124.162	-122.721	-117.530	-92.648	-119.779	-8191	255	
8469.296	1	1	0	0	0.10563	0.085459	0.17839	0.2021	0.2417	0.19884	0.062557	0.14621	0.22254	0.12331	0.19525	0.17268	0.11774	0.28798	0.065591	0.10001	-4.2354	-4.35	-4.9437	-4.7646	-4.5271	-4.9125	-4.4854	-4.9938	-4.9313	-4.3938	-5.3229	-4.6875	-4.55	-5.0021	-4.3333	-4.8125	-43.209	157.054	19.327	205.347	-32.154	194.871	200.337	-113.027	140.833	29.847	170.467	-84.636	51.385	174.697	143.114	96.708	0.00045668	0.0008159	0.00052381	1314.7	9.6149e-06	5.1116e-06	1198.5	395.01	1.9179e-05	1.6659e-05	461.24	144.37	120.47	37.075	1.6062e-05	57.192	0.0045998	0.004848	0.0013687	1299.8	5.2962e-05	5.2824e-05	1202	397.41	5.2166e-05	5.1935e-05	482.38	158.25	139.35	41.421	5.2606e-05	62.797	161.922	-54.763	49.788	-130.731	-66.394	0.263	-131.918	-126.298	-45.117	-100.478	-127.375	-124.152	-122.680	-117.672	-18.176	-119.880	-8191	255	
#DATA ENDS
