BOXY.EXE: ISS Imagent and Oximeter Data Acquisition Program Version 0.80
Ascii Record File

#ACQ INFORMATION
2  Detector Channels 
16  External MUX Channels 
1  Auxiliary Channels 
5000  Waveform (CCF) Frequency (Hz)
1  Waveforms Skipped 
30  Waveforms Averaged 
1  Cycles Averaged 
16  Acquisitions per Waveform 
10.0806  Updata Rate (Hz) 

#FILE INFORMATION
TRUE -- External MUX Channel results are PARSED.
FALSE -- AC DC and Phase are NOT grouped.
TRUE -- Companion Program Settings File CREATED.
FALSE -- AC data not excluded
FALSE -- DC data not excluded
FALSE -- Phase data not excluded
FALSE -- Auxillary Chn. data not excluded
Tab delimiters

#CALIBRATION STATE
TRUE -- Waveform Calibration Values APPLIED.


#AUX CALIBRATION VALUES
Val Type	aux-1	

Term	1.0000e+00	
Factor	0.0000e+00	


#WF CALIBRATION VALUES
A = Detector Channel
Val Type	A-AC1	A-AC2	A-AC3	A-AC4	A-AC5	A-AC6	A-AC7	A-AC8	A-AC9	A-AC10	A-AC11	A-AC12	A-AC13	A-AC14	A-AC15	A-AC16	A-DC1	A-DC2	A-DC3	A-DC4	A-DC5	A-DC6	A-DC7	A-DC8	A-DC9	A-DC10	A-DC11	A-DC12	A-DC13	A-DC14	A-DC15	A-DC16	A-Ph1	A-Ph2	A-Ph3	A-Ph4	A-Ph5	A-Ph6	A-Ph7	A-Ph8	A-Ph9	A-Ph10	A-Ph11	A-Ph12	A-Ph13	A-Ph14	A-Ph15	A-Ph16	

Term	0.00000e+00	0.00000e+00	0.00000e+00	0.00000e+00	0.00000e+00	0.00000e+00	0.00000e+00	0.00000e+00	0.00000e+00	0.00000e+00	0.00000e+00	0.00000e+00	0.00000e+00	0.00000e+00	0.00000e+00	0.00000e+00	0.00000e+00	0.00000e+00	0.00000e+00	0.00000e+00	0.00000e+00	0.00000e+00	0.00000e+00	0.00000e+00	0.00000e+00	0.00000e+00	0.00000e+00	0.00000e+00	0.00000e+00	0.00000e+00	0.00000e+00	0.00000e+00	0.00000e+00	0.00000e+00	0.00000e+00	0.00000e+00	0.00000e+00	0.00000e+00	0.00000e+00	0.00000e+00	0.00000e+00	0.00000e+00	0.00000e+00	0.00000e+00	0.00000e+00	0.00000e+00	0.00000e+00	0.00000e+00	
Factor	1.00000e+00	1.00000e+00	1.00000e+00	1.00000e+00	1.00000e+00	1.00000e+00	1.00000e+00	1.00000e+00	1.00000e+00	1.00000e+00	1.00000e+00	1.00000e+00	1.00000e+00	1.00000e+00	1.00000e+00	1.00000e+00	1.00000e+00	1.00000e+00	1.00000e+00	1.00000e+00	1.00000e+00	1.00000e+00	1.00000e+00	1.00000e+00	1.00000e+00	1.00000e+00	1.00000e+00	1.00000e+00	1.00000e+00	1.00000e+00	1.00000e+00	1.00000e+00	X	X	X	X	X	X	X	X	X	X	X	X	X	X	X	X	

B = Detector Channel
Val Type	B-AC1	B-AC2	B-AC3	B-AC4	B-AC5	B-AC6	B-AC7	B-AC8	B-AC9	B-AC10	B-AC11	B-AC12	B-AC13	B-AC14	B-AC15	B-AC16	B-DC1	B-DC2	B-DC3	B-DC4	B-DC5	B-DC6	B-DC7	B-DC8	B-DC9	B-DC10	B-DC11	B-DC12	B-DC13	B-DC14	B-DC15	B-DC16	B-Ph1	B-Ph2	B-Ph3	B-Ph4	B-Ph5	B-Ph6	B-Ph7	B-Ph8	B-Ph9	B-Ph10	B-Ph11	B-Ph12	B-Ph13	B-Ph14	B-Ph15	B-Ph16	

Term	0.00000e+00	0.00000e+00	0.00000e+00	0.00000e+00	0.00000e+00	0.00000e+00	0.00000e+00	0.00000e+00	0.00000e+00	0.00000e+00	0.00000e+00	0.00000e+00	0.00000e+00	0.00000e+00	0.00000e+00	0.00000e+00	0.00000e+00	0.00000e+00	0.00000e+00	0.00000e+00	0.00000e+00	0.00000e+00	0.00000e+00	0.00000e+00	0.00000e+00	0.00000e+00	0.00000e+00	0.00000e+00	0.00000e+00	0.00000e+00	0.00000e+00	0.00000e+00	-1.76971e+02	-1.26231e+02	-1.22654e+02	-1.81614e+02	-8.27724e+01	-7.88091e+01	-1.57570e+02	-1.62015e+02	-8.57950e+01	-7.03981e+01	-1.71199e+02	-1.72854e+02	-1.84169e+02	-1.76777e+02	-8.06855e+01	-1.49602e+02	
Factor	3.07816e-05	1.62578e-04	4.72384e-05	1.51029e-01	1.31753e-06	1.41732e-06	1.65794e-01	5.23204e-02	1.70557e-06	1.74508e-06	8.62220e-02	3.50286e-02	3.70922e-02	9.34852e-03	1.66101e-06	1.36017e-02	2.42273e-06	2.59562e-06	7.22291e-07	7.56502e-02	2.81075e-08	2.84093e-08	7.83351e-02	2.61589e-02	2.80967e-08	2.83958e-08	4.18652e-02	1.69423e-02	1.85081e-02	4.69075e-03	2.82755e-08	6.61081e-03	X	X	X	X	X	X	X	X	X	X	X	X	X	X	X	X	



#DISTANCE SETTINGS
A = Detector Channel
A-1	A-2	A-3	A-4	A-5	A-6	A-7	A-8	A-9	A-10	A-11	A-12	A-13	A-14	A-15	A-16	

2.5000e+00	3.0000e+00	2.5000e+00	3.0000e+00	2.0000e+00	3.0000e+00	1.5000e+00	3.0000e+00	3.0000e+00	3.0000e+00	3.0000e+00	3.0000e+00	3.0000e+00	3.0000e+00	1.5000e+00	3.0000e+00	

B = Detector Channel
B-1	B-2	B-3	B-4	B-5	B-6	B-7	B-8	B-9	B-10	B-11	B-12	B-13	B-14	B-15	B-16	

1.0000e+01	1.0000e+01	1.0000e+01	1.4400e+00	1.0000e+01	1.0000e+01	1.5100e+00	1.9400e+00	1.0000e+01	1.0000e+01	1.9900e+00	2.4900e+00	2.4100e+00	2.9000e+00	1.0000e+01	2.9800e+00	




#DATA BEGINS
time	group	step	mark	flag	A-AC1	A-AC2	A-AC3	A-AC4	A-AC5	A-AC6	A-AC7	A-AC8	A-AC9	A-AC10	A-AC11	A-AC12	A-AC13	A-AC14	A-AC15	A-AC16	A-DC1	A-DC2	A-DC3	A-DC4	A-DC5	A-DC6	A-DC7	A-DC8	A-DC9	A-DC10	A-DC11	A-DC12	A-DC13	A-DC14	A-DC15	A-DC16	A-Ph1	A-Ph2	A-Ph3	A-Ph4	A-Ph5	A-Ph6	A-Ph7	A-Ph8	A-Ph9	A-Ph10	A-Ph11	A-Ph12	A-Ph13	A-Ph14	A-Ph15	A-Ph16	B-AC1	B-AC2	B-AC3	B-AC4	B-AC5	B-AC6	B-AC7	B-AC8	B-AC9	B-AC10	B-AC11	B-AC12	B-AC13	B-AC14	B-AC15	B-AC16	B-DC1	B-DC2	B-DC3	B-DC4	B-DC5	B-DC6	B-DC7	B-DC8	B-DC9	B-DC10	B-DC11	B-DC12	B-DC13	B-DC14	B-DC15	B-DC16	B-Ph1	B-Ph2	B-Ph3	B-Ph4	B-Ph5	B-Ph6	B-Ph7	B-Ph8	B-Ph9	B-Ph10	B-Ph11	B-Ph12	B-Ph13	B-Ph14	B-Ph15	B-Ph16	aux-1	digaux	

8675.144	1	1	0	512	0.079049	0.070234	0.20798	0.064225	0.04284	0.070292	0.13667	0.15006	0.15984	0.11168	0.22951	0.20877	0.023211	0.30227	0.057038	0.26959	-4.2396	-4.675	-4.1729	-4.9875	-4.3396	-4.2875	-4.7792	-4.1583	-4.5708	-4.6958	-4.2417	-4.9062	-4.6729	-4.6021	-4.9729	-4.4917	70.348	275.046	114.175	289.314	280.974	-2.349	274.059	172.029	233.087	119.290	12.347	267.258	156.897	-18.161	321.331	239.479	0.00064496	0.00053551	0.00033277	951.83	5.598e-06	6.2222e-06	1198.7	391.75	4.0954e-06	6.6553e-06	558.44	224.93	152.45	66.788	5.9341e-06	104.97	0.0002368	0.00018243	5.1844e-05	885.01	2.0503e-06	2.0715e-06	1116	364.66	2.0679e-06	1.9926e-06	519.02	208.77	141.34	62.685	2.0999e-06	97.909	96.804	16.514	44.597	-23.715	121.112	100.854	-24.826	-18.542	99.424	123.917	-20.158	-15.709	-14.149	-9.183	101.431	-11.615	-8191	255	
8675.241	1	1	0	0	0.19319	0.074889	0.11025	0.47897	0.15444	0.17118	0.31204	0.17337	0.11858	0.04099	0.19531	0.15518	0.24909	0.081165	0.14351	0.24079	-4.1146	-4.5917	-4.1937	-4.8479	-4.3667	-4.2562	-5.0479	-4.3063	-4.4604	-4.7271	-4.3333	-4.8104	-4.6604	-4.4187	-4.7438	-4.475	-19.982	301.370	279.362	298.831	300.787	200.705	303.137	-16.393	39.970	176.016	292.986	290.767	283.650	216.337	13.355	293.205	0.00054896	0.00083885	0.00013481	951.18	8.212e-06	6.6052e-06	1190	390.29	5.3303e-06	6.1447e-06	558.13	222.6	152.05	66.736	6.094e-06	104.83	0.0002298	0.0001869	5.1943e-05	885.53	2.1174e-06	2.045e-06	1109.3	363.67	2.1123e-06	2.014e-06	516.44	207.4	141.43	62.573	2.0944e-06	97.32	88.710	56.897	66.455	-23.615	107.544	86.484	-24.786	-18.550	122.237	94.022	-20.067	-16.066	-13.906	-9.073	80.896	-11.634	-8191	255	
8675.361	1	1	0	0	0.12964	0.12676	0.12955	0.031911	0.16923	0.084748	0.089099	0.24667	0.055027	0.11134	0.21937	0.059635	0.12783	0.15736	0.088088	0.29887	-4.2792	-4.7458	-4.1771	-4.7688	-4.6188	-4.2812	-5.0146	-4.6333	-4.3063	-4.75	-4.5104	-4.7042	-4.6083	-4.4375	-4.8125	-4.6167	55.039	178.185	117.259	14.286	53.412	281.164	258.158	260.001	216.877	248.463	251.007	250.043	276.227	294.284	193.214	303.570	0.00055062	0.0005796	0.00017753	946.86	6.7699e-06	5.8331e-06	1186.6	390.42	4.7676e-06	7.5208e-06	554.5	221.51	152.18	66.678	5.53e-06	104.43	0.00022918	0.00018562	5.1039e-05	882.78	1.9795e-06	2.0455e-06	1105.5	363.26	2.1017e-06	2.0484e-06	514.74	206.24	140.87	62.355	2.1155e-06	97.231	92.223	63.558	38.129	-23.485	86.457	115.218	-24.796	-18.407	71.134	113.280	-20.043	-15.762	-13.990	-8.971	84.792	-11.712	-8191	255	
8675.433	1	1	0	0	0.080134	0.031655	0.21991	0.29355	0.30875	0.1325	0.14963	0.033018	0.29637	0.064977	0.30708	0.17803	0.10427	0.033875	0.068405	0.23518	-4.0542	-4.7854	-4.3688	-4.6854	-4.6125	-4.2167	-4.9146	-4.6146	-4.1771	-4.8042	-4.4625	-4.6333	-4.7229	-4.2396	-4.6083	-4.7167	262.135	66.809	29.207	297.219	20.283	-5.376	303.970	2.876	208.432	153.807	261.268	-24.794	-32.149	223.426	250.614	147.977	0.00053903	0.00070297	0.0001671	945.29	6.086e-06	3.2881e-06	1184.1	386.96	4.7556e-06	8.3664e-06	554.01	222.27	151.13	66.632	9.1802e-06	104.44	0.00023204	0.00018541	5.194e-05	878.49	2.0408e-06	1.9677e-06	1104.8	361.46	2.047e-06	2.032e-06	514.06	206.37	140.66	62.237	2.1131e-06	97.195	91.070	85.156	37.242	-23.798	91.161	106.318	-24.609	-18.545	144.237	143.026	-20.346	-15.786	-14.139	-9.227	113.402	-11.640	-8191	255	
8675.529	1	1	0	0	0.33285	0.043799	0.23406	0.21987	0.1716	0.17627	0.26984	0.32682	0.14966	0.12964	0.22644	0.23923	0.11904	0.3189	0.1644	0.28762	-3.8417	-4.7104	-4.4271	-4.6438	-4.8375	-4.1354	-4.7583	-4.8104	-4.2333	-4.6937	-4.5333	-4.5083	-4.8438	-4.3146	-4.6937	-4.7083	83.163	221.119	297.991	294.990	6.069	256.896	284.991	300.117	-35.472	235.979	-23.448	-11.871	-5.600	296.096	269.640	226.676	0.0005559	0.0010055	0.00020683	944.8	7.3785e-06	5.2637e-06	1183.6	387.87	4.7649e-06	7.6728e-06	554.29	222.72	151.16	66.714	9.0499e-06	105.56	0.00023363	0.00018794	5.1931e-05	878.43	2.0414e-06	2.0081e-06	1106.1	362.23	2.094e-06	2.0209e-06	516.25	207.24	140.92	62.616	2.1485e-06	97.954	91.781	50.050	26.551	-23.472	123.025	115.080	-24.271	-18.446	127.961	84.479	-20.114	-15.846	-14.151	-9.092	98.022	-11.605	-8191	255	
8675.650	1	1	0	0	0.04627	0.20784	0.31616	0.17091	0.12899	0.1133	0.35615	0.17876	0.11316	0.11534	0.17671	0.28997	0.25291	0.028368	0.11501	0.082767	-3.925	-4.6833	-4.2917	-4.4688	-4.6937	-4.2875	-4.7625	-4.8583	-4.3583	-4.7896	-4.5542	-4.4208	-4.8521	-4.3313	-4.6458	-4.7917	133.912	115.158	69.756	308.935	56.459	-0.118	242.240	11.791	259.991	152.832	284.700	244.057	290.828	208.906	200.691	274.380	0.00062644	0.00061873	0.00020737	951.9	5.9471e-06	5.6546e-06	1193.4	389.58	4.3381e-06	9.4374e-06	558.44	224.07	153.32	67.41	7.1936e-06	105.74	0.00023086	0.0001865	5.227e-05	884.37	2.0894e-06	2.015e-06	1113.9	363.36	2.0711e-06	2.0606e-06	518.26	208.77	142.01	63.214	2.1765e-06	98.466	92.602	54.702	50.082	-23.688	80.405	109.818	-24.650	-18.759	118.079	89.009	-19.802	-15.765	-14.333	-9.281	123.071	-11.300	-8191	255	
8675.746	1	1	0	0	0.25486	0.074004	0.19732	0.24685	0.27377	0.24874	0.13716	0.25485	0.14298	0.027365	0.14507	0.4484	0.12741	0.30788	0.19357	0.20311	-3.5583	-4.9479	-4.3812	-4.3	-4.8583	-4.1146	-4.6146	-4.9229	-4.1042	-4.7667	-4.6167	-4.4125	-5.0125	-4.4187	-4.5542	-5.0083	56.024	118.155	123.132	319.951	163.954	42.995	216.552	308.415	204.004	302.651	225.062	276.611	7.896	236.339	291.919	225.689	0.00057472	0.00081957	0.00014525	950.73	3.5049e-06	3.9545e-06	1189	388.54	4.8015e-06	9.0341e-06	556.14	223.68	151.87	67.409	4.855e-06	104.89	0.00022504	0.00018976	5.0757e-05	883.24	2.0099e-06	2.0266e-06	1108.6	362.98	2.0379e-06	2.0278e-06	516.1	207.89	141.44	63.14	2.0781e-06	98.028	90.578	45.137	75.011	-23.464	117.751	59.317	-24.488	-18.620	89.581	82.948	-19.966	-15.934	-14.053	-9.344	130.618	-11.444	-8191	255	
8675.842	1	1	0	0	0.075095	0.15623	0.13486	0.20806	0.17692	0.099756	0.2606	0.092877	0.16218	0.23657	0.13803	0.14474	0.096096	0.28691	0.12365	0.2859	-3.8812	-4.7	-4.5583	-4.45	-4.7208	-4.2438	-4.4229	-4.8938	-4.0875	-4.6521	-4.7083	-4.4708	-4.6792	-4.4458	-4.2812	-5.0104	133.275	18.587	94.152	222.456	-5.045	55.300	266.598	100.235	232.722	21.720	107.185	265.734	18.620	258.860	301.223	318.010	0.00059773	0.00088561	0.00020991	946.6	6.169e-06	3.7636e-06	1186.9	388.55	6.728e-06	1.083e-05	554.82	222.85	152.08	67.344	7.4702e-06	104.97	0.00023179	0.00019186	5.239e-05	880.01	2.0959e-06	2.0657e-06	1103.6	362.74	2.0521e-06	2.037e-06	514.09	207.29	141.15	62.892	2.1365e-06	97.704	91.264	60.861	61.530	-23.747	69.698	127.519	-24.605	-18.588	118.841	93.439	-20.320	-15.770	-14.075	-9.143	141.127	-11.395	-8191	255	
8675.938	1	1	0	0	0.13767	0.22424	0.021642	0.18064	0.20271	0.029968	0.23131	0.27876	0.19577	0.10671	0.37465	0.15086	0.13123	0.36477	0.15322	0.15206	-3.8146	-4.4583	-4.6708	-4.3479	-4.7312	-4.4833	-4.3833	-5.0146	-4.3771	-4.6167	-4.6875	-4.2958	-4.85	-4.575	-4.2208	-4.9917	53.034	22.590	86.316	263.218	218.957	180.525	312.312	315.686	215.057	-0.635	-17.503	260.031	283.559	282.799	287.055	254.224	0.00057051	0.00065738	0.0002775	945.79	4.9922e-06	9.7786e-06	1186.2	387.48	6.5601e-06	9.1617e-06	553.47	221.73	151.29	66.883	7.3256e-06	104.97	0.00022773	0.00018628	5.0079e-05	880.17	2.0655e-06	2.0134e-06	1104.6	361.62	2.109e-06	2.0301e-06	513.95	206.63	140.67	62.604	2.0659e-06	97.65	93.124	53.413	65.337	-23.578	126.989	111.858	-24.602	-18.202	110.722	113.836	-20.017	-15.933	-13.811	-9.162	115.499	-11.656	-8191	255	
8676.034	1	1	0	0	0.054374	0.12563	0.093892	0.2032	0.052925	0.18312	0.25423	0.26596	0.095441	0.13567	0.27553	0.28099	0.23308	0.24481	0.15555	0.13381	-4.075	-4.5625	-4.7438	-4.4542	-4.7271	-4.5437	-4.4271	-5.1188	-4.2875	-4.6271	-4.9688	-4.3104	-4.8542	-4.675	-4.2188	-4.9771	60.463	219.336	95.053	9.057	256.161	-14.385	-29.723	272.813	88.008	177.205	300.402	250.291	294.285	-32.636	219.311	283.931	0.00061909	0.00063232	0.00022334	948.64	7.1978e-06	4.9492e-06	1191.2	389.57	7.4837e-06	6.8517e-06	559.27	223.63	151.83	67.571	6.611e-06	105.96	0.00023185	0.00018743	5.1033e-05	880.88	2.0633e-06	2.0283e-06	1107.7	362.22	2.0696e-06	2.036e-06	516.56	207.89	140.94	63.068	2.099e-06	98.582	95.047	86.937	63.205	-23.366	103.011	88.955	-24.910	-18.689	82.676	83.365	-20.236	-15.708	-14.178	-9.293	106.802	-11.534	-8191	255	
8676.129	1	1	0	0	0.092082	0.031474	0.070215	0.23186	0.30946	0.22451	0.073636	0.17282	0.31599	0.095934	0.093782	0.20947	0.1609	0.12258	0.20293	0.2474	-4.0729	-4.3854	-4.7854	-4.4208	-4.6813	-4.4917	-4.4833	-4.9271	-4.4646	-4.3063	-5.0458	-4.3688	-4.8042	-4.8146	-4.1604	-4.9167	-28.661	264.551	61.100	88.027	80.721	-35.620	-25.393	289.808	282.723	186.442	249.848	295.166	307.188	268.387	188.053	-34.756	0.00056918	0.00069302	0.00013533	948.83	8.4706e-06	6.4693e-06	1197	389.62	5.8282e-06	9.1224e-06	559.14	224.82	153.49	67.813	3.3064e-06	105.97	0.00023066	0.00018745	5.0518e-05	882.34	2.0972e-06	2.0009e-06	1113	363.56	2.1085e-06	2.0322e-06	519.18	209.19	142.52	63.524	2.0662e-06	98.952	88.809	77.129	67.462	-23.472	91.249	78.697	-24.564	-18.428	95.992	130.431	-20.185	-15.793	-13.966	-9.111	87.288	-11.693	-8191	255	
8676.249	1	1	0	0	0.10814	0.040295	0.11247	0.044997	0.14269	0.24095	0.32309	0.018011	0.28007	0.12355	0.14398	0.17228	0.10733	0.29152	0.16373	0.30215	-4.2292	-4.3313	-4.85	-4.3917	-4.6167	-4.8417	-4.3667	-5.0687	-4.6583	-4.5042	-5.1687	-4.4938	-4.6208	-4.9333	-4.2375	-5.0625	263.855	64.733	22.458	220.760	-35.819	85.129	293.429	45.863	50.900	63.471	275.195	286.077	287.527	296.561	271.762	265.592	0.00057739	0.00079019	0.00016119	951.05	3.1662e-06	4.9885e-06	1190.5	390.17	4.1646e-06	9.1198e-06	556.78	224.19	153.33	68.069	6.7389e-06	106.07	0.00023305	0.00018551	5.2857e-05	884.63	2.1302e-06	2.0501e-06	1110.1	364.24	2.0775e-06	2.002e-06	517.12	208.67	142.4	63.522	2.0524e-06	98.571	91.918	52.840	80.466	-23.760	102.897	99.193	-24.629	-18.625	82.967	117.909	-20.194	-15.934	-13.999	-9.330	108.658	-11.586	-8191	255	
8676.345	1	1	0	0	0.085769	0.18678	0.18848	0.22429	0.063581	0.1755	0.22407	0.11013	0.14267	0.2794	0.30978	0.040643	0.1668	0.25147	0.16477	0.12471	-4.3229	-4.3021	-4.8313	-4.5667	-4.6125	-4.8021	-4.5729	-4.8583	-4.6354	-4.3271	-4.9979	-4.5729	-4.3979	-4.8396	-4.2875	-4.8833	80.784	88.558	3.056	315.676	88.212	79.004	310.465	266.197	74.622	130.633	284.799	269.693	277.065	310.041	72.244	274.409	0.00059357	0.00049308	0.00016846	948.43	6.3114e-06	7.2394e-06	1184	390.99	3.2018e-06	8.297e-06	551.98	223.44	152.29	67.873	6.2618e-06	105.65	0.00022779	0.00018362	5.1528e-05	882.64	2.1012e-06	2.0574e-06	1103.4	363.74	1.9984e-06	2.0162e-06	514.09	207.68	141.85	63.253	2.0563e-06	98.151	101.973	35.223	31.176	-23.442	91.879	94.619	-24.778	-18.672	96.519	70.740	-20.233	-15.924	-14.392	-9.371	128.414	-11.666	-8191	255	
8676.442	1	1	0	0	0.39209	0.083182	0.21623	0.21509	0.15179	0.086823	0.34661	0.32425	0.11979	0.18114	0.21672	0.24296	0.10134	0.030706	0.059449	0.13262	-4.1646	-4.1	-4.6917	-4.6042	-4.3854	-4.8125	-4.6104	-4.8271	-4.6979	-4.1542	-4.9	-4.4083	-4.375	-5.0208	-4.3917	-4.7583	239.594	58.130	265.400	265.731	100.061	262.573	270.633	309.629	5.201	251.088	260.224	297.569	314.603	169.517	150.708	256.909	0.0005021	0.00080318	0.00022833	946.85	8.1618e-06	6.2229e-06	1183.3	388.65	5.5816e-06	8.2177e-06	557.76	224.13	151.82	67.541	1.2276e-05	105.33	0.00022689	0.0001772	5.2059e-05	879.93	2.0137e-06	2.0054e-06	1102.5	362.16	2.05e-06	2.0566e-06	516.18	208.28	141.34	62.981	2.0639e-06	98.023	99.867	54.275	84.371	-23.519	118.103	116.049	-24.748	-18.661	148.016	112.534	-20.547	-16.052	-13.904	-9.170	97.697	-11.417	-8191	255	
8676.538	1	1	0	0	0.1881	0.18778	0.081034	0.18692	0.03798	0.2253	0.20169	0.26276	0.17113	0.14887	0.097331	0.22053	0.043054	0.087055	0.18523	0.17516	-4.2896	-4.1833	-4.7708	-4.6854	-4.3229	-4.7812	-4.4375	-4.6042	-4.6167	-4.3375	-4.7875	-4.6521	-4.1292	-4.9479	-4.2979	-4.5417	49.122	232.432	316.799	288.268	273.186	-13.324	274.445	269.191	102.229	102.175	270.788	298.939	-11.112	19.764	323.478	247.532	0.0005573	0.00062513	0.00017157	948.8	5.2746e-06	7.4022e-06	1188	389.44	5.2957e-06	5.7564e-06	557.89	223.75	151.76	67.258	1.072e-05	105.61	0.00022938	0.00018593	5.2252e-05	882.04	2.0917e-06	2.0035e-06	1107.3	362.29	2.0553e-06	1.9701e-06	516.94	208.15	141.19	62.837	2.0651e-06	98.524	92.811	60.115	38.202	-23.870	107.973	97.859	-24.609	-18.406	101.461	89.846	-20.166	-15.754	-14.354	-9.188	116.483	-11.450	-8191	255	
8676.609	1	1	0	0	0.045059	0.2317	0.15946	0.11608	0.016702	0.20895	0.22334	0.25519	0.026808	0.19794	0.28158	0.23357	0.097819	0.30279	0.14156	0.14292	-4.4375	-4.2562	-4.7021	-4.5958	-4.2604	-4.8667	-4.5104	-4.5729	-4.7021	-4.2667	-4.7792	-4.6729	-4.375	-4.9667	-4.3229	-4.5271	235.269	300.288	59.294	-25.280	64.025	199.455	315.699	302.281	-36.007	210.054	311.053	269.825	28.568	-17.975	253.576	286.337	0.00062886	0.00086099	0.00027425	943.41	7.2653e-06	4.5067e-06	1199.5	390.65	5.3668e-06	7.8805e-06	560.71	224.09	151.5	67.505	5.3371e-06	105.7	0.00022995	0.00018772	5.2216e-05	880.99	2.105e-06	2.0351e-06	1112.9	363.74	2.0622e-06	1.9945e-06	519.92	209.01	141.42	63.07	2.0408e-06	98.669	93.245	48.413	51.227	-23.690	117.070	86.124	-24.550	-18.353	106.749	126.916	-20.330	-15.812	-14.214	-9.104	81.026	-11.365	-8191	255	
8676.730	1	1	0	0	0.070756	0.07372	0.034304	0.29652	0.090058	0.1719	0.20657	0.12457	0.18232	0.046292	0.06838	0.19683	0.15353	0.17464	0.13026	0.23006	-4.3313	-4.3688	-4.5604	-4.8042	-4.1792	-5.0604	-4.8	-4.4875	-4.8042	-4.325	-4.6438	-4.9729	-4.2125	-4.9979	-4.5125	-4.5188	140.253	304.380	230.916	232.006	262.306	144.217	316.230	68.637	321.035	253.518	62.212	232.754	288.504	248.136	-8.045	82.818	0.00054231	0.00067785	0.00022924	945.65	7.1224e-06	5.5808e-06	1190	389.79	7.4667e-06	5.7312e-06	556.23	222.7	151.58	67.033	6.1449e-06	105.12	0.00022464	0.00018513	5.1519e-05	882.42	1.9973e-06	2.0472e-06	1109	362.44	2.0723e-06	1.986e-06	516.82	207.63	140.64	62.669	2.054e-06	97.815	92.631	62.093	70.697	-23.647	101.692	106.979	-24.815	-18.657	107.181	142.239	-20.122	-15.778	-13.964	-9.472	80.390	-11.543	-8191	255	
8676.826	1	1	0	0	0.2279	0.0059093	0.14146	0.18918	0.12821	0.087131	0.28501	0.19061	0.017674	0.10712	0.17196	0.017184	0.090875	0.30219	0.16597	0.17028	-4.6438	-4.4437	-4.5521	-4.8604	-4.0083	-4.6646	-4.825	-4.3417	-4.8187	-4.2812	-4.6521	-4.8729	-4.3333	-4.8125	-4.5667	-4.3229	72.222	91.803	178.481	-28.967	285.861	101.458	234.253	214.529	311.265	54.374	296.144	216.746	109.847	9.654	-9.204	267.560	0.00058082	0.00089229	0.00028049	942.73	4.1481e-06	6.5989e-06	1186.4	386.35	4.0238e-06	7.5974e-06	548.89	221.46	150.18	66.61	2.7582e-06	104.32	0.00022667	0.00018652	5.058e-05	878.04	1.9889e-06	2.0321e-06	1104.1	360.55	2.0477e-06	1.9862e-06	512.16	206.13	139.82	62.293	2.0174e-06	97.228	94.567	31.538	75.300	-23.748	112.180	123.928	-24.693	-18.627	119.332	114.688	-19.964	-15.700	-13.953	-9.209	96.327	-11.601	-8191	255	
8676.922	1	1	0	0	0.13652	0.16787	0.29611	0.10137	0.16576	0.146	0.2246	0.262	0.16341	0.22903	0.16333	0.16655	0.16852	0.27219	0.29376	0.14544	-4.4229	-4.3667	-4.2042	-4.8854	-4.0687	-4.6188	-4.8458	-4.2583	-4.8063	-4.4958	-4.5833	-5.075	-4.2292	-4.7896	-4.6104	-4.3688	200.195	4.055	-33.907	-5.166	198.721	265.960	238.086	280.251	260.380	136.155	314.024	248.797	148.233	251.128	83.567	282.030	0.00054267	0.00070532	0.00025826	938.52	5.6298e-06	4.1535e-06	1181.9	385.97	3.5167e-06	1.0085e-05	550.69	219.87	149.29	66.165	4.6532e-06	104.03	0.00022678	0.00017527	5.0801e-05	875.15	1.985e-06	2.0258e-06	1100.8	358.89	2.0721e-06	1.9958e-06	512.25	205.53	139.09	61.9	2.042e-06	96.872	89.036	72.079	64.909	-23.715	80.018	108.643	-24.650	-18.527	123.018	110.381	-20.166	-15.637	-14.387	-9.320	80.974	-11.751	-8191	255	
8677.041	1	1	0	0	0.072731	0.11886	0.21038	0.34172	0.14171	0.26046	0.20722	0.32748	0.07147	0.17347	0.37633	0.22413	0.016339	0.08907	0.059836	0.26737	-4.5021	-4.5333	-3.9938	-4.9542	-4.1729	-4.5	-4.9417	-4.1937	-4.6729	-4.5125	-4.4146	-4.9271	-4.3333	-4.6854	-4.8604	-4.4104	105.501	94.959	38.037	264.728	63.494	4.708	276.880	274.024	190.377	120.081	284.178	240.391	281.445	55.928	242.342	272.673	0.00060567	0.0005766	0.0002302	940.79	3.8224e-06	3.3478e-06	1188.4	384.02	6.9724e-06	8.3889e-06	554.8	221.12	149.64	66.138	7.2052e-06	104.47	0.0002288	0.00018189	5.0803e-05	873.78	1.9931e-06	2.0516e-06	1104	358.48	2.089e-06	1.901e-06	513.38	205.91	139.2	61.812	2.046e-06	97.343	99.400	36.901	59.660	-23.731	93.245	97.500	-24.827	-18.815	116.683	104.876	-20.288	-15.949	-14.399	-9.291	119.567	-11.768	-8191	255	
8677.137	1	1	0	0	0.11724	0.0034589	0.11837	0.069067	0.038138	0.14744	0.18738	0.073996	0.17701	0.082606	0.090131	0.17437	0.19179	0.050756	0.065601	0.1533	-4.3812	-4.5938	-4.1667	-4.9667	-4.3313	-4.5	-4.975	-4.2979	-4.6542	-4.6458	-4.3396	-4.8833	-4.4688	-4.5354	-4.7812	-4.45	194.597	48.602	203.032	201.352	-18.118	133.495	247.442	160.061	15.170	112.157	288.075	282.363	318.155	-34.098	80.409	291.384	0.00059761	0.00093177	0.00020506	943.7	5.397e-06	4.8102e-06	1190.7	387.45	4.2456e-06	7.331e-06	553.88	222.9	150.44	66.713	6.3267e-06	105.35	0.00022696	0.00018116	5.1036e-05	877.17	2.0057e-06	2.0198e-06	1106.3	360.32	2.0984e-06	1.9424e-06	515.3	207.26	139.64	62.265	2.0808e-06	97.884	94.262	62.548	31.921	-23.713	116.678	103.824	-24.550	-18.667	74.354	111.005	-19.970	-15.838	-13.953	-9.289	88.984	-11.540	-8191	255	
8677.234	1	1	0	0	0.060223	0.12241	0.076254	0.15723	0.15224	0.1449	0.11017	0.14771	0.28439	0.075938	0.20117	0.096598	0.20167	0.11838	0.015594	0.19182	-4.225	-4.5229	-4.2625	-4.9125	-4.3729	-4.3812	-4.9979	-4.375	-4.5958	-4.7271	-4.2375	-4.9583	-4.6542	-4.5062	-4.7521	-4.4563	149.066	251.851	247.878	288.442	-5.207	32.157	244.790	-24.472	295.493	303.527	-30.753	89.095	134.433	267.098	83.064	217.379	0.0006173	0.00089369	0.00022405	944.4	5.0135e-06	5.6566e-06	1188.6	387.6	6.6273e-06	7.956e-06	553.89	222.9	150.44	66.619	5.3981e-06	104.69	0.00022697	0.00018329	5.0147e-05	879.55	2.0007e-06	1.9817e-06	1107.8	361.09	2.0684e-06	1.9209e-06	515.02	206.7	139.83	62.265	2.0299e-06	97.406	91.519	36.790	39.930	-23.846	91.447	108.094	-24.781	-18.672	162.683	107.201	-20.217	-15.960	-14.158	-9.452	97.505	-11.588	-8191	255	
8677.330	1	1	0	0	0.074903	0.050242	0.13413	0.18002	0.14302	0.10634	0.11528	0.021571	0.11772	0.13451	0.068672	0.18425	0.10767	0.18345	0.17371	0.10926	-4.1417	-4.625	-4.1146	-4.8146	-4.5958	-4.4062	-5	-4.4396	-4.5813	-4.7063	-4.375	-4.8417	-4.5833	-4.225	-4.5521	-4.45	89.233	119.097	14.686	259.922	165.479	-29.028	58.025	202.596	45.799	102.849	124.528	31.987	266.054	-32.865	268.884	1.883	0.0005316	0.0012146	0.0001749	943.15	7.7565e-06	6.6412e-06	1188.8	386.48	6.1122e-06	9.7816e-06	554.19	221.24	150.85	67.017	7.2029e-06	104.67	0.00022468	0.00018408	5.0924e-05	877.79	2.0026e-06	1.9879e-06	1103.9	360.53	2.039e-06	1.8966e-06	514.55	206.04	139.81	62.441	2.1029e-06	97.426	91.246	56.379	46.988	-23.846	85.393	106.780	-24.638	-18.549	130.194	109.812	-20.253	-15.789	-14.183	-9.440	131.868	-11.548	-8191	255	
8677.426	1	1	0	0	0.26955	0.22966	0.011486	0.16816	0.14961	0.22996	0.15673	0.30105	0.17044	0.099474	0.24366	0.18376	0.061461	0.21846	0.20135	0.14384	-4.1958	-4.7167	-4.2042	-4.7729	-4.5917	-4.1875	-4.8812	-4.6312	-4.2896	-4.7792	-4.3333	-4.7667	-4.8146	-4.3104	-4.7708	-4.5729	269.257	207.841	287.861	281.717	14.069	96.963	239.617	209.862	-30.413	301.985	269.777	274.133	59.317	249.424	80.006	311.492	0.00059401	0.00065567	0.00024809	942.04	7.136e-06	5.32e-06	1181.9	386.55	5.3928e-06	9.765e-06	554.23	221.24	150.69	66.988	4.148e-06	103.99	0.0002285	0.00018068	4.9843e-05	874.98	2.0017e-06	2.0002e-06	1103.1	360.1	2.045e-06	1.998e-06	513.8	206.07	139.66	62.442	2.0484e-06	97.474	90.210	52.021	56.649	-23.623	98.284	113.056	-24.790	-18.764	73.881	101.208	-20.072	-16.073	-13.961	-9.309	125.931	-11.587	-8191	255	
8677.522	1	1	0	0	0.28888	0.12843	0.19197	0.21326	0.13708	0.095832	0.18282	0.067548	0.094716	0.12734	0.31417	0.1757	0.23356	0.21746	0.1714	0.16964	-3.9083	-4.7646	-4.0458	-4.7896	-4.5437	-4.2229	-4.9104	-4.7188	-4.2896	-4.9563	-4.3875	-4.5604	-4.8229	-4.2333	-4.7625	-4.7917	291.392	102.240	218.803	-32.406	59.096	285.234	280.317	0.537	144.239	110.877	280.812	290.253	14.458	274.762	301.119	268.041	0.00059267	0.00073483	0.00018917	941.78	4.8426e-06	6.3487e-06	1184.2	387.23	5.829e-06	4.0524e-06	551.85	222.98	150.24	66.813	4.0563e-06	105.32	0.00022571	0.00018395	5.0792e-05	874.85	2.0382e-06	1.9984e-06	1102.4	360.35	2.0426e-06	1.9663e-06	513.4	207.02	139.75	62.531	2.0846e-06	98.092	93.638	38.246	43.513	-23.785	87.059	66.084	-24.616	-18.550	63.280	103.164	-20.136	-15.685	-14.348	-9.416	124.627	-11.751	-8191	255	
8677.618	1	1	0	0	0.056647	0.11117	0.11732	0.31492	0.23217	0.053974	0.29137	0.26044	0.070011	0.058707	0.19307	0.056243	0.11234	0.26662	0.14982	0.13378	-4.0042	-4.7937	-4.3125	-4.7104	-4.8604	-4.0875	-4.7438	-4.7167	-4.3896	-4.9187	-4.3271	-4.4646	-4.8125	-4.4604	-4.6417	-4.9313	291.563	238.965	231.091	279.541	308.424	142.716	247.549	183.969	105.157	265.148	315.714	206.415	156.512	278.163	157.738	226.335	0.000591	0.00087064	0.00028083	946.38	4.5894e-06	6.1924e-06	1192.8	388.3	3.56e-06	6.8156e-06	553.42	223.82	152.11	67.63	4.4726e-06	105.94	0.00022761	0.00018574	5.0723e-05	878.85	2.0462e-06	1.9967e-06	1108.5	362.02	2.0226e-06	1.9629e-06	516.03	208.29	141	63.15	2.0807e-06	98.732	97.298	57.239	54.305	-23.530	119.370	96.118	-24.967	-18.430	120.402	123.766	-20.337	-15.938	-14.137	-9.492	90.423	-11.620	-8191	255	
8677.739	1	1	0	0	0.19181	0.065788	0.16136	0.19724	0.051209	0.26338	0.15989	0.21393	0.11065	0.19029	0.31118	0.48524	0.20077	0.27192	0.14727	0.31366	-3.7562	-4.7333	-4.2083	-4.3708	-4.8	-4.0958	-4.6312	-4.7333	-4.1958	-4.7125	-4.6604	-4.4333	-4.9667	-4.4688	-4.6083	-4.8375	100.931	291.330	98.933	267.116	-15.716	93.452	286.567	272.506	15.692	102.647	-25.690	312.393	101.239	-22.453	125.070	236.769	0.00058251	0.00044404	0.00018238	952.55	4.9668e-06	9.5642e-06	1188.9	388.81	7.0741e-06	4.7572e-06	558.52	224.2	152.05	67.958	4.6724e-06	105.87	0.0002316	0.0001912	5.1173e-05	884.88	2.0097e-06	2.0401e-06	1109.5	362.91	2.0916e-06	2.0247e-06	517.73	208.75	141.47	63.492	2.0973e-06	98.595	93.639	93.256	49.839	-23.809	111.301	84.670	-24.399	-18.467	112.228	119.136	-20.159	-16.066	-14.125	-9.400	91.369	-11.520	-8191	255	
8677.835	1	1	0	0	0.16604	0.16273	0.15598	0.42497	0.053822	0.28648	0.32828	0.037108	0.15271	0.016926	0.22007	0.2094	0.12363	0.22816	0.082803	0.28064	-3.8812	-4.7917	-4.3604	-4.6042	-4.8417	-4.1958	-4.7354	-4.8646	-4.2479	-4.7792	-4.6062	-4.3812	-5.0646	-4.3042	-4.3583	-4.9688	35.967	294.841	291.486	295.981	214.725	216.848	256.143	264.632	60.093	190.706	-21.177	282.208	-27.776	297.917	188.051	255.945	0.00055212	0.000613	0.00025592	948.39	4.0375e-06	4.0736e-06	1185.3	389.3	7.2408e-06	2.1572e-06	552.08	223.65	151.34	67.736	8.7387e-06	105.89	0.00022958	0.00019199	5.0392e-05	881.49	2.0151e-06	1.9869e-06	1103.8	363.38	2.0584e-06	1.9843e-06	514.98	207.7	140.59	63.234	2.0783e-06	98.249	96.112	43.445	33.308	-23.792	113.285	62.684	-24.732	-18.534	104.825	79.620	-20.060	-15.749	-14.196	-9.354	125.583	-11.668	-8191	255	
8677.931	1	1	0	0	0.20978	0.26775	0.11775	0.19629	0.2659	0.03565	0.26081	0.22715	0.030034	0.16795	0.031826	0.10476	0.19458	0.17843	0.094462	0.18014	-3.9313	-4.7312	-4.5229	-4.1917	-4.8417	-4.2833	-4.4708	-4.8187	-4.15	-4.5104	-4.8438	-4.2479	-4.7167	-4.5125	-4.375	-4.8896	316.956	91.567	-28.152	278.449	7.113	207.639	155.351	301.307	30.071	205.924	306.570	274.226	271.336	-25.609	42.114	243.918	0.00061283	0.00098083	0.00020164	947.88	4.1991e-06	6.24e-06	1189.4	388.05	2.9735e-06	3.1128e-06	551.49	222.91	150.66	67.206	7.2681e-06	105.18	0.00022473	0.00018727	4.9224e-05	878.9	2.0161e-06	2.0136e-06	1103.8	361.6	2.0737e-06	1.9865e-06	513.62	207.07	140.26	62.934	2.0348e-06	97.888	100.640	46.073	53.479	-23.860	91.560	81.794	-24.535	-18.279	119.312	51.968	-20.184	-15.945	-14.152	-9.306	132.935	-11.624	-8191	255	
8678.027	1	1	0	0	0.047902	0.082047	0.0097388	0.015027	0.21479	0.10903	0.25167	0.17593	0.090782	0.06805	0.054721	0.25031	0.23323	0.14518	0.24782	0.11269	-3.7771	-4.4646	-4.6125	-4.3417	-4.6625	-4.4354	-4.4542	-5.0146	-4.1937	-4.3979	-4.8271	-4.2042	-4.8083	-4.5771	-4.0437	-5.0708	48.783	83.303	227.081	306.325	44.161	62.575	230.957	254.071	209.252	304.533	59.023	318.082	-13.195	321.502	211.740	264.014	0.00053749	0.00051837	0.00022562	947.66	3.8705e-06	3.4309e-06	1185.1	387.18	6.8654e-06	9.4923e-06	552.75	221.76	151.91	67.574	5.9989e-06	105.75	0.00022875	0.00018484	5.0246e-05	879.17	2.0427e-06	1.9418e-06	1102.7	360.22	2.0254e-06	1.9913e-06	513.53	206.78	140.31	62.856	1.9871e-06	98.211	93.491	74.877	68.196	-23.806	115.467	134.886	-24.471	-18.691	96.864	93.793	-20.196	-15.823	-14.281	-9.296	113.776	-11.750	-8191	255	
8678.122	1	1	0	0	0.15655	0.062453	0.15692	0.34731	0.21418	0.055615	0.12693	0.4922	0.53007	0.15849	0.25435	0.30398	0.28528	0.12073	0.062014	0.2874	-3.9542	-4.2667	-4.5833	-4.2167	-4.5979	-4.5375	-4.6188	-4.8854	-4.3042	-4.3875	-4.8042	-4.1625	-4.7354	-4.8375	-4.1687	-4.8521	111.043	163.250	14.100	309.828	-35.833	135.508	231.139	279.800	292.577	200.433	-4.805	280.967	271.086	293.637	254.908	243.066	0.00051952	0.00090387	0.00019761	942.25	3.2293e-06	5.7502e-06	1188.1	388	3.9022e-06	6.5864e-06	556.26	223.56	151.31	67.975	5.4956e-06	106.62	0.0002282	0.00018459	5.0914e-05	877.6	2.0561e-06	1.9439e-06	1106.7	361.98	2.044e-06	2.0512e-06	516.79	208.12	140.84	63.539	2.068e-06	99.423	91.046	80.913	77.023	-23.657	108.339	127.835	-24.780	-18.571	84.998	114.520	-20.142	-15.828	-14.250	-9.373	138.379	-11.646	-8191	255	
8678.218	1	1	0	0	0.074376	0.12115	0.11527	0.28763	0.073676	0.18455	0.26552	0.091455	0.22446	0.12389	0.10717	0.11513	0.19332	0.20328	0.06308	0.16479	-4.0104	-4.4021	-4.7937	-4.2104	-4.3833	-4.5813	-4.3375	-4.85	-4.3688	-4.3938	-5.0375	-4.4104	-4.6542	-4.8021	-4.0437	-4.8667	35.257	105.086	114.022	-24.709	66.529	87.059	291.619	232.961	9.451	-1.668	186.682	270.766	178.824	207.019	307.254	242.992	0.00060255	0.00048112	0.00025766	949.62	6.9385e-06	6.5466e-06	1189.2	391.07	4.4711e-06	4.9924e-06	558.65	224.98	152.43	68.159	8.2149e-06	106.95	0.00022519	0.00018646	5.0943e-05	882.71	2.0728e-06	2.0016e-06	1110.5	364.2	2.0359e-06	2.0127e-06	519.08	209.55	141.95	63.879	2.048e-06	99.431	89.573	40.987	57.968	-24.001	116.455	91.648	-24.385	-18.481	82.388	95.555	-19.968	-15.787	-14.003	-9.250	94.280	-11.634	-8191	255	
8678.338	1	1	0	0	0.12542	0.0862	0.11565	0.08711	0.28963	0.065986	0.079699	0.17196	0.14864	0.090161	0.35849	0.15471	0.24829	0.16519	0.012588	0.37645	-4.1708	-4.1229	-4.775	-4.2292	-4.4771	-4.75	-4.2792	-4.8979	-4.4958	-4.1292	-4.8417	-4.3104	-4.4229	-4.85	-4.25	-4.8187	295.843	83.287	174.451	300.677	-11.459	70.186	172.817	275.754	-15.448	311.572	251.599	316.394	254.436	12.863	120.103	241.313	0.00062643	0.00063242	0.00015179	948.45	6.5226e-06	3.0076e-06	1187.7	389.3	5.0685e-06	9.6717e-06	554.43	223.57	151.93	67.982	3.9722e-06	106.4	0.00023215	0.00018526	5.0812e-05	884.15	2.0749e-06	1.9451e-06	1104.6	363.41	2.0633e-06	1.9957e-06	516.21	208.27	141.57	63.649	2.0262e-06	98.704	95.524	51.157	57.507	-23.879	113.754	146.416	-24.790	-18.695	106.306	97.688	-20.199	-16.047	-14.071	-9.229	92.969	-11.618	-8191	255	
8678.435	1	1	0	0	0.14718	0.1529	0.12831	0.090659	0.20371	0.12387	0.17958	0.32559	0.036397	0.13201	0.18778	0.1476	0.059479	0.094364	0.16976	0.10909	-4.1125	-4.3438	-4.7375	-4.3021	-4.4354	-4.6667	-4.4563	-4.7208	-4.5875	-4.2354	-4.9521	-4.4542	-4.5083	-5	-4.2458	-4.7375	227.751	222.525	96.849	5.839	305.584	77.485	273.570	-32.190	54.339	16.198	288.294	-24.459	-5.875	303.630	63.178	268.253	0.00055284	0.0010018	0.00022045	946.97	4.7808e-06	6.5649e-06	1185.7	391.38	5.9875e-06	3.286e-06	555.01	222.34	152.31	67.789	6.1844e-06	106.33	0.00022934	0.00018136	5.1666e-05	879.64	2.0473e-06	1.9578e-06	1102.6	363.19	2.0704e-06	1.9649e-06	515.45	207.57	141.07	63.356	2.0248e-06	98.734	82.958	40.543	65.596	-23.541	125.959	108.734	-24.709	-18.764	79.065	100.428	-20.374	-15.906	-13.922	-9.096	115.040	-11.656	-8191	255	
8678.531	1	1	0	0	0.038169	0.11112	0.15696	0.36505	0.079471	0.12161	0.15408	0.13965	0.080589	0.17245	0.24388	0.26284	0.10361	0.29189	0.22729	0.228	-4.2875	-4.1729	-4.5167	-4.3688	-4.2	-4.7354	-4.4646	-4.5917	-4.6729	-4.0729	-4.8688	-4.7271	-4.4	-4.8771	-4.15	-4.7896	140.254	161.491	309.897	312.283	68.196	41.307	258.059	242.269	260.754	186.802	302.560	266.048	116.482	309.571	95.024	319.093	0.00056273	0.00037511	0.00025063	939.43	5.8455e-06	5.5252e-06	1188.3	388.6	6.9298e-06	8.1145e-06	552.18	222.52	152.11	67.425	2.4139e-06	106.04	0.00022426	0.00018222	5.166e-05	875.99	2.0321e-06	1.9955e-06	1104.6	362.02	2.0335e-06	1.9983e-06	514.65	207.27	140.69	63.093	2.0373e-06	98.704	92.239	85.112	50.653	-23.488	112.304	93.918	-24.806	-18.771	87.651	98.826	-20.157	-15.947	-14.192	-9.039	120.479	-11.515	-8191	255	
8678.602	1	1	0	0	0.093268	0.21259	0.045155	0.18976	0.076474	0.22247	0.091334	0.1749	0.11457	0.10407	0.19911	0.14842	0.086473	0.15264	0.091194	0.31267	-4.3771	-4.0479	-4.5979	-4.6188	-4.3729	-4.825	-4.5188	-4.4021	-4.75	-4.175	-4.7479	-4.65	-4.2792	-4.8875	-4.4104	-4.5312	253.712	152.210	255.132	-26.309	249.303	174.309	294.436	292.525	17.434	170.930	307.097	296.976	72.827	10.410	281.130	182.955	0.00058421	0.0004091	0.00018594	949.46	3.2e-06	8.3065e-06	1193.9	388.1	1.0442e-05	5.4975e-06	557.05	223.93	152.16	68.339	3.5471e-06	107.27	0.00022284	0.00018498	5.0282e-05	880.08	2.0091e-06	1.9351e-06	1106.7	361.8	2.0002e-06	1.9456e-06	516.95	208.32	141.19	63.838	2.061e-06	99.705	94.891	56.263	47.489	-23.966	99.611	106.751	-24.646	-18.473	134.209	102.835	-19.895	-15.836	-14.171	-8.951	154.774	-11.391	-8191	255	
8678.699	1	1	0	0	0.071781	0.097175	0.12197	0.11091	0.16877	0.068303	0.1852	0.36615	0.22942	0.37756	0.17844	0.27016	0.20608	0.27876	0.19269	0.21487	-4.4604	-4.1813	-4.5979	-4.6854	-4.0771	-4.8333	-4.6021	-4.4333	-4.9396	-4.1542	-4.6917	-4.7958	-4.1604	-4.8792	-4.3396	-4.3313	22.545	187.255	60.055	-22.899	117.322	199.557	198.127	263.641	174.227	170.105	257.703	293.856	206.516	261.810	0.051	296.493	0.00054981	0.0010516	0.0001404	948.69	6.772e-06	8.4146e-06	1189.9	391.38	1.0093e-05	7.8107e-06	560.55	225.58	153	68.719	8.3171e-06	107.61	0.00022649	0.00018193	5.2398e-05	882.93	2.0088e-06	2.0461e-06	1107.8	364.23	2.0797e-06	1.9942e-06	518.64	209.5	142.17	64.352	2.0813e-06	100.2	92.932	51.744	70.993	-23.604	65.958	135.795	-24.713	-18.528	98.152	91.907	-20.036	-15.705	-14.165	-9.255	107.840	-11.445	-8191	255	
8678.819	1	1	0	0	0.18724	0.030945	0.14844	0.31239	0.065364	0.09193	0.15389	0.10283	0.073848	0.121	0.14398	0.016516	0.15969	0.18749	0.24151	0.12326	-4.5042	-4.0292	-4.5563	-4.6125	-4.1208	-4.6875	-4.6458	-4.3313	-4.7771	-4.3021	-4.6687	-4.8688	-4.0896	-5.025	-4.5396	-4.6	235.234	274.194	235.991	-21.701	94.071	20.835	305.080	323.115	215.356	212.504	286.008	194.287	25.063	276.181	-0.217	245.309	0.00056257	0.00053684	0.00021893	943.48	7.4432e-06	4.5938e-06	1190	389.6	7.3362e-06	9.5162e-06	559.03	224.1	152.51	68.726	6.3561e-06	106.68	0.00022958	0.00018507	5.1781e-05	880.37	2.0335e-06	2.0529e-06	1107.1	363.29	2.0139e-06	1.9912e-06	516.69	209.06	141.87	64.38	2.0332e-06	99.67	95.541	51.460	58.705	-23.619	116.190	91.815	-24.674	-18.365	96.210	117.928	-20.134	-16.074	-13.952	-9.314	109.029	-11.590	-8191	255	
8678.915	1	1	0	0	0.12959	0.090952	0.17479	0.24651	0.13507	0.04173	0.28428	0.167	0.047293	0.14108	0.2212	0.1561	0.15183	0.28866	0.055842	0.22711	-4.4958	-4.2542	-4.5292	-4.7354	-3.9667	-4.5813	-4.7396	-4.375	-4.8063	-4.375	-4.5146	-4.9563	-4.2917	-4.6604	-4.7063	-4.4104	211.581	114.877	181.642	239.341	178.798	314.328	283.815	322.946	75.278	186.178	12.060	260.490	304.712	287.170	80.914	279.637	0.00058502	0.00059785	0.00016704	946.1	3.9449e-06	9.6097e-06	1184.4	390.01	7.5989e-06	6.2599e-06	555.46	223.63	152	68.453	4.793e-06	106.61	0.000226	0.00018715	5.0902e-05	880.51	2.0454e-06	2.0274e-06	1103.3	363.13	2.0314e-06	1.9733e-06	516.21	208.06	141.14	63.897	1.9792e-06	99.243	92.209	63.370	69.493	-23.605	93.028	119.747	-24.565	-18.669	104.218	138.096	-20.231	-15.792	-13.730	-8.999	87.751	-11.475	-8191	255	
8679.011	1	1	0	0	0.037329	0.066419	0.31099	0.1413	0.0793	0.14931	0.25138	0.17252	0.2724	0.21403	0.1838	0.16541	0.20727	0.052023	0.35289	0.20792	-4.35	-4.3354	-4.3417	-4.9229	-4.1583	-4.4563	-4.8938	-4.1875	-4.7792	-4.5375	-4.4417	-4.9417	-4.3083	-4.8229	-4.725	-4.2646	127.346	145.751	268.784	291.472	41.910	119.653	298.079	225.598	9.013	40.800	284.574	291.676	233.970	253.865	101.377	282.221	0.00060035	0.00035012	0.00018466	943.94	2.9508e-06	2.4577e-06	1183.9	390.2	8.0331e-06	5.6862e-06	556.2	223.42	151.13	68.154	3.6355e-06	106.27	0.0002297	0.0001824	5.1259e-05	879.01	2.0212e-06	1.9999e-06	1104.3	362.52	2.0336e-06	1.932e-06	515.16	207.97	140.68	63.7	2.0499e-06	98.965	89.234	40.149	66.146	-23.611	124.936	164.706	-24.710	-18.547	97.979	149.188	-20.348	-15.698	-14.089	-9.236	77.426	-11.555	-8191	255	
8679.130	1	1	0	0	0.17257	0.14136	0.02992	0.15132	0.16557	0.12602	0.11418	0.13546	0.050452	0.19525	0.22967	0.051036	0.16377	0.11312	0.22542	0.29579	-4.4146	-4.5417	-4.2208	-5.0583	-4.1833	-4.6667	-4.9792	-4.2146	-4.5083	-4.5208	-4.4354	-4.95	-4.1813	-4.525	-4.7021	-4.3688	180.758	285.018	152.572	276.001	7.112	79.991	223.694	303.428	178.641	216.845	19.172	15.230	41.559	-25.251	203.319	280.759	0.00056422	0.00078819	0.000215	945.06	7.0749e-06	6.6542e-06	1189.8	389.64	7.8215e-06	6.228e-06	555.93	223.91	152.31	68.028	5.5726e-06	106.68	0.00022395	0.00018324	5.1007e-05	879.21	2.0072e-06	2.0104e-06	1105.1	362.74	2.1315e-06	1.994e-06	515.61	208.65	141.36	63.714	2.099e-06	99.587	98.594	51.534	41.661	-23.845	95.351	112.804	-24.703	-18.843	73.513	127.616	-20.214	-15.904	-14.055	-9.093	122.557	-11.575	-8191	255	
8679.202	1	1	0	0	0.14057	0.20919	0.12167	0.38699	0.18314	0.28523	0.18113	0.27372	0.10291	0.057087	0.12719	0.19942	0.22264	0.16575	0.15228	0.24	-4.2833	-4.5833	-4.1833	-4.8375	-4.35	-4.3729	-4.7979	-4.4708	-4.3771	-4.6312	-4.3458	-4.8438	-4.6083	-4.5938	-4.6646	-4.2604	236.911	267.740	173.869	275.086	48.181	267.409	213.898	316.709	222.512	218.300	-35.669	301.107	280.441	5.971	156.724	299.029	0.00062315	0.0004979	0.00033144	946.87	4.5969e-06	5.0135e-06	1195.6	391.64	3.3206e-06	5.693e-06	559.8	226.08	153.85	69.319	5.7887e-06	107.73	0.00023376	0.0001829	5.1058e-05	882.17	2.0093e-06	1.9636e-06	1111.4	364.68	2.0685e-06	1.9835e-06	519.73	210.25	142.43	64.44	2.0678e-06	100.19	89.443	56.395	53.265	-23.754	148.291	130.467	-24.657	-18.439	85.471	112.716	-20.017	-15.688	-14.096	-9.203	118.708	-11.445	-8191	255	
8679.300	1	1	0	0	0.14445	0.18537	0.24178	0.36667	0.067478	0.14355	0.10708	0.27708	0.053388	0.1339	0.24001	0.068692	0.17263	0.22319	0.13383	0.28062	-4.1062	-4.6104	-4.2688	-4.8208	-4.4146	-4.2396	-4.8083	-4.4542	-4.5021	-4.8271	-4.2521	-4.9146	-4.5167	-4.3417	-4.8729	-4.4792	39.854	189.016	-14.309	235.813	269.034	71.803	256.801	229.745	149.308	-22.124	319.681	215.440	157.820	311.215	76.621	269.700	0.00061117	0.0012269	5.3495e-05	951.22	6.4289e-06	6.7899e-06	1192.7	392.4	5.035e-06	5.9681e-06	557.59	224.69	153.65	68.934	6.1995e-06	107.04	0.00023462	0.00018605	5.12e-05	884.63	1.9843e-06	2.0226e-06	1109.8	365.23	2.1215e-06	1.9556e-06	518.82	209.64	142.52	64.47	2.1032e-06	99.831	95.916	62.922	98.514	-23.887	106.632	104.830	-24.768	-18.510	79.887	103.670	-20.073	-15.964	-13.998	-9.321	112.133	-11.590	-8191	255	
8679.419	1	1	0	0	0.23023	0.16289	0.12568	0.21407	0.079205	0.17221	0.13516	0.33705	0.072615	0.17627	0.16277	0.081701	0.098134	0.24747	0.15839	0.17812	-4.1792	-4.65	-4.1604	-4.7583	-4.4542	-4.3354	-4.9854	-4.5229	-4.5729	-4.8583	-4.1521	-4.6729	-4.7271	-4.3979	-4.7604	-4.4313	223.221	3.354	120.969	2.649	153.501	230.828	260.572	277.004	300.357	305.314	298.009	81.086	136.805	252.981	117.640	289.619	0.00060847	0.00087835	0.00024379	944.45	8.8014e-06	3.9435e-06	1192.7	390.02	8.5629e-06	1.054e-05	557.51	224.77	152.17	68.422	4.4979e-06	106.68	0.00022707	0.00018543	4.9311e-05	880.58	1.9885e-06	1.9501e-06	1106.8	363.91	2.0739e-06	1.9986e-06	516.27	208.78	141.64	64.04	2.0104e-06	99.317	89.611	71.445	61.530	-23.633	88.474	110.202	-24.574	-18.421	108.839	116.239	-19.959	-15.685	-14.052	-9.122	112.639	-11.512	-8191	255	
8679.515	1	1	0	0	0.087236	0.080431	0.1367	0.18236	0.089355	0.26407	0.16726	0.19108	0.15634	0.061636	0.18078	0.26164	0.071342	0.086434	0.069119	0.24517	-4.1292	-4.7854	-4.0625	-4.7292	-4.5958	-4.0542	-4.975	-4.5687	-4.4354	-4.7188	-4.3833	-4.5792	-4.6687	-4.2438	-4.6875	-4.4208	115.027	180.578	72.140	221.591	14.403	37.538	1.032	260.965	282.857	81.514	314.872	279.040	174.794	294.924	236.211	218.266	0.00057899	0.00058991	0.00026243	950.8	4.2484e-06	7.0253e-06	1185.7	388.97	1.8879e-06	8.55e-06	555.35	223.87	152.22	68.146	5.2681e-06	106.65	0.00022684	0.00018403	5.044e-05	881.24	2.0599e-06	1.9297e-06	1103.5	362.47	2.0417e-06	1.9584e-06	514.67	208.13	140.96	63.62	2.0527e-06	99.037	96.081	47.811	73.219	-23.521	112.772	99.282	-24.537	-18.597	137.895	106.513	-20.326	-15.992	-13.989	-9.361	110.355	-11.624	-8191	255	
8679.611	1	1	0	0	0.085973	0.21957	0.074881	0.033709	0.091703	0.11717	0.20993	0.23418	0.077081	0.20614	0.17867	0.10003	0.25582	0.25992	0.17288	0.23768	-3.9188	-4.7833	-4.1208	-4.6542	-4.7188	-4.1312	-4.8812	-4.6375	-4.2583	-4.7063	-4.5771	-4.5979	-4.8271	-4.2562	-4.6604	-4.6438	263.382	146.043	241.469	292.415	-17.033	37.295	289.871	263.078	111.667	293.206	9.782	17.532	-12.169	305.442	41.391	270.812	0.00060791	0.00088121	0.00028838	942.72	4.3408e-06	8.2442e-06	1191.3	387.49	7.8881e-06	7.1081e-06	556.38	223.29	151.75	68.124	3.8912e-06	106.83	0.0002254	0.00017899	5.0583e-05	877.51	1.9922e-06	1.965e-06	1105.7	361.11	2.0142e-06	1.938e-06	515.36	208.43	140.62	63.714	2.0321e-06	99.263	95.459	40.740	63.112	-23.820	102.337	124.627	-24.481	-18.540	101.755	113.296	-20.062	-16.026	-13.965	-9.097	98.903	-11.425	-8191	255	
8679.732	1	1	0	0	0.14997	0.19604	0.13175	0.19726	0.21818	0.16688	0.081153	0.070222	0.086047	0.046701	0.12618	0.20368	0.12786	0.38142	0.085326	0.1458	-3.8542	-4.7937	-4.3667	-4.5792	-4.7937	-4.0333	-4.8375	-4.7063	-4.2396	-4.8354	-4.5583	-4.5813	-4.925	-4.4187	-4.6104	-4.8646	38.970	-12.356	122.918	251.470	189.200	69.813	228.114	252.611	-15.075	304.182	149.445	279.539	303.304	-2.726	-29.902	281.315	0.00052223	0.00063029	0.00022666	942.33	4.3235e-06	8.3929e-06	1188.6	388.26	8.0302e-06	1.0728e-05	554.55	224.25	151.95	68.434	6.1957e-06	107.6	0.00022371	0.00017755	5.1058e-05	876.09	2.0088e-06	1.9215e-06	1108.1	361.46	2.0762e-06	1.9815e-06	516.86	209.06	140.99	63.866	2.0629e-06	99.898	92.667	46.054	58.150	-23.635	72.279	97.409	-24.568	-18.499	72.453	96.871	-19.996	-15.926	-14.301	-9.147	100.865	-11.580	-8191	255	
8679.803	1	1	0	0	0.33016	0.070687	0.059038	0.14154	0.11541	0.14127	0.016303	0.11718	0.09343	0.13758	0.20805	0.091874	0.14588	0.26608	0.076513	0.24219	-3.8458	-4.6354	-4.3979	-4.55	-4.7521	-4.3542	-4.8792	-4.7188	-4.05	-4.6333	-4.45	-4.4896	-4.9396	-4.2521	-4.4917	-4.8167	171.688	37.976	21.153	-33.653	38.542	240.556	165.331	298.754	15.569	121.572	296.144	-28.899	268.477	-12.912	290.879	239.822	0.00061511	0.001101	0.00027114	945.32	5.9513e-06	4.9646e-06	1189	388.25	6.452e-06	6.7976e-06	556.22	222.47	150.96	68.26	6.6212e-06	106.53	0.0002246	0.00018063	4.9442e-05	876.13	2.0043e-06	1.9443e-06	1106	361.22	2.0008e-06	1.9303e-06	516.12	207.97	140.43	63.601	2.046e-06	99.056	98.743	57.003	62.610	-23.764	85.615	102.279	-24.636	-18.761	118.172	109.359	-20.265	-15.920	-14.087	-9.369	122.458	-11.408	-8191	255	
8679.900	1	1	0	0	0.33243	0.080654	0.11542	0.25139	0.32871	0.16783	0.17334	0.16576	0.33302	0.088255	0.17286	0.037978	0.13488	0.040996	0.1683	0.27238	-3.8187	-4.6854	-4.5271	-4.2333	-4.7812	-4.3833	-4.6729	-4.8938	-4.1417	-4.6167	-4.4833	-4.2375	-4.7646	-4.5229	-4.4229	-4.9437	240.739	92.946	-17.202	300.048	229.605	9.477	273.117	217.310	185.690	-1.117	258.546	307.943	211.335	-26.353	231.780	309.728	0.00058721	0.00060247	0.0002246	937.87	6.4938e-06	7.5938e-06	1176.1	385.45	8.687e-06	5.7779e-06	551.66	222.02	150.59	67.358	9.1489e-06	105.59	0.00022309	0.00017889	4.9477e-05	873.69	2.0076e-06	1.9185e-06	1098.8	359.23	2.0007e-06	1.9612e-06	511.4	206.43	139.6	62.904	2.0137e-06	98.288	102.034	54.023	74.451	-23.624	125.228	104.762	-24.542	-18.611	117.988	118.385	-20.134	-15.723	-13.805	-9.323	97.905	-11.586	-8191	255	
8679.996	1	1	0	0	0.064859	0.077383	0.13213	0.064266	0.23167	0.14605	0.16193	0.34386	0.12086	0.21467	0.25039	0.22583	0.16738	0.15015	0.034057	0.16834	-3.6937	-4.7229	-4.6125	-4.3042	-4.9292	-4.3167	-4.5604	-5.0521	-4.3771	-4.7042	-4.6813	-4.4146	-4.9146	-4.6229	-4.2375	-5.1271	-23.478	77.610	293.204	251.219	293.711	211.854	250.711	228.479	155.582	185.596	304.330	254.616	289.752	-3.126	214.514	291.350	0.00060603	0.00060772	0.00017827	937.85	5.8532e-06	7.3524e-06	1181	385.44	6.4607e-06	6.1786e-06	549.36	223.04	149.11	66.851	7.9559e-06	105.49	0.00022072	0.00018434	5.0571e-05	872.45	1.995e-06	1.9691e-06	1098.5	358.6	1.9825e-06	1.9692e-06	510.7	206.48	138.66	62.685	2.0058e-06	98.219	101.277	16.353	73.497	-23.723	103.796	101.094	-24.579	-18.568	118.649	112.850	-19.997	-15.603	-13.908	-9.262	106.157	-11.730	-8191	255	
8680.115	1	1	0	0	0.27718	0.19676	0.16965	0.084419	0.23892	0.18776	0.20921	0.091674	0.11039	0.15803	0.065734	0.23624	0.081569	0.16514	0.29082	0.15708	-3.7958	-4.4521	-4.5292	-4.2937	-4.7396	-4.475	-4.4437	-4.9792	-4.4729	-4.7292	-4.8542	-4.1771	-4.7583	-4.7396	-4.4646	-4.9187	285.767	165.467	268.324	254.651	172.302	168.367	-25.060	246.849	73.975	-16.369	292.843	262.121	323.315	294.389	297.152	226.162	0.00054866	0.00068472	0.0001908	937.5	5.7662e-06	3.1202e-06	1185.9	385.84	3.0838e-06	9.1148e-06	551.95	221.39	149.79	67.455	5.9325e-06	105.51	0.00022048	0.0001791	4.9593e-05	871.02	1.9601e-06	1.9783e-06	1099.9	358.99	2.0035e-06	1.936e-06	512.33	206.31	138.89	62.8	1.9621e-06	98.284	88.645	73.070	57.646	-23.578	135.721	118.659	-24.581	-18.522	124.925	130.355	-20.167	-15.783	-14.045	-9.303	105.611	-11.588	-8191	255	
8680.211	1	1	0	0	0.14683	0.089523	0.0025592	0.080722	0.069872	0.052661	0.13054	0.30901	0.11367	0.24827	0.25154	0.021212	0.029399	0.20347	0.085428	0.18156	-3.7875	-4.3479	-4.5479	-4.2917	-4.4938	-4.4021	-4.2854	-4.7812	-4.4104	-4.3187	-4.7417	-4.4146	-4.5208	-4.7979	-4.275	-5.0021	56.785	-34.160	172.730	1.580	109.373	258.007	276.954	297.790	-7.416	247.431	236.821	190.592	292.699	236.289	-20.719	211.266	0.00056382	0.00050292	0.0001957	938.81	7.2866e-06	4.3848e-06	1187.6	385.67	7.2253e-06	3.1988e-06	556.98	222.96	150.22	67.416	6.614e-06	106.19	0.00022244	0.00017776	5.0461e-05	873.09	2.0201e-06	1.9019e-06	1103.2	359.64	2.0084e-06	1.9383e-06	515.35	207.02	139.34	63.064	1.9621e-06	98.901	90.956	41.786	47.799	-23.637	127.135	118.883	-24.725	-18.739	135.148	117.024	-20.190	-15.940	-13.901	-9.429	121.872	-11.584	-8191	255	
8680.307	1	1	0	0	0.11451	0.29041	0.093108	0.10439	0.18634	0.27595	0.2707	0.39981	0.097075	0.14478	0.11019	0.24585	0.08604	0.25965	0.16643	0.26692	-4.1396	-4.3354	-4.6813	-4.3229	-4.5125	-4.6271	-4.3229	-4.8354	-4.5021	-4.2208	-4.9896	-4.2833	-4.6312	-4.8375	-4.1792	-4.8271	236.500	226.138	299.925	318.453	178.798	111.336	310.994	295.655	-28.495	225.014	314.796	277.541	313.528	285.426	-24.586	260.896	0.00060384	0.001108	0.00023028	943.8	4.8436e-06	8.1059e-06	1180	388.45	4.5746e-06	7.7841e-06	554.3	223.61	151.42	67.62	7.1949e-06	106.69	0.00022459	0.00017915	5.0013e-05	876.02	2.0406e-06	1.966e-06	1103.4	361.45	1.9931e-06	1.9149e-06	515.06	207.58	140.22	63.322	2.0269e-06	99.031	92.761	58.637	71.741	-23.716	88.239	107.848	-24.641	-18.805	151.300	104.730	-20.191	-15.877	-14.096	-9.116	80.931	-11.695	-8191	255	
8680.403	1	1	0	0	0.3734	0.17201	0.12973	0.12955	0.044852	0.047404	0.1492	0.19491	0.079702	0.17516	0.13681	0.097375	0.15284	0.32298	0.062477	0.19881	-4.2917	-4.1875	-4.8042	-4.5458	-4.4333	-4.5354	-4.5417	-4.8354	-4.4875	-4.1687	-4.9458	-4.3688	-4.4583	-4.725	-4.0938	-4.9229	222.900	298.409	24.180	302.035	139.821	23.372	231.794	298.548	298.299	273.919	263.244	200.769	0.939	313.183	-9.839	226.565	0.00056654	0.00068484	0.0002251	940.07	1.7983e-06	6.3933e-06	1182.1	388.03	6.4497e-06	8.0016e-06	550.88	222.4	150.63	67.813	7.2773e-06	105.86	0.00022362	0.00018187	4.9599e-05	875.19	2.0385e-06	2.0116e-06	1100.8	361.09	1.9925e-06	1.9397e-06	513.07	206.85	139.87	63.292	2.0351e-06	98.439	94.885	60.145	64.559	-23.804	85.804	107.578	-24.557	-18.610	94.312	101.606	-20.245	-15.932	-14.238	-9.459	119.245	-11.488	-8191	255	
8680.497	1	1	0	0	0.20585	0.069401	0.028508	0.28477	0.41011	0.12948	0.21698	0.30511	0.16427	0.10872	0.18074	0.09264	0.1105	0.26859	0.28072	0.28249	-4.1042	-4.1708	-4.8313	-4.4604	-4.3604	-4.9354	-4.2896	-4.8042	-4.5813	-4.1583	-4.925	-4.4563	-4.3042	-4.8938	-4.1625	-4.7271	-28.695	302.226	133.784	10.360	73.448	-24.676	222.567	234.894	-4.821	97.010	22.929	-2.867	189.126	-8.009	65.874	291.591	0.00052374	0.00061455	0.00011836	938.62	4.3089e-06	5.9854e-06	1181.6	386.37	5.0968e-06	5.5012e-06	550.49	221.82	150.27	67.457	6.1432e-06	105.77	0.00022318	0.00017695	4.8827e-05	874.31	1.9965e-06	1.9461e-06	1098.6	360.75	1.9868e-06	1.9481e-06	511.2	206.41	139.49	63.188	1.9818e-06	98.441	92.963	74.071	58.882	-23.620	128.523	107.927	-24.742	-18.556	112.728	112.153	-20.317	-16.047	-14.144	-9.414	123.923	-11.677	-8191	255	
8680.594	1	1	0	0	0.11629	0.022048	0.14763	0.043709	0.19078	0.11764	0.30807	0.23618	0.10442	0.17785	0.19281	0.049159	0.21118	0.17017	0.084356	0.18492	-4.2792	-4.0417	-4.7667	-4.6896	-4.3833	-4.8438	-4.3542	-4.6646	-4.6021	-4.2604	-4.9313	-4.5479	-4.4042	-5.1042	-4.3375	-4.6937	154.974	35.737	81.924	235.217	321.365	310.118	270.792	261.775	-19.780	162.839	248.232	249.896	218.434	320.901	101.564	259.343	0.00058199	0.00071369	0.00028103	938.02	1.5852e-06	8.8845e-06	1182.8	386.48	8.3991e-06	5.8687e-06	550	221.19	149.82	67.749	7.155e-06	106.37	0.00022253	0.00018292	5.0324e-05	872.73	1.9689e-06	1.9624e-06	1098.2	359.76	1.997e-06	1.9559e-06	511.29	206.47	139.28	63.183	2.0231e-06	98.768	87.263	45.774	61.206	-23.648	103.495	107.646	-24.569	-18.467	115.862	145.946	-20.394	-15.828	-13.959	-9.265	126.716	-11.537	-8191	255	
8680.691	1	1	0	0	0.10275	0.059868	0.12563	0.36624	0.073288	0.10139	0.070453	0.38966	0.20069	0.18655	0.12553	0.17608	0.2968	0.18115	0.10706	0.25127	-4.4437	-4.0563	-4.6813	-4.7042	-4.1271	-4.7583	-4.2979	-4.7583	-4.7583	-4.1625	-4.775	-4.7771	-4.1792	-4.875	-4.3771	-4.4854	88.821	29.296	22.574	-2.633	177.035	20.206	240.430	263.428	314.261	-28.083	234.073	-32.572	268.460	300.357	94.266	298.100	0.00053536	0.00088578	0.0002341	942.24	6.5091e-06	6.5291e-06	1177.7	386.83	8.2607e-06	7.3381e-06	555.94	223.89	151.48	68.299	8.7267e-06	107.02	0.0002225	0.00018022	5.0658e-05	874.43	2.0227e-06	1.9747e-06	1100.5	360.87	1.9796e-06	2.0168e-06	515.21	208.29	140.3	63.676	2.0218e-06	99.559	96.247	71.885	74.181	-23.883	125.689	91.938	-24.592	-18.515	117.859	110.226	-20.366	-15.891	-14.295	-9.054	96.154	-11.435	-8191	255	
8680.810	1	1	0	0	0.040714	0.18965	0.20854	0.093274	0.38931	0.19366	0.19565	0.082816	0.14042	0.11545	0.2042	0.25637	0.14108	0.28574	0.066758	0.074254	-4.4563	-4.2479	-4.5229	-4.6271	-4.0708	-4.7688	-4.5208	-4.5521	-4.8396	-4.3958	-4.6354	-4.775	-4.1542	-4.85	-4.5479	-4.4417	90.133	1.675	298.682	316.002	-26.594	289.083	307.259	251.278	11.325	87.966	277.822	244.543	277.135	274.568	-5.531	229.881	0.00060283	0.0006759	0.00019223	942.51	6.1197e-06	5.5048e-06	1188.1	388.58	5.0422e-06	9.6716e-06	556.94	224.17	151.51	68.65	3.6734e-06	107.38	0.00022511	0.00018516	5.0655e-05	877.83	1.9832e-06	1.966e-06	1105.2	361.95	2.0288e-06	1.9836e-06	516.03	208.94	140.89	64.042	2.0067e-06	99.67	88.604	40.160	53.745	-23.658	86.729	104.250	-24.613	-18.517	99.554	117.720	-19.985	-15.796	-14.148	-9.208	91.191	-11.602	-8191	255	
8680.906	1	1	0	0	0.16167	0.18781	0.14189	0.17102	0.14244	0.08388	0.26349	0.23562	0.031494	0.13404	0.18097	0.15176	0.073022	0.19128	0.2064	0.14598	-4.4271	-4.325	-4.5375	-4.6875	-4.2167	-4.7271	-4.5417	-4.2146	-4.7458	-4.3396	-4.5292	-4.9146	-4.3646	-4.6479	-4.5146	-4.4667	-7.258	41.557	-34.365	299.968	117.946	314.574	321.765	36.935	304.452	299.179	244.847	289.272	16.406	308.144	147.503	271.752	0.00066764	0.00081376	6.8576e-05	945.41	7.7707e-06	6.7161e-06	1183.8	389.68	6.2157e-06	7.5612e-06	555.5	224.02	152.03	68.097	5.9915e-06	106.2	0.00022841	0.00018353	5.0377e-05	878.7	1.9794e-06	1.9486e-06	1100.7	362.43	2.0612e-06	2.0686e-06	514.71	207.9	140.8	63.83	1.9856e-06	99.041	98.986	74.887	65.106	-23.541	108.327	90.642	-24.649	-18.446	90.094	107.621	-20.220	-15.703	-14.027	-9.272	65.655	-11.625	-8191	255	
8681.003	1	1	0	0	0.085418	0.18108	0.022632	0.071815	0.11216	0.18144	0.31362	0.17857	0.078494	0.13186	0.12828	0.10905	0.25298	0.32082	0.28196	0.13406	-4.5458	-4.2604	-4.3458	-4.7625	-4.2021	-4.6312	-4.7646	-4.3875	-4.7063	-4.2375	-4.5813	-4.9167	-4.1917	-4.4875	-4.5958	-4.3812	79.533	299.023	297.499	95.733	231.476	3.252	184.545	249.968	90.101	228.447	322.354	264.920	281.018	289.473	-20.173	269.608	0.00063317	0.00059287	0.00013203	941.85	7.2111e-06	5.5007e-06	1179.9	386.28	3.6156e-06	7.6642e-06	552.42	222.34	151.06	67.768	4.777e-06	106.07	0.00023299	0.00018089	5.0747e-05	875.9	1.9685e-06	2.0116e-06	1097.7	360.53	2.0476e-06	1.9445e-06	513.65	206.87	139.96	63.452	2.0631e-06	98.647	91.701	69.788	45.592	-23.602	121.172	102.679	-24.717	-18.667	78.287	135.688	-20.054	-15.839	-13.934	-9.248	123.859	-11.638	-8191	255	
8681.099	1	1	0	0	0.1795	0.1645	0.19803	0.059941	0.16385	0.055432	0.30405	0.18833	0.16662	0.08669	0.031954	0.21804	0.13258	0.19698	0.12513	0.15804	-4.4688	-4.2667	-4.2604	-4.9854	-4.1625	-4.4896	-4.6854	-4.2	-4.7979	-4.3458	-4.4542	-5.1	-4.2896	-4.7396	-4.7625	-4.2167	286.668	305.113	230.913	281.956	241.347	272.539	270.487	277.290	89.348	-2.130	223.852	277.911	31.040	278.744	223.654	246.205	0.00054853	0.00091804	0.00017939	938.73	3.1489e-06	6.4078e-06	1178.3	386.39	7.3368e-06	1.1861e-05	551.46	222.79	150.26	67.511	8.9658e-06	106.57	0.00022801	0.00018117	4.9811e-05	874.54	1.9657e-06	1.9594e-06	1098.3	359.98	2.0415e-06	1.9758e-06	512.29	207.07	139.2	63.229	1.9755e-06	98.932	93.051	43.071	62.333	-23.715	79.053	103.244	-24.439	-18.237	117.916	96.229	-20.032	-15.802	-14.059	-9.158	92.310	-11.762	-8191	255	
8681.195	1	1	0	0	0.06455	0.10396	0.081231	0.1925	0.29867	0.29867	0.208	0.090614	0.10134	0.20409	0.072753	0.17974	0.24402	0.41356	0.071632	0.089553	-4.3708	-4.425	-4.1292	-4.8729	-4.2646	-4.4458	-5.0583	-4.1229	-4.6167	-4.6958	-4.4	-4.9146	-4.2271	-4.3708	-4.7396	-4.2333	8.439	141.873	145.060	144.434	261.984	-5.509	229.765	200.688	312.971	180.288	80.224	13.518	-3.564	310.689	258.531	206.362	0.00051138	0.00093609	0.00025553	937.6	4.6026e-06	5.404e-06	1180.9	386.42	6.7909e-06	6.4549e-06	551.32	223.45	151.28	68.034	7.7292e-06	107.15	0.00022785	0.00018461	4.991e-05	871.31	2.0064e-06	1.9873e-06	1098.1	359.35	2.0608e-06	1.9893e-06	513.28	207.81	140.43	63.663	2.0479e-06	99.644	98.561	38.592	65.996	-23.622	99.573	106.896	-24.653	-18.545	130.033	99.109	-19.936	-15.710	-14.023	-9.241	76.899	-11.587	-8191	255	
8681.291	1	1	0	0	0.17813	0.1493	0.15677	0.24345	0.17036	0.17218	0.2776	0.28843	0.09944	0.11206	0.13489	0.17145	0.21352	0.26295	0.019098	0.13596	-4.2792	-4.5667	-4	-4.8042	-4.3896	-4.4146	-4.8917	-4.2208	-4.5854	-4.6792	-4.2354	-5.0104	-4.5604	-4.1708	-4.8708	-4.3042	234.360	133.249	293.602	220.599	228.413	272.855	260.736	261.151	307.358	19.124	312.110	276.745	291.861	297.094	155.056	212.127	0.00059539	0.00077232	0.0002474	945.37	5.2926e-06	3.8152e-06	1185	387.69	7.0897e-06	7.9415e-06	558.14	223.87	152.44	68.839	8.4028e-06	106.97	0.00023111	0.00018026	5.1018e-05	878.33	2.0135e-06	2.0045e-06	1103.3	361.27	2.0173e-06	1.952e-06	516.92	208.86	141.24	64.332	2.0288e-06	99.797	92.944	67.598	80.270	-23.456	132.656	117.312	-24.432	-18.651	82.475	105.151	-20.010	-15.604	-14.097	-9.426	124.713	-11.332	-8191	255	
8681.412	1	1	0	0	0.1619	0.18497	0.18377	0.17806	0.18798	0.17477	0.11734	0.16701	0.14713	0.080239	0.12866	0.07896	0.17576	0.25738	0.17327	0.24548	-4.2292	-4.6208	-4.0125	-4.7688	-4.2542	-4.2688	-4.8812	-4.3354	-4.3625	-4.7333	-4.2667	-4.875	-4.4	-4.3938	-4.5938	-4.3792	-35.267	197.963	-20.005	269.000	296.832	37.274	243.713	244.850	110.610	282.702	-16.723	-0.973	-34.774	-32.817	134.370	-26.754	0.0005468	0.00063834	0.00021003	945.69	3.6099e-06	4.011e-06	1184.9	388.94	6.8463e-06	6.4867e-06	552.48	223.03	152.35	68.559	3.3603e-06	106.45	0.0002271	0.00018338	5.0268e-05	878.07	1.9898e-06	2.003e-06	1101.5	362.34	2.0738e-06	1.9843e-06	514.01	208.15	141.21	64.176	2.0211e-06	99.325	97.416	58.332	39.115	-23.573	132.703	114.966	-24.582	-18.526	118.871	75.263	-20.080	-15.876	-14.152	-9.193	62.140	-11.329	-8191	255	
8681.506	1	1	0	0	0.071553	0.32082	0.1239	0.21563	0.18002	0.054374	0.13261	0.18055	0.03777	0.14488	0.12475	0.2677	0.21954	0.25502	0.14478	0.15808	-4.0312	-4.6	-4.2	-4.7083	-4.3083	-4.1521	-4.8812	-4.5604	-4.3625	-4.8063	-4.2688	-4.6146	-4.8229	-4.3646	-4.7167	-4.5938	119.889	210.548	282.716	228.077	162.322	314.110	299.033	280.294	19.843	22.154	260.747	285.747	309.476	-18.995	108.421	20.018	0.00052979	0.0010263	0.00022689	940.43	4.755e-06	5.8886e-06	1172.9	386.3	4.1117e-06	6.7729e-06	555.01	222.66	151.7	68.115	7.5334e-06	106.49	0.00022636	0.00017883	4.9495e-05	874.39	2.0424e-06	1.9621e-06	1095.6	360.79	2.0307e-06	1.9234e-06	514.27	207.38	141.14	63.85	2.0114e-06	99.184	92.544	16.120	49.686	-23.756	76.094	56.850	-24.484	-18.570	113.156	104.998	-20.353	-15.708	-13.988	-9.256	101.009	-11.583	-8191	255	
8681.602	1	1	0	0	0.092301	0.14489	0.2105	0.18489	0.18024	0.14452	0.085665	0.088216	0.089294	0.18888	0.16933	0.27413	0.12013	0.28555	0.13176	0.044584	-4.1396	-4.8458	-4.1292	-4.7667	-4.5125	-4.2063	-4.8729	-4.5958	-4.3354	-4.675	-4.4104	-4.4854	-4.7229	-4.2104	-4.6813	-4.7167	150.217	2.152	299.927	-29.739	103.119	260.096	292.148	252.511	317.909	292.949	274.317	226.858	297.800	315.391	81.576	174.730	0.00056096	0.0011071	0.0002188	939.25	6.8946e-06	6.7378e-06	1183.8	388.15	4.3145e-06	6.2192e-06	551.68	222.39	151.44	68.118	5.5248e-06	107.13	0.00022621	0.00018064	4.9113e-05	874.98	1.9765e-06	1.9996e-06	1101.2	360.95	2.0307e-06	1.9709e-06	512.81	207.36	140.2	63.645	2.0278e-06	99.363	95.783	62.309	22.868	-23.407	109.203	72.232	-24.765	-18.767	74.087	94.134	-20.214	-15.790	-14.038	-9.253	142.944	-11.640	-8191	255	
8681.698	1	1	0	0	0.21645	0.15686	0.051733	0.29847	0.076654	0.14365	0.1138	0.11263	0.16032	0.10006	0.24065	0.2335	0.29513	0.24931	0.026972	0.20728	-3.9208	-4.6458	-4.175	-4.4958	-4.7354	-4.0333	-4.8417	-4.6687	-4.1813	-4.8229	-4.4563	-4.3562	-4.8146	-4.2854	-4.5604	-4.6271	-19.655	32.444	234.558	296.563	-22.395	60.399	12.140	-17.630	308.284	125.956	278.670	249.378	319.260	297.049	198.977	243.775	0.0005655	0.00070412	0.00026576	940.7	4.7928e-06	6.0313e-06	1182.8	385.33	9.3966e-06	8.9425e-06	553.83	224.04	151.52	68.107	2.3266e-06	107.68	0.00022583	0.00018076	5.0144e-05	874.57	1.9671e-06	1.9161e-06	1099.8	360.06	2.0155e-06	1.9924e-06	514.38	208.05	140.55	63.868	2.0208e-06	99.942	97.217	47.908	23.542	-23.790	87.315	80.480	-24.642	-18.634	116.949	146.124	-20.127	-15.855	-14.023	-9.295	112.584	-11.778	-8191	255	
8681.795	1	1	0	0	0.37225	0.11254	0.034083	0.29425	0.31288	0.16194	0.13771	0.28884	0.20621	0.025218	0.19212	0.17033	0.020822	0.24304	0.17463	0.066315	-3.8896	-4.8	-4.3333	-4.5333	-4.6792	-4.1396	-4.7438	-4.7375	-4.1375	-4.8438	-4.6083	-4.5083	-4.8875	-4.2021	-4.4458	-4.7958	-26.432	8.310	60.741	-28.669	75.559	169.758	220.234	287.154	296.544	-0.206	277.996	223.021	233.399	256.553	74.665	293.692	0.00054624	0.0010371	0.00021026	942.98	6.7045e-06	5.9344e-06	1188.4	390.82	4.6431e-06	9.819e-06	559.72	225.94	152.46	69.126	8.8109e-06	108.13	0.00022492	0.0001808	5.039e-05	878.38	2.0032e-06	1.8929e-06	1105.9	363.25	1.9538e-06	1.9884e-06	518.28	209.46	141.57	64.638	2.0725e-06	100.56	87.744	50.842	65.216	-23.837	95.977	99.723	-24.507	-18.800	128.357	126.014	-20.017	-15.499	-14.010	-9.389	139.172	-11.562	-8191	255	
8681.891	1	1	0	0	0.070084	0.3147	0.15329	0.23455	0.21838	0.1349	0.1525	0.088066	0.2963	0.080373	0.18846	0.16678	0.08095	0.31483	0.048566	0.074104	-3.8771	-4.6542	-4.4417	-4.5354	-4.7562	-4.2937	-4.5729	-4.8021	-4.2208	-4.6375	-4.6854	-4.3938	-4.9	-4.3792	-4.4271	-4.8729	92.435	272.183	157.158	243.501	247.489	238.293	188.694	270.153	252.040	110.734	262.934	303.106	130.563	270.543	-35.929	244.147	0.0006033	0.00077734	0.00013154	948.77	4.2741e-06	4.9592e-06	1189.4	390.33	7.5404e-06	4.5137e-06	555.95	223.9	151.6	69.409	8.3538e-06	107.63	0.00022324	0.0001812	5.0711e-05	881.81	2.003e-06	1.9625e-06	1107.7	364.33	2.037e-06	1.9906e-06	516.05	208.9	141.4	64.644	2.0773e-06	100.07	94.819	48.737	34.043	-23.741	126.016	91.089	-24.501	-18.411	120.865	109.835	-20.133	-15.826	-13.958	-9.311	109.831	-11.566	-8191	255	
8681.987	1	1	0	0	0.15692	0.17785	0.13295	0.28767	0.15515	0.15863	0.20392	0.29493	0.17701	0.20425	0.1487	0.20207	0.13425	0.28085	0.25758	0.12364	-3.8354	-4.7396	-4.4542	-4.45	-4.8917	-4.2667	-4.4875	-4.8208	-4.2646	-4.6062	-4.8375	-4.2292	-4.8521	-4.3	-4.3187	-5.0271	-34.322	14.586	-26.312	300.499	304.298	35.944	278.684	268.354	144.969	18.573	-34.848	283.284	210.958	302.706	-12.905	4.771	0.00060139	0.00064522	0.00019826	943.43	4.0805e-06	5.7656e-06	1180.3	391.76	3.3974e-06	5.9876e-06	553	222.7	151.83	68.951	4.9408e-06	107.5	0.00022351	0.0001811	4.9603e-05	879.53	2.0267e-06	1.9302e-06	1100.2	363.76	2.0031e-06	1.9986e-06	514.25	207.89	140.98	64.303	2.0454e-06	99.705	95.594	84.979	55.666	-23.577	109.088	141.649	-24.469	-18.604	106.945	86.888	-20.250	-15.892	-13.942	-9.024	102.008	-11.466	-8191	255	
8682.083	1	1	0	0	0.19473	0.106	0.23767	0.13979	0.062057	0.090413	0.18243	0.42343	0.16415	0.17228	0.2347	0.35479	0.22102	0.216	0.10828	0.19459	-3.8292	-4.6542	-4.4625	-4.2646	-4.6917	-4.3854	-4.4521	-4.975	-4.2021	-4.6062	-4.85	-4.2375	-4.7792	-4.4313	-4.3021	-4.8271	35.155	156.291	170.773	308.680	182.896	322.922	147.139	313.177	37.581	269.538	308.280	303.066	226.252	279.927	113.253	211.990	0.00058175	0.00064169	0.00022969	946.32	8.5801e-06	4.8019e-06	1184.2	390.05	4.9787e-06	6.1385e-06	555.09	222.48	151.66	68.226	5.0242e-06	107.3	0.00022286	0.00018241	4.943e-05	879.99	1.9779e-06	1.9483e-06	1101	362.64	2.0168e-06	2.0107e-06	514.47	207.36	140.82	64.031	1.9856e-06	99.525	95.132	69.408	50.881	-23.555	107.954	99.615	-24.694	-18.410	105.621	119.645	-20.144	-15.798	-14.067	-9.120	90.418	-11.694	-8191	255	
8682.204	1	1	0	0	0.079632	0.051397	0.085458	0.20772	0.27287	0.21792	0.14343	0.29766	0.085559	0.1182	0.37967	0.38868	0.18418	0.40749	0.20898	0.29955	-3.8688	-4.4958	-4.5667	-4.1333	-4.6188	-4.4208	-4.3187	-4.6979	-4.2875	-4.4104	-4.8979	-4.2667	-4.6188	-4.6771	-4.1604	-4.9146	45.946	187.624	275.670	146.759	303.066	195.824	201.705	261.790	270.966	273.583	290.038	285.498	295.772	283.457	-8.420	322.862	0.0006092	0.00074334	0.00021068	942.99	5.9896e-06	5.1692e-06	1188	386.13	9.1099e-06	4.306e-06	554.15	224.05	151.84	68.864	7.1088e-06	107.42	0.00021985	0.00018359	4.9578e-05	878.11	2.0066e-06	1.9139e-06	1102.5	361.09	2.0464e-06	1.9731e-06	514.74	208.35	140.97	64.127	2.0181e-06	100.06	94.065	60.204	48.338	-23.734	81.031	146.274	-24.476	-18.643	104.619	149.409	-19.946	-15.837	-14.048	-9.280	129.773	-11.463	-8191	255	
8682.300	1	1	0	0	0.30536	0.058307	0.22936	0.12903	0.10777	0.19036	0.33367	0.01807	0.11209	0.12788	0.20196	0.14138	0.16226	0.17356	0.16093	0.23337	-3.8667	-4.4354	-4.7125	-4.1604	-4.5708	-4.4458	-4.1438	-4.9208	-4.2667	-4.2271	-4.8521	-4.3792	-4.5687	-4.6562	-4.0021	-4.7833	150.669	213.451	257.611	305.021	321.154	151.724	257.801	153.664	179.191	146.213	278.398	-11.085	304.084	300.039	238.367	309.907	0.00065745	0.001112	0.00021467	943.16	4.7401e-06	5.2582e-06	1194.2	389.11	4.1553e-06	1.3587e-05	557.42	225.82	151.92	69.2	6.1308e-06	108.35	0.00022803	0.00018573	4.9806e-05	879.1	2.0007e-06	2.0129e-06	1108	363.47	2.0653e-06	1.9784e-06	518.63	210.13	141.97	64.816	1.972e-06	100.79	93.203	76.932	68.697	-23.841	92.740	133.210	-24.554	-18.758	102.073	122.215	-20.179	-15.851	-13.778	-9.239	102.516	-11.490	-8191	255	
8682.371	1	1	0	0	0.11246	0.21065	0.18409	0.10375	0.19221	0.16028	0.2097	0.13775	0.10584	0.14355	0.35271	0.19942	0.11835	0.12831	0.099517	0.079182	-3.9417	-4.3521	-4.725	-4.3333	-4.5813	-4.6062	-4.2312	-4.7521	-4.4771	-4.3708	-4.9604	-4.275	-4.5833	-4.7708	-4.2354	-4.8396	239.678	149.902	270.200	87.452	156.879	274.393	238.891	220.971	61.361	297.018	225.957	286.449	194.297	-16.422	296.791	224.808	0.00061716	0.00060042	0.00024956	952.28	3.8241e-06	7.5712e-06	1188.1	390.12	6.4872e-06	3.998e-06	559.68	225.12	152.07	69.353	5.8364e-06	108.15	0.00022579	0.00018555	4.8974e-05	884.17	2.0636e-06	1.972e-06	1106.4	364.54	2.0421e-06	1.9768e-06	518.17	209.3	141.82	64.902	1.9951e-06	100.41	91.140	26.019	66.304	-23.714	100.021	101.137	-24.498	-18.511	120.061	104.888	-20.166	-15.766	-13.969	-9.148	113.090	-11.374	-8191	255	
8682.492	1	1	0	0	0.15665	0.021342	0.19474	0.027546	0.099899	0.15346	0.21881	0.33125	0.20509	0.051746	0.074532	0.15484	0.13316	0.31563	0.15281	0.22367	-4.1	-4.2562	-4.8604	-4.3542	-4.5167	-4.7271	-4.3063	-4.7354	-4.4083	-4.0271	-4.925	-4.4646	-4.2771	-4.9187	-4.0854	-4.7688	4.168	110.794	45.427	222.022	276.841	25.056	270.494	295.701	135.448	171.198	289.551	280.527	319.833	286.482	283.545	240.319	0.00052936	0.00055636	0.00018551	944.4	6.5313e-06	5.2035e-06	1184.5	390.8	6.1141e-06	3.9644e-06	553.21	224.64	152.3	69.088	6.5792e-06	107.56	0.00022196	0.00017862	5.059e-05	879.23	2.0438e-06	1.9265e-06	1101.9	363.97	1.9655e-06	1.8899e-06	514.52	208.79	141.55	64.608	1.9968e-06	99.901	91.583	55.209	50.286	-23.388	91.775	100.074	-24.525	-18.489	104.517	92.190	-20.339	-15.684	-14.031	-9.200	104.462	-11.714	-8191	255	
8682.586	1	1	0	0	0.11219	0.29024	0.17127	0.18902	0.18695	0.21545	0.30941	0.43195	0.14952	0.11482	0.071515	0.10712	0.24087	0.39759	0.097295	0.1598	-4.1062	-4.3	-4.6875	-4.4313	-4.2	-4.7896	-4.2292	-4.7375	-4.4875	-4.0125	-4.7583	-4.5938	-4.375	-4.9396	-4.0771	-4.6708	149.104	218.502	243.515	258.634	-24.071	30.643	315.809	271.987	194.987	50.954	283.770	284.143	148.861	283.972	10.142	263.989	0.00056944	0.00039989	0.00027357	946.14	4.3447e-06	8.764e-06	1181.3	388.98	5.5623e-06	4.624e-06	554.72	222.97	151.14	68.447	7.6282e-06	107.21	0.00022304	0.00017914	4.9731e-05	878.34	1.9913e-06	1.8943e-06	1100	362.44	1.9908e-06	1.879e-06	513.16	207.75	140.22	64.152	2.0413e-06	99.616	87.552	27.015	38.697	-23.679	93.791	104.523	-24.662	-18.562	84.573	99.034	-20.041	-16.064	-13.888	-9.316	141.052	-11.382	-8191	255	
8682.683	1	1	0	0	0.11595	0.11408	0.16131	0.093218	0.14548	0.03009	0.30725	0.053931	0.13837	0.023442	0.098711	0.14341	0.17709	0.45259	0.12728	0.4124	-4.475	-3.9813	-4.65	-4.5938	-4.0917	-4.6479	-4.3542	-4.7562	-4.6687	-4.1521	-4.9708	-4.6167	-4.2167	-4.9583	-4.2604	-4.5938	109.683	37.274	148.016	287.039	317.888	42.136	279.761	238.226	85.950	280.339	-16.142	316.353	177.350	316.814	-18.730	269.431	0.00059405	0.00075113	0.0001258	939.3	5.7728e-06	6.5337e-06	1183	388.56	4.7871e-06	7.0823e-06	551.55	223.05	151.28	68.083	6.0771e-06	107.24	0.00022373	0.00017954	5.0062e-05	875.37	1.9617e-06	1.9404e-06	1101.4	361.24	1.9958e-06	1.9297e-06	512.98	207.28	140.2	63.722	1.9693e-06	99.734	88.009	48.426	76.240	-23.708	113.127	100.633	-24.500	-18.573	136.319	112.379	-20.103	-16.120	-14.025	-9.363	124.251	-11.515	-8191	255	
8682.803	1	1	0	0	0.18671	0.10593	0.033181	0.11713	0.084932	0.088693	0.32	0.20192	0.15052	0.18482	0.27284	0.30098	0.28389	0.15138	0.02244	0.029014	-4.325	-4.0958	-4.7479	-4.4646	-4.2042	-4.7396	-4.5604	-4.5146	-4.6333	-4.2312	-4.8146	-4.7917	-4.3375	-5.0104	-4.2521	-4.3146	247.435	27.661	153.505	308.089	21.897	-33.295	301.241	212.358	206.167	237.085	305.088	253.383	308.771	258.931	199.698	149.544	0.0006185	0.00090735	0.00028369	939.01	5.5236e-06	5.5664e-06	1185.9	386.34	5.1714e-06	1.9328e-06	554.66	223.74	150.98	68.211	4.4832e-06	106.9	0.00021653	0.00017523	5.0679e-05	873.87	1.9463e-06	1.9664e-06	1102.1	360.36	1.9995e-06	1.9452e-06	515.38	208.26	140.16	63.797	2.0131e-06	99.718	94.870	28.935	48.141	-23.640	114.938	133.224	-24.603	-18.568	133.281	186.633	-19.914	-15.749	-14.292	-9.196	113.414	-11.263	-8191	255	
8682.899	1	1	0	0	0.088116	0.073089	0.10955	0.36409	0.15252	0.14371	0.15955	0.29961	0.1263	0.16012	0.54956	0.1247	0.13584	0.2042	0.25825	0.12103	-4.5125	-4.2625	-4.5687	-4.8146	-4.1646	-4.7312	-4.4021	-4.4792	-4.6896	-4.2854	-4.6021	-4.8042	-4.1833	-5	-4.3646	-4.3375	-17.251	201.747	204.389	287.053	253.083	-25.967	-9.321	264.270	-31.646	114.161	296.888	123.682	177.159	313.409	295.037	311.333	0.00056619	0.00086008	0.00015133	940.74	6.7268e-06	7.7963e-06	1173.7	385.51	3.6888e-06	7.3441e-06	551.15	222.47	150.62	67.877	4.7504e-06	106.62	0.00022108	0.00017716	4.979e-05	872.24	1.9504e-06	1.9564e-06	1098.2	359.44	1.9612e-06	1.9468e-06	512.89	207.03	139.94	63.44	2.0074e-06	98.994	94.148	44.408	54.446	-23.986	71.439	112.566	-24.421	-18.494	80.543	125.810	-20.226	-16.037	-13.836	-9.344	73.670	-11.300	-8191	255	
8682.971	1	1	0	0	0.084661	0.35926	0.14761	0.25863	0.11635	0.20557	0.079681	0.19557	0.049789	0.13037	0.14703	0.18885	0.021711	0.19542	0.091149	0.15679	-4.4625	-4.3646	-4.5125	-4.85	-4.1438	-4.6354	-4.65	-4.3438	-4.7188	-4.2667	-4.5854	-4.8688	-4.3083	-4.7854	-4.5146	-4.3979	43.508	290.390	10.426	304.341	281.535	12.910	65.493	276.979	-18.073	109.418	276.878	269.611	123.097	315.018	322.569	299.072	0.00057811	0.0011408	0.0001932	930.88	8.9066e-06	6.1185e-06	1173	382	7.2721e-06	4.8665e-06	545.4	219.69	148.72	67.49	5.408e-06	105.62	0.00022108	0.00017978	4.9396e-05	868.26	1.9656e-06	1.918e-06	1089.9	356.36	2.0135e-06	1.8815e-06	507.93	204.74	137.84	62.891	1.9886e-06	98.174	97.483	34.850	72.039	-23.575	116.025	114.667	-24.436	-18.516	130.240	128.984	-19.934	-15.896	-13.883	-9.319	107.140	-11.562	-8191	255	
8683.092	1	1	0	0	0.27601	0.14177	0.10253	0.1965	0.12707	0.028047	0.091276	0.21731	0.16407	0.18617	0.2635	0.215	0.079586	0.11276	0.13447	0.15207	-4.3917	-4.2708	-4.1229	-4.8417	-4.2188	-4.7583	-4.725	-4.2208	-4.7833	-4.4521	-4.4833	-4.8896	-4.3208	-4.625	-4.6833	-4.2167	112.007	294.716	298.072	286.737	24.778	241.493	-22.600	303.779	312.447	208.471	290.761	249.416	203.775	288.028	167.816	236.119	0.00057204	0.00062057	0.00019698	930.46	5.275e-06	2.7516e-06	1166.9	380.5	4.2943e-06	9.2491e-06	545.18	220.3	147.64	67.23	4.1116e-06	105.24	0.00022396	0.00017792	4.9074e-05	864.81	1.9065e-06	1.931e-06	1087.7	354.84	1.9888e-06	1.8424e-06	507.71	204.52	137.33	62.611	1.9666e-06	97.863	86.235	51.773	116.404	-23.660	109.495	105.619	-24.455	-18.712	150.048	138.002	-20.219	-15.844	-13.939	-9.398	150.630	-11.448	-8191	255	
8683.188	1	1	0	0	0.18753	0.12201	0.16635	0.15516	0.28255	0.11783	0.43983	0.13921	0.028375	0.1804	0.1994	0.068294	0.15397	0.29649	0.25035	0.12106	-4.4729	-4.5167	-4.2708	-4.8771	-4.125	-4.4833	-4.7354	-4.2021	-4.6042	-4.4	-4.2125	-4.8229	-4.2604	-4.6042	-4.6625	-4.3396	-27.375	225.031	265.611	215.293	294.229	229.227	-30.283	250.326	269.844	174.053	292.568	-25.346	-4.059	312.689	297.855	44.913	0.00054832	0.00069817	0.00020551	927.54	5.4565e-06	6.8552e-06	1169.5	380.79	6.2016e-06	8.5644e-06	546.4	220.19	147.38	66.942	3.5546e-06	105.11	0.00022131	0.00017887	4.8591e-05	863.93	1.9107e-06	1.9018e-06	1090.1	355.32	1.9885e-06	1.9446e-06	506.96	204.41	137.11	62.475	1.9948e-06	97.785	89.820	63.600	65.877	-23.474	99.856	103.748	-24.630	-18.535	98.594	117.705	-20.050	-15.901	-14.321	-9.236	121.282	-11.522	-8191	255	
8683.284	1	1	0	0	0.14832	0.083439	0.11589	0.12547	0.20277	0.17432	0.18901	0.24743	0.14328	0.14819	0.30834	0.050949	0.19439	0.19145	0.25796	0.28764	-4.2292	-4.4833	-4.1979	-4.9792	-4.3104	-4.4854	-4.8708	-4.3	-4.6708	-4.3104	-4.1542	-4.9771	-4.3854	-4.4708	-4.7083	-4.3938	238.673	110.939	112.024	250.338	93.020	321.573	269.419	236.659	166.287	157.953	284.471	247.966	9.032	315.716	69.446	230.427	0.00051724	0.00035023	0.00028055	930.21	5.7539e-06	6.316e-06	1176.5	382.95	6.1039e-06	7.8667e-06	548.49	221.13	148.84	67.361	4.0224e-06	105.76	0.00022809	0.00017776	4.9743e-05	866.22	1.9628e-06	1.9446e-06	1093.7	356.68	1.9691e-06	1.9139e-06	509.96	205.8	138.34	62.996	1.9748e-06	98.782	88.179	48.381	49.734	-23.734	112.076	101.435	-24.746	-18.360	89.580	82.304	-20.072	-15.565	-14.023	-9.150	124.509	-11.654	-8191	255	
8683.380	1	1	0	0	0.16058	0.29431	0.15566	0.15844	0.18167	0.27863	0.11623	0.19327	0.17411	0.14097	0.28887	0.1651	0.29528	0.19635	0.16039	0.23178	-4.3083	-4.6687	-4.0563	-4.7917	-4.2979	-4.2042	-4.8333	-4.4771	-4.5312	-4.5417	-4.2812	-4.8417	-4.4167	-4.4417	-4.5354	-4.2812	188.952	41.387	28.466	287.527	179.725	175.846	-11.913	234.193	300.904	96.092	238.338	272.401	282.351	268.881	225.275	238.072	0.00056319	0.00098118	0.00026824	935.97	7.5339e-06	6.6644e-06	1179.7	385.38	5.509e-06	6.0099e-06	550.87	222.75	149.77	67.929	7.8574e-06	106.08	0.00022433	0.00018173	4.9534e-05	870.77	1.9998e-06	1.9542e-06	1097.4	358.34	2.0272e-06	1.8731e-06	511.08	206.92	139.11	63.482	1.9725e-06	99.013	99.580	38.890	75.929	-23.720	108.637	95.611	-24.681	-18.572	95.331	90.359	-20.214	-15.797	-13.852	-9.123	125.306	-11.702	-8191	255	
8683.499	1	1	0	0	0.15083	0.26705	0.13001	0.28855	0.13427	0.10968	0.063415	0.17984	0.15098	0.046527	0.23897	0.12787	0.13819	0.18982	0.10734	0.031414	-4.3042	-4.6125	-4.1417	-5.0021	-4.3979	-4.0979	-4.8354	-4.1958	-4.4021	-4.7667	-4.3146	-4.6042	-4.6917	-4.2479	-4.7896	-4.625	272.148	229.342	149.760	303.599	77.905	316.658	5.492	245.333	134.282	173.055	204.452	241.886	279.541	197.539	247.434	243.069	0.00058007	0.00072277	0.00015477	936.67	5.224e-06	5.8636e-06	1174.3	384.47	4.7589e-06	8.5043e-06	550.16	221.74	149.82	67.927	5.1243e-06	106.21	0.00022577	0.00017546	4.9033e-05	870.08	1.945e-06	1.9296e-06	1092.6	358.29	2.0522e-06	1.911e-06	509.76	206.13	138.98	63.54	1.9904e-06	98.899	91.227	61.886	40.269	-23.733	84.450	125.385	-24.850	-18.612	119.636	119.600	-20.164	-15.838	-13.922	-9.179	114.948	-11.495	-8191	255	
8683.595	1	1	0	0	0.091596	0.22825	0.060536	0.0947	0.099431	0.2042	0.15052	0.26795	0.080845	0.17421	0.23011	0.28462	0.025752	0.20462	0.029076	0.14207	-3.9521	-4.675	-4.2312	-4.7146	-4.4146	-4.2083	-5.1312	-4.3417	-4.2438	-5.0458	-4.2854	-4.7708	-4.7208	-4.1813	-4.7063	-4.5979	205.276	125.157	274.259	21.138	33.393	185.737	249.666	289.013	300.074	265.666	290.773	267.408	132.999	-33.649	-10.124	209.651	0.00056619	0.00048144	0.00023148	932.16	8.0758e-06	5.5454e-06	1171	383.55	3.7508e-06	6.8383e-06	548.93	221.41	150.2	67.943	7.7686e-06	106.23	0.00022381	0.00017907	4.8962e-05	868.31	1.9733e-06	1.9396e-06	1090	357.78	2.0034e-06	1.8651e-06	509.81	205.68	139	63.341	2.0258e-06	98.834	96.202	54.098	73.438	-23.580	106.305	97.051	-24.585	-18.320	100.256	120.779	-20.235	-15.783	-13.550	-9.325	115.113	-11.338	-8191	255	
8683.667	1	1	0	0	0.21444	0.13353	0.15654	0.13466	0.14586	0.19308	0.37462	0.30201	0.24343	0.16165	0.12553	0.14507	0.072649	0.48908	0.076214	0.27856	-4.0188	-4.6604	-4.2396	-4.5938	-4.7125	-4.2646	-4.8896	-4.525	-4.4458	-4.8583	-4.4521	-4.5292	-4.8021	-4.2646	-4.6229	-4.7771	-3.579	27.583	-11.564	209.885	-33.609	85.742	236.050	262.049	255.332	312.427	266.621	300.812	295.084	257.750	224.972	242.642	0.00053227	0.00099465	0.00022577	940.51	6.968e-06	6.1815e-06	1172.7	385.62	4.6076e-06	1.0356e-05	548.74	221.39	149.48	67.635	9.064e-06	105.9	0.00022709	0.00017795	4.9432e-05	869.93	1.9358e-06	1.8833e-06	1090.2	357.35	1.9455e-06	1.9171e-06	509.86	205.97	138.79	63.277	2.017e-06	98.651	95.136	41.372	79.788	-23.381	110.597	136.748	-24.404	-18.500	68.480	121.266	-20.107	-15.579	-13.849	-9.418	131.874	-11.229	-8191	255	
8683.763	1	1	0	0	0.070428	0.055456	0.2217	0.36303	0.11325	0.10196	0.21133	0.10651	0.028247	0.17875	0.27861	0.36759	0.10694	0.11297	0.13306	0.21694	-3.9313	-4.6667	-4.2667	-4.4958	-4.6542	-4.0979	-4.7104	-4.7312	-4.2125	-4.8229	-4.6333	-4.5771	-4.875	-4.2063	-4.6687	-4.7167	-10.304	101.548	272.639	283.881	170.641	22.766	296.542	-33.842	119.142	270.874	232.902	293.009	260.070	276.618	68.482	243.522	0.00059557	0.0006878	0.00018664	935.61	4.4804e-06	7.8717e-06	1179.8	384.84	4.9588e-06	4.698e-06	551.22	222.47	150.64	68.032	8.6916e-06	107.06	0.00022172	0.00017791	4.9716e-05	870.19	1.9445e-06	1.9776e-06	1096.6	358.98	1.9951e-06	1.9832e-06	512.41	207.4	139.54	63.721	2.0192e-06	99.606	96.823	27.901	39.468	-23.681	82.164	82.999	-24.506	-18.184	102.624	117.428	-20.309	-15.919	-14.121	-9.197	108.174	-11.571	-8191	255	
8683.884	1	1	0	0	0.22008	0.25031	0.04225	0.26751	0.16936	0.1976	0.19443	0.16347	0.18718	0.14145	0.17766	0.1779	0.14732	0.29673	0.27365	0.19108	-3.925	-4.7771	-4.2937	-4.3521	-4.8146	-4.15	-4.7458	-4.5896	-4.2417	-4.7063	-4.6	-4.4833	-4.6813	-4.2792	-4.5542	-4.7208	289.453	38.155	129.058	300.948	127.462	283.074	215.427	-31.268	266.294	131.427	278.937	59.490	224.574	296.147	257.755	266.939	0.00061845	0.00085526	0.00023199	936.77	4.1841e-06	7.3325e-06	1179.7	386.37	2.8112e-06	1.055e-05	555.49	224.21	150.6	68.552	7.5388e-06	107.18	0.00022297	0.00017995	4.9642e-05	873.97	1.956e-06	1.9708e-06	1100	361.21	2.0073e-06	1.9494e-06	514.95	208.24	140.43	64.254	2.0636e-06	99.847	89.861	68.412	46.393	-23.742	116.202	108.458	-24.363	-18.439	66.198	69.957	-20.124	-15.817	-14.126	-9.110	105.306	-11.681	-8191	255	
8683.980	1	1	0	0	0.20594	0.058278	0.13726	0.24159	0.14987	0.20513	0.08731	0.069776	0.14908	0.18984	0.15702	0.17369	0.16881	0.24303	0.21153	0.20026	-3.825	-4.6958	-4.2146	-4.4021	-4.7417	-4.2312	-4.6188	-4.6542	-4.0521	-4.7708	-4.5917	-4.3854	-4.7375	-4.4021	-4.4625	-5.0771	105.798	212.992	228.658	307.856	143.876	69.728	199.229	-12.910	180.426	94.942	273.903	308.747	31.477	264.594	-35.977	173.146	0.0005527	0.00076638	0.00023737	937.09	5.6709e-06	2.6614e-06	1181.1	386.56	3.3715e-06	8.5401e-06	549.94	222.78	151.41	68.495	4.5031e-06	106.61	0.00022341	0.00018652	5.0265e-05	873.75	1.9771e-06	1.9036e-06	1097	360.94	2.0202e-06	1.9456e-06	511	207.17	140.36	64.092	2.0604e-06	99.254	88.353	52.943	57.903	-23.584	133.200	123.024	-24.741	-18.309	126.478	128.759	-20.003	-15.605	-13.732	-9.123	60.473	-11.330	-8191	255	
8684.076	1	1	0	0	0.19572	0.25566	0.12267	0.18336	0.024059	0.25205	0.317	0.26511	0.18647	0.24388	0.18265	0.18628	0.27439	0.14201	0.15298	0.12488	-3.8104	-4.6542	-4.5813	-4.2979	-4.8313	-4.3125	-4.5062	-4.7979	-4.1896	-4.6042	-4.7021	-4.35	-4.8125	-4.4646	-4.3167	-4.8812	299.169	11.633	147.731	304.534	182.522	177.896	264.595	259.701	316.573	-16.962	321.220	-27.040	-28.046	31.079	218.650	189.091	0.00056385	0.00089634	0.00024412	933.53	6.6286e-06	5.9245e-06	1174.7	386.99	5.4103e-06	6.6031e-06	550.66	221.97	150.74	68.363	6.5567e-06	106.62	0.00022353	0.000183	4.9477e-05	873.14	2.0353e-06	1.9419e-06	1093.1	360.26	1.9688e-06	1.9843e-06	511.44	206.25	139.61	63.858	2.0451e-06	99.131	96.877	63.316	53.143	-23.981	106.776	75.167	-24.608	-18.436	103.339	112.213	-20.276	-15.772	-14.031	-8.963	92.295	-11.544	-8191	255	
8684.172	1	1	0	0	0.20759	0.15346	0.20839	0.19413	0.2245	0.17891	0.22642	0.21344	0.15494	0.16016	0.20449	0.15659	0.26956	0.22941	0.14177	0.093055	-3.9167	-4.5917	-4.5062	-4.2021	-4.6312	-4.3125	-4.5437	-4.8063	-4.1146	-4.425	-4.875	-4.3375	-4.6646	-4.6	-4.1792	-4.9458	315.202	295.235	8.037	258.840	161.694	89.077	238.223	274.065	173.558	-17.672	205.532	167.570	-28.112	321.827	31.390	132.849	0.00063316	0.00076471	0.00018521	939.46	2.7689e-06	3.0861e-06	1172.9	385.08	6.1193e-06	7.3244e-06	549.05	221.79	150.19	67.759	1.131e-05	106.76	0.00022664	0.00017823	4.9505e-05	871.92	2.0009e-06	1.9034e-06	1093.6	358.81	1.9543e-06	1.9521e-06	510.83	206.62	139.11	63.493	2.0094e-06	98.985	89.623	42.208	81.444	-23.504	106.852	80.123	-24.595	-18.498	108.367	78.908	-20.263	-15.766	-14.094	-8.990	118.781	-11.460	-8191	255	
8684.268	1	1	0	0	0.13213	0.17504	0.15188	0.14867	0.19205	0.17093	0.20746	0.11164	0.18835	0.1669	0.18722	0.11045	0.21292	0.19822	0.25482	0.10046	-3.9708	-4.3458	-4.6646	-4.1604	-4.6854	-4.5312	-4.4333	-4.9417	-4.1521	-4.2854	-4.7937	-4.2646	-4.7271	-4.5646	-4.125	-5.0521	165.253	31.286	264.377	278.649	60.885	140.129	280.117	189.784	-23.363	-6.991	287.054	302.450	273.449	251.726	249.165	299.797	0.00061138	0.0007082	0.00022374	935.63	5.1087e-06	5.6187e-06	1176.4	383.6	8.9612e-06	1.8815e-06	553.36	221.87	150.33	67.929	5.5017e-06	106.79	0.00022368	0.00017978	4.9629e-05	871.06	1.9977e-06	1.9014e-06	1094.3	358.17	2.0113e-06	1.9443e-06	512.12	206.73	139.2	63.694	2.0024e-06	99.549	96.325	69.713	63.665	-23.789	103.009	95.130	-24.497	-18.509	112.441	88.639	-20.254	-15.632	-14.068	-9.235	111.729	-11.656	-8191	255	
8684.364	1	1	0	0	0.045056	0.26385	0.098634	0.29501	0.36766	0.099427	0.13719	0.19919	0.063213	0.06883	0.394	0.37047	0.39421	0.12778	0.19003	0.20096	-3.8896	-4.4771	-4.7792	-4.2792	-4.6521	-4.4792	-4.3438	-4.7937	-4.2458	-4.2229	-4.9458	-4.2979	-4.6146	-4.7292	-4.1479	-4.8729	97.922	-29.261	319.411	-20.033	23.331	314.745	284.464	298.087	-27.342	251.488	283.071	295.228	255.679	-24.881	-4.809	233.905	0.00048069	0.0008686	0.00022445	941.74	4.1963e-06	6.6273e-06	1179.9	387.04	5.9855e-06	5.9402e-06	552.94	223.12	151.66	68.849	5.4173e-06	107.51	0.00022261	0.00017781	5.053e-05	875.07	2.0613e-06	1.98e-06	1100.5	361.02	2.0454e-06	1.9548e-06	514.25	207.89	140.83	64.291	1.9747e-06	100.1	94.899	57.616	57.134	-23.614	93.597	85.239	-24.578	-18.494	127.020	123.217	-20.267	-15.605	-14.080	-9.185	124.033	-11.397	-8191	255	
8684.485	1	1	0	0	0.16275	0.20335	0.10465	0.19941	0.21871	0.1929	0.23603	0.20338	0.16081	0.12014	0.048403	0.19447	0.088686	0.13196	0.14434	0.22341	-3.9667	-4.125	-4.7646	-4.3708	-4.375	-4.7667	-4.2354	-4.7042	-4.4625	-4.4458	-4.8604	-4.3521	-4.65	-4.6687	-4.0687	-4.7688	230.985	297.871	132.885	-32.200	57.923	286.578	276.082	258.716	109.267	30.501	210.848	-7.566	250.512	295.786	276.434	263.621	0.00054498	0.00088924	0.0002867	939.19	7.1081e-06	1.7869e-06	1178.6	387.56	4.7972e-06	9.1701e-06	555.19	222.64	150.83	68.929	5.4696e-06	107.12	0.00022373	0.0001848	5.0043e-05	874.89	2.0698e-06	1.9409e-06	1096.3	360.99	2.048e-06	2.0079e-06	513.74	207.42	140.5	64.298	1.9984e-06	99.606	98.708	35.539	49.000	-23.634	119.918	13.447	-24.563	-18.446	107.387	111.048	-20.025	-15.647	-14.291	-9.074	129.235	-11.601	-8191	255	
8684.579	1	1	0	0	0.26973	0.11289	0.067066	0.20683	0.23979	0.16622	0.16762	0.10213	0.25986	0.18472	0.23683	0.15052	0.13457	0.22666	0.0095538	0.081523	-4.25	-4.2667	-4.7833	-4.4187	-4.4292	-4.7833	-4.1813	-4.5583	-4.6687	-4.1125	-5.1458	-4.4646	-4.4083	-4.7917	-4.0917	-4.8104	166.425	319.369	11.732	-32.585	250.708	113.889	253.156	294.503	317.550	195.048	280.036	-12.551	158.635	92.791	-9.231	306.772	0.00056083	0.00096232	0.00025034	937.38	6.6505e-06	6.0142e-06	1182.8	387	4.8032e-06	5.3573e-06	551.02	221.83	150.39	68.26	3.4981e-06	106.51	0.00022261	0.00018544	5.0786e-05	873.1	2.0119e-06	1.9192e-06	1095.6	360.46	1.9566e-06	1.9407e-06	511.69	206.7	139.7	63.936	1.9957e-06	99.111	94.695	64.322	76.692	-23.487	102.596	99.468	-24.354	-18.436	111.474	94.785	-20.255	-15.660	-14.057	-9.238	122.700	-11.393	-8191	255	
8684.676	1	1	0	0	0.15889	0.15643	0.25588	0.067618	0.053859	0.15537	0.26452	0.21096	0.081424	0.21567	0.047789	0.10673	0.34449	0.3098	0.053772	0.19059	-4.1042	-4.1792	-4.7854	-4.3708	-4.3417	-4.6937	-4.325	-4.7188	-4.6333	-4.1687	-4.7979	-4.4646	-4.3333	-4.8646	-4.3604	-4.6354	286.342	157.882	99.376	210.371	133.590	160.069	244.108	311.468	0.649	-33.717	66.065	254.881	283.364	313.188	55.183	-27.099	0.00059785	0.00081354	0.00012504	938.9	4.3123e-06	9.1516e-06	1177.1	386.58	5.7002e-06	7.2608e-06	548.19	221.7	150.46	68.115	7.7678e-06	106.87	0.00022615	0.0001777	4.9566e-05	873.13	1.9575e-06	1.8949e-06	1095.8	360.47	1.9889e-06	1.9404e-06	510.75	206.65	139.77	63.573	1.9927e-06	99.188	96.720	86.242	46.050	-23.669	68.145	103.122	-24.586	-18.499	124.275	129.420	-20.153	-15.860	-14.120	-9.400	110.780	-11.373	-8191	255	
8684.772	1	1	0	0	0.059289	0.16099	0.16426	0.16444	0.087747	0.19045	0.18534	0.15116	0.042385	0.10714	0.10662	0.26539	0.15153	0.33367	0.11256	0.2782	-4.3604	-4.0417	-4.6333	-4.5437	-4.1813	-4.7521	-4.4708	-4.4875	-4.725	-4.1375	-4.7729	-4.6438	-4.3271	-4.7917	-4.3479	-4.5	287.422	137.628	88.201	249.395	23.386	57.588	20.713	265.354	43.113	50.296	201.890	287.179	299.060	280.384	41.807	302.353	0.00052098	0.00057906	0.00028233	937.68	4.9548e-06	7.3415e-06	1181.1	385.13	7.6794e-06	7.3672e-06	552.65	223.57	149.9	68.193	6.98e-06	107.65	0.00021883	0.0001824	5.0706e-05	873.01	2.0052e-06	1.9225e-06	1098.2	360.1	2.0032e-06	1.9404e-06	512.88	207.4	139.37	63.944	1.975e-06	99.914	94.138	61.149	70.386	-23.917	93.476	88.378	-24.450	-18.719	97.094	78.126	-20.499	-15.932	-14.133	-9.050	97.247	-11.674	-8191	255	
8684.892	1	1	0	0	0.073277	0.26118	0.038066	0.23924	0.13033	0.21823	0.21697	0.082667	0.21485	0.18059	0.18447	0.18485	0.083623	0.21374	0.086224	0.28221	-4.3854	-4.0042	-4.6292	-4.8438	-4.2667	-4.6667	-4.4021	-4.525	-4.6604	-4.0437	-4.7042	-4.6979	-4.1167	-4.8646	-4.3729	-4.4667	300.404	85.161	241.355	280.600	98.681	120.053	222.346	270.887	235.405	215.434	263.452	227.886	320.210	-10.730	271.843	291.987	0.00058509	0.00053592	0.00020929	941.09	7.8899e-06	5.463e-06	1182.6	388.92	4.6372e-06	4.1914e-06	559.21	224.09	151.96	69.229	4.1685e-06	108.24	0.00022549	0.00018124	5.1624e-05	876.07	2.0261e-06	1.9439e-06	1101.3	362.36	2.0108e-06	1.9819e-06	516.48	208.57	140.9	64.585	2.0534e-06	100.5	95.365	57.886	71.390	-23.613	107.184	80.614	-24.164	-18.604	74.940	157.443	-20.058	-15.758	-13.948	-8.864	81.384	-11.384	-8191	255	
8684.964	1	1	0	0	0.30706	0.13011	0.14293	0.29869	0.19896	0.050085	0.11668	0.42236	0.23447	0.13365	0.11006	0.056151	0.2464	0.18862	0.088696	0.12108	-4.3438	-4.1937	-4.3812	-4.8146	-4.2083	-4.7625	-4.5125	-4.3729	-4.7042	-4.4313	-4.6375	-4.725	-4.075	-4.9479	-4.4104	-4.4	204.418	131.589	170.275	242.314	149.835	201.703	276.656	-26.707	-34.507	115.605	-12.168	322.676	234.642	75.614	207.392	237.988	0.00066903	0.00056917	0.00018046	940.24	2.1572e-06	3.0641e-06	1188	389.03	7.4057e-06	9.2272e-06	554.72	223.8	152.32	68.956	8.251e-06	107.24	0.00022599	0.0001756	5.0872e-05	876.31	1.9716e-06	1.9839e-06	1101.3	363.04	1.9879e-06	1.9627e-06	514.93	208.24	141.15	64.509	2.0381e-06	99.919	93.394	34.646	87.342	-23.510	115.286	94.690	-24.473	-18.568	95.262	117.374	-20.030	-15.557	-13.868	-9.006	89.971	-11.420	-8191	255	
#DATA ENDS
