BOXY.EXE: ISS Imagent and Oximeter Data Acquisition Program Version 0.80
Ascii Record File

#ACQ INFORMATION
2  Detector Channels 
16  External MUX Channels 
1  Auxiliary Channels 
5000  Waveform (CCF) Frequency (Hz)
1  Waveforms Skipped 
30  Waveforms Averaged 
1  Cycles Averaged 
16  Acquisitions per Waveform 
10.0806  Updata Rate (Hz) 

#FILE INFORMATION
TRUE -- External MUX Channel results are PARSED.
FALSE -- AC DC and Phase are NOT grouped.
TRUE -- Companion Program Settings File CREATED.
FALSE -- AC data not excluded
FALSE -- DC data not excluded
FALSE -- Phase data not excluded
FALSE -- Auxillary Chn. data not excluded
Tab delimiters

#CALIBRATION STATE
TRUE -- Waveform Calibration Values APPLIED.


#AUX CALIBRATION VALUES
Val Type	aux-1	

Term	1.0000e+00	
Factor	0.0000e+00	


#WF CALIBRATION VALUES
A = Detector Channel
Val Type	A-AC1	A-AC2	A-AC3	A-AC4	A-AC5	A-AC6	A-AC7	A-AC8	A-AC9	A-AC10	A-AC11	A-AC12	A-AC13	A-AC14	A-AC15	A-AC16	A-DC1	A-DC2	A-DC3	A-DC4	A-DC5	A-DC6	A-DC7	A-DC8	A-DC9	A-DC10	A-DC11	A-DC12	A-DC13	A-DC14	A-DC15	A-DC16	A-Ph1	A-Ph2	A-Ph3	A-Ph4	A-Ph5	A-Ph6	A-Ph7	A-Ph8	A-Ph9	A-Ph10	A-Ph11	A-Ph12	A-Ph13	A-Ph14	A-Ph15	A-Ph16	

Term	0.00000e+00	0.00000e+00	0.00000e+00	0.00000e+00	0.00000e+00	0.00000e+00	0.00000e+00	0.00000e+00	0.00000e+00	0.00000e+00	0.00000e+00	0.00000e+00	0.00000e+00	0.00000e+00	0.00000e+00	0.00000e+00	0.00000e+00	0.00000e+00	0.00000e+00	0.00000e+00	0.00000e+00	0.00000e+00	0.00000e+00	0.00000e+00	0.00000e+00	0.00000e+00	0.00000e+00	0.00000e+00	0.00000e+00	0.00000e+00	0.00000e+00	0.00000e+00	0.00000e+00	0.00000e+00	0.00000e+00	0.00000e+00	0.00000e+00	0.00000e+00	0.00000e+00	0.00000e+00	0.00000e+00	0.00000e+00	0.00000e+00	0.00000e+00	0.00000e+00	0.00000e+00	0.00000e+00	0.00000e+00	
Factor	1.00000e+00	1.00000e+00	1.00000e+00	1.00000e+00	1.00000e+00	1.00000e+00	1.00000e+00	1.00000e+00	1.00000e+00	1.00000e+00	1.00000e+00	1.00000e+00	1.00000e+00	1.00000e+00	1.00000e+00	1.00000e+00	1.00000e+00	1.00000e+00	1.00000e+00	1.00000e+00	1.00000e+00	1.00000e+00	1.00000e+00	1.00000e+00	1.00000e+00	1.00000e+00	1.00000e+00	1.00000e+00	1.00000e+00	1.00000e+00	1.00000e+00	1.00000e+00	X	X	X	X	X	X	X	X	X	X	X	X	X	X	X	X	

B = Detector Channel
Val Type	B-AC1	B-AC2	B-AC3	B-AC4	B-AC5	B-AC6	B-AC7	B-AC8	B-AC9	B-AC10	B-AC11	B-AC12	B-AC13	B-AC14	B-AC15	B-AC16	B-DC1	B-DC2	B-DC3	B-DC4	B-DC5	B-DC6	B-DC7	B-DC8	B-DC9	B-DC10	B-DC11	B-DC12	B-DC13	B-DC14	B-DC15	B-DC16	B-Ph1	B-Ph2	B-Ph3	B-Ph4	B-Ph5	B-Ph6	B-Ph7	B-Ph8	B-Ph9	B-Ph10	B-Ph11	B-Ph12	B-Ph13	B-Ph14	B-Ph15	B-Ph16	

Term	0.00000e+00	0.00000e+00	0.00000e+00	0.00000e+00	0.00000e+00	0.00000e+00	0.00000e+00	0.00000e+00	0.00000e+00	0.00000e+00	0.00000e+00	0.00000e+00	0.00000e+00	0.00000e+00	0.00000e+00	0.00000e+00	0.00000e+00	0.00000e+00	0.00000e+00	0.00000e+00	0.00000e+00	0.00000e+00	0.00000e+00	0.00000e+00	0.00000e+00	0.00000e+00	0.00000e+00	0.00000e+00	0.00000e+00	0.00000e+00	0.00000e+00	0.00000e+00	1.37173e+01	-1.18228e+02	-1.12758e+02	-1.83080e+02	-7.15389e+01	-7.78103e+01	-1.57142e+02	-1.62015e+02	-8.64581e+01	-8.33328e+01	-1.74681e+02	-1.70893e+02	-1.86226e+02	-1.78823e+02	-6.33234e+01	-1.50760e+02	
Factor	3.86630e-05	1.07672e-04	3.58680e-05	1.52370e-01	1.43992e-06	1.45988e-06	1.51923e-01	5.45124e-02	1.38203e-06	1.18428e-06	1.31598e-01	2.66902e-02	3.84029e-02	8.59656e-03	1.43767e-06	1.22989e-02	8.31094e-07	8.48967e-07	2.35916e-07	7.55567e-02	9.27535e-09	9.30345e-09	7.09969e-02	2.68103e-02	9.28531e-09	9.29857e-09	5.97757e-02	1.26460e-02	1.79984e-02	4.20033e-03	9.30521e-09	5.78123e-03	X	X	X	X	X	X	X	X	X	X	X	X	X	X	X	X	



#DISTANCE SETTINGS
A = Detector Channel
A-1	A-2	A-3	A-4	A-5	A-6	A-7	A-8	A-9	A-10	A-11	A-12	A-13	A-14	A-15	A-16	

2.5000e+00	3.0000e+00	2.5000e+00	3.0000e+00	2.0000e+00	3.0000e+00	1.5000e+00	3.0000e+00	3.0000e+00	3.0000e+00	3.0000e+00	3.0000e+00	3.0000e+00	3.0000e+00	1.5000e+00	3.0000e+00	

B = Detector Channel
B-1	B-2	B-3	B-4	B-5	B-6	B-7	B-8	B-9	B-10	B-11	B-12	B-13	B-14	B-15	B-16	

1.0000e+01	1.0000e+01	1.0000e+01	1.4400e+00	1.0000e+01	1.0000e+01	1.5100e+00	1.9400e+00	1.0000e+01	1.0000e+01	1.9900e+00	2.4900e+00	2.4100e+00	2.9000e+00	1.0000e+01	2.9800e+00	




#DATA BEGINS
time	group	step	mark	flag	A-AC1	A-AC2	A-AC3	A-AC4	A-AC5	A-AC6	A-AC7	A-AC8	A-AC9	A-AC10	A-AC11	A-AC12	A-AC13	A-AC14	A-AC15	A-AC16	A-DC1	A-DC2	A-DC3	A-DC4	A-DC5	A-DC6	A-DC7	A-DC8	A-DC9	A-DC10	A-DC11	A-DC12	A-DC13	A-DC14	A-DC15	A-DC16	A-Ph1	A-Ph2	A-Ph3	A-Ph4	A-Ph5	A-Ph6	A-Ph7	A-Ph8	A-Ph9	A-Ph10	A-Ph11	A-Ph12	A-Ph13	A-Ph14	A-Ph15	A-Ph16	B-AC1	B-AC2	B-AC3	B-AC4	B-AC5	B-AC6	B-AC7	B-AC8	B-AC9	B-AC10	B-AC11	B-AC12	B-AC13	B-AC14	B-AC15	B-AC16	B-DC1	B-DC2	B-DC3	B-DC4	B-DC5	B-DC6	B-DC7	B-DC8	B-DC9	B-DC10	B-DC11	B-DC12	B-DC13	B-DC14	B-DC15	B-DC16	B-Ph1	B-Ph2	B-Ph3	B-Ph4	B-Ph5	B-Ph6	B-Ph7	B-Ph8	B-Ph9	B-Ph10	B-Ph11	B-Ph12	B-Ph13	B-Ph14	B-Ph15	B-Ph16	aux-1	digaux	

2639.410	1	1	0	131840	0.15894	0.059494	0.23992	0.25781	0.10023	0.11736	0.20163	0.31348	0.2734	0.26154	0.064227	0.11616	0.077148	0.2004	0.11034	0.14464	-2.4208	-2.6458	-3.0917	-2.7833	-2.9146	-2.9104	-2.85	-2.8667	-2.8604	-2.675	-3.1188	-2.6646	-2.8229	-2.7729	-2.5958	-2.7313	346.284	278.188	112.396	107.870	288.157	402.532	350.544	400.943	389.889	277.020	156.884	348.062	379.296	228.939	187.488	122.654	0.00023579	0.056709	0.00014724	221.38	7.0592e-06	7.3567e-06	405.38	48.999	2.3724e-06	1.031e-05	108.14	19.852	24.217	3.1315	6.1485e-06	10.032	0.00042013	0.0056667	0.00011948	260.94	4.9243e-06	4.6427e-06	751.67	62.116	4.5963e-06	5.1473e-06	131.88	38.818	117.88	5.1427	4.947e-06	12.638	309.801	371.274	60.082	69.744	279.839	231.328	74.017	75.575	336.940	415.892	74.705	88.583	115.231	87.102	172.539	85.539	-8191	255	
2639.506	1	1	0	131072	0.16506	0.12775	0.049674	0.19422	0.10722	0.1276	0.32062	0.20069	0.11511	0.067258	0.037959	0.23649	0.16093	0.19628	0.19486	0.064005	-2.4354	-2.6271	-3.0438	-2.6813	-2.8104	-2.9854	-2.7687	-2.8542	-2.8937	-2.6479	-2.85	-2.8458	-2.9021	-3.025	-2.6875	-2.9354	340.230	385.884	178.929	348.382	385.681	307.107	417.242	233.798	251.006	388.837	249.329	177.312	91.023	97.736	121.711	152.885	0.00025581	0.049355	0.00018288	223.01	1.2921e-05	6.6958e-06	337.59	48.105	3.8401e-06	8.1311e-06	107.26	29.726	19.486	3.0791	7.7993e-06	9.8528	0.00041107	0.0049683	0.00011834	258.45	5.3435e-06	4.8049e-06	796.79	62.521	4.8846e-06	5.4598e-06	133.69	36.15	134.01	5.2749	5.4441e-06	12.794	311.843	379.136	294.359	69.334	313.372	255.695	76.503	75.880	168.158	85.809	75.043	80.519	157.455	86.679	93.666	85.480	-8191	255	
2639.602	1	1	0	131072	0.12237	0.31331	0.19823	0.084896	0.2196	0.17981	0.1331	0.22347	0.079183	0.13605	0.12451	0.02028	0.062068	0.089444	0.081224	0.072677	-2.3604	-2.5604	-3.0083	-2.6667	-2.6188	-3.0104	-2.8063	-2.9313	-2.9667	-2.5354	-3.0187	-2.8979	-2.8458	-3.1021	-2.7812	-2.7625	376.523	341.670	262.431	300.944	413.457	334.098	167.679	80.057	381.713	331.147	124.292	400.263	203.718	236.665	160.422	420.827	0.00025051	0.068879	0.00013998	221.24	1.0535e-05	7.7308e-07	301.8	75.556	2.7044e-06	5.6014e-06	105.87	29.266	21.632	2.9932	6.8512e-06	9.6151	0.00044853	0.0064024	0.00013189	264.96	6.2768e-06	6.0492e-06	641.92	110.06	6.928e-06	7.8665e-06	150.65	39.297	149.52	6.5847	8.2812e-06	14.694	329.854	382.539	297.264	429.543	332.298	277.546	427.739	90.073	197.981	109.771	74.769	81.036	175.994	86.536	132.603	85.559	-8191	255	
2639.698	1	1	0	131072	0.088627	0.052666	0.18229	0.2016	0.14151	0.043516	0.062397	0.17387	0.35205	0.066315	0.29125	0.25854	0.12497	0.10369	0.23541	0.078052	-2.525	-2.7583	-2.8667	-2.9562	-2.6208	-2.9188	-2.8521	-2.9771	-3.0687	-2.6854	-2.8979	-2.8937	-2.7938	-2.8417	-2.7667	-2.7396	98.753	133.451	96.311	147.059	360.284	149.998	426.148	396.074	222.905	419.076	251.272	359.556	293.816	133.603	92.474	389.100	0.00028932	0.067628	0.00014084	219.88	1.0407e-05	9.1751e-06	335.82	68.89	3.4833e-06	8.8918e-06	103.18	28.667	20.427	2.9757	5.3251e-06	9.4446	0.00075342	0.006657	0.00022549	290.35	9.6121e-06	8.8483e-06	402.09	222.18	8.3399e-06	8.7324e-06	150.72	38.494	148	6.1236	6.9453e-06	14.01	257.995	388.413	355.351	429.598	358.254	138.490	429.942	90.997	255.911	429.860	74.695	81.050	183.051	86.447	244.202	85.956	-8191	255	
2639.794	1	1	0	131072	0.14852	0.13981	0.073247	0.11038	0.16711	0.097019	0.19773	0.13892	0.23457	0.17387	0.11638	0.089584	0.076878	0.2341	0.053968	0.22639	-2.4958	-2.7354	-3.0167	-2.9042	-2.5563	-3.0708	-2.8792	-2.85	-2.95	-2.7042	-3.0229	-2.9354	-2.7354	-2.9354	-2.8792	-2.6833	331.075	139.033	140.522	411.200	272.916	328.935	261.411	84.215	192.910	209.982	141.003	433.053	153.672	248.020	324.031	133.081	0.00024136	0.068968	0.00019821	219.87	1.1534e-05	2.8874e-06	334.41	66.49	7.6634e-07	6.9243e-06	106.56	28.936	19.559	3.0827	6.3189e-06	9.6053	0.00060697	0.0065387	0.00017558	273.31	7.557e-06	6.9412e-06	387.49	244.02	6.9711e-06	7.6149e-06	146.25	37.915	148.06	6.16	7.242e-06	14.49	308.569	393.752	411.021	429.290	332.550	82.170	429.946	92.213	243.031	379.489	434.209	81.594	190.164	87.348	310.593	86.427	-8191	255	
2639.890	1	1	0	131072	0.29132	0.16809	0.16234	0.33081	0.14852	0.1295	0.11379	0.0474	0.16009	0.23897	0.16842	0.15433	0.27965	0.079439	0.18949	0.26308	-2.6458	-2.9188	-2.6375	-2.8375	-2.7021	-3.0083	-2.8063	-2.7812	-3.1146	-2.7167	-2.8521	-2.9562	-2.8187	-2.8229	-2.825	-2.5375	431.799	277.195	359.012	328.742	202.350	158.623	254.272	412.753	161.120	392.358	311.688	322.197	357.724	396.150	315.585	363.348	0.00016935	0.062065	0.010202	216.22	2.2955e-05	1.209e-05	334.82	63.195	1.277e-05	1.7423e-05	105.49	28.823	16.33	2.826	1.0375e-05	9.5417	0.0007134	0.004066	0.00073545	318.31	1.5605e-05	1.8266e-05	497.34	288.75	2.8027e-05	3.0793e-05	312.68	74.438	193.39	20.425	4.1195e-05	38.083	298.867	372.498	109.348	429.191	333.993	318.285	429.817	93.444	401.698	393.691	433.958	80.513	186.224	84.281	348.833	86.633	-8191	255	
2640.009	1	1	0	131072	0.12073	0.1337	0.03468	0.1371	0.1597	0.058533	0.13368	0.22088	0.15689	0.15961	0.20763	0.18131	0.13389	0.11974	0.33947	0.16428	-2.6208	-2.9188	-2.8312	-3.1208	-2.8229	-3.0812	-2.9104	-2.4896	-2.7854	-2.4542	-2.6521	-2.6188	-2.2167	-2.4813	-2.5271	-2.2979	191.485	424.727	268.813	318.824	273.094	273.961	215.610	433.451	399.831	404.568	275.355	296.227	215.822	275.913	120.634	339.107	0.00015277	0.0021378	0.0050371	215.91	7.212e-05	4.2799e-05	335.12	45.485	8.1209e-06	1.7727e-06	0.067438	0.0095829	0.018129	0.0024102	1.0521e-07	0.002806	0.0043874	0.0050684	0.0028908	810.63	8.4069e-05	8.8364e-05	995.92	337.08	3.9582e-06	2.0038e-07	-1.5011	-0.36104	-0.42075	-0.094289	-1.8176e-07	-0.097739	288.362	326.204	111.571	428.601	361.493	337.004	429.691	105.166	194.181	198.206	94.170	91.713	251.530	383.601	361.890	147.195	-8191	255	
2640.105	1	1	0	0	0.151	0.090911	0.15589	0.28354	0.14444	0.14959	0.11091	0.13551	0.12904	0.15879	0.058542	0.16789	0.051352	0.14597	0.2238	0.13918	-2.225	-2.3937	-2.5	-2.6354	-2.3854	-2.5729	-2.7687	-2.3354	-2.7313	-2.6562	-2.3063	-2.6896	-2.375	-2.6312	-2.5042	-2.4521	7.807	-19.102	299.652	246.692	130.953	312.330	138.613	113.717	291.603	265.559	292.563	178.364	284.327	56.453	74.828	167.234	2.3318e-06	3.588e-05	4.7834e-06	0.025042	1.2089e-07	4.8374e-07	0.025955	0.0058534	5.7957e-08	1.1528e-07	0.0048728	0.0013702	0.0043493	0.0012648	1.2932e-07	0.0011298	-1.2591e-05	-1.1608e-05	-2.858e-06	-0.88149	-9.7121e-08	-9.2395e-08	-0.66678	-0.22666	-7.6971e-08	-7.3943e-08	-0.43512	-0.092	-0.1204	-0.027582	-5.9708e-08	-0.035639	195.221	283.159	141.407	181.748	114.271	186.730	241.256	-1.756	55.561	1.350	152.491	133.621	-16.314	-15.259	221.904	257.030	-8191	255	
2640.202	1	1	0	0	0.26304	0.12784	0.059111	0.17605	0.097991	0.24991	0.10586	0.31227	0.18087	0.034761	0.14592	0.1716	0.16754	0.13221	0.41611	0.17219	-2.4292	-2.5021	-2.3312	-2.5854	-2.3021	-2.4604	-2.6604	-2.3208	-2.7083	-2.3917	-2.4062	-2.6854	-2.3146	-2.3729	-2.5604	-2.425	287.378	376.762	249.772	295.937	465.371	160.259	246.445	300.539	363.315	287.229	153.601	297.621	287.348	174.268	230.856	298.227	9.7155e-06	2.0164e-05	4.8104e-06	0.024588	3.3749e-07	2.1554e-07	0.030585	0.010773	1.4098e-07	2.4496e-07	0.015449	0.0050887	0.0099339	0.00091933	2.679e-07	0.003283	-4.6662e-06	-4.8338e-06	-1.2666e-06	-0.42721	-4.8947e-08	-4.7622e-08	-0.37747	-0.13031	-4.515e-08	-4.5137e-08	-0.25629	-0.057697	-0.076756	-0.017335	-4.3075e-08	-0.022715	116.630	143.273	239.015	379.688	160.639	423.371	422.429	131.300	427.491	165.453	382.258	320.819	422.480	120.118	170.702	246.261	-8191	255	
2640.298	1	1	0	0	0.17496	0.042265	0.23383	0.11842	0.11888	0.14237	0.039836	0.25249	0.24353	0.2032	0.13282	0.2537	0.23314	0.079832	0.048216	0.21635	-2.2542	-2.575	-2.2833	-2.6896	-2.6208	-2.6688	-2.5583	-2.6229	-2.6417	-2.5146	-2.3167	-2.8917	-2.5	-2.4688	-2.7188	-2.2646	461.068	322.747	343.095	432.722	376.523	365.545	441.557	465.962	298.005	462.878	245.949	145.307	327.740	420.657	315.855	274.606	8.5184e-06	4.2797e-06	2.8807e-06	0.018434	4.3192e-07	2.9643e-07	0.005064	0.0091275	5.5984e-07	2.0364e-07	0.013192	0.0062321	0.0021919	0.0014146	2.6585e-07	0.001145	-3.2447e-06	-3.6223e-06	-9.3236e-07	-0.31907	-3.6792e-08	-3.4345e-08	-0.28621	-0.097746	-3.6812e-08	-3.5121e-08	-0.20411	-0.048608	-0.065694	-0.01485	-3.5495e-08	-0.019969	426.372	413.204	478.293	308.975	299.874	219.093	137.858	136.981	329.451	359.457	419.667	416.271	355.095	388.331	229.075	241.805	-8191	255	
2640.394	1	1	0	0	0.16447	0.31722	0.1489	0.12964	0.14851	0.081583	0.15237	0.11731	0.33525	0.21689	0.21188	0.14771	0.042143	0.14698	0.12801	0.22223	-2.0083	-2.5167	-2.3417	-2.6292	-2.6229	-2.3958	-2.5708	-2.5438	-2.6708	-2.6917	-2.2667	-2.5563	-2.6146	-2.5146	-2.6792	-2.5062	275.678	60.856	263.849	180.890	25.026	85.598	191.736	89.429	125.260	159.821	191.637	229.790	99.166	185.135	68.556	256.680	6.784e-06	3.3468e-06	2.7072e-06	0.027705	2.0944e-07	1.8131e-07	0.014234	0.0064968	3.1515e-07	1.3471e-07	0.015581	0.0021185	0.0046592	0.00075194	1.9636e-07	0.0025461	-2.6716e-06	-3.0068e-06	-7.7066e-07	-0.27012	-3.2193e-08	-3.0449e-08	-0.26106	-0.087468	-3.1647e-08	-3.3901e-08	-0.18506	-0.041626	-0.05977	-0.013039	-3.2781e-08	-0.018464	344.928	203.158	87.204	338.190	152.169	205.540	304.068	10.899	137.895	151.574	70.036	80.989	272.206	268.601	122.738	296.266	-8191	255	
2640.490	1	1	0	0	0.11598	0.33969	0.11948	0.093854	0.086953	0.24109	0.033004	0.16932	0.015987	0.12768	0.17645	0.17198	0.3239	0.081363	0.10637	0.24536	-2.0375	-2.7958	-2.3125	-2.5375	-2.5479	-2.3875	-2.6708	-2.5125	-2.5563	-2.6521	-2.3375	-2.5771	-2.5229	-2.3292	-2.5458	-2.5625	193.481	16.792	-8.597	259.222	93.921	129.065	241.653	-9.239	233.886	44.782	-1.633	137.134	230.237	-35.713	196.444	152.068	1.0043e-05	1.6056e-05	5.5264e-06	0.037026	3.38e-07	5.3642e-08	0.014185	0.0095702	6.7226e-08	1.5281e-07	0.01708	0.0043375	0.0037698	0.00020314	1.2027e-07	0.0021595	-2.3652e-06	-2.8883e-06	-6.8612e-07	-0.25233	-2.9952e-08	-2.8628e-08	-0.23518	-0.084341	-2.803e-08	-3.3843e-08	-0.18742	-0.039545	-0.06007	-0.01184	-3.125e-08	-0.017139	269.997	142.921	295.712	304.504	17.479	264.144	251.197	-22.944	160.215	11.130	-14.391	196.095	170.802	-13.912	40.457	285.710	-8191	255	
2640.611	1	1	0	0	0.068505	0.069404	0.20559	0.28044	0.14983	0.20941	0.038244	0.12347	0.047855	0.1866	0.20016	0.082553	0.08402	0.030906	0.23171	0.15684	-1.9396	-2.6771	-2.3167	-2.6375	-2.8208	-2.4188	-2.7521	-2.55	-2.4042	-2.6854	-2.3875	-2.45	-2.6042	-2.2958	-2.5917	-2.4833	171.608	249.042	215.616	334.963	164.324	254.598	277.651	72.092	180.104	178.499	137.785	318.997	173.705	228.913	154.267	216.827	4.5188e-06	1.7426e-05	5.9087e-06	0.03242	1.5079e-07	4.4851e-07	0.025377	0.020132	2.051e-08	4.3199e-07	0.013418	0.0012013	0.0042116	0.0011708	1.7782e-07	0.0017125	-2.1193e-06	-2.7556e-06	-6.5811e-07	-0.22935	-2.8908e-08	-2.6592e-08	-0.22763	-0.083112	-2.832e-08	-2.9736e-08	-0.17846	-0.038017	-0.057895	-0.011962	-2.7838e-08	-0.017151	329.828	322.261	70.285	199.546	323.199	227.656	245.784	37.692	31.995	351.196	250.001	145.331	188.923	332.754	100.370	34.723	-8191	255	
2640.705	1	1	0	0	0.10947	0.096334	0.14289	0.17991	0.15817	0.18859	0.019111	0.1505	0.2169	0.32197	0.1113	0.19679	0.18304	0.21825	0.11707	0.087956	-2.0917	-2.6875	-2.3854	-2.6375	-2.5396	-2.2125	-2.6979	-2.5208	-2.5083	-2.7604	-2.4625	-2.3896	-2.55	-2.2958	-2.7833	-2.5958	296.936	11.714	196.703	204.566	34.065	140.590	84.021	-0.580	84.869	117.398	131.305	9.288	101.939	115.660	200.380	311.633	3.2479e-06	8.4431e-06	2.0898e-06	0.026688	3.0121e-07	3.8985e-07	0.030375	0.015388	7.3017e-08	3.0223e-07	0.014764	0.0025962	0.0067544	0.00099144	3.6639e-07	0.0019213	-2.0518e-06	-2.821e-06	-6.6351e-07	-0.22746	-3.0338e-08	-2.5585e-08	-0.21728	-0.079481	-2.6386e-08	-2.9542e-08	-0.1731	-0.037964	-0.055233	-0.01128	-2.8672e-08	-0.016934	106.061	78.692	68.530	267.149	84.733	186.016	105.341	-14.276	33.132	1.030	23.267	189.826	177.275	152.134	253.154	61.957	-8191	255	
2640.801	1	1	0	0	0.066803	0.30849	0.11332	0.17479	0.2003	0.15816	0.32549	0.13249	0.21809	0.10839	0.24456	0.10261	0.30909	0.21383	0.33398	0.17309	-2.0187	-2.8958	-2.4292	-2.5042	-2.7458	-2.4229	-2.575	-2.6917	-2.5021	-2.6333	-2.4917	-2.5396	-2.7771	-2.3146	-2.5417	-2.6229	-18.010	313.807	124.490	212.312	60.671	72.144	191.981	78.518	-18.619	72.504	196.653	225.395	283.441	23.437	77.101	152.614	1.8861e-06	1.5182e-05	2.9077e-06	0.040244	3.4791e-07	3.1436e-07	0.025466	0.011772	2.9601e-07	2.445e-07	0.03579	0.0021801	0.0031652	0.0015483	8.8314e-08	0.00041531	-1.8596e-06	-2.7627e-06	-6.7138e-07	-0.20794	-2.9584e-08	-2.5817e-08	-0.20707	-0.080822	-2.4161e-08	-2.8709e-08	-0.17472	-0.033459	-0.052458	-0.01149	-2.7877e-08	-0.017296	267.313	-13.242	22.056	6.270	-7.076	56.702	175.416	-21.267	109.758	233.485	77.869	265.597	14.844	-17.216	188.536	120.966	-8191	255	
2640.897	1	1	0	0	0.16518	0.19518	0.19254	0.21836	0.050961	0.12697	0.14184	0.061174	0.20834	0.13644	0.17534	0.37915	0.11406	0.11788	0.11448	0.1805	-1.8271	-2.5854	-2.4208	-2.3063	-2.6688	-2.4104	-2.5771	-2.7229	-2.2729	-2.7167	-2.5167	-2.3958	-2.8167	-2.4708	-2.6542	-2.6083	129.265	364.133	376.804	333.366	393.470	471.716	465.248	265.034	469.643	444.578	361.858	370.124	272.764	341.010	376.530	193.988	9.8682e-06	1.4722e-05	3.3991e-06	0.008975	3.4878e-07	1.4543e-07	0.01241	0.0039226	2.4997e-07	1.9431e-07	0.027982	0.0076713	0.0061638	0.00068486	7.2483e-08	0.0018384	-1.8475e-06	-2.4673e-06	-6.5221e-07	-0.1922	-2.7633e-08	-2.5836e-08	-0.20338	-0.080654	-2.4587e-08	-2.7954e-08	-0.1736	-0.032511	-0.056245	-0.011463	-2.7644e-08	-0.018392	337.764	326.447	219.524	330.708	282.081	451.634	223.304	130.822	215.843	219.218	381.037	426.611	414.331	402.868	356.547	273.473	-8191	255	
2640.993	1	1	0	0	0.065246	0.39681	0.096135	0.047371	0.15001	0.17062	0.24618	0.050035	0.10959	0.19688	0.11691	0.1785	0.16357	0.12939	0.034593	0.039558	-2.0271	-2.7062	-2.6083	-2.4062	-2.7646	-2.5229	-2.4646	-2.6729	-2.5021	-2.5208	-2.5417	-2.4417	-2.7938	-2.4062	-2.4708	-2.6292	12.324	257.860	48.474	330.810	1.499	24.230	246.030	214.099	122.798	0.288	161.118	336.454	214.583	261.615	103.782	185.077	1.3804e-06	3.196e-06	5.2653e-06	0.013617	1.1611e-07	1.6297e-07	0.018983	0.0047241	6.7742e-08	1.4564e-07	0.0096805	0.0064905	0.0075892	0.0016341	3.0281e-07	0.0026257	-1.7245e-06	-2.5221e-06	-7.0038e-07	-0.19235	-2.6686e-08	-2.4422e-08	-0.19997	-0.077694	-2.331e-08	-2.8826e-08	-0.18057	-0.031457	-0.054108	-0.011665	-2.4891e-08	-0.017585	118.165	262.310	12.847	173.014	278.872	51.881	251.181	5.478	181.926	136.497	140.249	179.052	49.447	42.712	149.094	332.974	-8191	255	
2641.090	1	1	0	0	0.15653	0.249	0.10756	0.21124	0.14976	0.14564	0.25685	0.19617	0.09144	0.17058	0.051281	0.49666	0.21222	0.34455	0.18515	0.19937	-1.6604	-2.5646	-2.4604	-2.3271	-2.6729	-2.475	-2.4875	-2.5583	-2.3812	-2.6188	-2.7396	-2.3937	-2.6667	-2.5021	-2.5563	-2.7604	205.519	137.777	204.814	261.207	274.408	431.968	401.551	343.558	353.515	185.986	237.019	155.398	257.781	419.055	272.382	191.050	9.9188e-06	1.8883e-05	6.1645e-06	0.0096027	1.2413e-07	2.2639e-07	0.03901	0.0065877	4.2668e-08	3.2823e-07	0.00889	0.002618	0.0083796	0.0003241	1.8048e-07	0.0014096	-1.7817e-06	-2.3895e-06	-6.8711e-07	-0.18527	-2.8193e-08	-2.5371e-08	-0.18385	-0.081715	-2.4335e-08	-2.5126e-08	-0.16924	-0.031931	-0.052008	-0.011428	-2.4504e-08	-0.017187	290.919	284.034	288.720	189.595	193.852	273.487	242.310	113.418	281.342	340.374	397.509	447.527	353.606	99.467	400.876	396.283	-8191	255	
2641.186	1	1	0	0	0.20784	0.28978	0.43701	0.089397	0.21202	0.11014	0.21509	0.23788	0.089944	0.20823	0.1722	0.12774	0.087753	0.29349	0.24883	0.43061	-2.0396	-2.5229	-2.3937	-2.4208	-2.8063	-2.4458	-2.3729	-2.6521	-2.3875	-2.5417	-2.7771	-2.3604	-2.4125	-2.4313	-2.3438	-2.5979	253.300	83.558	183.774	340.244	271.707	139.685	153.798	433.640	199.627	389.679	256.930	312.414	143.587	195.324	139.543	395.686	7.3092e-06	4.5323e-05	9.8279e-06	0.050039	3.2579e-08	2.3568e-07	0.014713	0.010822	1.799e-07	1.6759e-07	0.027331	0.0051358	0.0044123	0.0011184	3.0534e-07	0.0030792	-1.7782e-06	-2.3736e-06	-6.9055e-07	-0.20227	-2.6126e-08	-2.698e-08	-0.19095	-0.085402	-2.478e-08	-2.5532e-08	-0.17684	-0.030746	-0.049458	-0.011446	-2.3147e-08	-0.01791	164.894	165.351	146.023	106.155	425.762	158.113	424.664	95.720	392.939	189.749	214.528	147.313	284.765	279.306	217.410	416.394	-8191	255	
2641.282	1	1	0	0	0.37469	0.20091	0.22998	0.089318	0.11602	0.14445	0.21786	0.043488	0.24939	0.076506	0.14581	0.29064	0.13907	0.24499	0.22747	0.1516	-2.0125	-2.4625	-2.4667	-2.425	-2.6229	-2.6396	-2.3604	-2.6854	-2.2917	-2.4875	-2.7042	-2.3729	-2.6896	-2.6312	-2.4125	-2.8979	105.476	81.686	166.738	212.320	80.679	-67.457	-27.345	-0.959	-85.896	78.065	-13.826	-37.985	63.747	30.592	-124.327	121.154	1.0192e-05	9.1342e-06	8.1909e-06	0.006965	1.7778e-07	3.0512e-07	0.0074182	0.0070152	3.5857e-07	2.154e-07	0.024454	0.0031515	0.010045	0.002377	2.6001e-07	0.00077863	-1.8526e-06	-2.1543e-06	-6.9251e-07	-0.19062	-2.4773e-08	-2.5643e-08	-0.17912	-0.081492	-2.4122e-08	-2.4583e-08	-0.18917	-0.033196	-0.050958	-0.012452	-2.5609e-08	-0.016513	62.478	34.646	223.320	35.257	48.384	-36.778	52.610	-116.658	188.947	117.097	193.317	-100.542	-25.298	44.325	45.448	110.679	-8191	255	
2641.378	1	1	0	0	0.14406	0.14406	0.30026	0.22058	0.10694	0.17953	0.22969	0.25096	0.1587	0.25204	0.11824	0.21708	0.053183	0.19495	0.07481	0.12145	-1.9958	-2.5521	-2.8021	-2.2604	-2.6354	-2.6625	-2.4479	-2.5708	-2.5271	-2.3625	-2.7979	-2.5271	-2.6958	-2.9458	-2.3542	-2.6167	209.368	-29.690	-48.634	53.994	265.449	251.759	56.350	202.312	123.167	232.204	3.220	-1.142	-42.220	251.577	222.690	270.618	5.1774e-06	1.3294e-05	6.9375e-06	0.025428	1.1022e-07	1.2908e-07	0.0040534	0.0049284	3.7881e-07	2.6629e-07	0.020472	0.0034835	0.0074489	0.00085498	1.1884e-07	0.0029736	-1.8769e-06	-2.3983e-06	-7.1954e-07	-0.17803	-2.628e-08	-2.6437e-08	-0.16729	-0.076912	-2.4316e-08	-2.4912e-08	-0.17796	-0.035014	-0.052683	-0.012198	-2.3631e-08	-0.016778	82.004	132.467	264.869	-56.220	127.996	-36.124	302.665	-39.203	-1.102	-32.805	-16.291	-20.693	154.485	184.784	76.541	113.935	-8191	255	
2641.499	1	1	0	0	0.27493	0.13542	0.19598	0.10897	0.15398	0.29827	0.34638	0.053319	0.024852	0.21802	0.21419	0.11113	0.21393	0.054119	0.092441	0.087858	-2.3937	-2.3521	-2.7625	-2.5812	-2.625	-2.7438	-2.3917	-2.6333	-2.5521	-2.45	-2.6479	-2.425	-2.5333	-2.5521	-2.4562	-2.6646	88.197	281.593	189.470	182.042	104.051	119.486	-11.091	15.706	47.288	206.246	219.125	256.758	333.558	68.745	57.619	275.108	8.0949e-06	4.2614e-06	5.2298e-06	0.0089275	2.418e-07	4.8024e-07	0.018789	0.0090167	1.1433e-07	9.9836e-08	0.024609	0.0012972	0.00023296	0.00015079	2.5103e-07	0.0021135	-1.8596e-06	-2.1189e-06	-6.9448e-07	-0.19582	-2.5894e-08	-2.7523e-08	-0.17794	-0.072667	-2.4954e-08	-2.3518e-08	-0.17534	-0.034487	-0.047133	-0.01233	-2.3806e-08	-0.01591	28.715	135.763	12.704	159.354	115.856	318.395	68.895	5.966	104.445	20.733	334.614	0.374	122.471	273.101	83.137	280.498	-8191	255	
2641.570	1	1	0	0	0.14885	0.10001	0.20557	0.017326	0.17205	0.23386	0.16044	0.12594	0.12018	0.22927	0.15815	0.12965	0.15512	0.18841	0.16555	0.17525	-2.2125	-2.3417	-2.6583	-2.4146	-2.425	-2.7083	-2.3542	-2.5583	-2.7583	-2.4042	-2.8292	-2.4979	-2.6021	-2.8375	-2.4083	-2.6958	137.935	75.249	38.311	128.508	-24.043	295.682	230.783	166.492	316.438	282.325	243.609	259.450	287.590	58.407	59.450	193.928	8.2389e-06	1.9917e-05	2.6725e-06	0.044782	3.2384e-07	2.1565e-07	0.024058	0.012461	3.2362e-07	3.2092e-07	0.014392	0.0037776	0.0039006	0.0011916	4.7595e-07	0.00051632	-1.8769e-06	-2.1525e-06	-6.7285e-07	-0.20038	-2.487e-08	-2.6767e-08	-0.18563	-0.073952	-2.6502e-08	-2.2685e-08	-0.17522	-0.033433	-0.047471	-0.01177	-2.4484e-08	-0.015368	164.804	3.046	55.939	11.128	300.552	227.206	243.533	-16.005	19.220	26.088	209.339	305.120	281.510	87.612	180.168	8.129	-8191	255	
2641.691	1	1	0	0	0.1704	0.061356	0.099762	0.22863	0.11603	0.20509	0.058287	0.34963	0.24115	0.10377	0.19499	0.2397	0.045902	0.012729	0.20902	0.29988	-2.1708	-2.2604	-2.7771	-2.4583	-2.5438	-2.8	-2.4938	-2.5958	-2.7875	-2.3	-2.9	-2.4917	-2.2625	-2.7542	-2.2771	-2.4396	139.658	32.740	178.184	232.089	-25.325	113.958	216.590	-45.024	245.591	67.051	188.640	-43.225	-46.103	108.216	209.046	73.075	5.2338e-06	1.5934e-05	7.2883e-06	0.030467	1.0299e-07	1.317e-07	0.015967	0.0075496	8.3078e-08	1.5804e-07	0.033965	0.0027178	0.014679	0.0011895	7.9361e-08	0.00060188	-2.0362e-06	-2.133e-06	-7.1315e-07	-0.20038	-2.4039e-08	-2.6786e-08	-0.18311	-0.06764	-2.6618e-08	-2.3324e-08	-0.17073	-0.033117	-0.044846	-0.013074	-2.2604e-08	-0.015164	245.557	146.246	268.833	97.309	72.506	90.034	110.060	-50.676	140.839	185.723	242.136	235.979	-55.913	275.857	199.719	171.039	-8191	255	
2641.785	1	1	0	0	0.043844	0.22592	0.04647	0.17574	0.17207	0.20684	0.24659	0.16802	0.10536	0.081165	0.19184	0.19182	0.16705	0.10876	0.25125	0.12878	-2.0229	-2.1958	-2.7938	-2.4708	-2.4333	-2.8521	-2.4875	-2.6292	-2.8167	-2.2917	-2.5854	-2.4771	-2.3833	-2.625	-2.5229	-2.55	163.596	5.692	18.991	167.235	157.519	101.610	289.699	316.538	86.246	188.877	245.009	173.839	97.892	316.357	335.210	326.056	5.1599e-06	3.5062e-05	6.8869e-06	0.015842	6.2737e-07	1.8703e-07	0.010928	0.0091494	3.8752e-07	4.83e-08	0.024777	0.0053743	0.005245	0.00081799	2.3791e-07	0.0017279	-1.9998e-06	-1.9562e-06	-6.468e-07	-0.21014	-2.3324e-08	-2.8395e-08	-0.18326	-0.070433	-2.6173e-08	-2.3014e-08	-0.166	-0.032563	-0.040646	-0.012303	-2.4407e-08	-0.014164	165.106	303.627	89.716	30.867	232.353	123.625	67.025	9.317	121.043	297.519	6.043	231.653	58.491	321.224	193.776	57.020	-8191	255	
2641.882	1	1	0	0	0.15171	0.23721	0.13017	0.22314	0.16719	0.10585	0.12445	0.059326	0.15377	0.077694	0.14189	0.17335	0.20323	0.13338	0.19723	0.29901	-2.3354	-2.3917	-2.625	-2.5229	-2.4271	-2.8167	-2.5729	-2.6417	-2.7562	-2.3542	-2.7521	-2.7313	-2.2438	-2.5938	-2.6667	-2.2854	124.147	283.430	318.262	263.675	258.346	179.413	331.039	151.776	76.741	114.091	87.411	207.409	317.397	313.147	137.634	16.959	5.1466e-06	1.5291e-05	3.7427e-06	0.025099	1.8163e-07	2.67e-07	0.026154	0.011695	1.7375e-07	3.3857e-07	0.014304	0.00098886	0.0073584	0.0022448	4.3059e-07	0.0023093	-1.9721e-06	-2.1772e-06	-6.5172e-07	-0.21565	-2.114e-08	-2.6941e-08	-0.1908	-0.06764	-2.7817e-08	-2.4757e-08	-0.15704	-0.036094	-0.043871	-0.011997	-2.4232e-08	-0.01361	162.258	343.073	336.874	169.174	157.617	207.691	260.940	1.891	332.839	153.887	226.186	169.027	186.052	285.627	54.453	41.626	-8191	255	
2641.979	1	1	0	0	0.090641	0.16141	0.049268	0.22557	0.089208	0.078696	0.27033	0.087055	0.13081	0.11221	0.14378	0.036756	0.046152	0.23984	0.24776	0.024891	-2.2792	-2.5083	-2.5146	-2.6667	-2.3729	-2.6312	-2.5563	-2.4604	-2.775	-2.3937	-2.4354	-2.775	-2.3646	-2.7333	-2.7333	-2.5604	332.572	234.826	226.958	242.377	262.985	144.886	320.444	182.681	329.499	294.557	467.200	287.715	331.620	328.553	158.079	160.643	6.5073e-06	1.849e-05	1.1629e-05	0.028566	2.9334e-07	1.1078e-07	0.0091249	0.0079837	2.425e-07	1.1968e-07	0.0088706	0.0078841	0.010207	0.0015217	3.6007e-07	0.0031607	-2.05e-06	-2.1808e-06	-6.2469e-07	-0.20967	-2.2802e-08	-2.6302e-08	-0.20441	-0.065071	-2.6695e-08	-2.3711e-08	-0.15666	-0.03583	-0.043946	-0.012041	-2.5861e-08	-0.013658	351.744	260.565	405.558	157.024	360.891	315.994	440.259	135.165	365.993	457.513	290.687	384.340	451.188	408.788	353.072	290.592	-8191	255	
2642.098	1	1	0	0	0.3422	0.2315	0.34312	0.17811	0.080939	0.1592	0.212	0.2404	0.066845	0.2112	0.11344	0.14133	0.20339	0.10702	0.43522	0.17228	-2.4583	-2.4229	-2.4896	-2.9333	-2.6125	-2.6333	-2.6979	-2.4354	-2.7583	-2.4	-2.4958	-2.8438	-2.4542	-2.6	-2.6708	-2.425	250.052	8.396	4.493	306.164	164.037	84.879	73.031	350.471	190.300	67.925	112.832	120.590	275.075	15.075	135.549	150.126	3.1723e-06	1.5416e-05	4.0242e-06	0.011859	2.9511e-07	1.4382e-07	0.046743	0.018456	5.7235e-08	1.8877e-07	0.045403	0.003534	0.003343	0.0017482	4.3939e-07	0.0026607	-2.0379e-06	-2.3736e-06	-5.952e-07	-0.21219	-2.2647e-08	-2.6612e-08	-0.18208	-0.065518	-2.7411e-08	-2.4583e-08	-0.15542	-0.035883	-0.045483	-0.01149	-2.65e-08	-0.013995	259.563	331.340	150.776	18.362	95.748	292.479	155.481	14.476	231.416	55.988	189.726	211.425	299.812	65.912	106.630	187.063	-8191	255	
2642.194	1	1	0	0	0.11183	0.12668	0.12994	0.09604	0.12328	0.23066	0.19638	0.13451	0.099852	0.18406	0.10369	0.076995	0.26768	0.22699	0.18955	0.18331	-2.3104	-2.4646	-2.4896	-2.7833	-2.4625	-2.7354	-2.7833	-2.4313	-2.9667	-2.4542	-2.4354	-2.8063	-2.6417	-2.7542	-2.7021	-2.3917	404.193	136.656	207.280	384.832	448.055	195.721	440.941	118.516	233.693	273.142	284.660	438.305	117.982	391.276	445.608	381.992	1.2507e-05	6.5796e-07	6.4106e-07	0.017308	3.6281e-07	3.418e-07	0.019977	0.016672	1.9854e-07	1.3416e-07	0.020564	0.0013504	0.0015998	0.0015484	2.3256e-07	0.003131	-1.9964e-06	-2.2215e-06	-5.9765e-07	-0.21754	-2.344e-08	-2.6476e-08	-0.20382	-0.060993	-2.7353e-08	-2.4777e-08	-0.15168	-0.03583	-0.044134	-0.010492	-2.778e-08	-0.013767	205.212	109.321	251.209	129.674	152.312	288.824	176.092	124.015	114.962	192.732	465.713	427.396	309.320	302.303	403.886	303.003	-8191	255	
2642.291	1	1	0	0	0.15109	0.21918	0.2634	0.17134	0.068813	0.056746	0.07451	0.19462	0.078718	0.091009	0.24033	0.19667	0.089198	0.086608	0.32526	0.15021	-2.1604	-2.5771	-2.4229	-2.7021	-2.5104	-2.7542	-2.8083	-2.4375	-2.7083	-2.6479	-2.425	-2.5958	-2.45	-2.5625	-2.6833	-2.3396	179.423	192.470	447.510	249.030	293.309	438.120	393.795	395.294	354.886	335.656	178.345	344.040	173.099	310.534	298.001	447.990	3.9916e-06	5.4993e-06	8.3444e-06	0.014208	2.1424e-07	1.8247e-07	0.040404	0.0076613	3.4673e-07	1.3824e-07	0.012287	0.0078597	0.0045941	0.00067337	2.1778e-07	0.0022357	-1.8457e-06	-2.2091e-06	-5.9028e-07	-0.22872	-2.4947e-08	-2.5875e-08	-0.19953	-0.062278	-2.5844e-08	-2.5571e-08	-0.14309	-0.035198	-0.044659	-0.010737	-2.6733e-08	-0.013779	179.369	311.677	516.738	525.008	204.441	171.601	321.692	188.820	359.951	266.331	449.723	359.365	491.417	298.353	448.591	498.985	-8191	255	
2642.387	1	1	0	0	0.041107	0.21091	0.14203	0.12017	0.15025	0.1117	0.28802	0.19454	0.17261	0.353	0.16963	0.21851	0.20621	0.13553	0.067636	0.38844	-2.3646	-2.6396	-2.3271	-2.7313	-2.6729	-2.675	-2.6437	-2.3354	-2.6979	-2.7812	-2.4125	-2.8208	-2.6604	-2.5729	-2.7604	-2.4792	182.241	440.502	348.641	269.581	144.024	438.910	437.178	208.848	248.076	208.028	452.755	227.765	352.588	326.931	192.159	420.678	2.4489e-06	1.7063e-05	2.9136e-06	0.022965	3.0436e-07	1.3754e-07	0.026621	0.0083488	4.1555e-07	1.9705e-07	0.012212	0.00069199	0.0061534	0.0018941	9.8809e-08	0.00068923	-1.8613e-06	-2.3718e-06	-5.4015e-07	-0.22384	-2.2164e-08	-2.5391e-08	-0.20471	-0.064345	-2.596e-08	-2.7993e-08	-0.14583	-0.03533	-0.050546	-0.010361	-2.7916e-08	-0.014333	469.393	469.636	347.642	471.745	364.583	285.905	272.860	152.614	420.487	428.767	226.660	478.216	290.230	484.807	193.154	224.852	-8191	255	
2642.483	1	1	0	0	0.37619	0.11526	0.12534	0.20988	0.069244	0.21148	0.18864	0.062867	0.061785	0.058133	0.1088	0.10409	0.17474	0.3099	0.17829	0.21254	-2.3146	-2.8708	-2.3229	-2.7146	-2.525	-2.6396	-2.7896	-2.6	-2.6312	-2.8083	-2.2667	-2.7625	-2.4896	-2.3979	-2.7375	-2.5333	135.656	160.700	-56.071	-93.953	99.237	168.564	59.743	-76.620	93.299	33.058	-101.891	138.290	98.873	54.085	214.033	6.192	4.133e-06	1.8657e-05	8.8882e-06	0.027734	2.7624e-07	3.4435e-07	0.012161	0.0042329	1.931e-07	3.0118e-07	0.016596	0.0071001	0.0089107	0.0013317	2.8469e-07	0.0010433	-1.9652e-06	-2.4779e-06	-5.7357e-07	-0.2051	-2.4058e-08	-2.2949e-08	-0.21136	-0.067752	-2.5399e-08	-2.6578e-08	-0.14209	-0.033749	-0.048221	-0.009967	-2.6442e-08	-0.014574	-66.445	-85.868	167.141	122.715	43.400	29.055	-39.376	-117.096	141.783	41.132	29.480	153.997	-59.696	7.487	-101.553	145.666	-8191	255	
2642.579	1	1	0	0	0.12573	0.18091	0.1667	0.10757	0.22495	0.29151	0.30605	0.22221	0.2472	0.1323	0.25691	0.19138	0.048676	0.18364	0.10513	0.26425	-2.0708	-2.7521	-2.425	-2.7938	-2.75	-2.3333	-2.8042	-2.5604	-2.6729	-2.8812	-2.4437	-2.6729	-2.5438	-2.3208	-2.9	-2.5979	170.303	-17.846	194.671	-96.484	147.457	26.827	-47.809	188.320	129.894	-132.756	-30.048	-23.723	193.290	164.860	-77.059	107.700	8.4235e-06	3.1265e-05	5.6642e-06	0.035759	3.6593e-07	1.3517e-07	0.02213	0.0058353	9.4826e-08	1.2904e-07	0.018003	0.002107	0.003537	0.00062964	1.1928e-07	0.0023983	-1.7453e-06	-2.2834e-06	-5.7603e-07	-0.20023	-2.6048e-08	-2.2173e-08	-0.20042	-0.068199	-2.2285e-08	-2.7063e-08	-0.13948	-0.036041	-0.049496	-0.010317	-2.6752e-08	-0.014995	-53.958	11.181	85.154	111.113	-81.642	13.914	15.385	-131.068	-132.736	-37.471	40.903	-5.736	122.446	109.020	125.618	159.941	-8191	255	
2642.675	1	1	0	0	0.079284	0.29048	0.1948	0.30409	0.2285	0.10884	0.19707	0.22615	0.20494	0.096442	0.1134	0.12401	0.11141	0.050042	0.20525	0.26857	-2.1417	-2.7292	-2.3521	-2.6937	-2.7229	-2.5187	-2.6813	-2.5604	-2.6083	-2.7771	-2.4521	-2.6375	-2.775	-2.4	-2.7521	-2.6417	119.705	47.649	363.328	66.974	356.724	182.765	144.194	61.645	127.914	93.627	39.690	168.186	42.095	330.897	42.807	367.174	1.0101e-05	3.4308e-05	9.4003e-06	0.020524	1.8199e-07	1.7223e-08	0.035467	0.0036389	4.9414e-07	5.6785e-08	0.031969	0.0067659	0.010849	0.0015597	1.5375e-07	0.0017359	-1.6085e-06	-2.5168e-06	-5.6915e-07	-0.19314	-2.6145e-08	-2.2483e-08	-0.20426	-0.069316	-2.2633e-08	-2.8128e-08	-0.15168	-0.032801	-0.049908	-0.010195	-2.4911e-08	-0.016296	272.418	114.244	111.636	30.089	68.755	61.980	220.807	41.651	72.133	174.197	102.831	231.613	287.554	155.315	218.261	353.447	-8191	255	
2642.794	1	1	0	0	0.22093	0.12972	0.3449	0.055432	0.16946	0.12348	0.055198	0.072924	0.091256	0.18094	0.15326	0.08521	0.091514	0.27823	0.1526	0.28481	-2.0229	-2.6604	-2.5396	-2.6875	-2.6292	-2.4542	-2.7125	-2.7062	-2.5396	-2.8521	-2.4917	-2.4458	-2.8104	-2.4708	-2.75	-2.5333	119.243	138.888	119.917	449.125	358.780	247.214	167.266	115.357	426.428	320.466	165.855	146.054	141.141	317.177	144.833	201.292	4.1588e-06	1.8356e-05	3.9289e-06	0.019501	5.19e-07	2.3909e-07	0.022301	0.0067554	1.2345e-07	1.3689e-07	0.018163	0.0029875	0.0038574	0.00073239	8.1011e-08	0.00070485	-1.728e-06	-2.3559e-06	-5.9716e-07	-0.19031	-2.6725e-08	-2.0681e-08	-0.20278	-0.068199	-2.2498e-08	-2.7779e-08	-0.14483	-0.031299	-0.049646	-0.0093282	-2.5861e-08	-0.015007	397.236	359.193	398.629	117.069	444.941	210.518	392.585	114.420	364.529	128.523	255.202	195.420	146.437	236.551	448.336	153.866	-8191	255	
2642.868	1	1	0	0	0.075846	0.058046	0.17324	0.069821	0.14422	0.10509	0.26827	0.13835	0.34697	0.12898	0.16652	0.060858	0.14962	0.2095	0.10581	0.20153	-2.1208	-2.6396	-2.5229	-2.3771	-2.8271	-2.5208	-2.6208	-2.6979	-2.325	-2.8625	-2.4021	-2.5104	-2.8083	-2.5167	-2.7583	-2.5312	44.298	-46.999	161.768	-44.680	-81.845	45.587	-94.237	22.533	119.074	171.016	205.526	183.063	222.186	188.680	208.289	165.610	9.3214e-06	1.0305e-05	1.0525e-05	0.0062398	3.6168e-07	1.748e-07	0.017039	0.016683	3.134e-07	1.2318e-07	0.016604	0.0039684	0.0080006	0.00042792	2.3891e-07	0.0012353	-1.5202e-06	-2.3152e-06	-5.5637e-07	-0.1911	-2.7942e-08	-2.2522e-08	-0.19554	-0.069204	-2.0699e-08	-2.7024e-08	-0.14807	-0.031299	-0.049721	-0.009617	-2.4368e-08	-0.014513	-88.101	47.977	-25.963	5.912	23.468	51.634	-98.311	-103.100	210.814	-11.350	124.839	148.267	-25.914	96.881	-87.192	-81.095	-8191	255	
2642.962	1	1	0	0	0.2144	0.081733	0.11174	0.11046	0.018317	0.15367	0.10691	0.20959	0.19783	0.015366	0.030998	0.085935	0.30994	0.25089	0.057051	0.16078	-1.9979	-2.7896	-2.3958	-2.5417	-2.8688	-2.3958	-2.7583	-2.8	-2.3438	-2.8167	-2.625	-2.4979	-2.8229	-2.4271	-2.6125	-2.6125	240.748	234.354	177.452	114.580	-35.488	175.618	-79.291	197.605	238.537	262.802	-16.771	170.632	54.235	144.112	70.711	183.314	5.5644e-06	1.0313e-05	9.0953e-06	0.053962	2.6777e-07	1.5969e-08	0.028894	0.0098672	9.3118e-08	2.5186e-07	0.0098447	0.008281	0.012363	4.7612e-05	2.3296e-07	0.00094128	-1.6466e-06	-2.2197e-06	-6.065e-07	-0.17315	-2.6763e-08	-2.2309e-08	-0.18533	-0.077079	-2.2091e-08	-2.5862e-08	-0.15293	-0.02877	-0.046421	-0.0098008	-2.303e-08	-0.015489	-10.206	23.030	73.200	-27.991	263.491	-46.543	47.212	-71.600	193.144	-54.094	126.583	-16.992	147.371	146.576	-60.117	75.253	-8191	255	
2643.060	1	1	0	0	0.29964	0.093517	0.1117	0.32744	0.16516	0.29203	0.16031	0.32215	0.19779	0.04497	0.20314	0.16254	0.28093	0.23388	0.29059	0.16134	-2.0229	-2.7604	-2.4875	-2.55	-2.7979	-2.5	-2.5625	-2.7646	-2.4938	-2.5875	-2.6063	-2.4521	-2.6104	-2.4792	-2.5354	-2.75	292.811	222.420	81.852	161.913	274.939	331.420	98.282	214.326	212.927	33.318	166.120	30.812	289.857	282.329	316.475	252.557	3.8111e-06	2.0834e-06	9.3609e-06	0.040041	6.5325e-08	2.6115e-07	0.037987	0.003783	1.2902e-07	1.4068e-07	0.051318	0.0025189	0.0035383	0.00093557	2.3085e-07	0.00037532	-1.4215e-06	-2.2604e-06	-6.3108e-07	-0.18401	-2.7478e-08	-2.446e-08	-0.1837	-0.078197	-2.3097e-08	-2.4796e-08	-0.16376	-0.029613	-0.052345	-0.010405	-2.1984e-08	-0.016573	39.807	128.346	221.191	322.415	347.602	275.062	372.603	43.062	264.766	219.965	70.323	137.955	124.410	268.144	324.170	154.305	-8191	255	
2643.179	1	1	0	0	0.052939	0.17231	0.25929	0.18467	0.27941	0.14939	0.15626	0.39843	0.12291	0.15792	0.11606	0.22423	0.17634	0.11449	0.12892	0.23728	-2.0604	-2.6104	-2.6292	-2.3812	-2.6625	-2.4813	-2.4292	-2.7708	-2.3896	-2.6354	-2.6292	-2.3542	-2.85	-2.5146	-2.4833	-2.8458	3.177	236.437	253.426	101.848	139.226	271.577	207.941	235.237	194.533	221.964	9.143	62.502	185.910	199.107	207.321	107.409	4.718e-06	1.3451e-05	3.1261e-06	0.029898	4.6917e-07	2.3729e-07	0.0084256	0.0019876	2.2714e-07	8.8342e-08	0.030598	0.00066601	0.0047865	0.0029003	1.4837e-07	0.0020303	-1.6726e-06	-2.2515e-06	-6.5516e-07	-0.18118	-2.5198e-08	-2.3937e-08	-0.16418	-0.07155	-2.1434e-08	-2.4874e-08	-0.16289	-0.030166	-0.049758	-0.011008	-2.1751e-08	-0.016741	188.810	20.017	280.711	0.844	141.464	180.441	45.773	-51.154	186.497	222.436	280.408	81.312	248.891	34.984	274.610	-36.740	-8191	255	
2643.275	1	1	0	0	0.34897	0.072523	0.090548	0.11643	0.091456	0.25086	0.33254	0.13609	0.23625	0.014751	0.25924	0.19865	0.075838	0.11843	0.078972	0.069624	-2.0708	-2.6167	-2.5958	-2.5229	-2.8396	-2.5521	-2.3896	-2.7271	-2.4979	-2.6792	-2.7083	-2.3187	-2.6833	-2.6458	-2.4729	-2.7021	37.333	200.119	-79.103	-71.470	-103.050	-36.550	84.341	88.440	-73.225	-116.493	47.466	-14.219	107.611	123.729	165.023	140.922	6.011e-06	2.0356e-05	5.3971e-06	0.025383	2.5091e-07	3.3303e-07	0.0094133	0.0085526	1.5337e-07	1.8776e-07	0.037412	0.0037346	0.0072087	0.0023677	1.865e-07	0.0031629	-1.631e-06	-2.2887e-06	-6.2075e-07	-0.17016	-2.5758e-08	-2.4441e-08	-0.18163	-0.077582	-2.3678e-08	-2.5261e-08	-0.17235	-0.030772	-0.049083	-0.01149	-2.21e-08	-0.01585	140.376	-65.433	-45.190	46.452	138.918	-15.829	96.130	-118.727	-8.256	107.703	-14.003	-27.884	-49.509	76.382	10.508	-83.178	-8191	255	
2643.371	1	1	0	0	0.15792	0.25397	0.22727	0.15987	0.092777	0.13481	0.37565	0.26794	0.19827	0.15418	0.42002	0.070325	0.2439	0.19596	0.10951	0.14012	-1.9458	-2.5792	-2.5646	-2.4	-2.6562	-2.6937	-2.4313	-2.7917	-2.5812	-2.7625	-2.875	-2.2479	-2.8083	-2.6021	-2.4771	-2.7625	156.522	155.329	358.932	360.084	311.859	348.249	382.309	487.220	229.252	280.645	447.349	187.120	256.572	274.187	471.529	481.818	4.213e-06	1.6276e-05	4.2873e-06	0.057828	2.578e-07	2.317e-07	0.038001	0.006166	2.0857e-07	2.9368e-07	0.030919	0.0047747	0.0076119	0.0009441	2.9289e-07	0.0028883	-1.6466e-06	-2.0075e-06	-6.8317e-07	-0.17378	-2.4812e-08	-2.5119e-08	-0.16522	-0.074622	-2.5167e-08	-2.3692e-08	-0.17459	-0.029876	-0.046758	-0.011262	-2.1732e-08	-0.016416	159.817	322.613	233.430	272.606	425.799	354.090	238.770	152.194	418.109	413.769	306.566	414.643	463.352	464.297	300.304	462.109	-8191	255	
2643.467	1	1	0	0	0.12557	0.11286	0.22006	0.18518	0.20015	0.14949	0.12153	0.041914	0.025357	0.039091	0.067724	0.097064	0.1399	0.19474	0.18564	0.20987	-1.95	-2.4437	-2.8125	-2.4125	-2.7771	-2.6854	-2.3979	-2.7375	-2.6979	-2.4042	-2.7687	-2.4354	-2.6312	-2.7479	-2.4208	-2.7208	112.506	-62.628	104.641	244.858	-79.466	210.761	-32.331	60.683	50.351	217.633	55.845	-28.573	57.931	185.544	-69.314	11.389	5.6964e-06	3.2854e-05	8.1618e-06	0.016756	1.024e-07	2.0893e-07	0.020964	0.010791	2.0925e-07	8.6547e-08	0.01169	0.0076954	0.0038837	0.0018289	2.7685e-07	0.0032326	-1.9738e-06	-1.9721e-06	-6.6548e-07	-0.19173	-2.3498e-08	-2.5778e-08	-0.16359	-0.073002	-2.3755e-08	-2.1619e-08	-0.17111	-0.03122	-0.043834	-0.011603	-2.0491e-08	-0.014838	147.415	10.135	39.789	103.200	123.260	151.424	89.677	-61.732	12.756	39.814	-32.585	189.765	6.086	264.497	25.905	71.380	-8191	255	
2643.563	1	1	0	0	0.23738	0.08433	0.094545	0.12484	0.21639	0.14843	0.24635	0.14439	0.5295	0.31083	0.07029	0.10859	0.22928	0.23907	0.045377	0.25338	-2.2417	-2.5	-2.7021	-2.4104	-2.6875	-2.8083	-2.4375	-2.7562	-2.6562	-2.4417	-3.2875	-2.7729	-2.7917	-2.9854	-2.6937	-2.8479	162.048	293.635	389.464	345.053	456.190	198.407	325.092	201.870	329.235	229.140	426.347	332.088	446.775	359.186	456.836	120.095	5.4211e-06	4.6308e-05	7.8582e-06	0.0094648	1.8147e-07	3.0548e-07	0.0097989	0.0045417	1.6965e-07	1.5982e-06	0.11136	0.76692	7.0733	2.3688	7.5729e-06	7.3774	-1.9652e-06	-1.9261e-06	-6.6204e-07	-0.19409	-2.201e-08	-2.5333e-08	-0.16359	-0.071382	1.0601e-08	6.8647e-07	11.981	1.6831	29.647	3.8807	3.6329e-06	9.6818	421.927	269.624	372.809	292.026	386.005	346.015	124.469	132.003	469.582	378.409	274.850	361.087	396.925	439.547	272.072	445.920	-8191	255	
2643.659	1	1	0	0	0.18978	0.26866	0.075932	0.11093	0.14233	0.31985	0.12572	0.22342	0.087337	0.13952	0.21475	0.2551	0.17744	0.23343	0.3011	0.061888	-2.425	-2.6479	-2.9146	-2.6208	-2.8271	-3.1271	-2.8042	-2.8937	-3.025	-2.5438	-3.0062	-2.7583	-2.8792	-3.0708	-2.3104	-2.95	253.956	404.250	374.699	83.735	183.941	250.346	355.836	94.633	391.734	143.605	375.154	308.681	339.331	378.521	204.859	156.507	0.00013462	0.048806	9.3211e-05	197.06	7.578e-06	3.6691e-06	237.22	43.508	5.7153e-06	6.4644e-06	87.337	23.883	12.033	2.6571	6.3236e-06	7.7743	0.00030426	0.0047884	8.7514e-05	231.08	3.8609e-06	3.4346e-06	683.23	54.925	3.3902e-06	3.7894e-06	107.42	28.637	111.82	4.1845	3.5117e-06	9.9691	304.424	130.129	163.304	71.281	80.341	168.707	82.660	77.500	103.332	157.350	76.398	82.340	340.793	87.473	333.016	86.914	-8191	255	
2643.780	1	1	0	0	0.1093	0.25475	0.27436	0.090218	0.050366	0.10455	0.51625	0.19299	0.26481	0.058595	0.10307	0.31329	0.30169	0.1155	0.13706	0.10957	-2.3833	-2.6646	-3.0417	-2.8833	-2.75	-2.9667	-2.6625	-2.9562	-2.8417	-2.525	-2.8312	-2.7	-2.7125	-3.0312	-2.8125	-2.9688	384.523	341.151	336.318	193.582	231.127	256.045	79.857	188.211	111.506	219.090	180.552	289.615	96.254	126.710	409.351	353.283	0.00020692	0.045595	0.00015715	194.92	1.2143e-05	4.6161e-06	232.24	47.74	4.51e-06	2.9123e-06	87.983	24.558	11.099	2.8753	6.1282e-07	8.3793	0.00029447	0.0044806	8.3354e-05	226.87	3.5239e-06	3.1307e-06	493.36	101.55	3.0152e-06	3.2423e-06	106.92	29.03	98.779	4.2344	2.9742e-06	10.587	338.298	135.156	137.632	431.292	91.922	189.150	430.192	97.599	232.486	201.649	436.671	82.375	356.075	87.098	426.672	86.376	-8191	255	
2643.874	1	1	0	0	0.2182	0.1025	0.11212	0.11678	0.13933	0.056522	0.095082	0.17922	0.18901	0.073018	0.3339	0.10172	0.11905	0.060232	0.16336	0.076036	-2.4479	-2.5125	-3.0354	-2.9021	-2.6437	-3.0979	-2.7708	-2.7917	-2.9146	-2.8042	-2.9188	-2.9562	-2.675	-3.1375	-2.8583	-2.8937	241.930	370.319	324.290	170.685	366.704	284.320	281.654	382.333	325.881	150.922	78.176	159.403	345.638	82.417	198.227	409.255	0.0002134	0.04548	0.00011883	197.29	7.4462e-06	1.4129e-06	281.33	47.768	2.5801e-06	3.573e-06	89.318	24.997	15.725	2.8182	2.7052e-06	8.3129	0.00027084	0.0044636	7.9923e-05	227.72	3.4318e-06	3.1213e-06	313.85	182.91	3.1856e-06	3.5099e-06	109.64	29.965	123.66	4.5189	3.5863e-06	11.116	311.488	141.658	230.767	431.696	96.898	105.093	432.130	95.496	198.965	132.648	436.661	82.274	352.620	87.573	201.231	86.381	-8191	255	
2643.971	1	1	0	131072	0.067305	0.14731	0.15559	0.14893	0.14992	0.33611	0.1446	0.15663	0.24547	0.18926	0.010146	0.13952	0.28311	0.14774	0.11206	0.33179	-2.6958	-2.7771	-3.0563	-2.9958	-2.7292	-2.975	-2.8312	-2.5563	-3.0229	-2.4708	-2.7875	-2.7792	-2.6792	-3.0229	-2.75	-2.7	327.458	167.884	140.024	361.413	261.865	294.589	403.457	372.965	317.166	139.855	264.103	298.787	136.452	345.775	171.292	226.471	0.00016061	0.057908	9.7632e-05	195.42	1.1171e-05	2.7747e-06	275.92	19.298	8.8733e-07	6.4966e-06	86.332	24.034	20.47	2.7388	3.9631e-06	8.1296	0.00034565	0.0055902	0.0001057	233.81	4.6263e-06	4.3196e-06	319.36	235.43	4.7926e-06	5.2296e-06	118.77	31.531	143.27	5.2022	5.1825e-06	11.905	309.440	147.274	189.514	431.462	453.892	148.377	431.807	144.615	348.568	174.789	437.114	442.395	342.071	447.984	138.898	446.599	-8191	255	
2644.091	1	1	0	131072	0.28747	0.17516	0.26169	0.073604	0.048184	0.16918	0.32485	0.17667	0.19203	0.18213	0.12709	0.14445	0.16062	0.065017	0.092759	0.14504	-2.5729	-2.6646	-2.8146	-2.8542	-2.525	-2.9562	-2.7521	-2.7	-2.9375	-2.6188	-2.6521	-2.975	-2.5229	-2.9125	-2.8583	-2.6729	455.617	428.667	304.319	202.897	415.109	149.800	307.836	307.268	263.531	199.229	242.626	346.183	343.043	197.340	265.538	102.449	0.00018517	0.011032	0.023403	190.08	6.6957e-06	3.8797e-06	275.58	20.573	3.5169e-06	3.4708e-06	88.216	24.637	17.33	2.8915	5.6821e-06	8.6944	0.00046378	0.0031434	0.00077049	236.07	5.0207e-06	4.7102e-06	317.8	229.21	4.0449e-06	3.7962e-06	111.48	29.79	118.97	4.466	3.058e-06	10.976	300.062	411.020	165.732	431.565	452.179	108.835	431.734	118.825	271.083	146.143	437.206	441.933	364.014	446.635	230.396	446.238	-8191	255	
2644.163	1	1	0	0	0.16941	0.075298	0.33932	0.19437	0.12762	0.12373	0.10778	0.30267	0.308	0.087187	0.15635	0.20846	0.22669	0.2031	0.05882	0.36889	-2.4208	-2.6583	-2.75	-2.7521	-2.5458	-2.7479	-2.8917	-2.6729	-2.9667	-2.775	-2.6417	-2.9479	-2.7146	-2.725	-2.85	-2.5875	188.106	155.658	237.519	314.801	389.894	373.372	213.933	350.725	141.190	251.732	109.242	147.479	403.121	86.543	435.945	406.907	0.00030087	0.00021881	0.015112	195.12	4.0311e-06	3.6783e-06	279.71	25.709	2.9516e-06	3.075e-06	92.144	26.003	15.77	3.069	4.698e-07	8.9699	0.00026562	0.00025426	0.0011939	223.69	3.0046e-06	2.856e-06	309.35	187.15	2.7278e-06	2.6187e-06	109.22	30.104	98.484	4.4316	2.6614e-06	11.073	320.735	97.026	162.167	431.612	140.508	204.255	431.665	97.056	350.623	220.425	436.692	82.025	378.425	87.588	345.270	86.642	-8191	255	
2644.259	1	1	0	0	0.072616	0.19729	0.12532	0.23201	0.18173	0.27185	0.27416	0.093687	0.14458	0.16385	0.058221	0.11703	0.36685	0.2157	0.18746	0.13411	-2.4521	-2.7938	-2.6625	-2.9229	-2.7604	-2.8083	-3.0104	-2.6542	-2.8479	-2.625	-2.7854	-3.0021	-2.5646	-2.8729	-2.9479	-2.6125	409.759	366.213	368.012	239.779	374.798	287.834	412.636	354.651	198.820	241.077	367.604	256.893	329.109	225.052	430.595	170.238	0.0002082	0.00026856	0.014784	198.99	2.0908e-06	1.6845e-06	284.82	28.144	3.7555e-06	2.7885e-06	93.295	26.526	8.6591	5.145	2.0478e-06	9.2477	0.00024112	0.00023627	0.0011968	227.72	2.7202e-06	2.7122e-06	313.61	173.04	2.614e-06	2.5125e-06	109.59	30.43	49.295	12.719	2.4728e-06	11.013	316.681	135.721	168.797	71.801	409.666	167.482	71.942	89.574	243.525	136.892	77.204	81.897	353.434	74.222	251.765	86.365	-8191	255	
2644.355	1	1	0	0	0.021285	0.049688	0.13847	0.21749	0.10533	0.11438	0.16484	0.050684	0.071091	0.24849	0.20432	0.32761	0.28499	0.17862	0.25346	0.059136	-2.5146	-2.7083	-2.6729	-3.0312	-2.7521	-2.9667	-3.0479	-2.6	-2.9917	-2.8042	-2.6	-2.9792	-2.6271	-2.8042	-2.9208	-2.4854	332.149	406.614	277.182	417.901	127.420	410.829	88.358	300.161	84.800	201.304	400.966	352.024	163.051	353.607	387.840	412.366	0.00021532	0.00010947	0.012405	204.83	6.7422e-06	8.0822e-06	290.19	29.135	1.3266e-06	1.0118e-06	96.484	27.238	12.05	4.3003	2.2624e-06	9.4243	0.00023155	0.00021543	0.0010282	231.08	2.3192e-06	2.657e-06	316.59	171.3	2.3972e-06	2.2452e-06	109.72	30.721	15.947	21.284	2.29e-06	11.149	309.458	252.443	174.657	71.671	75.687	160.914	71.845	84.601	230.063	179.157	76.580	82.411	83.857	403.058	113.571	86.318	-8191	255	
2644.476	1	1	0	0	0.13886	0.16821	0.031284	0.072522	0.1279	0.13635	0.14703	0.10232	0.20208	0.18434	0.1069	0.067195	0.12792	0.1388	0.14983	0.29312	-2.4313	-2.8042	-2.7	-2.8896	-2.7687	-2.8167	-3.0042	-2.7708	-2.9708	-2.7417	-2.5917	-2.7938	-2.9813	-2.675	-2.9437	-2.4104	80.499	192.175	308.693	109.802	144.343	148.502	271.897	301.869	336.065	384.494	222.348	394.957	287.467	174.554	144.417	195.246	0.00019529	6.531e-05	0.01363	211.2	1.4854e-06	2.9838e-06	295.44	31.869	2.9728e-06	2.8201e-06	95.906	27.174	12.222	4.7044	4.523e-06	9.0463	0.00021636	0.000211	0.0010904	236.46	2.3106e-06	2.7518e-06	323.65	170.42	2.6335e-06	2.5323e-06	112.83	31.266	16.827	24.261	2.8101e-06	11.064	326.378	342.256	178.870	71.752	268.798	77.282	71.930	68.508	365.249	200.685	76.582	82.170	83.085	401.230	250.745	86.695	-8191	255	
2644.572	1	1	0	0	0.15869	0.11023	0.03551	0.079316	0.094114	0.21562	0.21093	0.13855	0.086038	0.20861	0.21756	0.28347	0.18567	0.24882	0.1017	0.047802	-2.3979	-2.9833	-2.6729	-2.9396	-2.7812	-2.7542	-3.0375	-2.6333	-3.0146	-2.9292	-2.6042	-3.0062	-2.8396	-2.6312	-3.0625	-2.4938	391.550	47.274	55.109	78.947	153.688	78.333	83.861	285.027	196.530	217.570	154.973	342.657	74.647	380.272	78.478	158.890	0.00017595	0.00022977	0.013891	211.04	2.7752e-06	4.5649e-06	297.3	26.852	0.00018507	3.0544e-06	94.039	25.797	11.383	4.8461	5.4193e-06	8.568	0.00027834	0.00027061	0.0011615	244.04	3.0385e-06	3.5028e-06	331.69	107.84	2.6071e-05	3.1839e-06	114.22	30.856	17.126	24.527	3.15e-06	10.644	330.202	274.801	187.643	71.551	389.932	107.035	72.109	61.435	257.632	231.756	76.915	82.475	83.114	402.210	238.333	86.396	-8191	255	
2644.668	1	1	0	0	0.062619	0.16045	0.13871	0.13504	0.12651	0.11166	0.059926	0.1685	0.22231	0.12897	0.22982	0.21399	0.2146	0.19776	0.28551	0.199	-2.2958	-2.7333	-2.6833	-2.8521	-2.7646	-2.6667	-2.8792	-2.6917	-2.7771	-2.9688	-2.6583	-2.8521	-2.5958	-2.6688	-2.9688	-2.7208	339.374	110.260	265.811	81.042	228.384	131.842	120.513	176.370	87.937	295.324	168.844	143.871	415.000	94.296	89.349	87.268	0.00011769	7.0267e-05	0.015422	210.43	2.6898e-06	1.1031e-05	297.49	47.361	0.00053994	2.0418e-06	94.041	25.924	11.385	4.913	2.4751e-07	8.8098	0.00031211	0.00027809	0.0012309	241.8	2.9514e-06	3.2737e-06	328.96	56.641	4.377e-05	2.7507e-06	111.04	30.176	16.009	23.031	2.5271e-06	10.334	311.440	132.329	191.666	71.243	87.938	125.501	71.998	77.815	339.534	137.728	76.963	82.684	82.974	406.318	245.469	86.895	-8191	255	
2644.740	1	1	0	0	0.092163	0.016996	0.10714	0.21071	0.20526	0.14434	0.16795	0.061641	0.34319	0.18869	0.16518	0.28224	0.21545	0.16839	0.17307	0.27709	-2.2146	-2.8604	-2.6271	-2.9688	-2.8229	-2.5687	-2.8958	-2.7812	-2.6354	-2.8479	-2.4583	-2.8187	-2.9396	-2.6646	-2.8583	-2.6417	178.092	321.919	333.427	329.363	309.453	77.470	61.451	307.179	93.627	196.519	373.548	412.399	88.519	357.979	338.564	368.050	0.00011943	0.00014196	0.0021665	211.97	1.713e-06	4.2722e-06	299.3	48.977	0.00048516	6.3126e-07	97.849	27.217	12.254	4.9038	2.803e-06	9.2372	0.00024617	0.00021168	0.00090893	237.27	2.109e-06	2.3143e-06	325.08	55.627	3.9159e-05	1.8867e-06	108.35	30.368	15.296	20.558	1.9692e-06	10.494	298.989	154.929	286.136	71.683	405.919	96.560	71.945	77.905	344.544	177.396	76.302	82.510	83.309	413.849	150.480	86.511	-8191	255	
2644.859	1	1	0	0	0.18025	0.15026	0.096713	0.28653	0.082145	0.26434	0.093076	0.12394	0.064387	0.12765	0.12162	0.05418	0.099741	0.13854	0.17979	0.021941	-2.1125	-3.0333	-2.4833	-2.9646	-2.9542	-2.5854	-2.7792	-2.8125	-2.725	-3.1042	-2.6104	-2.7083	-2.7521	-2.6167	-2.7979	-2.8292	284.863	359.978	71.086	174.072	412.662	346.637	324.533	206.548	367.349	124.355	298.652	232.551	296.228	398.859	83.425	385.542	0.00011299	0.00016068	0.0030012	260.68	1.184e-06	1.9276e-06	303.04	49.971	0.0005071	1.5233e-06	97.359	26.946	12.07	5.6485	5.7065e-06	8.8653	0.00020433	0.00017696	0.00037308	415.01	1.9782e-06	2.2479e-06	330.12	57.064	4.1707e-05	2.1646e-06	109.35	30.976	16.046	24.744	2.5976e-06	10.521	374.989	207.452	288.697	81.086	176.409	80.331	72.170	77.696	349.192	229.456	76.642	83.000	82.709	411.386	222.598	86.793	-8191	255	
2644.955	1	1	0	0	0.16073	0.28273	0.12013	0.085316	0.087745	0.28058	0.23611	0.078563	0.087821	0.28637	0.081744	0.13017	0.10971	0.17733	0.27402	0.064115	-2.1979	-3.0125	-2.625	-2.8292	-2.9479	-2.4062	-2.7396	-2.7188	-2.6562	-3.0917	-2.8042	-2.7292	-2.925	-2.9062	-2.9104	-2.7042	361.219	151.079	276.674	124.662	123.028	165.451	266.130	308.061	101.480	375.161	213.762	343.746	111.441	180.648	273.019	117.904	0.00010666	0.00017381	1.1265e-05	252.89	3.7188e-07	8.1877e-06	302.7	48.019	0.00063951	1.6961e-06	93.602	25.493	11.131	2.8304	2.0717e-06	8.296	0.00026673	0.00024322	6.7626e-05	621.43	2.8033e-06	3.1626e-06	336.05	57.429	5.3602e-05	3.0908e-06	111.65	30.776	16.967	24.545	3.431e-06	10.428	376.027	269.279	155.319	84.655	201.763	127.630	71.824	78.253	356.155	165.530	76.995	82.827	83.701	385.895	89.838	86.976	-8191	255	
2645.053	1	1	0	0	0.17045	0.083681	0.17153	0.25193	0.13482	0.15915	0.16891	0.15499	0.24972	0.13939	0.28576	0.16016	0.12294	0.13127	0.12422	0.1391	-2.125	-2.8042	-2.8438	-2.6771	-2.9854	-2.6375	-2.8979	-2.9042	-2.6542	-3.0125	-2.9458	-2.7979	-2.8438	-2.5687	-2.6875	-2.9	218.727	401.271	261.643	322.480	339.984	281.500	344.817	399.966	62.716	344.405	400.292	337.123	248.011	275.755	105.933	298.445	0.00017497	0.00041466	8.5774e-05	247.75	7.0571e-07	4.4064e-06	296.88	46.594	0.00061525	2.797e-06	91.858	24.983	11.025	2.7528	0.00063142	8.4686	0.00032613	0.00030368	8.1899e-05	682.49	3.2528e-06	3.4062e-06	332.58	56.633	5.1869e-05	3.3116e-06	110.15	30.464	16.664	10.518	3.2189e-05	10.383	67.188	202.220	116.405	88.189	213.331	126.583	71.821	77.686	361.498	391.039	76.438	82.559	83.461	388.814	189.524	87.030	-8191	255	
2645.172	1	1	0	0	0.18924	0.16851	0.13031	0.16691	0.12326	0.30376	0.1655	0.27175	0.17902	0.1645	0.37483	0.35118	0.19354	0.053921	0.099546	0.051064	-1.9896	-2.9667	-2.8417	-2.6208	-3.05	-2.6208	-2.7771	-2.8604	-2.7729	-2.975	-2.9333	-2.5896	-2.9667	-2.7	-2.7896	-3.0354	135.610	186.247	322.720	103.775	370.332	368.047	309.702	242.457	331.602	62.633	159.449	65.271	391.053	227.653	204.295	227.360	8.873e-05	0.00046185	3.7535e-05	233.38	3.3847e-06	1.8756e-06	296.84	46.99	0.00058902	8.8147e-07	94.85	26.594	11.743	3.1513	0.00054166	9.2921	0.00028869	0.00027657	7.2202e-05	612.44	2.7889e-06	2.6659e-06	328.29	55.86	4.7987e-05	2.6322e-06	108.38	30.805	16.034	4.2763	4.2953e-05	10.831	378.221	404.500	216.297	87.291	183.051	95.074	71.905	77.787	367.343	126.230	76.425	82.997	83.889	87.898	152.515	86.538	-8191	255	
2645.268	1	1	0	0	0.11423	0.37441	0.23595	0.12789	0.12997	0.1705	0.1279	0.086073	0.093789	0.27461	0.14717	0.045422	0.19946	0.085673	0.30522	0.10084	-2.2208	-2.8375	-2.7146	-2.6188	-2.9375	-2.6875	-2.775	-3.0021	-2.5271	-2.8667	-2.7646	-2.7896	-2.9313	-2.8292	-2.7104	-3.1104	215.121	121.161	257.218	311.070	375.086	404.626	306.834	148.715	251.726	195.415	172.625	193.111	379.092	364.656	259.916	127.302	5.1671e-05	0.0004161	5.365e-05	229.13	9.8351e-07	1.8957e-06	299.98	49.657	0.00054253	3.3366e-05	99.087	27.605	12.43	3.3976	0.00059453	9.7865	0.00023195	0.00021784	5.6812e-05	592.14	2.291e-06	2.2101e-06	329.63	57.199	3.646e-05	2.5311e-06	110.48	31.82	16.441	4.4619	4.5935e-05	11.24	223.765	329.505	183.919	86.726	342.836	239.002	71.669	77.760	369.661	261.544	76.181	82.553	83.927	87.496	157.485	86.763	-8191	255	
2645.364	1	1	0	0	0.16469	0.1215	0.22103	0.094202	0.083608	0.11651	0.075546	0.12639	0.30903	0.12178	0.19758	0.17132	0.23048	0.20689	0.068377	0.20811	-2.275	-2.7938	-2.8708	-2.8021	-2.9854	-2.6604	-2.7083	-2.875	-2.775	-2.9062	-2.8771	-2.6208	-2.7146	-2.9125	-2.8375	-2.9896	274.552	343.580	383.293	186.949	371.458	255.184	153.361	110.422	413.586	295.924	314.484	391.263	94.696	141.262	289.723	98.349	7.8607e-05	0.00016723	6.7878e-05	228.35	1.6725e-06	2.3852e-06	301.79	50.144	0.00062237	7.3036e-05	99.722	27.832	12.6	3.4584	0.00055098	10.009	0.00021406	0.00022104	5.668e-05	583.14	2.3638e-06	2.2311e-06	330.49	57.952	1.233e-05	3.0015e-05	111.29	32.006	16.795	4.54	4.4682e-05	11.458	337.333	100.976	111.297	86.864	233.929	174.120	72.056	78.071	371.951	142.762	76.754	82.658	83.178	88.167	163.370	86.394	-8191	255	
2645.460	1	1	0	0	0.15692	0.13255	0.11323	0.01326	0.17667	0.15099	0.12434	0.091479	0.1228	0.099178	0.091014	0.19041	0.3681	0.075809	0.34581	0.069571	-2.3292	-2.8521	-2.9062	-2.8292	-2.8625	-2.8229	-2.6188	-2.9479	-2.6917	-2.9167	-3.0583	-2.6042	-2.9125	-2.8167	-2.6833	-2.8625	394.278	197.731	192.174	411.488	330.902	115.293	306.783	77.482	399.064	261.922	347.418	167.829	260.994	249.223	167.288	289.351	0.00019747	0.00013241	3.2863e-05	221.2	2.5446e-06	4.8327e-06	297.86	49.919	4.6139e-06	0.0004717	98.203	28.074	12.313	3.4627	0.00060507	10.014	0.00020338	0.00024444	5.7905e-05	611.87	2.4514e-06	2.3337e-06	329.34	57.993	2.3102e-06	4.5423e-05	111	32.188	16.843	4.5664	4.7764e-05	11.49	314.520	152.338	414.863	88.237	303.118	419.437	71.873	77.903	152.248	387.270	76.275	82.634	83.633	86.806	168.494	86.436	-8191	255	
2645.556	1	1	0	0	0.2678	0.079221	0.16891	0.18398	0.27852	0.19556	0.03128	0.11644	0.076697	0.19711	0.32796	0.049834	0.37206	0.12788	0.39338	0.27435	-2.425	-2.6521	-2.8208	-2.7208	-2.7687	-2.9146	-2.6167	-2.8229	-2.7667	-2.7583	-2.9479	-2.6562	-2.7646	-2.8604	-2.7125	-2.9521	404.120	366.141	378.688	98.640	205.605	99.138	416.992	271.995	287.017	218.392	330.782	333.124	282.327	381.736	400.229	168.915	0.00018785	0.0002483	0.00015802	181.36	0.00046449	2.8385e-06	297.32	49.786	2.3728e-06	0.00048565	98.235	28.068	12.546	3.4649	0.0005636	9.9663	0.00020535	0.00024309	5.8055e-05	513.8	4.1966e-06	2.2453e-06	326.6	57.57	2.2468e-06	4.6961e-05	110.45	31.787	16.892	4.549	4.4596e-05	11.551	318.503	347.951	173.155	75.941	247.359	196.090	71.837	77.990	340.598	391.139	76.548	82.271	83.424	87.713	175.419	86.084	-8191	255	
2645.652	1	1	0	0	0.11245	0.045615	0.16664	0.14544	0.16563	0.33715	0.13372	0.13834	0.014815	0.32525	0.27444	0.20065	0.084022	0.16895	0.076813	0.14455	-2.4042	-2.5896	-3.0479	-2.7	-2.7667	-3.0479	-2.7188	-2.9604	-2.8167	-2.7854	-2.9771	-2.8563	-2.7479	-3.1396	-2.8104	-3.05	331.560	126.535	94.574	190.147	367.431	267.086	338.119	376.845	166.146	358.950	357.677	310.158	164.124	403.506	78.774	116.290	0.00024816	0.00055481	5.5395e-05	175.38	0.00047661	1.8242e-06	298.07	50.449	1.5629e-06	0.00045678	98.437	28.375	12.459	3.585	0.00057301	10.263	0.00020447	0.0002432	5.8577e-05	302.74	3.2243e-05	2.2383e-06	327.44	58.162	2.2258e-06	4.4539e-05	111.16	32.035	17.344	4.6379	4.7046e-05	11.769	326.880	367.773	127.527	77.090	250.675	166.571	72.054	77.727	316.495	398.518	76.400	82.072	83.485	87.181	180.277	86.321	-8191	255	
2645.773	1	1	0	0	0.053846	0.056484	0.25641	0.098735	0.21499	0.039824	0.22292	0.3313	0.086176	0.16338	0.15475	0.23211	0.18187	0.25733	0.13494	0.027471	-2.4292	-2.4083	-2.8854	-2.6979	-2.7375	-3.1417	-2.6875	-3.0146	-2.8521	-2.6146	-2.9292	-2.7375	-2.6833	-3.05	-2.6	-2.9792	295.529	396.897	199.622	338.210	405.507	202.571	300.970	351.256	371.613	73.281	157.157	324.175	237.170	91.636	372.198	196.022	0.00023862	0.00051948	6.1992e-05	212.75	0.00055976	4.2193e-06	300.35	50.534	3.7822e-06	0.00047337	99.924	28.81	12.854	3.6033	0.00020359	14.631	0.00020138	0.00023585	5.7435e-05	237.24	4.4088e-05	2.2411e-06	328.07	58.528	2.1737e-06	4.5627e-05	111.79	32.276	17.358	4.6498	3.2375e-05	14.064	325.246	380.154	169.911	71.875	294.569	84.318	71.894	78.106	78.601	404.372	76.329	82.237	83.590	87.632	97.045	96.650	-8191	255	
2645.867	1	1	0	0	0.1662	0.10855	0.26318	0.1797	0.15718	0.27719	0.17514	0.15879	0.069084	0.20218	0.21372	0.1542	0.22043	0.12442	0.18088	0.056099	-2.5375	-2.5938	-2.6958	-2.9021	-2.7354	-2.9875	-2.8271	-2.925	-2.9854	-2.6562	-2.9917	-2.9875	-2.6562	-2.8396	-2.5917	-2.95	206.722	399.203	89.120	415.366	213.433	381.662	311.925	277.147	189.417	273.249	409.365	285.657	182.025	390.994	268.427	319.056	0.00030203	0.00030197	6.4539e-05	215.1	0.00055686	1.0467e-06	301.33	51.248	1.0749e-06	0.00043325	100.84	29.096	12.805	3.6647	0.00019542	15.097	0.00019181	0.00021559	5.6114e-05	238.15	4.4292e-05	2.1318e-06	327.98	59.216	2.1022e-06	4.2134e-05	112.8	32.58	17.35	4.7168	7.9422e-06	30.895	308.030	71.434	262.808	71.620	300.769	98.593	72.024	77.710	382.208	409.120	76.187	82.099	82.755	87.307	97.790	98.349	-8191	255	
2645.964	1	1	0	0	0.16346	0.060669	0.14137	0.093253	0.13262	0.22641	0.11953	0.28103	0.28348	0.15352	0.2127	0.13086	0.26145	0.13579	0.19645	0.30629	-2.6396	-2.5187	-2.8354	-3.0333	-2.4917	-3.0229	-2.7562	-2.6771	-3.0042	-2.7146	-3.0042	-2.9208	-2.5875	-2.9729	-2.5854	-2.7396	128.203	302.691	291.916	382.714	393.505	114.193	299.968	260.812	196.056	210.197	231.701	369.173	302.126	211.905	360.235	156.134	0.00017708	0.00022823	0.00011347	214.8	0.00054593	2.4928e-06	300.37	51.526	2.4738e-06	0.00049305	99.491	28.238	12.513	3.453	3.9497e-06	14.504	0.00019782	0.00022046	5.8045e-05	239.4	4.3024e-05	2.2602e-06	328.36	59.961	2.3023e-06	4.7412e-05	112.77	32.028	17.471	4.6057	2.3541e-06	38.301	324.477	69.837	385.066	71.852	306.009	362.037	71.816	77.245	387.693	413.194	76.242	82.147	83.099	87.287	220.865	94.194	-8191	255	
2646.035	1	1	0	0	0.25134	0.13096	0.15277	0.30051	0.25403	0.10967	0.10844	0.16242	0.34568	0.19644	0.083073	0.1379	0.1429	0.24303	0.040862	0.063974	-2.5771	-2.6063	-2.7292	-2.6792	-2.9208	-2.9813	-2.6688	-2.7625	-2.9292	-2.6937	-2.8208	-2.7687	-2.4667	-2.8479	-2.8333	-2.6917	75.211	330.390	219.001	379.910	202.135	229.154	177.659	363.714	187.415	382.828	417.938	93.026	153.044	157.183	84.663	184.620	0.00022143	0.00029253	6.1898e-05	214.05	0.00059242	1.4771e-06	298.57	50.193	5.1559e-06	0.00047469	120.55	28.227	12.544	3.425	2.9937e-06	14.601	0.00021305	0.0002403	6.1996e-05	238.69	4.6664e-05	2.3429e-06	326.63	59.15	2.3067e-06	3.1851e-05	148.01	31.708	17.058	4.5982	2.2989e-06	39.251	284.691	89.774	399.997	71.818	311.677	128.670	72.135	77.823	238.468	393.283	71.026	82.228	82.999	87.493	111.380	96.143	-8191	255	
2646.156	1	1	0	0	0.25442	0.14746	0.13503	0.083013	0.16254	0.13042	0.25291	0.070687	0.16173	0.35045	0.1239	0.10446	0.21219	0.20295	0.16108	0.088635	-2.6458	-2.6208	-2.7687	-3.0125	-2.8937	-2.9188	-2.775	-2.6521	-2.8396	-2.9771	-2.8521	-2.9479	-2.6625	-3.1708	-2.95	-2.8937	273.163	193.917	175.338	135.715	207.210	73.810	313.406	321.527	378.885	99.259	136.022	270.623	323.306	263.964	105.903	379.050	0.00017224	0.00030527	0.00014713	213.91	0.00056644	3.6323e-06	301.14	50.894	4.7201e-07	0.00048871	126.69	28.216	12.602	3.3743	1.8498e-06	14.063	0.00021431	0.00022072	6.5099e-05	239.34	4.4237e-05	2.4612e-06	328.83	59.545	2.3631e-06	6.3684e-06	329.99	31.762	17.155	4.5764	2.2613e-06	37.227	268.568	342.425	78.836	71.750	316.969	309.367	71.774	77.596	90.827	395.782	71.468	82.184	83.094	87.315	269.399	97.430	-8191	255	
2646.252	1	1	0	0	0.15812	0.17061	0.21546	0.054387	0.012626	0.164	0.071317	0.15134	0.13617	0.04549	0.092613	0.28747	0.052303	0.062265	0.32884	0.05685	-2.5479	-2.7354	-2.8479	-3.3187	-2.6833	-3.0208	-3.0062	-2.5438	-2.8438	-2.8146	-2.9583	-3.1437	-2.4833	-2.8458	-3.0417	-2.8708	88.611	228.378	218.929	165.933	300.539	152.570	133.039	339.696	240.886	155.321	273.409	315.212	253.193	96.169	331.632	99.764	0.00024364	0.00014235	0.00022766	215.81	0.00059864	2.7537e-06	301.4	50.722	4.266e-07	1.1729e-06	108.35	28.304	12.608	3.4255	7.9061e-07	14.061	0.00021176	0.00020552	6.7911e-05	240.63	4.5889e-05	2.4131e-06	329.72	59.412	2.3187e-06	2.2459e-06	378.97	31.88	17.17	4.576	2.2484e-06	38.63	310.115	182.557	397.992	71.816	322.584	350.951	71.757	77.686	291.928	203.729	408.482	82.527	83.451	87.510	301.582	99.467	-8191	255	
2646.348	1	1	0	0	0.089142	0.14887	0.23494	0.1421	0.26903	0.014515	0.075311	0.058605	0.27405	0.10473	0.32238	0.14537	0.22126	0.28191	0.042366	0.27257	-2.6646	-2.9375	-2.6688	-3.0458	-3.0042	-2.9021	-2.8667	-2.8229	-3.1188	-2.8667	-2.9021	-3.2021	-2.5521	-2.7958	-3.0125	-2.8708	253.036	379.280	154.810	220.599	233.256	115.670	65.798	198.546	324.558	334.838	121.677	284.529	120.053	132.602	195.088	72.441	0.00023247	0.00020288	0.00017575	215.44	0.00046843	0.00028076	304.38	51.341	6.0357e-06	3.0369e-06	114.34	28.808	12.744	3.5276	3.9578e-06	13.426	0.00020973	0.00020273	6.5451e-05	240.92	2.9336e-05	9.5699e-06	331.35	59.516	2.2993e-06	2.1029e-06	389.5	32.054	16.67	4.6591	2.1087e-06	36.146	307.807	335.899	405.943	71.488	356.385	260.149	72.111	77.499	195.619	191.532	409.371	82.266	82.639	87.853	234.949	99.659	-8191	255	
2646.444	1	1	0	0	0.097006	0.04707	0.22886	0.20559	0.18218	0.20414	0.1252	0.072659	0.11454	0.31409	0.032587	0.14324	0.20025	0.21032	0.16952	0.14227	-2.5271	-2.875	-2.5687	-3.0333	-2.7958	-2.9375	-2.9104	-2.6896	-3.0062	-2.9792	-2.8604	-2.9708	-2.6479	-2.7062	-3.0333	-2.825	360.590	404.506	339.660	398.221	168.551	324.123	212.212	384.390	88.826	168.332	352.673	155.725	102.181	204.012	159.446	356.515	0.0003294	7.3663e-05	0.00026908	218.15	0.00049857	0.00025555	306.38	51.927	5.2866e-06	3.6552e-06	116.33	28.884	13.057	3.5537	2.4909e-06	13.739	0.00020212	0.00018992	6.2418e-05	243.17	4.0601e-06	3.5708e-05	332.96	60.036	2.2384e-06	2.0877e-06	370.51	32.238	16.601	4.7777	2.1446e-06	38.122	307.622	111.752	78.134	71.476	358.638	262.503	72.100	77.672	224.763	157.673	412.462	81.879	82.946	87.577	153.487	101.587	-8191	255	
2646.540	1	1	0	0	0.024136	0.12373	0.25206	0.18421	0.2858	0.40595	0.090877	0.17721	0.13283	0.30257	0.18434	0.11105	0.30898	0.033391	0.17384	0.22282	-2.5896	-2.7625	-2.7667	-2.9146	-2.7188	-2.9292	-3.1417	-2.6021	-2.8542	-3.0396	-2.8083	-2.9792	-2.625	-2.5354	-3.1125	-2.7958	365.864	192.985	394.243	110.722	203.922	337.713	248.845	239.261	326.829	118.148	358.990	167.826	94.747	111.140	193.336	90.004	0.00021683	0.00032845	0.00022286	217.86	2.5453e-06	0.00053296	304.72	51.53	4.9315e-06	2.5419e-06	124.04	28.83	12.909	3.5085	2.5536e-06	9.6243	0.00020643	0.00019198	6.3002e-05	243.33	2.1031e-06	4.2069e-05	332.51	59.95	2.265e-06	2.1099e-06	386.97	32.136	16.506	4.7157	2.1813e-06	26.802	323.807	381.803	88.740	71.815	191.111	330.936	71.964	77.501	227.821	207.830	412.281	82.288	82.768	87.071	244.415	85.521	-8191	255	
2646.637	1	1	0	0	0.28574	0.18279	0.10124	0.13618	0.17065	0.21902	0.18231	0.25467	0.15314	0.16767	0.29452	0.079912	0.15672	0.074338	0.23328	0.28801	-2.5125	-2.9417	-2.5083	-2.9396	-2.7375	-2.6937	-3.0563	-2.7979	-2.8688	-3.1437	-2.725	-3.1542	-2.6625	-2.7667	-2.9854	-2.7458	368.471	301.638	377.119	282.918	138.269	228.190	72.518	264.431	321.525	410.427	208.316	80.269	139.957	364.655	72.251	319.873	0.015418	8.6725e-05	0.00013852	218.65	3.3982e-06	0.00056573	305.78	51.173	9.1002e-06	1.7251e-06	123.66	28.785	12.768	3.4686	1.9683e-06	9.2639	0.0010001	0.00019577	6.1067e-05	243.69	2.1294e-06	4.4319e-05	332.32	59.068	2.3983e-06	2.1444e-06	367.42	32.112	16.467	4.6833	2.1914e-06	11.439	304.982	132.894	65.261	71.721	220.207	336.267	71.565	77.442	201.723	366.909	414.818	81.824	83.637	87.885	228.568	88.426	-8191	255	
2646.733	1	1	0	0	0.23036	0.11339	0.083939	0.10548	0.22356	0.15375	0.0051822	0.074723	0.030064	0.19368	0.1474	0.20968	0.008251	0.24906	0.066551	0.19091	-2.4458	-2.9938	-2.5625	-3.0438	-2.6708	-2.7521	-3.0792	-2.7062	-2.7146	-3.0479	-2.7708	-3.0125	-2.9313	-2.7833	-2.9625	-2.75	117.074	370.254	244.629	269.165	116.063	399.224	258.344	220.149	257.502	363.662	383.806	281.997	412.872	188.548	68.635	382.801	0.016143	0.00025613	0.00013139	217	1.1107e-06	0.00052591	305.96	51.707	6.487e-06	1.2646e-06	129.33	28.558	12.756	3.5015	2.0591e-06	9.9044	0.0033615	0.00019707	6.0387e-05	243.02	2.0867e-06	4.1187e-05	332.47	58.802	2.4814e-06	2.1267e-06	376.9	32.11	16.388	4.6568	2.122e-06	11.259	307.330	76.569	396.193	71.716	197.866	341.851	71.870	77.423	221.564	285.312	415.666	82.209	83.271	87.889	71.761	86.350	-8191	255	
2646.853	1	1	0	0	0.076105	0.23273	0.17143	0.11611	0.073928	0.058658	0.12007	0.21909	0.18567	0.097996	0.29919	0.1671	0.1356	0.15598	0.30305	0.22219	-2.3979	-2.9583	-2.6771	-2.9625	-2.9771	-2.7812	-3.0208	-2.8479	-2.7646	-2.9542	-2.7708	-2.8833	-2.95	-2.7146	-2.8833	-2.7375	164.550	98.749	365.792	114.522	288.446	353.385	385.766	387.108	294.479	323.811	395.170	197.627	92.597	348.202	382.764	61.066	0.013059	0.00015903	0.00012845	220.57	9.3491e-07	0.00054121	306.75	51.468	6.3963e-06	1.8489e-06	93.343	36.227	12.932	3.5654	2.7004e-06	10.123	0.00352	0.00018943	5.7985e-05	244.17	2.0328e-06	4.1673e-05	332.22	58.857	2.3701e-06	2.0883e-06	250.16	46.044	16.439	4.6801	2.1936e-06	11.45	322.094	310.082	398.590	71.698	98.382	347.609	71.957	77.262	242.404	323.244	414.865	80.230	83.437	87.330	395.219	86.442	-8191	255	
2646.948	1	1	0	0	0.21344	0.23446	0.12013	0.28769	0.10943	0.21256	0.068486	0.1529	0.11343	0.061929	0.1373	0.1123	0.14962	0.047589	0.14438	0.26897	-2.0792	-2.9417	-2.6333	-2.9354	-3.0792	-2.6167	-3.0687	-2.75	-2.8479	-3.0312	-2.7604	-2.9562	-2.7104	-2.5167	-2.9	-2.8	67.447	258.828	357.114	284.923	338.673	395.846	290.488	304.417	219.604	359.253	381.170	309.482	326.342	412.797	190.907	313.286	0.014687	0.00014797	0.00014492	220.97	3.2715e-06	0.00051435	306.25	52.171	5.3833e-06	9.4076e-07	102.71	37.933	13.032	3.5857	2.311e-06	10.195	0.0037629	0.00019065	5.3077e-05	246.23	2.0852e-06	3.9472e-05	334.84	59.461	2.4084e-06	2.116e-06	113.11	81.642	16.733	4.7225	2.207e-06	11.536	323.691	174.384	389.109	71.416	329.251	353.937	71.731	77.589	187.764	175.438	76.773	80.300	82.760	87.906	416.935	85.866	-8191	255	
2647.044	1	1	0	0	0.097292	0.067159	0.15541	0.17418	0.11491	0.094989	0.080019	0.18812	0.20263	0.059309	0.19377	0.21686	0.28998	0.23996	0.24655	0.11184	-2.2875	-2.8937	-2.5938	-2.7521	-2.7062	-2.5375	-2.9479	-2.9	-2.525	-2.9479	-2.85	-2.8688	-3.0292	-2.7604	-2.9125	-2.7979	115.488	379.298	353.874	65.506	256.186	332.584	365.144	112.548	179.634	326.002	298.532	167.840	395.987	210.892	143.685	112.518	0.013369	0.00026285	0.00010642	220.29	3.9215e-06	0.0005337	309.11	52.079	7.4625e-06	1.5594e-06	101.66	35.756	13.103	3.5721	1.5539e-06	10.191	0.0035541	0.00019368	5.1557e-05	247.23	2.0822e-06	4.2103e-05	335.46	59.403	2.3786e-06	2.1201e-06	112.94	84.025	16.682	4.7019	2.1756e-06	11.495	328.369	176.779	215.969	71.608	263.750	359.928	71.867	77.461	211.620	268.611	76.730	70.112	82.329	87.176	292.445	86.714	-8191	255	
2647.140	1	1	0	0	0.26947	0.11461	0.14449	0.13514	0.06889	0.13799	0.035243	0.11744	0.27939	0.3952	0.17067	0.14852	0.11997	0.09371	0.096914	0.0311	-2.1083	-3.0021	-2.7625	-2.7229	-2.9646	-2.7687	-2.8125	-2.8854	-2.7854	-2.8312	-2.7812	-2.9708	-3.0167	-2.6667	-2.7062	-2.9667	398.307	234.654	126.548	291.495	323.701	163.021	97.904	325.187	199.985	252.065	91.586	201.302	221.858	118.689	395.652	368.247	0.014492	0.00057419	1.1678e-05	220.16	1.818e-06	0.0005351	309.69	51.935	4.189e-06	3.1683e-06	102.95	36.988	12.726	3.4995	2.6927e-06	9.9978	0.0037917	0.00019505	5.1638e-05	247.1	2.1228e-06	2.2147e-05	429.72	59.419	2.3341e-06	2.2036e-06	113.25	88.039	16.616	4.5719	2.3589e-06	11.412	335.813	202.575	220.727	71.747	351.699	370.542	72.903	77.428	254.425	276.150	76.718	70.535	82.680	87.792	174.108	86.915	-8191	255	
2647.261	1	1	0	0	0.11115	0.13087	0.23664	0.31033	0.078409	0.13194	0.29554	0.15958	0.074145	0.055548	0.17981	0.26758	0.13939	0.30781	0.13805	0.097245	-2.2917	-2.9458	-2.8042	-2.7458	-3.0812	-2.6792	-2.8729	-3.0104	-2.8042	-2.8729	-2.8646	-2.7438	-2.9271	-2.8083	-2.6458	-3.1021	314.276	71.429	60.962	154.662	334.679	417.807	340.763	364.656	378.459	61.524	353.934	363.466	198.208	256.331	368.163	403.742	0.013919	0.00015607	8.4476e-05	219.97	2.5946e-06	7.2583e-07	310.42	51.685	2.0882e-06	2.8501e-06	100.76	36.413	12.834	3.4991	5.7892e-06	9.8232	0.003572	0.00020312	5.3532e-05	246.29	2.1758e-06	2.1012e-06	630.84	59.054	2.388e-06	2.2413e-06	112.21	84.661	16.649	4.5116	2.4995e-06	11.337	340.194	254.007	241.839	71.418	300.539	302.338	72.719	77.861	247.062	200.678	76.059	72.132	83.351	87.385	394.480	87.021	-8191	255	
2647.332	1	1	0	0	0.10111	0.19245	0.21655	0.17921	0.31146	0.14437	0.19344	0.14795	0.23642	0.16938	0.25813	0.082051	0.29596	0.3691	0.11593	0.10705	-2.3792	-2.8583	-2.925	-2.7583	-3.0896	-2.9271	-2.9062	-2.9958	-2.7354	-2.7542	-3.1625	-2.7646	-2.9083	-2.7812	-2.8958	-3.125	285.983	268.906	133.276	351.986	106.644	335.015	405.342	274.691	290.323	153.595	195.660	138.860	316.214	406.937	215.350	383.647	0.014409	6.5486e-05	8.357e-05	218.74	1.6883e-06	2.6713e-06	275.13	51.296	3.1033e-06	5.4668e-06	101.14	37.907	13.026	3.5382	3.9822e-06	9.9576	0.0038314	0.00020504	5.3758e-05	245.75	2.1892e-06	2.0928e-06	630.71	59.027	2.3191e-06	2.2148e-06	112.8	87.847	16.737	4.562	2.4435e-06	11.449	344.903	240.807	267.378	71.717	338.608	132.618	63.894	77.366	264.713	257.699	76.568	73.206	83.450	87.379	419.000	86.477	-8191	255	
2647.453	1	1	0	0	0.21095	0.33629	0.086575	0.27149	0.18021	0.04783	0.2327	0.030516	0.04299	0.094932	0.24846	0.17603	0.073178	0.10606	0.15987	0.12791	-2.3812	-3.0625	-2.7833	-2.6604	-3.125	-2.6688	-2.7854	-3.0667	-2.7583	-2.8146	-3.0521	-2.8729	-2.9854	-3.0021	-2.6562	-3.125	190.467	309.157	105.505	376.940	413.665	224.426	213.510	225.134	228.558	319.877	130.840	381.018	388.674	73.144	350.554	243.766	0.0060996	0.033921	0.00011013	219.77	7.2374e-06	4.898e-07	276.69	52.021	3.2858e-06	5.5396e-06	101.94	37.607	13.095	3.5929	9.0753e-06	10.129	0.0018301	0.0014436	5.3177e-05	245.46	2.2128e-06	2.0604e-06	652.92	59.489	2.0945e-06	2.3482e-06	113.4	84.804	16.818	4.5947	2.4099e-06	11.563	416.092	194.262	242.769	72.057	198.794	124.069	62.735	77.395	289.687	243.409	76.606	75.083	82.803	87.731	63.062	86.666	-8191	255	
2647.549	1	1	0	0	0.11262	0.049322	0.16969	0.079661	0.1231	0.32452	0.07765	0.2625	0.089398	0.22509	0.18649	0.14387	0.14841	0.032476	0.06448	0.14826	-2.2083	-2.8063	-2.8979	-2.6063	-2.8083	-2.8854	-2.5312	-2.9437	-2.8083	-2.7854	-2.9646	-2.8625	-2.8854	-2.9521	-2.725	-2.9083	107.565	216.378	277.041	254.058	321.636	304.039	273.630	321.207	215.794	259.714	71.758	75.673	186.566	406.622	105.967	316.303	0.00018806	0.034511	5.0678e-05	220.38	2.7024e-06	4.4852e-06	285.72	52.163	9.1677e-07	7.8063e-06	101.99	38.612	13.216	3.6311	7.5704e-06	10.025	0.00018441	0.0038152	5.2364e-05	246.74	2.1693e-06	2.051e-06	634.05	59.699	2.0275e-06	2.4482e-06	113.91	89.462	16.858	4.596	2.4417e-06	11.533	311.049	196.998	363.823	71.626	192.600	122.313	62.317	77.736	116.967	256.604	76.758	75.818	82.411	87.455	66.916	86.344	-8191	255	
2647.645	1	1	0	0	0.064109	0.073667	0.23123	0.18624	0.11938	0.079498	0.17911	0.29056	0.12188	0.2646	0.051322	0.20899	0.14679	0.10571	0.037492	0.31314	-2.2958	-2.6604	-3.0687	-2.8521	-2.9896	-2.8958	-2.7625	-2.9042	-2.8646	-2.7896	-3.0542	-2.8729	-2.9708	-3.0563	-2.8167	-2.9938	327.285	295.096	325.006	120.657	127.987	133.429	302.741	130.474	129.191	189.245	274.083	247.195	330.177	187.009	75.818	166.385	0.0002523	0.03776	4.733e-05	218.66	8.5468e-06	2.9855e-06	288.37	51.713	2.6223e-06	5.0038e-06	101.3	28.561	27.164	3.5398	7.0288e-06	9.8959	0.00018716	0.0037556	5.37e-05	244.84	2.2125e-06	2.0814e-06	659.51	59.122	2.049e-06	2.4423e-06	112.93	55.472	47.14	4.5561	2.3337e-06	11.453	299.815	231.691	94.388	71.973	203.088	181.245	61.800	77.347	228.594	297.255	76.412	72.487	80.221	87.134	415.999	86.630	-8191	255	
2647.741	1	1	0	0	0.098509	0.17574	0.088357	0.45779	0.11533	0.21696	0.48279	0.19918	0.24832	0.13872	0.31144	0.14557	0.25531	0.078112	0.34121	0.22596	-2.4271	-2.8438	-2.9125	-2.7479	-2.85	-2.8396	-2.7125	-3.1083	-2.8063	-2.7104	-2.9229	-2.7438	-2.5854	-2.9083	-2.575	-2.9333	330.143	174.247	273.997	243.407	79.922	243.270	276.507	298.286	319.073	85.856	157.777	354.080	317.482	286.026	316.120	81.755	0.00023886	0.042045	5.3107e-05	217.42	7.9905e-06	2.6977e-06	290.16	51.413	3.357e-06	4.0513e-06	101.15	29.024	27.246	3.5516	8.8353e-07	9.986	0.00018725	0.0039622	5.3732e-05	241.41	2.3758e-06	2.0916e-06	634.75	59.079	2.0486e-06	2.4095e-06	113.05	32.185	98.053	4.5802	2.3363e-06	11.5	310.146	235.391	132.666	71.372	212.887	336.359	61.950	77.562	153.370	250.185	76.486	82.358	66.764	88.222	237.387	86.272	-8191	255	
2647.836	1	1	0	0	0.19697	0.089706	0.081915	0.17917	0.1444	0.1312	0.22095	0.3182	0.17535	0.1086	0.14299	0.11492	0.14586	0.18408	0.13125	0.02348	-2.475	-2.7417	-2.9083	-2.7604	-2.8604	-3.1583	-2.8271	-3.0167	-3.0938	-2.6958	-3.0542	-2.9104	-2.725	-3.0896	-2.7812	-2.9146	214.870	402.614	335.060	393.093	170.495	154.231	373.201	234.602	134.216	230.445	297.471	133.553	371.763	211.179	131.296	147.478	0.00018864	0.039795	5.3572e-05	217.17	9.2003e-06	4.0243e-06	300.51	51.494	4.9369e-07	7.0126e-06	101.11	29.124	26.62	3.5781	4.029e-06	10.008	0.0001896	0.0037969	5.3776e-05	241.92	2.4572e-06	2.1109e-06	661.8	59.368	2.0674e-06	2.4098e-06	113.15	32.277	93.335	4.5884	2.2659e-06	11.499	311.315	241.995	192.755	71.817	163.748	215.029	60.715	77.484	60.243	316.413	76.812	82.225	68.857	87.544	416.528	86.536	-8191	255	
2647.932	1	1	0	0	0.072487	0.22939	0.12137	0.31337	0.1154	0.03498	0.10472	0.052414	0.18982	0.059241	0.19101	0.087351	0.20142	0.099765	0.19831	0.16975	-2.7062	-2.5667	-2.8312	-2.9021	-2.9125	-3.2062	-2.8375	-2.8521	-2.975	-2.75	-2.9062	-2.9	-2.6646	-3.0312	-2.8896	-2.7333	233.884	322.991	92.693	380.857	340.278	257.014	190.044	306.684	341.640	366.316	172.210	318.079	139.948	382.915	152.277	402.173	0.00021717	0.04283	0.00016521	218.97	6.5461e-06	2.9423e-06	281.31	58.699	2.7749e-06	2.6829e-06	102.13	28.931	27.684	3.5759	4.9449e-06	10.119	0.00019043	0.0040502	5.5513e-05	242.48	2.4335e-06	2.1124e-06	454.18	111.23	2.1037e-06	2.3604e-06	114.32	32.346	98.104	4.6026	2.0827e-06	11.672	302.998	248.894	228.878	71.598	220.952	267.590	61.598	75.117	205.672	305.160	76.380	82.044	72.988	87.439	373.274	85.985	-8191	255	
2648.028	1	1	0	0	0.070897	0.12916	0.19825	0.1896	0.15158	0.16763	0.084109	0.2209	0.36066	0.1831	0.19536	0.076977	0.19227	0.018797	0.18025	0.32698	-2.4854	-2.7604	-3.1104	-3.0312	-2.7208	-3.1312	-2.9104	-2.8	-3.0083	-2.6937	-2.9854	-2.7729	-2.6833	-2.9083	-2.7396	-2.6833	159.802	108.367	76.558	137.257	220.315	243.728	129.319	98.694	274.801	238.796	261.193	36.823	298.914	184.665	72.280	220.279	0.00029573	0.038694	0.00016464	218.04	5.5287e-06	3.0284e-06	307.14	50.364	8.2981e-07	2.618e-06	101.51	28.508	27.013	3.5046	1.4554e-06	9.7302	0.00019267	0.0037561	5.6046e-05	242.34	2.4672e-06	2.1561e-06	333.7	181.25	2.1488e-06	2.3594e-06	113.34	31.953	92.959	4.5367	2.098e-06	11.481	288.233	253.424	232.118	71.634	191.499	382.247	72.422	53.714	116.785	280.803	76.943	81.987	76.211	86.907	153.117	86.215	-8191	255	
2648.124	1	1	0	0	0.32331	0.20652	0.05511	0.24628	0.2156	0.14512	0.16116	0.12935	0.18018	0.1639	0.17161	0.24872	0.16097	0.090682	0.17451	0.17687	-2.7062	-2.8229	-2.8292	-2.9083	-2.6583	-3.1063	-2.8937	-2.8104	-2.95	-2.8771	-2.9646	-2.9729	-2.4417	-2.6646	-2.85	-2.8146	343.889	135.440	326.326	143.358	184.897	295.537	318.549	62.050	71.702	167.563	163.541	100.499	95.741	330.917	392.125	326.167	0.00030598	0.030136	0.00011126	216.73	4.5158e-06	6.8241e-07	304.01	52.249	3.653e-06	3.6309e-06	99.621	28.036	27.65	3.3975	2.9336e-06	9.5365	0.00019841	0.0039275	5.7961e-05	241.52	2.4997e-06	2.2349e-06	331.53	174.9	2.2581e-06	2.3713e-06	112.66	31.52	99.99	4.4919	2.1776e-06	11.233	308.073	301.042	224.244	71.712	234.340	309.395	71.724	55.605	255.100	337.607	77.174	82.207	78.059	86.996	74.216	86.044	-8191	255	
2648.220	1	1	0	0	0.11316	0.13128	0.16502	0.11069	0.18102	0.14545	0.30234	0.25057	0.19632	0.15714	0.10971	0.22396	0.085261	0.049807	0.28363	0.063172	-2.6813	-2.7125	-2.8875	-2.8375	-2.7271	-2.9646	-2.8125	-2.6562	-3.0979	-2.6312	-2.8583	-2.9542	-2.6896	-2.9062	-2.9938	-2.8375	394.599	237.092	232.513	181.245	339.385	220.198	205.777	369.158	126.911	77.005	158.074	211.103	104.209	54.098	297.947	246.891	0.00018625	0.031824	0.0081856	216.29	6.6922e-06	3.6682e-06	306.29	54.523	1.5876e-06	4.2479e-06	98.963	27.78	26.88	3.3812	1.7895e-06	9.3891	0.00020528	0.0014857	0.00056951	241.61	2.488e-06	2.3398e-06	332.83	185.33	2.2694e-06	2.1825e-06	113.59	31.386	95.37	4.4553	2.2106e-06	11.137	303.603	303.594	219.658	71.836	231.657	231.411	71.765	53.734	81.242	375.216	76.756	82.380	81.495	87.693	209.729	86.265	-8191	255	
2648.341	1	1	0	0	0.047315	0.19754	0.2033	0.16973	0.12953	0.092925	0.29879	0.066107	0.18932	0.23361	0.10543	0.21657	0.18853	0.23156	0.29989	0.098969	-2.4896	-2.7375	-2.6479	-2.8896	-2.6208	-2.7979	-2.8563	-2.6688	-3.0208	-2.6354	-2.5604	-3.025	-2.6896	-2.8312	-2.9125	-2.6562	338.791	78.963	155.561	58.453	117.056	293.279	51.051	133.880	152.999	78.076	320.197	302.256	90.401	138.869	240.795	281.180	0.00030045	1.0679e-05	0.014493	217.33	4.4417e-06	3.736e-06	302.92	55.744	3.4223e-06	3.8968e-07	99.55	28.105	11.703	3.3605	1.5478e-06	9.4054	0.00020699	0.00019913	0.0011785	242.66	2.5042e-06	2.3377e-06	333.05	179.28	2.2855e-06	2.2006e-06	115	31.606	96.312	4.4918	2.258e-06	11.185	310.106	213.177	276.293	71.702	212.661	220.222	71.991	55.888	242.970	156.411	76.882	82.381	69.626	87.864	390.675	86.367	-8191	255	
2648.437	1	1	0	0	0.13741	0.089194	0.11078	0.10613	0.12125	0.11646	0.027146	0.098575	0.2206	0.25131	0.14984	0.11852	0.21572	0.22709	0.12098	0.17377	-2.7417	-2.7854	-2.7729	-3.2021	-2.6625	-2.9646	-2.9625	-2.8354	-2.9958	-2.7979	-2.7167	-3.2125	-2.7583	-2.8271	-3.15	-2.75	101.438	321.359	362.478	191.439	365.079	56.794	177.085	167.231	71.338	121.979	206.977	158.718	53.986	282.027	146.501	304.638	0.00020758	0.00026018	0.013948	216.71	1.9336e-06	9.0546e-06	306.49	58.335	4.6073e-06	1.1764e-06	98.933	27.828	11.467	6.9205	2.5492e-06	9.4602	0.00020706	0.00020238	0.0011096	242.73	2.386e-06	2.4112e-06	334.18	187.32	2.3905e-06	2.2176e-06	114.6	31.397	40.363	14.647	2.2829e-06	11.048	323.884	159.443	280.245	71.496	276.184	226.571	71.870	55.822	104.043	184.727	76.805	82.008	74.663	96.383	340.191	86.451	-8191	255	
2648.533	1	1	0	0	0.075595	0.28609	0.15837	0.22544	0.16543	0.1359	0.37757	0.20272	0.17888	0.027866	0.13436	0.10009	0.22375	0.22887	0.22155	0.12475	-2.4021	-2.7833	-2.7042	-2.8854	-2.8896	-3.0333	-3.0896	-2.7062	-3.0417	-2.9	-2.5833	-3.0396	-2.6562	-2.8312	-2.8917	-2.5792	116.421	87.973	70.061	256.479	142.476	357.240	352.608	389.951	395.727	358.248	237.081	382.336	219.560	73.366	165.655	177.535	0.00021961	0.00014755	0.014611	215.06	2.8452e-06	1.1185e-05	304.03	57.951	4.3504e-06	1.6125e-06	98.031	27.621	12.345	6.7926	1.2741e-06	9.28	0.00021395	0.00020394	0.0011808	240.99	2.1965e-06	2.6065e-06	332.18	177.01	2.3456e-06	2.2352e-06	113.55	31.197	16.083	24.386	2.2653e-06	11.001	305.851	232.221	286.748	71.548	156.804	238.360	72.217	57.822	120.285	89.981	77.153	81.974	83.218	94.838	223.045	86.161	-8191	255	
2648.630	1	1	0	0	0.065608	0.18372	0.11021	0.082063	0.19074	0.12914	0.077447	0.10861	0.38222	0.079062	0.18176	0.14765	0.27392	0.031993	0.13342	0.052565	-2.5896	-2.9	-2.8375	-3.225	-2.8458	-2.7792	-2.9938	-2.7875	-2.9604	-2.9625	-2.6896	-2.9688	-2.7542	-2.7021	-3.1229	-2.8625	316.327	70.678	40.374	336.329	305.285	68.299	164.969	137.240	345.878	226.327	263.577	97.772	239.917	93.726	334.717	225.228	0.00019849	9.9467e-05	0.013251	214.88	2.2599e-06	8.4604e-06	303.29	46.688	4.6477e-06	2.3541e-06	98.707	27.704	12.248	6.524	3.2028e-06	9.3765	0.00021197	0.00020329	0.0010963	240.98	2.183e-06	2.6278e-06	331.39	169.63	2.3607e-06	2.2282e-06	113.68	31.238	16.078	22.958	2.2403e-06	10.947	272.219	59.138	294.200	71.839	238.768	234.166	72.105	53.193	203.639	175.211	76.529	82.463	83.214	98.477	276.892	86.129	-8191	255	
2648.726	1	1	0	0	0.14895	0.21021	0.13573	0.021561	0.1093	0.373	0.17987	0.27137	0.11756	0.11106	0.10266	0.12195	0.18979	0.31511	0.19931	0.10093	-2.3604	-2.9417	-2.7125	-2.8958	-2.7104	-2.8229	-3.0062	-2.8438	-2.9583	-2.9062	-2.7792	-2.9292	-2.9729	-2.7375	-2.9958	-2.6979	62.481	112.462	42.568	358.517	132.700	184.242	243.314	349.817	92.433	380.909	368.208	357.944	60.037	46.192	115.744	392.272	0.00037559	0.00021103	0.014222	215.72	2.7302e-06	4.8948e-06	306.61	47.926	0.00036675	4.9097e-07	99.271	28.003	12.502	6.6686	3.6187e-06	9.5524	0.00021604	0.00019968	0.0011613	241.91	2.1623e-06	2.5451e-06	333.58	88.171	2.6014e-05	2.1785e-06	113.53	31.628	16.251	24.159	2.1975e-06	10.976	280.713	263.740	298.245	71.543	229.222	217.156	71.982	55.641	148.645	331.226	76.413	82.985	83.183	102.152	135.563	86.784	-8191	255	
2648.822	1	1	0	0	0.24585	0.22471	0.361	0.14909	0.19797	0.15654	0.14359	0.076971	0.10546	0.12273	0.05446	0.24381	0.12466	0.014142	0.079835	0.1068	-2.2458	-3.0438	-2.8208	-2.8812	-2.9167	-2.6104	-2.9792	-2.7417	-2.8396	-3.1063	-2.7188	-2.8479	-2.9354	-2.6917	-2.8937	-2.8292	364.715	127.141	188.526	322.244	219.602	353.337	70.934	372.810	177.573	230.228	64.777	224.773	239.940	130.008	375.671	396.440	0.00030511	0.00038776	0.013395	217.45	6.419e-07	9.3419e-06	307.32	51.167	0.00054389	2.4182e-06	100.57	28.22	12.475	6.3992	2.0072e-06	9.4895	0.00023002	0.00020178	0.0010862	243.16	2.169e-06	2.5562e-06	335.36	58.435	4.587e-05	2.2221e-06	114.16	31.79	16.307	23.037	2.2489e-06	10.948	288.682	189.993	304.830	71.720	124.206	244.023	72.220	77.782	91.855	209.196	76.391	82.189	83.112	103.530	198.933	86.336	-8191	255	
2648.941	1	1	0	0	0.23047	0.1152	0.25948	0.13514	0.043052	0.13637	0.12284	0.12973	0.29284	0.16188	0.1132	0.27896	0.13233	0.06424	0.030495	0.12268	-2.1188	-3.0833	-2.6312	-2.775	-3.1083	-2.6354	-3.0458	-2.8896	-2.6937	-3.1437	-2.7083	-2.8312	-2.95	-2.7625	-3.0563	-3.0062	214.524	84.976	342.621	137.224	392.878	310.558	406.647	294.591	144.310	358.229	96.410	198.174	189.667	73.823	360.853	283.301	0.00029892	0.00019769	0.014088	218.86	2.2938e-06	6.9624e-06	307.67	50.195	0.00052881	1.9113e-06	99.486	27.739	12.316	6.5404	5.4302e-06	9.3571	0.00023574	0.00020485	0.00098552	248.87	2.2137e-06	2.5175e-06	334.43	58.103	4.3727e-05	2.2846e-06	112.61	31.684	16.234	24.549	2.3571e-06	10.868	262.802	368.704	325.670	76.242	190.797	271.009	71.891	77.512	97.547	244.772	76.649	82.285	83.141	107.856	178.683	86.211	-8191	255	
2649.037	1	1	0	0	0.085585	0.10595	0.23993	0.11239	0.28416	0.16876	0.1485	0.10929	0.11795	0.2362	0.21869	0.032315	0.082622	0.32758	0.1169	0.15478	-2.1417	-3.0479	-2.7521	-2.7896	-3.0146	-2.8208	-2.9729	-2.8771	-3.0708	-3.0458	-2.825	-2.9938	-2.9	-2.7583	-2.9875	-2.8333	341.930	377.885	100.271	63.450	264.486	282.341	396.571	84.849	208.081	106.208	329.732	197.796	299.669	376.819	247.720	59.813	0.00024156	0.00015631	0.013841	217.48	3.0436e-06	3.8902e-06	305.18	50.611	0.00055511	1.0324e-06	98.934	27.721	12.384	6.2368	5.9132e-06	9.4535	0.00023712	0.00020893	0.00027831	456.95	2.259e-06	2.5061e-06	333.42	57.973	4.6568e-05	2.2754e-06	111.3	31.84	16.226	23.07	2.3607e-06	10.908	272.007	126.469	327.903	75.387	162.273	258.710	72.032	77.354	102.969	102.314	76.679	82.276	82.913	109.629	300.284	86.371	-8191	255	
2649.133	1	1	0	0	0.18995	0.18163	0.13193	0.34149	0.14182	0.062914	0.26555	0.16142	0.12692	0.27484	0.14239	0.070712	0.077993	0.023752	0.21417	0.15334	-2.1583	-2.8917	-2.8375	-2.7271	-2.95	-2.7313	-2.8604	-2.9188	-2.7083	-3.1	-3.0396	-2.6271	-2.9875	-2.7792	-2.8125	-2.8854	320.742	152.153	359.511	119.511	370.307	179.975	65.270	345.532	142.842	126.368	407.533	145.891	98.230	84.104	240.406	391.752	0.00024748	0.00029506	9.2011e-05	154.83	3.2268e-06	1.5393e-06	303.78	49.992	0.00052283	1.6116e-06	99.214	27.623	12.184	2.6998	0.00059313	9.4245	0.00023738	0.00020679	5.5397e-05	604.32	2.234e-06	2.4698e-06	331.47	57.706	4.3167e-05	2.2274e-06	110.94	31.713	16.134	19.978	4.9139e-06	10.885	258.359	206.540	193.795	71.660	143.347	297.408	72.049	77.025	109.436	69.644	76.493	82.198	82.910	100.949	239.078	86.527	-8191	255	
2649.229	1	1	0	0	0.1169	0.13893	0.15188	0.17125	0.060433	0.30253	0.27085	0.20666	0.15125	0.098949	0.18493	0.30934	0.18947	0.17174	0.13347	0.13594	-2.2062	-2.7812	-2.6229	-2.7708	-2.9479	-2.7979	-2.8146	-3.0083	-2.7938	-2.9042	-2.8875	-2.7458	-3.0604	-2.8125	-2.9646	-3.025	170.536	304.927	409.387	67.556	305.676	183.630	383.038	70.561	401.351	411.463	342.254	291.769	274.717	400.152	233.833	162.578	0.00019912	9.5133e-05	8.0658e-05	159.98	2.3756e-06	1.673e-06	304.25	50.509	0.000561	2.3981e-06	100.24	27.749	12.434	2.728	0.00053277	9.5382	0.00022248	0.00020579	5.4202e-05	576.09	2.2047e-06	2.2531e-06	332.82	57.845	4.5604e-05	2.275e-06	111.42	31.954	16.206	7.4218	2.9716e-05	10.996	294.540	224.941	88.883	70.085	158.164	301.501	71.911	77.797	115.830	147.774	76.301	82.024	83.242	101.611	241.277	86.586	-8191	255	
#DATA ENDS
