BOXY.EXE: ISS Imagent and Oximeter Data Acquisition Program Version 0.80
Ascii Record File

#ACQ INFORMATION
2  Detector Channels 
16  External MUX Channels 
1  Auxiliary Channels 
5000  Waveform (CCF) Frequency (Hz)
1  Waveforms Skipped 
30  Waveforms Averaged 
1  Cycles Averaged 
16  Acquisitions per Waveform 
10.0806  Updata Rate (Hz) 

#FILE INFORMATION
TRUE -- External MUX Channel results are PARSED.
FALSE -- AC DC and Phase are NOT grouped.
TRUE -- Companion Program Settings File CREATED.
FALSE -- AC data not excluded
FALSE -- DC data not excluded
FALSE -- Phase data not excluded
FALSE -- Auxillary Chn. data not excluded
Tab delimiters

#CALIBRATION STATE
TRUE -- Waveform Calibration Values APPLIED.


#AUX CALIBRATION VALUES
Val Type	aux-1	

Term	1.0000e+00	
Factor	0.0000e+00	


#WF CALIBRATION VALUES
A = Detector Channel
Val Type	A-AC1	A-AC2	A-AC3	A-AC4	A-AC5	A-AC6	A-AC7	A-AC8	A-AC9	A-AC10	A-AC11	A-AC12	A-AC13	A-AC14	A-AC15	A-AC16	A-DC1	A-DC2	A-DC3	A-DC4	A-DC5	A-DC6	A-DC7	A-DC8	A-DC9	A-DC10	A-DC11	A-DC12	A-DC13	A-DC14	A-DC15	A-DC16	A-Ph1	A-Ph2	A-Ph3	A-Ph4	A-Ph5	A-Ph6	A-Ph7	A-Ph8	A-Ph9	A-Ph10	A-Ph11	A-Ph12	A-Ph13	A-Ph14	A-Ph15	A-Ph16	

Term	0.00000e+00	0.00000e+00	0.00000e+00	0.00000e+00	0.00000e+00	0.00000e+00	0.00000e+00	0.00000e+00	0.00000e+00	0.00000e+00	0.00000e+00	0.00000e+00	0.00000e+00	0.00000e+00	0.00000e+00	0.00000e+00	0.00000e+00	0.00000e+00	0.00000e+00	0.00000e+00	0.00000e+00	0.00000e+00	0.00000e+00	0.00000e+00	0.00000e+00	0.00000e+00	0.00000e+00	0.00000e+00	0.00000e+00	0.00000e+00	0.00000e+00	0.00000e+00	0.00000e+00	0.00000e+00	0.00000e+00	0.00000e+00	0.00000e+00	0.00000e+00	0.00000e+00	0.00000e+00	0.00000e+00	0.00000e+00	0.00000e+00	0.00000e+00	0.00000e+00	0.00000e+00	0.00000e+00	0.00000e+00	
Factor	1.00000e+00	1.00000e+00	1.00000e+00	1.00000e+00	1.00000e+00	1.00000e+00	1.00000e+00	1.00000e+00	1.00000e+00	1.00000e+00	1.00000e+00	1.00000e+00	1.00000e+00	1.00000e+00	1.00000e+00	1.00000e+00	1.00000e+00	1.00000e+00	1.00000e+00	1.00000e+00	1.00000e+00	1.00000e+00	1.00000e+00	1.00000e+00	1.00000e+00	1.00000e+00	1.00000e+00	1.00000e+00	1.00000e+00	1.00000e+00	1.00000e+00	1.00000e+00	X	X	X	X	X	X	X	X	X	X	X	X	X	X	X	X	

B = Detector Channel
Val Type	B-AC1	B-AC2	B-AC3	B-AC4	B-AC5	B-AC6	B-AC7	B-AC8	B-AC9	B-AC10	B-AC11	B-AC12	B-AC13	B-AC14	B-AC15	B-AC16	B-DC1	B-DC2	B-DC3	B-DC4	B-DC5	B-DC6	B-DC7	B-DC8	B-DC9	B-DC10	B-DC11	B-DC12	B-DC13	B-DC14	B-DC15	B-DC16	B-Ph1	B-Ph2	B-Ph3	B-Ph4	B-Ph5	B-Ph6	B-Ph7	B-Ph8	B-Ph9	B-Ph10	B-Ph11	B-Ph12	B-Ph13	B-Ph14	B-Ph15	B-Ph16	

Term	0.00000e+00	0.00000e+00	0.00000e+00	0.00000e+00	0.00000e+00	0.00000e+00	0.00000e+00	0.00000e+00	0.00000e+00	0.00000e+00	0.00000e+00	0.00000e+00	0.00000e+00	0.00000e+00	0.00000e+00	0.00000e+00	0.00000e+00	0.00000e+00	0.00000e+00	0.00000e+00	0.00000e+00	0.00000e+00	0.00000e+00	0.00000e+00	0.00000e+00	0.00000e+00	0.00000e+00	0.00000e+00	0.00000e+00	0.00000e+00	0.00000e+00	0.00000e+00	-1.28747e+02	-1.33826e+02	-1.28549e+02	-1.80942e+02	-7.62500e+01	-8.09811e+01	-1.54237e+02	-1.62015e+02	-7.58400e+01	-9.44173e+01	-1.75125e+02	-1.69314e+02	-1.81664e+02	-1.76960e+02	-5.94591e+01	-1.48622e+02	
Factor	1.82771e-05	1.44101e-04	3.88608e-05	1.54363e-01	1.25011e-06	1.75893e-06	1.64846e-01	6.58057e-02	1.31588e-06	1.62697e-06	1.48855e-01	2.74170e-02	2.93441e-02	8.95402e-03	1.40154e-06	1.27922e-02	1.80991e-06	1.93471e-06	5.39634e-07	7.75589e-02	2.11008e-08	2.13558e-08	7.78935e-02	3.28511e-02	2.11968e-08	2.13614e-08	7.05007e-02	1.33727e-02	1.48024e-02	4.49870e-03	2.12343e-08	6.21207e-03	X	X	X	X	X	X	X	X	X	X	X	X	X	X	X	X	



#DISTANCE SETTINGS
A = Detector Channel
A-1	A-2	A-3	A-4	A-5	A-6	A-7	A-8	A-9	A-10	A-11	A-12	A-13	A-14	A-15	A-16	

2.5000e+00	3.0000e+00	2.5000e+00	3.0000e+00	2.0000e+00	3.0000e+00	1.5000e+00	3.0000e+00	3.0000e+00	3.0000e+00	3.0000e+00	3.0000e+00	3.0000e+00	3.0000e+00	1.5000e+00	3.0000e+00	

B = Detector Channel
B-1	B-2	B-3	B-4	B-5	B-6	B-7	B-8	B-9	B-10	B-11	B-12	B-13	B-14	B-15	B-16	

1.0000e+01	1.0000e+01	1.0000e+01	1.4400e+00	1.0000e+01	1.0000e+01	1.5100e+00	1.9400e+00	1.0000e+01	1.0000e+01	1.9900e+00	2.4900e+00	2.4100e+00	2.9000e+00	1.0000e+01	2.9800e+00	




#DATA BEGINS
time	group	step	mark	flag	A-AC1	A-AC2	A-AC3	A-AC4	A-AC5	A-AC6	A-AC7	A-AC8	A-AC9	A-AC10	A-AC11	A-AC12	A-AC13	A-AC14	A-AC15	A-AC16	A-DC1	A-DC2	A-DC3	A-DC4	A-DC5	A-DC6	A-DC7	A-DC8	A-DC9	A-DC10	A-DC11	A-DC12	A-DC13	A-DC14	A-DC15	A-DC16	A-Ph1	A-Ph2	A-Ph3	A-Ph4	A-Ph5	A-Ph6	A-Ph7	A-Ph8	A-Ph9	A-Ph10	A-Ph11	A-Ph12	A-Ph13	A-Ph14	A-Ph15	A-Ph16	B-AC1	B-AC2	B-AC3	B-AC4	B-AC5	B-AC6	B-AC7	B-AC8	B-AC9	B-AC10	B-AC11	B-AC12	B-AC13	B-AC14	B-AC15	B-AC16	B-DC1	B-DC2	B-DC3	B-DC4	B-DC5	B-DC6	B-DC7	B-DC8	B-DC9	B-DC10	B-DC11	B-DC12	B-DC13	B-DC14	B-DC15	B-DC16	B-Ph1	B-Ph2	B-Ph3	B-Ph4	B-Ph5	B-Ph6	B-Ph7	B-Ph8	B-Ph9	B-Ph10	B-Ph11	B-Ph12	B-Ph13	B-Ph14	B-Ph15	B-Ph16	aux-1	digaux	

1964.057	1	1	0	768	0.051347	0.16897	0.090977	0.13114	0.25933	0.15008	0.019269	0.10548	0.23263	0.19181	0.15652	0.021025	0.14474	0.10685	0.15238	0.11068	-2.8063	-3.0563	-3.3042	-2.8542	-3.3458	-3.1917	-3.0146	-3.1396	-3.0938	-2.9688	-3.2854	-3.0271	-3.1042	-3.3042	-2.9188	-3.3312	36.583	72.494	91.496	249.342	161.943	58.542	106.051	356.431	86.473	280.789	59.701	241.074	279.644	248.948	183.087	267.239	5.3011e-06	3.3566e-05	0.00019796	2.5672	5.8673e-08	4.8538e-07	3.4863	0.78457	3.46e-07	1.4687e-07	0.95616	0.28226	0.11533	0.073295	1.7307e-07	0.10116	7.3603e-06	7.6824e-06	3.2606e-05	3.0372	9.025e-08	7.6303e-08	4.0492	2.5199	7.9355e-08	8.1619e-08	1.3369	0.35477	0.8174	0.072279	8.3433e-08	0.13214	228.033	69.019	263.540	45.983	280.261	278.579	47.300	32.092	153.432	138.860	50.823	56.898	50.210	88.084	202.022	62.815	-8191	255	
1964.153	1	1	0	0	0.23343	0.15529	0.18408	0.19596	0.16411	0.021729	0.12211	0.37289	0.12302	0.16028	0.078801	0.15529	0.13194	0.10489	0.24787	0.25334	-2.8063	-3.0458	-3.2458	-2.8812	-3.1958	-3.3979	-3.0729	-3.2	-3.2438	-2.9292	-3.3812	-2.9833	-3.1042	-3.4396	-3.0167	-3.1729	194.436	208.302	246.762	249.415	299.880	222.390	357.949	289.603	20.504	37.408	361.519	174.121	308.592	240.205	260.057	71.244	3.9818e-06	3.8699e-05	0.00018894	2.5555	5.9482e-07	2.086e-07	3.4643	0.80204	1.5342e-07	5.9003e-07	1.005	0.27386	0.10683	0.070331	3.2628e-07	0.096096	7.7261e-06	7.9968e-06	3.1283e-05	3.0217	8.7876e-08	8.2665e-08	4.0183	2.5834	8.6333e-08	8.7181e-08	1.3298	0.35167	0.29879	0.22002	8.6884e-08	0.13144	284.097	81.226	269.168	45.677	274.945	28.972	47.851	34.472	245.433	206.485	48.794	55.639	46.026	89.085	254.771	60.545	-8191	255	
1964.250	1	1	0	0	0.17698	0.082347	0.12985	0.18662	0.06141	0.20404	0.13565	0.10705	0.095033	0.13973	0.25974	0.051581	0.070373	0.19665	0.15221	0.09957	-2.9437	-2.9375	-3.2583	-3.0104	-3.2083	-3.3833	-3.0021	-3.1333	-3.2562	-3.2042	-3.1833	-3.0229	-3.0187	-3.1521	-3.05	-3.1729	218.584	346.559	24.582	94.624	343.261	77.425	359.084	174.416	22.458	366.213	251.671	64.558	202.973	76.102	44.743	227.292	3.0948e-06	1.8989e-05	0.00019776	2.541	1.1274e-07	5.8999e-07	3.4872	0.81152	5.4016e-07	3.4601e-07	0.96003	0.28315	0.11331	0.070844	1.422e-07	0.09966	7.8882e-06	7.7792e-06	3.2571e-05	3.0022	8.3612e-08	9.4366e-08	4.0169	2.522	8.6156e-08	9.1009e-08	1.3341	0.35234	0.17535	0.30813	8.6264e-08	0.1326	198.691	289.525	272.717	46.108	367.847	186.689	47.168	34.643	129.220	232.453	52.890	57.909	56.030	89.913	186.785	61.017	-8191	255	
1964.346	1	1	0	0	0.15984	0.016639	0.14992	0.099227	0.19856	0.2649	0.069944	0.18709	0.17801	0.4325	0.11771	0.19001	0.058275	0.078971	0.037037	0.14508	-2.8104	-2.8042	-3.3312	-3.0104	-3.0542	-3.3646	-3.0208	-3.2396	-3.1771	-2.9792	-3.275	-3.0833	-2.925	-3.2812	-3.0062	-2.9396	172.159	205.994	56.215	223.309	86.323	218.165	305.249	363.304	50.958	186.739	101.329	127.247	308.274	15.844	124.983	252.698	2.3085e-06	3.1847e-05	0.00018852	2.507	3.6618e-07	2.1744e-08	3.4718	0.67313	4.1964e-06	3.1687e-07	0.98493	0.27834	0.10356	0.067815	3.6314e-07	0.10103	7.9485e-06	8.1177e-06	3.1612e-05	2.9904	8.6645e-08	9.312e-08	4.0182	2.0841	2.2897e-07	8.6736e-08	1.3369	0.35062	0.17661	0.29711	8.622e-08	0.13005	234.567	67.627	280.975	46.308	217.895	197.377	47.507	26.591	163.145	302.403	48.405	56.764	58.772	92.538	217.188	61.902	-8191	255	
1964.442	1	1	0	0	0.10707	0.01975	0.15484	0.12212	0.37502	0.097672	0.1712	0.12281	0.13442	0.27771	0.080303	0.19099	0.18662	0.095924	0.22101	0.21474	-2.7729	-2.9979	-3.1542	-3.2229	-2.9104	-3.2458	-3.1042	-2.9604	-3.5229	-3.0687	-3.1937	-3.1583	-3.0812	-3.0417	-2.9417	-2.8688	20.296	317.422	156.118	257.611	248.234	163.610	38.225	98.043	147.141	284.935	286.936	213.315	220.114	179.568	201.566	78.849	1.9405e-06	3.9361e-05	0.00019191	2.5631	4.011e-07	1.0306e-07	3.4651	0.67265	4.64e-06	2.5786e-07	0.98409	0.27575	0.10655	0.067473	9.409e-08	0.096436	8.2615e-06	8.0694e-06	3.2756e-05	2.9978	8.8711e-08	9.3654e-08	4.0003	0.93263	9.3513e-07	9.0119e-08	1.3308	0.35087	0.1767	0.3087	8.7193e-08	0.13065	14.985	184.782	285.198	45.901	135.235	298.679	48.625	28.007	162.614	262.665	52.324	58.402	59.161	98.189	318.807	60.545	-8191	255	
1964.538	1	1	0	0	0.14112	0.070538	0.12265	0.17565	0.24545	0.2186	0.11105	0.098154	0.18356	0.28977	0.17546	0.0080257	0.18566	0.10061	0.23875	0.092337	-2.8333	-2.85	-3.1792	-3.1896	-2.9062	-3.2479	-3.0146	-2.8312	-3.3875	-3.0438	-3.125	-2.925	-2.9104	-3.1729	-2.9958	-3.1083	172.170	51.261	91.038	374.002	374.586	206.934	171.395	235.466	322.306	75.322	177.582	280.658	344.797	296.030	155.186	390.132	1.2425e-06	1.8549e-05	0.00017466	2.4678	2.5962e-07	3.6728e-07	3.4815	0.54343	6.4791e-06	2.1697e-07	1.0187	0.28025	0.11248	0.066249	2.4897e-07	0.094194	8.9515e-06	8.1782e-06	3.1545e-05	3.0049	8.77e-08	9.45e-08	4.0237	0.74202	1.2893e-06	8.6202e-08	1.3461	0.35126	0.17846	0.29855	8.8299e-08	0.13117	110.418	119.634	289.895	47.020	130.494	287.214	47.377	53.840	104.777	321.785	50.785	55.231	58.349	100.024	345.285	62.706	-8191	255	
1964.659	1	1	0	0	0.11542	0.021988	0.18837	0.10399	0.14787	0.079451	0.05036	0.064974	0.10467	0.2268	0.12879	0.14194	0.26635	0.26567	0.21211	0.24014	-2.8354	-2.8812	-3.0271	-3.3292	-3.0563	-3.2354	-3.2	-2.725	-3.4604	-3.1854	-3.1604	-3.0729	-2.7458	-3.1063	-3.4021	-2.7979	275.510	126.822	323.296	139.346	358.232	158.844	220.785	295.124	219.517	213.387	297.404	164.279	194.595	59.325	320.525	162.187	1.664e-06	5.8944e-05	0.00019774	2.3968	6.4434e-08	5.8699e-07	3.4778	0.54681	6.2661e-06	3.0388e-07	1.013	0.27579	0.11291	0.064976	3.4681e-07	0.098668	8.7592e-06	8.2104e-06	2.3146e-05	3.7217	8.8975e-08	9.3165e-08	4.0055	0.74045	1.2437e-06	8.5535e-08	1.3251	0.35552	0.178	0.30867	8.4583e-08	0.1295	80.690	360.717	313.335	50.734	365.123	348.060	47.742	52.701	111.909	290.062	50.486	59.351	58.610	102.238	123.538	60.691	-8191	255	
1964.753	1	1	0	0	0.11051	0.17855	0.16927	0.17727	0.25641	0.25228	0.13302	0.11913	0.19761	0.20876	0.15407	0.15915	0.17105	0.15303	0.17171	0.03341	-2.7729	-3.1063	-2.9313	-3.2042	-3.0604	-3.3563	-3.2021	-2.9021	-3.1396	-2.9396	-3.0187	-3.2167	-3.0333	-3.0833	-3.1521	-2.9896	89.361	261.858	319.706	168.694	135.942	75.524	42.062	158.204	245.765	291.181	71.884	139.284	94.896	129.548	56.418	104.609	2.5024e-06	5.6935e-06	0.00020268	2.4383	3.4316e-07	4.5604e-07	3.4422	0.55825	6.4261e-06	2.3316e-07	1.0063	0.27745	0.10907	0.057585	2.9518e-07	0.098267	8.729e-06	7.6985e-06	4.1484e-06	6.2773	8.7304e-08	9.8771e-08	4.0136	0.73792	1.287e-06	8.8784e-08	1.309	0.35273	0.17381	0.29559	8.7105e-08	0.12802	282.626	101.917	312.694	48.587	335.165	137.728	47.934	52.120	120.706	314.884	53.003	56.755	59.137	107.320	222.900	63.259	-8191	255	
1964.849	1	1	0	0	0.11894	0.1044	0.13662	0.16941	0.095536	0.058892	0.12683	0.13744	0.12852	0.070928	0.11935	0.044486	0.23234	0.24448	0.2182	0.24459	-2.6562	-3.0896	-2.9667	-3.2208	-3.1021	-3.1188	-3.0792	-2.8708	-3.1979	-2.9979	-3.0833	-3.3854	-3.0042	-3.1271	-3.2021	-2.8625	83.788	373.424	232.700	302.570	279.176	232.619	108.309	317.971	381.535	133.541	240.612	196.957	248.762	69.522	128.318	279.859	1.5776e-06	8.7839e-06	3.0654e-06	1.9286	1.2215e-07	2.8026e-07	3.4495	0.55361	6.2287e-06	4.0548e-07	0.98663	0.28294	0.10355	0.022161	6.8003e-06	0.096963	9.1514e-06	7.7147e-06	2.3238e-06	7.314	8.6909e-08	9.6502e-08	3.9695	0.72868	1.2167e-06	8.2731e-08	1.2969	0.35176	0.1735	0.2109	3.3117e-07	0.12753	236.497	210.692	338.524	394.528	44.324	56.118	47.833	53.593	123.377	41.285	50.088	56.575	57.108	69.385	248.125	60.672	-8191	255	
1964.947	1	1	0	0	0.23773	0.20817	0.098753	0.10104	0.29738	0.099066	0.080366	0.015949	0.14461	0.14963	0.13212	0.11302	0.067464	0.15118	0.16524	0.17212	-2.7896	-3.0271	-2.9354	-3.2417	-3.0583	-2.9979	-3.2958	-2.8167	-2.9271	-3.1396	-2.9458	-3.0958	-2.9958	-2.8625	-3.3604	-2.8729	351.704	217.584	69.709	135.329	112.615	74.951	200.289	171.756	325.956	71.345	336.388	300.031	159.987	316.422	211.607	289.196	4.556e-06	1.1462e-05	1.7072e-05	1.9285	1.3389e-08	4.3663e-07	3.484	0.5771	6.2608e-06	1.8036e-07	0.98392	0.28115	0.10568	0.020917	6.2303e-06	0.10085	8.3218e-06	7.4809e-06	2.1046e-06	7.1231	8.5326e-08	8.6046e-08	4.0092	0.73285	1.2598e-06	8.3755e-08	1.2974	0.3514	0.17226	0.055821	1.0196e-06	0.12731	235.199	112.742	136.650	393.431	317.409	39.298	47.061	52.340	129.137	77.518	53.493	55.938	55.464	80.085	242.329	60.652	-8191	255	
1965.042	1	1	0	0	0.17545	0.1902	0.10627	0.079171	0.16365	0.16914	0.12048	0.17787	0.18481	0.070728	0.20674	0.068711	0.078713	0.24667	0.073434	0.23077	-2.7667	-3.2229	-2.8292	-3.1854	-3.1	-2.875	-3.45	-2.8271	-3.0667	-3.2104	-2.9667	-3.15	-3.2375	-2.7979	-3.275	-2.9	207.500	288.732	146.807	169.792	163.179	150.171	225.048	199.394	59.242	210.415	378.431	335.044	344.256	360.906	279.439	97.233	1.9147e-06	3.2213e-05	6.448e-06	2.0502	2.3473e-07	4.9125e-07	3.4505	0.5714	6.4294e-06	2.8426e-07	0.9933	0.28018	0.11514	0.033192	7.1789e-06	0.097914	8.2276e-06	7.3398e-06	2.0596e-06	7.3039	7.7765e-08	8.1864e-08	4.055	0.73272	1.2084e-06	7.9927e-08	1.3207	0.3578	0.17109	0.052766	1.2691e-06	0.12988	339.522	291.042	263.388	33.437	95.369	84.823	47.405	49.484	135.424	122.977	53.734	57.532	58.613	60.875	270.305	60.886	-8191	255	
1965.138	1	1	0	0	0.12937	0.13765	0.31165	0.13701	0.19106	0.12932	0.17048	0.035386	0.20973	0.12512	0.11044	0.083299	0.0046802	0.12949	0.19543	0.20526	-2.7271	-3.1854	-2.9625	-3.0708	-3.0604	-2.9083	-3.1937	-2.8937	-3.2208	-3.2542	-2.8937	-3.0875	-3.1729	-2.8958	-3.225	-2.9667	106.509	384.724	40.899	335.327	282.664	311.956	232.057	175.740	383.003	251.197	371.260	201.486	199.054	270.106	56.276	337.581	3.1623e-06	2.3311e-05	1.9156e-05	2.0703	2.8516e-08	6.6997e-07	3.4956	0.56	4.49e-06	7.8763e-06	1.0092	0.27986	0.10643	0.034157	7.1579e-06	0.096371	8.5217e-06	7.5373e-06	2.3317e-06	7.2416	9.469e-08	9.9127e-08	4.1175	0.76639	8.2526e-07	4.1512e-07	1.4006	0.37483	0.19508	0.058755	1.3091e-06	0.13646	33.524	196.069	160.593	392.390	36.154	201.707	47.555	51.247	74.014	161.365	51.511	57.933	60.954	63.563	277.810	61.211	-8191	255	
1965.258	1	1	0	0	0.19114	0.19322	0.090392	0.15755	0.20072	0.099096	0.14373	0.10275	0.068733	0.22567	0.083387	0.14973	0.083674	0.30019	0.38184	0.47232	-2.5271	-3.3604	-3.1188	-3.1625	-3.1688	-2.8375	-3.2417	-2.9333	-2.9396	-3.0979	-2.8792	-2.9958	-3.0583	-2.8854	-3.1479	-2.9896	299.253	176.054	204.103	37.796	159.710	307.414	156.472	151.076	97.187	341.348	352.941	235.028	394.348	103.520	208.320	143.725	7.7467e-07	3.6124e-05	2.4219e-06	2.0701	3.5178e-07	3.9631e-07	3.408	0.54057	1.7439e-07	7.8276e-06	0.97518	0.26253	0.10418	0.033562	7.4898e-06	0.092801	1.1553e-05	1.189e-05	3.3244e-06	7.6273	1.3109e-07	1.3659e-07	4.1202	0.78801	1.4189e-07	1.2094e-06	1.4763	0.38541	0.21467	0.064556	1.4421e-06	0.14138	50.719	372.112	353.255	390.147	55.858	116.645	48.080	53.385	204.929	164.691	52.207	55.894	58.696	65.773	284.571	61.490	-8191	255	
1965.355	1	1	0	0	0.15287	0.095347	0.15064	0.11884	0.097392	0.25598	0.26324	0.15049	0.18082	0.051294	0.11629	0.091534	0.11691	0.061055	0.13925	0.33583	-2.6312	-3.2208	-2.8729	-3.1125	-3.3021	-3.0625	-3.2479	-2.9021	-2.9354	-3.2729	-2.9833	-3.125	-3.1104	-2.8167	-3.4	-3.2146	109.085	141.887	322.764	190.886	242.296	357.230	136.573	61.258	183.224	161.983	54.711	251.943	178.742	43.000	118.257	146.413	2.6089e-06	3.2882e-05	7.241e-06	2.0835	2.6803e-07	7.8808e-08	3.3366	0.53307	2.3042e-07	9.1491e-06	0.94538	0.26947	0.094779	0.029222	7.3296e-06	0.091504	1.4159e-05	1.5087e-05	4.0473e-06	7.7163	1.5527e-07	1.6355e-07	4.1814	0.81286	1.6039e-07	1.469e-06	1.5165	0.39597	0.22157	0.067302	1.4414e-06	0.14562	339.615	35.437	334.102	387.510	183.871	198.792	47.235	53.078	73.058	134.741	51.081	55.318	57.844	62.646	290.503	61.705	-8191	255	
1965.451	1	1	0	0	0.15336	0.033443	0.25277	0.19026	0.075579	0.15695	0.074035	0.026546	0.084166	0.10713	0.21717	0.032278	0.02998	0.17381	0.19664	0.085038	-2.6083	-3.1875	-2.9042	-3.0417	-3.0646	-2.9729	-3.3063	-3.0521	-3.0729	-3.2583	-2.9958	-3.0187	-2.9875	-2.9	-3.1083	-3.0812	199.731	218.559	180.858	87.248	224.826	72.767	313.662	173.131	148.856	239.062	133.313	310.900	126.043	169.066	137.721	244.961	5.7598e-06	1.8456e-05	8.0531e-06	2.0028	1.2221e-06	4.8625e-07	3.3522	0.50965	9.33e-08	8.928e-06	0.90809	0.25981	0.095278	0.029763	7.5683e-06	0.087699	1.5479e-05	1.6675e-05	4.5071e-06	5.877	5.7504e-07	1.8144e-07	4.1947	0.82744	1.8053e-07	1.4776e-06	1.5428	0.39227	0.2283	0.068896	1.5092e-06	0.14316	139.054	107.238	94.958	385.718	147.412	83.041	48.440	52.948	285.634	136.956	52.304	57.235	55.415	63.025	294.561	61.559	-8191	255	
1965.547	1	1	0	0	0.33407	0.2233	0.1951	0.16601	0.15216	0.23806	0.12721	0.099802	0.18037	0.1505	0.14494	0.13907	0.15153	0.18693	0.16794	0.066288	-2.4333	-3.2375	-2.9625	-3.1271	-3.4042	-2.9938	-3.1229	-3.1958	-2.9417	-3.3312	-3.0271	-2.8917	-3.2375	-2.9042	-3.2042	-3.1021	202.708	182.691	116.012	341.334	75.626	108.685	349.197	276.941	221.199	391.354	38.324	228.999	195.008	283.921	109.642	224.792	4.4706e-06	5.8985e-06	9.0015e-06	2.3962	1.3664e-06	4.0185e-07	3.2992	0.51071	4.5514e-07	9.3008e-06	0.9336	0.25986	0.10047	0.028785	7.1241e-06	0.088246	1.5414e-05	1.655e-05	4.3238e-06	3.131	1.3358e-06	1.676e-07	4.1606	0.79938	1.6379e-07	1.4833e-06	1.4865	0.38243	0.22213	0.064866	1.3989e-06	0.13999	62.669	291.985	60.135	45.786	152.200	227.229	47.010	55.166	257.400	141.352	52.189	58.737	58.051	64.528	298.009	62.006	-8191	255	
1965.618	1	1	0	0	0.19251	0.27161	0.23362	0.16907	0.10138	0.065104	0.12748	0.18627	0.26	0.092033	0.12616	0.15188	0.13593	0.028045	0.12644	0.23262	-2.525	-3.1979	-2.8312	-3.0417	-3.2479	-2.9771	-3.0646	-3.1729	-2.9938	-3.2208	-3.0333	-2.9062	-3.0854	-2.8417	-3.0792	-3.1896	238.643	120.951	304.544	180.929	365.995	248.150	245.583	369.825	246.616	151.064	313.889	272.023	344.917	153.940	243.859	251.904	1.916e-06	2.0465e-05	5.9837e-06	2.3846	6.8053e-06	1.0907e-07	3.3139	0.53247	7.0876e-09	8.0549e-06	0.95104	0.2661	0.10072	0.030681	4.3195e-06	0.087219	1.3982e-05	1.422e-05	3.6538e-06	3.0797	1.4032e-06	1.3868e-07	4.0682	0.77289	1.3707e-07	1.3266e-06	1.4091	0.36931	0.20495	0.060517	7.4475e-07	0.25756	34.131	128.028	79.368	47.558	45.219	278.925	47.504	50.722	72.369	146.631	51.639	57.437	60.326	64.716	354.734	93.715	-8191	255	
1965.739	1	1	0	0	0.13638	0.10921	0.15427	0.068808	0.044428	0.23622	0.29287	0.14863	0.14842	0.072169	0.1312	0.32213	0.13625	0.14393	0.069334	0.10773	-2.5062	-3.1479	-3.0083	-2.8438	-3.1312	-3.1875	-3.0229	-3.2396	-2.8063	-3.1792	-3.1146	-2.8375	-3.0812	-2.8583	-2.9417	-3.2708	217.842	77.952	388.267	136.285	267.427	285.750	196.495	59.654	303.648	216.428	126.580	155.427	360.688	294.419	343.839	326.626	2.6654e-06	2.0101e-05	1.8633e-06	2.4638	5.9652e-06	1.0032e-07	3.3217	0.50654	4.1403e-07	8.0741e-06	0.97498	0.2748	0.10344	0.0311	5.1256e-07	0.083508	1.1889e-05	1.2265e-05	3.2839e-06	3.0537	1.2884e-06	1.2466e-07	4.0589	0.77405	1.2957e-07	1.349e-06	1.4038	0.37143	0.20372	0.059711	1.2696e-07	0.46369	386.633	233.126	49.010	46.448	48.119	87.245	47.142	52.163	288.490	155.013	52.118	59.120	57.581	61.413	71.591	89.356	-8191	255	
1965.834	1	1	0	0	0.20137	0.095032	0.077676	0.22557	0.087156	0.1174	0.1671	0.22151	0.37588	0.18098	0.21491	0.15752	0.069433	0.18476	0.28539	0.1209	-2.5708	-3.15	-3.1729	-2.8458	-3.0917	-3.0375	-2.9458	-3.3063	-2.7938	-3.0458	-3.1417	-2.7083	-3.0375	-2.8417	-2.9833	-3.2167	142.433	142.754	210.775	292.272	109.340	338.786	132.359	329.238	217.806	334.283	304.501	55.755	339.029	312.388	354.349	311.357	2.4691e-06	2.2891e-05	1.0722e-05	2.4404	5.8387e-06	3.1409e-07	3.3542	0.53997	1.9362e-07	8.0062e-06	0.92398	0.27125	0.11189	0.030143	1.4036e-07	0.035194	1.167e-05	1.2596e-05	3.2243e-06	3.0704	1.3318e-06	1.2435e-07	4.0547	0.77419	1.2767e-07	1.2925e-06	1.4071	0.37115	0.20455	0.060039	1.2665e-07	0.48835	262.640	156.837	282.078	47.755	55.369	179.517	46.935	52.702	79.810	160.785	52.203	56.629	57.334	62.654	296.245	90.631	-8191	255	
1965.930	1	1	0	0	0.20078	0.029547	0.11097	0.23008	0.042113	0.094603	0.059223	0.1396	0.31337	0.010355	0.27567	0.10683	0.13752	0.21866	0.081351	0.12418	-2.5917	-2.9771	-3.1562	-2.7625	-3.2458	-3.0146	-2.8792	-3.4	-2.8812	-3.0354	-3.1375	-2.7875	-2.9417	-3.0729	-2.9729	-3.3104	287.052	124.804	232.941	122.886	322.436	337.117	323.067	69.556	98.860	255.643	303.260	69.577	316.880	178.302	327.970	382.902	1.4037e-06	4.0029e-05	6.5905e-06	2.4548	6.0541e-06	5.3063e-07	3.4024	0.53039	9.4452e-08	2.5541e-06	1.5821	0.26508	0.10422	0.036058	2.5112e-07	0.034946	1.1293e-05	1.2007e-05	3.158e-06	3.0615	1.2692e-06	1.2458e-07	4.0647	0.77138	1.2594e-07	6.8455e-07	2.9673	0.37132	0.20264	0.059402	1.2842e-07	0.47174	170.000	129.201	107.264	46.036	60.939	115.373	47.494	51.877	91.813	78.514	74.388	57.307	57.239	65.966	210.406	71.849	-8191	255	
1966.028	1	1	0	0	0.11416	0.11798	0.12034	0.080059	0.15866	0.20022	0.16913	0.2275	0.047636	0.12677	0.21162	0.091265	0.11033	0.068661	0.085296	0.13622	-2.4562	-2.9271	-3.1583	-3.0208	-3.0812	-3.1375	-2.9146	-3.1771	-3.1667	-3.0854	-3.1937	-2.8875	-3.2083	-2.9542	-2.7438	-3.1646	73.503	184.544	362.357	355.004	247.078	147.976	229.152	211.258	243.513	123.970	349.394	289.873	280.007	353.542	238.633	358.238	4.5954e-07	3.7774e-05	4.6612e-06	2.4731	6.1586e-06	1.1207e-07	3.3486	0.54239	1.1411e-07	1.3941e-07	1.5577	0.27226	0.098081	0.030949	3.9704e-07	0.024552	1.1361e-05	1.1604e-05	3.2288e-06	3.0563	1.3129e-06	1.2449e-07	4.0475	0.76851	1.2117e-07	1.291e-07	5.1852	0.36778	0.20208	0.059355	1.2798e-07	0.48274	39.954	116.462	65.109	45.942	68.018	308.699	46.896	51.296	389.402	76.186	69.910	57.198	56.307	56.858	82.557	80.124	-8191	255	
1966.146	1	1	0	0	0.18208	0.19393	0.019792	0.16281	0.08316	0.17116	0.27907	0.10776	0.14753	0.14241	0.043678	0.048664	0.1187	0.20067	0.07304	0.2313	-2.6604	-2.9375	-3.3	-3.0375	-2.9604	-3.1958	-2.7125	-3.1458	-3.0417	-3.0125	-3.2646	-2.9104	-2.9292	-3.1146	-2.8583	-3.2188	349.852	97.585	251.646	193.494	338.658	193.179	37.000	78.275	243.518	177.572	47.051	363.565	120.057	67.926	263.356	120.231	1.0828e-06	4.1235e-06	1.158e-06	2.4697	5.832e-06	6.1848e-07	3.381	0.53527	3.3336e-07	5.0513e-07	1.5789	0.27175	0.10053	0.029345	4.0501e-07	0.031073	1.0924e-05	1.1661e-05	3.3199e-06	3.0426	1.2585e-06	1.1848e-07	4.054	0.77323	1.2343e-07	1.2626e-07	5.3582	0.36842	0.20326	0.060545	1.2665e-07	0.46917	170.332	187.858	131.573	47.047	73.160	70.246	47.169	52.756	316.494	222.679	71.501	55.769	60.457	65.320	45.670	60.393	-8191	255	
1966.218	1	1	0	0	0.034923	0.21181	0.20019	0.1665	0.16709	0.23097	0.23455	0.11888	0.26073	0.2348	0.19031	0.077	0.17391	0.15011	0.18717	0.24288	-2.5792	-2.8458	-3.1188	-2.9521	-3.0896	-3.175	-2.7896	-3.125	-3.1417	-2.8979	-3.2104	-2.9479	-3.0958	-3.125	-2.9667	-3.1125	169.430	326.802	206.241	57.561	306.837	183.661	294.101	73.304	333.748	255.609	351.768	70.448	369.949	109.949	40.430	336.361	3.3235e-06	1.8394e-05	1.184e-05	2.4431	6.3993e-06	4.9077e-06	3.3656	0.53831	6.0109e-07	3.8018e-07	1.5537	0.27355	0.095853	0.030539	4.3194e-07	0.032824	1.1459e-05	1.1935e-05	3.3941e-06	3.0576	6.0924e-07	6.4179e-07	4.0706	0.77693	1.2652e-07	1.2941e-07	5.1565	0.3697	0.19789	0.059936	1.225e-07	0.4805	85.687	221.926	228.859	47.131	43.292	144.939	47.426	52.134	273.130	265.750	72.283	57.987	63.529	65.845	271.975	54.118	-8191	255	
1966.339	1	1	0	0	0.075981	0.089449	0.18338	0.12937	0.1645	0.10874	0.21876	0.10814	0.019875	0.17769	0.083281	0.041868	0.30617	0.076882	0.16134	0.091266	-2.875	-2.7562	-3.1042	-2.8833	-2.7896	-3.0896	-2.8146	-3.1479	-3.2562	-2.8333	-2.9479	-3.0417	-2.9583	-3.3104	-2.9479	-3.0583	158.893	229.010	242.843	142.847	255.212	37.465	165.298	127.162	116.379	303.055	347.175	278.819	373.618	160.838	357.294	105.248	3.6358e-06	3.3096e-05	2.958e-06	2.4749	4.798e-07	7.9632e-06	3.4001	0.5389	1.2353e-07	1.7956e-07	1.4957	0.28382	0.10381	0.033258	3.1841e-07	0.060163	1.1376e-05	1.1898e-05	3.3817e-06	3.0527	1.2476e-07	1.2553e-06	4.0527	0.77679	1.1972e-07	1.2634e-07	5.3087	0.36928	0.19919	0.060714	1.2595e-07	0.45707	341.604	64.361	83.827	45.520	247.977	81.020	46.596	53.152	213.855	360.312	76.685	57.143	57.867	61.638	243.545	392.259	-8191	255	
1966.435	1	1	0	0	0.061961	0.13796	0.2058	0.088553	0.088659	0.26169	0.16693	0.11313	0.046052	0.18782	0.12655	0.11065	0.17081	0.24597	0.22758	0.19769	-2.6729	-2.7125	-3.05	-2.9146	-2.8958	-3.1813	-2.9146	-3.0354	-3.1312	-2.9	-3.2458	-3.05	-2.8438	-3.1063	-2.8458	-2.9604	226.023	110.435	83.361	272.073	339.651	92.404	84.135	160.065	178.034	236.368	369.108	322.924	202.767	80.326	135.430	293.465	5.5879e-06	2.7151e-05	4.6907e-06	2.4713	2.0767e-07	8.572e-06	3.3846	0.54219	3.5613e-07	3.7728e-07	1.4276	0.27235	0.10186	0.028637	1.0532e-07	0.059068	1.1636e-05	1.1669e-05	3.4019e-06	3.0306	1.2674e-07	1.3077e-06	4.0354	0.77268	1.2418e-07	1.2585e-07	5.0887	0.36538	0.1961	0.059767	1.2183e-07	0.25547	64.436	297.800	146.580	45.990	297.445	84.925	47.329	53.247	368.524	126.891	77.944	56.120	61.141	61.341	364.965	384.526	-8191	255	
1966.531	1	1	0	0	0.14484	0.29516	0.25173	0.019048	0.056411	0.11477	0.12153	0.21869	0.091247	0.22464	0.12241	0.088096	0.26717	0.15991	0.19338	0.098457	-2.6875	-2.7354	-3	-2.9271	-3.0229	-3.2792	-2.9604	-2.9646	-3.2771	-2.875	-3.1167	-2.9417	-2.775	-3.2146	-2.9833	-3.1417	187.109	163.605	167.400	384.320	267.756	138.868	38.536	295.042	301.170	96.056	175.898	125.512	263.805	281.796	232.261	292.209	3.0579e-05	2.2659e-05	8.2468e-06	2.3967	1.8844e-07	8.5431e-06	3.3932	0.53814	1.979e-07	2.6145e-07	1.4235	0.28052	0.10507	0.031257	5.5365e-07	0.096974	5.846e-05	1.1201e-05	3.2176e-06	3.0435	1.2269e-07	1.2393e-06	4.0289	0.75715	1.2369e-07	1.2305e-07	5.2679	0.36558	0.19669	0.060067	1.1847e-07	0.13388	214.682	244.972	156.343	47.531	71.731	89.782	47.580	52.450	95.556	275.103	79.616	57.674	60.467	59.925	172.416	62.462	-8191	255	
1966.627	1	1	0	0	0.14795	0.12032	0.16289	0.11125	0.27231	0.1581	0.20924	0.17578	0.046959	0.13008	0.16253	0.19778	0.35959	0.23434	0.066133	0.069884	-2.9167	-2.8875	-3.0229	-2.9771	-2.8104	-3.4	-2.9417	-2.8979	-3.3354	-3.0458	-3.0542	-3.0271	-2.6479	-3.2292	-3.1333	-3	124.922	320.747	57.834	95.256	206.895	198.091	162.928	262.575	82.658	368.259	279.602	94.606	250.720	369.766	140.436	345.903	8.1899e-05	1.4985e-05	5.3919e-06	2.4504	2.2231e-07	8.0827e-06	3.4013	0.54664	2.7073e-07	1.6714e-07	0.94279	0.28737	0.10646	0.031992	1.8222e-07	0.095962	0.00010575	1.1205e-05	3.2344e-06	3.0238	1.1671e-07	1.2905e-06	4.0373	0.76235	1.2281e-07	1.1638e-07	4.8343	0.36647	0.19604	0.059673	1.1431e-07	0.13401	284.458	177.035	60.923	45.851	221.117	92.040	46.885	53.157	172.306	207.078	56.331	57.006	55.251	63.245	118.568	61.223	-8191	255	
1966.748	1	1	0	0	0.086776	0.067164	0.29343	0.21349	0.13468	0.11053	0.23878	0.087877	0.17313	0.2057	0.096841	0.23537	0.21507	0.14673	0.21339	0.12587	-2.7646	-2.7583	-3.0021	-3.0521	-2.7979	-2.9938	-3.0208	-2.8521	-3.25	-2.8917	-2.8875	-3.2396	-2.9792	-3.2	-3.0354	-2.9062	197.501	187.974	203.390	154.446	179.416	210.242	186.584	200.745	278.998	78.697	161.640	138.763	325.458	226.610	147.528	183.427	8.7492e-05	2.4935e-05	1.4149e-05	2.4363	3.3245e-07	8.1068e-06	3.4541	0.55248	2.5555e-07	3.2514e-07	0.86336	0.35057	0.10955	0.031838	5.29e-07	0.09767	0.00010941	1.1165e-05	3.1838e-06	3.0662	1.2194e-07	1.2311e-06	4.0841	0.77576	1.2948e-07	1.2234e-07	2.6469	0.75712	0.2023	0.062176	1.3338e-07	0.13824	292.142	372.855	123.659	47.224	257.531	99.048	47.921	52.994	120.730	123.543	49.359	78.689	62.927	60.180	276.637	60.390	-8191	255	
1966.842	1	1	0	0	0.10752	0.14146	0.087157	0.10368	0.1122	0.35988	0.03013	0.18492	0.16894	0.10145	0.31731	0.16508	0.03655	0.080544	0.034231	0.34628	-2.6417	-2.8854	-3.0833	-3.2604	-2.8146	-3.0979	-3.0875	-2.8958	-3.3312	-3.0292	-3.0542	-3.2458	-2.8375	-2.9167	-3.075	-2.8563	339.703	345.574	303.179	39.812	105.358	152.593	93.749	185.865	116.206	165.348	82.741	318.830	168.273	333.619	231.039	68.374	8.5011e-05	1.7339e-05	8.8423e-06	2.4443	2.0829e-07	8.4429e-06	3.3693	0.56332	2.8257e-07	9.2099e-07	1.0282	0.31787	0.10928	0.028859	1.8758e-07	0.092898	0.00010706	1.2213e-05	3.475e-06	3.1129	1.383e-07	1.3138e-06	4.1001	0.79725	1.4396e-07	1.38e-07	1.4557	1.082	0.2077	0.063985	1.3484e-07	0.13727	298.517	198.334	37.469	46.418	349.875	107.244	47.136	51.991	283.138	328.585	52.117	82.350	61.148	62.642	78.769	63.717	-8191	255	
1966.916	1	1	0	0	0.19583	0.047505	0.13246	0.15335	0.098805	0.10773	0.26238	0.087587	0.32807	0.26738	0.3108	0.22068	0.1367	0.19695	0.22747	0.148	-2.875	-2.875	-3.0667	-3.3708	-2.9958	-3.0667	-3.3438	-2.9437	-3.3375	-3.0146	-2.9542	-3.2646	-2.9583	-3.0187	-3.0333	-2.8354	79.733	240.853	310.464	112.806	179.371	218.248	180.984	62.483	185.185	230.905	171.846	110.016	382.697	353.051	273.357	208.514	8.5423e-05	1.4676e-05	1.5991e-05	2.3826	4.2327e-07	6.8234e-06	3.4202	0.54592	2.1164e-07	3.284e-07	0.93836	0.30033	0.10783	0.030675	3.1986e-07	0.090785	0.00011194	1.2289e-05	3.5189e-06	3.0935	1.3834e-07	1.137e-06	4.067	0.78329	1.444e-07	1.3275e-07	1.4417	1.1026	0.20286	0.062307	1.3378e-07	0.13617	303.622	81.633	261.189	46.538	268.954	60.488	47.501	52.645	75.362	188.543	50.945	82.808	58.847	65.551	170.935	61.405	-8191	255	
1967.035	1	1	0	0	0.22156	0.22576	0.16737	0.042298	0.3834	0.14623	0.24014	0.056603	0.17671	0.074138	0.14218	0.05191	0.12426	0.17075	0.2681	0.13888	-2.7125	-2.9708	-2.9125	-3.2854	-2.8812	-2.9458	-3.1271	-2.9688	-3.1917	-3.1562	-2.7917	-3.2104	-2.9333	-3.0167	-3.1979	-3.0438	38.509	41.059	365.131	355.633	43.907	179.123	61.272	127.271	79.875	312.209	361.943	59.879	257.373	129.799	173.250	185.921	8.7182e-05	2.1953e-05	9.731e-06	2.4564	1.4276e-07	7.4276e-06	3.8425	0.56491	4.5159e-07	2.8498e-07	0.95619	0.29609	0.10145	0.030789	2.3393e-07	0.092369	0.00010621	1.1854e-05	3.3997e-06	3.1158	1.2942e-07	4.4914e-07	6.4991	0.78014	1.304e-07	1.2149e-07	1.4146	1.0481	0.19638	0.05912	1.2524e-07	0.1334	311.459	151.328	283.290	46.759	136.017	62.933	53.208	52.141	330.477	386.599	52.259	81.168	62.449	62.555	158.039	61.805	-8191	255	
1967.131	1	1	0	0	0.14634	0.18954	0.05789	0.12761	0.089725	0.075454	0.22078	0.098658	0.014213	0.075202	0.036585	0.067064	0.038485	0.17871	0.13368	0.15314	-2.6479	-3.1562	-2.8229	-3.1479	-3.0771	-3.05	-3.1979	-2.9729	-3.2146	-3.0667	-2.8	-3.1771	-2.9688	-3.1208	-3.1708	-2.9688	218.493	165.004	363.446	299.037	333.382	222.372	282.408	190.706	66.542	122.813	339.999	322.889	146.552	374.975	67.810	254.162	8.6557e-05	1.6587e-05	1.7343e-05	2.5162	3.2494e-07	6.4922e-07	4.1194	0.55887	2.8209e-07	8.4655e-08	1.0084	0.28977	0.11585	0.03265	2.2086e-07	0.098534	0.00010543	1.0056e-05	2.8612e-06	3.109	1.0673e-07	1.1038e-07	7.9643	0.76468	1.1663e-07	1.0721e-07	1.398	1.0713	0.18793	0.058371	1.1144e-07	0.13353	314.201	144.709	102.175	46.538	244.444	43.367	47.810	53.365	129.664	96.304	52.675	81.399	58.744	63.689	282.204	62.221	-8191	255	
1967.227	1	1	0	0	0.43702	0.13443	0.092279	0.13091	0.065232	0.095223	0.15175	0.052453	0.097429	0.14287	0.17035	0.16331	0.16485	0.068305	0.031359	0.26717	-2.7229	-3.1542	-2.8917	-3.2333	-3.0146	-2.8458	-3.4313	-2.8917	-3.0604	-3.2687	-2.8708	-3.0771	-3.0667	-2.95	-3.3104	-2.7833	373.637	293.195	227.095	201.472	380.897	390.299	155.642	257.041	45.699	117.706	372.562	255.577	123.434	218.744	186.541	298.112	8.6386e-05	8.0455e-05	1.162e-05	2.579	2.3344e-07	2.7258e-07	4.3135	0.56216	1.7289e-07	2.3334e-07	1.0434	0.27951	0.1146	0.034675	9.5988e-08	0.095397	8.5149e-05	9.9275e-06	2.6116e-06	3.1161	1.0128e-07	9.9572e-08	8.1838	0.76639	1.0629e-07	1.0253e-07	1.3965	1.0303	0.18771	0.057208	1.0967e-07	0.13098	323.048	212.666	287.025	46.589	265.825	333.266	49.194	53.484	63.073	132.583	52.962	80.947	63.006	63.591	364.980	60.795	-8191	255	
1967.323	1	1	0	0	0.11766	0.15478	0.20952	0.15831	0.046721	0.08602	0.17343	0.2127	0.15221	0.18353	0.1867	0.18564	0.15052	0.20896	0.045111	0.16395	-2.575	-3.1813	-2.7646	-3.0312	-3.1	-2.7854	-3.3771	-2.9625	-3.1958	-3.1896	-3.0396	-3.1562	-2.9583	-2.7646	-3.2188	-2.8958	324.944	117.968	232.100	160.290	364.049	125.591	115.990	59.984	352.387	277.743	203.032	352.706	258.226	204.329	71.042	54.525	9.0186e-05	1.4133e-05	3.7193e-06	2.5416	3.2685e-07	6.1039e-07	4.212	0.57737	1.9732e-07	9.8939e-08	0.99656	0.27085	0.10508	0.03264	3.2851e-07	0.097745	3.0912e-05	7.0601e-05	2.5992e-06	3.107	1.0322e-07	1.0393e-07	7.9089	0.76167	1.0258e-07	1.069e-07	1.3737	1.0625	0.19061	0.058099	1.09e-07	0.13278	323.499	154.135	118.524	46.995	275.033	55.364	49.699	52.240	56.272	366.380	51.433	83.407	60.578	63.180	328.237	61.946	-8191	255	
1967.444	1	1	0	0	0.1652	0.043166	0.16986	0.25596	0.26064	0.091601	0.095578	0.028122	0.10677	0.11028	0.22432	0.2455	0.095586	0.022974	0.25456	0.099099	-2.3833	-3.1417	-2.7104	-3.1083	-3.2062	-2.9333	-3.2833	-2.8479	-3.0458	-3.3354	-2.9813	-3.0896	-3.1854	-3.0104	-3.2229	-3.0583	262.854	387.852	78.705	158.961	41.448	320.097	284.945	265.303	139.650	222.021	357.933	185.910	388.073	310.984	73.874	164.671	5.6251e-06	0.00061435	1.2604e-05	2.5159	9.0555e-08	2.7876e-07	4.2982	0.57855	2.5324e-07	3.1922e-07	1.015	0.22867	0.1729	0.035989	5.1758e-07	0.09608	9.7773e-06	0.00010449	2.6869e-06	3.1211	1.0405e-07	1.0451e-07	8.18	0.7707	1.0788e-07	1.129e-07	1.3801	0.90324	0.2246	0.058483	1.1462e-07	0.13386	240.441	327.174	267.776	46.368	151.176	394.077	50.590	52.393	275.228	251.949	52.169	59.955	93.430	60.910	257.764	63.785	-8191	255	
1967.515	1	1	0	0	0.059905	0.29003	0.21509	0.26215	0.12626	0.033643	0.14001	0.12167	0.13129	0.14302	0.13977	0.13391	0.25507	0.24898	0.17593	0.085205	-2.4521	-3.2542	-2.9104	-3.0083	-3.1292	-2.7833	-3.0708	-2.9771	-2.7875	-3.3875	-3.05	-3.1208	-3.075	-2.8417	-3.2292	-2.9417	350.498	206.345	90.420	293.021	295.722	279.846	243.304	90.374	249.359	340.020	319.351	132.624	234.032	175.983	138.303	191.380	3.4084e-06	0.00065715	6.2256e-06	2.5567	4.2141e-08	3.8663e-07	4.1771	0.57518	5.0207e-07	3.3017e-07	0.98759	0.21748	0.17824	0.034977	2.2196e-07	0.095306	1.0275e-05	0.00011198	2.8106e-06	3.1377	1.1126e-07	1.175e-07	8.0307	0.7772	1.1623e-07	1.2274e-07	1.3974	0.50393	0.71783	0.059983	1.213e-07	0.13293	102.232	333.176	124.139	46.754	254.667	299.894	52.081	53.102	228.294	107.188	53.782	57.959	97.797	59.730	51.623	62.001	-8191	255	
1967.611	1	1	0	0	0.21932	0.055306	0.12375	0.17959	0.21415	0.16672	0.10364	0.075545	0.21707	0.16719	0.17952	0.19351	0.26121	0.22044	0.13174	0.29174	-2.6021	-3.2771	-2.8896	-2.875	-3.25	-2.9292	-3.0167	-3.0021	-2.8063	-3.2938	-3.0125	-2.9333	-3.2354	-2.9125	-3.0792	-3.1396	134.634	177.223	159.887	186.007	167.015	257.212	199.800	364.050	320.809	109.094	151.646	259.993	385.789	180.236	76.613	362.920	1.586e-06	0.00067148	2.3699e-06	2.5559	2.7965e-07	2.9983e-07	4.1739	0.56604	1.9021e-07	1.6544e-07	0.96848	0.27853	0.12911	0.032807	2.8129e-07	0.091784	1.0837e-05	0.00010928	3.0175e-06	3.1095	1.201e-07	1.1937e-07	8.283	0.78199	1.1941e-07	1.2519e-07	1.3993	0.37485	0.94887	0.058961	1.2595e-07	0.13052	137.926	335.378	228.609	45.793	189.019	300.498	52.730	53.348	202.643	276.698	52.599	56.639	123.036	67.097	54.161	61.741	-8191	255	
1967.708	1	1	0	0	0.10588	0.28517	0.29535	0.10309	0.22897	0.32582	0.059112	0.131	0.085952	0.23782	0.057601	0.13035	0.18078	0.12867	0.1384	0.2431	-2.5875	-3.075	-3.0104	-2.8958	-3.2833	-2.8125	-3.1937	-3.2771	-2.9104	-3.125	-2.95	-2.9542	-3.1813	-2.9	-3.1063	-3.1729	330.135	185.268	299.348	208.358	150.667	385.532	229.172	375.782	404.415	361.252	340.695	159.807	370.729	137.692	409.780	409.703	2.7316e-06	0.0006917	3.0336e-06	2.5251	2.8637e-07	6.5877e-07	3.6407	0.76294	4.0807e-07	1.7053e-07	0.95414	0.28154	0.12522	0.032441	5.8367e-08	0.09084	1.0859e-05	0.00011469	2.9455e-06	3.0973	1.2463e-07	1.1737e-07	7.1148	0.92982	1.2078e-07	1.2488e-07	1.3962	0.37251	0.99485	0.059261	1.255e-07	0.13317	169.345	341.939	150.372	406.642	355.985	58.353	404.632	69.027	225.367	234.193	52.614	57.079	131.235	62.679	208.449	61.185	-8191	255	
1967.826	1	1	0	0	0.13221	0.099497	0.093364	0.21522	0.17772	0.10552	0.15877	0.4023	0.26917	0.15041	0.24615	0.19882	0.35412	0.081923	0.18637	0.088775	-2.5187	-3.1583	-3.0479	-2.8688	-3.2687	-2.9125	-2.9813	-3.2917	-2.9437	-3.2354	-2.8563	-2.9125	-3.1708	-3.0563	-3.1875	-3.2167	360.223	383.073	121.307	349.061	239.781	90.626	83.962	146.129	242.557	67.405	396.730	296.196	168.215	408.349	259.685	199.709	3.6318e-06	0.00060979	9.5806e-06	2.522	2.0223e-07	3.3156e-07	3.7551	0.75911	1.1475e-07	6.4798e-07	0.9806	0.2782	0.12007	0.031827	5.5748e-07	0.092359	1.1335e-05	0.00011119	3.1265e-06	3.1201	1.3359e-07	1.2573e-07	4.7268	2.0591	1.2731e-07	1.368e-07	1.432	0.37892	0.98726	0.061492	1.359e-07	0.13856	390.450	348.870	392.747	406.811	293.760	103.104	404.000	71.562	367.470	115.391	408.839	57.935	136.866	62.020	333.044	61.537	-8191	255	
1967.923	1	1	0	0	0.19924	0.017367	0.057677	0.06891	0.10386	0.085904	0.24916	0.10491	0.1055	0.15091	0.23789	0.16539	0.05775	0.20854	0.36765	0.16318	-2.4979	-3.2396	-3.3708	-2.9083	-3.2562	-3.05	-3.0854	-3.2354	-2.9188	-3.0667	-3.1063	-2.8042	-3.0563	-2.9813	-3.0604	-3.2917	184.500	208.060	209.537	342.479	254.159	326.104	290.327	358.574	110.656	229.868	138.167	103.643	275.672	178.132	242.367	61.207	2.7722e-06	0.0007254	9.9094e-06	2.4316	4.0832e-07	3.6063e-07	3.391	0.80244	3.088e-07	2.255e-07	0.93039	0.27556	0.11177	0.029012	3.7818e-07	0.090474	1.2488e-05	0.00011995	3.5132e-06	3.157	1.4551e-07	1.4504e-07	4.1772	2.5659	1.4268e-07	1.5202e-07	1.4752	0.38708	1.0552	0.063975	1.505e-07	0.14153	397.825	354.283	186.986	47.215	274.862	192.233	406.845	64.977	219.643	259.760	51.256	57.371	144.211	66.981	253.580	60.011	-8191	255	
1968.020	1	1	0	0	0.1557	0.0086374	0.08184	0.24451	0.098637	0.20573	0.19427	0.17323	0.083237	0.21488	0.065335	0.1333	0.07051	0.21112	0.09346	0.02459	-2.5167	-3.0417	-3.075	-2.9646	-3.1292	-3.25	-2.875	-3.2833	-2.9229	-3.0583	-3.2979	-2.6708	-3.125	-2.9104	-3.0062	-3.3667	303.809	246.988	97.318	398.410	216.825	280.634	389.155	274.902	77.685	112.990	99.489	83.887	298.821	362.752	77.302	309.500	6.0152e-06	0.00074436	7.4198e-05	2.4484	5.3647e-08	4.8173e-07	3.4298	0.84871	1.9865e-07	1.5197e-07	0.94225	0.26142	0.10138	0.030952	1.3609e-07	0.086352	1.374e-05	9.0206e-05	8.0664e-06	3.2069	1.6661e-07	1.6204e-07	4.235	2.7693	1.6745e-07	1.7628e-07	1.5481	0.39878	1.1101	0.071145	1.9602e-07	0.15211	262.765	339.305	92.674	406.926	148.189	277.974	407.293	67.533	58.961	405.334	51.918	56.923	151.971	61.611	213.875	65.745	-8191	255	
1968.115	1	1	0	0	0.058874	0.069617	0.052179	0.15547	0.11871	0.2457	0.2289	0.1345	0.14094	0.23339	0.30655	0.087108	0.20576	0.28337	0.078333	0.19912	-2.5	-2.9792	-3.2146	-2.8937	-3.2333	-3.3146	-2.9354	-3.3187	-2.9833	-3.0146	-3.4354	-2.8083	-3.2062	-2.9979	-2.9521	-3.1875	171.793	73.347	56.631	322.064	108.582	179.796	405.004	110.321	92.654	235.104	254.342	149.838	274.871	241.484	349.590	335.102	5.9831e-06	0.00092215	0.00010116	2.3938	2.9933e-07	1.4975e-07	3.2968	0.85985	3.6703e-07	8.0897e-07	0.87815	0.25474	0.1344	0.028398	2.9106e-07	0.086145	1.8397e-05	3.1814e-05	3.3754e-05	3.4016	2.4473e-07	2.4915e-07	4.4443	3.4201	2.5423e-07	2.566e-07	1.7747	0.42277	1.3986	0.078399	2.3252e-07	0.15434	396.763	339.207	95.287	406.994	98.038	90.873	407.096	73.958	336.185	210.944	409.440	59.574	173.719	63.081	191.062	62.106	-8191	255	
1968.211	1	1	0	0	0.17979	0.07462	0.20193	0.11332	0.29809	0.063387	0.38084	0.03579	0.25934	0.2128	0.0654	0.20431	0.039719	0.11236	0.14474	0.18162	-2.7188	-2.8979	-3.2687	-2.8854	-3.1521	-3.3021	-2.9958	-3.1354	-2.9562	-2.8833	-3.1688	-2.6292	-3.1375	-3.1063	-2.7604	-3.1396	210.518	198.490	394.596	302.024	248.003	388.457	313.556	127.571	408.074	189.081	388.440	162.510	115.351	348.977	330.310	311.645	3.3943e-06	3.0165e-05	0.00021368	2.3493	1.4511e-08	7.7286e-07	3.2566	0.79634	9.1316e-08	6.8469e-07	0.87016	0.25125	0.027721	0.036761	5.9251e-08	0.085628	1.9502e-05	2e-05	4.0003e-05	3.2226	2.1118e-07	2.007e-07	4.1256	2.8934	1.7801e-07	1.773e-07	1.4915	0.37483	0.78289	0.10951	1.5364e-07	0.13701	235.216	168.881	378.858	406.563	195.265	107.210	407.949	72.967	117.353	123.638	412.575	57.208	257.304	104.090	292.751	61.309	-8191	255	
1968.307	1	1	0	0	0.26098	0.14666	0.18472	0.15382	0.12473	0.053193	0.144	0.2109	0.099237	0.15951	0.062595	0.25259	0.16944	0.25365	0.1225	0.046391	-2.6542	-2.7125	-3.2271	-2.8146	-3.0062	-3.2354	-2.7646	-3.2208	-3.1979	-2.9229	-3.3146	-2.8396	-2.8979	-3.0625	-2.8312	-3.1146	296.878	385.685	298.712	348.399	75.034	183.105	140.561	324.791	303.155	286.301	220.828	362.841	193.290	214.273	96.407	382.440	2.6618e-07	3.9894e-05	0.00020698	2.3039	1.2288e-07	5.7063e-07	3.2394	0.77759	1.4007e-07	4.9289e-07	0.89982	0.26043	0.03538	0.041816	3.4974e-07	0.090866	1.3876e-05	1.4148e-05	3.5654e-05	3.0195	1.5417e-07	1.5309e-07	3.9997	2.6759	1.4533e-07	1.4717e-07	1.4438	0.36363	0.24045	0.27662	1.4046e-07	0.13529	360.661	119.675	385.907	407.123	266.828	221.467	407.421	73.375	57.594	64.276	409.711	57.865	250.966	103.485	260.120	63.457	-8191	255	
1968.428	1	1	0	0	0.055004	0.13331	0.16902	0.15619	0.17298	0.060771	0.10807	0.076232	0.049394	0.065668	0.15027	0.23159	0.035766	0.054382	0.041455	0.12629	-2.65	-2.8625	-3.1875	-2.7167	-3.1146	-3.2792	-2.8979	-3.1937	-3.0521	-3.0146	-3.1063	-3.0563	-2.9333	-3.2438	-3.0208	-3.0542	233.249	364.675	357.728	242.352	120.135	322.932	232.695	168.994	86.532	61.365	212.274	409.184	148.267	386.362	403.955	249.262	4.4586e-06	1.1951e-05	0.00020273	2.2802	5.4553e-07	1.0169e-06	3.2571	0.76994	5.1726e-07	5.9074e-07	0.94205	0.25967	0.10787	0.022242	3.492e-07	0.090678	1.204e-05	1.2568e-05	3.5116e-05	2.945	1.303e-07	1.438e-07	3.9568	2.7737	1.3283e-07	1.3716e-07	1.409	0.35516	0.19977	0.33393	1.3409e-07	0.13784	186.260	216.891	387.587	406.390	115.693	351.639	408.241	76.440	127.048	165.673	410.497	418.297	59.494	188.530	200.601	61.747	-8191	255	
1968.524	1	1	0	0	0.093447	0.22408	0.1466	0.092939	0.17757	0.17046	0.17512	0.12476	0.16517	0.088826	0.076786	0.084543	0.27161	0.18339	0.26211	0.14906	-2.6771	-2.7354	-3.2875	-2.9042	-3.1104	-3.3417	-3.0042	-3.1937	-3.2271	-3.0312	-3.2021	-2.925	-2.9313	-3.2625	-3.0958	-3.0167	113.730	287.307	358.982	249.569	311.166	138.881	39.465	367.490	356.878	162.493	280.432	184.014	260.976	144.085	312.615	228.720	4.9318e-06	5.1315e-05	0.00022842	2.244	3.1821e-07	4.3965e-07	3.2849	0.55036	7.351e-06	4.2289e-07	0.90586	0.26219	0.098166	0.019095	7.4744e-08	0.090733	1.2356e-05	1.2753e-05	3.7774e-05	2.9577	1.4296e-07	1.5261e-07	3.9838	2.0625	4.4434e-07	1.5046e-07	1.4705	0.36733	0.21605	0.34408	1.5793e-07	0.14208	66.568	367.193	391.219	46.408	74.917	288.845	47.236	50.920	213.708	253.396	52.861	57.306	57.760	206.358	161.449	62.059	-8191	255	
1968.620	1	1	0	0	0.11707	0.10277	0.15032	0.26002	0.043295	0.087879	0.21474	0.20871	0.11028	0.15921	0.11724	0.24355	0.19089	0.25247	0.14862	0.22458	-2.8146	-3.0354	-3.175	-3.0917	-2.9146	-3.3229	-2.8563	-3.0854	-3.2875	-3.0854	-3.0625	-3.0604	-2.9938	-3.2646	-3.0896	-2.9521	222.515	175.885	386.126	109.327	149.906	206.701	362.363	99.555	203.826	148.478	110.888	201.043	75.287	173.325	117.411	113.729	6.3002e-06	1.1428e-05	0.00019942	2.2637	4.3875e-07	2.9553e-07	3.2075	0.48265	7.0355e-06	4.4361e-07	0.88829	0.25631	0.098707	0.018474	1.6845e-07	0.08815	1.4136e-05	1.4672e-05	3.5872e-05	3.0041	1.6006e-07	1.6831e-07	4.0028	0.81915	1.2086e-06	1.7312e-07	1.5359	0.37995	0.22965	0.32132	1.8598e-07	0.14685	130.618	323.351	38.823	47.070	349.599	113.062	47.384	51.947	213.298	38.139	50.662	57.874	55.975	206.555	328.575	61.934	-8191	255	
1968.741	1	1	0	0	0.24141	0.14292	0.23825	0.086442	0.1309	0.19686	0.19844	0.081389	0.10804	0.18145	0.18451	0.18861	0.1528	0.16864	0.17438	0.16208	-2.7292	-2.9125	-3.2042	-2.9958	-2.925	-3.2083	-2.8083	-2.9729	-3.3833	-2.9917	-3.2104	-3.1458	-2.8896	-3.2667	-3.1167	-3.0375	88.473	299.116	119.865	120.743	236.785	262.227	390.683	73.759	119.383	360.649	134.652	207.316	364.876	124.101	263.493	348.406	1.8819e-06	2.3779e-05	0.00020255	2.2311	2.1422e-07	3.9229e-07	3.1676	0.49254	7.4171e-06	3.0308e-07	0.81636	0.24608	0.09223	0.029844	1.5593e-07	0.076141	1.7764e-05	1.7969e-05	3.7053e-05	3.1138	2.1831e-07	2.3287e-07	4.1556	0.91305	1.5686e-06	2.6813e-07	1.8414	0.43461	0.31215	0.41326	3.4528e-07	0.19008	135.720	44.491	46.144	46.577	63.713	227.595	47.968	51.409	219.801	367.856	49.422	57.035	58.101	235.851	294.128	65.161	-8191	255	
1968.812	1	1	0	0	0.12756	0.17914	0.053912	0.093722	0.090448	0.033436	0.18208	0.096603	0.1917	0.17543	0.26562	0.31372	0.073351	0.29693	0.25248	0.042685	-2.7979	-2.8354	-2.9667	-3.2333	-2.8646	-3.2188	-3.1937	-2.7812	-3.0583	-2.9458	-3.0438	-3.2854	-2.9313	-3.1583	-3.1708	-2.875	269.631	214.831	80.535	102.689	243.266	131.874	254.726	300.072	155.108	296.280	298.129	67.497	209.609	251.845	34.783	239.438	6.5282e-06	4.8596e-05	0.00025529	2.9565	7.1867e-08	4.7731e-07	3.0401	0.45163	9.3243e-06	1.555e-07	0.78664	0.22619	0.088571	0.03051	2.971e-07	0.073693	3.5316e-05	3.7376e-05	3.6007e-05	5.5505	4.2918e-07	4.4576e-07	4.8511	1.1594	2.1795e-06	4.2767e-07	2.2547	0.5017	0.36386	0.40579	3.5214e-07	0.17628	307.177	308.707	366.570	49.110	367.358	294.852	47.505	51.961	223.979	231.779	51.298	56.504	61.040	248.001	86.464	64.878	-8191	255	
1968.907	1	1	0	0	0.11385	0.25404	0.19521	0.25233	0.16626	0.1759	0.047236	0.13361	0.27499	0.26714	0.23142	0.18826	0.22818	0.087548	0.089594	0.080238	-2.7833	-3.0792	-2.875	-3.25	-2.7771	-3.1354	-3.0312	-2.9062	-3.1708	-3.0417	-2.8896	-3.2771	-2.9292	-3.0375	-3.2708	-3	283.886	271.504	114.654	249.483	53.942	339.163	258.469	121.999	322.922	253.208	260.592	75.300	344.824	228.587	147.219	255.481	4.7056e-06	3.823e-05	5.3679e-06	2.7752	2.6583e-07	1.1104e-06	3.0729	0.46521	6.6518e-06	9.9953e-08	0.80735	0.22993	0.081157	0.018312	1.4261e-07	0.076387	2.8661e-05	2.7235e-05	7.3368e-06	7.4712	2.6288e-07	2.5774e-07	4.1344	0.86022	1.3931e-06	2.1237e-07	1.536	0.37221	0.22346	0.31133	1.666e-07	0.13001	179.682	81.424	332.607	49.129	325.995	272.876	47.310	53.344	229.450	300.037	50.290	57.817	60.127	262.810	378.274	62.459	-8191	255	
1969.003	1	1	0	0	0.072126	0.061531	0.077895	0.043421	0.13453	0.12003	0.18052	0.16571	0.26366	0.075907	0.13315	0.12326	0.021473	0.031019	0.079571	0.28157	-2.7229	-2.8167	-3.1667	-3.4062	-2.9292	-3.1229	-3.1604	-3	-3.1542	-3.0729	-3.0396	-3.2646	-2.9208	-3.0292	-3.1729	-2.8438	368.402	222.369	159.193	249.205	382.145	154.487	350.492	108.018	345.150	270.238	269.092	284.430	368.601	199.492	293.791	121.196	4.288e-06	2.4014e-05	8.7748e-06	2.8264	2.9252e-07	2.4106e-07	3.0775	0.49381	6.6799e-06	4.6009e-07	0.89065	0.23484	0.085912	0.027059	1.4544e-06	0.09706	1.4366e-05	1.3603e-05	3.7055e-06	6.7782	1.3337e-07	1.3908e-07	3.7764	0.72005	1.3295e-06	1.1433e-07	1.232	0.31133	0.15854	0.2116	5.2949e-07	0.12885	101.276	117.065	116.917	37.805	105.543	229.169	47.737	51.977	230.035	320.018	49.397	55.977	54.701	293.877	284.510	60.989	-8191	255	
1969.124	1	1	0	0	0.19379	0.24807	0.2007	0.02994	0.18677	0.18104	0.051221	0.091133	0.064946	0.17116	0.063362	0.35062	0.03863	0.28729	0.26686	0.18561	-2.7854	-3.0833	-2.6979	-3.1896	-2.85	-3.05	-3.0271	-2.9479	-3.3333	-3.2354	-2.9104	-3.2896	-2.9604	-2.9625	-3.3833	-2.95	313.148	361.771	95.416	162.416	241.134	232.282	38.701	229.561	135.133	85.957	249.384	129.554	191.300	61.178	192.218	70.894	1.5648e-06	3.6808e-05	1.0539e-05	3.2459	2.0787e-07	5.8186e-07	3.2762	0.51787	1.0157e-05	1.9638e-07	0.93948	0.3279	0.14101	0.040174	1.701e-06	0.11115	7.7675e-06	6.3523e-06	1.837e-06	8.7677	6.761e-08	7.7726e-08	3.7624	0.66126	1.9306e-06	7.3697e-08	1.2211	0.40071	0.20079	0.059149	1.8281e-06	0.1417	243.062	351.986	296.581	37.615	153.153	45.123	47.754	53.940	241.244	323.471	49.876	57.086	58.814	61.288	274.109	62.041	-8191	255	
1969.220	1	1	0	0	0.13236	0.04783	0.092379	0.25094	0.076766	0.083535	0.090633	0.10092	0.10138	0.25057	0.026386	0.22536	0.11779	0.054412	0.21791	0.078122	-2.725	-3.1063	-2.9562	-3.1583	-2.95	-3.1875	-3.2687	-2.8979	-3.2062	-3.1479	-2.7687	-3.3167	-2.9875	-2.9604	-3.2625	-2.7854	79.603	102.286	136.512	286.560	300.312	363.007	211.697	155.108	229.816	287.133	294.882	389.489	159.307	233.504	69.338	256.643	2.535e-06	2.8638e-05	5.787e-06	3.5545	6.0755e-08	1.597e-07	3.3221	0.58269	9.5281e-06	3.9772e-07	0.99931	0.28341	0.11428	0.030888	1.0249e-05	0.087856	9.2645e-06	8.5772e-06	2.4677e-06	9.924	1.0423e-07	1.0918e-07	4.0568	0.80314	1.9146e-06	1.4192e-07	1.5171	0.40778	0.241	0.07018	1.8993e-06	0.14953	38.526	60.349	286.884	37.239	382.055	48.947	46.870	52.125	246.118	127.873	49.611	57.684	60.905	62.843	383.994	63.544	-8191	255	
1969.316	1	1	0	0	0.13473	0.20101	0.26714	0.07417	0.1609	0.062119	0.14218	0.076132	0.26356	0.064508	0.086459	0.18922	0.12457	0.30863	0.062845	0.12648	-2.7271	-3.1875	-3.0021	-3.2938	-2.9125	-2.9396	-3.1229	-2.9646	-3.1104	-3.2792	-2.9271	-3.1396	-2.9146	-2.85	-3.3625	-2.8937	99.537	55.396	260.701	84.824	39.220	151.749	142.162	296.439	47.449	156.707	363.064	302.626	391.169	77.392	371.985	119.414	2.4751e-06	6.7109e-05	2.0326e-05	3.3704	2.9531e-07	2.1435e-07	3.2473	0.54728	2.9555e-06	1.0104e-05	0.94536	0.274	0.11153	0.030433	8.6731e-06	0.087372	1.7469e-05	1.7864e-05	5.1771e-06	9.3824	2.0828e-07	2.1952e-07	4.3216	0.93037	9.887e-07	8.0105e-07	1.7724	0.45024	0.29907	0.089159	1.7786e-06	0.17363	298.397	51.376	37.349	40.005	176.512	119.514	48.569	53.809	318.644	210.286	50.893	56.649	59.634	65.291	392.506	61.495	-8191	255	
1969.388	1	1	0	0	0.042864	0.18248	0.076779	0.14828	0.1509	0.15277	0.11712	0.11598	0.056693	0.049753	0.089552	0.086288	0.15462	0.081533	0.042212	0.046888	-2.7687	-3.2458	-2.8021	-3.1792	-3.1708	-2.8042	-3.1604	-3.0208	-2.9313	-3.1063	-2.9542	-3.2104	-2.9833	-2.9604	-3.2417	-3.0125	315.252	183.909	288.788	360.514	124.989	165.920	36.862	244.846	233.289	330.875	58.357	34.915	72.504	232.370	234.345	232.877	6.2651e-07	2.2018e-05	6.9076e-06	3.1787	1.4764e-07	2.6382e-07	3.1503	0.51503	1.5925e-07	9.5455e-06	0.86191	0.25852	0.10772	0.0275	8.021e-06	0.082364	2.5312e-05	2.6981e-05	7.5616e-06	8.8752	3.1299e-07	3.2666e-07	4.6139	1.0664	3.4281e-07	1.8183e-06	2.0555	0.49916	0.35452	0.10703	1.8137e-06	0.19418	46.880	266.263	386.024	41.575	195.747	161.999	47.048	52.708	152.938	212.373	53.617	57.693	57.268	63.137	35.180	61.557	-8191	255	
1969.508	1	1	0	0	0.16666	0.090693	0.21068	0.19118	0.26367	0.16883	0.080214	0.12263	0.22633	0.22665	0.19732	0.18824	0.25849	0.093925	0.03288	0.39758	-2.6312	-3.1021	-2.9604	-3.1417	-3.1354	-2.8958	-3.3125	-3.1833	-2.975	-3.2729	-2.8875	-3.1208	-3.25	-2.8312	-3.2396	-3.0083	353.438	231.396	329.681	147.041	150.748	333.511	230.836	364.631	77.239	209.294	331.932	296.097	374.639	393.646	198.493	91.635	1.5652e-06	2.0866e-05	1.0972e-05	3.2155	3.0747e-07	1.4414e-07	3.1479	0.52718	3.7695e-07	1.0668e-05	0.88204	0.25695	0.10942	0.028208	9.3082e-06	0.079799	3.1998e-05	3.5208e-05	9.6887e-06	9.4287	3.8913e-07	4.0394e-07	4.8789	1.1782	4.2248e-07	2.0074e-06	2.36	0.55942	0.42464	0.12757	2.0625e-06	0.22092	264.898	218.611	232.458	43.654	87.366	197.564	46.669	52.377	200.899	242.442	52.226	57.878	57.277	57.112	41.069	61.287	-8191	255	
1969.604	1	1	0	0	0.13937	0.13742	0.20828	0.14697	0.17316	0.19779	0.093919	0.15706	0.12065	0.042061	0.15594	0.055171	0.24772	0.040128	0.22221	0.15042	-2.5083	-3.2687	-2.8854	-3.2042	-3.1437	-2.7438	-3.0062	-3.0875	-2.7229	-3.1188	-2.9417	-3.1375	-3.2292	-2.8896	-3.1167	-3.1417	58.339	300.490	258.252	56.228	240.787	337.895	254.553	177.219	144.407	43.914	159.599	183.629	212.081	116.591	68.487	74.174	4.2607e-06	2.5388e-05	5.5851e-06	2.4437	7.6467e-06	2.5906e-07	3.1011	0.49536	3.4289e-07	8.7227e-06	0.92906	0.25538	0.10964	0.031263	7.2892e-06	0.084622	3.9984e-05	4.2592e-05	1.1465e-05	6.4216	1.0331e-06	4.2027e-07	4.8153	1.1493	3.7607e-07	1.7404e-06	2.1086	0.50212	0.35699	0.10504	1.6116e-06	0.18881	184.662	302.565	74.566	393.966	180.719	167.339	48.160	52.528	59.374	250.654	52.595	58.251	56.048	62.770	45.286	61.635	-8191	255	
1969.700	1	1	0	0	0.21737	0.43468	0.17175	0.16661	0.096919	0.27396	0.12449	0.1492	0.092609	0.25266	0.20367	0.046862	0.14504	0.10088	0.052114	0.051732	-2.2354	-3.1479	-2.9979	-3.0375	-3.2729	-3.0083	-3.0938	-3.0563	-2.9833	-3.3854	-3.0687	-3.0875	-3.4188	-2.7438	-3.1417	-3.2313	283.152	381.707	362.928	134.288	140.772	233.664	84.305	357.566	325.698	110.256	55.940	122.909	360.956	129.808	202.132	97.826	3.5515e-06	5.7018e-05	1.0509e-05	2.2373	7.0237e-06	2.7729e-07	3.1505	0.51153	2.0971e-07	9.3284e-06	0.89353	0.26439	0.10957	0.031469	8.417e-06	0.084493	3.0218e-05	3.2056e-05	8.7915e-06	3.6658	1.6567e-06	3.5019e-07	4.6681	1.0961	3.5381e-07	1.6885e-06	2.1169	0.51312	0.3753	0.11022	1.76e-06	0.20145	236.710	275.740	313.469	46.360	147.945	347.455	46.932	50.085	180.829	256.288	49.933	56.757	56.096	62.785	55.159	62.515	-8191	255	
1969.821	1	1	0	0	0.16509	0.37998	0.023884	0.068796	0.036111	0.19789	0.41509	0.093962	0.17327	0.17101	0.10575	0.17194	0.060856	0.03987	0.062238	0.037276	-2.45	-3.1562	-2.8417	-2.9667	-3.2229	-2.9938	-3.0833	-3.0208	-2.9062	-3.2958	-2.9313	-2.8438	-3.1771	-3.025	-3.1375	-3.2875	327.599	273.121	249.648	43.771	168.793	120.999	157.079	191.418	140.653	311.715	85.910	114.534	340.018	306.417	319.309	171.812	6.0315e-06	3.3956e-05	6.6766e-06	2.2942	7.1415e-06	2.8224e-07	3.1521	0.53133	4.6778e-07	1.0441e-05	0.91148	0.27734	0.12001	0.029818	1.0102e-05	0.10578	3.3355e-05	3.576e-05	9.827e-06	3.8282	1.8155e-06	4.046e-07	4.8867	1.2075	4.3171e-07	2.0016e-06	2.432	0.57525	0.44747	0.13276	1.1084e-06	0.44355	88.770	279.699	372.818	46.442	158.624	368.130	47.542	53.822	61.729	260.284	52.302	57.275	61.022	63.811	45.419	60.920	-8191	255	
1969.916	1	1	0	0	0.25664	0.27367	0.1491	0.054004	0.053149	0.090374	0.18995	0.17919	0.12773	0.060983	0.086744	0.16769	0.12835	0.11122	0.10714	0.052712	-2.6375	-2.9333	-2.7562	-2.7583	-3.4042	-2.7896	-3.0792	-3.1521	-3.0208	-3.3063	-3.1104	-2.9188	-3.125	-2.9125	-2.8187	-3.275	38.131	117.728	42.799	74.106	357.791	284.824	382.617	136.015	321.448	104.395	288.923	110.916	80.308	301.210	239.431	334.104	3.4647e-06	2.9029e-05	6.0389e-06	2.2268	8.9511e-06	1.6403e-07	3.0841	0.52119	4.9164e-07	1.2008e-05	0.87916	0.27268	0.11176	0.030509	2.2039e-07	0.13684	4.179e-05	4.545e-05	1.2588e-05	4.2029	2.1751e-06	5.1975e-07	5.246	1.4098	5.486e-07	2.3847e-06	2.8216	0.64509	0.53566	0.15999	6.1252e-07	0.82746	66.442	349.395	283.437	46.307	162.205	314.578	45.995	53.307	40.485	268.737	53.865	58.959	55.831	69.723	50.411	373.285	-8191	255	
1970.012	1	1	0	0	0.30629	0.2405	0.25365	0.2223	0.19509	0.18993	0.11195	0.26242	0.016209	0.24284	0.25618	0.16415	0.17342	0.35854	0.134	0.11227	-2.4271	-2.9729	-2.9792	-2.8646	-3.2875	-2.9917	-2.8187	-3.075	-2.9833	-3.1312	-2.9354	-2.8375	-3.0438	-3.0583	-3.1229	-3.1729	71.494	58.174	222.218	331.851	205.697	155.670	258.854	108.715	124.833	338.558	39.571	70.637	215.882	58.612	319.058	249.119	1.58e-06	4.2127e-05	1.1945e-05	2.1687	1.051e-05	6.5207e-07	3.1046	0.51496	2.708e-07	8.6453e-06	0.90674	0.26589	0.10206	0.031845	1.3972e-07	0.14997	5.5067e-05	6.0113e-05	1.6543e-05	4.6943	2.6439e-06	6.5758e-07	5.6473	1.5752	6.4544e-07	2.5576e-06	3.0571	0.68858	0.57955	0.17183	6.6685e-07	0.88959	103.236	136.020	237.602	47.200	168.932	216.940	47.048	52.677	75.189	320.065	50.121	57.985	58.269	65.750	63.822	372.944	-8191	255	
1970.108	1	1	0	0	0.11437	0.195	0.18133	0.12783	0.16929	0.18599	0.20522	0.032516	0.10372	0.06656	0.17498	0.1537	0.15512	0.075894	0.21981	0.2853	-2.4771	-3.0458	-3.1458	-2.7479	-3.2958	-3.0104	-2.9729	-3.0708	-2.9771	-3.1271	-3.2188	-2.9646	-3.0563	-3.0979	-2.9917	-3.2104	370.195	220.278	394.614	229.353	142.296	233.945	167.432	151.437	264.174	54.910	176.941	273.914	274.192	114.253	40.064	195.726	4.8218e-06	1.4304e-05	1.3467e-05	2.2029	1.1029e-05	1.5374e-07	3.0687	0.5113	3.7091e-07	9.5675e-06	1.1141	0.26045	0.099731	0.029139	3.1638e-07	0.14045	5.8136e-05	6.3201e-05	1.7555e-05	4.8479	2.7575e-06	6.9318e-07	5.7596	1.6286	6.8285e-07	1.4232e-06	6.5827	0.69995	0.59	0.17263	6.5419e-07	0.83341	62.812	353.058	207.391	46.789	173.934	262.852	47.432	52.808	51.234	321.673	100.411	57.730	65.094	60.828	237.941	379.326	-8191	255	
1970.204	1	1	0	0	0.19509	0.03495	0.32215	0.22355	0.054945	0.16696	0.07912	0.16419	0.10233	0.2607	0.066231	0.092983	0.046873	0.10805	0.15682	0.0392	-2.6542	-3.0333	-3.0667	-2.7854	-3.1958	-3.0396	-2.8208	-3.2271	-2.9667	-2.9271	-3.2083	-2.9562	-3.2562	-3.0438	-2.8396	-3.1458	248.452	350.052	264.669	360.638	162.716	112.204	330.498	256.684	177.881	180.461	140.388	52.482	286.967	62.137	304.423	376.599	5.2379e-06	3.3103e-05	1.7512e-05	2.1776	1.0024e-05	3.5577e-07	2.9819	0.47566	2.5518e-07	3.0215e-07	0.5339	0.26163	0.11283	0.028857	4.7855e-07	0.1451	5.5515e-05	5.7538e-05	1.6077e-05	4.5424	2.4751e-06	6.1509e-07	5.4277	1.476	5.9082e-07	5.9149e-07	8.6177	0.63047	0.51762	0.15165	5.616e-07	0.76077	45.854	353.184	225.607	47.156	180.869	331.200	47.688	52.014	265.042	168.671	155.814	57.303	58.021	64.658	148.384	384.739	-8191	255	
1970.300	1	1	0	0	0.30215	0.046181	0.06333	0.056343	0.20555	0.26128	0.32278	0.33286	0.1032	0.12774	0.057825	0.17192	0.2404	0.28165	0.24112	0.024012	-2.5958	-3.0604	-3.1813	-2.7833	-3.1104	-3.2021	-2.8729	-3.4479	-3.0667	-2.85	-3.2562	-2.7375	-3.0208	-3.1688	-2.9167	-3.1833	365.159	350.709	190.930	244.938	249.845	177.426	302.634	300.094	98.847	104.982	101.813	332.171	278.317	257.480	258.014	66.336	4.1833e-06	5.4025e-05	1.0691e-05	2.152	2.0332e-06	5.499e-07	3.0113	0.49391	3.4161e-07	4.4346e-07	0.44399	0.26171	0.10234	0.032877	1.5769e-07	0.1445	4.7699e-05	4.977e-05	1.3952e-05	4.2008	2.0247e-06	5.1686e-07	5.0631	1.3379	5.0501e-07	5.295e-07	8.2625	0.61734	0.50325	0.15037	5.57e-07	0.73249	135.243	321.336	357.584	47.266	97.086	99.083	48.700	52.371	114.734	109.325	159.910	58.157	60.516	69.511	56.549	388.347	-8191	255	
1970.421	1	1	0	0	0.11674	0.22347	0.26756	0.18354	0.31097	0.19696	0.14762	0.3139	0.10149	0.098145	0.12076	0.16998	0.057169	0.21694	0.093862	0.075736	-2.5979	-2.7604	-3.2021	-2.7938	-3.0417	-3.1104	-3.0083	-3.1188	-3.1208	-2.7938	-3.125	-2.9375	-2.8833	-3.2188	-2.9229	-3.0604	85.481	64.518	262.688	79.054	82.046	109.453	99.460	184.071	35.631	281.706	217.907	317.307	212.228	44.639	390.456	394.344	4.6761e-06	8.2204e-06	2.1969e-05	2.164	2.0414e-06	1.2383e-05	3.047	0.51097	1.8462e-07	7.9506e-08	0.30141	0.2603	0.10811	0.033067	1.9017e-07	0.1437	4.817e-05	5.0939e-05	1.4191e-05	4.2383	1.0275e-06	1.4304e-06	5.1647	1.3704	5.236e-07	5.3168e-07	7.9585	0.60589	0.47627	0.14565	5.2166e-07	0.72482	282.172	96.939	264.668	45.539	88.867	196.842	47.204	53.278	366.588	247.478	157.155	58.884	56.253	60.638	46.289	392.182	-8191	255	
1970.517	1	1	0	0	0.31283	0.26142	0.076062	0.16937	0.025662	0.25351	0.14377	0.071535	0.061815	0.14896	0.11873	0.031293	0.29839	0.09809	0.14219	0.33464	-2.7125	-2.7833	-3.2896	-2.8479	-3.1083	-3.1333	-2.8917	-3.2208	-3.2	-2.9938	-3.1833	-2.9979	-3.0479	-3.2375	-3.0479	-2.95	301.375	222.614	356.965	82.467	101.820	350.915	65.648	221.863	201.131	301.890	336.277	341.877	87.194	331.258	154.834	324.511	5.1791e-06	1.109e-05	1.1847e-05	2.0996	1.8672e-07	1.1872e-05	3.0582	0.52328	1.1265e-07	3.697e-07	0.3044	0.2675	0.10439	0.031786	4.1773e-07	0.12235	4.5632e-05	4.8944e-05	1.4021e-05	4.2407	5.4488e-07	2.2025e-06	5.2533	1.432	5.607e-07	5.6626e-07	8.3871	0.63476	0.51075	0.15537	5.662e-07	0.67593	275.164	34.521	345.811	46.940	63.407	192.192	47.692	51.222	167.345	297.593	178.969	56.999	55.186	58.733	133.080	378.462	-8191	255	
1970.613	1	1	0	0	0.12748	0.09416	0.17531	0.13586	0.19178	0.09604	0.067341	0.16116	0.21987	0.15583	0.016475	0.07069	0.10911	0.17464	0.34058	0.2434	-2.9188	-2.7625	-3.2646	-2.8583	-3.0208	-3.2333	-2.9375	-3.1854	-3.1083	-3.0271	-3.1958	-3.0104	-3.0563	-3.3854	-2.7938	-3.1437	222.162	76.848	309.015	171.640	245.374	342.926	310.249	235.110	131.515	296.638	186.764	132.579	300.866	347.509	392.530	92.804	4.1379e-06	3.9334e-05	1.6249e-05	2.1237	2.2874e-07	1.219e-05	3.007	0.49099	6.9897e-08	5.6174e-07	0.17516	0.25481	0.1034	0.028349	3.2151e-07	0.12317	4.8977e-05	5.204e-05	1.4681e-05	4.33	5.6533e-07	2.2782e-06	5.3024	1.4419	5.7867e-07	5.8339e-07	8.2868	0.64339	0.52003	0.15573	5.6859e-07	0.38008	295.637	248.857	274.991	47.114	125.935	196.033	47.033	51.482	362.309	166.065	194.823	57.341	60.592	57.491	368.507	380.182	-8191	255	
1970.685	1	1	0	0	0.083979	0.13637	0.16828	0.074734	0.093706	0.21441	0.16591	0.24609	0.10891	0.14483	0.17919	0.18014	0.24512	0.17127	0.13977	0.15999	-2.8104	-2.8333	-3.075	-2.9083	-2.9188	-3.2354	-2.9958	-3.2146	-3.2542	-2.9729	-3.0479	-3.1104	-2.9771	-3.1	-2.9437	-3.0604	115.221	164.590	349.242	249.611	227.058	116.259	304.767	268.761	234.087	234.750	288.281	77.271	140.952	177.615	60.005	327.473	7.9576e-05	2.1305e-05	1.1518e-05	2.1174	3.9717e-07	1.2152e-05	3.0397	0.51453	4.5918e-07	7.7983e-08	0.06916	0.26462	0.11279	0.034564	3.3482e-07	0.083788	0.00013179	5.0992e-05	1.4398e-05	4.2901	5.5007e-07	2.1711e-06	5.1927	1.3849	5.4184e-07	5.2932e-07	7.8818	0.60063	0.46042	0.13623	4.5946e-07	0.22103	105.471	208.366	260.361	46.474	364.359	205.551	47.439	51.699	162.625	231.988	226.604	56.390	62.186	64.886	330.435	65.321	-8191	255	
1970.804	1	1	0	0	0.1309	0.29329	0.050534	0.12637	0.12095	0.12869	0.20129	0.17748	0.10619	0.056216	0.14287	0.12199	0.1783	0.15753	0.11025	0.10238	-2.725	-2.775	-3.1292	-2.825	-2.9708	-3.1667	-2.9375	-3.0479	-3.1667	-2.9437	-3.125	-3.1875	-2.8646	-3.1979	-3.1146	-2.8771	108.338	325.726	244.660	124.683	377.300	102.650	108.462	246.669	344.852	382.815	143.978	139.058	299.075	84.913	286.158	88.961	0.00010905	1.5183e-05	2.2464e-06	2.1754	2.3161e-07	9.8392e-06	3.0694	0.49213	8.2527e-08	5.1678e-07	0.39353	0.2391	0.11119	0.030347	4.5052e-07	0.089614	0.00016128	3.8404e-05	1.0623e-05	3.7461	3.8891e-07	1.7417e-06	4.5852	1.1139	3.6101e-07	3.4779e-07	5.5666	0.50354	0.3403	0.1018	3.1117e-07	0.18204	42.792	346.604	313.708	46.823	110.059	208.481	47.415	52.657	211.942	313.275	352.501	70.049	61.435	65.371	240.128	59.419	-8191	255	
1970.900	1	1	0	0	0.18765	0.10003	0.12065	0.047409	0.33115	0.23556	0.02456	0.15651	0.1091	0.20789	0.27644	0.1577	0.1622	0.22198	0.24925	0.08635	-2.7458	-2.95	-3.0292	-2.9604	-2.8958	-2.9271	-3.0438	-2.9146	-3.2542	-2.9458	-3.1229	-3.1292	-2.825	-3.025	-3.0021	-2.8646	178.495	225.753	387.960	282.029	105.268	187.240	367.240	62.818	171.986	365.140	295.209	127.062	350.247	267.321	197.786	102.682	9.2491e-05	2.9837e-05	5.5531e-06	2.1607	1.5402e-07	8.7042e-06	3.0653	0.52077	8.999e-08	2.379e-07	0.46302	0.25202	0.11329	0.031797	1.9142e-07	0.089823	0.00013014	2.7493e-05	7.6572e-06	3.3733	2.8759e-07	1.497e-06	4.3054	0.98389	2.8907e-07	2.7948e-07	2.6335	0.90873	0.30138	0.090368	2.5273e-07	0.16536	45.362	247.866	296.787	46.532	389.447	213.373	47.424	53.006	77.783	145.255	359.987	66.026	59.675	64.708	57.506	61.535	-8191	255	
1970.996	1	1	0	0	0.13093	0.22304	0.24468	0.2699	0.052543	0.080085	0.15113	0.1071	0.066326	0.10787	0.17112	0.15638	0.11304	0.062673	0.19027	0.11747	-2.8458	-2.8854	-3.0208	-3.15	-2.8333	-3.2458	-3.1813	-2.8021	-3.1312	-2.9271	-3.0708	-3.275	-2.9917	-3.0167	-3.0938	-3.025	279.967	98.864	389.117	150.032	239.878	256.813	117.827	245.062	318.919	230.086	295.003	394.242	325.056	234.899	98.789	241.544	8.5305e-05	1.1266e-05	6.1253e-06	2.2025	3.0987e-07	7.4923e-06	3.0597	0.5185	2.086e-07	1.5512e-07	0.88362	0.16561	0.11019	0.034912	1.8318e-07	0.095726	0.00011374	2.077e-05	5.6875e-06	3.1293	2.1602e-07	1.2207e-06	4.0344	0.86159	2.0521e-07	2.0062e-07	1.562	1.0667	0.25436	0.076262	1.8686e-07	0.15311	51.250	219.629	221.338	47.488	272.684	221.009	47.754	52.236	233.480	149.532	50.524	43.512	54.047	63.163	52.473	63.593	-8191	255	
1971.092	1	1	0	0	0.16159	0.032415	0.15039	0.18247	0.088325	0.083154	0.0057523	0.046629	0.16804	0.19662	0.44742	0.22794	0.12628	0.30628	0.26816	0.10642	-2.8	-2.9062	-2.9792	-3.0333	-2.875	-3.0229	-3.1125	-2.7458	-2.9604	-3.0396	-2.9896	-2.9813	-2.8354	-3.0896	-3.0187	-2.7604	354.146	81.473	166.131	265.449	230.254	44.288	363.101	277.441	337.981	215.905	216.396	302.473	367.241	265.038	77.619	252.785	7.0014e-05	1.5885e-05	9.6314e-06	2.2168	9.6692e-08	1.1405e-06	3.1095	0.52308	3.9451e-07	2.0696e-07	0.96133	0.19089	0.11611	0.034384	3.7503e-07	0.095195	9.976e-05	1.6655e-05	4.6319e-06	3.0185	1.8164e-07	9.7062e-07	4.1832	0.82484	1.7898e-07	1.7392e-07	1.5074	1.004	0.23712	0.072654	1.6664e-07	0.14827	57.171	283.896	110.565	47.485	341.405	302.127	60.421	51.637	85.034	132.407	51.171	44.072	54.501	63.029	183.923	60.634	-8191	255	
1971.188	1	1	0	0	0.16515	0.14398	0.13213	0.33722	0.08529	0.14022	0.041647	0.076226	0.065784	0.27124	0.30916	0.28384	0.037244	0.30025	0.18245	0.2782	-2.85	-2.9854	-2.8375	-3.0604	-2.8729	-3.0167	-3.1562	-2.7438	-3.2792	-3.1625	-3.0729	-3.2167	-2.9854	-3.2104	-3.2333	-2.9521	50.823	216.497	193.552	375.607	378.940	361.735	72.770	217.653	325.273	120.825	384.396	84.615	377.746	141.008	201.807	114.611	7.0421e-05	4.1865e-05	4.6581e-06	2.2311	3.194e-07	1.101e-06	3.073	0.54366	2.714e-07	4.0464e-07	0.88772	0.19843	0.11638	0.035243	1.3937e-07	0.097152	9.7943e-05	1.4627e-05	4.0203e-06	2.9167	1.5122e-07	3.0463e-07	6.0961	0.78535	1.5098e-07	1.4352e-07	1.4297	0.99657	0.21824	0.066515	1.4165e-07	0.14277	62.132	158.406	299.518	46.648	167.723	308.126	59.360	49.883	125.648	130.133	51.314	43.808	60.079	60.819	115.864	59.665	-8191	255	
1971.284	1	1	0	0	0.061983	0.086054	0.062828	0.10095	0.39357	0.20917	0.22452	0.18255	0.21006	0.11838	0.11185	0.12143	0.11852	0.26852	0.063833	0.097161	-2.7458	-3.1646	-2.8646	-3.0396	-2.9667	-3.1312	-3.3271	-2.9167	-3.2833	-3.0708	-2.8917	-3.2625	-2.9813	-2.9	-3.3688	-2.8042	88.386	207.336	183.541	223.772	209.156	139.752	303.765	294.730	321.204	260.542	84.332	267.901	253.378	328.818	88.077	39.372	6.8604e-05	3.7778e-05	1.1337e-05	2.1927	2.2534e-07	5.3269e-07	2.9955	0.52495	2.8222e-07	3.6183e-07	0.98404	0.22697	0.11662	0.038292	2.5716e-07	0.099947	8.6702e-05	1.179e-05	3.3244e-06	2.8597	1.2551e-07	1.1959e-07	7.1696	0.75681	1.1839e-07	1.1304e-07	1.356	0.9228	0.20082	0.062494	1.1037e-07	0.14002	70.030	35.033	124.567	46.395	62.919	274.775	59.249	52.630	322.230	121.472	51.428	41.776	56.586	63.593	392.651	62.224	-8191	255	
1971.380	1	1	0	0	0.028957	0.11752	0.20097	0.15554	0.16006	0.14637	0.22256	0.14634	0.38652	0.082003	0.18163	0.16106	0.18117	0.0674	0.25168	0.21513	-2.8708	-3.0396	-2.7708	-3.0938	-3.0792	-2.8563	-3.2167	-2.8354	-3.1604	-3.1708	-2.8354	-3.0604	-2.9479	-2.9396	-3.0687	-2.9771	67.113	215.703	58.272	312.949	62.456	93.640	279.575	129.582	156.745	155.140	217.072	119.583	35.640	363.315	184.371	159.860	4.8946e-05	0.000481	9.0874e-06	2.3462	3.0345e-07	2.7519e-07	2.993	0.56712	8.4457e-08	1.7581e-07	0.94872	0.23667	0.1167	0.037866	3.4919e-07	0.10466	6.5903e-05	1.7779e-05	2.5959e-06	2.8133	9.7547e-08	9.8637e-08	6.854	0.73792	1.0223e-07	9.9731e-08	1.3257	0.94096	0.19561	0.061182	1.0148e-07	0.13809	374.553	119.038	313.370	46.587	48.787	134.901	56.185	52.889	41.847	162.869	50.460	41.099	57.236	66.222	300.259	63.368	-8191	255	
1971.501	1	1	0	0	0.17037	0.10383	0.071444	0.25466	0.23299	0.16144	0.042476	0.23117	0.16033	0.069513	0.20316	0.16761	0.222	0.23876	0.052701	0.036622	-2.7604	-3.0062	-3.0083	-3.1188	-3.0563	-2.8771	-3.3354	-2.8583	-3.0604	-3.1646	-2.9417	-3.0958	-3.1333	-2.9417	-3.1125	-2.9604	312.265	279.122	368.557	388.481	350.124	277.062	129.307	330.114	196.713	293.275	224.415	299.572	170.048	273.115	370.213	365.408	4.3424e-05	0.00045141	8.1011e-06	2.289	7.2048e-08	1.7144e-07	2.8628	0.56996	4.7002e-07	3.3755e-08	0.96109	0.24361	0.11888	0.036057	7.1953e-07	0.10465	1.7632e-05	6.3378e-05	2.6139e-06	2.8117	1.0203e-07	1.0282e-07	7.0726	0.74093	1.0117e-07	1.0823e-07	1.3347	0.91695	0.19956	0.062316	1.1086e-07	0.13818	375.388	114.352	335.326	46.960	266.848	263.160	57.500	53.086	257.620	192.354	52.610	38.801	57.394	64.016	362.500	61.685	-8191	255	
1971.597	1	1	0	0	0.13556	0.13425	0.22191	0.29668	0.1681	0.19151	0.0060091	0.026335	0.17823	0.064692	0.25818	0.40336	0.078797	0.022772	0.11399	0.049664	-2.525	-3.1417	-2.7812	-3.2062	-3.1437	-3.0021	-3.2687	-3.1167	-2.8125	-3.3354	-2.9896	-3.0563	-3.1667	-2.6813	-3.2354	-3.1958	336.149	339.100	287.000	362.687	115.015	326.286	349.308	374.371	122.400	46.010	367.945	162.048	274.816	117.989	308.530	75.369	2.9626e-06	0.00052645	1.9789e-05	2.2798	2.4231e-07	4.4814e-07	2.8467	0.55318	5.7792e-07	7.3666e-09	0.95771	0.23566	0.12609	0.03694	2.3642e-07	0.10272	1.0056e-05	9.2056e-05	2.7926e-06	2.8453	1.0251e-07	1.1216e-07	6.9763	0.75113	1.1287e-07	1.1197e-07	1.3651	0.79453	0.30376	0.063535	1.1772e-07	0.14033	134.694	77.780	337.956	46.346	114.796	64.733	55.642	53.164	245.628	347.474	51.743	39.284	58.316	60.811	364.497	62.257	-8191	255	
1971.693	1	1	0	0	0.11174	0.056645	0.22987	0.083531	0.10072	0.11966	0.15873	0.07546	0.23288	0.0042879	0.10357	0.15727	0.19329	0.27591	0.11271	0.07607	-2.5708	-3.2417	-2.875	-3.0125	-2.9958	-2.7458	-3.1667	-3.0583	-3.0896	-3.2604	-2.8896	-3.0792	-3.2042	-2.7771	-3.3729	-3.1667	133.683	341.124	383.231	307.820	119.028	137.815	116.725	267.046	200.146	174.528	88.049	279.150	105.285	263.193	293.872	161.627	7.5191e-06	0.00053826	1.1371e-05	2.2572	1.8888e-07	2.7356e-07	2.7998	0.54647	1.5479e-07	2.7813e-07	0.94587	0.24043	0.13361	0.038409	3.9581e-07	0.10314	1.0388e-05	8.9968e-05	2.9309e-06	2.8404	1.1707e-07	1.1933e-07	7.2944	0.75448	1.2078e-07	1.2332e-07	1.387	0.43149	0.68822	0.063788	1.2506e-07	0.13985	218.001	87.379	70.489	45.994	181.754	169.900	56.305	51.593	292.250	356.837	55.310	35.705	57.664	62.664	166.311	62.325	-8191	255	
1971.790	1	1	0	0	0.18142	0.19915	0.23993	0.051408	0.10982	0.21736	0.13729	0.044368	0.24657	0.24713	0.073501	0.18411	0.19711	0.18259	0.020728	0.22867	-2.3667	-3.1562	-3.0229	-3.075	-3.3312	-2.7833	-3.1854	-3.0021	-3.0292	-3.2854	-3.0146	-2.9833	-3.0354	-2.8146	-3.1542	-2.8812	184.172	88.904	63.379	236.324	218.106	307.773	182.103	193.953	106.868	51.857	81.789	212.107	333.691	349.644	88.734	209.267	4.2508e-06	0.00054854	1.3826e-05	2.3181	9.7879e-08	5.5606e-07	2.7538	0.56486	2.2139e-07	3.4691e-07	0.96928	0.29967	0.096644	0.036374	3.7197e-07	0.10265	1.1259e-05	9.8098e-05	3.0613e-06	2.8727	1.2282e-07	1.2111e-07	7.2102	0.76358	1.2259e-07	1.283e-07	1.3961	0.39472	0.89274	0.065147	1.2948e-07	0.14109	149.598	89.800	229.633	47.596	166.877	144.365	54.726	54.243	142.762	341.568	51.238	57.176	345.231	62.966	225.941	62.311	-8191	255	
1971.908	1	1	0	0	0.073279	0.19716	0.10936	0.12272	0.18026	0.063201	0.15848	0.16695	0.11697	0.090768	0.039382	0.030535	0.088781	0.075763	0.0422	0.16745	-2.4396	-3.0146	-2.9667	-3.0521	-3.1229	-2.9833	-3.1292	-3.1708	-2.725	-3.2896	-3.0646	-3	-3.3958	-2.8021	-3.0792	-3.0583	268.422	236.270	229.686	308.939	339.311	397.247	115.306	221.275	345.932	168.543	106.763	198.025	66.592	362.117	136.583	131.256	6.2223e-06	0.00061363	7.4341e-06	2.2607	6.7554e-08	1.0766e-07	2.8581	0.52822	1.971e-07	2.087e-07	0.94222	0.29268	0.095324	0.034113	2.9396e-07	0.096726	1.1764e-05	9.6288e-05	3.1636e-06	2.8695	1.3157e-07	1.2707e-07	6.2029	1.0677	1.2992e-07	1.3008e-07	1.3889	0.39224	0.86255	0.065072	1.278e-07	0.14118	253.249	98.019	145.396	407.124	138.136	378.192	404.980	76.517	257.729	92.631	413.287	417.569	361.120	60.749	286.264	63.854	-8191	255	
1971.980	1	1	0	0	0.074217	0.21465	0.079667	0.030814	0.02825	0.10603	0.050998	0.14718	0.30469	0.17092	0.10991	0.1326	0.13925	0.25021	0.16994	0.12903	-2.5021	-3.0375	-3.0729	-2.7896	-3.3292	-2.8937	-2.9646	-3.1146	-2.975	-3.1708	-3.2229	-2.775	-3.0938	-2.9062	-3.1792	-3.2271	175.647	367.000	138.035	298.544	287.661	234.523	217.634	111.390	101.610	249.092	124.802	236.743	389.590	246.872	376.861	326.531	2.1089e-06	0.0006063	3.442e-06	2.2303	7.8534e-08	3.4866e-07	2.8357	0.51393	2.9402e-07	5.4582e-07	0.9524	0.29109	0.12143	0.030788	3.8518e-07	0.095463	1.1949e-05	0.00010095	3.3176e-06	2.859	1.3377e-07	1.2938e-07	3.9357	1.9414	1.3124e-07	1.3698e-07	1.3834	0.39213	0.89555	0.064659	1.3258e-07	0.14176	234.401	101.637	191.678	406.030	407.653	153.341	404.686	75.385	89.850	225.802	414.567	57.870	351.927	65.688	88.864	60.947	-8191	255	
1972.101	1	1	0	0	0.1015	0.23516	0.085471	0.17561	0.12106	0.2448	0.030512	0.12515	0.19324	0.096581	0.28491	0.20558	0.15141	0.28556	0.13247	0.18236	-2.5167	-3.0167	-2.9354	-3.0375	-3.225	-2.9646	-2.9083	-3.1646	-3.0417	-3.2667	-3.0146	-2.7896	-3.1333	-3.0187	-3.0667	-3.3667	125.218	397.106	192.334	229.692	361.442	59.517	191.354	288.009	396.090	89.530	351.370	305.228	338.757	117.650	317.292	337.477	4.8635e-06	0.00059477	8.5895e-06	2.2006	1.1862e-07	2.6136e-07	3.1436	0.31224	3.6623e-07	5.3811e-07	0.92062	0.28158	0.12029	0.036231	2.8895e-07	0.095889	1.2085e-05	9.6187e-05	3.3907e-06	2.864	1.3606e-07	1.3379e-07	3.8161	2.2653	1.3672e-07	1.4334e-07	1.3893	0.39452	0.85987	0.065925	1.4169e-07	0.14382	209.766	106.082	90.299	405.974	150.962	377.384	408.745	77.490	363.747	154.343	412.621	418.157	363.819	63.344	219.297	62.689	-8191	255	
1972.197	1	1	0	0	0.16244	0.098941	0.092317	0.33087	0.094799	0.19672	0.067427	0.029421	0.11278	0.22552	0.13585	0.21152	0.17244	0.060596	0.086149	0.17157	-2.45	-2.9625	-3.0542	-2.9167	-3.3667	-3.2562	-2.7542	-3.3312	-2.8396	-3.0792	-3.2271	-2.9437	-3.2854	-3.1188	-2.9521	-3.3375	104.709	389.062	111.161	96.315	64.346	179.496	90.428	81.544	278.312	120.608	253.614	76.770	227.896	269.485	287.352	99.647	4.4582e-06	0.00023986	0.00015712	2.2034	3.9963e-07	7.6251e-07	3.0586	0.34051	1.4884e-07	8.6429e-07	0.90535	0.28578	0.12977	0.033076	8.8995e-08	0.09371	1.2858e-05	6.6606e-05	9.4683e-06	2.8637	1.4322e-07	1.4233e-07	3.853	2.2202	1.4542e-07	1.498e-07	1.4391	0.39631	0.91504	0.067331	1.5037e-07	0.14545	261.419	400.007	142.203	405.222	231.479	59.223	407.139	73.610	259.673	300.133	413.521	57.737	357.103	63.478	389.541	64.200	-8191	255	
1972.293	1	1	0	0	0.090663	0.13285	0.28815	0.20383	0.3883	0.053395	0.095087	0.15373	0.22022	0.13386	0.22118	0.13947	0.24231	0.034316	0.20872	0.12035	-2.4917	-2.9771	-3.1813	-2.8167	-3.2708	-3.1792	-2.7646	-3.075	-2.975	-3.1542	-3.2021	-2.8521	-3.2958	-3.0354	-2.8875	-3.0875	65.830	263.633	376.364	350.837	204.766	220.773	367.587	113.741	143.471	360.903	414.632	266.542	414.005	58.146	180.881	59.002	2.4947e-06	7.6096e-06	0.00015747	2.1551	2.1896e-07	3.5042e-07	3.1	0.29138	1.8967e-07	2.2334e-07	0.90487	0.28273	0.15126	0.033909	2.6345e-07	0.096551	1.3695e-05	1.3837e-05	2.4601e-05	2.9044	1.6388e-07	1.5821e-07	3.8817	2.3488	1.6856e-07	1.664e-07	1.51	0.40622	0.90831	0.071857	1.7226e-07	0.14902	140.579	209.036	142.580	405.148	205.024	233.043	407.260	74.326	130.137	139.608	411.777	415.988	364.385	65.272	131.257	61.084	-8191	255	
1972.389	1	1	0	0	0.096017	0.19512	0.1348	0.18501	0.076017	0.14346	0.22306	0.15952	0.10684	0.33605	0.041493	0.30418	0.2173	0.049005	0.12759	0.11065	-2.5021	-3.0563	-3.1271	-2.7208	-3.075	-3.1542	-2.8312	-3.2729	-2.9833	-2.9271	-3.1208	-2.95	-2.8208	-3.1583	-2.7646	-3.1083	343.258	316.819	360.115	135.689	351.569	69.472	123.777	58.727	380.033	250.808	320.253	216.647	209.439	199.216	326.200	293.378	2.6822e-06	2.5983e-05	0.00016438	2.165	3.8873e-07	3.6035e-07	3.1153	0.29476	9.2346e-08	1.9761e-07	0.92793	0.28771	0.11139	0.049129	9.4714e-08	0.10025	1.477e-05	1.5067e-05	2.9463e-05	2.8986	1.6547e-07	1.6208e-07	3.8755	2.2566	1.5831e-07	1.6266e-07	1.4906	0.40302	0.61134	0.12877	1.6054e-07	0.14754	71.343	297.637	126.998	406.962	78.680	268.079	407.567	65.965	296.316	277.729	51.973	58.949	358.330	56.895	65.602	61.797	-8191	255	
1972.485	1	1	0	0	0.28172	0.12701	0.10549	0.028045	0.1339	0.31838	0.20498	0.14011	0.20231	0.11882	0.12118	0.06929	0.22804	0.1816	0.14916	0.10852	-2.6125	-2.9583	-2.9896	-2.9875	-3.1417	-3.3229	-2.9333	-3.1813	-3.1542	-3.0125	-3.2729	-2.9375	-2.8729	-3.2458	-3.0229	-3.1813	393.778	317.829	222.139	139.015	216.746	138.208	339.655	234.253	258.756	252.364	271.125	105.589	236.657	80.610	234.087	279.676	2.5896e-06	1.2594e-05	0.00014643	2.1372	1.4945e-07	1.6445e-07	3.059	0.268	2.1431e-07	4.5294e-07	0.93463	0.29424	0.11237	0.051954	3.2719e-07	0.094853	1.4061e-05	1.4583e-05	2.7163e-05	2.8862	1.5632e-07	1.6324e-07	3.8614	2.2966	1.6114e-07	1.6217e-07	1.4812	0.40491	0.23456	0.24945	1.6682e-07	0.14978	252.906	375.827	129.719	46.918	77.230	372.389	47.424	59.141	213.990	294.826	52.585	57.871	58.676	58.057	183.337	62.387	-8191	255	
1972.582	1	1	0	0	0.1158	0.12604	0.25452	0.11782	0.16412	0.021394	0.17095	0.084847	0.069681	0.14115	0.043987	0.17997	0.15912	0.1278	0.16353	0.10228	-2.8875	-2.8146	-3.2938	-2.9667	-3.2313	-3.2938	-2.8875	-3.1396	-3.1521	-2.9062	-3.2	-3.0625	-3.1708	-3.2271	-2.9875	-3.1792	203.487	289.982	350.917	137.283	261.932	263.092	349.687	266.844	315.175	112.574	166.273	146.448	380.165	281.548	388.531	217.817	1.1039e-06	4.0428e-05	0.00015992	2.154	1.6001e-07	6.9872e-07	3.0634	0.2472	8.7406e-08	5.8143e-07	0.89508	0.28121	0.10699	0.051931	2.4576e-07	0.095428	1.463e-05	1.5192e-05	2.9286e-05	2.8934	1.6991e-07	1.7365e-07	3.8848	2.2874	1.7085e-07	1.7276e-07	1.5431	0.41082	0.2464	0.28371	1.7536e-07	0.15169	141.294	338.023	139.514	46.150	74.620	170.796	47.693	53.128	123.377	354.174	51.989	57.902	53.612	374.460	291.489	62.683	-8191	255	
1972.678	1	1	0	0	0.087162	0.20052	0.15496	0.066747	0.2586	0.25494	0.099881	0.07693	0.19642	0.16991	0.10437	0.40426	0.056745	0.066907	0.16687	0.12262	-2.8208	-2.9104	-3.2354	-2.9229	-3.1229	-3.4292	-3.1188	-3.0979	-3.1521	-2.9938	-3.3083	-3.1604	-2.9604	-3.2042	-3.0333	-3.1292	185.282	126.613	125.743	126.850	323.945	54.115	279.151	98.596	219.564	159.328	90.815	258.861	234.446	196.834	45.296	245.492	1.993e-06	8.0049e-05	0.00015883	2.1523	2.2479e-07	6.3424e-07	3.0521	0.33933	2.8124e-06	2.8835e-07	0.92905	0.27937	0.12389	0.053228	3.3289e-07	0.094622	1.5697e-05	1.628e-05	2.8736e-05	2.9131	1.7681e-07	1.8139e-07	3.8992	1.6356	5.1071e-07	1.8442e-07	1.5595	0.41249	0.25078	0.28078	1.9005e-07	0.15305	269.489	210.942	146.969	46.601	97.782	98.648	47.123	32.457	271.826	59.942	51.253	55.763	62.521	20.151	190.022	62.035	-8191	255	
1972.774	1	1	0	0	0.17182	0.083037	0.15799	0.14381	0.17986	0.019304	0.079053	0.10757	0.19389	0.18785	0.12355	0.11642	0.19145	0.022443	0.024144	0.098671	-2.8187	-2.9021	-3.1063	-3.0917	-2.9958	-3.2396	-3.1188	-3.225	-3.2229	-3.0583	-3.2333	-3.2958	-2.9458	-3.1688	-2.9354	-3.0792	61.268	391.727	300.019	116.197	146.765	380.966	153.103	384.492	279.351	51.002	313.808	327.824	44.412	230.844	230.108	227.146	6.1457e-06	8.1509e-06	0.00016957	2.1556	1.6773e-07	4.4199e-07	3.0081	0.53636	2.5251e-06	4.5797e-07	0.92479	0.27211	0.10884	0.05647	4.3138e-07	0.090666	1.7013e-05	1.7953e-05	3.1003e-05	2.9438	1.9285e-07	2.0341e-07	3.9422	0.85372	1.1654e-06	2.0418e-07	1.6175	0.42093	0.26543	0.30601	2.0473e-07	0.15618	160.538	260.794	156.672	46.608	279.252	45.998	47.310	50.521	262.902	254.167	53.197	59.019	57.322	379.829	378.709	63.883	-8191	255	
1972.870	1	1	0	0	0.32384	0.16868	0.092696	0.14349	0.22706	0.18932	0.2097	0.11989	0.11991	0.063612	0.16589	0.11614	0.077888	0.23607	0.16029	0.1817	-2.825	-2.9	-3.2104	-3.2167	-3.025	-3.4479	-3.1562	-3.1375	-3.2875	-3.0625	-3.2604	-3.1771	-3.0042	-3.2771	-3.2562	-3.0083	231.166	62.544	323.831	48.134	67.558	277.060	145.756	166.246	237.651	97.152	318.588	119.727	210.069	348.529	322.526	200.347	4.0211e-07	4.1643e-05	0.00017431	2.0911	1.323e-07	2.0543e-07	3.0169	0.50979	6.1785e-06	2.1618e-07	0.91445	0.27123	0.1126	0.058658	1.4789e-07	0.090002	1.8555e-05	1.9262e-05	3.2044e-05	2.9934	2.1057e-07	2.229e-07	3.9614	0.87877	1.3097e-06	2.1455e-07	1.6459	0.4257	0.27209	0.30674	2.1566e-07	0.15847	319.109	186.447	153.529	46.527	67.386	154.350	48.173	52.810	332.300	71.129	52.058	57.380	59.007	382.929	95.063	60.596	-8191	255	
1972.989	1	1	0	0	0.2445	0.16501	0.10519	0.13225	0.0084797	0.2281	0.087091	0.23321	0.16756	0.27434	0.21198	0.1824	0.1177	0.21218	0.20642	0.19311	-3.0667	-3.1521	-3.2417	-3.2667	-2.9562	-3.4854	-3.1437	-3.0375	-3.3208	-3.1208	-3.0938	-3.1667	-3.0125	-3.075	-3.0521	-3.0167	275.299	323.675	368.433	377.416	272.079	196.563	322.309	312.048	263.282	386.725	204.630	246.681	169.018	264.798	134.701	86.525	6.2354e-06	5.5299e-05	1.057e-05	2.5249	5.3266e-07	3.8909e-07	2.9913	0.50189	6.0798e-06	1.4472e-07	0.88108	0.27174	0.11277	0.063619	3.485e-07	0.089945	1.98e-05	1.9859e-05	1.8706e-05	4.5225	2.1835e-07	2.2766e-07	3.9628	0.8761	1.2918e-06	2.2381e-07	1.6438	0.43071	0.27212	0.31575	2.2154e-07	0.15975	88.175	311.269	289.090	62.768	216.254	68.822	47.166	51.014	337.418	156.712	50.592	56.597	59.987	386.282	296.996	62.174	-8191	255	
1973.085	1	1	0	0	0.21879	0.045583	0.19336	0.26959	0.11432	0.067059	0.069124	0.16845	0.14045	0.14954	0.21361	0.033789	0.29895	0.21425	0.081181	0.24313	-2.825	-2.9062	-2.9042	-3.1937	-2.95	-3.2521	-3.175	-3.0729	-3.3104	-3.1083	-3.0583	-3.3312	-2.9167	-3.0333	-3.1125	-3.0167	292.499	90.455	143.139	381.769	331.391	177.274	180.720	112.861	347.230	69.168	228.250	321.924	60.943	259.880	69.557	302.328	4.475e-06	2.4658e-05	5.8545e-06	2.4386	3.0904e-07	6.4708e-08	2.981	0.50629	5.8627e-06	8.3939e-08	0.89131	0.26852	0.1097	0.063934	6.5025e-07	0.087567	2.0154e-05	1.9895e-05	5.6515e-06	6.8835	2.2138e-07	2.253e-07	3.9552	0.87794	1.3155e-06	2.2082e-07	1.623	0.42876	0.27326	0.30759	2.2141e-07	0.15889	299.889	137.662	188.984	60.472	183.696	208.519	47.923	50.357	343.022	181.192	52.769	57.067	58.390	390.581	162.149	66.141	-8191	255	
1973.181	1	1	0	0	0.096293	0.070413	0.20951	0.11742	0.30278	0.23486	0.27923	0.35992	0.17826	0.08567	0.30694	0.11807	0.18047	0.0015265	0.08632	0.27813	-2.8521	-3.0333	-3.025	-3.2396	-2.8146	-3.1896	-3.025	-2.7479	-3.2625	-3.0979	-3.0708	-3.2812	-2.9458	-3.0708	-3.4271	-3.0146	282.579	193.033	305.693	264.138	199.247	171.240	262.267	391.083	102.077	142.774	349.213	392.590	255.696	180.000	37.898	84.752	4.569e-06	1.3244e-05	5.0116e-06	2.3587	2.3996e-07	2.4771e-07	2.9939	0.5021	5.9371e-06	1.5411e-07	0.89902	0.27722	0.11086	0.044025	5.128e-06	0.090944	2.0049e-05	2.0456e-05	5.6178e-06	7.0283	2.194e-07	2.2757e-07	3.9437	0.87986	1.2892e-06	2.2372e-07	1.6484	0.43169	0.27162	0.18291	6.9679e-07	0.16256	145.631	254.306	85.664	63.584	319.482	153.717	46.955	51.607	344.684	108.619	52.970	58.277	61.339	366.616	183.680	63.257	-8191	255	
1973.277	1	1	0	0	0.29123	0.13506	0.32658	0.21942	0.21939	0.2073	0.25602	0.17172	0.14112	0.081254	0.072874	0.11427	0.067793	0.12927	0.026296	0.097571	-2.8792	-3.0208	-3.0042	-3.3646	-3.1792	-3.0687	-3.0917	-2.8625	-3.3083	-3.225	-3.1042	-3.1896	-3.1	-3.1625	-3.3083	-2.9542	258.665	47.351	185.550	180.128	110.963	184.893	46.595	354.098	55.852	179.474	323.243	291.261	360.297	111.225	256.400	382.821	7.3708e-06	4.3962e-05	8.2301e-06	2.314	2.8021e-07	1.6303e-07	2.9714	0.51813	5.8423e-06	3.3812e-07	0.8826	0.27383	0.1039	0.032707	6.9961e-06	0.091051	2.092e-05	2.1088e-05	5.9956e-06	7.0907	2.3255e-07	2.3487e-07	4.0238	0.90265	1.3657e-06	2.3409e-07	1.6916	0.44364	0.27909	0.083835	1.3402e-06	0.16265	110.968	93.126	350.999	65.286	267.383	172.947	47.342	52.935	355.730	216.684	51.534	55.857	59.372	65.489	129.335	62.266	-8191	255	
1973.373	1	1	0	0	0.082375	0.074581	0.36633	0.19774	0.1239	0.13145	0.2166	0.18023	0.1195	0.051117	0.10796	0.042902	0.25187	0.15899	0.042873	0.13921	-2.7896	-3.1792	-2.9292	-3.3458	-3.1125	-3.1	-3.4104	-2.8854	-3.2458	-3.1583	-2.95	-3.3187	-3.1042	-2.9792	-3.4333	-2.9521	188.510	265.698	173.497	58.130	226.397	168.278	266.749	157.900	276.754	213.617	293.550	178.425	341.309	333.464	340.663	224.119	5.6769e-06	1.6071e-05	5.7564e-06	2.2583	2.1004e-07	1.2436e-07	2.9482	0.5185	6.3911e-06	2.2451e-07	0.85204	0.27198	0.11127	0.033738	6.4353e-06	0.091582	2.1233e-05	2.1435e-05	6.0225e-06	7.265	2.3883e-07	2.4181e-07	4.0583	0.91429	1.3632e-06	2.4241e-07	1.7205	0.44754	0.28717	0.088071	1.4062e-06	0.16567	70.301	90.977	253.472	66.703	202.501	265.182	47.137	50.630	368.965	35.206	54.517	57.799	58.431	65.003	138.579	62.432	-8191	255	
1973.470	1	1	0	0	0.053151	0.19586	0.093951	0.18865	0.21024	0.26217	0.13649	0.23104	0.1281	0.13087	0.13748	0.19887	0.1069	0.23713	0.084666	0.20544	-2.8104	-3.2167	-2.8917	-3.0979	-2.9417	-3.0896	-3.3042	-2.9417	-3.2833	-3.4	-3.0917	-3.2375	-3.0583	-3.0417	-3.3479	-3.0292	364.014	382.610	192.678	237.235	316.569	139.861	107.587	64.325	360.065	336.486	250.598	112.719	253.082	200.809	295.488	339.758	3.9556e-06	2.7399e-05	6.654e-06	2.1864	9.9473e-08	1.2884e-07	2.9489	0.49472	6.5444e-06	1.0508e-06	0.90069	0.27211	0.11156	0.031473	6.8966e-06	0.086205	2.2039e-05	2.2289e-05	6.2541e-06	7.208	2.4266e-07	2.4595e-07	4.0644	0.91353	6.817e-07	7.9451e-07	1.7217	0.4425	0.28677	0.086291	1.3828e-06	0.16246	373.281	173.485	122.328	66.760	88.116	77.962	47.834	53.375	371.126	238.588	52.191	56.697	61.050	60.255	141.766	62.405	-8191	255	
1973.590	1	1	0	0	0.07367	0.06118	0.32025	0.12866	0.19511	0.086171	0.30173	0.27566	0.19416	0.14916	0.16129	0.11881	0.23974	0.043186	0.084179	0.067882	-2.6271	-3.1646	-2.8146	-3.15	-3.1125	-3.0042	-3.3542	-2.8417	-3.0667	-3.2583	-2.7292	-3.3	-3.0563	-2.9396	-3.4042	-3.0104	148.551	205.693	132.913	112.178	81.014	300.566	161.634	98.558	55.309	143.680	174.478	196.123	280.974	275.222	299.981	345.081	1.0107e-06	2.1724e-05	6.064e-06	2.0915	3.164e-07	2.18e-07	2.9583	0.48889	1.8931e-07	7.8157e-06	0.89002	0.27098	0.11191	0.032309	6.5967e-06	0.087064	2.127e-05	2.2491e-05	6.2204e-06	7.3172	2.4204e-07	2.4617e-07	4.0359	0.89827	2.3904e-07	1.3869e-06	1.6957	0.43957	0.28186	0.084772	1.4097e-06	0.16259	44.480	103.286	231.597	67.257	166.373	138.346	47.692	51.458	226.530	353.456	48.940	56.544	56.713	65.119	148.933	62.749	-8191	255	
1973.686	1	1	0	0	0.091145	0.14337	0.16406	0.19646	0.20789	0.23326	0.19703	0.12468	0.16388	0.19879	0.090682	0.27812	0.18698	0.066646	0.25833	0.1305	-2.6042	-3.225	-2.9	-3.2354	-3.0396	-3.0229	-3.1458	-3.075	-3.0646	-3.2687	-3.0479	-3.2021	-3.1042	-2.7375	-3.3646	-3.1167	372.569	249.488	296.185	227.087	96.630	110.034	129.753	84.539	41.398	40.124	306.759	326.208	140.723	92.246	281.808	378.997	5.0886e-06	1.1007e-05	3.2203e-06	1.8139	2.2911e-07	1.9663e-07	2.8945	0.47764	4.3849e-07	7.3104e-06	0.85958	0.26875	0.1093	0.031589	6.917e-06	0.087901	2.0976e-05	2.2132e-05	5.8933e-06	6.9719	2.2886e-07	2.3496e-07	3.9958	0.88212	2.2831e-07	1.4012e-06	1.6522	0.43211	0.27341	0.082607	1.3577e-06	0.15863	206.395	232.482	267.069	48.635	341.565	121.026	47.110	52.382	267.152	357.326	52.593	57.398	56.403	61.801	153.426	60.139	-8191	255	
1973.781	1	1	0	0	0.22088	0.075367	0.29894	0.10921	0.19701	0.053415	0.086456	0.11113	0.27346	0.19993	0.10006	0.16018	0.26857	0.13783	0.14264	0.16639	-2.4188	-3.1958	-3.0604	-3.0917	-3.1104	-2.9208	-3.0896	-3.1125	-3.0583	-3.1854	-2.9042	-2.9604	-3.0958	-2.8354	-3.1229	-2.9896	384.540	369.937	107.138	264.069	151.701	165.172	341.806	389.220	51.925	240.885	109.696	189.503	140.010	216.321	77.624	45.378	4.8242e-06	3.9941e-05	7.2004e-06	1.7222	5.5888e-06	2.631e-07	2.9892	0.48498	1.8017e-07	7.4604e-06	0.90578	0.2588	0.10067	0.033005	6.9948e-06	0.09289	1.983e-05	2.0911e-05	5.719e-06	4.4142	8.1352e-07	2.2419e-07	3.9672	0.86809	2.257e-07	1.364e-06	1.64	0.42606	0.27563	0.081445	1.3825e-06	0.15861	280.679	345.944	239.839	49.371	234.419	122.415	48.235	52.307	122.595	367.134	52.302	57.346	60.356	65.455	157.392	62.501	-8191	255	
1973.877	1	1	0	0	0.1363	0.3279	0.16884	0.022301	0.10346	0.24712	0.066507	0.17259	0.29299	0.16616	0.2231	0.18815	0.14716	0.19052	0.14955	0.2736	-2.4146	-3.0812	-2.8833	-2.9729	-3.1125	-2.8458	-3.0854	-3.0875	-2.7562	-3.4042	-3.0542	-3.0292	-3.125	-2.9146	-3.1833	-3.2021	388.751	277.206	47.015	391.229	204.747	200.438	259.805	165.477	208.602	378.966	360.592	138.298	286.858	373.024	387.823	135.994	2.2799e-06	7.0304e-05	1.5861e-06	2.0683	5.9232e-06	4.1624e-07	2.9638	0.49171	2.9663e-07	7.3813e-06	0.86895	0.27159	0.10667	0.031124	3.298e-06	0.090924	1.949e-05	2.029e-05	5.4402e-06	2.9943	1.3386e-06	2.2188e-07	3.9695	0.8724	2.2045e-07	1.3872e-06	1.619	0.42628	0.27301	0.080292	1.2341e-06	0.15653	343.215	364.229	279.517	46.962	262.649	258.581	47.982	53.341	134.724	368.957	52.020	57.063	59.863	62.231	93.926	60.858	-8191	255	
#DATA ENDS
