BOXY.EXE: ISS Imagent and Oximeter Data Acquisition Program Version 0.80
Ascii Record File

#ACQ INFORMATION
2  Detector Channels 
16  External MUX Channels 
1  Auxiliary Channels 
5000  Waveform (CCF) Frequency (Hz)
1  Waveforms Skipped 
30  Waveforms Averaged 
1  Cycles Averaged 
16  Acquisitions per Waveform 
10.0806  Updata Rate (Hz) 

#FILE INFORMATION
TRUE -- External MUX Channel results are PARSED.
FALSE -- AC DC and Phase are NOT grouped.
TRUE -- Companion Program Settings File CREATED.
FALSE -- AC data not excluded
FALSE -- DC data not excluded
FALSE -- Phase data not excluded
FALSE -- Auxillary Chn. data not excluded
Tab delimiters

#CALIBRATION STATE
TRUE -- Waveform Calibration Values APPLIED.


#AUX CALIBRATION VALUES
Val Type	aux-1	

Term	1.0000e+00	
Factor	0.0000e+00	


#WF CALIBRATION VALUES
A = Detector Channel
Val Type	A-AC1	A-AC2	A-AC3	A-AC4	A-AC5	A-AC6	A-AC7	A-AC8	A-AC9	A-AC10	A-AC11	A-AC12	A-AC13	A-AC14	A-AC15	A-AC16	A-DC1	A-DC2	A-DC3	A-DC4	A-DC5	A-DC6	A-DC7	A-DC8	A-DC9	A-DC10	A-DC11	A-DC12	A-DC13	A-DC14	A-DC15	A-DC16	A-Ph1	A-Ph2	A-Ph3	A-Ph4	A-Ph5	A-Ph6	A-Ph7	A-Ph8	A-Ph9	A-Ph10	A-Ph11	A-Ph12	A-Ph13	A-Ph14	A-Ph15	A-Ph16	

Term	0.00000e+00	0.00000e+00	0.00000e+00	0.00000e+00	0.00000e+00	0.00000e+00	0.00000e+00	0.00000e+00	0.00000e+00	0.00000e+00	0.00000e+00	0.00000e+00	0.00000e+00	0.00000e+00	0.00000e+00	0.00000e+00	0.00000e+00	0.00000e+00	0.00000e+00	0.00000e+00	0.00000e+00	0.00000e+00	0.00000e+00	0.00000e+00	0.00000e+00	0.00000e+00	0.00000e+00	0.00000e+00	0.00000e+00	0.00000e+00	0.00000e+00	0.00000e+00	0.00000e+00	0.00000e+00	0.00000e+00	0.00000e+00	0.00000e+00	0.00000e+00	0.00000e+00	0.00000e+00	0.00000e+00	0.00000e+00	0.00000e+00	0.00000e+00	0.00000e+00	0.00000e+00	0.00000e+00	0.00000e+00	
Factor	1.00000e+00	1.00000e+00	1.00000e+00	1.00000e+00	1.00000e+00	1.00000e+00	1.00000e+00	1.00000e+00	1.00000e+00	1.00000e+00	1.00000e+00	1.00000e+00	1.00000e+00	1.00000e+00	1.00000e+00	1.00000e+00	1.00000e+00	1.00000e+00	1.00000e+00	1.00000e+00	1.00000e+00	1.00000e+00	1.00000e+00	1.00000e+00	1.00000e+00	1.00000e+00	1.00000e+00	1.00000e+00	1.00000e+00	1.00000e+00	1.00000e+00	1.00000e+00	X	X	X	X	X	X	X	X	X	X	X	X	X	X	X	X	

B = Detector Channel
Val Type	B-AC1	B-AC2	B-AC3	B-AC4	B-AC5	B-AC6	B-AC7	B-AC8	B-AC9	B-AC10	B-AC11	B-AC12	B-AC13	B-AC14	B-AC15	B-AC16	B-DC1	B-DC2	B-DC3	B-DC4	B-DC5	B-DC6	B-DC7	B-DC8	B-DC9	B-DC10	B-DC11	B-DC12	B-DC13	B-DC14	B-DC15	B-DC16	B-Ph1	B-Ph2	B-Ph3	B-Ph4	B-Ph5	B-Ph6	B-Ph7	B-Ph8	B-Ph9	B-Ph10	B-Ph11	B-Ph12	B-Ph13	B-Ph14	B-Ph15	B-Ph16	

Term	0.00000e+00	0.00000e+00	0.00000e+00	0.00000e+00	0.00000e+00	0.00000e+00	0.00000e+00	0.00000e+00	0.00000e+00	0.00000e+00	0.00000e+00	0.00000e+00	0.00000e+00	0.00000e+00	0.00000e+00	0.00000e+00	0.00000e+00	0.00000e+00	0.00000e+00	0.00000e+00	0.00000e+00	0.00000e+00	0.00000e+00	0.00000e+00	0.00000e+00	0.00000e+00	0.00000e+00	0.00000e+00	0.00000e+00	0.00000e+00	0.00000e+00	0.00000e+00	-1.28747e+02	-1.33826e+02	-1.28549e+02	-1.80942e+02	-7.62500e+01	-8.09811e+01	-1.54237e+02	-1.62015e+02	-7.58400e+01	-9.44173e+01	-1.75125e+02	-1.69314e+02	-1.81664e+02	-1.76960e+02	-5.94591e+01	-1.48622e+02	
Factor	1.82771e-05	1.44101e-04	3.88608e-05	1.54363e-01	1.25011e-06	1.75893e-06	1.64846e-01	6.58057e-02	1.31588e-06	1.62697e-06	1.48855e-01	2.74170e-02	2.93441e-02	8.95402e-03	1.40154e-06	1.27922e-02	1.80991e-06	1.93471e-06	5.39634e-07	7.75589e-02	2.11008e-08	2.13558e-08	7.78935e-02	3.28511e-02	2.11968e-08	2.13614e-08	7.05007e-02	1.33727e-02	1.48024e-02	4.49870e-03	2.12343e-08	6.21207e-03	X	X	X	X	X	X	X	X	X	X	X	X	X	X	X	X	



#DISTANCE SETTINGS
A = Detector Channel
A-1	A-2	A-3	A-4	A-5	A-6	A-7	A-8	A-9	A-10	A-11	A-12	A-13	A-14	A-15	A-16	

2.5000e+00	3.0000e+00	2.5000e+00	3.0000e+00	2.0000e+00	3.0000e+00	1.5000e+00	3.0000e+00	3.0000e+00	3.0000e+00	3.0000e+00	3.0000e+00	3.0000e+00	3.0000e+00	1.5000e+00	3.0000e+00	

B = Detector Channel
B-1	B-2	B-3	B-4	B-5	B-6	B-7	B-8	B-9	B-10	B-11	B-12	B-13	B-14	B-15	B-16	

1.0000e+01	1.0000e+01	1.0000e+01	1.4400e+00	1.0000e+01	1.0000e+01	1.5100e+00	1.9400e+00	1.0000e+01	1.0000e+01	1.9900e+00	2.4900e+00	2.4100e+00	2.9000e+00	1.0000e+01	2.9800e+00	




#DATA BEGINS
time	group	step	mark	flag	A-AC1	A-AC2	A-AC3	A-AC4	A-AC5	A-AC6	A-AC7	A-AC8	A-AC9	A-AC10	A-AC11	A-AC12	A-AC13	A-AC14	A-AC15	A-AC16	A-DC1	A-DC2	A-DC3	A-DC4	A-DC5	A-DC6	A-DC7	A-DC8	A-DC9	A-DC10	A-DC11	A-DC12	A-DC13	A-DC14	A-DC15	A-DC16	A-Ph1	A-Ph2	A-Ph3	A-Ph4	A-Ph5	A-Ph6	A-Ph7	A-Ph8	A-Ph9	A-Ph10	A-Ph11	A-Ph12	A-Ph13	A-Ph14	A-Ph15	A-Ph16	B-AC1	B-AC2	B-AC3	B-AC4	B-AC5	B-AC6	B-AC7	B-AC8	B-AC9	B-AC10	B-AC11	B-AC12	B-AC13	B-AC14	B-AC15	B-AC16	B-DC1	B-DC2	B-DC3	B-DC4	B-DC5	B-DC6	B-DC7	B-DC8	B-DC9	B-DC10	B-DC11	B-DC12	B-DC13	B-DC14	B-DC15	B-DC16	B-Ph1	B-Ph2	B-Ph3	B-Ph4	B-Ph5	B-Ph6	B-Ph7	B-Ph8	B-Ph9	B-Ph10	B-Ph11	B-Ph12	B-Ph13	B-Ph14	B-Ph15	B-Ph16	aux-1	digaux	

1441.652	1	1	0	256	0.13212	0.24752	0.10005	0.2657	0.035199	0.080042	0.28082	0.041584	0.18076	0.15454	0.20037	0.22409	0.11321	0.12856	0.12409	0.084298	-3.0021	-3.1479	-3.3417	-3.5625	-3.2667	-3.4271	-3.3896	-3.35	-3.5708	-3.3604	-3.275	-3.5042	-3.1146	-3.4708	-3.325	-3.1396	74.867	-32.512	-156.459	176.172	-159.977	-147.251	119.632	189.202	16.350	154.526	-76.359	-5.958	-56.865	92.027	112.603	-146.007	0.0002852	0.00013897	0.00013304	1358.9	9.6687e-06	6.2019e-06	1340.8	272.25	2.295e-07	4.3077e-06	332.68	92.314	59.708	21.015	8.4887e-06	29.199	0.001054	0.0011038	0.00031072	1359.4	1.2026e-05	1.2146e-05	1343.9	282.04	1.2074e-05	1.2239e-05	356.08	97.637	66.619	23.094	1.2243e-05	32.115	186.358	-17.139	-39.862	-155.629	-42.764	-62.158	-155.277	-148.964	-62.366	100.009	-149.328	-142.851	-142.153	-135.454	-54.109	-135.396	-8191	255	
1441.748	1	1	0	0	0.037305	0.205	0.10079	0.21645	0.23725	0.26795	0.037472	0.079052	0.16237	0.14386	0.041236	0.13616	0.18057	0.059594	0.20316	0.057137	-3.1333	-3.1937	-3.2354	-3.7375	-3.2062	-3.4604	-3.5896	-3.3458	-3.6021	-3.4083	-3.3917	-3.6396	-3.2708	-3.525	-3.3792	-3.1979	47.567	74.258	156.357	135.711	15.566	114.924	-137.545	-136.546	164.557	40.792	-2.006	168.339	113.216	89.112	-160.266	-139.947	0.0003288	0.00024819	0.00026799	1360.1	3.7059e-06	7.0726e-06	1368.3	274.17	1.73e-06	6.5546e-06	335.34	91.58	59.783	20.953	4.7207e-06	29.249	0.0010623	0.0011159	0.00030969	1358.7	1.2081e-05	1.2039e-05	1373.1	282.55	1.2096e-05	1.2073e-05	355.51	97.418	66.682	23.005	1.1972e-05	31.996	-166.971	7.764	-49.382	-155.728	81.179	-42.324	-154.720	-149.022	-121.065	-74.364	-149.050	-142.566	-143.019	-135.558	-68.449	-135.623	-8191	255	
1441.844	1	1	0	0	0.058352	0.073137	0.14857	0.10512	0.019678	0.14866	0.19733	0.2029	0.13301	0.27061	0.26467	0.039819	0.12736	0.25602	0.14778	0.17897	-3.0708	-3.3958	-3.2375	-3.7146	-3.1354	-3.5083	-3.4771	-3.3417	-3.6271	-3.3271	-3.3167	-3.6146	-3.1396	-3.4104	-3.4375	-3.2521	-86.424	-108.149	47.607	110.496	104.646	118.751	103.600	-25.009	70.549	123.445	117.330	-101.082	168.668	52.280	86.995	-33.581	0.00022963	0.00064998	2.1103e-05	1355.8	4.7066e-06	4.1291e-06	1316	273.77	4.0184e-06	9.682e-06	333.29	91.837	59.843	21.066	8.1943e-06	29.175	0.0010241	0.0010797	0.00029803	1355.1	1.163e-05	1.1705e-05	1325	281	1.1651e-05	1.177e-05	353.63	96.851	66.382	22.992	1.1589e-05	31.908	185.110	-52.493	-49.907	-155.742	-48.613	-18.487	-155.234	-149.109	-93.522	-24.289	-149.130	-142.856	-142.398	-135.278	-61.652	-135.457	-8191	255	
1441.965	1	1	0	0	0.055359	0.092607	0.18436	0.27251	0.076617	0.17603	0.16121	0.16016	0.060822	0.16969	0.066478	0.10701	0.08243	0.10051	0.071005	0.25067	-2.9292	-3.3417	-3.2521	-3.4833	-3.1979	-3.4437	-3.5187	-3.0979	-3.4646	-3.4729	-3.4083	-3.6354	-3.3312	-3.25	-3.6458	-3.225	1.924	149.747	-11.216	185.160	169.984	31.006	110.235	138.591	-22.502	11.576	139.036	-62.819	-19.747	-148.013	134.415	102.266	0.00024191	0.00027273	0.00022094	1357.3	7.5158e-06	2.4498e-06	1314.5	272.91	3.4134e-06	1.1155e-05	332.66	91.763	60.19	20.987	5.389e-06	29.096	0.0010007	0.0010596	0.00029461	1355.4	1.1551e-05	1.175e-05	1323	280.94	1.1718e-05	1.1786e-05	353.64	97.097	66.451	22.963	1.1761e-05	31.944	181.978	88.610	-11.536	-155.796	-9.042	92.346	-154.932	-149.105	-124.548	-15.312	-148.796	-142.821	-142.137	-135.354	-48.420	-135.390	-8191	255	
1442.059	1	1	0	0	0.010422	0.12298	0.1344	0.26448	0.39575	0.13229	0.33687	0.11899	0.12725	0.22157	0.12669	0.083587	0.17847	0.15481	0.37002	0.25878	-3.0042	-3.0979	-3.2313	-3.5479	-3.1292	-3.2333	-3.6208	-3.0438	-3.3937	-3.5167	-3.2583	-3.4667	-3.3271	-3.0729	-3.4604	-3.1688	-93.757	-36.956	88.977	-164.898	-157.673	29.177	161.228	-157.345	-0.663	-23.737	160.855	-16.649	134.348	123.668	129.633	-82.431	0.00027429	0.00074441	0.00010725	1358.2	8.7051e-06	1.2652e-05	1315.8	272.75	5.1618e-06	6.7493e-06	334.08	91.433	60.542	20.892	6.5971e-06	29.055	0.0010291	0.0010913	0.00030354	1355.6	1.1863e-05	1.1877e-05	1325.9	281.16	1.1808e-05	1.1913e-05	354.53	97.049	66.948	22.92	1.199e-05	31.999	-147.392	152.537	114.446	-155.804	-140.598	-45.908	-154.776	-149.233	39.163	-130.221	-149.102	-142.749	-142.447	-135.205	-78.904	-135.652	-8191	255	
1442.133	1	1	0	0	0.24308	0.18955	0.12684	0.19432	0.028974	0.14967	0.29945	0.070002	0.13701	0.13704	0.099821	0.12349	0.24422	0.22989	0.3671	0.22332	-3.0292	-3.1542	-3.3667	-3.5958	-3.2812	-3.3	-3.5958	-3.325	-3.3333	-3.2479	-3.1896	-3.6063	-3.3187	-3.1292	-3.4604	-3.0812	32.809	-119.507	148.825	115.701	127.639	-57.204	169.030	164.872	-64.036	-120.207	-49.192	-32.658	151.010	106.330	74.610	75.614	0.00021778	0.0012238	0.00017654	1364	4.1009e-06	1.2315e-06	1415.3	271.66	6.9106e-06	4.7798e-06	331.91	92.072	61.152	21.045	4.2279e-06	29.182	0.001039	0.0010909	0.00030307	1356.9	1.1859e-05	1.1964e-05	1422.5	281.04	1.1866e-05	1.1969e-05	353.64	97.334	67.657	23.021	1.1998e-05	32.046	182.466	74.155	-140.833	-155.704	-44.744	-94.181	-155.070	-149.042	-35.206	-65.175	-149.096	-142.672	-142.805	-135.143	170.253	-135.670	-8191	255	
1442.252	1	1	0	0	0.28498	0.17775	0.22472	0.23977	0.28476	0.14986	0.29022	0.18411	0.24367	0.22104	0.26639	0.14097	0.023118	0.20746	0.19931	0.095088	-2.7188	-3.5208	-2.9625	-3.6125	-3.2333	-3.2542	-3.675	-3.3167	-3.4021	-3.4021	-3.3688	-3.4667	-3.275	-3.3	-3.3937	-3.1437	-8.610	-21.234	-102.634	104.154	-123.031	-50.834	-163.119	181.539	53.893	-128.894	22.315	-149.891	81.416	161.625	-26.720	165.312	0.0002804	0.00012389	4.5785e-06	1356.6	7.8218e-06	1.4829e-06	1370.4	270.68	9.9687e-06	7.8098e-06	332.94	91.992	61.32	21.065	1.1584e-05	29.041	0.0010452	0.0010965	0.00030248	1356.5	1.2056e-05	1.2047e-05	1378.3	281.02	1.2025e-05	1.2122e-05	354.09	97.383	67.914	23.079	1.2065e-05	31.992	-158.594	-140.967	10.386	-155.610	-51.486	-151.435	-154.990	-149.355	-12.130	-1.144	-148.973	-143.017	-142.661	-134.833	-1.216	-135.805	-8191	255	
1442.348	1	1	0	0	0.055376	0.1522	0.084601	0.41921	0.26906	0.1428	0.064744	0.1752	0.09048	0.19698	0.17683	0.1686	0.12077	0.033321	0.32249	0.035572	-2.7625	-3.5563	-3.1604	-3.3958	-3.4042	-2.9792	-3.6583	-3.475	-3.2708	-3.5625	-3.1229	-3.4271	-3.6792	-2.9938	-3.6229	-3.2687	-51.429	-147.291	65.758	148.622	78.836	-16.254	52.965	136.051	157.115	68.262	128.877	143.200	-143.528	91.685	46.644	-47.409	0.00017081	0.0012656	0.0002651	1360.3	2.3396e-06	7.8895e-06	1360.1	271.53	7.9179e-06	9.1072e-06	334.22	91.973	61.454	21.014	6.7107e-06	29.336	0.0010503	0.0011053	0.00030651	1356.3	1.2159e-05	1.2202e-05	1364.4	281.43	1.2249e-05	1.2327e-05	356.33	97.423	68.098	23.086	1.2195e-05	32.189	174.446	-48.751	-138.625	-155.852	-71.416	-124.084	-154.708	-149.320	-122.515	-75.603	-149.249	-142.600	-142.371	-135.592	-5.537	-135.668	-8191	255	
1442.444	1	1	0	0	0.2884	0.15328	0.097337	0.096161	0.057707	0.1211	0.18454	0.14616	0.15935	0.20719	0.043022	0.20142	0.2437	0.21041	0.02171	0.25768	-2.8167	-3.4125	-3.0563	-3.6312	-3.4125	-3.1021	-3.5292	-3.3375	-3.1937	-3.3896	-3.4313	-3.4562	-3.4583	-3.2958	-3.3125	-3.2917	53.711	28.829	32.970	128.026	118.290	102.667	137.823	81.771	-132.253	-154.942	166.277	-75.320	122.360	-81.008	51.964	-164.872	0.00027397	0.0014206	0.00012735	1357.7	6.7565e-06	6.8291e-06	1431	271.37	4.5364e-06	8.0116e-06	333.83	91.609	61.275	20.867	7.8997e-06	29.033	0.0010552	0.0011053	0.00030672	1355.8	1.2095e-05	1.2136e-05	1436.2	280.89	1.1878e-05	1.2009e-05	354.78	97.063	67.825	22.95	1.1936e-05	32.014	186.453	-99.158	175.298	-155.733	1.519	-6.957	-154.951	-148.849	93.755	-113.879	-148.990	-142.937	-142.435	-135.248	79.160	-135.804	-8191	255	
1442.565	1	1	0	0	0.11272	0.079351	0.11177	0.18528	0.10698	0.042685	0.25973	0.17334	0.14465	0.051137	0.091975	0.20153	0.12881	0.19191	0.22737	0.16963	-2.7542	-3.4979	-3.1833	-3.4146	-3.4104	-3.2333	-3.5854	-3.4938	-3.0604	-3.3896	-3.3208	-3.1958	-3.4729	-3.2542	-3.3833	-3.3521	86.373	16.139	110.199	184.561	115.925	98.714	-162.143	101.643	70.737	-115.526	86.423	122.722	-44.468	2.973	16.618	59.040	0.00026584	0.00042554	6.7151e-05	1355.7	3.9392e-06	5.2135e-06	1390.1	272.83	6.6819e-06	5.4979e-06	331.4	91.727	61.048	21.047	2.8864e-06	29.065	0.0010405	0.0011018	0.00030594	1355.5	1.1953e-05	1.2037e-05	1394.1	281.07	1.1836e-05	1.1994e-05	353.52	97.007	67.709	22.972	1.1927e-05	31.92	-156.658	-167.069	161.552	-155.810	-93.415	155.570	-154.867	-149.120	-14.252	52.035	-149.117	-142.847	-142.690	-135.379	96.127	-135.839	-8191	255	
1442.661	1	1	0	0	0.12428	0.10397	0.13937	0.39867	0.16343	0.2137	0.10291	0.092365	0.32128	0.16724	0.29604	0.21456	0.29604	0.24906	0.16527	0.05993	-2.7521	-3.5812	-3.0771	-3.4417	-3.4188	-3.1583	-3.5521	-3.2938	-3.1229	-3.3	-3.2208	-3.3271	-3.4521	-3.325	-3.2917	-3.2479	40.278	-104.269	31.767	169.376	175.693	-156.701	179.754	85.347	-150.324	147.167	146.899	163.481	-163.174	121.604	-136.633	173.513	0.00025987	0.00086225	0.00019758	1353.5	3.1721e-06	1.2678e-05	1392.7	272.44	9.9593e-06	6.9379e-06	331.93	91.859	61.244	20.964	7.8347e-06	29.282	0.0010352	0.0010858	0.000301	1351.8	1.1686e-05	1.1809e-05	1396.1	280.43	1.1796e-05	1.187e-05	353.14	96.865	67.669	22.906	1.1789e-05	31.987	-157.406	-66.981	14.160	-155.799	-49.279	-50.930	-154.878	-149.093	-29.645	-40.478	-149.124	-143.052	-142.934	-135.282	-14.297	-135.621	-8191	255	
1442.757	1	1	0	0	0.075101	0.31932	0.25621	0.35213	0.068898	0.15096	0.35834	0.050708	0.056197	0.27266	0.13057	0.10437	0.29141	0.43259	0.13784	0.23003	-2.8792	-3.375	-3.3563	-3.3458	-3.4417	-3.15	-3.5958	-3.6167	-3.1896	-3.4854	-3.3354	-3.35	-3.6833	-3.2562	-3.4021	-3.5146	-15.886	-74.186	90.117	146.879	19.277	-153.229	119.005	-128.212	155.633	-118.115	-32.727	-128.534	187.778	124.051	-107.926	183.193	0.00016229	0.00044057	7.6558e-05	1357.9	7.0693e-06	4.3579e-06	1352.9	271.05	5.0393e-06	2.0386e-06	329.23	91.805	61.225	20.922	8.3501e-06	29.131	0.0010191	0.0010752	0.00030031	1352.9	1.165e-05	1.1772e-05	1355.4	280.43	1.1753e-05	1.1787e-05	352.49	96.965	67.576	22.945	1.1787e-05	31.925	-145.247	175.808	48.258	-155.625	-108.177	-159.227	-154.748	-148.752	-25.723	29.377	-148.815	-143.031	-143.080	-135.230	94.684	-135.546	-8191	255	
1442.829	1	1	0	0	0.1879	0.18057	0.0364	0.21142	0.076292	0.13232	0.27111	0.043467	0.1683	0.097263	0.20884	0.068365	0.19355	0.24772	0.085252	0.18187	-2.6771	-3.4062	-3.4167	-3.2854	-3.6458	-3.2042	-3.3979	-3.5958	-3.0563	-3.3729	-3.5083	-3.1813	-3.6104	-3.2292	-3.3521	-3.4813	3.262	147.316	-141.607	-165.920	126.971	-40.398	175.092	102.607	-74.018	-86.302	95.633	-5.252	-158.551	-103.046	-155.063	-53.214	0.00020307	0.0012466	0.00028161	1355.5	4.3746e-06	5.9977e-06	1400.3	273.68	3.6203e-06	6.4306e-06	331.74	92.058	61.135	20.939	2.5186e-06	29.11	0.0010169	0.0010718	0.0002983	1352.3	1.1636e-05	1.1771e-05	1405.7	280.97	1.1722e-05	1.1889e-05	353.26	96.943	67.535	22.923	1.1728e-05	31.959	-163.598	-71.931	7.404	-155.849	143.639	-69.297	-154.731	-149.120	-37.355	-92.231	-149.030	-142.827	-143.157	-135.338	-51.895	-135.813	-8191	255	
1442.925	1	1	0	0	0.15391	0.30128	0.19782	0.26153	0.22684	0.082907	0.11673	0.13372	0.195	0.17825	0.098361	0.38863	0.23223	0.092147	0.12901	0.22587	-2.9354	-3.4042	-3.3229	-3.2667	-3.5625	-3.2625	-3.3521	-3.5833	-3.1312	-3.3958	-3.4375	-3.2896	-3.5438	-3.1792	-3.2583	-3.5896	-27.982	-26.788	186.193	180.776	72.842	-14.082	-163.945	187.636	48.882	158.789	85.123	111.482	144.110	187.866	139.815	-35.097	0.00029374	0.00020414	7.8107e-05	1355.1	8.1523e-06	1.0167e-05	1349.7	272.94	3.8078e-06	8.9581e-06	331.47	91.598	61.316	20.712	2.7548e-06	29.163	0.0010113	0.0010637	0.00029657	1351.2	1.1674e-05	1.1752e-05	1354.4	280.28	1.1617e-05	1.1668e-05	352.96	96.731	67.595	22.869	1.167e-05	31.859	-132.738	67.444	-155.524	-155.725	-74.632	3.594	-154.583	-148.805	-58.701	49.982	-149.325	-142.932	-142.743	-134.947	11.261	-135.222	-8191	255	
1443.045	1	1	0	0	0.13606	0.077884	0.014307	0.34902	0.066701	0.033144	0.12774	0.30836	0.067549	0.064674	0.19672	0.20965	0.080582	0.11873	0.088265	0.1059	-2.6771	-3.2771	-3.5542	-3.5062	-3.4708	-3.3083	-3.4417	-3.4958	-3.1437	-3.25	-3.5104	-3.2646	-3.4271	-3.3937	-3.0792	-3.3875	106.591	147.776	-144.445	180.614	82.998	-138.447	61.782	81.074	-129.157	-55.125	-131.276	167.279	-137.174	178.553	-35.108	162.943	0.00023444	0.00054172	0.00021475	1353.3	2.8755e-06	1.2467e-05	1404.7	271.57	3.3924e-06	9.6217e-06	332.02	91.456	61.443	20.843	1.1185e-05	28.955	0.0010109	0.0010557	0.00029261	1351.9	1.1544e-05	1.1505e-05	1407.5	280.02	1.143e-05	1.1419e-05	350.98	96.445	67.354	22.767	1.1203e-05	31.655	-151.773	177.692	-50.462	-155.790	-47.439	-37.167	-154.765	-149.034	6.372	112.897	-148.802	-142.748	-142.721	-135.535	-18.267	-135.196	-8191	255	
1443.140	1	1	0	0	0.046999	0.2152	0.30534	0.25274	0.21537	0.14916	0.288	0.16239	0.18149	0.085864	0.22453	0.16236	0.023663	0.21269	0.15739	0.14986	-2.8375	-3.0833	-3.2729	-3.2917	-3.2812	-3.3979	-3.275	-3.4188	-3.2687	-3.225	-3.5271	-3.2604	-3.2875	-3.3604	-3.1917	-3.4167	49.212	16.477	122.361	150.908	71.341	43.417	155.990	-145.527	8.451	-118.557	89.656	-9.194	96.816	-0.561	132.970	35.610	0.00029049	0.00041508	0.00025384	1354	3.7328e-06	2.3334e-06	1391	271.99	3.4402e-06	6.7306e-06	333.06	91.649	61.098	20.855	2.1139e-06	29.072	0.00096641	0.0010105	0.00027925	1345.8	1.0938e-05	1.0919e-05	1393.8	278.83	1.0876e-05	1.1014e-05	350.97	96.255	66.887	22.666	1.0749e-05	31.573	192.202	-149.513	-62.466	-155.548	-110.058	-63.110	-154.773	-149.231	-98.197	21.161	-148.829	-142.653	-142.817	-134.923	-159.272	-135.780	-8191	255	
1443.236	1	1	0	0	0.09367	0.063556	0.14496	0.2523	0.21462	0.1523	0.24966	0.075076	0.14308	0.1411	0.28025	0.060874	0.081721	0.12117	0.34945	0.15304	-2.7188	-3.1792	-3.4313	-3.25	-3.3542	-3.4458	-3.3042	-3.4854	-3.4146	-3.3667	-3.6	-3.3021	-3.2167	-3.4708	-3.1292	-3.475	189.214	-56.762	-165.411	118.947	-141.499	150.720	145.512	44.648	40.634	-65.095	185.213	20.276	123.164	33.071	-24.424	-118.345	0.00028431	0.00021166	0.00018054	1349.7	4.865e-06	8.265e-06	1405	271.38	4.0667e-06	1.5236e-06	329.34	91.576	61.045	20.914	6.2433e-06	29.145	0.0009119	0.00096685	0.00026664	1343.1	1.0384e-05	1.044e-05	1404.3	277.82	1.031e-05	1.0497e-05	346.83	95.88	66.595	22.591	1.0319e-05	31.367	-165.118	16.611	-65.092	-155.853	35.896	52.983	-154.756	-149.124	-101.751	174.385	-148.916	-142.541	-142.895	-135.308	-122.251	-135.388	-8191	255	
1443.334	1	1	0	0	0.15795	0.25888	0.17106	0.21008	0.073932	0.13279	0.10891	0.18113	0.43543	0.17359	0.16536	0.16197	0.22656	0.055062	0.080217	0.097932	-2.925	-3.1729	-3.5167	-3.4625	-3.3271	-3.5271	-3.1917	-3.4396	-3.4104	-3.2396	-3.4833	-3.3	-3.1729	-3.5563	-3.1958	-3.3896	140.990	89.279	3.632	184.193	15.998	-43.974	142.876	135.691	-137.971	55.312	-100.041	-150.132	-126.244	190.258	-38.752	34.519	0.00024029	0.00067248	0.00014631	1346	3.4862e-06	5.1929e-06	1414.4	272.36	7.6411e-06	8.9179e-06	330.42	91.758	61.472	20.921	4.268e-06	28.954	0.00090255	0.00094886	0.00026207	1342	1.0272e-05	1.027e-05	1411.5	277.35	1.0268e-05	1.0166e-05	347.17	95.749	66.498	22.542	1.0025e-05	31.365	189.318	-83.334	-21.943	-155.809	-125.509	23.446	-154.784	-149.156	-35.945	-74.318	-149.039	-142.854	-142.511	-135.279	85.953	-135.478	-8191	255	
1443.428	1	1	0	0	0.0875	0.13489	0.21018	0.14728	0.33448	0.2005	0.18097	0.055556	0.10628	0.019598	0.13574	0.13048	0.27654	0.17454	0.15478	0.087581	-3.1292	-3.0208	-3.2771	-3.4396	-3.2021	-3.5396	-3.3646	-3.5958	-3.4729	-3.1542	-3.5958	-3.3167	-3.0479	-3.5979	-3.2646	-3.5375	74.747	70.994	-118.597	159.290	-143.618	151.089	101.967	169.328	-79.810	-64.556	-92.645	150.316	-68.431	36.261	-8.448	83.878	0.00023264	0.00053702	0.00013861	1349.7	3.4558e-06	9.1076e-06	1411.8	271.33	3.31e-06	7.0287e-06	328.88	91.885	61.248	20.895	6.314e-06	29.071	0.00086612	0.00090388	0.00025292	1340.7	9.8506e-06	9.9025e-06	1409.3	276.48	9.751e-06	9.8211e-06	345.01	95.531	66.322	22.492	9.6115e-06	31.297	-139.746	-10.235	-71.553	-155.980	-38.650	-68.601	-154.919	-148.998	-139.822	24.085	-148.906	-142.598	-142.738	-134.950	-20.754	-135.992	-8191	255	
1443.524	1	1	0	0	0.2265	0.15607	0.085212	0.34067	0.051514	0.17911	0.39766	0.10262	0.21327	0.088406	0.098217	0.058269	0.34259	0.33144	0.1283	0.20105	-2.925	-3.05	-3.3104	-3.3292	-2.9479	-3.4708	-3.325	-3.2812	-3.2521	-3.1417	-3.3833	-3.3875	-3.1271	-3.4562	-3.3417	-3.3688	145.522	97.207	67.933	136.559	-121.157	59.848	169.225	33.868	5.917	142.343	19.489	-131.138	-77.814	161.227	1.549	31.468	0.00027569	0.00038653	7.9851e-05	1350.6	4.5201e-06	5.2825e-06	1403.9	269.81	2.3109e-06	4.0391e-06	333.06	92.153	60.927	21.051	7.4487e-06	28.946	0.00083258	0.00086095	0.00024095	1338.8	9.2957e-06	9.3536e-06	1398	275.14	9.0583e-06	9.0719e-06	343.49	95.253	65.844	22.449	9.0903e-06	31.034	-156.528	-137.098	50.491	-155.767	-40.095	-108.472	-154.691	-149.225	-63.752	-164.670	-148.966	-142.741	-142.879	-134.971	-63.790	-135.545	-8191	255	
1443.645	1	1	0	0	0.19269	0.31492	0.12745	0.14885	0.092311	0.11878	0.25382	0.22074	0.21212	0.16238	0.1265	0.094909	0.17702	0.20462	0.28398	0.25361	-3.0312	-3.0958	-3.4938	-3.4896	-3.2125	-3.3229	-3.525	-3.1583	-3.3354	-3.2562	-3.5312	-3.3375	-3.1271	-3.6042	-3.1646	-3.3104	-160.387	-34.040	35.721	147.734	-164.403	48.963	169.067	133.338	95.766	143.518	-108.960	143.440	61.839	108.805	-16.906	3.180	0.00028753	0.00039222	0.00013836	1346	3.5763e-06	9.9586e-06	1383.5	269.79	5.739e-06	1.7559e-06	331.6	91.193	61.554	21.076	3.2615e-06	29.068	0.00079414	0.00082624	0.0002343	1333.4	9.298e-06	9.3141e-06	1377.4	274.76	9.2726e-06	9.4174e-06	344.55	95.094	65.979	22.477	9.4709e-06	31.199	-140.440	137.045	-79.171	-155.724	-95.400	-47.223	-154.902	-149.322	22.781	4.798	-149.093	-142.814	-142.869	-135.253	-1.606	-135.400	-8191	255	
1443.741	1	1	0	0	0.1525	0.083819	0.20674	0.05481	0.24022	0.024999	0.014565	0.21684	0.18885	0.15221	0.26141	0.24736	0.077297	0.15054	0.16457	0.01523	-2.8958	-2.925	-3.3104	-3.4896	-3.0833	-3.4354	-3.3917	-3.3146	-3.5042	-3.1833	-3.3771	-3.5312	-3.3021	-3.3792	-3.4417	-3.35	-26.757	186.839	90.269	191.269	-52.870	100.809	122.401	142.098	-35.686	179.702	-129.673	126.017	103.817	-55.638	126.161	-90.988	0.00022813	0.00018165	0.00020485	1345.4	5.8936e-06	7.8214e-06	1392.2	270.04	7.0968e-06	8.407e-06	329.41	91.691	61.291	20.951	1.01e-05	29.216	0.00081495	0.00085561	0.00023677	1333.9	9.1562e-06	9.2714e-06	1387.3	274.33	9.1949e-06	9.2546e-06	343.19	95.21	65.771	22.37	9.1263e-06	31.128	-154.798	-10.183	186.128	-155.517	-52.433	-32.090	-154.762	-149.170	29.770	-92.434	-148.799	-142.675	-142.276	-135.146	-7.974	-135.368	-8191	255	
1443.837	1	1	0	0	0.15851	0.20853	0.052661	0.33745	0.026855	0.29885	0.031063	0.18402	0.20737	0.13171	0.14038	0.021725	0.083049	0.027611	0.15847	0.15096	-3.0208	-3.1667	-3.2708	-3.7542	-3.1521	-3.4333	-3.6333	-3.2271	-3.3167	-3.3333	-3.4333	-3.3125	-3.2646	-3.4479	-3.4896	-2.9562	69.710	39.900	-37.170	147.449	-70.630	185.301	175.609	-155.901	-136.004	-62.415	84.171	-156.491	146.965	-87.882	-106.963	-162.144	0.00025528	0.00081734	0.00010105	1339.1	3.7807e-06	8.1983e-06	1407.1	269.46	3.0381e-06	5.0337e-06	329.63	91.305	61.062	20.963	2.7722e-06	29.163	0.00077981	0.00081526	0.00022888	1326.9	8.8975e-06	9.0436e-06	1399.3	273.43	8.9779e-06	8.9211e-06	341.76	94.962	65.41	22.371	8.8124e-06	31.06	190.566	-138.491	-164.881	-155.739	-69.220	7.944	-154.860	-148.984	104.541	-73.314	-148.866	-142.809	-142.822	-135.328	111.432	-135.861	-8191	255	
1443.934	1	1	0	0	0.091144	0.20906	0.16014	0.16419	0.068772	0.15639	0.22967	0.089806	0.10629	0.18538	0.15793	0.052614	0.053917	0.24229	0.1539	0.20922	-3.1333	-3.1854	-3.2771	-3.7271	-3.0438	-3.4083	-3.3958	-3.2042	-3.4375	-3.1813	-3.2396	-3.5292	-3.0833	-3.3375	-3.4208	-3.1333	65.538	-159.174	-1.367	123.540	-51.689	-83.325	100.587	-160.757	-134.921	-26.628	-28.574	41.390	180.013	-77.788	127.679	-61.237	0.00022754	0.00064591	0.00014531	1336.4	6.3392e-06	5.8954e-06	1340.9	268.13	2.9992e-06	6.1203e-06	329.59	91.527	61.193	21.104	1.1311e-06	29.098	0.00076977	0.00079837	0.00022396	1328.2	8.7411e-06	8.9254e-06	1337	273.28	8.7874e-06	8.8752e-06	340.79	94.732	65.326	22.39	8.6159e-06	31.014	-165.029	68.678	-45.657	-155.638	-91.447	36.193	-154.598	-148.988	-52.161	-53.392	-149.306	-142.682	-142.606	-135.197	-90.243	-135.642	-8191	255	
1444.054	1	1	0	0	0.29367	0.1183	0.12178	0.11549	0.065476	0.18611	0.28506	0.4246	0.098401	0.11357	0.17075	0.080685	0.27166	0.21879	0.11063	0.22678	-3.0833	-3.1562	-3.3458	-3.6646	-3.1646	-3.3937	-3.7896	-3.2208	-3.4896	-3.4021	-3.1813	-3.6208	-3.3833	-3.1792	-3.5687	-2.95	-104.336	-11.727	-118.631	175.499	-55.058	120.262	154.674	135.009	166.655	183.513	-90.088	-87.139	-113.464	130.434	-61.753	72.126	0.00023894	0.00022655	0.00016509	1336.6	1.7265e-06	3.218e-06	1406.8	270.05	9.3733e-07	5.8919e-06	327.62	92.01	61.007	20.994	8.2441e-07	29.114	0.00075204	0.00078781	0.00021939	1324.2	8.6199e-06	8.6875e-06	1396.3	273.25	8.6887e-06	8.6958e-06	339.75	94.949	65.316	22.302	8.6372e-06	31.045	-161.274	178.102	-103.128	-155.839	-67.543	52.731	-155.063	-148.969	-63.720	84.159	-149.107	-142.626	-142.773	-135.340	-75.659	-135.230	-8191	255	
1444.126	1	1	0	0	0.21127	0.03643	0.19775	0.42804	0.34557	0.038253	0.10032	0.16546	0.069812	0.14237	0.20646	0.032874	0.11297	0.10637	0.17576	0.022135	-2.9729	-3.3688	-3.1125	-3.7208	-3.0438	-3.4021	-3.5104	-3.2687	-3.4333	-3.3958	-3.1437	-3.5625	-3.2104	-3.3438	-3.475	-3.0979	-37.559	189.269	94.141	173.684	120.405	-69.074	76.748	-136.643	48.029	51.078	54.887	53.029	-160.510	30.259	120.959	-154.826	0.00026327	0.00098999	0.00025931	1339.3	5.2828e-06	7.675e-06	1409.2	269.92	2.6125e-06	7.6003e-06	329.53	91.522	60.672	20.986	5.4253e-06	29.163	0.00076041	0.00079138	0.00021959	1324.4	8.584e-06	8.6616e-06	1398.7	272.67	8.5875e-06	8.5085e-06	340.38	94.741	65.029	22.269	8.5451e-06	30.976	-154.217	-45.386	-4.041	-155.551	-62.392	-61.839	-154.972	-149.370	-107.987	106.234	-149.258	-142.725	-142.503	-135.157	52.451	-135.774	-8191	255	
1444.222	1	1	0	0	0.15736	0.1211	0.12264	0.18803	0.19763	0.28141	0.30355	0.199	0.19484	0.11225	0.21305	0.13741	0.25793	0.084854	0.24536	0.1113	-2.9833	-3.3625	-3.0708	-3.5625	-3.1937	-3.225	-3.7042	-3.2188	-3.3771	-3.3875	-3.1667	-3.4917	-3.275	-3.2333	-3.4062	-3.2292	126.978	-147.475	-93.108	129.236	73.563	58.689	61.789	51.479	-151.575	-66.242	-104.581	97.062	-118.150	148.114	181.129	60.059	0.00023544	0.00030031	9.957e-05	1338.4	9.2554e-06	9.3906e-06	1404.2	268.31	6.1209e-06	4.0579e-06	329.39	91.532	61.351	21.005	1.1806e-06	29.143	0.00074455	0.00077257	0.00021754	1326	8.677e-06	8.6073e-06	1398.3	272.33	8.6576e-06	8.7287e-06	339.99	94.713	65.232	22.343	8.6481e-06	31.062	-161.147	-112.829	-150.527	-155.714	-38.577	-33.473	-154.927	-149.167	185.767	-128.964	-148.720	-142.988	-142.780	-135.439	-112.990	-135.219	-8191	255	
1444.341	1	1	0	0	0.092537	0.18966	0.10096	0.13897	0.14007	0.11316	0.26598	0.082865	0.12596	0.12168	0.16861	0.27163	0.22695	0.2298	0.13104	0.061133	-2.9667	-3.3521	-3.2896	-3.4917	-3.2542	-3.2	-3.7167	-3.2812	-3.3833	-3.5208	-3.2479	-3.3146	-3.2833	-3.2521	-3.4583	-3.2229	-45.447	7.819	-128.425	-160.649	-99.291	10.621	92.347	189.361	177.815	-82.288	57.135	-131.123	-121.332	-83.196	-76.617	-90.106	0.0002472	0.00092541	0.00013284	1337.5	3.8977e-06	1.7832e-06	1414.7	267.7	4.7562e-06	1.8805e-06	331.37	91.442	61.126	21.141	6.6361e-06	29.135	0.00075641	0.00079009	0.00021941	1324.4	8.6164e-06	8.7015e-06	1407.9	272.14	8.6421e-06	8.6522e-06	341.3	94.758	65.219	22.348	8.5415e-06	30.99	-151.924	-9.801	-53.841	-155.637	-3.169	-61.928	-155.349	-149.320	-78.373	-124.964	-149.172	-142.835	-143.144	-134.968	-2.813	-135.451	-8191	255	
1444.437	1	1	0	0	0.15496	0.12618	0.14589	0.2319	0.16578	0.061778	0.19535	0.19031	0.09686	0.061992	0.18181	0.024031	0.24231	0.1709	0.061457	0.11344	-2.9833	-3.4542	-3.2042	-3.6271	-3.3271	-3.0604	-3.7812	-3.3187	-3.2521	-3.5021	-3.2042	-3.4333	-3.3396	-3.0896	-3.3792	-3.1417	-123.976	183.679	169.623	139.884	72.290	-162.141	179.812	98.701	-20.031	-2.431	87.268	-19.443	-105.455	39.607	-36.078	125.005	0.00024843	0.00081417	0.00017472	1331.9	4.7457e-06	2.8722e-06	1411	268.4	6.5271e-06	1.4923e-06	328.59	91.139	61.029	20.985	5.0502e-06	29.255	0.00073905	0.00077956	0.00021427	1322	8.4331e-06	8.5416e-06	1400.6	271.95	8.4411e-06	8.5177e-06	339.38	94.484	65.188	22.258	8.4897e-06	31.077	-149.611	19.063	-104.787	-155.697	29.710	-25.771	-155.192	-149.170	-57.705	62.412	-148.891	-142.941	-142.769	-135.395	75.118	-135.844	-8191	255	
1444.533	1	1	0	0	0.17966	0.1931	0.11768	0.12352	0.30887	0.24658	0.20058	0.37493	0.066508	0.17721	0.076062	0.11724	0.079047	0.10589	0.1814	0.27242	-2.7438	-3.4604	-3.0958	-3.4729	-3.5312	-3.1667	-3.6375	-3.3583	-3.2875	-3.5646	-3.0521	-3.3958	-3.3854	-3.1958	-3.2896	-3.2125	-62.562	-65.465	152.896	-158.521	81.807	-9.625	136.657	62.912	116.667	124.869	112.072	-156.861	-10.391	119.905	70.658	149.269	0.00020334	0.00050083	0.00023253	1337.5	4.7229e-06	9.7232e-06	1400.8	268.09	7.1089e-06	3.1603e-06	330.03	91.365	60.954	20.828	8.0651e-06	29.032	0.00074364	0.00077453	0.0002169	1323	8.5105e-06	8.6315e-06	1392.1	272.14	8.3903e-06	8.6099e-06	340.32	94.661	65.298	22.294	8.528e-06	30.997	-157.093	91.570	-104.102	-155.639	-91.414	-89.027	-154.798	-149.232	-18.787	130.084	-149.176	-142.731	-142.605	-135.251	90.960	-135.297	-8191	255	
1444.629	1	1	0	0	0.1709	0.21561	0.14742	0.38493	0.29898	0.25995	0.2313	0.16396	0.18575	0.22527	0.20473	0.32922	0.10949	0.10372	0.13785	0.23779	-2.8271	-3.5792	-3.2583	-3.6937	-3.3604	-3.3563	-3.7125	-3.4854	-3.1937	-3.5187	-3.4292	-3.2896	-3.5646	-3.2583	-3.525	-3.4833	-146.658	91.387	-142.769	150.070	84.873	39.604	116.675	180.487	69.837	182.193	34.382	177.883	-131.294	123.043	-19.397	-6.022	0.00020955	0.00013618	0.00017318	1331.2	6.7006e-06	5.0255e-06	1398.3	266.68	5.7541e-06	5.2051e-06	329.59	91.285	60.805	20.945	4.5726e-06	29.053	0.00073987	0.00078808	0.00021848	1319.8	8.5484e-06	8.6015e-06	1391	271.79	8.6017e-06	8.5958e-06	341.32	94.662	65.281	22.325	8.6732e-06	31.085	-164.158	-148.868	185.391	-155.885	-101.126	2.495	-154.857	-149.060	74.727	75.265	-149.007	-142.799	-143.145	-135.243	-36.136	-135.481	-8191	255	
1444.725	1	1	0	0	0.09692	0.20471	0.14173	0.28834	0.12814	0.26028	0.23322	0.15522	0.17619	0.23008	0.15309	0.10478	0.01205	0.20867	0.077543	0.24051	-2.7042	-3.3375	-3.2708	-3.3354	-3.475	-3.3375	-3.5708	-3.5354	-3.2771	-3.3625	-3.3438	-3.2417	-3.5083	-3.0292	-3.3354	-3.5167	-20.708	-78.419	75.073	-162.196	-71.648	-115.082	119.971	115.346	20.224	-84.372	-128.421	20.208	-2.255	154.584	126.927	184.900	0.00024114	0.00090479	0.00014847	1333.9	5.9192e-06	1.351e-05	1395.2	268.72	6.3243e-06	8.8367e-06	329.39	91.085	61.063	21.082	3.1826e-06	29.062	0.00076193	0.00080095	0.00022194	1320	8.6649e-06	8.7887e-06	1389.5	272.6	8.7219e-06	8.8136e-06	340.65	94.659	65.18	22.372	8.7326e-06	30.989	185.034	-98.011	70.724	-155.723	-41.206	-60.723	-154.744	-149.242	-58.723	-111.872	-148.821	-142.652	-142.834	-135.279	15.114	-135.441	-8191	255	
1444.822	1	1	0	0	0.23011	0.02039	0.20403	0.28768	0.1039	0.11007	0.1157	0.10909	0.10328	0.15395	0.084077	0.097542	0.23408	0.21899	0.25045	0.26127	-2.6729	-3.2333	-3.3396	-3.3688	-3.6104	-3.1271	-3.4562	-3.5062	-3.1021	-3.3958	-3.3	-3.1167	-3.4188	-3.3125	-3.4042	-3.3792	177.761	154.035	62.464	169.103	62.330	76.587	151.161	165.793	62.898	48.721	103.712	111.661	-90.143	-131.586	-147.631	85.964	0.00020767	0.00035625	5.9293e-05	1328.9	2.482e-06	6.9425e-06	1400.8	267.9	4.6476e-06	4.3279e-06	328.56	91.215	61.11	21.141	7.8011e-06	29.148	0.00076164	0.00079494	0.00022022	1318	8.7595e-06	8.6823e-06	1393.7	272.41	8.7412e-06	8.8084e-06	340.79	94.856	65.399	22.385	8.8391e-06	31.049	189.653	-36.504	47.784	-155.760	-103.431	-152.554	-154.768	-149.279	21.940	86.475	-148.902	-142.659	-142.872	-135.467	-51.909	-135.848	-8191	255	
1444.918	1	1	0	0	0.18165	0.16776	0.25845	0.47378	0.19022	0.12605	0.33263	0.19036	0.035828	0.14654	0.15136	0.24809	0.21271	0.10908	0.25104	0.14799	-2.7687	-3.1979	-3.1625	-3.2646	-3.5563	-3.125	-3.4958	-3.4896	-3.1208	-3.3083	-3.3937	-3.2417	-3.4208	-3.2438	-3.0938	-3.5563	-33.023	140.117	-48.469	160.991	-31.148	-83.430	147.867	69.239	-160.183	187.234	34.845	140.819	-132.295	-66.118	-61.563	55.899	0.00032973	0.00026285	0.000127	1329.9	1.609e-07	5.8525e-06	1413.4	268.46	3.1385e-06	7.5353e-06	329.65	90.981	61.602	20.962	1.4787e-06	29.244	0.00077457	0.00080647	0.00022483	1320.2	8.8672e-06	8.9199e-06	1401.4	272.43	8.8913e-06	8.9581e-06	340.76	94.964	65.69	22.353	9.0051e-06	31.187	-151.446	181.184	180.685	-155.574	189.111	6.004	-155.094	-149.191	-37.447	2.477	-149.177	-143.202	-142.812	-135.131	-66.069	-135.462	-8191	255	
1445.014	1	1	0	0	0.19447	0.14163	0.029425	0.36293	0.096824	0.18055	0.38774	0.12395	0.034753	0.07476	0.13734	0.24969	0.20408	0.11134	0.040994	0.10588	-2.6875	-3.4208	-3.3563	-3.3604	-3.3979	-3.2229	-3.3375	-3.5396	-3.1104	-3.3125	-3.4667	-3.2021	-3.4688	-3.3438	-3.1896	-3.6	192.630	179.032	151.211	107.648	82.244	96.634	114.278	102.124	147.049	-62.971	110.748	103.616	-133.200	-17.298	172.192	77.338	0.000247	0.00082815	0.00018276	1331.1	1.7574e-06	3.332e-06	1402.8	270.05	2.9744e-06	8.4465e-06	329.09	91.646	61.114	20.952	4.6504e-06	29.244	0.0007867	0.00082789	0.00023106	1321.7	9.0342e-06	9.1688e-06	1396.5	272.91	9.1417e-06	9.1465e-06	341.21	95.119	65.684	22.437	9.1332e-06	31.25	-152.485	-24.781	176.091	-155.763	-70.540	-4.277	-154.850	-149.067	-86.541	-17.495	-148.889	-143.037	-142.682	-135.131	64.652	-135.778	-8191	255	
1445.133	1	1	0	0	0.21713	0.052013	0.24213	0.21998	0.061823	0.22784	0.42542	0.048774	0.10888	0.16891	0.2839	0.047345	0.15373	0.26032	0.031604	0.31339	-2.7125	-3.3604	-3.4271	-3.2313	-3.4979	-3.4458	-3.4792	-3.5771	-3.2812	-3.1354	-3.675	-3.2104	-3.5875	-3.3312	-3.1771	-3.5396	162.753	86.759	-26.021	184.834	-65.729	134.215	149.989	-15.424	-127.556	-5.689	104.816	161.517	30.233	117.802	-62.725	108.469	0.00025885	0.00029754	0.00014288	1332.1	7.3037e-06	4.4407e-06	1374.5	267.56	1.1265e-06	5.9185e-06	332.48	91.756	61.417	20.896	2.5982e-06	29.1	0.00080141	0.00083891	0.00023334	1322.7	9.2095e-06	9.2608e-06	1370.5	272.92	9.2254e-06	9.2393e-06	342.58	94.9	65.745	22.443	9.2725e-06	31.179	-164.026	-3.497	-51.764	-155.901	-124.007	-16.526	-154.561	-149.001	164.996	-71.640	-149.058	-142.876	-143.224	-135.197	9.624	-135.761	-8191	255	
1445.229	1	1	0	0	0.13717	0.073593	0.20001	0.40757	0.19824	0.18164	0.15696	0.2218	0.071442	0.18096	0.10458	0.057157	0.065949	0.19803	0.21741	0.074575	-2.8	-3.2917	-3.4562	-3.2938	-3.4104	-3.4771	-3.2083	-3.5542	-3.3937	-3.2812	-3.4104	-3.2396	-3.3958	-3.2125	-3.0521	-3.3875	113.425	-59.230	108.774	150.452	24.101	-70.033	147.433	29.035	-0.145	77.905	151.922	-60.420	65.995	-101.717	-95.761	-162.833	0.00025478	0.00055442	4.8273e-05	1326.8	3.0358e-06	1.1224e-05	1407.6	267.55	3.8813e-06	6.9244e-06	329.46	91.328	60.768	20.91	6.6893e-06	29.08	0.0008142	0.00085141	0.00023877	1320.3	9.3144e-06	9.4273e-06	1402.4	273.29	9.2713e-06	9.3648e-06	342.3	95.107	65.642	22.396	9.3595e-06	31.209	-154.657	-80.609	159.514	-155.566	-81.946	-40.414	-155.040	-149.040	146.448	-43.344	-148.835	-142.901	-142.613	-135.155	-47.873	-135.721	-8191	255	
1445.325	1	1	0	0	0.097099	0.1706	0.096657	0.39656	0.297	0.070702	0.07263	0.26464	0.1455	0.13912	0.099966	0.076626	0.079185	0.14783	0.067517	0.1166	-2.9104	-3.0625	-3.525	-3.5167	-3.2792	-3.4917	-3.4333	-3.4604	-3.2313	-3.1063	-3.6417	-3.3958	-3.3771	-3.4542	-3.0875	-3.4521	103.234	26.933	104.423	-161.502	-149.754	95.927	34.219	132.618	-156.270	113.228	171.298	157.158	46.266	99.086	-16.591	43.760	0.00026104	0.0010125	9.2282e-05	1336.5	3.3198e-06	3.0705e-06	1389	268.71	1.3516e-06	5.3577e-06	327.98	91.109	61.444	20.899	4.2822e-06	29.281	0.0008216	0.00085999	0.00024134	1323.5	9.5028e-06	9.5027e-06	1386.8	273.4	9.4332e-06	9.477e-06	342.55	95.221	65.959	22.445	9.4589e-06	31.252	-161.895	-81.228	134.293	-155.661	42.497	166.421	-154.917	-148.875	-113.019	-32.461	-149.059	-142.674	-143.087	-135.157	-37.246	-135.607	-8191	255	
1445.421	1	1	0	0	0.063725	0.17375	0.14602	0.17527	0.13688	0.17611	0.18678	0.14886	0.052665	0.045406	0.082887	0.10382	0.063397	0.17721	0.18548	0.17187	-2.8792	-3.1958	-3.475	-3.2938	-3.2146	-3.5187	-3.4437	-3.4708	-3.4979	-3.2812	-3.4458	-3.2167	-3.2083	-3.6083	-3.2438	-3.3958	35.730	56.305	-117.492	-156.858	-33.979	134.840	172.508	-86.386	163.258	48.047	-148.657	68.187	57.758	-102.072	20.744	124.622	0.00026281	0.00030168	0.00025601	1339.9	9.613e-06	5.2353e-06	1408.6	265.97	3.2911e-06	9.967e-06	327.93	91.862	61.26	21.001	2.3063e-06	29.136	0.00083005	0.00086449	0.00024359	1325.7	9.4919e-06	9.5926e-06	1403.2	272.89	9.4245e-06	9.5896e-06	342.66	95.347	66.009	22.486	9.7775e-06	31.357	-166.028	-127.056	-91.263	-155.945	-94.555	75.628	-154.964	-149.255	114.115	10.039	-148.849	-142.866	-142.720	-135.063	35.679	-135.793	-8191	255	
1445.517	1	1	0	0	0.1573	0.10557	0.079109	0.1691	0.080793	0.09903	0.208	0.15663	0.2221	0.075088	0.070432	0.14713	0.19559	0.056551	0.19438	0.34602	-2.875	-3.1271	-3.3896	-3.3833	-3.2	-3.5542	-3.2729	-3.2521	-3.3396	-3.1833	-3.5229	-3.425	-3.0938	-3.5625	-3.1521	-3.2729	-117.535	-158.455	40.417	157.800	95.788	-129.094	117.194	178.476	32.632	158.830	8.051	131.847	40.944	-163.782	-28.829	140.957	0.00025405	0.00065277	0.00010765	1329.1	2.3125e-06	8.8231e-06	1362.6	268.58	5.9979e-06	1.1495e-06	328.54	91.303	61.048	20.959	8.2078e-06	29.065	0.00084846	0.0008822	0.00024567	1322.4	9.5784e-06	9.626e-06	1361.9	273.93	9.5258e-06	9.5882e-06	343.33	95.393	65.961	22.515	9.5822e-06	31.336	187.559	-144.849	-47.762	-155.729	-159.996	3.084	-154.767	-149.133	-89.490	-56.711	-148.823	-142.676	-143.285	-135.177	16.595	-135.474	-8191	255	
1445.614	1	1	0	0	0.19227	0.084248	0.067663	0.30219	0.18171	0.20707	0.24204	0.088248	0.072577	0.1472	0.19213	0.10747	0.13842	0.22495	0.14806	0.17677	-2.9771	-3.1792	-3.3688	-3.5896	-3.1833	-3.45	-3.3354	-3.3708	-3.3688	-3.2458	-3.3833	-3.3396	-3.1083	-3.4208	-3.1917	-3.2812	42.581	39.141	111.983	154.737	41.821	-17.374	97.761	-102.679	31.553	-35.230	-94.758	43.265	183.784	-29.804	171.130	163.749	0.0002538	0.00085422	0.00013047	1329.3	2.7431e-06	6.7636e-06	1380.9	267.96	5.6222e-06	4.1414e-06	329.68	91.018	61.248	20.937	2.0328e-06	28.925	0.00084276	0.0008801	0.00024814	1323.1	9.689e-06	9.7538e-06	1378.5	273.87	9.6986e-06	9.845e-06	344.02	95.171	66.047	22.56	9.8141e-06	31.294	-141.612	-88.359	-100.690	-155.630	-48.240	-29.147	-154.749	-148.706	-74.968	-84.941	-148.734	-142.687	-142.888	-135.079	109.826	-135.897	-8191	255	
1445.734	1	1	0	0	0.21051	0.20082	0.18252	0.21561	0.25503	0.054721	0.18689	0.14345	0.1008	0.046412	0.24922	0.20949	0.22453	0.066885	0.062888	0.14322	-3.1771	-3.1562	-3.1708	-3.4625	-3.0458	-3.6125	-3.4896	-3.175	-3.4083	-3.2729	-3.3229	-3.4625	-2.9729	-3.3771	-3.1688	-3.1833	0.234	4.940	-141.977	148.220	187.702	28.322	123.801	154.973	19.620	-15.557	-8.866	61.897	54.503	-129.027	187.490	-163.707	0.00024621	0.00068915	0.00023601	1335.5	7.4994e-06	1.1602e-05	1405	268.72	4.2277e-06	8.6771e-06	329.14	91.271	61.327	20.869	4.0649e-06	29.11	0.00084447	0.00089809	0.00024815	1325.1	9.675e-06	9.8812e-06	1400.9	274.24	9.7167e-06	9.8335e-06	344.34	95.386	66.177	22.484	9.7014e-06	31.33	-161.473	-78.605	-103.117	-155.560	-81.704	-37.004	-154.922	-149.112	-19.812	11.868	-148.636	-142.922	-142.983	-135.026	-98.798	-135.819	-8191	255	
1445.830	1	1	0	0	0.1392	0.12221	0.21382	0.36716	0.072089	0.29806	0.30055	0.27825	0.30105	0.083941	0.15444	0.227	0.030193	0.06608	0.23027	0.046656	-3.0167	-3.2083	-3.3167	-3.5396	-3.0083	-3.4938	-3.4396	-3.0292	-3.5354	-3.0896	-3.4708	-3.5458	-3.3167	-3.45	-3.2542	-3.2562	-113.375	-114.125	19.534	170.640	-55.899	-6.591	64.144	-159.962	138.347	50.451	-5.525	131.807	21.417	76.141	-73.469	145.997	0.00025133	0.00027726	9.3926e-05	1335.2	5.4123e-06	3.4593e-06	1359.7	268.02	5.3237e-06	3.4474e-06	329.46	91.545	61.26	20.802	4.2015e-06	29.171	0.0008542	0.00089233	0.00024834	1326.1	9.6935e-06	9.9004e-06	1358.3	274.12	9.837e-06	9.7743e-06	344.26	95.431	66.223	22.558	9.8516e-06	31.307	178.438	13.423	-46.876	-155.780	-61.580	-54.609	-154.647	-149.096	-9.872	-150.475	-149.067	-142.797	-142.423	-135.219	-33.478	-135.598	-8191	255	
1445.926	1	1	0	0	0.17554	0.1902	0.15248	0.11512	0.18973	0.057648	0.35749	0.31735	0.084964	0.041681	0.17958	0.24908	0.23155	0.14967	0.077831	0.26832	-3.0563	-3.1271	-3.2208	-3.5333	-3.1813	-3.325	-3.5833	-3.1625	-3.6167	-3.3625	-3.1146	-3.4604	-3.0375	-3.3688	-3.3542	-3.2771	11.994	26.047	-8.641	151.809	9.186	-107.529	150.739	56.857	163.917	45.979	176.239	-86.392	21.399	-125.659	-145.984	-76.395	0.00026388	0.00027124	0.00020477	1336.9	9.9825e-07	2.3498e-06	1396.4	268.89	4.2113e-06	2.9524e-06	327.87	91.365	61.323	20.917	5.6415e-06	29.282	0.00085284	0.00089177	0.00024897	1324.6	9.7932e-06	9.9454e-06	1394.2	274.57	9.8238e-06	9.892e-06	343.59	95.327	66.398	22.535	9.819e-06	31.377	-157.604	-109.628	-146.439	-155.739	16.415	7.627	-154.718	-148.922	-44.592	-145.109	-148.671	-142.870	-142.979	-135.402	-77.782	-135.787	-8191	255	
1446.023	1	1	0	0	0.040135	0.20763	0.02329	0.27262	0.19243	0.19507	0.29743	0.072766	0.091118	0.14379	0.086129	0.29699	0.14062	0.23112	0.092572	0.19016	-2.9333	-3.0646	-3.3312	-3.6083	-3.3375	-3.3812	-3.4292	-3.0667	-3.3875	-3.2208	-3.325	-3.5729	-3.2042	-3.275	-3.3563	-3.0083	166.519	27.735	184.847	158.286	-23.538	-73.926	2.694	65.034	46.889	-58.645	86.275	90.386	-0.212	141.427	163.298	24.937	0.00020294	0.00016929	0.00011816	1331.6	1.9582e-06	7.4771e-06	1366.4	266.94	5.8424e-06	4.8484e-06	328.75	91.634	61.095	20.962	5.346e-06	29.22	0.00086438	0.00089899	0.0002492	1325.9	9.7729e-06	9.9162e-06	1363.9	273.49	9.8964e-06	9.9222e-06	343.84	95.648	66.07	22.582	9.8522e-06	31.412	184.754	-16.987	-77.120	-155.742	-158.829	-14.978	-154.869	-148.905	-7.863	-48.242	-148.927	-142.687	-142.814	-135.107	117.459	-135.392	-8191	255	
1446.119	1	1	0	0	0.16743	0.1593	0.3433	0.20268	0.16935	0.11207	0.28025	0.23712	0.043962	0.16982	0.1582	0.056428	0.11802	0.054678	0.031938	0.16214	-3.2396	-3.2042	-3.1667	-3.8125	-3.2146	-3.2292	-3.5812	-3.4292	-3.4896	-3.3063	-3.2271	-3.5792	-3.4104	-3.3396	-3.375	-3.0479	-106.691	-23.323	53.424	137.333	-42.654	-136.738	122.168	119.493	-81.109	-26.900	99.820	-14.829	38.876	115.545	22.946	-115.097	0.00030236	0.00041411	8.8815e-05	1333.4	5.2834e-06	5.0558e-06	1351.7	268.69	2.5309e-06	7.8497e-06	328.95	92.041	60.821	20.856	1.6105e-06	29.006	0.00085651	0.00089361	0.00024903	1325.9	9.7232e-06	9.8515e-06	1352	273.74	9.7053e-06	9.7822e-06	343.84	95.472	66.027	22.507	9.796e-06	31.334	-166.694	-24.247	172.178	-155.709	56.411	1.908	-154.552	-148.986	-52.017	-10.467	-149.062	-142.742	-142.648	-134.948	173.137	-135.770	-8191	255	
1446.213	1	1	0	0	0.43102	0.053871	0.068061	0.28067	0.082969	0.12742	0.13519	0.10781	0.081658	0.22434	0.27737	0.13635	0.088259	0.08464	0.094823	0.045401	-3.0104	-3.3458	-3.2208	-3.7146	-3.1792	-3.1625	-3.6208	-3.1708	-3.4104	-3.2875	-3.0646	-3.675	-3.1063	-3.1	-3.5438	-3.1646	-35.917	-56.874	-102.943	157.101	157.758	96.984	121.719	112.128	-85.719	-10.413	168.081	-48.871	-77.719	159.382	150.822	-142.537	0.00029143	0.00033015	0.00015929	1335.1	8.9264e-06	5.6565e-06	1331.6	267.76	6.9886e-06	7.5443e-06	329.18	91.533	61.058	21.006	6.1021e-06	29.075	0.000846	0.00089623	0.00025023	1327.5	9.7106e-06	9.8197e-06	1329.4	274.18	9.89e-06	9.9236e-06	344.07	95.531	66.02	22.53	9.797e-06	31.27	-160.131	-38.431	-49.019	-155.615	-123.984	-63.577	-154.637	-148.991	-80.236	-132.936	-148.730	-142.885	-142.564	-134.848	46.980	-135.745	-8191	255	
1446.309	1	1	0	0	0.11791	0.058573	0.11482	0.28696	0.16432	0.34068	0.22929	0.22882	0.19742	0.078027	0.071345	0.19203	0.093676	0.074967	0.18932	0.06762	-2.8583	-3.4771	-3.1021	-3.5187	-3.1708	-3.4104	-3.4854	-3.2562	-3.3396	-3.4562	-3.1188	-3.675	-3.2917	-3.0687	-3.4708	-3.3542	4.176	-147.108	-2.757	149.170	-68.670	122.435	180.483	63.080	24.018	89.421	-14.140	92.045	-143.604	156.317	182.192	78.743	0.0002304	0.00028049	0.00010097	1334.7	4.8845e-06	3.1555e-06	1403.6	267.17	4.3129e-06	2.5073e-06	329.98	91.351	60.946	20.882	6.7491e-06	29.199	0.00084932	0.00089137	0.00024765	1325.2	9.7599e-06	9.8621e-06	1403.5	273.96	9.7779e-06	9.8607e-06	343.88	95.446	66.183	22.569	9.8002e-06	31.367	191.371	13.842	-27.715	-155.622	-87.319	-48.525	-155.061	-148.993	157.826	12.555	-149.006	-142.624	-142.474	-135.148	20.610	-136.005	-8191	255	
1446.430	1	1	0	0	0.32966	0.1235	0.29885	0.25335	0.1161	0.077768	0.33906	0.18228	0.17118	0.19378	0.071924	0.15971	0.16333	0.28389	0.1191	0.11741	-2.8479	-3.2854	-2.9354	-3.5938	-3.2708	-3.2125	-3.7208	-3.3875	-3.2458	-3.425	-3.15	-3.3646	-3.3375	-3.2917	-3.6021	-3.2562	83.723	-5.668	141.901	166.085	-7.649	-165.755	85.567	-162.149	-74.046	-106.692	109.232	-114.576	97.323	-59.898	52.965	108.790	0.00036289	0.0010807	1.98e-05	1330.7	1.2524e-05	4.1065e-06	1408.2	267.99	4.253e-06	2.0661e-06	327.99	91.267	61.593	20.98	5.7175e-06	29.198	0.00085879	0.00089954	0.00024875	1325.4	9.8207e-06	9.8181e-06	1406.2	273.79	9.831e-06	9.8944e-06	344.02	95.544	66.222	22.587	9.9657e-06	31.367	-154.351	-119.589	136.573	-155.722	-47.206	163.143	-155.133	-149.170	-95.826	-140.114	-149.065	-142.863	-142.727	-135.340	-74.594	-136.008	-8191	255	
1446.526	1	1	0	0	0.1981	0.11769	0.26421	0.29714	0.055143	0.095595	0.15966	0.27248	0.20185	0.031364	0.22035	0.064778	0.28131	0.13381	0.18327	0.18562	-2.7396	-3.4271	-3.1437	-3.5104	-3.3229	-3.3167	-3.6312	-3.275	-3.3375	-3.5312	-3.2583	-3.4813	-3.5458	-3.0958	-3.4771	-3.3521	17.363	-66.709	-62.233	88.486	115.496	-74.611	133.918	159.046	88.325	26.137	189.399	-129.799	159.634	27.255	-55.258	126.778	0.00020708	0.00063371	0.00014553	1337.4	4.6978e-06	5.5831e-06	1373.8	267.8	5.2908e-06	7.0105e-06	328.66	91.345	61.064	20.961	9.468e-06	29.131	0.00086038	0.00089103	0.00025198	1327.1	9.8061e-06	9.8899e-06	1375.7	274.47	9.8149e-06	9.8481e-06	343.58	95.485	66.217	22.555	9.9445e-06	31.308	189.778	-67.074	-81.329	-155.764	35.116	-78.032	-154.909	-149.093	65.705	-61.398	-148.950	-143.133	-142.716	-135.344	-73.476	-135.680	-8191	255	
1446.598	1	1	0	0	0.21467	0.094741	0.31473	0.20148	0.10035	0.23258	0.1711	0.21963	0.28015	0.054122	0.14832	0.25249	0.28873	0.3784	0.075397	0.17727	-2.8292	-3.4771	-3.2229	-3.3083	-3.3042	-3.2146	-3.6583	-3.3458	-3.1896	-3.5563	-3.1458	-3.2146	-3.5667	-3.1833	-3.3937	-3.3208	-93.959	93.368	-157.310	-133.161	159.950	178.086	147.602	-153.986	23.741	-56.515	106.679	130.448	-36.727	189.607	-51.788	57.922	0.00022958	0.00067171	7.1381e-05	1333.1	4.9136e-06	8.5663e-06	1426.2	268.03	2.0163e-06	4.9619e-06	329.57	91.19	60.838	20.994	1.9642e-06	29.286	0.00085528	0.00089159	0.00024741	1327	9.6682e-06	9.6968e-06	1420	273.34	9.6013e-06	9.6459e-06	343.71	95.131	65.852	22.454	9.4895e-06	31.284	192.209	64.500	-158.944	-155.782	-55.511	-68.211	-155.534	-148.863	-4.283	-37.579	-148.757	-142.787	-142.596	-135.880	-61.972	-135.719	-8191	255	
1446.694	1	1	0	0	0.1523	0.07639	0.084741	0.086959	0.038548	0.19122	0.18671	0.071516	0.1341	0.27278	0.14773	0.17831	0.071602	0.19864	0.18784	0.1266	-2.75	-3.4604	-3.2479	-3.4833	-3.4917	-3.2021	-3.8333	-3.4229	-3.1375	-3.4146	-3.3604	-3.2583	-3.55	-3.1854	-3.3042	-3.4021	35.004	76.015	-164.212	147.925	-133.526	141.190	16.800	-151.198	-36.193	-75.530	85.762	137.558	110.327	-109.202	36.167	109.060	0.00023487	0.00059661	0.00020495	1336.6	5.3334e-06	2.8273e-06	1426.9	267.46	5.9235e-06	1.6223e-07	327.75	91.747	61.135	20.908	6.1604e-06	29.164	0.00081823	0.00084987	0.00023603	1325.9	9.2779e-06	9.3148e-06	1423.8	273.54	9.4309e-06	9.5965e-06	343.15	95.416	66.041	22.537	9.6224e-06	31.409	-166.229	-8.663	-155.916	-155.697	150.336	-57.665	-155.751	-148.930	46.032	-133.715	-149.029	-142.695	-142.630	-135.073	60.790	-135.539	-8191	255	
1446.815	1	1	0	0	0.16358	0.086696	0.041619	0.25601	0.056883	0.095443	0.16512	0.063308	0.053886	0.21469	0.26424	0.40984	0.10598	0.054493	0.17034	0.10325	-2.7104	-3.4313	-3.3042	-3.3604	-3.4979	-3.2604	-3.6688	-3.3729	-3.075	-3.5083	-3.3187	-3.3063	-3.4646	-3.3187	-3.1688	-3.5375	-100.908	135.602	-50.700	-163.702	4.664	-4.124	88.354	87.138	115.828	130.051	114.765	-164.960	16.271	-135.326	-68.105	89.305	0.00034303	0.00046932	0.00015306	1339.8	1.9786e-06	8.3886e-06	1412.2	269.66	4.0404e-06	1.3362e-05	330.83	91.225	60.795	21.081	9.4701e-06	29.177	0.0008392	0.00088914	0.00024784	1329.7	9.7838e-06	9.8813e-06	1407.8	274.5	9.8881e-06	9.9987e-06	344.96	95.448	66.299	22.63	9.7634e-06	31.397	-138.942	-37.974	-40.163	-155.500	-81.138	-84.460	-155.105	-148.892	-46.424	-58.995	-148.986	-142.633	-142.970	-135.361	20.015	-135.712	-8191	255	
1446.911	1	1	0	0	0.28126	0.1278	0.21282	0.16549	0.17676	0.091692	0.21417	0.23581	0.047019	0.20005	0.24221	0.17771	0.14233	0.1258	0.10474	0.097674	-2.8854	-3.3896	-3.2854	-3.3042	-3.475	-3.35	-3.4125	-3.5333	-3.0062	-3.5125	-3.3625	-3.1333	-3.5854	-3.2208	-3.2354	-3.7542	-161.073	87.115	-105.392	188.148	71.432	-93.421	71.587	175.756	-71.816	-24.334	151.554	60.851	122.228	168.514	-46.051	42.934	0.00017685	0.00042449	0.00022162	1336.4	4.48e-06	9.3785e-06	1414.8	267.71	3.6508e-06	8.3636e-06	328.34	91.463	61.29	20.967	1.0095e-05	28.887	0.00084487	0.00088865	0.00024896	1329.1	9.7269e-06	9.7333e-06	1409.5	273.96	9.678e-06	9.8194e-06	343.62	95.478	66.221	22.559	9.7488e-06	31.306	-155.592	-135.050	-122.815	-155.820	-65.887	38.530	-155.132	-148.955	179.993	-64.290	-148.703	-143.001	-142.986	-135.421	-42.374	-135.567	-8191	255	
1447.007	1	1	0	0	0.24417	0.068264	0.16485	0.38641	0.30775	0.14194	0.060923	0.10604	0.25697	0.15862	0.061942	0.16892	0.068826	0.33792	0.059042	0.29828	-2.5792	-3.4313	-3.3708	-3.4313	-3.575	-3.2646	-3.3875	-3.5083	-3.1583	-3.3937	-3.5312	-3.2125	-3.55	-3.3271	-3.1	-3.4021	-31.530	69.642	96.422	84.506	135.039	-26.965	35.314	176.620	-20.973	-51.177	-28.390	158.748	166.588	-41.993	-63.467	-88.251	0.00028301	0.0010701	0.00012623	1339.2	6.3443e-06	9.6958e-06	1415.7	269.18	3.3439e-06	6.5004e-06	330.3	91.64	61.342	21.09	8.3533e-06	29.1	0.00084454	0.00088953	0.0002471	1330.2	9.661e-06	9.7791e-06	1408.8	274.58	9.7082e-06	9.8251e-06	345.33	95.562	66.41	22.554	9.6446e-06	31.367	-158.109	-113.102	-163.998	-155.733	-164.755	-29.478	-155.267	-149.057	-95.136	-3.508	-148.816	-142.656	-143.125	-135.178	-11.292	-135.953	-8191	255	
1447.127	1	1	0	0	0.18692	0.19269	0.17013	0.15648	0.023677	0.1608	0.24298	0.16494	0.2473	0.089456	0.21237	0.15582	0.16768	0.092812	0.14643	0.13394	-2.825	-3.3229	-3.4979	-3.4313	-3.5208	-3.375	-3.3083	-3.5312	-3.1021	-3.425	-3.4938	-3.1708	-3.2125	-3.2021	-3.1917	-3.5583	144.917	34.302	77.328	153.618	-83.050	-6.254	154.952	187.775	-14.563	-115.432	123.786	-110.451	107.703	-0.901	-36.668	168.086	0.00028205	0.00027509	9.9925e-05	1336.9	7.8493e-06	5.2189e-06	1440.3	269.43	2.4148e-06	2.6881e-06	331.25	91.166	61.176	20.842	3.0588e-06	29.202	0.00083257	0.00088577	0.00024683	1329.6	9.736e-06	9.8716e-06	1430.9	274.61	9.8511e-06	1.0005e-05	345.85	95.708	66.466	22.613	9.947e-06	31.446	-156.639	76.920	43.607	-155.536	31.337	-41.511	-155.712	-149.101	41.399	189.554	-149.126	-142.993	-142.716	-135.429	115.868	-135.801	-8191	255	
1447.222	1	1	0	0	0.30999	0.17334	0.08362	0.17722	0.13314	0.11036	0.29658	0.1256	0.13137	0.14326	0.27943	0.075035	0.22497	0.19058	0.035343	0.26048	-2.9875	-3.2917	-3.5271	-3.3417	-3.2438	-3.35	-3.2417	-3.6021	-3.2854	-3.3292	-3.7104	-3.2792	-3.2771	-3.4604	-3.0896	-3.4104	-159.169	51.173	60.786	159.260	-64.288	-122.137	95.566	-91.697	175.894	154.648	-61.119	-154.175	-158.467	-166.635	172.135	-28.578	0.0002079	0.00060898	0.00032796	1341.6	5.2061e-06	4.228e-06	1413.3	269.14	6.3652e-06	7.8685e-06	330.26	91.898	61.682	21.083	3.6069e-06	28.94	0.00086866	0.00091495	0.00025508	1332.6	9.9889e-06	1.0055e-05	1407.3	275.02	9.9139e-06	9.8372e-06	345.54	95.782	66.556	22.677	9.9619e-06	31.456	-155.610	-101.673	-4.716	-155.621	0.144	-140.115	-155.496	-149.067	-22.683	-98.728	-149.135	-142.698	-143.055	-135.499	157.473	-135.653	-8191	255	
1447.295	1	1	0	0	0.16084	0.16123	0.12298	0.30643	0.11295	0.07991	0.22698	0.39497	0.041203	0.13131	0.067805	0.12084	0.10403	0.21424	0.057368	0.064982	-2.8479	-3.1958	-3.4271	-3.2333	-3.5375	-3.2938	-3.3312	-3.4792	-3.2958	-3.0333	-3.5125	-3.1146	-3.4437	-3.3	-2.9979	-3.4729	-101.857	98.056	183.287	157.912	-154.947	57.099	129.325	142.754	-10.325	-158.305	-68.477	69.581	175.513	-151.745	169.344	86.461	0.00019371	0.00032066	4.0415e-05	1339.8	8.0916e-06	3.8388e-06	1421	268.32	2.5314e-06	4.0578e-06	329.66	91.67	61.088	21.076	4.5362e-07	29.097	0.00086957	0.00092554	0.00025851	1333.7	1.0079e-05	1.0163e-05	1414.1	275.4	1.0146e-05	1.023e-05	346.64	95.805	66.688	22.665	1.0097e-05	31.515	-154.181	59.749	23.189	-155.719	-27.252	-86.318	-155.010	-149.105	-51.051	12.258	-148.735	-142.752	-142.860	-135.374	99.822	-135.255	-8191	255	
1447.414	1	1	0	0	0.20175	0.13675	0.097327	0.16643	0.12128	0.28308	0.22449	0.083141	0.019672	0.12144	0.044001	0.18724	0.15285	0.16132	0.15595	0.26129	-2.7542	-3.0271	-3.4167	-3.3937	-3.2479	-3.5146	-3.3667	-3.525	-3.3854	-3.1104	-3.3979	-3.3396	-3.3479	-3.6042	-3.1833	-3.3396	47.004	187.060	114.908	108.551	137.345	105.454	127.416	-55.878	-141.366	-115.231	-93.693	177.509	64.834	150.605	-146.181	-167.012	0.00027642	0.00055627	0.00010759	1340.8	4.8904e-06	3.6022e-06	1412.2	269.11	1.2295e-06	6.3854e-06	329.24	91.824	61.384	20.991	3.0478e-06	29.212	0.00087759	0.00091465	0.00025534	1332.8	9.9492e-06	1.0085e-05	1409.8	275.35	1.0002e-05	1.0065e-05	345.59	95.963	66.572	22.683	9.8734e-06	31.476	-160.496	-32.882	132.868	-155.809	-31.686	-146.186	-155.241	-149.030	97.470	96.541	-149.080	-142.771	-142.542	-135.623	-22.664	-135.633	-8191	255	
1447.510	1	1	0	0	0.16718	0.1177	0.3211	0.25923	0.044713	0.16247	0.15883	0.065986	0.25733	0.091248	0.13774	0.3251	0.27883	0.16816	0.12418	0.16539	-2.95	-2.9938	-3.4375	-3.35	-3.2958	-3.5125	-3.3104	-3.3875	-3.3812	-3.0896	-3.5271	-3.2708	-3.2146	-3.5958	-3.2562	-3.4125	-114.653	-104.291	-88.020	190.854	145.261	-50.614	133.570	-62.814	-72.104	-85.226	168.672	140.084	-125.250	122.100	-161.485	-149.145	0.00018997	0.00016496	0.00021892	1344.1	9.6333e-06	6.1345e-06	1418.3	269.84	2.9528e-06	4.7536e-06	330.27	91.588	61.581	21.13	1.1037e-05	29.177	0.00086782	0.00090413	0.00025148	1333.7	9.7958e-06	1.0009e-05	1418.7	275.6	9.8331e-06	9.9658e-06	345.67	95.637	66.545	22.664	9.9433e-06	31.505	-136.836	54.400	-54.447	-155.616	8.019	161.561	-155.385	-149.109	157.410	-98.073	-149.203	-142.615	-142.730	-135.413	129.535	-135.553	-8191	255	
1447.606	1	1	0	0	0.16896	0.17339	0.16476	0.20817	0.086443	0.17646	0.20184	0.26992	0.20337	0.24185	0.18044	0.16697	0.24753	0.10479	0.12817	0.1161	-3.0979	-3.175	-3.5146	-3.4229	-3.3125	-3.5583	-3.3833	-3.3521	-3.4813	-3.0979	-3.5917	-3.5167	-3.1208	-3.6083	-3.2583	-3.3792	124.686	17.592	178.828	171.081	59.238	-23.063	79.847	-149.283	1.005	154.090	32.485	-102.684	133.194	-110.613	-40.451	-38.717	0.00020061	0.0001834	0.00017507	1342.1	3.8449e-06	5.6135e-06	1413.2	268.77	3.8092e-06	1.9327e-06	331.3	91.972	61.478	21.059	2.5006e-06	29.359	0.00087352	0.0009126	0.00025637	1333.8	1.0045e-05	1.0079e-05	1412.9	275.33	9.9374e-06	9.9932e-06	346.01	95.868	66.391	22.566	9.6873e-06	31.405	-157.192	162.905	-112.413	-155.740	46.041	-56.513	-155.102	-148.902	-22.748	-74.514	-148.778	-143.116	-142.752	-135.161	-12.010	-135.870	-8191	255	
1447.727	1	1	0	0	0.074991	0.3033	0.11585	0.25981	0.11744	0.093686	0.28298	0.146	0.10316	0.13776	0.12217	0.18095	0.17257	0.1755	0.084043	0.27656	-3.2354	-3.0979	-3.4188	-3.5042	-2.9229	-3.5125	-3.3688	-3.3229	-3.6813	-3.2792	-3.2812	-3.5917	-3.1458	-3.5542	-3.3354	-3.2979	24.592	-116.323	-59.996	-165.259	55.528	-79.192	89.866	-135.857	-1.188	62.019	182.928	-139.267	-142.926	-156.427	28.631	127.431	0.00028089	0.00071518	0.00025096	1343.2	2.6774e-06	2.1595e-06	1415	268.23	2.0495e-06	3.7972e-06	330.18	91.474	61.409	20.862	9.6562e-06	29.11	0.00082996	0.00086855	0.00024378	1331.4	9.4476e-06	9.485e-06	1409.5	274.46	9.4438e-06	9.5712e-06	344.46	95.475	66.421	22.542	9.5897e-06	31.388	192.806	-72.521	-149.251	-155.821	-67.042	-150.258	-154.975	-148.967	111.496	136.665	-148.817	-142.726	-142.759	-135.082	-27.765	-135.730	-8191	255	
1447.823	1	1	0	0	0.029598	0.20492	0.085731	0.28779	0.36813	0.05253	0.083294	0.1944	0.13003	0.13376	0.22219	0.11417	0.38827	0.091829	0.053992	0.087937	-3.0729	-3.2271	-3.525	-3.3708	-3.1375	-3.4875	-3.5	-3.3146	-3.4708	-3.4458	-3.3396	-3.4771	-3.0167	-3.5312	-3.4104	-3.225	86.831	157.147	2.986	161.620	3.737	-51.994	140.747	186.152	-35.600	-60.968	149.071	-26.914	-92.348	183.248	-66.260	167.763	0.0002709	0.001018	4.0377e-05	1341.4	2.9269e-06	1.0037e-06	1417.5	270.84	6.7924e-06	9.0641e-07	330.22	92.174	61.15	21.124	1.9958e-06	29.167	0.00085082	0.00088729	0.00024843	1333.5	9.721e-06	9.728e-06	1410	275.54	9.5925e-06	9.6252e-06	344.98	95.825	66.156	22.574	9.5241e-06	31.367	-160.845	-84.940	13.117	-155.714	-3.692	26.020	-155.124	-149.266	-132.371	1.586	-149.266	-142.699	-142.765	-135.176	-0.940	-135.516	-8191	255	
1447.895	1	1	0	0	0.16337	0.20951	0.25129	0.082636	0.11683	0.12431	0.22227	0.0066779	0.32141	0.13735	0.31994	0.15745	0.21772	0.077439	0.1655	0.10545	-3.2479	-3.1917	-3.325	-3.6813	-3.0771	-3.4938	-3.7417	-3.1042	-3.6021	-3.2229	-3.2062	-3.4479	-3.2646	-3.5062	-3.3063	-3.1646	7.699	61.042	51.766	62.879	-3.816	30.566	173.803	21.169	-40.475	43.077	-22.921	-71.070	-163.266	70.751	-65.719	117.542	0.00021552	0.00021475	7.85e-06	1344.2	7.1325e-06	9.3342e-06	1418.7	270.32	4.1927e-06	6.811e-06	329.58	92.243	61.099	21.151	4.5739e-06	29.249	0.00082671	0.00086666	0.00024487	1333.3	9.4979e-06	9.648e-06	1414.9	275.19	9.6157e-06	9.731e-06	345.29	95.84	66.266	22.667	9.7395e-06	31.48	-153.492	-44.484	-96.264	-155.830	-75.167	83.700	-155.138	-149.175	-24.022	-25.079	-148.482	-142.773	-142.744	-135.101	-132.831	-135.535	-8191	255	
1447.991	1	1	0	0	0.15078	0.059401	0.1491	0.1202	0.31057	0.05563	0.28392	0.34085	0.35056	0.13319	0.22168	0.067305	0.18169	0.032797	0.14683	0.19545	-3.1188	-3.1917	-3.3438	-3.6792	-3.3187	-3.4396	-3.3375	-3.2396	-3.45	-3.3896	-3.3771	-3.4375	-3.2396	-3.3146	-3.35	-3.0583	177.476	132.412	28.224	-108.509	-115.442	103.223	97.883	163.818	-147.725	127.792	-163.422	-46.766	154.321	-58.658	-31.607	180.299	0.00027772	0.00054886	0.00011807	1342	6.0975e-06	5.3375e-06	1402.5	269.82	6.4759e-06	1.0604e-05	329.95	92.436	61.444	20.99	2.8777e-06	29.15	0.00085002	0.00089806	0.00025076	1333	9.7088e-06	9.8205e-06	1403.6	275.19	9.7476e-06	9.8615e-06	345.41	96.031	66.479	22.619	9.8793e-06	31.477	-161.983	-110.046	-95.352	-155.602	2.997	10.411	-154.934	-148.956	31.377	-20.166	-148.671	-142.837	-143.144	-134.875	-53.887	-135.471	-8191	255	
1448.110	1	1	0	0	0.0094843	0.12588	0.14566	0.21695	0.27078	0.065629	0.059187	0.057348	0.12426	0.21532	0.071477	0.21569	0.071475	0.2887	0.087592	0.20475	-2.9604	-3.2396	-3.1167	-3.7083	-3.2896	-3.2292	-3.6146	-3.15	-3.4875	-3.2625	-3.15	-3.6	-3.2396	-3.2125	-3.4938	-3.1271	165.889	-125.472	-34.366	119.918	-41.346	21.421	-48.331	171.475	-96.651	-125.558	-110.510	-99.391	-38.333	-24.189	13.772	127.691	0.00024746	0.00032087	0.00025773	1339.3	5.6461e-06	7.4158e-06	1390.8	269.59	4.6691e-06	5.1998e-06	329.66	91.906	61.504	20.967	4.4168e-06	29.194	0.00086323	0.00089807	0.00025059	1333.4	9.8051e-06	9.9439e-06	1392.3	275.55	9.8689e-06	1.0021e-05	346.02	95.896	66.646	22.682	9.8559e-06	31.467	187.212	69.427	121.387	-155.710	-100.559	-163.820	-154.753	-149.164	-34.673	90.769	-148.934	-142.571	-142.525	-135.616	79.620	-135.838	-8191	255	
1448.206	1	1	0	0	0.21632	0.41285	0.12352	0.40046	0.17624	0.17513	0.30776	0.26574	0.14149	0.081603	0.15526	0.14083	0.17326	0.26292	0.15139	0.12071	-3.0167	-3.2458	-3.0417	-3.7021	-3.2771	-3.35	-3.6229	-3.2708	-3.3312	-3.5062	-3.1958	-3.5396	-3.3646	-3.4437	-3.6937	-3.2875	148.826	-44.117	119.798	170.666	-28.329	-16.972	156.478	107.329	97.463	-59.596	164.164	-28.824	192.039	102.062	-58.606	178.619	0.00021435	1.7268e-05	4.8209e-05	1336.9	5.5197e-06	6.9108e-06	1397.9	269.45	1.8606e-06	1.4401e-05	330.77	92.67	61.467	21.111	4.9519e-06	28.987	0.00086059	0.00089715	0.00025069	1332	9.8397e-06	9.9496e-06	1390.9	275.24	1.0032e-05	1.0096e-05	346.72	96.202	66.574	22.7	1.0121e-05	31.534	-148.707	180.091	-64.875	-155.637	-59.226	-21.005	-154.894	-149.166	-7.318	-44.939	-149.311	-142.709	-143.093	-135.220	73.231	-135.477	-8191	255	
1448.302	1	1	0	0	0.052134	0.32067	0.14366	0.2152	0.30854	0.072969	0.27404	0.27497	0.15631	0.15303	0.25467	0.16515	0.10517	0.25206	0.28145	0.090114	-2.8958	-3.4604	-3.1312	-3.6271	-3.2938	-3.1771	-3.6625	-3.2333	-3.3354	-3.4521	-3.1937	-3.3729	-3.2583	-3.2292	-3.5	-3.3042	-16.226	23.320	181.749	133.865	-110.435	188.957	127.368	47.930	51.170	-7.814	142.019	184.885	78.987	141.343	172.963	-129.564	0.00015636	0.00041873	0.00026409	1337.9	6.3996e-07	1.3042e-05	1320.5	269.01	1.0695e-06	2.6889e-06	330.44	91.708	61.385	21.138	6.8004e-06	29.131	0.00088764	0.00093994	0.00025821	1336.4	1.0194e-05	1.0193e-05	1318.7	275.71	1.0094e-05	1.0196e-05	346.99	96	66.716	22.72	1.0082e-05	31.491	-150.824	-57.383	-50.790	-155.672	-105.076	-46.357	-154.699	-149.166	-124.055	159.551	-148.882	-142.732	-142.923	-135.301	-18.629	-135.629	-8191	255	
1448.398	1	1	0	0	0.13259	0.18309	0.22913	0.29141	0.063871	0.084876	0.074517	0.2741	0.013579	0.087792	0.13418	0.21903	0.076231	0.22615	0.18917	0.20294	-2.9104	-3.3146	-3.1167	-3.6813	-3.4667	-3.2125	-3.7771	-3.3312	-3.2271	-3.5875	-3.2875	-3.35	-3.3292	-3.2562	-3.4583	-3.1125	185.305	104.934	131.929	-129.780	77.699	-11.651	-1.495	148.635	159.160	-33.673	-29.200	96.175	122.674	143.552	66.259	77.641	0.00031807	0.00046573	0.00010827	1340.8	3.2724e-06	2.4315e-06	1359.4	268.42	3.5762e-06	3.0279e-06	331.48	91.598	61.366	21.2	2.7871e-06	29.091	0.00087461	0.00091436	0.00025687	1333.9	1.0011e-05	1.0098e-05	1360.6	275.94	1.0113e-05	1.0085e-05	346.6	95.997	66.826	22.786	1.0212e-05	31.56	-161.179	-76.653	88.236	-155.822	-58.654	69.205	-154.766	-148.945	-88.834	32.555	-148.587	-142.511	-142.814	-135.730	-79.547	-135.645	-8191	255	
1448.495	1	1	0	0	0.15111	0.17255	0.088883	0.2178	0.083144	0.075231	0.3765	0.29336	0.16065	0.065106	0.20832	0.27348	0.10609	0.072412	0.15639	0.10043	-2.8729	-3.4042	-3.2271	-3.5271	-3.375	-2.975	-3.5542	-3.4813	-3.175	-3.6958	-3.1021	-3.475	-3.4208	-3.1729	-3.5896	-3.35	158.829	50.502	100.210	42.486	91.741	-93.809	110.700	-105.920	25.259	-71.158	134.369	-68.537	-101.255	-38.198	-92.380	172.962	0.00029782	0.00011832	7.0402e-05	1340.4	2.45e-06	1.6243e-06	1365.3	269.75	9.2926e-06	4.87e-06	330.55	91.678	61.264	21.008	5.5321e-06	29.026	0.00089021	0.0009366	0.00025936	1335.7	1.0277e-05	1.0298e-05	1365.6	275.92	1.0256e-05	1.0273e-05	347.31	96.25	66.817	22.75	1.0244e-05	31.605	191.966	-22.012	4.214	-155.671	117.922	-127.297	-154.608	-149.219	-11.308	13.080	-148.885	-142.879	-142.451	-135.859	-32.790	-135.894	-8191	255	
1448.591	1	1	0	0	0.35603	0.23443	0.13926	0.38761	0.1959	0.051724	0.1479	0.12652	0.24237	0.028093	0.44289	0.097488	0.066558	0.18944	0.087494	0.16641	-3.0167	-3.4583	-3.0333	-3.5958	-3.5458	-3.2188	-3.5917	-3.4521	-3.2729	-3.6312	-3.1833	-3.4667	-3.5062	-2.9938	-3.3542	-3.3354	-49.472	-20.581	15.648	126.336	121.545	-57.844	135.586	-137.829	109.264	-96.885	135.615	180.028	106.043	175.604	26.208	147.790	0.00019401	0.00057647	0.00016359	1342.3	8.477e-07	4.1096e-06	1317.5	270.17	1.077e-05	4.6829e-06	332.18	92.087	61.299	20.976	1.3115e-06	29.163	0.00090212	0.00092802	0.00026262	1334.9	1.0096e-05	1.023e-05	1320.4	276.25	1.0191e-05	1.0221e-05	348.02	96.111	66.617	22.662	1.0116e-05	31.549	-142.600	-55.089	123.992	-155.732	-124.137	-103.606	-154.793	-149.132	-3.006	-60.695	-149.208	-142.659	-142.780	-135.169	-81.002	-135.561	-8191	255	
1448.687	1	1	0	0	0.10429	0.19761	0.2136	0.23817	0.11652	0.042963	0.12122	0.28368	0.12435	0.10069	0.093644	0.10318	0.21593	0.13776	0.23994	0.22701	-2.7562	-3.4854	-3.2229	-3.4104	-3.4146	-3.1188	-3.5146	-3.4604	-3.0583	-3.4521	-3.1333	-3.3292	-3.4	-3.3271	-3.4188	-3.3021	-46.466	-36.243	183.610	-160.797	-29.268	-161.482	51.555	145.562	61.066	-114.148	-130.871	25.474	-78.363	89.508	-36.385	158.627	0.00032674	0.00029256	0.0002311	1342.4	5.087e-06	2.8813e-06	1302.7	270.1	5.2719e-06	3.3645e-06	331.32	92	61.297	21.079	4.0696e-06	29.317	0.00087941	0.00092191	0.00025586	1334.2	1.0059e-05	1.0046e-05	1303.8	276.13	9.9065e-06	1.0008e-05	346.02	95.933	66.38	22.608	9.9825e-06	31.487	-155.703	-52.780	-96.832	-155.870	-95.951	-151.958	-154.810	-149.200	-79.125	174.257	-148.826	-142.637	-142.876	-135.007	33.493	-135.653	-8191	255	
1448.807	1	1	0	0	0.20682	0.14109	0.18326	0.16787	0.10602	0.12347	0.19181	0.32724	0.10228	0.33165	0.1754	0.081193	0.20333	0.2655	0.047128	0.14395	-2.7521	-3.3917	-3.2417	-3.3354	-3.3958	-3.1063	-3.5146	-3.5229	-3.2479	-3.5917	-3.4021	-3.3146	-3.6042	-3.1771	-3.2333	-3.3979	57.279	-86.808	68.511	80.063	63.278	-0.879	158.996	156.216	-58.469	44.605	6.229	-108.626	114.405	-58.815	-142.050	-57.606	0.00021442	0.00067	0.0001109	1339.5	7.933e-06	7.5121e-06	1300.3	269.15	7.5294e-06	6.0123e-07	329.35	91.851	61.098	20.965	1.9673e-06	29.301	0.0008714	0.00090736	0.00025618	1333.5	9.9468e-06	1.0073e-05	1300.5	275.32	1.0089e-05	1.0147e-05	346.2	95.979	66.405	22.635	1.0031e-05	31.499	-163.776	-34.879	-75.243	-155.576	-59.375	8.059	-155.036	-148.957	-148.731	-105.086	-148.821	-143.157	-143.064	-134.845	39.917	-135.843	-8191	255	
1448.904	1	1	0	0	0.051856	0.34204	0.17355	0.16808	0.11096	0.053577	0.18731	0.23042	0.053815	0.098377	0.032205	0.1346	0.14191	0.20476	0.14343	0.16354	-2.6458	-3.3146	-3.1104	-3.5875	-3.5604	-3.1312	-3.6521	-3.5625	-3.1562	-3.4417	-3.3	-3.2604	-3.5438	-3.225	-3.3812	-3.4646	-84.624	144.028	-84.599	79.596	-96.738	25.916	136.905	-144.373	-133.579	25.550	-5.770	122.253	159.917	57.234	-93.086	-118.051	0.00019841	0.00066833	3.7249e-05	1342.1	6.7185e-06	4.3068e-06	1304.1	268.13	3.7833e-06	5.104e-06	331.24	91.622	61.4	20.927	7.4027e-06	29.237	0.00086459	0.00090798	0.00025198	1331.1	9.8982e-06	9.8805e-06	1306.2	274.91	9.8987e-06	1.0065e-05	345.59	95.798	66.462	22.602	1.0056e-05	31.531	-139.502	-148.992	-103.223	-155.789	-45.903	-163.352	-154.727	-148.935	-79.547	-7.102	-148.735	-143.001	-142.723	-135.189	-48.519	-135.418	-8191	255	
1449.000	1	1	0	0	0.13658	0.17057	0.219	0.28019	0.062269	0.21638	0.16714	0.18608	0.20971	0.26116	0.20419	0.057659	0.11292	0.096279	0.19868	0.11067	-2.9	-3.3604	-3.3292	-3.2458	-3.5062	-3.3167	-3.3125	-3.5521	-3.2125	-3.4917	-3.4188	-3.3354	-3.6021	-3.2146	-3.225	-3.5042	97.864	-126.866	-67.617	112.409	-11.527	135.353	140.074	151.542	-88.976	-21.716	172.087	23.096	-84.266	115.630	78.376	-163.556	0.00022059	5.5894e-05	5.1112e-05	1348.3	4.5512e-06	3.3592e-06	1399.8	268.69	7.5556e-06	1.1047e-05	330.78	91.43	61.499	21.115	2.845e-06	29.128	0.00087491	0.00092323	0.00025763	1334.9	1.0165e-05	1.0342e-05	1399.2	275.67	1.0154e-05	1.03e-05	346.57	95.988	66.59	22.68	9.9549e-06	31.459	-156.795	53.794	-32.951	-155.763	-151.600	56.628	-154.959	-149.071	-63.468	-33.753	-148.712	-143.044	-143.062	-135.072	132.502	-135.717	-8191	255	
1449.096	1	1	0	0	0.075976	0.12561	0.0557	0.32707	0.24578	0.27287	0.15067	0.16194	0.1909	0.074651	0.1044	0.20683	0.14534	0.28702	0.15856	0.18046	-2.85	-3.4042	-3.2812	-3.3042	-3.4458	-3.1604	-3.4083	-3.5979	-3.1167	-3.3187	-3.4813	-3.1708	-3.5917	-3.3083	-3.1375	-3.5625	182.812	130.134	93.870	172.073	-63.702	104.860	175.536	55.639	-159.139	-151.141	-107.676	-85.093	128.348	134.225	28.203	33.477	0.00035637	0.00036017	0.00012464	1342.8	6.7446e-06	6.3228e-06	1398.1	268.95	3.6116e-06	1.223e-05	328.24	91.476	61.599	20.928	4.1516e-06	29.155	0.00086844	0.00091272	0.00025616	1334.1	1.001e-05	1.0156e-05	1395.4	275.87	1.0206e-05	1.0236e-05	345.83	96.042	66.865	22.721	1.0375e-05	31.609	-166.623	-77.482	-157.348	-155.777	4.391	-142.446	-154.903	-149.039	-162.406	-96.230	-148.981	-142.940	-143.023	-135.416	64.651	-135.871	-8191	255	
1449.190	1	1	0	0	0.17487	0.15761	0.20619	0.27908	0.17261	0.21736	0.25081	0.24929	0.21162	0.14138	0.13536	0.15911	0.17932	0.053841	0.051613	0.12581	-2.7896	-3.3563	-3.3167	-3.3042	-3.4813	-3.4271	-3.2792	-3.4979	-3.4208	-3.3208	-3.5625	-3.1646	-3.4062	-3.3979	-3.2417	-3.4375	-3.947	-47.794	96.895	-127.273	-34.499	137.591	101.888	-152.827	-26.583	22.855	-86.620	128.767	-118.859	176.908	9.937	122.499	0.00024122	0.0010886	4.7021e-05	1340.7	5.2099e-06	5.3556e-06	1410.4	269.25	2.5638e-06	2.9026e-06	330.78	91.978	61.256	21.097	1.503e-06	28.975	0.00090635	0.00094305	0.00026173	1334.3	1.0249e-05	1.0363e-05	1409.3	275.93	1.0246e-05	1.0265e-05	346.95	95.884	66.79	22.751	1.0379e-05	31.541	-157.387	-58.602	97.245	-155.679	-159.329	9.475	-155.025	-149.019	-18.930	39.816	-149.025	-142.823	-142.754	-135.149	46.285	-135.439	-8191	255	
1449.286	1	1	0	0	0.057866	0.20313	0.20749	0.26444	0.26264	0.14236	0.344	0.42979	0.26668	0.20185	0.085116	0.079643	0.33325	0.076255	0.17635	0.065831	-2.8104	-3.1104	-3.4917	-3.2313	-3.4917	-3.4083	-3.2875	-3.5187	-3.35	-3.2625	-3.4958	-3.2708	-3.3354	-3.3646	-3.0771	-3.5104	31.953	51.408	172.582	170.304	164.226	-55.265	155.718	146.196	32.589	-63.550	-113.710	-2.630	-132.085	-72.938	131.575	44.278	0.00027447	0.00042513	0.000165	1338.7	7.7191e-06	3.8031e-06	1356.7	270.75	5.0108e-06	4.1527e-06	332.23	91.464	61.532	21.029	2.0604e-06	29.256	0.00090869	0.00094255	0.00026246	1335.9	1.0546e-05	1.0541e-05	1357.2	276.62	1.0426e-05	1.0395e-05	347.99	95.985	67.018	22.737	1.0305e-05	31.589	-160.848	181.163	-38.409	-155.758	-94.661	-13.854	-154.708	-149.096	-119.107	60.362	-148.981	-142.772	-142.608	-135.363	-6.502	-135.181	-8191	255	
1449.407	1	1	0	0	0.17015	0.14923	0.34766	0.25462	0.03996	0.15091	0.18238	0.040701	0.1038	0.097871	0.093629	0.14317	0.21222	0.14637	0.1065	0.03152	-2.9479	-3.2604	-3.4938	-3.2417	-3.2875	-3.45	-3.35	-3.4417	-3.2479	-3.3646	-3.6354	-2.9854	-3.3271	-3.5583	-3.1146	-3.575	100.792	97.446	-38.819	169.992	147.222	-17.349	99.802	-103.695	121.276	-77.019	-76.696	-88.075	-9.835	-155.262	143.131	-26.929	0.0003113	0.00048278	0.00013937	1343.9	4.1383e-06	4.4205e-06	1381.3	270.01	5.9616e-06	5.4035e-06	330.98	91.714	61.523	21.097	1.4329e-06	29.318	0.00089158	0.00093867	0.0002576	1335.9	1.0131e-05	1.0095e-05	1385.1	276.16	1.0062e-05	1.0218e-05	347.16	95.906	66.593	22.682	1.0203e-05	31.568	-162.563	-84.906	48.512	-155.787	-12.570	104.688	-154.772	-148.777	-65.091	-25.192	-148.594	-142.827	-142.770	-135.176	160.257	-135.727	-8191	255	
1449.503	1	1	0	0	0.079036	0.039695	0.13648	0.17084	0.1291	0.017482	0.29422	0.23108	0.14105	0.34314	0.12223	0.3121	0.31719	0.21163	0.18419	0.052954	-2.9646	-3.2979	-3.5021	-3.2042	-3.3167	-3.5375	-3.4562	-3.5125	-3.4354	-3.2083	-3.5375	-3.1792	-3.1604	-3.6521	-2.9667	-3.4292	19.480	75.148	118.681	-142.497	89.120	25.461	137.039	-156.244	-26.868	-50.185	104.959	72.698	188.308	177.900	-145.293	-9.125	0.00022054	0.0002703	0.00030192	1340	5.1816e-06	5.9391e-06	1362	267.5	2.4131e-06	2.9617e-06	331.94	91.47	61.756	20.909	5.5256e-06	29.167	0.00089367	0.00092568	0.00025865	1334.2	1.0102e-05	1.0229e-05	1363.3	275.23	1.0129e-05	1.0205e-05	346.69	95.812	66.76	22.671	1.0257e-05	31.613	192.241	-164.052	5.625	-155.552	-126.217	-84.502	-154.746	-149.092	-30.098	-4.890	-148.747	-142.755	-142.986	-135.644	-9.691	-135.749	-8191	255	
1449.599	1	1	0	0	0.04743	0.099803	0.11661	0.24523	0.048424	0.24852	0.27061	0.13109	0.28404	0.18607	0.12053	0.24772	0.26381	0.22605	0.19548	0.22075	-3.0667	-3.1312	-3.6146	-3.4313	-3.1521	-3.4	-3.4479	-3.3875	-3.4104	-3.0917	-3.6333	-3.3688	-3.2958	-3.2396	-3.1417	-3.5042	-19.544	-140.956	146.615	160.416	-136.806	138.801	108.108	-21.552	12.551	167.609	35.907	183.314	95.756	-150.081	11.180	145.610	0.0002086	0.00055523	0.0001559	1340.3	9.6421e-06	5.9625e-06	1362	271.29	4.4915e-06	9.8161e-06	330.8	91.712	61.515	20.87	1.3139e-06	29.185	0.00089784	0.00093599	0.00026239	1333.7	1.026e-05	1.0392e-05	1364.1	276.51	1.0245e-05	1.0356e-05	347.93	96.019	66.835	22.663	1.0375e-05	31.555	-142.643	-47.135	-68.810	-155.550	-137.094	-120.534	-154.818	-148.969	-56.273	-67.616	-148.647	-142.781	-143.027	-135.369	-68.152	-135.711	-8191	255	
1449.696	1	1	0	0	0.072285	0.22847	0.15795	0.54778	0.26317	0.16731	0.19642	0.082205	0.13396	0.23645	0.20819	0.18469	0.2119	0.1022	0.056621	0.024733	-2.8729	-3.2062	-3.4542	-3.5563	-3.1458	-3.425	-3.35	-3.2542	-3.3896	-3.1667	-3.4354	-3.4146	-3.1917	-3.375	-3.2208	-3.2104	123.350	64.807	69.530	117.087	178.489	64.505	-120.977	-163.168	-134.214	-149.974	-156.658	112.484	89.082	44.679	-48.886	-116.466	0.000313	0.00065458	0.00012903	1345.7	4.2736e-06	7.434e-06	1327.2	269.46	4.6743e-06	4.7488e-06	333.02	91.633	61.528	20.945	5.6626e-06	29.15	0.00089321	0.00094079	0.00026269	1335.9	1.0192e-05	1.0279e-05	1326.2	275.89	1.0178e-05	1.0306e-05	347.28	96.223	66.813	22.64	1.0238e-05	31.598	-163.043	-45.246	-12.635	-155.752	-112.901	-1.304	-154.759	-149.097	-32.910	86.245	-149.357	-142.934	-142.628	-135.593	5.883	-135.584	-8191	255	
1449.792	1	1	0	0	0.049035	0.12576	0.11353	0.40058	0.1051	0.056364	0.39221	0.2283	0.16056	0.28416	0.12112	0.35123	0.11934	0.06543	0.18395	0.06703	-3.1063	-3.1125	-3.2354	-3.475	-3.1312	-3.6437	-3.1	-3.4479	-3.5646	-3.1354	-3.2833	-3.4437	-3.0896	-3.4375	-3.2458	-3.3354	145.996	-90.741	-112.786	137.967	39.855	55.904	129.208	185.308	-10.345	27.547	-104.115	-160.981	149.857	95.011	158.286	112.430	0.00025016	0.00056193	0.00012463	1342.7	3.0564e-06	6.6056e-06	1375	269.29	1.7664e-06	2.2024e-06	331.74	91.912	61.717	21.131	3.977e-06	29.054	0.00086814	0.00091617	0.0002538	1334.5	9.8909e-06	1.0017e-05	1373.5	275.68	9.9679e-06	9.99e-06	346.87	95.904	66.549	22.687	9.8143e-06	31.443	-162.339	-104.114	-155.088	-155.677	59.557	74.048	-154.750	-149.015	28.878	49.888	-149.205	-142.724	-142.762	-135.677	179.521	-135.918	-8191	255	
1449.888	1	1	0	0	0.17095	0.21618	0.1478	0.37841	0.26422	0.2816	0.15295	0.043886	0.25968	0.29916	0.14977	0.2426	0.005925	0.086841	0.071326	0.17316	-3.0375	-3.1771	-3.3187	-3.4292	-3.275	-3.5625	-3.3896	-3.4021	-3.55	-3.3812	-3.4229	-3.5271	-3.1417	-3.2979	-3.3646	-3.3229	-105.114	-21.945	-107.104	181.240	-32.085	157.112	185.915	22.333	161.847	76.679	151.975	86.728	66.381	-74.349	3.800	-36.738	0.00031005	0.00034264	0.00026564	1341.9	4.6948e-06	1.0319e-05	1401.1	269.46	2.4571e-06	2.5137e-06	331.32	92.122	61.523	21.198	2.5664e-06	29.037	0.00085674	0.00090533	0.00024975	1333.9	9.771e-06	9.9754e-06	1401.1	275.53	9.9115e-06	9.9761e-06	345.81	95.809	66.427	22.738	9.8879e-06	31.344	-149.758	28.364	-16.964	-155.760	-97.889	-125.283	-154.878	-149.232	-124.618	0.574	-148.669	-142.825	-142.925	-135.477	86.091	-135.489	-8191	255	
1449.984	1	1	0	0	0.20253	0.18615	0.25991	0.35666	0.40205	0.19384	0.16316	0.2869	0.090423	0.16531	0.12787	0.096852	0.23235	0.13297	0.10111	0.19899	-2.9979	-3.2833	-3.0208	-3.5542	-3.2313	-3.4167	-3.3875	-3.1146	-3.3167	-3.1625	-3.275	-3.4688	-3.1021	-3.4104	-3.2667	-3.1208	80.341	173.881	141.772	119.763	184.743	-20.762	119.194	-19.393	115.792	154.732	1.944	161.576	-155.486	-152.222	-87.558	181.309	0.0002878	0.00049587	4.4234e-05	1339.4	5.9761e-06	3.477e-06	1406.3	268.6	7.6356e-06	6.429e-06	328.86	91.319	61.03	21.109	5.8531e-06	29.191	0.00084903	0.00088796	0.00024772	1331.8	9.6267e-06	9.7941e-06	1401.9	275.01	9.7374e-06	9.8054e-06	345.35	95.62	66.422	22.619	9.7625e-06	31.398	-164.719	-143.413	57.416	-155.707	-36.936	-39.545	-154.844	-148.933	-33.032	-131.351	-149.252	-142.636	-142.771	-135.267	-85.559	-135.593	-8191	255	
1450.080	1	1	0	0	0.23849	0.19525	0.11046	0.059377	0.29459	0.18975	0.35511	0.2553	0.067464	0.10112	0.13984	0.059882	0.11512	0.3153	0.16572	0.19371	-2.8771	-3.0854	-3.1063	-3.5771	-3.2333	-3.3021	-3.3708	-3.1188	-3.4917	-3.3479	-3.3688	-3.5792	-3.3792	-3.2771	-3.4083	-3.1833	103.476	-127.885	-0.669	81.353	-13.873	130.645	113.242	156.832	-38.314	-114.155	144.640	-140.897	145.781	189.488	162.977	131.051	0.00025307	0.00085645	9.4927e-05	1341.4	5.5082e-06	2.4295e-06	1380.3	269.13	4.7769e-06	1.9137e-06	333.33	91.477	61.501	20.939	4.0811e-06	29.092	0.00085375	0.0008928	0.00024764	1332.5	9.7547e-06	9.957e-06	1381.4	275.56	9.7625e-06	9.7574e-06	345.91	95.37	66.188	22.469	9.2037e-06	31.165	-163.702	-33.826	-160.610	-155.594	165.625	76.691	-154.737	-149.051	-45.061	67.102	-148.841	-142.858	-143.108	-135.370	-45.704	-135.612	-8191	255	
1450.176	1	1	0	0	0.14999	0.15677	0.13983	0.095697	0.1492	0.10241	0.21926	0.16515	0.29105	0.077305	0.076956	0.16455	0.12131	0.19356	0.067913	0.13279	-3.2229	-3.2625	-3.1	-3.7833	-3.2271	-3.2667	-3.7417	-3.2042	-3.5	-3.4208	-3.2313	-3.6896	-3.2979	-3.3875	-3.4729	-3.15	177.746	-104.812	10.236	-87.911	26.340	114.261	79.278	140.121	-91.457	120.039	-82.997	80.434	-134.668	-55.920	-146.711	69.070	0.00024537	9.437e-05	4.0279e-05	1335.3	2.7928e-06	5.8912e-06	1391.9	269.43	3.3997e-06	3.2266e-06	332.45	91.532	61.203	21.103	4.4006e-06	29.178	0.00080344	0.00084035	0.00023602	1327.8	9.3336e-06	9.4671e-06	1385.1	274.32	9.5418e-06	9.5374e-06	344.35	95.281	66.173	22.589	9.66e-06	31.343	-154.638	-59.430	-113.787	-155.605	-70.506	164.769	-154.764	-149.014	41.693	-71.843	-148.903	-142.681	-143.121	-135.218	-123.905	-135.666	-8191	255	
1450.295	1	1	0	0	0.15104	0.023065	0.20903	0.20532	0.12057	0.041659	0.23413	0.13551	0.13635	0.25397	0.14457	0.37168	0.20093	0.037373	0.26929	0.16985	-2.9271	-3.4583	-3.0854	-3.7562	-3.2583	-3.2583	-3.6063	-3.3167	-3.3604	-3.4083	-3.1896	-3.6208	-3.2375	-3.2604	-3.3625	-3.2062	60.054	138.766	161.631	81.684	119.385	149.635	121.151	-47.317	-23.719	-71.306	83.215	124.379	-151.323	-15.326	122.317	64.191	0.00025004	0.00016797	0.00013581	1337.2	7.2016e-06	6.5042e-06	1396.5	269.26	6.5057e-06	8.1537e-06	329.17	91.714	61.202	20.969	4.5348e-06	29.004	0.00085482	0.0008981	0.0002489	1331	9.8798e-06	9.87e-06	1393.4	274.61	9.7764e-06	9.7613e-06	344.39	95.575	66.259	22.532	9.624e-06	31.266	186.763	-166.644	-63.032	-155.616	167.859	15.020	-154.708	-148.851	-107.905	-94.435	-149.120	-142.677	-142.893	-135.321	-44.988	-135.467	-8191	255	
1450.391	1	1	0	0	0.066439	0.21573	0.17487	0.19527	0.12501	0.16777	0.050811	0.15257	0.083034	0.17013	0.16388	0.069465	0.14052	0.054099	0.1845	0.33985	-2.8667	-3.4146	-3.1521	-3.6437	-3.1875	-3.2729	-3.7229	-3.2125	-3.4479	-3.325	-3.0021	-3.5146	-3.1937	-3.2417	-3.5208	-3.1542	28.190	171.543	-82.924	149.835	62.440	42.335	-157.275	95.171	80.034	169.692	-71.202	69.175	92.082	-143.434	-114.735	112.235	0.00031688	0.00045202	2.9803e-05	1338.2	3.9975e-06	7.8608e-06	1400.3	268.7	3.8006e-06	6.6426e-06	329.55	91.467	61.208	21.05	6.9513e-06	28.716	0.00083329	0.00085875	0.00023923	1328.6	9.3041e-06	9.3745e-06	1399	273.95	9.444e-06	9.3624e-06	343.04	95.475	66.114	22.515	9.5903e-06	31.185	185.571	-121.296	-159.659	-155.493	-81.681	-33.197	-154.928	-149.011	-71.894	3.655	-148.930	-142.913	-142.632	-135.222	117.354	-135.510	-8191	255	
1450.487	1	1	0	0	0.14403	0.030949	0.11301	0.17729	0.026053	0.13595	0.30068	0.28768	0.20343	0.12442	0.075216	0.048441	0.11898	0.036438	0.10992	0.36051	-2.9104	-3.4646	-3.05	-3.5729	-3.2792	-2.9667	-3.6667	-3.1229	-3.3583	-3.6167	-3.1188	-3.5354	-3.3708	-3.2062	-3.5708	-3.275	10.219	55.159	122.823	-167.062	137.618	-123.892	115.603	62.013	-151.516	-74.917	-76.565	-156.722	50.387	70.297	127.719	173.447	0.0003279	0.00063697	0.00014274	1339.1	2.856e-06	4.0261e-06	1296.2	269.52	7.3344e-06	5.4575e-06	329.26	92.003	61.276	21.066	8.636e-06	28.892	0.00084232	0.0008817	0.00024578	1328.6	9.695e-06	9.7263e-06	1296.8	274.82	9.7271e-06	9.6811e-06	344.43	95.42	66.11	22.534	9.585e-06	31.282	-159.650	-74.122	-138.093	-155.586	-84.912	-29.250	-154.787	-149.168	-30.720	-123.196	-148.951	-142.826	-142.824	-135.015	107.022	-135.887	-8191	255	
1450.584	1	1	0	0	0.1677	0.19841	0.17506	0.25134	0.11434	0.19203	0.39515	0.092073	0.12152	0.17765	0.26669	0.089426	0.21594	0.10795	0.094693	0.17634	-2.9208	-3.4646	-3.1375	-3.7104	-3.3854	-3.3354	-3.675	-3.4271	-3.4125	-3.4479	-3.25	-3.4125	-3.5	-3.2125	-3.4875	-3.2667	-48.766	-30.206	-24.411	170.117	189.369	-38.221	137.781	158.963	-125.700	33.476	160.362	109.359	152.109	89.695	181.929	46.092	0.0002292	0.00041459	8.4252e-05	1336.4	3.7339e-06	7.9541e-07	1406.7	268.82	3.1728e-06	3.0167e-06	326.75	91.053	61.526	20.841	4.2917e-06	29.125	0.00083219	0.00086977	0.00024229	1327.5	9.4752e-06	9.4044e-06	1404.5	274.42	9.5096e-06	9.6461e-06	342.85	95.13	66.278	22.495	9.6425e-06	31.31	179.441	-61.238	119.479	-155.488	97.433	-52.872	-155.307	-149.159	-153.620	-158.117	-149.077	-142.464	-142.850	-135.322	14.497	-135.939	-8191	255	
1450.680	1	1	0	0	0.12077	0.16375	0.17032	0.21045	0.053197	0.097095	0.17993	0.10879	0.055042	0.086619	0.21123	0.20039	0.13972	0.02625	0.035827	0.084373	-2.8354	-3.5458	-3.0083	-3.6208	-3.4396	-3.1833	-3.7958	-3.3063	-3.2896	-3.525	-3.275	-3.3083	-3.45	-3.2146	-3.3917	-3.3292	154.427	20.071	-21.328	138.073	-87.912	-52.924	119.545	-146.493	185.681	-34.143	165.162	-91.518	-7.366	58.902	-60.580	18.914	0.0002296	0.00067706	0.00010969	1341.5	5.0364e-06	2.4127e-06	1397.7	267.68	4.2667e-06	2.7029e-06	330.67	92.251	61	20.967	6.1023e-06	29.171	0.00083798	0.00087597	0.00024618	1328.5	9.5978e-06	9.6107e-06	1393.4	274.27	9.5539e-06	9.6958e-06	345.27	95.699	66.134	22.564	9.8643e-06	31.405	169.782	-46.814	-86.991	-155.542	-90.171	-134.220	-154.704	-148.992	-1.459	125.832	-148.976	-142.657	-142.919	-135.148	-26.613	-135.321	-8191	255	
1450.776	1	1	0	0	0.13065	0.18482	0.072442	0.2694	0.087343	0.091411	0.20272	0.17461	0.22642	0.065174	0.10834	0.31361	0.059845	0.14303	0.071577	0.092526	-2.7396	-3.6604	-3.2625	-3.4375	-3.3729	-3.2146	-3.5208	-3.5854	-3.1729	-3.6292	-3.2687	-3.3563	-3.4542	-3.0875	-3.4521	-3.5167	-81.376	-94.897	-20.352	107.211	-156.393	-2.964	142.210	185.036	-66.753	190.995	-29.021	149.460	93.446	103.934	130.998	158.691	0.00015174	0.00046087	0.00011339	1343.5	2.9271e-06	8.8711e-06	1399.1	268.24	1.5245e-06	6.7088e-06	329.5	92.136	61.371	21.021	7.2636e-06	29.068	0.00084631	0.00088899	0.00025023	1332.7	9.8326e-06	9.9022e-06	1396.1	274.64	9.7983e-06	9.8676e-06	345.61	95.702	66.302	22.541	9.8995e-06	31.376	182.720	-124.672	-123.090	-155.635	-53.761	-62.586	-154.778	-148.951	53.322	11.324	-149.023	-142.608	-142.992	-135.322	-116.084	-135.773	-8191	255	
1450.897	1	1	0	0	0.30774	0.10145	0.12051	0.22795	0.17833	0.22901	0.095254	0.34446	0.13005	0.096421	0.14128	0.16328	0.14167	0.12906	0.29329	0.080876	-2.9188	-3.4542	-3.3542	-3.3875	-3.3688	-3.2188	-3.5396	-3.4042	-3.1333	-3.5917	-3.2729	-3.1604	-3.3396	-3.3042	-3.1729	-3.4833	5.154	-79.074	-64.039	-161.199	88.263	-78.195	114.543	122.351	-18.509	96.397	94.352	-83.312	79.449	147.710	-4.983	-119.212	0.00021333	0.00048423	9.204e-05	1336.7	5.8551e-06	1.2353e-05	1380.9	268.58	7.0156e-06	3.5438e-06	329.14	91.348	61.422	21.032	7.8029e-06	29.228	0.00086033	0.00090255	0.00025274	1330.3	9.9193e-06	1.0056e-05	1378	274.72	9.9826e-06	1.0034e-05	345.83	95.723	66.498	22.679	1.0128e-05	31.483	185.092	36.458	154.886	-155.535	-75.954	-8.558	-154.750	-149.236	-84.916	-3.293	-148.522	-142.680	-142.669	-135.525	5.675	-135.616	-8191	255	
1450.993	1	1	0	0	0.10415	0.15767	0.13896	0.18465	0.33893	0.11234	0.29148	0.12549	0.025739	0.23579	0.072405	0.11535	0.17454	0.16988	0.27584	0.28106	-2.7021	-3.3563	-3.2812	-3.3167	-3.525	-3.3	-3.4479	-3.5271	-2.9521	-3.4104	-3.3667	-3.1833	-3.4354	-3.0917	-3.1937	-3.4896	163.780	86.977	8.269	-165.438	-121.320	-102.608	88.267	82.851	-71.359	-60.367	-133.918	163.044	91.803	-83.474	-43.160	147.365	0.00023364	0.00042595	4.2456e-05	1341.5	1.5787e-06	6.3632e-06	1409.3	270.88	7.1767e-06	9.4475e-06	331.04	91.525	61.561	21.037	5.454e-06	29.032	0.00088049	0.00091917	0.00025645	1333.7	1.0093e-05	1.0093e-05	1407.1	275.89	9.9748e-06	1.0127e-05	346.57	95.82	66.755	22.645	1.0088e-05	31.418	-150.255	-155.836	79.370	-155.470	-135.797	-59.055	-154.893	-149.198	-10.773	-67.446	-148.875	-142.726	-143.008	-135.167	-64.462	-135.437	-8191	255	
1451.089	1	1	0	0	0.078505	0.19535	0.16259	0.15391	0.14094	0.24124	0.26324	0.12779	0.33817	0.11435	0.25994	0.16939	0.10794	0.41101	0.24621	0.066952	-2.7354	-3.1188	-3.4375	-3.2062	-3.4604	-3.1521	-3.4083	-3.5438	-3.0875	-3.2375	-3.3521	-3.2479	-3.6917	-3.1479	-3.2042	-3.4188	19.782	-160.062	-65.474	-155.877	164.519	11.196	79.854	88.078	39.715	173.039	-17.513	125.279	63.467	-68.403	139.760	129.240	0.00027918	0.0010232	0.00032389	1339.2	4.54e-06	5.3978e-06	1392.9	269.64	5.5278e-06	6.6154e-06	329.82	91.329	61.525	20.917	3.1021e-06	28.914	0.00087147	0.00091528	0.00025586	1330.7	1.0028e-05	1.0029e-05	1390	275.2	9.9662e-06	9.9788e-06	345.1	95.657	66.501	22.621	9.9754e-06	31.386	192.077	-132.050	-101.433	-155.822	-86.740	-155.042	-154.789	-149.232	-9.450	-86.834	-148.802	-142.709	-142.667	-135.302	-1.669	-135.707	-8191	255	
1451.183	1	1	0	0	0.26156	0.07976	0.19599	0.08847	0.11437	0.098711	0.28561	0.12063	0.17166	0.059448	0.24606	0.28439	0.11183	0.044424	0.20619	0.107	-2.6229	-3.4375	-3.5062	-3.4042	-3.4604	-3.2292	-3.5958	-3.3146	-3.2	-3.2854	-3.5604	-3.125	-3.5187	-3.3292	-3.4604	-3.4646	-79.765	10.556	22.618	109.021	-70.555	50.620	81.917	53.161	160.316	25.898	104.637	-166.437	132.975	183.571	-102.213	-113.098	0.00026449	0.00024284	8.9074e-05	1343.5	4.6518e-06	4.5014e-06	1379.4	269.43	5.95e-06	6.2885e-06	332.85	91.424	61.531	20.98	6.5848e-06	28.992	0.00087379	0.00091561	0.00025489	1331.4	1.0018e-05	1.0115e-05	1372.3	275.58	1.0126e-05	1.0118e-05	346.33	95.627	66.467	22.635	9.9672e-06	31.405	-158.263	32.969	-86.916	-155.705	-28.427	26.116	-154.826	-148.991	-79.341	101.827	-148.663	-142.776	-142.654	-135.224	-105.840	-135.681	-8191	255	
1451.279	1	1	0	0	0.2167	0.27626	0.10135	0.25488	0.068837	0.10753	0.080759	0.2542	0.22093	0.14272	0.17582	0.076945	0.20387	0.075679	0.10004	0.15588	-2.6875	-3.3167	-3.3375	-3.4667	-3.4083	-3.3229	-3.3354	-3.6604	-3.2104	-3.4354	-3.7458	-3.2167	-3.4042	-3.3271	-3.2854	-3.375	-9.318	76.461	-105.791	149.312	-43.751	-125.962	-148.436	157.105	144.805	164.175	50.630	-109.676	-129.306	-71.768	171.966	-134.548	0.00023625	0.0010168	7.5833e-05	1334.1	1.4293e-06	9.8926e-06	1409.3	268.82	3.294e-06	2.1218e-06	331.02	91.427	61.636	21.074	2.6727e-06	29.078	0.00087481	0.00091069	0.00025229	1329.5	9.9405e-06	1.0054e-05	1405.3	275.64	9.9505e-06	1.0101e-05	345.96	95.667	66.641	22.69	1.0013e-05	31.414	-144.401	-44.361	-78.310	-155.661	-12.539	-159.724	-154.879	-149.374	-77.435	-34.400	-148.796	-142.949	-142.853	-135.135	-116.374	-135.448	-8191	255	
1451.376	1	1	0	0	0.090007	0.078912	0.057521	0.41341	0.17567	0.16052	0.15994	0.10737	0.10433	0.19228	0.11449	0.16241	0.071749	0.09698	0.20986	0.15147	-2.9292	-3.325	-3.4938	-3.1562	-3.3771	-3.1833	-3.3729	-3.4979	-3.1083	-3.3521	-3.4813	-3.4104	-3.2583	-3.5312	-3.1813	-3.5292	27.667	88.704	133.695	140.804	32.400	186.618	68.026	-59.755	95.954	-160.404	-46.932	97.001	-36.066	150.915	39.400	185.785	0.00023509	0.00045037	0.00021928	1336.3	5.6108e-06	4.8814e-06	1373.3	270.01	5.0593e-06	9.6999e-06	330.48	92.008	61.097	20.892	5.4792e-06	28.944	0.00087724	0.00091212	0.00025334	1330.7	9.8858e-06	1.0041e-05	1374.3	275.29	9.6409e-06	9.7248e-06	344.84	95.759	66.176	22.555	9.4885e-06	31.334	-144.105	106.198	10.395	-155.766	15.222	12.753	-154.833	-149.016	-69.695	-73.406	-149.039	-142.582	-142.579	-135.359	22.517	-135.948	-8191	255	
1451.496	1	1	0	0	0.16479	0.077246	0.18158	0.42196	0.23851	0.1276	0.21624	0.098984	0.12349	0.05652	0.10096	0.041303	0.066882	0.2754	0.10498	0.088522	-2.8479	-3.2188	-3.4229	-3.3667	-3.2917	-3.5667	-3.4188	-3.6042	-3.4646	-3.2021	-3.5583	-3.4	-3.4104	-3.5208	-3.1271	-3.5333	-93.716	-93.522	35.093	178.483	171.888	-103.451	126.718	45.827	-140.872	-40.452	77.538	96.628	88.749	-162.080	75.030	86.812	0.00025008	0.00043786	0.00010151	1342.5	6.9261e-06	8.3877e-06	1373.4	269.83	4.2772e-06	6.6276e-06	330.22	91.605	61.194	21.068	4.2313e-06	28.895	0.00083518	0.00087553	0.00024351	1332.4	9.4924e-06	9.5546e-06	1370.2	274.96	9.3713e-06	9.3768e-06	344.37	95.346	66.085	22.496	9.4395e-06	31.265	169.409	-58.012	-115.609	-155.779	-6.009	-29.958	-154.362	-149.049	-109.153	-23.705	-148.898	-142.569	-142.956	-135.265	-12.719	-135.281	-8191	255	
#DATA ENDS
