BOXY.EXE: ISS Imagent and Oximeter Data Acquisition Program Version 0.80
Ascii Record File

#ACQ INFORMATION
2  Detector Channels 
16  External MUX Channels 
1  Auxiliary Channels 
5000  Waveform (CCF) Frequency (Hz)
1  Waveforms Skipped 
30  Waveforms Averaged 
1  Cycles Averaged 
16  Acquisitions per Waveform 
10.0806  Updata Rate (Hz) 

#FILE INFORMATION
TRUE -- External MUX Channel results are PARSED.
FALSE -- AC DC and Phase are NOT grouped.
TRUE -- Companion Program Settings File CREATED.
FALSE -- AC data not excluded
FALSE -- DC data not excluded
FALSE -- Phase data not excluded
FALSE -- Auxillary Chn. data not excluded
Tab delimiters

#CALIBRATION STATE
TRUE -- Waveform Calibration Values APPLIED.


#AUX CALIBRATION VALUES
Val Type	aux-1	

Term	1.0000e+00	
Factor	0.0000e+00	


#WF CALIBRATION VALUES
A = Detector Channel
Val Type	A-AC1	A-AC2	A-AC3	A-AC4	A-AC5	A-AC6	A-AC7	A-AC8	A-AC9	A-AC10	A-AC11	A-AC12	A-AC13	A-AC14	A-AC15	A-AC16	A-DC1	A-DC2	A-DC3	A-DC4	A-DC5	A-DC6	A-DC7	A-DC8	A-DC9	A-DC10	A-DC11	A-DC12	A-DC13	A-DC14	A-DC15	A-DC16	A-Ph1	A-Ph2	A-Ph3	A-Ph4	A-Ph5	A-Ph6	A-Ph7	A-Ph8	A-Ph9	A-Ph10	A-Ph11	A-Ph12	A-Ph13	A-Ph14	A-Ph15	A-Ph16	

Term	0.00000e+00	0.00000e+00	0.00000e+00	0.00000e+00	0.00000e+00	0.00000e+00	0.00000e+00	0.00000e+00	0.00000e+00	0.00000e+00	0.00000e+00	0.00000e+00	0.00000e+00	0.00000e+00	0.00000e+00	0.00000e+00	0.00000e+00	0.00000e+00	0.00000e+00	0.00000e+00	0.00000e+00	0.00000e+00	0.00000e+00	0.00000e+00	0.00000e+00	0.00000e+00	0.00000e+00	0.00000e+00	0.00000e+00	0.00000e+00	0.00000e+00	0.00000e+00	0.00000e+00	0.00000e+00	0.00000e+00	0.00000e+00	0.00000e+00	0.00000e+00	0.00000e+00	0.00000e+00	0.00000e+00	0.00000e+00	0.00000e+00	0.00000e+00	0.00000e+00	0.00000e+00	0.00000e+00	0.00000e+00	
Factor	1.00000e+00	1.00000e+00	1.00000e+00	1.00000e+00	1.00000e+00	1.00000e+00	1.00000e+00	1.00000e+00	1.00000e+00	1.00000e+00	1.00000e+00	1.00000e+00	1.00000e+00	1.00000e+00	1.00000e+00	1.00000e+00	1.00000e+00	1.00000e+00	1.00000e+00	1.00000e+00	1.00000e+00	1.00000e+00	1.00000e+00	1.00000e+00	1.00000e+00	1.00000e+00	1.00000e+00	1.00000e+00	1.00000e+00	1.00000e+00	1.00000e+00	1.00000e+00	X	X	X	X	X	X	X	X	X	X	X	X	X	X	X	X	

B = Detector Channel
Val Type	B-AC1	B-AC2	B-AC3	B-AC4	B-AC5	B-AC6	B-AC7	B-AC8	B-AC9	B-AC10	B-AC11	B-AC12	B-AC13	B-AC14	B-AC15	B-AC16	B-DC1	B-DC2	B-DC3	B-DC4	B-DC5	B-DC6	B-DC7	B-DC8	B-DC9	B-DC10	B-DC11	B-DC12	B-DC13	B-DC14	B-DC15	B-DC16	B-Ph1	B-Ph2	B-Ph3	B-Ph4	B-Ph5	B-Ph6	B-Ph7	B-Ph8	B-Ph9	B-Ph10	B-Ph11	B-Ph12	B-Ph13	B-Ph14	B-Ph15	B-Ph16	

Term	0.00000e+00	0.00000e+00	0.00000e+00	0.00000e+00	0.00000e+00	0.00000e+00	0.00000e+00	0.00000e+00	0.00000e+00	0.00000e+00	0.00000e+00	0.00000e+00	0.00000e+00	0.00000e+00	0.00000e+00	0.00000e+00	0.00000e+00	0.00000e+00	0.00000e+00	0.00000e+00	0.00000e+00	0.00000e+00	0.00000e+00	0.00000e+00	0.00000e+00	0.00000e+00	0.00000e+00	0.00000e+00	0.00000e+00	0.00000e+00	0.00000e+00	0.00000e+00	-1.28747e+02	-1.33826e+02	-1.28549e+02	-1.80942e+02	-7.62500e+01	-8.09811e+01	-1.54237e+02	-1.62015e+02	-7.58400e+01	-9.44173e+01	-1.75125e+02	-1.69314e+02	-1.81664e+02	-1.76960e+02	-5.94591e+01	-1.48622e+02	
Factor	1.82771e-05	1.44101e-04	3.88608e-05	1.54363e-01	1.25011e-06	1.75893e-06	1.64846e-01	6.58057e-02	1.31588e-06	1.62697e-06	1.48855e-01	2.74170e-02	2.93441e-02	8.95402e-03	1.40154e-06	1.27922e-02	1.80991e-06	1.93471e-06	5.39634e-07	7.75589e-02	2.11008e-08	2.13558e-08	7.78935e-02	3.28511e-02	2.11968e-08	2.13614e-08	7.05007e-02	1.33727e-02	1.48024e-02	4.49870e-03	2.12343e-08	6.21207e-03	X	X	X	X	X	X	X	X	X	X	X	X	X	X	X	X	



#DISTANCE SETTINGS
A = Detector Channel
A-1	A-2	A-3	A-4	A-5	A-6	A-7	A-8	A-9	A-10	A-11	A-12	A-13	A-14	A-15	A-16	

2.5000e+00	3.0000e+00	2.5000e+00	3.0000e+00	2.0000e+00	3.0000e+00	1.5000e+00	3.0000e+00	3.0000e+00	3.0000e+00	3.0000e+00	3.0000e+00	3.0000e+00	3.0000e+00	1.5000e+00	3.0000e+00	

B = Detector Channel
B-1	B-2	B-3	B-4	B-5	B-6	B-7	B-8	B-9	B-10	B-11	B-12	B-13	B-14	B-15	B-16	

1.0000e+01	1.0000e+01	1.0000e+01	1.4400e+00	1.0000e+01	1.0000e+01	1.5100e+00	1.9400e+00	1.0000e+01	1.0000e+01	1.9900e+00	2.4900e+00	2.4100e+00	2.9000e+00	1.0000e+01	2.9800e+00	




#DATA BEGINS
time	group	step	mark	flag	A-AC1	A-AC2	A-AC3	A-AC4	A-AC5	A-AC6	A-AC7	A-AC8	A-AC9	A-AC10	A-AC11	A-AC12	A-AC13	A-AC14	A-AC15	A-AC16	A-DC1	A-DC2	A-DC3	A-DC4	A-DC5	A-DC6	A-DC7	A-DC8	A-DC9	A-DC10	A-DC11	A-DC12	A-DC13	A-DC14	A-DC15	A-DC16	A-Ph1	A-Ph2	A-Ph3	A-Ph4	A-Ph5	A-Ph6	A-Ph7	A-Ph8	A-Ph9	A-Ph10	A-Ph11	A-Ph12	A-Ph13	A-Ph14	A-Ph15	A-Ph16	B-AC1	B-AC2	B-AC3	B-AC4	B-AC5	B-AC6	B-AC7	B-AC8	B-AC9	B-AC10	B-AC11	B-AC12	B-AC13	B-AC14	B-AC15	B-AC16	B-DC1	B-DC2	B-DC3	B-DC4	B-DC5	B-DC6	B-DC7	B-DC8	B-DC9	B-DC10	B-DC11	B-DC12	B-DC13	B-DC14	B-DC15	B-DC16	B-Ph1	B-Ph2	B-Ph3	B-Ph4	B-Ph5	B-Ph6	B-Ph7	B-Ph8	B-Ph9	B-Ph10	B-Ph11	B-Ph12	B-Ph13	B-Ph14	B-Ph15	B-Ph16	aux-1	digaux	

1360.384	1	1	0	256	0.16762	0.41568	0.11003	0.16351	0.032025	0.24602	0.29304	0.30045	0.017997	0.099823	0.16057	0.11394	0.18897	0.092934	0.12049	0.17836	-3.0458	-3.0333	-3.4104	-3.3875	-3.275	-3.5292	-3.3854	-3.2792	-3.4417	-3.0687	-3.4854	-3.5563	-3.2125	-3.4688	-3.0042	-3.3292	169.554	-120.531	-131.136	114.631	4.798	-26.206	113.725	109.730	97.224	9.608	106.019	-107.008	188.885	53.888	18.347	9.691	0.00026088	0.00046334	0.0002282	1312.5	1.8507e-06	1.0976e-05	1375.1	269.15	3.9106e-06	2.7915e-06	332.68	92.695	75.993	21.139	1.0295e-05	29.512	0.0015679	0.0016539	0.00046006	1334.7	1.7747e-05	1.8058e-05	1404.5	287.11	1.7729e-05	1.7842e-05	372.71	101.85	85.483	24.333	1.7357e-05	33.904	-162.661	3.698	-58.148	-156.214	67.007	-89.923	-156.394	-149.736	-28.044	-108.977	-149.718	-143.104	-143.037	-135.949	-43.000	-136.114	-8191	255	
1360.480	1	1	0	0	0.2918	0.095817	0.12201	0.27017	0.066375	0.12371	0.21778	0.18882	0.14492	0.26659	0.24421	0.23019	0.060924	0.076053	0.14268	0.25879	-3.0146	-3.1479	-3.3417	-3.45	-3.2229	-3.5062	-3.1896	-3.1125	-3.2792	-3.2104	-3.4917	-3.4938	-3.1354	-3.45	-3.2833	-3.2729	-82.490	-94.423	19.248	158.858	18.820	-39.120	91.004	32.907	147.205	-65.170	140.656	26.335	167.991	172.730	-98.754	-64.107	0.00025443	0.00093982	0.00010169	1304.7	7.5241e-06	7.8002e-06	1371.8	267.56	7.1329e-06	1.7533e-06	331.79	92.311	75.665	21.081	6.1648e-06	29.258	0.0014765	0.0015484	0.00042963	1322.7	1.6705e-05	1.6716e-05	1389.4	284.13	1.6369e-05	1.6571e-05	368.62	100.7	84.652	24.053	1.6604e-05	33.606	-161.913	-82.951	-141.685	-156.172	-83.637	14.808	-156.120	-149.737	-117.526	76.348	-149.716	-143.153	-142.852	-135.818	-15.590	-135.735	-8191	255	
1360.575	1	1	0	0	0.040871	0.1881	0.22371	0.13292	0.25237	0.053452	0.23028	0.032767	0.14513	0.20503	0.13734	0.10612	0.086996	0.041322	0.16005	0.054711	-3.3812	-3.2333	-3.4042	-3.5625	-3.2542	-3.4521	-3.3688	-3.1958	-3.2833	-3.0896	-3.3521	-3.5208	-3.125	-3.4292	-3.2229	-3.2646	-163.280	3.363	-139.132	106.570	124.984	-80.961	141.670	126.174	-124.066	40.516	117.313	163.307	-147.720	-76.211	82.274	-107.081	0.00025285	0.00022372	2.508e-05	1304.9	3.3317e-06	3.5891e-06	1366.4	269.91	1.1933e-05	1.1971e-05	327.97	92.635	74.849	21.029	1.6761e-06	29.36	0.0014387	0.0015212	0.00042599	1321.6	1.6734e-05	1.7027e-05	1391.3	285.03	1.6961e-05	1.7006e-05	369.28	101.12	84.607	24.171	1.689e-05	33.665	-151.833	-82.260	-72.897	-156.008	35.167	133.240	-156.174	-149.744	-83.910	-122.277	-149.283	-143.189	-143.378	-136.069	159.762	-136.347	-8191	255	
1360.673	1	1	0	0	0.10104	0.33895	0.15545	0.11577	0.19128	0.052592	0.036608	0.38919	0.1919	0.1283	0.12306	0.15484	0.10139	0.1299	0.073178	0.066673	-2.9958	-3.2771	-3.3729	-3.5417	-2.9938	-3.4375	-3.4875	-3.3021	-3.6292	-3.1646	-3.1521	-3.3458	-3.0875	-3.4146	-3.3083	-3.2208	-156.236	169.706	-1.265	-157.669	-37.331	165.243	106.539	112.630	-48.276	-11.218	-13.164	-159.037	-99.449	-95.025	-82.320	176.767	0.00011331	0.00053455	0.00018937	1301.8	5.9209e-06	7.2813e-06	1366.1	268.84	7.6653e-06	3.1406e-07	331.28	92.179	75.791	21.004	3.71e-06	29.305	0.0014616	0.0015456	0.00043148	1322.5	1.6719e-05	1.701e-05	1389.3	285.02	1.6939e-05	1.7004e-05	369.56	100.92	84.892	24.165	1.6879e-05	33.714	-145.512	-24.324	-143.097	-156.118	-42.116	78.395	-156.273	-149.743	-85.012	-72.083	-149.497	-143.647	-142.932	-135.991	4.946	-136.061	-8191	255	
1360.792	1	1	0	0	0.021765	0.15399	0.079534	0.21623	0.17075	0.1997	0.2293	0.059464	0.091406	0.18502	0.15541	0.22519	0.14128	0.084331	0.092203	0.11105	-3.0563	-3.1312	-3.2667	-3.5187	-3.0687	-3.2208	-3.4229	-3.0563	-3.425	-3.0917	-3.2021	-3.5792	-3.4208	-3.6604	-3.3542	-3.0375	-138.695	-41.933	71.123	137.130	85.888	-56.079	77.482	-73.566	-141.462	-93.707	-140.973	-80.631	172.638	50.800	-35.372	97.088	0.0001208	0.00073979	9.0514e-05	1303.8	3.4762e-06	5.2912e-06	1361.6	268.49	9.325e-06	9.8321e-06	331.39	92.79	75.785	21.071	3.8074e-06	29.469	0.0014519	0.0015354	0.00042839	1321.5	1.6567e-05	1.6753e-05	1386.7	284.91	1.665e-05	1.693e-05	370.28	101.13	84.901	24.211	1.7101e-05	33.828	-159.645	130.443	-165.567	-156.204	162.281	-85.956	-156.268	-149.570	-123.216	149.885	-149.566	-143.478	-143.410	-135.784	-66.527	-136.161	-8191	255	
1360.863	1	1	0	0	0.070454	0.059091	0.12327	0.35229	0.23973	0.16908	0.1851	0.18027	0.089601	0.25883	0.21605	0.11443	0.18588	0.35809	0.094024	0.30656	-3.0167	-3.2438	-3.1854	-3.7042	-3.1667	-3.5354	-3.5896	-3.0292	-3.4437	-3.2125	-3.1646	-3.6583	-3.1417	-3.3333	-3.5979	-3.1188	39.219	-116.434	-105.749	161.063	35.090	-16.351	120.276	99.473	-156.493	125.590	-141.850	-98.012	150.421	-136.499	-27.038	-107.386	0.00018673	0.0007359	0.0002346	1306.6	7.5289e-06	9.9955e-06	1364.9	269.14	5.271e-06	9.0699e-06	330.81	92.344	74.981	21.224	7.6752e-06	29.301	0.0014728	0.0015491	0.00042897	1323.7	1.6569e-05	1.6828e-05	1385	284.87	1.6663e-05	1.674e-05	368.71	100.85	84.667	24.165	1.6784e-05	33.658	184.377	-142.288	-142.525	-156.252	-33.552	-151.324	-156.430	-149.694	12.136	-89.526	-149.492	-143.355	-142.830	-135.942	23.357	-136.100	-8191	255	
1360.959	1	1	0	0	0.30937	0.019796	0.25951	0.45173	0.26346	0.17733	0.34512	0.10525	0.18235	0.059502	0.070868	0.20665	0.065927	0.18713	0.28327	0.2685	-2.9375	-3.2625	-3.0729	-3.5438	-3.1896	-3.3771	-3.5729	-3.1312	-3.3854	-3.4313	-3.1354	-3.6104	-3.2646	-3.3479	-3.5125	-3.3229	62.311	180.622	-166.350	136.830	62.402	88.184	171.256	54.309	153.765	76.604	105.639	-165.952	-61.920	-164.220	68.596	-18.827	0.00028183	0.00031269	0.0001225	1308.1	7.54e-06	1.086e-05	1378.5	266.14	3.2525e-06	6.3303e-06	330.81	92.382	75.862	21.216	4.9986e-06	29.679	0.0014475	0.0015294	0.00042893	1323.5	1.663e-05	1.6841e-05	1404	284.47	1.6916e-05	1.7009e-05	370.39	101.35	85.165	24.313	1.7111e-05	33.954	-138.828	52.543	-149.716	-156.231	7.786	-113.008	-156.281	-149.800	149.298	139.158	-149.493	-143.426	-142.897	-136.081	-97.014	-136.389	-8191	255	
1361.080	1	1	0	0	0.27235	0.18827	0.02343	0.3159	0.12061	0.13974	0.15585	0.20947	0.09706	0.2006	0.055792	0.16438	0.10408	0.35844	0.25352	0.11864	-3.0354	-3.35	-3.0958	-3.6937	-3.2396	-3.1896	-3.6	-3.3146	-3.4729	-3.4229	-3.2604	-3.4833	-3.2979	-3.1188	-3.4146	-3.0479	117.562	144.240	-145.303	170.832	-12.963	0.967	-146.058	153.809	112.519	154.178	-83.947	170.466	-73.459	158.301	-33.372	-130.663	0.00029976	0.00075201	0.00012794	1303.7	6.628e-06	7.8335e-06	1394.9	269.42	2.9608e-06	2.257e-06	333.02	92.842	75.766	21.357	5.5169e-06	29.594	0.0014731	0.0015679	0.00043672	1325.6	1.701e-05	1.7174e-05	1418.4	285.93	1.7052e-05	1.7259e-05	371.76	101.79	85.506	24.502	1.7432e-05	34.119	186.652	118.926	-60.555	-156.290	91.087	50.799	-156.501	-149.843	149.522	-38.999	-149.620	-143.272	-142.749	-135.845	-155.054	-136.334	-8191	255	
1361.176	1	1	0	0	0.090839	0.22403	0.30701	0.11709	0.077671	0.024711	0.30165	0.071396	0.1589	0.084294	0.15423	0.016833	0.28392	0.04638	0.064243	0.11906	-2.9542	-3.3854	-2.925	-3.7146	-3.1958	-3.0646	-3.5167	-3.2625	-3.2792	-3.5375	-3.1833	-3.4813	-3.3583	-3.3125	-3.5208	-3.3729	20.692	-4.698	-81.904	-167.318	38.662	167.696	88.027	65.270	-53.748	21.056	187.250	-45.626	-167.359	-127.485	3.962	-24.943	0.00029071	0.00098882	0.00027615	1310.8	4.6217e-06	4.7664e-06	1395.7	269.2	7.3146e-06	4.3108e-06	332.46	93.089	75.86	21.31	1.2264e-05	29.697	0.0015151	0.0015961	0.00044801	1330.5	1.7407e-05	1.7578e-05	1423.2	286.51	1.7452e-05	1.7524e-05	372.05	102.09	85.669	24.522	1.7474e-05	34.19	-161.186	-62.356	-85.541	-156.214	-29.438	104.183	-156.401	-149.674	10.799	50.594	-149.464	-143.150	-142.778	-135.953	63.985	-136.179	-8191	255	
1361.272	1	1	0	0	0.041837	0.14484	0.11126	0.32917	0.2817	0.15611	0.14187	0.15687	0.084339	0.068807	0.17156	0.18212	0.15798	0.077143	0.29413	0.23978	-2.7938	-3.6604	-3.1125	-3.4917	-3.2396	-3.0771	-3.5521	-3.2458	-3.0354	-3.3854	-3.1208	-3.4042	-3.4479	-3.2146	-3.5708	-3.425	-165.161	153.701	75.720	155.748	90.223	133.748	167.839	181.464	114.600	-101.108	160.508	190.338	154.878	-74.838	-36.871	169.033	0.00018888	0.0005475	0.00029512	1310.7	2.2659e-06	7.3982e-07	1399	267.8	7.0762e-06	2.5801e-06	334.01	93.274	75.901	21.322	6.3146e-06	29.539	0.0015008	0.0015618	0.00043519	1326.6	1.6928e-05	1.7255e-05	1424.9	285.58	1.75e-05	1.7448e-05	373.74	102.09	85.658	24.458	1.7601e-05	34.13	-152.506	-56.855	135.707	-156.013	94.707	-157.750	-156.379	-149.706	-16.726	62.873	-149.513	-143.545	-142.718	-135.971	42.958	-136.171	-8191	255	
1361.393	1	1	0	0	0.05336	0.26027	0.15555	0.22047	0.05245	0.23741	0.1362	0.18676	0.1174	0.11218	0.11913	0.12244	0.10739	0.29835	0.17776	0.18251	-3.0583	-3.6292	-3.1208	-3.5854	-3.4792	-2.9771	-3.7708	-3.3417	-3.2333	-3.5479	-3.1188	-3.2062	-3.4125	-3.1375	-3.4646	-3.4333	20.898	-3.583	-80.111	158.660	50.818	72.381	120.822	-165.561	-119.295	-74.737	-0.865	-47.927	-13.397	-89.121	-96.493	-147.727	0.00019951	0.0008037	0.00046429	1313.4	2.7208e-06	9.8049e-06	1406	269.65	3.6597e-06	1.0891e-05	332.8	93.041	75.686	21.077	7.6407e-06	29.534	0.0015076	0.0016084	0.00045169	1330.5	1.7791e-05	1.7886e-05	1429.3	287.36	1.7719e-05	1.7897e-05	374.75	102.31	85.614	24.462	1.785e-05	34.165	-150.887	-29.848	-32.826	-156.056	-66.875	42.924	-156.275	-149.603	-45.177	12.287	-149.859	-143.103	-142.860	-135.932	-17.389	-135.813	-8191	255	
1361.489	1	1	0	0	0.12868	0.16149	0.14048	0.069722	0.0022924	0.061108	0.4679	0.16904	0.21	0.15781	0.28322	0.108	0.16222	0.068007	0.07309	0.18814	-2.9562	-3.2896	-3.0708	-3.3812	-3.3521	-3.1583	-3.7229	-3.6063	-3.1937	-3.4667	-3.2354	-3.3354	-3.4292	-3.2	-3.4938	-3.6167	-13.745	-25.065	133.480	160.253	92.368	-0.730	171.874	-54.739	87.606	75.168	159.648	24.191	120.740	105.907	-99.234	-114.506	0.0002896	0.00083823	0.00017476	1310.7	4.5273e-06	1.0065e-05	1410.5	270.37	2.0839e-06	2.8728e-06	331.45	93.28	76.135	21.195	4.1879e-06	29.552	0.0015348	0.0016288	0.00045328	1331.4	1.7843e-05	1.8158e-05	1434.8	288.15	1.812e-05	1.8445e-05	375.48	102.66	86.371	24.654	1.8382e-05	34.402	-150.792	-32.537	-166.375	-156.305	43.561	-9.077	-156.302	-149.624	-53.375	29.697	-150.012	-143.415	-142.954	-136.082	30.474	-136.288	-8191	255	
1361.561	1	1	0	0	0.062773	0.085853	0.1001	0.21469	0.083293	0.14433	0.13304	0.13608	0.10532	0.17448	0.24387	0.23623	0.2167	0.15991	0.18729	0.18021	-2.8438	-3.4188	-3.275	-3.3583	-3.4667	-2.9667	-3.5208	-3.525	-3.0563	-3.5833	-3.3896	-3.4	-3.6604	-3.1479	-3.45	-3.5042	138.786	-57.661	-92.521	169.194	-54.645	89.182	94.153	2.289	-124.459	172.369	159.265	-43.857	-161.745	-36.934	172.550	151.796	0.00023686	0.0007868	0.00017856	1314.5	1.0081e-05	1.1831e-05	1410.4	270.24	2.3004e-06	3.6682e-06	335.69	93.642	76.497	21.376	3.1284e-06	29.562	0.001584	0.0016747	0.00046827	1338.8	1.8284e-05	1.8505e-05	1439.4	289.76	1.8401e-05	1.8766e-05	377.84	103.02	86.948	24.819	1.8521e-05	34.501	-139.766	180.076	-2.347	-155.984	116.192	-143.891	-156.411	-149.765	91.224	-38.060	-149.916	-143.413	-142.771	-136.268	70.503	-136.239	-8191	255	
1361.680	1	1	0	0	0.16278	0.1255	0.097094	0.24732	0.10816	0.23031	0.1809	0.11681	0.18551	0.069699	0.17038	0.07791	0.033106	0.14409	0.02991	0.15429	-2.6562	-3.4062	-3.075	-3.2083	-3.4792	-3.0521	-3.4167	-3.3979	-3.0312	-3.2188	-3.2917	-3.3521	-3.5667	-3.2875	-3.325	-3.5792	117.298	65.002	146.890	154.695	56.530	128.590	77.100	137.738	-19.776	-154.533	-104.399	184.449	-152.018	-126.270	-161.413	-41.560	0.00019735	0.00054049	0.00024986	1322	4.8962e-06	4.0543e-06	1414	270.65	5.4947e-06	7.759e-06	335.54	93.601	75.96	21.472	6.3623e-06	29.895	0.0016161	0.0017056	0.00048121	1344.7	1.8546e-05	1.8997e-05	1442.7	290.29	1.8601e-05	1.8651e-05	378.35	102.95	86.377	24.76	1.8332e-05	34.536	191.130	-122.783	-138.846	-156.117	-84.410	-53.268	-156.364	-149.750	-94.598	-94.357	-149.353	-143.306	-143.117	-135.949	155.788	-136.586	-8191	255	
1361.776	1	1	0	0	0.28638	0.18517	0.021694	0.16783	0.088397	0.048294	0.2233	0.19005	0.22002	0.30925	0.14755	0.28044	0.24232	0.24363	0.36297	0.25991	-2.6354	-3.4458	-3.1375	-3.5583	-3.3375	-3.3896	-3.5396	-3.6708	-3.2	-3.3354	-3.4313	-3.1854	-3.7562	-3.2708	-3.2271	-3.6104	185.888	24.956	-91.042	104.606	87.211	24.910	168.725	-156.897	-6.566	-31.854	-100.368	183.052	-83.125	154.135	79.512	182.266	0.00029547	0.00022891	6.1088e-05	1314.5	1.0548e-05	2.1989e-05	1411.2	270.75	7.7752e-06	5.7246e-06	333.99	93.299	75.583	21.222	1.3468e-05	29.694	0.0015797	0.0016638	0.0004644	1338.9	1.8133e-05	1.8438e-05	1439.5	289.65	1.8277e-05	1.8307e-05	376.74	102.78	86.258	24.67	1.8033e-05	34.368	-154.167	-16.194	-12.517	-156.025	-91.648	-154.240	-156.063	-149.530	-55.961	-82.543	-149.427	-143.409	-143.079	-136.270	-4.876	-135.994	-8191	255	
1361.872	1	1	0	0	0.081143	0.23571	0.076487	0.1206	0.13244	0.24627	0.21182	0.053021	0.2136	0.16681	0.27074	0.11216	0.214	0.18419	0.081324	0.14911	-2.9479	-3.5187	-3.3208	-3.3854	-3.5708	-3.0917	-3.4	-3.4208	-3.2708	-3.4854	-3.4771	-3.1729	-3.4625	-3.175	-3.3292	-3.6833	150.335	102.478	75.087	174.539	132.328	117.464	104.080	148.433	-55.894	-85.561	-107.198	-88.580	111.176	-141.835	-94.293	4.831	0.00018368	0.00066445	0.00023061	1308.6	2.5915e-06	3.8988e-06	1402.2	267.63	1.0167e-05	8.8514e-06	334.71	93.694	75.95	21.091	8.8955e-06	29.559	0.0015426	0.0016359	0.00045573	1332.2	1.776e-05	1.7775e-05	1428.5	286.67	1.7423e-05	1.7372e-05	372.66	101.91	85.242	24.283	1.6858e-05	33.883	-164.160	-86.088	-69.493	-156.251	26.487	-64.169	-156.552	-149.803	-85.257	23.176	-149.421	-143.274	-142.967	-135.891	-43.198	-135.889	-8191	255	
1361.968	1	1	0	0	0.20405	0.072988	0.11346	0.31063	0.032293	0.14972	0.11804	0.34844	0.066283	0.11091	0.14251	0.10277	0.04624	0.022263	0.21358	0.21996	-3.0687	-3.4604	-3.4875	-3.3563	-3.4771	-3.3333	-3.3937	-3.5667	-3.3187	-3.475	-3.5146	-3.2208	-3.5479	-3.525	-3.2604	-3.7958	-71.015	155.596	84.304	151.701	56.014	-112.969	-160.161	161.919	-81.509	101.505	94.669	179.879	159.150	50.932	69.082	119.339	0.00019631	0.00011171	9.9194e-05	1299	7.3477e-06	5.4075e-06	1392.1	267.83	4.0006e-06	5.0097e-06	332.55	92.668	75.296	21.106	4.269e-06	29.671	0.0014456	0.0015203	0.00042387	1319.5	1.6512e-05	1.6687e-05	1415.7	283.99	1.6445e-05	1.6458e-05	367.83	100.97	84.37	24.041	1.6293e-05	33.706	164.966	-36.650	19.627	-156.098	-99.008	103.675	-156.435	-149.427	184.914	-137.478	-149.705	-143.367	-142.665	-135.878	-121.348	-136.396	-8191	255	
1362.089	1	1	0	0	0.10233	0.073361	0.16981	0.20671	0.18809	0.083793	0.26561	0.27929	0.1199	0.1821	0.28637	0.087208	0.084505	0.21964	0.18824	0.19138	-2.7771	-3.2625	-3.2833	-3.2667	-3.4104	-3.5104	-3.5187	-3.5896	-3.2125	-3.3937	-3.5583	-3.1917	-3.3688	-3.4583	-3.0521	-3.4313	-83.356	7.231	-153.018	168.435	98.408	-135.772	90.515	35.882	-94.879	126.081	-105.816	-146.582	173.289	143.347	79.360	65.692	0.00020155	0.00045	2.2413e-05	1298.8	1.0354e-05	1.5532e-05	1391.1	267.01	6.6878e-06	5.7427e-06	330.57	92.183	74.904	21.041	6.9558e-06	29.446	0.0013925	0.0014744	0.00040953	1310.9	1.5978e-05	1.6038e-05	1410.5	282.16	1.5765e-05	1.5785e-05	364.57	100.29	83.497	23.799	1.5205e-05	33.163	177.730	-47.661	185.420	-156.170	-33.378	40.642	-156.441	-149.724	18.190	160.907	-149.194	-143.430	-142.810	-135.610	69.152	-135.890	-8191	255	
1362.160	1	1	0	0	0.053564	0.12544	0.16303	0.31551	0.088291	0.15568	0.24169	0.31488	0.24684	0.1787	0.18129	0.23914	0.10417	0.13678	0.29987	0.11241	-3.0875	-3.2333	-3.5625	-3.3667	-3.4188	-3.375	-3.2708	-3.5708	-3.3208	-3.3417	-3.6083	-3.4208	-3.525	-3.6896	-3.2167	-3.5854	-104.475	103.329	-152.575	114.929	-4.382	7.788	111.603	17.726	-113.782	-14.811	-154.733	123.953	-68.443	-61.705	76.274	39.241	0.00022732	0.00025353	0.00020489	1280.9	4.2188e-06	1.3952e-05	1434.1	264.77	4.381e-06	2.0638e-06	328.54	92.735	74.529	21.056	1.5101e-06	29.114	0.0013025	0.001367	0.00038477	1295.9	1.4959e-05	1.5055e-05	1446.3	279.04	1.5047e-05	1.5163e-05	361.05	99.489	82.938	23.754	1.4977e-05	33.123	-152.781	-71.603	-56.922	-156.252	184.176	-136.671	-156.213	-149.515	-90.738	-72.191	-149.567	-142.972	-143.266	-135.722	-29.869	-136.303	-8191	255	
1362.257	1	1	0	0	0.13274	0.081275	0.14026	0.21736	0.20201	0.10257	0.068579	0.087222	0.28527	0.077534	0.22421	0.12982	0.084572	0.20204	0.13562	0.088838	-2.9646	-3.0771	-3.5563	-3.3625	-3.2354	-3.6833	-3.4292	-3.5146	-3.2687	-3.0875	-3.2333	-3.2729	-3.2792	-3.4021	-3.1896	-3.3	119.299	67.514	-102.818	188.821	-76.916	59.679	-142.799	-81.379	-113.399	5.183	95.493	-28.534	28.907	-119.760	-151.456	-14.878	0.00019811	0.00012086	0.00020175	1281	3.321e-06	7.8359e-06	1374.2	264.28	3.33e-06	6.6897e-06	327.8	92.042	74.189	20.949	3.9755e-06	29.313	0.0012823	0.0013488	0.00037735	1292.3	1.4667e-05	1.4877e-05	1392.1	278.13	1.4529e-05	1.4605e-05	357.87	98.685	82.166	23.413	1.4447e-05	32.73	178.381	55.137	-39.522	-156.100	88.593	138.120	-156.211	-149.604	39.353	1.733	-149.385	-142.719	-143.051	-135.692	-15.757	-136.074	-8191	255	
1362.353	1	1	0	0	0.048673	0.36129	0.01237	0.11667	0.15701	0.13566	0.29026	0.11239	0.079531	0.2691	0.13521	0.27972	0.067114	0.23387	0.11087	0.17761	-3.1146	-3.0667	-3.5104	-3.6271	-3.3292	-3.5354	-3.2854	-3.325	-3.3375	-3.2125	-3.5208	-3.4521	-3.5146	-3.5438	-3.3063	-3.4958	46.474	52.549	109.858	127.565	-157.081	104.574	143.963	-161.137	35.310	-123.554	162.173	86.912	118.359	-55.196	-130.319	131.987	0.00028202	0.00031687	0.00021335	1268.1	8.1267e-06	5.8968e-06	1346.9	262.68	5.4932e-06	5.472e-06	325.02	91.177	74.015	20.888	2.0225e-06	28.756	0.0012369	0.0013212	0.00036608	1281.3	1.4363e-05	1.4489e-05	1361.3	275.76	1.4257e-05	1.4315e-05	354.77	97.908	81.488	23.265	1.4076e-05	32.433	188.245	25.395	-151.927	-155.929	-85.373	-69.864	-155.572	-149.517	-46.001	32.848	-149.308	-143.409	-143.004	-135.795	-93.995	-135.681	-8191	255	
1362.472	1	1	0	0	0.0089274	0.18467	0.15389	0.30436	0.16396	0.033925	0.11418	0.21002	0.19055	0.1912	0.062363	0.049953	0.24084	0.013263	0.12147	0.09261	-3.1042	-3.2979	-3.4354	-3.5708	-3.1	-3.5292	-3.3	-3.2667	-3.4125	-3.1333	-3.4729	-3.4583	-3.4042	-3.6813	-3.3542	-3.575	-89.909	94.973	20.555	155.815	101.590	-61.016	27.055	23.235	150.756	6.115	-74.701	168.488	-69.341	39.484	124.824	-73.794	0.00018302	0.00092749	0.00016189	1265.3	3.5605e-06	5.3808e-06	1336.1	260.12	6.3323e-06	4.8401e-06	319.4	90.637	73.544	20.588	3.3237e-06	28.713	0.001207	0.0012689	0.00035132	1271.2	1.375e-05	1.3719e-05	1348.1	271.56	1.3632e-05	1.379e-05	349	97.009	80.439	22.985	1.3745e-05	32.106	182.456	-91.710	-16.620	-156.097	-83.600	112.815	-155.727	-149.512	-52.221	-94.230	-149.466	-143.320	-142.997	-135.571	167.485	-135.906	-8191	255	
1362.568	1	1	0	0	0.012765	0.056761	0.051906	0.28105	0.15932	0.14181	0.089881	0.21791	0.1348	0.20808	0.21525	0.29775	0.076102	0.1785	0.22893	0.10728	-3.2667	-3.2188	-3.4813	-3.5375	-3.3604	-3.4625	-3.4271	-3.4854	-3.4437	-3.0333	-3.3167	-3.5375	-3.0583	-3.5583	-3.3833	-3.2708	86.784	-45.055	110.415	165.271	31.771	152.488	42.640	-151.997	84.127	-118.373	-151.264	54.099	24.635	104.109	30.155	-18.851	0.00014842	0.00079476	0.00024641	1254.6	3.2796e-06	7.2608e-06	1324.5	257.93	2.1087e-06	6.3724e-06	320.42	89.941	73.11	20.447	7.2963e-06	28.749	0.0011935	0.0012472	0.00034621	1263.9	1.3547e-05	1.3679e-05	1339.5	269.94	1.3411e-05	1.3471e-05	347.76	96.47	80.179	22.847	1.352e-05	32.04	-145.186	-49.868	-57.269	-156.074	54.145	15.219	-155.717	-149.303	32.782	49.536	-149.618	-143.293	-142.799	-135.553	-39.233	-136.329	-8191	255	
1362.664	1	1	0	0	0.18942	0.19106	0.063765	0.14549	0.08433	0.14061	0.23898	0.16463	0.085981	0.17233	0.22117	0.074734	0.13036	0.23036	0.11159	0.17153	-3.3042	-3.1437	-3.225	-3.6937	-3.1667	-3.55	-3.4562	-3.3354	-3.5354	-3.2521	-3.4688	-3.2583	-3.1417	-3.6125	-3.4771	-3.5292	-118.768	-48.678	125.559	156.131	128.482	173.009	115.767	86.335	-119.797	149.858	124.608	-158.515	178.596	113.701	-70.016	160.949	0.00030348	0.00044767	0.00016046	1249	1.6642e-06	8.2256e-06	1324.9	256.49	6.0726e-06	8.7539e-06	317.81	89.53	72.746	20.414	8.3007e-06	28.351	0.0011662	0.0012253	0.00033983	1257.8	1.3315e-05	1.345e-05	1332.6	268.79	1.321e-05	1.3466e-05	345.74	95.958	79.569	22.754	1.3338e-05	31.802	-136.502	90.349	-8.381	-156.049	-110.724	-95.498	-155.643	-149.557	-81.107	-42.062	-149.345	-143.072	-142.727	-135.105	-76.673	-135.997	-8191	255	
1362.760	1	1	0	0	0.15827	0.086634	0.062402	0.36656	0.24269	0.19351	0.21744	0.41332	0.11454	0.077865	0.083021	0.16971	0.064889	0.16588	0.13533	0.015886	-3.2146	-3.3042	-3.4021	-3.825	-3.1792	-3.3104	-3.5125	-3.2229	-3.6958	-3.2896	-3.2854	-3.6042	-3.1625	-3.4062	-3.3292	-3.2875	146.858	1.103	-150.554	139.092	-96.356	-127.469	-143.397	160.388	-49.162	123.630	166.840	183.352	-82.612	-138.556	-33.963	-142.938	0.00025876	0.0003758	3.4852e-05	1243.2	4.2046e-06	7.2695e-06	1311.2	256.27	6.8216e-06	1.2598e-05	318.4	89.445	72.362	20.305	3.8144e-06	28.453	0.001145	0.0012147	0.0003385	1251.2	1.3261e-05	1.3373e-05	1321.2	268.01	1.3287e-05	1.3445e-05	344.98	95.76	79.409	22.645	1.3519e-05	31.664	-149.034	-28.581	-75.089	-156.023	177.992	-104.639	-155.634	-149.416	161.660	-38.804	-149.143	-143.325	-142.569	-135.566	167.326	-135.823	-8191	255	
1362.856	1	1	0	0	0.14652	0.092541	0.10945	0.068367	0.19803	0.19669	0.18905	0.051867	0.26239	0.095301	0.094989	0.19885	0.19924	0.10607	0.063118	0.13781	-3.2729	-3.225	-3.1125	-3.4417	-3.1229	-3.175	-3.6625	-3.1792	-3.3333	-3.2854	-3.1354	-3.4708	-3.2313	-3.4708	-3.4583	-3.1146	-74.141	56.458	-96.525	-99.868	-114.490	-113.317	146.802	161.865	60.468	-70.573	-16.393	-144.894	186.558	106.497	-152.908	-150.697	0.00030983	0.00026467	0.00010904	1238.8	5.3484e-06	6.0347e-06	1308	254.96	7.9685e-06	8.7504e-06	316.93	88.968	72.371	20.192	4.7805e-06	28.164	0.0011625	0.0012257	0.00033941	1247.6	1.3262e-05	1.3456e-05	1322.8	266.55	1.312e-05	1.3262e-05	343.07	95.341	79.038	22.504	1.3269e-05	31.527	-158.823	-95.370	-156.871	-155.974	-75.562	-36.140	-155.517	-149.392	-164.895	-91.335	-149.349	-143.117	-142.921	-135.441	-52.183	-135.695	-8191	255	
1362.952	1	1	0	0	0.26424	0.14351	0.26777	0.10297	0.013	0.24602	0.27293	0.088794	0.1469	0.03988	0.14608	0.032802	0.15305	0.17325	0.15789	0.21471	-2.9896	-3.2542	-3.0875	-3.3688	-3.1417	-3.2167	-3.5542	-3.375	-3.4562	-3.4958	-3.475	-3.6417	-3.2771	-3.475	-3.6167	-3.1958	78.899	15.760	174.746	95.869	-11.768	148.993	165.123	-97.593	-60.942	-117.779	-24.233	5.390	126.199	-161.458	101.444	106.317	0.0003372	0.00066615	0.00020736	1238	6.1137e-06	7.0917e-06	1318.8	253.99	6.3312e-06	6.2748e-06	314.85	88.959	72.288	20.222	2.8629e-06	28.311	0.0011479	0.0012081	0.0003379	1244.8	1.3318e-05	1.3467e-05	1331.7	266.65	1.3335e-05	1.355e-05	343.5	95.278	79.21	22.535	1.3452e-05	31.671	-158.665	-85.145	-68.499	-156.282	119.202	-14.251	-155.781	-149.648	-2.796	-26.623	-149.102	-142.939	-142.546	-135.543	17.524	-135.740	-8191	255	
1363.073	1	1	0	0	0.15283	0.22216	0.097015	0.26462	0.16079	0.059375	0.099132	0.27496	0.17125	0.11211	0.14664	0.16806	0.057656	0.21698	0.15491	0.24345	-3.0854	-3.3396	-3.0417	-3.6521	-3.2771	-3.4167	-3.7812	-3.2021	-3.2438	-3.1937	-2.9688	-3.7083	-3.3271	-3.3396	-3.6688	-3.0396	-129.408	70.252	116.648	119.762	-55.225	135.371	67.374	-161.244	177.719	-135.151	162.952	-67.230	21.482	-106.965	173.270	99.245	0.00020695	0.00091398	6.0445e-05	1239.4	7.0364e-06	6.1823e-07	1323.6	254.58	3.5037e-06	4.9222e-06	313.04	89.353	72.218	20.094	9.6155e-06	28.398	0.0011605	0.0012265	0.00034464	1244.8	1.338e-05	1.3588e-05	1339.7	266.58	1.3455e-05	1.3482e-05	343.49	95.231	79.125	22.58	1.3699e-05	31.639	-145.986	-45.227	-152.508	-155.845	-58.596	-85.813	-156.002	-149.283	6.406	-98.612	-149.052	-143.093	-142.364	-135.560	-2.990	-136.020	-8191	255	
1363.169	1	1	0	0	0.40917	0.05807	0.22977	0.1342	0.20162	0.048049	0.12844	0.084014	0.10958	0.12953	0.078481	0.20969	0.054515	0.16789	0.068806	0.35862	-2.9771	-3.2375	-2.9833	-3.7313	-3.3542	-3.1688	-3.5854	-3.0875	-3.5417	-3.3563	-3.2708	-3.4813	-3.3729	-3.2125	-3.55	-3.2125	39.658	131.116	-36.497	164.874	-90.845	72.461	113.106	-143.574	-20.077	95.626	147.529	144.568	124.652	-148.629	21.877	142.759	0.00029623	0.00018579	5.0145e-05	1238.3	1.039e-06	1.0372e-05	1331.7	255.36	8.3803e-06	3.0023e-06	315.24	88.997	71.891	20.21	7.0081e-06	28.235	0.001173	0.0012344	0.00034674	1246.1	1.3505e-05	1.3692e-05	1344.5	267.05	1.3663e-05	1.3611e-05	344.02	95.16	78.921	22.562	1.3561e-05	31.664	-143.678	10.830	98.685	-156.084	84.263	106.595	-155.756	-149.268	15.900	-145.069	-149.217	-143.295	-142.576	-135.515	80.596	-135.838	-8191	255	
1363.265	1	1	0	0	0.12191	0.017537	0.24666	0.062355	0.17402	0.17029	0.20542	0.096828	0.05009	0.26624	0.083874	0.14406	0.079333	0.19387	0.13118	0.099566	-2.6854	-3.3875	-3.1937	-3.6542	-3.5354	-3.2458	-3.6771	-3.1688	-3.3521	-3.4667	-3.225	-3.6604	-3.3896	-3.1708	-3.4896	-3.2313	53.940	-77.494	125.366	-88.688	24.571	168.162	128.998	19.924	91.230	-46.306	34.038	48.265	-40.207	163.840	-113.005	125.080	0.0002563	0.00023353	8.0413e-05	1242.6	2.0806e-06	1.4794e-05	1331.2	254.77	6.6629e-06	1.1439e-05	313.53	88.871	71.769	20.062	1.0054e-05	28.193	0.0011694	0.0012413	0.0003461	1247.2	1.3595e-05	1.3698e-05	1342.8	267.22	1.364e-05	1.3819e-05	343.02	95.452	79.221	22.528	1.3708e-05	31.64	-151.870	-72.609	-130.955	-155.943	-24.721	127.869	-155.896	-149.472	-32.659	-78.324	-149.325	-143.118	-142.811	-136.067	-28.280	-135.927	-8191	255	
1363.361	1	1	0	0	0.19805	0.10106	0.057871	0.11416	0.26654	0.23156	0.20848	0.28089	0.12661	0.21658	0.075275	0.25388	0.23388	0.21301	0.18672	0.19976	-2.8729	-3.5333	-3.2354	-3.4521	-3.1792	-3.0917	-3.8187	-3.5146	-3.3708	-3.5375	-3.2958	-3.5417	-3.4146	-3.1813	-3.5687	-3.4375	36.301	89.206	-121.423	-166.882	-13.551	1.778	154.374	89.966	149.277	90.781	104.047	83.159	-111.942	106.161	147.090	-108.312	0.00030819	0.00055547	6.592e-05	1238	2.8878e-06	4.5615e-06	1329	255.4	1.5644e-06	5.5854e-06	317.64	88.757	71.905	20.154	4.3243e-06	28.262	0.0011915	0.0012459	0.00034774	1246.6	1.3629e-05	1.3807e-05	1339.5	267.35	1.374e-05	1.3854e-05	344.49	95.508	79.205	22.535	1.3798e-05	31.625	189.945	-16.638	-118.596	-156.027	184.121	-109.405	-155.946	-149.251	-124.749	-6.235	-149.414	-143.206	-142.497	-135.916	-60.861	-136.224	-8191	255	
1363.458	1	1	0	0	0.082573	0.25227	0.14991	0.27523	0.12741	0.20064	0.22029	0.18628	0.026343	0.12664	0.17378	0.32978	0.15162	0.24624	0.053855	0.065876	-2.8958	-3.5208	-3.3021	-3.5354	-3.55	-3.0771	-3.5729	-3.5625	-3.2833	-3.3937	-3.1	-3.1792	-3.2771	-3.1708	-3.3396	-3.4583	-64.818	99.411	-111.148	145.820	-37.105	125.648	191.196	78.800	84.834	173.396	162.544	140.203	3.728	-107.652	30.170	-95.800	0.00016741	0.00046606	0.00028092	1239.3	2.0739e-06	4.8691e-06	1330.8	255.91	5.7953e-06	8.1689e-06	314.97	88.811	72.084	20.291	4.6205e-06	28.468	0.001193	0.0012579	0.0003493	1246.4	1.3757e-05	1.3621e-05	1344.5	267.3	1.3478e-05	1.3689e-05	342.86	95.158	79.171	22.522	1.3391e-05	31.58	186.199	-120.299	-132.983	-155.827	174.158	-24.429	-156.129	-149.501	-127.694	-109.992	-149.303	-143.385	-142.578	-135.523	56.515	-136.189	-8191	255	
1363.554	1	1	0	0	0.22277	0.15477	0.20491	0.1568	0.21075	0.19229	0.28354	0.087654	0.08636	0.2079	0.26661	0.23242	0.23412	0.099645	0.21344	0.32869	-2.9875	-3.575	-3.0917	-3.2833	-3.3458	-2.9833	-3.5229	-3.3896	-3.1708	-3.5812	-3.2229	-3.5167	-3.4229	-3.0687	-3.2521	-3.2625	-27.079	192.075	-43.300	159.436	80.927	35.530	112.459	158.894	-154.978	122.435	173.349	-136.103	132.276	-106.788	158.303	168.070	0.00031831	0.00023949	0.00015562	1232.2	7.1876e-06	3.2701e-06	1315.1	253.98	3.5313e-06	6.7696e-06	314.32	88.817	71.774	20.053	2.2157e-06	28.22	0.0011484	0.0011946	0.00033223	1240.5	1.2937e-05	1.3019e-05	1320.8	264.93	1.2856e-05	1.2998e-05	340.59	94.659	78.548	22.398	1.3167e-05	31.45	191.754	154.005	-92.765	-155.943	-46.246	64.094	-155.427	-149.194	184.881	-81.419	-149.222	-142.964	-142.747	-135.185	-73.828	-135.922	-8191	255	
1363.648	1	1	0	0	0.13068	0.14016	0.082487	0.22652	0.11609	0.040746	0.26865	0.22448	0.0858	0.088429	0.036469	0.12903	0.25881	0.086668	0.17808	0.2133	-2.7167	-3.5021	-3.4021	-3.4313	-3.3708	-3.2438	-3.3604	-3.2625	-3.1958	-3.5271	-3.4521	-3.3875	-3.7729	-3.2375	-3.2458	-3.4062	-82.012	76.651	-150.099	147.051	-126.178	20.461	127.514	174.461	-39.286	103.760	84.996	-158.808	-150.802	184.878	-114.295	-39.791	0.00028362	0.00064585	0.00018159	1228.2	4.2863e-06	3.3844e-06	1265.7	254.67	7.0921e-06	8.175e-06	317.26	88.456	71.734	20.211	3.3344e-06	28.457	0.0011444	0.0012037	0.00033852	1238.6	1.3298e-05	1.3335e-05	1278.7	266.03	1.3247e-05	1.3418e-05	342.17	95.003	78.73	22.461	1.2985e-05	31.435	187.928	7.558	-73.366	-156.073	-159.013	69.698	-154.967	-149.391	151.405	96.999	-149.244	-142.982	-142.935	-135.734	-34.662	-135.645	-8191	255	
1363.769	1	1	0	0	0.038167	0.084846	0.15538	0.30088	0.10768	0.1444	0.32664	0.0026991	0.18888	0.20017	0.34815	0.14016	0.15187	0.071888	0.085178	0.14202	-2.6729	-3.3833	-3.4125	-3.5938	-3.5979	-3.2021	-3.5854	-3.5583	-3.1792	-3.375	-3.1646	-3.2062	-3.5563	-3.3063	-3.2687	-3.5979	-35.098	-161.848	-148.262	102.755	-14.149	-142.258	165.672	-4.588	54.809	-22.633	48.056	81.147	124.097	-88.414	191.784	113.615	0.0002642	0.0003069	9.4541e-05	1234.5	5.9121e-06	9.6816e-06	1297.9	254.54	4.1028e-06	4.0582e-06	314.7	88.769	71.563	20.094	3.2625e-06	28.335	0.0011159	0.0011674	0.00032351	1238.6	1.2744e-05	1.2888e-05	1310.7	265.19	1.2755e-05	1.2883e-05	340.57	94.676	78.254	22.361	1.2767e-05	31.35	-162.806	-79.819	-163.785	-155.851	-154.697	3.416	-155.527	-149.341	-93.868	-30.360	-148.978	-142.835	-142.596	-135.622	15.013	-135.803	-8191	255	
1363.865	1	1	0	0	0.047686	0.20101	0.1255	0.076371	0.033273	0.16586	0.11053	0.29878	0.23048	0.15956	0.10647	0.16481	0.25165	0.080164	0.17223	0.19399	-3.0021	-3.5396	-3.475	-3.2667	-3.4958	-3.3167	-3.2792	-3.5125	-3.1271	-3.6417	-3.5146	-3.2854	-3.4708	-3.2375	-3.4708	-3.6729	102.420	-60.816	113.823	-117.821	-26.262	-8.675	95.275	160.728	116.059	72.684	-91.393	56.199	160.856	93.755	78.798	96.675	0.00025004	0.00062803	0.00011381	1231	4.8289e-06	1.4056e-05	1318	253.75	5.8453e-06	2.8975e-06	313.61	88.588	71.755	20.078	3.5808e-06	28.216	0.0011196	0.001176	0.00032782	1237.1	1.2865e-05	1.3052e-05	1327.3	265.16	1.3012e-05	1.3113e-05	340.65	94.795	78.487	22.396	1.2995e-05	31.428	-162.364	58.100	-163.369	-156.018	-35.733	-166.160	-155.844	-149.256	-29.528	29.620	-149.877	-142.952	-142.798	-135.535	-112.697	-136.143	-8191	255	
1363.961	1	1	0	0	0.056168	0.10737	0.086979	0.25981	0.11009	0.18073	0.15667	0.23255	0.07664	0.20298	0.080418	0.12305	0.16011	0.13063	0.18185	0.22743	-3	-3.3042	-3.3458	-3.2271	-3.5958	-3.1979	-3.2708	-3.4708	-3.3542	-3.45	-3.4146	-3.2438	-3.5708	-3.3	-3.3646	-3.7188	-122.555	58.947	-52.362	145.925	151.425	79.355	157.490	168.457	-98.887	163.794	-19.015	-115.503	-140.364	176.169	4.425	103.112	0.00024745	0.000482	0.00019768	1228.3	9.8116e-06	8.3902e-07	1323.6	254.23	1.5417e-06	1.8134e-06	314.37	89.232	71.697	20.049	7.3608e-06	28.1	0.0011218	0.0011828	0.00032944	1236.9	1.292e-05	1.3034e-05	1336.5	265.09	1.2907e-05	1.2912e-05	340.77	94.799	78.453	22.392	1.2764e-05	31.318	-147.579	71.512	-48.552	-155.975	-72.276	27.685	-156.139	-149.510	148.599	26.384	-148.993	-143.102	-142.283	-135.089	-96.030	-135.865	-8191	255	
1364.033	1	1	0	0	0.065525	0.12533	0.067468	0.16738	0.13186	0.23728	0.30135	0.058631	0.041895	0.17187	0.12948	0.25259	0.095133	0.24284	0.082501	0.15561	-2.7792	-3.15	-3.5312	-3.4062	-3.5521	-3.3479	-3.3042	-3.6625	-3.2625	-3.3229	-3.4125	-3.2771	-3.4521	-3.3958	-3.2208	-3.4146	-134.608	40.490	154.664	109.289	37.709	95.700	87.912	-119.747	-60.170	-69.290	-127.151	148.529	91.500	97.867	0.602	-110.504	0.00030495	0.00048338	0.00010948	1230.1	1.2379e-05	3.4518e-06	1321.8	253.11	8.2371e-06	6.0964e-06	314.35	88.954	71.55	20.307	9.3499e-06	28.441	0.0010995	0.0011578	0.00032288	1235.2	1.2563e-05	1.2651e-05	1331.1	265.18	1.2713e-05	1.2893e-05	340.62	94.692	78.328	22.45	1.2843e-05	31.469	-158.794	-41.530	-137.451	-155.713	-136.418	-135.620	-156.387	-149.538	-121.431	158.582	-149.501	-142.609	-143.025	-135.499	-80.731	-136.096	-8191	255	
1364.153	1	1	0	0	0.18801	0.22975	0.17644	0.10595	0.053181	0.12325	0.25728	0.24389	0.14959	0.15593	0.16107	0.12174	0.047294	0.18677	0.29079	0.36284	-2.8625	-3.3104	-3.4313	-3.3042	-3.4792	-3.1813	-3.1896	-3.6042	-3.4062	-3.3542	-3.6667	-3.4854	-3.2354	-3.475	-3.3979	-3.7833	-148.299	66.089	113.799	187.470	-93.587	-98.673	107.273	191.452	-156.074	-147.981	129.178	138.120	-89.896	52.641	13.939	117.059	0.00018117	0.00039981	0.0002654	1228	1.7989e-06	1.049e-05	1326.3	253.42	7.047e-06	6.0915e-06	315.59	88.66	72.077	20.125	4.5579e-06	28.19	0.0011212	0.0011756	0.00032463	1235	1.2762e-05	1.2828e-05	1329.8	264.53	1.2729e-05	1.288e-05	340.5	94.661	78.416	22.365	1.2674e-05	31.374	187.540	-110.301	-99.664	-155.956	-26.633	-34.889	-156.126	-149.667	-132.190	-126.900	-149.467	-143.202	-142.602	-135.553	66.115	-135.780	-8191	255	
1364.249	1	1	0	0	0.025158	0.055476	0.063017	0.26182	0.038286	0.12283	0.099837	0.15516	0.22318	0.26325	0.14106	0.1023	0.24793	0.12217	0.20911	0.065285	-3.0938	-3.1854	-3.4708	-3.3042	-3.3396	-3.525	-3.3271	-3.6417	-3.4146	-3.3333	-3.4396	-3.2875	-3.5771	-3.5667	-3.1625	-3.625	75.596	-114.113	161.079	-117.222	3.214	-25.698	159.949	32.306	-79.591	-83.560	190.664	149.594	164.792	89.315	47.991	156.977	0.00029354	0.0010257	0.00015122	1226.9	5.7619e-06	6.1104e-07	1320.4	252.58	6.3735e-06	5.0511e-06	314.72	88.527	71.525	20.118	4.2688e-06	28.331	0.0011035	0.0011704	0.0003242	1234.6	1.2686e-05	1.2779e-05	1329.9	263.99	1.2689e-05	1.2771e-05	340.23	94.502	78.207	22.289	1.2647e-05	31.329	-143.625	-75.846	52.455	-155.987	96.470	68.645	-156.060	-149.204	-63.904	19.345	-149.117	-143.328	-142.715	-135.625	105.892	-135.287	-8191	255	
1364.346	1	1	0	0	0.15348	0.11795	0.23011	0.21014	0.073782	0.071882	0.22015	0.1378	0.17308	0.082452	0.090548	0.22342	0.079113	0.13588	0.16343	0.12794	-2.9854	-2.9625	-3.3187	-3.3438	-3.3333	-3.675	-3.3833	-3.5417	-3.3542	-3.1063	-3.2604	-3.2958	-3.3312	-3.4896	-3.1688	-3.1583	-116.105	-20.490	133.134	146.818	6.804	-122.055	68.602	89.400	158.219	61.266	-38.784	-107.422	170.355	-70.669	-106.637	-28.418	0.00027616	0.00082234	7.651e-05	1232.2	2.1402e-06	5.1431e-06	1315.3	253.65	1.1012e-05	9.7132e-06	315.1	88.298	72.18	20.065	5.7748e-07	28.26	0.0010884	0.0011491	0.00031848	1234.7	1.2474e-05	1.25e-05	1326.9	264.23	1.242e-05	1.2456e-05	339.14	94.277	78.152	22.273	1.2454e-05	31.25	181.458	-28.363	83.986	-155.806	-56.475	60.387	-156.034	-149.493	-34.338	-54.137	-149.189	-142.782	-142.548	-135.907	127.645	-135.555	-8191	255	
1364.442	1	1	0	0	0.12918	0.22642	0.11161	0.21598	0.043653	0.13327	0.17726	0.21865	0.26519	0.17834	0.11117	0.15707	0.091401	0.076006	0.21986	0.24134	-2.9896	-3.0458	-3.2188	-3.4667	-3.4313	-3.3396	-3.2271	-3.2667	-3.2375	-3.3667	-3.5208	-3.3292	-3.1667	-3.5187	-3.1458	-3.3187	-164.528	54.532	85.673	168.636	-49.881	11.950	81.069	-132.482	-73.518	-112.592	188.979	30.343	44.479	-160.391	-152.666	96.400	0.00026782	0.00040285	3.5157e-05	1223.2	4.0753e-06	2.9878e-06	1314	253.12	3.8872e-06	5.2283e-06	314.85	88.757	71.492	20.066	7.5059e-06	28.03	0.001073	0.0011381	0.00031948	1229.6	1.2732e-05	1.2833e-05	1325.6	264.37	1.3185e-05	1.3163e-05	340.37	94.561	78.298	22.363	1.3206e-05	31.272	-162.074	51.562	-137.378	-155.966	-60.901	7.273	-155.994	-149.303	185.685	180.130	-149.555	-142.936	-142.461	-135.387	-19.326	-136.038	-8191	255	
1364.562	1	1	0	0	0.26207	0.095619	0.10322	0.13517	0.1716	0.062947	0.16291	0.29511	0.11214	0.23624	0.078564	0.066993	0.1116	0.11171	0.13558	0.13675	-3.0146	-3.2479	-3.425	-3.4604	-3.175	-3.4896	-3.5604	-3.4729	-3.4479	-3.0458	-3.3083	-3.3104	-3.3438	-3.6312	-3.3312	-3.2917	-155.571	-152.299	-70.238	187.014	-162.842	17.266	91.452	152.747	65.441	123.076	-115.662	190.652	-147.351	97.085	-130.356	-156.943	0.00015267	0.00096985	0.00017514	1228.3	1.4378e-06	2.8174e-06	1311.4	253.83	4.3902e-06	4.0423e-06	313.23	88.109	71.348	19.967	2.449e-06	27.837	0.0011594	0.0012127	0.00033883	1234.1	1.3394e-05	1.3444e-05	1325.7	265.41	1.3275e-05	1.3343e-05	340.56	94.304	78.36	22.239	1.2927e-05	31.106	-132.505	78.943	116.936	-156.045	97.573	110.104	-156.176	-149.180	-46.318	66.198	-149.161	-142.960	-142.425	-135.611	-113.224	-135.841	-8191	255	
1364.657	1	1	0	0	0.17547	0.0057043	0.30538	0.24651	0.20146	0.16242	0.11681	0.1061	0.12115	0.1136	0.030273	0.075383	0.1044	0.086855	0.12442	0.12899	-3.1	-3.1562	-3.4396	-3.4188	-3.1333	-3.5333	-3.4437	-3.1042	-3.3667	-3.2542	-3.3625	-3.3167	-3.1396	-3.7583	-3.35	-3.2042	-68.779	65.287	-81.979	128.316	167.824	66.578	-26.080	135.769	186.105	-84.004	107.909	-134.024	-126.191	-136.789	179.845	-56.339	0.00029395	0.00059435	6.3753e-05	1222.3	1.9423e-06	8.3937e-06	1307.1	251.53	4.4383e-06	6.1663e-06	314.17	87.572	70.901	19.837	1.3519e-06	27.891	0.0011082	0.0011626	0.00032083	1225.9	1.2435e-05	1.2583e-05	1315.1	263.06	1.2378e-05	1.2503e-05	337.46	93.367	77.548	22.094	1.2438e-05	30.954	190.228	-68.143	-30.442	-155.833	50.336	-74.798	-156.190	-148.959	-30.414	40.480	-148.806	-143.072	-142.457	-135.357	61.879	-135.692	-8191	255	
1364.753	1	1	0	0	0.15842	0.17444	0.26818	0.086445	0.21357	0.14096	0.25319	0.11388	0.26558	0.089241	0.12279	0.192	0.14666	0.016953	0.21057	0.27832	-3.0292	-3.4437	-3.2938	-3.5729	-3.2	-3.4875	-3.3375	-3.3417	-3.4104	-3.3146	-3.2083	-3.6729	-3.2188	-3.6521	-3.4583	-3.225	-109.940	-2.649	-126.212	142.949	-118.995	83.679	168.510	-5.761	68.554	-114.912	-28.599	100.339	173.343	-2.479	82.928	22.497	0.00023869	0.00048504	0.00014716	1213.6	6.5926e-06	9.4072e-06	1305.2	251.92	5.4768e-06	1.2229e-05	310.37	87.83	70.969	19.97	3.6552e-06	28.084	0.0010853	0.0011442	0.00031942	1220.2	1.2695e-05	1.2668e-05	1315	262.87	1.2853e-05	1.2968e-05	337.62	93.943	77.863	22.222	1.2962e-05	31.163	-164.926	-121.451	-153.719	-155.734	1.984	-18.191	-156.155	-149.434	-153.727	-66.485	-149.050	-143.196	-142.303	-135.766	82.156	-135.907	-8191	255	
1364.849	1	1	0	0	0.092341	0.03621	0.14391	0.18017	0.11239	0.1628	0.23001	0.22816	0.08042	0.20445	0.10911	0.052345	0.033144	0.17831	0.10081	0.25198	-3.1208	-3.0729	-3.2875	-3.3396	-3.2229	-3.5875	-3.3875	-3.1896	-3.6396	-3.4229	-3.2917	-3.4458	-3.1083	-3.4375	-3.3792	-3.1771	17.953	141.238	84.866	79.164	-130.979	-39.000	150.749	-87.529	188.563	35.265	-10.212	101.267	145.487	26.239	-160.069	179.247	0.00028018	0.0006439	0.00011759	1218.3	3.2451e-06	4.726e-06	1310.5	252.28	2.2564e-06	4.4754e-06	312.69	87.555	71.009	20.049	3.9062e-06	28.126	0.0011126	0.0011745	0.00032585	1222.9	1.2662e-05	1.2783e-05	1316.1	262.51	1.2599e-05	1.2767e-05	337.92	93.748	77.595	22.196	1.2705e-05	31.124	-141.364	-68.672	66.704	-155.844	-128.849	44.984	-156.108	-149.154	-34.306	84.524	-149.347	-142.793	-142.386	-135.120	26.346	-136.227	-8191	255	
1364.945	1	1	0	0	0.15181	0.11548	0.11824	0.19947	0.27521	0.12381	0.37065	0.14628	0.050197	0.068145	0.033825	0.23091	0.016545	0.02053	0.11436	0.2242	-3.0833	-3.3646	-3.2979	-3.7104	-3.1396	-3.3271	-3.55	-3.2875	-3.5542	-3.2562	-3.2146	-3.5667	-3.0667	-3.3896	-3.3354	-3.0625	-73.355	-98.670	-135.857	-153.776	82.152	-5.292	124.470	171.173	-114.061	153.040	-130.416	-165.082	-109.813	83.796	101.116	151.181	0.00029792	0.00053363	0.00012801	1217.6	6.7508e-06	6.0498e-06	1320.8	251.69	1.7707e-06	7.4763e-06	309.6	87.802	70.936	20.069	8.3091e-06	27.983	0.0010943	0.0011486	0.00031878	1221.5	1.2523e-05	1.266e-05	1328.7	262.4	1.258e-05	1.2685e-05	336.81	93.689	77.752	22.192	1.2565e-05	31.081	175.446	28.061	162.974	-155.897	-70.618	-43.719	-156.064	-149.119	-95.111	111.513	-149.340	-142.851	-142.920	-135.585	-21.516	-136.234	-8191	255	
1365.041	1	1	0	0	0.11341	0.1133	0.072515	0.24161	0.058133	0.17888	0.45965	0.19801	0.15798	0.046286	0.24065	0.09887	0.043238	0.12601	0.087898	0.15097	-2.9375	-3.2458	-3.2271	-3.6729	-3.0312	-3.4917	-3.4979	-3.0854	-3.5	-3.2229	-3.1104	-3.6125	-3.2792	-3.2188	-3.475	-3.4208	5.460	-75.483	173.290	179.286	180.143	78.011	164.458	138.610	14.894	-146.238	81.648	-99.560	-56.401	97.951	138.842	186.342	0.00022202	0.00062412	0.00016076	1216.1	8.5287e-06	6.8577e-06	1295.4	252.87	8.4445e-06	1.0332e-05	311.72	87.748	70.944	19.94	3.2098e-06	27.639	0.001081	0.0011511	0.00031961	1219.4	1.243e-05	1.2682e-05	1304	262.83	1.2669e-05	1.278e-05	337.39	93.827	77.692	22.183	1.2868e-05	31.111	177.485	-98.840	-127.946	-155.767	-110.852	18.333	-155.663	-149.320	14.342	-101.057	-149.281	-142.864	-142.710	-135.273	88.671	-135.276	-8191	255	
1365.162	1	1	0	0	0.21156	0.14362	0.18535	0.23222	0.13275	0.27297	0.18658	0.053372	0.09035	0.069907	0.12098	0.14198	0.0057769	0.023684	0.11755	0.13739	-2.8667	-3.2188	-3.1708	-3.6042	-3.0979	-3.4188	-3.5333	-3.1042	-3.4083	-3.2562	-3.0979	-3.5625	-3.125	-3.3833	-3.65	-2.9562	-9.500	-149.454	-149.410	138.024	5.825	75.843	126.347	-122.796	19.287	-0.124	150.679	96.477	-120.364	-65.857	-139.274	155.638	0.00024649	0.0011927	0.00012994	1210.4	8.537e-06	7.221e-06	1323.4	250.7	1.4949e-05	1.0128e-05	311.2	87.495	70.937	19.933	4.0727e-06	27.869	0.0011108	0.0011771	0.00033028	1219.3	1.2976e-05	1.3174e-05	1333.3	262.83	1.3116e-05	1.3134e-05	338.47	93.954	77.88	22.271	1.3072e-05	31.1	-156.716	-48.908	153.413	-155.905	72.211	-68.722	-155.962	-149.282	-61.560	109.420	-149.502	-142.819	-142.838	-135.223	-64.121	-135.768	-8191	255	
1365.258	1	1	0	0	0.1927	0.061357	0.1698	0.25791	0.14439	0.13612	0.17411	0.16577	0.08017	0.09694	0.14451	0.16174	0.12092	0.18919	0.26355	0.1907	-2.7562	-3.2604	-2.8729	-3.625	-3.2979	-3.3667	-3.5771	-3.2625	-3.3833	-3.3979	-2.9792	-3.5771	-3.1917	-3.2375	-3.3583	-3.3688	-36.702	-138.826	189.486	-144.667	63.351	173.617	98.250	100.565	31.339	-105.856	35.505	-101.350	-35.140	146.121	-131.824	123.740	0.00030552	0.000271	0.00025121	1214.9	9.7016e-06	4.6925e-06	1300.7	252.52	9.9222e-06	6.7514e-06	312.3	88.154	70.996	20.018	6.0636e-06	27.821	0.0011303	0.0011916	0.00033263	1222.9	1.3e-05	1.3015e-05	1312.4	263.12	1.2984e-05	1.3071e-05	338.65	93.937	77.696	22.248	1.2834e-05	31.093	-165.513	-120.614	-60.755	-155.895	-33.729	32.761	-155.649	-149.439	-48.987	-27.251	-148.899	-143.022	-142.430	-135.136	55.441	-136.394	-8191	255	
1365.330	1	1	0	0	0.13775	0.23156	0.07101	0.19175	0.13859	0.31909	0.37994	0.1219	0.18463	0.07674	0.092442	0.099515	0.089543	0.34395	0.36403	0.24619	-3.0104	-3.3479	-3.0917	-3.4396	-3.3979	-3.2021	-3.5438	-3.025	-3.3333	-3.5646	-3.2833	-3.5354	-3.4813	-3.2229	-3.3708	-3.3563	-147.985	2.030	125.121	133.909	-37.045	40.976	117.171	-144.120	-146.822	-59.003	161.420	-108.928	-19.574	140.903	54.952	39.536	0.0002491	0.0013327	0.00018997	1214.2	4.4156e-06	1.3575e-05	1296.5	252.59	6.5069e-06	3.4606e-06	313.81	87.082	71.475	19.957	5.2238e-06	28.005	0.0011096	0.0011805	0.00032729	1222.4	1.2982e-05	1.3023e-05	1309.3	263.87	1.3022e-05	1.3226e-05	339.51	93.961	78.289	22.259	1.3319e-05	31.332	-152.001	-140.022	6.205	-155.920	33.606	18.063	-155.571	-149.199	-70.704	35.006	-148.859	-142.627	-142.602	-135.247	-72.390	-136.050	-8191	255	
1365.426	1	1	0	0	0.12363	0.052385	0.044677	0.2039	0.19762	0.093458	0.1108	0.10779	0.044011	0.089965	0.41684	0.1007	0.18854	0.30066	0.13846	0.050118	-2.9542	-3.3812	-3.2646	-3.6	-3.475	-3.1875	-3.4854	-3.3354	-3.3333	-3.5958	-3.1562	-3.3417	-3.3542	-3.2313	-3.5	-3.2646	-116.098	25.580	-121.771	187.390	-13.367	84.042	126.027	-74.277	112.240	99.634	158.815	145.486	28.524	186.248	-55.472	-144.276	0.00017371	0.0003361	0.00011827	1220.2	2.2141e-06	4.014e-06	1330.5	254.09	1.5787e-06	1.0061e-05	310.65	87.916	71.236	20.022	2.334e-06	27.806	0.0011538	0.0012225	0.00034163	1230.8	1.3282e-05	1.3503e-05	1338	264.9	1.3332e-05	1.3449e-05	339.31	94.267	78.28	22.347	1.3125e-05	31.21	-160.892	-31.807	-154.941	-156.075	-28.104	-89.807	-156.069	-149.631	52.604	-94.453	-149.438	-143.151	-142.355	-135.286	-78.273	-136.041	-8191	255	
1365.545	1	1	0	0	0.096043	0.30043	0.095854	0.10695	0.1415	0.12767	0.29397	0.26396	0.0065682	0.098347	0.035179	0.16893	0.11753	0.11254	0.075923	0.079256	-2.8479	-3.4792	-3.0542	-3.5833	-3.3104	-3.1729	-3.8438	-3.3125	-3.0833	-3.4479	-3.3458	-3.3063	-3.4104	-3.3271	-3.5021	-3.3917	143.276	-100.011	-8.029	106.089	-38.997	-139.378	96.916	153.563	16.575	7.663	-36.975	-164.276	129.122	-128.630	-42.435	115.207	0.00024954	0.0010613	0.00017424	1220	9.2599e-06	9.8953e-06	1362.2	254.42	5.3194e-06	4.55e-06	313.12	87.976	71.356	20.044	1.1852e-05	28.121	0.0011358	0.0012021	0.00033487	1230.6	1.3062e-05	1.3153e-05	1372.9	264.16	1.309e-05	1.314e-05	340.33	94.303	78.384	22.323	1.3259e-05	31.336	-135.853	-102.311	4.796	-156.024	-88.602	-27.936	-156.200	-149.172	-23.723	176.447	-149.433	-142.664	-142.627	-135.094	9.499	-136.191	-8191	255	
1365.641	1	1	0	0	0.13832	0.10463	0.047321	0.24897	0.14348	0.1086	0.38205	0.12269	0.20123	0.20821	0.09416	0.13691	0.049551	0.056909	0.3394	0.15224	-2.9188	-3.6583	-3.2167	-3.4208	-3.5563	-3.2812	-3.5	-3.5396	-3.2083	-3.4104	-3.1021	-3.3708	-3.6729	-3.0042	-3.3833	-3.3708	-110.253	-155.190	122.481	177.737	-49.340	-10.993	169.399	61.356	-89.995	160.093	-85.772	175.683	90.207	-85.707	-24.235	69.338	0.00031179	0.00026564	0.00020031	1225.3	6.963e-06	3.0412e-06	1353.4	252.7	9.3406e-06	8.2088e-06	314.27	88.248	71.436	20.123	3.8847e-06	27.929	0.0011393	0.0012044	0.00033569	1231.7	1.3104e-05	1.3443e-05	1363.2	264.3	1.3282e-05	1.3413e-05	340.71	94.364	78.348	22.362	1.3313e-05	31.305	189.264	50.961	-19.858	-155.783	-144.404	-98.992	-156.161	-149.699	-61.870	4.122	-148.934	-143.245	-142.806	-135.495	-98.526	-135.744	-8191	255	
1365.737	1	1	0	0	0.18925	0.13658	0.023905	0.2645	0.034754	0.091073	0.38897	0.044766	0.13932	0.10925	0.14941	0.087214	0.079595	0.10652	0.040642	0.11149	-2.7979	-3.5396	-3.2583	-3.4125	-3.6167	-3.1646	-3.6396	-3.4375	-3.3917	-3.525	-3.4917	-3.0875	-3.3563	-3.1021	-3.4125	-3.6396	91.594	170.209	44.671	166.291	-60.110	158.125	97.661	-88.557	164.065	183.992	-91.167	58.299	67.687	152.407	-23.171	128.761	8.8619e-05	0.00021623	7.1428e-05	1222.6	5.9646e-06	1.044e-05	1351.8	252.63	6.2257e-06	2.3634e-06	312.84	88.55	71.48	20.11	5.7982e-06	27.954	0.0011607	0.0012229	0.00033855	1231.9	1.348e-05	1.3521e-05	1358.6	265	1.3549e-05	1.364e-05	341.43	94.903	78.72	22.49	1.3689e-05	31.397	-163.213	143.466	186.425	-155.936	-157.397	188.190	-156.068	-149.512	186.457	-137.231	-149.224	-143.218	-142.650	-135.404	60.767	-135.877	-8191	255	
1365.833	1	1	0	0	0.14899	0.057776	0.24148	0.21869	0.1584	0.15943	0.18687	0.30594	0.11086	0.26475	0.18644	0.12654	0.16439	0.029335	0.049355	0.21532	-2.6042	-3.4625	-3.3396	-3.2667	-3.1792	-3.2229	-3.5854	-3.5417	-3.0479	-3.35	-3.2188	-3.2354	-3.625	-3.1771	-3.3479	-3.3521	98.780	167.191	152.728	144.978	-107.757	-137.927	112.655	75.222	17.803	164.710	49.366	118.319	-153.325	122.959	8.815	-65.950	0.00027864	0.00095161	0.00023267	1225.1	3.3213e-06	1.0899e-05	1345.6	254.02	1.1219e-06	6.5603e-06	312.62	88.128	71.826	20.009	2.0998e-06	28.058	0.0011754	0.001249	0.00034721	1236	1.3651e-05	1.3774e-05	1359.2	265.77	1.3738e-05	1.3794e-05	342.18	94.884	78.997	22.481	1.3845e-05	31.485	-136.667	-148.683	-143.280	-155.998	-105.820	37.707	-156.187	-149.428	-118.758	88.087	-149.275	-142.916	-142.489	-135.230	121.281	-136.108	-8191	255	
1365.929	1	1	0	0	0.20601	0.2863	0.16209	0.49162	0.011997	0.12589	0.13817	0.15137	0.064848	0.15163	0.058325	0.08838	0.28762	0.09337	0.039692	0.13363	-2.775	-3.4437	-3.1312	-3.1896	-3.3979	-3.2479	-3.5062	-3.6792	-3.0021	-3.3646	-3.45	-3.2708	-3.3875	-3.1396	-3.3083	-3.5292	-29.652	110.891	177.611	167.626	123.561	8.269	132.701	136.626	-85.338	31.058	133.875	128.397	138.851	156.117	-62.261	-135.338	0.00017205	0.00088857	4.2468e-05	1227.3	4.9268e-06	2.8366e-06	1343.8	253.4	9.8804e-06	7.1981e-06	314.3	87.794	71.629	19.962	2.9384e-06	28.067	0.0011935	0.0012595	0.00034925	1236.5	1.3763e-05	1.3811e-05	1358.3	266.5	1.3961e-05	1.4092e-05	343.89	94.982	79.299	22.55	1.4147e-05	31.702	-167.113	166.792	187.212	-155.971	21.457	-112.502	-156.308	-149.372	-77.496	-109.043	-149.518	-142.643	-142.449	-135.722	36.130	-135.837	-8191	255	
1366.026	1	1	0	0	0.11512	0.1417	0.13485	0.29827	0.1891	0.067663	0.25153	0.046412	0.20122	0.1109	0.1933	0.08472	0.21775	0.33482	0.040959	0.24668	-2.6167	-3.4	-3.4917	-3.35	-3.3646	-3.1125	-3.4938	-3.7146	-3.1104	-3.3542	-3.5312	-3.2042	-3.5167	-3.2354	-3.1208	-3.5271	-148.102	106.779	-69.583	147.234	-34.255	53.346	184.163	1.213	111.513	-35.703	-146.961	11.726	-122.603	-61.738	56.276	155.094	0.00022747	0.0004679	7.0706e-05	1229.1	3.7491e-07	3.2812e-06	1352.5	253.98	8.761e-06	8.3767e-06	313.5	88.562	71.715	20.061	8.9261e-06	28.208	0.0012248	0.0012922	0.00036059	1241	1.4003e-05	1.4153e-05	1362.9	266.87	1.409e-05	1.4058e-05	345.05	95.269	79.219	22.602	1.4046e-05	31.591	-153.799	-115.564	186.533	-155.792	-158.849	4.102	-156.317	-149.429	-56.065	72.038	-149.025	-143.354	-142.876	-135.666	-81.485	-135.650	-8191	255	
1366.122	1	1	0	0	0.1279	0.24361	0.2492	0.17965	0.39668	0.22058	0.21273	0.26124	0.061626	0.098951	0.057325	0.075959	0.13694	0.10872	0.071408	0.26429	-2.8312	-3.1979	-3.3667	-3.2833	-3.4854	-3.475	-3.3417	-3.5042	-3.2313	-3.1896	-3.5729	-3.225	-3.3333	-3.2604	-3.1063	-3.6146	99.941	-83.240	121.769	148.487	72.752	18.834	131.284	125.646	-3.576	-114.549	45.036	154.159	97.016	120.821	-84.179	137.819	0.00026874	0.0011553	8.8717e-05	1232.9	4.483e-06	7.6611e-06	1349.5	252.54	3.466e-06	1.5337e-05	314.56	88.302	72.262	19.987	5.8729e-06	28.087	0.0012123	0.0012821	0.00035814	1242.5	1.4123e-05	1.4232e-05	1362.9	266.42	1.4087e-05	1.4278e-05	344.63	95.159	79.564	22.627	1.4348e-05	31.794	-148.468	-55.186	-35.208	-156.009	-161.777	-6.407	-156.286	-149.537	-18.604	-74.416	-149.093	-143.076	-142.548	-135.441	36.803	-135.900	-8191	255	
1366.242	1	1	0	0	0.079897	0.19783	0.094027	0.34894	0.25159	0.18309	0.20364	0.14681	0.057276	0.19883	0.043631	0.30375	0.39721	0.23456	0.071149	0.15414	-2.8542	-3.0458	-3.3417	-3.3208	-3.4313	-3.3812	-2.9667	-3.6146	-3.5938	-3.3563	-3.4938	-3.2792	-3.2896	-3.2542	-3.175	-3.5625	-21.461	114.323	-40.496	98.368	-71.253	-21.599	119.949	180.432	-67.143	91.176	-3.481	99.343	98.224	-71.948	179.308	-42.890	0.00026672	0.00017106	0.00026951	1237.4	1.6281e-06	6.8148e-06	1354.2	253.37	2.1791e-06	3.7041e-06	313.15	88.309	71.458	20.053	8.5162e-06	28.37	0.0012446	0.0013098	0.00036945	1246.6	1.4321e-05	1.4536e-05	1368.2	267.67	1.424e-05	1.4361e-05	344.49	95.278	79.324	22.602	1.4112e-05	31.773	-149.167	-19.001	-53.619	-156.013	2.956	-56.586	-156.360	-149.343	-65.397	-69.404	-149.107	-142.985	-142.919	-135.478	-3.903	-135.705	-8191	255	
1366.339	1	1	0	0	0.18388	0.099624	0.21627	0.15654	0.16726	0.22292	0.28521	0.15071	0.1189	0.12112	0.18127	0.13659	0.16192	0.13854	0.15641	0.31801	-2.6437	-3.0521	-3.5604	-3.4021	-3.2583	-3.3479	-3.4333	-3.5958	-3.1208	-3.1396	-3.6312	-3.2375	-3.3583	-3.5958	-3.0604	-3.5729	-92.577	-91.842	171.831	-107.852	86.341	-150.415	124.515	-141.913	-100.023	94.256	153.537	81.364	-2.178	-138.398	-108.933	145.199	0.00024663	0.0010963	0.0001412	1235	7.3335e-06	1.6702e-05	1354.8	254.88	9.2588e-06	6.3435e-06	314.01	88.882	71.497	20.026	5.1314e-06	28.165	0.0012176	0.0012875	0.00035773	1243.4	1.4055e-05	1.4231e-05	1367.7	267.72	1.4307e-05	1.4448e-05	345.06	95.531	79.481	22.673	1.4438e-05	31.786	-155.889	-3.922	-90.878	-155.788	-53.121	-24.658	-156.294	-149.299	-108.014	-16.542	-148.958	-143.038	-142.410	-135.698	-62.287	-135.868	-8191	255	
1366.435	1	1	0	0	0.20437	0.17357	0.070966	0.19153	0.092154	0.26918	0.021783	0.097459	0.39288	0.026747	0.046318	0.12492	0.15267	0.087652	0.12841	0.14425	-2.85	-3.1729	-3.5729	-3.1979	-3.1917	-3.5854	-3.475	-3.3729	-3.3812	-3.1979	-3.5271	-3.3292	-3.225	-3.4729	-3.1979	-3.5062	104.900	-72.179	80.976	125.983	189.972	-164.387	-113.664	-42.306	-2.409	27.394	168.676	190.294	50.306	-102.013	-94.324	-133.068	0.00025408	0.0014575	0.00011887	1235.8	1.0314e-05	7.553e-06	1363.1	254.43	6.3191e-06	1.0067e-05	316.35	89.092	72.088	20.166	5.165e-06	28.187	0.0012527	0.0013278	0.00036959	1245.6	1.4336e-05	1.4495e-05	1372.8	268.34	1.4408e-05	1.4442e-05	346.17	95.767	79.527	22.654	1.4112e-05	31.759	-143.599	-65.257	144.549	-155.998	-62.147	187.831	-156.074	-149.730	-127.496	183.841	-149.460	-143.113	-142.953	-135.254	-55.660	-135.957	-8191	255	
1366.554	1	1	0	0	0.22996	0.16236	0.18296	0.084425	0.31386	0.0337	0.33096	0.21551	0.11067	0.043199	0.21478	0.10301	0.10715	0.21385	0.059602	0.1341	-2.7875	-3.0729	-3.5104	-3.4979	-3.2979	-3.4396	-3.4771	-3.4417	-3.4729	-3.0667	-3.4021	-3.5125	-3.1708	-3.3729	-3.0958	-3.3937	98.503	-3.947	4.126	31.118	89.885	137.773	121.211	99.665	3.405	-127.371	-136.568	33.796	40.704	-114.486	44.508	119.001	0.00031894	0.0006853	6.6911e-05	1239.8	2.5911e-06	7.2095e-06	1364.5	254.07	5.29e-06	1.1413e-05	316.66	88.573	72.017	20.241	7.5959e-06	28.041	0.0012345	0.0012999	0.0003637	1247.6	1.4301e-05	1.4527e-05	1377.8	267.72	1.4411e-05	1.4574e-05	346.02	95.563	79.902	22.793	1.4777e-05	31.847	180.606	-69.642	170.227	-155.912	110.270	166.436	-156.186	-149.552	74.602	-93.063	-149.349	-143.102	-142.922	-135.694	-130.571	-136.072	-8191	255	
1366.625	1	1	0	0	0.14209	0.30634	0.22652	0.27159	0.17824	0.040466	0.32107	0.11978	0.090339	0.22264	0.062888	0.18	0.23827	0.28202	0.14311	0.25746	-3.1979	-3.1958	-3.4917	-3.475	-2.9292	-3.4229	-3.3875	-3.3104	-3.4917	-3.1104	-3.6	-3.3896	-3.0479	-3.5333	-3.2396	-3.4813	79.397	130.871	22.132	-163.099	141.435	76.169	133.506	150.896	55.802	-44.789	-59.866	64.606	83.636	-151.888	43.017	165.731	0.00018864	0.00080133	0.00016573	1240.7	8.9235e-07	8.5278e-06	1374.1	254.96	1.0661e-05	1.1954e-05	314.03	88.627	72.076	20.154	6.1883e-06	28.245	0.0012638	0.0013216	0.00037261	1249.8	1.4442e-05	1.4698e-05	1386.7	268.26	1.4438e-05	1.4504e-05	346.22	95.596	79.645	22.664	1.4349e-05	31.773	-158.985	27.623	-74.255	-156.094	100.922	62.956	-156.069	-149.378	-101.330	76.306	-149.240	-143.113	-142.818	-135.737	-28.606	-136.150	-8191	255	
1366.721	1	1	0	0	0.15218	0.028714	0.1409	0.076472	0.16853	0.19561	0.2527	0.12972	0.17905	0.13759	0.11392	0.13424	0.1019	0.16727	0.21798	0.1983	-3.0187	-3.0604	-3.4458	-3.5312	-2.9604	-3.6354	-3.425	-3.0146	-3.5604	-3.1667	-3.3583	-3.3229	-3.1833	-3.3792	-3.2104	-3.2896	-73.920	-151.011	16.042	173.776	145.482	59.664	135.310	106.939	-164.201	45.059	-165.326	103.164	158.186	-127.790	-39.009	-82.998	0.00022938	0.00055396	0.00023817	1231.3	9.0462e-06	1.501e-05	1353.8	253.87	7.6608e-06	6.5261e-06	313.41	88.453	71.515	20.244	1.111e-05	27.972	0.0012352	0.0013079	0.00036571	1246.3	1.4351e-05	1.4573e-05	1370.4	268.56	1.4559e-05	1.4732e-05	346.6	95.788	79.923	22.829	1.4759e-05	31.85	182.418	-33.335	-9.181	-156.044	-46.380	142.810	-156.128	-149.713	-43.237	-99.075	-149.548	-143.304	-142.580	-135.989	84.111	-135.535	-8191	255	
1366.842	1	1	0	0	0.22361	0.24596	0.27804	0.19084	0.18222	0.093646	0.33394	0.18634	0.082214	0.12698	0.22138	0.18966	0.19592	0.1719	0.044794	0.077182	-3.1021	-3.0312	-3.0854	-3.475	-3.225	-3.4479	-3.6125	-3.4771	-3.4354	-3.2708	-3.3021	-3.4083	-3.2083	-3.6042	-3.2167	-3.125	-56.964	76.729	-48.952	-147.929	-110.073	5.651	137.178	95.661	144.980	-58.132	155.638	189.001	76.400	-144.734	104.331	163.265	0.0002754	0.00034806	0.00023329	1240.7	2.433e-06	2.7047e-06	1384.3	254.56	1.5794e-06	3.1983e-06	314.65	88.924	71.62	20.144	1.0846e-05	28.089	0.0012785	0.0013413	0.00037473	1251.5	1.4608e-05	1.4749e-05	1397.1	268.69	1.4672e-05	1.4751e-05	347.18	96.022	79.864	22.752	1.4709e-05	31.964	-150.881	-92.449	-52.406	-156.001	142.452	4.178	-156.195	-149.715	-127.910	-149.834	-148.859	-143.033	-142.763	-135.589	40.621	-135.947	-8191	255	
1366.938	1	1	0	0	0.23973	0.20028	0.16929	0.086117	0.095001	0.12539	0.34931	0.23882	0.33038	0.26175	0.17027	0.010188	0.16241	0.19346	0.19221	0.2149	-3.0125	-3.3396	-3.3104	-3.4813	-3.1688	-3.5792	-3.2938	-3.1646	-3.6417	-3.2167	-3.1792	-3.4396	-3.1063	-3.4833	-3.4292	-3.0208	-152.153	190.564	-26.399	-163.372	-165.516	27.053	102.118	-86.058	50.760	75.432	69.310	127.492	-147.549	-147.890	-37.190	160.302	0.00023981	0.00023075	0.00011293	1239.4	9.6408e-06	2.7258e-06	1349.2	255.01	6.9172e-06	5.591e-06	315.11	89.243	72.151	20.142	4.7856e-06	28.237	0.0012661	0.0013462	0.00037305	1251.8	1.463e-05	1.4844e-05	1365	269.35	1.4996e-05	1.513e-05	349.75	96.281	80.445	22.905	1.5171e-05	32.073	-161.305	17.054	-20.012	-155.936	45.590	53.616	-156.335	-149.206	-68.530	-97.299	-149.252	-143.108	-142.820	-135.575	59.706	-135.860	-8191	255	
1367.034	1	1	0	0	0.19831	0.19661	0.2198	0.3075	0.334	0.1243	0.20945	0.21731	0.14098	0.11496	0.13476	0.39928	0.13278	0.16597	0.16705	0.1116	-3.1833	-3.1979	-3.3083	-3.7021	-3.2313	-3.5875	-3.5354	-3.1562	-3.55	-3.3729	-3.2125	-3.4542	-3.0792	-3.5104	-3.4208	-3.0938	98.786	-51.585	-129.501	148.230	20.852	128.463	94.421	71.207	13.415	67.215	-73.343	88.097	10.676	154.784	64.143	-160.008	0.00015742	0.00064582	0.0002066	1243.6	3.2328e-06	7.3459e-06	1377	254.92	1.4091e-05	6.8426e-06	317.57	89.255	71.781	20.11	1.0553e-05	28.449	0.0013095	0.0013754	0.00038429	1254.8	1.509e-05	1.5375e-05	1396	270.35	1.532e-05	1.5479e-05	351.25	96.647	80.569	22.956	1.5581e-05	32.232	-121.368	-102.408	-84.302	-155.894	-38.272	-58.033	-156.085	-149.314	-105.671	-66.178	-149.363	-143.154	-142.803	-135.787	-10.664	-135.884	-8191	255	
1367.130	1	1	0	0	0.081609	0.13537	0.098395	0.15312	0.19631	0.24545	0.32999	0.12981	0.16153	0.1279	0.11385	0.14483	0.25008	0.15412	0.11943	0.056824	-2.9271	-3.1167	-3.2646	-3.8521	-3.2604	-3.4625	-3.6417	-3.3042	-3.3688	-3.2833	-3.325	-3.625	-3.3083	-3.2521	-3.5896	-3.2229	95.101	-141.052	47.219	111.237	-160.975	22.516	103.441	47.677	-12.641	26.478	-119.824	-132.296	-51.296	-68.264	145.160	-93.870	0.00036439	0.0017821	7.1002e-05	1247	8.2726e-06	1.31e-05	1339.5	256.27	6.9619e-06	1.6992e-06	315.55	89.581	72.379	20.177	4.2746e-06	27.958	0.0013493	0.0014238	0.00039401	1260.6	1.5404e-05	1.5679e-05	1356.9	270.87	1.5508e-05	1.559e-05	350.89	96.894	80.635	22.957	1.5544e-05	32.141	-164.067	-134.662	185.806	-155.891	-132.903	-46.309	-156.099	-149.253	-62.143	72.182	-149.255	-143.246	-143.008	-135.739	-35.209	-136.033	-8191	255	
1367.227	1	1	0	0	0.13771	0.043506	0.29096	0.077976	0.25096	0.025473	0.20911	0.02979	0.096694	0.20316	0.038078	0.16319	0.17148	0.10805	0.26955	0.17516	-3.0646	-3.0875	-3.0354	-3.5583	-3.2458	-3.2667	-3.5458	-3.1958	-3.4396	-3.3146	-3.2812	-3.5521	-3.1521	-3.1833	-3.5792	-3.3021	-138.995	-79.849	99.826	157.045	40.914	64.859	168.983	61.513	170.116	99.325	-123.134	100.997	-76.184	158.179	173.258	-69.983	0.00026803	0.00067698	0.00024015	1242	3.2241e-06	2.0927e-06	1373.4	256.1	3.1967e-06	7.7157e-06	316.25	88.585	71.909	20.319	4.9741e-06	28.16	0.0013269	0.0014105	0.00039109	1259.6	1.5462e-05	1.5737e-05	1390.5	271.24	1.5808e-05	1.585e-05	352.58	96.912	80.897	23.146	1.5937e-05	32.334	-146.716	-133.127	11.008	-156.210	-136.031	131.727	-156.176	-149.498	178.712	-65.643	-149.289	-143.030	-142.727	-135.474	13.873	-136.076	-8191	255	
1367.323	1	1	0	0	0.22779	0.084365	0.14017	0.2411	0.1459	0.2518	0.14919	0.1366	0.096974	0.066844	0.1387	0.19312	0.097956	0.13872	0.12106	0.42076	-2.9688	-3.3833	-3.3187	-3.5687	-3.1083	-3.4062	-3.7354	-3.0625	-3.3187	-3.5583	-3.2812	-3.5	-3.2313	-3.2479	-3.525	-3.3583	120.507	97.296	-90.011	186.753	-95.674	20.289	68.607	116.804	-13.664	117.003	114.899	-114.434	-164.808	119.902	105.604	138.801	0.00026559	0.00036712	0.00010303	1245	1.5419e-06	2.0584e-05	1361.9	257.1	5.2114e-06	1.0734e-05	315.92	89.136	72.092	20.086	4.8756e-06	28.079	0.0013757	0.0014389	0.00040281	1262.1	1.5694e-05	1.578e-05	1381.9	271.54	1.5686e-05	1.5806e-05	352.08	96.916	80.827	23.062	1.5841e-05	32.268	-164.550	-59.739	-76.185	-156.081	2.748	-12.194	-156.147	-149.338	27.794	-66.331	-149.262	-143.170	-142.813	-135.852	34.660	-135.912	-8191	255	
1367.419	1	1	0	0	0.1831	0.38226	0.083489	0.37538	0.053157	0.14582	0.15555	0.21343	0.19156	0.046371	0.11237	0.19304	0.051045	0.12305	0.18293	0.044208	-2.8021	-3.2333	-3.0542	-3.7521	-3.2875	-3.0542	-3.7313	-3.2479	-3.3854	-3.4313	-3.1854	-3.3063	-3.4188	-3.2292	-3.4875	-3.2167	-133.932	95.446	114.925	160.457	109.915	-160.602	7.856	46.926	146.995	-151.281	90.466	102.173	-6.259	81.483	183.303	38.703	0.00021705	0.00098397	0.00010932	1248	8.0374e-07	5.4159e-06	1371.3	256.79	8.4933e-07	1.6337e-06	316.71	89.699	72.183	20.132	5.2966e-06	28.162	0.0013701	0.001455	0.00040677	1263	1.5861e-05	1.6035e-05	1390.4	271.97	1.5901e-05	1.604e-05	352.41	97.181	81.052	23.05	1.5993e-05	32.238	191.455	-133.239	53.334	-155.895	-25.249	47.263	-156.136	-149.423	-72.879	153.135	-149.328	-143.007	-142.636	-135.322	-68.516	-136.201	-8191	255	
1367.515	1	1	0	0	0.24777	0.13124	0.098291	0.1532	0.090229	0.17367	0.26047	0.34563	0.088199	0.081081	0.19243	0.089642	0.15874	0.34442	0.17921	0.064438	-2.9896	-3.5	-3.0417	-3.525	-3.5333	-3.2646	-3.6333	-3.3854	-3.3958	-3.3896	-3.1896	-3.4437	-3.5292	-3.1979	-3.4396	-3.2854	109.687	167.889	-74.757	91.674	47.929	-36.782	135.847	131.187	-120.078	31.218	21.008	92.588	68.495	-28.132	-157.062	166.532	0.00019452	0.00060384	0.0002083	1244.7	8.268e-06	2.2187e-06	1372.9	255.95	9.0351e-06	2.7755e-06	314.69	89.073	72.2	20.198	6.179e-06	28.418	0.0013838	0.0014714	0.00041212	1262.6	1.6049e-05	1.6368e-05	1392.5	272.64	1.6053e-05	1.6157e-05	352.91	96.994	80.979	23.098	1.5888e-05	32.399	-159.960	-104.067	-90.258	-156.035	-33.205	-12.574	-156.186	-149.385	-154.850	-17.212	-149.121	-143.176	-142.513	-135.274	-128.122	-135.375	-8191	255	
1367.634	1	1	0	0	0.14878	0.25424	0.11204	0.33201	0.10325	0.15695	0.24256	0.33525	0.20274	0.18224	0.14664	0.12659	0.10758	0.1578	0.13569	0.057554	-2.925	-3.2562	-3.1146	-3.5146	-3.3542	-3.2188	-3.5792	-3.2083	-3.2604	-3.4625	-3.0312	-3.4417	-3.6625	-3.3396	-3.4938	-3.275	84.106	-36.930	131.780	157.143	-33.102	-125.364	110.442	188.840	-135.711	-85.917	-119.660	88.954	-70.578	-67.961	68.816	-124.952	0.00030461	0.00066917	0.00028029	1247.5	6.7429e-06	6.1058e-06	1386.9	255.09	4.3403e-06	2.31e-06	316.86	88.563	71.937	20.319	7.4639e-06	28.203	0.001361	0.0014398	0.00039699	1263.8	1.5601e-05	1.5757e-05	1409.5	271.71	1.5563e-05	1.5658e-05	350.93	96.72	80.5	22.945	1.5224e-05	32.052	-164.373	-32.877	153.502	-155.904	-54.933	20.675	-156.271	-149.336	192.585	40.982	-149.277	-142.879	-142.784	-135.489	141.179	-136.255	-8191	255	
1367.730	1	1	0	0	0.23801	0.16961	0.22666	0.19693	0.21887	0.20777	0.26763	0.26844	0.16156	0.38177	0.20756	0.13633	0.22911	0.049679	0.081982	0.24544	-2.7604	-3.575	-3.2854	-3.4021	-3.5417	-3.3271	-3.6771	-3.4917	-3.1625	-3.2396	-3.1583	-3.425	-3.675	-3.2771	-3.3667	-3.425	149.440	121.144	144.154	169.000	49.894	-83.338	139.139	141.093	-61.451	111.435	157.261	157.763	142.111	53.207	-18.387	145.735	0.00021673	0.00022842	0.00038909	1239.3	2.6131e-06	1.7739e-05	1381.6	256.13	4.7865e-06	2.2226e-06	315.68	89.3	72.528	20.021	7.3276e-06	28.177	0.0013081	0.0013931	0.00038514	1254.5	1.515e-05	1.5207e-05	1398.7	269.93	1.5132e-05	1.5185e-05	348.96	96.354	80.181	22.808	1.4945e-05	32.018	182.263	-12.496	-117.990	-155.994	-18.334	-76.710	-155.982	-149.793	-111.769	-8.272	-149.202	-142.907	-142.893	-135.853	-158.757	-135.549	-8191	255	
1367.826	1	1	0	0	0.30372	0.17158	0.17568	0.07153	0.23924	0.10958	0.32096	0.39053	0.16428	0.16996	0.10427	0.083968	0.10155	0.1858	0.15348	0.18555	-2.825	-3.2375	-3.1917	-3.2958	-3.5312	-3.1042	-3.6	-3.4646	-3.0583	-3.3583	-3.3292	-3.3833	-3.7125	-3.1729	-3.1562	-3.3458	-138.575	-42.483	188.045	-159.284	-135.126	-106.162	140.634	-149.309	-76.202	-69.917	-114.026	118.229	111.824	-146.481	83.160	138.418	0.00023433	0.00056384	7.8418e-05	1240.3	3.4914e-06	7.4234e-06	1387.8	256.46	4.8513e-06	1.093e-05	314.44	89.234	71.515	20.101	2.4729e-06	28.205	0.0012934	0.001367	0.00038373	1255.1	1.5011e-05	1.5117e-05	1404.1	270.4	1.5118e-05	1.5281e-05	349.22	96.395	80.25	22.897	1.515e-05	32.009	175.872	-142.843	-107.272	-155.992	-118.841	-0.451	-156.105	-149.520	-50.982	-38.925	-149.201	-143.385	-142.710	-135.094	-121.511	-135.936	-8191	255	
1367.922	1	1	0	0	0.031822	0.22601	0.11996	0.11906	0.19073	0.13779	0.16663	0.068069	0.024302	0.10236	0.095578	0.18816	0.10758	0.21738	0.18847	0.22798	-2.5542	-3.4979	-3.4	-3.4833	-3.325	-3.1542	-3.5563	-3.4062	-3.0271	-3.7521	-3.4375	-3.3083	-3.55	-2.9813	-3.4208	-3.75	100.788	-85.167	-50.182	149.670	-146.841	-146.495	103.737	159.751	145.655	-115.057	146.437	154.383	-125.009	-43.948	-47.520	133.011	0.00024692	0.00052133	0.00017507	1237.2	6.4813e-06	6.4714e-06	1383.9	255.43	5.1409e-06	3.7482e-06	315.92	88.975	72.365	20.114	4.408e-06	28.124	0.0013104	0.0013737	0.00038344	1252.6	1.5076e-05	1.5198e-05	1399.7	270	1.5081e-05	1.514e-05	349.2	96.192	80.109	22.798	1.4751e-05	31.942	183.780	-118.540	118.614	-156.143	-164.168	56.576	-156.087	-149.517	-115.386	-56.064	-149.223	-142.667	-142.707	-135.609	-114.656	-135.837	-8191	255	
1368.019	1	1	0	0	0.20509	0.15866	0.11747	0.085379	0.21709	0.01538	0.17259	0.10751	0.36685	0.30063	0.015091	0.15307	0.20312	0.18008	0.095169	0.070884	-2.8417	-3.4062	-3.1813	-3.5062	-3.525	-3.2208	-3.4458	-3.4854	-3.2958	-3.3667	-3.6437	-3.2146	-3.3167	-3.3625	-3.1188	-3.5292	28.016	-163.230	-58.151	165.871	110.922	-132.043	183.604	157.906	83.827	188.064	17.040	86.673	-128.726	100.258	90.878	176.600	0.00018505	0.00065046	0.00023415	1233.9	3.644e-06	1.2376e-05	1377.4	256.16	5.097e-06	6.3222e-06	314.27	88.556	71.986	20.107	1.9776e-06	28.124	0.0012715	0.0013471	0.0003735	1248.7	1.4529e-05	1.4787e-05	1391.3	269.52	1.4846e-05	1.4793e-05	347.87	95.959	80.137	22.759	1.4785e-05	31.865	-160.941	-74.965	-55.023	-156.082	192.247	-30.161	-156.068	-149.230	-63.823	-83.843	-149.465	-143.050	-142.575	-135.608	-7.386	-136.551	-8191	255	
1368.115	1	1	0	0	0.17054	0.21571	0.14796	0.2937	0.11107	0.1545	0.081203	0.063608	0.10853	0.050519	0.15639	0.25548	0.068069	0.16396	0.049527	0.083515	-2.7812	-3.3854	-3.3854	-3.15	-3.3604	-3.2812	-3.2667	-3.6292	-3.2021	-3.4708	-3.4437	-3.1083	-3.3063	-3.3417	-3.3604	-3.5375	32.660	69.230	-91.652	141.939	-134.317	-61.102	113.674	-161.227	69.659	-17.009	43.688	122.136	-57.614	-128.589	-15.122	89.505	0.00027014	0.00018194	0.00024508	1233	6.5005e-06	8.8231e-06	1360.8	255.43	5.9864e-06	4.4936e-06	312.87	88.942	71.268	19.999	3.2739e-06	28.214	0.0012807	0.0013453	0.00037441	1247.4	1.4542e-05	1.4675e-05	1376.1	268.95	1.4672e-05	1.4822e-05	347.09	95.795	79.376	22.679	1.4592e-05	31.774	170.579	-48.364	-94.190	-155.877	-46.735	-12.605	-156.072	-149.412	-140.235	105.004	-149.508	-143.050	-142.070	-135.517	-10.839	-135.726	-8191	255	
1368.235	1	1	0	0	0.31267	0.076895	0.22329	0.25629	0.11183	0.32228	0.34005	0.06019	0.26252	0.21213	0.23193	0.020829	0.21238	0.26097	0.18151	0.10482	-2.8208	-3.2271	-3.475	-3.2458	-3.4271	-3.2896	-3.2875	-3.5104	-3.0458	-3.1167	-3.6396	-3.3667	-3.3667	-3.2354	-3.1792	-3.4792	86.010	-55.045	12.072	162.569	162.229	171.684	119.124	100.423	77.589	68.675	91.285	-22.956	51.676	182.108	-102.107	-122.455	0.00015033	0.00027052	0.00021798	1231.8	1.7745e-06	3.6193e-06	1348.5	254.41	8.8543e-06	1.0735e-05	313.89	87.995	71.617	19.978	5.7449e-06	28.112	0.0012553	0.0013209	0.0003739	1244.2	1.4553e-05	1.4766e-05	1361.2	268.25	1.4674e-05	1.4873e-05	347.18	95.536	79.678	22.664	1.4765e-05	31.787	-149.875	22.301	122.313	-156.036	20.435	153.240	-156.385	-149.112	-78.772	5.951	-149.142	-143.029	-142.543	-135.891	121.183	-135.984	-8191	255	
1368.331	1	1	0	0	0.17154	0.10429	0.091471	0.20094	0.2832	0.19462	0.12087	0.094626	0.052565	0.055174	0.12724	0.15416	0.21816	0.10708	0.29071	0.25605	-2.8896	-3.1646	-3.4792	-3.3083	-3.5333	-3.3396	-3.5125	-3.6354	-3.1583	-3.3021	-3.4437	-3.1417	-3.3667	-3.4896	-3.1562	-3.4437	-102.522	-137.561	169.069	-111.947	-69.902	3.211	-81.926	22.500	157.572	52.987	56.302	-94.373	-94.379	39.898	182.862	139.988	0.0002472	0.0006826	0.00029631	1236.6	7.6716e-06	3.1947e-06	1339.5	254.39	1.0916e-05	6.7231e-06	315.06	88.6	71.598	19.997	4.198e-06	28.027	0.0012828	0.0013646	0.00037934	1246.1	1.4833e-05	1.4942e-05	1355.7	268.26	1.497e-05	1.4984e-05	347.5	95.715	79.757	22.652	1.4717e-05	31.766	-166.144	152.275	-80.119	-155.970	-120.036	-48.275	-156.135	-149.609	-45.435	5.973	-149.098	-143.130	-142.407	-135.357	169.689	-135.849	-8191	255	
1368.428	1	1	0	0	0.24971	0.15993	0.17842	0.32039	0.041011	0.17532	0.1022	0.14513	0.21838	0.11636	0.074132	0.28315	0.22278	0.14585	0.2012	0.21398	-2.6312	-3.025	-3.3875	-3.2146	-3.4813	-3.4896	-3.4271	-3.3604	-3.45	-3.2396	-3.675	-3.3708	-3.175	-3.5396	-3.1771	-3.4562	-2.485	57.408	-131.443	181.888	-96.034	152.672	-79.896	154.228	49.333	-117.156	126.391	146.437	-32.714	-144.888	-39.198	9.332	0.00021662	0.00016292	6.7369e-05	1229	7.6675e-06	4.4959e-06	1334.9	255.3	4.5042e-06	2.444e-06	315.51	88.373	71.28	20.024	3.8694e-06	28.057	0.0012623	0.001326	0.00036828	1244.8	1.4514e-05	1.4631e-05	1349.1	268.29	1.4631e-05	1.4699e-05	346.03	95.324	79.328	22.601	1.4621e-05	31.667	176.171	136.635	-115.055	-155.883	-23.820	-116.902	-156.470	-149.464	-76.048	-132.745	-149.167	-142.997	-142.854	-135.576	20.263	-135.539	-8191	255	
1368.524	1	1	0	0	0.35823	0.11206	0.13925	0.53241	0.34558	0.10878	0.34193	0.3903	0.12041	0.045266	0.24856	0.2041	0.034196	0.10028	0.062284	0.094622	-2.8375	-3.1354	-3.3688	-3.2125	-3.3187	-3.6208	-3.3958	-3.5583	-3.3896	-3.1271	-3.5271	-3.3354	-3.2125	-3.3292	-3.2792	-3.4917	91.220	60.593	-130.374	160.184	-24.813	154.246	78.128	128.597	3.981	-0.297	-41.349	-132.363	-55.207	-122.844	29.699	92.274	0.00033744	0.00026239	0.00012485	1227.4	4.9748e-06	2.3361e-06	1331.2	255.43	5.0897e-06	1.4135e-05	314.96	88.308	71.016	20.153	3.5112e-06	28.015	0.0012582	0.0013302	0.00037062	1242	1.4702e-05	1.4734e-05	1348.3	268.33	1.4732e-05	1.4806e-05	345.82	95.432	79.385	22.689	1.471e-05	31.723	-152.286	172.929	-84.490	-155.676	119.304	-117.677	-156.329	-149.335	-60.056	63.312	-149.478	-142.992	-142.579	-135.454	-119.875	-136.381	-8191	255	
1368.618	1	1	0	0	0.10114	0.13418	0.22107	0.091148	0.043228	0.18449	0.2514	0.20451	0.14413	0.19757	0.21671	0.15784	0.31853	0.047392	0.1956	0.443	-2.9917	-3.2708	-3.5354	-3.2542	-3.0583	-3.2833	-3.3438	-3.4313	-3.4583	-3.0771	-3.2812	-3.5312	-3.3042	-3.5792	-3.1667	-2.9479	134.755	141.130	84.205	-14.610	71.317	-48.336	123.966	148.026	165.789	75.528	-31.657	-88.328	130.656	70.890	85.525	146.136	0.00018843	0.00097054	4.2735e-05	1230.6	3.6459e-07	9.4745e-06	1326	254.3	2.5455e-06	5.1427e-06	314.59	88.391	71.587	19.934	4.5935e-06	28.098	0.0012682	0.0013349	0.00037192	1243.4	1.4589e-05	1.475e-05	1343.7	267.91	1.4615e-05	1.4751e-05	346.12	95.325	79.398	22.618	1.4657e-05	31.756	-160.479	-67.375	-63.863	-155.965	-1.259	7.762	-156.226	-149.164	131.650	92.364	-149.232	-143.012	-142.601	-135.197	3.145	-136.127	-8191	255	
1368.714	1	1	0	0	0.17633	0.15459	0.047221	0.25202	0.046981	0.061696	0.12949	0.30284	0.27785	0.2839	0.14254	0.12094	0.12775	0.11196	0.18016	0.13325	-2.9729	-3.0625	-3.4854	-3.3333	-3.2083	-3.4917	-3.2604	-3.2833	-3.4271	-2.8187	-3.4083	-3.4979	-3.3021	-3.825	-3.3583	-3.3896	-15.649	78.345	158.267	-135.623	49.506	120.286	108.832	148.350	129.770	175.405	60.695	93.804	30.042	78.502	133.821	-85.202	0.00026386	0.00066345	0.00018201	1230.1	3.4212e-06	1.3232e-05	1327.9	254.25	5.111e-06	1.1344e-05	315.09	87.767	71.454	20.122	5.9155e-06	27.831	0.0012705	0.0013362	0.00037603	1244	1.4665e-05	1.4748e-05	1343.2	268.43	1.4975e-05	1.4902e-05	347.27	95.459	79.78	22.775	1.5212e-05	31.893	178.716	-74.254	-151.185	-155.836	115.699	64.187	-156.228	-149.339	152.493	27.256	-149.072	-143.102	-142.265	-135.404	72.378	-136.039	-8191	255	
1368.810	1	1	0	0	0.091841	0.062131	0.055379	0.1873	0.11066	0.20837	0.13065	0.24669	0.19392	0.07361	0.091523	0.2297	0.43038	0.07993	0.19075	0.30913	-2.8125	-3.2188	-3.1458	-3.375	-3.1417	-3.6333	-3.4375	-3.1625	-3.5979	-3.2458	-3.3833	-3.2812	-3.0479	-3.2833	-3.25	-3.3854	13.590	139.584	-120.232	-148.159	-75.663	-4.813	169.394	74.423	57.152	-3.221	189.978	173.726	-144.735	-76.669	-141.388	-79.745	0.00022252	0.00063689	0.00016211	1228.4	3.2966e-06	4.5909e-06	1330.6	254.26	1.6565e-06	5.6132e-06	313.36	88.576	71.672	20.033	4.6615e-06	28.002	0.0013057	0.001372	0.00038362	1244.7	1.494e-05	1.5181e-05	1344.7	268.4	1.5068e-05	1.5098e-05	346.98	95.764	79.703	22.735	1.5104e-05	31.872	-152.353	15.294	-59.825	-156.112	139.010	65.521	-156.271	-149.382	-149.323	78.716	-149.030	-143.253	-142.604	-135.152	-25.152	-136.071	-8191	255	
1368.931	1	1	0	0	0.081981	0.15788	0.16404	0.32769	0.08887	0.146	0.21411	0.23698	0.092479	0.1839	0.040161	0.07798	0.047287	0.081675	0.28616	0.23511	-3.0687	-3.1583	-3.3646	-3.4854	-3.225	-3.5583	-3.6458	-3.2229	-3.3229	-3.2812	-3.3812	-3.5271	-3.2042	-3.5958	-3.2812	-3.0104	191.434	98.683	182.149	177.403	117.165	34.572	109.506	40.585	-109.686	-157.542	11.761	163.528	-26.949	169.391	-138.131	138.660	0.00033419	0.00051844	0.00020924	1233.2	3.842e-06	9.0191e-06	1326.8	254.2	9.9362e-06	9.1272e-06	315.07	87.891	71.487	19.967	6.7003e-06	27.852	0.0013161	0.001394	0.00039037	1249	1.5274e-05	1.5473e-05	1344.5	269.35	1.5248e-05	1.5308e-05	347.95	95.755	79.746	22.776	1.5147e-05	31.901	-157.989	46.348	108.575	-156.060	-33.936	-1.016	-156.422	-149.176	-67.051	-13.010	-149.258	-142.753	-142.371	-135.536	36.589	-135.775	-8191	255	
1369.027	1	1	0	0	0.3559	0.23171	0.11429	0.20408	0.19401	0.20683	0.095165	0.15435	0.20567	0.33766	0.086954	0.14056	0.1254	0.12462	0.15128	0.12957	-2.8646	-3.1375	-3.1979	-3.7771	-3.1833	-3.3604	-3.4271	-3.3646	-3.6	-3.3125	-3.3812	-3.5708	-3.3583	-3.4813	-3.2521	-3.2292	-141.707	28.348	2.046	-140.927	51.264	41.346	14.556	120.342	-120.995	-29.267	72.799	22.255	-137.113	-70.670	74.275	86.597	0.00021586	0.00077444	8.3811e-05	1231.6	3.9443e-06	9.4571e-06	1324.1	255.08	6.2275e-06	8.4167e-06	313.7	88.726	71.885	20.098	7.4414e-06	28.262	0.0013149	0.0013846	0.00038852	1246.9	1.5107e-05	1.5405e-05	1342.9	269.4	1.5413e-05	1.5426e-05	348.64	96.018	79.979	22.794	1.5262e-05	32.008	-130.613	-85.308	-46.978	-155.787	57.282	107.228	-156.470	-149.468	-72.468	-15.460	-149.049	-142.963	-142.806	-135.466	16.772	-135.898	-8191	255	
1369.099	1	1	0	0	0.3251	0.1241	0.11261	0.35499	0.11321	0.089154	0.27889	0.22295	0.16467	0.049265	0.17781	0.16203	0.15919	0.12635	0.13668	0.1777	-2.8333	-3.0854	-3.1	-3.5854	-3.2792	-3.4333	-3.5458	-3.2167	-3.5292	-3.5	-3.3896	-3.5583	-3.3208	-3.3979	-3.4979	-3.4542	-149.328	10.728	58.763	121.348	-122.359	-48.058	96.737	143.719	-143.106	125.275	127.041	-163.518	181.329	39.127	80.187	145.410	0.00026321	0.0008422	0.00027802	1232.8	4.9268e-06	8.484e-06	1324.6	252.97	8.0099e-06	4.1669e-06	312.6	88.006	71.395	20.052	9.0462e-06	28.059	0.0013221	0.0013871	0.00038878	1247.7	1.5184e-05	1.5426e-05	1343.9	268.79	1.5299e-05	1.5427e-05	348.27	95.858	79.973	22.842	1.5341e-05	31.97	-148.415	87.357	-141.136	-156.007	23.935	-16.924	-156.256	-149.364	-61.563	-28.841	-149.265	-143.162	-142.580	-135.169	-45.228	-135.665	-8191	255	
1369.195	1	1	0	0	0.26587	0.065738	0.16741	0.24202	0.22667	0.15521	0.18255	0.11368	0.23333	0.13714	0.09736	0.12329	0.29842	0.068104	0.024171	0.10017	-3.2438	-3.3125	-3.1375	-3.4938	-3.2313	-3.2854	-3.6854	-3.2104	-3.4479	-3.3208	-3.3083	-3.6271	-3.3375	-3.2875	-3.3729	-3.25	95.621	-0.764	-96.680	-141.600	-22.798	129.063	143.666	-71.130	-125.346	114.419	-92.004	-136.789	-125.582	-113.475	73.006	-163.957	0.00016221	0.00089055	0.00029368	1233.8	6.1051e-06	8.2157e-06	1329	255.13	2.5674e-06	9.5625e-06	316.16	88.09	71.494	19.982	6.0863e-06	28.144	0.0013274	0.0013923	0.00039054	1248	1.5134e-05	1.5427e-05	1344.2	269.06	1.5228e-05	1.5363e-05	348.42	95.645	79.801	22.761	1.523e-05	31.9	-145.799	130.255	-40.802	-155.764	-123.508	112.620	-156.490	-149.372	-165.577	-116.442	-149.343	-142.846	-142.523	-135.572	-9.153	-136.270	-8191	255	
1369.316	1	1	0	0	0.11189	0.39969	0.20904	0.051638	0.22427	0.1316	0.33649	0.20679	0.039577	0.21194	0.086779	0.25722	0.25421	0.15513	0.2225	0.15608	-2.9188	-3.3812	-3.1437	-3.6729	-3.1146	-3.1562	-3.4417	-3.1458	-3.3792	-3.4729	-3.3771	-3.5021	-3.0958	-3.2125	-3.3521	-3.0438	78.917	151.158	18.646	125.863	-54.684	53.660	76.813	-103.240	-82.865	-104.826	-158.519	188.716	-113.115	50.936	167.584	43.262	0.00028184	0.00093911	0.00025956	1233.1	6.4896e-06	1.0922e-05	1322.2	255.74	4.347e-06	3.9282e-06	311.19	87.957	71.547	20.066	2.9599e-06	28.024	0.0013182	0.0013823	0.0003851	1247.2	1.5044e-05	1.5218e-05	1342.3	269.1	1.5122e-05	1.5059e-05	347.25	95.755	80.056	22.794	1.5276e-05	31.922	187.905	20.158	-54.632	-156.029	33.301	-38.178	-156.149	-149.406	-102.605	-9.756	-149.243	-143.334	-143.016	-135.390	83.181	-136.078	-8191	255	
1369.412	1	1	0	0	0.14855	0.1543	0.017929	0.16212	0.11682	0.12821	0.057732	0.057213	0.006653	0.10012	0.071782	0.16495	0.19429	0.25386	0.13486	0.045658	-2.7167	-3.4208	-3.1083	-3.7	-3.3354	-3.4667	-3.6667	-3.2875	-3.3396	-3.3292	-3.3708	-3.6708	-3.3625	-3.2854	-3.3875	-3.3021	-75.817	119.813	-108.410	173.446	67.657	157.200	-155.387	-94.170	-124.309	-145.749	132.186	165.345	-60.481	153.328	79.499	-125.663	0.00027639	0.00043822	0.00022421	1230.4	4.3954e-06	1.5963e-06	1323.8	253.83	2.1785e-06	1.8014e-06	313.59	88.575	70.933	20.051	1.1552e-05	27.968	0.0013164	0.0013834	0.00038538	1245.8	1.5149e-05	1.518e-05	1342.5	268.55	1.5053e-05	1.5271e-05	347.36	95.876	79.809	22.802	1.5257e-05	31.902	-145.422	-132.917	-90.716	-155.901	-100.377	14.692	-156.139	-149.593	-110.989	86.042	-149.385	-143.102	-142.434	-135.640	58.381	-136.222	-8191	255	
1369.508	1	1	0	0	0.20419	0.060244	0.096776	0.18561	0.20118	0.16841	0.15556	0.34354	0.1731	0.23816	0.20443	0.24231	0.077705	0.2501	0.11697	0.21207	-2.9062	-3.5667	-3.2375	-3.4021	-3.1146	-3.2021	-3.7333	-3.4208	-3.5229	-3.4729	-2.9979	-3.3708	-3.3333	-3.2313	-3.475	-3.2687	149.006	34.403	-126.730	188.215	-9.366	-127.858	-29.745	110.294	-17.656	18.942	131.057	-117.475	-137.031	49.304	-21.434	122.799	0.0002722	0.00045086	0.00014348	1231.3	2.32e-06	8.1417e-06	1328	253.53	5.0844e-06	9.3833e-06	316.11	87.78	71.579	20.034	1.8093e-06	28.079	0.0013169	0.0013984	0.00038955	1246.8	1.5269e-05	1.5432e-05	1342.9	268.79	1.529e-05	1.5408e-05	349.14	95.591	80.068	22.795	1.5435e-05	31.93	-158.741	-73.987	71.876	-155.965	0.745	0.191	-156.202	-149.517	-10.641	31.652	-149.397	-143.088	-142.739	-135.472	-27.040	-135.996	-8191	255	
1369.604	1	1	0	0	0.087648	0.21645	0.073462	0.14407	0.0304	0.13563	0.30319	0.2852	0.17066	0.16064	0.094299	0.078146	0.012091	0.085364	0.094977	0.11472	-2.9917	-3.3187	-3.0792	-3.4979	-3.4375	-3.0229	-3.5104	-3.3688	-3.275	-3.6542	-3.1854	-3.4667	-3.3458	-3.0396	-3.3729	-3.2313	-118.811	-33.554	-12.329	168.090	-21.516	60.662	85.818	175.880	31.003	43.029	-26.589	-72.313	150.221	92.015	89.939	-163.752	0.00026367	0.00074466	5.5751e-05	1231.2	5.6654e-06	6.5619e-06	1323.9	254.42	1.4377e-06	4.4002e-06	315.14	87.737	71.269	20.025	7.9034e-06	28.027	0.0013227	0.0013907	0.00039102	1246	1.5146e-05	1.5303e-05	1343.7	269.44	1.5328e-05	1.5454e-05	348.55	95.705	80.045	22.805	1.5441e-05	31.888	-164.749	163.203	-50.479	-155.929	-105.948	-27.138	-156.165	-149.399	-113.187	-151.486	-149.257	-143.171	-142.635	-135.725	-23.631	-135.414	-8191	255	
1369.723	1	1	0	0	0.093339	0.10411	0.19917	0.19086	0.030814	0.075627	0.38349	0.063255	0.079663	0.12286	0.09288	0.29793	0.28023	0.12553	0.26929	0.20476	-2.8667	-3.5625	-3.1688	-3.5125	-3.5438	-3.0375	-3.4688	-3.4521	-3.1542	-3.5625	-3.2667	-3.2687	-3.4646	-3.0208	-3.5292	-3.3563	-58.263	31.162	36.580	-150.622	-88.138	54.470	130.071	-45.509	81.722	121.460	33.351	-156.179	181.465	-115.316	-83.099	54.556	0.00020049	0.0011375	0.00011965	1232.6	5.3634e-06	1.1043e-05	1327.2	254.32	5.3317e-06	1.0926e-05	312.81	88.293	71.49	19.918	7.8928e-06	28.025	0.0013292	0.0013961	0.00039245	1246.9	1.5293e-05	1.5312e-05	1345.1	269.27	1.5287e-05	1.5343e-05	348.09	95.792	80.005	22.759	1.5384e-05	31.94	-125.694	-110.388	-82.772	-155.937	173.955	6.794	-156.045	-149.197	-103.919	-141.096	-149.491	-142.967	-142.554	-135.442	-23.936	-135.857	-8191	255	
1369.796	1	1	0	0	0.27311	0.031554	0.15671	0.10867	0.25692	0.084624	0.2867	0.28807	0.21258	0.29991	0.091969	0.23282	0.099754	0.094797	0.20199	0.24011	-2.8583	-3.3979	-3.0333	-3.7	-3.4979	-3.2854	-3.6396	-3.3771	-3.1292	-3.375	-3.3333	-3.3521	-3.5229	-3.2167	-3.2938	-3.4396	127.813	-18.825	125.804	189.522	-9.742	-68.310	105.627	120.188	165.457	89.867	-17.524	175.246	-47.480	-140.199	133.789	-144.763	0.00024293	0.00074262	6.8756e-05	1226.1	3.7252e-06	7.2639e-06	1320.5	253.5	5.106e-06	3.3657e-06	314.98	87.749	71.865	19.937	1.21e-06	27.848	0.0013271	0.0014077	0.00039361	1246.9	1.5307e-05	1.5577e-05	1342.7	268.74	1.5503e-05	1.5615e-05	348.8	95.82	80.135	22.754	1.5384e-05	31.857	-160.476	-88.068	-10.126	-155.810	-89.590	-42.962	-156.103	-149.489	-112.927	36.225	-149.052	-143.287	-142.786	-135.363	19.770	-135.943	-8191	255	
1369.915	1	1	0	0	0.14242	0.13049	0.10358	0.25101	0.084024	0.13954	0.11826	0.19994	0.1876	0.14073	0.12348	0.069282	0.12069	0.031111	0.065471	0.11105	-2.7625	-3.625	-3.2354	-3.4708	-3.4729	-3.175	-3.3312	-3.3729	-3.1417	-3.3458	-3.3104	-3.2958	-3.6417	-3.1792	-3.6542	-3.6146	-29.194	-143.175	147.556	-148.835	1.914	119.085	115.420	118.861	12.376	113.762	173.596	22.184	55.229	-109.844	-149.461	127.834	0.00026246	0.0011339	0.00022445	1227.9	5.0439e-06	9.3887e-06	1324	254.1	5.6687e-06	5.2022e-06	313.13	88.034	70.852	20.121	7.2102e-07	27.966	0.0013302	0.0013967	0.00038747	1245.6	1.5113e-05	1.5273e-05	1340.9	268.61	1.5153e-05	1.5201e-05	347.43	95.45	79.51	22.721	1.5255e-05	31.837	180.589	-87.216	-150.571	-155.848	-14.011	13.703	-156.170	-149.182	-162.592	79.513	-148.834	-142.863	-142.571	-135.674	-1.922	-135.474	-8191	255	
1370.011	1	1	0	0	0.14695	0.039799	0.15555	0.26124	0.061762	0.12019	0.29484	0.23773	0.15941	0.10989	0.12024	0.22799	0.09129	0.12664	0.18375	0.18853	-2.7479	-3.3583	-3.4083	-3.3604	-3.4729	-3.0979	-3.4292	-3.3667	-3.2938	-3.5292	-3.3146	-3.1021	-3.3854	-3.0979	-3.1354	-3.4417	133.185	12.674	132.014	128.720	36.841	-3.481	58.448	192.409	-147.235	-42.536	168.868	162.962	91.484	-127.434	-145.767	116.171	0.00030532	0.00077408	0.00011889	1225.9	3.4783e-06	1.156e-05	1325.2	252.91	5.387e-06	2.6337e-07	313.33	88.444	70.882	20.06	1.0417e-05	27.845	0.0013219	0.0014035	0.00038898	1244.6	1.523e-05	1.5526e-05	1341.6	268.18	1.5355e-05	1.5404e-05	348.33	95.648	79.666	22.712	1.5434e-05	31.809	-167.199	-144.609	-127.836	-155.855	72.145	-1.307	-156.202	-149.461	21.061	-51.826	-149.344	-143.033	-142.647	-135.373	12.948	-136.111	-8191	255	
1370.108	1	1	0	0	0.18854	0.16784	0.11077	0.20061	0.11885	0.19045	0.22453	0.060484	0.23469	0.23302	0.17427	0.025677	0.12267	0.12638	0.035935	0.14664	-2.65	-3.4958	-3.3479	-3.2271	-3.3396	-3.2375	-3.4583	-3.5875	-3.1667	-3.2896	-3.3312	-3.2271	-3.6063	-3.1979	-3.2354	-3.5417	-35.012	39.074	103.874	-81.185	104.368	137.867	105.597	75.117	43.434	31.433	181.213	-150.930	187.370	98.741	-18.509	-26.797	0.00021236	0.0001295	0.00010416	1228.7	6.9022e-06	1.009e-05	1319.1	252.37	4e-06	1.9146e-06	313.29	87.869	71.259	19.938	3.6556e-06	27.898	0.0013323	0.0014136	0.00039499	1244.5	1.541e-05	1.5669e-05	1339.2	268.51	1.5525e-05	1.5611e-05	347.26	95.487	79.793	22.734	1.5696e-05	31.911	-154.038	0.849	190.872	-155.929	-28.741	82.274	-156.229	-148.903	-74.617	-0.362	-149.262	-142.953	-142.770	-135.797	-114.117	-135.239	-8191	255	
1370.204	1	1	0	0	0.16957	0.16337	0.098719	0.12273	0.19377	0.029353	0.39738	0.03099	0.2602	0.098046	0.11626	0.22522	0.11436	0.13487	0.13123	0.11023	-3.1104	-3.5229	-3.4417	-3.1917	-3.4958	-3.3083	-3.4875	-3.5062	-3.0646	-3.1667	-3.5021	-3.2229	-3.675	-3.2562	-3.0521	-3.4917	-35.559	147.831	-26.202	122.581	-6.830	57.882	118.923	59.095	25.349	67.956	-121.008	50.618	188.768	-71.411	-54.724	-35.645	0.00035279	0.0011443	0.00017806	1231.7	3.5245e-06	1.4408e-06	1317.6	253.83	4.4192e-06	3.4514e-06	313.99	87.755	71.013	19.884	7.2377e-06	27.673	0.0013523	0.0014312	0.00040214	1245.7	1.5718e-05	1.5879e-05	1341.5	269.03	1.5762e-05	1.5925e-05	348.92	95.437	79.715	22.758	1.5738e-05	31.828	-148.883	-76.168	-103.922	-156.070	-79.136	-41.234	-156.314	-149.329	11.014	73.584	-149.506	-143.306	-142.461	-135.398	-37.398	-136.159	-8191	255	
#DATA ENDS
