BOXY.EXE: ISS Imagent and Oximeter Data Acquisition Program Version 0.80
Ascii Record File

#ACQ INFORMATION
2  Detector Channels 
16  External MUX Channels 
1  Auxiliary Channels 
5000  Waveform (CCF) Frequency (Hz)
1  Waveforms Skipped 
30  Waveforms Averaged 
1  Cycles Averaged 
16  Acquisitions per Waveform 
10.0806  Updata Rate (Hz) 

#FILE INFORMATION
TRUE -- External MUX Channel results are PARSED.
FALSE -- AC DC and Phase are NOT grouped.
TRUE -- Companion Program Settings File CREATED.
FALSE -- AC data not excluded
FALSE -- DC data not excluded
FALSE -- Phase data not excluded
FALSE -- Auxillary Chn. data not excluded
Tab delimiters

#CALIBRATION STATE
TRUE -- Waveform Calibration Values APPLIED.


#AUX CALIBRATION VALUES
Val Type	aux-1	

Term	1.0000e+00	
Factor	0.0000e+00	


#WF CALIBRATION VALUES
A = Detector Channel
Val Type	A-AC1	A-AC2	A-AC3	A-AC4	A-AC5	A-AC6	A-AC7	A-AC8	A-AC9	A-AC10	A-AC11	A-AC12	A-AC13	A-AC14	A-AC15	A-AC16	A-DC1	A-DC2	A-DC3	A-DC4	A-DC5	A-DC6	A-DC7	A-DC8	A-DC9	A-DC10	A-DC11	A-DC12	A-DC13	A-DC14	A-DC15	A-DC16	A-Ph1	A-Ph2	A-Ph3	A-Ph4	A-Ph5	A-Ph6	A-Ph7	A-Ph8	A-Ph9	A-Ph10	A-Ph11	A-Ph12	A-Ph13	A-Ph14	A-Ph15	A-Ph16	

Term	0.00000e+00	0.00000e+00	0.00000e+00	0.00000e+00	0.00000e+00	0.00000e+00	0.00000e+00	0.00000e+00	0.00000e+00	0.00000e+00	0.00000e+00	0.00000e+00	0.00000e+00	0.00000e+00	0.00000e+00	0.00000e+00	0.00000e+00	0.00000e+00	0.00000e+00	0.00000e+00	0.00000e+00	0.00000e+00	0.00000e+00	0.00000e+00	0.00000e+00	0.00000e+00	0.00000e+00	0.00000e+00	0.00000e+00	0.00000e+00	0.00000e+00	0.00000e+00	0.00000e+00	0.00000e+00	0.00000e+00	0.00000e+00	0.00000e+00	0.00000e+00	0.00000e+00	0.00000e+00	0.00000e+00	0.00000e+00	0.00000e+00	0.00000e+00	0.00000e+00	0.00000e+00	0.00000e+00	0.00000e+00	
Factor	1.00000e+00	1.00000e+00	1.00000e+00	1.00000e+00	1.00000e+00	1.00000e+00	1.00000e+00	1.00000e+00	1.00000e+00	1.00000e+00	1.00000e+00	1.00000e+00	1.00000e+00	1.00000e+00	1.00000e+00	1.00000e+00	1.00000e+00	1.00000e+00	1.00000e+00	1.00000e+00	1.00000e+00	1.00000e+00	1.00000e+00	1.00000e+00	1.00000e+00	1.00000e+00	1.00000e+00	1.00000e+00	1.00000e+00	1.00000e+00	1.00000e+00	1.00000e+00	X	X	X	X	X	X	X	X	X	X	X	X	X	X	X	X	

B = Detector Channel
Val Type	B-AC1	B-AC2	B-AC3	B-AC4	B-AC5	B-AC6	B-AC7	B-AC8	B-AC9	B-AC10	B-AC11	B-AC12	B-AC13	B-AC14	B-AC15	B-AC16	B-DC1	B-DC2	B-DC3	B-DC4	B-DC5	B-DC6	B-DC7	B-DC8	B-DC9	B-DC10	B-DC11	B-DC12	B-DC13	B-DC14	B-DC15	B-DC16	B-Ph1	B-Ph2	B-Ph3	B-Ph4	B-Ph5	B-Ph6	B-Ph7	B-Ph8	B-Ph9	B-Ph10	B-Ph11	B-Ph12	B-Ph13	B-Ph14	B-Ph15	B-Ph16	

Term	0.00000e+00	0.00000e+00	0.00000e+00	0.00000e+00	0.00000e+00	0.00000e+00	0.00000e+00	0.00000e+00	0.00000e+00	0.00000e+00	0.00000e+00	0.00000e+00	0.00000e+00	0.00000e+00	0.00000e+00	0.00000e+00	0.00000e+00	0.00000e+00	0.00000e+00	0.00000e+00	0.00000e+00	0.00000e+00	0.00000e+00	0.00000e+00	0.00000e+00	0.00000e+00	0.00000e+00	0.00000e+00	0.00000e+00	0.00000e+00	0.00000e+00	0.00000e+00	-1.28747e+02	-1.33826e+02	-1.28549e+02	-1.80942e+02	-7.62500e+01	-8.09811e+01	-1.54237e+02	-1.62015e+02	-7.58400e+01	-9.44173e+01	-1.75125e+02	-1.69314e+02	-1.81664e+02	-1.76960e+02	-5.94591e+01	-1.48622e+02	
Factor	1.82771e-05	1.44101e-04	3.88608e-05	1.54363e-01	1.25011e-06	1.75893e-06	1.64846e-01	6.58057e-02	1.31588e-06	1.62697e-06	1.48855e-01	2.74170e-02	2.93441e-02	8.95402e-03	1.40154e-06	1.27922e-02	1.80991e-06	1.93471e-06	5.39634e-07	7.75589e-02	2.11008e-08	2.13558e-08	7.78935e-02	3.28511e-02	2.11968e-08	2.13614e-08	7.05007e-02	1.33727e-02	1.48024e-02	4.49870e-03	2.12343e-08	6.21207e-03	X	X	X	X	X	X	X	X	X	X	X	X	X	X	X	X	



#DISTANCE SETTINGS
A = Detector Channel
A-1	A-2	A-3	A-4	A-5	A-6	A-7	A-8	A-9	A-10	A-11	A-12	A-13	A-14	A-15	A-16	

2.5000e+00	3.0000e+00	2.5000e+00	3.0000e+00	2.0000e+00	3.0000e+00	1.5000e+00	3.0000e+00	3.0000e+00	3.0000e+00	3.0000e+00	3.0000e+00	3.0000e+00	3.0000e+00	1.5000e+00	3.0000e+00	

B = Detector Channel
B-1	B-2	B-3	B-4	B-5	B-6	B-7	B-8	B-9	B-10	B-11	B-12	B-13	B-14	B-15	B-16	

1.0000e+01	1.0000e+01	1.0000e+01	1.4400e+00	1.0000e+01	1.0000e+01	1.5100e+00	1.9400e+00	1.0000e+01	1.0000e+01	1.9900e+00	2.4900e+00	2.4100e+00	2.9000e+00	1.0000e+01	2.9800e+00	




#DATA BEGINS
time	group	step	mark	flag	A-AC1	A-AC2	A-AC3	A-AC4	A-AC5	A-AC6	A-AC7	A-AC8	A-AC9	A-AC10	A-AC11	A-AC12	A-AC13	A-AC14	A-AC15	A-AC16	A-DC1	A-DC2	A-DC3	A-DC4	A-DC5	A-DC6	A-DC7	A-DC8	A-DC9	A-DC10	A-DC11	A-DC12	A-DC13	A-DC14	A-DC15	A-DC16	A-Ph1	A-Ph2	A-Ph3	A-Ph4	A-Ph5	A-Ph6	A-Ph7	A-Ph8	A-Ph9	A-Ph10	A-Ph11	A-Ph12	A-Ph13	A-Ph14	A-Ph15	A-Ph16	B-AC1	B-AC2	B-AC3	B-AC4	B-AC5	B-AC6	B-AC7	B-AC8	B-AC9	B-AC10	B-AC11	B-AC12	B-AC13	B-AC14	B-AC15	B-AC16	B-DC1	B-DC2	B-DC3	B-DC4	B-DC5	B-DC6	B-DC7	B-DC8	B-DC9	B-DC10	B-DC11	B-DC12	B-DC13	B-DC14	B-DC15	B-DC16	B-Ph1	B-Ph2	B-Ph3	B-Ph4	B-Ph5	B-Ph6	B-Ph7	B-Ph8	B-Ph9	B-Ph10	B-Ph11	B-Ph12	B-Ph13	B-Ph14	B-Ph15	B-Ph16	aux-1	digaux	

1399.398	1	1	0	256	0.017362	0.1708	0.13882	0.21993	0.14501	0.20584	0.25946	0.096045	0.14646	0.27007	0.076286	0.13318	0.084346	0.21221	0.11946	0.14283	-3.1458	-3.2062	-3.65	-3.4792	-3.2271	-3.5354	-3.1854	-3.4833	-3.4437	-3.2979	-3.5875	-3.45	-3.4313	-3.6562	-3.3229	-3.5875	-9.429	126.800	-118.522	176.835	-164.892	7.974	78.591	-86.408	135.135	-89.703	17.844	143.382	54.231	-154.430	-51.977	-102.153	0.00028763	0.00067717	0.00012298	1315.8	8.7476e-06	1.1152e-05	1385.5	260.36	4.0018e-06	2.9226e-06	321.76	90.418	74.77	20.95	7.6474e-06	29.041	0.0027794	0.0029439	0.00082451	1393.6	3.2013e-05	3.2442e-05	1464	300.46	3.1774e-05	3.2015e-05	409.61	108.05	94.437	27.193	3.1507e-05	37.779	171.830	-56.083	161.741	-155.878	108.451	2.565	-155.901	-149.552	-34.567	8.683	-148.893	-142.964	-142.173	-135.426	91.681	-135.618	-8191	255	
1399.495	1	1	0	0	0.22664	0.24419	0.19839	0.21181	0.016121	0.076601	0.10148	0.33933	0.1232	0.019535	0.085401	0.1251	0.36367	0.051145	0.12168	0.14697	-3.2062	-3.0812	-3.6146	-3.575	-3.3792	-3.5521	-3.525	-3.5854	-3.2938	-3.1896	-3.8937	-3.3896	-3.3979	-3.8333	-3.2667	-3.4875	73.728	159.596	-109.948	126.354	-154.217	-102.238	149.024	101.082	72.964	63.313	140.686	-124.298	124.361	-95.649	-36.919	-59.935	0.00027296	0.00072164	0.00021856	1314.5	6.0423e-06	1.8001e-05	1377.3	260.84	4.7961e-06	6.3223e-06	319.9	89.539	74.33	20.862	4.9485e-06	29.057	0.0027157	0.0028632	0.00079197	1387.3	3.0754e-05	3.0953e-05	1454.3	297.77	3.0201e-05	3.031e-05	402.92	106.32	92.814	26.674	2.9386e-05	36.952	-128.331	-24.856	-98.665	-155.998	41.113	-17.814	-156.033	-149.116	-80.943	-136.351	-148.960	-142.946	-142.440	-135.287	-81.403	-135.995	-8191	255	
1399.589	1	1	0	0	0.27567	0.26669	0.23727	0.36231	0.13054	0.25211	0.24197	0.14093	0.24392	0.19737	0.23374	0.10012	0.097261	0.186	0.28261	0.14692	-3.2667	-3.1688	-3.35	-3.4792	-3.2125	-3.4604	-3.5167	-3.2979	-3.5458	-3.1437	-3.7083	-3.4396	-3.325	-3.6625	-3.4354	-3.5479	17.160	-151.541	192.731	155.521	174.206	161.222	175.124	-18.277	7.394	-24.355	-149.089	-103.603	46.538	-151.006	46.166	156.013	0.00023931	0.0014027	0.00025288	1310	9.7686e-06	1.9614e-06	1370	257.17	1.5931e-05	6.196e-06	317.86	89.249	73.76	20.62	3.2402e-06	28.765	0.0024949	0.0026252	0.00072653	1369.4	2.7867e-05	2.8122e-05	1434.6	291.23	2.7242e-05	2.7387e-05	390.23	104.27	90.384	25.883	2.6781e-05	35.967	-155.872	39.082	-55.800	-155.868	-9.949	35.171	-155.942	-149.098	-4.495	38.782	-148.948	-142.767	-142.457	-135.403	121.933	-135.434	-8191	255	
1399.662	1	1	0	0	0.15504	0.15017	0.11905	0.19848	0.094056	0.15736	0.24032	0.073648	0.12957	0.19674	0.16039	0.22808	0.0547	0.11829	0.14839	0.11174	-3.0646	-3.1833	-3.5354	-3.7021	-3.0938	-3.6458	-3.5771	-3.3417	-3.4146	-3.4375	-3.5062	-3.5896	-3.2417	-3.325	-3.3563	-3.2396	-34.906	162.863	102.545	161.084	-114.622	186.212	110.660	93.590	92.987	-44.686	40.369	104.717	158.289	148.204	113.954	12.640	0.0002681	0.00088032	0.00040482	1295.8	4.6538e-06	8.161e-06	1359.5	255.25	9.9765e-06	5.5847e-06	314.79	89.091	73.635	20.608	4.1518e-06	28.766	0.0022865	0.0024129	0.00067126	1352.6	2.6067e-05	2.6286e-05	1418.4	287.23	2.5822e-05	2.6032e-05	385.39	103.26	89.456	25.63	2.5359e-05	35.528	184.232	-147.744	-35.044	-155.758	89.211	-15.001	-156.135	-149.252	-110.562	-138.474	-149.048	-142.889	-142.446	-135.383	-18.929	-135.510	-8191	255	
1399.781	1	1	0	0	0.14202	0.33359	0.22055	0.21125	0.2006	0.10339	0.41562	0.19358	0.087314	0.10465	0.059337	0.10946	0.080792	0.16253	0.020499	0.1369	-2.9729	-3.2542	-3.4417	-3.5875	-3.2604	-3.5271	-3.4625	-3.6042	-3.5083	-3.2792	-3.3396	-3.3354	-3.2583	-3.4562	-3.2896	-3.2521	144.825	-85.682	-151.205	129.520	189.841	-102.554	165.433	-133.513	110.953	179.293	83.053	17.662	118.383	-78.938	-88.369	-105.030	0.00016174	0.00038824	0.00029988	1287.4	5.8764e-06	7.0515e-06	1351.5	254.48	1.0866e-05	1.2007e-05	311.53	88.37	72.75	20.617	7.1582e-06	28.434	0.0021606	0.0022795	0.00063322	1339.2	2.4669e-05	2.4661e-05	1405.7	283.3	2.4516e-05	2.4614e-05	377.9	101.79	87.923	25.297	2.4345e-05	35.139	-151.197	58.933	-107.741	-155.811	-56.732	62.291	-155.951	-149.122	-148.128	45.083	-149.014	-142.631	-142.299	-134.918	59.298	-135.378	-8191	255	
1399.877	1	1	0	0	0.13837	0.26582	0.14583	0.16581	0.18589	0.18814	0.24577	0.27488	0.25247	0.16689	0.20403	0.079285	0.14566	0.27301	0.050453	0.23615	-3.2083	-3.2583	-3.1854	-3.4417	-3.3833	-3.5021	-3.5208	-3.4062	-3.6688	-3.1354	-3.4354	-3.5583	-3.075	-3.7292	-3.45	-3.0312	-35.969	-6.732	159.773	187.520	154.077	65.194	124.476	186.610	-45.700	-99.534	156.385	-54.974	94.805	124.480	-147.711	-145.029	0.00020216	0.00057314	0.00017116	1285.2	3.1124e-06	1.47e-05	1352.6	253.93	4.1233e-06	4.0001e-06	316.37	88.907	73.201	20.546	7.8687e-06	28.579	0.0021126	0.0022467	0.00062703	1335	2.4609e-05	2.4558e-05	1405.6	283.29	2.4347e-05	2.4466e-05	378.31	101.54	87.526	25.091	2.342e-05	34.744	-161.210	-125.689	67.745	-155.863	-71.701	5.147	-155.802	-148.852	189.145	67.863	-148.772	-142.710	-142.254	-135.156	170.433	-135.964	-8191	255	
1399.974	1	1	0	0	0.16673	0.11082	0.07323	0.096258	0.093703	0.079121	0.15715	0.077039	0.27995	0.078094	0.20763	0.1706	0.18227	0.031387	0.17435	0.068293	-3.2167	-3.2583	-3.3688	-3.7458	-3.2604	-3.275	-3.5958	-3.3979	-3.5625	-3.2979	-3.5417	-3.5542	-3.4271	-3.5979	-3.4062	-3.3479	189.784	-49.019	124.909	171.493	190.297	123.059	168.244	136.189	-120.956	-20.104	-53.928	177.745	-149.144	110.309	132.947	-30.012	0.00027188	0.0014336	0.00014229	1283.4	3.2923e-06	5.3599e-06	1348.9	253.64	6.4559e-06	1.0272e-05	314.41	88.824	73.359	20.523	9.4242e-06	28.443	0.0019791	0.0020928	0.00058339	1324.2	2.2945e-05	2.3136e-05	1395.6	280.62	2.3258e-05	2.3419e-05	375.07	101.41	87.274	25.085	2.3545e-05	34.948	-165.589	-71.247	-166.302	-155.653	-145.440	-108.707	-155.955	-148.752	-27.333	-152.567	-148.781	-142.999	-142.227	-135.340	150.967	-135.388	-8191	255	
1400.070	1	1	0	0	0.093337	0.12621	0.20261	0.02678	0.1445	0.37294	0.06137	0.076752	0.18949	0.29028	0.10764	0.28088	0.061689	0.21545	0.10224	0.17481	-2.9667	-3.5292	-3.2646	-3.7104	-3.3146	-3.425	-3.4792	-3.2771	-3.4125	-3.2646	-3.2938	-3.5417	-3.2021	-3.3812	-3.3937	-3.1646	-111.982	43.276	36.682	36.405	-78.700	-103.124	-59.582	7.828	161.698	-38.785	66.949	167.898	-99.446	156.244	172.813	140.337	0.00022584	0.0008019	0.00017871	1291.5	3.5084e-06	1.2856e-05	1354.3	254.38	1.2037e-05	1.3532e-05	314.1	88.831	73.166	20.649	1.044e-05	28.694	0.0020419	0.0021608	0.00059718	1332.6	2.352e-05	2.3935e-05	1402.2	282.47	2.3814e-05	2.4141e-05	377.08	101.96	87.969	25.285	2.4038e-05	35.151	-146.644	-28.468	74.130	-155.812	95.255	-151.375	-155.819	-149.083	130.985	-54.711	-149.216	-142.518	-142.148	-135.377	-138.384	-135.328	-8191	255	
1400.190	1	1	0	0	0.14831	0.070141	0.066729	0.16327	0.070168	0.033218	0.013749	0.25986	0.073466	0.094784	0.11647	0.196	0.016529	0.22911	0.095616	0.079386	-2.9667	-3.3146	-3.1417	-3.5521	-3.2958	-3.1833	-3.6	-3.2458	-3.2313	-3.3833	-3.2812	-3.5396	-3.2604	-3.2604	-3.3021	-3.3125	-67.063	98.533	162.828	134.745	-11.103	30.024	-42.388	-4.680	30.933	-88.122	121.220	142.537	186.336	173.692	-91.890	-149.168	0.00021926	0.0012442	0.00019693	1288.6	4.6915e-06	3.7932e-06	1350.7	254.63	1.0464e-05	4.7864e-06	318.42	88.759	73.628	20.705	8.1831e-06	28.895	0.0020515	0.0021766	0.00060771	1333.3	2.3748e-05	2.4108e-05	1404	283.05	2.4287e-05	2.4516e-05	379.91	102.27	88.458	25.445	2.4742e-05	35.444	178.987	-2.317	-104.795	-155.825	-90.842	16.396	-155.993	-149.322	51.284	127.078	-149.634	-142.776	-141.901	-135.378	-53.082	-135.618	-8191	255	
1400.262	1	1	0	0	0.19639	0.27745	0.14615	0.28292	0.19764	0.28845	0.078925	0.03548	0.27513	0.12939	0.079192	0.19228	0.20536	0.076443	0.16242	0.17176	-3.025	-3.3333	-3.1875	-3.7333	-3.4979	-3.1208	-3.7938	-3.2604	-3.4021	-3.4333	-2.9813	-3.5958	-3.5187	-3.1958	-3.6146	-3.2583	-140.950	94.824	-132.792	168.790	-130.970	114.883	-4.809	-60.656	26.149	-64.292	10.699	-119.074	176.679	131.119	-52.763	109.225	0.0001971	0.0017974	0.00039469	1292.3	9.5407e-06	2.0403e-05	1363.5	255.22	5.3815e-06	3.9406e-06	316.3	88.887	73.774	20.767	1.4061e-05	28.781	0.0021443	0.0022964	0.00063959	1344.1	2.5075e-05	2.5422e-05	1418.7	285.71	2.539e-05	2.5657e-05	384.06	103.01	89.366	25.71	2.513e-05	35.75	-107.398	-36.996	-130.561	-155.832	-31.496	31.572	-155.936	-149.291	-138.273	-14.104	-149.163	-142.842	-142.066	-135.097	-130.077	-135.841	-8191	255	
1400.358	1	1	0	0	0.148	0.19437	0.15292	0.2198	0.20734	0.043143	0.3165	0.24328	0.13344	0.072932	0.064706	0.071414	0.16191	0.12459	0.1035	0.10113	-2.9917	-3.5229	-3.0917	-3.5771	-3.3354	-3.1708	-3.4229	-3.2708	-3.4479	-3.2938	-3.2604	-3.5521	-3.2	-3.2687	-3.5042	-3.0917	24.016	-22.512	-88.869	123.977	172.653	-23.586	140.497	23.817	133.210	28.269	-76.185	-110.815	-61.679	-140.706	-10.543	-52.210	0.00017486	0.0015844	0.00026872	1298.1	2.4205e-06	4.1423e-06	1367	256.49	1.0683e-05	1.5951e-05	313.46	88.964	73.633	20.674	5.3035e-06	28.892	0.0021623	0.0022852	0.00063844	1349.4	2.4801e-05	2.5048e-05	1420.6	285.35	2.4802e-05	2.5047e-05	381.66	102.91	89.189	25.596	2.535e-05	35.704	-165.709	-90.132	115.493	-155.985	104.189	-125.988	-155.863	-148.941	-27.693	-28.035	-148.571	-143.103	-142.287	-135.362	28.996	-136.155	-8191	255	
1400.479	1	1	0	0	0.21134	0.19981	0.15853	0.15613	0.17799	0.18915	0.18935	0.14112	0.18733	0.20611	0.19176	0.12335	0.14538	0.23556	0.14462	0.12749	-2.9083	-3.5229	-3.1063	-3.6458	-3.3063	-3.1854	-3.6437	-3.3271	-3.4313	-3.5021	-3.4479	-3.45	-3.3604	-3.1646	-3.4875	-3.3417	91.297	25.794	-142.972	-155.632	116.734	76.052	163.696	133.251	171.932	59.866	-73.070	-24.138	85.467	115.170	98.882	158.242	0.00011197	0.00081118	0.00031232	1303.9	1.3485e-05	5.7948e-06	1368.3	257.95	1.3003e-05	6.0271e-06	316.36	88.859	74.222	21.022	1.0435e-05	28.928	0.0021875	0.002332	0.00065209	1354.4	2.5548e-05	2.5939e-05	1425.4	287.88	2.5656e-05	2.5877e-05	384.64	103.33	89.569	25.772	2.5646e-05	35.883	177.850	-134.590	-136.908	-155.830	-22.254	65.605	-155.806	-148.975	15.836	-153.203	-149.095	-142.944	-142.335	-135.547	117.328	-135.901	-8191	255	
1400.573	1	1	0	0	0.16834	0.12423	0.1915	0.077399	0.030039	0.14609	0.2474	0.14797	0.26796	0.1828	0.19281	0.031582	0.13338	0.17969	0.070818	0.17099	-3.0354	-3.4625	-3.3625	-3.6542	-3.4625	-3.075	-3.5771	-3.4583	-3.2417	-3.5125	-3.2896	-3.4583	-3.2854	-3.4354	-3.4271	-3.2667	120.182	-5.011	190.214	162.952	-140.441	157.460	143.951	-165.827	169.904	158.255	-144.932	-161.153	159.054	-46.643	42.988	-138.584	0.00025755	0.00080887	0.00018996	1301.8	9.0618e-07	4.218e-06	1370.6	257.65	3.838e-06	4.7708e-06	318.24	89.958	74.384	20.773	9.1813e-06	29.111	0.002208	0.0023423	0.00065161	1355.3	2.5458e-05	2.5777e-05	1427	287.64	2.5306e-05	2.5497e-05	384.7	103.35	89.382	25.577	2.4631e-05	35.51	167.450	-47.989	-93.627	-156.060	47.203	44.985	-155.970	-149.331	-146.936	-24.265	-149.325	-142.928	-142.119	-135.346	48.482	-136.016	-8191	255	
1400.671	1	1	0	0	0.1937	0.13421	0.055724	0.13821	0.078069	0.15395	0.30041	0.11225	0.24562	0.060738	0.2248	0.2498	0.24953	0.23797	0.22578	0.0771	-2.6729	-3.575	-3.0958	-3.3563	-3.5875	-3.375	-3.6854	-3.3875	-3.3125	-3.5417	-3.325	-3.2979	-3.5958	-3.2	-3.325	-3.4604	11.933	60.460	187.422	116.751	168.009	-153.432	109.216	51.226	33.756	169.040	139.219	19.477	121.987	155.666	119.169	-18.829	0.00046411	0.0013639	0.0001799	1305.1	1.1052e-05	8.505e-06	1376	256.27	8.3879e-06	4.4999e-06	316.78	89.113	74.016	20.861	6.5707e-06	28.973	0.0020728	0.0021831	0.00060381	1350.1	2.3509e-05	2.3748e-05	1421.4	284.71	2.3629e-05	2.3897e-05	379.46	102.4	88.544	25.439	2.3611e-05	35.281	-153.049	-82.536	-127.256	-156.042	-78.357	-83.757	-155.777	-149.708	-89.109	97.264	-149.151	-142.567	-142.078	-135.062	70.870	-135.709	-8191	255	
1400.767	1	1	0	0	0.060801	0.28807	0.18295	0.05993	0.18076	0.27559	0.18934	0.17615	0.097311	0.28099	0.17199	0.15782	0.098717	0.075243	0.22329	0.078139	-2.7375	-3.3333	-3.2417	-3.4583	-3.4833	-3.2458	-3.6604	-3.7646	-3.3063	-3.5312	-3.2438	-3.175	-3.5479	-3.3854	-3.2708	-3.4854	10.307	82.352	8.200	74.301	185.933	163.381	72.771	161.311	160.139	168.839	171.997	90.926	-85.456	61.172	-156.210	-101.876	0.00031176	0.00067388	0.00036182	1307.1	4.3598e-06	1.2941e-05	1374.7	256.6	1.1422e-05	3.9255e-06	316	89.349	74.11	20.732	5.9248e-06	29.038	0.0020135	0.0021129	0.00059104	1348.5	2.275e-05	2.3014e-05	1417.4	283.65	2.2684e-05	2.2627e-05	374.87	101.53	87.481	25.013	2.1932e-05	34.716	186.200	128.982	90.698	-155.842	-90.681	38.283	-155.906	-149.273	-95.978	77.622	-148.807	-142.449	-142.237	-135.408	28.992	-135.786	-8191	255	
1400.862	1	1	0	0	0.12842	0.045996	0.10685	0.19803	0.19307	0.094809	0.11622	0.28127	0.037778	0.067267	0.12079	0.03986	0.17449	0.049262	0.11019	0.066724	-2.6875	-3.4146	-3.3271	-3.3	-3.5042	-3.2083	-3.6771	-3.6396	-3.1063	-3.65	-3.4833	-3.3792	-3.5771	-3.4417	-3.2854	-3.6708	164.788	94.120	87.335	183.395	-27.498	-92.984	-63.833	67.336	155.918	-35.552	-5.001	-67.214	-30.246	-141.577	-86.406	135.188	0.00024632	0.00015068	0.0002781	1295	4.1036e-06	1.1404e-05	1368.1	255.61	9.0523e-06	1.6076e-05	314.7	89.39	74.687	20.753	3.2401e-06	29.186	0.0018521	0.0019506	0.00053981	1336	2.0558e-05	2.0619e-05	1405.1	279.02	1.9855e-05	1.9816e-05	363.96	99.555	85.339	24.305	1.89e-05	33.904	-155.521	32.611	-106.237	-155.884	-103.514	-122.141	-156.045	-148.917	-59.733	89.540	-149.016	-142.856	-142.365	-135.640	58.825	-135.886	-8191	255	
1400.958	1	1	0	0	0.1141	0.25563	0.21535	0.20878	0.18257	0.18119	0.39169	0.1263	0.071254	0.060097	0.29267	0.14231	0.085863	0.10476	0.17955	0.098441	-2.7667	-3.5271	-3.4979	-3.4375	-3.5521	-3.3354	-3.7292	-3.6542	-3.2542	-3.5	-3.2021	-3.2417	-3.4062	-3.3583	-3.2812	-3.6792	-161.733	49.816	-48.174	138.282	-66.722	-67.618	121.064	185.961	-89.047	64.064	-35.921	45.930	113.484	72.704	95.285	7.567	0.00020889	0.00012452	0.00021405	1298.4	2.8487e-06	7.8592e-06	1364.8	256.24	2.3931e-06	9.8958e-06	312.77	89.316	74.012	20.831	1.4002e-05	28.847	0.0016108	0.0016895	0.00047102	1323.1	1.8022e-05	1.813e-05	1393.3	274.87	1.7451e-05	1.7462e-05	355.52	97.999	83.552	23.847	1.6848e-05	33.147	-130.532	136.991	-106.647	-155.686	-156.850	-150.551	-155.912	-149.204	-7.431	-51.016	-149.131	-142.446	-142.303	-135.258	-30.661	-135.569	-8191	255	
1401.078	1	1	0	0	0.25679	0.20354	0.24548	0.18618	0.096973	0.19479	0.19871	0.42244	0.16069	0.16199	0.13874	0.11393	0.25336	0.11791	0.22926	0.12899	-2.6854	-3.5375	-3.3688	-3.3438	-3.4729	-3.4042	-3.4896	-3.6708	-3.2062	-3.4542	-3.3292	-3.0979	-3.4271	-3.3458	-3.2875	-3.4	78.160	176.126	47.750	123.695	43.359	-120.261	174.616	-155.314	-153.594	-91.291	133.551	-74.631	168.835	172.138	35.940	184.115	0.00024068	0.00077526	0.00020381	1301.5	6.651e-06	1.0329e-05	1365.8	255.96	6.9744e-06	7.6898e-06	316.31	89.025	73.645	20.674	7.5316e-06	28.901	0.0014466	0.0015303	0.00042446	1318.4	1.6274e-05	1.6251e-05	1386.8	272	1.5654e-05	1.5569e-05	350.11	96.778	82.039	23.442	1.4668e-05	32.484	-160.940	182.091	-111.662	-155.839	181.943	-98.682	-155.932	-149.101	-115.786	-76.864	-148.861	-142.789	-142.512	-135.679	-27.078	-135.519	-8191	255	
1401.175	1	1	0	0	0.32229	0.2104	0.039059	0.067555	0.15706	0.29049	0.15113	0.11736	0.10638	0.12702	0.26731	0.054752	0.1968	0.18621	0.068874	0.24929	-2.6937	-3.2479	-3.5687	-3.4042	-3.4313	-3.3292	-3.3812	-3.5875	-3.3708	-3.3688	-3.5479	-3.0938	-3.6	-3.3333	-3.0958	-3.4688	-114.423	-164.555	-88.877	-104.025	2.871	34.361	131.489	157.812	189.460	-79.249	121.253	175.253	62.720	142.559	-150.556	54.804	0.00022744	0.0006993	8.0228e-05	1297.8	1.569e-06	5.8698e-06	1363.8	257.04	2.2735e-06	7.4607e-06	313.43	88.671	73.335	20.618	6.1862e-06	28.713	0.0012364	0.0012912	0.00035848	1306.2	1.3696e-05	1.3787e-05	1374.3	267.49	1.3375e-05	1.3451e-05	341.62	94.681	80.417	22.907	1.3162e-05	32.005	-156.586	48.311	-56.667	-155.786	-76.155	2.712	-155.701	-149.137	-132.549	-55.390	-148.728	-142.677	-142.008	-135.352	-110.631	-136.174	-8191	255	
1401.271	1	1	0	0	0.16067	0.13297	0.17785	0.11912	0.22081	0.32783	0.20058	0.11407	0.18592	0.22188	0.19926	0.15854	0.14907	0.20436	0.032416	0.096196	-2.9854	-3.3479	-3.4146	-3.5729	-3.45	-3.675	-3.3333	-3.7396	-3.3667	-3.3583	-3.5396	-3.3104	-3.4875	-3.4229	-3.2604	-3.3792	124.967	-130.573	96.893	-102.773	67.850	-100.896	150.473	170.368	-152.486	38.562	-11.496	117.164	-52.555	-101.802	-115.877	108.212	0.00042893	0.00055629	8.561e-05	1288.8	8.4784e-06	1.2815e-05	1352.7	254.47	5.162e-06	4.5203e-06	315.27	88.771	73.183	20.713	7.5166e-06	28.583	0.0011436	0.0012085	0.00033493	1294.1	1.3357e-05	1.3417e-05	1364.9	266.53	1.3479e-05	1.3661e-05	342.9	95.225	80.554	23.098	1.3726e-05	32.142	-159.531	9.253	-94.178	-155.894	-154.106	-35.842	-155.801	-148.977	93.279	10.336	-148.757	-142.483	-142.198	-135.628	47.558	-135.880	-8191	255	
1401.367	1	1	0	0	0.047223	0.10694	0.13646	0.20802	0.10768	0.14725	0.32303	0.22762	0.099673	0.16984	0.10292	0.11848	0.25182	0.28409	0.14952	0.1741	-3.1188	-3.1229	-3.5229	-3.35	-3.3708	-3.4958	-3.3083	-3.6021	-3.4792	-3.3604	-3.7479	-3.2417	-3.5354	-3.4729	-3.3563	-3.5229	119.403	-47.613	-92.787	164.165	60.252	47.898	128.269	-65.603	-139.414	-142.273	46.148	-80.020	172.592	-91.175	41.143	-162.862	0.00028509	0.00034544	0.00029625	1287.9	6.943e-06	1.0736e-05	1351.6	254.04	1.4271e-06	8.8634e-06	314.57	89.142	73.071	20.65	1.0915e-05	28.954	0.0011891	0.0012712	0.00035362	1297	1.3894e-05	1.3839e-05	1367	266.89	1.3573e-05	1.3404e-05	342.31	95.007	80.339	22.953	1.3428e-05	32.089	-158.501	0.152	104.416	-155.720	-25.622	-80.962	-155.723	-149.004	105.131	-30.149	-148.701	-143.131	-142.043	-135.436	-69.290	-135.637	-8191	255	
1401.488	1	1	0	0	0.16731	0.17135	0.086478	0.17836	0.20209	0.092759	0.51575	0.096071	0.026856	0.032278	0.12917	0.177	0.11274	0.045469	0.26632	0.24073	-3.0354	-3.0583	-3.6312	-3.2687	-3.3792	-3.3833	-3.3208	-3.6146	-3.4104	-3.2021	-3.6979	-3.2375	-3.2812	-3.6667	-3.0563	-3.4917	-108.602	106.206	92.189	138.573	120.242	-40.311	169.401	138.854	-134.770	-130.507	60.688	170.296	186.421	124.805	12.990	-86.953	0.00024208	0.00094632	0.00036516	1281.4	5.3165e-06	4.3629e-06	1348.9	252.96	6.7112e-06	6.2876e-06	314.39	88.894	73.824	20.792	8.6012e-06	28.829	0.001189	0.0012527	0.00035526	1292.8	1.4178e-05	1.4595e-05	1364	267.48	1.4845e-05	1.5131e-05	347.37	96.145	81.811	23.439	1.5442e-05	32.626	-158.806	54.937	-39.432	-155.734	-26.405	19.597	-155.845	-148.529	-60.638	32.950	-149.121	-142.721	-141.765	-135.266	-15.183	-135.811	-8191	255	
1401.559	1	1	0	0	0.075672	0.29437	0.083248	0.33579	0.042444	0.16937	0.19447	0.19325	0.25652	0.14023	0.23055	0.28946	0.035664	0.31784	0.058483	0.27217	-2.9813	-3.3063	-3.5667	-3.6396	-3.1125	-3.5604	-3.375	-3.5458	-3.5667	-3.1917	-3.5146	-3.4958	-3.15	-3.7292	-3.05	-3.5833	-60.974	66.871	-21.841	139.196	-46.195	-45.801	94.845	-159.567	106.064	-90.725	177.659	96.595	-97.880	-165.721	108.594	170.421	0.00029938	0.0015249	8.3795e-05	1290.8	2.2591e-06	7.9578e-06	1348.3	255.95	7.8547e-07	8.1659e-06	314.11	88.326	73.139	20.461	7.7916e-06	28.205	0.001338	0.0014007	0.00038853	1300.6	1.5232e-05	1.5265e-05	1365.9	268.94	1.4985e-05	1.4891e-05	346.02	95.71	80.734	23.095	1.4286e-05	32.027	-150.496	-110.710	-87.396	-155.949	90.771	101.687	-155.906	-148.892	-136.544	-138.329	-149.203	-142.481	-142.130	-135.315	-48.730	-135.544	-8191	255	
1401.655	1	1	0	0	0.23734	0.2954	0.17449	0.25951	0.1864	0.30425	0.033011	0.12722	0.11302	0.02563	0.045383	0.16983	0.20088	0.072246	0.1604	0.08792	-2.9188	-3.2833	-3.425	-3.575	-3.2375	-3.5625	-3.4771	-3.4042	-3.3542	-3.25	-3.35	-3.4958	-3.2125	-3.5938	-3.4208	-3.3729	175.588	38.511	-97.982	178.486	-44.348	-12.219	-82.435	114.614	-78.269	44.220	132.278	-106.737	-146.312	153.528	-47.248	-87.930	0.00023938	0.00074756	0.0001416	1264.2	6.6142e-06	2.5835e-06	1379	252	1.2272e-05	4.7324e-06	310.57	87.698	71.615	20.427	3.8357e-06	28.223	0.0012221	0.001271	0.00035527	1277	1.393e-05	1.4055e-05	1390.9	264.46	1.4155e-05	1.4311e-05	341.18	94.913	79.433	23.035	1.4648e-05	32.075	-123.715	-83.605	110.634	-155.652	60.956	118.022	-156.200	-149.085	-19.591	99.310	-148.891	-142.499	-142.493	-135.283	9.102	-136.010	-8191	255	
1401.750	1	1	0	0	0.16205	0.24797	0.083477	0.31017	0.26711	0.032531	0.091673	0.10646	0.085349	0.068323	0.078397	0.12798	0.21119	0.16206	0.061072	0.094141	-3.0167	-3.2292	-3.3375	-3.6479	-3.1167	-3.4813	-3.4375	-3.2792	-3.4792	-3.2104	-3.5271	-3.3688	-3.2083	-3.8479	-3.3958	-3.4583	-28.060	170.862	-13.562	133.122	-159.302	-124.766	182.850	159.270	-51.454	-149.583	-41.458	-32.673	-44.247	5.618	42.699	95.640	0.000205	0.0005612	0.00034313	1268.6	4.6031e-06	8.8929e-06	1350.7	250.43	6.837e-06	7.0555e-06	311.22	87.891	71.858	20.451	6.7042e-06	28.436	0.0012798	0.0013456	0.00037949	1278.4	1.4875e-05	1.5158e-05	1369.4	265.21	1.529e-05	1.544e-05	345.18	95.64	80.219	23.204	1.5629e-05	32.379	192.905	116.404	-112.261	-155.821	-0.640	-46.477	-155.791	-149.102	-70.320	-98.181	-148.930	-142.762	-142.104	-134.838	-116.761	-135.644	-8191	255	
1401.870	1	1	0	0	0.039616	0.023144	0.17204	0.23486	0.36164	0.097102	0.37297	0.24331	0.15392	0.10523	0.17165	0.22187	0.22078	0.126	0.13608	0.20279	-3.1646	-3.0854	-3.4917	-3.5958	-3.2896	-3.4604	-3.5396	-3.3438	-3.5187	-3.2188	-3.4271	-3.6167	-3.1208	-3.5021	-3.2625	-3.3208	16.924	-42.681	63.581	140.091	-79.488	-94.133	108.845	136.205	-122.050	103.444	113.613	-103.467	149.539	-134.928	-78.076	139.667	0.00025612	0.00064162	0.00045704	1261.4	3.2793e-06	7.3505e-06	1411.3	249.95	2.6767e-06	7.4035e-06	311.66	87.506	71.467	20.388	3.8357e-06	28.068	0.0013644	0.0014526	0.00040648	1279.2	1.5925e-05	1.5986e-05	1425.6	266.25	1.5678e-05	1.5949e-05	345.51	95.649	80.306	23.229	1.6018e-05	32.435	-153.046	-60.761	-111.495	-155.607	-158.176	90.199	-155.817	-149.116	-8.920	-146.728	-148.932	-142.539	-142.353	-135.346	-109.691	-135.532	-8191	255	
1401.967	1	1	0	0	0.1247	0.035155	0.22569	0.1105	0.16965	0.33863	0.29709	0.178	0.14925	0.26857	0.2759	0.025465	0.017947	0.023498	0.24866	0.13961	-3.2521	-3.2375	-3.2542	-3.7333	-3.1771	-3.7083	-3.6562	-3.2313	-3.6896	-3.4479	-3.4854	-3.4208	-3.3729	-3.4083	-3.5563	-3.175	-44.206	-106.198	106.276	178.752	-53.957	-120.898	101.912	-121.957	-48.138	-164.468	88.441	-147.446	-142.647	151.942	24.289	171.709	0.00022681	0.00030897	0.00020419	1263.3	9.8101e-06	4.2962e-06	1402.4	249.85	3.0167e-06	8.8043e-07	307.6	87.777	71.523	20.368	4.6876e-06	28.371	0.0014015	0.0014815	0.00041448	1279.7	1.6373e-05	1.6544e-05	1426.8	267.14	1.6628e-05	1.6979e-05	348.82	96.237	81.019	23.471	1.7137e-05	32.865	189.766	-9.464	1.058	-155.682	-22.049	172.697	-156.100	-149.084	22.405	-137.273	-148.757	-142.470	-142.520	-135.251	28.926	-135.929	-8191	255	
1402.063	1	1	0	0	0.064271	0.18274	0.10457	0.20694	0.12534	0.10621	0.042066	0.068772	0.084019	0.26447	0.16201	0.18976	0.082667	0.28585	0.097596	0.13686	-3.2667	-3.1813	-3.2188	-3.6063	-3.1604	-3.6292	-3.5396	-3.2	-3.4667	-3.425	-3.3812	-3.5	-3.2438	-3.2875	-3.4479	-3.225	-100.978	-49.340	117.577	130.186	75.105	-88.021	171.289	183.686	-46.566	-24.215	-94.934	130.458	51.562	183.017	140.671	-26.059	0.00027839	0.00070285	0.00038228	1256.2	3.8151e-06	4.8455e-06	1342.4	249.23	4.3109e-06	1.5628e-05	309.34	87.256	70.652	20.401	5.1336e-06	28.331	0.0014972	0.0015923	0.00044631	1283.5	1.758e-05	1.8086e-05	1370.8	269.04	1.8056e-05	1.8217e-05	353.91	96.711	81.377	23.711	1.7832e-05	33.001	-134.092	-92.450	-101.530	-155.771	-138.468	160.789	-155.727	-149.020	-19.185	-59.312	-148.880	-142.774	-142.396	-135.203	180.542	-135.709	-8191	255	
1402.159	1	1	0	0	0.27791	0.23488	0.12103	0.255	0.077019	0.3214	0.13689	0.20137	0.084644	0.17607	0.14724	0.077674	0.10317	0.12483	0.074926	0.11658	-3.0417	-3.2812	-3.2417	-3.7333	-3.0563	-3.4625	-3.55	-3.2354	-3.4667	-3.1896	-3.2167	-3.5229	-3.4458	-3.2604	-3.5542	-3.2062	87.175	-161.783	-85.348	119.426	192.234	-119.606	153.513	184.043	99.103	-3.570	129.287	114.033	-90.466	-16.254	-119.239	114.167	0.00032354	0.0010437	0.00020912	1261.8	1.9281e-06	1.1223e-05	1330.1	248.59	2.4712e-06	1.1122e-05	308.85	87.83	70.95	20.391	9.6258e-06	28.343	0.001533	0.0016291	0.00044781	1283.3	1.7622e-05	1.7909e-05	1357.9	268.97	1.7784e-05	1.8057e-05	352.54	96.879	81.355	23.69	1.7964e-05	33.022	-140.333	-104.869	-83.029	-155.833	-44.628	24.375	-155.461	-148.897	73.142	88.895	-149.146	-142.303	-142.388	-135.371	-22.570	-135.544	-8191	255	
1402.255	1	1	0	0	0.35457	0.1061	0.17491	0.2036	0.073841	0.13464	0.35656	0.16711	0.10496	0.19579	0.050446	0.28025	0.1962	0.15423	0.1422	0.15296	-3.3396	-3.3958	-3.1208	-3.6562	-3.2354	-3.2938	-3.6063	-3.5083	-3.3187	-3.4583	-3.2812	-3.4062	-3.4062	-3.2958	-3.5479	-3.1417	48.078	52.751	-122.938	184.423	-71.670	-165.771	65.068	171.166	-104.653	28.017	-38.489	148.679	154.991	-76.852	87.924	-148.954	0.00039607	0.0008368	6.9462e-05	1259.8	3.1503e-06	1.1028e-05	1318.5	248.81	1.074e-05	4.0234e-06	309.27	86.977	71.153	20.196	1.0925e-05	28.214	0.0015519	0.0016258	0.00045208	1283.8	1.7626e-05	1.7894e-05	1344	268.32	1.7567e-05	1.7695e-05	352.24	96.411	80.994	23.544	1.7631e-05	32.918	-154.637	-15.675	184.928	-155.948	-165.312	-66.641	-154.869	-148.591	13.254	-2.852	-149.019	-142.451	-142.102	-135.213	172.432	-135.440	-8191	255	
1402.351	1	1	0	0	0.18468	0.10488	0.23349	0.2352	0.20471	0.21777	0.14945	0.19633	0.13306	0.10487	0.14185	0.17688	0.32284	0.12095	0.013818	0.22588	-3.1437	-3.3167	-3.1771	-3.6771	-3.3271	-3.2708	-3.8833	-3.225	-3.45	-3.5687	-3.2042	-3.5229	-3.3354	-3.1917	-3.4688	-3.4062	133.729	34.552	-65.804	161.142	-36.531	106.071	164.929	169.248	-158.252	-101.652	165.077	148.413	147.494	175.118	-59.951	65.003	0.00024807	0.00026363	0.00024493	1253.5	7.412e-06	5.1168e-07	1318.2	249.53	6.1493e-06	1.1241e-05	306.26	86.865	70.82	20.414	6.6698e-06	28.091	0.0015109	0.0016017	0.00044919	1281.1	1.7501e-05	1.7615e-05	1349.4	268.11	1.7542e-05	1.7536e-05	350.7	96.047	80.679	23.474	1.7094e-05	32.718	186.553	178.075	-113.967	-155.705	47.095	191.923	-154.860	-148.918	-78.382	82.602	-148.520	-142.749	-142.278	-135.452	56.240	-135.553	-8191	255	
1402.447	1	1	0	0	0.095216	0.050397	0.045083	0.15686	0.15283	0.034092	0.24535	0.20042	0.17231	0.097261	0.18928	0.07435	0.27043	0.053501	0.053507	0.16708	-2.9562	-3.5312	-2.9625	-3.6917	-3.3292	-3.3063	-3.6417	-3.3792	-3.2687	-3.5833	-3.1562	-3.4979	-3.3646	-3.3167	-3.425	-3.2938	-22.008	134.676	91.533	155.609	26.857	85.179	144.356	144.719	124.349	73.485	-103.812	108.824	176.056	109.234	57.668	93.596	0.00026149	0.00077083	4.438e-05	1258.2	7.6467e-06	7.8742e-07	1319.2	249.66	4.8747e-06	2.6661e-06	310.14	87.401	70.967	20.313	4.8494e-06	28.439	0.0014665	0.0015564	0.00042986	1277.8	1.6871e-05	1.7229e-05	1343.7	266.99	1.7334e-05	1.7383e-05	350.46	96.213	80.762	23.545	1.7513e-05	32.796	-157.380	-41.084	87.436	-155.768	-160.864	89.067	-154.679	-149.186	-111.810	-64.349	-148.637	-142.875	-142.529	-134.802	-1.132	-135.474	-8191	255	
1402.568	1	1	0	0	0.17267	0.099704	0.12216	0.14835	0.18381	0.090222	0.26597	0.27811	0.16148	0.16543	0.32374	0.13244	0.16121	0.25455	0.095992	0.096368	-2.8396	-3.5542	-3.1333	-3.5167	-3.2896	-3.2188	-3.8375	-3.4229	-3.3042	-3.4896	-3.3083	-3.4271	-3.5	-3.2292	-3.6917	-3.3396	68.667	127.660	73.674	176.691	-104.073	140.832	152.372	89.269	-64.821	10.560	170.618	80.711	176.751	121.433	45.903	130.807	0.00032942	0.0005213	0.00025638	1255.4	5.9107e-06	6.0131e-06	1323.6	249.76	5.9133e-06	1.1064e-05	311.65	87.107	70.562	20.253	5.0076e-06	28.38	0.0015034	0.0016015	0.00044497	1279.1	1.7439e-05	1.7699e-05	1350.7	268.05	1.7543e-05	1.7692e-05	350.94	96.297	80.743	23.448	1.7269e-05	32.815	-150.300	28.135	-75.386	-155.510	-93.268	-148.388	-155.027	-149.130	-29.229	18.478	-149.045	-142.615	-142.161	-134.700	12.741	-135.855	-8191	255	
1402.662	1	1	0	0	0.051754	0.20938	0.094746	0.32572	0.21619	0.090993	0.13944	0.12956	0.088318	0.10386	0.067004	0.10748	0.12276	0.18997	0.04337	0.15247	-2.9104	-3.5354	-3.0604	-3.5375	-3.425	-3.1688	-3.4437	-3.4479	-3.3792	-3.55	-3.3	-3.4979	-3.4854	-3.1771	-3.5021	-3.425	72.947	-119.870	-149.687	123.635	177.506	75.077	-131.308	-138.620	12.606	-123.672	-62.866	91.122	-144.820	-3.525	-30.260	-93.035	0.00028668	0.00028586	0.00012766	1254.9	9.3432e-06	5.4182e-06	1309.1	248.56	4.7185e-06	1.2835e-05	307.9	86.763	71.167	20.144	7.1616e-06	28.227	0.0014753	0.0015634	0.00043295	1275.4	1.6794e-05	1.6991e-05	1338.4	266.17	1.6634e-05	1.663e-05	346.6	95.567	79.901	23.204	1.6405e-05	32.368	-155.845	97.429	-132.490	-155.835	-70.530	-84.464	-154.827	-148.881	-112.725	-128.832	-148.944	-142.783	-142.186	-134.946	18.661	-135.657	-8191	255	
1402.759	1	1	0	0	0.037677	0.17127	0.12168	0.16507	0.33528	0.10162	0.080982	0.22998	0.19278	0.1821	0.3557	0.20172	0.069782	0.11673	0.072712	0.29203	-2.8229	-3.4521	-3.1083	-3.5833	-3.4875	-3.2417	-3.5312	-3.4604	-3.3542	-3.6896	-3.3125	-3.4062	-3.5521	-3.425	-3.6333	-3.5375	86.605	-115.397	174.265	152.323	114.023	8.788	93.428	88.339	-104.738	71.394	-146.848	159.412	111.532	177.038	16.723	81.414	0.00020281	0.0005731	0.00019275	1246.1	3.7937e-06	1.2537e-05	1320	245.59	1.0417e-05	6.0358e-06	306.02	87.078	70.565	20.163	5.8206e-06	28.358	0.0014094	0.0014891	0.00041754	1265.8	1.6265e-05	1.649e-05	1339.3	263.71	1.6329e-05	1.6449e-05	344.75	94.925	79.499	23.08	1.6202e-05	32.318	186.350	-66.995	-100.033	-155.639	-81.635	-85.724	-155.278	-149.072	130.803	149.789	-148.282	-142.517	-142.469	-135.108	-99.047	-135.490	-8191	255	
1402.855	1	1	0	0	0.040236	0.21737	0.16911	0.17352	0.22328	0.086343	0.2081	0.16634	0.20513	0.068481	0.066427	0.12041	0.066094	0.14045	0.15563	0.14123	-2.8688	-3.5146	-3.2687	-3.3854	-3.5042	-3.1833	-3.525	-3.4646	-3.1208	-3.5167	-3.275	-3.2438	-3.675	-3.275	-3.2771	-3.45	-162.594	-26.605	-22.318	139.486	-20.560	-95.000	52.973	128.707	117.339	175.748	90.775	83.347	-118.727	190.537	85.958	170.509	0.00035592	0.0011366	0.00022466	1245.2	1.9048e-06	1.0757e-05	1314.6	248.77	6.0737e-06	7.871e-06	307.75	86.331	70.424	20.125	8.9527e-07	28.203	0.0014049	0.0014928	0.00041549	1264.3	1.6347e-05	1.657e-05	1336	264.68	1.6385e-05	1.6591e-05	344.9	95.078	79.697	23.142	1.6411e-05	32.384	-141.166	98.627	-37.122	-155.690	-89.661	31.321	-154.997	-149.339	-47.921	173.204	-148.832	-142.872	-142.368	-135.452	-102.311	-135.405	-8191	255	
1402.951	1	1	0	0	0.24995	0.079525	0.052916	0.061561	0.10626	0.30518	0.15535	0.18504	0.20665	0.14562	0.084017	0.1559	0.19149	0.235	0.046552	0.17811	-3.0062	-3.4208	-3.1937	-3.5396	-3.5667	-3.2792	-3.5167	-3.4604	-3.1562	-3.475	-3.5208	-3.1604	-3.5333	-3.275	-3.3292	-3.4521	-72.425	-143.705	24.752	144.725	78.073	174.365	150.846	151.678	-36.223	45.312	-79.707	57.620	138.918	176.250	86.521	94.498	0.00022455	0.00044809	3.8446e-05	1244.3	1.7535e-06	5.9048e-06	1299.4	248.1	8.0054e-06	6.4647e-06	304.83	86.624	70.159	20.075	6.2271e-06	28.171	0.001416	0.0014788	0.00041337	1262.9	1.616e-05	1.6452e-05	1324.8	264.42	1.626e-05	1.6482e-05	343.7	94.877	79.479	23.135	1.6446e-05	32.365	182.115	7.882	-110.535	-155.779	-63.399	7.983	-154.904	-149.031	-91.145	20.648	-148.948	-142.546	-142.004	-134.910	34.821	-135.441	-8191	255	
1403.047	1	1	0	0	0.14616	0.036919	0.333	0.34806	0.20374	0.10789	0.33914	0.065708	0.14803	0.078792	0.23594	0.4056	0.11402	0.22609	0.16106	0.019311	-2.7854	-3.4333	-3.3396	-3.2833	-3.4208	-3.2667	-3.4875	-3.4854	-3.0563	-3.375	-3.4313	-3.2	-3.5521	-3.3167	-3.2438	-3.6208	47.357	-144.709	-124.223	162.113	36.891	181.951	108.837	188.910	-94.046	-139.709	104.459	-162.570	53.813	18.425	-137.667	-44.223	0.00020983	0.0014989	8.1583e-05	1237.7	1.1455e-05	9.0345e-06	1313.6	246.06	8.1032e-06	6.624e-06	304.05	86.593	70.367	20.034	6.4067e-06	27.823	0.0014263	0.0015043	0.00042065	1262.4	1.6461e-05	1.6718e-05	1335.3	263.84	1.6562e-05	1.6672e-05	344.27	95.031	79.56	23.154	1.6616e-05	32.258	167.060	-105.719	111.932	-155.700	-88.796	-19.109	-155.102	-148.736	180.803	-0.004	-148.761	-142.543	-142.232	-134.859	-42.915	-135.402	-8191	255	
1403.168	1	1	0	0	0.08974	0.16978	0.17391	0.43	0.15413	0.29604	0.032348	0.28977	0.0097894	0.12536	0.18805	0.25216	0.15478	0.11942	0.23898	0.11867	-2.7125	-3.4	-3.4229	-3.3063	-3.6667	-3.2667	-3.5312	-3.2479	-3.3042	-3.4146	-3.4979	-3.3292	-3.5938	-3.1833	-3.1875	-3.6333	-8.430	24.472	-2.744	154.247	-22.936	-40.637	-48.594	-135.913	14.850	-107.081	108.268	-102.150	93.315	176.530	134.639	132.882	0.00031777	0.0004996	0.00019638	1238.1	7.2429e-06	1.2967e-05	1309.5	247.07	7.3756e-06	1.0031e-05	307.74	86.673	70.81	20.197	1.0253e-05	27.954	0.0014473	0.0015253	0.00042457	1262.3	1.6676e-05	1.694e-05	1336.5	264.25	1.6743e-05	1.6979e-05	346.24	95.079	80.017	23.229	1.6931e-05	32.412	183.379	-106.238	-72.259	-155.760	-45.246	-134.376	-155.281	-148.877	-48.079	-103.783	-148.957	-142.626	-142.453	-135.236	32.020	-135.799	-8191	255	
1403.264	1	1	0	0	0.091147	0.37324	0.17897	0.21641	0.096697	0.11122	0.2672	0.10226	0.13064	0.18197	0.17852	0.19486	0.042018	0.066269	0.16169	0.084185	-2.8646	-2.9667	-3.4813	-3.2604	-3.475	-3.4521	-3.4938	-3.6604	-3.3146	-3.3187	-3.4979	-3.2854	-3.2771	-3.5042	-3.0938	-3.475	-86.790	-47.073	127.433	159.204	18.043	170.046	111.169	149.800	-96.947	66.058	193.017	-125.917	-92.554	188.023	157.636	-59.186	0.00027619	4.2487e-05	0.00016945	1245.4	7.0469e-06	1.8189e-05	1312	247.1	3.7179e-06	1.0105e-05	304.45	86.094	70.083	20.029	4.9987e-06	27.929	0.0014569	0.0015522	0.00043172	1264.9	1.6936e-05	1.712e-05	1335.5	264.56	1.6975e-05	1.7182e-05	346.53	95.153	79.962	23.264	1.7267e-05	32.507	-165.986	173.184	44.779	-155.661	26.750	15.945	-155.393	-148.882	-4.069	137.801	-148.912	-142.684	-142.613	-135.181	131.686	-135.126	-8191	255	
1403.360	1	1	0	0	0.28152	0.12239	0.08336	0.040451	0.082298	0.15702	0.19688	0.23288	0.14576	0.17616	0.10735	0.23154	0.15468	0.27301	0.059517	0.15494	-2.6792	-3.2062	-3.6771	-3.1729	-3.4646	-3.3854	-3.3458	-3.4188	-3.2938	-3.225	-3.575	-3.2208	-3.5167	-3.4479	-3.2271	-3.6375	139.778	39.168	-124.516	-34.805	-87.173	65.721	150.129	-12.230	175.921	-125.764	148.703	-143.843	150.983	-133.678	-25.104	94.536	0.00026691	0.00018667	0.00047385	1243.6	3.6968e-06	5.3222e-06	1314.3	245.96	8.7982e-06	1.2562e-05	305.96	86.571	70.478	20.094	6.9081e-06	27.971	0.0014962	0.0015738	0.00044115	1266	1.7208e-05	1.7208e-05	1339.4	265.07	1.7139e-05	1.7357e-05	346.72	95.219	80.195	23.304	1.736e-05	32.57	-163.218	-67.918	-58.312	-155.655	-98.746	8.993	-155.117	-148.844	14.618	7.664	-148.835	-142.642	-142.397	-135.316	-71.707	-135.713	-8191	255	
1403.432	1	1	0	0	0.20773	0.14538	0.11734	0.24835	0.089021	0.10276	0.2376	0.097314	0.035599	0.26523	0.20651	0.21536	0.08398	0.085321	0.18391	0.28192	-3.0021	-3.2396	-3.4167	-3.2229	-3.3312	-3.4979	-3.2271	-3.6375	-3.3417	-3.3708	-3.6167	-3.3688	-3.3125	-3.4375	-3.4688	-3.5458	171.057	-52.219	-27.816	-155.805	83.498	-21.533	119.130	-164.768	-2.574	-37.233	-163.253	30.068	108.176	-30.919	-98.742	114.019	0.00014468	0.00036662	0.00035118	1243.1	6.3643e-06	9.5013e-06	1294.8	247.01	8.0939e-06	1.2637e-05	305.89	86.15	70.505	20.032	4.2208e-06	28.035	0.001496	0.0015964	0.00044408	1268.6	1.7464e-05	1.7758e-05	1322.8	265.6	1.7703e-05	1.7721e-05	348.14	95.614	80.248	23.343	1.7652e-05	32.649	-123.843	-141.513	-104.246	-155.616	64.789	25.728	-155.007	-148.960	-95.048	17.613	-149.093	-142.705	-142.260	-135.273	-46.232	-135.509	-8191	255	
1403.552	1	1	0	0	0.15235	0.17087	0.083814	0.15535	0.1818	0.31176	0.13526	0.048718	0.087652	0.11215	0.11984	0.17666	0.12057	0.25736	0.053063	0.058883	-3.0708	-3.0646	-3.65	-3.45	-3.3	-3.4813	-3.1792	-3.3417	-3.5687	-3.0583	-3.5229	-3.2521	-3.1562	-3.5646	-3.0896	-3.4	167.696	-137.631	143.284	-161.214	-73.158	-157.816	-56.036	-55.272	-102.873	87.327	80.259	-162.889	97.186	102.828	-133.052	103.442	0.00023551	0.00059424	0.00031804	1243.6	4.7584e-06	4.523e-06	1316.2	245.28	5.0118e-06	6.1364e-06	305.98	86.52	70.178	20.17	4.2836e-06	28.051	0.0015134	0.0016076	0.00044752	1267.1	1.7434e-05	1.767e-05	1344	265.37	1.7423e-05	1.7668e-05	347.97	95.754	80.216	23.361	1.7615e-05	32.575	-158.105	-65.028	148.342	-155.742	-18.738	-10.340	-155.200	-148.726	-32.357	183.770	-148.636	-142.563	-142.661	-135.051	18.474	-135.392	-8191	255	
1403.647	1	1	0	0	0.23991	0.13756	0.16304	0.22448	0.096338	0.34327	0.31182	0.058584	0.042639	0.0561	0.063947	0.20607	0.10886	0.11479	0.18937	0.051568	-2.9271	-3.1375	-3.4479	-3.5167	-3.1146	-3.6333	-3.4792	-3.5375	-3.3729	-3.2021	-3.4271	-3.3521	-3.2625	-3.2833	-3.3187	-3.5	-114.266	-85.839	172.313	152.732	130.837	6.887	112.971	-65.929	-41.779	-100.778	-136.125	117.171	-119.341	-44.058	69.749	-106.585	0.00032411	0.00047962	0.00026872	1244.9	3.8867e-06	3.2654e-06	1311.5	246.36	1.3947e-05	9.981e-06	304.02	85.72	70.348	20.229	6.3855e-06	28.187	0.0015247	0.0016065	0.00044784	1266	1.7582e-05	1.7785e-05	1339.8	265.44	1.75e-05	1.7736e-05	347.99	95.216	80.446	23.417	1.7763e-05	32.7	-163.820	-149.167	-85.338	-155.676	-136.471	-158.601	-155.154	-148.830	20.898	73.194	-148.821	-142.778	-142.360	-135.284	-17.380	-135.485	-8191	255	
1403.743	1	1	0	0	0.093185	0.15142	0.076148	0.25592	0.17159	0.21213	0.14653	0.0065937	0.22017	0.045695	0.11043	0.18218	0.19982	0.11345	0.02072	0.084315	-2.9521	-3.1417	-3.275	-3.4354	-3.2562	-3.5312	-3.3667	-3.4875	-3.5312	-3.2771	-3.4146	-3.3937	-3.1104	-3.6417	-3.0521	-3.3563	7.223	122.119	-34.408	172.629	79.469	174.003	44.750	-157.773	-69.204	70.592	-113.725	119.175	32.134	177.628	-44.841	-5.013	0.00031743	0.00096275	0.00017185	1238.9	3.9218e-06	1.334e-05	1309.4	246.93	1.2053e-06	5.2902e-06	306.18	86.128	70.489	20.058	6.6346e-06	28.06	0.0015283	0.0016238	0.00045344	1266.6	1.7838e-05	1.8126e-05	1341.3	266.06	1.791e-05	1.8215e-05	349.84	95.742	80.386	23.434	1.791e-05	32.715	-151.842	-79.938	-105.178	-155.684	-98.215	73.358	-155.361	-148.875	79.559	65.960	-149.010	-142.487	-142.303	-135.089	-107.941	-135.720	-8191	255	
1403.841	1	1	0	0	0.21568	0.1881	0.20929	0.11611	0.084777	0.1592	0.35513	0.24066	0.13723	0.089531	0.1647	0.24117	0.19382	0.18017	0.16952	0.091323	-3.0375	-3.1771	-3.4792	-3.4104	-3.0479	-3.5417	-3.4313	-3.2188	-3.7	-3.1729	-3.5667	-3.3458	-3.1146	-3.5479	-3.3312	-3.1083	151.420	-50.028	-40.902	69.336	125.142	17.816	127.461	-20.857	65.821	-116.788	179.634	-118.591	-128.518	181.015	98.221	-37.389	0.00032222	9.5784e-05	0.00012462	1238.2	7.1656e-06	6.7936e-06	1314.8	245.64	1.5991e-05	5.2902e-06	305.17	86.738	70.34	20.103	1.6178e-05	27.997	0.0015437	0.0016327	0.0004567	1267.6	1.7826e-05	1.8122e-05	1340.9	266.23	1.8053e-05	1.8089e-05	349.85	95.931	80.563	23.41	1.8126e-05	32.729	-164.125	10.642	-97.729	-155.729	-98.947	85.777	-155.454	-148.642	-26.281	191.945	-148.744	-142.796	-141.921	-135.148	-78.632	-135.282	-8191	255	
1403.960	1	1	0	0	0.1193	0.17382	0.16596	0.083417	0.3276	0.20044	0.092301	0.15189	0.252	0.070173	0.22562	0.15918	0.1588	0.10656	0.12836	0.079487	-3.125	-3.0438	-3.425	-3.6292	-3.0021	-3.4437	-3.2812	-3.1583	-3.5563	-3.3229	-3.1437	-3.4875	-3.0687	-3.3625	-3.3292	-3.1375	-129.162	-10.334	110.249	98.285	31.609	-62.745	-10.602	151.659	-9.359	116.602	-159.958	186.380	93.385	148.236	113.252	-120.085	8.7053e-05	0.00059691	0.00012467	1244.5	1.1854e-05	1.7508e-05	1318.1	247.56	1.151e-07	1.0344e-05	303.13	86.371	70.06	20.135	1.1912e-05	28.046	0.0015621	0.0016597	0.0004632	1270	1.8208e-05	1.8381e-05	1349.4	266.76	1.8098e-05	1.8155e-05	348.68	95.62	80.39	23.5	1.791e-05	32.742	-124.287	-15.758	-146.283	-155.845	-67.993	-108.048	-155.408	-148.817	50.481	-100.539	-148.639	-142.757	-142.132	-135.019	-68.519	-135.649	-8191	255	
1404.031	1	1	0	0	0.10507	0.36832	0.052402	0.10189	0.20403	0.1013	0.084175	0.17576	0.12783	0.038861	0.060781	0.21945	0.20991	0.057473	0.086332	0.16521	-3.1833	-3.1417	-3.1708	-3.7062	-2.9729	-3.4062	-3.5479	-2.9792	-3.5896	-3.2771	-3.2958	-3.5646	-3.2375	-3.275	-3.4229	-3.0729	-96.699	0.930	-152.036	-158.224	-16.851	104.966	119.539	98.544	133.555	7.799	134.351	-85.199	-139.860	38.011	19.276	120.142	0.00025432	0.0001992	0.00020127	1246.8	9.2759e-06	1.3576e-05	1315.8	245.62	6.3642e-06	2.2093e-06	306.97	86.715	70.308	20.078	6.9532e-06	28.087	0.0015585	0.001652	0.00046083	1270.7	1.8093e-05	1.8321e-05	1344.7	266.05	1.8121e-05	1.8139e-05	350.58	95.993	80.409	23.464	1.8036e-05	32.806	-160.066	133.151	21.825	-155.650	-104.844	-91.409	-155.432	-148.876	-162.498	-81.062	-148.708	-142.522	-142.481	-135.085	35.783	-135.311	-8191	255	
1404.127	1	1	0	0	0.23169	0.12002	0.10491	0.16869	0.13784	0.21644	0.067079	0.26621	0.077013	0.11732	0.01537	0.083808	0.17128	0.16058	0.13574	0.12042	-3.0146	-3.3167	-3.3667	-3.5646	-3.0938	-3.5021	-3.6312	-3.125	-3.3583	-3.3125	-3.3187	-3.5375	-3.1333	-3.5042	-3.5146	-3.1792	-7.115	-76.535	155.444	170.381	66.832	96.226	-122.811	183.652	-77.957	79.148	167.352	-6.566	-100.488	-34.958	135.592	53.583	0.00017664	0.00034816	0.00036803	1244.5	1.2859e-05	1.8704e-06	1376.6	247.9	3.0244e-06	1.3192e-05	304.55	85.999	70.517	20.066	2.2505e-06	28.011	0.001558	0.001656	0.00046291	1271.8	1.8052e-05	1.841e-05	1402.1	266.75	1.8069e-05	1.8273e-05	349.54	95.75	80.594	23.508	1.797e-05	32.789	-158.600	-37.217	122.855	-155.641	24.439	79.076	-155.915	-148.727	16.511	-8.992	-148.405	-142.726	-142.413	-135.261	-166.101	-135.936	-8191	255	
1404.248	1	1	0	0	0.11385	0.1662	0.10376	0.1975	0.42299	0.27319	0.11195	0.1909	0.019592	0.086116	0.1437	0.15057	0.13862	0.059556	0.11946	0.23155	-2.9813	-3.2458	-3.1271	-3.5771	-3.2438	-3.3521	-3.675	-3.2896	-3.4729	-3.2687	-3.2625	-3.5917	-3.1312	-3.3104	-3.3583	-3.2646	-60.395	-92.046	-28.433	178.098	-92.857	-51.171	107.315	-114.085	73.513	174.457	150.776	-11.470	-98.425	-97.486	154.852	-56.502	0.00032759	0.00073077	0.00032489	1246.6	6.4015e-06	5.3651e-06	1382.3	246.57	3.4238e-06	1.3017e-05	305.22	86.523	70.395	20.23	1.1204e-05	28.235	0.0015587	0.00165	0.00046304	1270.1	1.811e-05	1.8427e-05	1409.7	267.06	1.8388e-05	1.858e-05	351.5	96.194	81.036	23.592	1.8555e-05	32.989	-154.185	18.804	-133.587	-155.811	-38.750	-155.605	-155.906	-148.985	184.646	-40.802	-148.899	-142.349	-142.402	-134.934	28.149	-135.699	-8191	255	
1404.344	1	1	0	0	0.052082	0.2338	0.09436	0.02318	0.082459	0.06958	0.1728	0.21587	0.19813	0.14074	0.31311	0.34999	0.27847	0.26962	0.13	0.3079	-3.2042	-3.175	-3.2958	-3.6188	-3.2667	-3.1958	-3.75	-3.2104	-3.5479	-3.3667	-3.4604	-3.5271	-3.3	-3.25	-3.6354	-3.2021	19.302	143.801	-11.672	-147.712	70.410	-112.399	119.876	38.927	-66.906	-74.341	129.411	111.341	164.811	-111.405	-85.427	-81.364	0.00018709	0.0011947	0.00011298	1249.9	8.3022e-06	3.0435e-06	1379.8	246.52	8.6641e-06	4.4377e-06	306.56	86.997	70.519	20.208	8.365e-06	28.239	0.0016026	0.0016956	0.00046977	1273	1.8386e-05	1.8531e-05	1408.1	267.03	1.84e-05	1.8588e-05	351.03	96.112	81.062	23.559	1.8636e-05	32.876	-142.739	-149.450	-41.289	-155.680	-70.848	106.245	-155.857	-148.922	-59.853	162.292	-149.109	-142.902	-142.215	-134.990	-58.654	-135.453	-8191	255	
1404.440	1	1	0	0	0.10348	0.11361	0.28026	0.21313	0.1097	0.22593	0.26407	0.1862	0.10403	0.11418	0.10232	0.083299	0.19527	0.22328	0.2832	0.070979	-2.9729	-3.4125	-3.0458	-3.5708	-3.1792	-3.4729	-3.75	-3.1771	-3.4021	-3.3542	-3.2833	-3.4313	-3.475	-3.1479	-3.625	-3.2979	-78.019	10.564	15.039	181.461	-102.395	-134.856	137.349	186.977	42.661	-12.796	147.209	147.869	177.523	-130.860	-133.668	146.891	0.00031947	0.0004541	0.00015369	1244.7	3.6404e-06	9.5316e-06	1377.8	245.75	6.3744e-06	4.4928e-06	305.32	86.404	70.355	20.03	7.1297e-06	27.961	0.0015922	0.0016906	0.00046901	1274.4	1.8237e-05	1.8399e-05	1405.8	266.67	1.8258e-05	1.8496e-05	351.01	96.178	80.808	23.528	1.8488e-05	32.856	-144.739	-31.399	178.633	-155.678	-30.488	120.887	-155.758	-149.248	-72.803	56.762	-149.360	-142.804	-142.452	-135.307	-38.175	-135.860	-8191	255	
1404.559	1	1	0	0	0.1756	0.19682	0.10039	0.098978	0.21552	0.0027328	0.40875	0.11918	0.057648	0.21874	0.082708	0.11686	0.16589	0.071069	0.15714	0.15602	-2.8542	-3.5229	-3.2125	-3.75	-3.3833	-3.2542	-3.7417	-3.3458	-3.1042	-3.5167	-3.0812	-3.475	-3.4313	-3.1792	-3.3167	-3.2729	64.674	-54.275	74.866	-143.307	-151.985	93.364	158.137	108.277	27.719	153.967	183.543	-117.462	-156.699	45.356	-36.892	-3.588	0.0003358	0.00027895	0.00013905	1254.4	8.5783e-06	9.2191e-06	1388.1	247.4	9.1838e-06	1.4208e-05	303.89	86.566	70.165	20.251	5.6969e-06	27.8	0.0016015	0.0016885	0.00047093	1276.7	1.8364e-05	1.8556e-05	1418.4	267.39	1.8398e-05	1.8589e-05	350.65	96.112	80.947	23.497	1.8221e-05	32.69	186.143	-149.044	103.546	-155.549	-39.942	150.348	-155.780	-149.015	-129.871	-62.851	-148.653	-142.795	-142.346	-135.390	12.801	-135.408	-8191	255	
1404.657	1	1	0	0	0.30601	0.19067	0.17399	0.2373	0.2411	0.14632	0.089942	0.18866	0.27356	0.088362	0.29421	0.17826	0.07618	0.10374	0.099865	0.1132	-2.8937	-3.4854	-3.1417	-3.5979	-3.025	-3.275	-3.5417	-3.3875	-3.2021	-3.5771	-3.1875	-3.6083	-3.3937	-3.2917	-3.4813	-3.1688	-162.724	74.718	-129.889	179.512	-163.502	87.995	-117.842	136.058	28.700	1.751	184.235	-7.258	-73.595	174.178	-105.209	-9.013	0.00026466	0.00049069	0.0002093	1246.9	4.94e-06	3.5984e-06	1385.4	246.3	3.199e-06	9.1138e-06	304.43	86.274	70.61	20.156	7.56e-06	27.999	0.0015704	0.001658	0.00046257	1272.8	1.8142e-05	1.8442e-05	1416.4	266.87	1.8432e-05	1.8487e-05	350.63	96.137	81.067	23.566	1.8554e-05	32.964	184.742	-81.123	-121.849	-155.886	-58.517	-11.654	-155.999	-149.025	-82.953	-106.806	-148.830	-142.463	-142.152	-134.919	9.754	-135.852	-8191	255	
1404.729	1	1	0	0	0.044786	0.30441	0.11369	0.17902	0.090145	0.16187	0.16664	0.067965	0.14555	0.21765	0.1048	0.1452	0.13888	0.029514	0.19651	0.091802	-2.8146	-3.5458	-3.1042	-3.3271	-3.4333	-3.0146	-3.6958	-3.3292	-3.2938	-3.6479	-3.3042	-3.3917	-3.5083	-3.2938	-3.4354	-3.2729	43.267	121.317	123.881	174.210	-94.333	72.677	109.176	-164.704	51.667	-141.660	42.545	103.169	148.392	100.082	0.671	-2.039	0.00028347	0.00063863	7.5267e-05	1244.2	4.9607e-06	1.5706e-05	1382.4	247.75	6.8617e-06	1.7155e-05	306.25	87.245	70.366	20.151	6.2681e-06	28.061	0.0016015	0.0016931	0.00047345	1274	1.8563e-05	1.8594e-05	1412.3	267.38	1.8577e-05	1.8742e-05	352.03	96.39	81.287	23.599	1.8599e-05	32.95	188.987	-133.728	101.961	-155.690	-135.915	-128.664	-155.991	-149.016	-87.036	17.022	-148.888	-142.898	-142.064	-135.328	44.511	-135.163	-8191	255	
1404.848	1	1	0	0	0.11065	0.17934	0.19652	0.23589	0.029286	0.14858	0.26039	0.25049	0.083274	0.0045574	0.067688	0.077994	0.23837	0.14167	0.039695	0.21972	-2.7125	-3.2896	-3.2687	-3.3625	-3.525	-3.2188	-3.55	-3.4104	-3.2562	-3.4542	-3.3625	-3.0229	-3.3521	-3.3792	-3.2979	-3.4667	153.265	-161.283	-92.967	-166.526	97.806	-49.751	96.693	188.993	-152.573	149.808	90.871	170.628	-122.195	-126.317	23.420	68.595	0.00029639	0.00039705	0.00017986	1244.8	1.1241e-05	7.3481e-06	1379.2	247.94	6.4771e-06	9.7823e-06	305	86.381	70.098	20.155	4.7106e-06	28.123	0.0016031	0.0016966	0.00047142	1273.8	1.85e-05	1.8604e-05	1405.4	267.62	1.8567e-05	1.8808e-05	351.2	96.174	81.104	23.64	1.8658e-05	32.978	187.939	-153.813	19.453	-155.742	-95.637	179.495	-156.109	-148.992	-115.122	-150.534	-148.735	-142.752	-142.546	-135.078	16.367	-135.598	-8191	255	
1404.944	1	1	0	0	0.1714	0.08655	0.22158	0.1261	0.1305	0.069657	0.28363	0.24295	0.01809	0.21332	0.22035	0.20021	0.056757	0.21122	0.24134	0.089465	-2.6771	-3.2	-3.2562	-3.4229	-3.4917	-3.0458	-3.6958	-3.4688	-3.1479	-3.5458	-3.3354	-3.2625	-3.65	-3.2625	-3.4	-3.5333	-80.202	-66.808	-14.737	124.236	-74.867	30.352	126.579	-73.723	-65.437	-12.977	65.477	-150.954	-43.452	-117.990	-85.066	170.647	0.00023971	0.00082583	1.2e-05	1247.7	7.7302e-06	7.3244e-06	1363.1	246.39	1.071e-05	3.6402e-06	305.63	86.403	69.762	20.249	3.2772e-06	28.038	0.0016036	0.0017074	0.00047491	1275.5	1.862e-05	1.8728e-05	1393.3	267.4	1.8626e-05	1.8727e-05	351.71	96.217	81.138	23.626	1.8537e-05	32.969	193.225	-79.648	-116.272	-155.868	51.780	143.327	-156.038	-148.754	21.569	-126.670	-149.170	-142.276	-142.507	-135.425	-41.715	-135.598	-8191	255	
1405.040	1	1	0	0	0.13438	0.057547	0.15252	0.30563	0.16399	0.13273	0.35321	0.10858	0.024721	0.17276	0.097354	0.031183	0.077233	0.10469	0.24867	0.13077	-2.875	-3.5104	-3.2438	-3.2812	-3.6333	-3.2458	-3.5812	-3.3688	-3.1396	-3.5833	-3.2979	-3.2375	-3.7625	-3.1813	-3.5104	-3.5062	-112.665	76.024	-35.397	159.485	-80.675	-44.955	114.062	-9.906	157.332	-25.839	-77.035	151.389	-88.349	189.773	-82.862	94.418	0.00024842	0.00074513	0.00011452	1248.6	6.8933e-06	8.7209e-06	1349.1	247.53	2.3814e-06	1.5919e-05	304.23	86.579	70.149	20.065	5.0136e-06	28.138	0.0016029	0.0016899	0.00047242	1273.9	1.8466e-05	1.8611e-05	1382.8	267.22	1.8479e-05	1.8683e-05	351.35	96.263	81.198	23.552	1.8575e-05	32.942	174.031	-100.653	-94.919	-155.882	15.122	-19.172	-156.094	-148.915	-6.759	-57.458	-148.398	-142.893	-142.252	-134.977	69.748	-135.571	-8191	255	
1405.136	1	1	0	0	0.11282	0.13062	0.11775	0.20809	0.15253	0.22235	0.25714	0.043748	0.15816	0.18403	0.10068	0.37646	0.19949	0.32038	0.16509	0.16994	-2.7396	-3.3896	-3.4792	-3.2458	-3.4375	-3.3167	-3.3042	-3.7229	-3.3438	-3.4917	-3.4542	-3.225	-3.5042	-3.4125	-3.3812	-3.65	45.911	89.901	16.290	183.238	30.971	-112.905	111.402	163.150	-61.250	144.060	46.609	78.584	128.276	65.967	49.003	88.899	0.00027686	0.00073626	0.00017397	1246.5	1.2953e-05	1.0775e-05	1355	247.1	3.5055e-06	8.3565e-06	303.9	86.13	70.865	20.112	5.3022e-06	27.954	0.0016013	0.0017094	0.00047139	1275	1.8511e-05	1.8679e-05	1383.6	267.69	1.8511e-05	1.8805e-05	351.04	96.218	81.307	23.584	1.8415e-05	32.807	-167.150	60.360	15.583	-155.725	-101.333	-85.767	-156.001	-149.220	-53.916	-90.845	-149.200	-142.635	-142.121	-135.032	-101.157	-135.905	-8191	255	
1405.232	1	1	0	0	0.22144	0.10915	0.17802	0.2546	0.19878	0.15382	0.13899	0.20377	0.048956	0.10275	0.11515	0.037825	0.17084	0.052332	0.18505	0.12213	-2.7979	-3.5687	-3.4125	-3.05	-3.375	-3.3229	-3.4083	-3.5062	-3.35	-3.5187	-3.3021	-3.1958	-3.3208	-3.4771	-3.0854	-3.5604	-166.296	-48.736	-161.687	130.326	73.613	-15.616	141.365	53.650	22.573	115.444	-72.208	52.433	-45.791	-92.013	12.170	-120.723	0.00043925	0.0015004	0.00020218	1242.6	6.4827e-06	1.3684e-05	1351	247.5	1.7903e-06	5.3731e-06	306.15	86.739	70.553	20.192	5.3446e-06	28.012	0.0015864	0.0016745	0.00046591	1274	1.8233e-05	1.8429e-05	1378.5	267.22	1.8442e-05	1.8649e-05	351.98	96.22	81.327	23.585	1.841e-05	32.855	-141.878	-41.608	-9.729	-155.774	-75.899	-80.025	-156.045	-149.169	-82.782	76.660	-148.732	-142.657	-142.256	-135.183	86.956	-135.470	-8191	255	
1405.328	1	1	0	0	0.17447	0.2096	0.31108	0.12028	0.17334	0.23751	0.12513	0.10485	0.31154	0.16147	0.18877	0.078885	0.18149	0.33238	0.09787	0.2431	-2.8937	-3.3604	-3.4562	-3.3125	-3.3958	-3.3958	-3.475	-3.6229	-3.2167	-3.3063	-3.5521	-3.4104	-3.4667	-3.4125	-3.1917	-3.4562	-121.187	27.756	185.908	-166.434	33.062	34.139	169.799	-148.465	187.215	-110.476	-165.822	76.696	160.072	-96.620	149.352	140.010	0.00024917	0.00072615	0.00023306	1240.9	5.6347e-06	3.7357e-06	1351.5	246.45	3.2849e-06	1.6538e-06	305.39	86.137	70.256	20.16	4.214e-06	27.977	0.0015988	0.00168	0.00046527	1271.3	1.8211e-05	1.8398e-05	1378	267.01	1.8198e-05	1.8277e-05	350.06	95.723	80.718	23.488	1.8137e-05	32.732	-154.609	5.361	46.754	-155.698	177.961	-95.581	-156.164	-148.794	-6.468	139.978	-149.415	-142.605	-142.124	-134.999	74.000	-135.447	-8191	255	
1405.424	1	1	0	0	0.21626	0.12898	0.2479	0.31018	0.22432	0.11057	0.16427	0.09525	0.26251	0.14591	0.34402	0.10259	0.24334	0.045383	0.15509	0.1297	-2.8438	-3.3458	-3.5208	-3.5375	-3.6021	-3.4458	-3.3688	-3.6729	-3.2396	-3.3729	-3.6417	-3.3333	-3.5958	-3.35	-3.2812	-3.4854	156.851	-82.373	37.653	160.987	161.245	48.414	113.407	-34.202	88.254	97.620	-158.883	-73.354	95.756	189.214	144.397	143.769	0.00021742	0.0010706	0.00020086	1245.3	1.0219e-05	9.3085e-06	1346.4	248.21	9.0462e-06	5.2371e-06	307.2	86.314	70.651	20.133	7.3228e-06	28	0.0015653	0.0016556	0.00046339	1271.7	1.809e-05	1.8368e-05	1373.7	266.94	1.8105e-05	1.8382e-05	350.42	95.785	80.791	23.517	1.8219e-05	32.783	-151.068	-28.957	-64.260	-155.780	-88.620	-9.038	-156.048	-149.135	-57.803	-105.993	-148.981	-143.045	-142.441	-135.017	-34.865	-135.649	-8191	255	
1405.521	1	1	0	0	0.063262	0.27904	0.10077	0.34529	0.18188	0.10212	0.38533	0.045771	0.38777	0.055655	0.2891	0.18608	0.014104	0.2416	0.24834	0.11981	-2.9458	-2.9792	-3.5583	-3.2854	-3.55	-3.3208	-3.4688	-3.6667	-3.3063	-3.4354	-3.4333	-3.3333	-3.45	-3.6167	-3.1146	-3.4729	30.184	144.374	-115.888	163.417	123.055	-140.039	188.779	79.985	12.201	-89.119	-72.935	95.559	159.218	181.847	106.947	36.580	0.00017829	0.0010419	0.00018347	1248.6	2.1565e-06	5.8867e-06	1345.6	246.78	7.0429e-06	9.2376e-06	306.41	86.083	69.81	20.097	6.5945e-06	28.005	0.0015656	0.0016602	0.00045937	1272.7	1.8047e-05	1.818e-05	1373.7	266.31	1.7988e-05	1.8128e-05	349.35	95.619	80.613	23.456	1.7815e-05	32.652	180.465	42.534	2.846	-155.566	147.290	-87.888	-156.423	-149.168	-110.602	-41.015	-148.867	-142.511	-142.138	-134.869	-65.051	-135.237	-8191	255	
1405.641	1	1	0	0	0.13428	0.083515	0.28272	0.22264	0.12094	0.18876	0.1201	0.3123	0.10095	0.12928	0.029579	0.13978	0.14754	0.20583	0.13656	0.10003	-2.9917	-3.1229	-3.5	-3.5104	-3.1896	-3.5979	-3.4167	-3.5854	-3.3917	-3.1167	-3.6771	-3.1729	-3.3063	-3.725	-3.0979	-3.6	188.542	122.735	-137.515	153.622	163.986	61.717	183.392	131.079	0.602	157.683	-90.794	-165.974	-138.463	-44.337	-73.104	179.610	0.00022741	0.00090647	0.0001701	1242.4	1.4517e-06	1.2426e-05	1344.2	247.65	2.6237e-06	8.3731e-06	305.34	85.845	70.248	19.897	8.3725e-06	28.147	0.0015486	0.0016321	0.00045462	1269.9	1.7939e-05	1.8152e-05	1374.7	266.52	1.8003e-05	1.8221e-05	349.82	95.678	80.687	23.367	1.8154e-05	32.704	192.933	106.558	-15.995	-155.689	-161.827	-95.617	-156.005	-148.850	-161.263	-1.043	-148.807	-142.865	-142.460	-135.336	58.875	-135.797	-8191	255	
1405.736	1	1	0	0	0.11649	0.11213	0.11996	0.23488	0.13742	0.25165	0.21764	0.21761	0.12577	0.1736	0.3499	0.12476	0.14587	0.11193	0.38896	0.14238	-2.8792	-3.3333	-3.4062	-3.4146	-3.2292	-3.3417	-3.2458	-3.5042	-3.4813	-3.2188	-3.3812	-3.175	-3.35	-3.3333	-3.2708	-3.5396	10.077	-139.515	57.335	113.089	65.196	-85.957	65.292	-110.143	140.119	-98.388	186.402	120.541	166.644	148.231	-60.081	179.393	0.00026484	0.00053138	0.00029186	1240.7	2.288e-06	1.6615e-05	1348	246.61	1.3175e-06	9.4686e-06	306.21	86.661	70.449	20.176	6.0239e-06	27.962	0.0015628	0.0016538	0.00046202	1271.6	1.8085e-05	1.814e-05	1372.3	266.34	1.8123e-05	1.8118e-05	349.99	95.726	80.717	23.43	1.7893e-05	32.627	-147.484	-161.404	-62.693	-155.852	63.258	-54.663	-156.096	-149.131	28.654	-15.761	-148.864	-142.489	-142.626	-135.071	-53.886	-135.785	-8191	255	
1405.832	1	1	0	0	0.11073	0.25248	0.12782	0.19192	0.11313	0.058748	0.15587	0.096187	0.1487	0.15653	0.21159	0.27894	0.11222	0.06972	0.17839	0.27409	-3.2208	-3.0812	-3.5167	-3.4062	-3.4479	-3.4333	-3.4167	-3.3625	-3.6042	-3.075	-3.5667	-3.4562	-3.3229	-3.4146	-3.3521	-3.4125	-30.256	140.445	-54.028	155.802	-45.812	-161.776	86.840	179.323	-93.478	44.933	-30.623	184.291	192.223	145.818	-86.362	132.647	0.00017947	0.0012063	0.00030459	1245.7	1.1954e-05	1.2017e-06	1342.3	246.17	6.5344e-06	4.6826e-06	309.03	86.255	70.683	20.088	1.5715e-05	28.031	0.0015409	0.0016211	0.00045269	1270.9	1.7766e-05	1.8072e-05	1370	266.04	1.7957e-05	1.8185e-05	350.69	95.664	80.735	23.401	1.8097e-05	32.784	181.570	-50.845	-89.318	-155.740	-35.199	-135.470	-156.097	-148.699	-117.479	183.383	-149.175	-142.700	-141.937	-135.345	22.950	-136.030	-8191	255	
1405.928	1	1	0	0	0.11602	0.23106	0.20831	0.24548	0.050384	0.1178	0.092347	0.19159	0.18877	0.14316	0.060132	0.24318	0.097274	0.1393	0.16203	0.20047	-3.1104	-3.1	-3.5875	-3.4667	-3.3396	-3.3958	-3.4875	-3.3958	-3.575	-3.0938	-3.4813	-3.4396	-3.0396	-3.4146	-3.3229	-3.1917	180.546	-139.314	52.286	-164.652	-4.420	159.577	63.150	-29.781	-65.379	76.250	-71.631	-55.961	117.768	-0.329	-22.094	168.717	0.00036205	0.00063617	0.00036047	1250.5	9.0025e-06	2.1901e-06	1341.1	246.62	7.5048e-06	1.9523e-06	306.26	86.432	70.528	20.115	8.159e-06	28.141	0.0015636	0.0016576	0.00046243	1271.7	1.7947e-05	1.8157e-05	1369.7	266.67	1.8118e-05	1.8108e-05	349.04	95.745	80.73	23.478	1.8078e-05	32.718	-132.226	5.033	-123.240	-155.535	-37.491	48.422	-155.773	-149.204	-17.736	165.670	-148.820	-142.811	-142.343	-135.010	180.099	-135.454	-8191	255	
1406.024	1	1	0	0	0.19018	0.2339	0.063814	0.31944	0.10753	0.30278	0.17189	0.15617	0.093162	0.13605	0.1206	0.12061	0.064401	0.091275	0.22644	0.26665	-3.1875	-3.0042	-3.2208	-3.5792	-3.1521	-3.4688	-3.5583	-3.3021	-3.4521	-3.3917	-3.3667	-3.5521	-3.4042	-3.6458	-3.2979	-3.3083	87.452	-126.220	-37.998	171.035	-70.602	-99.773	126.619	-41.781	-3.583	189.413	-6.884	158.232	-142.252	171.666	-85.743	155.246	0.00019023	0.00066288	0.00019614	1244.8	2.3299e-06	1.3107e-05	1343.3	245.98	8.4983e-06	1.3218e-05	305.81	86.227	70.234	20.104	7.1703e-06	28.152	0.0015519	0.0016407	0.0004596	1271.7	1.7972e-05	1.8295e-05	1372.1	266.16	1.822e-05	1.8261e-05	350.18	95.826	80.843	23.48	1.8312e-05	32.857	-109.545	-129.496	44.625	-155.628	151.802	17.097	-156.045	-148.862	-26.765	-105.190	-149.179	-142.329	-142.094	-135.193	70.830	-135.608	-8191	255	
1406.120	1	1	0	0	0.25312	0.14357	0.11467	0.18168	0.28137	0.12052	0.34809	0.06755	0.18419	0.11515	0.16932	0.15698	0.11668	0.1014	0.081268	0.3281	-3.0833	-3.3146	-3.4167	-3.6333	-3.1833	-3.5896	-3.4396	-3.4229	-3.4125	-3.3958	-3.2667	-3.6646	-3.3042	-3.5438	-3.2708	-3.2	-143.156	-5.056	74.899	94.235	157.879	-106.455	160.621	131.557	17.503	53.677	103.427	181.086	-82.111	89.191	-101.687	20.925	0.00028904	0.00046864	0.00025682	1246.2	8.3622e-06	8.5834e-06	1343.2	246.31	4.0249e-06	7.8395e-06	306.61	86.545	69.963	20.149	4.9988e-06	28.073	0.0015753	0.001668	0.00046454	1272.7	1.8184e-05	1.8312e-05	1370.2	266.33	1.8016e-05	1.8307e-05	349.2	95.99	80.947	23.528	1.8203e-05	32.774	190.129	129.413	-82.397	-155.490	-86.520	-60.877	-156.127	-148.897	-41.933	-67.353	-148.774	-142.545	-142.615	-135.445	-70.772	-135.699	-8191	255	
1406.239	1	1	0	0	0.14926	0.27233	0.38375	0.40292	0.079806	0.21651	0.23381	0.2113	0.17955	0.088056	0.098364	0.26031	0.14625	0.11515	0.26978	0.051977	-3.1333	-3.2562	-3.2729	-3.6583	-3.3292	-3.4896	-3.4396	-3.4271	-3.3646	-3.3292	-3.2812	-3.6188	-3.175	-3.5708	-3.4958	-3.0312	-82.303	-71.380	-18.070	150.527	127.156	54.961	162.306	132.288	-127.793	155.305	-162.320	185.694	130.283	13.783	118.258	-149.010	0.00021278	0.00053896	8.457e-05	1244.9	1.0371e-05	8.6523e-06	1346.1	246.07	1.0203e-05	1.2717e-05	305.83	86.635	69.869	20.137	1.1038e-05	27.871	0.0015605	0.0016642	0.00046059	1273.6	1.8111e-05	1.8186e-05	1372.7	266.29	1.8227e-05	1.8307e-05	351.16	95.811	80.576	23.485	1.8238e-05	32.716	165.725	-22.448	125.199	-155.839	-101.281	128.969	-156.012	-148.842	-18.573	3.338	-148.444	-142.824	-142.381	-134.739	-27.902	-135.412	-8191	255	
1406.335	1	1	0	0	0.24609	0.15721	0.33726	0.12391	0.098896	0.092889	0.29359	0.33746	0.18214	0.15135	0.30132	0.13455	0.14363	0.17232	0.21685	0.079526	-3.1042	-3.1333	-3.2229	-3.8438	-3.1667	-3.4104	-3.6208	-3.1625	-3.4771	-3.2562	-3.0708	-3.6042	-3.3854	-3.2313	-3.4896	-3.15	8.350	-94.192	-28.866	-142.743	-21.876	10.582	152.114	161.654	68.137	-161.555	106.265	-165.903	-119.419	-160.942	-22.628	108.993	0.00021251	0.0006082	0.0004639	1249.9	7.6896e-06	7.5945e-06	1343.9	246.97	2.003e-06	5.0672e-06	304.61	86.292	70.555	20.016	1.0961e-05	28.048	0.0015771	0.0016708	0.0004653	1273.3	1.8153e-05	1.8451e-05	1371.6	266.79	1.8372e-05	1.8386e-05	350.88	95.726	80.965	23.454	1.8243e-05	32.764	-163.629	-159.674	-44.299	-155.919	-60.317	-26.461	-156.120	-149.084	-151.089	135.004	-148.696	-142.989	-142.452	-135.208	-66.721	-135.599	-8191	255	
1406.431	1	1	0	0	0.035995	0.075662	0.34082	0.19536	0.087216	0.042859	0.30228	0.11349	0.25262	0.12716	0.08147	0.10382	0.17437	0.11152	0.046498	0.046317	-3.1729	-3.2604	-3.3896	-3.7271	-3.3479	-3.3104	-3.6396	-3.225	-3.4313	-3.3646	-3.1167	-3.65	-3.1625	-3.275	-3.3104	-3.1771	-105.578	-130.268	133.519	136.622	-99.172	-83.405	91.245	75.668	-79.893	-73.098	167.131	180.420	-157.693	94.425	-55.789	188.348	0.00037926	0.00075866	0.00012238	1246.6	3.7113e-06	9.2502e-06	1346.5	248.3	1.9577e-06	9.3448e-06	306.36	86.105	70.471	20.262	3.0732e-06	27.831	0.0015601	0.0016433	0.00045891	1270.6	1.7789e-05	1.8082e-05	1372	266.35	1.7878e-05	1.8099e-05	349.65	95.442	80.69	23.444	1.7952e-05	32.668	-146.813	-94.460	-117.743	-155.697	-79.784	-135.667	-155.986	-148.634	65.198	-115.308	-148.731	-142.776	-142.292	-135.378	-23.997	-135.763	-8191	255	
1406.528	1	1	0	0	0.17371	0.19243	0.06531	0.16937	0.043273	0.18288	0.25879	0.066899	0.25338	0.15979	0.12713	0.24547	0.14442	0.034049	0.14407	0.23534	-3.0479	-3.2646	-3.2	-3.6354	-3.35	-3.3667	-3.7042	-3.1542	-3.3854	-3.4229	-3.1083	-3.5792	-3.2792	-3.3208	-3.3729	-3.3354	180.390	-22.495	116.392	-116.037	102.022	63.720	88.908	-142.038	-28.798	-149.325	111.438	169.059	-163.863	-60.618	-80.716	159.278	0.00030326	0.0011617	0.00018849	1244.3	8.6435e-06	8.625e-06	1338.1	247.2	4.8382e-06	8.1475e-06	310.23	85.773	70.427	20.013	9.7303e-06	27.986	0.0015491	0.0016294	0.00045891	1272	1.78e-05	1.8019e-05	1370	266.54	1.7862e-05	1.7921e-05	348.59	95.43	80.629	23.345	1.7644e-05	32.575	-155.617	-96.010	-63.858	-155.705	-3.534	-85.809	-156.032	-149.082	105.554	-11.142	-149.177	-142.586	-142.367	-135.024	-110.376	-135.322	-8191	255	
1406.624	1	1	0	0	0.15273	0.12821	0.092699	0.20298	0.19659	0.085239	0.029754	0.25456	0.066494	0.11439	0.02208	0.14638	0.31901	0.19156	0.23167	0.11501	-2.9104	-3.4667	-3.1937	-3.6354	-3.2	-3.1667	-3.6229	-3.325	-3.3208	-3.3667	-3.3312	-3.5833	-3.3292	-3.0375	-3.4458	-3.2458	-161.337	22.977	184.495	143.152	34.045	-86.135	103.317	103.914	-127.606	1.992	34.714	135.501	81.807	81.109	-6.580	-159.970	0.00025727	0.00041272	0.00018249	1244.2	4.3566e-06	1.3582e-05	1342.9	247.43	4.582e-06	4.9416e-06	308.05	86.287	70.202	20.02	4.5121e-06	28.105	0.001512	0.0016039	0.00045029	1269.7	1.7523e-05	1.7728e-05	1369.3	266.1	1.7565e-05	1.7632e-05	347.9	95.222	80.292	23.302	1.7553e-05	32.577	-137.013	-132.931	-87.240	-155.590	-64.925	47.162	-156.018	-148.924	-39.714	-7.550	-148.686	-142.619	-141.987	-135.403	83.334	-135.679	-8191	255	
1406.720	1	1	0	0	0.34732	0.19439	0.089405	0.29658	0.17243	0.17004	0.12449	0.18671	0.1635	0.24886	0.28825	0.20729	0.26404	0.091102	0.25355	0.066074	-2.9562	-3.5187	-3.2042	-3.6813	-3.2958	-3.2938	-3.5646	-3.3958	-3.3833	-3.3458	-3.2417	-3.3438	-3.275	-3.1708	-3.5917	-3.4083	167.110	138.843	51.874	153.510	-165.129	-10.072	159.097	166.740	13.873	156.439	-165.494	151.984	-124.371	-166.676	151.069	-110.257	0.00021001	0.0010008	4.2039e-05	1244.7	1.2481e-06	9.9967e-06	1348.5	246.82	5.507e-06	6.1544e-06	304.38	86.799	70.364	20.144	6.5682e-06	28.039	0.0015185	0.0016006	0.00044824	1269.5	1.7419e-05	1.7605e-05	1370.9	265.56	1.75e-05	1.7671e-05	347.15	95.4	80.271	23.301	1.7563e-05	32.575	189.044	-94.459	-51.784	-155.869	-105.555	-57.703	-155.963	-148.995	163.510	72.182	-149.213	-142.717	-142.530	-135.199	-43.333	-135.590	-8191	255	
1406.816	1	1	0	0	0.13658	0.12022	0.089351	0.20347	0.039812	0.082339	0.34532	0.072213	0.33334	0.054376	0.29088	0.06528	0.17847	0.19127	0.072619	0.28135	-2.7708	-3.6396	-3.1625	-3.7167	-3.4	-3.1792	-3.6708	-3.3438	-3.2042	-3.575	-3.2687	-3.3333	-3.6854	-3.0792	-3.6021	-3.2938	-98.777	135.356	-153.568	176.377	67.174	112.151	155.260	122.516	-46.968	-117.544	69.035	91.500	-162.368	130.381	-77.216	189.434	0.00021563	0.0006588	0.0001096	1246.9	8.3128e-06	3.1805e-06	1342.5	248.22	2.6797e-06	8.6767e-06	303.76	86.054	70.18	20.002	5.7626e-06	27.953	0.001511	0.0016062	0.00044609	1270.8	1.7451e-05	1.7583e-05	1367.2	265.79	1.7451e-05	1.7606e-05	346.87	95.163	80.211	23.257	1.7441e-05	32.502	-148.002	-120.544	-96.002	-155.774	-44.980	112.302	-156.187	-148.991	73.011	11.970	-148.633	-142.603	-142.396	-135.344	-110.920	-135.567	-8191	255	
1406.912	1	1	0	0	0.087952	0.24122	0.19448	0.20414	0.14728	0.076512	0.091298	0.015854	0.057169	0.17035	0.29521	0.0765	0.29164	0.1885	0.024096	0.16905	-2.7562	-3.4938	-3.3583	-3.475	-3.6937	-3.1333	-3.6813	-3.5062	-3.1208	-3.4417	-3.2979	-3.3354	-3.4458	-3.175	-3.2917	-3.4854	10.167	-128.832	29.663	77.017	-41.809	161.120	36.363	-37.343	-88.521	-73.963	-138.706	-132.545	162.593	-141.379	-116.252	76.427	0.00028522	0.00025337	8.9689e-05	1246.4	7.0297e-07	1.3985e-06	1342	247.49	1.1217e-05	1.0157e-05	307.3	86.057	69.933	20.112	2.1525e-06	27.999	0.0015075	0.0015904	0.0004431	1268.9	1.736e-05	1.7457e-05	1366	265.43	1.7262e-05	1.7608e-05	347.24	95.147	80.069	23.299	1.7317e-05	32.474	-149.643	-118.147	14.481	-155.732	-100.197	186.880	-156.011	-148.856	189.501	9.776	-148.822	-142.625	-142.077	-134.903	-156.704	-135.577	-8191	255	
1407.031	1	1	0	0	0.18042	0.34702	0.21744	0.18042	0.060706	0.10841	0.14102	0.031097	0.16909	0.27809	0.087869	0.21366	0.19371	0.19902	0.22859	0.11005	-2.6854	-3.5438	-3.2417	-3.2208	-3.3771	-3.1667	-3.6396	-3.3333	-3.25	-3.3854	-3.6562	-3.3667	-3.625	-3.1167	-3.4458	-3.4708	-87.622	22.086	-112.157	104.958	90.200	-161.647	108.826	140.395	160.597	-36.866	6.424	-154.871	77.824	179.976	-57.466	178.921	0.00029748	0.00079736	0.00017006	1244.6	4.3096e-06	8.0609e-06	1340.8	246.7	1.0208e-05	7.3296e-06	304.81	86.044	70.292	20.081	2.8007e-06	27.988	0.0014985	0.0015844	0.00043896	1266.9	1.728e-05	1.7317e-05	1367.7	265.23	1.7439e-05	1.7393e-05	346.05	94.987	80.069	23.236	1.7382e-05	32.531	-156.898	83.845	-30.091	-155.678	10.433	-59.132	-155.934	-149.014	138.200	-78.319	-148.825	-142.594	-142.365	-134.499	48.906	-135.932	-8191	255	
1407.127	1	1	0	0	0.25477	0.21083	0.20055	0.038501	0.10117	0.19105	0.11311	0.26481	0.042399	0.086705	0.18666	0.24959	0.12453	0.21295	0.11435	0.34689	-2.6729	-3.3333	-3.4333	-3.3438	-3.3937	-3.2417	-3.5958	-3.3625	-3.3083	-3.6167	-3.2479	-3.2062	-3.7	-3.1479	-3.1771	-3.6688	8.994	-111.688	-162.641	191.844	126.893	-94.916	-162.564	-161.510	-59.525	-68.501	19.940	145.853	31.983	-151.171	113.166	16.811	0.00022431	0.0012924	0.00028487	1246.2	7.3014e-06	1.5358e-05	1338.9	246.47	2.4913e-06	1.2184e-05	305.08	86.251	70.167	19.955	6.2952e-07	27.744	0.0014922	0.0015796	0.00043777	1267.5	1.7221e-05	1.7366e-05	1365.6	265.08	1.7324e-05	1.7488e-05	347.56	95.099	80.064	23.271	1.7614e-05	32.433	-160.019	-106.019	-123.939	-155.769	-83.729	-111.202	-156.087	-149.010	-79.851	-137.808	-149.306	-142.419	-141.964	-134.951	-27.744	-135.521	-8191	255	
1407.201	1	1	0	0	0.18176	0.1164	0.087753	0.12691	0.047039	0.1552	0.10294	0.20578	0.11659	0.21728	0.15593	0.20944	0.027193	0.18513	0.17411	0.21113	-2.6854	-3.4021	-3.2667	-3.3625	-3.5583	-3.2104	-3.5521	-3.5125	-3.2854	-3.2896	-3.4604	-3.1917	-3.5625	-3.4813	-3.1417	-3.6208	174.429	151.176	41.187	-137.579	-130.328	-105.235	83.866	173.324	5.837	-123.126	160.612	168.346	-144.852	93.072	-3.651	167.103	0.00024527	0.00032428	0.00024877	1245.1	3.9652e-06	1.1915e-05	1334.4	245.18	5.5304e-06	3.0881e-06	304.65	86.133	70.589	20.053	8.5049e-06	27.929	0.0015135	0.0015938	0.00044276	1266.7	1.7233e-05	1.7495e-05	1363.7	264.5	1.7296e-05	1.749e-05	346.41	95.006	80.036	23.271	1.7507e-05	32.507	-165.939	38.991	-47.959	-155.639	-123.322	-106.750	-155.926	-149.149	-106.812	69.302	-148.799	-142.514	-142.554	-135.478	-148.656	-135.562	-8191	255	
1407.320	1	1	0	0	0.11249	0.21741	0.16303	0.15781	0.086569	0.0579	0.22817	0.20077	0.1583	0.13468	0.3225	0.43908	0.066026	0.065931	0.16981	0.058234	-2.5521	-3.3937	-3.2062	-3.3146	-3.4458	-3.4271	-3.3896	-3.4062	-3.1396	-3.3979	-3.3417	-3.2604	-3.5438	-3.4646	-3.3438	-3.6708	-132.233	-119.294	-133.173	152.441	192.998	179.464	83.652	157.383	76.882	81.416	110.814	176.151	51.274	-11.107	42.378	-28.141	0.00034604	0.00045539	7.4068e-05	1245	3.2606e-06	1.6716e-05	1339.3	245.7	9.7837e-07	9.1807e-06	304.72	85.807	70.049	20.064	7.5689e-06	27.808	0.00153	0.0016247	0.00045321	1269.2	1.7868e-05	1.807e-05	1368.5	265.51	1.7701e-05	1.7758e-05	347.62	94.927	80.167	23.188	1.7145e-05	32.271	-152.309	190.319	-103.138	-155.709	-44.833	-3.127	-155.910	-148.959	-112.168	-13.012	-148.659	-142.646	-142.380	-135.146	104.123	-135.472	-8191	255	
1407.416	1	1	0	0	0.11133	0.28929	0.071523	0.20054	0.20725	0.12861	0.072758	0.051792	0.092821	0.26293	0.22018	0.096683	0.18846	0.19173	0.026825	0.023592	-2.7396	-3.3521	-3.3792	-3.2375	-3.4813	-3.3042	-3.2396	-3.5563	-3.0312	-3.4917	-3.4813	-3.2708	-3.4938	-3.4854	-3.2062	-3.4979	125.757	14.653	130.336	184.477	-156.381	-12.007	70.341	-30.850	20.960	191.714	-81.169	114.465	113.113	162.427	68.132	105.108	0.00019952	0.0008414	0.00014435	1242.6	2.097e-07	7.6436e-06	1338.2	246.17	6.8565e-06	8.8153e-06	305.96	85.534	69.389	20.006	1.5163e-06	27.922	0.0014705	0.0015495	0.00043039	1265.2	1.6865e-05	1.6964e-05	1362.4	263.95	1.6905e-05	1.7058e-05	345.16	94.399	79.609	23.202	1.7279e-05	32.405	-165.904	172.699	-45.880	-155.792	91.065	3.248	-156.376	-148.842	6.221	90.124	-148.818	-142.610	-141.967	-134.920	-36.975	-135.132	-8191	255	
1407.512	1	1	0	0	0.14013	0.19409	0.093363	0.069347	0.20426	0.05551	0.43045	0.20278	0.18877	0.12163	0.11856	0.18711	0.17848	0.12888	0.030715	0.1569	-2.9	-3.2438	-3.5083	-3.1479	-3.5333	-3.5542	-3.2604	-3.6375	-3.15	-3.1479	-3.5792	-3.3354	-3.3667	-3.3417	-3.2208	-3.4542	-70.845	-119.375	68.019	81.611	-110.022	-150.914	129.469	178.017	78.824	156.881	59.804	-126.875	112.305	187.638	104.713	-124.131	0.00028358	0.00038015	0.00012209	1239.6	4.0086e-06	1.5024e-05	1341.5	245.28	1.2716e-05	3.5142e-06	303.95	85.805	70.179	19.825	2.5236e-06	28.029	0.0014889	0.0015731	0.00043789	1262.7	1.7169e-05	1.7207e-05	1361.9	263.74	1.6865e-05	1.6961e-05	343.08	94.415	79.374	22.96	1.6238e-05	32.021	176.458	-105.788	-115.077	-155.611	-104.630	34.324	-156.150	-148.438	-27.740	-85.229	-148.579	-142.446	-141.739	-135.137	54.924	-135.646	-8191	255	
1407.608	1	1	0	0	0.3909	0.18706	0.11158	0.30601	0.081594	0.087247	0.312	0.18805	0.20343	0.21728	0.053755	0.075108	0.17205	0.037905	0.11962	0.20379	-3.0312	-3.1479	-3.5833	-3.3271	-3.5271	-3.4729	-3.4167	-3.4188	-3.3979	-3.1833	-3.5625	-3.575	-3.25	-3.5542	-3.0271	-3.6271	-28.904	103.649	77.247	153.003	-120.344	-73.576	-145.706	70.043	56.125	150.877	164.825	149.517	125.708	-130.742	-13.788	-65.281	0.00024031	0.00033955	0.0001674	1240.7	1.3174e-05	1.0278e-05	1332.6	245.85	8.5563e-06	1.1742e-05	304.61	86.473	69.906	19.873	5.2645e-06	27.741	0.0013799	0.001464	0.00040497	1258	1.5735e-05	1.6011e-05	1354.3	261.22	1.5851e-05	1.5889e-05	340	93.817	78.61	22.827	1.595e-05	31.912	-141.354	-97.930	166.503	-155.638	-122.051	-93.880	-156.100	-148.981	-58.830	41.092	-148.438	-142.555	-142.279	-134.898	-107.410	-135.269	-8191	255	
1407.729	1	1	0	0	0.21879	0.1544	0.17491	0.1223	0.093419	0.056832	0.24983	0.17246	0.04027	0.051587	0.23918	0.088086	0.085012	0.18772	0.10655	0.25613	-2.825	-3.2917	-3.3521	-3.3875	-3.3833	-3.5146	-3.3625	-3.4917	-3.2354	-3.1688	-3.4646	-3.35	-3.375	-3.5667	-3.0896	-3.4938	-109.608	6.289	124.665	91.357	-44.341	-69.911	131.137	121.784	-100.327	-10.422	130.704	91.911	173.675	-10.053	29.021	10.313	0.00020692	0.00036673	0.00021509	1237.7	4.564e-06	5.2281e-06	1334.7	244.27	2.9009e-06	6.1299e-06	303.75	85.336	69.348	19.911	4.5805e-06	27.787	0.0013664	0.0014402	0.00039589	1251.7	1.5529e-05	1.5462e-05	1349.4	260	1.526e-05	1.5336e-05	337.68	93.026	77.956	22.633	1.4869e-05	31.601	176.093	-124.316	3.178	-155.809	-42.715	-86.982	-155.923	-148.939	107.749	59.941	-148.541	-142.544	-142.375	-134.886	-31.372	-135.453	-8191	255	
1407.825	1	1	0	0	0.34488	0.091186	0.11583	0.3444	0.26903	0.33613	0.15108	0.1347	0.025443	0.17952	0.28085	0.15117	0.14724	0.41195	0.062348	0.097727	-2.9562	-3.2708	-3.3854	-3.4792	-3.3521	-3.4354	-3.4521	-3.3208	-3.4729	-3.2958	-3.375	-3.5229	-3.1771	-3.5458	-3.3896	-3.3312	72.618	-88.873	106.099	69.435	121.339	-88.655	151.516	175.256	-115.771	-104.918	138.240	129.654	-143.131	22.504	113.454	49.200	0.00022842	0.00030704	5.7399e-05	1234.3	3.7142e-06	1.1262e-06	1328.5	243.85	7.6885e-06	8.9185e-06	303.77	85.473	69.892	19.879	6.2271e-06	27.97	0.0012816	0.0013422	0.00037572	1245.8	1.4653e-05	1.4816e-05	1345.3	258.83	1.4702e-05	1.4803e-05	336.13	93.01	77.766	22.513	1.4448e-05	31.426	-142.689	70.092	-92.351	-155.704	-132.113	-4.338	-155.885	-149.076	0.862	-116.243	-148.585	-142.412	-142.251	-135.336	44.337	-135.367	-8191	255	
1407.921	1	1	0	0	0.023344	0.13017	0.14945	0.17967	0.090598	0.097541	0.28444	0.1983	0.087077	0.052334	0.17277	0.15396	0.13957	0.24422	0.10001	0.11445	-3.0312	-3.1354	-3.4146	-3.4771	-3.125	-3.4875	-3.5625	-3.4396	-3.4896	-3.0958	-3.4458	-3.2917	-3.2958	-3.4437	-3.1604	-3.3083	-120.912	-150.501	87.013	186.040	-108.591	-37.086	146.045	152.813	-103.633	74.850	82.347	-125.665	73.345	59.641	115.983	153.542	0.0001966	0.00017305	0.00010306	1235.2	1.1002e-05	3.2717e-06	1334.4	246.2	1.1959e-06	8.9936e-06	303.32	85.33	69.563	19.913	2.3013e-06	28.027	0.0012189	0.001264	0.00034908	1241.9	1.3233e-05	1.333e-05	1339.8	256.48	1.2913e-05	1.2839e-05	328.65	91.647	76.287	22.099	1.2693e-05	30.981	-147.722	3.192	-0.450	-155.932	-102.371	-45.593	-156.121	-148.870	1.554	11.833	-148.438	-142.446	-142.442	-135.369	-40.030	-135.424	-8191	255	
1408.017	1	1	0	0	0.043558	0.075788	0.12388	0.22913	0.21276	0.23859	0.15975	0.044086	0.2074	0.1864	0.25469	0.10986	0.028551	0.11238	0.18895	0.15913	-3.0958	-3.0729	-3.3479	-3.2938	-3.2417	-3.4875	-3.5938	-3.2917	-3.6562	-3.1729	-3.5083	-3.4396	-3.2479	-3.575	-3.3521	-3.2062	-52.162	83.120	-48.330	146.043	-80.030	178.014	57.308	-121.175	20.312	-98.615	24.555	119.952	170.832	-122.799	189.296	-146.559	0.00013905	0.001293	2.3809e-05	1231.6	3.6589e-06	4.5868e-06	1330	244.62	3.2392e-06	1.9282e-06	306.21	85.788	69.885	19.965	7.8984e-06	27.933	0.0010952	0.0011413	0.00031591	1238	1.2285e-05	1.246e-05	1335.1	254.97	1.2147e-05	1.2173e-05	327.27	91.329	75.937	21.944	1.1887e-05	30.709	-114.614	-60.124	47.177	-155.756	-1.002	-166.158	-155.976	-148.751	-73.634	-142.410	-148.596	-142.402	-142.167	-135.008	-61.864	-134.983	-8191	255	
1408.111	1	1	0	0	0.1155	0.11978	0.19173	0.45382	0.11741	0.11791	0.10757	0.22206	0.047206	0.11875	0.29026	0.050955	0.10996	0.23682	0.11812	0.0089424	-3.1083	-3.2042	-3.2604	-3.5083	-3.1896	-3.5417	-3.4333	-3.5062	-3.4917	-3.2771	-3.3083	-3.5167	-3.0958	-3.5375	-3.2167	-3.2354	-50.457	-4.974	188.510	153.328	-52.740	-127.777	182.690	41.250	-118.000	115.863	99.518	104.844	131.508	42.376	25.468	102.091	0.00028232	0.00076319	0.00013372	1231.5	6.892e-06	2.6059e-06	1321.5	244.67	2.9088e-06	9.0587e-06	303.01	85.207	69.677	19.921	5.064e-06	27.781	0.0010154	0.0010638	0.00029344	1232.6	1.1318e-05	1.1366e-05	1328.1	253.69	1.1236e-05	1.1346e-05	324.38	90.396	75.017	21.731	1.1153e-05	30.421	-160.994	-154.542	-70.567	-155.370	-102.053	-27.732	-156.165	-149.018	72.800	-89.031	-148.503	-142.584	-142.075	-134.709	142.523	-135.480	-8191	255	
1408.208	1	1	0	0	0.1867	0.08445	0.2094	0.12137	0.1176	0.1179	0.22033	0.060881	0.020954	0.34367	0.11656	0.046712	0.38587	0.19339	0.026467	0.095131	-2.9667	-3.2687	-3.1333	-3.6604	-3.1458	-3.5042	-3.4792	-3.2146	-3.3458	-3.3292	-3.2958	-3.2771	-3.2188	-3.3583	-3.5167	-3.1896	95.692	-97.126	192.305	108.587	14.339	175.079	-161.372	-66.734	58.759	188.316	112.007	-78.765	-77.280	92.102	-48.871	146.289	0.00031718	0.00067591	1.018e-05	1232.9	7.3558e-06	4.6513e-06	1323.8	244.81	5.0361e-06	1.0288e-05	301.08	85.928	68.978	19.929	8.6527e-06	27.917	0.00096264	0.00099982	0.00027745	1229.5	1.0678e-05	1.0699e-05	1326.5	252.6	1.0541e-05	1.0448e-05	320.24	90.011	74.308	21.516	9.715e-06	30.104	187.907	11.320	-71.985	-155.743	-11.592	1.641	-156.019	-148.656	70.277	6.823	-148.651	-142.771	-142.215	-134.952	47.251	-135.037	-8191	255	
1408.328	1	1	0	0	0.18892	0.069914	0.13105	0.20205	0.18473	0.058405	0.09502	0.11844	0.11624	0.18695	0.15493	0.14745	0.10553	0.34682	0.092536	0.21065	-3.25	-3.175	-3.2833	-3.6708	-3.275	-3.3271	-3.7583	-3.3208	-3.5458	-3.2562	-3.1042	-3.5667	-3.2083	-3.475	-3.5646	-3.3229	138.152	170.167	-58.156	136.565	51.958	100.074	92.550	124.063	124.243	-73.419	-150.095	-165.524	-50.662	-160.619	70.485	-74.381	0.00019422	0.00036928	0.00019316	1228.1	3.7231e-06	5.0022e-06	1323	242.48	2.7688e-06	2.231e-06	301.03	85.256	69.307	19.919	5.9218e-06	27.997	0.00082693	0.00085546	0.00023441	1218.8	8.8545e-06	8.7205e-06	1314.9	247.71	8.1086e-06	7.8994e-06	311.37	88.159	72.382	20.948	6.9939e-06	29.224	-152.971	63.912	-69.466	-155.586	1.388	-131.046	-156.019	-149.169	-147.772	-3.761	-148.914	-142.441	-142.336	-134.874	43.756	-135.452	-8191	255	
1408.424	1	1	0	0	0.085324	0.021003	0.097819	0.089634	0.14975	0.2117	0.4042	0.32098	0.14309	0.092848	0.041059	0.1513	0.072909	0.2623	0.20784	0.22396	-3.3292	-3.1521	-3.2042	-3.7104	-3.0917	-3.5833	-3.6208	-3.2729	-3.6792	-3.3208	-3.2333	-3.4542	-3.2687	-3.3729	-3.5542	-3.1854	-150.437	91.652	186.798	165.877	158.784	170.637	123.433	122.582	-142.229	-56.101	161.483	-135.101	-26.559	-89.313	-66.203	180.772	0.00020227	0.00016463	6.6128e-05	1230.8	3.7146e-06	5.1092e-06	1322.2	243.67	3.6127e-06	4.721e-06	303.73	85.294	69.433	19.938	5.8594e-06	27.853	0.00058051	0.00057323	0.00015694	1208.8	5.7783e-06	5.64e-06	1302.1	243.47	5.0845e-06	4.8705e-06	301.96	86.407	70.365	20.311	4.4714e-06	28.496	-151.272	-33.981	42.691	-155.660	-20.043	103.949	-156.082	-148.680	-126.940	65.873	-148.553	-142.677	-142.004	-134.893	-13.078	-134.950	-8191	255	
1408.496	1	1	0	0	0.069904	0.30077	0.13971	0.31481	0.051466	0.036226	0.092116	0.22908	0.1215	0.18172	0.14635	0.10641	0.20636	0.040676	0.097678	0.14443	-2.9229	-3.6146	-3.1542	-3.7833	-3.3292	-3.2729	-3.7229	-3.1146	-3.4542	-3.3583	-3.3521	-3.4208	-3.4021	-3.3688	-3.4958	-3.1521	167.228	-157.534	170.835	129.043	120.920	3.488	177.894	136.693	106.703	178.804	-14.909	-156.005	137.162	103.360	20.955	75.187	0.00025415	0.00034928	5.3491e-05	1223.7	3.4806e-06	3.3836e-06	1319.7	243.48	4.2775e-06	7.5756e-06	301.85	85.191	69.04	19.876	7.4364e-06	27.774	0.00039528	0.00040524	0.00011051	1199.9	4.4064e-06	4.3456e-06	1297.6	241.99	4.29e-06	4.3407e-06	299.97	86.164	70.022	20.331	4.3731e-06	28.38	-162.247	-59.259	-25.011	-155.552	-82.005	28.528	-156.133	-148.872	-110.774	10.349	-148.843	-142.477	-142.220	-135.000	-13.874	-135.071	-8191	255	
1408.592	1	1	0	0	0.1461	0.13145	0.094687	0.29768	0.20912	0.28309	0.042416	0.29989	0.24314	0.062319	0.087186	0.2314	0.2115	0.084681	0.14583	0.29604	-3.1021	-3.3375	-3.2021	-3.6167	-3.2625	-3.2229	-3.775	-3.2083	-3.6604	-3.5104	-3.2604	-3.5042	-3.2146	-3.2333	-3.5542	-3.3667	-9.840	181.320	-138.088	-163.897	24.530	50.946	13.581	165.724	-53.258	170.459	-37.403	-165.022	110.821	-41.421	28.026	152.211	0.00022923	0.00054257	3.8859e-05	1224.8	3.1252e-06	5.226e-06	1321.5	243.75	4.4193e-06	2.1657e-06	303.9	85.488	69.642	19.965	6.2618e-06	27.802	0.00038419	0.00039204	0.00011008	1199.5	4.3528e-06	4.3458e-06	1299.2	241.98	4.4091e-06	4.4626e-06	300.75	86.117	70.315	20.37	4.5488e-06	28.472	-155.055	-106.172	-142.903	-155.691	-19.224	-88.531	-155.817	-148.884	-17.776	105.230	-148.506	-142.486	-142.125	-134.986	74.932	-135.666	-8191	255	
1408.688	1	1	0	0	0.063994	0.11898	0.041882	0.11768	0.10519	0.07926	0.19657	0.16315	0.18568	0.26856	0.026653	0.075232	0.24584	0.13684	0.053854	0.13539	-2.6958	-3.4458	-3.1917	-3.65	-3.3333	-3.2667	-3.6333	-3.2438	-3.2792	-3.3812	-3.2396	-3.4104	-3.5021	-3.1229	-3.4292	-3.3312	-133.881	-30.965	-81.785	-149.694	34.134	163.076	150.856	91.225	-30.626	116.028	22.053	-156.003	-164.363	-95.519	83.505	26.294	0.00025248	0.00060639	4.6766e-05	1226.9	4.3455e-06	1.1483e-06	1315.1	243.34	5.7888e-06	2.3965e-06	301.45	85.527	69.671	19.776	4.5914e-06	27.844	0.00040974	0.00041895	0.00011753	1202	4.6209e-06	4.682e-06	1298.1	242.37	4.7687e-06	4.8177e-06	301.96	86.46	70.704	20.424	5.0059e-06	28.695	-166.399	-99.135	-3.352	-155.750	-72.622	29.171	-155.976	-148.894	-59.690	-90.940	-148.266	-142.687	-142.106	-135.028	-65.768	-135.451	-8191	255	
1408.809	1	1	0	0	0.19734	0.072438	0.1392	0.28444	0.12994	0.29691	0.29319	0.33026	0.081798	0.16917	0.02162	0.25961	0.090398	0.23355	0.10995	0.16226	-2.7396	-3.4188	-2.8479	-3.525	-3.3542	-3.1354	-3.6104	-3.275	-3.1937	-3.5854	-3.375	-3.2875	-3.2708	-3.2333	-3.2292	-3.2417	153.412	-148.140	146.797	167.202	75.496	-98.709	103.488	180.178	12.671	127.115	138.388	192.576	-152.182	65.410	-103.923	63.370	0.00030106	0.00025314	0.00016698	1221.9	4.4598e-06	5.8315e-06	1323.3	244.01	5.1857e-06	8.3682e-06	303.91	85.405	69.271	19.936	5.5868e-06	27.85	0.00045241	0.00047066	0.00013395	1202	5.3507e-06	5.6e-06	1303.7	244.04	5.7914e-06	5.9518e-06	306.4	87.149	71.278	20.719	6.2079e-06	28.987	-165.380	45.617	-99.983	-155.662	-165.727	90.657	-155.729	-148.543	-68.751	-88.312	-149.169	-142.669	-142.059	-134.844	-39.701	-135.295	-8191	255	
1408.905	1	1	0	0	0.22761	0.29857	0.16398	0.29121	0.20618	0.1722	0.24035	0.11597	0.11024	0.05776	0.21312	0.32479	0.21963	0.24379	0.14464	0.032508	-2.7	-3.5167	-3.1729	-3.4896	-3.5875	-3.2292	-3.6208	-3.3604	-3.2313	-3.6688	-3.3563	-3.3771	-3.5646	-3.2604	-3.1042	-3.5375	133.373	64.687	-44.826	153.827	-86.432	-93.030	126.637	129.269	-33.491	85.852	143.965	164.773	122.851	-160.868	100.374	-94.483	0.00018774	0.00022586	0.00010598	1228.2	6.1311e-06	1.0696e-05	1322.3	243.39	2.8284e-06	1.8128e-06	300.89	85.824	69.699	19.793	2.0709e-06	27.761	0.00056051	0.00058272	0.0001643	1207.4	6.4823e-06	6.6186e-06	1306.3	245.62	6.7603e-06	6.8115e-06	308.77	87.796	72.145	20.894	7.2884e-06	29.314	-144.475	163.006	-101.792	-155.352	-108.452	-86.039	-156.055	-148.676	28.888	46.210	-148.930	-142.395	-142.208	-135.129	25.402	-135.015	-8191	255	
1409.001	1	1	0	0	0.16858	0.17009	0.36249	0.23392	0.16531	0.066846	0.19526	0.25288	0.10885	0.13391	0.11436	0.16205	0.33542	0.062858	0.12297	0.35701	-2.5729	-3.3833	-3.2292	-3.425	-3.5271	-2.9479	-3.6562	-3.2687	-3.2604	-3.5854	-3.3125	-3.4083	-3.425	-2.9938	-3.525	-3.2542	-29.948	44.092	165.032	155.207	-136.676	156.627	78.482	169.236	-42.784	-68.385	-30.783	137.439	133.434	65.343	-163.138	185.477	0.00022555	0.00040995	0.00019702	1222.9	1.0102e-05	7.806e-07	1319.6	242.14	3.0823e-06	9.187e-06	303.84	85.162	69.195	19.82	4.7661e-06	27.881	0.00066585	0.00070671	0.00019962	1213.6	7.9181e-06	8.1427e-06	1312.4	247.42	8.1713e-06	8.3425e-06	313.18	88.483	73.061	21.15	8.4887e-06	29.759	-137.524	89.375	29.388	-155.586	-24.887	-141.150	-155.946	-148.891	-30.323	-74.002	-148.880	-142.555	-142.266	-134.908	-89.570	-134.834	-8191	255	
1409.120	1	1	0	0	0.13929	0.0674	0.24938	0.18028	0.14195	0.25168	0.24929	0.066173	0.28045	0.06007	0.23364	0.28426	0.036834	0.11681	0.2877	0.19739	-2.7896	-3.3958	-3.225	-3.4562	-3.5292	-3.4271	-3.5062	-3.5812	-3.2792	-3.5354	-3.2979	-3.275	-3.5792	-3.1875	-3.4313	-3.4458	-125.616	-65.509	152.927	176.643	-112.976	85.047	153.167	-43.714	-116.533	58.972	125.274	84.368	-76.985	136.484	-116.867	-143.263	0.00026075	0.00026529	4.5014e-05	1225.9	5.766e-06	5.3086e-06	1316.7	243.29	3.9234e-06	1.1397e-05	301	85.862	68.956	19.885	3.2269e-06	27.747	0.00074418	0.00077476	0.00021711	1217.2	8.5052e-06	8.6727e-06	1310.3	248.6	8.7433e-06	8.7691e-06	315.07	88.967	73.292	21.322	9.0487e-06	29.831	-145.239	-30.831	-2.319	-155.435	-40.643	-78.597	-155.787	-148.645	-78.676	-96.084	-148.781	-142.618	-142.432	-135.088	-66.642	-135.432	-8191	255	
1409.192	1	1	0	0	0.16493	0.034396	0.091236	0.15596	0.08442	0.16426	0.23903	0.056617	0.13476	0.30292	0.068564	0.06945	0.091429	0.13836	0.21841	0.06405	-2.6271	-3.4792	-3.1208	-3.275	-3.5479	-3.0083	-3.5792	-3.6208	-3.0625	-3.5583	-3.4062	-3.2333	-3.4917	-3.3625	-3.2229	-3.4854	40.604	-87.192	-156.684	117.417	106.238	188.616	71.652	69.734	-91.228	24.884	116.297	172.828	140.488	11.236	-113.818	12.173	0.00023411	0.00022041	8.9072e-05	1229.3	5.9692e-06	4.4333e-06	1316.8	244.53	3.2747e-06	6.8333e-06	300.85	85.778	69.697	19.993	5.3862e-06	27.781	0.00079744	0.00083942	0.00023363	1219.3	9.3486e-06	9.4591e-06	1317.5	250.07	9.6013e-06	9.8053e-06	318.63	89.676	74.26	21.598	1.0404e-05	30.229	-152.323	117.628	-60.042	-155.497	-34.150	-24.910	-155.754	-148.608	-109.766	22.318	-148.898	-142.737	-142.365	-135.118	9.661	-135.399	-8191	255	
#DATA ENDS
